SpectraSuite Data File
++++++++++++++++++++++++++++++++++++
Date: Fri Oct 04 12:13:30 GMT-05:00 2013
User: price-jones
Dark Spectrum Present: No
Reference Spectrum Present: No
Number of Sampled Component Spectra: 1
Spectrometers: USB2+H05261
Integration Time (usec): 10000 (USB2+H05261)
Spectra Averaged: 1 (USB2+H05261)
Boxcar Smoothing: 0 (USB2+H05261)
Correct for Electrical Dark: No (USB2+H05261)
Strobe/Lamp Enabled: No (USB2+H05261)
Correct for Detector Non-linearity: No (USB2+H05261)
Correct for Stray Light: No (USB2+H05261)
Number of Pixels in Processed Spectrum: 2048
>>>>>Begin Processed Spectral Data<<<<<
365.73	16.38
365.92	16.38
366.12	16.38
366.32	0.00
366.52	0.00
366.72	0.00
366.91	0.00
367.11	0.00
367.31	0.00
367.51	0.00
367.70	0.00
367.90	0.00
368.10	0.00
368.30	0.00
368.49	0.00
368.69	0.00
368.89	0.00
369.09	0.00
369.28	0.00
369.48	0.00
369.68	0.00
369.87	0.00
370.07	0.00
370.27	0.00
370.47	0.00
370.66	0.00
370.86	0.00
371.06	9.36
371.25	9.36
371.45	0.00
371.65	2.34
371.84	0.00
372.04	0.00
372.24	84.26
372.44	0.00
372.63	0.00
372.83	42.13
373.03	0.00
373.22	0.00
373.42	11.70
373.62	0.00
373.81	58.51
374.01	0.00
374.21	0.00
374.40	65.54
374.60	0.00
374.79	86.60
374.99	0.00
375.19	16.38
375.38	70.22
375.58	77.24
375.78	32.77
375.97	0.00
376.17	4.68
376.37	32.77
376.56	4.68
376.76	30.43
376.95	56.17
377.15	21.06
377.35	11.70
377.54	51.49
377.74	42.13
377.93	0.00
378.13	0.00
378.33	0.00
378.52	30.43
378.72	21.06
378.91	4.68
379.11	0.00
379.31	23.41
379.50	23.41
379.70	81.92
379.89	0.00
380.09	0.00
380.28	37.45
380.48	63.19
380.68	28.09
380.87	7.02
381.07	51.49
381.26	0.00
381.46	0.00
381.65	18.72
381.85	23.41
382.04	49.15
382.24	25.75
382.43	9.36
382.63	0.00
382.83	32.77
383.02	32.77
383.22	46.81
383.41	0.00
383.61	18.72
383.80	53.83
384.00	25.75
384.19	74.90
384.39	88.94
384.58	58.51
384.78	0.00
384.97	0.00
385.17	11.70
385.36	28.09
385.56	37.45
385.75	16.38
385.95	0.00
386.14	0.00
386.34	14.04
386.53	56.17
386.72	65.54
386.92	18.72
387.11	0.00
387.31	114.69
387.50	46.81
387.70	53.83
387.89	35.11
388.09	0.00
388.28	95.96
388.48	30.43
388.67	0.00
388.86	44.47
389.06	25.75
389.25	2.34
389.45	0.00
389.64	0.00
389.84	56.17
390.03	0.00
390.22	95.96
390.42	107.66
390.61	0.00
390.81	0.00
391.00	0.00
391.19	4.68
391.39	102.98
391.58	30.43
391.78	0.00
391.97	2.34
392.16	74.90
392.36	72.56
392.55	100.64
392.75	70.22
392.94	23.41
393.13	58.51
393.33	0.00
393.52	23.41
393.71	32.77
393.91	0.00
394.10	23.41
394.29	0.00
394.49	46.81
394.68	23.41
394.88	42.13
395.07	0.00
395.26	32.77
395.46	11.70
395.65	0.00
395.84	91.28
396.04	60.85
396.23	39.79
396.42	42.13
396.62	11.70
396.81	0.00
397.00	60.85
397.19	0.00
397.39	65.54
397.58	2.34
397.77	58.51
397.97	67.88
398.16	28.09
398.35	32.77
398.55	37.45
398.74	0.00
398.93	0.00
399.12	46.81
399.32	7.02
399.51	42.13
399.70	14.04
399.90	42.13
400.09	4.68
400.28	0.00
400.47	0.00
400.67	37.45
400.86	0.00
401.05	39.79
401.24	86.60
401.44	53.83
401.63	0.00
401.82	0.00
402.01	0.00
402.21	0.00
402.40	11.70
402.59	51.49
402.78	58.51
402.97	0.00
403.17	0.00
403.36	16.38
403.55	28.09
403.74	2.34
403.93	0.00
404.13	70.22
404.32	9.36
404.51	25.75
404.70	44.47
404.89	0.00
405.09	0.00
405.28	23.41
405.47	0.00
405.66	44.47
405.85	51.49
406.05	44.47
406.24	0.00
406.43	0.00
406.62	30.43
406.81	72.56
407.00	0.00
407.20	44.47
407.39	0.00
407.58	7.02
407.77	0.00
407.96	0.00
408.15	0.00
408.34	7.02
408.54	0.00
408.73	4.68
408.92	0.00
409.11	2.34
409.30	63.19
409.49	25.75
409.68	60.85
409.87	60.85
410.07	2.34
410.26	86.60
410.45	0.00
410.64	56.17
410.83	35.11
411.02	35.11
411.21	58.51
411.40	44.47
411.59	56.17
411.78	0.00
411.98	28.09
412.17	0.00
412.36	0.00
412.55	86.60
412.74	102.98
412.93	117.03
413.12	0.00
413.31	18.72
413.50	23.41
413.69	7.02
413.88	23.41
414.07	60.85
414.26	32.77
414.45	60.85
414.64	0.00
414.83	0.00
415.02	11.70
415.22	39.79
415.41	39.79
415.60	53.83
415.79	0.00
415.98	72.56
416.17	0.00
416.36	0.00
416.55	0.00
416.74	21.06
416.93	65.54
417.12	23.41
417.31	49.15
417.50	74.90
417.69	70.22
417.88	35.11
418.07	18.72
418.26	21.06
418.45	58.51
418.64	18.72
418.83	51.49
419.02	25.75
419.21	35.11
419.39	37.45
419.58	0.00
419.77	0.00
419.96	0.00
420.15	0.00
420.34	44.47
420.53	56.17
420.72	23.41
420.91	0.00
421.10	0.00
421.29	53.83
421.48	35.11
421.67	32.77
421.86	0.00
422.05	0.00
422.24	30.43
422.43	21.06
422.61	11.70
422.80	28.09
422.99	74.90
423.18	49.15
423.37	0.00
423.56	25.75
423.75	51.49
423.94	7.02
424.13	0.00
424.32	28.09
424.50	35.11
424.69	79.58
424.88	9.36
425.07	0.00
425.26	21.06
425.45	25.75
425.64	18.72
425.83	14.04
426.01	28.09
426.20	0.00
426.39	0.00
426.58	0.00
426.77	44.47
426.96	39.79
427.15	51.49
427.33	77.24
427.52	67.88
427.71	2.34
427.90	25.75
428.09	0.00
428.28	56.17
428.46	4.68
428.65	23.41
428.84	51.49
429.03	9.36
429.22	0.00
429.40	9.36
429.59	30.43
429.78	42.13
429.97	88.94
430.16	30.43
430.34	72.56
430.53	60.85
430.72	46.81
430.91	37.45
431.10	30.43
431.28	102.98
431.47	21.06
431.66	67.88
431.85	21.06
432.03	39.79
432.22	0.00
432.41	18.72
432.60	86.60
432.79	25.75
432.97	42.13
433.16	42.13
433.35	84.26
433.54	77.24
433.72	0.00
433.91	21.06
434.10	30.43
434.28	0.00
434.47	44.47
434.66	44.47
434.85	77.24
435.03	56.17
435.22	4.68
435.41	23.41
435.59	21.06
435.78	49.15
435.97	70.22
436.16	53.83
436.34	0.00
436.53	42.13
436.72	0.00
436.90	4.68
437.09	0.00
437.28	74.90
437.46	37.45
437.65	51.49
437.84	9.36
438.02	0.00
438.21	37.45
438.40	0.00
438.58	0.00
438.77	0.00
438.96	16.38
439.14	0.00
439.33	0.00
439.52	0.00
439.70	9.36
439.89	7.02
440.08	49.15
440.26	86.60
440.45	60.85
440.63	4.68
440.82	114.69
441.01	0.00
441.19	18.72
441.38	0.00
441.57	23.41
441.75	23.41
441.94	67.88
442.12	63.19
442.31	77.24
442.50	58.51
442.68	35.11
442.87	2.34
443.05	0.00
443.24	32.77
443.43	32.77
443.61	51.49
443.80	39.79
443.98	4.68
444.17	79.58
444.35	14.04
444.54	0.00
444.73	0.00
444.91	0.00
445.10	0.00
445.28	42.13
445.47	16.38
445.65	51.49
445.84	21.06
446.02	32.77
446.21	49.15
446.39	14.04
446.58	53.83
446.77	0.00
446.95	51.49
447.14	0.00
447.32	23.41
447.51	0.00
447.69	0.00
447.88	51.49
448.06	56.17
448.25	51.49
448.43	11.70
448.62	9.36
448.80	0.00
448.99	35.11
449.17	0.00
449.36	65.54
449.54	30.43
449.73	35.11
449.91	32.77
450.10	25.75
450.28	51.49
450.46	72.56
450.65	0.00
450.83	32.77
451.02	35.11
451.20	56.17
451.39	67.88
451.57	2.34
451.76	0.00
451.94	25.75
452.13	30.43
452.31	21.06
452.49	0.00
452.68	2.34
452.86	9.36
453.05	30.43
453.23	51.49
453.42	7.02
453.60	11.70
453.78	49.15
453.97	25.75
454.15	0.00
454.34	35.11
454.52	37.45
454.70	0.00
454.89	72.56
455.07	63.19
455.26	28.09
455.44	63.19
455.62	91.28
455.81	0.00
455.99	0.00
456.17	0.00
456.36	0.00
456.54	65.54
456.73	49.15
456.91	0.00
457.09	0.00
457.28	39.79
457.46	58.51
457.64	35.11
457.83	30.43
458.01	56.17
458.19	0.00
458.38	25.75
458.56	0.00
458.74	28.09
458.93	0.00
459.11	42.13
459.29	42.13
459.48	0.00
459.66	46.81
459.84	102.98
460.03	56.17
460.21	72.56
460.39	32.77
460.57	25.75
460.76	28.09
460.94	16.38
461.12	4.68
461.31	0.00
461.49	114.69
461.67	67.88
461.85	65.54
462.04	4.68
462.22	37.45
462.40	51.49
462.59	9.36
462.77	0.00
462.95	35.11
463.13	58.51
463.32	46.81
463.50	0.00
463.68	7.02
463.86	60.85
464.05	0.00
464.23	18.72
464.41	14.04
464.59	56.17
464.78	56.17
464.96	74.90
465.14	2.34
465.32	0.00
465.50	11.70
465.69	0.00
465.87	9.36
466.05	58.51
466.23	53.83
466.41	11.70
466.60	28.09
466.78	65.54
466.96	0.00
467.14	18.72
467.32	0.00
467.51	70.22
467.69	107.66
467.87	28.09
468.05	18.72
468.23	46.81
468.41	77.24
468.60	35.11
468.78	25.75
468.96	21.06
469.14	18.72
469.32	67.88
469.50	30.43
469.69	0.00
469.87	0.00
470.05	16.38
470.23	49.15
470.41	93.62
470.59	0.00
470.77	23.41
470.95	39.79
471.14	102.98
471.32	46.81
471.50	0.00
471.68	56.17
471.86	32.77
472.04	18.72
472.22	121.71
472.40	77.24
472.58	23.41
472.77	58.51
472.95	9.36
473.13	0.00
473.31	79.58
473.49	60.85
473.67	70.22
473.85	0.00
474.03	60.85
474.21	9.36
474.39	67.88
474.57	0.00
474.75	88.94
474.93	0.00
475.12	30.43
475.30	7.02
475.48	102.98
475.66	2.34
475.84	7.02
476.02	2.34
476.20	70.22
476.38	32.77
476.56	65.54
476.74	28.09
476.92	21.06
477.10	25.75
477.28	7.02
477.46	63.19
477.64	107.66
477.82	0.00
478.00	74.90
478.18	42.13
478.36	72.56
478.54	56.17
478.72	25.75
478.90	65.54
479.08	9.36
479.26	9.36
479.44	0.00
479.62	49.15
479.80	46.81
479.98	18.72
480.16	51.49
480.34	42.13
480.52	0.00
480.70	77.24
480.88	51.49
481.06	30.43
481.24	112.35
481.41	79.58
481.59	110.01
481.77	35.11
481.95	44.47
482.13	37.45
482.31	70.22
482.49	14.04
482.67	65.54
482.85	91.28
483.03	0.00
483.21	42.13
483.39	16.38
483.57	2.34
483.74	21.06
483.92	67.88
484.10	46.81
484.28	49.15
484.46	9.36
484.64	46.81
484.82	74.90
485.00	91.28
485.18	60.85
485.35	9.36
485.53	32.77
485.71	88.94
485.89	0.00
486.07	16.38
486.25	44.47
486.43	4.68
486.61	100.64
486.78	23.41
486.96	21.06
487.14	49.15
487.32	4.68
487.50	60.85
487.68	7.02
487.85	30.43
488.03	32.77
488.21	56.17
488.39	105.32
488.57	16.38
488.75	88.94
488.92	95.96
489.10	0.00
489.28	60.85
489.46	49.15
489.64	46.81
489.81	35.11
489.99	51.49
490.17	86.60
490.35	16.38
490.53	93.62
490.70	77.24
490.88	7.02
491.06	7.02
491.24	39.79
491.41	14.04
491.59	16.38
491.77	65.54
491.95	53.83
492.13	11.70
492.30	88.94
492.48	74.90
492.66	23.41
492.84	65.54
493.01	0.00
493.19	63.19
493.37	0.00
493.54	35.11
493.72	107.66
493.90	81.92
494.08	70.22
494.25	0.00
494.43	105.32
494.61	60.85
494.79	18.72
494.96	16.38
495.14	37.45
495.32	46.81
495.49	77.24
495.67	107.66
495.85	63.19
496.02	39.79
496.20	131.07
496.38	72.56
496.55	0.00
496.73	107.66
496.91	58.51
497.09	95.96
497.26	65.54
497.44	0.00
497.62	46.81
497.79	4.68
497.97	4.68
498.14	21.06
498.32	74.90
498.50	63.19
498.67	0.00
498.85	18.72
499.03	23.41
499.20	58.51
499.38	11.70
499.56	28.09
499.73	0.00
499.91	65.54
500.08	98.30
500.26	95.96
500.44	84.26
500.61	67.88
500.79	49.15
500.97	28.09
501.14	16.38
501.32	16.38
501.49	49.15
501.67	0.00
501.84	32.77
502.02	65.54
502.20	86.60
502.37	32.77
502.55	98.30
502.72	53.83
502.90	25.75
503.07	119.37
503.25	39.79
503.43	35.11
503.60	2.34
503.78	4.68
503.95	21.06
504.13	4.68
504.30	65.54
504.48	16.38
504.65	53.83
504.83	21.06
505.01	37.45
505.18	81.92
505.36	88.94
505.53	0.00
505.71	14.04
505.88	7.02
506.06	4.68
506.23	32.77
506.41	7.02
506.58	35.11
506.76	46.81
506.93	0.00
507.11	37.45
507.28	102.98
507.46	0.00
507.63	0.00
507.81	51.49
507.98	9.36
508.16	53.83
508.33	86.60
508.50	39.79
508.68	42.13
508.85	25.75
509.03	0.00
509.20	63.19
509.38	37.45
509.55	49.15
509.73	46.81
509.90	46.81
510.08	39.79
510.25	56.17
510.42	11.70
510.60	58.51
510.77	70.22
510.95	88.94
511.12	0.00
511.30	51.49
511.47	25.75
511.64	23.41
511.82	74.90
511.99	28.09
512.17	25.75
512.34	0.00
512.51	51.49
512.69	65.54
512.86	35.11
513.04	21.06
513.21	37.45
513.38	49.15
513.56	0.00
513.73	4.68
513.90	102.98
514.08	46.81
514.25	72.56
514.43	77.24
514.60	124.05
514.77	14.04
514.95	21.06
515.12	0.00
515.29	16.38
515.47	42.13
515.64	72.56
515.81	74.90
515.99	0.00
516.16	14.04
516.33	70.22
516.51	0.00
516.68	81.92
516.85	7.02
517.03	56.17
517.20	18.72
517.37	77.24
517.54	25.75
517.72	21.06
517.89	0.00
518.06	72.56
518.24	86.60
518.41	77.24
518.58	0.00
518.75	28.09
518.93	49.15
519.10	56.17
519.27	0.00
519.45	58.51
519.62	46.81
519.79	30.43
519.96	4.68
520.14	81.92
520.31	21.06
520.48	53.83
520.65	42.13
520.83	0.00
521.00	79.58
521.17	0.00
521.34	49.15
521.52	44.47
521.69	16.38
521.86	9.36
522.03	51.49
522.20	65.54
522.38	79.58
522.55	0.00
522.72	93.62
522.89	32.77
523.07	42.13
523.24	65.54
523.41	60.85
523.58	39.79
523.75	58.51
523.92	4.68
524.10	84.26
524.27	11.70
524.44	107.66
524.61	60.85
524.78	0.00
524.96	60.85
525.13	65.54
525.30	86.60
525.47	56.17
525.64	21.06
525.81	23.41
525.98	60.85
526.16	44.47
526.33	98.30
526.50	9.36
526.67	119.37
526.84	37.45
527.01	4.68
527.18	51.49
527.36	9.36
527.53	56.17
527.70	72.56
527.87	91.28
528.04	16.38
528.21	81.92
528.38	56.17
528.55	0.00
528.72	32.77
528.89	39.79
529.07	28.09
529.24	9.36
529.41	98.30
529.58	95.96
529.75	23.41
529.92	16.38
530.09	30.43
530.26	51.49
530.43	63.19
530.60	51.49
530.77	32.77
530.94	2.34
531.11	72.56
531.28	42.13
531.46	114.69
531.63	0.00
531.80	65.54
531.97	65.54
532.14	7.02
532.31	0.00
532.48	70.22
532.65	60.85
532.82	147.45
532.99	0.00
533.16	21.06
533.33	70.22
533.50	100.64
533.67	32.77
533.84	2.34
534.01	37.45
534.18	53.83
534.35	60.85
534.52	35.11
534.69	79.58
534.86	23.41
535.03	51.49
535.20	65.54
535.37	51.49
535.54	51.49
535.71	51.49
535.88	14.04
536.05	7.02
536.22	79.58
536.38	114.69
536.55	74.90
536.72	56.17
536.89	21.06
537.06	0.00
537.23	30.43
537.40	0.00
537.57	0.00
537.74	53.83
537.91	67.88
538.08	14.04
538.25	77.24
538.42	0.00
538.59	21.06
538.75	14.04
538.92	18.72
539.09	46.81
539.26	7.02
539.43	21.06
539.60	49.15
539.77	86.60
539.94	79.58
540.11	51.49
540.28	114.69
540.44	32.77
540.61	53.83
540.78	100.64
540.95	35.11
541.12	16.38
541.29	67.88
541.46	77.24
541.62	60.85
541.79	28.09
541.96	0.00
542.13	49.15
542.30	35.11
542.47	46.81
542.63	37.45
542.80	35.11
542.97	16.38
543.14	0.00
543.31	107.66
543.48	74.90
543.64	63.19
543.81	63.19
543.98	32.77
544.15	93.62
544.32	0.00
544.48	51.49
544.65	67.88
544.82	21.06
544.99	0.00
545.16	35.11
545.32	77.24
545.49	42.13
545.66	4.68
545.83	23.41
546.00	49.15
546.16	0.00
546.33	11.70
546.50	0.00
546.67	39.79
546.83	72.56
547.00	0.00
547.17	35.11
547.34	4.68
547.50	2.34
547.67	0.00
547.84	0.00
548.00	18.72
548.17	42.13
548.34	98.30
548.51	110.01
548.67	11.70
548.84	56.17
549.01	51.49
549.18	0.00
549.34	0.00
549.51	53.83
549.68	65.54
549.84	72.56
550.01	18.72
550.18	35.11
550.34	70.22
550.51	42.13
550.68	107.66
550.84	14.04
551.01	7.02
551.18	0.00
551.34	93.62
551.51	72.56
551.68	18.72
551.84	88.94
552.01	0.00
552.18	11.70
552.34	49.15
552.51	93.62
552.68	25.75
552.84	42.13
553.01	30.43
553.18	65.54
553.34	28.09
553.51	0.00
553.67	79.58
553.84	37.45
554.01	124.05
554.17	95.96
554.34	81.92
554.51	74.90
554.67	77.24
554.84	0.00
555.00	67.88
555.17	63.19
555.33	32.77
555.50	51.49
555.67	25.75
555.83	39.79
556.00	0.00
556.16	86.60
556.33	9.36
556.50	60.85
556.66	9.36
556.83	25.75
556.99	79.58
557.16	60.85
557.32	44.47
557.49	56.17
557.65	0.00
557.82	49.15
557.98	39.79
558.15	39.79
558.32	7.02
558.48	23.41
558.65	56.17
558.81	46.81
558.98	124.05
559.14	0.00
559.31	0.00
559.47	60.85
559.64	0.00
559.80	16.38
559.97	51.49
560.13	14.04
560.30	112.35
560.46	70.22
560.63	7.02
560.79	53.83
560.96	74.90
561.12	2.34
561.29	32.77
561.45	16.38
561.61	0.00
561.78	152.13
561.94	81.92
562.11	126.39
562.27	11.70
562.44	0.00
562.60	0.00
562.77	46.81
562.93	56.17
563.10	35.11
563.26	42.13
563.42	46.81
563.59	65.54
563.75	0.00
563.92	0.00
564.08	60.85
564.24	0.00
564.41	4.68
564.57	49.15
564.74	70.22
564.90	21.06
565.07	107.66
565.23	11.70
565.39	23.41
565.56	0.00
565.72	81.92
565.88	46.81
566.05	16.38
566.21	0.00
566.38	51.49
566.54	44.47
566.70	67.88
566.87	25.75
567.03	98.30
567.19	28.09
567.36	32.77
567.52	7.02
567.68	0.00
567.85	11.70
568.01	0.00
568.17	0.00
568.34	25.75
568.50	44.47
568.66	72.56
568.83	81.92
568.99	72.56
569.15	102.98
569.32	0.00
569.48	42.13
569.64	16.38
569.81	37.45
569.97	0.00
570.13	0.00
570.30	0.00
570.46	79.58
570.62	35.11
570.78	37.45
570.95	30.43
571.11	18.72
571.27	28.09
571.43	14.04
571.60	42.13
571.76	53.83
571.92	84.26
572.09	42.13
572.25	18.72
572.41	74.90
572.57	46.81
572.74	42.13
572.90	51.49
573.06	49.15
573.22	72.56
573.38	56.17
573.55	84.26
573.71	95.96
573.87	44.47
574.03	0.00
574.20	0.00
574.36	18.72
574.52	0.00
574.68	72.56
574.84	21.06
575.01	65.54
575.17	37.45
575.33	32.77
575.49	56.17
575.65	81.92
575.82	70.22
575.98	95.96
576.14	30.43
576.30	81.92
576.46	63.19
576.62	70.22
576.79	44.47
576.95	39.79
577.11	9.36
577.27	32.77
577.43	42.13
577.59	30.43
577.75	35.11
577.92	63.19
578.08	114.69
578.24	44.47
578.40	81.92
578.56	14.04
578.72	0.00
578.88	42.13
579.04	60.85
579.21	0.00
579.37	30.43
579.53	77.24
579.69	7.02
579.85	39.79
580.01	37.45
580.17	60.85
580.33	7.02
580.49	70.22
580.65	25.75
580.82	88.94
580.98	126.39
581.14	65.54
581.30	86.60
581.46	25.75
581.62	58.51
581.78	79.58
581.94	98.30
582.10	107.66
582.26	58.51
582.42	4.68
582.58	0.00
582.74	21.06
582.90	0.00
583.06	2.34
583.22	63.19
583.38	21.06
583.54	30.43
583.70	88.94
583.86	81.92
584.02	53.83
584.18	67.88
584.34	56.17
584.50	212.99
584.66	1109.41
584.82	2525.44
584.98	3456.97
585.14	3169.09
585.30	2050.31
585.46	1240.48
585.62	807.48
585.78	454.06
585.94	131.07
586.10	112.35
586.26	72.56
586.42	88.94
586.58	91.28
586.74	16.38
586.90	0.00
587.06	67.88
587.22	14.04
587.38	56.17
587.54	37.45
587.70	177.88
587.86	376.83
588.02	327.68
588.18	297.25
588.34	131.07
588.49	131.07
588.65	53.83
588.81	35.11
588.97	30.43
589.13	28.09
589.29	11.70
589.45	0.00
589.61	0.00
589.77	86.60
589.93	67.88
590.08	2.34
590.24	35.11
590.40	11.70
590.56	28.09
590.72	60.85
590.88	77.24
591.04	67.88
591.20	32.77
591.35	46.81
591.51	21.06
591.67	70.22
591.83	0.00
591.99	35.11
592.15	7.02
592.31	14.04
592.46	0.00
592.62	25.75
592.78	105.32
592.94	35.11
593.10	44.47
593.26	49.15
593.41	91.28
593.57	14.04
593.73	0.00
593.89	182.56
594.05	404.91
594.20	547.69
594.36	449.38
594.52	299.59
594.68	241.08
594.84	175.54
594.99	95.96
595.15	67.88
595.31	49.15
595.47	100.64
595.62	49.15
595.78	140.43
595.94	35.11
596.10	46.81
596.25	91.28
596.41	18.72
596.57	42.13
596.73	32.77
596.88	46.81
597.04	102.98
597.20	56.17
597.36	124.05
597.51	126.39
597.67	126.39
597.83	72.56
597.99	84.26
598.14	107.66
598.30	93.62
598.46	117.03
598.61	0.00
598.77	0.00
598.93	21.06
599.09	0.00
599.24	44.47
599.40	4.68
599.56	0.00
599.71	0.00
599.87	32.77
600.03	35.11
600.18	18.72
600.34	72.56
600.50	4.68
600.65	121.71
600.81	135.75
600.97	0.00
601.12	60.85
601.28	105.32
601.44	16.38
601.59	91.28
601.75	44.47
601.91	56.17
602.06	32.77
602.22	32.77
602.37	25.75
602.53	154.48
602.69	145.11
602.84	58.51
603.00	105.32
603.16	133.41
603.31	39.79
603.47	67.88
603.62	23.41
603.78	0.00
603.94	60.85
604.09	72.56
604.25	37.45
604.40	79.58
604.56	0.00
604.71	16.38
604.87	79.58
605.03	77.24
605.18	60.85
605.34	25.75
605.49	11.70
605.65	42.13
605.80	7.02
605.96	28.09
606.12	44.47
606.27	126.39
606.43	49.15
606.58	81.92
606.74	51.49
606.89	131.07
607.05	386.19
607.20	411.93
607.36	407.25
607.51	285.55
607.67	210.65
607.82	77.24
607.98	32.77
608.13	39.79
608.29	39.79
608.44	86.60
608.60	72.56
608.75	4.68
608.91	30.43
609.06	276.18
609.22	634.29
609.37	727.91
609.53	589.82
609.68	414.27
609.84	285.55
609.99	168.52
610.15	128.73
610.30	74.90
610.46	119.37
610.61	23.41
610.76	28.09
610.92	46.81
611.07	74.90
611.23	81.92
611.38	35.11
611.54	86.60
611.69	58.51
611.84	32.77
612.00	56.17
612.15	0.00
612.31	58.51
612.46	77.24
612.62	25.75
612.77	0.00
612.92	100.64
613.08	107.66
613.23	37.45
613.39	65.54
613.54	9.36
613.69	231.71
613.85	582.79
614.00	1107.07
614.15	1039.20
614.31	784.08
614.46	507.90
614.62	402.57
614.77	201.29
614.92	81.92
615.08	84.26
615.23	95.96
615.38	35.11
615.54	0.00
615.69	63.19
615.84	194.26
616.00	229.37
616.15	325.33
616.30	273.84
616.46	161.50
616.61	166.18
616.76	63.19
616.92	42.13
617.07	44.47
617.22	30.43
617.37	4.68
617.53	0.00
617.68	53.83
617.83	128.73
617.99	37.45
618.14	44.47
618.29	81.92
618.45	7.02
618.60	81.92
618.75	53.83
618.90	91.28
619.06	35.11
619.21	67.88
619.36	25.75
619.51	84.26
619.67	0.00
619.82	0.00
619.97	35.11
620.12	46.81
620.28	60.85
620.43	0.00
620.58	65.54
620.73	60.85
620.89	124.05
621.04	88.94
621.19	88.94
621.34	119.37
621.49	248.10
621.65	145.11
621.80	102.98
621.95	77.24
622.10	79.58
622.25	121.71
622.41	42.13
622.56	86.60
622.71	16.38
622.86	46.81
623.01	25.75
623.16	35.11
623.32	7.02
623.47	86.60
623.62	58.51
623.77	42.13
623.92	65.54
624.07	39.79
624.23	0.00
624.38	53.83
624.53	74.90
624.68	25.75
624.83	35.11
624.98	77.24
625.13	11.70
625.29	53.83
625.44	95.96
625.59	35.11
625.74	0.00
625.89	16.38
626.04	112.35
626.19	259.80
626.34	531.30
626.49	554.71
626.65	454.06
626.80	348.74
626.95	234.05
627.10	154.48
627.25	30.43
627.40	18.72
627.55	9.36
627.70	98.30
627.85	46.81
628.00	63.19
628.15	39.79
628.30	51.49
628.45	23.41
628.60	114.69
628.76	2.34
628.91	7.02
629.06	110.01
629.21	0.00
629.36	21.06
629.51	0.00
629.66	32.77
629.81	35.11
629.96	84.26
630.11	212.99
630.26	205.97
630.41	245.76
630.56	107.66
630.71	65.54
630.86	0.00
631.01	21.06
631.16	0.00
631.31	51.49
631.46	0.00
631.61	70.22
631.76	30.43
631.91	21.06
632.06	39.79
632.21	49.15
632.36	11.70
632.51	53.83
632.66	51.49
632.81	65.54
632.96	201.29
633.10	421.30
633.25	402.57
633.40	320.65
633.55	149.79
633.70	110.01
633.85	88.94
634.00	67.88
634.15	102.98
634.30	46.81
634.45	11.70
634.60	32.77
634.75	56.17
634.90	44.47
635.05	2.34
635.19	0.00
635.34	72.56
635.49	63.19
635.64	65.54
635.79	46.81
635.94	0.00
636.09	0.00
636.24	60.85
636.39	72.56
636.53	0.00
636.68	0.00
636.83	79.58
636.98	37.45
637.13	67.88
637.28	30.43
637.43	72.56
637.57	23.41
637.72	170.86
637.87	372.15
638.02	711.52
638.17	755.99
638.32	592.16
638.46	379.17
638.61	273.84
638.76	198.95
638.91	65.54
639.06	63.19
639.20	95.96
639.35	23.41
639.50	0.00
639.65	241.08
639.80	774.72
639.94	1020.47
640.09	1167.93
640.24	983.02
640.39	613.22
640.54	496.19
640.68	269.16
640.83	147.45
640.98	138.09
641.13	46.81
641.27	152.13
641.42	60.85
641.57	46.81
641.72	63.19
641.86	16.38
642.01	58.51
642.16	63.19
642.31	37.45
642.45	58.51
642.60	0.00
642.75	28.09
642.90	25.75
643.04	91.28
643.19	39.79
643.34	53.83
643.48	77.24
643.63	4.68
643.78	53.83
643.93	37.45
644.07	4.68
644.22	42.13
644.37	32.77
644.51	93.62
644.66	51.49
644.81	46.81
644.95	4.68
645.10	0.00
645.25	28.09
645.39	56.17
645.54	63.19
645.69	65.54
645.83	44.47
645.98	67.88
646.13	72.56
646.27	0.00
646.42	0.00
646.57	49.15
646.71	23.41
646.86	77.24
647.00	11.70
647.15	77.24
647.30	110.01
647.44	11.70
647.59	0.00
647.74	49.15
647.88	107.66
648.03	98.30
648.17	42.13
648.32	0.00
648.47	21.06
648.61	88.94
648.76	98.30
648.90	28.09
649.05	0.00
649.20	42.13
649.34	0.00
649.49	70.22
649.63	72.56
649.78	98.30
649.92	28.09
650.07	98.30
650.21	315.97
650.36	454.06
650.51	594.50
650.65	524.28
650.80	320.65
650.94	212.99
651.09	180.22
651.23	159.16
651.38	60.85
651.52	39.79
651.67	16.38
651.81	21.06
651.96	67.88
652.10	39.79
652.25	0.00
652.39	35.11
652.54	102.98
652.68	53.83
652.83	110.01
652.97	201.29
653.12	238.73
653.26	250.44
653.41	224.69
653.55	98.30
653.70	91.28
653.84	107.66
653.99	32.77
654.13	95.96
654.27	14.04
654.42	35.11
654.56	39.79
654.71	51.49
654.85	49.15
655.00	32.77
655.14	72.56
655.29	32.77
655.43	49.15
655.57	63.19
655.72	100.64
655.86	72.56
656.01	4.68
656.15	56.17
656.30	14.04
656.44	7.02
656.58	32.77
656.73	79.58
656.87	49.15
657.01	44.47
657.16	0.00
657.30	93.62
657.45	11.70
657.59	9.36
657.73	30.43
657.88	35.11
658.02	81.92
658.16	39.79
658.31	14.04
658.45	0.00
658.60	4.68
658.74	11.70
658.88	16.38
659.03	21.06
659.17	110.01
659.31	58.51
659.46	170.86
659.60	308.95
659.74	381.51
659.89	297.25
660.03	271.50
660.17	163.84
660.32	107.66
660.46	124.05
660.60	86.60
660.74	2.34
660.89	18.72
661.03	46.81
661.17	79.58
661.32	0.00
661.46	21.06
661.60	16.38
661.74	86.60
661.89	72.56
662.03	72.56
662.17	32.77
662.31	60.85
662.46	81.92
662.60	2.34
662.74	7.02
662.88	60.85
663.03	7.02
663.17	93.62
663.31	100.64
663.45	18.72
663.60	44.47
663.74	0.00
663.88	11.70
664.02	18.72
664.17	32.77
664.31	0.00
664.45	0.00
664.59	18.72
664.73	0.00
664.88	32.77
665.02	30.43
665.16	65.54
665.30	72.56
665.44	112.35
665.59	56.17
665.73	14.04
665.87	0.00
666.01	0.00
666.15	4.68
666.29	4.68
666.44	49.15
666.58	51.49
666.72	0.00
666.86	25.75
667.00	28.09
667.14	28.09
667.28	138.09
667.43	252.78
667.57	442.36
667.71	573.43
667.85	519.60
667.99	360.44
668.13	248.10
668.27	138.09
668.41	95.96
668.56	70.22
668.70	72.56
668.84	67.88
668.98	86.60
669.12	0.00
669.26	56.17
669.40	42.13
669.54	56.17
669.68	49.15
669.82	0.00
669.96	65.54
670.10	65.54
670.25	0.00
670.39	25.75
670.53	16.38
670.67	86.60
670.81	9.36
670.95	0.00
671.09	39.79
671.23	156.82
671.37	259.80
671.51	276.18
671.65	327.68
671.79	252.78
671.93	114.69
672.07	168.52
672.21	18.72
672.35	18.72
672.49	51.49
672.63	74.90
672.77	65.54
672.91	16.38
673.05	0.00
673.19	21.06
673.33	28.09
673.47	0.00
673.61	79.58
673.75	0.00
673.89	56.17
674.03	21.06
674.17	0.00
674.31	56.17
674.45	16.38
674.59	30.43
674.73	18.72
674.87	0.00
675.01	9.36
675.15	0.00
675.29	67.88
675.43	53.83
675.56	0.00
675.70	0.00
675.84	0.00
675.98	0.00
676.12	0.00
676.26	35.11
676.40	11.70
676.54	16.38
676.68	35.11
676.82	11.70
676.96	18.72
677.10	21.06
677.23	23.41
677.37	0.00
677.51	0.00
677.65	23.41
677.79	32.77
677.93	0.00
678.07	11.70
678.21	21.06
678.34	16.38
678.48	51.49
678.62	95.96
678.76	9.36
678.90	0.00
679.04	65.54
679.18	0.00
679.31	16.38
679.45	88.94
679.59	39.79
679.73	0.00
679.87	42.13
680.00	63.19
680.14	93.62
680.28	0.00
680.42	30.43
680.56	84.26
680.70	84.26
680.83	25.75
680.97	70.22
681.11	72.56
681.25	46.81
681.39	0.00
681.52	0.00
681.66	0.00
681.80	25.75
681.94	37.45
682.07	102.98
682.21	37.45
682.35	37.45
682.49	37.45
682.62	16.38
682.76	4.68
682.90	67.88
683.04	0.00
683.17	77.24
683.31	0.00
683.45	46.81
683.59	91.28
683.72	35.11
683.86	35.11
684.00	25.75
684.13	0.00
684.27	30.43
684.41	7.02
684.55	18.72
684.68	98.30
684.82	0.00
684.96	18.72
685.09	51.49
685.23	37.45
685.37	21.06
685.50	21.06
685.64	72.56
685.78	49.15
685.91	16.38
686.05	32.77
686.19	74.90
686.32	0.00
686.46	0.00
686.60	2.34
686.73	7.02
686.87	25.75
687.01	16.38
687.14	65.54
687.28	16.38
687.42	91.28
687.55	53.83
687.69	18.72
687.82	79.58
687.96	7.02
688.10	81.92
688.23	56.17
688.37	2.34
688.50	0.00
688.64	58.51
688.78	32.77
688.91	30.43
689.05	18.72
689.18	0.00
689.32	63.19
689.46	46.81
689.59	0.00
689.73	0.00
689.86	60.85
690.00	9.36
690.13	51.49
690.27	49.15
690.41	0.00
690.54	4.68
690.68	28.09
690.81	0.00
690.95	35.11
691.08	25.75
691.22	21.06
691.35	2.34
691.49	21.06
691.62	0.00
691.76	21.06
691.89	35.11
692.03	14.04
692.16	74.90
692.30	21.06
692.43	98.30
692.57	121.71
692.70	229.37
692.84	222.35
692.97	259.80
693.11	187.24
693.24	63.19
693.38	194.26
693.51	112.35
693.65	11.70
693.78	9.36
693.92	0.00
694.05	0.00
694.19	9.36
694.32	32.77
694.45	0.00
694.59	74.90
694.72	0.00
694.86	49.15
694.99	30.43
695.13	0.00
695.26	88.94
695.39	63.19
695.53	72.56
695.66	51.49
695.80	0.00
695.93	35.11
696.07	98.30
696.20	60.85
696.33	58.51
696.47	2.34
696.60	100.64
696.73	32.77
696.87	18.72
697.00	67.88
697.14	0.00
697.27	32.77
697.40	72.56
697.54	91.28
697.67	39.79
697.80	23.41
697.94	18.72
698.07	44.47
698.21	11.70
698.34	16.38
698.47	16.38
698.61	88.94
698.74	0.00
698.87	56.17
699.01	0.00
699.14	11.70
699.27	16.38
699.40	0.00
699.54	114.69
699.67	21.06
699.80	35.11
699.94	51.49
700.07	0.00
700.20	93.62
700.34	21.06
700.47	0.00
700.60	65.54
700.73	0.00
700.87	28.09
701.00	11.70
701.13	32.77
701.26	42.13
701.40	0.00
701.53	51.49
701.66	0.00
701.79	63.19
701.93	88.94
702.06	114.69
702.19	9.36
702.32	117.03
702.46	56.17
702.59	30.43
702.72	95.96
702.85	205.97
702.99	266.82
703.12	491.51
703.25	507.90
703.38	397.89
703.51	332.36
703.65	243.42
703.78	264.48
703.91	224.69
704.04	51.49
704.17	56.17
704.31	70.22
704.44	39.79
704.57	0.00
704.70	11.70
704.83	0.00
704.96	18.72
705.10	67.88
705.23	30.43
>>>>>End Processed Spectral Data<<<<<
