SpectraSuite Data File
++++++++++++++++++++++++++++++++++++
Date: Fri Oct 04 12:13:36 GMT-05:00 2013
User: price-jones
Dark Spectrum Present: No
Reference Spectrum Present: No
Number of Sampled Component Spectra: 1
Spectrometers: USB2+H05261
Integration Time (usec): 10000 (USB2+H05261)
Spectra Averaged: 1 (USB2+H05261)
Boxcar Smoothing: 0 (USB2+H05261)
Correct for Electrical Dark: No (USB2+H05261)
Strobe/Lamp Enabled: No (USB2+H05261)
Correct for Detector Non-linearity: No (USB2+H05261)
Correct for Stray Light: No (USB2+H05261)
Number of Pixels in Processed Spectrum: 2048
>>>>>Begin Processed Spectral Data<<<<<
365.73	46.81
365.92	46.81
366.12	46.81
366.32	0.00
366.52	0.00
366.72	0.00
366.91	0.00
367.11	0.00
367.31	0.00
367.51	0.00
367.70	0.00
367.90	0.00
368.10	0.00
368.30	0.00
368.49	0.00
368.69	0.00
368.89	0.00
369.09	0.00
369.28	0.00
369.48	0.00
369.68	0.00
369.87	0.00
370.07	0.00
370.27	0.00
370.47	0.00
370.66	0.00
370.86	0.00
371.06	0.00
371.25	0.00
371.45	0.00
371.65	42.13
371.84	0.00
372.04	14.04
372.24	16.38
372.44	84.26
372.63	0.00
372.83	51.49
373.03	0.00
373.22	39.79
373.42	18.72
373.62	88.94
373.81	32.77
374.01	65.54
374.21	7.02
374.40	65.54
374.60	84.26
374.79	86.60
374.99	16.38
375.19	95.96
375.38	49.15
375.58	49.15
375.78	51.49
375.97	37.45
376.17	25.75
376.37	72.56
376.56	9.36
376.76	0.00
376.95	51.49
377.15	35.11
377.35	32.77
377.54	21.06
377.74	18.72
377.93	28.09
378.13	0.00
378.33	114.69
378.52	37.45
378.72	0.00
378.91	0.00
379.11	0.00
379.31	63.19
379.50	30.43
379.70	9.36
379.89	74.90
380.09	30.43
380.28	2.34
380.48	39.79
380.68	7.02
380.87	0.00
381.07	0.00
381.26	9.36
381.46	35.11
381.65	4.68
381.85	2.34
382.04	16.38
382.24	37.45
382.43	46.81
382.63	44.47
382.83	7.02
383.02	0.00
383.22	0.00
383.41	28.09
383.61	60.85
383.80	0.00
384.00	74.90
384.19	46.81
384.39	9.36
384.58	0.00
384.78	0.00
384.97	4.68
385.17	0.00
385.36	0.00
385.56	16.38
385.75	0.00
385.95	23.41
386.14	65.54
386.34	44.47
386.53	30.43
386.72	53.83
386.92	105.32
387.11	44.47
387.31	18.72
387.50	35.11
387.70	23.41
387.89	42.13
388.09	7.02
388.28	51.49
388.48	60.85
388.67	46.81
388.86	14.04
389.06	0.00
389.25	0.00
389.45	53.83
389.64	28.09
389.84	0.00
390.03	0.00
390.22	58.51
390.42	46.81
390.61	0.00
390.81	14.04
391.00	0.00
391.19	88.94
391.39	42.13
391.58	46.81
391.78	0.00
391.97	7.02
392.16	77.24
392.36	42.13
392.55	2.34
392.75	86.60
392.94	72.56
393.13	39.79
393.33	0.00
393.52	37.45
393.71	9.36
393.91	65.54
394.10	23.41
394.29	0.00
394.49	23.41
394.68	25.75
394.88	35.11
395.07	60.85
395.26	60.85
395.46	44.47
395.65	81.92
395.84	0.00
396.04	18.72
396.23	0.00
396.42	42.13
396.62	0.00
396.81	32.77
397.00	72.56
397.19	14.04
397.39	79.58
397.58	0.00
397.77	16.38
397.97	51.49
398.16	0.00
398.35	18.72
398.55	0.00
398.74	28.09
398.93	0.00
399.12	46.81
399.32	39.79
399.51	21.06
399.70	35.11
399.90	51.49
400.09	9.36
400.28	23.41
400.47	49.15
400.67	51.49
400.86	81.92
401.05	4.68
401.24	0.00
401.44	28.09
401.63	65.54
401.82	0.00
402.01	0.00
402.21	42.13
402.40	93.62
402.59	7.02
402.78	0.00
402.97	72.56
403.17	16.38
403.36	79.58
403.55	30.43
403.74	23.41
403.93	49.15
404.13	65.54
404.32	51.49
404.51	46.81
404.70	0.00
404.89	0.00
405.09	51.49
405.28	42.13
405.47	42.13
405.66	4.68
405.85	23.41
406.05	77.24
406.24	35.11
406.43	21.06
406.62	53.83
406.81	35.11
407.00	0.00
407.20	53.83
407.39	37.45
407.58	42.13
407.77	7.02
407.96	2.34
408.15	0.00
408.34	0.00
408.54	30.43
408.73	74.90
408.92	72.56
409.11	112.35
409.30	0.00
409.49	37.45
409.68	4.68
409.87	23.41
410.07	65.54
410.26	46.81
410.45	0.00
410.64	25.75
410.83	72.56
411.02	117.03
411.21	0.00
411.40	14.04
411.59	49.15
411.78	0.00
411.98	67.88
412.17	77.24
412.36	67.88
412.55	0.00
412.74	63.19
412.93	79.58
413.12	9.36
413.31	7.02
413.50	14.04
413.69	35.11
413.88	49.15
414.07	39.79
414.26	74.90
414.45	77.24
414.64	44.47
414.83	21.06
415.02	30.43
415.22	0.00
415.41	25.75
415.60	70.22
415.79	65.54
415.98	77.24
416.17	32.77
416.36	65.54
416.55	110.01
416.74	4.68
416.93	93.62
417.12	23.41
417.31	25.75
417.50	72.56
417.69	63.19
417.88	56.17
418.07	42.13
418.26	0.00
418.45	23.41
418.64	60.85
418.83	56.17
419.02	72.56
419.21	32.77
419.39	44.47
419.58	81.92
419.77	28.09
419.96	7.02
420.15	56.17
420.34	16.38
420.53	81.92
420.72	0.00
420.91	37.45
421.10	100.64
421.29	42.13
421.48	53.83
421.67	49.15
421.86	91.28
422.05	0.00
422.24	60.85
422.43	65.54
422.61	0.00
422.80	74.90
422.99	63.19
423.18	53.83
423.37	0.00
423.56	39.79
423.75	60.85
423.94	0.00
424.13	0.00
424.32	110.01
424.50	0.00
424.69	44.47
424.88	0.00
425.07	67.88
425.26	37.45
425.45	58.51
425.64	88.94
425.83	110.01
426.01	14.04
426.20	105.32
426.39	65.54
426.58	93.62
426.77	65.54
426.96	46.81
427.15	58.51
427.33	35.11
427.52	37.45
427.71	14.04
427.90	70.22
428.09	0.00
428.28	72.56
428.46	21.06
428.65	18.72
428.84	58.51
429.03	9.36
429.22	18.72
429.40	72.56
429.59	18.72
429.78	81.92
429.97	53.83
430.16	63.19
430.34	35.11
430.53	39.79
430.72	35.11
430.91	74.90
431.10	60.85
431.28	0.00
431.47	107.66
431.66	2.34
431.85	44.47
432.03	65.54
432.22	14.04
432.41	4.68
432.60	0.00
432.79	32.77
432.97	21.06
433.16	84.26
433.35	79.58
433.54	0.00
433.72	14.04
433.91	0.00
434.10	0.00
434.28	53.83
434.47	53.83
434.66	16.38
434.85	65.54
435.03	58.51
435.22	0.00
435.41	86.60
435.59	107.66
435.78	77.24
435.97	60.85
436.16	21.06
436.34	91.28
436.53	79.58
436.72	11.70
436.90	11.70
437.09	7.02
437.28	35.11
437.46	32.77
437.65	63.19
437.84	44.47
438.02	49.15
438.21	58.51
438.40	42.13
438.58	51.49
438.77	0.00
438.96	70.22
439.14	105.32
439.33	18.72
439.52	0.00
439.70	53.83
439.89	23.41
440.08	51.49
440.26	147.45
440.45	110.01
440.63	42.13
440.82	56.17
441.01	91.28
441.19	53.83
441.38	37.45
441.57	49.15
441.75	100.64
441.94	65.54
442.12	86.60
442.31	16.38
442.50	25.75
442.68	14.04
442.87	11.70
443.05	16.38
443.24	65.54
443.43	51.49
443.61	121.71
443.80	63.19
443.98	53.83
444.17	117.03
444.35	98.30
444.54	46.81
444.73	86.60
444.91	46.81
445.10	35.11
445.28	72.56
445.47	74.90
445.65	70.22
445.84	28.09
446.02	81.92
446.21	81.92
446.39	42.13
446.58	37.45
446.77	105.32
446.95	42.13
447.14	35.11
447.32	77.24
447.51	0.00
447.69	93.62
447.88	18.72
448.06	0.00
448.25	28.09
448.43	88.94
448.62	23.41
448.80	46.81
448.99	70.22
449.17	16.38
449.36	112.35
449.54	51.49
449.73	121.71
449.91	65.54
450.10	63.19
450.28	46.81
450.46	4.68
450.65	42.13
450.83	30.43
451.02	0.00
451.20	18.72
451.39	2.34
451.57	65.54
451.76	0.00
451.94	42.13
452.13	86.60
452.31	74.90
452.49	53.83
452.68	110.01
452.86	49.15
453.05	37.45
453.23	25.75
453.42	93.62
453.60	0.00
453.78	100.64
453.97	77.24
454.15	16.38
454.34	72.56
454.52	58.51
454.70	0.00
454.89	58.51
455.07	77.24
455.26	77.24
455.44	58.51
455.62	51.49
455.81	88.94
455.99	14.04
456.17	0.00
456.36	2.34
456.54	88.94
456.73	35.11
456.91	67.88
457.09	39.79
457.28	0.00
457.46	84.26
457.64	98.30
457.83	44.47
458.01	37.45
458.19	51.49
458.38	23.41
458.56	49.15
458.74	11.70
458.93	42.13
459.11	81.92
459.29	44.47
459.48	23.41
459.66	56.17
459.84	65.54
460.03	32.77
460.21	42.13
460.39	0.00
460.57	23.41
460.76	18.72
460.94	95.96
461.12	86.60
461.31	102.98
461.49	39.79
461.67	72.56
461.85	9.36
462.04	95.96
462.22	114.69
462.40	86.60
462.59	18.72
462.77	42.13
462.95	0.00
463.13	70.22
463.32	35.11
463.50	28.09
463.68	23.41
463.86	79.58
464.05	14.04
464.23	46.81
464.41	44.47
464.59	65.54
464.78	46.81
464.96	44.47
465.14	49.15
465.32	21.06
465.50	72.56
465.69	98.30
465.87	79.58
466.05	46.81
466.23	44.47
466.41	32.77
466.60	46.81
466.78	131.07
466.96	14.04
467.14	63.19
467.32	11.70
467.51	84.26
467.69	4.68
467.87	0.00
468.05	35.11
468.23	21.06
468.41	67.88
468.60	37.45
468.78	35.11
468.96	58.51
469.14	0.00
469.32	79.58
469.50	56.17
469.69	56.17
469.87	95.96
470.05	67.88
470.23	72.56
470.41	0.00
470.59	88.94
470.77	81.92
470.95	58.51
471.14	0.00
471.32	77.24
471.50	56.17
471.68	39.79
471.86	32.77
472.04	58.51
472.22	23.41
472.40	100.64
472.58	0.00
472.77	18.72
472.95	51.49
473.13	53.83
473.31	46.81
473.49	46.81
473.67	0.00
473.85	177.88
474.03	67.88
474.21	112.35
474.39	46.81
474.57	49.15
474.75	53.83
474.93	28.09
475.12	88.94
475.30	81.92
475.48	65.54
475.66	117.03
475.84	2.34
476.02	65.54
476.20	56.17
476.38	128.73
476.56	44.47
476.74	88.94
476.92	105.32
477.10	51.49
477.28	58.51
477.46	84.26
477.64	65.54
477.82	84.26
478.00	18.72
478.18	25.75
478.36	53.83
478.54	91.28
478.72	67.88
478.90	46.81
479.08	67.88
479.26	46.81
479.44	63.19
479.62	93.62
479.80	51.49
479.98	79.58
480.16	91.28
480.34	0.00
480.52	0.00
480.70	37.45
480.88	98.30
481.06	0.00
481.24	112.35
481.41	88.94
481.59	100.64
481.77	77.24
481.95	46.81
482.13	7.02
482.31	4.68
482.49	56.17
482.67	14.04
482.85	63.19
483.03	117.03
483.21	105.32
483.39	79.58
483.57	77.24
483.74	138.09
483.92	126.39
484.10	102.98
484.28	58.51
484.46	60.85
484.64	25.75
484.82	110.01
485.00	86.60
485.18	53.83
485.35	88.94
485.53	37.45
485.71	39.79
485.89	56.17
486.07	25.75
486.25	74.90
486.43	44.47
486.61	58.51
486.78	65.54
486.96	79.58
487.14	95.96
487.32	70.22
487.50	77.24
487.68	95.96
487.85	0.00
488.03	81.92
488.21	44.47
488.39	93.62
488.57	30.43
488.75	77.24
488.92	112.35
489.10	70.22
489.28	60.85
489.46	72.56
489.64	117.03
489.81	110.01
489.99	56.17
490.17	95.96
490.35	56.17
490.53	121.71
490.70	44.47
490.88	72.56
491.06	14.04
491.24	67.88
491.41	30.43
491.59	67.88
491.77	67.88
491.95	91.28
492.13	42.13
492.30	81.92
492.48	117.03
492.66	60.85
492.84	51.49
493.01	65.54
493.19	30.43
493.37	70.22
493.54	60.85
493.72	56.17
493.90	60.85
494.08	119.37
494.25	105.32
494.43	84.26
494.61	79.58
494.79	11.70
494.96	93.62
495.14	51.49
495.32	102.98
495.49	21.06
495.67	84.26
495.85	42.13
496.02	67.88
496.20	88.94
496.38	145.11
496.55	91.28
496.73	46.81
496.91	65.54
497.09	124.05
497.26	42.13
497.44	79.58
497.62	133.41
497.79	81.92
497.97	60.85
498.14	77.24
498.32	147.45
498.50	107.66
498.67	95.96
498.85	77.24
499.03	4.68
499.20	53.83
499.38	149.79
499.56	84.26
499.73	147.45
499.91	77.24
500.08	100.64
500.26	23.41
500.44	0.00
500.61	91.28
500.79	79.58
500.97	72.56
501.14	91.28
501.32	79.58
501.49	86.60
501.67	107.66
501.84	98.30
502.02	110.01
502.20	0.00
502.37	67.88
502.55	37.45
502.72	100.64
502.90	56.17
503.07	42.13
503.25	11.70
503.43	63.19
503.60	84.26
503.78	7.02
503.95	67.88
504.13	95.96
504.30	84.26
504.48	145.11
504.65	140.43
504.83	107.66
505.01	18.72
505.18	91.28
505.36	135.75
505.53	93.62
505.71	42.13
505.88	81.92
506.06	88.94
506.23	168.52
506.41	63.19
506.58	95.96
506.76	93.62
506.93	131.07
507.11	21.06
507.28	37.45
507.46	79.58
507.63	79.58
507.81	51.49
507.98	133.41
508.16	65.54
508.33	135.75
508.50	56.17
508.68	100.64
508.85	70.22
509.03	88.94
509.20	72.56
509.38	32.77
509.55	112.35
509.73	81.92
509.90	79.58
510.08	37.45
510.25	81.92
510.42	95.96
510.60	131.07
510.77	65.54
510.95	88.94
511.12	79.58
511.30	105.32
511.47	79.58
511.64	119.37
511.82	35.11
511.99	65.54
512.17	88.94
512.34	124.05
512.51	63.19
512.69	110.01
512.86	126.39
513.04	84.26
513.21	135.75
513.38	58.51
513.56	14.04
513.73	46.81
513.90	126.39
514.08	16.38
514.25	79.58
514.43	93.62
514.60	44.47
514.77	39.79
514.95	39.79
515.12	95.96
515.29	32.77
515.47	128.73
515.64	56.17
515.81	21.06
515.99	145.11
516.16	79.58
516.33	35.11
516.51	49.15
516.68	37.45
516.85	28.09
517.03	107.66
517.20	119.37
517.37	114.69
517.54	126.39
517.72	114.69
517.89	53.83
518.06	39.79
518.24	77.24
518.41	88.94
518.58	70.22
518.75	49.15
518.93	74.90
519.10	107.66
519.27	126.39
519.45	107.66
519.62	102.98
519.79	156.82
519.96	74.90
520.14	72.56
520.31	44.47
520.48	126.39
520.65	110.01
520.83	93.62
521.00	147.45
521.17	112.35
521.34	60.85
521.52	138.09
521.69	102.98
521.86	79.58
522.03	133.41
522.20	100.64
522.38	49.15
522.55	35.11
522.72	21.06
522.89	79.58
523.07	77.24
523.24	156.82
523.41	93.62
523.58	84.26
523.75	42.13
523.92	60.85
524.10	138.09
524.27	112.35
524.44	18.72
524.61	84.26
524.78	65.54
524.96	84.26
525.13	86.60
525.30	35.11
525.47	105.32
525.64	100.64
525.81	74.90
525.98	102.98
526.16	117.03
526.33	77.24
526.50	86.60
526.67	140.43
526.84	74.90
527.01	46.81
527.18	63.19
527.36	56.17
527.53	51.49
527.70	65.54
527.87	84.26
528.04	81.92
528.21	39.79
528.38	114.69
528.55	88.94
528.72	79.58
528.89	112.35
529.07	86.60
529.24	77.24
529.41	60.85
529.58	79.58
529.75	21.06
529.92	37.45
530.09	35.11
530.26	35.11
530.43	110.01
530.60	16.38
530.77	98.30
530.94	74.90
531.11	74.90
531.28	133.41
531.46	44.47
531.63	145.11
531.80	67.88
531.97	14.04
532.14	100.64
532.31	21.06
532.48	21.06
532.65	124.05
532.82	44.47
532.99	121.71
533.16	30.43
533.33	166.18
533.50	91.28
533.67	81.92
533.84	91.28
534.01	98.30
534.18	72.56
534.35	23.41
534.52	102.98
534.69	117.03
534.86	81.92
535.03	51.49
535.20	86.60
535.37	79.58
535.54	93.62
535.71	81.92
535.88	84.26
536.05	145.11
536.22	107.66
536.38	60.85
536.55	56.17
536.72	42.13
536.89	88.94
537.06	46.81
537.23	86.60
537.40	119.37
537.57	84.26
537.74	65.54
537.91	91.28
538.08	128.73
538.25	42.13
538.42	112.35
538.59	95.96
538.75	49.15
538.92	70.22
539.09	32.77
539.26	53.83
539.43	100.64
539.60	72.56
539.77	133.41
539.94	145.11
540.11	128.73
540.28	128.73
540.44	21.06
540.61	53.83
540.78	102.98
540.95	112.35
541.12	133.41
541.29	81.92
541.46	138.09
541.62	156.82
541.79	53.83
541.96	77.24
542.13	46.81
542.30	56.17
542.47	112.35
542.63	93.62
542.80	105.32
542.97	77.24
543.14	114.69
543.31	86.60
543.48	114.69
543.64	177.88
543.81	72.56
543.98	121.71
544.15	156.82
544.32	117.03
544.48	25.75
544.65	112.35
544.82	91.28
544.99	91.28
545.16	88.94
545.32	23.41
545.49	72.56
545.66	88.94
545.83	81.92
546.00	77.24
546.16	110.01
546.33	133.41
546.50	91.28
546.67	142.77
546.83	163.84
547.00	74.90
547.17	39.79
547.34	100.64
547.50	72.56
547.67	21.06
547.84	81.92
548.00	88.94
548.17	46.81
548.34	18.72
548.51	147.45
548.67	84.26
548.84	110.01
549.01	126.39
549.18	142.77
549.34	30.43
549.51	72.56
549.68	102.98
549.84	114.69
550.01	95.96
550.18	67.88
550.34	126.39
550.51	46.81
550.68	161.50
550.84	39.79
551.01	51.49
551.18	51.49
551.34	117.03
551.51	88.94
551.68	79.58
551.84	84.26
552.01	114.69
552.18	107.66
552.34	37.45
552.51	65.54
552.68	46.81
552.84	110.01
553.01	86.60
553.18	72.56
553.34	91.28
553.51	117.03
553.67	149.79
553.84	25.75
554.01	72.56
554.17	112.35
554.34	98.30
554.51	37.45
554.67	93.62
554.84	84.26
555.00	105.32
555.17	42.13
555.33	110.01
555.50	154.48
555.67	187.24
555.83	77.24
556.00	81.92
556.16	105.32
556.33	98.30
556.50	65.54
556.66	191.92
556.83	67.88
556.99	119.37
557.16	91.28
557.32	102.98
557.49	58.51
557.65	0.00
557.82	53.83
557.98	88.94
558.15	72.56
558.32	86.60
558.48	56.17
558.65	102.98
558.81	30.43
558.98	70.22
559.14	102.98
559.31	95.96
559.47	39.79
559.64	107.66
559.80	131.07
559.97	126.39
560.13	131.07
560.30	25.75
560.46	114.69
560.63	44.47
560.79	79.58
560.96	77.24
561.12	67.88
561.29	74.90
561.45	63.19
561.61	44.47
561.78	46.81
561.94	60.85
562.11	110.01
562.27	135.75
562.44	51.49
562.60	58.51
562.77	51.49
562.93	114.69
563.10	32.77
563.26	46.81
563.42	124.05
563.59	53.83
563.75	91.28
563.92	98.30
564.08	170.86
564.24	98.30
564.41	63.19
564.57	65.54
564.74	74.90
564.90	149.79
565.07	100.64
565.23	32.77
565.39	53.83
565.56	51.49
565.72	56.17
565.88	28.09
566.05	81.92
566.21	49.15
566.38	37.45
566.54	86.60
566.70	28.09
566.87	112.35
567.03	114.69
567.19	81.92
567.36	105.32
567.52	145.11
567.68	72.56
567.85	112.35
568.01	117.03
568.17	84.26
568.34	37.45
568.50	30.43
568.66	91.28
568.83	84.26
568.99	121.71
569.15	28.09
569.32	86.60
569.48	107.66
569.64	77.24
569.81	88.94
569.97	88.94
570.13	88.94
570.30	63.19
570.46	114.69
570.62	105.32
570.78	112.35
570.95	46.81
571.11	107.66
571.27	110.01
571.43	84.26
571.60	74.90
571.76	37.45
571.92	70.22
572.09	81.92
572.25	93.62
572.41	16.38
572.57	65.54
572.74	100.64
572.90	88.94
573.06	107.66
573.22	46.81
573.38	51.49
573.55	63.19
573.71	42.13
573.87	65.54
574.03	65.54
574.20	65.54
574.36	112.35
574.52	84.26
574.68	46.81
574.84	39.79
575.01	32.77
575.17	25.75
575.33	140.43
575.49	84.26
575.65	72.56
575.82	112.35
575.98	205.97
576.14	67.88
576.30	114.69
576.46	84.26
576.62	23.41
576.79	126.39
576.95	79.58
577.11	65.54
577.27	56.17
577.43	93.62
577.59	53.83
577.75	0.00
577.92	117.03
578.08	32.77
578.24	98.30
578.40	114.69
578.56	53.83
578.72	102.98
578.88	9.36
579.04	23.41
579.21	60.85
579.37	44.47
579.53	42.13
579.69	51.49
579.85	112.35
580.01	35.11
580.17	91.28
580.33	112.35
580.49	63.19
580.65	56.17
580.82	110.01
580.98	105.32
581.14	126.39
581.30	30.43
581.46	28.09
581.62	119.37
581.78	37.45
581.94	23.41
582.10	100.64
582.26	81.92
582.42	39.79
582.58	72.56
582.74	102.98
582.90	168.52
583.06	121.71
583.22	25.75
583.38	67.88
583.54	95.96
583.70	35.11
583.86	42.13
584.02	77.24
584.18	72.56
584.34	100.64
584.50	98.30
584.66	124.05
584.82	79.58
584.98	121.71
585.14	42.13
585.30	117.03
585.46	86.60
585.62	51.49
585.78	44.47
585.94	114.69
586.10	72.56
586.26	117.03
586.42	42.13
586.58	56.17
586.74	147.45
586.90	79.58
587.06	44.47
587.22	37.45
587.38	14.04
587.54	124.05
587.70	100.64
587.86	0.00
588.02	49.15
588.18	84.26
588.34	93.62
588.49	58.51
588.65	70.22
588.81	53.83
588.97	145.11
589.13	67.88
589.29	93.62
589.45	117.03
589.61	95.96
589.77	65.54
589.93	51.49
590.08	0.00
590.24	91.28
590.40	117.03
590.56	30.43
590.72	63.19
590.88	39.79
591.04	56.17
591.20	32.77
591.35	117.03
591.51	91.28
591.67	102.98
591.83	102.98
591.99	63.19
592.15	23.41
592.31	138.09
592.46	86.60
592.62	32.77
592.78	110.01
592.94	79.58
593.10	51.49
593.26	93.62
593.41	56.17
593.57	49.15
593.73	67.88
593.89	56.17
594.05	95.96
594.20	95.96
594.36	77.24
594.52	72.56
594.68	79.58
594.84	39.79
594.99	112.35
595.15	0.00
595.31	44.47
595.47	93.62
595.62	60.85
595.78	95.96
595.94	56.17
596.10	95.96
596.25	98.30
596.41	117.03
596.57	81.92
596.73	60.85
596.88	93.62
597.04	25.75
597.20	0.00
597.36	74.90
597.51	119.37
597.67	53.83
597.83	58.51
597.99	32.77
598.14	44.47
598.30	2.34
598.46	77.24
598.61	51.49
598.77	112.35
598.93	121.71
599.09	121.71
599.24	67.88
599.40	95.96
599.56	39.79
599.71	98.30
599.87	63.19
600.03	58.51
600.18	107.66
600.34	110.01
600.50	102.98
600.65	140.43
600.81	124.05
600.97	65.54
601.12	72.56
601.28	18.72
601.44	98.30
601.59	46.81
601.75	58.51
601.91	0.00
602.06	42.13
602.22	51.49
602.37	53.83
602.53	86.60
602.69	32.77
602.84	117.03
603.00	79.58
603.16	74.90
603.31	0.00
603.47	65.54
603.62	32.77
603.78	138.09
603.94	133.41
604.09	44.47
604.25	105.32
604.40	84.26
604.56	128.73
604.71	110.01
604.87	0.00
605.03	95.96
605.18	63.19
605.34	84.26
605.49	138.09
605.65	67.88
605.80	88.94
605.96	46.81
606.12	84.26
606.27	63.19
606.43	86.60
606.58	63.19
606.74	23.41
606.89	128.73
607.05	53.83
607.20	77.24
607.36	9.36
607.51	79.58
607.67	79.58
607.82	98.30
607.98	102.98
608.13	117.03
608.29	44.47
608.44	46.81
608.60	88.94
608.75	39.79
608.91	131.07
609.06	0.00
609.22	79.58
609.37	126.39
609.53	102.98
609.68	81.92
609.84	42.13
609.99	67.88
610.15	23.41
610.30	84.26
610.46	81.92
610.61	107.66
610.76	0.00
610.92	60.85
611.07	0.00
611.23	81.92
611.38	105.32
611.54	49.15
611.69	102.98
611.84	30.43
612.00	4.68
612.15	91.28
612.31	65.54
612.46	28.09
612.62	56.17
612.77	93.62
612.92	79.58
613.08	98.30
613.23	133.41
613.39	100.64
613.54	84.26
613.69	67.88
613.85	110.01
614.00	119.37
614.15	56.17
614.31	28.09
614.46	84.26
614.62	100.64
614.77	0.00
614.92	28.09
615.08	79.58
615.23	107.66
615.38	49.15
615.54	0.00
615.69	53.83
615.84	28.09
616.00	53.83
616.15	4.68
616.30	110.01
616.46	0.00
616.61	51.49
616.76	81.92
616.92	11.70
617.07	74.90
617.22	67.88
617.37	37.45
617.53	63.19
617.68	63.19
617.83	81.92
617.99	102.98
618.14	88.94
618.29	37.45
618.45	56.17
618.60	77.24
618.75	44.47
618.90	72.56
619.06	49.15
619.21	35.11
619.36	121.71
619.51	84.26
619.67	49.15
619.82	35.11
619.97	30.43
620.12	18.72
620.28	119.37
620.43	91.28
620.58	124.05
620.73	42.13
620.89	105.32
621.04	91.28
621.19	32.77
621.34	30.43
621.49	72.56
621.65	119.37
621.80	4.68
621.95	84.26
622.10	37.45
622.25	53.83
622.41	65.54
622.56	72.56
622.71	49.15
622.86	79.58
623.01	32.77
623.16	30.43
623.32	30.43
623.47	79.58
623.62	58.51
623.77	81.92
623.92	42.13
624.07	105.32
624.23	37.45
624.38	42.13
624.53	81.92
624.68	88.94
624.83	0.00
624.98	98.30
625.13	0.00
625.29	2.34
625.44	0.00
625.59	65.54
625.74	102.98
625.89	53.83
626.04	30.43
626.19	18.72
626.34	67.88
626.49	84.26
626.65	0.00
626.80	28.09
626.95	0.00
627.10	9.36
627.25	56.17
627.40	124.05
627.55	53.83
627.70	35.11
627.85	2.34
628.00	0.00
628.15	84.26
628.30	4.68
628.45	91.28
628.60	46.81
628.76	117.03
628.91	14.04
629.06	11.70
629.21	91.28
629.36	0.00
629.51	32.77
629.66	0.00
629.81	110.01
629.96	67.88
630.11	39.79
630.26	84.26
630.41	91.28
630.56	95.96
630.71	37.45
630.86	100.64
631.01	25.75
631.16	18.72
631.31	63.19
631.46	67.88
631.61	63.19
631.76	72.56
631.91	25.75
632.06	14.04
632.21	102.98
632.36	105.32
632.51	25.75
632.66	0.00
632.81	58.51
632.96	42.13
633.10	74.90
633.25	95.96
633.40	16.38
633.55	79.58
633.70	65.54
633.85	56.17
634.00	21.06
634.15	51.49
634.30	154.48
634.45	102.98
634.60	37.45
634.75	88.94
634.90	21.06
635.05	65.54
635.19	46.81
635.34	58.51
635.49	46.81
635.64	0.00
635.79	105.32
635.94	16.38
636.09	84.26
636.24	100.64
636.39	79.58
636.53	70.22
636.68	79.58
636.83	60.85
636.98	58.51
637.13	65.54
637.28	14.04
637.43	100.64
637.57	49.15
637.72	0.00
637.87	79.58
638.02	107.66
638.17	60.85
638.32	79.58
638.46	42.13
638.61	14.04
638.76	4.68
638.91	77.24
639.06	65.54
639.20	95.96
639.35	77.24
639.50	23.41
639.65	16.38
639.80	58.51
639.94	107.66
640.09	86.60
640.24	173.20
640.39	58.51
640.54	93.62
640.68	14.04
640.83	44.47
640.98	81.92
641.13	154.48
641.27	2.34
641.42	56.17
641.57	91.28
641.72	67.88
641.86	114.69
642.01	28.09
642.16	79.58
642.31	81.92
642.45	95.96
642.60	28.09
642.75	98.30
642.90	4.68
643.04	100.64
643.19	100.64
643.34	32.77
643.48	0.00
643.63	91.28
643.78	63.19
643.93	30.43
644.07	72.56
644.22	28.09
644.37	114.69
644.51	25.75
644.66	70.22
644.81	30.43
644.95	18.72
645.10	49.15
645.25	84.26
645.39	18.72
645.54	14.04
645.69	67.88
645.83	58.51
645.98	49.15
646.13	28.09
646.27	51.49
646.42	70.22
646.57	35.11
646.71	51.49
646.86	53.83
647.00	128.73
647.15	4.68
647.30	86.60
647.44	14.04
647.59	74.90
647.74	25.75
647.88	21.06
648.03	49.15
648.17	91.28
648.32	121.71
648.47	42.13
648.61	23.41
648.76	42.13
648.90	102.98
649.05	112.35
649.20	49.15
649.34	23.41
649.49	60.85
649.63	37.45
649.78	60.85
649.92	110.01
650.07	65.54
650.21	63.19
650.36	53.83
650.51	25.75
650.65	56.17
650.80	98.30
650.94	91.28
651.09	93.62
651.23	65.54
651.38	25.75
651.52	30.43
651.67	23.41
651.81	30.43
651.96	121.71
652.10	56.17
652.25	110.01
652.39	32.77
652.54	84.26
652.68	63.19
652.83	18.72
652.97	67.88
653.12	30.43
653.26	53.83
653.41	119.37
653.55	11.70
653.70	100.64
653.84	60.85
653.99	49.15
654.13	35.11
654.27	0.00
654.42	44.47
654.56	121.71
654.71	21.06
654.85	49.15
655.00	49.15
655.14	53.83
655.29	16.38
655.43	77.24
655.57	79.58
655.72	86.60
655.86	63.19
656.01	18.72
656.15	0.00
656.30	25.75
656.44	77.24
656.58	53.83
656.73	37.45
656.87	0.00
657.01	32.77
657.16	28.09
657.30	133.41
657.45	81.92
657.59	37.45
657.73	49.15
657.88	0.00
658.02	35.11
658.16	95.96
658.31	51.49
658.45	63.19
658.60	37.45
658.74	70.22
658.88	67.88
659.03	70.22
659.17	21.06
659.31	28.09
659.46	18.72
659.60	72.56
659.74	32.77
659.89	95.96
660.03	11.70
660.17	112.35
660.32	74.90
660.46	32.77
660.60	32.77
660.74	105.32
660.89	77.24
661.03	0.00
661.17	63.19
661.32	23.41
661.46	35.11
661.60	46.81
661.74	39.79
661.89	88.94
662.03	32.77
662.17	37.45
662.31	39.79
662.46	74.90
662.60	81.92
662.74	124.05
662.88	58.51
663.03	67.88
663.17	60.85
663.31	60.85
663.45	74.90
663.60	28.09
663.74	74.90
663.88	28.09
664.02	49.15
664.17	86.60
664.31	0.00
664.45	49.15
664.59	23.41
664.73	25.75
664.88	74.90
665.02	0.00
665.16	35.11
665.30	9.36
665.44	51.49
665.59	84.26
665.73	74.90
665.87	77.24
666.01	86.60
666.15	23.41
666.29	72.56
666.44	37.45
666.58	72.56
666.72	39.79
666.86	16.38
667.00	39.79
667.14	124.05
667.28	23.41
667.43	72.56
667.57	63.19
667.71	30.43
667.85	49.15
667.99	0.00
668.13	0.00
668.27	2.34
668.41	42.13
668.56	88.94
668.70	37.45
668.84	135.75
668.98	93.62
669.12	25.75
669.26	98.30
669.40	4.68
669.54	93.62
669.68	18.72
669.82	79.58
669.96	7.02
670.10	86.60
670.25	65.54
670.39	42.13
670.53	42.13
670.67	11.70
670.81	21.06
670.95	72.56
671.09	39.79
671.23	28.09
671.37	60.85
671.51	70.22
671.65	25.75
671.79	86.60
671.93	74.90
672.07	53.83
672.21	16.38
672.35	25.75
672.49	44.47
672.63	51.49
672.77	16.38
672.91	65.54
673.05	42.13
673.19	98.30
673.33	44.47
673.47	107.66
673.61	105.32
673.75	9.36
673.89	25.75
674.03	30.43
674.17	28.09
674.31	7.02
674.45	23.41
674.59	84.26
674.73	95.96
674.87	46.81
675.01	16.38
675.15	28.09
675.29	51.49
675.43	72.56
675.56	117.03
675.70	77.24
675.84	49.15
675.98	28.09
676.12	9.36
676.26	28.09
676.40	56.17
676.54	0.00
676.68	0.00
676.82	121.71
676.96	84.26
677.10	23.41
677.23	37.45
677.37	121.71
677.51	39.79
677.65	117.03
677.79	53.83
677.93	42.13
678.07	23.41
678.21	37.45
678.34	58.51
678.48	112.35
678.62	49.15
678.76	14.04
678.90	102.98
679.04	21.06
679.18	0.00
679.31	142.77
679.45	53.83
679.59	105.32
679.73	100.64
679.87	35.11
680.00	49.15
680.14	0.00
680.28	44.47
680.42	37.45
680.56	74.90
680.70	32.77
680.83	51.49
680.97	11.70
681.11	56.17
681.25	32.77
681.39	0.00
681.52	21.06
681.66	37.45
681.80	0.00
681.94	77.24
682.07	4.68
682.21	53.83
682.35	14.04
682.49	86.60
682.62	72.56
682.76	39.79
682.90	25.75
683.04	53.83
683.17	16.38
683.31	72.56
683.45	77.24
683.59	18.72
683.72	84.26
683.86	56.17
684.00	28.09
684.13	119.37
684.27	46.81
684.41	58.51
684.55	18.72
684.68	28.09
684.82	21.06
684.96	44.47
685.09	23.41
685.23	53.83
685.37	23.41
685.50	46.81
685.64	46.81
685.78	42.13
685.91	0.00
686.05	53.83
686.19	16.38
686.32	18.72
686.46	119.37
686.60	77.24
686.73	58.51
686.87	0.00
687.01	58.51
687.14	72.56
687.28	65.54
687.42	42.13
687.55	51.49
687.69	0.00
687.82	91.28
687.96	0.00
688.10	53.83
688.23	11.70
688.37	53.83
688.50	28.09
688.64	32.77
688.78	49.15
688.91	0.00
689.05	53.83
689.18	30.43
689.32	112.35
689.46	65.54
689.59	56.17
689.73	46.81
689.86	60.85
690.00	21.06
690.13	30.43
690.27	42.13
690.41	25.75
690.54	0.00
690.68	4.68
690.81	32.77
690.95	95.96
691.08	58.51
691.22	51.49
691.35	77.24
691.49	46.81
691.62	53.83
691.76	21.06
691.89	0.00
692.03	18.72
692.16	51.49
692.30	105.32
692.43	14.04
692.57	0.00
692.70	14.04
692.84	0.00
692.97	2.34
693.11	42.13
693.24	44.47
693.38	18.72
693.51	0.00
693.65	9.36
693.78	7.02
693.92	18.72
694.05	14.04
694.19	51.49
694.32	110.01
694.45	74.90
694.59	39.79
694.72	16.38
694.86	21.06
694.99	18.72
695.13	32.77
695.26	18.72
695.39	56.17
695.53	0.00
695.66	49.15
695.80	74.90
695.93	58.51
696.07	35.11
696.20	30.43
696.33	23.41
696.47	95.96
696.60	16.38
696.73	98.30
696.87	60.85
697.00	23.41
697.14	67.88
697.27	72.56
697.40	0.00
697.54	112.35
697.67	39.79
697.80	74.90
697.94	18.72
698.07	56.17
698.21	81.92
698.34	0.00
698.47	51.49
698.61	42.13
698.74	0.00
698.87	67.88
699.01	11.70
699.14	28.09
699.27	35.11
699.40	58.51
699.54	0.00
699.67	0.00
699.80	0.00
699.94	23.41
700.07	9.36
700.20	39.79
700.34	7.02
700.47	0.00
700.60	0.00
700.73	42.13
700.87	21.06
701.00	0.00
701.13	0.00
701.26	16.38
701.40	4.68
701.53	44.47
701.66	100.64
701.79	0.00
701.93	0.00
702.06	0.00
702.19	42.13
702.32	35.11
702.46	0.00
702.59	60.85
702.72	53.83
702.85	18.72
702.99	56.17
703.12	23.41
703.25	70.22
703.38	21.06
703.51	79.58
703.65	23.41
703.78	46.81
703.91	63.19
704.04	77.24
704.17	0.00
704.31	9.36
704.44	7.02
704.57	39.79
704.70	32.77
704.83	0.00
704.96	0.00
705.10	0.00
705.23	18.72
>>>>>End Processed Spectral Data<<<<<
