SpectraSuite Data File
++++++++++++++++++++++++++++++++++++
Date: Fri Oct 04 12:13:40 GMT-05:00 2013
User: price-jones
Dark Spectrum Present: No
Reference Spectrum Present: No
Number of Sampled Component Spectra: 1
Spectrometers: USB2+H05261
Integration Time (usec): 10000 (USB2+H05261)
Spectra Averaged: 1 (USB2+H05261)
Boxcar Smoothing: 0 (USB2+H05261)
Correct for Electrical Dark: No (USB2+H05261)
Strobe/Lamp Enabled: No (USB2+H05261)
Correct for Detector Non-linearity: No (USB2+H05261)
Correct for Stray Light: No (USB2+H05261)
Number of Pixels in Processed Spectrum: 2048
>>>>>Begin Processed Spectral Data<<<<<
365.73	0.00
365.92	0.00
366.12	0.00
366.32	0.00
366.52	0.00
366.72	0.00
366.91	0.00
367.11	0.00
367.31	0.00
367.51	0.00
367.70	0.00
367.90	0.00
368.10	0.00
368.30	0.00
368.49	0.00
368.69	0.00
368.89	0.00
369.09	0.00
369.28	0.00
369.48	0.00
369.68	0.00
369.87	0.00
370.07	0.00
370.27	0.00
370.47	0.00
370.66	0.00
370.86	0.00
371.06	0.00
371.25	0.00
371.45	0.00
371.65	56.17
371.84	16.38
372.04	0.00
372.24	51.49
372.44	18.72
372.63	81.92
372.83	7.02
373.03	9.36
373.22	81.92
373.42	72.56
373.62	21.06
373.81	23.41
374.01	0.00
374.21	107.66
374.40	46.81
374.60	46.81
374.79	67.88
374.99	91.28
375.19	30.43
375.38	63.19
375.58	25.75
375.78	44.47
375.97	79.58
376.17	44.47
376.37	25.75
376.56	88.94
376.76	0.00
376.95	0.00
377.15	23.41
377.35	42.13
377.54	81.92
377.74	16.38
377.93	53.83
378.13	7.02
378.33	51.49
378.52	0.00
378.72	9.36
378.91	7.02
379.11	53.83
379.31	21.06
379.50	70.22
379.70	0.00
379.89	39.79
380.09	0.00
380.28	0.00
380.48	0.00
380.68	37.45
380.87	0.00
381.07	0.00
381.26	16.38
381.46	67.88
381.65	9.36
381.85	0.00
382.04	21.06
382.24	0.00
382.43	28.09
382.63	4.68
382.83	25.75
383.02	0.00
383.22	51.49
383.41	42.13
383.61	39.79
383.80	0.00
384.00	72.56
384.19	0.00
384.39	0.00
384.58	0.00
384.78	0.00
384.97	100.64
385.17	0.00
385.36	0.00
385.56	0.00
385.75	21.06
385.95	4.68
386.14	53.83
386.34	51.49
386.53	74.90
386.72	35.11
386.92	81.92
387.11	9.36
387.31	9.36
387.50	21.06
387.70	79.58
387.89	0.00
388.09	0.00
388.28	0.00
388.48	30.43
388.67	39.79
388.86	0.00
389.06	0.00
389.25	67.88
389.45	56.17
389.64	0.00
389.84	0.00
390.03	42.13
390.22	63.19
390.42	56.17
390.61	30.43
390.81	0.00
391.00	30.43
391.19	42.13
391.39	39.79
391.58	16.38
391.78	0.00
391.97	39.79
392.16	44.47
392.36	0.00
392.55	72.56
392.75	11.70
392.94	11.70
393.13	4.68
393.33	0.00
393.52	4.68
393.71	46.81
393.91	0.00
394.10	25.75
394.29	124.05
394.49	2.34
394.68	25.75
394.88	30.43
395.07	0.00
395.26	95.96
395.46	9.36
395.65	93.62
395.84	2.34
396.04	56.17
396.23	79.58
396.42	42.13
396.62	23.41
396.81	4.68
397.00	35.11
397.19	51.49
397.39	0.00
397.58	0.00
397.77	72.56
397.97	58.51
398.16	0.00
398.35	21.06
398.55	0.00
398.74	4.68
398.93	0.00
399.12	0.00
399.32	23.41
399.51	70.22
399.70	51.49
399.90	63.19
400.09	77.24
400.28	35.11
400.47	49.15
400.67	37.45
400.86	81.92
401.05	60.85
401.24	0.00
401.44	65.54
401.63	7.02
401.82	28.09
402.01	23.41
402.21	0.00
402.40	0.00
402.59	23.41
402.78	60.85
402.97	30.43
403.17	53.83
403.36	28.09
403.55	32.77
403.74	72.56
403.93	28.09
404.13	0.00
404.32	4.68
404.51	49.15
404.70	14.04
404.89	16.38
405.09	23.41
405.28	28.09
405.47	37.45
405.66	35.11
405.85	21.06
406.05	72.56
406.24	35.11
406.43	35.11
406.62	9.36
406.81	37.45
407.00	65.54
407.20	84.26
407.39	0.00
407.58	0.00
407.77	0.00
407.96	67.88
408.15	42.13
408.34	9.36
408.54	58.51
408.73	28.09
408.92	37.45
409.11	44.47
409.30	56.17
409.49	11.70
409.68	58.51
409.87	9.36
410.07	37.45
410.26	49.15
410.45	86.60
410.64	30.43
410.83	23.41
411.02	35.11
411.21	44.47
411.40	0.00
411.59	0.00
411.78	18.72
411.98	28.09
412.17	86.60
412.36	23.41
412.55	88.94
412.74	46.81
412.93	95.96
413.12	4.68
413.31	0.00
413.50	0.00
413.69	37.45
413.88	51.49
414.07	117.03
414.26	56.17
414.45	28.09
414.64	56.17
414.83	4.68
415.02	65.54
415.22	67.88
415.41	46.81
415.60	63.19
415.79	63.19
415.98	18.72
416.17	35.11
416.36	32.77
416.55	2.34
416.74	37.45
416.93	58.51
417.12	32.77
417.31	79.58
417.50	0.00
417.69	70.22
417.88	110.01
418.07	30.43
418.26	9.36
418.45	28.09
418.64	98.30
418.83	18.72
419.02	53.83
419.21	84.26
419.39	0.00
419.58	32.77
419.77	32.77
419.96	0.00
420.15	58.51
420.34	72.56
420.53	0.00
420.72	21.06
420.91	0.00
421.10	0.00
421.29	42.13
421.48	18.72
421.67	102.98
421.86	0.00
422.05	51.49
422.24	65.54
422.43	25.75
422.61	100.64
422.80	70.22
422.99	0.00
423.18	4.68
423.37	42.13
423.56	46.81
423.75	51.49
423.94	70.22
424.13	37.45
424.32	0.00
424.50	79.58
424.69	39.79
424.88	77.24
425.07	0.00
425.26	67.88
425.45	35.11
425.64	0.00
425.83	28.09
426.01	44.47
426.20	60.85
426.39	7.02
426.58	63.19
426.77	102.98
426.96	39.79
427.15	0.00
427.33	0.00
427.52	0.00
427.71	25.75
427.90	79.58
428.09	7.02
428.28	37.45
428.46	39.79
428.65	28.09
428.84	39.79
429.03	23.41
429.22	39.79
429.40	58.51
429.59	46.81
429.78	119.37
429.97	21.06
430.16	105.32
430.34	51.49
430.53	35.11
430.72	37.45
430.91	100.64
431.10	95.96
431.28	37.45
431.47	46.81
431.66	2.34
431.85	0.00
432.03	2.34
432.22	65.54
432.41	28.09
432.60	70.22
432.79	107.66
432.97	16.38
433.16	60.85
433.35	0.00
433.54	23.41
433.72	42.13
433.91	77.24
434.10	56.17
434.28	53.83
434.47	30.43
434.66	2.34
434.85	23.41
435.03	39.79
435.22	14.04
435.41	72.56
435.59	4.68
435.78	0.00
435.97	37.45
436.16	79.58
436.34	42.13
436.53	0.00
436.72	63.19
436.90	79.58
437.09	77.24
437.28	72.56
437.46	51.49
437.65	28.09
437.84	81.92
438.02	0.00
438.21	0.00
438.40	18.72
438.58	0.00
438.77	81.92
438.96	0.00
439.14	18.72
439.33	18.72
439.52	86.60
439.70	72.56
439.89	60.85
440.08	51.49
440.26	32.77
440.45	4.68
440.63	63.19
440.82	2.34
441.01	70.22
441.19	49.15
441.38	0.00
441.57	70.22
441.75	25.75
441.94	79.58
442.12	63.19
442.31	28.09
442.50	70.22
442.68	0.00
442.87	0.00
443.05	93.62
443.24	112.35
443.43	63.19
443.61	74.90
443.80	63.19
443.98	46.81
444.17	32.77
444.35	133.41
444.54	63.19
444.73	18.72
444.91	44.47
445.10	51.49
445.28	72.56
445.47	72.56
445.65	114.69
445.84	51.49
446.02	46.81
446.21	23.41
446.39	0.00
446.58	51.49
446.77	0.00
446.95	0.00
447.14	42.13
447.32	39.79
447.51	32.77
447.69	46.81
447.88	86.60
448.06	39.79
448.25	0.00
448.43	67.88
448.62	0.00
448.80	0.00
448.99	30.43
449.17	74.90
449.36	81.92
449.54	37.45
449.73	0.00
449.91	58.51
450.10	0.00
450.28	28.09
450.46	110.01
450.65	117.03
450.83	28.09
451.02	37.45
451.20	145.11
451.39	23.41
451.57	51.49
451.76	100.64
451.94	126.39
452.13	28.09
452.31	112.35
452.49	60.85
452.68	95.96
452.86	0.00
453.05	58.51
453.23	65.54
453.42	114.69
453.60	42.13
453.78	105.32
453.97	49.15
454.15	63.19
454.34	0.00
454.52	0.00
454.70	140.43
454.89	58.51
455.07	72.56
455.26	42.13
455.44	18.72
455.62	131.07
455.81	65.54
455.99	49.15
456.17	9.36
456.36	70.22
456.54	67.88
456.73	72.56
456.91	7.02
457.09	0.00
457.28	0.00
457.46	53.83
457.64	88.94
457.83	77.24
458.01	63.19
458.19	2.34
458.38	35.11
458.56	44.47
458.74	77.24
458.93	0.00
459.11	51.49
459.29	0.00
459.48	42.13
459.66	107.66
459.84	39.79
460.03	32.77
460.21	112.35
460.39	63.19
460.57	0.00
460.76	98.30
460.94	114.69
461.12	119.37
461.31	74.90
461.49	28.09
461.67	32.77
461.85	0.00
462.04	28.09
462.22	74.90
462.40	86.60
462.59	63.19
462.77	84.26
462.95	112.35
463.13	81.92
463.32	42.13
463.50	95.96
463.68	147.45
463.86	7.02
464.05	100.64
464.23	100.64
464.41	0.00
464.59	23.41
464.78	51.49
464.96	74.90
465.14	58.51
465.32	0.00
465.50	44.47
465.69	44.47
465.87	14.04
466.05	107.66
466.23	95.96
466.41	46.81
466.60	93.62
466.78	18.72
466.96	39.79
467.14	0.00
467.32	117.03
467.51	32.77
467.69	126.39
467.87	53.83
468.05	46.81
468.23	30.43
468.41	72.56
468.60	84.26
468.78	93.62
468.96	42.13
469.14	42.13
469.32	46.81
469.50	91.28
469.69	60.85
469.87	28.09
470.05	49.15
470.23	37.45
470.41	42.13
470.59	35.11
470.77	81.92
470.95	9.36
471.14	42.13
471.32	84.26
471.50	88.94
471.68	110.01
471.86	70.22
472.04	70.22
472.22	46.81
472.40	0.00
472.58	72.56
472.77	84.26
472.95	37.45
473.13	46.81
473.31	93.62
473.49	14.04
473.67	107.66
473.85	60.85
474.03	133.41
474.21	77.24
474.39	23.41
474.57	53.83
474.75	35.11
474.93	4.68
475.12	0.00
475.30	100.64
475.48	25.75
475.66	49.15
475.84	74.90
476.02	60.85
476.20	53.83
476.38	4.68
476.56	74.90
476.74	0.00
476.92	35.11
477.10	14.04
477.28	74.90
477.46	100.64
477.64	105.32
477.82	98.30
478.00	81.92
478.18	56.17
478.36	60.85
478.54	58.51
478.72	67.88
478.90	0.00
479.08	30.43
479.26	110.01
479.44	105.32
479.62	25.75
479.80	72.56
479.98	95.96
480.16	67.88
480.34	0.00
480.52	53.83
480.70	88.94
480.88	93.62
481.06	72.56
481.24	84.26
481.41	79.58
481.59	32.77
481.77	60.85
481.95	100.64
482.13	79.58
482.31	110.01
482.49	86.60
482.67	58.51
482.85	42.13
483.03	74.90
483.21	102.98
483.39	77.24
483.57	84.26
483.74	42.13
483.92	9.36
484.10	51.49
484.28	49.15
484.46	98.30
484.64	110.01
484.82	135.75
485.00	84.26
485.18	37.45
485.35	42.13
485.53	77.24
485.71	46.81
485.89	74.90
486.07	65.54
486.25	49.15
486.43	91.28
486.61	72.56
486.78	63.19
486.96	65.54
487.14	102.98
487.32	119.37
487.50	74.90
487.68	70.22
487.85	77.24
488.03	37.45
488.21	42.13
488.39	28.09
488.57	88.94
488.75	114.69
488.92	84.26
489.10	74.90
489.28	88.94
489.46	91.28
489.64	25.75
489.81	51.49
489.99	79.58
490.17	16.38
490.35	131.07
490.53	60.85
490.70	79.58
490.88	112.35
491.06	72.56
491.24	44.47
491.41	58.51
491.59	56.17
491.77	67.88
491.95	105.32
492.13	77.24
492.30	154.48
492.48	4.68
492.66	74.90
492.84	14.04
493.01	93.62
493.19	88.94
493.37	81.92
493.54	42.13
493.72	60.85
493.90	84.26
494.08	44.47
494.25	51.49
494.43	35.11
494.61	81.92
494.79	23.41
494.96	18.72
495.14	30.43
495.32	98.30
495.49	91.28
495.67	93.62
495.85	74.90
496.02	93.62
496.20	105.32
496.38	91.28
496.55	46.81
496.73	30.43
496.91	93.62
497.09	91.28
497.26	56.17
497.44	121.71
497.62	74.90
497.79	9.36
497.97	126.39
498.14	105.32
498.32	77.24
498.50	91.28
498.67	77.24
498.85	105.32
499.03	72.56
499.20	138.09
499.38	65.54
499.56	30.43
499.73	74.90
499.91	95.96
500.08	98.30
500.26	70.22
500.44	131.07
500.61	142.77
500.79	86.60
500.97	46.81
501.14	86.60
501.32	28.09
501.49	98.30
501.67	100.64
501.84	81.92
502.02	81.92
502.20	63.19
502.37	112.35
502.55	32.77
502.72	135.75
502.90	133.41
503.07	105.32
503.25	95.96
503.43	110.01
503.60	102.98
503.78	58.51
503.95	161.50
504.13	74.90
504.30	131.07
504.48	84.26
504.65	112.35
504.83	131.07
505.01	84.26
505.18	53.83
505.36	154.48
505.53	145.11
505.71	9.36
505.88	30.43
506.06	63.19
506.23	74.90
506.41	72.56
506.58	65.54
506.76	86.60
506.93	114.69
507.11	119.37
507.28	79.58
507.46	152.13
507.63	107.66
507.81	16.38
507.98	25.75
508.16	74.90
508.33	77.24
508.50	81.92
508.68	84.26
508.85	65.54
509.03	128.73
509.20	91.28
509.38	79.58
509.55	88.94
509.73	86.60
509.90	128.73
510.08	7.02
510.25	0.00
510.42	102.98
510.60	65.54
510.77	110.01
510.95	149.79
511.12	56.17
511.30	156.82
511.47	121.71
511.64	77.24
511.82	60.85
511.99	58.51
512.17	72.56
512.34	88.94
512.51	51.49
512.69	112.35
512.86	11.70
513.04	35.11
513.21	58.51
513.38	72.56
513.56	105.32
513.73	37.45
513.90	133.41
514.08	131.07
514.25	166.18
514.43	51.49
514.60	95.96
514.77	114.69
514.95	67.88
515.12	131.07
515.29	2.34
515.47	81.92
515.64	91.28
515.81	138.09
515.99	72.56
516.16	16.38
516.33	25.75
516.51	32.77
516.68	16.38
516.85	37.45
517.03	77.24
517.20	18.72
517.37	56.17
517.54	23.41
517.72	110.01
517.89	93.62
518.06	81.92
518.24	58.51
518.41	35.11
518.58	91.28
518.75	86.60
518.93	44.47
519.10	105.32
519.27	65.54
519.45	72.56
519.62	46.81
519.79	88.94
519.96	23.41
520.14	128.73
520.31	60.85
520.48	81.92
520.65	107.66
520.83	51.49
521.00	56.17
521.17	126.39
521.34	114.69
521.52	135.75
521.69	58.51
521.86	4.68
522.03	121.71
522.20	81.92
522.38	16.38
522.55	56.17
522.72	102.98
522.89	77.24
523.07	112.35
523.24	84.26
523.41	88.94
523.58	95.96
523.75	65.54
523.92	67.88
524.10	117.03
524.27	67.88
524.44	126.39
524.61	91.28
524.78	107.66
524.96	72.56
525.13	44.47
525.30	107.66
525.47	93.62
525.64	39.79
525.81	72.56
525.98	149.79
526.16	46.81
526.33	67.88
526.50	110.01
526.67	0.00
526.84	25.75
527.01	77.24
527.18	79.58
527.36	42.13
527.53	128.73
527.70	72.56
527.87	53.83
528.04	39.79
528.21	46.81
528.38	39.79
528.55	138.09
528.72	72.56
528.89	70.22
529.07	91.28
529.24	95.96
529.41	173.20
529.58	100.64
529.75	133.41
529.92	70.22
530.09	145.11
530.26	39.79
530.43	70.22
530.60	149.79
530.77	81.92
530.94	121.71
531.11	166.18
531.28	145.11
531.46	53.83
531.63	117.03
531.80	72.56
531.97	72.56
532.14	7.02
532.31	58.51
532.48	74.90
532.65	95.96
532.82	44.47
532.99	105.32
533.16	91.28
533.33	84.26
533.50	91.28
533.67	79.58
533.84	65.54
534.01	107.66
534.18	72.56
534.35	110.01
534.52	166.18
534.69	102.98
534.86	93.62
535.03	72.56
535.20	91.28
535.37	46.81
535.54	86.60
535.71	63.19
535.88	81.92
536.05	21.06
536.22	77.24
536.38	124.05
536.55	58.51
536.72	72.56
536.89	72.56
537.06	81.92
537.23	32.77
537.40	105.32
537.57	112.35
537.74	117.03
537.91	84.26
538.08	117.03
538.25	60.85
538.42	9.36
538.59	65.54
538.75	42.13
538.92	128.73
539.09	44.47
539.26	35.11
539.43	98.30
539.60	142.77
539.77	98.30
539.94	18.72
540.11	79.58
540.28	72.56
540.44	81.92
540.61	79.58
540.78	91.28
540.95	128.73
541.12	114.69
541.29	63.19
541.46	65.54
541.62	0.00
541.79	11.70
541.96	86.60
542.13	119.37
542.30	91.28
542.47	91.28
542.63	67.88
542.80	56.17
542.97	112.35
543.14	93.62
543.31	51.49
543.48	11.70
543.64	28.09
543.81	25.75
543.98	60.85
544.15	112.35
544.32	65.54
544.48	142.77
544.65	133.41
544.82	39.79
544.99	42.13
545.16	154.48
545.32	49.15
545.49	93.62
545.66	102.98
545.83	105.32
546.00	117.03
546.16	124.05
546.33	58.51
546.50	128.73
546.67	126.39
546.83	79.58
547.00	100.64
547.17	30.43
547.34	86.60
547.50	25.75
547.67	112.35
547.84	102.98
548.00	145.11
548.17	9.36
548.34	77.24
548.51	56.17
548.67	140.43
548.84	74.90
549.01	35.11
549.18	18.72
549.34	32.77
549.51	74.90
549.68	147.45
549.84	2.34
550.01	74.90
550.18	42.13
550.34	60.85
550.51	88.94
550.68	102.98
550.84	88.94
551.01	63.19
551.18	84.26
551.34	126.39
551.51	79.58
551.68	88.94
551.84	58.51
552.01	72.56
552.18	35.11
552.34	30.43
552.51	84.26
552.68	100.64
552.84	91.28
553.01	86.60
553.18	114.69
553.34	70.22
553.51	98.30
553.67	102.98
553.84	72.56
554.01	84.26
554.17	110.01
554.34	77.24
554.51	58.51
554.67	65.54
554.84	149.79
555.00	60.85
555.17	114.69
555.33	77.24
555.50	23.41
555.67	138.09
555.83	105.32
556.00	102.98
556.16	88.94
556.33	98.30
556.50	100.64
556.66	81.92
556.83	2.34
556.99	63.19
557.16	86.60
557.32	133.41
557.49	133.41
557.65	117.03
557.82	112.35
557.98	58.51
558.15	124.05
558.32	49.15
558.48	72.56
558.65	88.94
558.81	114.69
558.98	77.24
559.14	51.49
559.31	49.15
559.47	102.98
559.64	119.37
559.80	133.41
559.97	138.09
560.13	49.15
560.30	95.96
560.46	53.83
560.63	60.85
560.79	91.28
560.96	86.60
561.12	142.77
561.29	44.47
561.45	102.98
561.61	39.79
561.78	51.49
561.94	114.69
562.11	46.81
562.27	84.26
562.44	60.85
562.60	14.04
562.77	88.94
562.93	93.62
563.10	56.17
563.26	67.88
563.42	117.03
563.59	28.09
563.75	100.64
563.92	18.72
564.08	53.83
564.24	86.60
564.41	138.09
564.57	100.64
564.74	65.54
564.90	114.69
565.07	105.32
565.23	23.41
565.39	74.90
565.56	100.64
565.72	44.47
565.88	30.43
566.05	42.13
566.21	114.69
566.38	88.94
566.54	117.03
566.70	93.62
566.87	91.28
567.03	95.96
567.19	81.92
567.36	30.43
567.52	51.49
567.68	30.43
567.85	49.15
568.01	84.26
568.17	84.26
568.34	81.92
568.50	28.09
568.66	30.43
568.83	74.90
568.99	39.79
569.15	88.94
569.32	51.49
569.48	88.94
569.64	53.83
569.81	163.84
569.97	30.43
570.13	95.96
570.30	91.28
570.46	79.58
570.62	88.94
570.78	128.73
570.95	46.81
571.11	28.09
571.27	117.03
571.43	131.07
571.60	72.56
571.76	91.28
571.92	58.51
572.09	189.58
572.25	124.05
572.41	88.94
572.57	147.45
572.74	102.98
572.90	53.83
573.06	74.90
573.22	100.64
573.38	77.24
573.55	58.51
573.71	145.11
573.87	110.01
574.03	91.28
574.20	63.19
574.36	98.30
574.52	107.66
574.68	98.30
574.84	105.32
575.01	60.85
575.17	81.92
575.33	84.26
575.49	107.66
575.65	67.88
575.82	56.17
575.98	93.62
576.14	102.98
576.30	44.47
576.46	49.15
576.62	53.83
576.79	91.28
576.95	79.58
577.11	65.54
577.27	84.26
577.43	112.35
577.59	91.28
577.75	53.83
577.92	65.54
578.08	168.52
578.24	16.38
578.40	95.96
578.56	110.01
578.72	95.96
578.88	72.56
579.04	51.49
579.21	84.26
579.37	93.62
579.53	0.00
579.69	128.73
579.85	72.56
580.01	58.51
580.17	39.79
580.33	58.51
580.49	105.32
580.65	110.01
580.82	205.97
580.98	46.81
581.14	91.28
581.30	70.22
581.46	70.22
581.62	37.45
581.78	16.38
581.94	70.22
582.10	84.26
582.26	72.56
582.42	74.90
582.58	93.62
582.74	81.92
582.90	44.47
583.06	70.22
583.22	138.09
583.38	46.81
583.54	67.88
583.70	142.77
583.86	74.90
584.02	60.85
584.18	67.88
584.34	77.24
584.50	79.58
584.66	72.56
584.82	100.64
584.98	9.36
585.14	98.30
585.30	86.60
585.46	37.45
585.62	72.56
585.78	121.71
585.94	86.60
586.10	63.19
586.26	70.22
586.42	105.32
586.58	72.56
586.74	60.85
586.90	63.19
587.06	79.58
587.22	44.47
587.38	51.49
587.54	98.30
587.70	14.04
587.86	56.17
588.02	81.92
588.18	72.56
588.34	88.94
588.49	70.22
588.65	93.62
588.81	138.09
588.97	70.22
589.13	56.17
589.29	30.43
589.45	98.30
589.61	70.22
589.77	81.92
589.93	30.43
590.08	58.51
590.24	46.81
590.40	65.54
590.56	32.77
590.72	11.70
590.88	28.09
591.04	81.92
591.20	49.15
591.35	35.11
591.51	2.34
591.67	7.02
591.83	117.03
591.99	145.11
592.15	84.26
592.31	25.75
592.46	74.90
592.62	65.54
592.78	91.28
592.94	79.58
593.10	63.19
593.26	46.81
593.41	58.51
593.57	56.17
593.73	70.22
593.89	60.85
594.05	84.26
594.20	124.05
594.36	0.00
594.52	28.09
594.68	25.75
594.84	0.00
594.99	74.90
595.15	98.30
595.31	72.56
595.47	42.13
595.62	44.47
595.78	37.45
595.94	100.64
596.10	14.04
596.25	81.92
596.41	65.54
596.57	60.85
596.73	91.28
596.88	51.49
597.04	2.34
597.20	60.85
597.36	98.30
597.51	107.66
597.67	121.71
597.83	98.30
597.99	23.41
598.14	0.00
598.30	100.64
598.46	35.11
598.61	53.83
598.77	39.79
598.93	98.30
599.09	53.83
599.24	81.92
599.40	74.90
599.56	93.62
599.71	42.13
599.87	77.24
600.03	95.96
600.18	42.13
600.34	102.98
600.50	84.26
600.65	98.30
600.81	107.66
600.97	81.92
601.12	56.17
601.28	39.79
601.44	60.85
601.59	16.38
601.75	114.69
601.91	166.18
602.06	21.06
602.22	74.90
602.37	70.22
602.53	140.43
602.69	72.56
602.84	65.54
603.00	14.04
603.16	79.58
603.31	86.60
603.47	107.66
603.62	42.13
603.78	110.01
603.94	128.73
604.09	77.24
604.25	56.17
604.40	28.09
604.56	67.88
604.71	65.54
604.87	84.26
605.03	11.70
605.18	81.92
605.34	42.13
605.49	21.06
605.65	72.56
605.80	4.68
605.96	72.56
606.12	51.49
606.27	37.45
606.43	14.04
606.58	60.85
606.74	138.09
606.89	28.09
607.05	53.83
607.20	124.05
607.36	133.41
607.51	42.13
607.67	63.19
607.82	112.35
607.98	35.11
608.13	79.58
608.29	7.02
608.44	2.34
608.60	28.09
608.75	49.15
608.91	79.58
609.06	4.68
609.22	100.64
609.37	0.00
609.53	9.36
609.68	88.94
609.84	56.17
609.99	77.24
610.15	32.77
610.30	42.13
610.46	72.56
610.61	58.51
610.76	16.38
610.92	58.51
611.07	95.96
611.23	88.94
611.38	39.79
611.54	60.85
611.69	51.49
611.84	91.28
612.00	60.85
612.15	49.15
612.31	124.05
612.46	70.22
612.62	77.24
612.77	131.07
612.92	42.13
613.08	18.72
613.23	93.62
613.39	60.85
613.54	32.77
613.69	86.60
613.85	51.49
614.00	81.92
614.15	32.77
614.31	7.02
614.46	0.00
614.62	102.98
614.77	102.98
614.92	84.26
615.08	37.45
615.23	32.77
615.38	0.00
615.54	7.02
615.69	46.81
615.84	11.70
616.00	21.06
616.15	0.00
616.30	128.73
616.46	121.71
616.61	51.49
616.76	60.85
616.92	93.62
617.07	147.45
617.22	119.37
617.37	131.07
617.53	4.68
617.68	44.47
617.83	42.13
617.99	44.47
618.14	88.94
618.29	65.54
618.45	117.03
618.60	21.06
618.75	0.00
618.90	149.79
619.06	44.47
619.21	65.54
619.36	105.32
619.51	142.77
619.67	77.24
619.82	65.54
619.97	9.36
620.12	7.02
620.28	112.35
620.43	138.09
620.58	72.56
620.73	44.47
620.89	72.56
621.04	56.17
621.19	110.01
621.34	0.00
621.49	53.83
621.65	53.83
621.80	67.88
621.95	93.62
622.10	18.72
622.25	84.26
622.41	37.45
622.56	11.70
622.71	102.98
622.86	56.17
623.01	23.41
623.16	32.77
623.32	74.90
623.47	131.07
623.62	35.11
623.77	25.75
623.92	65.54
624.07	117.03
624.23	63.19
624.38	72.56
624.53	46.81
624.68	79.58
624.83	0.00
624.98	107.66
625.13	18.72
625.29	14.04
625.44	74.90
625.59	117.03
625.74	107.66
625.89	95.96
626.04	86.60
626.19	58.51
626.34	84.26
626.49	79.58
626.65	0.00
626.80	35.11
626.95	60.85
627.10	32.77
627.25	67.88
627.40	7.02
627.55	37.45
627.70	44.47
627.85	102.98
628.00	79.58
628.15	28.09
628.30	117.03
628.45	63.19
628.60	121.71
628.76	81.92
628.91	79.58
629.06	49.15
629.21	53.83
629.36	2.34
629.51	14.04
629.66	37.45
629.81	119.37
629.96	88.94
630.11	95.96
630.26	110.01
630.41	126.39
630.56	114.69
630.71	74.90
630.86	81.92
631.01	86.60
631.16	86.60
631.31	44.47
631.46	67.88
631.61	49.15
631.76	37.45
631.91	126.39
632.06	25.75
632.21	67.88
632.36	95.96
632.51	49.15
632.66	30.43
632.81	28.09
632.96	84.26
633.10	23.41
633.25	0.00
633.40	21.06
633.55	28.09
633.70	49.15
633.85	49.15
634.00	30.43
634.15	0.00
634.30	58.51
634.45	114.69
634.60	28.09
634.75	25.75
634.90	9.36
635.05	35.11
635.19	112.35
635.34	46.81
635.49	37.45
635.64	21.06
635.79	28.09
635.94	84.26
636.09	95.96
636.24	63.19
636.39	88.94
636.53	74.90
636.68	60.85
636.83	117.03
636.98	88.94
637.13	84.26
637.28	44.47
637.43	93.62
637.57	53.83
637.72	77.24
637.87	98.30
638.02	46.81
638.17	147.45
638.32	63.19
638.46	105.32
638.61	119.37
638.76	42.13
638.91	67.88
639.06	65.54
639.20	86.60
639.35	88.94
639.50	51.49
639.65	72.56
639.80	105.32
639.94	0.00
640.09	44.47
640.24	14.04
640.39	18.72
640.54	0.00
640.68	28.09
640.83	65.54
640.98	77.24
641.13	131.07
641.27	25.75
641.42	67.88
641.57	65.54
641.72	91.28
641.86	39.79
642.01	72.56
642.16	11.70
642.31	95.96
642.45	51.49
642.60	0.00
642.75	67.88
642.90	16.38
643.04	0.00
643.19	32.77
643.34	51.49
643.48	58.51
643.63	60.85
643.78	72.56
643.93	91.28
644.07	67.88
644.22	56.17
644.37	63.19
644.51	98.30
644.66	21.06
644.81	9.36
644.95	93.62
645.10	91.28
645.25	60.85
645.39	30.43
645.54	84.26
645.69	56.17
645.83	0.00
645.98	0.00
646.13	0.00
646.27	93.62
646.42	4.68
646.57	21.06
646.71	128.73
646.86	51.49
647.00	37.45
647.15	60.85
647.30	93.62
647.44	51.49
647.59	46.81
647.74	30.43
647.88	53.83
648.03	35.11
648.17	44.47
648.32	42.13
648.47	72.56
648.61	16.38
648.76	39.79
648.90	95.96
649.05	11.70
649.20	79.58
649.34	49.15
649.49	46.81
649.63	140.43
649.78	91.28
649.92	88.94
650.07	49.15
650.21	39.79
650.36	23.41
650.51	93.62
650.65	63.19
650.80	58.51
650.94	91.28
651.09	51.49
651.23	88.94
651.38	42.13
651.52	39.79
651.67	32.77
651.81	100.64
651.96	88.94
652.10	72.56
652.25	51.49
652.39	16.38
652.54	65.54
652.68	93.62
652.83	18.72
652.97	44.47
653.12	58.51
653.26	84.26
653.41	102.98
653.55	37.45
653.70	65.54
653.84	72.56
653.99	51.49
654.13	74.90
654.27	0.00
654.42	23.41
654.56	14.04
654.71	67.88
654.85	74.90
655.00	93.62
655.14	70.22
655.29	42.13
655.43	16.38
655.57	11.70
655.72	28.09
655.86	0.00
656.01	4.68
656.15	79.58
656.30	11.70
656.44	88.94
656.58	44.47
656.73	4.68
656.87	102.98
657.01	91.28
657.16	39.79
657.30	7.02
657.45	44.47
657.59	81.92
657.73	65.54
657.88	30.43
658.02	0.00
658.16	30.43
658.31	35.11
658.45	7.02
658.60	11.70
658.74	42.13
658.88	98.30
659.03	81.92
659.17	0.00
659.31	28.09
659.46	51.49
659.60	42.13
659.74	18.72
659.89	56.17
660.03	42.13
660.17	86.60
660.32	91.28
660.46	21.06
660.60	65.54
660.74	53.83
660.89	67.88
661.03	53.83
661.17	79.58
661.32	86.60
661.46	98.30
661.60	74.90
661.74	23.41
661.89	56.17
662.03	74.90
662.17	0.00
662.31	39.79
662.46	39.79
662.60	95.96
662.74	37.45
662.88	23.41
663.03	44.47
663.17	126.39
663.31	0.00
663.45	65.54
663.60	63.19
663.74	58.51
663.88	91.28
664.02	14.04
664.17	84.26
664.31	0.00
664.45	53.83
664.59	67.88
664.73	35.11
664.88	79.58
665.02	53.83
665.16	81.92
665.30	131.07
665.44	51.49
665.59	9.36
665.73	91.28
665.87	65.54
666.01	56.17
666.15	0.00
666.29	121.71
666.44	53.83
666.58	46.81
666.72	23.41
666.86	42.13
667.00	25.75
667.14	2.34
667.28	46.81
667.43	0.00
667.57	42.13
667.71	65.54
667.85	77.24
667.99	93.62
668.13	0.00
668.27	9.36
668.41	117.03
668.56	28.09
668.70	51.49
668.84	51.49
668.98	74.90
669.12	28.09
669.26	46.81
669.40	0.00
669.54	18.72
669.68	30.43
669.82	0.00
669.96	21.06
670.10	28.09
670.25	95.96
670.39	112.35
670.53	42.13
670.67	37.45
670.81	49.15
670.95	23.41
671.09	0.00
671.23	23.41
671.37	18.72
671.51	42.13
671.65	32.77
671.79	91.28
671.93	74.90
672.07	14.04
672.21	58.51
672.35	46.81
672.49	49.15
672.63	70.22
672.77	88.94
672.91	44.47
673.05	39.79
673.19	0.00
673.33	81.92
673.47	77.24
673.61	35.11
673.75	0.00
673.89	88.94
674.03	4.68
674.17	23.41
674.31	0.00
674.45	53.83
674.59	32.77
674.73	77.24
674.87	93.62
675.01	0.00
675.15	14.04
675.29	7.02
675.43	98.30
675.56	58.51
675.70	0.00
675.84	25.75
675.98	60.85
676.12	110.01
676.26	70.22
676.40	25.75
676.54	25.75
676.68	21.06
676.82	65.54
676.96	49.15
677.10	121.71
677.23	39.79
677.37	72.56
677.51	0.00
677.65	77.24
677.79	39.79
677.93	51.49
678.07	46.81
678.21	9.36
678.34	4.68
678.48	67.88
678.62	65.54
678.76	0.00
678.90	16.38
679.04	0.00
679.18	49.15
679.31	81.92
679.45	21.06
679.59	42.13
679.73	114.69
679.87	67.88
680.00	93.62
680.14	58.51
680.28	11.70
680.42	18.72
680.56	37.45
680.70	0.00
680.83	37.45
680.97	51.49
681.11	11.70
681.25	25.75
681.39	42.13
681.52	42.13
681.66	0.00
681.80	18.72
681.94	81.92
682.07	37.45
682.21	2.34
682.35	74.90
682.49	0.00
682.62	37.45
682.76	49.15
682.90	67.88
683.04	39.79
683.17	84.26
683.31	65.54
683.45	67.88
683.59	56.17
683.72	35.11
683.86	77.24
684.00	65.54
684.13	14.04
684.27	0.00
684.41	58.51
684.55	121.71
684.68	18.72
684.82	18.72
684.96	37.45
685.09	53.83
685.23	74.90
685.37	35.11
685.50	60.85
685.64	35.11
685.78	2.34
685.91	0.00
686.05	65.54
686.19	21.06
686.32	65.54
686.46	28.09
686.60	117.03
686.73	0.00
686.87	2.34
687.01	18.72
687.14	53.83
687.28	51.49
687.42	37.45
687.55	25.75
687.69	86.60
687.82	74.90
687.96	42.13
688.10	18.72
688.23	0.00
688.37	110.01
688.50	49.15
688.64	91.28
688.78	49.15
688.91	37.45
689.05	0.00
689.18	88.94
689.32	84.26
689.46	39.79
689.59	49.15
689.73	11.70
689.86	0.00
690.00	88.94
690.13	35.11
690.27	107.66
690.41	65.54
690.54	81.92
690.68	56.17
690.81	0.00
690.95	49.15
691.08	107.66
691.22	21.06
691.35	110.01
691.49	42.13
691.62	35.11
691.76	25.75
691.89	14.04
692.03	0.00
692.16	30.43
692.30	9.36
692.43	0.00
692.57	49.15
692.70	86.60
692.84	72.56
692.97	56.17
693.11	84.26
693.24	7.02
693.38	65.54
693.51	23.41
693.65	58.51
693.78	86.60
693.92	117.03
694.05	39.79
694.19	51.49
694.32	100.64
694.45	74.90
694.59	107.66
694.72	0.00
694.86	0.00
694.99	9.36
695.13	56.17
695.26	84.26
695.39	0.00
695.53	21.06
695.66	79.58
695.80	0.00
695.93	67.88
696.07	95.96
696.20	28.09
696.33	63.19
696.47	0.00
696.60	84.26
696.73	67.88
696.87	0.00
697.00	11.70
697.14	53.83
697.27	4.68
697.40	58.51
697.54	11.70
697.67	46.81
697.80	88.94
697.94	0.00
698.07	37.45
698.21	44.47
698.34	18.72
698.47	0.00
698.61	37.45
698.74	35.11
698.87	65.54
699.01	44.47
699.14	0.00
699.27	23.41
699.40	0.00
699.54	30.43
699.67	60.85
699.80	88.94
699.94	65.54
700.07	0.00
700.20	37.45
700.34	0.00
700.47	28.09
700.60	0.00
700.73	88.94
700.87	0.00
701.00	35.11
701.13	0.00
701.26	0.00
701.40	0.00
701.53	4.68
701.66	63.19
701.79	11.70
701.93	28.09
702.06	0.00
702.19	0.00
702.32	0.00
702.46	25.75
702.59	65.54
702.72	77.24
702.85	28.09
702.99	74.90
703.12	110.01
703.25	88.94
703.38	60.85
703.51	0.00
703.65	32.77
703.78	0.00
703.91	56.17
704.04	2.34
704.17	84.26
704.31	56.17
704.44	46.81
704.57	65.54
704.70	88.94
704.83	86.60
704.96	44.47
705.10	56.17
705.23	0.00
>>>>>End Processed Spectral Data<<<<<
