SpectraSuite Data File
++++++++++++++++++++++++++++++++++++
Date: Fri Oct 04 12:13:32 GMT-05:00 2013
User: price-jones
Dark Spectrum Present: No
Reference Spectrum Present: No
Number of Sampled Component Spectra: 1
Spectrometers: USB2+H05261
Integration Time (usec): 10000 (USB2+H05261)
Spectra Averaged: 1 (USB2+H05261)
Boxcar Smoothing: 0 (USB2+H05261)
Correct for Electrical Dark: No (USB2+H05261)
Strobe/Lamp Enabled: No (USB2+H05261)
Correct for Detector Non-linearity: No (USB2+H05261)
Correct for Stray Light: No (USB2+H05261)
Number of Pixels in Processed Spectrum: 2048
>>>>>Begin Processed Spectral Data<<<<<
365.73	37.45
365.92	37.45
366.12	37.45
366.32	0.00
366.52	0.00
366.72	0.00
366.91	0.00
367.11	0.00
367.31	0.00
367.51	0.00
367.70	0.00
367.90	0.00
368.10	0.00
368.30	0.00
368.49	0.00
368.69	0.00
368.89	0.00
369.09	0.00
369.28	0.00
369.48	0.00
369.68	0.00
369.87	0.00
370.07	0.00
370.27	0.00
370.47	0.00
370.66	0.00
370.86	0.00
371.06	0.00
371.25	0.00
371.45	0.00
371.65	0.00
371.84	0.00
372.04	0.00
372.24	25.75
372.44	14.04
372.63	0.00
372.83	53.83
373.03	0.00
373.22	0.00
373.42	37.45
373.62	81.92
373.81	28.09
374.01	39.79
374.21	46.81
374.40	14.04
374.60	42.13
374.79	16.38
374.99	30.43
375.19	28.09
375.38	11.70
375.58	84.26
375.78	51.49
375.97	67.88
376.17	65.54
376.37	0.00
376.56	37.45
376.76	84.26
376.95	44.47
377.15	14.04
377.35	37.45
377.54	21.06
377.74	39.79
377.93	7.02
378.13	56.17
378.33	35.11
378.52	51.49
378.72	58.51
378.91	14.04
379.11	39.79
379.31	79.58
379.50	7.02
379.70	81.92
379.89	0.00
380.09	23.41
380.28	0.00
380.48	21.06
380.68	0.00
380.87	46.81
381.07	81.92
381.26	0.00
381.46	2.34
381.65	65.54
381.85	25.75
382.04	35.11
382.24	35.11
382.43	0.00
382.63	14.04
382.83	2.34
383.02	0.00
383.22	0.00
383.41	65.54
383.61	0.00
383.80	0.00
384.00	18.72
384.19	133.41
384.39	9.36
384.58	60.85
384.78	72.56
384.97	11.70
385.17	0.00
385.36	37.45
385.56	0.00
385.75	0.00
385.95	0.00
386.14	35.11
386.34	21.06
386.53	46.81
386.72	0.00
386.92	35.11
387.11	58.51
387.31	0.00
387.50	7.02
387.70	58.51
387.89	23.41
388.09	0.00
388.28	28.09
388.48	0.00
388.67	23.41
388.86	0.00
389.06	0.00
389.25	0.00
389.45	0.00
389.64	0.00
389.84	88.94
390.03	0.00
390.22	42.13
390.42	11.70
390.61	95.96
390.81	16.38
391.00	39.79
391.19	35.11
391.39	67.88
391.58	56.17
391.78	67.88
391.97	74.90
392.16	0.00
392.36	18.72
392.55	32.77
392.75	0.00
392.94	0.00
393.13	0.00
393.33	0.00
393.52	0.00
393.71	32.77
393.91	60.85
394.10	0.00
394.29	53.83
394.49	0.00
394.68	100.64
394.88	79.58
395.07	23.41
395.26	39.79
395.46	0.00
395.65	28.09
395.84	0.00
396.04	0.00
396.23	0.00
396.42	42.13
396.62	0.00
396.81	51.49
397.00	102.98
397.19	37.45
397.39	4.68
397.58	0.00
397.77	23.41
397.97	30.43
398.16	30.43
398.35	72.56
398.55	28.09
398.74	51.49
398.93	102.98
399.12	14.04
399.32	74.90
399.51	14.04
399.70	0.00
399.90	56.17
400.09	56.17
400.28	0.00
400.47	0.00
400.67	42.13
400.86	37.45
401.05	14.04
401.24	88.94
401.44	0.00
401.63	0.00
401.82	4.68
402.01	39.79
402.21	46.81
402.40	0.00
402.59	0.00
402.78	4.68
402.97	28.09
403.17	30.43
403.36	67.88
403.55	63.19
403.74	67.88
403.93	79.58
404.13	0.00
404.32	74.90
404.51	14.04
404.70	56.17
404.89	72.56
405.09	0.00
405.28	0.00
405.47	79.58
405.66	84.26
405.85	84.26
406.05	35.11
406.24	0.00
406.43	0.00
406.62	0.00
406.81	16.38
407.00	37.45
407.20	35.11
407.39	49.15
407.58	16.38
407.77	30.43
407.96	23.41
408.15	0.00
408.34	81.92
408.54	9.36
408.73	14.04
408.92	51.49
409.11	9.36
409.30	49.15
409.49	0.00
409.68	37.45
409.87	0.00
410.07	25.75
410.26	0.00
410.45	7.02
410.64	0.00
410.83	11.70
411.02	70.22
411.21	53.83
411.40	4.68
411.59	0.00
411.78	21.06
411.98	32.77
412.17	0.00
412.36	28.09
412.55	77.24
412.74	21.06
412.93	70.22
413.12	84.26
413.31	53.83
413.50	25.75
413.69	4.68
413.88	42.13
414.07	0.00
414.26	7.02
414.45	37.45
414.64	56.17
414.83	35.11
415.02	9.36
415.22	65.54
415.41	91.28
415.60	58.51
415.79	42.13
415.98	18.72
416.17	0.00
416.36	51.49
416.55	0.00
416.74	21.06
416.93	18.72
417.12	110.01
417.31	77.24
417.50	65.54
417.69	0.00
417.88	39.79
418.07	0.00
418.26	98.30
418.45	7.02
418.64	0.00
418.83	56.17
419.02	0.00
419.21	25.75
419.39	21.06
419.58	14.04
419.77	42.13
419.96	21.06
420.15	0.00
420.34	42.13
420.53	65.54
420.72	0.00
420.91	23.41
421.10	53.83
421.29	37.45
421.48	44.47
421.67	46.81
421.86	0.00
422.05	16.38
422.24	72.56
422.43	39.79
422.61	16.38
422.80	37.45
422.99	131.07
423.18	2.34
423.37	58.51
423.56	39.79
423.75	37.45
423.94	46.81
424.13	9.36
424.32	53.83
424.50	63.19
424.69	0.00
424.88	0.00
425.07	0.00
425.26	88.94
425.45	79.58
425.64	23.41
425.83	65.54
426.01	30.43
426.20	0.00
426.39	56.17
426.58	95.96
426.77	53.83
426.96	58.51
427.15	11.70
427.33	0.00
427.52	46.81
427.71	56.17
427.90	44.47
428.09	0.00
428.28	0.00
428.46	51.49
428.65	30.43
428.84	53.83
429.03	11.70
429.22	7.02
429.40	70.22
429.59	0.00
429.78	16.38
429.97	23.41
430.16	81.92
430.34	37.45
430.53	79.58
430.72	0.00
430.91	28.09
431.10	16.38
431.28	16.38
431.47	18.72
431.66	2.34
431.85	39.79
432.03	0.00
432.22	0.00
432.41	39.79
432.60	42.13
432.79	0.00
432.97	95.96
433.16	35.11
433.35	9.36
433.54	0.00
433.72	72.56
433.91	44.47
434.10	0.00
434.28	30.43
434.47	121.71
434.66	51.49
434.85	93.62
435.03	46.81
435.22	32.77
435.41	7.02
435.59	0.00
435.78	58.51
435.97	81.92
436.16	74.90
436.34	4.68
436.53	42.13
436.72	0.00
436.90	0.00
437.09	0.00
437.28	39.79
437.46	42.13
437.65	23.41
437.84	35.11
438.02	51.49
438.21	65.54
438.40	9.36
438.58	9.36
438.77	0.00
438.96	14.04
439.14	107.66
439.33	86.60
439.52	0.00
439.70	28.09
439.89	0.00
440.08	32.77
440.26	23.41
440.45	23.41
440.63	72.56
440.82	121.71
441.01	86.60
441.19	0.00
441.38	67.88
441.57	32.77
441.75	18.72
441.94	0.00
442.12	9.36
442.31	25.75
442.50	18.72
442.68	14.04
442.87	30.43
443.05	46.81
443.24	4.68
443.43	84.26
443.61	0.00
443.80	44.47
443.98	72.56
444.17	39.79
444.35	23.41
444.54	51.49
444.73	0.00
444.91	56.17
445.10	77.24
445.28	44.47
445.47	44.47
445.65	18.72
445.84	28.09
446.02	16.38
446.21	0.00
446.39	0.00
446.58	60.85
446.77	67.88
446.95	42.13
447.14	86.60
447.32	46.81
447.51	117.03
447.69	67.88
447.88	28.09
448.06	28.09
448.25	25.75
448.43	28.09
448.62	51.49
448.80	70.22
448.99	77.24
449.17	18.72
449.36	18.72
449.54	0.00
449.73	7.02
449.91	0.00
450.10	121.71
450.28	30.43
450.46	11.70
450.65	18.72
450.83	4.68
451.02	35.11
451.20	65.54
451.39	98.30
451.57	0.00
451.76	63.19
451.94	65.54
452.13	21.06
452.31	4.68
452.49	0.00
452.68	44.47
452.86	77.24
453.05	86.60
453.23	32.77
453.42	0.00
453.60	14.04
453.78	0.00
453.97	53.83
454.15	0.00
454.34	49.15
454.52	25.75
454.70	30.43
454.89	39.79
455.07	25.75
455.26	23.41
455.44	28.09
455.62	0.00
455.81	44.47
455.99	35.11
456.17	56.17
456.36	14.04
456.54	16.38
456.73	117.03
456.91	81.92
457.09	11.70
457.28	42.13
457.46	0.00
457.64	25.75
457.83	0.00
458.01	58.51
458.19	32.77
458.38	65.54
458.56	11.70
458.74	79.58
458.93	65.54
459.11	88.94
459.29	23.41
459.48	79.58
459.66	37.45
459.84	39.79
460.03	67.88
460.21	44.47
460.39	67.88
460.57	28.09
460.76	58.51
460.94	77.24
461.12	44.47
461.31	32.77
461.49	56.17
461.67	37.45
461.85	53.83
462.04	30.43
462.22	121.71
462.40	53.83
462.59	44.47
462.77	0.00
462.95	49.15
463.13	0.00
463.32	0.00
463.50	14.04
463.68	44.47
463.86	25.75
464.05	86.60
464.23	102.98
464.41	35.11
464.59	0.00
464.78	0.00
464.96	56.17
465.14	35.11
465.32	63.19
465.50	28.09
465.69	58.51
465.87	65.54
466.05	9.36
466.23	63.19
466.41	14.04
466.60	114.69
466.78	0.00
466.96	21.06
467.14	0.00
467.32	0.00
467.51	56.17
467.69	21.06
467.87	0.00
468.05	93.62
468.23	23.41
468.41	0.00
468.60	0.00
468.78	7.02
468.96	16.38
469.14	0.00
469.32	28.09
469.50	0.00
469.69	77.24
469.87	67.88
470.05	60.85
470.23	124.05
470.41	58.51
470.59	44.47
470.77	0.00
470.95	21.06
471.14	53.83
471.32	0.00
471.50	49.15
471.68	25.75
471.86	4.68
472.04	67.88
472.22	11.70
472.40	0.00
472.58	7.02
472.77	46.81
472.95	105.32
473.13	0.00
473.31	0.00
473.49	72.56
473.67	11.70
473.85	23.41
474.03	23.41
474.21	0.00
474.39	16.38
474.57	28.09
474.75	98.30
474.93	0.00
475.12	23.41
475.30	2.34
475.48	11.70
475.66	21.06
475.84	32.77
476.02	58.51
476.20	65.54
476.38	25.75
476.56	112.35
476.74	42.13
476.92	0.00
477.10	0.00
477.28	42.13
477.46	88.94
477.64	21.06
477.82	0.00
478.00	25.75
478.18	14.04
478.36	37.45
478.54	0.00
478.72	42.13
478.90	14.04
479.08	37.45
479.26	72.56
479.44	39.79
479.62	32.77
479.80	0.00
479.98	0.00
480.16	25.75
480.34	65.54
480.52	35.11
480.70	14.04
480.88	46.81
481.06	16.38
481.24	0.00
481.41	30.43
481.59	18.72
481.77	60.85
481.95	49.15
482.13	18.72
482.31	0.00
482.49	53.83
482.67	84.26
482.85	0.00
483.03	0.00
483.21	72.56
483.39	0.00
483.57	11.70
483.74	44.47
483.92	7.02
484.10	18.72
484.28	107.66
484.46	93.62
484.64	107.66
484.82	28.09
485.00	0.00
485.18	51.49
485.35	42.13
485.53	46.81
485.71	72.56
485.89	28.09
486.07	32.77
486.25	46.81
486.43	37.45
486.61	14.04
486.78	11.70
486.96	60.85
487.14	21.06
487.32	0.00
487.50	0.00
487.68	0.00
487.85	46.81
488.03	74.90
488.21	63.19
488.39	0.00
488.57	28.09
488.75	37.45
488.92	49.15
489.10	14.04
489.28	65.54
489.46	14.04
489.64	67.88
489.81	4.68
489.99	0.00
490.17	70.22
490.35	0.00
490.53	60.85
490.70	30.43
490.88	58.51
491.06	51.49
491.24	86.60
491.41	39.79
491.59	56.17
491.77	39.79
491.95	42.13
492.13	60.85
492.30	79.58
492.48	53.83
492.66	23.41
492.84	9.36
493.01	28.09
493.19	0.00
493.37	72.56
493.54	23.41
493.72	37.45
493.90	58.51
494.08	56.17
494.25	42.13
494.43	0.00
494.61	72.56
494.79	9.36
494.96	11.70
495.14	63.19
495.32	74.90
495.49	0.00
495.67	72.56
495.85	0.00
496.02	39.79
496.20	58.51
496.38	56.17
496.55	14.04
496.73	86.60
496.91	14.04
497.09	49.15
497.26	49.15
497.44	0.00
497.62	60.85
497.79	16.38
497.97	51.49
498.14	25.75
498.32	0.00
498.50	46.81
498.67	7.02
498.85	32.77
499.03	18.72
499.20	21.06
499.38	25.75
499.56	60.85
499.73	133.41
499.91	11.70
500.08	49.15
500.26	23.41
500.44	23.41
500.61	21.06
500.79	63.19
500.97	53.83
501.14	23.41
501.32	0.00
501.49	131.07
501.67	0.00
501.84	11.70
502.02	30.43
502.20	42.13
502.37	35.11
502.55	25.75
502.72	37.45
502.90	0.00
503.07	14.04
503.25	86.60
503.43	51.49
503.60	30.43
503.78	30.43
503.95	60.85
504.13	126.39
504.30	32.77
504.48	65.54
504.65	51.49
504.83	0.00
505.01	18.72
505.18	112.35
505.36	0.00
505.53	58.51
505.71	138.09
505.88	44.47
506.06	65.54
506.23	49.15
506.41	56.17
506.58	84.26
506.76	44.47
506.93	72.56
507.11	16.38
507.28	0.00
507.46	23.41
507.63	42.13
507.81	110.01
507.98	72.56
508.16	79.58
508.33	11.70
508.50	79.58
508.68	51.49
508.85	121.71
509.03	39.79
509.20	110.01
509.38	0.00
509.55	51.49
509.73	110.01
509.90	98.30
510.08	74.90
510.25	32.77
510.42	25.75
510.60	30.43
510.77	51.49
510.95	0.00
511.12	28.09
511.30	23.41
511.47	32.77
511.64	49.15
511.82	0.00
511.99	0.00
512.17	11.70
512.34	4.68
512.51	25.75
512.69	67.88
512.86	58.51
513.04	28.09
513.21	63.19
513.38	23.41
513.56	35.11
513.73	65.54
513.90	39.79
514.08	79.58
514.25	74.90
514.43	0.00
514.60	18.72
514.77	25.75
514.95	53.83
515.12	28.09
515.29	91.28
515.47	67.88
515.64	21.06
515.81	72.56
515.99	46.81
516.16	110.01
516.33	46.81
516.51	56.17
516.68	95.96
516.85	84.26
517.03	56.17
517.20	70.22
517.37	58.51
517.54	42.13
517.72	7.02
517.89	49.15
518.06	51.49
518.24	63.19
518.41	63.19
518.58	32.77
518.75	93.62
518.93	112.35
519.10	39.79
519.27	63.19
519.45	91.28
519.62	30.43
519.79	42.13
519.96	51.49
520.14	23.41
520.31	18.72
520.48	37.45
520.65	16.38
520.83	32.77
521.00	49.15
521.17	35.11
521.34	63.19
521.52	0.00
521.69	35.11
521.86	4.68
522.03	9.36
522.20	128.73
522.38	49.15
522.55	63.19
522.72	49.15
522.89	79.58
523.07	32.77
523.24	65.54
523.41	72.56
523.58	51.49
523.75	0.00
523.92	35.11
524.10	70.22
524.27	63.19
524.44	74.90
524.61	67.88
524.78	60.85
524.96	131.07
525.13	51.49
525.30	58.51
525.47	0.00
525.64	2.34
525.81	44.47
525.98	32.77
526.16	77.24
526.33	0.00
526.50	18.72
526.67	74.90
526.84	121.71
527.01	84.26
527.18	58.51
527.36	67.88
527.53	81.92
527.70	2.34
527.87	70.22
528.04	91.28
528.21	86.60
528.38	84.26
528.55	49.15
528.72	28.09
528.89	124.05
529.07	98.30
529.24	49.15
529.41	56.17
529.58	77.24
529.75	77.24
529.92	35.11
530.09	72.56
530.26	93.62
530.43	88.94
530.60	56.17
530.77	84.26
530.94	95.96
531.11	63.19
531.28	32.77
531.46	67.88
531.63	25.75
531.80	11.70
531.97	77.24
532.14	0.00
532.31	0.00
532.48	74.90
532.65	44.47
532.82	46.81
532.99	28.09
533.16	77.24
533.33	53.83
533.50	46.81
533.67	81.92
533.84	60.85
534.01	70.22
534.18	44.47
534.35	23.41
534.52	56.17
534.69	67.88
534.86	0.00
535.03	42.13
535.20	88.94
535.37	60.85
535.54	51.49
535.71	95.96
535.88	28.09
536.05	86.60
536.22	35.11
536.38	0.00
536.55	9.36
536.72	93.62
536.89	32.77
537.06	7.02
537.23	42.13
537.40	23.41
537.57	0.00
537.74	42.13
537.91	81.92
538.08	18.72
538.25	7.02
538.42	105.32
538.59	0.00
538.75	67.88
538.92	63.19
539.09	42.13
539.26	77.24
539.43	88.94
539.60	51.49
539.77	23.41
539.94	53.83
540.11	0.00
540.28	46.81
540.44	0.00
540.61	32.77
540.78	53.83
540.95	23.41
541.12	32.77
541.29	51.49
541.46	30.43
541.62	65.54
541.79	74.90
541.96	21.06
542.13	46.81
542.30	58.51
542.47	77.24
542.63	30.43
542.80	21.06
542.97	86.60
543.14	7.02
543.31	30.43
543.48	119.37
543.64	44.47
543.81	86.60
543.98	56.17
544.15	42.13
544.32	58.51
544.48	77.24
544.65	149.79
544.82	105.32
544.99	44.47
545.16	23.41
545.32	100.64
545.49	0.00
545.66	0.00
545.83	0.00
546.00	81.92
546.16	30.43
546.33	0.00
546.50	9.36
546.67	133.41
546.83	0.00
547.00	0.00
547.17	0.00
547.34	0.00
547.50	30.43
547.67	39.79
547.84	30.43
548.00	86.60
548.17	63.19
548.34	4.68
548.51	23.41
548.67	51.49
548.84	121.71
549.01	23.41
549.18	91.28
549.34	46.81
549.51	74.90
549.68	65.54
549.84	79.58
550.01	70.22
550.18	81.92
550.34	28.09
550.51	63.19
550.68	4.68
550.84	74.90
551.01	84.26
551.18	9.36
551.34	0.00
551.51	49.15
551.68	0.00
551.84	72.56
552.01	67.88
552.18	25.75
552.34	9.36
552.51	58.51
552.68	65.54
552.84	7.02
553.01	28.09
553.18	37.45
553.34	0.00
553.51	25.75
553.67	44.47
553.84	14.04
554.01	65.54
554.17	67.88
554.34	60.85
554.51	25.75
554.67	51.49
554.84	105.32
555.00	0.00
555.17	133.41
555.33	18.72
555.50	32.77
555.67	30.43
555.83	46.81
556.00	0.00
556.16	30.43
556.33	0.00
556.50	42.13
556.66	98.30
556.83	65.54
556.99	23.41
557.16	39.79
557.32	32.77
557.49	67.88
557.65	95.96
557.82	7.02
557.98	30.43
558.15	7.02
558.32	14.04
558.48	16.38
558.65	107.66
558.81	100.64
558.98	91.28
559.14	0.00
559.31	0.00
559.47	0.00
559.64	39.79
559.80	67.88
559.97	60.85
560.13	35.11
560.30	25.75
560.46	4.68
560.63	0.00
560.79	0.00
560.96	35.11
561.12	56.17
561.29	49.15
561.45	0.00
561.61	93.62
561.78	30.43
561.94	67.88
562.11	49.15
562.27	7.02
562.44	21.06
562.60	18.72
562.77	46.81
562.93	46.81
563.10	44.47
563.26	37.45
563.42	14.04
563.59	30.43
563.75	7.02
563.92	37.45
564.08	42.13
564.24	88.94
564.41	25.75
564.57	0.00
564.74	65.54
564.90	0.00
565.07	67.88
565.23	56.17
565.39	37.45
565.56	49.15
565.72	35.11
565.88	2.34
566.05	0.00
566.21	0.00
566.38	0.00
566.54	105.32
566.70	4.68
566.87	21.06
567.03	7.02
567.19	0.00
567.36	51.49
567.52	46.81
567.68	23.41
567.85	0.00
568.01	95.96
568.17	4.68
568.34	25.75
568.50	7.02
568.66	91.28
568.83	42.13
568.99	14.04
569.15	53.83
569.32	21.06
569.48	42.13
569.64	0.00
569.81	0.00
569.97	67.88
570.13	0.00
570.30	81.92
570.46	53.83
570.62	58.51
570.78	93.62
570.95	58.51
571.11	0.00
571.27	39.79
571.43	28.09
571.60	7.02
571.76	60.85
571.92	65.54
572.09	51.49
572.25	0.00
572.41	65.54
572.57	42.13
572.74	56.17
572.90	51.49
573.06	9.36
573.22	18.72
573.38	49.15
573.55	79.58
573.71	117.03
573.87	14.04
574.03	0.00
574.20	7.02
574.36	91.28
574.52	11.70
574.68	0.00
574.84	11.70
575.01	16.38
575.17	0.00
575.33	65.54
575.49	25.75
575.65	102.98
575.82	32.77
575.98	88.94
576.14	14.04
576.30	23.41
576.46	11.70
576.62	35.11
576.79	65.54
576.95	35.11
577.11	7.02
577.27	23.41
577.43	30.43
577.59	0.00
577.75	60.85
577.92	23.41
578.08	30.43
578.24	39.79
578.40	14.04
578.56	37.45
578.72	46.81
578.88	70.22
579.04	79.58
579.21	42.13
579.37	46.81
579.53	23.41
579.69	53.83
579.85	16.38
580.01	56.17
580.17	4.68
580.33	39.79
580.49	9.36
580.65	0.00
580.82	53.83
580.98	35.11
581.14	18.72
581.30	0.00
581.46	4.68
581.62	35.11
581.78	11.70
581.94	77.24
582.10	0.00
582.26	91.28
582.42	2.34
582.58	14.04
582.74	0.00
582.90	25.75
583.06	30.43
583.22	95.96
583.38	70.22
583.54	16.38
583.70	95.96
583.86	81.92
584.02	9.36
584.18	35.11
584.34	56.17
584.50	63.19
584.66	58.51
584.82	46.81
584.98	46.81
585.14	53.83
585.30	67.88
585.46	4.68
585.62	53.83
585.78	21.06
585.94	65.54
586.10	23.41
586.26	25.75
586.42	14.04
586.58	53.83
586.74	51.49
586.90	0.00
587.06	23.41
587.22	67.88
587.38	42.13
587.54	63.19
587.70	28.09
587.86	39.79
588.02	56.17
588.18	23.41
588.34	53.83
588.49	65.54
588.65	0.00
588.81	65.54
588.97	37.45
589.13	84.26
589.29	32.77
589.45	42.13
589.61	16.38
589.77	0.00
589.93	37.45
590.08	65.54
590.24	60.85
590.40	42.13
590.56	70.22
590.72	84.26
590.88	53.83
591.04	0.00
591.20	51.49
591.35	25.75
591.51	18.72
591.67	23.41
591.83	65.54
591.99	77.24
592.15	0.00
592.31	42.13
592.46	42.13
592.62	46.81
592.78	72.56
592.94	60.85
593.10	58.51
593.26	28.09
593.41	37.45
593.57	60.85
593.73	88.94
593.89	91.28
594.05	0.00
594.20	49.15
594.36	0.00
594.52	11.70
594.68	2.34
594.84	30.43
594.99	84.26
595.15	37.45
595.31	93.62
595.47	95.96
595.62	9.36
595.78	0.00
595.94	100.64
596.10	79.58
596.25	39.79
596.41	16.38
596.57	42.13
596.73	25.75
596.88	32.77
597.04	63.19
597.20	44.47
597.36	60.85
597.51	91.28
597.67	53.83
597.83	28.09
597.99	30.43
598.14	58.51
598.30	44.47
598.46	0.00
598.61	46.81
598.77	72.56
598.93	11.70
599.09	56.17
599.24	95.96
599.40	25.75
599.56	53.83
599.71	126.39
599.87	60.85
600.03	32.77
600.18	18.72
600.34	44.47
600.50	39.79
600.65	4.68
600.81	11.70
600.97	70.22
601.12	77.24
601.28	42.13
601.44	74.90
601.59	18.72
601.75	51.49
601.91	72.56
602.06	72.56
602.22	88.94
602.37	28.09
602.53	0.00
602.69	14.04
602.84	0.00
603.00	60.85
603.16	58.51
603.31	37.45
603.47	0.00
603.62	65.54
603.78	74.90
603.94	37.45
604.09	0.00
604.25	11.70
604.40	65.54
604.56	60.85
604.71	63.19
604.87	51.49
605.03	93.62
605.18	46.81
605.34	84.26
605.49	0.00
605.65	81.92
605.80	21.06
605.96	56.17
606.12	37.45
606.27	114.69
606.43	0.00
606.58	74.90
606.74	0.00
606.89	46.81
607.05	39.79
607.20	25.75
607.36	7.02
607.51	16.38
607.67	86.60
607.82	86.60
607.98	51.49
608.13	70.22
608.29	30.43
608.44	25.75
608.60	77.24
608.75	67.88
608.91	142.77
609.06	67.88
609.22	37.45
609.37	65.54
609.53	42.13
609.68	86.60
609.84	2.34
609.99	2.34
610.15	7.02
610.30	88.94
610.46	35.11
610.61	21.06
610.76	14.04
610.92	39.79
611.07	0.00
611.23	0.00
611.38	58.51
611.54	49.15
611.69	0.00
611.84	4.68
612.00	23.41
612.15	32.77
612.31	21.06
612.46	21.06
612.62	49.15
612.77	74.90
612.92	53.83
613.08	2.34
613.23	63.19
613.39	44.47
613.54	65.54
613.69	21.06
613.85	35.11
614.00	16.38
614.15	25.75
614.31	0.00
614.46	35.11
614.62	2.34
614.77	0.00
614.92	86.60
615.08	86.60
615.23	21.06
615.38	23.41
615.54	72.56
615.69	67.88
615.84	35.11
616.00	56.17
616.15	93.62
616.30	35.11
616.46	0.00
616.61	42.13
616.76	46.81
616.92	18.72
617.07	9.36
617.22	0.00
617.37	0.00
617.53	37.45
617.68	72.56
617.83	77.24
617.99	107.66
618.14	14.04
618.29	0.00
618.45	0.00
618.60	74.90
618.75	30.43
618.90	7.02
619.06	7.02
619.21	74.90
619.36	44.47
619.51	0.00
619.67	79.58
619.82	30.43
619.97	25.75
620.12	16.38
620.28	35.11
620.43	35.11
620.58	49.15
620.73	91.28
620.89	84.26
621.04	7.02
621.19	56.17
621.34	58.51
621.49	0.00
621.65	0.00
621.80	53.83
621.95	14.04
622.10	0.00
622.25	23.41
622.41	56.17
622.56	91.28
622.71	25.75
622.86	70.22
623.01	105.32
623.16	35.11
623.32	2.34
623.47	0.00
623.62	0.00
623.77	42.13
623.92	21.06
624.07	9.36
624.23	16.38
624.38	21.06
624.53	28.09
624.68	18.72
624.83	114.69
624.98	79.58
625.13	32.77
625.29	42.13
625.44	28.09
625.59	93.62
625.74	46.81
625.89	14.04
626.04	28.09
626.19	0.00
626.34	23.41
626.49	72.56
626.65	84.26
626.80	44.47
626.95	67.88
627.10	70.22
627.25	39.79
627.40	98.30
627.55	58.51
627.70	58.51
627.85	14.04
628.00	23.41
628.15	4.68
628.30	86.60
628.45	32.77
628.60	58.51
628.76	49.15
628.91	51.49
629.06	25.75
629.21	39.79
629.36	16.38
629.51	51.49
629.66	37.45
629.81	14.04
629.96	23.41
630.11	37.45
630.26	84.26
630.41	37.45
630.56	35.11
630.71	32.77
630.86	35.11
631.01	84.26
631.16	110.01
631.31	32.77
631.46	39.79
631.61	25.75
631.76	2.34
631.91	65.54
632.06	95.96
632.21	23.41
632.36	35.11
632.51	112.35
632.66	56.17
632.81	0.00
632.96	35.11
633.10	72.56
633.25	42.13
633.40	35.11
633.55	16.38
633.70	9.36
633.85	67.88
634.00	21.06
634.15	46.81
634.30	0.00
634.45	0.00
634.60	37.45
634.75	51.49
634.90	46.81
635.05	81.92
635.19	65.54
635.34	32.77
635.49	84.26
635.64	0.00
635.79	84.26
635.94	25.75
636.09	9.36
636.24	4.68
636.39	42.13
636.53	128.73
636.68	117.03
636.83	35.11
636.98	53.83
637.13	25.75
637.28	7.02
637.43	51.49
637.57	60.85
637.72	140.43
637.87	16.38
638.02	65.54
638.17	79.58
638.32	114.69
638.46	60.85
638.61	81.92
638.76	81.92
638.91	107.66
639.06	7.02
639.20	91.28
639.35	86.60
639.50	7.02
639.65	2.34
639.80	49.15
639.94	25.75
640.09	25.75
640.24	79.58
640.39	102.98
640.54	72.56
640.68	88.94
640.83	79.58
640.98	0.00
641.13	32.77
641.27	18.72
641.42	63.19
641.57	0.00
641.72	30.43
641.86	30.43
642.01	0.00
642.16	39.79
642.31	72.56
642.45	49.15
642.60	39.79
642.75	37.45
642.90	7.02
643.04	0.00
643.19	58.51
643.34	4.68
643.48	4.68
643.63	72.56
643.78	46.81
643.93	0.00
644.07	0.00
644.22	91.28
644.37	0.00
644.51	32.77
644.66	49.15
644.81	53.83
644.95	21.06
645.10	0.00
645.25	0.00
645.39	56.17
645.54	67.88
645.69	39.79
645.83	18.72
645.98	7.02
646.13	4.68
646.27	30.43
646.42	28.09
646.57	0.00
646.71	100.64
646.86	42.13
647.00	0.00
647.15	72.56
647.30	56.17
647.44	0.00
647.59	39.79
647.74	91.28
647.88	0.00
648.03	0.00
648.17	21.06
648.32	0.00
648.47	60.85
648.61	58.51
648.76	39.79
648.90	21.06
649.05	0.00
649.20	23.41
649.34	53.83
649.49	23.41
649.63	18.72
649.78	58.51
649.92	51.49
650.07	21.06
650.21	0.00
650.36	7.02
650.51	2.34
650.65	79.58
650.80	93.62
650.94	44.47
651.09	2.34
651.23	58.51
651.38	18.72
651.52	18.72
651.67	0.00
651.81	0.00
651.96	100.64
652.10	0.00
652.25	58.51
652.39	42.13
652.54	60.85
652.68	81.92
652.83	28.09
652.97	37.45
653.12	102.98
653.26	65.54
653.41	53.83
653.55	4.68
653.70	0.00
653.84	0.00
653.99	39.79
654.13	88.94
654.27	9.36
654.42	16.38
654.56	42.13
654.71	0.00
654.85	35.11
655.00	58.51
655.14	51.49
655.29	67.88
655.43	46.81
655.57	91.28
655.72	63.19
655.86	11.70
656.01	18.72
656.15	2.34
656.30	70.22
656.44	2.34
656.58	0.00
656.73	46.81
656.87	98.30
657.01	28.09
657.16	77.24
657.30	53.83
657.45	16.38
657.59	14.04
657.73	11.70
657.88	77.24
658.02	51.49
658.16	0.00
658.31	67.88
658.45	7.02
658.60	60.85
658.74	2.34
658.88	0.00
659.03	51.49
659.17	30.43
659.31	72.56
659.46	0.00
659.60	0.00
659.74	28.09
659.89	128.73
660.03	35.11
660.17	28.09
660.32	72.56
660.46	11.70
660.60	11.70
660.74	14.04
660.89	14.04
661.03	0.00
661.17	0.00
661.32	84.26
661.46	11.70
661.60	58.51
661.74	0.00
661.89	67.88
662.03	16.38
662.17	0.00
662.31	39.79
662.46	51.49
662.60	16.38
662.74	53.83
662.88	49.15
663.03	72.56
663.17	0.00
663.31	23.41
663.45	53.83
663.60	39.79
663.74	86.60
663.88	65.54
664.02	0.00
664.17	46.81
664.31	42.13
664.45	63.19
664.59	42.13
664.73	114.69
664.88	53.83
665.02	42.13
665.16	35.11
665.30	28.09
665.44	81.92
665.59	56.17
665.73	35.11
665.87	70.22
666.01	14.04
666.15	0.00
666.29	7.02
666.44	102.98
666.58	60.85
666.72	11.70
666.86	110.01
667.00	51.49
667.14	49.15
667.28	0.00
667.43	23.41
667.57	21.06
667.71	56.17
667.85	16.38
667.99	0.00
668.13	0.00
668.27	131.07
668.41	39.79
668.56	32.77
668.70	7.02
668.84	72.56
668.98	21.06
669.12	42.13
669.26	63.19
669.40	11.70
669.54	81.92
669.68	0.00
669.82	0.00
669.96	11.70
670.10	4.68
670.25	60.85
670.39	0.00
670.53	60.85
670.67	4.68
670.81	44.47
670.95	0.00
671.09	49.15
671.23	51.49
671.37	77.24
671.51	44.47
671.65	81.92
671.79	79.58
671.93	135.75
672.07	35.11
672.21	0.00
672.35	0.00
672.49	72.56
672.63	14.04
672.77	14.04
672.91	121.71
673.05	51.49
673.19	63.19
673.33	2.34
673.47	37.45
673.61	39.79
673.75	2.34
673.89	0.00
674.03	30.43
674.17	72.56
674.31	67.88
674.45	0.00
674.59	4.68
674.73	23.41
674.87	67.88
675.01	72.56
675.15	72.56
675.29	35.11
675.43	23.41
675.56	81.92
675.70	56.17
675.84	9.36
675.98	58.51
676.12	46.81
676.26	95.96
676.40	51.49
676.54	18.72
676.68	44.47
676.82	63.19
676.96	0.00
677.10	0.00
677.23	28.09
677.37	51.49
677.51	0.00
677.65	81.92
677.79	44.47
677.93	74.90
678.07	9.36
678.21	4.68
678.34	86.60
678.48	0.00
678.62	84.26
678.76	30.43
678.90	0.00
679.04	42.13
679.18	39.79
679.31	18.72
679.45	23.41
679.59	23.41
679.73	58.51
679.87	53.83
680.00	0.00
680.14	0.00
680.28	0.00
680.42	18.72
680.56	30.43
680.70	11.70
680.83	0.00
680.97	28.09
681.11	67.88
681.25	7.02
681.39	0.00
681.52	0.00
681.66	58.51
681.80	0.00
681.94	4.68
682.07	39.79
682.21	42.13
682.35	0.00
682.49	51.49
682.62	2.34
682.76	91.28
682.90	14.04
683.04	100.64
683.17	32.77
683.31	30.43
683.45	93.62
683.59	112.35
683.72	0.00
683.86	93.62
684.00	11.70
684.13	88.94
684.27	2.34
684.41	0.00
684.55	28.09
684.68	30.43
684.82	0.00
684.96	63.19
685.09	28.09
685.23	0.00
685.37	7.02
685.50	28.09
685.64	30.43
685.78	39.79
685.91	84.26
686.05	0.00
686.19	25.75
686.32	0.00
686.46	18.72
686.60	11.70
686.73	74.90
686.87	102.98
687.01	37.45
687.14	0.00
687.28	56.17
687.42	58.51
687.55	28.09
687.69	0.00
687.82	7.02
687.96	0.00
688.10	74.90
688.23	51.49
688.37	4.68
688.50	0.00
688.64	28.09
688.78	42.13
688.91	0.00
689.05	35.11
689.18	23.41
689.32	65.54
689.46	42.13
689.59	56.17
689.73	84.26
689.86	21.06
690.00	67.88
690.13	53.83
690.27	49.15
690.41	46.81
690.54	0.00
690.68	21.06
690.81	72.56
690.95	0.00
691.08	9.36
691.22	30.43
691.35	46.81
691.49	0.00
691.62	14.04
691.76	0.00
691.89	30.43
692.03	0.00
692.16	35.11
692.30	44.47
692.43	32.77
692.57	4.68
692.70	77.24
692.84	7.02
692.97	63.19
693.11	7.02
693.24	11.70
693.38	44.47
693.51	28.09
693.65	77.24
693.78	32.77
693.92	32.77
694.05	23.41
694.19	67.88
694.32	21.06
694.45	0.00
694.59	0.00
694.72	0.00
694.86	51.49
694.99	18.72
695.13	0.00
695.26	21.06
695.39	0.00
695.53	95.96
695.66	23.41
695.80	51.49
695.93	51.49
696.07	44.47
696.20	0.00
696.33	51.49
696.47	0.00
696.60	35.11
696.73	0.00
696.87	21.06
697.00	91.28
697.14	51.49
697.27	79.58
697.40	81.92
697.54	81.92
697.67	0.00
697.80	44.47
697.94	0.00
698.07	30.43
698.21	14.04
698.34	2.34
698.47	14.04
698.61	0.00
698.74	11.70
698.87	0.00
699.01	23.41
699.14	46.81
699.27	58.51
699.40	0.00
699.54	28.09
699.67	100.64
699.80	25.75
699.94	0.00
700.07	30.43
700.20	32.77
700.34	2.34
700.47	105.32
700.60	0.00
700.73	30.43
700.87	49.15
701.00	42.13
701.13	35.11
701.26	42.13
701.40	81.92
701.53	18.72
701.66	49.15
701.79	0.00
701.93	0.00
702.06	21.06
702.19	30.43
702.32	0.00
702.46	81.92
702.59	0.00
702.72	0.00
702.85	49.15
702.99	0.00
703.12	25.75
703.25	9.36
703.38	0.00
703.51	63.19
703.65	58.51
703.78	49.15
703.91	0.00
704.04	21.06
704.17	0.00
704.31	9.36
704.44	23.41
704.57	0.00
704.70	32.77
704.83	67.88
704.96	53.83
705.10	60.85
705.23	58.51
>>>>>End Processed Spectral Data<<<<<
