SpectraSuite Data File
++++++++++++++++++++++++++++++++++++
Date: Fri Oct 04 12:13:26 GMT-05:00 2013
User: price-jones
Dark Spectrum Present: No
Reference Spectrum Present: No
Number of Sampled Component Spectra: 1
Spectrometers: USB2+H05261
Integration Time (usec): 10000 (USB2+H05261)
Spectra Averaged: 1 (USB2+H05261)
Boxcar Smoothing: 0 (USB2+H05261)
Correct for Electrical Dark: No (USB2+H05261)
Strobe/Lamp Enabled: No (USB2+H05261)
Correct for Detector Non-linearity: No (USB2+H05261)
Correct for Stray Light: No (USB2+H05261)
Number of Pixels in Processed Spectrum: 2048
>>>>>Begin Processed Spectral Data<<<<<
365.73	0.00
365.92	0.00
366.12	0.00
366.32	0.00
366.52	0.00
366.72	0.00
366.91	0.00
367.11	0.00
367.31	0.00
367.51	0.00
367.70	0.00
367.90	0.00
368.10	0.00
368.30	0.00
368.49	0.00
368.69	0.00
368.89	0.00
369.09	0.00
369.28	0.00
369.48	0.00
369.68	0.00
369.87	0.00
370.07	0.00
370.27	0.00
370.47	0.00
370.66	0.00
370.86	0.00
371.06	0.00
371.25	0.00
371.45	9.36
371.65	0.00
371.84	63.19
372.04	44.47
372.24	0.00
372.44	42.13
372.63	0.00
372.83	0.00
373.03	58.51
373.22	21.06
373.42	0.00
373.62	32.77
373.81	35.11
374.01	9.36
374.21	39.79
374.40	0.00
374.60	30.43
374.79	86.60
374.99	7.02
375.19	0.00
375.38	35.11
375.58	63.19
375.78	0.00
375.97	7.02
376.17	0.00
376.37	25.75
376.56	16.38
376.76	16.38
376.95	42.13
377.15	23.41
377.35	0.00
377.54	0.00
377.74	0.00
377.93	4.68
378.13	0.00
378.33	7.02
378.52	0.00
378.72	30.43
378.91	2.34
379.11	21.06
379.31	35.11
379.50	0.00
379.70	0.00
379.89	7.02
380.09	53.83
380.28	0.00
380.48	0.00
380.68	0.00
380.87	0.00
381.07	23.41
381.26	4.68
381.46	0.00
381.65	44.47
381.85	28.09
382.04	18.72
382.24	0.00
382.43	18.72
382.63	0.00
382.83	53.83
383.02	37.45
383.22	0.00
383.41	37.45
383.61	0.00
383.80	21.06
384.00	0.00
384.19	56.17
384.39	0.00
384.58	30.43
384.78	9.36
384.97	4.68
385.17	39.79
385.36	16.38
385.56	4.68
385.75	56.17
385.95	18.72
386.14	0.00
386.34	2.34
386.53	25.75
386.72	0.00
386.92	0.00
387.11	0.00
387.31	0.00
387.50	0.00
387.70	0.00
387.89	0.00
388.09	7.02
388.28	28.09
388.48	0.00
388.67	58.51
388.86	0.00
389.06	7.02
389.25	0.00
389.45	37.45
389.64	25.75
389.84	21.06
390.03	18.72
390.22	23.41
390.42	42.13
390.61	25.75
390.81	32.77
391.00	72.56
391.19	0.00
391.39	2.34
391.58	4.68
391.78	23.41
391.97	9.36
392.16	51.49
392.36	0.00
392.55	37.45
392.75	35.11
392.94	0.00
393.13	21.06
393.33	60.85
393.52	30.43
393.71	79.58
393.91	21.06
394.10	18.72
394.29	70.22
394.49	7.02
394.68	124.05
394.88	28.09
395.07	46.81
395.26	84.26
395.46	60.85
395.65	51.49
395.84	0.00
396.04	30.43
396.23	35.11
396.42	65.54
396.62	42.13
396.81	35.11
397.00	105.32
397.19	0.00
397.39	4.68
397.58	42.13
397.77	28.09
397.97	37.45
398.16	46.81
398.35	56.17
398.55	53.83
398.74	60.85
398.93	23.41
399.12	0.00
399.32	35.11
399.51	16.38
399.70	77.24
399.90	91.28
400.09	0.00
400.28	23.41
400.47	0.00
400.67	53.83
400.86	51.49
401.05	4.68
401.24	28.09
401.44	18.72
401.63	67.88
401.82	0.00
402.01	42.13
402.21	0.00
402.40	49.15
402.59	21.06
402.78	7.02
402.97	58.51
403.17	0.00
403.36	11.70
403.55	18.72
403.74	23.41
403.93	0.00
404.13	0.00
404.32	14.04
404.51	0.00
404.70	0.00
404.89	23.41
405.09	53.83
405.28	0.00
405.47	28.09
405.66	53.83
405.85	86.60
406.05	7.02
406.24	0.00
406.43	11.70
406.62	0.00
406.81	0.00
407.00	11.70
407.20	44.47
407.39	32.77
407.58	46.81
407.77	28.09
407.96	32.77
408.15	60.85
408.34	11.70
408.54	56.17
408.73	37.45
408.92	16.38
409.11	0.00
409.30	0.00
409.49	30.43
409.68	91.28
409.87	39.79
410.07	30.43
410.26	88.94
410.45	25.75
410.64	4.68
410.83	0.00
411.02	49.15
411.21	9.36
411.40	16.38
411.59	7.02
411.78	53.83
411.98	0.00
412.17	58.51
412.36	42.13
412.55	14.04
412.74	28.09
412.93	42.13
413.12	0.00
413.31	79.58
413.50	65.54
413.69	65.54
413.88	79.58
414.07	14.04
414.26	32.77
414.45	63.19
414.64	4.68
414.83	0.00
415.02	44.47
415.22	44.47
415.41	32.77
415.60	4.68
415.79	32.77
415.98	11.70
416.17	28.09
416.36	46.81
416.55	35.11
416.74	39.79
416.93	51.49
417.12	4.68
417.31	11.70
417.50	21.06
417.69	39.79
417.88	30.43
418.07	0.00
418.26	32.77
418.45	67.88
418.64	0.00
418.83	30.43
419.02	77.24
419.21	0.00
419.39	4.68
419.58	4.68
419.77	0.00
419.96	35.11
420.15	14.04
420.34	30.43
420.53	25.75
420.72	72.56
420.91	56.17
421.10	42.13
421.29	58.51
421.48	7.02
421.67	42.13
421.86	0.00
422.05	21.06
422.24	0.00
422.43	35.11
422.61	42.13
422.80	46.81
422.99	46.81
423.18	49.15
423.37	65.54
423.56	72.56
423.75	0.00
423.94	0.00
424.13	14.04
424.32	60.85
424.50	35.11
424.69	28.09
424.88	98.30
425.07	23.41
425.26	81.92
425.45	0.00
425.64	25.75
425.83	16.38
426.01	67.88
426.20	23.41
426.39	91.28
426.58	95.96
426.77	37.45
426.96	49.15
427.15	0.00
427.33	0.00
427.52	25.75
427.71	37.45
427.90	86.60
428.09	18.72
428.28	0.00
428.46	0.00
428.65	23.41
428.84	0.00
429.03	98.30
429.22	21.06
429.40	95.96
429.59	25.75
429.78	28.09
429.97	72.56
430.16	21.06
430.34	18.72
430.53	14.04
430.72	11.70
430.91	77.24
431.10	2.34
431.28	0.00
431.47	0.00
431.66	117.03
431.85	91.28
432.03	28.09
432.22	63.19
432.41	49.15
432.60	16.38
432.79	0.00
432.97	67.88
433.16	0.00
433.35	53.83
433.54	28.09
433.72	51.49
433.91	11.70
434.10	0.00
434.28	2.34
434.47	60.85
434.66	56.17
434.85	23.41
435.03	112.35
435.22	58.51
435.41	25.75
435.59	28.09
435.78	39.79
435.97	42.13
436.16	63.19
436.34	18.72
436.53	58.51
436.72	70.22
436.90	37.45
437.09	49.15
437.28	0.00
437.46	42.13
437.65	32.77
437.84	30.43
438.02	67.88
438.21	35.11
438.40	60.85
438.58	39.79
438.77	0.00
438.96	79.58
439.14	23.41
439.33	18.72
439.52	93.62
439.70	32.77
439.89	11.70
440.08	23.41
440.26	7.02
440.45	98.30
440.63	0.00
440.82	14.04
441.01	65.54
441.19	28.09
441.38	9.36
441.57	56.17
441.75	74.90
441.94	23.41
442.12	11.70
442.31	0.00
442.50	0.00
442.68	4.68
442.87	11.70
443.05	14.04
443.24	0.00
443.43	30.43
443.61	72.56
443.80	42.13
443.98	93.62
444.17	4.68
444.35	0.00
444.54	37.45
444.73	23.41
444.91	0.00
445.10	21.06
445.28	121.71
445.47	4.68
445.65	42.13
445.84	39.79
446.02	18.72
446.21	0.00
446.39	53.83
446.58	0.00
446.77	9.36
446.95	37.45
447.14	0.00
447.32	4.68
447.51	37.45
447.69	42.13
447.88	0.00
448.06	0.00
448.25	25.75
448.43	72.56
448.62	58.51
448.80	2.34
448.99	88.94
449.17	28.09
449.36	23.41
449.54	37.45
449.73	21.06
449.91	124.05
450.10	49.15
450.28	16.38
450.46	2.34
450.65	88.94
450.83	39.79
451.02	0.00
451.20	14.04
451.39	49.15
451.57	37.45
451.76	9.36
451.94	28.09
452.13	58.51
452.31	28.09
452.49	7.02
452.68	9.36
452.86	51.49
453.05	67.88
453.23	39.79
453.42	11.70
453.60	51.49
453.78	0.00
453.97	0.00
454.15	0.00
454.34	63.19
454.52	107.66
454.70	35.11
454.89	11.70
455.07	0.00
455.26	88.94
455.44	23.41
455.62	14.04
455.81	18.72
455.99	0.00
456.17	0.00
456.36	0.00
456.54	16.38
456.73	32.77
456.91	86.60
457.09	32.77
457.28	0.00
457.46	9.36
457.64	35.11
457.83	23.41
458.01	0.00
458.19	77.24
458.38	65.54
458.56	67.88
458.74	0.00
458.93	51.49
459.11	112.35
459.29	46.81
459.48	74.90
459.66	93.62
459.84	46.81
460.03	0.00
460.21	39.79
460.39	79.58
460.57	63.19
460.76	81.92
460.94	0.00
461.12	65.54
461.31	74.90
461.49	0.00
461.67	0.00
461.85	16.38
462.04	72.56
462.22	149.79
462.40	28.09
462.59	37.45
462.77	42.13
462.95	14.04
463.13	32.77
463.32	67.88
463.50	124.05
463.68	0.00
463.86	28.09
464.05	32.77
464.23	11.70
464.41	60.85
464.59	49.15
464.78	0.00
464.96	23.41
465.14	35.11
465.32	18.72
465.50	28.09
465.69	79.58
465.87	0.00
466.05	79.58
466.23	11.70
466.41	86.60
466.60	16.38
466.78	63.19
466.96	18.72
467.14	0.00
467.32	14.04
467.51	56.17
467.69	77.24
467.87	39.79
468.05	23.41
468.23	32.77
468.41	46.81
468.60	7.02
468.78	32.77
468.96	56.17
469.14	35.11
469.32	9.36
469.50	0.00
469.69	18.72
469.87	23.41
470.05	16.38
470.23	98.30
470.41	70.22
470.59	39.79
470.77	25.75
470.95	23.41
471.14	42.13
471.32	2.34
471.50	79.58
471.68	46.81
471.86	86.60
472.04	77.24
472.22	9.36
472.40	35.11
472.58	37.45
472.77	7.02
472.95	63.19
473.13	56.17
473.31	0.00
473.49	30.43
473.67	60.85
473.85	0.00
474.03	58.51
474.21	0.00
474.39	0.00
474.57	28.09
474.75	23.41
474.93	105.32
475.12	23.41
475.30	98.30
475.48	46.81
475.66	28.09
475.84	0.00
476.02	81.92
476.20	7.02
476.38	0.00
476.56	58.51
476.74	46.81
476.92	18.72
477.10	0.00
477.28	0.00
477.46	0.00
477.64	9.36
477.82	30.43
478.00	70.22
478.18	32.77
478.36	65.54
478.54	0.00
478.72	14.04
478.90	44.47
479.08	93.62
479.26	65.54
479.44	42.13
479.62	58.51
479.80	53.83
479.98	32.77
480.16	49.15
480.34	51.49
480.52	14.04
480.70	42.13
480.88	79.58
481.06	56.17
481.24	110.01
481.41	0.00
481.59	35.11
481.77	0.00
481.95	0.00
482.13	0.00
482.31	0.00
482.49	46.81
482.67	46.81
482.85	88.94
483.03	56.17
483.21	0.00
483.39	16.38
483.57	63.19
483.74	2.34
483.92	84.26
484.10	88.94
484.28	63.19
484.46	74.90
484.64	0.00
484.82	37.45
485.00	0.00
485.18	44.47
485.35	9.36
485.53	0.00
485.71	60.85
485.89	30.43
486.07	14.04
486.25	86.60
486.43	107.66
486.61	23.41
486.78	0.00
486.96	51.49
487.14	30.43
487.32	0.00
487.50	7.02
487.68	46.81
487.85	0.00
488.03	74.90
488.21	107.66
488.39	28.09
488.57	16.38
488.75	60.85
488.92	30.43
489.10	0.00
489.28	7.02
489.46	0.00
489.64	14.04
489.81	0.00
489.99	49.15
490.17	138.09
490.35	60.85
490.53	44.47
490.70	58.51
490.88	25.75
491.06	58.51
491.24	0.00
491.41	91.28
491.59	79.58
491.77	65.54
491.95	7.02
492.13	42.13
492.30	16.38
492.48	60.85
492.66	25.75
492.84	16.38
493.01	77.24
493.19	58.51
493.37	84.26
493.54	63.19
493.72	21.06
493.90	28.09
494.08	18.72
494.25	42.13
494.43	14.04
494.61	16.38
494.79	35.11
494.96	63.19
495.14	74.90
495.32	46.81
495.49	0.00
495.67	14.04
495.85	4.68
496.02	51.49
496.20	30.43
496.38	81.92
496.55	53.83
496.73	72.56
496.91	53.83
497.09	77.24
497.26	42.13
497.44	86.60
497.62	0.00
497.79	86.60
497.97	18.72
498.14	4.68
498.32	60.85
498.50	79.58
498.67	72.56
498.85	42.13
499.03	39.79
499.20	0.00
499.38	0.00
499.56	30.43
499.73	32.77
499.91	100.64
500.08	46.81
500.26	23.41
500.44	65.54
500.61	16.38
500.79	23.41
500.97	18.72
501.14	51.49
501.32	58.51
501.49	28.09
501.67	39.79
501.84	72.56
502.02	70.22
502.20	32.77
502.37	30.43
502.55	49.15
502.72	14.04
502.90	72.56
503.07	32.77
503.25	0.00
503.43	0.00
503.60	0.00
503.78	86.60
503.95	102.98
504.13	35.11
504.30	88.94
504.48	60.85
504.65	42.13
504.83	14.04
505.01	81.92
505.18	63.19
505.36	88.94
505.53	21.06
505.71	30.43
505.88	51.49
506.06	49.15
506.23	37.45
506.41	42.13
506.58	58.51
506.76	18.72
506.93	51.49
507.11	60.85
507.28	65.54
507.46	30.43
507.63	53.83
507.81	56.17
507.98	0.00
508.16	9.36
508.33	70.22
508.50	0.00
508.68	0.00
508.85	53.83
509.03	93.62
509.20	11.70
509.38	70.22
509.55	23.41
509.73	65.54
509.90	42.13
510.08	0.00
510.25	63.19
510.42	44.47
510.60	107.66
510.77	0.00
510.95	65.54
511.12	95.96
511.30	63.19
511.47	93.62
511.64	88.94
511.82	7.02
511.99	4.68
512.17	65.54
512.34	53.83
512.51	0.00
512.69	44.47
512.86	0.00
513.04	23.41
513.21	51.49
513.38	0.00
513.56	32.77
513.73	16.38
513.90	35.11
514.08	93.62
514.25	18.72
514.43	30.43
514.60	58.51
514.77	37.45
514.95	25.75
515.12	2.34
515.29	4.68
515.47	63.19
515.64	28.09
515.81	25.75
515.99	88.94
516.16	72.56
516.33	32.77
516.51	67.88
516.68	0.00
516.85	72.56
517.03	7.02
517.20	46.81
517.37	142.77
517.54	65.54
517.72	7.02
517.89	70.22
518.06	79.58
518.24	25.75
518.41	9.36
518.58	39.79
518.75	39.79
518.93	70.22
519.10	58.51
519.27	67.88
519.45	9.36
519.62	0.00
519.79	0.00
519.96	49.15
520.14	102.98
520.31	25.75
520.48	39.79
520.65	112.35
520.83	86.60
521.00	49.15
521.17	30.43
521.34	0.00
521.52	14.04
521.69	93.62
521.86	67.88
522.03	39.79
522.20	0.00
522.38	32.77
522.55	16.38
522.72	44.47
522.89	23.41
523.07	95.96
523.24	49.15
523.41	93.62
523.58	63.19
523.75	16.38
523.92	11.70
524.10	79.58
524.27	51.49
524.44	32.77
524.61	0.00
524.78	60.85
524.96	0.00
525.13	0.00
525.30	42.13
525.47	32.77
525.64	11.70
525.81	35.11
525.98	18.72
526.16	32.77
526.33	86.60
526.50	74.90
526.67	81.92
526.84	107.66
527.01	72.56
527.18	105.32
527.36	2.34
527.53	32.77
527.70	35.11
527.87	0.00
528.04	16.38
528.21	0.00
528.38	60.85
528.55	65.54
528.72	53.83
528.89	25.75
529.07	28.09
529.24	21.06
529.41	74.90
529.58	0.00
529.75	0.00
529.92	74.90
530.09	0.00
530.26	65.54
530.43	30.43
530.60	0.00
530.77	18.72
530.94	86.60
531.11	67.88
531.28	23.41
531.46	70.22
531.63	37.45
531.80	53.83
531.97	72.56
532.14	0.00
532.31	0.00
532.48	49.15
532.65	35.11
532.82	77.24
532.99	14.04
533.16	77.24
533.33	9.36
533.50	35.11
533.67	32.77
533.84	131.07
534.01	67.88
534.18	65.54
534.35	72.56
534.52	23.41
534.69	23.41
534.86	77.24
535.03	77.24
535.20	81.92
535.37	107.66
535.54	16.38
535.71	21.06
535.88	88.94
536.05	4.68
536.22	39.79
536.38	37.45
536.55	0.00
536.72	9.36
536.89	18.72
537.06	53.83
537.23	39.79
537.40	79.58
537.57	95.96
537.74	56.17
537.91	18.72
538.08	60.85
538.25	79.58
538.42	74.90
538.59	114.69
538.75	11.70
538.92	49.15
539.09	49.15
539.26	100.64
539.43	56.17
539.60	46.81
539.77	95.96
539.94	14.04
540.11	32.77
540.28	23.41
540.44	72.56
540.61	0.00
540.78	11.70
540.95	46.81
541.12	30.43
541.29	77.24
541.46	74.90
541.62	53.83
541.79	88.94
541.96	72.56
542.13	16.38
542.30	53.83
542.47	46.81
542.63	32.77
542.80	18.72
542.97	84.26
543.14	56.17
543.31	9.36
543.48	49.15
543.64	16.38
543.81	46.81
543.98	159.16
544.15	51.49
544.32	23.41
544.48	46.81
544.65	44.47
544.82	58.51
544.99	60.85
545.16	67.88
545.32	65.54
545.49	37.45
545.66	44.47
545.83	53.83
546.00	0.00
546.16	51.49
546.33	0.00
546.50	117.03
546.67	0.00
546.83	0.00
547.00	65.54
547.17	56.17
547.34	46.81
547.50	35.11
547.67	35.11
547.84	11.70
548.00	37.45
548.17	32.77
548.34	91.28
548.51	39.79
548.67	18.72
548.84	74.90
549.01	0.00
549.18	56.17
549.34	51.49
549.51	0.00
549.68	102.98
549.84	91.28
550.01	114.69
550.18	65.54
550.34	86.60
550.51	44.47
550.68	67.88
550.84	16.38
551.01	0.00
551.18	81.92
551.34	49.15
551.51	65.54
551.68	60.85
551.84	70.22
552.01	16.38
552.18	60.85
552.34	72.56
552.51	0.00
552.68	51.49
552.84	0.00
553.01	44.47
553.18	65.54
553.34	60.85
553.51	14.04
553.67	46.81
553.84	32.77
554.01	0.00
554.17	74.90
554.34	67.88
554.51	91.28
554.67	28.09
554.84	67.88
555.00	32.77
555.17	9.36
555.33	0.00
555.50	16.38
555.67	56.17
555.83	28.09
556.00	79.58
556.16	149.79
556.33	79.58
556.50	0.00
556.66	49.15
556.83	46.81
556.99	53.83
557.16	60.85
557.32	93.62
557.49	9.36
557.65	9.36
557.82	51.49
557.98	21.06
558.15	98.30
558.32	9.36
558.48	46.81
558.65	30.43
558.81	14.04
558.98	25.75
559.14	21.06
559.31	67.88
559.47	0.00
559.64	58.51
559.80	91.28
559.97	37.45
560.13	16.38
560.30	0.00
560.46	67.88
560.63	21.06
560.79	0.00
560.96	25.75
561.12	79.58
561.29	56.17
561.45	156.82
561.61	49.15
561.78	37.45
561.94	88.94
562.11	51.49
562.27	0.00
562.44	42.13
562.60	49.15
562.77	60.85
562.93	65.54
563.10	91.28
563.26	0.00
563.42	49.15
563.59	9.36
563.75	30.43
563.92	35.11
564.08	14.04
564.24	63.19
564.41	98.30
564.57	32.77
564.74	16.38
564.90	14.04
565.07	18.72
565.23	81.92
565.39	28.09
565.56	18.72
565.72	93.62
565.88	0.00
566.05	49.15
566.21	53.83
566.38	9.36
566.54	39.79
566.70	60.85
566.87	51.49
567.03	63.19
567.19	65.54
567.36	0.00
567.52	32.77
567.68	16.38
567.85	63.19
568.01	32.77
568.17	81.92
568.34	91.28
568.50	25.75
568.66	0.00
568.83	21.06
568.99	30.43
569.15	30.43
569.32	7.02
569.48	46.81
569.64	86.60
569.81	21.06
569.97	30.43
570.13	37.45
570.30	74.90
570.46	84.26
570.62	0.00
570.78	28.09
570.95	0.00
571.11	42.13
571.27	74.90
571.43	0.00
571.60	60.85
571.76	56.17
571.92	81.92
572.09	72.56
572.25	0.00
572.41	28.09
572.57	25.75
572.74	63.19
572.90	53.83
573.06	56.17
573.22	16.38
573.38	135.75
573.55	86.60
573.71	42.13
573.87	25.75
574.03	21.06
574.20	72.56
574.36	39.79
574.52	11.70
574.68	32.77
574.84	67.88
575.01	0.00
575.17	7.02
575.33	0.00
575.49	53.83
575.65	70.22
575.82	30.43
575.98	95.96
576.14	0.00
576.30	35.11
576.46	0.00
576.62	18.72
576.79	42.13
576.95	9.36
577.11	95.96
577.27	18.72
577.43	60.85
577.59	9.36
577.75	32.77
577.92	51.49
578.08	79.58
578.24	4.68
578.40	44.47
578.56	53.83
578.72	32.77
578.88	39.79
579.04	9.36
579.21	58.51
579.37	42.13
579.53	0.00
579.69	39.79
579.85	0.00
580.01	81.92
580.17	9.36
580.33	67.88
580.49	0.00
580.65	74.90
580.82	14.04
580.98	18.72
581.14	67.88
581.30	11.70
581.46	18.72
581.62	81.92
581.78	72.56
581.94	0.00
582.10	58.51
582.26	49.15
582.42	25.75
582.58	18.72
582.74	0.00
582.90	21.06
583.06	4.68
583.22	39.79
583.38	39.79
583.54	4.68
583.70	0.00
583.86	49.15
584.02	7.02
584.18	0.00
584.34	65.54
584.50	140.43
584.66	744.29
584.82	1514.33
584.98	1952.01
585.14	1699.23
585.30	1121.12
585.46	671.73
585.62	484.49
585.78	238.73
585.94	142.77
586.10	35.11
586.26	72.56
586.42	49.15
586.58	119.37
586.74	0.00
586.90	46.81
587.06	81.92
587.22	0.00
587.38	9.36
587.54	14.04
587.70	102.98
587.86	234.05
588.02	177.88
588.18	163.84
588.34	72.56
588.49	18.72
588.65	18.72
588.81	63.19
588.97	16.38
589.13	46.81
589.29	46.81
589.45	74.90
589.61	37.45
589.77	35.11
589.93	72.56
590.08	102.98
590.24	0.00
590.40	112.35
590.56	63.19
590.72	74.90
590.88	0.00
591.04	72.56
591.20	65.54
591.35	0.00
591.51	2.34
591.67	114.69
591.83	4.68
591.99	9.36
592.15	72.56
592.31	30.43
592.46	67.88
592.62	18.72
592.78	0.00
592.94	0.00
593.10	0.00
593.26	88.94
593.41	88.94
593.57	70.22
593.73	70.22
593.89	191.92
594.05	217.67
594.20	299.59
594.36	212.99
594.52	241.08
594.68	215.33
594.84	140.43
594.99	91.28
595.15	49.15
595.31	0.00
595.47	67.88
595.62	25.75
595.78	58.51
595.94	49.15
596.10	105.32
596.25	72.56
596.41	39.79
596.57	49.15
596.73	35.11
596.88	44.47
597.04	67.88
597.20	79.58
597.36	51.49
597.51	100.64
597.67	56.17
597.83	23.41
597.99	81.92
598.14	65.54
598.30	42.13
598.46	37.45
598.61	39.79
598.77	51.49
598.93	70.22
599.09	51.49
599.24	51.49
599.40	0.00
599.56	21.06
599.71	58.51
599.87	23.41
600.03	42.13
600.18	11.70
600.34	25.75
600.50	0.00
600.65	30.43
600.81	0.00
600.97	14.04
601.12	70.22
601.28	70.22
601.44	56.17
601.59	65.54
601.75	35.11
601.91	72.56
602.06	37.45
602.22	58.51
602.37	16.38
602.53	56.17
602.69	112.35
602.84	58.51
603.00	166.18
603.16	58.51
603.31	189.58
603.47	0.00
603.62	63.19
603.78	86.60
603.94	28.09
604.09	74.90
604.25	49.15
604.40	21.06
604.56	42.13
604.71	51.49
604.87	72.56
605.03	0.00
605.18	100.64
605.34	63.19
605.49	74.90
605.65	35.11
605.80	72.56
605.96	46.81
606.12	23.41
606.27	102.98
606.43	84.26
606.58	0.00
606.74	65.54
606.89	173.20
607.05	182.56
607.20	194.26
607.36	196.60
607.51	112.35
607.67	102.98
607.82	161.50
607.98	51.49
608.13	58.51
608.29	35.11
608.44	0.00
608.60	0.00
608.75	46.81
608.91	119.37
609.06	138.09
609.22	285.55
609.37	280.86
609.53	290.23
609.68	276.18
609.84	161.50
609.99	84.26
610.15	42.13
610.30	77.24
610.46	37.45
610.61	32.77
610.76	138.09
610.92	21.06
611.07	25.75
611.23	42.13
611.38	98.30
611.54	91.28
611.69	74.90
611.84	32.77
612.00	121.71
612.15	7.02
612.31	79.58
612.46	18.72
612.62	58.51
612.77	28.09
612.92	93.62
613.08	0.00
613.23	0.00
613.39	39.79
613.54	53.83
613.69	208.31
613.85	397.89
614.00	500.87
614.15	470.45
614.31	454.06
614.46	315.97
614.62	203.63
614.77	107.66
614.92	100.64
615.08	37.45
615.23	72.56
615.38	0.00
615.54	25.75
615.69	72.56
615.84	44.47
616.00	159.16
616.15	198.95
616.30	149.79
616.46	37.45
616.61	32.77
616.76	107.66
616.92	44.47
617.07	0.00
617.22	51.49
617.37	30.43
617.53	11.70
617.68	14.04
617.83	32.77
617.99	11.70
618.14	0.00
618.29	74.90
618.45	56.17
618.60	30.43
618.75	0.00
618.90	35.11
619.06	0.00
619.21	35.11
619.36	0.00
619.51	11.70
619.67	32.77
619.82	39.79
619.97	107.66
620.12	2.34
620.28	4.68
620.43	18.72
620.58	102.98
620.73	16.38
620.89	42.13
621.04	81.92
621.19	39.79
621.34	74.90
621.49	110.01
621.65	117.03
621.80	107.66
621.95	88.94
622.10	23.41
622.25	51.49
622.41	37.45
622.56	14.04
622.71	46.81
622.86	0.00
623.01	65.54
623.16	39.79
623.32	0.00
623.47	0.00
623.62	9.36
623.77	11.70
623.92	0.00
624.07	32.77
624.23	110.01
624.38	7.02
624.53	63.19
624.68	51.49
624.83	58.51
624.98	0.00
625.13	56.17
625.29	16.38
625.44	30.43
625.59	42.13
625.74	98.30
625.89	44.47
626.04	138.09
626.19	276.18
626.34	259.80
626.49	271.50
626.65	212.99
626.80	236.39
626.95	91.28
627.10	124.05
627.25	98.30
627.40	44.47
627.55	58.51
627.70	70.22
627.85	88.94
628.00	131.07
628.15	0.00
628.30	0.00
628.45	74.90
628.60	32.77
628.76	39.79
628.91	91.28
629.06	39.79
629.21	4.68
629.36	28.09
629.51	70.22
629.66	46.81
629.81	35.11
629.96	51.49
630.11	42.13
630.26	81.92
630.41	124.05
630.56	149.79
630.71	56.17
630.86	0.00
631.01	67.88
631.16	70.22
631.31	30.43
631.46	84.26
631.61	14.04
631.76	0.00
631.91	46.81
632.06	79.58
632.21	46.81
632.36	77.24
632.51	16.38
632.66	114.69
632.81	135.75
632.96	180.22
633.10	196.60
633.25	231.71
633.40	203.63
633.55	95.96
633.70	65.54
633.85	88.94
634.00	72.56
634.15	42.13
634.30	23.41
634.45	4.68
634.60	58.51
634.75	51.49
634.90	70.22
635.05	49.15
635.19	53.83
635.34	37.45
635.49	0.00
635.64	39.79
635.79	42.13
635.94	74.90
636.09	53.83
636.24	56.17
636.39	37.45
636.53	49.15
636.68	21.06
636.83	11.70
636.98	0.00
637.13	0.00
637.28	46.81
637.43	63.19
637.57	74.90
637.72	133.41
637.87	278.52
638.02	402.57
638.17	360.44
638.32	339.38
638.46	229.37
638.61	196.60
638.76	173.20
638.91	39.79
639.06	70.22
639.20	25.75
639.35	46.81
639.50	60.85
639.65	168.52
639.80	388.53
639.94	566.41
640.09	550.03
640.24	435.34
640.39	353.42
640.54	191.92
640.68	196.60
640.83	86.60
640.98	56.17
641.13	49.15
641.27	30.43
641.42	70.22
641.57	30.43
641.72	46.81
641.86	42.13
642.01	23.41
642.16	16.38
642.31	107.66
642.45	14.04
642.60	9.36
642.75	2.34
642.90	79.58
643.04	88.94
643.19	44.47
643.34	105.32
643.48	58.51
643.63	51.49
643.78	0.00
643.93	21.06
644.07	0.00
644.22	0.00
644.37	72.56
644.51	60.85
644.66	63.19
644.81	65.54
644.95	84.26
645.10	46.81
645.25	23.41
645.39	51.49
645.54	42.13
645.69	117.03
645.83	63.19
645.98	98.30
646.13	46.81
646.27	42.13
646.42	0.00
646.57	74.90
646.71	21.06
646.86	86.60
647.00	18.72
647.15	0.00
647.30	14.04
647.44	28.09
647.59	93.62
647.74	107.66
647.88	0.00
648.03	70.22
648.17	51.49
648.32	44.47
648.47	14.04
648.61	9.36
648.76	30.43
648.90	42.13
649.05	60.85
649.20	91.28
649.34	4.68
649.49	32.77
649.63	56.17
649.78	0.00
649.92	56.17
650.07	100.64
650.21	224.69
650.36	297.25
650.51	365.12
650.65	294.91
650.80	140.43
650.94	159.16
651.09	140.43
651.23	11.70
651.38	93.62
651.52	23.41
651.67	0.00
651.81	28.09
651.96	35.11
652.10	7.02
652.25	37.45
652.39	65.54
652.54	32.77
652.68	72.56
652.83	35.11
652.97	154.48
653.12	138.09
653.26	117.03
653.41	119.37
653.55	72.56
653.70	14.04
653.84	0.00
653.99	16.38
654.13	58.51
654.27	60.85
654.42	32.77
654.56	70.22
654.71	23.41
654.85	0.00
655.00	65.54
655.14	23.41
655.29	102.98
655.43	37.45
655.57	53.83
655.72	42.13
655.86	0.00
656.01	39.79
656.15	60.85
656.30	58.51
656.44	46.81
656.58	49.15
656.73	70.22
656.87	28.09
657.01	0.00
657.16	30.43
657.30	72.56
657.45	14.04
657.59	51.49
657.73	7.02
657.88	74.90
658.02	35.11
658.16	28.09
658.31	0.00
658.45	0.00
658.60	4.68
658.74	72.56
658.88	67.88
659.03	0.00
659.17	42.13
659.31	39.79
659.46	163.84
659.60	142.77
659.74	248.10
659.89	177.88
660.03	107.66
660.17	131.07
660.32	23.41
660.46	46.81
660.60	42.13
660.74	84.26
660.89	102.98
661.03	0.00
661.17	11.70
661.32	53.83
661.46	44.47
661.60	0.00
661.74	56.17
661.89	0.00
662.03	60.85
662.17	0.00
662.31	0.00
662.46	56.17
662.60	44.47
662.74	0.00
662.88	0.00
663.03	63.19
663.17	0.00
663.31	74.90
663.45	65.54
663.60	51.49
663.74	25.75
663.88	11.70
664.02	53.83
664.17	51.49
664.31	37.45
664.45	44.47
664.59	0.00
664.73	4.68
664.88	30.43
665.02	39.79
665.16	53.83
665.30	18.72
665.44	72.56
665.59	0.00
665.73	37.45
665.87	21.06
666.01	67.88
666.15	35.11
666.29	63.19
666.44	11.70
666.58	0.00
666.72	39.79
666.86	18.72
667.00	0.00
667.14	0.00
667.28	72.56
667.43	166.18
667.57	332.36
667.71	278.52
667.85	201.29
667.99	163.84
668.13	182.56
668.27	84.26
668.41	81.92
668.56	51.49
668.70	21.06
668.84	4.68
668.98	2.34
669.12	32.77
669.26	42.13
669.40	124.05
669.54	105.32
669.68	0.00
669.82	0.00
669.96	0.00
670.10	23.41
670.25	65.54
670.39	70.22
670.53	84.26
670.67	63.19
670.81	0.00
670.95	0.00
671.09	4.68
671.23	53.83
671.37	98.30
671.51	252.78
671.65	187.24
671.79	149.79
671.93	133.41
672.07	135.75
672.21	18.72
672.35	49.15
672.49	30.43
672.63	98.30
672.77	0.00
672.91	0.00
673.05	0.00
673.19	53.83
673.33	9.36
673.47	63.19
673.61	28.09
673.75	28.09
673.89	56.17
674.03	81.92
674.17	49.15
674.31	49.15
674.45	4.68
674.59	0.00
674.73	0.00
674.87	46.81
675.01	46.81
675.15	0.00
675.29	30.43
675.43	18.72
675.56	42.13
675.70	42.13
675.84	30.43
675.98	16.38
676.12	60.85
676.26	56.17
676.40	11.70
676.54	35.11
676.68	0.00
676.82	4.68
676.96	18.72
677.10	131.07
677.23	0.00
677.37	79.58
677.51	72.56
677.65	142.77
677.79	44.47
677.93	37.45
678.07	0.00
678.21	107.66
678.34	56.17
678.48	0.00
678.62	0.00
678.76	60.85
678.90	60.85
679.04	44.47
679.18	0.00
679.31	0.00
679.45	44.47
679.59	0.00
679.73	42.13
679.87	37.45
680.00	30.43
680.14	0.00
680.28	25.75
680.42	58.51
680.56	35.11
680.70	14.04
680.83	0.00
680.97	56.17
681.11	0.00
681.25	74.90
681.39	0.00
681.52	4.68
681.66	21.06
681.80	0.00
681.94	0.00
682.07	0.00
682.21	0.00
682.35	84.26
682.49	77.24
682.62	44.47
682.76	67.88
682.90	98.30
683.04	11.70
683.17	28.09
683.31	44.47
683.45	14.04
683.59	0.00
683.72	42.13
683.86	30.43
684.00	4.68
684.13	35.11
684.27	102.98
684.41	56.17
684.55	0.00
684.68	30.43
684.82	23.41
684.96	0.00
685.09	114.69
685.23	60.85
685.37	39.79
685.50	72.56
685.64	98.30
685.78	0.00
685.91	77.24
686.05	37.45
686.19	35.11
686.32	4.68
686.46	0.00
686.60	23.41
686.73	60.85
686.87	88.94
687.01	16.38
687.14	0.00
687.28	0.00
687.42	39.79
687.55	21.06
687.69	0.00
687.82	58.51
687.96	18.72
688.10	46.81
688.23	9.36
688.37	70.22
688.50	42.13
688.64	53.83
688.78	53.83
688.91	70.22
689.05	70.22
689.18	44.47
689.32	11.70
689.46	112.35
689.59	128.73
689.73	51.49
689.86	35.11
690.00	0.00
690.13	0.00
690.27	7.02
690.41	0.00
690.54	32.77
690.68	0.00
690.81	0.00
690.95	39.79
691.08	0.00
691.22	0.00
691.35	81.92
691.49	107.66
691.62	0.00
691.76	58.51
691.89	53.83
692.03	32.77
692.16	67.88
692.30	102.98
692.43	53.83
692.57	51.49
692.70	156.82
692.84	147.45
692.97	191.92
693.11	149.79
693.24	114.69
693.38	21.06
693.51	9.36
693.65	60.85
693.78	0.00
693.92	32.77
694.05	0.00
694.19	0.00
694.32	21.06
694.45	63.19
694.59	0.00
694.72	49.15
694.86	9.36
694.99	39.79
695.13	77.24
695.26	56.17
695.39	77.24
695.53	23.41
695.66	44.47
695.80	11.70
695.93	32.77
696.07	28.09
696.20	67.88
696.33	77.24
696.47	25.75
696.60	4.68
696.73	0.00
696.87	84.26
697.00	49.15
697.14	11.70
697.27	30.43
697.40	63.19
697.54	0.00
697.67	2.34
697.80	16.38
697.94	0.00
698.07	72.56
698.21	81.92
698.34	18.72
698.47	23.41
698.61	110.01
698.74	0.00
698.87	11.70
699.01	0.00
699.14	0.00
699.27	0.00
699.40	79.58
699.54	21.06
699.67	35.11
699.80	0.00
699.94	0.00
700.07	60.85
700.20	98.30
700.34	88.94
700.47	60.85
700.60	70.22
700.73	2.34
700.87	53.83
701.00	0.00
701.13	21.06
701.26	0.00
701.40	0.00
701.53	88.94
701.66	14.04
701.79	46.81
701.93	107.66
702.06	63.19
702.19	32.77
702.32	18.72
702.46	63.19
702.59	51.49
702.72	56.17
702.85	194.26
702.99	208.31
703.12	280.86
703.25	217.67
703.38	210.65
703.51	163.84
703.65	161.50
703.78	114.69
703.91	110.01
704.04	39.79
704.17	81.92
704.31	112.35
704.44	95.96
704.57	56.17
704.70	7.02
704.83	39.79
704.96	58.51
705.10	56.17
705.23	7.02
>>>>>End Processed Spectral Data<<<<<
