SpectraSuite Data File
++++++++++++++++++++++++++++++++++++
Date: Fri Oct 04 12:13:41 GMT-05:00 2013
User: price-jones
Dark Spectrum Present: No
Reference Spectrum Present: No
Number of Sampled Component Spectra: 1
Spectrometers: USB2+H05261
Integration Time (usec): 10000 (USB2+H05261)
Spectra Averaged: 1 (USB2+H05261)
Boxcar Smoothing: 0 (USB2+H05261)
Correct for Electrical Dark: No (USB2+H05261)
Strobe/Lamp Enabled: No (USB2+H05261)
Correct for Detector Non-linearity: No (USB2+H05261)
Correct for Stray Light: No (USB2+H05261)
Number of Pixels in Processed Spectrum: 2048
>>>>>Begin Processed Spectral Data<<<<<
365.73	0.00
365.92	0.00
366.12	0.00
366.32	0.00
366.52	0.00
366.72	0.00
366.91	0.00
367.11	0.00
367.31	0.00
367.51	0.00
367.70	0.00
367.90	0.00
368.10	0.00
368.30	0.00
368.49	0.00
368.69	0.00
368.89	0.00
369.09	0.00
369.28	0.00
369.48	0.00
369.68	0.00
369.87	0.00
370.07	0.00
370.27	0.00
370.47	0.00
370.66	0.00
370.86	0.00
371.06	0.00
371.25	0.00
371.45	0.00
371.65	0.00
371.84	0.00
372.04	0.00
372.24	0.00
372.44	37.45
372.63	0.00
372.83	11.70
373.03	95.96
373.22	18.72
373.42	65.54
373.62	23.41
373.81	56.17
374.01	11.70
374.21	7.02
374.40	35.11
374.60	30.43
374.79	121.71
374.99	128.73
375.19	7.02
375.38	58.51
375.58	14.04
375.78	0.00
375.97	70.22
376.17	7.02
376.37	28.09
376.56	0.00
376.76	117.03
376.95	21.06
377.15	72.56
377.35	0.00
377.54	16.38
377.74	63.19
377.93	14.04
378.13	0.00
378.33	58.51
378.52	58.51
378.72	23.41
378.91	133.41
379.11	88.94
379.31	58.51
379.50	63.19
379.70	25.75
379.89	58.51
380.09	0.00
380.28	81.92
380.48	9.36
380.68	0.00
380.87	49.15
381.07	7.02
381.26	28.09
381.46	44.47
381.65	30.43
381.85	51.49
382.04	18.72
382.24	39.79
382.43	0.00
382.63	44.47
382.83	0.00
383.02	30.43
383.22	25.75
383.41	28.09
383.61	14.04
383.80	37.45
384.00	0.00
384.19	0.00
384.39	28.09
384.58	65.54
384.78	140.43
384.97	42.13
385.17	0.00
385.36	11.70
385.56	46.81
385.75	42.13
385.95	60.85
386.14	49.15
386.34	25.75
386.53	7.02
386.72	7.02
386.92	30.43
387.11	30.43
387.31	0.00
387.50	0.00
387.70	23.41
387.89	0.00
388.09	35.11
388.28	0.00
388.48	23.41
388.67	65.54
388.86	49.15
389.06	0.00
389.25	0.00
389.45	30.43
389.64	105.32
389.84	37.45
390.03	105.32
390.22	0.00
390.42	0.00
390.61	0.00
390.81	65.54
391.00	46.81
391.19	100.64
391.39	39.79
391.58	21.06
391.78	63.19
391.97	23.41
392.16	74.90
392.36	21.06
392.55	60.85
392.75	72.56
392.94	37.45
393.13	84.26
393.33	39.79
393.52	58.51
393.71	30.43
393.91	0.00
394.10	30.43
394.29	100.64
394.49	0.00
394.68	9.36
394.88	0.00
395.07	0.00
395.26	53.83
395.46	23.41
395.65	37.45
395.84	4.68
396.04	0.00
396.23	0.00
396.42	23.41
396.62	42.13
396.81	105.32
397.00	0.00
397.19	91.28
397.39	35.11
397.58	14.04
397.77	16.38
397.97	72.56
398.16	70.22
398.35	37.45
398.55	84.26
398.74	56.17
398.93	67.88
399.12	93.62
399.32	0.00
399.51	46.81
399.70	23.41
399.90	37.45
400.09	0.00
400.28	0.00
400.47	0.00
400.67	7.02
400.86	11.70
401.05	0.00
401.24	7.02
401.44	28.09
401.63	35.11
401.82	23.41
402.01	0.00
402.21	0.00
402.40	58.51
402.59	49.15
402.78	11.70
402.97	0.00
403.17	9.36
403.36	53.83
403.55	0.00
403.74	0.00
403.93	39.79
404.13	0.00
404.32	18.72
404.51	126.39
404.70	0.00
404.89	84.26
405.09	67.88
405.28	42.13
405.47	49.15
405.66	30.43
405.85	46.81
406.05	16.38
406.24	42.13
406.43	21.06
406.62	53.83
406.81	0.00
407.00	18.72
407.20	84.26
407.39	23.41
407.58	49.15
407.77	58.51
407.96	74.90
408.15	93.62
408.34	21.06
408.54	56.17
408.73	72.56
408.92	32.77
409.11	0.00
409.30	0.00
409.49	44.47
409.68	60.85
409.87	28.09
410.07	42.13
410.26	44.47
410.45	7.02
410.64	58.51
410.83	16.38
411.02	0.00
411.21	77.24
411.40	77.24
411.59	25.75
411.78	0.00
411.98	16.38
412.17	56.17
412.36	46.81
412.55	35.11
412.74	28.09
412.93	35.11
413.12	18.72
413.31	56.17
413.50	51.49
413.69	100.64
413.88	21.06
414.07	0.00
414.26	7.02
414.45	11.70
414.64	86.60
414.83	35.11
415.02	0.00
415.22	84.26
415.41	107.66
415.60	107.66
415.79	112.35
415.98	46.81
416.17	67.88
416.36	119.37
416.55	79.58
416.74	77.24
416.93	70.22
417.12	35.11
417.31	84.26
417.50	32.77
417.69	70.22
417.88	16.38
418.07	70.22
418.26	18.72
418.45	56.17
418.64	25.75
418.83	110.01
419.02	91.28
419.21	84.26
419.39	49.15
419.58	35.11
419.77	30.43
419.96	9.36
420.15	0.00
420.34	60.85
420.53	9.36
420.72	60.85
420.91	53.83
421.10	60.85
421.29	4.68
421.48	2.34
421.67	74.90
421.86	60.85
422.05	7.02
422.24	23.41
422.43	63.19
422.61	98.30
422.80	23.41
422.99	0.00
423.18	9.36
423.37	2.34
423.56	49.15
423.75	84.26
423.94	84.26
424.13	70.22
424.32	9.36
424.50	23.41
424.69	0.00
424.88	74.90
425.07	0.00
425.26	42.13
425.45	9.36
425.64	0.00
425.83	51.49
426.01	18.72
426.20	65.54
426.39	138.09
426.58	51.49
426.77	51.49
426.96	102.98
427.15	7.02
427.33	0.00
427.52	0.00
427.71	67.88
427.90	30.43
428.09	37.45
428.28	60.85
428.46	53.83
428.65	7.02
428.84	67.88
429.03	95.96
429.22	30.43
429.40	21.06
429.59	32.77
429.78	51.49
429.97	28.09
430.16	84.26
430.34	49.15
430.53	0.00
430.72	0.00
430.91	119.37
431.10	79.58
431.28	117.03
431.47	7.02
431.66	35.11
431.85	72.56
432.03	4.68
432.22	74.90
432.41	0.00
432.60	81.92
432.79	53.83
432.97	14.04
433.16	7.02
433.35	25.75
433.54	0.00
433.72	51.49
433.91	25.75
434.10	32.77
434.28	79.58
434.47	117.03
434.66	86.60
434.85	39.79
435.03	70.22
435.22	0.00
435.41	16.38
435.59	79.58
435.78	56.17
435.97	63.19
436.16	63.19
436.34	30.43
436.53	56.17
436.72	72.56
436.90	0.00
437.09	77.24
437.28	14.04
437.46	72.56
437.65	95.96
437.84	28.09
438.02	81.92
438.21	0.00
438.40	0.00
438.58	72.56
438.77	25.75
438.96	21.06
439.14	0.00
439.33	51.49
439.52	42.13
439.70	9.36
439.89	4.68
440.08	28.09
440.26	28.09
440.45	30.43
440.63	53.83
440.82	11.70
441.01	32.77
441.19	49.15
441.38	42.13
441.57	65.54
441.75	53.83
441.94	37.45
442.12	56.17
442.31	28.09
442.50	9.36
442.68	81.92
442.87	28.09
443.05	79.58
443.24	60.85
443.43	79.58
443.61	107.66
443.80	58.51
443.98	81.92
444.17	112.35
444.35	23.41
444.54	65.54
444.73	4.68
444.91	37.45
445.10	51.49
445.28	49.15
445.47	14.04
445.65	86.60
445.84	88.94
446.02	63.19
446.21	63.19
446.39	107.66
446.58	117.03
446.77	86.60
446.95	32.77
447.14	11.70
447.32	0.00
447.51	7.02
447.69	93.62
447.88	56.17
448.06	100.64
448.25	72.56
448.43	4.68
448.62	35.11
448.80	86.60
448.99	32.77
449.17	67.88
449.36	74.90
449.54	32.77
449.73	58.51
449.91	0.00
450.10	0.00
450.28	7.02
450.46	56.17
450.65	60.85
450.83	91.28
451.02	77.24
451.20	65.54
451.39	95.96
451.57	100.64
451.76	39.79
451.94	42.13
452.13	11.70
452.31	65.54
452.49	95.96
452.68	81.92
452.86	37.45
453.05	51.49
453.23	88.94
453.42	0.00
453.60	42.13
453.78	56.17
453.97	93.62
454.15	88.94
454.34	91.28
454.52	77.24
454.70	95.96
454.89	35.11
455.07	35.11
455.26	140.43
455.44	0.00
455.62	63.19
455.81	95.96
455.99	121.71
456.17	88.94
456.36	107.66
456.54	0.00
456.73	60.85
456.91	84.26
457.09	46.81
457.28	42.13
457.46	28.09
457.64	91.28
457.83	21.06
458.01	39.79
458.19	28.09
458.38	0.00
458.56	46.81
458.74	110.01
458.93	46.81
459.11	65.54
459.29	77.24
459.48	70.22
459.66	28.09
459.84	0.00
460.03	70.22
460.21	117.03
460.39	70.22
460.57	18.72
460.76	105.32
460.94	70.22
461.12	135.75
461.31	30.43
461.49	67.88
461.67	65.54
461.85	30.43
462.04	25.75
462.22	70.22
462.40	79.58
462.59	42.13
462.77	37.45
462.95	32.77
463.13	0.00
463.32	16.38
463.50	0.00
463.68	100.64
463.86	21.06
464.05	105.32
464.23	4.68
464.41	77.24
464.59	119.37
464.78	93.62
464.96	56.17
465.14	28.09
465.32	119.37
465.50	63.19
465.69	56.17
465.87	86.60
466.05	39.79
466.23	70.22
466.41	53.83
466.60	63.19
466.78	53.83
466.96	100.64
467.14	74.90
467.32	25.75
467.51	14.04
467.69	72.56
467.87	133.41
468.05	53.83
468.23	53.83
468.41	93.62
468.60	105.32
468.78	65.54
468.96	25.75
469.14	88.94
469.32	79.58
469.50	39.79
469.69	58.51
469.87	84.26
470.05	93.62
470.23	67.88
470.41	42.13
470.59	84.26
470.77	81.92
470.95	63.19
471.14	46.81
471.32	65.54
471.50	95.96
471.68	60.85
471.86	11.70
472.04	95.96
472.22	37.45
472.40	51.49
472.58	88.94
472.77	102.98
472.95	88.94
473.13	79.58
473.31	0.00
473.49	28.09
473.67	77.24
473.85	77.24
474.03	126.39
474.21	42.13
474.39	60.85
474.57	16.38
474.75	37.45
474.93	79.58
475.12	102.98
475.30	58.51
475.48	28.09
475.66	35.11
475.84	140.43
476.02	86.60
476.20	102.98
476.38	35.11
476.56	51.49
476.74	91.28
476.92	161.50
477.10	51.49
477.28	65.54
477.46	11.70
477.64	67.88
477.82	65.54
478.00	65.54
478.18	0.00
478.36	117.03
478.54	86.60
478.72	77.24
478.90	114.69
479.08	42.13
479.26	44.47
479.44	74.90
479.62	30.43
479.80	86.60
479.98	37.45
480.16	11.70
480.34	98.30
480.52	91.28
480.70	16.38
480.88	44.47
481.06	88.94
481.24	98.30
481.41	63.19
481.59	102.98
481.77	95.96
481.95	77.24
482.13	0.00
482.31	107.66
482.49	32.77
482.67	77.24
482.85	70.22
483.03	44.47
483.21	65.54
483.39	35.11
483.57	84.26
483.74	60.85
483.92	2.34
484.10	56.17
484.28	63.19
484.46	16.38
484.64	32.77
484.82	88.94
485.00	70.22
485.18	60.85
485.35	86.60
485.53	42.13
485.71	79.58
485.89	56.17
486.07	107.66
486.25	51.49
486.43	105.32
486.61	63.19
486.78	86.60
486.96	100.64
487.14	0.00
487.32	131.07
487.50	53.83
487.68	0.00
487.85	37.45
488.03	44.47
488.21	65.54
488.39	72.56
488.57	63.19
488.75	119.37
488.92	184.90
489.10	42.13
489.28	77.24
489.46	77.24
489.64	128.73
489.81	28.09
489.99	53.83
490.17	117.03
490.35	23.41
490.53	16.38
490.70	58.51
490.88	72.56
491.06	74.90
491.24	37.45
491.41	60.85
491.59	74.90
491.77	53.83
491.95	42.13
492.13	72.56
492.30	9.36
492.48	25.75
492.66	72.56
492.84	93.62
493.01	0.00
493.19	58.51
493.37	53.83
493.54	86.60
493.72	110.01
493.90	100.64
494.08	131.07
494.25	11.70
494.43	77.24
494.61	49.15
494.79	25.75
494.96	114.69
495.14	72.56
495.32	105.32
495.49	74.90
495.67	58.51
495.85	46.81
496.02	102.98
496.20	79.58
496.38	63.19
496.55	56.17
496.73	114.69
496.91	91.28
497.09	124.05
497.26	117.03
497.44	95.96
497.62	102.98
497.79	42.13
497.97	114.69
498.14	39.79
498.32	30.43
498.50	79.58
498.67	79.58
498.85	121.71
499.03	124.05
499.20	63.19
499.38	56.17
499.56	58.51
499.73	60.85
499.91	135.75
500.08	86.60
500.26	58.51
500.44	56.17
500.61	25.75
500.79	91.28
500.97	0.00
501.14	100.64
501.32	126.39
501.49	58.51
501.67	100.64
501.84	119.37
502.02	84.26
502.20	107.66
502.37	105.32
502.55	46.81
502.72	70.22
502.90	102.98
503.07	58.51
503.25	128.73
503.43	93.62
503.60	63.19
503.78	86.60
503.95	98.30
504.13	56.17
504.30	105.32
504.48	93.62
504.65	28.09
504.83	149.79
505.01	60.85
505.18	95.96
505.36	114.69
505.53	58.51
505.71	147.45
505.88	14.04
506.06	98.30
506.23	81.92
506.41	70.22
506.58	114.69
506.76	128.73
506.93	70.22
507.11	102.98
507.28	67.88
507.46	72.56
507.63	107.66
507.81	79.58
507.98	21.06
508.16	32.77
508.33	147.45
508.50	88.94
508.68	119.37
508.85	117.03
509.03	79.58
509.20	124.05
509.38	117.03
509.55	18.72
509.73	81.92
509.90	128.73
510.08	121.71
510.25	149.79
510.42	84.26
510.60	11.70
510.77	30.43
510.95	121.71
511.12	140.43
511.30	28.09
511.47	42.13
511.64	56.17
511.82	77.24
511.99	112.35
512.17	100.64
512.34	77.24
512.51	32.77
512.69	81.92
512.86	18.72
513.04	126.39
513.21	84.26
513.38	112.35
513.56	84.26
513.73	46.81
513.90	21.06
514.08	65.54
514.25	35.11
514.43	102.98
514.60	58.51
514.77	79.58
514.95	46.81
515.12	63.19
515.29	58.51
515.47	133.41
515.64	23.41
515.81	56.17
515.99	58.51
516.16	128.73
516.33	51.49
516.51	72.56
516.68	65.54
516.85	117.03
517.03	95.96
517.20	67.88
517.37	18.72
517.54	110.01
517.72	46.81
517.89	53.83
518.06	0.00
518.24	105.32
518.41	79.58
518.58	135.75
518.75	170.86
518.93	23.41
519.10	58.51
519.27	72.56
519.45	77.24
519.62	84.26
519.79	51.49
519.96	105.32
520.14	93.62
520.31	107.66
520.48	81.92
520.65	135.75
520.83	60.85
521.00	51.49
521.17	58.51
521.34	74.90
521.52	65.54
521.69	86.60
521.86	133.41
522.03	124.05
522.20	70.22
522.38	86.60
522.55	63.19
522.72	124.05
522.89	65.54
523.07	91.28
523.24	84.26
523.41	142.77
523.58	18.72
523.75	25.75
523.92	60.85
524.10	86.60
524.27	91.28
524.44	70.22
524.61	81.92
524.78	21.06
524.96	107.66
525.13	105.32
525.30	117.03
525.47	100.64
525.64	88.94
525.81	135.75
525.98	70.22
526.16	32.77
526.33	88.94
526.50	98.30
526.67	60.85
526.84	72.56
527.01	74.90
527.18	88.94
527.36	105.32
527.53	49.15
527.70	91.28
527.87	88.94
528.04	74.90
528.21	46.81
528.38	60.85
528.55	84.26
528.72	107.66
528.89	102.98
529.07	84.26
529.24	70.22
529.41	114.69
529.58	79.58
529.75	58.51
529.92	105.32
530.09	21.06
530.26	42.13
530.43	49.15
530.60	131.07
530.77	95.96
530.94	74.90
531.11	110.01
531.28	110.01
531.46	42.13
531.63	93.62
531.80	161.50
531.97	110.01
532.14	72.56
532.31	117.03
532.48	95.96
532.65	100.64
532.82	53.83
532.99	46.81
533.16	156.82
533.33	105.32
533.50	128.73
533.67	124.05
533.84	105.32
534.01	0.00
534.18	18.72
534.35	58.51
534.52	35.11
534.69	63.19
534.86	79.58
535.03	110.01
535.20	84.26
535.37	100.64
535.54	49.15
535.71	74.90
535.88	58.51
536.05	114.69
536.22	138.09
536.38	74.90
536.55	77.24
536.72	88.94
536.89	56.17
537.06	114.69
537.23	100.64
537.40	77.24
537.57	72.56
537.74	84.26
537.91	81.92
538.08	105.32
538.25	121.71
538.42	49.15
538.59	126.39
538.75	180.22
538.92	140.43
539.09	49.15
539.26	88.94
539.43	152.13
539.60	25.75
539.77	142.77
539.94	114.69
540.11	60.85
540.28	124.05
540.44	138.09
540.61	119.37
540.78	77.24
540.95	84.26
541.12	79.58
541.29	72.56
541.46	95.96
541.62	152.13
541.79	161.50
541.96	86.60
542.13	95.96
542.30	114.69
542.47	28.09
542.63	84.26
542.80	91.28
542.97	119.37
543.14	145.11
543.31	98.30
543.48	133.41
543.64	91.28
543.81	119.37
543.98	81.92
544.15	79.58
544.32	124.05
544.48	21.06
544.65	112.35
544.82	102.98
544.99	9.36
545.16	65.54
545.32	74.90
545.49	16.38
545.66	53.83
545.83	102.98
546.00	53.83
546.16	30.43
546.33	81.92
546.50	72.56
546.67	42.13
546.83	77.24
547.00	53.83
547.17	63.19
547.34	72.56
547.50	110.01
547.67	79.58
547.84	95.96
548.00	72.56
548.17	95.96
548.34	51.49
548.51	107.66
548.67	63.19
548.84	70.22
549.01	131.07
549.18	114.69
549.34	93.62
549.51	63.19
549.68	0.00
549.84	95.96
550.01	81.92
550.18	44.47
550.34	102.98
550.51	102.98
550.68	105.32
550.84	46.81
551.01	58.51
551.18	88.94
551.34	91.28
551.51	117.03
551.68	28.09
551.84	126.39
552.01	107.66
552.18	35.11
552.34	84.26
552.51	107.66
552.68	65.54
552.84	140.43
553.01	86.60
553.18	112.35
553.34	46.81
553.51	105.32
553.67	124.05
553.84	74.90
554.01	138.09
554.17	44.47
554.34	65.54
554.51	84.26
554.67	72.56
554.84	56.17
555.00	23.41
555.17	110.01
555.33	9.36
555.50	42.13
555.67	23.41
555.83	105.32
556.00	58.51
556.16	39.79
556.33	51.49
556.50	70.22
556.66	77.24
556.83	107.66
556.99	46.81
557.16	7.02
557.32	49.15
557.49	135.75
557.65	135.75
557.82	95.96
557.98	18.72
558.15	86.60
558.32	107.66
558.48	107.66
558.65	21.06
558.81	131.07
558.98	110.01
559.14	95.96
559.31	72.56
559.47	32.77
559.64	65.54
559.80	56.17
559.97	77.24
560.13	102.98
560.30	88.94
560.46	105.32
560.63	128.73
560.79	70.22
560.96	65.54
561.12	105.32
561.29	100.64
561.45	0.00
561.61	84.26
561.78	119.37
561.94	65.54
562.11	65.54
562.27	67.88
562.44	63.19
562.60	39.79
562.77	39.79
562.93	49.15
563.10	133.41
563.26	95.96
563.42	72.56
563.59	79.58
563.75	51.49
563.92	84.26
564.08	32.77
564.24	81.92
564.41	81.92
564.57	91.28
564.74	131.07
564.90	65.54
565.07	100.64
565.23	65.54
565.39	88.94
565.56	65.54
565.72	72.56
565.88	58.51
566.05	110.01
566.21	77.24
566.38	88.94
566.54	63.19
566.70	159.16
566.87	74.90
567.03	72.56
567.19	74.90
567.36	39.79
567.52	67.88
567.68	128.73
567.85	84.26
568.01	86.60
568.17	72.56
568.34	138.09
568.50	79.58
568.66	98.30
568.83	49.15
568.99	91.28
569.15	107.66
569.32	21.06
569.48	98.30
569.64	93.62
569.81	49.15
569.97	25.75
570.13	126.39
570.30	51.49
570.46	42.13
570.62	72.56
570.78	88.94
570.95	35.11
571.11	140.43
571.27	117.03
571.43	117.03
571.60	114.69
571.76	49.15
571.92	110.01
572.09	39.79
572.25	86.60
572.41	2.34
572.57	86.60
572.74	110.01
572.90	91.28
573.06	119.37
573.22	70.22
573.38	72.56
573.55	70.22
573.71	56.17
573.87	46.81
574.03	67.88
574.20	112.35
574.36	11.70
574.52	65.54
574.68	88.94
574.84	170.86
575.01	63.19
575.17	0.00
575.33	93.62
575.49	81.92
575.65	30.43
575.82	81.92
575.98	42.13
576.14	131.07
576.30	191.92
576.46	74.90
576.62	0.00
576.79	79.58
576.95	63.19
577.11	81.92
577.27	72.56
577.43	35.11
577.59	81.92
577.75	25.75
577.92	28.09
578.08	65.54
578.24	98.30
578.40	81.92
578.56	126.39
578.72	46.81
578.88	65.54
579.04	81.92
579.21	105.32
579.37	77.24
579.53	133.41
579.69	126.39
579.85	70.22
580.01	28.09
580.17	117.03
580.33	114.69
580.49	67.88
580.65	105.32
580.82	93.62
580.98	112.35
581.14	79.58
581.30	60.85
581.46	138.09
581.62	112.35
581.78	18.72
581.94	44.47
582.10	60.85
582.26	77.24
582.42	46.81
582.58	23.41
582.74	95.96
582.90	32.77
583.06	131.07
583.22	60.85
583.38	65.54
583.54	70.22
583.70	46.81
583.86	14.04
584.02	135.75
584.18	32.77
584.34	9.36
584.50	18.72
584.66	51.49
584.82	147.45
584.98	37.45
585.14	28.09
585.30	42.13
585.46	126.39
585.62	121.71
585.78	124.05
585.94	126.39
586.10	102.98
586.26	51.49
586.42	88.94
586.58	74.90
586.74	56.17
586.90	91.28
587.06	32.77
587.22	79.58
587.38	56.17
587.54	0.00
587.70	42.13
587.86	67.88
588.02	25.75
588.18	98.30
588.34	88.94
588.49	42.13
588.65	56.17
588.81	77.24
588.97	49.15
589.13	0.00
589.29	107.66
589.45	79.58
589.61	102.98
589.77	72.56
589.93	0.00
590.08	93.62
590.24	53.83
590.40	74.90
590.56	46.81
590.72	56.17
590.88	14.04
591.04	100.64
591.20	88.94
591.35	138.09
591.51	72.56
591.67	65.54
591.83	91.28
591.99	11.70
592.15	107.66
592.31	86.60
592.46	58.51
592.62	63.19
592.78	126.39
592.94	58.51
593.10	0.00
593.26	98.30
593.41	86.60
593.57	88.94
593.73	138.09
593.89	77.24
594.05	74.90
594.20	84.26
594.36	88.94
594.52	30.43
594.68	154.48
594.84	84.26
594.99	53.83
595.15	46.81
595.31	42.13
595.47	51.49
595.62	70.22
595.78	117.03
595.94	98.30
596.10	72.56
596.25	32.77
596.41	107.66
596.57	93.62
596.73	98.30
596.88	91.28
597.04	126.39
597.20	114.69
597.36	44.47
597.51	58.51
597.67	79.58
597.83	49.15
597.99	131.07
598.14	63.19
598.30	30.43
598.46	79.58
598.61	21.06
598.77	70.22
598.93	100.64
599.09	88.94
599.24	58.51
599.40	51.49
599.56	42.13
599.71	58.51
599.87	81.92
600.03	72.56
600.18	105.32
600.34	145.11
600.50	65.54
600.65	95.96
600.81	65.54
600.97	56.17
601.12	95.96
601.28	79.58
601.44	60.85
601.59	88.94
601.75	70.22
601.91	88.94
602.06	18.72
602.22	72.56
602.37	79.58
602.53	133.41
602.69	51.49
602.84	56.17
603.00	60.85
603.16	39.79
603.31	74.90
603.47	0.00
603.62	60.85
603.78	72.56
603.94	46.81
604.09	60.85
604.25	93.62
604.40	46.81
604.56	7.02
604.71	84.26
604.87	93.62
605.03	110.01
605.18	21.06
605.34	88.94
605.49	126.39
605.65	81.92
605.80	53.83
605.96	56.17
606.12	0.00
606.27	0.00
606.43	46.81
606.58	42.13
606.74	112.35
606.89	18.72
607.05	14.04
607.20	126.39
607.36	39.79
607.51	91.28
607.67	25.75
607.82	44.47
607.98	131.07
608.13	35.11
608.29	46.81
608.44	39.79
608.60	53.83
608.75	63.19
608.91	58.51
609.06	51.49
609.22	86.60
609.37	72.56
609.53	53.83
609.68	95.96
609.84	42.13
609.99	84.26
610.15	110.01
610.30	67.88
610.46	39.79
610.61	84.26
610.76	79.58
610.92	53.83
611.07	81.92
611.23	135.75
611.38	30.43
611.54	4.68
611.69	77.24
611.84	46.81
612.00	37.45
612.15	16.38
612.31	0.00
612.46	37.45
612.62	88.94
612.77	49.15
612.92	42.13
613.08	30.43
613.23	4.68
613.39	67.88
613.54	79.58
613.69	16.38
613.85	0.00
614.00	16.38
614.15	46.81
614.31	32.77
614.46	46.81
614.62	39.79
614.77	105.32
614.92	70.22
615.08	46.81
615.23	105.32
615.38	60.85
615.54	95.96
615.69	135.75
615.84	65.54
616.00	58.51
616.15	60.85
616.30	77.24
616.46	60.85
616.61	84.26
616.76	86.60
616.92	18.72
617.07	70.22
617.22	51.49
617.37	46.81
617.53	0.00
617.68	98.30
617.83	35.11
617.99	65.54
618.14	147.45
618.29	44.47
618.45	25.75
618.60	79.58
618.75	102.98
618.90	11.70
619.06	0.00
619.21	21.06
619.36	110.01
619.51	44.47
619.67	102.98
619.82	74.90
619.97	77.24
620.12	25.75
620.28	72.56
620.43	30.43
620.58	84.26
620.73	25.75
620.89	37.45
621.04	107.66
621.19	25.75
621.34	0.00
621.49	49.15
621.65	16.38
621.80	105.32
621.95	70.22
622.10	74.90
622.25	121.71
622.41	93.62
622.56	51.49
622.71	16.38
622.86	23.41
623.01	0.00
623.16	67.88
623.32	154.48
623.47	81.92
623.62	67.88
623.77	39.79
623.92	18.72
624.07	81.92
624.23	84.26
624.38	32.77
624.53	49.15
624.68	126.39
624.83	77.24
624.98	0.00
625.13	4.68
625.29	58.51
625.44	65.54
625.59	72.56
625.74	156.82
625.89	131.07
626.04	124.05
626.19	98.30
626.34	28.09
626.49	16.38
626.65	65.54
626.80	2.34
626.95	25.75
627.10	49.15
627.25	56.17
627.40	32.77
627.55	117.03
627.70	65.54
627.85	67.88
628.00	81.92
628.15	0.00
628.30	23.41
628.45	42.13
628.60	81.92
628.76	93.62
628.91	37.45
629.06	39.79
629.21	51.49
629.36	131.07
629.51	77.24
629.66	49.15
629.81	35.11
629.96	117.03
630.11	58.51
630.26	86.60
630.41	9.36
630.56	32.77
630.71	79.58
630.86	86.60
631.01	88.94
631.16	0.00
631.31	56.17
631.46	39.79
631.61	37.45
631.76	49.15
631.91	65.54
632.06	28.09
632.21	79.58
632.36	37.45
632.51	9.36
632.66	56.17
632.81	67.88
632.96	84.26
633.10	49.15
633.25	93.62
633.40	79.58
633.55	63.19
633.70	0.00
633.85	67.88
634.00	67.88
634.15	72.56
634.30	121.71
634.45	126.39
634.60	110.01
634.75	16.38
634.90	86.60
635.05	93.62
635.19	42.13
635.34	42.13
635.49	79.58
635.64	4.68
635.79	14.04
635.94	72.56
636.09	84.26
636.24	100.64
636.39	0.00
636.53	0.00
636.68	128.73
636.83	28.09
636.98	32.77
637.13	44.47
637.28	56.17
637.43	81.92
637.57	9.36
637.72	39.79
637.87	4.68
638.02	74.90
638.17	46.81
638.32	39.79
638.46	42.13
638.61	46.81
638.76	100.64
638.91	49.15
639.06	23.41
639.20	44.47
639.35	58.51
639.50	11.70
639.65	0.00
639.80	70.22
639.94	79.58
640.09	110.01
640.24	105.32
640.39	56.17
640.54	91.28
640.68	72.56
640.83	39.79
640.98	23.41
641.13	53.83
641.27	56.17
641.42	70.22
641.57	98.30
641.72	32.77
641.86	95.96
642.01	105.32
642.16	58.51
642.31	30.43
642.45	42.13
642.60	56.17
642.75	88.94
642.90	95.96
643.04	37.45
643.19	63.19
643.34	0.00
643.48	107.66
643.63	138.09
643.78	74.90
643.93	107.66
644.07	14.04
644.22	124.05
644.37	9.36
644.51	56.17
644.66	58.51
644.81	18.72
644.95	63.19
645.10	30.43
645.25	60.85
645.39	70.22
645.54	23.41
645.69	100.64
645.83	67.88
645.98	93.62
646.13	100.64
646.27	39.79
646.42	93.62
646.57	119.37
646.71	70.22
646.86	107.66
647.00	79.58
647.15	65.54
647.30	23.41
647.44	67.88
647.59	91.28
647.74	102.98
647.88	79.58
648.03	11.70
648.17	63.19
648.32	91.28
648.47	124.05
648.61	91.28
648.76	14.04
648.90	51.49
649.05	44.47
649.20	7.02
649.34	0.00
649.49	32.77
649.63	53.83
649.78	44.47
649.92	56.17
650.07	0.00
650.21	39.79
650.36	63.19
650.51	81.92
650.65	30.43
650.80	112.35
650.94	35.11
651.09	32.77
651.23	74.90
651.38	21.06
651.52	72.56
651.67	93.62
651.81	16.38
651.96	98.30
652.10	28.09
652.25	60.85
652.39	49.15
652.54	0.00
652.68	77.24
652.83	121.71
652.97	63.19
653.12	18.72
653.26	117.03
653.41	42.13
653.55	4.68
653.70	93.62
653.84	35.11
653.99	60.85
654.13	79.58
654.27	4.68
654.42	46.81
654.56	133.41
654.71	105.32
654.85	0.00
655.00	18.72
655.14	56.17
655.29	100.64
655.43	11.70
655.57	0.00
655.72	56.17
655.86	28.09
656.01	39.79
656.15	23.41
656.30	88.94
656.44	32.77
656.58	65.54
656.73	124.05
656.87	70.22
657.01	25.75
657.16	18.72
657.30	56.17
657.45	95.96
657.59	21.06
657.73	53.83
657.88	18.72
658.02	88.94
658.16	60.85
658.31	51.49
658.45	98.30
658.60	100.64
658.74	72.56
658.88	77.24
659.03	56.17
659.17	95.96
659.31	70.22
659.46	11.70
659.60	0.00
659.74	23.41
659.89	21.06
660.03	93.62
660.17	56.17
660.32	51.49
660.46	30.43
660.60	149.79
660.74	30.43
660.89	0.00
661.03	110.01
661.17	37.45
661.32	9.36
661.46	77.24
661.60	58.51
661.74	91.28
661.89	70.22
662.03	4.68
662.17	35.11
662.31	95.96
662.46	30.43
662.60	112.35
662.74	65.54
662.88	44.47
663.03	46.81
663.17	93.62
663.31	23.41
663.45	4.68
663.60	18.72
663.74	138.09
663.88	98.30
664.02	32.77
664.17	16.38
664.31	102.98
664.45	121.71
664.59	42.13
664.73	60.85
664.88	86.60
665.02	7.02
665.16	65.54
665.30	67.88
665.44	23.41
665.59	49.15
665.73	53.83
665.87	37.45
666.01	67.88
666.15	0.00
666.29	42.13
666.44	95.96
666.58	91.28
666.72	117.03
666.86	42.13
667.00	30.43
667.14	98.30
667.28	56.17
667.43	117.03
667.57	72.56
667.71	51.49
667.85	0.00
667.99	35.11
668.13	4.68
668.27	14.04
668.41	53.83
668.56	72.56
668.70	25.75
668.84	25.75
668.98	121.71
669.12	42.13
669.26	42.13
669.40	49.15
669.54	56.17
669.68	37.45
669.82	0.00
669.96	51.49
670.10	30.43
670.25	95.96
670.39	46.81
670.53	32.77
670.67	0.00
670.81	119.37
670.95	67.88
671.09	98.30
671.23	42.13
671.37	25.75
671.51	72.56
671.65	16.38
671.79	51.49
671.93	74.90
672.07	56.17
672.21	65.54
672.35	0.00
672.49	72.56
672.63	149.79
672.77	30.43
672.91	0.00
673.05	46.81
673.19	0.00
673.33	79.58
673.47	42.13
673.61	23.41
673.75	0.00
673.89	0.00
674.03	42.13
674.17	32.77
674.31	74.90
674.45	9.36
674.59	30.43
674.73	25.75
674.87	74.90
675.01	0.00
675.15	21.06
675.29	42.13
675.43	79.58
675.56	0.00
675.70	0.00
675.84	0.00
675.98	16.38
676.12	14.04
676.26	110.01
676.40	60.85
676.54	86.60
676.68	58.51
676.82	56.17
676.96	9.36
677.10	30.43
677.23	32.77
677.37	37.45
677.51	35.11
677.65	70.22
677.79	63.19
677.93	42.13
678.07	0.00
678.21	32.77
678.34	107.66
678.48	46.81
678.62	44.47
678.76	11.70
678.90	0.00
679.04	28.09
679.18	7.02
679.31	28.09
679.45	30.43
679.59	0.00
679.73	63.19
679.87	9.36
680.00	32.77
680.14	0.00
680.28	4.68
680.42	56.17
680.56	58.51
680.70	0.00
680.83	86.60
680.97	0.00
681.11	25.75
681.25	0.00
681.39	0.00
681.52	58.51
681.66	91.28
681.80	37.45
681.94	46.81
682.07	79.58
682.21	49.15
682.35	18.72
682.49	28.09
682.62	2.34
682.76	67.88
682.90	42.13
683.04	51.49
683.17	93.62
683.31	56.17
683.45	42.13
683.59	81.92
683.72	79.58
683.86	21.06
684.00	77.24
684.13	30.43
684.27	39.79
684.41	42.13
684.55	0.00
684.68	60.85
684.82	65.54
684.96	44.47
685.09	4.68
685.23	16.38
685.37	4.68
685.50	74.90
685.64	65.54
685.78	30.43
685.91	95.96
686.05	65.54
686.19	35.11
686.32	30.43
686.46	4.68
686.60	46.81
686.73	70.22
686.87	28.09
687.01	91.28
687.14	42.13
687.28	39.79
687.42	16.38
687.55	14.04
687.69	77.24
687.82	91.28
687.96	42.13
688.10	95.96
688.23	77.24
688.37	16.38
688.50	65.54
688.64	4.68
688.78	65.54
688.91	35.11
689.05	58.51
689.18	28.09
689.32	93.62
689.46	9.36
689.59	84.26
689.73	0.00
689.86	9.36
690.00	56.17
690.13	91.28
690.27	46.81
690.41	18.72
690.54	0.00
690.68	9.36
690.81	42.13
690.95	2.34
691.08	65.54
691.22	105.32
691.35	98.30
691.49	0.00
691.62	77.24
691.76	14.04
691.89	23.41
692.03	32.77
692.16	67.88
692.30	0.00
692.43	14.04
692.57	63.19
692.70	18.72
692.84	21.06
692.97	79.58
693.11	56.17
693.24	77.24
693.38	49.15
693.51	0.00
693.65	35.11
693.78	72.56
693.92	7.02
694.05	53.83
694.19	0.00
694.32	32.77
694.45	42.13
694.59	53.83
694.72	65.54
694.86	65.54
694.99	65.54
695.13	37.45
695.26	23.41
695.39	49.15
695.53	0.00
695.66	4.68
695.80	107.66
695.93	42.13
696.07	16.38
696.20	60.85
696.33	0.00
696.47	4.68
696.60	16.38
696.73	72.56
696.87	35.11
697.00	70.22
697.14	77.24
697.27	35.11
697.40	7.02
697.54	46.81
697.67	16.38
697.80	14.04
697.94	37.45
698.07	44.47
698.21	14.04
698.34	35.11
698.47	93.62
698.61	56.17
698.74	18.72
698.87	0.00
699.01	107.66
699.14	0.00
699.27	74.90
699.40	88.94
699.54	23.41
699.67	0.00
699.80	44.47
699.94	0.00
700.07	23.41
700.20	65.54
700.34	7.02
700.47	2.34
700.60	58.51
700.73	79.58
700.87	46.81
701.00	30.43
701.13	0.00
701.26	28.09
701.40	102.98
701.53	58.51
701.66	44.47
701.79	18.72
701.93	28.09
702.06	0.00
702.19	0.00
702.32	65.54
702.46	56.17
702.59	88.94
702.72	37.45
702.85	84.26
702.99	25.75
703.12	67.88
703.25	84.26
703.38	44.47
703.51	56.17
703.65	0.00
703.78	0.00
703.91	35.11
704.04	28.09
704.17	11.70
704.31	0.00
704.44	0.00
704.57	67.88
704.70	72.56
704.83	65.54
704.96	112.35
705.10	14.04
705.23	70.22
>>>>>End Processed Spectral Data<<<<<
