SpectraSuite Data File
++++++++++++++++++++++++++++++++++++
Date: Fri Oct 04 12:13:37 GMT-05:00 2013
User: price-jones
Dark Spectrum Present: No
Reference Spectrum Present: No
Number of Sampled Component Spectra: 1
Spectrometers: USB2+H05261
Integration Time (usec): 10000 (USB2+H05261)
Spectra Averaged: 1 (USB2+H05261)
Boxcar Smoothing: 0 (USB2+H05261)
Correct for Electrical Dark: No (USB2+H05261)
Strobe/Lamp Enabled: No (USB2+H05261)
Correct for Detector Non-linearity: No (USB2+H05261)
Correct for Stray Light: No (USB2+H05261)
Number of Pixels in Processed Spectrum: 2048
>>>>>Begin Processed Spectral Data<<<<<
365.73	0.00
365.92	0.00
366.12	0.00
366.32	0.00
366.52	0.00
366.72	0.00
366.91	0.00
367.11	0.00
367.31	0.00
367.51	0.00
367.70	0.00
367.90	0.00
368.10	0.00
368.30	0.00
368.49	0.00
368.69	0.00
368.89	0.00
369.09	0.00
369.28	0.00
369.48	0.00
369.68	0.00
369.87	0.00
370.07	0.00
370.27	0.00
370.47	0.00
370.66	0.00
370.86	0.00
371.06	0.00
371.25	4.68
371.45	0.00
371.65	0.00
371.84	0.00
372.04	0.00
372.24	0.00
372.44	0.00
372.63	86.60
372.83	4.68
373.03	0.00
373.22	7.02
373.42	32.77
373.62	63.19
373.81	0.00
374.01	23.41
374.21	37.45
374.40	39.79
374.60	0.00
374.79	102.98
374.99	49.15
375.19	58.51
375.38	46.81
375.58	74.90
375.78	25.75
375.97	91.28
376.17	28.09
376.37	56.17
376.56	14.04
376.76	9.36
376.95	49.15
377.15	44.47
377.35	58.51
377.54	65.54
377.74	51.49
377.93	30.43
378.13	11.70
378.33	0.00
378.52	9.36
378.72	37.45
378.91	7.02
379.11	0.00
379.31	9.36
379.50	58.51
379.70	0.00
379.89	23.41
380.09	0.00
380.28	0.00
380.48	0.00
380.68	0.00
380.87	56.17
381.07	49.15
381.26	53.83
381.46	0.00
381.65	28.09
381.85	0.00
382.04	67.88
382.24	63.19
382.43	0.00
382.63	0.00
382.83	0.00
383.02	32.77
383.22	32.77
383.41	0.00
383.61	60.85
383.80	70.22
384.00	42.13
384.19	11.70
384.39	37.45
384.58	4.68
384.78	0.00
384.97	7.02
385.17	23.41
385.36	46.81
385.56	0.00
385.75	11.70
385.95	32.77
386.14	37.45
386.34	0.00
386.53	58.51
386.72	79.58
386.92	0.00
387.11	42.13
387.31	63.19
387.50	7.02
387.70	23.41
387.89	58.51
388.09	0.00
388.28	11.70
388.48	7.02
388.67	0.00
388.86	0.00
389.06	11.70
389.25	49.15
389.45	46.81
389.64	14.04
389.84	88.94
390.03	37.45
390.22	32.77
390.42	21.06
390.61	32.77
390.81	0.00
391.00	2.34
391.19	2.34
391.39	21.06
391.58	0.00
391.78	0.00
391.97	0.00
392.16	37.45
392.36	30.43
392.55	32.77
392.75	51.49
392.94	95.96
393.13	88.94
393.33	70.22
393.52	2.34
393.71	28.09
393.91	25.75
394.10	14.04
394.29	0.00
394.49	35.11
394.68	7.02
394.88	30.43
395.07	9.36
395.26	32.77
395.46	0.00
395.65	44.47
395.84	32.77
396.04	95.96
396.23	2.34
396.42	28.09
396.62	0.00
396.81	0.00
397.00	0.00
397.19	56.17
397.39	93.62
397.58	7.02
397.77	140.43
397.97	37.45
398.16	2.34
398.35	42.13
398.55	0.00
398.74	46.81
398.93	32.77
399.12	30.43
399.32	18.72
399.51	53.83
399.70	51.49
399.90	11.70
400.09	0.00
400.28	44.47
400.47	0.00
400.67	42.13
400.86	35.11
401.05	58.51
401.24	35.11
401.44	56.17
401.63	4.68
401.82	30.43
402.01	46.81
402.21	4.68
402.40	4.68
402.59	60.85
402.78	60.85
402.97	30.43
403.17	37.45
403.36	0.00
403.55	9.36
403.74	39.79
403.93	77.24
404.13	46.81
404.32	86.60
404.51	81.92
404.70	37.45
404.89	0.00
405.09	35.11
405.28	93.62
405.47	21.06
405.66	0.00
405.85	25.75
406.05	58.51
406.24	23.41
406.43	72.56
406.62	42.13
406.81	102.98
407.00	30.43
407.20	21.06
407.39	21.06
407.58	16.38
407.77	35.11
407.96	7.02
408.15	32.77
408.34	72.56
408.54	0.00
408.73	11.70
408.92	0.00
409.11	74.90
409.30	67.88
409.49	0.00
409.68	0.00
409.87	16.38
410.07	7.02
410.26	44.47
410.45	0.00
410.64	88.94
410.83	105.32
411.02	25.75
411.21	60.85
411.40	0.00
411.59	0.00
411.78	32.77
411.98	32.77
412.17	0.00
412.36	107.66
412.55	39.79
412.74	0.00
412.93	23.41
413.12	0.00
413.31	56.17
413.50	51.49
413.69	84.26
413.88	46.81
414.07	44.47
414.26	32.77
414.45	53.83
414.64	53.83
414.83	0.00
415.02	0.00
415.22	0.00
415.41	21.06
415.60	16.38
415.79	35.11
415.98	35.11
416.17	88.94
416.36	70.22
416.55	25.75
416.74	28.09
416.93	74.90
417.12	39.79
417.31	28.09
417.50	60.85
417.69	72.56
417.88	37.45
418.07	67.88
418.26	63.19
418.45	60.85
418.64	0.00
418.83	0.00
419.02	30.43
419.21	0.00
419.39	0.00
419.58	58.51
419.77	58.51
419.96	0.00
420.15	0.00
420.34	39.79
420.53	37.45
420.72	86.60
420.91	0.00
421.10	81.92
421.29	37.45
421.48	60.85
421.67	23.41
421.86	11.70
422.05	14.04
422.24	67.88
422.43	70.22
422.61	7.02
422.80	70.22
422.99	30.43
423.18	60.85
423.37	11.70
423.56	56.17
423.75	37.45
423.94	37.45
424.13	72.56
424.32	60.85
424.50	4.68
424.69	42.13
424.88	42.13
425.07	58.51
425.26	81.92
425.45	88.94
425.64	0.00
425.83	21.06
426.01	67.88
426.20	2.34
426.39	28.09
426.58	46.81
426.77	56.17
426.96	56.17
427.15	84.26
427.33	42.13
427.52	56.17
427.71	35.11
427.90	0.00
428.09	16.38
428.28	84.26
428.46	58.51
428.65	63.19
428.84	32.77
429.03	53.83
429.22	67.88
429.40	63.19
429.59	32.77
429.78	88.94
429.97	32.77
430.16	0.00
430.34	91.28
430.53	16.38
430.72	72.56
430.91	88.94
431.10	60.85
431.28	16.38
431.47	30.43
431.66	112.35
431.85	65.54
432.03	60.85
432.22	9.36
432.41	30.43
432.60	119.37
432.79	91.28
432.97	28.09
433.16	51.49
433.35	32.77
433.54	16.38
433.72	72.56
433.91	4.68
434.10	42.13
434.28	74.90
434.47	88.94
434.66	32.77
434.85	11.70
435.03	0.00
435.22	0.00
435.41	35.11
435.59	53.83
435.78	46.81
435.97	95.96
436.16	4.68
436.34	7.02
436.53	21.06
436.72	84.26
436.90	58.51
437.09	77.24
437.28	70.22
437.46	46.81
437.65	67.88
437.84	86.60
438.02	42.13
438.21	84.26
438.40	51.49
438.58	74.90
438.77	91.28
438.96	77.24
439.14	35.11
439.33	32.77
439.52	91.28
439.70	46.81
439.89	28.09
440.08	107.66
440.26	44.47
440.45	9.36
440.63	51.49
440.82	0.00
441.01	30.43
441.19	70.22
441.38	49.15
441.57	117.03
441.75	67.88
441.94	56.17
442.12	126.39
442.31	11.70
442.50	7.02
442.68	0.00
442.87	49.15
443.05	0.00
443.24	32.77
443.43	30.43
443.61	100.64
443.80	44.47
443.98	0.00
444.17	53.83
444.35	49.15
444.54	105.32
444.73	23.41
444.91	65.54
445.10	98.30
445.28	56.17
445.47	107.66
445.65	46.81
445.84	42.13
446.02	30.43
446.21	51.49
446.39	18.72
446.58	56.17
446.77	39.79
446.95	30.43
447.14	74.90
447.32	53.83
447.51	86.60
447.69	0.00
447.88	0.00
448.06	14.04
448.25	46.81
448.43	11.70
448.62	35.11
448.80	25.75
448.99	107.66
449.17	21.06
449.36	18.72
449.54	72.56
449.73	32.77
449.91	42.13
450.10	63.19
450.28	35.11
450.46	138.09
450.65	93.62
450.83	35.11
451.02	9.36
451.20	65.54
451.39	65.54
451.57	58.51
451.76	35.11
451.94	28.09
452.13	77.24
452.31	81.92
452.49	16.38
452.68	0.00
452.86	79.58
453.05	81.92
453.23	32.77
453.42	49.15
453.60	42.13
453.78	67.88
453.97	51.49
454.15	79.58
454.34	84.26
454.52	23.41
454.70	9.36
454.89	0.00
455.07	51.49
455.26	16.38
455.44	53.83
455.62	46.81
455.81	114.69
455.99	0.00
456.17	95.96
456.36	18.72
456.54	0.00
456.73	4.68
456.91	91.28
457.09	86.60
457.28	60.85
457.46	70.22
457.64	0.00
457.83	77.24
458.01	79.58
458.19	37.45
458.38	0.00
458.56	39.79
458.74	67.88
458.93	86.60
459.11	44.47
459.29	133.41
459.48	84.26
459.66	39.79
459.84	93.62
460.03	42.13
460.21	100.64
460.39	18.72
460.57	105.32
460.76	39.79
460.94	93.62
461.12	39.79
461.31	60.85
461.49	77.24
461.67	56.17
461.85	81.92
462.04	88.94
462.22	124.05
462.40	44.47
462.59	110.01
462.77	81.92
462.95	0.00
463.13	119.37
463.32	18.72
463.50	65.54
463.68	98.30
463.86	14.04
464.05	93.62
464.23	81.92
464.41	42.13
464.59	70.22
464.78	11.70
464.96	51.49
465.14	25.75
465.32	44.47
465.50	32.77
465.69	98.30
465.87	79.58
466.05	32.77
466.23	0.00
466.41	9.36
466.60	21.06
466.78	88.94
466.96	124.05
467.14	84.26
467.32	121.71
467.51	63.19
467.69	100.64
467.87	67.88
468.05	14.04
468.23	0.00
468.41	23.41
468.60	93.62
468.78	37.45
468.96	100.64
469.14	21.06
469.32	102.98
469.50	0.00
469.69	77.24
469.87	60.85
470.05	65.54
470.23	112.35
470.41	65.54
470.59	25.75
470.77	58.51
470.95	81.92
471.14	28.09
471.32	84.26
471.50	81.92
471.68	35.11
471.86	42.13
472.04	79.58
472.22	35.11
472.40	126.39
472.58	30.43
472.77	35.11
472.95	63.19
473.13	37.45
473.31	67.88
473.49	9.36
473.67	74.90
473.85	79.58
474.03	11.70
474.21	124.05
474.39	81.92
474.57	35.11
474.75	72.56
474.93	0.00
475.12	23.41
475.30	131.07
475.48	51.49
475.66	70.22
475.84	95.96
476.02	16.38
476.20	105.32
476.38	16.38
476.56	72.56
476.74	124.05
476.92	18.72
477.10	21.06
477.28	49.15
477.46	9.36
477.64	39.79
477.82	42.13
478.00	95.96
478.18	81.92
478.36	0.00
478.54	44.47
478.72	44.47
478.90	46.81
479.08	32.77
479.26	28.09
479.44	46.81
479.62	63.19
479.80	79.58
479.98	119.37
480.16	105.32
480.34	42.13
480.52	107.66
480.70	98.30
480.88	74.90
481.06	56.17
481.24	77.24
481.41	46.81
481.59	30.43
481.77	51.49
481.95	0.00
482.13	84.26
482.31	149.79
482.49	70.22
482.67	72.56
482.85	72.56
483.03	51.49
483.21	72.56
483.39	95.96
483.57	117.03
483.74	49.15
483.92	23.41
484.10	49.15
484.28	51.49
484.46	60.85
484.64	60.85
484.82	0.00
485.00	37.45
485.18	152.13
485.35	63.19
485.53	102.98
485.71	67.88
485.89	42.13
486.07	51.49
486.25	18.72
486.43	107.66
486.61	67.88
486.78	81.92
486.96	119.37
487.14	49.15
487.32	0.00
487.50	30.43
487.68	131.07
487.85	39.79
488.03	81.92
488.21	63.19
488.39	105.32
488.57	147.45
488.75	67.88
488.92	142.77
489.10	32.77
489.28	156.82
489.46	102.98
489.64	117.03
489.81	0.00
489.99	67.88
490.17	4.68
490.35	81.92
490.53	84.26
490.70	95.96
490.88	121.71
491.06	114.69
491.24	60.85
491.41	23.41
491.59	39.79
491.77	98.30
491.95	84.26
492.13	67.88
492.30	91.28
492.48	0.00
492.66	84.26
492.84	112.35
493.01	149.79
493.19	18.72
493.37	70.22
493.54	154.48
493.72	49.15
493.90	65.54
494.08	128.73
494.25	37.45
494.43	74.90
494.61	37.45
494.79	18.72
494.96	65.54
495.14	0.00
495.32	93.62
495.49	124.05
495.67	42.13
495.85	51.49
496.02	100.64
496.20	112.35
496.38	60.85
496.55	84.26
496.73	39.79
496.91	74.90
497.09	65.54
497.26	49.15
497.44	39.79
497.62	72.56
497.79	98.30
497.97	79.58
498.14	7.02
498.32	77.24
498.50	46.81
498.67	60.85
498.85	128.73
499.03	74.90
499.20	79.58
499.38	95.96
499.56	107.66
499.73	11.70
499.91	81.92
500.08	63.19
500.26	67.88
500.44	100.64
500.61	93.62
500.79	77.24
500.97	81.92
501.14	110.01
501.32	35.11
501.49	93.62
501.67	4.68
501.84	126.39
502.02	46.81
502.20	110.01
502.37	72.56
502.55	79.58
502.72	124.05
502.90	105.32
503.07	93.62
503.25	98.30
503.43	93.62
503.60	114.69
503.78	105.32
503.95	0.00
504.13	9.36
504.30	91.28
504.48	70.22
504.65	65.54
504.83	65.54
505.01	77.24
505.18	53.83
505.36	112.35
505.53	91.28
505.71	88.94
505.88	58.51
506.06	105.32
506.23	65.54
506.41	67.88
506.58	98.30
506.76	91.28
506.93	53.83
507.11	56.17
507.28	100.64
507.46	51.49
507.63	77.24
507.81	25.75
507.98	98.30
508.16	98.30
508.33	81.92
508.50	98.30
508.68	39.79
508.85	100.64
509.03	105.32
509.20	95.96
509.38	56.17
509.55	46.81
509.73	140.43
509.90	121.71
510.08	65.54
510.25	65.54
510.42	98.30
510.60	42.13
510.77	30.43
510.95	37.45
511.12	88.94
511.30	93.62
511.47	39.79
511.64	117.03
511.82	56.17
511.99	72.56
512.17	56.17
512.34	107.66
512.51	63.19
512.69	147.45
512.86	95.96
513.04	86.60
513.21	138.09
513.38	39.79
513.56	11.70
513.73	42.13
513.90	149.79
514.08	105.32
514.25	77.24
514.43	88.94
514.60	102.98
514.77	114.69
514.95	81.92
515.12	112.35
515.29	42.13
515.47	98.30
515.64	81.92
515.81	131.07
515.99	35.11
516.16	77.24
516.33	51.49
516.51	65.54
516.68	91.28
516.85	84.26
517.03	53.83
517.20	49.15
517.37	88.94
517.54	67.88
517.72	88.94
517.89	138.09
518.06	107.66
518.24	88.94
518.41	128.73
518.58	56.17
518.75	53.83
518.93	70.22
519.10	7.02
519.27	0.00
519.45	84.26
519.62	72.56
519.79	7.02
519.96	4.68
520.14	25.75
520.31	21.06
520.48	46.81
520.65	102.98
520.83	102.98
521.00	95.96
521.17	49.15
521.34	79.58
521.52	154.48
521.69	70.22
521.86	74.90
522.03	63.19
522.20	98.30
522.38	25.75
522.55	28.09
522.72	65.54
522.89	107.66
523.07	79.58
523.24	49.15
523.41	65.54
523.58	53.83
523.75	93.62
523.92	91.28
524.10	72.56
524.27	110.01
524.44	86.60
524.61	84.26
524.78	84.26
524.96	30.43
525.13	105.32
525.30	88.94
525.47	140.43
525.64	117.03
525.81	65.54
525.98	63.19
526.16	102.98
526.33	16.38
526.50	46.81
526.67	135.75
526.84	98.30
527.01	91.28
527.18	81.92
527.36	72.56
527.53	63.19
527.70	93.62
527.87	88.94
528.04	88.94
528.21	67.88
528.38	105.32
528.55	49.15
528.72	110.01
528.89	28.09
529.07	37.45
529.24	121.71
529.41	105.32
529.58	74.90
529.75	25.75
529.92	79.58
530.09	112.35
530.26	147.45
530.43	30.43
530.60	100.64
530.77	95.96
530.94	131.07
531.11	42.13
531.28	63.19
531.46	74.90
531.63	86.60
531.80	81.92
531.97	114.69
532.14	133.41
532.31	114.69
532.48	70.22
532.65	60.85
532.82	128.73
532.99	21.06
533.16	100.64
533.33	81.92
533.50	67.88
533.67	21.06
533.84	65.54
534.01	117.03
534.18	23.41
534.35	81.92
534.52	107.66
534.69	67.88
534.86	35.11
535.03	131.07
535.20	142.77
535.37	117.03
535.54	147.45
535.71	67.88
535.88	72.56
536.05	60.85
536.22	79.58
536.38	159.16
536.55	58.51
536.72	117.03
536.89	126.39
537.06	42.13
537.23	98.30
537.40	46.81
537.57	11.70
537.74	23.41
537.91	53.83
538.08	37.45
538.25	72.56
538.42	81.92
538.59	72.56
538.75	51.49
538.92	102.98
539.09	23.41
539.26	46.81
539.43	91.28
539.60	147.45
539.77	98.30
539.94	77.24
540.11	93.62
540.28	18.72
540.44	126.39
540.61	18.72
540.78	161.50
540.95	93.62
541.12	51.49
541.29	93.62
541.46	98.30
541.62	105.32
541.79	32.77
541.96	147.45
542.13	114.69
542.30	63.19
542.47	14.04
542.63	28.09
542.80	28.09
542.97	91.28
543.14	102.98
543.31	135.75
543.48	44.47
543.64	93.62
543.81	91.28
543.98	79.58
544.15	32.77
544.32	74.90
544.48	100.64
544.65	100.64
544.82	77.24
544.99	100.64
545.16	147.45
545.32	81.92
545.49	84.26
545.66	37.45
545.83	147.45
546.00	81.92
546.16	42.13
546.33	67.88
546.50	30.43
546.67	84.26
546.83	79.58
547.00	67.88
547.17	88.94
547.34	95.96
547.50	147.45
547.67	74.90
547.84	60.85
548.00	93.62
548.17	105.32
548.34	88.94
548.51	124.05
548.67	74.90
548.84	21.06
549.01	88.94
549.18	128.73
549.34	72.56
549.51	37.45
549.68	100.64
549.84	93.62
550.01	74.90
550.18	117.03
550.34	74.90
550.51	138.09
550.68	105.32
550.84	60.85
551.01	145.11
551.18	37.45
551.34	91.28
551.51	98.30
551.68	81.92
551.84	60.85
552.01	23.41
552.18	86.60
552.34	86.60
552.51	81.92
552.68	79.58
552.84	81.92
553.01	63.19
553.18	25.75
553.34	152.13
553.51	86.60
553.67	79.58
553.84	135.75
554.01	46.81
554.17	114.69
554.34	79.58
554.51	30.43
554.67	128.73
554.84	72.56
555.00	133.41
555.17	86.60
555.33	84.26
555.50	37.45
555.67	51.49
555.83	51.49
556.00	159.16
556.16	56.17
556.33	58.51
556.50	77.24
556.66	30.43
556.83	98.30
556.99	79.58
557.16	49.15
557.32	102.98
557.49	77.24
557.65	30.43
557.82	63.19
557.98	131.07
558.15	86.60
558.32	126.39
558.48	84.26
558.65	100.64
558.81	84.26
558.98	154.48
559.14	81.92
559.31	51.49
559.47	84.26
559.64	18.72
559.80	114.69
559.97	88.94
560.13	95.96
560.30	70.22
560.46	58.51
560.63	77.24
560.79	93.62
560.96	100.64
561.12	93.62
561.29	67.88
561.45	72.56
561.61	18.72
561.78	65.54
561.94	145.11
562.11	100.64
562.27	135.75
562.44	77.24
562.60	77.24
562.77	110.01
562.93	72.56
563.10	107.66
563.26	107.66
563.42	95.96
563.59	63.19
563.75	84.26
563.92	147.45
564.08	133.41
564.24	63.19
564.41	98.30
564.57	86.60
564.74	60.85
564.90	100.64
565.07	44.47
565.23	102.98
565.39	102.98
565.56	65.54
565.72	88.94
565.88	39.79
566.05	91.28
566.21	74.90
566.38	53.83
566.54	56.17
566.70	72.56
566.87	124.05
567.03	91.28
567.19	117.03
567.36	107.66
567.52	77.24
567.68	128.73
567.85	84.26
568.01	105.32
568.17	138.09
568.34	98.30
568.50	126.39
568.66	112.35
568.83	30.43
568.99	42.13
569.15	16.38
569.32	37.45
569.48	72.56
569.64	114.69
569.81	23.41
569.97	56.17
570.13	95.96
570.30	88.94
570.46	102.98
570.62	14.04
570.78	135.75
570.95	77.24
571.11	88.94
571.27	39.79
571.43	7.02
571.60	77.24
571.76	42.13
571.92	70.22
572.09	67.88
572.25	51.49
572.41	58.51
572.57	126.39
572.74	105.32
572.90	67.88
573.06	112.35
573.22	149.79
573.38	44.47
573.55	30.43
573.71	0.00
573.87	107.66
574.03	100.64
574.20	63.19
574.36	65.54
574.52	102.98
574.68	81.92
574.84	105.32
575.01	42.13
575.17	145.11
575.33	110.01
575.49	49.15
575.65	102.98
575.82	93.62
575.98	70.22
576.14	102.98
576.30	93.62
576.46	49.15
576.62	86.60
576.79	135.75
576.95	65.54
577.11	56.17
577.27	39.79
577.43	70.22
577.59	88.94
577.75	42.13
577.92	95.96
578.08	70.22
578.24	112.35
578.40	65.54
578.56	142.77
578.72	58.51
578.88	168.52
579.04	51.49
579.21	56.17
579.37	114.69
579.53	46.81
579.69	46.81
579.85	65.54
580.01	42.13
580.17	28.09
580.33	63.19
580.49	70.22
580.65	107.66
580.82	105.32
580.98	77.24
581.14	147.45
581.30	135.75
581.46	93.62
581.62	0.00
581.78	161.50
581.94	102.98
582.10	133.41
582.26	107.66
582.42	91.28
582.58	133.41
582.74	105.32
582.90	128.73
583.06	70.22
583.22	72.56
583.38	56.17
583.54	14.04
583.70	28.09
583.86	39.79
584.02	84.26
584.18	84.26
584.34	63.19
584.50	77.24
584.66	84.26
584.82	117.03
584.98	91.28
585.14	63.19
585.30	107.66
585.46	67.88
585.62	126.39
585.78	110.01
585.94	77.24
586.10	23.41
586.26	77.24
586.42	88.94
586.58	16.38
586.74	79.58
586.90	149.79
587.06	65.54
587.22	84.26
587.38	117.03
587.54	91.28
587.70	14.04
587.86	114.69
588.02	74.90
588.18	18.72
588.34	72.56
588.49	79.58
588.65	44.47
588.81	79.58
588.97	0.00
589.13	35.11
589.29	14.04
589.45	70.22
589.61	81.92
589.77	110.01
589.93	110.01
590.08	21.06
590.24	39.79
590.40	79.58
590.56	37.45
590.72	67.88
590.88	25.75
591.04	88.94
591.20	86.60
591.35	102.98
591.51	112.35
591.67	60.85
591.83	0.00
591.99	72.56
592.15	74.90
592.31	74.90
592.46	91.28
592.62	128.73
592.78	49.15
592.94	44.47
593.10	18.72
593.26	79.58
593.41	133.41
593.57	102.98
593.73	39.79
593.89	121.71
594.05	7.02
594.20	79.58
594.36	119.37
594.52	25.75
594.68	46.81
594.84	79.58
594.99	9.36
595.15	42.13
595.31	105.32
595.47	128.73
595.62	65.54
595.78	84.26
595.94	93.62
596.10	119.37
596.25	100.64
596.41	107.66
596.57	42.13
596.73	142.77
596.88	128.73
597.04	32.77
597.20	58.51
597.36	32.77
597.51	128.73
597.67	117.03
597.83	65.54
597.99	86.60
598.14	121.71
598.30	9.36
598.46	37.45
598.61	67.88
598.77	70.22
598.93	72.56
599.09	53.83
599.24	84.26
599.40	65.54
599.56	152.13
599.71	18.72
599.87	65.54
600.03	39.79
600.18	65.54
600.34	63.19
600.50	84.26
600.65	67.88
600.81	30.43
600.97	117.03
601.12	135.75
601.28	74.90
601.44	79.58
601.59	100.64
601.75	70.22
601.91	49.15
602.06	159.16
602.22	81.92
602.37	44.47
602.53	65.54
602.69	63.19
602.84	86.60
603.00	72.56
603.16	72.56
603.31	51.49
603.47	46.81
603.62	140.43
603.78	112.35
603.94	63.19
604.09	84.26
604.25	112.35
604.40	49.15
604.56	58.51
604.71	88.94
604.87	98.30
605.03	58.51
605.18	205.97
605.34	128.73
605.49	42.13
605.65	121.71
605.80	60.85
605.96	86.60
606.12	39.79
606.27	100.64
606.43	28.09
606.58	58.51
606.74	65.54
606.89	37.45
607.05	67.88
607.20	60.85
607.36	105.32
607.51	105.32
607.67	63.19
607.82	65.54
607.98	98.30
608.13	23.41
608.29	147.45
608.44	147.45
608.60	149.79
608.75	65.54
608.91	72.56
609.06	65.54
609.22	63.19
609.37	53.83
609.53	67.88
609.68	81.92
609.84	56.17
609.99	126.39
610.15	46.81
610.30	70.22
610.46	28.09
610.61	65.54
610.76	95.96
610.92	49.15
611.07	84.26
611.23	58.51
611.38	7.02
611.54	58.51
611.69	44.47
611.84	67.88
612.00	4.68
612.15	21.06
612.31	65.54
612.46	42.13
612.62	0.00
612.77	44.47
612.92	56.17
613.08	51.49
613.23	51.49
613.39	133.41
613.54	53.83
613.69	28.09
613.85	42.13
614.00	121.71
614.15	60.85
614.31	28.09
614.46	70.22
614.62	79.58
614.77	81.92
614.92	86.60
615.08	21.06
615.23	28.09
615.38	72.56
615.54	21.06
615.69	72.56
615.84	67.88
616.00	70.22
616.15	70.22
616.30	107.66
616.46	0.00
616.61	56.17
616.76	84.26
616.92	88.94
617.07	86.60
617.22	86.60
617.37	81.92
617.53	63.19
617.68	110.01
617.83	74.90
617.99	49.15
618.14	63.19
618.29	131.07
618.45	72.56
618.60	93.62
618.75	9.36
618.90	79.58
619.06	30.43
619.21	42.13
619.36	107.66
619.51	77.24
619.67	126.39
619.82	35.11
619.97	32.77
620.12	84.26
620.28	0.00
620.43	30.43
620.58	39.79
620.73	65.54
620.89	100.64
621.04	46.81
621.19	98.30
621.34	42.13
621.49	67.88
621.65	70.22
621.80	77.24
621.95	133.41
622.10	49.15
622.25	107.66
622.41	37.45
622.56	7.02
622.71	88.94
622.86	56.17
623.01	42.13
623.16	49.15
623.32	39.79
623.47	98.30
623.62	0.00
623.77	72.56
623.92	131.07
624.07	42.13
624.23	77.24
624.38	114.69
624.53	65.54
624.68	84.26
624.83	58.51
624.98	81.92
625.13	65.54
625.29	42.13
625.44	100.64
625.59	18.72
625.74	67.88
625.89	46.81
626.04	95.96
626.19	65.54
626.34	39.79
626.49	84.26
626.65	46.81
626.80	28.09
626.95	74.90
627.10	58.51
627.25	58.51
627.40	14.04
627.55	72.56
627.70	14.04
627.85	86.60
628.00	0.00
628.15	7.02
628.30	112.35
628.45	25.75
628.60	49.15
628.76	84.26
628.91	0.00
629.06	133.41
629.21	84.26
629.36	0.00
629.51	166.18
629.66	114.69
629.81	81.92
629.96	88.94
630.11	37.45
630.26	42.13
630.41	16.38
630.56	37.45
630.71	37.45
630.86	42.13
631.01	60.85
631.16	110.01
631.31	98.30
631.46	0.00
631.61	70.22
631.76	44.47
631.91	0.00
632.06	72.56
632.21	93.62
632.36	81.92
632.51	23.41
632.66	0.00
632.81	60.85
632.96	16.38
633.10	107.66
633.25	46.81
633.40	0.00
633.55	0.00
633.70	37.45
633.85	77.24
634.00	114.69
634.15	7.02
634.30	60.85
634.45	14.04
634.60	81.92
634.75	32.77
634.90	81.92
635.05	37.45
635.19	58.51
635.34	56.17
635.49	74.90
635.64	56.17
635.79	49.15
635.94	42.13
636.09	51.49
636.24	140.43
636.39	138.09
636.53	77.24
636.68	46.81
636.83	51.49
636.98	18.72
637.13	16.38
637.28	42.13
637.43	74.90
637.57	100.64
637.72	35.11
637.87	37.45
638.02	58.51
638.17	63.19
638.32	0.00
638.46	30.43
638.61	79.58
638.76	126.39
638.91	67.88
639.06	79.58
639.20	77.24
639.35	86.60
639.50	46.81
639.65	51.49
639.80	7.02
639.94	42.13
640.09	105.32
640.24	16.38
640.39	25.75
640.54	49.15
640.68	114.69
640.83	18.72
640.98	51.49
641.13	0.00
641.27	44.47
641.42	32.77
641.57	63.19
641.72	67.88
641.86	100.64
642.01	11.70
642.16	49.15
642.31	102.98
642.45	21.06
642.60	9.36
642.75	7.02
642.90	67.88
643.04	91.28
643.19	21.06
643.34	39.79
643.48	16.38
643.63	37.45
643.78	44.47
643.93	58.51
644.07	65.54
644.22	70.22
644.37	81.92
644.51	100.64
644.66	84.26
644.81	65.54
644.95	53.83
645.10	23.41
645.25	110.01
645.39	23.41
645.54	74.90
645.69	72.56
645.83	86.60
645.98	56.17
646.13	88.94
646.27	56.17
646.42	35.11
646.57	44.47
646.71	56.17
646.86	0.00
647.00	0.00
647.15	44.47
647.30	58.51
647.44	53.83
647.59	133.41
647.74	88.94
647.88	0.00
648.03	39.79
648.17	58.51
648.32	91.28
648.47	56.17
648.61	58.51
648.76	23.41
648.90	84.26
649.05	110.01
649.20	72.56
649.34	39.79
649.49	32.77
649.63	46.81
649.78	39.79
649.92	46.81
650.07	28.09
650.21	79.58
650.36	102.98
650.51	53.83
650.65	0.00
650.80	42.13
650.94	72.56
651.09	63.19
651.23	147.45
651.38	112.35
651.52	30.43
651.67	35.11
651.81	25.75
651.96	21.06
652.10	39.79
652.25	0.00
652.39	88.94
652.54	88.94
652.68	79.58
652.83	98.30
652.97	23.41
653.12	0.00
653.26	110.01
653.41	28.09
653.55	16.38
653.70	9.36
653.84	102.98
653.99	117.03
654.13	46.81
654.27	67.88
654.42	74.90
654.56	58.51
654.71	42.13
654.85	0.00
655.00	49.15
655.14	42.13
655.29	44.47
655.43	60.85
655.57	63.19
655.72	46.81
655.86	56.17
656.01	11.70
656.15	7.02
656.30	91.28
656.44	42.13
656.58	7.02
656.73	0.00
656.87	16.38
657.01	51.49
657.16	65.54
657.30	77.24
657.45	42.13
657.59	28.09
657.73	105.32
657.88	0.00
658.02	0.00
658.16	42.13
658.31	4.68
658.45	21.06
658.60	149.79
658.74	58.51
658.88	42.13
659.03	0.00
659.17	42.13
659.31	72.56
659.46	56.17
659.60	28.09
659.74	28.09
659.89	88.94
660.03	0.00
660.17	53.83
660.32	74.90
660.46	32.77
660.60	100.64
660.74	98.30
660.89	65.54
661.03	65.54
661.17	60.85
661.32	37.45
661.46	44.47
661.60	0.00
661.74	46.81
661.89	56.17
662.03	16.38
662.17	86.60
662.31	21.06
662.46	23.41
662.60	91.28
662.74	46.81
662.88	105.32
663.03	126.39
663.17	72.56
663.31	14.04
663.45	70.22
663.60	30.43
663.74	25.75
663.88	58.51
664.02	37.45
664.17	30.43
664.31	60.85
664.45	14.04
664.59	112.35
664.73	25.75
664.88	16.38
665.02	30.43
665.16	0.00
665.30	0.00
665.44	30.43
665.59	0.00
665.73	51.49
665.87	44.47
666.01	56.17
666.15	93.62
666.29	46.81
666.44	110.01
666.58	53.83
666.72	102.98
666.86	32.77
667.00	21.06
667.14	117.03
667.28	37.45
667.43	28.09
667.57	4.68
667.71	81.92
667.85	21.06
667.99	37.45
668.13	16.38
668.27	63.19
668.41	35.11
668.56	28.09
668.70	107.66
668.84	4.68
668.98	56.17
669.12	42.13
669.26	65.54
669.40	119.37
669.54	9.36
669.68	0.00
669.82	0.00
669.96	42.13
670.10	18.72
670.25	58.51
670.39	42.13
670.53	23.41
670.67	0.00
670.81	30.43
670.95	77.24
671.09	88.94
671.23	42.13
671.37	49.15
671.51	4.68
671.65	51.49
671.79	95.96
671.93	124.05
672.07	58.51
672.21	0.00
672.35	14.04
672.49	46.81
672.63	0.00
672.77	114.69
672.91	100.64
673.05	0.00
673.19	126.39
673.33	25.75
673.47	37.45
673.61	77.24
673.75	56.17
673.89	86.60
674.03	81.92
674.17	49.15
674.31	0.00
674.45	65.54
674.59	25.75
674.73	4.68
674.87	51.49
675.01	58.51
675.15	39.79
675.29	30.43
675.43	65.54
675.56	37.45
675.70	88.94
675.84	91.28
675.98	72.56
676.12	67.88
676.26	46.81
676.40	88.94
676.54	18.72
676.68	72.56
676.82	56.17
676.96	114.69
677.10	44.47
677.23	11.70
677.37	60.85
677.51	51.49
677.65	95.96
677.79	25.75
677.93	72.56
678.07	56.17
678.21	37.45
678.34	79.58
678.48	63.19
678.62	0.00
678.76	0.00
678.90	30.43
679.04	53.83
679.18	23.41
679.31	30.43
679.45	58.51
679.59	79.58
679.73	46.81
679.87	88.94
680.00	21.06
680.14	37.45
680.28	39.79
680.42	154.48
680.56	16.38
680.70	49.15
680.83	58.51
680.97	42.13
681.11	0.00
681.25	51.49
681.39	86.60
681.52	84.26
681.66	79.58
681.80	23.41
681.94	86.60
682.07	67.88
682.21	25.75
682.35	23.41
682.49	84.26
682.62	30.43
682.76	37.45
682.90	93.62
683.04	2.34
683.17	14.04
683.31	74.90
683.45	49.15
683.59	0.00
683.72	39.79
683.86	56.17
684.00	42.13
684.13	11.70
684.27	42.13
684.41	0.00
684.55	53.83
684.68	39.79
684.82	102.98
684.96	65.54
685.09	53.83
685.23	11.70
685.37	56.17
685.50	16.38
685.64	44.47
685.78	0.00
685.91	0.00
686.05	51.49
686.19	18.72
686.32	91.28
686.46	42.13
686.60	65.54
686.73	70.22
686.87	42.13
687.01	28.09
687.14	72.56
687.28	0.00
687.42	49.15
687.55	39.79
687.69	44.47
687.82	72.56
687.96	53.83
688.10	86.60
688.23	51.49
688.37	63.19
688.50	107.66
688.64	37.45
688.78	11.70
688.91	58.51
689.05	28.09
689.18	95.96
689.32	95.96
689.46	0.00
689.59	23.41
689.73	14.04
689.86	0.00
690.00	46.81
690.13	39.79
690.27	112.35
690.41	102.98
690.54	39.79
690.68	0.00
690.81	65.54
690.95	51.49
691.08	58.51
691.22	21.06
691.35	23.41
691.49	25.75
691.62	51.49
691.76	11.70
691.89	18.72
692.03	23.41
692.16	44.47
692.30	9.36
692.43	21.06
692.57	93.62
692.70	37.45
692.84	67.88
692.97	0.00
693.11	0.00
693.24	35.11
693.38	86.60
693.51	67.88
693.65	32.77
693.78	79.58
693.92	65.54
694.05	67.88
694.19	0.00
694.32	23.41
694.45	28.09
694.59	23.41
694.72	60.85
694.86	21.06
694.99	0.00
695.13	35.11
695.26	77.24
695.39	14.04
695.53	81.92
695.66	21.06
695.80	37.45
695.93	42.13
696.07	70.22
696.20	0.00
696.33	37.45
696.47	44.47
696.60	63.19
696.73	110.01
696.87	63.19
697.00	70.22
697.14	63.19
697.27	51.49
697.40	91.28
697.54	25.75
697.67	56.17
697.80	11.70
697.94	0.00
698.07	35.11
698.21	0.00
698.34	51.49
698.47	63.19
698.61	0.00
698.74	0.00
698.87	30.43
699.01	9.36
699.14	7.02
699.27	4.68
699.40	72.56
699.54	67.88
699.67	46.81
699.80	14.04
699.94	4.68
700.07	42.13
700.20	35.11
700.34	16.38
700.47	63.19
700.60	0.00
700.73	37.45
700.87	67.88
701.00	37.45
701.13	93.62
701.26	14.04
701.40	88.94
701.53	128.73
701.66	0.00
701.79	84.26
701.93	117.03
702.06	58.51
702.19	0.00
702.32	25.75
702.46	37.45
702.59	0.00
702.72	0.00
702.85	70.22
702.99	11.70
703.12	112.35
703.25	35.11
703.38	74.90
703.51	25.75
703.65	2.34
703.78	28.09
703.91	39.79
704.04	35.11
704.17	112.35
704.31	46.81
704.44	37.45
704.57	25.75
704.70	28.09
704.83	23.41
704.96	23.41
705.10	74.90
705.23	51.49
>>>>>End Processed Spectral Data<<<<<
