SpectraSuite Data File
++++++++++++++++++++++++++++++++++++
Date: Fri Oct 04 12:13:35 GMT-05:00 2013
User: price-jones
Dark Spectrum Present: No
Reference Spectrum Present: No
Number of Sampled Component Spectra: 1
Spectrometers: USB2+H05261
Integration Time (usec): 10000 (USB2+H05261)
Spectra Averaged: 1 (USB2+H05261)
Boxcar Smoothing: 0 (USB2+H05261)
Correct for Electrical Dark: No (USB2+H05261)
Strobe/Lamp Enabled: No (USB2+H05261)
Correct for Detector Non-linearity: No (USB2+H05261)
Correct for Stray Light: No (USB2+H05261)
Number of Pixels in Processed Spectrum: 2048
>>>>>Begin Processed Spectral Data<<<<<
365.73	0.00
365.92	0.00
366.12	0.00
366.32	0.00
366.52	0.00
366.72	0.00
366.91	0.00
367.11	0.00
367.31	0.00
367.51	0.00
367.70	0.00
367.90	0.00
368.10	0.00
368.30	0.00
368.49	0.00
368.69	0.00
368.89	0.00
369.09	0.00
369.28	0.00
369.48	0.00
369.68	0.00
369.87	0.00
370.07	0.00
370.27	0.00
370.47	0.00
370.66	0.00
370.86	0.00
371.06	4.68
371.25	0.00
371.45	2.34
371.65	23.41
371.84	0.00
372.04	0.00
372.24	0.00
372.44	0.00
372.63	35.11
372.83	56.17
373.03	51.49
373.22	11.70
373.42	25.75
373.62	7.02
373.81	35.11
374.01	30.43
374.21	35.11
374.40	91.28
374.60	72.56
374.79	14.04
374.99	0.00
375.19	28.09
375.38	46.81
375.58	51.49
375.78	70.22
375.97	39.79
376.17	88.94
376.37	21.06
376.56	72.56
376.76	70.22
376.95	9.36
377.15	65.54
377.35	0.00
377.54	95.96
377.74	0.00
377.93	4.68
378.13	30.43
378.33	0.00
378.52	0.00
378.72	0.00
378.91	14.04
379.11	0.00
379.31	0.00
379.50	25.75
379.70	0.00
379.89	72.56
380.09	0.00
380.28	2.34
380.48	42.13
380.68	42.13
380.87	18.72
381.07	0.00
381.26	14.04
381.46	18.72
381.65	0.00
381.85	0.00
382.04	0.00
382.24	51.49
382.43	7.02
382.63	35.11
382.83	100.64
383.02	53.83
383.22	37.45
383.41	7.02
383.61	28.09
383.80	18.72
384.00	0.00
384.19	56.17
384.39	42.13
384.58	11.70
384.78	25.75
384.97	25.75
385.17	0.00
385.36	72.56
385.56	49.15
385.75	0.00
385.95	58.51
386.14	0.00
386.34	42.13
386.53	9.36
386.72	53.83
386.92	25.75
387.11	35.11
387.31	4.68
387.50	0.00
387.70	35.11
387.89	32.77
388.09	0.00
388.28	81.92
388.48	74.90
388.67	60.85
388.86	23.41
389.06	53.83
389.25	7.02
389.45	0.00
389.64	2.34
389.84	112.35
390.03	46.81
390.22	42.13
390.42	21.06
390.61	0.00
390.81	0.00
391.00	0.00
391.19	18.72
391.39	18.72
391.58	35.11
391.78	0.00
391.97	0.00
392.16	0.00
392.36	4.68
392.55	0.00
392.75	9.36
392.94	53.83
393.13	84.26
393.33	35.11
393.52	11.70
393.71	81.92
393.91	28.09
394.10	0.00
394.29	46.81
394.49	0.00
394.68	37.45
394.88	60.85
395.07	42.13
395.26	0.00
395.46	51.49
395.65	60.85
395.84	32.77
396.04	30.43
396.23	0.00
396.42	4.68
396.62	63.19
396.81	25.75
397.00	9.36
397.19	25.75
397.39	56.17
397.58	0.00
397.77	21.06
397.97	0.00
398.16	32.77
398.35	32.77
398.55	56.17
398.74	58.51
398.93	51.49
399.12	49.15
399.32	44.47
399.51	44.47
399.70	100.64
399.90	102.98
400.09	86.60
400.28	0.00
400.47	2.34
400.67	74.90
400.86	74.90
401.05	81.92
401.24	79.58
401.44	119.37
401.63	84.26
401.82	37.45
402.01	0.00
402.21	58.51
402.40	14.04
402.59	0.00
402.78	95.96
402.97	0.00
403.17	28.09
403.36	51.49
403.55	0.00
403.74	42.13
403.93	98.30
404.13	119.37
404.32	4.68
404.51	0.00
404.70	84.26
404.89	0.00
405.09	35.11
405.28	28.09
405.47	16.38
405.66	42.13
405.85	0.00
406.05	16.38
406.24	0.00
406.43	28.09
406.62	0.00
406.81	65.54
407.00	49.15
407.20	2.34
407.39	23.41
407.58	0.00
407.77	0.00
407.96	56.17
408.15	58.51
408.34	49.15
408.54	65.54
408.73	51.49
408.92	37.45
409.11	35.11
409.30	44.47
409.49	9.36
409.68	95.96
409.87	39.79
410.07	39.79
410.26	4.68
410.45	93.62
410.64	110.01
410.83	7.02
411.02	42.13
411.21	56.17
411.40	53.83
411.59	4.68
411.78	51.49
411.98	88.94
412.17	0.00
412.36	0.00
412.55	79.58
412.74	2.34
412.93	100.64
413.12	39.79
413.31	35.11
413.50	72.56
413.69	0.00
413.88	23.41
414.07	0.00
414.26	126.39
414.45	30.43
414.64	72.56
414.83	72.56
415.02	14.04
415.22	51.49
415.41	25.75
415.60	65.54
415.79	42.13
415.98	9.36
416.17	30.43
416.36	56.17
416.55	2.34
416.74	0.00
416.93	35.11
417.12	95.96
417.31	84.26
417.50	0.00
417.69	37.45
417.88	46.81
418.07	51.49
418.26	14.04
418.45	16.38
418.64	49.15
418.83	0.00
419.02	51.49
419.21	72.56
419.39	37.45
419.58	18.72
419.77	105.32
419.96	0.00
420.15	102.98
420.34	16.38
420.53	30.43
420.72	72.56
420.91	60.85
421.10	0.00
421.29	88.94
421.48	0.00
421.67	102.98
421.86	63.19
422.05	46.81
422.24	51.49
422.43	56.17
422.61	28.09
422.80	63.19
422.99	65.54
423.18	28.09
423.37	9.36
423.56	53.83
423.75	93.62
423.94	95.96
424.13	0.00
424.32	0.00
424.50	88.94
424.69	18.72
424.88	84.26
425.07	42.13
425.26	117.03
425.45	88.94
425.64	70.22
425.83	44.47
426.01	58.51
426.20	70.22
426.39	0.00
426.58	18.72
426.77	86.60
426.96	60.85
427.15	84.26
427.33	84.26
427.52	37.45
427.71	23.41
427.90	32.77
428.09	28.09
428.28	18.72
428.46	0.00
428.65	81.92
428.84	60.85
429.03	23.41
429.22	30.43
429.40	46.81
429.59	30.43
429.78	37.45
429.97	70.22
430.16	70.22
430.34	14.04
430.53	32.77
430.72	0.00
430.91	51.49
431.10	60.85
431.28	39.79
431.47	72.56
431.66	4.68
431.85	98.30
432.03	42.13
432.22	100.64
432.41	39.79
432.60	0.00
432.79	0.00
432.97	37.45
433.16	21.06
433.35	84.26
433.54	39.79
433.72	7.02
433.91	105.32
434.10	91.28
434.28	65.54
434.47	84.26
434.66	56.17
434.85	84.26
435.03	25.75
435.22	74.90
435.41	81.92
435.59	30.43
435.78	51.49
435.97	58.51
436.16	51.49
436.34	81.92
436.53	53.83
436.72	49.15
436.90	110.01
437.09	86.60
437.28	35.11
437.46	21.06
437.65	46.81
437.84	102.98
438.02	7.02
438.21	44.47
438.40	46.81
438.58	0.00
438.77	9.36
438.96	49.15
439.14	49.15
439.33	56.17
439.52	93.62
439.70	51.49
439.89	70.22
440.08	42.13
440.26	46.81
440.45	100.64
440.63	79.58
440.82	105.32
441.01	77.24
441.19	49.15
441.38	74.90
441.57	67.88
441.75	0.00
441.94	56.17
442.12	63.19
442.31	30.43
442.50	25.75
442.68	30.43
442.87	74.90
443.05	9.36
443.24	63.19
443.43	70.22
443.61	11.70
443.80	46.81
443.98	79.58
444.17	37.45
444.35	0.00
444.54	46.81
444.73	21.06
444.91	39.79
445.10	72.56
445.28	25.75
445.47	42.13
445.65	102.98
445.84	107.66
446.02	81.92
446.21	46.81
446.39	67.88
446.58	0.00
446.77	67.88
446.95	60.85
447.14	25.75
447.32	42.13
447.51	124.05
447.69	86.60
447.88	81.92
448.06	70.22
448.25	16.38
448.43	32.77
448.62	11.70
448.80	0.00
448.99	67.88
449.17	9.36
449.36	37.45
449.54	21.06
449.73	44.47
449.91	53.83
450.10	46.81
450.28	60.85
450.46	0.00
450.65	11.70
450.83	46.81
451.02	32.77
451.20	91.28
451.39	37.45
451.57	37.45
451.76	105.32
451.94	126.39
452.13	77.24
452.31	102.98
452.49	65.54
452.68	42.13
452.86	70.22
453.05	18.72
453.23	70.22
453.42	37.45
453.60	60.85
453.78	58.51
453.97	93.62
454.15	53.83
454.34	58.51
454.52	72.56
454.70	72.56
454.89	84.26
455.07	46.81
455.26	60.85
455.44	42.13
455.62	30.43
455.81	42.13
455.99	2.34
456.17	93.62
456.36	81.92
456.54	58.51
456.73	138.09
456.91	14.04
457.09	37.45
457.28	114.69
457.46	35.11
457.64	37.45
457.83	25.75
458.01	107.66
458.19	23.41
458.38	11.70
458.56	60.85
458.74	23.41
458.93	42.13
459.11	4.68
459.29	0.00
459.48	70.22
459.66	72.56
459.84	11.70
460.03	74.90
460.21	39.79
460.39	102.98
460.57	84.26
460.76	16.38
460.94	81.92
461.12	28.09
461.31	0.00
461.49	51.49
461.67	102.98
461.85	56.17
462.04	30.43
462.22	100.64
462.40	63.19
462.59	81.92
462.77	95.96
462.95	63.19
463.13	53.83
463.32	0.00
463.50	30.43
463.68	0.00
463.86	28.09
464.05	65.54
464.23	117.03
464.41	49.15
464.59	72.56
464.78	49.15
464.96	23.41
465.14	56.17
465.32	58.51
465.50	110.01
465.69	95.96
465.87	0.00
466.05	32.77
466.23	28.09
466.41	32.77
466.60	28.09
466.78	46.81
466.96	56.17
467.14	126.39
467.32	72.56
467.51	7.02
467.69	28.09
467.87	42.13
468.05	30.43
468.23	86.60
468.41	95.96
468.60	102.98
468.78	72.56
468.96	77.24
469.14	25.75
469.32	11.70
469.50	0.00
469.69	100.64
469.87	86.60
470.05	72.56
470.23	30.43
470.41	9.36
470.59	49.15
470.77	65.54
470.95	0.00
471.14	63.19
471.32	81.92
471.50	67.88
471.68	105.32
471.86	0.00
472.04	44.47
472.22	37.45
472.40	100.64
472.58	49.15
472.77	147.45
472.95	67.88
473.13	0.00
473.31	102.98
473.49	105.32
473.67	84.26
473.85	44.47
474.03	51.49
474.21	81.92
474.39	74.90
474.57	25.75
474.75	60.85
474.93	105.32
475.12	25.75
475.30	0.00
475.48	30.43
475.66	63.19
475.84	58.51
476.02	53.83
476.20	46.81
476.38	63.19
476.56	63.19
476.74	98.30
476.92	74.90
477.10	93.62
477.28	67.88
477.46	105.32
477.64	51.49
477.82	37.45
478.00	79.58
478.18	25.75
478.36	44.47
478.54	74.90
478.72	84.26
478.90	81.92
479.08	88.94
479.26	51.49
479.44	23.41
479.62	39.79
479.80	93.62
479.98	84.26
480.16	114.69
480.34	18.72
480.52	105.32
480.70	86.60
480.88	65.54
481.06	46.81
481.24	65.54
481.41	44.47
481.59	110.01
481.77	0.00
481.95	88.94
482.13	53.83
482.31	65.54
482.49	67.88
482.67	110.01
482.85	121.71
483.03	21.06
483.21	74.90
483.39	128.73
483.57	86.60
483.74	93.62
483.92	44.47
484.10	42.13
484.28	23.41
484.46	63.19
484.64	84.26
484.82	56.17
485.00	88.94
485.18	100.64
485.35	93.62
485.53	65.54
485.71	70.22
485.89	30.43
486.07	74.90
486.25	93.62
486.43	102.98
486.61	44.47
486.78	114.69
486.96	88.94
487.14	58.51
487.32	0.00
487.50	25.75
487.68	53.83
487.85	65.54
488.03	0.00
488.21	46.81
488.39	74.90
488.57	23.41
488.75	65.54
488.92	74.90
489.10	21.06
489.28	58.51
489.46	7.02
489.64	58.51
489.81	79.58
489.99	51.49
490.17	58.51
490.35	28.09
490.53	56.17
490.70	114.69
490.88	21.06
491.06	2.34
491.24	42.13
491.41	91.28
491.59	53.83
491.77	37.45
491.95	117.03
492.13	51.49
492.30	49.15
492.48	100.64
492.66	56.17
492.84	72.56
493.01	35.11
493.19	145.11
493.37	74.90
493.54	14.04
493.72	70.22
493.90	88.94
494.08	105.32
494.25	110.01
494.43	0.00
494.61	37.45
494.79	74.90
494.96	42.13
495.14	107.66
495.32	25.75
495.49	28.09
495.67	53.83
495.85	63.19
496.02	110.01
496.20	39.79
496.38	65.54
496.55	121.71
496.73	112.35
496.91	110.01
497.09	37.45
497.26	102.98
497.44	112.35
497.62	86.60
497.79	44.47
497.97	126.39
498.14	117.03
498.32	102.98
498.50	114.69
498.67	112.35
498.85	91.28
499.03	79.58
499.20	72.56
499.38	100.64
499.56	7.02
499.73	39.79
499.91	37.45
500.08	93.62
500.26	119.37
500.44	0.00
500.61	93.62
500.79	74.90
500.97	72.56
501.14	86.60
501.32	67.88
501.49	65.54
501.67	46.81
501.84	105.32
502.02	86.60
502.20	135.75
502.37	93.62
502.55	124.05
502.72	67.88
502.90	107.66
503.07	159.16
503.25	28.09
503.43	0.00
503.60	44.47
503.78	117.03
503.95	72.56
504.13	81.92
504.30	112.35
504.48	72.56
504.65	49.15
504.83	79.58
505.01	70.22
505.18	67.88
505.36	112.35
505.53	58.51
505.71	77.24
505.88	166.18
506.06	147.45
506.23	95.96
506.41	72.56
506.58	112.35
506.76	100.64
506.93	117.03
507.11	56.17
507.28	138.09
507.46	4.68
507.63	88.94
507.81	42.13
507.98	81.92
508.16	51.49
508.33	21.06
508.50	98.30
508.68	7.02
508.85	102.98
509.03	79.58
509.20	77.24
509.38	93.62
509.55	88.94
509.73	88.94
509.90	53.83
510.08	81.92
510.25	124.05
510.42	128.73
510.60	37.45
510.77	65.54
510.95	35.11
511.12	60.85
511.30	32.77
511.47	67.88
511.64	74.90
511.82	86.60
511.99	53.83
512.17	98.30
512.34	56.17
512.51	35.11
512.69	88.94
512.86	119.37
513.04	79.58
513.21	60.85
513.38	74.90
513.56	102.98
513.73	53.83
513.90	0.00
514.08	7.02
514.25	44.47
514.43	107.66
514.60	28.09
514.77	126.39
514.95	102.98
515.12	65.54
515.29	65.54
515.47	117.03
515.64	86.60
515.81	91.28
515.99	32.77
516.16	79.58
516.33	56.17
516.51	98.30
516.68	67.88
516.85	65.54
517.03	74.90
517.20	98.30
517.37	77.24
517.54	60.85
517.72	39.79
517.89	63.19
518.06	0.00
518.24	102.98
518.41	25.75
518.58	131.07
518.75	72.56
518.93	53.83
519.10	84.26
519.27	93.62
519.45	44.47
519.62	112.35
519.79	74.90
519.96	117.03
520.14	88.94
520.31	88.94
520.48	39.79
520.65	88.94
520.83	149.79
521.00	93.62
521.17	25.75
521.34	67.88
521.52	53.83
521.69	95.96
521.86	105.32
522.03	65.54
522.20	107.66
522.38	65.54
522.55	102.98
522.72	74.90
522.89	126.39
523.07	37.45
523.24	102.98
523.41	16.38
523.58	56.17
523.75	145.11
523.92	0.00
524.10	77.24
524.27	140.43
524.44	133.41
524.61	84.26
524.78	81.92
524.96	121.71
525.13	117.03
525.30	81.92
525.47	91.28
525.64	112.35
525.81	60.85
525.98	42.13
526.16	25.75
526.33	51.49
526.50	46.81
526.67	100.64
526.84	39.79
527.01	51.49
527.18	100.64
527.36	86.60
527.53	93.62
527.70	70.22
527.87	72.56
528.04	114.69
528.21	117.03
528.38	147.45
528.55	102.98
528.72	84.26
528.89	77.24
529.07	147.45
529.24	95.96
529.41	117.03
529.58	70.22
529.75	72.56
529.92	32.77
530.09	114.69
530.26	72.56
530.43	98.30
530.60	60.85
530.77	100.64
530.94	98.30
531.11	63.19
531.28	100.64
531.46	102.98
531.63	56.17
531.80	126.39
531.97	91.28
532.14	88.94
532.31	23.41
532.48	77.24
532.65	102.98
532.82	67.88
532.99	63.19
533.16	77.24
533.33	152.13
533.50	142.77
533.67	86.60
533.84	72.56
534.01	124.05
534.18	102.98
534.35	21.06
534.52	93.62
534.69	105.32
534.86	74.90
535.03	72.56
535.20	105.32
535.37	112.35
535.54	142.77
535.71	67.88
535.88	44.47
536.05	110.01
536.22	133.41
536.38	0.00
536.55	93.62
536.72	63.19
536.89	142.77
537.06	102.98
537.23	32.77
537.40	128.73
537.57	117.03
537.74	79.58
537.91	124.05
538.08	93.62
538.25	126.39
538.42	56.17
538.59	198.95
538.75	173.20
538.92	117.03
539.09	114.69
539.26	84.26
539.43	51.49
539.60	107.66
539.77	49.15
539.94	93.62
540.11	84.26
540.28	114.69
540.44	18.72
540.61	28.09
540.78	35.11
540.95	102.98
541.12	30.43
541.29	105.32
541.46	117.03
541.62	70.22
541.79	121.71
541.96	77.24
542.13	161.50
542.30	63.19
542.47	60.85
542.63	114.69
542.80	119.37
542.97	126.39
543.14	112.35
543.31	79.58
543.48	46.81
543.64	74.90
543.81	112.35
543.98	126.39
544.15	28.09
544.32	63.19
544.48	126.39
544.65	84.26
544.82	72.56
544.99	107.66
545.16	93.62
545.32	110.01
545.49	133.41
545.66	98.30
545.83	91.28
546.00	46.81
546.16	112.35
546.33	128.73
546.50	81.92
546.67	93.62
546.83	32.77
547.00	0.00
547.17	63.19
547.34	0.00
547.50	93.62
547.67	117.03
547.84	37.45
548.00	58.51
548.17	98.30
548.34	39.79
548.51	86.60
548.67	131.07
548.84	63.19
549.01	42.13
549.18	21.06
549.34	91.28
549.51	74.90
549.68	72.56
549.84	119.37
550.01	56.17
550.18	56.17
550.34	67.88
550.51	74.90
550.68	126.39
550.84	140.43
551.01	131.07
551.18	124.05
551.34	51.49
551.51	93.62
551.68	93.62
551.84	131.07
552.01	112.35
552.18	166.18
552.34	121.71
552.51	53.83
552.68	105.32
552.84	49.15
553.01	65.54
553.18	63.19
553.34	44.47
553.51	74.90
553.67	67.88
553.84	21.06
554.01	107.66
554.17	74.90
554.34	142.77
554.51	84.26
554.67	128.73
554.84	105.32
555.00	93.62
555.17	102.98
555.33	112.35
555.50	67.88
555.67	2.34
555.83	77.24
556.00	110.01
556.16	180.22
556.33	140.43
556.50	124.05
556.66	46.81
556.83	93.62
556.99	107.66
557.16	119.37
557.32	60.85
557.49	102.98
557.65	28.09
557.82	42.13
557.98	110.01
558.15	51.49
558.32	128.73
558.48	86.60
558.65	95.96
558.81	175.54
558.98	81.92
559.14	86.60
559.31	72.56
559.47	79.58
559.64	39.79
559.80	72.56
559.97	72.56
560.13	88.94
560.30	95.96
560.46	105.32
560.63	95.96
560.79	95.96
560.96	18.72
561.12	67.88
561.29	105.32
561.45	117.03
561.61	44.47
561.78	149.79
561.94	72.56
562.11	138.09
562.27	88.94
562.44	126.39
562.60	44.47
562.77	110.01
562.93	124.05
563.10	65.54
563.26	63.19
563.42	98.30
563.59	46.81
563.75	37.45
563.92	72.56
564.08	77.24
564.24	7.02
564.41	79.58
564.57	32.77
564.74	98.30
564.90	126.39
565.07	138.09
565.23	133.41
565.39	65.54
565.56	98.30
565.72	37.45
565.88	119.37
566.05	88.94
566.21	35.11
566.38	51.49
566.54	74.90
566.70	60.85
566.87	42.13
567.03	25.75
567.19	117.03
567.36	131.07
567.52	65.54
567.68	79.58
567.85	14.04
568.01	63.19
568.17	135.75
568.34	95.96
568.50	140.43
568.66	93.62
568.83	88.94
568.99	133.41
569.15	49.15
569.32	65.54
569.48	88.94
569.64	42.13
569.81	77.24
569.97	95.96
570.13	128.73
570.30	14.04
570.46	58.51
570.62	42.13
570.78	88.94
570.95	46.81
571.11	28.09
571.27	72.56
571.43	53.83
571.60	79.58
571.76	100.64
571.92	117.03
572.09	70.22
572.25	42.13
572.41	81.92
572.57	140.43
572.74	14.04
572.90	84.26
573.06	138.09
573.22	77.24
573.38	84.26
573.55	25.75
573.71	79.58
573.87	112.35
574.03	72.56
574.20	98.30
574.36	39.79
574.52	128.73
574.68	53.83
574.84	88.94
575.01	121.71
575.17	32.77
575.33	14.04
575.49	86.60
575.65	145.11
575.82	100.64
575.98	88.94
576.14	84.26
576.30	11.70
576.46	77.24
576.62	56.17
576.79	72.56
576.95	63.19
577.11	93.62
577.27	0.00
577.43	42.13
577.59	42.13
577.75	56.17
577.92	77.24
578.08	0.00
578.24	60.85
578.40	67.88
578.56	159.16
578.72	70.22
578.88	37.45
579.04	58.51
579.21	86.60
579.37	51.49
579.53	140.43
579.69	44.47
579.85	58.51
580.01	77.24
580.17	142.77
580.33	74.90
580.49	88.94
580.65	53.83
580.82	88.94
580.98	112.35
581.14	77.24
581.30	105.32
581.46	86.60
581.62	81.92
581.78	67.88
581.94	39.79
582.10	44.47
582.26	131.07
582.42	14.04
582.58	42.13
582.74	95.96
582.90	65.54
583.06	60.85
583.22	98.30
583.38	32.77
583.54	100.64
583.70	74.90
583.86	16.38
584.02	53.83
584.18	91.28
584.34	88.94
584.50	110.01
584.66	67.88
584.82	53.83
584.98	44.47
585.14	79.58
585.30	91.28
585.46	88.94
585.62	65.54
585.78	107.66
585.94	37.45
586.10	100.64
586.26	88.94
586.42	79.58
586.58	56.17
586.74	84.26
586.90	112.35
587.06	74.90
587.22	65.54
587.38	53.83
587.54	93.62
587.70	30.43
587.86	70.22
588.02	65.54
588.18	72.56
588.34	81.92
588.49	49.15
588.65	114.69
588.81	95.96
588.97	58.51
589.13	65.54
589.29	51.49
589.45	46.81
589.61	16.38
589.77	79.58
589.93	107.66
590.08	126.39
590.24	58.51
590.40	98.30
590.56	67.88
590.72	63.19
590.88	105.32
591.04	28.09
591.20	56.17
591.35	84.26
591.51	65.54
591.67	72.56
591.83	74.90
591.99	70.22
592.15	70.22
592.31	98.30
592.46	28.09
592.62	138.09
592.78	102.98
592.94	72.56
593.10	65.54
593.26	81.92
593.41	95.96
593.57	49.15
593.73	65.54
593.89	81.92
594.05	32.77
594.20	107.66
594.36	131.07
594.52	18.72
594.68	23.41
594.84	58.51
594.99	88.94
595.15	9.36
595.31	74.90
595.47	28.09
595.62	91.28
595.78	98.30
595.94	32.77
596.10	117.03
596.25	117.03
596.41	58.51
596.57	107.66
596.73	74.90
596.88	23.41
597.04	67.88
597.20	35.11
597.36	152.13
597.51	72.56
597.67	35.11
597.83	39.79
597.99	112.35
598.14	102.98
598.30	93.62
598.46	60.85
598.61	51.49
598.77	49.15
598.93	58.51
599.09	149.79
599.24	30.43
599.40	56.17
599.56	128.73
599.71	14.04
599.87	128.73
600.03	133.41
600.18	67.88
600.34	70.22
600.50	53.83
600.65	95.96
600.81	100.64
600.97	84.26
601.12	58.51
601.28	114.69
601.44	28.09
601.59	81.92
601.75	84.26
601.91	70.22
602.06	67.88
602.22	91.28
602.37	67.88
602.53	95.96
602.69	74.90
602.84	107.66
603.00	56.17
603.16	91.28
603.31	100.64
603.47	110.01
603.62	77.24
603.78	39.79
603.94	51.49
604.09	79.58
604.25	81.92
604.40	44.47
604.56	114.69
604.71	100.64
604.87	65.54
605.03	58.51
605.18	124.05
605.34	74.90
605.49	56.17
605.65	56.17
605.80	56.17
605.96	102.98
606.12	58.51
606.27	147.45
606.43	9.36
606.58	44.47
606.74	119.37
606.89	0.00
607.05	72.56
607.20	56.17
607.36	79.58
607.51	44.47
607.67	95.96
607.82	74.90
607.98	100.64
608.13	28.09
608.29	35.11
608.44	58.51
608.60	51.49
608.75	30.43
608.91	28.09
609.06	102.98
609.22	53.83
609.37	70.22
609.53	91.28
609.68	67.88
609.84	67.88
609.99	70.22
610.15	58.51
610.30	63.19
610.46	138.09
610.61	79.58
610.76	98.30
610.92	39.79
611.07	70.22
611.23	121.71
611.38	53.83
611.54	95.96
611.69	46.81
611.84	74.90
612.00	49.15
612.15	121.71
612.31	126.39
612.46	128.73
612.62	74.90
612.77	35.11
612.92	77.24
613.08	93.62
613.23	112.35
613.39	100.64
613.54	79.58
613.69	0.00
613.85	86.60
614.00	63.19
614.15	133.41
614.31	7.02
614.46	102.98
614.62	56.17
614.77	77.24
614.92	79.58
615.08	124.05
615.23	112.35
615.38	88.94
615.54	98.30
615.69	131.07
615.84	25.75
616.00	95.96
616.15	67.88
616.30	114.69
616.46	88.94
616.61	39.79
616.76	63.19
616.92	133.41
617.07	72.56
617.22	98.30
617.37	86.60
617.53	112.35
617.68	67.88
617.83	58.51
617.99	107.66
618.14	128.73
618.29	18.72
618.45	25.75
618.60	88.94
618.75	65.54
618.90	0.00
619.06	28.09
619.21	79.58
619.36	86.60
619.51	49.15
619.67	95.96
619.82	44.47
619.97	21.06
620.12	0.00
620.28	39.79
620.43	93.62
620.58	65.54
620.73	28.09
620.89	44.47
621.04	32.77
621.19	117.03
621.34	9.36
621.49	81.92
621.65	93.62
621.80	30.43
621.95	117.03
622.10	102.98
622.25	30.43
622.41	133.41
622.56	42.13
622.71	58.51
622.86	81.92
623.01	77.24
623.16	72.56
623.32	72.56
623.47	67.88
623.62	65.54
623.77	84.26
623.92	81.92
624.07	72.56
624.23	42.13
624.38	37.45
624.53	0.00
624.68	58.51
624.83	105.32
624.98	53.83
625.13	30.43
625.29	60.85
625.44	39.79
625.59	100.64
625.74	86.60
625.89	91.28
626.04	39.79
626.19	79.58
626.34	35.11
626.49	60.85
626.65	37.45
626.80	44.47
626.95	114.69
627.10	88.94
627.25	18.72
627.40	86.60
627.55	79.58
627.70	30.43
627.85	21.06
628.00	124.05
628.15	14.04
628.30	0.00
628.45	63.19
628.60	32.77
628.76	28.09
628.91	72.56
629.06	63.19
629.21	67.88
629.36	0.00
629.51	37.45
629.66	84.26
629.81	0.00
629.96	32.77
630.11	16.38
630.26	105.32
630.41	60.85
630.56	119.37
630.71	35.11
630.86	119.37
631.01	16.38
631.16	51.49
631.31	32.77
631.46	102.98
631.61	42.13
631.76	51.49
631.91	28.09
632.06	84.26
632.21	30.43
632.36	126.39
632.51	84.26
632.66	39.79
632.81	58.51
632.96	56.17
633.10	63.19
633.25	42.13
633.40	58.51
633.55	39.79
633.70	51.49
633.85	88.94
634.00	25.75
634.15	46.81
634.30	95.96
634.45	124.05
634.60	91.28
634.75	42.13
634.90	46.81
635.05	117.03
635.19	98.30
635.34	91.28
635.49	18.72
635.64	65.54
635.79	84.26
635.94	88.94
636.09	0.00
636.24	51.49
636.39	37.45
636.53	58.51
636.68	131.07
636.83	44.47
636.98	74.90
637.13	72.56
637.28	91.28
637.43	60.85
637.57	42.13
637.72	60.85
637.87	42.13
638.02	84.26
638.17	49.15
638.32	72.56
638.46	0.00
638.61	30.43
638.76	46.81
638.91	14.04
639.06	93.62
639.20	67.88
639.35	63.19
639.50	28.09
639.65	0.00
639.80	126.39
639.94	138.09
640.09	72.56
640.24	58.51
640.39	79.58
640.54	95.96
640.68	25.75
640.83	28.09
640.98	56.17
641.13	79.58
641.27	30.43
641.42	14.04
641.57	30.43
641.72	42.13
641.86	135.75
642.01	65.54
642.16	79.58
642.31	60.85
642.45	39.79
642.60	65.54
642.75	93.62
642.90	39.79
643.04	70.22
643.19	23.41
643.34	65.54
643.48	86.60
643.63	74.90
643.78	88.94
643.93	18.72
644.07	28.09
644.22	37.45
644.37	39.79
644.51	49.15
644.66	63.19
644.81	42.13
644.95	39.79
645.10	63.19
645.25	95.96
645.39	63.19
645.54	107.66
645.69	42.13
645.83	93.62
645.98	56.17
646.13	124.05
646.27	58.51
646.42	30.43
646.57	63.19
646.71	91.28
646.86	119.37
647.00	49.15
647.15	77.24
647.30	32.77
647.44	100.64
647.59	60.85
647.74	58.51
647.88	11.70
648.03	58.51
648.17	46.81
648.32	44.47
648.47	23.41
648.61	23.41
648.76	0.00
648.90	60.85
649.05	112.35
649.20	0.00
649.34	30.43
649.49	7.02
649.63	84.26
649.78	114.69
649.92	67.88
650.07	70.22
650.21	67.88
650.36	58.51
650.51	18.72
650.65	72.56
650.80	28.09
650.94	86.60
651.09	23.41
651.23	142.77
651.38	14.04
651.52	60.85
651.67	23.41
651.81	121.71
651.96	0.00
652.10	37.45
652.25	18.72
652.39	100.64
652.54	84.26
652.68	35.11
652.83	93.62
652.97	35.11
653.12	93.62
653.26	46.81
653.41	9.36
653.55	28.09
653.70	100.64
653.84	58.51
653.99	79.58
654.13	0.00
654.27	4.68
654.42	9.36
654.56	0.00
654.71	37.45
654.85	18.72
655.00	100.64
655.14	0.00
655.29	77.24
655.43	21.06
655.57	133.41
655.72	53.83
655.86	114.69
656.01	79.58
656.15	100.64
656.30	46.81
656.44	124.05
656.58	58.51
656.73	28.09
656.87	91.28
657.01	91.28
657.16	23.41
657.30	11.70
657.45	0.00
657.59	28.09
657.73	0.00
657.88	0.00
658.02	18.72
658.16	63.19
658.31	72.56
658.45	25.75
658.60	117.03
658.74	74.90
658.88	77.24
659.03	18.72
659.17	110.01
659.31	93.62
659.46	58.51
659.60	112.35
659.74	16.38
659.89	77.24
660.03	0.00
660.17	49.15
660.32	35.11
660.46	0.00
660.60	4.68
660.74	81.92
660.89	72.56
661.03	67.88
661.17	77.24
661.32	74.90
661.46	9.36
661.60	102.98
661.74	39.79
661.89	60.85
662.03	88.94
662.17	79.58
662.31	32.77
662.46	0.00
662.60	28.09
662.74	77.24
662.88	105.32
663.03	2.34
663.17	21.06
663.31	72.56
663.45	53.83
663.60	0.00
663.74	81.92
663.88	30.43
664.02	91.28
664.17	121.71
664.31	102.98
664.45	86.60
664.59	46.81
664.73	51.49
664.88	16.38
665.02	100.64
665.16	25.75
665.30	114.69
665.44	65.54
665.59	42.13
665.73	72.56
665.87	30.43
666.01	60.85
666.15	88.94
666.29	0.00
666.44	65.54
666.58	35.11
666.72	56.17
666.86	16.38
667.00	46.81
667.14	65.54
667.28	0.00
667.43	98.30
667.57	42.13
667.71	117.03
667.85	53.83
667.99	0.00
668.13	98.30
668.27	0.00
668.41	14.04
668.56	18.72
668.70	4.68
668.84	2.34
668.98	18.72
669.12	44.47
669.26	0.00
669.40	58.51
669.54	16.38
669.68	18.72
669.82	25.75
669.96	114.69
670.10	25.75
670.25	58.51
670.39	30.43
670.53	42.13
670.67	70.22
670.81	63.19
670.95	18.72
671.09	98.30
671.23	56.17
671.37	121.71
671.51	63.19
671.65	70.22
671.79	53.83
671.93	25.75
672.07	88.94
672.21	35.11
672.35	60.85
672.49	0.00
672.63	0.00
672.77	37.45
672.91	65.54
673.05	42.13
673.19	16.38
673.33	21.06
673.47	60.85
673.61	9.36
673.75	58.51
673.89	51.49
674.03	65.54
674.17	11.70
674.31	53.83
674.45	56.17
674.59	107.66
674.73	44.47
674.87	0.00
675.01	51.49
675.15	0.00
675.29	46.81
675.43	30.43
675.56	25.75
675.70	102.98
675.84	14.04
675.98	11.70
676.12	42.13
676.26	114.69
676.40	0.00
676.54	98.30
676.68	4.68
676.82	28.09
676.96	44.47
677.10	56.17
677.23	0.00
677.37	81.92
677.51	51.49
677.65	107.66
677.79	32.77
677.93	23.41
678.07	16.38
678.21	42.13
678.34	9.36
678.48	7.02
678.62	46.81
678.76	28.09
678.90	2.34
679.04	4.68
679.18	79.58
679.31	4.68
679.45	60.85
679.59	32.77
679.73	70.22
679.87	37.45
680.00	72.56
680.14	7.02
680.28	79.58
680.42	4.68
680.56	0.00
680.70	58.51
680.83	46.81
680.97	39.79
681.11	18.72
681.25	88.94
681.39	0.00
681.52	32.77
681.66	51.49
681.80	117.03
681.94	0.00
682.07	58.51
682.21	23.41
682.35	124.05
682.49	14.04
682.62	18.72
682.76	112.35
682.90	30.43
683.04	35.11
683.17	117.03
683.31	18.72
683.45	18.72
683.59	9.36
683.72	56.17
683.86	0.00
684.00	95.96
684.13	53.83
684.27	56.17
684.41	0.00
684.55	79.58
684.68	0.00
684.82	56.17
684.96	0.00
685.09	7.02
685.23	105.32
685.37	74.90
685.50	135.75
685.64	0.00
685.78	51.49
685.91	4.68
686.05	14.04
686.19	0.00
686.32	0.00
686.46	32.77
686.60	46.81
686.73	56.17
686.87	86.60
687.01	35.11
687.14	51.49
687.28	30.43
687.42	28.09
687.55	23.41
687.69	112.35
687.82	11.70
687.96	53.83
688.10	79.58
688.23	0.00
688.37	18.72
688.50	23.41
688.64	70.22
688.78	35.11
688.91	79.58
689.05	84.26
689.18	81.92
689.32	0.00
689.46	56.17
689.59	23.41
689.73	23.41
689.86	2.34
690.00	93.62
690.13	9.36
690.27	0.00
690.41	44.47
690.54	84.26
690.68	95.96
690.81	49.15
690.95	0.00
691.08	70.22
691.22	65.54
691.35	14.04
691.49	14.04
691.62	79.58
691.76	65.54
691.89	65.54
692.03	21.06
692.16	0.00
692.30	23.41
692.43	0.00
692.57	37.45
692.70	58.51
692.84	25.75
692.97	70.22
693.11	46.81
693.24	39.79
693.38	28.09
693.51	21.06
693.65	39.79
693.78	37.45
693.92	0.00
694.05	0.00
694.19	28.09
694.32	72.56
694.45	0.00
694.59	28.09
694.72	18.72
694.86	25.75
694.99	32.77
695.13	0.00
695.26	58.51
695.39	74.90
695.53	11.70
695.66	49.15
695.80	0.00
695.93	37.45
696.07	88.94
696.20	35.11
696.33	81.92
696.47	23.41
696.60	0.00
696.73	21.06
696.87	42.13
697.00	42.13
697.14	119.37
697.27	91.28
697.40	32.77
697.54	72.56
697.67	35.11
697.80	114.69
697.94	14.04
698.07	28.09
698.21	65.54
698.34	44.47
698.47	0.00
698.61	56.17
698.74	11.70
698.87	74.90
699.01	32.77
699.14	72.56
699.27	32.77
699.40	105.32
699.54	74.90
699.67	0.00
699.80	93.62
699.94	67.88
700.07	42.13
700.20	0.00
700.34	30.43
700.47	88.94
700.60	14.04
700.73	114.69
700.87	81.92
701.00	60.85
701.13	63.19
701.26	42.13
701.40	35.11
701.53	2.34
701.66	11.70
701.79	0.00
701.93	42.13
702.06	21.06
702.19	23.41
702.32	74.90
702.46	53.83
702.59	42.13
702.72	112.35
702.85	88.94
702.99	51.49
703.12	14.04
703.25	58.51
703.38	37.45
703.51	0.00
703.65	37.45
703.78	53.83
703.91	63.19
704.04	21.06
704.17	117.03
704.31	0.00
704.44	28.09
704.57	18.72
704.70	93.62
704.83	91.28
704.96	35.11
705.10	4.68
705.23	0.00
>>>>>End Processed Spectral Data<<<<<
