SpectraSuite Data File
++++++++++++++++++++++++++++++++++++
Date: Fri Oct 04 12:13:25 GMT-05:00 2013
User: price-jones
Dark Spectrum Present: No
Reference Spectrum Present: No
Number of Sampled Component Spectra: 1
Spectrometers: USB2+H05261
Integration Time (usec): 10000 (USB2+H05261)
Spectra Averaged: 1 (USB2+H05261)
Boxcar Smoothing: 0 (USB2+H05261)
Correct for Electrical Dark: No (USB2+H05261)
Strobe/Lamp Enabled: No (USB2+H05261)
Correct for Detector Non-linearity: No (USB2+H05261)
Correct for Stray Light: No (USB2+H05261)
Number of Pixels in Processed Spectrum: 2048
>>>>>Begin Processed Spectral Data<<<<<
365.73	49.15
365.92	49.15
366.12	49.15
366.32	0.00
366.52	0.00
366.72	0.00
366.91	0.00
367.11	0.00
367.31	0.00
367.51	0.00
367.70	0.00
367.90	0.00
368.10	0.00
368.30	0.00
368.49	0.00
368.69	0.00
368.89	0.00
369.09	0.00
369.28	0.00
369.48	0.00
369.68	0.00
369.87	0.00
370.07	0.00
370.27	0.00
370.47	0.00
370.66	0.00
370.86	0.00
371.06	0.00
371.25	0.00
371.45	0.00
371.65	0.00
371.84	0.00
372.04	0.00
372.24	0.00
372.44	0.00
372.63	0.00
372.83	14.04
373.03	0.00
373.22	0.00
373.42	70.22
373.62	21.06
373.81	42.13
374.01	49.15
374.21	21.06
374.40	0.00
374.60	14.04
374.79	121.71
374.99	28.09
375.19	37.45
375.38	30.43
375.58	77.24
375.78	16.38
375.97	84.26
376.17	70.22
376.37	63.19
376.56	60.85
376.76	32.77
376.95	51.49
377.15	0.00
377.35	49.15
377.54	0.00
377.74	49.15
377.93	23.41
378.13	133.41
378.33	23.41
378.52	0.00
378.72	0.00
378.91	25.75
379.11	0.00
379.31	42.13
379.50	0.00
379.70	16.38
379.89	44.47
380.09	0.00
380.28	67.88
380.48	11.70
380.68	0.00
380.87	51.49
381.07	77.24
381.26	77.24
381.46	16.38
381.65	21.06
381.85	0.00
382.04	7.02
382.24	4.68
382.43	98.30
382.63	0.00
382.83	0.00
383.02	0.00
383.22	2.34
383.41	65.54
383.61	0.00
383.80	30.43
384.00	37.45
384.19	0.00
384.39	49.15
384.58	49.15
384.78	0.00
384.97	51.49
385.17	39.79
385.36	70.22
385.56	32.77
385.75	0.00
385.95	16.38
386.14	16.38
386.34	7.02
386.53	79.58
386.72	14.04
386.92	102.98
387.11	18.72
387.31	11.70
387.50	16.38
387.70	0.00
387.89	0.00
388.09	0.00
388.28	46.81
388.48	0.00
388.67	11.70
388.86	14.04
389.06	14.04
389.25	9.36
389.45	77.24
389.64	11.70
389.84	58.51
390.03	4.68
390.22	0.00
390.42	56.17
390.61	9.36
390.81	74.90
391.00	14.04
391.19	18.72
391.39	0.00
391.58	81.92
391.78	30.43
391.97	37.45
392.16	70.22
392.36	7.02
392.55	44.47
392.75	0.00
392.94	35.11
393.13	16.38
393.33	0.00
393.52	23.41
393.71	46.81
393.91	0.00
394.10	42.13
394.29	0.00
394.49	7.02
394.68	28.09
394.88	37.45
395.07	14.04
395.26	11.70
395.46	0.00
395.65	25.75
395.84	44.47
396.04	44.47
396.23	39.79
396.42	53.83
396.62	0.00
396.81	72.56
397.00	39.79
397.19	79.58
397.39	53.83
397.58	2.34
397.77	30.43
397.97	0.00
398.16	110.01
398.35	0.00
398.55	35.11
398.74	18.72
398.93	23.41
399.12	0.00
399.32	32.77
399.51	2.34
399.70	18.72
399.90	0.00
400.09	0.00
400.28	91.28
400.47	0.00
400.67	11.70
400.86	11.70
401.05	0.00
401.24	7.02
401.44	0.00
401.63	42.13
401.82	32.77
402.01	18.72
402.21	0.00
402.40	46.81
402.59	0.00
402.78	0.00
402.97	72.56
403.17	42.13
403.36	95.96
403.55	63.19
403.74	9.36
403.93	2.34
404.13	28.09
404.32	60.85
404.51	0.00
404.70	95.96
404.89	4.68
405.09	42.13
405.28	0.00
405.47	46.81
405.66	14.04
405.85	44.47
406.05	42.13
406.24	72.56
406.43	0.00
406.62	9.36
406.81	0.00
407.00	21.06
407.20	0.00
407.39	46.81
407.58	14.04
407.77	39.79
407.96	53.83
408.15	0.00
408.34	35.11
408.54	37.45
408.73	35.11
408.92	0.00
409.11	39.79
409.30	25.75
409.49	0.00
409.68	39.79
409.87	93.62
410.07	35.11
410.26	32.77
410.45	56.17
410.64	25.75
410.83	4.68
411.02	91.28
411.21	23.41
411.40	0.00
411.59	11.70
411.78	53.83
411.98	42.13
412.17	35.11
412.36	0.00
412.55	25.75
412.74	2.34
412.93	7.02
413.12	91.28
413.31	49.15
413.50	0.00
413.69	0.00
413.88	16.38
414.07	58.51
414.26	28.09
414.45	0.00
414.64	7.02
414.83	0.00
415.02	23.41
415.22	56.17
415.41	18.72
415.60	0.00
415.79	25.75
415.98	53.83
416.17	77.24
416.36	0.00
416.55	84.26
416.74	4.68
416.93	0.00
417.12	121.71
417.31	0.00
417.50	0.00
417.69	63.19
417.88	70.22
418.07	42.13
418.26	84.26
418.45	70.22
418.64	14.04
418.83	0.00
419.02	0.00
419.21	7.02
419.39	0.00
419.58	105.32
419.77	53.83
419.96	16.38
420.15	28.09
420.34	0.00
420.53	39.79
420.72	0.00
420.91	39.79
421.10	0.00
421.29	60.85
421.48	23.41
421.67	46.81
421.86	30.43
422.05	35.11
422.24	0.00
422.43	74.90
422.61	0.00
422.80	16.38
422.99	81.92
423.18	81.92
423.37	18.72
423.56	21.06
423.75	93.62
423.94	21.06
424.13	35.11
424.32	11.70
424.50	0.00
424.69	0.00
424.88	35.11
425.07	0.00
425.26	0.00
425.45	16.38
425.64	0.00
425.83	74.90
426.01	95.96
426.20	4.68
426.39	63.19
426.58	2.34
426.77	18.72
426.96	0.00
427.15	86.60
427.33	53.83
427.52	11.70
427.71	32.77
427.90	23.41
428.09	58.51
428.28	7.02
428.46	67.88
428.65	72.56
428.84	42.13
429.03	0.00
429.22	11.70
429.40	0.00
429.59	77.24
429.78	23.41
429.97	23.41
430.16	18.72
430.34	21.06
430.53	0.00
430.72	0.00
430.91	21.06
431.10	0.00
431.28	32.77
431.47	18.72
431.66	35.11
431.85	2.34
432.03	0.00
432.22	42.13
432.41	25.75
432.60	21.06
432.79	0.00
432.97	4.68
433.16	65.54
433.35	84.26
433.54	63.19
433.72	65.54
433.91	30.43
434.10	81.92
434.28	0.00
434.47	16.38
434.66	11.70
434.85	16.38
435.03	0.00
435.22	91.28
435.41	74.90
435.59	4.68
435.78	46.81
435.97	4.68
436.16	30.43
436.34	37.45
436.53	79.58
436.72	0.00
436.90	7.02
437.09	0.00
437.28	0.00
437.46	67.88
437.65	32.77
437.84	0.00
438.02	0.00
438.21	46.81
438.40	7.02
438.58	0.00
438.77	77.24
438.96	4.68
439.14	58.51
439.33	0.00
439.52	16.38
439.70	11.70
439.89	72.56
440.08	21.06
440.26	44.47
440.45	42.13
440.63	32.77
440.82	0.00
441.01	9.36
441.19	63.19
441.38	0.00
441.57	7.02
441.75	53.83
441.94	77.24
442.12	79.58
442.31	0.00
442.50	0.00
442.68	11.70
442.87	44.47
443.05	53.83
443.24	37.45
443.43	46.81
443.61	37.45
443.80	42.13
443.98	53.83
444.17	49.15
444.35	30.43
444.54	21.06
444.73	65.54
444.91	58.51
445.10	70.22
445.28	35.11
445.47	7.02
445.65	0.00
445.84	56.17
446.02	23.41
446.21	58.51
446.39	51.49
446.58	0.00
446.77	35.11
446.95	4.68
447.14	2.34
447.32	23.41
447.51	9.36
447.69	51.49
447.88	18.72
448.06	0.00
448.25	65.54
448.43	84.26
448.62	72.56
448.80	0.00
448.99	49.15
449.17	105.32
449.36	30.43
449.54	0.00
449.73	42.13
449.91	0.00
450.10	25.75
450.28	100.64
450.46	65.54
450.65	7.02
450.83	0.00
451.02	58.51
451.20	23.41
451.39	30.43
451.57	0.00
451.76	46.81
451.94	35.11
452.13	60.85
452.31	74.90
452.49	53.83
452.68	30.43
452.86	0.00
453.05	60.85
453.23	32.77
453.42	7.02
453.60	44.47
453.78	58.51
453.97	0.00
454.15	28.09
454.34	91.28
454.52	0.00
454.70	67.88
454.89	28.09
455.07	44.47
455.26	110.01
455.44	79.58
455.62	32.77
455.81	79.58
455.99	65.54
456.17	63.19
456.36	0.00
456.54	39.79
456.73	70.22
456.91	63.19
457.09	42.13
457.28	0.00
457.46	18.72
457.64	81.92
457.83	23.41
458.01	65.54
458.19	16.38
458.38	11.70
458.56	0.00
458.74	14.04
458.93	9.36
459.11	42.13
459.29	67.88
459.48	14.04
459.66	63.19
459.84	46.81
460.03	0.00
460.21	117.03
460.39	39.79
460.57	46.81
460.76	42.13
460.94	58.51
461.12	0.00
461.31	46.81
461.49	37.45
461.67	0.00
461.85	58.51
462.04	37.45
462.22	140.43
462.40	65.54
462.59	28.09
462.77	9.36
462.95	0.00
463.13	65.54
463.32	0.00
463.50	23.41
463.68	42.13
463.86	28.09
464.05	95.96
464.23	7.02
464.41	39.79
464.59	93.62
464.78	42.13
464.96	0.00
465.14	102.98
465.32	77.24
465.50	2.34
465.69	46.81
465.87	84.26
466.05	28.09
466.23	18.72
466.41	42.13
466.60	91.28
466.78	63.19
466.96	2.34
467.14	93.62
467.32	65.54
467.51	37.45
467.69	93.62
467.87	14.04
468.05	0.00
468.23	9.36
468.41	67.88
468.60	77.24
468.78	32.77
468.96	49.15
469.14	14.04
469.32	30.43
469.50	0.00
469.69	46.81
469.87	0.00
470.05	65.54
470.23	72.56
470.41	0.00
470.59	51.49
470.77	7.02
470.95	65.54
471.14	32.77
471.32	51.49
471.50	46.81
471.68	86.60
471.86	23.41
472.04	65.54
472.22	21.06
472.40	53.83
472.58	72.56
472.77	0.00
472.95	0.00
473.13	25.75
473.31	58.51
473.49	0.00
473.67	25.75
473.85	14.04
474.03	67.88
474.21	4.68
474.39	14.04
474.57	56.17
474.75	56.17
474.93	0.00
475.12	4.68
475.30	53.83
475.48	70.22
475.66	7.02
475.84	49.15
476.02	124.05
476.20	25.75
476.38	65.54
476.56	0.00
476.74	44.47
476.92	46.81
477.10	77.24
477.28	0.00
477.46	28.09
477.64	18.72
477.82	42.13
478.00	32.77
478.18	18.72
478.36	37.45
478.54	0.00
478.72	0.00
478.90	0.00
479.08	39.79
479.26	30.43
479.44	0.00
479.62	18.72
479.80	51.49
479.98	39.79
480.16	0.00
480.34	4.68
480.52	98.30
480.70	37.45
480.88	86.60
481.06	18.72
481.24	51.49
481.41	2.34
481.59	0.00
481.77	0.00
481.95	72.56
482.13	63.19
482.31	58.51
482.49	0.00
482.67	35.11
482.85	7.02
483.03	14.04
483.21	100.64
483.39	51.49
483.57	30.43
483.74	35.11
483.92	32.77
484.10	42.13
484.28	65.54
484.46	65.54
484.64	42.13
484.82	28.09
485.00	7.02
485.18	84.26
485.35	28.09
485.53	23.41
485.71	14.04
485.89	0.00
486.07	4.68
486.25	53.83
486.43	42.13
486.61	70.22
486.78	21.06
486.96	46.81
487.14	2.34
487.32	126.39
487.50	49.15
487.68	21.06
487.85	30.43
488.03	23.41
488.21	0.00
488.39	42.13
488.57	25.75
488.75	51.49
488.92	70.22
489.10	65.54
489.28	0.00
489.46	18.72
489.64	32.77
489.81	0.00
489.99	32.77
490.17	16.38
490.35	0.00
490.53	126.39
490.70	49.15
490.88	37.45
491.06	79.58
491.24	114.69
491.41	44.47
491.59	42.13
491.77	63.19
491.95	60.85
492.13	49.15
492.30	53.83
492.48	42.13
492.66	117.03
492.84	56.17
493.01	32.77
493.19	88.94
493.37	39.79
493.54	0.00
493.72	39.79
493.90	42.13
494.08	42.13
494.25	79.58
494.43	60.85
494.61	53.83
494.79	37.45
494.96	0.00
495.14	9.36
495.32	23.41
495.49	32.77
495.67	23.41
495.85	49.15
496.02	39.79
496.20	23.41
496.38	49.15
496.55	95.96
496.73	18.72
496.91	0.00
497.09	72.56
497.26	70.22
497.44	86.60
497.62	42.13
497.79	70.22
497.97	14.04
498.14	0.00
498.32	60.85
498.50	18.72
498.67	37.45
498.85	74.90
499.03	21.06
499.20	0.00
499.38	49.15
499.56	56.17
499.73	21.06
499.91	21.06
500.08	0.00
500.26	28.09
500.44	30.43
500.61	39.79
500.79	98.30
500.97	84.26
501.14	0.00
501.32	79.58
501.49	28.09
501.67	14.04
501.84	60.85
502.02	16.38
502.20	58.51
502.37	4.68
502.55	72.56
502.72	56.17
502.90	9.36
503.07	14.04
503.25	58.51
503.43	0.00
503.60	14.04
503.78	11.70
503.95	0.00
504.13	9.36
504.30	46.81
504.48	56.17
504.65	42.13
504.83	70.22
505.01	63.19
505.18	42.13
505.36	0.00
505.53	0.00
505.71	49.15
505.88	51.49
506.06	9.36
506.23	0.00
506.41	0.00
506.58	63.19
506.76	0.00
506.93	53.83
507.11	0.00
507.28	63.19
507.46	21.06
507.63	79.58
507.81	70.22
507.98	49.15
508.16	49.15
508.33	2.34
508.50	32.77
508.68	70.22
508.85	0.00
509.03	2.34
509.20	51.49
509.38	60.85
509.55	25.75
509.73	37.45
509.90	0.00
510.08	25.75
510.25	56.17
510.42	65.54
510.60	110.01
510.77	46.81
510.95	74.90
511.12	0.00
511.30	51.49
511.47	46.81
511.64	39.79
511.82	58.51
511.99	51.49
512.17	49.15
512.34	30.43
512.51	60.85
512.69	23.41
512.86	84.26
513.04	28.09
513.21	53.83
513.38	79.58
513.56	7.02
513.73	32.77
513.90	30.43
514.08	28.09
514.25	56.17
514.43	53.83
514.60	28.09
514.77	100.64
514.95	70.22
515.12	18.72
515.29	35.11
515.47	0.00
515.64	44.47
515.81	7.02
515.99	21.06
516.16	81.92
516.33	42.13
516.51	37.45
516.68	0.00
516.85	58.51
517.03	0.00
517.20	91.28
517.37	35.11
517.54	0.00
517.72	39.79
517.89	0.00
518.06	51.49
518.24	56.17
518.41	0.00
518.58	37.45
518.75	63.19
518.93	100.64
519.10	105.32
519.27	65.54
519.45	28.09
519.62	49.15
519.79	21.06
519.96	35.11
520.14	0.00
520.31	0.00
520.48	86.60
520.65	39.79
520.83	32.77
521.00	67.88
521.17	37.45
521.34	95.96
521.52	56.17
521.69	16.38
521.86	102.98
522.03	88.94
522.20	70.22
522.38	60.85
522.55	0.00
522.72	39.79
522.89	30.43
523.07	72.56
523.24	81.92
523.41	35.11
523.58	49.15
523.75	74.90
523.92	93.62
524.10	23.41
524.27	81.92
524.44	72.56
524.61	35.11
524.78	0.00
524.96	70.22
525.13	14.04
525.30	58.51
525.47	42.13
525.64	37.45
525.81	16.38
525.98	0.00
526.16	21.06
526.33	74.90
526.50	42.13
526.67	32.77
526.84	121.71
527.01	58.51
527.18	42.13
527.36	30.43
527.53	44.47
527.70	77.24
527.87	74.90
528.04	4.68
528.21	51.49
528.38	56.17
528.55	81.92
528.72	28.09
528.89	86.60
529.07	0.00
529.24	23.41
529.41	0.00
529.58	0.00
529.75	37.45
529.92	91.28
530.09	25.75
530.26	74.90
530.43	77.24
530.60	105.32
530.77	44.47
530.94	100.64
531.11	58.51
531.28	2.34
531.46	0.00
531.63	46.81
531.80	65.54
531.97	37.45
532.14	0.00
532.31	0.00
532.48	51.49
532.65	74.90
532.82	60.85
532.99	28.09
533.16	42.13
533.33	53.83
533.50	44.47
533.67	16.38
533.84	72.56
534.01	84.26
534.18	42.13
534.35	30.43
534.52	58.51
534.69	117.03
534.86	0.00
535.03	53.83
535.20	25.75
535.37	42.13
535.54	51.49
535.71	51.49
535.88	44.47
536.05	23.41
536.22	46.81
536.38	67.88
536.55	0.00
536.72	37.45
536.89	86.60
537.06	93.62
537.23	79.58
537.40	81.92
537.57	37.45
537.74	0.00
537.91	37.45
538.08	16.38
538.25	30.43
538.42	65.54
538.59	4.68
538.75	0.00
538.92	44.47
539.09	32.77
539.26	16.38
539.43	28.09
539.60	70.22
539.77	4.68
539.94	88.94
540.11	0.00
540.28	0.00
540.44	4.68
540.61	42.13
540.78	51.49
540.95	44.47
541.12	0.00
541.29	14.04
541.46	0.00
541.62	102.98
541.79	32.77
541.96	49.15
542.13	25.75
542.30	51.49
542.47	58.51
542.63	81.92
542.80	142.77
542.97	11.70
543.14	53.83
543.31	0.00
543.48	28.09
543.64	63.19
543.81	30.43
543.98	0.00
544.15	77.24
544.32	105.32
544.48	51.49
544.65	42.13
544.82	21.06
544.99	0.00
545.16	0.00
545.32	60.85
545.49	63.19
545.66	84.26
545.83	51.49
546.00	32.77
546.16	74.90
546.33	42.13
546.50	0.00
546.67	49.15
546.83	70.22
547.00	21.06
547.17	84.26
547.34	79.58
547.50	79.58
547.67	2.34
547.84	18.72
548.00	0.00
548.17	81.92
548.34	0.00
548.51	0.00
548.67	93.62
548.84	51.49
549.01	65.54
549.18	0.00
549.34	56.17
549.51	81.92
549.68	14.04
549.84	42.13
550.01	0.00
550.18	117.03
550.34	25.75
550.51	25.75
550.68	0.00
550.84	58.51
551.01	53.83
551.18	46.81
551.34	16.38
551.51	21.06
551.68	28.09
551.84	91.28
552.01	32.77
552.18	0.00
552.34	18.72
552.51	0.00
552.68	58.51
552.84	16.38
553.01	21.06
553.18	28.09
553.34	67.88
553.51	0.00
553.67	32.77
553.84	51.49
554.01	51.49
554.17	65.54
554.34	0.00
554.51	25.75
554.67	105.32
554.84	100.64
555.00	0.00
555.17	0.00
555.33	35.11
555.50	0.00
555.67	0.00
555.83	0.00
556.00	51.49
556.16	70.22
556.33	28.09
556.50	102.98
556.66	0.00
556.83	49.15
556.99	32.77
557.16	16.38
557.32	63.19
557.49	0.00
557.65	53.83
557.82	98.30
557.98	0.00
558.15	58.51
558.32	79.58
558.48	0.00
558.65	81.92
558.81	35.11
558.98	60.85
559.14	9.36
559.31	81.92
559.47	18.72
559.64	23.41
559.80	53.83
559.97	0.00
560.13	51.49
560.30	53.83
560.46	53.83
560.63	46.81
560.79	91.28
560.96	23.41
561.12	60.85
561.29	53.83
561.45	23.41
561.61	2.34
561.78	98.30
561.94	91.28
562.11	0.00
562.27	56.17
562.44	18.72
562.60	0.00
562.77	28.09
562.93	53.83
563.10	70.22
563.26	21.06
563.42	0.00
563.59	37.45
563.75	0.00
563.92	0.00
564.08	51.49
564.24	0.00
564.41	0.00
564.57	0.00
564.74	77.24
564.90	16.38
565.07	0.00
565.23	7.02
565.39	39.79
565.56	7.02
565.72	9.36
565.88	100.64
566.05	42.13
566.21	60.85
566.38	37.45
566.54	23.41
566.70	39.79
566.87	42.13
567.03	32.77
567.19	67.88
567.36	60.85
567.52	11.70
567.68	0.00
567.85	11.70
568.01	21.06
568.17	16.38
568.34	30.43
568.50	23.41
568.66	72.56
568.83	39.79
568.99	70.22
569.15	72.56
569.32	0.00
569.48	16.38
569.64	0.00
569.81	28.09
569.97	30.43
570.13	28.09
570.30	102.98
570.46	23.41
570.62	23.41
570.78	63.19
570.95	44.47
571.11	72.56
571.27	23.41
571.43	84.26
571.60	7.02
571.76	18.72
571.92	42.13
572.09	65.54
572.25	79.58
572.41	67.88
572.57	39.79
572.74	32.77
572.90	7.02
573.06	0.00
573.22	100.64
573.38	77.24
573.55	74.90
573.71	7.02
573.87	11.70
574.03	0.00
574.20	4.68
574.36	16.38
574.52	0.00
574.68	4.68
574.84	79.58
575.01	42.13
575.17	49.15
575.33	0.00
575.49	79.58
575.65	49.15
575.82	56.17
575.98	79.58
576.14	18.72
576.30	67.88
576.46	32.77
576.62	42.13
576.79	84.26
576.95	32.77
577.11	0.00
577.27	21.06
577.43	2.34
577.59	51.49
577.75	44.47
577.92	16.38
578.08	0.00
578.24	7.02
578.40	98.30
578.56	77.24
578.72	53.83
578.88	42.13
579.04	14.04
579.21	98.30
579.37	72.56
579.53	42.13
579.69	65.54
579.85	0.00
580.01	44.47
580.17	77.24
580.33	98.30
580.49	42.13
580.65	42.13
580.82	72.56
580.98	0.00
581.14	0.00
581.30	77.24
581.46	53.83
581.62	88.94
581.78	28.09
581.94	0.00
582.10	0.00
582.26	58.51
582.42	0.00
582.58	28.09
582.74	84.26
582.90	0.00
583.06	0.00
583.22	23.41
583.38	56.17
583.54	9.36
583.70	39.79
583.86	14.04
584.02	49.15
584.18	67.88
584.34	30.43
584.50	140.43
584.66	468.11
584.82	936.21
584.98	1376.24
585.14	1179.63
585.30	800.46
585.46	451.72
585.62	330.02
585.78	121.71
585.94	117.03
586.10	58.51
586.26	60.85
586.42	133.41
586.58	42.13
586.74	28.09
586.90	81.92
587.06	4.68
587.22	51.49
587.38	114.69
587.54	65.54
587.70	65.54
587.86	98.30
588.02	81.92
588.18	131.07
588.34	119.37
588.49	46.81
588.65	112.35
588.81	88.94
588.97	4.68
589.13	35.11
589.29	114.69
589.45	21.06
589.61	86.60
589.77	49.15
589.93	58.51
590.08	7.02
590.24	9.36
590.40	49.15
590.56	58.51
590.72	21.06
590.88	0.00
591.04	21.06
591.20	49.15
591.35	91.28
591.51	42.13
591.67	126.39
591.83	44.47
591.99	9.36
592.15	117.03
592.31	72.56
592.46	51.49
592.62	21.06
592.78	9.36
592.94	21.06
593.10	21.06
593.26	58.51
593.41	60.85
593.57	37.45
593.73	42.13
593.89	49.15
594.05	203.63
594.20	173.20
594.36	163.84
594.52	114.69
594.68	81.92
594.84	60.85
594.99	0.00
595.15	7.02
595.31	117.03
595.47	72.56
595.62	23.41
595.78	0.00
595.94	0.00
596.10	28.09
596.25	51.49
596.41	58.51
596.57	44.47
596.73	2.34
596.88	0.00
597.04	72.56
597.20	128.73
597.36	49.15
597.51	32.77
597.67	84.26
597.83	14.04
597.99	72.56
598.14	9.36
598.30	58.51
598.46	0.00
598.61	9.36
598.77	7.02
598.93	51.49
599.09	93.62
599.24	25.75
599.40	100.64
599.56	32.77
599.71	39.79
599.87	23.41
600.03	14.04
600.18	72.56
600.34	60.85
600.50	7.02
600.65	65.54
600.81	51.49
600.97	88.94
601.12	28.09
601.28	28.09
601.44	18.72
601.59	0.00
601.75	51.49
601.91	32.77
602.06	77.24
602.22	0.00
602.37	37.45
602.53	28.09
602.69	102.98
602.84	21.06
603.00	63.19
603.16	23.41
603.31	28.09
603.47	58.51
603.62	81.92
603.78	77.24
603.94	21.06
604.09	81.92
604.25	28.09
604.40	0.00
604.56	72.56
604.71	9.36
604.87	7.02
605.03	0.00
605.18	7.02
605.34	117.03
605.49	14.04
605.65	39.79
605.80	37.45
605.96	65.54
606.12	16.38
606.27	16.38
606.43	37.45
606.58	0.00
606.74	51.49
606.89	121.71
607.05	262.14
607.20	105.32
607.36	187.24
607.51	110.01
607.67	159.16
607.82	124.05
607.98	102.98
608.13	91.28
608.29	49.15
608.44	51.49
608.60	32.77
608.75	95.96
608.91	53.83
609.06	166.18
609.22	252.78
609.37	201.29
609.53	327.68
609.68	194.26
609.84	124.05
609.99	112.35
610.15	114.69
610.30	39.79
610.46	65.54
610.61	11.70
610.76	58.51
610.92	0.00
611.07	30.43
611.23	35.11
611.38	100.64
611.54	4.68
611.69	4.68
611.84	7.02
612.00	51.49
612.15	88.94
612.31	81.92
612.46	32.77
612.62	11.70
612.77	86.60
612.92	98.30
613.08	0.00
613.23	63.19
613.39	35.11
613.54	44.47
613.69	110.01
613.85	297.25
614.00	416.62
614.15	390.87
614.31	348.74
614.46	236.39
614.62	163.84
614.77	154.48
614.92	51.49
615.08	23.41
615.23	126.39
615.38	0.00
615.54	25.75
615.69	0.00
615.84	79.58
616.00	154.48
616.15	117.03
616.30	91.28
616.46	102.98
616.61	86.60
616.76	30.43
616.92	39.79
617.07	37.45
617.22	39.79
617.37	18.72
617.53	18.72
617.68	23.41
617.83	9.36
617.99	0.00
618.14	51.49
618.29	0.00
618.45	7.02
618.60	42.13
618.75	37.45
618.90	72.56
619.06	65.54
619.21	21.06
619.36	72.56
619.51	84.26
619.67	51.49
619.82	42.13
619.97	42.13
620.12	46.81
620.28	100.64
620.43	30.43
620.58	114.69
620.73	23.41
620.89	0.00
621.04	18.72
621.19	49.15
621.34	145.11
621.49	112.35
621.65	112.35
621.80	39.79
621.95	86.60
622.10	105.32
622.25	14.04
622.41	135.75
622.56	81.92
622.71	35.11
622.86	81.92
623.01	7.02
623.16	28.09
623.32	30.43
623.47	28.09
623.62	14.04
623.77	39.79
623.92	53.83
624.07	63.19
624.23	39.79
624.38	18.72
624.53	18.72
624.68	51.49
624.83	63.19
624.98	4.68
625.13	11.70
625.29	30.43
625.44	23.41
625.59	35.11
625.74	93.62
625.89	72.56
626.04	102.98
626.19	91.28
626.34	224.69
626.49	203.63
626.65	156.82
626.80	70.22
626.95	102.98
627.10	65.54
627.25	65.54
627.40	79.58
627.55	37.45
627.70	0.00
627.85	67.88
628.00	0.00
628.15	0.00
628.30	0.00
628.45	0.00
628.60	4.68
628.76	39.79
628.91	51.49
629.06	7.02
629.21	93.62
629.36	16.38
629.51	46.81
629.66	37.45
629.81	32.77
629.96	39.79
630.11	154.48
630.26	154.48
630.41	81.92
630.56	35.11
630.71	65.54
630.86	46.81
631.01	32.77
631.16	84.26
631.31	65.54
631.46	4.68
631.61	67.88
631.76	53.83
631.91	0.00
632.06	37.45
632.21	119.37
632.36	16.38
632.51	25.75
632.66	0.00
632.81	28.09
632.96	142.77
633.10	161.50
633.25	173.20
633.40	173.20
633.55	124.05
633.70	112.35
633.85	79.58
634.00	30.43
634.15	0.00
634.30	72.56
634.45	91.28
634.60	4.68
634.75	102.98
634.90	0.00
635.05	11.70
635.19	63.19
635.34	11.70
635.49	70.22
635.64	16.38
635.79	16.38
635.94	60.85
636.09	25.75
636.24	67.88
636.39	65.54
636.53	67.88
636.68	58.51
636.83	37.45
636.98	0.00
637.13	60.85
637.28	11.70
637.43	88.94
637.57	46.81
637.72	105.32
637.87	198.95
638.02	264.48
638.17	241.08
638.32	191.92
638.46	152.13
638.61	84.26
638.76	88.94
638.91	46.81
639.06	0.00
639.20	39.79
639.35	0.00
639.50	74.90
639.65	184.90
639.80	269.16
639.94	393.21
640.09	404.91
640.24	411.93
640.39	203.63
640.54	191.92
640.68	131.07
640.83	86.60
640.98	0.00
641.13	0.00
641.27	0.00
641.42	100.64
641.57	18.72
641.72	30.43
641.86	39.79
642.01	42.13
642.16	23.41
642.31	65.54
642.45	0.00
642.60	37.45
642.75	119.37
642.90	7.02
643.04	0.00
643.19	30.43
643.34	42.13
643.48	70.22
643.63	79.58
643.78	14.04
643.93	30.43
644.07	39.79
644.22	0.00
644.37	0.00
644.51	112.35
644.66	23.41
644.81	60.85
644.95	56.17
645.10	16.38
645.25	25.75
645.39	0.00
645.54	25.75
645.69	28.09
645.83	44.47
645.98	28.09
646.13	70.22
646.27	86.60
646.42	28.09
646.57	0.00
646.71	39.79
646.86	72.56
647.00	39.79
647.15	86.60
647.30	56.17
647.44	56.17
647.59	30.43
647.74	35.11
647.88	86.60
648.03	0.00
648.17	25.75
648.32	39.79
648.47	0.00
648.61	30.43
648.76	56.17
648.90	74.90
649.05	9.36
649.20	0.00
649.34	0.00
649.49	21.06
649.63	42.13
649.78	0.00
649.92	11.70
650.07	88.94
650.21	154.48
650.36	229.37
650.51	344.06
650.65	241.08
650.80	182.56
650.94	95.96
651.09	84.26
651.23	53.83
651.38	32.77
651.52	0.00
651.67	7.02
651.81	21.06
651.96	46.81
652.10	49.15
652.25	58.51
652.39	0.00
652.54	72.56
652.68	65.54
652.83	46.81
652.97	63.19
653.12	142.77
653.26	182.56
653.41	133.41
653.55	121.71
653.70	74.90
653.84	79.58
653.99	86.60
654.13	44.47
654.27	25.75
654.42	79.58
654.56	42.13
654.71	74.90
654.85	18.72
655.00	0.00
655.14	42.13
655.29	74.90
655.43	91.28
655.57	49.15
655.72	14.04
655.86	25.75
656.01	9.36
656.15	28.09
656.30	49.15
656.44	51.49
656.58	25.75
656.73	37.45
656.87	46.81
657.01	56.17
657.16	138.09
657.30	32.77
657.45	60.85
657.59	117.03
657.73	16.38
657.88	84.26
658.02	25.75
658.16	25.75
658.31	4.68
658.45	35.11
658.60	53.83
658.74	0.00
658.88	0.00
659.03	46.81
659.17	0.00
659.31	25.75
659.46	149.79
659.60	100.64
659.74	107.66
659.89	110.01
660.03	74.90
660.17	88.94
660.32	23.41
660.46	53.83
660.60	91.28
660.74	0.00
660.89	0.00
661.03	58.51
661.17	0.00
661.32	42.13
661.46	65.54
661.60	25.75
661.74	32.77
661.89	18.72
662.03	0.00
662.17	0.00
662.31	37.45
662.46	37.45
662.60	25.75
662.74	0.00
662.88	21.06
663.03	56.17
663.17	58.51
663.31	32.77
663.45	63.19
663.60	60.85
663.74	16.38
663.88	2.34
664.02	74.90
664.17	9.36
664.31	0.00
664.45	4.68
664.59	0.00
664.73	65.54
664.88	102.98
665.02	0.00
665.16	4.68
665.30	0.00
665.44	0.00
665.59	65.54
665.73	0.00
665.87	46.81
666.01	0.00
666.15	46.81
666.29	58.51
666.44	37.45
666.58	0.00
666.72	58.51
666.86	70.22
667.00	81.92
667.14	79.58
667.28	81.92
667.43	114.69
667.57	177.88
667.71	245.76
667.85	227.03
667.99	161.50
668.13	133.41
668.27	91.28
668.41	25.75
668.56	35.11
668.70	32.77
668.84	0.00
668.98	81.92
669.12	0.00
669.26	100.64
669.40	32.77
669.54	14.04
669.68	0.00
669.82	35.11
669.96	0.00
670.10	91.28
670.25	74.90
670.39	0.00
670.53	39.79
670.67	16.38
670.81	0.00
670.95	35.11
671.09	0.00
671.23	39.79
671.37	86.60
671.51	110.01
671.65	149.79
671.79	156.82
671.93	44.47
672.07	11.70
672.21	79.58
672.35	0.00
672.49	60.85
672.63	30.43
672.77	49.15
672.91	58.51
673.05	0.00
673.19	93.62
673.33	67.88
673.47	0.00
673.61	0.00
673.75	46.81
673.89	23.41
674.03	23.41
674.17	0.00
674.31	42.13
674.45	44.47
674.59	70.22
674.73	60.85
674.87	23.41
675.01	58.51
675.15	42.13
675.29	0.00
675.43	147.45
675.56	72.56
675.70	67.88
675.84	0.00
675.98	81.92
676.12	46.81
676.26	25.75
676.40	35.11
676.54	0.00
676.68	42.13
676.82	86.60
676.96	58.51
677.10	0.00
677.23	0.00
677.37	119.37
677.51	37.45
677.65	79.58
677.79	0.00
677.93	58.51
678.07	0.00
678.21	0.00
678.34	28.09
678.48	2.34
678.62	18.72
678.76	0.00
678.90	32.77
679.04	56.17
679.18	0.00
679.31	46.81
679.45	72.56
679.59	16.38
679.73	0.00
679.87	79.58
680.00	0.00
680.14	32.77
680.28	21.06
680.42	0.00
680.56	0.00
680.70	0.00
680.83	56.17
680.97	49.15
681.11	46.81
681.25	49.15
681.39	53.83
681.52	4.68
681.66	0.00
681.80	49.15
681.94	74.90
682.07	53.83
682.21	51.49
682.35	14.04
682.49	39.79
682.62	53.83
682.76	0.00
682.90	49.15
683.04	0.00
683.17	21.06
683.31	88.94
683.45	46.81
683.59	81.92
683.72	65.54
683.86	56.17
684.00	86.60
684.13	7.02
684.27	32.77
684.41	0.00
684.55	0.00
684.68	44.47
684.82	4.68
684.96	23.41
685.09	49.15
685.23	46.81
685.37	0.00
685.50	23.41
685.64	112.35
685.78	0.00
685.91	46.81
686.05	46.81
686.19	53.83
686.32	67.88
686.46	30.43
686.60	35.11
686.73	88.94
686.87	60.85
687.01	11.70
687.14	0.00
687.28	18.72
687.42	25.75
687.55	91.28
687.69	79.58
687.82	93.62
687.96	44.47
688.10	18.72
688.23	53.83
688.37	53.83
688.50	65.54
688.64	0.00
688.78	70.22
688.91	16.38
689.05	42.13
689.18	53.83
689.32	7.02
689.46	70.22
689.59	65.54
689.73	60.85
689.86	0.00
690.00	65.54
690.13	56.17
690.27	86.60
690.41	0.00
690.54	0.00
690.68	0.00
690.81	0.00
690.95	21.06
691.08	16.38
691.22	2.34
691.35	0.00
691.49	39.79
691.62	9.36
691.76	0.00
691.89	0.00
692.03	74.90
692.16	25.75
692.30	32.77
692.43	56.17
692.57	135.75
692.70	74.90
692.84	126.39
692.97	138.09
693.11	44.47
693.24	53.83
693.38	65.54
693.51	95.96
693.65	46.81
693.78	100.64
693.92	0.00
694.05	32.77
694.19	0.00
694.32	0.00
694.45	0.00
694.59	0.00
694.72	170.86
694.86	114.69
694.99	7.02
695.13	49.15
695.26	25.75
695.39	0.00
695.53	102.98
695.66	0.00
695.80	0.00
695.93	0.00
696.07	112.35
696.20	77.24
696.33	0.00
696.47	11.70
696.60	0.00
696.73	88.94
696.87	44.47
697.00	142.77
697.14	23.41
697.27	28.09
697.40	23.41
697.54	0.00
697.67	0.00
697.80	0.00
697.94	77.24
698.07	0.00
698.21	28.09
698.34	23.41
698.47	79.58
698.61	0.00
698.74	72.56
698.87	0.00
699.01	7.02
699.14	49.15
699.27	0.00
699.40	70.22
699.54	9.36
699.67	63.19
699.80	72.56
699.94	58.51
700.07	16.38
700.20	23.41
700.34	60.85
700.47	0.00
700.60	21.06
700.73	70.22
700.87	25.75
701.00	18.72
701.13	0.00
701.26	28.09
701.40	58.51
701.53	16.38
701.66	4.68
701.79	0.00
701.93	7.02
702.06	21.06
702.19	0.00
702.32	0.00
702.46	30.43
702.59	72.56
702.72	77.24
702.85	81.92
702.99	114.69
703.12	262.14
703.25	156.82
703.38	112.35
703.51	126.39
703.65	135.75
703.78	21.06
703.91	14.04
704.04	74.90
704.17	16.38
704.31	72.56
704.44	0.00
704.57	58.51
704.70	18.72
704.83	86.60
704.96	0.00
705.10	0.00
705.23	124.05
>>>>>End Processed Spectral Data<<<<<
