SpectraSuite Data File
++++++++++++++++++++++++++++++++++++
Date: Fri Oct 04 12:13:29 GMT-05:00 2013
User: price-jones
Dark Spectrum Present: No
Reference Spectrum Present: No
Number of Sampled Component Spectra: 1
Spectrometers: USB2+H05261
Integration Time (usec): 10000 (USB2+H05261)
Spectra Averaged: 1 (USB2+H05261)
Boxcar Smoothing: 0 (USB2+H05261)
Correct for Electrical Dark: No (USB2+H05261)
Strobe/Lamp Enabled: No (USB2+H05261)
Correct for Detector Non-linearity: No (USB2+H05261)
Correct for Stray Light: No (USB2+H05261)
Number of Pixels in Processed Spectrum: 2048
>>>>>Begin Processed Spectral Data<<<<<
365.73	9.36
365.92	9.36
366.12	9.36
366.32	0.00
366.52	0.00
366.72	0.00
366.91	0.00
367.11	0.00
367.31	0.00
367.51	0.00
367.70	0.00
367.90	0.00
368.10	0.00
368.30	0.00
368.49	0.00
368.69	0.00
368.89	0.00
369.09	0.00
369.28	0.00
369.48	0.00
369.68	0.00
369.87	0.00
370.07	0.00
370.27	0.00
370.47	0.00
370.66	0.00
370.86	21.06
371.06	0.00
371.25	0.00
371.45	0.00
371.65	21.06
371.84	0.00
372.04	0.00
372.24	7.02
372.44	39.79
372.63	53.83
372.83	0.00
373.03	0.00
373.22	16.38
373.42	0.00
373.62	42.13
373.81	0.00
374.01	37.45
374.21	63.19
374.40	11.70
374.60	79.58
374.79	35.11
374.99	28.09
375.19	21.06
375.38	35.11
375.58	0.00
375.78	0.00
375.97	42.13
376.17	51.49
376.37	23.41
376.56	53.83
376.76	74.90
376.95	32.77
377.15	117.03
377.35	14.04
377.54	16.38
377.74	0.00
377.93	7.02
378.13	60.85
378.33	60.85
378.52	35.11
378.72	44.47
378.91	51.49
379.11	9.36
379.31	28.09
379.50	28.09
379.70	28.09
379.89	65.54
380.09	14.04
380.28	0.00
380.48	0.00
380.68	7.02
380.87	30.43
381.07	0.00
381.26	0.00
381.46	25.75
381.65	60.85
381.85	11.70
382.04	0.00
382.24	60.85
382.43	0.00
382.63	2.34
382.83	23.41
383.02	16.38
383.22	28.09
383.41	28.09
383.61	60.85
383.80	23.41
384.00	14.04
384.19	2.34
384.39	28.09
384.58	0.00
384.78	23.41
384.97	0.00
385.17	4.68
385.36	37.45
385.56	42.13
385.75	74.90
385.95	0.00
386.14	28.09
386.34	84.26
386.53	0.00
386.72	21.06
386.92	18.72
387.11	9.36
387.31	7.02
387.50	11.70
387.70	0.00
387.89	0.00
388.09	0.00
388.28	32.77
388.48	0.00
388.67	0.00
388.86	0.00
389.06	35.11
389.25	23.41
389.45	49.15
389.64	9.36
389.84	0.00
390.03	30.43
390.22	112.35
390.42	49.15
390.61	0.00
390.81	39.79
391.00	9.36
391.19	81.92
391.39	16.38
391.58	0.00
391.78	0.00
391.97	21.06
392.16	25.75
392.36	0.00
392.55	11.70
392.75	79.58
392.94	9.36
393.13	42.13
393.33	23.41
393.52	0.00
393.71	67.88
393.91	0.00
394.10	25.75
394.29	58.51
394.49	14.04
394.68	21.06
394.88	86.60
395.07	35.11
395.26	44.47
395.46	0.00
395.65	0.00
395.84	14.04
396.04	0.00
396.23	0.00
396.42	0.00
396.62	0.00
396.81	39.79
397.00	74.90
397.19	2.34
397.39	60.85
397.58	37.45
397.77	0.00
397.97	98.30
398.16	0.00
398.35	4.68
398.55	0.00
398.74	0.00
398.93	81.92
399.12	46.81
399.32	0.00
399.51	60.85
399.70	9.36
399.90	0.00
400.09	44.47
400.28	56.17
400.47	18.72
400.67	88.94
400.86	30.43
401.05	51.49
401.24	0.00
401.44	0.00
401.63	0.00
401.82	0.00
402.01	0.00
402.21	42.13
402.40	42.13
402.59	0.00
402.78	58.51
402.97	14.04
403.17	25.75
403.36	18.72
403.55	35.11
403.74	16.38
403.93	37.45
404.13	28.09
404.32	39.79
404.51	65.54
404.70	79.58
404.89	16.38
405.09	58.51
405.28	2.34
405.47	0.00
405.66	32.77
405.85	14.04
406.05	23.41
406.24	4.68
406.43	58.51
406.62	44.47
406.81	60.85
407.00	21.06
407.20	112.35
407.39	28.09
407.58	72.56
407.77	46.81
407.96	0.00
408.15	18.72
408.34	28.09
408.54	7.02
408.73	28.09
408.92	14.04
409.11	63.19
409.30	53.83
409.49	53.83
409.68	14.04
409.87	16.38
410.07	2.34
410.26	18.72
410.45	32.77
410.64	16.38
410.83	79.58
411.02	30.43
411.21	39.79
411.40	0.00
411.59	35.11
411.78	23.41
411.98	4.68
412.17	86.60
412.36	25.75
412.55	84.26
412.74	44.47
412.93	30.43
413.12	0.00
413.31	18.72
413.50	0.00
413.69	0.00
413.88	30.43
414.07	53.83
414.26	21.06
414.45	7.02
414.64	0.00
414.83	35.11
415.02	0.00
415.22	0.00
415.41	23.41
415.60	0.00
415.79	0.00
415.98	28.09
416.17	86.60
416.36	70.22
416.55	0.00
416.74	35.11
416.93	37.45
417.12	0.00
417.31	2.34
417.50	46.81
417.69	46.81
417.88	44.47
418.07	0.00
418.26	44.47
418.45	28.09
418.64	56.17
418.83	56.17
419.02	37.45
419.21	35.11
419.39	60.85
419.58	0.00
419.77	53.83
419.96	93.62
420.15	0.00
420.34	25.75
420.53	42.13
420.72	0.00
420.91	30.43
421.10	23.41
421.29	0.00
421.48	0.00
421.67	79.58
421.86	49.15
422.05	60.85
422.24	18.72
422.43	21.06
422.61	23.41
422.80	2.34
422.99	0.00
423.18	0.00
423.37	0.00
423.56	23.41
423.75	16.38
423.94	0.00
424.13	14.04
424.32	0.00
424.50	0.00
424.69	0.00
424.88	14.04
425.07	49.15
425.26	51.49
425.45	44.47
425.64	0.00
425.83	0.00
426.01	67.88
426.20	4.68
426.39	53.83
426.58	53.83
426.77	4.68
426.96	56.17
427.15	30.43
427.33	65.54
427.52	9.36
427.71	49.15
427.90	4.68
428.09	0.00
428.28	77.24
428.46	0.00
428.65	4.68
428.84	11.70
429.03	0.00
429.22	56.17
429.40	46.81
429.59	0.00
429.78	30.43
429.97	65.54
430.16	37.45
430.34	0.00
430.53	49.15
430.72	0.00
430.91	67.88
431.10	18.72
431.28	11.70
431.47	58.51
431.66	35.11
431.85	60.85
432.03	23.41
432.22	32.77
432.41	18.72
432.60	0.00
432.79	44.47
432.97	32.77
433.16	7.02
433.35	138.09
433.54	28.09
433.72	86.60
433.91	9.36
434.10	25.75
434.28	25.75
434.47	0.00
434.66	32.77
434.85	0.00
435.03	0.00
435.22	4.68
435.41	11.70
435.59	63.19
435.78	7.02
435.97	88.94
436.16	53.83
436.34	16.38
436.53	11.70
436.72	14.04
436.90	93.62
437.09	0.00
437.28	0.00
437.46	56.17
437.65	74.90
437.84	14.04
438.02	0.00
438.21	49.15
438.40	93.62
438.58	32.77
438.77	0.00
438.96	0.00
439.14	39.79
439.33	51.49
439.52	65.54
439.70	35.11
439.89	93.62
440.08	0.00
440.26	53.83
440.45	128.73
440.63	39.79
440.82	21.06
441.01	21.06
441.19	65.54
441.38	28.09
441.57	0.00
441.75	2.34
441.94	0.00
442.12	86.60
442.31	32.77
442.50	56.17
442.68	35.11
442.87	74.90
443.05	53.83
443.24	35.11
443.43	14.04
443.61	14.04
443.80	0.00
443.98	70.22
444.17	28.09
444.35	51.49
444.54	28.09
444.73	56.17
444.91	16.38
445.10	0.00
445.28	0.00
445.47	107.66
445.65	21.06
445.84	23.41
446.02	0.00
446.21	0.00
446.39	0.00
446.58	32.77
446.77	51.49
446.95	39.79
447.14	0.00
447.32	98.30
447.51	0.00
447.69	0.00
447.88	0.00
448.06	60.85
448.25	39.79
448.43	58.51
448.62	16.38
448.80	37.45
448.99	44.47
449.17	0.00
449.36	0.00
449.54	4.68
449.73	79.58
449.91	60.85
450.10	0.00
450.28	79.58
450.46	28.09
450.65	95.96
450.83	16.38
451.02	35.11
451.20	25.75
451.39	25.75
451.57	28.09
451.76	0.00
451.94	44.47
452.13	32.77
452.31	7.02
452.49	25.75
452.68	18.72
452.86	42.13
453.05	11.70
453.23	42.13
453.42	81.92
453.60	0.00
453.78	0.00
453.97	0.00
454.15	46.81
454.34	42.13
454.52	70.22
454.70	56.17
454.89	60.85
455.07	0.00
455.26	35.11
455.44	9.36
455.62	117.03
455.81	0.00
455.99	0.00
456.17	51.49
456.36	11.70
456.54	11.70
456.73	44.47
456.91	39.79
457.09	105.32
457.28	81.92
457.46	42.13
457.64	93.62
457.83	39.79
458.01	9.36
458.19	25.75
458.38	88.94
458.56	46.81
458.74	60.85
458.93	72.56
459.11	0.00
459.29	70.22
459.48	18.72
459.66	11.70
459.84	0.00
460.03	72.56
460.21	56.17
460.39	25.75
460.57	63.19
460.76	4.68
460.94	0.00
461.12	30.43
461.31	67.88
461.49	110.01
461.67	4.68
461.85	60.85
462.04	25.75
462.22	133.41
462.40	25.75
462.59	7.02
462.77	0.00
462.95	14.04
463.13	0.00
463.32	9.36
463.50	63.19
463.68	0.00
463.86	14.04
464.05	25.75
464.23	81.92
464.41	0.00
464.59	58.51
464.78	79.58
464.96	14.04
465.14	14.04
465.32	77.24
465.50	9.36
465.69	28.09
465.87	126.39
466.05	65.54
466.23	4.68
466.41	0.00
466.60	51.49
466.78	39.79
466.96	0.00
467.14	60.85
467.32	14.04
467.51	63.19
467.69	4.68
467.87	21.06
468.05	28.09
468.23	37.45
468.41	79.58
468.60	67.88
468.78	0.00
468.96	44.47
469.14	93.62
469.32	39.79
469.50	93.62
469.69	0.00
469.87	79.58
470.05	0.00
470.23	0.00
470.41	88.94
470.59	35.11
470.77	56.17
470.95	124.05
471.14	67.88
471.32	7.02
471.50	88.94
471.68	37.45
471.86	23.41
472.04	77.24
472.22	60.85
472.40	0.00
472.58	37.45
472.77	102.98
472.95	4.68
473.13	79.58
473.31	7.02
473.49	0.00
473.67	0.00
473.85	49.15
474.03	49.15
474.21	44.47
474.39	117.03
474.57	42.13
474.75	77.24
474.93	58.51
475.12	0.00
475.30	9.36
475.48	81.92
475.66	0.00
475.84	0.00
476.02	46.81
476.20	49.15
476.38	49.15
476.56	46.81
476.74	44.47
476.92	0.00
477.10	14.04
477.28	126.39
477.46	60.85
477.64	93.62
477.82	7.02
478.00	0.00
478.18	37.45
478.36	95.96
478.54	0.00
478.72	147.45
478.90	65.54
479.08	32.77
479.26	53.83
479.44	44.47
479.62	0.00
479.80	51.49
479.98	0.00
480.16	4.68
480.34	39.79
480.52	100.64
480.70	0.00
480.88	30.43
481.06	65.54
481.24	0.00
481.41	49.15
481.59	0.00
481.77	16.38
481.95	44.47
482.13	102.98
482.31	58.51
482.49	49.15
482.67	14.04
482.85	0.00
483.03	105.32
483.21	28.09
483.39	0.00
483.57	2.34
483.74	0.00
483.92	23.41
484.10	49.15
484.28	25.75
484.46	0.00
484.64	0.00
484.82	0.00
485.00	56.17
485.18	35.11
485.35	46.81
485.53	65.54
485.71	0.00
485.89	72.56
486.07	0.00
486.25	16.38
486.43	72.56
486.61	81.92
486.78	28.09
486.96	4.68
487.14	58.51
487.32	67.88
487.50	35.11
487.68	44.47
487.85	51.49
488.03	84.26
488.21	39.79
488.39	65.54
488.57	65.54
488.75	28.09
488.92	53.83
489.10	0.00
489.28	39.79
489.46	21.06
489.64	21.06
489.81	67.88
489.99	84.26
490.17	7.02
490.35	21.06
490.53	49.15
490.70	28.09
490.88	25.75
491.06	21.06
491.24	25.75
491.41	11.70
491.59	0.00
491.77	84.26
491.95	35.11
492.13	7.02
492.30	60.85
492.48	7.02
492.66	30.43
492.84	14.04
493.01	35.11
493.19	32.77
493.37	21.06
493.54	0.00
493.72	9.36
493.90	23.41
494.08	65.54
494.25	23.41
494.43	67.88
494.61	44.47
494.79	49.15
494.96	14.04
495.14	0.00
495.32	35.11
495.49	86.60
495.67	46.81
495.85	32.77
496.02	21.06
496.20	60.85
496.38	44.47
496.55	30.43
496.73	0.00
496.91	67.88
497.09	16.38
497.26	91.28
497.44	25.75
497.62	42.13
497.79	0.00
497.97	63.19
498.14	9.36
498.32	7.02
498.50	7.02
498.67	44.47
498.85	0.00
499.03	58.51
499.20	0.00
499.38	18.72
499.56	23.41
499.73	0.00
499.91	35.11
500.08	77.24
500.26	39.79
500.44	14.04
500.61	140.43
500.79	60.85
500.97	49.15
501.14	42.13
501.32	81.92
501.49	23.41
501.67	72.56
501.84	28.09
502.02	0.00
502.20	56.17
502.37	0.00
502.55	0.00
502.72	72.56
502.90	9.36
503.07	51.49
503.25	91.28
503.43	98.30
503.60	2.34
503.78	60.85
503.95	46.81
504.13	46.81
504.30	65.54
504.48	95.96
504.65	18.72
504.83	65.54
505.01	44.47
505.18	51.49
505.36	46.81
505.53	74.90
505.71	25.75
505.88	0.00
506.06	44.47
506.23	0.00
506.41	0.00
506.58	14.04
506.76	32.77
506.93	28.09
507.11	35.11
507.28	56.17
507.46	0.00
507.63	11.70
507.81	0.00
507.98	7.02
508.16	117.03
508.33	0.00
508.50	0.00
508.68	18.72
508.85	14.04
509.03	95.96
509.20	0.00
509.38	2.34
509.55	77.24
509.73	49.15
509.90	74.90
510.08	30.43
510.25	16.38
510.42	11.70
510.60	37.45
510.77	79.58
510.95	39.79
511.12	21.06
511.30	28.09
511.47	74.90
511.64	35.11
511.82	28.09
511.99	23.41
512.17	51.49
512.34	93.62
512.51	25.75
512.69	2.34
512.86	100.64
513.04	91.28
513.21	0.00
513.38	25.75
513.56	0.00
513.73	16.38
513.90	25.75
514.08	18.72
514.25	39.79
514.43	98.30
514.60	44.47
514.77	7.02
514.95	32.77
515.12	39.79
515.29	67.88
515.47	23.41
515.64	21.06
515.81	0.00
515.99	32.77
516.16	2.34
516.33	4.68
516.51	0.00
516.68	35.11
516.85	37.45
517.03	21.06
517.20	2.34
517.37	70.22
517.54	98.30
517.72	88.94
517.89	14.04
518.06	93.62
518.24	2.34
518.41	0.00
518.58	11.70
518.75	0.00
518.93	91.28
519.10	25.75
519.27	35.11
519.45	7.02
519.62	46.81
519.79	32.77
519.96	42.13
520.14	16.38
520.31	105.32
520.48	44.47
520.65	65.54
520.83	77.24
521.00	91.28
521.17	30.43
521.34	0.00
521.52	44.47
521.69	4.68
521.86	9.36
522.03	84.26
522.20	93.62
522.38	60.85
522.55	18.72
522.72	53.83
522.89	88.94
523.07	91.28
523.24	70.22
523.41	32.77
523.58	67.88
523.75	23.41
523.92	46.81
524.10	44.47
524.27	119.37
524.44	18.72
524.61	11.70
524.78	18.72
524.96	49.15
525.13	0.00
525.30	0.00
525.47	0.00
525.64	0.00
525.81	46.81
525.98	0.00
526.16	37.45
526.33	23.41
526.50	2.34
526.67	2.34
526.84	11.70
527.01	49.15
527.18	37.45
527.36	63.19
527.53	81.92
527.70	88.94
527.87	0.00
528.04	51.49
528.21	49.15
528.38	0.00
528.55	11.70
528.72	11.70
528.89	37.45
529.07	0.00
529.24	23.41
529.41	37.45
529.58	4.68
529.75	95.96
529.92	0.00
530.09	37.45
530.26	60.85
530.43	49.15
530.60	51.49
530.77	0.00
530.94	16.38
531.11	35.11
531.28	65.54
531.46	53.83
531.63	60.85
531.80	81.92
531.97	16.38
532.14	100.64
532.31	0.00
532.48	44.47
532.65	77.24
532.82	63.19
532.99	0.00
533.16	0.00
533.33	79.58
533.50	65.54
533.67	21.06
533.84	37.45
534.01	32.77
534.18	65.54
534.35	42.13
534.52	72.56
534.69	98.30
534.86	65.54
535.03	56.17
535.20	88.94
535.37	44.47
535.54	18.72
535.71	35.11
535.88	112.35
536.05	32.77
536.22	65.54
536.38	65.54
536.55	67.88
536.72	81.92
536.89	28.09
537.06	77.24
537.23	0.00
537.40	0.00
537.57	39.79
537.74	44.47
537.91	39.79
538.08	65.54
538.25	7.02
538.42	58.51
538.59	105.32
538.75	28.09
538.92	16.38
539.09	95.96
539.26	46.81
539.43	28.09
539.60	131.07
539.77	131.07
539.94	147.45
540.11	112.35
540.28	114.69
540.44	21.06
540.61	56.17
540.78	39.79
540.95	53.83
541.12	44.47
541.29	81.92
541.46	63.19
541.62	77.24
541.79	0.00
541.96	0.00
542.13	67.88
542.30	37.45
542.47	25.75
542.63	0.00
542.80	7.02
542.97	0.00
543.14	0.00
543.31	51.49
543.48	0.00
543.64	11.70
543.81	93.62
543.98	65.54
544.15	14.04
544.32	93.62
544.48	0.00
544.65	0.00
544.82	79.58
544.99	21.06
545.16	0.00
545.32	39.79
545.49	42.13
545.66	0.00
545.83	56.17
546.00	67.88
546.16	28.09
546.33	32.77
546.50	4.68
546.67	56.17
546.83	21.06
547.00	95.96
547.17	32.77
547.34	72.56
547.50	23.41
547.67	74.90
547.84	88.94
548.00	39.79
548.17	49.15
548.34	98.30
548.51	32.77
548.67	28.09
548.84	63.19
549.01	65.54
549.18	84.26
549.34	65.54
549.51	56.17
549.68	46.81
549.84	11.70
550.01	53.83
550.18	21.06
550.34	0.00
550.51	102.98
550.68	35.11
550.84	74.90
551.01	28.09
551.18	14.04
551.34	4.68
551.51	84.26
551.68	0.00
551.84	2.34
552.01	37.45
552.18	46.81
552.34	121.71
552.51	86.60
552.68	0.00
552.84	30.43
553.01	53.83
553.18	7.02
553.34	30.43
553.51	35.11
553.67	32.77
553.84	39.79
554.01	110.01
554.17	32.77
554.34	16.38
554.51	16.38
554.67	37.45
554.84	30.43
555.00	93.62
555.17	72.56
555.33	42.13
555.50	0.00
555.67	49.15
555.83	4.68
556.00	44.47
556.16	32.77
556.33	35.11
556.50	79.58
556.66	114.69
556.83	28.09
556.99	74.90
557.16	0.00
557.32	63.19
557.49	46.81
557.65	25.75
557.82	0.00
557.98	16.38
558.15	18.72
558.32	58.51
558.48	74.90
558.65	35.11
558.81	67.88
558.98	42.13
559.14	53.83
559.31	18.72
559.47	21.06
559.64	32.77
559.80	70.22
559.97	14.04
560.13	0.00
560.30	51.49
560.46	16.38
560.63	117.03
560.79	32.77
560.96	37.45
561.12	7.02
561.29	74.90
561.45	2.34
561.61	28.09
561.78	84.26
561.94	0.00
562.11	44.47
562.27	81.92
562.44	72.56
562.60	100.64
562.77	4.68
562.93	58.51
563.10	21.06
563.26	9.36
563.42	51.49
563.59	11.70
563.75	70.22
563.92	114.69
564.08	32.77
564.24	4.68
564.41	0.00
564.57	30.43
564.74	4.68
564.90	39.79
565.07	0.00
565.23	70.22
565.39	51.49
565.56	14.04
565.72	2.34
565.88	18.72
566.05	42.13
566.21	11.70
566.38	35.11
566.54	70.22
566.70	30.43
566.87	35.11
567.03	0.00
567.19	86.60
567.36	81.92
567.52	0.00
567.68	32.77
567.85	67.88
568.01	58.51
568.17	0.00
568.34	145.11
568.50	91.28
568.66	140.43
568.83	49.15
568.99	25.75
569.15	11.70
569.32	56.17
569.48	39.79
569.64	37.45
569.81	63.19
569.97	0.00
570.13	86.60
570.30	53.83
570.46	44.47
570.62	67.88
570.78	21.06
570.95	23.41
571.11	44.47
571.27	0.00
571.43	72.56
571.60	30.43
571.76	4.68
571.92	46.81
572.09	67.88
572.25	21.06
572.41	14.04
572.57	63.19
572.74	100.64
572.90	30.43
573.06	42.13
573.22	79.58
573.38	4.68
573.55	0.00
573.71	0.00
573.87	35.11
574.03	4.68
574.20	63.19
574.36	25.75
574.52	0.00
574.68	46.81
574.84	35.11
575.01	0.00
575.17	37.45
575.33	51.49
575.49	65.54
575.65	0.00
575.82	35.11
575.98	63.19
576.14	32.77
576.30	74.90
576.46	124.05
576.62	42.13
576.79	0.00
576.95	58.51
577.11	86.60
577.27	44.47
577.43	67.88
577.59	0.00
577.75	0.00
577.92	28.09
578.08	0.00
578.24	0.00
578.40	30.43
578.56	58.51
578.72	100.64
578.88	49.15
579.04	21.06
579.21	25.75
579.37	105.32
579.53	4.68
579.69	84.26
579.85	74.90
580.01	70.22
580.17	0.00
580.33	60.85
580.49	14.04
580.65	60.85
580.82	91.28
580.98	56.17
581.14	30.43
581.30	37.45
581.46	60.85
581.62	58.51
581.78	77.24
581.94	159.16
582.10	93.62
582.26	0.00
582.42	128.73
582.58	44.47
582.74	18.72
582.90	84.26
583.06	133.41
583.22	42.13
583.38	100.64
583.54	67.88
583.70	23.41
583.86	35.11
584.02	84.26
584.18	39.79
584.34	42.13
584.50	273.84
584.66	1767.10
584.82	4290.20
584.98	5816.23
585.14	5062.58
585.30	3229.94
585.46	1970.73
585.62	1263.89
585.78	667.05
585.94	222.35
586.10	102.98
586.26	121.71
586.42	102.98
586.58	67.88
586.74	56.17
586.90	142.77
587.06	0.00
587.22	60.85
587.38	46.81
587.54	107.66
587.70	318.31
587.86	433.00
588.02	496.19
588.18	318.31
588.34	262.14
588.49	196.60
588.65	166.18
588.81	63.19
588.97	0.00
589.13	119.37
589.29	58.51
589.45	0.00
589.61	58.51
589.77	35.11
589.93	74.90
590.08	67.88
590.24	102.98
590.40	65.54
590.56	0.00
590.72	39.79
590.88	30.43
591.04	65.54
591.20	21.06
591.35	21.06
591.51	42.13
591.67	105.32
591.83	74.90
591.99	93.62
592.15	42.13
592.31	77.24
592.46	42.13
592.62	35.11
592.78	0.00
592.94	35.11
593.10	44.47
593.26	95.96
593.41	39.79
593.57	21.06
593.73	105.32
593.89	285.55
594.05	447.04
594.20	748.97
594.36	774.72
594.52	470.45
594.68	234.05
594.84	217.67
594.99	91.28
595.15	93.62
595.31	88.94
595.47	32.77
595.62	84.26
595.78	60.85
595.94	72.56
596.10	30.43
596.25	30.43
596.41	51.49
596.57	37.45
596.73	107.66
596.88	72.56
597.04	67.88
597.20	215.33
597.36	128.73
597.51	131.07
597.67	135.75
597.83	81.92
597.99	95.96
598.14	2.34
598.30	28.09
598.46	56.17
598.61	49.15
598.77	39.79
598.93	51.49
599.09	51.49
599.24	65.54
599.40	58.51
599.56	77.24
599.71	84.26
599.87	46.81
600.03	77.24
600.18	0.00
600.34	84.26
600.50	65.54
600.65	74.90
600.81	93.62
600.97	30.43
601.12	18.72
601.28	72.56
601.44	11.70
601.59	51.49
601.75	131.07
601.91	23.41
602.06	51.49
602.22	81.92
602.37	72.56
602.53	170.86
602.69	210.65
602.84	234.05
603.00	117.03
603.16	131.07
603.31	133.41
603.47	126.39
603.62	70.22
603.78	67.88
603.94	74.90
604.09	14.04
604.25	58.51
604.40	0.00
604.56	42.13
604.71	91.28
604.87	0.00
605.03	0.00
605.18	63.19
605.34	88.94
605.49	58.51
605.65	95.96
605.80	46.81
605.96	77.24
606.12	72.56
606.27	100.64
606.43	42.13
606.58	67.88
606.74	72.56
606.89	257.46
607.05	526.62
607.20	629.60
607.36	526.62
607.51	365.12
607.67	238.73
607.82	241.08
607.98	100.64
608.13	79.58
608.29	100.64
608.44	0.00
608.60	9.36
608.75	35.11
608.91	182.56
609.06	433.00
609.22	931.53
609.37	1118.78
609.53	922.17
609.68	685.78
609.84	383.85
609.99	280.86
610.15	135.75
610.30	133.41
610.46	72.56
610.61	32.77
610.76	49.15
610.92	128.73
611.07	0.00
611.23	95.96
611.38	28.09
611.54	63.19
611.69	11.70
611.84	0.00
612.00	30.43
612.15	28.09
612.31	35.11
612.46	95.96
612.62	51.49
612.77	51.49
612.92	37.45
613.08	110.01
613.23	74.90
613.39	49.15
613.54	79.58
613.69	416.62
613.85	1163.25
614.00	1624.33
614.15	1713.27
614.31	1249.85
614.46	807.48
614.62	465.77
614.77	332.36
614.92	224.69
615.08	60.85
615.23	32.77
615.38	16.38
615.54	105.32
615.69	32.77
615.84	283.20
616.00	386.19
616.15	404.91
616.30	351.08
616.46	297.25
616.61	217.67
616.76	166.18
616.92	117.03
617.07	105.32
617.22	112.35
617.37	18.72
617.53	81.92
617.68	112.35
617.83	11.70
617.99	65.54
618.14	58.51
618.29	93.62
618.45	11.70
618.60	70.22
618.75	67.88
618.90	79.58
619.06	37.45
619.21	86.60
619.36	25.75
619.51	117.03
619.67	58.51
619.82	39.79
619.97	32.77
620.12	14.04
620.28	7.02
620.43	56.17
620.58	63.19
620.73	117.03
620.89	100.64
621.04	49.15
621.19	152.13
621.34	266.82
621.49	241.08
621.65	234.05
621.80	112.35
621.95	140.43
622.10	110.01
622.25	81.92
622.41	51.49
622.56	32.77
622.71	2.34
622.86	37.45
623.01	86.60
623.16	0.00
623.32	0.00
623.47	39.79
623.62	110.01
623.77	28.09
623.92	30.43
624.07	67.88
624.23	98.30
624.38	0.00
624.53	56.17
624.68	0.00
624.83	0.00
624.98	25.75
625.13	72.56
625.29	16.38
625.44	37.45
625.59	70.22
625.74	67.88
625.89	105.32
626.04	229.37
626.19	550.03
626.34	961.96
626.49	943.24
626.65	653.01
626.80	454.06
626.95	311.29
627.10	222.35
627.25	128.73
627.40	93.62
627.55	100.64
627.70	0.00
627.85	23.41
628.00	0.00
628.15	37.45
628.30	4.68
628.45	39.79
628.60	0.00
628.76	9.36
628.91	23.41
629.06	56.17
629.21	39.79
629.36	25.75
629.51	37.45
629.66	46.81
629.81	44.47
629.96	124.05
630.11	180.22
630.26	276.18
630.41	142.77
630.56	198.95
630.71	147.45
630.86	119.37
631.01	0.00
631.16	30.43
631.31	18.72
631.46	32.77
631.61	44.47
631.76	0.00
631.91	53.83
632.06	42.13
632.21	74.90
632.36	4.68
632.51	30.43
632.66	7.02
632.81	95.96
632.96	367.46
633.10	524.28
633.25	587.47
633.40	528.96
633.55	409.59
633.70	311.29
633.85	147.45
634.00	124.05
634.15	110.01
634.30	49.15
634.45	126.39
634.60	51.49
634.75	51.49
634.90	53.83
635.05	53.83
635.19	51.49
635.34	51.49
635.49	0.00
635.64	56.17
635.79	107.66
635.94	23.41
636.09	74.90
636.24	0.00
636.39	2.34
636.53	0.00
636.68	98.30
636.83	28.09
636.98	23.41
637.13	124.05
637.28	7.02
637.43	95.96
637.57	100.64
637.72	306.61
637.87	800.46
638.02	1128.14
638.17	1109.41
638.32	898.77
638.46	676.41
638.61	414.27
638.76	231.71
638.91	220.01
639.06	88.94
639.20	102.98
639.35	114.69
639.50	173.20
639.65	472.79
639.80	1107.07
639.94	1722.63
640.09	1755.40
640.24	1373.89
640.39	901.11
640.54	624.92
640.68	374.49
640.83	177.88
640.98	86.60
641.13	72.56
641.27	25.75
641.42	0.00
641.57	0.00
641.72	46.81
641.86	0.00
642.01	7.02
642.16	60.85
642.31	21.06
642.45	53.83
642.60	100.64
642.75	0.00
642.90	18.72
643.04	93.62
643.19	32.77
643.34	7.02
643.48	35.11
643.63	42.13
643.78	14.04
643.93	102.98
644.07	117.03
644.22	93.62
644.37	18.72
644.51	63.19
644.66	0.00
644.81	42.13
644.95	2.34
645.10	110.01
645.25	7.02
645.39	25.75
645.54	60.85
645.69	74.90
645.83	30.43
645.98	25.75
646.13	30.43
646.27	32.77
646.42	56.17
646.57	23.41
646.71	37.45
646.86	58.51
647.00	28.09
647.15	135.75
647.30	56.17
647.44	28.09
647.59	0.00
647.74	44.47
647.88	93.62
648.03	9.36
648.17	28.09
648.32	42.13
648.47	37.45
648.61	28.09
648.76	0.00
648.90	74.90
649.05	65.54
649.20	98.30
649.34	60.85
649.49	74.90
649.63	88.94
649.78	67.88
649.92	4.68
650.07	201.29
650.21	507.90
650.36	844.93
650.51	896.43
650.65	854.30
650.80	608.54
650.94	421.30
651.09	273.84
651.23	152.13
651.38	86.60
651.52	102.98
651.67	25.75
651.81	30.43
651.96	74.90
652.10	37.45
652.25	0.00
652.39	0.00
652.54	0.00
652.68	56.17
652.83	224.69
652.97	252.78
653.12	428.32
653.26	346.40
653.41	250.44
653.55	119.37
653.70	119.37
653.84	133.41
653.99	93.62
654.13	14.04
654.27	42.13
654.42	63.19
654.56	0.00
654.71	37.45
654.85	49.15
655.00	11.70
655.14	46.81
655.29	14.04
655.43	0.00
655.57	2.34
655.72	58.51
655.86	0.00
656.01	0.00
656.15	72.56
656.30	70.22
656.44	74.90
656.58	105.32
656.73	28.09
656.87	70.22
657.01	58.51
657.16	63.19
657.30	7.02
657.45	4.68
657.59	86.60
657.73	53.83
657.88	0.00
658.02	93.62
658.16	72.56
658.31	37.45
658.45	18.72
658.60	53.83
658.74	35.11
658.88	60.85
659.03	77.24
659.17	121.71
659.31	86.60
659.46	273.84
659.60	454.06
659.74	470.45
659.89	418.96
660.03	341.72
660.17	245.76
660.32	161.50
660.46	135.75
660.60	194.26
660.74	128.73
660.89	0.00
661.03	53.83
661.17	0.00
661.32	37.45
661.46	0.00
661.60	58.51
661.74	21.06
661.89	0.00
662.03	32.77
662.17	0.00
662.31	58.51
662.46	46.81
662.60	63.19
662.74	39.79
662.88	37.45
663.03	37.45
663.17	72.56
663.31	16.38
663.45	9.36
663.60	2.34
663.74	67.88
663.88	0.00
664.02	0.00
664.17	95.96
664.31	18.72
664.45	42.13
664.59	79.58
664.73	77.24
664.88	32.77
665.02	100.64
665.16	74.90
665.30	65.54
665.44	32.77
665.59	37.45
665.73	44.47
665.87	58.51
666.01	65.54
666.15	60.85
666.29	9.36
666.44	32.77
666.58	23.41
666.72	70.22
666.86	46.81
667.00	23.41
667.14	0.00
667.28	154.48
667.43	397.89
667.57	758.33
667.71	866.00
667.85	706.84
667.99	475.13
668.13	287.89
668.27	273.84
668.41	187.24
668.56	161.50
668.70	95.96
668.84	39.79
668.98	53.83
669.12	37.45
669.26	39.79
669.40	18.72
669.54	72.56
669.68	67.88
669.82	39.79
669.96	32.77
670.10	166.18
670.25	60.85
670.39	58.51
670.53	0.00
670.67	9.36
670.81	30.43
670.95	32.77
671.09	72.56
671.23	163.84
671.37	381.51
671.51	468.11
671.65	507.90
671.79	407.25
671.93	322.99
672.07	180.22
672.21	117.03
672.35	102.98
672.49	39.79
672.63	72.56
672.77	84.26
672.91	0.00
673.05	7.02
673.19	44.47
673.33	70.22
673.47	30.43
673.61	35.11
673.75	14.04
673.89	0.00
674.03	77.24
674.17	0.00
674.31	39.79
674.45	110.01
674.59	91.28
674.73	65.54
674.87	49.15
675.01	25.75
675.15	32.77
675.29	0.00
675.43	98.30
675.56	35.11
675.70	74.90
675.84	42.13
675.98	79.58
676.12	18.72
676.26	11.70
676.40	37.45
676.54	88.94
676.68	0.00
676.82	0.00
676.96	44.47
677.10	0.00
677.23	67.88
677.37	95.96
677.51	53.83
677.65	23.41
677.79	28.09
677.93	84.26
678.07	0.00
678.21	0.00
678.34	16.38
678.48	0.00
678.62	60.85
678.76	77.24
678.90	7.02
679.04	77.24
679.18	42.13
679.31	44.47
679.45	0.00
679.59	28.09
679.73	0.00
679.87	11.70
680.00	53.83
680.14	0.00
680.28	14.04
680.42	21.06
680.56	0.00
680.70	35.11
680.83	23.41
680.97	37.45
681.11	42.13
681.25	74.90
681.39	21.06
681.52	0.00
681.66	0.00
681.80	42.13
681.94	0.00
682.07	49.15
682.21	14.04
682.35	72.56
682.49	23.41
682.62	49.15
682.76	11.70
682.90	0.00
683.04	35.11
683.17	21.06
683.31	0.00
683.45	79.58
683.59	7.02
683.72	32.77
683.86	18.72
684.00	0.00
684.13	30.43
684.27	0.00
684.41	18.72
684.55	23.41
684.68	0.00
684.82	23.41
684.96	16.38
685.09	16.38
685.23	63.19
685.37	0.00
685.50	4.68
685.64	58.51
685.78	28.09
685.91	18.72
686.05	72.56
686.19	53.83
686.32	23.41
686.46	4.68
686.60	46.81
686.73	18.72
686.87	0.00
687.01	56.17
687.14	56.17
687.28	0.00
687.42	49.15
687.55	9.36
687.69	84.26
687.82	44.47
687.96	0.00
688.10	0.00
688.23	0.00
688.37	21.06
688.50	46.81
688.64	84.26
688.78	81.92
688.91	9.36
689.05	21.06
689.18	0.00
689.32	9.36
689.46	16.38
689.59	0.00
689.73	77.24
689.86	72.56
690.00	39.79
690.13	25.75
690.27	102.98
690.41	4.68
690.54	0.00
690.68	35.11
690.81	0.00
690.95	35.11
691.08	39.79
691.22	88.94
691.35	35.11
691.49	16.38
691.62	18.72
691.76	39.79
691.89	0.00
692.03	0.00
692.16	51.49
692.30	72.56
692.43	49.15
692.57	203.63
692.70	381.51
692.84	437.68
692.97	294.91
693.11	205.97
693.24	187.24
693.38	189.58
693.51	124.05
693.65	28.09
693.78	117.03
693.92	58.51
694.05	14.04
694.19	2.34
694.32	51.49
694.45	30.43
694.59	23.41
694.72	0.00
694.86	0.00
694.99	84.26
695.13	4.68
695.26	51.49
695.39	0.00
695.53	46.81
695.66	98.30
695.80	65.54
695.93	72.56
696.07	21.06
696.20	46.81
696.33	32.77
696.47	35.11
696.60	102.98
696.73	74.90
696.87	18.72
697.00	114.69
697.14	16.38
697.27	25.75
697.40	42.13
697.54	60.85
697.67	67.88
697.80	58.51
697.94	18.72
698.07	0.00
698.21	0.00
698.34	4.68
698.47	56.17
698.61	44.47
698.74	0.00
698.87	32.77
699.01	39.79
699.14	30.43
699.27	7.02
699.40	79.58
699.54	58.51
699.67	35.11
699.80	21.06
699.94	0.00
700.07	4.68
700.20	0.00
700.34	14.04
700.47	0.00
700.60	46.81
700.73	0.00
700.87	7.02
701.00	32.77
701.13	25.75
701.26	37.45
701.40	0.00
701.53	0.00
701.66	21.06
701.79	21.06
701.93	4.68
702.06	30.43
702.19	77.24
702.32	0.00
702.46	16.38
702.59	58.51
702.72	51.49
702.85	252.78
702.99	484.49
703.12	725.57
703.25	716.20
703.38	716.20
703.51	430.66
703.65	411.93
703.78	243.42
703.91	208.31
704.04	135.75
704.17	11.70
704.31	44.47
704.44	44.47
704.57	79.58
704.70	93.62
704.83	91.28
704.96	0.00
705.10	11.70
705.23	46.81
>>>>>End Processed Spectral Data<<<<<
