SpectraSuite Data File
++++++++++++++++++++++++++++++++++++
Date: Fri Oct 04 12:13:38 GMT-05:00 2013
User: price-jones
Dark Spectrum Present: No
Reference Spectrum Present: No
Number of Sampled Component Spectra: 1
Spectrometers: USB2+H05261
Integration Time (usec): 10000 (USB2+H05261)
Spectra Averaged: 1 (USB2+H05261)
Boxcar Smoothing: 0 (USB2+H05261)
Correct for Electrical Dark: No (USB2+H05261)
Strobe/Lamp Enabled: No (USB2+H05261)
Correct for Detector Non-linearity: No (USB2+H05261)
Correct for Stray Light: No (USB2+H05261)
Number of Pixels in Processed Spectrum: 2048
>>>>>Begin Processed Spectral Data<<<<<
365.73	0.00
365.92	0.00
366.12	0.00
366.32	0.00
366.52	0.00
366.72	0.00
366.91	0.00
367.11	0.00
367.31	0.00
367.51	0.00
367.70	0.00
367.90	0.00
368.10	0.00
368.30	0.00
368.49	0.00
368.69	0.00
368.89	0.00
369.09	0.00
369.28	0.00
369.48	0.00
369.68	0.00
369.87	0.00
370.07	0.00
370.27	14.04
370.47	0.00
370.66	0.00
370.86	0.00
371.06	56.17
371.25	0.00
371.45	0.00
371.65	0.00
371.84	0.00
372.04	0.00
372.24	0.00
372.44	7.02
372.63	49.15
372.83	21.06
373.03	9.36
373.22	60.85
373.42	60.85
373.62	0.00
373.81	0.00
374.01	58.51
374.21	0.00
374.40	58.51
374.60	0.00
374.79	0.00
374.99	56.17
375.19	28.09
375.38	21.06
375.58	79.58
375.78	4.68
375.97	86.60
376.17	23.41
376.37	16.38
376.56	28.09
376.76	37.45
376.95	37.45
377.15	49.15
377.35	70.22
377.54	21.06
377.74	23.41
377.93	30.43
378.13	18.72
378.33	60.85
378.52	72.56
378.72	37.45
378.91	72.56
379.11	18.72
379.31	56.17
379.50	39.79
379.70	105.32
379.89	32.77
380.09	88.94
380.28	0.00
380.48	60.85
380.68	14.04
380.87	4.68
381.07	4.68
381.26	28.09
381.46	42.13
381.65	0.00
381.85	39.79
382.04	49.15
382.24	46.81
382.43	51.49
382.63	0.00
382.83	102.98
383.02	0.00
383.22	21.06
383.41	0.00
383.61	32.77
383.80	77.24
384.00	0.00
384.19	70.22
384.39	7.02
384.58	79.58
384.78	0.00
384.97	60.85
385.17	35.11
385.36	0.00
385.56	51.49
385.75	91.28
385.95	16.38
386.14	0.00
386.34	0.00
386.53	0.00
386.72	23.41
386.92	77.24
387.11	14.04
387.31	21.06
387.50	117.03
387.70	91.28
387.89	18.72
388.09	0.00
388.28	39.79
388.48	51.49
388.67	46.81
388.86	58.51
389.06	51.49
389.25	51.49
389.45	7.02
389.64	32.77
389.84	32.77
390.03	74.90
390.22	56.17
390.42	93.62
390.61	98.30
390.81	49.15
391.00	46.81
391.19	81.92
391.39	35.11
391.58	32.77
391.78	37.45
391.97	0.00
392.16	30.43
392.36	25.75
392.55	2.34
392.75	0.00
392.94	44.47
393.13	63.19
393.33	0.00
393.52	2.34
393.71	0.00
393.91	39.79
394.10	18.72
394.29	18.72
394.49	0.00
394.68	79.58
394.88	35.11
395.07	46.81
395.26	23.41
395.46	0.00
395.65	32.77
395.84	105.32
396.04	86.60
396.23	0.00
396.42	46.81
396.62	67.88
396.81	0.00
397.00	0.00
397.19	0.00
397.39	51.49
397.58	0.00
397.77	56.17
397.97	23.41
398.16	67.88
398.35	133.41
398.55	21.06
398.74	32.77
398.93	28.09
399.12	9.36
399.32	39.79
399.51	58.51
399.70	49.15
399.90	60.85
400.09	60.85
400.28	0.00
400.47	32.77
400.67	4.68
400.86	0.00
401.05	39.79
401.24	25.75
401.44	72.56
401.63	49.15
401.82	16.38
402.01	0.00
402.21	91.28
402.40	30.43
402.59	23.41
402.78	0.00
402.97	0.00
403.17	51.49
403.36	23.41
403.55	51.49
403.74	0.00
403.93	49.15
404.13	0.00
404.32	0.00
404.51	0.00
404.70	53.83
404.89	0.00
405.09	32.77
405.28	18.72
405.47	42.13
405.66	4.68
405.85	0.00
406.05	7.02
406.24	21.06
406.43	0.00
406.62	0.00
406.81	70.22
407.00	42.13
407.20	58.51
407.39	0.00
407.58	0.00
407.77	18.72
407.96	0.00
408.15	44.47
408.34	0.00
408.54	56.17
408.73	81.92
408.92	0.00
409.11	11.70
409.30	44.47
409.49	65.54
409.68	70.22
409.87	21.06
410.07	18.72
410.26	4.68
410.45	84.26
410.64	42.13
410.83	0.00
411.02	0.00
411.21	74.90
411.40	70.22
411.59	30.43
411.78	42.13
411.98	42.13
412.17	23.41
412.36	84.26
412.55	0.00
412.74	63.19
412.93	77.24
413.12	0.00
413.31	37.45
413.50	51.49
413.69	63.19
413.88	65.54
414.07	51.49
414.26	37.45
414.45	65.54
414.64	28.09
414.83	77.24
415.02	0.00
415.22	18.72
415.41	18.72
415.60	0.00
415.79	74.90
415.98	81.92
416.17	23.41
416.36	23.41
416.55	79.58
416.74	51.49
416.93	0.00
417.12	95.96
417.31	28.09
417.50	58.51
417.69	79.58
417.88	65.54
418.07	46.81
418.26	63.19
418.45	49.15
418.64	67.88
418.83	0.00
419.02	28.09
419.21	11.70
419.39	63.19
419.58	39.79
419.77	9.36
419.96	56.17
420.15	56.17
420.34	72.56
420.53	53.83
420.72	56.17
420.91	72.56
421.10	72.56
421.29	58.51
421.48	16.38
421.67	16.38
421.86	79.58
422.05	58.51
422.24	105.32
422.43	49.15
422.61	39.79
422.80	110.01
422.99	37.45
423.18	18.72
423.37	32.77
423.56	0.00
423.75	30.43
423.94	28.09
424.13	35.11
424.32	44.47
424.50	81.92
424.69	49.15
424.88	14.04
425.07	95.96
425.26	39.79
425.45	14.04
425.64	0.00
425.83	63.19
426.01	0.00
426.20	32.77
426.39	107.66
426.58	98.30
426.77	46.81
426.96	46.81
427.15	0.00
427.33	60.85
427.52	21.06
427.71	42.13
427.90	72.56
428.09	49.15
428.28	9.36
428.46	18.72
428.65	0.00
428.84	0.00
429.03	107.66
429.22	112.35
429.40	49.15
429.59	7.02
429.78	39.79
429.97	56.17
430.16	60.85
430.34	56.17
430.53	46.81
430.72	93.62
430.91	0.00
431.10	84.26
431.28	100.64
431.47	86.60
431.66	100.64
431.85	53.83
432.03	30.43
432.22	56.17
432.41	56.17
432.60	70.22
432.79	0.00
432.97	46.81
433.16	100.64
433.35	72.56
433.54	70.22
433.72	35.11
433.91	81.92
434.10	35.11
434.28	60.85
434.47	74.90
434.66	63.19
434.85	102.98
435.03	53.83
435.22	102.98
435.41	35.11
435.59	77.24
435.78	63.19
435.97	25.75
436.16	77.24
436.34	63.19
436.53	9.36
436.72	51.49
436.90	2.34
437.09	0.00
437.28	72.56
437.46	56.17
437.65	0.00
437.84	0.00
438.02	35.11
438.21	14.04
438.40	63.19
438.58	93.62
438.77	74.90
438.96	35.11
439.14	84.26
439.33	0.00
439.52	51.49
439.70	30.43
439.89	49.15
440.08	58.51
440.26	53.83
440.45	74.90
440.63	44.47
440.82	72.56
441.01	21.06
441.19	37.45
441.38	30.43
441.57	56.17
441.75	65.54
441.94	49.15
442.12	42.13
442.31	0.00
442.50	60.85
442.68	58.51
442.87	11.70
443.05	4.68
443.24	74.90
443.43	56.17
443.61	56.17
443.80	58.51
443.98	70.22
444.17	23.41
444.35	58.51
444.54	16.38
444.73	72.56
444.91	0.00
445.10	60.85
445.28	74.90
445.47	14.04
445.65	35.11
445.84	77.24
446.02	44.47
446.21	0.00
446.39	4.68
446.58	30.43
446.77	37.45
446.95	93.62
447.14	67.88
447.32	114.69
447.51	67.88
447.69	7.02
447.88	0.00
448.06	49.15
448.25	51.49
448.43	93.62
448.62	107.66
448.80	53.83
448.99	39.79
449.17	18.72
449.36	79.58
449.54	98.30
449.73	4.68
449.91	79.58
450.10	9.36
450.28	28.09
450.46	74.90
450.65	79.58
450.83	91.28
451.02	100.64
451.20	84.26
451.39	32.77
451.57	53.83
451.76	25.75
451.94	56.17
452.13	88.94
452.31	70.22
452.49	70.22
452.68	35.11
452.86	30.43
453.05	37.45
453.23	46.81
453.42	74.90
453.60	44.47
453.78	11.70
453.97	0.00
454.15	0.00
454.34	35.11
454.52	46.81
454.70	11.70
454.89	72.56
455.07	72.56
455.26	35.11
455.44	84.26
455.62	86.60
455.81	7.02
455.99	79.58
456.17	79.58
456.36	44.47
456.54	44.47
456.73	110.01
456.91	23.41
457.09	63.19
457.28	60.85
457.46	74.90
457.64	0.00
457.83	65.54
458.01	46.81
458.19	58.51
458.38	49.15
458.56	51.49
458.74	100.64
458.93	100.64
459.11	67.88
459.29	53.83
459.48	102.98
459.66	37.45
459.84	105.32
460.03	28.09
460.21	51.49
460.39	51.49
460.57	84.26
460.76	72.56
460.94	32.77
461.12	53.83
461.31	70.22
461.49	56.17
461.67	11.70
461.85	42.13
462.04	51.49
462.22	67.88
462.40	88.94
462.59	105.32
462.77	77.24
462.95	74.90
463.13	32.77
463.32	56.17
463.50	0.00
463.68	42.13
463.86	0.00
464.05	39.79
464.23	16.38
464.41	35.11
464.59	35.11
464.78	49.15
464.96	37.45
465.14	53.83
465.32	0.00
465.50	7.02
465.69	95.96
465.87	84.26
466.05	107.66
466.23	53.83
466.41	112.35
466.60	14.04
466.78	152.13
466.96	102.98
467.14	56.17
467.32	79.58
467.51	42.13
467.69	35.11
467.87	9.36
468.05	67.88
468.23	107.66
468.41	124.05
468.60	84.26
468.78	117.03
468.96	32.77
469.14	98.30
469.32	74.90
469.50	95.96
469.69	72.56
469.87	46.81
470.05	147.45
470.23	58.51
470.41	18.72
470.59	128.73
470.77	0.00
470.95	77.24
471.14	100.64
471.32	42.13
471.50	4.68
471.68	49.15
471.86	0.00
472.04	70.22
472.22	70.22
472.40	107.66
472.58	124.05
472.77	60.85
472.95	102.98
473.13	81.92
473.31	107.66
473.49	35.11
473.67	4.68
473.85	79.58
474.03	74.90
474.21	37.45
474.39	32.77
474.57	98.30
474.75	0.00
474.93	81.92
475.12	74.90
475.30	107.66
475.48	14.04
475.66	30.43
475.84	121.71
476.02	100.64
476.20	44.47
476.38	32.77
476.56	23.41
476.74	39.79
476.92	23.41
477.10	0.00
477.28	79.58
477.46	77.24
477.64	35.11
477.82	119.37
478.00	44.47
478.18	70.22
478.36	53.83
478.54	4.68
478.72	72.56
478.90	53.83
479.08	32.77
479.26	95.96
479.44	0.00
479.62	46.81
479.80	95.96
479.98	74.90
480.16	44.47
480.34	72.56
480.52	35.11
480.70	72.56
480.88	49.15
481.06	100.64
481.24	58.51
481.41	37.45
481.59	128.73
481.77	21.06
481.95	58.51
482.13	11.70
482.31	49.15
482.49	49.15
482.67	53.83
482.85	72.56
483.03	0.00
483.21	56.17
483.39	58.51
483.57	70.22
483.74	86.60
483.92	100.64
484.10	72.56
484.28	65.54
484.46	74.90
484.64	98.30
484.82	28.09
485.00	37.45
485.18	32.77
485.35	0.00
485.53	74.90
485.71	86.60
485.89	65.54
486.07	65.54
486.25	51.49
486.43	0.00
486.61	95.96
486.78	121.71
486.96	18.72
487.14	121.71
487.32	42.13
487.50	119.37
487.68	49.15
487.85	21.06
488.03	21.06
488.21	100.64
488.39	77.24
488.57	112.35
488.75	102.98
488.92	128.73
489.10	79.58
489.28	135.75
489.46	77.24
489.64	60.85
489.81	79.58
489.99	100.64
490.17	74.90
490.35	42.13
490.53	79.58
490.70	72.56
490.88	60.85
491.06	72.56
491.24	30.43
491.41	9.36
491.59	93.62
491.77	0.00
491.95	0.00
492.13	91.28
492.30	46.81
492.48	58.51
492.66	74.90
492.84	46.81
493.01	58.51
493.19	121.71
493.37	105.32
493.54	95.96
493.72	18.72
493.90	86.60
494.08	100.64
494.25	147.45
494.43	65.54
494.61	53.83
494.79	65.54
494.96	56.17
495.14	25.75
495.32	98.30
495.49	23.41
495.67	39.79
495.85	4.68
496.02	70.22
496.20	65.54
496.38	11.70
496.55	67.88
496.73	44.47
496.91	32.77
497.09	124.05
497.26	70.22
497.44	67.88
497.62	60.85
497.79	65.54
497.97	81.92
498.14	79.58
498.32	72.56
498.50	51.49
498.67	98.30
498.85	138.09
499.03	4.68
499.20	28.09
499.38	138.09
499.56	91.28
499.73	46.81
499.91	95.96
500.08	74.90
500.26	91.28
500.44	49.15
500.61	25.75
500.79	112.35
500.97	39.79
501.14	23.41
501.32	30.43
501.49	63.19
501.67	138.09
501.84	0.00
502.02	88.94
502.20	58.51
502.37	84.26
502.55	105.32
502.72	21.06
502.90	86.60
503.07	131.07
503.25	77.24
503.43	30.43
503.60	58.51
503.78	121.71
503.95	44.47
504.13	110.01
504.30	51.49
504.48	112.35
504.65	107.66
504.83	65.54
505.01	51.49
505.18	65.54
505.36	138.09
505.53	98.30
505.71	56.17
505.88	86.60
506.06	140.43
506.23	95.96
506.41	95.96
506.58	133.41
506.76	74.90
506.93	46.81
507.11	65.54
507.28	25.75
507.46	145.11
507.63	77.24
507.81	65.54
507.98	128.73
508.16	88.94
508.33	84.26
508.50	77.24
508.68	44.47
508.85	79.58
509.03	25.75
509.20	77.24
509.38	86.60
509.55	100.64
509.73	46.81
509.90	0.00
510.08	112.35
510.25	32.77
510.42	72.56
510.60	112.35
510.77	53.83
510.95	100.64
511.12	46.81
511.30	128.73
511.47	42.13
511.64	117.03
511.82	147.45
511.99	70.22
512.17	105.32
512.34	4.68
512.51	65.54
512.69	175.54
512.86	51.49
513.04	163.84
513.21	63.19
513.38	110.01
513.56	128.73
513.73	14.04
513.90	117.03
514.08	114.69
514.25	117.03
514.43	70.22
514.60	100.64
514.77	93.62
514.95	51.49
515.12	107.66
515.29	126.39
515.47	32.77
515.64	112.35
515.81	74.90
515.99	107.66
516.16	32.77
516.33	42.13
516.51	91.28
516.68	44.47
516.85	63.19
517.03	51.49
517.20	95.96
517.37	25.75
517.54	72.56
517.72	93.62
517.89	0.00
518.06	138.09
518.24	53.83
518.41	91.28
518.58	42.13
518.75	114.69
518.93	128.73
519.10	0.00
519.27	72.56
519.45	88.94
519.62	131.07
519.79	110.01
519.96	107.66
520.14	88.94
520.31	81.92
520.48	105.32
520.65	56.17
520.83	72.56
521.00	65.54
521.17	88.94
521.34	67.88
521.52	170.86
521.69	126.39
521.86	70.22
522.03	39.79
522.20	58.51
522.38	16.38
522.55	74.90
522.72	147.45
522.89	88.94
523.07	63.19
523.24	91.28
523.41	124.05
523.58	112.35
523.75	95.96
523.92	107.66
524.10	67.88
524.27	67.88
524.44	121.71
524.61	67.88
524.78	79.58
524.96	88.94
525.13	77.24
525.30	93.62
525.47	65.54
525.64	18.72
525.81	72.56
525.98	135.75
526.16	107.66
526.33	74.90
526.50	156.82
526.67	14.04
526.84	9.36
527.01	86.60
527.18	119.37
527.36	112.35
527.53	88.94
527.70	91.28
527.87	65.54
528.04	53.83
528.21	65.54
528.38	140.43
528.55	98.30
528.72	84.26
528.89	74.90
529.07	117.03
529.24	86.60
529.41	117.03
529.58	74.90
529.75	117.03
529.92	88.94
530.09	77.24
530.26	70.22
530.43	126.39
530.60	58.51
530.77	131.07
530.94	126.39
531.11	84.26
531.28	37.45
531.46	65.54
531.63	128.73
531.80	72.56
531.97	74.90
532.14	23.41
532.31	21.06
532.48	145.11
532.65	0.00
532.82	56.17
532.99	112.35
533.16	95.96
533.33	86.60
533.50	100.64
533.67	98.30
533.84	65.54
534.01	126.39
534.18	110.01
534.35	173.20
534.52	110.01
534.69	67.88
534.86	110.01
535.03	88.94
535.20	194.26
535.37	95.96
535.54	105.32
535.71	91.28
535.88	72.56
536.05	140.43
536.22	58.51
536.38	170.86
536.55	39.79
536.72	161.50
536.89	70.22
537.06	124.05
537.23	23.41
537.40	166.18
537.57	95.96
537.74	156.82
537.91	86.60
538.08	39.79
538.25	74.90
538.42	102.98
538.59	67.88
538.75	46.81
538.92	42.13
539.09	53.83
539.26	60.85
539.43	39.79
539.60	42.13
539.77	44.47
539.94	25.75
540.11	84.26
540.28	135.75
540.44	95.96
540.61	126.39
540.78	67.88
540.95	124.05
541.12	67.88
541.29	88.94
541.46	114.69
541.62	91.28
541.79	0.00
541.96	77.24
542.13	112.35
542.30	32.77
542.47	98.30
542.63	105.32
542.80	105.32
542.97	9.36
543.14	63.19
543.31	100.64
543.48	74.90
543.64	95.96
543.81	35.11
543.98	107.66
544.15	56.17
544.32	98.30
544.48	79.58
544.65	63.19
544.82	133.41
544.99	2.34
545.16	30.43
545.32	28.09
545.49	98.30
545.66	126.39
545.83	86.60
546.00	102.98
546.16	105.32
546.33	37.45
546.50	88.94
546.67	74.90
546.83	72.56
547.00	58.51
547.17	91.28
547.34	124.05
547.50	74.90
547.67	67.88
547.84	70.22
548.00	88.94
548.17	63.19
548.34	131.07
548.51	18.72
548.67	74.90
548.84	74.90
549.01	131.07
549.18	182.56
549.34	98.30
549.51	105.32
549.68	65.54
549.84	86.60
550.01	53.83
550.18	23.41
550.34	60.85
550.51	74.90
550.68	166.18
550.84	119.37
551.01	107.66
551.18	32.77
551.34	60.85
551.51	74.90
551.68	44.47
551.84	86.60
552.01	100.64
552.18	65.54
552.34	44.47
552.51	119.37
552.68	46.81
552.84	56.17
553.01	37.45
553.18	42.13
553.34	46.81
553.51	35.11
553.67	131.07
553.84	79.58
554.01	0.00
554.17	81.92
554.34	56.17
554.51	154.48
554.67	70.22
554.84	98.30
555.00	88.94
555.17	154.48
555.33	107.66
555.50	161.50
555.67	65.54
555.83	119.37
556.00	128.73
556.16	67.88
556.33	86.60
556.50	121.71
556.66	56.17
556.83	159.16
556.99	46.81
557.16	58.51
557.32	77.24
557.49	189.58
557.65	67.88
557.82	133.41
557.98	65.54
558.15	105.32
558.32	63.19
558.48	39.79
558.65	77.24
558.81	60.85
558.98	112.35
559.14	124.05
559.31	65.54
559.47	49.15
559.64	107.66
559.80	60.85
559.97	74.90
560.13	140.43
560.30	23.41
560.46	107.66
560.63	67.88
560.79	107.66
560.96	184.90
561.12	95.96
561.29	91.28
561.45	114.69
561.61	126.39
561.78	67.88
561.94	49.15
562.11	98.30
562.27	67.88
562.44	147.45
562.60	46.81
562.77	121.71
562.93	135.75
563.10	95.96
563.26	53.83
563.42	79.58
563.59	124.05
563.75	79.58
563.92	42.13
564.08	107.66
564.24	98.30
564.41	112.35
564.57	102.98
564.74	91.28
564.90	154.48
565.07	128.73
565.23	95.96
565.39	114.69
565.56	98.30
565.72	51.49
565.88	32.77
566.05	65.54
566.21	79.58
566.38	67.88
566.54	88.94
566.70	126.39
566.87	86.60
567.03	39.79
567.19	79.58
567.36	102.98
567.52	0.00
567.68	70.22
567.85	65.54
568.01	77.24
568.17	93.62
568.34	86.60
568.50	119.37
568.66	100.64
568.83	79.58
568.99	65.54
569.15	51.49
569.32	51.49
569.48	28.09
569.64	86.60
569.81	95.96
569.97	56.17
570.13	119.37
570.30	67.88
570.46	14.04
570.62	102.98
570.78	117.03
570.95	51.49
571.11	0.00
571.27	98.30
571.43	84.26
571.60	149.79
571.76	42.13
571.92	112.35
572.09	67.88
572.25	95.96
572.41	65.54
572.57	72.56
572.74	72.56
572.90	67.88
573.06	58.51
573.22	177.88
573.38	105.32
573.55	39.79
573.71	0.00
573.87	74.90
574.03	0.00
574.20	102.98
574.36	60.85
574.52	98.30
574.68	81.92
574.84	105.32
575.01	152.13
575.17	88.94
575.33	70.22
575.49	154.48
575.65	58.51
575.82	32.77
575.98	126.39
576.14	107.66
576.30	100.64
576.46	100.64
576.62	53.83
576.79	124.05
576.95	35.11
577.11	72.56
577.27	25.75
577.43	56.17
577.59	105.32
577.75	53.83
577.92	77.24
578.08	133.41
578.24	142.77
578.40	79.58
578.56	124.05
578.72	126.39
578.88	49.15
579.04	0.00
579.21	0.00
579.37	23.41
579.53	42.13
579.69	63.19
579.85	105.32
580.01	72.56
580.17	32.77
580.33	28.09
580.49	72.56
580.65	95.96
580.82	14.04
580.98	187.24
581.14	65.54
581.30	110.01
581.46	81.92
581.62	72.56
581.78	77.24
581.94	58.51
582.10	28.09
582.26	65.54
582.42	98.30
582.58	88.94
582.74	74.90
582.90	58.51
583.06	105.32
583.22	84.26
583.38	74.90
583.54	72.56
583.70	51.49
583.86	60.85
584.02	95.96
584.18	79.58
584.34	110.01
584.50	28.09
584.66	67.88
584.82	128.73
584.98	37.45
585.14	65.54
585.30	67.88
585.46	23.41
585.62	70.22
585.78	182.56
585.94	67.88
586.10	210.65
586.26	67.88
586.42	25.75
586.58	98.30
586.74	67.88
586.90	88.94
587.06	39.79
587.22	37.45
587.38	102.98
587.54	88.94
587.70	138.09
587.86	72.56
588.02	72.56
588.18	86.60
588.34	70.22
588.49	102.98
588.65	65.54
588.81	88.94
588.97	28.09
589.13	102.98
589.29	39.79
589.45	4.68
589.61	46.81
589.77	126.39
589.93	63.19
590.08	39.79
590.24	95.96
590.40	77.24
590.56	114.69
590.72	98.30
590.88	93.62
591.04	0.00
591.20	56.17
591.35	110.01
591.51	70.22
591.67	81.92
591.83	51.49
591.99	105.32
592.15	23.41
592.31	95.96
592.46	30.43
592.62	173.20
592.78	30.43
592.94	53.83
593.10	110.01
593.26	14.04
593.41	112.35
593.57	58.51
593.73	28.09
593.89	98.30
594.05	4.68
594.20	30.43
594.36	91.28
594.52	0.00
594.68	79.58
594.84	28.09
594.99	86.60
595.15	67.88
595.31	51.49
595.47	51.49
595.62	98.30
595.78	51.49
595.94	28.09
596.10	63.19
596.25	63.19
596.41	79.58
596.57	35.11
596.73	77.24
596.88	58.51
597.04	84.26
597.20	28.09
597.36	67.88
597.51	25.75
597.67	46.81
597.83	74.90
597.99	117.03
598.14	84.26
598.30	35.11
598.46	98.30
598.61	128.73
598.77	21.06
598.93	18.72
599.09	140.43
599.24	88.94
599.40	91.28
599.56	21.06
599.71	42.13
599.87	77.24
600.03	98.30
600.18	67.88
600.34	30.43
600.50	102.98
600.65	60.85
600.81	67.88
600.97	58.51
601.12	107.66
601.28	88.94
601.44	35.11
601.59	79.58
601.75	110.01
601.91	98.30
602.06	107.66
602.22	112.35
602.37	105.32
602.53	30.43
602.69	100.64
602.84	86.60
603.00	112.35
603.16	65.54
603.31	86.60
603.47	11.70
603.62	35.11
603.78	51.49
603.94	88.94
604.09	121.71
604.25	79.58
604.40	0.00
604.56	49.15
604.71	49.15
604.87	9.36
605.03	117.03
605.18	145.11
605.34	84.26
605.49	25.75
605.65	84.26
605.80	98.30
605.96	117.03
606.12	51.49
606.27	28.09
606.43	102.98
606.58	98.30
606.74	49.15
606.89	16.38
607.05	0.00
607.20	84.26
607.36	37.45
607.51	98.30
607.67	0.00
607.82	58.51
607.98	91.28
608.13	30.43
608.29	11.70
608.44	159.16
608.60	114.69
608.75	74.90
608.91	98.30
609.06	114.69
609.22	49.15
609.37	110.01
609.53	77.24
609.68	65.54
609.84	30.43
609.99	67.88
610.15	65.54
610.30	49.15
610.46	117.03
610.61	135.75
610.76	14.04
610.92	23.41
611.07	37.45
611.23	49.15
611.38	138.09
611.54	65.54
611.69	0.00
611.84	91.28
612.00	39.79
612.15	84.26
612.31	67.88
612.46	95.96
612.62	110.01
612.77	56.17
612.92	114.69
613.08	79.58
613.23	21.06
613.39	91.28
613.54	91.28
613.69	30.43
613.85	28.09
614.00	46.81
614.15	152.13
614.31	74.90
614.46	86.60
614.62	110.01
614.77	86.60
614.92	9.36
615.08	32.77
615.23	58.51
615.38	102.98
615.54	140.43
615.69	60.85
615.84	119.37
616.00	77.24
616.15	51.49
616.30	60.85
616.46	74.90
616.61	39.79
616.76	0.00
616.92	18.72
617.07	11.70
617.22	72.56
617.37	25.75
617.53	39.79
617.68	65.54
617.83	14.04
617.99	53.83
618.14	49.15
618.29	53.83
618.45	84.26
618.60	0.00
618.75	7.02
618.90	35.11
619.06	86.60
619.21	58.51
619.36	30.43
619.51	77.24
619.67	0.00
619.82	0.00
619.97	74.90
620.12	49.15
620.28	32.77
620.43	4.68
620.58	126.39
620.73	110.01
620.89	28.09
621.04	46.81
621.19	56.17
621.34	95.96
621.49	79.58
621.65	58.51
621.80	119.37
621.95	65.54
622.10	53.83
622.25	53.83
622.41	79.58
622.56	72.56
622.71	56.17
622.86	23.41
623.01	102.98
623.16	37.45
623.32	70.22
623.47	67.88
623.62	98.30
623.77	107.66
623.92	60.85
624.07	98.30
624.23	53.83
624.38	0.00
624.53	56.17
624.68	74.90
624.83	91.28
624.98	77.24
625.13	58.51
625.29	53.83
625.44	79.58
625.59	28.09
625.74	67.88
625.89	86.60
626.04	37.45
626.19	74.90
626.34	110.01
626.49	65.54
626.65	60.85
626.80	46.81
626.95	140.43
627.10	46.81
627.25	46.81
627.40	58.51
627.55	0.00
627.70	11.70
627.85	23.41
628.00	35.11
628.15	37.45
628.30	2.34
628.45	14.04
628.60	35.11
628.76	65.54
628.91	37.45
629.06	88.94
629.21	72.56
629.36	56.17
629.51	63.19
629.66	4.68
629.81	93.62
629.96	79.58
630.11	84.26
630.26	72.56
630.41	37.45
630.56	53.83
630.71	49.15
630.86	39.79
631.01	93.62
631.16	58.51
631.31	107.66
631.46	28.09
631.61	18.72
631.76	7.02
631.91	37.45
632.06	81.92
632.21	77.24
632.36	72.56
632.51	105.32
632.66	58.51
632.81	79.58
632.96	0.00
633.10	95.96
633.25	81.92
633.40	0.00
633.55	30.43
633.70	88.94
633.85	63.19
634.00	81.92
634.15	81.92
634.30	100.64
634.45	58.51
634.60	0.00
634.75	145.11
634.90	135.75
635.05	16.38
635.19	65.54
635.34	95.96
635.49	133.41
635.64	30.43
635.79	95.96
635.94	44.47
636.09	56.17
636.24	23.41
636.39	35.11
636.53	49.15
636.68	0.00
636.83	60.85
636.98	72.56
637.13	117.03
637.28	25.75
637.43	63.19
637.57	44.47
637.72	23.41
637.87	138.09
638.02	14.04
638.17	42.13
638.32	72.56
638.46	4.68
638.61	9.36
638.76	32.77
638.91	105.32
639.06	124.05
639.20	67.88
639.35	93.62
639.50	77.24
639.65	84.26
639.80	67.88
639.94	28.09
640.09	58.51
640.24	49.15
640.39	88.94
640.54	100.64
640.68	72.56
640.83	74.90
640.98	72.56
641.13	77.24
641.27	74.90
641.42	102.98
641.57	0.00
641.72	28.09
641.86	56.17
642.01	79.58
642.16	39.79
642.31	60.85
642.45	16.38
642.60	25.75
642.75	46.81
642.90	72.56
643.04	28.09
643.19	0.00
643.34	102.98
643.48	39.79
643.63	107.66
643.78	65.54
643.93	23.41
644.07	84.26
644.22	53.83
644.37	53.83
644.51	42.13
644.66	37.45
644.81	65.54
644.95	93.62
645.10	11.70
645.25	93.62
645.39	35.11
645.54	49.15
645.69	60.85
645.83	35.11
645.98	63.19
646.13	25.75
646.27	79.58
646.42	42.13
646.57	98.30
646.71	46.81
646.86	53.83
647.00	91.28
647.15	39.79
647.30	25.75
647.44	0.00
647.59	102.98
647.74	32.77
647.88	37.45
648.03	0.00
648.17	56.17
648.32	28.09
648.47	37.45
648.61	44.47
648.76	81.92
648.90	81.92
649.05	49.15
649.20	0.00
649.34	131.07
649.49	107.66
649.63	95.96
649.78	70.22
649.92	11.70
650.07	131.07
650.21	95.96
650.36	77.24
650.51	44.47
650.65	79.58
650.80	53.83
650.94	67.88
651.09	107.66
651.23	32.77
651.38	11.70
651.52	39.79
651.67	42.13
651.81	102.98
651.96	110.01
652.10	0.00
652.25	0.00
652.39	39.79
652.54	65.54
652.68	39.79
652.83	56.17
652.97	42.13
653.12	0.00
653.26	98.30
653.41	65.54
653.55	124.05
653.70	23.41
653.84	0.00
653.99	49.15
654.13	4.68
654.27	63.19
654.42	0.00
654.56	35.11
654.71	60.85
654.85	72.56
655.00	23.41
655.14	42.13
655.29	42.13
655.43	128.73
655.57	105.32
655.72	16.38
655.86	56.17
656.01	53.83
656.15	95.96
656.30	39.79
656.44	49.15
656.58	11.70
656.73	9.36
656.87	4.68
657.01	98.30
657.16	70.22
657.30	60.85
657.45	56.17
657.59	63.19
657.73	74.90
657.88	60.85
658.02	135.75
658.16	67.88
658.31	4.68
658.45	93.62
658.60	53.83
658.74	63.19
658.88	60.85
659.03	67.88
659.17	0.00
659.31	4.68
659.46	0.00
659.60	56.17
659.74	72.56
659.89	79.58
660.03	16.38
660.17	0.00
660.32	30.43
660.46	21.06
660.60	32.77
660.74	25.75
660.89	9.36
661.03	42.13
661.17	84.26
661.32	53.83
661.46	102.98
661.60	46.81
661.74	65.54
661.89	119.37
662.03	105.32
662.17	14.04
662.31	25.75
662.46	23.41
662.60	74.90
662.74	63.19
662.88	86.60
663.03	63.19
663.17	46.81
663.31	58.51
663.45	93.62
663.60	11.70
663.74	102.98
663.88	86.60
664.02	86.60
664.17	23.41
664.31	74.90
664.45	63.19
664.59	72.56
664.73	117.03
664.88	35.11
665.02	74.90
665.16	21.06
665.30	51.49
665.44	0.00
665.59	14.04
665.73	100.64
665.87	39.79
666.01	18.72
666.15	53.83
666.29	28.09
666.44	0.00
666.58	0.00
666.72	4.68
666.86	32.77
667.00	30.43
667.14	60.85
667.28	58.51
667.43	42.13
667.57	86.60
667.71	46.81
667.85	53.83
667.99	124.05
668.13	23.41
668.27	70.22
668.41	21.06
668.56	51.49
668.70	138.09
668.84	46.81
668.98	14.04
669.12	44.47
669.26	79.58
669.40	95.96
669.54	74.90
669.68	79.58
669.82	30.43
669.96	0.00
670.10	93.62
670.25	79.58
670.39	25.75
670.53	84.26
670.67	77.24
670.81	0.00
670.95	4.68
671.09	0.00
671.23	51.49
671.37	98.30
671.51	70.22
671.65	2.34
671.79	23.41
671.93	30.43
672.07	65.54
672.21	58.51
672.35	23.41
672.49	56.17
672.63	56.17
672.77	74.90
672.91	16.38
673.05	65.54
673.19	21.06
673.33	46.81
673.47	88.94
673.61	58.51
673.75	105.32
673.89	0.00
674.03	49.15
674.17	0.00
674.31	88.94
674.45	91.28
674.59	58.51
674.73	2.34
674.87	53.83
675.01	42.13
675.15	46.81
675.29	32.77
675.43	95.96
675.56	126.39
675.70	0.00
675.84	49.15
675.98	79.58
676.12	121.71
676.26	131.07
676.40	16.38
676.54	7.02
676.68	25.75
676.82	67.88
676.96	28.09
677.10	37.45
677.23	67.88
677.37	51.49
677.51	23.41
677.65	0.00
677.79	39.79
677.93	32.77
678.07	44.47
678.21	51.49
678.34	152.13
678.48	0.00
678.62	0.00
678.76	0.00
678.90	0.00
679.04	37.45
679.18	56.17
679.31	0.00
679.45	107.66
679.59	112.35
679.73	65.54
679.87	30.43
680.00	79.58
680.14	2.34
680.28	60.85
680.42	63.19
680.56	49.15
680.70	0.00
680.83	65.54
680.97	11.70
681.11	154.48
681.25	49.15
681.39	81.92
681.52	74.90
681.66	35.11
681.80	14.04
681.94	44.47
682.07	0.00
682.21	44.47
682.35	81.92
682.49	65.54
682.62	46.81
682.76	65.54
682.90	53.83
683.04	46.81
683.17	88.94
683.31	72.56
683.45	42.13
683.59	74.90
683.72	9.36
683.86	46.81
684.00	9.36
684.13	0.00
684.27	0.00
684.41	56.17
684.55	14.04
684.68	35.11
684.82	39.79
684.96	46.81
685.09	0.00
685.23	0.00
685.37	67.88
685.50	0.00
685.64	2.34
685.78	14.04
685.91	53.83
686.05	58.51
686.19	0.00
686.32	14.04
686.46	18.72
686.60	39.79
686.73	42.13
686.87	84.26
687.01	16.38
687.14	25.75
687.28	110.01
687.42	51.49
687.55	53.83
687.69	35.11
687.82	18.72
687.96	88.94
688.10	9.36
688.23	65.54
688.37	37.45
688.50	0.00
688.64	51.49
688.78	11.70
688.91	9.36
689.05	42.13
689.18	58.51
689.32	0.00
689.46	23.41
689.59	0.00
689.73	0.00
689.86	93.62
690.00	46.81
690.13	0.00
690.27	81.92
690.41	9.36
690.54	28.09
690.68	77.24
690.81	51.49
690.95	0.00
691.08	63.19
691.22	0.00
691.35	32.77
691.49	65.54
691.62	46.81
691.76	91.28
691.89	16.38
692.03	58.51
692.16	0.00
692.30	18.72
692.43	0.00
692.57	0.00
692.70	131.07
692.84	58.51
692.97	91.28
693.11	56.17
693.24	140.43
693.38	77.24
693.51	65.54
693.65	9.36
693.78	56.17
693.92	25.75
694.05	58.51
694.19	46.81
694.32	74.90
694.45	18.72
694.59	32.77
694.72	58.51
694.86	25.75
694.99	0.00
695.13	72.56
695.26	21.06
695.39	49.15
695.53	0.00
695.66	30.43
695.80	46.81
695.93	25.75
696.07	32.77
696.20	0.00
696.33	9.36
696.47	58.51
696.60	63.19
696.73	88.94
696.87	81.92
697.00	63.19
697.14	11.70
697.27	25.75
697.40	30.43
697.54	28.09
697.67	35.11
697.80	42.13
697.94	25.75
698.07	0.00
698.21	2.34
698.34	16.38
698.47	100.64
698.61	4.68
698.74	16.38
698.87	32.77
699.01	28.09
699.14	42.13
699.27	44.47
699.40	0.00
699.54	9.36
699.67	70.22
699.80	95.96
699.94	25.75
700.07	67.88
700.20	39.79
700.34	42.13
700.47	65.54
700.60	0.00
700.73	28.09
700.87	46.81
701.00	86.60
701.13	42.13
701.26	7.02
701.40	11.70
701.53	4.68
701.66	37.45
701.79	25.75
701.93	37.45
702.06	16.38
702.19	30.43
702.32	30.43
702.46	56.17
702.59	2.34
702.72	0.00
702.85	14.04
702.99	93.62
703.12	39.79
703.25	18.72
703.38	100.64
703.51	25.75
703.65	0.00
703.78	32.77
703.91	0.00
704.04	0.00
704.17	58.51
704.31	18.72
704.44	0.00
704.57	79.58
704.70	32.77
704.83	74.90
704.96	25.75
705.10	4.68
705.23	56.17
>>>>>End Processed Spectral Data<<<<<
