SpectraSuite Data File
++++++++++++++++++++++++++++++++++++
Date: Fri Oct 04 12:13:33 GMT-05:00 2013
User: price-jones
Dark Spectrum Present: No
Reference Spectrum Present: No
Number of Sampled Component Spectra: 1
Spectrometers: USB2+H05261
Integration Time (usec): 10000 (USB2+H05261)
Spectra Averaged: 1 (USB2+H05261)
Boxcar Smoothing: 0 (USB2+H05261)
Correct for Electrical Dark: No (USB2+H05261)
Strobe/Lamp Enabled: No (USB2+H05261)
Correct for Detector Non-linearity: No (USB2+H05261)
Correct for Stray Light: No (USB2+H05261)
Number of Pixels in Processed Spectrum: 2048
>>>>>Begin Processed Spectral Data<<<<<
365.73	0.00
365.92	0.00
366.12	0.00
366.32	0.00
366.52	0.00
366.72	0.00
366.91	0.00
367.11	0.00
367.31	0.00
367.51	0.00
367.70	0.00
367.90	0.00
368.10	0.00
368.30	0.00
368.49	0.00
368.69	0.00
368.89	0.00
369.09	0.00
369.28	0.00
369.48	0.00
369.68	0.00
369.87	0.00
370.07	0.00
370.27	0.00
370.47	0.00
370.66	0.00
370.86	0.00
371.06	0.00
371.25	0.00
371.45	0.00
371.65	0.00
371.84	9.36
372.04	0.00
372.24	0.00
372.44	0.00
372.63	53.83
372.83	0.00
373.03	9.36
373.22	7.02
373.42	0.00
373.62	0.00
373.81	35.11
374.01	63.19
374.21	9.36
374.40	0.00
374.60	81.92
374.79	67.88
374.99	42.13
375.19	0.00
375.38	56.17
375.58	32.77
375.78	0.00
375.97	0.00
376.17	7.02
376.37	9.36
376.56	51.49
376.76	91.28
376.95	0.00
377.15	18.72
377.35	32.77
377.54	11.70
377.74	0.00
377.93	14.04
378.13	14.04
378.33	32.77
378.52	79.58
378.72	28.09
378.91	0.00
379.11	0.00
379.31	39.79
379.50	0.00
379.70	0.00
379.89	25.75
380.09	0.00
380.28	0.00
380.48	16.38
380.68	9.36
380.87	4.68
381.07	0.00
381.26	37.45
381.46	7.02
381.65	39.79
381.85	0.00
382.04	0.00
382.24	4.68
382.43	67.88
382.63	0.00
382.83	0.00
383.02	60.85
383.22	51.49
383.41	25.75
383.61	0.00
383.80	0.00
384.00	4.68
384.19	16.38
384.39	0.00
384.58	65.54
384.78	21.06
384.97	0.00
385.17	0.00
385.36	0.00
385.56	23.41
385.75	0.00
385.95	0.00
386.14	11.70
386.34	18.72
386.53	4.68
386.72	16.38
386.92	79.58
387.11	0.00
387.31	0.00
387.50	7.02
387.70	18.72
387.89	91.28
388.09	9.36
388.28	21.06
388.48	53.83
388.67	32.77
388.86	39.79
389.06	0.00
389.25	21.06
389.45	4.68
389.64	25.75
389.84	49.15
390.03	42.13
390.22	0.00
390.42	0.00
390.61	44.47
390.81	37.45
391.00	88.94
391.19	18.72
391.39	67.88
391.58	124.05
391.78	0.00
391.97	14.04
392.16	21.06
392.36	35.11
392.55	37.45
392.75	60.85
392.94	58.51
393.13	11.70
393.33	0.00
393.52	39.79
393.71	42.13
393.91	23.41
394.10	0.00
394.29	0.00
394.49	121.71
394.68	58.51
394.88	0.00
395.07	105.32
395.26	65.54
395.46	7.02
395.65	44.47
395.84	51.49
396.04	9.36
396.23	37.45
396.42	0.00
396.62	0.00
396.81	14.04
397.00	70.22
397.19	74.90
397.39	72.56
397.58	2.34
397.77	46.81
397.97	67.88
398.16	30.43
398.35	60.85
398.55	49.15
398.74	79.58
398.93	21.06
399.12	60.85
399.32	93.62
399.51	30.43
399.70	0.00
399.90	25.75
400.09	81.92
400.28	9.36
400.47	0.00
400.67	30.43
400.86	39.79
401.05	53.83
401.24	60.85
401.44	77.24
401.63	0.00
401.82	0.00
402.01	44.47
402.21	23.41
402.40	0.00
402.59	79.58
402.78	0.00
402.97	9.36
403.17	25.75
403.36	16.38
403.55	37.45
403.74	63.19
403.93	0.00
404.13	0.00
404.32	23.41
404.51	21.06
404.70	0.00
404.89	51.49
405.09	18.72
405.28	0.00
405.47	30.43
405.66	18.72
405.85	25.75
406.05	14.04
406.24	67.88
406.43	0.00
406.62	32.77
406.81	0.00
407.00	81.92
407.20	100.64
407.39	32.77
407.58	67.88
407.77	70.22
407.96	81.92
408.15	2.34
408.34	98.30
408.54	56.17
408.73	0.00
408.92	100.64
409.11	67.88
409.30	63.19
409.49	56.17
409.68	0.00
409.87	0.00
410.07	4.68
410.26	30.43
410.45	60.85
410.64	21.06
410.83	63.19
411.02	74.90
411.21	46.81
411.40	74.90
411.59	105.32
411.78	0.00
411.98	32.77
412.17	42.13
412.36	0.00
412.55	0.00
412.74	60.85
412.93	72.56
413.12	32.77
413.31	42.13
413.50	53.83
413.69	46.81
413.88	21.06
414.07	93.62
414.26	14.04
414.45	23.41
414.64	88.94
414.83	42.13
415.02	32.77
415.22	16.38
415.41	119.37
415.60	18.72
415.79	0.00
415.98	14.04
416.17	39.79
416.36	39.79
416.55	21.06
416.74	39.79
416.93	0.00
417.12	44.47
417.31	7.02
417.50	9.36
417.69	30.43
417.88	0.00
418.07	37.45
418.26	37.45
418.45	63.19
418.64	14.04
418.83	0.00
419.02	16.38
419.21	0.00
419.39	28.09
419.58	32.77
419.77	0.00
419.96	0.00
420.15	18.72
420.34	65.54
420.53	67.88
420.72	53.83
420.91	21.06
421.10	30.43
421.29	2.34
421.48	16.38
421.67	53.83
421.86	21.06
422.05	21.06
422.24	0.00
422.43	44.47
422.61	0.00
422.80	42.13
422.99	32.77
423.18	28.09
423.37	128.73
423.56	44.47
423.75	4.68
423.94	0.00
424.13	102.98
424.32	65.54
424.50	44.47
424.69	84.26
424.88	79.58
425.07	84.26
425.26	84.26
425.45	39.79
425.64	28.09
425.83	11.70
426.01	51.49
426.20	0.00
426.39	30.43
426.58	9.36
426.77	23.41
426.96	18.72
427.15	0.00
427.33	0.00
427.52	0.00
427.71	49.15
427.90	7.02
428.09	37.45
428.28	0.00
428.46	58.51
428.65	0.00
428.84	14.04
429.03	21.06
429.22	4.68
429.40	14.04
429.59	42.13
429.78	32.77
429.97	32.77
430.16	0.00
430.34	49.15
430.53	63.19
430.72	16.38
430.91	21.06
431.10	39.79
431.28	0.00
431.47	58.51
431.66	0.00
431.85	37.45
432.03	0.00
432.22	51.49
432.41	23.41
432.60	25.75
432.79	63.19
432.97	4.68
433.16	49.15
433.35	0.00
433.54	39.79
433.72	60.85
433.91	65.54
434.10	37.45
434.28	28.09
434.47	0.00
434.66	60.85
434.85	58.51
435.03	72.56
435.22	16.38
435.41	0.00
435.59	81.92
435.78	56.17
435.97	35.11
436.16	77.24
436.34	0.00
436.53	0.00
436.72	56.17
436.90	21.06
437.09	21.06
437.28	11.70
437.46	51.49
437.65	81.92
437.84	0.00
438.02	39.79
438.21	28.09
438.40	0.00
438.58	0.00
438.77	72.56
438.96	4.68
439.14	63.19
439.33	2.34
439.52	30.43
439.70	0.00
439.89	60.85
440.08	18.72
440.26	9.36
440.45	0.00
440.63	46.81
440.82	51.49
441.01	0.00
441.19	0.00
441.38	46.81
441.57	100.64
441.75	25.75
441.94	77.24
442.12	9.36
442.31	9.36
442.50	0.00
442.68	74.90
442.87	0.00
443.05	28.09
443.24	23.41
443.43	37.45
443.61	25.75
443.80	117.03
443.98	53.83
444.17	105.32
444.35	23.41
444.54	11.70
444.73	51.49
444.91	86.60
445.10	30.43
445.28	65.54
445.47	32.77
445.65	16.38
445.84	39.79
446.02	0.00
446.21	30.43
446.39	0.00
446.58	4.68
446.77	65.54
446.95	2.34
447.14	4.68
447.32	28.09
447.51	21.06
447.69	93.62
447.88	25.75
448.06	32.77
448.25	49.15
448.43	0.00
448.62	49.15
448.80	74.90
448.99	30.43
449.17	0.00
449.36	105.32
449.54	65.54
449.73	51.49
449.91	0.00
450.10	0.00
450.28	37.45
450.46	60.85
450.65	79.58
450.83	14.04
451.02	51.49
451.20	63.19
451.39	58.51
451.57	60.85
451.76	65.54
451.94	42.13
452.13	49.15
452.31	42.13
452.49	25.75
452.68	32.77
452.86	60.85
453.05	58.51
453.23	0.00
453.42	65.54
453.60	0.00
453.78	51.49
453.97	23.41
454.15	65.54
454.34	44.47
454.52	11.70
454.70	35.11
454.89	58.51
455.07	39.79
455.26	58.51
455.44	0.00
455.62	16.38
455.81	9.36
455.99	91.28
456.17	67.88
456.36	49.15
456.54	51.49
456.73	84.26
456.91	14.04
457.09	32.77
457.28	49.15
457.46	98.30
457.64	37.45
457.83	51.49
458.01	23.41
458.19	49.15
458.38	42.13
458.56	16.38
458.74	16.38
458.93	32.77
459.11	25.75
459.29	0.00
459.48	72.56
459.66	70.22
459.84	81.92
460.03	49.15
460.21	65.54
460.39	65.54
460.57	0.00
460.76	0.00
460.94	63.19
461.12	0.00
461.31	67.88
461.49	70.22
461.67	53.83
461.85	28.09
462.04	30.43
462.22	95.96
462.40	0.00
462.59	9.36
462.77	16.38
462.95	86.60
463.13	14.04
463.32	23.41
463.50	44.47
463.68	0.00
463.86	0.00
464.05	49.15
464.23	72.56
464.41	28.09
464.59	86.60
464.78	63.19
464.96	93.62
465.14	21.06
465.32	35.11
465.50	0.00
465.69	60.85
465.87	51.49
466.05	112.35
466.23	28.09
466.41	7.02
466.60	0.00
466.78	51.49
466.96	21.06
467.14	42.13
467.32	86.60
467.51	72.56
467.69	9.36
467.87	0.00
468.05	25.75
468.23	79.58
468.41	23.41
468.60	67.88
468.78	56.17
468.96	4.68
469.14	67.88
469.32	44.47
469.50	23.41
469.69	72.56
469.87	67.88
470.05	70.22
470.23	46.81
470.41	65.54
470.59	60.85
470.77	77.24
470.95	53.83
471.14	0.00
471.32	35.11
471.50	25.75
471.68	37.45
471.86	0.00
472.04	18.72
472.22	7.02
472.40	21.06
472.58	107.66
472.77	0.00
472.95	60.85
473.13	0.00
473.31	0.00
473.49	25.75
473.67	65.54
473.85	11.70
474.03	72.56
474.21	56.17
474.39	37.45
474.57	28.09
474.75	119.37
474.93	70.22
475.12	37.45
475.30	35.11
475.48	95.96
475.66	84.26
475.84	30.43
476.02	95.96
476.20	46.81
476.38	16.38
476.56	0.00
476.74	42.13
476.92	0.00
477.10	9.36
477.28	0.00
477.46	28.09
477.64	30.43
477.82	0.00
478.00	32.77
478.18	39.79
478.36	81.92
478.54	0.00
478.72	4.68
478.90	46.81
479.08	79.58
479.26	18.72
479.44	44.47
479.62	21.06
479.80	23.41
479.98	81.92
480.16	25.75
480.34	4.68
480.52	14.04
480.70	0.00
480.88	72.56
481.06	21.06
481.24	25.75
481.41	42.13
481.59	95.96
481.77	88.94
481.95	37.45
482.13	74.90
482.31	42.13
482.49	65.54
482.67	42.13
482.85	0.00
483.03	32.77
483.21	152.13
483.39	7.02
483.57	74.90
483.74	65.54
483.92	81.92
484.10	30.43
484.28	0.00
484.46	23.41
484.64	102.98
484.82	11.70
485.00	88.94
485.18	30.43
485.35	79.58
485.53	0.00
485.71	0.00
485.89	2.34
486.07	0.00
486.25	65.54
486.43	114.69
486.61	117.03
486.78	42.13
486.96	65.54
487.14	0.00
487.32	84.26
487.50	102.98
487.68	11.70
487.85	0.00
488.03	30.43
488.21	86.60
488.39	117.03
488.57	58.51
488.75	56.17
488.92	23.41
489.10	60.85
489.28	56.17
489.46	60.85
489.64	53.83
489.81	0.00
489.99	0.00
490.17	14.04
490.35	91.28
490.53	46.81
490.70	25.75
490.88	0.00
491.06	9.36
491.24	37.45
491.41	0.00
491.59	16.38
491.77	51.49
491.95	28.09
492.13	39.79
492.30	0.00
492.48	25.75
492.66	86.60
492.84	88.94
493.01	0.00
493.19	0.00
493.37	14.04
493.54	0.00
493.72	135.75
493.90	102.98
494.08	77.24
494.25	21.06
494.43	147.45
494.61	102.98
494.79	42.13
494.96	0.00
495.14	100.64
495.32	14.04
495.49	102.98
495.67	25.75
495.85	18.72
496.02	39.79
496.20	65.54
496.38	56.17
496.55	46.81
496.73	135.75
496.91	23.41
497.09	86.60
497.26	121.71
497.44	37.45
497.62	74.90
497.79	0.00
497.97	21.06
498.14	30.43
498.32	63.19
498.50	16.38
498.67	110.01
498.85	42.13
499.03	0.00
499.20	0.00
499.38	95.96
499.56	114.69
499.73	63.19
499.91	51.49
500.08	0.00
500.26	119.37
500.44	28.09
500.61	53.83
500.79	0.00
500.97	21.06
501.14	128.73
501.32	32.77
501.49	32.77
501.67	28.09
501.84	0.00
502.02	28.09
502.20	2.34
502.37	0.00
502.55	63.19
502.72	58.51
502.90	56.17
503.07	44.47
503.25	117.03
503.43	30.43
503.60	14.04
503.78	37.45
503.95	60.85
504.13	65.54
504.30	105.32
504.48	117.03
504.65	49.15
504.83	91.28
505.01	0.00
505.18	63.19
505.36	56.17
505.53	16.38
505.71	65.54
505.88	63.19
506.06	119.37
506.23	37.45
506.41	56.17
506.58	126.39
506.76	21.06
506.93	44.47
507.11	114.69
507.28	67.88
507.46	70.22
507.63	98.30
507.81	21.06
507.98	70.22
508.16	39.79
508.33	72.56
508.50	88.94
508.68	149.79
508.85	37.45
509.03	72.56
509.20	124.05
509.38	28.09
509.55	11.70
509.73	79.58
509.90	28.09
510.08	60.85
510.25	81.92
510.42	7.02
510.60	30.43
510.77	28.09
510.95	28.09
511.12	28.09
511.30	56.17
511.47	25.75
511.64	46.81
511.82	49.15
511.99	53.83
512.17	14.04
512.34	79.58
512.51	0.00
512.69	110.01
512.86	35.11
513.04	28.09
513.21	44.47
513.38	161.50
513.56	91.28
513.73	21.06
513.90	88.94
514.08	149.79
514.25	72.56
514.43	25.75
514.60	16.38
514.77	91.28
514.95	0.00
515.12	79.58
515.29	63.19
515.47	30.43
515.64	44.47
515.81	0.00
515.99	67.88
516.16	70.22
516.33	100.64
516.51	77.24
516.68	91.28
516.85	39.79
517.03	74.90
517.20	0.00
517.37	7.02
517.54	18.72
517.72	91.28
517.89	2.34
518.06	149.79
518.24	74.90
518.41	23.41
518.58	58.51
518.75	74.90
518.93	23.41
519.10	9.36
519.27	14.04
519.45	46.81
519.62	140.43
519.79	74.90
519.96	30.43
520.14	42.13
520.31	16.38
520.48	53.83
520.65	51.49
520.83	84.26
521.00	142.77
521.17	56.17
521.34	56.17
521.52	60.85
521.69	60.85
521.86	77.24
522.03	63.19
522.20	72.56
522.38	39.79
522.55	65.54
522.72	21.06
522.89	35.11
523.07	25.75
523.24	49.15
523.41	65.54
523.58	0.00
523.75	74.90
523.92	16.38
524.10	161.50
524.27	81.92
524.44	39.79
524.61	100.64
524.78	25.75
524.96	88.94
525.13	14.04
525.30	35.11
525.47	63.19
525.64	74.90
525.81	49.15
525.98	63.19
526.16	72.56
526.33	58.51
526.50	65.54
526.67	18.72
526.84	84.26
527.01	44.47
527.18	44.47
527.36	44.47
527.53	81.92
527.70	7.02
527.87	67.88
528.04	23.41
528.21	28.09
528.38	49.15
528.55	42.13
528.72	0.00
528.89	74.90
529.07	28.09
529.24	37.45
529.41	51.49
529.58	81.92
529.75	14.04
529.92	35.11
530.09	28.09
530.26	168.52
530.43	67.88
530.60	72.56
530.77	25.75
530.94	42.13
531.11	67.88
531.28	102.98
531.46	0.00
531.63	25.75
531.80	63.19
531.97	70.22
532.14	107.66
532.31	42.13
532.48	93.62
532.65	124.05
532.82	138.09
532.99	32.77
533.16	16.38
533.33	42.13
533.50	88.94
533.67	4.68
533.84	39.79
534.01	93.62
534.18	28.09
534.35	126.39
534.52	37.45
534.69	0.00
534.86	16.38
535.03	42.13
535.20	58.51
535.37	4.68
535.54	49.15
535.71	112.35
535.88	14.04
536.05	117.03
536.22	51.49
536.38	110.01
536.55	11.70
536.72	9.36
536.89	77.24
537.06	23.41
537.23	98.30
537.40	0.00
537.57	72.56
537.74	91.28
537.91	56.17
538.08	11.70
538.25	53.83
538.42	95.96
538.59	53.83
538.75	0.00
538.92	65.54
539.09	135.75
539.26	0.00
539.43	56.17
539.60	63.19
539.77	60.85
539.94	46.81
540.11	56.17
540.28	74.90
540.44	95.96
540.61	133.41
540.78	56.17
540.95	72.56
541.12	95.96
541.29	100.64
541.46	117.03
541.62	37.45
541.79	86.60
541.96	0.00
542.13	49.15
542.30	63.19
542.47	30.43
542.63	44.47
542.80	56.17
542.97	37.45
543.14	39.79
543.31	30.43
543.48	72.56
543.64	63.19
543.81	84.26
543.98	72.56
544.15	65.54
544.32	23.41
544.48	49.15
544.65	21.06
544.82	67.88
544.99	77.24
545.16	44.47
545.32	23.41
545.49	11.70
545.66	67.88
545.83	67.88
546.00	58.51
546.16	81.92
546.33	42.13
546.50	9.36
546.67	112.35
546.83	44.47
547.00	81.92
547.17	0.00
547.34	81.92
547.50	56.17
547.67	4.68
547.84	49.15
548.00	30.43
548.17	39.79
548.34	32.77
548.51	53.83
548.67	37.45
548.84	140.43
549.01	49.15
549.18	37.45
549.34	32.77
549.51	67.88
549.68	53.83
549.84	44.47
550.01	74.90
550.18	28.09
550.34	79.58
550.51	23.41
550.68	44.47
550.84	42.13
551.01	44.47
551.18	84.26
551.34	72.56
551.51	14.04
551.68	88.94
551.84	81.92
552.01	44.47
552.18	102.98
552.34	56.17
552.51	4.68
552.68	84.26
552.84	51.49
553.01	0.00
553.18	81.92
553.34	117.03
553.51	98.30
553.67	86.60
553.84	32.77
554.01	60.85
554.17	49.15
554.34	39.79
554.51	84.26
554.67	28.09
554.84	88.94
555.00	39.79
555.17	117.03
555.33	95.96
555.50	39.79
555.67	126.39
555.83	98.30
556.00	0.00
556.16	100.64
556.33	145.11
556.50	30.43
556.66	86.60
556.83	84.26
556.99	105.32
557.16	39.79
557.32	42.13
557.49	35.11
557.65	49.15
557.82	86.60
557.98	58.51
558.15	63.19
558.32	42.13
558.48	30.43
558.65	0.00
558.81	11.70
558.98	72.56
559.14	25.75
559.31	25.75
559.47	42.13
559.64	0.00
559.80	98.30
559.97	70.22
560.13	56.17
560.30	46.81
560.46	46.81
560.63	0.00
560.79	60.85
560.96	46.81
561.12	42.13
561.29	131.07
561.45	23.41
561.61	77.24
561.78	18.72
561.94	93.62
562.11	112.35
562.27	23.41
562.44	51.49
562.60	35.11
562.77	100.64
562.93	88.94
563.10	42.13
563.26	0.00
563.42	0.00
563.59	58.51
563.75	32.77
563.92	77.24
564.08	56.17
564.24	39.79
564.41	16.38
564.57	72.56
564.74	28.09
564.90	9.36
565.07	49.15
565.23	9.36
565.39	72.56
565.56	37.45
565.72	42.13
565.88	11.70
566.05	74.90
566.21	72.56
566.38	93.62
566.54	0.00
566.70	46.81
566.87	60.85
567.03	105.32
567.19	102.98
567.36	72.56
567.52	74.90
567.68	63.19
567.85	0.00
568.01	23.41
568.17	79.58
568.34	49.15
568.50	51.49
568.66	93.62
568.83	56.17
568.99	21.06
569.15	21.06
569.32	32.77
569.48	0.00
569.64	65.54
569.81	14.04
569.97	4.68
570.13	91.28
570.30	4.68
570.46	0.00
570.62	53.83
570.78	0.00
570.95	28.09
571.11	70.22
571.27	44.47
571.43	14.04
571.60	65.54
571.76	93.62
571.92	30.43
572.09	42.13
572.25	46.81
572.41	18.72
572.57	84.26
572.74	30.43
572.90	9.36
573.06	42.13
573.22	16.38
573.38	70.22
573.55	63.19
573.71	49.15
573.87	32.77
574.03	72.56
574.20	4.68
574.36	39.79
574.52	53.83
574.68	67.88
574.84	147.45
575.01	9.36
575.17	65.54
575.33	9.36
575.49	63.19
575.65	77.24
575.82	37.45
575.98	0.00
576.14	58.51
576.30	4.68
576.46	100.64
576.62	74.90
576.79	0.00
576.95	81.92
577.11	0.00
577.27	28.09
577.43	14.04
577.59	117.03
577.75	77.24
577.92	35.11
578.08	65.54
578.24	74.90
578.40	79.58
578.56	49.15
578.72	37.45
578.88	63.19
579.04	44.47
579.21	91.28
579.37	0.00
579.53	65.54
579.69	39.79
579.85	0.00
580.01	9.36
580.17	65.54
580.33	63.19
580.49	81.92
580.65	72.56
580.82	112.35
580.98	4.68
581.14	70.22
581.30	21.06
581.46	107.66
581.62	23.41
581.78	21.06
581.94	25.75
582.10	21.06
582.26	0.00
582.42	44.47
582.58	11.70
582.74	0.00
582.90	105.32
583.06	44.47
583.22	84.26
583.38	42.13
583.54	74.90
583.70	25.75
583.86	46.81
584.02	35.11
584.18	81.92
584.34	35.11
584.50	4.68
584.66	65.54
584.82	95.96
584.98	39.79
585.14	42.13
585.30	4.68
585.46	7.02
585.62	86.60
585.78	56.17
585.94	25.75
586.10	42.13
586.26	0.00
586.42	79.58
586.58	65.54
586.74	56.17
586.90	72.56
587.06	60.85
587.22	39.79
587.38	0.00
587.54	88.94
587.70	53.83
587.86	16.38
588.02	28.09
588.18	21.06
588.34	84.26
588.49	35.11
588.65	110.01
588.81	126.39
588.97	53.83
589.13	100.64
589.29	21.06
589.45	0.00
589.61	18.72
589.77	63.19
589.93	63.19
590.08	0.00
590.24	49.15
590.40	0.00
590.56	91.28
590.72	77.24
590.88	4.68
591.04	56.17
591.20	18.72
591.35	98.30
591.51	0.00
591.67	44.47
591.83	44.47
591.99	28.09
592.15	46.81
592.31	7.02
592.46	0.00
592.62	49.15
592.78	49.15
592.94	0.00
593.10	37.45
593.26	84.26
593.41	84.26
593.57	67.88
593.73	70.22
593.89	14.04
594.05	119.37
594.20	35.11
594.36	25.75
594.52	114.69
594.68	100.64
594.84	60.85
594.99	4.68
595.15	0.00
595.31	0.00
595.47	70.22
595.62	0.00
595.78	39.79
595.94	60.85
596.10	105.32
596.25	32.77
596.41	74.90
596.57	81.92
596.73	95.96
596.88	63.19
597.04	63.19
597.20	95.96
597.36	51.49
597.51	138.09
597.67	105.32
597.83	21.06
597.99	70.22
598.14	70.22
598.30	91.28
598.46	70.22
598.61	14.04
598.77	37.45
598.93	28.09
599.09	100.64
599.24	114.69
599.40	35.11
599.56	65.54
599.71	79.58
599.87	72.56
600.03	2.34
600.18	28.09
600.34	37.45
600.50	0.00
600.65	9.36
600.81	14.04
600.97	0.00
601.12	49.15
601.28	86.60
601.44	44.47
601.59	23.41
601.75	44.47
601.91	65.54
602.06	39.79
602.22	32.77
602.37	0.00
602.53	7.02
602.69	74.90
602.84	30.43
603.00	39.79
603.16	138.09
603.31	37.45
603.47	67.88
603.62	46.81
603.78	0.00
603.94	63.19
604.09	65.54
604.25	51.49
604.40	4.68
604.56	30.43
604.71	11.70
604.87	30.43
605.03	35.11
605.18	67.88
605.34	0.00
605.49	51.49
605.65	58.51
605.80	23.41
605.96	53.83
606.12	0.00
606.27	95.96
606.43	56.17
606.58	53.83
606.74	72.56
606.89	0.00
607.05	72.56
607.20	65.54
607.36	0.00
607.51	16.38
607.67	74.90
607.82	51.49
607.98	30.43
608.13	107.66
608.29	67.88
608.44	88.94
608.60	44.47
608.75	51.49
608.91	14.04
609.06	46.81
609.22	56.17
609.37	14.04
609.53	77.24
609.68	58.51
609.84	35.11
609.99	86.60
610.15	65.54
610.30	14.04
610.46	28.09
610.61	79.58
610.76	65.54
610.92	51.49
611.07	63.19
611.23	98.30
611.38	53.83
611.54	30.43
611.69	2.34
611.84	91.28
612.00	65.54
612.15	53.83
612.31	84.26
612.46	16.38
612.62	72.56
612.77	0.00
612.92	74.90
613.08	0.00
613.23	91.28
613.39	60.85
613.54	98.30
613.69	37.45
613.85	0.00
614.00	77.24
614.15	65.54
614.31	81.92
614.46	63.19
614.62	0.00
614.77	53.83
614.92	32.77
615.08	25.75
615.23	28.09
615.38	44.47
615.54	67.88
615.69	98.30
615.84	42.13
616.00	77.24
616.15	98.30
616.30	63.19
616.46	14.04
616.61	0.00
616.76	79.58
616.92	81.92
617.07	37.45
617.22	37.45
617.37	25.75
617.53	0.00
617.68	0.00
617.83	77.24
617.99	28.09
618.14	58.51
618.29	46.81
618.45	67.88
618.60	88.94
618.75	0.00
618.90	42.13
619.06	44.47
619.21	63.19
619.36	63.19
619.51	84.26
619.67	23.41
619.82	56.17
619.97	86.60
620.12	51.49
620.28	42.13
620.43	44.47
620.58	56.17
620.73	93.62
620.89	0.00
621.04	0.00
621.19	51.49
621.34	98.30
621.49	37.45
621.65	0.00
621.80	124.05
621.95	91.28
622.10	44.47
622.25	72.56
622.41	35.11
622.56	79.58
622.71	77.24
622.86	77.24
623.01	63.19
623.16	53.83
623.32	7.02
623.47	74.90
623.62	37.45
623.77	42.13
623.92	63.19
624.07	0.00
624.23	32.77
624.38	28.09
624.53	42.13
624.68	70.22
624.83	112.35
624.98	39.79
625.13	32.77
625.29	30.43
625.44	0.00
625.59	56.17
625.74	0.00
625.89	7.02
626.04	0.00
626.19	110.01
626.34	95.96
626.49	53.83
626.65	37.45
626.80	72.56
626.95	28.09
627.10	53.83
627.25	23.41
627.40	2.34
627.55	37.45
627.70	0.00
627.85	70.22
628.00	67.88
628.15	49.15
628.30	93.62
628.45	117.03
628.60	0.00
628.76	2.34
628.91	25.75
629.06	23.41
629.21	49.15
629.36	7.02
629.51	4.68
629.66	46.81
629.81	49.15
629.96	74.90
630.11	95.96
630.26	32.77
630.41	9.36
630.56	30.43
630.71	0.00
630.86	51.49
631.01	23.41
631.16	0.00
631.31	67.88
631.46	39.79
631.61	46.81
631.76	23.41
631.91	72.56
632.06	16.38
632.21	79.58
632.36	0.00
632.51	30.43
632.66	25.75
632.81	107.66
632.96	49.15
633.10	81.92
633.25	37.45
633.40	56.17
633.55	86.60
633.70	7.02
633.85	0.00
634.00	42.13
634.15	67.88
634.30	53.83
634.45	65.54
634.60	30.43
634.75	30.43
634.90	51.49
635.05	145.11
635.19	105.32
635.34	18.72
635.49	77.24
635.64	53.83
635.79	0.00
635.94	112.35
636.09	60.85
636.24	56.17
636.39	0.00
636.53	39.79
636.68	25.75
636.83	72.56
636.98	32.77
637.13	84.26
637.28	37.45
637.43	42.13
637.57	46.81
637.72	63.19
637.87	72.56
638.02	86.60
638.17	14.04
638.32	35.11
638.46	74.90
638.61	112.35
638.76	0.00
638.91	0.00
639.06	58.51
639.20	42.13
639.35	67.88
639.50	0.00
639.65	0.00
639.80	110.01
639.94	58.51
640.09	7.02
640.24	110.01
640.39	37.45
640.54	46.81
640.68	23.41
640.83	35.11
640.98	9.36
641.13	37.45
641.27	63.19
641.42	88.94
641.57	14.04
641.72	51.49
641.86	95.96
642.01	32.77
642.16	124.05
642.31	112.35
642.45	91.28
642.60	21.06
642.75	0.00
642.90	63.19
643.04	51.49
643.19	79.58
643.34	44.47
643.48	0.00
643.63	44.47
643.78	39.79
643.93	51.49
644.07	35.11
644.22	28.09
644.37	0.00
644.51	105.32
644.66	37.45
644.81	72.56
644.95	60.85
645.10	28.09
645.25	51.49
645.39	14.04
645.54	44.47
645.69	14.04
645.83	32.77
645.98	70.22
646.13	70.22
646.27	7.02
646.42	72.56
646.57	16.38
646.71	49.15
646.86	0.00
647.00	0.00
647.15	51.49
647.30	28.09
647.44	53.83
647.59	88.94
647.74	49.15
647.88	25.75
648.03	60.85
648.17	53.83
648.32	37.45
648.47	0.00
648.61	0.00
648.76	32.77
648.90	21.06
649.05	0.00
649.20	0.00
649.34	25.75
649.49	23.41
649.63	51.49
649.78	93.62
649.92	9.36
650.07	70.22
650.21	84.26
650.36	0.00
650.51	0.00
650.65	0.00
650.80	56.17
650.94	60.85
651.09	0.00
651.23	18.72
651.38	42.13
651.52	30.43
651.67	14.04
651.81	56.17
651.96	37.45
652.10	56.17
652.25	30.43
652.39	107.66
652.54	42.13
652.68	84.26
652.83	67.88
652.97	100.64
653.12	79.58
653.26	0.00
653.41	51.49
653.55	16.38
653.70	49.15
653.84	72.56
653.99	58.51
654.13	39.79
654.27	49.15
654.42	0.00
654.56	79.58
654.71	79.58
654.85	14.04
655.00	16.38
655.14	56.17
655.29	16.38
655.43	18.72
655.57	2.34
655.72	16.38
655.86	46.81
656.01	37.45
656.15	53.83
656.30	102.98
656.44	88.94
656.58	42.13
656.73	58.51
656.87	107.66
657.01	51.49
657.16	72.56
657.30	21.06
657.45	37.45
657.59	42.13
657.73	25.75
657.88	0.00
658.02	42.13
658.16	100.64
658.31	53.83
658.45	110.01
658.60	23.41
658.74	49.15
658.88	16.38
659.03	110.01
659.17	79.58
659.31	0.00
659.46	51.49
659.60	21.06
659.74	74.90
659.89	67.88
660.03	0.00
660.17	30.43
660.32	86.60
660.46	65.54
660.60	84.26
660.74	56.17
660.89	21.06
661.03	112.35
661.17	35.11
661.32	58.51
661.46	67.88
661.60	39.79
661.74	0.00
661.89	23.41
662.03	84.26
662.17	56.17
662.31	39.79
662.46	37.45
662.60	84.26
662.74	84.26
662.88	63.19
663.03	25.75
663.17	60.85
663.31	53.83
663.45	37.45
663.60	44.47
663.74	14.04
663.88	81.92
664.02	42.13
664.17	28.09
664.31	53.83
664.45	0.00
664.59	0.00
664.73	44.47
664.88	81.92
665.02	65.54
665.16	37.45
665.30	53.83
665.44	39.79
665.59	46.81
665.73	63.19
665.87	46.81
666.01	74.90
666.15	107.66
666.29	0.00
666.44	0.00
666.58	91.28
666.72	7.02
666.86	0.00
667.00	28.09
667.14	0.00
667.28	51.49
667.43	60.85
667.57	65.54
667.71	56.17
667.85	30.43
667.99	58.51
668.13	18.72
668.27	53.83
668.41	56.17
668.56	58.51
668.70	16.38
668.84	72.56
668.98	72.56
669.12	86.60
669.26	42.13
669.40	28.09
669.54	25.75
669.68	35.11
669.82	60.85
669.96	9.36
670.10	39.79
670.25	25.75
670.39	0.00
670.53	30.43
670.67	0.00
670.81	74.90
670.95	63.19
671.09	56.17
671.23	32.77
671.37	9.36
671.51	37.45
671.65	67.88
671.79	119.37
671.93	63.19
672.07	0.00
672.21	11.70
672.35	35.11
672.49	11.70
672.63	56.17
672.77	58.51
672.91	18.72
673.05	28.09
673.19	53.83
673.33	16.38
673.47	30.43
673.61	46.81
673.75	58.51
673.89	16.38
674.03	86.60
674.17	32.77
674.31	0.00
674.45	70.22
674.59	25.75
674.73	0.00
674.87	21.06
675.01	77.24
675.15	88.94
675.29	124.05
675.43	49.15
675.56	0.00
675.70	21.06
675.84	23.41
675.98	18.72
676.12	51.49
676.26	53.83
676.40	14.04
676.54	0.00
676.68	7.02
676.82	18.72
676.96	0.00
677.10	58.51
677.23	0.00
677.37	37.45
677.51	81.92
677.65	58.51
677.79	44.47
677.93	0.00
678.07	70.22
678.21	0.00
678.34	51.49
678.48	44.47
678.62	25.75
678.76	0.00
678.90	0.00
679.04	25.75
679.18	110.01
679.31	0.00
679.45	53.83
679.59	0.00
679.73	18.72
679.87	53.83
680.00	51.49
680.14	95.96
680.28	65.54
680.42	46.81
680.56	0.00
680.70	11.70
680.83	46.81
680.97	21.06
681.11	84.26
681.25	9.36
681.39	77.24
681.52	18.72
681.66	0.00
681.80	32.77
681.94	58.51
682.07	0.00
682.21	121.71
682.35	67.88
682.49	0.00
682.62	67.88
682.76	0.00
682.90	63.19
683.04	60.85
683.17	42.13
683.31	32.77
683.45	0.00
683.59	28.09
683.72	77.24
683.86	11.70
684.00	51.49
684.13	0.00
684.27	0.00
684.41	100.64
684.55	44.47
684.68	77.24
684.82	60.85
684.96	21.06
685.09	16.38
685.23	16.38
685.37	93.62
685.50	4.68
685.64	18.72
685.78	23.41
685.91	100.64
686.05	30.43
686.19	4.68
686.32	32.77
686.46	79.58
686.60	35.11
686.73	4.68
686.87	77.24
687.01	35.11
687.14	37.45
687.28	84.26
687.42	35.11
687.55	11.70
687.69	21.06
687.82	0.00
687.96	11.70
688.10	60.85
688.23	18.72
688.37	7.02
688.50	79.58
688.64	9.36
688.78	16.38
688.91	0.00
689.05	30.43
689.18	16.38
689.32	0.00
689.46	0.00
689.59	86.60
689.73	9.36
689.86	84.26
690.00	63.19
690.13	0.00
690.27	18.72
690.41	95.96
690.54	2.34
690.68	63.19
690.81	35.11
690.95	0.00
691.08	86.60
691.22	84.26
691.35	77.24
691.49	58.51
691.62	21.06
691.76	18.72
691.89	65.54
692.03	81.92
692.16	105.32
692.30	16.38
692.43	51.49
692.57	60.85
692.70	0.00
692.84	0.00
692.97	58.51
693.11	28.09
693.24	51.49
693.38	21.06
693.51	23.41
693.65	14.04
693.78	39.79
693.92	42.13
694.05	21.06
694.19	46.81
694.32	35.11
694.45	88.94
694.59	77.24
694.72	28.09
694.86	0.00
694.99	7.02
695.13	53.83
695.26	0.00
695.39	46.81
695.53	91.28
695.66	58.51
695.80	84.26
695.93	16.38
696.07	14.04
696.20	11.70
696.33	2.34
696.47	0.00
696.60	72.56
696.73	11.70
696.87	0.00
697.00	2.34
697.14	63.19
697.27	58.51
697.40	46.81
697.54	53.83
697.67	53.83
697.80	0.00
697.94	88.94
698.07	0.00
698.21	65.54
698.34	23.41
698.47	0.00
698.61	93.62
698.74	0.00
698.87	25.75
699.01	51.49
699.14	16.38
699.27	30.43
699.40	42.13
699.54	4.68
699.67	79.58
699.80	84.26
699.94	88.94
700.07	67.88
700.20	42.13
700.34	35.11
700.47	30.43
700.60	0.00
700.73	91.28
700.87	7.02
701.00	42.13
701.13	63.19
701.26	30.43
701.40	67.88
701.53	53.83
701.66	74.90
701.79	0.00
701.93	53.83
702.06	72.56
702.19	49.15
702.32	0.00
702.46	0.00
702.59	100.64
702.72	32.77
702.85	81.92
702.99	28.09
703.12	0.00
703.25	21.06
703.38	0.00
703.51	30.43
703.65	4.68
703.78	11.70
703.91	70.22
704.04	25.75
704.17	16.38
704.31	0.00
704.44	16.38
704.57	16.38
704.70	65.54
704.83	0.00
704.96	51.49
705.10	49.15
705.23	100.64
>>>>>End Processed Spectral Data<<<<<
