SpectraSuite Data File
++++++++++++++++++++++++++++++++++++
Date: Fri Oct 04 12:13:44 GMT-05:00 2013
User: price-jones
Dark Spectrum Present: No
Reference Spectrum Present: No
Number of Sampled Component Spectra: 1
Spectrometers: USB2+H05261
Integration Time (usec): 10000 (USB2+H05261)
Spectra Averaged: 1 (USB2+H05261)
Boxcar Smoothing: 0 (USB2+H05261)
Correct for Electrical Dark: No (USB2+H05261)
Strobe/Lamp Enabled: No (USB2+H05261)
Correct for Detector Non-linearity: No (USB2+H05261)
Correct for Stray Light: No (USB2+H05261)
Number of Pixels in Processed Spectrum: 2048
>>>>>Begin Processed Spectral Data<<<<<
365.73	28.09
365.92	28.09
366.12	28.09
366.32	0.00
366.52	0.00
366.72	0.00
366.91	0.00
367.11	0.00
367.31	0.00
367.51	0.00
367.70	0.00
367.90	0.00
368.10	0.00
368.30	0.00
368.49	0.00
368.69	0.00
368.89	0.00
369.09	0.00
369.28	0.00
369.48	0.00
369.68	0.00
369.87	0.00
370.07	0.00
370.27	0.00
370.47	0.00
370.66	0.00
370.86	0.00
371.06	0.00
371.25	0.00
371.45	0.00
371.65	0.00
371.84	2.34
372.04	0.00
372.24	67.88
372.44	7.02
372.63	18.72
372.83	25.75
373.03	28.09
373.22	2.34
373.42	9.36
373.62	0.00
373.81	91.28
374.01	53.83
374.21	37.45
374.40	49.15
374.60	81.92
374.79	74.90
374.99	53.83
375.19	84.26
375.38	84.26
375.58	11.70
375.78	0.00
375.97	42.13
376.17	18.72
376.37	84.26
376.56	0.00
376.76	56.17
376.95	0.00
377.15	14.04
377.35	0.00
377.54	35.11
377.74	51.49
377.93	35.11
378.13	9.36
378.33	0.00
378.52	37.45
378.72	0.00
378.91	35.11
379.11	0.00
379.31	9.36
379.50	65.54
379.70	42.13
379.89	70.22
380.09	0.00
380.28	84.26
380.48	65.54
380.68	0.00
380.87	46.81
381.07	58.51
381.26	7.02
381.46	16.38
381.65	49.15
381.85	65.54
382.04	7.02
382.24	0.00
382.43	65.54
382.63	0.00
382.83	30.43
383.02	30.43
383.22	0.00
383.41	60.85
383.61	70.22
383.80	16.38
384.00	0.00
384.19	46.81
384.39	63.19
384.58	44.47
384.78	65.54
384.97	0.00
385.17	0.00
385.36	44.47
385.56	0.00
385.75	63.19
385.95	11.70
386.14	4.68
386.34	86.60
386.53	100.64
386.72	72.56
386.92	0.00
387.11	0.00
387.31	30.43
387.50	0.00
387.70	53.83
387.89	23.41
388.09	98.30
388.28	37.45
388.48	0.00
388.67	16.38
388.86	30.43
389.06	67.88
389.25	44.47
389.45	81.92
389.64	0.00
389.84	56.17
390.03	0.00
390.22	0.00
390.42	46.81
390.61	14.04
390.81	74.90
391.00	65.54
391.19	91.28
391.39	51.49
391.58	46.81
391.78	32.77
391.97	16.38
392.16	60.85
392.36	0.00
392.55	0.00
392.75	28.09
392.94	0.00
393.13	84.26
393.33	53.83
393.52	2.34
393.71	16.38
393.91	32.77
394.10	25.75
394.29	14.04
394.49	14.04
394.68	65.54
394.88	0.00
395.07	39.79
395.26	49.15
395.46	46.81
395.65	21.06
395.84	14.04
396.04	44.47
396.23	0.00
396.42	18.72
396.62	23.41
396.81	0.00
397.00	0.00
397.19	23.41
397.39	9.36
397.58	0.00
397.77	32.77
397.97	56.17
398.16	35.11
398.35	86.60
398.55	60.85
398.74	18.72
398.93	0.00
399.12	46.81
399.32	77.24
399.51	25.75
399.70	0.00
399.90	86.60
400.09	35.11
400.28	63.19
400.47	39.79
400.67	14.04
400.86	0.00
401.05	32.77
401.24	67.88
401.44	9.36
401.63	42.13
401.82	63.19
402.01	74.90
402.21	84.26
402.40	93.62
402.59	28.09
402.78	77.24
402.97	72.56
403.17	46.81
403.36	86.60
403.55	84.26
403.74	0.00
403.93	32.77
404.13	56.17
404.32	30.43
404.51	93.62
404.70	117.03
404.89	60.85
405.09	16.38
405.28	72.56
405.47	74.90
405.66	0.00
405.85	39.79
406.05	51.49
406.24	70.22
406.43	2.34
406.62	44.47
406.81	11.70
407.00	28.09
407.20	46.81
407.39	65.54
407.58	98.30
407.77	42.13
407.96	39.79
408.15	46.81
408.34	56.17
408.54	112.35
408.73	37.45
408.92	23.41
409.11	0.00
409.30	37.45
409.49	44.47
409.68	35.11
409.87	77.24
410.07	23.41
410.26	0.00
410.45	11.70
410.64	107.66
410.83	74.90
411.02	107.66
411.21	102.98
411.40	49.15
411.59	72.56
411.78	65.54
411.98	2.34
412.17	23.41
412.36	11.70
412.55	65.54
412.74	51.49
412.93	79.58
413.12	53.83
413.31	49.15
413.50	65.54
413.69	2.34
413.88	56.17
414.07	72.56
414.26	84.26
414.45	133.41
414.64	70.22
414.83	128.73
415.02	84.26
415.22	110.01
415.41	86.60
415.60	23.41
415.79	105.32
415.98	30.43
416.17	46.81
416.36	142.77
416.55	39.79
416.74	44.47
416.93	77.24
417.12	44.47
417.31	67.88
417.50	49.15
417.69	63.19
417.88	112.35
418.07	105.32
418.26	79.58
418.45	0.00
418.64	126.39
418.83	70.22
419.02	4.68
419.21	7.02
419.39	49.15
419.58	65.54
419.77	58.51
419.96	39.79
420.15	72.56
420.34	56.17
420.53	37.45
420.72	84.26
420.91	18.72
421.10	79.58
421.29	37.45
421.48	74.90
421.67	2.34
421.86	93.62
422.05	11.70
422.24	0.00
422.43	37.45
422.61	49.15
422.80	107.66
422.99	44.47
423.18	42.13
423.37	14.04
423.56	166.18
423.75	56.17
423.94	35.11
424.13	110.01
424.32	11.70
424.50	88.94
424.69	11.70
424.88	42.13
425.07	32.77
425.26	49.15
425.45	53.83
425.64	28.09
425.83	18.72
426.01	84.26
426.20	79.58
426.39	39.79
426.58	60.85
426.77	63.19
426.96	74.90
427.15	98.30
427.33	35.11
427.52	39.79
427.71	91.28
427.90	100.64
428.09	46.81
428.28	0.00
428.46	53.83
428.65	72.56
428.84	84.26
429.03	84.26
429.22	4.68
429.40	70.22
429.59	30.43
429.78	79.58
429.97	135.75
430.16	154.48
430.34	95.96
430.53	86.60
430.72	63.19
430.91	0.00
431.10	42.13
431.28	95.96
431.47	84.26
431.66	133.41
431.85	35.11
432.03	42.13
432.22	46.81
432.41	60.85
432.60	142.77
432.79	72.56
432.97	39.79
433.16	72.56
433.35	126.39
433.54	0.00
433.72	16.38
433.91	58.51
434.10	42.13
434.28	72.56
434.47	30.43
434.66	30.43
434.85	119.37
435.03	49.15
435.22	119.37
435.41	105.32
435.59	70.22
435.78	0.00
435.97	70.22
436.16	14.04
436.34	65.54
436.53	86.60
436.72	70.22
436.90	84.26
437.09	98.30
437.28	72.56
437.46	42.13
437.65	112.35
437.84	65.54
438.02	42.13
438.21	72.56
438.40	110.01
438.58	65.54
438.77	112.35
438.96	81.92
439.14	42.13
439.33	79.58
439.52	11.70
439.70	74.90
439.89	105.32
440.08	58.51
440.26	56.17
440.45	28.09
440.63	124.05
440.82	14.04
441.01	51.49
441.19	42.13
441.38	7.02
441.57	79.58
441.75	35.11
441.94	86.60
442.12	60.85
442.31	25.75
442.50	65.54
442.68	91.28
442.87	60.85
443.05	23.41
443.24	98.30
443.43	93.62
443.61	70.22
443.80	35.11
443.98	28.09
444.17	32.77
444.35	79.58
444.54	53.83
444.73	105.32
444.91	49.15
445.10	25.75
445.28	16.38
445.47	56.17
445.65	93.62
445.84	81.92
446.02	25.75
446.21	140.43
446.39	152.13
446.58	88.94
446.77	65.54
446.95	79.58
447.14	58.51
447.32	114.69
447.51	0.00
447.69	16.38
447.88	79.58
448.06	81.92
448.25	98.30
448.43	131.07
448.62	51.49
448.80	74.90
448.99	49.15
449.17	32.77
449.36	98.30
449.54	35.11
449.73	112.35
449.91	110.01
450.10	67.88
450.28	46.81
450.46	39.79
450.65	79.58
450.83	91.28
451.02	11.70
451.20	81.92
451.39	93.62
451.57	63.19
451.76	28.09
451.94	110.01
452.13	98.30
452.31	145.11
452.49	131.07
452.68	128.73
452.86	65.54
453.05	58.51
453.23	86.60
453.42	49.15
453.60	110.01
453.78	72.56
453.97	88.94
454.15	98.30
454.34	58.51
454.52	95.96
454.70	140.43
454.89	74.90
455.07	72.56
455.26	30.43
455.44	86.60
455.62	77.24
455.81	60.85
455.99	30.43
456.17	107.66
456.36	74.90
456.54	133.41
456.73	79.58
456.91	102.98
457.09	53.83
457.28	135.75
457.46	107.66
457.64	91.28
457.83	63.19
458.01	63.19
458.19	98.30
458.38	70.22
458.56	4.68
458.74	84.26
458.93	21.06
459.11	65.54
459.29	28.09
459.48	88.94
459.66	88.94
459.84	60.85
460.03	56.17
460.21	112.35
460.39	18.72
460.57	124.05
460.76	60.85
460.94	63.19
461.12	63.19
461.31	142.77
461.49	53.83
461.67	56.17
461.85	112.35
462.04	30.43
462.22	135.75
462.40	84.26
462.59	37.45
462.77	35.11
462.95	51.49
463.13	79.58
463.32	60.85
463.50	88.94
463.68	70.22
463.86	156.82
464.05	79.58
464.23	149.79
464.41	60.85
464.59	105.32
464.78	53.83
464.96	51.49
465.14	107.66
465.32	74.90
465.50	81.92
465.69	91.28
465.87	79.58
466.05	25.75
466.23	53.83
466.41	81.92
466.60	65.54
466.78	60.85
466.96	25.75
467.14	67.88
467.32	79.58
467.51	102.98
467.69	79.58
467.87	39.79
468.05	145.11
468.23	88.94
468.41	51.49
468.60	14.04
468.78	32.77
468.96	49.15
469.14	58.51
469.32	142.77
469.50	86.60
469.69	67.88
469.87	46.81
470.05	102.98
470.23	51.49
470.41	93.62
470.59	46.81
470.77	88.94
470.95	46.81
471.14	93.62
471.32	46.81
471.50	119.37
471.68	175.54
471.86	81.92
472.04	74.90
472.22	70.22
472.40	84.26
472.58	65.54
472.77	177.88
472.95	86.60
473.13	86.60
473.31	112.35
473.49	49.15
473.67	70.22
473.85	86.60
474.03	166.18
474.21	81.92
474.39	77.24
474.57	95.96
474.75	49.15
474.93	112.35
475.12	65.54
475.30	60.85
475.48	0.00
475.66	84.26
475.84	42.13
476.02	72.56
476.20	95.96
476.38	119.37
476.56	102.98
476.74	16.38
476.92	77.24
477.10	67.88
477.28	102.98
477.46	84.26
477.64	53.83
477.82	46.81
478.00	105.32
478.18	56.17
478.36	81.92
478.54	42.13
478.72	133.41
478.90	152.13
479.08	145.11
479.26	102.98
479.44	105.32
479.62	91.28
479.80	0.00
479.98	121.71
480.16	46.81
480.34	88.94
480.52	79.58
480.70	128.73
480.88	88.94
481.06	147.45
481.24	58.51
481.41	142.77
481.59	81.92
481.77	124.05
481.95	102.98
482.13	42.13
482.31	124.05
482.49	65.54
482.67	86.60
482.85	166.18
483.03	81.92
483.21	35.11
483.39	60.85
483.57	79.58
483.74	107.66
483.92	42.13
484.10	60.85
484.28	126.39
484.46	107.66
484.64	142.77
484.82	72.56
485.00	110.01
485.18	140.43
485.35	119.37
485.53	56.17
485.71	49.15
485.89	124.05
486.07	107.66
486.25	126.39
486.43	37.45
486.61	77.24
486.78	51.49
486.96	42.13
487.14	63.19
487.32	95.96
487.50	51.49
487.68	177.88
487.85	91.28
488.03	105.32
488.21	154.48
488.39	173.20
488.57	95.96
488.75	215.33
488.92	149.79
489.10	63.19
489.28	81.92
489.46	142.77
489.64	145.11
489.81	215.33
489.99	128.73
490.17	98.30
490.35	126.39
490.53	93.62
490.70	147.45
490.88	84.26
491.06	93.62
491.24	42.13
491.41	114.69
491.59	131.07
491.77	161.50
491.95	46.81
492.13	93.62
492.30	142.77
492.48	131.07
492.66	107.66
492.84	37.45
493.01	147.45
493.19	152.13
493.37	93.62
493.54	145.11
493.72	91.28
493.90	147.45
494.08	152.13
494.25	102.98
494.43	133.41
494.61	79.58
494.79	117.03
494.96	175.54
495.14	98.30
495.32	138.09
495.49	60.85
495.67	124.05
495.85	126.39
496.02	145.11
496.20	135.75
496.38	191.92
496.55	79.58
496.73	107.66
496.91	100.64
497.09	145.11
497.26	95.96
497.44	159.16
497.62	138.09
497.79	107.66
497.97	86.60
498.14	81.92
498.32	152.13
498.50	163.84
498.67	102.98
498.85	124.05
499.03	105.32
499.20	95.96
499.38	107.66
499.56	107.66
499.73	95.96
499.91	187.24
500.08	98.30
500.26	65.54
500.44	105.32
500.61	58.51
500.79	93.62
500.97	93.62
501.14	131.07
501.32	135.75
501.49	126.39
501.67	142.77
501.84	46.81
502.02	138.09
502.20	98.30
502.37	126.39
502.55	121.71
502.72	102.98
502.90	161.50
503.07	142.77
503.25	138.09
503.43	175.54
503.60	126.39
503.78	86.60
503.95	180.22
504.13	156.82
504.30	142.77
504.48	135.75
504.65	205.97
504.83	105.32
505.01	140.43
505.18	208.31
505.36	142.77
505.53	131.07
505.71	135.75
505.88	128.73
506.06	117.03
506.23	110.01
506.41	39.79
506.58	184.90
506.76	142.77
506.93	100.64
507.11	102.98
507.28	147.45
507.46	126.39
507.63	138.09
507.81	142.77
507.98	187.24
508.16	152.13
508.33	105.32
508.50	189.58
508.68	189.58
508.85	110.01
509.03	152.13
509.20	117.03
509.38	63.19
509.55	65.54
509.73	135.75
509.90	100.64
510.08	201.29
510.25	177.88
510.42	128.73
510.60	133.41
510.77	81.92
510.95	91.28
511.12	191.92
511.30	166.18
511.47	63.19
511.64	72.56
511.82	175.54
511.99	79.58
512.17	149.79
512.34	81.92
512.51	95.96
512.69	163.84
512.86	121.71
513.04	105.32
513.21	131.07
513.38	166.18
513.56	166.18
513.73	74.90
513.90	110.01
514.08	152.13
514.25	140.43
514.43	128.73
514.60	131.07
514.77	60.85
514.95	84.26
515.12	131.07
515.29	156.82
515.47	117.03
515.64	152.13
515.81	149.79
515.99	126.39
516.16	145.11
516.33	114.69
516.51	53.83
516.68	107.66
516.85	110.01
517.03	119.37
517.20	175.54
517.37	121.71
517.54	93.62
517.72	100.64
517.89	131.07
518.06	117.03
518.24	135.75
518.41	112.35
518.58	168.52
518.75	128.73
518.93	159.16
519.10	121.71
519.27	105.32
519.45	168.52
519.62	91.28
519.79	93.62
519.96	74.90
520.14	128.73
520.31	147.45
520.48	100.64
520.65	147.45
520.83	128.73
521.00	88.94
521.17	121.71
521.34	63.19
521.52	102.98
521.69	145.11
521.86	201.29
522.03	145.11
522.20	187.24
522.38	145.11
522.55	152.13
522.72	110.01
522.89	177.88
523.07	128.73
523.24	107.66
523.41	110.01
523.58	81.92
523.75	149.79
523.92	63.19
524.10	138.09
524.27	234.05
524.44	166.18
524.61	152.13
524.78	177.88
524.96	110.01
525.13	152.13
525.30	180.22
525.47	159.16
525.64	138.09
525.81	149.79
525.98	149.79
526.16	126.39
526.33	138.09
526.50	147.45
526.67	163.84
526.84	91.28
527.01	224.69
527.18	147.45
527.36	140.43
527.53	166.18
527.70	98.30
527.87	208.31
528.04	166.18
528.21	149.79
528.38	98.30
528.55	145.11
528.72	149.79
528.89	198.95
529.07	175.54
529.24	196.60
529.41	198.95
529.58	117.03
529.75	145.11
529.92	168.52
530.09	168.52
530.26	140.43
530.43	81.92
530.60	117.03
530.77	145.11
530.94	84.26
531.11	93.62
531.28	135.75
531.46	173.20
531.63	72.56
531.80	119.37
531.97	126.39
532.14	102.98
532.31	128.73
532.48	119.37
532.65	138.09
532.82	187.24
532.99	124.05
533.16	133.41
533.33	126.39
533.50	102.98
533.67	149.79
533.84	166.18
534.01	147.45
534.18	128.73
534.35	65.54
534.52	119.37
534.69	117.03
534.86	121.71
535.03	168.52
535.20	100.64
535.37	154.48
535.54	203.63
535.71	117.03
535.88	128.73
536.05	142.77
536.22	81.92
536.38	112.35
536.55	182.56
536.72	98.30
536.89	86.60
537.06	72.56
537.23	63.19
537.40	243.42
537.57	149.79
537.74	117.03
537.91	124.05
538.08	184.90
538.25	259.80
538.42	138.09
538.59	91.28
538.75	138.09
538.92	117.03
539.09	84.26
539.26	140.43
539.43	159.16
539.60	112.35
539.77	74.90
539.94	166.18
540.11	138.09
540.28	201.29
540.44	168.52
540.61	163.84
540.78	234.05
540.95	166.18
541.12	119.37
541.29	126.39
541.46	119.37
541.62	79.58
541.79	110.01
541.96	161.50
542.13	145.11
542.30	161.50
542.47	180.22
542.63	117.03
542.80	88.94
542.97	145.11
543.14	203.63
543.31	84.26
543.48	100.64
543.64	121.71
543.81	93.62
543.98	91.28
544.15	88.94
544.32	180.22
544.48	93.62
544.65	100.64
544.82	112.35
544.99	161.50
545.16	154.48
545.32	135.75
545.49	88.94
545.66	114.69
545.83	135.75
546.00	138.09
546.16	105.32
546.33	182.56
546.50	168.52
546.67	166.18
546.83	154.48
547.00	170.86
547.17	210.65
547.34	201.29
547.50	210.65
547.67	147.45
547.84	149.79
548.00	180.22
548.17	140.43
548.34	0.00
548.51	170.86
548.67	131.07
548.84	133.41
549.01	93.62
549.18	145.11
549.34	124.05
549.51	175.54
549.68	135.75
549.84	110.01
550.01	236.39
550.18	220.01
550.34	149.79
550.51	112.35
550.68	77.24
550.84	166.18
551.01	95.96
551.18	147.45
551.34	138.09
551.51	149.79
551.68	135.75
551.84	110.01
552.01	119.37
552.18	112.35
552.34	159.16
552.51	142.77
552.68	145.11
552.84	135.75
553.01	124.05
553.18	119.37
553.34	135.75
553.51	110.01
553.67	166.18
553.84	117.03
554.01	168.52
554.17	227.03
554.34	131.07
554.51	140.43
554.67	138.09
554.84	117.03
555.00	147.45
555.17	110.01
555.33	131.07
555.50	159.16
555.67	119.37
555.83	135.75
556.00	117.03
556.16	159.16
556.33	21.06
556.50	105.32
556.66	203.63
556.83	154.48
556.99	149.79
557.16	126.39
557.32	140.43
557.49	105.32
557.65	173.20
557.82	114.69
557.98	93.62
558.15	184.90
558.32	131.07
558.48	126.39
558.65	140.43
558.81	112.35
558.98	114.69
559.14	147.45
559.31	105.32
559.47	145.11
559.64	140.43
559.80	145.11
559.97	117.03
560.13	135.75
560.30	147.45
560.46	166.18
560.63	100.64
560.79	77.24
560.96	140.43
561.12	170.86
561.29	112.35
561.45	86.60
561.61	149.79
561.78	86.60
561.94	112.35
562.11	154.48
562.27	154.48
562.44	91.28
562.60	100.64
562.77	126.39
562.93	159.16
563.10	131.07
563.26	124.05
563.42	44.47
563.59	184.90
563.75	110.01
563.92	133.41
564.08	135.75
564.24	189.58
564.41	107.66
564.57	95.96
564.74	102.98
564.90	42.13
565.07	105.32
565.23	37.45
565.39	117.03
565.56	152.13
565.72	95.96
565.88	95.96
566.05	133.41
566.21	163.84
566.38	119.37
566.54	63.19
566.70	133.41
566.87	180.22
567.03	154.48
567.19	166.18
567.36	131.07
567.52	131.07
567.68	135.75
567.85	102.98
568.01	91.28
568.17	140.43
568.34	102.98
568.50	135.75
568.66	180.22
568.83	161.50
568.99	177.88
569.15	58.51
569.32	32.77
569.48	201.29
569.64	84.26
569.81	102.98
569.97	110.01
570.13	140.43
570.30	152.13
570.46	166.18
570.62	86.60
570.78	88.94
570.95	121.71
571.11	173.20
571.27	121.71
571.43	42.13
571.60	140.43
571.76	107.66
571.92	110.01
572.09	81.92
572.25	117.03
572.41	84.26
572.57	142.77
572.74	184.90
572.90	166.18
573.06	189.58
573.22	175.54
573.38	93.62
573.55	152.13
573.71	133.41
573.87	126.39
574.03	154.48
574.20	163.84
574.36	72.56
574.52	126.39
574.68	117.03
574.84	133.41
575.01	126.39
575.17	138.09
575.33	86.60
575.49	142.77
575.65	4.68
575.82	63.19
575.98	166.18
576.14	63.19
576.30	112.35
576.46	175.54
576.62	126.39
576.79	81.92
576.95	56.17
577.11	131.07
577.27	145.11
577.43	67.88
577.59	159.16
577.75	91.28
577.92	70.22
578.08	149.79
578.24	119.37
578.40	133.41
578.56	163.84
578.72	79.58
578.88	145.11
579.04	98.30
579.21	154.48
579.37	140.43
579.53	112.35
579.69	170.86
579.85	154.48
580.01	142.77
580.17	98.30
580.33	161.50
580.49	110.01
580.65	208.31
580.82	149.79
580.98	86.60
581.14	77.24
581.30	124.05
581.46	95.96
581.62	88.94
581.78	128.73
581.94	51.49
582.10	121.71
582.26	124.05
582.42	86.60
582.58	74.90
582.74	140.43
582.90	95.96
583.06	100.64
583.22	140.43
583.38	16.38
583.54	51.49
583.70	159.16
583.86	147.45
584.02	138.09
584.18	128.73
584.34	147.45
584.50	117.03
584.66	112.35
584.82	138.09
584.98	79.58
585.14	84.26
585.30	70.22
585.46	163.84
585.62	152.13
585.78	175.54
585.94	117.03
586.10	173.20
586.26	138.09
586.42	28.09
586.58	88.94
586.74	119.37
586.90	79.58
587.06	110.01
587.22	110.01
587.38	79.58
587.54	149.79
587.70	156.82
587.86	102.98
588.02	107.66
588.18	126.39
588.34	91.28
588.49	147.45
588.65	91.28
588.81	60.85
588.97	91.28
589.13	102.98
589.29	163.84
589.45	100.64
589.61	51.49
589.77	91.28
589.93	7.02
590.08	32.77
590.24	42.13
590.40	72.56
590.56	32.77
590.72	44.47
590.88	46.81
591.04	147.45
591.20	107.66
591.35	65.54
591.51	81.92
591.67	70.22
591.83	77.24
591.99	74.90
592.15	72.56
592.31	184.90
592.46	154.48
592.62	86.60
592.78	133.41
592.94	44.47
593.10	110.01
593.26	42.13
593.41	131.07
593.57	107.66
593.73	145.11
593.89	88.94
594.05	81.92
594.20	117.03
594.36	98.30
594.52	93.62
594.68	154.48
594.84	114.69
594.99	98.30
595.15	56.17
595.31	91.28
595.47	156.82
595.62	154.48
595.78	131.07
595.94	79.58
596.10	46.81
596.25	100.64
596.41	128.73
596.57	58.51
596.73	23.41
596.88	72.56
597.04	119.37
597.20	32.77
597.36	63.19
597.51	121.71
597.67	70.22
597.83	112.35
597.99	93.62
598.14	63.19
598.30	79.58
598.46	112.35
598.61	112.35
598.77	67.88
598.93	98.30
599.09	117.03
599.24	58.51
599.40	72.56
599.56	121.71
599.71	93.62
599.87	14.04
600.03	81.92
600.18	91.28
600.34	119.37
600.50	140.43
600.65	107.66
600.81	149.79
600.97	112.35
601.12	81.92
601.28	163.84
601.44	67.88
601.59	149.79
601.75	56.17
601.91	65.54
602.06	37.45
602.22	88.94
602.37	117.03
602.53	65.54
602.69	100.64
602.84	74.90
603.00	102.98
603.16	112.35
603.31	102.98
603.47	126.39
603.62	112.35
603.78	159.16
603.94	107.66
604.09	154.48
604.25	46.81
604.40	77.24
604.56	105.32
604.71	166.18
604.87	126.39
605.03	131.07
605.18	119.37
605.34	121.71
605.49	53.83
605.65	72.56
605.80	119.37
605.96	49.15
606.12	88.94
606.27	133.41
606.43	191.92
606.58	126.39
606.74	95.96
606.89	147.45
607.05	53.83
607.20	63.19
607.36	105.32
607.51	79.58
607.67	133.41
607.82	95.96
607.98	114.69
608.13	161.50
608.29	112.35
608.44	72.56
608.60	74.90
608.75	114.69
608.91	154.48
609.06	180.22
609.22	112.35
609.37	58.51
609.53	58.51
609.68	58.51
609.84	9.36
609.99	114.69
610.15	102.98
610.30	60.85
610.46	72.56
610.61	60.85
610.76	138.09
610.92	86.60
611.07	91.28
611.23	110.01
611.38	28.09
611.54	124.05
611.69	77.24
611.84	84.26
612.00	142.77
612.15	119.37
612.31	124.05
612.46	124.05
612.62	98.30
612.77	110.01
612.92	102.98
613.08	156.82
613.23	93.62
613.39	58.51
613.54	117.03
613.69	105.32
613.85	93.62
614.00	95.96
614.15	145.11
614.31	110.01
614.46	112.35
614.62	128.73
614.77	88.94
614.92	105.32
615.08	102.98
615.23	81.92
615.38	28.09
615.54	44.47
615.69	117.03
615.84	93.62
616.00	86.60
616.15	126.39
616.30	74.90
616.46	112.35
616.61	98.30
616.76	166.18
616.92	65.54
617.07	56.17
617.22	81.92
617.37	126.39
617.53	86.60
617.68	156.82
617.83	112.35
617.99	145.11
618.14	107.66
618.29	70.22
618.45	124.05
618.60	107.66
618.75	51.49
618.90	105.32
619.06	180.22
619.21	79.58
619.36	91.28
619.51	42.13
619.67	110.01
619.82	67.88
619.97	65.54
620.12	121.71
620.28	42.13
620.43	102.98
620.58	63.19
620.73	28.09
620.89	145.11
621.04	88.94
621.19	88.94
621.34	70.22
621.49	79.58
621.65	147.45
621.80	25.75
621.95	93.62
622.10	58.51
622.25	77.24
622.41	28.09
622.56	79.58
622.71	107.66
622.86	72.56
623.01	23.41
623.16	100.64
623.32	131.07
623.47	93.62
623.62	81.92
623.77	58.51
623.92	72.56
624.07	98.30
624.23	58.51
624.38	100.64
624.53	63.19
624.68	93.62
624.83	67.88
624.98	39.79
625.13	100.64
625.29	105.32
625.44	93.62
625.59	170.86
625.74	95.96
625.89	30.43
626.04	86.60
626.19	88.94
626.34	67.88
626.49	147.45
626.65	79.58
626.80	77.24
626.95	23.41
627.10	63.19
627.25	81.92
627.40	35.11
627.55	110.01
627.70	84.26
627.85	39.79
628.00	65.54
628.15	95.96
628.30	72.56
628.45	23.41
628.60	56.17
628.76	126.39
628.91	112.35
629.06	86.60
629.21	9.36
629.36	93.62
629.51	0.00
629.66	30.43
629.81	46.81
629.96	114.69
630.11	138.09
630.26	177.88
630.41	67.88
630.56	93.62
630.71	65.54
630.86	98.30
631.01	39.79
631.16	39.79
631.31	32.77
631.46	84.26
631.61	72.56
631.76	98.30
631.91	56.17
632.06	79.58
632.21	0.00
632.36	32.77
632.51	81.92
632.66	56.17
632.81	84.26
632.96	56.17
633.10	39.79
633.25	98.30
633.40	35.11
633.55	119.37
633.70	117.03
633.85	32.77
634.00	152.13
634.15	95.96
634.30	4.68
634.45	35.11
634.60	65.54
634.75	46.81
634.90	65.54
635.05	138.09
635.19	84.26
635.34	74.90
635.49	79.58
635.64	124.05
635.79	149.79
635.94	32.77
636.09	0.00
636.24	25.75
636.39	74.90
636.53	7.02
636.68	121.71
636.83	70.22
636.98	121.71
637.13	63.19
637.28	138.09
637.43	135.75
637.57	95.96
637.72	7.02
637.87	79.58
638.02	81.92
638.17	102.98
638.32	105.32
638.46	121.71
638.61	88.94
638.76	35.11
638.91	112.35
639.06	58.51
639.20	65.54
639.35	79.58
639.50	86.60
639.65	51.49
639.80	145.11
639.94	100.64
640.09	107.66
640.24	70.22
640.39	110.01
640.54	60.85
640.68	77.24
640.83	93.62
640.98	124.05
641.13	58.51
641.27	86.60
641.42	72.56
641.57	117.03
641.72	72.56
641.86	11.70
642.01	159.16
642.16	72.56
642.31	42.13
642.45	88.94
642.60	65.54
642.75	7.02
642.90	37.45
643.04	42.13
643.19	46.81
643.34	110.01
643.48	51.49
643.63	124.05
643.78	46.81
643.93	70.22
644.07	49.15
644.22	86.60
644.37	49.15
644.51	67.88
644.66	100.64
644.81	81.92
644.95	105.32
645.10	39.79
645.25	77.24
645.39	56.17
645.54	81.92
645.69	154.48
645.83	2.34
645.98	88.94
646.13	67.88
646.27	124.05
646.42	32.77
646.57	37.45
646.71	65.54
646.86	88.94
647.00	42.13
647.15	25.75
647.30	93.62
647.44	53.83
647.59	124.05
647.74	58.51
647.88	37.45
648.03	49.15
648.17	86.60
648.32	98.30
648.47	46.81
648.61	9.36
648.76	105.32
648.90	70.22
649.05	16.38
649.20	42.13
649.34	91.28
649.49	100.64
649.63	56.17
649.78	65.54
649.92	74.90
650.07	51.49
650.21	121.71
650.36	46.81
650.51	140.43
650.65	42.13
650.80	67.88
650.94	51.49
651.09	91.28
651.23	67.88
651.38	98.30
651.52	16.38
651.67	51.49
651.81	114.69
651.96	72.56
652.10	77.24
652.25	23.41
652.39	110.01
652.54	23.41
652.68	86.60
652.83	95.96
652.97	0.00
653.12	86.60
653.26	91.28
653.41	77.24
653.55	58.51
653.70	53.83
653.84	53.83
653.99	79.58
654.13	74.90
654.27	51.49
654.42	112.35
654.56	72.56
654.71	74.90
654.85	37.45
655.00	95.96
655.14	0.00
655.29	84.26
655.43	110.01
655.57	72.56
655.72	39.79
655.86	32.77
656.01	46.81
656.15	53.83
656.30	56.17
656.44	65.54
656.58	46.81
656.73	30.43
656.87	0.00
657.01	60.85
657.16	56.17
657.30	72.56
657.45	95.96
657.59	128.73
657.73	124.05
657.88	77.24
658.02	81.92
658.16	25.75
658.31	23.41
658.45	88.94
658.60	102.98
658.74	53.83
658.88	70.22
659.03	84.26
659.17	56.17
659.31	42.13
659.46	124.05
659.60	32.77
659.74	49.15
659.89	35.11
660.03	44.47
660.17	28.09
660.32	0.00
660.46	117.03
660.60	74.90
660.74	119.37
660.89	60.85
661.03	56.17
661.17	133.41
661.32	65.54
661.46	42.13
661.60	102.98
661.74	154.48
661.89	102.98
662.03	28.09
662.17	70.22
662.31	60.85
662.46	72.56
662.60	81.92
662.74	84.26
662.88	4.68
663.03	23.41
663.17	46.81
663.31	112.35
663.45	161.50
663.60	58.51
663.74	58.51
663.88	72.56
664.02	91.28
664.17	51.49
664.31	72.56
664.45	51.49
664.59	58.51
664.73	72.56
664.88	128.73
665.02	149.79
665.16	16.38
665.30	117.03
665.44	63.19
665.59	53.83
665.73	86.60
665.87	119.37
666.01	91.28
666.15	93.62
666.29	11.70
666.44	173.20
666.58	37.45
666.72	28.09
666.86	42.13
667.00	58.51
667.14	98.30
667.28	0.00
667.43	84.26
667.57	37.45
667.71	56.17
667.85	72.56
667.99	32.77
668.13	60.85
668.27	72.56
668.41	21.06
668.56	0.00
668.70	7.02
668.84	110.01
668.98	21.06
669.12	112.35
669.26	95.96
669.40	93.62
669.54	124.05
669.68	0.00
669.82	46.81
669.96	0.00
670.10	44.47
670.25	105.32
670.39	128.73
670.53	16.38
670.67	105.32
670.81	74.90
670.95	84.26
671.09	117.03
671.23	91.28
671.37	65.54
671.51	51.49
671.65	121.71
671.79	117.03
671.93	100.64
672.07	18.72
672.21	79.58
672.35	107.66
672.49	51.49
672.63	39.79
672.77	145.11
672.91	56.17
673.05	14.04
673.19	100.64
673.33	58.51
673.47	16.38
673.61	37.45
673.75	25.75
673.89	51.49
674.03	28.09
674.17	32.77
674.31	46.81
674.45	28.09
674.59	39.79
674.73	14.04
674.87	79.58
675.01	72.56
675.15	72.56
675.29	70.22
675.43	18.72
675.56	142.77
675.70	126.39
675.84	65.54
675.98	4.68
676.12	67.88
676.26	86.60
676.40	2.34
676.54	93.62
676.68	86.60
676.82	63.19
676.96	49.15
677.10	102.98
677.23	95.96
677.37	93.62
677.51	11.70
677.65	107.66
677.79	16.38
677.93	0.00
678.07	0.00
678.21	93.62
678.34	74.90
678.48	0.00
678.62	49.15
678.76	102.98
678.90	30.43
679.04	53.83
679.18	114.69
679.31	105.32
679.45	79.58
679.59	49.15
679.73	0.00
679.87	18.72
680.00	32.77
680.14	53.83
680.28	53.83
680.42	81.92
680.56	74.90
680.70	46.81
680.83	81.92
680.97	16.38
681.11	86.60
681.25	70.22
681.39	107.66
681.52	95.96
681.66	49.15
681.80	58.51
681.94	9.36
682.07	0.00
682.21	44.47
682.35	51.49
682.49	100.64
682.62	112.35
682.76	46.81
682.90	107.66
683.04	119.37
683.17	49.15
683.31	112.35
683.45	70.22
683.59	39.79
683.72	63.19
683.86	23.41
684.00	0.00
684.13	72.56
684.27	0.00
684.41	84.26
684.55	53.83
684.68	102.98
684.82	35.11
684.96	107.66
685.09	14.04
685.23	16.38
685.37	32.77
685.50	30.43
685.64	81.92
685.78	49.15
685.91	21.06
686.05	42.13
686.19	74.90
686.32	30.43
686.46	91.28
686.60	18.72
686.73	21.06
686.87	32.77
687.01	39.79
687.14	81.92
687.28	60.85
687.42	65.54
687.55	9.36
687.69	72.56
687.82	60.85
687.96	30.43
688.10	49.15
688.23	49.15
688.37	72.56
688.50	56.17
688.64	63.19
688.78	65.54
688.91	74.90
689.05	79.58
689.18	0.00
689.32	117.03
689.46	35.11
689.59	51.49
689.73	93.62
689.86	4.68
690.00	0.00
690.13	37.45
690.27	25.75
690.41	53.83
690.54	102.98
690.68	39.79
690.81	70.22
690.95	39.79
691.08	70.22
691.22	95.96
691.35	93.62
691.49	56.17
691.62	7.02
691.76	49.15
691.89	72.56
692.03	11.70
692.16	23.41
692.30	14.04
692.43	60.85
692.57	128.73
692.70	44.47
692.84	70.22
692.97	81.92
693.11	79.58
693.24	42.13
693.38	18.72
693.51	30.43
693.65	58.51
693.78	39.79
693.92	81.92
694.05	11.70
694.19	53.83
694.32	0.00
694.45	16.38
694.59	42.13
694.72	88.94
694.86	67.88
694.99	63.19
695.13	7.02
695.26	79.58
695.39	84.26
695.53	0.00
695.66	30.43
695.80	0.00
695.93	51.49
696.07	58.51
696.20	32.77
696.33	30.43
696.47	49.15
696.60	32.77
696.73	42.13
696.87	11.70
697.00	56.17
697.14	35.11
697.27	25.75
697.40	16.38
697.54	21.06
697.67	37.45
697.80	67.88
697.94	51.49
698.07	32.77
698.21	46.81
698.34	91.28
698.47	46.81
698.61	21.06
698.74	30.43
698.87	16.38
699.01	4.68
699.14	102.98
699.27	100.64
699.40	0.00
699.54	9.36
699.67	37.45
699.80	65.54
699.94	42.13
700.07	35.11
700.20	2.34
700.34	28.09
700.47	9.36
700.60	32.77
700.73	0.00
700.87	14.04
701.00	14.04
701.13	14.04
701.26	53.83
701.40	7.02
701.53	39.79
701.66	63.19
701.79	32.77
701.93	0.00
702.06	86.60
702.19	9.36
702.32	67.88
702.46	11.70
702.59	49.15
702.72	2.34
702.85	0.00
702.99	4.68
703.12	0.00
703.25	21.06
703.38	0.00
703.51	88.94
703.65	100.64
703.78	67.88
703.91	102.98
704.04	30.43
704.17	28.09
704.31	16.38
704.44	37.45
704.57	56.17
704.70	0.00
704.83	95.96
704.96	32.77
705.10	107.66
705.23	30.43
>>>>>End Processed Spectral Data<<<<<
