SpectraSuite Data File
++++++++++++++++++++++++++++++++++++
Date: Fri Oct 04 12:13:31 GMT-05:00 2013
User: price-jones
Dark Spectrum Present: No
Reference Spectrum Present: No
Number of Sampled Component Spectra: 1
Spectrometers: USB2+H05261
Integration Time (usec): 10000 (USB2+H05261)
Spectra Averaged: 1 (USB2+H05261)
Boxcar Smoothing: 0 (USB2+H05261)
Correct for Electrical Dark: No (USB2+H05261)
Strobe/Lamp Enabled: No (USB2+H05261)
Correct for Detector Non-linearity: No (USB2+H05261)
Correct for Stray Light: No (USB2+H05261)
Number of Pixels in Processed Spectrum: 2048
>>>>>Begin Processed Spectral Data<<<<<
365.73	0.00
365.92	0.00
366.12	0.00
366.32	0.00
366.52	0.00
366.72	0.00
366.91	0.00
367.11	0.00
367.31	0.00
367.51	0.00
367.70	0.00
367.90	0.00
368.10	0.00
368.30	0.00
368.49	0.00
368.69	0.00
368.89	0.00
369.09	0.00
369.28	0.00
369.48	0.00
369.68	0.00
369.87	0.00
370.07	0.00
370.27	35.11
370.47	0.00
370.66	0.00
370.86	0.00
371.06	0.00
371.25	0.00
371.45	0.00
371.65	0.00
371.84	0.00
372.04	0.00
372.24	4.68
372.44	65.54
372.63	0.00
372.83	35.11
373.03	0.00
373.22	0.00
373.42	37.45
373.62	4.68
373.81	44.47
374.01	0.00
374.21	11.70
374.40	0.00
374.60	35.11
374.79	28.09
374.99	0.00
375.19	25.75
375.38	11.70
375.58	32.77
375.78	35.11
375.97	46.81
376.17	23.41
376.37	9.36
376.56	35.11
376.76	4.68
376.95	44.47
377.15	93.62
377.35	7.02
377.54	0.00
377.74	0.00
377.93	63.19
378.13	65.54
378.33	84.26
378.52	0.00
378.72	0.00
378.91	0.00
379.11	4.68
379.31	37.45
379.50	58.51
379.70	4.68
379.89	44.47
380.09	0.00
380.28	67.88
380.48	0.00
380.68	39.79
380.87	39.79
381.07	21.06
381.26	32.77
381.46	25.75
381.65	39.79
381.85	35.11
382.04	49.15
382.24	14.04
382.43	35.11
382.63	18.72
382.83	0.00
383.02	117.03
383.22	0.00
383.41	37.45
383.61	37.45
383.80	32.77
384.00	30.43
384.19	14.04
384.39	18.72
384.58	14.04
384.78	0.00
384.97	14.04
385.17	42.13
385.36	35.11
385.56	0.00
385.75	42.13
385.95	23.41
386.14	11.70
386.34	51.49
386.53	0.00
386.72	4.68
386.92	0.00
387.11	65.54
387.31	42.13
387.50	30.43
387.70	0.00
387.89	0.00
388.09	4.68
388.28	0.00
388.48	44.47
388.67	0.00
388.86	35.11
389.06	16.38
389.25	67.88
389.45	0.00
389.64	0.00
389.84	39.79
390.03	0.00
390.22	121.71
390.42	60.85
390.61	23.41
390.81	32.77
391.00	39.79
391.19	0.00
391.39	14.04
391.58	0.00
391.78	0.00
391.97	35.11
392.16	4.68
392.36	7.02
392.55	0.00
392.75	58.51
392.94	42.13
393.13	23.41
393.33	7.02
393.52	14.04
393.71	0.00
393.91	28.09
394.10	11.70
394.29	14.04
394.49	35.11
394.68	21.06
394.88	56.17
395.07	0.00
395.26	0.00
395.46	110.01
395.65	0.00
395.84	0.00
396.04	0.00
396.23	21.06
396.42	0.00
396.62	39.79
396.81	42.13
397.00	4.68
397.19	65.54
397.39	14.04
397.58	0.00
397.77	0.00
397.97	28.09
398.16	49.15
398.35	86.60
398.55	65.54
398.74	35.11
398.93	25.75
399.12	4.68
399.32	53.83
399.51	30.43
399.70	63.19
399.90	21.06
400.09	0.00
400.28	4.68
400.47	46.81
400.67	32.77
400.86	58.51
401.05	25.75
401.24	23.41
401.44	77.24
401.63	32.77
401.82	18.72
402.01	42.13
402.21	51.49
402.40	74.90
402.59	39.79
402.78	56.17
402.97	77.24
403.17	37.45
403.36	0.00
403.55	44.47
403.74	0.00
403.93	11.70
404.13	32.77
404.32	37.45
404.51	25.75
404.70	56.17
404.89	88.94
405.09	18.72
405.28	53.83
405.47	0.00
405.66	0.00
405.85	42.13
406.05	0.00
406.24	51.49
406.43	7.02
406.62	84.26
406.81	114.69
407.00	0.00
407.20	77.24
407.39	86.60
407.58	0.00
407.77	32.77
407.96	44.47
408.15	0.00
408.34	58.51
408.54	105.32
408.73	30.43
408.92	56.17
409.11	0.00
409.30	100.64
409.49	0.00
409.68	16.38
409.87	11.70
410.07	0.00
410.26	0.00
410.45	46.81
410.64	2.34
410.83	25.75
411.02	63.19
411.21	67.88
411.40	0.00
411.59	0.00
411.78	72.56
411.98	70.22
412.17	49.15
412.36	65.54
412.55	0.00
412.74	67.88
412.93	0.00
413.12	35.11
413.31	53.83
413.50	60.85
413.69	2.34
413.88	0.00
414.07	63.19
414.26	49.15
414.45	72.56
414.64	42.13
414.83	32.77
415.02	81.92
415.22	23.41
415.41	28.09
415.60	51.49
415.79	0.00
415.98	37.45
416.17	56.17
416.36	53.83
416.55	93.62
416.74	14.04
416.93	0.00
417.12	21.06
417.31	63.19
417.50	79.58
417.69	105.32
417.88	16.38
418.07	28.09
418.26	32.77
418.45	67.88
418.64	11.70
418.83	0.00
419.02	44.47
419.21	7.02
419.39	0.00
419.58	0.00
419.77	81.92
419.96	84.26
420.15	63.19
420.34	110.01
420.53	14.04
420.72	65.54
420.91	0.00
421.10	65.54
421.29	18.72
421.48	32.77
421.67	51.49
421.86	91.28
422.05	86.60
422.24	65.54
422.43	42.13
422.61	21.06
422.80	2.34
422.99	79.58
423.18	53.83
423.37	58.51
423.56	44.47
423.75	0.00
423.94	84.26
424.13	16.38
424.32	63.19
424.50	0.00
424.69	0.00
424.88	86.60
425.07	0.00
425.26	107.66
425.45	16.38
425.64	0.00
425.83	63.19
426.01	67.88
426.20	18.72
426.39	0.00
426.58	28.09
426.77	32.77
426.96	39.79
427.15	4.68
427.33	0.00
427.52	32.77
427.71	23.41
427.90	60.85
428.09	0.00
428.28	16.38
428.46	9.36
428.65	23.41
428.84	37.45
429.03	7.02
429.22	32.77
429.40	21.06
429.59	23.41
429.78	35.11
429.97	32.77
430.16	102.98
430.34	28.09
430.53	58.51
430.72	25.75
430.91	44.47
431.10	42.13
431.28	88.94
431.47	70.22
431.66	49.15
431.85	67.88
432.03	0.00
432.22	32.77
432.41	14.04
432.60	81.92
432.79	0.00
432.97	135.75
433.16	44.47
433.35	0.00
433.54	70.22
433.72	7.02
433.91	0.00
434.10	30.43
434.28	53.83
434.47	0.00
434.66	0.00
434.85	65.54
435.03	35.11
435.22	14.04
435.41	86.60
435.59	0.00
435.78	21.06
435.97	67.88
436.16	23.41
436.34	18.72
436.53	93.62
436.72	42.13
436.90	98.30
437.09	4.68
437.28	0.00
437.46	0.00
437.65	84.26
437.84	84.26
438.02	46.81
438.21	86.60
438.40	44.47
438.58	14.04
438.77	49.15
438.96	81.92
439.14	7.02
439.33	30.43
439.52	0.00
439.70	23.41
439.89	28.09
440.08	0.00
440.26	46.81
440.45	70.22
440.63	11.70
440.82	44.47
441.01	56.17
441.19	51.49
441.38	9.36
441.57	37.45
441.75	21.06
441.94	14.04
442.12	9.36
442.31	44.47
442.50	0.00
442.68	56.17
442.87	23.41
443.05	84.26
443.24	0.00
443.43	79.58
443.61	79.58
443.80	23.41
443.98	4.68
444.17	63.19
444.35	44.47
444.54	0.00
444.73	49.15
444.91	32.77
445.10	18.72
445.28	0.00
445.47	35.11
445.65	81.92
445.84	70.22
446.02	14.04
446.21	51.49
446.39	11.70
446.58	0.00
446.77	0.00
446.95	21.06
447.14	70.22
447.32	46.81
447.51	60.85
447.69	44.47
447.88	0.00
448.06	16.38
448.25	63.19
448.43	0.00
448.62	4.68
448.80	21.06
448.99	74.90
449.17	133.41
449.36	30.43
449.54	28.09
449.73	0.00
449.91	7.02
450.10	0.00
450.28	65.54
450.46	37.45
450.65	60.85
450.83	56.17
451.02	51.49
451.20	70.22
451.39	124.05
451.57	30.43
451.76	0.00
451.94	30.43
452.13	18.72
452.31	44.47
452.49	23.41
452.68	0.00
452.86	0.00
453.05	77.24
453.23	88.94
453.42	14.04
453.60	77.24
453.78	0.00
453.97	56.17
454.15	56.17
454.34	2.34
454.52	44.47
454.70	131.07
454.89	63.19
455.07	35.11
455.26	63.19
455.44	49.15
455.62	53.83
455.81	70.22
455.99	72.56
456.17	95.96
456.36	56.17
456.54	23.41
456.73	23.41
456.91	0.00
457.09	42.13
457.28	74.90
457.46	0.00
457.64	25.75
457.83	0.00
458.01	28.09
458.19	25.75
458.38	86.60
458.56	16.38
458.74	0.00
458.93	42.13
459.11	21.06
459.29	0.00
459.48	88.94
459.66	49.15
459.84	0.00
460.03	74.90
460.21	65.54
460.39	37.45
460.57	0.00
460.76	70.22
460.94	65.54
461.12	63.19
461.31	46.81
461.49	65.54
461.67	39.79
461.85	0.00
462.04	91.28
462.22	159.16
462.40	60.85
462.59	63.19
462.77	65.54
462.95	42.13
463.13	65.54
463.32	4.68
463.50	0.00
463.68	107.66
463.86	32.77
464.05	0.00
464.23	121.71
464.41	51.49
464.59	0.00
464.78	81.92
464.96	63.19
465.14	11.70
465.32	16.38
465.50	0.00
465.69	0.00
465.87	77.24
466.05	74.90
466.23	11.70
466.41	0.00
466.60	28.09
466.78	72.56
466.96	21.06
467.14	42.13
467.32	44.47
467.51	18.72
467.69	60.85
467.87	2.34
468.05	79.58
468.23	39.79
468.41	51.49
468.60	58.51
468.78	11.70
468.96	7.02
469.14	21.06
469.32	30.43
469.50	11.70
469.69	37.45
469.87	0.00
470.05	56.17
470.23	51.49
470.41	0.00
470.59	49.15
470.77	53.83
470.95	9.36
471.14	0.00
471.32	60.85
471.50	18.72
471.68	77.24
471.86	39.79
472.04	70.22
472.22	112.35
472.40	30.43
472.58	63.19
472.77	70.22
472.95	95.96
473.13	30.43
473.31	60.85
473.49	46.81
473.67	9.36
473.85	74.90
474.03	35.11
474.21	7.02
474.39	42.13
474.57	0.00
474.75	2.34
474.93	70.22
475.12	46.81
475.30	0.00
475.48	35.11
475.66	4.68
475.84	37.45
476.02	77.24
476.20	63.19
476.38	67.88
476.56	0.00
476.74	0.00
476.92	0.00
477.10	21.06
477.28	0.00
477.46	7.02
477.64	0.00
477.82	0.00
478.00	79.58
478.18	46.81
478.36	84.26
478.54	0.00
478.72	0.00
478.90	0.00
479.08	56.17
479.26	42.13
479.44	56.17
479.62	30.43
479.80	58.51
479.98	42.13
480.16	32.77
480.34	77.24
480.52	77.24
480.70	14.04
480.88	11.70
481.06	0.00
481.24	9.36
481.41	51.49
481.59	56.17
481.77	102.98
481.95	60.85
482.13	107.66
482.31	58.51
482.49	23.41
482.67	0.00
482.85	14.04
483.03	51.49
483.21	23.41
483.39	35.11
483.57	21.06
483.74	0.00
483.92	65.54
484.10	2.34
484.28	14.04
484.46	42.13
484.64	35.11
484.82	37.45
485.00	107.66
485.18	32.77
485.35	0.00
485.53	32.77
485.71	53.83
485.89	0.00
486.07	74.90
486.25	58.51
486.43	65.54
486.61	30.43
486.78	7.02
486.96	4.68
487.14	88.94
487.32	51.49
487.50	98.30
487.68	39.79
487.85	35.11
488.03	49.15
488.21	63.19
488.39	0.00
488.57	49.15
488.75	0.00
488.92	49.15
489.10	46.81
489.28	77.24
489.46	4.68
489.64	44.47
489.81	0.00
489.99	67.88
490.17	0.00
490.35	9.36
490.53	42.13
490.70	42.13
490.88	21.06
491.06	39.79
491.24	16.38
491.41	4.68
491.59	35.11
491.77	0.00
491.95	18.72
492.13	58.51
492.30	51.49
492.48	0.00
492.66	18.72
492.84	30.43
493.01	35.11
493.19	0.00
493.37	56.17
493.54	0.00
493.72	44.47
493.90	7.02
494.08	42.13
494.25	51.49
494.43	60.85
494.61	46.81
494.79	124.05
494.96	32.77
495.14	0.00
495.32	44.47
495.49	0.00
495.67	2.34
495.85	30.43
496.02	35.11
496.20	0.00
496.38	44.47
496.55	23.41
496.73	42.13
496.91	74.90
497.09	110.01
497.26	56.17
497.44	18.72
497.62	79.58
497.79	9.36
497.97	25.75
498.14	95.96
498.32	49.15
498.50	44.47
498.67	53.83
498.85	46.81
499.03	21.06
499.20	53.83
499.38	35.11
499.56	0.00
499.73	149.79
499.91	2.34
500.08	56.17
500.26	23.41
500.44	56.17
500.61	35.11
500.79	46.81
500.97	51.49
501.14	67.88
501.32	56.17
501.49	79.58
501.67	65.54
501.84	42.13
502.02	0.00
502.20	16.38
502.37	53.83
502.55	23.41
502.72	35.11
502.90	18.72
503.07	14.04
503.25	0.00
503.43	121.71
503.60	58.51
503.78	67.88
503.95	4.68
504.13	30.43
504.30	14.04
504.48	9.36
504.65	9.36
504.83	58.51
505.01	46.81
505.18	67.88
505.36	65.54
505.53	102.98
505.71	91.28
505.88	60.85
506.06	56.17
506.23	37.45
506.41	7.02
506.58	49.15
506.76	0.00
506.93	56.17
507.11	42.13
507.28	28.09
507.46	77.24
507.63	30.43
507.81	49.15
507.98	53.83
508.16	70.22
508.33	51.49
508.50	0.00
508.68	58.51
508.85	49.15
509.03	56.17
509.20	60.85
509.38	63.19
509.55	0.00
509.73	18.72
509.90	63.19
510.08	56.17
510.25	74.90
510.42	28.09
510.60	0.00
510.77	32.77
510.95	18.72
511.12	49.15
511.30	65.54
511.47	49.15
511.64	42.13
511.82	25.75
511.99	77.24
512.17	0.00
512.34	21.06
512.51	128.73
512.69	42.13
512.86	58.51
513.04	28.09
513.21	14.04
513.38	0.00
513.56	51.49
513.73	0.00
513.90	42.13
514.08	32.77
514.25	63.19
514.43	2.34
514.60	35.11
514.77	72.56
514.95	67.88
515.12	0.00
515.29	4.68
515.47	39.79
515.64	9.36
515.81	58.51
515.99	95.96
516.16	56.17
516.33	88.94
516.51	86.60
516.68	21.06
516.85	88.94
517.03	35.11
517.20	65.54
517.37	133.41
517.54	30.43
517.72	23.41
517.89	11.70
518.06	81.92
518.24	0.00
518.41	35.11
518.58	0.00
518.75	93.62
518.93	25.75
519.10	53.83
519.27	37.45
519.45	0.00
519.62	77.24
519.79	11.70
519.96	53.83
520.14	42.13
520.31	14.04
520.48	60.85
520.65	21.06
520.83	161.50
521.00	58.51
521.17	53.83
521.34	32.77
521.52	42.13
521.69	65.54
521.86	49.15
522.03	91.28
522.20	39.79
522.38	95.96
522.55	0.00
522.72	124.05
522.89	95.96
523.07	0.00
523.24	42.13
523.41	46.81
523.58	51.49
523.75	18.72
523.92	30.43
524.10	2.34
524.27	14.04
524.44	32.77
524.61	21.06
524.78	21.06
524.96	77.24
525.13	72.56
525.30	0.00
525.47	67.88
525.64	37.45
525.81	84.26
525.98	42.13
526.16	14.04
526.33	70.22
526.50	0.00
526.67	46.81
526.84	0.00
527.01	65.54
527.18	56.17
527.36	67.88
527.53	81.92
527.70	63.19
527.87	0.00
528.04	4.68
528.21	56.17
528.38	44.47
528.55	0.00
528.72	84.26
528.89	39.79
529.07	0.00
529.24	49.15
529.41	23.41
529.58	70.22
529.75	18.72
529.92	39.79
530.09	11.70
530.26	65.54
530.43	14.04
530.60	70.22
530.77	30.43
530.94	98.30
531.11	58.51
531.28	16.38
531.46	11.70
531.63	63.19
531.80	4.68
531.97	0.00
532.14	30.43
532.31	42.13
532.48	131.07
532.65	74.90
532.82	74.90
532.99	91.28
533.16	18.72
533.33	98.30
533.50	14.04
533.67	39.79
533.84	117.03
534.01	60.85
534.18	53.83
534.35	37.45
534.52	105.32
534.69	42.13
534.86	51.49
535.03	84.26
535.20	49.15
535.37	28.09
535.54	44.47
535.71	58.51
535.88	11.70
536.05	91.28
536.22	77.24
536.38	53.83
536.55	23.41
536.72	37.45
536.89	18.72
537.06	91.28
537.23	7.02
537.40	93.62
537.57	42.13
537.74	53.83
537.91	51.49
538.08	4.68
538.25	39.79
538.42	25.75
538.59	46.81
538.75	23.41
538.92	72.56
539.09	74.90
539.26	28.09
539.43	44.47
539.60	119.37
539.77	234.05
539.94	243.42
540.11	156.82
540.28	30.43
540.44	28.09
540.61	21.06
540.78	131.07
540.95	98.30
541.12	2.34
541.29	0.00
541.46	0.00
541.62	60.85
541.79	95.96
541.96	28.09
542.13	60.85
542.30	0.00
542.47	35.11
542.63	79.58
542.80	42.13
542.97	53.83
543.14	105.32
543.31	25.75
543.48	0.00
543.64	58.51
543.81	63.19
543.98	98.30
544.15	35.11
544.32	49.15
544.48	28.09
544.65	65.54
544.82	44.47
544.99	0.00
545.16	0.00
545.32	79.58
545.49	35.11
545.66	46.81
545.83	124.05
546.00	74.90
546.16	0.00
546.33	65.54
546.50	39.79
546.67	79.58
546.83	11.70
547.00	4.68
547.17	63.19
547.34	2.34
547.50	0.00
547.67	51.49
547.84	37.45
548.00	65.54
548.17	65.54
548.34	98.30
548.51	0.00
548.67	0.00
548.84	70.22
549.01	117.03
549.18	95.96
549.34	7.02
549.51	42.13
549.68	28.09
549.84	0.00
550.01	30.43
550.18	46.81
550.34	16.38
550.51	74.90
550.68	0.00
550.84	11.70
551.01	32.77
551.18	84.26
551.34	95.96
551.51	58.51
551.68	39.79
551.84	88.94
552.01	51.49
552.18	95.96
552.34	49.15
552.51	49.15
552.68	63.19
552.84	110.01
553.01	163.84
553.18	65.54
553.34	18.72
553.51	65.54
553.67	42.13
553.84	140.43
554.01	70.22
554.17	74.90
554.34	49.15
554.51	65.54
554.67	35.11
554.84	77.24
555.00	95.96
555.17	14.04
555.33	32.77
555.50	0.00
555.67	56.17
555.83	23.41
556.00	16.38
556.16	74.90
556.33	56.17
556.50	37.45
556.66	51.49
556.83	0.00
556.99	32.77
557.16	32.77
557.32	74.90
557.49	100.64
557.65	51.49
557.82	91.28
557.98	91.28
558.15	0.00
558.32	65.54
558.48	39.79
558.65	46.81
558.81	0.00
558.98	70.22
559.14	9.36
559.31	23.41
559.47	0.00
559.64	44.47
559.80	37.45
559.97	58.51
560.13	56.17
560.30	53.83
560.46	0.00
560.63	95.96
560.79	121.71
560.96	16.38
561.12	2.34
561.29	95.96
561.45	58.51
561.61	72.56
561.78	65.54
561.94	77.24
562.11	63.19
562.27	133.41
562.44	28.09
562.60	56.17
562.77	46.81
562.93	7.02
563.10	14.04
563.26	0.00
563.42	53.83
563.59	32.77
563.75	81.92
563.92	53.83
564.08	11.70
564.24	21.06
564.41	65.54
564.57	46.81
564.74	39.79
564.90	65.54
565.07	0.00
565.23	84.26
565.39	46.81
565.56	72.56
565.72	58.51
565.88	72.56
566.05	44.47
566.21	23.41
566.38	18.72
566.54	4.68
566.70	21.06
566.87	21.06
567.03	95.96
567.19	32.77
567.36	28.09
567.52	44.47
567.68	14.04
567.85	23.41
568.01	44.47
568.17	28.09
568.34	16.38
568.50	77.24
568.66	25.75
568.83	95.96
568.99	72.56
569.15	28.09
569.32	81.92
569.48	28.09
569.64	95.96
569.81	84.26
569.97	72.56
570.13	119.37
570.30	28.09
570.46	67.88
570.62	81.92
570.78	58.51
570.95	44.47
571.11	95.96
571.27	114.69
571.43	39.79
571.60	0.00
571.76	0.00
571.92	67.88
572.09	0.00
572.25	56.17
572.41	42.13
572.57	30.43
572.74	51.49
572.90	79.58
573.06	23.41
573.22	110.01
573.38	77.24
573.55	16.38
573.71	56.17
573.87	56.17
574.03	74.90
574.20	58.51
574.36	42.13
574.52	95.96
574.68	49.15
574.84	60.85
575.01	21.06
575.17	37.45
575.33	84.26
575.49	11.70
575.65	21.06
575.82	70.22
575.98	70.22
576.14	112.35
576.30	79.58
576.46	65.54
576.62	14.04
576.79	112.35
576.95	65.54
577.11	23.41
577.27	14.04
577.43	30.43
577.59	49.15
577.75	0.00
577.92	25.75
578.08	51.49
578.24	32.77
578.40	9.36
578.56	56.17
578.72	56.17
578.88	4.68
579.04	0.00
579.21	105.32
579.37	65.54
579.53	63.19
579.69	81.92
579.85	65.54
580.01	32.77
580.17	91.28
580.33	14.04
580.49	0.00
580.65	39.79
580.82	86.60
580.98	86.60
581.14	65.54
581.30	77.24
581.46	84.26
581.62	21.06
581.78	93.62
581.94	67.88
582.10	65.54
582.26	25.75
582.42	98.30
582.58	0.00
582.74	18.72
582.90	74.90
583.06	102.98
583.22	39.79
583.38	79.58
583.54	112.35
583.70	86.60
583.86	46.81
584.02	51.49
584.18	149.79
584.34	140.43
584.50	421.30
584.66	2560.55
584.82	6431.79
584.98	10263.25
585.14	9390.23
585.30	5694.52
585.46	3295.47
585.62	2024.56
585.78	990.05
585.94	407.25
586.10	189.58
586.26	91.28
586.42	53.83
586.58	105.32
586.74	35.11
586.90	49.15
587.06	124.05
587.22	58.51
587.38	124.05
587.54	187.24
587.70	404.91
587.86	624.92
588.02	720.88
588.18	592.16
588.34	353.42
588.49	287.89
588.65	112.35
588.81	32.77
588.97	30.43
589.13	56.17
589.29	28.09
589.45	65.54
589.61	105.32
589.77	121.71
589.93	44.47
590.08	60.85
590.24	25.75
590.40	30.43
590.56	67.88
590.72	81.92
590.88	44.47
591.04	72.56
591.20	42.13
591.35	16.38
591.51	37.45
591.67	70.22
591.83	44.47
591.99	119.37
592.15	35.11
592.31	60.85
592.46	42.13
592.62	18.72
592.78	86.60
592.94	0.00
593.10	46.81
593.26	65.54
593.41	56.17
593.57	46.81
593.73	63.19
593.89	294.91
594.05	896.43
594.20	1306.02
594.36	1327.08
594.52	770.04
594.68	543.00
594.84	313.63
594.99	182.56
595.15	98.30
595.31	23.41
595.47	93.62
595.62	46.81
595.78	81.92
595.94	81.92
596.10	4.68
596.25	67.88
596.41	107.66
596.57	44.47
596.73	88.94
596.88	95.96
597.04	180.22
597.20	285.55
597.36	299.59
597.51	301.93
597.67	163.84
597.83	46.81
597.99	88.94
598.14	60.85
598.30	84.26
598.46	51.49
598.61	135.75
598.77	60.85
598.93	46.81
599.09	23.41
599.24	56.17
599.40	28.09
599.56	0.00
599.71	18.72
599.87	79.58
600.03	65.54
600.18	46.81
600.34	39.79
600.50	56.17
600.65	18.72
600.81	91.28
600.97	51.49
601.12	0.00
601.28	32.77
601.44	84.26
601.59	14.04
601.75	37.45
601.91	77.24
602.06	42.13
602.22	42.13
602.37	105.32
602.53	266.82
602.69	435.34
602.84	407.25
603.00	248.10
603.16	212.99
603.31	126.39
603.47	159.16
603.62	65.54
603.78	28.09
603.94	102.98
604.09	81.92
604.25	74.90
604.40	53.83
604.56	107.66
604.71	107.66
604.87	42.13
605.03	16.38
605.18	23.41
605.34	14.04
605.49	28.09
605.65	100.64
605.80	98.30
605.96	53.83
606.12	46.81
606.27	56.17
606.43	81.92
606.58	166.18
606.74	98.30
606.89	430.66
607.05	884.72
607.20	1167.93
607.36	964.30
607.51	610.88
607.67	444.70
607.82	308.95
607.98	156.82
608.13	114.69
608.29	70.22
608.44	21.06
608.60	140.43
608.75	65.54
608.91	117.03
609.06	629.60
609.22	1401.98
609.37	1930.94
609.53	1734.34
609.68	1128.14
609.84	758.33
609.99	456.40
610.15	266.82
610.30	138.09
610.46	105.32
610.61	119.37
610.76	42.13
610.92	81.92
611.07	25.75
611.23	14.04
611.38	35.11
611.54	88.94
611.69	30.43
611.84	51.49
612.00	42.13
612.15	98.30
612.31	63.19
612.46	70.22
612.62	65.54
612.77	81.92
612.92	124.05
613.08	91.28
613.23	131.07
613.39	42.13
613.54	81.92
613.69	596.84
613.85	1612.63
614.00	2731.41
614.15	3035.67
614.31	2188.40
614.46	1425.39
614.62	919.83
614.77	524.28
614.92	198.95
615.08	161.50
615.23	42.13
615.38	145.11
615.54	91.28
615.69	140.43
615.84	278.52
616.00	660.03
616.15	795.78
616.30	671.73
616.46	444.70
616.61	341.72
616.76	259.80
616.92	124.05
617.07	86.60
617.22	25.75
617.37	145.11
617.53	81.92
617.68	56.17
617.83	37.45
617.99	2.34
618.14	37.45
618.29	35.11
618.45	91.28
618.60	56.17
618.75	32.77
618.90	42.13
619.06	21.06
619.21	16.38
619.36	70.22
619.51	0.00
619.67	37.45
619.82	65.54
619.97	14.04
620.12	67.88
620.28	56.17
620.43	105.32
620.58	39.79
620.73	51.49
620.89	91.28
621.04	74.90
621.19	184.90
621.34	337.04
621.49	500.87
621.65	440.02
621.80	344.06
621.95	159.16
622.10	182.56
622.25	145.11
622.41	7.02
622.56	46.81
622.71	117.03
622.86	23.41
623.01	51.49
623.16	51.49
623.32	56.17
623.47	74.90
623.62	93.62
623.77	44.47
623.92	53.83
624.07	49.15
624.23	0.00
624.38	49.15
624.53	84.26
624.68	37.45
624.83	39.79
624.98	14.04
625.13	95.96
625.29	16.38
625.44	84.26
625.59	72.56
625.74	0.00
625.89	63.19
626.04	236.39
626.19	840.25
626.34	1299.00
626.49	1547.09
626.65	1268.57
626.80	847.27
626.95	503.22
627.10	369.80
627.25	170.86
627.40	107.66
627.55	63.19
627.70	2.34
627.85	39.79
628.00	25.75
628.15	0.00
628.30	79.58
628.45	95.96
628.60	0.00
628.76	65.54
628.91	9.36
629.06	51.49
629.21	0.00
629.36	14.04
629.51	86.60
629.66	65.54
629.81	126.39
629.96	166.18
630.11	311.29
630.26	416.62
630.41	440.02
630.56	280.86
630.71	191.92
630.86	142.77
631.01	133.41
631.16	42.13
631.31	88.94
631.46	58.51
631.61	32.77
631.76	35.11
631.91	39.79
632.06	91.28
632.21	39.79
632.36	81.92
632.51	42.13
632.66	14.04
632.81	189.58
632.96	468.11
633.10	828.55
633.25	1104.73
633.40	870.68
633.55	690.46
633.70	465.77
633.85	367.46
634.00	154.48
634.15	126.39
634.30	53.83
634.45	4.68
634.60	107.66
634.75	84.26
634.90	2.34
635.05	30.43
635.19	39.79
635.34	46.81
635.49	18.72
635.64	35.11
635.79	9.36
635.94	77.24
636.09	18.72
636.24	32.77
636.39	67.88
636.53	9.36
636.68	72.56
636.83	102.98
636.98	58.51
637.13	39.79
637.28	95.96
637.43	58.51
637.57	88.94
637.72	433.00
637.87	1029.84
638.02	1760.08
638.17	2167.34
638.32	1579.86
638.46	1004.09
638.61	713.86
638.76	400.23
638.91	152.13
639.06	124.05
639.20	93.62
639.35	107.66
639.50	107.66
639.65	741.95
639.80	1678.16
639.94	2682.25
640.09	3274.41
640.24	2368.62
640.39	1614.97
640.54	1118.78
640.68	699.82
640.83	379.17
640.98	161.50
641.13	25.75
641.27	133.41
641.42	67.88
641.57	135.75
641.72	42.13
641.86	53.83
642.01	56.17
642.16	102.98
642.31	81.92
642.45	16.38
642.60	11.70
642.75	100.64
642.90	2.34
643.04	49.15
643.19	16.38
643.34	60.85
643.48	25.75
643.63	0.00
643.78	30.43
643.93	70.22
644.07	63.19
644.22	39.79
644.37	63.19
644.51	81.92
644.66	0.00
644.81	16.38
644.95	11.70
645.10	39.79
645.25	37.45
645.39	88.94
645.54	18.72
645.69	93.62
645.83	53.83
645.98	25.75
646.13	65.54
646.27	4.68
646.42	49.15
646.57	14.04
646.71	37.45
646.86	2.34
647.00	28.09
647.15	98.30
647.30	39.79
647.44	86.60
647.59	23.41
647.74	11.70
647.88	35.11
648.03	0.00
648.17	30.43
648.32	16.38
648.47	18.72
648.61	70.22
648.76	42.13
648.90	44.47
649.05	53.83
649.20	30.43
649.34	39.79
649.49	67.88
649.63	21.06
649.78	21.06
649.92	124.05
650.07	154.48
650.21	716.20
650.36	1294.32
650.51	1612.63
650.65	1394.96
650.80	1027.50
650.94	641.31
651.09	435.34
651.23	203.63
651.38	170.86
651.52	56.17
651.67	46.81
651.81	18.72
651.96	110.01
652.10	133.41
652.25	63.19
652.39	37.45
652.54	119.37
652.68	70.22
652.83	196.60
652.97	421.30
653.12	592.16
653.26	533.64
653.41	404.91
653.55	248.10
653.70	180.22
653.84	114.69
653.99	74.90
654.13	86.60
654.27	11.70
654.42	35.11
654.56	79.58
654.71	46.81
654.85	74.90
655.00	0.00
655.14	18.72
655.29	67.88
655.43	0.00
655.57	11.70
655.72	84.26
655.86	25.75
656.01	44.47
656.15	102.98
656.30	56.17
656.44	0.00
656.58	79.58
656.73	0.00
656.87	77.24
657.01	0.00
657.16	9.36
657.30	0.00
657.45	117.03
657.59	67.88
657.73	56.17
657.88	21.06
658.02	51.49
658.16	21.06
658.31	39.79
658.45	42.13
658.60	42.13
658.74	70.22
658.88	79.58
659.03	65.54
659.17	2.34
659.31	93.62
659.46	322.99
659.60	613.22
659.74	805.14
659.89	802.80
660.03	535.98
660.17	318.31
660.32	238.73
660.46	142.77
660.60	112.35
660.74	84.26
660.89	65.54
661.03	53.83
661.17	112.35
661.32	16.38
661.46	44.47
661.60	23.41
661.74	70.22
661.89	119.37
662.03	58.51
662.17	0.00
662.31	0.00
662.46	49.15
662.60	39.79
662.74	28.09
662.88	11.70
663.03	72.56
663.17	0.00
663.31	32.77
663.45	28.09
663.60	58.51
663.74	42.13
663.88	32.77
664.02	11.70
664.17	35.11
664.31	0.00
664.45	14.04
664.59	14.04
664.73	9.36
664.88	0.00
665.02	91.28
665.16	65.54
665.30	0.00
665.44	14.04
665.59	98.30
665.73	4.68
665.87	67.88
666.01	21.06
666.15	74.90
666.29	63.19
666.44	42.13
666.58	91.28
666.72	28.09
666.86	35.11
667.00	25.75
667.14	39.79
667.28	84.26
667.43	543.00
667.57	1036.86
667.71	1497.94
667.85	1245.16
667.99	786.42
668.13	547.69
668.27	386.19
668.41	191.92
668.56	110.01
668.70	56.17
668.84	65.54
668.98	0.00
669.12	16.38
669.26	16.38
669.40	65.54
669.54	65.54
669.68	74.90
669.82	21.06
669.96	9.36
670.10	0.00
670.25	2.34
670.39	37.45
670.53	0.00
670.67	46.81
670.81	39.79
670.95	4.68
671.09	28.09
671.23	196.60
671.37	491.51
671.51	828.55
671.65	917.49
671.79	688.12
671.93	482.15
672.07	301.93
672.21	184.90
672.35	114.69
672.49	28.09
672.63	72.56
672.77	46.81
672.91	18.72
673.05	46.81
673.19	18.72
673.33	44.47
673.47	42.13
673.61	53.83
673.75	58.51
673.89	7.02
674.03	56.17
674.17	0.00
674.31	60.85
674.45	58.51
674.59	63.19
674.73	67.88
674.87	58.51
675.01	9.36
675.15	60.85
675.29	114.69
675.43	86.60
675.56	51.49
675.70	70.22
675.84	2.34
675.98	7.02
676.12	74.90
676.26	102.98
676.40	53.83
676.54	35.11
676.68	0.00
676.82	30.43
676.96	25.75
677.10	53.83
677.23	74.90
677.37	0.00
677.51	58.51
677.65	70.22
677.79	0.00
677.93	77.24
678.07	16.38
678.21	56.17
678.34	30.43
678.48	81.92
678.62	0.00
678.76	0.00
678.90	74.90
679.04	14.04
679.18	11.70
679.31	37.45
679.45	44.47
679.59	42.13
679.73	0.00
679.87	70.22
680.00	14.04
680.14	67.88
680.28	37.45
680.42	23.41
680.56	0.00
680.70	30.43
680.83	25.75
680.97	56.17
681.11	37.45
681.25	0.00
681.39	25.75
681.52	84.26
681.66	32.77
681.80	53.83
681.94	0.00
682.07	32.77
682.21	28.09
682.35	37.45
682.49	0.00
682.62	65.54
682.76	0.00
682.90	16.38
683.04	9.36
683.17	0.00
683.31	51.49
683.45	53.83
683.59	7.02
683.72	0.00
683.86	0.00
684.00	16.38
684.13	0.00
684.27	105.32
684.41	35.11
684.55	37.45
684.68	14.04
684.82	0.00
684.96	44.47
685.09	91.28
685.23	0.00
685.37	0.00
685.50	74.90
685.64	35.11
685.78	23.41
685.91	23.41
686.05	74.90
686.19	81.92
686.32	11.70
686.46	72.56
686.60	58.51
686.73	46.81
686.87	0.00
687.01	7.02
687.14	86.60
687.28	65.54
687.42	11.70
687.55	18.72
687.69	0.00
687.82	70.22
687.96	58.51
688.10	77.24
688.23	37.45
688.37	46.81
688.50	21.06
688.64	35.11
688.78	51.49
688.91	9.36
689.05	30.43
689.18	16.38
689.32	98.30
689.46	18.72
689.59	0.00
689.73	84.26
689.86	81.92
690.00	32.77
690.13	79.58
690.27	0.00
690.41	35.11
690.54	23.41
690.68	60.85
690.81	25.75
690.95	0.00
691.08	63.19
691.22	32.77
691.35	112.35
691.49	53.83
691.62	42.13
691.76	114.69
691.89	95.96
692.03	46.81
692.16	0.00
692.30	60.85
692.43	98.30
692.57	250.44
692.70	479.81
692.84	699.82
692.97	594.50
693.11	390.87
693.24	313.63
693.38	278.52
693.51	184.90
693.65	159.16
693.78	44.47
693.92	112.35
694.05	35.11
694.19	100.64
694.32	46.81
694.45	30.43
694.59	46.81
694.72	0.00
694.86	37.45
694.99	102.98
695.13	56.17
695.26	25.75
695.39	51.49
695.53	0.00
695.66	44.47
695.80	42.13
695.93	58.51
696.07	60.85
696.20	63.19
696.33	35.11
696.47	86.60
696.60	93.62
696.73	98.30
696.87	91.28
697.00	9.36
697.14	0.00
697.27	46.81
697.40	77.24
697.54	53.83
697.67	65.54
697.80	0.00
697.94	98.30
698.07	46.81
698.21	70.22
698.34	28.09
698.47	44.47
698.61	74.90
698.74	49.15
698.87	0.00
699.01	39.79
699.14	7.02
699.27	28.09
699.40	42.13
699.54	21.06
699.67	11.70
699.80	84.26
699.94	16.38
700.07	16.38
700.20	0.00
700.34	32.77
700.47	0.00
700.60	51.49
700.73	0.00
700.87	7.02
701.00	23.41
701.13	46.81
701.26	70.22
701.40	18.72
701.53	7.02
701.66	0.00
701.79	72.56
701.93	25.75
702.06	37.45
702.19	110.01
702.32	79.58
702.46	67.88
702.59	70.22
702.72	81.92
702.85	367.46
702.99	704.50
703.12	1053.24
703.25	1270.91
703.38	1064.94
703.51	1004.09
703.65	655.35
703.78	482.15
703.91	306.61
704.04	194.26
704.17	189.58
704.31	60.85
704.44	44.47
704.57	35.11
704.70	86.60
704.83	51.49
704.96	4.68
705.10	65.54
705.23	60.85
>>>>>End Processed Spectral Data<<<<<
