SpectraSuite Data File
++++++++++++++++++++++++++++++++++++
Date: Fri Oct 04 12:13:41 GMT-05:00 2013
User: price-jones
Dark Spectrum Present: No
Reference Spectrum Present: No
Number of Sampled Component Spectra: 1
Spectrometers: USB2+H05261
Integration Time (usec): 10000 (USB2+H05261)
Spectra Averaged: 1 (USB2+H05261)
Boxcar Smoothing: 0 (USB2+H05261)
Correct for Electrical Dark: No (USB2+H05261)
Strobe/Lamp Enabled: No (USB2+H05261)
Correct for Detector Non-linearity: No (USB2+H05261)
Correct for Stray Light: No (USB2+H05261)
Number of Pixels in Processed Spectrum: 2048
>>>>>Begin Processed Spectral Data<<<<<
365.73	0.00
365.92	0.00
366.12	0.00
366.32	0.00
366.52	0.00
366.72	0.00
366.91	0.00
367.11	0.00
367.31	0.00
367.51	0.00
367.70	0.00
367.90	0.00
368.10	0.00
368.30	0.00
368.49	0.00
368.69	0.00
368.89	0.00
369.09	0.00
369.28	0.00
369.48	0.00
369.68	0.00
369.87	0.00
370.07	0.00
370.27	0.00
370.47	0.00
370.66	0.00
370.86	0.00
371.06	0.00
371.25	9.36
371.45	0.00
371.65	9.36
371.84	0.00
372.04	0.00
372.24	11.70
372.44	0.00
372.63	0.00
372.83	60.85
373.03	0.00
373.22	0.00
373.42	0.00
373.62	67.88
373.81	0.00
374.01	14.04
374.21	9.36
374.40	81.92
374.60	14.04
374.79	46.81
374.99	2.34
375.19	0.00
375.38	35.11
375.58	60.85
375.78	49.15
375.97	51.49
376.17	4.68
376.37	25.75
376.56	58.51
376.76	16.38
376.95	67.88
377.15	14.04
377.35	0.00
377.54	16.38
377.74	11.70
377.93	70.22
378.13	0.00
378.33	60.85
378.52	0.00
378.72	0.00
378.91	23.41
379.11	25.75
379.31	0.00
379.50	46.81
379.70	0.00
379.89	37.45
380.09	0.00
380.28	14.04
380.48	4.68
380.68	0.00
380.87	28.09
381.07	21.06
381.26	0.00
381.46	0.00
381.65	0.00
381.85	11.70
382.04	53.83
382.24	28.09
382.43	0.00
382.63	0.00
382.83	0.00
383.02	28.09
383.22	65.54
383.41	18.72
383.61	4.68
383.80	53.83
384.00	30.43
384.19	0.00
384.39	0.00
384.58	0.00
384.78	81.92
384.97	107.66
385.17	0.00
385.36	4.68
385.56	42.13
385.75	23.41
385.95	63.19
386.14	0.00
386.34	0.00
386.53	49.15
386.72	51.49
386.92	39.79
387.11	30.43
387.31	4.68
387.50	60.85
387.70	9.36
387.89	0.00
388.09	67.88
388.28	35.11
388.48	32.77
388.67	35.11
388.86	35.11
389.06	0.00
389.25	9.36
389.45	39.79
389.64	28.09
389.84	65.54
390.03	0.00
390.22	0.00
390.42	67.88
390.61	0.00
390.81	37.45
391.00	0.00
391.19	74.90
391.39	21.06
391.58	0.00
391.78	30.43
391.97	74.90
392.16	28.09
392.36	11.70
392.55	42.13
392.75	42.13
392.94	0.00
393.13	9.36
393.33	14.04
393.52	58.51
393.71	56.17
393.91	2.34
394.10	0.00
394.29	0.00
394.49	79.58
394.68	112.35
394.88	11.70
395.07	35.11
395.26	67.88
395.46	84.26
395.65	88.94
395.84	18.72
396.04	65.54
396.23	9.36
396.42	32.77
396.62	53.83
396.81	65.54
397.00	42.13
397.19	72.56
397.39	32.77
397.58	0.00
397.77	21.06
397.97	14.04
398.16	18.72
398.35	0.00
398.55	23.41
398.74	88.94
398.93	60.85
399.12	121.71
399.32	23.41
399.51	0.00
399.70	30.43
399.90	65.54
400.09	79.58
400.28	25.75
400.47	32.77
400.67	23.41
400.86	18.72
401.05	4.68
401.24	14.04
401.44	23.41
401.63	28.09
401.82	39.79
402.01	0.00
402.21	0.00
402.40	51.49
402.59	46.81
402.78	79.58
402.97	0.00
403.17	84.26
403.36	79.58
403.55	11.70
403.74	0.00
403.93	44.47
404.13	11.70
404.32	0.00
404.51	100.64
404.70	81.92
404.89	51.49
405.09	93.62
405.28	30.43
405.47	0.00
405.66	16.38
405.85	0.00
406.05	35.11
406.24	114.69
406.43	65.54
406.62	18.72
406.81	28.09
407.00	35.11
407.20	0.00
407.39	0.00
407.58	35.11
407.77	30.43
407.96	84.26
408.15	0.00
408.34	14.04
408.54	9.36
408.73	95.96
408.92	44.47
409.11	4.68
409.30	0.00
409.49	35.11
409.68	18.72
409.87	81.92
410.07	0.00
410.26	72.56
410.45	58.51
410.64	49.15
410.83	58.51
411.02	88.94
411.21	74.90
411.40	56.17
411.59	102.98
411.78	95.96
411.98	44.47
412.17	37.45
412.36	0.00
412.55	0.00
412.74	81.92
412.93	58.51
413.12	51.49
413.31	25.75
413.50	91.28
413.69	39.79
413.88	72.56
414.07	60.85
414.26	4.68
414.45	0.00
414.64	16.38
414.83	60.85
415.02	32.77
415.22	9.36
415.41	32.77
415.60	65.54
415.79	88.94
415.98	84.26
416.17	0.00
416.36	58.51
416.55	60.85
416.74	42.13
416.93	37.45
417.12	25.75
417.31	0.00
417.50	25.75
417.69	49.15
417.88	0.00
418.07	25.75
418.26	84.26
418.45	86.60
418.64	35.11
418.83	72.56
419.02	42.13
419.21	63.19
419.39	53.83
419.58	7.02
419.77	18.72
419.96	72.56
420.15	114.69
420.34	60.85
420.53	14.04
420.72	53.83
420.91	39.79
421.10	32.77
421.29	53.83
421.48	0.00
421.67	28.09
421.86	30.43
422.05	56.17
422.24	93.62
422.43	51.49
422.61	18.72
422.80	0.00
422.99	14.04
423.18	51.49
423.37	35.11
423.56	9.36
423.75	32.77
423.94	84.26
424.13	114.69
424.32	11.70
424.50	53.83
424.69	60.85
424.88	100.64
425.07	70.22
425.26	72.56
425.45	0.00
425.64	58.51
425.83	46.81
426.01	32.77
426.20	100.64
426.39	0.00
426.58	88.94
426.77	0.00
426.96	11.70
427.15	98.30
427.33	42.13
427.52	79.58
427.71	60.85
427.90	0.00
428.09	42.13
428.28	117.03
428.46	42.13
428.65	58.51
428.84	0.00
429.03	53.83
429.22	46.81
429.40	32.77
429.59	46.81
429.78	32.77
429.97	44.47
430.16	2.34
430.34	37.45
430.53	14.04
430.72	39.79
430.91	30.43
431.10	7.02
431.28	0.00
431.47	88.94
431.66	30.43
431.85	28.09
432.03	0.00
432.22	65.54
432.41	72.56
432.60	46.81
432.79	91.28
432.97	84.26
433.16	86.60
433.35	65.54
433.54	91.28
433.72	79.58
433.91	110.01
434.10	53.83
434.28	102.98
434.47	4.68
434.66	63.19
434.85	11.70
435.03	77.24
435.22	0.00
435.41	0.00
435.59	0.00
435.78	9.36
435.97	0.00
436.16	166.18
436.34	88.94
436.53	11.70
436.72	44.47
436.90	74.90
437.09	0.00
437.28	60.85
437.46	0.00
437.65	117.03
437.84	117.03
438.02	42.13
438.21	72.56
438.40	0.00
438.58	53.83
438.77	93.62
438.96	98.30
439.14	70.22
439.33	93.62
439.52	86.60
439.70	67.88
439.89	0.00
440.08	51.49
440.26	23.41
440.45	16.38
440.63	35.11
440.82	0.00
441.01	11.70
441.19	72.56
441.38	49.15
441.57	14.04
441.75	39.79
441.94	42.13
442.12	37.45
442.31	30.43
442.50	46.81
442.68	56.17
442.87	25.75
443.05	11.70
443.24	2.34
443.43	60.85
443.61	4.68
443.80	49.15
443.98	0.00
444.17	58.51
444.35	98.30
444.54	46.81
444.73	0.00
444.91	107.66
445.10	51.49
445.28	23.41
445.47	60.85
445.65	9.36
445.84	4.68
446.02	88.94
446.21	51.49
446.39	39.79
446.58	35.11
446.77	16.38
446.95	60.85
447.14	28.09
447.32	46.81
447.51	95.96
447.69	28.09
447.88	25.75
448.06	0.00
448.25	44.47
448.43	56.17
448.62	30.43
448.80	65.54
448.99	0.00
449.17	30.43
449.36	21.06
449.54	63.19
449.73	126.39
449.91	105.32
450.10	49.15
450.28	21.06
450.46	23.41
450.65	32.77
450.83	65.54
451.02	63.19
451.20	63.19
451.39	35.11
451.57	77.24
451.76	39.79
451.94	102.98
452.13	0.00
452.31	100.64
452.49	0.00
452.68	88.94
452.86	30.43
453.05	93.62
453.23	98.30
453.42	79.58
453.60	37.45
453.78	112.35
453.97	65.54
454.15	25.75
454.34	53.83
454.52	138.09
454.70	81.92
454.89	16.38
455.07	39.79
455.26	107.66
455.44	79.58
455.62	0.00
455.81	42.13
455.99	46.81
456.17	58.51
456.36	58.51
456.54	37.45
456.73	77.24
456.91	16.38
457.09	72.56
457.28	70.22
457.46	63.19
457.64	25.75
457.83	65.54
458.01	74.90
458.19	44.47
458.38	23.41
458.56	84.26
458.74	119.37
458.93	46.81
459.11	102.98
459.29	79.58
459.48	30.43
459.66	60.85
459.84	0.00
460.03	121.71
460.21	119.37
460.39	102.98
460.57	0.00
460.76	32.77
460.94	30.43
461.12	88.94
461.31	156.82
461.49	74.90
461.67	74.90
461.85	25.75
462.04	119.37
462.22	128.73
462.40	2.34
462.59	114.69
462.77	32.77
462.95	21.06
463.13	44.47
463.32	102.98
463.50	63.19
463.68	88.94
463.86	0.00
464.05	39.79
464.23	21.06
464.41	112.35
464.59	58.51
464.78	107.66
464.96	16.38
465.14	25.75
465.32	105.32
465.50	18.72
465.69	100.64
465.87	56.17
466.05	21.06
466.23	0.00
466.41	117.03
466.60	0.00
466.78	63.19
466.96	46.81
467.14	72.56
467.32	0.00
467.51	35.11
467.69	53.83
467.87	56.17
468.05	14.04
468.23	35.11
468.41	70.22
468.60	14.04
468.78	79.58
468.96	21.06
469.14	105.32
469.32	107.66
469.50	72.56
469.69	0.00
469.87	28.09
470.05	51.49
470.23	102.98
470.41	23.41
470.59	4.68
470.77	102.98
470.95	70.22
471.14	35.11
471.32	114.69
471.50	72.56
471.68	49.15
471.86	65.54
472.04	58.51
472.22	51.49
472.40	79.58
472.58	7.02
472.77	72.56
472.95	18.72
473.13	93.62
473.31	0.00
473.49	102.98
473.67	88.94
473.85	35.11
474.03	37.45
474.21	86.60
474.39	25.75
474.57	39.79
474.75	51.49
474.93	0.00
475.12	60.85
475.30	135.75
475.48	39.79
475.66	32.77
475.84	51.49
476.02	46.81
476.20	84.26
476.38	25.75
476.56	105.32
476.74	39.79
476.92	51.49
477.10	126.39
477.28	35.11
477.46	23.41
477.64	93.62
477.82	0.00
478.00	65.54
478.18	32.77
478.36	79.58
478.54	9.36
478.72	107.66
478.90	42.13
479.08	37.45
479.26	91.28
479.44	147.45
479.62	56.17
479.80	42.13
479.98	74.90
480.16	154.48
480.34	53.83
480.52	58.51
480.70	32.77
480.88	49.15
481.06	0.00
481.24	23.41
481.41	32.77
481.59	72.56
481.77	107.66
481.95	79.58
482.13	63.19
482.31	58.51
482.49	46.81
482.67	67.88
482.85	93.62
483.03	60.85
483.21	58.51
483.39	21.06
483.57	16.38
483.74	0.00
483.92	77.24
484.10	58.51
484.28	51.49
484.46	67.88
484.64	56.17
484.82	0.00
485.00	18.72
485.18	49.15
485.35	56.17
485.53	65.54
485.71	58.51
485.89	72.56
486.07	25.75
486.25	86.60
486.43	105.32
486.61	58.51
486.78	25.75
486.96	100.64
487.14	44.47
487.32	65.54
487.50	117.03
487.68	145.11
487.85	37.45
488.03	53.83
488.21	74.90
488.39	18.72
488.57	77.24
488.75	46.81
488.92	86.60
489.10	74.90
489.28	77.24
489.46	60.85
489.64	91.28
489.81	67.88
489.99	46.81
490.17	91.28
490.35	46.81
490.53	74.90
490.70	107.66
490.88	81.92
491.06	91.28
491.24	72.56
491.41	135.75
491.59	166.18
491.77	56.17
491.95	0.00
492.13	4.68
492.30	138.09
492.48	42.13
492.66	77.24
492.84	39.79
493.01	65.54
493.19	72.56
493.37	11.70
493.54	42.13
493.72	4.68
493.90	77.24
494.08	46.81
494.25	65.54
494.43	60.85
494.61	88.94
494.79	46.81
494.96	63.19
495.14	74.90
495.32	42.13
495.49	126.39
495.67	21.06
495.85	110.01
496.02	117.03
496.20	84.26
496.38	63.19
496.55	93.62
496.73	140.43
496.91	56.17
497.09	42.13
497.26	49.15
497.44	65.54
497.62	53.83
497.79	107.66
497.97	102.98
498.14	65.54
498.32	121.71
498.50	56.17
498.67	49.15
498.85	107.66
499.03	95.96
499.20	60.85
499.38	84.26
499.56	128.73
499.73	138.09
499.91	79.58
500.08	112.35
500.26	53.83
500.44	53.83
500.61	107.66
500.79	110.01
500.97	46.81
501.14	93.62
501.32	142.77
501.49	131.07
501.67	30.43
501.84	35.11
502.02	79.58
502.20	84.26
502.37	7.02
502.55	95.96
502.72	170.86
502.90	72.56
503.07	53.83
503.25	84.26
503.43	49.15
503.60	42.13
503.78	42.13
503.95	98.30
504.13	84.26
504.30	100.64
504.48	0.00
504.65	53.83
504.83	2.34
505.01	98.30
505.18	0.00
505.36	88.94
505.53	112.35
505.71	46.81
505.88	72.56
506.06	77.24
506.23	39.79
506.41	84.26
506.58	135.75
506.76	70.22
506.93	98.30
507.11	42.13
507.28	79.58
507.46	46.81
507.63	105.32
507.81	152.13
507.98	9.36
508.16	86.60
508.33	16.38
508.50	133.41
508.68	93.62
508.85	63.19
509.03	81.92
509.20	142.77
509.38	86.60
509.55	60.85
509.73	70.22
509.90	126.39
510.08	95.96
510.25	70.22
510.42	77.24
510.60	91.28
510.77	105.32
510.95	91.28
511.12	121.71
511.30	46.81
511.47	102.98
511.64	124.05
511.82	154.48
511.99	58.51
512.17	23.41
512.34	51.49
512.51	133.41
512.69	93.62
512.86	25.75
513.04	84.26
513.21	63.19
513.38	65.54
513.56	128.73
513.73	131.07
513.90	49.15
514.08	170.86
514.25	74.90
514.43	51.49
514.60	37.45
514.77	95.96
514.95	170.86
515.12	77.24
515.29	32.77
515.47	70.22
515.64	60.85
515.81	110.01
515.99	91.28
516.16	121.71
516.33	126.39
516.51	39.79
516.68	0.00
516.85	105.32
517.03	46.81
517.20	58.51
517.37	95.96
517.54	95.96
517.72	56.17
517.89	81.92
518.06	142.77
518.24	70.22
518.41	105.32
518.58	42.13
518.75	51.49
518.93	0.00
519.10	79.58
519.27	117.03
519.45	42.13
519.62	81.92
519.79	72.56
519.96	79.58
520.14	67.88
520.31	30.43
520.48	51.49
520.65	100.64
520.83	79.58
521.00	49.15
521.17	42.13
521.34	30.43
521.52	0.00
521.69	65.54
521.86	49.15
522.03	42.13
522.20	149.79
522.38	100.64
522.55	105.32
522.72	67.88
522.89	60.85
523.07	128.73
523.24	70.22
523.41	128.73
523.58	84.26
523.75	100.64
523.92	51.49
524.10	74.90
524.27	0.00
524.44	100.64
524.61	81.92
524.78	74.90
524.96	81.92
525.13	14.04
525.30	77.24
525.47	98.30
525.64	128.73
525.81	70.22
525.98	56.17
526.16	93.62
526.33	74.90
526.50	110.01
526.67	147.45
526.84	110.01
527.01	140.43
527.18	2.34
527.36	79.58
527.53	88.94
527.70	124.05
527.87	79.58
528.04	107.66
528.21	44.47
528.38	53.83
528.55	4.68
528.72	98.30
528.89	105.32
529.07	70.22
529.24	86.60
529.41	39.79
529.58	100.64
529.75	65.54
529.92	117.03
530.09	91.28
530.26	117.03
530.43	112.35
530.60	0.00
530.77	63.19
530.94	42.13
531.11	79.58
531.28	72.56
531.46	53.83
531.63	102.98
531.80	100.64
531.97	112.35
532.14	49.15
532.31	107.66
532.48	23.41
532.65	77.24
532.82	58.51
532.99	77.24
533.16	112.35
533.33	25.75
533.50	126.39
533.67	105.32
533.84	81.92
534.01	65.54
534.18	107.66
534.35	117.03
534.52	114.69
534.69	135.75
534.86	126.39
535.03	173.20
535.20	63.19
535.37	86.60
535.54	81.92
535.71	37.45
535.88	110.01
536.05	44.47
536.22	212.99
536.38	79.58
536.55	86.60
536.72	74.90
536.89	117.03
537.06	84.26
537.23	121.71
537.40	32.77
537.57	121.71
537.74	81.92
537.91	63.19
538.08	79.58
538.25	95.96
538.42	112.35
538.59	107.66
538.75	107.66
538.92	84.26
539.09	95.96
539.26	117.03
539.43	119.37
539.60	142.77
539.77	39.79
539.94	100.64
540.11	102.98
540.28	79.58
540.44	67.88
540.61	117.03
540.78	0.00
540.95	14.04
541.12	9.36
541.29	74.90
541.46	112.35
541.62	102.98
541.79	79.58
541.96	30.43
542.13	81.92
542.30	119.37
542.47	126.39
542.63	107.66
542.80	124.05
542.97	84.26
543.14	124.05
543.31	114.69
543.48	79.58
543.64	72.56
543.81	112.35
543.98	44.47
544.15	88.94
544.32	79.58
544.48	58.51
544.65	77.24
544.82	84.26
544.99	98.30
545.16	145.11
545.32	81.92
545.49	72.56
545.66	63.19
545.83	180.22
546.00	91.28
546.16	194.26
546.33	117.03
546.50	105.32
546.67	105.32
546.83	91.28
547.00	79.58
547.17	67.88
547.34	131.07
547.50	60.85
547.67	79.58
547.84	30.43
548.00	16.38
548.17	46.81
548.34	60.85
548.51	110.01
548.67	100.64
548.84	67.88
549.01	98.30
549.18	77.24
549.34	72.56
549.51	44.47
549.68	32.77
549.84	88.94
550.01	56.17
550.18	60.85
550.34	100.64
550.51	67.88
550.68	105.32
550.84	86.60
551.01	107.66
551.18	44.47
551.34	100.64
551.51	84.26
551.68	117.03
551.84	88.94
552.01	117.03
552.18	0.00
552.34	100.64
552.51	53.83
552.68	39.79
552.84	79.58
553.01	32.77
553.18	46.81
553.34	32.77
553.51	65.54
553.67	81.92
553.84	93.62
554.01	44.47
554.17	79.58
554.34	32.77
554.51	35.11
554.67	30.43
554.84	114.69
555.00	67.88
555.17	70.22
555.33	39.79
555.50	119.37
555.67	67.88
555.83	81.92
556.00	28.09
556.16	88.94
556.33	107.66
556.50	135.75
556.66	100.64
556.83	121.71
556.99	156.82
557.16	42.13
557.32	49.15
557.49	67.88
557.65	161.50
557.82	72.56
557.98	126.39
558.15	102.98
558.32	49.15
558.48	107.66
558.65	98.30
558.81	79.58
558.98	112.35
559.14	53.83
559.31	44.47
559.47	81.92
559.64	79.58
559.80	135.75
559.97	133.41
560.13	121.71
560.30	72.56
560.46	53.83
560.63	98.30
560.79	65.54
560.96	117.03
561.12	100.64
561.29	93.62
561.45	91.28
561.61	51.49
561.78	56.17
561.94	21.06
562.11	18.72
562.27	107.66
562.44	67.88
562.60	173.20
562.77	74.90
562.93	93.62
563.10	72.56
563.26	60.85
563.42	86.60
563.59	49.15
563.75	18.72
563.92	18.72
564.08	86.60
564.24	4.68
564.41	102.98
564.57	32.77
564.74	21.06
564.90	93.62
565.07	42.13
565.23	126.39
565.39	86.60
565.56	65.54
565.72	21.06
565.88	67.88
566.05	105.32
566.21	88.94
566.38	140.43
566.54	88.94
566.70	67.88
566.87	84.26
567.03	21.06
567.19	140.43
567.36	72.56
567.52	128.73
567.68	88.94
567.85	42.13
568.01	138.09
568.17	81.92
568.34	77.24
568.50	100.64
568.66	95.96
568.83	102.98
568.99	102.98
569.15	135.75
569.32	72.56
569.48	88.94
569.64	72.56
569.81	70.22
569.97	60.85
570.13	88.94
570.30	70.22
570.46	107.66
570.62	37.45
570.78	16.38
570.95	60.85
571.11	131.07
571.27	77.24
571.43	79.58
571.60	63.19
571.76	42.13
571.92	166.18
572.09	67.88
572.25	32.77
572.41	72.56
572.57	86.60
572.74	117.03
572.90	98.30
573.06	53.83
573.22	112.35
573.38	49.15
573.55	102.98
573.71	63.19
573.87	25.75
574.03	23.41
574.20	74.90
574.36	124.05
574.52	46.81
574.68	100.64
574.84	46.81
575.01	74.90
575.17	105.32
575.33	56.17
575.49	16.38
575.65	100.64
575.82	86.60
575.98	121.71
576.14	81.92
576.30	86.60
576.46	63.19
576.62	70.22
576.79	93.62
576.95	100.64
577.11	131.07
577.27	14.04
577.43	67.88
577.59	72.56
577.75	138.09
577.92	102.98
578.08	112.35
578.24	105.32
578.40	65.54
578.56	51.49
578.72	79.58
578.88	86.60
579.04	86.60
579.21	124.05
579.37	98.30
579.53	39.79
579.69	105.32
579.85	142.77
580.01	63.19
580.17	86.60
580.33	88.94
580.49	60.85
580.65	77.24
580.82	121.71
580.98	91.28
581.14	74.90
581.30	126.39
581.46	65.54
581.62	117.03
581.78	102.98
581.94	105.32
582.10	114.69
582.26	79.58
582.42	56.17
582.58	112.35
582.74	117.03
582.90	72.56
583.06	67.88
583.22	91.28
583.38	121.71
583.54	84.26
583.70	105.32
583.86	119.37
584.02	142.77
584.18	32.77
584.34	110.01
584.50	4.68
584.66	46.81
584.82	58.51
584.98	84.26
585.14	149.79
585.30	156.82
585.46	161.50
585.62	65.54
585.78	74.90
585.94	81.92
586.10	51.49
586.26	51.49
586.42	79.58
586.58	28.09
586.74	30.43
586.90	70.22
587.06	72.56
587.22	65.54
587.38	72.56
587.54	93.62
587.70	93.62
587.86	79.58
588.02	93.62
588.18	67.88
588.34	128.73
588.49	0.00
588.65	39.79
588.81	42.13
588.97	84.26
589.13	105.32
589.29	81.92
589.45	60.85
589.61	70.22
589.77	35.11
589.93	18.72
590.08	84.26
590.24	0.00
590.40	58.51
590.56	74.90
590.72	0.00
590.88	42.13
591.04	107.66
591.20	81.92
591.35	25.75
591.51	100.64
591.67	74.90
591.83	9.36
591.99	51.49
592.15	102.98
592.31	63.19
592.46	42.13
592.62	58.51
592.78	67.88
592.94	37.45
593.10	56.17
593.26	30.43
593.41	70.22
593.57	56.17
593.73	84.26
593.89	117.03
594.05	88.94
594.20	39.79
594.36	65.54
594.52	65.54
594.68	124.05
594.84	93.62
594.99	100.64
595.15	70.22
595.31	91.28
595.47	35.11
595.62	28.09
595.78	81.92
595.94	32.77
596.10	88.94
596.25	117.03
596.41	95.96
596.57	46.81
596.73	11.70
596.88	0.00
597.04	107.66
597.20	81.92
597.36	56.17
597.51	91.28
597.67	23.41
597.83	51.49
597.99	86.60
598.14	0.00
598.30	95.96
598.46	110.01
598.61	32.77
598.77	131.07
598.93	65.54
599.09	105.32
599.24	23.41
599.40	49.15
599.56	91.28
599.71	79.58
599.87	107.66
600.03	74.90
600.18	67.88
600.34	4.68
600.50	74.90
600.65	105.32
600.81	105.32
600.97	138.09
601.12	30.43
601.28	70.22
601.44	93.62
601.59	100.64
601.75	23.41
601.91	86.60
602.06	37.45
602.22	86.60
602.37	102.98
602.53	88.94
602.69	88.94
602.84	63.19
603.00	53.83
603.16	67.88
603.31	107.66
603.47	67.88
603.62	65.54
603.78	58.51
603.94	51.49
604.09	138.09
604.25	65.54
604.40	28.09
604.56	58.51
604.71	70.22
604.87	58.51
605.03	84.26
605.18	93.62
605.34	88.94
605.49	65.54
605.65	60.85
605.80	114.69
605.96	140.43
606.12	72.56
606.27	56.17
606.43	100.64
606.58	28.09
606.74	60.85
606.89	100.64
607.05	95.96
607.20	88.94
607.36	65.54
607.51	105.32
607.67	81.92
607.82	74.90
607.98	91.28
608.13	131.07
608.29	114.69
608.44	98.30
608.60	44.47
608.75	37.45
608.91	107.66
609.06	119.37
609.22	81.92
609.37	63.19
609.53	18.72
609.68	16.38
609.84	35.11
609.99	49.15
610.15	81.92
610.30	86.60
610.46	46.81
610.61	128.73
610.76	117.03
610.92	63.19
611.07	32.77
611.23	53.83
611.38	63.19
611.54	98.30
611.69	28.09
611.84	14.04
612.00	63.19
612.15	58.51
612.31	65.54
612.46	105.32
612.62	88.94
612.77	77.24
612.92	21.06
613.08	114.69
613.23	100.64
613.39	42.13
613.54	56.17
613.69	65.54
613.85	77.24
614.00	117.03
614.15	58.51
614.31	53.83
614.46	81.92
614.62	53.83
614.77	91.28
614.92	0.00
615.08	35.11
615.23	58.51
615.38	98.30
615.54	72.56
615.69	86.60
615.84	21.06
616.00	65.54
616.15	74.90
616.30	53.83
616.46	65.54
616.61	60.85
616.76	81.92
616.92	23.41
617.07	74.90
617.22	42.13
617.37	51.49
617.53	4.68
617.68	46.81
617.83	0.00
617.99	53.83
618.14	98.30
618.29	46.81
618.45	86.60
618.60	67.88
618.75	93.62
618.90	95.96
619.06	51.49
619.21	51.49
619.36	128.73
619.51	79.58
619.67	51.49
619.82	9.36
619.97	77.24
620.12	81.92
620.28	77.24
620.43	65.54
620.58	63.19
620.73	70.22
620.89	21.06
621.04	28.09
621.19	91.28
621.34	39.79
621.49	39.79
621.65	159.16
621.80	49.15
621.95	51.49
622.10	30.43
622.25	65.54
622.41	63.19
622.56	42.13
622.71	70.22
622.86	86.60
623.01	44.47
623.16	145.11
623.32	58.51
623.47	16.38
623.62	46.81
623.77	70.22
623.92	126.39
624.07	49.15
624.23	114.69
624.38	79.58
624.53	81.92
624.68	117.03
624.83	81.92
624.98	63.19
625.13	91.28
625.29	0.00
625.44	114.69
625.59	117.03
625.74	0.00
625.89	32.77
626.04	18.72
626.19	46.81
626.34	88.94
626.49	56.17
626.65	70.22
626.80	53.83
626.95	88.94
627.10	102.98
627.25	14.04
627.40	0.00
627.55	18.72
627.70	49.15
627.85	0.00
628.00	63.19
628.15	37.45
628.30	42.13
628.45	46.81
628.60	79.58
628.76	102.98
628.91	65.54
629.06	88.94
629.21	18.72
629.36	21.06
629.51	112.35
629.66	35.11
629.81	135.75
629.96	58.51
630.11	28.09
630.26	100.64
630.41	79.58
630.56	114.69
630.71	74.90
630.86	16.38
631.01	128.73
631.16	63.19
631.31	42.13
631.46	128.73
631.61	102.98
631.76	46.81
631.91	46.81
632.06	60.85
632.21	79.58
632.36	44.47
632.51	81.92
632.66	102.98
632.81	84.26
632.96	25.75
633.10	37.45
633.25	110.01
633.40	63.19
633.55	2.34
633.70	37.45
633.85	60.85
634.00	0.00
634.15	65.54
634.30	4.68
634.45	42.13
634.60	18.72
634.75	51.49
634.90	32.77
635.05	42.13
635.19	42.13
635.34	46.81
635.49	91.28
635.64	35.11
635.79	114.69
635.94	70.22
636.09	63.19
636.24	30.43
636.39	81.92
636.53	72.56
636.68	91.28
636.83	81.92
636.98	163.84
637.13	58.51
637.28	42.13
637.43	16.38
637.57	145.11
637.72	46.81
637.87	2.34
638.02	56.17
638.17	35.11
638.32	91.28
638.46	23.41
638.61	88.94
638.76	84.26
638.91	70.22
639.06	93.62
639.20	102.98
639.35	39.79
639.50	88.94
639.65	91.28
639.80	86.60
639.94	51.49
640.09	0.00
640.24	46.81
640.39	77.24
640.54	23.41
640.68	58.51
640.83	58.51
640.98	56.17
641.13	91.28
641.27	58.51
641.42	98.30
641.57	39.79
641.72	0.00
641.86	44.47
642.01	81.92
642.16	53.83
642.31	70.22
642.45	70.22
642.60	102.98
642.75	72.56
642.90	56.17
643.04	72.56
643.19	114.69
643.34	102.98
643.48	53.83
643.63	37.45
643.78	95.96
643.93	77.24
644.07	86.60
644.22	0.00
644.37	37.45
644.51	79.58
644.66	25.75
644.81	0.00
644.95	121.71
645.10	28.09
645.25	42.13
645.39	51.49
645.54	0.00
645.69	14.04
645.83	0.00
645.98	39.79
646.13	102.98
646.27	56.17
646.42	11.70
646.57	0.00
646.71	63.19
646.86	84.26
647.00	42.13
647.15	53.83
647.30	42.13
647.44	42.13
647.59	117.03
647.74	44.47
647.88	58.51
648.03	0.00
648.17	88.94
648.32	2.34
648.47	28.09
648.61	77.24
648.76	126.39
648.90	81.92
649.05	84.26
649.20	79.58
649.34	70.22
649.49	49.15
649.63	70.22
649.78	11.70
649.92	84.26
650.07	0.00
650.21	32.77
650.36	84.26
650.51	91.28
650.65	65.54
650.80	95.96
650.94	53.83
651.09	72.56
651.23	32.77
651.38	91.28
651.52	138.09
651.67	105.32
651.81	74.90
651.96	0.00
652.10	37.45
652.25	35.11
652.39	39.79
652.54	39.79
652.68	72.56
652.83	72.56
652.97	14.04
653.12	46.81
653.26	63.19
653.41	35.11
653.55	86.60
653.70	49.15
653.84	0.00
653.99	49.15
654.13	74.90
654.27	88.94
654.42	56.17
654.56	30.43
654.71	58.51
654.85	63.19
655.00	23.41
655.14	58.51
655.29	102.98
655.43	58.51
655.57	11.70
655.72	46.81
655.86	72.56
656.01	0.00
656.15	56.17
656.30	39.79
656.44	37.45
656.58	56.17
656.73	140.43
656.87	18.72
657.01	100.64
657.16	37.45
657.30	77.24
657.45	44.47
657.59	18.72
657.73	44.47
657.88	74.90
658.02	56.17
658.16	30.43
658.31	37.45
658.45	72.56
658.60	4.68
658.74	102.98
658.88	39.79
659.03	142.77
659.17	37.45
659.31	14.04
659.46	56.17
659.60	72.56
659.74	114.69
659.89	51.49
660.03	14.04
660.17	30.43
660.32	60.85
660.46	124.05
660.60	110.01
660.74	0.00
660.89	60.85
661.03	53.83
661.17	60.85
661.32	107.66
661.46	77.24
661.60	25.75
661.74	58.51
661.89	28.09
662.03	37.45
662.17	84.26
662.31	2.34
662.46	128.73
662.60	46.81
662.74	98.30
662.88	4.68
663.03	11.70
663.17	102.98
663.31	98.30
663.45	46.81
663.60	72.56
663.74	44.47
663.88	14.04
664.02	74.90
664.17	86.60
664.31	51.49
664.45	0.00
664.59	16.38
664.73	14.04
664.88	49.15
665.02	67.88
665.16	0.00
665.30	72.56
665.44	81.92
665.59	53.83
665.73	28.09
665.87	37.45
666.01	70.22
666.15	25.75
666.29	44.47
666.44	63.19
666.58	11.70
666.72	72.56
666.86	60.85
667.00	88.94
667.14	51.49
667.28	30.43
667.43	70.22
667.57	9.36
667.71	35.11
667.85	84.26
667.99	70.22
668.13	84.26
668.27	105.32
668.41	81.92
668.56	107.66
668.70	60.85
668.84	51.49
668.98	35.11
669.12	46.81
669.26	7.02
669.40	23.41
669.54	35.11
669.68	51.49
669.82	56.17
669.96	51.49
670.10	60.85
670.25	28.09
670.39	25.75
670.53	60.85
670.67	65.54
670.81	49.15
670.95	124.05
671.09	58.51
671.23	39.79
671.37	84.26
671.51	58.51
671.65	18.72
671.79	98.30
671.93	60.85
672.07	0.00
672.21	25.75
672.35	56.17
672.49	37.45
672.63	72.56
672.77	25.75
672.91	72.56
673.05	18.72
673.19	35.11
673.33	18.72
673.47	25.75
673.61	77.24
673.75	28.09
673.89	53.83
674.03	124.05
674.17	21.06
674.31	98.30
674.45	65.54
674.59	91.28
674.73	70.22
674.87	30.43
675.01	74.90
675.15	53.83
675.29	25.75
675.43	74.90
675.56	88.94
675.70	28.09
675.84	18.72
675.98	35.11
676.12	72.56
676.26	70.22
676.40	28.09
676.54	93.62
676.68	39.79
676.82	114.69
676.96	37.45
677.10	79.58
677.23	56.17
677.37	56.17
677.51	21.06
677.65	79.58
677.79	39.79
677.93	0.00
678.07	11.70
678.21	37.45
678.34	63.19
678.48	93.62
678.62	21.06
678.76	0.00
678.90	74.90
679.04	42.13
679.18	23.41
679.31	25.75
679.45	72.56
679.59	30.43
679.73	65.54
679.87	0.00
680.00	25.75
680.14	53.83
680.28	60.85
680.42	65.54
680.56	65.54
680.70	44.47
680.83	149.79
680.97	126.39
681.11	44.47
681.25	51.49
681.39	84.26
681.52	37.45
681.66	114.69
681.80	42.13
681.94	0.00
682.07	4.68
682.21	65.54
682.35	95.96
682.49	0.00
682.62	58.51
682.76	95.96
682.90	28.09
683.04	74.90
683.17	25.75
683.31	65.54
683.45	56.17
683.59	21.06
683.72	74.90
683.86	0.00
684.00	65.54
684.13	79.58
684.27	23.41
684.41	63.19
684.55	88.94
684.68	30.43
684.82	35.11
684.96	0.00
685.09	49.15
685.23	35.11
685.37	65.54
685.50	95.96
685.64	42.13
685.78	37.45
685.91	70.22
686.05	2.34
686.19	35.11
686.32	0.00
686.46	18.72
686.60	0.00
686.73	23.41
686.87	4.68
687.01	0.00
687.14	79.58
687.28	65.54
687.42	49.15
687.55	35.11
687.69	0.00
687.82	74.90
687.96	4.68
688.10	25.75
688.23	105.32
688.37	0.00
688.50	58.51
688.64	77.24
688.78	28.09
688.91	39.79
689.05	0.00
689.18	0.00
689.32	51.49
689.46	49.15
689.59	91.28
689.73	77.24
689.86	11.70
690.00	0.00
690.13	0.00
690.27	25.75
690.41	65.54
690.54	44.47
690.68	60.85
690.81	51.49
690.95	0.00
691.08	28.09
691.22	0.00
691.35	0.00
691.49	84.26
691.62	4.68
691.76	0.00
691.89	39.79
692.03	107.66
692.16	53.83
692.30	67.88
692.43	86.60
692.57	18.72
692.70	88.94
692.84	77.24
692.97	0.00
693.11	93.62
693.24	46.81
693.38	86.60
693.51	0.00
693.65	51.49
693.78	11.70
693.92	23.41
694.05	11.70
694.19	95.96
694.32	79.58
694.45	44.47
694.59	28.09
694.72	77.24
694.86	0.00
694.99	18.72
695.13	18.72
695.26	0.00
695.39	37.45
695.53	35.11
695.66	49.15
695.80	65.54
695.93	49.15
696.07	4.68
696.20	67.88
696.33	63.19
696.47	21.06
696.60	30.43
696.73	70.22
696.87	100.64
697.00	7.02
697.14	28.09
697.27	30.43
697.40	56.17
697.54	53.83
697.67	107.66
697.80	16.38
697.94	72.56
698.07	37.45
698.21	32.77
698.34	53.83
698.47	46.81
698.61	74.90
698.74	46.81
698.87	14.04
699.01	0.00
699.14	18.72
699.27	51.49
699.40	98.30
699.54	23.41
699.67	77.24
699.80	0.00
699.94	79.58
700.07	4.68
700.20	16.38
700.34	81.92
700.47	23.41
700.60	0.00
700.73	77.24
700.87	2.34
701.00	11.70
701.13	7.02
701.26	37.45
701.40	0.00
701.53	46.81
701.66	0.00
701.79	44.47
701.93	28.09
702.06	46.81
702.19	35.11
702.32	81.92
702.46	86.60
702.59	30.43
702.72	58.51
702.85	39.79
702.99	37.45
703.12	67.88
703.25	46.81
703.38	74.90
703.51	16.38
703.65	72.56
703.78	28.09
703.91	21.06
704.04	25.75
704.17	88.94
704.31	16.38
704.44	91.28
704.57	0.00
704.70	42.13
704.83	30.43
704.96	49.15
705.10	7.02
705.23	9.36
>>>>>End Processed Spectral Data<<<<<
