SpectraSuite Data File
++++++++++++++++++++++++++++++++++++
Date: Fri Oct 04 12:13:31 GMT-05:00 2013
User: price-jones
Dark Spectrum Present: No
Reference Spectrum Present: No
Number of Sampled Component Spectra: 1
Spectrometers: USB2+H05261
Integration Time (usec): 10000 (USB2+H05261)
Spectra Averaged: 1 (USB2+H05261)
Boxcar Smoothing: 0 (USB2+H05261)
Correct for Electrical Dark: No (USB2+H05261)
Strobe/Lamp Enabled: No (USB2+H05261)
Correct for Detector Non-linearity: No (USB2+H05261)
Correct for Stray Light: No (USB2+H05261)
Number of Pixels in Processed Spectrum: 2048
>>>>>Begin Processed Spectral Data<<<<<
365.73	46.81
365.92	46.81
366.12	46.81
366.32	0.00
366.52	0.00
366.72	0.00
366.91	0.00
367.11	0.00
367.31	0.00
367.51	0.00
367.70	0.00
367.90	0.00
368.10	0.00
368.30	0.00
368.49	0.00
368.69	0.00
368.89	0.00
369.09	0.00
369.28	0.00
369.48	0.00
369.68	0.00
369.87	0.00
370.07	0.00
370.27	0.00
370.47	0.00
370.66	0.00
370.86	16.38
371.06	14.04
371.25	0.00
371.45	0.00
371.65	18.72
371.84	0.00
372.04	21.06
372.24	0.00
372.44	0.00
372.63	0.00
372.83	25.75
373.03	14.04
373.22	18.72
373.42	0.00
373.62	28.09
373.81	28.09
374.01	18.72
374.21	84.26
374.40	49.15
374.60	0.00
374.79	44.47
374.99	21.06
375.19	4.68
375.38	93.62
375.58	32.77
375.78	23.41
375.97	53.83
376.17	70.22
376.37	0.00
376.56	37.45
376.76	14.04
376.95	18.72
377.15	25.75
377.35	32.77
377.54	35.11
377.74	0.00
377.93	0.00
378.13	39.79
378.33	72.56
378.52	0.00
378.72	0.00
378.91	32.77
379.11	0.00
379.31	53.83
379.50	11.70
379.70	58.51
379.89	0.00
380.09	30.43
380.28	0.00
380.48	0.00
380.68	23.41
380.87	46.81
381.07	39.79
381.26	14.04
381.46	23.41
381.65	0.00
381.85	14.04
382.04	25.75
382.24	18.72
382.43	2.34
382.63	51.49
382.83	81.92
383.02	42.13
383.22	67.88
383.41	49.15
383.61	35.11
383.80	4.68
384.00	9.36
384.19	9.36
384.39	0.00
384.58	0.00
384.78	0.00
384.97	0.00
385.17	0.00
385.36	0.00
385.56	9.36
385.75	21.06
385.95	46.81
386.14	0.00
386.34	35.11
386.53	35.11
386.72	0.00
386.92	0.00
387.11	32.77
387.31	0.00
387.50	56.17
387.70	2.34
387.89	0.00
388.09	18.72
388.28	0.00
388.48	0.00
388.67	0.00
388.86	7.02
389.06	35.11
389.25	30.43
389.45	11.70
389.64	14.04
389.84	86.60
390.03	0.00
390.22	39.79
390.42	86.60
390.61	0.00
390.81	0.00
391.00	58.51
391.19	9.36
391.39	53.83
391.58	67.88
391.78	93.62
391.97	9.36
392.16	25.75
392.36	0.00
392.55	74.90
392.75	56.17
392.94	0.00
393.13	79.58
393.33	0.00
393.52	7.02
393.71	9.36
393.91	37.45
394.10	0.00
394.29	56.17
394.49	35.11
394.68	51.49
394.88	74.90
395.07	0.00
395.26	56.17
395.46	39.79
395.65	0.00
395.84	60.85
396.04	35.11
396.23	0.00
396.42	21.06
396.62	0.00
396.81	0.00
397.00	16.38
397.19	42.13
397.39	0.00
397.58	72.56
397.77	0.00
397.97	0.00
398.16	18.72
398.35	74.90
398.55	4.68
398.74	32.77
398.93	53.83
399.12	25.75
399.32	9.36
399.51	7.02
399.70	37.45
399.90	0.00
400.09	21.06
400.28	28.09
400.47	70.22
400.67	16.38
400.86	0.00
401.05	51.49
401.24	53.83
401.44	44.47
401.63	42.13
401.82	0.00
402.01	77.24
402.21	42.13
402.40	84.26
402.59	18.72
402.78	0.00
402.97	0.00
403.17	0.00
403.36	9.36
403.55	21.06
403.74	11.70
403.93	53.83
404.13	28.09
404.32	67.88
404.51	79.58
404.70	0.00
404.89	21.06
405.09	65.54
405.28	51.49
405.47	0.00
405.66	63.19
405.85	56.17
406.05	0.00
406.24	86.60
406.43	0.00
406.62	37.45
406.81	9.36
407.00	18.72
407.20	51.49
407.39	65.54
407.58	44.47
407.77	14.04
407.96	81.92
408.15	23.41
408.34	28.09
408.54	4.68
408.73	16.38
408.92	28.09
409.11	30.43
409.30	7.02
409.49	9.36
409.68	37.45
409.87	0.00
410.07	0.00
410.26	42.13
410.45	14.04
410.64	100.64
410.83	21.06
411.02	23.41
411.21	0.00
411.40	100.64
411.59	2.34
411.78	23.41
411.98	0.00
412.17	0.00
412.36	37.45
412.55	9.36
412.74	28.09
412.93	0.00
413.12	49.15
413.31	53.83
413.50	72.56
413.69	21.06
413.88	74.90
414.07	49.15
414.26	0.00
414.45	0.00
414.64	0.00
414.83	0.00
415.02	32.77
415.22	86.60
415.41	91.28
415.60	35.11
415.79	84.26
415.98	28.09
416.17	0.00
416.36	35.11
416.55	23.41
416.74	4.68
416.93	46.81
417.12	0.00
417.31	23.41
417.50	35.11
417.69	44.47
417.88	0.00
418.07	0.00
418.26	0.00
418.45	0.00
418.64	67.88
418.83	46.81
419.02	21.06
419.21	0.00
419.39	35.11
419.58	53.83
419.77	0.00
419.96	67.88
420.15	30.43
420.34	0.00
420.53	21.06
420.72	25.75
420.91	0.00
421.10	51.49
421.29	49.15
421.48	28.09
421.67	25.75
421.86	0.00
422.05	30.43
422.24	53.83
422.43	0.00
422.61	0.00
422.80	23.41
422.99	39.79
423.18	14.04
423.37	4.68
423.56	56.17
423.75	25.75
423.94	4.68
424.13	0.00
424.32	0.00
424.50	86.60
424.69	65.54
424.88	0.00
425.07	51.49
425.26	18.72
425.45	30.43
425.64	0.00
425.83	0.00
426.01	0.00
426.20	0.00
426.39	16.38
426.58	51.49
426.77	67.88
426.96	53.83
427.15	67.88
427.33	28.09
427.52	91.28
427.71	63.19
427.90	42.13
428.09	23.41
428.28	74.90
428.46	0.00
428.65	0.00
428.84	51.49
429.03	112.35
429.22	42.13
429.40	74.90
429.59	88.94
429.78	0.00
429.97	32.77
430.16	0.00
430.34	0.00
430.53	9.36
430.72	32.77
430.91	56.17
431.10	14.04
431.28	37.45
431.47	0.00
431.66	9.36
431.85	46.81
432.03	58.51
432.22	35.11
432.41	49.15
432.60	0.00
432.79	16.38
432.97	39.79
433.16	46.81
433.35	49.15
433.54	37.45
433.72	58.51
433.91	0.00
434.10	91.28
434.28	0.00
434.47	21.06
434.66	60.85
434.85	77.24
435.03	42.13
435.22	0.00
435.41	35.11
435.59	84.26
435.78	46.81
435.97	37.45
436.16	25.75
436.34	32.77
436.53	16.38
436.72	0.00
436.90	77.24
437.09	102.98
437.28	7.02
437.46	114.69
437.65	30.43
437.84	74.90
438.02	56.17
438.21	110.01
438.40	58.51
438.58	44.47
438.77	23.41
438.96	0.00
439.14	11.70
439.33	51.49
439.52	46.81
439.70	42.13
439.89	60.85
440.08	30.43
440.26	74.90
440.45	117.03
440.63	0.00
440.82	0.00
441.01	49.15
441.19	86.60
441.38	0.00
441.57	23.41
441.75	0.00
441.94	14.04
442.12	0.00
442.31	56.17
442.50	44.47
442.68	37.45
442.87	23.41
443.05	42.13
443.24	2.34
443.43	51.49
443.61	51.49
443.80	0.00
443.98	91.28
444.17	0.00
444.35	21.06
444.54	46.81
444.73	0.00
444.91	9.36
445.10	0.00
445.28	21.06
445.47	21.06
445.65	0.00
445.84	0.00
446.02	0.00
446.21	0.00
446.39	46.81
446.58	44.47
446.77	30.43
446.95	16.38
447.14	14.04
447.32	63.19
447.51	23.41
447.69	74.90
447.88	21.06
448.06	0.00
448.25	30.43
448.43	77.24
448.62	4.68
448.80	46.81
448.99	86.60
449.17	16.38
449.36	30.43
449.54	46.81
449.73	25.75
449.91	46.81
450.10	46.81
450.28	18.72
450.46	60.85
450.65	51.49
450.83	42.13
451.02	49.15
451.20	7.02
451.39	0.00
451.57	63.19
451.76	0.00
451.94	39.79
452.13	67.88
452.31	2.34
452.49	110.01
452.68	60.85
452.86	14.04
453.05	0.00
453.23	16.38
453.42	0.00
453.60	58.51
453.78	79.58
453.97	9.36
454.15	21.06
454.34	81.92
454.52	107.66
454.70	30.43
454.89	23.41
455.07	30.43
455.26	74.90
455.44	70.22
455.62	63.19
455.81	79.58
455.99	16.38
456.17	107.66
456.36	56.17
456.54	37.45
456.73	18.72
456.91	63.19
457.09	44.47
457.28	35.11
457.46	60.85
457.64	0.00
457.83	21.06
458.01	25.75
458.19	0.00
458.38	9.36
458.56	51.49
458.74	0.00
458.93	7.02
459.11	35.11
459.29	39.79
459.48	49.15
459.66	0.00
459.84	39.79
460.03	107.66
460.21	30.43
460.39	0.00
460.57	51.49
460.76	16.38
460.94	84.26
461.12	32.77
461.31	86.60
461.49	63.19
461.67	58.51
461.85	7.02
462.04	84.26
462.22	74.90
462.40	58.51
462.59	74.90
462.77	58.51
462.95	74.90
463.13	0.00
463.32	0.00
463.50	7.02
463.68	91.28
463.86	72.56
464.05	28.09
464.23	42.13
464.41	67.88
464.59	0.00
464.78	42.13
464.96	39.79
465.14	32.77
465.32	72.56
465.50	49.15
465.69	42.13
465.87	0.00
466.05	70.22
466.23	46.81
466.41	14.04
466.60	25.75
466.78	0.00
466.96	49.15
467.14	70.22
467.32	32.77
467.51	0.00
467.69	42.13
467.87	44.47
468.05	0.00
468.23	0.00
468.41	30.43
468.60	0.00
468.78	0.00
468.96	63.19
469.14	72.56
469.32	37.45
469.50	4.68
469.69	0.00
469.87	0.00
470.05	42.13
470.23	4.68
470.41	46.81
470.59	58.51
470.77	0.00
470.95	77.24
471.14	32.77
471.32	86.60
471.50	28.09
471.68	21.06
471.86	37.45
472.04	0.00
472.22	23.41
472.40	0.00
472.58	0.00
472.77	0.00
472.95	42.13
473.13	0.00
473.31	58.51
473.49	0.00
473.67	0.00
473.85	42.13
474.03	0.00
474.21	25.75
474.39	35.11
474.57	0.00
474.75	74.90
474.93	23.41
475.12	72.56
475.30	37.45
475.48	35.11
475.66	37.45
475.84	16.38
476.02	28.09
476.20	0.00
476.38	39.79
476.56	100.64
476.74	2.34
476.92	39.79
477.10	95.96
477.28	0.00
477.46	84.26
477.64	49.15
477.82	51.49
478.00	95.96
478.18	86.60
478.36	37.45
478.54	56.17
478.72	28.09
478.90	0.00
479.08	63.19
479.26	46.81
479.44	0.00
479.62	42.13
479.80	11.70
479.98	0.00
480.16	35.11
480.34	63.19
480.52	0.00
480.70	14.04
480.88	84.26
481.06	2.34
481.24	25.75
481.41	23.41
481.59	79.58
481.77	21.06
481.95	0.00
482.13	119.37
482.31	63.19
482.49	7.02
482.67	14.04
482.85	0.00
483.03	42.13
483.21	86.60
483.39	30.43
483.57	91.28
483.74	67.88
483.92	39.79
484.10	53.83
484.28	11.70
484.46	11.70
484.64	42.13
484.82	107.66
485.00	30.43
485.18	0.00
485.35	67.88
485.53	0.00
485.71	65.54
485.89	0.00
486.07	0.00
486.25	51.49
486.43	7.02
486.61	32.77
486.78	30.43
486.96	0.00
487.14	35.11
487.32	0.00
487.50	21.06
487.68	0.00
487.85	0.00
488.03	72.56
488.21	37.45
488.39	81.92
488.57	46.81
488.75	9.36
488.92	110.01
489.10	28.09
489.28	72.56
489.46	56.17
489.64	32.77
489.81	14.04
489.99	21.06
490.17	30.43
490.35	0.00
490.53	42.13
490.70	110.01
490.88	84.26
491.06	11.70
491.24	0.00
491.41	58.51
491.59	0.00
491.77	32.77
491.95	37.45
492.13	86.60
492.30	58.51
492.48	79.58
492.66	4.68
492.84	23.41
493.01	88.94
493.19	56.17
493.37	0.00
493.54	25.75
493.72	9.36
493.90	0.00
494.08	70.22
494.25	51.49
494.43	60.85
494.61	0.00
494.79	39.79
494.96	16.38
495.14	72.56
495.32	9.36
495.49	30.43
495.67	4.68
495.85	46.81
496.02	18.72
496.20	0.00
496.38	23.41
496.55	7.02
496.73	39.79
496.91	14.04
497.09	65.54
497.26	11.70
497.44	65.54
497.62	21.06
497.79	74.90
497.97	60.85
498.14	23.41
498.32	84.26
498.50	28.09
498.67	107.66
498.85	28.09
499.03	0.00
499.20	44.47
499.38	4.68
499.56	79.58
499.73	72.56
499.91	35.11
500.08	44.47
500.26	84.26
500.44	4.68
500.61	67.88
500.79	51.49
500.97	86.60
501.14	56.17
501.32	0.00
501.49	39.79
501.67	58.51
501.84	84.26
502.02	0.00
502.20	60.85
502.37	0.00
502.55	0.00
502.72	42.13
502.90	0.00
503.07	135.75
503.25	53.83
503.43	49.15
503.60	51.49
503.78	35.11
503.95	91.28
504.13	11.70
504.30	112.35
504.48	65.54
504.65	65.54
504.83	4.68
505.01	32.77
505.18	110.01
505.36	91.28
505.53	65.54
505.71	46.81
505.88	9.36
506.06	56.17
506.23	91.28
506.41	60.85
506.58	88.94
506.76	135.75
506.93	65.54
507.11	11.70
507.28	2.34
507.46	0.00
507.63	39.79
507.81	16.38
507.98	4.68
508.16	28.09
508.33	49.15
508.50	65.54
508.68	0.00
508.85	51.49
509.03	23.41
509.20	0.00
509.38	93.62
509.55	84.26
509.73	2.34
509.90	0.00
510.08	86.60
510.25	18.72
510.42	79.58
510.60	70.22
510.77	114.69
510.95	7.02
511.12	77.24
511.30	42.13
511.47	37.45
511.64	4.68
511.82	51.49
511.99	119.37
512.17	0.00
512.34	95.96
512.51	37.45
512.69	2.34
512.86	30.43
513.04	58.51
513.21	28.09
513.38	49.15
513.56	0.00
513.73	110.01
513.90	60.85
514.08	37.45
514.25	74.90
514.43	77.24
514.60	46.81
514.77	72.56
514.95	18.72
515.12	60.85
515.29	84.26
515.47	0.00
515.64	11.70
515.81	79.58
515.99	14.04
516.16	124.05
516.33	72.56
516.51	65.54
516.68	39.79
516.85	0.00
517.03	65.54
517.20	0.00
517.37	56.17
517.54	74.90
517.72	32.77
517.89	25.75
518.06	39.79
518.24	35.11
518.41	65.54
518.58	0.00
518.75	58.51
518.93	138.09
519.10	46.81
519.27	51.49
519.45	37.45
519.62	46.81
519.79	65.54
519.96	42.13
520.14	0.00
520.31	18.72
520.48	30.43
520.65	2.34
520.83	93.62
521.00	18.72
521.17	72.56
521.34	28.09
521.52	84.26
521.69	60.85
521.86	77.24
522.03	56.17
522.20	74.90
522.38	25.75
522.55	44.47
522.72	30.43
522.89	0.00
523.07	53.83
523.24	65.54
523.41	65.54
523.58	70.22
523.75	58.51
523.92	42.13
524.10	74.90
524.27	42.13
524.44	65.54
524.61	79.58
524.78	93.62
524.96	0.00
525.13	11.70
525.30	88.94
525.47	56.17
525.64	0.00
525.81	46.81
525.98	56.17
526.16	42.13
526.33	93.62
526.50	126.39
526.67	46.81
526.84	58.51
527.01	49.15
527.18	98.30
527.36	11.70
527.53	121.71
527.70	67.88
527.87	2.34
528.04	4.68
528.21	21.06
528.38	44.47
528.55	51.49
528.72	72.56
528.89	37.45
529.07	9.36
529.24	23.41
529.41	107.66
529.58	37.45
529.75	114.69
529.92	53.83
530.09	14.04
530.26	63.19
530.43	84.26
530.60	32.77
530.77	81.92
530.94	67.88
531.11	14.04
531.28	79.58
531.46	2.34
531.63	98.30
531.80	53.83
531.97	35.11
532.14	79.58
532.31	58.51
532.48	16.38
532.65	0.00
532.82	65.54
532.99	21.06
533.16	37.45
533.33	84.26
533.50	79.58
533.67	70.22
533.84	51.49
534.01	0.00
534.18	0.00
534.35	37.45
534.52	0.00
534.69	11.70
534.86	77.24
535.03	0.00
535.20	88.94
535.37	53.83
535.54	128.73
535.71	4.68
535.88	0.00
536.05	32.77
536.22	46.81
536.38	49.15
536.55	79.58
536.72	37.45
536.89	81.92
537.06	51.49
537.23	0.00
537.40	16.38
537.57	28.09
537.74	30.43
537.91	18.72
538.08	25.75
538.25	0.00
538.42	0.00
538.59	0.00
538.75	67.88
538.92	56.17
539.09	86.60
539.26	0.00
539.43	51.49
539.60	131.07
539.77	177.88
539.94	238.73
540.11	135.75
540.28	81.92
540.44	67.88
540.61	58.51
540.78	28.09
540.95	105.32
541.12	35.11
541.29	91.28
541.46	0.00
541.62	0.00
541.79	67.88
541.96	117.03
542.13	49.15
542.30	110.01
542.47	35.11
542.63	53.83
542.80	81.92
542.97	0.00
543.14	28.09
543.31	81.92
543.48	7.02
543.64	4.68
543.81	77.24
543.98	2.34
544.15	67.88
544.32	14.04
544.48	2.34
544.65	53.83
544.82	65.54
544.99	42.13
545.16	79.58
545.32	53.83
545.49	53.83
545.66	63.19
545.83	67.88
546.00	4.68
546.16	70.22
546.33	63.19
546.50	46.81
546.67	42.13
546.83	65.54
547.00	58.51
547.17	51.49
547.34	37.45
547.50	60.85
547.67	81.92
547.84	102.98
548.00	53.83
548.17	0.00
548.34	35.11
548.51	18.72
548.67	135.75
548.84	11.70
549.01	56.17
549.18	0.00
549.34	0.00
549.51	88.94
549.68	30.43
549.84	63.19
550.01	0.00
550.18	42.13
550.34	77.24
550.51	53.83
550.68	28.09
550.84	72.56
551.01	28.09
551.18	30.43
551.34	119.37
551.51	128.73
551.68	7.02
551.84	91.28
552.01	91.28
552.18	39.79
552.34	138.09
552.51	93.62
552.68	110.01
552.84	42.13
553.01	16.38
553.18	42.13
553.34	0.00
553.51	23.41
553.67	35.11
553.84	16.38
554.01	56.17
554.17	0.00
554.34	16.38
554.51	2.34
554.67	18.72
554.84	0.00
555.00	53.83
555.17	18.72
555.33	63.19
555.50	53.83
555.67	60.85
555.83	81.92
556.00	42.13
556.16	14.04
556.33	0.00
556.50	65.54
556.66	56.17
556.83	32.77
556.99	88.94
557.16	58.51
557.32	4.68
557.49	14.04
557.65	25.75
557.82	51.49
557.98	30.43
558.15	0.00
558.32	42.13
558.48	16.38
558.65	2.34
558.81	44.47
558.98	88.94
559.14	67.88
559.31	2.34
559.47	81.92
559.64	72.56
559.80	74.90
559.97	16.38
560.13	30.43
560.30	63.19
560.46	79.58
560.63	37.45
560.79	23.41
560.96	110.01
561.12	42.13
561.29	58.51
561.45	28.09
561.61	0.00
561.78	39.79
561.94	42.13
562.11	79.58
562.27	0.00
562.44	49.15
562.60	74.90
562.77	42.13
562.93	37.45
563.10	100.64
563.26	60.85
563.42	42.13
563.59	77.24
563.75	60.85
563.92	37.45
564.08	77.24
564.24	51.49
564.41	46.81
564.57	0.00
564.74	58.51
564.90	23.41
565.07	39.79
565.23	46.81
565.39	9.36
565.56	46.81
565.72	74.90
565.88	86.60
566.05	30.43
566.21	67.88
566.38	74.90
566.54	74.90
566.70	81.92
566.87	0.00
567.03	0.00
567.19	30.43
567.36	44.47
567.52	32.77
567.68	37.45
567.85	46.81
568.01	30.43
568.17	0.00
568.34	56.17
568.50	58.51
568.66	60.85
568.83	105.32
568.99	39.79
569.15	67.88
569.32	0.00
569.48	9.36
569.64	23.41
569.81	72.56
569.97	0.00
570.13	25.75
570.30	56.17
570.46	14.04
570.62	91.28
570.78	65.54
570.95	0.00
571.11	65.54
571.27	2.34
571.43	0.00
571.60	37.45
571.76	53.83
571.92	72.56
572.09	0.00
572.25	23.41
572.41	65.54
572.57	56.17
572.74	0.00
572.90	37.45
573.06	42.13
573.22	117.03
573.38	65.54
573.55	65.54
573.71	42.13
573.87	9.36
574.03	37.45
574.20	14.04
574.36	0.00
574.52	42.13
574.68	32.77
574.84	131.07
575.01	46.81
575.17	58.51
575.33	95.96
575.49	63.19
575.65	63.19
575.82	67.88
575.98	145.11
576.14	28.09
576.30	58.51
576.46	28.09
576.62	46.81
576.79	100.64
576.95	44.47
577.11	42.13
577.27	0.00
577.43	42.13
577.59	0.00
577.75	117.03
577.92	28.09
578.08	7.02
578.24	35.11
578.40	65.54
578.56	32.77
578.72	39.79
578.88	70.22
579.04	16.38
579.21	0.00
579.37	60.85
579.53	79.58
579.69	30.43
579.85	18.72
580.01	86.60
580.17	84.26
580.33	42.13
580.49	39.79
580.65	60.85
580.82	30.43
580.98	72.56
581.14	25.75
581.30	58.51
581.46	56.17
581.62	67.88
581.78	142.77
581.94	65.54
582.10	114.69
582.26	14.04
582.42	49.15
582.58	74.90
582.74	18.72
582.90	51.49
583.06	63.19
583.22	56.17
583.38	70.22
583.54	32.77
583.70	72.56
583.86	58.51
584.02	72.56
584.18	95.96
584.34	135.75
584.50	367.46
584.66	2305.43
584.82	5633.67
584.98	8409.54
585.14	7173.74
585.30	4739.58
585.46	2630.76
585.62	1675.82
585.78	828.55
585.94	278.52
586.10	227.03
586.26	107.66
586.42	156.82
586.58	138.09
586.74	30.43
586.90	70.22
587.06	98.30
587.22	117.03
587.38	58.51
587.54	112.35
587.70	383.85
587.86	568.75
588.02	648.33
588.18	404.91
588.34	285.55
588.49	203.63
588.65	131.07
588.81	39.79
588.97	86.60
589.13	44.47
589.29	126.39
589.45	110.01
589.61	88.94
589.77	74.90
589.93	140.43
590.08	100.64
590.24	0.00
590.40	65.54
590.56	72.56
590.72	72.56
590.88	86.60
591.04	28.09
591.20	23.41
591.35	14.04
591.51	105.32
591.67	63.19
591.83	0.00
591.99	65.54
592.15	49.15
592.31	67.88
592.46	44.47
592.62	110.01
592.78	30.43
592.94	39.79
593.10	105.32
593.26	119.37
593.41	77.24
593.57	44.47
593.73	51.49
593.89	250.44
594.05	723.23
594.20	1048.56
594.36	971.32
594.52	734.93
594.68	383.85
594.84	311.29
594.99	227.03
595.15	53.83
595.31	51.49
595.47	81.92
595.62	44.47
595.78	84.26
595.94	4.68
596.10	46.81
596.25	0.00
596.41	46.81
596.57	86.60
596.73	77.24
596.88	51.49
597.04	152.13
597.20	294.91
597.36	257.46
597.51	145.11
597.67	119.37
597.83	142.77
597.99	177.88
598.14	23.41
598.30	37.45
598.46	37.45
598.61	42.13
598.77	60.85
598.93	0.00
599.09	16.38
599.24	46.81
599.40	88.94
599.56	46.81
599.71	72.56
599.87	58.51
600.03	44.47
600.18	0.00
600.34	0.00
600.50	0.00
600.65	25.75
600.81	23.41
600.97	18.72
601.12	44.47
601.28	46.81
601.44	67.88
601.59	65.54
601.75	53.83
601.91	28.09
602.06	11.70
602.22	107.66
602.37	112.35
602.53	201.29
602.69	245.76
602.84	250.44
603.00	259.80
603.16	81.92
603.31	140.43
603.47	72.56
603.62	53.83
603.78	67.88
603.94	46.81
604.09	56.17
604.25	67.88
604.40	39.79
604.56	56.17
604.71	60.85
604.87	102.98
605.03	0.00
605.18	128.73
605.34	18.72
605.49	18.72
605.65	42.13
605.80	63.19
605.96	30.43
606.12	0.00
606.27	93.62
606.43	117.03
606.58	37.45
606.74	84.26
606.89	397.89
607.05	608.54
607.20	940.90
607.36	772.38
607.51	498.53
607.67	304.27
607.82	208.31
607.98	156.82
608.13	128.73
608.29	67.88
608.44	39.79
608.60	46.81
608.75	131.07
608.91	180.22
609.06	587.47
609.22	1193.67
609.37	1467.52
609.53	1380.92
609.68	901.11
609.84	559.39
609.99	348.74
610.15	248.10
610.30	91.28
610.46	56.17
610.61	49.15
610.76	67.88
610.92	110.01
611.07	56.17
611.23	44.47
611.38	23.41
611.54	39.79
611.69	86.60
611.84	102.98
612.00	16.38
612.15	0.00
612.31	131.07
612.46	98.30
612.62	72.56
612.77	119.37
612.92	49.15
613.08	25.75
613.23	145.11
613.39	93.62
613.54	88.94
613.69	568.75
613.85	1434.75
614.00	2296.07
614.15	2485.65
614.31	1748.38
614.46	1153.88
614.62	791.10
614.77	472.79
614.92	205.97
615.08	93.62
615.23	42.13
615.38	44.47
615.54	72.56
615.69	67.88
615.84	337.04
616.00	477.47
616.15	641.31
616.30	524.28
616.46	437.68
616.61	280.86
616.76	198.95
616.92	124.05
617.07	58.51
617.22	2.34
617.37	0.00
617.53	58.51
617.68	49.15
617.83	56.17
617.99	91.28
618.14	0.00
618.29	42.13
618.45	35.11
618.60	11.70
618.75	173.20
618.90	84.26
619.06	86.60
619.21	28.09
619.36	37.45
619.51	58.51
619.67	25.75
619.82	49.15
619.97	37.45
620.12	102.98
620.28	18.72
620.43	77.24
620.58	81.92
620.73	65.54
620.89	91.28
621.04	133.41
621.19	170.86
621.34	341.72
621.49	435.34
621.65	386.19
621.80	248.10
621.95	234.05
622.10	121.71
622.25	60.85
622.41	86.60
622.56	63.19
622.71	46.81
622.86	35.11
623.01	84.26
623.16	9.36
623.32	0.00
623.47	11.70
623.62	0.00
623.77	46.81
623.92	16.38
624.07	9.36
624.23	4.68
624.38	0.00
624.53	63.19
624.68	42.13
624.83	0.00
624.98	46.81
625.13	46.81
625.29	46.81
625.44	124.05
625.59	81.92
625.74	28.09
625.89	110.01
626.04	231.71
626.19	709.18
626.34	1158.57
626.49	1306.02
626.65	936.21
626.80	706.84
626.95	374.49
627.10	287.89
627.25	161.50
627.40	42.13
627.55	44.47
627.70	23.41
627.85	107.66
628.00	37.45
628.15	51.49
628.30	11.70
628.45	114.69
628.60	11.70
628.76	37.45
628.91	42.13
629.06	0.00
629.21	86.60
629.36	11.70
629.51	88.94
629.66	79.58
629.81	81.92
629.96	182.56
630.11	248.10
630.26	299.59
630.41	245.76
630.56	163.84
630.71	159.16
630.86	110.01
631.01	135.75
631.16	37.45
631.31	110.01
631.46	9.36
631.61	58.51
631.76	32.77
631.91	39.79
632.06	44.47
632.21	16.38
632.36	124.05
632.51	63.19
632.66	18.72
632.81	163.84
632.96	414.27
633.10	699.82
633.25	964.30
633.40	624.92
633.55	482.15
633.70	346.40
633.85	224.69
634.00	201.29
634.15	81.92
634.30	60.85
634.45	18.72
634.60	39.79
634.75	98.30
634.90	138.09
635.05	79.58
635.19	58.51
635.34	42.13
635.49	58.51
635.64	124.05
635.79	72.56
635.94	39.79
636.09	4.68
636.24	44.47
636.39	25.75
636.53	91.28
636.68	35.11
636.83	4.68
636.98	4.68
637.13	9.36
637.28	79.58
637.43	42.13
637.57	63.19
637.72	365.12
637.87	971.32
638.02	1486.24
638.17	1516.67
638.32	1376.24
638.46	837.91
638.61	578.11
638.76	315.97
638.91	201.29
639.06	63.19
639.20	42.13
639.35	131.07
639.50	131.07
639.65	505.56
639.80	1502.62
639.94	2244.57
640.09	2597.99
640.24	1954.35
640.39	1336.45
640.54	861.32
640.68	594.50
640.83	208.31
640.98	107.66
641.13	65.54
641.27	56.17
641.42	42.13
641.57	49.15
641.72	37.45
641.86	11.70
642.01	0.00
642.16	9.36
642.31	53.83
642.45	70.22
642.60	32.77
642.75	60.85
642.90	98.30
643.04	0.00
643.19	9.36
643.34	9.36
643.48	37.45
643.63	53.83
643.78	49.15
643.93	105.32
644.07	107.66
644.22	56.17
644.37	4.68
644.51	0.00
644.66	56.17
644.81	35.11
644.95	44.47
645.10	142.77
645.25	105.32
645.39	88.94
645.54	128.73
645.69	65.54
645.83	46.81
645.98	28.09
646.13	0.00
646.27	16.38
646.42	53.83
646.57	58.51
646.71	51.49
646.86	65.54
647.00	95.96
647.15	135.75
647.30	58.51
647.44	32.77
647.59	60.85
647.74	102.98
647.88	4.68
648.03	53.83
648.17	0.00
648.32	65.54
648.47	46.81
648.61	74.90
648.76	23.41
648.90	35.11
649.05	39.79
649.20	51.49
649.34	154.48
649.49	21.06
649.63	0.00
649.78	60.85
649.92	105.32
650.07	245.76
650.21	711.52
650.36	1025.15
650.51	1156.22
650.65	1100.05
650.80	779.40
650.94	519.60
651.09	358.10
651.23	173.20
651.38	119.37
651.52	72.56
651.67	23.41
651.81	105.32
651.96	14.04
652.10	42.13
652.25	14.04
652.39	11.70
652.54	72.56
652.68	51.49
652.83	177.88
652.97	313.63
653.12	493.85
653.26	411.93
653.41	292.57
653.55	191.92
653.70	152.13
653.84	98.30
653.99	46.81
654.13	0.00
654.27	28.09
654.42	53.83
654.56	56.17
654.71	11.70
654.85	72.56
655.00	46.81
655.14	58.51
655.29	18.72
655.43	44.47
655.57	9.36
655.72	46.81
655.86	0.00
656.01	138.09
656.15	35.11
656.30	77.24
656.44	42.13
656.58	42.13
656.73	28.09
656.87	107.66
657.01	70.22
657.16	60.85
657.30	51.49
657.45	74.90
657.59	49.15
657.73	0.00
657.88	35.11
658.02	60.85
658.16	0.00
658.31	32.77
658.45	11.70
658.60	28.09
658.74	63.19
658.88	74.90
659.03	112.35
659.17	0.00
659.31	100.64
659.46	369.80
659.60	484.49
659.74	720.88
659.89	533.64
660.03	491.51
660.17	383.85
660.32	161.50
660.46	65.54
660.60	93.62
660.74	18.72
660.89	86.60
661.03	46.81
661.17	25.75
661.32	46.81
661.46	0.00
661.60	11.70
661.74	28.09
661.89	42.13
662.03	42.13
662.17	4.68
662.31	51.49
662.46	21.06
662.60	21.06
662.74	35.11
662.88	32.77
663.03	2.34
663.17	93.62
663.31	60.85
663.45	46.81
663.60	14.04
663.74	39.79
663.88	0.00
664.02	84.26
664.17	30.43
664.31	30.43
664.45	70.22
664.59	25.75
664.73	53.83
664.88	0.00
665.02	37.45
665.16	23.41
665.30	110.01
665.44	56.17
665.59	60.85
665.73	18.72
665.87	30.43
666.01	35.11
666.15	79.58
666.29	37.45
666.44	11.70
666.58	9.36
666.72	28.09
666.86	70.22
667.00	121.71
667.14	107.66
667.28	163.84
667.43	517.26
667.57	877.70
667.71	1158.57
667.85	987.71
667.99	763.01
668.13	440.02
668.27	304.27
668.41	177.88
668.56	95.96
668.70	35.11
668.84	39.79
668.98	65.54
669.12	79.58
669.26	39.79
669.40	119.37
669.54	56.17
669.68	58.51
669.82	0.00
669.96	79.58
670.10	72.56
670.25	58.51
670.39	98.30
670.53	126.39
670.67	39.79
670.81	74.90
670.95	53.83
671.09	18.72
671.23	131.07
671.37	489.17
671.51	690.46
671.65	734.93
671.79	507.90
671.93	409.59
672.07	217.67
672.21	163.84
672.35	84.26
672.49	81.92
672.63	25.75
672.77	30.43
672.91	51.49
673.05	58.51
673.19	102.98
673.33	86.60
673.47	28.09
673.61	51.49
673.75	105.32
673.89	37.45
674.03	30.43
674.17	0.00
674.31	63.19
674.45	53.83
674.59	14.04
674.73	42.13
674.87	0.00
675.01	21.06
675.15	25.75
675.29	86.60
675.43	32.77
675.56	95.96
675.70	9.36
675.84	60.85
675.98	39.79
676.12	0.00
676.26	0.00
676.40	35.11
676.54	0.00
676.68	42.13
676.82	53.83
676.96	0.00
677.10	37.45
677.23	42.13
677.37	28.09
677.51	18.72
677.65	32.77
677.79	44.47
677.93	0.00
678.07	56.17
678.21	49.15
678.34	35.11
678.48	51.49
678.62	65.54
678.76	74.90
678.90	63.19
679.04	4.68
679.18	79.58
679.31	25.75
679.45	28.09
679.59	0.00
679.73	14.04
679.87	16.38
680.00	21.06
680.14	0.00
680.28	39.79
680.42	49.15
680.56	9.36
680.70	0.00
680.83	63.19
680.97	37.45
681.11	0.00
681.25	30.43
681.39	37.45
681.52	9.36
681.66	30.43
681.80	25.75
681.94	28.09
682.07	0.00
682.21	2.34
682.35	21.06
682.49	18.72
682.62	117.03
682.76	67.88
682.90	51.49
683.04	23.41
683.17	77.24
683.31	81.92
683.45	32.77
683.59	23.41
683.72	35.11
683.86	121.71
684.00	18.72
684.13	11.70
684.27	21.06
684.41	28.09
684.55	28.09
684.68	28.09
684.82	0.00
684.96	95.96
685.09	58.51
685.23	21.06
685.37	0.00
685.50	7.02
685.64	11.70
685.78	35.11
685.91	16.38
686.05	42.13
686.19	4.68
686.32	51.49
686.46	56.17
686.60	0.00
686.73	37.45
686.87	93.62
687.01	65.54
687.14	65.54
687.28	18.72
687.42	32.77
687.55	70.22
687.69	65.54
687.82	18.72
687.96	37.45
688.10	2.34
688.23	60.85
688.37	11.70
688.50	49.15
688.64	114.69
688.78	25.75
688.91	135.75
689.05	32.77
689.18	16.38
689.32	44.47
689.46	35.11
689.59	16.38
689.73	95.96
689.86	32.77
690.00	44.47
690.13	28.09
690.27	56.17
690.41	77.24
690.54	35.11
690.68	53.83
690.81	67.88
690.95	49.15
691.08	51.49
691.22	37.45
691.35	0.00
691.49	84.26
691.62	88.94
691.76	35.11
691.89	51.49
692.03	105.32
692.16	60.85
692.30	67.88
692.43	91.28
692.57	210.65
692.70	351.08
692.84	535.98
692.97	472.79
693.11	409.59
693.24	266.82
693.38	175.54
693.51	114.69
693.65	135.75
693.78	46.81
693.92	60.85
694.05	65.54
694.19	53.83
694.32	0.00
694.45	67.88
694.59	56.17
694.72	93.62
694.86	32.77
694.99	4.68
695.13	39.79
695.26	35.11
695.39	60.85
695.53	0.00
695.66	16.38
695.80	67.88
695.93	4.68
696.07	7.02
696.20	11.70
696.33	51.49
696.47	72.56
696.60	58.51
696.73	67.88
696.87	84.26
697.00	124.05
697.14	0.00
697.27	25.75
697.40	70.22
697.54	81.92
697.67	30.43
697.80	70.22
697.94	46.81
698.07	65.54
698.21	56.17
698.34	0.00
698.47	42.13
698.61	44.47
698.74	7.02
698.87	4.68
699.01	88.94
699.14	14.04
699.27	46.81
699.40	60.85
699.54	49.15
699.67	77.24
699.80	44.47
699.94	18.72
700.07	0.00
700.20	58.51
700.34	30.43
700.47	67.88
700.60	65.54
700.73	16.38
700.87	2.34
701.00	60.85
701.13	79.58
701.26	18.72
701.40	4.68
701.53	35.11
701.66	0.00
701.79	25.75
701.93	30.43
702.06	42.13
702.19	119.37
702.32	88.94
702.46	81.92
702.59	63.19
702.72	81.92
702.85	308.95
702.99	706.84
703.12	863.66
703.25	889.40
703.38	858.98
703.51	636.63
703.65	475.13
703.78	369.80
703.91	229.37
704.04	180.22
704.17	156.82
704.31	112.35
704.44	32.77
704.57	7.02
704.70	84.26
704.83	67.88
704.96	7.02
705.10	35.11
705.23	35.11
>>>>>End Processed Spectral Data<<<<<
