SpectraSuite Data File
++++++++++++++++++++++++++++++++++++
Date: Fri Oct 04 12:13:38 GMT-05:00 2013
User: price-jones
Dark Spectrum Present: No
Reference Spectrum Present: No
Number of Sampled Component Spectra: 1
Spectrometers: USB2+H05261
Integration Time (usec): 10000 (USB2+H05261)
Spectra Averaged: 1 (USB2+H05261)
Boxcar Smoothing: 0 (USB2+H05261)
Correct for Electrical Dark: No (USB2+H05261)
Strobe/Lamp Enabled: No (USB2+H05261)
Correct for Detector Non-linearity: No (USB2+H05261)
Correct for Stray Light: No (USB2+H05261)
Number of Pixels in Processed Spectrum: 2048
>>>>>Begin Processed Spectral Data<<<<<
365.73	0.00
365.92	0.00
366.12	0.00
366.32	0.00
366.52	0.00
366.72	0.00
366.91	0.00
367.11	0.00
367.31	0.00
367.51	0.00
367.70	0.00
367.90	0.00
368.10	0.00
368.30	0.00
368.49	0.00
368.69	0.00
368.89	0.00
369.09	0.00
369.28	0.00
369.48	0.00
369.68	0.00
369.87	0.00
370.07	0.00
370.27	0.00
370.47	0.00
370.66	0.00
370.86	0.00
371.06	0.00
371.25	0.00
371.45	21.06
371.65	0.00
371.84	0.00
372.04	0.00
372.24	21.06
372.44	0.00
372.63	0.00
372.83	0.00
373.03	53.83
373.22	49.15
373.42	4.68
373.62	28.09
373.81	42.13
374.01	91.28
374.21	98.30
374.40	14.04
374.60	44.47
374.79	0.00
374.99	102.98
375.19	0.00
375.38	11.70
375.58	16.38
375.78	0.00
375.97	0.00
376.17	51.49
376.37	30.43
376.56	0.00
376.76	28.09
376.95	46.81
377.15	60.85
377.35	81.92
377.54	0.00
377.74	60.85
377.93	18.72
378.13	0.00
378.33	23.41
378.52	4.68
378.72	53.83
378.91	35.11
379.11	23.41
379.31	58.51
379.50	0.00
379.70	9.36
379.89	53.83
380.09	0.00
380.28	0.00
380.48	0.00
380.68	25.75
380.87	18.72
381.07	37.45
381.26	0.00
381.46	56.17
381.65	0.00
381.85	49.15
382.04	0.00
382.24	58.51
382.43	51.49
382.63	53.83
382.83	4.68
383.02	11.70
383.22	9.36
383.41	14.04
383.61	0.00
383.80	0.00
384.00	60.85
384.19	79.58
384.39	11.70
384.58	0.00
384.78	0.00
384.97	46.81
385.17	37.45
385.36	37.45
385.56	35.11
385.75	4.68
385.95	105.32
386.14	16.38
386.34	53.83
386.53	0.00
386.72	95.96
386.92	42.13
387.11	0.00
387.31	21.06
387.50	0.00
387.70	0.00
387.89	51.49
388.09	4.68
388.28	0.00
388.48	49.15
388.67	39.79
388.86	0.00
389.06	0.00
389.25	0.00
389.45	0.00
389.64	0.00
389.84	23.41
390.03	9.36
390.22	16.38
390.42	0.00
390.61	2.34
390.81	0.00
391.00	0.00
391.19	0.00
391.39	84.26
391.58	53.83
391.78	0.00
391.97	60.85
392.16	21.06
392.36	0.00
392.55	23.41
392.75	0.00
392.94	56.17
393.13	35.11
393.33	110.01
393.52	2.34
393.71	0.00
393.91	0.00
394.10	72.56
394.29	42.13
394.49	42.13
394.68	44.47
394.88	2.34
395.07	0.00
395.26	49.15
395.46	14.04
395.65	28.09
395.84	60.85
396.04	110.01
396.23	0.00
396.42	16.38
396.62	21.06
396.81	79.58
397.00	0.00
397.19	0.00
397.39	0.00
397.58	42.13
397.77	44.47
397.97	67.88
398.16	25.75
398.35	0.00
398.55	9.36
398.74	70.22
398.93	0.00
399.12	56.17
399.32	95.96
399.51	0.00
399.70	18.72
399.90	65.54
400.09	28.09
400.28	30.43
400.47	23.41
400.67	18.72
400.86	7.02
401.05	25.75
401.24	25.75
401.44	102.98
401.63	14.04
401.82	0.00
402.01	0.00
402.21	0.00
402.40	65.54
402.59	4.68
402.78	74.90
402.97	46.81
403.17	65.54
403.36	9.36
403.55	46.81
403.74	81.92
403.93	23.41
404.13	18.72
404.32	0.00
404.51	0.00
404.70	30.43
404.89	4.68
405.09	9.36
405.28	46.81
405.47	0.00
405.66	25.75
405.85	105.32
406.05	14.04
406.24	35.11
406.43	0.00
406.62	77.24
406.81	51.49
407.00	32.77
407.20	0.00
407.39	67.88
407.58	51.49
407.77	0.00
407.96	67.88
408.15	37.45
408.34	11.70
408.54	60.85
408.73	23.41
408.92	46.81
409.11	11.70
409.30	35.11
409.49	53.83
409.68	0.00
409.87	28.09
410.07	25.75
410.26	37.45
410.45	30.43
410.64	23.41
410.83	0.00
411.02	72.56
411.21	124.05
411.40	32.77
411.59	77.24
411.78	37.45
411.98	70.22
412.17	84.26
412.36	18.72
412.55	67.88
412.74	39.79
412.93	74.90
413.12	0.00
413.31	98.30
413.50	53.83
413.69	32.77
413.88	18.72
414.07	9.36
414.26	11.70
414.45	16.38
414.64	63.19
414.83	18.72
415.02	49.15
415.22	84.26
415.41	35.11
415.60	77.24
415.79	60.85
415.98	119.37
416.17	0.00
416.36	35.11
416.55	70.22
416.74	44.47
416.93	0.00
417.12	0.00
417.31	37.45
417.50	88.94
417.69	72.56
417.88	95.96
418.07	44.47
418.26	72.56
418.45	93.62
418.64	70.22
418.83	65.54
419.02	0.00
419.21	112.35
419.39	28.09
419.58	56.17
419.77	114.69
419.96	79.58
420.15	9.36
420.34	0.00
420.53	16.38
420.72	46.81
420.91	163.84
421.10	102.98
421.29	2.34
421.48	60.85
421.67	63.19
421.86	2.34
422.05	0.00
422.24	49.15
422.43	14.04
422.61	4.68
422.80	0.00
422.99	65.54
423.18	65.54
423.37	72.56
423.56	74.90
423.75	53.83
423.94	30.43
424.13	102.98
424.32	23.41
424.50	39.79
424.69	0.00
424.88	30.43
425.07	56.17
425.26	49.15
425.45	0.00
425.64	0.00
425.83	70.22
426.01	0.00
426.20	100.64
426.39	65.54
426.58	42.13
426.77	79.58
426.96	35.11
427.15	14.04
427.33	88.94
427.52	21.06
427.71	65.54
427.90	110.01
428.09	145.11
428.28	7.02
428.46	46.81
428.65	14.04
428.84	0.00
429.03	28.09
429.22	112.35
429.40	67.88
429.59	21.06
429.78	4.68
429.97	51.49
430.16	28.09
430.34	58.51
430.53	28.09
430.72	2.34
430.91	86.60
431.10	46.81
431.28	93.62
431.47	65.54
431.66	72.56
431.85	133.41
432.03	46.81
432.22	39.79
432.41	35.11
432.60	39.79
432.79	25.75
432.97	0.00
433.16	74.90
433.35	32.77
433.54	32.77
433.72	53.83
433.91	42.13
434.10	74.90
434.28	112.35
434.47	35.11
434.66	77.24
434.85	79.58
435.03	0.00
435.22	28.09
435.41	53.83
435.59	63.19
435.78	46.81
435.97	44.47
436.16	63.19
436.34	32.77
436.53	124.05
436.72	23.41
436.90	23.41
437.09	70.22
437.28	56.17
437.46	30.43
437.65	124.05
437.84	0.00
438.02	49.15
438.21	56.17
438.40	39.79
438.58	79.58
438.77	53.83
438.96	28.09
439.14	84.26
439.33	56.17
439.52	0.00
439.70	37.45
439.89	65.54
440.08	88.94
440.26	11.70
440.45	39.79
440.63	44.47
440.82	67.88
441.01	21.06
441.19	0.00
441.38	74.90
441.57	39.79
441.75	84.26
441.94	67.88
442.12	86.60
442.31	72.56
442.50	60.85
442.68	25.75
442.87	0.00
443.05	84.26
443.24	63.19
443.43	126.39
443.61	63.19
443.80	53.83
443.98	35.11
444.17	133.41
444.35	77.24
444.54	105.32
444.73	91.28
444.91	63.19
445.10	32.77
445.28	0.00
445.47	46.81
445.65	49.15
445.84	77.24
446.02	18.72
446.21	0.00
446.39	39.79
446.58	32.77
446.77	49.15
446.95	23.41
447.14	65.54
447.32	65.54
447.51	0.00
447.69	9.36
447.88	86.60
448.06	79.58
448.25	67.88
448.43	77.24
448.62	7.02
448.80	0.00
448.99	121.71
449.17	112.35
449.36	63.19
449.54	63.19
449.73	30.43
449.91	79.58
450.10	0.00
450.28	44.47
450.46	51.49
450.65	60.85
450.83	51.49
451.02	0.00
451.20	21.06
451.39	39.79
451.57	86.60
451.76	23.41
451.94	0.00
452.13	30.43
452.31	56.17
452.49	86.60
452.68	102.98
452.86	9.36
453.05	86.60
453.23	46.81
453.42	51.49
453.60	7.02
453.78	7.02
453.97	14.04
454.15	60.85
454.34	42.13
454.52	39.79
454.70	60.85
454.89	124.05
455.07	81.92
455.26	100.64
455.44	140.43
455.62	145.11
455.81	32.77
455.99	63.19
456.17	46.81
456.36	63.19
456.54	44.47
456.73	51.49
456.91	21.06
457.09	25.75
457.28	60.85
457.46	72.56
457.64	79.58
457.83	60.85
458.01	114.69
458.19	4.68
458.38	142.77
458.56	58.51
458.74	46.81
458.93	102.98
459.11	35.11
459.29	84.26
459.48	2.34
459.66	60.85
459.84	21.06
460.03	98.30
460.21	74.90
460.39	28.09
460.57	60.85
460.76	0.00
460.94	4.68
461.12	102.98
461.31	105.32
461.49	63.19
461.67	67.88
461.85	65.54
462.04	100.64
462.22	112.35
462.40	81.92
462.59	58.51
462.77	23.41
462.95	32.77
463.13	49.15
463.32	95.96
463.50	25.75
463.68	37.45
463.86	60.85
464.05	53.83
464.23	32.77
464.41	112.35
464.59	63.19
464.78	91.28
464.96	84.26
465.14	105.32
465.32	39.79
465.50	117.03
465.69	0.00
465.87	42.13
466.05	74.90
466.23	121.71
466.41	30.43
466.60	9.36
466.78	42.13
466.96	44.47
467.14	0.00
467.32	74.90
467.51	7.02
467.69	32.77
467.87	117.03
468.05	18.72
468.23	21.06
468.41	79.58
468.60	14.04
468.78	81.92
468.96	100.64
469.14	0.00
469.32	53.83
469.50	65.54
469.69	25.75
469.87	95.96
470.05	53.83
470.23	21.06
470.41	7.02
470.59	72.56
470.77	77.24
470.95	35.11
471.14	58.51
471.32	60.85
471.50	42.13
471.68	4.68
471.86	65.54
472.04	58.51
472.22	58.51
472.40	0.00
472.58	56.17
472.77	65.54
472.95	37.45
473.13	39.79
473.31	25.75
473.49	60.85
473.67	86.60
473.85	51.49
474.03	35.11
474.21	44.47
474.39	46.81
474.57	86.60
474.75	32.77
474.93	86.60
475.12	63.19
475.30	65.54
475.48	63.19
475.66	79.58
475.84	67.88
476.02	77.24
476.20	58.51
476.38	30.43
476.56	46.81
476.74	14.04
476.92	21.06
477.10	84.26
477.28	25.75
477.46	119.37
477.64	16.38
477.82	21.06
478.00	74.90
478.18	77.24
478.36	67.88
478.54	84.26
478.72	21.06
478.90	72.56
479.08	63.19
479.26	65.54
479.44	133.41
479.62	39.79
479.80	67.88
479.98	72.56
480.16	95.96
480.34	91.28
480.52	74.90
480.70	98.30
480.88	58.51
481.06	72.56
481.24	16.38
481.41	117.03
481.59	91.28
481.77	58.51
481.95	37.45
482.13	100.64
482.31	51.49
482.49	107.66
482.67	79.58
482.85	168.52
483.03	60.85
483.21	84.26
483.39	21.06
483.57	77.24
483.74	88.94
483.92	35.11
484.10	110.01
484.28	60.85
484.46	0.00
484.64	93.62
484.82	86.60
485.00	32.77
485.18	112.35
485.35	163.84
485.53	0.00
485.71	93.62
485.89	35.11
486.07	39.79
486.25	121.71
486.43	51.49
486.61	112.35
486.78	35.11
486.96	98.30
487.14	105.32
487.32	77.24
487.50	39.79
487.68	121.71
487.85	131.07
488.03	77.24
488.21	9.36
488.39	46.81
488.57	49.15
488.75	58.51
488.92	145.11
489.10	53.83
489.28	70.22
489.46	28.09
489.64	126.39
489.81	86.60
489.99	44.47
490.17	58.51
490.35	128.73
490.53	114.69
490.70	72.56
490.88	28.09
491.06	114.69
491.24	39.79
491.41	44.47
491.59	18.72
491.77	35.11
491.95	93.62
492.13	37.45
492.30	39.79
492.48	173.20
492.66	65.54
492.84	100.64
493.01	65.54
493.19	81.92
493.37	18.72
493.54	93.62
493.72	65.54
493.90	2.34
494.08	138.09
494.25	67.88
494.43	65.54
494.61	63.19
494.79	51.49
494.96	39.79
495.14	28.09
495.32	67.88
495.49	16.38
495.67	124.05
495.85	74.90
496.02	107.66
496.20	72.56
496.38	84.26
496.55	84.26
496.73	110.01
496.91	65.54
497.09	74.90
497.26	77.24
497.44	51.49
497.62	72.56
497.79	46.81
497.97	46.81
498.14	105.32
498.32	102.98
498.50	44.47
498.67	79.58
498.85	93.62
499.03	81.92
499.20	112.35
499.38	30.43
499.56	74.90
499.73	93.62
499.91	49.15
500.08	14.04
500.26	81.92
500.44	105.32
500.61	63.19
500.79	88.94
500.97	112.35
501.14	44.47
501.32	49.15
501.49	74.90
501.67	58.51
501.84	124.05
502.02	128.73
502.20	91.28
502.37	35.11
502.55	93.62
502.72	110.01
502.90	117.03
503.07	170.86
503.25	0.00
503.43	14.04
503.60	126.39
503.78	35.11
503.95	133.41
504.13	117.03
504.30	23.41
504.48	140.43
504.65	119.37
504.83	79.58
505.01	67.88
505.18	0.00
505.36	77.24
505.53	121.71
505.71	128.73
505.88	124.05
506.06	74.90
506.23	77.24
506.41	81.92
506.58	72.56
506.76	93.62
506.93	107.66
507.11	107.66
507.28	91.28
507.46	49.15
507.63	35.11
507.81	49.15
507.98	23.41
508.16	131.07
508.33	70.22
508.50	56.17
508.68	77.24
508.85	46.81
509.03	46.81
509.20	46.81
509.38	124.05
509.55	95.96
509.73	35.11
509.90	98.30
510.08	88.94
510.25	91.28
510.42	105.32
510.60	124.05
510.77	81.92
510.95	46.81
511.12	102.98
511.30	81.92
511.47	91.28
511.64	93.62
511.82	74.90
511.99	77.24
512.17	168.52
512.34	51.49
512.51	72.56
512.69	63.19
512.86	37.45
513.04	74.90
513.21	79.58
513.38	84.26
513.56	77.24
513.73	51.49
513.90	93.62
514.08	30.43
514.25	7.02
514.43	84.26
514.60	30.43
514.77	126.39
514.95	84.26
515.12	32.77
515.29	114.69
515.47	0.00
515.64	28.09
515.81	63.19
515.99	124.05
516.16	154.48
516.33	63.19
516.51	121.71
516.68	88.94
516.85	81.92
517.03	53.83
517.20	72.56
517.37	53.83
517.54	112.35
517.72	93.62
517.89	28.09
518.06	28.09
518.24	65.54
518.41	81.92
518.58	60.85
518.75	84.26
518.93	49.15
519.10	140.43
519.27	67.88
519.45	107.66
519.62	56.17
519.79	79.58
519.96	105.32
520.14	37.45
520.31	84.26
520.48	74.90
520.65	81.92
520.83	81.92
521.00	86.60
521.17	117.03
521.34	53.83
521.52	84.26
521.69	7.02
521.86	112.35
522.03	128.73
522.20	100.64
522.38	72.56
522.55	126.39
522.72	32.77
522.89	79.58
523.07	105.32
523.24	53.83
523.41	161.50
523.58	28.09
523.75	65.54
523.92	91.28
524.10	67.88
524.27	72.56
524.44	4.68
524.61	91.28
524.78	63.19
524.96	56.17
525.13	102.98
525.30	28.09
525.47	67.88
525.64	46.81
525.81	63.19
525.98	25.75
526.16	105.32
526.33	100.64
526.50	91.28
526.67	95.96
526.84	28.09
527.01	133.41
527.18	88.94
527.36	70.22
527.53	39.79
527.70	147.45
527.87	14.04
528.04	140.43
528.21	102.98
528.38	84.26
528.55	70.22
528.72	152.13
528.89	107.66
529.07	72.56
529.24	152.13
529.41	81.92
529.58	112.35
529.75	93.62
529.92	91.28
530.09	28.09
530.26	112.35
530.43	105.32
530.60	126.39
530.77	63.19
530.94	65.54
531.11	112.35
531.28	156.82
531.46	35.11
531.63	65.54
531.80	98.30
531.97	53.83
532.14	30.43
532.31	35.11
532.48	74.90
532.65	25.75
532.82	70.22
532.99	100.64
533.16	86.60
533.33	105.32
533.50	91.28
533.67	135.75
533.84	28.09
534.01	86.60
534.18	35.11
534.35	128.73
534.52	88.94
534.69	67.88
534.86	117.03
535.03	107.66
535.20	58.51
535.37	88.94
535.54	147.45
535.71	88.94
535.88	117.03
536.05	105.32
536.22	30.43
536.38	86.60
536.55	84.26
536.72	49.15
536.89	105.32
537.06	74.90
537.23	124.05
537.40	95.96
537.57	84.26
537.74	56.17
537.91	65.54
538.08	74.90
538.25	147.45
538.42	60.85
538.59	133.41
538.75	112.35
538.92	110.01
539.09	142.77
539.26	149.79
539.43	100.64
539.60	56.17
539.77	91.28
539.94	58.51
540.11	98.30
540.28	119.37
540.44	81.92
540.61	138.09
540.78	72.56
540.95	100.64
541.12	100.64
541.29	91.28
541.46	107.66
541.62	95.96
541.79	91.28
541.96	81.92
542.13	49.15
542.30	121.71
542.47	84.26
542.63	51.49
542.80	95.96
542.97	142.77
543.14	110.01
543.31	117.03
543.48	79.58
543.64	21.06
543.81	84.26
543.98	121.71
544.15	72.56
544.32	72.56
544.48	91.28
544.65	65.54
544.82	135.75
544.99	112.35
545.16	77.24
545.32	84.26
545.49	65.54
545.66	35.11
545.83	131.07
546.00	93.62
546.16	53.83
546.33	112.35
546.50	119.37
546.67	91.28
546.83	30.43
547.00	49.15
547.17	138.09
547.34	145.11
547.50	126.39
547.67	77.24
547.84	30.43
548.00	102.98
548.17	93.62
548.34	107.66
548.51	124.05
548.67	4.68
548.84	18.72
549.01	114.69
549.18	124.05
549.34	126.39
549.51	98.30
549.68	77.24
549.84	121.71
550.01	32.77
550.18	65.54
550.34	124.05
550.51	114.69
550.68	112.35
550.84	133.41
551.01	63.19
551.18	102.98
551.34	30.43
551.51	39.79
551.68	117.03
551.84	117.03
552.01	79.58
552.18	42.13
552.34	23.41
552.51	39.79
552.68	117.03
552.84	142.77
553.01	138.09
553.18	72.56
553.34	63.19
553.51	84.26
553.67	72.56
553.84	95.96
554.01	77.24
554.17	84.26
554.34	44.47
554.51	14.04
554.67	128.73
554.84	49.15
555.00	63.19
555.17	67.88
555.33	58.51
555.50	70.22
555.67	70.22
555.83	79.58
556.00	16.38
556.16	114.69
556.33	131.07
556.50	79.58
556.66	121.71
556.83	79.58
556.99	63.19
557.16	117.03
557.32	100.64
557.49	37.45
557.65	77.24
557.82	114.69
557.98	72.56
558.15	77.24
558.32	74.90
558.48	91.28
558.65	70.22
558.81	88.94
558.98	74.90
559.14	112.35
559.31	110.01
559.47	46.81
559.64	81.92
559.80	42.13
559.97	49.15
560.13	44.47
560.30	0.00
560.46	79.58
560.63	44.47
560.79	42.13
560.96	133.41
561.12	86.60
561.29	86.60
561.45	131.07
561.61	60.85
561.78	114.69
561.94	60.85
562.11	51.49
562.27	77.24
562.44	72.56
562.60	110.01
562.77	210.65
562.93	67.88
563.10	0.00
563.26	100.64
563.42	74.90
563.59	67.88
563.75	182.56
563.92	145.11
564.08	65.54
564.24	46.81
564.41	91.28
564.57	142.77
564.74	100.64
564.90	128.73
565.07	0.00
565.23	39.79
565.39	124.05
565.56	42.13
565.72	56.17
565.88	124.05
566.05	46.81
566.21	95.96
566.38	128.73
566.54	86.60
566.70	88.94
566.87	124.05
567.03	119.37
567.19	131.07
567.36	56.17
567.52	30.43
567.68	163.84
567.85	173.20
568.01	63.19
568.17	84.26
568.34	135.75
568.50	39.79
568.66	63.19
568.83	79.58
568.99	67.88
569.15	35.11
569.32	77.24
569.48	100.64
569.64	16.38
569.81	35.11
569.97	49.15
570.13	81.92
570.30	21.06
570.46	51.49
570.62	53.83
570.78	156.82
570.95	81.92
571.11	37.45
571.27	161.50
571.43	79.58
571.60	39.79
571.76	140.43
571.92	81.92
572.09	51.49
572.25	72.56
572.41	30.43
572.57	124.05
572.74	51.49
572.90	126.39
573.06	102.98
573.22	70.22
573.38	25.75
573.55	28.09
573.71	58.51
573.87	91.28
574.03	28.09
574.20	60.85
574.36	124.05
574.52	67.88
574.68	84.26
574.84	58.51
575.01	145.11
575.17	39.79
575.33	18.72
575.49	91.28
575.65	100.64
575.82	124.05
575.98	131.07
576.14	65.54
576.30	53.83
576.46	154.48
576.62	79.58
576.79	126.39
576.95	117.03
577.11	81.92
577.27	98.30
577.43	37.45
577.59	81.92
577.75	67.88
577.92	98.30
578.08	51.49
578.24	65.54
578.40	91.28
578.56	93.62
578.72	60.85
578.88	65.54
579.04	166.18
579.21	107.66
579.37	168.52
579.53	110.01
579.69	81.92
579.85	58.51
580.01	81.92
580.17	58.51
580.33	65.54
580.49	51.49
580.65	81.92
580.82	37.45
580.98	44.47
581.14	88.94
581.30	98.30
581.46	88.94
581.62	42.13
581.78	53.83
581.94	86.60
582.10	28.09
582.26	72.56
582.42	81.92
582.58	117.03
582.74	23.41
582.90	56.17
583.06	0.00
583.22	4.68
583.38	30.43
583.54	112.35
583.70	39.79
583.86	46.81
584.02	93.62
584.18	86.60
584.34	110.01
584.50	145.11
584.66	65.54
584.82	145.11
584.98	98.30
585.14	25.75
585.30	42.13
585.46	37.45
585.62	128.73
585.78	77.24
585.94	63.19
586.10	84.26
586.26	81.92
586.42	60.85
586.58	67.88
586.74	140.43
586.90	135.75
587.06	98.30
587.22	110.01
587.38	44.47
587.54	44.47
587.70	81.92
587.86	84.26
588.02	81.92
588.18	77.24
588.34	25.75
588.49	51.49
588.65	86.60
588.81	28.09
588.97	42.13
589.13	138.09
589.29	128.73
589.45	74.90
589.61	0.00
589.77	114.69
589.93	44.47
590.08	51.49
590.24	77.24
590.40	32.77
590.56	79.58
590.72	102.98
590.88	28.09
591.04	56.17
591.20	189.58
591.35	58.51
591.51	72.56
591.67	98.30
591.83	42.13
591.99	58.51
592.15	70.22
592.31	9.36
592.46	49.15
592.62	77.24
592.78	124.05
592.94	56.17
593.10	119.37
593.26	58.51
593.41	67.88
593.57	74.90
593.73	102.98
593.89	67.88
594.05	93.62
594.20	121.71
594.36	131.07
594.52	18.72
594.68	14.04
594.84	117.03
594.99	121.71
595.15	35.11
595.31	23.41
595.47	39.79
595.62	95.96
595.78	65.54
595.94	53.83
596.10	91.28
596.25	86.60
596.41	58.51
596.57	72.56
596.73	79.58
596.88	35.11
597.04	88.94
597.20	93.62
597.36	119.37
597.51	49.15
597.67	0.00
597.83	63.19
597.99	28.09
598.14	121.71
598.30	14.04
598.46	77.24
598.61	93.62
598.77	121.71
598.93	102.98
599.09	79.58
599.24	42.13
599.40	152.13
599.56	91.28
599.71	67.88
599.87	77.24
600.03	14.04
600.18	95.96
600.34	67.88
600.50	98.30
600.65	105.32
600.81	32.77
600.97	67.88
601.12	77.24
601.28	170.86
601.44	107.66
601.59	18.72
601.75	102.98
601.91	46.81
602.06	32.77
602.22	32.77
602.37	149.79
602.53	60.85
602.69	4.68
602.84	124.05
603.00	86.60
603.16	91.28
603.31	70.22
603.47	102.98
603.62	86.60
603.78	42.13
603.94	23.41
604.09	74.90
604.25	135.75
604.40	124.05
604.56	114.69
604.71	42.13
604.87	95.96
605.03	74.90
605.18	84.26
605.34	70.22
605.49	2.34
605.65	121.71
605.80	121.71
605.96	86.60
606.12	53.83
606.27	128.73
606.43	67.88
606.58	77.24
606.74	98.30
606.89	86.60
607.05	49.15
607.20	4.68
607.36	112.35
607.51	86.60
607.67	98.30
607.82	58.51
607.98	58.51
608.13	131.07
608.29	72.56
608.44	51.49
608.60	51.49
608.75	58.51
608.91	84.26
609.06	91.28
609.22	23.41
609.37	72.56
609.53	70.22
609.68	49.15
609.84	16.38
609.99	46.81
610.15	128.73
610.30	65.54
610.46	70.22
610.61	81.92
610.76	145.11
610.92	70.22
611.07	65.54
611.23	79.58
611.38	77.24
611.54	44.47
611.69	2.34
611.84	42.13
612.00	133.41
612.15	110.01
612.31	88.94
612.46	35.11
612.62	51.49
612.77	58.51
612.92	42.13
613.08	117.03
613.23	0.00
613.39	100.64
613.54	56.17
613.69	124.05
613.85	79.58
614.00	58.51
614.15	156.82
614.31	35.11
614.46	32.77
614.62	42.13
614.77	51.49
614.92	65.54
615.08	65.54
615.23	79.58
615.38	63.19
615.54	102.98
615.69	46.81
615.84	18.72
616.00	46.81
616.15	121.71
616.30	79.58
616.46	42.13
616.61	53.83
616.76	110.01
616.92	28.09
617.07	74.90
617.22	46.81
617.37	84.26
617.53	110.01
617.68	51.49
617.83	140.43
617.99	102.98
618.14	11.70
618.29	119.37
618.45	70.22
618.60	88.94
618.75	67.88
618.90	67.88
619.06	67.88
619.21	79.58
619.36	51.49
619.51	119.37
619.67	0.00
619.82	93.62
619.97	25.75
620.12	107.66
620.28	58.51
620.43	44.47
620.58	67.88
620.73	65.54
620.89	91.28
621.04	84.26
621.19	84.26
621.34	11.70
621.49	32.77
621.65	51.49
621.80	140.43
621.95	100.64
622.10	98.30
622.25	11.70
622.41	14.04
622.56	91.28
622.71	23.41
622.86	100.64
623.01	0.00
623.16	77.24
623.32	56.17
623.47	84.26
623.62	53.83
623.77	145.11
623.92	79.58
624.07	84.26
624.23	102.98
624.38	0.00
624.53	46.81
624.68	65.54
624.83	72.56
624.98	42.13
625.13	56.17
625.29	65.54
625.44	72.56
625.59	81.92
625.74	124.05
625.89	128.73
626.04	16.38
626.19	60.85
626.34	91.28
626.49	93.62
626.65	53.83
626.80	25.75
626.95	56.17
627.10	105.32
627.25	11.70
627.40	58.51
627.55	0.00
627.70	138.09
627.85	51.49
628.00	42.13
628.15	42.13
628.30	93.62
628.45	91.28
628.60	32.77
628.76	30.43
628.91	102.98
629.06	121.71
629.21	77.24
629.36	65.54
629.51	35.11
629.66	53.83
629.81	67.88
629.96	35.11
630.11	86.60
630.26	133.41
630.41	95.96
630.56	100.64
630.71	100.64
630.86	79.58
631.01	53.83
631.16	84.26
631.31	84.26
631.46	60.85
631.61	79.58
631.76	60.85
631.91	63.19
632.06	63.19
632.21	46.81
632.36	65.54
632.51	49.15
632.66	126.39
632.81	37.45
632.96	67.88
633.10	98.30
633.25	53.83
633.40	84.26
633.55	74.90
633.70	23.41
633.85	58.51
634.00	93.62
634.15	42.13
634.30	93.62
634.45	44.47
634.60	77.24
634.75	46.81
634.90	11.70
635.05	74.90
635.19	105.32
635.34	18.72
635.49	95.96
635.64	79.58
635.79	51.49
635.94	9.36
636.09	65.54
636.24	63.19
636.39	60.85
636.53	79.58
636.68	42.13
636.83	95.96
636.98	0.00
637.13	16.38
637.28	114.69
637.43	95.96
637.57	110.01
637.72	44.47
637.87	18.72
638.02	0.00
638.17	72.56
638.32	58.51
638.46	21.06
638.61	9.36
638.76	65.54
638.91	91.28
639.06	42.13
639.20	14.04
639.35	117.03
639.50	74.90
639.65	98.30
639.80	63.19
639.94	51.49
640.09	70.22
640.24	70.22
640.39	44.47
640.54	88.94
640.68	95.96
640.83	25.75
640.98	23.41
641.13	0.00
641.27	46.81
641.42	51.49
641.57	42.13
641.72	72.56
641.86	110.01
642.01	56.17
642.16	84.26
642.31	93.62
642.45	49.15
642.60	74.90
642.75	121.71
642.90	117.03
643.04	65.54
643.19	16.38
643.34	95.96
643.48	81.92
643.63	58.51
643.78	44.47
643.93	105.32
644.07	110.01
644.22	42.13
644.37	86.60
644.51	79.58
644.66	79.58
644.81	60.85
644.95	30.43
645.10	46.81
645.25	37.45
645.39	51.49
645.54	0.00
645.69	60.85
645.83	0.00
645.98	51.49
646.13	42.13
646.27	0.00
646.42	0.00
646.57	32.77
646.71	95.96
646.86	42.13
647.00	70.22
647.15	42.13
647.30	53.83
647.44	74.90
647.59	0.00
647.74	42.13
647.88	46.81
648.03	25.75
648.17	79.58
648.32	37.45
648.47	100.64
648.61	39.79
648.76	39.79
648.90	121.71
649.05	46.81
649.20	49.15
649.34	110.01
649.49	110.01
649.63	79.58
649.78	124.05
649.92	42.13
650.07	23.41
650.21	60.85
650.36	37.45
650.51	107.66
650.65	44.47
650.80	81.92
650.94	65.54
651.09	51.49
651.23	84.26
651.38	11.70
651.52	95.96
651.67	131.07
651.81	18.72
651.96	107.66
652.10	28.09
652.25	112.35
652.39	91.28
652.54	77.24
652.68	0.00
652.83	133.41
652.97	53.83
653.12	72.56
653.26	0.00
653.41	44.47
653.55	63.19
653.70	21.06
653.84	105.32
653.99	67.88
654.13	63.19
654.27	117.03
654.42	93.62
654.56	25.75
654.71	42.13
654.85	25.75
655.00	32.77
655.14	25.75
655.29	11.70
655.43	53.83
655.57	81.92
655.72	18.72
655.86	65.54
656.01	46.81
656.15	98.30
656.30	23.41
656.44	79.58
656.58	23.41
656.73	4.68
656.87	98.30
657.01	0.00
657.16	81.92
657.30	98.30
657.45	0.00
657.59	11.70
657.73	124.05
657.88	25.75
658.02	32.77
658.16	58.51
658.31	117.03
658.45	4.68
658.60	58.51
658.74	133.41
658.88	88.94
659.03	95.96
659.17	2.34
659.31	42.13
659.46	0.00
659.60	86.60
659.74	25.75
659.89	0.00
660.03	30.43
660.17	70.22
660.32	110.01
660.46	95.96
660.60	23.41
660.74	35.11
660.89	42.13
661.03	46.81
661.17	56.17
661.32	67.88
661.46	32.77
661.60	72.56
661.74	35.11
661.89	63.19
662.03	7.02
662.17	30.43
662.31	98.30
662.46	79.58
662.60	119.37
662.74	9.36
662.88	37.45
663.03	70.22
663.17	0.00
663.31	58.51
663.45	0.00
663.60	72.56
663.74	18.72
663.88	95.96
664.02	91.28
664.17	56.17
664.31	46.81
664.45	77.24
664.59	72.56
664.73	159.16
664.88	25.75
665.02	53.83
665.16	44.47
665.30	4.68
665.44	42.13
665.59	72.56
665.73	16.38
665.87	21.06
666.01	0.00
666.15	23.41
666.29	11.70
666.44	18.72
666.58	81.92
666.72	102.98
666.86	67.88
667.00	74.90
667.14	95.96
667.28	72.56
667.43	93.62
667.57	39.79
667.71	126.39
667.85	44.47
667.99	77.24
668.13	67.88
668.27	98.30
668.41	46.81
668.56	0.00
668.70	18.72
668.84	84.26
668.98	28.09
669.12	56.17
669.26	84.26
669.40	0.00
669.54	0.00
669.68	0.00
669.82	11.70
669.96	49.15
670.10	100.64
670.25	28.09
670.39	0.00
670.53	42.13
670.67	46.81
670.81	65.54
670.95	88.94
671.09	98.30
671.23	53.83
671.37	138.09
671.51	37.45
671.65	121.71
671.79	56.17
671.93	16.38
672.07	100.64
672.21	51.49
672.35	84.26
672.49	56.17
672.63	88.94
672.77	70.22
672.91	30.43
673.05	42.13
673.19	149.79
673.33	65.54
673.47	25.75
673.61	88.94
673.75	51.49
673.89	14.04
674.03	88.94
674.17	44.47
674.31	16.38
674.45	95.96
674.59	88.94
674.73	65.54
674.87	32.77
675.01	39.79
675.15	53.83
675.29	4.68
675.43	46.81
675.56	86.60
675.70	0.00
675.84	0.00
675.98	81.92
676.12	81.92
676.26	58.51
676.40	42.13
676.54	4.68
676.68	84.26
676.82	173.20
676.96	77.24
677.10	0.00
677.23	112.35
677.37	79.58
677.51	35.11
677.65	21.06
677.79	37.45
677.93	23.41
678.07	60.85
678.21	74.90
678.34	23.41
678.48	74.90
678.62	60.85
678.76	51.49
678.90	58.51
679.04	53.83
679.18	60.85
679.31	46.81
679.45	30.43
679.59	30.43
679.73	105.32
679.87	0.00
680.00	88.94
680.14	51.49
680.28	42.13
680.42	53.83
680.56	81.92
680.70	119.37
680.83	18.72
680.97	18.72
681.11	49.15
681.25	105.32
681.39	32.77
681.52	67.88
681.66	9.36
681.80	32.77
681.94	86.60
682.07	14.04
682.21	14.04
682.35	28.09
682.49	72.56
682.62	51.49
682.76	86.60
682.90	53.83
683.04	25.75
683.17	70.22
683.31	28.09
683.45	74.90
683.59	84.26
683.72	21.06
683.86	0.00
684.00	44.47
684.13	124.05
684.27	18.72
684.41	84.26
684.55	28.09
684.68	0.00
684.82	0.00
684.96	35.11
685.09	84.26
685.23	60.85
685.37	72.56
685.50	37.45
685.64	91.28
685.78	2.34
685.91	46.81
686.05	56.17
686.19	18.72
686.32	16.38
686.46	37.45
686.60	0.00
686.73	95.96
686.87	79.58
687.01	79.58
687.14	49.15
687.28	51.49
687.42	16.38
687.55	44.47
687.69	21.06
687.82	39.79
687.96	46.81
688.10	0.00
688.23	84.26
688.37	9.36
688.50	51.49
688.64	21.06
688.78	25.75
688.91	0.00
689.05	60.85
689.18	65.54
689.32	0.00
689.46	23.41
689.59	9.36
689.73	95.96
689.86	16.38
690.00	51.49
690.13	21.06
690.27	30.43
690.41	77.24
690.54	0.00
690.68	11.70
690.81	0.00
690.95	35.11
691.08	49.15
691.22	28.09
691.35	0.00
691.49	67.88
691.62	42.13
691.76	65.54
691.89	58.51
692.03	35.11
692.16	56.17
692.30	35.11
692.43	100.64
692.57	39.79
692.70	65.54
692.84	74.90
692.97	35.11
693.11	51.49
693.24	46.81
693.38	100.64
693.51	72.56
693.65	39.79
693.78	0.00
693.92	86.60
694.05	9.36
694.19	44.47
694.32	42.13
694.45	84.26
694.59	49.15
694.72	9.36
694.86	16.38
694.99	4.68
695.13	88.94
695.26	65.54
695.39	23.41
695.53	14.04
695.66	42.13
695.80	0.00
695.93	53.83
696.07	56.17
696.20	121.71
696.33	56.17
696.47	35.11
696.60	53.83
696.73	60.85
696.87	84.26
697.00	0.00
697.14	86.60
697.27	9.36
697.40	37.45
697.54	16.38
697.67	53.83
697.80	60.85
697.94	35.11
698.07	7.02
698.21	37.45
698.34	79.58
698.47	16.38
698.61	28.09
698.74	79.58
698.87	88.94
699.01	4.68
699.14	56.17
699.27	0.00
699.40	25.75
699.54	30.43
699.67	11.70
699.80	23.41
699.94	70.22
700.07	95.96
700.20	0.00
700.34	0.00
700.47	30.43
700.60	49.15
700.73	0.00
700.87	14.04
701.00	39.79
701.13	16.38
701.26	70.22
701.40	49.15
701.53	98.30
701.66	16.38
701.79	18.72
701.93	16.38
702.06	60.85
702.19	9.36
702.32	39.79
702.46	39.79
702.59	0.00
702.72	0.00
702.85	79.58
702.99	46.81
703.12	14.04
703.25	0.00
703.38	0.00
703.51	39.79
703.65	49.15
703.78	51.49
703.91	65.54
704.04	21.06
704.17	81.92
704.31	77.24
704.44	79.58
704.57	49.15
704.70	4.68
704.83	11.70
704.96	28.09
705.10	7.02
705.23	72.56
>>>>>End Processed Spectral Data<<<<<
