SpectraSuite Data File
++++++++++++++++++++++++++++++++++++
Date: Fri Oct 04 12:13:35 GMT-05:00 2013
User: price-jones
Dark Spectrum Present: No
Reference Spectrum Present: No
Number of Sampled Component Spectra: 1
Spectrometers: USB2+H05261
Integration Time (usec): 10000 (USB2+H05261)
Spectra Averaged: 1 (USB2+H05261)
Boxcar Smoothing: 0 (USB2+H05261)
Correct for Electrical Dark: No (USB2+H05261)
Strobe/Lamp Enabled: No (USB2+H05261)
Correct for Detector Non-linearity: No (USB2+H05261)
Correct for Stray Light: No (USB2+H05261)
Number of Pixels in Processed Spectrum: 2048
>>>>>Begin Processed Spectral Data<<<<<
365.73	23.41
365.92	23.41
366.12	23.41
366.32	0.00
366.52	0.00
366.72	0.00
366.91	0.00
367.11	0.00
367.31	0.00
367.51	0.00
367.70	0.00
367.90	0.00
368.10	0.00
368.30	0.00
368.49	0.00
368.69	0.00
368.89	0.00
369.09	0.00
369.28	0.00
369.48	0.00
369.68	0.00
369.87	0.00
370.07	0.00
370.27	0.00
370.47	0.00
370.66	0.00
370.86	0.00
371.06	0.00
371.25	0.00
371.45	0.00
371.65	0.00
371.84	35.11
372.04	0.00
372.24	0.00
372.44	46.81
372.63	0.00
372.83	0.00
373.03	46.81
373.22	21.06
373.42	0.00
373.62	0.00
373.81	0.00
374.01	0.00
374.21	95.96
374.40	60.85
374.60	49.15
374.79	79.58
374.99	25.75
375.19	25.75
375.38	77.24
375.58	32.77
375.78	0.00
375.97	60.85
376.17	2.34
376.37	63.19
376.56	7.02
376.76	0.00
376.95	0.00
377.15	56.17
377.35	39.79
377.54	72.56
377.74	28.09
377.93	58.51
378.13	7.02
378.33	11.70
378.52	70.22
378.72	65.54
378.91	0.00
379.11	77.24
379.31	58.51
379.50	25.75
379.70	0.00
379.89	70.22
380.09	32.77
380.28	7.02
380.48	72.56
380.68	7.02
380.87	77.24
381.07	2.34
381.26	42.13
381.46	0.00
381.65	23.41
381.85	0.00
382.04	51.49
382.24	0.00
382.43	0.00
382.63	74.90
382.83	4.68
383.02	51.49
383.22	37.45
383.41	0.00
383.61	39.79
383.80	0.00
384.00	0.00
384.19	0.00
384.39	7.02
384.58	0.00
384.78	0.00
384.97	0.00
385.17	37.45
385.36	11.70
385.56	2.34
385.75	0.00
385.95	124.05
386.14	42.13
386.34	2.34
386.53	0.00
386.72	72.56
386.92	32.77
387.11	4.68
387.31	0.00
387.50	11.70
387.70	86.60
387.89	0.00
388.09	63.19
388.28	28.09
388.48	25.75
388.67	0.00
388.86	37.45
389.06	60.85
389.25	56.17
389.45	74.90
389.64	88.94
389.84	35.11
390.03	0.00
390.22	35.11
390.42	4.68
390.61	14.04
390.81	7.02
391.00	0.00
391.19	74.90
391.39	56.17
391.58	14.04
391.78	0.00
391.97	39.79
392.16	70.22
392.36	60.85
392.55	14.04
392.75	0.00
392.94	58.51
393.13	0.00
393.33	21.06
393.52	7.02
393.71	72.56
393.91	46.81
394.10	46.81
394.29	51.49
394.49	51.49
394.68	65.54
394.88	72.56
395.07	28.09
395.26	51.49
395.46	0.00
395.65	14.04
395.84	63.19
396.04	63.19
396.23	0.00
396.42	9.36
396.62	51.49
396.81	37.45
397.00	0.00
397.19	16.38
397.39	9.36
397.58	0.00
397.77	9.36
397.97	49.15
398.16	53.83
398.35	16.38
398.55	0.00
398.74	11.70
398.93	35.11
399.12	30.43
399.32	88.94
399.51	0.00
399.70	60.85
399.90	25.75
400.09	70.22
400.28	35.11
400.47	0.00
400.67	28.09
400.86	30.43
401.05	46.81
401.24	39.79
401.44	53.83
401.63	107.66
401.82	51.49
402.01	25.75
402.21	39.79
402.40	65.54
402.59	32.77
402.78	84.26
402.97	18.72
403.17	84.26
403.36	25.75
403.55	14.04
403.74	32.77
403.93	95.96
404.13	0.00
404.32	0.00
404.51	25.75
404.70	0.00
404.89	0.00
405.09	7.02
405.28	23.41
405.47	58.51
405.66	30.43
405.85	51.49
406.05	35.11
406.24	21.06
406.43	65.54
406.62	42.13
406.81	72.56
407.00	35.11
407.20	30.43
407.39	42.13
407.58	42.13
407.77	39.79
407.96	81.92
408.15	65.54
408.34	14.04
408.54	30.43
408.73	72.56
408.92	105.32
409.11	25.75
409.30	56.17
409.49	56.17
409.68	28.09
409.87	0.00
410.07	0.00
410.26	0.00
410.45	79.58
410.64	2.34
410.83	18.72
411.02	0.00
411.21	65.54
411.40	30.43
411.59	16.38
411.78	65.54
411.98	67.88
412.17	44.47
412.36	30.43
412.55	58.51
412.74	44.47
412.93	18.72
413.12	112.35
413.31	60.85
413.50	44.47
413.69	70.22
413.88	105.32
414.07	117.03
414.26	32.77
414.45	16.38
414.64	58.51
414.83	25.75
415.02	49.15
415.22	28.09
415.41	2.34
415.60	2.34
415.79	11.70
415.98	14.04
416.17	16.38
416.36	16.38
416.55	7.02
416.74	30.43
416.93	14.04
417.12	93.62
417.31	16.38
417.50	72.56
417.69	32.77
417.88	0.00
418.07	93.62
418.26	28.09
418.45	74.90
418.64	0.00
418.83	16.38
419.02	79.58
419.21	63.19
419.39	58.51
419.58	42.13
419.77	11.70
419.96	23.41
420.15	35.11
420.34	138.09
420.53	98.30
420.72	28.09
420.91	65.54
421.10	11.70
421.29	84.26
421.48	79.58
421.67	46.81
421.86	56.17
422.05	0.00
422.24	84.26
422.43	44.47
422.61	0.00
422.80	112.35
422.99	23.41
423.18	0.00
423.37	102.98
423.56	56.17
423.75	16.38
423.94	18.72
424.13	88.94
424.32	170.86
424.50	7.02
424.69	0.00
424.88	0.00
425.07	35.11
425.26	0.00
425.45	0.00
425.64	35.11
425.83	0.00
426.01	58.51
426.20	53.83
426.39	18.72
426.58	65.54
426.77	0.00
426.96	63.19
427.15	93.62
427.33	72.56
427.52	58.51
427.71	30.43
427.90	9.36
428.09	0.00
428.28	44.47
428.46	65.54
428.65	56.17
428.84	42.13
429.03	16.38
429.22	63.19
429.40	42.13
429.59	0.00
429.78	56.17
429.97	23.41
430.16	112.35
430.34	74.90
430.53	0.00
430.72	74.90
430.91	74.90
431.10	44.47
431.28	72.56
431.47	39.79
431.66	56.17
431.85	88.94
432.03	42.13
432.22	30.43
432.41	23.41
432.60	121.71
432.79	49.15
432.97	37.45
433.16	65.54
433.35	18.72
433.54	4.68
433.72	44.47
433.91	91.28
434.10	107.66
434.28	35.11
434.47	60.85
434.66	53.83
434.85	42.13
435.03	112.35
435.22	63.19
435.41	11.70
435.59	56.17
435.78	74.90
435.97	81.92
436.16	28.09
436.34	51.49
436.53	0.00
436.72	81.92
436.90	58.51
437.09	23.41
437.28	70.22
437.46	49.15
437.65	0.00
437.84	35.11
438.02	51.49
438.21	0.00
438.40	0.00
438.58	84.26
438.77	35.11
438.96	0.00
439.14	86.60
439.33	37.45
439.52	72.56
439.70	32.77
439.89	9.36
440.08	37.45
440.26	60.85
440.45	117.03
440.63	72.56
440.82	21.06
441.01	16.38
441.19	39.79
441.38	63.19
441.57	46.81
441.75	25.75
441.94	30.43
442.12	28.09
442.31	100.64
442.50	58.51
442.68	63.19
442.87	79.58
443.05	56.17
443.24	42.13
443.43	4.68
443.61	16.38
443.80	21.06
443.98	30.43
444.17	39.79
444.35	67.88
444.54	44.47
444.73	135.75
444.91	56.17
445.10	11.70
445.28	30.43
445.47	53.83
445.65	42.13
445.84	18.72
446.02	32.77
446.21	9.36
446.39	46.81
446.58	60.85
446.77	114.69
446.95	37.45
447.14	9.36
447.32	105.32
447.51	14.04
447.69	51.49
447.88	84.26
448.06	37.45
448.25	32.77
448.43	0.00
448.62	7.02
448.80	16.38
448.99	70.22
449.17	0.00
449.36	44.47
449.54	46.81
449.73	44.47
449.91	16.38
450.10	49.15
450.28	102.98
450.46	70.22
450.65	81.92
450.83	0.00
451.02	32.77
451.20	70.22
451.39	49.15
451.57	126.39
451.76	102.98
451.94	98.30
452.13	65.54
452.31	51.49
452.49	102.98
452.68	84.26
452.86	39.79
453.05	63.19
453.23	21.06
453.42	14.04
453.60	7.02
453.78	16.38
453.97	81.92
454.15	79.58
454.34	18.72
454.52	70.22
454.70	81.92
454.89	65.54
455.07	51.49
455.26	79.58
455.44	77.24
455.62	77.24
455.81	9.36
455.99	74.90
456.17	74.90
456.36	58.51
456.54	46.81
456.73	0.00
456.91	51.49
457.09	86.60
457.28	114.69
457.46	30.43
457.64	102.98
457.83	30.43
458.01	49.15
458.19	32.77
458.38	37.45
458.56	65.54
458.74	70.22
458.93	70.22
459.11	84.26
459.29	98.30
459.48	51.49
459.66	42.13
459.84	56.17
460.03	65.54
460.21	81.92
460.39	77.24
460.57	4.68
460.76	77.24
460.94	72.56
461.12	63.19
461.31	58.51
461.49	53.83
461.67	25.75
461.85	0.00
462.04	117.03
462.22	163.84
462.40	63.19
462.59	0.00
462.77	42.13
462.95	49.15
463.13	42.13
463.32	84.26
463.50	35.11
463.68	63.19
463.86	63.19
464.05	51.49
464.23	21.06
464.41	95.96
464.59	93.62
464.78	49.15
464.96	86.60
465.14	65.54
465.32	56.17
465.50	46.81
465.69	4.68
465.87	23.41
466.05	95.96
466.23	102.98
466.41	4.68
466.60	0.00
466.78	0.00
466.96	131.07
467.14	88.94
467.32	81.92
467.51	0.00
467.69	46.81
467.87	0.00
468.05	42.13
468.23	53.83
468.41	28.09
468.60	84.26
468.78	0.00
468.96	81.92
469.14	70.22
469.32	23.41
469.50	14.04
469.69	53.83
469.87	70.22
470.05	0.00
470.23	30.43
470.41	93.62
470.59	56.17
470.77	51.49
470.95	44.47
471.14	138.09
471.32	30.43
471.50	2.34
471.68	49.15
471.86	28.09
472.04	74.90
472.22	67.88
472.40	74.90
472.58	0.00
472.77	0.00
472.95	58.51
473.13	56.17
473.31	63.19
473.49	30.43
473.67	32.77
473.85	79.58
474.03	121.71
474.21	93.62
474.39	0.00
474.57	39.79
474.75	46.81
474.93	117.03
475.12	88.94
475.30	67.88
475.48	81.92
475.66	121.71
475.84	11.70
476.02	46.81
476.20	37.45
476.38	14.04
476.56	0.00
476.74	70.22
476.92	84.26
477.10	4.68
477.28	74.90
477.46	0.00
477.64	119.37
477.82	51.49
478.00	53.83
478.18	0.00
478.36	28.09
478.54	156.82
478.72	81.92
478.90	18.72
479.08	67.88
479.26	46.81
479.44	37.45
479.62	79.58
479.80	65.54
479.98	39.79
480.16	4.68
480.34	105.32
480.52	67.88
480.70	135.75
480.88	39.79
481.06	53.83
481.24	98.30
481.41	131.07
481.59	128.73
481.77	102.98
481.95	74.90
482.13	58.51
482.31	88.94
482.49	112.35
482.67	0.00
482.85	2.34
483.03	161.50
483.21	84.26
483.39	35.11
483.57	39.79
483.74	65.54
483.92	51.49
484.10	32.77
484.28	35.11
484.46	72.56
484.64	145.11
484.82	112.35
485.00	74.90
485.18	119.37
485.35	42.13
485.53	23.41
485.71	56.17
485.89	35.11
486.07	25.75
486.25	28.09
486.43	51.49
486.61	2.34
486.78	51.49
486.96	49.15
487.14	84.26
487.32	88.94
487.50	110.01
487.68	100.64
487.85	35.11
488.03	65.54
488.21	63.19
488.39	60.85
488.57	0.00
488.75	95.96
488.92	77.24
489.10	23.41
489.28	135.75
489.46	46.81
489.64	56.17
489.81	79.58
489.99	98.30
490.17	2.34
490.35	67.88
490.53	9.36
490.70	0.00
490.88	79.58
491.06	56.17
491.24	72.56
491.41	67.88
491.59	98.30
491.77	56.17
491.95	53.83
492.13	88.94
492.30	60.85
492.48	98.30
492.66	152.13
492.84	65.54
493.01	16.38
493.19	28.09
493.37	81.92
493.54	107.66
493.72	93.62
493.90	46.81
494.08	133.41
494.25	51.49
494.43	86.60
494.61	114.69
494.79	88.94
494.96	112.35
495.14	56.17
495.32	98.30
495.49	126.39
495.67	121.71
495.85	77.24
496.02	124.05
496.20	72.56
496.38	28.09
496.55	58.51
496.73	84.26
496.91	110.01
497.09	170.86
497.26	46.81
497.44	74.90
497.62	128.73
497.79	128.73
497.97	121.71
498.14	117.03
498.32	46.81
498.50	67.88
498.67	100.64
498.85	156.82
499.03	128.73
499.20	77.24
499.38	159.16
499.56	0.00
499.73	93.62
499.91	72.56
500.08	110.01
500.26	0.00
500.44	70.22
500.61	32.77
500.79	95.96
500.97	51.49
501.14	102.98
501.32	119.37
501.49	44.47
501.67	53.83
501.84	93.62
502.02	86.60
502.20	49.15
502.37	42.13
502.55	128.73
502.72	88.94
502.90	4.68
503.07	35.11
503.25	105.32
503.43	84.26
503.60	161.50
503.78	72.56
503.95	16.38
504.13	25.75
504.30	37.45
504.48	65.54
504.65	23.41
504.83	124.05
505.01	70.22
505.18	74.90
505.36	60.85
505.53	63.19
505.71	105.32
505.88	112.35
506.06	86.60
506.23	124.05
506.41	107.66
506.58	2.34
506.76	126.39
506.93	65.54
507.11	119.37
507.28	112.35
507.46	70.22
507.63	124.05
507.81	28.09
507.98	70.22
508.16	86.60
508.33	147.45
508.50	77.24
508.68	117.03
508.85	16.38
509.03	98.30
509.20	81.92
509.38	53.83
509.55	72.56
509.73	46.81
509.90	100.64
510.08	84.26
510.25	21.06
510.42	95.96
510.60	0.00
510.77	88.94
510.95	117.03
511.12	124.05
511.30	119.37
511.47	46.81
511.64	86.60
511.82	93.62
511.99	91.28
512.17	117.03
512.34	42.13
512.51	102.98
512.69	112.35
512.86	35.11
513.04	112.35
513.21	74.90
513.38	128.73
513.56	39.79
513.73	53.83
513.90	74.90
514.08	74.90
514.25	102.98
514.43	77.24
514.60	93.62
514.77	67.88
514.95	56.17
515.12	145.11
515.29	18.72
515.47	65.54
515.64	95.96
515.81	37.45
515.99	112.35
516.16	37.45
516.33	46.81
516.51	117.03
516.68	105.32
516.85	51.49
517.03	42.13
517.20	98.30
517.37	110.01
517.54	121.71
517.72	65.54
517.89	56.17
518.06	117.03
518.24	51.49
518.41	88.94
518.58	77.24
518.75	126.39
518.93	81.92
519.10	56.17
519.27	110.01
519.45	112.35
519.62	138.09
519.79	138.09
519.96	138.09
520.14	112.35
520.31	91.28
520.48	105.32
520.65	67.88
520.83	173.20
521.00	142.77
521.17	131.07
521.34	53.83
521.52	112.35
521.69	112.35
521.86	42.13
522.03	35.11
522.20	110.01
522.38	51.49
522.55	86.60
522.72	126.39
522.89	95.96
523.07	95.96
523.24	98.30
523.41	88.94
523.58	2.34
523.75	67.88
523.92	65.54
524.10	95.96
524.27	49.15
524.44	16.38
524.61	79.58
524.78	63.19
524.96	42.13
525.13	124.05
525.30	70.22
525.47	91.28
525.64	74.90
525.81	60.85
525.98	117.03
526.16	56.17
526.33	135.75
526.50	102.98
526.67	67.88
526.84	81.92
527.01	37.45
527.18	131.07
527.36	88.94
527.53	70.22
527.70	112.35
527.87	70.22
528.04	107.66
528.21	86.60
528.38	23.41
528.55	28.09
528.72	84.26
528.89	112.35
529.07	110.01
529.24	7.02
529.41	56.17
529.58	51.49
529.75	58.51
529.92	51.49
530.09	84.26
530.26	133.41
530.43	74.90
530.60	79.58
530.77	58.51
530.94	133.41
531.11	77.24
531.28	170.86
531.46	126.39
531.63	72.56
531.80	58.51
531.97	117.03
532.14	138.09
532.31	100.64
532.48	117.03
532.65	79.58
532.82	133.41
532.99	88.94
533.16	105.32
533.33	30.43
533.50	88.94
533.67	152.13
533.84	114.69
534.01	88.94
534.18	91.28
534.35	91.28
534.52	60.85
534.69	93.62
534.86	49.15
535.03	7.02
535.20	102.98
535.37	72.56
535.54	30.43
535.71	100.64
535.88	63.19
536.05	86.60
536.22	114.69
536.38	95.96
536.55	51.49
536.72	56.17
536.89	128.73
537.06	91.28
537.23	156.82
537.40	161.50
537.57	147.45
537.74	98.30
537.91	91.28
538.08	102.98
538.25	46.81
538.42	60.85
538.59	147.45
538.75	133.41
538.92	93.62
539.09	58.51
539.26	65.54
539.43	191.92
539.60	100.64
539.77	70.22
539.94	88.94
540.11	77.24
540.28	156.82
540.44	60.85
540.61	18.72
540.78	79.58
540.95	16.38
541.12	53.83
541.29	56.17
541.46	91.28
541.62	117.03
541.79	32.77
541.96	100.64
542.13	93.62
542.30	93.62
542.47	53.83
542.63	65.54
542.80	25.75
542.97	56.17
543.14	46.81
543.31	74.90
543.48	60.85
543.64	65.54
543.81	79.58
543.98	60.85
544.15	124.05
544.32	110.01
544.48	42.13
544.65	18.72
544.82	84.26
544.99	117.03
545.16	189.58
545.32	112.35
545.49	142.77
545.66	142.77
545.83	91.28
546.00	63.19
546.16	105.32
546.33	56.17
546.50	56.17
546.67	65.54
546.83	35.11
547.00	98.30
547.17	67.88
547.34	93.62
547.50	88.94
547.67	88.94
547.84	98.30
548.00	86.60
548.17	86.60
548.34	42.13
548.51	100.64
548.67	84.26
548.84	2.34
549.01	77.24
549.18	135.75
549.34	126.39
549.51	102.98
549.68	149.79
549.84	110.01
550.01	102.98
550.18	105.32
550.34	81.92
550.51	79.58
550.68	86.60
550.84	175.54
551.01	98.30
551.18	163.84
551.34	114.69
551.51	114.69
551.68	51.49
551.84	81.92
552.01	81.92
552.18	84.26
552.34	39.79
552.51	77.24
552.68	67.88
552.84	98.30
553.01	102.98
553.18	110.01
553.34	0.00
553.51	42.13
553.67	18.72
553.84	65.54
554.01	56.17
554.17	105.32
554.34	95.96
554.51	112.35
554.67	60.85
554.84	49.15
555.00	56.17
555.17	42.13
555.33	58.51
555.50	117.03
555.67	149.79
555.83	7.02
556.00	74.90
556.16	114.69
556.33	72.56
556.50	16.38
556.66	72.56
556.83	32.77
556.99	98.30
557.16	58.51
557.32	140.43
557.49	18.72
557.65	49.15
557.82	102.98
557.98	110.01
558.15	107.66
558.32	189.58
558.48	74.90
558.65	14.04
558.81	72.56
558.98	131.07
559.14	30.43
559.31	39.79
559.47	25.75
559.64	67.88
559.80	112.35
559.97	56.17
560.13	91.28
560.30	86.60
560.46	95.96
560.63	81.92
560.79	49.15
560.96	100.64
561.12	70.22
561.29	21.06
561.45	119.37
561.61	121.71
561.78	93.62
561.94	58.51
562.11	117.03
562.27	51.49
562.44	44.47
562.60	102.98
562.77	100.64
562.93	95.96
563.10	93.62
563.26	93.62
563.42	49.15
563.59	110.01
563.75	84.26
563.92	93.62
564.08	114.69
564.24	93.62
564.41	16.38
564.57	65.54
564.74	88.94
564.90	95.96
565.07	44.47
565.23	72.56
565.39	56.17
565.56	124.05
565.72	21.06
565.88	95.96
566.05	51.49
566.21	93.62
566.38	44.47
566.54	77.24
566.70	128.73
566.87	56.17
567.03	112.35
567.19	63.19
567.36	77.24
567.52	58.51
567.68	67.88
567.85	16.38
568.01	72.56
568.17	37.45
568.34	46.81
568.50	65.54
568.66	138.09
568.83	79.58
568.99	77.24
569.15	131.07
569.32	91.28
569.48	93.62
569.64	107.66
569.81	95.96
569.97	0.00
570.13	4.68
570.30	93.62
570.46	74.90
570.62	161.50
570.78	53.83
570.95	58.51
571.11	100.64
571.27	60.85
571.43	105.32
571.60	126.39
571.76	72.56
571.92	88.94
572.09	4.68
572.25	100.64
572.41	98.30
572.57	88.94
572.74	93.62
572.90	105.32
573.06	44.47
573.22	44.47
573.38	98.30
573.55	49.15
573.71	110.01
573.87	102.98
574.03	79.58
574.20	65.54
574.36	79.58
574.52	74.90
574.68	49.15
574.84	67.88
575.01	7.02
575.17	110.01
575.33	42.13
575.49	77.24
575.65	91.28
575.82	44.47
575.98	142.77
576.14	63.19
576.30	67.88
576.46	117.03
576.62	95.96
576.79	133.41
576.95	60.85
577.11	42.13
577.27	60.85
577.43	23.41
577.59	91.28
577.75	100.64
577.92	28.09
578.08	124.05
578.24	28.09
578.40	51.49
578.56	135.75
578.72	112.35
578.88	121.71
579.04	102.98
579.21	184.90
579.37	44.47
579.53	70.22
579.69	105.32
579.85	35.11
580.01	117.03
580.17	72.56
580.33	58.51
580.49	72.56
580.65	100.64
580.82	95.96
580.98	98.30
581.14	56.17
581.30	70.22
581.46	79.58
581.62	46.81
581.78	84.26
581.94	56.17
582.10	30.43
582.26	23.41
582.42	98.30
582.58	72.56
582.74	56.17
582.90	44.47
583.06	93.62
583.22	42.13
583.38	117.03
583.54	53.83
583.70	84.26
583.86	4.68
584.02	105.32
584.18	166.18
584.34	95.96
584.50	79.58
584.66	16.38
584.82	88.94
584.98	77.24
585.14	70.22
585.30	72.56
585.46	98.30
585.62	84.26
585.78	81.92
585.94	86.60
586.10	133.41
586.26	28.09
586.42	86.60
586.58	117.03
586.74	28.09
586.90	107.66
587.06	53.83
587.22	86.60
587.38	105.32
587.54	58.51
587.70	56.17
587.86	124.05
588.02	49.15
588.18	35.11
588.34	107.66
588.49	37.45
588.65	67.88
588.81	30.43
588.97	0.00
589.13	32.77
589.29	117.03
589.45	32.77
589.61	91.28
589.77	79.58
589.93	98.30
590.08	60.85
590.24	88.94
590.40	51.49
590.56	35.11
590.72	84.26
590.88	65.54
591.04	44.47
591.20	16.38
591.35	84.26
591.51	154.48
591.67	81.92
591.83	117.03
591.99	98.30
592.15	42.13
592.31	56.17
592.46	84.26
592.62	91.28
592.78	56.17
592.94	74.90
593.10	131.07
593.26	56.17
593.41	70.22
593.57	25.75
593.73	79.58
593.89	9.36
594.05	51.49
594.20	67.88
594.36	39.79
594.52	107.66
594.68	49.15
594.84	114.69
594.99	70.22
595.15	79.58
595.31	35.11
595.47	88.94
595.62	65.54
595.78	91.28
595.94	14.04
596.10	128.73
596.25	14.04
596.41	28.09
596.57	63.19
596.73	93.62
596.88	100.64
597.04	72.56
597.20	39.79
597.36	2.34
597.51	79.58
597.67	100.64
597.83	35.11
597.99	25.75
598.14	152.13
598.30	51.49
598.46	70.22
598.61	51.49
598.77	0.00
598.93	77.24
599.09	74.90
599.24	63.19
599.40	95.96
599.56	70.22
599.71	126.39
599.87	51.49
600.03	58.51
600.18	102.98
600.34	11.70
600.50	156.82
600.65	81.92
600.81	46.81
600.97	32.77
601.12	77.24
601.28	37.45
601.44	77.24
601.59	163.84
601.75	56.17
601.91	131.07
602.06	60.85
602.22	44.47
602.37	56.17
602.53	30.43
602.69	0.00
602.84	65.54
603.00	53.83
603.16	114.69
603.31	39.79
603.47	77.24
603.62	128.73
603.78	51.49
603.94	70.22
604.09	79.58
604.25	4.68
604.40	102.98
604.56	84.26
604.71	100.64
604.87	124.05
605.03	53.83
605.18	37.45
605.34	114.69
605.49	58.51
605.65	16.38
605.80	159.16
605.96	95.96
606.12	60.85
606.27	46.81
606.43	163.84
606.58	93.62
606.74	0.00
606.89	39.79
607.05	91.28
607.20	63.19
607.36	51.49
607.51	145.11
607.67	9.36
607.82	91.28
607.98	72.56
608.13	46.81
608.29	79.58
608.44	18.72
608.60	86.60
608.75	72.56
608.91	49.15
609.06	60.85
609.22	0.00
609.37	28.09
609.53	49.15
609.68	135.75
609.84	84.26
609.99	74.90
610.15	60.85
610.30	88.94
610.46	46.81
610.61	74.90
610.76	77.24
610.92	9.36
611.07	28.09
611.23	77.24
611.38	93.62
611.54	23.41
611.69	70.22
611.84	32.77
612.00	67.88
612.15	56.17
612.31	105.32
612.46	49.15
612.62	0.00
612.77	65.54
612.92	18.72
613.08	124.05
613.23	35.11
613.39	102.98
613.54	100.64
613.69	46.81
613.85	81.92
614.00	124.05
614.15	56.17
614.31	93.62
614.46	93.62
614.62	65.54
614.77	53.83
614.92	44.47
615.08	91.28
615.23	124.05
615.38	81.92
615.54	35.11
615.69	79.58
615.84	95.96
616.00	42.13
616.15	70.22
616.30	84.26
616.46	67.88
616.61	110.01
616.76	44.47
616.92	102.98
617.07	84.26
617.22	86.60
617.37	51.49
617.53	23.41
617.68	95.96
617.83	53.83
617.99	117.03
618.14	81.92
618.29	105.32
618.45	7.02
618.60	11.70
618.75	84.26
618.90	28.09
619.06	117.03
619.21	88.94
619.36	72.56
619.51	105.32
619.67	56.17
619.82	84.26
619.97	84.26
620.12	81.92
620.28	67.88
620.43	74.90
620.58	42.13
620.73	65.54
620.89	0.00
621.04	46.81
621.19	93.62
621.34	74.90
621.49	156.82
621.65	88.94
621.80	110.01
621.95	79.58
622.10	79.58
622.25	128.73
622.41	18.72
622.56	67.88
622.71	81.92
622.86	86.60
623.01	16.38
623.16	121.71
623.32	56.17
623.47	128.73
623.62	49.15
623.77	93.62
623.92	23.41
624.07	65.54
624.23	102.98
624.38	37.45
624.53	102.98
624.68	58.51
624.83	51.49
624.98	46.81
625.13	117.03
625.29	100.64
625.44	65.54
625.59	39.79
625.74	58.51
625.89	107.66
626.04	77.24
626.19	35.11
626.34	18.72
626.49	44.47
626.65	102.98
626.80	98.30
626.95	23.41
627.10	84.26
627.25	67.88
627.40	72.56
627.55	77.24
627.70	44.47
627.85	112.35
628.00	2.34
628.15	145.11
628.30	65.54
628.45	46.81
628.60	117.03
628.76	23.41
628.91	35.11
629.06	49.15
629.21	79.58
629.36	91.28
629.51	51.49
629.66	86.60
629.81	72.56
629.96	70.22
630.11	16.38
630.26	53.83
630.41	126.39
630.56	91.28
630.71	49.15
630.86	60.85
631.01	100.64
631.16	133.41
631.31	81.92
631.46	100.64
631.61	16.38
631.76	56.17
631.91	58.51
632.06	56.17
632.21	23.41
632.36	21.06
632.51	44.47
632.66	25.75
632.81	100.64
632.96	25.75
633.10	86.60
633.25	51.49
633.40	30.43
633.55	60.85
633.70	74.90
633.85	21.06
634.00	0.00
634.15	25.75
634.30	32.77
634.45	77.24
634.60	72.56
634.75	138.09
634.90	28.09
635.05	46.81
635.19	91.28
635.34	182.56
635.49	86.60
635.64	56.17
635.79	67.88
635.94	110.01
636.09	67.88
636.24	37.45
636.39	84.26
636.53	23.41
636.68	4.68
636.83	88.94
636.98	46.81
637.13	46.81
637.28	145.11
637.43	107.66
637.57	58.51
637.72	42.13
637.87	74.90
638.02	56.17
638.17	77.24
638.32	25.75
638.46	11.70
638.61	51.49
638.76	49.15
638.91	95.96
639.06	70.22
639.20	11.70
639.35	0.00
639.50	39.79
639.65	14.04
639.80	93.62
639.94	112.35
640.09	93.62
640.24	39.79
640.39	21.06
640.54	37.45
640.68	110.01
640.83	51.49
640.98	119.37
641.13	114.69
641.27	53.83
641.42	0.00
641.57	70.22
641.72	0.00
641.86	37.45
642.01	112.35
642.16	44.47
642.31	88.94
642.45	58.51
642.60	114.69
642.75	126.39
642.90	14.04
643.04	84.26
643.19	86.60
643.34	14.04
643.48	7.02
643.63	28.09
643.78	56.17
643.93	37.45
644.07	93.62
644.22	28.09
644.37	39.79
644.51	72.56
644.66	25.75
644.81	88.94
644.95	93.62
645.10	4.68
645.25	25.75
645.39	23.41
645.54	88.94
645.69	72.56
645.83	0.00
645.98	79.58
646.13	121.71
646.27	14.04
646.42	0.00
646.57	77.24
646.71	140.43
646.86	74.90
647.00	14.04
647.15	30.43
647.30	37.45
647.44	35.11
647.59	60.85
647.74	0.00
647.88	131.07
648.03	42.13
648.17	65.54
648.32	124.05
648.47	16.38
648.61	65.54
648.76	95.96
648.90	30.43
649.05	60.85
649.20	84.26
649.34	93.62
649.49	112.35
649.63	39.79
649.78	37.45
649.92	81.92
650.07	105.32
650.21	39.79
650.36	67.88
650.51	49.15
650.65	4.68
650.80	23.41
650.94	42.13
651.09	25.75
651.23	37.45
651.38	72.56
651.52	74.90
651.67	74.90
651.81	28.09
651.96	23.41
652.10	110.01
652.25	131.07
652.39	93.62
652.54	32.77
652.68	126.39
652.83	84.26
652.97	25.75
653.12	0.00
653.26	21.06
653.41	32.77
653.55	53.83
653.70	37.45
653.84	18.72
653.99	60.85
654.13	51.49
654.27	84.26
654.42	30.43
654.56	74.90
654.71	74.90
654.85	25.75
655.00	70.22
655.14	0.00
655.29	51.49
655.43	0.00
655.57	44.47
655.72	51.49
655.86	67.88
656.01	88.94
656.15	35.11
656.30	159.16
656.44	9.36
656.58	46.81
656.73	93.62
656.87	30.43
657.01	51.49
657.16	72.56
657.30	58.51
657.45	30.43
657.59	133.41
657.73	77.24
657.88	49.15
658.02	0.00
658.16	65.54
658.31	63.19
658.45	46.81
658.60	49.15
658.74	4.68
658.88	67.88
659.03	32.77
659.17	53.83
659.31	63.19
659.46	30.43
659.60	23.41
659.74	88.94
659.89	67.88
660.03	0.00
660.17	81.92
660.32	53.83
660.46	74.90
660.60	60.85
660.74	72.56
660.89	23.41
661.03	74.90
661.17	60.85
661.32	44.47
661.46	0.00
661.60	30.43
661.74	21.06
661.89	30.43
662.03	53.83
662.17	100.64
662.31	16.38
662.46	37.45
662.60	32.77
662.74	81.92
662.88	0.00
663.03	39.79
663.17	121.71
663.31	95.96
663.45	93.62
663.60	42.13
663.74	0.00
663.88	60.85
664.02	72.56
664.17	67.88
664.31	4.68
664.45	14.04
664.59	60.85
664.73	35.11
664.88	121.71
665.02	0.00
665.16	11.70
665.30	28.09
665.44	145.11
665.59	79.58
665.73	44.47
665.87	81.92
666.01	67.88
666.15	100.64
666.29	0.00
666.44	9.36
666.58	44.47
666.72	49.15
666.86	44.47
667.00	117.03
667.14	67.88
667.28	105.32
667.43	86.60
667.57	86.60
667.71	63.19
667.85	56.17
667.99	81.92
668.13	2.34
668.27	63.19
668.41	30.43
668.56	91.28
668.70	51.49
668.84	42.13
668.98	100.64
669.12	142.77
669.26	84.26
669.40	53.83
669.54	110.01
669.68	110.01
669.82	65.54
669.96	44.47
670.10	46.81
670.25	30.43
670.39	2.34
670.53	86.60
670.67	70.22
670.81	161.50
670.95	58.51
671.09	23.41
671.23	42.13
671.37	72.56
671.51	56.17
671.65	74.90
671.79	28.09
671.93	65.54
672.07	77.24
672.21	4.68
672.35	32.77
672.49	67.88
672.63	42.13
672.77	42.13
672.91	49.15
673.05	11.70
673.19	25.75
673.33	100.64
673.47	67.88
673.61	63.19
673.75	35.11
673.89	28.09
674.03	25.75
674.17	35.11
674.31	44.47
674.45	105.32
674.59	28.09
674.73	23.41
674.87	53.83
675.01	95.96
675.15	0.00
675.29	44.47
675.43	21.06
675.56	0.00
675.70	105.32
675.84	44.47
675.98	51.49
676.12	0.00
676.26	0.00
676.40	67.88
676.54	42.13
676.68	56.17
676.82	49.15
676.96	11.70
677.10	0.00
677.23	49.15
677.37	35.11
677.51	42.13
677.65	74.90
677.79	46.81
677.93	67.88
678.07	30.43
678.21	14.04
678.34	11.70
678.48	0.00
678.62	107.66
678.76	53.83
678.90	0.00
679.04	32.77
679.18	23.41
679.31	11.70
679.45	9.36
679.59	95.96
679.73	35.11
679.87	51.49
680.00	32.77
680.14	88.94
680.28	81.92
680.42	16.38
680.56	51.49
680.70	58.51
680.83	77.24
680.97	67.88
681.11	28.09
681.25	16.38
681.39	60.85
681.52	39.79
681.66	11.70
681.80	121.71
681.94	28.09
682.07	4.68
682.21	140.43
682.35	0.00
682.49	23.41
682.62	110.01
682.76	25.75
682.90	18.72
683.04	86.60
683.17	11.70
683.31	95.96
683.45	51.49
683.59	65.54
683.72	28.09
683.86	42.13
684.00	39.79
684.13	28.09
684.27	0.00
684.41	56.17
684.55	25.75
684.68	0.00
684.82	25.75
684.96	100.64
685.09	14.04
685.23	77.24
685.37	81.92
685.50	72.56
685.64	23.41
685.78	2.34
685.91	35.11
686.05	0.00
686.19	81.92
686.32	49.15
686.46	44.47
686.60	42.13
686.73	72.56
686.87	46.81
687.01	56.17
687.14	65.54
687.28	44.47
687.42	86.60
687.55	70.22
687.69	11.70
687.82	9.36
687.96	0.00
688.10	18.72
688.23	42.13
688.37	81.92
688.50	0.00
688.64	35.11
688.78	0.00
688.91	79.58
689.05	56.17
689.18	0.00
689.32	18.72
689.46	35.11
689.59	56.17
689.73	42.13
689.86	23.41
690.00	35.11
690.13	9.36
690.27	49.15
690.41	49.15
690.54	0.00
690.68	105.32
690.81	42.13
690.95	23.41
691.08	119.37
691.22	70.22
691.35	23.41
691.49	18.72
691.62	30.43
691.76	16.38
691.89	79.58
692.03	30.43
692.16	72.56
692.30	25.75
692.43	42.13
692.57	81.92
692.70	63.19
692.84	60.85
692.97	25.75
693.11	18.72
693.24	0.00
693.38	51.49
693.51	2.34
693.65	84.26
693.78	53.83
693.92	9.36
694.05	56.17
694.19	2.34
694.32	30.43
694.45	49.15
694.59	14.04
694.72	56.17
694.86	79.58
694.99	93.62
695.13	88.94
695.26	11.70
695.39	67.88
695.53	37.45
695.66	100.64
695.80	58.51
695.93	58.51
696.07	35.11
696.20	0.00
696.33	30.43
696.47	0.00
696.60	16.38
696.73	0.00
696.87	0.00
697.00	14.04
697.14	81.92
697.27	0.00
697.40	35.11
697.54	14.04
697.67	49.15
697.80	74.90
697.94	2.34
698.07	49.15
698.21	63.19
698.34	0.00
698.47	0.00
698.61	0.00
698.74	35.11
698.87	49.15
699.01	9.36
699.14	21.06
699.27	39.79
699.40	32.77
699.54	60.85
699.67	18.72
699.80	58.51
699.94	37.45
700.07	35.11
700.20	18.72
700.34	32.77
700.47	0.00
700.60	0.00
700.73	35.11
700.87	81.92
701.00	105.32
701.13	91.28
701.26	2.34
701.40	53.83
701.53	49.15
701.66	25.75
701.79	0.00
701.93	44.47
702.06	28.09
702.19	0.00
702.32	0.00
702.46	30.43
702.59	9.36
702.72	28.09
702.85	18.72
702.99	37.45
703.12	18.72
703.25	21.06
703.38	58.51
703.51	95.96
703.65	0.00
703.78	58.51
703.91	0.00
704.04	0.00
704.17	7.02
704.31	2.34
704.44	0.00
704.57	51.49
704.70	42.13
704.83	9.36
704.96	4.68
705.10	93.62
705.23	53.83
>>>>>End Processed Spectral Data<<<<<
