SpectraSuite Data File
++++++++++++++++++++++++++++++++++++
Date: Fri Oct 04 12:13:30 GMT-05:00 2013
User: price-jones
Dark Spectrum Present: No
Reference Spectrum Present: No
Number of Sampled Component Spectra: 1
Spectrometers: USB2+H05261
Integration Time (usec): 10000 (USB2+H05261)
Spectra Averaged: 1 (USB2+H05261)
Boxcar Smoothing: 0 (USB2+H05261)
Correct for Electrical Dark: No (USB2+H05261)
Strobe/Lamp Enabled: No (USB2+H05261)
Correct for Detector Non-linearity: No (USB2+H05261)
Correct for Stray Light: No (USB2+H05261)
Number of Pixels in Processed Spectrum: 2048
>>>>>Begin Processed Spectral Data<<<<<
365.73	0.00
365.92	0.00
366.12	0.00
366.32	0.00
366.52	0.00
366.72	0.00
366.91	0.00
367.11	0.00
367.31	0.00
367.51	0.00
367.70	0.00
367.90	0.00
368.10	0.00
368.30	0.00
368.49	0.00
368.69	0.00
368.89	0.00
369.09	0.00
369.28	0.00
369.48	0.00
369.68	0.00
369.87	0.00
370.07	0.00
370.27	0.00
370.47	0.00
370.66	0.00
370.86	0.00
371.06	0.00
371.25	0.00
371.45	4.68
371.65	0.00
371.84	0.00
372.04	7.02
372.24	0.00
372.44	0.00
372.63	79.58
372.83	30.43
373.03	16.38
373.22	105.32
373.42	25.75
373.62	56.17
373.81	42.13
374.01	95.96
374.21	67.88
374.40	28.09
374.60	49.15
374.79	0.00
374.99	91.28
375.19	39.79
375.38	0.00
375.58	0.00
375.78	11.70
375.97	0.00
376.17	0.00
376.37	44.47
376.56	84.26
376.76	81.92
376.95	49.15
377.15	42.13
377.35	39.79
377.54	53.83
377.74	9.36
377.93	4.68
378.13	0.00
378.33	9.36
378.52	72.56
378.72	0.00
378.91	35.11
379.11	0.00
379.31	42.13
379.50	74.90
379.70	70.22
379.89	0.00
380.09	11.70
380.28	0.00
380.48	23.41
380.68	25.75
380.87	4.68
381.07	95.96
381.26	0.00
381.46	37.45
381.65	0.00
381.85	72.56
382.04	37.45
382.24	0.00
382.43	70.22
382.63	63.19
382.83	7.02
383.02	4.68
383.22	14.04
383.41	16.38
383.61	0.00
383.80	79.58
384.00	2.34
384.19	0.00
384.39	56.17
384.58	18.72
384.78	11.70
384.97	18.72
385.17	0.00
385.36	0.00
385.56	0.00
385.75	0.00
385.95	0.00
386.14	65.54
386.34	84.26
386.53	16.38
386.72	53.83
386.92	0.00
387.11	25.75
387.31	28.09
387.50	0.00
387.70	0.00
387.89	23.41
388.09	2.34
388.28	0.00
388.48	0.00
388.67	0.00
388.86	95.96
389.06	0.00
389.25	0.00
389.45	14.04
389.64	9.36
389.84	86.60
390.03	9.36
390.22	42.13
390.42	67.88
390.61	0.00
390.81	88.94
391.00	98.30
391.19	9.36
391.39	32.77
391.58	65.54
391.78	4.68
391.97	2.34
392.16	18.72
392.36	14.04
392.55	16.38
392.75	4.68
392.94	0.00
393.13	0.00
393.33	28.09
393.52	4.68
393.71	23.41
393.91	0.00
394.10	112.35
394.29	0.00
394.49	18.72
394.68	2.34
394.88	42.13
395.07	7.02
395.26	32.77
395.46	18.72
395.65	81.92
395.84	37.45
396.04	0.00
396.23	4.68
396.42	0.00
396.62	44.47
396.81	56.17
397.00	0.00
397.19	28.09
397.39	98.30
397.58	32.77
397.77	0.00
397.97	0.00
398.16	14.04
398.35	0.00
398.55	53.83
398.74	0.00
398.93	0.00
399.12	11.70
399.32	0.00
399.51	44.47
399.70	2.34
399.90	0.00
400.09	77.24
400.28	2.34
400.47	0.00
400.67	79.58
400.86	0.00
401.05	37.45
401.24	72.56
401.44	72.56
401.63	11.70
401.82	98.30
402.01	21.06
402.21	63.19
402.40	18.72
402.59	65.54
402.78	0.00
402.97	0.00
403.17	65.54
403.36	39.79
403.55	133.41
403.74	65.54
403.93	30.43
404.13	51.49
404.32	11.70
404.51	117.03
404.70	0.00
404.89	42.13
405.09	2.34
405.28	11.70
405.47	0.00
405.66	23.41
405.85	39.79
406.05	95.96
406.24	35.11
406.43	4.68
406.62	37.45
406.81	110.01
407.00	49.15
407.20	65.54
407.39	0.00
407.58	18.72
407.77	11.70
407.96	32.77
408.15	0.00
408.34	35.11
408.54	63.19
408.73	72.56
408.92	11.70
409.11	0.00
409.30	0.00
409.49	60.85
409.68	21.06
409.87	0.00
410.07	16.38
410.26	95.96
410.45	21.06
410.64	0.00
410.83	21.06
411.02	63.19
411.21	7.02
411.40	72.56
411.59	86.60
411.78	0.00
411.98	0.00
412.17	32.77
412.36	147.45
412.55	0.00
412.74	100.64
412.93	53.83
413.12	16.38
413.31	11.70
413.50	58.51
413.69	0.00
413.88	0.00
414.07	58.51
414.26	84.26
414.45	37.45
414.64	88.94
414.83	32.77
415.02	74.90
415.22	4.68
415.41	102.98
415.60	0.00
415.79	39.79
415.98	51.49
416.17	0.00
416.36	4.68
416.55	16.38
416.74	42.13
416.93	44.47
417.12	14.04
417.31	77.24
417.50	60.85
417.69	0.00
417.88	7.02
418.07	70.22
418.26	77.24
418.45	0.00
418.64	46.81
418.83	18.72
419.02	0.00
419.21	7.02
419.39	21.06
419.58	18.72
419.77	0.00
419.96	0.00
420.15	9.36
420.34	0.00
420.53	112.35
420.72	30.43
420.91	32.77
421.10	39.79
421.29	58.51
421.48	53.83
421.67	0.00
421.86	0.00
422.05	0.00
422.24	42.13
422.43	44.47
422.61	0.00
422.80	0.00
422.99	7.02
423.18	79.58
423.37	11.70
423.56	11.70
423.75	56.17
423.94	39.79
424.13	28.09
424.32	7.02
424.50	93.62
424.69	9.36
424.88	42.13
425.07	42.13
425.26	21.06
425.45	32.77
425.64	84.26
425.83	79.58
426.01	35.11
426.20	42.13
426.39	18.72
426.58	44.47
426.77	44.47
426.96	4.68
427.15	28.09
427.33	0.00
427.52	49.15
427.71	77.24
427.90	0.00
428.09	0.00
428.28	25.75
428.46	0.00
428.65	37.45
428.84	0.00
429.03	7.02
429.22	0.00
429.40	2.34
429.59	51.49
429.78	37.45
429.97	37.45
430.16	44.47
430.34	16.38
430.53	95.96
430.72	14.04
430.91	35.11
431.10	30.43
431.28	23.41
431.47	56.17
431.66	42.13
431.85	2.34
432.03	4.68
432.22	0.00
432.41	0.00
432.60	9.36
432.79	25.75
432.97	84.26
433.16	56.17
433.35	35.11
433.54	44.47
433.72	56.17
433.91	63.19
434.10	21.06
434.28	0.00
434.47	11.70
434.66	0.00
434.85	4.68
435.03	56.17
435.22	42.13
435.41	23.41
435.59	4.68
435.78	28.09
435.97	28.09
436.16	0.00
436.34	28.09
436.53	67.88
436.72	0.00
436.90	18.72
437.09	30.43
437.28	53.83
437.46	23.41
437.65	0.00
437.84	4.68
438.02	16.38
438.21	0.00
438.40	11.70
438.58	56.17
438.77	67.88
438.96	91.28
439.14	117.03
439.33	0.00
439.52	67.88
439.70	7.02
439.89	14.04
440.08	11.70
440.26	56.17
440.45	0.00
440.63	53.83
440.82	0.00
441.01	9.36
441.19	0.00
441.38	0.00
441.57	0.00
441.75	0.00
441.94	25.75
442.12	110.01
442.31	93.62
442.50	39.79
442.68	39.79
442.87	9.36
443.05	110.01
443.24	79.58
443.43	42.13
443.61	0.00
443.80	37.45
443.98	0.00
444.17	2.34
444.35	58.51
444.54	46.81
444.73	30.43
444.91	9.36
445.10	44.47
445.28	42.13
445.47	53.83
445.65	37.45
445.84	58.51
446.02	21.06
446.21	0.00
446.39	58.51
446.58	70.22
446.77	21.06
446.95	14.04
447.14	88.94
447.32	67.88
447.51	65.54
447.69	39.79
447.88	0.00
448.06	28.09
448.25	58.51
448.43	23.41
448.62	37.45
448.80	11.70
448.99	0.00
449.17	56.17
449.36	25.75
449.54	67.88
449.73	23.41
449.91	63.19
450.10	37.45
450.28	11.70
450.46	88.94
450.65	119.37
450.83	25.75
451.02	37.45
451.20	0.00
451.39	95.96
451.57	28.09
451.76	2.34
451.94	53.83
452.13	98.30
452.31	30.43
452.49	4.68
452.68	30.43
452.86	21.06
453.05	0.00
453.23	65.54
453.42	84.26
453.60	37.45
453.78	0.00
453.97	102.98
454.15	0.00
454.34	4.68
454.52	21.06
454.70	42.13
454.89	39.79
455.07	4.68
455.26	39.79
455.44	7.02
455.62	42.13
455.81	63.19
455.99	63.19
456.17	0.00
456.36	0.00
456.54	0.00
456.73	18.72
456.91	35.11
457.09	77.24
457.28	77.24
457.46	28.09
457.64	0.00
457.83	4.68
458.01	4.68
458.19	16.38
458.38	63.19
458.56	60.85
458.74	49.15
458.93	46.81
459.11	0.00
459.29	58.51
459.48	30.43
459.66	93.62
459.84	11.70
460.03	58.51
460.21	74.90
460.39	93.62
460.57	0.00
460.76	0.00
460.94	0.00
461.12	56.17
461.31	14.04
461.49	51.49
461.67	0.00
461.85	9.36
462.04	18.72
462.22	42.13
462.40	0.00
462.59	16.38
462.77	37.45
462.95	0.00
463.13	65.54
463.32	4.68
463.50	39.79
463.68	4.68
463.86	0.00
464.05	72.56
464.23	53.83
464.41	42.13
464.59	35.11
464.78	60.85
464.96	0.00
465.14	46.81
465.32	65.54
465.50	21.06
465.69	112.35
465.87	18.72
466.05	53.83
466.23	93.62
466.41	0.00
466.60	0.00
466.78	0.00
466.96	18.72
467.14	93.62
467.32	51.49
467.51	4.68
467.69	4.68
467.87	32.77
468.05	58.51
468.23	63.19
468.41	77.24
468.60	14.04
468.78	28.09
468.96	21.06
469.14	0.00
469.32	0.00
469.50	124.05
469.69	63.19
469.87	81.92
470.05	63.19
470.23	0.00
470.41	16.38
470.59	32.77
470.77	81.92
470.95	37.45
471.14	28.09
471.32	37.45
471.50	21.06
471.68	51.49
471.86	77.24
472.04	18.72
472.22	18.72
472.40	23.41
472.58	0.00
472.77	9.36
472.95	30.43
473.13	81.92
473.31	32.77
473.49	32.77
473.67	77.24
473.85	72.56
474.03	35.11
474.21	16.38
474.39	91.28
474.57	14.04
474.75	0.00
474.93	0.00
475.12	23.41
475.30	0.00
475.48	4.68
475.66	84.26
475.84	25.75
476.02	58.51
476.20	58.51
476.38	65.54
476.56	0.00
476.74	60.85
476.92	11.70
477.10	39.79
477.28	0.00
477.46	0.00
477.64	56.17
477.82	60.85
478.00	25.75
478.18	0.00
478.36	25.75
478.54	56.17
478.72	58.51
478.90	30.43
479.08	0.00
479.26	25.75
479.44	37.45
479.62	35.11
479.80	0.00
479.98	2.34
480.16	28.09
480.34	7.02
480.52	72.56
480.70	16.38
480.88	23.41
481.06	39.79
481.24	35.11
481.41	0.00
481.59	0.00
481.77	60.85
481.95	56.17
482.13	93.62
482.31	0.00
482.49	100.64
482.67	79.58
482.85	0.00
483.03	72.56
483.21	105.32
483.39	0.00
483.57	53.83
483.74	81.92
483.92	30.43
484.10	37.45
484.28	11.70
484.46	117.03
484.64	49.15
484.82	32.77
485.00	49.15
485.18	32.77
485.35	102.98
485.53	51.49
485.71	25.75
485.89	0.00
486.07	0.00
486.25	0.00
486.43	0.00
486.61	4.68
486.78	4.68
486.96	65.54
487.14	0.00
487.32	2.34
487.50	35.11
487.68	7.02
487.85	0.00
488.03	63.19
488.21	72.56
488.39	49.15
488.57	25.75
488.75	0.00
488.92	11.70
489.10	107.66
489.28	119.37
489.46	16.38
489.64	9.36
489.81	95.96
489.99	86.60
490.17	39.79
490.35	25.75
490.53	81.92
490.70	49.15
490.88	60.85
491.06	79.58
491.24	58.51
491.41	77.24
491.59	0.00
491.77	25.75
491.95	0.00
492.13	42.13
492.30	63.19
492.48	77.24
492.66	156.82
492.84	56.17
493.01	91.28
493.19	21.06
493.37	63.19
493.54	65.54
493.72	0.00
493.90	107.66
494.08	63.19
494.25	100.64
494.43	53.83
494.61	0.00
494.79	46.81
494.96	131.07
495.14	131.07
495.32	88.94
495.49	11.70
495.67	7.02
495.85	0.00
496.02	0.00
496.20	70.22
496.38	16.38
496.55	11.70
496.73	9.36
496.91	91.28
497.09	0.00
497.26	28.09
497.44	60.85
497.62	35.11
497.79	0.00
497.97	51.49
498.14	14.04
498.32	0.00
498.50	11.70
498.67	35.11
498.85	0.00
499.03	0.00
499.20	35.11
499.38	70.22
499.56	63.19
499.73	42.13
499.91	28.09
500.08	58.51
500.26	56.17
500.44	37.45
500.61	2.34
500.79	0.00
500.97	25.75
501.14	0.00
501.32	14.04
501.49	0.00
501.67	18.72
501.84	70.22
502.02	0.00
502.20	56.17
502.37	32.77
502.55	7.02
502.72	28.09
502.90	91.28
503.07	16.38
503.25	39.79
503.43	65.54
503.60	0.00
503.78	0.00
503.95	18.72
504.13	2.34
504.30	56.17
504.48	18.72
504.65	112.35
504.83	79.58
505.01	58.51
505.18	0.00
505.36	28.09
505.53	9.36
505.71	46.81
505.88	35.11
506.06	84.26
506.23	30.43
506.41	51.49
506.58	79.58
506.76	51.49
506.93	0.00
507.11	7.02
507.28	23.41
507.46	39.79
507.63	32.77
507.81	23.41
507.98	0.00
508.16	7.02
508.33	0.00
508.50	121.71
508.68	25.75
508.85	58.51
509.03	25.75
509.20	63.19
509.38	42.13
509.55	35.11
509.73	79.58
509.90	60.85
510.08	60.85
510.25	72.56
510.42	131.07
510.60	0.00
510.77	0.00
510.95	60.85
511.12	18.72
511.30	30.43
511.47	0.00
511.64	35.11
511.82	98.30
511.99	37.45
512.17	30.43
512.34	0.00
512.51	37.45
512.69	9.36
512.86	14.04
513.04	39.79
513.21	4.68
513.38	95.96
513.56	23.41
513.73	46.81
513.90	42.13
514.08	74.90
514.25	58.51
514.43	11.70
514.60	100.64
514.77	58.51
514.95	0.00
515.12	11.70
515.29	74.90
515.47	23.41
515.64	65.54
515.81	72.56
515.99	11.70
516.16	56.17
516.33	7.02
516.51	0.00
516.68	35.11
516.85	0.00
517.03	28.09
517.20	46.81
517.37	0.00
517.54	74.90
517.72	32.77
517.89	21.06
518.06	79.58
518.24	25.75
518.41	119.37
518.58	32.77
518.75	37.45
518.93	60.85
519.10	0.00
519.27	79.58
519.45	53.83
519.62	30.43
519.79	23.41
519.96	35.11
520.14	0.00
520.31	112.35
520.48	25.75
520.65	0.00
520.83	79.58
521.00	128.73
521.17	60.85
521.34	9.36
521.52	7.02
521.69	67.88
521.86	0.00
522.03	77.24
522.20	23.41
522.38	46.81
522.55	44.47
522.72	0.00
522.89	0.00
523.07	56.17
523.24	70.22
523.41	0.00
523.58	18.72
523.75	28.09
523.92	0.00
524.10	56.17
524.27	63.19
524.44	0.00
524.61	60.85
524.78	65.54
524.96	28.09
525.13	2.34
525.30	53.83
525.47	9.36
525.64	32.77
525.81	77.24
525.98	49.15
526.16	30.43
526.33	60.85
526.50	56.17
526.67	46.81
526.84	28.09
527.01	18.72
527.18	14.04
527.36	67.88
527.53	74.90
527.70	72.56
527.87	42.13
528.04	128.73
528.21	9.36
528.38	44.47
528.55	0.00
528.72	65.54
528.89	4.68
529.07	21.06
529.24	60.85
529.41	9.36
529.58	30.43
529.75	114.69
529.92	124.05
530.09	49.15
530.26	14.04
530.43	30.43
530.60	72.56
530.77	91.28
530.94	42.13
531.11	4.68
531.28	30.43
531.46	44.47
531.63	93.62
531.80	100.64
531.97	28.09
532.14	0.00
532.31	35.11
532.48	0.00
532.65	16.38
532.82	56.17
532.99	28.09
533.16	117.03
533.33	46.81
533.50	16.38
533.67	60.85
533.84	51.49
534.01	9.36
534.18	28.09
534.35	0.00
534.52	16.38
534.69	0.00
534.86	56.17
535.03	0.00
535.20	56.17
535.37	56.17
535.54	39.79
535.71	35.11
535.88	37.45
536.05	58.51
536.22	63.19
536.38	0.00
536.55	30.43
536.72	0.00
536.89	121.71
537.06	30.43
537.23	42.13
537.40	65.54
537.57	56.17
537.74	0.00
537.91	77.24
538.08	35.11
538.25	4.68
538.42	77.24
538.59	86.60
538.75	0.00
538.92	35.11
539.09	0.00
539.26	25.75
539.43	107.66
539.60	77.24
539.77	25.75
539.94	46.81
540.11	42.13
540.28	32.77
540.44	91.28
540.61	95.96
540.78	0.00
540.95	49.15
541.12	72.56
541.29	88.94
541.46	0.00
541.62	21.06
541.79	46.81
541.96	91.28
542.13	72.56
542.30	46.81
542.47	46.81
542.63	14.04
542.80	70.22
542.97	70.22
543.14	21.06
543.31	49.15
543.48	72.56
543.64	44.47
543.81	32.77
543.98	7.02
544.15	30.43
544.32	32.77
544.48	63.19
544.65	126.39
544.82	51.49
544.99	49.15
545.16	95.96
545.32	60.85
545.49	98.30
545.66	14.04
545.83	65.54
546.00	0.00
546.16	72.56
546.33	86.60
546.50	124.05
546.67	58.51
546.83	77.24
547.00	79.58
547.17	65.54
547.34	0.00
547.50	53.83
547.67	37.45
547.84	65.54
548.00	23.41
548.17	93.62
548.34	53.83
548.51	11.70
548.67	46.81
548.84	70.22
549.01	16.38
549.18	32.77
549.34	35.11
549.51	4.68
549.68	42.13
549.84	63.19
550.01	74.90
550.18	2.34
550.34	53.83
550.51	9.36
550.68	18.72
550.84	131.07
551.01	60.85
551.18	21.06
551.34	0.00
551.51	11.70
551.68	51.49
551.84	77.24
552.01	30.43
552.18	67.88
552.34	23.41
552.51	42.13
552.68	0.00
552.84	77.24
553.01	7.02
553.18	49.15
553.34	18.72
553.51	51.49
553.67	7.02
553.84	74.90
554.01	147.45
554.17	21.06
554.34	23.41
554.51	14.04
554.67	37.45
554.84	63.19
555.00	35.11
555.17	44.47
555.33	42.13
555.50	63.19
555.67	105.32
555.83	0.00
556.00	102.98
556.16	30.43
556.33	23.41
556.50	67.88
556.66	72.56
556.83	53.83
556.99	46.81
557.16	39.79
557.32	11.70
557.49	72.56
557.65	51.49
557.82	56.17
557.98	49.15
558.15	60.85
558.32	58.51
558.48	18.72
558.65	0.00
558.81	49.15
558.98	93.62
559.14	46.81
559.31	0.00
559.47	46.81
559.64	91.28
559.80	93.62
559.97	23.41
560.13	25.75
560.30	25.75
560.46	37.45
560.63	7.02
560.79	0.00
560.96	51.49
561.12	93.62
561.29	84.26
561.45	0.00
561.61	0.00
561.78	65.54
561.94	0.00
562.11	93.62
562.27	0.00
562.44	60.85
562.60	4.68
562.77	37.45
562.93	4.68
563.10	65.54
563.26	18.72
563.42	42.13
563.59	37.45
563.75	46.81
563.92	56.17
564.08	72.56
564.24	72.56
564.41	65.54
564.57	70.22
564.74	58.51
564.90	74.90
565.07	72.56
565.23	4.68
565.39	21.06
565.56	67.88
565.72	32.77
565.88	4.68
566.05	32.77
566.21	117.03
566.38	25.75
566.54	53.83
566.70	23.41
566.87	49.15
567.03	16.38
567.19	35.11
567.36	39.79
567.52	0.00
567.68	156.82
567.85	4.68
568.01	67.88
568.17	30.43
568.34	0.00
568.50	0.00
568.66	35.11
568.83	39.79
568.99	0.00
569.15	4.68
569.32	79.58
569.48	107.66
569.64	16.38
569.81	28.09
569.97	14.04
570.13	72.56
570.30	25.75
570.46	65.54
570.62	114.69
570.78	49.15
570.95	25.75
571.11	114.69
571.27	30.43
571.43	25.75
571.60	67.88
571.76	9.36
571.92	28.09
572.09	98.30
572.25	49.15
572.41	77.24
572.57	28.09
572.74	0.00
572.90	53.83
573.06	0.00
573.22	46.81
573.38	77.24
573.55	44.47
573.71	0.00
573.87	49.15
574.03	91.28
574.20	72.56
574.36	0.00
574.52	0.00
574.68	56.17
574.84	7.02
575.01	65.54
575.17	133.41
575.33	51.49
575.49	0.00
575.65	98.30
575.82	105.32
575.98	14.04
576.14	32.77
576.30	95.96
576.46	63.19
576.62	72.56
576.79	79.58
576.95	51.49
577.11	46.81
577.27	88.94
577.43	16.38
577.59	0.00
577.75	67.88
577.92	44.47
578.08	39.79
578.24	37.45
578.40	0.00
578.56	51.49
578.72	63.19
578.88	0.00
579.04	72.56
579.21	4.68
579.37	88.94
579.53	7.02
579.69	39.79
579.85	60.85
580.01	23.41
580.17	46.81
580.33	39.79
580.49	0.00
580.65	25.75
580.82	56.17
580.98	9.36
581.14	121.71
581.30	9.36
581.46	14.04
581.62	65.54
581.78	93.62
581.94	14.04
582.10	0.00
582.26	25.75
582.42	11.70
582.58	35.11
582.74	0.00
582.90	58.51
583.06	0.00
583.22	56.17
583.38	60.85
583.54	39.79
583.70	42.13
583.86	25.75
584.02	63.19
584.18	23.41
584.34	65.54
584.50	79.58
584.66	400.23
584.82	1060.26
584.98	1547.09
585.14	1315.38
585.30	903.45
585.46	493.85
585.62	330.02
585.78	217.67
585.94	21.06
586.10	49.15
586.26	37.45
586.42	72.56
586.58	14.04
586.74	7.02
586.90	0.00
587.06	63.19
587.22	11.70
587.38	46.81
587.54	7.02
587.70	140.43
587.86	74.90
588.02	91.28
588.18	56.17
588.34	131.07
588.49	0.00
588.65	65.54
588.81	88.94
588.97	7.02
589.13	14.04
589.29	110.01
589.45	30.43
589.61	81.92
589.77	145.11
589.93	74.90
590.08	84.26
590.24	63.19
590.40	2.34
590.56	42.13
590.72	58.51
590.88	30.43
591.04	25.75
591.20	44.47
591.35	93.62
591.51	32.77
591.67	30.43
591.83	39.79
591.99	35.11
592.15	28.09
592.31	11.70
592.46	18.72
592.62	18.72
592.78	58.51
592.94	39.79
593.10	0.00
593.26	58.51
593.41	84.26
593.57	0.00
593.73	11.70
593.89	42.13
594.05	166.18
594.20	189.58
594.36	273.84
594.52	86.60
594.68	107.66
594.84	86.60
594.99	23.41
595.15	0.00
595.31	37.45
595.47	114.69
595.62	51.49
595.78	37.45
595.94	14.04
596.10	58.51
596.25	63.19
596.41	14.04
596.57	84.26
596.73	16.38
596.88	119.37
597.04	133.41
597.20	74.90
597.36	81.92
597.51	84.26
597.67	0.00
597.83	53.83
597.99	9.36
598.14	37.45
598.30	86.60
598.46	0.00
598.61	37.45
598.77	56.17
598.93	77.24
599.09	23.41
599.24	63.19
599.40	23.41
599.56	25.75
599.71	51.49
599.87	79.58
600.03	25.75
600.18	74.90
600.34	11.70
600.50	37.45
600.65	4.68
600.81	7.02
600.97	88.94
601.12	23.41
601.28	53.83
601.44	44.47
601.59	74.90
601.75	53.83
601.91	88.94
602.06	81.92
602.22	98.30
602.37	102.98
602.53	88.94
602.69	81.92
602.84	58.51
603.00	23.41
603.16	21.06
603.31	23.41
603.47	161.50
603.62	0.00
603.78	7.02
603.94	79.58
604.09	105.32
604.25	72.56
604.40	25.75
604.56	58.51
604.71	65.54
604.87	21.06
605.03	37.45
605.18	9.36
605.34	28.09
605.49	30.43
605.65	72.56
605.80	44.47
605.96	0.00
606.12	16.38
606.27	0.00
606.43	0.00
606.58	0.00
606.74	30.43
606.89	46.81
607.05	154.48
607.20	243.42
607.36	220.01
607.51	145.11
607.67	102.98
607.82	46.81
607.98	63.19
608.13	112.35
608.29	84.26
608.44	86.60
608.60	67.88
608.75	112.35
608.91	0.00
609.06	147.45
609.22	184.90
609.37	311.29
609.53	318.31
609.68	215.33
609.84	142.77
609.99	102.98
610.15	110.01
610.30	91.28
610.46	63.19
610.61	56.17
610.76	93.62
610.92	98.30
611.07	63.19
611.23	72.56
611.38	4.68
611.54	30.43
611.69	23.41
611.84	84.26
612.00	42.13
612.15	0.00
612.31	0.00
612.46	42.13
612.62	4.68
612.77	67.88
612.92	102.98
613.08	58.51
613.23	11.70
613.39	84.26
613.54	23.41
613.69	147.45
613.85	231.71
614.00	512.58
614.15	470.45
614.31	346.40
614.46	236.39
614.62	163.84
614.77	154.48
614.92	74.90
615.08	39.79
615.23	14.04
615.38	0.00
615.54	23.41
615.69	46.81
615.84	74.90
616.00	170.86
616.15	112.35
616.30	72.56
616.46	114.69
616.61	121.71
616.76	65.54
616.92	42.13
617.07	39.79
617.22	32.77
617.37	0.00
617.53	91.28
617.68	105.32
617.83	51.49
617.99	28.09
618.14	53.83
618.29	0.00
618.45	0.00
618.60	88.94
618.75	30.43
618.90	63.19
619.06	88.94
619.21	30.43
619.36	91.28
619.51	77.24
619.67	98.30
619.82	0.00
619.97	18.72
620.12	79.58
620.28	84.26
620.43	91.28
620.58	0.00
620.73	0.00
620.89	49.15
621.04	51.49
621.19	44.47
621.34	63.19
621.49	88.94
621.65	131.07
621.80	124.05
621.95	16.38
622.10	63.19
622.25	28.09
622.41	23.41
622.56	28.09
622.71	51.49
622.86	32.77
623.01	9.36
623.16	100.64
623.32	77.24
623.47	35.11
623.62	56.17
623.77	70.22
623.92	0.00
624.07	18.72
624.23	60.85
624.38	74.90
624.53	0.00
624.68	0.00
624.83	72.56
624.98	67.88
625.13	74.90
625.29	74.90
625.44	86.60
625.59	70.22
625.74	93.62
625.89	42.13
626.04	93.62
626.19	194.26
626.34	220.01
626.49	304.27
626.65	208.31
626.80	175.54
626.95	117.03
627.10	107.66
627.25	7.02
627.40	23.41
627.55	56.17
627.70	67.88
627.85	14.04
628.00	95.96
628.15	28.09
628.30	0.00
628.45	58.51
628.60	67.88
628.76	0.00
628.91	23.41
629.06	21.06
629.21	60.85
629.36	7.02
629.51	14.04
629.66	2.34
629.81	65.54
629.96	67.88
630.11	70.22
630.26	9.36
630.41	107.66
630.56	77.24
630.71	23.41
630.86	0.00
631.01	39.79
631.16	60.85
631.31	98.30
631.46	42.13
631.61	60.85
631.76	117.03
631.91	53.83
632.06	37.45
632.21	0.00
632.36	0.00
632.51	44.47
632.66	84.26
632.81	56.17
632.96	79.58
633.10	191.92
633.25	175.54
633.40	131.07
633.55	119.37
633.70	95.96
633.85	53.83
634.00	21.06
634.15	44.47
634.30	119.37
634.45	4.68
634.60	49.15
634.75	25.75
634.90	65.54
635.05	60.85
635.19	39.79
635.34	37.45
635.49	18.72
635.64	0.00
635.79	28.09
635.94	11.70
636.09	30.43
636.24	21.06
636.39	7.02
636.53	37.45
636.68	102.98
636.83	23.41
636.98	9.36
637.13	46.81
637.28	35.11
637.43	0.00
637.57	7.02
637.72	149.79
637.87	215.33
638.02	276.18
638.17	351.08
638.32	297.25
638.46	198.95
638.61	170.86
638.76	81.92
638.91	60.85
639.06	32.77
639.20	14.04
639.35	14.04
639.50	0.00
639.65	126.39
639.80	290.23
639.94	458.74
640.09	489.17
640.24	447.04
640.39	320.65
640.54	245.76
640.68	121.71
640.83	0.00
640.98	25.75
641.13	60.85
641.27	135.75
641.42	51.49
641.57	23.41
641.72	25.75
641.86	51.49
642.01	0.00
642.16	44.47
642.31	0.00
642.45	74.90
642.60	35.11
642.75	28.09
642.90	117.03
643.04	37.45
643.19	7.02
643.34	60.85
643.48	0.00
643.63	9.36
643.78	74.90
643.93	4.68
644.07	7.02
644.22	11.70
644.37	63.19
644.51	9.36
644.66	77.24
644.81	9.36
644.95	46.81
645.10	39.79
645.25	95.96
645.39	63.19
645.54	2.34
645.69	65.54
645.83	65.54
645.98	9.36
646.13	23.41
646.27	0.00
646.42	0.00
646.57	46.81
646.71	70.22
646.86	16.38
647.00	16.38
647.15	49.15
647.30	0.00
647.44	32.77
647.59	9.36
647.74	35.11
647.88	0.00
648.03	105.32
648.17	23.41
648.32	35.11
648.47	35.11
648.61	35.11
648.76	49.15
648.90	39.79
649.05	39.79
649.20	25.75
649.34	63.19
649.49	88.94
649.63	105.32
649.78	9.36
649.92	35.11
650.07	117.03
650.21	124.05
650.36	208.31
650.51	262.14
650.65	238.73
650.80	117.03
650.94	105.32
651.09	11.70
651.23	70.22
651.38	46.81
651.52	46.81
651.67	42.13
651.81	2.34
651.96	18.72
652.10	60.85
652.25	0.00
652.39	0.00
652.54	37.45
652.68	70.22
652.83	0.00
652.97	86.60
653.12	128.73
653.26	145.11
653.41	142.77
653.55	93.62
653.70	110.01
653.84	0.00
653.99	81.92
654.13	14.04
654.27	21.06
654.42	100.64
654.56	0.00
654.71	81.92
654.85	0.00
655.00	0.00
655.14	39.79
655.29	35.11
655.43	0.00
655.57	70.22
655.72	21.06
655.86	0.00
656.01	79.58
656.15	42.13
656.30	0.00
656.44	56.17
656.58	79.58
656.73	2.34
656.87	4.68
657.01	46.81
657.16	84.26
657.30	42.13
657.45	42.13
657.59	11.70
657.73	49.15
657.88	0.00
658.02	0.00
658.16	0.00
658.31	37.45
658.45	9.36
658.60	30.43
658.74	21.06
658.88	35.11
659.03	0.00
659.17	18.72
659.31	0.00
659.46	112.35
659.60	128.73
659.74	180.22
659.89	145.11
660.03	112.35
660.17	124.05
660.32	58.51
660.46	67.88
660.60	58.51
660.74	81.92
660.89	32.77
661.03	7.02
661.17	39.79
661.32	53.83
661.46	0.00
661.60	18.72
661.74	28.09
661.89	86.60
662.03	9.36
662.17	49.15
662.31	79.58
662.46	0.00
662.60	32.77
662.74	56.17
662.88	0.00
663.03	28.09
663.17	60.85
663.31	53.83
663.45	0.00
663.60	60.85
663.74	11.70
663.88	0.00
664.02	0.00
664.17	58.51
664.31	9.36
664.45	0.00
664.59	4.68
664.73	65.54
664.88	51.49
665.02	60.85
665.16	0.00
665.30	58.51
665.44	84.26
665.59	65.54
665.73	16.38
665.87	95.96
666.01	37.45
666.15	77.24
666.29	58.51
666.44	56.17
666.58	7.02
666.72	42.13
666.86	56.17
667.00	32.77
667.14	86.60
667.28	84.26
667.43	156.82
667.57	222.35
667.71	278.52
667.85	257.46
667.99	194.26
668.13	95.96
668.27	95.96
668.41	63.19
668.56	11.70
668.70	102.98
668.84	67.88
668.98	65.54
669.12	107.66
669.26	2.34
669.40	37.45
669.54	0.00
669.68	49.15
669.82	9.36
669.96	53.83
670.10	72.56
670.25	56.17
670.39	37.45
670.53	25.75
670.67	44.47
670.81	32.77
670.95	65.54
671.09	88.94
671.23	86.60
671.37	18.72
671.51	142.77
671.65	98.30
671.79	114.69
671.93	95.96
672.07	35.11
672.21	30.43
672.35	0.00
672.49	14.04
672.63	51.49
672.77	2.34
672.91	60.85
673.05	11.70
673.19	72.56
673.33	119.37
673.47	58.51
673.61	32.77
673.75	16.38
673.89	93.62
674.03	0.00
674.17	58.51
674.31	72.56
674.45	44.47
674.59	65.54
674.73	110.01
674.87	37.45
675.01	2.34
675.15	65.54
675.29	58.51
675.43	23.41
675.56	32.77
675.70	0.00
675.84	37.45
675.98	9.36
676.12	56.17
676.26	51.49
676.40	98.30
676.54	21.06
676.68	4.68
676.82	18.72
676.96	91.28
677.10	4.68
677.23	21.06
677.37	44.47
677.51	30.43
677.65	58.51
677.79	67.88
677.93	63.19
678.07	2.34
678.21	60.85
678.34	18.72
678.48	46.81
678.62	39.79
678.76	65.54
678.90	0.00
679.04	4.68
679.18	53.83
679.31	49.15
679.45	44.47
679.59	9.36
679.73	74.90
679.87	56.17
680.00	0.00
680.14	2.34
680.28	93.62
680.42	4.68
680.56	60.85
680.70	70.22
680.83	98.30
680.97	23.41
681.11	16.38
681.25	0.00
681.39	39.79
681.52	42.13
681.66	0.00
681.80	32.77
681.94	7.02
682.07	74.90
682.21	30.43
682.35	46.81
682.49	79.58
682.62	14.04
682.76	46.81
682.90	0.00
683.04	14.04
683.17	51.49
683.31	70.22
683.45	65.54
683.59	53.83
683.72	0.00
683.86	14.04
684.00	58.51
684.13	84.26
684.27	0.00
684.41	0.00
684.55	58.51
684.68	0.00
684.82	32.77
684.96	117.03
685.09	51.49
685.23	72.56
685.37	0.00
685.50	39.79
685.64	0.00
685.78	65.54
685.91	63.19
686.05	49.15
686.19	0.00
686.32	58.51
686.46	65.54
686.60	14.04
686.73	49.15
686.87	35.11
687.01	84.26
687.14	28.09
687.28	0.00
687.42	0.00
687.55	32.77
687.69	51.49
687.82	72.56
687.96	42.13
688.10	95.96
688.23	70.22
688.37	0.00
688.50	84.26
688.64	37.45
688.78	93.62
688.91	14.04
689.05	30.43
689.18	0.00
689.32	100.64
689.46	0.00
689.59	53.83
689.73	44.47
689.86	49.15
690.00	95.96
690.13	2.34
690.27	25.75
690.41	86.60
690.54	81.92
690.68	53.83
690.81	0.00
690.95	30.43
691.08	42.13
691.22	0.00
691.35	46.81
691.49	49.15
691.62	0.00
691.76	0.00
691.89	7.02
692.03	0.00
692.16	32.77
692.30	58.51
692.43	70.22
692.57	44.47
692.70	37.45
692.84	124.05
692.97	72.56
693.11	145.11
693.24	205.97
693.38	35.11
693.51	37.45
693.65	4.68
693.78	42.13
693.92	18.72
694.05	60.85
694.19	53.83
694.32	21.06
694.45	4.68
694.59	91.28
694.72	53.83
694.86	18.72
694.99	14.04
695.13	4.68
695.26	58.51
695.39	25.75
695.53	72.56
695.66	32.77
695.80	23.41
695.93	30.43
696.07	77.24
696.20	23.41
696.33	23.41
696.47	0.00
696.60	44.47
696.73	21.06
696.87	42.13
697.00	14.04
697.14	0.00
697.27	44.47
697.40	53.83
697.54	42.13
697.67	14.04
697.80	46.81
697.94	72.56
698.07	14.04
698.21	35.11
698.34	35.11
698.47	7.02
698.61	58.51
698.74	18.72
698.87	0.00
699.01	53.83
699.14	0.00
699.27	7.02
699.40	7.02
699.54	18.72
699.67	46.81
699.80	0.00
699.94	28.09
700.07	102.98
700.20	0.00
700.34	0.00
700.47	0.00
700.60	23.41
700.73	0.00
700.87	56.17
701.00	4.68
701.13	0.00
701.26	9.36
701.40	67.88
701.53	9.36
701.66	0.00
701.79	56.17
701.93	25.75
702.06	23.41
702.19	56.17
702.32	35.11
702.46	18.72
702.59	0.00
702.72	67.88
702.85	117.03
702.99	110.01
703.12	264.48
703.25	205.97
703.38	86.60
703.51	95.96
703.65	44.47
703.78	126.39
703.91	25.75
704.04	32.77
704.17	88.94
704.31	91.28
704.44	25.75
704.57	70.22
704.70	18.72
704.83	0.00
704.96	53.83
705.10	9.36
705.23	0.00
>>>>>End Processed Spectral Data<<<<<
