SpectraSuite Data File
++++++++++++++++++++++++++++++++++++
Date: Fri Oct 04 12:13:43 GMT-05:00 2013
User: price-jones
Dark Spectrum Present: No
Reference Spectrum Present: No
Number of Sampled Component Spectra: 1
Spectrometers: USB2+H05261
Integration Time (usec): 10000 (USB2+H05261)
Spectra Averaged: 1 (USB2+H05261)
Boxcar Smoothing: 0 (USB2+H05261)
Correct for Electrical Dark: No (USB2+H05261)
Strobe/Lamp Enabled: No (USB2+H05261)
Correct for Detector Non-linearity: No (USB2+H05261)
Correct for Stray Light: No (USB2+H05261)
Number of Pixels in Processed Spectrum: 2048
>>>>>Begin Processed Spectral Data<<<<<
365.73	0.00
365.92	0.00
366.12	0.00
366.32	0.00
366.52	0.00
366.72	0.00
366.91	0.00
367.11	0.00
367.31	0.00
367.51	0.00
367.70	0.00
367.90	0.00
368.10	0.00
368.30	0.00
368.49	0.00
368.69	0.00
368.89	0.00
369.09	0.00
369.28	0.00
369.48	0.00
369.68	0.00
369.87	0.00
370.07	0.00
370.27	0.00
370.47	0.00
370.66	0.00
370.86	0.00
371.06	21.06
371.25	0.00
371.45	0.00
371.65	11.70
371.84	7.02
372.04	4.68
372.24	56.17
372.44	35.11
372.63	0.00
372.83	0.00
373.03	0.00
373.22	2.34
373.42	0.00
373.62	105.32
373.81	0.00
374.01	37.45
374.21	0.00
374.40	42.13
374.60	56.17
374.79	0.00
374.99	39.79
375.19	25.75
375.38	44.47
375.58	0.00
375.78	42.13
375.97	0.00
376.17	32.77
376.37	53.83
376.56	30.43
376.76	0.00
376.95	28.09
377.15	67.88
377.35	53.83
377.54	4.68
377.74	11.70
377.93	0.00
378.13	0.00
378.33	9.36
378.52	0.00
378.72	35.11
378.91	16.38
379.11	0.00
379.31	44.47
379.50	39.79
379.70	28.09
379.89	0.00
380.09	93.62
380.28	0.00
380.48	18.72
380.68	23.41
380.87	18.72
381.07	0.00
381.26	0.00
381.46	18.72
381.65	11.70
381.85	0.00
382.04	53.83
382.24	11.70
382.43	7.02
382.63	7.02
382.83	0.00
383.02	88.94
383.22	65.54
383.41	0.00
383.61	60.85
383.80	93.62
384.00	25.75
384.19	0.00
384.39	63.19
384.58	0.00
384.78	0.00
384.97	0.00
385.17	39.79
385.36	0.00
385.56	98.30
385.75	28.09
385.95	91.28
386.14	21.06
386.34	9.36
386.53	16.38
386.72	25.75
386.92	49.15
387.11	0.00
387.31	39.79
387.50	42.13
387.70	0.00
387.89	4.68
388.09	0.00
388.28	0.00
388.48	98.30
388.67	51.49
388.86	21.06
389.06	65.54
389.25	0.00
389.45	58.51
389.64	91.28
389.84	0.00
390.03	0.00
390.22	18.72
390.42	0.00
390.61	0.00
390.81	4.68
391.00	9.36
391.19	21.06
391.39	0.00
391.58	14.04
391.78	74.90
391.97	0.00
392.16	0.00
392.36	58.51
392.55	0.00
392.75	0.00
392.94	28.09
393.13	58.51
393.33	25.75
393.52	0.00
393.71	4.68
393.91	0.00
394.10	35.11
394.29	9.36
394.49	0.00
394.68	16.38
394.88	46.81
395.07	74.90
395.26	0.00
395.46	32.77
395.65	4.68
395.84	0.00
396.04	42.13
396.23	11.70
396.42	44.47
396.62	32.77
396.81	0.00
397.00	30.43
397.19	4.68
397.39	23.41
397.58	14.04
397.77	11.70
397.97	67.88
398.16	63.19
398.35	72.56
398.55	14.04
398.74	7.02
398.93	42.13
399.12	74.90
399.32	25.75
399.51	56.17
399.70	86.60
399.90	23.41
400.09	51.49
400.28	100.64
400.47	23.41
400.67	32.77
400.86	0.00
401.05	16.38
401.24	74.90
401.44	0.00
401.63	35.11
401.82	21.06
402.01	93.62
402.21	18.72
402.40	32.77
402.59	21.06
402.78	32.77
402.97	16.38
403.17	86.60
403.36	44.47
403.55	4.68
403.74	53.83
403.93	49.15
404.13	72.56
404.32	21.06
404.51	0.00
404.70	0.00
404.89	18.72
405.09	0.00
405.28	18.72
405.47	14.04
405.66	98.30
405.85	60.85
406.05	23.41
406.24	0.00
406.43	44.47
406.62	0.00
406.81	53.83
407.00	7.02
407.20	23.41
407.39	23.41
407.58	74.90
407.77	21.06
407.96	0.00
408.15	42.13
408.34	23.41
408.54	60.85
408.73	95.96
408.92	4.68
409.11	28.09
409.30	102.98
409.49	32.77
409.68	46.81
409.87	56.17
410.07	124.05
410.26	88.94
410.45	0.00
410.64	30.43
410.83	16.38
411.02	72.56
411.21	138.09
411.40	58.51
411.59	0.00
411.78	0.00
411.98	0.00
412.17	0.00
412.36	44.47
412.55	0.00
412.74	0.00
412.93	51.49
413.12	110.01
413.31	0.00
413.50	91.28
413.69	4.68
413.88	37.45
414.07	7.02
414.26	74.90
414.45	25.75
414.64	0.00
414.83	18.72
415.02	18.72
415.22	0.00
415.41	0.00
415.60	98.30
415.79	0.00
415.98	35.11
416.17	21.06
416.36	95.96
416.55	60.85
416.74	11.70
416.93	0.00
417.12	42.13
417.31	37.45
417.50	14.04
417.69	37.45
417.88	0.00
418.07	60.85
418.26	25.75
418.45	81.92
418.64	37.45
418.83	16.38
419.02	124.05
419.21	44.47
419.39	0.00
419.58	23.41
419.77	4.68
419.96	56.17
420.15	0.00
420.34	58.51
420.53	7.02
420.72	105.32
420.91	81.92
421.10	37.45
421.29	63.19
421.48	14.04
421.67	79.58
421.86	7.02
422.05	91.28
422.24	67.88
422.43	35.11
422.61	0.00
422.80	0.00
422.99	18.72
423.18	0.00
423.37	44.47
423.56	30.43
423.75	79.58
423.94	58.51
424.13	49.15
424.32	35.11
424.50	37.45
424.69	30.43
424.88	56.17
425.07	91.28
425.26	67.88
425.45	86.60
425.64	0.00
425.83	21.06
426.01	102.98
426.20	63.19
426.39	30.43
426.58	56.17
426.77	14.04
426.96	65.54
427.15	23.41
427.33	23.41
427.52	63.19
427.71	46.81
427.90	70.22
428.09	98.30
428.28	51.49
428.46	72.56
428.65	65.54
428.84	60.85
429.03	79.58
429.22	84.26
429.40	39.79
429.59	65.54
429.78	30.43
429.97	0.00
430.16	70.22
430.34	93.62
430.53	0.00
430.72	16.38
430.91	91.28
431.10	0.00
431.28	58.51
431.47	70.22
431.66	44.47
431.85	74.90
432.03	58.51
432.22	65.54
432.41	100.64
432.60	0.00
432.79	93.62
432.97	44.47
433.16	0.00
433.35	39.79
433.54	65.54
433.72	28.09
433.91	39.79
434.10	39.79
434.28	18.72
434.47	25.75
434.66	67.88
434.85	63.19
435.03	42.13
435.22	42.13
435.41	74.90
435.59	100.64
435.78	35.11
435.97	0.00
436.16	91.28
436.34	42.13
436.53	53.83
436.72	74.90
436.90	51.49
437.09	4.68
437.28	35.11
437.46	74.90
437.65	110.01
437.84	44.47
438.02	0.00
438.21	9.36
438.40	9.36
438.58	7.02
438.77	0.00
438.96	149.79
439.14	37.45
439.33	77.24
439.52	86.60
439.70	67.88
439.89	44.47
440.08	44.47
440.26	65.54
440.45	4.68
440.63	0.00
440.82	42.13
441.01	30.43
441.19	60.85
441.38	21.06
441.57	25.75
441.75	72.56
441.94	91.28
442.12	39.79
442.31	81.92
442.50	37.45
442.68	74.90
442.87	98.30
443.05	25.75
443.24	21.06
443.43	72.56
443.61	16.38
443.80	86.60
443.98	112.35
444.17	32.77
444.35	39.79
444.54	18.72
444.73	58.51
444.91	58.51
445.10	49.15
445.28	42.13
445.47	39.79
445.65	35.11
445.84	86.60
446.02	18.72
446.21	110.01
446.39	58.51
446.58	16.38
446.77	51.49
446.95	39.79
447.14	74.90
447.32	79.58
447.51	58.51
447.69	14.04
447.88	77.24
448.06	32.77
448.25	44.47
448.43	23.41
448.62	32.77
448.80	18.72
448.99	100.64
449.17	16.38
449.36	0.00
449.54	0.00
449.73	4.68
449.91	152.13
450.10	30.43
450.28	23.41
450.46	32.77
450.65	65.54
450.83	53.83
451.02	49.15
451.20	128.73
451.39	114.69
451.57	4.68
451.76	91.28
451.94	74.90
452.13	0.00
452.31	86.60
452.49	7.02
452.68	100.64
452.86	53.83
453.05	110.01
453.23	93.62
453.42	23.41
453.60	131.07
453.78	77.24
453.97	51.49
454.15	42.13
454.34	86.60
454.52	102.98
454.70	49.15
454.89	32.77
455.07	32.77
455.26	56.17
455.44	0.00
455.62	32.77
455.81	53.83
455.99	23.41
456.17	37.45
456.36	35.11
456.54	56.17
456.73	56.17
456.91	84.26
457.09	58.51
457.28	51.49
457.46	65.54
457.64	95.96
457.83	100.64
458.01	60.85
458.19	49.15
458.38	0.00
458.56	16.38
458.74	128.73
458.93	30.43
459.11	51.49
459.29	44.47
459.48	14.04
459.66	35.11
459.84	25.75
460.03	60.85
460.21	23.41
460.39	7.02
460.57	49.15
460.76	14.04
460.94	35.11
461.12	112.35
461.31	102.98
461.49	81.92
461.67	0.00
461.85	23.41
462.04	0.00
462.22	133.41
462.40	28.09
462.59	58.51
462.77	70.22
462.95	119.37
463.13	70.22
463.32	112.35
463.50	119.37
463.68	46.81
463.86	72.56
464.05	37.45
464.23	70.22
464.41	32.77
464.59	74.90
464.78	39.79
464.96	63.19
465.14	56.17
465.32	28.09
465.50	37.45
465.69	67.88
465.87	98.30
466.05	51.49
466.23	74.90
466.41	74.90
466.60	0.00
466.78	0.00
466.96	42.13
467.14	11.70
467.32	0.00
467.51	23.41
467.69	32.77
467.87	58.51
468.05	0.00
468.23	65.54
468.41	42.13
468.60	39.79
468.78	35.11
468.96	117.03
469.14	65.54
469.32	77.24
469.50	21.06
469.69	0.00
469.87	9.36
470.05	30.43
470.23	32.77
470.41	0.00
470.59	93.62
470.77	81.92
470.95	0.00
471.14	93.62
471.32	114.69
471.50	105.32
471.68	67.88
471.86	142.77
472.04	39.79
472.22	77.24
472.40	0.00
472.58	14.04
472.77	88.94
472.95	16.38
473.13	56.17
473.31	49.15
473.49	74.90
473.67	117.03
473.85	81.92
474.03	25.75
474.21	30.43
474.39	107.66
474.57	30.43
474.75	133.41
474.93	121.71
475.12	79.58
475.30	95.96
475.48	49.15
475.66	70.22
475.84	67.88
476.02	74.90
476.20	119.37
476.38	51.49
476.56	114.69
476.74	65.54
476.92	105.32
477.10	65.54
477.28	124.05
477.46	70.22
477.64	65.54
477.82	93.62
478.00	16.38
478.18	65.54
478.36	102.98
478.54	84.26
478.72	65.54
478.90	53.83
479.08	117.03
479.26	60.85
479.44	117.03
479.62	63.19
479.80	28.09
479.98	128.73
480.16	131.07
480.34	44.47
480.52	28.09
480.70	100.64
480.88	100.64
481.06	28.09
481.24	88.94
481.41	72.56
481.59	42.13
481.77	30.43
481.95	56.17
482.13	51.49
482.31	72.56
482.49	49.15
482.67	0.00
482.85	117.03
483.03	140.43
483.21	53.83
483.39	42.13
483.57	88.94
483.74	56.17
483.92	53.83
484.10	117.03
484.28	53.83
484.46	114.69
484.64	28.09
484.82	126.39
485.00	28.09
485.18	44.47
485.35	9.36
485.53	93.62
485.71	0.00
485.89	32.77
486.07	98.30
486.25	39.79
486.43	77.24
486.61	35.11
486.78	46.81
486.96	63.19
487.14	140.43
487.32	65.54
487.50	79.58
487.68	44.47
487.85	42.13
488.03	124.05
488.21	4.68
488.39	91.28
488.57	79.58
488.75	63.19
488.92	102.98
489.10	72.56
489.28	79.58
489.46	60.85
489.64	65.54
489.81	42.13
489.99	51.49
490.17	107.66
490.35	119.37
490.53	77.24
490.70	18.72
490.88	63.19
491.06	112.35
491.24	131.07
491.41	35.11
491.59	56.17
491.77	84.26
491.95	65.54
492.13	105.32
492.30	98.30
492.48	63.19
492.66	140.43
492.84	95.96
493.01	74.90
493.19	58.51
493.37	65.54
493.54	14.04
493.72	65.54
493.90	142.77
494.08	72.56
494.25	44.47
494.43	140.43
494.61	81.92
494.79	110.01
494.96	110.01
495.14	81.92
495.32	58.51
495.49	53.83
495.67	102.98
495.85	65.54
496.02	126.39
496.20	37.45
496.38	154.48
496.55	46.81
496.73	102.98
496.91	77.24
497.09	74.90
497.26	56.17
497.44	16.38
497.62	70.22
497.79	0.00
497.97	72.56
498.14	98.30
498.32	133.41
498.50	112.35
498.67	77.24
498.85	95.96
499.03	16.38
499.20	0.00
499.38	9.36
499.56	58.51
499.73	35.11
499.91	77.24
500.08	105.32
500.26	100.64
500.44	163.84
500.61	35.11
500.79	77.24
500.97	107.66
501.14	49.15
501.32	81.92
501.49	126.39
501.67	112.35
501.84	74.90
502.02	51.49
502.20	138.09
502.37	74.90
502.55	107.66
502.72	170.86
502.90	112.35
503.07	81.92
503.25	72.56
503.43	107.66
503.60	49.15
503.78	65.54
503.95	58.51
504.13	105.32
504.30	86.60
504.48	86.60
504.65	105.32
504.83	4.68
505.01	28.09
505.18	126.39
505.36	91.28
505.53	0.00
505.71	88.94
505.88	25.75
506.06	35.11
506.23	65.54
506.41	42.13
506.58	135.75
506.76	95.96
506.93	86.60
507.11	70.22
507.28	88.94
507.46	72.56
507.63	56.17
507.81	95.96
507.98	60.85
508.16	93.62
508.33	102.98
508.50	63.19
508.68	4.68
508.85	56.17
509.03	67.88
509.20	95.96
509.38	58.51
509.55	152.13
509.73	23.41
509.90	102.98
510.08	86.60
510.25	23.41
510.42	105.32
510.60	74.90
510.77	117.03
510.95	95.96
511.12	110.01
511.30	58.51
511.47	46.81
511.64	79.58
511.82	84.26
511.99	46.81
512.17	77.24
512.34	51.49
512.51	14.04
512.69	110.01
512.86	35.11
513.04	42.13
513.21	60.85
513.38	93.62
513.56	84.26
513.73	63.19
513.90	105.32
514.08	77.24
514.25	79.58
514.43	112.35
514.60	124.05
514.77	77.24
514.95	98.30
515.12	84.26
515.29	44.47
515.47	46.81
515.64	0.00
515.81	72.56
515.99	117.03
516.16	121.71
516.33	46.81
516.51	100.64
516.68	37.45
516.85	77.24
517.03	126.39
517.20	28.09
517.37	110.01
517.54	65.54
517.72	126.39
517.89	74.90
518.06	84.26
518.24	100.64
518.41	105.32
518.58	84.26
518.75	91.28
518.93	152.13
519.10	58.51
519.27	44.47
519.45	189.58
519.62	95.96
519.79	84.26
519.96	102.98
520.14	140.43
520.31	131.07
520.48	63.19
520.65	35.11
520.83	23.41
521.00	102.98
521.17	53.83
521.34	65.54
521.52	79.58
521.69	107.66
521.86	110.01
522.03	121.71
522.20	49.15
522.38	53.83
522.55	51.49
522.72	119.37
522.89	100.64
523.07	105.32
523.24	70.22
523.41	0.00
523.58	28.09
523.75	105.32
523.92	74.90
524.10	182.56
524.27	114.69
524.44	72.56
524.61	149.79
524.78	147.45
524.96	145.11
525.13	53.83
525.30	84.26
525.47	70.22
525.64	210.65
525.81	117.03
525.98	81.92
526.16	117.03
526.33	100.64
526.50	79.58
526.67	98.30
526.84	86.60
527.01	102.98
527.18	42.13
527.36	135.75
527.53	180.22
527.70	98.30
527.87	91.28
528.04	128.73
528.21	42.13
528.38	140.43
528.55	126.39
528.72	124.05
528.89	107.66
529.07	81.92
529.24	133.41
529.41	128.73
529.58	32.77
529.75	112.35
529.92	88.94
530.09	56.17
530.26	110.01
530.43	63.19
530.60	18.72
530.77	93.62
530.94	166.18
531.11	72.56
531.28	28.09
531.46	121.71
531.63	39.79
531.80	0.00
531.97	149.79
532.14	95.96
532.31	46.81
532.48	60.85
532.65	131.07
532.82	98.30
532.99	63.19
533.16	145.11
533.33	18.72
533.50	88.94
533.67	138.09
533.84	77.24
534.01	72.56
534.18	72.56
534.35	65.54
534.52	37.45
534.69	121.71
534.86	70.22
535.03	79.58
535.20	86.60
535.37	70.22
535.54	88.94
535.71	56.17
535.88	110.01
536.05	133.41
536.22	84.26
536.38	79.58
536.55	39.79
536.72	135.75
536.89	131.07
537.06	53.83
537.23	91.28
537.40	93.62
537.57	39.79
537.74	21.06
537.91	119.37
538.08	100.64
538.25	121.71
538.42	70.22
538.59	131.07
538.75	72.56
538.92	65.54
539.09	72.56
539.26	56.17
539.43	102.98
539.60	140.43
539.77	30.43
539.94	25.75
540.11	35.11
540.28	51.49
540.44	91.28
540.61	105.32
540.78	65.54
540.95	112.35
541.12	56.17
541.29	102.98
541.46	142.77
541.62	21.06
541.79	21.06
541.96	102.98
542.13	67.88
542.30	154.48
542.47	159.16
542.63	93.62
542.80	2.34
542.97	95.96
543.14	107.66
543.31	117.03
543.48	60.85
543.64	112.35
543.81	102.98
543.98	100.64
544.15	95.96
544.32	11.70
544.48	79.58
544.65	88.94
544.82	88.94
544.99	163.84
545.16	67.88
545.32	98.30
545.49	119.37
545.66	88.94
545.83	98.30
546.00	86.60
546.16	39.79
546.33	72.56
546.50	112.35
546.67	114.69
546.83	23.41
547.00	30.43
547.17	49.15
547.34	107.66
547.50	86.60
547.67	67.88
547.84	88.94
548.00	131.07
548.17	67.88
548.34	77.24
548.51	145.11
548.67	53.83
548.84	149.79
549.01	117.03
549.18	25.75
549.34	86.60
549.51	86.60
549.68	60.85
549.84	117.03
550.01	84.26
550.18	58.51
550.34	21.06
550.51	70.22
550.68	70.22
550.84	100.64
551.01	56.17
551.18	98.30
551.34	95.96
551.51	67.88
551.68	65.54
551.84	77.24
552.01	140.43
552.18	91.28
552.34	84.26
552.51	107.66
552.68	60.85
552.84	98.30
553.01	86.60
553.18	105.32
553.34	133.41
553.51	60.85
553.67	95.96
553.84	102.98
554.01	79.58
554.17	100.64
554.34	58.51
554.51	65.54
554.67	161.50
554.84	84.26
555.00	161.50
555.17	79.58
555.33	74.90
555.50	81.92
555.67	93.62
555.83	67.88
556.00	105.32
556.16	102.98
556.33	93.62
556.50	98.30
556.66	84.26
556.83	110.01
556.99	126.39
557.16	105.32
557.32	112.35
557.49	88.94
557.65	32.77
557.82	95.96
557.98	114.69
558.15	63.19
558.32	77.24
558.48	124.05
558.65	81.92
558.81	95.96
558.98	77.24
559.14	70.22
559.31	91.28
559.47	95.96
559.64	70.22
559.80	95.96
559.97	86.60
560.13	140.43
560.30	112.35
560.46	56.17
560.63	105.32
560.79	65.54
560.96	81.92
561.12	30.43
561.29	93.62
561.45	72.56
561.61	65.54
561.78	107.66
561.94	37.45
562.11	25.75
562.27	53.83
562.44	91.28
562.60	95.96
562.77	95.96
562.93	67.88
563.10	58.51
563.26	91.28
563.42	72.56
563.59	100.64
563.75	56.17
563.92	140.43
564.08	86.60
564.24	112.35
564.41	74.90
564.57	117.03
564.74	121.71
564.90	37.45
565.07	86.60
565.23	124.05
565.39	72.56
565.56	67.88
565.72	112.35
565.88	58.51
566.05	56.17
566.21	18.72
566.38	88.94
566.54	121.71
566.70	46.81
566.87	102.98
567.03	49.15
567.19	21.06
567.36	91.28
567.52	86.60
567.68	53.83
567.85	58.51
568.01	93.62
568.17	51.49
568.34	102.98
568.50	102.98
568.66	95.96
568.83	86.60
568.99	93.62
569.15	79.58
569.32	32.77
569.48	56.17
569.64	126.39
569.81	28.09
569.97	72.56
570.13	63.19
570.30	98.30
570.46	49.15
570.62	173.20
570.78	121.71
570.95	98.30
571.11	117.03
571.27	133.41
571.43	128.73
571.60	42.13
571.76	84.26
571.92	131.07
572.09	21.06
572.25	81.92
572.41	16.38
572.57	95.96
572.74	72.56
572.90	147.45
573.06	32.77
573.22	145.11
573.38	35.11
573.55	35.11
573.71	168.52
573.87	170.86
574.03	98.30
574.20	32.77
574.36	107.66
574.52	46.81
574.68	58.51
574.84	81.92
575.01	35.11
575.17	25.75
575.33	39.79
575.49	0.00
575.65	110.01
575.82	77.24
575.98	112.35
576.14	23.41
576.30	65.54
576.46	95.96
576.62	51.49
576.79	91.28
576.95	65.54
577.11	81.92
577.27	138.09
577.43	63.19
577.59	53.83
577.75	86.60
577.92	60.85
578.08	154.48
578.24	0.00
578.40	74.90
578.56	105.32
578.72	121.71
578.88	102.98
579.04	28.09
579.21	60.85
579.37	88.94
579.53	149.79
579.69	60.85
579.85	58.51
580.01	65.54
580.17	60.85
580.33	102.98
580.49	51.49
580.65	140.43
580.82	91.28
580.98	42.13
581.14	135.75
581.30	93.62
581.46	91.28
581.62	53.83
581.78	105.32
581.94	70.22
582.10	58.51
582.26	49.15
582.42	121.71
582.58	37.45
582.74	86.60
582.90	58.51
583.06	32.77
583.22	135.75
583.38	37.45
583.54	46.81
583.70	163.84
583.86	74.90
584.02	86.60
584.18	39.79
584.34	70.22
584.50	70.22
584.66	77.24
584.82	25.75
584.98	0.00
585.14	84.26
585.30	70.22
585.46	0.00
585.62	63.19
585.78	49.15
585.94	131.07
586.10	105.32
586.26	145.11
586.42	0.00
586.58	60.85
586.74	70.22
586.90	72.56
587.06	74.90
587.22	65.54
587.38	42.13
587.54	30.43
587.70	79.58
587.86	39.79
588.02	49.15
588.18	58.51
588.34	51.49
588.49	44.47
588.65	72.56
588.81	65.54
588.97	81.92
589.13	37.45
589.29	16.38
589.45	56.17
589.61	65.54
589.77	65.54
589.93	72.56
590.08	70.22
590.24	37.45
590.40	51.49
590.56	79.58
590.72	84.26
590.88	100.64
591.04	100.64
591.20	39.79
591.35	49.15
591.51	88.94
591.67	23.41
591.83	77.24
591.99	53.83
592.15	53.83
592.31	88.94
592.46	114.69
592.62	63.19
592.78	44.47
592.94	44.47
593.10	42.13
593.26	88.94
593.41	30.43
593.57	110.01
593.73	102.98
593.89	91.28
594.05	0.00
594.20	32.77
594.36	72.56
594.52	100.64
594.68	86.60
594.84	25.75
594.99	114.69
595.15	79.58
595.31	30.43
595.47	60.85
595.62	79.58
595.78	56.17
595.94	168.52
596.10	28.09
596.25	74.90
596.41	140.43
596.57	32.77
596.73	39.79
596.88	18.72
597.04	9.36
597.20	7.02
597.36	51.49
597.51	88.94
597.67	84.26
597.83	81.92
597.99	46.81
598.14	56.17
598.30	16.38
598.46	84.26
598.61	100.64
598.77	119.37
598.93	72.56
599.09	51.49
599.24	44.47
599.40	110.01
599.56	67.88
599.71	74.90
599.87	114.69
600.03	105.32
600.18	112.35
600.34	44.47
600.50	77.24
600.65	100.64
600.81	63.19
600.97	44.47
601.12	88.94
601.28	128.73
601.44	58.51
601.59	0.00
601.75	95.96
601.91	65.54
602.06	110.01
602.22	58.51
602.37	84.26
602.53	100.64
602.69	91.28
602.84	91.28
603.00	23.41
603.16	37.45
603.31	56.17
603.47	46.81
603.62	70.22
603.78	102.98
603.94	72.56
604.09	37.45
604.25	84.26
604.40	72.56
604.56	98.30
604.71	91.28
604.87	100.64
605.03	32.77
605.18	49.15
605.34	67.88
605.49	112.35
605.65	70.22
605.80	30.43
605.96	53.83
606.12	86.60
606.27	79.58
606.43	53.83
606.58	51.49
606.74	110.01
606.89	84.26
607.05	65.54
607.20	7.02
607.36	63.19
607.51	23.41
607.67	65.54
607.82	131.07
607.98	37.45
608.13	79.58
608.29	58.51
608.44	46.81
608.60	84.26
608.75	91.28
608.91	32.77
609.06	39.79
609.22	37.45
609.37	49.15
609.53	72.56
609.68	46.81
609.84	0.00
609.99	25.75
610.15	86.60
610.30	81.92
610.46	42.13
610.61	35.11
610.76	86.60
610.92	65.54
611.07	49.15
611.23	44.47
611.38	81.92
611.54	72.56
611.69	95.96
611.84	37.45
612.00	77.24
612.15	72.56
612.31	63.19
612.46	112.35
612.62	60.85
612.77	18.72
612.92	42.13
613.08	58.51
613.23	51.49
613.39	4.68
613.54	145.11
613.69	79.58
613.85	63.19
614.00	117.03
614.15	0.00
614.31	60.85
614.46	98.30
614.62	110.01
614.77	70.22
614.92	72.56
615.08	65.54
615.23	112.35
615.38	70.22
615.54	88.94
615.69	7.02
615.84	107.66
616.00	117.03
616.15	79.58
616.30	42.13
616.46	0.00
616.61	30.43
616.76	35.11
616.92	56.17
617.07	88.94
617.22	51.49
617.37	100.64
617.53	46.81
617.68	58.51
617.83	77.24
617.99	95.96
618.14	74.90
618.29	21.06
618.45	42.13
618.60	49.15
618.75	53.83
618.90	46.81
619.06	98.30
619.21	56.17
619.36	37.45
619.51	60.85
619.67	49.15
619.82	114.69
619.97	28.09
620.12	46.81
620.28	42.13
620.43	56.17
620.58	86.60
620.73	30.43
620.89	49.15
621.04	117.03
621.19	81.92
621.34	126.39
621.49	65.54
621.65	11.70
621.80	88.94
621.95	7.02
622.10	23.41
622.25	51.49
622.41	93.62
622.56	70.22
622.71	86.60
622.86	72.56
623.01	74.90
623.16	79.58
623.32	14.04
623.47	180.22
623.62	77.24
623.77	30.43
623.92	46.81
624.07	56.17
624.23	63.19
624.38	81.92
624.53	0.00
624.68	37.45
624.83	63.19
624.98	32.77
625.13	86.60
625.29	60.85
625.44	32.77
625.59	18.72
625.74	49.15
625.89	128.73
626.04	16.38
626.19	2.34
626.34	98.30
626.49	60.85
626.65	32.77
626.80	84.26
626.95	201.29
627.10	60.85
627.25	65.54
627.40	0.00
627.55	11.70
627.70	16.38
627.85	95.96
628.00	86.60
628.15	18.72
628.30	53.83
628.45	0.00
628.60	51.49
628.76	79.58
628.91	0.00
629.06	51.49
629.21	65.54
629.36	60.85
629.51	63.19
629.66	39.79
629.81	32.77
629.96	46.81
630.11	77.24
630.26	79.58
630.41	0.00
630.56	28.09
630.71	32.77
630.86	84.26
631.01	72.56
631.16	51.49
631.31	72.56
631.46	51.49
631.61	58.51
631.76	35.11
631.91	32.77
632.06	0.00
632.21	72.56
632.36	23.41
632.51	72.56
632.66	28.09
632.81	70.22
632.96	72.56
633.10	67.88
633.25	56.17
633.40	37.45
633.55	93.62
633.70	49.15
633.85	21.06
634.00	81.92
634.15	44.47
634.30	0.00
634.45	65.54
634.60	37.45
634.75	88.94
634.90	46.81
635.05	133.41
635.19	0.00
635.34	145.11
635.49	53.83
635.64	74.90
635.79	60.85
635.94	91.28
636.09	149.79
636.24	58.51
636.39	81.92
636.53	56.17
636.68	58.51
636.83	56.17
636.98	79.58
637.13	114.69
637.28	0.00
637.43	161.50
637.57	37.45
637.72	51.49
637.87	86.60
638.02	74.90
638.17	77.24
638.32	53.83
638.46	72.56
638.61	84.26
638.76	128.73
638.91	46.81
639.06	72.56
639.20	91.28
639.35	63.19
639.50	39.79
639.65	102.98
639.80	53.83
639.94	100.64
640.09	67.88
640.24	58.51
640.39	81.92
640.54	0.00
640.68	65.54
640.83	11.70
640.98	93.62
641.13	60.85
641.27	119.37
641.42	53.83
641.57	67.88
641.72	72.56
641.86	23.41
642.01	114.69
642.16	46.81
642.31	60.85
642.45	72.56
642.60	95.96
642.75	107.66
642.90	25.75
643.04	91.28
643.19	70.22
643.34	7.02
643.48	70.22
643.63	14.04
643.78	53.83
643.93	117.03
644.07	72.56
644.22	39.79
644.37	28.09
644.51	46.81
644.66	79.58
644.81	56.17
644.95	46.81
645.10	0.00
645.25	44.47
645.39	14.04
645.54	74.90
645.69	70.22
645.83	131.07
645.98	72.56
646.13	70.22
646.27	86.60
646.42	21.06
646.57	98.30
646.71	88.94
646.86	35.11
647.00	114.69
647.15	95.96
647.30	60.85
647.44	23.41
647.59	58.51
647.74	39.79
647.88	102.98
648.03	23.41
648.17	70.22
648.32	0.00
648.47	25.75
648.61	35.11
648.76	70.22
648.90	84.26
649.05	72.56
649.20	53.83
649.34	0.00
649.49	60.85
649.63	128.73
649.78	117.03
649.92	42.13
650.07	46.81
650.21	63.19
650.36	63.19
650.51	0.00
650.65	21.06
650.80	124.05
650.94	70.22
651.09	14.04
651.23	74.90
651.38	23.41
651.52	67.88
651.67	74.90
651.81	21.06
651.96	112.35
652.10	39.79
652.25	21.06
652.39	4.68
652.54	91.28
652.68	2.34
652.83	98.30
652.97	49.15
653.12	7.02
653.26	11.70
653.41	81.92
653.55	128.73
653.70	37.45
653.84	4.68
653.99	32.77
654.13	0.00
654.27	84.26
654.42	2.34
654.56	39.79
654.71	49.15
654.85	25.75
655.00	46.81
655.14	42.13
655.29	14.04
655.43	11.70
655.57	23.41
655.72	51.49
655.86	65.54
656.01	91.28
656.15	7.02
656.30	72.56
656.44	0.00
656.58	65.54
656.73	58.51
656.87	37.45
657.01	0.00
657.16	14.04
657.30	0.00
657.45	105.32
657.59	21.06
657.73	63.19
657.88	39.79
658.02	28.09
658.16	81.92
658.31	63.19
658.45	70.22
658.60	11.70
658.74	93.62
658.88	72.56
659.03	0.00
659.17	0.00
659.31	23.41
659.46	51.49
659.60	86.60
659.74	100.64
659.89	23.41
660.03	67.88
660.17	11.70
660.32	126.39
660.46	56.17
660.60	0.00
660.74	70.22
660.89	56.17
661.03	93.62
661.17	107.66
661.32	107.66
661.46	0.00
661.60	63.19
661.74	35.11
661.89	124.05
662.03	2.34
662.17	0.00
662.31	79.58
662.46	70.22
662.60	60.85
662.74	65.54
662.88	32.77
663.03	35.11
663.17	0.00
663.31	2.34
663.45	51.49
663.60	93.62
663.74	98.30
663.88	16.38
664.02	58.51
664.17	2.34
664.31	0.00
664.45	67.88
664.59	51.49
664.73	107.66
664.88	58.51
665.02	53.83
665.16	117.03
665.30	117.03
665.44	53.83
665.59	11.70
665.73	51.49
665.87	42.13
666.01	53.83
666.15	102.98
666.29	51.49
666.44	14.04
666.58	51.49
666.72	86.60
666.86	56.17
667.00	88.94
667.14	100.64
667.28	0.00
667.43	49.15
667.57	28.09
667.71	58.51
667.85	21.06
667.99	67.88
668.13	60.85
668.27	56.17
668.41	140.43
668.56	44.47
668.70	58.51
668.84	98.30
668.98	60.85
669.12	79.58
669.26	79.58
669.40	119.37
669.54	53.83
669.68	39.79
669.82	77.24
669.96	58.51
670.10	74.90
670.25	49.15
670.39	35.11
670.53	93.62
670.67	102.98
670.81	51.49
670.95	42.13
671.09	51.49
671.23	25.75
671.37	79.58
671.51	37.45
671.65	49.15
671.79	124.05
671.93	25.75
672.07	28.09
672.21	91.28
672.35	56.17
672.49	60.85
672.63	56.17
672.77	37.45
672.91	42.13
673.05	46.81
673.19	98.30
673.33	91.28
673.47	49.15
673.61	14.04
673.75	91.28
673.89	70.22
674.03	95.96
674.17	72.56
674.31	46.81
674.45	72.56
674.59	14.04
674.73	11.70
674.87	53.83
675.01	67.88
675.15	39.79
675.29	0.00
675.43	53.83
675.56	46.81
675.70	65.54
675.84	21.06
675.98	53.83
676.12	35.11
676.26	0.00
676.40	102.98
676.54	107.66
676.68	0.00
676.82	0.00
676.96	91.28
677.10	105.32
677.23	46.81
677.37	58.51
677.51	91.28
677.65	49.15
677.79	14.04
677.93	63.19
678.07	23.41
678.21	84.26
678.34	79.58
678.48	77.24
678.62	95.96
678.76	49.15
678.90	23.41
679.04	46.81
679.18	63.19
679.31	81.92
679.45	21.06
679.59	28.09
679.73	49.15
679.87	9.36
680.00	72.56
680.14	51.49
680.28	63.19
680.42	110.01
680.56	81.92
680.70	28.09
680.83	79.58
680.97	4.68
681.11	37.45
681.25	32.77
681.39	42.13
681.52	79.58
681.66	35.11
681.80	105.32
681.94	18.72
682.07	23.41
682.21	49.15
682.35	0.00
682.49	0.00
682.62	56.17
682.76	93.62
682.90	58.51
683.04	16.38
683.17	51.49
683.31	56.17
683.45	16.38
683.59	126.39
683.72	39.79
683.86	0.00
684.00	53.83
684.13	23.41
684.27	93.62
684.41	70.22
684.55	79.58
684.68	39.79
684.82	58.51
684.96	79.58
685.09	35.11
685.23	7.02
685.37	91.28
685.50	60.85
685.64	11.70
685.78	42.13
685.91	0.00
686.05	63.19
686.19	58.51
686.32	81.92
686.46	147.45
686.60	28.09
686.73	0.00
686.87	28.09
687.01	0.00
687.14	14.04
687.28	126.39
687.42	70.22
687.55	25.75
687.69	53.83
687.82	0.00
687.96	16.38
688.10	58.51
688.23	23.41
688.37	79.58
688.50	58.51
688.64	39.79
688.78	39.79
688.91	18.72
689.05	39.79
689.18	63.19
689.32	117.03
689.46	42.13
689.59	21.06
689.73	49.15
689.86	4.68
690.00	0.00
690.13	65.54
690.27	0.00
690.41	88.94
690.54	49.15
690.68	67.88
690.81	51.49
690.95	14.04
691.08	35.11
691.22	18.72
691.35	0.00
691.49	0.00
691.62	53.83
691.76	98.30
691.89	81.92
692.03	28.09
692.16	53.83
692.30	11.70
692.43	53.83
692.57	30.43
692.70	9.36
692.84	32.77
692.97	14.04
693.11	53.83
693.24	35.11
693.38	46.81
693.51	35.11
693.65	14.04
693.78	63.19
693.92	7.02
694.05	49.15
694.19	112.35
694.32	49.15
694.45	0.00
694.59	60.85
694.72	9.36
694.86	0.00
694.99	25.75
695.13	23.41
695.26	0.00
695.39	51.49
695.53	32.77
695.66	72.56
695.80	28.09
695.93	86.60
696.07	63.19
696.20	39.79
696.33	63.19
696.47	4.68
696.60	58.51
696.73	93.62
696.87	74.90
697.00	65.54
697.14	70.22
697.27	0.00
697.40	79.58
697.54	152.13
697.67	49.15
697.80	42.13
697.94	117.03
698.07	0.00
698.21	53.83
698.34	0.00
698.47	37.45
698.61	44.47
698.74	119.37
698.87	32.77
699.01	23.41
699.14	25.75
699.27	0.00
699.40	84.26
699.54	42.13
699.67	0.00
699.80	0.00
699.94	60.85
700.07	0.00
700.20	44.47
700.34	74.90
700.47	30.43
700.60	7.02
700.73	46.81
700.87	79.58
701.00	0.00
701.13	88.94
701.26	63.19
701.40	60.85
701.53	4.68
701.66	110.01
701.79	72.56
701.93	65.54
702.06	70.22
702.19	7.02
702.32	4.68
702.46	119.37
702.59	77.24
702.72	65.54
702.85	0.00
702.99	9.36
703.12	63.19
703.25	18.72
703.38	11.70
703.51	37.45
703.65	88.94
703.78	58.51
703.91	37.45
704.04	128.73
704.17	25.75
704.31	14.04
704.44	63.19
704.57	18.72
704.70	39.79
704.83	32.77
704.96	102.98
705.10	72.56
705.23	21.06
>>>>>End Processed Spectral Data<<<<<
