SpectraSuite Data File
++++++++++++++++++++++++++++++++++++
Date: Fri Oct 04 12:13:39 GMT-05:00 2013
User: price-jones
Dark Spectrum Present: No
Reference Spectrum Present: No
Number of Sampled Component Spectra: 1
Spectrometers: USB2+H05261
Integration Time (usec): 10000 (USB2+H05261)
Spectra Averaged: 1 (USB2+H05261)
Boxcar Smoothing: 0 (USB2+H05261)
Correct for Electrical Dark: No (USB2+H05261)
Strobe/Lamp Enabled: No (USB2+H05261)
Correct for Detector Non-linearity: No (USB2+H05261)
Correct for Stray Light: No (USB2+H05261)
Number of Pixels in Processed Spectrum: 2048
>>>>>Begin Processed Spectral Data<<<<<
365.73	0.00
365.92	0.00
366.12	0.00
366.32	0.00
366.52	0.00
366.72	0.00
366.91	0.00
367.11	0.00
367.31	0.00
367.51	0.00
367.70	0.00
367.90	0.00
368.10	0.00
368.30	0.00
368.49	0.00
368.69	0.00
368.89	0.00
369.09	0.00
369.28	0.00
369.48	0.00
369.68	0.00
369.87	0.00
370.07	0.00
370.27	0.00
370.47	0.00
370.66	0.00
370.86	0.00
371.06	30.43
371.25	4.68
371.45	0.00
371.65	2.34
371.84	0.00
372.04	0.00
372.24	86.60
372.44	0.00
372.63	14.04
372.83	0.00
373.03	84.26
373.22	39.79
373.42	21.06
373.62	79.58
373.81	72.56
374.01	0.00
374.21	25.75
374.40	14.04
374.60	32.77
374.79	65.54
374.99	37.45
375.19	11.70
375.38	58.51
375.58	0.00
375.78	42.13
375.97	91.28
376.17	32.77
376.37	74.90
376.56	35.11
376.76	51.49
376.95	107.66
377.15	0.00
377.35	18.72
377.54	16.38
377.74	0.00
377.93	11.70
378.13	11.70
378.33	9.36
378.52	7.02
378.72	65.54
378.91	60.85
379.11	44.47
379.31	67.88
379.50	11.70
379.70	63.19
379.89	21.06
380.09	42.13
380.28	46.81
380.48	30.43
380.68	70.22
380.87	9.36
381.07	14.04
381.26	0.00
381.46	51.49
381.65	0.00
381.85	0.00
382.04	2.34
382.24	0.00
382.43	18.72
382.63	4.68
382.83	39.79
383.02	0.00
383.22	42.13
383.41	0.00
383.61	2.34
383.80	0.00
384.00	0.00
384.19	93.62
384.39	42.13
384.58	9.36
384.78	32.77
384.97	56.17
385.17	72.56
385.36	65.54
385.56	0.00
385.75	44.47
385.95	0.00
386.14	32.77
386.34	0.00
386.53	0.00
386.72	0.00
386.92	0.00
387.11	72.56
387.31	51.49
387.50	39.79
387.70	35.11
387.89	46.81
388.09	30.43
388.28	30.43
388.48	11.70
388.67	37.45
388.86	0.00
389.06	65.54
389.25	42.13
389.45	4.68
389.64	42.13
389.84	7.02
390.03	0.00
390.22	0.00
390.42	0.00
390.61	0.00
390.81	0.00
391.00	63.19
391.19	21.06
391.39	81.92
391.58	4.68
391.78	0.00
391.97	35.11
392.16	58.51
392.36	42.13
392.55	58.51
392.75	42.13
392.94	67.88
393.13	30.43
393.33	39.79
393.52	11.70
393.71	32.77
393.91	65.54
394.10	42.13
394.29	14.04
394.49	39.79
394.68	7.02
394.88	21.06
395.07	11.70
395.26	63.19
395.46	70.22
395.65	42.13
395.84	98.30
396.04	44.47
396.23	35.11
396.42	0.00
396.62	9.36
396.81	81.92
397.00	0.00
397.19	0.00
397.39	39.79
397.58	56.17
397.77	46.81
397.97	25.75
398.16	65.54
398.35	70.22
398.55	7.02
398.74	77.24
398.93	4.68
399.12	0.00
399.32	42.13
399.51	0.00
399.70	7.02
399.90	0.00
400.09	0.00
400.28	110.01
400.47	37.45
400.67	39.79
400.86	25.75
401.05	42.13
401.24	0.00
401.44	18.72
401.63	23.41
401.82	86.60
402.01	0.00
402.21	30.43
402.40	53.83
402.59	16.38
402.78	65.54
402.97	63.19
403.17	0.00
403.36	0.00
403.55	51.49
403.74	14.04
403.93	30.43
404.13	77.24
404.32	39.79
404.51	56.17
404.70	37.45
404.89	11.70
405.09	79.58
405.28	37.45
405.47	72.56
405.66	4.68
405.85	44.47
406.05	0.00
406.24	65.54
406.43	9.36
406.62	28.09
406.81	72.56
407.00	0.00
407.20	46.81
407.39	37.45
407.58	63.19
407.77	11.70
407.96	9.36
408.15	0.00
408.34	35.11
408.54	11.70
408.73	42.13
408.92	81.92
409.11	16.38
409.30	42.13
409.49	0.00
409.68	16.38
409.87	0.00
410.07	16.38
410.26	107.66
410.45	0.00
410.64	0.00
410.83	84.26
411.02	2.34
411.21	9.36
411.40	14.04
411.59	46.81
411.78	37.45
411.98	39.79
412.17	126.39
412.36	7.02
412.55	37.45
412.74	11.70
412.93	56.17
413.12	0.00
413.31	49.15
413.50	9.36
413.69	0.00
413.88	2.34
414.07	72.56
414.26	35.11
414.45	28.09
414.64	63.19
414.83	88.94
415.02	32.77
415.22	51.49
415.41	86.60
415.60	37.45
415.79	14.04
415.98	21.06
416.17	49.15
416.36	16.38
416.55	0.00
416.74	0.00
416.93	77.24
417.12	42.13
417.31	0.00
417.50	18.72
417.69	58.51
417.88	67.88
418.07	16.38
418.26	30.43
418.45	11.70
418.64	42.13
418.83	42.13
419.02	14.04
419.21	28.09
419.39	60.85
419.58	58.51
419.77	56.17
419.96	51.49
420.15	11.70
420.34	37.45
420.53	72.56
420.72	28.09
420.91	30.43
421.10	112.35
421.29	77.24
421.48	58.51
421.67	21.06
421.86	0.00
422.05	53.83
422.24	37.45
422.43	11.70
422.61	0.00
422.80	0.00
422.99	9.36
423.18	0.00
423.37	37.45
423.56	46.81
423.75	9.36
423.94	63.19
424.13	7.02
424.32	44.47
424.50	0.00
424.69	32.77
424.88	93.62
425.07	93.62
425.26	60.85
425.45	100.64
425.64	0.00
425.83	53.83
426.01	25.75
426.20	51.49
426.39	28.09
426.58	4.68
426.77	28.09
426.96	7.02
427.15	56.17
427.33	63.19
427.52	7.02
427.71	81.92
427.90	32.77
428.09	72.56
428.28	49.15
428.46	58.51
428.65	93.62
428.84	81.92
429.03	51.49
429.22	84.26
429.40	63.19
429.59	65.54
429.78	11.70
429.97	23.41
430.16	18.72
430.34	37.45
430.53	0.00
430.72	51.49
430.91	7.02
431.10	30.43
431.28	53.83
431.47	63.19
431.66	117.03
431.85	102.98
432.03	16.38
432.22	37.45
432.41	4.68
432.60	95.96
432.79	84.26
432.97	4.68
433.16	21.06
433.35	35.11
433.54	74.90
433.72	35.11
433.91	0.00
434.10	49.15
434.28	49.15
434.47	84.26
434.66	0.00
434.85	18.72
435.03	84.26
435.22	0.00
435.41	44.47
435.59	72.56
435.78	117.03
435.97	0.00
436.16	58.51
436.34	156.82
436.53	56.17
436.72	16.38
436.90	53.83
437.09	44.47
437.28	37.45
437.46	72.56
437.65	21.06
437.84	74.90
438.02	53.83
438.21	51.49
438.40	128.73
438.58	91.28
438.77	28.09
438.96	112.35
439.14	23.41
439.33	88.94
439.52	86.60
439.70	42.13
439.89	72.56
440.08	28.09
440.26	4.68
440.45	35.11
440.63	51.49
440.82	105.32
441.01	74.90
441.19	88.94
441.38	53.83
441.57	0.00
441.75	93.62
441.94	58.51
442.12	72.56
442.31	35.11
442.50	25.75
442.68	60.85
442.87	63.19
443.05	44.47
443.24	23.41
443.43	74.90
443.61	63.19
443.80	11.70
443.98	42.13
444.17	25.75
444.35	28.09
444.54	14.04
444.73	16.38
444.91	18.72
445.10	49.15
445.28	81.92
445.47	28.09
445.65	35.11
445.84	0.00
446.02	42.13
446.21	74.90
446.39	124.05
446.58	119.37
446.77	30.43
446.95	14.04
447.14	9.36
447.32	39.79
447.51	0.00
447.69	65.54
447.88	86.60
448.06	56.17
448.25	74.90
448.43	72.56
448.62	67.88
448.80	60.85
448.99	51.49
449.17	58.51
449.36	18.72
449.54	67.88
449.73	32.77
449.91	28.09
450.10	67.88
450.28	91.28
450.46	30.43
450.65	46.81
450.83	0.00
451.02	98.30
451.20	72.56
451.39	74.90
451.57	32.77
451.76	88.94
451.94	2.34
452.13	88.94
452.31	39.79
452.49	21.06
452.68	35.11
452.86	35.11
453.05	119.37
453.23	46.81
453.42	9.36
453.60	128.73
453.78	25.75
453.97	88.94
454.15	105.32
454.34	53.83
454.52	23.41
454.70	23.41
454.89	0.00
455.07	72.56
455.26	91.28
455.44	0.00
455.62	16.38
455.81	79.58
455.99	91.28
456.17	30.43
456.36	84.26
456.54	93.62
456.73	70.22
456.91	32.77
457.09	53.83
457.28	39.79
457.46	0.00
457.64	77.24
457.83	49.15
458.01	58.51
458.19	60.85
458.38	110.01
458.56	4.68
458.74	25.75
458.93	21.06
459.11	32.77
459.29	51.49
459.48	51.49
459.66	4.68
459.84	44.47
460.03	79.58
460.21	63.19
460.39	72.56
460.57	65.54
460.76	14.04
460.94	79.58
461.12	0.00
461.31	60.85
461.49	39.79
461.67	28.09
461.85	21.06
462.04	60.85
462.22	170.86
462.40	112.35
462.59	11.70
462.77	11.70
462.95	74.90
463.13	39.79
463.32	39.79
463.50	77.24
463.68	25.75
463.86	2.34
464.05	142.77
464.23	77.24
464.41	42.13
464.59	63.19
464.78	81.92
464.96	72.56
465.14	46.81
465.32	23.41
465.50	154.48
465.69	84.26
465.87	102.98
466.05	14.04
466.23	21.06
466.41	0.00
466.60	67.88
466.78	72.56
466.96	93.62
467.14	46.81
467.32	0.00
467.51	37.45
467.69	44.47
467.87	70.22
468.05	65.54
468.23	117.03
468.41	28.09
468.60	58.51
468.78	58.51
468.96	56.17
469.14	93.62
469.32	67.88
469.50	110.01
469.69	74.90
469.87	72.56
470.05	114.69
470.23	51.49
470.41	0.00
470.59	58.51
470.77	88.94
470.95	60.85
471.14	53.83
471.32	112.35
471.50	105.32
471.68	23.41
471.86	0.00
472.04	32.77
472.22	35.11
472.40	93.62
472.58	39.79
472.77	0.00
472.95	23.41
473.13	100.64
473.31	21.06
473.49	72.56
473.67	0.00
473.85	86.60
474.03	2.34
474.21	0.00
474.39	152.13
474.57	77.24
474.75	0.00
474.93	51.49
475.12	51.49
475.30	11.70
475.48	30.43
475.66	39.79
475.84	67.88
476.02	32.77
476.20	9.36
476.38	81.92
476.56	32.77
476.74	4.68
476.92	63.19
477.10	93.62
477.28	53.83
477.46	32.77
477.64	49.15
477.82	65.54
478.00	51.49
478.18	11.70
478.36	49.15
478.54	74.90
478.72	35.11
478.90	91.28
479.08	65.54
479.26	28.09
479.44	0.00
479.62	102.98
479.80	86.60
479.98	88.94
480.16	91.28
480.34	56.17
480.52	58.51
480.70	86.60
480.88	105.32
481.06	74.90
481.24	72.56
481.41	100.64
481.59	84.26
481.77	37.45
481.95	53.83
482.13	133.41
482.31	37.45
482.49	37.45
482.67	74.90
482.85	51.49
483.03	86.60
483.21	46.81
483.39	102.98
483.57	79.58
483.74	77.24
483.92	42.13
484.10	25.75
484.28	30.43
484.46	81.92
484.64	51.49
484.82	65.54
485.00	65.54
485.18	79.58
485.35	25.75
485.53	0.00
485.71	100.64
485.89	65.54
486.07	56.17
486.25	4.68
486.43	77.24
486.61	63.19
486.78	79.58
486.96	121.71
487.14	53.83
487.32	65.54
487.50	0.00
487.68	44.47
487.85	95.96
488.03	63.19
488.21	65.54
488.39	98.30
488.57	112.35
488.75	168.52
488.92	142.77
489.10	25.75
489.28	110.01
489.46	72.56
489.64	84.26
489.81	60.85
489.99	65.54
490.17	95.96
490.35	35.11
490.53	72.56
490.70	18.72
490.88	49.15
491.06	81.92
491.24	95.96
491.41	88.94
491.59	74.90
491.77	102.98
491.95	70.22
492.13	0.00
492.30	67.88
492.48	107.66
492.66	58.51
492.84	133.41
493.01	23.41
493.19	81.92
493.37	121.71
493.54	74.90
493.72	95.96
493.90	70.22
494.08	74.90
494.25	11.70
494.43	46.81
494.61	91.28
494.79	86.60
494.96	11.70
495.14	23.41
495.32	77.24
495.49	88.94
495.67	79.58
495.85	88.94
496.02	77.24
496.20	63.19
496.38	4.68
496.55	135.75
496.73	138.09
496.91	28.09
497.09	35.11
497.26	28.09
497.44	63.19
497.62	88.94
497.79	117.03
497.97	60.85
498.14	102.98
498.32	88.94
498.50	100.64
498.67	46.81
498.85	30.43
499.03	49.15
499.20	93.62
499.38	95.96
499.56	77.24
499.73	117.03
499.91	93.62
500.08	131.07
500.26	95.96
500.44	58.51
500.61	44.47
500.79	102.98
500.97	126.39
501.14	105.32
501.32	72.56
501.49	0.00
501.67	56.17
501.84	124.05
502.02	95.96
502.20	60.85
502.37	112.35
502.55	102.98
502.72	107.66
502.90	0.00
503.07	51.49
503.25	67.88
503.43	70.22
503.60	86.60
503.78	49.15
503.95	95.96
504.13	110.01
504.30	114.69
504.48	98.30
504.65	114.69
504.83	107.66
505.01	30.43
505.18	107.66
505.36	53.83
505.53	79.58
505.71	70.22
505.88	121.71
506.06	53.83
506.23	117.03
506.41	107.66
506.58	135.75
506.76	114.69
506.93	126.39
507.11	53.83
507.28	112.35
507.46	25.75
507.63	140.43
507.81	70.22
507.98	60.85
508.16	25.75
508.33	46.81
508.50	98.30
508.68	145.11
508.85	114.69
509.03	86.60
509.20	145.11
509.38	46.81
509.55	63.19
509.73	39.79
509.90	147.45
510.08	102.98
510.25	114.69
510.42	93.62
510.60	39.79
510.77	9.36
510.95	81.92
511.12	81.92
511.30	53.83
511.47	67.88
511.64	46.81
511.82	107.66
511.99	152.13
512.17	95.96
512.34	37.45
512.51	77.24
512.69	28.09
512.86	72.56
513.04	23.41
513.21	93.62
513.38	74.90
513.56	58.51
513.73	91.28
513.90	133.41
514.08	65.54
514.25	65.54
514.43	74.90
514.60	79.58
514.77	35.11
514.95	77.24
515.12	42.13
515.29	65.54
515.47	88.94
515.64	9.36
515.81	93.62
515.99	114.69
516.16	58.51
516.33	28.09
516.51	39.79
516.68	72.56
516.85	88.94
517.03	105.32
517.20	51.49
517.37	102.98
517.54	95.96
517.72	79.58
517.89	42.13
518.06	79.58
518.24	39.79
518.41	49.15
518.58	152.13
518.75	49.15
518.93	93.62
519.10	70.22
519.27	14.04
519.45	163.84
519.62	14.04
519.79	67.88
519.96	102.98
520.14	53.83
520.31	126.39
520.48	74.90
520.65	56.17
520.83	81.92
521.00	117.03
521.17	30.43
521.34	51.49
521.52	0.00
521.69	81.92
521.86	114.69
522.03	25.75
522.20	39.79
522.38	149.79
522.55	51.49
522.72	49.15
522.89	145.11
523.07	65.54
523.24	42.13
523.41	79.58
523.58	51.49
523.75	28.09
523.92	98.30
524.10	140.43
524.27	112.35
524.44	37.45
524.61	124.05
524.78	60.85
524.96	86.60
525.13	102.98
525.30	138.09
525.47	16.38
525.64	60.85
525.81	142.77
525.98	81.92
526.16	140.43
526.33	110.01
526.50	28.09
526.67	51.49
526.84	149.79
527.01	102.98
527.18	88.94
527.36	131.07
527.53	161.50
527.70	81.92
527.87	86.60
528.04	77.24
528.21	168.52
528.38	131.07
528.55	135.75
528.72	102.98
528.89	81.92
529.07	30.43
529.24	37.45
529.41	88.94
529.58	91.28
529.75	67.88
529.92	107.66
530.09	102.98
530.26	84.26
530.43	58.51
530.60	133.41
530.77	112.35
530.94	53.83
531.11	112.35
531.28	51.49
531.46	30.43
531.63	126.39
531.80	91.28
531.97	95.96
532.14	93.62
532.31	119.37
532.48	98.30
532.65	112.35
532.82	53.83
532.99	58.51
533.16	74.90
533.33	133.41
533.50	95.96
533.67	70.22
533.84	70.22
534.01	88.94
534.18	77.24
534.35	60.85
534.52	72.56
534.69	86.60
534.86	70.22
535.03	70.22
535.20	105.32
535.37	91.28
535.54	70.22
535.71	95.96
535.88	131.07
536.05	149.79
536.22	112.35
536.38	110.01
536.55	124.05
536.72	131.07
536.89	105.32
537.06	128.73
537.23	93.62
537.40	63.19
537.57	81.92
537.74	126.39
537.91	16.38
538.08	93.62
538.25	133.41
538.42	133.41
538.59	37.45
538.75	91.28
538.92	112.35
539.09	112.35
539.26	105.32
539.43	60.85
539.60	145.11
539.77	53.83
539.94	42.13
540.11	88.94
540.28	65.54
540.44	21.06
540.61	0.00
540.78	142.77
540.95	138.09
541.12	98.30
541.29	0.00
541.46	88.94
541.62	81.92
541.79	145.11
541.96	0.00
542.13	25.75
542.30	135.75
542.47	114.69
542.63	65.54
542.80	86.60
542.97	63.19
543.14	102.98
543.31	128.73
543.48	56.17
543.64	30.43
543.81	44.47
543.98	63.19
544.15	91.28
544.32	128.73
544.48	30.43
544.65	18.72
544.82	46.81
544.99	84.26
545.16	65.54
545.32	98.30
545.49	117.03
545.66	124.05
545.83	14.04
546.00	16.38
546.16	77.24
546.33	79.58
546.50	112.35
546.67	53.83
546.83	117.03
547.00	23.41
547.17	56.17
547.34	93.62
547.50	56.17
547.67	63.19
547.84	81.92
548.00	110.01
548.17	117.03
548.34	74.90
548.51	145.11
548.67	86.60
548.84	95.96
549.01	124.05
549.18	0.00
549.34	84.26
549.51	98.30
549.68	72.56
549.84	121.71
550.01	117.03
550.18	91.28
550.34	138.09
550.51	37.45
550.68	102.98
550.84	37.45
551.01	86.60
551.18	63.19
551.34	0.00
551.51	79.58
551.68	28.09
551.84	60.85
552.01	67.88
552.18	56.17
552.34	107.66
552.51	133.41
552.68	91.28
552.84	14.04
553.01	18.72
553.18	74.90
553.34	88.94
553.51	135.75
553.67	126.39
553.84	32.77
554.01	84.26
554.17	163.84
554.34	121.71
554.51	93.62
554.67	70.22
554.84	95.96
555.00	86.60
555.17	51.49
555.33	72.56
555.50	7.02
555.67	114.69
555.83	84.26
556.00	121.71
556.16	100.64
556.33	65.54
556.50	49.15
556.66	56.17
556.83	110.01
556.99	117.03
557.16	86.60
557.32	28.09
557.49	42.13
557.65	49.15
557.82	135.75
557.98	77.24
558.15	53.83
558.32	70.22
558.48	91.28
558.65	77.24
558.81	35.11
558.98	63.19
559.14	81.92
559.31	128.73
559.47	102.98
559.64	65.54
559.80	14.04
559.97	107.66
560.13	46.81
560.30	65.54
560.46	126.39
560.63	65.54
560.79	79.58
560.96	140.43
561.12	58.51
561.29	124.05
561.45	49.15
561.61	63.19
561.78	65.54
561.94	88.94
562.11	84.26
562.27	100.64
562.44	81.92
562.60	44.47
562.77	63.19
562.93	30.43
563.10	72.56
563.26	124.05
563.42	114.69
563.59	95.96
563.75	124.05
563.92	91.28
564.08	25.75
564.24	98.30
564.41	18.72
564.57	100.64
564.74	124.05
564.90	53.83
565.07	79.58
565.23	147.45
565.39	37.45
565.56	4.68
565.72	42.13
565.88	79.58
566.05	131.07
566.21	74.90
566.38	91.28
566.54	51.49
566.70	107.66
566.87	70.22
567.03	79.58
567.19	51.49
567.36	58.51
567.52	11.70
567.68	86.60
567.85	107.66
568.01	79.58
568.17	86.60
568.34	121.71
568.50	112.35
568.66	95.96
568.83	86.60
568.99	74.90
569.15	32.77
569.32	135.75
569.48	93.62
569.64	2.34
569.81	95.96
569.97	42.13
570.13	70.22
570.30	79.58
570.46	60.85
570.62	81.92
570.78	88.94
570.95	32.77
571.11	70.22
571.27	119.37
571.43	88.94
571.60	88.94
571.76	67.88
571.92	65.54
572.09	135.75
572.25	131.07
572.41	84.26
572.57	60.85
572.74	81.92
572.90	124.05
573.06	72.56
573.22	70.22
573.38	100.64
573.55	72.56
573.71	67.88
573.87	102.98
574.03	49.15
574.20	84.26
574.36	53.83
574.52	70.22
574.68	63.19
574.84	70.22
575.01	23.41
575.17	0.00
575.33	14.04
575.49	46.81
575.65	63.19
575.82	149.79
575.98	67.88
576.14	46.81
576.30	30.43
576.46	58.51
576.62	121.71
576.79	46.81
576.95	49.15
577.11	100.64
577.27	74.90
577.43	42.13
577.59	79.58
577.75	81.92
577.92	21.06
578.08	46.81
578.24	77.24
578.40	35.11
578.56	81.92
578.72	37.45
578.88	81.92
579.04	70.22
579.21	93.62
579.37	102.98
579.53	81.92
579.69	86.60
579.85	18.72
580.01	63.19
580.17	93.62
580.33	37.45
580.49	65.54
580.65	114.69
580.82	0.00
580.98	63.19
581.14	117.03
581.30	112.35
581.46	117.03
581.62	77.24
581.78	53.83
581.94	32.77
582.10	95.96
582.26	42.13
582.42	93.62
582.58	46.81
582.74	154.48
582.90	30.43
583.06	93.62
583.22	93.62
583.38	60.85
583.54	18.72
583.70	74.90
583.86	32.77
584.02	56.17
584.18	98.30
584.34	70.22
584.50	56.17
584.66	112.35
584.82	56.17
584.98	81.92
585.14	32.77
585.30	16.38
585.46	35.11
585.62	88.94
585.78	79.58
585.94	56.17
586.10	88.94
586.26	72.56
586.42	74.90
586.58	102.98
586.74	39.79
586.90	46.81
587.06	49.15
587.22	65.54
587.38	72.56
587.54	42.13
587.70	133.41
587.86	110.01
588.02	14.04
588.18	7.02
588.34	65.54
588.49	16.38
588.65	28.09
588.81	74.90
588.97	65.54
589.13	110.01
589.29	98.30
589.45	70.22
589.61	32.77
589.77	95.96
589.93	86.60
590.08	93.62
590.24	56.17
590.40	7.02
590.56	30.43
590.72	81.92
590.88	72.56
591.04	37.45
591.20	14.04
591.35	124.05
591.51	93.62
591.67	56.17
591.83	14.04
591.99	18.72
592.15	77.24
592.31	107.66
592.46	28.09
592.62	86.60
592.78	63.19
592.94	23.41
593.10	142.77
593.26	81.92
593.41	28.09
593.57	131.07
593.73	46.81
593.89	93.62
594.05	51.49
594.20	23.41
594.36	105.32
594.52	30.43
594.68	114.69
594.84	72.56
594.99	79.58
595.15	56.17
595.31	74.90
595.47	65.54
595.62	91.28
595.78	44.47
595.94	37.45
596.10	56.17
596.25	28.09
596.41	67.88
596.57	98.30
596.73	86.60
596.88	79.58
597.04	0.00
597.20	58.51
597.36	63.19
597.51	77.24
597.67	2.34
597.83	44.47
597.99	105.32
598.14	81.92
598.30	189.58
598.46	35.11
598.61	79.58
598.77	81.92
598.93	42.13
599.09	88.94
599.24	77.24
599.40	88.94
599.56	65.54
599.71	30.43
599.87	44.47
600.03	77.24
600.18	100.64
600.34	95.96
600.50	100.64
600.65	105.32
600.81	105.32
600.97	74.90
601.12	58.51
601.28	32.77
601.44	23.41
601.59	170.86
601.75	114.69
601.91	0.00
602.06	56.17
602.22	60.85
602.37	49.15
602.53	49.15
602.69	70.22
602.84	77.24
603.00	46.81
603.16	46.81
603.31	100.64
603.47	81.92
603.62	95.96
603.78	74.90
603.94	44.47
604.09	98.30
604.25	117.03
604.40	110.01
604.56	4.68
604.71	23.41
604.87	74.90
605.03	46.81
605.18	25.75
605.34	32.77
605.49	77.24
605.65	7.02
605.80	81.92
605.96	107.66
606.12	25.75
606.27	4.68
606.43	86.60
606.58	93.62
606.74	100.64
606.89	114.69
607.05	117.03
607.20	51.49
607.36	32.77
607.51	37.45
607.67	102.98
607.82	0.00
607.98	117.03
608.13	98.30
608.29	37.45
608.44	49.15
608.60	51.49
608.75	60.85
608.91	84.26
609.06	28.09
609.22	72.56
609.37	95.96
609.53	102.98
609.68	105.32
609.84	67.88
609.99	81.92
610.15	131.07
610.30	114.69
610.46	163.84
610.61	74.90
610.76	60.85
610.92	32.77
611.07	30.43
611.23	156.82
611.38	28.09
611.54	0.00
611.69	32.77
611.84	117.03
612.00	58.51
612.15	65.54
612.31	51.49
612.46	74.90
612.62	44.47
612.77	72.56
612.92	98.30
613.08	25.75
613.23	72.56
613.39	84.26
613.54	37.45
613.69	93.62
613.85	63.19
614.00	60.85
614.15	37.45
614.31	65.54
614.46	44.47
614.62	51.49
614.77	63.19
614.92	46.81
615.08	39.79
615.23	46.81
615.38	67.88
615.54	0.00
615.69	91.28
615.84	21.06
616.00	70.22
616.15	72.56
616.30	32.77
616.46	28.09
616.61	23.41
616.76	67.88
616.92	42.13
617.07	28.09
617.22	67.88
617.37	51.49
617.53	35.11
617.68	119.37
617.83	70.22
617.99	46.81
618.14	35.11
618.29	63.19
618.45	91.28
618.60	0.00
618.75	4.68
618.90	4.68
619.06	51.49
619.21	126.39
619.36	161.50
619.51	11.70
619.67	23.41
619.82	0.00
619.97	60.85
620.12	28.09
620.28	70.22
620.43	23.41
620.58	119.37
620.73	81.92
620.89	56.17
621.04	67.88
621.19	114.69
621.34	46.81
621.49	112.35
621.65	44.47
621.80	42.13
621.95	67.88
622.10	28.09
622.25	30.43
622.41	0.00
622.56	56.17
622.71	53.83
622.86	28.09
623.01	58.51
623.16	72.56
623.32	81.92
623.47	149.79
623.62	16.38
623.77	91.28
623.92	88.94
624.07	72.56
624.23	46.81
624.38	14.04
624.53	11.70
624.68	74.90
624.83	91.28
624.98	95.96
625.13	0.00
625.29	23.41
625.44	51.49
625.59	65.54
625.74	114.69
625.89	42.13
626.04	0.00
626.19	63.19
626.34	46.81
626.49	37.45
626.65	49.15
626.80	86.60
626.95	152.13
627.10	135.75
627.25	32.77
627.40	95.96
627.55	16.38
627.70	67.88
627.85	4.68
628.00	39.79
628.15	95.96
628.30	23.41
628.45	86.60
628.60	70.22
628.76	70.22
628.91	56.17
629.06	95.96
629.21	72.56
629.36	9.36
629.51	0.00
629.66	102.98
629.81	110.01
629.96	0.00
630.11	39.79
630.26	74.90
630.41	77.24
630.56	107.66
630.71	56.17
630.86	79.58
631.01	70.22
631.16	60.85
631.31	91.28
631.46	77.24
631.61	25.75
631.76	23.41
631.91	72.56
632.06	42.13
632.21	131.07
632.36	35.11
632.51	88.94
632.66	35.11
632.81	126.39
632.96	81.92
633.10	37.45
633.25	39.79
633.40	53.83
633.55	102.98
633.70	56.17
633.85	37.45
634.00	42.13
634.15	86.60
634.30	91.28
634.45	86.60
634.60	21.06
634.75	58.51
634.90	49.15
635.05	11.70
635.19	56.17
635.34	16.38
635.49	79.58
635.64	51.49
635.79	18.72
635.94	32.77
636.09	53.83
636.24	44.47
636.39	67.88
636.53	67.88
636.68	124.05
636.83	119.37
636.98	112.35
637.13	67.88
637.28	65.54
637.43	70.22
637.57	140.43
637.72	42.13
637.87	79.58
638.02	98.30
638.17	53.83
638.32	119.37
638.46	42.13
638.61	49.15
638.76	74.90
638.91	161.50
639.06	65.54
639.20	74.90
639.35	16.38
639.50	84.26
639.65	14.04
639.80	0.00
639.94	72.56
640.09	74.90
640.24	32.77
640.39	32.77
640.54	30.43
640.68	46.81
640.83	112.35
640.98	117.03
641.13	58.51
641.27	0.00
641.42	81.92
641.57	95.96
641.72	42.13
641.86	67.88
642.01	67.88
642.16	102.98
642.31	4.68
642.45	102.98
642.60	72.56
642.75	65.54
642.90	88.94
643.04	0.00
643.19	44.47
643.34	49.15
643.48	105.32
643.63	93.62
643.78	49.15
643.93	51.49
644.07	135.75
644.22	74.90
644.37	21.06
644.51	114.69
644.66	39.79
644.81	98.30
644.95	70.22
645.10	140.43
645.25	79.58
645.39	56.17
645.54	37.45
645.69	28.09
645.83	11.70
645.98	72.56
646.13	0.00
646.27	23.41
646.42	0.00
646.57	126.39
646.71	44.47
646.86	60.85
647.00	2.34
647.15	0.00
647.30	72.56
647.44	58.51
647.59	79.58
647.74	53.83
647.88	128.73
648.03	28.09
648.17	84.26
648.32	49.15
648.47	18.72
648.61	9.36
648.76	4.68
648.90	0.00
649.05	95.96
649.20	86.60
649.34	2.34
649.49	49.15
649.63	14.04
649.78	23.41
649.92	110.01
650.07	72.56
650.21	124.05
650.36	28.09
650.51	86.60
650.65	63.19
650.80	30.43
650.94	16.38
651.09	0.00
651.23	7.02
651.38	23.41
651.52	100.64
651.67	7.02
651.81	105.32
651.96	46.81
652.10	131.07
652.25	0.00
652.39	25.75
652.54	131.07
652.68	18.72
652.83	23.41
652.97	25.75
653.12	56.17
653.26	56.17
653.41	72.56
653.55	39.79
653.70	107.66
653.84	11.70
653.99	81.92
654.13	60.85
654.27	44.47
654.42	0.00
654.56	67.88
654.71	98.30
654.85	30.43
655.00	4.68
655.14	37.45
655.29	102.98
655.43	7.02
655.57	44.47
655.72	79.58
655.86	7.02
656.01	79.58
656.15	53.83
656.30	72.56
656.44	25.75
656.58	7.02
656.73	56.17
656.87	39.79
657.01	60.85
657.16	37.45
657.30	0.00
657.45	44.47
657.59	42.13
657.73	28.09
657.88	86.60
658.02	77.24
658.16	30.43
658.31	28.09
658.45	30.43
658.60	39.79
658.74	79.58
658.88	39.79
659.03	60.85
659.17	4.68
659.31	0.00
659.46	32.77
659.60	88.94
659.74	44.47
659.89	124.05
660.03	30.43
660.17	135.75
660.32	60.85
660.46	98.30
660.60	105.32
660.74	93.62
660.89	39.79
661.03	84.26
661.17	25.75
661.32	21.06
661.46	72.56
661.60	67.88
661.74	28.09
661.89	133.41
662.03	16.38
662.17	114.69
662.31	0.00
662.46	95.96
662.60	63.19
662.74	65.54
662.88	0.00
663.03	65.54
663.17	7.02
663.31	7.02
663.45	42.13
663.60	9.36
663.74	67.88
663.88	98.30
664.02	77.24
664.17	39.79
664.31	91.28
664.45	0.00
664.59	11.70
664.73	95.96
664.88	0.00
665.02	74.90
665.16	11.70
665.30	16.38
665.44	30.43
665.59	44.47
665.73	65.54
665.87	2.34
666.01	44.47
666.15	0.00
666.29	37.45
666.44	67.88
666.58	11.70
666.72	28.09
666.86	14.04
667.00	100.64
667.14	7.02
667.28	46.81
667.43	60.85
667.57	0.00
667.71	0.00
667.85	88.94
667.99	0.00
668.13	42.13
668.27	58.51
668.41	74.90
668.56	91.28
668.70	77.24
668.84	98.30
668.98	23.41
669.12	72.56
669.26	60.85
669.40	70.22
669.54	53.83
669.68	35.11
669.82	86.60
669.96	84.26
670.10	42.13
670.25	102.98
670.39	23.41
670.53	93.62
670.67	145.11
670.81	81.92
670.95	77.24
671.09	46.81
671.23	51.49
671.37	11.70
671.51	95.96
671.65	93.62
671.79	39.79
671.93	112.35
672.07	28.09
672.21	51.49
672.35	4.68
672.49	46.81
672.63	84.26
672.77	88.94
672.91	44.47
673.05	39.79
673.19	72.56
673.33	14.04
673.47	2.34
673.61	28.09
673.75	0.00
673.89	0.00
674.03	51.49
674.17	0.00
674.31	0.00
674.45	4.68
674.59	112.35
674.73	107.66
674.87	35.11
675.01	7.02
675.15	65.54
675.29	81.92
675.43	32.77
675.56	86.60
675.70	74.90
675.84	91.28
675.98	74.90
676.12	32.77
676.26	23.41
676.40	81.92
676.54	72.56
676.68	74.90
676.82	28.09
676.96	23.41
677.10	93.62
677.23	95.96
677.37	49.15
677.51	58.51
677.65	44.47
677.79	18.72
677.93	9.36
678.07	51.49
678.21	35.11
678.34	18.72
678.48	14.04
678.62	74.90
678.76	58.51
678.90	46.81
679.04	30.43
679.18	77.24
679.31	25.75
679.45	77.24
679.59	23.41
679.73	93.62
679.87	53.83
680.00	77.24
680.14	84.26
680.28	49.15
680.42	42.13
680.56	72.56
680.70	30.43
680.83	63.19
680.97	9.36
681.11	28.09
681.25	72.56
681.39	88.94
681.52	0.00
681.66	2.34
681.80	14.04
681.94	91.28
682.07	49.15
682.21	0.00
682.35	72.56
682.49	86.60
682.62	16.38
682.76	56.17
682.90	11.70
683.04	42.13
683.17	91.28
683.31	28.09
683.45	14.04
683.59	39.79
683.72	98.30
683.86	7.02
684.00	70.22
684.13	37.45
684.27	74.90
684.41	0.00
684.55	56.17
684.68	88.94
684.82	39.79
684.96	72.56
685.09	18.72
685.23	70.22
685.37	51.49
685.50	37.45
685.64	0.00
685.78	67.88
685.91	49.15
686.05	44.47
686.19	28.09
686.32	0.00
686.46	95.96
686.60	102.98
686.73	35.11
686.87	67.88
687.01	0.00
687.14	42.13
687.28	23.41
687.42	70.22
687.55	51.49
687.69	4.68
687.82	11.70
687.96	32.77
688.10	58.51
688.23	60.85
688.37	81.92
688.50	0.00
688.64	67.88
688.78	42.13
688.91	0.00
689.05	0.00
689.18	0.00
689.32	7.02
689.46	0.00
689.59	30.43
689.73	0.00
689.86	98.30
690.00	63.19
690.13	49.15
690.27	107.66
690.41	42.13
690.54	46.81
690.68	58.51
690.81	0.00
690.95	18.72
691.08	35.11
691.22	21.06
691.35	42.13
691.49	39.79
691.62	25.75
691.76	65.54
691.89	81.92
692.03	49.15
692.16	2.34
692.30	65.54
692.43	37.45
692.57	23.41
692.70	21.06
692.84	70.22
692.97	56.17
693.11	0.00
693.24	117.03
693.38	0.00
693.51	67.88
693.65	32.77
693.78	35.11
693.92	58.51
694.05	58.51
694.19	79.58
694.32	32.77
694.45	32.77
694.59	25.75
694.72	58.51
694.86	0.00
694.99	0.00
695.13	32.77
695.26	23.41
695.39	88.94
695.53	9.36
695.66	23.41
695.80	58.51
695.93	81.92
696.07	131.07
696.20	16.38
696.33	56.17
696.47	42.13
696.60	0.00
696.73	60.85
696.87	11.70
697.00	65.54
697.14	35.11
697.27	25.75
697.40	0.00
697.54	98.30
697.67	2.34
697.80	30.43
697.94	18.72
698.07	81.92
698.21	16.38
698.34	0.00
698.47	11.70
698.61	91.28
698.74	53.83
698.87	72.56
699.01	18.72
699.14	0.00
699.27	60.85
699.40	46.81
699.54	58.51
699.67	65.54
699.80	77.24
699.94	60.85
700.07	53.83
700.20	44.47
700.34	0.00
700.47	42.13
700.60	32.77
700.73	0.00
700.87	14.04
701.00	86.60
701.13	0.00
701.26	105.32
701.40	0.00
701.53	58.51
701.66	70.22
701.79	51.49
701.93	51.49
702.06	49.15
702.19	14.04
702.32	30.43
702.46	11.70
702.59	25.75
702.72	18.72
702.85	14.04
702.99	25.75
703.12	30.43
703.25	0.00
703.38	56.17
703.51	9.36
703.65	0.00
703.78	86.60
703.91	0.00
704.04	65.54
704.17	35.11
704.31	30.43
704.44	42.13
704.57	63.19
704.70	4.68
704.83	0.00
704.96	65.54
705.10	0.00
705.23	63.19
>>>>>End Processed Spectral Data<<<<<
