SpectraSuite Data File
++++++++++++++++++++++++++++++++++++
Date: Fri Oct 04 12:13:27 GMT-05:00 2013
User: price-jones
Dark Spectrum Present: No
Reference Spectrum Present: No
Number of Sampled Component Spectra: 1
Spectrometers: USB2+H05261
Integration Time (usec): 10000 (USB2+H05261)
Spectra Averaged: 1 (USB2+H05261)
Boxcar Smoothing: 0 (USB2+H05261)
Correct for Electrical Dark: No (USB2+H05261)
Strobe/Lamp Enabled: No (USB2+H05261)
Correct for Detector Non-linearity: No (USB2+H05261)
Correct for Stray Light: No (USB2+H05261)
Number of Pixels in Processed Spectrum: 2048
>>>>>Begin Processed Spectral Data<<<<<
365.73	44.47
365.92	44.47
366.12	44.47
366.32	0.00
366.52	0.00
366.72	0.00
366.91	0.00
367.11	0.00
367.31	0.00
367.51	0.00
367.70	0.00
367.90	0.00
368.10	0.00
368.30	0.00
368.49	0.00
368.69	0.00
368.89	0.00
369.09	0.00
369.28	0.00
369.48	0.00
369.68	0.00
369.87	0.00
370.07	0.00
370.27	0.00
370.47	0.00
370.66	0.00
370.86	0.00
371.06	0.00
371.25	0.00
371.45	11.70
371.65	0.00
371.84	0.00
372.04	0.00
372.24	0.00
372.44	0.00
372.63	53.83
372.83	0.00
373.03	46.81
373.22	7.02
373.42	81.92
373.62	49.15
373.81	0.00
374.01	21.06
374.21	79.58
374.40	53.83
374.60	0.00
374.79	0.00
374.99	110.01
375.19	37.45
375.38	0.00
375.58	35.11
375.78	79.58
375.97	91.28
376.17	0.00
376.37	7.02
376.56	65.54
376.76	84.26
376.95	60.85
377.15	51.49
377.35	0.00
377.54	7.02
377.74	23.41
377.93	42.13
378.13	28.09
378.33	81.92
378.52	39.79
378.72	37.45
378.91	0.00
379.11	16.38
379.31	119.37
379.50	4.68
379.70	4.68
379.89	9.36
380.09	11.70
380.28	0.00
380.48	2.34
380.68	0.00
380.87	0.00
381.07	23.41
381.26	91.28
381.46	60.85
381.65	0.00
381.85	0.00
382.04	21.06
382.24	46.81
382.43	0.00
382.63	0.00
382.83	14.04
383.02	0.00
383.22	0.00
383.41	0.00
383.61	0.00
383.80	56.17
384.00	28.09
384.19	0.00
384.39	2.34
384.58	39.79
384.78	2.34
384.97	28.09
385.17	0.00
385.36	14.04
385.56	0.00
385.75	23.41
385.95	0.00
386.14	72.56
386.34	0.00
386.53	56.17
386.72	0.00
386.92	4.68
387.11	100.64
387.31	74.90
387.50	11.70
387.70	84.26
387.89	74.90
388.09	0.00
388.28	0.00
388.48	25.75
388.67	39.79
388.86	81.92
389.06	0.00
389.25	0.00
389.45	65.54
389.64	4.68
389.84	0.00
390.03	44.47
390.22	9.36
390.42	25.75
390.61	2.34
390.81	35.11
391.00	72.56
391.19	93.62
391.39	18.72
391.58	23.41
391.78	131.07
391.97	84.26
392.16	2.34
392.36	32.77
392.55	16.38
392.75	30.43
392.94	0.00
393.13	42.13
393.33	0.00
393.52	18.72
393.71	0.00
393.91	25.75
394.10	14.04
394.29	25.75
394.49	56.17
394.68	11.70
394.88	32.77
395.07	49.15
395.26	18.72
395.46	2.34
395.65	44.47
395.84	18.72
396.04	49.15
396.23	30.43
396.42	67.88
396.62	11.70
396.81	0.00
397.00	25.75
397.19	0.00
397.39	37.45
397.58	9.36
397.77	9.36
397.97	42.13
398.16	0.00
398.35	18.72
398.55	16.38
398.74	23.41
398.93	51.49
399.12	30.43
399.32	28.09
399.51	11.70
399.70	21.06
399.90	32.77
400.09	2.34
400.28	14.04
400.47	14.04
400.67	70.22
400.86	63.19
401.05	0.00
401.24	51.49
401.44	0.00
401.63	79.58
401.82	60.85
402.01	7.02
402.21	0.00
402.40	14.04
402.59	51.49
402.78	0.00
402.97	32.77
403.17	25.75
403.36	46.81
403.55	67.88
403.74	25.75
403.93	67.88
404.13	107.66
404.32	16.38
404.51	0.00
404.70	77.24
404.89	23.41
405.09	91.28
405.28	16.38
405.47	35.11
405.66	91.28
405.85	4.68
406.05	0.00
406.24	23.41
406.43	0.00
406.62	14.04
406.81	30.43
407.00	51.49
407.20	35.11
407.39	44.47
407.58	0.00
407.77	9.36
407.96	0.00
408.15	14.04
408.34	4.68
408.54	46.81
408.73	25.75
408.92	14.04
409.11	0.00
409.30	93.62
409.49	0.00
409.68	32.77
409.87	58.51
410.07	105.32
410.26	60.85
410.45	0.00
410.64	0.00
410.83	42.13
411.02	9.36
411.21	0.00
411.40	11.70
411.59	30.43
411.78	67.88
411.98	18.72
412.17	74.90
412.36	46.81
412.55	4.68
412.74	0.00
412.93	28.09
413.12	0.00
413.31	32.77
413.50	14.04
413.69	4.68
413.88	51.49
414.07	39.79
414.26	25.75
414.45	4.68
414.64	46.81
414.83	60.85
415.02	14.04
415.22	91.28
415.41	88.94
415.60	0.00
415.79	0.00
415.98	37.45
416.17	0.00
416.36	53.83
416.55	70.22
416.74	0.00
416.93	37.45
417.12	0.00
417.31	0.00
417.50	0.00
417.69	60.85
417.88	21.06
418.07	0.00
418.26	58.51
418.45	4.68
418.64	9.36
418.83	49.15
419.02	0.00
419.21	32.77
419.39	30.43
419.58	0.00
419.77	4.68
419.96	4.68
420.15	56.17
420.34	91.28
420.53	0.00
420.72	7.02
420.91	11.70
421.10	0.00
421.29	18.72
421.48	14.04
421.67	0.00
421.86	0.00
422.05	2.34
422.24	58.51
422.43	0.00
422.61	0.00
422.80	14.04
422.99	93.62
423.18	0.00
423.37	53.83
423.56	14.04
423.75	18.72
423.94	30.43
424.13	0.00
424.32	9.36
424.50	65.54
424.69	0.00
424.88	60.85
425.07	0.00
425.26	70.22
425.45	11.70
425.64	81.92
425.83	79.58
426.01	58.51
426.20	46.81
426.39	32.77
426.58	30.43
426.77	46.81
426.96	23.41
427.15	30.43
427.33	42.13
427.52	23.41
427.71	79.58
427.90	77.24
428.09	9.36
428.28	70.22
428.46	16.38
428.65	30.43
428.84	0.00
429.03	51.49
429.22	18.72
429.40	0.00
429.59	0.00
429.78	0.00
429.97	79.58
430.16	0.00
430.34	72.56
430.53	72.56
430.72	9.36
430.91	121.71
431.10	49.15
431.28	51.49
431.47	58.51
431.66	2.34
431.85	0.00
432.03	0.00
432.22	42.13
432.41	7.02
432.60	0.00
432.79	95.96
432.97	77.24
433.16	65.54
433.35	18.72
433.54	0.00
433.72	39.79
433.91	18.72
434.10	67.88
434.28	4.68
434.47	0.00
434.66	21.06
434.85	70.22
435.03	0.00
435.22	9.36
435.41	11.70
435.59	35.11
435.78	0.00
435.97	11.70
436.16	2.34
436.34	23.41
436.53	56.17
436.72	46.81
436.90	2.34
437.09	105.32
437.28	49.15
437.46	110.01
437.65	67.88
437.84	74.90
438.02	105.32
438.21	30.43
438.40	37.45
438.58	0.00
438.77	0.00
438.96	60.85
439.14	25.75
439.33	28.09
439.52	58.51
439.70	95.96
439.89	44.47
440.08	77.24
440.26	23.41
440.45	53.83
440.63	58.51
440.82	53.83
441.01	46.81
441.19	0.00
441.38	42.13
441.57	51.49
441.75	11.70
441.94	18.72
442.12	0.00
442.31	0.00
442.50	23.41
442.68	11.70
442.87	65.54
443.05	28.09
443.24	0.00
443.43	74.90
443.61	30.43
443.80	56.17
443.98	60.85
444.17	0.00
444.35	4.68
444.54	18.72
444.73	58.51
444.91	14.04
445.10	60.85
445.28	14.04
445.47	42.13
445.65	0.00
445.84	28.09
446.02	0.00
446.21	39.79
446.39	16.38
446.58	77.24
446.77	91.28
446.95	32.77
447.14	46.81
447.32	0.00
447.51	0.00
447.69	37.45
447.88	39.79
448.06	58.51
448.25	30.43
448.43	21.06
448.62	16.38
448.80	72.56
448.99	4.68
449.17	30.43
449.36	0.00
449.54	4.68
449.73	0.00
449.91	67.88
450.10	70.22
450.28	0.00
450.46	114.69
450.65	37.45
450.83	63.19
451.02	30.43
451.20	0.00
451.39	35.11
451.57	67.88
451.76	46.81
451.94	35.11
452.13	7.02
452.31	0.00
452.49	88.94
452.68	67.88
452.86	72.56
453.05	39.79
453.23	46.81
453.42	105.32
453.60	37.45
453.78	37.45
453.97	42.13
454.15	32.77
454.34	0.00
454.52	23.41
454.70	7.02
454.89	21.06
455.07	0.00
455.26	32.77
455.44	46.81
455.62	18.72
455.81	11.70
455.99	32.77
456.17	0.00
456.36	16.38
456.54	58.51
456.73	51.49
456.91	32.77
457.09	56.17
457.28	9.36
457.46	60.85
457.64	0.00
457.83	11.70
458.01	0.00
458.19	30.43
458.38	0.00
458.56	35.11
458.74	49.15
458.93	0.00
459.11	0.00
459.29	28.09
459.48	18.72
459.66	102.98
459.84	37.45
460.03	44.47
460.21	30.43
460.39	51.49
460.57	14.04
460.76	14.04
460.94	51.49
461.12	0.00
461.31	77.24
461.49	77.24
461.67	67.88
461.85	0.00
462.04	98.30
462.22	65.54
462.40	79.58
462.59	23.41
462.77	30.43
462.95	21.06
463.13	0.00
463.32	39.79
463.50	37.45
463.68	28.09
463.86	21.06
464.05	30.43
464.23	32.77
464.41	7.02
464.59	0.00
464.78	56.17
464.96	37.45
465.14	35.11
465.32	18.72
465.50	23.41
465.69	72.56
465.87	0.00
466.05	0.00
466.23	7.02
466.41	37.45
466.60	58.51
466.78	0.00
466.96	44.47
467.14	65.54
467.32	42.13
467.51	49.15
467.69	9.36
467.87	30.43
468.05	11.70
468.23	37.45
468.41	35.11
468.60	0.00
468.78	14.04
468.96	0.00
469.14	0.00
469.32	35.11
469.50	0.00
469.69	42.13
469.87	60.85
470.05	58.51
470.23	44.47
470.41	9.36
470.59	49.15
470.77	72.56
470.95	9.36
471.14	23.41
471.32	121.71
471.50	58.51
471.68	44.47
471.86	63.19
472.04	0.00
472.22	44.47
472.40	53.83
472.58	23.41
472.77	56.17
472.95	21.06
473.13	32.77
473.31	65.54
473.49	35.11
473.67	39.79
473.85	28.09
474.03	53.83
474.21	4.68
474.39	124.05
474.57	7.02
474.75	42.13
474.93	28.09
475.12	0.00
475.30	0.00
475.48	2.34
475.66	0.00
475.84	39.79
476.02	60.85
476.20	30.43
476.38	21.06
476.56	51.49
476.74	46.81
476.92	11.70
477.10	98.30
477.28	16.38
477.46	77.24
477.64	91.28
477.82	0.00
478.00	88.94
478.18	32.77
478.36	53.83
478.54	39.79
478.72	0.00
478.90	105.32
479.08	58.51
479.26	65.54
479.44	0.00
479.62	9.36
479.80	30.43
479.98	21.06
480.16	0.00
480.34	56.17
480.52	32.77
480.70	53.83
480.88	72.56
481.06	93.62
481.24	35.11
481.41	16.38
481.59	35.11
481.77	58.51
481.95	65.54
482.13	65.54
482.31	42.13
482.49	49.15
482.67	0.00
482.85	35.11
483.03	65.54
483.21	16.38
483.39	44.47
483.57	14.04
483.74	53.83
483.92	60.85
484.10	32.77
484.28	0.00
484.46	2.34
484.64	37.45
484.82	56.17
485.00	67.88
485.18	0.00
485.35	21.06
485.53	32.77
485.71	60.85
485.89	81.92
486.07	0.00
486.25	25.75
486.43	23.41
486.61	0.00
486.78	7.02
486.96	53.83
487.14	30.43
487.32	46.81
487.50	65.54
487.68	32.77
487.85	39.79
488.03	63.19
488.21	86.60
488.39	42.13
488.57	28.09
488.75	35.11
488.92	67.88
489.10	98.30
489.28	37.45
489.46	0.00
489.64	56.17
489.81	39.79
489.99	4.68
490.17	2.34
490.35	39.79
490.53	28.09
490.70	25.75
490.88	65.54
491.06	0.00
491.24	23.41
491.41	79.58
491.59	25.75
491.77	0.00
491.95	46.81
492.13	112.35
492.30	14.04
492.48	16.38
492.66	37.45
492.84	72.56
493.01	79.58
493.19	95.96
493.37	0.00
493.54	51.49
493.72	56.17
493.90	0.00
494.08	30.43
494.25	0.00
494.43	81.92
494.61	0.00
494.79	79.58
494.96	25.75
495.14	81.92
495.32	25.75
495.49	7.02
495.67	32.77
495.85	56.17
496.02	0.00
496.20	58.51
496.38	14.04
496.55	0.00
496.73	0.00
496.91	67.88
497.09	0.00
497.26	79.58
497.44	30.43
497.62	39.79
497.79	11.70
497.97	42.13
498.14	56.17
498.32	14.04
498.50	23.41
498.67	0.00
498.85	32.77
499.03	72.56
499.20	25.75
499.38	21.06
499.56	67.88
499.73	63.19
499.91	9.36
500.08	58.51
500.26	35.11
500.44	0.00
500.61	0.00
500.79	102.98
500.97	42.13
501.14	25.75
501.32	42.13
501.49	72.56
501.67	42.13
501.84	60.85
502.02	46.81
502.20	86.60
502.37	18.72
502.55	65.54
502.72	72.56
502.90	0.00
503.07	35.11
503.25	35.11
503.43	53.83
503.60	51.49
503.78	65.54
503.95	58.51
504.13	70.22
504.30	30.43
504.48	0.00
504.65	79.58
504.83	35.11
505.01	72.56
505.18	28.09
505.36	4.68
505.53	42.13
505.71	18.72
505.88	119.37
506.06	0.00
506.23	32.77
506.41	0.00
506.58	18.72
506.76	0.00
506.93	28.09
507.11	16.38
507.28	35.11
507.46	0.00
507.63	65.54
507.81	37.45
507.98	60.85
508.16	0.00
508.33	49.15
508.50	0.00
508.68	70.22
508.85	23.41
509.03	65.54
509.20	77.24
509.38	65.54
509.55	65.54
509.73	25.75
509.90	32.77
510.08	32.77
510.25	93.62
510.42	79.58
510.60	28.09
510.77	2.34
510.95	65.54
511.12	16.38
511.30	21.06
511.47	37.45
511.64	53.83
511.82	53.83
511.99	37.45
512.17	9.36
512.34	11.70
512.51	7.02
512.69	21.06
512.86	95.96
513.04	46.81
513.21	0.00
513.38	84.26
513.56	67.88
513.73	11.70
513.90	0.00
514.08	56.17
514.25	0.00
514.43	77.24
514.60	0.00
514.77	51.49
514.95	51.49
515.12	49.15
515.29	37.45
515.47	16.38
515.64	32.77
515.81	32.77
515.99	23.41
516.16	0.00
516.33	58.51
516.51	53.83
516.68	14.04
516.85	0.00
517.03	44.47
517.20	23.41
517.37	21.06
517.54	0.00
517.72	0.00
517.89	25.75
518.06	105.32
518.24	0.00
518.41	65.54
518.58	86.60
518.75	44.47
518.93	88.94
519.10	51.49
519.27	49.15
519.45	14.04
519.62	21.06
519.79	25.75
519.96	86.60
520.14	42.13
520.31	142.77
520.48	70.22
520.65	60.85
520.83	42.13
521.00	14.04
521.17	37.45
521.34	7.02
521.52	102.98
521.69	95.96
521.86	102.98
522.03	30.43
522.20	25.75
522.38	37.45
522.55	30.43
522.72	14.04
522.89	42.13
523.07	28.09
523.24	37.45
523.41	42.13
523.58	98.30
523.75	46.81
523.92	65.54
524.10	79.58
524.27	46.81
524.44	49.15
524.61	0.00
524.78	0.00
524.96	9.36
525.13	32.77
525.30	32.77
525.47	56.17
525.64	72.56
525.81	110.01
525.98	42.13
526.16	7.02
526.33	35.11
526.50	65.54
526.67	46.81
526.84	32.77
527.01	67.88
527.18	49.15
527.36	7.02
527.53	16.38
527.70	81.92
527.87	42.13
528.04	16.38
528.21	46.81
528.38	49.15
528.55	7.02
528.72	0.00
528.89	102.98
529.07	16.38
529.24	0.00
529.41	42.13
529.58	49.15
529.75	58.51
529.92	77.24
530.09	35.11
530.26	81.92
530.43	14.04
530.60	18.72
530.77	42.13
530.94	56.17
531.11	21.06
531.28	0.00
531.46	32.77
531.63	46.81
531.80	11.70
531.97	18.72
532.14	35.11
532.31	51.49
532.48	18.72
532.65	23.41
532.82	44.47
532.99	65.54
533.16	72.56
533.33	0.00
533.50	58.51
533.67	81.92
533.84	124.05
534.01	46.81
534.18	56.17
534.35	30.43
534.52	53.83
534.69	74.90
534.86	51.49
535.03	58.51
535.20	0.00
535.37	63.19
535.54	67.88
535.71	72.56
535.88	63.19
536.05	23.41
536.22	93.62
536.38	0.00
536.55	53.83
536.72	70.22
536.89	60.85
537.06	2.34
537.23	42.13
537.40	0.00
537.57	42.13
537.74	35.11
537.91	0.00
538.08	18.72
538.25	0.00
538.42	77.24
538.59	70.22
538.75	9.36
538.92	74.90
539.09	53.83
539.26	16.38
539.43	107.66
539.60	154.48
539.77	252.78
539.94	238.73
540.11	245.76
540.28	49.15
540.44	58.51
540.61	135.75
540.78	63.19
540.95	32.77
541.12	72.56
541.29	152.13
541.46	105.32
541.62	37.45
541.79	25.75
541.96	72.56
542.13	28.09
542.30	93.62
542.47	79.58
542.63	23.41
542.80	46.81
542.97	67.88
543.14	63.19
543.31	65.54
543.48	28.09
543.64	74.90
543.81	91.28
543.98	91.28
544.15	35.11
544.32	28.09
544.48	126.39
544.65	42.13
544.82	37.45
544.99	35.11
545.16	88.94
545.32	46.81
545.49	23.41
545.66	28.09
545.83	28.09
546.00	67.88
546.16	37.45
546.33	58.51
546.50	16.38
546.67	46.81
546.83	23.41
547.00	84.26
547.17	84.26
547.34	65.54
547.50	72.56
547.67	70.22
547.84	0.00
548.00	25.75
548.17	70.22
548.34	7.02
548.51	119.37
548.67	70.22
548.84	18.72
549.01	14.04
549.18	58.51
549.34	70.22
549.51	0.00
549.68	18.72
549.84	63.19
550.01	91.28
550.18	49.15
550.34	32.77
550.51	0.00
550.68	65.54
550.84	0.00
551.01	25.75
551.18	65.54
551.34	46.81
551.51	0.00
551.68	63.19
551.84	14.04
552.01	58.51
552.18	35.11
552.34	72.56
552.51	23.41
552.68	72.56
552.84	23.41
553.01	79.58
553.18	9.36
553.34	110.01
553.51	58.51
553.67	44.47
553.84	0.00
554.01	7.02
554.17	4.68
554.34	9.36
554.51	16.38
554.67	21.06
554.84	51.49
555.00	25.75
555.17	42.13
555.33	21.06
555.50	70.22
555.67	30.43
555.83	58.51
556.00	37.45
556.16	7.02
556.33	110.01
556.50	58.51
556.66	42.13
556.83	2.34
556.99	25.75
557.16	0.00
557.32	84.26
557.49	98.30
557.65	0.00
557.82	21.06
557.98	93.62
558.15	58.51
558.32	58.51
558.48	95.96
558.65	133.41
558.81	67.88
558.98	42.13
559.14	56.17
559.31	32.77
559.47	0.00
559.64	11.70
559.80	77.24
559.97	0.00
560.13	37.45
560.30	35.11
560.46	74.90
560.63	0.00
560.79	67.88
560.96	46.81
561.12	42.13
561.29	46.81
561.45	28.09
561.61	18.72
561.78	58.51
561.94	0.00
562.11	65.54
562.27	11.70
562.44	42.13
562.60	95.96
562.77	39.79
562.93	56.17
563.10	86.60
563.26	0.00
563.42	0.00
563.59	58.51
563.75	72.56
563.92	70.22
564.08	2.34
564.24	53.83
564.41	42.13
564.57	0.00
564.74	35.11
564.90	32.77
565.07	93.62
565.23	0.00
565.39	14.04
565.56	14.04
565.72	70.22
565.88	0.00
566.05	65.54
566.21	44.47
566.38	126.39
566.54	53.83
566.70	56.17
566.87	74.90
567.03	51.49
567.19	2.34
567.36	49.15
567.52	28.09
567.68	51.49
567.85	2.34
568.01	70.22
568.17	30.43
568.34	23.41
568.50	32.77
568.66	23.41
568.83	9.36
568.99	84.26
569.15	49.15
569.32	2.34
569.48	42.13
569.64	0.00
569.81	32.77
569.97	51.49
570.13	63.19
570.30	9.36
570.46	4.68
570.62	39.79
570.78	23.41
570.95	124.05
571.11	72.56
571.27	39.79
571.43	63.19
571.60	39.79
571.76	11.70
571.92	4.68
572.09	46.81
572.25	14.04
572.41	30.43
572.57	37.45
572.74	0.00
572.90	23.41
573.06	16.38
573.22	63.19
573.38	4.68
573.55	86.60
573.71	63.19
573.87	105.32
574.03	28.09
574.20	63.19
574.36	28.09
574.52	25.75
574.68	91.28
574.84	9.36
575.01	100.64
575.17	100.64
575.33	154.48
575.49	37.45
575.65	53.83
575.82	67.88
575.98	77.24
576.14	159.16
576.30	74.90
576.46	79.58
576.62	86.60
576.79	25.75
576.95	18.72
577.11	126.39
577.27	74.90
577.43	121.71
577.59	65.54
577.75	53.83
577.92	77.24
578.08	0.00
578.24	81.92
578.40	67.88
578.56	42.13
578.72	84.26
578.88	93.62
579.04	4.68
579.21	84.26
579.37	0.00
579.53	14.04
579.69	35.11
579.85	70.22
580.01	23.41
580.17	63.19
580.33	28.09
580.49	60.85
580.65	0.00
580.82	9.36
580.98	28.09
581.14	138.09
581.30	39.79
581.46	70.22
581.62	58.51
581.78	110.01
581.94	105.32
582.10	95.96
582.26	121.71
582.42	93.62
582.58	102.98
582.74	37.45
582.90	56.17
583.06	119.37
583.22	60.85
583.38	84.26
583.54	128.73
583.70	30.43
583.86	133.41
584.02	49.15
584.18	140.43
584.34	88.94
584.50	463.43
584.66	3155.04
584.82	8154.43
584.98	12313.56
585.14	10953.71
585.30	6787.55
585.46	4084.23
585.62	2530.12
585.78	1263.89
585.94	449.38
586.10	248.10
586.26	177.88
586.42	114.69
586.58	107.66
586.74	23.41
586.90	0.00
587.06	88.94
587.22	63.19
587.38	37.45
587.54	156.82
587.70	512.58
587.86	737.27
588.02	952.60
588.18	613.22
588.34	449.38
588.49	229.37
588.65	159.16
588.81	121.71
588.97	91.28
589.13	30.43
589.29	112.35
589.45	95.96
589.61	98.30
589.77	0.00
589.93	72.56
590.08	114.69
590.24	25.75
590.40	65.54
590.56	42.13
590.72	23.41
590.88	70.22
591.04	28.09
591.20	42.13
591.35	39.79
591.51	51.49
591.67	93.62
591.83	37.45
591.99	53.83
592.15	0.00
592.31	117.03
592.46	0.00
592.62	0.00
592.78	32.77
592.94	63.19
593.10	35.11
593.26	74.90
593.41	67.88
593.57	60.85
593.73	105.32
593.89	404.91
594.05	971.32
594.20	1511.99
594.36	1502.62
594.52	1032.18
594.68	620.24
594.84	400.23
594.99	294.91
595.15	30.43
595.31	98.30
595.47	0.00
595.62	16.38
595.78	65.54
595.94	56.17
596.10	53.83
596.25	39.79
596.41	28.09
596.57	18.72
596.73	70.22
596.88	93.62
597.04	180.22
597.20	280.86
597.36	374.49
597.51	353.42
597.67	217.67
597.83	107.66
597.99	93.62
598.14	79.58
598.30	81.92
598.46	44.47
598.61	49.15
598.77	49.15
598.93	18.72
599.09	11.70
599.24	0.00
599.40	35.11
599.56	23.41
599.71	0.00
599.87	53.83
600.03	35.11
600.18	0.00
600.34	46.81
600.50	4.68
600.65	133.41
600.81	32.77
600.97	21.06
601.12	21.06
601.28	67.88
601.44	77.24
601.59	65.54
601.75	32.77
601.91	93.62
602.06	4.68
602.22	16.38
602.37	138.09
602.53	243.42
602.69	409.59
602.84	444.70
603.00	290.23
603.16	236.39
603.31	170.86
603.47	149.79
603.62	56.17
603.78	42.13
603.94	67.88
604.09	95.96
604.25	9.36
604.40	25.75
604.56	0.00
604.71	28.09
604.87	35.11
605.03	23.41
605.18	77.24
605.34	65.54
605.49	70.22
605.65	60.85
605.80	58.51
605.96	91.28
606.12	72.56
606.27	72.56
606.43	88.94
606.58	46.81
606.74	140.43
606.89	514.92
607.05	994.73
607.20	1334.11
607.36	1130.48
607.51	706.84
607.67	538.32
607.82	362.78
607.98	203.63
608.13	70.22
608.29	0.00
608.44	119.37
608.60	32.77
608.75	65.54
608.91	149.79
609.06	734.93
609.22	1584.54
609.37	2338.20
609.53	1998.82
609.68	1322.40
609.84	840.25
609.99	585.13
610.15	322.99
610.30	154.48
610.46	91.28
610.61	110.01
610.76	70.22
610.92	49.15
611.07	0.00
611.23	124.05
611.38	84.26
611.54	74.90
611.69	0.00
611.84	98.30
612.00	25.75
612.15	44.47
612.31	105.32
612.46	58.51
612.62	70.22
612.77	86.60
612.92	88.94
613.08	154.48
613.23	126.39
613.39	88.94
613.54	163.84
613.69	800.46
613.85	1975.41
614.00	3129.30
614.15	3506.12
614.31	2649.49
614.46	1671.14
614.62	1095.37
614.77	688.12
614.92	280.86
615.08	154.48
615.23	100.64
615.38	77.24
615.54	77.24
615.69	124.05
615.84	374.49
616.00	720.88
616.15	957.28
616.30	748.97
616.46	512.58
616.61	339.38
616.76	264.48
616.92	159.16
617.07	46.81
617.22	53.83
617.37	79.58
617.53	110.01
617.68	25.75
617.83	37.45
617.99	88.94
618.14	86.60
618.29	9.36
618.45	126.39
618.60	81.92
618.75	81.92
618.90	39.79
619.06	0.00
619.21	0.00
619.36	9.36
619.51	0.00
619.67	49.15
619.82	88.94
619.97	81.92
620.12	56.17
620.28	102.98
620.43	93.62
620.58	95.96
620.73	0.00
620.89	63.19
621.04	107.66
621.19	257.46
621.34	425.98
621.49	627.26
621.65	519.60
621.80	442.36
621.95	238.73
622.10	140.43
622.25	74.90
622.41	79.58
622.56	46.81
622.71	2.34
622.86	21.06
623.01	77.24
623.16	14.04
623.32	0.00
623.47	42.13
623.62	88.94
623.77	53.83
623.92	2.34
624.07	0.00
624.23	37.45
624.38	42.13
624.53	46.81
624.68	14.04
624.83	65.54
624.98	30.43
625.13	58.51
625.29	9.36
625.44	81.92
625.59	39.79
625.74	46.81
625.89	49.15
626.04	322.99
626.19	1011.11
626.34	1600.93
626.49	1987.11
626.65	1373.89
626.80	1001.75
626.95	610.88
627.10	470.45
627.25	147.45
627.40	46.81
627.55	37.45
627.70	46.81
627.85	100.64
628.00	88.94
628.15	11.70
628.30	0.00
628.45	84.26
628.60	18.72
628.76	32.77
628.91	0.00
629.06	51.49
629.21	23.41
629.36	51.49
629.51	84.26
629.66	84.26
629.81	159.16
629.96	191.92
630.11	379.17
630.26	463.43
630.41	423.64
630.56	315.97
630.71	283.20
630.86	191.92
631.01	65.54
631.16	35.11
631.31	56.17
631.46	2.34
631.61	81.92
631.76	9.36
631.91	60.85
632.06	39.79
632.21	0.00
632.36	93.62
632.51	79.58
632.66	81.92
632.81	166.18
632.96	589.82
633.10	950.26
633.25	1425.39
633.40	1048.56
633.55	767.70
633.70	505.56
633.85	344.06
634.00	266.82
634.15	95.96
634.30	95.96
634.45	91.28
634.60	58.51
634.75	28.09
634.90	0.00
635.05	140.43
635.19	37.45
635.34	74.90
635.49	11.70
635.64	46.81
635.79	58.51
635.94	107.66
636.09	51.49
636.24	28.09
636.39	58.51
636.53	70.22
636.68	56.17
636.83	0.00
636.98	119.37
637.13	72.56
637.28	114.69
637.43	56.17
637.57	126.39
637.72	463.43
637.87	1343.47
638.02	2059.67
638.17	2406.07
638.32	1790.51
638.46	1240.48
638.61	786.42
638.76	463.43
638.91	283.20
639.06	121.71
639.20	102.98
639.35	77.24
639.50	156.82
639.65	727.91
639.80	2029.24
639.94	3267.39
640.09	3836.14
640.24	2780.56
640.39	1895.83
640.54	1291.98
640.68	828.55
640.83	351.08
640.98	189.58
641.13	63.19
641.27	159.16
641.42	86.60
641.57	35.11
641.72	35.11
641.86	42.13
642.01	95.96
642.16	0.00
642.31	42.13
642.45	72.56
642.60	91.28
642.75	67.88
642.90	67.88
643.04	102.98
643.19	74.90
643.34	7.02
643.48	60.85
643.63	32.77
643.78	86.60
643.93	7.02
644.07	65.54
644.22	0.00
644.37	60.85
644.51	84.26
644.66	0.00
644.81	51.49
644.95	23.41
645.10	42.13
645.25	0.00
645.39	91.28
645.54	74.90
645.69	4.68
645.83	9.36
645.98	42.13
646.13	42.13
646.27	0.00
646.42	70.22
646.57	67.88
646.71	28.09
646.86	95.96
647.00	60.85
647.15	0.00
647.30	2.34
647.44	30.43
647.59	39.79
647.74	65.54
647.88	58.51
648.03	49.15
648.17	0.00
648.32	28.09
648.47	46.81
648.61	79.58
648.76	58.51
648.90	51.49
649.05	63.19
649.20	0.00
649.34	49.15
649.49	11.70
649.63	18.72
649.78	91.28
649.92	42.13
650.07	280.86
650.21	915.15
650.36	1570.50
650.51	1991.80
650.65	1687.53
650.80	1132.82
650.94	746.63
651.09	496.19
651.23	203.63
651.38	175.54
651.52	112.35
651.67	86.60
651.81	0.00
651.96	9.36
652.10	72.56
652.25	77.24
652.39	0.00
652.54	65.54
652.68	63.19
652.83	250.44
652.97	477.47
653.12	770.04
653.26	622.58
653.41	491.51
653.55	358.10
653.70	227.03
653.84	114.69
653.99	117.03
654.13	44.47
654.27	77.24
654.42	32.77
654.56	37.45
654.71	32.77
654.85	0.00
655.00	44.47
655.14	4.68
655.29	74.90
655.43	2.34
655.57	39.79
655.72	28.09
655.86	65.54
656.01	79.58
656.15	60.85
656.30	81.92
656.44	0.00
656.58	25.75
656.73	0.00
656.87	0.00
657.01	67.88
657.16	112.35
657.30	65.54
657.45	0.00
657.59	0.00
657.73	86.60
657.88	0.00
658.02	0.00
658.16	14.04
658.31	28.09
658.45	0.00
658.60	0.00
658.74	35.11
658.88	37.45
659.03	42.13
659.17	126.39
659.31	135.75
659.46	486.83
659.60	713.86
659.74	905.79
659.89	868.34
660.03	638.97
660.17	447.04
660.32	332.36
660.46	196.60
660.60	44.47
660.74	25.75
660.89	0.00
661.03	23.41
661.17	42.13
661.32	60.85
661.46	42.13
661.60	16.38
661.74	11.70
661.89	74.90
662.03	37.45
662.17	23.41
662.31	0.00
662.46	91.28
662.60	0.00
662.74	35.11
662.88	18.72
663.03	0.00
663.17	56.17
663.31	102.98
663.45	65.54
663.60	21.06
663.74	63.19
663.88	0.00
664.02	14.04
664.17	37.45
664.31	65.54
664.45	44.47
664.59	72.56
664.73	0.00
664.88	0.00
665.02	16.38
665.16	23.41
665.30	49.15
665.44	56.17
665.59	0.00
665.73	98.30
665.87	11.70
666.01	58.51
666.15	65.54
666.29	23.41
666.44	51.49
666.58	81.92
666.72	44.47
666.86	95.96
667.00	107.66
667.14	117.03
667.28	297.25
667.43	823.87
667.57	1327.08
667.71	1671.14
667.85	1469.86
667.99	978.34
668.13	763.01
668.27	400.23
668.41	276.18
668.56	170.86
668.70	65.54
668.84	63.19
668.98	14.04
669.12	51.49
669.26	60.85
669.40	35.11
669.54	95.96
669.68	39.79
669.82	32.77
669.96	42.13
670.10	81.92
670.25	0.00
670.39	37.45
670.53	2.34
670.67	4.68
670.81	51.49
670.95	30.43
671.09	133.41
671.23	322.99
671.37	653.01
671.51	985.37
671.65	1114.10
671.79	777.06
671.93	580.45
672.07	365.12
672.21	252.78
672.35	138.09
672.49	154.48
672.63	72.56
672.77	25.75
672.91	60.85
673.05	74.90
673.19	60.85
673.33	67.88
673.47	74.90
673.61	114.69
673.75	86.60
673.89	44.47
674.03	0.00
674.17	23.41
674.31	28.09
674.45	0.00
674.59	70.22
674.73	0.00
674.87	0.00
675.01	88.94
675.15	72.56
675.29	77.24
675.43	102.98
675.56	70.22
675.70	84.26
675.84	98.30
675.98	9.36
676.12	14.04
676.26	11.70
676.40	49.15
676.54	0.00
676.68	60.85
676.82	18.72
676.96	138.09
677.10	0.00
677.23	0.00
677.37	0.00
677.51	70.22
677.65	100.64
677.79	77.24
677.93	0.00
678.07	81.92
678.21	21.06
678.34	2.34
678.48	23.41
678.62	0.00
678.76	0.00
678.90	53.83
679.04	84.26
679.18	46.81
679.31	79.58
679.45	0.00
679.59	2.34
679.73	37.45
679.87	51.49
680.00	35.11
680.14	30.43
680.28	49.15
680.42	0.00
680.56	142.77
680.70	11.70
680.83	0.00
680.97	0.00
681.11	37.45
681.25	42.13
681.39	81.92
681.52	58.51
681.66	35.11
681.80	18.72
681.94	35.11
682.07	25.75
682.21	23.41
682.35	51.49
682.49	112.35
682.62	7.02
682.76	49.15
682.90	30.43
683.04	39.79
683.17	39.79
683.31	11.70
683.45	79.58
683.59	112.35
683.72	9.36
683.86	93.62
684.00	14.04
684.13	49.15
684.27	51.49
684.41	63.19
684.55	65.54
684.68	65.54
684.82	32.77
684.96	23.41
685.09	23.41
685.23	0.00
685.37	0.00
685.50	0.00
685.64	37.45
685.78	25.75
685.91	46.81
686.05	44.47
686.19	28.09
686.32	28.09
686.46	51.49
686.60	77.24
686.73	56.17
686.87	107.66
687.01	9.36
687.14	0.00
687.28	49.15
687.42	7.02
687.55	58.51
687.69	23.41
687.82	18.72
687.96	93.62
688.10	63.19
688.23	23.41
688.37	37.45
688.50	30.43
688.64	7.02
688.78	37.45
688.91	77.24
689.05	35.11
689.18	86.60
689.32	86.60
689.46	39.79
689.59	42.13
689.73	32.77
689.86	21.06
690.00	18.72
690.13	0.00
690.27	23.41
690.41	2.34
690.54	74.90
690.68	42.13
690.81	0.00
690.95	91.28
691.08	77.24
691.22	0.00
691.35	0.00
691.49	0.00
691.62	39.79
691.76	0.00
691.89	0.00
692.03	51.49
692.16	28.09
692.30	23.41
692.43	88.94
692.57	351.08
692.70	566.41
692.84	730.25
692.97	667.05
693.11	526.62
693.24	428.32
693.38	294.91
693.51	212.99
693.65	173.20
693.78	117.03
693.92	65.54
694.05	51.49
694.19	7.02
694.32	53.83
694.45	56.17
694.59	77.24
694.72	0.00
694.86	86.60
694.99	53.83
695.13	0.00
695.26	0.00
695.39	14.04
695.53	112.35
695.66	32.77
695.80	14.04
695.93	32.77
696.07	72.56
696.20	138.09
696.33	0.00
696.47	100.64
696.60	44.47
696.73	81.92
696.87	93.62
697.00	102.98
697.14	65.54
697.27	60.85
697.40	0.00
697.54	11.70
697.67	16.38
697.80	53.83
697.94	9.36
698.07	23.41
698.21	81.92
698.34	14.04
698.47	25.75
698.61	25.75
698.74	0.00
698.87	0.00
699.01	7.02
699.14	133.41
699.27	0.00
699.40	44.47
699.54	18.72
699.67	53.83
699.80	0.00
699.94	4.68
700.07	14.04
700.20	35.11
700.34	128.73
700.47	49.15
700.60	63.19
700.73	0.00
700.87	56.17
701.00	16.38
701.13	21.06
701.26	49.15
701.40	117.03
701.53	60.85
701.66	35.11
701.79	28.09
701.93	58.51
702.06	72.56
702.19	28.09
702.32	53.83
702.46	0.00
702.59	86.60
702.72	163.84
702.85	486.83
702.99	840.25
703.12	1256.87
703.25	1502.62
703.38	1177.29
703.51	1006.43
703.65	781.74
703.78	573.43
703.91	355.76
704.04	262.14
704.17	107.66
704.31	128.73
704.44	135.75
704.57	56.17
704.70	32.77
704.83	46.81
704.96	112.35
705.10	35.11
705.23	44.47
>>>>>End Processed Spectral Data<<<<<
