SpectraSuite Data File
++++++++++++++++++++++++++++++++++++
Date: Fri Oct 04 12:13:38 GMT-05:00 2013
User: price-jones
Dark Spectrum Present: No
Reference Spectrum Present: No
Number of Sampled Component Spectra: 1
Spectrometers: USB2+H05261
Integration Time (usec): 10000 (USB2+H05261)
Spectra Averaged: 1 (USB2+H05261)
Boxcar Smoothing: 0 (USB2+H05261)
Correct for Electrical Dark: No (USB2+H05261)
Strobe/Lamp Enabled: No (USB2+H05261)
Correct for Detector Non-linearity: No (USB2+H05261)
Correct for Stray Light: No (USB2+H05261)
Number of Pixels in Processed Spectrum: 2048
>>>>>Begin Processed Spectral Data<<<<<
365.73	28.09
365.92	28.09
366.12	28.09
366.32	0.00
366.52	0.00
366.72	0.00
366.91	0.00
367.11	0.00
367.31	0.00
367.51	0.00
367.70	0.00
367.90	0.00
368.10	0.00
368.30	0.00
368.49	0.00
368.69	0.00
368.89	0.00
369.09	0.00
369.28	0.00
369.48	0.00
369.68	0.00
369.87	0.00
370.07	0.00
370.27	0.00
370.47	0.00
370.66	0.00
370.86	0.00
371.06	0.00
371.25	0.00
371.45	0.00
371.65	49.15
371.84	0.00
372.04	2.34
372.24	46.81
372.44	28.09
372.63	58.51
372.83	46.81
373.03	18.72
373.22	0.00
373.42	35.11
373.62	21.06
373.81	18.72
374.01	16.38
374.21	9.36
374.40	44.47
374.60	63.19
374.79	0.00
374.99	39.79
375.19	60.85
375.38	0.00
375.58	44.47
375.78	49.15
375.97	9.36
376.17	49.15
376.37	0.00
376.56	37.45
376.76	4.68
376.95	18.72
377.15	14.04
377.35	25.75
377.54	74.90
377.74	135.75
377.93	11.70
378.13	49.15
378.33	0.00
378.52	51.49
378.72	4.68
378.91	81.92
379.11	14.04
379.31	0.00
379.50	0.00
379.70	25.75
379.89	0.00
380.09	56.17
380.28	32.77
380.48	7.02
380.68	21.06
380.87	0.00
381.07	58.51
381.26	0.00
381.46	32.77
381.65	67.88
381.85	18.72
382.04	9.36
382.24	51.49
382.43	25.75
382.63	0.00
382.83	72.56
383.02	46.81
383.22	4.68
383.41	0.00
383.61	112.35
383.80	51.49
384.00	0.00
384.19	46.81
384.39	100.64
384.58	16.38
384.78	0.00
384.97	0.00
385.17	11.70
385.36	0.00
385.56	0.00
385.75	2.34
385.95	37.45
386.14	28.09
386.34	21.06
386.53	7.02
386.72	4.68
386.92	16.38
387.11	0.00
387.31	11.70
387.50	18.72
387.70	0.00
387.89	0.00
388.09	14.04
388.28	0.00
388.48	0.00
388.67	46.81
388.86	30.43
389.06	7.02
389.25	86.60
389.45	86.60
389.64	58.51
389.84	7.02
390.03	0.00
390.22	0.00
390.42	46.81
390.61	70.22
390.81	16.38
391.00	65.54
391.19	0.00
391.39	58.51
391.58	28.09
391.78	0.00
391.97	105.32
392.16	7.02
392.36	4.68
392.55	11.70
392.75	77.24
392.94	0.00
393.13	0.00
393.33	56.17
393.52	35.11
393.71	0.00
393.91	30.43
394.10	0.00
394.29	60.85
394.49	74.90
394.68	30.43
394.88	107.66
395.07	16.38
395.26	30.43
395.46	4.68
395.65	0.00
395.84	0.00
396.04	23.41
396.23	18.72
396.42	0.00
396.62	21.06
396.81	18.72
397.00	21.06
397.19	91.28
397.39	53.83
397.58	0.00
397.77	18.72
397.97	56.17
398.16	46.81
398.35	49.15
398.55	74.90
398.74	21.06
398.93	37.45
399.12	86.60
399.32	46.81
399.51	30.43
399.70	32.77
399.90	23.41
400.09	65.54
400.28	0.00
400.47	0.00
400.67	25.75
400.86	7.02
401.05	58.51
401.24	25.75
401.44	42.13
401.63	0.00
401.82	9.36
402.01	39.79
402.21	63.19
402.40	74.90
402.59	93.62
402.78	0.00
402.97	58.51
403.17	138.09
403.36	65.54
403.55	4.68
403.74	58.51
403.93	0.00
404.13	37.45
404.32	53.83
404.51	65.54
404.70	23.41
404.89	7.02
405.09	0.00
405.28	7.02
405.47	0.00
405.66	0.00
405.85	4.68
406.05	0.00
406.24	0.00
406.43	32.77
406.62	46.81
406.81	30.43
407.00	49.15
407.20	72.56
407.39	84.26
407.58	18.72
407.77	53.83
407.96	0.00
408.15	2.34
408.34	95.96
408.54	9.36
408.73	16.38
408.92	79.58
409.11	28.09
409.30	42.13
409.49	42.13
409.68	2.34
409.87	28.09
410.07	18.72
410.26	56.17
410.45	35.11
410.64	0.00
410.83	67.88
411.02	81.92
411.21	0.00
411.40	63.19
411.59	91.28
411.78	37.45
411.98	16.38
412.17	0.00
412.36	2.34
412.55	0.00
412.74	0.00
412.93	44.47
413.12	0.00
413.31	60.85
413.50	98.30
413.69	65.54
413.88	39.79
414.07	51.49
414.26	77.24
414.45	77.24
414.64	39.79
414.83	42.13
415.02	0.00
415.22	0.00
415.41	11.70
415.60	11.70
415.79	16.38
415.98	4.68
416.17	18.72
416.36	88.94
416.55	95.96
416.74	28.09
416.93	0.00
417.12	112.35
417.31	0.00
417.50	0.00
417.69	46.81
417.88	35.11
418.07	35.11
418.26	60.85
418.45	44.47
418.64	14.04
418.83	58.51
419.02	9.36
419.21	35.11
419.39	0.00
419.58	30.43
419.77	142.77
419.96	58.51
420.15	100.64
420.34	39.79
420.53	72.56
420.72	9.36
420.91	0.00
421.10	44.47
421.29	25.75
421.48	46.81
421.67	0.00
421.86	0.00
422.05	30.43
422.24	70.22
422.43	56.17
422.61	56.17
422.80	105.32
422.99	74.90
423.18	0.00
423.37	117.03
423.56	30.43
423.75	65.54
423.94	11.70
424.13	67.88
424.32	98.30
424.50	0.00
424.69	102.98
424.88	0.00
425.07	60.85
425.26	67.88
425.45	25.75
425.64	67.88
425.83	63.19
426.01	60.85
426.20	79.58
426.39	32.77
426.58	0.00
426.77	18.72
426.96	63.19
427.15	0.00
427.33	0.00
427.52	51.49
427.71	49.15
427.90	21.06
428.09	21.06
428.28	98.30
428.46	110.01
428.65	32.77
428.84	35.11
429.03	60.85
429.22	37.45
429.40	86.60
429.59	117.03
429.78	16.38
429.97	46.81
430.16	0.00
430.34	9.36
430.53	18.72
430.72	60.85
430.91	77.24
431.10	14.04
431.28	0.00
431.47	9.36
431.66	88.94
431.85	0.00
432.03	4.68
432.22	138.09
432.41	65.54
432.60	23.41
432.79	0.00
432.97	0.00
433.16	39.79
433.35	84.26
433.54	37.45
433.72	60.85
433.91	77.24
434.10	0.00
434.28	28.09
434.47	39.79
434.66	67.88
434.85	16.38
435.03	23.41
435.22	25.75
435.41	91.28
435.59	65.54
435.78	25.75
435.97	63.19
436.16	0.00
436.34	84.26
436.53	0.00
436.72	23.41
436.90	67.88
437.09	56.17
437.28	0.00
437.46	84.26
437.65	21.06
437.84	93.62
438.02	0.00
438.21	42.13
438.40	44.47
438.58	2.34
438.77	58.51
438.96	16.38
439.14	63.19
439.33	46.81
439.52	86.60
439.70	56.17
439.89	11.70
440.08	117.03
440.26	32.77
440.45	58.51
440.63	126.39
440.82	63.19
441.01	95.96
441.19	16.38
441.38	79.58
441.57	44.47
441.75	65.54
441.94	81.92
442.12	32.77
442.31	9.36
442.50	30.43
442.68	60.85
442.87	49.15
443.05	53.83
443.24	58.51
443.43	16.38
443.61	67.88
443.80	72.56
443.98	32.77
444.17	107.66
444.35	11.70
444.54	84.26
444.73	23.41
444.91	46.81
445.10	79.58
445.28	37.45
445.47	30.43
445.65	32.77
445.84	44.47
446.02	23.41
446.21	21.06
446.39	0.00
446.58	30.43
446.77	56.17
446.95	93.62
447.14	53.83
447.32	63.19
447.51	133.41
447.69	84.26
447.88	98.30
448.06	14.04
448.25	28.09
448.43	91.28
448.62	84.26
448.80	37.45
448.99	102.98
449.17	0.00
449.36	0.00
449.54	46.81
449.73	72.56
449.91	30.43
450.10	70.22
450.28	114.69
450.46	32.77
450.65	56.17
450.83	42.13
451.02	154.48
451.20	70.22
451.39	42.13
451.57	49.15
451.76	70.22
451.94	67.88
452.13	58.51
452.31	0.00
452.49	72.56
452.68	86.60
452.86	72.56
453.05	91.28
453.23	0.00
453.42	9.36
453.60	0.00
453.78	91.28
453.97	18.72
454.15	74.90
454.34	46.81
454.52	77.24
454.70	79.58
454.89	51.49
455.07	39.79
455.26	37.45
455.44	60.85
455.62	60.85
455.81	88.94
455.99	88.94
456.17	161.50
456.36	65.54
456.54	93.62
456.73	65.54
456.91	37.45
457.09	51.49
457.28	0.00
457.46	102.98
457.64	46.81
457.83	84.26
458.01	0.00
458.19	56.17
458.38	30.43
458.56	23.41
458.74	16.38
458.93	110.01
459.11	49.15
459.29	161.50
459.48	124.05
459.66	56.17
459.84	93.62
460.03	49.15
460.21	0.00
460.39	0.00
460.57	67.88
460.76	72.56
460.94	49.15
461.12	79.58
461.31	53.83
461.49	49.15
461.67	4.68
461.85	49.15
462.04	70.22
462.22	91.28
462.40	32.77
462.59	53.83
462.77	86.60
462.95	0.00
463.13	37.45
463.32	0.00
463.50	32.77
463.68	0.00
463.86	0.00
464.05	30.43
464.23	2.34
464.41	37.45
464.59	0.00
464.78	23.41
464.96	51.49
465.14	42.13
465.32	98.30
465.50	70.22
465.69	42.13
465.87	21.06
466.05	14.04
466.23	74.90
466.41	51.49
466.60	56.17
466.78	95.96
466.96	67.88
467.14	100.64
467.32	0.00
467.51	51.49
467.69	100.64
467.87	23.41
468.05	60.85
468.23	114.69
468.41	72.56
468.60	18.72
468.78	51.49
468.96	23.41
469.14	44.47
469.32	18.72
469.50	65.54
469.69	79.58
469.87	42.13
470.05	51.49
470.23	67.88
470.41	105.32
470.59	28.09
470.77	37.45
470.95	56.17
471.14	39.79
471.32	25.75
471.50	51.49
471.68	79.58
471.86	21.06
472.04	39.79
472.22	65.54
472.40	46.81
472.58	30.43
472.77	0.00
472.95	49.15
473.13	23.41
473.31	81.92
473.49	0.00
473.67	105.32
473.85	110.01
474.03	53.83
474.21	131.07
474.39	98.30
474.57	14.04
474.75	84.26
474.93	23.41
475.12	138.09
475.30	58.51
475.48	72.56
475.66	86.60
475.84	91.28
476.02	67.88
476.20	98.30
476.38	42.13
476.56	88.94
476.74	16.38
476.92	102.98
477.10	173.20
477.28	145.11
477.46	77.24
477.64	0.00
477.82	21.06
478.00	67.88
478.18	63.19
478.36	67.88
478.54	21.06
478.72	37.45
478.90	32.77
479.08	100.64
479.26	42.13
479.44	14.04
479.62	49.15
479.80	95.96
479.98	119.37
480.16	77.24
480.34	131.07
480.52	95.96
480.70	37.45
480.88	39.79
481.06	56.17
481.24	95.96
481.41	91.28
481.59	32.77
481.77	42.13
481.95	117.03
482.13	86.60
482.31	42.13
482.49	72.56
482.67	121.71
482.85	102.98
483.03	117.03
483.21	4.68
483.39	56.17
483.57	46.81
483.74	35.11
483.92	14.04
484.10	86.60
484.28	105.32
484.46	91.28
484.64	16.38
484.82	0.00
485.00	44.47
485.18	65.54
485.35	21.06
485.53	42.13
485.71	74.90
485.89	42.13
486.07	70.22
486.25	121.71
486.43	88.94
486.61	7.02
486.78	30.43
486.96	98.30
487.14	105.32
487.32	51.49
487.50	0.00
487.68	77.24
487.85	72.56
488.03	7.02
488.21	79.58
488.39	56.17
488.57	2.34
488.75	105.32
488.92	95.96
489.10	77.24
489.28	110.01
489.46	42.13
489.64	37.45
489.81	63.19
489.99	84.26
490.17	9.36
490.35	121.71
490.53	39.79
490.70	88.94
490.88	110.01
491.06	117.03
491.24	119.37
491.41	133.41
491.59	30.43
491.77	11.70
491.95	46.81
492.13	35.11
492.30	81.92
492.48	102.98
492.66	124.05
492.84	105.32
493.01	72.56
493.19	86.60
493.37	65.54
493.54	126.39
493.72	72.56
493.90	70.22
494.08	135.75
494.25	53.83
494.43	51.49
494.61	128.73
494.79	86.60
494.96	49.15
495.14	112.35
495.32	63.19
495.49	0.00
495.67	84.26
495.85	56.17
496.02	56.17
496.20	63.19
496.38	72.56
496.55	74.90
496.73	133.41
496.91	114.69
497.09	60.85
497.26	30.43
497.44	0.00
497.62	95.96
497.79	84.26
497.97	11.70
498.14	0.00
498.32	56.17
498.50	46.81
498.67	138.09
498.85	23.41
499.03	58.51
499.20	77.24
499.38	72.56
499.56	46.81
499.73	18.72
499.91	98.30
500.08	91.28
500.26	4.68
500.44	16.38
500.61	65.54
500.79	30.43
500.97	51.49
501.14	67.88
501.32	105.32
501.49	107.66
501.67	102.98
501.84	79.58
502.02	81.92
502.20	67.88
502.37	110.01
502.55	100.64
502.72	35.11
502.90	91.28
503.07	84.26
503.25	135.75
503.43	95.96
503.60	63.19
503.78	67.88
503.95	98.30
504.13	81.92
504.30	74.90
504.48	81.92
504.65	156.82
504.83	32.77
505.01	140.43
505.18	74.90
505.36	0.00
505.53	67.88
505.71	72.56
505.88	60.85
506.06	16.38
506.23	51.49
506.41	60.85
506.58	81.92
506.76	46.81
506.93	56.17
507.11	23.41
507.28	107.66
507.46	88.94
507.63	0.00
507.81	42.13
507.98	65.54
508.16	142.77
508.33	112.35
508.50	102.98
508.68	44.47
508.85	58.51
509.03	95.96
509.20	42.13
509.38	46.81
509.55	37.45
509.73	51.49
509.90	67.88
510.08	46.81
510.25	95.96
510.42	60.85
510.60	95.96
510.77	95.96
510.95	107.66
511.12	58.51
511.30	114.69
511.47	74.90
511.64	131.07
511.82	0.00
511.99	95.96
512.17	14.04
512.34	56.17
512.51	98.30
512.69	67.88
512.86	28.09
513.04	44.47
513.21	93.62
513.38	63.19
513.56	35.11
513.73	46.81
513.90	70.22
514.08	56.17
514.25	187.24
514.43	93.62
514.60	114.69
514.77	32.77
514.95	163.84
515.12	4.68
515.29	46.81
515.47	51.49
515.64	14.04
515.81	114.69
515.99	79.58
516.16	95.96
516.33	70.22
516.51	95.96
516.68	53.83
516.85	91.28
517.03	65.54
517.20	16.38
517.37	74.90
517.54	110.01
517.72	95.96
517.89	72.56
518.06	25.75
518.24	32.77
518.41	105.32
518.58	126.39
518.75	32.77
518.93	133.41
519.10	95.96
519.27	56.17
519.45	95.96
519.62	72.56
519.79	0.00
519.96	81.92
520.14	9.36
520.31	46.81
520.48	37.45
520.65	102.98
520.83	49.15
521.00	152.13
521.17	67.88
521.34	53.83
521.52	11.70
521.69	100.64
521.86	74.90
522.03	46.81
522.20	121.71
522.38	88.94
522.55	46.81
522.72	95.96
522.89	91.28
523.07	46.81
523.24	77.24
523.41	102.98
523.58	119.37
523.75	65.54
523.92	53.83
524.10	70.22
524.27	98.30
524.44	88.94
524.61	39.79
524.78	46.81
524.96	79.58
525.13	102.98
525.30	84.26
525.47	131.07
525.64	133.41
525.81	86.60
525.98	35.11
526.16	0.00
526.33	121.71
526.50	119.37
526.67	95.96
526.84	60.85
527.01	58.51
527.18	58.51
527.36	84.26
527.53	91.28
527.70	77.24
527.87	58.51
528.04	37.45
528.21	100.64
528.38	2.34
528.55	119.37
528.72	56.17
528.89	67.88
529.07	98.30
529.24	98.30
529.41	79.58
529.58	70.22
529.75	88.94
529.92	119.37
530.09	51.49
530.26	77.24
530.43	84.26
530.60	56.17
530.77	135.75
530.94	107.66
531.11	0.00
531.28	74.90
531.46	53.83
531.63	53.83
531.80	58.51
531.97	86.60
532.14	7.02
532.31	124.05
532.48	119.37
532.65	67.88
532.82	44.47
532.99	149.79
533.16	58.51
533.33	56.17
533.50	98.30
533.67	51.49
533.84	124.05
534.01	7.02
534.18	18.72
534.35	0.00
534.52	0.00
534.69	163.84
534.86	131.07
535.03	81.92
535.20	67.88
535.37	44.47
535.54	124.05
535.71	112.35
535.88	161.50
536.05	119.37
536.22	107.66
536.38	51.49
536.55	81.92
536.72	81.92
536.89	98.30
537.06	84.26
537.23	110.01
537.40	56.17
537.57	98.30
537.74	163.84
537.91	91.28
538.08	84.26
538.25	131.07
538.42	28.09
538.59	70.22
538.75	7.02
538.92	72.56
539.09	102.98
539.26	84.26
539.43	86.60
539.60	44.47
539.77	53.83
539.94	121.71
540.11	133.41
540.28	114.69
540.44	145.11
540.61	60.85
540.78	58.51
540.95	110.01
541.12	110.01
541.29	7.02
541.46	25.75
541.62	72.56
541.79	67.88
541.96	53.83
542.13	72.56
542.30	105.32
542.47	161.50
542.63	98.30
542.80	131.07
542.97	65.54
543.14	42.13
543.31	126.39
543.48	72.56
543.64	79.58
543.81	21.06
543.98	79.58
544.15	65.54
544.32	51.49
544.48	11.70
544.65	142.77
544.82	128.73
544.99	180.22
545.16	70.22
545.32	44.47
545.49	105.32
545.66	93.62
545.83	46.81
546.00	100.64
546.16	63.19
546.33	42.13
546.50	138.09
546.67	42.13
546.83	32.77
547.00	105.32
547.17	121.71
547.34	86.60
547.50	133.41
547.67	58.51
547.84	102.98
548.00	46.81
548.17	51.49
548.34	39.79
548.51	0.00
548.67	53.83
548.84	28.09
549.01	81.92
549.18	72.56
549.34	39.79
549.51	58.51
549.68	128.73
549.84	126.39
550.01	72.56
550.18	53.83
550.34	156.82
550.51	67.88
550.68	14.04
550.84	77.24
551.01	79.58
551.18	58.51
551.34	100.64
551.51	81.92
551.68	88.94
551.84	124.05
552.01	0.00
552.18	49.15
552.34	25.75
552.51	77.24
552.68	126.39
552.84	14.04
553.01	65.54
553.18	100.64
553.34	70.22
553.51	81.92
553.67	72.56
553.84	86.60
554.01	88.94
554.17	2.34
554.34	81.92
554.51	74.90
554.67	95.96
554.84	37.45
555.00	65.54
555.17	74.90
555.33	32.77
555.50	0.00
555.67	84.26
555.83	79.58
556.00	63.19
556.16	98.30
556.33	93.62
556.50	154.48
556.66	95.96
556.83	102.98
556.99	0.00
557.16	74.90
557.32	93.62
557.49	77.24
557.65	35.11
557.82	105.32
557.98	32.77
558.15	65.54
558.32	88.94
558.48	9.36
558.65	105.32
558.81	70.22
558.98	70.22
559.14	16.38
559.31	121.71
559.47	91.28
559.64	107.66
559.80	117.03
559.97	63.19
560.13	65.54
560.30	63.19
560.46	42.13
560.63	14.04
560.79	154.48
560.96	107.66
561.12	65.54
561.29	65.54
561.45	194.26
561.61	119.37
561.78	70.22
561.94	93.62
562.11	81.92
562.27	166.18
562.44	138.09
562.60	37.45
562.77	53.83
562.93	86.60
563.10	60.85
563.26	49.15
563.42	37.45
563.59	70.22
563.75	65.54
563.92	49.15
564.08	117.03
564.24	98.30
564.41	91.28
564.57	119.37
564.74	32.77
564.90	149.79
565.07	74.90
565.23	58.51
565.39	86.60
565.56	145.11
565.72	88.94
565.88	84.26
566.05	152.13
566.21	37.45
566.38	67.88
566.54	53.83
566.70	9.36
566.87	46.81
567.03	102.98
567.19	107.66
567.36	91.28
567.52	149.79
567.68	147.45
567.85	86.60
568.01	93.62
568.17	25.75
568.34	100.64
568.50	105.32
568.66	4.68
568.83	133.41
568.99	74.90
569.15	124.05
569.32	65.54
569.48	74.90
569.64	135.75
569.81	105.32
569.97	128.73
570.13	98.30
570.30	42.13
570.46	100.64
570.62	102.98
570.78	9.36
570.95	63.19
571.11	25.75
571.27	93.62
571.43	88.94
571.60	100.64
571.76	105.32
571.92	51.49
572.09	51.49
572.25	0.00
572.41	51.49
572.57	102.98
572.74	81.92
572.90	110.01
573.06	77.24
573.22	39.79
573.38	37.45
573.55	119.37
573.71	4.68
573.87	58.51
574.03	42.13
574.20	16.38
574.36	46.81
574.52	105.32
574.68	138.09
574.84	60.85
575.01	81.92
575.17	58.51
575.33	88.94
575.49	110.01
575.65	149.79
575.82	117.03
575.98	74.90
576.14	100.64
576.30	98.30
576.46	60.85
576.62	60.85
576.79	0.00
576.95	72.56
577.11	70.22
577.27	77.24
577.43	46.81
577.59	112.35
577.75	95.96
577.92	86.60
578.08	138.09
578.24	93.62
578.40	77.24
578.56	56.17
578.72	58.51
578.88	88.94
579.04	65.54
579.21	58.51
579.37	56.17
579.53	37.45
579.69	114.69
579.85	91.28
580.01	65.54
580.17	142.77
580.33	58.51
580.49	119.37
580.65	44.47
580.82	74.90
580.98	131.07
581.14	128.73
581.30	86.60
581.46	39.79
581.62	77.24
581.78	58.51
581.94	126.39
582.10	72.56
582.26	100.64
582.42	51.49
582.58	88.94
582.74	107.66
582.90	84.26
583.06	60.85
583.22	88.94
583.38	84.26
583.54	42.13
583.70	74.90
583.86	0.00
584.02	58.51
584.18	58.51
584.34	77.24
584.50	168.52
584.66	95.96
584.82	140.43
584.98	95.96
585.14	60.85
585.30	65.54
585.46	138.09
585.62	95.96
585.78	60.85
585.94	60.85
586.10	154.48
586.26	117.03
586.42	93.62
586.58	93.62
586.74	133.41
586.90	74.90
587.06	77.24
587.22	53.83
587.38	114.69
587.54	72.56
587.70	23.41
587.86	112.35
588.02	42.13
588.18	25.75
588.34	56.17
588.49	88.94
588.65	100.64
588.81	16.38
588.97	65.54
589.13	37.45
589.29	63.19
589.45	58.51
589.61	53.83
589.77	28.09
589.93	0.00
590.08	72.56
590.24	84.26
590.40	28.09
590.56	63.19
590.72	28.09
590.88	135.75
591.04	70.22
591.20	112.35
591.35	114.69
591.51	39.79
591.67	49.15
591.83	102.98
591.99	86.60
592.15	56.17
592.31	4.68
592.46	107.66
592.62	128.73
592.78	56.17
592.94	131.07
593.10	35.11
593.26	35.11
593.41	16.38
593.57	84.26
593.73	53.83
593.89	138.09
594.05	86.60
594.20	58.51
594.36	81.92
594.52	46.81
594.68	84.26
594.84	100.64
594.99	110.01
595.15	98.30
595.31	70.22
595.47	91.28
595.62	51.49
595.78	60.85
595.94	110.01
596.10	56.17
596.25	119.37
596.41	60.85
596.57	98.30
596.73	107.66
596.88	117.03
597.04	79.58
597.20	23.41
597.36	53.83
597.51	56.17
597.67	42.13
597.83	98.30
597.99	86.60
598.14	119.37
598.30	49.15
598.46	60.85
598.61	23.41
598.77	74.90
598.93	79.58
599.09	133.41
599.24	39.79
599.40	46.81
599.56	124.05
599.71	88.94
599.87	46.81
600.03	39.79
600.18	131.07
600.34	93.62
600.50	58.51
600.65	79.58
600.81	16.38
600.97	21.06
601.12	23.41
601.28	65.54
601.44	42.13
601.59	32.77
601.75	81.92
601.91	72.56
602.06	105.32
602.22	65.54
602.37	18.72
602.53	81.92
602.69	81.92
602.84	131.07
603.00	0.00
603.16	95.96
603.31	77.24
603.47	58.51
603.62	119.37
603.78	84.26
603.94	51.49
604.09	77.24
604.25	39.79
604.40	70.22
604.56	70.22
604.71	114.69
604.87	60.85
605.03	70.22
605.18	95.96
605.34	88.94
605.49	107.66
605.65	100.64
605.80	124.05
605.96	121.71
606.12	70.22
606.27	128.73
606.43	77.24
606.58	30.43
606.74	84.26
606.89	53.83
607.05	100.64
607.20	60.85
607.36	39.79
607.51	112.35
607.67	145.11
607.82	138.09
607.98	32.77
608.13	100.64
608.29	100.64
608.44	60.85
608.60	81.92
608.75	2.34
608.91	95.96
609.06	84.26
609.22	0.00
609.37	81.92
609.53	56.17
609.68	86.60
609.84	98.30
609.99	98.30
610.15	60.85
610.30	53.83
610.46	138.09
610.61	117.03
610.76	74.90
610.92	86.60
611.07	74.90
611.23	58.51
611.38	77.24
611.54	126.39
611.69	51.49
611.84	93.62
612.00	100.64
612.15	67.88
612.31	98.30
612.46	72.56
612.62	14.04
612.77	84.26
612.92	0.00
613.08	86.60
613.23	25.75
613.39	93.62
613.54	112.35
613.69	70.22
613.85	84.26
614.00	67.88
614.15	4.68
614.31	98.30
614.46	21.06
614.62	30.43
614.77	84.26
614.92	58.51
615.08	37.45
615.23	93.62
615.38	42.13
615.54	112.35
615.69	124.05
615.84	88.94
616.00	53.83
616.15	100.64
616.30	72.56
616.46	114.69
616.61	100.64
616.76	70.22
616.92	56.17
617.07	0.00
617.22	35.11
617.37	37.45
617.53	63.19
617.68	56.17
617.83	58.51
617.99	86.60
618.14	100.64
618.29	88.94
618.45	72.56
618.60	81.92
618.75	72.56
618.90	44.47
619.06	142.77
619.21	147.45
619.36	86.60
619.51	49.15
619.67	84.26
619.82	138.09
619.97	74.90
620.12	67.88
620.28	72.56
620.43	0.00
620.58	39.79
620.73	44.47
620.89	21.06
621.04	44.47
621.19	72.56
621.34	58.51
621.49	46.81
621.65	93.62
621.80	28.09
621.95	7.02
622.10	7.02
622.25	0.00
622.41	56.17
622.56	91.28
622.71	49.15
622.86	37.45
623.01	23.41
623.16	51.49
623.32	72.56
623.47	128.73
623.62	93.62
623.77	100.64
623.92	128.73
624.07	21.06
624.23	25.75
624.38	95.96
624.53	79.58
624.68	32.77
624.83	67.88
624.98	74.90
625.13	91.28
625.29	39.79
625.44	77.24
625.59	56.17
625.74	93.62
625.89	44.47
626.04	65.54
626.19	79.58
626.34	98.30
626.49	44.47
626.65	53.83
626.80	58.51
626.95	53.83
627.10	37.45
627.25	65.54
627.40	0.00
627.55	58.51
627.70	51.49
627.85	39.79
628.00	0.00
628.15	0.00
628.30	35.11
628.45	35.11
628.60	72.56
628.76	67.88
628.91	49.15
629.06	39.79
629.21	121.71
629.36	126.39
629.51	79.58
629.66	133.41
629.81	84.26
629.96	91.28
630.11	81.92
630.26	53.83
630.41	86.60
630.56	53.83
630.71	49.15
630.86	110.01
631.01	95.96
631.16	58.51
631.31	86.60
631.46	70.22
631.61	74.90
631.76	81.92
631.91	4.68
632.06	14.04
632.21	58.51
632.36	60.85
632.51	16.38
632.66	11.70
632.81	35.11
632.96	46.81
633.10	86.60
633.25	95.96
633.40	112.35
633.55	56.17
633.70	44.47
633.85	142.77
634.00	28.09
634.15	70.22
634.30	4.68
634.45	86.60
634.60	88.94
634.75	14.04
634.90	67.88
635.05	65.54
635.19	46.81
635.34	93.62
635.49	63.19
635.64	53.83
635.79	77.24
635.94	58.51
636.09	16.38
636.24	93.62
636.39	11.70
636.53	53.83
636.68	84.26
636.83	4.68
636.98	91.28
637.13	119.37
637.28	86.60
637.43	0.00
637.57	145.11
637.72	25.75
637.87	58.51
638.02	23.41
638.17	51.49
638.32	79.58
638.46	110.01
638.61	30.43
638.76	42.13
638.91	32.77
639.06	81.92
639.20	37.45
639.35	112.35
639.50	79.58
639.65	98.30
639.80	117.03
639.94	86.60
640.09	91.28
640.24	14.04
640.39	0.00
640.54	124.05
640.68	11.70
640.83	35.11
640.98	79.58
641.13	51.49
641.27	2.34
641.42	14.04
641.57	56.17
641.72	37.45
641.86	95.96
642.01	81.92
642.16	95.96
642.31	42.13
642.45	16.38
642.60	42.13
642.75	135.75
642.90	28.09
643.04	58.51
643.19	88.94
643.34	124.05
643.48	140.43
643.63	84.26
643.78	131.07
643.93	91.28
644.07	74.90
644.22	63.19
644.37	14.04
644.51	51.49
644.66	126.39
644.81	0.00
644.95	0.00
645.10	100.64
645.25	23.41
645.39	91.28
645.54	23.41
645.69	117.03
645.83	18.72
645.98	0.00
646.13	11.70
646.27	79.58
646.42	93.62
646.57	91.28
646.71	0.00
646.86	74.90
647.00	0.00
647.15	70.22
647.30	53.83
647.44	84.26
647.59	77.24
647.74	81.92
647.88	112.35
648.03	91.28
648.17	138.09
648.32	128.73
648.47	77.24
648.61	30.43
648.76	0.00
648.90	32.77
649.05	51.49
649.20	42.13
649.34	154.48
649.49	0.00
649.63	39.79
649.78	56.17
649.92	4.68
650.07	51.49
650.21	16.38
650.36	77.24
650.51	0.00
650.65	93.62
650.80	60.85
650.94	49.15
651.09	102.98
651.23	9.36
651.38	93.62
651.52	37.45
651.67	4.68
651.81	42.13
651.96	100.64
652.10	0.00
652.25	0.00
652.39	86.60
652.54	46.81
652.68	53.83
652.83	98.30
652.97	32.77
653.12	91.28
653.26	105.32
653.41	30.43
653.55	32.77
653.70	46.81
653.84	21.06
653.99	86.60
654.13	11.70
654.27	95.96
654.42	95.96
654.56	79.58
654.71	114.69
654.85	32.77
655.00	35.11
655.14	7.02
655.29	30.43
655.43	56.17
655.57	42.13
655.72	0.00
655.86	86.60
656.01	37.45
656.15	91.28
656.30	79.58
656.44	79.58
656.58	58.51
656.73	37.45
656.87	44.47
657.01	58.51
657.16	121.71
657.30	67.88
657.45	63.19
657.59	63.19
657.73	74.90
657.88	105.32
658.02	28.09
658.16	56.17
658.31	11.70
658.45	0.00
658.60	23.41
658.74	67.88
658.88	44.47
659.03	114.69
659.17	60.85
659.31	0.00
659.46	14.04
659.60	0.00
659.74	81.92
659.89	16.38
660.03	65.54
660.17	93.62
660.32	11.70
660.46	37.45
660.60	23.41
660.74	81.92
660.89	95.96
661.03	121.71
661.17	102.98
661.32	46.81
661.46	0.00
661.60	56.17
661.74	32.77
661.89	60.85
662.03	46.81
662.17	35.11
662.31	46.81
662.46	58.51
662.60	0.00
662.74	65.54
662.88	28.09
663.03	74.90
663.17	63.19
663.31	0.00
663.45	9.36
663.60	39.79
663.74	98.30
663.88	79.58
664.02	65.54
664.17	142.77
664.31	88.94
664.45	9.36
664.59	4.68
664.73	18.72
664.88	77.24
665.02	74.90
665.16	53.83
665.30	67.88
665.44	145.11
665.59	58.51
665.73	86.60
665.87	18.72
666.01	46.81
666.15	63.19
666.29	44.47
666.44	84.26
666.58	138.09
666.72	18.72
666.86	51.49
667.00	2.34
667.14	0.00
667.28	23.41
667.43	74.90
667.57	0.00
667.71	23.41
667.85	18.72
667.99	44.47
668.13	28.09
668.27	0.00
668.41	117.03
668.56	18.72
668.70	91.28
668.84	72.56
668.98	0.00
669.12	28.09
669.26	86.60
669.40	2.34
669.54	63.19
669.68	39.79
669.82	30.43
669.96	32.77
670.10	63.19
670.25	53.83
670.39	23.41
670.53	65.54
670.67	70.22
670.81	11.70
670.95	53.83
671.09	72.56
671.23	110.01
671.37	95.96
671.51	91.28
671.65	74.90
671.79	70.22
671.93	53.83
672.07	53.83
672.21	65.54
672.35	70.22
672.49	63.19
672.63	0.00
672.77	53.83
672.91	72.56
673.05	23.41
673.19	53.83
673.33	2.34
673.47	72.56
673.61	63.19
673.75	70.22
673.89	70.22
674.03	60.85
674.17	58.51
674.31	14.04
674.45	126.39
674.59	23.41
674.73	65.54
674.87	95.96
675.01	11.70
675.15	0.00
675.29	28.09
675.43	100.64
675.56	46.81
675.70	67.88
675.84	23.41
675.98	56.17
676.12	84.26
676.26	30.43
676.40	0.00
676.54	0.00
676.68	32.77
676.82	18.72
676.96	42.13
677.10	86.60
677.23	53.83
677.37	65.54
677.51	100.64
677.65	9.36
677.79	81.92
677.93	121.71
678.07	46.81
678.21	72.56
678.34	77.24
678.48	100.64
678.62	4.68
678.76	51.49
678.90	0.00
679.04	32.77
679.18	0.00
679.31	67.88
679.45	91.28
679.59	46.81
679.73	70.22
679.87	0.00
680.00	51.49
680.14	84.26
680.28	42.13
680.42	49.15
680.56	56.17
680.70	77.24
680.83	0.00
680.97	126.39
681.11	60.85
681.25	63.19
681.39	51.49
681.52	56.17
681.66	28.09
681.80	25.75
681.94	0.00
682.07	56.17
682.21	60.85
682.35	0.00
682.49	21.06
682.62	0.00
682.76	49.15
682.90	84.26
683.04	65.54
683.17	100.64
683.31	107.66
683.45	121.71
683.59	98.30
683.72	0.00
683.86	93.62
684.00	4.68
684.13	42.13
684.27	46.81
684.41	0.00
684.55	58.51
684.68	0.00
684.82	16.38
684.96	65.54
685.09	0.00
685.23	0.00
685.37	7.02
685.50	0.00
685.64	32.77
685.78	53.83
685.91	70.22
686.05	65.54
686.19	30.43
686.32	42.13
686.46	2.34
686.60	53.83
686.73	67.88
686.87	39.79
687.01	46.81
687.14	49.15
687.28	7.02
687.42	81.92
687.55	58.51
687.69	0.00
687.82	0.00
687.96	28.09
688.10	16.38
688.23	0.00
688.37	0.00
688.50	58.51
688.64	44.47
688.78	4.68
688.91	58.51
689.05	0.00
689.18	44.47
689.32	86.60
689.46	0.00
689.59	74.90
689.73	0.00
689.86	25.75
690.00	42.13
690.13	28.09
690.27	0.00
690.41	79.58
690.54	63.19
690.68	9.36
690.81	39.79
690.95	58.51
691.08	2.34
691.22	58.51
691.35	0.00
691.49	11.70
691.62	102.98
691.76	28.09
691.89	4.68
692.03	0.00
692.16	72.56
692.30	0.00
692.43	0.00
692.57	0.00
692.70	0.00
692.84	0.00
692.97	0.00
693.11	63.19
693.24	46.81
693.38	56.17
693.51	79.58
693.65	23.41
693.78	93.62
693.92	25.75
694.05	2.34
694.19	46.81
694.32	14.04
694.45	65.54
694.59	37.45
694.72	51.49
694.86	21.06
694.99	32.77
695.13	51.49
695.26	79.58
695.39	74.90
695.53	51.49
695.66	0.00
695.80	37.45
695.93	58.51
696.07	81.92
696.20	37.45
696.33	25.75
696.47	32.77
696.60	0.00
696.73	0.00
696.87	79.58
697.00	37.45
697.14	114.69
697.27	0.00
697.40	72.56
697.54	95.96
697.67	32.77
697.80	37.45
697.94	0.00
698.07	84.26
698.21	70.22
698.34	0.00
698.47	9.36
698.61	0.00
698.74	28.09
698.87	74.90
699.01	58.51
699.14	42.13
699.27	30.43
699.40	70.22
699.54	0.00
699.67	0.00
699.80	110.01
699.94	86.60
700.07	30.43
700.20	35.11
700.34	63.19
700.47	32.77
700.60	37.45
700.73	67.88
700.87	86.60
701.00	56.17
701.13	28.09
701.26	0.00
701.40	39.79
701.53	25.75
701.66	74.90
701.79	0.00
701.93	0.00
702.06	0.00
702.19	9.36
702.32	7.02
702.46	65.54
702.59	32.77
702.72	7.02
702.85	25.75
702.99	21.06
703.12	35.11
703.25	16.38
703.38	63.19
703.51	7.02
703.65	32.77
703.78	67.88
703.91	0.00
704.04	28.09
704.17	32.77
704.31	0.00
704.44	23.41
704.57	105.32
704.70	11.70
704.83	102.98
704.96	53.83
705.10	65.54
705.23	4.68
>>>>>End Processed Spectral Data<<<<<
