SpectraSuite Data File
++++++++++++++++++++++++++++++++++++
Date: Fri Oct 04 12:13:35 GMT-05:00 2013
User: price-jones
Dark Spectrum Present: No
Reference Spectrum Present: No
Number of Sampled Component Spectra: 1
Spectrometers: USB2+H05261
Integration Time (usec): 10000 (USB2+H05261)
Spectra Averaged: 1 (USB2+H05261)
Boxcar Smoothing: 0 (USB2+H05261)
Correct for Electrical Dark: No (USB2+H05261)
Strobe/Lamp Enabled: No (USB2+H05261)
Correct for Detector Non-linearity: No (USB2+H05261)
Correct for Stray Light: No (USB2+H05261)
Number of Pixels in Processed Spectrum: 2048
>>>>>Begin Processed Spectral Data<<<<<
365.73	0.00
365.92	0.00
366.12	0.00
366.32	0.00
366.52	0.00
366.72	0.00
366.91	0.00
367.11	0.00
367.31	0.00
367.51	0.00
367.70	0.00
367.90	0.00
368.10	0.00
368.30	0.00
368.49	0.00
368.69	0.00
368.89	0.00
369.09	0.00
369.28	0.00
369.48	0.00
369.68	0.00
369.87	0.00
370.07	0.00
370.27	0.00
370.47	0.00
370.66	0.00
370.86	0.00
371.06	0.00
371.25	0.00
371.45	0.00
371.65	0.00
371.84	0.00
372.04	0.00
372.24	18.72
372.44	0.00
372.63	0.00
372.83	0.00
373.03	102.98
373.22	60.85
373.42	25.75
373.62	9.36
373.81	51.49
374.01	42.13
374.21	23.41
374.40	70.22
374.60	53.83
374.79	49.15
374.99	44.47
375.19	44.47
375.38	4.68
375.58	23.41
375.78	25.75
375.97	58.51
376.17	30.43
376.37	30.43
376.56	84.26
376.76	74.90
376.95	58.51
377.15	0.00
377.35	46.81
377.54	46.81
377.74	53.83
377.93	14.04
378.13	0.00
378.33	32.77
378.52	37.45
378.72	18.72
378.91	51.49
379.11	0.00
379.31	42.13
379.50	23.41
379.70	9.36
379.89	60.85
380.09	18.72
380.28	23.41
380.48	53.83
380.68	67.88
380.87	32.77
381.07	0.00
381.26	30.43
381.46	60.85
381.65	0.00
381.85	4.68
382.04	9.36
382.24	74.90
382.43	60.85
382.63	0.00
382.83	0.00
383.02	0.00
383.22	0.00
383.41	35.11
383.61	21.06
383.80	53.83
384.00	70.22
384.19	9.36
384.39	0.00
384.58	0.00
384.78	18.72
384.97	32.77
385.17	67.88
385.36	9.36
385.56	11.70
385.75	0.00
385.95	11.70
386.14	25.75
386.34	28.09
386.53	70.22
386.72	98.30
386.92	67.88
387.11	0.00
387.31	4.68
387.50	14.04
387.70	74.90
387.89	37.45
388.09	7.02
388.28	0.00
388.48	37.45
388.67	4.68
388.86	0.00
389.06	0.00
389.25	11.70
389.45	2.34
389.64	7.02
389.84	65.54
390.03	0.00
390.22	0.00
390.42	37.45
390.61	0.00
390.81	35.11
391.00	11.70
391.19	18.72
391.39	39.79
391.58	14.04
391.78	21.06
391.97	0.00
392.16	14.04
392.36	0.00
392.55	0.00
392.75	74.90
392.94	0.00
393.13	0.00
393.33	49.15
393.52	0.00
393.71	0.00
393.91	56.17
394.10	4.68
394.29	70.22
394.49	0.00
394.68	11.70
394.88	2.34
395.07	7.02
395.26	53.83
395.46	0.00
395.65	30.43
395.84	0.00
396.04	9.36
396.23	35.11
396.42	25.75
396.62	0.00
396.81	0.00
397.00	39.79
397.19	53.83
397.39	28.09
397.58	32.77
397.77	2.34
397.97	0.00
398.16	30.43
398.35	51.49
398.55	9.36
398.74	60.85
398.93	53.83
399.12	23.41
399.32	7.02
399.51	60.85
399.70	18.72
399.90	30.43
400.09	9.36
400.28	56.17
400.47	25.75
400.67	25.75
400.86	42.13
401.05	46.81
401.24	53.83
401.44	56.17
401.63	65.54
401.82	4.68
402.01	30.43
402.21	63.19
402.40	39.79
402.59	14.04
402.78	49.15
402.97	39.79
403.17	0.00
403.36	0.00
403.55	16.38
403.74	2.34
403.93	25.75
404.13	39.79
404.32	32.77
404.51	28.09
404.70	18.72
404.89	16.38
405.09	53.83
405.28	88.94
405.47	88.94
405.66	51.49
405.85	0.00
406.05	16.38
406.24	37.45
406.43	0.00
406.62	51.49
406.81	60.85
407.00	0.00
407.20	9.36
407.39	28.09
407.58	23.41
407.77	74.90
407.96	84.26
408.15	91.28
408.34	0.00
408.54	70.22
408.73	42.13
408.92	100.64
409.11	28.09
409.30	18.72
409.49	9.36
409.68	0.00
409.87	32.77
410.07	18.72
410.26	28.09
410.45	25.75
410.64	46.81
410.83	0.00
411.02	9.36
411.21	25.75
411.40	18.72
411.59	11.70
411.78	9.36
411.98	18.72
412.17	44.47
412.36	37.45
412.55	23.41
412.74	42.13
412.93	65.54
413.12	46.81
413.31	0.00
413.50	46.81
413.69	0.00
413.88	0.00
414.07	4.68
414.26	67.88
414.45	23.41
414.64	86.60
414.83	30.43
415.02	0.00
415.22	30.43
415.41	37.45
415.60	14.04
415.79	25.75
415.98	51.49
416.17	35.11
416.36	56.17
416.55	67.88
416.74	56.17
416.93	95.96
417.12	28.09
417.31	39.79
417.50	16.38
417.69	30.43
417.88	81.92
418.07	77.24
418.26	44.47
418.45	91.28
418.64	18.72
418.83	65.54
419.02	35.11
419.21	0.00
419.39	0.00
419.58	63.19
419.77	49.15
419.96	25.75
420.15	37.45
420.34	9.36
420.53	58.51
420.72	4.68
420.91	0.00
421.10	65.54
421.29	11.70
421.48	46.81
421.67	65.54
421.86	84.26
422.05	91.28
422.24	21.06
422.43	44.47
422.61	9.36
422.80	0.00
422.99	28.09
423.18	65.54
423.37	46.81
423.56	18.72
423.75	2.34
423.94	9.36
424.13	77.24
424.32	49.15
424.50	58.51
424.69	32.77
424.88	81.92
425.07	30.43
425.26	16.38
425.45	77.24
425.64	65.54
425.83	18.72
426.01	63.19
426.20	0.00
426.39	79.58
426.58	37.45
426.77	79.58
426.96	133.41
427.15	42.13
427.33	35.11
427.52	16.38
427.71	46.81
427.90	9.36
428.09	46.81
428.28	35.11
428.46	0.00
428.65	53.83
428.84	9.36
429.03	42.13
429.22	46.81
429.40	0.00
429.59	9.36
429.78	23.41
429.97	107.66
430.16	39.79
430.34	70.22
430.53	84.26
430.72	49.15
430.91	37.45
431.10	7.02
431.28	105.32
431.47	58.51
431.66	84.26
431.85	0.00
432.03	102.98
432.22	49.15
432.41	60.85
432.60	7.02
432.79	0.00
432.97	0.00
433.16	98.30
433.35	42.13
433.54	37.45
433.72	67.88
433.91	67.88
434.10	23.41
434.28	88.94
434.47	37.45
434.66	49.15
434.85	0.00
435.03	53.83
435.22	0.00
435.41	44.47
435.59	107.66
435.78	49.15
435.97	88.94
436.16	42.13
436.34	7.02
436.53	11.70
436.72	37.45
436.90	42.13
437.09	28.09
437.28	72.56
437.46	93.62
437.65	49.15
437.84	77.24
438.02	44.47
438.21	37.45
438.40	0.00
438.58	58.51
438.77	131.07
438.96	72.56
439.14	0.00
439.33	63.19
439.52	25.75
439.70	9.36
439.89	39.79
440.08	0.00
440.26	9.36
440.45	21.06
440.63	60.85
440.82	0.00
441.01	95.96
441.19	58.51
441.38	18.72
441.57	60.85
441.75	86.60
441.94	39.79
442.12	51.49
442.31	46.81
442.50	14.04
442.68	0.00
442.87	0.00
443.05	51.49
443.24	58.51
443.43	16.38
443.61	21.06
443.80	23.41
443.98	79.58
444.17	114.69
444.35	28.09
444.54	51.49
444.73	18.72
444.91	65.54
445.10	0.00
445.28	53.83
445.47	58.51
445.65	84.26
445.84	0.00
446.02	23.41
446.21	88.94
446.39	37.45
446.58	60.85
446.77	100.64
446.95	72.56
447.14	0.00
447.32	112.35
447.51	25.75
447.69	53.83
447.88	86.60
448.06	23.41
448.25	32.77
448.43	58.51
448.62	0.00
448.80	86.60
448.99	65.54
449.17	42.13
449.36	0.00
449.54	56.17
449.73	0.00
449.91	105.32
450.10	0.00
450.28	121.71
450.46	56.17
450.65	77.24
450.83	53.83
451.02	49.15
451.20	23.41
451.39	32.77
451.57	32.77
451.76	21.06
451.94	37.45
452.13	107.66
452.31	53.83
452.49	0.00
452.68	25.75
452.86	30.43
453.05	14.04
453.23	65.54
453.42	110.01
453.60	81.92
453.78	4.68
453.97	53.83
454.15	21.06
454.34	28.09
454.52	86.60
454.70	51.49
454.89	37.45
455.07	9.36
455.26	102.98
455.44	21.06
455.62	18.72
455.81	0.00
455.99	63.19
456.17	35.11
456.36	56.17
456.54	67.88
456.73	9.36
456.91	4.68
457.09	65.54
457.28	70.22
457.46	77.24
457.64	9.36
457.83	84.26
458.01	77.24
458.19	124.05
458.38	18.72
458.56	84.26
458.74	81.92
458.93	51.49
459.11	0.00
459.29	46.81
459.48	102.98
459.66	77.24
459.84	51.49
460.03	53.83
460.21	53.83
460.39	95.96
460.57	35.11
460.76	107.66
460.94	46.81
461.12	44.47
461.31	21.06
461.49	0.00
461.67	84.26
461.85	25.75
462.04	46.81
462.22	44.47
462.40	37.45
462.59	42.13
462.77	65.54
462.95	88.94
463.13	9.36
463.32	4.68
463.50	32.77
463.68	70.22
463.86	0.00
464.05	65.54
464.23	32.77
464.41	30.43
464.59	102.98
464.78	65.54
464.96	77.24
465.14	91.28
465.32	42.13
465.50	60.85
465.69	0.00
465.87	23.41
466.05	72.56
466.23	63.19
466.41	23.41
466.60	77.24
466.78	32.77
466.96	119.37
467.14	39.79
467.32	37.45
467.51	67.88
467.69	0.00
467.87	58.51
468.05	56.17
468.23	105.32
468.41	0.00
468.60	21.06
468.78	56.17
468.96	110.01
469.14	98.30
469.32	95.96
469.50	25.75
469.69	63.19
469.87	46.81
470.05	21.06
470.23	39.79
470.41	131.07
470.59	32.77
470.77	4.68
470.95	58.51
471.14	11.70
471.32	49.15
471.50	0.00
471.68	0.00
471.86	91.28
472.04	88.94
472.22	4.68
472.40	0.00
472.58	107.66
472.77	67.88
472.95	46.81
473.13	79.58
473.31	44.47
473.49	67.88
473.67	58.51
473.85	91.28
474.03	30.43
474.21	44.47
474.39	14.04
474.57	79.58
474.75	42.13
474.93	100.64
475.12	11.70
475.30	23.41
475.48	42.13
475.66	86.60
475.84	56.17
476.02	100.64
476.20	46.81
476.38	65.54
476.56	98.30
476.74	37.45
476.92	102.98
477.10	0.00
477.28	65.54
477.46	42.13
477.64	0.00
477.82	81.92
478.00	35.11
478.18	86.60
478.36	102.98
478.54	77.24
478.72	74.90
478.90	72.56
479.08	18.72
479.26	14.04
479.44	56.17
479.62	42.13
479.80	93.62
479.98	74.90
480.16	67.88
480.34	107.66
480.52	102.98
480.70	133.41
480.88	65.54
481.06	0.00
481.24	58.51
481.41	60.85
481.59	28.09
481.77	0.00
481.95	121.71
482.13	18.72
482.31	98.30
482.49	23.41
482.67	114.69
482.85	91.28
483.03	84.26
483.21	70.22
483.39	58.51
483.57	51.49
483.74	84.26
483.92	42.13
484.10	79.58
484.28	102.98
484.46	16.38
484.64	112.35
484.82	42.13
485.00	30.43
485.18	56.17
485.35	32.77
485.53	63.19
485.71	65.54
485.89	74.90
486.07	79.58
486.25	25.75
486.43	65.54
486.61	46.81
486.78	58.51
486.96	42.13
487.14	0.00
487.32	107.66
487.50	30.43
487.68	49.15
487.85	32.77
488.03	95.96
488.21	42.13
488.39	58.51
488.57	117.03
488.75	145.11
488.92	140.43
489.10	98.30
489.28	145.11
489.46	51.49
489.64	32.77
489.81	72.56
489.99	84.26
490.17	70.22
490.35	168.52
490.53	49.15
490.70	163.84
490.88	102.98
491.06	51.49
491.24	135.75
491.41	95.96
491.59	0.00
491.77	121.71
491.95	117.03
492.13	67.88
492.30	74.90
492.48	46.81
492.66	110.01
492.84	93.62
493.01	35.11
493.19	0.00
493.37	53.83
493.54	84.26
493.72	49.15
493.90	149.79
494.08	72.56
494.25	51.49
494.43	16.38
494.61	105.32
494.79	14.04
494.96	58.51
495.14	28.09
495.32	72.56
495.49	126.39
495.67	63.19
495.85	23.41
496.02	91.28
496.20	88.94
496.38	56.17
496.55	14.04
496.73	86.60
496.91	84.26
497.09	0.00
497.26	0.00
497.44	138.09
497.62	145.11
497.79	32.77
497.97	49.15
498.14	65.54
498.32	100.64
498.50	124.05
498.67	159.16
498.85	114.69
499.03	72.56
499.20	58.51
499.38	95.96
499.56	124.05
499.73	114.69
499.91	79.58
500.08	142.77
500.26	51.49
500.44	98.30
500.61	124.05
500.79	124.05
500.97	128.73
501.14	30.43
501.32	0.00
501.49	14.04
501.67	39.79
501.84	131.07
502.02	100.64
502.20	117.03
502.37	88.94
502.55	138.09
502.72	74.90
502.90	100.64
503.07	88.94
503.25	149.79
503.43	93.62
503.60	60.85
503.78	135.75
503.95	145.11
504.13	86.60
504.30	44.47
504.48	74.90
504.65	46.81
504.83	32.77
505.01	81.92
505.18	131.07
505.36	124.05
505.53	70.22
505.71	98.30
505.88	124.05
506.06	51.49
506.23	77.24
506.41	63.19
506.58	86.60
506.76	42.13
506.93	84.26
507.11	74.90
507.28	81.92
507.46	84.26
507.63	42.13
507.81	7.02
507.98	110.01
508.16	95.96
508.33	63.19
508.50	74.90
508.68	28.09
508.85	100.64
509.03	39.79
509.20	63.19
509.38	42.13
509.55	131.07
509.73	56.17
509.90	72.56
510.08	88.94
510.25	37.45
510.42	81.92
510.60	102.98
510.77	77.24
510.95	0.00
511.12	112.35
511.30	51.49
511.47	128.73
511.64	46.81
511.82	44.47
511.99	95.96
512.17	102.98
512.34	86.60
512.51	49.15
512.69	28.09
512.86	126.39
513.04	35.11
513.21	88.94
513.38	58.51
513.56	81.92
513.73	128.73
513.90	88.94
514.08	72.56
514.25	70.22
514.43	53.83
514.60	119.37
514.77	117.03
514.95	65.54
515.12	51.49
515.29	56.17
515.47	58.51
515.64	56.17
515.81	56.17
515.99	86.60
516.16	81.92
516.33	37.45
516.51	72.56
516.68	112.35
516.85	128.73
517.03	39.79
517.20	0.00
517.37	98.30
517.54	119.37
517.72	102.98
517.89	98.30
518.06	140.43
518.24	39.79
518.41	32.77
518.58	114.69
518.75	0.00
518.93	86.60
519.10	91.28
519.27	84.26
519.45	65.54
519.62	119.37
519.79	56.17
519.96	93.62
520.14	74.90
520.31	72.56
520.48	60.85
520.65	84.26
520.83	28.09
521.00	102.98
521.17	147.45
521.34	35.11
521.52	60.85
521.69	49.15
521.86	39.79
522.03	53.83
522.20	145.11
522.38	100.64
522.55	72.56
522.72	46.81
522.89	58.51
523.07	42.13
523.24	32.77
523.41	88.94
523.58	49.15
523.75	84.26
523.92	37.45
524.10	74.90
524.27	177.88
524.44	121.71
524.61	65.54
524.78	74.90
524.96	63.19
525.13	107.66
525.30	105.32
525.47	107.66
525.64	91.28
525.81	63.19
525.98	49.15
526.16	74.90
526.33	119.37
526.50	53.83
526.67	0.00
526.84	114.69
527.01	56.17
527.18	124.05
527.36	30.43
527.53	88.94
527.70	65.54
527.87	86.60
528.04	166.18
528.21	86.60
528.38	70.22
528.55	63.19
528.72	121.71
528.89	16.38
529.07	84.26
529.24	110.01
529.41	11.70
529.58	65.54
529.75	70.22
529.92	77.24
530.09	114.69
530.26	121.71
530.43	42.13
530.60	100.64
530.77	147.45
530.94	14.04
531.11	21.06
531.28	60.85
531.46	63.19
531.63	110.01
531.80	175.54
531.97	138.09
532.14	51.49
532.31	124.05
532.48	0.00
532.65	124.05
532.82	88.94
532.99	84.26
533.16	159.16
533.33	2.34
533.50	86.60
533.67	168.52
533.84	81.92
534.01	79.58
534.18	84.26
534.35	86.60
534.52	196.60
534.69	95.96
534.86	72.56
535.03	74.90
535.20	60.85
535.37	74.90
535.54	91.28
535.71	65.54
535.88	173.20
536.05	93.62
536.22	126.39
536.38	72.56
536.55	4.68
536.72	95.96
536.89	44.47
537.06	25.75
537.23	86.60
537.40	21.06
537.57	86.60
537.74	70.22
537.91	133.41
538.08	79.58
538.25	135.75
538.42	86.60
538.59	65.54
538.75	63.19
538.92	11.70
539.09	67.88
539.26	84.26
539.43	49.15
539.60	84.26
539.77	35.11
539.94	100.64
540.11	56.17
540.28	58.51
540.44	86.60
540.61	79.58
540.78	91.28
540.95	53.83
541.12	102.98
541.29	110.01
541.46	95.96
541.62	140.43
541.79	81.92
541.96	28.09
542.13	39.79
542.30	114.69
542.47	81.92
542.63	65.54
542.80	51.49
542.97	154.48
543.14	37.45
543.31	72.56
543.48	84.26
543.64	7.02
543.81	53.83
543.98	65.54
544.15	44.47
544.32	70.22
544.48	107.66
544.65	65.54
544.82	72.56
544.99	18.72
545.16	46.81
545.32	110.01
545.49	107.66
545.66	86.60
545.83	105.32
546.00	98.30
546.16	128.73
546.33	72.56
546.50	7.02
546.67	117.03
546.83	105.32
547.00	117.03
547.17	74.90
547.34	58.51
547.50	11.70
547.67	128.73
547.84	105.32
548.00	44.47
548.17	28.09
548.34	128.73
548.51	105.32
548.67	28.09
548.84	60.85
549.01	77.24
549.18	70.22
549.34	67.88
549.51	51.49
549.68	65.54
549.84	114.69
550.01	18.72
550.18	159.16
550.34	110.01
550.51	102.98
550.68	30.43
550.84	91.28
551.01	105.32
551.18	70.22
551.34	100.64
551.51	107.66
551.68	4.68
551.84	60.85
552.01	119.37
552.18	112.35
552.34	72.56
552.51	114.69
552.68	35.11
552.84	156.82
553.01	79.58
553.18	65.54
553.34	32.77
553.51	72.56
553.67	128.73
553.84	60.85
554.01	42.13
554.17	56.17
554.34	35.11
554.51	131.07
554.67	32.77
554.84	63.19
555.00	42.13
555.17	145.11
555.33	131.07
555.50	65.54
555.67	102.98
555.83	105.32
556.00	112.35
556.16	74.90
556.33	102.98
556.50	49.15
556.66	39.79
556.83	39.79
556.99	88.94
557.16	161.50
557.32	93.62
557.49	35.11
557.65	0.00
557.82	79.58
557.98	63.19
558.15	79.58
558.32	9.36
558.48	93.62
558.65	0.00
558.81	88.94
558.98	58.51
559.14	117.03
559.31	51.49
559.47	98.30
559.64	88.94
559.80	51.49
559.97	56.17
560.13	95.96
560.30	126.39
560.46	49.15
560.63	84.26
560.79	81.92
560.96	112.35
561.12	44.47
561.29	88.94
561.45	91.28
561.61	70.22
561.78	102.98
561.94	70.22
562.11	46.81
562.27	124.05
562.44	35.11
562.60	67.88
562.77	121.71
562.93	88.94
563.10	79.58
563.26	65.54
563.42	0.00
563.59	110.01
563.75	110.01
563.92	86.60
564.08	74.90
564.24	117.03
564.41	112.35
564.57	175.54
564.74	79.58
564.90	70.22
565.07	126.39
565.23	72.56
565.39	110.01
565.56	100.64
565.72	95.96
565.88	74.90
566.05	81.92
566.21	49.15
566.38	100.64
566.54	53.83
566.70	88.94
566.87	53.83
567.03	91.28
567.19	138.09
567.36	0.00
567.52	42.13
567.68	102.98
567.85	81.92
568.01	110.01
568.17	86.60
568.34	51.49
568.50	131.07
568.66	4.68
568.83	44.47
568.99	56.17
569.15	46.81
569.32	81.92
569.48	42.13
569.64	133.41
569.81	25.75
569.97	21.06
570.13	65.54
570.30	44.47
570.46	58.51
570.62	149.79
570.78	42.13
570.95	32.77
571.11	53.83
571.27	67.88
571.43	53.83
571.60	142.77
571.76	114.69
571.92	131.07
572.09	79.58
572.25	131.07
572.41	39.79
572.57	0.00
572.74	145.11
572.90	58.51
573.06	63.19
573.22	23.41
573.38	39.79
573.55	135.75
573.71	11.70
573.87	28.09
574.03	35.11
574.20	58.51
574.36	107.66
574.52	60.85
574.68	84.26
574.84	81.92
575.01	128.73
575.17	46.81
575.33	131.07
575.49	147.45
575.65	72.56
575.82	49.15
575.98	79.58
576.14	95.96
576.30	58.51
576.46	37.45
576.62	84.26
576.79	32.77
576.95	7.02
577.11	98.30
577.27	98.30
577.43	53.83
577.59	105.32
577.75	51.49
577.92	67.88
578.08	49.15
578.24	51.49
578.40	58.51
578.56	42.13
578.72	74.90
578.88	95.96
579.04	63.19
579.21	81.92
579.37	102.98
579.53	74.90
579.69	53.83
579.85	51.49
580.01	53.83
580.17	65.54
580.33	81.92
580.49	117.03
580.65	60.85
580.82	65.54
580.98	93.62
581.14	72.56
581.30	42.13
581.46	110.01
581.62	77.24
581.78	49.15
581.94	138.09
582.10	126.39
582.26	102.98
582.42	28.09
582.58	124.05
582.74	42.13
582.90	23.41
583.06	77.24
583.22	88.94
583.38	0.00
583.54	46.81
583.70	16.38
583.86	91.28
584.02	107.66
584.18	56.17
584.34	11.70
584.50	117.03
584.66	110.01
584.82	149.79
584.98	51.49
585.14	128.73
585.30	44.47
585.46	91.28
585.62	84.26
585.78	65.54
585.94	51.49
586.10	156.82
586.26	51.49
586.42	142.77
586.58	58.51
586.74	105.32
586.90	39.79
587.06	42.13
587.22	30.43
587.38	18.72
587.54	119.37
587.70	28.09
587.86	105.32
588.02	74.90
588.18	4.68
588.34	65.54
588.49	93.62
588.65	124.05
588.81	72.56
588.97	86.60
589.13	79.58
589.29	23.41
589.45	35.11
589.61	49.15
589.77	102.98
589.93	98.30
590.08	67.88
590.24	93.62
590.40	46.81
590.56	67.88
590.72	32.77
590.88	28.09
591.04	91.28
591.20	53.83
591.35	23.41
591.51	142.77
591.67	46.81
591.83	35.11
591.99	124.05
592.15	147.45
592.31	95.96
592.46	18.72
592.62	42.13
592.78	58.51
592.94	35.11
593.10	35.11
593.26	0.00
593.41	65.54
593.57	74.90
593.73	60.85
593.89	56.17
594.05	51.49
594.20	25.75
594.36	28.09
594.52	93.62
594.68	0.00
594.84	74.90
594.99	119.37
595.15	79.58
595.31	39.79
595.47	147.45
595.62	100.64
595.78	21.06
595.94	91.28
596.10	79.58
596.25	163.84
596.41	0.00
596.57	58.51
596.73	91.28
596.88	107.66
597.04	95.96
597.20	100.64
597.36	14.04
597.51	39.79
597.67	39.79
597.83	32.77
597.99	65.54
598.14	98.30
598.30	32.77
598.46	0.00
598.61	35.11
598.77	72.56
598.93	77.24
599.09	107.66
599.24	102.98
599.40	51.49
599.56	53.83
599.71	65.54
599.87	86.60
600.03	51.49
600.18	58.51
600.34	63.19
600.50	53.83
600.65	18.72
600.81	58.51
600.97	105.32
601.12	35.11
601.28	91.28
601.44	142.77
601.59	95.96
601.75	79.58
601.91	37.45
602.06	44.47
602.22	88.94
602.37	67.88
602.53	95.96
602.69	74.90
602.84	23.41
603.00	49.15
603.16	70.22
603.31	46.81
603.47	63.19
603.62	23.41
603.78	23.41
603.94	98.30
604.09	65.54
604.25	44.47
604.40	28.09
604.56	72.56
604.71	42.13
604.87	49.15
605.03	138.09
605.18	39.79
605.34	60.85
605.49	95.96
605.65	67.88
605.80	28.09
605.96	67.88
606.12	154.48
606.27	67.88
606.43	100.64
606.58	70.22
606.74	42.13
606.89	100.64
607.05	88.94
607.20	28.09
607.36	18.72
607.51	86.60
607.67	74.90
607.82	23.41
607.98	56.17
608.13	105.32
608.29	72.56
608.44	112.35
608.60	74.90
608.75	65.54
608.91	81.92
609.06	30.43
609.22	86.60
609.37	128.73
609.53	105.32
609.68	138.09
609.84	70.22
609.99	58.51
610.15	91.28
610.30	86.60
610.46	77.24
610.61	58.51
610.76	88.94
610.92	72.56
611.07	32.77
611.23	95.96
611.38	79.58
611.54	102.98
611.69	91.28
611.84	0.00
612.00	14.04
612.15	95.96
612.31	63.19
612.46	72.56
612.62	18.72
612.77	0.00
612.92	32.77
613.08	56.17
613.23	84.26
613.39	72.56
613.54	46.81
613.69	112.35
613.85	67.88
614.00	170.86
614.15	44.47
614.31	67.88
614.46	46.81
614.62	63.19
614.77	58.51
614.92	32.77
615.08	77.24
615.23	46.81
615.38	65.54
615.54	191.92
615.69	53.83
615.84	37.45
616.00	98.30
616.15	77.24
616.30	21.06
616.46	79.58
616.61	14.04
616.76	28.09
616.92	79.58
617.07	91.28
617.22	100.64
617.37	53.83
617.53	95.96
617.68	4.68
617.83	72.56
617.99	102.98
618.14	98.30
618.29	56.17
618.45	32.77
618.60	42.13
618.75	93.62
618.90	72.56
619.06	56.17
619.21	84.26
619.36	51.49
619.51	72.56
619.67	49.15
619.82	74.90
619.97	98.30
620.12	121.71
620.28	65.54
620.43	23.41
620.58	42.13
620.73	23.41
620.89	121.71
621.04	159.16
621.19	49.15
621.34	56.17
621.49	32.77
621.65	60.85
621.80	70.22
621.95	16.38
622.10	93.62
622.25	35.11
622.41	37.45
622.56	0.00
622.71	163.84
622.86	88.94
623.01	63.19
623.16	98.30
623.32	37.45
623.47	74.90
623.62	11.70
623.77	63.19
623.92	0.00
624.07	53.83
624.23	49.15
624.38	95.96
624.53	42.13
624.68	21.06
624.83	93.62
624.98	46.81
625.13	44.47
625.29	25.75
625.44	23.41
625.59	0.00
625.74	58.51
625.89	46.81
626.04	65.54
626.19	46.81
626.34	37.45
626.49	0.00
626.65	84.26
626.80	53.83
626.95	65.54
627.10	58.51
627.25	49.15
627.40	74.90
627.55	23.41
627.70	4.68
627.85	0.00
628.00	128.73
628.15	53.83
628.30	84.26
628.45	67.88
628.60	39.79
628.76	7.02
628.91	46.81
629.06	30.43
629.21	51.49
629.36	49.15
629.51	14.04
629.66	119.37
629.81	126.39
629.96	51.49
630.11	42.13
630.26	42.13
630.41	2.34
630.56	105.32
630.71	105.32
630.86	30.43
631.01	37.45
631.16	112.35
631.31	4.68
631.46	81.92
631.61	2.34
631.76	93.62
631.91	46.81
632.06	30.43
632.21	79.58
632.36	100.64
632.51	107.66
632.66	11.70
632.81	63.19
632.96	86.60
633.10	44.47
633.25	53.83
633.40	35.11
633.55	93.62
633.70	56.17
633.85	102.98
634.00	30.43
634.15	42.13
634.30	72.56
634.45	14.04
634.60	28.09
634.75	114.69
634.90	37.45
635.05	72.56
635.19	30.43
635.34	51.49
635.49	46.81
635.64	112.35
635.79	88.94
635.94	72.56
636.09	63.19
636.24	100.64
636.39	121.71
636.53	53.83
636.68	88.94
636.83	42.13
636.98	65.54
637.13	49.15
637.28	74.90
637.43	114.69
637.57	37.45
637.72	0.00
637.87	102.98
638.02	95.96
638.17	35.11
638.32	46.81
638.46	79.58
638.61	63.19
638.76	60.85
638.91	49.15
639.06	35.11
639.20	124.05
639.35	79.58
639.50	4.68
639.65	86.60
639.80	35.11
639.94	39.79
640.09	42.13
640.24	72.56
640.39	74.90
640.54	105.32
640.68	58.51
640.83	23.41
640.98	37.45
641.13	30.43
641.27	110.01
641.42	107.66
641.57	72.56
641.72	32.77
641.86	117.03
642.01	142.77
642.16	107.66
642.31	65.54
642.45	56.17
642.60	35.11
642.75	77.24
642.90	88.94
643.04	74.90
643.19	25.75
643.34	91.28
643.48	28.09
643.63	93.62
643.78	21.06
643.93	0.00
644.07	70.22
644.22	58.51
644.37	44.47
644.51	112.35
644.66	60.85
644.81	21.06
644.95	37.45
645.10	51.49
645.25	110.01
645.39	0.00
645.54	39.79
645.69	91.28
645.83	74.90
645.98	58.51
646.13	81.92
646.27	42.13
646.42	53.83
646.57	30.43
646.71	0.00
646.86	58.51
647.00	58.51
647.15	58.51
647.30	84.26
647.44	140.43
647.59	105.32
647.74	21.06
647.88	30.43
648.03	51.49
648.17	16.38
648.32	60.85
648.47	88.94
648.61	42.13
648.76	51.49
648.90	67.88
649.05	28.09
649.20	72.56
649.34	72.56
649.49	25.75
649.63	11.70
649.78	58.51
649.92	39.79
650.07	67.88
650.21	88.94
650.36	51.49
650.51	77.24
650.65	0.00
650.80	93.62
650.94	37.45
651.09	7.02
651.23	53.83
651.38	0.00
651.52	60.85
651.67	14.04
651.81	0.00
651.96	77.24
652.10	49.15
652.25	0.00
652.39	56.17
652.54	42.13
652.68	63.19
652.83	49.15
652.97	46.81
653.12	51.49
653.26	53.83
653.41	14.04
653.55	30.43
653.70	72.56
653.84	46.81
653.99	74.90
654.13	21.06
654.27	39.79
654.42	49.15
654.56	58.51
654.71	58.51
654.85	35.11
655.00	77.24
655.14	35.11
655.29	9.36
655.43	37.45
655.57	56.17
655.72	14.04
655.86	86.60
656.01	0.00
656.15	46.81
656.30	18.72
656.44	28.09
656.58	23.41
656.73	42.13
656.87	110.01
657.01	114.69
657.16	100.64
657.30	100.64
657.45	0.00
657.59	91.28
657.73	2.34
657.88	51.49
658.02	60.85
658.16	65.54
658.31	51.49
658.45	77.24
658.60	46.81
658.74	60.85
658.88	51.49
659.03	81.92
659.17	81.92
659.31	98.30
659.46	30.43
659.60	84.26
659.74	18.72
659.89	84.26
660.03	63.19
660.17	70.22
660.32	67.88
660.46	84.26
660.60	0.00
660.74	58.51
660.89	102.98
661.03	30.43
661.17	4.68
661.32	35.11
661.46	16.38
661.60	53.83
661.74	147.45
661.89	65.54
662.03	0.00
662.17	105.32
662.31	28.09
662.46	0.00
662.60	58.51
662.74	11.70
662.88	44.47
663.03	86.60
663.17	77.24
663.31	30.43
663.45	60.85
663.60	60.85
663.74	0.00
663.88	37.45
664.02	70.22
664.17	30.43
664.31	9.36
664.45	53.83
664.59	56.17
664.73	32.77
664.88	0.00
665.02	35.11
665.16	95.96
665.30	0.00
665.44	44.47
665.59	44.47
665.73	86.60
665.87	84.26
666.01	74.90
666.15	100.64
666.29	0.00
666.44	16.38
666.58	42.13
666.72	35.11
666.86	128.73
667.00	14.04
667.14	53.83
667.28	81.92
667.43	98.30
667.57	112.35
667.71	72.56
667.85	25.75
667.99	79.58
668.13	37.45
668.27	37.45
668.41	58.51
668.56	65.54
668.70	67.88
668.84	84.26
668.98	0.00
669.12	117.03
669.26	74.90
669.40	56.17
669.54	21.06
669.68	37.45
669.82	53.83
669.96	25.75
670.10	25.75
670.25	84.26
670.39	46.81
670.53	0.00
670.67	91.28
670.81	77.24
670.95	86.60
671.09	0.00
671.23	32.77
671.37	39.79
671.51	72.56
671.65	30.43
671.79	23.41
671.93	0.00
672.07	77.24
672.21	60.85
672.35	79.58
672.49	51.49
672.63	53.83
672.77	23.41
672.91	67.88
673.05	86.60
673.19	105.32
673.33	53.83
673.47	28.09
673.61	128.73
673.75	0.00
673.89	35.11
674.03	81.92
674.17	67.88
674.31	88.94
674.45	112.35
674.59	39.79
674.73	56.17
674.87	46.81
675.01	42.13
675.15	56.17
675.29	77.24
675.43	114.69
675.56	56.17
675.70	56.17
675.84	98.30
675.98	110.01
676.12	37.45
676.26	107.66
676.40	91.28
676.54	42.13
676.68	11.70
676.82	74.90
676.96	112.35
677.10	93.62
677.23	0.00
677.37	42.13
677.51	23.41
677.65	28.09
677.79	79.58
677.93	107.66
678.07	25.75
678.21	4.68
678.34	21.06
678.48	98.30
678.62	100.64
678.76	133.41
678.90	67.88
679.04	30.43
679.18	74.90
679.31	16.38
679.45	39.79
679.59	124.05
679.73	23.41
679.87	37.45
680.00	16.38
680.14	7.02
680.28	9.36
680.42	49.15
680.56	67.88
680.70	42.13
680.83	149.79
680.97	65.54
681.11	4.68
681.25	51.49
681.39	9.36
681.52	65.54
681.66	65.54
681.80	49.15
681.94	42.13
682.07	49.15
682.21	51.49
682.35	138.09
682.49	23.41
682.62	30.43
682.76	35.11
682.90	72.56
683.04	63.19
683.17	44.47
683.31	67.88
683.45	30.43
683.59	37.45
683.72	32.77
683.86	0.00
684.00	60.85
684.13	53.83
684.27	0.00
684.41	58.51
684.55	18.72
684.68	30.43
684.82	0.00
684.96	51.49
685.09	44.47
685.23	51.49
685.37	67.88
685.50	65.54
685.64	0.00
685.78	84.26
685.91	0.00
686.05	9.36
686.19	32.77
686.32	7.02
686.46	70.22
686.60	42.13
686.73	93.62
686.87	4.68
687.01	65.54
687.14	67.88
687.28	9.36
687.42	37.45
687.55	35.11
687.69	131.07
687.82	110.01
687.96	23.41
688.10	70.22
688.23	63.19
688.37	9.36
688.50	32.77
688.64	30.43
688.78	98.30
688.91	16.38
689.05	11.70
689.18	14.04
689.32	46.81
689.46	9.36
689.59	14.04
689.73	18.72
689.86	0.00
690.00	32.77
690.13	4.68
690.27	74.90
690.41	0.00
690.54	81.92
690.68	51.49
690.81	46.81
690.95	14.04
691.08	77.24
691.22	49.15
691.35	25.75
691.49	67.88
691.62	56.17
691.76	88.94
691.89	0.00
692.03	37.45
692.16	35.11
692.30	72.56
692.43	91.28
692.57	102.98
692.70	60.85
692.84	0.00
692.97	58.51
693.11	16.38
693.24	51.49
693.38	35.11
693.51	39.79
693.65	74.90
693.78	21.06
693.92	65.54
694.05	11.70
694.19	18.72
694.32	100.64
694.45	30.43
694.59	88.94
694.72	32.77
694.86	28.09
694.99	0.00
695.13	0.00
695.26	0.00
695.39	25.75
695.53	58.51
695.66	100.64
695.80	25.75
695.93	11.70
696.07	0.00
696.20	0.00
696.33	72.56
696.47	0.00
696.60	88.94
696.73	46.81
696.87	53.83
697.00	95.96
697.14	79.58
697.27	77.24
697.40	44.47
697.54	32.77
697.67	70.22
697.80	63.19
697.94	79.58
698.07	128.73
698.21	18.72
698.34	25.75
698.47	9.36
698.61	74.90
698.74	18.72
698.87	51.49
699.01	51.49
699.14	100.64
699.27	60.85
699.40	14.04
699.54	44.47
699.67	60.85
699.80	46.81
699.94	67.88
700.07	42.13
700.20	60.85
700.34	0.00
700.47	49.15
700.60	79.58
700.73	91.28
700.87	4.68
701.00	9.36
701.13	58.51
701.26	9.36
701.40	30.43
701.53	37.45
701.66	0.00
701.79	60.85
701.93	60.85
702.06	88.94
702.19	46.81
702.32	65.54
702.46	42.13
702.59	37.45
702.72	58.51
702.85	0.00
702.99	0.00
703.12	105.32
703.25	30.43
703.38	56.17
703.51	0.00
703.65	25.75
703.78	0.00
703.91	21.06
704.04	93.62
704.17	0.00
704.31	2.34
704.44	53.83
704.57	0.00
704.70	32.77
704.83	37.45
704.96	0.00
705.10	42.13
705.23	30.43
>>>>>End Processed Spectral Data<<<<<
