SpectraSuite Data File
++++++++++++++++++++++++++++++++++++
Date: Fri Oct 04 12:13:24 GMT-05:00 2013
User: price-jones
Dark Spectrum Present: No
Reference Spectrum Present: No
Number of Sampled Component Spectra: 1
Spectrometers: USB2+H05261
Integration Time (usec): 10000 (USB2+H05261)
Spectra Averaged: 1 (USB2+H05261)
Boxcar Smoothing: 0 (USB2+H05261)
Correct for Electrical Dark: No (USB2+H05261)
Strobe/Lamp Enabled: No (USB2+H05261)
Correct for Detector Non-linearity: No (USB2+H05261)
Correct for Stray Light: No (USB2+H05261)
Number of Pixels in Processed Spectrum: 2048
>>>>>Begin Processed Spectral Data<<<<<
365.73	44.47
365.92	44.47
366.12	44.47
366.32	0.00
366.52	0.00
366.72	0.00
366.91	0.00
367.11	0.00
367.31	0.00
367.51	0.00
367.70	0.00
367.90	0.00
368.10	0.00
368.30	0.00
368.49	0.00
368.69	0.00
368.89	0.00
369.09	0.00
369.28	0.00
369.48	0.00
369.68	0.00
369.87	0.00
370.07	0.00
370.27	0.00
370.47	0.00
370.66	0.00
370.86	0.00
371.06	4.68
371.25	0.00
371.45	0.00
371.65	0.00
371.84	18.72
372.04	21.06
372.24	11.70
372.44	63.19
372.63	35.11
372.83	0.00
373.03	21.06
373.22	0.00
373.42	60.85
373.62	7.02
373.81	21.06
374.01	105.32
374.21	51.49
374.40	49.15
374.60	25.75
374.79	28.09
374.99	4.68
375.19	72.56
375.38	74.90
375.58	0.00
375.78	18.72
375.97	30.43
376.17	28.09
376.37	74.90
376.56	0.00
376.76	39.79
376.95	63.19
377.15	51.49
377.35	0.00
377.54	37.45
377.74	16.38
377.93	0.00
378.13	7.02
378.33	37.45
378.52	42.13
378.72	72.56
378.91	9.36
379.11	44.47
379.31	11.70
379.50	18.72
379.70	107.66
379.89	35.11
380.09	0.00
380.28	30.43
380.48	18.72
380.68	0.00
380.87	63.19
381.07	25.75
381.26	70.22
381.46	16.38
381.65	0.00
381.85	11.70
382.04	0.00
382.24	0.00
382.43	39.79
382.63	0.00
382.83	0.00
383.02	30.43
383.22	0.00
383.41	32.77
383.61	39.79
383.80	25.75
384.00	102.98
384.19	0.00
384.39	32.77
384.58	32.77
384.78	35.11
384.97	18.72
385.17	32.77
385.36	51.49
385.56	14.04
385.75	63.19
385.95	25.75
386.14	0.00
386.34	56.17
386.53	0.00
386.72	0.00
386.92	0.00
387.11	30.43
387.31	49.15
387.50	49.15
387.70	14.04
387.89	16.38
388.09	14.04
388.28	14.04
388.48	0.00
388.67	32.77
388.86	30.43
389.06	51.49
389.25	4.68
389.45	42.13
389.64	11.70
389.84	0.00
390.03	18.72
390.22	0.00
390.42	21.06
390.61	95.96
390.81	0.00
391.00	42.13
391.19	4.68
391.39	67.88
391.58	0.00
391.78	86.60
391.97	9.36
392.16	0.00
392.36	0.00
392.55	49.15
392.75	21.06
392.94	23.41
393.13	7.02
393.33	53.83
393.52	0.00
393.71	65.54
393.91	53.83
394.10	9.36
394.29	0.00
394.49	7.02
394.68	30.43
394.88	35.11
395.07	0.00
395.26	0.00
395.46	37.45
395.65	0.00
395.84	16.38
396.04	35.11
396.23	23.41
396.42	0.00
396.62	0.00
396.81	56.17
397.00	32.77
397.19	67.88
397.39	0.00
397.58	11.70
397.77	67.88
397.97	0.00
398.16	16.38
398.35	0.00
398.55	39.79
398.74	28.09
398.93	0.00
399.12	60.85
399.32	7.02
399.51	70.22
399.70	2.34
399.90	2.34
400.09	28.09
400.28	44.47
400.47	88.94
400.67	21.06
400.86	0.00
401.05	39.79
401.24	25.75
401.44	0.00
401.63	44.47
401.82	0.00
402.01	14.04
402.21	28.09
402.40	74.90
402.59	21.06
402.78	25.75
402.97	25.75
403.17	0.00
403.36	0.00
403.55	0.00
403.74	51.49
403.93	42.13
404.13	70.22
404.32	30.43
404.51	0.00
404.70	0.00
404.89	93.62
405.09	0.00
405.28	79.58
405.47	18.72
405.66	42.13
405.85	9.36
406.05	37.45
406.24	84.26
406.43	42.13
406.62	0.00
406.81	0.00
407.00	46.81
407.20	0.00
407.39	46.81
407.58	60.85
407.77	0.00
407.96	25.75
408.15	53.83
408.34	56.17
408.54	23.41
408.73	95.96
408.92	95.96
409.11	39.79
409.30	0.00
409.49	30.43
409.68	21.06
409.87	51.49
410.07	95.96
410.26	4.68
410.45	79.58
410.64	9.36
410.83	77.24
411.02	44.47
411.21	53.83
411.40	0.00
411.59	14.04
411.78	4.68
411.98	67.88
412.17	0.00
412.36	72.56
412.55	58.51
412.74	72.56
412.93	72.56
413.12	4.68
413.31	0.00
413.50	4.68
413.69	21.06
413.88	0.00
414.07	67.88
414.26	0.00
414.45	30.43
414.64	35.11
414.83	16.38
415.02	67.88
415.22	0.00
415.41	0.00
415.60	21.06
415.79	63.19
415.98	0.00
416.17	0.00
416.36	0.00
416.55	0.00
416.74	9.36
416.93	25.75
417.12	95.96
417.31	67.88
417.50	32.77
417.69	16.38
417.88	32.77
418.07	2.34
418.26	14.04
418.45	0.00
418.64	51.49
418.83	51.49
419.02	32.77
419.21	63.19
419.39	0.00
419.58	0.00
419.77	35.11
419.96	9.36
420.15	2.34
420.34	42.13
420.53	51.49
420.72	28.09
420.91	9.36
421.10	53.83
421.29	74.90
421.48	46.81
421.67	58.51
421.86	72.56
422.05	39.79
422.24	23.41
422.43	0.00
422.61	9.36
422.80	23.41
422.99	28.09
423.18	7.02
423.37	7.02
423.56	0.00
423.75	39.79
423.94	0.00
424.13	39.79
424.32	0.00
424.50	28.09
424.69	46.81
424.88	74.90
425.07	51.49
425.26	0.00
425.45	11.70
425.64	30.43
425.83	72.56
426.01	67.88
426.20	39.79
426.39	30.43
426.58	28.09
426.77	67.88
426.96	28.09
427.15	51.49
427.33	44.47
427.52	0.00
427.71	51.49
427.90	42.13
428.09	81.92
428.28	32.77
428.46	0.00
428.65	14.04
428.84	91.28
429.03	14.04
429.22	56.17
429.40	67.88
429.59	21.06
429.78	0.00
429.97	0.00
430.16	53.83
430.34	60.85
430.53	35.11
430.72	67.88
430.91	72.56
431.10	0.00
431.28	67.88
431.47	67.88
431.66	81.92
431.85	28.09
432.03	79.58
432.22	0.00
432.41	18.72
432.60	131.07
432.79	60.85
432.97	0.00
433.16	21.06
433.35	37.45
433.54	110.01
433.72	0.00
433.91	0.00
434.10	0.00
434.28	58.51
434.47	0.00
434.66	11.70
434.85	49.15
435.03	42.13
435.22	4.68
435.41	65.54
435.59	16.38
435.78	0.00
435.97	0.00
436.16	0.00
436.34	18.72
436.53	28.09
436.72	51.49
436.90	0.00
437.09	147.45
437.28	18.72
437.46	21.06
437.65	32.77
437.84	42.13
438.02	18.72
438.21	32.77
438.40	124.05
438.58	21.06
438.77	65.54
438.96	25.75
439.14	53.83
439.33	0.00
439.52	0.00
439.70	0.00
439.89	21.06
440.08	18.72
440.26	39.79
440.45	42.13
440.63	0.00
440.82	49.15
441.01	0.00
441.19	65.54
441.38	18.72
441.57	25.75
441.75	30.43
441.94	28.09
442.12	28.09
442.31	91.28
442.50	72.56
442.68	18.72
442.87	70.22
443.05	0.00
443.24	35.11
443.43	91.28
443.61	49.15
443.80	70.22
443.98	51.49
444.17	30.43
444.35	18.72
444.54	14.04
444.73	21.06
444.91	46.81
445.10	91.28
445.28	42.13
445.47	70.22
445.65	65.54
445.84	102.98
446.02	112.35
446.21	0.00
446.39	0.00
446.58	0.00
446.77	56.17
446.95	88.94
447.14	9.36
447.32	72.56
447.51	23.41
447.69	37.45
447.88	72.56
448.06	21.06
448.25	11.70
448.43	72.56
448.62	0.00
448.80	18.72
448.99	0.00
449.17	23.41
449.36	0.00
449.54	18.72
449.73	23.41
449.91	23.41
450.10	112.35
450.28	9.36
450.46	14.04
450.65	0.00
450.83	44.47
451.02	2.34
451.20	16.38
451.39	35.11
451.57	74.90
451.76	110.01
451.94	39.79
452.13	84.26
452.31	0.00
452.49	32.77
452.68	53.83
452.86	11.70
453.05	11.70
453.23	37.45
453.42	44.47
453.60	32.77
453.78	81.92
453.97	23.41
454.15	21.06
454.34	72.56
454.52	30.43
454.70	23.41
454.89	0.00
455.07	0.00
455.26	79.58
455.44	11.70
455.62	32.77
455.81	58.51
455.99	42.13
456.17	46.81
456.36	4.68
456.54	23.41
456.73	100.64
456.91	0.00
457.09	70.22
457.28	114.69
457.46	63.19
457.64	56.17
457.83	63.19
458.01	0.00
458.19	28.09
458.38	30.43
458.56	100.64
458.74	53.83
458.93	79.58
459.11	56.17
459.29	9.36
459.48	86.60
459.66	35.11
459.84	86.60
460.03	0.00
460.21	86.60
460.39	0.00
460.57	0.00
460.76	7.02
460.94	28.09
461.12	88.94
461.31	14.04
461.49	0.00
461.67	0.00
461.85	0.00
462.04	30.43
462.22	79.58
462.40	30.43
462.59	53.83
462.77	0.00
462.95	39.79
463.13	56.17
463.32	42.13
463.50	56.17
463.68	79.58
463.86	46.81
464.05	72.56
464.23	84.26
464.41	72.56
464.59	0.00
464.78	0.00
464.96	0.00
465.14	0.00
465.32	63.19
465.50	25.75
465.69	28.09
465.87	2.34
466.05	21.06
466.23	0.00
466.41	46.81
466.60	91.28
466.78	25.75
466.96	121.71
467.14	4.68
467.32	110.01
467.51	70.22
467.69	0.00
467.87	39.79
468.05	18.72
468.23	44.47
468.41	56.17
468.60	81.92
468.78	81.92
468.96	93.62
469.14	72.56
469.32	2.34
469.50	42.13
469.69	0.00
469.87	37.45
470.05	35.11
470.23	63.19
470.41	9.36
470.59	98.30
470.77	4.68
470.95	46.81
471.14	77.24
471.32	63.19
471.50	63.19
471.68	18.72
471.86	100.64
472.04	77.24
472.22	21.06
472.40	4.68
472.58	51.49
472.77	4.68
472.95	63.19
473.13	0.00
473.31	2.34
473.49	58.51
473.67	21.06
473.85	37.45
474.03	28.09
474.21	11.70
474.39	32.77
474.57	60.85
474.75	35.11
474.93	70.22
475.12	9.36
475.30	0.00
475.48	60.85
475.66	39.79
475.84	4.68
476.02	11.70
476.20	56.17
476.38	11.70
476.56	16.38
476.74	58.51
476.92	4.68
477.10	74.90
477.28	0.00
477.46	28.09
477.64	56.17
477.82	25.75
478.00	74.90
478.18	72.56
478.36	9.36
478.54	77.24
478.72	70.22
478.90	44.47
479.08	93.62
479.26	0.00
479.44	0.00
479.62	60.85
479.80	51.49
479.98	2.34
480.16	39.79
480.34	86.60
480.52	60.85
480.70	44.47
480.88	74.90
481.06	93.62
481.24	9.36
481.41	74.90
481.59	32.77
481.77	95.96
481.95	0.00
482.13	81.92
482.31	23.41
482.49	9.36
482.67	4.68
482.85	0.00
483.03	0.00
483.21	51.49
483.39	0.00
483.57	16.38
483.74	65.54
483.92	16.38
484.10	0.00
484.28	110.01
484.46	0.00
484.64	35.11
484.82	21.06
485.00	60.85
485.18	18.72
485.35	30.43
485.53	25.75
485.71	0.00
485.89	49.15
486.07	81.92
486.25	39.79
486.43	0.00
486.61	9.36
486.78	35.11
486.96	49.15
487.14	35.11
487.32	0.00
487.50	42.13
487.68	14.04
487.85	0.00
488.03	98.30
488.21	53.83
488.39	0.00
488.57	58.51
488.75	60.85
488.92	102.98
489.10	0.00
489.28	98.30
489.46	60.85
489.64	60.85
489.81	35.11
489.99	35.11
490.17	2.34
490.35	58.51
490.53	67.88
490.70	56.17
490.88	49.15
491.06	30.43
491.24	67.88
491.41	74.90
491.59	4.68
491.77	95.96
491.95	74.90
492.13	42.13
492.30	72.56
492.48	93.62
492.66	70.22
492.84	28.09
493.01	79.58
493.19	65.54
493.37	37.45
493.54	39.79
493.72	74.90
493.90	37.45
494.08	0.00
494.25	0.00
494.43	39.79
494.61	0.00
494.79	7.02
494.96	53.83
495.14	93.62
495.32	0.00
495.49	2.34
495.67	117.03
495.85	74.90
496.02	77.24
496.20	14.04
496.38	37.45
496.55	44.47
496.73	51.49
496.91	42.13
497.09	32.77
497.26	46.81
497.44	42.13
497.62	9.36
497.79	107.66
497.97	37.45
498.14	100.64
498.32	0.00
498.50	102.98
498.67	93.62
498.85	0.00
499.03	42.13
499.20	105.32
499.38	0.00
499.56	18.72
499.73	28.09
499.91	39.79
500.08	9.36
500.26	79.58
500.44	44.47
500.61	37.45
500.79	32.77
500.97	0.00
501.14	58.51
501.32	56.17
501.49	93.62
501.67	74.90
501.84	28.09
502.02	4.68
502.20	53.83
502.37	4.68
502.55	67.88
502.72	16.38
502.90	53.83
503.07	70.22
503.25	0.00
503.43	42.13
503.60	86.60
503.78	42.13
503.95	56.17
504.13	32.77
504.30	79.58
504.48	114.69
504.65	39.79
504.83	67.88
505.01	70.22
505.18	7.02
505.36	35.11
505.53	51.49
505.71	53.83
505.88	84.26
506.06	79.58
506.23	72.56
506.41	44.47
506.58	77.24
506.76	28.09
506.93	93.62
507.11	126.39
507.28	53.83
507.46	79.58
507.63	35.11
507.81	42.13
507.98	37.45
508.16	9.36
508.33	100.64
508.50	28.09
508.68	60.85
508.85	0.00
509.03	0.00
509.20	11.70
509.38	42.13
509.55	0.00
509.73	11.70
509.90	0.00
510.08	51.49
510.25	65.54
510.42	35.11
510.60	105.32
510.77	25.75
510.95	30.43
511.12	0.00
511.30	0.00
511.47	4.68
511.64	23.41
511.82	84.26
511.99	42.13
512.17	72.56
512.34	37.45
512.51	9.36
512.69	21.06
512.86	16.38
513.04	53.83
513.21	65.54
513.38	93.62
513.56	44.47
513.73	102.98
513.90	18.72
514.08	0.00
514.25	42.13
514.43	51.49
514.60	28.09
514.77	124.05
514.95	93.62
515.12	0.00
515.29	9.36
515.47	74.90
515.64	63.19
515.81	9.36
515.99	0.00
516.16	0.00
516.33	110.01
516.51	72.56
516.68	86.60
516.85	79.58
517.03	49.15
517.20	70.22
517.37	0.00
517.54	7.02
517.72	105.32
517.89	37.45
518.06	4.68
518.24	65.54
518.41	4.68
518.58	23.41
518.75	56.17
518.93	121.71
519.10	70.22
519.27	30.43
519.45	4.68
519.62	30.43
519.79	67.88
519.96	18.72
520.14	0.00
520.31	60.85
520.48	28.09
520.65	32.77
520.83	7.02
521.00	0.00
521.17	32.77
521.34	119.37
521.52	65.54
521.69	11.70
521.86	37.45
522.03	39.79
522.20	63.19
522.38	0.00
522.55	0.00
522.72	32.77
522.89	63.19
523.07	32.77
523.24	105.32
523.41	16.38
523.58	35.11
523.75	11.70
523.92	74.90
524.10	51.49
524.27	84.26
524.44	49.15
524.61	16.38
524.78	49.15
524.96	77.24
525.13	46.81
525.30	60.85
525.47	56.17
525.64	65.54
525.81	60.85
525.98	79.58
526.16	32.77
526.33	107.66
526.50	67.88
526.67	9.36
526.84	32.77
527.01	4.68
527.18	35.11
527.36	51.49
527.53	60.85
527.70	56.17
527.87	25.75
528.04	18.72
528.21	42.13
528.38	23.41
528.55	88.94
528.72	65.54
528.89	91.28
529.07	60.85
529.24	79.58
529.41	21.06
529.58	32.77
529.75	14.04
529.92	23.41
530.09	70.22
530.26	44.47
530.43	65.54
530.60	51.49
530.77	67.88
530.94	21.06
531.11	39.79
531.28	100.64
531.46	32.77
531.63	2.34
531.80	63.19
531.97	91.28
532.14	25.75
532.31	98.30
532.48	65.54
532.65	2.34
532.82	18.72
532.99	28.09
533.16	0.00
533.33	0.00
533.50	0.00
533.67	42.13
533.84	65.54
534.01	35.11
534.18	88.94
534.35	35.11
534.52	35.11
534.69	42.13
534.86	30.43
535.03	23.41
535.20	117.03
535.37	74.90
535.54	91.28
535.71	0.00
535.88	51.49
536.05	37.45
536.22	42.13
536.38	88.94
536.55	60.85
536.72	30.43
536.89	28.09
537.06	18.72
537.23	60.85
537.40	25.75
537.57	44.47
537.74	21.06
537.91	46.81
538.08	81.92
538.25	30.43
538.42	0.00
538.59	67.88
538.75	39.79
538.92	18.72
539.09	37.45
539.26	74.90
539.43	60.85
539.60	32.77
539.77	0.00
539.94	32.77
540.11	37.45
540.28	35.11
540.44	60.85
540.61	16.38
540.78	53.83
540.95	0.00
541.12	65.54
541.29	25.75
541.46	93.62
541.62	46.81
541.79	21.06
541.96	32.77
542.13	0.00
542.30	0.00
542.47	53.83
542.63	39.79
542.80	42.13
542.97	46.81
543.14	32.77
543.31	93.62
543.48	70.22
543.64	44.47
543.81	46.81
543.98	0.00
544.15	70.22
544.32	0.00
544.48	56.17
544.65	53.83
544.82	53.83
544.99	49.15
545.16	65.54
545.32	56.17
545.49	37.45
545.66	39.79
545.83	58.51
546.00	4.68
546.16	11.70
546.33	42.13
546.50	35.11
546.67	86.60
546.83	0.00
547.00	49.15
547.17	0.00
547.34	60.85
547.50	60.85
547.67	42.13
547.84	4.68
548.00	0.00
548.17	121.71
548.34	44.47
548.51	42.13
548.67	114.69
548.84	44.47
549.01	35.11
549.18	0.00
549.34	49.15
549.51	23.41
549.68	0.00
549.84	30.43
550.01	0.00
550.18	74.90
550.34	37.45
550.51	70.22
550.68	79.58
550.84	88.94
551.01	77.24
551.18	133.41
551.34	126.39
551.51	32.77
551.68	28.09
551.84	0.00
552.01	46.81
552.18	18.72
552.34	65.54
552.51	72.56
552.68	145.11
552.84	28.09
553.01	51.49
553.18	30.43
553.34	100.64
553.51	32.77
553.67	44.47
553.84	0.00
554.01	2.34
554.17	18.72
554.34	39.79
554.51	91.28
554.67	21.06
554.84	46.81
555.00	23.41
555.17	70.22
555.33	14.04
555.50	98.30
555.67	37.45
555.83	11.70
556.00	0.00
556.16	39.79
556.33	46.81
556.50	25.75
556.66	0.00
556.83	0.00
556.99	44.47
557.16	30.43
557.32	0.00
557.49	53.83
557.65	30.43
557.82	42.13
557.98	72.56
558.15	16.38
558.32	25.75
558.48	16.38
558.65	42.13
558.81	39.79
558.98	65.54
559.14	30.43
559.31	95.96
559.47	77.24
559.64	70.22
559.80	23.41
559.97	0.00
560.13	56.17
560.30	0.00
560.46	16.38
560.63	70.22
560.79	42.13
560.96	49.15
561.12	0.00
561.29	65.54
561.45	145.11
561.61	74.90
561.78	51.49
561.94	84.26
562.11	100.64
562.27	11.70
562.44	2.34
562.60	28.09
562.77	100.64
562.93	35.11
563.10	9.36
563.26	9.36
563.42	77.24
563.59	0.00
563.75	51.49
563.92	0.00
564.08	88.94
564.24	0.00
564.41	49.15
564.57	23.41
564.74	42.13
564.90	74.90
565.07	11.70
565.23	58.51
565.39	37.45
565.56	79.58
565.72	0.00
565.88	67.88
566.05	56.17
566.21	32.77
566.38	105.32
566.54	11.70
566.70	51.49
566.87	70.22
567.03	0.00
567.19	81.92
567.36	74.90
567.52	21.06
567.68	23.41
567.85	65.54
568.01	0.00
568.17	32.77
568.34	30.43
568.50	42.13
568.66	86.60
568.83	72.56
568.99	100.64
569.15	0.00
569.32	28.09
569.48	67.88
569.64	91.28
569.81	0.00
569.97	4.68
570.13	46.81
570.30	25.75
570.46	95.96
570.62	72.56
570.78	72.56
570.95	81.92
571.11	0.00
571.27	32.77
571.43	32.77
571.60	0.00
571.76	18.72
571.92	32.77
572.09	72.56
572.25	0.00
572.41	9.36
572.57	4.68
572.74	60.85
572.90	0.00
573.06	32.77
573.22	60.85
573.38	51.49
573.55	42.13
573.71	84.26
573.87	0.00
574.03	35.11
574.20	58.51
574.36	49.15
574.52	56.17
574.68	0.00
574.84	56.17
575.01	49.15
575.17	9.36
575.33	37.45
575.49	39.79
575.65	44.47
575.82	56.17
575.98	0.00
576.14	60.85
576.30	9.36
576.46	84.26
576.62	0.00
576.79	23.41
576.95	28.09
577.11	60.85
577.27	4.68
577.43	74.90
577.59	0.00
577.75	35.11
577.92	28.09
578.08	0.00
578.24	0.00
578.40	67.88
578.56	35.11
578.72	0.00
578.88	32.77
579.04	42.13
579.21	0.00
579.37	42.13
579.53	84.26
579.69	140.43
579.85	42.13
580.01	4.68
580.17	58.51
580.33	102.98
580.49	100.64
580.65	2.34
580.82	7.02
580.98	30.43
581.14	86.60
581.30	74.90
581.46	74.90
581.62	58.51
581.78	30.43
581.94	107.66
582.10	0.00
582.26	0.00
582.42	0.00
582.58	0.00
582.74	0.00
582.90	25.75
583.06	67.88
583.22	23.41
583.38	65.54
583.54	0.00
583.70	35.11
583.86	70.22
584.02	32.77
584.18	0.00
584.34	0.00
584.50	51.49
584.66	86.60
584.82	0.00
584.98	74.90
585.14	86.60
585.30	56.17
585.46	44.47
585.62	18.72
585.78	72.56
585.94	9.36
586.10	25.75
586.26	0.00
586.42	84.26
586.58	9.36
586.74	77.24
586.90	86.60
587.06	25.75
587.22	30.43
587.38	28.09
587.54	44.47
587.70	0.00
587.86	60.85
588.02	2.34
588.18	11.70
588.34	32.77
588.49	0.00
588.65	117.03
588.81	77.24
588.97	39.79
589.13	44.47
589.29	25.75
589.45	4.68
589.61	39.79
589.77	23.41
589.93	44.47
590.08	28.09
590.24	14.04
590.40	79.58
590.56	105.32
590.72	102.98
590.88	14.04
591.04	79.58
591.20	53.83
591.35	58.51
591.51	0.00
591.67	88.94
591.83	58.51
591.99	28.09
592.15	42.13
592.31	30.43
592.46	25.75
592.62	30.43
592.78	0.00
592.94	25.75
593.10	63.19
593.26	93.62
593.41	95.96
593.57	46.81
593.73	2.34
593.89	42.13
594.05	23.41
594.20	25.75
594.36	39.79
594.52	23.41
594.68	42.13
594.84	0.00
594.99	0.00
595.15	65.54
595.31	30.43
595.47	42.13
595.62	18.72
595.78	67.88
595.94	0.00
596.10	53.83
596.25	51.49
596.41	25.75
596.57	37.45
596.73	60.85
596.88	25.75
597.04	25.75
597.20	91.28
597.36	72.56
597.51	21.06
597.67	0.00
597.83	23.41
597.99	65.54
598.14	84.26
598.30	4.68
598.46	65.54
598.61	79.58
598.77	70.22
598.93	93.62
599.09	30.43
599.24	32.77
599.40	18.72
599.56	37.45
599.71	42.13
599.87	30.43
600.03	25.75
600.18	42.13
600.34	4.68
600.50	44.47
600.65	86.60
600.81	51.49
600.97	7.02
601.12	79.58
601.28	21.06
601.44	39.79
601.59	28.09
601.75	107.66
601.91	63.19
602.06	65.54
602.22	39.79
602.37	67.88
602.53	65.54
602.69	0.00
602.84	51.49
603.00	7.02
603.16	28.09
603.31	9.36
603.47	39.79
603.62	23.41
603.78	70.22
603.94	77.24
604.09	35.11
604.25	0.00
604.40	70.22
604.56	93.62
604.71	0.00
604.87	56.17
605.03	21.06
605.18	102.98
605.34	98.30
605.49	4.68
605.65	44.47
605.80	7.02
605.96	81.92
606.12	0.00
606.27	11.70
606.43	112.35
606.58	23.41
606.74	58.51
606.89	14.04
607.05	16.38
607.20	88.94
607.36	56.17
607.51	51.49
607.67	9.36
607.82	30.43
607.98	67.88
608.13	51.49
608.29	35.11
608.44	14.04
608.60	23.41
608.75	81.92
608.91	72.56
609.06	56.17
609.22	0.00
609.37	42.13
609.53	65.54
609.68	63.19
609.84	7.02
609.99	53.83
610.15	67.88
610.30	100.64
610.46	86.60
610.61	70.22
610.76	35.11
610.92	7.02
611.07	44.47
611.23	42.13
611.38	2.34
611.54	105.32
611.69	107.66
611.84	11.70
612.00	16.38
612.15	63.19
612.31	140.43
612.46	63.19
612.62	25.75
612.77	79.58
612.92	44.47
613.08	67.88
613.23	46.81
613.39	0.00
613.54	74.90
613.69	11.70
613.85	11.70
614.00	0.00
614.15	35.11
614.31	14.04
614.46	49.15
614.62	58.51
614.77	56.17
614.92	93.62
615.08	51.49
615.23	100.64
615.38	105.32
615.54	60.85
615.69	32.77
615.84	0.00
616.00	60.85
616.15	58.51
616.30	25.75
616.46	21.06
616.61	102.98
616.76	11.70
616.92	121.71
617.07	0.00
617.22	58.51
617.37	0.00
617.53	133.41
617.68	7.02
617.83	21.06
617.99	0.00
618.14	88.94
618.29	86.60
618.45	112.35
618.60	0.00
618.75	0.00
618.90	0.00
619.06	18.72
619.21	49.15
619.36	11.70
619.51	35.11
619.67	60.85
619.82	28.09
619.97	0.00
620.12	63.19
620.28	79.58
620.43	91.28
620.58	93.62
620.73	9.36
620.89	42.13
621.04	44.47
621.19	70.22
621.34	49.15
621.49	28.09
621.65	39.79
621.80	100.64
621.95	67.88
622.10	14.04
622.25	25.75
622.41	42.13
622.56	49.15
622.71	46.81
622.86	32.77
623.01	70.22
623.16	0.00
623.32	0.00
623.47	65.54
623.62	67.88
623.77	35.11
623.92	49.15
624.07	32.77
624.23	28.09
624.38	0.00
624.53	16.38
624.68	65.54
624.83	32.77
624.98	0.00
625.13	53.83
625.29	28.09
625.44	86.60
625.59	25.75
625.74	28.09
625.89	16.38
626.04	7.02
626.19	37.45
626.34	79.58
626.49	42.13
626.65	49.15
626.80	74.90
626.95	0.00
627.10	35.11
627.25	44.47
627.40	0.00
627.55	105.32
627.70	18.72
627.85	16.38
628.00	49.15
628.15	126.39
628.30	60.85
628.45	133.41
628.60	0.00
628.76	56.17
628.91	18.72
629.06	74.90
629.21	49.15
629.36	49.15
629.51	107.66
629.66	0.00
629.81	95.96
629.96	4.68
630.11	0.00
630.26	0.00
630.41	42.13
630.56	16.38
630.71	42.13
630.86	23.41
631.01	25.75
631.16	72.56
631.31	0.00
631.46	0.00
631.61	46.81
631.76	70.22
631.91	2.34
632.06	49.15
632.21	0.00
632.36	39.79
632.51	51.49
632.66	32.77
632.81	91.28
632.96	102.98
633.10	21.06
633.25	117.03
633.40	53.83
633.55	28.09
633.70	51.49
633.85	56.17
634.00	0.00
634.15	14.04
634.30	11.70
634.45	32.77
634.60	23.41
634.75	32.77
634.90	65.54
635.05	60.85
635.19	0.00
635.34	44.47
635.49	0.00
635.64	0.00
635.79	32.77
635.94	37.45
636.09	9.36
636.24	53.83
636.39	0.00
636.53	42.13
636.68	72.56
636.83	102.98
636.98	25.75
637.13	25.75
637.28	0.00
637.43	25.75
637.57	30.43
637.72	49.15
637.87	35.11
638.02	0.00
638.17	39.79
638.32	0.00
638.46	46.81
638.61	58.51
638.76	0.00
638.91	7.02
639.06	0.00
639.20	70.22
639.35	93.62
639.50	44.47
639.65	0.00
639.80	72.56
639.94	0.00
640.09	25.75
640.24	9.36
640.39	9.36
640.54	0.00
640.68	70.22
640.83	0.00
640.98	51.49
641.13	11.70
641.27	56.17
641.42	67.88
641.57	60.85
641.72	74.90
641.86	49.15
642.01	56.17
642.16	58.51
642.31	42.13
642.45	37.45
642.60	35.11
642.75	30.43
642.90	0.00
643.04	60.85
643.19	37.45
643.34	0.00
643.48	67.88
643.63	37.45
643.78	56.17
643.93	35.11
644.07	105.32
644.22	119.37
644.37	44.47
644.51	44.47
644.66	32.77
644.81	37.45
644.95	95.96
645.10	0.00
645.25	35.11
645.39	23.41
645.54	51.49
645.69	23.41
645.83	51.49
645.98	0.00
646.13	51.49
646.27	25.75
646.42	53.83
646.57	11.70
646.71	23.41
646.86	0.00
647.00	30.43
647.15	65.54
647.30	7.02
647.44	72.56
647.59	88.94
647.74	0.00
647.88	4.68
648.03	30.43
648.17	79.58
648.32	0.00
648.47	4.68
648.61	114.69
648.76	23.41
648.90	0.00
649.05	84.26
649.20	84.26
649.34	4.68
649.49	28.09
649.63	79.58
649.78	60.85
649.92	46.81
650.07	23.41
650.21	0.00
650.36	51.49
650.51	32.77
650.65	28.09
650.80	30.43
650.94	39.79
651.09	0.00
651.23	46.81
651.38	30.43
651.52	21.06
651.67	0.00
651.81	0.00
651.96	128.73
652.10	74.90
652.25	79.58
652.39	0.00
652.54	60.85
652.68	14.04
652.83	39.79
652.97	0.00
653.12	114.69
653.26	60.85
653.41	30.43
653.55	63.19
653.70	28.09
653.84	110.01
653.99	0.00
654.13	70.22
654.27	51.49
654.42	0.00
654.56	42.13
654.71	79.58
654.85	107.66
655.00	35.11
655.14	18.72
655.29	51.49
655.43	60.85
655.57	2.34
655.72	0.00
655.86	0.00
656.01	70.22
656.15	35.11
656.30	102.98
656.44	39.79
656.58	18.72
656.73	44.47
656.87	30.43
657.01	65.54
657.16	0.00
657.30	63.19
657.45	46.81
657.59	44.47
657.73	0.00
657.88	30.43
658.02	37.45
658.16	72.56
658.31	2.34
658.45	67.88
658.60	79.58
658.74	18.72
658.88	14.04
659.03	25.75
659.17	67.88
659.31	39.79
659.46	11.70
659.60	14.04
659.74	67.88
659.89	44.47
660.03	0.00
660.17	56.17
660.32	0.00
660.46	32.77
660.60	56.17
660.74	11.70
660.89	0.00
661.03	0.00
661.17	60.85
661.32	0.00
661.46	32.77
661.60	107.66
661.74	0.00
661.89	14.04
662.03	0.00
662.17	9.36
662.31	4.68
662.46	49.15
662.60	23.41
662.74	0.00
662.88	11.70
663.03	65.54
663.17	0.00
663.31	30.43
663.45	79.58
663.60	37.45
663.74	72.56
663.88	23.41
664.02	0.00
664.17	51.49
664.31	0.00
664.45	25.75
664.59	44.47
664.73	70.22
664.88	35.11
665.02	56.17
665.16	32.77
665.30	77.24
665.44	25.75
665.59	0.00
665.73	56.17
665.87	0.00
666.01	23.41
666.15	42.13
666.29	39.79
666.44	46.81
666.58	72.56
666.72	0.00
666.86	53.83
667.00	0.00
667.14	58.51
667.28	60.85
667.43	0.00
667.57	70.22
667.71	0.00
667.85	21.06
667.99	14.04
668.13	63.19
668.27	16.38
668.41	56.17
668.56	0.00
668.70	60.85
668.84	37.45
668.98	11.70
669.12	56.17
669.26	0.00
669.40	23.41
669.54	14.04
669.68	30.43
669.82	56.17
669.96	72.56
670.10	0.00
670.25	81.92
670.39	32.77
670.53	46.81
670.67	0.00
670.81	93.62
670.95	0.00
671.09	0.00
671.23	98.30
671.37	39.79
671.51	21.06
671.65	0.00
671.79	0.00
671.93	42.13
672.07	63.19
672.21	95.96
672.35	0.00
672.49	14.04
672.63	9.36
672.77	49.15
672.91	65.54
673.05	81.92
673.19	32.77
673.33	4.68
673.47	53.83
673.61	49.15
673.75	77.24
673.89	21.06
674.03	56.17
674.17	110.01
674.31	79.58
674.45	37.45
674.59	74.90
674.73	11.70
674.87	18.72
675.01	37.45
675.15	44.47
675.29	0.00
675.43	44.47
675.56	70.22
675.70	37.45
675.84	56.17
675.98	56.17
676.12	4.68
676.26	0.00
676.40	4.68
676.54	7.02
676.68	0.00
676.82	16.38
676.96	0.00
677.10	23.41
677.23	18.72
677.37	56.17
677.51	39.79
677.65	46.81
677.79	0.00
677.93	79.58
678.07	21.06
678.21	28.09
678.34	72.56
678.48	70.22
678.62	0.00
678.76	0.00
678.90	46.81
679.04	0.00
679.18	60.85
679.31	0.00
679.45	49.15
679.59	0.00
679.73	60.85
679.87	56.17
680.00	70.22
680.14	9.36
680.28	74.90
680.42	25.75
680.56	74.90
680.70	84.26
680.83	65.54
680.97	30.43
681.11	0.00
681.25	0.00
681.39	18.72
681.52	74.90
681.66	4.68
681.80	0.00
681.94	32.77
682.07	58.51
682.21	0.00
682.35	0.00
682.49	39.79
682.62	42.13
682.76	30.43
682.90	95.96
683.04	39.79
683.17	0.00
683.31	32.77
683.45	2.34
683.59	28.09
683.72	0.00
683.86	63.19
684.00	0.00
684.13	32.77
684.27	42.13
684.41	21.06
684.55	11.70
684.68	30.43
684.82	60.85
684.96	51.49
685.09	11.70
685.23	58.51
685.37	79.58
685.50	51.49
685.64	16.38
685.78	9.36
685.91	11.70
686.05	95.96
686.19	9.36
686.32	51.49
686.46	18.72
686.60	39.79
686.73	67.88
686.87	70.22
687.01	63.19
687.14	28.09
687.28	0.00
687.42	46.81
687.55	0.00
687.69	42.13
687.82	25.75
687.96	16.38
688.10	70.22
688.23	0.00
688.37	0.00
688.50	65.54
688.64	11.70
688.78	0.00
688.91	49.15
689.05	0.00
689.18	25.75
689.32	2.34
689.46	0.00
689.59	42.13
689.73	0.00
689.86	58.51
690.00	65.54
690.13	21.06
690.27	46.81
690.41	0.00
690.54	0.00
690.68	0.00
690.81	39.79
690.95	0.00
691.08	0.00
691.22	56.17
691.35	30.43
691.49	46.81
691.62	65.54
691.76	98.30
691.89	53.83
692.03	32.77
692.16	0.00
692.30	30.43
692.43	0.00
692.57	42.13
692.70	16.38
692.84	74.90
692.97	35.11
693.11	0.00
693.24	70.22
693.38	0.00
693.51	44.47
693.65	60.85
693.78	7.02
693.92	53.83
694.05	0.00
694.19	4.68
694.32	0.00
694.45	0.00
694.59	46.81
694.72	14.04
694.86	18.72
694.99	102.98
695.13	72.56
695.26	51.49
695.39	84.26
695.53	65.54
695.66	18.72
695.80	65.54
695.93	25.75
696.07	11.70
696.20	0.00
696.33	67.88
696.47	60.85
696.60	37.45
696.73	67.88
696.87	56.17
697.00	72.56
697.14	35.11
697.27	0.00
697.40	9.36
697.54	7.02
697.67	32.77
697.80	46.81
697.94	0.00
698.07	0.00
698.21	86.60
698.34	49.15
698.47	49.15
698.61	93.62
698.74	67.88
698.87	49.15
699.01	44.47
699.14	0.00
699.27	23.41
699.40	25.75
699.54	0.00
699.67	98.30
699.80	37.45
699.94	0.00
700.07	39.79
700.20	58.51
700.34	46.81
700.47	0.00
700.60	0.00
700.73	21.06
700.87	18.72
701.00	0.00
701.13	84.26
701.26	18.72
701.40	56.17
701.53	42.13
701.66	0.00
701.79	0.00
701.93	39.79
702.06	32.77
702.19	110.01
702.32	77.24
702.46	16.38
702.59	42.13
702.72	28.09
702.85	28.09
702.99	23.41
703.12	0.00
703.25	11.70
703.38	35.11
703.51	11.70
703.65	0.00
703.78	0.00
703.91	56.17
704.04	102.98
704.17	42.13
704.31	25.75
704.44	44.47
704.57	100.64
704.70	0.00
704.83	63.19
704.96	7.02
705.10	7.02
705.23	0.00
>>>>>End Processed Spectral Data<<<<<
