SpectraSuite Data File
++++++++++++++++++++++++++++++++++++
Date: Fri Oct 04 12:13:37 GMT-05:00 2013
User: price-jones
Dark Spectrum Present: No
Reference Spectrum Present: No
Number of Sampled Component Spectra: 1
Spectrometers: USB2+H05261
Integration Time (usec): 10000 (USB2+H05261)
Spectra Averaged: 1 (USB2+H05261)
Boxcar Smoothing: 0 (USB2+H05261)
Correct for Electrical Dark: No (USB2+H05261)
Strobe/Lamp Enabled: No (USB2+H05261)
Correct for Detector Non-linearity: No (USB2+H05261)
Correct for Stray Light: No (USB2+H05261)
Number of Pixels in Processed Spectrum: 2048
>>>>>Begin Processed Spectral Data<<<<<
365.73	0.00
365.92	0.00
366.12	0.00
366.32	0.00
366.52	0.00
366.72	0.00
366.91	0.00
367.11	0.00
367.31	0.00
367.51	0.00
367.70	0.00
367.90	0.00
368.10	0.00
368.30	0.00
368.49	0.00
368.69	0.00
368.89	0.00
369.09	0.00
369.28	0.00
369.48	0.00
369.68	0.00
369.87	0.00
370.07	0.00
370.27	0.00
370.47	0.00
370.66	0.00
370.86	0.00
371.06	0.00
371.25	0.00
371.45	25.75
371.65	0.00
371.84	0.00
372.04	0.00
372.24	0.00
372.44	58.51
372.63	0.00
372.83	51.49
373.03	9.36
373.22	0.00
373.42	0.00
373.62	49.15
373.81	49.15
374.01	131.07
374.21	117.03
374.40	0.00
374.60	32.77
374.79	65.54
374.99	42.13
375.19	60.85
375.38	37.45
375.58	74.90
375.78	14.04
375.97	28.09
376.17	51.49
376.37	49.15
376.56	14.04
376.76	81.92
376.95	49.15
377.15	60.85
377.35	0.00
377.54	2.34
377.74	60.85
377.93	30.43
378.13	9.36
378.33	107.66
378.52	25.75
378.72	28.09
378.91	0.00
379.11	60.85
379.31	0.00
379.50	4.68
379.70	0.00
379.89	0.00
380.09	9.36
380.28	0.00
380.48	7.02
380.68	32.77
380.87	95.96
381.07	11.70
381.26	53.83
381.46	37.45
381.65	65.54
381.85	23.41
382.04	32.77
382.24	37.45
382.43	0.00
382.63	79.58
382.83	16.38
383.02	70.22
383.22	4.68
383.41	0.00
383.61	65.54
383.80	0.00
384.00	79.58
384.19	0.00
384.39	21.06
384.58	0.00
384.78	0.00
384.97	11.70
385.17	105.32
385.36	56.17
385.56	4.68
385.75	88.94
385.95	42.13
386.14	30.43
386.34	21.06
386.53	2.34
386.72	16.38
386.92	53.83
387.11	25.75
387.31	4.68
387.50	70.22
387.70	0.00
387.89	39.79
388.09	14.04
388.28	32.77
388.48	39.79
388.67	2.34
388.86	79.58
389.06	4.68
389.25	0.00
389.45	0.00
389.64	11.70
389.84	77.24
390.03	77.24
390.22	49.15
390.42	0.00
390.61	9.36
390.81	0.00
391.00	0.00
391.19	81.92
391.39	0.00
391.58	2.34
391.78	35.11
391.97	110.01
392.16	7.02
392.36	16.38
392.55	46.81
392.75	4.68
392.94	18.72
393.13	74.90
393.33	11.70
393.52	18.72
393.71	35.11
393.91	0.00
394.10	60.85
394.29	49.15
394.49	49.15
394.68	18.72
394.88	37.45
395.07	60.85
395.26	70.22
395.46	154.48
395.65	86.60
395.84	7.02
396.04	70.22
396.23	25.75
396.42	0.00
396.62	0.00
396.81	56.17
397.00	93.62
397.19	0.00
397.39	32.77
397.58	44.47
397.77	0.00
397.97	23.41
398.16	0.00
398.35	39.79
398.55	37.45
398.74	79.58
398.93	32.77
399.12	84.26
399.32	25.75
399.51	44.47
399.70	49.15
399.90	16.38
400.09	11.70
400.28	91.28
400.47	23.41
400.67	32.77
400.86	35.11
401.05	39.79
401.24	4.68
401.44	0.00
401.63	42.13
401.82	0.00
402.01	25.75
402.21	107.66
402.40	0.00
402.59	74.90
402.78	79.58
402.97	16.38
403.17	18.72
403.36	0.00
403.55	0.00
403.74	0.00
403.93	7.02
404.13	0.00
404.32	21.06
404.51	28.09
404.70	18.72
404.89	16.38
405.09	9.36
405.28	67.88
405.47	49.15
405.66	0.00
405.85	18.72
406.05	58.51
406.24	14.04
406.43	0.00
406.62	25.75
406.81	7.02
407.00	53.83
407.20	58.51
407.39	53.83
407.58	18.72
407.77	0.00
407.96	16.38
408.15	4.68
408.34	32.77
408.54	39.79
408.73	51.49
408.92	81.92
409.11	46.81
409.30	23.41
409.49	39.79
409.68	42.13
409.87	7.02
410.07	91.28
410.26	95.96
410.45	60.85
410.64	0.00
410.83	42.13
411.02	46.81
411.21	7.02
411.40	49.15
411.59	16.38
411.78	42.13
411.98	91.28
412.17	39.79
412.36	117.03
412.55	21.06
412.74	58.51
412.93	0.00
413.12	23.41
413.31	9.36
413.50	56.17
413.69	56.17
413.88	16.38
414.07	37.45
414.26	58.51
414.45	53.83
414.64	58.51
414.83	23.41
415.02	56.17
415.22	56.17
415.41	30.43
415.60	0.00
415.79	86.60
415.98	102.98
416.17	23.41
416.36	79.58
416.55	51.49
416.74	14.04
416.93	28.09
417.12	9.36
417.31	56.17
417.50	42.13
417.69	32.77
417.88	42.13
418.07	0.00
418.26	37.45
418.45	21.06
418.64	42.13
418.83	63.19
419.02	0.00
419.21	44.47
419.39	0.00
419.58	11.70
419.77	93.62
419.96	23.41
420.15	37.45
420.34	25.75
420.53	32.77
420.72	44.47
420.91	11.70
421.10	21.06
421.29	56.17
421.48	63.19
421.67	91.28
421.86	65.54
422.05	18.72
422.24	30.43
422.43	23.41
422.61	37.45
422.80	7.02
422.99	0.00
423.18	110.01
423.37	107.66
423.56	56.17
423.75	21.06
423.94	56.17
424.13	77.24
424.32	0.00
424.50	70.22
424.69	14.04
424.88	117.03
425.07	58.51
425.26	65.54
425.45	16.38
425.64	23.41
425.83	110.01
426.01	11.70
426.20	32.77
426.39	42.13
426.58	93.62
426.77	46.81
426.96	0.00
427.15	93.62
427.33	28.09
427.52	58.51
427.71	100.64
427.90	11.70
428.09	44.47
428.28	98.30
428.46	16.38
428.65	4.68
428.84	18.72
429.03	67.88
429.22	74.90
429.40	51.49
429.59	81.92
429.78	42.13
429.97	63.19
430.16	95.96
430.34	105.32
430.53	14.04
430.72	0.00
430.91	35.11
431.10	42.13
431.28	63.19
431.47	72.56
431.66	72.56
431.85	42.13
432.03	98.30
432.22	86.60
432.41	91.28
432.60	46.81
432.79	60.85
432.97	0.00
433.16	32.77
433.35	0.00
433.54	28.09
433.72	28.09
433.91	81.92
434.10	67.88
434.28	9.36
434.47	63.19
434.66	67.88
434.85	88.94
435.03	37.45
435.22	72.56
435.41	23.41
435.59	79.58
435.78	86.60
435.97	56.17
436.16	63.19
436.34	42.13
436.53	0.00
436.72	25.75
436.90	53.83
437.09	23.41
437.28	65.54
437.46	18.72
437.65	23.41
437.84	23.41
438.02	60.85
438.21	60.85
438.40	0.00
438.58	63.19
438.77	51.49
438.96	79.58
439.14	98.30
439.33	152.13
439.52	65.54
439.70	53.83
439.89	91.28
440.08	86.60
440.26	28.09
440.45	28.09
440.63	0.00
440.82	28.09
441.01	53.83
441.19	37.45
441.38	0.00
441.57	63.19
441.75	77.24
441.94	65.54
442.12	0.00
442.31	56.17
442.50	42.13
442.68	63.19
442.87	140.43
443.05	105.32
443.24	98.30
443.43	112.35
443.61	93.62
443.80	58.51
443.98	67.88
444.17	32.77
444.35	91.28
444.54	72.56
444.73	86.60
444.91	60.85
445.10	79.58
445.28	18.72
445.47	93.62
445.65	93.62
445.84	117.03
446.02	77.24
446.21	84.26
446.39	91.28
446.58	77.24
446.77	4.68
446.95	0.00
447.14	102.98
447.32	23.41
447.51	39.79
447.69	16.38
447.88	100.64
448.06	72.56
448.25	46.81
448.43	81.92
448.62	0.00
448.80	9.36
448.99	0.00
449.17	58.51
449.36	93.62
449.54	53.83
449.73	72.56
449.91	11.70
450.10	110.01
450.28	110.01
450.46	67.88
450.65	105.32
450.83	77.24
451.02	67.88
451.20	51.49
451.39	70.22
451.57	32.77
451.76	32.77
451.94	112.35
452.13	56.17
452.31	42.13
452.49	72.56
452.68	79.58
452.86	95.96
453.05	0.00
453.23	0.00
453.42	44.47
453.60	32.77
453.78	7.02
453.97	53.83
454.15	4.68
454.34	53.83
454.52	65.54
454.70	42.13
454.89	53.83
455.07	39.79
455.26	105.32
455.44	0.00
455.62	117.03
455.81	70.22
455.99	49.15
456.17	42.13
456.36	0.00
456.54	53.83
456.73	37.45
456.91	0.00
457.09	46.81
457.28	124.05
457.46	25.75
457.64	72.56
457.83	74.90
458.01	0.00
458.19	16.38
458.38	44.47
458.56	93.62
458.74	21.06
458.93	95.96
459.11	74.90
459.29	39.79
459.48	72.56
459.66	42.13
459.84	44.47
460.03	18.72
460.21	86.60
460.39	58.51
460.57	0.00
460.76	51.49
460.94	60.85
461.12	98.30
461.31	0.00
461.49	84.26
461.67	37.45
461.85	25.75
462.04	35.11
462.22	102.98
462.40	56.17
462.59	58.51
462.77	95.96
462.95	46.81
463.13	124.05
463.32	39.79
463.50	95.96
463.68	16.38
463.86	2.34
464.05	65.54
464.23	46.81
464.41	56.17
464.59	23.41
464.78	16.38
464.96	39.79
465.14	0.00
465.32	58.51
465.50	0.00
465.69	44.47
465.87	72.56
466.05	105.32
466.23	25.75
466.41	70.22
466.60	46.81
466.78	93.62
466.96	51.49
467.14	16.38
467.32	39.79
467.51	72.56
467.69	77.24
467.87	67.88
468.05	77.24
468.23	93.62
468.41	32.77
468.60	70.22
468.78	84.26
468.96	44.47
469.14	67.88
469.32	25.75
469.50	88.94
469.69	35.11
469.87	72.56
470.05	0.00
470.23	65.54
470.41	110.01
470.59	49.15
470.77	105.32
470.95	60.85
471.14	51.49
471.32	9.36
471.50	93.62
471.68	107.66
471.86	46.81
472.04	84.26
472.22	86.60
472.40	44.47
472.58	105.32
472.77	79.58
472.95	51.49
473.13	53.83
473.31	53.83
473.49	23.41
473.67	0.00
473.85	147.45
474.03	56.17
474.21	84.26
474.39	28.09
474.57	53.83
474.75	65.54
474.93	14.04
475.12	7.02
475.30	98.30
475.48	37.45
475.66	21.06
475.84	98.30
476.02	25.75
476.20	74.90
476.38	11.70
476.56	117.03
476.74	63.19
476.92	88.94
477.10	112.35
477.28	91.28
477.46	159.16
477.64	140.43
477.82	156.82
478.00	126.39
478.18	81.92
478.36	79.58
478.54	51.49
478.72	63.19
478.90	79.58
479.08	112.35
479.26	131.07
479.44	58.51
479.62	86.60
479.80	60.85
479.98	86.60
480.16	100.64
480.34	86.60
480.52	0.00
480.70	145.11
480.88	63.19
481.06	60.85
481.24	98.30
481.41	72.56
481.59	56.17
481.77	105.32
481.95	44.47
482.13	0.00
482.31	51.49
482.49	53.83
482.67	28.09
482.85	30.43
483.03	11.70
483.21	42.13
483.39	25.75
483.57	51.49
483.74	105.32
483.92	88.94
484.10	42.13
484.28	65.54
484.46	44.47
484.64	88.94
484.82	107.66
485.00	51.49
485.18	25.75
485.35	4.68
485.53	44.47
485.71	39.79
485.89	39.79
486.07	70.22
486.25	91.28
486.43	25.75
486.61	42.13
486.78	37.45
486.96	81.92
487.14	77.24
487.32	39.79
487.50	72.56
487.68	102.98
487.85	110.01
488.03	37.45
488.21	100.64
488.39	18.72
488.57	84.26
488.75	0.00
488.92	72.56
489.10	91.28
489.28	72.56
489.46	23.41
489.64	51.49
489.81	161.50
489.99	53.83
490.17	46.81
490.35	114.69
490.53	58.51
490.70	53.83
490.88	53.83
491.06	51.49
491.24	30.43
491.41	112.35
491.59	112.35
491.77	74.90
491.95	42.13
492.13	72.56
492.30	49.15
492.48	42.13
492.66	84.26
492.84	79.58
493.01	152.13
493.19	161.50
493.37	154.48
493.54	72.56
493.72	23.41
493.90	100.64
494.08	98.30
494.25	74.90
494.43	56.17
494.61	126.39
494.79	67.88
494.96	88.94
495.14	39.79
495.32	42.13
495.49	56.17
495.67	63.19
495.85	88.94
496.02	42.13
496.20	102.98
496.38	58.51
496.55	18.72
496.73	0.00
496.91	77.24
497.09	79.58
497.26	128.73
497.44	81.92
497.62	44.47
497.79	60.85
497.97	107.66
498.14	79.58
498.32	58.51
498.50	39.79
498.67	105.32
498.85	86.60
499.03	100.64
499.20	63.19
499.38	98.30
499.56	112.35
499.73	46.81
499.91	72.56
500.08	135.75
500.26	65.54
500.44	86.60
500.61	49.15
500.79	63.19
500.97	84.26
501.14	60.85
501.32	147.45
501.49	112.35
501.67	37.45
501.84	4.68
502.02	112.35
502.20	46.81
502.37	67.88
502.55	23.41
502.72	35.11
502.90	51.49
503.07	49.15
503.25	133.41
503.43	100.64
503.60	60.85
503.78	98.30
503.95	98.30
504.13	163.84
504.30	88.94
504.48	131.07
504.65	63.19
504.83	100.64
505.01	156.82
505.18	145.11
505.36	81.92
505.53	74.90
505.71	114.69
505.88	0.00
506.06	60.85
506.23	77.24
506.41	72.56
506.58	131.07
506.76	102.98
506.93	161.50
507.11	84.26
507.28	91.28
507.46	63.19
507.63	117.03
507.81	28.09
507.98	46.81
508.16	98.30
508.33	60.85
508.50	95.96
508.68	53.83
508.85	72.56
509.03	84.26
509.20	140.43
509.38	35.11
509.55	60.85
509.73	112.35
509.90	18.72
510.08	81.92
510.25	70.22
510.42	124.05
510.60	72.56
510.77	107.66
510.95	32.77
511.12	77.24
511.30	107.66
511.47	98.30
511.64	51.49
511.82	79.58
511.99	37.45
512.17	21.06
512.34	81.92
512.51	39.79
512.69	44.47
512.86	140.43
513.04	23.41
513.21	95.96
513.38	105.32
513.56	56.17
513.73	100.64
513.90	37.45
514.08	70.22
514.25	117.03
514.43	114.69
514.60	39.79
514.77	107.66
514.95	0.00
515.12	98.30
515.29	65.54
515.47	65.54
515.64	126.39
515.81	11.70
515.99	28.09
516.16	42.13
516.33	67.88
516.51	21.06
516.68	2.34
516.85	79.58
517.03	14.04
517.20	117.03
517.37	124.05
517.54	9.36
517.72	119.37
517.89	37.45
518.06	86.60
518.24	18.72
518.41	119.37
518.58	44.47
518.75	98.30
518.93	49.15
519.10	39.79
519.27	65.54
519.45	46.81
519.62	46.81
519.79	91.28
519.96	72.56
520.14	42.13
520.31	107.66
520.48	74.90
520.65	32.77
520.83	35.11
521.00	60.85
521.17	32.77
521.34	65.54
521.52	84.26
521.69	91.28
521.86	105.32
522.03	105.32
522.20	119.37
522.38	23.41
522.55	114.69
522.72	14.04
522.89	53.83
523.07	63.19
523.24	152.13
523.41	56.17
523.58	21.06
523.75	70.22
523.92	79.58
524.10	173.20
524.27	128.73
524.44	98.30
524.61	42.13
524.78	67.88
524.96	154.48
525.13	114.69
525.30	114.69
525.47	49.15
525.64	126.39
525.81	67.88
525.98	30.43
526.16	39.79
526.33	51.49
526.50	0.00
526.67	133.41
526.84	18.72
527.01	79.58
527.18	28.09
527.36	152.13
527.53	86.60
527.70	98.30
527.87	42.13
528.04	53.83
528.21	23.41
528.38	79.58
528.55	79.58
528.72	102.98
528.89	70.22
529.07	173.20
529.24	84.26
529.41	114.69
529.58	18.72
529.75	46.81
529.92	79.58
530.09	84.26
530.26	145.11
530.43	117.03
530.60	65.54
530.77	72.56
530.94	67.88
531.11	114.69
531.28	74.90
531.46	86.60
531.63	56.17
531.80	117.03
531.97	84.26
532.14	102.98
532.31	124.05
532.48	100.64
532.65	128.73
532.82	110.01
532.99	77.24
533.16	105.32
533.33	142.77
533.50	58.51
533.67	84.26
533.84	21.06
534.01	72.56
534.18	58.51
534.35	156.82
534.52	56.17
534.69	98.30
534.86	72.56
535.03	74.90
535.20	49.15
535.37	110.01
535.54	102.98
535.71	58.51
535.88	135.75
536.05	23.41
536.22	86.60
536.38	77.24
536.55	58.51
536.72	32.77
536.89	58.51
537.06	86.60
537.23	93.62
537.40	119.37
537.57	95.96
537.74	56.17
537.91	74.90
538.08	81.92
538.25	95.96
538.42	102.98
538.59	98.30
538.75	140.43
538.92	95.96
539.09	79.58
539.26	42.13
539.43	86.60
539.60	112.35
539.77	60.85
539.94	133.41
540.11	84.26
540.28	102.98
540.44	9.36
540.61	88.94
540.78	58.51
540.95	95.96
541.12	93.62
541.29	105.32
541.46	32.77
541.62	74.90
541.79	91.28
541.96	98.30
542.13	51.49
542.30	152.13
542.47	102.98
542.63	88.94
542.80	100.64
542.97	65.54
543.14	98.30
543.31	74.90
543.48	53.83
543.64	79.58
543.81	110.01
543.98	105.32
544.15	98.30
544.32	72.56
544.48	60.85
544.65	117.03
544.82	56.17
544.99	0.00
545.16	77.24
545.32	124.05
545.49	133.41
545.66	152.13
545.83	2.34
546.00	46.81
546.16	56.17
546.33	74.90
546.50	77.24
546.67	67.88
546.83	28.09
547.00	32.77
547.17	100.64
547.34	107.66
547.50	67.88
547.67	100.64
547.84	95.96
548.00	126.39
548.17	84.26
548.34	117.03
548.51	114.69
548.67	44.47
548.84	117.03
549.01	110.01
549.18	81.92
549.34	161.50
549.51	58.51
549.68	67.88
549.84	135.75
550.01	100.64
550.18	42.13
550.34	39.79
550.51	110.01
550.68	74.90
550.84	42.13
551.01	70.22
551.18	110.01
551.34	149.79
551.51	0.00
551.68	72.56
551.84	77.24
552.01	124.05
552.18	105.32
552.34	91.28
552.51	114.69
552.68	77.24
552.84	46.81
553.01	67.88
553.18	117.03
553.34	42.13
553.51	35.11
553.67	107.66
553.84	67.88
554.01	74.90
554.17	81.92
554.34	121.71
554.51	58.51
554.67	102.98
554.84	170.86
555.00	53.83
555.17	100.64
555.33	110.01
555.50	46.81
555.67	88.94
555.83	93.62
556.00	105.32
556.16	166.18
556.33	163.84
556.50	114.69
556.66	105.32
556.83	128.73
556.99	86.60
557.16	105.32
557.32	121.71
557.49	84.26
557.65	107.66
557.82	91.28
557.98	102.98
558.15	124.05
558.32	156.82
558.48	74.90
558.65	65.54
558.81	147.45
558.98	91.28
559.14	53.83
559.31	124.05
559.47	63.19
559.64	70.22
559.80	32.77
559.97	93.62
560.13	74.90
560.30	163.84
560.46	117.03
560.63	63.19
560.79	81.92
560.96	7.02
561.12	102.98
561.29	42.13
561.45	98.30
561.61	67.88
561.78	32.77
561.94	74.90
562.11	102.98
562.27	70.22
562.44	77.24
562.60	98.30
562.77	117.03
562.93	102.98
563.10	91.28
563.26	84.26
563.42	124.05
563.59	88.94
563.75	46.81
563.92	102.98
564.08	0.00
564.24	53.83
564.41	58.51
564.57	93.62
564.74	56.17
564.90	0.00
565.07	98.30
565.23	14.04
565.39	39.79
565.56	81.92
565.72	93.62
565.88	77.24
566.05	88.94
566.21	93.62
566.38	74.90
566.54	53.83
566.70	18.72
566.87	46.81
567.03	88.94
567.19	100.64
567.36	88.94
567.52	72.56
567.68	86.60
567.85	56.17
568.01	107.66
568.17	100.64
568.34	79.58
568.50	88.94
568.66	184.90
568.83	44.47
568.99	79.58
569.15	60.85
569.32	98.30
569.48	32.77
569.64	107.66
569.81	35.11
569.97	35.11
570.13	119.37
570.30	88.94
570.46	91.28
570.62	21.06
570.78	102.98
570.95	44.47
571.11	44.47
571.27	93.62
571.43	0.00
571.60	16.38
571.76	39.79
571.92	0.00
572.09	93.62
572.25	110.01
572.41	152.13
572.57	128.73
572.74	58.51
572.90	0.00
573.06	138.09
573.22	88.94
573.38	81.92
573.55	79.58
573.71	46.81
573.87	145.11
574.03	49.15
574.20	65.54
574.36	28.09
574.52	140.43
574.68	131.07
574.84	46.81
575.01	81.92
575.17	25.75
575.33	86.60
575.49	11.70
575.65	18.72
575.82	79.58
575.98	105.32
576.14	14.04
576.30	70.22
576.46	117.03
576.62	117.03
576.79	35.11
576.95	74.90
577.11	117.03
577.27	65.54
577.43	0.00
577.59	77.24
577.75	86.60
577.92	114.69
578.08	0.00
578.24	39.79
578.40	30.43
578.56	56.17
578.72	124.05
578.88	32.77
579.04	16.38
579.21	98.30
579.37	0.00
579.53	88.94
579.69	98.30
579.85	65.54
580.01	81.92
580.17	63.19
580.33	79.58
580.49	67.88
580.65	93.62
580.82	173.20
580.98	0.00
581.14	63.19
581.30	98.30
581.46	72.56
581.62	124.05
581.78	88.94
581.94	46.81
582.10	107.66
582.26	28.09
582.42	72.56
582.58	117.03
582.74	63.19
582.90	35.11
583.06	58.51
583.22	138.09
583.38	98.30
583.54	86.60
583.70	28.09
583.86	112.35
584.02	149.79
584.18	44.47
584.34	77.24
584.50	93.62
584.66	95.96
584.82	60.85
584.98	93.62
585.14	124.05
585.30	79.58
585.46	102.98
585.62	0.00
585.78	114.69
585.94	100.64
586.10	49.15
586.26	53.83
586.42	95.96
586.58	32.77
586.74	0.00
586.90	67.88
587.06	98.30
587.22	53.83
587.38	107.66
587.54	74.90
587.70	39.79
587.86	107.66
588.02	88.94
588.18	114.69
588.34	67.88
588.49	35.11
588.65	32.77
588.81	98.30
588.97	0.00
589.13	0.00
589.29	65.54
589.45	70.22
589.61	74.90
589.77	0.00
589.93	18.72
590.08	95.96
590.24	60.85
590.40	67.88
590.56	95.96
590.72	7.02
590.88	88.94
591.04	58.51
591.20	46.81
591.35	67.88
591.51	77.24
591.67	67.88
591.83	84.26
591.99	93.62
592.15	37.45
592.31	114.69
592.46	67.88
592.62	18.72
592.78	9.36
592.94	42.13
593.10	49.15
593.26	105.32
593.41	93.62
593.57	67.88
593.73	128.73
593.89	114.69
594.05	46.81
594.20	51.49
594.36	166.18
594.52	166.18
594.68	44.47
594.84	114.69
594.99	70.22
595.15	79.58
595.31	107.66
595.47	107.66
595.62	35.11
595.78	65.54
595.94	18.72
596.10	44.47
596.25	49.15
596.41	9.36
596.57	102.98
596.73	53.83
596.88	154.48
597.04	110.01
597.20	86.60
597.36	39.79
597.51	77.24
597.67	39.79
597.83	49.15
597.99	9.36
598.14	18.72
598.30	79.58
598.46	105.32
598.61	86.60
598.77	42.13
598.93	65.54
599.09	86.60
599.24	46.81
599.40	60.85
599.56	98.30
599.71	110.01
599.87	86.60
600.03	67.88
600.18	51.49
600.34	128.73
600.50	81.92
600.65	53.83
600.81	60.85
600.97	25.75
601.12	95.96
601.28	14.04
601.44	49.15
601.59	117.03
601.75	60.85
601.91	16.38
602.06	93.62
602.22	56.17
602.37	154.48
602.53	140.43
602.69	23.41
602.84	39.79
603.00	88.94
603.16	84.26
603.31	44.47
603.47	51.49
603.62	28.09
603.78	0.00
603.94	56.17
604.09	7.02
604.25	35.11
604.40	114.69
604.56	77.24
604.71	91.28
604.87	65.54
605.03	49.15
605.18	46.81
605.34	72.56
605.49	44.47
605.65	51.49
605.80	77.24
605.96	42.13
606.12	124.05
606.27	42.13
606.43	32.77
606.58	67.88
606.74	74.90
606.89	46.81
607.05	81.92
607.20	81.92
607.36	77.24
607.51	39.79
607.67	37.45
607.82	126.39
607.98	21.06
608.13	49.15
608.29	60.85
608.44	63.19
608.60	86.60
608.75	67.88
608.91	46.81
609.06	105.32
609.22	95.96
609.37	105.32
609.53	0.00
609.68	46.81
609.84	60.85
609.99	28.09
610.15	0.00
610.30	86.60
610.46	128.73
610.61	88.94
610.76	102.98
610.92	81.92
611.07	133.41
611.23	102.98
611.38	56.17
611.54	42.13
611.69	107.66
611.84	14.04
612.00	32.77
612.15	0.00
612.31	42.13
612.46	30.43
612.62	9.36
612.77	84.26
612.92	18.72
613.08	53.83
613.23	28.09
613.39	65.54
613.54	105.32
613.69	32.77
613.85	35.11
614.00	0.00
614.15	51.49
614.31	81.92
614.46	84.26
614.62	114.69
614.77	112.35
614.92	42.13
615.08	44.47
615.23	25.75
615.38	88.94
615.54	105.32
615.69	65.54
615.84	84.26
616.00	23.41
616.15	86.60
616.30	60.85
616.46	21.06
616.61	21.06
616.76	72.56
616.92	23.41
617.07	112.35
617.22	65.54
617.37	0.00
617.53	65.54
617.68	32.77
617.83	56.17
617.99	91.28
618.14	58.51
618.29	74.90
618.45	32.77
618.60	39.79
618.75	88.94
618.90	98.30
619.06	14.04
619.21	102.98
619.36	119.37
619.51	46.81
619.67	56.17
619.82	60.85
619.97	42.13
620.12	44.47
620.28	25.75
620.43	102.98
620.58	70.22
620.73	51.49
620.89	60.85
621.04	100.64
621.19	91.28
621.34	56.17
621.49	77.24
621.65	9.36
621.80	42.13
621.95	0.00
622.10	39.79
622.25	30.43
622.41	84.26
622.56	79.58
622.71	86.60
622.86	53.83
623.01	51.49
623.16	63.19
623.32	117.03
623.47	107.66
623.62	81.92
623.77	77.24
623.92	77.24
624.07	91.28
624.23	60.85
624.38	0.00
624.53	46.81
624.68	0.00
624.83	67.88
624.98	7.02
625.13	84.26
625.29	133.41
625.44	74.90
625.59	131.07
625.74	7.02
625.89	7.02
626.04	23.41
626.19	51.49
626.34	91.28
626.49	58.51
626.65	135.75
626.80	35.11
626.95	91.28
627.10	28.09
627.25	51.49
627.40	100.64
627.55	14.04
627.70	60.85
627.85	35.11
628.00	51.49
628.15	93.62
628.30	121.71
628.45	112.35
628.60	95.96
628.76	102.98
628.91	2.34
629.06	126.39
629.21	79.58
629.36	112.35
629.51	28.09
629.66	16.38
629.81	77.24
629.96	30.43
630.11	63.19
630.26	100.64
630.41	51.49
630.56	58.51
630.71	16.38
630.86	100.64
631.01	56.17
631.16	110.01
631.31	77.24
631.46	93.62
631.61	32.77
631.76	72.56
631.91	56.17
632.06	28.09
632.21	35.11
632.36	51.49
632.51	44.47
632.66	35.11
632.81	25.75
632.96	49.15
633.10	35.11
633.25	51.49
633.40	23.41
633.55	70.22
633.70	49.15
633.85	60.85
634.00	35.11
634.15	84.26
634.30	0.00
634.45	53.83
634.60	39.79
634.75	67.88
634.90	0.00
635.05	51.49
635.19	128.73
635.34	23.41
635.49	105.32
635.64	67.88
635.79	70.22
635.94	46.81
636.09	93.62
636.24	84.26
636.39	30.43
636.53	67.88
636.68	35.11
636.83	67.88
636.98	30.43
637.13	32.77
637.28	35.11
637.43	49.15
637.57	51.49
637.72	81.92
637.87	86.60
638.02	126.39
638.17	67.88
638.32	81.92
638.46	58.51
638.61	74.90
638.76	100.64
638.91	110.01
639.06	91.28
639.20	7.02
639.35	60.85
639.50	67.88
639.65	28.09
639.80	100.64
639.94	58.51
640.09	30.43
640.24	77.24
640.39	16.38
640.54	149.79
640.68	67.88
640.83	79.58
640.98	133.41
641.13	56.17
641.27	51.49
641.42	86.60
641.57	74.90
641.72	72.56
641.86	9.36
642.01	42.13
642.16	65.54
642.31	67.88
642.45	46.81
642.60	86.60
642.75	77.24
642.90	11.70
643.04	70.22
643.19	39.79
643.34	0.00
643.48	105.32
643.63	117.03
643.78	63.19
643.93	37.45
644.07	95.96
644.22	105.32
644.37	16.38
644.51	72.56
644.66	121.71
644.81	58.51
644.95	88.94
645.10	0.00
645.25	37.45
645.39	49.15
645.54	58.51
645.69	53.83
645.83	53.83
645.98	81.92
646.13	0.00
646.27	117.03
646.42	0.00
646.57	16.38
646.71	0.00
646.86	86.60
647.00	49.15
647.15	32.77
647.30	35.11
647.44	0.00
647.59	30.43
647.74	133.41
647.88	30.43
648.03	65.54
648.17	7.02
648.32	9.36
648.47	102.98
648.61	44.47
648.76	65.54
648.90	16.38
649.05	84.26
649.20	86.60
649.34	0.00
649.49	58.51
649.63	11.70
649.78	30.43
649.92	65.54
650.07	79.58
650.21	51.49
650.36	0.00
650.51	0.00
650.65	67.88
650.80	63.19
650.94	60.85
651.09	7.02
651.23	44.47
651.38	39.79
651.52	46.81
651.67	98.30
651.81	0.00
651.96	21.06
652.10	95.96
652.25	30.43
652.39	72.56
652.54	91.28
652.68	58.51
652.83	58.51
652.97	53.83
653.12	49.15
653.26	0.00
653.41	65.54
653.55	86.60
653.70	42.13
653.84	46.81
653.99	0.00
654.13	0.00
654.27	0.00
654.42	14.04
654.56	9.36
654.71	60.85
654.85	63.19
655.00	11.70
655.14	35.11
655.29	72.56
655.43	67.88
655.57	72.56
655.72	23.41
655.86	44.47
656.01	46.81
656.15	88.94
656.30	79.58
656.44	67.88
656.58	77.24
656.73	93.62
656.87	140.43
657.01	60.85
657.16	100.64
657.30	51.49
657.45	44.47
657.59	46.81
657.73	35.11
657.88	30.43
658.02	51.49
658.16	18.72
658.31	18.72
658.45	79.58
658.60	63.19
658.74	16.38
658.88	105.32
659.03	79.58
659.17	124.05
659.31	16.38
659.46	63.19
659.60	91.28
659.74	88.94
659.89	126.39
660.03	51.49
660.17	56.17
660.32	25.75
660.46	67.88
660.60	53.83
660.74	16.38
660.89	53.83
661.03	42.13
661.17	42.13
661.32	131.07
661.46	70.22
661.60	2.34
661.74	58.51
661.89	58.51
662.03	65.54
662.17	67.88
662.31	42.13
662.46	119.37
662.60	77.24
662.74	107.66
662.88	28.09
663.03	4.68
663.17	119.37
663.31	0.00
663.45	42.13
663.60	35.11
663.74	56.17
663.88	95.96
664.02	21.06
664.17	23.41
664.31	102.98
664.45	0.00
664.59	51.49
664.73	30.43
664.88	63.19
665.02	7.02
665.16	0.00
665.30	14.04
665.44	11.70
665.59	84.26
665.73	18.72
665.87	21.06
666.01	44.47
666.15	46.81
666.29	51.49
666.44	2.34
666.58	77.24
666.72	0.00
666.86	53.83
667.00	95.96
667.14	56.17
667.28	44.47
667.43	16.38
667.57	72.56
667.71	49.15
667.85	86.60
667.99	37.45
668.13	60.85
668.27	18.72
668.41	60.85
668.56	0.00
668.70	91.28
668.84	46.81
668.98	21.06
669.12	16.38
669.26	81.92
669.40	72.56
669.54	51.49
669.68	72.56
669.82	0.00
669.96	25.75
670.10	42.13
670.25	44.47
670.39	0.00
670.53	65.54
670.67	35.11
670.81	77.24
670.95	14.04
671.09	70.22
671.23	53.83
671.37	98.30
671.51	46.81
671.65	58.51
671.79	74.90
671.93	102.98
672.07	7.02
672.21	0.00
672.35	53.83
672.49	46.81
672.63	112.35
672.77	39.79
672.91	74.90
673.05	23.41
673.19	44.47
673.33	9.36
673.47	44.47
673.61	42.13
673.75	121.71
673.89	77.24
674.03	35.11
674.17	117.03
674.31	53.83
674.45	35.11
674.59	51.49
674.73	86.60
674.87	65.54
675.01	35.11
675.15	7.02
675.29	28.09
675.43	56.17
675.56	35.11
675.70	74.90
675.84	51.49
675.98	51.49
676.12	107.66
676.26	4.68
676.40	25.75
676.54	42.13
676.68	0.00
676.82	67.88
676.96	46.81
677.10	0.00
677.23	60.85
677.37	39.79
677.51	142.77
677.65	25.75
677.79	74.90
677.93	84.26
678.07	53.83
678.21	35.11
678.34	63.19
678.48	39.79
678.62	32.77
678.76	11.70
678.90	0.00
679.04	0.00
679.18	51.49
679.31	107.66
679.45	30.43
679.59	56.17
679.73	0.00
679.87	53.83
680.00	42.13
680.14	53.83
680.28	7.02
680.42	53.83
680.56	0.00
680.70	25.75
680.83	102.98
680.97	58.51
681.11	4.68
681.25	53.83
681.39	60.85
681.52	39.79
681.66	98.30
681.80	72.56
681.94	112.35
682.07	44.47
682.21	0.00
682.35	86.60
682.49	44.47
682.62	79.58
682.76	98.30
682.90	0.00
683.04	72.56
683.17	0.00
683.31	65.54
683.45	37.45
683.59	117.03
683.72	91.28
683.86	49.15
684.00	51.49
684.13	74.90
684.27	0.00
684.41	30.43
684.55	0.00
684.68	0.00
684.82	37.45
684.96	18.72
685.09	0.00
685.23	53.83
685.37	60.85
685.50	39.79
685.64	53.83
685.78	32.77
685.91	117.03
686.05	86.60
686.19	23.41
686.32	105.32
686.46	42.13
686.60	37.45
686.73	28.09
686.87	16.38
687.01	0.00
687.14	65.54
687.28	2.34
687.42	49.15
687.55	28.09
687.69	0.00
687.82	39.79
687.96	25.75
688.10	30.43
688.23	51.49
688.37	117.03
688.50	30.43
688.64	0.00
688.78	4.68
688.91	63.19
689.05	107.66
689.18	0.00
689.32	42.13
689.46	0.00
689.59	0.00
689.73	42.13
689.86	60.85
690.00	2.34
690.13	0.00
690.27	46.81
690.41	28.09
690.54	91.28
690.68	56.17
690.81	0.00
690.95	46.81
691.08	46.81
691.22	4.68
691.35	39.79
691.49	98.30
691.62	0.00
691.76	51.49
691.89	70.22
692.03	32.77
692.16	37.45
692.30	56.17
692.43	39.79
692.57	0.00
692.70	28.09
692.84	16.38
692.97	21.06
693.11	16.38
693.24	53.83
693.38	32.77
693.51	35.11
693.65	21.06
693.78	0.00
693.92	23.41
694.05	117.03
694.19	74.90
694.32	72.56
694.45	133.41
694.59	51.49
694.72	0.00
694.86	44.47
694.99	23.41
695.13	58.51
695.26	16.38
695.39	28.09
695.53	28.09
695.66	14.04
695.80	60.85
695.93	91.28
696.07	16.38
696.20	95.96
696.33	44.47
696.47	42.13
696.60	25.75
696.73	58.51
696.87	0.00
697.00	0.00
697.14	51.49
697.27	35.11
697.40	79.58
697.54	21.06
697.67	0.00
697.80	46.81
697.94	49.15
698.07	0.00
698.21	77.24
698.34	14.04
698.47	0.00
698.61	70.22
698.74	7.02
698.87	0.00
699.01	25.75
699.14	51.49
699.27	42.13
699.40	51.49
699.54	46.81
699.67	4.68
699.80	0.00
699.94	9.36
700.07	42.13
700.20	74.90
700.34	35.11
700.47	4.68
700.60	0.00
700.73	121.71
700.87	88.94
701.00	9.36
701.13	25.75
701.26	11.70
701.40	0.00
701.53	112.35
701.66	21.06
701.79	32.77
701.93	9.36
702.06	79.58
702.19	49.15
702.32	81.92
702.46	0.00
702.59	44.47
702.72	32.77
702.85	49.15
702.99	72.56
703.12	56.17
703.25	0.00
703.38	23.41
703.51	4.68
703.65	102.98
703.78	63.19
703.91	133.41
704.04	102.98
704.17	46.81
704.31	81.92
704.44	25.75
704.57	58.51
704.70	51.49
704.83	0.00
704.96	30.43
705.10	30.43
705.23	0.00
>>>>>End Processed Spectral Data<<<<<
