SpectraSuite Data File
++++++++++++++++++++++++++++++++++++
Date: Fri Oct 04 12:13:31 GMT-05:00 2013
User: price-jones
Dark Spectrum Present: No
Reference Spectrum Present: No
Number of Sampled Component Spectra: 1
Spectrometers: USB2+H05261
Integration Time (usec): 10000 (USB2+H05261)
Spectra Averaged: 1 (USB2+H05261)
Boxcar Smoothing: 0 (USB2+H05261)
Correct for Electrical Dark: No (USB2+H05261)
Strobe/Lamp Enabled: No (USB2+H05261)
Correct for Detector Non-linearity: No (USB2+H05261)
Correct for Stray Light: No (USB2+H05261)
Number of Pixels in Processed Spectrum: 2048
>>>>>Begin Processed Spectral Data<<<<<
365.73	9.36
365.92	9.36
366.12	9.36
366.32	0.00
366.52	0.00
366.72	0.00
366.91	0.00
367.11	0.00
367.31	0.00
367.51	0.00
367.70	0.00
367.90	0.00
368.10	0.00
368.30	0.00
368.49	0.00
368.69	0.00
368.89	0.00
369.09	0.00
369.28	0.00
369.48	0.00
369.68	0.00
369.87	0.00
370.07	0.00
370.27	0.00
370.47	0.00
370.66	0.00
370.86	0.00
371.06	0.00
371.25	0.00
371.45	0.00
371.65	0.00
371.84	63.19
372.04	18.72
372.24	0.00
372.44	0.00
372.63	0.00
372.83	0.00
373.03	25.75
373.22	21.06
373.42	23.41
373.62	42.13
373.81	42.13
374.01	28.09
374.21	18.72
374.40	0.00
374.60	4.68
374.79	35.11
374.99	91.28
375.19	23.41
375.38	0.00
375.58	53.83
375.78	51.49
375.97	32.77
376.17	11.70
376.37	0.00
376.56	0.00
376.76	44.47
376.95	0.00
377.15	9.36
377.35	44.47
377.54	56.17
377.74	0.00
377.93	2.34
378.13	0.00
378.33	28.09
378.52	32.77
378.72	0.00
378.91	30.43
379.11	0.00
379.31	4.68
379.50	23.41
379.70	0.00
379.89	42.13
380.09	23.41
380.28	0.00
380.48	86.60
380.68	16.38
380.87	46.81
381.07	0.00
381.26	37.45
381.46	16.38
381.65	56.17
381.85	0.00
382.04	0.00
382.24	0.00
382.43	77.24
382.63	42.13
382.83	25.75
383.02	30.43
383.22	2.34
383.41	14.04
383.61	0.00
383.80	51.49
384.00	18.72
384.19	30.43
384.39	0.00
384.58	9.36
384.78	0.00
384.97	18.72
385.17	0.00
385.36	28.09
385.56	32.77
385.75	7.02
385.95	4.68
386.14	35.11
386.34	4.68
386.53	46.81
386.72	0.00
386.92	0.00
387.11	63.19
387.31	7.02
387.50	67.88
387.70	0.00
387.89	88.94
388.09	9.36
388.28	0.00
388.48	60.85
388.67	35.11
388.86	30.43
389.06	18.72
389.25	2.34
389.45	53.83
389.64	37.45
389.84	11.70
390.03	0.00
390.22	32.77
390.42	0.00
390.61	23.41
390.81	18.72
391.00	0.00
391.19	86.60
391.39	4.68
391.58	0.00
391.78	49.15
391.97	0.00
392.16	0.00
392.36	18.72
392.55	25.75
392.75	7.02
392.94	42.13
393.13	11.70
393.33	4.68
393.52	25.75
393.71	42.13
393.91	30.43
394.10	0.00
394.29	0.00
394.49	0.00
394.68	28.09
394.88	9.36
395.07	49.15
395.26	65.54
395.46	37.45
395.65	53.83
395.84	72.56
396.04	53.83
396.23	0.00
396.42	77.24
396.62	11.70
396.81	142.77
397.00	16.38
397.19	0.00
397.39	9.36
397.58	23.41
397.77	0.00
397.97	0.00
398.16	9.36
398.35	23.41
398.55	70.22
398.74	23.41
398.93	70.22
399.12	28.09
399.32	18.72
399.51	0.00
399.70	60.85
399.90	4.68
400.09	74.90
400.28	56.17
400.47	9.36
400.67	9.36
400.86	84.26
401.05	28.09
401.24	11.70
401.44	28.09
401.63	0.00
401.82	2.34
402.01	72.56
402.21	63.19
402.40	30.43
402.59	0.00
402.78	60.85
402.97	65.54
403.17	39.79
403.36	42.13
403.55	65.54
403.74	0.00
403.93	39.79
404.13	58.51
404.32	46.81
404.51	84.26
404.70	23.41
404.89	2.34
405.09	18.72
405.28	0.00
405.47	18.72
405.66	0.00
405.85	0.00
406.05	21.06
406.24	7.02
406.43	28.09
406.62	25.75
406.81	32.77
407.00	39.79
407.20	0.00
407.39	0.00
407.58	9.36
407.77	32.77
407.96	63.19
408.15	112.35
408.34	7.02
408.54	0.00
408.73	9.36
408.92	4.68
409.11	58.51
409.30	35.11
409.49	60.85
409.68	49.15
409.87	0.00
410.07	0.00
410.26	39.79
410.45	56.17
410.64	63.19
410.83	32.77
411.02	44.47
411.21	4.68
411.40	0.00
411.59	56.17
411.78	0.00
411.98	0.00
412.17	23.41
412.36	35.11
412.55	23.41
412.74	42.13
412.93	53.83
413.12	7.02
413.31	0.00
413.50	32.77
413.69	74.90
413.88	51.49
414.07	0.00
414.26	9.36
414.45	0.00
414.64	67.88
414.83	4.68
415.02	2.34
415.22	28.09
415.41	42.13
415.60	81.92
415.79	9.36
415.98	21.06
416.17	18.72
416.36	0.00
416.55	56.17
416.74	0.00
416.93	0.00
417.12	0.00
417.31	58.51
417.50	39.79
417.69	63.19
417.88	32.77
418.07	25.75
418.26	30.43
418.45	0.00
418.64	0.00
418.83	46.81
419.02	14.04
419.21	23.41
419.39	11.70
419.58	2.34
419.77	51.49
419.96	35.11
420.15	7.02
420.34	0.00
420.53	67.88
420.72	0.00
420.91	56.17
421.10	0.00
421.29	42.13
421.48	44.47
421.67	42.13
421.86	0.00
422.05	42.13
422.24	35.11
422.43	44.47
422.61	98.30
422.80	14.04
422.99	58.51
423.18	0.00
423.37	23.41
423.56	88.94
423.75	35.11
423.94	0.00
424.13	28.09
424.32	0.00
424.50	98.30
424.69	74.90
424.88	67.88
425.07	14.04
425.26	81.92
425.45	0.00
425.64	67.88
425.83	60.85
426.01	58.51
426.20	0.00
426.39	65.54
426.58	0.00
426.77	0.00
426.96	14.04
427.15	51.49
427.33	72.56
427.52	124.05
427.71	0.00
427.90	0.00
428.09	2.34
428.28	67.88
428.46	56.17
428.65	49.15
428.84	32.77
429.03	23.41
429.22	9.36
429.40	58.51
429.59	18.72
429.78	0.00
429.97	117.03
430.16	35.11
430.34	42.13
430.53	30.43
430.72	49.15
430.91	14.04
431.10	11.70
431.28	37.45
431.47	88.94
431.66	77.24
431.85	0.00
432.03	51.49
432.22	4.68
432.41	0.00
432.60	2.34
432.79	91.28
432.97	105.32
433.16	79.58
433.35	81.92
433.54	67.88
433.72	0.00
433.91	21.06
434.10	11.70
434.28	95.96
434.47	0.00
434.66	0.00
434.85	0.00
435.03	0.00
435.22	0.00
435.41	23.41
435.59	0.00
435.78	37.45
435.97	23.41
436.16	0.00
436.34	0.00
436.53	11.70
436.72	0.00
436.90	58.51
437.09	81.92
437.28	60.85
437.46	74.90
437.65	16.38
437.84	0.00
438.02	35.11
438.21	0.00
438.40	77.24
438.58	4.68
438.77	0.00
438.96	9.36
439.14	63.19
439.33	16.38
439.52	30.43
439.70	11.70
439.89	28.09
440.08	0.00
440.26	0.00
440.45	53.83
440.63	21.06
440.82	0.00
441.01	67.88
441.19	23.41
441.38	0.00
441.57	14.04
441.75	110.01
441.94	0.00
442.12	25.75
442.31	21.06
442.50	77.24
442.68	23.41
442.87	0.00
443.05	42.13
443.24	32.77
443.43	44.47
443.61	0.00
443.80	18.72
443.98	65.54
444.17	102.98
444.35	81.92
444.54	39.79
444.73	18.72
444.91	32.77
445.10	2.34
445.28	46.81
445.47	81.92
445.65	14.04
445.84	32.77
446.02	51.49
446.21	0.00
446.39	21.06
446.58	39.79
446.77	9.36
446.95	0.00
447.14	21.06
447.32	7.02
447.51	9.36
447.69	0.00
447.88	28.09
448.06	56.17
448.25	0.00
448.43	67.88
448.62	9.36
448.80	16.38
448.99	46.81
449.17	70.22
449.36	32.77
449.54	32.77
449.73	49.15
449.91	0.00
450.10	60.85
450.28	39.79
450.46	39.79
450.65	39.79
450.83	0.00
451.02	67.88
451.20	0.00
451.39	7.02
451.57	11.70
451.76	0.00
451.94	0.00
452.13	39.79
452.31	88.94
452.49	9.36
452.68	51.49
452.86	9.36
453.05	44.47
453.23	95.96
453.42	39.79
453.60	4.68
453.78	35.11
453.97	44.47
454.15	30.43
454.34	60.85
454.52	25.75
454.70	56.17
454.89	46.81
455.07	56.17
455.26	23.41
455.44	25.75
455.62	32.77
455.81	0.00
455.99	25.75
456.17	0.00
456.36	7.02
456.54	0.00
456.73	28.09
456.91	72.56
457.09	7.02
457.28	65.54
457.46	70.22
457.64	46.81
457.83	0.00
458.01	46.81
458.19	21.06
458.38	14.04
458.56	28.09
458.74	119.37
458.93	42.13
459.11	58.51
459.29	21.06
459.48	0.00
459.66	0.00
459.84	39.79
460.03	65.54
460.21	25.75
460.39	14.04
460.57	51.49
460.76	0.00
460.94	21.06
461.12	7.02
461.31	9.36
461.49	0.00
461.67	39.79
461.85	105.32
462.04	2.34
462.22	70.22
462.40	4.68
462.59	32.77
462.77	9.36
462.95	0.00
463.13	32.77
463.32	51.49
463.50	16.38
463.68	4.68
463.86	4.68
464.05	37.45
464.23	16.38
464.41	25.75
464.59	9.36
464.78	18.72
464.96	25.75
465.14	9.36
465.32	0.00
465.50	39.79
465.69	110.01
465.87	32.77
466.05	25.75
466.23	16.38
466.41	2.34
466.60	58.51
466.78	37.45
466.96	49.15
467.14	7.02
467.32	32.77
467.51	7.02
467.69	30.43
467.87	72.56
468.05	79.58
468.23	51.49
468.41	74.90
468.60	65.54
468.78	0.00
468.96	37.45
469.14	30.43
469.32	39.79
469.50	58.51
469.69	60.85
469.87	2.34
470.05	16.38
470.23	14.04
470.41	18.72
470.59	28.09
470.77	42.13
470.95	30.43
471.14	86.60
471.32	32.77
471.50	7.02
471.68	74.90
471.86	0.00
472.04	11.70
472.22	30.43
472.40	67.88
472.58	0.00
472.77	11.70
472.95	60.85
473.13	114.69
473.31	91.28
473.49	39.79
473.67	56.17
473.85	18.72
474.03	14.04
474.21	35.11
474.39	107.66
474.57	9.36
474.75	39.79
474.93	58.51
475.12	18.72
475.30	77.24
475.48	0.00
475.66	37.45
475.84	35.11
476.02	0.00
476.20	81.92
476.38	32.77
476.56	0.00
476.74	53.83
476.92	14.04
477.10	30.43
477.28	56.17
477.46	18.72
477.64	25.75
477.82	65.54
478.00	0.00
478.18	0.00
478.36	4.68
478.54	77.24
478.72	100.64
478.90	16.38
479.08	2.34
479.26	30.43
479.44	95.96
479.62	44.47
479.80	58.51
479.98	58.51
480.16	23.41
480.34	16.38
480.52	25.75
480.70	0.00
480.88	88.94
481.06	18.72
481.24	42.13
481.41	77.24
481.59	30.43
481.77	70.22
481.95	0.00
482.13	65.54
482.31	0.00
482.49	2.34
482.67	0.00
482.85	37.45
483.03	16.38
483.21	25.75
483.39	46.81
483.57	37.45
483.74	35.11
483.92	0.00
484.10	65.54
484.28	14.04
484.46	9.36
484.64	30.43
484.82	23.41
485.00	70.22
485.18	102.98
485.35	112.35
485.53	21.06
485.71	65.54
485.89	60.85
486.07	65.54
486.25	28.09
486.43	60.85
486.61	30.43
486.78	147.45
486.96	42.13
487.14	25.75
487.32	0.00
487.50	37.45
487.68	42.13
487.85	25.75
488.03	44.47
488.21	44.47
488.39	105.32
488.57	0.00
488.75	51.49
488.92	58.51
489.10	51.49
489.28	100.64
489.46	28.09
489.64	37.45
489.81	98.30
489.99	9.36
490.17	35.11
490.35	4.68
490.53	39.79
490.70	44.47
490.88	46.81
491.06	25.75
491.24	0.00
491.41	86.60
491.59	46.81
491.77	58.51
491.95	67.88
492.13	0.00
492.30	25.75
492.48	70.22
492.66	0.00
492.84	49.15
493.01	98.30
493.19	7.02
493.37	0.00
493.54	56.17
493.72	0.00
493.90	65.54
494.08	0.00
494.25	4.68
494.43	49.15
494.61	0.00
494.79	14.04
494.96	58.51
495.14	81.92
495.32	35.11
495.49	2.34
495.67	70.22
495.85	0.00
496.02	51.49
496.20	95.96
496.38	14.04
496.55	7.02
496.73	51.49
496.91	102.98
497.09	42.13
497.26	23.41
497.44	88.94
497.62	79.58
497.79	0.00
497.97	49.15
498.14	2.34
498.32	72.56
498.50	37.45
498.67	4.68
498.85	81.92
499.03	39.79
499.20	42.13
499.38	91.28
499.56	0.00
499.73	70.22
499.91	51.49
500.08	7.02
500.26	60.85
500.44	42.13
500.61	32.77
500.79	7.02
500.97	0.00
501.14	44.47
501.32	56.17
501.49	72.56
501.67	79.58
501.84	0.00
502.02	107.66
502.20	121.71
502.37	11.70
502.55	107.66
502.72	39.79
502.90	23.41
503.07	14.04
503.25	37.45
503.43	9.36
503.60	79.58
503.78	14.04
503.95	2.34
504.13	72.56
504.30	135.75
504.48	0.00
504.65	25.75
504.83	28.09
505.01	44.47
505.18	42.13
505.36	93.62
505.53	0.00
505.71	65.54
505.88	77.24
506.06	39.79
506.23	102.98
506.41	56.17
506.58	42.13
506.76	39.79
506.93	70.22
507.11	30.43
507.28	0.00
507.46	81.92
507.63	0.00
507.81	65.54
507.98	98.30
508.16	79.58
508.33	0.00
508.50	74.90
508.68	67.88
508.85	18.72
509.03	0.00
509.20	16.38
509.38	30.43
509.55	93.62
509.73	0.00
509.90	91.28
510.08	58.51
510.25	0.00
510.42	70.22
510.60	21.06
510.77	42.13
510.95	18.72
511.12	81.92
511.30	49.15
511.47	46.81
511.64	74.90
511.82	44.47
511.99	74.90
512.17	0.00
512.34	65.54
512.51	79.58
512.69	79.58
512.86	42.13
513.04	37.45
513.21	30.43
513.38	4.68
513.56	102.98
513.73	4.68
513.90	65.54
514.08	0.00
514.25	0.00
514.43	81.92
514.60	7.02
514.77	74.90
514.95	98.30
515.12	16.38
515.29	23.41
515.47	39.79
515.64	23.41
515.81	119.37
515.99	107.66
516.16	58.51
516.33	56.17
516.51	44.47
516.68	49.15
516.85	65.54
517.03	95.96
517.20	53.83
517.37	28.09
517.54	37.45
517.72	0.00
517.89	0.00
518.06	63.19
518.24	42.13
518.41	32.77
518.58	32.77
518.75	65.54
518.93	4.68
519.10	49.15
519.27	46.81
519.45	142.77
519.62	46.81
519.79	56.17
519.96	65.54
520.14	42.13
520.31	46.81
520.48	72.56
520.65	81.92
520.83	81.92
521.00	30.43
521.17	0.00
521.34	0.00
521.52	21.06
521.69	91.28
521.86	32.77
522.03	23.41
522.20	44.47
522.38	79.58
522.55	124.05
522.72	56.17
522.89	65.54
523.07	0.00
523.24	42.13
523.41	44.47
523.58	0.00
523.75	25.75
523.92	21.06
524.10	23.41
524.27	11.70
524.44	42.13
524.61	42.13
524.78	0.00
524.96	77.24
525.13	28.09
525.30	35.11
525.47	9.36
525.64	18.72
525.81	60.85
525.98	63.19
526.16	77.24
526.33	30.43
526.50	0.00
526.67	0.00
526.84	39.79
527.01	84.26
527.18	37.45
527.36	42.13
527.53	86.60
527.70	0.00
527.87	60.85
528.04	79.58
528.21	91.28
528.38	49.15
528.55	37.45
528.72	53.83
528.89	63.19
529.07	72.56
529.24	56.17
529.41	93.62
529.58	16.38
529.75	70.22
529.92	95.96
530.09	79.58
530.26	42.13
530.43	0.00
530.60	49.15
530.77	0.00
530.94	0.00
531.11	128.73
531.28	25.75
531.46	0.00
531.63	58.51
531.80	37.45
531.97	51.49
532.14	0.00
532.31	9.36
532.48	95.96
532.65	105.32
532.82	28.09
532.99	67.88
533.16	32.77
533.33	79.58
533.50	23.41
533.67	23.41
533.84	14.04
534.01	46.81
534.18	46.81
534.35	60.85
534.52	79.58
534.69	18.72
534.86	65.54
535.03	88.94
535.20	93.62
535.37	42.13
535.54	23.41
535.71	28.09
535.88	32.77
536.05	46.81
536.22	95.96
536.38	98.30
536.55	37.45
536.72	42.13
536.89	0.00
537.06	16.38
537.23	0.00
537.40	51.49
537.57	0.00
537.74	2.34
537.91	51.49
538.08	28.09
538.25	35.11
538.42	0.00
538.59	11.70
538.75	0.00
538.92	53.83
539.09	60.85
539.26	32.77
539.43	51.49
539.60	21.06
539.77	93.62
539.94	86.60
540.11	107.66
540.28	79.58
540.44	81.92
540.61	30.43
540.78	60.85
540.95	49.15
541.12	79.58
541.29	0.00
541.46	44.47
541.62	58.51
541.79	63.19
541.96	16.38
542.13	30.43
542.30	4.68
542.47	72.56
542.63	0.00
542.80	32.77
542.97	37.45
543.14	35.11
543.31	74.90
543.48	65.54
543.64	39.79
543.81	42.13
543.98	16.38
544.15	79.58
544.32	72.56
544.48	23.41
544.65	86.60
544.82	79.58
544.99	42.13
545.16	7.02
545.32	77.24
545.49	98.30
545.66	98.30
545.83	0.00
546.00	58.51
546.16	49.15
546.33	9.36
546.50	16.38
546.67	70.22
546.83	49.15
547.00	0.00
547.17	44.47
547.34	0.00
547.50	42.13
547.67	86.60
547.84	51.49
548.00	67.88
548.17	0.00
548.34	0.00
548.51	28.09
548.67	0.00
548.84	84.26
549.01	51.49
549.18	46.81
549.34	23.41
549.51	16.38
549.68	67.88
549.84	70.22
550.01	60.85
550.18	42.13
550.34	11.70
550.51	16.38
550.68	51.49
550.84	49.15
551.01	9.36
551.18	46.81
551.34	0.00
551.51	49.15
551.68	46.81
551.84	49.15
552.01	114.69
552.18	16.38
552.34	0.00
552.51	0.00
552.68	58.51
552.84	77.24
553.01	9.36
553.18	49.15
553.34	9.36
553.51	102.98
553.67	51.49
553.84	72.56
554.01	35.11
554.17	72.56
554.34	32.77
554.51	0.00
554.67	46.81
554.84	37.45
555.00	28.09
555.17	37.45
555.33	44.47
555.50	46.81
555.67	91.28
555.83	11.70
556.00	60.85
556.16	86.60
556.33	0.00
556.50	0.00
556.66	28.09
556.83	0.00
556.99	91.28
557.16	42.13
557.32	46.81
557.49	112.35
557.65	42.13
557.82	35.11
557.98	86.60
558.15	7.02
558.32	126.39
558.48	58.51
558.65	114.69
558.81	74.90
558.98	51.49
559.14	0.00
559.31	42.13
559.47	58.51
559.64	60.85
559.80	16.38
559.97	0.00
560.13	65.54
560.30	77.24
560.46	117.03
560.63	44.47
560.79	114.69
560.96	53.83
561.12	14.04
561.29	46.81
561.45	32.77
561.61	67.88
561.78	44.47
561.94	0.00
562.11	42.13
562.27	44.47
562.44	117.03
562.60	39.79
562.77	0.00
562.93	0.00
563.10	35.11
563.26	16.38
563.42	58.51
563.59	35.11
563.75	23.41
563.92	49.15
564.08	74.90
564.24	124.05
564.41	49.15
564.57	70.22
564.74	81.92
564.90	44.47
565.07	0.00
565.23	53.83
565.39	114.69
565.56	30.43
565.72	72.56
565.88	0.00
566.05	30.43
566.21	25.75
566.38	65.54
566.54	0.00
566.70	72.56
566.87	28.09
567.03	70.22
567.19	65.54
567.36	0.00
567.52	35.11
567.68	11.70
567.85	91.28
568.01	67.88
568.17	35.11
568.34	18.72
568.50	133.41
568.66	32.77
568.83	25.75
568.99	53.83
569.15	105.32
569.32	0.00
569.48	81.92
569.64	65.54
569.81	0.00
569.97	4.68
570.13	0.00
570.30	39.79
570.46	39.79
570.62	9.36
570.78	60.85
570.95	39.79
571.11	39.79
571.27	21.06
571.43	21.06
571.60	44.47
571.76	0.00
571.92	32.77
572.09	119.37
572.25	21.06
572.41	65.54
572.57	4.68
572.74	46.81
572.90	21.06
573.06	39.79
573.22	14.04
573.38	9.36
573.55	39.79
573.71	44.47
573.87	58.51
574.03	30.43
574.20	0.00
574.36	121.71
574.52	51.49
574.68	0.00
574.84	42.13
575.01	51.49
575.17	25.75
575.33	56.17
575.49	14.04
575.65	145.11
575.82	30.43
575.98	91.28
576.14	91.28
576.30	53.83
576.46	60.85
576.62	11.70
576.79	32.77
576.95	21.06
577.11	63.19
577.27	0.00
577.43	0.00
577.59	23.41
577.75	14.04
577.92	4.68
578.08	0.00
578.24	0.00
578.40	0.00
578.56	100.64
578.72	44.47
578.88	21.06
579.04	28.09
579.21	23.41
579.37	28.09
579.53	23.41
579.69	126.39
579.85	53.83
580.01	0.00
580.17	7.02
580.33	2.34
580.49	0.00
580.65	28.09
580.82	56.17
580.98	51.49
581.14	88.94
581.30	14.04
581.46	70.22
581.62	126.39
581.78	81.92
581.94	46.81
582.10	67.88
582.26	77.24
582.42	88.94
582.58	84.26
582.74	86.60
582.90	0.00
583.06	44.47
583.22	16.38
583.38	51.49
583.54	18.72
583.70	53.83
583.86	56.17
584.02	79.58
584.18	81.92
584.34	67.88
584.50	187.24
584.66	1282.61
584.82	2949.08
584.98	4393.19
585.14	3943.80
585.30	2544.16
585.46	1467.52
585.62	1011.11
585.78	496.19
585.94	215.33
586.10	81.92
586.26	88.94
586.42	0.00
586.58	42.13
586.74	86.60
586.90	84.26
587.06	58.51
587.22	58.51
587.38	30.43
587.54	93.62
587.70	259.80
587.86	280.86
588.02	409.59
588.18	344.06
588.34	238.73
588.49	147.45
588.65	119.37
588.81	9.36
588.97	9.36
589.13	0.00
589.29	86.60
589.45	0.00
589.61	72.56
589.77	74.90
589.93	30.43
590.08	91.28
590.24	72.56
590.40	18.72
590.56	44.47
590.72	32.77
590.88	30.43
591.04	32.77
591.20	0.00
591.35	91.28
591.51	46.81
591.67	77.24
591.83	77.24
591.99	135.75
592.15	88.94
592.31	117.03
592.46	91.28
592.62	42.13
592.78	65.54
592.94	46.81
593.10	140.43
593.26	37.45
593.41	23.41
593.57	21.06
593.73	102.98
593.89	198.95
594.05	365.12
594.20	573.43
594.36	601.52
594.52	372.15
594.68	278.52
594.84	142.77
594.99	201.29
595.15	35.11
595.31	60.85
595.47	14.04
595.62	112.35
595.78	46.81
595.94	23.41
596.10	51.49
596.25	56.17
596.41	32.77
596.57	49.15
596.73	0.00
596.88	49.15
597.04	117.03
597.20	166.18
597.36	133.41
597.51	124.05
597.67	77.24
597.83	110.01
597.99	39.79
598.14	0.00
598.30	25.75
598.46	65.54
598.61	110.01
598.77	28.09
598.93	110.01
599.09	0.00
599.24	58.51
599.40	0.00
599.56	0.00
599.71	58.51
599.87	0.00
600.03	77.24
600.18	0.00
600.34	14.04
600.50	39.79
600.65	32.77
600.81	42.13
600.97	0.00
601.12	70.22
601.28	0.00
601.44	46.81
601.59	0.00
601.75	9.36
601.91	23.41
602.06	65.54
602.22	77.24
602.37	67.88
602.53	100.64
602.69	124.05
602.84	187.24
603.00	196.60
603.16	133.41
603.31	86.60
603.47	37.45
603.62	51.49
603.78	0.00
603.94	91.28
604.09	65.54
604.25	63.19
604.40	0.00
604.56	0.00
604.71	77.24
604.87	65.54
605.03	51.49
605.18	63.19
605.34	128.73
605.49	49.15
605.65	84.26
605.80	0.00
605.96	4.68
606.12	7.02
606.27	67.88
606.43	107.66
606.58	7.02
606.74	84.26
606.89	196.60
607.05	332.36
607.20	489.17
607.36	358.10
607.51	264.48
607.67	283.20
607.82	70.22
607.98	107.66
608.13	74.90
608.29	28.09
608.44	0.00
608.60	65.54
608.75	95.96
608.91	74.90
609.06	294.91
609.22	629.60
609.37	826.21
609.53	758.33
609.68	580.45
609.84	327.68
609.99	227.03
610.15	191.92
610.30	79.58
610.46	77.24
610.61	65.54
610.76	56.17
610.92	51.49
611.07	25.75
611.23	35.11
611.38	14.04
611.54	0.00
611.69	25.75
611.84	0.00
612.00	9.36
612.15	11.70
612.31	81.92
612.46	21.06
612.62	42.13
612.77	67.88
612.92	32.77
613.08	126.39
613.23	98.30
613.39	44.47
613.54	95.96
613.69	360.44
613.85	826.21
614.00	1217.08
614.15	1380.92
614.31	978.34
614.46	603.86
614.62	287.89
614.77	259.80
614.92	163.84
615.08	86.60
615.23	110.01
615.38	70.22
615.54	37.45
615.69	79.58
615.84	196.60
616.00	285.55
616.15	330.02
616.30	276.18
616.46	220.01
616.61	198.95
616.76	173.20
616.92	105.32
617.07	4.68
617.22	49.15
617.37	86.60
617.53	42.13
617.68	70.22
617.83	63.19
617.99	25.75
618.14	117.03
618.29	49.15
618.45	9.36
618.60	0.00
618.75	0.00
618.90	37.45
619.06	56.17
619.21	51.49
619.36	0.00
619.51	46.81
619.67	53.83
619.82	100.64
619.97	37.45
620.12	110.01
620.28	77.24
620.43	77.24
620.58	23.41
620.73	65.54
620.89	56.17
621.04	32.77
621.19	131.07
621.34	205.97
621.49	262.14
621.65	222.35
621.80	194.26
621.95	140.43
622.10	81.92
622.25	102.98
622.41	70.22
622.56	84.26
622.71	35.11
622.86	102.98
623.01	93.62
623.16	0.00
623.32	51.49
623.47	32.77
623.62	79.58
623.77	42.13
623.92	35.11
624.07	23.41
624.23	105.32
624.38	14.04
624.53	0.00
624.68	0.00
624.83	30.43
624.98	56.17
625.13	46.81
625.29	65.54
625.44	56.17
625.59	4.68
625.74	37.45
625.89	70.22
626.04	227.03
626.19	311.29
626.34	718.54
626.49	716.20
626.65	533.64
626.80	353.42
626.95	234.05
627.10	177.88
627.25	63.19
627.40	28.09
627.55	128.73
627.70	58.51
627.85	0.00
628.00	25.75
628.15	107.66
628.30	65.54
628.45	67.88
628.60	49.15
628.76	49.15
628.91	30.43
629.06	88.94
629.21	23.41
629.36	4.68
629.51	44.47
629.66	0.00
629.81	72.56
629.96	117.03
630.11	145.11
630.26	184.90
630.41	234.05
630.56	166.18
630.71	56.17
630.86	4.68
631.01	39.79
631.16	84.26
631.31	81.92
631.46	79.58
631.61	7.02
631.76	0.00
631.91	16.38
632.06	49.15
632.21	100.64
632.36	65.54
632.51	14.04
632.66	21.06
632.81	121.71
632.96	266.82
633.10	472.79
633.25	540.66
633.40	440.02
633.55	259.80
633.70	194.26
633.85	163.84
634.00	147.45
634.15	98.30
634.30	79.58
634.45	7.02
634.60	84.26
634.75	7.02
634.90	28.09
635.05	35.11
635.19	0.00
635.34	0.00
635.49	46.81
635.64	28.09
635.79	42.13
635.94	0.00
636.09	21.06
636.24	21.06
636.39	51.49
636.53	44.47
636.68	4.68
636.83	0.00
636.98	58.51
637.13	91.28
637.28	0.00
637.43	51.49
637.57	35.11
637.72	234.05
637.87	587.47
638.02	866.00
638.17	971.32
638.32	650.67
638.46	514.92
638.61	287.89
638.76	163.84
638.91	67.88
639.06	67.88
639.20	81.92
639.35	72.56
639.50	81.92
639.65	346.40
639.80	748.97
639.94	1291.98
640.09	1409.00
640.24	1083.67
640.39	777.06
640.54	503.22
640.68	315.97
640.83	220.01
640.98	154.48
641.13	74.90
641.27	18.72
641.42	65.54
641.57	86.60
641.72	21.06
641.86	0.00
642.01	18.72
642.16	32.77
642.31	44.47
642.45	2.34
642.60	67.88
642.75	42.13
642.90	79.58
643.04	25.75
643.19	51.49
643.34	46.81
643.48	0.00
643.63	18.72
643.78	18.72
643.93	79.58
644.07	0.00
644.22	60.85
644.37	14.04
644.51	77.24
644.66	42.13
644.81	74.90
644.95	25.75
645.10	39.79
645.25	117.03
645.39	58.51
645.54	65.54
645.69	91.28
645.83	0.00
645.98	98.30
646.13	0.00
646.27	7.02
646.42	2.34
646.57	0.00
646.71	9.36
646.86	86.60
647.00	91.28
647.15	18.72
647.30	25.75
647.44	70.22
647.59	42.13
647.74	39.79
647.88	0.00
648.03	30.43
648.17	65.54
648.32	0.00
648.47	35.11
648.61	63.19
648.76	21.06
648.90	67.88
649.05	28.09
649.20	0.00
649.34	60.85
649.49	58.51
649.63	35.11
649.78	100.64
649.92	95.96
650.07	156.82
650.21	334.70
650.36	624.92
650.51	671.73
650.65	683.44
650.80	383.85
650.94	285.55
651.09	243.42
651.23	81.92
651.38	9.36
651.52	30.43
651.67	39.79
651.81	7.02
651.96	119.37
652.10	56.17
652.25	0.00
652.39	37.45
652.54	112.35
652.68	35.11
652.83	133.41
652.97	229.37
653.12	194.26
653.26	222.35
653.41	236.39
653.55	140.43
653.70	154.48
653.84	0.00
653.99	39.79
654.13	93.62
654.27	154.48
654.42	93.62
654.56	46.81
654.71	0.00
654.85	32.77
655.00	0.00
655.14	0.00
655.29	72.56
655.43	63.19
655.57	72.56
655.72	4.68
655.86	28.09
656.01	14.04
656.15	7.02
656.30	9.36
656.44	11.70
656.58	51.49
656.73	70.22
656.87	51.49
657.01	102.98
657.16	60.85
657.30	7.02
657.45	25.75
657.59	81.92
657.73	16.38
657.88	0.00
658.02	21.06
658.16	0.00
658.31	95.96
658.45	0.00
658.60	79.58
658.74	128.73
658.88	88.94
659.03	65.54
659.17	32.77
659.31	65.54
659.46	145.11
659.60	266.82
659.74	372.15
659.89	250.44
660.03	280.86
660.17	138.09
660.32	131.07
660.46	100.64
660.60	39.79
660.74	49.15
660.89	56.17
661.03	51.49
661.17	0.00
661.32	30.43
661.46	0.00
661.60	81.92
661.74	0.00
661.89	39.79
662.03	30.43
662.17	21.06
662.31	70.22
662.46	60.85
662.60	46.81
662.74	37.45
662.88	14.04
663.03	32.77
663.17	0.00
663.31	18.72
663.45	28.09
663.60	4.68
663.74	11.70
663.88	0.00
664.02	77.24
664.17	88.94
664.31	0.00
664.45	0.00
664.59	53.83
664.73	39.79
664.88	0.00
665.02	9.36
665.16	46.81
665.30	0.00
665.44	74.90
665.59	72.56
665.73	0.00
665.87	0.00
666.01	9.36
666.15	18.72
666.29	4.68
666.44	0.00
666.58	93.62
666.72	35.11
666.86	14.04
667.00	49.15
667.14	42.13
667.28	79.58
667.43	287.89
667.57	505.56
667.71	718.54
667.85	540.66
667.99	435.34
668.13	248.10
668.27	248.10
668.41	100.64
668.56	121.71
668.70	56.17
668.84	0.00
668.98	56.17
669.12	88.94
669.26	18.72
669.40	65.54
669.54	0.00
669.68	0.00
669.82	63.19
669.96	49.15
670.10	72.56
670.25	28.09
670.39	18.72
670.53	9.36
670.67	18.72
670.81	0.00
670.95	39.79
671.09	21.06
671.23	135.75
671.37	234.05
671.51	451.72
671.65	390.87
671.79	322.99
671.93	208.31
672.07	201.29
672.21	37.45
672.35	98.30
672.49	23.41
672.63	0.00
672.77	0.00
672.91	14.04
673.05	28.09
673.19	46.81
673.33	56.17
673.47	7.02
673.61	25.75
673.75	14.04
673.89	0.00
674.03	51.49
674.17	30.43
674.31	23.41
674.45	98.30
674.59	63.19
674.73	32.77
674.87	16.38
675.01	0.00
675.15	72.56
675.29	25.75
675.43	86.60
675.56	21.06
675.70	9.36
675.84	37.45
675.98	56.17
676.12	67.88
676.26	58.51
676.40	49.15
676.54	14.04
676.68	0.00
676.82	28.09
676.96	65.54
677.10	18.72
677.23	49.15
677.37	60.85
677.51	25.75
677.65	49.15
677.79	0.00
677.93	0.00
678.07	32.77
678.21	9.36
678.34	32.77
678.48	32.77
678.62	84.26
678.76	0.00
678.90	7.02
679.04	58.51
679.18	35.11
679.31	21.06
679.45	67.88
679.59	67.88
679.73	2.34
679.87	95.96
680.00	23.41
680.14	21.06
680.28	56.17
680.42	58.51
680.56	67.88
680.70	32.77
680.83	18.72
680.97	0.00
681.11	4.68
681.25	72.56
681.39	65.54
681.52	7.02
681.66	39.79
681.80	56.17
681.94	4.68
682.07	23.41
682.21	0.00
682.35	72.56
682.49	21.06
682.62	0.00
682.76	0.00
682.90	60.85
683.04	25.75
683.17	16.38
683.31	72.56
683.45	0.00
683.59	7.02
683.72	32.77
683.86	0.00
684.00	7.02
684.13	14.04
684.27	39.79
684.41	14.04
684.55	51.49
684.68	30.43
684.82	0.00
684.96	4.68
685.09	67.88
685.23	0.00
685.37	46.81
685.50	0.00
685.64	30.43
685.78	11.70
685.91	51.49
686.05	4.68
686.19	28.09
686.32	0.00
686.46	56.17
686.60	0.00
686.73	53.83
686.87	49.15
687.01	121.71
687.14	51.49
687.28	72.56
687.42	14.04
687.55	39.79
687.69	46.81
687.82	63.19
687.96	35.11
688.10	65.54
688.23	2.34
688.37	49.15
688.50	7.02
688.64	0.00
688.78	32.77
688.91	21.06
689.05	53.83
689.18	23.41
689.32	42.13
689.46	98.30
689.59	32.77
689.73	74.90
689.86	32.77
690.00	46.81
690.13	51.49
690.27	121.71
690.41	14.04
690.54	7.02
690.68	16.38
690.81	16.38
690.95	30.43
691.08	46.81
691.22	9.36
691.35	0.00
691.49	16.38
691.62	23.41
691.76	4.68
691.89	46.81
692.03	42.13
692.16	16.38
692.30	30.43
692.43	49.15
692.57	154.48
692.70	311.29
692.84	283.20
692.97	301.93
693.11	231.71
693.24	194.26
693.38	110.01
693.51	135.75
693.65	58.51
693.78	74.90
693.92	77.24
694.05	72.56
694.19	37.45
694.32	23.41
694.45	7.02
694.59	0.00
694.72	4.68
694.86	0.00
694.99	46.81
695.13	93.62
695.26	0.00
695.39	95.96
695.53	23.41
695.66	95.96
695.80	9.36
695.93	30.43
696.07	32.77
696.20	100.64
696.33	53.83
696.47	7.02
696.60	32.77
696.73	18.72
696.87	67.88
697.00	58.51
697.14	2.34
697.27	4.68
697.40	46.81
697.54	7.02
697.67	0.00
697.80	86.60
697.94	35.11
698.07	70.22
698.21	72.56
698.34	56.17
698.47	58.51
698.61	51.49
698.74	28.09
698.87	23.41
699.01	72.56
699.14	30.43
699.27	42.13
699.40	16.38
699.54	42.13
699.67	28.09
699.80	18.72
699.94	0.00
700.07	0.00
700.20	0.00
700.34	35.11
700.47	25.75
700.60	37.45
700.73	25.75
700.87	0.00
701.00	51.49
701.13	25.75
701.26	7.02
701.40	37.45
701.53	0.00
701.66	35.11
701.79	51.49
701.93	56.17
702.06	21.06
702.19	4.68
702.32	0.00
702.46	14.04
702.59	44.47
702.72	46.81
702.85	184.90
702.99	386.19
703.12	575.77
703.25	533.64
703.38	510.24
703.51	313.63
703.65	264.48
703.78	152.13
703.91	133.41
704.04	110.01
704.17	23.41
704.31	49.15
704.44	44.47
704.57	56.17
704.70	79.58
704.83	60.85
704.96	84.26
705.10	84.26
705.23	21.06
>>>>>End Processed Spectral Data<<<<<
