SpectraSuite Data File
++++++++++++++++++++++++++++++++++++
Date: Fri Oct 04 12:13:36 GMT-05:00 2013
User: price-jones
Dark Spectrum Present: No
Reference Spectrum Present: No
Number of Sampled Component Spectra: 1
Spectrometers: USB2+H05261
Integration Time (usec): 10000 (USB2+H05261)
Spectra Averaged: 1 (USB2+H05261)
Boxcar Smoothing: 0 (USB2+H05261)
Correct for Electrical Dark: No (USB2+H05261)
Strobe/Lamp Enabled: No (USB2+H05261)
Correct for Detector Non-linearity: No (USB2+H05261)
Correct for Stray Light: No (USB2+H05261)
Number of Pixels in Processed Spectrum: 2048
>>>>>Begin Processed Spectral Data<<<<<
365.73	7.02
365.92	7.02
366.12	7.02
366.32	0.00
366.52	0.00
366.72	0.00
366.91	0.00
367.11	0.00
367.31	0.00
367.51	0.00
367.70	0.00
367.90	0.00
368.10	0.00
368.30	0.00
368.49	0.00
368.69	0.00
368.89	0.00
369.09	0.00
369.28	0.00
369.48	0.00
369.68	0.00
369.87	0.00
370.07	0.00
370.27	0.00
370.47	0.00
370.66	0.00
370.86	0.00
371.06	0.00
371.25	2.34
371.45	7.02
371.65	0.00
371.84	0.00
372.04	51.49
372.24	28.09
372.44	0.00
372.63	0.00
372.83	0.00
373.03	0.00
373.22	18.72
373.42	16.38
373.62	0.00
373.81	0.00
374.01	7.02
374.21	11.70
374.40	23.41
374.60	72.56
374.79	0.00
374.99	28.09
375.19	46.81
375.38	51.49
375.58	21.06
375.78	2.34
375.97	107.66
376.17	112.35
376.37	65.54
376.56	0.00
376.76	60.85
376.95	21.06
377.15	74.90
377.35	21.06
377.54	37.45
377.74	35.11
377.93	49.15
378.13	4.68
378.33	0.00
378.52	42.13
378.72	11.70
378.91	42.13
379.11	63.19
379.31	56.17
379.50	72.56
379.70	0.00
379.89	35.11
380.09	32.77
380.28	0.00
380.48	16.38
380.68	0.00
380.87	25.75
381.07	0.00
381.26	7.02
381.46	0.00
381.65	0.00
381.85	4.68
382.04	56.17
382.24	49.15
382.43	2.34
382.63	0.00
382.83	7.02
383.02	0.00
383.22	35.11
383.41	11.70
383.61	93.62
383.80	7.02
384.00	30.43
384.19	30.43
384.39	0.00
384.58	0.00
384.78	0.00
384.97	0.00
385.17	0.00
385.36	91.28
385.56	25.75
385.75	0.00
385.95	0.00
386.14	70.22
386.34	44.47
386.53	0.00
386.72	42.13
386.92	0.00
387.11	65.54
387.31	21.06
387.50	72.56
387.70	0.00
387.89	4.68
388.09	0.00
388.28	0.00
388.48	0.00
388.67	42.13
388.86	0.00
389.06	74.90
389.25	58.51
389.45	16.38
389.64	60.85
389.84	44.47
390.03	53.83
390.22	0.00
390.42	14.04
390.61	0.00
390.81	28.09
391.00	0.00
391.19	4.68
391.39	0.00
391.58	0.00
391.78	0.00
391.97	16.38
392.16	49.15
392.36	0.00
392.55	4.68
392.75	44.47
392.94	11.70
393.13	72.56
393.33	58.51
393.52	0.00
393.71	79.58
393.91	0.00
394.10	63.19
394.29	16.38
394.49	16.38
394.68	44.47
394.88	46.81
395.07	65.54
395.26	72.56
395.46	81.92
395.65	37.45
395.84	28.09
396.04	0.00
396.23	58.51
396.42	23.41
396.62	95.96
396.81	0.00
397.00	74.90
397.19	49.15
397.39	25.75
397.58	0.00
397.77	25.75
397.97	117.03
398.16	25.75
398.35	0.00
398.55	9.36
398.74	0.00
398.93	39.79
399.12	72.56
399.32	79.58
399.51	23.41
399.70	23.41
399.90	77.24
400.09	0.00
400.28	58.51
400.47	18.72
400.67	0.00
400.86	14.04
401.05	46.81
401.24	0.00
401.44	16.38
401.63	56.17
401.82	63.19
402.01	0.00
402.21	4.68
402.40	117.03
402.59	35.11
402.78	0.00
402.97	56.17
403.17	46.81
403.36	105.32
403.55	2.34
403.74	88.94
403.93	70.22
404.13	44.47
404.32	37.45
404.51	0.00
404.70	49.15
404.89	0.00
405.09	16.38
405.28	0.00
405.47	74.90
405.66	51.49
405.85	28.09
406.05	23.41
406.24	0.00
406.43	60.85
406.62	0.00
406.81	0.00
407.00	58.51
407.20	0.00
407.39	51.49
407.58	14.04
407.77	42.13
407.96	0.00
408.15	0.00
408.34	23.41
408.54	28.09
408.73	37.45
408.92	21.06
409.11	28.09
409.30	86.60
409.49	35.11
409.68	107.66
409.87	0.00
410.07	7.02
410.26	49.15
410.45	16.38
410.64	0.00
410.83	0.00
411.02	39.79
411.21	0.00
411.40	88.94
411.59	53.83
411.78	44.47
411.98	42.13
412.17	30.43
412.36	53.83
412.55	63.19
412.74	84.26
412.93	4.68
413.12	0.00
413.31	49.15
413.50	0.00
413.69	35.11
413.88	0.00
414.07	0.00
414.26	60.85
414.45	91.28
414.64	0.00
414.83	49.15
415.02	7.02
415.22	77.24
415.41	51.49
415.60	58.51
415.79	21.06
415.98	95.96
416.17	32.77
416.36	23.41
416.55	4.68
416.74	0.00
416.93	0.00
417.12	58.51
417.31	49.15
417.50	11.70
417.69	25.75
417.88	42.13
418.07	65.54
418.26	72.56
418.45	7.02
418.64	11.70
418.83	58.51
419.02	77.24
419.21	28.09
419.39	32.77
419.58	4.68
419.77	28.09
419.96	105.32
420.15	35.11
420.34	86.60
420.53	67.88
420.72	28.09
420.91	84.26
421.10	0.00
421.29	7.02
421.48	0.00
421.67	72.56
421.86	91.28
422.05	9.36
422.24	53.83
422.43	72.56
422.61	67.88
422.80	44.47
422.99	23.41
423.18	44.47
423.37	4.68
423.56	60.85
423.75	0.00
423.94	58.51
424.13	74.90
424.32	119.37
424.50	21.06
424.69	77.24
424.88	53.83
425.07	9.36
425.26	37.45
425.45	42.13
425.64	67.88
425.83	98.30
426.01	44.47
426.20	84.26
426.39	42.13
426.58	77.24
426.77	18.72
426.96	65.54
427.15	51.49
427.33	86.60
427.52	30.43
427.71	42.13
427.90	102.98
428.09	102.98
428.28	39.79
428.46	0.00
428.65	28.09
428.84	72.56
429.03	0.00
429.22	44.47
429.40	42.13
429.59	18.72
429.78	16.38
429.97	30.43
430.16	79.58
430.34	39.79
430.53	58.51
430.72	23.41
430.91	63.19
431.10	60.85
431.28	53.83
431.47	35.11
431.66	63.19
431.85	67.88
432.03	37.45
432.22	14.04
432.41	46.81
432.60	0.00
432.79	56.17
432.97	51.49
433.16	74.90
433.35	21.06
433.54	16.38
433.72	25.75
433.91	0.00
434.10	60.85
434.28	46.81
434.47	110.01
434.66	74.90
434.85	14.04
435.03	110.01
435.22	14.04
435.41	65.54
435.59	88.94
435.78	110.01
435.97	46.81
436.16	0.00
436.34	42.13
436.53	9.36
436.72	72.56
436.90	32.77
437.09	2.34
437.28	72.56
437.46	46.81
437.65	32.77
437.84	65.54
438.02	23.41
438.21	63.19
438.40	51.49
438.58	30.43
438.77	4.68
438.96	51.49
439.14	35.11
439.33	67.88
439.52	110.01
439.70	25.75
439.89	67.88
440.08	58.51
440.26	65.54
440.45	9.36
440.63	0.00
440.82	16.38
441.01	56.17
441.19	81.92
441.38	60.85
441.57	18.72
441.75	77.24
441.94	28.09
442.12	49.15
442.31	63.19
442.50	105.32
442.68	65.54
442.87	70.22
443.05	32.77
443.24	51.49
443.43	25.75
443.61	72.56
443.80	21.06
443.98	30.43
444.17	0.00
444.35	14.04
444.54	44.47
444.73	14.04
444.91	81.92
445.10	35.11
445.28	77.24
445.47	25.75
445.65	18.72
445.84	119.37
446.02	28.09
446.21	9.36
446.39	46.81
446.58	51.49
446.77	100.64
446.95	51.49
447.14	0.00
447.32	74.90
447.51	100.64
447.69	44.47
447.88	42.13
448.06	7.02
448.25	51.49
448.43	91.28
448.62	138.09
448.80	14.04
448.99	51.49
449.17	37.45
449.36	37.45
449.54	49.15
449.73	39.79
449.91	44.47
450.10	102.98
450.28	67.88
450.46	39.79
450.65	81.92
450.83	102.98
451.02	81.92
451.20	81.92
451.39	49.15
451.57	86.60
451.76	81.92
451.94	88.94
452.13	2.34
452.31	2.34
452.49	32.77
452.68	30.43
452.86	16.38
453.05	98.30
453.23	72.56
453.42	28.09
453.60	63.19
453.78	16.38
453.97	63.19
454.15	124.05
454.34	65.54
454.52	44.47
454.70	0.00
454.89	0.00
455.07	37.45
455.26	84.26
455.44	100.64
455.62	63.19
455.81	81.92
455.99	0.00
456.17	56.17
456.36	102.98
456.54	18.72
456.73	77.24
456.91	46.81
457.09	11.70
457.28	135.75
457.46	46.81
457.64	95.96
457.83	63.19
458.01	63.19
458.19	25.75
458.38	67.88
458.56	79.58
458.74	65.54
458.93	67.88
459.11	49.15
459.29	58.51
459.48	37.45
459.66	37.45
459.84	35.11
460.03	79.58
460.21	46.81
460.39	46.81
460.57	77.24
460.76	21.06
460.94	67.88
461.12	65.54
461.31	39.79
461.49	21.06
461.67	0.00
461.85	60.85
462.04	42.13
462.22	63.19
462.40	70.22
462.59	0.00
462.77	18.72
462.95	7.02
463.13	4.68
463.32	0.00
463.50	91.28
463.68	91.28
463.86	4.68
464.05	65.54
464.23	70.22
464.41	121.71
464.59	44.47
464.78	37.45
464.96	2.34
465.14	32.77
465.32	84.26
465.50	0.00
465.69	7.02
465.87	42.13
466.05	42.13
466.23	25.75
466.41	42.13
466.60	98.30
466.78	21.06
466.96	81.92
467.14	63.19
467.32	159.16
467.51	79.58
467.69	102.98
467.87	95.96
468.05	0.00
468.23	72.56
468.41	53.83
468.60	58.51
468.78	25.75
468.96	18.72
469.14	65.54
469.32	70.22
469.50	98.30
469.69	42.13
469.87	51.49
470.05	28.09
470.23	65.54
470.41	84.26
470.59	84.26
470.77	0.00
470.95	42.13
471.14	121.71
471.32	35.11
471.50	56.17
471.68	37.45
471.86	117.03
472.04	63.19
472.22	46.81
472.40	18.72
472.58	63.19
472.77	16.38
472.95	65.54
473.13	81.92
473.31	51.49
473.49	30.43
473.67	84.26
473.85	67.88
474.03	79.58
474.21	42.13
474.39	53.83
474.57	107.66
474.75	21.06
474.93	53.83
475.12	60.85
475.30	86.60
475.48	25.75
475.66	105.32
475.84	88.94
476.02	93.62
476.20	126.39
476.38	119.37
476.56	56.17
476.74	72.56
476.92	0.00
477.10	4.68
477.28	60.85
477.46	0.00
477.64	74.90
477.82	56.17
478.00	39.79
478.18	117.03
478.36	46.81
478.54	128.73
478.72	28.09
478.90	35.11
479.08	72.56
479.26	25.75
479.44	4.68
479.62	91.28
479.80	51.49
479.98	131.07
480.16	0.00
480.34	126.39
480.52	11.70
480.70	21.06
480.88	49.15
481.06	35.11
481.24	23.41
481.41	0.00
481.59	53.83
481.77	100.64
481.95	25.75
482.13	37.45
482.31	65.54
482.49	79.58
482.67	117.03
482.85	44.47
483.03	14.04
483.21	65.54
483.39	51.49
483.57	56.17
483.74	152.13
483.92	117.03
484.10	21.06
484.28	88.94
484.46	65.54
484.64	161.50
484.82	77.24
485.00	91.28
485.18	46.81
485.35	56.17
485.53	49.15
485.71	77.24
485.89	70.22
486.07	58.51
486.25	81.92
486.43	39.79
486.61	79.58
486.78	131.07
486.96	58.51
487.14	124.05
487.32	95.96
487.50	70.22
487.68	9.36
487.85	35.11
488.03	72.56
488.21	18.72
488.39	42.13
488.57	93.62
488.75	72.56
488.92	88.94
489.10	18.72
489.28	112.35
489.46	102.98
489.64	88.94
489.81	51.49
489.99	51.49
490.17	128.73
490.35	28.09
490.53	105.32
490.70	95.96
490.88	67.88
491.06	58.51
491.24	156.82
491.41	21.06
491.59	152.13
491.77	70.22
491.95	74.90
492.13	93.62
492.30	91.28
492.48	25.75
492.66	79.58
492.84	74.90
493.01	58.51
493.19	145.11
493.37	65.54
493.54	51.49
493.72	53.83
493.90	88.94
494.08	107.66
494.25	100.64
494.43	39.79
494.61	60.85
494.79	117.03
494.96	86.60
495.14	42.13
495.32	49.15
495.49	39.79
495.67	98.30
495.85	49.15
496.02	56.17
496.20	121.71
496.38	16.38
496.55	58.51
496.73	133.41
496.91	102.98
497.09	16.38
497.26	135.75
497.44	102.98
497.62	42.13
497.79	53.83
497.97	74.90
498.14	114.69
498.32	100.64
498.50	63.19
498.67	44.47
498.85	51.49
499.03	79.58
499.20	46.81
499.38	51.49
499.56	65.54
499.73	79.58
499.91	79.58
500.08	35.11
500.26	119.37
500.44	119.37
500.61	98.30
500.79	135.75
500.97	72.56
501.14	112.35
501.32	112.35
501.49	107.66
501.67	74.90
501.84	53.83
502.02	86.60
502.20	105.32
502.37	9.36
502.55	154.48
502.72	100.64
502.90	74.90
503.07	63.19
503.25	0.00
503.43	70.22
503.60	72.56
503.78	32.77
503.95	131.07
504.13	105.32
504.30	166.18
504.48	81.92
504.65	18.72
504.83	56.17
505.01	0.00
505.18	56.17
505.36	56.17
505.53	107.66
505.71	39.79
505.88	100.64
506.06	102.98
506.23	53.83
506.41	42.13
506.58	131.07
506.76	67.88
506.93	105.32
507.11	95.96
507.28	81.92
507.46	63.19
507.63	81.92
507.81	79.58
507.98	95.96
508.16	44.47
508.33	0.00
508.50	60.85
508.68	86.60
508.85	37.45
509.03	49.15
509.20	81.92
509.38	154.48
509.55	44.47
509.73	124.05
509.90	72.56
510.08	154.48
510.25	138.09
510.42	84.26
510.60	67.88
510.77	86.60
510.95	124.05
511.12	126.39
511.30	100.64
511.47	74.90
511.64	131.07
511.82	35.11
511.99	105.32
512.17	145.11
512.34	51.49
512.51	53.83
512.69	93.62
512.86	72.56
513.04	28.09
513.21	42.13
513.38	74.90
513.56	9.36
513.73	121.71
513.90	126.39
514.08	88.94
514.25	84.26
514.43	79.58
514.60	138.09
514.77	56.17
514.95	138.09
515.12	105.32
515.29	60.85
515.47	39.79
515.64	121.71
515.81	65.54
515.99	42.13
516.16	84.26
516.33	74.90
516.51	107.66
516.68	124.05
516.85	98.30
517.03	16.38
517.20	102.98
517.37	72.56
517.54	28.09
517.72	81.92
517.89	56.17
518.06	77.24
518.24	18.72
518.41	149.79
518.58	84.26
518.75	138.09
518.93	42.13
519.10	95.96
519.27	102.98
519.45	65.54
519.62	46.81
519.79	110.01
519.96	67.88
520.14	28.09
520.31	102.98
520.48	105.32
520.65	77.24
520.83	110.01
521.00	112.35
521.17	81.92
521.34	88.94
521.52	60.85
521.69	74.90
521.86	72.56
522.03	156.82
522.20	102.98
522.38	86.60
522.55	67.88
522.72	67.88
522.89	88.94
523.07	70.22
523.24	88.94
523.41	112.35
523.58	147.45
523.75	156.82
523.92	110.01
524.10	145.11
524.27	119.37
524.44	44.47
524.61	63.19
524.78	84.26
524.96	114.69
525.13	77.24
525.30	18.72
525.47	63.19
525.64	72.56
525.81	114.69
525.98	51.49
526.16	44.47
526.33	98.30
526.50	44.47
526.67	37.45
526.84	25.75
527.01	63.19
527.18	91.28
527.36	124.05
527.53	131.07
527.70	74.90
527.87	102.98
528.04	65.54
528.21	81.92
528.38	35.11
528.55	32.77
528.72	74.90
528.89	98.30
529.07	100.64
529.24	112.35
529.41	86.60
529.58	39.79
529.75	93.62
529.92	0.00
530.09	46.81
530.26	67.88
530.43	60.85
530.60	67.88
530.77	16.38
530.94	42.13
531.11	74.90
531.28	102.98
531.46	86.60
531.63	140.43
531.80	60.85
531.97	70.22
532.14	42.13
532.31	53.83
532.48	93.62
532.65	39.79
532.82	91.28
532.99	114.69
533.16	70.22
533.33	142.77
533.50	110.01
533.67	46.81
533.84	0.00
534.01	0.00
534.18	72.56
534.35	124.05
534.52	77.24
534.69	86.60
534.86	53.83
535.03	44.47
535.20	72.56
535.37	114.69
535.54	51.49
535.71	21.06
535.88	121.71
536.05	79.58
536.22	114.69
536.38	51.49
536.55	72.56
536.72	46.81
536.89	177.88
537.06	140.43
537.23	79.58
537.40	95.96
537.57	107.66
537.74	60.85
537.91	117.03
538.08	102.98
538.25	124.05
538.42	147.45
538.59	86.60
538.75	60.85
538.92	53.83
539.09	88.94
539.26	67.88
539.43	53.83
539.60	126.39
539.77	124.05
539.94	100.64
540.11	32.77
540.28	35.11
540.44	74.90
540.61	51.49
540.78	35.11
540.95	63.19
541.12	128.73
541.29	138.09
541.46	124.05
541.62	166.18
541.79	77.24
541.96	37.45
542.13	110.01
542.30	79.58
542.47	119.37
542.63	65.54
542.80	124.05
542.97	105.32
543.14	133.41
543.31	81.92
543.48	133.41
543.64	91.28
543.81	114.69
543.98	102.98
544.15	93.62
544.32	44.47
544.48	0.00
544.65	84.26
544.82	60.85
544.99	53.83
545.16	4.68
545.32	77.24
545.49	100.64
545.66	91.28
545.83	11.70
546.00	100.64
546.16	63.19
546.33	11.70
546.50	49.15
546.67	107.66
546.83	88.94
547.00	84.26
547.17	133.41
547.34	32.77
547.50	35.11
547.67	53.83
547.84	53.83
548.00	63.19
548.17	112.35
548.34	112.35
548.51	65.54
548.67	49.15
548.84	37.45
549.01	74.90
549.18	30.43
549.34	128.73
549.51	51.49
549.68	60.85
549.84	131.07
550.01	112.35
550.18	131.07
550.34	46.81
550.51	44.47
550.68	98.30
550.84	170.86
551.01	107.66
551.18	77.24
551.34	79.58
551.51	42.13
551.68	100.64
551.84	42.13
552.01	119.37
552.18	145.11
552.34	156.82
552.51	46.81
552.68	117.03
552.84	58.51
553.01	86.60
553.18	58.51
553.34	105.32
553.51	51.49
553.67	56.17
553.84	79.58
554.01	58.51
554.17	86.60
554.34	112.35
554.51	44.47
554.67	84.26
554.84	145.11
555.00	84.26
555.17	110.01
555.33	70.22
555.50	32.77
555.67	46.81
555.83	67.88
556.00	91.28
556.16	91.28
556.33	119.37
556.50	37.45
556.66	65.54
556.83	98.30
556.99	84.26
557.16	112.35
557.32	77.24
557.49	18.72
557.65	77.24
557.82	110.01
557.98	58.51
558.15	166.18
558.32	84.26
558.48	37.45
558.65	110.01
558.81	74.90
558.98	86.60
559.14	21.06
559.31	81.92
559.47	107.66
559.64	65.54
559.80	117.03
559.97	159.16
560.13	135.75
560.30	18.72
560.46	98.30
560.63	93.62
560.79	46.81
560.96	70.22
561.12	93.62
561.29	93.62
561.45	142.77
561.61	9.36
561.78	117.03
561.94	86.60
562.11	53.83
562.27	72.56
562.44	84.26
562.60	84.26
562.77	102.98
562.93	140.43
563.10	74.90
563.26	117.03
563.42	114.69
563.59	91.28
563.75	32.77
563.92	56.17
564.08	65.54
564.24	81.92
564.41	72.56
564.57	81.92
564.74	81.92
564.90	49.15
565.07	133.41
565.23	58.51
565.39	107.66
565.56	65.54
565.72	60.85
565.88	74.90
566.05	53.83
566.21	30.43
566.38	86.60
566.54	74.90
566.70	58.51
566.87	98.30
567.03	79.58
567.19	51.49
567.36	42.13
567.52	28.09
567.68	39.79
567.85	86.60
568.01	81.92
568.17	117.03
568.34	147.45
568.50	74.90
568.66	60.85
568.83	63.19
568.99	140.43
569.15	88.94
569.32	67.88
569.48	44.47
569.64	46.81
569.81	51.49
569.97	46.81
570.13	0.00
570.30	77.24
570.46	51.49
570.62	84.26
570.78	95.96
570.95	60.85
571.11	128.73
571.27	81.92
571.43	51.49
571.60	70.22
571.76	135.75
571.92	114.69
572.09	51.49
572.25	9.36
572.41	124.05
572.57	65.54
572.74	128.73
572.90	72.56
573.06	46.81
573.22	65.54
573.38	35.11
573.55	0.00
573.71	46.81
573.87	91.28
574.03	16.38
574.20	102.98
574.36	110.01
574.52	18.72
574.68	91.28
574.84	32.77
575.01	77.24
575.17	77.24
575.33	124.05
575.49	18.72
575.65	121.71
575.82	131.07
575.98	42.13
576.14	53.83
576.30	112.35
576.46	53.83
576.62	84.26
576.79	65.54
576.95	126.39
577.11	44.47
577.27	53.83
577.43	72.56
577.59	88.94
577.75	23.41
577.92	105.32
578.08	84.26
578.24	86.60
578.40	0.00
578.56	44.47
578.72	121.71
578.88	79.58
579.04	16.38
579.21	74.90
579.37	88.94
579.53	63.19
579.69	79.58
579.85	30.43
580.01	138.09
580.17	0.00
580.33	14.04
580.49	39.79
580.65	117.03
580.82	114.69
580.98	67.88
581.14	77.24
581.30	79.58
581.46	51.49
581.62	84.26
581.78	56.17
581.94	25.75
582.10	110.01
582.26	37.45
582.42	42.13
582.58	138.09
582.74	44.47
582.90	81.92
583.06	77.24
583.22	0.00
583.38	124.05
583.54	72.56
583.70	65.54
583.86	37.45
584.02	60.85
584.18	74.90
584.34	53.83
584.50	0.00
584.66	67.88
584.82	98.30
584.98	53.83
585.14	70.22
585.30	88.94
585.46	88.94
585.62	65.54
585.78	28.09
585.94	79.58
586.10	107.66
586.26	86.60
586.42	88.94
586.58	25.75
586.74	98.30
586.90	121.71
587.06	63.19
587.22	2.34
587.38	117.03
587.54	46.81
587.70	32.77
587.86	25.75
588.02	95.96
588.18	98.30
588.34	42.13
588.49	74.90
588.65	35.11
588.81	0.00
588.97	81.92
589.13	37.45
589.29	98.30
589.45	0.00
589.61	44.47
589.77	39.79
589.93	0.00
590.08	63.19
590.24	91.28
590.40	119.37
590.56	93.62
590.72	93.62
590.88	105.32
591.04	70.22
591.20	46.81
591.35	51.49
591.51	16.38
591.67	21.06
591.83	88.94
591.99	95.96
592.15	70.22
592.31	81.92
592.46	93.62
592.62	0.00
592.78	46.81
592.94	88.94
593.10	25.75
593.26	56.17
593.41	32.77
593.57	51.49
593.73	11.70
593.89	49.15
594.05	117.03
594.20	98.30
594.36	74.90
594.52	25.75
594.68	28.09
594.84	0.00
594.99	107.66
595.15	53.83
595.31	39.79
595.47	65.54
595.62	93.62
595.78	32.77
595.94	88.94
596.10	63.19
596.25	98.30
596.41	140.43
596.57	0.00
596.73	110.01
596.88	49.15
597.04	56.17
597.20	65.54
597.36	39.79
597.51	91.28
597.67	46.81
597.83	0.00
597.99	105.32
598.14	107.66
598.30	135.75
598.46	11.70
598.61	25.75
598.77	39.79
598.93	79.58
599.09	81.92
599.24	42.13
599.40	49.15
599.56	138.09
599.71	147.45
599.87	0.00
600.03	107.66
600.18	149.79
600.34	91.28
600.50	79.58
600.65	53.83
600.81	128.73
600.97	30.43
601.12	95.96
601.28	131.07
601.44	91.28
601.59	70.22
601.75	28.09
601.91	77.24
602.06	56.17
602.22	23.41
602.37	77.24
602.53	107.66
602.69	79.58
602.84	98.30
603.00	37.45
603.16	86.60
603.31	39.79
603.47	74.90
603.62	0.00
603.78	35.11
603.94	42.13
604.09	35.11
604.25	86.60
604.40	9.36
604.56	42.13
604.71	70.22
604.87	91.28
605.03	161.50
605.18	110.01
605.34	100.64
605.49	84.26
605.65	42.13
605.80	110.01
605.96	67.88
606.12	128.73
606.27	35.11
606.43	14.04
606.58	39.79
606.74	51.49
606.89	88.94
607.05	79.58
607.20	107.66
607.36	63.19
607.51	100.64
607.67	63.19
607.82	112.35
607.98	58.51
608.13	60.85
608.29	51.49
608.44	70.22
608.60	49.15
608.75	67.88
608.91	9.36
609.06	133.41
609.22	74.90
609.37	74.90
609.53	86.60
609.68	100.64
609.84	79.58
609.99	65.54
610.15	25.75
610.30	44.47
610.46	32.77
610.61	88.94
610.76	84.26
610.92	114.69
611.07	35.11
611.23	42.13
611.38	131.07
611.54	112.35
611.69	77.24
611.84	56.17
612.00	74.90
612.15	117.03
612.31	81.92
612.46	91.28
612.62	7.02
612.77	117.03
612.92	95.96
613.08	95.96
613.23	77.24
613.39	63.19
613.54	114.69
613.69	63.19
613.85	39.79
614.00	79.58
614.15	77.24
614.31	114.69
614.46	58.51
614.62	65.54
614.77	39.79
614.92	53.83
615.08	9.36
615.23	60.85
615.38	88.94
615.54	42.13
615.69	56.17
615.84	32.77
616.00	25.75
616.15	58.51
616.30	65.54
616.46	53.83
616.61	102.98
616.76	63.19
616.92	77.24
617.07	58.51
617.22	67.88
617.37	58.51
617.53	91.28
617.68	7.02
617.83	112.35
617.99	86.60
618.14	46.81
618.29	117.03
618.45	11.70
618.60	72.56
618.75	53.83
618.90	39.79
619.06	124.05
619.21	102.98
619.36	81.92
619.51	86.60
619.67	84.26
619.82	65.54
619.97	79.58
620.12	114.69
620.28	102.98
620.43	42.13
620.58	58.51
620.73	88.94
620.89	110.01
621.04	81.92
621.19	70.22
621.34	9.36
621.49	44.47
621.65	67.88
621.80	67.88
621.95	86.60
622.10	65.54
622.25	100.64
622.41	49.15
622.56	11.70
622.71	81.92
622.86	11.70
623.01	100.64
623.16	16.38
623.32	74.90
623.47	14.04
623.62	107.66
623.77	56.17
623.92	35.11
624.07	25.75
624.23	4.68
624.38	65.54
624.53	4.68
624.68	42.13
624.83	23.41
624.98	51.49
625.13	110.01
625.29	37.45
625.44	56.17
625.59	74.90
625.74	56.17
625.89	70.22
626.04	28.09
626.19	53.83
626.34	105.32
626.49	74.90
626.65	56.17
626.80	86.60
626.95	49.15
627.10	16.38
627.25	0.00
627.40	84.26
627.55	79.58
627.70	70.22
627.85	72.56
628.00	86.60
628.15	98.30
628.30	88.94
628.45	46.81
628.60	105.32
628.76	25.75
628.91	28.09
629.06	119.37
629.21	9.36
629.36	100.64
629.51	0.00
629.66	91.28
629.81	67.88
629.96	49.15
630.11	86.60
630.26	39.79
630.41	142.77
630.56	51.49
630.71	44.47
630.86	56.17
631.01	110.01
631.16	142.77
631.31	100.64
631.46	32.77
631.61	14.04
631.76	79.58
631.91	79.58
632.06	70.22
632.21	0.00
632.36	98.30
632.51	110.01
632.66	9.36
632.81	46.81
632.96	63.19
633.10	58.51
633.25	7.02
633.40	79.58
633.55	100.64
633.70	49.15
633.85	70.22
634.00	18.72
634.15	53.83
634.30	44.47
634.45	21.06
634.60	4.68
634.75	25.75
634.90	117.03
635.05	86.60
635.19	53.83
635.34	0.00
635.49	25.75
635.64	11.70
635.79	30.43
635.94	95.96
636.09	124.05
636.24	0.00
636.39	67.88
636.53	91.28
636.68	65.54
636.83	67.88
636.98	74.90
637.13	51.49
637.28	102.98
637.43	53.83
637.57	77.24
637.72	79.58
637.87	53.83
638.02	35.11
638.17	138.09
638.32	49.15
638.46	128.73
638.61	86.60
638.76	79.58
638.91	65.54
639.06	32.77
639.20	114.69
639.35	21.06
639.50	46.81
639.65	63.19
639.80	21.06
639.94	79.58
640.09	102.98
640.24	51.49
640.39	0.00
640.54	84.26
640.68	72.56
640.83	65.54
640.98	46.81
641.13	51.49
641.27	51.49
641.42	72.56
641.57	131.07
641.72	119.37
641.86	49.15
642.01	42.13
642.16	46.81
642.31	21.06
642.45	149.79
642.60	56.17
642.75	77.24
642.90	35.11
643.04	56.17
643.19	112.35
643.34	30.43
643.48	95.96
643.63	100.64
643.78	72.56
643.93	0.00
644.07	81.92
644.22	30.43
644.37	77.24
644.51	7.02
644.66	102.98
644.81	88.94
644.95	86.60
645.10	56.17
645.25	100.64
645.39	46.81
645.54	77.24
645.69	114.69
645.83	0.00
645.98	56.17
646.13	70.22
646.27	23.41
646.42	14.04
646.57	0.00
646.71	88.94
646.86	105.32
647.00	44.47
647.15	4.68
647.30	72.56
647.44	88.94
647.59	56.17
647.74	46.81
647.88	23.41
648.03	60.85
648.17	0.00
648.32	42.13
648.47	74.90
648.61	95.96
648.76	67.88
648.90	53.83
649.05	44.47
649.20	81.92
649.34	63.19
649.49	35.11
649.63	91.28
649.78	60.85
649.92	93.62
650.07	133.41
650.21	98.30
650.36	128.73
650.51	32.77
650.65	11.70
650.80	58.51
650.94	37.45
651.09	81.92
651.23	77.24
651.38	140.43
651.52	53.83
651.67	53.83
651.81	28.09
651.96	42.13
652.10	84.26
652.25	42.13
652.39	4.68
652.54	88.94
652.68	65.54
652.83	88.94
652.97	67.88
653.12	93.62
653.26	0.00
653.41	46.81
653.55	37.45
653.70	51.49
653.84	0.00
653.99	88.94
654.13	93.62
654.27	42.13
654.42	60.85
654.56	39.79
654.71	39.79
654.85	93.62
655.00	25.75
655.14	110.01
655.29	67.88
655.43	56.17
655.57	46.81
655.72	18.72
655.86	11.70
656.01	58.51
656.15	65.54
656.30	95.96
656.44	23.41
656.58	131.07
656.73	35.11
656.87	98.30
657.01	79.58
657.16	95.96
657.30	0.00
657.45	107.66
657.59	72.56
657.73	58.51
657.88	42.13
658.02	0.00
658.16	56.17
658.31	44.47
658.45	86.60
658.60	102.98
658.74	0.00
658.88	58.51
659.03	7.02
659.17	51.49
659.31	53.83
659.46	72.56
659.60	79.58
659.74	0.00
659.89	67.88
660.03	100.64
660.17	51.49
660.32	35.11
660.46	58.51
660.60	42.13
660.74	0.00
660.89	93.62
661.03	49.15
661.17	21.06
661.32	39.79
661.46	67.88
661.60	18.72
661.74	11.70
661.89	74.90
662.03	105.32
662.17	49.15
662.31	0.00
662.46	14.04
662.60	67.88
662.74	53.83
662.88	37.45
663.03	72.56
663.17	0.00
663.31	63.19
663.45	102.98
663.60	91.28
663.74	21.06
663.88	42.13
664.02	51.49
664.17	60.85
664.31	35.11
664.45	93.62
664.59	112.35
664.73	46.81
664.88	81.92
665.02	39.79
665.16	46.81
665.30	63.19
665.44	79.58
665.59	135.75
665.73	14.04
665.87	56.17
666.01	39.79
666.15	102.98
666.29	37.45
666.44	0.00
666.58	67.88
666.72	9.36
666.86	35.11
667.00	72.56
667.14	14.04
667.28	4.68
667.43	79.58
667.57	77.24
667.71	32.77
667.85	49.15
667.99	32.77
668.13	49.15
668.27	32.77
668.41	70.22
668.56	0.00
668.70	42.13
668.84	16.38
668.98	58.51
669.12	39.79
669.26	35.11
669.40	0.00
669.54	28.09
669.68	35.11
669.82	56.17
669.96	46.81
670.10	7.02
670.25	60.85
670.39	86.60
670.53	9.36
670.67	35.11
670.81	110.01
670.95	0.00
671.09	79.58
671.23	107.66
671.37	14.04
671.51	42.13
671.65	58.51
671.79	30.43
671.93	0.00
672.07	37.45
672.21	37.45
672.35	42.13
672.49	18.72
672.63	72.56
672.77	86.60
672.91	49.15
673.05	58.51
673.19	42.13
673.33	93.62
673.47	44.47
673.61	28.09
673.75	79.58
673.89	0.00
674.03	56.17
674.17	84.26
674.31	35.11
674.45	0.00
674.59	60.85
674.73	23.41
674.87	53.83
675.01	25.75
675.15	37.45
675.29	79.58
675.43	44.47
675.56	23.41
675.70	65.54
675.84	0.00
675.98	65.54
676.12	74.90
676.26	44.47
676.40	81.92
676.54	37.45
676.68	93.62
676.82	28.09
676.96	30.43
677.10	0.00
677.23	0.00
677.37	0.00
677.51	16.38
677.65	124.05
677.79	49.15
677.93	0.00
678.07	32.77
678.21	51.49
678.34	35.11
678.48	88.94
678.62	16.38
678.76	30.43
678.90	23.41
679.04	95.96
679.18	35.11
679.31	53.83
679.45	23.41
679.59	9.36
679.73	32.77
679.87	63.19
680.00	102.98
680.14	37.45
680.28	63.19
680.42	56.17
680.56	63.19
680.70	11.70
680.83	98.30
680.97	0.00
681.11	126.39
681.25	53.83
681.39	25.75
681.52	67.88
681.66	0.00
681.80	42.13
681.94	42.13
682.07	67.88
682.21	0.00
682.35	32.77
682.49	21.06
682.62	74.90
682.76	93.62
682.90	110.01
683.04	65.54
683.17	23.41
683.31	2.34
683.45	74.90
683.59	7.02
683.72	18.72
683.86	63.19
684.00	0.00
684.13	0.00
684.27	4.68
684.41	49.15
684.55	93.62
684.68	67.88
684.82	46.81
684.96	46.81
685.09	16.38
685.23	0.00
685.37	79.58
685.50	11.70
685.64	72.56
685.78	53.83
685.91	44.47
686.05	16.38
686.19	46.81
686.32	37.45
686.46	117.03
686.60	30.43
686.73	84.26
686.87	30.43
687.01	16.38
687.14	0.00
687.28	0.00
687.42	0.00
687.55	42.13
687.69	65.54
687.82	51.49
687.96	74.90
688.10	0.00
688.23	18.72
688.37	70.22
688.50	58.51
688.64	119.37
688.78	2.34
688.91	23.41
689.05	140.43
689.18	0.00
689.32	51.49
689.46	72.56
689.59	23.41
689.73	37.45
689.86	28.09
690.00	0.00
690.13	0.00
690.27	37.45
690.41	25.75
690.54	16.38
690.68	46.81
690.81	72.56
690.95	0.00
691.08	25.75
691.22	84.26
691.35	60.85
691.49	35.11
691.62	37.45
691.76	32.77
691.89	0.00
692.03	14.04
692.16	18.72
692.30	42.13
692.43	49.15
692.57	91.28
692.70	58.51
692.84	32.77
692.97	79.58
693.11	0.00
693.24	16.38
693.38	56.17
693.51	74.90
693.65	37.45
693.78	0.00
693.92	25.75
694.05	44.47
694.19	30.43
694.32	0.00
694.45	30.43
694.59	77.24
694.72	0.00
694.86	84.26
694.99	51.49
695.13	0.00
695.26	2.34
695.39	9.36
695.53	91.28
695.66	14.04
695.80	39.79
695.93	23.41
696.07	25.75
696.20	37.45
696.33	56.17
696.47	53.83
696.60	4.68
696.73	32.77
696.87	72.56
697.00	30.43
697.14	0.00
697.27	37.45
697.40	56.17
697.54	39.79
697.67	112.35
697.80	60.85
697.94	65.54
698.07	35.11
698.21	60.85
698.34	88.94
698.47	67.88
698.61	88.94
698.74	81.92
698.87	60.85
699.01	86.60
699.14	0.00
699.27	39.79
699.40	39.79
699.54	37.45
699.67	56.17
699.80	42.13
699.94	42.13
700.07	39.79
700.20	37.45
700.34	21.06
700.47	70.22
700.60	0.00
700.73	60.85
700.87	74.90
701.00	49.15
701.13	23.41
701.26	0.00
701.40	9.36
701.53	0.00
701.66	30.43
701.79	46.81
701.93	0.00
702.06	46.81
702.19	39.79
702.32	133.41
702.46	74.90
702.59	53.83
702.72	51.49
702.85	128.73
702.99	28.09
703.12	131.07
703.25	0.00
703.38	53.83
703.51	35.11
703.65	65.54
703.78	18.72
703.91	25.75
704.04	86.60
704.17	30.43
704.31	11.70
704.44	74.90
704.57	18.72
704.70	23.41
704.83	23.41
704.96	18.72
705.10	25.75
705.23	39.79
>>>>>End Processed Spectral Data<<<<<
