SpectraSuite Data File
++++++++++++++++++++++++++++++++++++
Date: Fri Oct 04 12:13:43 GMT-05:00 2013
User: price-jones
Dark Spectrum Present: No
Reference Spectrum Present: No
Number of Sampled Component Spectra: 1
Spectrometers: USB2+H05261
Integration Time (usec): 10000 (USB2+H05261)
Spectra Averaged: 1 (USB2+H05261)
Boxcar Smoothing: 0 (USB2+H05261)
Correct for Electrical Dark: No (USB2+H05261)
Strobe/Lamp Enabled: No (USB2+H05261)
Correct for Detector Non-linearity: No (USB2+H05261)
Correct for Stray Light: No (USB2+H05261)
Number of Pixels in Processed Spectrum: 2048
>>>>>Begin Processed Spectral Data<<<<<
365.73	0.00
365.92	0.00
366.12	0.00
366.32	0.00
366.52	0.00
366.72	0.00
366.91	0.00
367.11	0.00
367.31	0.00
367.51	0.00
367.70	0.00
367.90	0.00
368.10	0.00
368.30	0.00
368.49	0.00
368.69	0.00
368.89	0.00
369.09	0.00
369.28	0.00
369.48	0.00
369.68	0.00
369.87	0.00
370.07	0.00
370.27	0.00
370.47	0.00
370.66	0.00
370.86	0.00
371.06	2.34
371.25	0.00
371.45	0.00
371.65	0.00
371.84	4.68
372.04	0.00
372.24	16.38
372.44	0.00
372.63	0.00
372.83	0.00
373.03	23.41
373.22	2.34
373.42	9.36
373.62	37.45
373.81	58.51
374.01	2.34
374.21	51.49
374.40	21.06
374.60	72.56
374.79	88.94
374.99	0.00
375.19	7.02
375.38	42.13
375.58	53.83
375.78	21.06
375.97	0.00
376.17	39.79
376.37	0.00
376.56	9.36
376.76	18.72
376.95	0.00
377.15	23.41
377.35	105.32
377.54	25.75
377.74	0.00
377.93	32.77
378.13	28.09
378.33	51.49
378.52	0.00
378.72	77.24
378.91	21.06
379.11	9.36
379.31	65.54
379.50	56.17
379.70	46.81
379.89	30.43
380.09	4.68
380.28	72.56
380.48	72.56
380.68	2.34
380.87	44.47
381.07	0.00
381.26	44.47
381.46	9.36
381.65	0.00
381.85	7.02
382.04	21.06
382.24	0.00
382.43	21.06
382.63	2.34
382.83	30.43
383.02	74.90
383.22	0.00
383.41	37.45
383.61	72.56
383.80	35.11
384.00	56.17
384.19	28.09
384.39	74.90
384.58	56.17
384.78	0.00
384.97	58.51
385.17	28.09
385.36	23.41
385.56	4.68
385.75	7.02
385.95	28.09
386.14	23.41
386.34	9.36
386.53	0.00
386.72	23.41
386.92	32.77
387.11	37.45
387.31	7.02
387.50	14.04
387.70	0.00
387.89	32.77
388.09	2.34
388.28	0.00
388.48	53.83
388.67	25.75
388.86	0.00
389.06	0.00
389.25	32.77
389.45	0.00
389.64	70.22
389.84	39.79
390.03	28.09
390.22	0.00
390.42	18.72
390.61	28.09
390.81	60.85
391.00	0.00
391.19	30.43
391.39	77.24
391.58	7.02
391.78	44.47
391.97	28.09
392.16	0.00
392.36	0.00
392.55	0.00
392.75	0.00
392.94	0.00
393.13	11.70
393.33	32.77
393.52	63.19
393.71	53.83
393.91	81.92
394.10	56.17
394.29	28.09
394.49	30.43
394.68	37.45
394.88	37.45
395.07	25.75
395.26	30.43
395.46	51.49
395.65	0.00
395.84	81.92
396.04	49.15
396.23	44.47
396.42	0.00
396.62	44.47
396.81	63.19
397.00	49.15
397.19	42.13
397.39	65.54
397.58	14.04
397.77	67.88
397.97	0.00
398.16	4.68
398.35	9.36
398.55	70.22
398.74	14.04
398.93	32.77
399.12	30.43
399.32	18.72
399.51	67.88
399.70	9.36
399.90	2.34
400.09	81.92
400.28	32.77
400.47	28.09
400.67	98.30
400.86	86.60
401.05	46.81
401.24	86.60
401.44	28.09
401.63	131.07
401.82	4.68
402.01	58.51
402.21	0.00
402.40	39.79
402.59	56.17
402.78	0.00
402.97	0.00
403.17	21.06
403.36	28.09
403.55	0.00
403.74	42.13
403.93	86.60
404.13	2.34
404.32	102.98
404.51	46.81
404.70	35.11
404.89	0.00
405.09	105.32
405.28	9.36
405.47	23.41
405.66	70.22
405.85	16.38
406.05	0.00
406.24	14.04
406.43	72.56
406.62	37.45
406.81	9.36
407.00	0.00
407.20	84.26
407.39	46.81
407.58	49.15
407.77	25.75
407.96	18.72
408.15	37.45
408.34	51.49
408.54	79.58
408.73	77.24
408.92	72.56
409.11	16.38
409.30	56.17
409.49	72.56
409.68	14.04
409.87	25.75
410.07	0.00
410.26	63.19
410.45	95.96
410.64	30.43
410.83	23.41
411.02	14.04
411.21	65.54
411.40	98.30
411.59	79.58
411.78	35.11
411.98	65.54
412.17	81.92
412.36	11.70
412.55	25.75
412.74	42.13
412.93	42.13
413.12	0.00
413.31	46.81
413.50	74.90
413.69	105.32
413.88	0.00
414.07	42.13
414.26	21.06
414.45	16.38
414.64	58.51
414.83	0.00
415.02	49.15
415.22	0.00
415.41	30.43
415.60	72.56
415.79	100.64
415.98	117.03
416.17	14.04
416.36	2.34
416.55	44.47
416.74	0.00
416.93	49.15
417.12	77.24
417.31	42.13
417.50	7.02
417.69	79.58
417.88	58.51
418.07	0.00
418.26	60.85
418.45	42.13
418.64	53.83
418.83	18.72
419.02	0.00
419.21	30.43
419.39	117.03
419.58	18.72
419.77	56.17
419.96	67.88
420.15	65.54
420.34	56.17
420.53	23.41
420.72	67.88
420.91	53.83
421.10	16.38
421.29	32.77
421.48	14.04
421.67	70.22
421.86	30.43
422.05	49.15
422.24	0.00
422.43	60.85
422.61	72.56
422.80	60.85
422.99	16.38
423.18	67.88
423.37	7.02
423.56	0.00
423.75	32.77
423.94	107.66
424.13	74.90
424.32	16.38
424.50	44.47
424.69	112.35
424.88	81.92
425.07	70.22
425.26	63.19
425.45	67.88
425.64	11.70
425.83	28.09
426.01	79.58
426.20	100.64
426.39	95.96
426.58	105.32
426.77	79.58
426.96	35.11
427.15	65.54
427.33	79.58
427.52	98.30
427.71	37.45
427.90	25.75
428.09	124.05
428.28	16.38
428.46	102.98
428.65	102.98
428.84	35.11
429.03	49.15
429.22	98.30
429.40	67.88
429.59	74.90
429.78	7.02
429.97	46.81
430.16	0.00
430.34	0.00
430.53	65.54
430.72	7.02
430.91	56.17
431.10	11.70
431.28	18.72
431.47	93.62
431.66	4.68
431.85	39.79
432.03	60.85
432.22	77.24
432.41	119.37
432.60	124.05
432.79	110.01
432.97	102.98
433.16	49.15
433.35	58.51
433.54	11.70
433.72	81.92
433.91	25.75
434.10	84.26
434.28	56.17
434.47	28.09
434.66	105.32
434.85	18.72
435.03	32.77
435.22	86.60
435.41	72.56
435.59	9.36
435.78	86.60
435.97	117.03
436.16	67.88
436.34	2.34
436.53	131.07
436.72	0.00
436.90	105.32
437.09	81.92
437.28	0.00
437.46	56.17
437.65	95.96
437.84	14.04
438.02	0.00
438.21	53.83
438.40	88.94
438.58	39.79
438.77	72.56
438.96	42.13
439.14	93.62
439.33	49.15
439.52	42.13
439.70	7.02
439.89	70.22
440.08	30.43
440.26	30.43
440.45	11.70
440.63	102.98
440.82	0.00
441.01	49.15
441.19	49.15
441.38	74.90
441.57	35.11
441.75	72.56
441.94	65.54
442.12	140.43
442.31	119.37
442.50	74.90
442.68	51.49
442.87	77.24
443.05	0.00
443.24	72.56
443.43	166.18
443.61	9.36
443.80	46.81
443.98	63.19
444.17	23.41
444.35	2.34
444.54	65.54
444.73	51.49
444.91	98.30
445.10	39.79
445.28	0.00
445.47	0.00
445.65	98.30
445.84	65.54
446.02	91.28
446.21	67.88
446.39	51.49
446.58	91.28
446.77	0.00
446.95	60.85
447.14	37.45
447.32	44.47
447.51	0.00
447.69	4.68
447.88	49.15
448.06	102.98
448.25	93.62
448.43	51.49
448.62	67.88
448.80	63.19
448.99	114.69
449.17	25.75
449.36	51.49
449.54	93.62
449.73	102.98
449.91	16.38
450.10	51.49
450.28	93.62
450.46	42.13
450.65	58.51
450.83	0.00
451.02	51.49
451.20	60.85
451.39	42.13
451.57	88.94
451.76	53.83
451.94	128.73
452.13	93.62
452.31	74.90
452.49	91.28
452.68	42.13
452.86	44.47
453.05	74.90
453.23	4.68
453.42	79.58
453.60	67.88
453.78	46.81
453.97	121.71
454.15	49.15
454.34	77.24
454.52	72.56
454.70	163.84
454.89	46.81
455.07	18.72
455.26	81.92
455.44	77.24
455.62	140.43
455.81	72.56
455.99	16.38
456.17	77.24
456.36	53.83
456.54	9.36
456.73	60.85
456.91	152.13
457.09	18.72
457.28	100.64
457.46	93.62
457.64	100.64
457.83	121.71
458.01	65.54
458.19	56.17
458.38	105.32
458.56	81.92
458.74	110.01
458.93	53.83
459.11	11.70
459.29	46.81
459.48	39.79
459.66	138.09
459.84	23.41
460.03	39.79
460.21	21.06
460.39	91.28
460.57	102.98
460.76	72.56
460.94	65.54
461.12	114.69
461.31	70.22
461.49	0.00
461.67	84.26
461.85	81.92
462.04	67.88
462.22	74.90
462.40	39.79
462.59	128.73
462.77	63.19
462.95	124.05
463.13	107.66
463.32	46.81
463.50	124.05
463.68	72.56
463.86	63.19
464.05	60.85
464.23	39.79
464.41	44.47
464.59	49.15
464.78	25.75
464.96	0.00
465.14	114.69
465.32	51.49
465.50	81.92
465.69	70.22
465.87	30.43
466.05	77.24
466.23	102.98
466.41	63.19
466.60	60.85
466.78	18.72
466.96	93.62
467.14	114.69
467.32	140.43
467.51	114.69
467.69	77.24
467.87	93.62
468.05	67.88
468.23	30.43
468.41	25.75
468.60	42.13
468.78	46.81
468.96	107.66
469.14	18.72
469.32	93.62
469.50	91.28
469.69	56.17
469.87	58.51
470.05	56.17
470.23	35.11
470.41	79.58
470.59	18.72
470.77	163.84
470.95	105.32
471.14	110.01
471.32	58.51
471.50	51.49
471.68	79.58
471.86	53.83
472.04	42.13
472.22	67.88
472.40	60.85
472.58	102.98
472.77	39.79
472.95	93.62
473.13	42.13
473.31	100.64
473.49	46.81
473.67	74.90
473.85	44.47
474.03	166.18
474.21	30.43
474.39	142.77
474.57	86.60
474.75	51.49
474.93	114.69
475.12	142.77
475.30	128.73
475.48	86.60
475.66	95.96
475.84	42.13
476.02	7.02
476.20	72.56
476.38	100.64
476.56	100.64
476.74	65.54
476.92	74.90
477.10	0.00
477.28	49.15
477.46	121.71
477.64	32.77
477.82	30.43
478.00	149.79
478.18	79.58
478.36	128.73
478.54	100.64
478.72	56.17
478.90	74.90
479.08	114.69
479.26	81.92
479.44	91.28
479.62	72.56
479.80	0.00
479.98	91.28
480.16	72.56
480.34	39.79
480.52	105.32
480.70	60.85
480.88	65.54
481.06	86.60
481.24	60.85
481.41	42.13
481.59	81.92
481.77	142.77
481.95	58.51
482.13	77.24
482.31	63.19
482.49	56.17
482.67	124.05
482.85	107.66
483.03	2.34
483.21	56.17
483.39	0.00
483.57	53.83
483.74	86.60
483.92	88.94
484.10	119.37
484.28	51.49
484.46	63.19
484.64	102.98
484.82	32.77
485.00	58.51
485.18	42.13
485.35	53.83
485.53	49.15
485.71	35.11
485.89	74.90
486.07	46.81
486.25	102.98
486.43	63.19
486.61	95.96
486.78	138.09
486.96	124.05
487.14	114.69
487.32	91.28
487.50	63.19
487.68	142.77
487.85	112.35
488.03	121.71
488.21	121.71
488.39	163.84
488.57	117.03
488.75	86.60
488.92	170.86
489.10	126.39
489.28	84.26
489.46	79.58
489.64	88.94
489.81	149.79
489.99	100.64
490.17	145.11
490.35	117.03
490.53	46.81
490.70	138.09
490.88	84.26
491.06	114.69
491.24	114.69
491.41	142.77
491.59	86.60
491.77	53.83
491.95	65.54
492.13	86.60
492.30	117.03
492.48	86.60
492.66	58.51
492.84	42.13
493.01	93.62
493.19	58.51
493.37	37.45
493.54	84.26
493.72	93.62
493.90	77.24
494.08	140.43
494.25	84.26
494.43	105.32
494.61	72.56
494.79	46.81
494.96	53.83
495.14	53.83
495.32	128.73
495.49	67.88
495.67	81.92
495.85	42.13
496.02	117.03
496.20	110.01
496.38	70.22
496.55	128.73
496.73	21.06
496.91	42.13
497.09	98.30
497.26	74.90
497.44	222.35
497.62	79.58
497.79	91.28
497.97	105.32
498.14	119.37
498.32	107.66
498.50	114.69
498.67	107.66
498.85	98.30
499.03	114.69
499.20	140.43
499.38	121.71
499.56	93.62
499.73	112.35
499.91	177.88
500.08	156.82
500.26	100.64
500.44	156.82
500.61	88.94
500.79	32.77
500.97	166.18
501.14	133.41
501.32	135.75
501.49	175.54
501.67	102.98
501.84	65.54
502.02	110.01
502.20	168.52
502.37	138.09
502.55	124.05
502.72	119.37
502.90	133.41
503.07	149.79
503.25	79.58
503.43	37.45
503.60	114.69
503.78	46.81
503.95	98.30
504.13	102.98
504.30	177.88
504.48	124.05
504.65	67.88
504.83	142.77
505.01	117.03
505.18	152.13
505.36	107.66
505.53	119.37
505.71	49.15
505.88	60.85
506.06	131.07
506.23	140.43
506.41	156.82
506.58	98.30
506.76	63.19
506.93	117.03
507.11	98.30
507.28	56.17
507.46	86.60
507.63	63.19
507.81	121.71
507.98	154.48
508.16	88.94
508.33	98.30
508.50	170.86
508.68	107.66
508.85	110.01
509.03	145.11
509.20	170.86
509.38	142.77
509.55	145.11
509.73	91.28
509.90	107.66
510.08	102.98
510.25	114.69
510.42	84.26
510.60	30.43
510.77	93.62
510.95	105.32
511.12	107.66
511.30	105.32
511.47	58.51
511.64	105.32
511.82	117.03
511.99	112.35
512.17	67.88
512.34	124.05
512.51	77.24
512.69	72.56
512.86	121.71
513.04	110.01
513.21	72.56
513.38	119.37
513.56	102.98
513.73	91.28
513.90	32.77
514.08	121.71
514.25	154.48
514.43	112.35
514.60	147.45
514.77	93.62
514.95	100.64
515.12	156.82
515.29	114.69
515.47	149.79
515.64	168.52
515.81	23.41
515.99	35.11
516.16	133.41
516.33	60.85
516.51	30.43
516.68	112.35
516.85	93.62
517.03	95.96
517.20	86.60
517.37	63.19
517.54	58.51
517.72	98.30
517.89	84.26
518.06	72.56
518.24	126.39
518.41	168.52
518.58	145.11
518.75	30.43
518.93	95.96
519.10	88.94
519.27	81.92
519.45	42.13
519.62	25.75
519.79	91.28
519.96	154.48
520.14	93.62
520.31	23.41
520.48	140.43
520.65	86.60
520.83	126.39
521.00	79.58
521.17	156.82
521.34	77.24
521.52	102.98
521.69	60.85
521.86	128.73
522.03	9.36
522.20	105.32
522.38	74.90
522.55	79.58
522.72	117.03
522.89	102.98
523.07	105.32
523.24	170.86
523.41	70.22
523.58	112.35
523.75	124.05
523.92	124.05
524.10	121.71
524.27	102.98
524.44	58.51
524.61	110.01
524.78	112.35
524.96	126.39
525.13	126.39
525.30	60.85
525.47	112.35
525.64	138.09
525.81	98.30
525.98	91.28
526.16	58.51
526.33	18.72
526.50	86.60
526.67	102.98
526.84	46.81
527.01	23.41
527.18	86.60
527.36	79.58
527.53	114.69
527.70	98.30
527.87	156.82
528.04	161.50
528.21	161.50
528.38	112.35
528.55	149.79
528.72	194.26
528.89	152.13
529.07	133.41
529.24	42.13
529.41	70.22
529.58	128.73
529.75	49.15
529.92	168.52
530.09	126.39
530.26	112.35
530.43	72.56
530.60	112.35
530.77	70.22
530.94	107.66
531.11	70.22
531.28	91.28
531.46	74.90
531.63	39.79
531.80	25.75
531.97	49.15
532.14	100.64
532.31	74.90
532.48	53.83
532.65	84.26
532.82	72.56
532.99	88.94
533.16	217.67
533.33	121.71
533.50	81.92
533.67	105.32
533.84	114.69
534.01	60.85
534.18	152.13
534.35	117.03
534.52	112.35
534.69	142.77
534.86	102.98
535.03	159.16
535.20	117.03
535.37	84.26
535.54	145.11
535.71	138.09
535.88	72.56
536.05	65.54
536.22	119.37
536.38	100.64
536.55	67.88
536.72	117.03
536.89	98.30
537.06	133.41
537.23	100.64
537.40	88.94
537.57	58.51
537.74	110.01
537.91	91.28
538.08	105.32
538.25	60.85
538.42	149.79
538.59	42.13
538.75	74.90
538.92	65.54
539.09	81.92
539.26	86.60
539.43	23.41
539.60	159.16
539.77	131.07
539.94	44.47
540.11	53.83
540.28	149.79
540.44	74.90
540.61	114.69
540.78	39.79
540.95	72.56
541.12	100.64
541.29	67.88
541.46	95.96
541.62	70.22
541.79	114.69
541.96	121.71
542.13	95.96
542.30	2.34
542.47	53.83
542.63	91.28
542.80	114.69
542.97	131.07
543.14	205.97
543.31	140.43
543.48	100.64
543.64	49.15
543.81	131.07
543.98	149.79
544.15	124.05
544.32	98.30
544.48	114.69
544.65	128.73
544.82	161.50
544.99	105.32
545.16	156.82
545.32	65.54
545.49	152.13
545.66	88.94
545.83	86.60
546.00	126.39
546.16	81.92
546.33	67.88
546.50	177.88
546.67	107.66
546.83	107.66
547.00	110.01
547.17	145.11
547.34	173.20
547.50	112.35
547.67	65.54
547.84	81.92
548.00	98.30
548.17	105.32
548.34	112.35
548.51	107.66
548.67	107.66
548.84	81.92
549.01	152.13
549.18	79.58
549.34	81.92
549.51	189.58
549.68	53.83
549.84	77.24
550.01	124.05
550.18	114.69
550.34	112.35
550.51	84.26
550.68	39.79
550.84	110.01
551.01	117.03
551.18	187.24
551.34	124.05
551.51	110.01
551.68	77.24
551.84	135.75
552.01	131.07
552.18	156.82
552.34	112.35
552.51	88.94
552.68	142.77
552.84	65.54
553.01	39.79
553.18	105.32
553.34	105.32
553.51	135.75
553.67	180.22
553.84	131.07
554.01	117.03
554.17	168.52
554.34	119.37
554.51	105.32
554.67	128.73
554.84	102.98
555.00	58.51
555.17	95.96
555.33	25.75
555.50	70.22
555.67	156.82
555.83	140.43
556.00	65.54
556.16	39.79
556.33	95.96
556.50	126.39
556.66	107.66
556.83	124.05
556.99	51.49
557.16	60.85
557.32	110.01
557.49	81.92
557.65	117.03
557.82	121.71
557.98	102.98
558.15	112.35
558.32	149.79
558.48	149.79
558.65	126.39
558.81	107.66
558.98	100.64
559.14	53.83
559.31	95.96
559.47	117.03
559.64	79.58
559.80	95.96
559.97	138.09
560.13	112.35
560.30	74.90
560.46	184.90
560.63	112.35
560.79	145.11
560.96	105.32
561.12	100.64
561.29	79.58
561.45	84.26
561.61	91.28
561.78	119.37
561.94	53.83
562.11	156.82
562.27	100.64
562.44	42.13
562.60	102.98
562.77	135.75
562.93	142.77
563.10	70.22
563.26	112.35
563.42	114.69
563.59	88.94
563.75	91.28
563.92	100.64
564.08	58.51
564.24	67.88
564.41	131.07
564.57	149.79
564.74	60.85
564.90	39.79
565.07	84.26
565.23	142.77
565.39	86.60
565.56	70.22
565.72	65.54
565.88	126.39
566.05	112.35
566.21	91.28
566.38	65.54
566.54	138.09
566.70	100.64
566.87	91.28
567.03	131.07
567.19	93.62
567.36	77.24
567.52	60.85
567.68	74.90
567.85	72.56
568.01	140.43
568.17	60.85
568.34	74.90
568.50	117.03
568.66	100.64
568.83	74.90
568.99	100.64
569.15	63.19
569.32	126.39
569.48	42.13
569.64	84.26
569.81	88.94
569.97	58.51
570.13	170.86
570.30	112.35
570.46	37.45
570.62	53.83
570.78	110.01
570.95	70.22
571.11	135.75
571.27	81.92
571.43	84.26
571.60	140.43
571.76	100.64
571.92	0.00
572.09	67.88
572.25	119.37
572.41	70.22
572.57	74.90
572.74	119.37
572.90	152.13
573.06	86.60
573.22	114.69
573.38	124.05
573.55	0.00
573.71	88.94
573.87	53.83
574.03	95.96
574.20	46.81
574.36	70.22
574.52	149.79
574.68	84.26
574.84	44.47
575.01	131.07
575.17	60.85
575.33	58.51
575.49	79.58
575.65	91.28
575.82	88.94
575.98	124.05
576.14	51.49
576.30	30.43
576.46	77.24
576.62	7.02
576.79	74.90
576.95	91.28
577.11	110.01
577.27	138.09
577.43	79.58
577.59	84.26
577.75	37.45
577.92	121.71
578.08	65.54
578.24	18.72
578.40	126.39
578.56	67.88
578.72	25.75
578.88	74.90
579.04	56.17
579.21	65.54
579.37	105.32
579.53	49.15
579.69	182.56
579.85	133.41
580.01	142.77
580.17	88.94
580.33	100.64
580.49	74.90
580.65	142.77
580.82	138.09
580.98	112.35
581.14	117.03
581.30	128.73
581.46	2.34
581.62	72.56
581.78	105.32
581.94	56.17
582.10	39.79
582.26	53.83
582.42	149.79
582.58	44.47
582.74	84.26
582.90	117.03
583.06	63.19
583.22	93.62
583.38	32.77
583.54	21.06
583.70	84.26
583.86	86.60
584.02	60.85
584.18	100.64
584.34	154.48
584.50	166.18
584.66	124.05
584.82	142.77
584.98	70.22
585.14	56.17
585.30	72.56
585.46	124.05
585.62	60.85
585.78	145.11
585.94	121.71
586.10	79.58
586.26	49.15
586.42	60.85
586.58	77.24
586.74	135.75
586.90	128.73
587.06	74.90
587.22	51.49
587.38	95.96
587.54	98.30
587.70	39.79
587.86	42.13
588.02	44.47
588.18	4.68
588.34	138.09
588.49	72.56
588.65	49.15
588.81	67.88
588.97	0.00
589.13	95.96
589.29	95.96
589.45	93.62
589.61	23.41
589.77	11.70
589.93	95.96
590.08	0.00
590.24	126.39
590.40	53.83
590.56	117.03
590.72	91.28
590.88	46.81
591.04	114.69
591.20	46.81
591.35	105.32
591.51	16.38
591.67	98.30
591.83	46.81
591.99	86.60
592.15	95.96
592.31	114.69
592.46	49.15
592.62	37.45
592.78	88.94
592.94	67.88
593.10	42.13
593.26	77.24
593.41	107.66
593.57	105.32
593.73	128.73
593.89	44.47
594.05	30.43
594.20	126.39
594.36	74.90
594.52	79.58
594.68	14.04
594.84	79.58
594.99	107.66
595.15	93.62
595.31	53.83
595.47	70.22
595.62	44.47
595.78	128.73
595.94	110.01
596.10	110.01
596.25	121.71
596.41	60.85
596.57	0.00
596.73	37.45
596.88	112.35
597.04	105.32
597.20	0.00
597.36	86.60
597.51	95.96
597.67	102.98
597.83	161.50
597.99	53.83
598.14	63.19
598.30	35.11
598.46	86.60
598.61	77.24
598.77	180.22
598.93	112.35
599.09	74.90
599.24	88.94
599.40	86.60
599.56	49.15
599.71	67.88
599.87	86.60
600.03	67.88
600.18	107.66
600.34	79.58
600.50	72.56
600.65	70.22
600.81	124.05
600.97	95.96
601.12	102.98
601.28	77.24
601.44	114.69
601.59	79.58
601.75	110.01
601.91	98.30
602.06	25.75
602.22	46.81
602.37	121.71
602.53	37.45
602.69	72.56
602.84	93.62
603.00	49.15
603.16	51.49
603.31	114.69
603.47	56.17
603.62	44.47
603.78	25.75
603.94	53.83
604.09	35.11
604.25	70.22
604.40	170.86
604.56	60.85
604.71	25.75
604.87	77.24
605.03	121.71
605.18	16.38
605.34	63.19
605.49	159.16
605.65	138.09
605.80	56.17
605.96	86.60
606.12	152.13
606.27	21.06
606.43	100.64
606.58	32.77
606.74	42.13
606.89	77.24
607.05	119.37
607.20	72.56
607.36	42.13
607.51	74.90
607.67	37.45
607.82	98.30
607.98	156.82
608.13	72.56
608.29	84.26
608.44	67.88
608.60	72.56
608.75	39.79
608.91	4.68
609.06	100.64
609.22	102.98
609.37	79.58
609.53	7.02
609.68	56.17
609.84	110.01
609.99	58.51
610.15	63.19
610.30	53.83
610.46	88.94
610.61	81.92
610.76	28.09
610.92	35.11
611.07	32.77
611.23	84.26
611.38	79.58
611.54	95.96
611.69	0.00
611.84	105.32
612.00	156.82
612.15	102.98
612.31	105.32
612.46	142.77
612.62	81.92
612.77	175.54
612.92	91.28
613.08	105.32
613.23	86.60
613.39	86.60
613.54	67.88
613.69	37.45
613.85	93.62
614.00	18.72
614.15	112.35
614.31	119.37
614.46	107.66
614.62	74.90
614.77	126.39
614.92	39.79
615.08	107.66
615.23	84.26
615.38	114.69
615.54	81.92
615.69	58.51
615.84	119.37
616.00	88.94
616.15	114.69
616.30	126.39
616.46	42.13
616.61	0.00
616.76	79.58
616.92	58.51
617.07	56.17
617.22	46.81
617.37	74.90
617.53	107.66
617.68	51.49
617.83	39.79
617.99	72.56
618.14	16.38
618.29	65.54
618.45	49.15
618.60	60.85
618.75	86.60
618.90	37.45
619.06	107.66
619.21	133.41
619.36	114.69
619.51	112.35
619.67	32.77
619.82	37.45
619.97	28.09
620.12	37.45
620.28	142.77
620.43	100.64
620.58	74.90
620.73	95.96
620.89	124.05
621.04	93.62
621.19	74.90
621.34	51.49
621.49	67.88
621.65	110.01
621.80	39.79
621.95	42.13
622.10	58.51
622.25	98.30
622.41	37.45
622.56	145.11
622.71	110.01
622.86	121.71
623.01	86.60
623.16	58.51
623.32	44.47
623.47	16.38
623.62	84.26
623.77	25.75
623.92	107.66
624.07	100.64
624.23	93.62
624.38	56.17
624.53	60.85
624.68	163.84
624.83	112.35
624.98	67.88
625.13	79.58
625.29	88.94
625.44	77.24
625.59	51.49
625.74	42.13
625.89	107.66
626.04	44.47
626.19	2.34
626.34	77.24
626.49	107.66
626.65	63.19
626.80	44.47
626.95	117.03
627.10	25.75
627.25	77.24
627.40	53.83
627.55	81.92
627.70	25.75
627.85	53.83
628.00	18.72
628.15	81.92
628.30	32.77
628.45	147.45
628.60	63.19
628.76	60.85
628.91	81.92
629.06	98.30
629.21	72.56
629.36	79.58
629.51	53.83
629.66	93.62
629.81	79.58
629.96	42.13
630.11	72.56
630.26	51.49
630.41	2.34
630.56	74.90
630.71	28.09
630.86	72.56
631.01	46.81
631.16	18.72
631.31	110.01
631.46	131.07
631.61	112.35
631.76	32.77
631.91	42.13
632.06	88.94
632.21	46.81
632.36	42.13
632.51	128.73
632.66	105.32
632.81	51.49
632.96	100.64
633.10	65.54
633.25	9.36
633.40	88.94
633.55	86.60
633.70	30.43
633.85	67.88
634.00	28.09
634.15	100.64
634.30	86.60
634.45	25.75
634.60	25.75
634.75	67.88
634.90	18.72
635.05	32.77
635.19	77.24
635.34	2.34
635.49	44.47
635.64	60.85
635.79	95.96
635.94	67.88
636.09	37.45
636.24	107.66
636.39	114.69
636.53	30.43
636.68	21.06
636.83	65.54
636.98	60.85
637.13	124.05
637.28	88.94
637.43	91.28
637.57	14.04
637.72	131.07
637.87	182.56
638.02	124.05
638.17	35.11
638.32	0.00
638.46	72.56
638.61	140.43
638.76	67.88
638.91	88.94
639.06	70.22
639.20	117.03
639.35	0.00
639.50	39.79
639.65	88.94
639.80	46.81
639.94	74.90
640.09	70.22
640.24	14.04
640.39	16.38
640.54	9.36
640.68	105.32
640.83	105.32
640.98	63.19
641.13	39.79
641.27	21.06
641.42	84.26
641.57	58.51
641.72	84.26
641.86	93.62
642.01	138.09
642.16	63.19
642.31	39.79
642.45	53.83
642.60	142.77
642.75	84.26
642.90	56.17
643.04	25.75
643.19	56.17
643.34	56.17
643.48	58.51
643.63	98.30
643.78	18.72
643.93	112.35
644.07	18.72
644.22	63.19
644.37	56.17
644.51	30.43
644.66	70.22
644.81	28.09
644.95	56.17
645.10	65.54
645.25	14.04
645.39	88.94
645.54	32.77
645.69	107.66
645.83	107.66
645.98	63.19
646.13	117.03
646.27	79.58
646.42	74.90
646.57	100.64
646.71	156.82
646.86	154.48
647.00	14.04
647.15	95.96
647.30	11.70
647.44	124.05
647.59	70.22
647.74	105.32
647.88	91.28
648.03	42.13
648.17	21.06
648.32	16.38
648.47	23.41
648.61	39.79
648.76	72.56
648.90	9.36
649.05	98.30
649.20	100.64
649.34	0.00
649.49	58.51
649.63	67.88
649.78	58.51
649.92	72.56
650.07	119.37
650.21	0.00
650.36	119.37
650.51	16.38
650.65	39.79
650.80	9.36
650.94	60.85
651.09	74.90
651.23	79.58
651.38	60.85
651.52	114.69
651.67	28.09
651.81	23.41
651.96	65.54
652.10	23.41
652.25	56.17
652.39	65.54
652.54	42.13
652.68	0.00
652.83	67.88
652.97	16.38
653.12	58.51
653.26	63.19
653.41	0.00
653.55	28.09
653.70	11.70
653.84	79.58
653.99	21.06
654.13	72.56
654.27	18.72
654.42	81.92
654.56	0.00
654.71	25.75
654.85	30.43
655.00	67.88
655.14	49.15
655.29	7.02
655.43	81.92
655.57	74.90
655.72	44.47
655.86	9.36
656.01	39.79
656.15	53.83
656.30	4.68
656.44	0.00
656.58	72.56
656.73	74.90
656.87	98.30
657.01	23.41
657.16	56.17
657.30	86.60
657.45	88.94
657.59	74.90
657.73	84.26
657.88	51.49
658.02	145.11
658.16	70.22
658.31	67.88
658.45	72.56
658.60	35.11
658.74	74.90
658.88	28.09
659.03	79.58
659.17	42.13
659.31	42.13
659.46	100.64
659.60	51.49
659.74	42.13
659.89	32.77
660.03	117.03
660.17	77.24
660.32	18.72
660.46	135.75
660.60	56.17
660.74	0.00
660.89	21.06
661.03	9.36
661.17	135.75
661.32	88.94
661.46	63.19
661.60	72.56
661.74	7.02
661.89	28.09
662.03	21.06
662.17	102.98
662.31	79.58
662.46	7.02
662.60	0.00
662.74	18.72
662.88	91.28
663.03	16.38
663.17	9.36
663.31	63.19
663.45	37.45
663.60	25.75
663.74	32.77
663.88	60.85
664.02	51.49
664.17	65.54
664.31	0.00
664.45	0.00
664.59	60.85
664.73	16.38
664.88	0.00
665.02	11.70
665.16	32.77
665.30	56.17
665.44	30.43
665.59	60.85
665.73	88.94
665.87	81.92
666.01	11.70
666.15	23.41
666.29	39.79
666.44	51.49
666.58	81.92
666.72	18.72
666.86	0.00
667.00	63.19
667.14	84.26
667.28	58.51
667.43	42.13
667.57	16.38
667.71	0.00
667.85	4.68
667.99	124.05
668.13	70.22
668.27	32.77
668.41	93.62
668.56	79.58
668.70	28.09
668.84	95.96
668.98	107.66
669.12	0.00
669.26	70.22
669.40	63.19
669.54	110.01
669.68	95.96
669.82	42.13
669.96	58.51
670.10	77.24
670.25	126.39
670.39	107.66
670.53	32.77
670.67	74.90
670.81	98.30
670.95	67.88
671.09	72.56
671.23	11.70
671.37	0.00
671.51	91.28
671.65	77.24
671.79	7.02
671.93	77.24
672.07	100.64
672.21	42.13
672.35	105.32
672.49	112.35
672.63	65.54
672.77	84.26
672.91	11.70
673.05	79.58
673.19	46.81
673.33	110.01
673.47	79.58
673.61	23.41
673.75	16.38
673.89	39.79
674.03	107.66
674.17	114.69
674.31	86.60
674.45	42.13
674.59	81.92
674.73	72.56
674.87	74.90
675.01	0.00
675.15	39.79
675.29	4.68
675.43	0.00
675.56	91.28
675.70	21.06
675.84	49.15
675.98	51.49
676.12	37.45
676.26	0.00
676.40	11.70
676.54	67.88
676.68	4.68
676.82	0.00
676.96	70.22
677.10	93.62
677.23	0.00
677.37	63.19
677.51	58.51
677.65	74.90
677.79	42.13
677.93	25.75
678.07	72.56
678.21	58.51
678.34	46.81
678.48	60.85
678.62	42.13
678.76	0.00
678.90	23.41
679.04	9.36
679.18	86.60
679.31	0.00
679.45	72.56
679.59	25.75
679.73	42.13
679.87	60.85
680.00	107.66
680.14	60.85
680.28	93.62
680.42	28.09
680.56	23.41
680.70	30.43
680.83	93.62
680.97	30.43
681.11	58.51
681.25	131.07
681.39	53.83
681.52	74.90
681.66	37.45
681.80	28.09
681.94	74.90
682.07	77.24
682.21	53.83
682.35	46.81
682.49	0.00
682.62	49.15
682.76	49.15
682.90	81.92
683.04	32.77
683.17	166.18
683.31	98.30
683.45	79.58
683.59	37.45
683.72	25.75
683.86	63.19
684.00	70.22
684.13	0.00
684.27	25.75
684.41	18.72
684.55	49.15
684.68	7.02
684.82	0.00
684.96	46.81
685.09	44.47
685.23	63.19
685.37	44.47
685.50	53.83
685.64	39.79
685.78	56.17
685.91	32.77
686.05	74.90
686.19	21.06
686.32	91.28
686.46	28.09
686.60	11.70
686.73	100.64
686.87	35.11
687.01	21.06
687.14	0.00
687.28	0.00
687.42	28.09
687.55	42.13
687.69	4.68
687.82	11.70
687.96	95.96
688.10	77.24
688.23	25.75
688.37	63.19
688.50	18.72
688.64	53.83
688.78	72.56
688.91	74.90
689.05	37.45
689.18	84.26
689.32	46.81
689.46	23.41
689.59	30.43
689.73	93.62
689.86	67.88
690.00	51.49
690.13	0.00
690.27	0.00
690.41	88.94
690.54	28.09
690.68	44.47
690.81	0.00
690.95	79.58
691.08	14.04
691.22	53.83
691.35	128.73
691.49	18.72
691.62	46.81
691.76	56.17
691.89	44.47
692.03	9.36
692.16	32.77
692.30	100.64
692.43	102.98
692.57	79.58
692.70	51.49
692.84	25.75
692.97	53.83
693.11	0.00
693.24	32.77
693.38	42.13
693.51	21.06
693.65	0.00
693.78	9.36
693.92	65.54
694.05	7.02
694.19	0.00
694.32	18.72
694.45	93.62
694.59	84.26
694.72	35.11
694.86	0.00
694.99	0.00
695.13	9.36
695.26	70.22
695.39	16.38
695.53	37.45
695.66	88.94
695.80	9.36
695.93	65.54
696.07	0.00
696.20	63.19
696.33	88.94
696.47	67.88
696.60	4.68
696.73	56.17
696.87	23.41
697.00	105.32
697.14	30.43
697.27	23.41
697.40	11.70
697.54	86.60
697.67	70.22
697.80	44.47
697.94	0.00
698.07	0.00
698.21	32.77
698.34	0.00
698.47	39.79
698.61	49.15
698.74	98.30
698.87	11.70
699.01	2.34
699.14	98.30
699.27	74.90
699.40	84.26
699.54	0.00
699.67	0.00
699.80	30.43
699.94	51.49
700.07	70.22
700.20	46.81
700.34	16.38
700.47	23.41
700.60	28.09
700.73	16.38
700.87	0.00
701.00	65.54
701.13	117.03
701.26	46.81
701.40	49.15
701.53	0.00
701.66	65.54
701.79	138.09
701.93	51.49
702.06	23.41
702.19	7.02
702.32	0.00
702.46	11.70
702.59	0.00
702.72	51.49
702.85	46.81
702.99	18.72
703.12	72.56
703.25	81.92
703.38	7.02
703.51	0.00
703.65	0.00
703.78	72.56
703.91	49.15
704.04	0.00
704.17	51.49
704.31	0.00
704.44	0.00
704.57	32.77
704.70	28.09
704.83	86.60
704.96	18.72
705.10	25.75
705.23	114.69
>>>>>End Processed Spectral Data<<<<<
