SpectraSuite Data File
++++++++++++++++++++++++++++++++++++
Date: Fri Oct 04 12:13:32 GMT-05:00 2013
User: price-jones
Dark Spectrum Present: No
Reference Spectrum Present: No
Number of Sampled Component Spectra: 1
Spectrometers: USB2+H05261
Integration Time (usec): 10000 (USB2+H05261)
Spectra Averaged: 1 (USB2+H05261)
Boxcar Smoothing: 0 (USB2+H05261)
Correct for Electrical Dark: No (USB2+H05261)
Strobe/Lamp Enabled: No (USB2+H05261)
Correct for Detector Non-linearity: No (USB2+H05261)
Correct for Stray Light: No (USB2+H05261)
Number of Pixels in Processed Spectrum: 2048
>>>>>Begin Processed Spectral Data<<<<<
365.73	46.81
365.92	46.81
366.12	46.81
366.32	0.00
366.52	0.00
366.72	0.00
366.91	0.00
367.11	0.00
367.31	0.00
367.51	0.00
367.70	0.00
367.90	0.00
368.10	0.00
368.30	0.00
368.49	0.00
368.69	0.00
368.89	0.00
369.09	0.00
369.28	0.00
369.48	0.00
369.68	0.00
369.87	0.00
370.07	0.00
370.27	0.00
370.47	0.00
370.66	0.00
370.86	0.00
371.06	0.00
371.25	0.00
371.45	0.00
371.65	0.00
371.84	0.00
372.04	42.13
372.24	0.00
372.44	0.00
372.63	2.34
372.83	0.00
373.03	30.43
373.22	53.83
373.42	65.54
373.62	93.62
373.81	0.00
374.01	35.11
374.21	0.00
374.40	0.00
374.60	53.83
374.79	32.77
374.99	11.70
375.19	77.24
375.38	79.58
375.58	0.00
375.78	79.58
375.97	30.43
376.17	0.00
376.37	49.15
376.56	67.88
376.76	49.15
376.95	35.11
377.15	56.17
377.35	25.75
377.54	42.13
377.74	23.41
377.93	0.00
378.13	56.17
378.33	0.00
378.52	28.09
378.72	14.04
378.91	0.00
379.11	91.28
379.31	70.22
379.50	74.90
379.70	77.24
379.89	23.41
380.09	21.06
380.28	49.15
380.48	124.05
380.68	18.72
380.87	11.70
381.07	0.00
381.26	14.04
381.46	0.00
381.65	4.68
381.85	9.36
382.04	0.00
382.24	18.72
382.43	18.72
382.63	0.00
382.83	9.36
383.02	53.83
383.22	21.06
383.41	9.36
383.61	0.00
383.80	37.45
384.00	58.51
384.19	0.00
384.39	39.79
384.58	0.00
384.78	0.00
384.97	18.72
385.17	0.00
385.36	51.49
385.56	14.04
385.75	0.00
385.95	28.09
386.14	65.54
386.34	25.75
386.53	0.00
386.72	0.00
386.92	2.34
387.11	0.00
387.31	74.90
387.50	18.72
387.70	56.17
387.89	30.43
388.09	51.49
388.28	72.56
388.48	0.00
388.67	28.09
388.86	14.04
389.06	32.77
389.25	18.72
389.45	37.45
389.64	16.38
389.84	44.47
390.03	67.88
390.22	0.00
390.42	23.41
390.61	4.68
390.81	11.70
391.00	14.04
391.19	4.68
391.39	7.02
391.58	30.43
391.78	28.09
391.97	11.70
392.16	23.41
392.36	23.41
392.55	42.13
392.75	72.56
392.94	11.70
393.13	25.75
393.33	4.68
393.52	0.00
393.71	0.00
393.91	0.00
394.10	49.15
394.29	56.17
394.49	4.68
394.68	35.11
394.88	0.00
395.07	70.22
395.26	0.00
395.46	28.09
395.65	25.75
395.84	77.24
396.04	42.13
396.23	0.00
396.42	28.09
396.62	46.81
396.81	2.34
397.00	37.45
397.19	7.02
397.39	42.13
397.58	35.11
397.77	77.24
397.97	49.15
398.16	63.19
398.35	0.00
398.55	18.72
398.74	16.38
398.93	44.47
399.12	56.17
399.32	84.26
399.51	0.00
399.70	0.00
399.90	74.90
400.09	70.22
400.28	7.02
400.47	23.41
400.67	0.00
400.86	16.38
401.05	18.72
401.24	16.38
401.44	35.11
401.63	7.02
401.82	42.13
402.01	7.02
402.21	0.00
402.40	53.83
402.59	30.43
402.78	0.00
402.97	0.00
403.17	46.81
403.36	77.24
403.55	56.17
403.74	14.04
403.93	9.36
404.13	0.00
404.32	39.79
404.51	42.13
404.70	0.00
404.89	18.72
405.09	0.00
405.28	28.09
405.47	18.72
405.66	0.00
405.85	72.56
406.05	23.41
406.24	23.41
406.43	60.85
406.62	11.70
406.81	0.00
407.00	63.19
407.20	23.41
407.39	39.79
407.58	0.00
407.77	44.47
407.96	77.24
408.15	79.58
408.34	16.38
408.54	63.19
408.73	18.72
408.92	28.09
409.11	46.81
409.30	0.00
409.49	7.02
409.68	30.43
409.87	51.49
410.07	0.00
410.26	51.49
410.45	77.24
410.64	0.00
410.83	4.68
411.02	9.36
411.21	49.15
411.40	65.54
411.59	58.51
411.78	35.11
411.98	0.00
412.17	51.49
412.36	7.02
412.55	0.00
412.74	0.00
412.93	44.47
413.12	35.11
413.31	4.68
413.50	77.24
413.69	117.03
413.88	53.83
414.07	51.49
414.26	44.47
414.45	0.00
414.64	35.11
414.83	51.49
415.02	0.00
415.22	81.92
415.41	53.83
415.60	32.77
415.79	28.09
415.98	37.45
416.17	0.00
416.36	0.00
416.55	35.11
416.74	0.00
416.93	25.75
417.12	114.69
417.31	23.41
417.50	28.09
417.69	25.75
417.88	77.24
418.07	14.04
418.26	11.70
418.45	25.75
418.64	18.72
418.83	81.92
419.02	9.36
419.21	7.02
419.39	65.54
419.58	4.68
419.77	44.47
419.96	93.62
420.15	72.56
420.34	0.00
420.53	49.15
420.72	2.34
420.91	16.38
421.10	0.00
421.29	46.81
421.48	88.94
421.67	0.00
421.86	56.17
422.05	0.00
422.24	0.00
422.43	81.92
422.61	0.00
422.80	9.36
422.99	28.09
423.18	0.00
423.37	0.00
423.56	2.34
423.75	16.38
423.94	21.06
424.13	30.43
424.32	51.49
424.50	0.00
424.69	11.70
424.88	23.41
425.07	0.00
425.26	16.38
425.45	21.06
425.64	23.41
425.83	72.56
426.01	35.11
426.20	0.00
426.39	0.00
426.58	56.17
426.77	72.56
426.96	72.56
427.15	100.64
427.33	0.00
427.52	0.00
427.71	49.15
427.90	4.68
428.09	88.94
428.28	4.68
428.46	30.43
428.65	53.83
428.84	39.79
429.03	0.00
429.22	14.04
429.40	7.02
429.59	65.54
429.78	9.36
429.97	39.79
430.16	30.43
430.34	11.70
430.53	67.88
430.72	42.13
430.91	0.00
431.10	79.58
431.28	9.36
431.47	42.13
431.66	56.17
431.85	0.00
432.03	98.30
432.22	2.34
432.41	0.00
432.60	63.19
432.79	37.45
432.97	42.13
433.16	0.00
433.35	44.47
433.54	79.58
433.72	18.72
433.91	0.00
434.10	35.11
434.28	0.00
434.47	0.00
434.66	60.85
434.85	0.00
435.03	0.00
435.22	0.00
435.41	91.28
435.59	23.41
435.78	35.11
435.97	37.45
436.16	53.83
436.34	37.45
436.53	53.83
436.72	63.19
436.90	0.00
437.09	67.88
437.28	39.79
437.46	18.72
437.65	46.81
437.84	4.68
438.02	18.72
438.21	28.09
438.40	72.56
438.58	9.36
438.77	25.75
438.96	35.11
439.14	25.75
439.33	21.06
439.52	18.72
439.70	46.81
439.89	37.45
440.08	0.00
440.26	37.45
440.45	14.04
440.63	21.06
440.82	105.32
441.01	72.56
441.19	0.00
441.38	25.75
441.57	42.13
441.75	14.04
441.94	30.43
442.12	0.00
442.31	0.00
442.50	72.56
442.68	60.85
442.87	51.49
443.05	0.00
443.24	0.00
443.43	46.81
443.61	21.06
443.80	46.81
443.98	56.17
444.17	28.09
444.35	53.83
444.54	42.13
444.73	0.00
444.91	49.15
445.10	30.43
445.28	60.85
445.47	0.00
445.65	70.22
445.84	25.75
446.02	28.09
446.21	93.62
446.39	0.00
446.58	0.00
446.77	28.09
446.95	0.00
447.14	25.75
447.32	35.11
447.51	0.00
447.69	25.75
447.88	58.51
448.06	14.04
448.25	0.00
448.43	0.00
448.62	77.24
448.80	32.77
448.99	44.47
449.17	79.58
449.36	51.49
449.54	23.41
449.73	0.00
449.91	23.41
450.10	56.17
450.28	28.09
450.46	32.77
450.65	42.13
450.83	37.45
451.02	42.13
451.20	74.90
451.39	100.64
451.57	65.54
451.76	49.15
451.94	30.43
452.13	14.04
452.31	16.38
452.49	81.92
452.68	30.43
452.86	2.34
453.05	49.15
453.23	72.56
453.42	32.77
453.60	93.62
453.78	44.47
453.97	0.00
454.15	0.00
454.34	86.60
454.52	46.81
454.70	44.47
454.89	65.54
455.07	28.09
455.26	0.00
455.44	0.00
455.62	35.11
455.81	0.00
455.99	46.81
456.17	7.02
456.36	63.19
456.54	0.00
456.73	28.09
456.91	9.36
457.09	39.79
457.28	18.72
457.46	58.51
457.64	49.15
457.83	0.00
458.01	44.47
458.19	46.81
458.38	0.00
458.56	84.26
458.74	93.62
458.93	44.47
459.11	2.34
459.29	107.66
459.48	21.06
459.66	86.60
459.84	86.60
460.03	51.49
460.21	32.77
460.39	49.15
460.57	0.00
460.76	77.24
460.94	4.68
461.12	0.00
461.31	0.00
461.49	37.45
461.67	4.68
461.85	91.28
462.04	0.00
462.22	70.22
462.40	32.77
462.59	84.26
462.77	0.00
462.95	42.13
463.13	51.49
463.32	7.02
463.50	16.38
463.68	11.70
463.86	86.60
464.05	44.47
464.23	0.00
464.41	0.00
464.59	0.00
464.78	16.38
464.96	0.00
465.14	25.75
465.32	93.62
465.50	49.15
465.69	25.75
465.87	44.47
466.05	7.02
466.23	51.49
466.41	63.19
466.60	0.00
466.78	14.04
466.96	37.45
467.14	42.13
467.32	60.85
467.51	0.00
467.69	37.45
467.87	23.41
468.05	16.38
468.23	0.00
468.41	72.56
468.60	49.15
468.78	0.00
468.96	25.75
469.14	49.15
469.32	9.36
469.50	16.38
469.69	25.75
469.87	53.83
470.05	77.24
470.23	117.03
470.41	14.04
470.59	35.11
470.77	63.19
470.95	35.11
471.14	49.15
471.32	110.01
471.50	44.47
471.68	21.06
471.86	58.51
472.04	7.02
472.22	70.22
472.40	0.00
472.58	30.43
472.77	46.81
472.95	21.06
473.13	67.88
473.31	0.00
473.49	11.70
473.67	21.06
473.85	53.83
474.03	23.41
474.21	11.70
474.39	39.79
474.57	0.00
474.75	2.34
474.93	4.68
475.12	0.00
475.30	16.38
475.48	0.00
475.66	32.77
475.84	51.49
476.02	39.79
476.20	63.19
476.38	44.47
476.56	4.68
476.74	32.77
476.92	0.00
477.10	23.41
477.28	35.11
477.46	23.41
477.64	53.83
477.82	60.85
478.00	49.15
478.18	0.00
478.36	0.00
478.54	60.85
478.72	53.83
478.90	0.00
479.08	14.04
479.26	39.79
479.44	72.56
479.62	2.34
479.80	49.15
479.98	14.04
480.16	37.45
480.34	60.85
480.52	30.43
480.70	0.00
480.88	56.17
481.06	23.41
481.24	25.75
481.41	2.34
481.59	37.45
481.77	77.24
481.95	49.15
482.13	65.54
482.31	88.94
482.49	23.41
482.67	65.54
482.85	91.28
483.03	23.41
483.21	74.90
483.39	79.58
483.57	67.88
483.74	56.17
483.92	37.45
484.10	42.13
484.28	23.41
484.46	9.36
484.64	0.00
484.82	58.51
485.00	0.00
485.18	95.96
485.35	0.00
485.53	42.13
485.71	9.36
485.89	18.72
486.07	32.77
486.25	65.54
486.43	77.24
486.61	11.70
486.78	21.06
486.96	63.19
487.14	16.38
487.32	91.28
487.50	79.58
487.68	86.60
487.85	30.43
488.03	28.09
488.21	60.85
488.39	51.49
488.57	2.34
488.75	30.43
488.92	91.28
489.10	0.00
489.28	53.83
489.46	81.92
489.64	25.75
489.81	102.98
489.99	16.38
490.17	28.09
490.35	37.45
490.53	56.17
490.70	147.45
490.88	35.11
491.06	25.75
491.24	11.70
491.41	28.09
491.59	42.13
491.77	0.00
491.95	2.34
492.13	60.85
492.30	28.09
492.48	37.45
492.66	7.02
492.84	4.68
493.01	4.68
493.19	11.70
493.37	81.92
493.54	63.19
493.72	30.43
493.90	0.00
494.08	77.24
494.25	58.51
494.43	2.34
494.61	63.19
494.79	42.13
494.96	37.45
495.14	51.49
495.32	0.00
495.49	7.02
495.67	16.38
495.85	9.36
496.02	0.00
496.20	42.13
496.38	53.83
496.55	18.72
496.73	65.54
496.91	4.68
497.09	79.58
497.26	107.66
497.44	0.00
497.62	65.54
497.79	7.02
497.97	16.38
498.14	74.90
498.32	79.58
498.50	4.68
498.67	53.83
498.85	39.79
499.03	30.43
499.20	25.75
499.38	0.00
499.56	0.00
499.73	35.11
499.91	93.62
500.08	86.60
500.26	0.00
500.44	28.09
500.61	56.17
500.79	86.60
500.97	16.38
501.14	0.00
501.32	37.45
501.49	0.00
501.67	0.00
501.84	0.00
502.02	60.85
502.20	93.62
502.37	14.04
502.55	53.83
502.72	70.22
502.90	39.79
503.07	23.41
503.25	21.06
503.43	74.90
503.60	0.00
503.78	42.13
503.95	74.90
504.13	86.60
504.30	37.45
504.48	63.19
504.65	46.81
504.83	42.13
505.01	18.72
505.18	35.11
505.36	0.00
505.53	14.04
505.71	60.85
505.88	70.22
506.06	49.15
506.23	0.00
506.41	0.00
506.58	42.13
506.76	25.75
506.93	58.51
507.11	37.45
507.28	65.54
507.46	0.00
507.63	56.17
507.81	56.17
507.98	42.13
508.16	9.36
508.33	0.00
508.50	9.36
508.68	44.47
508.85	14.04
509.03	25.75
509.20	60.85
509.38	63.19
509.55	37.45
509.73	9.36
509.90	42.13
510.08	16.38
510.25	72.56
510.42	46.81
510.60	46.81
510.77	138.09
510.95	51.49
511.12	49.15
511.30	0.00
511.47	0.00
511.64	70.22
511.82	32.77
511.99	0.00
512.17	74.90
512.34	51.49
512.51	0.00
512.69	44.47
512.86	44.47
513.04	131.07
513.21	35.11
513.38	32.77
513.56	124.05
513.73	16.38
513.90	9.36
514.08	28.09
514.25	84.26
514.43	0.00
514.60	70.22
514.77	30.43
514.95	0.00
515.12	32.77
515.29	79.58
515.47	37.45
515.64	25.75
515.81	79.58
515.99	42.13
516.16	91.28
516.33	77.24
516.51	67.88
516.68	58.51
516.85	14.04
517.03	98.30
517.20	25.75
517.37	2.34
517.54	25.75
517.72	16.38
517.89	0.00
518.06	9.36
518.24	25.75
518.41	53.83
518.58	0.00
518.75	46.81
518.93	74.90
519.10	0.00
519.27	32.77
519.45	53.83
519.62	60.85
519.79	7.02
519.96	58.51
520.14	46.81
520.31	98.30
520.48	28.09
520.65	21.06
520.83	53.83
521.00	25.75
521.17	35.11
521.34	58.51
521.52	49.15
521.69	0.00
521.86	70.22
522.03	88.94
522.20	28.09
522.38	0.00
522.55	2.34
522.72	0.00
522.89	44.47
523.07	46.81
523.24	51.49
523.41	0.00
523.58	42.13
523.75	0.00
523.92	72.56
524.10	28.09
524.27	72.56
524.44	28.09
524.61	107.66
524.78	23.41
524.96	35.11
525.13	86.60
525.30	0.00
525.47	0.00
525.64	32.77
525.81	7.02
525.98	53.83
526.16	81.92
526.33	35.11
526.50	67.88
526.67	23.41
526.84	35.11
527.01	53.83
527.18	23.41
527.36	74.90
527.53	58.51
527.70	35.11
527.87	30.43
528.04	88.94
528.21	32.77
528.38	63.19
528.55	25.75
528.72	65.54
528.89	0.00
529.07	9.36
529.24	60.85
529.41	67.88
529.58	0.00
529.75	84.26
529.92	72.56
530.09	0.00
530.26	58.51
530.43	28.09
530.60	30.43
530.77	0.00
530.94	37.45
531.11	32.77
531.28	114.69
531.46	95.96
531.63	0.00
531.80	21.06
531.97	44.47
532.14	56.17
532.31	0.00
532.48	46.81
532.65	0.00
532.82	37.45
532.99	30.43
533.16	32.77
533.33	7.02
533.50	16.38
533.67	91.28
533.84	11.70
534.01	23.41
534.18	16.38
534.35	16.38
534.52	49.15
534.69	0.00
534.86	16.38
535.03	25.75
535.20	51.49
535.37	56.17
535.54	0.00
535.71	84.26
535.88	0.00
536.05	30.43
536.22	14.04
536.38	77.24
536.55	0.00
536.72	117.03
536.89	0.00
537.06	0.00
537.23	11.70
537.40	84.26
537.57	0.00
537.74	11.70
537.91	23.41
538.08	11.70
538.25	65.54
538.42	30.43
538.59	46.81
538.75	53.83
538.92	0.00
539.09	30.43
539.26	35.11
539.43	56.17
539.60	11.70
539.77	49.15
539.94	44.47
540.11	63.19
540.28	0.00
540.44	0.00
540.61	23.41
540.78	4.68
540.95	98.30
541.12	56.17
541.29	0.00
541.46	0.00
541.62	0.00
541.79	65.54
541.96	0.00
542.13	37.45
542.30	0.00
542.47	49.15
542.63	35.11
542.80	63.19
542.97	39.79
543.14	44.47
543.31	30.43
543.48	4.68
543.64	100.64
543.81	49.15
543.98	39.79
544.15	49.15
544.32	51.49
544.48	93.62
544.65	81.92
544.82	18.72
544.99	16.38
545.16	112.35
545.32	49.15
545.49	74.90
545.66	42.13
545.83	32.77
546.00	14.04
546.16	77.24
546.33	14.04
546.50	2.34
546.67	44.47
546.83	0.00
547.00	107.66
547.17	74.90
547.34	7.02
547.50	42.13
547.67	39.79
547.84	14.04
548.00	65.54
548.17	21.06
548.34	9.36
548.51	0.00
548.67	60.85
548.84	37.45
549.01	131.07
549.18	0.00
549.34	0.00
549.51	11.70
549.68	46.81
549.84	0.00
550.01	25.75
550.18	32.77
550.34	37.45
550.51	32.77
550.68	4.68
550.84	7.02
551.01	51.49
551.18	35.11
551.34	77.24
551.51	14.04
551.68	16.38
551.84	28.09
552.01	0.00
552.18	124.05
552.34	0.00
552.51	0.00
552.68	0.00
552.84	84.26
553.01	0.00
553.18	49.15
553.34	0.00
553.51	46.81
553.67	117.03
553.84	56.17
554.01	79.58
554.17	107.66
554.34	18.72
554.51	58.51
554.67	0.00
554.84	63.19
555.00	30.43
555.17	18.72
555.33	30.43
555.50	18.72
555.67	7.02
555.83	60.85
556.00	37.45
556.16	121.71
556.33	18.72
556.50	79.58
556.66	93.62
556.83	70.22
556.99	30.43
557.16	18.72
557.32	51.49
557.49	72.56
557.65	88.94
557.82	56.17
557.98	44.47
558.15	117.03
558.32	72.56
558.48	21.06
558.65	7.02
558.81	60.85
558.98	28.09
559.14	42.13
559.31	23.41
559.47	39.79
559.64	11.70
559.80	100.64
559.97	2.34
560.13	9.36
560.30	28.09
560.46	0.00
560.63	67.88
560.79	39.79
560.96	77.24
561.12	28.09
561.29	0.00
561.45	53.83
561.61	44.47
561.78	56.17
561.94	142.77
562.11	0.00
562.27	32.77
562.44	53.83
562.60	42.13
562.77	63.19
562.93	81.92
563.10	107.66
563.26	0.00
563.42	0.00
563.59	107.66
563.75	86.60
563.92	60.85
564.08	95.96
564.24	84.26
564.41	21.06
564.57	42.13
564.74	114.69
564.90	35.11
565.07	42.13
565.23	0.00
565.39	28.09
565.56	18.72
565.72	23.41
565.88	0.00
566.05	95.96
566.21	51.49
566.38	0.00
566.54	9.36
566.70	0.00
566.87	30.43
567.03	0.00
567.19	77.24
567.36	65.54
567.52	23.41
567.68	42.13
567.85	32.77
568.01	0.00
568.17	0.00
568.34	0.00
568.50	46.81
568.66	0.00
568.83	18.72
568.99	32.77
569.15	23.41
569.32	49.15
569.48	30.43
569.64	14.04
569.81	63.19
569.97	4.68
570.13	2.34
570.30	86.60
570.46	72.56
570.62	63.19
570.78	32.77
570.95	46.81
571.11	44.47
571.27	95.96
571.43	46.81
571.60	11.70
571.76	21.06
571.92	28.09
572.09	65.54
572.25	93.62
572.41	60.85
572.57	51.49
572.74	42.13
572.90	46.81
573.06	39.79
573.22	67.88
573.38	67.88
573.55	25.75
573.71	70.22
573.87	42.13
574.03	60.85
574.20	0.00
574.36	70.22
574.52	74.90
574.68	70.22
574.84	28.09
575.01	0.00
575.17	37.45
575.33	65.54
575.49	37.45
575.65	114.69
575.82	4.68
575.98	9.36
576.14	21.06
576.30	70.22
576.46	39.79
576.62	95.96
576.79	39.79
576.95	2.34
577.11	0.00
577.27	14.04
577.43	28.09
577.59	0.00
577.75	95.96
577.92	60.85
578.08	46.81
578.24	25.75
578.40	0.00
578.56	14.04
578.72	131.07
578.88	0.00
579.04	0.00
579.21	84.26
579.37	30.43
579.53	0.00
579.69	39.79
579.85	30.43
580.01	18.72
580.17	37.45
580.33	60.85
580.49	18.72
580.65	0.00
580.82	9.36
580.98	84.26
581.14	110.01
581.30	65.54
581.46	77.24
581.62	46.81
581.78	0.00
581.94	49.15
582.10	39.79
582.26	7.02
582.42	86.60
582.58	44.47
582.74	121.71
582.90	42.13
583.06	0.00
583.22	7.02
583.38	16.38
583.54	84.26
583.70	63.19
583.86	9.36
584.02	0.00
584.18	98.30
584.34	79.58
584.50	42.13
584.66	88.94
584.82	67.88
584.98	72.56
585.14	110.01
585.30	93.62
585.46	23.41
585.62	67.88
585.78	56.17
585.94	51.49
586.10	105.32
586.26	60.85
586.42	56.17
586.58	84.26
586.74	25.75
586.90	25.75
587.06	84.26
587.22	91.28
587.38	42.13
587.54	14.04
587.70	70.22
587.86	84.26
588.02	77.24
588.18	28.09
588.34	0.00
588.49	0.00
588.65	23.41
588.81	30.43
588.97	135.75
589.13	46.81
589.29	32.77
589.45	39.79
589.61	49.15
589.77	98.30
589.93	67.88
590.08	25.75
590.24	49.15
590.40	88.94
590.56	30.43
590.72	81.92
590.88	37.45
591.04	72.56
591.20	46.81
591.35	60.85
591.51	0.00
591.67	28.09
591.83	60.85
591.99	39.79
592.15	72.56
592.31	70.22
592.46	28.09
592.62	63.19
592.78	0.00
592.94	56.17
593.10	56.17
593.26	65.54
593.41	81.92
593.57	0.00
593.73	44.47
593.89	42.13
594.05	28.09
594.20	30.43
594.36	14.04
594.52	0.00
594.68	0.00
594.84	7.02
594.99	14.04
595.15	91.28
595.31	65.54
595.47	2.34
595.62	49.15
595.78	9.36
595.94	0.00
596.10	63.19
596.25	0.00
596.41	30.43
596.57	0.00
596.73	53.83
596.88	53.83
597.04	0.00
597.20	112.35
597.36	25.75
597.51	0.00
597.67	25.75
597.83	7.02
597.99	58.51
598.14	16.38
598.30	28.09
598.46	39.79
598.61	0.00
598.77	91.28
598.93	74.90
599.09	25.75
599.24	23.41
599.40	53.83
599.56	0.00
599.71	42.13
599.87	9.36
600.03	25.75
600.18	91.28
600.34	93.62
600.50	0.00
600.65	37.45
600.81	58.51
600.97	0.00
601.12	0.00
601.28	28.09
601.44	77.24
601.59	16.38
601.75	30.43
601.91	44.47
602.06	86.60
602.22	42.13
602.37	44.47
602.53	0.00
602.69	23.41
602.84	23.41
603.00	23.41
603.16	23.41
603.31	56.17
603.47	0.00
603.62	112.35
603.78	21.06
603.94	0.00
604.09	14.04
604.25	9.36
604.40	72.56
604.56	0.00
604.71	63.19
604.87	0.00
605.03	28.09
605.18	23.41
605.34	11.70
605.49	21.06
605.65	28.09
605.80	53.83
605.96	39.79
606.12	0.00
606.27	77.24
606.43	2.34
606.58	39.79
606.74	86.60
606.89	112.35
607.05	63.19
607.20	39.79
607.36	98.30
607.51	77.24
607.67	28.09
607.82	4.68
607.98	110.01
608.13	0.00
608.29	56.17
608.44	0.00
608.60	30.43
608.75	53.83
608.91	11.70
609.06	11.70
609.22	21.06
609.37	70.22
609.53	14.04
609.68	63.19
609.84	63.19
609.99	102.98
610.15	16.38
610.30	0.00
610.46	0.00
610.61	46.81
610.76	35.11
610.92	74.90
611.07	95.96
611.23	0.00
611.38	56.17
611.54	0.00
611.69	44.47
611.84	16.38
612.00	91.28
612.15	39.79
612.31	44.47
612.46	16.38
612.62	0.00
612.77	0.00
612.92	56.17
613.08	105.32
613.23	16.38
613.39	49.15
613.54	0.00
613.69	42.13
613.85	14.04
614.00	37.45
614.15	67.88
614.31	51.49
614.46	14.04
614.62	44.47
614.77	21.06
614.92	42.13
615.08	0.00
615.23	56.17
615.38	4.68
615.54	49.15
615.69	58.51
615.84	23.41
616.00	0.00
616.15	58.51
616.30	0.00
616.46	0.00
616.61	88.94
616.76	72.56
616.92	35.11
617.07	32.77
617.22	30.43
617.37	81.92
617.53	0.00
617.68	74.90
617.83	65.54
617.99	121.71
618.14	0.00
618.29	28.09
618.45	44.47
618.60	32.77
618.75	14.04
618.90	18.72
619.06	49.15
619.21	0.00
619.36	0.00
619.51	18.72
619.67	0.00
619.82	0.00
619.97	0.00
620.12	32.77
620.28	35.11
620.43	77.24
620.58	16.38
620.73	35.11
620.89	42.13
621.04	0.00
621.19	11.70
621.34	74.90
621.49	11.70
621.65	7.02
621.80	72.56
621.95	58.51
622.10	32.77
622.25	51.49
622.41	100.64
622.56	0.00
622.71	28.09
622.86	25.75
623.01	39.79
623.16	2.34
623.32	35.11
623.47	16.38
623.62	21.06
623.77	0.00
623.92	95.96
624.07	35.11
624.23	11.70
624.38	18.72
624.53	0.00
624.68	2.34
624.83	0.00
624.98	0.00
625.13	77.24
625.29	0.00
625.44	35.11
625.59	100.64
625.74	63.19
625.89	74.90
626.04	14.04
626.19	23.41
626.34	107.66
626.49	25.75
626.65	84.26
626.80	28.09
626.95	14.04
627.10	84.26
627.25	72.56
627.40	105.32
627.55	58.51
627.70	53.83
627.85	7.02
628.00	23.41
628.15	39.79
628.30	72.56
628.45	18.72
628.60	49.15
628.76	21.06
628.91	25.75
629.06	51.49
629.21	0.00
629.36	56.17
629.51	0.00
629.66	112.35
629.81	28.09
629.96	16.38
630.11	35.11
630.26	0.00
630.41	74.90
630.56	49.15
630.71	81.92
630.86	23.41
631.01	53.83
631.16	0.00
631.31	39.79
631.46	21.06
631.61	49.15
631.76	0.00
631.91	14.04
632.06	49.15
632.21	86.60
632.36	63.19
632.51	39.79
632.66	74.90
632.81	86.60
632.96	42.13
633.10	51.49
633.25	46.81
633.40	131.07
633.55	16.38
633.70	16.38
633.85	58.51
634.00	0.00
634.15	14.04
634.30	37.45
634.45	72.56
634.60	4.68
634.75	16.38
634.90	58.51
635.05	25.75
635.19	25.75
635.34	16.38
635.49	67.88
635.64	21.06
635.79	58.51
635.94	18.72
636.09	49.15
636.24	14.04
636.39	58.51
636.53	23.41
636.68	21.06
636.83	0.00
636.98	30.43
637.13	0.00
637.28	28.09
637.43	0.00
637.57	18.72
637.72	0.00
637.87	0.00
638.02	4.68
638.17	0.00
638.32	4.68
638.46	18.72
638.61	91.28
638.76	51.49
638.91	23.41
639.06	4.68
639.20	23.41
639.35	79.58
639.50	0.00
639.65	4.68
639.80	32.77
639.94	70.22
640.09	86.60
640.24	51.49
640.39	7.02
640.54	72.56
640.68	65.54
640.83	51.49
640.98	4.68
641.13	86.60
641.27	0.00
641.42	0.00
641.57	65.54
641.72	30.43
641.86	18.72
642.01	58.51
642.16	16.38
642.31	23.41
642.45	21.06
642.60	46.81
642.75	16.38
642.90	0.00
643.04	0.00
643.19	0.00
643.34	18.72
643.48	21.06
643.63	0.00
643.78	0.00
643.93	44.47
644.07	21.06
644.22	84.26
644.37	2.34
644.51	39.79
644.66	93.62
644.81	39.79
644.95	2.34
645.10	14.04
645.25	60.85
645.39	53.83
645.54	79.58
645.69	0.00
645.83	44.47
645.98	49.15
646.13	53.83
646.27	7.02
646.42	0.00
646.57	53.83
646.71	77.24
646.86	0.00
647.00	25.75
647.15	32.77
647.30	14.04
647.44	84.26
647.59	11.70
647.74	46.81
647.88	21.06
648.03	32.77
648.17	28.09
648.32	16.38
648.47	0.00
648.61	112.35
648.76	0.00
648.90	9.36
649.05	63.19
649.20	53.83
649.34	100.64
649.49	0.00
649.63	72.56
649.78	70.22
649.92	11.70
650.07	25.75
650.21	81.92
650.36	70.22
650.51	23.41
650.65	21.06
650.80	16.38
650.94	51.49
651.09	44.47
651.23	42.13
651.38	53.83
651.52	0.00
651.67	0.00
651.81	0.00
651.96	65.54
652.10	4.68
652.25	0.00
652.39	0.00
652.54	72.56
652.68	16.38
652.83	2.34
652.97	70.22
653.12	53.83
653.26	0.00
653.41	0.00
653.55	16.38
653.70	42.13
653.84	37.45
653.99	0.00
654.13	25.75
654.27	105.32
654.42	60.85
654.56	0.00
654.71	0.00
654.85	0.00
655.00	49.15
655.14	7.02
655.29	16.38
655.43	100.64
655.57	72.56
655.72	30.43
655.86	35.11
656.01	49.15
656.15	30.43
656.30	60.85
656.44	30.43
656.58	0.00
656.73	84.26
656.87	28.09
657.01	58.51
657.16	56.17
657.30	4.68
657.45	0.00
657.59	30.43
657.73	65.54
657.88	102.98
658.02	88.94
658.16	74.90
658.31	9.36
658.45	14.04
658.60	30.43
658.74	28.09
658.88	32.77
659.03	51.49
659.17	18.72
659.31	46.81
659.46	30.43
659.60	60.85
659.74	4.68
659.89	88.94
660.03	128.73
660.17	37.45
660.32	0.00
660.46	65.54
660.60	21.06
660.74	21.06
660.89	63.19
661.03	37.45
661.17	70.22
661.32	30.43
661.46	11.70
661.60	49.15
661.74	39.79
661.89	0.00
662.03	53.83
662.17	9.36
662.31	58.51
662.46	39.79
662.60	25.75
662.74	0.00
662.88	86.60
663.03	14.04
663.17	0.00
663.31	18.72
663.45	0.00
663.60	42.13
663.74	53.83
663.88	56.17
664.02	63.19
664.17	72.56
664.31	9.36
664.45	0.00
664.59	11.70
664.73	0.00
664.88	18.72
665.02	0.00
665.16	14.04
665.30	44.47
665.44	0.00
665.59	53.83
665.73	30.43
665.87	28.09
666.01	16.38
666.15	25.75
666.29	74.90
666.44	9.36
666.58	70.22
666.72	138.09
666.86	14.04
667.00	65.54
667.14	0.00
667.28	58.51
667.43	44.47
667.57	4.68
667.71	74.90
667.85	30.43
667.99	93.62
668.13	51.49
668.27	21.06
668.41	72.56
668.56	53.83
668.70	25.75
668.84	16.38
668.98	25.75
669.12	23.41
669.26	46.81
669.40	63.19
669.54	60.85
669.68	16.38
669.82	14.04
669.96	0.00
670.10	25.75
670.25	0.00
670.39	30.43
670.53	28.09
670.67	56.17
670.81	35.11
670.95	18.72
671.09	0.00
671.23	65.54
671.37	74.90
671.51	0.00
671.65	0.00
671.79	91.28
671.93	63.19
672.07	35.11
672.21	23.41
672.35	53.83
672.49	95.96
672.63	44.47
672.77	37.45
672.91	0.00
673.05	0.00
673.19	70.22
673.33	0.00
673.47	60.85
673.61	0.00
673.75	28.09
673.89	70.22
674.03	56.17
674.17	28.09
674.31	58.51
674.45	42.13
674.59	46.81
674.73	0.00
674.87	58.51
675.01	46.81
675.15	35.11
675.29	4.68
675.43	67.88
675.56	0.00
675.70	81.92
675.84	0.00
675.98	0.00
676.12	28.09
676.26	0.00
676.40	9.36
676.54	0.00
676.68	0.00
676.82	102.98
676.96	14.04
677.10	23.41
677.23	56.17
677.37	23.41
677.51	58.51
677.65	18.72
677.79	30.43
677.93	39.79
678.07	0.00
678.21	56.17
678.34	44.47
678.48	56.17
678.62	67.88
678.76	23.41
678.90	49.15
679.04	30.43
679.18	0.00
679.31	0.00
679.45	72.56
679.59	81.92
679.73	86.60
679.87	91.28
680.00	44.47
680.14	0.00
680.28	58.51
680.42	72.56
680.56	65.54
680.70	16.38
680.83	65.54
680.97	70.22
681.11	70.22
681.25	0.00
681.39	21.06
681.52	25.75
681.66	49.15
681.80	49.15
681.94	23.41
682.07	9.36
682.21	23.41
682.35	14.04
682.49	84.26
682.62	28.09
682.76	21.06
682.90	56.17
683.04	77.24
683.17	51.49
683.31	35.11
683.45	0.00
683.59	63.19
683.72	0.00
683.86	18.72
684.00	30.43
684.13	18.72
684.27	37.45
684.41	44.47
684.55	84.26
684.68	77.24
684.82	7.02
684.96	67.88
685.09	0.00
685.23	30.43
685.37	0.00
685.50	63.19
685.64	63.19
685.78	74.90
685.91	51.49
686.05	49.15
686.19	119.37
686.32	11.70
686.46	14.04
686.60	0.00
686.73	102.98
686.87	37.45
687.01	0.00
687.14	0.00
687.28	0.00
687.42	14.04
687.55	23.41
687.69	42.13
687.82	23.41
687.96	0.00
688.10	0.00
688.23	37.45
688.37	49.15
688.50	2.34
688.64	28.09
688.78	0.00
688.91	9.36
689.05	16.38
689.18	0.00
689.32	0.00
689.46	0.00
689.59	133.41
689.73	9.36
689.86	0.00
690.00	0.00
690.13	0.00
690.27	35.11
690.41	60.85
690.54	35.11
690.68	25.75
690.81	0.00
690.95	0.00
691.08	0.00
691.22	0.00
691.35	0.00
691.49	28.09
691.62	2.34
691.76	30.43
691.89	60.85
692.03	0.00
692.16	28.09
692.30	42.13
692.43	25.75
692.57	65.54
692.70	9.36
692.84	65.54
692.97	2.34
693.11	84.26
693.24	42.13
693.38	35.11
693.51	11.70
693.65	0.00
693.78	0.00
693.92	2.34
694.05	91.28
694.19	0.00
694.32	28.09
694.45	18.72
694.59	49.15
694.72	100.64
694.86	18.72
694.99	0.00
695.13	21.06
695.26	42.13
695.39	81.92
695.53	84.26
695.66	39.79
695.80	23.41
695.93	0.00
696.07	25.75
696.20	0.00
696.33	11.70
696.47	35.11
696.60	0.00
696.73	0.00
696.87	58.51
697.00	63.19
697.14	9.36
697.27	121.71
697.40	77.24
697.54	58.51
697.67	0.00
697.80	0.00
697.94	81.92
698.07	0.00
698.21	0.00
698.34	88.94
698.47	49.15
698.61	30.43
698.74	79.58
698.87	100.64
699.01	30.43
699.14	0.00
699.27	98.30
699.40	4.68
699.54	0.00
699.67	4.68
699.80	107.66
699.94	0.00
700.07	30.43
700.20	77.24
700.34	9.36
700.47	51.49
700.60	11.70
700.73	21.06
700.87	0.00
701.00	63.19
701.13	23.41
701.26	39.79
701.40	23.41
701.53	14.04
701.66	21.06
701.79	11.70
701.93	0.00
702.06	23.41
702.19	23.41
702.32	11.70
702.46	93.62
702.59	28.09
702.72	67.88
702.85	21.06
702.99	56.17
703.12	2.34
703.25	4.68
703.38	70.22
703.51	9.36
703.65	35.11
703.78	0.00
703.91	0.00
704.04	88.94
704.17	4.68
704.31	58.51
704.44	37.45
704.57	14.04
704.70	0.00
704.83	37.45
704.96	49.15
705.10	0.00
705.23	2.34
>>>>>End Processed Spectral Data<<<<<
