SpectraSuite Data File
++++++++++++++++++++++++++++++++++++
Date: Fri Oct 04 12:13:40 GMT-05:00 2013
User: price-jones
Dark Spectrum Present: No
Reference Spectrum Present: No
Number of Sampled Component Spectra: 1
Spectrometers: USB2+H05261
Integration Time (usec): 10000 (USB2+H05261)
Spectra Averaged: 1 (USB2+H05261)
Boxcar Smoothing: 0 (USB2+H05261)
Correct for Electrical Dark: No (USB2+H05261)
Strobe/Lamp Enabled: No (USB2+H05261)
Correct for Detector Non-linearity: No (USB2+H05261)
Correct for Stray Light: No (USB2+H05261)
Number of Pixels in Processed Spectrum: 2048
>>>>>Begin Processed Spectral Data<<<<<
365.73	32.77
365.92	32.77
366.12	32.77
366.32	0.00
366.52	0.00
366.72	0.00
366.91	0.00
367.11	0.00
367.31	0.00
367.51	0.00
367.70	0.00
367.90	0.00
368.10	0.00
368.30	0.00
368.49	0.00
368.69	0.00
368.89	0.00
369.09	0.00
369.28	0.00
369.48	0.00
369.68	0.00
369.87	0.00
370.07	0.00
370.27	0.00
370.47	0.00
370.66	0.00
370.86	0.00
371.06	0.00
371.25	0.00
371.45	0.00
371.65	0.00
371.84	0.00
372.04	0.00
372.24	14.04
372.44	0.00
372.63	0.00
372.83	25.75
373.03	0.00
373.22	0.00
373.42	74.90
373.62	14.04
373.81	0.00
374.01	0.00
374.21	35.11
374.40	14.04
374.60	23.41
374.79	0.00
374.99	28.09
375.19	30.43
375.38	74.90
375.58	0.00
375.78	0.00
375.97	58.51
376.17	7.02
376.37	14.04
376.56	25.75
376.76	9.36
376.95	23.41
377.15	0.00
377.35	2.34
377.54	53.83
377.74	9.36
377.93	21.06
378.13	35.11
378.33	21.06
378.52	9.36
378.72	0.00
378.91	16.38
379.11	0.00
379.31	30.43
379.50	70.22
379.70	28.09
379.89	44.47
380.09	30.43
380.28	0.00
380.48	65.54
380.68	11.70
380.87	46.81
381.07	0.00
381.26	14.04
381.46	0.00
381.65	51.49
381.85	11.70
382.04	18.72
382.24	11.70
382.43	4.68
382.63	32.77
382.83	0.00
383.02	0.00
383.22	72.56
383.41	32.77
383.61	112.35
383.80	30.43
384.00	18.72
384.19	25.75
384.39	37.45
384.58	49.15
384.78	30.43
384.97	0.00
385.17	9.36
385.36	14.04
385.56	39.79
385.75	46.81
385.95	0.00
386.14	0.00
386.34	74.90
386.53	39.79
386.72	44.47
386.92	32.77
387.11	44.47
387.31	63.19
387.50	74.90
387.70	39.79
387.89	0.00
388.09	0.00
388.28	49.15
388.48	30.43
388.67	88.94
388.86	32.77
389.06	93.62
389.25	0.00
389.45	30.43
389.64	0.00
389.84	0.00
390.03	65.54
390.22	18.72
390.42	0.00
390.61	42.13
390.81	30.43
391.00	21.06
391.19	16.38
391.39	28.09
391.58	11.70
391.78	4.68
391.97	32.77
392.16	58.51
392.36	60.85
392.55	0.00
392.75	0.00
392.94	30.43
393.13	4.68
393.33	0.00
393.52	21.06
393.71	63.19
393.91	23.41
394.10	74.90
394.29	0.00
394.49	30.43
394.68	0.00
394.88	25.75
395.07	21.06
395.26	46.81
395.46	4.68
395.65	65.54
395.84	37.45
396.04	0.00
396.23	0.00
396.42	7.02
396.62	14.04
396.81	0.00
397.00	16.38
397.19	53.83
397.39	0.00
397.58	56.17
397.77	0.00
397.97	0.00
398.16	11.70
398.35	49.15
398.55	44.47
398.74	0.00
398.93	56.17
399.12	18.72
399.32	42.13
399.51	56.17
399.70	72.56
399.90	37.45
400.09	42.13
400.28	86.60
400.47	0.00
400.67	74.90
400.86	39.79
401.05	0.00
401.24	18.72
401.44	67.88
401.63	44.47
401.82	35.11
402.01	126.39
402.21	81.92
402.40	28.09
402.59	0.00
402.78	28.09
402.97	112.35
403.17	23.41
403.36	21.06
403.55	65.54
403.74	0.00
403.93	42.13
404.13	51.49
404.32	0.00
404.51	28.09
404.70	0.00
404.89	14.04
405.09	21.06
405.28	11.70
405.47	37.45
405.66	60.85
405.85	35.11
406.05	81.92
406.24	39.79
406.43	39.79
406.62	0.00
406.81	4.68
407.00	11.70
407.20	35.11
407.39	98.30
407.58	21.06
407.77	37.45
407.96	0.00
408.15	35.11
408.34	46.81
408.54	49.15
408.73	14.04
408.92	0.00
409.11	25.75
409.30	131.07
409.49	0.00
409.68	23.41
409.87	86.60
410.07	0.00
410.26	42.13
410.45	53.83
410.64	37.45
410.83	102.98
411.02	21.06
411.21	30.43
411.40	25.75
411.59	37.45
411.78	39.79
411.98	95.96
412.17	74.90
412.36	39.79
412.55	70.22
412.74	121.71
412.93	60.85
413.12	25.75
413.31	0.00
413.50	84.26
413.69	21.06
413.88	42.13
414.07	0.00
414.26	2.34
414.45	0.00
414.64	60.85
414.83	0.00
415.02	39.79
415.22	7.02
415.41	0.00
415.60	18.72
415.79	42.13
415.98	74.90
416.17	2.34
416.36	58.51
416.55	65.54
416.74	35.11
416.93	58.51
417.12	86.60
417.31	53.83
417.50	39.79
417.69	4.68
417.88	21.06
418.07	39.79
418.26	86.60
418.45	114.69
418.64	46.81
418.83	7.02
419.02	112.35
419.21	4.68
419.39	14.04
419.58	70.22
419.77	56.17
419.96	102.98
420.15	102.98
420.34	16.38
420.53	63.19
420.72	7.02
420.91	18.72
421.10	0.00
421.29	56.17
421.48	100.64
421.67	117.03
421.86	0.00
422.05	0.00
422.24	67.88
422.43	35.11
422.61	18.72
422.80	72.56
422.99	35.11
423.18	119.37
423.37	95.96
423.56	74.90
423.75	56.17
423.94	11.70
424.13	37.45
424.32	63.19
424.50	56.17
424.69	9.36
424.88	67.88
425.07	4.68
425.26	91.28
425.45	9.36
425.64	46.81
425.83	100.64
426.01	74.90
426.20	93.62
426.39	9.36
426.58	95.96
426.77	65.54
426.96	37.45
427.15	63.19
427.33	37.45
427.52	77.24
427.71	0.00
427.90	9.36
428.09	70.22
428.28	42.13
428.46	42.13
428.65	91.28
428.84	0.00
429.03	46.81
429.22	18.72
429.40	56.17
429.59	72.56
429.78	21.06
429.97	37.45
430.16	35.11
430.34	0.00
430.53	16.38
430.72	32.77
430.91	49.15
431.10	42.13
431.28	65.54
431.47	0.00
431.66	86.60
431.85	98.30
432.03	32.77
432.22	56.17
432.41	39.79
432.60	79.58
432.79	11.70
432.97	63.19
433.16	49.15
433.35	32.77
433.54	67.88
433.72	121.71
433.91	65.54
434.10	135.75
434.28	39.79
434.47	51.49
434.66	18.72
434.85	32.77
435.03	63.19
435.22	63.19
435.41	16.38
435.59	60.85
435.78	93.62
435.97	35.11
436.16	67.88
436.34	46.81
436.53	44.47
436.72	18.72
436.90	46.81
437.09	42.13
437.28	0.00
437.46	124.05
437.65	67.88
437.84	91.28
438.02	46.81
438.21	46.81
438.40	35.11
438.58	93.62
438.77	51.49
438.96	65.54
439.14	81.92
439.33	42.13
439.52	37.45
439.70	37.45
439.89	49.15
440.08	67.88
440.26	58.51
440.45	9.36
440.63	86.60
440.82	49.15
441.01	28.09
441.19	102.98
441.38	51.49
441.57	79.58
441.75	39.79
441.94	42.13
442.12	21.06
442.31	42.13
442.50	39.79
442.68	91.28
442.87	110.01
443.05	117.03
443.24	133.41
443.43	35.11
443.61	63.19
443.80	16.38
443.98	32.77
444.17	0.00
444.35	60.85
444.54	49.15
444.73	35.11
444.91	98.30
445.10	60.85
445.28	0.00
445.47	51.49
445.65	72.56
445.84	18.72
446.02	42.13
446.21	58.51
446.39	21.06
446.58	0.00
446.77	37.45
446.95	72.56
447.14	91.28
447.32	114.69
447.51	93.62
447.69	63.19
447.88	107.66
448.06	58.51
448.25	58.51
448.43	25.75
448.62	79.58
448.80	16.38
448.99	39.79
449.17	72.56
449.36	86.60
449.54	0.00
449.73	39.79
449.91	42.13
450.10	37.45
450.28	60.85
450.46	16.38
450.65	49.15
450.83	37.45
451.02	58.51
451.20	0.00
451.39	81.92
451.57	49.15
451.76	39.79
451.94	44.47
452.13	37.45
452.31	28.09
452.49	72.56
452.68	42.13
452.86	32.77
453.05	74.90
453.23	72.56
453.42	58.51
453.60	110.01
453.78	23.41
453.97	95.96
454.15	49.15
454.34	112.35
454.52	42.13
454.70	110.01
454.89	44.47
455.07	67.88
455.26	107.66
455.44	16.38
455.62	35.11
455.81	46.81
455.99	72.56
456.17	56.17
456.36	86.60
456.54	30.43
456.73	0.00
456.91	46.81
457.09	84.26
457.28	81.92
457.46	35.11
457.64	53.83
457.83	63.19
458.01	0.00
458.19	67.88
458.38	16.38
458.56	0.00
458.74	60.85
458.93	58.51
459.11	81.92
459.29	0.00
459.48	65.54
459.66	67.88
459.84	16.38
460.03	112.35
460.21	84.26
460.39	60.85
460.57	0.00
460.76	0.00
460.94	112.35
461.12	4.68
461.31	35.11
461.49	28.09
461.67	46.81
461.85	91.28
462.04	91.28
462.22	112.35
462.40	81.92
462.59	0.00
462.77	131.07
462.95	49.15
463.13	114.69
463.32	65.54
463.50	152.13
463.68	65.54
463.86	23.41
464.05	0.00
464.23	44.47
464.41	46.81
464.59	32.77
464.78	84.26
464.96	49.15
465.14	56.17
465.32	60.85
465.50	44.47
465.69	0.00
465.87	4.68
466.05	65.54
466.23	98.30
466.41	72.56
466.60	74.90
466.78	25.75
466.96	51.49
467.14	39.79
467.32	65.54
467.51	67.88
467.69	121.71
467.87	93.62
468.05	72.56
468.23	65.54
468.41	44.47
468.60	44.47
468.78	121.71
468.96	18.72
469.14	42.13
469.32	0.00
469.50	91.28
469.69	81.92
469.87	9.36
470.05	84.26
470.23	39.79
470.41	79.58
470.59	107.66
470.77	28.09
470.95	49.15
471.14	91.28
471.32	65.54
471.50	49.15
471.68	67.88
471.86	49.15
472.04	25.75
472.22	79.58
472.40	86.60
472.58	21.06
472.77	28.09
472.95	32.77
473.13	100.64
473.31	95.96
473.49	60.85
473.67	18.72
473.85	18.72
474.03	16.38
474.21	42.13
474.39	44.47
474.57	25.75
474.75	79.58
474.93	65.54
475.12	86.60
475.30	46.81
475.48	11.70
475.66	42.13
475.84	49.15
476.02	65.54
476.20	42.13
476.38	16.38
476.56	60.85
476.74	63.19
476.92	4.68
477.10	117.03
477.28	0.00
477.46	91.28
477.64	46.81
477.82	14.04
478.00	14.04
478.18	84.26
478.36	105.32
478.54	28.09
478.72	39.79
478.90	100.64
479.08	98.30
479.26	117.03
479.44	42.13
479.62	28.09
479.80	70.22
479.98	58.51
480.16	21.06
480.34	72.56
480.52	60.85
480.70	53.83
480.88	51.49
481.06	28.09
481.24	16.38
481.41	58.51
481.59	102.98
481.77	70.22
481.95	124.05
482.13	95.96
482.31	56.17
482.49	93.62
482.67	4.68
482.85	11.70
483.03	65.54
483.21	25.75
483.39	81.92
483.57	79.58
483.74	44.47
483.92	58.51
484.10	77.24
484.28	35.11
484.46	131.07
484.64	51.49
484.82	77.24
485.00	63.19
485.18	30.43
485.35	100.64
485.53	49.15
485.71	102.98
485.89	72.56
486.07	67.88
486.25	124.05
486.43	30.43
486.61	79.58
486.78	30.43
486.96	67.88
487.14	93.62
487.32	23.41
487.50	74.90
487.68	91.28
487.85	42.13
488.03	138.09
488.21	84.26
488.39	88.94
488.57	28.09
488.75	37.45
488.92	93.62
489.10	77.24
489.28	98.30
489.46	88.94
489.64	60.85
489.81	67.88
489.99	58.51
490.17	145.11
490.35	46.81
490.53	53.83
490.70	14.04
490.88	93.62
491.06	28.09
491.24	39.79
491.41	128.73
491.59	63.19
491.77	44.47
491.95	95.96
492.13	107.66
492.30	74.90
492.48	84.26
492.66	56.17
492.84	58.51
493.01	72.56
493.19	88.94
493.37	35.11
493.54	21.06
493.72	46.81
493.90	121.71
494.08	67.88
494.25	67.88
494.43	102.98
494.61	110.01
494.79	39.79
494.96	100.64
495.14	53.83
495.32	53.83
495.49	35.11
495.67	107.66
495.85	56.17
496.02	166.18
496.20	98.30
496.38	100.64
496.55	32.77
496.73	102.98
496.91	67.88
497.09	86.60
497.26	30.43
497.44	60.85
497.62	49.15
497.79	14.04
497.97	53.83
498.14	107.66
498.32	74.90
498.50	42.13
498.67	95.96
498.85	72.56
499.03	102.98
499.20	74.90
499.38	163.84
499.56	81.92
499.73	74.90
499.91	70.22
500.08	44.47
500.26	0.00
500.44	93.62
500.61	42.13
500.79	67.88
500.97	124.05
501.14	51.49
501.32	39.79
501.49	65.54
501.67	65.54
501.84	98.30
502.02	70.22
502.20	133.41
502.37	110.01
502.55	93.62
502.72	39.79
502.90	88.94
503.07	37.45
503.25	67.88
503.43	60.85
503.60	91.28
503.78	56.17
503.95	58.51
504.13	86.60
504.30	105.32
504.48	105.32
504.65	100.64
504.83	46.81
505.01	124.05
505.18	156.82
505.36	159.16
505.53	86.60
505.71	70.22
505.88	81.92
506.06	30.43
506.23	98.30
506.41	126.39
506.58	58.51
506.76	79.58
506.93	21.06
507.11	91.28
507.28	30.43
507.46	39.79
507.63	53.83
507.81	88.94
507.98	32.77
508.16	110.01
508.33	51.49
508.50	117.03
508.68	86.60
508.85	145.11
509.03	133.41
509.20	77.24
509.38	81.92
509.55	93.62
509.73	98.30
509.90	81.92
510.08	100.64
510.25	117.03
510.42	131.07
510.60	51.49
510.77	46.81
510.95	44.47
511.12	77.24
511.30	112.35
511.47	79.58
511.64	117.03
511.82	49.15
511.99	37.45
512.17	93.62
512.34	112.35
512.51	88.94
512.69	63.19
512.86	84.26
513.04	56.17
513.21	91.28
513.38	25.75
513.56	56.17
513.73	58.51
513.90	102.98
514.08	63.19
514.25	0.00
514.43	100.64
514.60	117.03
514.77	84.26
514.95	84.26
515.12	37.45
515.29	117.03
515.47	46.81
515.64	84.26
515.81	72.56
515.99	39.79
516.16	44.47
516.33	18.72
516.51	42.13
516.68	46.81
516.85	84.26
517.03	117.03
517.20	79.58
517.37	114.69
517.54	77.24
517.72	79.58
517.89	131.07
518.06	44.47
518.24	60.85
518.41	74.90
518.58	67.88
518.75	49.15
518.93	60.85
519.10	114.69
519.27	88.94
519.45	84.26
519.62	154.48
519.79	67.88
519.96	98.30
520.14	81.92
520.31	114.69
520.48	35.11
520.65	86.60
520.83	93.62
521.00	156.82
521.17	84.26
521.34	84.26
521.52	107.66
521.69	74.90
521.86	95.96
522.03	72.56
522.20	60.85
522.38	91.28
522.55	133.41
522.72	51.49
522.89	56.17
523.07	56.17
523.24	88.94
523.41	39.79
523.58	114.69
523.75	100.64
523.92	131.07
524.10	114.69
524.27	131.07
524.44	117.03
524.61	124.05
524.78	51.49
524.96	74.90
525.13	35.11
525.30	140.43
525.47	114.69
525.64	21.06
525.81	70.22
525.98	110.01
526.16	72.56
526.33	124.05
526.50	121.71
526.67	9.36
526.84	25.75
527.01	37.45
527.18	112.35
527.36	30.43
527.53	74.90
527.70	126.39
527.87	35.11
528.04	124.05
528.21	100.64
528.38	49.15
528.55	23.41
528.72	121.71
528.89	107.66
529.07	37.45
529.24	0.00
529.41	46.81
529.58	81.92
529.75	124.05
529.92	95.96
530.09	63.19
530.26	93.62
530.43	49.15
530.60	88.94
530.77	138.09
530.94	67.88
531.11	110.01
531.28	67.88
531.46	49.15
531.63	56.17
531.80	98.30
531.97	98.30
532.14	93.62
532.31	140.43
532.48	112.35
532.65	53.83
532.82	58.51
532.99	46.81
533.16	93.62
533.33	114.69
533.50	79.58
533.67	32.77
533.84	86.60
534.01	124.05
534.18	131.07
534.35	98.30
534.52	105.32
534.69	84.26
534.86	37.45
535.03	86.60
535.20	60.85
535.37	86.60
535.54	88.94
535.71	95.96
535.88	91.28
536.05	70.22
536.22	39.79
536.38	74.90
536.55	149.79
536.72	147.45
536.89	98.30
537.06	117.03
537.23	140.43
537.40	21.06
537.57	86.60
537.74	49.15
537.91	70.22
538.08	25.75
538.25	131.07
538.42	42.13
538.59	91.28
538.75	79.58
538.92	98.30
539.09	72.56
539.26	84.26
539.43	74.90
539.60	56.17
539.77	58.51
539.94	138.09
540.11	49.15
540.28	77.24
540.44	70.22
540.61	56.17
540.78	42.13
540.95	88.94
541.12	67.88
541.29	63.19
541.46	18.72
541.62	133.41
541.79	102.98
541.96	63.19
542.13	58.51
542.30	37.45
542.47	49.15
542.63	110.01
542.80	74.90
542.97	93.62
543.14	42.13
543.31	133.41
543.48	205.97
543.64	91.28
543.81	53.83
543.98	67.88
544.15	126.39
544.32	135.75
544.48	114.69
544.65	72.56
544.82	67.88
544.99	67.88
545.16	63.19
545.32	86.60
545.49	98.30
545.66	63.19
545.83	114.69
546.00	95.96
546.16	112.35
546.33	100.64
546.50	142.77
546.67	49.15
546.83	145.11
547.00	133.41
547.17	58.51
547.34	100.64
547.50	67.88
547.67	117.03
547.84	77.24
548.00	37.45
548.17	77.24
548.34	74.90
548.51	133.41
548.67	49.15
548.84	18.72
549.01	67.88
549.18	140.43
549.34	95.96
549.51	93.62
549.68	65.54
549.84	72.56
550.01	140.43
550.18	72.56
550.34	121.71
550.51	72.56
550.68	117.03
550.84	58.51
551.01	42.13
551.18	128.73
551.34	88.94
551.51	124.05
551.68	93.62
551.84	49.15
552.01	145.11
552.18	95.96
552.34	110.01
552.51	117.03
552.68	86.60
552.84	46.81
553.01	145.11
553.18	70.22
553.34	72.56
553.51	46.81
553.67	46.81
553.84	112.35
554.01	126.39
554.17	159.16
554.34	72.56
554.51	67.88
554.67	86.60
554.84	42.13
555.00	32.77
555.17	88.94
555.33	133.41
555.50	18.72
555.67	107.66
555.83	119.37
556.00	4.68
556.16	124.05
556.33	74.90
556.50	70.22
556.66	65.54
556.83	126.39
556.99	51.49
557.16	102.98
557.32	67.88
557.49	102.98
557.65	30.43
557.82	37.45
557.98	131.07
558.15	79.58
558.32	65.54
558.48	126.39
558.65	14.04
558.81	98.30
558.98	161.50
559.14	166.18
559.31	152.13
559.47	102.98
559.64	74.90
559.80	105.32
559.97	72.56
560.13	121.71
560.30	133.41
560.46	112.35
560.63	98.30
560.79	51.49
560.96	18.72
561.12	35.11
561.29	91.28
561.45	156.82
561.61	84.26
561.78	37.45
561.94	79.58
562.11	124.05
562.27	105.32
562.44	63.19
562.60	84.26
562.77	2.34
562.93	49.15
563.10	74.90
563.26	21.06
563.42	102.98
563.59	133.41
563.75	60.85
563.92	63.19
564.08	81.92
564.24	112.35
564.41	95.96
564.57	58.51
564.74	100.64
564.90	18.72
565.07	67.88
565.23	35.11
565.39	88.94
565.56	58.51
565.72	11.70
565.88	25.75
566.05	107.66
566.21	100.64
566.38	65.54
566.54	91.28
566.70	7.02
566.87	65.54
567.03	142.77
567.19	72.56
567.36	124.05
567.52	159.16
567.68	102.98
567.85	51.49
568.01	42.13
568.17	63.19
568.34	93.62
568.50	126.39
568.66	93.62
568.83	110.01
568.99	119.37
569.15	11.70
569.32	74.90
569.48	95.96
569.64	74.90
569.81	65.54
569.97	72.56
570.13	88.94
570.30	74.90
570.46	53.83
570.62	60.85
570.78	32.77
570.95	77.24
571.11	58.51
571.27	128.73
571.43	84.26
571.60	112.35
571.76	102.98
571.92	98.30
572.09	112.35
572.25	119.37
572.41	105.32
572.57	63.19
572.74	140.43
572.90	81.92
573.06	35.11
573.22	112.35
573.38	35.11
573.55	81.92
573.71	46.81
573.87	37.45
574.03	60.85
574.20	65.54
574.36	79.58
574.52	70.22
574.68	107.66
574.84	72.56
575.01	81.92
575.17	93.62
575.33	110.01
575.49	86.60
575.65	105.32
575.82	84.26
575.98	91.28
576.14	107.66
576.30	84.26
576.46	95.96
576.62	44.47
576.79	56.17
576.95	140.43
577.11	110.01
577.27	60.85
577.43	79.58
577.59	67.88
577.75	42.13
577.92	23.41
578.08	112.35
578.24	72.56
578.40	124.05
578.56	74.90
578.72	0.00
578.88	124.05
579.04	51.49
579.21	107.66
579.37	84.26
579.53	161.50
579.69	0.00
579.85	79.58
580.01	58.51
580.17	70.22
580.33	56.17
580.49	0.00
580.65	53.83
580.82	58.51
580.98	60.85
581.14	0.00
581.30	56.17
581.46	86.60
581.62	142.77
581.78	32.77
581.94	91.28
582.10	138.09
582.26	79.58
582.42	91.28
582.58	23.41
582.74	124.05
582.90	133.41
583.06	105.32
583.22	32.77
583.38	74.90
583.54	84.26
583.70	63.19
583.86	60.85
584.02	46.81
584.18	77.24
584.34	44.47
584.50	77.24
584.66	84.26
584.82	58.51
584.98	112.35
585.14	35.11
585.30	37.45
585.46	81.92
585.62	79.58
585.78	110.01
585.94	42.13
586.10	51.49
586.26	49.15
586.42	88.94
586.58	18.72
586.74	102.98
586.90	124.05
587.06	35.11
587.22	84.26
587.38	9.36
587.54	28.09
587.70	58.51
587.86	42.13
588.02	28.09
588.18	81.92
588.34	51.49
588.49	77.24
588.65	28.09
588.81	91.28
588.97	37.45
589.13	65.54
589.29	37.45
589.45	25.75
589.61	58.51
589.77	58.51
589.93	100.64
590.08	60.85
590.24	63.19
590.40	58.51
590.56	67.88
590.72	67.88
590.88	30.43
591.04	81.92
591.20	121.71
591.35	49.15
591.51	23.41
591.67	117.03
591.83	0.00
591.99	46.81
592.15	60.85
592.31	105.32
592.46	112.35
592.62	0.00
592.78	67.88
592.94	49.15
593.10	86.60
593.26	65.54
593.41	100.64
593.57	53.83
593.73	39.79
593.89	60.85
594.05	21.06
594.20	65.54
594.36	124.05
594.52	39.79
594.68	42.13
594.84	39.79
594.99	91.28
595.15	95.96
595.31	14.04
595.47	93.62
595.62	91.28
595.78	63.19
595.94	84.26
596.10	93.62
596.25	110.01
596.41	128.73
596.57	44.47
596.73	88.94
596.88	81.92
597.04	98.30
597.20	100.64
597.36	105.32
597.51	86.60
597.67	9.36
597.83	65.54
597.99	67.88
598.14	121.71
598.30	74.90
598.46	0.00
598.61	58.51
598.77	46.81
598.93	74.90
599.09	110.01
599.24	93.62
599.40	147.45
599.56	93.62
599.71	63.19
599.87	105.32
600.03	84.26
600.18	70.22
600.34	105.32
600.50	102.98
600.65	28.09
600.81	70.22
600.97	2.34
601.12	39.79
601.28	65.54
601.44	110.01
601.59	0.00
601.75	117.03
601.91	95.96
602.06	16.38
602.22	53.83
602.37	60.85
602.53	16.38
602.69	79.58
602.84	60.85
603.00	117.03
603.16	86.60
603.31	58.51
603.47	58.51
603.62	119.37
603.78	46.81
603.94	42.13
604.09	49.15
604.25	49.15
604.40	44.47
604.56	39.79
604.71	56.17
604.87	2.34
605.03	84.26
605.18	53.83
605.34	77.24
605.49	126.39
605.65	44.47
605.80	79.58
605.96	126.39
606.12	74.90
606.27	23.41
606.43	70.22
606.58	74.90
606.74	0.00
606.89	30.43
607.05	135.75
607.20	65.54
607.36	23.41
607.51	81.92
607.67	128.73
607.82	44.47
607.98	74.90
608.13	21.06
608.29	65.54
608.44	65.54
608.60	72.56
608.75	98.30
608.91	84.26
609.06	79.58
609.22	93.62
609.37	77.24
609.53	39.79
609.68	182.56
609.84	67.88
609.99	72.56
610.15	77.24
610.30	44.47
610.46	86.60
610.61	53.83
610.76	121.71
610.92	9.36
611.07	124.05
611.23	81.92
611.38	53.83
611.54	14.04
611.69	121.71
611.84	74.90
612.00	95.96
612.15	56.17
612.31	84.26
612.46	91.28
612.62	88.94
612.77	49.15
612.92	11.70
613.08	56.17
613.23	58.51
613.39	51.49
613.54	70.22
613.69	9.36
613.85	100.64
614.00	42.13
614.15	7.02
614.31	21.06
614.46	58.51
614.62	49.15
614.77	16.38
614.92	23.41
615.08	37.45
615.23	72.56
615.38	72.56
615.54	30.43
615.69	88.94
615.84	91.28
616.00	107.66
616.15	77.24
616.30	105.32
616.46	72.56
616.61	102.98
616.76	84.26
616.92	81.92
617.07	102.98
617.22	56.17
617.37	102.98
617.53	100.64
617.68	0.00
617.83	25.75
617.99	0.00
618.14	84.26
618.29	156.82
618.45	65.54
618.60	11.70
618.75	84.26
618.90	30.43
619.06	91.28
619.21	49.15
619.36	58.51
619.51	84.26
619.67	9.36
619.82	28.09
619.97	117.03
620.12	23.41
620.28	93.62
620.43	0.00
620.58	60.85
620.73	114.69
620.89	91.28
621.04	86.60
621.19	102.98
621.34	30.43
621.49	128.73
621.65	100.64
621.80	44.47
621.95	126.39
622.10	102.98
622.25	65.54
622.41	28.09
622.56	56.17
622.71	65.54
622.86	63.19
623.01	112.35
623.16	81.92
623.32	105.32
623.47	46.81
623.62	128.73
623.77	152.13
623.92	46.81
624.07	25.75
624.23	105.32
624.38	23.41
624.53	44.47
624.68	74.90
624.83	100.64
624.98	91.28
625.13	35.11
625.29	58.51
625.44	121.71
625.59	93.62
625.74	63.19
625.89	42.13
626.04	49.15
626.19	124.05
626.34	98.30
626.49	35.11
626.65	91.28
626.80	114.69
626.95	110.01
627.10	28.09
627.25	117.03
627.40	51.49
627.55	117.03
627.70	60.85
627.85	0.00
628.00	58.51
628.15	77.24
628.30	53.83
628.45	77.24
628.60	16.38
628.76	93.62
628.91	53.83
629.06	0.00
629.21	18.72
629.36	42.13
629.51	70.22
629.66	18.72
629.81	44.47
629.96	30.43
630.11	98.30
630.26	126.39
630.41	74.90
630.56	128.73
630.71	44.47
630.86	0.00
631.01	60.85
631.16	7.02
631.31	93.62
631.46	126.39
631.61	86.60
631.76	37.45
631.91	0.00
632.06	4.68
632.21	63.19
632.36	70.22
632.51	0.00
632.66	110.01
632.81	51.49
632.96	84.26
633.10	81.92
633.25	74.90
633.40	67.88
633.55	133.41
633.70	77.24
633.85	77.24
634.00	51.49
634.15	74.90
634.30	42.13
634.45	60.85
634.60	49.15
634.75	32.77
634.90	114.69
635.05	86.60
635.19	56.17
635.34	23.41
635.49	51.49
635.64	67.88
635.79	86.60
635.94	58.51
636.09	128.73
636.24	77.24
636.39	56.17
636.53	65.54
636.68	114.69
636.83	0.00
636.98	63.19
637.13	70.22
637.28	30.43
637.43	49.15
637.57	93.62
637.72	51.49
637.87	72.56
638.02	32.77
638.17	86.60
638.32	60.85
638.46	72.56
638.61	77.24
638.76	53.83
638.91	30.43
639.06	21.06
639.20	91.28
639.35	67.88
639.50	79.58
639.65	86.60
639.80	77.24
639.94	42.13
640.09	37.45
640.24	16.38
640.39	46.81
640.54	42.13
640.68	56.17
640.83	114.69
640.98	112.35
641.13	72.56
641.27	39.79
641.42	4.68
641.57	105.32
641.72	60.85
641.86	49.15
642.01	28.09
642.16	81.92
642.31	58.51
642.45	112.35
642.60	16.38
642.75	79.58
642.90	88.94
643.04	91.28
643.19	84.26
643.34	32.77
643.48	53.83
643.63	44.47
643.78	95.96
643.93	77.24
644.07	0.00
644.22	81.92
644.37	149.79
644.51	74.90
644.66	25.75
644.81	14.04
644.95	28.09
645.10	49.15
645.25	25.75
645.39	0.00
645.54	72.56
645.69	81.92
645.83	98.30
645.98	119.37
646.13	44.47
646.27	39.79
646.42	0.00
646.57	0.00
646.71	42.13
646.86	23.41
647.00	86.60
647.15	102.98
647.30	95.96
647.44	128.73
647.59	39.79
647.74	110.01
647.88	56.17
648.03	93.62
648.17	58.51
648.32	28.09
648.47	67.88
648.61	60.85
648.76	23.41
648.90	100.64
649.05	121.71
649.20	65.54
649.34	72.56
649.49	37.45
649.63	21.06
649.78	79.58
649.92	42.13
650.07	0.00
650.21	70.22
650.36	77.24
650.51	35.11
650.65	126.39
650.80	102.98
650.94	58.51
651.09	70.22
651.23	21.06
651.38	93.62
651.52	28.09
651.67	18.72
651.81	0.00
651.96	23.41
652.10	49.15
652.25	9.36
652.39	67.88
652.54	60.85
652.68	44.47
652.83	86.60
652.97	77.24
653.12	18.72
653.26	117.03
653.41	0.00
653.55	53.83
653.70	58.51
653.84	16.38
653.99	0.00
654.13	79.58
654.27	79.58
654.42	37.45
654.56	23.41
654.71	30.43
654.85	39.79
655.00	21.06
655.14	79.58
655.29	30.43
655.43	72.56
655.57	37.45
655.72	30.43
655.86	28.09
656.01	0.00
656.15	21.06
656.30	56.17
656.44	86.60
656.58	53.83
656.73	0.00
656.87	42.13
657.01	46.81
657.16	74.90
657.30	14.04
657.45	70.22
657.59	95.96
657.73	28.09
657.88	58.51
658.02	58.51
658.16	49.15
658.31	42.13
658.45	65.54
658.60	79.58
658.74	67.88
658.88	39.79
659.03	44.47
659.17	79.58
659.31	42.13
659.46	77.24
659.60	79.58
659.74	102.98
659.89	30.43
660.03	25.75
660.17	53.83
660.32	58.51
660.46	44.47
660.60	126.39
660.74	30.43
660.89	63.19
661.03	84.26
661.17	79.58
661.32	11.70
661.46	23.41
661.60	70.22
661.74	107.66
661.89	51.49
662.03	37.45
662.17	23.41
662.31	11.70
662.46	65.54
662.60	0.00
662.74	74.90
662.88	60.85
663.03	0.00
663.17	0.00
663.31	60.85
663.45	126.39
663.60	30.43
663.74	30.43
663.88	98.30
664.02	46.81
664.17	39.79
664.31	72.56
664.45	37.45
664.59	14.04
664.73	32.77
664.88	133.41
665.02	44.47
665.16	74.90
665.30	70.22
665.44	65.54
665.59	60.85
665.73	65.54
665.87	4.68
666.01	25.75
666.15	98.30
666.29	46.81
666.44	0.00
666.58	51.49
666.72	88.94
666.86	35.11
667.00	11.70
667.14	49.15
667.28	72.56
667.43	0.00
667.57	88.94
667.71	81.92
667.85	7.02
667.99	49.15
668.13	32.77
668.27	60.85
668.41	74.90
668.56	77.24
668.70	0.00
668.84	25.75
668.98	81.92
669.12	88.94
669.26	81.92
669.40	46.81
669.54	39.79
669.68	46.81
669.82	39.79
669.96	7.02
670.10	44.47
670.25	28.09
670.39	86.60
670.53	44.47
670.67	0.00
670.81	0.00
670.95	72.56
671.09	53.83
671.23	72.56
671.37	56.17
671.51	25.75
671.65	30.43
671.79	46.81
671.93	98.30
672.07	133.41
672.21	86.60
672.35	79.58
672.49	28.09
672.63	56.17
672.77	35.11
672.91	18.72
673.05	46.81
673.19	11.70
673.33	65.54
673.47	53.83
673.61	86.60
673.75	49.15
673.89	37.45
674.03	0.00
674.17	67.88
674.31	86.60
674.45	72.56
674.59	49.15
674.73	63.19
674.87	35.11
675.01	56.17
675.15	32.77
675.29	49.15
675.43	42.13
675.56	107.66
675.70	51.49
675.84	131.07
675.98	7.02
676.12	67.88
676.26	58.51
676.40	35.11
676.54	100.64
676.68	67.88
676.82	16.38
676.96	74.90
677.10	70.22
677.23	39.79
677.37	49.15
677.51	65.54
677.65	46.81
677.79	67.88
677.93	32.77
678.07	58.51
678.21	46.81
678.34	58.51
678.48	51.49
678.62	46.81
678.76	70.22
678.90	30.43
679.04	168.52
679.18	7.02
679.31	79.58
679.45	105.32
679.59	32.77
679.73	51.49
679.87	102.98
680.00	49.15
680.14	0.00
680.28	7.02
680.42	23.41
680.56	18.72
680.70	74.90
680.83	25.75
680.97	91.28
681.11	44.47
681.25	42.13
681.39	42.13
681.52	49.15
681.66	56.17
681.80	60.85
681.94	18.72
682.07	4.68
682.21	58.51
682.35	44.47
682.49	25.75
682.62	124.05
682.76	0.00
682.90	0.00
683.04	42.13
683.17	0.00
683.31	0.00
683.45	39.79
683.59	53.83
683.72	0.00
683.86	67.88
684.00	53.83
684.13	88.94
684.27	11.70
684.41	105.32
684.55	18.72
684.68	16.38
684.82	44.47
684.96	56.17
685.09	102.98
685.23	67.88
685.37	25.75
685.50	4.68
685.64	81.92
685.78	39.79
685.91	63.19
686.05	53.83
686.19	32.77
686.32	42.13
686.46	58.51
686.60	60.85
686.73	81.92
686.87	32.77
687.01	11.70
687.14	51.49
687.28	9.36
687.42	14.04
687.55	9.36
687.69	42.13
687.82	63.19
687.96	72.56
688.10	63.19
688.23	0.00
688.37	86.60
688.50	0.00
688.64	119.37
688.78	32.77
688.91	67.88
689.05	14.04
689.18	42.13
689.32	65.54
689.46	53.83
689.59	18.72
689.73	46.81
689.86	39.79
690.00	72.56
690.13	18.72
690.27	30.43
690.41	18.72
690.54	42.13
690.68	11.70
690.81	37.45
690.95	32.77
691.08	35.11
691.22	32.77
691.35	72.56
691.49	53.83
691.62	70.22
691.76	77.24
691.89	67.88
692.03	0.00
692.16	14.04
692.30	72.56
692.43	67.88
692.57	28.09
692.70	0.00
692.84	0.00
692.97	2.34
693.11	7.02
693.24	102.98
693.38	135.75
693.51	25.75
693.65	28.09
693.78	4.68
693.92	11.70
694.05	0.00
694.19	30.43
694.32	21.06
694.45	21.06
694.59	0.00
694.72	9.36
694.86	0.00
694.99	7.02
695.13	72.56
695.26	107.66
695.39	100.64
695.53	0.00
695.66	11.70
695.80	58.51
695.93	95.96
696.07	63.19
696.20	0.00
696.33	46.81
696.47	100.64
696.60	35.11
696.73	0.00
696.87	65.54
697.00	88.94
697.14	67.88
697.27	37.45
697.40	72.56
697.54	91.28
697.67	46.81
697.80	0.00
697.94	102.98
698.07	58.51
698.21	51.49
698.34	23.41
698.47	0.00
698.61	121.71
698.74	112.35
698.87	39.79
699.01	88.94
699.14	98.30
699.27	63.19
699.40	21.06
699.54	56.17
699.67	18.72
699.80	58.51
699.94	18.72
700.07	67.88
700.20	23.41
700.34	95.96
700.47	0.00
700.60	102.98
700.73	46.81
700.87	2.34
701.00	16.38
701.13	53.83
701.26	2.34
701.40	30.43
701.53	79.58
701.66	93.62
701.79	81.92
701.93	4.68
702.06	63.19
702.19	37.45
702.32	32.77
702.46	16.38
702.59	70.22
702.72	46.81
702.85	37.45
702.99	7.02
703.12	30.43
703.25	44.47
703.38	30.43
703.51	11.70
703.65	25.75
703.78	58.51
703.91	0.00
704.04	4.68
704.17	14.04
704.31	23.41
704.44	28.09
704.57	72.56
704.70	42.13
704.83	42.13
704.96	0.00
705.10	18.72
705.23	72.56
>>>>>End Processed Spectral Data<<<<<
