SpectraSuite Data File
++++++++++++++++++++++++++++++++++++
Date: Fri Oct 04 12:13:24 GMT-05:00 2013
User: price-jones
Dark Spectrum Present: No
Reference Spectrum Present: No
Number of Sampled Component Spectra: 1
Spectrometers: USB2+H05261
Integration Time (usec): 10000 (USB2+H05261)
Spectra Averaged: 1 (USB2+H05261)
Boxcar Smoothing: 0 (USB2+H05261)
Correct for Electrical Dark: No (USB2+H05261)
Strobe/Lamp Enabled: No (USB2+H05261)
Correct for Detector Non-linearity: No (USB2+H05261)
Correct for Stray Light: No (USB2+H05261)
Number of Pixels in Processed Spectrum: 2048
>>>>>Begin Processed Spectral Data<<<<<
365.73	58.51
365.92	58.51
366.12	58.51
366.32	0.00
366.52	0.00
366.72	0.00
366.91	0.00
367.11	0.00
367.31	0.00
367.51	0.00
367.70	0.00
367.90	0.00
368.10	0.00
368.30	0.00
368.49	0.00
368.69	0.00
368.89	0.00
369.09	0.00
369.28	0.00
369.48	0.00
369.68	0.00
369.87	0.00
370.07	0.00
370.27	0.00
370.47	0.00
370.66	0.00
370.86	28.09
371.06	0.00
371.25	0.00
371.45	0.00
371.65	0.00
371.84	23.41
372.04	30.43
372.24	0.00
372.44	0.00
372.63	32.77
372.83	0.00
373.03	0.00
373.22	98.30
373.42	28.09
373.62	114.69
373.81	30.43
374.01	0.00
374.21	0.00
374.40	86.60
374.60	18.72
374.79	72.56
374.99	44.47
375.19	53.83
375.38	159.16
375.58	0.00
375.78	7.02
375.97	28.09
376.17	35.11
376.37	39.79
376.56	0.00
376.76	23.41
376.95	53.83
377.15	37.45
377.35	30.43
377.54	51.49
377.74	0.00
377.93	70.22
378.13	81.92
378.33	46.81
378.52	25.75
378.72	0.00
378.91	70.22
379.11	35.11
379.31	18.72
379.50	30.43
379.70	0.00
379.89	42.13
380.09	4.68
380.28	35.11
380.48	0.00
380.68	88.94
380.87	110.01
381.07	67.88
381.26	30.43
381.46	30.43
381.65	9.36
381.85	53.83
382.04	44.47
382.24	28.09
382.43	25.75
382.63	0.00
382.83	0.00
383.02	0.00
383.22	9.36
383.41	0.00
383.61	11.70
383.80	14.04
384.00	37.45
384.19	28.09
384.39	7.02
384.58	14.04
384.78	53.83
384.97	60.85
385.17	93.62
385.36	81.92
385.56	30.43
385.75	25.75
385.95	44.47
386.14	0.00
386.34	2.34
386.53	93.62
386.72	18.72
386.92	74.90
387.11	39.79
387.31	37.45
387.50	9.36
387.70	37.45
387.89	28.09
388.09	51.49
388.28	7.02
388.48	16.38
388.67	0.00
388.86	39.79
389.06	25.75
389.25	35.11
389.45	9.36
389.64	0.00
389.84	28.09
390.03	21.06
390.22	0.00
390.42	16.38
390.61	72.56
390.81	0.00
391.00	0.00
391.19	0.00
391.39	79.58
391.58	51.49
391.78	23.41
391.97	23.41
392.16	44.47
392.36	35.11
392.55	9.36
392.75	0.00
392.94	74.90
393.13	77.24
393.33	72.56
393.52	9.36
393.71	56.17
393.91	114.69
394.10	16.38
394.29	35.11
394.49	23.41
394.68	44.47
394.88	32.77
395.07	81.92
395.26	9.36
395.46	28.09
395.65	72.56
395.84	128.73
396.04	74.90
396.23	16.38
396.42	0.00
396.62	51.49
396.81	74.90
397.00	21.06
397.19	44.47
397.39	0.00
397.58	9.36
397.77	42.13
397.97	88.94
398.16	67.88
398.35	0.00
398.55	32.77
398.74	53.83
398.93	9.36
399.12	0.00
399.32	18.72
399.51	65.54
399.70	32.77
399.90	0.00
400.09	23.41
400.28	58.51
400.47	39.79
400.67	0.00
400.86	0.00
401.05	2.34
401.24	0.00
401.44	35.11
401.63	14.04
401.82	0.00
402.01	30.43
402.21	53.83
402.40	9.36
402.59	0.00
402.78	91.28
402.97	81.92
403.17	7.02
403.36	51.49
403.55	110.01
403.74	25.75
403.93	81.92
404.13	0.00
404.32	7.02
404.51	14.04
404.70	0.00
404.89	63.19
405.09	0.00
405.28	77.24
405.47	14.04
405.66	58.51
405.85	0.00
406.05	0.00
406.24	0.00
406.43	53.83
406.62	28.09
406.81	91.28
407.00	28.09
407.20	65.54
407.39	25.75
407.58	93.62
407.77	25.75
407.96	23.41
408.15	16.38
408.34	30.43
408.54	95.96
408.73	35.11
408.92	0.00
409.11	0.00
409.30	53.83
409.49	53.83
409.68	39.79
409.87	7.02
410.07	0.00
410.26	110.01
410.45	23.41
410.64	16.38
410.83	0.00
411.02	18.72
411.21	16.38
411.40	60.85
411.59	30.43
411.78	42.13
411.98	58.51
412.17	39.79
412.36	98.30
412.55	0.00
412.74	9.36
412.93	100.64
413.12	30.43
413.31	0.00
413.50	0.00
413.69	74.90
413.88	53.83
414.07	37.45
414.26	21.06
414.45	18.72
414.64	58.51
414.83	0.00
415.02	11.70
415.22	0.00
415.41	49.15
415.60	25.75
415.79	0.00
415.98	18.72
416.17	16.38
416.36	23.41
416.55	70.22
416.74	91.28
416.93	0.00
417.12	60.85
417.31	42.13
417.50	0.00
417.69	23.41
417.88	25.75
418.07	14.04
418.26	14.04
418.45	32.77
418.64	23.41
418.83	28.09
419.02	11.70
419.21	7.02
419.39	25.75
419.58	58.51
419.77	30.43
419.96	0.00
420.15	112.35
420.34	74.90
420.53	14.04
420.72	74.90
420.91	28.09
421.10	21.06
421.29	74.90
421.48	21.06
421.67	0.00
421.86	44.47
422.05	18.72
422.24	0.00
422.43	23.41
422.61	84.26
422.80	70.22
422.99	11.70
423.18	63.19
423.37	65.54
423.56	0.00
423.75	58.51
423.94	9.36
424.13	0.00
424.32	0.00
424.50	4.68
424.69	11.70
424.88	0.00
425.07	35.11
425.26	65.54
425.45	0.00
425.64	70.22
425.83	77.24
426.01	16.38
426.20	18.72
426.39	4.68
426.58	107.66
426.77	58.51
426.96	0.00
427.15	58.51
427.33	0.00
427.52	11.70
427.71	35.11
427.90	9.36
428.09	42.13
428.28	114.69
428.46	30.43
428.65	0.00
428.84	16.38
429.03	74.90
429.22	0.00
429.40	4.68
429.59	0.00
429.78	30.43
429.97	0.00
430.16	56.17
430.34	86.60
430.53	25.75
430.72	60.85
430.91	42.13
431.10	98.30
431.28	70.22
431.47	44.47
431.66	135.75
431.85	32.77
432.03	4.68
432.22	110.01
432.41	28.09
432.60	0.00
432.79	30.43
432.97	32.77
433.16	16.38
433.35	0.00
433.54	46.81
433.72	49.15
433.91	35.11
434.10	0.00
434.28	35.11
434.47	0.00
434.66	0.00
434.85	86.60
435.03	65.54
435.22	18.72
435.41	21.06
435.59	58.51
435.78	105.32
435.97	32.77
436.16	46.81
436.34	63.19
436.53	37.45
436.72	58.51
436.90	65.54
437.09	16.38
437.28	0.00
437.46	21.06
437.65	25.75
437.84	67.88
438.02	32.77
438.21	32.77
438.40	11.70
438.58	51.49
438.77	44.47
438.96	81.92
439.14	0.00
439.33	49.15
439.52	18.72
439.70	95.96
439.89	46.81
440.08	35.11
440.26	65.54
440.45	42.13
440.63	0.00
440.82	58.51
441.01	77.24
441.19	0.00
441.38	4.68
441.57	18.72
441.75	46.81
441.94	4.68
442.12	42.13
442.31	35.11
442.50	23.41
442.68	42.13
442.87	0.00
443.05	11.70
443.24	42.13
443.43	2.34
443.61	100.64
443.80	0.00
443.98	37.45
444.17	46.81
444.35	0.00
444.54	84.26
444.73	102.98
444.91	0.00
445.10	0.00
445.28	0.00
445.47	30.43
445.65	60.85
445.84	44.47
446.02	107.66
446.21	30.43
446.39	77.24
446.58	49.15
446.77	56.17
446.95	16.38
447.14	0.00
447.32	81.92
447.51	32.77
447.69	46.81
447.88	28.09
448.06	30.43
448.25	21.06
448.43	0.00
448.62	102.98
448.80	79.58
448.99	86.60
449.17	0.00
449.36	51.49
449.54	35.11
449.73	9.36
449.91	28.09
450.10	0.00
450.28	4.68
450.46	60.85
450.65	0.00
450.83	0.00
451.02	0.00
451.20	0.00
451.39	74.90
451.57	65.54
451.76	0.00
451.94	0.00
452.13	0.00
452.31	93.62
452.49	0.00
452.68	39.79
452.86	63.19
453.05	28.09
453.23	0.00
453.42	9.36
453.60	42.13
453.78	37.45
453.97	25.75
454.15	16.38
454.34	37.45
454.52	35.11
454.70	23.41
454.89	51.49
455.07	0.00
455.26	0.00
455.44	77.24
455.62	65.54
455.81	102.98
455.99	49.15
456.17	46.81
456.36	58.51
456.54	0.00
456.73	74.90
456.91	44.47
457.09	49.15
457.28	72.56
457.46	37.45
457.64	23.41
457.83	60.85
458.01	56.17
458.19	0.00
458.38	30.43
458.56	32.77
458.74	51.49
458.93	9.36
459.11	72.56
459.29	0.00
459.48	11.70
459.66	79.58
459.84	16.38
460.03	77.24
460.21	16.38
460.39	44.47
460.57	0.00
460.76	35.11
460.94	0.00
461.12	21.06
461.31	70.22
461.49	7.02
461.67	51.49
461.85	0.00
462.04	42.13
462.22	107.66
462.40	7.02
462.59	0.00
462.77	42.13
462.95	49.15
463.13	21.06
463.32	60.85
463.50	23.41
463.68	86.60
463.86	30.43
464.05	32.77
464.23	39.79
464.41	72.56
464.59	16.38
464.78	77.24
464.96	65.54
465.14	16.38
465.32	42.13
465.50	7.02
465.69	16.38
465.87	30.43
466.05	74.90
466.23	21.06
466.41	51.49
466.60	44.47
466.78	7.02
466.96	0.00
467.14	53.83
467.32	35.11
467.51	0.00
467.69	42.13
467.87	53.83
468.05	44.47
468.23	74.90
468.41	65.54
468.60	0.00
468.78	0.00
468.96	44.47
469.14	114.69
469.32	32.77
469.50	0.00
469.69	16.38
469.87	65.54
470.05	28.09
470.23	25.75
470.41	0.00
470.59	0.00
470.77	0.00
470.95	35.11
471.14	0.00
471.32	44.47
471.50	37.45
471.68	0.00
471.86	46.81
472.04	0.00
472.22	14.04
472.40	46.81
472.58	30.43
472.77	77.24
472.95	39.79
473.13	16.38
473.31	98.30
473.49	65.54
473.67	4.68
473.85	25.75
474.03	0.00
474.21	4.68
474.39	74.90
474.57	42.13
474.75	95.96
474.93	28.09
475.12	32.77
475.30	0.00
475.48	25.75
475.66	51.49
475.84	63.19
476.02	49.15
476.20	58.51
476.38	21.06
476.56	86.60
476.74	35.11
476.92	81.92
477.10	70.22
477.28	42.13
477.46	56.17
477.64	0.00
477.82	11.70
478.00	70.22
478.18	42.13
478.36	28.09
478.54	42.13
478.72	37.45
478.90	0.00
479.08	2.34
479.26	11.70
479.44	49.15
479.62	117.03
479.80	2.34
479.98	42.13
480.16	49.15
480.34	70.22
480.52	37.45
480.70	0.00
480.88	14.04
481.06	56.17
481.24	84.26
481.41	46.81
481.59	74.90
481.77	98.30
481.95	49.15
482.13	72.56
482.31	35.11
482.49	102.98
482.67	2.34
482.85	105.32
483.03	28.09
483.21	0.00
483.39	81.92
483.57	49.15
483.74	79.58
483.92	25.75
484.10	46.81
484.28	84.26
484.46	25.75
484.64	0.00
484.82	0.00
485.00	98.30
485.18	79.58
485.35	53.83
485.53	67.88
485.71	44.47
485.89	51.49
486.07	0.00
486.25	67.88
486.43	23.41
486.61	0.00
486.78	4.68
486.96	51.49
487.14	65.54
487.32	21.06
487.50	4.68
487.68	95.96
487.85	65.54
488.03	70.22
488.21	28.09
488.39	23.41
488.57	37.45
488.75	51.49
488.92	44.47
489.10	0.00
489.28	79.58
489.46	11.70
489.64	117.03
489.81	70.22
489.99	63.19
490.17	0.00
490.35	77.24
490.53	79.58
490.70	112.35
490.88	44.47
491.06	72.56
491.24	46.81
491.41	79.58
491.59	102.98
491.77	0.00
491.95	79.58
492.13	63.19
492.30	74.90
492.48	16.38
492.66	63.19
492.84	37.45
493.01	93.62
493.19	7.02
493.37	56.17
493.54	84.26
493.72	37.45
493.90	0.00
494.08	32.77
494.25	51.49
494.43	11.70
494.61	53.83
494.79	4.68
494.96	98.30
495.14	18.72
495.32	37.45
495.49	65.54
495.67	60.85
495.85	58.51
496.02	58.51
496.20	91.28
496.38	49.15
496.55	0.00
496.73	39.79
496.91	35.11
497.09	30.43
497.26	37.45
497.44	42.13
497.62	56.17
497.79	51.49
497.97	14.04
498.14	0.00
498.32	44.47
498.50	63.19
498.67	74.90
498.85	51.49
499.03	72.56
499.20	46.81
499.38	0.00
499.56	28.09
499.73	79.58
499.91	114.69
500.08	84.26
500.26	32.77
500.44	35.11
500.61	119.37
500.79	70.22
500.97	42.13
501.14	44.47
501.32	0.00
501.49	53.83
501.67	93.62
501.84	9.36
502.02	67.88
502.20	42.13
502.37	4.68
502.55	9.36
502.72	25.75
502.90	2.34
503.07	135.75
503.25	39.79
503.43	42.13
503.60	72.56
503.78	70.22
503.95	14.04
504.13	91.28
504.30	46.81
504.48	51.49
504.65	49.15
504.83	72.56
505.01	100.64
505.18	46.81
505.36	88.94
505.53	107.66
505.71	112.35
505.88	121.71
506.06	77.24
506.23	32.77
506.41	72.56
506.58	35.11
506.76	58.51
506.93	79.58
507.11	39.79
507.28	28.09
507.46	0.00
507.63	56.17
507.81	65.54
507.98	67.88
508.16	0.00
508.33	9.36
508.50	28.09
508.68	9.36
508.85	49.15
509.03	28.09
509.20	0.00
509.38	0.00
509.55	84.26
509.73	74.90
509.90	65.54
510.08	86.60
510.25	79.58
510.42	14.04
510.60	37.45
510.77	35.11
510.95	14.04
511.12	32.77
511.30	46.81
511.47	100.64
511.64	0.00
511.82	35.11
511.99	86.60
512.17	56.17
512.34	25.75
512.51	0.00
512.69	39.79
512.86	4.68
513.04	4.68
513.21	105.32
513.38	67.88
513.56	9.36
513.73	91.28
513.90	51.49
514.08	46.81
514.25	49.15
514.43	49.15
514.60	58.51
514.77	81.92
514.95	0.00
515.12	107.66
515.29	4.68
515.47	0.00
515.64	79.58
515.81	145.11
515.99	65.54
516.16	60.85
516.33	51.49
516.51	0.00
516.68	42.13
516.85	39.79
517.03	56.17
517.20	70.22
517.37	72.56
517.54	46.81
517.72	0.00
517.89	30.43
518.06	37.45
518.24	39.79
518.41	42.13
518.58	21.06
518.75	65.54
518.93	65.54
519.10	44.47
519.27	72.56
519.45	91.28
519.62	53.83
519.79	2.34
519.96	28.09
520.14	100.64
520.31	114.69
520.48	60.85
520.65	81.92
520.83	42.13
521.00	39.79
521.17	7.02
521.34	46.81
521.52	0.00
521.69	0.00
521.86	65.54
522.03	100.64
522.20	49.15
522.38	98.30
522.55	112.35
522.72	63.19
522.89	60.85
523.07	67.88
523.24	119.37
523.41	100.64
523.58	28.09
523.75	23.41
523.92	74.90
524.10	16.38
524.27	51.49
524.44	98.30
524.61	74.90
524.78	86.60
524.96	77.24
525.13	60.85
525.30	30.43
525.47	0.00
525.64	23.41
525.81	53.83
525.98	35.11
526.16	0.00
526.33	65.54
526.50	65.54
526.67	11.70
526.84	21.06
527.01	74.90
527.18	39.79
527.36	32.77
527.53	16.38
527.70	56.17
527.87	53.83
528.04	140.43
528.21	74.90
528.38	28.09
528.55	42.13
528.72	98.30
528.89	119.37
529.07	35.11
529.24	72.56
529.41	0.00
529.58	58.51
529.75	42.13
529.92	79.58
530.09	86.60
530.26	86.60
530.43	42.13
530.60	77.24
530.77	32.77
530.94	72.56
531.11	49.15
531.28	44.47
531.46	44.47
531.63	67.88
531.80	84.26
531.97	9.36
532.14	63.19
532.31	37.45
532.48	79.58
532.65	56.17
532.82	65.54
532.99	93.62
533.16	100.64
533.33	70.22
533.50	86.60
533.67	65.54
533.84	147.45
534.01	100.64
534.18	56.17
534.35	35.11
534.52	32.77
534.69	60.85
534.86	65.54
535.03	95.96
535.20	98.30
535.37	126.39
535.54	91.28
535.71	37.45
535.88	28.09
536.05	0.00
536.22	25.75
536.38	88.94
536.55	65.54
536.72	0.00
536.89	46.81
537.06	93.62
537.23	72.56
537.40	124.05
537.57	16.38
537.74	86.60
537.91	4.68
538.08	72.56
538.25	42.13
538.42	11.70
538.59	35.11
538.75	30.43
538.92	84.26
539.09	81.92
539.26	0.00
539.43	98.30
539.60	11.70
539.77	65.54
539.94	53.83
540.11	56.17
540.28	102.98
540.44	72.56
540.61	42.13
540.78	74.90
540.95	0.00
541.12	39.79
541.29	98.30
541.46	0.00
541.62	77.24
541.79	18.72
541.96	53.83
542.13	23.41
542.30	81.92
542.47	77.24
542.63	18.72
542.80	32.77
542.97	65.54
543.14	42.13
543.31	102.98
543.48	67.88
543.64	0.00
543.81	60.85
543.98	32.77
544.15	23.41
544.32	60.85
544.48	30.43
544.65	35.11
544.82	46.81
544.99	18.72
545.16	35.11
545.32	18.72
545.49	11.70
545.66	16.38
545.83	0.00
546.00	42.13
546.16	30.43
546.33	58.51
546.50	0.00
546.67	88.94
546.83	84.26
547.00	32.77
547.17	44.47
547.34	35.11
547.50	28.09
547.67	4.68
547.84	53.83
548.00	56.17
548.17	35.11
548.34	39.79
548.51	91.28
548.67	39.79
548.84	51.49
549.01	65.54
549.18	37.45
549.34	11.70
549.51	37.45
549.68	18.72
549.84	21.06
550.01	51.49
550.18	93.62
550.34	58.51
550.51	0.00
550.68	67.88
550.84	58.51
551.01	0.00
551.18	0.00
551.34	7.02
551.51	67.88
551.68	11.70
551.84	70.22
552.01	0.00
552.18	30.43
552.34	25.75
552.51	53.83
552.68	46.81
552.84	32.77
553.01	0.00
553.18	46.81
553.34	25.75
553.51	32.77
553.67	49.15
553.84	18.72
554.01	98.30
554.17	91.28
554.34	88.94
554.51	23.41
554.67	25.75
554.84	49.15
555.00	56.17
555.17	42.13
555.33	2.34
555.50	14.04
555.67	23.41
555.83	42.13
556.00	79.58
556.16	105.32
556.33	79.58
556.50	44.47
556.66	7.02
556.83	53.83
556.99	81.92
557.16	60.85
557.32	28.09
557.49	56.17
557.65	79.58
557.82	56.17
557.98	49.15
558.15	107.66
558.32	79.58
558.48	23.41
558.65	9.36
558.81	23.41
558.98	102.98
559.14	32.77
559.31	28.09
559.47	9.36
559.64	28.09
559.80	65.54
559.97	81.92
560.13	42.13
560.30	16.38
560.46	14.04
560.63	51.49
560.79	77.24
560.96	77.24
561.12	63.19
561.29	56.17
561.45	58.51
561.61	107.66
561.78	35.11
561.94	112.35
562.11	30.43
562.27	110.01
562.44	37.45
562.60	23.41
562.77	11.70
562.93	56.17
563.10	37.45
563.26	53.83
563.42	35.11
563.59	72.56
563.75	30.43
563.92	25.75
564.08	25.75
564.24	0.00
564.41	0.00
564.57	56.17
564.74	23.41
564.90	58.51
565.07	93.62
565.23	23.41
565.39	72.56
565.56	37.45
565.72	117.03
565.88	77.24
566.05	37.45
566.21	0.00
566.38	18.72
566.54	77.24
566.70	60.85
566.87	63.19
567.03	28.09
567.19	67.88
567.36	107.66
567.52	107.66
567.68	81.92
567.85	35.11
568.01	117.03
568.17	51.49
568.34	32.77
568.50	14.04
568.66	84.26
568.83	16.38
568.99	65.54
569.15	105.32
569.32	14.04
569.48	39.79
569.64	58.51
569.81	70.22
569.97	49.15
570.13	63.19
570.30	0.00
570.46	67.88
570.62	0.00
570.78	25.75
570.95	16.38
571.11	18.72
571.27	91.28
571.43	37.45
571.60	16.38
571.76	51.49
571.92	23.41
572.09	51.49
572.25	37.45
572.41	0.00
572.57	112.35
572.74	39.79
572.90	25.75
573.06	91.28
573.22	42.13
573.38	18.72
573.55	18.72
573.71	0.00
573.87	16.38
574.03	39.79
574.20	102.98
574.36	88.94
574.52	145.11
574.68	70.22
574.84	65.54
575.01	23.41
575.17	77.24
575.33	63.19
575.49	84.26
575.65	107.66
575.82	51.49
575.98	23.41
576.14	53.83
576.30	58.51
576.46	23.41
576.62	51.49
576.79	4.68
576.95	81.92
577.11	0.00
577.27	88.94
577.43	95.96
577.59	81.92
577.75	28.09
577.92	32.77
578.08	67.88
578.24	70.22
578.40	23.41
578.56	16.38
578.72	16.38
578.88	91.28
579.04	0.00
579.21	81.92
579.37	79.58
579.53	70.22
579.69	21.06
579.85	60.85
580.01	100.64
580.17	32.77
580.33	74.90
580.49	72.56
580.65	65.54
580.82	42.13
580.98	79.58
581.14	81.92
581.30	25.75
581.46	102.98
581.62	49.15
581.78	79.58
581.94	25.75
582.10	112.35
582.26	42.13
582.42	18.72
582.58	4.68
582.74	56.17
582.90	53.83
583.06	77.24
583.22	63.19
583.38	23.41
583.54	28.09
583.70	65.54
583.86	39.79
584.02	42.13
584.18	42.13
584.34	37.45
584.50	49.15
584.66	23.41
584.82	65.54
584.98	100.64
585.14	9.36
585.30	49.15
585.46	65.54
585.62	9.36
585.78	0.00
585.94	58.51
586.10	0.00
586.26	142.77
586.42	58.51
586.58	114.69
586.74	65.54
586.90	35.11
587.06	105.32
587.22	95.96
587.38	35.11
587.54	88.94
587.70	39.79
587.86	63.19
588.02	37.45
588.18	46.81
588.34	63.19
588.49	72.56
588.65	81.92
588.81	16.38
588.97	35.11
589.13	11.70
589.29	16.38
589.45	46.81
589.61	56.17
589.77	35.11
589.93	63.19
590.08	49.15
590.24	39.79
590.40	21.06
590.56	25.75
590.72	100.64
590.88	0.00
591.04	102.98
591.20	63.19
591.35	105.32
591.51	30.43
591.67	51.49
591.83	0.00
591.99	56.17
592.15	16.38
592.31	60.85
592.46	51.49
592.62	49.15
592.78	60.85
592.94	35.11
593.10	21.06
593.26	58.51
593.41	42.13
593.57	86.60
593.73	117.03
593.89	32.77
594.05	44.47
594.20	46.81
594.36	39.79
594.52	25.75
594.68	84.26
594.84	14.04
594.99	0.00
595.15	102.98
595.31	42.13
595.47	93.62
595.62	0.00
595.78	65.54
595.94	110.01
596.10	37.45
596.25	2.34
596.41	30.43
596.57	32.77
596.73	0.00
596.88	0.00
597.04	84.26
597.20	58.51
597.36	74.90
597.51	53.83
597.67	18.72
597.83	60.85
597.99	28.09
598.14	35.11
598.30	4.68
598.46	95.96
598.61	14.04
598.77	81.92
598.93	95.96
599.09	79.58
599.24	107.66
599.40	93.62
599.56	117.03
599.71	11.70
599.87	0.00
600.03	21.06
600.18	44.47
600.34	0.00
600.50	44.47
600.65	25.75
600.81	32.77
600.97	58.51
601.12	37.45
601.28	23.41
601.44	0.00
601.59	77.24
601.75	53.83
601.91	67.88
602.06	23.41
602.22	18.72
602.37	30.43
602.53	46.81
602.69	0.00
602.84	28.09
603.00	42.13
603.16	93.62
603.31	70.22
603.47	0.00
603.62	46.81
603.78	0.00
603.94	67.88
604.09	21.06
604.25	49.15
604.40	28.09
604.56	100.64
604.71	0.00
604.87	0.00
605.03	65.54
605.18	25.75
605.34	79.58
605.49	0.00
605.65	25.75
605.80	21.06
605.96	0.00
606.12	56.17
606.27	7.02
606.43	105.32
606.58	84.26
606.74	30.43
606.89	67.88
607.05	86.60
607.20	25.75
607.36	35.11
607.51	67.88
607.67	117.03
607.82	11.70
607.98	37.45
608.13	37.45
608.29	0.00
608.44	51.49
608.60	0.00
608.75	37.45
608.91	58.51
609.06	63.19
609.22	81.92
609.37	44.47
609.53	51.49
609.68	84.26
609.84	0.00
609.99	39.79
610.15	30.43
610.30	30.43
610.46	4.68
610.61	60.85
610.76	28.09
610.92	0.00
611.07	0.00
611.23	152.13
611.38	63.19
611.54	114.69
611.69	35.11
611.84	88.94
612.00	102.98
612.15	37.45
612.31	23.41
612.46	16.38
612.62	81.92
612.77	14.04
612.92	65.54
613.08	18.72
613.23	7.02
613.39	25.75
613.54	35.11
613.69	28.09
613.85	105.32
614.00	67.88
614.15	21.06
614.31	72.56
614.46	58.51
614.62	58.51
614.77	0.00
614.92	42.13
615.08	39.79
615.23	42.13
615.38	42.13
615.54	9.36
615.69	53.83
615.84	4.68
616.00	0.00
616.15	16.38
616.30	93.62
616.46	30.43
616.61	53.83
616.76	37.45
616.92	18.72
617.07	46.81
617.22	2.34
617.37	25.75
617.53	23.41
617.68	21.06
617.83	53.83
617.99	67.88
618.14	42.13
618.29	98.30
618.45	60.85
618.60	30.43
618.75	44.47
618.90	23.41
619.06	65.54
619.21	56.17
619.36	56.17
619.51	37.45
619.67	21.06
619.82	2.34
619.97	51.49
620.12	11.70
620.28	100.64
620.43	37.45
620.58	7.02
620.73	74.90
620.89	0.00
621.04	63.19
621.19	16.38
621.34	2.34
621.49	30.43
621.65	46.81
621.80	77.24
621.95	72.56
622.10	39.79
622.25	60.85
622.41	35.11
622.56	28.09
622.71	23.41
622.86	93.62
623.01	42.13
623.16	4.68
623.32	65.54
623.47	46.81
623.62	0.00
623.77	95.96
623.92	37.45
624.07	46.81
624.23	86.60
624.38	23.41
624.53	72.56
624.68	72.56
624.83	58.51
624.98	9.36
625.13	67.88
625.29	0.00
625.44	35.11
625.59	46.81
625.74	42.13
625.89	49.15
626.04	28.09
626.19	0.00
626.34	32.77
626.49	56.17
626.65	49.15
626.80	49.15
626.95	86.60
627.10	0.00
627.25	91.28
627.40	51.49
627.55	53.83
627.70	72.56
627.85	46.81
628.00	25.75
628.15	79.58
628.30	42.13
628.45	28.09
628.60	14.04
628.76	0.00
628.91	30.43
629.06	58.51
629.21	51.49
629.36	58.51
629.51	35.11
629.66	28.09
629.81	63.19
629.96	67.88
630.11	18.72
630.26	72.56
630.41	84.26
630.56	67.88
630.71	32.77
630.86	30.43
631.01	60.85
631.16	16.38
631.31	39.79
631.46	74.90
631.61	53.83
631.76	14.04
631.91	138.09
632.06	58.51
632.21	42.13
632.36	0.00
632.51	72.56
632.66	65.54
632.81	86.60
632.96	49.15
633.10	46.81
633.25	25.75
633.40	35.11
633.55	58.51
633.70	70.22
633.85	9.36
634.00	0.00
634.15	65.54
634.30	79.58
634.45	32.77
634.60	65.54
634.75	39.79
634.90	0.00
635.05	60.85
635.19	74.90
635.34	81.92
635.49	18.72
635.64	42.13
635.79	81.92
635.94	70.22
636.09	95.96
636.24	0.00
636.39	14.04
636.53	11.70
636.68	28.09
636.83	18.72
636.98	72.56
637.13	0.00
637.28	35.11
637.43	72.56
637.57	84.26
637.72	91.28
637.87	0.00
638.02	46.81
638.17	7.02
638.32	93.62
638.46	7.02
638.61	42.13
638.76	95.96
638.91	0.00
639.06	79.58
639.20	102.98
639.35	25.75
639.50	21.06
639.65	60.85
639.80	39.79
639.94	9.36
640.09	124.05
640.24	30.43
640.39	35.11
640.54	16.38
640.68	35.11
640.83	72.56
640.98	0.00
641.13	21.06
641.27	0.00
641.42	0.00
641.57	49.15
641.72	60.85
641.86	30.43
642.01	84.26
642.16	35.11
642.31	37.45
642.45	0.00
642.60	28.09
642.75	102.98
642.90	11.70
643.04	0.00
643.19	11.70
643.34	0.00
643.48	30.43
643.63	0.00
643.78	30.43
643.93	0.00
644.07	21.06
644.22	56.17
644.37	7.02
644.51	28.09
644.66	0.00
644.81	18.72
644.95	9.36
645.10	44.47
645.25	70.22
645.39	110.01
645.54	70.22
645.69	23.41
645.83	39.79
645.98	18.72
646.13	14.04
646.27	58.51
646.42	74.90
646.57	60.85
646.71	14.04
646.86	7.02
647.00	0.00
647.15	28.09
647.30	30.43
647.44	56.17
647.59	0.00
647.74	0.00
647.88	72.56
648.03	14.04
648.17	70.22
648.32	7.02
648.47	7.02
648.61	7.02
648.76	100.64
648.90	25.75
649.05	98.30
649.20	114.69
649.34	28.09
649.49	53.83
649.63	39.79
649.78	51.49
649.92	56.17
650.07	60.85
650.21	14.04
650.36	102.98
650.51	88.94
650.65	37.45
650.80	65.54
650.94	23.41
651.09	25.75
651.23	2.34
651.38	74.90
651.52	28.09
651.67	0.00
651.81	138.09
651.96	72.56
652.10	98.30
652.25	4.68
652.39	0.00
652.54	44.47
652.68	65.54
652.83	70.22
652.97	53.83
653.12	140.43
653.26	60.85
653.41	0.00
653.55	46.81
653.70	18.72
653.84	46.81
653.99	0.00
654.13	0.00
654.27	58.51
654.42	65.54
654.56	21.06
654.71	0.00
654.85	18.72
655.00	86.60
655.14	21.06
655.29	0.00
655.43	32.77
655.57	102.98
655.72	30.43
655.86	56.17
656.01	42.13
656.15	18.72
656.30	53.83
656.44	77.24
656.58	16.38
656.73	39.79
656.87	79.58
657.01	0.00
657.16	23.41
657.30	37.45
657.45	65.54
657.59	53.83
657.73	86.60
657.88	32.77
658.02	81.92
658.16	60.85
658.31	0.00
658.45	28.09
658.60	42.13
658.74	72.56
658.88	63.19
659.03	49.15
659.17	23.41
659.31	0.00
659.46	77.24
659.60	63.19
659.74	0.00
659.89	67.88
660.03	81.92
660.17	65.54
660.32	67.88
660.46	21.06
660.60	0.00
660.74	67.88
660.89	42.13
661.03	81.92
661.17	0.00
661.32	72.56
661.46	23.41
661.60	0.00
661.74	58.51
661.89	0.00
662.03	72.56
662.17	72.56
662.31	0.00
662.46	77.24
662.60	39.79
662.74	63.19
662.88	102.98
663.03	35.11
663.17	60.85
663.31	46.81
663.45	81.92
663.60	63.19
663.74	81.92
663.88	56.17
664.02	7.02
664.17	35.11
664.31	18.72
664.45	14.04
664.59	30.43
664.73	9.36
664.88	35.11
665.02	56.17
665.16	28.09
665.30	9.36
665.44	23.41
665.59	46.81
665.73	35.11
665.87	42.13
666.01	67.88
666.15	100.64
666.29	0.00
666.44	79.58
666.58	7.02
666.72	23.41
666.86	39.79
667.00	28.09
667.14	58.51
667.28	49.15
667.43	0.00
667.57	44.47
667.71	32.77
667.85	25.75
667.99	23.41
668.13	4.68
668.27	53.83
668.41	105.32
668.56	25.75
668.70	0.00
668.84	18.72
668.98	37.45
669.12	53.83
669.26	86.60
669.40	35.11
669.54	18.72
669.68	30.43
669.82	65.54
669.96	60.85
670.10	100.64
670.25	58.51
670.39	63.19
670.53	39.79
670.67	63.19
670.81	28.09
670.95	72.56
671.09	58.51
671.23	23.41
671.37	32.77
671.51	88.94
671.65	39.79
671.79	60.85
671.93	0.00
672.07	42.13
672.21	35.11
672.35	32.77
672.49	65.54
672.63	32.77
672.77	30.43
672.91	11.70
673.05	51.49
673.19	58.51
673.33	14.04
673.47	63.19
673.61	0.00
673.75	23.41
673.89	4.68
674.03	0.00
674.17	65.54
674.31	0.00
674.45	72.56
674.59	0.00
674.73	42.13
674.87	0.00
675.01	0.00
675.15	58.51
675.29	84.26
675.43	37.45
675.56	0.00
675.70	88.94
675.84	79.58
675.98	110.01
676.12	86.60
676.26	53.83
676.40	60.85
676.54	30.43
676.68	0.00
676.82	0.00
676.96	0.00
677.10	32.77
677.23	112.35
677.37	77.24
677.51	88.94
677.65	0.00
677.79	0.00
677.93	67.88
678.07	21.06
678.21	49.15
678.34	0.00
678.48	63.19
678.62	0.00
678.76	67.88
678.90	37.45
679.04	63.19
679.18	72.56
679.31	14.04
679.45	70.22
679.59	39.79
679.73	0.00
679.87	79.58
680.00	0.00
680.14	79.58
680.28	93.62
680.42	81.92
680.56	98.30
680.70	0.00
680.83	74.90
680.97	0.00
681.11	98.30
681.25	32.77
681.39	65.54
681.52	77.24
681.66	35.11
681.80	11.70
681.94	77.24
682.07	37.45
682.21	44.47
682.35	84.26
682.49	42.13
682.62	0.00
682.76	39.79
682.90	37.45
683.04	9.36
683.17	28.09
683.31	0.00
683.45	79.58
683.59	58.51
683.72	0.00
683.86	30.43
684.00	11.70
684.13	7.02
684.27	81.92
684.41	0.00
684.55	100.64
684.68	0.00
684.82	14.04
684.96	4.68
685.09	0.00
685.23	58.51
685.37	98.30
685.50	56.17
685.64	0.00
685.78	42.13
685.91	16.38
686.05	67.88
686.19	56.17
686.32	56.17
686.46	32.77
686.60	0.00
686.73	53.83
686.87	42.13
687.01	65.54
687.14	14.04
687.28	0.00
687.42	7.02
687.55	28.09
687.69	84.26
687.82	32.77
687.96	32.77
688.10	4.68
688.23	119.37
688.37	46.81
688.50	4.68
688.64	44.47
688.78	16.38
688.91	25.75
689.05	63.19
689.18	74.90
689.32	0.00
689.46	70.22
689.59	77.24
689.73	77.24
689.86	0.00
690.00	51.49
690.13	56.17
690.27	56.17
690.41	0.00
690.54	30.43
690.68	42.13
690.81	39.79
690.95	46.81
691.08	0.00
691.22	4.68
691.35	25.75
691.49	79.58
691.62	51.49
691.76	112.35
691.89	39.79
692.03	28.09
692.16	16.38
692.30	63.19
692.43	51.49
692.57	42.13
692.70	70.22
692.84	0.00
692.97	58.51
693.11	67.88
693.24	56.17
693.38	72.56
693.51	63.19
693.65	56.17
693.78	0.00
693.92	86.60
694.05	107.66
694.19	46.81
694.32	65.54
694.45	2.34
694.59	98.30
694.72	4.68
694.86	0.00
694.99	11.70
695.13	102.98
695.26	51.49
695.39	21.06
695.53	0.00
695.66	49.15
695.80	4.68
695.93	2.34
696.07	56.17
696.20	0.00
696.33	0.00
696.47	16.38
696.60	28.09
696.73	56.17
696.87	39.79
697.00	28.09
697.14	77.24
697.27	0.00
697.40	65.54
697.54	37.45
697.67	18.72
697.80	0.00
697.94	58.51
698.07	0.00
698.21	0.00
698.34	32.77
698.47	16.38
698.61	58.51
698.74	14.04
698.87	21.06
699.01	114.69
699.14	0.00
699.27	67.88
699.40	112.35
699.54	42.13
699.67	39.79
699.80	0.00
699.94	93.62
700.07	44.47
700.20	35.11
700.34	0.00
700.47	0.00
700.60	14.04
700.73	60.85
700.87	67.88
701.00	0.00
701.13	0.00
701.26	30.43
701.40	42.13
701.53	23.41
701.66	98.30
701.79	58.51
701.93	0.00
702.06	30.43
702.19	110.01
702.32	79.58
702.46	0.00
702.59	32.77
702.72	18.72
702.85	42.13
702.99	58.51
703.12	18.72
703.25	23.41
703.38	0.00
703.51	74.90
703.65	0.00
703.78	18.72
703.91	35.11
704.04	42.13
704.17	105.32
704.31	51.49
704.44	25.75
704.57	60.85
704.70	65.54
704.83	63.19
704.96	39.79
705.10	46.81
705.23	30.43
>>>>>End Processed Spectral Data<<<<<
