SpectraSuite Data File
++++++++++++++++++++++++++++++++++++
Date: Fri Oct 04 12:13:45 GMT-05:00 2013
User: price-jones
Dark Spectrum Present: No
Reference Spectrum Present: No
Number of Sampled Component Spectra: 1
Spectrometers: USB2+H05261
Integration Time (usec): 10000 (USB2+H05261)
Spectra Averaged: 1 (USB2+H05261)
Boxcar Smoothing: 0 (USB2+H05261)
Correct for Electrical Dark: No (USB2+H05261)
Strobe/Lamp Enabled: No (USB2+H05261)
Correct for Detector Non-linearity: No (USB2+H05261)
Correct for Stray Light: No (USB2+H05261)
Number of Pixels in Processed Spectrum: 2048
>>>>>Begin Processed Spectral Data<<<<<
365.73	18.72
365.92	18.72
366.12	18.72
366.32	0.00
366.52	0.00
366.72	0.00
366.91	0.00
367.11	0.00
367.31	0.00
367.51	0.00
367.70	0.00
367.90	0.00
368.10	0.00
368.30	0.00
368.49	0.00
368.69	0.00
368.89	0.00
369.09	0.00
369.28	0.00
369.48	0.00
369.68	0.00
369.87	0.00
370.07	0.00
370.27	0.00
370.47	0.00
370.66	0.00
370.86	0.00
371.06	0.00
371.25	0.00
371.45	0.00
371.65	0.00
371.84	0.00
372.04	21.06
372.24	70.22
372.44	16.38
372.63	0.00
372.83	0.00
373.03	0.00
373.22	60.85
373.42	2.34
373.62	0.00
373.81	7.02
374.01	0.00
374.21	49.15
374.40	18.72
374.60	0.00
374.79	42.13
374.99	14.04
375.19	25.75
375.38	0.00
375.58	49.15
375.78	39.79
375.97	56.17
376.17	70.22
376.37	25.75
376.56	39.79
376.76	0.00
376.95	72.56
377.15	30.43
377.35	0.00
377.54	11.70
377.74	14.04
377.93	25.75
378.13	0.00
378.33	14.04
378.52	14.04
378.72	32.77
378.91	0.00
379.11	0.00
379.31	25.75
379.50	0.00
379.70	21.06
379.89	11.70
380.09	72.56
380.28	53.83
380.48	0.00
380.68	7.02
380.87	25.75
381.07	14.04
381.26	81.92
381.46	49.15
381.65	67.88
381.85	0.00
382.04	39.79
382.24	0.00
382.43	74.90
382.63	100.64
382.83	0.00
383.02	2.34
383.22	44.47
383.41	14.04
383.61	2.34
383.80	0.00
384.00	0.00
384.19	0.00
384.39	21.06
384.58	0.00
384.78	46.81
384.97	0.00
385.17	51.49
385.36	0.00
385.56	28.09
385.75	0.00
385.95	0.00
386.14	4.68
386.34	0.00
386.53	44.47
386.72	0.00
386.92	21.06
387.11	0.00
387.31	30.43
387.50	4.68
387.70	0.00
387.89	63.19
388.09	16.38
388.28	2.34
388.48	16.38
388.67	42.13
388.86	51.49
389.06	18.72
389.25	37.45
389.45	46.81
389.64	91.28
389.84	39.79
390.03	39.79
390.22	2.34
390.42	35.11
390.61	58.51
390.81	51.49
391.00	46.81
391.19	0.00
391.39	0.00
391.58	16.38
391.78	35.11
391.97	49.15
392.16	25.75
392.36	37.45
392.55	0.00
392.75	0.00
392.94	44.47
393.13	0.00
393.33	0.00
393.52	63.19
393.71	25.75
393.91	49.15
394.10	42.13
394.29	21.06
394.49	77.24
394.68	79.58
394.88	0.00
395.07	0.00
395.26	0.00
395.46	56.17
395.65	72.56
395.84	0.00
396.04	44.47
396.23	0.00
396.42	0.00
396.62	7.02
396.81	18.72
397.00	0.00
397.19	23.41
397.39	35.11
397.58	49.15
397.77	0.00
397.97	16.38
398.16	32.77
398.35	105.32
398.55	21.06
398.74	0.00
398.93	53.83
399.12	0.00
399.32	0.00
399.51	74.90
399.70	0.00
399.90	0.00
400.09	21.06
400.28	35.11
400.47	0.00
400.67	51.49
400.86	35.11
401.05	0.00
401.24	0.00
401.44	0.00
401.63	0.00
401.82	14.04
402.01	60.85
402.21	0.00
402.40	46.81
402.59	37.45
402.78	0.00
402.97	77.24
403.17	74.90
403.36	16.38
403.55	60.85
403.74	95.96
403.93	16.38
404.13	16.38
404.32	0.00
404.51	21.06
404.70	0.00
404.89	0.00
405.09	4.68
405.28	0.00
405.47	70.22
405.66	72.56
405.85	9.36
406.05	49.15
406.24	0.00
406.43	39.79
406.62	37.45
406.81	65.54
407.00	56.17
407.20	0.00
407.39	18.72
407.58	65.54
407.77	65.54
407.96	35.11
408.15	0.00
408.34	35.11
408.54	21.06
408.73	0.00
408.92	28.09
409.11	4.68
409.30	16.38
409.49	72.56
409.68	28.09
409.87	0.00
410.07	53.83
410.26	56.17
410.45	0.00
410.64	21.06
410.83	0.00
411.02	46.81
411.21	0.00
411.40	88.94
411.59	42.13
411.78	9.36
411.98	0.00
412.17	37.45
412.36	4.68
412.55	0.00
412.74	58.51
412.93	100.64
413.12	67.88
413.31	81.92
413.50	2.34
413.69	74.90
413.88	0.00
414.07	0.00
414.26	0.00
414.45	21.06
414.64	0.00
414.83	49.15
415.02	0.00
415.22	70.22
415.41	7.02
415.60	42.13
415.79	0.00
415.98	46.81
416.17	0.00
416.36	42.13
416.55	2.34
416.74	0.00
416.93	65.54
417.12	79.58
417.31	4.68
417.50	14.04
417.69	110.01
417.88	86.60
418.07	0.00
418.26	49.15
418.45	67.88
418.64	32.77
418.83	35.11
419.02	60.85
419.21	0.00
419.39	93.62
419.58	0.00
419.77	0.00
419.96	0.00
420.15	21.06
420.34	0.00
420.53	58.51
420.72	46.81
420.91	0.00
421.10	25.75
421.29	39.79
421.48	11.70
421.67	65.54
421.86	74.90
422.05	46.81
422.24	49.15
422.43	9.36
422.61	35.11
422.80	0.00
422.99	70.22
423.18	23.41
423.37	25.75
423.56	39.79
423.75	28.09
423.94	14.04
424.13	0.00
424.32	93.62
424.50	37.45
424.69	0.00
424.88	0.00
425.07	11.70
425.26	42.13
425.45	0.00
425.64	0.00
425.83	72.56
426.01	0.00
426.20	23.41
426.39	0.00
426.58	58.51
426.77	0.00
426.96	56.17
427.15	86.60
427.33	49.15
427.52	4.68
427.71	0.00
427.90	67.88
428.09	32.77
428.28	7.02
428.46	14.04
428.65	14.04
428.84	32.77
429.03	32.77
429.22	56.17
429.40	81.92
429.59	39.79
429.78	21.06
429.97	0.00
430.16	49.15
430.34	81.92
430.53	53.83
430.72	117.03
430.91	77.24
431.10	0.00
431.28	0.00
431.47	30.43
431.66	0.00
431.85	0.00
432.03	30.43
432.22	42.13
432.41	21.06
432.60	23.41
432.79	72.56
432.97	14.04
433.16	18.72
433.35	9.36
433.54	65.54
433.72	51.49
433.91	37.45
434.10	18.72
434.28	42.13
434.47	0.00
434.66	0.00
434.85	16.38
435.03	14.04
435.22	0.00
435.41	28.09
435.59	4.68
435.78	0.00
435.97	60.85
436.16	56.17
436.34	39.79
436.53	107.66
436.72	0.00
436.90	0.00
437.09	18.72
437.28	44.47
437.46	0.00
437.65	65.54
437.84	39.79
438.02	70.22
438.21	39.79
438.40	0.00
438.58	42.13
438.77	81.92
438.96	9.36
439.14	37.45
439.33	72.56
439.52	0.00
439.70	0.00
439.89	4.68
440.08	37.45
440.26	11.70
440.45	44.47
440.63	72.56
440.82	28.09
441.01	21.06
441.19	110.01
441.38	4.68
441.57	58.51
441.75	56.17
441.94	63.19
442.12	79.58
442.31	77.24
442.50	7.02
442.68	65.54
442.87	25.75
443.05	0.00
443.24	18.72
443.43	0.00
443.61	14.04
443.80	0.00
443.98	51.49
444.17	60.85
444.35	46.81
444.54	58.51
444.73	0.00
444.91	49.15
445.10	0.00
445.28	9.36
445.47	0.00
445.65	32.77
445.84	86.60
446.02	42.13
446.21	44.47
446.39	0.00
446.58	23.41
446.77	16.38
446.95	42.13
447.14	63.19
447.32	0.00
447.51	0.00
447.69	9.36
447.88	88.94
448.06	63.19
448.25	0.00
448.43	25.75
448.62	49.15
448.80	42.13
448.99	145.11
449.17	42.13
449.36	28.09
449.54	35.11
449.73	9.36
449.91	0.00
450.10	67.88
450.28	70.22
450.46	100.64
450.65	35.11
450.83	72.56
451.02	28.09
451.20	60.85
451.39	60.85
451.57	35.11
451.76	67.88
451.94	51.49
452.13	91.28
452.31	0.00
452.49	53.83
452.68	4.68
452.86	23.41
453.05	7.02
453.23	46.81
453.42	53.83
453.60	65.54
453.78	39.79
453.97	42.13
454.15	35.11
454.34	117.03
454.52	70.22
454.70	0.00
454.89	0.00
455.07	28.09
455.26	46.81
455.44	35.11
455.62	14.04
455.81	18.72
455.99	0.00
456.17	0.00
456.36	84.26
456.54	18.72
456.73	110.01
456.91	70.22
457.09	0.00
457.28	60.85
457.46	58.51
457.64	39.79
457.83	28.09
458.01	23.41
458.19	51.49
458.38	0.00
458.56	25.75
458.74	0.00
458.93	53.83
459.11	23.41
459.29	42.13
459.48	60.85
459.66	14.04
459.84	28.09
460.03	39.79
460.21	11.70
460.39	70.22
460.57	23.41
460.76	74.90
460.94	2.34
461.12	79.58
461.31	67.88
461.49	58.51
461.67	7.02
461.85	0.00
462.04	37.45
462.22	53.83
462.40	79.58
462.59	44.47
462.77	16.38
462.95	11.70
463.13	25.75
463.32	32.77
463.50	91.28
463.68	49.15
463.86	7.02
464.05	0.00
464.23	0.00
464.41	0.00
464.59	0.00
464.78	4.68
464.96	25.75
465.14	112.35
465.32	0.00
465.50	39.79
465.69	32.77
465.87	0.00
466.05	88.94
466.23	79.58
466.41	88.94
466.60	30.43
466.78	35.11
466.96	58.51
467.14	14.04
467.32	11.70
467.51	28.09
467.69	44.47
467.87	102.98
468.05	70.22
468.23	74.90
468.41	42.13
468.60	0.00
468.78	100.64
468.96	63.19
469.14	60.85
469.32	65.54
469.50	30.43
469.69	4.68
469.87	44.47
470.05	58.51
470.23	121.71
470.41	7.02
470.59	28.09
470.77	16.38
470.95	72.56
471.14	72.56
471.32	11.70
471.50	63.19
471.68	16.38
471.86	42.13
472.04	0.00
472.22	53.83
472.40	28.09
472.58	60.85
472.77	0.00
472.95	42.13
473.13	49.15
473.31	28.09
473.49	0.00
473.67	30.43
473.85	44.47
474.03	11.70
474.21	21.06
474.39	9.36
474.57	0.00
474.75	56.17
474.93	0.00
475.12	2.34
475.30	67.88
475.48	60.85
475.66	95.96
475.84	0.00
476.02	0.00
476.20	77.24
476.38	88.94
476.56	0.00
476.74	42.13
476.92	77.24
477.10	18.72
477.28	44.47
477.46	7.02
477.64	21.06
477.82	49.15
478.00	60.85
478.18	0.00
478.36	88.94
478.54	25.75
478.72	105.32
478.90	0.00
479.08	93.62
479.26	23.41
479.44	91.28
479.62	35.11
479.80	0.00
479.98	4.68
480.16	32.77
480.34	114.69
480.52	72.56
480.70	51.49
480.88	0.00
481.06	72.56
481.24	49.15
481.41	35.11
481.59	0.00
481.77	0.00
481.95	37.45
482.13	88.94
482.31	77.24
482.49	39.79
482.67	7.02
482.85	91.28
483.03	23.41
483.21	53.83
483.39	0.00
483.57	21.06
483.74	44.47
483.92	0.00
484.10	37.45
484.28	42.13
484.46	46.81
484.64	88.94
484.82	21.06
485.00	65.54
485.18	28.09
485.35	32.77
485.53	0.00
485.71	2.34
485.89	0.00
486.07	44.47
486.25	67.88
486.43	37.45
486.61	39.79
486.78	28.09
486.96	7.02
487.14	0.00
487.32	0.00
487.50	0.00
487.68	0.00
487.85	0.00
488.03	95.96
488.21	35.11
488.39	11.70
488.57	56.17
488.75	18.72
488.92	60.85
489.10	53.83
489.28	39.79
489.46	28.09
489.64	9.36
489.81	0.00
489.99	0.00
490.17	18.72
490.35	86.60
490.53	28.09
490.70	37.45
490.88	58.51
491.06	35.11
491.24	105.32
491.41	44.47
491.59	35.11
491.77	72.56
491.95	0.00
492.13	44.47
492.30	58.51
492.48	46.81
492.66	53.83
492.84	79.58
493.01	30.43
493.19	39.79
493.37	46.81
493.54	0.00
493.72	58.51
493.90	35.11
494.08	42.13
494.25	49.15
494.43	84.26
494.61	70.22
494.79	7.02
494.96	21.06
495.14	93.62
495.32	2.34
495.49	84.26
495.67	114.69
495.85	49.15
496.02	0.00
496.20	0.00
496.38	58.51
496.55	7.02
496.73	79.58
496.91	53.83
497.09	37.45
497.26	51.49
497.44	30.43
497.62	0.00
497.79	63.19
497.97	16.38
498.14	23.41
498.32	39.79
498.50	14.04
498.67	28.09
498.85	21.06
499.03	0.00
499.20	65.54
499.38	39.79
499.56	74.90
499.73	49.15
499.91	51.49
500.08	28.09
500.26	4.68
500.44	16.38
500.61	35.11
500.79	39.79
500.97	0.00
501.14	39.79
501.32	18.72
501.49	37.45
501.67	102.98
501.84	23.41
502.02	23.41
502.20	49.15
502.37	32.77
502.55	42.13
502.72	28.09
502.90	100.64
503.07	58.51
503.25	11.70
503.43	65.54
503.60	56.17
503.78	0.00
503.95	37.45
504.13	7.02
504.30	21.06
504.48	91.28
504.65	63.19
504.83	0.00
505.01	58.51
505.18	9.36
505.36	32.77
505.53	28.09
505.71	86.60
505.88	67.88
506.06	93.62
506.23	70.22
506.41	35.11
506.58	51.49
506.76	56.17
506.93	0.00
507.11	0.00
507.28	74.90
507.46	37.45
507.63	23.41
507.81	46.81
507.98	49.15
508.16	70.22
508.33	0.00
508.50	60.85
508.68	98.30
508.85	63.19
509.03	98.30
509.20	56.17
509.38	84.26
509.55	18.72
509.73	0.00
509.90	0.00
510.08	58.51
510.25	9.36
510.42	21.06
510.60	25.75
510.77	7.02
510.95	42.13
511.12	63.19
511.30	51.49
511.47	84.26
511.64	65.54
511.82	7.02
511.99	119.37
512.17	135.75
512.34	32.77
512.51	30.43
512.69	23.41
512.86	30.43
513.04	18.72
513.21	11.70
513.38	60.85
513.56	100.64
513.73	28.09
513.90	56.17
514.08	126.39
514.25	100.64
514.43	102.98
514.60	79.58
514.77	102.98
514.95	46.81
515.12	72.56
515.29	53.83
515.47	0.00
515.64	86.60
515.81	117.03
515.99	7.02
516.16	74.90
516.33	46.81
516.51	0.00
516.68	2.34
516.85	70.22
517.03	98.30
517.20	21.06
517.37	0.00
517.54	0.00
517.72	39.79
517.89	28.09
518.06	35.11
518.24	14.04
518.41	84.26
518.58	46.81
518.75	100.64
518.93	28.09
519.10	53.83
519.27	42.13
519.45	95.96
519.62	84.26
519.79	32.77
519.96	91.28
520.14	67.88
520.31	86.60
520.48	63.19
520.65	53.83
520.83	58.51
521.00	58.51
521.17	23.41
521.34	0.00
521.52	77.24
521.69	7.02
521.86	72.56
522.03	65.54
522.20	44.47
522.38	32.77
522.55	9.36
522.72	18.72
522.89	18.72
523.07	0.00
523.24	4.68
523.41	25.75
523.58	79.58
523.75	32.77
523.92	25.75
524.10	79.58
524.27	28.09
524.44	81.92
524.61	32.77
524.78	21.06
524.96	21.06
525.13	58.51
525.30	70.22
525.47	39.79
525.64	70.22
525.81	49.15
525.98	86.60
526.16	70.22
526.33	77.24
526.50	9.36
526.67	25.75
526.84	67.88
527.01	74.90
527.18	0.00
527.36	9.36
527.53	44.47
527.70	14.04
527.87	25.75
528.04	84.26
528.21	4.68
528.38	14.04
528.55	28.09
528.72	70.22
528.89	32.77
529.07	49.15
529.24	49.15
529.41	23.41
529.58	23.41
529.75	2.34
529.92	67.88
530.09	0.00
530.26	37.45
530.43	46.81
530.60	102.98
530.77	98.30
530.94	53.83
531.11	0.00
531.28	44.47
531.46	14.04
531.63	86.60
531.80	173.20
531.97	77.24
532.14	88.94
532.31	0.00
532.48	70.22
532.65	9.36
532.82	67.88
532.99	0.00
533.16	4.68
533.33	0.00
533.50	60.85
533.67	49.15
533.84	46.81
534.01	35.11
534.18	95.96
534.35	16.38
534.52	79.58
534.69	18.72
534.86	4.68
535.03	49.15
535.20	86.60
535.37	79.58
535.54	84.26
535.71	51.49
535.88	117.03
536.05	65.54
536.22	37.45
536.38	21.06
536.55	21.06
536.72	0.00
536.89	35.11
537.06	102.98
537.23	35.11
537.40	16.38
537.57	25.75
537.74	14.04
537.91	7.02
538.08	7.02
538.25	14.04
538.42	67.88
538.59	32.77
538.75	58.51
538.92	42.13
539.09	18.72
539.26	65.54
539.43	44.47
539.60	14.04
539.77	86.60
539.94	65.54
540.11	39.79
540.28	74.90
540.44	79.58
540.61	37.45
540.78	86.60
540.95	0.00
541.12	67.88
541.29	63.19
541.46	114.69
541.62	74.90
541.79	67.88
541.96	72.56
542.13	7.02
542.30	105.32
542.47	67.88
542.63	28.09
542.80	100.64
542.97	39.79
543.14	77.24
543.31	70.22
543.48	44.47
543.64	51.49
543.81	65.54
543.98	95.96
544.15	16.38
544.32	51.49
544.48	49.15
544.65	70.22
544.82	42.13
544.99	70.22
545.16	56.17
545.32	42.13
545.49	88.94
545.66	28.09
545.83	98.30
546.00	18.72
546.16	14.04
546.33	131.07
546.50	86.60
546.67	84.26
546.83	86.60
547.00	72.56
547.17	30.43
547.34	70.22
547.50	65.54
547.67	14.04
547.84	37.45
548.00	74.90
548.17	58.51
548.34	42.13
548.51	70.22
548.67	60.85
548.84	4.68
549.01	79.58
549.18	4.68
549.34	18.72
549.51	25.75
549.68	51.49
549.84	39.79
550.01	46.81
550.18	86.60
550.34	28.09
550.51	23.41
550.68	2.34
550.84	44.47
551.01	67.88
551.18	49.15
551.34	25.75
551.51	39.79
551.68	32.77
551.84	63.19
552.01	37.45
552.18	30.43
552.34	49.15
552.51	32.77
552.68	119.37
552.84	0.00
553.01	51.49
553.18	23.41
553.34	81.92
553.51	79.58
553.67	39.79
553.84	37.45
554.01	37.45
554.17	16.38
554.34	86.60
554.51	28.09
554.67	70.22
554.84	86.60
555.00	114.69
555.17	42.13
555.33	93.62
555.50	25.75
555.67	32.77
555.83	32.77
556.00	70.22
556.16	44.47
556.33	32.77
556.50	39.79
556.66	77.24
556.83	93.62
556.99	14.04
557.16	91.28
557.32	65.54
557.49	14.04
557.65	72.56
557.82	0.00
557.98	28.09
558.15	0.00
558.32	32.77
558.48	119.37
558.65	100.64
558.81	30.43
558.98	60.85
559.14	18.72
559.31	4.68
559.47	0.00
559.64	60.85
559.80	84.26
559.97	0.00
560.13	32.77
560.30	23.41
560.46	30.43
560.63	72.56
560.79	79.58
560.96	91.28
561.12	95.96
561.29	11.70
561.45	44.47
561.61	128.73
561.78	114.69
561.94	42.13
562.11	51.49
562.27	14.04
562.44	46.81
562.60	9.36
562.77	70.22
562.93	44.47
563.10	70.22
563.26	70.22
563.42	88.94
563.59	11.70
563.75	0.00
563.92	51.49
564.08	49.15
564.24	35.11
564.41	42.13
564.57	121.71
564.74	46.81
564.90	32.77
565.07	102.98
565.23	63.19
565.39	4.68
565.56	7.02
565.72	44.47
565.88	0.00
566.05	0.00
566.21	126.39
566.38	65.54
566.54	56.17
566.70	4.68
566.87	88.94
567.03	63.19
567.19	0.00
567.36	98.30
567.52	11.70
567.68	42.13
567.85	4.68
568.01	25.75
568.17	114.69
568.34	135.75
568.50	14.04
568.66	42.13
568.83	23.41
568.99	42.13
569.15	74.90
569.32	42.13
569.48	79.58
569.64	49.15
569.81	67.88
569.97	49.15
570.13	42.13
570.30	46.81
570.46	95.96
570.62	30.43
570.78	23.41
570.95	126.39
571.11	81.92
571.27	21.06
571.43	2.34
571.60	44.47
571.76	9.36
571.92	95.96
572.09	0.00
572.25	84.26
572.41	0.00
572.57	14.04
572.74	74.90
572.90	7.02
573.06	0.00
573.22	46.81
573.38	58.51
573.55	0.00
573.71	2.34
573.87	18.72
574.03	63.19
574.20	39.79
574.36	65.54
574.52	25.75
574.68	7.02
574.84	42.13
575.01	88.94
575.17	84.26
575.33	11.70
575.49	133.41
575.65	2.34
575.82	46.81
575.98	84.26
576.14	30.43
576.30	42.13
576.46	37.45
576.62	39.79
576.79	7.02
576.95	0.00
577.11	93.62
577.27	44.47
577.43	79.58
577.59	79.58
577.75	72.56
577.92	0.00
578.08	14.04
578.24	42.13
578.40	46.81
578.56	0.00
578.72	107.66
578.88	77.24
579.04	56.17
579.21	16.38
579.37	23.41
579.53	23.41
579.69	49.15
579.85	42.13
580.01	28.09
580.17	60.85
580.33	49.15
580.49	28.09
580.65	74.90
580.82	39.79
580.98	7.02
581.14	65.54
581.30	23.41
581.46	37.45
581.62	77.24
581.78	84.26
581.94	81.92
582.10	84.26
582.26	91.28
582.42	107.66
582.58	110.01
582.74	77.24
582.90	88.94
583.06	81.92
583.22	60.85
583.38	86.60
583.54	4.68
583.70	77.24
583.86	63.19
584.02	25.75
584.18	56.17
584.34	79.58
584.50	0.00
584.66	95.96
584.82	67.88
584.98	72.56
585.14	105.32
585.30	28.09
585.46	53.83
585.62	60.85
585.78	0.00
585.94	77.24
586.10	93.62
586.26	0.00
586.42	4.68
586.58	93.62
586.74	77.24
586.90	95.96
587.06	44.47
587.22	14.04
587.38	53.83
587.54	39.79
587.70	91.28
587.86	56.17
588.02	23.41
588.18	70.22
588.34	16.38
588.49	46.81
588.65	65.54
588.81	37.45
588.97	77.24
589.13	77.24
589.29	88.94
589.45	51.49
589.61	42.13
589.77	114.69
589.93	4.68
590.08	0.00
590.24	56.17
590.40	110.01
590.56	77.24
590.72	14.04
590.88	93.62
591.04	37.45
591.20	25.75
591.35	32.77
591.51	23.41
591.67	88.94
591.83	42.13
591.99	91.28
592.15	79.58
592.31	88.94
592.46	44.47
592.62	23.41
592.78	35.11
592.94	124.05
593.10	56.17
593.26	4.68
593.41	14.04
593.57	93.62
593.73	16.38
593.89	60.85
594.05	21.06
594.20	2.34
594.36	102.98
594.52	0.00
594.68	37.45
594.84	88.94
594.99	32.77
595.15	72.56
595.31	105.32
595.47	25.75
595.62	63.19
595.78	4.68
595.94	30.43
596.10	81.92
596.25	110.01
596.41	91.28
596.57	46.81
596.73	32.77
596.88	16.38
597.04	0.00
597.20	39.79
597.36	28.09
597.51	46.81
597.67	30.43
597.83	86.60
597.99	65.54
598.14	14.04
598.30	74.90
598.46	39.79
598.61	56.17
598.77	0.00
598.93	81.92
599.09	56.17
599.24	14.04
599.40	9.36
599.56	56.17
599.71	0.00
599.87	166.18
600.03	9.36
600.18	11.70
600.34	25.75
600.50	51.49
600.65	9.36
600.81	128.73
600.97	81.92
601.12	65.54
601.28	4.68
601.44	102.98
601.59	0.00
601.75	72.56
601.91	46.81
602.06	65.54
602.22	74.90
602.37	100.64
602.53	0.00
602.69	0.00
602.84	51.49
603.00	60.85
603.16	79.58
603.31	30.43
603.47	16.38
603.62	39.79
603.78	126.39
603.94	23.41
604.09	11.70
604.25	39.79
604.40	42.13
604.56	0.00
604.71	65.54
604.87	28.09
605.03	0.00
605.18	65.54
605.34	53.83
605.49	30.43
605.65	56.17
605.80	46.81
605.96	21.06
606.12	110.01
606.27	44.47
606.43	4.68
606.58	39.79
606.74	0.00
606.89	93.62
607.05	25.75
607.20	0.00
607.36	39.79
607.51	46.81
607.67	126.39
607.82	58.51
607.98	42.13
608.13	28.09
608.29	25.75
608.44	46.81
608.60	98.30
608.75	28.09
608.91	100.64
609.06	53.83
609.22	37.45
609.37	0.00
609.53	11.70
609.68	35.11
609.84	25.75
609.99	32.77
610.15	21.06
610.30	105.32
610.46	93.62
610.61	0.00
610.76	21.06
610.92	119.37
611.07	32.77
611.23	4.68
611.38	102.98
611.54	0.00
611.69	44.47
611.84	51.49
612.00	37.45
612.15	60.85
612.31	63.19
612.46	11.70
612.62	56.17
612.77	42.13
612.92	65.54
613.08	102.98
613.23	51.49
613.39	63.19
613.54	9.36
613.69	37.45
613.85	0.00
614.00	23.41
614.15	21.06
614.31	0.00
614.46	39.79
614.62	0.00
614.77	84.26
614.92	42.13
615.08	102.98
615.23	86.60
615.38	95.96
615.54	14.04
615.69	46.81
615.84	49.15
616.00	28.09
616.15	56.17
616.30	49.15
616.46	49.15
616.61	53.83
616.76	9.36
616.92	32.77
617.07	65.54
617.22	39.79
617.37	0.00
617.53	30.43
617.68	79.58
617.83	21.06
617.99	60.85
618.14	16.38
618.29	42.13
618.45	70.22
618.60	46.81
618.75	2.34
618.90	49.15
619.06	28.09
619.21	21.06
619.36	25.75
619.51	7.02
619.67	74.90
619.82	18.72
619.97	32.77
620.12	81.92
620.28	58.51
620.43	9.36
620.58	44.47
620.73	72.56
620.89	25.75
621.04	70.22
621.19	58.51
621.34	32.77
621.49	18.72
621.65	124.05
621.80	21.06
621.95	58.51
622.10	0.00
622.25	11.70
622.41	44.47
622.56	23.41
622.71	35.11
622.86	72.56
623.01	42.13
623.16	49.15
623.32	23.41
623.47	0.00
623.62	39.79
623.77	0.00
623.92	74.90
624.07	0.00
624.23	98.30
624.38	46.81
624.53	60.85
624.68	56.17
624.83	46.81
624.98	18.72
625.13	32.77
625.29	98.30
625.44	37.45
625.59	46.81
625.74	14.04
625.89	0.00
626.04	0.00
626.19	25.75
626.34	53.83
626.49	84.26
626.65	39.79
626.80	16.38
626.95	0.00
627.10	49.15
627.25	60.85
627.40	60.85
627.55	60.85
627.70	32.77
627.85	9.36
628.00	18.72
628.15	70.22
628.30	63.19
628.45	39.79
628.60	88.94
628.76	11.70
628.91	0.00
629.06	46.81
629.21	110.01
629.36	18.72
629.51	0.00
629.66	9.36
629.81	56.17
629.96	18.72
630.11	98.30
630.26	65.54
630.41	39.79
630.56	44.47
630.71	112.35
630.86	67.88
631.01	56.17
631.16	39.79
631.31	51.49
631.46	0.00
631.61	0.00
631.76	0.00
631.91	0.00
632.06	9.36
632.21	81.92
632.36	65.54
632.51	21.06
632.66	46.81
632.81	35.11
632.96	14.04
633.10	39.79
633.25	67.88
633.40	63.19
633.55	81.92
633.70	0.00
633.85	0.00
634.00	32.77
634.15	0.00
634.30	53.83
634.45	49.15
634.60	28.09
634.75	25.75
634.90	39.79
635.05	32.77
635.19	32.77
635.34	0.00
635.49	0.00
635.64	98.30
635.79	49.15
635.94	49.15
636.09	72.56
636.24	11.70
636.39	51.49
636.53	42.13
636.68	95.96
636.83	23.41
636.98	112.35
637.13	128.73
637.28	32.77
637.43	0.00
637.57	37.45
637.72	0.00
637.87	35.11
638.02	0.00
638.17	28.09
638.32	0.00
638.46	0.00
638.61	0.00
638.76	37.45
638.91	35.11
639.06	0.00
639.20	0.00
639.35	14.04
639.50	88.94
639.65	7.02
639.80	18.72
639.94	67.88
640.09	56.17
640.24	39.79
640.39	4.68
640.54	32.77
640.68	16.38
640.83	35.11
640.98	7.02
641.13	51.49
641.27	32.77
641.42	77.24
641.57	81.92
641.72	0.00
641.86	95.96
642.01	49.15
642.16	117.03
642.31	39.79
642.45	7.02
642.60	46.81
642.75	0.00
642.90	25.75
643.04	2.34
643.19	88.94
643.34	56.17
643.48	4.68
643.63	77.24
643.78	100.64
643.93	35.11
644.07	91.28
644.22	53.83
644.37	51.49
644.51	35.11
644.66	86.60
644.81	0.00
644.95	7.02
645.10	49.15
645.25	35.11
645.39	88.94
645.54	53.83
645.69	39.79
645.83	25.75
645.98	79.58
646.13	21.06
646.27	7.02
646.42	32.77
646.57	7.02
646.71	79.58
646.86	11.70
647.00	46.81
647.15	0.00
647.30	0.00
647.44	32.77
647.59	35.11
647.74	49.15
647.88	21.06
648.03	0.00
648.17	84.26
648.32	42.13
648.47	4.68
648.61	35.11
648.76	58.51
648.90	70.22
649.05	49.15
649.20	18.72
649.34	65.54
649.49	30.43
649.63	70.22
649.78	74.90
649.92	14.04
650.07	63.19
650.21	58.51
650.36	25.75
650.51	0.00
650.65	32.77
650.80	0.00
650.94	39.79
651.09	63.19
651.23	37.45
651.38	35.11
651.52	30.43
651.67	107.66
651.81	18.72
651.96	0.00
652.10	0.00
652.25	84.26
652.39	35.11
652.54	0.00
652.68	56.17
652.83	53.83
652.97	53.83
653.12	0.00
653.26	35.11
653.41	63.19
653.55	11.70
653.70	65.54
653.84	0.00
653.99	42.13
654.13	0.00
654.27	42.13
654.42	16.38
654.56	44.47
654.71	35.11
654.85	28.09
655.00	0.00
655.14	30.43
655.29	84.26
655.43	0.00
655.57	14.04
655.72	77.24
655.86	51.49
656.01	63.19
656.15	7.02
656.30	98.30
656.44	0.00
656.58	51.49
656.73	35.11
656.87	9.36
657.01	74.90
657.16	67.88
657.30	98.30
657.45	49.15
657.59	30.43
657.73	4.68
657.88	0.00
658.02	0.00
658.16	18.72
658.31	7.02
658.45	119.37
658.60	0.00
658.74	28.09
658.88	0.00
659.03	63.19
659.17	51.49
659.31	0.00
659.46	67.88
659.60	0.00
659.74	74.90
659.89	0.00
660.03	14.04
660.17	37.45
660.32	63.19
660.46	0.00
660.60	63.19
660.74	51.49
660.89	81.92
661.03	0.00
661.17	51.49
661.32	30.43
661.46	0.00
661.60	39.79
661.74	53.83
661.89	77.24
662.03	21.06
662.17	30.43
662.31	60.85
662.46	21.06
662.60	37.45
662.74	37.45
662.88	16.38
663.03	9.36
663.17	53.83
663.31	21.06
663.45	0.00
663.60	25.75
663.74	23.41
663.88	0.00
664.02	21.06
664.17	60.85
664.31	51.49
664.45	46.81
664.59	14.04
664.73	9.36
664.88	44.47
665.02	46.81
665.16	37.45
665.30	28.09
665.44	86.60
665.59	51.49
665.73	28.09
665.87	0.00
666.01	0.00
666.15	77.24
666.29	77.24
666.44	25.75
666.58	58.51
666.72	44.47
666.86	42.13
667.00	14.04
667.14	30.43
667.28	77.24
667.43	0.00
667.57	67.88
667.71	67.88
667.85	0.00
667.99	30.43
668.13	9.36
668.27	42.13
668.41	131.07
668.56	67.88
668.70	149.79
668.84	0.00
668.98	25.75
669.12	0.00
669.26	21.06
669.40	7.02
669.54	18.72
669.68	37.45
669.82	0.00
669.96	35.11
670.10	0.00
670.25	35.11
670.39	72.56
670.53	28.09
670.67	112.35
670.81	67.88
670.95	131.07
671.09	72.56
671.23	14.04
671.37	21.06
671.51	35.11
671.65	60.85
671.79	0.00
671.93	65.54
672.07	46.81
672.21	39.79
672.35	0.00
672.49	58.51
672.63	39.79
672.77	58.51
672.91	25.75
673.05	77.24
673.19	121.71
673.33	0.00
673.47	9.36
673.61	0.00
673.75	72.56
673.89	105.32
674.03	72.56
674.17	39.79
674.31	7.02
674.45	30.43
674.59	0.00
674.73	25.75
674.87	11.70
675.01	25.75
675.15	44.47
675.29	114.69
675.43	0.00
675.56	0.00
675.70	39.79
675.84	74.90
675.98	35.11
676.12	14.04
676.26	0.00
676.40	77.24
676.54	18.72
676.68	16.38
676.82	14.04
676.96	58.51
677.10	21.06
677.23	86.60
677.37	46.81
677.51	93.62
677.65	37.45
677.79	21.06
677.93	0.00
678.07	65.54
678.21	51.49
678.34	32.77
678.48	23.41
678.62	0.00
678.76	16.38
678.90	0.00
679.04	0.00
679.18	46.81
679.31	77.24
679.45	88.94
679.59	42.13
679.73	67.88
679.87	46.81
680.00	42.13
680.14	91.28
680.28	30.43
680.42	65.54
680.56	4.68
680.70	0.00
680.83	23.41
680.97	44.47
681.11	11.70
681.25	0.00
681.39	9.36
681.52	63.19
681.66	32.77
681.80	39.79
681.94	23.41
682.07	70.22
682.21	23.41
682.35	84.26
682.49	30.43
682.62	25.75
682.76	32.77
682.90	30.43
683.04	72.56
683.17	0.00
683.31	51.49
683.45	42.13
683.59	0.00
683.72	7.02
683.86	30.43
684.00	63.19
684.13	0.00
684.27	23.41
684.41	30.43
684.55	0.00
684.68	72.56
684.82	49.15
684.96	49.15
685.09	16.38
685.23	37.45
685.37	77.24
685.50	0.00
685.64	53.83
685.78	91.28
685.91	0.00
686.05	30.43
686.19	112.35
686.32	0.00
686.46	51.49
686.60	4.68
686.73	30.43
686.87	60.85
687.01	30.43
687.14	30.43
687.28	7.02
687.42	72.56
687.55	0.00
687.69	56.17
687.82	18.72
687.96	58.51
688.10	35.11
688.23	11.70
688.37	25.75
688.50	0.00
688.64	28.09
688.78	49.15
688.91	53.83
689.05	39.79
689.18	49.15
689.32	0.00
689.46	91.28
689.59	60.85
689.73	86.60
689.86	25.75
690.00	0.00
690.13	16.38
690.27	46.81
690.41	30.43
690.54	21.06
690.68	30.43
690.81	67.88
690.95	39.79
691.08	77.24
691.22	18.72
691.35	30.43
691.49	37.45
691.62	0.00
691.76	21.06
691.89	46.81
692.03	81.92
692.16	112.35
692.30	63.19
692.43	30.43
692.57	37.45
692.70	51.49
692.84	58.51
692.97	2.34
693.11	2.34
693.24	39.79
693.38	0.00
693.51	16.38
693.65	21.06
693.78	0.00
693.92	7.02
694.05	32.77
694.19	9.36
694.32	37.45
694.45	4.68
694.59	0.00
694.72	86.60
694.86	0.00
694.99	21.06
695.13	37.45
695.26	16.38
695.39	0.00
695.53	21.06
695.66	2.34
695.80	46.81
695.93	23.41
696.07	9.36
696.20	0.00
696.33	65.54
696.47	0.00
696.60	11.70
696.73	37.45
696.87	0.00
697.00	0.00
697.14	4.68
697.27	46.81
697.40	42.13
697.54	16.38
697.67	14.04
697.80	58.51
697.94	70.22
698.07	7.02
698.21	23.41
698.34	0.00
698.47	4.68
698.61	0.00
698.74	23.41
698.87	72.56
699.01	14.04
699.14	16.38
699.27	9.36
699.40	74.90
699.54	44.47
699.67	51.49
699.80	84.26
699.94	0.00
700.07	25.75
700.20	0.00
700.34	0.00
700.47	23.41
700.60	60.85
700.73	2.34
700.87	37.45
701.00	65.54
701.13	74.90
701.26	63.19
701.40	28.09
701.53	0.00
701.66	39.79
701.79	49.15
701.93	42.13
702.06	51.49
702.19	14.04
702.32	126.39
702.46	4.68
702.59	37.45
702.72	46.81
702.85	0.00
702.99	56.17
703.12	51.49
703.25	28.09
703.38	23.41
703.51	74.90
703.65	60.85
703.78	42.13
703.91	32.77
704.04	67.88
704.17	0.00
704.31	0.00
704.44	65.54
704.57	25.75
704.70	65.54
704.83	51.49
704.96	44.47
705.10	88.94
705.23	0.00
>>>>>End Processed Spectral Data<<<<<
