SpectraSuite Data File
++++++++++++++++++++++++++++++++++++
Date: Fri Oct 04 12:13:36 GMT-05:00 2013
User: price-jones
Dark Spectrum Present: No
Reference Spectrum Present: No
Number of Sampled Component Spectra: 1
Spectrometers: USB2+H05261
Integration Time (usec): 10000 (USB2+H05261)
Spectra Averaged: 1 (USB2+H05261)
Boxcar Smoothing: 0 (USB2+H05261)
Correct for Electrical Dark: No (USB2+H05261)
Strobe/Lamp Enabled: No (USB2+H05261)
Correct for Detector Non-linearity: No (USB2+H05261)
Correct for Stray Light: No (USB2+H05261)
Number of Pixels in Processed Spectrum: 2048
>>>>>Begin Processed Spectral Data<<<<<
365.73	11.70
365.92	11.70
366.12	11.70
366.32	0.00
366.52	0.00
366.72	0.00
366.91	0.00
367.11	0.00
367.31	0.00
367.51	0.00
367.70	0.00
367.90	0.00
368.10	0.00
368.30	0.00
368.49	0.00
368.69	0.00
368.89	0.00
369.09	0.00
369.28	0.00
369.48	0.00
369.68	0.00
369.87	0.00
370.07	0.00
370.27	0.00
370.47	0.00
370.66	4.68
370.86	11.70
371.06	9.36
371.25	0.00
371.45	0.00
371.65	0.00
371.84	0.00
372.04	0.00
372.24	0.00
372.44	25.75
372.63	53.83
372.83	23.41
373.03	119.37
373.22	4.68
373.42	28.09
373.62	0.00
373.81	49.15
374.01	0.00
374.21	37.45
374.40	4.68
374.60	0.00
374.79	81.92
374.99	0.00
375.19	2.34
375.38	44.47
375.58	65.54
375.78	44.47
375.97	0.00
376.17	16.38
376.37	35.11
376.56	95.96
376.76	32.77
376.95	119.37
377.15	9.36
377.35	18.72
377.54	0.00
377.74	4.68
377.93	0.00
378.13	0.00
378.33	0.00
378.52	56.17
378.72	2.34
378.91	46.81
379.11	39.79
379.31	0.00
379.50	25.75
379.70	0.00
379.89	0.00
380.09	93.62
380.28	35.11
380.48	16.38
380.68	58.51
380.87	2.34
381.07	9.36
381.26	9.36
381.46	2.34
381.65	39.79
381.85	0.00
382.04	0.00
382.24	65.54
382.43	42.13
382.63	0.00
382.83	0.00
383.02	30.43
383.22	37.45
383.41	11.70
383.61	0.00
383.80	18.72
384.00	0.00
384.19	0.00
384.39	0.00
384.58	46.81
384.78	0.00
384.97	32.77
385.17	28.09
385.36	39.79
385.56	84.26
385.75	0.00
385.95	0.00
386.14	35.11
386.34	37.45
386.53	0.00
386.72	30.43
386.92	2.34
387.11	0.00
387.31	65.54
387.50	35.11
387.70	0.00
387.89	28.09
388.09	2.34
388.28	7.02
388.48	0.00
388.67	44.47
388.86	35.11
389.06	0.00
389.25	30.43
389.45	0.00
389.64	56.17
389.84	23.41
390.03	44.47
390.22	35.11
390.42	21.06
390.61	9.36
390.81	35.11
391.00	35.11
391.19	0.00
391.39	2.34
391.58	14.04
391.78	56.17
391.97	56.17
392.16	0.00
392.36	25.75
392.55	32.77
392.75	46.81
392.94	60.85
393.13	56.17
393.33	0.00
393.52	16.38
393.71	0.00
393.91	0.00
394.10	58.51
394.29	0.00
394.49	9.36
394.68	9.36
394.88	77.24
395.07	0.00
395.26	18.72
395.46	4.68
395.65	11.70
395.84	0.00
396.04	0.00
396.23	56.17
396.42	18.72
396.62	37.45
396.81	67.88
397.00	18.72
397.19	0.00
397.39	49.15
397.58	32.77
397.77	0.00
397.97	58.51
398.16	51.49
398.35	0.00
398.55	0.00
398.74	46.81
398.93	60.85
399.12	0.00
399.32	84.26
399.51	0.00
399.70	18.72
399.90	81.92
400.09	16.38
400.28	0.00
400.47	0.00
400.67	7.02
400.86	44.47
401.05	58.51
401.24	14.04
401.44	18.72
401.63	9.36
401.82	58.51
402.01	18.72
402.21	145.11
402.40	56.17
402.59	32.77
402.78	32.77
402.97	23.41
403.17	51.49
403.36	72.56
403.55	14.04
403.74	11.70
403.93	0.00
404.13	67.88
404.32	32.77
404.51	44.47
404.70	60.85
404.89	114.69
405.09	42.13
405.28	16.38
405.47	0.00
405.66	74.90
405.85	53.83
406.05	63.19
406.24	16.38
406.43	0.00
406.62	60.85
406.81	32.77
407.00	28.09
407.20	11.70
407.39	74.90
407.58	46.81
407.77	124.05
407.96	30.43
408.15	9.36
408.34	7.02
408.54	25.75
408.73	93.62
408.92	58.51
409.11	25.75
409.30	39.79
409.49	67.88
409.68	37.45
409.87	37.45
410.07	18.72
410.26	42.13
410.45	42.13
410.64	0.00
410.83	42.13
411.02	35.11
411.21	14.04
411.40	14.04
411.59	105.32
411.78	154.48
411.98	86.60
412.17	88.94
412.36	88.94
412.55	37.45
412.74	152.13
412.93	44.47
413.12	37.45
413.31	37.45
413.50	63.19
413.69	79.58
413.88	58.51
414.07	51.49
414.26	84.26
414.45	16.38
414.64	88.94
414.83	72.56
415.02	0.00
415.22	56.17
415.41	67.88
415.60	2.34
415.79	37.45
415.98	67.88
416.17	112.35
416.36	0.00
416.55	79.58
416.74	14.04
416.93	7.02
417.12	2.34
417.31	39.79
417.50	32.77
417.69	53.83
417.88	0.00
418.07	0.00
418.26	0.00
418.45	124.05
418.64	145.11
418.83	9.36
419.02	67.88
419.21	37.45
419.39	42.13
419.58	42.13
419.77	86.60
419.96	88.94
420.15	0.00
420.34	30.43
420.53	53.83
420.72	16.38
420.91	70.22
421.10	119.37
421.29	16.38
421.48	0.00
421.67	9.36
421.86	35.11
422.05	37.45
422.24	72.56
422.43	49.15
422.61	16.38
422.80	84.26
422.99	102.98
423.18	23.41
423.37	42.13
423.56	56.17
423.75	23.41
423.94	23.41
424.13	9.36
424.32	11.70
424.50	14.04
424.69	0.00
424.88	65.54
425.07	28.09
425.26	21.06
425.45	95.96
425.64	51.49
425.83	53.83
426.01	0.00
426.20	131.07
426.39	44.47
426.58	37.45
426.77	28.09
426.96	49.15
427.15	49.15
427.33	0.00
427.52	51.49
427.71	32.77
427.90	9.36
428.09	67.88
428.28	11.70
428.46	58.51
428.65	39.79
428.84	56.17
429.03	60.85
429.22	46.81
429.40	72.56
429.59	102.98
429.78	0.00
429.97	70.22
430.16	9.36
430.34	44.47
430.53	14.04
430.72	37.45
430.91	30.43
431.10	67.88
431.28	42.13
431.47	9.36
431.66	2.34
431.85	44.47
432.03	77.24
432.22	18.72
432.41	16.38
432.60	70.22
432.79	32.77
432.97	81.92
433.16	16.38
433.35	9.36
433.54	67.88
433.72	63.19
433.91	23.41
434.10	58.51
434.28	100.64
434.47	16.38
434.66	105.32
434.85	35.11
435.03	16.38
435.22	79.58
435.41	23.41
435.59	42.13
435.78	112.35
435.97	72.56
436.16	65.54
436.34	49.15
436.53	98.30
436.72	67.88
436.90	81.92
437.09	0.00
437.28	79.58
437.46	0.00
437.65	42.13
437.84	84.26
438.02	63.19
438.21	56.17
438.40	9.36
438.58	46.81
438.77	25.75
438.96	0.00
439.14	0.00
439.33	30.43
439.52	86.60
439.70	95.96
439.89	46.81
440.08	86.60
440.26	65.54
440.45	70.22
440.63	93.62
440.82	18.72
441.01	18.72
441.19	28.09
441.38	117.03
441.57	51.49
441.75	100.64
441.94	35.11
442.12	30.43
442.31	67.88
442.50	70.22
442.68	0.00
442.87	51.49
443.05	0.00
443.24	37.45
443.43	70.22
443.61	81.92
443.80	100.64
443.98	72.56
444.17	70.22
444.35	35.11
444.54	95.96
444.73	7.02
444.91	117.03
445.10	77.24
445.28	49.15
445.47	60.85
445.65	0.00
445.84	60.85
446.02	4.68
446.21	18.72
446.39	0.00
446.58	37.45
446.77	67.88
446.95	100.64
447.14	79.58
447.32	49.15
447.51	86.60
447.69	63.19
447.88	53.83
448.06	56.17
448.25	53.83
448.43	42.13
448.62	46.81
448.80	0.00
448.99	2.34
449.17	72.56
449.36	107.66
449.54	11.70
449.73	16.38
449.91	98.30
450.10	0.00
450.28	49.15
450.46	79.58
450.65	37.45
450.83	0.00
451.02	67.88
451.20	95.96
451.39	51.49
451.57	23.41
451.76	70.22
451.94	67.88
452.13	49.15
452.31	74.90
452.49	46.81
452.68	0.00
452.86	84.26
453.05	102.98
453.23	23.41
453.42	81.92
453.60	37.45
453.78	9.36
453.97	79.58
454.15	63.19
454.34	119.37
454.52	11.70
454.70	58.51
454.89	42.13
455.07	49.15
455.26	79.58
455.44	100.64
455.62	42.13
455.81	77.24
455.99	11.70
456.17	84.26
456.36	53.83
456.54	25.75
456.73	58.51
456.91	23.41
457.09	58.51
457.28	46.81
457.46	95.96
457.64	77.24
457.83	0.00
458.01	4.68
458.19	65.54
458.38	35.11
458.56	166.18
458.74	9.36
458.93	105.32
459.11	51.49
459.29	91.28
459.48	95.96
459.66	53.83
459.84	58.51
460.03	11.70
460.21	46.81
460.39	93.62
460.57	112.35
460.76	58.51
460.94	53.83
461.12	70.22
461.31	135.75
461.49	32.77
461.67	42.13
461.85	28.09
462.04	84.26
462.22	149.79
462.40	100.64
462.59	9.36
462.77	37.45
462.95	46.81
463.13	60.85
463.32	67.88
463.50	77.24
463.68	37.45
463.86	77.24
464.05	91.28
464.23	11.70
464.41	170.86
464.59	100.64
464.78	67.88
464.96	51.49
465.14	11.70
465.32	46.81
465.50	46.81
465.69	53.83
465.87	37.45
466.05	42.13
466.23	70.22
466.41	117.03
466.60	53.83
466.78	49.15
466.96	44.47
467.14	105.32
467.32	53.83
467.51	18.72
467.69	58.51
467.87	88.94
468.05	79.58
468.23	72.56
468.41	44.47
468.60	79.58
468.78	102.98
468.96	0.00
469.14	100.64
469.32	0.00
469.50	91.28
469.69	0.00
469.87	14.04
470.05	58.51
470.23	53.83
470.41	4.68
470.59	60.85
470.77	39.79
470.95	60.85
471.14	51.49
471.32	124.05
471.50	49.15
471.68	11.70
471.86	23.41
472.04	86.60
472.22	0.00
472.40	79.58
472.58	70.22
472.77	105.32
472.95	0.00
473.13	107.66
473.31	117.03
473.49	102.98
473.67	11.70
473.85	88.94
474.03	44.47
474.21	32.77
474.39	60.85
474.57	39.79
474.75	60.85
474.93	53.83
475.12	79.58
475.30	14.04
475.48	142.77
475.66	58.51
475.84	21.06
476.02	35.11
476.20	4.68
476.38	39.79
476.56	81.92
476.74	67.88
476.92	100.64
477.10	91.28
477.28	37.45
477.46	81.92
477.64	98.30
477.82	74.90
478.00	72.56
478.18	0.00
478.36	51.49
478.54	35.11
478.72	58.51
478.90	91.28
479.08	42.13
479.26	0.00
479.44	112.35
479.62	142.77
479.80	53.83
479.98	65.54
480.16	79.58
480.34	28.09
480.52	126.39
480.70	49.15
480.88	91.28
481.06	63.19
481.24	84.26
481.41	0.00
481.59	60.85
481.77	98.30
481.95	95.96
482.13	58.51
482.31	93.62
482.49	63.19
482.67	51.49
482.85	44.47
483.03	35.11
483.21	74.90
483.39	74.90
483.57	0.00
483.74	86.60
483.92	72.56
484.10	14.04
484.28	114.69
484.46	74.90
484.64	117.03
484.82	77.24
485.00	72.56
485.18	39.79
485.35	67.88
485.53	105.32
485.71	93.62
485.89	91.28
486.07	51.49
486.25	58.51
486.43	70.22
486.61	67.88
486.78	91.28
486.96	93.62
487.14	114.69
487.32	18.72
487.50	21.06
487.68	63.19
487.85	65.54
488.03	88.94
488.21	74.90
488.39	49.15
488.57	9.36
488.75	37.45
488.92	135.75
489.10	28.09
489.28	46.81
489.46	70.22
489.64	91.28
489.81	0.00
489.99	84.26
490.17	93.62
490.35	86.60
490.53	53.83
490.70	140.43
490.88	121.71
491.06	39.79
491.24	53.83
491.41	84.26
491.59	86.60
491.77	126.39
491.95	79.58
492.13	124.05
492.30	86.60
492.48	93.62
492.66	72.56
492.84	30.43
493.01	7.02
493.19	74.90
493.37	107.66
493.54	35.11
493.72	91.28
493.90	107.66
494.08	93.62
494.25	128.73
494.43	112.35
494.61	105.32
494.79	88.94
494.96	0.00
495.14	74.90
495.32	39.79
495.49	72.56
495.67	135.75
495.85	79.58
496.02	46.81
496.20	51.49
496.38	124.05
496.55	23.41
496.73	110.01
496.91	44.47
497.09	79.58
497.26	128.73
497.44	98.30
497.62	51.49
497.79	56.17
497.97	30.43
498.14	145.11
498.32	112.35
498.50	107.66
498.67	46.81
498.85	46.81
499.03	126.39
499.20	81.92
499.38	121.71
499.56	70.22
499.73	65.54
499.91	72.56
500.08	58.51
500.26	110.01
500.44	93.62
500.61	35.11
500.79	91.28
500.97	117.03
501.14	95.96
501.32	102.98
501.49	21.06
501.67	51.49
501.84	177.88
502.02	131.07
502.20	147.45
502.37	95.96
502.55	49.15
502.72	25.75
502.90	63.19
503.07	126.39
503.25	117.03
503.43	37.45
503.60	133.41
503.78	67.88
503.95	161.50
504.13	84.26
504.30	86.60
504.48	107.66
504.65	128.73
504.83	53.83
505.01	63.19
505.18	117.03
505.36	0.00
505.53	63.19
505.71	67.88
505.88	145.11
506.06	46.81
506.23	25.75
506.41	77.24
506.58	91.28
506.76	72.56
506.93	53.83
507.11	142.77
507.28	49.15
507.46	56.17
507.63	91.28
507.81	117.03
507.98	100.64
508.16	0.00
508.33	30.43
508.50	79.58
508.68	105.32
508.85	23.41
509.03	124.05
509.20	100.64
509.38	138.09
509.55	140.43
509.73	79.58
509.90	42.13
510.08	72.56
510.25	110.01
510.42	128.73
510.60	14.04
510.77	74.90
510.95	95.96
511.12	79.58
511.30	74.90
511.47	98.30
511.64	63.19
511.82	112.35
511.99	72.56
512.17	98.30
512.34	58.51
512.51	65.54
512.69	37.45
512.86	107.66
513.04	107.66
513.21	140.43
513.38	84.26
513.56	100.64
513.73	117.03
513.90	100.64
514.08	42.13
514.25	37.45
514.43	74.90
514.60	58.51
514.77	56.17
514.95	46.81
515.12	51.49
515.29	93.62
515.47	77.24
515.64	105.32
515.81	37.45
515.99	163.84
516.16	84.26
516.33	74.90
516.51	79.58
516.68	117.03
516.85	117.03
517.03	39.79
517.20	58.51
517.37	53.83
517.54	53.83
517.72	65.54
517.89	84.26
518.06	16.38
518.24	72.56
518.41	166.18
518.58	88.94
518.75	121.71
518.93	95.96
519.10	138.09
519.27	79.58
519.45	166.18
519.62	56.17
519.79	32.77
519.96	58.51
520.14	23.41
520.31	60.85
520.48	110.01
520.65	110.01
520.83	70.22
521.00	128.73
521.17	9.36
521.34	51.49
521.52	95.96
521.69	63.19
521.86	60.85
522.03	95.96
522.20	131.07
522.38	65.54
522.55	102.98
522.72	58.51
522.89	107.66
523.07	102.98
523.24	124.05
523.41	67.88
523.58	88.94
523.75	128.73
523.92	93.62
524.10	121.71
524.27	49.15
524.44	77.24
524.61	121.71
524.78	156.82
524.96	63.19
525.13	84.26
525.30	119.37
525.47	35.11
525.64	93.62
525.81	114.69
525.98	128.73
526.16	105.32
526.33	51.49
526.50	51.49
526.67	42.13
526.84	110.01
527.01	70.22
527.18	74.90
527.36	91.28
527.53	102.98
527.70	65.54
527.87	46.81
528.04	39.79
528.21	102.98
528.38	95.96
528.55	63.19
528.72	98.30
528.89	98.30
529.07	168.52
529.24	84.26
529.41	44.47
529.58	102.98
529.75	100.64
529.92	95.96
530.09	37.45
530.26	30.43
530.43	84.26
530.60	84.26
530.77	84.26
530.94	23.41
531.11	128.73
531.28	18.72
531.46	175.54
531.63	81.92
531.80	107.66
531.97	2.34
532.14	81.92
532.31	98.30
532.48	51.49
532.65	91.28
532.82	147.45
532.99	30.43
533.16	114.69
533.33	58.51
533.50	49.15
533.67	112.35
533.84	91.28
534.01	114.69
534.18	95.96
534.35	88.94
534.52	145.11
534.69	147.45
534.86	70.22
535.03	37.45
535.20	98.30
535.37	67.88
535.54	65.54
535.71	84.26
535.88	81.92
536.05	65.54
536.22	4.68
536.38	72.56
536.55	74.90
536.72	56.17
536.89	107.66
537.06	117.03
537.23	81.92
537.40	32.77
537.57	74.90
537.74	77.24
537.91	32.77
538.08	72.56
538.25	79.58
538.42	100.64
538.59	117.03
538.75	81.92
538.92	51.49
539.09	95.96
539.26	67.88
539.43	102.98
539.60	135.75
539.77	35.11
539.94	105.32
540.11	119.37
540.28	140.43
540.44	98.30
540.61	86.60
540.78	74.90
540.95	126.39
541.12	88.94
541.29	98.30
541.46	77.24
541.62	117.03
541.79	32.77
541.96	135.75
542.13	39.79
542.30	63.19
542.47	32.77
542.63	107.66
542.80	93.62
542.97	102.98
543.14	11.70
543.31	42.13
543.48	131.07
543.64	74.90
543.81	70.22
543.98	35.11
544.15	142.77
544.32	79.58
544.48	39.79
544.65	98.30
544.82	145.11
544.99	105.32
545.16	49.15
545.32	110.01
545.49	117.03
545.66	117.03
545.83	37.45
546.00	126.39
546.16	60.85
546.33	124.05
546.50	91.28
546.67	95.96
546.83	88.94
547.00	84.26
547.17	70.22
547.34	95.96
547.50	39.79
547.67	86.60
547.84	60.85
548.00	60.85
548.17	84.26
548.34	46.81
548.51	98.30
548.67	105.32
548.84	74.90
549.01	79.58
549.18	131.07
549.34	119.37
549.51	49.15
549.68	72.56
549.84	93.62
550.01	124.05
550.18	53.83
550.34	74.90
550.51	140.43
550.68	126.39
550.84	107.66
551.01	0.00
551.18	98.30
551.34	79.58
551.51	126.39
551.68	93.62
551.84	53.83
552.01	67.88
552.18	88.94
552.34	121.71
552.51	133.41
552.68	74.90
552.84	77.24
553.01	135.75
553.18	56.17
553.34	72.56
553.51	70.22
553.67	72.56
553.84	0.00
554.01	98.30
554.17	53.83
554.34	56.17
554.51	105.32
554.67	53.83
554.84	110.01
555.00	110.01
555.17	102.98
555.33	98.30
555.50	105.32
555.67	84.26
555.83	58.51
556.00	51.49
556.16	28.09
556.33	102.98
556.50	67.88
556.66	46.81
556.83	91.28
556.99	121.71
557.16	124.05
557.32	110.01
557.49	74.90
557.65	70.22
557.82	18.72
557.98	74.90
558.15	140.43
558.32	60.85
558.48	51.49
558.65	110.01
558.81	102.98
558.98	128.73
559.14	0.00
559.31	18.72
559.47	21.06
559.64	0.00
559.80	114.69
559.97	11.70
560.13	70.22
560.30	79.58
560.46	30.43
560.63	168.52
560.79	105.32
560.96	60.85
561.12	100.64
561.29	93.62
561.45	100.64
561.61	124.05
561.78	138.09
561.94	152.13
562.11	121.71
562.27	95.96
562.44	79.58
562.60	84.26
562.77	32.77
562.93	46.81
563.10	37.45
563.26	98.30
563.42	51.49
563.59	44.47
563.75	84.26
563.92	105.32
564.08	84.26
564.24	58.51
564.41	86.60
564.57	72.56
564.74	147.45
564.90	84.26
565.07	173.20
565.23	105.32
565.39	119.37
565.56	112.35
565.72	93.62
565.88	173.20
566.05	119.37
566.21	58.51
566.38	30.43
566.54	14.04
566.70	81.92
566.87	46.81
567.03	39.79
567.19	126.39
567.36	140.43
567.52	91.28
567.68	93.62
567.85	60.85
568.01	23.41
568.17	79.58
568.34	65.54
568.50	18.72
568.66	84.26
568.83	126.39
568.99	39.79
569.15	98.30
569.32	84.26
569.48	42.13
569.64	112.35
569.81	126.39
569.97	107.66
570.13	88.94
570.30	49.15
570.46	11.70
570.62	30.43
570.78	98.30
570.95	147.45
571.11	63.19
571.27	81.92
571.43	60.85
571.60	9.36
571.76	121.71
571.92	56.17
572.09	84.26
572.25	30.43
572.41	58.51
572.57	88.94
572.74	95.96
572.90	86.60
573.06	133.41
573.22	0.00
573.38	51.49
573.55	95.96
573.71	77.24
573.87	135.75
574.03	18.72
574.20	67.88
574.36	42.13
574.52	124.05
574.68	135.75
574.84	39.79
575.01	53.83
575.17	86.60
575.33	14.04
575.49	93.62
575.65	23.41
575.82	117.03
575.98	100.64
576.14	79.58
576.30	79.58
576.46	79.58
576.62	65.54
576.79	25.75
576.95	88.94
577.11	23.41
577.27	81.92
577.43	32.77
577.59	84.26
577.75	21.06
577.92	67.88
578.08	14.04
578.24	67.88
578.40	42.13
578.56	98.30
578.72	14.04
578.88	49.15
579.04	72.56
579.21	98.30
579.37	88.94
579.53	124.05
579.69	49.15
579.85	74.90
580.01	98.30
580.17	107.66
580.33	65.54
580.49	28.09
580.65	0.00
580.82	67.88
580.98	84.26
581.14	51.49
581.30	119.37
581.46	63.19
581.62	23.41
581.78	70.22
581.94	98.30
582.10	37.45
582.26	63.19
582.42	35.11
582.58	84.26
582.74	79.58
582.90	16.38
583.06	170.86
583.22	37.45
583.38	49.15
583.54	32.77
583.70	42.13
583.86	53.83
584.02	79.58
584.18	56.17
584.34	128.73
584.50	140.43
584.66	65.54
584.82	100.64
584.98	79.58
585.14	25.75
585.30	11.70
585.46	100.64
585.62	131.07
585.78	60.85
585.94	98.30
586.10	86.60
586.26	74.90
586.42	60.85
586.58	88.94
586.74	124.05
586.90	114.69
587.06	35.11
587.22	105.32
587.38	88.94
587.54	46.81
587.70	49.15
587.86	84.26
588.02	86.60
588.18	56.17
588.34	70.22
588.49	58.51
588.65	72.56
588.81	18.72
588.97	49.15
589.13	112.35
589.29	35.11
589.45	182.56
589.61	126.39
589.77	44.47
589.93	70.22
590.08	51.49
590.24	128.73
590.40	56.17
590.56	124.05
590.72	84.26
590.88	0.00
591.04	9.36
591.20	0.00
591.35	67.88
591.51	70.22
591.67	84.26
591.83	88.94
591.99	4.68
592.15	42.13
592.31	149.79
592.46	70.22
592.62	131.07
592.78	145.11
592.94	44.47
593.10	25.75
593.26	98.30
593.41	88.94
593.57	72.56
593.73	21.06
593.89	4.68
594.05	98.30
594.20	84.26
594.36	0.00
594.52	74.90
594.68	77.24
594.84	105.32
594.99	18.72
595.15	0.00
595.31	39.79
595.47	37.45
595.62	60.85
595.78	107.66
595.94	133.41
596.10	117.03
596.25	168.52
596.41	56.17
596.57	140.43
596.73	119.37
596.88	142.77
597.04	142.77
597.20	49.15
597.36	98.30
597.51	35.11
597.67	93.62
597.83	16.38
597.99	95.96
598.14	56.17
598.30	4.68
598.46	42.13
598.61	93.62
598.77	42.13
598.93	84.26
599.09	74.90
599.24	60.85
599.40	35.11
599.56	58.51
599.71	70.22
599.87	112.35
600.03	46.81
600.18	79.58
600.34	70.22
600.50	18.72
600.65	84.26
600.81	65.54
600.97	88.94
601.12	147.45
601.28	77.24
601.44	81.92
601.59	126.39
601.75	91.28
601.91	63.19
602.06	88.94
602.22	49.15
602.37	81.92
602.53	93.62
602.69	58.51
602.84	42.13
603.00	56.17
603.16	53.83
603.31	128.73
603.47	67.88
603.62	37.45
603.78	42.13
603.94	46.81
604.09	152.13
604.25	79.58
604.40	16.38
604.56	35.11
604.71	49.15
604.87	81.92
605.03	84.26
605.18	114.69
605.34	86.60
605.49	81.92
605.65	25.75
605.80	98.30
605.96	133.41
606.12	107.66
606.27	93.62
606.43	42.13
606.58	53.83
606.74	44.47
606.89	35.11
607.05	95.96
607.20	44.47
607.36	37.45
607.51	11.70
607.67	30.43
607.82	105.32
607.98	100.64
608.13	49.15
608.29	74.90
608.44	49.15
608.60	117.03
608.75	93.62
608.91	84.26
609.06	0.00
609.22	35.11
609.37	126.39
609.53	44.47
609.68	0.00
609.84	53.83
609.99	81.92
610.15	63.19
610.30	44.47
610.46	2.34
610.61	112.35
610.76	77.24
610.92	135.75
611.07	126.39
611.23	28.09
611.38	86.60
611.54	35.11
611.69	133.41
611.84	67.88
612.00	72.56
612.15	100.64
612.31	77.24
612.46	42.13
612.62	84.26
612.77	117.03
612.92	119.37
613.08	51.49
613.23	102.98
613.39	39.79
613.54	32.77
613.69	67.88
613.85	70.22
614.00	53.83
614.15	81.92
614.31	30.43
614.46	91.28
614.62	107.66
614.77	42.13
614.92	126.39
615.08	126.39
615.23	74.90
615.38	154.48
615.54	60.85
615.69	51.49
615.84	91.28
616.00	67.88
616.15	14.04
616.30	44.47
616.46	84.26
616.61	46.81
616.76	91.28
616.92	65.54
617.07	37.45
617.22	0.00
617.37	70.22
617.53	49.15
617.68	49.15
617.83	65.54
617.99	0.00
618.14	56.17
618.29	93.62
618.45	131.07
618.60	110.01
618.75	110.01
618.90	49.15
619.06	88.94
619.21	53.83
619.36	86.60
619.51	0.00
619.67	107.66
619.82	11.70
619.97	65.54
620.12	79.58
620.28	163.84
620.43	4.68
620.58	49.15
620.73	28.09
620.89	25.75
621.04	53.83
621.19	16.38
621.34	56.17
621.49	28.09
621.65	67.88
621.80	102.98
621.95	60.85
622.10	60.85
622.25	86.60
622.41	86.60
622.56	37.45
622.71	67.88
622.86	49.15
623.01	95.96
623.16	91.28
623.32	91.28
623.47	51.49
623.62	81.92
623.77	60.85
623.92	42.13
624.07	88.94
624.23	53.83
624.38	135.75
624.53	9.36
624.68	95.96
624.83	0.00
624.98	70.22
625.13	107.66
625.29	46.81
625.44	110.01
625.59	25.75
625.74	81.92
625.89	77.24
626.04	51.49
626.19	56.17
626.34	72.56
626.49	44.47
626.65	51.49
626.80	56.17
626.95	114.69
627.10	84.26
627.25	91.28
627.40	21.06
627.55	28.09
627.70	58.51
627.85	0.00
628.00	86.60
628.15	56.17
628.30	86.60
628.45	53.83
628.60	51.49
628.76	7.02
628.91	77.24
629.06	0.00
629.21	42.13
629.36	0.00
629.51	86.60
629.66	65.54
629.81	126.39
629.96	117.03
630.11	42.13
630.26	84.26
630.41	0.00
630.56	67.88
630.71	98.30
630.86	91.28
631.01	58.51
631.16	49.15
631.31	77.24
631.46	37.45
631.61	14.04
631.76	56.17
631.91	142.77
632.06	105.32
632.21	72.56
632.36	81.92
632.51	67.88
632.66	56.17
632.81	70.22
632.96	102.98
633.10	79.58
633.25	58.51
633.40	63.19
633.55	81.92
633.70	110.01
633.85	72.56
634.00	126.39
634.15	126.39
634.30	74.90
634.45	74.90
634.60	102.98
634.75	7.02
634.90	53.83
635.05	112.35
635.19	11.70
635.34	0.00
635.49	11.70
635.64	35.11
635.79	51.49
635.94	0.00
636.09	25.75
636.24	58.51
636.39	140.43
636.53	51.49
636.68	0.00
636.83	42.13
636.98	95.96
637.13	49.15
637.28	65.54
637.43	42.13
637.57	72.56
637.72	39.79
637.87	51.49
638.02	81.92
638.17	32.77
638.32	51.49
638.46	37.45
638.61	79.58
638.76	119.37
638.91	67.88
639.06	14.04
639.20	32.77
639.35	84.26
639.50	23.41
639.65	37.45
639.80	70.22
639.94	18.72
640.09	72.56
640.24	67.88
640.39	79.58
640.54	70.22
640.68	53.83
640.83	0.00
640.98	28.09
641.13	21.06
641.27	72.56
641.42	114.69
641.57	0.00
641.72	67.88
641.86	138.09
642.01	58.51
642.16	65.54
642.31	30.43
642.45	42.13
642.60	46.81
642.75	79.58
642.90	65.54
643.04	51.49
643.19	67.88
643.34	60.85
643.48	67.88
643.63	91.28
643.78	44.47
643.93	84.26
644.07	91.28
644.22	53.83
644.37	91.28
644.51	63.19
644.66	16.38
644.81	46.81
644.95	18.72
645.10	49.15
645.25	70.22
645.39	63.19
645.54	28.09
645.69	53.83
645.83	98.30
645.98	46.81
646.13	42.13
646.27	11.70
646.42	46.81
646.57	79.58
646.71	21.06
646.86	16.38
647.00	51.49
647.15	30.43
647.30	56.17
647.44	77.24
647.59	14.04
647.74	35.11
647.88	84.26
648.03	42.13
648.17	7.02
648.32	119.37
648.47	72.56
648.61	79.58
648.76	88.94
648.90	100.64
649.05	86.60
649.20	25.75
649.34	32.77
649.49	0.00
649.63	100.64
649.78	65.54
649.92	42.13
650.07	0.00
650.21	67.88
650.36	56.17
650.51	98.30
650.65	79.58
650.80	74.90
650.94	0.00
651.09	88.94
651.23	56.17
651.38	2.34
651.52	2.34
651.67	2.34
651.81	112.35
651.96	147.45
652.10	30.43
652.25	18.72
652.39	37.45
652.54	37.45
652.68	49.15
652.83	91.28
652.97	84.26
653.12	65.54
653.26	93.62
653.41	0.00
653.55	23.41
653.70	30.43
653.84	39.79
653.99	67.88
654.13	65.54
654.27	124.05
654.42	77.24
654.56	107.66
654.71	30.43
654.85	84.26
655.00	63.19
655.14	63.19
655.29	37.45
655.43	37.45
655.57	93.62
655.72	51.49
655.86	81.92
656.01	0.00
656.15	37.45
656.30	58.51
656.44	56.17
656.58	145.11
656.73	21.06
656.87	72.56
657.01	23.41
657.16	25.75
657.30	25.75
657.45	81.92
657.59	21.06
657.73	74.90
657.88	102.98
658.02	56.17
658.16	65.54
658.31	2.34
658.45	21.06
658.60	98.30
658.74	46.81
658.88	84.26
659.03	65.54
659.17	53.83
659.31	35.11
659.46	42.13
659.60	44.47
659.74	51.49
659.89	9.36
660.03	18.72
660.17	110.01
660.32	28.09
660.46	0.00
660.60	65.54
660.74	70.22
660.89	128.73
661.03	105.32
661.17	81.92
661.32	77.24
661.46	84.26
661.60	65.54
661.74	56.17
661.89	23.41
662.03	86.60
662.17	37.45
662.31	77.24
662.46	0.00
662.60	140.43
662.74	93.62
662.88	65.54
663.03	0.00
663.17	18.72
663.31	23.41
663.45	14.04
663.60	74.90
663.74	35.11
663.88	46.81
664.02	39.79
664.17	65.54
664.31	67.88
664.45	0.00
664.59	37.45
664.73	77.24
664.88	67.88
665.02	0.00
665.16	74.90
665.30	114.69
665.44	79.58
665.59	105.32
665.73	44.47
665.87	60.85
666.01	95.96
666.15	16.38
666.29	46.81
666.44	72.56
666.58	95.96
666.72	117.03
666.86	49.15
667.00	53.83
667.14	53.83
667.28	84.26
667.43	112.35
667.57	0.00
667.71	16.38
667.85	44.47
667.99	28.09
668.13	74.90
668.27	44.47
668.41	37.45
668.56	100.64
668.70	93.62
668.84	86.60
668.98	121.71
669.12	14.04
669.26	0.00
669.40	18.72
669.54	56.17
669.68	53.83
669.82	86.60
669.96	37.45
670.10	25.75
670.25	53.83
670.39	14.04
670.53	39.79
670.67	110.01
670.81	72.56
670.95	72.56
671.09	46.81
671.23	23.41
671.37	0.00
671.51	56.17
671.65	63.19
671.79	63.19
671.93	18.72
672.07	9.36
672.21	60.85
672.35	51.49
672.49	117.03
672.63	119.37
672.77	35.11
672.91	67.88
673.05	32.77
673.19	42.13
673.33	32.77
673.47	102.98
673.61	46.81
673.75	58.51
673.89	14.04
674.03	93.62
674.17	23.41
674.31	65.54
674.45	56.17
674.59	147.45
674.73	35.11
674.87	30.43
675.01	46.81
675.15	81.92
675.29	63.19
675.43	25.75
675.56	42.13
675.70	4.68
675.84	42.13
675.98	42.13
676.12	49.15
676.26	25.75
676.40	39.79
676.54	70.22
676.68	74.90
676.82	0.00
676.96	28.09
677.10	28.09
677.23	32.77
677.37	0.00
677.51	67.88
677.65	0.00
677.79	65.54
677.93	0.00
678.07	18.72
678.21	98.30
678.34	72.56
678.48	35.11
678.62	44.47
678.76	0.00
678.90	18.72
679.04	16.38
679.18	81.92
679.31	81.92
679.45	58.51
679.59	0.00
679.73	58.51
679.87	0.00
680.00	65.54
680.14	95.96
680.28	114.69
680.42	23.41
680.56	4.68
680.70	53.83
680.83	79.58
680.97	4.68
681.11	79.58
681.25	28.09
681.39	95.96
681.52	0.00
681.66	42.13
681.80	32.77
681.94	53.83
682.07	79.58
682.21	110.01
682.35	117.03
682.49	63.19
682.62	74.90
682.76	2.34
682.90	25.75
683.04	23.41
683.17	35.11
683.31	63.19
683.45	9.36
683.59	105.32
683.72	138.09
683.86	56.17
684.00	105.32
684.13	63.19
684.27	30.43
684.41	42.13
684.55	35.11
684.68	0.00
684.82	11.70
684.96	44.47
685.09	39.79
685.23	49.15
685.37	7.02
685.50	72.56
685.64	72.56
685.78	37.45
685.91	44.47
686.05	81.92
686.19	16.38
686.32	0.00
686.46	49.15
686.60	18.72
686.73	110.01
686.87	70.22
687.01	9.36
687.14	23.41
687.28	0.00
687.42	0.00
687.55	23.41
687.69	84.26
687.82	0.00
687.96	30.43
688.10	49.15
688.23	2.34
688.37	72.56
688.50	30.43
688.64	0.00
688.78	0.00
688.91	91.28
689.05	30.43
689.18	0.00
689.32	25.75
689.46	39.79
689.59	30.43
689.73	2.34
689.86	0.00
690.00	74.90
690.13	30.43
690.27	63.19
690.41	60.85
690.54	95.96
690.68	91.28
690.81	16.38
690.95	35.11
691.08	9.36
691.22	98.30
691.35	39.79
691.49	39.79
691.62	4.68
691.76	18.72
691.89	0.00
692.03	72.56
692.16	11.70
692.30	53.83
692.43	49.15
692.57	65.54
692.70	0.00
692.84	28.09
692.97	28.09
693.11	35.11
693.24	79.58
693.38	0.00
693.51	0.00
693.65	100.64
693.78	70.22
693.92	0.00
694.05	53.83
694.19	39.79
694.32	30.43
694.45	49.15
694.59	30.43
694.72	23.41
694.86	0.00
694.99	14.04
695.13	49.15
695.26	2.34
695.39	28.09
695.53	0.00
695.66	32.77
695.80	39.79
695.93	72.56
696.07	14.04
696.20	37.45
696.33	28.09
696.47	37.45
696.60	0.00
696.73	25.75
696.87	16.38
697.00	46.81
697.14	0.00
697.27	16.38
697.40	9.36
697.54	16.38
697.67	4.68
697.80	93.62
697.94	79.58
698.07	18.72
698.21	98.30
698.34	77.24
698.47	0.00
698.61	42.13
698.74	0.00
698.87	28.09
699.01	95.96
699.14	0.00
699.27	37.45
699.40	42.13
699.54	23.41
699.67	95.96
699.80	77.24
699.94	21.06
700.07	0.00
700.20	11.70
700.34	63.19
700.47	18.72
700.60	0.00
700.73	0.00
700.87	46.81
701.00	37.45
701.13	28.09
701.26	74.90
701.40	14.04
701.53	0.00
701.66	0.00
701.79	18.72
701.93	4.68
702.06	60.85
702.19	60.85
702.32	51.49
702.46	14.04
702.59	0.00
702.72	9.36
702.85	25.75
702.99	0.00
703.12	88.94
703.25	42.13
703.38	0.00
703.51	16.38
703.65	42.13
703.78	112.35
703.91	0.00
704.04	70.22
704.17	25.75
704.31	56.17
704.44	32.77
704.57	107.66
704.70	30.43
704.83	25.75
704.96	51.49
705.10	30.43
705.23	63.19
>>>>>End Processed Spectral Data<<<<<
