SpectraSuite Data File
++++++++++++++++++++++++++++++++++++
Date: Fri Oct 04 12:13:24 GMT-05:00 2013
User: price-jones
Dark Spectrum Present: No
Reference Spectrum Present: No
Number of Sampled Component Spectra: 1
Spectrometers: USB2+H05261
Integration Time (usec): 10000 (USB2+H05261)
Spectra Averaged: 1 (USB2+H05261)
Boxcar Smoothing: 0 (USB2+H05261)
Correct for Electrical Dark: No (USB2+H05261)
Strobe/Lamp Enabled: No (USB2+H05261)
Correct for Detector Non-linearity: No (USB2+H05261)
Correct for Stray Light: No (USB2+H05261)
Number of Pixels in Processed Spectrum: 2048
>>>>>Begin Processed Spectral Data<<<<<
365.73	0.00
365.92	0.00
366.12	0.00
366.32	0.00
366.52	0.00
366.72	0.00
366.91	0.00
367.11	0.00
367.31	0.00
367.51	0.00
367.70	0.00
367.90	0.00
368.10	0.00
368.30	0.00
368.49	0.00
368.69	0.00
368.89	0.00
369.09	0.00
369.28	0.00
369.48	0.00
369.68	0.00
369.87	0.00
370.07	0.00
370.27	0.00
370.47	0.00
370.66	0.00
370.86	0.00
371.06	0.00
371.25	0.00
371.45	0.00
371.65	0.00
371.84	0.00
372.04	35.11
372.24	0.00
372.44	18.72
372.63	53.83
372.83	91.28
373.03	4.68
373.22	0.00
373.42	0.00
373.62	0.00
373.81	60.85
374.01	25.75
374.21	0.00
374.40	37.45
374.60	67.88
374.79	74.90
374.99	93.62
375.19	35.11
375.38	51.49
375.58	0.00
375.78	16.38
375.97	37.45
376.17	46.81
376.37	0.00
376.56	65.54
376.76	0.00
376.95	25.75
377.15	44.47
377.35	0.00
377.54	21.06
377.74	46.81
377.93	60.85
378.13	7.02
378.33	35.11
378.52	63.19
378.72	0.00
378.91	30.43
379.11	0.00
379.31	0.00
379.50	21.06
379.70	56.17
379.89	46.81
380.09	0.00
380.28	0.00
380.48	18.72
380.68	4.68
380.87	37.45
381.07	2.34
381.26	23.41
381.46	42.13
381.65	0.00
381.85	0.00
382.04	7.02
382.24	2.34
382.43	9.36
382.63	81.92
382.83	32.77
383.02	0.00
383.22	0.00
383.41	16.38
383.61	16.38
383.80	30.43
384.00	32.77
384.19	23.41
384.39	0.00
384.58	0.00
384.78	4.68
384.97	7.02
385.17	0.00
385.36	56.17
385.56	30.43
385.75	18.72
385.95	0.00
386.14	18.72
386.34	9.36
386.53	0.00
386.72	0.00
386.92	7.02
387.11	28.09
387.31	53.83
387.50	30.43
387.70	60.85
387.89	42.13
388.09	93.62
388.28	91.28
388.48	25.75
388.67	70.22
388.86	72.56
389.06	0.00
389.25	0.00
389.45	14.04
389.64	42.13
389.84	74.90
390.03	14.04
390.22	21.06
390.42	51.49
390.61	0.00
390.81	49.15
391.00	0.00
391.19	0.00
391.39	0.00
391.58	44.47
391.78	14.04
391.97	65.54
392.16	0.00
392.36	0.00
392.55	65.54
392.75	58.51
392.94	14.04
393.13	9.36
393.33	16.38
393.52	56.17
393.71	18.72
393.91	11.70
394.10	23.41
394.29	18.72
394.49	28.09
394.68	9.36
394.88	0.00
395.07	0.00
395.26	23.41
395.46	4.68
395.65	93.62
395.84	51.49
396.04	0.00
396.23	46.81
396.42	0.00
396.62	65.54
396.81	0.00
397.00	67.88
397.19	37.45
397.39	2.34
397.58	9.36
397.77	0.00
397.97	53.83
398.16	14.04
398.35	35.11
398.55	30.43
398.74	11.70
398.93	44.47
399.12	0.00
399.32	4.68
399.51	0.00
399.70	23.41
399.90	32.77
400.09	46.81
400.28	35.11
400.47	18.72
400.67	9.36
400.86	2.34
401.05	30.43
401.24	46.81
401.44	25.75
401.63	65.54
401.82	28.09
402.01	0.00
402.21	0.00
402.40	37.45
402.59	0.00
402.78	0.00
402.97	39.79
403.17	0.00
403.36	11.70
403.55	0.00
403.74	0.00
403.93	39.79
404.13	35.11
404.32	0.00
404.51	58.51
404.70	58.51
404.89	9.36
405.09	70.22
405.28	30.43
405.47	37.45
405.66	14.04
405.85	0.00
406.05	95.96
406.24	63.19
406.43	0.00
406.62	9.36
406.81	0.00
407.00	0.00
407.20	0.00
407.39	95.96
407.58	44.47
407.77	0.00
407.96	0.00
408.15	0.00
408.34	0.00
408.54	0.00
408.73	81.92
408.92	42.13
409.11	79.58
409.30	23.41
409.49	28.09
409.68	18.72
409.87	58.51
410.07	11.70
410.26	23.41
410.45	72.56
410.64	7.02
410.83	18.72
411.02	18.72
411.21	70.22
411.40	11.70
411.59	30.43
411.78	63.19
411.98	74.90
412.17	44.47
412.36	9.36
412.55	0.00
412.74	16.38
412.93	91.28
413.12	70.22
413.31	63.19
413.50	112.35
413.69	37.45
413.88	25.75
414.07	0.00
414.26	0.00
414.45	32.77
414.64	0.00
414.83	25.75
415.02	0.00
415.22	70.22
415.41	16.38
415.60	53.83
415.79	25.75
415.98	2.34
416.17	67.88
416.36	88.94
416.55	86.60
416.74	51.49
416.93	37.45
417.12	0.00
417.31	0.00
417.50	0.00
417.69	51.49
417.88	72.56
418.07	4.68
418.26	37.45
418.45	70.22
418.64	30.43
418.83	0.00
419.02	9.36
419.21	9.36
419.39	25.75
419.58	0.00
419.77	16.38
419.96	98.30
420.15	0.00
420.34	23.41
420.53	14.04
420.72	35.11
420.91	39.79
421.10	72.56
421.29	37.45
421.48	0.00
421.67	16.38
421.86	4.68
422.05	77.24
422.24	46.81
422.43	58.51
422.61	46.81
422.80	53.83
422.99	16.38
423.18	37.45
423.37	0.00
423.56	67.88
423.75	0.00
423.94	23.41
424.13	79.58
424.32	28.09
424.50	42.13
424.69	39.79
424.88	30.43
425.07	74.90
425.26	0.00
425.45	51.49
425.64	49.15
425.83	11.70
426.01	14.04
426.20	51.49
426.39	4.68
426.58	37.45
426.77	49.15
426.96	0.00
427.15	16.38
427.33	30.43
427.52	0.00
427.71	77.24
427.90	74.90
428.09	60.85
428.28	0.00
428.46	65.54
428.65	28.09
428.84	56.17
429.03	32.77
429.22	81.92
429.40	7.02
429.59	32.77
429.78	18.72
429.97	0.00
430.16	79.58
430.34	84.26
430.53	4.68
430.72	0.00
430.91	0.00
431.10	14.04
431.28	0.00
431.47	18.72
431.66	0.00
431.85	63.19
432.03	23.41
432.22	0.00
432.41	0.00
432.60	16.38
432.79	60.85
432.97	25.75
433.16	14.04
433.35	39.79
433.54	37.45
433.72	0.00
433.91	23.41
434.10	42.13
434.28	0.00
434.47	0.00
434.66	32.77
434.85	51.49
435.03	21.06
435.22	107.66
435.41	84.26
435.59	14.04
435.78	4.68
435.97	18.72
436.16	49.15
436.34	32.77
436.53	18.72
436.72	77.24
436.90	56.17
437.09	0.00
437.28	56.17
437.46	7.02
437.65	60.85
437.84	28.09
438.02	0.00
438.21	21.06
438.40	21.06
438.58	70.22
438.77	0.00
438.96	16.38
439.14	35.11
439.33	28.09
439.52	37.45
439.70	67.88
439.89	35.11
440.08	16.38
440.26	16.38
440.45	18.72
440.63	70.22
440.82	107.66
441.01	63.19
441.19	58.51
441.38	4.68
441.57	56.17
441.75	39.79
441.94	18.72
442.12	49.15
442.31	4.68
442.50	0.00
442.68	4.68
442.87	70.22
443.05	30.43
443.24	16.38
443.43	114.69
443.61	0.00
443.80	49.15
443.98	70.22
444.17	70.22
444.35	65.54
444.54	51.49
444.73	63.19
444.91	0.00
445.10	21.06
445.28	93.62
445.47	65.54
445.65	77.24
445.84	63.19
446.02	39.79
446.21	21.06
446.39	25.75
446.58	0.00
446.77	91.28
446.95	9.36
447.14	0.00
447.32	39.79
447.51	72.56
447.69	14.04
447.88	0.00
448.06	51.49
448.25	0.00
448.43	56.17
448.62	98.30
448.80	32.77
448.99	0.00
449.17	72.56
449.36	0.00
449.54	0.00
449.73	11.70
449.91	81.92
450.10	0.00
450.28	63.19
450.46	9.36
450.65	74.90
450.83	46.81
451.02	44.47
451.20	28.09
451.39	138.09
451.57	11.70
451.76	51.49
451.94	46.81
452.13	2.34
452.31	0.00
452.49	51.49
452.68	81.92
452.86	44.47
453.05	32.77
453.23	0.00
453.42	0.00
453.60	37.45
453.78	14.04
453.97	67.88
454.15	72.56
454.34	58.51
454.52	0.00
454.70	81.92
454.89	84.26
455.07	0.00
455.26	14.04
455.44	74.90
455.62	86.60
455.81	88.94
455.99	49.15
456.17	14.04
456.36	53.83
456.54	60.85
456.73	32.77
456.91	91.28
457.09	28.09
457.28	16.38
457.46	65.54
457.64	46.81
457.83	53.83
458.01	32.77
458.19	32.77
458.38	9.36
458.56	25.75
458.74	0.00
458.93	14.04
459.11	11.70
459.29	39.79
459.48	0.00
459.66	42.13
459.84	44.47
460.03	39.79
460.21	91.28
460.39	0.00
460.57	23.41
460.76	35.11
460.94	18.72
461.12	84.26
461.31	72.56
461.49	86.60
461.67	35.11
461.85	56.17
462.04	28.09
462.22	114.69
462.40	0.00
462.59	91.28
462.77	0.00
462.95	81.92
463.13	0.00
463.32	37.45
463.50	72.56
463.68	58.51
463.86	63.19
464.05	7.02
464.23	18.72
464.41	35.11
464.59	0.00
464.78	18.72
464.96	28.09
465.14	110.01
465.32	39.79
465.50	25.75
465.69	0.00
465.87	0.00
466.05	56.17
466.23	23.41
466.41	11.70
466.60	84.26
466.78	0.00
466.96	65.54
467.14	117.03
467.32	114.69
467.51	93.62
467.69	88.94
467.87	16.38
468.05	23.41
468.23	0.00
468.41	39.79
468.60	37.45
468.78	16.38
468.96	0.00
469.14	14.04
469.32	4.68
469.50	46.81
469.69	4.68
469.87	18.72
470.05	65.54
470.23	84.26
470.41	28.09
470.59	72.56
470.77	0.00
470.95	2.34
471.14	2.34
471.32	44.47
471.50	16.38
471.68	0.00
471.86	44.47
472.04	30.43
472.22	86.60
472.40	21.06
472.58	72.56
472.77	0.00
472.95	0.00
473.13	0.00
473.31	53.83
473.49	37.45
473.67	58.51
473.85	0.00
474.03	2.34
474.21	0.00
474.39	0.00
474.57	21.06
474.75	32.77
474.93	44.47
475.12	28.09
475.30	44.47
475.48	23.41
475.66	0.00
475.84	0.00
476.02	42.13
476.20	18.72
476.38	84.26
476.56	84.26
476.74	77.24
476.92	58.51
477.10	49.15
477.28	18.72
477.46	51.49
477.64	39.79
477.82	32.77
478.00	102.98
478.18	0.00
478.36	67.88
478.54	77.24
478.72	0.00
478.90	0.00
479.08	0.00
479.26	0.00
479.44	67.88
479.62	0.00
479.80	0.00
479.98	65.54
480.16	37.45
480.34	72.56
480.52	0.00
480.70	0.00
480.88	0.00
481.06	77.24
481.24	2.34
481.41	9.36
481.59	11.70
481.77	77.24
481.95	0.00
482.13	65.54
482.31	0.00
482.49	79.58
482.67	88.94
482.85	0.00
483.03	39.79
483.21	0.00
483.39	51.49
483.57	44.47
483.74	126.39
483.92	0.00
484.10	70.22
484.28	23.41
484.46	4.68
484.64	21.06
484.82	65.54
485.00	25.75
485.18	42.13
485.35	0.00
485.53	56.17
485.71	0.00
485.89	0.00
486.07	58.51
486.25	30.43
486.43	7.02
486.61	53.83
486.78	95.96
486.96	107.66
487.14	58.51
487.32	0.00
487.50	56.17
487.68	23.41
487.85	42.13
488.03	56.17
488.21	56.17
488.39	44.47
488.57	100.64
488.75	86.60
488.92	79.58
489.10	58.51
489.28	79.58
489.46	56.17
489.64	28.09
489.81	79.58
489.99	0.00
490.17	105.32
490.35	91.28
490.53	49.15
490.70	74.90
490.88	28.09
491.06	32.77
491.24	14.04
491.41	25.75
491.59	2.34
491.77	42.13
491.95	77.24
492.13	30.43
492.30	0.00
492.48	42.13
492.66	7.02
492.84	56.17
493.01	46.81
493.19	72.56
493.37	74.90
493.54	70.22
493.72	77.24
493.90	32.77
494.08	32.77
494.25	30.43
494.43	60.85
494.61	0.00
494.79	74.90
494.96	51.49
495.14	37.45
495.32	32.77
495.49	0.00
495.67	23.41
495.85	25.75
496.02	0.00
496.20	91.28
496.38	35.11
496.55	56.17
496.73	35.11
496.91	74.90
497.09	84.26
497.26	58.51
497.44	67.88
497.62	42.13
497.79	70.22
497.97	0.00
498.14	107.66
498.32	0.00
498.50	30.43
498.67	46.81
498.85	23.41
499.03	0.00
499.20	9.36
499.38	0.00
499.56	72.56
499.73	74.90
499.91	49.15
500.08	67.88
500.26	53.83
500.44	23.41
500.61	14.04
500.79	28.09
500.97	39.79
501.14	18.72
501.32	0.00
501.49	79.58
501.67	58.51
501.84	0.00
502.02	63.19
502.20	0.00
502.37	93.62
502.55	0.00
502.72	0.00
502.90	60.85
503.07	49.15
503.25	42.13
503.43	7.02
503.60	35.11
503.78	30.43
503.95	86.60
504.13	58.51
504.30	70.22
504.48	30.43
504.65	4.68
504.83	0.00
505.01	53.83
505.18	107.66
505.36	2.34
505.53	42.13
505.71	0.00
505.88	11.70
506.06	44.47
506.23	53.83
506.41	18.72
506.58	46.81
506.76	53.83
506.93	117.03
507.11	70.22
507.28	16.38
507.46	63.19
507.63	11.70
507.81	42.13
507.98	28.09
508.16	21.06
508.33	128.73
508.50	39.79
508.68	0.00
508.85	88.94
509.03	60.85
509.20	46.81
509.38	0.00
509.55	32.77
509.73	51.49
509.90	23.41
510.08	86.60
510.25	4.68
510.42	9.36
510.60	16.38
510.77	88.94
510.95	93.62
511.12	28.09
511.30	39.79
511.47	37.45
511.64	86.60
511.82	37.45
511.99	60.85
512.17	14.04
512.34	21.06
512.51	46.81
512.69	2.34
512.86	105.32
513.04	14.04
513.21	72.56
513.38	16.38
513.56	11.70
513.73	35.11
513.90	86.60
514.08	0.00
514.25	56.17
514.43	28.09
514.60	56.17
514.77	30.43
514.95	32.77
515.12	65.54
515.29	74.90
515.47	84.26
515.64	0.00
515.81	32.77
515.99	51.49
516.16	16.38
516.33	65.54
516.51	21.06
516.68	72.56
516.85	0.00
517.03	100.64
517.20	37.45
517.37	28.09
517.54	0.00
517.72	67.88
517.89	72.56
518.06	67.88
518.24	25.75
518.41	81.92
518.58	0.00
518.75	72.56
518.93	16.38
519.10	0.00
519.27	35.11
519.45	0.00
519.62	39.79
519.79	49.15
519.96	102.98
520.14	63.19
520.31	86.60
520.48	30.43
520.65	11.70
520.83	67.88
521.00	84.26
521.17	49.15
521.34	49.15
521.52	21.06
521.69	14.04
521.86	4.68
522.03	0.00
522.20	74.90
522.38	51.49
522.55	56.17
522.72	42.13
522.89	4.68
523.07	63.19
523.24	7.02
523.41	86.60
523.58	0.00
523.75	63.19
523.92	74.90
524.10	23.41
524.27	0.00
524.44	32.77
524.61	58.51
524.78	7.02
524.96	98.30
525.13	98.30
525.30	9.36
525.47	46.81
525.64	102.98
525.81	63.19
525.98	42.13
526.16	100.64
526.33	44.47
526.50	77.24
526.67	30.43
526.84	72.56
527.01	46.81
527.18	0.00
527.36	49.15
527.53	0.00
527.70	2.34
527.87	67.88
528.04	18.72
528.21	72.56
528.38	0.00
528.55	30.43
528.72	79.58
528.89	14.04
529.07	35.11
529.24	46.81
529.41	81.92
529.58	0.00
529.75	37.45
529.92	44.47
530.09	28.09
530.26	79.58
530.43	0.00
530.60	56.17
530.77	91.28
530.94	91.28
531.11	81.92
531.28	2.34
531.46	72.56
531.63	39.79
531.80	91.28
531.97	56.17
532.14	23.41
532.31	0.00
532.48	0.00
532.65	0.00
532.82	110.01
532.99	0.00
533.16	79.58
533.33	25.75
533.50	112.35
533.67	44.47
533.84	32.77
534.01	51.49
534.18	0.00
534.35	23.41
534.52	23.41
534.69	37.45
534.86	105.32
535.03	37.45
535.20	14.04
535.37	0.00
535.54	35.11
535.71	21.06
535.88	35.11
536.05	0.00
536.22	95.96
536.38	0.00
536.55	58.51
536.72	86.60
536.89	0.00
537.06	4.68
537.23	100.64
537.40	149.79
537.57	14.04
537.74	14.04
537.91	56.17
538.08	0.00
538.25	9.36
538.42	0.00
538.59	0.00
538.75	30.43
538.92	72.56
539.09	46.81
539.26	49.15
539.43	58.51
539.60	28.09
539.77	14.04
539.94	74.90
540.11	28.09
540.28	91.28
540.44	65.54
540.61	16.38
540.78	74.90
540.95	93.62
541.12	65.54
541.29	46.81
541.46	39.79
541.62	98.30
541.79	18.72
541.96	46.81
542.13	0.00
542.30	18.72
542.47	23.41
542.63	18.72
542.80	98.30
542.97	9.36
543.14	53.83
543.31	79.58
543.48	84.26
543.64	25.75
543.81	49.15
543.98	46.81
544.15	0.00
544.32	25.75
544.48	63.19
544.65	100.64
544.82	67.88
544.99	35.11
545.16	0.00
545.32	0.00
545.49	74.90
545.66	56.17
545.83	77.24
546.00	39.79
546.16	107.66
546.33	67.88
546.50	44.47
546.67	4.68
546.83	102.98
547.00	84.26
547.17	42.13
547.34	112.35
547.50	100.64
547.67	63.19
547.84	126.39
548.00	67.88
548.17	0.00
548.34	9.36
548.51	53.83
548.67	70.22
548.84	58.51
549.01	9.36
549.18	37.45
549.34	35.11
549.51	98.30
549.68	23.41
549.84	4.68
550.01	0.00
550.18	9.36
550.34	16.38
550.51	30.43
550.68	32.77
550.84	2.34
551.01	0.00
551.18	0.00
551.34	67.88
551.51	58.51
551.68	35.11
551.84	72.56
552.01	67.88
552.18	70.22
552.34	23.41
552.51	7.02
552.68	49.15
552.84	44.47
553.01	93.62
553.18	53.83
553.34	28.09
553.51	18.72
553.67	124.05
553.84	135.75
554.01	30.43
554.17	7.02
554.34	0.00
554.51	49.15
554.67	0.00
554.84	0.00
555.00	37.45
555.17	32.77
555.33	77.24
555.50	2.34
555.67	18.72
555.83	0.00
556.00	95.96
556.16	105.32
556.33	9.36
556.50	30.43
556.66	114.69
556.83	53.83
556.99	30.43
557.16	72.56
557.32	51.49
557.49	51.49
557.65	56.17
557.82	46.81
557.98	46.81
558.15	14.04
558.32	21.06
558.48	93.62
558.65	67.88
558.81	35.11
558.98	53.83
559.14	95.96
559.31	107.66
559.47	63.19
559.64	126.39
559.80	95.96
559.97	11.70
560.13	81.92
560.30	56.17
560.46	9.36
560.63	63.19
560.79	37.45
560.96	0.00
561.12	21.06
561.29	65.54
561.45	65.54
561.61	72.56
561.78	37.45
561.94	39.79
562.11	0.00
562.27	58.51
562.44	0.00
562.60	25.75
562.77	35.11
562.93	32.77
563.10	60.85
563.26	110.01
563.42	35.11
563.59	37.45
563.75	32.77
563.92	0.00
564.08	35.11
564.24	60.85
564.41	74.90
564.57	77.24
564.74	81.92
564.90	28.09
565.07	0.00
565.23	49.15
565.39	37.45
565.56	9.36
565.72	2.34
565.88	77.24
566.05	42.13
566.21	39.79
566.38	74.90
566.54	42.13
566.70	0.00
566.87	84.26
567.03	21.06
567.19	16.38
567.36	25.75
567.52	117.03
567.68	81.92
567.85	58.51
568.01	0.00
568.17	0.00
568.34	102.98
568.50	18.72
568.66	58.51
568.83	37.45
568.99	107.66
569.15	28.09
569.32	16.38
569.48	58.51
569.64	32.77
569.81	11.70
569.97	63.19
570.13	0.00
570.30	42.13
570.46	35.11
570.62	7.02
570.78	67.88
570.95	72.56
571.11	44.47
571.27	51.49
571.43	65.54
571.60	67.88
571.76	70.22
571.92	7.02
572.09	44.47
572.25	53.83
572.41	58.51
572.57	14.04
572.74	60.85
572.90	74.90
573.06	7.02
573.22	18.72
573.38	44.47
573.55	46.81
573.71	42.13
573.87	32.77
574.03	142.77
574.20	49.15
574.36	37.45
574.52	35.11
574.68	25.75
574.84	23.41
575.01	72.56
575.17	67.88
575.33	0.00
575.49	88.94
575.65	58.51
575.82	65.54
575.98	60.85
576.14	37.45
576.30	23.41
576.46	0.00
576.62	79.58
576.79	32.77
576.95	23.41
577.11	21.06
577.27	46.81
577.43	0.00
577.59	65.54
577.75	42.13
577.92	51.49
578.08	0.00
578.24	18.72
578.40	65.54
578.56	56.17
578.72	0.00
578.88	23.41
579.04	0.00
579.21	44.47
579.37	84.26
579.53	60.85
579.69	56.17
579.85	28.09
580.01	0.00
580.17	39.79
580.33	46.81
580.49	39.79
580.65	201.29
580.82	93.62
580.98	0.00
581.14	16.38
581.30	53.83
581.46	60.85
581.62	81.92
581.78	56.17
581.94	100.64
582.10	30.43
582.26	42.13
582.42	63.19
582.58	79.58
582.74	95.96
582.90	44.47
583.06	67.88
583.22	67.88
583.38	23.41
583.54	56.17
583.70	110.01
583.86	42.13
584.02	56.17
584.18	32.77
584.34	93.62
584.50	67.88
584.66	16.38
584.82	14.04
584.98	35.11
585.14	58.51
585.30	21.06
585.46	32.77
585.62	0.00
585.78	86.60
585.94	23.41
586.10	88.94
586.26	21.06
586.42	88.94
586.58	56.17
586.74	112.35
586.90	77.24
587.06	65.54
587.22	30.43
587.38	23.41
587.54	28.09
587.70	56.17
587.86	51.49
588.02	18.72
588.18	44.47
588.34	84.26
588.49	51.49
588.65	67.88
588.81	0.00
588.97	11.70
589.13	0.00
589.29	46.81
589.45	102.98
589.61	21.06
589.77	42.13
589.93	35.11
590.08	16.38
590.24	30.43
590.40	77.24
590.56	37.45
590.72	39.79
590.88	16.38
591.04	11.70
591.20	23.41
591.35	65.54
591.51	60.85
591.67	39.79
591.83	102.98
591.99	56.17
592.15	77.24
592.31	32.77
592.46	81.92
592.62	56.17
592.78	42.13
592.94	53.83
593.10	60.85
593.26	0.00
593.41	0.00
593.57	51.49
593.73	39.79
593.89	65.54
594.05	95.96
594.20	0.00
594.36	88.94
594.52	18.72
594.68	0.00
594.84	9.36
594.99	81.92
595.15	37.45
595.31	28.09
595.47	95.96
595.62	0.00
595.78	11.70
595.94	49.15
596.10	35.11
596.25	0.00
596.41	79.58
596.57	140.43
596.73	67.88
596.88	49.15
597.04	39.79
597.20	60.85
597.36	67.88
597.51	30.43
597.67	44.47
597.83	81.92
597.99	44.47
598.14	58.51
598.30	42.13
598.46	37.45
598.61	72.56
598.77	58.51
598.93	46.81
599.09	32.77
599.24	105.32
599.40	88.94
599.56	58.51
599.71	46.81
599.87	58.51
600.03	23.41
600.18	23.41
600.34	2.34
600.50	28.09
600.65	95.96
600.81	95.96
600.97	65.54
601.12	0.00
601.28	9.36
601.44	39.79
601.59	2.34
601.75	14.04
601.91	0.00
602.06	67.88
602.22	65.54
602.37	30.43
602.53	0.00
602.69	37.45
602.84	4.68
603.00	72.56
603.16	39.79
603.31	126.39
603.47	37.45
603.62	35.11
603.78	128.73
603.94	16.38
604.09	14.04
604.25	18.72
604.40	37.45
604.56	46.81
604.71	67.88
604.87	63.19
605.03	46.81
605.18	9.36
605.34	60.85
605.49	9.36
605.65	35.11
605.80	0.00
605.96	74.90
606.12	51.49
606.27	70.22
606.43	21.06
606.58	2.34
606.74	14.04
606.89	4.68
607.05	72.56
607.20	70.22
607.36	67.88
607.51	49.15
607.67	0.00
607.82	53.83
607.98	46.81
608.13	23.41
608.29	0.00
608.44	32.77
608.60	0.00
608.75	56.17
608.91	39.79
609.06	58.51
609.22	0.00
609.37	42.13
609.53	0.00
609.68	56.17
609.84	30.43
609.99	9.36
610.15	145.11
610.30	14.04
610.46	9.36
610.61	56.17
610.76	81.92
610.92	44.47
611.07	81.92
611.23	46.81
611.38	105.32
611.54	56.17
611.69	16.38
611.84	51.49
612.00	79.58
612.15	39.79
612.31	51.49
612.46	11.70
612.62	81.92
612.77	107.66
612.92	58.51
613.08	124.05
613.23	46.81
613.39	93.62
613.54	84.26
613.69	51.49
613.85	0.00
614.00	35.11
614.15	0.00
614.31	39.79
614.46	11.70
614.62	42.13
614.77	72.56
614.92	58.51
615.08	60.85
615.23	42.13
615.38	46.81
615.54	25.75
615.69	42.13
615.84	100.64
616.00	56.17
616.15	37.45
616.30	11.70
616.46	32.77
616.61	18.72
616.76	88.94
616.92	4.68
617.07	72.56
617.22	23.41
617.37	46.81
617.53	58.51
617.68	53.83
617.83	0.00
617.99	84.26
618.14	56.17
618.29	25.75
618.45	25.75
618.60	0.00
618.75	28.09
618.90	46.81
619.06	18.72
619.21	49.15
619.36	0.00
619.51	35.11
619.67	30.43
619.82	49.15
619.97	11.70
620.12	60.85
620.28	0.00
620.43	23.41
620.58	46.81
620.73	0.00
620.89	0.00
621.04	0.00
621.19	49.15
621.34	67.88
621.49	0.00
621.65	0.00
621.80	32.77
621.95	51.49
622.10	49.15
622.25	37.45
622.41	9.36
622.56	42.13
622.71	28.09
622.86	21.06
623.01	53.83
623.16	74.90
623.32	21.06
623.47	0.00
623.62	86.60
623.77	18.72
623.92	23.41
624.07	9.36
624.23	14.04
624.38	86.60
624.53	18.72
624.68	56.17
624.83	23.41
624.98	42.13
625.13	32.77
625.29	0.00
625.44	49.15
625.59	30.43
625.74	37.45
625.89	4.68
626.04	37.45
626.19	93.62
626.34	21.06
626.49	28.09
626.65	0.00
626.80	91.28
626.95	46.81
627.10	60.85
627.25	67.88
627.40	18.72
627.55	58.51
627.70	32.77
627.85	0.00
628.00	70.22
628.15	0.00
628.30	32.77
628.45	28.09
628.60	18.72
628.76	7.02
628.91	84.26
629.06	51.49
629.21	0.00
629.36	0.00
629.51	107.66
629.66	28.09
629.81	7.02
629.96	16.38
630.11	28.09
630.26	18.72
630.41	44.47
630.56	72.56
630.71	77.24
630.86	93.62
631.01	30.43
631.16	117.03
631.31	0.00
631.46	35.11
631.61	9.36
631.76	4.68
631.91	44.47
632.06	23.41
632.21	16.38
632.36	107.66
632.51	42.13
632.66	37.45
632.81	0.00
632.96	21.06
633.10	0.00
633.25	39.79
633.40	51.49
633.55	23.41
633.70	91.28
633.85	46.81
634.00	35.11
634.15	46.81
634.30	0.00
634.45	42.13
634.60	39.79
634.75	0.00
634.90	11.70
635.05	53.83
635.19	0.00
635.34	51.49
635.49	42.13
635.64	28.09
635.79	65.54
635.94	37.45
636.09	74.90
636.24	35.11
636.39	16.38
636.53	16.38
636.68	74.90
636.83	46.81
636.98	0.00
637.13	21.06
637.28	86.60
637.43	21.06
637.57	49.15
637.72	49.15
637.87	84.26
638.02	84.26
638.17	0.00
638.32	67.88
638.46	46.81
638.61	74.90
638.76	67.88
638.91	35.11
639.06	65.54
639.20	0.00
639.35	9.36
639.50	53.83
639.65	42.13
639.80	70.22
639.94	35.11
640.09	107.66
640.24	84.26
640.39	18.72
640.54	14.04
640.68	63.19
640.83	0.00
640.98	0.00
641.13	32.77
641.27	84.26
641.42	0.00
641.57	35.11
641.72	58.51
641.86	86.60
642.01	67.88
642.16	42.13
642.31	81.92
642.45	0.00
642.60	84.26
642.75	0.00
642.90	49.15
643.04	58.51
643.19	72.56
643.34	46.81
643.48	18.72
643.63	16.38
643.78	79.58
643.93	74.90
644.07	16.38
644.22	65.54
644.37	16.38
644.51	72.56
644.66	11.70
644.81	65.54
644.95	53.83
645.10	23.41
645.25	65.54
645.39	98.30
645.54	0.00
645.69	0.00
645.83	0.00
645.98	0.00
646.13	56.17
646.27	0.00
646.42	25.75
646.57	53.83
646.71	32.77
646.86	91.28
647.00	4.68
647.15	117.03
647.30	67.88
647.44	60.85
647.59	30.43
647.74	63.19
647.88	0.00
648.03	14.04
648.17	65.54
648.32	18.72
648.47	14.04
648.61	2.34
648.76	32.77
648.90	23.41
649.05	0.00
649.20	88.94
649.34	0.00
649.49	4.68
649.63	42.13
649.78	11.70
649.92	0.00
650.07	18.72
650.21	35.11
650.36	28.09
650.51	88.94
650.65	0.00
650.80	7.02
650.94	0.00
651.09	25.75
651.23	60.85
651.38	44.47
651.52	16.38
651.67	0.00
651.81	28.09
651.96	91.28
652.10	49.15
652.25	79.58
652.39	4.68
652.54	14.04
652.68	14.04
652.83	0.00
652.97	2.34
653.12	18.72
653.26	14.04
653.41	21.06
653.55	49.15
653.70	7.02
653.84	32.77
653.99	21.06
654.13	4.68
654.27	30.43
654.42	51.49
654.56	16.38
654.71	23.41
654.85	9.36
655.00	14.04
655.14	0.00
655.29	95.96
655.43	74.90
655.57	72.56
655.72	51.49
655.86	0.00
656.01	32.77
656.15	30.43
656.30	0.00
656.44	32.77
656.58	25.75
656.73	23.41
656.87	30.43
657.01	58.51
657.16	77.24
657.30	117.03
657.45	56.17
657.59	37.45
657.73	0.00
657.88	51.49
658.02	67.88
658.16	72.56
658.31	51.49
658.45	0.00
658.60	23.41
658.74	42.13
658.88	77.24
659.03	21.06
659.17	0.00
659.31	16.38
659.46	0.00
659.60	39.79
659.74	81.92
659.89	14.04
660.03	0.00
660.17	25.75
660.32	65.54
660.46	44.47
660.60	35.11
660.74	21.06
660.89	0.00
661.03	51.49
661.17	7.02
661.32	4.68
661.46	0.00
661.60	42.13
661.74	133.41
661.89	44.47
662.03	0.00
662.17	37.45
662.31	35.11
662.46	28.09
662.60	30.43
662.74	114.69
662.88	37.45
663.03	21.06
663.17	21.06
663.31	35.11
663.45	53.83
663.60	95.96
663.74	37.45
663.88	0.00
664.02	39.79
664.17	46.81
664.31	18.72
664.45	70.22
664.59	86.60
664.73	16.38
664.88	0.00
665.02	58.51
665.16	32.77
665.30	11.70
665.44	0.00
665.59	44.47
665.73	49.15
665.87	44.47
666.01	58.51
666.15	79.58
666.29	91.28
666.44	4.68
666.58	77.24
666.72	117.03
666.86	39.79
667.00	98.30
667.14	93.62
667.28	0.00
667.43	56.17
667.57	0.00
667.71	32.77
667.85	25.75
667.99	51.49
668.13	14.04
668.27	39.79
668.41	105.32
668.56	46.81
668.70	0.00
668.84	39.79
668.98	23.41
669.12	30.43
669.26	35.11
669.40	21.06
669.54	58.51
669.68	18.72
669.82	2.34
669.96	16.38
670.10	21.06
670.25	0.00
670.39	0.00
670.53	37.45
670.67	128.73
670.81	60.85
670.95	14.04
671.09	44.47
671.23	0.00
671.37	21.06
671.51	23.41
671.65	0.00
671.79	42.13
671.93	4.68
672.07	49.15
672.21	0.00
672.35	23.41
672.49	23.41
672.63	114.69
672.77	14.04
672.91	25.75
673.05	28.09
673.19	7.02
673.33	58.51
673.47	56.17
673.61	98.30
673.75	0.00
673.89	37.45
674.03	49.15
674.17	2.34
674.31	18.72
674.45	39.79
674.59	63.19
674.73	37.45
674.87	63.19
675.01	112.35
675.15	16.38
675.29	0.00
675.43	58.51
675.56	4.68
675.70	9.36
675.84	49.15
675.98	0.00
676.12	117.03
676.26	30.43
676.40	7.02
676.54	0.00
676.68	77.24
676.82	42.13
676.96	56.17
677.10	0.00
677.23	0.00
677.37	0.00
677.51	21.06
677.65	72.56
677.79	21.06
677.93	67.88
678.07	0.00
678.21	58.51
678.34	77.24
678.48	63.19
678.62	72.56
678.76	25.75
678.90	49.15
679.04	7.02
679.18	2.34
679.31	30.43
679.45	0.00
679.59	23.41
679.73	11.70
679.87	30.43
680.00	0.00
680.14	39.79
680.28	42.13
680.42	35.11
680.56	44.47
680.70	67.88
680.83	32.77
680.97	28.09
681.11	0.00
681.25	0.00
681.39	23.41
681.52	0.00
681.66	51.49
681.80	112.35
681.94	14.04
682.07	37.45
682.21	30.43
682.35	51.49
682.49	65.54
682.62	44.47
682.76	79.58
682.90	0.00
683.04	93.62
683.17	65.54
683.31	58.51
683.45	32.77
683.59	0.00
683.72	60.85
683.86	60.85
684.00	56.17
684.13	7.02
684.27	98.30
684.41	88.94
684.55	51.49
684.68	70.22
684.82	117.03
684.96	4.68
685.09	56.17
685.23	32.77
685.37	117.03
685.50	63.19
685.64	107.66
685.78	0.00
685.91	25.75
686.05	58.51
686.19	2.34
686.32	23.41
686.46	152.13
686.60	28.09
686.73	77.24
686.87	65.54
687.01	0.00
687.14	0.00
687.28	0.00
687.42	0.00
687.55	2.34
687.69	0.00
687.82	32.77
687.96	51.49
688.10	53.83
688.23	77.24
688.37	100.64
688.50	51.49
688.64	0.00
688.78	25.75
688.91	46.81
689.05	63.19
689.18	88.94
689.32	107.66
689.46	112.35
689.59	42.13
689.73	11.70
689.86	70.22
690.00	84.26
690.13	0.00
690.27	39.79
690.41	46.81
690.54	21.06
690.68	58.51
690.81	14.04
690.95	58.51
691.08	60.85
691.22	42.13
691.35	63.19
691.49	25.75
691.62	9.36
691.76	0.00
691.89	14.04
692.03	23.41
692.16	25.75
692.30	0.00
692.43	126.39
692.57	28.09
692.70	32.77
692.84	21.06
692.97	39.79
693.11	0.00
693.24	18.72
693.38	72.56
693.51	28.09
693.65	30.43
693.78	0.00
693.92	37.45
694.05	39.79
694.19	18.72
694.32	39.79
694.45	9.36
694.59	46.81
694.72	14.04
694.86	9.36
694.99	53.83
695.13	37.45
695.26	4.68
695.39	42.13
695.53	4.68
695.66	58.51
695.80	60.85
695.93	86.60
696.07	28.09
696.20	44.47
696.33	28.09
696.47	35.11
696.60	110.01
696.73	30.43
696.87	88.94
697.00	77.24
697.14	56.17
697.27	0.00
697.40	4.68
697.54	28.09
697.67	44.47
697.80	74.90
697.94	0.00
698.07	53.83
698.21	32.77
698.34	11.70
698.47	0.00
698.61	32.77
698.74	88.94
698.87	0.00
699.01	74.90
699.14	53.83
699.27	67.88
699.40	114.69
699.54	86.60
699.67	30.43
699.80	0.00
699.94	0.00
700.07	0.00
700.20	18.72
700.34	44.47
700.47	65.54
700.60	51.49
700.73	84.26
700.87	7.02
701.00	72.56
701.13	60.85
701.26	4.68
701.40	117.03
701.53	9.36
701.66	25.75
701.79	21.06
701.93	0.00
702.06	51.49
702.19	60.85
702.32	30.43
702.46	32.77
702.59	0.00
702.72	32.77
702.85	28.09
702.99	2.34
703.12	70.22
703.25	53.83
703.38	60.85
703.51	0.00
703.65	21.06
703.78	107.66
703.91	0.00
704.04	42.13
704.17	9.36
704.31	0.00
704.44	32.77
704.57	0.00
704.70	30.43
704.83	74.90
704.96	37.45
705.10	114.69
705.23	35.11
>>>>>End Processed Spectral Data<<<<<
