SpectraSuite Data File
++++++++++++++++++++++++++++++++++++
Date: Fri Oct 04 12:13:28 GMT-05:00 2013
User: price-jones
Dark Spectrum Present: No
Reference Spectrum Present: No
Number of Sampled Component Spectra: 1
Spectrometers: USB2+H05261
Integration Time (usec): 10000 (USB2+H05261)
Spectra Averaged: 1 (USB2+H05261)
Boxcar Smoothing: 0 (USB2+H05261)
Correct for Electrical Dark: No (USB2+H05261)
Strobe/Lamp Enabled: No (USB2+H05261)
Correct for Detector Non-linearity: No (USB2+H05261)
Correct for Stray Light: No (USB2+H05261)
Number of Pixels in Processed Spectrum: 2048
>>>>>Begin Processed Spectral Data<<<<<
365.73	0.00
365.92	0.00
366.12	0.00
366.32	0.00
366.52	0.00
366.72	0.00
366.91	0.00
367.11	0.00
367.31	0.00
367.51	0.00
367.70	0.00
367.90	0.00
368.10	0.00
368.30	0.00
368.49	0.00
368.69	0.00
368.89	0.00
369.09	0.00
369.28	0.00
369.48	0.00
369.68	0.00
369.87	0.00
370.07	0.00
370.27	0.00
370.47	0.00
370.66	0.00
370.86	0.00
371.06	0.00
371.25	0.00
371.45	0.00
371.65	0.00
371.84	0.00
372.04	0.00
372.24	0.00
372.44	16.38
372.63	9.36
372.83	28.09
373.03	44.47
373.22	30.43
373.42	32.77
373.62	65.54
373.81	0.00
374.01	86.60
374.21	28.09
374.40	88.94
374.60	70.22
374.79	79.58
374.99	0.00
375.19	46.81
375.38	63.19
375.58	23.41
375.78	60.85
375.97	9.36
376.17	53.83
376.37	0.00
376.56	0.00
376.76	28.09
376.95	0.00
377.15	37.45
377.35	16.38
377.54	0.00
377.74	4.68
377.93	23.41
378.13	91.28
378.33	44.47
378.52	81.92
378.72	21.06
378.91	0.00
379.11	0.00
379.31	16.38
379.50	9.36
379.70	18.72
379.89	0.00
380.09	0.00
380.28	25.75
380.48	0.00
380.68	9.36
380.87	58.51
381.07	16.38
381.26	37.45
381.46	0.00
381.65	0.00
381.85	0.00
382.04	39.79
382.24	30.43
382.43	21.06
382.63	18.72
382.83	65.54
383.02	72.56
383.22	14.04
383.41	42.13
383.61	42.13
383.80	51.49
384.00	0.00
384.19	30.43
384.39	14.04
384.58	44.47
384.78	0.00
384.97	0.00
385.17	46.81
385.36	0.00
385.56	58.51
385.75	11.70
385.95	9.36
386.14	58.51
386.34	0.00
386.53	0.00
386.72	16.38
386.92	0.00
387.11	0.00
387.31	0.00
387.50	0.00
387.70	44.47
387.89	93.62
388.09	0.00
388.28	0.00
388.48	58.51
388.67	72.56
388.86	0.00
389.06	23.41
389.25	14.04
389.45	30.43
389.64	21.06
389.84	18.72
390.03	0.00
390.22	39.79
390.42	11.70
390.61	0.00
390.81	0.00
391.00	14.04
391.19	30.43
391.39	0.00
391.58	21.06
391.78	0.00
391.97	28.09
392.16	16.38
392.36	7.02
392.55	0.00
392.75	0.00
392.94	4.68
393.13	95.96
393.33	14.04
393.52	42.13
393.71	42.13
393.91	67.88
394.10	0.00
394.29	51.49
394.49	25.75
394.68	0.00
394.88	0.00
395.07	0.00
395.26	32.77
395.46	0.00
395.65	44.47
395.84	0.00
396.04	0.00
396.23	0.00
396.42	0.00
396.62	49.15
396.81	30.43
397.00	65.54
397.19	84.26
397.39	77.24
397.58	0.00
397.77	21.06
397.97	21.06
398.16	2.34
398.35	51.49
398.55	65.54
398.74	74.90
398.93	51.49
399.12	23.41
399.32	65.54
399.51	23.41
399.70	4.68
399.90	39.79
400.09	63.19
400.28	0.00
400.47	9.36
400.67	0.00
400.86	14.04
401.05	4.68
401.24	65.54
401.44	53.83
401.63	14.04
401.82	49.15
402.01	14.04
402.21	30.43
402.40	0.00
402.59	30.43
402.78	42.13
402.97	7.02
403.17	0.00
403.36	32.77
403.55	0.00
403.74	9.36
403.93	0.00
404.13	86.60
404.32	51.49
404.51	51.49
404.70	18.72
404.89	0.00
405.09	0.00
405.28	0.00
405.47	25.75
405.66	51.49
405.85	18.72
406.05	39.79
406.24	30.43
406.43	14.04
406.62	0.00
406.81	21.06
407.00	14.04
407.20	0.00
407.39	32.77
407.58	44.47
407.77	74.90
407.96	0.00
408.15	7.02
408.34	0.00
408.54	0.00
408.73	21.06
408.92	0.00
409.11	60.85
409.30	42.13
409.49	32.77
409.68	2.34
409.87	46.81
410.07	0.00
410.26	65.54
410.45	37.45
410.64	0.00
410.83	0.00
411.02	21.06
411.21	95.96
411.40	0.00
411.59	0.00
411.78	11.70
411.98	70.22
412.17	30.43
412.36	42.13
412.55	37.45
412.74	79.58
412.93	7.02
413.12	23.41
413.31	0.00
413.50	23.41
413.69	58.51
413.88	0.00
414.07	18.72
414.26	67.88
414.45	58.51
414.64	46.81
414.83	0.00
415.02	63.19
415.22	70.22
415.41	105.32
415.60	107.66
415.79	58.51
415.98	37.45
416.17	35.11
416.36	0.00
416.55	28.09
416.74	0.00
416.93	14.04
417.12	46.81
417.31	67.88
417.50	30.43
417.69	58.51
417.88	128.73
418.07	21.06
418.26	32.77
418.45	0.00
418.64	60.85
418.83	35.11
419.02	49.15
419.21	0.00
419.39	4.68
419.58	21.06
419.77	0.00
419.96	79.58
420.15	0.00
420.34	65.54
420.53	21.06
420.72	46.81
420.91	65.54
421.10	58.51
421.29	67.88
421.48	42.13
421.67	0.00
421.86	0.00
422.05	49.15
422.24	0.00
422.43	0.00
422.61	14.04
422.80	21.06
422.99	84.26
423.18	37.45
423.37	0.00
423.56	0.00
423.75	18.72
423.94	0.00
424.13	42.13
424.32	2.34
424.50	0.00
424.69	14.04
424.88	81.92
425.07	74.90
425.26	35.11
425.45	0.00
425.64	0.00
425.83	58.51
426.01	7.02
426.20	0.00
426.39	16.38
426.58	9.36
426.77	21.06
426.96	4.68
427.15	16.38
427.33	37.45
427.52	4.68
427.71	18.72
427.90	42.13
428.09	0.00
428.28	58.51
428.46	32.77
428.65	0.00
428.84	42.13
429.03	46.81
429.22	11.70
429.40	0.00
429.59	65.54
429.78	0.00
429.97	25.75
430.16	37.45
430.34	53.83
430.53	30.43
430.72	70.22
430.91	126.39
431.10	16.38
431.28	63.19
431.47	35.11
431.66	0.00
431.85	65.54
432.03	0.00
432.22	77.24
432.41	0.00
432.60	53.83
432.79	30.43
432.97	98.30
433.16	102.98
433.35	39.79
433.54	11.70
433.72	0.00
433.91	0.00
434.10	25.75
434.28	56.17
434.47	25.75
434.66	37.45
434.85	7.02
435.03	58.51
435.22	0.00
435.41	0.00
435.59	32.77
435.78	28.09
435.97	51.49
436.16	86.60
436.34	0.00
436.53	77.24
436.72	32.77
436.90	11.70
437.09	30.43
437.28	18.72
437.46	0.00
437.65	74.90
437.84	32.77
438.02	39.79
438.21	98.30
438.40	107.66
438.58	18.72
438.77	0.00
438.96	53.83
439.14	0.00
439.33	0.00
439.52	14.04
439.70	0.00
439.89	65.54
440.08	32.77
440.26	53.83
440.45	0.00
440.63	14.04
440.82	0.00
441.01	0.00
441.19	44.47
441.38	42.13
441.57	0.00
441.75	35.11
441.94	0.00
442.12	7.02
442.31	2.34
442.50	0.00
442.68	0.00
442.87	63.19
443.05	0.00
443.24	72.56
443.43	58.51
443.61	4.68
443.80	0.00
443.98	0.00
444.17	0.00
444.35	100.64
444.54	16.38
444.73	4.68
444.91	16.38
445.10	65.54
445.28	63.19
445.47	0.00
445.65	32.77
445.84	0.00
446.02	0.00
446.21	0.00
446.39	0.00
446.58	88.94
446.77	56.17
446.95	39.79
447.14	0.00
447.32	0.00
447.51	2.34
447.69	51.49
447.88	2.34
448.06	107.66
448.25	30.43
448.43	18.72
448.62	28.09
448.80	42.13
448.99	23.41
449.17	102.98
449.36	0.00
449.54	25.75
449.73	58.51
449.91	46.81
450.10	72.56
450.28	42.13
450.46	0.00
450.65	16.38
450.83	9.36
451.02	51.49
451.20	14.04
451.39	0.00
451.57	7.02
451.76	23.41
451.94	0.00
452.13	53.83
452.31	58.51
452.49	117.03
452.68	42.13
452.86	46.81
453.05	46.81
453.23	30.43
453.42	63.19
453.60	58.51
453.78	70.22
453.97	0.00
454.15	14.04
454.34	14.04
454.52	7.02
454.70	63.19
454.89	72.56
455.07	0.00
455.26	7.02
455.44	0.00
455.62	65.54
455.81	53.83
455.99	0.00
456.17	0.00
456.36	23.41
456.54	35.11
456.73	49.15
456.91	0.00
457.09	49.15
457.28	14.04
457.46	46.81
457.64	79.58
457.83	37.45
458.01	56.17
458.19	25.75
458.38	11.70
458.56	35.11
458.74	0.00
458.93	25.75
459.11	35.11
459.29	46.81
459.48	42.13
459.66	9.36
459.84	32.77
460.03	0.00
460.21	44.47
460.39	63.19
460.57	21.06
460.76	58.51
460.94	46.81
461.12	46.81
461.31	39.79
461.49	9.36
461.67	32.77
461.85	53.83
462.04	86.60
462.22	37.45
462.40	23.41
462.59	79.58
462.77	131.07
462.95	70.22
463.13	58.51
463.32	67.88
463.50	0.00
463.68	30.43
463.86	35.11
464.05	23.41
464.23	112.35
464.41	35.11
464.59	63.19
464.78	0.00
464.96	56.17
465.14	30.43
465.32	58.51
465.50	44.47
465.69	42.13
465.87	23.41
466.05	25.75
466.23	77.24
466.41	21.06
466.60	11.70
466.78	37.45
466.96	39.79
467.14	35.11
467.32	86.60
467.51	0.00
467.69	0.00
467.87	88.94
468.05	9.36
468.23	4.68
468.41	49.15
468.60	65.54
468.78	42.13
468.96	0.00
469.14	49.15
469.32	0.00
469.50	0.00
469.69	30.43
469.87	0.00
470.05	86.60
470.23	16.38
470.41	53.83
470.59	88.94
470.77	46.81
470.95	0.00
471.14	67.88
471.32	0.00
471.50	0.00
471.68	37.45
471.86	63.19
472.04	35.11
472.22	18.72
472.40	35.11
472.58	0.00
472.77	56.17
472.95	23.41
473.13	49.15
473.31	42.13
473.49	0.00
473.67	51.49
473.85	51.49
474.03	0.00
474.21	35.11
474.39	67.88
474.57	21.06
474.75	53.83
474.93	0.00
475.12	51.49
475.30	65.54
475.48	53.83
475.66	25.75
475.84	72.56
476.02	58.51
476.20	16.38
476.38	37.45
476.56	79.58
476.74	95.96
476.92	0.00
477.10	0.00
477.28	77.24
477.46	32.77
477.64	0.00
477.82	0.00
478.00	0.00
478.18	30.43
478.36	32.77
478.54	4.68
478.72	0.00
478.90	0.00
479.08	56.17
479.26	23.41
479.44	0.00
479.62	37.45
479.80	0.00
479.98	42.13
480.16	49.15
480.34	0.00
480.52	51.49
480.70	0.00
480.88	16.38
481.06	0.00
481.24	21.06
481.41	102.98
481.59	0.00
481.77	88.94
481.95	21.06
482.13	28.09
482.31	21.06
482.49	9.36
482.67	0.00
482.85	46.81
483.03	49.15
483.21	112.35
483.39	14.04
483.57	0.00
483.74	86.60
483.92	70.22
484.10	0.00
484.28	65.54
484.46	21.06
484.64	72.56
484.82	35.11
485.00	25.75
485.18	44.47
485.35	21.06
485.53	37.45
485.71	14.04
485.89	0.00
486.07	81.92
486.25	84.26
486.43	88.94
486.61	58.51
486.78	88.94
486.96	0.00
487.14	70.22
487.32	4.68
487.50	91.28
487.68	37.45
487.85	0.00
488.03	88.94
488.21	18.72
488.39	0.00
488.57	14.04
488.75	65.54
488.92	74.90
489.10	51.49
489.28	30.43
489.46	0.00
489.64	0.00
489.81	37.45
489.99	105.32
490.17	18.72
490.35	0.00
490.53	30.43
490.70	23.41
490.88	93.62
491.06	53.83
491.24	63.19
491.41	11.70
491.59	84.26
491.77	21.06
491.95	93.62
492.13	25.75
492.30	49.15
492.48	72.56
492.66	42.13
492.84	67.88
493.01	67.88
493.19	58.51
493.37	53.83
493.54	21.06
493.72	0.00
493.90	0.00
494.08	58.51
494.25	60.85
494.43	35.11
494.61	37.45
494.79	37.45
494.96	98.30
495.14	32.77
495.32	49.15
495.49	56.17
495.67	56.17
495.85	23.41
496.02	49.15
496.20	18.72
496.38	35.11
496.55	0.00
496.73	25.75
496.91	35.11
497.09	98.30
497.26	79.58
497.44	37.45
497.62	44.47
497.79	119.37
497.97	25.75
498.14	25.75
498.32	9.36
498.50	9.36
498.67	70.22
498.85	16.38
499.03	21.06
499.20	49.15
499.38	49.15
499.56	4.68
499.73	86.60
499.91	49.15
500.08	25.75
500.26	60.85
500.44	7.02
500.61	81.92
500.79	0.00
500.97	79.58
501.14	0.00
501.32	16.38
501.49	18.72
501.67	102.98
501.84	67.88
502.02	39.79
502.20	53.83
502.37	65.54
502.55	11.70
502.72	0.00
502.90	0.00
503.07	53.83
503.25	86.60
503.43	9.36
503.60	0.00
503.78	53.83
503.95	39.79
504.13	0.00
504.30	58.51
504.48	39.79
504.65	11.70
504.83	53.83
505.01	72.56
505.18	0.00
505.36	0.00
505.53	114.69
505.71	21.06
505.88	35.11
506.06	42.13
506.23	35.11
506.41	53.83
506.58	67.88
506.76	65.54
506.93	23.41
507.11	0.00
507.28	56.17
507.46	102.98
507.63	51.49
507.81	0.00
507.98	86.60
508.16	72.56
508.33	0.00
508.50	23.41
508.68	0.00
508.85	16.38
509.03	93.62
509.20	44.47
509.38	37.45
509.55	70.22
509.73	23.41
509.90	72.56
510.08	70.22
510.25	2.34
510.42	0.00
510.60	135.75
510.77	0.00
510.95	35.11
511.12	67.88
511.30	44.47
511.47	0.00
511.64	4.68
511.82	63.19
511.99	86.60
512.17	70.22
512.34	63.19
512.51	74.90
512.69	65.54
512.86	0.00
513.04	49.15
513.21	133.41
513.38	102.98
513.56	86.60
513.73	2.34
513.90	91.28
514.08	112.35
514.25	105.32
514.43	23.41
514.60	18.72
514.77	11.70
514.95	9.36
515.12	7.02
515.29	93.62
515.47	84.26
515.64	18.72
515.81	58.51
515.99	0.00
516.16	51.49
516.33	42.13
516.51	0.00
516.68	9.36
516.85	88.94
517.03	84.26
517.20	4.68
517.37	11.70
517.54	11.70
517.72	14.04
517.89	21.06
518.06	18.72
518.24	107.66
518.41	86.60
518.58	28.09
518.75	77.24
518.93	60.85
519.10	35.11
519.27	0.00
519.45	16.38
519.62	0.00
519.79	11.70
519.96	14.04
520.14	56.17
520.31	0.00
520.48	91.28
520.65	88.94
520.83	18.72
521.00	51.49
521.17	102.98
521.34	58.51
521.52	7.02
521.69	0.00
521.86	74.90
522.03	93.62
522.20	46.81
522.38	35.11
522.55	49.15
522.72	42.13
522.89	37.45
523.07	67.88
523.24	112.35
523.41	0.00
523.58	58.51
523.75	0.00
523.92	28.09
524.10	9.36
524.27	102.98
524.44	32.77
524.61	95.96
524.78	46.81
524.96	30.43
525.13	2.34
525.30	37.45
525.47	46.81
525.64	53.83
525.81	58.51
525.98	44.47
526.16	0.00
526.33	14.04
526.50	70.22
526.67	107.66
526.84	0.00
527.01	18.72
527.18	117.03
527.36	32.77
527.53	28.09
527.70	65.54
527.87	30.43
528.04	0.00
528.21	25.75
528.38	0.00
528.55	58.51
528.72	46.81
528.89	67.88
529.07	102.98
529.24	58.51
529.41	72.56
529.58	67.88
529.75	63.19
529.92	0.00
530.09	0.00
530.26	44.47
530.43	0.00
530.60	4.68
530.77	25.75
530.94	30.43
531.11	0.00
531.28	46.81
531.46	11.70
531.63	98.30
531.80	0.00
531.97	63.19
532.14	95.96
532.31	63.19
532.48	72.56
532.65	30.43
532.82	56.17
532.99	86.60
533.16	39.79
533.33	46.81
533.50	86.60
533.67	67.88
533.84	72.56
534.01	37.45
534.18	49.15
534.35	58.51
534.52	72.56
534.69	39.79
534.86	44.47
535.03	28.09
535.20	30.43
535.37	74.90
535.54	56.17
535.71	37.45
535.88	53.83
536.05	53.83
536.22	49.15
536.38	84.26
536.55	4.68
536.72	72.56
536.89	32.77
537.06	51.49
537.23	63.19
537.40	35.11
537.57	140.43
537.74	0.00
537.91	79.58
538.08	91.28
538.25	79.58
538.42	81.92
538.59	74.90
538.75	65.54
538.92	0.00
539.09	42.13
539.26	67.88
539.43	53.83
539.60	173.20
539.77	283.20
539.94	299.59
540.11	161.50
540.28	74.90
540.44	77.24
540.61	46.81
540.78	63.19
540.95	51.49
541.12	35.11
541.29	81.92
541.46	58.51
541.62	9.36
541.79	49.15
541.96	32.77
542.13	42.13
542.30	35.11
542.47	46.81
542.63	49.15
542.80	0.00
542.97	0.00
543.14	32.77
543.31	32.77
543.48	42.13
543.64	0.00
543.81	21.06
543.98	35.11
544.15	0.00
544.32	25.75
544.48	67.88
544.65	32.77
544.82	0.00
544.99	25.75
545.16	11.70
545.32	56.17
545.49	72.56
545.66	35.11
545.83	42.13
546.00	53.83
546.16	49.15
546.33	42.13
546.50	16.38
546.67	18.72
546.83	86.60
547.00	0.00
547.17	67.88
547.34	23.41
547.50	9.36
547.67	28.09
547.84	7.02
548.00	60.85
548.17	63.19
548.34	65.54
548.51	35.11
548.67	53.83
548.84	0.00
549.01	2.34
549.18	65.54
549.34	60.85
549.51	72.56
549.68	21.06
549.84	42.13
550.01	32.77
550.18	60.85
550.34	39.79
550.51	37.45
550.68	42.13
550.84	0.00
551.01	0.00
551.18	65.54
551.34	100.64
551.51	70.22
551.68	88.94
551.84	100.64
552.01	67.88
552.18	77.24
552.34	0.00
552.51	60.85
552.68	0.00
552.84	119.37
553.01	102.98
553.18	35.11
553.34	74.90
553.51	14.04
553.67	56.17
553.84	77.24
554.01	4.68
554.17	0.00
554.34	0.00
554.51	0.00
554.67	42.13
554.84	51.49
555.00	74.90
555.17	11.70
555.33	46.81
555.50	21.06
555.67	84.26
555.83	91.28
556.00	91.28
556.16	67.88
556.33	49.15
556.50	0.00
556.66	0.00
556.83	32.77
556.99	14.04
557.16	58.51
557.32	16.38
557.49	37.45
557.65	79.58
557.82	0.00
557.98	91.28
558.15	65.54
558.32	7.02
558.48	42.13
558.65	16.38
558.81	65.54
558.98	0.00
559.14	21.06
559.31	53.83
559.47	60.85
559.64	9.36
559.80	121.71
559.97	16.38
560.13	74.90
560.30	105.32
560.46	67.88
560.63	42.13
560.79	46.81
560.96	25.75
561.12	77.24
561.29	84.26
561.45	14.04
561.61	65.54
561.78	95.96
561.94	35.11
562.11	21.06
562.27	16.38
562.44	0.00
562.60	44.47
562.77	0.00
562.93	98.30
563.10	77.24
563.26	46.81
563.42	32.77
563.59	25.75
563.75	0.00
563.92	77.24
564.08	63.19
564.24	0.00
564.41	91.28
564.57	58.51
564.74	81.92
564.90	32.77
565.07	88.94
565.23	53.83
565.39	11.70
565.56	0.00
565.72	107.66
565.88	110.01
566.05	81.92
566.21	25.75
566.38	63.19
566.54	110.01
566.70	0.00
566.87	25.75
567.03	39.79
567.19	30.43
567.36	28.09
567.52	86.60
567.68	0.00
567.85	7.02
568.01	49.15
568.17	14.04
568.34	65.54
568.50	37.45
568.66	77.24
568.83	77.24
568.99	51.49
569.15	53.83
569.32	28.09
569.48	53.83
569.64	11.70
569.81	49.15
569.97	37.45
570.13	58.51
570.30	70.22
570.46	86.60
570.62	23.41
570.78	23.41
570.95	39.79
571.11	138.09
571.27	25.75
571.43	86.60
571.60	117.03
571.76	30.43
571.92	98.30
572.09	107.66
572.25	30.43
572.41	86.60
572.57	74.90
572.74	28.09
572.90	0.00
573.06	91.28
573.22	110.01
573.38	11.70
573.55	4.68
573.71	51.49
573.87	7.02
574.03	53.83
574.20	39.79
574.36	32.77
574.52	112.35
574.68	42.13
574.84	67.88
575.01	86.60
575.17	25.75
575.33	39.79
575.49	21.06
575.65	25.75
575.82	18.72
575.98	49.15
576.14	114.69
576.30	126.39
576.46	39.79
576.62	100.64
576.79	2.34
576.95	18.72
577.11	32.77
577.27	67.88
577.43	100.64
577.59	42.13
577.75	77.24
577.92	72.56
578.08	65.54
578.24	46.81
578.40	16.38
578.56	60.85
578.72	79.58
578.88	77.24
579.04	65.54
579.21	0.00
579.37	0.00
579.53	0.00
579.69	58.51
579.85	58.51
580.01	72.56
580.17	63.19
580.33	77.24
580.49	63.19
580.65	86.60
580.82	44.47
580.98	42.13
581.14	21.06
581.30	28.09
581.46	30.43
581.62	98.30
581.78	84.26
581.94	126.39
582.10	149.79
582.26	72.56
582.42	67.88
582.58	0.00
582.74	95.96
582.90	65.54
583.06	93.62
583.22	93.62
583.38	18.72
583.54	86.60
583.70	166.18
583.86	149.79
584.02	159.16
584.18	142.77
584.34	255.12
584.50	528.96
584.66	3712.09
584.82	9589.17
584.98	14389.61
585.14	12891.67
585.30	8102.93
585.46	4751.29
585.62	3103.55
585.78	1313.04
585.94	510.24
586.10	290.23
586.26	128.73
586.42	184.90
586.58	168.52
586.74	98.30
586.90	133.41
587.06	93.62
587.22	149.79
587.38	102.98
587.54	166.18
587.70	601.52
587.86	957.28
588.02	1090.69
588.18	882.38
588.34	484.49
588.49	304.27
588.65	220.01
588.81	105.32
588.97	25.75
589.13	84.26
589.29	14.04
589.45	42.13
589.61	63.19
589.77	23.41
589.93	23.41
590.08	72.56
590.24	119.37
590.40	110.01
590.56	65.54
590.72	23.41
590.88	100.64
591.04	18.72
591.20	53.83
591.35	105.32
591.51	91.28
591.67	53.83
591.83	100.64
591.99	18.72
592.15	79.58
592.31	102.98
592.46	32.77
592.62	88.94
592.78	23.41
592.94	0.00
593.10	4.68
593.26	39.79
593.41	23.41
593.57	138.09
593.73	86.60
593.89	449.38
594.05	1221.76
594.20	1806.89
594.36	1629.01
594.52	1263.89
594.68	716.20
594.84	514.92
594.99	271.50
595.15	187.24
595.31	60.85
595.47	72.56
595.62	9.36
595.78	42.13
595.94	32.77
596.10	70.22
596.25	56.17
596.41	173.20
596.57	58.51
596.73	18.72
596.88	173.20
597.04	229.37
597.20	383.85
597.36	379.17
597.51	407.25
597.67	210.65
597.83	259.80
597.99	180.22
598.14	147.45
598.30	112.35
598.46	70.22
598.61	67.88
598.77	21.06
598.93	100.64
599.09	65.54
599.24	0.00
599.40	65.54
599.56	147.45
599.71	0.00
599.87	95.96
600.03	0.00
600.18	18.72
600.34	56.17
600.50	53.83
600.65	77.24
600.81	0.00
600.97	49.15
601.12	9.36
601.28	77.24
601.44	0.00
601.59	9.36
601.75	30.43
601.91	35.11
602.06	63.19
602.22	79.58
602.37	86.60
602.53	304.27
602.69	477.47
602.84	416.62
603.00	388.53
603.16	238.73
603.31	177.88
603.47	140.43
603.62	84.26
603.78	32.77
603.94	72.56
604.09	51.49
604.25	7.02
604.40	4.68
604.56	32.77
604.71	0.00
604.87	0.00
605.03	0.00
605.18	86.60
605.34	25.75
605.49	67.88
605.65	0.00
605.80	11.70
605.96	70.22
606.12	63.19
606.27	46.81
606.43	42.13
606.58	100.64
606.74	156.82
606.89	557.05
607.05	1153.88
607.20	1549.43
607.36	1315.38
607.51	924.51
607.67	510.24
607.82	353.42
607.98	205.97
608.13	140.43
608.29	58.51
608.44	88.94
608.60	65.54
608.75	105.32
608.91	241.08
609.06	964.30
609.22	2010.52
609.37	2733.75
609.53	2298.41
609.68	1465.18
609.84	908.13
609.99	648.33
610.15	332.36
610.30	191.92
610.46	74.90
610.61	128.73
610.76	84.26
610.92	58.51
611.07	95.96
611.23	60.85
611.38	58.51
611.54	42.13
611.69	16.38
611.84	49.15
612.00	11.70
612.15	39.79
612.31	95.96
612.46	56.17
612.62	105.32
612.77	110.01
612.92	196.60
613.08	72.56
613.23	44.47
613.39	74.90
613.54	110.01
613.69	849.61
613.85	2314.79
614.00	3859.54
614.15	4121.68
614.31	3061.42
614.46	2012.86
614.62	1369.21
614.77	809.83
614.92	395.55
615.08	170.86
615.23	81.92
615.38	4.68
615.54	110.01
615.69	205.97
615.84	528.96
616.00	840.25
616.15	1104.73
616.30	887.06
616.46	580.45
616.61	383.85
616.76	294.91
616.92	215.33
617.07	77.24
617.22	131.07
617.37	14.04
617.53	0.00
617.68	51.49
617.83	91.28
617.99	46.81
618.14	16.38
618.29	30.43
618.45	14.04
618.60	53.83
618.75	37.45
618.90	67.88
619.06	0.00
619.21	0.00
619.36	23.41
619.51	25.75
619.67	0.00
619.82	0.00
619.97	60.85
620.12	0.00
620.28	42.13
620.43	95.96
620.58	0.00
620.73	105.32
620.89	63.19
621.04	126.39
621.19	315.97
621.34	447.04
621.49	730.25
621.65	573.43
621.80	456.40
621.95	374.49
622.10	191.92
622.25	124.05
622.41	65.54
622.56	135.75
622.71	32.77
622.86	46.81
623.01	2.34
623.16	58.51
623.32	79.58
623.47	93.62
623.62	28.09
623.77	37.45
623.92	42.13
624.07	49.15
624.23	14.04
624.38	18.72
624.53	42.13
624.68	46.81
624.83	0.00
624.98	0.00
625.13	81.92
625.29	105.32
625.44	14.04
625.59	53.83
625.74	79.58
625.89	95.96
626.04	458.74
626.19	1172.61
626.34	1940.30
626.49	2127.55
626.65	1650.08
626.80	1025.15
626.95	814.51
627.10	496.19
627.25	292.57
627.40	140.43
627.55	140.43
627.70	124.05
627.85	91.28
628.00	65.54
628.15	126.39
628.30	88.94
628.45	67.88
628.60	60.85
628.76	51.49
628.91	4.68
629.06	37.45
629.21	9.36
629.36	65.54
629.51	56.17
629.66	23.41
629.81	77.24
629.96	198.95
630.11	449.38
630.26	575.77
630.41	514.92
630.56	397.89
630.71	264.48
630.86	156.82
631.01	145.11
631.16	126.39
631.31	135.75
631.46	0.00
631.61	21.06
631.76	32.77
631.91	42.13
632.06	0.00
632.21	58.51
632.36	67.88
632.51	140.43
632.66	124.05
632.81	224.69
632.96	681.10
633.10	1181.97
633.25	1390.28
633.40	1240.48
633.55	844.93
633.70	641.31
633.85	404.91
634.00	290.23
634.15	70.22
634.30	74.90
634.45	77.24
634.60	42.13
634.75	79.58
634.90	32.77
635.05	25.75
635.19	67.88
635.34	81.92
635.49	88.94
635.64	44.47
635.79	37.45
635.94	32.77
636.09	84.26
636.24	44.47
636.39	79.58
636.53	49.15
636.68	11.70
636.83	28.09
636.98	23.41
637.13	72.56
637.28	124.05
637.43	77.24
637.57	102.98
637.72	592.16
637.87	1465.18
638.02	2401.39
638.17	2801.62
638.32	2115.84
638.46	1380.92
638.61	809.83
638.76	613.22
638.91	231.71
639.06	163.84
639.20	25.75
639.35	98.30
639.50	84.26
639.65	873.02
639.80	2389.69
639.94	3803.37
640.09	4358.08
640.24	3288.45
640.39	2193.08
640.54	1451.13
640.68	940.90
640.83	444.70
640.98	255.12
641.13	154.48
641.27	42.13
641.42	107.66
641.57	9.36
641.72	51.49
641.86	11.70
642.01	51.49
642.16	51.49
642.31	4.68
642.45	65.54
642.60	58.51
642.75	81.92
642.90	65.54
643.04	112.35
643.19	39.79
643.34	88.94
643.48	30.43
643.63	0.00
643.78	110.01
643.93	56.17
644.07	44.47
644.22	44.47
644.37	49.15
644.51	35.11
644.66	46.81
644.81	102.98
644.95	100.64
645.10	56.17
645.25	67.88
645.39	0.00
645.54	51.49
645.69	91.28
645.83	84.26
645.98	70.22
646.13	14.04
646.27	0.00
646.42	67.88
646.57	28.09
646.71	72.56
646.86	58.51
647.00	67.88
647.15	39.79
647.30	63.19
647.44	124.05
647.59	65.54
647.74	93.62
647.88	42.13
648.03	11.70
648.17	25.75
648.32	25.75
648.47	0.00
648.61	0.00
648.76	86.60
648.90	2.34
649.05	9.36
649.20	0.00
649.34	58.51
649.49	79.58
649.63	91.28
649.78	25.75
649.92	112.35
650.07	322.99
650.21	1083.67
650.36	1776.47
650.51	2300.75
650.65	1844.34
650.80	1268.57
650.94	924.51
651.09	524.28
651.23	308.95
651.38	252.78
651.52	81.92
651.67	117.03
651.81	79.58
651.96	4.68
652.10	135.75
652.25	102.98
652.39	102.98
652.54	86.60
652.68	124.05
652.83	397.89
652.97	653.01
653.12	833.23
653.26	702.16
653.41	528.96
653.55	348.74
653.70	262.14
653.84	117.03
653.99	42.13
654.13	72.56
654.27	56.17
654.42	53.83
654.56	44.47
654.71	100.64
654.85	65.54
655.00	0.00
655.14	14.04
655.29	39.79
655.43	4.68
655.57	51.49
655.72	28.09
655.86	0.00
656.01	105.32
656.15	18.72
656.30	74.90
656.44	18.72
656.58	58.51
656.73	93.62
656.87	74.90
657.01	30.43
657.16	0.00
657.30	98.30
657.45	0.00
657.59	2.34
657.73	65.54
657.88	16.38
658.02	51.49
658.16	53.83
658.31	0.00
658.45	9.36
658.60	98.30
658.74	25.75
658.88	53.83
659.03	30.43
659.17	46.81
659.31	117.03
659.46	493.85
659.60	875.36
659.74	1142.18
659.89	966.64
660.03	753.65
660.17	514.92
660.32	308.95
660.46	234.05
660.60	142.77
660.74	21.06
660.89	117.03
661.03	16.38
661.17	46.81
661.32	4.68
661.46	0.00
661.60	35.11
661.74	25.75
661.89	72.56
662.03	0.00
662.17	2.34
662.31	63.19
662.46	51.49
662.60	98.30
662.74	56.17
662.88	39.79
663.03	44.47
663.17	98.30
663.31	18.72
663.45	30.43
663.60	7.02
663.74	0.00
663.88	56.17
664.02	65.54
664.17	0.00
664.31	16.38
664.45	14.04
664.59	0.00
664.73	39.79
664.88	79.58
665.02	56.17
665.16	21.06
665.30	42.13
665.44	102.98
665.59	117.03
665.73	23.41
665.87	88.94
666.01	44.47
666.15	0.00
666.29	58.51
666.44	0.00
666.58	58.51
666.72	18.72
666.86	56.17
667.00	67.88
667.14	77.24
667.28	280.86
667.43	833.23
667.57	1528.37
667.71	1961.37
667.85	1675.82
667.99	1268.57
668.13	678.76
668.27	475.13
668.41	325.33
668.56	175.54
668.70	93.62
668.84	112.35
668.98	126.39
669.12	2.34
669.26	60.85
669.40	60.85
669.54	81.92
669.68	39.79
669.82	0.00
669.96	2.34
670.10	65.54
670.25	0.00
670.39	0.00
670.53	7.02
670.67	0.00
670.81	37.45
670.95	53.83
671.09	98.30
671.23	238.73
671.37	772.38
671.51	1046.22
671.65	1184.31
671.79	954.94
671.93	624.92
672.07	484.49
672.21	290.23
672.35	170.86
672.49	121.71
672.63	65.54
672.77	79.58
672.91	102.98
673.05	0.00
673.19	11.70
673.33	107.66
673.47	23.41
673.61	77.24
673.75	53.83
673.89	23.41
674.03	49.15
674.17	32.77
674.31	110.01
674.45	11.70
674.59	0.00
674.73	18.72
674.87	32.77
675.01	16.38
675.15	53.83
675.29	84.26
675.43	105.32
675.56	98.30
675.70	39.79
675.84	25.75
675.98	35.11
676.12	28.09
676.26	0.00
676.40	39.79
676.54	70.22
676.68	58.51
676.82	0.00
676.96	9.36
677.10	49.15
677.23	79.58
677.37	46.81
677.51	28.09
677.65	65.54
677.79	46.81
677.93	2.34
678.07	119.37
678.21	49.15
678.34	51.49
678.48	0.00
678.62	23.41
678.76	39.79
678.90	2.34
679.04	23.41
679.18	110.01
679.31	49.15
679.45	9.36
679.59	53.83
679.73	28.09
679.87	39.79
680.00	107.66
680.14	4.68
680.28	98.30
680.42	0.00
680.56	9.36
680.70	16.38
680.83	0.00
680.97	4.68
681.11	30.43
681.25	2.34
681.39	91.28
681.52	0.00
681.66	84.26
681.80	14.04
681.94	4.68
682.07	70.22
682.21	65.54
682.35	16.38
682.49	0.00
682.62	86.60
682.76	72.56
682.90	0.00
683.04	49.15
683.17	0.00
683.31	58.51
683.45	37.45
683.59	74.90
683.72	2.34
683.86	42.13
684.00	0.00
684.13	51.49
684.27	58.51
684.41	11.70
684.55	145.11
684.68	42.13
684.82	72.56
684.96	32.77
685.09	32.77
685.23	0.00
685.37	77.24
685.50	51.49
685.64	0.00
685.78	0.00
685.91	0.00
686.05	58.51
686.19	0.00
686.32	28.09
686.46	77.24
686.60	28.09
686.73	46.81
686.87	110.01
687.01	100.64
687.14	16.38
687.28	18.72
687.42	42.13
687.55	35.11
687.69	88.94
687.82	56.17
687.96	32.77
688.10	0.00
688.23	7.02
688.37	4.68
688.50	42.13
688.64	23.41
688.78	58.51
688.91	37.45
689.05	0.00
689.18	0.00
689.32	39.79
689.46	58.51
689.59	18.72
689.73	0.00
689.86	49.15
690.00	0.00
690.13	0.00
690.27	35.11
690.41	21.06
690.54	28.09
690.68	49.15
690.81	25.75
690.95	14.04
691.08	35.11
691.22	30.43
691.35	53.83
691.49	44.47
691.62	25.75
691.76	0.00
691.89	72.56
692.03	0.00
692.16	72.56
692.30	110.01
692.43	135.75
692.57	351.08
692.70	667.05
692.84	779.40
692.97	788.76
693.11	568.75
693.24	433.00
693.38	259.80
693.51	287.89
693.65	152.13
693.78	145.11
693.92	112.35
694.05	0.00
694.19	135.75
694.32	51.49
694.45	58.51
694.59	42.13
694.72	51.49
694.86	65.54
694.99	39.79
695.13	32.77
695.26	65.54
695.39	16.38
695.53	9.36
695.66	0.00
695.80	44.47
695.93	53.83
696.07	102.98
696.20	32.77
696.33	84.26
696.47	119.37
696.60	60.85
696.73	72.56
696.87	79.58
697.00	51.49
697.14	46.81
697.27	11.70
697.40	11.70
697.54	0.00
697.67	42.13
697.80	0.00
697.94	39.79
698.07	65.54
698.21	46.81
698.34	0.00
698.47	42.13
698.61	4.68
698.74	102.98
698.87	81.92
699.01	46.81
699.14	9.36
699.27	39.79
699.40	25.75
699.54	49.15
699.67	91.28
699.80	65.54
699.94	63.19
700.07	39.79
700.20	53.83
700.34	0.00
700.47	2.34
700.60	58.51
700.73	67.88
700.87	44.47
701.00	7.02
701.13	0.00
701.26	35.11
701.40	0.00
701.53	63.19
701.66	102.98
701.79	79.58
701.93	39.79
702.06	70.22
702.19	65.54
702.32	91.28
702.46	70.22
702.59	67.88
702.72	133.41
702.85	524.28
702.99	983.02
703.12	1441.77
703.25	1650.08
703.38	1416.02
703.51	1151.54
703.65	957.28
703.78	559.39
703.91	365.12
704.04	236.39
704.17	184.90
704.31	56.17
704.44	53.83
704.57	37.45
704.70	2.34
704.83	58.51
704.96	39.79
705.10	49.15
705.23	0.00
>>>>>End Processed Spectral Data<<<<<
