SpectraSuite Data File
++++++++++++++++++++++++++++++++++++
Date: Fri Oct 04 12:13:27 GMT-05:00 2013
User: price-jones
Dark Spectrum Present: No
Reference Spectrum Present: No
Number of Sampled Component Spectra: 1
Spectrometers: USB2+H05261
Integration Time (usec): 10000 (USB2+H05261)
Spectra Averaged: 1 (USB2+H05261)
Boxcar Smoothing: 0 (USB2+H05261)
Correct for Electrical Dark: No (USB2+H05261)
Strobe/Lamp Enabled: No (USB2+H05261)
Correct for Detector Non-linearity: No (USB2+H05261)
Correct for Stray Light: No (USB2+H05261)
Number of Pixels in Processed Spectrum: 2048
>>>>>Begin Processed Spectral Data<<<<<
365.73	0.00
365.92	0.00
366.12	0.00
366.32	0.00
366.52	0.00
366.72	0.00
366.91	0.00
367.11	0.00
367.31	0.00
367.51	0.00
367.70	0.00
367.90	0.00
368.10	0.00
368.30	0.00
368.49	0.00
368.69	0.00
368.89	0.00
369.09	0.00
369.28	0.00
369.48	0.00
369.68	0.00
369.87	0.00
370.07	0.00
370.27	0.00
370.47	0.00
370.66	0.00
370.86	0.00
371.06	0.00
371.25	0.00
371.45	0.00
371.65	0.00
371.84	0.00
372.04	0.00
372.24	30.43
372.44	56.17
372.63	0.00
372.83	23.41
373.03	0.00
373.22	42.13
373.42	18.72
373.62	0.00
373.81	44.47
374.01	37.45
374.21	32.77
374.40	0.00
374.60	98.30
374.79	0.00
374.99	28.09
375.19	0.00
375.38	65.54
375.58	32.77
375.78	14.04
375.97	72.56
376.17	32.77
376.37	49.15
376.56	46.81
376.76	49.15
376.95	65.54
377.15	56.17
377.35	42.13
377.54	9.36
377.74	7.02
377.93	16.38
378.13	39.79
378.33	72.56
378.52	81.92
378.72	63.19
378.91	0.00
379.11	67.88
379.31	53.83
379.50	0.00
379.70	46.81
379.89	11.70
380.09	30.43
380.28	0.00
380.48	25.75
380.68	42.13
380.87	51.49
381.07	4.68
381.26	0.00
381.46	35.11
381.65	42.13
381.85	23.41
382.04	35.11
382.24	0.00
382.43	23.41
382.63	0.00
382.83	0.00
383.02	16.38
383.22	63.19
383.41	0.00
383.61	93.62
383.80	0.00
384.00	37.45
384.19	0.00
384.39	2.34
384.58	35.11
384.78	42.13
384.97	0.00
385.17	93.62
385.36	0.00
385.56	70.22
385.75	25.75
385.95	37.45
386.14	7.02
386.34	16.38
386.53	37.45
386.72	60.85
386.92	44.47
387.11	39.79
387.31	0.00
387.50	51.49
387.70	0.00
387.89	42.13
388.09	39.79
388.28	0.00
388.48	0.00
388.67	39.79
388.86	49.15
389.06	28.09
389.25	7.02
389.45	67.88
389.64	0.00
389.84	11.70
390.03	0.00
390.22	0.00
390.42	0.00
390.61	44.47
390.81	0.00
391.00	4.68
391.19	42.13
391.39	124.05
391.58	72.56
391.78	37.45
391.97	56.17
392.16	0.00
392.36	25.75
392.55	0.00
392.75	0.00
392.94	37.45
393.13	21.06
393.33	35.11
393.52	0.00
393.71	0.00
393.91	11.70
394.10	4.68
394.29	7.02
394.49	0.00
394.68	0.00
394.88	0.00
395.07	44.47
395.26	16.38
395.46	0.00
395.65	51.49
395.84	0.00
396.04	14.04
396.23	16.38
396.42	30.43
396.62	0.00
396.81	0.00
397.00	0.00
397.19	42.13
397.39	0.00
397.58	28.09
397.77	0.00
397.97	32.77
398.16	49.15
398.35	16.38
398.55	51.49
398.74	16.38
398.93	39.79
399.12	28.09
399.32	0.00
399.51	25.75
399.70	74.90
399.90	42.13
400.09	44.47
400.28	0.00
400.47	30.43
400.67	72.56
400.86	0.00
401.05	23.41
401.24	0.00
401.44	53.83
401.63	79.58
401.82	0.00
402.01	0.00
402.21	51.49
402.40	79.58
402.59	0.00
402.78	0.00
402.97	4.68
403.17	0.00
403.36	0.00
403.55	0.00
403.74	74.90
403.93	0.00
404.13	21.06
404.32	0.00
404.51	23.41
404.70	11.70
404.89	110.01
405.09	74.90
405.28	25.75
405.47	110.01
405.66	88.94
405.85	67.88
406.05	44.47
406.24	0.00
406.43	32.77
406.62	42.13
406.81	28.09
407.00	86.60
407.20	21.06
407.39	23.41
407.58	11.70
407.77	21.06
407.96	7.02
408.15	39.79
408.34	25.75
408.54	30.43
408.73	32.77
408.92	133.41
409.11	25.75
409.30	65.54
409.49	77.24
409.68	21.06
409.87	0.00
410.07	0.00
410.26	0.00
410.45	32.77
410.64	9.36
410.83	0.00
411.02	16.38
411.21	91.28
411.40	86.60
411.59	23.41
411.78	0.00
411.98	18.72
412.17	49.15
412.36	0.00
412.55	42.13
412.74	53.83
412.93	53.83
413.12	77.24
413.31	42.13
413.50	77.24
413.69	0.00
413.88	42.13
414.07	42.13
414.26	44.47
414.45	32.77
414.64	16.38
414.83	18.72
415.02	42.13
415.22	0.00
415.41	0.00
415.60	60.85
415.79	37.45
415.98	70.22
416.17	74.90
416.36	4.68
416.55	0.00
416.74	16.38
416.93	32.77
417.12	16.38
417.31	56.17
417.50	4.68
417.69	49.15
417.88	70.22
418.07	74.90
418.26	21.06
418.45	44.47
418.64	14.04
418.83	63.19
419.02	39.79
419.21	72.56
419.39	37.45
419.58	102.98
419.77	0.00
419.96	37.45
420.15	65.54
420.34	0.00
420.53	84.26
420.72	37.45
420.91	21.06
421.10	0.00
421.29	49.15
421.48	0.00
421.67	14.04
421.86	2.34
422.05	0.00
422.24	0.00
422.43	51.49
422.61	9.36
422.80	0.00
422.99	67.88
423.18	0.00
423.37	65.54
423.56	32.77
423.75	16.38
423.94	25.75
424.13	25.75
424.32	0.00
424.50	98.30
424.69	42.13
424.88	42.13
425.07	72.56
425.26	0.00
425.45	23.41
425.64	70.22
425.83	16.38
426.01	0.00
426.20	53.83
426.39	0.00
426.58	0.00
426.77	0.00
426.96	42.13
427.15	14.04
427.33	0.00
427.52	79.58
427.71	0.00
427.90	11.70
428.09	0.00
428.28	18.72
428.46	0.00
428.65	53.83
428.84	58.51
429.03	39.79
429.22	63.19
429.40	32.77
429.59	72.56
429.78	0.00
429.97	0.00
430.16	0.00
430.34	28.09
430.53	30.43
430.72	23.41
430.91	18.72
431.10	32.77
431.28	93.62
431.47	0.00
431.66	0.00
431.85	32.77
432.03	32.77
432.22	65.54
432.41	0.00
432.60	51.49
432.79	44.47
432.97	51.49
433.16	86.60
433.35	0.00
433.54	30.43
433.72	95.96
433.91	21.06
434.10	46.81
434.28	0.00
434.47	35.11
434.66	58.51
434.85	7.02
435.03	0.00
435.22	72.56
435.41	51.49
435.59	35.11
435.78	60.85
435.97	46.81
436.16	77.24
436.34	0.00
436.53	119.37
436.72	0.00
436.90	0.00
437.09	72.56
437.28	21.06
437.46	9.36
437.65	32.77
437.84	0.00
438.02	25.75
438.21	74.90
438.40	42.13
438.58	21.06
438.77	81.92
438.96	21.06
439.14	39.79
439.33	51.49
439.52	25.75
439.70	93.62
439.89	74.90
440.08	77.24
440.26	56.17
440.45	49.15
440.63	0.00
440.82	9.36
441.01	0.00
441.19	51.49
441.38	21.06
441.57	14.04
441.75	4.68
441.94	30.43
442.12	105.32
442.31	9.36
442.50	42.13
442.68	9.36
442.87	42.13
443.05	0.00
443.24	0.00
443.43	63.19
443.61	49.15
443.80	7.02
443.98	42.13
444.17	18.72
444.35	44.47
444.54	53.83
444.73	46.81
444.91	18.72
445.10	44.47
445.28	2.34
445.47	0.00
445.65	0.00
445.84	30.43
446.02	11.70
446.21	46.81
446.39	18.72
446.58	53.83
446.77	58.51
446.95	0.00
447.14	79.58
447.32	14.04
447.51	51.49
447.69	0.00
447.88	11.70
448.06	0.00
448.25	30.43
448.43	7.02
448.62	7.02
448.80	77.24
448.99	35.11
449.17	37.45
449.36	58.51
449.54	21.06
449.73	60.85
449.91	81.92
450.10	7.02
450.28	51.49
450.46	44.47
450.65	23.41
450.83	67.88
451.02	28.09
451.20	37.45
451.39	0.00
451.57	42.13
451.76	14.04
451.94	51.49
452.13	23.41
452.31	32.77
452.49	79.58
452.68	0.00
452.86	70.22
453.05	42.13
453.23	9.36
453.42	0.00
453.60	0.00
453.78	21.06
453.97	0.00
454.15	79.58
454.34	25.75
454.52	70.22
454.70	46.81
454.89	77.24
455.07	21.06
455.26	35.11
455.44	56.17
455.62	67.88
455.81	4.68
455.99	65.54
456.17	39.79
456.36	9.36
456.54	11.70
456.73	49.15
456.91	0.00
457.09	4.68
457.28	51.49
457.46	58.51
457.64	51.49
457.83	0.00
458.01	0.00
458.19	72.56
458.38	0.00
458.56	25.75
458.74	18.72
458.93	7.02
459.11	0.00
459.29	53.83
459.48	28.09
459.66	0.00
459.84	0.00
460.03	44.47
460.21	4.68
460.39	18.72
460.57	63.19
460.76	35.11
460.94	0.00
461.12	9.36
461.31	65.54
461.49	53.83
461.67	51.49
461.85	0.00
462.04	74.90
462.22	84.26
462.40	14.04
462.59	0.00
462.77	70.22
462.95	28.09
463.13	0.00
463.32	0.00
463.50	9.36
463.68	4.68
463.86	98.30
464.05	35.11
464.23	35.11
464.41	0.00
464.59	42.13
464.78	21.06
464.96	7.02
465.14	0.00
465.32	0.00
465.50	70.22
465.69	42.13
465.87	7.02
466.05	0.00
466.23	81.92
466.41	4.68
466.60	77.24
466.78	65.54
466.96	44.47
467.14	49.15
467.32	42.13
467.51	21.06
467.69	0.00
467.87	42.13
468.05	72.56
468.23	77.24
468.41	63.19
468.60	23.41
468.78	32.77
468.96	25.75
469.14	49.15
469.32	30.43
469.50	70.22
469.69	0.00
469.87	0.00
470.05	51.49
470.23	35.11
470.41	53.83
470.59	28.09
470.77	67.88
470.95	42.13
471.14	65.54
471.32	32.77
471.50	46.81
471.68	0.00
471.86	46.81
472.04	2.34
472.22	0.00
472.40	25.75
472.58	79.58
472.77	74.90
472.95	30.43
473.13	86.60
473.31	21.06
473.49	16.38
473.67	35.11
473.85	0.00
474.03	23.41
474.21	79.58
474.39	32.77
474.57	16.38
474.75	0.00
474.93	11.70
475.12	23.41
475.30	32.77
475.48	0.00
475.66	60.85
475.84	32.77
476.02	58.51
476.20	72.56
476.38	14.04
476.56	79.58
476.74	49.15
476.92	46.81
477.10	72.56
477.28	63.19
477.46	72.56
477.64	46.81
477.82	21.06
478.00	46.81
478.18	0.00
478.36	0.00
478.54	37.45
478.72	0.00
478.90	53.83
479.08	0.00
479.26	56.17
479.44	42.13
479.62	65.54
479.80	39.79
479.98	0.00
480.16	63.19
480.34	79.58
480.52	39.79
480.70	0.00
480.88	0.00
481.06	65.54
481.24	14.04
481.41	2.34
481.59	81.92
481.77	2.34
481.95	0.00
482.13	7.02
482.31	88.94
482.49	0.00
482.67	37.45
482.85	110.01
483.03	72.56
483.21	7.02
483.39	39.79
483.57	79.58
483.74	56.17
483.92	4.68
484.10	86.60
484.28	11.70
484.46	117.03
484.64	65.54
484.82	35.11
485.00	0.00
485.18	107.66
485.35	63.19
485.53	30.43
485.71	32.77
485.89	25.75
486.07	9.36
486.25	2.34
486.43	0.00
486.61	37.45
486.78	46.81
486.96	65.54
487.14	93.62
487.32	32.77
487.50	28.09
487.68	30.43
487.85	0.00
488.03	32.77
488.21	49.15
488.39	37.45
488.57	4.68
488.75	44.47
488.92	79.58
489.10	46.81
489.28	0.00
489.46	7.02
489.64	4.68
489.81	32.77
489.99	70.22
490.17	9.36
490.35	18.72
490.53	79.58
490.70	70.22
490.88	98.30
491.06	49.15
491.24	25.75
491.41	51.49
491.59	23.41
491.77	72.56
491.95	91.28
492.13	65.54
492.30	63.19
492.48	0.00
492.66	11.70
492.84	21.06
493.01	0.00
493.19	100.64
493.37	9.36
493.54	32.77
493.72	72.56
493.90	28.09
494.08	30.43
494.25	72.56
494.43	21.06
494.61	0.00
494.79	46.81
494.96	60.85
495.14	51.49
495.32	7.02
495.49	11.70
495.67	7.02
495.85	51.49
496.02	60.85
496.20	21.06
496.38	32.77
496.55	0.00
496.73	4.68
496.91	0.00
497.09	98.30
497.26	44.47
497.44	121.71
497.62	39.79
497.79	46.81
497.97	88.94
498.14	28.09
498.32	65.54
498.50	37.45
498.67	0.00
498.85	39.79
499.03	79.58
499.20	42.13
499.38	56.17
499.56	11.70
499.73	86.60
499.91	149.79
500.08	84.26
500.26	4.68
500.44	9.36
500.61	4.68
500.79	44.47
500.97	16.38
501.14	0.00
501.32	2.34
501.49	74.90
501.67	51.49
501.84	0.00
502.02	49.15
502.20	74.90
502.37	0.00
502.55	49.15
502.72	11.70
502.90	16.38
503.07	65.54
503.25	93.62
503.43	28.09
503.60	23.41
503.78	23.41
503.95	35.11
504.13	56.17
504.30	67.88
504.48	0.00
504.65	0.00
504.83	63.19
505.01	93.62
505.18	23.41
505.36	65.54
505.53	70.22
505.71	14.04
505.88	81.92
506.06	98.30
506.23	91.28
506.41	0.00
506.58	98.30
506.76	0.00
506.93	30.43
507.11	42.13
507.28	60.85
507.46	11.70
507.63	56.17
507.81	98.30
507.98	72.56
508.16	7.02
508.33	25.75
508.50	0.00
508.68	9.36
508.85	16.38
509.03	0.00
509.20	74.90
509.38	0.00
509.55	0.00
509.73	0.00
509.90	4.68
510.08	0.00
510.25	28.09
510.42	56.17
510.60	21.06
510.77	14.04
510.95	72.56
511.12	37.45
511.30	18.72
511.47	53.83
511.64	30.43
511.82	46.81
511.99	9.36
512.17	0.00
512.34	32.77
512.51	18.72
512.69	39.79
512.86	0.00
513.04	79.58
513.21	35.11
513.38	53.83
513.56	25.75
513.73	23.41
513.90	46.81
514.08	42.13
514.25	0.00
514.43	126.39
514.60	39.79
514.77	58.51
514.95	30.43
515.12	131.07
515.29	23.41
515.47	14.04
515.64	9.36
515.81	65.54
515.99	21.06
516.16	23.41
516.33	51.49
516.51	70.22
516.68	56.17
516.85	28.09
517.03	30.43
517.20	63.19
517.37	0.00
517.54	0.00
517.72	42.13
517.89	21.06
518.06	63.19
518.24	0.00
518.41	0.00
518.58	37.45
518.75	98.30
518.93	60.85
519.10	44.47
519.27	0.00
519.45	0.00
519.62	0.00
519.79	95.96
519.96	2.34
520.14	18.72
520.31	39.79
520.48	30.43
520.65	37.45
520.83	65.54
521.00	49.15
521.17	30.43
521.34	39.79
521.52	95.96
521.69	102.98
521.86	49.15
522.03	56.17
522.20	49.15
522.38	16.38
522.55	98.30
522.72	0.00
522.89	63.19
523.07	49.15
523.24	0.00
523.41	53.83
523.58	2.34
523.75	23.41
523.92	65.54
524.10	93.62
524.27	0.00
524.44	4.68
524.61	4.68
524.78	0.00
524.96	32.77
525.13	74.90
525.30	51.49
525.47	9.36
525.64	53.83
525.81	0.00
525.98	67.88
526.16	58.51
526.33	44.47
526.50	77.24
526.67	86.60
526.84	88.94
527.01	51.49
527.18	110.01
527.36	30.43
527.53	72.56
527.70	74.90
527.87	14.04
528.04	39.79
528.21	56.17
528.38	49.15
528.55	56.17
528.72	42.13
528.89	110.01
529.07	63.19
529.24	70.22
529.41	30.43
529.58	14.04
529.75	121.71
529.92	81.92
530.09	7.02
530.26	37.45
530.43	67.88
530.60	98.30
530.77	7.02
530.94	0.00
531.11	32.77
531.28	140.43
531.46	0.00
531.63	18.72
531.80	72.56
531.97	39.79
532.14	0.00
532.31	70.22
532.48	53.83
532.65	4.68
532.82	44.47
532.99	67.88
533.16	51.49
533.33	0.00
533.50	30.43
533.67	44.47
533.84	0.00
534.01	39.79
534.18	63.19
534.35	28.09
534.52	67.88
534.69	49.15
534.86	70.22
535.03	18.72
535.20	58.51
535.37	30.43
535.54	0.00
535.71	39.79
535.88	28.09
536.05	72.56
536.22	88.94
536.38	37.45
536.55	0.00
536.72	28.09
536.89	58.51
537.06	35.11
537.23	100.64
537.40	23.41
537.57	42.13
537.74	7.02
537.91	18.72
538.08	67.88
538.25	46.81
538.42	46.81
538.59	131.07
538.75	93.62
538.92	56.17
539.09	114.69
539.26	102.98
539.43	135.75
539.60	152.13
539.77	173.20
539.94	121.71
540.11	102.98
540.28	138.09
540.44	119.37
540.61	67.88
540.78	88.94
540.95	79.58
541.12	25.75
541.29	79.58
541.46	32.77
541.62	60.85
541.79	56.17
541.96	86.60
542.13	53.83
542.30	44.47
542.47	21.06
542.63	4.68
542.80	46.81
542.97	0.00
543.14	28.09
543.31	37.45
543.48	88.94
543.64	86.60
543.81	72.56
543.98	23.41
544.15	21.06
544.32	56.17
544.48	102.98
544.65	60.85
544.82	0.00
544.99	105.32
545.16	42.13
545.32	72.56
545.49	84.26
545.66	7.02
545.83	100.64
546.00	44.47
546.16	0.00
546.33	11.70
546.50	37.45
546.67	18.72
546.83	0.00
547.00	16.38
547.17	0.00
547.34	42.13
547.50	14.04
547.67	86.60
547.84	58.51
548.00	60.85
548.17	145.11
548.34	51.49
548.51	49.15
548.67	18.72
548.84	53.83
549.01	67.88
549.18	0.00
549.34	0.00
549.51	86.60
549.68	72.56
549.84	74.90
550.01	11.70
550.18	53.83
550.34	131.07
550.51	70.22
550.68	65.54
550.84	102.98
551.01	77.24
551.18	23.41
551.34	21.06
551.51	0.00
551.68	0.00
551.84	60.85
552.01	60.85
552.18	60.85
552.34	37.45
552.51	42.13
552.68	28.09
552.84	77.24
553.01	53.83
553.18	91.28
553.34	21.06
553.51	105.32
553.67	72.56
553.84	0.00
554.01	42.13
554.17	25.75
554.34	0.00
554.51	18.72
554.67	23.41
554.84	63.19
555.00	39.79
555.17	147.45
555.33	86.60
555.50	39.79
555.67	39.79
555.83	4.68
556.00	30.43
556.16	23.41
556.33	42.13
556.50	74.90
556.66	25.75
556.83	11.70
556.99	79.58
557.16	28.09
557.32	44.47
557.49	63.19
557.65	49.15
557.82	7.02
557.98	60.85
558.15	74.90
558.32	81.92
558.48	21.06
558.65	46.81
558.81	58.51
558.98	53.83
559.14	16.38
559.31	88.94
559.47	0.00
559.64	9.36
559.80	11.70
559.97	39.79
560.13	35.11
560.30	53.83
560.46	23.41
560.63	107.66
560.79	44.47
560.96	2.34
561.12	44.47
561.29	72.56
561.45	25.75
561.61	81.92
561.78	140.43
561.94	58.51
562.11	0.00
562.27	65.54
562.44	9.36
562.60	7.02
562.77	42.13
562.93	18.72
563.10	86.60
563.26	72.56
563.42	53.83
563.59	67.88
563.75	124.05
563.92	18.72
564.08	18.72
564.24	74.90
564.41	58.51
564.57	37.45
564.74	0.00
564.90	0.00
565.07	23.41
565.23	74.90
565.39	93.62
565.56	58.51
565.72	65.54
565.88	21.06
566.05	93.62
566.21	84.26
566.38	0.00
566.54	42.13
566.70	91.28
566.87	60.85
567.03	98.30
567.19	98.30
567.36	46.81
567.52	77.24
567.68	2.34
567.85	46.81
568.01	91.28
568.17	49.15
568.34	4.68
568.50	35.11
568.66	93.62
568.83	117.03
568.99	86.60
569.15	110.01
569.32	32.77
569.48	91.28
569.64	131.07
569.81	25.75
569.97	77.24
570.13	14.04
570.30	86.60
570.46	32.77
570.62	67.88
570.78	0.00
570.95	0.00
571.11	67.88
571.27	105.32
571.43	0.00
571.60	44.47
571.76	60.85
571.92	63.19
572.09	42.13
572.25	32.77
572.41	42.13
572.57	77.24
572.74	51.49
572.90	72.56
573.06	25.75
573.22	0.00
573.38	32.77
573.55	0.00
573.71	86.60
573.87	58.51
574.03	11.70
574.20	14.04
574.36	98.30
574.52	126.39
574.68	32.77
574.84	2.34
575.01	51.49
575.17	72.56
575.33	74.90
575.49	39.79
575.65	23.41
575.82	21.06
575.98	126.39
576.14	105.32
576.30	60.85
576.46	30.43
576.62	35.11
576.79	58.51
576.95	65.54
577.11	11.70
577.27	0.00
577.43	63.19
577.59	114.69
577.75	44.47
577.92	65.54
578.08	39.79
578.24	49.15
578.40	86.60
578.56	0.00
578.72	23.41
578.88	39.79
579.04	86.60
579.21	39.79
579.37	16.38
579.53	0.00
579.69	0.00
579.85	42.13
580.01	63.19
580.17	77.24
580.33	88.94
580.49	39.79
580.65	81.92
580.82	35.11
580.98	21.06
581.14	51.49
581.30	25.75
581.46	39.79
581.62	86.60
581.78	100.64
581.94	63.19
582.10	18.72
582.26	23.41
582.42	30.43
582.58	79.58
582.74	39.79
582.90	67.88
583.06	30.43
583.22	35.11
583.38	95.96
583.54	102.98
583.70	2.34
583.86	70.22
584.02	93.62
584.18	81.92
584.34	114.69
584.50	276.18
584.66	1568.16
584.82	3758.90
584.98	5715.59
585.14	4999.38
585.30	3157.38
585.46	1830.30
585.62	1261.55
585.78	521.94
585.94	285.55
586.10	161.50
586.26	53.83
586.42	105.32
586.58	88.94
586.74	53.83
586.90	46.81
587.06	42.13
587.22	110.01
587.38	56.17
587.54	138.09
587.70	266.82
587.86	404.91
588.02	381.51
588.18	325.33
588.34	212.99
588.49	126.39
588.65	117.03
588.81	39.79
588.97	37.45
589.13	84.26
589.29	35.11
589.45	77.24
589.61	28.09
589.77	72.56
589.93	91.28
590.08	117.03
590.24	79.58
590.40	93.62
590.56	51.49
590.72	18.72
590.88	0.00
591.04	32.77
591.20	32.77
591.35	23.41
591.51	112.35
591.67	21.06
591.83	0.00
591.99	60.85
592.15	32.77
592.31	46.81
592.46	70.22
592.62	32.77
592.78	51.49
592.94	23.41
593.10	0.00
593.26	102.98
593.41	35.11
593.57	44.47
593.73	0.00
593.89	243.42
594.05	479.81
594.20	720.88
594.36	657.69
594.52	484.49
594.68	337.04
594.84	138.09
594.99	201.29
595.15	147.45
595.31	56.17
595.47	11.70
595.62	98.30
595.78	23.41
595.94	58.51
596.10	60.85
596.25	35.11
596.41	72.56
596.57	4.68
596.73	95.96
596.88	7.02
597.04	0.00
597.20	184.90
597.36	175.54
597.51	152.13
597.67	65.54
597.83	58.51
597.99	53.83
598.14	42.13
598.30	0.00
598.46	23.41
598.61	84.26
598.77	138.09
598.93	152.13
599.09	91.28
599.24	95.96
599.40	0.00
599.56	58.51
599.71	56.17
599.87	9.36
600.03	7.02
600.18	42.13
600.34	23.41
600.50	35.11
600.65	100.64
600.81	39.79
600.97	23.41
601.12	93.62
601.28	77.24
601.44	25.75
601.59	42.13
601.75	0.00
601.91	16.38
602.06	67.88
602.22	28.09
602.37	88.94
602.53	152.13
602.69	220.01
602.84	212.99
603.00	74.90
603.16	119.37
603.31	93.62
603.47	72.56
603.62	102.98
603.78	0.00
603.94	16.38
604.09	46.81
604.25	56.17
604.40	7.02
604.56	72.56
604.71	42.13
604.87	9.36
605.03	44.47
605.18	56.17
605.34	65.54
605.49	11.70
605.65	0.00
605.80	0.00
605.96	65.54
606.12	49.15
606.27	44.47
606.43	28.09
606.58	16.38
606.74	32.77
606.89	220.01
607.05	447.04
607.20	697.48
607.36	482.15
607.51	346.40
607.67	290.23
607.82	191.92
607.98	102.98
608.13	88.94
608.29	21.06
608.44	72.56
608.60	67.88
608.75	60.85
608.91	128.73
609.06	402.57
609.22	816.85
609.37	1083.67
609.53	877.70
609.68	655.35
609.84	454.06
609.99	339.38
610.15	201.29
610.30	131.07
610.46	67.88
610.61	81.92
610.76	4.68
610.92	91.28
611.07	28.09
611.23	63.19
611.38	14.04
611.54	65.54
611.69	21.06
611.84	100.64
612.00	0.00
612.15	93.62
612.31	72.56
612.46	70.22
612.62	142.77
612.77	110.01
612.92	67.88
613.08	49.15
613.23	53.83
613.39	110.01
613.54	121.71
613.69	341.72
613.85	950.26
614.00	1554.12
614.15	1680.50
614.31	1238.14
614.46	802.80
614.62	416.62
614.77	301.93
614.92	210.65
615.08	114.69
615.23	74.90
615.38	58.51
615.54	4.68
615.69	102.98
615.84	217.67
616.00	351.08
616.15	388.53
616.30	376.83
616.46	297.25
616.61	205.97
616.76	46.81
616.92	147.45
617.07	42.13
617.22	95.96
617.37	37.45
617.53	21.06
617.68	72.56
617.83	37.45
617.99	88.94
618.14	39.79
618.29	16.38
618.45	4.68
618.60	23.41
618.75	25.75
618.90	86.60
619.06	107.66
619.21	51.49
619.36	53.83
619.51	46.81
619.67	39.79
619.82	46.81
619.97	93.62
620.12	63.19
620.28	21.06
620.43	110.01
620.58	0.00
620.73	149.79
620.89	30.43
621.04	74.90
621.19	142.77
621.34	250.44
621.49	294.91
621.65	259.80
621.80	182.56
621.95	105.32
622.10	112.35
622.25	9.36
622.41	0.00
622.56	18.72
622.71	35.11
622.86	46.81
623.01	32.77
623.16	0.00
623.32	42.13
623.47	4.68
623.62	28.09
623.77	28.09
623.92	84.26
624.07	4.68
624.23	0.00
624.38	0.00
624.53	0.00
624.68	11.70
624.83	14.04
624.98	84.26
625.13	81.92
625.29	84.26
625.44	63.19
625.59	114.69
625.74	42.13
625.89	0.00
626.04	234.05
626.19	397.89
626.34	772.38
626.49	732.59
626.65	631.94
626.80	451.72
626.95	273.84
627.10	266.82
627.25	117.03
627.40	0.00
627.55	72.56
627.70	42.13
627.85	86.60
628.00	0.00
628.15	65.54
628.30	51.49
628.45	42.13
628.60	81.92
628.76	105.32
628.91	74.90
629.06	25.75
629.21	65.54
629.36	9.36
629.51	18.72
629.66	58.51
629.81	67.88
629.96	46.81
630.11	175.54
630.26	234.05
630.41	269.16
630.56	187.24
630.71	163.84
630.86	107.66
631.01	88.94
631.16	79.58
631.31	58.51
631.46	65.54
631.61	98.30
631.76	128.73
631.91	2.34
632.06	0.00
632.21	98.30
632.36	65.54
632.51	63.19
632.66	110.01
632.81	37.45
632.96	243.42
633.10	507.90
633.25	601.52
633.40	404.91
633.55	397.89
633.70	322.99
633.85	227.03
634.00	105.32
634.15	65.54
634.30	100.64
634.45	74.90
634.60	14.04
634.75	39.79
634.90	93.62
635.05	72.56
635.19	74.90
635.34	32.77
635.49	53.83
635.64	53.83
635.79	0.00
635.94	63.19
636.09	37.45
636.24	93.62
636.39	11.70
636.53	44.47
636.68	81.92
636.83	32.77
636.98	86.60
637.13	11.70
637.28	37.45
637.43	93.62
637.57	112.35
637.72	194.26
637.87	685.78
638.02	959.62
638.17	1158.57
638.32	926.85
638.46	599.18
638.61	346.40
638.76	255.12
638.91	110.01
639.06	98.30
639.20	72.56
639.35	30.43
639.50	98.30
639.65	421.30
639.80	1018.13
639.94	1586.88
640.09	1830.30
640.24	1313.04
640.39	854.30
640.54	615.56
640.68	379.17
640.83	198.95
640.98	142.77
641.13	30.43
641.27	37.45
641.42	11.70
641.57	0.00
641.72	4.68
641.86	72.56
642.01	42.13
642.16	65.54
642.31	51.49
642.45	4.68
642.60	60.85
642.75	25.75
642.90	2.34
643.04	16.38
643.19	32.77
643.34	58.51
643.48	0.00
643.63	51.49
643.78	91.28
643.93	35.11
644.07	60.85
644.22	11.70
644.37	0.00
644.51	91.28
644.66	56.17
644.81	51.49
644.95	53.83
645.10	72.56
645.25	28.09
645.39	58.51
645.54	37.45
645.69	65.54
645.83	0.00
645.98	49.15
646.13	39.79
646.27	0.00
646.42	0.00
646.57	0.00
646.71	35.11
646.86	42.13
647.00	9.36
647.15	51.49
647.30	14.04
647.44	84.26
647.59	9.36
647.74	14.04
647.88	14.04
648.03	28.09
648.17	93.62
648.32	0.00
648.47	53.83
648.61	28.09
648.76	74.90
648.90	53.83
649.05	14.04
649.20	32.77
649.34	0.00
649.49	35.11
649.63	102.98
649.78	30.43
649.92	114.69
650.07	205.97
650.21	444.70
650.36	657.69
650.51	812.17
650.65	755.99
650.80	519.60
650.94	360.44
651.09	264.48
651.23	163.84
651.38	126.39
651.52	44.47
651.67	14.04
651.81	39.79
651.96	86.60
652.10	0.00
652.25	95.96
652.39	86.60
652.54	77.24
652.68	37.45
652.83	112.35
652.97	266.82
653.12	330.02
653.26	320.65
653.41	222.35
653.55	194.26
653.70	147.45
653.84	102.98
653.99	65.54
654.13	77.24
654.27	0.00
654.42	84.26
654.56	0.00
654.71	46.81
654.85	65.54
655.00	32.77
655.14	0.00
655.29	28.09
655.43	0.00
655.57	44.47
655.72	30.43
655.86	9.36
656.01	84.26
656.15	81.92
656.30	0.00
656.44	60.85
656.58	21.06
656.73	49.15
656.87	0.00
657.01	86.60
657.16	11.70
657.30	0.00
657.45	42.13
657.59	4.68
657.73	49.15
657.88	0.00
658.02	16.38
658.16	0.00
658.31	70.22
658.45	0.00
658.60	9.36
658.74	44.47
658.88	42.13
659.03	23.41
659.17	0.00
659.31	72.56
659.46	198.95
659.60	367.46
659.74	475.13
659.89	470.45
660.03	236.39
660.17	236.39
660.32	168.52
660.46	23.41
660.60	79.58
660.74	37.45
660.89	0.00
661.03	79.58
661.17	110.01
661.32	0.00
661.46	4.68
661.60	100.64
661.74	42.13
661.89	119.37
662.03	37.45
662.17	30.43
662.31	0.00
662.46	58.51
662.60	14.04
662.74	16.38
662.88	63.19
663.03	23.41
663.17	28.09
663.31	46.81
663.45	91.28
663.60	39.79
663.74	37.45
663.88	32.77
664.02	32.77
664.17	0.00
664.31	39.79
664.45	25.75
664.59	35.11
664.73	60.85
664.88	72.56
665.02	88.94
665.16	100.64
665.30	7.02
665.44	7.02
665.59	58.51
665.73	28.09
665.87	30.43
666.01	70.22
666.15	23.41
666.29	4.68
666.44	16.38
666.58	0.00
666.72	28.09
666.86	51.49
667.00	124.05
667.14	88.94
667.28	114.69
667.43	404.91
667.57	657.69
667.71	727.91
667.85	627.26
667.99	540.66
668.13	327.68
668.27	287.89
668.41	163.84
668.56	152.13
668.70	46.81
668.84	18.72
668.98	0.00
669.12	53.83
669.26	79.58
669.40	39.79
669.54	93.62
669.68	4.68
669.82	95.96
669.96	30.43
670.10	0.00
670.25	81.92
670.39	0.00
670.53	39.79
670.67	77.24
670.81	98.30
670.95	88.94
671.09	124.05
671.23	194.26
671.37	292.57
671.51	458.74
671.65	533.64
671.79	423.64
671.93	245.76
672.07	266.82
672.21	149.79
672.35	39.79
672.49	46.81
672.63	72.56
672.77	0.00
672.91	16.38
673.05	16.38
673.19	0.00
673.33	9.36
673.47	11.70
673.61	14.04
673.75	79.58
673.89	7.02
674.03	11.70
674.17	84.26
674.31	72.56
674.45	95.96
674.59	46.81
674.73	105.32
674.87	9.36
675.01	114.69
675.15	42.13
675.29	95.96
675.43	58.51
675.56	79.58
675.70	79.58
675.84	39.79
675.98	86.60
676.12	102.98
676.26	0.00
676.40	51.49
676.54	0.00
676.68	65.54
676.82	53.83
676.96	100.64
677.10	44.47
677.23	42.13
677.37	18.72
677.51	72.56
677.65	77.24
677.79	0.00
677.93	32.77
678.07	60.85
678.21	46.81
678.34	0.00
678.48	53.83
678.62	39.79
678.76	9.36
678.90	25.75
679.04	23.41
679.18	110.01
679.31	25.75
679.45	7.02
679.59	35.11
679.73	0.00
679.87	51.49
680.00	0.00
680.14	0.00
680.28	16.38
680.42	105.32
680.56	100.64
680.70	46.81
680.83	0.00
680.97	0.00
681.11	72.56
681.25	0.00
681.39	0.00
681.52	0.00
681.66	88.94
681.80	91.28
681.94	70.22
682.07	23.41
682.21	7.02
682.35	0.00
682.49	0.00
682.62	0.00
682.76	30.43
682.90	11.70
683.04	42.13
683.17	37.45
683.31	0.00
683.45	70.22
683.59	74.90
683.72	0.00
683.86	32.77
684.00	0.00
684.13	9.36
684.27	70.22
684.41	0.00
684.55	60.85
684.68	63.19
684.82	32.77
684.96	37.45
685.09	0.00
685.23	46.81
685.37	74.90
685.50	81.92
685.64	93.62
685.78	0.00
685.91	65.54
686.05	74.90
686.19	11.70
686.32	21.06
686.46	39.79
686.60	100.64
686.73	0.00
686.87	110.01
687.01	0.00
687.14	42.13
687.28	63.19
687.42	0.00
687.55	39.79
687.69	0.00
687.82	4.68
687.96	0.00
688.10	32.77
688.23	16.38
688.37	72.56
688.50	84.26
688.64	16.38
688.78	65.54
688.91	35.11
689.05	79.58
689.18	0.00
689.32	30.43
689.46	28.09
689.59	0.00
689.73	37.45
689.86	0.00
690.00	44.47
690.13	46.81
690.27	42.13
690.41	49.15
690.54	23.41
690.68	23.41
690.81	0.00
690.95	0.00
691.08	0.00
691.22	2.34
691.35	32.77
691.49	81.92
691.62	21.06
691.76	49.15
691.89	7.02
692.03	100.64
692.16	58.51
692.30	56.17
692.43	56.17
692.57	182.56
692.70	276.18
692.84	393.21
692.97	304.27
693.11	208.31
693.24	241.08
693.38	140.43
693.51	93.62
693.65	53.83
693.78	70.22
693.92	77.24
694.05	0.00
694.19	16.38
694.32	16.38
694.45	0.00
694.59	0.00
694.72	0.00
694.86	25.75
694.99	18.72
695.13	14.04
695.26	11.70
695.39	72.56
695.53	0.00
695.66	0.00
695.80	67.88
695.93	16.38
696.07	74.90
696.20	0.00
696.33	51.49
696.47	46.81
696.60	77.24
696.73	0.00
696.87	0.00
697.00	81.92
697.14	25.75
697.27	35.11
697.40	42.13
697.54	51.49
697.67	7.02
697.80	0.00
697.94	0.00
698.07	0.00
698.21	46.81
698.34	72.56
698.47	70.22
698.61	100.64
698.74	100.64
698.87	14.04
699.01	56.17
699.14	74.90
699.27	25.75
699.40	98.30
699.54	21.06
699.67	51.49
699.80	9.36
699.94	0.00
700.07	0.00
700.20	4.68
700.34	42.13
700.47	46.81
700.60	51.49
700.73	2.34
700.87	72.56
701.00	88.94
701.13	56.17
701.26	14.04
701.40	42.13
701.53	53.83
701.66	44.47
701.79	56.17
701.93	16.38
702.06	2.34
702.19	16.38
702.32	56.17
702.46	84.26
702.59	77.24
702.72	25.75
702.85	184.90
702.99	418.96
703.12	641.31
703.25	695.14
703.38	695.14
703.51	503.22
703.65	369.80
703.78	217.67
703.91	180.22
704.04	126.39
704.17	81.92
704.31	91.28
704.44	18.72
704.57	67.88
704.70	51.49
704.83	51.49
704.96	121.71
705.10	9.36
705.23	42.13
>>>>>End Processed Spectral Data<<<<<
