SpectraSuite Data File
++++++++++++++++++++++++++++++++++++
Date: Fri Oct 04 12:13:28 GMT-05:00 2013
User: price-jones
Dark Spectrum Present: No
Reference Spectrum Present: No
Number of Sampled Component Spectra: 1
Spectrometers: USB2+H05261
Integration Time (usec): 10000 (USB2+H05261)
Spectra Averaged: 1 (USB2+H05261)
Boxcar Smoothing: 0 (USB2+H05261)
Correct for Electrical Dark: No (USB2+H05261)
Strobe/Lamp Enabled: No (USB2+H05261)
Correct for Detector Non-linearity: No (USB2+H05261)
Correct for Stray Light: No (USB2+H05261)
Number of Pixels in Processed Spectrum: 2048
>>>>>Begin Processed Spectral Data<<<<<
365.73	16.38
365.92	16.38
366.12	16.38
366.32	0.00
366.52	0.00
366.72	0.00
366.91	0.00
367.11	0.00
367.31	0.00
367.51	0.00
367.70	0.00
367.90	0.00
368.10	0.00
368.30	0.00
368.49	0.00
368.69	0.00
368.89	0.00
369.09	0.00
369.28	0.00
369.48	0.00
369.68	0.00
369.87	0.00
370.07	0.00
370.27	0.00
370.47	0.00
370.66	0.00
370.86	0.00
371.06	0.00
371.25	0.00
371.45	0.00
371.65	0.00
371.84	0.00
372.04	4.68
372.24	4.68
372.44	4.68
372.63	32.77
372.83	74.90
373.03	60.85
373.22	25.75
373.42	0.00
373.62	32.77
373.81	23.41
374.01	0.00
374.21	0.00
374.40	70.22
374.60	88.94
374.79	2.34
374.99	58.51
375.19	28.09
375.38	14.04
375.58	42.13
375.78	0.00
375.97	0.00
376.17	30.43
376.37	21.06
376.56	28.09
376.76	11.70
376.95	0.00
377.15	81.92
377.35	16.38
377.54	28.09
377.74	18.72
377.93	30.43
378.13	112.35
378.33	42.13
378.52	11.70
378.72	4.68
378.91	0.00
379.11	49.15
379.31	21.06
379.50	0.00
379.70	18.72
379.89	30.43
380.09	16.38
380.28	28.09
380.48	42.13
380.68	53.83
380.87	0.00
381.07	65.54
381.26	100.64
381.46	23.41
381.65	0.00
381.85	21.06
382.04	58.51
382.24	0.00
382.43	32.77
382.63	11.70
382.83	9.36
383.02	11.70
383.22	7.02
383.41	0.00
383.61	0.00
383.80	0.00
384.00	72.56
384.19	0.00
384.39	0.00
384.58	2.34
384.78	98.30
384.97	0.00
385.17	11.70
385.36	0.00
385.56	4.68
385.75	35.11
385.95	0.00
386.14	37.45
386.34	0.00
386.53	86.60
386.72	0.00
386.92	0.00
387.11	0.00
387.31	0.00
387.50	0.00
387.70	58.51
387.89	0.00
388.09	0.00
388.28	30.43
388.48	0.00
388.67	0.00
388.86	11.70
389.06	74.90
389.25	0.00
389.45	21.06
389.64	72.56
389.84	7.02
390.03	25.75
390.22	60.85
390.42	49.15
390.61	18.72
390.81	11.70
391.00	63.19
391.19	30.43
391.39	14.04
391.58	7.02
391.78	39.79
391.97	21.06
392.16	0.00
392.36	70.22
392.55	46.81
392.75	25.75
392.94	51.49
393.13	9.36
393.33	56.17
393.52	4.68
393.71	51.49
393.91	53.83
394.10	28.09
394.29	0.00
394.49	65.54
394.68	35.11
394.88	93.62
395.07	63.19
395.26	0.00
395.46	46.81
395.65	35.11
395.84	42.13
396.04	0.00
396.23	32.77
396.42	56.17
396.62	25.75
396.81	28.09
397.00	39.79
397.19	0.00
397.39	0.00
397.58	35.11
397.77	23.41
397.97	39.79
398.16	16.38
398.35	105.32
398.55	39.79
398.74	0.00
398.93	18.72
399.12	18.72
399.32	0.00
399.51	35.11
399.70	11.70
399.90	30.43
400.09	2.34
400.28	35.11
400.47	16.38
400.67	30.43
400.86	42.13
401.05	0.00
401.24	21.06
401.44	112.35
401.63	32.77
401.82	58.51
402.01	32.77
402.21	70.22
402.40	0.00
402.59	21.06
402.78	51.49
402.97	44.47
403.17	0.00
403.36	44.47
403.55	30.43
403.74	60.85
403.93	74.90
404.13	49.15
404.32	30.43
404.51	0.00
404.70	42.13
404.89	11.70
405.09	14.04
405.28	110.01
405.47	18.72
405.66	77.24
405.85	23.41
406.05	81.92
406.24	9.36
406.43	0.00
406.62	14.04
406.81	0.00
407.00	0.00
407.20	42.13
407.39	25.75
407.58	53.83
407.77	46.81
407.96	49.15
408.15	49.15
408.34	16.38
408.54	21.06
408.73	0.00
408.92	0.00
409.11	44.47
409.30	0.00
409.49	112.35
409.68	2.34
409.87	63.19
410.07	0.00
410.26	0.00
410.45	0.00
410.64	0.00
410.83	18.72
411.02	7.02
411.21	60.85
411.40	4.68
411.59	39.79
411.78	79.58
411.98	14.04
412.17	107.66
412.36	72.56
412.55	58.51
412.74	65.54
412.93	30.43
413.12	0.00
413.31	37.45
413.50	44.47
413.69	49.15
413.88	51.49
414.07	51.49
414.26	91.28
414.45	21.06
414.64	37.45
414.83	0.00
415.02	18.72
415.22	0.00
415.41	25.75
415.60	0.00
415.79	86.60
415.98	65.54
416.17	21.06
416.36	11.70
416.55	7.02
416.74	0.00
416.93	100.64
417.12	58.51
417.31	0.00
417.50	18.72
417.69	0.00
417.88	102.98
418.07	42.13
418.26	2.34
418.45	46.81
418.64	51.49
418.83	60.85
419.02	112.35
419.21	16.38
419.39	74.90
419.58	65.54
419.77	107.66
419.96	28.09
420.15	11.70
420.34	46.81
420.53	86.60
420.72	0.00
420.91	44.47
421.10	98.30
421.29	67.88
421.48	32.77
421.67	53.83
421.86	65.54
422.05	11.70
422.24	32.77
422.43	84.26
422.61	0.00
422.80	25.75
422.99	39.79
423.18	32.77
423.37	42.13
423.56	51.49
423.75	49.15
423.94	0.00
424.13	77.24
424.32	49.15
424.50	0.00
424.69	53.83
424.88	49.15
425.07	49.15
425.26	0.00
425.45	14.04
425.64	100.64
425.83	100.64
426.01	98.30
426.20	32.77
426.39	28.09
426.58	93.62
426.77	88.94
426.96	23.41
427.15	0.00
427.33	0.00
427.52	0.00
427.71	0.00
427.90	32.77
428.09	0.00
428.28	56.17
428.46	46.81
428.65	51.49
428.84	11.70
429.03	46.81
429.22	60.85
429.40	18.72
429.59	2.34
429.78	0.00
429.97	0.00
430.16	58.51
430.34	4.68
430.53	28.09
430.72	39.79
430.91	0.00
431.10	23.41
431.28	81.92
431.47	28.09
431.66	49.15
431.85	72.56
432.03	35.11
432.22	49.15
432.41	0.00
432.60	0.00
432.79	60.85
432.97	37.45
433.16	102.98
433.35	53.83
433.54	67.88
433.72	0.00
433.91	35.11
434.10	37.45
434.28	70.22
434.47	25.75
434.66	65.54
434.85	60.85
435.03	11.70
435.22	0.00
435.41	67.88
435.59	53.83
435.78	28.09
435.97	21.06
436.16	21.06
436.34	30.43
436.53	93.62
436.72	42.13
436.90	0.00
437.09	0.00
437.28	9.36
437.46	77.24
437.65	51.49
437.84	44.47
438.02	46.81
438.21	32.77
438.40	35.11
438.58	42.13
438.77	72.56
438.96	16.38
439.14	67.88
439.33	42.13
439.52	0.00
439.70	0.00
439.89	93.62
440.08	44.47
440.26	23.41
440.45	0.00
440.63	28.09
440.82	23.41
441.01	0.00
441.19	9.36
441.38	0.00
441.57	0.00
441.75	7.02
441.94	77.24
442.12	32.77
442.31	30.43
442.50	124.05
442.68	0.00
442.87	25.75
443.05	4.68
443.24	35.11
443.43	110.01
443.61	14.04
443.80	25.75
443.98	42.13
444.17	0.00
444.35	0.00
444.54	0.00
444.73	30.43
444.91	60.85
445.10	0.00
445.28	49.15
445.47	18.72
445.65	49.15
445.84	2.34
446.02	0.00
446.21	58.51
446.39	0.00
446.58	44.47
446.77	0.00
446.95	84.26
447.14	25.75
447.32	51.49
447.51	23.41
447.69	0.00
447.88	14.04
448.06	0.00
448.25	32.77
448.43	39.79
448.62	0.00
448.80	39.79
448.99	88.94
449.17	14.04
449.36	35.11
449.54	44.47
449.73	81.92
449.91	23.41
450.10	21.06
450.28	37.45
450.46	53.83
450.65	0.00
450.83	65.54
451.02	56.17
451.20	35.11
451.39	63.19
451.57	93.62
451.76	23.41
451.94	0.00
452.13	53.83
452.31	0.00
452.49	42.13
452.68	42.13
452.86	60.85
453.05	30.43
453.23	51.49
453.42	42.13
453.60	74.90
453.78	11.70
453.97	44.47
454.15	14.04
454.34	79.58
454.52	88.94
454.70	14.04
454.89	74.90
455.07	25.75
455.26	28.09
455.44	44.47
455.62	0.00
455.81	58.51
455.99	0.00
456.17	4.68
456.36	30.43
456.54	2.34
456.73	42.13
456.91	0.00
457.09	0.00
457.28	60.85
457.46	16.38
457.64	0.00
457.83	0.00
458.01	79.58
458.19	14.04
458.38	0.00
458.56	0.00
458.74	63.19
458.93	21.06
459.11	16.38
459.29	0.00
459.48	98.30
459.66	100.64
459.84	35.11
460.03	9.36
460.21	56.17
460.39	32.77
460.57	114.69
460.76	37.45
460.94	0.00
461.12	0.00
461.31	72.56
461.49	100.64
461.67	25.75
461.85	102.98
462.04	28.09
462.22	58.51
462.40	39.79
462.59	100.64
462.77	60.85
462.95	0.00
463.13	4.68
463.32	42.13
463.50	112.35
463.68	7.02
463.86	32.77
464.05	25.75
464.23	46.81
464.41	84.26
464.59	25.75
464.78	0.00
464.96	23.41
465.14	35.11
465.32	25.75
465.50	14.04
465.69	49.15
465.87	63.19
466.05	11.70
466.23	65.54
466.41	32.77
466.60	49.15
466.78	91.28
466.96	42.13
467.14	0.00
467.32	51.49
467.51	0.00
467.69	65.54
467.87	0.00
468.05	30.43
468.23	44.47
468.41	0.00
468.60	16.38
468.78	0.00
468.96	7.02
469.14	42.13
469.32	11.70
469.50	39.79
469.69	49.15
469.87	9.36
470.05	0.00
470.23	84.26
470.41	11.70
470.59	30.43
470.77	35.11
470.95	30.43
471.14	70.22
471.32	0.00
471.50	0.00
471.68	25.75
471.86	32.77
472.04	0.00
472.22	32.77
472.40	0.00
472.58	49.15
472.77	42.13
472.95	0.00
473.13	0.00
473.31	25.75
473.49	35.11
473.67	74.90
473.85	117.03
474.03	110.01
474.21	4.68
474.39	46.81
474.57	32.77
474.75	0.00
474.93	86.60
475.12	46.81
475.30	74.90
475.48	30.43
475.66	0.00
475.84	18.72
476.02	18.72
476.20	39.79
476.38	0.00
476.56	39.79
476.74	4.68
476.92	0.00
477.10	16.38
477.28	93.62
477.46	46.81
477.64	21.06
477.82	58.51
478.00	30.43
478.18	14.04
478.36	102.98
478.54	30.43
478.72	0.00
478.90	2.34
479.08	88.94
479.26	91.28
479.44	0.00
479.62	53.83
479.80	9.36
479.98	30.43
480.16	21.06
480.34	44.47
480.52	21.06
480.70	37.45
480.88	0.00
481.06	28.09
481.24	0.00
481.41	16.38
481.59	9.36
481.77	44.47
481.95	88.94
482.13	0.00
482.31	67.88
482.49	4.68
482.67	4.68
482.85	65.54
483.03	14.04
483.21	35.11
483.39	39.79
483.57	18.72
483.74	35.11
483.92	53.83
484.10	65.54
484.28	0.00
484.46	0.00
484.64	42.13
484.82	16.38
485.00	30.43
485.18	49.15
485.35	42.13
485.53	25.75
485.71	72.56
485.89	32.77
486.07	32.77
486.25	9.36
486.43	18.72
486.61	44.47
486.78	56.17
486.96	28.09
487.14	18.72
487.32	39.79
487.50	105.32
487.68	88.94
487.85	51.49
488.03	2.34
488.21	39.79
488.39	102.98
488.57	67.88
488.75	70.22
488.92	37.45
489.10	56.17
489.28	88.94
489.46	63.19
489.64	7.02
489.81	63.19
489.99	86.60
490.17	11.70
490.35	0.00
490.53	0.00
490.70	67.88
490.88	42.13
491.06	37.45
491.24	42.13
491.41	100.64
491.59	67.88
491.77	100.64
491.95	84.26
492.13	91.28
492.30	39.79
492.48	53.83
492.66	65.54
492.84	14.04
493.01	51.49
493.19	9.36
493.37	28.09
493.54	0.00
493.72	25.75
493.90	77.24
494.08	67.88
494.25	81.92
494.43	88.94
494.61	84.26
494.79	93.62
494.96	63.19
495.14	39.79
495.32	35.11
495.49	140.43
495.67	51.49
495.85	128.73
496.02	11.70
496.20	0.00
496.38	23.41
496.55	100.64
496.73	42.13
496.91	30.43
497.09	0.00
497.26	0.00
497.44	46.81
497.62	28.09
497.79	60.85
497.97	37.45
498.14	74.90
498.32	25.75
498.50	0.00
498.67	0.00
498.85	4.68
499.03	0.00
499.20	44.47
499.38	56.17
499.56	86.60
499.73	0.00
499.91	32.77
500.08	98.30
500.26	7.02
500.44	46.81
500.61	21.06
500.79	49.15
500.97	30.43
501.14	16.38
501.32	46.81
501.49	0.00
501.67	18.72
501.84	35.11
502.02	93.62
502.20	46.81
502.37	30.43
502.55	67.88
502.72	49.15
502.90	0.00
503.07	0.00
503.25	46.81
503.43	100.64
503.60	32.77
503.78	49.15
503.95	0.00
504.13	60.85
504.30	65.54
504.48	14.04
504.65	25.75
504.83	25.75
505.01	30.43
505.18	56.17
505.36	60.85
505.53	46.81
505.71	14.04
505.88	35.11
506.06	28.09
506.23	30.43
506.41	0.00
506.58	25.75
506.76	25.75
506.93	39.79
507.11	93.62
507.28	91.28
507.46	102.98
507.63	70.22
507.81	0.00
507.98	16.38
508.16	11.70
508.33	44.47
508.50	77.24
508.68	44.47
508.85	0.00
509.03	35.11
509.20	0.00
509.38	49.15
509.55	0.00
509.73	93.62
509.90	18.72
510.08	11.70
510.25	49.15
510.42	65.54
510.60	67.88
510.77	53.83
510.95	58.51
511.12	44.47
511.30	0.00
511.47	49.15
511.64	46.81
511.82	65.54
511.99	93.62
512.17	74.90
512.34	23.41
512.51	25.75
512.69	112.35
512.86	0.00
513.04	126.39
513.21	30.43
513.38	2.34
513.56	58.51
513.73	28.09
513.90	0.00
514.08	16.38
514.25	21.06
514.43	102.98
514.60	7.02
514.77	28.09
514.95	0.00
515.12	46.81
515.29	65.54
515.47	0.00
515.64	42.13
515.81	58.51
515.99	63.19
516.16	49.15
516.33	39.79
516.51	46.81
516.68	11.70
516.85	21.06
517.03	60.85
517.20	84.26
517.37	21.06
517.54	81.92
517.72	0.00
517.89	49.15
518.06	0.00
518.24	37.45
518.41	110.01
518.58	0.00
518.75	4.68
518.93	86.60
519.10	37.45
519.27	53.83
519.45	4.68
519.62	67.88
519.79	42.13
519.96	0.00
520.14	16.38
520.31	145.11
520.48	37.45
520.65	18.72
520.83	46.81
521.00	28.09
521.17	60.85
521.34	88.94
521.52	72.56
521.69	7.02
521.86	46.81
522.03	18.72
522.20	42.13
522.38	16.38
522.55	53.83
522.72	49.15
522.89	35.11
523.07	7.02
523.24	37.45
523.41	0.00
523.58	2.34
523.75	79.58
523.92	21.06
524.10	11.70
524.27	51.49
524.44	25.75
524.61	53.83
524.78	18.72
524.96	21.06
525.13	7.02
525.30	86.60
525.47	42.13
525.64	81.92
525.81	65.54
525.98	86.60
526.16	93.62
526.33	0.00
526.50	86.60
526.67	37.45
526.84	30.43
527.01	28.09
527.18	49.15
527.36	72.56
527.53	2.34
527.70	14.04
527.87	0.00
528.04	25.75
528.21	74.90
528.38	35.11
528.55	25.75
528.72	37.45
528.89	30.43
529.07	44.47
529.24	77.24
529.41	91.28
529.58	65.54
529.75	79.58
529.92	32.77
530.09	21.06
530.26	9.36
530.43	37.45
530.60	65.54
530.77	32.77
530.94	32.77
531.11	25.75
531.28	23.41
531.46	7.02
531.63	77.24
531.80	51.49
531.97	25.75
532.14	0.00
532.31	30.43
532.48	65.54
532.65	58.51
532.82	77.24
532.99	14.04
533.16	128.73
533.33	46.81
533.50	74.90
533.67	58.51
533.84	117.03
534.01	91.28
534.18	70.22
534.35	11.70
534.52	84.26
534.69	58.51
534.86	79.58
535.03	105.32
535.20	0.00
535.37	37.45
535.54	67.88
535.71	0.00
535.88	9.36
536.05	0.00
536.22	56.17
536.38	60.85
536.55	44.47
536.72	149.79
536.89	70.22
537.06	0.00
537.23	35.11
537.40	84.26
537.57	107.66
537.74	11.70
537.91	65.54
538.08	58.51
538.25	77.24
538.42	37.45
538.59	70.22
538.75	119.37
538.92	72.56
539.09	0.00
539.26	0.00
539.43	77.24
539.60	163.84
539.77	208.31
539.94	203.63
540.11	156.82
540.28	138.09
540.44	140.43
540.61	102.98
540.78	0.00
540.95	70.22
541.12	14.04
541.29	30.43
541.46	74.90
541.62	60.85
541.79	84.26
541.96	0.00
542.13	2.34
542.30	51.49
542.47	70.22
542.63	32.77
542.80	2.34
542.97	72.56
543.14	74.90
543.31	28.09
543.48	25.75
543.64	23.41
543.81	7.02
543.98	114.69
544.15	70.22
544.32	84.26
544.48	39.79
544.65	53.83
544.82	58.51
544.99	53.83
545.16	60.85
545.32	18.72
545.49	44.47
545.66	74.90
545.83	23.41
546.00	42.13
546.16	0.00
546.33	53.83
546.50	32.77
546.67	65.54
546.83	51.49
547.00	37.45
547.17	53.83
547.34	0.00
547.50	53.83
547.67	58.51
547.84	65.54
548.00	88.94
548.17	49.15
548.34	0.00
548.51	25.75
548.67	112.35
548.84	32.77
549.01	0.00
549.18	49.15
549.34	81.92
549.51	65.54
549.68	0.00
549.84	70.22
550.01	32.77
550.18	100.64
550.34	67.88
550.51	49.15
550.68	0.00
550.84	30.43
551.01	23.41
551.18	53.83
551.34	56.17
551.51	39.79
551.68	42.13
551.84	28.09
552.01	91.28
552.18	0.00
552.34	49.15
552.51	46.81
552.68	44.47
552.84	51.49
553.01	2.34
553.18	25.75
553.34	0.00
553.51	16.38
553.67	49.15
553.84	9.36
554.01	60.85
554.17	60.85
554.34	16.38
554.51	0.00
554.67	60.85
554.84	56.17
555.00	39.79
555.17	0.00
555.33	14.04
555.50	0.00
555.67	44.47
555.83	42.13
556.00	56.17
556.16	28.09
556.33	44.47
556.50	0.00
556.66	0.00
556.83	51.49
556.99	0.00
557.16	0.00
557.32	16.38
557.49	44.47
557.65	28.09
557.82	37.45
557.98	126.39
558.15	37.45
558.32	16.38
558.48	56.17
558.65	9.36
558.81	72.56
558.98	18.72
559.14	37.45
559.31	74.90
559.47	30.43
559.64	88.94
559.80	9.36
559.97	0.00
560.13	16.38
560.30	0.00
560.46	70.22
560.63	30.43
560.79	4.68
560.96	102.98
561.12	51.49
561.29	0.00
561.45	77.24
561.61	51.49
561.78	53.83
561.94	67.88
562.11	25.75
562.27	23.41
562.44	9.36
562.60	21.06
562.77	49.15
562.93	0.00
563.10	74.90
563.26	18.72
563.42	46.81
563.59	0.00
563.75	95.96
563.92	93.62
564.08	7.02
564.24	30.43
564.41	93.62
564.57	42.13
564.74	0.00
564.90	30.43
565.07	53.83
565.23	46.81
565.39	147.45
565.56	77.24
565.72	0.00
565.88	70.22
566.05	18.72
566.21	56.17
566.38	32.77
566.54	72.56
566.70	21.06
566.87	46.81
567.03	0.00
567.19	0.00
567.36	105.32
567.52	18.72
567.68	35.11
567.85	72.56
568.01	91.28
568.17	0.00
568.34	58.51
568.50	56.17
568.66	70.22
568.83	124.05
568.99	7.02
569.15	74.90
569.32	67.88
569.48	46.81
569.64	0.00
569.81	28.09
569.97	21.06
570.13	0.00
570.30	105.32
570.46	51.49
570.62	77.24
570.78	58.51
570.95	4.68
571.11	0.00
571.27	86.60
571.43	14.04
571.60	7.02
571.76	72.56
571.92	30.43
572.09	72.56
572.25	131.07
572.41	81.92
572.57	28.09
572.74	37.45
572.90	23.41
573.06	51.49
573.22	100.64
573.38	35.11
573.55	70.22
573.71	35.11
573.87	14.04
574.03	25.75
574.20	124.05
574.36	44.47
574.52	84.26
574.68	14.04
574.84	126.39
575.01	0.00
575.17	110.01
575.33	37.45
575.49	72.56
575.65	25.75
575.82	39.79
575.98	70.22
576.14	105.32
576.30	154.48
576.46	86.60
576.62	58.51
576.79	126.39
576.95	102.98
577.11	81.92
577.27	79.58
577.43	74.90
577.59	84.26
577.75	30.43
577.92	39.79
578.08	58.51
578.24	35.11
578.40	77.24
578.56	51.49
578.72	77.24
578.88	86.60
579.04	88.94
579.21	0.00
579.37	88.94
579.53	25.75
579.69	79.58
579.85	32.77
580.01	58.51
580.17	105.32
580.33	70.22
580.49	63.19
580.65	63.19
580.82	37.45
580.98	0.00
581.14	16.38
581.30	30.43
581.46	39.79
581.62	91.28
581.78	81.92
581.94	84.26
582.10	49.15
582.26	2.34
582.42	72.56
582.58	58.51
582.74	95.96
582.90	100.64
583.06	107.66
583.22	67.88
583.38	84.26
583.54	102.98
583.70	119.37
583.86	156.82
584.02	149.79
584.18	152.13
584.34	180.22
584.50	564.07
584.66	4065.51
584.82	9692.16
584.98	13923.85
585.14	12552.29
585.30	7875.90
585.46	4723.20
585.62	2897.58
585.78	1387.94
585.94	596.84
586.10	208.31
586.26	161.50
586.42	102.98
586.58	124.05
586.74	142.77
586.90	170.86
587.06	121.71
587.22	102.98
587.38	154.48
587.54	236.39
587.70	578.11
587.86	875.36
588.02	1029.84
588.18	720.88
588.34	496.19
588.49	337.04
588.65	161.50
588.81	131.07
588.97	102.98
589.13	149.79
589.29	84.26
589.45	91.28
589.61	0.00
589.77	53.83
589.93	93.62
590.08	23.41
590.24	159.16
590.40	128.73
590.56	60.85
590.72	9.36
590.88	46.81
591.04	44.47
591.20	58.51
591.35	100.64
591.51	53.83
591.67	35.11
591.83	21.06
591.99	49.15
592.15	107.66
592.31	35.11
592.46	28.09
592.62	30.43
592.78	107.66
592.94	53.83
593.10	65.54
593.26	128.73
593.41	46.81
593.57	0.00
593.73	81.92
593.89	346.40
594.05	1153.88
594.20	1776.47
594.36	1694.55
594.52	1107.07
594.68	765.36
594.84	472.79
594.99	236.39
595.15	149.79
595.31	119.37
595.47	84.26
595.62	56.17
595.78	114.69
595.94	7.02
596.10	51.49
596.25	44.47
596.41	28.09
596.57	117.03
596.73	72.56
596.88	65.54
597.04	227.03
597.20	348.74
597.36	400.23
597.51	353.42
597.67	229.37
597.83	140.43
597.99	159.16
598.14	147.45
598.30	42.13
598.46	117.03
598.61	88.94
598.77	91.28
598.93	35.11
599.09	7.02
599.24	11.70
599.40	67.88
599.56	32.77
599.71	46.81
599.87	49.15
600.03	56.17
600.18	65.54
600.34	0.00
600.50	63.19
600.65	112.35
600.81	0.00
600.97	46.81
601.12	11.70
601.28	21.06
601.44	4.68
601.59	11.70
601.75	0.00
601.91	131.07
602.06	128.73
602.22	37.45
602.37	93.62
602.53	362.78
602.69	491.51
602.84	486.83
603.00	372.15
603.16	243.42
603.31	210.65
603.47	135.75
603.62	86.60
603.78	56.17
603.94	79.58
604.09	91.28
604.25	28.09
604.40	44.47
604.56	49.15
604.71	28.09
604.87	32.77
605.03	32.77
605.18	86.60
605.34	28.09
605.49	37.45
605.65	84.26
605.80	67.88
605.96	93.62
606.12	16.38
606.27	131.07
606.43	30.43
606.58	49.15
606.74	159.16
606.89	596.84
607.05	1174.95
607.20	1586.88
607.36	1259.21
607.51	786.42
607.67	575.77
607.82	362.78
607.98	128.73
608.13	142.77
608.29	67.88
608.44	67.88
608.60	84.26
608.75	49.15
608.91	227.03
609.06	898.77
609.22	1921.58
609.37	2607.36
609.53	2347.56
609.68	1488.58
609.84	980.68
609.99	645.99
610.15	365.12
610.30	121.71
610.46	63.19
610.61	72.56
610.76	23.41
610.92	140.43
611.07	39.79
611.23	42.13
611.38	65.54
611.54	79.58
611.69	21.06
611.84	107.66
612.00	7.02
612.15	110.01
612.31	79.58
612.46	145.11
612.62	194.26
612.77	84.26
612.92	77.24
613.08	67.88
613.23	37.45
613.39	77.24
613.54	149.79
613.69	767.70
613.85	2452.88
614.00	3882.95
614.15	4070.19
614.31	2923.33
614.46	1949.67
614.62	1273.25
614.77	840.25
614.92	327.68
615.08	163.84
615.23	98.30
615.38	124.05
615.54	100.64
615.69	166.18
615.84	458.74
616.00	873.02
616.15	1013.45
616.30	791.10
616.46	622.58
616.61	358.10
616.76	217.67
616.92	142.77
617.07	56.17
617.22	11.70
617.37	58.51
617.53	81.92
617.68	70.22
617.83	39.79
617.99	72.56
618.14	58.51
618.29	107.66
618.45	0.00
618.60	25.75
618.75	74.90
618.90	32.77
619.06	0.00
619.21	91.28
619.36	44.47
619.51	74.90
619.67	0.00
619.82	86.60
619.97	0.00
620.12	56.17
620.28	107.66
620.43	102.98
620.58	21.06
620.73	0.00
620.89	63.19
621.04	74.90
621.19	245.76
621.34	447.04
621.49	730.25
621.65	592.16
621.80	372.15
621.95	173.20
622.10	227.03
622.25	138.09
622.41	39.79
622.56	53.83
622.71	44.47
622.86	21.06
623.01	46.81
623.16	42.13
623.32	35.11
623.47	86.60
623.62	35.11
623.77	11.70
623.92	100.64
624.07	67.88
624.23	21.06
624.38	100.64
624.53	0.00
624.68	21.06
624.83	65.54
624.98	84.26
625.13	35.11
625.29	67.88
625.44	63.19
625.59	37.45
625.74	93.62
625.89	70.22
626.04	449.38
626.19	1146.86
626.34	1933.28
626.49	2104.14
626.65	1603.27
626.80	1123.46
626.95	748.97
627.10	503.22
627.25	217.67
627.40	42.13
627.55	65.54
627.70	46.81
627.85	74.90
628.00	37.45
628.15	42.13
628.30	9.36
628.45	86.60
628.60	74.90
628.76	51.49
628.91	7.02
629.06	67.88
629.21	56.17
629.36	44.47
629.51	16.38
629.66	107.66
629.81	56.17
629.96	217.67
630.11	423.64
630.26	578.11
630.41	433.00
630.56	332.36
630.71	259.80
630.86	194.26
631.01	147.45
631.16	42.13
631.31	4.68
631.46	72.56
631.61	72.56
631.76	51.49
631.91	16.38
632.06	114.69
632.21	53.83
632.36	79.58
632.51	79.58
632.66	72.56
632.81	236.39
632.96	706.84
633.10	1235.80
633.25	1528.37
633.40	1132.82
633.55	851.96
633.70	571.09
633.85	393.21
634.00	236.39
634.15	84.26
634.30	32.77
634.45	21.06
634.60	18.72
634.75	74.90
634.90	91.28
635.05	147.45
635.19	86.60
635.34	100.64
635.49	102.98
635.64	46.81
635.79	44.47
635.94	88.94
636.09	49.15
636.24	9.36
636.39	84.26
636.53	79.58
636.68	51.49
636.83	81.92
636.98	133.41
637.13	67.88
637.28	93.62
637.43	72.56
637.57	231.71
637.72	653.01
637.87	1636.03
638.02	2551.18
638.17	2672.89
638.32	2073.71
638.46	1376.24
638.61	938.55
638.76	547.69
638.91	271.50
639.06	159.16
639.20	105.32
639.35	72.56
639.50	187.24
639.65	844.93
639.80	2532.46
639.94	3836.14
640.09	4248.07
640.24	3136.32
640.39	2033.93
640.54	1401.98
640.68	866.00
640.83	379.17
640.98	180.22
641.13	140.43
641.27	138.09
641.42	149.79
641.57	51.49
641.72	51.49
641.86	72.56
642.01	25.75
642.16	7.02
642.31	72.56
642.45	110.01
642.60	110.01
642.75	117.03
642.90	4.68
643.04	32.77
643.19	51.49
643.34	67.88
643.48	79.58
643.63	0.00
643.78	105.32
643.93	84.26
644.07	28.09
644.22	0.00
644.37	32.77
644.51	0.00
644.66	0.00
644.81	0.00
644.95	21.06
645.10	21.06
645.25	42.13
645.39	14.04
645.54	53.83
645.69	42.13
645.83	0.00
645.98	14.04
646.13	0.00
646.27	58.51
646.42	25.75
646.57	42.13
646.71	88.94
646.86	107.66
647.00	23.41
647.15	46.81
647.30	23.41
647.44	32.77
647.59	46.81
647.74	70.22
647.88	30.43
648.03	46.81
648.17	11.70
648.32	39.79
648.47	35.11
648.61	79.58
648.76	0.00
648.90	149.79
649.05	35.11
649.20	0.00
649.34	51.49
649.49	18.72
649.63	112.35
649.78	0.00
649.92	93.62
650.07	334.70
650.21	1074.31
650.36	1715.61
650.51	2298.41
650.65	1870.09
650.80	1284.95
650.94	931.53
651.09	510.24
651.23	299.59
651.38	154.48
651.52	121.71
651.67	44.47
651.81	95.96
651.96	95.96
652.10	84.26
652.25	39.79
652.39	23.41
652.54	124.05
652.68	187.24
652.83	355.76
652.97	660.03
653.12	821.53
653.26	676.41
653.41	346.40
653.55	287.89
653.70	194.26
653.84	149.79
653.99	102.98
654.13	79.58
654.27	100.64
654.42	37.45
654.56	39.79
654.71	0.00
654.85	44.47
655.00	56.17
655.14	46.81
655.29	53.83
655.43	2.34
655.57	25.75
655.72	0.00
655.86	25.75
656.01	51.49
656.15	102.98
656.30	60.85
656.44	58.51
656.58	74.90
656.73	42.13
656.87	74.90
657.01	49.15
657.16	65.54
657.30	51.49
657.45	0.00
657.59	39.79
657.73	37.45
657.88	51.49
658.02	14.04
658.16	2.34
658.31	65.54
658.45	58.51
658.60	44.47
658.74	35.11
658.88	0.00
659.03	86.60
659.17	39.79
659.31	159.16
659.46	489.17
659.60	840.25
659.74	1135.16
659.89	992.39
660.03	692.80
660.17	479.81
660.32	348.74
660.46	121.71
660.60	88.94
660.74	53.83
660.89	53.83
661.03	114.69
661.17	46.81
661.32	9.36
661.46	91.28
661.60	23.41
661.74	7.02
661.89	74.90
662.03	7.02
662.17	93.62
662.31	53.83
662.46	25.75
662.60	51.49
662.74	25.75
662.88	72.56
663.03	110.01
663.17	88.94
663.31	0.00
663.45	35.11
663.60	86.60
663.74	9.36
663.88	35.11
664.02	77.24
664.17	0.00
664.31	4.68
664.45	67.88
664.59	86.60
664.73	46.81
664.88	37.45
665.02	39.79
665.16	46.81
665.30	7.02
665.44	0.00
665.59	88.94
665.73	70.22
665.87	70.22
666.01	0.00
666.15	51.49
666.29	16.38
666.44	53.83
666.58	39.79
666.72	23.41
666.86	30.43
667.00	23.41
667.14	39.79
667.28	276.18
667.43	901.11
667.57	1612.63
667.71	1891.15
667.85	1647.74
667.99	1240.48
668.13	755.99
668.27	512.58
668.41	266.82
668.56	177.88
668.70	128.73
668.84	110.01
668.98	16.38
669.12	9.36
669.26	0.00
669.40	11.70
669.54	53.83
669.68	93.62
669.82	46.81
669.96	0.00
670.10	21.06
670.25	18.72
670.39	86.60
670.53	63.19
670.67	9.36
670.81	16.38
670.95	65.54
671.09	91.28
671.23	440.02
671.37	755.99
671.51	1149.20
671.65	1252.19
671.79	905.79
671.93	657.69
672.07	327.68
672.21	264.48
672.35	138.09
672.49	86.60
672.63	112.35
672.77	46.81
672.91	42.13
673.05	56.17
673.19	37.45
673.33	0.00
673.47	49.15
673.61	67.88
673.75	7.02
673.89	49.15
674.03	21.06
674.17	67.88
674.31	0.00
674.45	77.24
674.59	49.15
674.73	0.00
674.87	63.19
675.01	11.70
675.15	56.17
675.29	79.58
675.43	63.19
675.56	0.00
675.70	4.68
675.84	0.00
675.98	14.04
676.12	30.43
676.26	32.77
676.40	0.00
676.54	23.41
676.68	23.41
676.82	7.02
676.96	0.00
677.10	0.00
677.23	4.68
677.37	9.36
677.51	2.34
677.65	0.00
677.79	30.43
677.93	0.00
678.07	60.85
678.21	0.00
678.34	0.00
678.48	9.36
678.62	110.01
678.76	11.70
678.90	56.17
679.04	11.70
679.18	0.00
679.31	56.17
679.45	4.68
679.59	63.19
679.73	23.41
679.87	72.56
680.00	2.34
680.14	67.88
680.28	35.11
680.42	2.34
680.56	58.51
680.70	58.51
680.83	49.15
680.97	42.13
681.11	37.45
681.25	35.11
681.39	14.04
681.52	49.15
681.66	11.70
681.80	0.00
681.94	0.00
682.07	9.36
682.21	49.15
682.35	63.19
682.49	37.45
682.62	0.00
682.76	7.02
682.90	65.54
683.04	0.00
683.17	9.36
683.31	0.00
683.45	53.83
683.59	0.00
683.72	23.41
683.86	32.77
684.00	0.00
684.13	14.04
684.27	37.45
684.41	16.38
684.55	0.00
684.68	7.02
684.82	42.13
684.96	11.70
685.09	72.56
685.23	0.00
685.37	142.77
685.50	44.47
685.64	4.68
685.78	4.68
685.91	72.56
686.05	0.00
686.19	25.75
686.32	28.09
686.46	74.90
686.60	0.00
686.73	9.36
686.87	49.15
687.01	37.45
687.14	46.81
687.28	56.17
687.42	56.17
687.55	39.79
687.69	119.37
687.82	42.13
687.96	23.41
688.10	0.00
688.23	2.34
688.37	28.09
688.50	14.04
688.64	39.79
688.78	65.54
688.91	0.00
689.05	7.02
689.18	25.75
689.32	67.88
689.46	53.83
689.59	42.13
689.73	100.64
689.86	95.96
690.00	77.24
690.13	0.00
690.27	60.85
690.41	0.00
690.54	16.38
690.68	0.00
690.81	11.70
690.95	56.17
691.08	53.83
691.22	9.36
691.35	23.41
691.49	9.36
691.62	0.00
691.76	0.00
691.89	37.45
692.03	102.98
692.16	28.09
692.30	23.41
692.43	93.62
692.57	395.55
692.70	660.03
692.84	765.36
692.97	765.36
693.11	655.35
693.24	451.72
693.38	304.27
693.51	147.45
693.65	259.80
693.78	95.96
693.92	98.30
694.05	0.00
694.19	42.13
694.32	16.38
694.45	98.30
694.59	0.00
694.72	70.22
694.86	70.22
694.99	0.00
695.13	4.68
695.26	23.41
695.39	37.45
695.53	42.13
695.66	32.77
695.80	60.85
695.93	30.43
696.07	70.22
696.20	60.85
696.33	0.00
696.47	60.85
696.60	114.69
696.73	67.88
696.87	58.51
697.00	119.37
697.14	112.35
697.27	60.85
697.40	0.00
697.54	39.79
697.67	30.43
697.80	51.49
697.94	79.58
698.07	32.77
698.21	0.00
698.34	58.51
698.47	0.00
698.61	49.15
698.74	84.26
698.87	74.90
699.01	35.11
699.14	11.70
699.27	28.09
699.40	23.41
699.54	0.00
699.67	21.06
699.80	4.68
699.94	37.45
700.07	4.68
700.20	0.00
700.34	11.70
700.47	14.04
700.60	14.04
700.73	30.43
700.87	11.70
701.00	63.19
701.13	53.83
701.26	110.01
701.40	37.45
701.53	0.00
701.66	81.92
701.79	58.51
701.93	95.96
702.06	37.45
702.19	46.81
702.32	81.92
702.46	135.75
702.59	74.90
702.72	112.35
702.85	451.72
702.99	954.94
703.12	1558.80
703.25	1600.93
703.38	1404.32
703.51	1097.71
703.65	917.49
703.78	645.99
703.91	402.57
704.04	170.86
704.17	145.11
704.31	131.07
704.44	98.30
704.57	44.47
704.70	37.45
704.83	65.54
704.96	30.43
705.10	72.56
705.23	65.54
>>>>>End Processed Spectral Data<<<<<
