SpectraSuite Data File
++++++++++++++++++++++++++++++++++++
Date: Fri Oct 04 12:13:25 GMT-05:00 2013
User: price-jones
Dark Spectrum Present: No
Reference Spectrum Present: No
Number of Sampled Component Spectra: 1
Spectrometers: USB2+H05261
Integration Time (usec): 10000 (USB2+H05261)
Spectra Averaged: 1 (USB2+H05261)
Boxcar Smoothing: 0 (USB2+H05261)
Correct for Electrical Dark: No (USB2+H05261)
Strobe/Lamp Enabled: No (USB2+H05261)
Correct for Detector Non-linearity: No (USB2+H05261)
Correct for Stray Light: No (USB2+H05261)
Number of Pixels in Processed Spectrum: 2048
>>>>>Begin Processed Spectral Data<<<<<
365.73	25.75
365.92	25.75
366.12	25.75
366.32	0.00
366.52	0.00
366.72	0.00
366.91	0.00
367.11	0.00
367.31	0.00
367.51	0.00
367.70	0.00
367.90	0.00
368.10	0.00
368.30	0.00
368.49	0.00
368.69	0.00
368.89	0.00
369.09	0.00
369.28	0.00
369.48	0.00
369.68	0.00
369.87	0.00
370.07	0.00
370.27	0.00
370.47	0.00
370.66	0.00
370.86	0.00
371.06	21.06
371.25	0.00
371.45	0.00
371.65	9.36
371.84	0.00
372.04	0.00
372.24	0.00
372.44	46.81
372.63	0.00
372.83	25.75
373.03	63.19
373.22	0.00
373.42	74.90
373.62	65.54
373.81	14.04
374.01	11.70
374.21	112.35
374.40	32.77
374.60	4.68
374.79	51.49
374.99	67.88
375.19	72.56
375.38	0.00
375.58	72.56
375.78	42.13
375.97	56.17
376.17	53.83
376.37	25.75
376.56	16.38
376.76	72.56
376.95	9.36
377.15	16.38
377.35	0.00
377.54	63.19
377.74	56.17
377.93	0.00
378.13	0.00
378.33	25.75
378.52	0.00
378.72	11.70
378.91	11.70
379.11	0.00
379.31	0.00
379.50	4.68
379.70	32.77
379.89	77.24
380.09	18.72
380.28	0.00
380.48	35.11
380.68	39.79
380.87	0.00
381.07	0.00
381.26	44.47
381.46	0.00
381.65	39.79
381.85	0.00
382.04	14.04
382.24	0.00
382.43	0.00
382.63	2.34
382.83	32.77
383.02	53.83
383.22	42.13
383.41	0.00
383.61	30.43
383.80	56.17
384.00	79.58
384.19	0.00
384.39	58.51
384.58	49.15
384.78	0.00
384.97	23.41
385.17	72.56
385.36	0.00
385.56	65.54
385.75	37.45
385.95	11.70
386.14	23.41
386.34	18.72
386.53	0.00
386.72	0.00
386.92	7.02
387.11	14.04
387.31	18.72
387.50	0.00
387.70	44.47
387.89	58.51
388.09	0.00
388.28	0.00
388.48	44.47
388.67	46.81
388.86	42.13
389.06	0.00
389.25	51.49
389.45	107.66
389.64	7.02
389.84	37.45
390.03	16.38
390.22	84.26
390.42	84.26
390.61	0.00
390.81	51.49
391.00	25.75
391.19	110.01
391.39	88.94
391.58	11.70
391.78	60.85
391.97	0.00
392.16	0.00
392.36	23.41
392.55	0.00
392.75	60.85
392.94	114.69
393.13	86.60
393.33	0.00
393.52	9.36
393.71	0.00
393.91	35.11
394.10	35.11
394.29	23.41
394.49	2.34
394.68	0.00
394.88	28.09
395.07	44.47
395.26	58.51
395.46	46.81
395.65	25.75
395.84	72.56
396.04	11.70
396.23	25.75
396.42	21.06
396.62	32.77
396.81	16.38
397.00	35.11
397.19	35.11
397.39	16.38
397.58	35.11
397.77	4.68
397.97	49.15
398.16	2.34
398.35	7.02
398.55	0.00
398.74	18.72
398.93	4.68
399.12	11.70
399.32	98.30
399.51	0.00
399.70	35.11
399.90	30.43
400.09	0.00
400.28	44.47
400.47	9.36
400.67	32.77
400.86	14.04
401.05	0.00
401.24	14.04
401.44	51.49
401.63	9.36
401.82	70.22
402.01	32.77
402.21	49.15
402.40	0.00
402.59	0.00
402.78	4.68
402.97	86.60
403.17	60.85
403.36	0.00
403.55	14.04
403.74	100.64
403.93	0.00
404.13	49.15
404.32	0.00
404.51	18.72
404.70	63.19
404.89	7.02
405.09	84.26
405.28	42.13
405.47	0.00
405.66	0.00
405.85	88.94
406.05	0.00
406.24	0.00
406.43	0.00
406.62	0.00
406.81	35.11
407.00	30.43
407.20	9.36
407.39	0.00
407.58	53.83
407.77	0.00
407.96	63.19
408.15	7.02
408.34	28.09
408.54	18.72
408.73	51.49
408.92	11.70
409.11	63.19
409.30	0.00
409.49	18.72
409.68	30.43
409.87	60.85
410.07	44.47
410.26	0.00
410.45	16.38
410.64	81.92
410.83	18.72
411.02	16.38
411.21	4.68
411.40	53.83
411.59	25.75
411.78	18.72
411.98	0.00
412.17	4.68
412.36	0.00
412.55	21.06
412.74	0.00
412.93	65.54
413.12	4.68
413.31	0.00
413.50	0.00
413.69	86.60
413.88	60.85
414.07	21.06
414.26	9.36
414.45	32.77
414.64	0.00
414.83	0.00
415.02	23.41
415.22	2.34
415.41	32.77
415.60	39.79
415.79	14.04
415.98	16.38
416.17	53.83
416.36	2.34
416.55	0.00
416.74	0.00
416.93	39.79
417.12	14.04
417.31	84.26
417.50	65.54
417.69	14.04
417.88	9.36
418.07	23.41
418.26	63.19
418.45	16.38
418.64	0.00
418.83	56.17
419.02	53.83
419.21	67.88
419.39	63.19
419.58	56.17
419.77	53.83
419.96	51.49
420.15	84.26
420.34	4.68
420.53	35.11
420.72	0.00
420.91	0.00
421.10	25.75
421.29	0.00
421.48	74.90
421.67	30.43
421.86	0.00
422.05	88.94
422.24	37.45
422.43	18.72
422.61	44.47
422.80	56.17
422.99	51.49
423.18	53.83
423.37	42.13
423.56	39.79
423.75	91.28
423.94	14.04
424.13	77.24
424.32	23.41
424.50	46.81
424.69	51.49
424.88	18.72
425.07	152.13
425.26	0.00
425.45	4.68
425.64	44.47
425.83	86.60
426.01	46.81
426.20	2.34
426.39	0.00
426.58	0.00
426.77	0.00
426.96	23.41
427.15	0.00
427.33	0.00
427.52	7.02
427.71	30.43
427.90	11.70
428.09	18.72
428.28	49.15
428.46	28.09
428.65	18.72
428.84	23.41
429.03	11.70
429.22	37.45
429.40	117.03
429.59	42.13
429.78	4.68
429.97	49.15
430.16	0.00
430.34	0.00
430.53	42.13
430.72	56.17
430.91	23.41
431.10	35.11
431.28	44.47
431.47	0.00
431.66	0.00
431.85	102.98
432.03	23.41
432.22	46.81
432.41	4.68
432.60	35.11
432.79	25.75
432.97	30.43
433.16	51.49
433.35	25.75
433.54	46.81
433.72	81.92
433.91	53.83
434.10	105.32
434.28	72.56
434.47	0.00
434.66	0.00
434.85	0.00
435.03	51.49
435.22	88.94
435.41	51.49
435.59	42.13
435.78	23.41
435.97	65.54
436.16	7.02
436.34	95.96
436.53	0.00
436.72	0.00
436.90	0.00
437.09	0.00
437.28	14.04
437.46	0.00
437.65	49.15
437.84	53.83
438.02	28.09
438.21	4.68
438.40	4.68
438.58	37.45
438.77	0.00
438.96	23.41
439.14	95.96
439.33	18.72
439.52	14.04
439.70	53.83
439.89	25.75
440.08	0.00
440.26	14.04
440.45	2.34
440.63	11.70
440.82	0.00
441.01	65.54
441.19	63.19
441.38	30.43
441.57	11.70
441.75	0.00
441.94	25.75
442.12	30.43
442.31	51.49
442.50	0.00
442.68	0.00
442.87	11.70
443.05	0.00
443.24	79.58
443.43	88.94
443.61	65.54
443.80	0.00
443.98	2.34
444.17	7.02
444.35	81.92
444.54	18.72
444.73	65.54
444.91	0.00
445.10	35.11
445.28	25.75
445.47	35.11
445.65	74.90
445.84	0.00
446.02	56.17
446.21	32.77
446.39	60.85
446.58	58.51
446.77	18.72
446.95	39.79
447.14	16.38
447.32	42.13
447.51	7.02
447.69	16.38
447.88	67.88
448.06	42.13
448.25	42.13
448.43	72.56
448.62	2.34
448.80	70.22
448.99	49.15
449.17	93.62
449.36	0.00
449.54	11.70
449.73	60.85
449.91	0.00
450.10	14.04
450.28	25.75
450.46	0.00
450.65	65.54
450.83	37.45
451.02	142.77
451.20	4.68
451.39	9.36
451.57	21.06
451.76	60.85
451.94	30.43
452.13	79.58
452.31	53.83
452.49	0.00
452.68	65.54
452.86	39.79
453.05	21.06
453.23	0.00
453.42	70.22
453.60	7.02
453.78	0.00
453.97	53.83
454.15	81.92
454.34	65.54
454.52	25.75
454.70	51.49
454.89	23.41
455.07	11.70
455.26	0.00
455.44	37.45
455.62	37.45
455.81	4.68
455.99	39.79
456.17	7.02
456.36	32.77
456.54	32.77
456.73	0.00
456.91	0.00
457.09	119.37
457.28	46.81
457.46	0.00
457.64	37.45
457.83	25.75
458.01	42.13
458.19	63.19
458.38	18.72
458.56	53.83
458.74	16.38
458.93	7.02
459.11	28.09
459.29	16.38
459.48	21.06
459.66	21.06
459.84	42.13
460.03	81.92
460.21	70.22
460.39	37.45
460.57	91.28
460.76	0.00
460.94	0.00
461.12	16.38
461.31	9.36
461.49	0.00
461.67	88.94
461.85	4.68
462.04	37.45
462.22	58.51
462.40	0.00
462.59	0.00
462.77	30.43
462.95	14.04
463.13	23.41
463.32	23.41
463.50	9.36
463.68	30.43
463.86	0.00
464.05	42.13
464.23	37.45
464.41	2.34
464.59	39.79
464.78	16.38
464.96	0.00
465.14	14.04
465.32	25.75
465.50	0.00
465.69	56.17
465.87	49.15
466.05	23.41
466.23	0.00
466.41	0.00
466.60	30.43
466.78	32.77
466.96	88.94
467.14	25.75
467.32	110.01
467.51	0.00
467.69	0.00
467.87	86.60
468.05	25.75
468.23	32.77
468.41	39.79
468.60	0.00
468.78	95.96
468.96	53.83
469.14	11.70
469.32	70.22
469.50	25.75
469.69	30.43
469.87	39.79
470.05	67.88
470.23	30.43
470.41	0.00
470.59	88.94
470.77	46.81
470.95	37.45
471.14	49.15
471.32	51.49
471.50	42.13
471.68	28.09
471.86	28.09
472.04	42.13
472.22	37.45
472.40	18.72
472.58	9.36
472.77	9.36
472.95	49.15
473.13	98.30
473.31	25.75
473.49	65.54
473.67	0.00
473.85	16.38
474.03	110.01
474.21	44.47
474.39	44.47
474.57	23.41
474.75	0.00
474.93	23.41
475.12	67.88
475.30	23.41
475.48	58.51
475.66	49.15
475.84	0.00
476.02	14.04
476.20	9.36
476.38	7.02
476.56	72.56
476.74	135.75
476.92	21.06
477.10	37.45
477.28	0.00
477.46	4.68
477.64	0.00
477.82	58.51
478.00	42.13
478.18	4.68
478.36	51.49
478.54	0.00
478.72	0.00
478.90	0.00
479.08	18.72
479.26	16.38
479.44	32.77
479.62	58.51
479.80	30.43
479.98	0.00
480.16	42.13
480.34	11.70
480.52	0.00
480.70	2.34
480.88	35.11
481.06	51.49
481.24	0.00
481.41	51.49
481.59	37.45
481.77	0.00
481.95	23.41
482.13	30.43
482.31	14.04
482.49	58.51
482.67	79.58
482.85	74.90
483.03	25.75
483.21	16.38
483.39	63.19
483.57	37.45
483.74	67.88
483.92	32.77
484.10	7.02
484.28	88.94
484.46	11.70
484.64	28.09
484.82	16.38
485.00	25.75
485.18	46.81
485.35	56.17
485.53	0.00
485.71	58.51
485.89	0.00
486.07	21.06
486.25	18.72
486.43	56.17
486.61	44.47
486.78	9.36
486.96	65.54
487.14	53.83
487.32	0.00
487.50	86.60
487.68	65.54
487.85	49.15
488.03	72.56
488.21	49.15
488.39	25.75
488.57	102.98
488.75	51.49
488.92	56.17
489.10	16.38
489.28	4.68
489.46	0.00
489.64	11.70
489.81	46.81
489.99	51.49
490.17	35.11
490.35	32.77
490.53	46.81
490.70	30.43
490.88	37.45
491.06	30.43
491.24	67.88
491.41	35.11
491.59	25.75
491.77	39.79
491.95	30.43
492.13	28.09
492.30	98.30
492.48	0.00
492.66	4.68
492.84	107.66
493.01	14.04
493.19	67.88
493.37	60.85
493.54	23.41
493.72	49.15
493.90	58.51
494.08	7.02
494.25	11.70
494.43	60.85
494.61	79.58
494.79	7.02
494.96	9.36
495.14	0.00
495.32	56.17
495.49	67.88
495.67	42.13
495.85	51.49
496.02	0.00
496.20	0.00
496.38	84.26
496.55	35.11
496.73	0.00
496.91	77.24
497.09	0.00
497.26	81.92
497.44	65.54
497.62	72.56
497.79	0.00
497.97	35.11
498.14	0.00
498.32	51.49
498.50	25.75
498.67	0.00
498.85	0.00
499.03	93.62
499.20	30.43
499.38	0.00
499.56	72.56
499.73	30.43
499.91	16.38
500.08	14.04
500.26	39.79
500.44	156.82
500.61	133.41
500.79	88.94
500.97	117.03
501.14	79.58
501.32	37.45
501.49	11.70
501.67	18.72
501.84	14.04
502.02	16.38
502.20	0.00
502.37	30.43
502.55	18.72
502.72	25.75
502.90	0.00
503.07	28.09
503.25	49.15
503.43	0.00
503.60	2.34
503.78	2.34
503.95	56.17
504.13	18.72
504.30	7.02
504.48	53.83
504.65	16.38
504.83	53.83
505.01	37.45
505.18	46.81
505.36	51.49
505.53	28.09
505.71	72.56
505.88	46.81
506.06	107.66
506.23	16.38
506.41	46.81
506.58	67.88
506.76	70.22
506.93	63.19
507.11	0.00
507.28	28.09
507.46	60.85
507.63	32.77
507.81	63.19
507.98	65.54
508.16	84.26
508.33	16.38
508.50	23.41
508.68	63.19
508.85	74.90
509.03	30.43
509.20	7.02
509.38	70.22
509.55	35.11
509.73	46.81
509.90	67.88
510.08	79.58
510.25	49.15
510.42	86.60
510.60	117.03
510.77	25.75
510.95	44.47
511.12	49.15
511.30	77.24
511.47	72.56
511.64	53.83
511.82	0.00
511.99	32.77
512.17	84.26
512.34	91.28
512.51	16.38
512.69	35.11
512.86	0.00
513.04	28.09
513.21	91.28
513.38	16.38
513.56	49.15
513.73	65.54
513.90	58.51
514.08	46.81
514.25	46.81
514.43	32.77
514.60	46.81
514.77	0.00
514.95	95.96
515.12	18.72
515.29	60.85
515.47	18.72
515.64	42.13
515.81	0.00
515.99	49.15
516.16	30.43
516.33	67.88
516.51	0.00
516.68	37.45
516.85	4.68
517.03	0.00
517.20	84.26
517.37	49.15
517.54	23.41
517.72	70.22
517.89	44.47
518.06	0.00
518.24	95.96
518.41	65.54
518.58	0.00
518.75	16.38
518.93	0.00
519.10	0.00
519.27	65.54
519.45	37.45
519.62	58.51
519.79	39.79
519.96	65.54
520.14	37.45
520.31	2.34
520.48	95.96
520.65	42.13
520.83	110.01
521.00	70.22
521.17	0.00
521.34	0.00
521.52	77.24
521.69	42.13
521.86	72.56
522.03	114.69
522.20	25.75
522.38	112.35
522.55	42.13
522.72	91.28
522.89	74.90
523.07	0.00
523.24	32.77
523.41	28.09
523.58	0.00
523.75	107.66
523.92	35.11
524.10	56.17
524.27	28.09
524.44	49.15
524.61	35.11
524.78	98.30
524.96	42.13
525.13	65.54
525.30	46.81
525.47	84.26
525.64	56.17
525.81	70.22
525.98	70.22
526.16	28.09
526.33	21.06
526.50	0.00
526.67	100.64
526.84	67.88
527.01	46.81
527.18	70.22
527.36	35.11
527.53	63.19
527.70	23.41
527.87	65.54
528.04	39.79
528.21	58.51
528.38	93.62
528.55	91.28
528.72	51.49
528.89	46.81
529.07	0.00
529.24	16.38
529.41	72.56
529.58	7.02
529.75	70.22
529.92	0.00
530.09	4.68
530.26	56.17
530.43	9.36
530.60	21.06
530.77	0.00
530.94	65.54
531.11	21.06
531.28	102.98
531.46	42.13
531.63	58.51
531.80	65.54
531.97	70.22
532.14	51.49
532.31	23.41
532.48	0.00
532.65	72.56
532.82	14.04
532.99	16.38
533.16	79.58
533.33	39.79
533.50	28.09
533.67	56.17
533.84	0.00
534.01	0.00
534.18	72.56
534.35	56.17
534.52	124.05
534.69	32.77
534.86	53.83
535.03	28.09
535.20	46.81
535.37	49.15
535.54	39.79
535.71	0.00
535.88	37.45
536.05	60.85
536.22	0.00
536.38	35.11
536.55	44.47
536.72	25.75
536.89	0.00
537.06	42.13
537.23	23.41
537.40	4.68
537.57	142.77
537.74	49.15
537.91	60.85
538.08	53.83
538.25	51.49
538.42	56.17
538.59	51.49
538.75	25.75
538.92	0.00
539.09	23.41
539.26	0.00
539.43	88.94
539.60	18.72
539.77	18.72
539.94	0.00
540.11	16.38
540.28	32.77
540.44	77.24
540.61	0.00
540.78	44.47
540.95	77.24
541.12	0.00
541.29	79.58
541.46	14.04
541.62	95.96
541.79	23.41
541.96	30.43
542.13	98.30
542.30	72.56
542.47	72.56
542.63	70.22
542.80	58.51
542.97	88.94
543.14	100.64
543.31	35.11
543.48	74.90
543.64	0.00
543.81	56.17
543.98	0.00
544.15	18.72
544.32	0.00
544.48	88.94
544.65	0.00
544.82	58.51
544.99	56.17
545.16	58.51
545.32	67.88
545.49	119.37
545.66	21.06
545.83	53.83
546.00	74.90
546.16	65.54
546.33	102.98
546.50	49.15
546.67	21.06
546.83	11.70
547.00	30.43
547.17	11.70
547.34	0.00
547.50	0.00
547.67	9.36
547.84	30.43
548.00	30.43
548.17	2.34
548.34	98.30
548.51	79.58
548.67	79.58
548.84	100.64
549.01	35.11
549.18	121.71
549.34	35.11
549.51	53.83
549.68	39.79
549.84	58.51
550.01	67.88
550.18	49.15
550.34	63.19
550.51	77.24
550.68	35.11
550.84	53.83
551.01	56.17
551.18	14.04
551.34	35.11
551.51	60.85
551.68	44.47
551.84	58.51
552.01	72.56
552.18	46.81
552.34	0.00
552.51	32.77
552.68	60.85
552.84	37.45
553.01	42.13
553.18	53.83
553.34	21.06
553.51	72.56
553.67	79.58
553.84	18.72
554.01	58.51
554.17	32.77
554.34	23.41
554.51	112.35
554.67	63.19
554.84	53.83
555.00	102.98
555.17	46.81
555.33	67.88
555.50	121.71
555.67	0.00
555.83	0.00
556.00	58.51
556.16	35.11
556.33	100.64
556.50	91.28
556.66	11.70
556.83	11.70
556.99	0.00
557.16	70.22
557.32	32.77
557.49	18.72
557.65	58.51
557.82	79.58
557.98	14.04
558.15	72.56
558.32	30.43
558.48	16.38
558.65	51.49
558.81	65.54
558.98	60.85
559.14	37.45
559.31	72.56
559.47	25.75
559.64	7.02
559.80	18.72
559.97	74.90
560.13	25.75
560.30	51.49
560.46	39.79
560.63	0.00
560.79	67.88
560.96	91.28
561.12	25.75
561.29	35.11
561.45	32.77
561.61	18.72
561.78	91.28
561.94	93.62
562.11	21.06
562.27	11.70
562.44	77.24
562.60	51.49
562.77	18.72
562.93	14.04
563.10	23.41
563.26	16.38
563.42	16.38
563.59	0.00
563.75	21.06
563.92	0.00
564.08	0.00
564.24	0.00
564.41	53.83
564.57	18.72
564.74	9.36
564.90	16.38
565.07	0.00
565.23	72.56
565.39	30.43
565.56	0.00
565.72	18.72
565.88	0.00
566.05	18.72
566.21	74.90
566.38	4.68
566.54	0.00
566.70	112.35
566.87	51.49
567.03	81.92
567.19	0.00
567.36	121.71
567.52	0.00
567.68	56.17
567.85	16.38
568.01	53.83
568.17	9.36
568.34	0.00
568.50	0.00
568.66	25.75
568.83	0.00
568.99	18.72
569.15	37.45
569.32	35.11
569.48	32.77
569.64	44.47
569.81	117.03
569.97	21.06
570.13	14.04
570.30	25.75
570.46	9.36
570.62	79.58
570.78	35.11
570.95	4.68
571.11	25.75
571.27	95.96
571.43	0.00
571.60	39.79
571.76	25.75
571.92	37.45
572.09	0.00
572.25	63.19
572.41	32.77
572.57	18.72
572.74	2.34
572.90	46.81
573.06	37.45
573.22	2.34
573.38	18.72
573.55	49.15
573.71	95.96
573.87	0.00
574.03	110.01
574.20	65.54
574.36	0.00
574.52	65.54
574.68	84.26
574.84	63.19
575.01	0.00
575.17	0.00
575.33	65.54
575.49	114.69
575.65	30.43
575.82	9.36
575.98	39.79
576.14	65.54
576.30	91.28
576.46	2.34
576.62	0.00
576.79	60.85
576.95	2.34
577.11	0.00
577.27	58.51
577.43	46.81
577.59	21.06
577.75	0.00
577.92	58.51
578.08	4.68
578.24	32.77
578.40	16.38
578.56	49.15
578.72	28.09
578.88	51.49
579.04	42.13
579.21	91.28
579.37	23.41
579.53	14.04
579.69	70.22
579.85	0.00
580.01	32.77
580.17	102.98
580.33	60.85
580.49	9.36
580.65	0.00
580.82	0.00
580.98	25.75
581.14	74.90
581.30	67.88
581.46	0.00
581.62	28.09
581.78	37.45
581.94	44.47
582.10	105.32
582.26	74.90
582.42	53.83
582.58	37.45
582.74	95.96
582.90	11.70
583.06	84.26
583.22	21.06
583.38	0.00
583.54	0.00
583.70	74.90
583.86	77.24
584.02	14.04
584.18	37.45
584.34	60.85
584.50	44.47
584.66	0.00
584.82	56.17
584.98	0.00
585.14	67.88
585.30	51.49
585.46	72.56
585.62	0.00
585.78	70.22
585.94	9.36
586.10	0.00
586.26	51.49
586.42	124.05
586.58	0.00
586.74	107.66
586.90	14.04
587.06	37.45
587.22	0.00
587.38	0.00
587.54	88.94
587.70	60.85
587.86	79.58
588.02	86.60
588.18	63.19
588.34	0.00
588.49	49.15
588.65	0.00
588.81	30.43
588.97	49.15
589.13	67.88
589.29	2.34
589.45	42.13
589.61	0.00
589.77	63.19
589.93	126.39
590.08	0.00
590.24	0.00
590.40	86.60
590.56	39.79
590.72	0.00
590.88	42.13
591.04	58.51
591.20	53.83
591.35	56.17
591.51	37.45
591.67	18.72
591.83	84.26
591.99	32.77
592.15	79.58
592.31	23.41
592.46	21.06
592.62	25.75
592.78	30.43
592.94	0.00
593.10	14.04
593.26	86.60
593.41	32.77
593.57	102.98
593.73	67.88
593.89	11.70
594.05	98.30
594.20	93.62
594.36	30.43
594.52	51.49
594.68	72.56
594.84	35.11
594.99	0.00
595.15	58.51
595.31	93.62
595.47	35.11
595.62	28.09
595.78	28.09
595.94	7.02
596.10	81.92
596.25	16.38
596.41	21.06
596.57	53.83
596.73	0.00
596.88	21.06
597.04	72.56
597.20	63.19
597.36	25.75
597.51	2.34
597.67	23.41
597.83	32.77
597.99	42.13
598.14	23.41
598.30	53.83
598.46	35.11
598.61	18.72
598.77	18.72
598.93	37.45
599.09	0.00
599.24	21.06
599.40	28.09
599.56	32.77
599.71	28.09
599.87	51.49
600.03	70.22
600.18	18.72
600.34	28.09
600.50	88.94
600.65	0.00
600.81	102.98
600.97	70.22
601.12	14.04
601.28	0.00
601.44	32.77
601.59	46.81
601.75	60.85
601.91	93.62
602.06	23.41
602.22	35.11
602.37	51.49
602.53	2.34
602.69	53.83
602.84	49.15
603.00	67.88
603.16	16.38
603.31	28.09
603.47	60.85
603.62	63.19
603.78	60.85
603.94	49.15
604.09	42.13
604.25	28.09
604.40	0.00
604.56	51.49
604.71	39.79
604.87	60.85
605.03	154.48
605.18	32.77
605.34	56.17
605.49	21.06
605.65	9.36
605.80	0.00
605.96	72.56
606.12	28.09
606.27	81.92
606.43	0.00
606.58	63.19
606.74	44.47
606.89	9.36
607.05	4.68
607.20	23.41
607.36	49.15
607.51	65.54
607.67	0.00
607.82	72.56
607.98	65.54
608.13	14.04
608.29	16.38
608.44	30.43
608.60	7.02
608.75	39.79
608.91	32.77
609.06	30.43
609.22	0.00
609.37	7.02
609.53	21.06
609.68	91.28
609.84	18.72
609.99	14.04
610.15	46.81
610.30	37.45
610.46	79.58
610.61	60.85
610.76	84.26
610.92	7.02
611.07	0.00
611.23	16.38
611.38	35.11
611.54	0.00
611.69	35.11
611.84	18.72
612.00	67.88
612.15	42.13
612.31	11.70
612.46	0.00
612.62	11.70
612.77	37.45
612.92	0.00
613.08	25.75
613.23	79.58
613.39	51.49
613.54	32.77
613.69	39.79
613.85	105.32
614.00	0.00
614.15	2.34
614.31	42.13
614.46	0.00
614.62	44.47
614.77	11.70
614.92	72.56
615.08	72.56
615.23	56.17
615.38	0.00
615.54	0.00
615.69	28.09
615.84	16.38
616.00	28.09
616.15	0.00
616.30	0.00
616.46	0.00
616.61	32.77
616.76	0.00
616.92	9.36
617.07	35.11
617.22	46.81
617.37	7.02
617.53	58.51
617.68	46.81
617.83	39.79
617.99	42.13
618.14	14.04
618.29	23.41
618.45	60.85
618.60	105.32
618.75	39.79
618.90	44.47
619.06	0.00
619.21	23.41
619.36	9.36
619.51	42.13
619.67	84.26
619.82	102.98
619.97	53.83
620.12	53.83
620.28	72.56
620.43	0.00
620.58	23.41
620.73	21.06
620.89	42.13
621.04	51.49
621.19	56.17
621.34	14.04
621.49	95.96
621.65	0.00
621.80	60.85
621.95	0.00
622.10	11.70
622.25	0.00
622.41	35.11
622.56	0.00
622.71	28.09
622.86	16.38
623.01	0.00
623.16	49.15
623.32	0.00
623.47	4.68
623.62	0.00
623.77	32.77
623.92	81.92
624.07	60.85
624.23	23.41
624.38	72.56
624.53	67.88
624.68	9.36
624.83	105.32
624.98	0.00
625.13	23.41
625.29	37.45
625.44	0.00
625.59	25.75
625.74	42.13
625.89	46.81
626.04	25.75
626.19	95.96
626.34	56.17
626.49	117.03
626.65	7.02
626.80	21.06
626.95	0.00
627.10	4.68
627.25	28.09
627.40	112.35
627.55	77.24
627.70	0.00
627.85	0.00
628.00	7.02
628.15	46.81
628.30	18.72
628.45	35.11
628.60	37.45
628.76	121.71
628.91	56.17
629.06	0.00
629.21	16.38
629.36	0.00
629.51	7.02
629.66	28.09
629.81	21.06
629.96	18.72
630.11	39.79
630.26	23.41
630.41	32.77
630.56	0.00
630.71	74.90
630.86	51.49
631.01	63.19
631.16	23.41
631.31	51.49
631.46	77.24
631.61	49.15
631.76	63.19
631.91	95.96
632.06	81.92
632.21	72.56
632.36	39.79
632.51	21.06
632.66	58.51
632.81	58.51
632.96	0.00
633.10	0.00
633.25	74.90
633.40	72.56
633.55	23.41
633.70	117.03
633.85	0.00
634.00	28.09
634.15	39.79
634.30	53.83
634.45	9.36
634.60	65.54
634.75	60.85
634.90	74.90
635.05	53.83
635.19	0.00
635.34	4.68
635.49	16.38
635.64	9.36
635.79	79.58
635.94	0.00
636.09	32.77
636.24	65.54
636.39	35.11
636.53	46.81
636.68	74.90
636.83	98.30
636.98	0.00
637.13	102.98
637.28	42.13
637.43	37.45
637.57	7.02
637.72	44.47
637.87	0.00
638.02	84.26
638.17	39.79
638.32	23.41
638.46	51.49
638.61	0.00
638.76	18.72
638.91	72.56
639.06	9.36
639.20	100.64
639.35	86.60
639.50	70.22
639.65	18.72
639.80	70.22
639.94	84.26
640.09	0.00
640.24	95.96
640.39	79.58
640.54	60.85
640.68	44.47
640.83	14.04
640.98	4.68
641.13	51.49
641.27	35.11
641.42	7.02
641.57	112.35
641.72	11.70
641.86	91.28
642.01	46.81
642.16	135.75
642.31	44.47
642.45	74.90
642.60	67.88
642.75	16.38
642.90	14.04
643.04	44.47
643.19	63.19
643.34	72.56
643.48	84.26
643.63	11.70
643.78	117.03
643.93	0.00
644.07	67.88
644.22	37.45
644.37	37.45
644.51	0.00
644.66	16.38
644.81	7.02
644.95	11.70
645.10	35.11
645.25	0.00
645.39	23.41
645.54	0.00
645.69	18.72
645.83	0.00
645.98	0.00
646.13	28.09
646.27	7.02
646.42	0.00
646.57	133.41
646.71	79.58
646.86	0.00
647.00	44.47
647.15	98.30
647.30	0.00
647.44	53.83
647.59	53.83
647.74	74.90
647.88	60.85
648.03	98.30
648.17	28.09
648.32	44.47
648.47	126.39
648.61	30.43
648.76	23.41
648.90	56.17
649.05	51.49
649.20	11.70
649.34	37.45
649.49	53.83
649.63	14.04
649.78	100.64
649.92	0.00
650.07	56.17
650.21	16.38
650.36	124.05
650.51	0.00
650.65	42.13
650.80	77.24
650.94	65.54
651.09	0.00
651.23	0.00
651.38	37.45
651.52	95.96
651.67	0.00
651.81	9.36
651.96	0.00
652.10	67.88
652.25	0.00
652.39	30.43
652.54	46.81
652.68	46.81
652.83	51.49
652.97	30.43
653.12	21.06
653.26	67.88
653.41	28.09
653.55	88.94
653.70	16.38
653.84	67.88
653.99	53.83
654.13	30.43
654.27	44.47
654.42	53.83
654.56	23.41
654.71	70.22
654.85	42.13
655.00	16.38
655.14	44.47
655.29	14.04
655.43	37.45
655.57	0.00
655.72	9.36
655.86	74.90
656.01	0.00
656.15	0.00
656.30	51.49
656.44	60.85
656.58	74.90
656.73	0.00
656.87	0.00
657.01	44.47
657.16	46.81
657.30	77.24
657.45	30.43
657.59	53.83
657.73	88.94
657.88	0.00
658.02	58.51
658.16	0.00
658.31	35.11
658.45	42.13
658.60	0.00
658.74	51.49
658.88	0.00
659.03	0.00
659.17	84.26
659.31	11.70
659.46	9.36
659.60	91.28
659.74	79.58
659.89	35.11
660.03	79.58
660.17	0.00
660.32	70.22
660.46	39.79
660.60	72.56
660.74	0.00
660.89	0.00
661.03	95.96
661.17	0.00
661.32	0.00
661.46	0.00
661.60	44.47
661.74	93.62
661.89	58.51
662.03	25.75
662.17	42.13
662.31	56.17
662.46	2.34
662.60	37.45
662.74	93.62
662.88	0.00
663.03	14.04
663.17	51.49
663.31	11.70
663.45	7.02
663.60	49.15
663.74	112.35
663.88	37.45
664.02	39.79
664.17	86.60
664.31	28.09
664.45	0.00
664.59	0.00
664.73	0.00
664.88	25.75
665.02	30.43
665.16	11.70
665.30	51.49
665.44	11.70
665.59	11.70
665.73	30.43
665.87	74.90
666.01	35.11
666.15	42.13
666.29	28.09
666.44	0.00
666.58	39.79
666.72	39.79
666.86	30.43
667.00	0.00
667.14	32.77
667.28	0.00
667.43	0.00
667.57	63.19
667.71	46.81
667.85	0.00
667.99	23.41
668.13	98.30
668.27	18.72
668.41	0.00
668.56	56.17
668.70	14.04
668.84	95.96
668.98	67.88
669.12	42.13
669.26	7.02
669.40	4.68
669.54	86.60
669.68	32.77
669.82	16.38
669.96	107.66
670.10	0.00
670.25	14.04
670.39	32.77
670.53	18.72
670.67	65.54
670.81	91.28
670.95	32.77
671.09	88.94
671.23	0.00
671.37	124.05
671.51	0.00
671.65	39.79
671.79	88.94
671.93	60.85
672.07	0.00
672.21	60.85
672.35	175.54
672.49	0.00
672.63	18.72
672.77	46.81
672.91	30.43
673.05	88.94
673.19	25.75
673.33	0.00
673.47	70.22
673.61	2.34
673.75	81.92
673.89	16.38
674.03	39.79
674.17	0.00
674.31	0.00
674.45	0.00
674.59	37.45
674.73	0.00
674.87	37.45
675.01	14.04
675.15	18.72
675.29	0.00
675.43	28.09
675.56	14.04
675.70	0.00
675.84	25.75
675.98	0.00
676.12	58.51
676.26	7.02
676.40	0.00
676.54	44.47
676.68	63.19
676.82	44.47
676.96	42.13
677.10	23.41
677.23	28.09
677.37	0.00
677.51	39.79
677.65	28.09
677.79	42.13
677.93	18.72
678.07	14.04
678.21	30.43
678.34	11.70
678.48	88.94
678.62	65.54
678.76	79.58
678.90	46.81
679.04	16.38
679.18	0.00
679.31	9.36
679.45	7.02
679.59	37.45
679.73	32.77
679.87	81.92
680.00	0.00
680.14	49.15
680.28	46.81
680.42	0.00
680.56	18.72
680.70	23.41
680.83	81.92
680.97	79.58
681.11	72.56
681.25	30.43
681.39	0.00
681.52	0.00
681.66	28.09
681.80	0.00
681.94	0.00
682.07	35.11
682.21	51.49
682.35	28.09
682.49	46.81
682.62	23.41
682.76	11.70
682.90	0.00
683.04	42.13
683.17	23.41
683.31	0.00
683.45	49.15
683.59	0.00
683.72	37.45
683.86	0.00
684.00	37.45
684.13	100.64
684.27	46.81
684.41	16.38
684.55	46.81
684.68	86.60
684.82	16.38
684.96	14.04
685.09	0.00
685.23	0.00
685.37	65.54
685.50	63.19
685.64	9.36
685.78	0.00
685.91	2.34
686.05	100.64
686.19	44.47
686.32	16.38
686.46	58.51
686.60	77.24
686.73	91.28
686.87	51.49
687.01	93.62
687.14	7.02
687.28	65.54
687.42	9.36
687.55	46.81
687.69	42.13
687.82	42.13
687.96	37.45
688.10	65.54
688.23	39.79
688.37	4.68
688.50	0.00
688.64	11.70
688.78	2.34
688.91	0.00
689.05	0.00
689.18	44.47
689.32	21.06
689.46	32.77
689.59	110.01
689.73	0.00
689.86	14.04
690.00	42.13
690.13	46.81
690.27	93.62
690.41	0.00
690.54	60.85
690.68	32.77
690.81	2.34
690.95	30.43
691.08	21.06
691.22	63.19
691.35	23.41
691.49	23.41
691.62	11.70
691.76	2.34
691.89	32.77
692.03	0.00
692.16	88.94
692.30	39.79
692.43	49.15
692.57	58.51
692.70	0.00
692.84	2.34
692.97	21.06
693.11	0.00
693.24	9.36
693.38	0.00
693.51	46.81
693.65	42.13
693.78	30.43
693.92	18.72
694.05	60.85
694.19	72.56
694.32	56.17
694.45	2.34
694.59	4.68
694.72	70.22
694.86	46.81
694.99	74.90
695.13	42.13
695.26	18.72
695.39	46.81
695.53	51.49
695.66	32.77
695.80	84.26
695.93	35.11
696.07	56.17
696.20	0.00
696.33	56.17
696.47	0.00
696.60	79.58
696.73	84.26
696.87	46.81
697.00	65.54
697.14	14.04
697.27	0.00
697.40	16.38
697.54	0.00
697.67	30.43
697.80	84.26
697.94	67.88
698.07	32.77
698.21	28.09
698.34	0.00
698.47	0.00
698.61	32.77
698.74	21.06
698.87	0.00
699.01	14.04
699.14	117.03
699.27	0.00
699.40	14.04
699.54	42.13
699.67	63.19
699.80	0.00
699.94	0.00
700.07	70.22
700.20	58.51
700.34	95.96
700.47	53.83
700.60	0.00
700.73	86.60
700.87	30.43
701.00	44.47
701.13	0.00
701.26	0.00
701.40	4.68
701.53	93.62
701.66	0.00
701.79	23.41
701.93	86.60
702.06	51.49
702.19	0.00
702.32	91.28
702.46	14.04
702.59	0.00
702.72	23.41
702.85	0.00
702.99	28.09
703.12	21.06
703.25	30.43
703.38	70.22
703.51	56.17
703.65	51.49
703.78	9.36
703.91	23.41
704.04	0.00
704.17	16.38
704.31	0.00
704.44	86.60
704.57	37.45
704.70	4.68
704.83	86.60
704.96	49.15
705.10	30.43
705.23	0.00
>>>>>End Processed Spectral Data<<<<<
