SpectraSuite Data File
++++++++++++++++++++++++++++++++++++
Date: Fri Oct 04 12:13:32 GMT-05:00 2013
User: price-jones
Dark Spectrum Present: No
Reference Spectrum Present: No
Number of Sampled Component Spectra: 1
Spectrometers: USB2+H05261
Integration Time (usec): 10000 (USB2+H05261)
Spectra Averaged: 1 (USB2+H05261)
Boxcar Smoothing: 0 (USB2+H05261)
Correct for Electrical Dark: No (USB2+H05261)
Strobe/Lamp Enabled: No (USB2+H05261)
Correct for Detector Non-linearity: No (USB2+H05261)
Correct for Stray Light: No (USB2+H05261)
Number of Pixels in Processed Spectrum: 2048
>>>>>Begin Processed Spectral Data<<<<<
365.73	0.00
365.92	0.00
366.12	0.00
366.32	0.00
366.52	0.00
366.72	0.00
366.91	0.00
367.11	0.00
367.31	0.00
367.51	0.00
367.70	0.00
367.90	0.00
368.10	0.00
368.30	0.00
368.49	0.00
368.69	0.00
368.89	0.00
369.09	0.00
369.28	0.00
369.48	0.00
369.68	0.00
369.87	0.00
370.07	0.00
370.27	0.00
370.47	0.00
370.66	0.00
370.86	0.00
371.06	0.00
371.25	60.85
371.45	0.00
371.65	0.00
371.84	39.79
372.04	0.00
372.24	21.06
372.44	67.88
372.63	49.15
372.83	0.00
373.03	46.81
373.22	0.00
373.42	4.68
373.62	0.00
373.81	7.02
374.01	0.00
374.21	0.00
374.40	32.77
374.60	21.06
374.79	21.06
374.99	0.00
375.19	0.00
375.38	18.72
375.58	88.94
375.78	0.00
375.97	60.85
376.17	32.77
376.37	0.00
376.56	0.00
376.76	16.38
376.95	0.00
377.15	0.00
377.35	131.07
377.54	0.00
377.74	0.00
377.93	0.00
378.13	25.75
378.33	14.04
378.52	70.22
378.72	14.04
378.91	58.51
379.11	42.13
379.31	16.38
379.50	74.90
379.70	67.88
379.89	18.72
380.09	0.00
380.28	0.00
380.48	0.00
380.68	0.00
380.87	9.36
381.07	51.49
381.26	0.00
381.46	0.00
381.65	0.00
381.85	0.00
382.04	2.34
382.24	46.81
382.43	58.51
382.63	56.17
382.83	9.36
383.02	0.00
383.22	14.04
383.41	28.09
383.61	42.13
383.80	0.00
384.00	0.00
384.19	2.34
384.39	58.51
384.58	67.88
384.78	0.00
384.97	0.00
385.17	42.13
385.36	95.96
385.56	18.72
385.75	0.00
385.95	0.00
386.14	0.00
386.34	23.41
386.53	42.13
386.72	21.06
386.92	32.77
387.11	67.88
387.31	51.49
387.50	49.15
387.70	74.90
387.89	81.92
388.09	0.00
388.28	25.75
388.48	14.04
388.67	0.00
388.86	37.45
389.06	0.00
389.25	0.00
389.45	37.45
389.64	30.43
389.84	46.81
390.03	0.00
390.22	25.75
390.42	23.41
390.61	0.00
390.81	0.00
391.00	0.00
391.19	0.00
391.39	18.72
391.58	18.72
391.78	0.00
391.97	0.00
392.16	28.09
392.36	74.90
392.55	0.00
392.75	42.13
392.94	39.79
393.13	51.49
393.33	23.41
393.52	49.15
393.71	0.00
393.91	63.19
394.10	56.17
394.29	0.00
394.49	28.09
394.68	44.47
394.88	93.62
395.07	25.75
395.26	0.00
395.46	11.70
395.65	28.09
395.84	9.36
396.04	4.68
396.23	0.00
396.42	0.00
396.62	32.77
396.81	0.00
397.00	0.00
397.19	30.43
397.39	23.41
397.58	0.00
397.77	0.00
397.97	32.77
398.16	105.32
398.35	0.00
398.55	39.79
398.74	4.68
398.93	28.09
399.12	0.00
399.32	16.38
399.51	0.00
399.70	63.19
399.90	84.26
400.09	84.26
400.28	72.56
400.47	0.00
400.67	56.17
400.86	67.88
401.05	18.72
401.24	65.54
401.44	44.47
401.63	74.90
401.82	70.22
402.01	0.00
402.21	63.19
402.40	0.00
402.59	35.11
402.78	23.41
402.97	37.45
403.17	56.17
403.36	42.13
403.55	0.00
403.74	98.30
403.93	28.09
404.13	53.83
404.32	44.47
404.51	4.68
404.70	0.00
404.89	0.00
405.09	44.47
405.28	35.11
405.47	30.43
405.66	0.00
405.85	18.72
406.05	30.43
406.24	0.00
406.43	11.70
406.62	0.00
406.81	21.06
407.00	0.00
407.20	0.00
407.39	11.70
407.58	23.41
407.77	18.72
407.96	11.70
408.15	14.04
408.34	65.54
408.54	72.56
408.73	4.68
408.92	0.00
409.11	58.51
409.30	28.09
409.49	14.04
409.68	0.00
409.87	51.49
410.07	0.00
410.26	42.13
410.45	65.54
410.64	74.90
410.83	0.00
411.02	53.83
411.21	16.38
411.40	86.60
411.59	14.04
411.78	23.41
411.98	0.00
412.17	25.75
412.36	11.70
412.55	84.26
412.74	44.47
412.93	0.00
413.12	65.54
413.31	9.36
413.50	37.45
413.69	35.11
413.88	7.02
414.07	0.00
414.26	0.00
414.45	14.04
414.64	0.00
414.83	30.43
415.02	0.00
415.22	0.00
415.41	30.43
415.60	4.68
415.79	14.04
415.98	11.70
416.17	7.02
416.36	46.81
416.55	65.54
416.74	25.75
416.93	42.13
417.12	16.38
417.31	0.00
417.50	63.19
417.69	7.02
417.88	0.00
418.07	21.06
418.26	147.45
418.45	0.00
418.64	23.41
418.83	18.72
419.02	0.00
419.21	0.00
419.39	0.00
419.58	9.36
419.77	0.00
419.96	0.00
420.15	37.45
420.34	56.17
420.53	0.00
420.72	0.00
420.91	37.45
421.10	42.13
421.29	25.75
421.48	49.15
421.67	32.77
421.86	163.84
422.05	0.00
422.24	35.11
422.43	32.77
422.61	14.04
422.80	0.00
422.99	14.04
423.18	0.00
423.37	56.17
423.56	0.00
423.75	14.04
423.94	25.75
424.13	30.43
424.32	58.51
424.50	9.36
424.69	100.64
424.88	0.00
425.07	60.85
425.26	58.51
425.45	102.98
425.64	49.15
425.83	4.68
426.01	65.54
426.20	0.00
426.39	81.92
426.58	39.79
426.77	32.77
426.96	25.75
427.15	18.72
427.33	77.24
427.52	84.26
427.71	32.77
427.90	9.36
428.09	53.83
428.28	11.70
428.46	74.90
428.65	46.81
428.84	67.88
429.03	0.00
429.22	81.92
429.40	53.83
429.59	35.11
429.78	37.45
429.97	11.70
430.16	0.00
430.34	0.00
430.53	14.04
430.72	44.47
430.91	0.00
431.10	0.00
431.28	44.47
431.47	7.02
431.66	23.41
431.85	0.00
432.03	35.11
432.22	65.54
432.41	79.58
432.60	0.00
432.79	23.41
432.97	14.04
433.16	77.24
433.35	39.79
433.54	18.72
433.72	11.70
433.91	0.00
434.10	11.70
434.28	18.72
434.47	25.75
434.66	0.00
434.85	23.41
435.03	0.00
435.22	77.24
435.41	98.30
435.59	112.35
435.78	30.43
435.97	0.00
436.16	46.81
436.34	49.15
436.53	51.49
436.72	58.51
436.90	67.88
437.09	53.83
437.28	14.04
437.46	9.36
437.65	0.00
437.84	23.41
438.02	37.45
438.21	30.43
438.40	32.77
438.58	0.00
438.77	0.00
438.96	9.36
439.14	77.24
439.33	35.11
439.52	65.54
439.70	18.72
439.89	56.17
440.08	46.81
440.26	0.00
440.45	79.58
440.63	107.66
440.82	9.36
441.01	16.38
441.19	93.62
441.38	56.17
441.57	11.70
441.75	21.06
441.94	86.60
442.12	74.90
442.31	67.88
442.50	18.72
442.68	25.75
442.87	9.36
443.05	60.85
443.24	30.43
443.43	21.06
443.61	25.75
443.80	23.41
443.98	56.17
444.17	18.72
444.35	72.56
444.54	93.62
444.73	95.96
444.91	0.00
445.10	0.00
445.28	56.17
445.47	21.06
445.65	42.13
445.84	25.75
446.02	0.00
446.21	0.00
446.39	14.04
446.58	142.77
446.77	58.51
446.95	11.70
447.14	35.11
447.32	16.38
447.51	95.96
447.69	58.51
447.88	70.22
448.06	39.79
448.25	49.15
448.43	110.01
448.62	7.02
448.80	30.43
448.99	74.90
449.17	65.54
449.36	37.45
449.54	0.00
449.73	81.92
449.91	0.00
450.10	51.49
450.28	28.09
450.46	0.00
450.65	81.92
450.83	18.72
451.02	0.00
451.20	42.13
451.39	63.19
451.57	56.17
451.76	0.00
451.94	49.15
452.13	79.58
452.31	84.26
452.49	91.28
452.68	0.00
452.86	60.85
453.05	102.98
453.23	28.09
453.42	14.04
453.60	63.19
453.78	0.00
453.97	51.49
454.15	16.38
454.34	42.13
454.52	51.49
454.70	53.83
454.89	117.03
455.07	44.47
455.26	74.90
455.44	18.72
455.62	46.81
455.81	0.00
455.99	4.68
456.17	25.75
456.36	49.15
456.54	93.62
456.73	84.26
456.91	112.35
457.09	112.35
457.28	84.26
457.46	14.04
457.64	30.43
457.83	81.92
458.01	0.00
458.19	56.17
458.38	16.38
458.56	67.88
458.74	0.00
458.93	11.70
459.11	25.75
459.29	44.47
459.48	51.49
459.66	91.28
459.84	56.17
460.03	39.79
460.21	0.00
460.39	39.79
460.57	11.70
460.76	56.17
460.94	25.75
461.12	51.49
461.31	121.71
461.49	0.00
461.67	4.68
461.85	74.90
462.04	0.00
462.22	149.79
462.40	37.45
462.59	32.77
462.77	49.15
462.95	81.92
463.13	0.00
463.32	9.36
463.50	7.02
463.68	46.81
463.86	84.26
464.05	14.04
464.23	53.83
464.41	72.56
464.59	91.28
464.78	0.00
464.96	0.00
465.14	0.00
465.32	35.11
465.50	0.00
465.69	67.88
465.87	0.00
466.05	42.13
466.23	37.45
466.41	72.56
466.60	25.75
466.78	112.35
466.96	63.19
467.14	0.00
467.32	28.09
467.51	63.19
467.69	18.72
467.87	72.56
468.05	2.34
468.23	35.11
468.41	2.34
468.60	0.00
468.78	4.68
468.96	7.02
469.14	46.81
469.32	25.75
469.50	0.00
469.69	88.94
469.87	16.38
470.05	72.56
470.23	9.36
470.41	81.92
470.59	9.36
470.77	39.79
470.95	0.00
471.14	35.11
471.32	4.68
471.50	32.77
471.68	112.35
471.86	72.56
472.04	18.72
472.22	0.00
472.40	35.11
472.58	35.11
472.77	0.00
472.95	60.85
473.13	0.00
473.31	0.00
473.49	37.45
473.67	53.83
473.85	0.00
474.03	0.00
474.21	0.00
474.39	44.47
474.57	121.71
474.75	121.71
474.93	65.54
475.12	9.36
475.30	14.04
475.48	67.88
475.66	32.77
475.84	46.81
476.02	11.70
476.20	46.81
476.38	0.00
476.56	18.72
476.74	60.85
476.92	39.79
477.10	0.00
477.28	128.73
477.46	14.04
477.64	42.13
477.82	9.36
478.00	0.00
478.18	60.85
478.36	46.81
478.54	0.00
478.72	63.19
478.90	14.04
479.08	102.98
479.26	77.24
479.44	65.54
479.62	0.00
479.80	46.81
479.98	30.43
480.16	58.51
480.34	58.51
480.52	0.00
480.70	107.66
480.88	77.24
481.06	21.06
481.24	21.06
481.41	72.56
481.59	2.34
481.77	0.00
481.95	51.49
482.13	79.58
482.31	53.83
482.49	49.15
482.67	74.90
482.85	28.09
483.03	23.41
483.21	32.77
483.39	39.79
483.57	7.02
483.74	42.13
483.92	2.34
484.10	51.49
484.28	51.49
484.46	65.54
484.64	72.56
484.82	25.75
485.00	14.04
485.18	11.70
485.35	39.79
485.53	28.09
485.71	0.00
485.89	46.81
486.07	93.62
486.25	72.56
486.43	53.83
486.61	23.41
486.78	21.06
486.96	21.06
487.14	98.30
487.32	0.00
487.50	25.75
487.68	77.24
487.85	44.47
488.03	60.85
488.21	18.72
488.39	0.00
488.57	9.36
488.75	18.72
488.92	105.32
489.10	21.06
489.28	58.51
489.46	0.00
489.64	95.96
489.81	58.51
489.99	39.79
490.17	72.56
490.35	0.00
490.53	37.45
490.70	44.47
490.88	84.26
491.06	35.11
491.24	63.19
491.41	102.98
491.59	16.38
491.77	0.00
491.95	18.72
492.13	9.36
492.30	60.85
492.48	32.77
492.66	0.00
492.84	23.41
493.01	0.00
493.19	0.00
493.37	39.79
493.54	32.77
493.72	16.38
493.90	30.43
494.08	86.60
494.25	56.17
494.43	14.04
494.61	67.88
494.79	28.09
494.96	0.00
495.14	28.09
495.32	23.41
495.49	49.15
495.67	51.49
495.85	37.45
496.02	67.88
496.20	32.77
496.38	23.41
496.55	0.00
496.73	0.00
496.91	32.77
497.09	0.00
497.26	37.45
497.44	14.04
497.62	51.49
497.79	0.00
497.97	28.09
498.14	77.24
498.32	60.85
498.50	44.47
498.67	35.11
498.85	16.38
499.03	46.81
499.20	42.13
499.38	21.06
499.56	0.00
499.73	107.66
499.91	77.24
500.08	49.15
500.26	79.58
500.44	0.00
500.61	30.43
500.79	56.17
500.97	84.26
501.14	51.49
501.32	18.72
501.49	107.66
501.67	0.00
501.84	65.54
502.02	53.83
502.20	18.72
502.37	0.00
502.55	0.00
502.72	28.09
502.90	0.00
503.07	102.98
503.25	30.43
503.43	0.00
503.60	93.62
503.78	44.47
503.95	0.00
504.13	58.51
504.30	18.72
504.48	0.00
504.65	32.77
504.83	107.66
505.01	0.00
505.18	0.00
505.36	44.47
505.53	42.13
505.71	60.85
505.88	93.62
506.06	77.24
506.23	18.72
506.41	21.06
506.58	65.54
506.76	98.30
506.93	70.22
507.11	53.83
507.28	74.90
507.46	0.00
507.63	84.26
507.81	46.81
507.98	44.47
508.16	0.00
508.33	37.45
508.50	0.00
508.68	37.45
508.85	0.00
509.03	16.38
509.20	65.54
509.38	93.62
509.55	53.83
509.73	70.22
509.90	16.38
510.08	2.34
510.25	30.43
510.42	21.06
510.60	25.75
510.77	65.54
510.95	56.17
511.12	0.00
511.30	25.75
511.47	0.00
511.64	7.02
511.82	74.90
511.99	84.26
512.17	30.43
512.34	44.47
512.51	32.77
512.69	42.13
512.86	28.09
513.04	0.00
513.21	46.81
513.38	7.02
513.56	37.45
513.73	30.43
513.90	46.81
514.08	0.00
514.25	81.92
514.43	84.26
514.60	30.43
514.77	79.58
514.95	84.26
515.12	67.88
515.29	44.47
515.47	84.26
515.64	100.64
515.81	23.41
515.99	42.13
516.16	37.45
516.33	46.81
516.51	0.00
516.68	9.36
516.85	18.72
517.03	81.92
517.20	16.38
517.37	32.77
517.54	49.15
517.72	39.79
517.89	42.13
518.06	72.56
518.24	14.04
518.41	7.02
518.58	11.70
518.75	0.00
518.93	0.00
519.10	51.49
519.27	44.47
519.45	0.00
519.62	39.79
519.79	39.79
519.96	49.15
520.14	86.60
520.31	74.90
520.48	63.19
520.65	128.73
520.83	44.47
521.00	79.58
521.17	21.06
521.34	0.00
521.52	100.64
521.69	102.98
521.86	77.24
522.03	0.00
522.20	14.04
522.38	56.17
522.55	51.49
522.72	70.22
522.89	37.45
523.07	14.04
523.24	35.11
523.41	32.77
523.58	74.90
523.75	25.75
523.92	138.09
524.10	60.85
524.27	67.88
524.44	65.54
524.61	28.09
524.78	53.83
524.96	30.43
525.13	0.00
525.30	2.34
525.47	0.00
525.64	58.51
525.81	28.09
525.98	28.09
526.16	37.45
526.33	0.00
526.50	77.24
526.67	58.51
526.84	11.70
527.01	86.60
527.18	105.32
527.36	25.75
527.53	65.54
527.70	0.00
527.87	88.94
528.04	149.79
528.21	49.15
528.38	0.00
528.55	65.54
528.72	0.00
528.89	58.51
529.07	56.17
529.24	32.77
529.41	67.88
529.58	0.00
529.75	4.68
529.92	14.04
530.09	16.38
530.26	70.22
530.43	91.28
530.60	0.00
530.77	0.00
530.94	32.77
531.11	51.49
531.28	42.13
531.46	63.19
531.63	60.85
531.80	56.17
531.97	67.88
532.14	74.90
532.31	49.15
532.48	44.47
532.65	110.01
532.82	23.41
532.99	9.36
533.16	0.00
533.33	28.09
533.50	18.72
533.67	21.06
533.84	23.41
534.01	44.47
534.18	39.79
534.35	0.00
534.52	4.68
534.69	37.45
534.86	18.72
535.03	46.81
535.20	28.09
535.37	7.02
535.54	58.51
535.71	60.85
535.88	91.28
536.05	88.94
536.22	128.73
536.38	91.28
536.55	42.13
536.72	51.49
536.89	49.15
537.06	0.00
537.23	28.09
537.40	72.56
537.57	4.68
537.74	67.88
537.91	14.04
538.08	60.85
538.25	128.73
538.42	7.02
538.59	14.04
538.75	35.11
538.92	102.98
539.09	14.04
539.26	25.75
539.43	25.75
539.60	32.77
539.77	93.62
539.94	0.00
540.11	0.00
540.28	58.51
540.44	39.79
540.61	9.36
540.78	105.32
540.95	110.01
541.12	95.96
541.29	72.56
541.46	70.22
541.62	51.49
541.79	9.36
541.96	0.00
542.13	56.17
542.30	7.02
542.47	32.77
542.63	67.88
542.80	4.68
542.97	42.13
543.14	60.85
543.31	70.22
543.48	16.38
543.64	28.09
543.81	79.58
543.98	67.88
544.15	25.75
544.32	44.47
544.48	60.85
544.65	0.00
544.82	72.56
544.99	39.79
545.16	86.60
545.32	60.85
545.49	18.72
545.66	37.45
545.83	23.41
546.00	0.00
546.16	0.00
546.33	11.70
546.50	49.15
546.67	14.04
546.83	0.00
547.00	79.58
547.17	93.62
547.34	98.30
547.50	37.45
547.67	49.15
547.84	30.43
548.00	42.13
548.17	42.13
548.34	74.90
548.51	44.47
548.67	14.04
548.84	0.00
549.01	0.00
549.18	84.26
549.34	58.51
549.51	51.49
549.68	46.81
549.84	53.83
550.01	84.26
550.18	81.92
550.34	42.13
550.51	0.00
550.68	18.72
550.84	14.04
551.01	93.62
551.18	0.00
551.34	77.24
551.51	86.60
551.68	16.38
551.84	51.49
552.01	102.98
552.18	95.96
552.34	126.39
552.51	9.36
552.68	0.00
552.84	21.06
553.01	42.13
553.18	51.49
553.34	0.00
553.51	28.09
553.67	11.70
553.84	102.98
554.01	100.64
554.17	53.83
554.34	0.00
554.51	28.09
554.67	65.54
554.84	39.79
555.00	102.98
555.17	21.06
555.33	58.51
555.50	39.79
555.67	0.00
555.83	0.00
556.00	53.83
556.16	70.22
556.33	70.22
556.50	14.04
556.66	42.13
556.83	18.72
556.99	77.24
557.16	65.54
557.32	18.72
557.49	58.51
557.65	32.77
557.82	0.00
557.98	58.51
558.15	16.38
558.32	0.00
558.48	16.38
558.65	0.00
558.81	63.19
558.98	72.56
559.14	117.03
559.31	32.77
559.47	16.38
559.64	49.15
559.80	63.19
559.97	49.15
560.13	14.04
560.30	4.68
560.46	42.13
560.63	37.45
560.79	4.68
560.96	67.88
561.12	2.34
561.29	0.00
561.45	74.90
561.61	84.26
561.78	88.94
561.94	46.81
562.11	65.54
562.27	0.00
562.44	46.81
562.60	42.13
562.77	30.43
562.93	63.19
563.10	93.62
563.26	14.04
563.42	32.77
563.59	58.51
563.75	37.45
563.92	25.75
564.08	14.04
564.24	93.62
564.41	72.56
564.57	77.24
564.74	63.19
564.90	30.43
565.07	63.19
565.23	0.00
565.39	67.88
565.56	37.45
565.72	44.47
565.88	58.51
566.05	2.34
566.21	70.22
566.38	11.70
566.54	0.00
566.70	70.22
566.87	79.58
567.03	28.09
567.19	0.00
567.36	23.41
567.52	58.51
567.68	21.06
567.85	25.75
568.01	51.49
568.17	86.60
568.34	0.00
568.50	70.22
568.66	91.28
568.83	53.83
568.99	51.49
569.15	88.94
569.32	65.54
569.48	51.49
569.64	0.00
569.81	0.00
569.97	53.83
570.13	53.83
570.30	65.54
570.46	58.51
570.62	65.54
570.78	0.00
570.95	42.13
571.11	16.38
571.27	28.09
571.43	0.00
571.60	23.41
571.76	30.43
571.92	11.70
572.09	98.30
572.25	60.85
572.41	25.75
572.57	112.35
572.74	0.00
572.90	77.24
573.06	60.85
573.22	74.90
573.38	0.00
573.55	107.66
573.71	60.85
573.87	28.09
574.03	7.02
574.20	25.75
574.36	60.85
574.52	95.96
574.68	2.34
574.84	7.02
575.01	0.00
575.17	58.51
575.33	0.00
575.49	51.49
575.65	56.17
575.82	0.00
575.98	49.15
576.14	95.96
576.30	42.13
576.46	56.17
576.62	7.02
576.79	37.45
576.95	60.85
577.11	70.22
577.27	60.85
577.43	14.04
577.59	51.49
577.75	4.68
577.92	0.00
578.08	84.26
578.24	35.11
578.40	23.41
578.56	32.77
578.72	7.02
578.88	72.56
579.04	18.72
579.21	81.92
579.37	42.13
579.53	39.79
579.69	56.17
579.85	46.81
580.01	0.00
580.17	37.45
580.33	86.60
580.49	37.45
580.65	117.03
580.82	11.70
580.98	49.15
581.14	56.17
581.30	0.00
581.46	35.11
581.62	88.94
581.78	51.49
581.94	138.09
582.10	58.51
582.26	39.79
582.42	51.49
582.58	53.83
582.74	53.83
582.90	46.81
583.06	56.17
583.22	9.36
583.38	0.00
583.54	0.00
583.70	56.17
583.86	93.62
584.02	23.41
584.18	102.98
584.34	0.00
584.50	44.47
584.66	0.00
584.82	0.00
584.98	0.00
585.14	60.85
585.30	53.83
585.46	37.45
585.62	42.13
585.78	46.81
585.94	53.83
586.10	77.24
586.26	102.98
586.42	65.54
586.58	28.09
586.74	30.43
586.90	21.06
587.06	0.00
587.22	18.72
587.38	23.41
587.54	46.81
587.70	60.85
587.86	25.75
588.02	79.58
588.18	46.81
588.34	0.00
588.49	0.00
588.65	56.17
588.81	23.41
588.97	0.00
589.13	53.83
589.29	0.00
589.45	37.45
589.61	86.60
589.77	88.94
589.93	70.22
590.08	95.96
590.24	60.85
590.40	58.51
590.56	53.83
590.72	0.00
590.88	23.41
591.04	16.38
591.20	35.11
591.35	67.88
591.51	60.85
591.67	0.00
591.83	23.41
591.99	37.45
592.15	0.00
592.31	56.17
592.46	0.00
592.62	0.00
592.78	84.26
592.94	84.26
593.10	74.90
593.26	23.41
593.41	32.77
593.57	14.04
593.73	88.94
593.89	65.54
594.05	56.17
594.20	0.00
594.36	72.56
594.52	4.68
594.68	53.83
594.84	86.60
594.99	128.73
595.15	53.83
595.31	42.13
595.47	28.09
595.62	77.24
595.78	44.47
595.94	56.17
596.10	91.28
596.25	149.79
596.41	53.83
596.57	72.56
596.73	60.85
596.88	86.60
597.04	9.36
597.20	46.81
597.36	30.43
597.51	44.47
597.67	98.30
597.83	49.15
597.99	2.34
598.14	0.00
598.30	23.41
598.46	4.68
598.61	28.09
598.77	32.77
598.93	107.66
599.09	9.36
599.24	0.00
599.40	49.15
599.56	0.00
599.71	32.77
599.87	32.77
600.03	37.45
600.18	86.60
600.34	110.01
600.50	56.17
600.65	63.19
600.81	25.75
600.97	44.47
601.12	25.75
601.28	42.13
601.44	65.54
601.59	39.79
601.75	51.49
601.91	25.75
602.06	35.11
602.22	30.43
602.37	28.09
602.53	28.09
602.69	63.19
602.84	39.79
603.00	4.68
603.16	72.56
603.31	9.36
603.47	60.85
603.62	0.00
603.78	39.79
603.94	46.81
604.09	0.00
604.25	39.79
604.40	121.71
604.56	81.92
604.71	42.13
604.87	21.06
605.03	79.58
605.18	28.09
605.34	81.92
605.49	0.00
605.65	74.90
605.80	84.26
605.96	35.11
606.12	7.02
606.27	28.09
606.43	37.45
606.58	39.79
606.74	35.11
606.89	42.13
607.05	49.15
607.20	28.09
607.36	14.04
607.51	25.75
607.67	23.41
607.82	32.77
607.98	0.00
608.13	4.68
608.29	51.49
608.44	131.07
608.60	77.24
608.75	0.00
608.91	0.00
609.06	18.72
609.22	88.94
609.37	46.81
609.53	0.00
609.68	88.94
609.84	58.51
609.99	32.77
610.15	9.36
610.30	2.34
610.46	88.94
610.61	28.09
610.76	0.00
610.92	102.98
611.07	21.06
611.23	0.00
611.38	49.15
611.54	49.15
611.69	77.24
611.84	9.36
612.00	58.51
612.15	32.77
612.31	46.81
612.46	67.88
612.62	72.56
612.77	72.56
612.92	60.85
613.08	105.32
613.23	0.00
613.39	63.19
613.54	0.00
613.69	0.00
613.85	74.90
614.00	86.60
614.15	32.77
614.31	0.00
614.46	14.04
614.62	65.54
614.77	102.98
614.92	49.15
615.08	67.88
615.23	11.70
615.38	0.00
615.54	0.00
615.69	0.00
615.84	72.56
616.00	63.19
616.15	28.09
616.30	0.00
616.46	32.77
616.61	0.00
616.76	117.03
616.92	74.90
617.07	56.17
617.22	81.92
617.37	39.79
617.53	30.43
617.68	63.19
617.83	0.00
617.99	0.00
618.14	88.94
618.29	58.51
618.45	30.43
618.60	0.00
618.75	0.00
618.90	0.00
619.06	35.11
619.21	107.66
619.36	49.15
619.51	72.56
619.67	2.34
619.82	0.00
619.97	35.11
620.12	74.90
620.28	0.00
620.43	30.43
620.58	21.06
620.73	9.36
620.89	28.09
621.04	42.13
621.19	42.13
621.34	46.81
621.49	46.81
621.65	65.54
621.80	37.45
621.95	21.06
622.10	35.11
622.25	110.01
622.41	0.00
622.56	4.68
622.71	0.00
622.86	0.00
623.01	32.77
623.16	23.41
623.32	51.49
623.47	37.45
623.62	51.49
623.77	53.83
623.92	16.38
624.07	84.26
624.23	18.72
624.38	0.00
624.53	0.00
624.68	28.09
624.83	0.00
624.98	42.13
625.13	9.36
625.29	91.28
625.44	65.54
625.59	46.81
625.74	84.26
625.89	72.56
626.04	37.45
626.19	23.41
626.34	0.00
626.49	16.38
626.65	23.41
626.80	7.02
626.95	0.00
627.10	23.41
627.25	0.00
627.40	53.83
627.55	60.85
627.70	0.00
627.85	35.11
628.00	39.79
628.15	16.38
628.30	37.45
628.45	65.54
628.60	95.96
628.76	42.13
628.91	25.75
629.06	42.13
629.21	86.60
629.36	93.62
629.51	119.37
629.66	39.79
629.81	0.00
629.96	2.34
630.11	28.09
630.26	9.36
630.41	58.51
630.56	0.00
630.71	18.72
630.86	46.81
631.01	72.56
631.16	60.85
631.31	16.38
631.46	51.49
631.61	44.47
631.76	11.70
631.91	14.04
632.06	0.00
632.21	46.81
632.36	88.94
632.51	9.36
632.66	46.81
632.81	0.00
632.96	25.75
633.10	93.62
633.25	32.77
633.40	86.60
633.55	35.11
633.70	42.13
633.85	0.00
634.00	46.81
634.15	0.00
634.30	23.41
634.45	70.22
634.60	11.70
634.75	0.00
634.90	44.47
635.05	65.54
635.19	63.19
635.34	119.37
635.49	79.58
635.64	53.83
635.79	67.88
635.94	42.13
636.09	23.41
636.24	133.41
636.39	23.41
636.53	121.71
636.68	35.11
636.83	25.75
636.98	16.38
637.13	60.85
637.28	16.38
637.43	42.13
637.57	4.68
637.72	86.60
637.87	0.00
638.02	0.00
638.17	32.77
638.32	0.00
638.46	60.85
638.61	110.01
638.76	0.00
638.91	60.85
639.06	0.00
639.20	65.54
639.35	11.70
639.50	70.22
639.65	14.04
639.80	93.62
639.94	35.11
640.09	60.85
640.24	35.11
640.39	0.00
640.54	42.13
640.68	53.83
640.83	53.83
640.98	51.49
641.13	9.36
641.27	39.79
641.42	4.68
641.57	18.72
641.72	28.09
641.86	39.79
642.01	4.68
642.16	77.24
642.31	35.11
642.45	65.54
642.60	70.22
642.75	7.02
642.90	77.24
643.04	65.54
643.19	79.58
643.34	14.04
643.48	51.49
643.63	21.06
643.78	23.41
643.93	35.11
644.07	16.38
644.22	35.11
644.37	46.81
644.51	0.00
644.66	77.24
644.81	0.00
644.95	14.04
645.10	72.56
645.25	58.51
645.39	53.83
645.54	32.77
645.69	9.36
645.83	44.47
645.98	58.51
646.13	21.06
646.27	21.06
646.42	67.88
646.57	0.00
646.71	14.04
646.86	39.79
647.00	14.04
647.15	7.02
647.30	18.72
647.44	51.49
647.59	4.68
647.74	67.88
647.88	49.15
648.03	0.00
648.17	35.11
648.32	0.00
648.47	46.81
648.61	25.75
648.76	63.19
648.90	37.45
649.05	102.98
649.20	81.92
649.34	81.92
649.49	51.49
649.63	16.38
649.78	0.00
649.92	0.00
650.07	0.00
650.21	0.00
650.36	7.02
650.51	0.00
650.65	67.88
650.80	60.85
650.94	23.41
651.09	35.11
651.23	11.70
651.38	110.01
651.52	2.34
651.67	0.00
651.81	72.56
651.96	9.36
652.10	63.19
652.25	28.09
652.39	84.26
652.54	0.00
652.68	30.43
652.83	46.81
652.97	67.88
653.12	42.13
653.26	2.34
653.41	23.41
653.55	21.06
653.70	7.02
653.84	58.51
653.99	35.11
654.13	74.90
654.27	53.83
654.42	7.02
654.56	9.36
654.71	35.11
654.85	51.49
655.00	0.00
655.14	18.72
655.29	91.28
655.43	74.90
655.57	95.96
655.72	25.75
655.86	18.72
656.01	42.13
656.15	88.94
656.30	4.68
656.44	42.13
656.58	21.06
656.73	49.15
656.87	0.00
657.01	51.49
657.16	72.56
657.30	4.68
657.45	35.11
657.59	93.62
657.73	79.58
657.88	30.43
658.02	14.04
658.16	21.06
658.31	0.00
658.45	9.36
658.60	53.83
658.74	0.00
658.88	58.51
659.03	23.41
659.17	30.43
659.31	28.09
659.46	21.06
659.60	49.15
659.74	60.85
659.89	0.00
660.03	77.24
660.17	0.00
660.32	72.56
660.46	14.04
660.60	35.11
660.74	63.19
660.89	42.13
661.03	42.13
661.17	173.20
661.32	4.68
661.46	0.00
661.60	4.68
661.74	28.09
661.89	65.54
662.03	53.83
662.17	2.34
662.31	2.34
662.46	35.11
662.60	53.83
662.74	32.77
662.88	28.09
663.03	14.04
663.17	63.19
663.31	0.00
663.45	0.00
663.60	11.70
663.74	86.60
663.88	7.02
664.02	0.00
664.17	14.04
664.31	70.22
664.45	93.62
664.59	72.56
664.73	81.92
664.88	35.11
665.02	88.94
665.16	53.83
665.30	67.88
665.44	23.41
665.59	0.00
665.73	0.00
665.87	0.00
666.01	28.09
666.15	0.00
666.29	51.49
666.44	56.17
666.58	51.49
666.72	4.68
666.86	37.45
667.00	88.94
667.14	32.77
667.28	32.77
667.43	128.73
667.57	56.17
667.71	21.06
667.85	51.49
667.99	30.43
668.13	39.79
668.27	74.90
668.41	0.00
668.56	11.70
668.70	56.17
668.84	39.79
668.98	28.09
669.12	14.04
669.26	100.64
669.40	72.56
669.54	0.00
669.68	0.00
669.82	0.00
669.96	74.90
670.10	42.13
670.25	42.13
670.39	60.85
670.53	32.77
670.67	0.00
670.81	11.70
670.95	0.00
671.09	37.45
671.23	53.83
671.37	37.45
671.51	0.00
671.65	4.68
671.79	0.00
671.93	21.06
672.07	21.06
672.21	42.13
672.35	0.00
672.49	0.00
672.63	4.68
672.77	0.00
672.91	70.22
673.05	44.47
673.19	18.72
673.33	11.70
673.47	32.77
673.61	21.06
673.75	53.83
673.89	37.45
674.03	32.77
674.17	0.00
674.31	21.06
674.45	74.90
674.59	46.81
674.73	11.70
674.87	79.58
675.01	28.09
675.15	58.51
675.29	70.22
675.43	35.11
675.56	21.06
675.70	53.83
675.84	23.41
675.98	72.56
676.12	56.17
676.26	44.47
676.40	0.00
676.54	0.00
676.68	0.00
676.82	42.13
676.96	44.47
677.10	72.56
677.23	0.00
677.37	11.70
677.51	56.17
677.65	9.36
677.79	63.19
677.93	9.36
678.07	107.66
678.21	0.00
678.34	0.00
678.48	84.26
678.62	46.81
678.76	0.00
678.90	35.11
679.04	77.24
679.18	39.79
679.31	9.36
679.45	65.54
679.59	46.81
679.73	44.47
679.87	14.04
680.00	28.09
680.14	11.70
680.28	25.75
680.42	0.00
680.56	11.70
680.70	0.00
680.83	18.72
680.97	42.13
681.11	28.09
681.25	35.11
681.39	0.00
681.52	98.30
681.66	0.00
681.80	49.15
681.94	9.36
682.07	2.34
682.21	0.00
682.35	32.77
682.49	0.00
682.62	23.41
682.76	9.36
682.90	63.19
683.04	2.34
683.17	114.69
683.31	7.02
683.45	25.75
683.59	30.43
683.72	32.77
683.86	51.49
684.00	21.06
684.13	0.00
684.27	0.00
684.41	30.43
684.55	63.19
684.68	9.36
684.82	51.49
684.96	112.35
685.09	79.58
685.23	63.19
685.37	21.06
685.50	11.70
685.64	28.09
685.78	131.07
685.91	67.88
686.05	32.77
686.19	46.81
686.32	91.28
686.46	0.00
686.60	39.79
686.73	39.79
686.87	0.00
687.01	49.15
687.14	53.83
687.28	53.83
687.42	49.15
687.55	117.03
687.69	42.13
687.82	74.90
687.96	0.00
688.10	16.38
688.23	65.54
688.37	37.45
688.50	0.00
688.64	0.00
688.78	42.13
688.91	30.43
689.05	44.47
689.18	102.98
689.32	58.51
689.46	60.85
689.59	49.15
689.73	2.34
689.86	0.00
690.00	100.64
690.13	0.00
690.27	0.00
690.41	77.24
690.54	0.00
690.68	11.70
690.81	7.02
690.95	30.43
691.08	0.00
691.22	16.38
691.35	14.04
691.49	81.92
691.62	72.56
691.76	25.75
691.89	28.09
692.03	126.39
692.16	121.71
692.30	70.22
692.43	63.19
692.57	18.72
692.70	39.79
692.84	46.81
692.97	18.72
693.11	44.47
693.24	70.22
693.38	0.00
693.51	0.00
693.65	23.41
693.78	56.17
693.92	91.28
694.05	28.09
694.19	0.00
694.32	35.11
694.45	70.22
694.59	9.36
694.72	7.02
694.86	39.79
694.99	18.72
695.13	74.90
695.26	60.85
695.39	18.72
695.53	35.11
695.66	0.00
695.80	18.72
695.93	60.85
696.07	60.85
696.20	49.15
696.33	32.77
696.47	49.15
696.60	53.83
696.73	56.17
696.87	0.00
697.00	0.00
697.14	0.00
697.27	77.24
697.40	44.47
697.54	88.94
697.67	67.88
697.80	42.13
697.94	0.00
698.07	2.34
698.21	124.05
698.34	67.88
698.47	51.49
698.61	93.62
698.74	44.47
698.87	39.79
699.01	0.00
699.14	81.92
699.27	0.00
699.40	0.00
699.54	30.43
699.67	28.09
699.80	42.13
699.94	72.56
700.07	0.00
700.20	74.90
700.34	46.81
700.47	65.54
700.60	0.00
700.73	37.45
700.87	0.00
701.00	21.06
701.13	23.41
701.26	23.41
701.40	28.09
701.53	18.72
701.66	0.00
701.79	4.68
701.93	11.70
702.06	0.00
702.19	102.98
702.32	0.00
702.46	56.17
702.59	58.51
702.72	28.09
702.85	0.00
702.99	0.00
703.12	0.00
703.25	0.00
703.38	0.00
703.51	0.00
703.65	0.00
703.78	0.00
703.91	74.90
704.04	51.49
704.17	7.02
704.31	79.58
704.44	0.00
704.57	107.66
704.70	81.92
704.83	67.88
704.96	0.00
705.10	4.68
705.23	53.83
>>>>>End Processed Spectral Data<<<<<
