SpectraSuite Data File
++++++++++++++++++++++++++++++++++++
Date: Fri Oct 04 12:13:34 GMT-05:00 2013
User: price-jones
Dark Spectrum Present: No
Reference Spectrum Present: No
Number of Sampled Component Spectra: 1
Spectrometers: USB2+H05261
Integration Time (usec): 10000 (USB2+H05261)
Spectra Averaged: 1 (USB2+H05261)
Boxcar Smoothing: 0 (USB2+H05261)
Correct for Electrical Dark: No (USB2+H05261)
Strobe/Lamp Enabled: No (USB2+H05261)
Correct for Detector Non-linearity: No (USB2+H05261)
Correct for Stray Light: No (USB2+H05261)
Number of Pixels in Processed Spectrum: 2048
>>>>>Begin Processed Spectral Data<<<<<
365.73	4.68
365.92	4.68
366.12	4.68
366.32	0.00
366.52	0.00
366.72	0.00
366.91	0.00
367.11	0.00
367.31	0.00
367.51	0.00
367.70	0.00
367.90	0.00
368.10	0.00
368.30	0.00
368.49	0.00
368.69	0.00
368.89	0.00
369.09	0.00
369.28	0.00
369.48	0.00
369.68	0.00
369.87	0.00
370.07	0.00
370.27	0.00
370.47	0.00
370.66	0.00
370.86	0.00
371.06	0.00
371.25	0.00
371.45	0.00
371.65	0.00
371.84	0.00
372.04	2.34
372.24	0.00
372.44	11.70
372.63	4.68
372.83	81.92
373.03	25.75
373.22	25.75
373.42	18.72
373.62	0.00
373.81	0.00
374.01	60.85
374.21	16.38
374.40	0.00
374.60	2.34
374.79	35.11
374.99	0.00
375.19	39.79
375.38	44.47
375.58	65.54
375.78	35.11
375.97	39.79
376.17	70.22
376.37	11.70
376.56	0.00
376.76	2.34
376.95	0.00
377.15	35.11
377.35	0.00
377.54	21.06
377.74	0.00
377.93	67.88
378.13	32.77
378.33	0.00
378.52	49.15
378.72	0.00
378.91	49.15
379.11	28.09
379.31	49.15
379.50	0.00
379.70	42.13
379.89	32.77
380.09	0.00
380.28	7.02
380.48	49.15
380.68	46.81
380.87	0.00
381.07	37.45
381.26	46.81
381.46	9.36
381.65	0.00
381.85	0.00
382.04	32.77
382.24	0.00
382.43	60.85
382.63	30.43
382.83	25.75
383.02	65.54
383.22	0.00
383.41	16.38
383.61	0.00
383.80	2.34
384.00	53.83
384.19	0.00
384.39	51.49
384.58	0.00
384.78	30.43
384.97	0.00
385.17	32.77
385.36	0.00
385.56	35.11
385.75	77.24
385.95	42.13
386.14	49.15
386.34	0.00
386.53	65.54
386.72	0.00
386.92	35.11
387.11	44.47
387.31	0.00
387.50	18.72
387.70	58.51
387.89	0.00
388.09	0.00
388.28	60.85
388.48	0.00
388.67	9.36
388.86	21.06
389.06	0.00
389.25	0.00
389.45	46.81
389.64	0.00
389.84	25.75
390.03	56.17
390.22	0.00
390.42	2.34
390.61	0.00
390.81	0.00
391.00	0.00
391.19	46.81
391.39	0.00
391.58	25.75
391.78	0.00
391.97	0.00
392.16	0.00
392.36	39.79
392.55	14.04
392.75	30.43
392.94	0.00
393.13	0.00
393.33	14.04
393.52	35.11
393.71	84.26
393.91	56.17
394.10	25.75
394.29	18.72
394.49	0.00
394.68	49.15
394.88	23.41
395.07	42.13
395.26	4.68
395.46	21.06
395.65	0.00
395.84	11.70
396.04	0.00
396.23	77.24
396.42	102.98
396.62	65.54
396.81	4.68
397.00	37.45
397.19	74.90
397.39	63.19
397.58	70.22
397.77	39.79
397.97	112.35
398.16	77.24
398.35	60.85
398.55	0.00
398.74	0.00
398.93	72.56
399.12	28.09
399.32	14.04
399.51	46.81
399.70	53.83
399.90	46.81
400.09	0.00
400.28	65.54
400.47	37.45
400.67	25.75
400.86	25.75
401.05	100.64
401.24	9.36
401.44	0.00
401.63	14.04
401.82	42.13
402.01	0.00
402.21	7.02
402.40	39.79
402.59	0.00
402.78	53.83
402.97	14.04
403.17	42.13
403.36	35.11
403.55	0.00
403.74	0.00
403.93	60.85
404.13	72.56
404.32	0.00
404.51	2.34
404.70	0.00
404.89	4.68
405.09	86.60
405.28	23.41
405.47	4.68
405.66	65.54
405.85	63.19
406.05	28.09
406.24	0.00
406.43	42.13
406.62	14.04
406.81	79.58
407.00	4.68
407.20	128.73
407.39	70.22
407.58	49.15
407.77	2.34
407.96	70.22
408.15	18.72
408.34	11.70
408.54	32.77
408.73	2.34
408.92	9.36
409.11	23.41
409.30	56.17
409.49	46.81
409.68	9.36
409.87	51.49
410.07	9.36
410.26	25.75
410.45	0.00
410.64	0.00
410.83	0.00
411.02	16.38
411.21	81.92
411.40	0.00
411.59	51.49
411.78	65.54
411.98	42.13
412.17	95.96
412.36	46.81
412.55	21.06
412.74	0.00
412.93	2.34
413.12	0.00
413.31	79.58
413.50	42.13
413.69	21.06
413.88	18.72
414.07	25.75
414.26	23.41
414.45	0.00
414.64	37.45
414.83	53.83
415.02	114.69
415.22	25.75
415.41	0.00
415.60	0.00
415.79	35.11
415.98	70.22
416.17	0.00
416.36	49.15
416.55	72.56
416.74	63.19
416.93	0.00
417.12	0.00
417.31	88.94
417.50	32.77
417.69	9.36
417.88	60.85
418.07	0.00
418.26	42.13
418.45	37.45
418.64	0.00
418.83	25.75
419.02	0.00
419.21	46.81
419.39	18.72
419.58	0.00
419.77	9.36
419.96	37.45
420.15	0.00
420.34	0.00
420.53	25.75
420.72	0.00
420.91	49.15
421.10	0.00
421.29	0.00
421.48	30.43
421.67	4.68
421.86	0.00
422.05	0.00
422.24	21.06
422.43	58.51
422.61	0.00
422.80	0.00
422.99	0.00
423.18	0.00
423.37	72.56
423.56	0.00
423.75	70.22
423.94	0.00
424.13	42.13
424.32	53.83
424.50	88.94
424.69	79.58
424.88	100.64
425.07	0.00
425.26	0.00
425.45	0.00
425.64	63.19
425.83	37.45
426.01	159.16
426.20	2.34
426.39	35.11
426.58	49.15
426.77	49.15
426.96	0.00
427.15	70.22
427.33	25.75
427.52	0.00
427.71	0.00
427.90	42.13
428.09	0.00
428.28	14.04
428.46	0.00
428.65	9.36
428.84	7.02
429.03	0.00
429.22	72.56
429.40	42.13
429.59	44.47
429.78	0.00
429.97	53.83
430.16	105.32
430.34	65.54
430.53	2.34
430.72	37.45
430.91	21.06
431.10	70.22
431.28	14.04
431.47	25.75
431.66	4.68
431.85	14.04
432.03	86.60
432.22	49.15
432.41	67.88
432.60	0.00
432.79	44.47
432.97	91.28
433.16	0.00
433.35	0.00
433.54	16.38
433.72	63.19
433.91	74.90
434.10	81.92
434.28	16.38
434.47	65.54
434.66	93.62
434.85	65.54
435.03	49.15
435.22	60.85
435.41	74.90
435.59	28.09
435.78	56.17
435.97	9.36
436.16	32.77
436.34	46.81
436.53	58.51
436.72	0.00
436.90	39.79
437.09	0.00
437.28	86.60
437.46	0.00
437.65	37.45
437.84	65.54
438.02	23.41
438.21	9.36
438.40	56.17
438.58	39.79
438.77	0.00
438.96	11.70
439.14	0.00
439.33	30.43
439.52	63.19
439.70	28.09
439.89	0.00
440.08	0.00
440.26	58.51
440.45	18.72
440.63	58.51
440.82	23.41
441.01	74.90
441.19	18.72
441.38	93.62
441.57	30.43
441.75	49.15
441.94	32.77
442.12	79.58
442.31	86.60
442.50	25.75
442.68	112.35
442.87	53.83
443.05	25.75
443.24	0.00
443.43	58.51
443.61	65.54
443.80	32.77
443.98	51.49
444.17	23.41
444.35	0.00
444.54	0.00
444.73	60.85
444.91	30.43
445.10	7.02
445.28	11.70
445.47	65.54
445.65	42.13
445.84	81.92
446.02	35.11
446.21	4.68
446.39	56.17
446.58	23.41
446.77	11.70
446.95	0.00
447.14	21.06
447.32	72.56
447.51	28.09
447.69	56.17
447.88	81.92
448.06	95.96
448.25	51.49
448.43	4.68
448.62	77.24
448.80	14.04
448.99	63.19
449.17	58.51
449.36	39.79
449.54	51.49
449.73	28.09
449.91	44.47
450.10	11.70
450.28	39.79
450.46	11.70
450.65	63.19
450.83	28.09
451.02	23.41
451.20	84.26
451.39	32.77
451.57	74.90
451.76	42.13
451.94	58.51
452.13	44.47
452.31	60.85
452.49	91.28
452.68	0.00
452.86	32.77
453.05	14.04
453.23	51.49
453.42	0.00
453.60	16.38
453.78	9.36
453.97	28.09
454.15	18.72
454.34	79.58
454.52	28.09
454.70	117.03
454.89	9.36
455.07	0.00
455.26	32.77
455.44	88.94
455.62	58.51
455.81	84.26
455.99	98.30
456.17	25.75
456.36	42.13
456.54	86.60
456.73	32.77
456.91	105.32
457.09	98.30
457.28	63.19
457.46	77.24
457.64	60.85
457.83	35.11
458.01	95.96
458.19	46.81
458.38	25.75
458.56	39.79
458.74	21.06
458.93	74.90
459.11	56.17
459.29	0.00
459.48	0.00
459.66	56.17
459.84	23.41
460.03	14.04
460.21	11.70
460.39	35.11
460.57	46.81
460.76	0.00
460.94	23.41
461.12	51.49
461.31	7.02
461.49	67.88
461.67	67.88
461.85	46.81
462.04	44.47
462.22	81.92
462.40	0.00
462.59	18.72
462.77	84.26
462.95	39.79
463.13	25.75
463.32	107.66
463.50	0.00
463.68	11.70
463.86	0.00
464.05	58.51
464.23	74.90
464.41	4.68
464.59	93.62
464.78	0.00
464.96	37.45
465.14	56.17
465.32	67.88
465.50	42.13
465.69	63.19
465.87	42.13
466.05	30.43
466.23	81.92
466.41	35.11
466.60	79.58
466.78	0.00
466.96	42.13
467.14	72.56
467.32	32.77
467.51	58.51
467.69	35.11
467.87	37.45
468.05	67.88
468.23	23.41
468.41	53.83
468.60	0.00
468.78	37.45
468.96	65.54
469.14	0.00
469.32	58.51
469.50	46.81
469.69	53.83
469.87	74.90
470.05	65.54
470.23	46.81
470.41	46.81
470.59	98.30
470.77	0.00
470.95	37.45
471.14	0.00
471.32	35.11
471.50	0.00
471.68	14.04
471.86	42.13
472.04	28.09
472.22	121.71
472.40	77.24
472.58	105.32
472.77	70.22
472.95	9.36
473.13	49.15
473.31	65.54
473.49	4.68
473.67	58.51
473.85	81.92
474.03	46.81
474.21	37.45
474.39	30.43
474.57	86.60
474.75	18.72
474.93	9.36
475.12	0.00
475.30	28.09
475.48	53.83
475.66	28.09
475.84	25.75
476.02	37.45
476.20	16.38
476.38	51.49
476.56	0.00
476.74	70.22
476.92	39.79
477.10	4.68
477.28	0.00
477.46	14.04
477.64	39.79
477.82	42.13
478.00	63.19
478.18	35.11
478.36	72.56
478.54	63.19
478.72	21.06
478.90	49.15
479.08	44.47
479.26	65.54
479.44	25.75
479.62	63.19
479.80	74.90
479.98	0.00
480.16	53.83
480.34	0.00
480.52	60.85
480.70	114.69
480.88	0.00
481.06	74.90
481.24	14.04
481.41	98.30
481.59	4.68
481.77	58.51
481.95	131.07
482.13	100.64
482.31	21.06
482.49	0.00
482.67	37.45
482.85	79.58
483.03	95.96
483.21	74.90
483.39	105.32
483.57	58.51
483.74	30.43
483.92	0.00
484.10	37.45
484.28	16.38
484.46	30.43
484.64	44.47
484.82	16.38
485.00	86.60
485.18	35.11
485.35	53.83
485.53	72.56
485.71	46.81
485.89	23.41
486.07	25.75
486.25	56.17
486.43	58.51
486.61	88.94
486.78	0.00
486.96	86.60
487.14	119.37
487.32	0.00
487.50	42.13
487.68	110.01
487.85	67.88
488.03	30.43
488.21	42.13
488.39	46.81
488.57	63.19
488.75	0.00
488.92	112.35
489.10	79.58
489.28	28.09
489.46	77.24
489.64	14.04
489.81	4.68
489.99	65.54
490.17	44.47
490.35	44.47
490.53	39.79
490.70	44.47
490.88	28.09
491.06	4.68
491.24	14.04
491.41	77.24
491.59	49.15
491.77	0.00
491.95	16.38
492.13	74.90
492.30	35.11
492.48	32.77
492.66	37.45
492.84	67.88
493.01	60.85
493.19	77.24
493.37	49.15
493.54	110.01
493.72	0.00
493.90	77.24
494.08	145.11
494.25	105.32
494.43	42.13
494.61	18.72
494.79	74.90
494.96	56.17
495.14	0.00
495.32	72.56
495.49	0.00
495.67	60.85
495.85	53.83
496.02	42.13
496.20	74.90
496.38	74.90
496.55	49.15
496.73	44.47
496.91	98.30
497.09	37.45
497.26	81.92
497.44	0.00
497.62	100.64
497.79	28.09
497.97	86.60
498.14	0.00
498.32	42.13
498.50	28.09
498.67	46.81
498.85	88.94
499.03	100.64
499.20	37.45
499.38	93.62
499.56	102.98
499.73	91.28
499.91	39.79
500.08	81.92
500.26	32.77
500.44	98.30
500.61	53.83
500.79	35.11
500.97	46.81
501.14	25.75
501.32	86.60
501.49	0.00
501.67	72.56
501.84	18.72
502.02	142.77
502.20	119.37
502.37	32.77
502.55	70.22
502.72	0.00
502.90	30.43
503.07	18.72
503.25	100.64
503.43	46.81
503.60	107.66
503.78	84.26
503.95	88.94
504.13	72.56
504.30	44.47
504.48	51.49
504.65	28.09
504.83	14.04
505.01	65.54
505.18	21.06
505.36	37.45
505.53	42.13
505.71	93.62
505.88	107.66
506.06	28.09
506.23	79.58
506.41	84.26
506.58	0.00
506.76	35.11
506.93	30.43
507.11	65.54
507.28	56.17
507.46	42.13
507.63	74.90
507.81	51.49
507.98	86.60
508.16	46.81
508.33	88.94
508.50	49.15
508.68	77.24
508.85	46.81
509.03	46.81
509.20	9.36
509.38	30.43
509.55	44.47
509.73	95.96
509.90	81.92
510.08	35.11
510.25	0.00
510.42	39.79
510.60	58.51
510.77	30.43
510.95	0.00
511.12	0.00
511.30	0.00
511.47	98.30
511.64	84.26
511.82	86.60
511.99	102.98
512.17	32.77
512.34	7.02
512.51	11.70
512.69	100.64
512.86	56.17
513.04	81.92
513.21	30.43
513.38	0.00
513.56	91.28
513.73	67.88
513.90	14.04
514.08	72.56
514.25	58.51
514.43	60.85
514.60	84.26
514.77	56.17
514.95	0.00
515.12	58.51
515.29	0.00
515.47	46.81
515.64	91.28
515.81	37.45
515.99	81.92
516.16	30.43
516.33	35.11
516.51	11.70
516.68	79.58
516.85	156.82
517.03	70.22
517.20	9.36
517.37	46.81
517.54	32.77
517.72	23.41
517.89	39.79
518.06	39.79
518.24	86.60
518.41	91.28
518.58	74.90
518.75	81.92
518.93	18.72
519.10	63.19
519.27	67.88
519.45	46.81
519.62	72.56
519.79	0.00
519.96	0.00
520.14	93.62
520.31	86.60
520.48	30.43
520.65	67.88
520.83	98.30
521.00	7.02
521.17	60.85
521.34	42.13
521.52	37.45
521.69	0.00
521.86	67.88
522.03	112.35
522.20	81.92
522.38	65.54
522.55	28.09
522.72	133.41
522.89	93.62
523.07	44.47
523.24	42.13
523.41	14.04
523.58	32.77
523.75	0.00
523.92	70.22
524.10	53.83
524.27	67.88
524.44	67.88
524.61	128.73
524.78	86.60
524.96	145.11
525.13	74.90
525.30	110.01
525.47	91.28
525.64	51.49
525.81	81.92
525.98	65.54
526.16	44.47
526.33	28.09
526.50	67.88
526.67	124.05
526.84	0.00
527.01	88.94
527.18	65.54
527.36	72.56
527.53	11.70
527.70	28.09
527.87	23.41
528.04	72.56
528.21	30.43
528.38	39.79
528.55	124.05
528.72	42.13
528.89	44.47
529.07	9.36
529.24	105.32
529.41	49.15
529.58	65.54
529.75	135.75
529.92	32.77
530.09	39.79
530.26	98.30
530.43	67.88
530.60	23.41
530.77	100.64
530.94	49.15
531.11	98.30
531.28	35.11
531.46	98.30
531.63	44.47
531.80	126.39
531.97	110.01
532.14	23.41
532.31	121.71
532.48	58.51
532.65	67.88
532.82	77.24
532.99	51.49
533.16	21.06
533.33	37.45
533.50	56.17
533.67	100.64
533.84	58.51
534.01	119.37
534.18	84.26
534.35	18.72
534.52	4.68
534.69	58.51
534.86	21.06
535.03	4.68
535.20	37.45
535.37	63.19
535.54	65.54
535.71	58.51
535.88	46.81
536.05	30.43
536.22	49.15
536.38	67.88
536.55	42.13
536.72	30.43
536.89	11.70
537.06	67.88
537.23	53.83
537.40	74.90
537.57	9.36
537.74	65.54
537.91	14.04
538.08	74.90
538.25	14.04
538.42	81.92
538.59	35.11
538.75	74.90
538.92	9.36
539.09	0.00
539.26	51.49
539.43	102.98
539.60	124.05
539.77	81.92
539.94	65.54
540.11	105.32
540.28	46.81
540.44	72.56
540.61	0.00
540.78	86.60
540.95	77.24
541.12	32.77
541.29	30.43
541.46	51.49
541.62	110.01
541.79	42.13
541.96	28.09
542.13	35.11
542.30	46.81
542.47	0.00
542.63	56.17
542.80	119.37
542.97	79.58
543.14	91.28
543.31	102.98
543.48	18.72
543.64	35.11
543.81	67.88
543.98	18.72
544.15	39.79
544.32	77.24
544.48	110.01
544.65	131.07
544.82	65.54
544.99	46.81
545.16	35.11
545.32	23.41
545.49	30.43
545.66	0.00
545.83	65.54
546.00	74.90
546.16	46.81
546.33	0.00
546.50	74.90
546.67	23.41
546.83	79.58
547.00	88.94
547.17	0.00
547.34	63.19
547.50	4.68
547.67	91.28
547.84	30.43
548.00	58.51
548.17	60.85
548.34	28.09
548.51	0.00
548.67	49.15
548.84	18.72
549.01	74.90
549.18	30.43
549.34	42.13
549.51	70.22
549.68	81.92
549.84	9.36
550.01	11.70
550.18	133.41
550.34	74.90
550.51	86.60
550.68	102.98
550.84	98.30
551.01	163.84
551.18	142.77
551.34	28.09
551.51	49.15
551.68	39.79
551.84	16.38
552.01	23.41
552.18	49.15
552.34	60.85
552.51	9.36
552.68	28.09
552.84	63.19
553.01	30.43
553.18	86.60
553.34	88.94
553.51	0.00
553.67	88.94
553.84	65.54
554.01	49.15
554.17	37.45
554.34	56.17
554.51	4.68
554.67	51.49
554.84	65.54
555.00	81.92
555.17	53.83
555.33	21.06
555.50	49.15
555.67	58.51
555.83	18.72
556.00	74.90
556.16	42.13
556.33	131.07
556.50	65.54
556.66	42.13
556.83	39.79
556.99	39.79
557.16	9.36
557.32	0.00
557.49	0.00
557.65	88.94
557.82	145.11
557.98	112.35
558.15	35.11
558.32	4.68
558.48	51.49
558.65	44.47
558.81	35.11
558.98	42.13
559.14	60.85
559.31	7.02
559.47	56.17
559.64	102.98
559.80	93.62
559.97	58.51
560.13	98.30
560.30	100.64
560.46	114.69
560.63	28.09
560.79	21.06
560.96	91.28
561.12	77.24
561.29	42.13
561.45	77.24
561.61	28.09
561.78	79.58
561.94	77.24
562.11	58.51
562.27	32.77
562.44	53.83
562.60	56.17
562.77	58.51
562.93	9.36
563.10	105.32
563.26	42.13
563.42	0.00
563.59	74.90
563.75	7.02
563.92	72.56
564.08	46.81
564.24	46.81
564.41	9.36
564.57	30.43
564.74	39.79
564.90	18.72
565.07	25.75
565.23	49.15
565.39	30.43
565.56	49.15
565.72	86.60
565.88	11.70
566.05	46.81
566.21	107.66
566.38	49.15
566.54	35.11
566.70	21.06
566.87	65.54
567.03	4.68
567.19	88.94
567.36	4.68
567.52	60.85
567.68	42.13
567.85	72.56
568.01	30.43
568.17	2.34
568.34	65.54
568.50	0.00
568.66	16.38
568.83	91.28
568.99	86.60
569.15	42.13
569.32	84.26
569.48	46.81
569.64	46.81
569.81	18.72
569.97	77.24
570.13	124.05
570.30	0.00
570.46	16.38
570.62	37.45
570.78	30.43
570.95	42.13
571.11	23.41
571.27	77.24
571.43	67.88
571.60	72.56
571.76	67.88
571.92	53.83
572.09	30.43
572.25	49.15
572.41	51.49
572.57	44.47
572.74	112.35
572.90	32.77
573.06	0.00
573.22	110.01
573.38	72.56
573.55	32.77
573.71	0.00
573.87	28.09
574.03	0.00
574.20	70.22
574.36	91.28
574.52	70.22
574.68	51.49
574.84	51.49
575.01	84.26
575.17	112.35
575.33	51.49
575.49	32.77
575.65	77.24
575.82	60.85
575.98	74.90
576.14	105.32
576.30	7.02
576.46	2.34
576.62	4.68
576.79	67.88
576.95	77.24
577.11	88.94
577.27	67.88
577.43	88.94
577.59	112.35
577.75	72.56
577.92	131.07
578.08	74.90
578.24	0.00
578.40	65.54
578.56	67.88
578.72	114.69
578.88	0.00
579.04	84.26
579.21	72.56
579.37	11.70
579.53	46.81
579.69	35.11
579.85	18.72
580.01	28.09
580.17	9.36
580.33	9.36
580.49	77.24
580.65	0.00
580.82	46.81
580.98	30.43
581.14	0.00
581.30	37.45
581.46	9.36
581.62	86.60
581.78	28.09
581.94	81.92
582.10	42.13
582.26	70.22
582.42	16.38
582.58	9.36
582.74	49.15
582.90	107.66
583.06	18.72
583.22	0.00
583.38	0.00
583.54	0.00
583.70	4.68
583.86	117.03
584.02	63.19
584.18	114.69
584.34	133.41
584.50	0.00
584.66	39.79
584.82	39.79
584.98	46.81
585.14	25.75
585.30	0.00
585.46	60.85
585.62	35.11
585.78	0.00
585.94	79.58
586.10	98.30
586.26	177.88
586.42	65.54
586.58	42.13
586.74	23.41
586.90	49.15
587.06	51.49
587.22	16.38
587.38	84.26
587.54	114.69
587.70	35.11
587.86	74.90
588.02	16.38
588.18	44.47
588.34	56.17
588.49	0.00
588.65	0.00
588.81	0.00
588.97	25.75
589.13	46.81
589.29	14.04
589.45	56.17
589.61	98.30
589.77	30.43
589.93	93.62
590.08	21.06
590.24	107.66
590.40	100.64
590.56	28.09
590.72	44.47
590.88	93.62
591.04	58.51
591.20	79.58
591.35	25.75
591.51	46.81
591.67	25.75
591.83	100.64
591.99	72.56
592.15	70.22
592.31	21.06
592.46	7.02
592.62	23.41
592.78	81.92
592.94	0.00
593.10	65.54
593.26	28.09
593.41	46.81
593.57	135.75
593.73	9.36
593.89	39.79
594.05	0.00
594.20	14.04
594.36	91.28
594.52	86.60
594.68	28.09
594.84	58.51
594.99	107.66
595.15	53.83
595.31	88.94
595.47	81.92
595.62	56.17
595.78	21.06
595.94	156.82
596.10	74.90
596.25	39.79
596.41	0.00
596.57	67.88
596.73	0.00
596.88	51.49
597.04	93.62
597.20	65.54
597.36	4.68
597.51	107.66
597.67	70.22
597.83	53.83
597.99	58.51
598.14	105.32
598.30	93.62
598.46	53.83
598.61	93.62
598.77	30.43
598.93	0.00
599.09	53.83
599.24	65.54
599.40	4.68
599.56	77.24
599.71	0.00
599.87	102.98
600.03	70.22
600.18	56.17
600.34	30.43
600.50	145.11
600.65	37.45
600.81	98.30
600.97	51.49
601.12	77.24
601.28	51.49
601.44	56.17
601.59	18.72
601.75	32.77
601.91	14.04
602.06	42.13
602.22	119.37
602.37	124.05
602.53	16.38
602.69	0.00
602.84	0.00
603.00	28.09
603.16	4.68
603.31	86.60
603.47	58.51
603.62	102.98
603.78	56.17
603.94	107.66
604.09	35.11
604.25	51.49
604.40	51.49
604.56	72.56
604.71	21.06
604.87	0.00
605.03	0.00
605.18	21.06
605.34	7.02
605.49	44.47
605.65	98.30
605.80	77.24
605.96	32.77
606.12	44.47
606.27	42.13
606.43	74.90
606.58	7.02
606.74	14.04
606.89	39.79
607.05	35.11
607.20	35.11
607.36	44.47
607.51	18.72
607.67	74.90
607.82	25.75
607.98	72.56
608.13	39.79
608.29	21.06
608.44	2.34
608.60	51.49
608.75	63.19
608.91	65.54
609.06	70.22
609.22	93.62
609.37	114.69
609.53	100.64
609.68	74.90
609.84	81.92
609.99	65.54
610.15	98.30
610.30	65.54
610.46	58.51
610.61	51.49
610.76	42.13
610.92	107.66
611.07	60.85
611.23	0.00
611.38	86.60
611.54	11.70
611.69	37.45
611.84	142.77
612.00	46.81
612.15	11.70
612.31	81.92
612.46	124.05
612.62	77.24
612.77	112.35
612.92	53.83
613.08	21.06
613.23	21.06
613.39	70.22
613.54	56.17
613.69	74.90
613.85	63.19
614.00	81.92
614.15	60.85
614.31	135.75
614.46	49.15
614.62	72.56
614.77	74.90
614.92	9.36
615.08	49.15
615.23	95.96
615.38	86.60
615.54	128.73
615.69	44.47
615.84	0.00
616.00	51.49
616.15	49.15
616.30	60.85
616.46	0.00
616.61	65.54
616.76	105.32
616.92	58.51
617.07	56.17
617.22	100.64
617.37	70.22
617.53	60.85
617.68	74.90
617.83	37.45
617.99	131.07
618.14	18.72
618.29	67.88
618.45	102.98
618.60	37.45
618.75	53.83
618.90	44.47
619.06	74.90
619.21	39.79
619.36	88.94
619.51	0.00
619.67	63.19
619.82	114.69
619.97	4.68
620.12	93.62
620.28	18.72
620.43	135.75
620.58	35.11
620.73	72.56
620.89	21.06
621.04	102.98
621.19	28.09
621.34	110.01
621.49	121.71
621.65	58.51
621.80	56.17
621.95	0.00
622.10	37.45
622.25	16.38
622.41	119.37
622.56	35.11
622.71	105.32
622.86	74.90
623.01	0.00
623.16	60.85
623.32	67.88
623.47	42.13
623.62	58.51
623.77	46.81
623.92	23.41
624.07	51.49
624.23	72.56
624.38	98.30
624.53	39.79
624.68	81.92
624.83	58.51
624.98	42.13
625.13	35.11
625.29	23.41
625.44	60.85
625.59	58.51
625.74	88.94
625.89	81.92
626.04	60.85
626.19	46.81
626.34	16.38
626.49	112.35
626.65	88.94
626.80	91.28
626.95	56.17
627.10	74.90
627.25	88.94
627.40	74.90
627.55	93.62
627.70	32.77
627.85	49.15
628.00	91.28
628.15	18.72
628.30	77.24
628.45	53.83
628.60	30.43
628.76	51.49
628.91	37.45
629.06	35.11
629.21	32.77
629.36	37.45
629.51	0.00
629.66	0.00
629.81	46.81
629.96	58.51
630.11	18.72
630.26	84.26
630.41	91.28
630.56	32.77
630.71	91.28
630.86	42.13
631.01	63.19
631.16	107.66
631.31	32.77
631.46	49.15
631.61	0.00
631.76	28.09
631.91	58.51
632.06	0.00
632.21	142.77
632.36	114.69
632.51	88.94
632.66	77.24
632.81	70.22
632.96	77.24
633.10	56.17
633.25	81.92
633.40	51.49
633.55	46.81
633.70	30.43
633.85	11.70
634.00	131.07
634.15	21.06
634.30	39.79
634.45	44.47
634.60	86.60
634.75	149.79
634.90	30.43
635.05	124.05
635.19	79.58
635.34	67.88
635.49	25.75
635.64	30.43
635.79	67.88
635.94	126.39
636.09	114.69
636.24	77.24
636.39	88.94
636.53	131.07
636.68	72.56
636.83	63.19
636.98	14.04
637.13	32.77
637.28	56.17
637.43	65.54
637.57	72.56
637.72	81.92
637.87	65.54
638.02	51.49
638.17	81.92
638.32	65.54
638.46	93.62
638.61	67.88
638.76	60.85
638.91	49.15
639.06	88.94
639.20	21.06
639.35	32.77
639.50	28.09
639.65	14.04
639.80	79.58
639.94	30.43
640.09	51.49
640.24	65.54
640.39	70.22
640.54	98.30
640.68	51.49
640.83	88.94
640.98	135.75
641.13	32.77
641.27	30.43
641.42	42.13
641.57	23.41
641.72	30.43
641.86	0.00
642.01	49.15
642.16	117.03
642.31	56.17
642.45	63.19
642.60	44.47
642.75	77.24
642.90	63.19
643.04	88.94
643.19	121.71
643.34	51.49
643.48	42.13
643.63	84.26
643.78	67.88
643.93	51.49
644.07	65.54
644.22	114.69
644.37	79.58
644.51	32.77
644.66	93.62
644.81	21.06
644.95	30.43
645.10	110.01
645.25	147.45
645.39	74.90
645.54	46.81
645.69	107.66
645.83	121.71
645.98	74.90
646.13	81.92
646.27	140.43
646.42	7.02
646.57	63.19
646.71	32.77
646.86	44.47
647.00	63.19
647.15	32.77
647.30	0.00
647.44	77.24
647.59	44.47
647.74	67.88
647.88	51.49
648.03	121.71
648.17	77.24
648.32	65.54
648.47	93.62
648.61	86.60
648.76	28.09
648.90	81.92
649.05	72.56
649.20	18.72
649.34	84.26
649.49	93.62
649.63	4.68
649.78	81.92
649.92	0.00
650.07	0.00
650.21	0.00
650.36	28.09
650.51	112.35
650.65	0.00
650.80	102.98
650.94	23.41
651.09	65.54
651.23	18.72
651.38	0.00
651.52	63.19
651.67	0.00
651.81	39.79
651.96	81.92
652.10	42.13
652.25	53.83
652.39	65.54
652.54	35.11
652.68	44.47
652.83	49.15
652.97	49.15
653.12	37.45
653.26	0.00
653.41	56.17
653.55	51.49
653.70	0.00
653.84	51.49
653.99	0.00
654.13	60.85
654.27	42.13
654.42	51.49
654.56	30.43
654.71	93.62
654.85	175.54
655.00	79.58
655.14	0.00
655.29	16.38
655.43	28.09
655.57	16.38
655.72	84.26
655.86	35.11
656.01	110.01
656.15	46.81
656.30	44.47
656.44	86.60
656.58	11.70
656.73	60.85
656.87	37.45
657.01	70.22
657.16	65.54
657.30	7.02
657.45	21.06
657.59	0.00
657.73	32.77
657.88	63.19
658.02	70.22
658.16	0.00
658.31	32.77
658.45	44.47
658.60	39.79
658.74	114.69
658.88	173.20
659.03	60.85
659.17	60.85
659.31	49.15
659.46	0.00
659.60	88.94
659.74	9.36
659.89	67.88
660.03	81.92
660.17	56.17
660.32	0.00
660.46	46.81
660.60	46.81
660.74	18.72
660.89	93.62
661.03	70.22
661.17	35.11
661.32	79.58
661.46	105.32
661.60	0.00
661.74	56.17
661.89	16.38
662.03	67.88
662.17	77.24
662.31	44.47
662.46	30.43
662.60	86.60
662.74	53.83
662.88	65.54
663.03	51.49
663.17	79.58
663.31	60.85
663.45	2.34
663.60	11.70
663.74	0.00
663.88	0.00
664.02	39.79
664.17	44.47
664.31	42.13
664.45	0.00
664.59	25.75
664.73	39.79
664.88	74.90
665.02	30.43
665.16	58.51
665.30	58.51
665.44	30.43
665.59	49.15
665.73	91.28
665.87	2.34
666.01	0.00
666.15	9.36
666.29	0.00
666.44	39.79
666.58	56.17
666.72	0.00
666.86	124.05
667.00	86.60
667.14	18.72
667.28	32.77
667.43	56.17
667.57	21.06
667.71	4.68
667.85	25.75
667.99	49.15
668.13	7.02
668.27	11.70
668.41	53.83
668.56	67.88
668.70	18.72
668.84	35.11
668.98	119.37
669.12	18.72
669.26	88.94
669.40	42.13
669.54	91.28
669.68	67.88
669.82	21.06
669.96	42.13
670.10	72.56
670.25	84.26
670.39	21.06
670.53	60.85
670.67	37.45
670.81	25.75
670.95	44.47
671.09	44.47
671.23	37.45
671.37	42.13
671.51	35.11
671.65	95.96
671.79	86.60
671.93	0.00
672.07	63.19
672.21	0.00
672.35	81.92
672.49	0.00
672.63	0.00
672.77	44.47
672.91	44.47
673.05	117.03
673.19	51.49
673.33	84.26
673.47	51.49
673.61	25.75
673.75	107.66
673.89	0.00
674.03	46.81
674.17	0.00
674.31	21.06
674.45	56.17
674.59	23.41
674.73	39.79
674.87	79.58
675.01	0.00
675.15	91.28
675.29	119.37
675.43	93.62
675.56	58.51
675.70	32.77
675.84	63.19
675.98	46.81
676.12	0.00
676.26	46.81
676.40	28.09
676.54	18.72
676.68	0.00
676.82	14.04
676.96	81.92
677.10	37.45
677.23	72.56
677.37	42.13
677.51	63.19
677.65	32.77
677.79	30.43
677.93	65.54
678.07	63.19
678.21	77.24
678.34	60.85
678.48	44.47
678.62	49.15
678.76	56.17
678.90	58.51
679.04	72.56
679.18	25.75
679.31	42.13
679.45	32.77
679.59	9.36
679.73	81.92
679.87	58.51
680.00	37.45
680.14	0.00
680.28	56.17
680.42	2.34
680.56	30.43
680.70	77.24
680.83	18.72
680.97	63.19
681.11	86.60
681.25	74.90
681.39	88.94
681.52	56.17
681.66	0.00
681.80	44.47
681.94	2.34
682.07	0.00
682.21	51.49
682.35	58.51
682.49	84.26
682.62	74.90
682.76	67.88
682.90	65.54
683.04	53.83
683.17	105.32
683.31	0.00
683.45	46.81
683.59	37.45
683.72	21.06
683.86	74.90
684.00	0.00
684.13	60.85
684.27	84.26
684.41	0.00
684.55	56.17
684.68	58.51
684.82	44.47
684.96	7.02
685.09	56.17
685.23	0.00
685.37	0.00
685.50	21.06
685.64	88.94
685.78	44.47
685.91	53.83
686.05	126.39
686.19	30.43
686.32	70.22
686.46	0.00
686.60	46.81
686.73	58.51
686.87	11.70
687.01	30.43
687.14	0.00
687.28	23.41
687.42	21.06
687.55	0.00
687.69	46.81
687.82	0.00
687.96	63.19
688.10	56.17
688.23	70.22
688.37	11.70
688.50	0.00
688.64	79.58
688.78	95.96
688.91	49.15
689.05	0.00
689.18	28.09
689.32	0.00
689.46	42.13
689.59	0.00
689.73	72.56
689.86	0.00
690.00	18.72
690.13	0.00
690.27	65.54
690.41	0.00
690.54	9.36
690.68	4.68
690.81	0.00
690.95	58.51
691.08	23.41
691.22	23.41
691.35	32.77
691.49	51.49
691.62	32.77
691.76	70.22
691.89	63.19
692.03	25.75
692.16	0.00
692.30	60.85
692.43	58.51
692.57	51.49
692.70	79.58
692.84	65.54
692.97	70.22
693.11	35.11
693.24	0.00
693.38	72.56
693.51	28.09
693.65	46.81
693.78	0.00
693.92	2.34
694.05	0.00
694.19	4.68
694.32	42.13
694.45	0.00
694.59	51.49
694.72	98.30
694.86	74.90
694.99	51.49
695.13	53.83
695.26	56.17
695.39	30.43
695.53	35.11
695.66	0.00
695.80	70.22
695.93	100.64
696.07	49.15
696.20	14.04
696.33	4.68
696.47	18.72
696.60	14.04
696.73	65.54
696.87	16.38
697.00	74.90
697.14	39.79
697.27	4.68
697.40	37.45
697.54	0.00
697.67	56.17
697.80	28.09
697.94	42.13
698.07	0.00
698.21	4.68
698.34	0.00
698.47	63.19
698.61	77.24
698.74	81.92
698.87	81.92
699.01	51.49
699.14	2.34
699.27	0.00
699.40	7.02
699.54	16.38
699.67	32.77
699.80	11.70
699.94	11.70
700.07	51.49
700.20	21.06
700.34	84.26
700.47	0.00
700.60	0.00
700.73	18.72
700.87	63.19
701.00	53.83
701.13	0.00
701.26	0.00
701.40	23.41
701.53	53.83
701.66	72.56
701.79	117.03
701.93	0.00
702.06	42.13
702.19	86.60
702.32	0.00
702.46	23.41
702.59	46.81
702.72	77.24
702.85	0.00
702.99	79.58
703.12	70.22
703.25	84.26
703.38	11.70
703.51	72.56
703.65	16.38
703.78	18.72
703.91	51.49
704.04	25.75
704.17	18.72
704.31	9.36
704.44	25.75
704.57	11.70
704.70	14.04
704.83	65.54
704.96	35.11
705.10	16.38
705.23	42.13
>>>>>End Processed Spectral Data<<<<<
