SpectraSuite Data File
++++++++++++++++++++++++++++++++++++
Date: Fri Oct 04 12:13:28 GMT-05:00 2013
User: price-jones
Dark Spectrum Present: No
Reference Spectrum Present: No
Number of Sampled Component Spectra: 1
Spectrometers: USB2+H05261
Integration Time (usec): 10000 (USB2+H05261)
Spectra Averaged: 1 (USB2+H05261)
Boxcar Smoothing: 0 (USB2+H05261)
Correct for Electrical Dark: No (USB2+H05261)
Strobe/Lamp Enabled: No (USB2+H05261)
Correct for Detector Non-linearity: No (USB2+H05261)
Correct for Stray Light: No (USB2+H05261)
Number of Pixels in Processed Spectrum: 2048
>>>>>Begin Processed Spectral Data<<<<<
365.73	0.00
365.92	0.00
366.12	0.00
366.32	0.00
366.52	0.00
366.72	0.00
366.91	0.00
367.11	0.00
367.31	0.00
367.51	0.00
367.70	0.00
367.90	0.00
368.10	0.00
368.30	0.00
368.49	0.00
368.69	0.00
368.89	0.00
369.09	0.00
369.28	0.00
369.48	0.00
369.68	0.00
369.87	0.00
370.07	0.00
370.27	0.00
370.47	0.00
370.66	0.00
370.86	0.00
371.06	0.00
371.25	0.00
371.45	0.00
371.65	0.00
371.84	0.00
372.04	0.00
372.24	9.36
372.44	2.34
372.63	0.00
372.83	53.83
373.03	14.04
373.22	0.00
373.42	0.00
373.62	9.36
373.81	65.54
374.01	21.06
374.21	79.58
374.40	0.00
374.60	39.79
374.79	9.36
374.99	14.04
375.19	16.38
375.38	72.56
375.58	46.81
375.78	0.00
375.97	44.47
376.17	9.36
376.37	0.00
376.56	0.00
376.76	35.11
376.95	14.04
377.15	7.02
377.35	72.56
377.54	39.79
377.74	7.02
377.93	49.15
378.13	0.00
378.33	0.00
378.52	0.00
378.72	18.72
378.91	0.00
379.11	0.00
379.31	21.06
379.50	9.36
379.70	0.00
379.89	0.00
380.09	11.70
380.28	60.85
380.48	0.00
380.68	102.98
380.87	23.41
381.07	0.00
381.26	0.00
381.46	46.81
381.65	0.00
381.85	0.00
382.04	0.00
382.24	42.13
382.43	0.00
382.63	0.00
382.83	0.00
383.02	49.15
383.22	0.00
383.41	14.04
383.61	4.68
383.80	0.00
384.00	16.38
384.19	2.34
384.39	42.13
384.58	9.36
384.78	18.72
384.97	65.54
385.17	25.75
385.36	7.02
385.56	100.64
385.75	51.49
385.95	35.11
386.14	30.43
386.34	63.19
386.53	0.00
386.72	7.02
386.92	42.13
387.11	14.04
387.31	11.70
387.50	4.68
387.70	42.13
387.89	7.02
388.09	0.00
388.28	44.47
388.48	65.54
388.67	16.38
388.86	35.11
389.06	0.00
389.25	11.70
389.45	77.24
389.64	4.68
389.84	0.00
390.03	14.04
390.22	28.09
390.42	0.00
390.61	42.13
390.81	0.00
391.00	32.77
391.19	16.38
391.39	0.00
391.58	39.79
391.78	72.56
391.97	16.38
392.16	0.00
392.36	11.70
392.55	0.00
392.75	0.00
392.94	25.75
393.13	2.34
393.33	49.15
393.52	0.00
393.71	35.11
393.91	0.00
394.10	0.00
394.29	72.56
394.49	65.54
394.68	0.00
394.88	0.00
395.07	0.00
395.26	4.68
395.46	37.45
395.65	0.00
395.84	74.90
396.04	60.85
396.23	7.02
396.42	0.00
396.62	46.81
396.81	23.41
397.00	58.51
397.19	37.45
397.39	0.00
397.58	35.11
397.77	0.00
397.97	0.00
398.16	0.00
398.35	39.79
398.55	16.38
398.74	7.02
398.93	81.92
399.12	18.72
399.32	93.62
399.51	23.41
399.70	37.45
399.90	0.00
400.09	0.00
400.28	51.49
400.47	0.00
400.67	0.00
400.86	0.00
401.05	32.77
401.24	42.13
401.44	0.00
401.63	107.66
401.82	25.75
402.01	14.04
402.21	2.34
402.40	28.09
402.59	0.00
402.78	0.00
402.97	0.00
403.17	32.77
403.36	60.85
403.55	9.36
403.74	56.17
403.93	32.77
404.13	21.06
404.32	39.79
404.51	0.00
404.70	16.38
404.89	93.62
405.09	51.49
405.28	0.00
405.47	77.24
405.66	0.00
405.85	60.85
406.05	67.88
406.24	39.79
406.43	32.77
406.62	28.09
406.81	70.22
407.00	56.17
407.20	0.00
407.39	49.15
407.58	70.22
407.77	58.51
407.96	16.38
408.15	74.90
408.34	9.36
408.54	7.02
408.73	14.04
408.92	11.70
409.11	88.94
409.30	0.00
409.49	11.70
409.68	39.79
409.87	14.04
410.07	0.00
410.26	14.04
410.45	4.68
410.64	44.47
410.83	32.77
411.02	53.83
411.21	39.79
411.40	23.41
411.59	0.00
411.78	0.00
411.98	0.00
412.17	7.02
412.36	0.00
412.55	7.02
412.74	16.38
412.93	77.24
413.12	30.43
413.31	30.43
413.50	0.00
413.69	14.04
413.88	30.43
414.07	11.70
414.26	49.15
414.45	4.68
414.64	7.02
414.83	0.00
415.02	23.41
415.22	0.00
415.41	35.11
415.60	0.00
415.79	18.72
415.98	0.00
416.17	56.17
416.36	28.09
416.55	11.70
416.74	0.00
416.93	16.38
417.12	30.43
417.31	86.60
417.50	51.49
417.69	0.00
417.88	28.09
418.07	72.56
418.26	81.92
418.45	21.06
418.64	37.45
418.83	126.39
419.02	53.83
419.21	46.81
419.39	0.00
419.58	21.06
419.77	112.35
419.96	23.41
420.15	21.06
420.34	9.36
420.53	0.00
420.72	0.00
420.91	23.41
421.10	58.51
421.29	4.68
421.48	72.56
421.67	58.51
421.86	30.43
422.05	7.02
422.24	25.75
422.43	42.13
422.61	88.94
422.80	4.68
422.99	9.36
423.18	32.77
423.37	23.41
423.56	28.09
423.75	4.68
423.94	0.00
424.13	0.00
424.32	0.00
424.50	114.69
424.69	42.13
424.88	65.54
425.07	56.17
425.26	0.00
425.45	0.00
425.64	0.00
425.83	86.60
426.01	49.15
426.20	42.13
426.39	84.26
426.58	14.04
426.77	42.13
426.96	93.62
427.15	95.96
427.33	16.38
427.52	37.45
427.71	53.83
427.90	42.13
428.09	9.36
428.28	0.00
428.46	18.72
428.65	0.00
428.84	0.00
429.03	79.58
429.22	18.72
429.40	79.58
429.59	0.00
429.78	58.51
429.97	67.88
430.16	49.15
430.34	0.00
430.53	21.06
430.72	35.11
430.91	0.00
431.10	56.17
431.28	46.81
431.47	16.38
431.66	21.06
431.85	18.72
432.03	16.38
432.22	2.34
432.41	21.06
432.60	0.00
432.79	7.02
432.97	84.26
433.16	0.00
433.35	0.00
433.54	98.30
433.72	4.68
433.91	81.92
434.10	98.30
434.28	39.79
434.47	95.96
434.66	58.51
434.85	28.09
435.03	2.34
435.22	0.00
435.41	21.06
435.59	51.49
435.78	11.70
435.97	14.04
436.16	79.58
436.34	9.36
436.53	84.26
436.72	72.56
436.90	0.00
437.09	14.04
437.28	51.49
437.46	65.54
437.65	14.04
437.84	9.36
438.02	53.83
438.21	42.13
438.40	0.00
438.58	16.38
438.77	32.77
438.96	16.38
439.14	21.06
439.33	23.41
439.52	4.68
439.70	32.77
439.89	23.41
440.08	2.34
440.26	51.49
440.45	0.00
440.63	0.00
440.82	0.00
441.01	0.00
441.19	37.45
441.38	51.49
441.57	0.00
441.75	124.05
441.94	32.77
442.12	102.98
442.31	51.49
442.50	72.56
442.68	0.00
442.87	23.41
443.05	44.47
443.24	0.00
443.43	37.45
443.61	42.13
443.80	58.51
443.98	37.45
444.17	0.00
444.35	42.13
444.54	110.01
444.73	7.02
444.91	46.81
445.10	0.00
445.28	30.43
445.47	39.79
445.65	79.58
445.84	4.68
446.02	9.36
446.21	0.00
446.39	11.70
446.58	35.11
446.77	0.00
446.95	49.15
447.14	11.70
447.32	0.00
447.51	70.22
447.69	77.24
447.88	53.83
448.06	81.92
448.25	0.00
448.43	0.00
448.62	35.11
448.80	0.00
448.99	0.00
449.17	23.41
449.36	39.79
449.54	0.00
449.73	11.70
449.91	77.24
450.10	63.19
450.28	14.04
450.46	32.77
450.65	4.68
450.83	14.04
451.02	49.15
451.20	42.13
451.39	25.75
451.57	98.30
451.76	67.88
451.94	18.72
452.13	63.19
452.31	0.00
452.49	32.77
452.68	0.00
452.86	11.70
453.05	67.88
453.23	16.38
453.42	32.77
453.60	100.64
453.78	53.83
453.97	65.54
454.15	49.15
454.34	51.49
454.52	16.38
454.70	11.70
454.89	53.83
455.07	16.38
455.26	18.72
455.44	9.36
455.62	0.00
455.81	30.43
455.99	58.51
456.17	23.41
456.36	0.00
456.54	0.00
456.73	2.34
456.91	4.68
457.09	44.47
457.28	53.83
457.46	14.04
457.64	0.00
457.83	0.00
458.01	0.00
458.19	51.49
458.38	67.88
458.56	53.83
458.74	7.02
458.93	16.38
459.11	39.79
459.29	60.85
459.48	72.56
459.66	58.51
459.84	25.75
460.03	9.36
460.21	35.11
460.39	42.13
460.57	65.54
460.76	74.90
460.94	42.13
461.12	32.77
461.31	46.81
461.49	11.70
461.67	0.00
461.85	67.88
462.04	67.88
462.22	35.11
462.40	0.00
462.59	58.51
462.77	37.45
462.95	0.00
463.13	0.00
463.32	16.38
463.50	0.00
463.68	21.06
463.86	21.06
464.05	65.54
464.23	74.90
464.41	58.51
464.59	7.02
464.78	0.00
464.96	18.72
465.14	44.47
465.32	16.38
465.50	0.00
465.69	42.13
465.87	0.00
466.05	0.00
466.23	46.81
466.41	35.11
466.60	42.13
466.78	18.72
466.96	77.24
467.14	23.41
467.32	60.85
467.51	23.41
467.69	93.62
467.87	100.64
468.05	84.26
468.23	105.32
468.41	0.00
468.60	18.72
468.78	7.02
468.96	23.41
469.14	81.92
469.32	0.00
469.50	30.43
469.69	0.00
469.87	74.90
470.05	4.68
470.23	11.70
470.41	16.38
470.59	4.68
470.77	46.81
470.95	4.68
471.14	53.83
471.32	51.49
471.50	70.22
471.68	60.85
471.86	49.15
472.04	70.22
472.22	63.19
472.40	77.24
472.58	74.90
472.77	42.13
472.95	39.79
473.13	2.34
473.31	9.36
473.49	65.54
473.67	0.00
473.85	0.00
474.03	0.00
474.21	0.00
474.39	0.00
474.57	4.68
474.75	60.85
474.93	53.83
475.12	18.72
475.30	58.51
475.48	37.45
475.66	70.22
475.84	112.35
476.02	93.62
476.20	37.45
476.38	72.56
476.56	46.81
476.74	0.00
476.92	0.00
477.10	72.56
477.28	79.58
477.46	16.38
477.64	0.00
477.82	0.00
478.00	84.26
478.18	93.62
478.36	39.79
478.54	60.85
478.72	16.38
478.90	18.72
479.08	37.45
479.26	7.02
479.44	72.56
479.62	39.79
479.80	0.00
479.98	16.38
480.16	32.77
480.34	0.00
480.52	0.00
480.70	0.00
480.88	4.68
481.06	44.47
481.24	42.13
481.41	35.11
481.59	60.85
481.77	16.38
481.95	16.38
482.13	14.04
482.31	133.41
482.49	37.45
482.67	37.45
482.85	42.13
483.03	0.00
483.21	16.38
483.39	0.00
483.57	0.00
483.74	0.00
483.92	67.88
484.10	60.85
484.28	11.70
484.46	63.19
484.64	60.85
484.82	46.81
485.00	67.88
485.18	86.60
485.35	0.00
485.53	0.00
485.71	37.45
485.89	39.79
486.07	65.54
486.25	18.72
486.43	95.96
486.61	56.17
486.78	25.75
486.96	117.03
487.14	21.06
487.32	65.54
487.50	21.06
487.68	0.00
487.85	46.81
488.03	56.17
488.21	51.49
488.39	0.00
488.57	39.79
488.75	63.19
488.92	98.30
489.10	0.00
489.28	9.36
489.46	30.43
489.64	7.02
489.81	70.22
489.99	86.60
490.17	37.45
490.35	77.24
490.53	14.04
490.70	39.79
490.88	145.11
491.06	7.02
491.24	2.34
491.41	0.00
491.59	67.88
491.77	25.75
491.95	14.04
492.13	60.85
492.30	0.00
492.48	16.38
492.66	39.79
492.84	32.77
493.01	65.54
493.19	0.00
493.37	53.83
493.54	25.75
493.72	37.45
493.90	37.45
494.08	100.64
494.25	65.54
494.43	28.09
494.61	46.81
494.79	74.90
494.96	0.00
495.14	16.38
495.32	14.04
495.49	16.38
495.67	53.83
495.85	72.56
496.02	67.88
496.20	53.83
496.38	53.83
496.55	23.41
496.73	9.36
496.91	0.00
497.09	88.94
497.26	58.51
497.44	16.38
497.62	25.75
497.79	58.51
497.97	58.51
498.14	0.00
498.32	32.77
498.50	18.72
498.67	51.49
498.85	21.06
499.03	0.00
499.20	16.38
499.38	56.17
499.56	51.49
499.73	63.19
499.91	84.26
500.08	79.58
500.26	0.00
500.44	58.51
500.61	46.81
500.79	67.88
500.97	18.72
501.14	60.85
501.32	7.02
501.49	67.88
501.67	11.70
501.84	7.02
502.02	0.00
502.20	51.49
502.37	60.85
502.55	161.50
502.72	121.71
502.90	39.79
503.07	28.09
503.25	51.49
503.43	74.90
503.60	16.38
503.78	0.00
503.95	7.02
504.13	0.00
504.30	18.72
504.48	63.19
504.65	28.09
504.83	42.13
505.01	39.79
505.18	63.19
505.36	53.83
505.53	0.00
505.71	70.22
505.88	0.00
506.06	56.17
506.23	70.22
506.41	0.00
506.58	25.75
506.76	37.45
506.93	42.13
507.11	0.00
507.28	32.77
507.46	53.83
507.63	58.51
507.81	65.54
507.98	77.24
508.16	4.68
508.33	0.00
508.50	58.51
508.68	0.00
508.85	0.00
509.03	0.00
509.20	11.70
509.38	11.70
509.55	0.00
509.73	21.06
509.90	39.79
510.08	58.51
510.25	0.00
510.42	91.28
510.60	51.49
510.77	39.79
510.95	25.75
511.12	0.00
511.30	65.54
511.47	51.49
511.64	65.54
511.82	93.62
511.99	0.00
512.17	65.54
512.34	72.56
512.51	56.17
512.69	30.43
512.86	28.09
513.04	110.01
513.21	81.92
513.38	58.51
513.56	0.00
513.73	14.04
513.90	0.00
514.08	0.00
514.25	9.36
514.43	7.02
514.60	7.02
514.77	0.00
514.95	16.38
515.12	9.36
515.29	0.00
515.47	42.13
515.64	30.43
515.81	63.19
515.99	23.41
516.16	9.36
516.33	16.38
516.51	0.00
516.68	0.00
516.85	2.34
517.03	18.72
517.20	49.15
517.37	7.02
517.54	7.02
517.72	25.75
517.89	121.71
518.06	32.77
518.24	14.04
518.41	35.11
518.58	30.43
518.75	4.68
518.93	121.71
519.10	44.47
519.27	25.75
519.45	63.19
519.62	0.00
519.79	0.00
519.96	21.06
520.14	0.00
520.31	49.15
520.48	39.79
520.65	16.38
520.83	7.02
521.00	100.64
521.17	98.30
521.34	42.13
521.52	16.38
521.69	67.88
521.86	49.15
522.03	0.00
522.20	18.72
522.38	9.36
522.55	21.06
522.72	37.45
522.89	0.00
523.07	0.00
523.24	44.47
523.41	0.00
523.58	30.43
523.75	9.36
523.92	70.22
524.10	98.30
524.27	0.00
524.44	28.09
524.61	46.81
524.78	28.09
524.96	35.11
525.13	42.13
525.30	30.43
525.47	0.00
525.64	21.06
525.81	42.13
525.98	46.81
526.16	46.81
526.33	37.45
526.50	114.69
526.67	32.77
526.84	32.77
527.01	18.72
527.18	14.04
527.36	79.58
527.53	30.43
527.70	58.51
527.87	128.73
528.04	35.11
528.21	23.41
528.38	30.43
528.55	30.43
528.72	21.06
528.89	70.22
529.07	44.47
529.24	58.51
529.41	0.00
529.58	51.49
529.75	7.02
529.92	7.02
530.09	42.13
530.26	23.41
530.43	88.94
530.60	0.00
530.77	77.24
530.94	51.49
531.11	65.54
531.28	117.03
531.46	56.17
531.63	18.72
531.80	60.85
531.97	0.00
532.14	107.66
532.31	44.47
532.48	65.54
532.65	63.19
532.82	46.81
532.99	44.47
533.16	7.02
533.33	58.51
533.50	84.26
533.67	0.00
533.84	56.17
534.01	72.56
534.18	0.00
534.35	86.60
534.52	163.84
534.69	70.22
534.86	95.96
535.03	77.24
535.20	49.15
535.37	58.51
535.54	28.09
535.71	28.09
535.88	30.43
536.05	9.36
536.22	2.34
536.38	102.98
536.55	0.00
536.72	72.56
536.89	0.00
537.06	35.11
537.23	65.54
537.40	0.00
537.57	2.34
537.74	70.22
537.91	25.75
538.08	35.11
538.25	32.77
538.42	88.94
538.59	16.38
538.75	72.56
538.92	74.90
539.09	37.45
539.26	74.90
539.43	67.88
539.60	177.88
539.77	166.18
539.94	255.12
540.11	203.63
540.28	56.17
540.44	95.96
540.61	30.43
540.78	74.90
540.95	35.11
541.12	51.49
541.29	35.11
541.46	72.56
541.62	67.88
541.79	0.00
541.96	60.85
542.13	32.77
542.30	0.00
542.47	49.15
542.63	35.11
542.80	79.58
542.97	147.45
543.14	35.11
543.31	18.72
543.48	9.36
543.64	0.00
543.81	105.32
543.98	53.83
544.15	23.41
544.32	11.70
544.48	23.41
544.65	100.64
544.82	25.75
544.99	35.11
545.16	16.38
545.32	9.36
545.49	37.45
545.66	86.60
545.83	7.02
546.00	16.38
546.16	93.62
546.33	49.15
546.50	65.54
546.67	56.17
546.83	23.41
547.00	30.43
547.17	35.11
547.34	21.06
547.50	39.79
547.67	39.79
547.84	95.96
548.00	72.56
548.17	58.51
548.34	14.04
548.51	37.45
548.67	102.98
548.84	2.34
549.01	42.13
549.18	11.70
549.34	0.00
549.51	91.28
549.68	0.00
549.84	67.88
550.01	51.49
550.18	93.62
550.34	37.45
550.51	58.51
550.68	53.83
550.84	14.04
551.01	53.83
551.18	0.00
551.34	32.77
551.51	81.92
551.68	0.00
551.84	49.15
552.01	95.96
552.18	14.04
552.34	65.54
552.51	46.81
552.68	42.13
552.84	46.81
553.01	91.28
553.18	72.56
553.34	44.47
553.51	51.49
553.67	0.00
553.84	44.47
554.01	32.77
554.17	39.79
554.34	84.26
554.51	58.51
554.67	23.41
554.84	70.22
555.00	79.58
555.17	21.06
555.33	25.75
555.50	23.41
555.67	0.00
555.83	56.17
556.00	16.38
556.16	140.43
556.33	53.83
556.50	53.83
556.66	37.45
556.83	44.47
556.99	84.26
557.16	30.43
557.32	14.04
557.49	0.00
557.65	30.43
557.82	23.41
557.98	51.49
558.15	0.00
558.32	44.47
558.48	14.04
558.65	86.60
558.81	37.45
558.98	42.13
559.14	2.34
559.31	30.43
559.47	88.94
559.64	0.00
559.80	25.75
559.97	58.51
560.13	16.38
560.30	91.28
560.46	18.72
560.63	30.43
560.79	46.81
560.96	65.54
561.12	138.09
561.29	79.58
561.45	32.77
561.61	88.94
561.78	126.39
561.94	28.09
562.11	44.47
562.27	0.00
562.44	23.41
562.60	14.04
562.77	79.58
562.93	79.58
563.10	58.51
563.26	72.56
563.42	84.26
563.59	30.43
563.75	18.72
563.92	23.41
564.08	0.00
564.24	91.28
564.41	9.36
564.57	0.00
564.74	9.36
564.90	49.15
565.07	67.88
565.23	77.24
565.39	37.45
565.56	30.43
565.72	2.34
565.88	88.94
566.05	16.38
566.21	0.00
566.38	70.22
566.54	30.43
566.70	88.94
566.87	23.41
567.03	51.49
567.19	70.22
567.36	35.11
567.52	70.22
567.68	51.49
567.85	44.47
568.01	32.77
568.17	53.83
568.34	7.02
568.50	32.77
568.66	21.06
568.83	30.43
568.99	0.00
569.15	16.38
569.32	65.54
569.48	30.43
569.64	30.43
569.81	18.72
569.97	9.36
570.13	0.00
570.30	0.00
570.46	18.72
570.62	16.38
570.78	39.79
570.95	7.02
571.11	0.00
571.27	28.09
571.43	37.45
571.60	131.07
571.76	100.64
571.92	100.64
572.09	0.00
572.25	0.00
572.41	0.00
572.57	0.00
572.74	21.06
572.90	95.96
573.06	77.24
573.22	37.45
573.38	72.56
573.55	53.83
573.71	58.51
573.87	70.22
574.03	37.45
574.20	58.51
574.36	114.69
574.52	37.45
574.68	21.06
574.84	44.47
575.01	72.56
575.17	42.13
575.33	86.60
575.49	18.72
575.65	23.41
575.82	119.37
575.98	117.03
576.14	117.03
576.30	149.79
576.46	95.96
576.62	74.90
576.79	72.56
576.95	107.66
577.11	63.19
577.27	44.47
577.43	79.58
577.59	42.13
577.75	21.06
577.92	63.19
578.08	51.49
578.24	51.49
578.40	7.02
578.56	37.45
578.72	21.06
578.88	28.09
579.04	0.00
579.21	67.88
579.37	58.51
579.53	44.47
579.69	88.94
579.85	70.22
580.01	35.11
580.17	18.72
580.33	30.43
580.49	121.71
580.65	177.88
580.82	100.64
580.98	46.81
581.14	23.41
581.30	81.92
581.46	100.64
581.62	79.58
581.78	100.64
581.94	135.75
582.10	126.39
582.26	23.41
582.42	91.28
582.58	93.62
582.74	112.35
582.90	42.13
583.06	95.96
583.22	81.92
583.38	102.98
583.54	79.58
583.70	140.43
583.86	147.45
584.02	117.03
584.18	220.01
584.34	227.03
584.50	615.56
584.66	3751.88
584.82	9668.75
584.98	14949.00
585.14	13465.10
585.30	8262.09
585.46	4959.60
585.62	3084.83
585.78	1521.35
585.94	517.26
586.10	215.33
586.26	119.37
586.42	168.52
586.58	119.37
586.74	100.64
586.90	23.41
587.06	117.03
587.22	70.22
587.38	84.26
587.54	257.46
587.70	636.63
587.86	887.06
588.02	1043.88
588.18	814.51
588.34	482.15
588.49	320.65
588.65	196.60
588.81	105.32
588.97	49.15
589.13	156.82
589.29	37.45
589.45	23.41
589.61	18.72
589.77	100.64
589.93	49.15
590.08	117.03
590.24	93.62
590.40	91.28
590.56	107.66
590.72	95.96
590.88	44.47
591.04	51.49
591.20	152.13
591.35	49.15
591.51	63.19
591.67	65.54
591.83	49.15
591.99	79.58
592.15	28.09
592.31	46.81
592.46	110.01
592.62	79.58
592.78	84.26
592.94	105.32
593.10	21.06
593.26	58.51
593.41	28.09
593.57	56.17
593.73	70.22
593.89	524.28
594.05	1249.85
594.20	1879.45
594.36	1874.77
594.52	1163.25
594.68	765.36
594.84	500.87
594.99	276.18
595.15	170.86
595.31	112.35
595.47	107.66
595.62	30.43
595.78	112.35
595.94	84.26
596.10	114.69
596.25	46.81
596.41	46.81
596.57	74.90
596.73	67.88
596.88	145.11
597.04	269.16
597.20	442.36
597.36	503.22
597.51	358.10
597.67	196.60
597.83	175.54
597.99	154.48
598.14	114.69
598.30	63.19
598.46	84.26
598.61	25.75
598.77	42.13
598.93	65.54
599.09	0.00
599.24	4.68
599.40	44.47
599.56	65.54
599.71	37.45
599.87	37.45
600.03	32.77
600.18	35.11
600.34	46.81
600.50	70.22
600.65	0.00
600.81	32.77
600.97	135.75
601.12	18.72
601.28	60.85
601.44	25.75
601.59	11.70
601.75	74.90
601.91	4.68
602.06	4.68
602.22	9.36
602.37	128.73
602.53	283.20
602.69	489.17
602.84	571.09
603.00	353.42
603.16	220.01
603.31	201.29
603.47	112.35
603.62	32.77
603.78	67.88
603.94	23.41
604.09	147.45
604.25	70.22
604.40	35.11
604.56	42.13
604.71	112.35
604.87	39.79
605.03	145.11
605.18	42.13
605.34	110.01
605.49	25.75
605.65	11.70
605.80	51.49
605.96	39.79
606.12	88.94
606.27	79.58
606.43	39.79
606.58	51.49
606.74	194.26
606.89	524.28
607.05	1247.51
607.20	1629.01
607.36	1362.19
607.51	894.08
607.67	601.52
607.82	379.17
607.98	255.12
608.13	135.75
608.29	124.05
608.44	21.06
608.60	35.11
608.75	51.49
608.91	191.92
609.06	840.25
609.22	1996.48
609.37	2649.49
609.53	2377.98
609.68	1603.27
609.84	1020.47
609.99	702.16
610.15	461.09
610.30	173.20
610.46	93.62
610.61	119.37
610.76	35.11
610.92	72.56
611.07	81.92
611.23	74.90
611.38	95.96
611.54	51.49
611.69	37.45
611.84	23.41
612.00	30.43
612.15	39.79
612.31	32.77
612.46	112.35
612.62	159.16
612.77	152.13
612.92	95.96
613.08	72.56
613.23	102.98
613.39	58.51
613.54	177.88
613.69	842.59
613.85	2368.62
614.00	3904.01
614.15	4374.46
614.31	3248.66
614.46	1916.90
614.62	1355.17
614.77	798.12
614.92	390.87
615.08	140.43
615.23	145.11
615.38	91.28
615.54	110.01
615.69	248.10
615.84	482.15
616.00	833.23
616.15	1188.99
616.30	950.26
616.46	641.31
616.61	409.59
616.76	243.42
616.92	166.18
617.07	44.47
617.22	91.28
617.37	77.24
617.53	93.62
617.68	14.04
617.83	65.54
617.99	4.68
618.14	74.90
618.29	18.72
618.45	121.71
618.60	74.90
618.75	58.51
618.90	0.00
619.06	119.37
619.21	51.49
619.36	0.00
619.51	0.00
619.67	72.56
619.82	28.09
619.97	23.41
620.12	0.00
620.28	63.19
620.43	112.35
620.58	60.85
620.73	0.00
620.89	9.36
621.04	121.71
621.19	283.20
621.34	540.66
621.49	606.20
621.65	624.92
621.80	454.06
621.95	339.38
622.10	159.16
622.25	84.26
622.41	77.24
622.56	53.83
622.71	93.62
622.86	86.60
623.01	53.83
623.16	0.00
623.32	56.17
623.47	44.47
623.62	44.47
623.77	65.54
623.92	67.88
624.07	32.77
624.23	56.17
624.38	23.41
624.53	112.35
624.68	0.00
624.83	53.83
624.98	42.13
625.13	25.75
625.29	53.83
625.44	67.88
625.59	88.94
625.74	32.77
625.89	114.69
626.04	409.59
626.19	1179.63
626.34	2029.24
626.49	2296.07
626.65	1722.63
626.80	1217.08
626.95	779.40
627.10	423.64
627.25	236.39
627.40	145.11
627.55	74.90
627.70	91.28
627.85	107.66
628.00	0.00
628.15	84.26
628.30	9.36
628.45	25.75
628.60	18.72
628.76	16.38
628.91	0.00
629.06	86.60
629.21	46.81
629.36	16.38
629.51	23.41
629.66	0.00
629.81	102.98
629.96	208.31
630.11	433.00
630.26	587.47
630.41	561.73
630.56	322.99
630.71	266.82
630.86	198.95
631.01	72.56
631.16	25.75
631.31	72.56
631.46	93.62
631.61	23.41
631.76	44.47
631.91	37.45
632.06	72.56
632.21	88.94
632.36	11.70
632.51	86.60
632.66	86.60
632.81	285.55
632.96	706.84
633.10	1259.21
633.25	1556.46
633.40	1280.27
633.55	875.36
633.70	648.33
633.85	505.56
634.00	241.08
634.15	110.01
634.30	72.56
634.45	53.83
634.60	46.81
634.75	51.49
634.90	86.60
635.05	0.00
635.19	124.05
635.34	51.49
635.49	23.41
635.64	98.30
635.79	79.58
635.94	70.22
636.09	39.79
636.24	0.00
636.39	37.45
636.53	51.49
636.68	16.38
636.83	30.43
636.98	60.85
637.13	0.00
637.28	0.00
637.43	0.00
637.57	138.09
637.72	573.43
637.87	1661.78
638.02	2626.08
638.17	2939.71
638.32	2122.87
638.46	1425.39
638.61	964.30
638.76	585.13
638.91	308.95
639.06	119.37
639.20	70.22
639.35	30.43
639.50	168.52
639.65	774.72
639.80	2403.73
639.94	4093.60
640.09	4528.94
640.24	3405.48
640.39	2237.55
640.54	1631.35
640.68	954.94
640.83	425.98
640.98	168.52
641.13	161.50
641.27	159.16
641.42	21.06
641.57	70.22
641.72	70.22
641.86	9.36
642.01	88.94
642.16	79.58
642.31	18.72
642.45	60.85
642.60	37.45
642.75	14.04
642.90	32.77
643.04	44.47
643.19	84.26
643.34	53.83
643.48	86.60
643.63	30.43
643.78	21.06
643.93	70.22
644.07	0.00
644.22	9.36
644.37	9.36
644.51	11.70
644.66	0.00
644.81	44.47
644.95	51.49
645.10	9.36
645.25	37.45
645.39	4.68
645.54	18.72
645.69	112.35
645.83	30.43
645.98	28.09
646.13	74.90
646.27	58.51
646.42	23.41
646.57	60.85
646.71	70.22
646.86	4.68
647.00	84.26
647.15	0.00
647.30	107.66
647.44	30.43
647.59	44.47
647.74	93.62
647.88	63.19
648.03	0.00
648.17	114.69
648.32	7.02
648.47	56.17
648.61	35.11
648.76	4.68
648.90	23.41
649.05	4.68
649.20	21.06
649.34	23.41
649.49	53.83
649.63	77.24
649.78	60.85
649.92	0.00
650.07	407.25
650.21	1071.97
650.36	1832.64
650.51	2363.94
650.65	1886.47
650.80	1390.28
650.94	947.92
651.09	482.15
651.23	283.20
651.38	205.97
651.52	53.83
651.67	0.00
651.81	79.58
651.96	53.83
652.10	81.92
652.25	70.22
652.39	25.75
652.54	58.51
652.68	107.66
652.83	273.84
652.97	629.60
653.12	720.88
653.26	828.55
653.41	566.41
653.55	388.53
653.70	224.69
653.84	77.24
653.99	84.26
654.13	42.13
654.27	23.41
654.42	46.81
654.56	0.00
654.71	39.79
654.85	60.85
655.00	0.00
655.14	0.00
655.29	58.51
655.43	23.41
655.57	81.92
655.72	44.47
655.86	2.34
656.01	0.00
656.15	28.09
656.30	16.38
656.44	0.00
656.58	60.85
656.73	25.75
656.87	0.00
657.01	0.00
657.16	14.04
657.30	0.00
657.45	16.38
657.59	7.02
657.73	21.06
657.88	124.05
658.02	4.68
658.16	46.81
658.31	102.98
658.45	0.00
658.60	2.34
658.74	46.81
658.88	124.05
659.03	35.11
659.17	32.77
659.31	110.01
659.46	510.24
659.60	870.68
659.74	1116.44
659.89	1041.54
660.03	777.06
660.17	444.70
660.32	360.44
660.46	248.10
660.60	107.66
660.74	124.05
660.89	51.49
661.03	107.66
661.17	0.00
661.32	44.47
661.46	0.00
661.60	46.81
661.74	2.34
661.89	37.45
662.03	56.17
662.17	86.60
662.31	53.83
662.46	23.41
662.60	46.81
662.74	14.04
662.88	39.79
663.03	74.90
663.17	7.02
663.31	0.00
663.45	56.17
663.60	77.24
663.74	14.04
663.88	0.00
664.02	49.15
664.17	53.83
664.31	44.47
664.45	16.38
664.59	65.54
664.73	114.69
664.88	4.68
665.02	11.70
665.16	65.54
665.30	23.41
665.44	44.47
665.59	86.60
665.73	72.56
665.87	14.04
666.01	18.72
666.15	0.00
666.29	145.11
666.44	18.72
666.58	65.54
666.72	32.77
666.86	49.15
667.00	114.69
667.14	44.47
667.28	273.84
667.43	957.28
667.57	1486.24
667.71	2104.14
667.85	1682.85
667.99	1303.68
668.13	807.48
668.27	496.19
668.41	269.16
668.56	102.98
668.70	121.71
668.84	44.47
668.98	79.58
669.12	46.81
669.26	91.28
669.40	42.13
669.54	42.13
669.68	28.09
669.82	65.54
669.96	91.28
670.10	0.00
670.25	30.43
670.39	51.49
670.53	0.00
670.67	42.13
670.81	58.51
670.95	0.00
671.09	159.16
671.23	360.44
671.37	767.70
671.51	1221.76
671.65	1228.78
671.79	1029.84
671.93	723.23
672.07	531.30
672.21	241.08
672.35	126.39
672.49	25.75
672.63	88.94
672.77	4.68
672.91	107.66
673.05	107.66
673.19	23.41
673.33	88.94
673.47	46.81
673.61	18.72
673.75	14.04
673.89	46.81
674.03	9.36
674.17	37.45
674.31	67.88
674.45	112.35
674.59	35.11
674.73	51.49
674.87	21.06
675.01	11.70
675.15	65.54
675.29	119.37
675.43	131.07
675.56	60.85
675.70	105.32
675.84	112.35
675.98	72.56
676.12	0.00
676.26	51.49
676.40	0.00
676.54	35.11
676.68	72.56
676.82	72.56
676.96	35.11
677.10	0.00
677.23	42.13
677.37	28.09
677.51	42.13
677.65	84.26
677.79	37.45
677.93	9.36
678.07	21.06
678.21	35.11
678.34	0.00
678.48	25.75
678.62	0.00
678.76	70.22
678.90	35.11
679.04	18.72
679.18	0.00
679.31	2.34
679.45	86.60
679.59	56.17
679.73	28.09
679.87	39.79
680.00	0.00
680.14	16.38
680.28	28.09
680.42	23.41
680.56	18.72
680.70	121.71
680.83	95.96
680.97	102.98
681.11	0.00
681.25	23.41
681.39	0.00
681.52	4.68
681.66	63.19
681.80	65.54
681.94	93.62
682.07	81.92
682.21	60.85
682.35	117.03
682.49	4.68
682.62	70.22
682.76	23.41
682.90	11.70
683.04	32.77
683.17	72.56
683.31	79.58
683.45	25.75
683.59	0.00
683.72	28.09
683.86	23.41
684.00	28.09
684.13	53.83
684.27	112.35
684.41	18.72
684.55	18.72
684.68	70.22
684.82	60.85
684.96	32.77
685.09	7.02
685.23	21.06
685.37	79.58
685.50	23.41
685.64	0.00
685.78	35.11
685.91	11.70
686.05	32.77
686.19	7.02
686.32	53.83
686.46	0.00
686.60	42.13
686.73	30.43
686.87	35.11
687.01	21.06
687.14	72.56
687.28	72.56
687.42	39.79
687.55	21.06
687.69	53.83
687.82	110.01
687.96	0.00
688.10	0.00
688.23	0.00
688.37	49.15
688.50	4.68
688.64	11.70
688.78	16.38
688.91	16.38
689.05	0.00
689.18	70.22
689.32	0.00
689.46	39.79
689.59	4.68
689.73	7.02
689.86	11.70
690.00	95.96
690.13	95.96
690.27	30.43
690.41	7.02
690.54	0.00
690.68	0.00
690.81	37.45
690.95	121.71
691.08	35.11
691.22	46.81
691.35	60.85
691.49	39.79
691.62	0.00
691.76	7.02
691.89	0.00
692.03	70.22
692.16	30.43
692.30	25.75
692.43	100.64
692.57	372.15
692.70	678.76
692.84	858.98
692.97	823.87
693.11	685.78
693.24	440.02
693.38	381.51
693.51	255.12
693.65	131.07
693.78	110.01
693.92	58.51
694.05	74.90
694.19	91.28
694.32	28.09
694.45	37.45
694.59	67.88
694.72	95.96
694.86	2.34
694.99	65.54
695.13	14.04
695.26	119.37
695.39	42.13
695.53	44.47
695.66	72.56
695.80	49.15
695.93	42.13
696.07	32.77
696.20	67.88
696.33	119.37
696.47	25.75
696.60	32.77
696.73	21.06
696.87	49.15
697.00	70.22
697.14	2.34
697.27	16.38
697.40	30.43
697.54	0.00
697.67	0.00
697.80	0.00
697.94	81.92
698.07	46.81
698.21	14.04
698.34	86.60
698.47	0.00
698.61	16.38
698.74	65.54
698.87	0.00
699.01	46.81
699.14	42.13
699.27	46.81
699.40	25.75
699.54	0.00
699.67	0.00
699.80	39.79
699.94	51.49
700.07	0.00
700.20	30.43
700.34	28.09
700.47	81.92
700.60	56.17
700.73	23.41
700.87	39.79
701.00	16.38
701.13	2.34
701.26	77.24
701.40	37.45
701.53	46.81
701.66	7.02
701.79	4.68
701.93	67.88
702.06	51.49
702.19	74.90
702.32	11.70
702.46	142.77
702.59	93.62
702.72	84.26
702.85	458.74
702.99	1057.92
703.12	1600.93
703.25	1804.55
703.38	1593.90
703.51	1259.21
703.65	957.28
703.78	713.86
703.91	430.66
704.04	322.99
704.17	220.01
704.31	140.43
704.44	70.22
704.57	72.56
704.70	53.83
704.83	0.00
704.96	11.70
705.10	14.04
705.23	51.49
>>>>>End Processed Spectral Data<<<<<
