SpectraSuite Data File
++++++++++++++++++++++++++++++++++++
Date: Fri Oct 04 12:13:43 GMT-05:00 2013
User: price-jones
Dark Spectrum Present: No
Reference Spectrum Present: No
Number of Sampled Component Spectra: 1
Spectrometers: USB2+H05261
Integration Time (usec): 10000 (USB2+H05261)
Spectra Averaged: 1 (USB2+H05261)
Boxcar Smoothing: 0 (USB2+H05261)
Correct for Electrical Dark: No (USB2+H05261)
Strobe/Lamp Enabled: No (USB2+H05261)
Correct for Detector Non-linearity: No (USB2+H05261)
Correct for Stray Light: No (USB2+H05261)
Number of Pixels in Processed Spectrum: 2048
>>>>>Begin Processed Spectral Data<<<<<
365.73	0.00
365.92	0.00
366.12	0.00
366.32	0.00
366.52	0.00
366.72	0.00
366.91	0.00
367.11	0.00
367.31	0.00
367.51	0.00
367.70	0.00
367.90	0.00
368.10	0.00
368.30	0.00
368.49	0.00
368.69	0.00
368.89	0.00
369.09	0.00
369.28	0.00
369.48	0.00
369.68	0.00
369.87	0.00
370.07	0.00
370.27	0.00
370.47	0.00
370.66	0.00
370.86	0.00
371.06	0.00
371.25	37.45
371.45	0.00
371.65	0.00
371.84	11.70
372.04	16.38
372.24	63.19
372.44	44.47
372.63	0.00
372.83	18.72
373.03	16.38
373.22	7.02
373.42	16.38
373.62	14.04
373.81	65.54
374.01	21.06
374.21	28.09
374.40	23.41
374.60	32.77
374.79	60.85
374.99	14.04
375.19	25.75
375.38	88.94
375.58	0.00
375.78	44.47
375.97	28.09
376.17	7.02
376.37	0.00
376.56	0.00
376.76	0.00
376.95	32.77
377.15	25.75
377.35	32.77
377.54	23.41
377.74	25.75
377.93	0.00
378.13	0.00
378.33	0.00
378.52	72.56
378.72	53.83
378.91	23.41
379.11	9.36
379.31	0.00
379.50	23.41
379.70	65.54
379.89	4.68
380.09	30.43
380.28	0.00
380.48	63.19
380.68	4.68
380.87	58.51
381.07	7.02
381.26	2.34
381.46	9.36
381.65	0.00
381.85	58.51
382.04	9.36
382.24	9.36
382.43	32.77
382.63	2.34
382.83	0.00
383.02	46.81
383.22	63.19
383.41	14.04
383.61	0.00
383.80	37.45
384.00	42.13
384.19	9.36
384.39	14.04
384.58	21.06
384.78	0.00
384.97	37.45
385.17	0.00
385.36	16.38
385.56	0.00
385.75	0.00
385.95	7.02
386.14	42.13
386.34	44.47
386.53	0.00
386.72	0.00
386.92	35.11
387.11	35.11
387.31	4.68
387.50	51.49
387.70	42.13
387.89	14.04
388.09	49.15
388.28	0.00
388.48	32.77
388.67	9.36
388.86	16.38
389.06	39.79
389.25	11.70
389.45	2.34
389.64	0.00
389.84	0.00
390.03	0.00
390.22	30.43
390.42	86.60
390.61	0.00
390.81	2.34
391.00	39.79
391.19	65.54
391.39	32.77
391.58	7.02
391.78	44.47
391.97	35.11
392.16	35.11
392.36	60.85
392.55	51.49
392.75	14.04
392.94	49.15
393.13	0.00
393.33	88.94
393.52	14.04
393.71	60.85
393.91	32.77
394.10	58.51
394.29	46.81
394.49	86.60
394.68	79.58
394.88	37.45
395.07	86.60
395.26	105.32
395.46	35.11
395.65	128.73
395.84	35.11
396.04	72.56
396.23	4.68
396.42	60.85
396.62	0.00
396.81	0.00
397.00	39.79
397.19	0.00
397.39	46.81
397.58	32.77
397.77	44.47
397.97	7.02
398.16	35.11
398.35	53.83
398.55	37.45
398.74	16.38
398.93	56.17
399.12	0.00
399.32	67.88
399.51	102.98
399.70	0.00
399.90	65.54
400.09	14.04
400.28	53.83
400.47	37.45
400.67	0.00
400.86	44.47
401.05	35.11
401.24	39.79
401.44	21.06
401.63	0.00
401.82	72.56
402.01	58.51
402.21	9.36
402.40	4.68
402.59	67.88
402.78	77.24
402.97	84.26
403.17	2.34
403.36	44.47
403.55	84.26
403.74	0.00
403.93	25.75
404.13	9.36
404.32	37.45
404.51	35.11
404.70	72.56
404.89	72.56
405.09	2.34
405.28	0.00
405.47	70.22
405.66	7.02
405.85	30.43
406.05	0.00
406.24	42.13
406.43	86.60
406.62	112.35
406.81	0.00
407.00	42.13
407.20	46.81
407.39	0.00
407.58	4.68
407.77	0.00
407.96	32.77
408.15	39.79
408.34	4.68
408.54	42.13
408.73	53.83
408.92	35.11
409.11	56.17
409.30	21.06
409.49	0.00
409.68	60.85
409.87	0.00
410.07	79.58
410.26	65.54
410.45	70.22
410.64	32.77
410.83	0.00
411.02	65.54
411.21	77.24
411.40	51.49
411.59	88.94
411.78	77.24
411.98	70.22
412.17	42.13
412.36	7.02
412.55	0.00
412.74	32.77
412.93	21.06
413.12	25.75
413.31	65.54
413.50	21.06
413.69	11.70
413.88	56.17
414.07	51.49
414.26	0.00
414.45	88.94
414.64	21.06
414.83	0.00
415.02	37.45
415.22	77.24
415.41	39.79
415.60	58.51
415.79	0.00
415.98	107.66
416.17	119.37
416.36	63.19
416.55	53.83
416.74	72.56
416.93	65.54
417.12	32.77
417.31	114.69
417.50	58.51
417.69	93.62
417.88	0.00
418.07	0.00
418.26	53.83
418.45	44.47
418.64	70.22
418.83	9.36
419.02	14.04
419.21	0.00
419.39	49.15
419.58	0.00
419.77	65.54
419.96	37.45
420.15	9.36
420.34	72.56
420.53	0.00
420.72	0.00
420.91	77.24
421.10	35.11
421.29	32.77
421.48	63.19
421.67	42.13
421.86	4.68
422.05	51.49
422.24	0.00
422.43	56.17
422.61	86.60
422.80	86.60
422.99	58.51
423.18	63.19
423.37	58.51
423.56	51.49
423.75	51.49
423.94	81.92
424.13	63.19
424.32	70.22
424.50	0.00
424.69	9.36
424.88	63.19
425.07	14.04
425.26	37.45
425.45	70.22
425.64	0.00
425.83	14.04
426.01	21.06
426.20	91.28
426.39	42.13
426.58	46.81
426.77	18.72
426.96	42.13
427.15	21.06
427.33	51.49
427.52	21.06
427.71	14.04
427.90	9.36
428.09	49.15
428.28	28.09
428.46	46.81
428.65	63.19
428.84	44.47
429.03	42.13
429.22	60.85
429.40	60.85
429.59	65.54
429.78	18.72
429.97	25.75
430.16	0.00
430.34	93.62
430.53	79.58
430.72	30.43
430.91	44.47
431.10	23.41
431.28	0.00
431.47	16.38
431.66	79.58
431.85	88.94
432.03	49.15
432.22	119.37
432.41	37.45
432.60	53.83
432.79	44.47
432.97	79.58
433.16	67.88
433.35	39.79
433.54	32.77
433.72	28.09
433.91	23.41
434.10	72.56
434.28	0.00
434.47	51.49
434.66	37.45
434.85	107.66
435.03	51.49
435.22	77.24
435.41	91.28
435.59	60.85
435.78	37.45
435.97	44.47
436.16	65.54
436.34	14.04
436.53	39.79
436.72	56.17
436.90	44.47
437.09	56.17
437.28	70.22
437.46	37.45
437.65	67.88
437.84	9.36
438.02	25.75
438.21	79.58
438.40	105.32
438.58	117.03
438.77	117.03
438.96	30.43
439.14	95.96
439.33	0.00
439.52	81.92
439.70	28.09
439.89	0.00
440.08	70.22
440.26	23.41
440.45	63.19
440.63	0.00
440.82	25.75
441.01	79.58
441.19	2.34
441.38	18.72
441.57	42.13
441.75	32.77
441.94	70.22
442.12	72.56
442.31	81.92
442.50	4.68
442.68	70.22
442.87	49.15
443.05	0.00
443.24	25.75
443.43	21.06
443.61	0.00
443.80	166.18
443.98	60.85
444.17	98.30
444.35	98.30
444.54	51.49
444.73	28.09
444.91	53.83
445.10	65.54
445.28	67.88
445.47	77.24
445.65	0.00
445.84	18.72
446.02	2.34
446.21	86.60
446.39	107.66
446.58	42.13
446.77	14.04
446.95	102.98
447.14	110.01
447.32	70.22
447.51	86.60
447.69	28.09
447.88	67.88
448.06	70.22
448.25	0.00
448.43	60.85
448.62	28.09
448.80	46.81
448.99	56.17
449.17	60.85
449.36	53.83
449.54	63.19
449.73	74.90
449.91	0.00
450.10	58.51
450.28	49.15
450.46	84.26
450.65	23.41
450.83	93.62
451.02	56.17
451.20	102.98
451.39	25.75
451.57	79.58
451.76	93.62
451.94	110.01
452.13	30.43
452.31	58.51
452.49	95.96
452.68	51.49
452.86	18.72
453.05	32.77
453.23	16.38
453.42	32.77
453.60	58.51
453.78	42.13
453.97	70.22
454.15	46.81
454.34	70.22
454.52	0.00
454.70	42.13
454.89	95.96
455.07	39.79
455.26	65.54
455.44	0.00
455.62	65.54
455.81	84.26
455.99	65.54
456.17	0.00
456.36	135.75
456.54	81.92
456.73	46.81
456.91	84.26
457.09	39.79
457.28	49.15
457.46	21.06
457.64	14.04
457.83	30.43
458.01	72.56
458.19	0.00
458.38	0.00
458.56	81.92
458.74	124.05
458.93	95.96
459.11	124.05
459.29	88.94
459.48	84.26
459.66	93.62
459.84	100.64
460.03	100.64
460.21	88.94
460.39	58.51
460.57	67.88
460.76	58.51
460.94	2.34
461.12	28.09
461.31	91.28
461.49	117.03
461.67	49.15
461.85	154.48
462.04	2.34
462.22	98.30
462.40	32.77
462.59	128.73
462.77	16.38
462.95	65.54
463.13	53.83
463.32	42.13
463.50	65.54
463.68	28.09
463.86	95.96
464.05	46.81
464.23	77.24
464.41	72.56
464.59	37.45
464.78	39.79
464.96	0.00
465.14	32.77
465.32	60.85
465.50	16.38
465.69	18.72
465.87	14.04
466.05	65.54
466.23	51.49
466.41	124.05
466.60	56.17
466.78	35.11
466.96	2.34
467.14	105.32
467.32	72.56
467.51	42.13
467.69	42.13
467.87	49.15
468.05	88.94
468.23	74.90
468.41	23.41
468.60	18.72
468.78	0.00
468.96	77.24
469.14	25.75
469.32	70.22
469.50	9.36
469.69	30.43
469.87	81.92
470.05	84.26
470.23	53.83
470.41	51.49
470.59	53.83
470.77	98.30
470.95	72.56
471.14	51.49
471.32	86.60
471.50	117.03
471.68	11.70
471.86	133.41
472.04	56.17
472.22	105.32
472.40	39.79
472.58	72.56
472.77	0.00
472.95	128.73
473.13	74.90
473.31	86.60
473.49	91.28
473.67	65.54
473.85	51.49
474.03	60.85
474.21	51.49
474.39	93.62
474.57	121.71
474.75	79.58
474.93	4.68
475.12	67.88
475.30	102.98
475.48	51.49
475.66	98.30
475.84	72.56
476.02	128.73
476.20	124.05
476.38	42.13
476.56	37.45
476.74	77.24
476.92	28.09
477.10	58.51
477.28	91.28
477.46	25.75
477.64	65.54
477.82	23.41
478.00	60.85
478.18	65.54
478.36	23.41
478.54	124.05
478.72	149.79
478.90	79.58
479.08	56.17
479.26	2.34
479.44	32.77
479.62	95.96
479.80	81.92
479.98	128.73
480.16	63.19
480.34	126.39
480.52	88.94
480.70	77.24
480.88	58.51
481.06	79.58
481.24	81.92
481.41	72.56
481.59	35.11
481.77	110.01
481.95	11.70
482.13	51.49
482.31	58.51
482.49	77.24
482.67	51.49
482.85	86.60
483.03	124.05
483.21	37.45
483.39	58.51
483.57	44.47
483.74	98.30
483.92	65.54
484.10	44.47
484.28	63.19
484.46	18.72
484.64	88.94
484.82	74.90
485.00	100.64
485.18	0.00
485.35	93.62
485.53	44.47
485.71	88.94
485.89	72.56
486.07	79.58
486.25	51.49
486.43	95.96
486.61	138.09
486.78	77.24
486.96	18.72
487.14	102.98
487.32	58.51
487.50	39.79
487.68	110.01
487.85	114.69
488.03	35.11
488.21	0.00
488.39	30.43
488.57	42.13
488.75	91.28
488.92	98.30
489.10	81.92
489.28	46.81
489.46	112.35
489.64	51.49
489.81	32.77
489.99	51.49
490.17	88.94
490.35	4.68
490.53	63.19
490.70	98.30
490.88	65.54
491.06	74.90
491.24	16.38
491.41	79.58
491.59	105.32
491.77	32.77
491.95	23.41
492.13	2.34
492.30	81.92
492.48	0.00
492.66	72.56
492.84	49.15
493.01	154.48
493.19	63.19
493.37	93.62
493.54	93.62
493.72	42.13
493.90	114.69
494.08	21.06
494.25	53.83
494.43	28.09
494.61	81.92
494.79	77.24
494.96	84.26
495.14	114.69
495.32	112.35
495.49	42.13
495.67	39.79
495.85	77.24
496.02	72.56
496.20	0.00
496.38	81.92
496.55	60.85
496.73	32.77
496.91	51.49
497.09	79.58
497.26	138.09
497.44	100.64
497.62	91.28
497.79	91.28
497.97	56.17
498.14	74.90
498.32	91.28
498.50	117.03
498.67	124.05
498.85	58.51
499.03	145.11
499.20	149.79
499.38	44.47
499.56	23.41
499.73	0.00
499.91	93.62
500.08	91.28
500.26	42.13
500.44	23.41
500.61	28.09
500.79	63.19
500.97	58.51
501.14	7.02
501.32	53.83
501.49	0.00
501.67	74.90
501.84	35.11
502.02	114.69
502.20	84.26
502.37	128.73
502.55	81.92
502.72	91.28
502.90	51.49
503.07	56.17
503.25	35.11
503.43	56.17
503.60	37.45
503.78	70.22
503.95	56.17
504.13	67.88
504.30	121.71
504.48	65.54
504.65	44.47
504.83	72.56
505.01	74.90
505.18	124.05
505.36	100.64
505.53	74.90
505.71	126.39
505.88	124.05
506.06	30.43
506.23	81.92
506.41	72.56
506.58	25.75
506.76	63.19
506.93	95.96
507.11	74.90
507.28	79.58
507.46	119.37
507.63	117.03
507.81	88.94
507.98	56.17
508.16	39.79
508.33	114.69
508.50	51.49
508.68	102.98
508.85	63.19
509.03	107.66
509.20	65.54
509.38	79.58
509.55	107.66
509.73	84.26
509.90	86.60
510.08	88.94
510.25	145.11
510.42	100.64
510.60	77.24
510.77	39.79
510.95	95.96
511.12	91.28
511.30	63.19
511.47	42.13
511.64	86.60
511.82	124.05
511.99	93.62
512.17	42.13
512.34	81.92
512.51	60.85
512.69	102.98
512.86	32.77
513.04	44.47
513.21	63.19
513.38	39.79
513.56	119.37
513.73	161.50
513.90	53.83
514.08	140.43
514.25	77.24
514.43	49.15
514.60	124.05
514.77	56.17
514.95	58.51
515.12	32.77
515.29	58.51
515.47	32.77
515.64	51.49
515.81	74.90
515.99	72.56
516.16	63.19
516.33	91.28
516.51	91.28
516.68	0.00
516.85	16.38
517.03	131.07
517.20	117.03
517.37	58.51
517.54	100.64
517.72	84.26
517.89	126.39
518.06	74.90
518.24	102.98
518.41	128.73
518.58	119.37
518.75	79.58
518.93	117.03
519.10	77.24
519.27	60.85
519.45	93.62
519.62	159.16
519.79	49.15
519.96	100.64
520.14	100.64
520.31	67.88
520.48	35.11
520.65	51.49
520.83	107.66
521.00	84.26
521.17	65.54
521.34	58.51
521.52	95.96
521.69	98.30
521.86	140.43
522.03	100.64
522.20	112.35
522.38	117.03
522.55	107.66
522.72	51.49
522.89	100.64
523.07	74.90
523.24	63.19
523.41	117.03
523.58	117.03
523.75	98.30
523.92	46.81
524.10	133.41
524.27	128.73
524.44	100.64
524.61	100.64
524.78	42.13
524.96	0.00
525.13	14.04
525.30	138.09
525.47	65.54
525.64	60.85
525.81	131.07
525.98	51.49
526.16	46.81
526.33	30.43
526.50	84.26
526.67	79.58
526.84	114.69
527.01	131.07
527.18	67.88
527.36	77.24
527.53	107.66
527.70	46.81
527.87	98.30
528.04	84.26
528.21	126.39
528.38	18.72
528.55	105.32
528.72	180.22
528.89	114.69
529.07	102.98
529.24	56.17
529.41	88.94
529.58	102.98
529.75	81.92
529.92	126.39
530.09	39.79
530.26	65.54
530.43	53.83
530.60	39.79
530.77	100.64
530.94	119.37
531.11	156.82
531.28	117.03
531.46	126.39
531.63	112.35
531.80	131.07
531.97	44.47
532.14	74.90
532.31	23.41
532.48	86.60
532.65	56.17
532.82	53.83
532.99	72.56
533.16	112.35
533.33	0.00
533.50	77.24
533.67	16.38
533.84	107.66
534.01	112.35
534.18	72.56
534.35	39.79
534.52	93.62
534.69	79.58
534.86	51.49
535.03	58.51
535.20	91.28
535.37	124.05
535.54	72.56
535.71	105.32
535.88	105.32
536.05	74.90
536.22	100.64
536.38	81.92
536.55	74.90
536.72	72.56
536.89	110.01
537.06	23.41
537.23	74.90
537.40	53.83
537.57	60.85
537.74	81.92
537.91	56.17
538.08	35.11
538.25	95.96
538.42	102.98
538.59	110.01
538.75	102.98
538.92	77.24
539.09	117.03
539.26	53.83
539.43	93.62
539.60	79.58
539.77	102.98
539.94	100.64
540.11	142.77
540.28	72.56
540.44	91.28
540.61	74.90
540.78	63.19
540.95	110.01
541.12	16.38
541.29	119.37
541.46	58.51
541.62	14.04
541.79	70.22
541.96	63.19
542.13	98.30
542.30	102.98
542.47	152.13
542.63	86.60
542.80	133.41
542.97	91.28
543.14	74.90
543.31	49.15
543.48	81.92
543.64	91.28
543.81	84.26
543.98	126.39
544.15	98.30
544.32	65.54
544.48	126.39
544.65	51.49
544.82	98.30
544.99	58.51
545.16	102.98
545.32	86.60
545.49	105.32
545.66	91.28
545.83	60.85
546.00	63.19
546.16	60.85
546.33	86.60
546.50	79.58
546.67	142.77
546.83	56.17
547.00	65.54
547.17	67.88
547.34	0.00
547.50	121.71
547.67	77.24
547.84	161.50
548.00	0.00
548.17	77.24
548.34	105.32
548.51	30.43
548.67	72.56
548.84	25.75
549.01	81.92
549.18	140.43
549.34	102.98
549.51	133.41
549.68	86.60
549.84	79.58
550.01	95.96
550.18	81.92
550.34	102.98
550.51	65.54
550.68	84.26
550.84	145.11
551.01	84.26
551.18	65.54
551.34	93.62
551.51	142.77
551.68	119.37
551.84	67.88
552.01	124.05
552.18	35.11
552.34	53.83
552.51	102.98
552.68	93.62
552.84	70.22
553.01	0.00
553.18	117.03
553.34	77.24
553.51	77.24
553.67	126.39
553.84	93.62
554.01	117.03
554.17	49.15
554.34	42.13
554.51	63.19
554.67	142.77
554.84	67.88
555.00	110.01
555.17	133.41
555.33	49.15
555.50	114.69
555.67	102.98
555.83	37.45
556.00	86.60
556.16	114.69
556.33	72.56
556.50	105.32
556.66	81.92
556.83	84.26
556.99	56.17
557.16	110.01
557.32	86.60
557.49	49.15
557.65	42.13
557.82	67.88
557.98	110.01
558.15	44.47
558.32	51.49
558.48	84.26
558.65	91.28
558.81	114.69
558.98	81.92
559.14	58.51
559.31	79.58
559.47	138.09
559.64	67.88
559.80	100.64
559.97	37.45
560.13	107.66
560.30	81.92
560.46	72.56
560.63	18.72
560.79	70.22
560.96	88.94
561.12	112.35
561.29	72.56
561.45	7.02
561.61	135.75
561.78	88.94
561.94	23.41
562.11	102.98
562.27	107.66
562.44	117.03
562.60	110.01
562.77	156.82
562.93	70.22
563.10	135.75
563.26	84.26
563.42	119.37
563.59	81.92
563.75	79.58
563.92	51.49
564.08	105.32
564.24	65.54
564.41	142.77
564.57	95.96
564.74	105.32
564.90	149.79
565.07	114.69
565.23	37.45
565.39	84.26
565.56	37.45
565.72	74.90
565.88	18.72
566.05	42.13
566.21	77.24
566.38	119.37
566.54	67.88
566.70	53.83
566.87	35.11
567.03	142.77
567.19	98.30
567.36	70.22
567.52	46.81
567.68	28.09
567.85	88.94
568.01	100.64
568.17	53.83
568.34	49.15
568.50	88.94
568.66	56.17
568.83	77.24
568.99	98.30
569.15	39.79
569.32	112.35
569.48	168.52
569.64	98.30
569.81	142.77
569.97	81.92
570.13	98.30
570.30	86.60
570.46	72.56
570.62	60.85
570.78	23.41
570.95	81.92
571.11	65.54
571.27	56.17
571.43	42.13
571.60	93.62
571.76	60.85
571.92	175.54
572.09	63.19
572.25	32.77
572.41	0.00
572.57	65.54
572.74	49.15
572.90	95.96
573.06	91.28
573.22	107.66
573.38	105.32
573.55	63.19
573.71	91.28
573.87	56.17
574.03	107.66
574.20	79.58
574.36	119.37
574.52	74.90
574.68	105.32
574.84	84.26
575.01	77.24
575.17	154.48
575.33	65.54
575.49	112.35
575.65	60.85
575.82	121.71
575.98	128.73
576.14	93.62
576.30	74.90
576.46	60.85
576.62	98.30
576.79	74.90
576.95	77.24
577.11	156.82
577.27	105.32
577.43	46.81
577.59	70.22
577.75	46.81
577.92	70.22
578.08	35.11
578.24	86.60
578.40	49.15
578.56	112.35
578.72	98.30
578.88	95.96
579.04	133.41
579.21	86.60
579.37	110.01
579.53	9.36
579.69	63.19
579.85	72.56
580.01	95.96
580.17	56.17
580.33	100.64
580.49	126.39
580.65	37.45
580.82	86.60
580.98	70.22
581.14	81.92
581.30	67.88
581.46	32.77
581.62	81.92
581.78	156.82
581.94	65.54
582.10	30.43
582.26	142.77
582.42	91.28
582.58	135.75
582.74	91.28
582.90	100.64
583.06	79.58
583.22	9.36
583.38	35.11
583.54	58.51
583.70	102.98
583.86	98.30
584.02	67.88
584.18	91.28
584.34	44.47
584.50	16.38
584.66	63.19
584.82	98.30
584.98	100.64
585.14	35.11
585.30	30.43
585.46	131.07
585.62	70.22
585.78	65.54
585.94	37.45
586.10	121.71
586.26	102.98
586.42	91.28
586.58	86.60
586.74	81.92
586.90	100.64
587.06	72.56
587.22	42.13
587.38	84.26
587.54	37.45
587.70	42.13
587.86	88.94
588.02	128.73
588.18	107.66
588.34	91.28
588.49	102.98
588.65	88.94
588.81	46.81
588.97	35.11
589.13	126.39
589.29	74.90
589.45	65.54
589.61	88.94
589.77	0.00
589.93	21.06
590.08	72.56
590.24	84.26
590.40	77.24
590.56	131.07
590.72	56.17
590.88	107.66
591.04	44.47
591.20	74.90
591.35	131.07
591.51	53.83
591.67	77.24
591.83	0.00
591.99	168.52
592.15	60.85
592.31	56.17
592.46	46.81
592.62	0.00
592.78	49.15
592.94	65.54
593.10	72.56
593.26	53.83
593.41	79.58
593.57	67.88
593.73	60.85
593.89	53.83
594.05	18.72
594.20	91.28
594.36	124.05
594.52	105.32
594.68	53.83
594.84	56.17
594.99	91.28
595.15	93.62
595.31	25.75
595.47	65.54
595.62	18.72
595.78	23.41
595.94	35.11
596.10	105.32
596.25	88.94
596.41	100.64
596.57	72.56
596.73	74.90
596.88	102.98
597.04	84.26
597.20	93.62
597.36	124.05
597.51	91.28
597.67	79.58
597.83	23.41
597.99	21.06
598.14	95.96
598.30	46.81
598.46	65.54
598.61	4.68
598.77	67.88
598.93	128.73
599.09	7.02
599.24	112.35
599.40	37.45
599.56	65.54
599.71	7.02
599.87	18.72
600.03	23.41
600.18	112.35
600.34	93.62
600.50	46.81
600.65	44.47
600.81	112.35
600.97	63.19
601.12	133.41
601.28	84.26
601.44	63.19
601.59	18.72
601.75	28.09
601.91	35.11
602.06	16.38
602.22	88.94
602.37	63.19
602.53	56.17
602.69	98.30
602.84	58.51
603.00	51.49
603.16	124.05
603.31	42.13
603.47	51.49
603.62	39.79
603.78	32.77
603.94	60.85
604.09	67.88
604.25	65.54
604.40	56.17
604.56	91.28
604.71	105.32
604.87	46.81
605.03	98.30
605.18	81.92
605.34	98.30
605.49	175.54
605.65	74.90
605.80	100.64
605.96	65.54
606.12	79.58
606.27	79.58
606.43	154.48
606.58	102.98
606.74	14.04
606.89	32.77
607.05	91.28
607.20	140.43
607.36	49.15
607.51	0.00
607.67	131.07
607.82	0.00
607.98	86.60
608.13	56.17
608.29	126.39
608.44	72.56
608.60	149.79
608.75	53.83
608.91	18.72
609.06	93.62
609.22	67.88
609.37	67.88
609.53	39.79
609.68	37.45
609.84	100.64
609.99	147.45
610.15	46.81
610.30	32.77
610.46	77.24
610.61	16.38
610.76	107.66
610.92	21.06
611.07	35.11
611.23	16.38
611.38	117.03
611.54	56.17
611.69	67.88
611.84	46.81
612.00	86.60
612.15	72.56
612.31	107.66
612.46	46.81
612.62	79.58
612.77	93.62
612.92	58.51
613.08	0.00
613.23	53.83
613.39	91.28
613.54	49.15
613.69	32.77
613.85	133.41
614.00	124.05
614.15	88.94
614.31	93.62
614.46	88.94
614.62	25.75
614.77	67.88
614.92	93.62
615.08	79.58
615.23	74.90
615.38	105.32
615.54	37.45
615.69	21.06
615.84	39.79
616.00	133.41
616.15	88.94
616.30	0.00
616.46	28.09
616.61	79.58
616.76	46.81
616.92	56.17
617.07	49.15
617.22	86.60
617.37	93.62
617.53	133.41
617.68	7.02
617.83	67.88
617.99	16.38
618.14	74.90
618.29	65.54
618.45	95.96
618.60	49.15
618.75	53.83
618.90	2.34
619.06	79.58
619.21	74.90
619.36	77.24
619.51	60.85
619.67	70.22
619.82	65.54
619.97	37.45
620.12	16.38
620.28	93.62
620.43	67.88
620.58	44.47
620.73	110.01
620.89	21.06
621.04	72.56
621.19	138.09
621.34	74.90
621.49	81.92
621.65	105.32
621.80	51.49
621.95	49.15
622.10	51.49
622.25	60.85
622.41	53.83
622.56	102.98
622.71	46.81
622.86	91.28
623.01	51.49
623.16	88.94
623.32	131.07
623.47	56.17
623.62	30.43
623.77	56.17
623.92	63.19
624.07	56.17
624.23	49.15
624.38	86.60
624.53	58.51
624.68	84.26
624.83	16.38
624.98	28.09
625.13	91.28
625.29	81.92
625.44	16.38
625.59	9.36
625.74	79.58
625.89	53.83
626.04	44.47
626.19	60.85
626.34	37.45
626.49	28.09
626.65	51.49
626.80	63.19
626.95	117.03
627.10	79.58
627.25	16.38
627.40	39.79
627.55	42.13
627.70	88.94
627.85	98.30
628.00	95.96
628.15	91.28
628.30	72.56
628.45	30.43
628.60	0.00
628.76	2.34
628.91	16.38
629.06	72.56
629.21	86.60
629.36	32.77
629.51	39.79
629.66	65.54
629.81	67.88
629.96	49.15
630.11	11.70
630.26	142.77
630.41	98.30
630.56	140.43
630.71	88.94
630.86	102.98
631.01	51.49
631.16	18.72
631.31	102.98
631.46	72.56
631.61	74.90
631.76	77.24
631.91	81.92
632.06	0.00
632.21	28.09
632.36	70.22
632.51	42.13
632.66	49.15
632.81	124.05
632.96	7.02
633.10	46.81
633.25	84.26
633.40	67.88
633.55	84.26
633.70	53.83
633.85	7.02
634.00	42.13
634.15	60.85
634.30	11.70
634.45	42.13
634.60	44.47
634.75	79.58
634.90	42.13
635.05	35.11
635.19	147.45
635.34	84.26
635.49	91.28
635.64	23.41
635.79	60.85
635.94	72.56
636.09	46.81
636.24	25.75
636.39	117.03
636.53	84.26
636.68	72.56
636.83	60.85
636.98	46.81
637.13	128.73
637.28	81.92
637.43	14.04
637.57	37.45
637.72	72.56
637.87	149.79
638.02	93.62
638.17	35.11
638.32	98.30
638.46	9.36
638.61	145.11
638.76	60.85
638.91	58.51
639.06	0.00
639.20	72.56
639.35	74.90
639.50	0.00
639.65	81.92
639.80	60.85
639.94	93.62
640.09	126.39
640.24	42.13
640.39	18.72
640.54	72.56
640.68	84.26
640.83	67.88
640.98	28.09
641.13	53.83
641.27	86.60
641.42	79.58
641.57	53.83
641.72	56.17
641.86	72.56
642.01	25.75
642.16	124.05
642.31	91.28
642.45	93.62
642.60	25.75
642.75	0.00
642.90	105.32
643.04	37.45
643.19	124.05
643.34	88.94
643.48	49.15
643.63	93.62
643.78	77.24
643.93	81.92
644.07	79.58
644.22	98.30
644.37	63.19
644.51	72.56
644.66	28.09
644.81	140.43
644.95	93.62
645.10	16.38
645.25	60.85
645.39	35.11
645.54	44.47
645.69	91.28
645.83	110.01
645.98	42.13
646.13	0.00
646.27	98.30
646.42	119.37
646.57	161.50
646.71	51.49
646.86	124.05
647.00	46.81
647.15	56.17
647.30	77.24
647.44	7.02
647.59	30.43
647.74	42.13
647.88	100.64
648.03	0.00
648.17	28.09
648.32	0.00
648.47	0.00
648.61	60.85
648.76	28.09
648.90	65.54
649.05	21.06
649.20	53.83
649.34	16.38
649.49	46.81
649.63	93.62
649.78	28.09
649.92	81.92
650.07	86.60
650.21	112.35
650.36	0.00
650.51	11.70
650.65	0.00
650.80	23.41
650.94	28.09
651.09	77.24
651.23	28.09
651.38	53.83
651.52	86.60
651.67	21.06
651.81	0.00
651.96	74.90
652.10	86.60
652.25	117.03
652.39	30.43
652.54	121.71
652.68	21.06
652.83	63.19
652.97	39.79
653.12	32.77
653.26	65.54
653.41	95.96
653.55	91.28
653.70	105.32
653.84	28.09
653.99	11.70
654.13	65.54
654.27	77.24
654.42	21.06
654.56	21.06
654.71	70.22
654.85	37.45
655.00	0.00
655.14	84.26
655.29	72.56
655.43	84.26
655.57	42.13
655.72	102.98
655.86	18.72
656.01	100.64
656.15	0.00
656.30	74.90
656.44	63.19
656.58	63.19
656.73	86.60
656.87	72.56
657.01	60.85
657.16	42.13
657.30	9.36
657.45	93.62
657.59	32.77
657.73	95.96
657.88	56.17
658.02	100.64
658.16	18.72
658.31	49.15
658.45	30.43
658.60	60.85
658.74	28.09
658.88	100.64
659.03	84.26
659.17	79.58
659.31	37.45
659.46	63.19
659.60	44.47
659.74	65.54
659.89	25.75
660.03	37.45
660.17	65.54
660.32	56.17
660.46	21.06
660.60	154.48
660.74	86.60
660.89	77.24
661.03	79.58
661.17	51.49
661.32	88.94
661.46	53.83
661.60	56.17
661.74	46.81
661.89	65.54
662.03	46.81
662.17	53.83
662.31	0.00
662.46	58.51
662.60	51.49
662.74	79.58
662.88	30.43
663.03	49.15
663.17	63.19
663.31	21.06
663.45	86.60
663.60	88.94
663.74	25.75
663.88	56.17
664.02	53.83
664.17	30.43
664.31	23.41
664.45	37.45
664.59	25.75
664.73	74.90
664.88	56.17
665.02	2.34
665.16	60.85
665.30	95.96
665.44	77.24
665.59	42.13
665.73	35.11
665.87	0.00
666.01	60.85
666.15	72.56
666.29	110.01
666.44	37.45
666.58	0.00
666.72	100.64
666.86	84.26
667.00	25.75
667.14	81.92
667.28	70.22
667.43	0.00
667.57	23.41
667.71	65.54
667.85	79.58
667.99	49.15
668.13	79.58
668.27	39.79
668.41	49.15
668.56	37.45
668.70	93.62
668.84	100.64
668.98	102.98
669.12	18.72
669.26	65.54
669.40	32.77
669.54	46.81
669.68	124.05
669.82	0.00
669.96	93.62
670.10	28.09
670.25	0.00
670.39	67.88
670.53	37.45
670.67	16.38
670.81	44.47
670.95	70.22
671.09	9.36
671.23	51.49
671.37	51.49
671.51	63.19
671.65	23.41
671.79	28.09
671.93	23.41
672.07	63.19
672.21	124.05
672.35	46.81
672.49	70.22
672.63	35.11
672.77	14.04
672.91	9.36
673.05	98.30
673.19	4.68
673.33	70.22
673.47	7.02
673.61	51.49
673.75	18.72
673.89	135.75
674.03	77.24
674.17	32.77
674.31	51.49
674.45	105.32
674.59	30.43
674.73	63.19
674.87	77.24
675.01	107.66
675.15	42.13
675.29	67.88
675.43	32.77
675.56	42.13
675.70	79.58
675.84	37.45
675.98	25.75
676.12	7.02
676.26	44.47
676.40	42.13
676.54	7.02
676.68	16.38
676.82	110.01
676.96	39.79
677.10	51.49
677.23	63.19
677.37	30.43
677.51	14.04
677.65	154.48
677.79	2.34
677.93	28.09
678.07	42.13
678.21	4.68
678.34	42.13
678.48	44.47
678.62	28.09
678.76	4.68
678.90	0.00
679.04	51.49
679.18	30.43
679.31	91.28
679.45	14.04
679.59	35.11
679.73	30.43
679.87	88.94
680.00	37.45
680.14	16.38
680.28	37.45
680.42	44.47
680.56	46.81
680.70	23.41
680.83	7.02
680.97	77.24
681.11	49.15
681.25	14.04
681.39	86.60
681.52	65.54
681.66	93.62
681.80	56.17
681.94	30.43
682.07	65.54
682.21	0.00
682.35	149.79
682.49	0.00
682.62	65.54
682.76	0.00
682.90	70.22
683.04	74.90
683.17	37.45
683.31	14.04
683.45	46.81
683.59	25.75
683.72	53.83
683.86	0.00
684.00	112.35
684.13	60.85
684.27	86.60
684.41	37.45
684.55	18.72
684.68	86.60
684.82	74.90
684.96	30.43
685.09	18.72
685.23	42.13
685.37	124.05
685.50	32.77
685.64	79.58
685.78	30.43
685.91	124.05
686.05	98.30
686.19	0.00
686.32	18.72
686.46	0.00
686.60	25.75
686.73	37.45
686.87	32.77
687.01	7.02
687.14	39.79
687.28	4.68
687.42	46.81
687.55	51.49
687.69	46.81
687.82	28.09
687.96	46.81
688.10	18.72
688.23	0.00
688.37	98.30
688.50	67.88
688.64	88.94
688.78	67.88
688.91	53.83
689.05	126.39
689.18	65.54
689.32	42.13
689.46	98.30
689.59	46.81
689.73	53.83
689.86	30.43
690.00	49.15
690.13	37.45
690.27	91.28
690.41	0.00
690.54	23.41
690.68	30.43
690.81	58.51
690.95	121.71
691.08	100.64
691.22	100.64
691.35	53.83
691.49	0.00
691.62	102.98
691.76	154.48
691.89	46.81
692.03	32.77
692.16	67.88
692.30	21.06
692.43	53.83
692.57	0.00
692.70	42.13
692.84	14.04
692.97	28.09
693.11	32.77
693.24	93.62
693.38	0.00
693.51	0.00
693.65	39.79
693.78	7.02
693.92	98.30
694.05	79.58
694.19	0.00
694.32	0.00
694.45	9.36
694.59	65.54
694.72	0.00
694.86	2.34
694.99	67.88
695.13	49.15
695.26	0.00
695.39	107.66
695.53	11.70
695.66	74.90
695.80	56.17
695.93	56.17
696.07	21.06
696.20	16.38
696.33	56.17
696.47	0.00
696.60	121.71
696.73	14.04
696.87	60.85
697.00	60.85
697.14	14.04
697.27	35.11
697.40	25.75
697.54	16.38
697.67	0.00
697.80	42.13
697.94	0.00
698.07	14.04
698.21	0.00
698.34	102.98
698.47	44.47
698.61	79.58
698.74	11.70
698.87	11.70
699.01	21.06
699.14	60.85
699.27	0.00
699.40	30.43
699.54	0.00
699.67	16.38
699.80	60.85
699.94	70.22
700.07	0.00
700.20	16.38
700.34	0.00
700.47	56.17
700.60	0.00
700.73	49.15
700.87	30.43
701.00	95.96
701.13	21.06
701.26	51.49
701.40	30.43
701.53	56.17
701.66	35.11
701.79	37.45
701.93	25.75
702.06	51.49
702.19	67.88
702.32	9.36
702.46	2.34
702.59	86.60
702.72	0.00
702.85	58.51
702.99	0.00
703.12	98.30
703.25	107.66
703.38	46.81
703.51	18.72
703.65	11.70
703.78	88.94
703.91	18.72
704.04	39.79
704.17	39.79
704.31	102.98
704.44	39.79
704.57	0.00
704.70	18.72
704.83	39.79
704.96	9.36
705.10	110.01
705.23	51.49
>>>>>End Processed Spectral Data<<<<<
