SpectraSuite Data File
++++++++++++++++++++++++++++++++++++
Date: Fri Oct 04 12:13:45 GMT-05:00 2013
User: price-jones
Dark Spectrum Present: No
Reference Spectrum Present: No
Number of Sampled Component Spectra: 1
Spectrometers: USB2+H05261
Integration Time (usec): 10000 (USB2+H05261)
Spectra Averaged: 1 (USB2+H05261)
Boxcar Smoothing: 0 (USB2+H05261)
Correct for Electrical Dark: No (USB2+H05261)
Strobe/Lamp Enabled: No (USB2+H05261)
Correct for Detector Non-linearity: No (USB2+H05261)
Correct for Stray Light: No (USB2+H05261)
Number of Pixels in Processed Spectrum: 2048
>>>>>Begin Processed Spectral Data<<<<<
365.73	81.92
365.92	81.92
366.12	81.92
366.32	0.00
366.52	0.00
366.72	0.00
366.91	0.00
367.11	0.00
367.31	0.00
367.51	0.00
367.70	0.00
367.90	0.00
368.10	0.00
368.30	0.00
368.49	0.00
368.69	0.00
368.89	0.00
369.09	0.00
369.28	0.00
369.48	0.00
369.68	0.00
369.87	0.00
370.07	0.00
370.27	0.00
370.47	0.00
370.66	0.00
370.86	0.00
371.06	0.00
371.25	0.00
371.45	0.00
371.65	0.00
371.84	0.00
372.04	46.81
372.24	0.00
372.44	0.00
372.63	0.00
372.83	35.11
373.03	0.00
373.22	0.00
373.42	0.00
373.62	0.00
373.81	0.00
374.01	53.83
374.21	112.35
374.40	16.38
374.60	93.62
374.79	53.83
374.99	9.36
375.19	46.81
375.38	0.00
375.58	72.56
375.78	44.47
375.97	0.00
376.17	0.00
376.37	0.00
376.56	0.00
376.76	0.00
376.95	37.45
377.15	35.11
377.35	11.70
377.54	0.00
377.74	7.02
377.93	9.36
378.13	86.60
378.33	0.00
378.52	0.00
378.72	0.00
378.91	0.00
379.11	42.13
379.31	0.00
379.50	0.00
379.70	0.00
379.89	0.00
380.09	23.41
380.28	16.38
380.48	0.00
380.68	46.81
380.87	65.54
381.07	65.54
381.26	0.00
381.46	39.79
381.65	0.00
381.85	11.70
382.04	32.77
382.24	0.00
382.43	14.04
382.63	35.11
382.83	18.72
383.02	39.79
383.22	53.83
383.41	28.09
383.61	11.70
383.80	23.41
384.00	21.06
384.19	37.45
384.39	63.19
384.58	35.11
384.78	18.72
384.97	56.17
385.17	25.75
385.36	56.17
385.56	14.04
385.75	0.00
385.95	9.36
386.14	0.00
386.34	56.17
386.53	2.34
386.72	49.15
386.92	39.79
387.11	28.09
387.31	0.00
387.50	39.79
387.70	42.13
387.89	60.85
388.09	46.81
388.28	74.90
388.48	44.47
388.67	0.00
388.86	0.00
389.06	0.00
389.25	65.54
389.45	63.19
389.64	58.51
389.84	4.68
390.03	28.09
390.22	21.06
390.42	0.00
390.61	56.17
390.81	121.71
391.00	23.41
391.19	74.90
391.39	42.13
391.58	0.00
391.78	11.70
391.97	0.00
392.16	30.43
392.36	0.00
392.55	102.98
392.75	32.77
392.94	44.47
393.13	35.11
393.33	0.00
393.52	0.00
393.71	60.85
393.91	23.41
394.10	79.58
394.29	25.75
394.49	0.00
394.68	0.00
394.88	58.51
395.07	0.00
395.26	18.72
395.46	9.36
395.65	0.00
395.84	0.00
396.04	0.00
396.23	0.00
396.42	67.88
396.62	67.88
396.81	0.00
397.00	0.00
397.19	23.41
397.39	18.72
397.58	0.00
397.77	0.00
397.97	51.49
398.16	58.51
398.35	53.83
398.55	58.51
398.74	28.09
398.93	0.00
399.12	0.00
399.32	30.43
399.51	0.00
399.70	37.45
399.90	0.00
400.09	0.00
400.28	0.00
400.47	11.70
400.67	72.56
400.86	60.85
401.05	7.02
401.24	56.17
401.44	49.15
401.63	11.70
401.82	23.41
402.01	2.34
402.21	0.00
402.40	37.45
402.59	2.34
402.78	0.00
402.97	11.70
403.17	0.00
403.36	16.38
403.55	42.13
403.74	16.38
403.93	4.68
404.13	32.77
404.32	60.85
404.51	0.00
404.70	107.66
404.89	9.36
405.09	28.09
405.28	21.06
405.47	105.32
405.66	74.90
405.85	0.00
406.05	14.04
406.24	4.68
406.43	32.77
406.62	49.15
406.81	46.81
407.00	0.00
407.20	56.17
407.39	58.51
407.58	56.17
407.77	51.49
407.96	53.83
408.15	0.00
408.34	39.79
408.54	28.09
408.73	0.00
408.92	0.00
409.11	28.09
409.30	16.38
409.49	23.41
409.68	7.02
409.87	37.45
410.07	0.00
410.26	11.70
410.45	84.26
410.64	0.00
410.83	0.00
411.02	42.13
411.21	72.56
411.40	56.17
411.59	112.35
411.78	18.72
411.98	0.00
412.17	107.66
412.36	0.00
412.55	46.81
412.74	74.90
412.93	0.00
413.12	32.77
413.31	9.36
413.50	0.00
413.69	7.02
413.88	0.00
414.07	7.02
414.26	49.15
414.45	0.00
414.64	32.77
414.83	53.83
415.02	37.45
415.22	18.72
415.41	0.00
415.60	58.51
415.79	32.77
415.98	86.60
416.17	60.85
416.36	77.24
416.55	44.47
416.74	63.19
416.93	2.34
417.12	0.00
417.31	0.00
417.50	9.36
417.69	28.09
417.88	28.09
418.07	2.34
418.26	0.00
418.45	4.68
418.64	53.83
418.83	60.85
419.02	11.70
419.21	86.60
419.39	14.04
419.58	0.00
419.77	88.94
419.96	51.49
420.15	37.45
420.34	70.22
420.53	46.81
420.72	93.62
420.91	84.26
421.10	21.06
421.29	35.11
421.48	65.54
421.67	70.22
421.86	0.00
422.05	53.83
422.24	77.24
422.43	0.00
422.61	28.09
422.80	102.98
422.99	32.77
423.18	37.45
423.37	35.11
423.56	0.00
423.75	42.13
423.94	56.17
424.13	100.64
424.32	0.00
424.50	25.75
424.69	11.70
424.88	128.73
425.07	67.88
425.26	81.92
425.45	0.00
425.64	77.24
425.83	49.15
426.01	72.56
426.20	72.56
426.39	58.51
426.58	0.00
426.77	0.00
426.96	60.85
427.15	37.45
427.33	0.00
427.52	53.83
427.71	0.00
427.90	81.92
428.09	79.58
428.28	30.43
428.46	30.43
428.65	25.75
428.84	28.09
429.03	18.72
429.22	14.04
429.40	42.13
429.59	25.75
429.78	25.75
429.97	39.79
430.16	18.72
430.34	49.15
430.53	37.45
430.72	53.83
430.91	79.58
431.10	56.17
431.28	65.54
431.47	11.70
431.66	2.34
431.85	14.04
432.03	28.09
432.22	11.70
432.41	42.13
432.60	56.17
432.79	51.49
432.97	35.11
433.16	88.94
433.35	102.98
433.54	58.51
433.72	44.47
433.91	0.00
434.10	32.77
434.28	65.54
434.47	32.77
434.66	46.81
434.85	81.92
435.03	39.79
435.22	51.49
435.41	72.56
435.59	65.54
435.78	25.75
435.97	53.83
436.16	18.72
436.34	0.00
436.53	16.38
436.72	65.54
436.90	60.85
437.09	0.00
437.28	44.47
437.46	0.00
437.65	0.00
437.84	37.45
438.02	28.09
438.21	119.37
438.40	53.83
438.58	35.11
438.77	95.96
438.96	0.00
439.14	30.43
439.33	0.00
439.52	53.83
439.70	58.51
439.89	39.79
440.08	2.34
440.26	142.77
440.45	56.17
440.63	42.13
440.82	0.00
441.01	79.58
441.19	39.79
441.38	39.79
441.57	46.81
441.75	107.66
441.94	114.69
442.12	77.24
442.31	46.81
442.50	35.11
442.68	0.00
442.87	35.11
443.05	56.17
443.24	16.38
443.43	0.00
443.61	21.06
443.80	28.09
443.98	133.41
444.17	67.88
444.35	28.09
444.54	0.00
444.73	0.00
444.91	63.19
445.10	51.49
445.28	0.00
445.47	77.24
445.65	7.02
445.84	51.49
446.02	79.58
446.21	53.83
446.39	65.54
446.58	67.88
446.77	11.70
446.95	32.77
447.14	37.45
447.32	93.62
447.51	67.88
447.69	21.06
447.88	23.41
448.06	46.81
448.25	0.00
448.43	9.36
448.62	0.00
448.80	0.00
448.99	91.28
449.17	0.00
449.36	51.49
449.54	0.00
449.73	0.00
449.91	91.28
450.10	39.79
450.28	53.83
450.46	7.02
450.65	21.06
450.83	49.15
451.02	49.15
451.20	51.49
451.39	84.26
451.57	28.09
451.76	65.54
451.94	70.22
452.13	28.09
452.31	35.11
452.49	16.38
452.68	14.04
452.86	0.00
453.05	21.06
453.23	18.72
453.42	65.54
453.60	4.68
453.78	53.83
453.97	121.71
454.15	51.49
454.34	0.00
454.52	0.00
454.70	91.28
454.89	107.66
455.07	0.00
455.26	46.81
455.44	0.00
455.62	23.41
455.81	37.45
455.99	21.06
456.17	0.00
456.36	70.22
456.54	0.00
456.73	42.13
456.91	0.00
457.09	0.00
457.28	70.22
457.46	0.00
457.64	49.15
457.83	18.72
458.01	67.88
458.19	21.06
458.38	72.56
458.56	46.81
458.74	100.64
458.93	81.92
459.11	0.00
459.29	23.41
459.48	9.36
459.66	32.77
459.84	7.02
460.03	0.00
460.21	0.00
460.39	121.71
460.57	30.43
460.76	102.98
460.94	63.19
461.12	30.43
461.31	21.06
461.49	7.02
461.67	14.04
461.85	100.64
462.04	58.51
462.22	81.92
462.40	39.79
462.59	0.00
462.77	88.94
462.95	77.24
463.13	72.56
463.32	9.36
463.50	46.81
463.68	60.85
463.86	44.47
464.05	107.66
464.23	2.34
464.41	107.66
464.59	32.77
464.78	28.09
464.96	0.00
465.14	18.72
465.32	58.51
465.50	0.00
465.69	0.00
465.87	32.77
466.05	25.75
466.23	23.41
466.41	110.01
466.60	30.43
466.78	98.30
466.96	42.13
467.14	37.45
467.32	16.38
467.51	58.51
467.69	74.90
467.87	58.51
468.05	0.00
468.23	44.47
468.41	0.00
468.60	2.34
468.78	63.19
468.96	67.88
469.14	42.13
469.32	60.85
469.50	60.85
469.69	0.00
469.87	39.79
470.05	74.90
470.23	0.00
470.41	53.83
470.59	16.38
470.77	56.17
470.95	42.13
471.14	0.00
471.32	28.09
471.50	21.06
471.68	42.13
471.86	9.36
472.04	25.75
472.22	0.00
472.40	23.41
472.58	60.85
472.77	60.85
472.95	44.47
473.13	114.69
473.31	35.11
473.49	18.72
473.67	28.09
473.85	86.60
474.03	35.11
474.21	53.83
474.39	77.24
474.57	11.70
474.75	11.70
474.93	44.47
475.12	0.00
475.30	42.13
475.48	16.38
475.66	0.00
475.84	39.79
476.02	28.09
476.20	23.41
476.38	25.75
476.56	9.36
476.74	72.56
476.92	30.43
477.10	86.60
477.28	9.36
477.46	9.36
477.64	100.64
477.82	4.68
478.00	25.75
478.18	16.38
478.36	0.00
478.54	0.00
478.72	4.68
478.90	23.41
479.08	63.19
479.26	53.83
479.44	53.83
479.62	93.62
479.80	9.36
479.98	46.81
480.16	67.88
480.34	84.26
480.52	84.26
480.70	74.90
480.88	18.72
481.06	60.85
481.24	88.94
481.41	9.36
481.59	0.00
481.77	0.00
481.95	0.00
482.13	16.38
482.31	46.81
482.49	28.09
482.67	53.83
482.85	9.36
483.03	0.00
483.21	28.09
483.39	32.77
483.57	44.47
483.74	56.17
483.92	65.54
484.10	42.13
484.28	4.68
484.46	35.11
484.64	42.13
484.82	42.13
485.00	0.00
485.18	35.11
485.35	30.43
485.53	35.11
485.71	23.41
485.89	2.34
486.07	0.00
486.25	98.30
486.43	46.81
486.61	58.51
486.78	16.38
486.96	67.88
487.14	124.05
487.32	102.98
487.50	84.26
487.68	51.49
487.85	42.13
488.03	121.71
488.21	112.35
488.39	4.68
488.57	98.30
488.75	100.64
488.92	37.45
489.10	51.49
489.28	88.94
489.46	56.17
489.64	98.30
489.81	70.22
489.99	0.00
490.17	56.17
490.35	51.49
490.53	0.00
490.70	25.75
490.88	81.92
491.06	42.13
491.24	0.00
491.41	56.17
491.59	72.56
491.77	49.15
491.95	9.36
492.13	25.75
492.30	23.41
492.48	30.43
492.66	42.13
492.84	35.11
493.01	30.43
493.19	56.17
493.37	79.58
493.54	105.32
493.72	112.35
493.90	124.05
494.08	56.17
494.25	42.13
494.43	23.41
494.61	30.43
494.79	95.96
494.96	46.81
495.14	23.41
495.32	81.92
495.49	32.77
495.67	42.13
495.85	39.79
496.02	14.04
496.20	93.62
496.38	74.90
496.55	2.34
496.73	44.47
496.91	49.15
497.09	63.19
497.26	60.85
497.44	0.00
497.62	9.36
497.79	0.00
497.97	44.47
498.14	23.41
498.32	7.02
498.50	39.79
498.67	0.00
498.85	67.88
499.03	145.11
499.20	18.72
499.38	37.45
499.56	23.41
499.73	53.83
499.91	60.85
500.08	42.13
500.26	65.54
500.44	79.58
500.61	42.13
500.79	63.19
500.97	7.02
501.14	0.00
501.32	21.06
501.49	39.79
501.67	23.41
501.84	0.00
502.02	60.85
502.20	0.00
502.37	0.00
502.55	100.64
502.72	100.64
502.90	145.11
503.07	65.54
503.25	124.05
503.43	51.49
503.60	37.45
503.78	0.00
503.95	65.54
504.13	4.68
504.30	88.94
504.48	18.72
504.65	126.39
504.83	46.81
505.01	58.51
505.18	70.22
505.36	60.85
505.53	67.88
505.71	56.17
505.88	18.72
506.06	37.45
506.23	93.62
506.41	30.43
506.58	117.03
506.76	49.15
506.93	49.15
507.11	18.72
507.28	0.00
507.46	74.90
507.63	39.79
507.81	98.30
507.98	2.34
508.16	70.22
508.33	84.26
508.50	100.64
508.68	46.81
508.85	46.81
509.03	2.34
509.20	30.43
509.38	32.77
509.55	37.45
509.73	102.98
509.90	63.19
510.08	21.06
510.25	21.06
510.42	37.45
510.60	77.24
510.77	79.58
510.95	88.94
511.12	112.35
511.30	30.43
511.47	77.24
511.64	49.15
511.82	98.30
511.99	72.56
512.17	72.56
512.34	11.70
512.51	79.58
512.69	23.41
512.86	112.35
513.04	91.28
513.21	35.11
513.38	86.60
513.56	28.09
513.73	4.68
513.90	9.36
514.08	9.36
514.25	72.56
514.43	72.56
514.60	49.15
514.77	18.72
514.95	67.88
515.12	16.38
515.29	0.00
515.47	4.68
515.64	112.35
515.81	117.03
515.99	74.90
516.16	46.81
516.33	95.96
516.51	23.41
516.68	72.56
516.85	9.36
517.03	0.00
517.20	30.43
517.37	53.83
517.54	53.83
517.72	32.77
517.89	37.45
518.06	44.47
518.24	9.36
518.41	23.41
518.58	46.81
518.75	0.00
518.93	81.92
519.10	37.45
519.27	42.13
519.45	102.98
519.62	44.47
519.79	32.77
519.96	86.60
520.14	105.32
520.31	14.04
520.48	102.98
520.65	32.77
520.83	58.51
521.00	98.30
521.17	74.90
521.34	49.15
521.52	58.51
521.69	81.92
521.86	32.77
522.03	35.11
522.20	56.17
522.38	65.54
522.55	72.56
522.72	81.92
522.89	91.28
523.07	86.60
523.24	42.13
523.41	65.54
523.58	0.00
523.75	86.60
523.92	95.96
524.10	4.68
524.27	93.62
524.44	100.64
524.61	53.83
524.78	60.85
524.96	117.03
525.13	21.06
525.30	0.00
525.47	56.17
525.64	114.69
525.81	14.04
525.98	21.06
526.16	16.38
526.33	77.24
526.50	65.54
526.67	70.22
526.84	0.00
527.01	35.11
527.18	7.02
527.36	0.00
527.53	135.75
527.70	58.51
527.87	112.35
528.04	11.70
528.21	14.04
528.38	105.32
528.55	117.03
528.72	49.15
528.89	128.73
529.07	16.38
529.24	4.68
529.41	88.94
529.58	65.54
529.75	37.45
529.92	7.02
530.09	0.00
530.26	86.60
530.43	81.92
530.60	105.32
530.77	9.36
530.94	23.41
531.11	128.73
531.28	91.28
531.46	100.64
531.63	72.56
531.80	112.35
531.97	67.88
532.14	0.00
532.31	7.02
532.48	107.66
532.65	56.17
532.82	65.54
532.99	49.15
533.16	86.60
533.33	46.81
533.50	98.30
533.67	105.32
533.84	37.45
534.01	65.54
534.18	53.83
534.35	0.00
534.52	84.26
534.69	72.56
534.86	63.19
535.03	51.49
535.20	11.70
535.37	77.24
535.54	56.17
535.71	168.52
535.88	84.26
536.05	39.79
536.22	25.75
536.38	88.94
536.55	70.22
536.72	60.85
536.89	51.49
537.06	35.11
537.23	53.83
537.40	105.32
537.57	117.03
537.74	124.05
537.91	0.00
538.08	74.90
538.25	25.75
538.42	25.75
538.59	4.68
538.75	11.70
538.92	74.90
539.09	72.56
539.26	30.43
539.43	23.41
539.60	65.54
539.77	60.85
539.94	56.17
540.11	58.51
540.28	88.94
540.44	56.17
540.61	51.49
540.78	58.51
540.95	9.36
541.12	53.83
541.29	65.54
541.46	77.24
541.62	39.79
541.79	49.15
541.96	63.19
542.13	56.17
542.30	98.30
542.47	58.51
542.63	9.36
542.80	32.77
542.97	25.75
543.14	51.49
543.31	65.54
543.48	81.92
543.64	70.22
543.81	95.96
543.98	23.41
544.15	0.00
544.32	30.43
544.48	28.09
544.65	25.75
544.82	102.98
544.99	42.13
545.16	60.85
545.32	37.45
545.49	37.45
545.66	37.45
545.83	14.04
546.00	88.94
546.16	67.88
546.33	86.60
546.50	25.75
546.67	95.96
546.83	39.79
547.00	28.09
547.17	79.58
547.34	67.88
547.50	58.51
547.67	56.17
547.84	53.83
548.00	70.22
548.17	7.02
548.34	53.83
548.51	72.56
548.67	0.00
548.84	88.94
549.01	72.56
549.18	23.41
549.34	11.70
549.51	140.43
549.68	93.62
549.84	84.26
550.01	124.05
550.18	93.62
550.34	9.36
550.51	77.24
550.68	11.70
550.84	63.19
551.01	2.34
551.18	18.72
551.34	51.49
551.51	11.70
551.68	32.77
551.84	56.17
552.01	53.83
552.18	42.13
552.34	107.66
552.51	77.24
552.68	37.45
552.84	58.51
553.01	88.94
553.18	98.30
553.34	74.90
553.51	16.38
553.67	56.17
553.84	35.11
554.01	63.19
554.17	88.94
554.34	133.41
554.51	30.43
554.67	28.09
554.84	56.17
555.00	28.09
555.17	107.66
555.33	74.90
555.50	0.00
555.67	23.41
555.83	9.36
556.00	95.96
556.16	58.51
556.33	67.88
556.50	7.02
556.66	14.04
556.83	145.11
556.99	37.45
557.16	32.77
557.32	138.09
557.49	9.36
557.65	0.00
557.82	49.15
557.98	67.88
558.15	32.77
558.32	37.45
558.48	49.15
558.65	119.37
558.81	67.88
558.98	28.09
559.14	7.02
559.31	30.43
559.47	0.00
559.64	63.19
559.80	46.81
559.97	46.81
560.13	67.88
560.30	93.62
560.46	67.88
560.63	11.70
560.79	102.98
560.96	46.81
561.12	81.92
561.29	79.58
561.45	46.81
561.61	23.41
561.78	79.58
561.94	16.38
562.11	39.79
562.27	46.81
562.44	30.43
562.60	63.19
562.77	100.64
562.93	81.92
563.10	81.92
563.26	74.90
563.42	72.56
563.59	0.00
563.75	0.00
563.92	39.79
564.08	39.79
564.24	67.88
564.41	56.17
564.57	44.47
564.74	23.41
564.90	79.58
565.07	51.49
565.23	93.62
565.39	0.00
565.56	44.47
565.72	42.13
565.88	102.98
566.05	56.17
566.21	93.62
566.38	23.41
566.54	102.98
566.70	30.43
566.87	42.13
567.03	70.22
567.19	119.37
567.36	91.28
567.52	16.38
567.68	56.17
567.85	0.00
568.01	77.24
568.17	30.43
568.34	49.15
568.50	16.38
568.66	60.85
568.83	7.02
568.99	65.54
569.15	63.19
569.32	18.72
569.48	23.41
569.64	77.24
569.81	63.19
569.97	81.92
570.13	46.81
570.30	44.47
570.46	42.13
570.62	37.45
570.78	65.54
570.95	63.19
571.11	100.64
571.27	67.88
571.43	72.56
571.60	60.85
571.76	39.79
571.92	65.54
572.09	74.90
572.25	30.43
572.41	32.77
572.57	81.92
572.74	77.24
572.90	98.30
573.06	72.56
573.22	32.77
573.38	65.54
573.55	56.17
573.71	18.72
573.87	44.47
574.03	56.17
574.20	18.72
574.36	100.64
574.52	0.00
574.68	0.00
574.84	11.70
575.01	56.17
575.17	42.13
575.33	0.00
575.49	72.56
575.65	0.00
575.82	95.96
575.98	91.28
576.14	2.34
576.30	28.09
576.46	28.09
576.62	23.41
576.79	110.01
576.95	53.83
577.11	39.79
577.27	84.26
577.43	0.00
577.59	30.43
577.75	53.83
577.92	70.22
578.08	124.05
578.24	110.01
578.40	30.43
578.56	37.45
578.72	58.51
578.88	28.09
579.04	56.17
579.21	65.54
579.37	60.85
579.53	0.00
579.69	84.26
579.85	98.30
580.01	93.62
580.17	44.47
580.33	0.00
580.49	65.54
580.65	77.24
580.82	107.66
580.98	100.64
581.14	30.43
581.30	0.00
581.46	35.11
581.62	102.98
581.78	35.11
581.94	72.56
582.10	65.54
582.26	16.38
582.42	32.77
582.58	81.92
582.74	53.83
582.90	95.96
583.06	42.13
583.22	81.92
583.38	35.11
583.54	0.00
583.70	37.45
583.86	72.56
584.02	42.13
584.18	86.60
584.34	72.56
584.50	93.62
584.66	60.85
584.82	79.58
584.98	21.06
585.14	37.45
585.30	2.34
585.46	63.19
585.62	30.43
585.78	46.81
585.94	37.45
586.10	63.19
586.26	56.17
586.42	30.43
586.58	0.00
586.74	0.00
586.90	88.94
587.06	91.28
587.22	14.04
587.38	70.22
587.54	16.38
587.70	56.17
587.86	49.15
588.02	74.90
588.18	0.00
588.34	0.00
588.49	84.26
588.65	18.72
588.81	60.85
588.97	51.49
589.13	30.43
589.29	105.32
589.45	0.00
589.61	23.41
589.77	0.00
589.93	21.06
590.08	95.96
590.24	42.13
590.40	102.98
590.56	74.90
590.72	46.81
590.88	67.88
591.04	51.49
591.20	28.09
591.35	65.54
591.51	16.38
591.67	46.81
591.83	107.66
591.99	2.34
592.15	46.81
592.31	37.45
592.46	63.19
592.62	91.28
592.78	0.00
592.94	72.56
593.10	0.00
593.26	56.17
593.41	30.43
593.57	74.90
593.73	65.54
593.89	98.30
594.05	0.00
594.20	49.15
594.36	60.85
594.52	44.47
594.68	49.15
594.84	0.00
594.99	44.47
595.15	32.77
595.31	42.13
595.47	60.85
595.62	67.88
595.78	42.13
595.94	32.77
596.10	37.45
596.25	0.00
596.41	70.22
596.57	88.94
596.73	114.69
596.88	49.15
597.04	39.79
597.20	32.77
597.36	14.04
597.51	49.15
597.67	119.37
597.83	46.81
597.99	21.06
598.14	58.51
598.30	56.17
598.46	0.00
598.61	121.71
598.77	28.09
598.93	2.34
599.09	0.00
599.24	9.36
599.40	53.83
599.56	32.77
599.71	23.41
599.87	0.00
600.03	67.88
600.18	0.00
600.34	86.60
600.50	0.00
600.65	28.09
600.81	9.36
600.97	124.05
601.12	65.54
601.28	18.72
601.44	0.00
601.59	0.00
601.75	21.06
601.91	7.02
602.06	81.92
602.22	74.90
602.37	21.06
602.53	49.15
602.69	86.60
602.84	0.00
603.00	0.00
603.16	28.09
603.31	49.15
603.47	51.49
603.62	21.06
603.78	65.54
603.94	0.00
604.09	23.41
604.25	51.49
604.40	53.83
604.56	84.26
604.71	70.22
604.87	9.36
605.03	9.36
605.18	0.00
605.34	37.45
605.49	23.41
605.65	37.45
605.80	37.45
605.96	117.03
606.12	0.00
606.27	51.49
606.43	9.36
606.58	46.81
606.74	102.98
606.89	7.02
607.05	58.51
607.20	37.45
607.36	28.09
607.51	107.66
607.67	23.41
607.82	16.38
607.98	79.58
608.13	88.94
608.29	49.15
608.44	46.81
608.60	28.09
608.75	51.49
608.91	0.00
609.06	77.24
609.22	86.60
609.37	35.11
609.53	2.34
609.68	98.30
609.84	2.34
609.99	65.54
610.15	163.84
610.30	32.77
610.46	4.68
610.61	53.83
610.76	77.24
610.92	53.83
611.07	0.00
611.23	102.98
611.38	0.00
611.54	105.32
611.69	86.60
611.84	49.15
612.00	60.85
612.15	77.24
612.31	88.94
612.46	74.90
612.62	0.00
612.77	21.06
612.92	0.00
613.08	46.81
613.23	51.49
613.39	42.13
613.54	23.41
613.69	42.13
613.85	72.56
614.00	32.77
614.15	14.04
614.31	49.15
614.46	58.51
614.62	28.09
614.77	95.96
614.92	86.60
615.08	32.77
615.23	30.43
615.38	58.51
615.54	95.96
615.69	0.00
615.84	16.38
616.00	25.75
616.15	23.41
616.30	23.41
616.46	0.00
616.61	63.19
616.76	65.54
616.92	60.85
617.07	42.13
617.22	0.00
617.37	35.11
617.53	53.83
617.68	28.09
617.83	30.43
617.99	44.47
618.14	58.51
618.29	67.88
618.45	51.49
618.60	16.38
618.75	74.90
618.90	25.75
619.06	25.75
619.21	88.94
619.36	25.75
619.51	86.60
619.67	0.00
619.82	100.64
619.97	28.09
620.12	131.07
620.28	0.00
620.43	23.41
620.58	58.51
620.73	0.00
620.89	56.17
621.04	63.19
621.19	49.15
621.34	74.90
621.49	91.28
621.65	4.68
621.80	70.22
621.95	0.00
622.10	11.70
622.25	0.00
622.41	79.58
622.56	53.83
622.71	86.60
622.86	88.94
623.01	32.77
623.16	60.85
623.32	25.75
623.47	23.41
623.62	44.47
623.77	63.19
623.92	0.00
624.07	0.00
624.23	35.11
624.38	65.54
624.53	2.34
624.68	81.92
624.83	4.68
624.98	88.94
625.13	32.77
625.29	86.60
625.44	58.51
625.59	58.51
625.74	11.70
625.89	30.43
626.04	114.69
626.19	93.62
626.34	44.47
626.49	37.45
626.65	0.00
626.80	0.00
626.95	133.41
627.10	16.38
627.25	74.90
627.40	51.49
627.55	11.70
627.70	0.00
627.85	74.90
628.00	86.60
628.15	56.17
628.30	126.39
628.45	49.15
628.60	86.60
628.76	60.85
628.91	0.00
629.06	77.24
629.21	51.49
629.36	16.38
629.51	63.19
629.66	16.38
629.81	56.17
629.96	0.00
630.11	35.11
630.26	0.00
630.41	91.28
630.56	0.00
630.71	63.19
630.86	60.85
631.01	18.72
631.16	112.35
631.31	98.30
631.46	74.90
631.61	46.81
631.76	95.96
631.91	4.68
632.06	105.32
632.21	35.11
632.36	30.43
632.51	25.75
632.66	49.15
632.81	0.00
632.96	4.68
633.10	88.94
633.25	119.37
633.40	9.36
633.55	65.54
633.70	60.85
633.85	37.45
634.00	72.56
634.15	42.13
634.30	30.43
634.45	9.36
634.60	84.26
634.75	35.11
634.90	72.56
635.05	25.75
635.19	58.51
635.34	14.04
635.49	14.04
635.64	0.00
635.79	28.09
635.94	72.56
636.09	49.15
636.24	25.75
636.39	56.17
636.53	74.90
636.68	18.72
636.83	35.11
636.98	51.49
637.13	126.39
637.28	152.13
637.43	37.45
637.57	46.81
637.72	21.06
637.87	117.03
638.02	74.90
638.17	95.96
638.32	95.96
638.46	25.75
638.61	70.22
638.76	14.04
638.91	51.49
639.06	35.11
639.20	98.30
639.35	46.81
639.50	4.68
639.65	23.41
639.80	4.68
639.94	44.47
640.09	49.15
640.24	81.92
640.39	56.17
640.54	0.00
640.68	67.88
640.83	58.51
640.98	100.64
641.13	0.00
641.27	28.09
641.42	0.00
641.57	56.17
641.72	0.00
641.86	9.36
642.01	0.00
642.16	79.58
642.31	0.00
642.45	44.47
642.60	0.00
642.75	60.85
642.90	51.49
643.04	11.70
643.19	0.00
643.34	30.43
643.48	0.00
643.63	0.00
643.78	0.00
643.93	91.28
644.07	58.51
644.22	4.68
644.37	72.56
644.51	67.88
644.66	56.17
644.81	23.41
644.95	67.88
645.10	32.77
645.25	0.00
645.39	65.54
645.54	16.38
645.69	4.68
645.83	4.68
645.98	0.00
646.13	0.00
646.27	49.15
646.42	51.49
646.57	149.79
646.71	30.43
646.86	35.11
647.00	84.26
647.15	42.13
647.30	65.54
647.44	58.51
647.59	7.02
647.74	44.47
647.88	46.81
648.03	14.04
648.17	42.13
648.32	0.00
648.47	0.00
648.61	65.54
648.76	0.00
648.90	11.70
649.05	37.45
649.20	53.83
649.34	65.54
649.49	60.85
649.63	70.22
649.78	70.22
649.92	23.41
650.07	0.00
650.21	112.35
650.36	28.09
650.51	100.64
650.65	112.35
650.80	49.15
650.94	0.00
651.09	21.06
651.23	49.15
651.38	25.75
651.52	84.26
651.67	11.70
651.81	53.83
651.96	53.83
652.10	0.00
652.25	4.68
652.39	21.06
652.54	44.47
652.68	70.22
652.83	107.66
652.97	30.43
653.12	140.43
653.26	112.35
653.41	0.00
653.55	86.60
653.70	4.68
653.84	25.75
653.99	51.49
654.13	0.00
654.27	0.00
654.42	72.56
654.56	37.45
654.71	117.03
654.85	0.00
655.00	56.17
655.14	0.00
655.29	79.58
655.43	70.22
655.57	77.24
655.72	37.45
655.86	32.77
656.01	35.11
656.15	44.47
656.30	53.83
656.44	28.09
656.58	44.47
656.73	2.34
656.87	30.43
657.01	0.00
657.16	72.56
657.30	65.54
657.45	37.45
657.59	0.00
657.73	14.04
657.88	0.00
658.02	0.00
658.16	72.56
658.31	21.06
658.45	53.83
658.60	14.04
658.74	14.04
658.88	63.19
659.03	102.98
659.17	100.64
659.31	0.00
659.46	35.11
659.60	32.77
659.74	49.15
659.89	56.17
660.03	25.75
660.17	0.00
660.32	44.47
660.46	7.02
660.60	4.68
660.74	95.96
660.89	53.83
661.03	102.98
661.17	46.81
661.32	4.68
661.46	95.96
661.60	0.00
661.74	7.02
661.89	23.41
662.03	46.81
662.17	84.26
662.31	25.75
662.46	39.79
662.60	16.38
662.74	0.00
662.88	39.79
663.03	102.98
663.17	95.96
663.31	2.34
663.45	39.79
663.60	37.45
663.74	49.15
663.88	37.45
664.02	53.83
664.17	46.81
664.31	56.17
664.45	63.19
664.59	0.00
664.73	63.19
664.88	0.00
665.02	37.45
665.16	51.49
665.30	23.41
665.44	30.43
665.59	67.88
665.73	25.75
665.87	0.00
666.01	0.00
666.15	0.00
666.29	86.60
666.44	49.15
666.58	35.11
666.72	0.00
666.86	84.26
667.00	39.79
667.14	46.81
667.28	16.38
667.43	0.00
667.57	39.79
667.71	16.38
667.85	18.72
667.99	114.69
668.13	21.06
668.27	53.83
668.41	56.17
668.56	51.49
668.70	4.68
668.84	25.75
668.98	25.75
669.12	0.00
669.26	16.38
669.40	56.17
669.54	70.22
669.68	84.26
669.82	53.83
669.96	72.56
670.10	18.72
670.25	88.94
670.39	42.13
670.53	81.92
670.67	39.79
670.81	2.34
670.95	9.36
671.09	56.17
671.23	91.28
671.37	16.38
671.51	51.49
671.65	4.68
671.79	0.00
671.93	65.54
672.07	138.09
672.21	49.15
672.35	42.13
672.49	0.00
672.63	74.90
672.77	74.90
672.91	46.81
673.05	35.11
673.19	0.00
673.33	44.47
673.47	126.39
673.61	91.28
673.75	23.41
673.89	16.38
674.03	9.36
674.17	35.11
674.31	81.92
674.45	14.04
674.59	0.00
674.73	49.15
674.87	53.83
675.01	46.81
675.15	28.09
675.29	23.41
675.43	56.17
675.56	0.00
675.70	44.47
675.84	56.17
675.98	81.92
676.12	37.45
676.26	35.11
676.40	18.72
676.54	42.13
676.68	0.00
676.82	49.15
676.96	102.98
677.10	0.00
677.23	30.43
677.37	51.49
677.51	0.00
677.65	30.43
677.79	74.90
677.93	72.56
678.07	70.22
678.21	14.04
678.34	51.49
678.48	32.77
678.62	37.45
678.76	60.85
678.90	112.35
679.04	28.09
679.18	56.17
679.31	4.68
679.45	14.04
679.59	0.00
679.73	9.36
679.87	0.00
680.00	0.00
680.14	107.66
680.28	60.85
680.42	0.00
680.56	23.41
680.70	49.15
680.83	72.56
680.97	42.13
681.11	74.90
681.25	51.49
681.39	35.11
681.52	0.00
681.66	67.88
681.80	58.51
681.94	25.75
682.07	49.15
682.21	9.36
682.35	77.24
682.49	0.00
682.62	84.26
682.76	67.88
682.90	102.98
683.04	98.30
683.17	9.36
683.31	95.96
683.45	16.38
683.59	74.90
683.72	81.92
683.86	25.75
684.00	51.49
684.13	63.19
684.27	0.00
684.41	0.00
684.55	0.00
684.68	53.83
684.82	0.00
684.96	0.00
685.09	74.90
685.23	11.70
685.37	86.60
685.50	67.88
685.64	39.79
685.78	60.85
685.91	53.83
686.05	0.00
686.19	44.47
686.32	23.41
686.46	18.72
686.60	35.11
686.73	9.36
686.87	21.06
687.01	30.43
687.14	91.28
687.28	100.64
687.42	131.07
687.55	9.36
687.69	81.92
687.82	81.92
687.96	77.24
688.10	18.72
688.23	23.41
688.37	114.69
688.50	100.64
688.64	70.22
688.78	30.43
688.91	2.34
689.05	0.00
689.18	14.04
689.32	28.09
689.46	7.02
689.59	30.43
689.73	56.17
689.86	95.96
690.00	46.81
690.13	84.26
690.27	51.49
690.41	35.11
690.54	77.24
690.68	16.38
690.81	0.00
690.95	63.19
691.08	63.19
691.22	58.51
691.35	0.00
691.49	4.68
691.62	58.51
691.76	46.81
691.89	39.79
692.03	0.00
692.16	81.92
692.30	32.77
692.43	60.85
692.57	0.00
692.70	42.13
692.84	28.09
692.97	72.56
693.11	23.41
693.24	7.02
693.38	0.00
693.51	23.41
693.65	93.62
693.78	0.00
693.92	0.00
694.05	7.02
694.19	0.00
694.32	0.00
694.45	30.43
694.59	37.45
694.72	49.15
694.86	0.00
694.99	44.47
695.13	49.15
695.26	37.45
695.39	44.47
695.53	0.00
695.66	93.62
695.80	30.43
695.93	0.00
696.07	114.69
696.20	53.83
696.33	28.09
696.47	0.00
696.60	28.09
696.73	2.34
696.87	25.75
697.00	56.17
697.14	0.00
697.27	7.02
697.40	14.04
697.54	14.04
697.67	0.00
697.80	72.56
697.94	35.11
698.07	0.00
698.21	21.06
698.34	16.38
698.47	37.45
698.61	0.00
698.74	65.54
698.87	70.22
699.01	0.00
699.14	93.62
699.27	44.47
699.40	0.00
699.54	0.00
699.67	0.00
699.80	65.54
699.94	58.51
700.07	0.00
700.20	7.02
700.34	14.04
700.47	11.70
700.60	77.24
700.73	0.00
700.87	35.11
701.00	0.00
701.13	0.00
701.26	35.11
701.40	0.00
701.53	51.49
701.66	18.72
701.79	11.70
701.93	23.41
702.06	77.24
702.19	14.04
702.32	0.00
702.46	0.00
702.59	60.85
702.72	0.00
702.85	28.09
702.99	65.54
703.12	49.15
703.25	51.49
703.38	46.81
703.51	0.00
703.65	114.69
703.78	4.68
703.91	9.36
704.04	67.88
704.17	42.13
704.31	0.00
704.44	0.00
704.57	39.79
704.70	21.06
704.83	28.09
704.96	14.04
705.10	124.05
705.23	23.41
>>>>>End Processed Spectral Data<<<<<
