SpectraSuite Data File
++++++++++++++++++++++++++++++++++++
Date: Fri Oct 04 12:13:27 GMT-05:00 2013
User: price-jones
Dark Spectrum Present: No
Reference Spectrum Present: No
Number of Sampled Component Spectra: 1
Spectrometers: USB2+H05261
Integration Time (usec): 10000 (USB2+H05261)
Spectra Averaged: 1 (USB2+H05261)
Boxcar Smoothing: 0 (USB2+H05261)
Correct for Electrical Dark: No (USB2+H05261)
Strobe/Lamp Enabled: No (USB2+H05261)
Correct for Detector Non-linearity: No (USB2+H05261)
Correct for Stray Light: No (USB2+H05261)
Number of Pixels in Processed Spectrum: 2048
>>>>>Begin Processed Spectral Data<<<<<
365.73	14.04
365.92	14.04
366.12	14.04
366.32	0.00
366.52	0.00
366.72	0.00
366.91	0.00
367.11	0.00
367.31	0.00
367.51	0.00
367.70	0.00
367.90	0.00
368.10	0.00
368.30	0.00
368.49	0.00
368.69	0.00
368.89	0.00
369.09	0.00
369.28	0.00
369.48	0.00
369.68	0.00
369.87	0.00
370.07	0.00
370.27	0.00
370.47	0.00
370.66	0.00
370.86	0.00
371.06	9.36
371.25	0.00
371.45	0.00
371.65	0.00
371.84	0.00
372.04	44.47
372.24	0.00
372.44	18.72
372.63	46.81
372.83	14.04
373.03	0.00
373.22	0.00
373.42	25.75
373.62	58.51
373.81	21.06
374.01	18.72
374.21	16.38
374.40	30.43
374.60	0.00
374.79	11.70
374.99	53.83
375.19	18.72
375.38	53.83
375.58	39.79
375.78	107.66
375.97	0.00
376.17	44.47
376.37	16.38
376.56	0.00
376.76	112.35
376.95	56.17
377.15	74.90
377.35	21.06
377.54	46.81
377.74	28.09
377.93	0.00
378.13	100.64
378.33	18.72
378.52	67.88
378.72	21.06
378.91	0.00
379.11	37.45
379.31	79.58
379.50	4.68
379.70	0.00
379.89	51.49
380.09	74.90
380.28	11.70
380.48	0.00
380.68	0.00
380.87	0.00
381.07	4.68
381.26	0.00
381.46	28.09
381.65	63.19
381.85	0.00
382.04	56.17
382.24	35.11
382.43	0.00
382.63	0.00
382.83	0.00
383.02	9.36
383.22	46.81
383.41	30.43
383.61	32.77
383.80	25.75
384.00	0.00
384.19	0.00
384.39	0.00
384.58	0.00
384.78	0.00
384.97	65.54
385.17	23.41
385.36	105.32
385.56	0.00
385.75	16.38
385.95	23.41
386.14	0.00
386.34	0.00
386.53	60.85
386.72	70.22
386.92	32.77
387.11	53.83
387.31	0.00
387.50	0.00
387.70	0.00
387.89	0.00
388.09	0.00
388.28	42.13
388.48	0.00
388.67	46.81
388.86	49.15
389.06	9.36
389.25	0.00
389.45	81.92
389.64	30.43
389.84	14.04
390.03	0.00
390.22	42.13
390.42	25.75
390.61	60.85
390.81	42.13
391.00	0.00
391.19	11.70
391.39	0.00
391.58	53.83
391.78	7.02
391.97	35.11
392.16	0.00
392.36	0.00
392.55	72.56
392.75	0.00
392.94	21.06
393.13	18.72
393.33	91.28
393.52	49.15
393.71	39.79
393.91	37.45
394.10	2.34
394.29	0.00
394.49	21.06
394.68	7.02
394.88	67.88
395.07	0.00
395.26	14.04
395.46	58.51
395.65	0.00
395.84	0.00
396.04	7.02
396.23	25.75
396.42	58.51
396.62	14.04
396.81	2.34
397.00	44.47
397.19	7.02
397.39	0.00
397.58	0.00
397.77	2.34
397.97	0.00
398.16	9.36
398.35	74.90
398.55	0.00
398.74	0.00
398.93	30.43
399.12	16.38
399.32	11.70
399.51	0.00
399.70	74.90
399.90	60.85
400.09	0.00
400.28	79.58
400.47	28.09
400.67	18.72
400.86	23.41
401.05	42.13
401.24	0.00
401.44	60.85
401.63	0.00
401.82	7.02
402.01	2.34
402.21	11.70
402.40	7.02
402.59	4.68
402.78	0.00
402.97	16.38
403.17	9.36
403.36	21.06
403.55	42.13
403.74	93.62
403.93	60.85
404.13	42.13
404.32	91.28
404.51	0.00
404.70	0.00
404.89	14.04
405.09	60.85
405.28	0.00
405.47	49.15
405.66	4.68
405.85	51.49
406.05	9.36
406.24	9.36
406.43	46.81
406.62	11.70
406.81	21.06
407.00	7.02
407.20	25.75
407.39	21.06
407.58	56.17
407.77	91.28
407.96	46.81
408.15	0.00
408.34	2.34
408.54	18.72
408.73	18.72
408.92	0.00
409.11	0.00
409.30	21.06
409.49	25.75
409.68	74.90
409.87	21.06
410.07	11.70
410.26	42.13
410.45	0.00
410.64	51.49
410.83	9.36
411.02	37.45
411.21	46.81
411.40	95.96
411.59	0.00
411.78	44.47
411.98	44.47
412.17	88.94
412.36	65.54
412.55	0.00
412.74	11.70
412.93	46.81
413.12	30.43
413.31	93.62
413.50	70.22
413.69	74.90
413.88	0.00
414.07	11.70
414.26	35.11
414.45	32.77
414.64	98.30
414.83	9.36
415.02	18.72
415.22	32.77
415.41	30.43
415.60	21.06
415.79	56.17
415.98	79.58
416.17	7.02
416.36	0.00
416.55	0.00
416.74	0.00
416.93	58.51
417.12	77.24
417.31	42.13
417.50	39.79
417.69	84.26
417.88	42.13
418.07	81.92
418.26	84.26
418.45	0.00
418.64	23.41
418.83	28.09
419.02	2.34
419.21	60.85
419.39	67.88
419.58	72.56
419.77	30.43
419.96	93.62
420.15	32.77
420.34	39.79
420.53	0.00
420.72	0.00
420.91	16.38
421.10	79.58
421.29	14.04
421.48	74.90
421.67	35.11
421.86	58.51
422.05	30.43
422.24	0.00
422.43	60.85
422.61	39.79
422.80	44.47
422.99	51.49
423.18	51.49
423.37	93.62
423.56	32.77
423.75	11.70
423.94	30.43
424.13	4.68
424.32	14.04
424.50	14.04
424.69	28.09
424.88	30.43
425.07	0.00
425.26	35.11
425.45	2.34
425.64	11.70
425.83	0.00
426.01	25.75
426.20	0.00
426.39	37.45
426.58	23.41
426.77	25.75
426.96	0.00
427.15	23.41
427.33	44.47
427.52	11.70
427.71	0.00
427.90	4.68
428.09	11.70
428.28	0.00
428.46	46.81
428.65	72.56
428.84	77.24
429.03	0.00
429.22	25.75
429.40	23.41
429.59	72.56
429.78	0.00
429.97	100.64
430.16	2.34
430.34	39.79
430.53	0.00
430.72	60.85
430.91	56.17
431.10	0.00
431.28	0.00
431.47	9.36
431.66	72.56
431.85	39.79
432.03	39.79
432.22	49.15
432.41	70.22
432.60	11.70
432.79	30.43
432.97	30.43
433.16	21.06
433.35	4.68
433.54	60.85
433.72	0.00
433.91	35.11
434.10	35.11
434.28	53.83
434.47	37.45
434.66	0.00
434.85	14.04
435.03	51.49
435.22	65.54
435.41	16.38
435.59	28.09
435.78	93.62
435.97	28.09
436.16	28.09
436.34	32.77
436.53	11.70
436.72	0.00
436.90	0.00
437.09	0.00
437.28	51.49
437.46	21.06
437.65	42.13
437.84	23.41
438.02	60.85
438.21	39.79
438.40	16.38
438.58	0.00
438.77	102.98
438.96	44.47
439.14	74.90
439.33	0.00
439.52	7.02
439.70	4.68
439.89	0.00
440.08	49.15
440.26	72.56
440.45	7.02
440.63	0.00
440.82	7.02
441.01	51.49
441.19	79.58
441.38	28.09
441.57	28.09
441.75	91.28
441.94	58.51
442.12	0.00
442.31	0.00
442.50	67.88
442.68	2.34
442.87	51.49
443.05	0.00
443.24	0.00
443.43	0.00
443.61	7.02
443.80	0.00
443.98	11.70
444.17	67.88
444.35	9.36
444.54	7.02
444.73	53.83
444.91	30.43
445.10	21.06
445.28	0.00
445.47	63.19
445.65	0.00
445.84	79.58
446.02	0.00
446.21	88.94
446.39	0.00
446.58	100.64
446.77	35.11
446.95	14.04
447.14	9.36
447.32	74.90
447.51	44.47
447.69	28.09
447.88	51.49
448.06	77.24
448.25	0.00
448.43	7.02
448.62	44.47
448.80	67.88
448.99	16.38
449.17	74.90
449.36	63.19
449.54	16.38
449.73	42.13
449.91	72.56
450.10	128.73
450.28	81.92
450.46	58.51
450.65	7.02
450.83	0.00
451.02	0.00
451.20	56.17
451.39	0.00
451.57	37.45
451.76	21.06
451.94	23.41
452.13	58.51
452.31	67.88
452.49	56.17
452.68	56.17
452.86	0.00
453.05	32.77
453.23	56.17
453.42	42.13
453.60	42.13
453.78	0.00
453.97	44.47
454.15	0.00
454.34	53.83
454.52	74.90
454.70	42.13
454.89	58.51
455.07	18.72
455.26	93.62
455.44	7.02
455.62	18.72
455.81	25.75
455.99	42.13
456.17	100.64
456.36	23.41
456.54	30.43
456.73	79.58
456.91	46.81
457.09	21.06
457.28	58.51
457.46	35.11
457.64	72.56
457.83	30.43
458.01	67.88
458.19	32.77
458.38	0.00
458.56	42.13
458.74	16.38
458.93	39.79
459.11	95.96
459.29	14.04
459.48	0.00
459.66	16.38
459.84	28.09
460.03	0.00
460.21	110.01
460.39	21.06
460.57	25.75
460.76	18.72
460.94	65.54
461.12	84.26
461.31	46.81
461.49	21.06
461.67	37.45
461.85	84.26
462.04	42.13
462.22	35.11
462.40	18.72
462.59	74.90
462.77	93.62
462.95	46.81
463.13	32.77
463.32	67.88
463.50	18.72
463.68	79.58
463.86	42.13
464.05	0.00
464.23	14.04
464.41	42.13
464.59	37.45
464.78	98.30
464.96	0.00
465.14	0.00
465.32	0.00
465.50	9.36
465.69	93.62
465.87	65.54
466.05	32.77
466.23	28.09
466.41	30.43
466.60	39.79
466.78	53.83
466.96	23.41
467.14	9.36
467.32	77.24
467.51	65.54
467.69	51.49
467.87	11.70
468.05	93.62
468.23	91.28
468.41	95.96
468.60	93.62
468.78	18.72
468.96	2.34
469.14	30.43
469.32	35.11
469.50	44.47
469.69	9.36
469.87	49.15
470.05	7.02
470.23	16.38
470.41	95.96
470.59	18.72
470.77	32.77
470.95	32.77
471.14	30.43
471.32	11.70
471.50	35.11
471.68	23.41
471.86	58.51
472.04	37.45
472.22	63.19
472.40	42.13
472.58	51.49
472.77	77.24
472.95	7.02
473.13	0.00
473.31	28.09
473.49	0.00
473.67	0.00
473.85	28.09
474.03	65.54
474.21	51.49
474.39	44.47
474.57	37.45
474.75	0.00
474.93	9.36
475.12	0.00
475.30	81.92
475.48	81.92
475.66	98.30
475.84	0.00
476.02	0.00
476.20	4.68
476.38	98.30
476.56	11.70
476.74	79.58
476.92	0.00
477.10	2.34
477.28	23.41
477.46	102.98
477.64	49.15
477.82	0.00
478.00	58.51
478.18	46.81
478.36	51.49
478.54	32.77
478.72	9.36
478.90	35.11
479.08	42.13
479.26	72.56
479.44	58.51
479.62	25.75
479.80	91.28
479.98	65.54
480.16	2.34
480.34	16.38
480.52	49.15
480.70	0.00
480.88	53.83
481.06	37.45
481.24	23.41
481.41	18.72
481.59	9.36
481.77	2.34
481.95	0.00
482.13	0.00
482.31	65.54
482.49	0.00
482.67	0.00
482.85	23.41
483.03	21.06
483.21	2.34
483.39	28.09
483.57	49.15
483.74	0.00
483.92	56.17
484.10	74.90
484.28	35.11
484.46	65.54
484.64	49.15
484.82	128.73
485.00	53.83
485.18	0.00
485.35	65.54
485.53	81.92
485.71	84.26
485.89	4.68
486.07	67.88
486.25	72.56
486.43	0.00
486.61	37.45
486.78	63.19
486.96	49.15
487.14	32.77
487.32	4.68
487.50	42.13
487.68	49.15
487.85	53.83
488.03	0.00
488.21	0.00
488.39	0.00
488.57	51.49
488.75	46.81
488.92	67.88
489.10	0.00
489.28	0.00
489.46	58.51
489.64	18.72
489.81	18.72
489.99	0.00
490.17	49.15
490.35	60.85
490.53	7.02
490.70	39.79
490.88	42.13
491.06	81.92
491.24	65.54
491.41	0.00
491.59	51.49
491.77	119.37
491.95	11.70
492.13	28.09
492.30	84.26
492.48	91.28
492.66	79.58
492.84	35.11
493.01	72.56
493.19	42.13
493.37	30.43
493.54	44.47
493.72	133.41
493.90	77.24
494.08	0.00
494.25	42.13
494.43	9.36
494.61	49.15
494.79	119.37
494.96	4.68
495.14	28.09
495.32	79.58
495.49	102.98
495.67	98.30
495.85	11.70
496.02	65.54
496.20	58.51
496.38	18.72
496.55	30.43
496.73	44.47
496.91	70.22
497.09	18.72
497.26	0.00
497.44	23.41
497.62	58.51
497.79	9.36
497.97	72.56
498.14	28.09
498.32	119.37
498.50	30.43
498.67	30.43
498.85	0.00
499.03	86.60
499.20	95.96
499.38	84.26
499.56	0.00
499.73	28.09
499.91	86.60
500.08	7.02
500.26	58.51
500.44	56.17
500.61	67.88
500.79	46.81
500.97	28.09
501.14	46.81
501.32	42.13
501.49	32.77
501.67	7.02
501.84	23.41
502.02	0.00
502.20	28.09
502.37	42.13
502.55	67.88
502.72	77.24
502.90	25.75
503.07	14.04
503.25	14.04
503.43	84.26
503.60	67.88
503.78	25.75
503.95	4.68
504.13	0.00
504.30	49.15
504.48	18.72
504.65	46.81
504.83	23.41
505.01	63.19
505.18	0.00
505.36	7.02
505.53	95.96
505.71	70.22
505.88	56.17
506.06	25.75
506.23	51.49
506.41	72.56
506.58	37.45
506.76	79.58
506.93	44.47
507.11	32.77
507.28	28.09
507.46	25.75
507.63	30.43
507.81	0.00
507.98	39.79
508.16	35.11
508.33	100.64
508.50	72.56
508.68	51.49
508.85	11.70
509.03	0.00
509.20	0.00
509.38	49.15
509.55	126.39
509.73	121.71
509.90	60.85
510.08	110.01
510.25	46.81
510.42	63.19
510.60	0.00
510.77	30.43
510.95	81.92
511.12	39.79
511.30	74.90
511.47	84.26
511.64	51.49
511.82	84.26
511.99	128.73
512.17	79.58
512.34	51.49
512.51	60.85
512.69	49.15
512.86	0.00
513.04	21.06
513.21	114.69
513.38	39.79
513.56	0.00
513.73	46.81
513.90	0.00
514.08	35.11
514.25	67.88
514.43	72.56
514.60	105.32
514.77	0.00
514.95	18.72
515.12	25.75
515.29	37.45
515.47	35.11
515.64	30.43
515.81	35.11
515.99	72.56
516.16	93.62
516.33	14.04
516.51	44.47
516.68	21.06
516.85	81.92
517.03	0.00
517.20	60.85
517.37	56.17
517.54	28.09
517.72	7.02
517.89	4.68
518.06	53.83
518.24	30.43
518.41	2.34
518.58	74.90
518.75	2.34
518.93	0.00
519.10	0.00
519.27	65.54
519.45	86.60
519.62	67.88
519.79	32.77
519.96	51.49
520.14	49.15
520.31	72.56
520.48	4.68
520.65	7.02
520.83	65.54
521.00	70.22
521.17	44.47
521.34	25.75
521.52	100.64
521.69	72.56
521.86	74.90
522.03	49.15
522.20	49.15
522.38	100.64
522.55	114.69
522.72	98.30
522.89	0.00
523.07	79.58
523.24	0.00
523.41	77.24
523.58	23.41
523.75	49.15
523.92	4.68
524.10	42.13
524.27	46.81
524.44	35.11
524.61	51.49
524.78	0.00
524.96	51.49
525.13	49.15
525.30	105.32
525.47	21.06
525.64	14.04
525.81	58.51
525.98	28.09
526.16	32.77
526.33	0.00
526.50	32.77
526.67	21.06
526.84	14.04
527.01	44.47
527.18	56.17
527.36	37.45
527.53	28.09
527.70	35.11
527.87	63.19
528.04	42.13
528.21	0.00
528.38	58.51
528.55	14.04
528.72	121.71
528.89	63.19
529.07	51.49
529.24	58.51
529.41	60.85
529.58	4.68
529.75	84.26
529.92	42.13
530.09	53.83
530.26	9.36
530.43	0.00
530.60	88.94
530.77	0.00
530.94	0.00
531.11	23.41
531.28	37.45
531.46	53.83
531.63	23.41
531.80	9.36
531.97	37.45
532.14	35.11
532.31	39.79
532.48	88.94
532.65	42.13
532.82	58.51
532.99	51.49
533.16	0.00
533.33	84.26
533.50	56.17
533.67	25.75
533.84	9.36
534.01	0.00
534.18	37.45
534.35	39.79
534.52	11.70
534.69	39.79
534.86	21.06
535.03	30.43
535.20	4.68
535.37	58.51
535.54	23.41
535.71	21.06
535.88	0.00
536.05	49.15
536.22	18.72
536.38	9.36
536.55	67.88
536.72	35.11
536.89	98.30
537.06	32.77
537.23	30.43
537.40	23.41
537.57	65.54
537.74	93.62
537.91	74.90
538.08	30.43
538.25	46.81
538.42	9.36
538.59	0.00
538.75	58.51
538.92	18.72
539.09	77.24
539.26	93.62
539.43	44.47
539.60	23.41
539.77	79.58
539.94	110.01
540.11	63.19
540.28	0.00
540.44	21.06
540.61	21.06
540.78	39.79
540.95	0.00
541.12	119.37
541.29	37.45
541.46	28.09
541.62	0.00
541.79	23.41
541.96	37.45
542.13	0.00
542.30	32.77
542.47	0.00
542.63	37.45
542.80	16.38
542.97	23.41
543.14	4.68
543.31	0.00
543.48	100.64
543.64	11.70
543.81	93.62
543.98	65.54
544.15	35.11
544.32	30.43
544.48	72.56
544.65	46.81
544.82	39.79
544.99	53.83
545.16	7.02
545.32	0.00
545.49	56.17
545.66	35.11
545.83	51.49
546.00	0.00
546.16	9.36
546.33	60.85
546.50	63.19
546.67	79.58
546.83	42.13
547.00	81.92
547.17	100.64
547.34	4.68
547.50	63.19
547.67	0.00
547.84	112.35
548.00	58.51
548.17	53.83
548.34	81.92
548.51	9.36
548.67	18.72
548.84	23.41
549.01	9.36
549.18	9.36
549.34	93.62
549.51	0.00
549.68	30.43
549.84	63.19
550.01	0.00
550.18	28.09
550.34	81.92
550.51	25.75
550.68	0.00
550.84	30.43
551.01	25.75
551.18	93.62
551.34	93.62
551.51	0.00
551.68	0.00
551.84	18.72
552.01	70.22
552.18	105.32
552.34	63.19
552.51	37.45
552.68	79.58
552.84	32.77
553.01	91.28
553.18	56.17
553.34	0.00
553.51	18.72
553.67	32.77
553.84	51.49
554.01	39.79
554.17	42.13
554.34	51.49
554.51	51.49
554.67	46.81
554.84	65.54
555.00	112.35
555.17	102.98
555.33	51.49
555.50	81.92
555.67	0.00
555.83	58.51
556.00	25.75
556.16	46.81
556.33	79.58
556.50	60.85
556.66	124.05
556.83	25.75
556.99	65.54
557.16	67.88
557.32	9.36
557.49	16.38
557.65	30.43
557.82	28.09
557.98	105.32
558.15	18.72
558.32	0.00
558.48	25.75
558.65	28.09
558.81	14.04
558.98	60.85
559.14	49.15
559.31	39.79
559.47	46.81
559.64	84.26
559.80	58.51
559.97	51.49
560.13	30.43
560.30	9.36
560.46	0.00
560.63	65.54
560.79	14.04
560.96	0.00
561.12	21.06
561.29	86.60
561.45	51.49
561.61	58.51
561.78	44.47
561.94	0.00
562.11	0.00
562.27	63.19
562.44	23.41
562.60	49.15
562.77	23.41
562.93	91.28
563.10	65.54
563.26	46.81
563.42	21.06
563.59	0.00
563.75	0.00
563.92	0.00
564.08	107.66
564.24	0.00
564.41	18.72
564.57	93.62
564.74	14.04
564.90	0.00
565.07	4.68
565.23	4.68
565.39	46.81
565.56	86.60
565.72	44.47
565.88	51.49
566.05	2.34
566.21	9.36
566.38	58.51
566.54	86.60
566.70	91.28
566.87	32.77
567.03	0.00
567.19	100.64
567.36	42.13
567.52	28.09
567.68	9.36
567.85	105.32
568.01	37.45
568.17	0.00
568.34	65.54
568.50	74.90
568.66	42.13
568.83	46.81
568.99	25.75
569.15	107.66
569.32	60.85
569.48	93.62
569.64	28.09
569.81	72.56
569.97	14.04
570.13	0.00
570.30	28.09
570.46	25.75
570.62	72.56
570.78	2.34
570.95	0.00
571.11	21.06
571.27	0.00
571.43	21.06
571.60	138.09
571.76	93.62
571.92	46.81
572.09	72.56
572.25	100.64
572.41	0.00
572.57	0.00
572.74	0.00
572.90	4.68
573.06	23.41
573.22	39.79
573.38	53.83
573.55	0.00
573.71	9.36
573.87	56.17
574.03	23.41
574.20	60.85
574.36	100.64
574.52	65.54
574.68	23.41
574.84	25.75
575.01	70.22
575.17	37.45
575.33	28.09
575.49	60.85
575.65	46.81
575.82	0.00
575.98	0.00
576.14	65.54
576.30	23.41
576.46	11.70
576.62	98.30
576.79	74.90
576.95	74.90
577.11	39.79
577.27	46.81
577.43	35.11
577.59	65.54
577.75	32.77
577.92	84.26
578.08	58.51
578.24	49.15
578.40	67.88
578.56	46.81
578.72	44.47
578.88	74.90
579.04	9.36
579.21	65.54
579.37	72.56
579.53	18.72
579.69	60.85
579.85	88.94
580.01	44.47
580.17	44.47
580.33	0.00
580.49	58.51
580.65	72.56
580.82	42.13
580.98	60.85
581.14	0.00
581.30	74.90
581.46	81.92
581.62	70.22
581.78	30.43
581.94	65.54
582.10	51.49
582.26	0.00
582.42	77.24
582.58	25.75
582.74	37.45
582.90	35.11
583.06	70.22
583.22	65.54
583.38	0.00
583.54	49.15
583.70	25.75
583.86	44.47
584.02	39.79
584.18	65.54
584.34	145.11
584.50	142.77
584.66	648.33
584.82	1289.64
584.98	1666.46
585.14	1378.58
585.30	912.81
585.46	561.73
585.62	353.42
585.78	131.07
585.94	95.96
586.10	84.26
586.26	79.58
586.42	65.54
586.58	44.47
586.74	49.15
586.90	112.35
587.06	131.07
587.22	0.00
587.38	56.17
587.54	44.47
587.70	119.37
587.86	93.62
588.02	159.16
588.18	147.45
588.34	86.60
588.49	77.24
588.65	23.41
588.81	58.51
588.97	0.00
589.13	0.00
589.29	86.60
589.45	16.38
589.61	79.58
589.77	0.00
589.93	117.03
590.08	7.02
590.24	0.00
590.40	0.00
590.56	79.58
590.72	46.81
590.88	37.45
591.04	42.13
591.20	100.64
591.35	0.00
591.51	49.15
591.67	46.81
591.83	46.81
591.99	0.00
592.15	44.47
592.31	0.00
592.46	70.22
592.62	30.43
592.78	42.13
592.94	102.98
593.10	0.00
593.26	9.36
593.41	21.06
593.57	0.00
593.73	18.72
593.89	91.28
594.05	149.79
594.20	245.76
594.36	266.82
594.52	145.11
594.68	110.01
594.84	0.00
594.99	49.15
595.15	65.54
595.31	30.43
595.47	0.00
595.62	0.00
595.78	2.34
595.94	11.70
596.10	37.45
596.25	84.26
596.41	56.17
596.57	110.01
596.73	81.92
596.88	63.19
597.04	102.98
597.20	117.03
597.36	51.49
597.51	53.83
597.67	56.17
597.83	46.81
597.99	51.49
598.14	42.13
598.30	9.36
598.46	28.09
598.61	46.81
598.77	70.22
598.93	0.00
599.09	77.24
599.24	16.38
599.40	0.00
599.56	21.06
599.71	77.24
599.87	4.68
600.03	95.96
600.18	51.49
600.34	11.70
600.50	112.35
600.65	44.47
600.81	56.17
600.97	18.72
601.12	42.13
601.28	91.28
601.44	0.00
601.59	49.15
601.75	0.00
601.91	56.17
602.06	30.43
602.22	72.56
602.37	51.49
602.53	93.62
602.69	138.09
602.84	91.28
603.00	0.00
603.16	100.64
603.31	102.98
603.47	98.30
603.62	0.00
603.78	39.79
603.94	32.77
604.09	72.56
604.25	0.00
604.40	0.00
604.56	60.85
604.71	107.66
604.87	81.92
605.03	42.13
605.18	49.15
605.34	4.68
605.49	11.70
605.65	51.49
605.80	49.15
605.96	65.54
606.12	0.00
606.27	56.17
606.43	30.43
606.58	35.11
606.74	23.41
606.89	100.64
607.05	175.54
607.20	210.65
607.36	147.45
607.51	138.09
607.67	91.28
607.82	74.90
607.98	98.30
608.13	14.04
608.29	37.45
608.44	56.17
608.60	67.88
608.75	60.85
608.91	44.47
609.06	166.18
609.22	222.35
609.37	334.70
609.53	332.36
609.68	177.88
609.84	180.22
609.99	98.30
610.15	70.22
610.30	51.49
610.46	98.30
610.61	65.54
610.76	35.11
610.92	65.54
611.07	79.58
611.23	0.00
611.38	46.81
611.54	74.90
611.69	32.77
611.84	91.28
612.00	0.00
612.15	23.41
612.31	14.04
612.46	21.06
612.62	18.72
612.77	56.17
612.92	39.79
613.08	79.58
613.23	63.19
613.39	53.83
613.54	0.00
613.69	166.18
613.85	388.53
614.00	554.71
614.15	425.98
614.31	306.61
614.46	252.78
614.62	133.41
614.77	189.58
614.92	63.19
615.08	77.24
615.23	98.30
615.38	42.13
615.54	7.02
615.69	114.69
615.84	173.20
616.00	163.84
616.15	147.45
616.30	140.43
616.46	128.73
616.61	102.98
616.76	56.17
616.92	67.88
617.07	93.62
617.22	0.00
617.37	0.00
617.53	0.00
617.68	25.75
617.83	72.56
617.99	44.47
618.14	56.17
618.29	63.19
618.45	35.11
618.60	16.38
618.75	35.11
618.90	21.06
619.06	0.00
619.21	0.00
619.36	56.17
619.51	9.36
619.67	53.83
619.82	37.45
619.97	21.06
620.12	9.36
620.28	86.60
620.43	28.09
620.58	84.26
620.73	44.47
620.89	25.75
621.04	4.68
621.19	67.88
621.34	49.15
621.49	81.92
621.65	117.03
621.80	107.66
621.95	42.13
622.10	74.90
622.25	11.70
622.41	42.13
622.56	46.81
622.71	79.58
622.86	11.70
623.01	0.00
623.16	0.00
623.32	39.79
623.47	63.19
623.62	32.77
623.77	11.70
623.92	35.11
624.07	72.56
624.23	84.26
624.38	23.41
624.53	25.75
624.68	35.11
624.83	11.70
624.98	0.00
625.13	7.02
625.29	4.68
625.44	63.19
625.59	56.17
625.74	58.51
625.89	0.00
626.04	88.94
626.19	161.50
626.34	299.59
626.49	360.44
626.65	231.71
626.80	149.79
626.95	112.35
627.10	53.83
627.25	18.72
627.40	105.32
627.55	0.00
627.70	37.45
627.85	18.72
628.00	79.58
628.15	18.72
628.30	25.75
628.45	51.49
628.60	67.88
628.76	135.75
628.91	114.69
629.06	30.43
629.21	42.13
629.36	0.00
629.51	0.00
629.66	44.47
629.81	23.41
629.96	140.43
630.11	95.96
630.26	100.64
630.41	9.36
630.56	149.79
630.71	51.49
630.86	28.09
631.01	39.79
631.16	37.45
631.31	28.09
631.46	65.54
631.61	28.09
631.76	58.51
631.91	81.92
632.06	49.15
632.21	42.13
632.36	21.06
632.51	7.02
632.66	14.04
632.81	81.92
632.96	135.75
633.10	196.60
633.25	142.77
633.40	184.90
633.55	32.77
633.70	91.28
633.85	67.88
634.00	42.13
634.15	42.13
634.30	14.04
634.45	93.62
634.60	0.00
634.75	18.72
634.90	0.00
635.05	0.00
635.19	32.77
635.34	51.49
635.49	46.81
635.64	28.09
635.79	32.77
635.94	98.30
636.09	7.02
636.24	42.13
636.39	39.79
636.53	86.60
636.68	28.09
636.83	0.00
636.98	44.47
637.13	51.49
637.28	0.00
637.43	72.56
637.57	39.79
637.72	156.82
637.87	262.14
638.02	320.65
638.17	325.33
638.32	292.57
638.46	227.03
638.61	119.37
638.76	60.85
638.91	124.05
639.06	60.85
639.20	21.06
639.35	42.13
639.50	98.30
639.65	152.13
639.80	358.10
639.94	519.60
640.09	524.28
640.24	351.08
640.39	264.48
640.54	102.98
640.68	177.88
640.83	175.54
640.98	39.79
641.13	2.34
641.27	42.13
641.42	9.36
641.57	0.00
641.72	4.68
641.86	60.85
642.01	0.00
642.16	81.92
642.31	25.75
642.45	124.05
642.60	46.81
642.75	37.45
642.90	0.00
643.04	14.04
643.19	28.09
643.34	0.00
643.48	95.96
643.63	44.47
643.78	102.98
643.93	58.51
644.07	7.02
644.22	42.13
644.37	0.00
644.51	11.70
644.66	56.17
644.81	65.54
644.95	93.62
645.10	63.19
645.25	42.13
645.39	44.47
645.54	21.06
645.69	2.34
645.83	0.00
645.98	9.36
646.13	67.88
646.27	77.24
646.42	18.72
646.57	67.88
646.71	49.15
646.86	79.58
647.00	23.41
647.15	18.72
647.30	0.00
647.44	0.00
647.59	70.22
647.74	9.36
647.88	84.26
648.03	32.77
648.17	0.00
648.32	72.56
648.47	14.04
648.61	16.38
648.76	65.54
648.90	32.77
649.05	32.77
649.20	18.72
649.34	21.06
649.49	0.00
649.63	51.49
649.78	44.47
649.92	88.94
650.07	86.60
650.21	168.52
650.36	276.18
650.51	313.63
650.65	259.80
650.80	210.65
650.94	114.69
651.09	16.38
651.23	49.15
651.38	18.72
651.52	79.58
651.67	65.54
651.81	42.13
651.96	128.73
652.10	79.58
652.25	0.00
652.39	39.79
652.54	119.37
652.68	21.06
652.83	70.22
652.97	163.84
653.12	98.30
653.26	81.92
653.41	77.24
653.55	65.54
653.70	74.90
653.84	0.00
653.99	0.00
654.13	32.77
654.27	35.11
654.42	91.28
654.56	49.15
654.71	72.56
654.85	60.85
655.00	9.36
655.14	18.72
655.29	58.51
655.43	49.15
655.57	0.00
655.72	30.43
655.86	0.00
656.01	0.00
656.15	65.54
656.30	39.79
656.44	60.85
656.58	28.09
656.73	14.04
656.87	11.70
657.01	51.49
657.16	16.38
657.30	11.70
657.45	93.62
657.59	23.41
657.73	56.17
657.88	18.72
658.02	67.88
658.16	32.77
658.31	86.60
658.45	44.47
658.60	18.72
658.74	11.70
658.88	0.00
659.03	7.02
659.17	88.94
659.31	30.43
659.46	133.41
659.60	91.28
659.74	154.48
659.89	117.03
660.03	133.41
660.17	74.90
660.32	81.92
660.46	42.13
660.60	0.00
660.74	53.83
660.89	86.60
661.03	2.34
661.17	16.38
661.32	79.58
661.46	65.54
661.60	30.43
661.74	2.34
661.89	70.22
662.03	58.51
662.17	35.11
662.31	11.70
662.46	9.36
662.60	0.00
662.74	77.24
662.88	28.09
663.03	70.22
663.17	44.47
663.31	35.11
663.45	63.19
663.60	0.00
663.74	11.70
663.88	0.00
664.02	30.43
664.17	60.85
664.31	9.36
664.45	0.00
664.59	65.54
664.73	107.66
664.88	58.51
665.02	133.41
665.16	23.41
665.30	0.00
665.44	30.43
665.59	46.81
665.73	51.49
665.87	25.75
666.01	42.13
666.15	49.15
666.29	23.41
666.44	14.04
666.58	9.36
666.72	30.43
666.86	14.04
667.00	56.17
667.14	0.00
667.28	39.79
667.43	220.01
667.57	220.01
667.71	191.92
667.85	138.09
667.99	154.48
668.13	105.32
668.27	93.62
668.41	70.22
668.56	60.85
668.70	63.19
668.84	49.15
668.98	44.47
669.12	28.09
669.26	58.51
669.40	44.47
669.54	4.68
669.68	0.00
669.82	42.13
669.96	51.49
670.10	0.00
670.25	18.72
670.39	0.00
670.53	70.22
670.67	25.75
670.81	2.34
670.95	7.02
671.09	0.00
671.23	93.62
671.37	65.54
671.51	128.73
671.65	154.48
671.79	133.41
671.93	77.24
672.07	95.96
672.21	49.15
672.35	53.83
672.49	58.51
672.63	100.64
672.77	21.06
672.91	63.19
673.05	56.17
673.19	32.77
673.33	128.73
673.47	11.70
673.61	7.02
673.75	32.77
673.89	23.41
674.03	86.60
674.17	32.77
674.31	16.38
674.45	4.68
674.59	9.36
674.73	16.38
674.87	7.02
675.01	60.85
675.15	7.02
675.29	49.15
675.43	86.60
675.56	14.04
675.70	0.00
675.84	102.98
675.98	65.54
676.12	39.79
676.26	105.32
676.40	23.41
676.54	46.81
676.68	79.58
676.82	2.34
676.96	46.81
677.10	23.41
677.23	0.00
677.37	49.15
677.51	32.77
677.65	30.43
677.79	51.49
677.93	60.85
678.07	25.75
678.21	42.13
678.34	0.00
678.48	42.13
678.62	21.06
678.76	93.62
678.90	18.72
679.04	60.85
679.18	86.60
679.31	0.00
679.45	32.77
679.59	28.09
679.73	72.56
679.87	23.41
680.00	25.75
680.14	4.68
680.28	44.47
680.42	93.62
680.56	25.75
680.70	14.04
680.83	0.00
680.97	53.83
681.11	0.00
681.25	4.68
681.39	0.00
681.52	0.00
681.66	21.06
681.80	0.00
681.94	0.00
682.07	44.47
682.21	32.77
682.35	0.00
682.49	56.17
682.62	117.03
682.76	0.00
682.90	65.54
683.04	7.02
683.17	60.85
683.31	21.06
683.45	0.00
683.59	72.56
683.72	0.00
683.86	16.38
684.00	0.00
684.13	39.79
684.27	0.00
684.41	70.22
684.55	0.00
684.68	18.72
684.82	42.13
684.96	18.72
685.09	77.24
685.23	23.41
685.37	16.38
685.50	7.02
685.64	39.79
685.78	32.77
685.91	58.51
686.05	30.43
686.19	70.22
686.32	0.00
686.46	67.88
686.60	77.24
686.73	30.43
686.87	0.00
687.01	11.70
687.14	93.62
687.28	0.00
687.42	0.00
687.55	0.00
687.69	91.28
687.82	98.30
687.96	25.75
688.10	72.56
688.23	46.81
688.37	42.13
688.50	49.15
688.64	21.06
688.78	51.49
688.91	72.56
689.05	0.00
689.18	63.19
689.32	77.24
689.46	28.09
689.59	42.13
689.73	14.04
689.86	63.19
690.00	39.79
690.13	46.81
690.27	53.83
690.41	0.00
690.54	51.49
690.68	79.58
690.81	44.47
690.95	0.00
691.08	28.09
691.22	16.38
691.35	18.72
691.49	32.77
691.62	4.68
691.76	11.70
691.89	107.66
692.03	77.24
692.16	56.17
692.30	4.68
692.43	11.70
692.57	56.17
692.70	180.22
692.84	121.71
692.97	117.03
693.11	184.90
693.24	74.90
693.38	60.85
693.51	46.81
693.65	0.00
693.78	49.15
693.92	42.13
694.05	46.81
694.19	0.00
694.32	60.85
694.45	46.81
694.59	37.45
694.72	4.68
694.86	53.83
694.99	67.88
695.13	0.00
695.26	4.68
695.39	0.00
695.53	51.49
695.66	18.72
695.80	39.79
695.93	42.13
696.07	30.43
696.20	88.94
696.33	0.00
696.47	86.60
696.60	35.11
696.73	18.72
696.87	42.13
697.00	0.00
697.14	39.79
697.27	23.41
697.40	11.70
697.54	56.17
697.67	110.01
697.80	0.00
697.94	0.00
698.07	53.83
698.21	0.00
698.34	4.68
698.47	14.04
698.61	77.24
698.74	0.00
698.87	121.71
699.01	30.43
699.14	32.77
699.27	79.58
699.40	23.41
699.54	91.28
699.67	28.09
699.80	0.00
699.94	56.17
700.07	14.04
700.20	56.17
700.34	0.00
700.47	65.54
700.60	21.06
700.73	30.43
700.87	95.96
701.00	9.36
701.13	0.00
701.26	0.00
701.40	77.24
701.53	53.83
701.66	39.79
701.79	65.54
701.93	32.77
702.06	95.96
702.19	0.00
702.32	23.41
702.46	32.77
702.59	14.04
702.72	121.71
702.85	168.52
702.99	205.97
703.12	180.22
703.25	189.58
703.38	203.63
703.51	208.31
703.65	168.52
703.78	16.38
703.91	49.15
704.04	74.90
704.17	0.00
704.31	70.22
704.44	53.83
704.57	11.70
704.70	0.00
704.83	95.96
704.96	63.19
705.10	51.49
705.23	65.54
>>>>>End Processed Spectral Data<<<<<
