SpectraSuite Data File
++++++++++++++++++++++++++++++++++++
Date: Fri Oct 04 12:13:34 GMT-05:00 2013
User: price-jones
Dark Spectrum Present: No
Reference Spectrum Present: No
Number of Sampled Component Spectra: 1
Spectrometers: USB2+H05261
Integration Time (usec): 10000 (USB2+H05261)
Spectra Averaged: 1 (USB2+H05261)
Boxcar Smoothing: 0 (USB2+H05261)
Correct for Electrical Dark: No (USB2+H05261)
Strobe/Lamp Enabled: No (USB2+H05261)
Correct for Detector Non-linearity: No (USB2+H05261)
Correct for Stray Light: No (USB2+H05261)
Number of Pixels in Processed Spectrum: 2048
>>>>>Begin Processed Spectral Data<<<<<
365.73	0.00
365.92	0.00
366.12	0.00
366.32	0.00
366.52	0.00
366.72	0.00
366.91	0.00
367.11	0.00
367.31	0.00
367.51	0.00
367.70	0.00
367.90	0.00
368.10	0.00
368.30	0.00
368.49	0.00
368.69	0.00
368.89	0.00
369.09	0.00
369.28	0.00
369.48	0.00
369.68	0.00
369.87	0.00
370.07	0.00
370.27	0.00
370.47	0.00
370.66	0.00
370.86	0.00
371.06	11.70
371.25	0.00
371.45	0.00
371.65	0.00
371.84	0.00
372.04	51.49
372.24	0.00
372.44	49.15
372.63	0.00
372.83	0.00
373.03	23.41
373.22	105.32
373.42	74.90
373.62	23.41
373.81	0.00
374.01	4.68
374.21	18.72
374.40	14.04
374.60	42.13
374.79	21.06
374.99	16.38
375.19	9.36
375.38	110.01
375.58	23.41
375.78	25.75
375.97	98.30
376.17	91.28
376.37	28.09
376.56	84.26
376.76	128.73
376.95	0.00
377.15	58.51
377.35	0.00
377.54	0.00
377.74	7.02
377.93	21.06
378.13	0.00
378.33	46.81
378.52	72.56
378.72	0.00
378.91	0.00
379.11	30.43
379.31	18.72
379.50	56.17
379.70	0.00
379.89	0.00
380.09	0.00
380.28	46.81
380.48	11.70
380.68	0.00
380.87	53.83
381.07	37.45
381.26	53.83
381.46	0.00
381.65	0.00
381.85	42.13
382.04	0.00
382.24	79.58
382.43	23.41
382.63	93.62
382.83	0.00
383.02	0.00
383.22	35.11
383.41	58.51
383.61	21.06
383.80	9.36
384.00	14.04
384.19	0.00
384.39	39.79
384.58	4.68
384.78	4.68
384.97	0.00
385.17	18.72
385.36	0.00
385.56	60.85
385.75	14.04
385.95	9.36
386.14	0.00
386.34	0.00
386.53	0.00
386.72	49.15
386.92	37.45
387.11	0.00
387.31	4.68
387.50	28.09
387.70	93.62
387.89	0.00
388.09	0.00
388.28	74.90
388.48	16.38
388.67	32.77
388.86	14.04
389.06	25.75
389.25	7.02
389.45	30.43
389.64	0.00
389.84	0.00
390.03	0.00
390.22	18.72
390.42	16.38
390.61	0.00
390.81	0.00
391.00	0.00
391.19	49.15
391.39	4.68
391.58	72.56
391.78	35.11
391.97	28.09
392.16	30.43
392.36	0.00
392.55	35.11
392.75	0.00
392.94	42.13
393.13	0.00
393.33	0.00
393.52	49.15
393.71	0.00
393.91	39.79
394.10	0.00
394.29	60.85
394.49	9.36
394.68	51.49
394.88	0.00
395.07	67.88
395.26	0.00
395.46	63.19
395.65	42.13
395.84	4.68
396.04	0.00
396.23	0.00
396.42	0.00
396.62	79.58
396.81	56.17
397.00	2.34
397.19	25.75
397.39	49.15
397.58	67.88
397.77	21.06
397.97	88.94
398.16	67.88
398.35	65.54
398.55	4.68
398.74	37.45
398.93	0.00
399.12	0.00
399.32	18.72
399.51	49.15
399.70	37.45
399.90	93.62
400.09	7.02
400.28	0.00
400.47	18.72
400.67	9.36
400.86	42.13
401.05	28.09
401.24	14.04
401.44	11.70
401.63	0.00
401.82	58.51
402.01	23.41
402.21	7.02
402.40	74.90
402.59	21.06
402.78	9.36
402.97	44.47
403.17	46.81
403.36	0.00
403.55	0.00
403.74	67.88
403.93	0.00
404.13	42.13
404.32	0.00
404.51	0.00
404.70	0.00
404.89	2.34
405.09	42.13
405.28	35.11
405.47	0.00
405.66	9.36
405.85	56.17
406.05	0.00
406.24	0.00
406.43	49.15
406.62	11.70
406.81	25.75
407.00	39.79
407.20	70.22
407.39	63.19
407.58	0.00
407.77	81.92
407.96	49.15
408.15	2.34
408.34	60.85
408.54	32.77
408.73	91.28
408.92	25.75
409.11	30.43
409.30	49.15
409.49	14.04
409.68	0.00
409.87	9.36
410.07	35.11
410.26	0.00
410.45	14.04
410.64	79.58
410.83	0.00
411.02	95.96
411.21	42.13
411.40	70.22
411.59	42.13
411.78	0.00
411.98	0.00
412.17	0.00
412.36	32.77
412.55	0.00
412.74	51.49
412.93	39.79
413.12	39.79
413.31	2.34
413.50	14.04
413.69	79.58
413.88	23.41
414.07	53.83
414.26	117.03
414.45	14.04
414.64	0.00
414.83	25.75
415.02	23.41
415.22	7.02
415.41	0.00
415.60	0.00
415.79	7.02
415.98	72.56
416.17	49.15
416.36	35.11
416.55	63.19
416.74	7.02
416.93	28.09
417.12	70.22
417.31	0.00
417.50	88.94
417.69	0.00
417.88	35.11
418.07	93.62
418.26	58.51
418.45	42.13
418.64	21.06
418.83	53.83
419.02	60.85
419.21	65.54
419.39	0.00
419.58	0.00
419.77	58.51
419.96	93.62
420.15	79.58
420.34	63.19
420.53	81.92
420.72	0.00
420.91	16.38
421.10	16.38
421.29	86.60
421.48	25.75
421.67	91.28
421.86	0.00
422.05	56.17
422.24	30.43
422.43	72.56
422.61	53.83
422.80	49.15
422.99	0.00
423.18	44.47
423.37	35.11
423.56	51.49
423.75	0.00
423.94	0.00
424.13	0.00
424.32	9.36
424.50	51.49
424.69	16.38
424.88	0.00
425.07	46.81
425.26	72.56
425.45	23.41
425.64	42.13
425.83	56.17
426.01	21.06
426.20	35.11
426.39	49.15
426.58	63.19
426.77	0.00
426.96	0.00
427.15	0.00
427.33	18.72
427.52	77.24
427.71	0.00
427.90	56.17
428.09	32.77
428.28	11.70
428.46	25.75
428.65	9.36
428.84	4.68
429.03	21.06
429.22	0.00
429.40	0.00
429.59	0.00
429.78	51.49
429.97	105.32
430.16	0.00
430.34	25.75
430.53	0.00
430.72	4.68
430.91	11.70
431.10	35.11
431.28	18.72
431.47	4.68
431.66	30.43
431.85	58.51
432.03	23.41
432.22	30.43
432.41	49.15
432.60	0.00
432.79	39.79
432.97	9.36
433.16	25.75
433.35	23.41
433.54	60.85
433.72	0.00
433.91	28.09
434.10	46.81
434.28	95.96
434.47	14.04
434.66	0.00
434.85	114.69
435.03	133.41
435.22	46.81
435.41	84.26
435.59	86.60
435.78	11.70
435.97	0.00
436.16	53.83
436.34	0.00
436.53	18.72
436.72	9.36
436.90	56.17
437.09	7.02
437.28	44.47
437.46	21.06
437.65	42.13
437.84	0.00
438.02	11.70
438.21	0.00
438.40	79.58
438.58	0.00
438.77	51.49
438.96	42.13
439.14	91.28
439.33	39.79
439.52	60.85
439.70	56.17
439.89	0.00
440.08	0.00
440.26	46.81
440.45	9.36
440.63	0.00
440.82	86.60
441.01	58.51
441.19	117.03
441.38	11.70
441.57	56.17
441.75	0.00
441.94	72.56
442.12	42.13
442.31	14.04
442.50	28.09
442.68	44.47
442.87	56.17
443.05	37.45
443.24	67.88
443.43	25.75
443.61	95.96
443.80	60.85
443.98	0.00
444.17	46.81
444.35	0.00
444.54	23.41
444.73	14.04
444.91	0.00
445.10	58.51
445.28	112.35
445.47	67.88
445.65	0.00
445.84	65.54
446.02	49.15
446.21	7.02
446.39	37.45
446.58	42.13
446.77	72.56
446.95	0.00
447.14	42.13
447.32	9.36
447.51	86.60
447.69	42.13
447.88	30.43
448.06	18.72
448.25	56.17
448.43	0.00
448.62	63.19
448.80	14.04
448.99	23.41
449.17	35.11
449.36	4.68
449.54	51.49
449.73	2.34
449.91	37.45
450.10	70.22
450.28	105.32
450.46	67.88
450.65	98.30
450.83	35.11
451.02	42.13
451.20	11.70
451.39	67.88
451.57	88.94
451.76	0.00
451.94	21.06
452.13	65.54
452.31	4.68
452.49	63.19
452.68	23.41
452.86	18.72
453.05	49.15
453.23	0.00
453.42	63.19
453.60	30.43
453.78	65.54
453.97	23.41
454.15	140.43
454.34	79.58
454.52	0.00
454.70	56.17
454.89	35.11
455.07	39.79
455.26	98.30
455.44	18.72
455.62	14.04
455.81	21.06
455.99	51.49
456.17	0.00
456.36	4.68
456.54	9.36
456.73	81.92
456.91	56.17
457.09	46.81
457.28	74.90
457.46	53.83
457.64	0.00
457.83	9.36
458.01	81.92
458.19	37.45
458.38	119.37
458.56	35.11
458.74	18.72
458.93	16.38
459.11	37.45
459.29	51.49
459.48	110.01
459.66	0.00
459.84	93.62
460.03	58.51
460.21	37.45
460.39	79.58
460.57	0.00
460.76	65.54
460.94	28.09
461.12	58.51
461.31	37.45
461.49	51.49
461.67	60.85
461.85	84.26
462.04	91.28
462.22	135.75
462.40	46.81
462.59	0.00
462.77	81.92
462.95	77.24
463.13	18.72
463.32	21.06
463.50	2.34
463.68	23.41
463.86	35.11
464.05	0.00
464.23	0.00
464.41	35.11
464.59	81.92
464.78	28.09
464.96	23.41
465.14	21.06
465.32	56.17
465.50	49.15
465.69	0.00
465.87	0.00
466.05	0.00
466.23	56.17
466.41	49.15
466.60	30.43
466.78	2.34
466.96	44.47
467.14	56.17
467.32	16.38
467.51	60.85
467.69	46.81
467.87	0.00
468.05	56.17
468.23	0.00
468.41	53.83
468.60	70.22
468.78	53.83
468.96	46.81
469.14	37.45
469.32	70.22
469.50	21.06
469.69	0.00
469.87	46.81
470.05	23.41
470.23	0.00
470.41	67.88
470.59	44.47
470.77	37.45
470.95	28.09
471.14	18.72
471.32	53.83
471.50	53.83
471.68	0.00
471.86	70.22
472.04	0.00
472.22	131.07
472.40	11.70
472.58	42.13
472.77	86.60
472.95	105.32
473.13	23.41
473.31	0.00
473.49	84.26
473.67	70.22
473.85	70.22
474.03	0.00
474.21	0.00
474.39	23.41
474.57	51.49
474.75	37.45
474.93	14.04
475.12	4.68
475.30	51.49
475.48	74.90
475.66	79.58
475.84	30.43
476.02	107.66
476.20	74.90
476.38	56.17
476.56	7.02
476.74	18.72
476.92	63.19
477.10	30.43
477.28	98.30
477.46	37.45
477.64	65.54
477.82	102.98
478.00	2.34
478.18	56.17
478.36	4.68
478.54	42.13
478.72	72.56
478.90	42.13
479.08	53.83
479.26	9.36
479.44	74.90
479.62	28.09
479.80	7.02
479.98	11.70
480.16	81.92
480.34	4.68
480.52	21.06
480.70	2.34
480.88	32.77
481.06	30.43
481.24	14.04
481.41	44.47
481.59	79.58
481.77	65.54
481.95	28.09
482.13	74.90
482.31	107.66
482.49	37.45
482.67	25.75
482.85	9.36
483.03	77.24
483.21	9.36
483.39	79.58
483.57	46.81
483.74	154.48
483.92	86.60
484.10	0.00
484.28	18.72
484.46	72.56
484.64	44.47
484.82	72.56
485.00	0.00
485.18	58.51
485.35	79.58
485.53	16.38
485.71	14.04
485.89	14.04
486.07	60.85
486.25	70.22
486.43	105.32
486.61	67.88
486.78	56.17
486.96	49.15
487.14	0.00
487.32	30.43
487.50	154.48
487.68	14.04
487.85	9.36
488.03	53.83
488.21	63.19
488.39	84.26
488.57	0.00
488.75	65.54
488.92	32.77
489.10	9.36
489.28	21.06
489.46	0.00
489.64	46.81
489.81	98.30
489.99	56.17
490.17	65.54
490.35	58.51
490.53	98.30
490.70	112.35
490.88	67.88
491.06	93.62
491.24	0.00
491.41	11.70
491.59	84.26
491.77	25.75
491.95	46.81
492.13	53.83
492.30	32.77
492.48	63.19
492.66	0.00
492.84	44.47
493.01	93.62
493.19	11.70
493.37	110.01
493.54	42.13
493.72	65.54
493.90	30.43
494.08	56.17
494.25	53.83
494.43	49.15
494.61	7.02
494.79	98.30
494.96	35.11
495.14	21.06
495.32	35.11
495.49	84.26
495.67	70.22
495.85	91.28
496.02	51.49
496.20	49.15
496.38	21.06
496.55	117.03
496.73	74.90
496.91	65.54
497.09	60.85
497.26	60.85
497.44	0.00
497.62	35.11
497.79	0.00
497.97	65.54
498.14	74.90
498.32	49.15
498.50	154.48
498.67	102.98
498.85	49.15
499.03	91.28
499.20	35.11
499.38	0.00
499.56	98.30
499.73	65.54
499.91	117.03
500.08	14.04
500.26	79.58
500.44	0.00
500.61	81.92
500.79	0.00
500.97	53.83
501.14	37.45
501.32	7.02
501.49	32.77
501.67	9.36
501.84	58.51
502.02	30.43
502.20	67.88
502.37	39.79
502.55	14.04
502.72	63.19
502.90	65.54
503.07	35.11
503.25	49.15
503.43	58.51
503.60	86.60
503.78	74.90
503.95	9.36
504.13	32.77
504.30	81.92
504.48	100.64
504.65	56.17
504.83	58.51
505.01	93.62
505.18	39.79
505.36	79.58
505.53	58.51
505.71	81.92
505.88	21.06
506.06	39.79
506.23	114.69
506.41	39.79
506.58	37.45
506.76	28.09
506.93	42.13
507.11	74.90
507.28	39.79
507.46	21.06
507.63	21.06
507.81	49.15
507.98	88.94
508.16	74.90
508.33	35.11
508.50	63.19
508.68	81.92
508.85	49.15
509.03	35.11
509.20	63.19
509.38	30.43
509.55	0.00
509.73	18.72
509.90	16.38
510.08	30.43
510.25	74.90
510.42	11.70
510.60	0.00
510.77	49.15
510.95	0.00
511.12	0.00
511.30	46.81
511.47	112.35
511.64	32.77
511.82	70.22
511.99	79.58
512.17	81.92
512.34	63.19
512.51	0.00
512.69	0.00
512.86	25.75
513.04	58.51
513.21	84.26
513.38	7.02
513.56	39.79
513.73	2.34
513.90	112.35
514.08	58.51
514.25	44.47
514.43	56.17
514.60	91.28
514.77	51.49
514.95	51.49
515.12	51.49
515.29	42.13
515.47	0.00
515.64	79.58
515.81	58.51
515.99	0.00
516.16	0.00
516.33	88.94
516.51	23.41
516.68	79.58
516.85	30.43
517.03	16.38
517.20	37.45
517.37	25.75
517.54	9.36
517.72	140.43
517.89	28.09
518.06	95.96
518.24	119.37
518.41	135.75
518.58	35.11
518.75	46.81
518.93	93.62
519.10	100.64
519.27	88.94
519.45	53.83
519.62	42.13
519.79	53.83
519.96	46.81
520.14	51.49
520.31	18.72
520.48	28.09
520.65	114.69
520.83	100.64
521.00	11.70
521.17	119.37
521.34	121.71
521.52	51.49
521.69	88.94
521.86	44.47
522.03	21.06
522.20	9.36
522.38	28.09
522.55	70.22
522.72	30.43
522.89	86.60
523.07	18.72
523.24	0.00
523.41	21.06
523.58	25.75
523.75	11.70
523.92	18.72
524.10	77.24
524.27	56.17
524.44	60.85
524.61	44.47
524.78	79.58
524.96	32.77
525.13	7.02
525.30	39.79
525.47	60.85
525.64	119.37
525.81	79.58
525.98	91.28
526.16	77.24
526.33	74.90
526.50	72.56
526.67	100.64
526.84	53.83
527.01	93.62
527.18	72.56
527.36	28.09
527.53	65.54
527.70	98.30
527.87	56.17
528.04	51.49
528.21	28.09
528.38	11.70
528.55	79.58
528.72	95.96
528.89	114.69
529.07	79.58
529.24	84.26
529.41	84.26
529.58	35.11
529.75	81.92
529.92	72.56
530.09	35.11
530.26	63.19
530.43	60.85
530.60	79.58
530.77	49.15
530.94	74.90
531.11	49.15
531.28	30.43
531.46	124.05
531.63	28.09
531.80	49.15
531.97	114.69
532.14	86.60
532.31	35.11
532.48	86.60
532.65	70.22
532.82	0.00
532.99	65.54
533.16	72.56
533.33	46.81
533.50	117.03
533.67	42.13
533.84	49.15
534.01	67.88
534.18	84.26
534.35	0.00
534.52	93.62
534.69	107.66
534.86	114.69
535.03	39.79
535.20	65.54
535.37	88.94
535.54	58.51
535.71	0.00
535.88	79.58
536.05	77.24
536.22	77.24
536.38	30.43
536.55	173.20
536.72	60.85
536.89	84.26
537.06	0.00
537.23	28.09
537.40	53.83
537.57	0.00
537.74	7.02
537.91	86.60
538.08	79.58
538.25	0.00
538.42	30.43
538.59	0.00
538.75	56.17
538.92	25.75
539.09	9.36
539.26	84.26
539.43	32.77
539.60	81.92
539.77	32.77
539.94	79.58
540.11	30.43
540.28	133.41
540.44	67.88
540.61	58.51
540.78	86.60
540.95	0.00
541.12	53.83
541.29	46.81
541.46	56.17
541.62	53.83
541.79	23.41
541.96	58.51
542.13	35.11
542.30	93.62
542.47	72.56
542.63	102.98
542.80	46.81
542.97	42.13
543.14	11.70
543.31	30.43
543.48	70.22
543.64	53.83
543.81	35.11
543.98	16.38
544.15	46.81
544.32	37.45
544.48	98.30
544.65	74.90
544.82	16.38
544.99	18.72
545.16	67.88
545.32	46.81
545.49	126.39
545.66	114.69
545.83	18.72
546.00	93.62
546.16	9.36
546.33	140.43
546.50	56.17
546.67	86.60
546.83	67.88
547.00	28.09
547.17	107.66
547.34	0.00
547.50	21.06
547.67	63.19
547.84	37.45
548.00	49.15
548.17	58.51
548.34	35.11
548.51	0.00
548.67	98.30
548.84	23.41
549.01	39.79
549.18	9.36
549.34	25.75
549.51	98.30
549.68	37.45
549.84	46.81
550.01	53.83
550.18	21.06
550.34	51.49
550.51	84.26
550.68	84.26
550.84	32.77
551.01	23.41
551.18	77.24
551.34	0.00
551.51	88.94
551.68	77.24
551.84	67.88
552.01	72.56
552.18	105.32
552.34	86.60
552.51	100.64
552.68	0.00
552.84	51.49
553.01	70.22
553.18	70.22
553.34	58.51
553.51	42.13
553.67	25.75
553.84	0.00
554.01	105.32
554.17	32.77
554.34	14.04
554.51	44.47
554.67	37.45
554.84	44.47
555.00	72.56
555.17	65.54
555.33	86.60
555.50	70.22
555.67	37.45
555.83	35.11
556.00	77.24
556.16	51.49
556.33	77.24
556.50	86.60
556.66	32.77
556.83	16.38
556.99	112.35
557.16	14.04
557.32	67.88
557.49	46.81
557.65	0.00
557.82	110.01
557.98	95.96
558.15	53.83
558.32	25.75
558.48	86.60
558.65	0.00
558.81	9.36
558.98	35.11
559.14	18.72
559.31	18.72
559.47	23.41
559.64	23.41
559.80	86.60
559.97	91.28
560.13	16.38
560.30	9.36
560.46	42.13
560.63	25.75
560.79	63.19
560.96	98.30
561.12	74.90
561.29	11.70
561.45	23.41
561.61	84.26
561.78	28.09
561.94	58.51
562.11	32.77
562.27	0.00
562.44	58.51
562.60	9.36
562.77	14.04
562.93	51.49
563.10	51.49
563.26	65.54
563.42	4.68
563.59	11.70
563.75	0.00
563.92	51.49
564.08	35.11
564.24	77.24
564.41	79.58
564.57	0.00
564.74	42.13
564.90	53.83
565.07	145.11
565.23	0.00
565.39	70.22
565.56	79.58
565.72	9.36
565.88	46.81
566.05	32.77
566.21	84.26
566.38	30.43
566.54	42.13
566.70	98.30
566.87	60.85
567.03	63.19
567.19	105.32
567.36	44.47
567.52	126.39
567.68	37.45
567.85	67.88
568.01	49.15
568.17	32.77
568.34	39.79
568.50	46.81
568.66	49.15
568.83	4.68
568.99	72.56
569.15	65.54
569.32	131.07
569.48	16.38
569.64	65.54
569.81	147.45
569.97	39.79
570.13	112.35
570.30	23.41
570.46	28.09
570.62	14.04
570.78	56.17
570.95	79.58
571.11	117.03
571.27	58.51
571.43	105.32
571.60	79.58
571.76	58.51
571.92	30.43
572.09	58.51
572.25	114.69
572.41	14.04
572.57	105.32
572.74	0.00
572.90	0.00
573.06	32.77
573.22	77.24
573.38	0.00
573.55	18.72
573.71	70.22
573.87	11.70
574.03	9.36
574.20	18.72
574.36	93.62
574.52	67.88
574.68	0.00
574.84	0.00
575.01	84.26
575.17	58.51
575.33	93.62
575.49	105.32
575.65	25.75
575.82	39.79
575.98	0.00
576.14	46.81
576.30	9.36
576.46	37.45
576.62	107.66
576.79	32.77
576.95	56.17
577.11	18.72
577.27	107.66
577.43	79.58
577.59	23.41
577.75	72.56
577.92	0.00
578.08	14.04
578.24	39.79
578.40	28.09
578.56	32.77
578.72	0.00
578.88	86.60
579.04	53.83
579.21	35.11
579.37	21.06
579.53	0.00
579.69	35.11
579.85	0.00
580.01	7.02
580.17	88.94
580.33	98.30
580.49	32.77
580.65	0.00
580.82	60.85
580.98	39.79
581.14	42.13
581.30	28.09
581.46	135.75
581.62	42.13
581.78	11.70
581.94	67.88
582.10	21.06
582.26	65.54
582.42	65.54
582.58	9.36
582.74	72.56
582.90	74.90
583.06	84.26
583.22	58.51
583.38	51.49
583.54	28.09
583.70	60.85
583.86	128.73
584.02	63.19
584.18	70.22
584.34	42.13
584.50	84.26
584.66	95.96
584.82	0.00
584.98	11.70
585.14	0.00
585.30	51.49
585.46	49.15
585.62	49.15
585.78	28.09
585.94	9.36
586.10	32.77
586.26	93.62
586.42	30.43
586.58	39.79
586.74	28.09
586.90	56.17
587.06	0.00
587.22	88.94
587.38	56.17
587.54	30.43
587.70	18.72
587.86	14.04
588.02	72.56
588.18	16.38
588.34	39.79
588.49	53.83
588.65	63.19
588.81	18.72
588.97	88.94
589.13	58.51
589.29	84.26
589.45	37.45
589.61	117.03
589.77	67.88
589.93	95.96
590.08	49.15
590.24	4.68
590.40	74.90
590.56	56.17
590.72	93.62
590.88	32.77
591.04	102.98
591.20	11.70
591.35	91.28
591.51	39.79
591.67	0.00
591.83	30.43
591.99	9.36
592.15	46.81
592.31	81.92
592.46	74.90
592.62	39.79
592.78	84.26
592.94	81.92
593.10	84.26
593.26	39.79
593.41	16.38
593.57	4.68
593.73	77.24
593.89	114.69
594.05	53.83
594.20	25.75
594.36	74.90
594.52	79.58
594.68	30.43
594.84	42.13
594.99	23.41
595.15	0.00
595.31	0.00
595.47	65.54
595.62	9.36
595.78	72.56
595.94	0.00
596.10	63.19
596.25	131.07
596.41	11.70
596.57	135.75
596.73	88.94
596.88	67.88
597.04	46.81
597.20	81.92
597.36	16.38
597.51	46.81
597.67	32.77
597.83	9.36
597.99	79.58
598.14	110.01
598.30	88.94
598.46	86.60
598.61	23.41
598.77	77.24
598.93	84.26
599.09	114.69
599.24	51.49
599.40	23.41
599.56	0.00
599.71	39.79
599.87	74.90
600.03	9.36
600.18	32.77
600.34	84.26
600.50	86.60
600.65	53.83
600.81	166.18
600.97	77.24
601.12	35.11
601.28	74.90
601.44	28.09
601.59	56.17
601.75	70.22
601.91	25.75
602.06	11.70
602.22	60.85
602.37	2.34
602.53	37.45
602.69	37.45
602.84	46.81
603.00	0.00
603.16	81.92
603.31	58.51
603.47	42.13
603.62	49.15
603.78	25.75
603.94	117.03
604.09	51.49
604.25	56.17
604.40	138.09
604.56	58.51
604.71	63.19
604.87	49.15
605.03	16.38
605.18	51.49
605.34	58.51
605.49	117.03
605.65	74.90
605.80	53.83
605.96	0.00
606.12	25.75
606.27	18.72
606.43	35.11
606.58	39.79
606.74	44.47
606.89	21.06
607.05	28.09
607.20	28.09
607.36	56.17
607.51	7.02
607.67	79.58
607.82	60.85
607.98	91.28
608.13	9.36
608.29	39.79
608.44	53.83
608.60	58.51
608.75	105.32
608.91	65.54
609.06	56.17
609.22	74.90
609.37	84.26
609.53	28.09
609.68	51.49
609.84	51.49
609.99	72.56
610.15	86.60
610.30	77.24
610.46	37.45
610.61	67.88
610.76	70.22
610.92	72.56
611.07	79.58
611.23	0.00
611.38	84.26
611.54	102.98
611.69	9.36
611.84	44.47
612.00	60.85
612.15	49.15
612.31	102.98
612.46	107.66
612.62	60.85
612.77	0.00
612.92	0.00
613.08	63.19
613.23	25.75
613.39	23.41
613.54	21.06
613.69	128.73
613.85	95.96
614.00	44.47
614.15	11.70
614.31	51.49
614.46	0.00
614.62	9.36
614.77	44.47
614.92	44.47
615.08	30.43
615.23	79.58
615.38	32.77
615.54	37.45
615.69	32.77
615.84	49.15
616.00	112.35
616.15	117.03
616.30	102.98
616.46	16.38
616.61	37.45
616.76	25.75
616.92	51.49
617.07	51.49
617.22	30.43
617.37	88.94
617.53	58.51
617.68	60.85
617.83	18.72
617.99	32.77
618.14	135.75
618.29	42.13
618.45	63.19
618.60	72.56
618.75	18.72
618.90	135.75
619.06	112.35
619.21	58.51
619.36	84.26
619.51	100.64
619.67	37.45
619.82	30.43
619.97	42.13
620.12	84.26
620.28	46.81
620.43	49.15
620.58	28.09
620.73	88.94
620.89	16.38
621.04	65.54
621.19	65.54
621.34	102.98
621.49	0.00
621.65	74.90
621.80	56.17
621.95	91.28
622.10	77.24
622.25	39.79
622.41	53.83
622.56	25.75
622.71	102.98
622.86	35.11
623.01	23.41
623.16	81.92
623.32	74.90
623.47	49.15
623.62	117.03
623.77	28.09
623.92	37.45
624.07	60.85
624.23	58.51
624.38	88.94
624.53	100.64
624.68	60.85
624.83	32.77
624.98	93.62
625.13	98.30
625.29	37.45
625.44	86.60
625.59	93.62
625.74	14.04
625.89	74.90
626.04	114.69
626.19	86.60
626.34	110.01
626.49	77.24
626.65	14.04
626.80	9.36
626.95	81.92
627.10	0.00
627.25	72.56
627.40	14.04
627.55	93.62
627.70	23.41
627.85	25.75
628.00	0.00
628.15	11.70
628.30	110.01
628.45	42.13
628.60	11.70
628.76	91.28
628.91	32.77
629.06	0.00
629.21	9.36
629.36	0.00
629.51	39.79
629.66	65.54
629.81	63.19
629.96	39.79
630.11	0.00
630.26	81.92
630.41	60.85
630.56	0.00
630.71	77.24
630.86	84.26
631.01	74.90
631.16	88.94
631.31	49.15
631.46	77.24
631.61	35.11
631.76	100.64
631.91	0.00
632.06	0.00
632.21	72.56
632.36	72.56
632.51	91.28
632.66	84.26
632.81	84.26
632.96	63.19
633.10	63.19
633.25	100.64
633.40	70.22
633.55	49.15
633.70	30.43
633.85	30.43
634.00	37.45
634.15	105.32
634.30	60.85
634.45	28.09
634.60	9.36
634.75	16.38
634.90	84.26
635.05	67.88
635.19	53.83
635.34	28.09
635.49	37.45
635.64	74.90
635.79	49.15
635.94	35.11
636.09	49.15
636.24	86.60
636.39	7.02
636.53	60.85
636.68	11.70
636.83	42.13
636.98	72.56
637.13	23.41
637.28	16.38
637.43	72.56
637.57	30.43
637.72	117.03
637.87	107.66
638.02	53.83
638.17	72.56
638.32	112.35
638.46	32.77
638.61	67.88
638.76	65.54
638.91	42.13
639.06	23.41
639.20	79.58
639.35	23.41
639.50	0.00
639.65	65.54
639.80	53.83
639.94	53.83
640.09	77.24
640.24	32.77
640.39	49.15
640.54	79.58
640.68	2.34
640.83	72.56
640.98	18.72
641.13	37.45
641.27	93.62
641.42	0.00
641.57	32.77
641.72	14.04
641.86	7.02
642.01	67.88
642.16	23.41
642.31	39.79
642.45	72.56
642.60	37.45
642.75	44.47
642.90	98.30
643.04	0.00
643.19	39.79
643.34	25.75
643.48	133.41
643.63	7.02
643.78	114.69
643.93	37.45
644.07	37.45
644.22	30.43
644.37	39.79
644.51	84.26
644.66	77.24
644.81	44.47
644.95	0.00
645.10	79.58
645.25	23.41
645.39	91.28
645.54	39.79
645.69	86.60
645.83	72.56
645.98	42.13
646.13	81.92
646.27	100.64
646.42	65.54
646.57	44.47
646.71	51.49
646.86	0.00
647.00	32.77
647.15	16.38
647.30	86.60
647.44	46.81
647.59	18.72
647.74	63.19
647.88	18.72
648.03	58.51
648.17	25.75
648.32	46.81
648.47	102.98
648.61	46.81
648.76	67.88
648.90	65.54
649.05	65.54
649.20	28.09
649.34	72.56
649.49	65.54
649.63	93.62
649.78	53.83
649.92	56.17
650.07	0.00
650.21	56.17
650.36	88.94
650.51	23.41
650.65	77.24
650.80	67.88
650.94	11.70
651.09	18.72
651.23	84.26
651.38	56.17
651.52	9.36
651.67	84.26
651.81	74.90
651.96	39.79
652.10	56.17
652.25	60.85
652.39	84.26
652.54	37.45
652.68	63.19
652.83	21.06
652.97	63.19
653.12	74.90
653.26	51.49
653.41	58.51
653.55	49.15
653.70	42.13
653.84	32.77
653.99	0.00
654.13	84.26
654.27	37.45
654.42	102.98
654.56	9.36
654.71	126.39
654.85	42.13
655.00	91.28
655.14	56.17
655.29	84.26
655.43	0.00
655.57	44.47
655.72	56.17
655.86	32.77
656.01	42.13
656.15	56.17
656.30	58.51
656.44	72.56
656.58	21.06
656.73	39.79
656.87	42.13
657.01	79.58
657.16	39.79
657.30	14.04
657.45	70.22
657.59	93.62
657.73	77.24
657.88	18.72
658.02	35.11
658.16	86.60
658.31	2.34
658.45	51.49
658.60	79.58
658.74	91.28
658.88	7.02
659.03	44.47
659.17	60.85
659.31	49.15
659.46	46.81
659.60	0.00
659.74	18.72
659.89	107.66
660.03	30.43
660.17	53.83
660.32	84.26
660.46	107.66
660.60	79.58
660.74	63.19
660.89	86.60
661.03	98.30
661.17	25.75
661.32	35.11
661.46	21.06
661.60	63.19
661.74	63.19
661.89	49.15
662.03	65.54
662.17	46.81
662.31	42.13
662.46	32.77
662.60	25.75
662.74	79.58
662.88	0.00
663.03	49.15
663.17	65.54
663.31	100.64
663.45	60.85
663.60	2.34
663.74	18.72
663.88	74.90
664.02	81.92
664.17	23.41
664.31	11.70
664.45	77.24
664.59	0.00
664.73	11.70
664.88	81.92
665.02	0.00
665.16	30.43
665.30	72.56
665.44	0.00
665.59	11.70
665.73	56.17
665.87	74.90
666.01	147.45
666.15	0.00
666.29	0.00
666.44	35.11
666.58	0.00
666.72	56.17
666.86	0.00
667.00	51.49
667.14	63.19
667.28	4.68
667.43	0.00
667.57	14.04
667.71	46.81
667.85	65.54
667.99	25.75
668.13	79.58
668.27	28.09
668.41	77.24
668.56	46.81
668.70	79.58
668.84	11.70
668.98	65.54
669.12	56.17
669.26	72.56
669.40	0.00
669.54	32.77
669.68	49.15
669.82	42.13
669.96	53.83
670.10	0.00
670.25	28.09
670.39	37.45
670.53	63.19
670.67	14.04
670.81	0.00
670.95	39.79
671.09	0.00
671.23	128.73
671.37	0.00
671.51	0.00
671.65	14.04
671.79	67.88
671.93	44.47
672.07	37.45
672.21	95.96
672.35	7.02
672.49	81.92
672.63	42.13
672.77	46.81
672.91	63.19
673.05	7.02
673.19	46.81
673.33	0.00
673.47	39.79
673.61	35.11
673.75	72.56
673.89	105.32
674.03	25.75
674.17	44.47
674.31	0.00
674.45	18.72
674.59	124.05
674.73	88.94
674.87	25.75
675.01	51.49
675.15	65.54
675.29	32.77
675.43	9.36
675.56	98.30
675.70	65.54
675.84	37.45
675.98	79.58
676.12	23.41
676.26	88.94
676.40	21.06
676.54	0.00
676.68	79.58
676.82	79.58
676.96	77.24
677.10	86.60
677.23	67.88
677.37	37.45
677.51	79.58
677.65	72.56
677.79	0.00
677.93	63.19
678.07	0.00
678.21	37.45
678.34	9.36
678.48	86.60
678.62	93.62
678.76	81.92
678.90	49.15
679.04	67.88
679.18	0.00
679.31	0.00
679.45	0.00
679.59	16.38
679.73	9.36
679.87	39.79
680.00	39.79
680.14	25.75
680.28	9.36
680.42	0.00
680.56	21.06
680.70	32.77
680.83	42.13
680.97	0.00
681.11	0.00
681.25	70.22
681.39	70.22
681.52	67.88
681.66	35.11
681.80	0.00
681.94	37.45
682.07	0.00
682.21	14.04
682.35	44.47
682.49	84.26
682.62	72.56
682.76	84.26
682.90	81.92
683.04	74.90
683.17	138.09
683.31	39.79
683.45	70.22
683.59	18.72
683.72	49.15
683.86	49.15
684.00	63.19
684.13	93.62
684.27	28.09
684.41	53.83
684.55	0.00
684.68	44.47
684.82	2.34
684.96	42.13
685.09	60.85
685.23	86.60
685.37	30.43
685.50	32.77
685.64	74.90
685.78	60.85
685.91	49.15
686.05	65.54
686.19	16.38
686.32	2.34
686.46	0.00
686.60	0.00
686.73	95.96
686.87	56.17
687.01	49.15
687.14	100.64
687.28	0.00
687.42	0.00
687.55	133.41
687.69	30.43
687.82	0.00
687.96	37.45
688.10	32.77
688.23	65.54
688.37	65.54
688.50	105.32
688.64	114.69
688.78	107.66
688.91	63.19
689.05	110.01
689.18	0.00
689.32	28.09
689.46	49.15
689.59	0.00
689.73	100.64
689.86	28.09
690.00	67.88
690.13	9.36
690.27	7.02
690.41	46.81
690.54	9.36
690.68	65.54
690.81	70.22
690.95	37.45
691.08	14.04
691.22	32.77
691.35	114.69
691.49	70.22
691.62	18.72
691.76	79.58
691.89	0.00
692.03	0.00
692.16	0.00
692.30	14.04
692.43	28.09
692.57	30.43
692.70	72.56
692.84	0.00
692.97	0.00
693.11	7.02
693.24	53.83
693.38	51.49
693.51	112.35
693.65	53.83
693.78	65.54
693.92	39.79
694.05	2.34
694.19	46.81
694.32	46.81
694.45	11.70
694.59	35.11
694.72	0.00
694.86	16.38
694.99	60.85
695.13	49.15
695.26	0.00
695.39	119.37
695.53	93.62
695.66	49.15
695.80	30.43
695.93	42.13
696.07	44.47
696.20	121.71
696.33	65.54
696.47	0.00
696.60	11.70
696.73	11.70
696.87	53.83
697.00	72.56
697.14	28.09
697.27	16.38
697.40	4.68
697.54	25.75
697.67	53.83
697.80	44.47
697.94	0.00
698.07	42.13
698.21	0.00
698.34	0.00
698.47	60.85
698.61	21.06
698.74	63.19
698.87	16.38
699.01	44.47
699.14	84.26
699.27	84.26
699.40	102.98
699.54	16.38
699.67	81.92
699.80	0.00
699.94	32.77
700.07	35.11
700.20	4.68
700.34	0.00
700.47	23.41
700.60	28.09
700.73	91.28
700.87	67.88
701.00	9.36
701.13	28.09
701.26	0.00
701.40	2.34
701.53	21.06
701.66	25.75
701.79	0.00
701.93	42.13
702.06	51.49
702.19	42.13
702.32	0.00
702.46	30.43
702.59	79.58
702.72	72.56
702.85	0.00
702.99	16.38
703.12	60.85
703.25	63.19
703.38	79.58
703.51	72.56
703.65	23.41
703.78	86.60
703.91	72.56
704.04	0.00
704.17	74.90
704.31	18.72
704.44	0.00
704.57	100.64
704.70	0.00
704.83	42.13
704.96	11.70
705.10	67.88
705.23	16.38
>>>>>End Processed Spectral Data<<<<<
