SpectraSuite Data File
++++++++++++++++++++++++++++++++++++
Date: Fri Oct 04 12:13:29 GMT-05:00 2013
User: price-jones
Dark Spectrum Present: No
Reference Spectrum Present: No
Number of Sampled Component Spectra: 1
Spectrometers: USB2+H05261
Integration Time (usec): 10000 (USB2+H05261)
Spectra Averaged: 1 (USB2+H05261)
Boxcar Smoothing: 0 (USB2+H05261)
Correct for Electrical Dark: No (USB2+H05261)
Strobe/Lamp Enabled: No (USB2+H05261)
Correct for Detector Non-linearity: No (USB2+H05261)
Correct for Stray Light: No (USB2+H05261)
Number of Pixels in Processed Spectrum: 2048
>>>>>Begin Processed Spectral Data<<<<<
365.73	21.06
365.92	21.06
366.12	21.06
366.32	0.00
366.52	0.00
366.72	0.00
366.91	0.00
367.11	0.00
367.31	0.00
367.51	0.00
367.70	0.00
367.90	0.00
368.10	0.00
368.30	0.00
368.49	0.00
368.69	0.00
368.89	0.00
369.09	0.00
369.28	0.00
369.48	0.00
369.68	0.00
369.87	0.00
370.07	0.00
370.27	0.00
370.47	0.00
370.66	0.00
370.86	0.00
371.06	0.00
371.25	37.45
371.45	0.00
371.65	14.04
371.84	9.36
372.04	0.00
372.24	0.00
372.44	0.00
372.63	18.72
372.83	51.49
373.03	14.04
373.22	93.62
373.42	0.00
373.62	81.92
373.81	67.88
374.01	21.06
374.21	25.75
374.40	0.00
374.60	44.47
374.79	9.36
374.99	0.00
375.19	65.54
375.38	77.24
375.58	30.43
375.78	53.83
375.97	35.11
376.17	135.75
376.37	39.79
376.56	0.00
376.76	28.09
376.95	0.00
377.15	25.75
377.35	32.77
377.54	25.75
377.74	0.00
377.93	2.34
378.13	0.00
378.33	126.39
378.52	39.79
378.72	35.11
378.91	56.17
379.11	32.77
379.31	16.38
379.50	18.72
379.70	21.06
379.89	49.15
380.09	37.45
380.28	11.70
380.48	0.00
380.68	70.22
380.87	58.51
381.07	60.85
381.26	35.11
381.46	16.38
381.65	58.51
381.85	0.00
382.04	0.00
382.24	0.00
382.43	0.00
382.63	72.56
382.83	39.79
383.02	0.00
383.22	0.00
383.41	0.00
383.61	0.00
383.80	14.04
384.00	0.00
384.19	0.00
384.39	4.68
384.58	0.00
384.78	86.60
384.97	2.34
385.17	0.00
385.36	0.00
385.56	0.00
385.75	46.81
385.95	63.19
386.14	39.79
386.34	25.75
386.53	35.11
386.72	79.58
386.92	0.00
387.11	65.54
387.31	0.00
387.50	18.72
387.70	32.77
387.89	0.00
388.09	9.36
388.28	79.58
388.48	0.00
388.67	28.09
388.86	0.00
389.06	18.72
389.25	93.62
389.45	0.00
389.64	0.00
389.84	2.34
390.03	2.34
390.22	44.47
390.42	0.00
390.61	0.00
390.81	42.13
391.00	77.24
391.19	63.19
391.39	37.45
391.58	98.30
391.78	49.15
391.97	0.00
392.16	70.22
392.36	0.00
392.55	21.06
392.75	4.68
392.94	32.77
393.13	0.00
393.33	4.68
393.52	0.00
393.71	53.83
393.91	44.47
394.10	0.00
394.29	49.15
394.49	25.75
394.68	0.00
394.88	98.30
395.07	28.09
395.26	42.13
395.46	65.54
395.65	28.09
395.84	0.00
396.04	30.43
396.23	30.43
396.42	14.04
396.62	16.38
396.81	2.34
397.00	21.06
397.19	0.00
397.39	32.77
397.58	70.22
397.77	23.41
397.97	0.00
398.16	18.72
398.35	14.04
398.55	44.47
398.74	49.15
398.93	53.83
399.12	84.26
399.32	124.05
399.51	117.03
399.70	30.43
399.90	0.00
400.09	30.43
400.28	14.04
400.47	72.56
400.67	42.13
400.86	7.02
401.05	7.02
401.24	107.66
401.44	70.22
401.63	63.19
401.82	70.22
402.01	0.00
402.21	23.41
402.40	0.00
402.59	0.00
402.78	46.81
402.97	35.11
403.17	0.00
403.36	39.79
403.55	0.00
403.74	2.34
403.93	39.79
404.13	4.68
404.32	53.83
404.51	0.00
404.70	77.24
404.89	0.00
405.09	84.26
405.28	2.34
405.47	23.41
405.66	23.41
405.85	0.00
406.05	32.77
406.24	14.04
406.43	49.15
406.62	0.00
406.81	28.09
407.00	86.60
407.20	0.00
407.39	0.00
407.58	7.02
407.77	23.41
407.96	0.00
408.15	0.00
408.34	14.04
408.54	77.24
408.73	0.00
408.92	0.00
409.11	84.26
409.30	44.47
409.49	0.00
409.68	70.22
409.87	0.00
410.07	77.24
410.26	0.00
410.45	14.04
410.64	0.00
410.83	0.00
411.02	0.00
411.21	32.77
411.40	0.00
411.59	67.88
411.78	0.00
411.98	56.17
412.17	95.96
412.36	0.00
412.55	0.00
412.74	119.37
412.93	0.00
413.12	67.88
413.31	28.09
413.50	39.79
413.69	32.77
413.88	35.11
414.07	2.34
414.26	70.22
414.45	77.24
414.64	0.00
414.83	35.11
415.02	72.56
415.22	25.75
415.41	58.51
415.60	0.00
415.79	53.83
415.98	65.54
416.17	100.64
416.36	0.00
416.55	16.38
416.74	72.56
416.93	117.03
417.12	81.92
417.31	2.34
417.50	98.30
417.69	79.58
417.88	102.98
418.07	21.06
418.26	53.83
418.45	23.41
418.64	74.90
418.83	11.70
419.02	35.11
419.21	60.85
419.39	16.38
419.58	0.00
419.77	16.38
419.96	0.00
420.15	0.00
420.34	0.00
420.53	0.00
420.72	37.45
420.91	60.85
421.10	0.00
421.29	21.06
421.48	98.30
421.67	23.41
421.86	32.77
422.05	0.00
422.24	86.60
422.43	67.88
422.61	53.83
422.80	14.04
422.99	0.00
423.18	42.13
423.37	0.00
423.56	30.43
423.75	74.90
423.94	58.51
424.13	2.34
424.32	0.00
424.50	72.56
424.69	0.00
424.88	44.47
425.07	18.72
425.26	42.13
425.45	0.00
425.64	60.85
425.83	0.00
426.01	18.72
426.20	30.43
426.39	0.00
426.58	21.06
426.77	11.70
426.96	4.68
427.15	0.00
427.33	0.00
427.52	114.69
427.71	102.98
427.90	0.00
428.09	0.00
428.28	0.00
428.46	0.00
428.65	74.90
428.84	42.13
429.03	58.51
429.22	0.00
429.40	93.62
429.59	53.83
429.78	9.36
429.97	25.75
430.16	35.11
430.34	0.00
430.53	86.60
430.72	86.60
430.91	63.19
431.10	0.00
431.28	0.00
431.47	42.13
431.66	39.79
431.85	44.47
432.03	9.36
432.22	23.41
432.41	2.34
432.60	28.09
432.79	11.70
432.97	77.24
433.16	81.92
433.35	35.11
433.54	65.54
433.72	0.00
433.91	0.00
434.10	11.70
434.28	23.41
434.47	21.06
434.66	74.90
434.85	11.70
435.03	65.54
435.22	0.00
435.41	53.83
435.59	46.81
435.78	0.00
435.97	9.36
436.16	32.77
436.34	49.15
436.53	0.00
436.72	49.15
436.90	35.11
437.09	0.00
437.28	91.28
437.46	14.04
437.65	0.00
437.84	105.32
438.02	49.15
438.21	0.00
438.40	25.75
438.58	11.70
438.77	37.45
438.96	14.04
439.14	23.41
439.33	46.81
439.52	70.22
439.70	2.34
439.89	0.00
440.08	0.00
440.26	37.45
440.45	39.79
440.63	44.47
440.82	32.77
441.01	53.83
441.19	35.11
441.38	0.00
441.57	0.00
441.75	46.81
441.94	100.64
442.12	0.00
442.31	58.51
442.50	39.79
442.68	0.00
442.87	25.75
443.05	0.00
443.24	72.56
443.43	100.64
443.61	46.81
443.80	0.00
443.98	0.00
444.17	58.51
444.35	0.00
444.54	49.15
444.73	58.51
444.91	65.54
445.10	86.60
445.28	60.85
445.47	44.47
445.65	9.36
445.84	0.00
446.02	0.00
446.21	49.15
446.39	18.72
446.58	0.00
446.77	25.75
446.95	37.45
447.14	44.47
447.32	60.85
447.51	67.88
447.69	0.00
447.88	0.00
448.06	98.30
448.25	88.94
448.43	93.62
448.62	28.09
448.80	58.51
448.99	0.00
449.17	37.45
449.36	0.00
449.54	42.13
449.73	25.75
449.91	16.38
450.10	49.15
450.28	42.13
450.46	0.00
450.65	4.68
450.83	0.00
451.02	4.68
451.20	28.09
451.39	79.58
451.57	63.19
451.76	30.43
451.94	51.49
452.13	102.98
452.31	56.17
452.49	67.88
452.68	0.00
452.86	32.77
453.05	0.00
453.23	32.77
453.42	42.13
453.60	56.17
453.78	0.00
453.97	39.79
454.15	102.98
454.34	0.00
454.52	72.56
454.70	16.38
454.89	56.17
455.07	0.00
455.26	53.83
455.44	0.00
455.62	42.13
455.81	58.51
455.99	32.77
456.17	70.22
456.36	81.92
456.54	49.15
456.73	0.00
456.91	42.13
457.09	102.98
457.28	0.00
457.46	0.00
457.64	0.00
457.83	93.62
458.01	39.79
458.19	72.56
458.38	110.01
458.56	60.85
458.74	4.68
458.93	0.00
459.11	0.00
459.29	28.09
459.48	0.00
459.66	58.51
459.84	21.06
460.03	46.81
460.21	72.56
460.39	51.49
460.57	72.56
460.76	88.94
460.94	42.13
461.12	16.38
461.31	32.77
461.49	74.90
461.67	0.00
461.85	18.72
462.04	0.00
462.22	70.22
462.40	14.04
462.59	4.68
462.77	18.72
462.95	16.38
463.13	0.00
463.32	79.58
463.50	28.09
463.68	42.13
463.86	42.13
464.05	65.54
464.23	25.75
464.41	0.00
464.59	79.58
464.78	70.22
464.96	14.04
465.14	35.11
465.32	32.77
465.50	0.00
465.69	0.00
465.87	0.00
466.05	88.94
466.23	114.69
466.41	65.54
466.60	46.81
466.78	74.90
466.96	16.38
467.14	0.00
467.32	0.00
467.51	32.77
467.69	44.47
467.87	18.72
468.05	14.04
468.23	23.41
468.41	14.04
468.60	25.75
468.78	0.00
468.96	18.72
469.14	0.00
469.32	39.79
469.50	60.85
469.69	58.51
469.87	65.54
470.05	91.28
470.23	100.64
470.41	124.05
470.59	0.00
470.77	14.04
470.95	63.19
471.14	42.13
471.32	0.00
471.50	4.68
471.68	0.00
471.86	23.41
472.04	0.00
472.22	60.85
472.40	0.00
472.58	100.64
472.77	30.43
472.95	93.62
473.13	18.72
473.31	84.26
473.49	0.00
473.67	32.77
473.85	0.00
474.03	32.77
474.21	14.04
474.39	93.62
474.57	32.77
474.75	25.75
474.93	0.00
475.12	107.66
475.30	67.88
475.48	46.81
475.66	0.00
475.84	0.00
476.02	81.92
476.20	112.35
476.38	23.41
476.56	56.17
476.74	4.68
476.92	58.51
477.10	0.00
477.28	32.77
477.46	0.00
477.64	0.00
477.82	37.45
478.00	39.79
478.18	0.00
478.36	18.72
478.54	14.04
478.72	0.00
478.90	35.11
479.08	44.47
479.26	18.72
479.44	44.47
479.62	70.22
479.80	9.36
479.98	28.09
480.16	100.64
480.34	74.90
480.52	95.96
480.70	74.90
480.88	4.68
481.06	0.00
481.24	21.06
481.41	60.85
481.59	79.58
481.77	79.58
481.95	11.70
482.13	53.83
482.31	91.28
482.49	0.00
482.67	39.79
482.85	28.09
483.03	4.68
483.21	53.83
483.39	7.02
483.57	67.88
483.74	49.15
483.92	51.49
484.10	0.00
484.28	0.00
484.46	77.24
484.64	39.79
484.82	53.83
485.00	63.19
485.18	14.04
485.35	4.68
485.53	32.77
485.71	60.85
485.89	91.28
486.07	0.00
486.25	124.05
486.43	65.54
486.61	42.13
486.78	63.19
486.96	37.45
487.14	37.45
487.32	51.49
487.50	28.09
487.68	35.11
487.85	30.43
488.03	28.09
488.21	42.13
488.39	0.00
488.57	37.45
488.75	7.02
488.92	44.47
489.10	56.17
489.28	49.15
489.46	84.26
489.64	53.83
489.81	84.26
489.99	16.38
490.17	72.56
490.35	72.56
490.53	100.64
490.70	105.32
490.88	70.22
491.06	56.17
491.24	65.54
491.41	39.79
491.59	65.54
491.77	0.00
491.95	77.24
492.13	58.51
492.30	42.13
492.48	72.56
492.66	4.68
492.84	7.02
493.01	58.51
493.19	0.00
493.37	46.81
493.54	4.68
493.72	21.06
493.90	53.83
494.08	42.13
494.25	58.51
494.43	0.00
494.61	74.90
494.79	72.56
494.96	63.19
495.14	70.22
495.32	30.43
495.49	0.00
495.67	53.83
495.85	9.36
496.02	107.66
496.20	67.88
496.38	23.41
496.55	16.38
496.73	81.92
496.91	105.32
497.09	93.62
497.26	81.92
497.44	25.75
497.62	25.75
497.79	53.83
497.97	32.77
498.14	53.83
498.32	16.38
498.50	18.72
498.67	42.13
498.85	23.41
499.03	9.36
499.20	112.35
499.38	32.77
499.56	63.19
499.73	0.00
499.91	51.49
500.08	0.00
500.26	0.00
500.44	42.13
500.61	86.60
500.79	49.15
500.97	88.94
501.14	49.15
501.32	74.90
501.49	53.83
501.67	32.77
501.84	39.79
502.02	0.00
502.20	102.98
502.37	51.49
502.55	56.17
502.72	72.56
502.90	0.00
503.07	42.13
503.25	0.00
503.43	86.60
503.60	49.15
503.78	77.24
503.95	60.85
504.13	4.68
504.30	63.19
504.48	65.54
504.65	39.79
504.83	9.36
505.01	86.60
505.18	30.43
505.36	58.51
505.53	37.45
505.71	35.11
505.88	32.77
506.06	32.77
506.23	42.13
506.41	49.15
506.58	51.49
506.76	4.68
506.93	63.19
507.11	77.24
507.28	0.00
507.46	0.00
507.63	51.49
507.81	0.00
507.98	91.28
508.16	112.35
508.33	65.54
508.50	0.00
508.68	42.13
508.85	0.00
509.03	95.96
509.20	35.11
509.38	37.45
509.55	7.02
509.73	93.62
509.90	49.15
510.08	107.66
510.25	0.00
510.42	56.17
510.60	77.24
510.77	23.41
510.95	37.45
511.12	74.90
511.30	81.92
511.47	53.83
511.64	58.51
511.82	131.07
511.99	88.94
512.17	70.22
512.34	95.96
512.51	72.56
512.69	14.04
512.86	84.26
513.04	37.45
513.21	28.09
513.38	4.68
513.56	95.96
513.73	28.09
513.90	30.43
514.08	56.17
514.25	93.62
514.43	35.11
514.60	42.13
514.77	114.69
514.95	0.00
515.12	42.13
515.29	28.09
515.47	0.00
515.64	23.41
515.81	86.60
515.99	63.19
516.16	0.00
516.33	51.49
516.51	21.06
516.68	39.79
516.85	32.77
517.03	95.96
517.20	0.00
517.37	93.62
517.54	18.72
517.72	102.98
517.89	51.49
518.06	0.00
518.24	30.43
518.41	0.00
518.58	0.00
518.75	16.38
518.93	39.79
519.10	18.72
519.27	39.79
519.45	67.88
519.62	42.13
519.79	56.17
519.96	30.43
520.14	100.64
520.31	88.94
520.48	56.17
520.65	18.72
520.83	39.79
521.00	65.54
521.17	0.00
521.34	0.00
521.52	53.83
521.69	32.77
521.86	49.15
522.03	18.72
522.20	0.00
522.38	93.62
522.55	67.88
522.72	60.85
522.89	0.00
523.07	9.36
523.24	0.00
523.41	37.45
523.58	0.00
523.75	72.56
523.92	70.22
524.10	60.85
524.27	65.54
524.44	58.51
524.61	0.00
524.78	51.49
524.96	14.04
525.13	58.51
525.30	23.41
525.47	63.19
525.64	58.51
525.81	14.04
525.98	0.00
526.16	65.54
526.33	46.81
526.50	42.13
526.67	74.90
526.84	51.49
527.01	0.00
527.18	100.64
527.36	18.72
527.53	72.56
527.70	44.47
527.87	88.94
528.04	21.06
528.21	65.54
528.38	0.00
528.55	49.15
528.72	23.41
528.89	32.77
529.07	84.26
529.24	79.58
529.41	44.47
529.58	32.77
529.75	11.70
529.92	35.11
530.09	0.00
530.26	53.83
530.43	23.41
530.60	44.47
530.77	49.15
530.94	37.45
531.11	14.04
531.28	21.06
531.46	0.00
531.63	51.49
531.80	86.60
531.97	21.06
532.14	70.22
532.31	145.11
532.48	81.92
532.65	25.75
532.82	60.85
532.99	53.83
533.16	14.04
533.33	81.92
533.50	110.01
533.67	145.11
533.84	81.92
534.01	58.51
534.18	63.19
534.35	44.47
534.52	37.45
534.69	114.69
534.86	88.94
535.03	0.00
535.20	14.04
535.37	86.60
535.54	53.83
535.71	46.81
535.88	0.00
536.05	14.04
536.22	39.79
536.38	28.09
536.55	4.68
536.72	42.13
536.89	11.70
537.06	32.77
537.23	77.24
537.40	23.41
537.57	0.00
537.74	56.17
537.91	67.88
538.08	30.43
538.25	60.85
538.42	23.41
538.59	0.00
538.75	37.45
538.92	98.30
539.09	67.88
539.26	9.36
539.43	93.62
539.60	112.35
539.77	149.79
539.94	142.77
540.11	49.15
540.28	72.56
540.44	28.09
540.61	0.00
540.78	65.54
540.95	74.90
541.12	0.00
541.29	65.54
541.46	65.54
541.62	58.51
541.79	32.77
541.96	0.00
542.13	88.94
542.30	93.62
542.47	63.19
542.63	0.00
542.80	7.02
542.97	4.68
543.14	65.54
543.31	9.36
543.48	86.60
543.64	140.43
543.81	0.00
543.98	63.19
544.15	35.11
544.32	16.38
544.48	84.26
544.65	0.00
544.82	46.81
544.99	93.62
545.16	30.43
545.32	11.70
545.49	72.56
545.66	112.35
545.83	67.88
546.00	0.00
546.16	70.22
546.33	35.11
546.50	53.83
546.67	39.79
546.83	86.60
547.00	35.11
547.17	0.00
547.34	70.22
547.50	49.15
547.67	9.36
547.84	60.85
548.00	9.36
548.17	51.49
548.34	44.47
548.51	35.11
548.67	7.02
548.84	60.85
549.01	67.88
549.18	44.47
549.34	91.28
549.51	7.02
549.68	95.96
549.84	0.00
550.01	51.49
550.18	124.05
550.34	23.41
550.51	88.94
550.68	53.83
550.84	74.90
551.01	25.75
551.18	70.22
551.34	35.11
551.51	32.77
551.68	30.43
551.84	44.47
552.01	102.98
552.18	28.09
552.34	79.58
552.51	11.70
552.68	72.56
552.84	91.28
553.01	0.00
553.18	88.94
553.34	65.54
553.51	0.00
553.67	98.30
553.84	42.13
554.01	16.38
554.17	37.45
554.34	0.00
554.51	9.36
554.67	2.34
554.84	0.00
555.00	84.26
555.17	0.00
555.33	77.24
555.50	121.71
555.67	46.81
555.83	117.03
556.00	42.13
556.16	16.38
556.33	7.02
556.50	14.04
556.66	0.00
556.83	86.60
556.99	70.22
557.16	98.30
557.32	49.15
557.49	44.47
557.65	44.47
557.82	51.49
557.98	28.09
558.15	4.68
558.32	72.56
558.48	14.04
558.65	21.06
558.81	18.72
558.98	18.72
559.14	93.62
559.31	0.00
559.47	21.06
559.64	58.51
559.80	44.47
559.97	51.49
560.13	0.00
560.30	11.70
560.46	28.09
560.63	23.41
560.79	39.79
560.96	18.72
561.12	0.00
561.29	0.00
561.45	21.06
561.61	35.11
561.78	14.04
561.94	7.02
562.11	53.83
562.27	100.64
562.44	44.47
562.60	42.13
562.77	18.72
562.93	67.88
563.10	46.81
563.26	60.85
563.42	28.09
563.59	46.81
563.75	28.09
563.92	0.00
564.08	65.54
564.24	25.75
564.41	58.51
564.57	95.96
564.74	37.45
564.90	93.62
565.07	0.00
565.23	51.49
565.39	44.47
565.56	86.60
565.72	63.19
565.88	0.00
566.05	35.11
566.21	77.24
566.38	23.41
566.54	0.00
566.70	63.19
566.87	25.75
567.03	16.38
567.19	74.90
567.36	30.43
567.52	14.04
567.68	0.00
567.85	25.75
568.01	44.47
568.17	0.00
568.34	58.51
568.50	16.38
568.66	74.90
568.83	16.38
568.99	51.49
569.15	53.83
569.32	25.75
569.48	117.03
569.64	30.43
569.81	0.00
569.97	16.38
570.13	121.71
570.30	30.43
570.46	35.11
570.62	7.02
570.78	58.51
570.95	0.00
571.11	51.49
571.27	56.17
571.43	49.15
571.60	84.26
571.76	77.24
571.92	49.15
572.09	16.38
572.25	74.90
572.41	32.77
572.57	0.00
572.74	0.00
572.90	60.85
573.06	0.00
573.22	0.00
573.38	77.24
573.55	23.41
573.71	67.88
573.87	72.56
574.03	51.49
574.20	37.45
574.36	110.01
574.52	37.45
574.68	65.54
574.84	28.09
575.01	95.96
575.17	0.00
575.33	23.41
575.49	11.70
575.65	44.47
575.82	0.00
575.98	88.94
576.14	112.35
576.30	131.07
576.46	49.15
576.62	37.45
576.79	60.85
576.95	9.36
577.11	65.54
577.27	4.68
577.43	18.72
577.59	56.17
577.75	51.49
577.92	23.41
578.08	0.00
578.24	53.83
578.40	18.72
578.56	63.19
578.72	98.30
578.88	21.06
579.04	44.47
579.21	42.13
579.37	21.06
579.53	44.47
579.69	4.68
579.85	32.77
580.01	86.60
580.17	86.60
580.33	93.62
580.49	72.56
580.65	91.28
580.82	0.00
580.98	74.90
581.14	49.15
581.30	46.81
581.46	67.88
581.62	56.17
581.78	149.79
581.94	140.43
582.10	0.00
582.26	9.36
582.42	30.43
582.58	0.00
582.74	145.11
582.90	88.94
583.06	18.72
583.22	70.22
583.38	159.16
583.54	0.00
583.70	107.66
583.86	81.92
584.02	53.83
584.18	198.95
584.34	227.03
584.50	461.09
584.66	2665.87
584.82	6820.32
584.98	10436.45
585.14	9322.35
585.30	5788.14
585.46	3393.78
585.62	2296.07
585.78	971.32
585.94	437.68
586.10	229.37
586.26	168.52
586.42	93.62
586.58	88.94
586.74	119.37
586.90	100.64
587.06	114.69
587.22	81.92
587.38	95.96
587.54	152.13
587.70	322.99
587.86	674.07
588.02	844.93
588.18	554.71
588.34	341.72
588.49	196.60
588.65	187.24
588.81	93.62
588.97	46.81
589.13	110.01
589.29	126.39
589.45	28.09
589.61	0.00
589.77	0.00
589.93	30.43
590.08	53.83
590.24	46.81
590.40	60.85
590.56	124.05
590.72	46.81
590.88	124.05
591.04	21.06
591.20	107.66
591.35	117.03
591.51	126.39
591.67	65.54
591.83	70.22
591.99	65.54
592.15	44.47
592.31	49.15
592.46	63.19
592.62	0.00
592.78	67.88
592.94	56.17
593.10	72.56
593.26	72.56
593.41	60.85
593.57	135.75
593.73	81.92
593.89	334.70
594.05	889.40
594.20	1359.85
594.36	1270.91
594.52	882.38
594.68	528.96
594.84	334.70
594.99	205.97
595.15	117.03
595.31	84.26
595.47	81.92
595.62	105.32
595.78	9.36
595.94	81.92
596.10	58.51
596.25	16.38
596.41	0.00
596.57	35.11
596.73	51.49
596.88	42.13
597.04	170.86
597.20	278.52
597.36	346.40
597.51	315.97
597.67	112.35
597.83	121.71
597.99	58.51
598.14	79.58
598.30	37.45
598.46	11.70
598.61	0.00
598.77	30.43
598.93	39.79
599.09	44.47
599.24	30.43
599.40	105.32
599.56	51.49
599.71	107.66
599.87	37.45
600.03	0.00
600.18	72.56
600.34	117.03
600.50	105.32
600.65	60.85
600.81	28.09
600.97	0.00
601.12	63.19
601.28	21.06
601.44	107.66
601.59	126.39
601.75	39.79
601.91	67.88
602.06	72.56
602.22	49.15
602.37	131.07
602.53	248.10
602.69	358.10
602.84	285.55
603.00	248.10
603.16	231.71
603.31	147.45
603.47	93.62
603.62	98.30
603.78	44.47
603.94	37.45
604.09	77.24
604.25	70.22
604.40	25.75
604.56	58.51
604.71	0.00
604.87	14.04
605.03	30.43
605.18	56.17
605.34	11.70
605.49	0.00
605.65	28.09
605.80	102.98
605.96	32.77
606.12	4.68
606.27	84.26
606.43	46.81
606.58	46.81
606.74	154.48
606.89	461.09
607.05	802.80
607.20	1165.59
607.36	940.90
607.51	716.20
607.67	423.64
607.82	222.35
607.98	180.22
608.13	112.35
608.29	100.64
608.44	49.15
608.60	124.05
608.75	37.45
608.91	112.35
609.06	800.46
609.22	1423.05
609.37	1959.03
609.53	1724.97
609.68	1123.46
609.84	770.04
609.99	550.03
610.15	217.67
610.30	126.39
610.46	110.01
610.61	60.85
610.76	18.72
610.92	63.19
611.07	121.71
611.23	65.54
611.38	74.90
611.54	32.77
611.69	35.11
611.84	44.47
612.00	81.92
612.15	93.62
612.31	84.26
612.46	107.66
612.62	81.92
612.77	42.13
612.92	77.24
613.08	30.43
613.23	44.47
613.39	105.32
613.54	133.41
613.69	596.84
613.85	1682.85
614.00	2801.62
614.15	3101.21
614.31	2359.26
614.46	1441.77
614.62	912.81
614.77	561.73
614.92	231.71
615.08	156.82
615.23	163.84
615.38	67.88
615.54	70.22
615.69	147.45
615.84	409.59
616.00	655.35
616.15	826.21
616.30	702.16
616.46	503.22
616.61	315.97
616.76	238.73
616.92	124.05
617.07	49.15
617.22	98.30
617.37	49.15
617.53	42.13
617.68	42.13
617.83	42.13
617.99	28.09
618.14	0.00
618.29	0.00
618.45	0.00
618.60	0.00
618.75	79.58
618.90	81.92
619.06	58.51
619.21	23.41
619.36	0.00
619.51	23.41
619.67	81.92
619.82	9.36
619.97	0.00
620.12	65.54
620.28	67.88
620.43	84.26
620.58	0.00
620.73	23.41
620.89	79.58
621.04	140.43
621.19	271.50
621.34	292.57
621.49	430.66
621.65	472.79
621.80	311.29
621.95	184.90
622.10	154.48
622.25	124.05
622.41	79.58
622.56	21.06
622.71	0.00
622.86	28.09
623.01	98.30
623.16	0.00
623.32	72.56
623.47	11.70
623.62	112.35
623.77	56.17
623.92	53.83
624.07	56.17
624.23	60.85
624.38	25.75
624.53	4.68
624.68	39.79
624.83	0.00
624.98	135.75
625.13	0.00
625.29	0.00
625.44	105.32
625.59	74.90
625.74	91.28
625.89	67.88
626.04	341.72
626.19	840.25
626.34	1364.53
626.49	1647.74
626.65	1235.80
626.80	915.15
626.95	596.84
627.10	341.72
627.25	215.33
627.40	145.11
627.55	30.43
627.70	56.17
627.85	86.60
628.00	35.11
628.15	65.54
628.30	2.34
628.45	28.09
628.60	60.85
628.76	46.81
628.91	72.56
629.06	21.06
629.21	74.90
629.36	23.41
629.51	0.00
629.66	0.00
629.81	105.32
629.96	175.54
630.11	273.84
630.26	461.09
630.41	423.64
630.56	353.42
630.71	191.92
630.86	184.90
631.01	18.72
631.16	0.00
631.31	77.24
631.46	63.19
631.61	51.49
631.76	114.69
631.91	23.41
632.06	25.75
632.21	42.13
632.36	51.49
632.51	124.05
632.66	98.30
632.81	168.52
632.96	491.51
633.10	875.36
633.25	1174.95
633.40	966.64
633.55	702.16
633.70	393.21
633.85	388.53
634.00	131.07
634.15	100.64
634.30	93.62
634.45	23.41
634.60	67.88
634.75	44.47
634.90	0.00
635.05	67.88
635.19	4.68
635.34	63.19
635.49	110.01
635.64	2.34
635.79	39.79
635.94	70.22
636.09	14.04
636.24	32.77
636.39	63.19
636.53	79.58
636.68	14.04
636.83	70.22
636.98	65.54
637.13	77.24
637.28	30.43
637.43	32.77
637.57	128.73
637.72	355.76
637.87	1074.31
638.02	1849.02
638.17	1987.11
638.32	1661.78
638.46	1137.50
638.61	631.94
638.76	430.66
638.91	304.27
639.06	142.77
639.20	81.92
639.35	81.92
639.50	124.05
639.65	655.35
639.80	1762.42
639.94	2853.11
640.09	3218.24
640.24	2438.84
640.39	1619.65
640.54	1104.73
640.68	613.22
640.83	358.10
640.98	124.05
641.13	74.90
641.27	23.41
641.42	88.94
641.57	107.66
641.72	28.09
641.86	0.00
642.01	60.85
642.16	23.41
642.31	32.77
642.45	102.98
642.60	131.07
642.75	119.37
642.90	86.60
643.04	72.56
643.19	25.75
643.34	0.00
643.48	39.79
643.63	44.47
643.78	0.00
643.93	2.34
644.07	39.79
644.22	21.06
644.37	46.81
644.51	53.83
644.66	35.11
644.81	14.04
644.95	32.77
645.10	35.11
645.25	74.90
645.39	107.66
645.54	102.98
645.69	72.56
645.83	53.83
645.98	51.49
646.13	32.77
646.27	4.68
646.42	53.83
646.57	7.02
646.71	0.00
646.86	49.15
647.00	60.85
647.15	32.77
647.30	25.75
647.44	65.54
647.59	58.51
647.74	21.06
647.88	0.00
648.03	65.54
648.17	0.00
648.32	30.43
648.47	16.38
648.61	21.06
648.76	37.45
648.90	53.83
649.05	65.54
649.20	14.04
649.34	67.88
649.49	91.28
649.63	0.00
649.78	25.75
649.92	112.35
650.07	227.03
650.21	755.99
650.36	1385.60
650.51	1743.70
650.65	1418.36
650.80	1062.60
650.94	617.90
651.09	402.57
651.23	252.78
651.38	152.13
651.52	53.83
651.67	67.88
651.81	81.92
651.96	11.70
652.10	88.94
652.25	18.72
652.39	37.45
652.54	14.04
652.68	140.43
652.83	278.52
652.97	416.62
653.12	599.18
653.26	503.22
653.41	433.00
653.55	325.33
653.70	138.09
653.84	114.69
653.99	124.05
654.13	32.77
654.27	0.00
654.42	77.24
654.56	133.41
654.71	86.60
654.85	2.34
655.00	18.72
655.14	74.90
655.29	46.81
655.43	16.38
655.57	74.90
655.72	28.09
655.86	63.19
656.01	74.90
656.15	117.03
656.30	37.45
656.44	63.19
656.58	0.00
656.73	0.00
656.87	0.00
657.01	79.58
657.16	67.88
657.30	133.41
657.45	32.77
657.59	14.04
657.73	77.24
657.88	79.58
658.02	95.96
658.16	51.49
658.31	100.64
658.45	39.79
658.60	46.81
658.74	56.17
658.88	0.00
659.03	74.90
659.17	65.54
659.31	131.07
659.46	374.49
659.60	641.31
659.74	917.49
659.89	678.76
660.03	620.24
660.17	409.59
660.32	201.29
660.46	173.20
660.60	117.03
660.74	107.66
660.89	98.30
661.03	21.06
661.17	58.51
661.32	51.49
661.46	51.49
661.60	63.19
661.74	49.15
661.89	70.22
662.03	79.58
662.17	30.43
662.31	81.92
662.46	56.17
662.60	16.38
662.74	88.94
662.88	67.88
663.03	74.90
663.17	0.00
663.31	28.09
663.45	67.88
663.60	4.68
663.74	0.00
663.88	25.75
664.02	60.85
664.17	126.39
664.31	51.49
664.45	60.85
664.59	56.17
664.73	21.06
664.88	21.06
665.02	21.06
665.16	23.41
665.30	39.79
665.44	30.43
665.59	9.36
665.73	0.00
665.87	30.43
666.01	0.00
666.15	98.30
666.29	0.00
666.44	0.00
666.58	65.54
666.72	65.54
666.86	32.77
667.00	79.58
667.14	18.72
667.28	224.69
667.43	538.32
667.57	1137.50
667.71	1467.52
667.85	1179.63
667.99	940.90
668.13	531.30
668.27	407.25
668.41	170.86
668.56	138.09
668.70	142.77
668.84	84.26
668.98	58.51
669.12	32.77
669.26	23.41
669.40	53.83
669.54	98.30
669.68	4.68
669.82	39.79
669.96	35.11
670.10	0.00
670.25	91.28
670.39	7.02
670.53	53.83
670.67	0.00
670.81	53.83
670.95	25.75
671.09	84.26
671.23	222.35
671.37	561.73
671.51	870.68
671.65	870.68
671.79	713.86
671.93	545.34
672.07	262.14
672.21	205.97
672.35	124.05
672.49	81.92
672.63	72.56
672.77	65.54
672.91	63.19
673.05	84.26
673.19	30.43
673.33	81.92
673.47	81.92
673.61	44.47
673.75	35.11
673.89	14.04
674.03	95.96
674.17	28.09
674.31	86.60
674.45	18.72
674.59	11.70
674.73	46.81
674.87	0.00
675.01	0.00
675.15	32.77
675.29	46.81
675.43	46.81
675.56	0.00
675.70	81.92
675.84	56.17
675.98	14.04
676.12	86.60
676.26	23.41
676.40	21.06
676.54	16.38
676.68	72.56
676.82	37.45
676.96	28.09
677.10	21.06
677.23	14.04
677.37	58.51
677.51	14.04
677.65	0.00
677.79	70.22
677.93	0.00
678.07	51.49
678.21	35.11
678.34	60.85
678.48	0.00
678.62	28.09
678.76	9.36
678.90	2.34
679.04	0.00
679.18	11.70
679.31	65.54
679.45	0.00
679.59	39.79
679.73	51.49
679.87	51.49
680.00	4.68
680.14	51.49
680.28	65.54
680.42	32.77
680.56	35.11
680.70	0.00
680.83	56.17
680.97	46.81
681.11	53.83
681.25	37.45
681.39	100.64
681.52	30.43
681.66	9.36
681.80	49.15
681.94	32.77
682.07	0.00
682.21	0.00
682.35	16.38
682.49	49.15
682.62	0.00
682.76	39.79
682.90	25.75
683.04	30.43
683.17	9.36
683.31	77.24
683.45	25.75
683.59	0.00
683.72	88.94
683.86	53.83
684.00	60.85
684.13	21.06
684.27	79.58
684.41	63.19
684.55	0.00
684.68	0.00
684.82	49.15
684.96	56.17
685.09	0.00
685.23	0.00
685.37	84.26
685.50	100.64
685.64	0.00
685.78	74.90
685.91	60.85
686.05	65.54
686.19	0.00
686.32	9.36
686.46	35.11
686.60	23.41
686.73	56.17
686.87	72.56
687.01	0.00
687.14	86.60
687.28	0.00
687.42	39.79
687.55	28.09
687.69	35.11
687.82	63.19
687.96	67.88
688.10	0.00
688.23	63.19
688.37	0.00
688.50	79.58
688.64	49.15
688.78	51.49
688.91	0.00
689.05	16.38
689.18	44.47
689.32	0.00
689.46	0.00
689.59	53.83
689.73	37.45
689.86	42.13
690.00	25.75
690.13	25.75
690.27	9.36
690.41	2.34
690.54	30.43
690.68	23.41
690.81	37.45
690.95	51.49
691.08	72.56
691.22	9.36
691.35	32.77
691.49	0.00
691.62	16.38
691.76	0.00
691.89	0.00
692.03	4.68
692.16	7.02
692.30	0.00
692.43	170.86
692.57	283.20
692.70	538.32
692.84	671.73
692.97	564.07
693.11	475.13
693.24	376.83
693.38	252.78
693.51	198.95
693.65	51.49
693.78	42.13
693.92	142.77
694.05	56.17
694.19	81.92
694.32	32.77
694.45	23.41
694.59	74.90
694.72	110.01
694.86	53.83
694.99	60.85
695.13	28.09
695.26	65.54
695.39	49.15
695.53	56.17
695.66	32.77
695.80	4.68
695.93	0.00
696.07	60.85
696.20	58.51
696.33	25.75
696.47	0.00
696.60	56.17
696.73	42.13
696.87	77.24
697.00	32.77
697.14	74.90
697.27	18.72
697.40	63.19
697.54	88.94
697.67	58.51
697.80	0.00
697.94	65.54
698.07	18.72
698.21	4.68
698.34	0.00
698.47	0.00
698.61	35.11
698.74	42.13
698.87	56.17
699.01	56.17
699.14	16.38
699.27	70.22
699.40	23.41
699.54	53.83
699.67	37.45
699.80	51.49
699.94	14.04
700.07	0.00
700.20	72.56
700.34	60.85
700.47	7.02
700.60	11.70
700.73	46.81
700.87	42.13
701.00	49.15
701.13	25.75
701.26	28.09
701.40	21.06
701.53	0.00
701.66	63.19
701.79	105.32
701.93	44.47
702.06	42.13
702.19	72.56
702.32	51.49
702.46	0.00
702.59	65.54
702.72	70.22
702.85	285.55
702.99	657.69
703.12	1060.26
703.25	1228.78
703.38	1043.88
703.51	884.72
703.65	650.67
703.78	528.96
703.91	351.08
704.04	255.12
704.17	124.05
704.31	39.79
704.44	77.24
704.57	86.60
704.70	60.85
704.83	95.96
704.96	86.60
705.10	100.64
705.23	18.72
>>>>>End Processed Spectral Data<<<<<
