SpectraSuite Data File
++++++++++++++++++++++++++++++++++++
Date: Fri Oct 04 12:13:41 GMT-05:00 2013
User: price-jones
Dark Spectrum Present: No
Reference Spectrum Present: No
Number of Sampled Component Spectra: 1
Spectrometers: USB2+H05261
Integration Time (usec): 10000 (USB2+H05261)
Spectra Averaged: 1 (USB2+H05261)
Boxcar Smoothing: 0 (USB2+H05261)
Correct for Electrical Dark: No (USB2+H05261)
Strobe/Lamp Enabled: No (USB2+H05261)
Correct for Detector Non-linearity: No (USB2+H05261)
Correct for Stray Light: No (USB2+H05261)
Number of Pixels in Processed Spectrum: 2048
>>>>>Begin Processed Spectral Data<<<<<
365.73	0.00
365.92	0.00
366.12	0.00
366.32	0.00
366.52	0.00
366.72	0.00
366.91	0.00
367.11	0.00
367.31	0.00
367.51	0.00
367.70	0.00
367.90	0.00
368.10	0.00
368.30	0.00
368.49	0.00
368.69	0.00
368.89	0.00
369.09	0.00
369.28	0.00
369.48	0.00
369.68	0.00
369.87	0.00
370.07	0.00
370.27	0.00
370.47	0.00
370.66	0.00
370.86	0.00
371.06	0.00
371.25	0.00
371.45	0.00
371.65	21.06
371.84	11.70
372.04	0.00
372.24	0.00
372.44	0.00
372.63	2.34
372.83	58.51
373.03	65.54
373.22	0.00
373.42	35.11
373.62	0.00
373.81	25.75
374.01	0.00
374.21	0.00
374.40	25.75
374.60	91.28
374.79	0.00
374.99	0.00
375.19	79.58
375.38	32.77
375.58	28.09
375.78	0.00
375.97	11.70
376.17	0.00
376.37	16.38
376.56	0.00
376.76	42.13
376.95	37.45
377.15	14.04
377.35	46.81
377.54	37.45
377.74	0.00
377.93	23.41
378.13	2.34
378.33	25.75
378.52	67.88
378.72	53.83
378.91	0.00
379.11	0.00
379.31	2.34
379.50	2.34
379.70	67.88
379.89	0.00
380.09	77.24
380.28	0.00
380.48	100.64
380.68	0.00
380.87	2.34
381.07	77.24
381.26	67.88
381.46	37.45
381.65	18.72
381.85	58.51
382.04	9.36
382.24	16.38
382.43	56.17
382.63	77.24
382.83	0.00
383.02	39.79
383.22	0.00
383.41	70.22
383.61	77.24
383.80	21.06
384.00	11.70
384.19	0.00
384.39	0.00
384.58	53.83
384.78	18.72
384.97	58.51
385.17	4.68
385.36	56.17
385.56	28.09
385.75	84.26
385.95	95.96
386.14	32.77
386.34	51.49
386.53	0.00
386.72	63.19
386.92	49.15
387.11	0.00
387.31	30.43
387.50	0.00
387.70	32.77
387.89	0.00
388.09	21.06
388.28	0.00
388.48	67.88
388.67	0.00
388.86	0.00
389.06	79.58
389.25	32.77
389.45	105.32
389.64	65.54
389.84	35.11
390.03	0.00
390.22	44.47
390.42	56.17
390.61	37.45
390.81	95.96
391.00	23.41
391.19	117.03
391.39	0.00
391.58	11.70
391.78	0.00
391.97	70.22
392.16	39.79
392.36	0.00
392.55	0.00
392.75	0.00
392.94	0.00
393.13	32.77
393.33	0.00
393.52	7.02
393.71	11.70
393.91	44.47
394.10	0.00
394.29	42.13
394.49	32.77
394.68	0.00
394.88	65.54
395.07	9.36
395.26	23.41
395.46	30.43
395.65	72.56
395.84	0.00
396.04	30.43
396.23	49.15
396.42	65.54
396.62	67.88
396.81	58.51
397.00	0.00
397.19	0.00
397.39	42.13
397.58	32.77
397.77	11.70
397.97	16.38
398.16	74.90
398.35	0.00
398.55	28.09
398.74	49.15
398.93	44.47
399.12	53.83
399.32	74.90
399.51	25.75
399.70	0.00
399.90	110.01
400.09	98.30
400.28	81.92
400.47	23.41
400.67	53.83
400.86	51.49
401.05	56.17
401.24	63.19
401.44	112.35
401.63	56.17
401.82	14.04
402.01	0.00
402.21	0.00
402.40	21.06
402.59	37.45
402.78	32.77
402.97	9.36
403.17	67.88
403.36	37.45
403.55	58.51
403.74	7.02
403.93	0.00
404.13	72.56
404.32	0.00
404.51	0.00
404.70	16.38
404.89	9.36
405.09	49.15
405.28	2.34
405.47	32.77
405.66	0.00
405.85	0.00
406.05	74.90
406.24	0.00
406.43	0.00
406.62	67.88
406.81	11.70
407.00	58.51
407.20	0.00
407.39	30.43
407.58	28.09
407.77	39.79
407.96	114.69
408.15	11.70
408.34	21.06
408.54	0.00
408.73	0.00
408.92	23.41
409.11	51.49
409.30	9.36
409.49	35.11
409.68	35.11
409.87	86.60
410.07	9.36
410.26	32.77
410.45	28.09
410.64	23.41
410.83	32.77
411.02	37.45
411.21	65.54
411.40	67.88
411.59	23.41
411.78	30.43
411.98	124.05
412.17	53.83
412.36	0.00
412.55	21.06
412.74	0.00
412.93	39.79
413.12	46.81
413.31	114.69
413.50	58.51
413.69	23.41
413.88	60.85
414.07	79.58
414.26	65.54
414.45	35.11
414.64	74.90
414.83	16.38
415.02	18.72
415.22	32.77
415.41	37.45
415.60	32.77
415.79	21.06
415.98	70.22
416.17	7.02
416.36	16.38
416.55	42.13
416.74	25.75
416.93	39.79
417.12	28.09
417.31	84.26
417.50	0.00
417.69	63.19
417.88	53.83
418.07	49.15
418.26	21.06
418.45	53.83
418.64	49.15
418.83	14.04
419.02	56.17
419.21	18.72
419.39	14.04
419.58	0.00
419.77	28.09
419.96	25.75
420.15	102.98
420.34	9.36
420.53	35.11
420.72	77.24
420.91	21.06
421.10	23.41
421.29	79.58
421.48	74.90
421.67	105.32
421.86	72.56
422.05	28.09
422.24	63.19
422.43	4.68
422.61	65.54
422.80	102.98
422.99	51.49
423.18	46.81
423.37	70.22
423.56	60.85
423.75	30.43
423.94	91.28
424.13	39.79
424.32	84.26
424.50	44.47
424.69	18.72
424.88	84.26
425.07	30.43
425.26	105.32
425.45	77.24
425.64	37.45
425.83	0.00
426.01	28.09
426.20	0.00
426.39	32.77
426.58	16.38
426.77	0.00
426.96	102.98
427.15	105.32
427.33	67.88
427.52	37.45
427.71	42.13
427.90	60.85
428.09	28.09
428.28	21.06
428.46	60.85
428.65	2.34
428.84	0.00
429.03	30.43
429.22	51.49
429.40	23.41
429.59	28.09
429.78	60.85
429.97	37.45
430.16	25.75
430.34	7.02
430.53	46.81
430.72	37.45
430.91	107.66
431.10	53.83
431.28	77.24
431.47	107.66
431.66	30.43
431.85	30.43
432.03	114.69
432.22	124.05
432.41	0.00
432.60	25.75
432.79	84.26
432.97	0.00
433.16	49.15
433.35	30.43
433.54	18.72
433.72	7.02
433.91	16.38
434.10	46.81
434.28	44.47
434.47	7.02
434.66	84.26
434.85	74.90
435.03	124.05
435.22	88.94
435.41	49.15
435.59	37.45
435.78	63.19
435.97	23.41
436.16	0.00
436.34	124.05
436.53	56.17
436.72	39.79
436.90	42.13
437.09	51.49
437.28	88.94
437.46	63.19
437.65	102.98
437.84	140.43
438.02	0.00
438.21	86.60
438.40	102.98
438.58	56.17
438.77	0.00
438.96	46.81
439.14	32.77
439.33	39.79
439.52	67.88
439.70	91.28
439.89	42.13
440.08	28.09
440.26	42.13
440.45	44.47
440.63	30.43
440.82	0.00
441.01	11.70
441.19	56.17
441.38	107.66
441.57	44.47
441.75	65.54
441.94	28.09
442.12	70.22
442.31	84.26
442.50	74.90
442.68	56.17
442.87	0.00
443.05	0.00
443.24	30.43
443.43	112.35
443.61	84.26
443.80	30.43
443.98	37.45
444.17	0.00
444.35	81.92
444.54	18.72
444.73	100.64
444.91	16.38
445.10	25.75
445.28	37.45
445.47	67.88
445.65	49.15
445.84	35.11
446.02	67.88
446.21	44.47
446.39	84.26
446.58	93.62
446.77	86.60
446.95	70.22
447.14	84.26
447.32	49.15
447.51	18.72
447.69	72.56
447.88	126.39
448.06	58.51
448.25	4.68
448.43	105.32
448.62	149.79
448.80	32.77
448.99	0.00
449.17	0.00
449.36	84.26
449.54	95.96
449.73	88.94
449.91	93.62
450.10	65.54
450.28	37.45
450.46	58.51
450.65	112.35
450.83	119.37
451.02	28.09
451.20	0.00
451.39	32.77
451.57	77.24
451.76	65.54
451.94	23.41
452.13	72.56
452.31	51.49
452.49	102.98
452.68	65.54
452.86	25.75
453.05	84.26
453.23	60.85
453.42	51.49
453.60	77.24
453.78	51.49
453.97	42.13
454.15	74.90
454.34	18.72
454.52	128.73
454.70	42.13
454.89	30.43
455.07	42.13
455.26	25.75
455.44	14.04
455.62	72.56
455.81	4.68
455.99	86.60
456.17	16.38
456.36	93.62
456.54	70.22
456.73	58.51
456.91	84.26
457.09	72.56
457.28	81.92
457.46	32.77
457.64	84.26
457.83	98.30
458.01	60.85
458.19	105.32
458.38	23.41
458.56	98.30
458.74	30.43
458.93	60.85
459.11	112.35
459.29	102.98
459.48	98.30
459.66	67.88
459.84	74.90
460.03	42.13
460.21	39.79
460.39	18.72
460.57	28.09
460.76	72.56
460.94	28.09
461.12	30.43
461.31	79.58
461.49	23.41
461.67	23.41
461.85	35.11
462.04	42.13
462.22	35.11
462.40	72.56
462.59	58.51
462.77	16.38
462.95	91.28
463.13	42.13
463.32	65.54
463.50	0.00
463.68	25.75
463.86	53.83
464.05	67.88
464.23	91.28
464.41	56.17
464.59	60.85
464.78	56.17
464.96	51.49
465.14	28.09
465.32	88.94
465.50	46.81
465.69	21.06
465.87	95.96
466.05	2.34
466.23	102.98
466.41	23.41
466.60	18.72
466.78	46.81
466.96	58.51
467.14	86.60
467.32	67.88
467.51	44.47
467.69	79.58
467.87	119.37
468.05	7.02
468.23	110.01
468.41	72.56
468.60	102.98
468.78	72.56
468.96	77.24
469.14	56.17
469.32	4.68
469.50	46.81
469.69	0.00
469.87	121.71
470.05	121.71
470.23	35.11
470.41	0.00
470.59	0.00
470.77	91.28
470.95	49.15
471.14	58.51
471.32	133.41
471.50	65.54
471.68	42.13
471.86	60.85
472.04	0.00
472.22	46.81
472.40	65.54
472.58	79.58
472.77	53.83
472.95	60.85
473.13	110.01
473.31	28.09
473.49	53.83
473.67	44.47
473.85	0.00
474.03	72.56
474.21	44.47
474.39	98.30
474.57	77.24
474.75	126.39
474.93	93.62
475.12	21.06
475.30	0.00
475.48	56.17
475.66	35.11
475.84	44.47
476.02	35.11
476.20	58.51
476.38	138.09
476.56	35.11
476.74	44.47
476.92	81.92
477.10	23.41
477.28	60.85
477.46	0.00
477.64	58.51
477.82	77.24
478.00	0.00
478.18	60.85
478.36	74.90
478.54	105.32
478.72	84.26
478.90	88.94
479.08	44.47
479.26	60.85
479.44	107.66
479.62	23.41
479.80	11.70
479.98	88.94
480.16	72.56
480.34	44.47
480.52	135.75
480.70	88.94
480.88	63.19
481.06	7.02
481.24	37.45
481.41	81.92
481.59	25.75
481.77	53.83
481.95	35.11
482.13	63.19
482.31	70.22
482.49	67.88
482.67	95.96
482.85	114.69
483.03	44.47
483.21	117.03
483.39	67.88
483.57	93.62
483.74	93.62
483.92	98.30
484.10	107.66
484.28	77.24
484.46	23.41
484.64	110.01
484.82	67.88
485.00	107.66
485.18	11.70
485.35	93.62
485.53	4.68
485.71	44.47
485.89	0.00
486.07	4.68
486.25	98.30
486.43	28.09
486.61	49.15
486.78	0.00
486.96	86.60
487.14	0.00
487.32	49.15
487.50	98.30
487.68	112.35
487.85	105.32
488.03	79.58
488.21	39.79
488.39	84.26
488.57	142.77
488.75	70.22
488.92	23.41
489.10	110.01
489.28	88.94
489.46	60.85
489.64	37.45
489.81	0.00
489.99	65.54
490.17	81.92
490.35	98.30
490.53	166.18
490.70	46.81
490.88	100.64
491.06	53.83
491.24	107.66
491.41	58.51
491.59	58.51
491.77	91.28
491.95	28.09
492.13	35.11
492.30	126.39
492.48	198.95
492.66	67.88
492.84	91.28
493.01	25.75
493.19	70.22
493.37	102.98
493.54	105.32
493.72	88.94
493.90	0.00
494.08	21.06
494.25	128.73
494.43	86.60
494.61	70.22
494.79	16.38
494.96	91.28
495.14	63.19
495.32	86.60
495.49	93.62
495.67	102.98
495.85	60.85
496.02	110.01
496.20	51.49
496.38	72.56
496.55	51.49
496.73	65.54
496.91	131.07
497.09	119.37
497.26	65.54
497.44	49.15
497.62	72.56
497.79	0.00
497.97	60.85
498.14	110.01
498.32	140.43
498.50	124.05
498.67	79.58
498.85	88.94
499.03	121.71
499.20	37.45
499.38	74.90
499.56	42.13
499.73	98.30
499.91	72.56
500.08	91.28
500.26	105.32
500.44	98.30
500.61	145.11
500.79	74.90
500.97	53.83
501.14	119.37
501.32	44.47
501.49	32.77
501.67	0.00
501.84	16.38
502.02	128.73
502.20	112.35
502.37	98.30
502.55	46.81
502.72	72.56
502.90	100.64
503.07	121.71
503.25	0.00
503.43	138.09
503.60	49.15
503.78	112.35
503.95	152.13
504.13	88.94
504.30	98.30
504.48	42.13
504.65	67.88
504.83	135.75
505.01	56.17
505.18	56.17
505.36	81.92
505.53	35.11
505.71	81.92
505.88	121.71
506.06	42.13
506.23	30.43
506.41	58.51
506.58	79.58
506.76	119.37
506.93	107.66
507.11	98.30
507.28	70.22
507.46	112.35
507.63	60.85
507.81	23.41
507.98	93.62
508.16	21.06
508.33	154.48
508.50	70.22
508.68	74.90
508.85	77.24
509.03	117.03
509.20	98.30
509.38	135.75
509.55	18.72
509.73	49.15
509.90	60.85
510.08	46.81
510.25	18.72
510.42	77.24
510.60	51.49
510.77	84.26
510.95	105.32
511.12	107.66
511.30	70.22
511.47	117.03
511.64	114.69
511.82	81.92
511.99	74.90
512.17	51.49
512.34	21.06
512.51	2.34
512.69	77.24
512.86	21.06
513.04	46.81
513.21	88.94
513.38	77.24
513.56	32.77
513.73	67.88
513.90	44.47
514.08	67.88
514.25	60.85
514.43	51.49
514.60	49.15
514.77	98.30
514.95	98.30
515.12	79.58
515.29	74.90
515.47	124.05
515.64	39.79
515.81	102.98
515.99	46.81
516.16	98.30
516.33	44.47
516.51	67.88
516.68	93.62
516.85	152.13
517.03	72.56
517.20	42.13
517.37	77.24
517.54	88.94
517.72	102.98
517.89	142.77
518.06	102.98
518.24	51.49
518.41	35.11
518.58	100.64
518.75	72.56
518.93	135.75
519.10	135.75
519.27	112.35
519.45	124.05
519.62	100.64
519.79	88.94
519.96	42.13
520.14	37.45
520.31	124.05
520.48	63.19
520.65	51.49
520.83	81.92
521.00	86.60
521.17	149.79
521.34	49.15
521.52	79.58
521.69	63.19
521.86	107.66
522.03	65.54
522.20	91.28
522.38	114.69
522.55	37.45
522.72	63.19
522.89	65.54
523.07	58.51
523.24	133.41
523.41	163.84
523.58	114.69
523.75	60.85
523.92	124.05
524.10	51.49
524.27	81.92
524.44	60.85
524.61	128.73
524.78	74.90
524.96	110.01
525.13	117.03
525.30	67.88
525.47	124.05
525.64	65.54
525.81	32.77
525.98	42.13
526.16	28.09
526.33	7.02
526.50	11.70
526.67	105.32
526.84	184.90
527.01	65.54
527.18	25.75
527.36	102.98
527.53	70.22
527.70	65.54
527.87	100.64
528.04	98.30
528.21	35.11
528.38	35.11
528.55	114.69
528.72	67.88
528.89	56.17
529.07	107.66
529.24	53.83
529.41	30.43
529.58	107.66
529.75	60.85
529.92	110.01
530.09	119.37
530.26	46.81
530.43	65.54
530.60	93.62
530.77	194.26
530.94	124.05
531.11	56.17
531.28	140.43
531.46	152.13
531.63	67.88
531.80	72.56
531.97	124.05
532.14	117.03
532.31	114.69
532.48	124.05
532.65	79.58
532.82	51.49
532.99	42.13
533.16	65.54
533.33	98.30
533.50	53.83
533.67	49.15
533.84	16.38
534.01	140.43
534.18	105.32
534.35	100.64
534.52	88.94
534.69	156.82
534.86	70.22
535.03	72.56
535.20	107.66
535.37	65.54
535.54	133.41
535.71	84.26
535.88	86.60
536.05	58.51
536.22	93.62
536.38	102.98
536.55	56.17
536.72	117.03
536.89	98.30
537.06	100.64
537.23	102.98
537.40	37.45
537.57	110.01
537.74	110.01
537.91	112.35
538.08	0.00
538.25	98.30
538.42	121.71
538.59	107.66
538.75	35.11
538.92	67.88
539.09	25.75
539.26	114.69
539.43	156.82
539.60	70.22
539.77	91.28
539.94	114.69
540.11	81.92
540.28	100.64
540.44	152.13
540.61	140.43
540.78	74.90
540.95	39.79
541.12	58.51
541.29	49.15
541.46	147.45
541.62	77.24
541.79	81.92
541.96	79.58
542.13	86.60
542.30	70.22
542.47	49.15
542.63	37.45
542.80	98.30
542.97	131.07
543.14	84.26
543.31	112.35
543.48	49.15
543.64	44.47
543.81	65.54
543.98	180.22
544.15	51.49
544.32	98.30
544.48	95.96
544.65	133.41
544.82	32.77
544.99	46.81
545.16	112.35
545.32	37.45
545.49	112.35
545.66	46.81
545.83	21.06
546.00	77.24
546.16	18.72
546.33	74.90
546.50	46.81
546.67	93.62
546.83	77.24
547.00	105.32
547.17	53.83
547.34	107.66
547.50	81.92
547.67	81.92
547.84	37.45
548.00	84.26
548.17	77.24
548.34	77.24
548.51	72.56
548.67	100.64
548.84	72.56
549.01	0.00
549.18	70.22
549.34	84.26
549.51	145.11
549.68	119.37
549.84	11.70
550.01	44.47
550.18	35.11
550.34	138.09
550.51	114.69
550.68	138.09
550.84	37.45
551.01	105.32
551.18	93.62
551.34	114.69
551.51	4.68
551.68	95.96
551.84	84.26
552.01	147.45
552.18	102.98
552.34	121.71
552.51	46.81
552.68	56.17
552.84	46.81
553.01	135.75
553.18	63.19
553.34	74.90
553.51	121.71
553.67	49.15
553.84	128.73
554.01	100.64
554.17	142.77
554.34	100.64
554.51	91.28
554.67	126.39
554.84	95.96
555.00	119.37
555.17	121.71
555.33	133.41
555.50	72.56
555.67	51.49
555.83	28.09
556.00	37.45
556.16	128.73
556.33	70.22
556.50	112.35
556.66	107.66
556.83	79.58
556.99	81.92
557.16	65.54
557.32	117.03
557.49	105.32
557.65	77.24
557.82	95.96
557.98	126.39
558.15	67.88
558.32	11.70
558.48	114.69
558.65	74.90
558.81	100.64
558.98	77.24
559.14	37.45
559.31	93.62
559.47	37.45
559.64	67.88
559.80	81.92
559.97	58.51
560.13	79.58
560.30	117.03
560.46	110.01
560.63	70.22
560.79	77.24
560.96	107.66
561.12	84.26
561.29	107.66
561.45	100.64
561.61	53.83
561.78	112.35
561.94	70.22
562.11	107.66
562.27	145.11
562.44	135.75
562.60	107.66
562.77	58.51
562.93	86.60
563.10	35.11
563.26	51.49
563.42	84.26
563.59	112.35
563.75	37.45
563.92	100.64
564.08	37.45
564.24	84.26
564.41	84.26
564.57	138.09
564.74	84.26
564.90	51.49
565.07	21.06
565.23	53.83
565.39	88.94
565.56	135.75
565.72	100.64
565.88	42.13
566.05	88.94
566.21	58.51
566.38	63.19
566.54	126.39
566.70	84.26
566.87	95.96
567.03	16.38
567.19	53.83
567.36	159.16
567.52	23.41
567.68	88.94
567.85	37.45
568.01	131.07
568.17	100.64
568.34	21.06
568.50	0.00
568.66	119.37
568.83	170.86
568.99	37.45
569.15	42.13
569.32	74.90
569.48	28.09
569.64	74.90
569.81	117.03
569.97	138.09
570.13	77.24
570.30	74.90
570.46	81.92
570.62	128.73
570.78	16.38
570.95	74.90
571.11	60.85
571.27	95.96
571.43	93.62
571.60	95.96
571.76	28.09
571.92	32.77
572.09	110.01
572.25	105.32
572.41	56.17
572.57	60.85
572.74	7.02
572.90	35.11
573.06	21.06
573.22	74.90
573.38	126.39
573.55	7.02
573.71	30.43
573.87	35.11
574.03	79.58
574.20	72.56
574.36	128.73
574.52	86.60
574.68	79.58
574.84	63.19
575.01	65.54
575.17	18.72
575.33	93.62
575.49	88.94
575.65	67.88
575.82	67.88
575.98	100.64
576.14	93.62
576.30	49.15
576.46	28.09
576.62	110.01
576.79	23.41
576.95	72.56
577.11	72.56
577.27	138.09
577.43	70.22
577.59	74.90
577.75	46.81
577.92	102.98
578.08	46.81
578.24	51.49
578.40	84.26
578.56	63.19
578.72	35.11
578.88	84.26
579.04	79.58
579.21	23.41
579.37	79.58
579.53	11.70
579.69	44.47
579.85	74.90
580.01	81.92
580.17	53.83
580.33	86.60
580.49	107.66
580.65	53.83
580.82	30.43
580.98	51.49
581.14	56.17
581.30	131.07
581.46	79.58
581.62	102.98
581.78	91.28
581.94	65.54
582.10	67.88
582.26	58.51
582.42	46.81
582.58	51.49
582.74	102.98
582.90	65.54
583.06	63.19
583.22	53.83
583.38	128.73
583.54	98.30
583.70	72.56
583.86	18.72
584.02	58.51
584.18	60.85
584.34	46.81
584.50	77.24
584.66	84.26
584.82	30.43
584.98	79.58
585.14	35.11
585.30	168.52
585.46	23.41
585.62	117.03
585.78	53.83
585.94	105.32
586.10	88.94
586.26	105.32
586.42	86.60
586.58	105.32
586.74	98.30
586.90	51.49
587.06	77.24
587.22	112.35
587.38	58.51
587.54	37.45
587.70	30.43
587.86	4.68
588.02	46.81
588.18	93.62
588.34	51.49
588.49	95.96
588.65	2.34
588.81	72.56
588.97	60.85
589.13	84.26
589.29	51.49
589.45	105.32
589.61	86.60
589.77	53.83
589.93	72.56
590.08	14.04
590.24	25.75
590.40	114.69
590.56	86.60
590.72	49.15
590.88	117.03
591.04	56.17
591.20	91.28
591.35	46.81
591.51	114.69
591.67	49.15
591.83	39.79
591.99	16.38
592.15	28.09
592.31	63.19
592.46	105.32
592.62	51.49
592.78	107.66
592.94	42.13
593.10	7.02
593.26	0.00
593.41	18.72
593.57	39.79
593.73	37.45
593.89	70.22
594.05	23.41
594.20	39.79
594.36	35.11
594.52	128.73
594.68	23.41
594.84	46.81
594.99	67.88
595.15	67.88
595.31	119.37
595.47	79.58
595.62	23.41
595.78	56.17
595.94	161.50
596.10	102.98
596.25	77.24
596.41	65.54
596.57	88.94
596.73	28.09
596.88	53.83
597.04	37.45
597.20	0.00
597.36	32.77
597.51	14.04
597.67	42.13
597.83	84.26
597.99	147.45
598.14	140.43
598.30	152.13
598.46	9.36
598.61	70.22
598.77	63.19
598.93	35.11
599.09	65.54
599.24	81.92
599.40	100.64
599.56	37.45
599.71	81.92
599.87	138.09
600.03	110.01
600.18	91.28
600.34	88.94
600.50	58.51
600.65	39.79
600.81	63.19
600.97	93.62
601.12	124.05
601.28	65.54
601.44	117.03
601.59	93.62
601.75	81.92
601.91	0.00
602.06	51.49
602.22	23.41
602.37	51.49
602.53	60.85
602.69	30.43
602.84	72.56
603.00	51.49
603.16	21.06
603.31	98.30
603.47	100.64
603.62	51.49
603.78	149.79
603.94	86.60
604.09	95.96
604.25	93.62
604.40	77.24
604.56	124.05
604.71	70.22
604.87	53.83
605.03	149.79
605.18	7.02
605.34	72.56
605.49	51.49
605.65	30.43
605.80	81.92
605.96	28.09
606.12	67.88
606.27	56.17
606.43	65.54
606.58	4.68
606.74	23.41
606.89	49.15
607.05	0.00
607.20	16.38
607.36	16.38
607.51	37.45
607.67	154.48
607.82	72.56
607.98	14.04
608.13	53.83
608.29	35.11
608.44	93.62
608.60	9.36
608.75	35.11
608.91	32.77
609.06	28.09
609.22	65.54
609.37	2.34
609.53	67.88
609.68	177.88
609.84	119.37
609.99	49.15
610.15	79.58
610.30	42.13
610.46	49.15
610.61	58.51
610.76	0.00
610.92	0.00
611.07	0.00
611.23	46.81
611.38	72.56
611.54	53.83
611.69	107.66
611.84	46.81
612.00	154.48
612.15	28.09
612.31	95.96
612.46	131.07
612.62	156.82
612.77	60.85
612.92	46.81
613.08	35.11
613.23	156.82
613.39	49.15
613.54	93.62
613.69	102.98
613.85	23.41
614.00	67.88
614.15	67.88
614.31	70.22
614.46	14.04
614.62	98.30
614.77	58.51
614.92	25.75
615.08	131.07
615.23	37.45
615.38	7.02
615.54	81.92
615.69	114.69
615.84	107.66
616.00	98.30
616.15	23.41
616.30	60.85
616.46	37.45
616.61	72.56
616.76	58.51
616.92	93.62
617.07	81.92
617.22	126.39
617.37	65.54
617.53	67.88
617.68	119.37
617.83	21.06
617.99	102.98
618.14	0.00
618.29	70.22
618.45	39.79
618.60	18.72
618.75	105.32
618.90	51.49
619.06	112.35
619.21	56.17
619.36	102.98
619.51	119.37
619.67	4.68
619.82	63.19
619.97	81.92
620.12	39.79
620.28	2.34
620.43	60.85
620.58	140.43
620.73	77.24
620.89	79.58
621.04	44.47
621.19	32.77
621.34	49.15
621.49	100.64
621.65	70.22
621.80	58.51
621.95	35.11
622.10	23.41
622.25	95.96
622.41	39.79
622.56	107.66
622.71	9.36
622.86	37.45
623.01	14.04
623.16	25.75
623.32	25.75
623.47	37.45
623.62	42.13
623.77	98.30
623.92	0.00
624.07	14.04
624.23	60.85
624.38	30.43
624.53	77.24
624.68	0.00
624.83	0.00
624.98	37.45
625.13	51.49
625.29	0.00
625.44	100.64
625.59	91.28
625.74	93.62
625.89	63.19
626.04	42.13
626.19	88.94
626.34	35.11
626.49	93.62
626.65	37.45
626.80	131.07
626.95	88.94
627.10	0.00
627.25	60.85
627.40	35.11
627.55	121.71
627.70	77.24
627.85	39.79
628.00	77.24
628.15	14.04
628.30	67.88
628.45	63.19
628.60	81.92
628.76	0.00
628.91	86.60
629.06	63.19
629.21	37.45
629.36	18.72
629.51	81.92
629.66	25.75
629.81	81.92
629.96	60.85
630.11	65.54
630.26	16.38
630.41	16.38
630.56	135.75
630.71	121.71
630.86	67.88
631.01	84.26
631.16	0.00
631.31	58.51
631.46	32.77
631.61	67.88
631.76	105.32
631.91	145.11
632.06	133.41
632.21	70.22
632.36	0.00
632.51	42.13
632.66	81.92
632.81	11.70
632.96	46.81
633.10	79.58
633.25	119.37
633.40	84.26
633.55	88.94
633.70	79.58
633.85	86.60
634.00	18.72
634.15	110.01
634.30	37.45
634.45	49.15
634.60	63.19
634.75	67.88
634.90	105.32
635.05	35.11
635.19	21.06
635.34	18.72
635.49	42.13
635.64	88.94
635.79	63.19
635.94	23.41
636.09	72.56
636.24	0.00
636.39	28.09
636.53	84.26
636.68	0.00
636.83	0.00
636.98	44.47
637.13	30.43
637.28	46.81
637.43	131.07
637.57	18.72
637.72	119.37
637.87	74.90
638.02	44.47
638.17	93.62
638.32	9.36
638.46	95.96
638.61	72.56
638.76	21.06
638.91	79.58
639.06	4.68
639.20	39.79
639.35	4.68
639.50	2.34
639.65	65.54
639.80	42.13
639.94	21.06
640.09	2.34
640.24	81.92
640.39	133.41
640.54	84.26
640.68	88.94
640.83	44.47
640.98	42.13
641.13	79.58
641.27	44.47
641.42	32.77
641.57	56.17
641.72	114.69
641.86	70.22
642.01	107.66
642.16	77.24
642.31	91.28
642.45	91.28
642.60	0.00
642.75	11.70
642.90	65.54
643.04	0.00
643.19	21.06
643.34	124.05
643.48	0.00
643.63	79.58
643.78	0.00
643.93	86.60
644.07	74.90
644.22	21.06
644.37	58.51
644.51	95.96
644.66	102.98
644.81	58.51
644.95	58.51
645.10	53.83
645.25	0.00
645.39	39.79
645.54	2.34
645.69	0.00
645.83	100.64
645.98	77.24
646.13	49.15
646.27	77.24
646.42	126.39
646.57	100.64
646.71	44.47
646.86	0.00
647.00	23.41
647.15	32.77
647.30	49.15
647.44	0.00
647.59	35.11
647.74	79.58
647.88	7.02
648.03	0.00
648.17	46.81
648.32	39.79
648.47	39.79
648.61	131.07
648.76	51.49
648.90	65.54
649.05	39.79
649.20	7.02
649.34	138.09
649.49	124.05
649.63	56.17
649.78	72.56
649.92	100.64
650.07	39.79
650.21	100.64
650.36	70.22
650.51	51.49
650.65	98.30
650.80	4.68
650.94	107.66
651.09	46.81
651.23	105.32
651.38	79.58
651.52	0.00
651.67	23.41
651.81	63.19
651.96	21.06
652.10	100.64
652.25	39.79
652.39	67.88
652.54	37.45
652.68	28.09
652.83	28.09
652.97	37.45
653.12	86.60
653.26	0.00
653.41	93.62
653.55	30.43
653.70	46.81
653.84	25.75
653.99	110.01
654.13	60.85
654.27	0.00
654.42	63.19
654.56	11.70
654.71	39.79
654.85	7.02
655.00	65.54
655.14	0.00
655.29	95.96
655.43	18.72
655.57	81.92
655.72	28.09
655.86	21.06
656.01	42.13
656.15	28.09
656.30	102.98
656.44	0.00
656.58	2.34
656.73	35.11
656.87	56.17
657.01	67.88
657.16	35.11
657.30	121.71
657.45	102.98
657.59	58.51
657.73	21.06
657.88	35.11
658.02	86.60
658.16	28.09
658.31	56.17
658.45	49.15
658.60	32.77
658.74	65.54
658.88	53.83
659.03	79.58
659.17	100.64
659.31	107.66
659.46	42.13
659.60	0.00
659.74	4.68
659.89	30.43
660.03	67.88
660.17	16.38
660.32	79.58
660.46	18.72
660.60	53.83
660.74	58.51
660.89	107.66
661.03	65.54
661.17	121.71
661.32	37.45
661.46	81.92
661.60	58.51
661.74	44.47
661.89	25.75
662.03	21.06
662.17	9.36
662.31	53.83
662.46	119.37
662.60	53.83
662.74	56.17
662.88	58.51
663.03	46.81
663.17	25.75
663.31	4.68
663.45	0.00
663.60	110.01
663.74	53.83
663.88	42.13
664.02	63.19
664.17	72.56
664.31	0.00
664.45	42.13
664.59	35.11
664.73	39.79
664.88	42.13
665.02	35.11
665.16	110.01
665.30	58.51
665.44	77.24
665.59	102.98
665.73	110.01
665.87	65.54
666.01	74.90
666.15	46.81
666.29	28.09
666.44	23.41
666.58	28.09
666.72	2.34
666.86	14.04
667.00	95.96
667.14	145.11
667.28	30.43
667.43	30.43
667.57	18.72
667.71	46.81
667.85	16.38
667.99	72.56
668.13	23.41
668.27	58.51
668.41	95.96
668.56	42.13
668.70	11.70
668.84	58.51
668.98	0.00
669.12	39.79
669.26	46.81
669.40	0.00
669.54	11.70
669.68	79.58
669.82	121.71
669.96	0.00
670.10	16.38
670.25	51.49
670.39	0.00
670.53	0.00
670.67	67.88
670.81	84.26
670.95	2.34
671.09	100.64
671.23	42.13
671.37	42.13
671.51	67.88
671.65	30.43
671.79	16.38
671.93	16.38
672.07	121.71
672.21	46.81
672.35	42.13
672.49	58.51
672.63	60.85
672.77	16.38
672.91	39.79
673.05	0.00
673.19	35.11
673.33	42.13
673.47	88.94
673.61	95.96
673.75	0.00
673.89	70.22
674.03	44.47
674.17	23.41
674.31	0.00
674.45	0.00
674.59	79.58
674.73	35.11
674.87	51.49
675.01	79.58
675.15	119.37
675.29	0.00
675.43	56.17
675.56	35.11
675.70	74.90
675.84	70.22
675.98	77.24
676.12	91.28
676.26	7.02
676.40	51.49
676.54	91.28
676.68	84.26
676.82	18.72
676.96	86.60
677.10	74.90
677.23	93.62
677.37	98.30
677.51	60.85
677.65	35.11
677.79	25.75
677.93	44.47
678.07	32.77
678.21	56.17
678.34	9.36
678.48	65.54
678.62	49.15
678.76	18.72
678.90	117.03
679.04	44.47
679.18	16.38
679.31	51.49
679.45	7.02
679.59	37.45
679.73	42.13
679.87	18.72
680.00	42.13
680.14	35.11
680.28	63.19
680.42	70.22
680.56	60.85
680.70	35.11
680.83	0.00
680.97	65.54
681.11	60.85
681.25	77.24
681.39	4.68
681.52	135.75
681.66	107.66
681.80	58.51
681.94	56.17
682.07	0.00
682.21	56.17
682.35	63.19
682.49	42.13
682.62	70.22
682.76	84.26
682.90	56.17
683.04	0.00
683.17	4.68
683.31	0.00
683.45	63.19
683.59	16.38
683.72	51.49
683.86	28.09
684.00	56.17
684.13	98.30
684.27	70.22
684.41	25.75
684.55	46.81
684.68	49.15
684.82	0.00
684.96	60.85
685.09	60.85
685.23	2.34
685.37	21.06
685.50	53.83
685.64	42.13
685.78	21.06
685.91	16.38
686.05	81.92
686.19	42.13
686.32	0.00
686.46	4.68
686.60	30.43
686.73	100.64
686.87	14.04
687.01	25.75
687.14	107.66
687.28	42.13
687.42	37.45
687.55	0.00
687.69	14.04
687.82	14.04
687.96	32.77
688.10	58.51
688.23	44.47
688.37	28.09
688.50	88.94
688.64	0.00
688.78	60.85
688.91	60.85
689.05	60.85
689.18	77.24
689.32	0.00
689.46	70.22
689.59	102.98
689.73	32.77
689.86	65.54
690.00	88.94
690.13	23.41
690.27	95.96
690.41	98.30
690.54	51.49
690.68	28.09
690.81	117.03
690.95	7.02
691.08	25.75
691.22	21.06
691.35	25.75
691.49	51.49
691.62	49.15
691.76	56.17
691.89	0.00
692.03	93.62
692.16	102.98
692.30	60.85
692.43	79.58
692.57	117.03
692.70	0.00
692.84	21.06
692.97	60.85
693.11	56.17
693.24	11.70
693.38	21.06
693.51	58.51
693.65	23.41
693.78	28.09
693.92	37.45
694.05	21.06
694.19	11.70
694.32	37.45
694.45	58.51
694.59	23.41
694.72	23.41
694.86	107.66
694.99	53.83
695.13	0.00
695.26	23.41
695.39	58.51
695.53	74.90
695.66	0.00
695.80	51.49
695.93	65.54
696.07	37.45
696.20	53.83
696.33	0.00
696.47	105.32
696.60	49.15
696.73	42.13
696.87	39.79
697.00	7.02
697.14	0.00
697.27	0.00
697.40	39.79
697.54	67.88
697.67	42.13
697.80	21.06
697.94	7.02
698.07	72.56
698.21	100.64
698.34	4.68
698.47	0.00
698.61	46.81
698.74	9.36
698.87	81.92
699.01	0.00
699.14	42.13
699.27	65.54
699.40	14.04
699.54	25.75
699.67	0.00
699.80	21.06
699.94	100.64
700.07	88.94
700.20	60.85
700.34	30.43
700.47	58.51
700.60	35.11
700.73	37.45
700.87	114.69
701.00	39.79
701.13	9.36
701.26	32.77
701.40	0.00
701.53	0.00
701.66	93.62
701.79	35.11
701.93	18.72
702.06	81.92
702.19	37.45
702.32	70.22
702.46	0.00
702.59	42.13
702.72	0.00
702.85	93.62
702.99	63.19
703.12	28.09
703.25	0.00
703.38	37.45
703.51	95.96
703.65	0.00
703.78	21.06
703.91	23.41
704.04	32.77
704.17	0.00
704.31	2.34
704.44	77.24
704.57	25.75
704.70	25.75
704.83	0.00
704.96	28.09
705.10	35.11
705.23	28.09
>>>>>End Processed Spectral Data<<<<<
