SpectraSuite Data File
++++++++++++++++++++++++++++++++++++
Date: Fri Oct 04 12:13:38 GMT-05:00 2013
User: price-jones
Dark Spectrum Present: No
Reference Spectrum Present: No
Number of Sampled Component Spectra: 1
Spectrometers: USB2+H05261
Integration Time (usec): 10000 (USB2+H05261)
Spectra Averaged: 1 (USB2+H05261)
Boxcar Smoothing: 0 (USB2+H05261)
Correct for Electrical Dark: No (USB2+H05261)
Strobe/Lamp Enabled: No (USB2+H05261)
Correct for Detector Non-linearity: No (USB2+H05261)
Correct for Stray Light: No (USB2+H05261)
Number of Pixels in Processed Spectrum: 2048
>>>>>Begin Processed Spectral Data<<<<<
365.73	42.13
365.92	42.13
366.12	42.13
366.32	0.00
366.52	0.00
366.72	0.00
366.91	0.00
367.11	0.00
367.31	0.00
367.51	0.00
367.70	0.00
367.90	0.00
368.10	0.00
368.30	0.00
368.49	0.00
368.69	0.00
368.89	0.00
369.09	0.00
369.28	0.00
369.48	0.00
369.68	0.00
369.87	0.00
370.07	0.00
370.27	0.00
370.47	0.00
370.66	0.00
370.86	0.00
371.06	0.00
371.25	0.00
371.45	9.36
371.65	0.00
371.84	11.70
372.04	37.45
372.24	28.09
372.44	0.00
372.63	9.36
372.83	0.00
373.03	0.00
373.22	0.00
373.42	0.00
373.62	0.00
373.81	32.77
374.01	49.15
374.21	28.09
374.40	0.00
374.60	81.92
374.79	35.11
374.99	0.00
375.19	0.00
375.38	18.72
375.58	110.01
375.78	51.49
375.97	37.45
376.17	58.51
376.37	58.51
376.56	32.77
376.76	70.22
376.95	0.00
377.15	0.00
377.35	44.47
377.54	58.51
377.74	11.70
377.93	0.00
378.13	51.49
378.33	0.00
378.52	51.49
378.72	0.00
378.91	0.00
379.11	11.70
379.31	0.00
379.50	0.00
379.70	30.43
379.89	16.38
380.09	35.11
380.28	25.75
380.48	25.75
380.68	0.00
380.87	16.38
381.07	0.00
381.26	88.94
381.46	9.36
381.65	16.38
381.85	9.36
382.04	79.58
382.24	32.77
382.43	0.00
382.63	0.00
382.83	2.34
383.02	0.00
383.22	16.38
383.41	0.00
383.61	0.00
383.80	21.06
384.00	0.00
384.19	0.00
384.39	28.09
384.58	0.00
384.78	25.75
384.97	77.24
385.17	0.00
385.36	42.13
385.56	65.54
385.75	37.45
385.95	46.81
386.14	0.00
386.34	28.09
386.53	0.00
386.72	14.04
386.92	0.00
387.11	46.81
387.31	25.75
387.50	11.70
387.70	0.00
387.89	14.04
388.09	37.45
388.28	37.45
388.48	16.38
388.67	21.06
388.86	0.00
389.06	18.72
389.25	30.43
389.45	25.75
389.64	25.75
389.84	0.00
390.03	30.43
390.22	72.56
390.42	35.11
390.61	28.09
390.81	0.00
391.00	0.00
391.19	9.36
391.39	16.38
391.58	30.43
391.78	0.00
391.97	65.54
392.16	0.00
392.36	25.75
392.55	67.88
392.75	84.26
392.94	32.77
393.13	7.02
393.33	18.72
393.52	0.00
393.71	0.00
393.91	44.47
394.10	16.38
394.29	7.02
394.49	0.00
394.68	0.00
394.88	2.34
395.07	0.00
395.26	0.00
395.46	53.83
395.65	39.79
395.84	0.00
396.04	77.24
396.23	23.41
396.42	65.54
396.62	2.34
396.81	77.24
397.00	30.43
397.19	0.00
397.39	0.00
397.58	46.81
397.77	0.00
397.97	2.34
398.16	0.00
398.35	9.36
398.55	65.54
398.74	0.00
398.93	18.72
399.12	51.49
399.32	46.81
399.51	0.00
399.70	16.38
399.90	0.00
400.09	65.54
400.28	53.83
400.47	42.13
400.67	32.77
400.86	60.85
401.05	93.62
401.24	0.00
401.44	44.47
401.63	65.54
401.82	30.43
402.01	7.02
402.21	32.77
402.40	95.96
402.59	70.22
402.78	37.45
402.97	0.00
403.17	37.45
403.36	39.79
403.55	25.75
403.74	14.04
403.93	30.43
404.13	14.04
404.32	7.02
404.51	21.06
404.70	21.06
404.89	23.41
405.09	0.00
405.28	0.00
405.47	44.47
405.66	56.17
405.85	86.60
406.05	79.58
406.24	32.77
406.43	11.70
406.62	0.00
406.81	9.36
407.00	9.36
407.20	74.90
407.39	28.09
407.58	86.60
407.77	102.98
407.96	88.94
408.15	58.51
408.34	18.72
408.54	7.02
408.73	63.19
408.92	0.00
409.11	128.73
409.30	65.54
409.49	56.17
409.68	63.19
409.87	18.72
410.07	39.79
410.26	0.00
410.45	72.56
410.64	32.77
410.83	21.06
411.02	110.01
411.21	46.81
411.40	0.00
411.59	21.06
411.78	7.02
411.98	0.00
412.17	0.00
412.36	95.96
412.55	44.47
412.74	0.00
412.93	30.43
413.12	23.41
413.31	70.22
413.50	18.72
413.69	51.49
413.88	32.77
414.07	0.00
414.26	0.00
414.45	9.36
414.64	9.36
414.83	51.49
415.02	0.00
415.22	79.58
415.41	46.81
415.60	0.00
415.79	58.51
415.98	9.36
416.17	56.17
416.36	7.02
416.55	0.00
416.74	79.58
416.93	18.72
417.12	0.00
417.31	23.41
417.50	46.81
417.69	65.54
417.88	53.83
418.07	60.85
418.26	63.19
418.45	9.36
418.64	65.54
418.83	60.85
419.02	44.47
419.21	0.00
419.39	16.38
419.58	39.79
419.77	77.24
419.96	4.68
420.15	0.00
420.34	35.11
420.53	53.83
420.72	95.96
420.91	51.49
421.10	95.96
421.29	93.62
421.48	35.11
421.67	0.00
421.86	77.24
422.05	37.45
422.24	32.77
422.43	79.58
422.61	121.71
422.80	110.01
422.99	2.34
423.18	25.75
423.37	79.58
423.56	32.77
423.75	81.92
423.94	35.11
424.13	63.19
424.32	51.49
424.50	74.90
424.69	21.06
424.88	42.13
425.07	37.45
425.26	46.81
425.45	7.02
425.64	16.38
425.83	51.49
426.01	35.11
426.20	23.41
426.39	0.00
426.58	21.06
426.77	14.04
426.96	37.45
427.15	11.70
427.33	0.00
427.52	0.00
427.71	23.41
427.90	46.81
428.09	49.15
428.28	0.00
428.46	149.79
428.65	39.79
428.84	11.70
429.03	9.36
429.22	0.00
429.40	84.26
429.59	35.11
429.78	74.90
429.97	35.11
430.16	21.06
430.34	35.11
430.53	84.26
430.72	23.41
430.91	81.92
431.10	0.00
431.28	44.47
431.47	28.09
431.66	74.90
431.85	32.77
432.03	51.49
432.22	21.06
432.41	42.13
432.60	42.13
432.79	79.58
432.97	56.17
433.16	49.15
433.35	32.77
433.54	0.00
433.72	63.19
433.91	30.43
434.10	23.41
434.28	4.68
434.47	35.11
434.66	25.75
434.85	49.15
435.03	77.24
435.22	93.62
435.41	56.17
435.59	7.02
435.78	102.98
435.97	0.00
436.16	0.00
436.34	86.60
436.53	14.04
436.72	39.79
436.90	0.00
437.09	49.15
437.28	46.81
437.46	65.54
437.65	0.00
437.84	42.13
438.02	25.75
438.21	98.30
438.40	70.22
438.58	42.13
438.77	58.51
438.96	81.92
439.14	121.71
439.33	88.94
439.52	100.64
439.70	18.72
439.89	147.45
440.08	7.02
440.26	39.79
440.45	7.02
440.63	18.72
440.82	107.66
441.01	102.98
441.19	131.07
441.38	100.64
441.57	2.34
441.75	88.94
441.94	32.77
442.12	49.15
442.31	51.49
442.50	77.24
442.68	0.00
442.87	65.54
443.05	86.60
443.24	86.60
443.43	53.83
443.61	60.85
443.80	79.58
443.98	145.11
444.17	2.34
444.35	53.83
444.54	0.00
444.73	25.75
444.91	18.72
445.10	39.79
445.28	0.00
445.47	21.06
445.65	88.94
445.84	11.70
446.02	0.00
446.21	35.11
446.39	51.49
446.58	67.88
446.77	81.92
446.95	142.77
447.14	0.00
447.32	32.77
447.51	67.88
447.69	28.09
447.88	60.85
448.06	7.02
448.25	23.41
448.43	25.75
448.62	39.79
448.80	84.26
448.99	39.79
449.17	91.28
449.36	32.77
449.54	58.51
449.73	44.47
449.91	98.30
450.10	107.66
450.28	56.17
450.46	70.22
450.65	0.00
450.83	70.22
451.02	105.32
451.20	11.70
451.39	18.72
451.57	53.83
451.76	86.60
451.94	58.51
452.13	65.54
452.31	81.92
452.49	9.36
452.68	98.30
452.86	42.13
453.05	65.54
453.23	0.00
453.42	58.51
453.60	0.00
453.78	25.75
453.97	91.28
454.15	0.00
454.34	42.13
454.52	9.36
454.70	72.56
454.89	25.75
455.07	56.17
455.26	60.85
455.44	39.79
455.62	16.38
455.81	58.51
455.99	107.66
456.17	67.88
456.36	58.51
456.54	100.64
456.73	16.38
456.91	39.79
457.09	0.00
457.28	88.94
457.46	0.00
457.64	53.83
457.83	98.30
458.01	65.54
458.19	39.79
458.38	2.34
458.56	30.43
458.74	28.09
458.93	79.58
459.11	0.00
459.29	4.68
459.48	74.90
459.66	119.37
459.84	0.00
460.03	93.62
460.21	72.56
460.39	35.11
460.57	93.62
460.76	35.11
460.94	37.45
461.12	72.56
461.31	63.19
461.49	53.83
461.67	98.30
461.85	53.83
462.04	49.15
462.22	74.90
462.40	51.49
462.59	65.54
462.77	53.83
462.95	84.26
463.13	93.62
463.32	88.94
463.50	60.85
463.68	124.05
463.86	159.16
464.05	28.09
464.23	42.13
464.41	37.45
464.59	86.60
464.78	7.02
464.96	14.04
465.14	32.77
465.32	70.22
465.50	114.69
465.69	81.92
465.87	91.28
466.05	11.70
466.23	0.00
466.41	74.90
466.60	25.75
466.78	88.94
466.96	58.51
467.14	37.45
467.32	95.96
467.51	32.77
467.69	11.70
467.87	23.41
468.05	105.32
468.23	70.22
468.41	81.92
468.60	72.56
468.78	51.49
468.96	28.09
469.14	88.94
469.32	63.19
469.50	44.47
469.69	35.11
469.87	107.66
470.05	7.02
470.23	30.43
470.41	53.83
470.59	72.56
470.77	60.85
470.95	11.70
471.14	16.38
471.32	53.83
471.50	0.00
471.68	25.75
471.86	23.41
472.04	44.47
472.22	56.17
472.40	53.83
472.58	0.00
472.77	44.47
472.95	35.11
473.13	70.22
473.31	91.28
473.49	107.66
473.67	42.13
473.85	4.68
474.03	0.00
474.21	25.75
474.39	65.54
474.57	70.22
474.75	67.88
474.93	58.51
475.12	44.47
475.30	39.79
475.48	119.37
475.66	39.79
475.84	91.28
476.02	14.04
476.20	72.56
476.38	128.73
476.56	32.77
476.74	126.39
476.92	74.90
477.10	166.18
477.28	74.90
477.46	72.56
477.64	14.04
477.82	60.85
478.00	126.39
478.18	60.85
478.36	65.54
478.54	56.17
478.72	107.66
478.90	58.51
479.08	74.90
479.26	58.51
479.44	0.00
479.62	0.00
479.80	28.09
479.98	93.62
480.16	0.00
480.34	53.83
480.52	18.72
480.70	28.09
480.88	44.47
481.06	23.41
481.24	56.17
481.41	53.83
481.59	74.90
481.77	133.41
481.95	105.32
482.13	98.30
482.31	23.41
482.49	16.38
482.67	95.96
482.85	105.32
483.03	93.62
483.21	79.58
483.39	95.96
483.57	67.88
483.74	65.54
483.92	112.35
484.10	102.98
484.28	46.81
484.46	110.01
484.64	67.88
484.82	18.72
485.00	0.00
485.18	93.62
485.35	81.92
485.53	107.66
485.71	58.51
485.89	74.90
486.07	25.75
486.25	70.22
486.43	0.00
486.61	0.00
486.78	28.09
486.96	0.00
487.14	81.92
487.32	65.54
487.50	72.56
487.68	60.85
487.85	42.13
488.03	65.54
488.21	145.11
488.39	67.88
488.57	65.54
488.75	30.43
488.92	84.26
489.10	2.34
489.28	140.43
489.46	74.90
489.64	117.03
489.81	93.62
489.99	100.64
490.17	28.09
490.35	72.56
490.53	84.26
490.70	56.17
490.88	67.88
491.06	21.06
491.24	91.28
491.41	77.24
491.59	53.83
491.77	91.28
491.95	79.58
492.13	0.00
492.30	37.45
492.48	93.62
492.66	77.24
492.84	63.19
493.01	77.24
493.19	67.88
493.37	74.90
493.54	84.26
493.72	74.90
493.90	0.00
494.08	9.36
494.25	84.26
494.43	93.62
494.61	124.05
494.79	93.62
494.96	65.54
495.14	175.54
495.32	46.81
495.49	51.49
495.67	70.22
495.85	100.64
496.02	95.96
496.20	100.64
496.38	74.90
496.55	107.66
496.73	23.41
496.91	119.37
497.09	117.03
497.26	84.26
497.44	58.51
497.62	46.81
497.79	60.85
497.97	65.54
498.14	72.56
498.32	84.26
498.50	88.94
498.67	147.45
498.85	107.66
499.03	28.09
499.20	88.94
499.38	154.48
499.56	18.72
499.73	98.30
499.91	74.90
500.08	91.28
500.26	131.07
500.44	35.11
500.61	114.69
500.79	88.94
500.97	88.94
501.14	63.19
501.32	133.41
501.49	49.15
501.67	44.47
501.84	84.26
502.02	65.54
502.20	49.15
502.37	107.66
502.55	163.84
502.72	124.05
502.90	63.19
503.07	98.30
503.25	42.13
503.43	81.92
503.60	25.75
503.78	95.96
503.95	42.13
504.13	84.26
504.30	86.60
504.48	107.66
504.65	21.06
504.83	131.07
505.01	79.58
505.18	93.62
505.36	81.92
505.53	46.81
505.71	77.24
505.88	67.88
506.06	35.11
506.23	147.45
506.41	117.03
506.58	58.51
506.76	79.58
506.93	65.54
507.11	86.60
507.28	32.77
507.46	70.22
507.63	91.28
507.81	21.06
507.98	63.19
508.16	42.13
508.33	91.28
508.50	105.32
508.68	65.54
508.85	84.26
509.03	67.88
509.20	39.79
509.38	77.24
509.55	60.85
509.73	46.81
509.90	77.24
510.08	81.92
510.25	112.35
510.42	74.90
510.60	72.56
510.77	58.51
510.95	0.00
511.12	95.96
511.30	25.75
511.47	117.03
511.64	56.17
511.82	91.28
511.99	88.94
512.17	100.64
512.34	58.51
512.51	102.98
512.69	105.32
512.86	88.94
513.04	114.69
513.21	60.85
513.38	65.54
513.56	58.51
513.73	32.77
513.90	114.69
514.08	65.54
514.25	159.16
514.43	60.85
514.60	77.24
514.77	84.26
514.95	28.09
515.12	58.51
515.29	93.62
515.47	86.60
515.64	0.00
515.81	44.47
515.99	100.64
516.16	0.00
516.33	32.77
516.51	58.51
516.68	173.20
516.85	100.64
517.03	86.60
517.20	32.77
517.37	77.24
517.54	84.26
517.72	145.11
517.89	53.83
518.06	39.79
518.24	42.13
518.41	91.28
518.58	39.79
518.75	86.60
518.93	65.54
519.10	30.43
519.27	114.69
519.45	100.64
519.62	42.13
519.79	30.43
519.96	35.11
520.14	70.22
520.31	79.58
520.48	102.98
520.65	102.98
520.83	95.96
521.00	79.58
521.17	16.38
521.34	88.94
521.52	53.83
521.69	95.96
521.86	21.06
522.03	46.81
522.20	0.00
522.38	44.47
522.55	102.98
522.72	117.03
522.89	56.17
523.07	28.09
523.24	32.77
523.41	42.13
523.58	65.54
523.75	30.43
523.92	138.09
524.10	53.83
524.27	35.11
524.44	39.79
524.61	112.35
524.78	114.69
524.96	65.54
525.13	161.50
525.30	107.66
525.47	32.77
525.64	95.96
525.81	74.90
525.98	77.24
526.16	60.85
526.33	42.13
526.50	147.45
526.67	67.88
526.84	95.96
527.01	58.51
527.18	53.83
527.36	121.71
527.53	110.01
527.70	117.03
527.87	46.81
528.04	91.28
528.21	105.32
528.38	77.24
528.55	117.03
528.72	21.06
528.89	124.05
529.07	74.90
529.24	102.98
529.41	72.56
529.58	131.07
529.75	159.16
529.92	86.60
530.09	70.22
530.26	67.88
530.43	112.35
530.60	4.68
530.77	100.64
530.94	79.58
531.11	88.94
531.28	175.54
531.46	42.13
531.63	42.13
531.80	42.13
531.97	39.79
532.14	72.56
532.31	32.77
532.48	72.56
532.65	81.92
532.82	112.35
532.99	105.32
533.16	42.13
533.33	102.98
533.50	81.92
533.67	67.88
533.84	84.26
534.01	98.30
534.18	93.62
534.35	67.88
534.52	88.94
534.69	88.94
534.86	110.01
535.03	128.73
535.20	51.49
535.37	124.05
535.54	93.62
535.71	39.79
535.88	133.41
536.05	77.24
536.22	124.05
536.38	145.11
536.55	77.24
536.72	72.56
536.89	98.30
537.06	46.81
537.23	65.54
537.40	9.36
537.57	32.77
537.74	67.88
537.91	135.75
538.08	110.01
538.25	30.43
538.42	46.81
538.59	124.05
538.75	91.28
538.92	28.09
539.09	16.38
539.26	128.73
539.43	98.30
539.60	42.13
539.77	95.96
539.94	39.79
540.11	60.85
540.28	135.75
540.44	166.18
540.61	79.58
540.78	18.72
540.95	107.66
541.12	79.58
541.29	72.56
541.46	107.66
541.62	74.90
541.79	46.81
541.96	65.54
542.13	56.17
542.30	119.37
542.47	93.62
542.63	142.77
542.80	35.11
542.97	95.96
543.14	0.00
543.31	39.79
543.48	133.41
543.64	131.07
543.81	131.07
543.98	91.28
544.15	0.00
544.32	72.56
544.48	35.11
544.65	95.96
544.82	18.72
544.99	117.03
545.16	84.26
545.32	49.15
545.49	102.98
545.66	133.41
545.83	39.79
546.00	65.54
546.16	49.15
546.33	60.85
546.50	166.18
546.67	84.26
546.83	93.62
547.00	18.72
547.17	112.35
547.34	142.77
547.50	65.54
547.67	35.11
547.84	107.66
548.00	102.98
548.17	121.71
548.34	124.05
548.51	42.13
548.67	149.79
548.84	121.71
549.01	86.60
549.18	60.85
549.34	51.49
549.51	84.26
549.68	81.92
549.84	65.54
550.01	91.28
550.18	107.66
550.34	65.54
550.51	147.45
550.68	77.24
550.84	74.90
551.01	58.51
551.18	35.11
551.34	35.11
551.51	53.83
551.68	95.96
551.84	70.22
552.01	114.69
552.18	79.58
552.34	117.03
552.51	86.60
552.68	121.71
552.84	100.64
553.01	77.24
553.18	2.34
553.34	0.00
553.51	51.49
553.67	0.00
553.84	46.81
554.01	86.60
554.17	126.39
554.34	95.96
554.51	30.43
554.67	11.70
554.84	79.58
555.00	112.35
555.17	100.64
555.33	70.22
555.50	88.94
555.67	114.69
555.83	128.73
556.00	114.69
556.16	91.28
556.33	18.72
556.50	107.66
556.66	49.15
556.83	84.26
556.99	102.98
557.16	53.83
557.32	74.90
557.49	42.13
557.65	79.58
557.82	121.71
557.98	51.49
558.15	173.20
558.32	100.64
558.48	98.30
558.65	114.69
558.81	28.09
558.98	4.68
559.14	74.90
559.31	7.02
559.47	35.11
559.64	42.13
559.80	60.85
559.97	58.51
560.13	117.03
560.30	0.00
560.46	51.49
560.63	102.98
560.79	86.60
560.96	100.64
561.12	56.17
561.29	126.39
561.45	44.47
561.61	81.92
561.78	28.09
561.94	86.60
562.11	72.56
562.27	81.92
562.44	63.19
562.60	67.88
562.77	112.35
562.93	124.05
563.10	140.43
563.26	44.47
563.42	51.49
563.59	56.17
563.75	112.35
563.92	81.92
564.08	77.24
564.24	56.17
564.41	100.64
564.57	95.96
564.74	32.77
564.90	67.88
565.07	51.49
565.23	53.83
565.39	53.83
565.56	56.17
565.72	110.01
565.88	11.70
566.05	51.49
566.21	9.36
566.38	4.68
566.54	58.51
566.70	93.62
566.87	124.05
567.03	44.47
567.19	67.88
567.36	56.17
567.52	88.94
567.68	39.79
567.85	72.56
568.01	138.09
568.17	79.58
568.34	133.41
568.50	46.81
568.66	58.51
568.83	91.28
568.99	42.13
569.15	53.83
569.32	60.85
569.48	35.11
569.64	95.96
569.81	95.96
569.97	95.96
570.13	93.62
570.30	72.56
570.46	74.90
570.62	35.11
570.78	65.54
570.95	46.81
571.11	53.83
571.27	32.77
571.43	91.28
571.60	124.05
571.76	79.58
571.92	107.66
572.09	58.51
572.25	49.15
572.41	84.26
572.57	42.13
572.74	91.28
572.90	2.34
573.06	114.69
573.22	84.26
573.38	23.41
573.55	119.37
573.71	117.03
573.87	138.09
574.03	133.41
574.20	42.13
574.36	0.00
574.52	58.51
574.68	84.26
574.84	67.88
575.01	91.28
575.17	56.17
575.33	74.90
575.49	30.43
575.65	112.35
575.82	86.60
575.98	95.96
576.14	203.63
576.30	140.43
576.46	102.98
576.62	60.85
576.79	114.69
576.95	42.13
577.11	110.01
577.27	95.96
577.43	114.69
577.59	58.51
577.75	110.01
577.92	93.62
578.08	81.92
578.24	74.90
578.40	93.62
578.56	81.92
578.72	140.43
578.88	110.01
579.04	84.26
579.21	32.77
579.37	0.00
579.53	53.83
579.69	119.37
579.85	30.43
580.01	114.69
580.17	102.98
580.33	112.35
580.49	86.60
580.65	72.56
580.82	117.03
580.98	72.56
581.14	74.90
581.30	133.41
581.46	142.77
581.62	44.47
581.78	65.54
581.94	58.51
582.10	77.24
582.26	93.62
582.42	56.17
582.58	145.11
582.74	58.51
582.90	58.51
583.06	37.45
583.22	63.19
583.38	88.94
583.54	16.38
583.70	145.11
583.86	81.92
584.02	42.13
584.18	46.81
584.34	91.28
584.50	28.09
584.66	105.32
584.82	63.19
584.98	65.54
585.14	28.09
585.30	70.22
585.46	51.49
585.62	11.70
585.78	56.17
585.94	49.15
586.10	11.70
586.26	32.77
586.42	114.69
586.58	79.58
586.74	93.62
586.90	77.24
587.06	32.77
587.22	79.58
587.38	98.30
587.54	121.71
587.70	56.17
587.86	0.00
588.02	119.37
588.18	79.58
588.34	32.77
588.49	70.22
588.65	70.22
588.81	72.56
588.97	0.00
589.13	88.94
589.29	4.68
589.45	79.58
589.61	72.56
589.77	77.24
589.93	37.45
590.08	84.26
590.24	86.60
590.40	46.81
590.56	63.19
590.72	126.39
590.88	37.45
591.04	72.56
591.20	133.41
591.35	93.62
591.51	147.45
591.67	0.00
591.83	65.54
591.99	53.83
592.15	39.79
592.31	42.13
592.46	84.26
592.62	21.06
592.78	7.02
592.94	145.11
593.10	112.35
593.26	95.96
593.41	25.75
593.57	25.75
593.73	81.92
593.89	105.32
594.05	56.17
594.20	81.92
594.36	81.92
594.52	56.17
594.68	91.28
594.84	18.72
594.99	32.77
595.15	16.38
595.31	138.09
595.47	147.45
595.62	63.19
595.78	28.09
595.94	46.81
596.10	105.32
596.25	100.64
596.41	100.64
596.57	30.43
596.73	110.01
596.88	114.69
597.04	23.41
597.20	16.38
597.36	2.34
597.51	53.83
597.67	79.58
597.83	7.02
597.99	67.88
598.14	74.90
598.30	0.00
598.46	88.94
598.61	14.04
598.77	7.02
598.93	35.11
599.09	107.66
599.24	67.88
599.40	100.64
599.56	128.73
599.71	105.32
599.87	60.85
600.03	56.17
600.18	65.54
600.34	147.45
600.50	28.09
600.65	79.58
600.81	25.75
600.97	74.90
601.12	49.15
601.28	74.90
601.44	72.56
601.59	77.24
601.75	56.17
601.91	81.92
602.06	119.37
602.22	53.83
602.37	95.96
602.53	65.54
602.69	58.51
602.84	30.43
603.00	124.05
603.16	37.45
603.31	65.54
603.47	9.36
603.62	72.56
603.78	112.35
603.94	35.11
604.09	7.02
604.25	16.38
604.40	51.49
604.56	119.37
604.71	79.58
604.87	112.35
605.03	67.88
605.18	30.43
605.34	105.32
605.49	79.58
605.65	119.37
605.80	112.35
605.96	110.01
606.12	86.60
606.27	0.00
606.43	128.73
606.58	128.73
606.74	77.24
606.89	79.58
607.05	100.64
607.20	81.92
607.36	124.05
607.51	16.38
607.67	74.90
607.82	58.51
607.98	65.54
608.13	81.92
608.29	35.11
608.44	107.66
608.60	88.94
608.75	86.60
608.91	58.51
609.06	112.35
609.22	126.39
609.37	4.68
609.53	110.01
609.68	114.69
609.84	35.11
609.99	84.26
610.15	147.45
610.30	112.35
610.46	32.77
610.61	72.56
610.76	100.64
610.92	86.60
611.07	67.88
611.23	124.05
611.38	42.13
611.54	93.62
611.69	37.45
611.84	114.69
612.00	77.24
612.15	60.85
612.31	58.51
612.46	67.88
612.62	56.17
612.77	42.13
612.92	79.58
613.08	46.81
613.23	135.75
613.39	81.92
613.54	51.49
613.69	4.68
613.85	91.28
614.00	117.03
614.15	98.30
614.31	23.41
614.46	51.49
614.62	4.68
614.77	56.17
614.92	35.11
615.08	23.41
615.23	98.30
615.38	98.30
615.54	77.24
615.69	14.04
615.84	53.83
616.00	72.56
616.15	91.28
616.30	60.85
616.46	53.83
616.61	93.62
616.76	112.35
616.92	37.45
617.07	46.81
617.22	67.88
617.37	88.94
617.53	67.88
617.68	42.13
617.83	42.13
617.99	88.94
618.14	23.41
618.29	126.39
618.45	49.15
618.60	63.19
618.75	21.06
618.90	0.00
619.06	58.51
619.21	79.58
619.36	60.85
619.51	35.11
619.67	58.51
619.82	159.16
619.97	39.79
620.12	74.90
620.28	58.51
620.43	0.00
620.58	46.81
620.73	65.54
620.89	42.13
621.04	39.79
621.19	46.81
621.34	56.17
621.49	72.56
621.65	0.00
621.80	14.04
621.95	39.79
622.10	46.81
622.25	51.49
622.41	126.39
622.56	51.49
622.71	72.56
622.86	72.56
623.01	56.17
623.16	51.49
623.32	145.11
623.47	74.90
623.62	9.36
623.77	70.22
623.92	44.47
624.07	70.22
624.23	0.00
624.38	56.17
624.53	110.01
624.68	67.88
624.83	63.19
624.98	63.19
625.13	39.79
625.29	84.26
625.44	133.41
625.59	53.83
625.74	7.02
625.89	70.22
626.04	91.28
626.19	93.62
626.34	7.02
626.49	37.45
626.65	121.71
626.80	100.64
626.95	81.92
627.10	23.41
627.25	2.34
627.40	79.58
627.55	93.62
627.70	23.41
627.85	81.92
628.00	60.85
628.15	81.92
628.30	23.41
628.45	25.75
628.60	79.58
628.76	105.32
628.91	93.62
629.06	11.70
629.21	0.00
629.36	128.73
629.51	86.60
629.66	0.00
629.81	0.00
629.96	42.13
630.11	77.24
630.26	88.94
630.41	44.47
630.56	2.34
630.71	65.54
630.86	32.77
631.01	28.09
631.16	42.13
631.31	84.26
631.46	95.96
631.61	74.90
631.76	100.64
631.91	0.00
632.06	23.41
632.21	84.26
632.36	0.00
632.51	51.49
632.66	23.41
632.81	49.15
632.96	30.43
633.10	105.32
633.25	67.88
633.40	4.68
633.55	65.54
633.70	25.75
633.85	77.24
634.00	60.85
634.15	49.15
634.30	65.54
634.45	65.54
634.60	81.92
634.75	126.39
634.90	0.00
635.05	21.06
635.19	84.26
635.34	35.11
635.49	37.45
635.64	14.04
635.79	7.02
635.94	25.75
636.09	95.96
636.24	131.07
636.39	112.35
636.53	42.13
636.68	11.70
636.83	63.19
636.98	58.51
637.13	51.49
637.28	98.30
637.43	58.51
637.57	0.00
637.72	0.00
637.87	7.02
638.02	51.49
638.17	51.49
638.32	7.02
638.46	81.92
638.61	100.64
638.76	9.36
638.91	0.00
639.06	77.24
639.20	60.85
639.35	67.88
639.50	79.58
639.65	30.43
639.80	49.15
639.94	60.85
640.09	56.17
640.24	74.90
640.39	102.98
640.54	0.00
640.68	51.49
640.83	56.17
640.98	74.90
641.13	51.49
641.27	58.51
641.42	70.22
641.57	72.56
641.72	42.13
641.86	51.49
642.01	18.72
642.16	28.09
642.31	110.01
642.45	39.79
642.60	37.45
642.75	100.64
642.90	65.54
643.04	126.39
643.19	39.79
643.34	84.26
643.48	79.58
643.63	9.36
643.78	37.45
643.93	70.22
644.07	23.41
644.22	11.70
644.37	60.85
644.51	9.36
644.66	25.75
644.81	100.64
644.95	9.36
645.10	9.36
645.25	42.13
645.39	14.04
645.54	21.06
645.69	79.58
645.83	131.07
645.98	154.48
646.13	67.88
646.27	121.71
646.42	21.06
646.57	65.54
646.71	117.03
646.86	98.30
647.00	53.83
647.15	9.36
647.30	46.81
647.44	49.15
647.59	53.83
647.74	42.13
647.88	39.79
648.03	0.00
648.17	65.54
648.32	91.28
648.47	9.36
648.61	74.90
648.76	67.88
648.90	14.04
649.05	23.41
649.20	58.51
649.34	23.41
649.49	60.85
649.63	56.17
649.78	70.22
649.92	84.26
650.07	53.83
650.21	0.00
650.36	145.11
650.51	18.72
650.65	30.43
650.80	53.83
650.94	91.28
651.09	65.54
651.23	58.51
651.38	9.36
651.52	72.56
651.67	100.64
651.81	98.30
651.96	77.24
652.10	51.49
652.25	84.26
652.39	91.28
652.54	81.92
652.68	112.35
652.83	67.88
652.97	77.24
653.12	124.05
653.26	30.43
653.41	37.45
653.55	56.17
653.70	70.22
653.84	138.09
653.99	14.04
654.13	53.83
654.27	0.00
654.42	16.38
654.56	77.24
654.71	107.66
654.85	60.85
655.00	74.90
655.14	128.73
655.29	0.00
655.43	93.62
655.57	51.49
655.72	30.43
655.86	16.38
656.01	37.45
656.15	42.13
656.30	25.75
656.44	39.79
656.58	91.28
656.73	42.13
656.87	0.00
657.01	102.98
657.16	14.04
657.30	46.81
657.45	30.43
657.59	11.70
657.73	56.17
657.88	32.77
658.02	74.90
658.16	74.90
658.31	2.34
658.45	51.49
658.60	88.94
658.74	79.58
658.88	70.22
659.03	124.05
659.17	37.45
659.31	72.56
659.46	18.72
659.60	79.58
659.74	4.68
659.89	30.43
660.03	58.51
660.17	72.56
660.32	60.85
660.46	7.02
660.60	42.13
660.74	98.30
660.89	53.83
661.03	32.77
661.17	79.58
661.32	67.88
661.46	65.54
661.60	70.22
661.74	65.54
661.89	37.45
662.03	18.72
662.17	46.81
662.31	0.00
662.46	14.04
662.60	51.49
662.74	30.43
662.88	114.69
663.03	60.85
663.17	49.15
663.31	74.90
663.45	51.49
663.60	65.54
663.74	79.58
663.88	60.85
664.02	39.79
664.17	16.38
664.31	44.47
664.45	91.28
664.59	42.13
664.73	93.62
664.88	81.92
665.02	28.09
665.16	117.03
665.30	145.11
665.44	11.70
665.59	53.83
665.73	0.00
665.87	72.56
666.01	70.22
666.15	72.56
666.29	65.54
666.44	124.05
666.58	81.92
666.72	23.41
666.86	37.45
667.00	37.45
667.14	11.70
667.28	9.36
667.43	72.56
667.57	4.68
667.71	88.94
667.85	51.49
667.99	74.90
668.13	21.06
668.27	58.51
668.41	65.54
668.56	70.22
668.70	32.77
668.84	58.51
668.98	81.92
669.12	35.11
669.26	58.51
669.40	95.96
669.54	100.64
669.68	128.73
669.82	44.47
669.96	7.02
670.10	95.96
670.25	25.75
670.39	88.94
670.53	58.51
670.67	30.43
670.81	110.01
670.95	7.02
671.09	30.43
671.23	14.04
671.37	53.83
671.51	77.24
671.65	51.49
671.79	16.38
671.93	67.88
672.07	112.35
672.21	100.64
672.35	46.81
672.49	7.02
672.63	21.06
672.77	60.85
672.91	11.70
673.05	46.81
673.19	32.77
673.33	30.43
673.47	35.11
673.61	98.30
673.75	60.85
673.89	114.69
674.03	72.56
674.17	81.92
674.31	35.11
674.45	77.24
674.59	91.28
674.73	42.13
674.87	0.00
675.01	95.96
675.15	42.13
675.29	16.38
675.43	42.13
675.56	0.00
675.70	21.06
675.84	58.51
675.98	49.15
676.12	117.03
676.26	9.36
676.40	147.45
676.54	105.32
676.68	28.09
676.82	58.51
676.96	88.94
677.10	65.54
677.23	30.43
677.37	70.22
677.51	0.00
677.65	42.13
677.79	51.49
677.93	35.11
678.07	7.02
678.21	32.77
678.34	42.13
678.48	74.90
678.62	39.79
678.76	119.37
678.90	9.36
679.04	60.85
679.18	121.71
679.31	84.26
679.45	4.68
679.59	79.58
679.73	112.35
679.87	42.13
680.00	23.41
680.14	133.41
680.28	0.00
680.42	37.45
680.56	0.00
680.70	0.00
680.83	79.58
680.97	105.32
681.11	39.79
681.25	18.72
681.39	102.98
681.52	28.09
681.66	65.54
681.80	102.98
681.94	81.92
682.07	51.49
682.21	42.13
682.35	0.00
682.49	18.72
682.62	81.92
682.76	25.75
682.90	23.41
683.04	42.13
683.17	23.41
683.31	42.13
683.45	18.72
683.59	23.41
683.72	84.26
683.86	72.56
684.00	42.13
684.13	126.39
684.27	70.22
684.41	28.09
684.55	28.09
684.68	65.54
684.82	95.96
684.96	23.41
685.09	88.94
685.23	0.00
685.37	37.45
685.50	42.13
685.64	35.11
685.78	32.77
685.91	14.04
686.05	42.13
686.19	16.38
686.32	49.15
686.46	39.79
686.60	42.13
686.73	4.68
686.87	39.79
687.01	0.00
687.14	63.19
687.28	25.75
687.42	4.68
687.55	0.00
687.69	0.00
687.82	49.15
687.96	0.00
688.10	44.47
688.23	42.13
688.37	0.00
688.50	30.43
688.64	11.70
688.78	95.96
688.91	56.17
689.05	0.00
689.18	72.56
689.32	2.34
689.46	21.06
689.59	7.02
689.73	0.00
689.86	53.83
690.00	65.54
690.13	56.17
690.27	72.56
690.41	56.17
690.54	70.22
690.68	39.79
690.81	74.90
690.95	30.43
691.08	42.13
691.22	23.41
691.35	93.62
691.49	105.32
691.62	16.38
691.76	9.36
691.89	0.00
692.03	39.79
692.16	21.06
692.30	0.00
692.43	32.77
692.57	7.02
692.70	0.00
692.84	0.00
692.97	23.41
693.11	37.45
693.24	72.56
693.38	65.54
693.51	25.75
693.65	0.00
693.78	35.11
693.92	4.68
694.05	35.11
694.19	53.83
694.32	4.68
694.45	0.00
694.59	7.02
694.72	0.00
694.86	37.45
694.99	44.47
695.13	51.49
695.26	7.02
695.39	28.09
695.53	110.01
695.66	0.00
695.80	86.60
695.93	53.83
696.07	63.19
696.20	0.00
696.33	74.90
696.47	0.00
696.60	56.17
696.73	0.00
696.87	105.32
697.00	37.45
697.14	0.00
697.27	107.66
697.40	81.92
697.54	39.79
697.67	0.00
697.80	53.83
697.94	0.00
698.07	0.00
698.21	46.81
698.34	51.49
698.47	58.51
698.61	37.45
698.74	25.75
698.87	0.00
699.01	63.19
699.14	77.24
699.27	0.00
699.40	60.85
699.54	0.00
699.67	39.79
699.80	84.26
699.94	16.38
700.07	9.36
700.20	67.88
700.34	63.19
700.47	0.00
700.60	23.41
700.73	7.02
700.87	35.11
701.00	100.64
701.13	81.92
701.26	14.04
701.40	51.49
701.53	0.00
701.66	67.88
701.79	0.00
701.93	23.41
702.06	0.00
702.19	42.13
702.32	11.70
702.46	63.19
702.59	86.60
702.72	81.92
702.85	0.00
702.99	95.96
703.12	0.00
703.25	0.00
703.38	23.41
703.51	35.11
703.65	60.85
703.78	4.68
703.91	0.00
704.04	23.41
704.17	74.90
704.31	16.38
704.44	37.45
704.57	28.09
704.70	16.38
704.83	74.90
704.96	21.06
705.10	11.70
705.23	16.38
>>>>>End Processed Spectral Data<<<<<
