SpectraSuite Data File
++++++++++++++++++++++++++++++++++++
Date: Fri Oct 04 12:13:30 GMT-05:00 2013
User: price-jones
Dark Spectrum Present: No
Reference Spectrum Present: No
Number of Sampled Component Spectra: 1
Spectrometers: USB2+H05261
Integration Time (usec): 10000 (USB2+H05261)
Spectra Averaged: 1 (USB2+H05261)
Boxcar Smoothing: 0 (USB2+H05261)
Correct for Electrical Dark: No (USB2+H05261)
Strobe/Lamp Enabled: No (USB2+H05261)
Correct for Detector Non-linearity: No (USB2+H05261)
Correct for Stray Light: No (USB2+H05261)
Number of Pixels in Processed Spectrum: 2048
>>>>>Begin Processed Spectral Data<<<<<
365.73	11.70
365.92	11.70
366.12	11.70
366.32	0.00
366.52	0.00
366.72	0.00
366.91	0.00
367.11	0.00
367.31	0.00
367.51	0.00
367.70	0.00
367.90	0.00
368.10	0.00
368.30	0.00
368.49	0.00
368.69	0.00
368.89	0.00
369.09	0.00
369.28	0.00
369.48	0.00
369.68	0.00
369.87	0.00
370.07	0.00
370.27	0.00
370.47	0.00
370.66	0.00
370.86	0.00
371.06	0.00
371.25	0.00
371.45	42.13
371.65	0.00
371.84	14.04
372.04	16.38
372.24	23.41
372.44	0.00
372.63	0.00
372.83	28.09
373.03	32.77
373.22	51.49
373.42	21.06
373.62	21.06
373.81	70.22
374.01	11.70
374.21	63.19
374.40	23.41
374.60	51.49
374.79	70.22
374.99	88.94
375.19	98.30
375.38	0.00
375.58	0.00
375.78	72.56
375.97	7.02
376.17	138.09
376.37	30.43
376.56	0.00
376.76	128.73
376.95	37.45
377.15	63.19
377.35	39.79
377.54	56.17
377.74	21.06
377.93	16.38
378.13	0.00
378.33	44.47
378.52	2.34
378.72	65.54
378.91	0.00
379.11	58.51
379.31	0.00
379.50	37.45
379.70	23.41
379.89	9.36
380.09	42.13
380.28	0.00
380.48	88.94
380.68	4.68
380.87	11.70
381.07	42.13
381.26	18.72
381.46	49.15
381.65	39.79
381.85	0.00
382.04	0.00
382.24	0.00
382.43	23.41
382.63	0.00
382.83	16.38
383.02	0.00
383.22	46.81
383.41	0.00
383.61	63.19
383.80	0.00
384.00	0.00
384.19	0.00
384.39	14.04
384.58	0.00
384.78	0.00
384.97	9.36
385.17	4.68
385.36	30.43
385.56	11.70
385.75	9.36
385.95	0.00
386.14	0.00
386.34	0.00
386.53	72.56
386.72	0.00
386.92	65.54
387.11	4.68
387.31	84.26
387.50	81.92
387.70	0.00
387.89	18.72
388.09	2.34
388.28	11.70
388.48	0.00
388.67	16.38
388.86	0.00
389.06	58.51
389.25	11.70
389.45	25.75
389.64	39.79
389.84	18.72
390.03	18.72
390.22	42.13
390.42	63.19
390.61	0.00
390.81	2.34
391.00	11.70
391.19	28.09
391.39	0.00
391.58	49.15
391.78	2.34
391.97	53.83
392.16	0.00
392.36	0.00
392.55	39.79
392.75	18.72
392.94	0.00
393.13	30.43
393.33	42.13
393.52	0.00
393.71	30.43
393.91	0.00
394.10	4.68
394.29	28.09
394.49	0.00
394.68	30.43
394.88	39.79
395.07	74.90
395.26	0.00
395.46	21.06
395.65	16.38
395.84	0.00
396.04	25.75
396.23	0.00
396.42	0.00
396.62	0.00
396.81	63.19
397.00	28.09
397.19	16.38
397.39	0.00
397.58	0.00
397.77	28.09
397.97	60.85
398.16	2.34
398.35	0.00
398.55	72.56
398.74	0.00
398.93	37.45
399.12	11.70
399.32	0.00
399.51	2.34
399.70	23.41
399.90	0.00
400.09	0.00
400.28	23.41
400.47	0.00
400.67	30.43
400.86	0.00
401.05	0.00
401.24	49.15
401.44	51.49
401.63	32.77
401.82	7.02
402.01	0.00
402.21	0.00
402.40	0.00
402.59	53.83
402.78	11.70
402.97	9.36
403.17	23.41
403.36	0.00
403.55	30.43
403.74	44.47
403.93	30.43
404.13	70.22
404.32	95.96
404.51	0.00
404.70	0.00
404.89	51.49
405.09	67.88
405.28	42.13
405.47	18.72
405.66	0.00
405.85	23.41
406.05	42.13
406.24	39.79
406.43	9.36
406.62	65.54
406.81	44.47
407.00	2.34
407.20	93.62
407.39	39.79
407.58	53.83
407.77	0.00
407.96	30.43
408.15	0.00
408.34	37.45
408.54	0.00
408.73	9.36
408.92	23.41
409.11	95.96
409.30	51.49
409.49	21.06
409.68	25.75
409.87	21.06
410.07	42.13
410.26	93.62
410.45	35.11
410.64	37.45
410.83	4.68
411.02	112.35
411.21	9.36
411.40	30.43
411.59	39.79
411.78	14.04
411.98	35.11
412.17	14.04
412.36	53.83
412.55	7.02
412.74	30.43
412.93	46.81
413.12	37.45
413.31	7.02
413.50	0.00
413.69	58.51
413.88	39.79
414.07	0.00
414.26	37.45
414.45	0.00
414.64	60.85
414.83	2.34
415.02	84.26
415.22	25.75
415.41	42.13
415.60	0.00
415.79	72.56
415.98	88.94
416.17	0.00
416.36	42.13
416.55	63.19
416.74	72.56
416.93	30.43
417.12	49.15
417.31	100.64
417.50	42.13
417.69	51.49
417.88	39.79
418.07	28.09
418.26	0.00
418.45	0.00
418.64	46.81
418.83	0.00
419.02	56.17
419.21	56.17
419.39	14.04
419.58	21.06
419.77	58.51
419.96	63.19
420.15	88.94
420.34	44.47
420.53	30.43
420.72	74.90
420.91	51.49
421.10	70.22
421.29	51.49
421.48	0.00
421.67	16.38
421.86	9.36
422.05	65.54
422.24	16.38
422.43	16.38
422.61	32.77
422.80	53.83
422.99	39.79
423.18	58.51
423.37	67.88
423.56	72.56
423.75	105.32
423.94	28.09
424.13	14.04
424.32	30.43
424.50	51.49
424.69	21.06
424.88	0.00
425.07	56.17
425.26	25.75
425.45	81.92
425.64	39.79
425.83	37.45
426.01	0.00
426.20	44.47
426.39	58.51
426.58	16.38
426.77	67.88
426.96	28.09
427.15	21.06
427.33	32.77
427.52	84.26
427.71	16.38
427.90	2.34
428.09	32.77
428.28	9.36
428.46	65.54
428.65	2.34
428.84	7.02
429.03	21.06
429.22	0.00
429.40	42.13
429.59	37.45
429.78	14.04
429.97	18.72
430.16	63.19
430.34	74.90
430.53	21.06
430.72	51.49
430.91	46.81
431.10	81.92
431.28	7.02
431.47	28.09
431.66	51.49
431.85	9.36
432.03	30.43
432.22	63.19
432.41	0.00
432.60	23.41
432.79	70.22
432.97	107.66
433.16	39.79
433.35	39.79
433.54	21.06
433.72	18.72
433.91	56.17
434.10	0.00
434.28	4.68
434.47	14.04
434.66	49.15
434.85	63.19
435.03	18.72
435.22	49.15
435.41	86.60
435.59	95.96
435.78	0.00
435.97	39.79
436.16	42.13
436.34	18.72
436.53	72.56
436.72	23.41
436.90	79.58
437.09	28.09
437.28	30.43
437.46	49.15
437.65	0.00
437.84	0.00
438.02	58.51
438.21	49.15
438.40	0.00
438.58	0.00
438.77	100.64
438.96	0.00
439.14	67.88
439.33	0.00
439.52	16.38
439.70	107.66
439.89	16.38
440.08	11.70
440.26	42.13
440.45	74.90
440.63	86.60
440.82	28.09
441.01	39.79
441.19	0.00
441.38	30.43
441.57	0.00
441.75	70.22
441.94	21.06
442.12	42.13
442.31	0.00
442.50	21.06
442.68	65.54
442.87	79.58
443.05	2.34
443.24	58.51
443.43	39.79
443.61	65.54
443.80	2.34
443.98	0.00
444.17	25.75
444.35	35.11
444.54	0.00
444.73	35.11
444.91	145.11
445.10	79.58
445.28	0.00
445.47	2.34
445.65	35.11
445.84	63.19
446.02	0.00
446.21	60.85
446.39	0.00
446.58	70.22
446.77	42.13
446.95	30.43
447.14	23.41
447.32	11.70
447.51	74.90
447.69	30.43
447.88	25.75
448.06	0.00
448.25	110.01
448.43	53.83
448.62	42.13
448.80	0.00
448.99	74.90
449.17	0.00
449.36	2.34
449.54	74.90
449.73	67.88
449.91	46.81
450.10	37.45
450.28	16.38
450.46	0.00
450.65	51.49
450.83	0.00
451.02	2.34
451.20	0.00
451.39	16.38
451.57	21.06
451.76	56.17
451.94	0.00
452.13	11.70
452.31	65.54
452.49	84.26
452.68	25.75
452.86	37.45
453.05	53.83
453.23	42.13
453.42	14.04
453.60	11.70
453.78	0.00
453.97	35.11
454.15	81.92
454.34	11.70
454.52	7.02
454.70	37.45
454.89	28.09
455.07	4.68
455.26	39.79
455.44	16.38
455.62	9.36
455.81	23.41
455.99	86.60
456.17	60.85
456.36	0.00
456.54	0.00
456.73	0.00
456.91	35.11
457.09	65.54
457.28	32.77
457.46	9.36
457.64	0.00
457.83	0.00
458.01	0.00
458.19	65.54
458.38	21.06
458.56	37.45
458.74	39.79
458.93	0.00
459.11	49.15
459.29	37.45
459.48	0.00
459.66	51.49
459.84	14.04
460.03	44.47
460.21	25.75
460.39	0.00
460.57	9.36
460.76	11.70
460.94	84.26
461.12	37.45
461.31	14.04
461.49	0.00
461.67	44.47
461.85	88.94
462.04	39.79
462.22	81.92
462.40	42.13
462.59	21.06
462.77	63.19
462.95	56.17
463.13	0.00
463.32	53.83
463.50	77.24
463.68	44.47
463.86	60.85
464.05	58.51
464.23	25.75
464.41	107.66
464.59	70.22
464.78	53.83
464.96	37.45
465.14	65.54
465.32	51.49
465.50	53.83
465.69	84.26
465.87	58.51
466.05	42.13
466.23	100.64
466.41	91.28
466.60	7.02
466.78	46.81
466.96	46.81
467.14	56.17
467.32	58.51
467.51	14.04
467.69	37.45
467.87	44.47
468.05	11.70
468.23	9.36
468.41	60.85
468.60	28.09
468.78	0.00
468.96	53.83
469.14	11.70
469.32	51.49
469.50	72.56
469.69	0.00
469.87	60.85
470.05	0.00
470.23	16.38
470.41	28.09
470.59	21.06
470.77	23.41
470.95	28.09
471.14	35.11
471.32	25.75
471.50	79.58
471.68	60.85
471.86	51.49
472.04	23.41
472.22	60.85
472.40	32.77
472.58	0.00
472.77	23.41
472.95	30.43
473.13	56.17
473.31	7.02
473.49	46.81
473.67	86.60
473.85	4.68
474.03	32.77
474.21	39.79
474.39	32.77
474.57	65.54
474.75	53.83
474.93	11.70
475.12	9.36
475.30	60.85
475.48	0.00
475.66	32.77
475.84	25.75
476.02	72.56
476.20	11.70
476.38	140.43
476.56	65.54
476.74	70.22
476.92	49.15
477.10	0.00
477.28	0.00
477.46	49.15
477.64	0.00
477.82	0.00
478.00	65.54
478.18	4.68
478.36	0.00
478.54	28.09
478.72	2.34
478.90	2.34
479.08	58.51
479.26	77.24
479.44	42.13
479.62	0.00
479.80	25.75
479.98	0.00
480.16	53.83
480.34	32.77
480.52	9.36
480.70	65.54
480.88	9.36
481.06	0.00
481.24	25.75
481.41	28.09
481.59	93.62
481.77	77.24
481.95	42.13
482.13	74.90
482.31	39.79
482.49	65.54
482.67	49.15
482.85	0.00
483.03	79.58
483.21	28.09
483.39	0.00
483.57	39.79
483.74	11.70
483.92	23.41
484.10	0.00
484.28	0.00
484.46	51.49
484.64	81.92
484.82	60.85
485.00	30.43
485.18	98.30
485.35	0.00
485.53	32.77
485.71	32.77
485.89	7.02
486.07	7.02
486.25	23.41
486.43	7.02
486.61	49.15
486.78	0.00
486.96	23.41
487.14	4.68
487.32	37.45
487.50	79.58
487.68	25.75
487.85	0.00
488.03	49.15
488.21	7.02
488.39	49.15
488.57	46.81
488.75	0.00
488.92	102.98
489.10	0.00
489.28	72.56
489.46	72.56
489.64	51.49
489.81	18.72
489.99	79.58
490.17	53.83
490.35	44.47
490.53	0.00
490.70	46.81
490.88	0.00
491.06	18.72
491.24	4.68
491.41	86.60
491.59	0.00
491.77	25.75
491.95	51.49
492.13	67.88
492.30	32.77
492.48	0.00
492.66	0.00
492.84	44.47
493.01	53.83
493.19	32.77
493.37	11.70
493.54	23.41
493.72	14.04
493.90	86.60
494.08	63.19
494.25	53.83
494.43	63.19
494.61	0.00
494.79	63.19
494.96	28.09
495.14	119.37
495.32	49.15
495.49	44.47
495.67	28.09
495.85	0.00
496.02	70.22
496.20	74.90
496.38	21.06
496.55	0.00
496.73	9.36
496.91	23.41
497.09	63.19
497.26	39.79
497.44	28.09
497.62	4.68
497.79	23.41
497.97	93.62
498.14	86.60
498.32	14.04
498.50	28.09
498.67	0.00
498.85	46.81
499.03	119.37
499.20	7.02
499.38	84.26
499.56	77.24
499.73	35.11
499.91	0.00
500.08	79.58
500.26	58.51
500.44	4.68
500.61	107.66
500.79	72.56
500.97	0.00
501.14	0.00
501.32	65.54
501.49	23.41
501.67	0.00
501.84	51.49
502.02	39.79
502.20	0.00
502.37	46.81
502.55	14.04
502.72	37.45
502.90	93.62
503.07	18.72
503.25	44.47
503.43	60.85
503.60	25.75
503.78	51.49
503.95	42.13
504.13	56.17
504.30	39.79
504.48	9.36
504.65	105.32
504.83	98.30
505.01	16.38
505.18	0.00
505.36	39.79
505.53	28.09
505.71	18.72
505.88	49.15
506.06	56.17
506.23	7.02
506.41	0.00
506.58	39.79
506.76	4.68
506.93	7.02
507.11	39.79
507.28	93.62
507.46	51.49
507.63	4.68
507.81	21.06
507.98	0.00
508.16	37.45
508.33	70.22
508.50	37.45
508.68	9.36
508.85	46.81
509.03	4.68
509.20	0.00
509.38	91.28
509.55	16.38
509.73	0.00
509.90	18.72
510.08	56.17
510.25	107.66
510.42	86.60
510.60	18.72
510.77	72.56
510.95	70.22
511.12	44.47
511.30	18.72
511.47	91.28
511.64	67.88
511.82	67.88
511.99	7.02
512.17	70.22
512.34	93.62
512.51	112.35
512.69	37.45
512.86	51.49
513.04	39.79
513.21	70.22
513.38	21.06
513.56	0.00
513.73	102.98
513.90	0.00
514.08	4.68
514.25	0.00
514.43	86.60
514.60	49.15
514.77	21.06
514.95	28.09
515.12	100.64
515.29	18.72
515.47	51.49
515.64	98.30
515.81	88.94
515.99	16.38
516.16	11.70
516.33	74.90
516.51	28.09
516.68	86.60
516.85	37.45
517.03	42.13
517.20	98.30
517.37	65.54
517.54	58.51
517.72	72.56
517.89	9.36
518.06	44.47
518.24	25.75
518.41	86.60
518.58	74.90
518.75	0.00
518.93	42.13
519.10	32.77
519.27	4.68
519.45	42.13
519.62	152.13
519.79	44.47
519.96	35.11
520.14	11.70
520.31	49.15
520.48	16.38
520.65	49.15
520.83	32.77
521.00	28.09
521.17	81.92
521.34	0.00
521.52	51.49
521.69	32.77
521.86	77.24
522.03	14.04
522.20	0.00
522.38	65.54
522.55	51.49
522.72	18.72
522.89	79.58
523.07	124.05
523.24	0.00
523.41	25.75
523.58	95.96
523.75	70.22
523.92	4.68
524.10	53.83
524.27	84.26
524.44	86.60
524.61	63.19
524.78	35.11
524.96	11.70
525.13	35.11
525.30	49.15
525.47	4.68
525.64	53.83
525.81	32.77
525.98	58.51
526.16	32.77
526.33	21.06
526.50	42.13
526.67	79.58
526.84	65.54
527.01	18.72
527.18	32.77
527.36	0.00
527.53	0.00
527.70	70.22
527.87	56.17
528.04	70.22
528.21	77.24
528.38	58.51
528.55	39.79
528.72	30.43
528.89	14.04
529.07	25.75
529.24	70.22
529.41	93.62
529.58	0.00
529.75	9.36
529.92	0.00
530.09	46.81
530.26	60.85
530.43	42.13
530.60	119.37
530.77	0.00
530.94	65.54
531.11	58.51
531.28	11.70
531.46	0.00
531.63	28.09
531.80	77.24
531.97	0.00
532.14	105.32
532.31	4.68
532.48	79.58
532.65	0.00
532.82	0.00
532.99	88.94
533.16	37.45
533.33	39.79
533.50	46.81
533.67	28.09
533.84	18.72
534.01	67.88
534.18	25.75
534.35	37.45
534.52	72.56
534.69	23.41
534.86	35.11
535.03	44.47
535.20	88.94
535.37	25.75
535.54	0.00
535.71	39.79
535.88	37.45
536.05	44.47
536.22	53.83
536.38	28.09
536.55	18.72
536.72	35.11
536.89	44.47
537.06	21.06
537.23	30.43
537.40	86.60
537.57	49.15
537.74	2.34
537.91	0.00
538.08	32.77
538.25	0.00
538.42	25.75
538.59	81.92
538.75	30.43
538.92	25.75
539.09	72.56
539.26	65.54
539.43	32.77
539.60	39.79
539.77	60.85
539.94	107.66
540.11	67.88
540.28	67.88
540.44	81.92
540.61	53.83
540.78	32.77
540.95	32.77
541.12	37.45
541.29	56.17
541.46	16.38
541.62	70.22
541.79	7.02
541.96	0.00
542.13	16.38
542.30	112.35
542.47	0.00
542.63	70.22
542.80	37.45
542.97	32.77
543.14	0.00
543.31	49.15
543.48	37.45
543.64	67.88
543.81	84.26
543.98	7.02
544.15	39.79
544.32	39.79
544.48	51.49
544.65	28.09
544.82	105.32
544.99	74.90
545.16	60.85
545.32	58.51
545.49	67.88
545.66	37.45
545.83	100.64
546.00	9.36
546.16	72.56
546.33	0.00
546.50	0.00
546.67	9.36
546.83	60.85
547.00	0.00
547.17	21.06
547.34	35.11
547.50	72.56
547.67	53.83
547.84	0.00
548.00	9.36
548.17	0.00
548.34	46.81
548.51	51.49
548.67	147.45
548.84	35.11
549.01	91.28
549.18	65.54
549.34	58.51
549.51	25.75
549.68	88.94
549.84	0.00
550.01	0.00
550.18	0.00
550.34	0.00
550.51	0.00
550.68	79.58
550.84	21.06
551.01	44.47
551.18	105.32
551.34	63.19
551.51	4.68
551.68	65.54
551.84	28.09
552.01	74.90
552.18	53.83
552.34	84.26
552.51	74.90
552.68	4.68
552.84	63.19
553.01	0.00
553.18	11.70
553.34	32.77
553.51	9.36
553.67	25.75
553.84	117.03
554.01	72.56
554.17	60.85
554.34	21.06
554.51	53.83
554.67	70.22
554.84	0.00
555.00	72.56
555.17	53.83
555.33	51.49
555.50	49.15
555.67	14.04
555.83	28.09
556.00	79.58
556.16	0.00
556.33	105.32
556.50	14.04
556.66	72.56
556.83	0.00
556.99	42.13
557.16	91.28
557.32	0.00
557.49	0.00
557.65	53.83
557.82	14.04
557.98	60.85
558.15	42.13
558.32	65.54
558.48	16.38
558.65	60.85
558.81	37.45
558.98	114.69
559.14	63.19
559.31	0.00
559.47	0.00
559.64	0.00
559.80	63.19
559.97	42.13
560.13	72.56
560.30	42.13
560.46	72.56
560.63	14.04
560.79	72.56
560.96	88.94
561.12	25.75
561.29	60.85
561.45	88.94
561.61	46.81
561.78	53.83
561.94	9.36
562.11	112.35
562.27	0.00
562.44	0.00
562.60	53.83
562.77	67.88
562.93	42.13
563.10	14.04
563.26	70.22
563.42	56.17
563.59	121.71
563.75	44.47
563.92	25.75
564.08	0.00
564.24	0.00
564.41	18.72
564.57	42.13
564.74	84.26
564.90	28.09
565.07	46.81
565.23	117.03
565.39	88.94
565.56	58.51
565.72	60.85
565.88	53.83
566.05	16.38
566.21	44.47
566.38	0.00
566.54	53.83
566.70	35.11
566.87	0.00
567.03	39.79
567.19	0.00
567.36	32.77
567.52	110.01
567.68	102.98
567.85	39.79
568.01	0.00
568.17	49.15
568.34	0.00
568.50	35.11
568.66	58.51
568.83	11.70
568.99	67.88
569.15	46.81
569.32	37.45
569.48	63.19
569.64	114.69
569.81	49.15
569.97	42.13
570.13	51.49
570.30	0.00
570.46	44.47
570.62	46.81
570.78	58.51
570.95	51.49
571.11	9.36
571.27	25.75
571.43	46.81
571.60	0.00
571.76	110.01
571.92	70.22
572.09	44.47
572.25	18.72
572.41	74.90
572.57	39.79
572.74	35.11
572.90	0.00
573.06	74.90
573.22	81.92
573.38	37.45
573.55	112.35
573.71	16.38
573.87	0.00
574.03	51.49
574.20	51.49
574.36	74.90
574.52	102.98
574.68	0.00
574.84	11.70
575.01	58.51
575.17	58.51
575.33	74.90
575.49	65.54
575.65	70.22
575.82	37.45
575.98	91.28
576.14	79.58
576.30	67.88
576.46	46.81
576.62	18.72
576.79	11.70
576.95	53.83
577.11	0.00
577.27	7.02
577.43	21.06
577.59	21.06
577.75	63.19
577.92	14.04
578.08	65.54
578.24	91.28
578.40	49.15
578.56	46.81
578.72	32.77
578.88	51.49
579.04	91.28
579.21	0.00
579.37	39.79
579.53	9.36
579.69	0.00
579.85	49.15
580.01	105.32
580.17	21.06
580.33	0.00
580.49	56.17
580.65	30.43
580.82	4.68
580.98	42.13
581.14	49.15
581.30	25.75
581.46	81.92
581.62	49.15
581.78	60.85
581.94	53.83
582.10	46.81
582.26	72.56
582.42	79.58
582.58	77.24
582.74	88.94
582.90	81.92
583.06	28.09
583.22	28.09
583.38	23.41
583.54	72.56
583.70	91.28
583.86	23.41
584.02	39.79
584.18	42.13
584.34	72.56
584.50	222.35
584.66	1167.93
584.82	2874.18
584.98	4063.17
585.14	3581.02
585.30	2293.72
585.46	1444.11
585.62	891.74
585.78	458.74
585.94	131.07
586.10	119.37
586.26	39.79
586.42	0.00
586.58	25.75
586.74	30.43
586.90	98.30
587.06	37.45
587.22	110.01
587.38	56.17
587.54	161.50
587.70	166.18
587.86	297.25
588.02	374.49
588.18	229.37
588.34	191.92
588.49	198.95
588.65	91.28
588.81	9.36
588.97	86.60
589.13	86.60
589.29	25.75
589.45	58.51
589.61	84.26
589.77	11.70
589.93	70.22
590.08	72.56
590.24	16.38
590.40	105.32
590.56	67.88
590.72	112.35
590.88	14.04
591.04	18.72
591.20	74.90
591.35	72.56
591.51	84.26
591.67	53.83
591.83	0.00
591.99	53.83
592.15	0.00
592.31	60.85
592.46	21.06
592.62	56.17
592.78	18.72
592.94	107.66
593.10	18.72
593.26	93.62
593.41	0.00
593.57	74.90
593.73	126.39
593.89	180.22
594.05	306.61
594.20	521.94
594.36	465.77
594.52	374.49
594.68	306.61
594.84	147.45
594.99	124.05
595.15	140.43
595.31	32.77
595.47	88.94
595.62	0.00
595.78	56.17
595.94	37.45
596.10	86.60
596.25	42.13
596.41	46.81
596.57	91.28
596.73	28.09
596.88	0.00
597.04	77.24
597.20	191.92
597.36	114.69
597.51	107.66
597.67	72.56
597.83	100.64
597.99	46.81
598.14	42.13
598.30	39.79
598.46	46.81
598.61	63.19
598.77	39.79
598.93	37.45
599.09	23.41
599.24	4.68
599.40	0.00
599.56	0.00
599.71	63.19
599.87	28.09
600.03	16.38
600.18	60.85
600.34	35.11
600.50	0.00
600.65	56.17
600.81	2.34
600.97	32.77
601.12	11.70
601.28	56.17
601.44	28.09
601.59	128.73
601.75	2.34
601.91	37.45
602.06	77.24
602.22	126.39
602.37	79.58
602.53	161.50
602.69	107.66
602.84	166.18
603.00	102.98
603.16	112.35
603.31	39.79
603.47	14.04
603.62	70.22
603.78	49.15
603.94	72.56
604.09	18.72
604.25	7.02
604.40	81.92
604.56	72.56
604.71	51.49
604.87	63.19
605.03	98.30
605.18	42.13
605.34	63.19
605.49	30.43
605.65	32.77
605.80	58.51
605.96	46.81
606.12	39.79
606.27	53.83
606.43	9.36
606.58	124.05
606.74	168.52
606.89	231.71
607.05	404.91
607.20	416.62
607.36	381.51
607.51	243.42
607.67	175.54
607.82	84.26
607.98	84.26
608.13	100.64
608.29	72.56
608.44	86.60
608.60	58.51
608.75	32.77
608.91	152.13
609.06	322.99
609.22	627.26
609.37	844.93
609.53	653.01
609.68	465.77
609.84	273.84
609.99	248.10
610.15	145.11
610.30	72.56
610.46	86.60
610.61	18.72
610.76	0.00
610.92	51.49
611.07	23.41
611.23	25.75
611.38	58.51
611.54	0.00
611.69	0.00
611.84	77.24
612.00	145.11
612.15	74.90
612.31	30.43
612.46	63.19
612.62	56.17
612.77	56.17
612.92	30.43
613.08	93.62
613.23	114.69
613.39	98.30
613.54	100.64
613.69	367.46
613.85	826.21
614.00	1184.31
614.15	1270.91
614.31	908.13
614.46	561.73
614.62	421.30
614.77	304.27
614.92	88.94
615.08	49.15
615.23	72.56
615.38	0.00
615.54	44.47
615.69	11.70
615.84	128.73
616.00	276.18
616.15	358.10
616.30	234.05
616.46	248.10
616.61	121.71
616.76	110.01
616.92	81.92
617.07	58.51
617.22	79.58
617.37	84.26
617.53	32.77
617.68	77.24
617.83	35.11
617.99	70.22
618.14	0.00
618.29	28.09
618.45	0.00
618.60	84.26
618.75	51.49
618.90	23.41
619.06	18.72
619.21	37.45
619.36	0.00
619.51	7.02
619.67	51.49
619.82	93.62
619.97	23.41
620.12	65.54
620.28	42.13
620.43	25.75
620.58	102.98
620.73	7.02
620.89	131.07
621.04	16.38
621.19	119.37
621.34	210.65
621.49	217.67
621.65	224.69
621.80	149.79
621.95	117.03
622.10	72.56
622.25	46.81
622.41	77.24
622.56	14.04
622.71	28.09
622.86	32.77
623.01	56.17
623.16	44.47
623.32	0.00
623.47	28.09
623.62	56.17
623.77	0.00
623.92	70.22
624.07	25.75
624.23	18.72
624.38	37.45
624.53	56.17
624.68	28.09
624.83	53.83
624.98	100.64
625.13	0.00
625.29	9.36
625.44	49.15
625.59	70.22
625.74	0.00
625.89	49.15
626.04	180.22
626.19	348.74
626.34	582.79
626.49	617.90
626.65	472.79
626.80	358.10
626.95	201.29
627.10	175.54
627.25	110.01
627.40	21.06
627.55	53.83
627.70	72.56
627.85	49.15
628.00	121.71
628.15	32.77
628.30	2.34
628.45	0.00
628.60	0.00
628.76	74.90
628.91	0.00
629.06	44.47
629.21	25.75
629.36	0.00
629.51	11.70
629.66	4.68
629.81	18.72
629.96	107.66
630.11	191.92
630.26	217.67
630.41	128.73
630.56	135.75
630.71	142.77
630.86	121.71
631.01	9.36
631.16	0.00
631.31	74.90
631.46	77.24
631.61	60.85
631.76	28.09
631.91	28.09
632.06	49.15
632.21	25.75
632.36	28.09
632.51	37.45
632.66	74.90
632.81	81.92
632.96	285.55
633.10	395.55
633.25	503.22
633.40	433.00
633.55	308.95
633.70	194.26
633.85	138.09
634.00	84.26
634.15	51.49
634.30	32.77
634.45	0.00
634.60	0.00
634.75	39.79
634.90	91.28
635.05	0.00
635.19	65.54
635.34	30.43
635.49	16.38
635.64	46.81
635.79	39.79
635.94	23.41
636.09	91.28
636.24	28.09
636.39	21.06
636.53	74.90
636.68	37.45
636.83	21.06
636.98	60.85
637.13	53.83
637.28	79.58
637.43	0.00
637.57	63.19
637.72	212.99
637.87	465.77
638.02	734.93
638.17	835.57
638.32	596.84
638.46	440.02
638.61	285.55
638.76	177.88
638.91	135.75
639.06	98.30
639.20	100.64
639.35	51.49
639.50	60.85
639.65	297.25
639.80	765.36
639.94	1128.14
640.09	1254.53
640.24	950.26
640.39	702.16
640.54	489.17
640.68	290.23
640.83	177.88
640.98	46.81
641.13	51.49
641.27	23.41
641.42	35.11
641.57	37.45
641.72	79.58
641.86	70.22
642.01	32.77
642.16	98.30
642.31	100.64
642.45	131.07
642.60	49.15
642.75	25.75
642.90	16.38
643.04	16.38
643.19	32.77
643.34	23.41
643.48	63.19
643.63	18.72
643.78	30.43
643.93	100.64
644.07	35.11
644.22	49.15
644.37	0.00
644.51	25.75
644.66	79.58
644.81	2.34
644.95	60.85
645.10	11.70
645.25	23.41
645.39	102.98
645.54	58.51
645.69	86.60
645.83	119.37
645.98	60.85
646.13	28.09
646.27	4.68
646.42	53.83
646.57	16.38
646.71	81.92
646.86	42.13
647.00	37.45
647.15	21.06
647.30	11.70
647.44	39.79
647.59	25.75
647.74	0.00
647.88	81.92
648.03	35.11
648.17	91.28
648.32	149.79
648.47	30.43
648.61	112.35
648.76	14.04
648.90	65.54
649.05	4.68
649.20	0.00
649.34	46.81
649.49	51.49
649.63	67.88
649.78	46.81
649.92	32.77
650.07	145.11
650.21	374.49
650.36	585.13
650.51	657.69
650.65	554.71
650.80	388.53
650.94	334.70
651.09	142.77
651.23	166.18
651.38	77.24
651.52	140.43
651.67	9.36
651.81	65.54
651.96	60.85
652.10	21.06
652.25	0.00
652.39	67.88
652.54	0.00
652.68	112.35
652.83	182.56
652.97	273.84
653.12	241.08
653.26	287.89
653.41	159.16
653.55	114.69
653.70	112.35
653.84	72.56
653.99	39.79
654.13	28.09
654.27	88.94
654.42	44.47
654.56	98.30
654.71	51.49
654.85	32.77
655.00	35.11
655.14	39.79
655.29	65.54
655.43	25.75
655.57	0.00
655.72	44.47
655.86	0.00
656.01	0.00
656.15	0.00
656.30	9.36
656.44	25.75
656.58	46.81
656.73	28.09
656.87	11.70
657.01	42.13
657.16	46.81
657.30	28.09
657.45	42.13
657.59	56.17
657.73	56.17
657.88	4.68
658.02	65.54
658.16	30.43
658.31	35.11
658.45	56.17
658.60	46.81
658.74	4.68
658.88	0.00
659.03	60.85
659.17	0.00
659.31	28.09
659.46	187.24
659.60	332.36
659.74	299.59
659.89	299.59
660.03	243.42
660.17	180.22
660.32	194.26
660.46	128.73
660.60	49.15
660.74	37.45
660.89	21.06
661.03	23.41
661.17	51.49
661.32	4.68
661.46	9.36
661.60	51.49
661.74	30.43
661.89	51.49
662.03	88.94
662.17	51.49
662.31	0.00
662.46	0.00
662.60	46.81
662.74	0.00
662.88	11.70
663.03	114.69
663.17	0.00
663.31	51.49
663.45	0.00
663.60	0.00
663.74	16.38
663.88	39.79
664.02	81.92
664.17	16.38
664.31	60.85
664.45	42.13
664.59	30.43
664.73	7.02
664.88	51.49
665.02	0.00
665.16	0.00
665.30	23.41
665.44	100.64
665.59	63.19
665.73	0.00
665.87	81.92
666.01	44.47
666.15	0.00
666.29	0.00
666.44	53.83
666.58	32.77
666.72	86.60
666.86	21.06
667.00	117.03
667.14	30.43
667.28	117.03
667.43	285.55
667.57	458.74
667.71	571.09
667.85	521.94
667.99	437.68
668.13	280.86
668.27	189.58
668.41	37.45
668.56	65.54
668.70	16.38
668.84	107.66
668.98	0.00
669.12	0.00
669.26	32.77
669.40	0.00
669.54	7.02
669.68	77.24
669.82	74.90
669.96	21.06
670.10	63.19
670.25	0.00
670.39	14.04
670.53	77.24
670.67	79.58
670.81	9.36
670.95	72.56
671.09	39.79
671.23	102.98
671.37	243.42
671.51	330.02
671.65	402.57
671.79	248.10
671.93	248.10
672.07	159.16
672.21	88.94
672.35	117.03
672.49	53.83
672.63	0.00
672.77	0.00
672.91	56.17
673.05	53.83
673.19	49.15
673.33	105.32
673.47	11.70
673.61	9.36
673.75	60.85
673.89	11.70
674.03	16.38
674.17	35.11
674.31	21.06
674.45	28.09
674.59	42.13
674.73	77.24
674.87	77.24
675.01	0.00
675.15	39.79
675.29	0.00
675.43	39.79
675.56	21.06
675.70	14.04
675.84	70.22
675.98	39.79
676.12	0.00
676.26	30.43
676.40	51.49
676.54	39.79
676.68	0.00
676.82	51.49
676.96	53.83
677.10	0.00
677.23	0.00
677.37	21.06
677.51	84.26
677.65	67.88
677.79	28.09
677.93	126.39
678.07	0.00
678.21	95.96
678.34	86.60
678.48	0.00
678.62	49.15
678.76	65.54
678.90	32.77
679.04	53.83
679.18	32.77
679.31	67.88
679.45	0.00
679.59	63.19
679.73	77.24
679.87	63.19
680.00	72.56
680.14	39.79
680.28	32.77
680.42	0.00
680.56	14.04
680.70	77.24
680.83	88.94
680.97	32.77
681.11	0.00
681.25	16.38
681.39	0.00
681.52	88.94
681.66	46.81
681.80	14.04
681.94	4.68
682.07	0.00
682.21	72.56
682.35	0.00
682.49	0.00
682.62	30.43
682.76	44.47
682.90	46.81
683.04	0.00
683.17	11.70
683.31	0.00
683.45	44.47
683.59	46.81
683.72	0.00
683.86	0.00
684.00	67.88
684.13	86.60
684.27	25.75
684.41	14.04
684.55	0.00
684.68	0.00
684.82	63.19
684.96	49.15
685.09	63.19
685.23	67.88
685.37	32.77
685.50	79.58
685.64	0.00
685.78	11.70
685.91	0.00
686.05	49.15
686.19	37.45
686.32	35.11
686.46	11.70
686.60	28.09
686.73	35.11
686.87	67.88
687.01	35.11
687.14	81.92
687.28	39.79
687.42	65.54
687.55	0.00
687.69	0.00
687.82	60.85
687.96	39.79
688.10	25.75
688.23	14.04
688.37	37.45
688.50	53.83
688.64	4.68
688.78	60.85
688.91	7.02
689.05	28.09
689.18	0.00
689.32	105.32
689.46	7.02
689.59	16.38
689.73	18.72
689.86	44.47
690.00	21.06
690.13	16.38
690.27	11.70
690.41	49.15
690.54	70.22
690.68	0.00
690.81	16.38
690.95	9.36
691.08	18.72
691.22	51.49
691.35	67.88
691.49	25.75
691.62	79.58
691.76	23.41
691.89	49.15
692.03	37.45
692.16	44.47
692.30	28.09
692.43	46.81
692.57	163.84
692.70	217.67
692.84	271.50
692.97	229.37
693.11	152.13
693.24	107.66
693.38	140.43
693.51	112.35
693.65	147.45
693.78	28.09
693.92	53.83
694.05	39.79
694.19	23.41
694.32	0.00
694.45	0.00
694.59	51.49
694.72	28.09
694.86	39.79
694.99	28.09
695.13	51.49
695.26	0.00
695.39	79.58
695.53	30.43
695.66	25.75
695.80	0.00
695.93	18.72
696.07	77.24
696.20	11.70
696.33	56.17
696.47	67.88
696.60	4.68
696.73	0.00
696.87	7.02
697.00	11.70
697.14	60.85
697.27	42.13
697.40	0.00
697.54	0.00
697.67	0.00
697.80	9.36
697.94	56.17
698.07	35.11
698.21	63.19
698.34	77.24
698.47	49.15
698.61	9.36
698.74	0.00
698.87	4.68
699.01	72.56
699.14	37.45
699.27	60.85
699.40	124.05
699.54	0.00
699.67	9.36
699.80	42.13
699.94	28.09
700.07	0.00
700.20	23.41
700.34	0.00
700.47	42.13
700.60	58.51
700.73	0.00
700.87	49.15
701.00	91.28
701.13	25.75
701.26	100.64
701.40	0.00
701.53	30.43
701.66	49.15
701.79	53.83
701.93	98.30
702.06	0.00
702.19	14.04
702.32	49.15
702.46	72.56
702.59	44.47
702.72	70.22
702.85	149.79
702.99	404.91
703.12	456.40
703.25	500.87
703.38	418.96
703.51	341.72
703.65	241.08
703.78	191.92
703.91	119.37
704.04	161.50
704.17	30.43
704.31	42.13
704.44	67.88
704.57	56.17
704.70	46.81
704.83	30.43
704.96	14.04
705.10	11.70
705.23	70.22
>>>>>End Processed Spectral Data<<<<<
