SpectraSuite Data File
++++++++++++++++++++++++++++++++++++
Date: Fri Oct 04 11:42:09 GMT-05:00 2013
User: price-jones
Dark Spectrum Present: No
Reference Spectrum Present: No
Number of Sampled Component Spectra: 1
Spectrometers: USB2+H05261
Integration Time (usec): 100000 (USB2+H05261)
Spectra Averaged: 1 (USB2+H05261)
Boxcar Smoothing: 0 (USB2+H05261)
Correct for Electrical Dark: No (USB2+H05261)
Strobe/Lamp Enabled: No (USB2+H05261)
Correct for Detector Non-linearity: No (USB2+H05261)
Correct for Stray Light: No (USB2+H05261)
Number of Pixels in Processed Spectrum: 2048
>>>>>Begin Processed Spectral Data<<<<<
365.73	0.00
365.92	0.00
366.12	0.00
366.32	0.00
366.52	0.00
366.72	0.00
366.91	0.00
367.11	0.00
367.31	0.00
367.51	0.00
367.70	0.00
367.90	0.00
368.10	0.00
368.30	0.00
368.49	0.00
368.69	0.00
368.89	0.00
369.09	0.00
369.28	0.00
369.48	0.00
369.68	0.00
369.87	0.00
370.07	23.41
370.27	23.41
370.47	39.79
370.66	4.68
370.86	30.43
371.06	46.81
371.25	49.15
371.45	74.90
371.65	84.26
371.84	133.41
372.04	49.15
372.24	70.22
372.44	7.02
372.63	159.16
372.83	198.95
373.03	93.62
373.22	18.72
373.42	86.60
373.62	145.11
373.81	149.79
374.01	91.28
374.21	168.52
374.40	95.96
374.60	117.03
374.79	110.01
374.99	114.69
375.19	110.01
375.38	53.83
375.58	135.75
375.78	100.64
375.97	163.84
376.17	196.60
376.37	79.58
376.56	140.43
376.76	77.24
376.95	98.30
377.15	95.96
377.35	105.32
377.54	95.96
377.74	159.16
377.93	58.51
378.13	131.07
378.33	133.41
378.52	121.71
378.72	133.41
378.91	126.39
379.11	138.09
379.31	131.07
379.50	95.96
379.70	196.60
379.89	81.92
380.09	28.09
380.28	77.24
380.48	44.47
380.68	121.71
380.87	114.69
381.07	102.98
381.26	175.54
381.46	63.19
381.65	95.96
381.85	175.54
382.04	77.24
382.24	63.19
382.43	16.38
382.63	35.11
382.83	53.83
383.02	107.66
383.22	91.28
383.41	51.49
383.61	163.84
383.80	117.03
384.00	65.54
384.19	133.41
384.39	107.66
384.58	126.39
384.78	133.41
384.97	98.30
385.17	135.75
385.36	72.56
385.56	234.05
385.75	100.64
385.95	105.32
386.14	175.54
386.34	102.98
386.53	93.62
386.72	60.85
386.92	173.20
387.11	131.07
387.31	142.77
387.50	121.71
387.70	7.02
387.89	114.69
388.09	173.20
388.28	77.24
388.48	79.58
388.67	124.05
388.86	81.92
389.06	84.26
389.25	107.66
389.45	114.69
389.64	98.30
389.84	140.43
390.03	114.69
390.22	102.98
390.42	140.43
390.61	53.83
390.81	74.90
391.00	79.58
391.19	177.88
391.39	110.01
391.58	72.56
391.78	140.43
391.97	107.66
392.16	114.69
392.36	39.79
392.55	77.24
392.75	117.03
392.94	39.79
393.13	95.96
393.33	81.92
393.52	81.92
393.71	138.09
393.91	138.09
394.10	198.95
394.29	105.32
394.49	88.94
394.68	102.98
394.88	81.92
395.07	126.39
395.26	93.62
395.46	131.07
395.65	133.41
395.84	119.37
396.04	177.88
396.23	117.03
396.42	42.13
396.62	168.52
396.81	142.77
397.00	133.41
397.19	65.54
397.39	84.26
397.58	138.09
397.77	124.05
397.97	86.60
398.16	42.13
398.35	175.54
398.55	100.64
398.74	156.82
398.93	126.39
399.12	117.03
399.32	112.35
399.51	93.62
399.70	74.90
399.90	84.26
400.09	107.66
400.28	163.84
400.47	105.32
400.67	203.63
400.86	133.41
401.05	112.35
401.24	145.11
401.44	79.58
401.63	93.62
401.82	170.86
402.01	119.37
402.21	93.62
402.40	105.32
402.59	119.37
402.78	107.66
402.97	114.69
403.17	114.69
403.36	110.01
403.55	126.39
403.74	205.97
403.93	154.48
404.13	201.29
404.32	187.24
404.51	170.86
404.70	147.45
404.89	91.28
405.09	105.32
405.28	72.56
405.47	56.17
405.66	102.98
405.85	102.98
406.05	133.41
406.24	121.71
406.43	49.15
406.62	74.90
406.81	142.77
407.00	184.90
407.20	79.58
407.39	84.26
407.58	133.41
407.77	105.32
407.96	72.56
408.15	95.96
408.34	72.56
408.54	102.98
408.73	107.66
408.92	32.77
409.11	84.26
409.30	170.86
409.49	95.96
409.68	102.98
409.87	37.45
410.07	156.82
410.26	163.84
410.45	88.94
410.64	161.50
410.83	147.45
411.02	91.28
411.21	58.51
411.40	119.37
411.59	63.19
411.78	154.48
411.98	138.09
412.17	163.84
412.36	102.98
412.55	53.83
412.74	177.88
412.93	156.82
413.12	98.30
413.31	100.64
413.50	152.13
413.69	72.56
413.88	119.37
414.07	170.86
414.26	173.20
414.45	107.66
414.64	177.88
414.83	149.79
415.02	56.17
415.22	105.32
415.41	88.94
415.60	21.06
415.79	117.03
415.98	163.84
416.17	98.30
416.36	112.35
416.55	149.79
416.74	156.82
416.93	102.98
417.12	205.97
417.31	184.90
417.50	117.03
417.69	138.09
417.88	149.79
418.07	126.39
418.26	117.03
418.45	121.71
418.64	266.82
418.83	128.73
419.02	95.96
419.21	147.45
419.39	117.03
419.58	95.96
419.77	95.96
419.96	102.98
420.15	182.56
420.34	182.56
420.53	121.71
420.72	95.96
420.91	133.41
421.10	102.98
421.29	93.62
421.48	56.17
421.67	180.22
421.86	114.69
422.05	124.05
422.24	154.48
422.43	189.58
422.61	84.26
422.80	133.41
422.99	105.32
423.18	135.75
423.37	154.48
423.56	175.54
423.75	170.86
423.94	107.66
424.13	63.19
424.32	152.13
424.50	128.73
424.69	159.16
424.88	121.71
425.07	114.69
425.26	88.94
425.45	135.75
425.64	102.98
425.83	95.96
426.01	252.78
426.20	117.03
426.39	154.48
426.58	91.28
426.77	91.28
426.96	201.29
427.15	110.01
427.33	128.73
427.52	105.32
427.71	163.84
427.90	112.35
428.09	95.96
428.28	124.05
428.46	121.71
428.65	107.66
428.84	140.43
429.03	145.11
429.22	142.77
429.40	117.03
429.59	133.41
429.78	196.60
429.97	74.90
430.16	79.58
430.34	119.37
430.53	114.69
430.72	145.11
430.91	163.84
431.10	81.92
431.28	184.90
431.47	159.16
431.66	166.18
431.85	119.37
432.03	135.75
432.22	102.98
432.41	147.45
432.60	114.69
432.79	156.82
432.97	124.05
433.16	140.43
433.35	138.09
433.54	128.73
433.72	140.43
433.91	91.28
434.10	140.43
434.28	177.88
434.47	74.90
434.66	110.01
434.85	168.52
435.03	149.79
435.22	224.69
435.41	351.08
435.59	365.12
435.78	290.23
435.97	250.44
436.16	191.92
436.34	156.82
436.53	128.73
436.72	145.11
436.90	170.86
437.09	159.16
437.28	105.32
437.46	161.50
437.65	107.66
437.84	77.24
438.02	105.32
438.21	196.60
438.40	95.96
438.58	98.30
438.77	84.26
438.96	152.13
439.14	121.71
439.33	184.90
439.52	93.62
439.70	175.54
439.89	173.20
440.08	145.11
440.26	191.92
440.45	170.86
440.63	135.75
440.82	105.32
441.01	180.22
441.19	140.43
441.38	166.18
441.57	100.64
441.75	154.48
441.94	170.86
442.12	131.07
442.31	220.01
442.50	142.77
442.68	170.86
442.87	175.54
443.05	149.79
443.24	117.03
443.43	135.75
443.61	93.62
443.80	177.88
443.98	182.56
444.17	154.48
444.35	138.09
444.54	93.62
444.73	93.62
444.91	140.43
445.10	126.39
445.28	161.50
445.47	100.64
445.65	119.37
445.84	212.99
446.02	117.03
446.21	121.71
446.39	149.79
446.58	152.13
446.77	140.43
446.95	105.32
447.14	189.58
447.32	147.45
447.51	168.52
447.69	152.13
447.88	182.56
448.06	149.79
448.25	60.85
448.43	131.07
448.62	100.64
448.80	135.75
448.99	152.13
449.17	77.24
449.36	91.28
449.54	166.18
449.73	135.75
449.91	142.77
450.10	58.51
450.28	220.01
450.46	154.48
450.65	145.11
450.83	203.63
451.02	133.41
451.20	224.69
451.39	163.84
451.57	166.18
451.76	105.32
451.94	168.52
452.13	138.09
452.31	156.82
452.49	95.96
452.68	145.11
452.86	191.92
453.05	210.65
453.23	63.19
453.42	128.73
453.60	149.79
453.78	147.45
453.97	110.01
454.15	128.73
454.34	67.88
454.52	88.94
454.70	189.58
454.89	189.58
455.07	180.22
455.26	180.22
455.44	121.71
455.62	145.11
455.81	201.29
455.99	166.18
456.17	156.82
456.36	161.50
456.54	79.58
456.73	100.64
456.91	145.11
457.09	173.20
457.28	234.05
457.46	198.95
457.64	173.20
457.83	114.69
458.01	177.88
458.19	187.24
458.38	166.18
458.56	67.88
458.74	102.98
458.93	147.45
459.11	86.60
459.29	95.96
459.48	173.20
459.66	201.29
459.84	138.09
460.03	205.97
460.21	180.22
460.39	119.37
460.57	194.26
460.76	128.73
460.94	156.82
461.12	203.63
461.31	191.92
461.49	147.45
461.67	154.48
461.85	184.90
462.04	91.28
462.22	664.71
462.40	191.92
462.59	173.20
462.77	128.73
462.95	152.13
463.13	110.01
463.32	147.45
463.50	196.60
463.68	152.13
463.86	189.58
464.05	107.66
464.23	131.07
464.41	227.03
464.59	142.77
464.78	124.05
464.96	140.43
465.14	184.90
465.32	128.73
465.50	138.09
465.69	175.54
465.87	163.84
466.05	140.43
466.23	189.58
466.41	98.30
466.60	166.18
466.78	133.41
466.96	102.98
467.14	161.50
467.32	187.24
467.51	147.45
467.69	124.05
467.87	220.01
468.05	88.94
468.23	203.63
468.41	147.45
468.60	173.20
468.78	102.98
468.96	184.90
469.14	142.77
469.32	177.88
469.50	117.03
469.69	145.11
469.87	91.28
470.05	140.43
470.23	121.71
470.41	124.05
470.59	191.92
470.77	215.33
470.95	117.03
471.14	131.07
471.32	117.03
471.50	166.18
471.68	177.88
471.86	149.79
472.04	138.09
472.22	88.94
472.40	88.94
472.58	177.88
472.77	145.11
472.95	135.75
473.13	161.50
473.31	196.60
473.49	208.31
473.67	124.05
473.85	100.64
474.03	177.88
474.21	159.16
474.39	198.95
474.57	156.82
474.75	177.88
474.93	131.07
475.12	177.88
475.30	147.45
475.48	180.22
475.66	98.30
475.84	105.32
476.02	114.69
476.20	168.52
476.38	112.35
476.56	145.11
476.74	215.33
476.92	133.41
477.10	156.82
477.28	191.92
477.46	131.07
477.64	154.48
477.82	124.05
478.00	133.41
478.18	110.01
478.36	126.39
478.54	95.96
478.72	128.73
478.90	236.39
479.08	166.18
479.26	135.75
479.44	220.01
479.62	142.77
479.80	166.18
479.98	152.13
480.16	166.18
480.34	210.65
480.52	131.07
480.70	175.54
480.88	203.63
481.06	105.32
481.24	203.63
481.41	168.52
481.59	133.41
481.77	145.11
481.95	236.39
482.13	149.79
482.31	65.54
482.49	208.31
482.67	175.54
482.85	166.18
483.03	220.01
483.21	241.08
483.39	182.56
483.57	154.48
483.74	217.67
483.92	159.16
484.10	177.88
484.28	196.60
484.46	175.54
484.64	250.44
484.82	114.69
485.00	138.09
485.18	140.43
485.35	168.52
485.53	194.26
485.71	166.18
485.89	124.05
486.07	142.77
486.25	184.90
486.43	231.71
486.61	198.95
486.78	168.52
486.96	110.01
487.14	161.50
487.32	147.45
487.50	161.50
487.68	163.84
487.85	168.52
488.03	161.50
488.21	166.18
488.39	184.90
488.57	142.77
488.75	161.50
488.92	482.15
489.10	201.29
489.28	191.92
489.46	220.01
489.64	198.95
489.81	159.16
489.99	285.55
490.17	194.26
490.35	266.82
490.53	147.45
490.70	189.58
490.88	189.58
491.06	140.43
491.24	224.69
491.41	257.46
491.59	208.31
491.77	191.92
491.95	128.73
492.13	161.50
492.30	187.24
492.48	166.18
492.66	189.58
492.84	149.79
493.01	131.07
493.19	177.88
493.37	210.65
493.54	290.23
493.72	145.11
493.90	154.48
494.08	208.31
494.25	187.24
494.43	245.76
494.61	205.97
494.79	191.92
494.96	184.90
495.14	243.42
495.32	166.18
495.49	128.73
495.67	177.88
495.85	133.41
496.02	196.60
496.20	259.80
496.38	161.50
496.55	220.01
496.73	175.54
496.91	133.41
497.09	194.26
497.26	184.90
497.44	259.80
497.62	168.52
497.79	222.35
497.97	184.90
498.14	163.84
498.32	154.48
498.50	250.44
498.67	224.69
498.85	217.67
499.03	229.37
499.20	205.97
499.38	196.60
499.56	215.33
499.73	238.73
499.91	194.26
500.08	154.48
500.26	149.79
500.44	166.18
500.61	229.37
500.79	161.50
500.97	245.76
501.14	187.24
501.32	163.84
501.49	248.10
501.67	212.99
501.84	175.54
502.02	138.09
502.20	194.26
502.37	163.84
502.55	170.86
502.72	234.05
502.90	222.35
503.07	149.79
503.25	168.52
503.43	182.56
503.60	243.42
503.78	173.20
503.95	128.73
504.13	140.43
504.30	217.67
504.48	201.29
504.65	154.48
504.83	212.99
505.01	117.03
505.18	159.16
505.36	177.88
505.53	187.24
505.71	198.95
505.88	201.29
506.06	205.97
506.23	217.67
506.41	152.13
506.58	191.92
506.76	187.24
506.93	135.75
507.11	236.39
507.28	128.73
507.46	142.77
507.63	163.84
507.81	107.66
507.98	147.45
508.16	198.95
508.33	187.24
508.50	217.67
508.68	152.13
508.85	205.97
509.03	227.03
509.20	227.03
509.38	168.52
509.55	175.54
509.73	189.58
509.90	255.12
510.08	152.13
510.25	308.95
510.42	177.88
510.60	229.37
510.77	227.03
510.95	159.16
511.12	124.05
511.30	222.35
511.47	156.82
511.64	205.97
511.82	121.71
511.99	245.76
512.17	194.26
512.34	161.50
512.51	205.97
512.69	215.33
512.86	201.29
513.04	215.33
513.21	231.71
513.38	140.43
513.56	152.13
513.73	145.11
513.90	168.52
514.08	161.50
514.25	210.65
514.43	196.60
514.60	262.14
514.77	168.52
514.95	161.50
515.12	198.95
515.29	152.13
515.47	212.99
515.64	182.56
515.81	180.22
515.99	280.86
516.16	210.65
516.33	147.45
516.51	166.18
516.68	119.37
516.85	175.54
517.03	131.07
517.20	170.86
517.37	154.48
517.54	140.43
517.72	201.29
517.89	194.26
518.06	248.10
518.24	273.84
518.41	238.73
518.58	198.95
518.75	152.13
518.93	236.39
519.10	131.07
519.27	227.03
519.45	187.24
519.62	131.07
519.79	201.29
519.96	140.43
520.14	161.50
520.31	217.67
520.48	189.58
520.65	177.88
520.83	161.50
521.00	210.65
521.17	208.31
521.34	198.95
521.52	156.82
521.69	175.54
521.86	145.11
522.03	252.78
522.20	287.89
522.38	217.67
522.55	201.29
522.72	180.22
522.89	196.60
523.07	231.71
523.24	189.58
523.41	210.65
523.58	156.82
523.75	126.39
523.92	205.97
524.10	194.26
524.27	290.23
524.44	229.37
524.61	266.82
524.78	278.52
524.96	198.95
525.13	241.08
525.30	220.01
525.47	224.69
525.64	126.39
525.81	191.92
525.98	203.63
526.16	196.60
526.33	201.29
526.50	168.52
526.67	203.63
526.84	215.33
527.01	124.05
527.18	222.35
527.36	177.88
527.53	154.48
527.70	180.22
527.87	154.48
528.04	215.33
528.21	182.56
528.38	187.24
528.55	184.90
528.72	163.84
528.89	220.01
529.07	170.86
529.24	210.65
529.41	203.63
529.58	184.90
529.75	245.76
529.92	220.01
530.09	234.05
530.26	187.24
530.43	182.56
530.60	205.97
530.77	208.31
530.94	201.29
531.11	187.24
531.28	208.31
531.46	110.01
531.63	168.52
531.80	243.42
531.97	243.42
532.14	238.73
532.31	280.86
532.48	257.46
532.65	182.56
532.82	231.71
532.99	189.58
533.16	250.44
533.33	220.01
533.50	208.31
533.67	175.54
533.84	238.73
534.01	166.18
534.18	252.78
534.35	126.39
534.52	177.88
534.69	304.27
534.86	182.56
535.03	234.05
535.20	234.05
535.37	133.41
535.54	234.05
535.71	220.01
535.88	287.89
536.05	234.05
536.22	248.10
536.38	227.03
536.55	194.26
536.72	238.73
536.89	222.35
537.06	245.76
537.23	196.60
537.40	292.57
537.57	259.80
537.74	215.33
537.91	332.36
538.08	248.10
538.25	287.89
538.42	187.24
538.59	173.20
538.75	257.46
538.92	304.27
539.09	229.37
539.26	198.95
539.43	287.89
539.60	290.23
539.77	201.29
539.94	259.80
540.11	322.99
540.28	372.15
540.44	318.31
540.61	259.80
540.78	369.80
540.95	341.72
541.12	482.15
541.29	353.42
541.46	456.40
541.62	449.38
541.79	425.98
541.96	449.38
542.13	449.38
542.30	411.93
542.47	458.74
542.63	397.89
542.80	390.87
542.97	379.17
543.14	435.34
543.31	365.12
543.48	393.21
543.64	353.42
543.81	444.70
543.98	461.09
544.15	404.91
544.32	369.80
544.48	355.76
544.65	428.32
544.82	390.87
544.99	395.55
545.16	423.64
545.32	407.25
545.49	578.11
545.66	791.10
545.83	791.10
546.00	655.35
546.16	575.77
546.33	421.30
546.50	397.89
546.67	404.91
546.83	374.49
547.00	306.61
547.17	327.68
547.34	259.80
547.50	330.02
547.67	339.38
547.84	308.95
548.00	285.55
548.17	276.18
548.34	238.73
548.51	330.02
548.67	297.25
548.84	341.72
549.01	280.86
549.18	266.82
549.34	294.91
549.51	212.99
549.68	306.61
549.84	203.63
550.01	236.39
550.18	360.44
550.34	341.72
550.51	262.14
550.68	325.33
550.84	243.42
551.01	252.78
551.18	266.82
551.34	224.69
551.51	259.80
551.68	297.25
551.84	271.50
552.01	220.01
552.18	217.67
552.34	220.01
552.51	238.73
552.68	269.16
552.84	212.99
553.01	229.37
553.18	283.20
553.34	231.71
553.51	184.90
553.67	208.31
553.84	290.23
554.01	250.44
554.17	234.05
554.34	173.20
554.51	191.92
554.67	201.29
554.84	145.11
555.00	229.37
555.17	257.46
555.33	215.33
555.50	170.86
555.67	248.10
555.83	189.58
556.00	262.14
556.16	334.70
556.33	208.31
556.50	147.45
556.66	236.39
556.83	163.84
556.99	189.58
557.16	170.86
557.32	173.20
557.49	194.26
557.65	159.16
557.82	140.43
557.98	189.58
558.15	159.16
558.32	201.29
558.48	147.45
558.65	241.08
558.81	285.55
558.98	168.52
559.14	154.48
559.31	95.96
559.47	187.24
559.64	196.60
559.80	208.31
559.97	227.03
560.13	154.48
560.30	145.11
560.46	231.71
560.63	182.56
560.79	180.22
560.96	201.29
561.12	187.24
561.29	287.89
561.45	203.63
561.61	196.60
561.78	362.78
561.94	248.10
562.11	205.97
562.27	227.03
562.44	194.26
562.60	224.69
562.77	156.82
562.93	252.78
563.10	161.50
563.26	168.52
563.42	266.82
563.59	252.78
563.75	231.71
563.92	236.39
564.08	175.54
564.24	180.22
564.41	241.08
564.57	205.97
564.74	182.56
564.90	234.05
565.07	194.26
565.23	142.77
565.39	220.01
565.56	194.26
565.72	145.11
565.88	194.26
566.05	170.86
566.21	170.86
566.38	203.63
566.54	180.22
566.70	147.45
566.87	112.35
567.03	203.63
567.19	222.35
567.36	177.88
567.52	152.13
567.68	191.92
567.85	217.67
568.01	194.26
568.17	189.58
568.34	201.29
568.50	198.95
568.66	117.03
568.83	273.84
568.99	187.24
569.15	297.25
569.32	180.22
569.48	212.99
569.64	114.69
569.81	229.37
569.97	110.01
570.13	177.88
570.30	215.33
570.46	180.22
570.62	205.97
570.78	175.54
570.95	189.58
571.11	194.26
571.27	222.35
571.43	161.50
571.60	320.65
571.76	102.98
571.92	182.56
572.09	234.05
572.25	154.48
572.41	126.39
572.57	224.69
572.74	264.48
572.90	259.80
573.06	203.63
573.22	234.05
573.38	147.45
573.55	189.58
573.71	203.63
573.87	133.41
574.03	177.88
574.20	187.24
574.36	166.18
574.52	166.18
574.68	147.45
574.84	229.37
575.01	210.65
575.17	245.76
575.33	142.77
575.49	154.48
575.65	187.24
575.82	231.71
575.98	243.42
576.14	215.33
576.30	250.44
576.46	229.37
576.62	227.03
576.79	259.80
576.95	245.76
577.11	184.90
577.27	203.63
577.43	198.95
577.59	243.42
577.75	168.52
577.92	208.31
578.08	198.95
578.24	173.20
578.40	266.82
578.56	308.95
578.72	269.16
578.88	322.99
579.04	273.84
579.21	161.50
579.37	189.58
579.53	266.82
579.69	227.03
579.85	245.76
580.01	241.08
580.17	217.67
580.33	161.50
580.49	224.69
580.65	283.20
580.82	217.67
580.98	217.67
581.14	252.78
581.30	241.08
581.46	224.69
581.62	337.04
581.78	166.18
581.94	196.60
582.10	231.71
582.26	182.56
582.42	201.29
582.58	299.59
582.74	163.84
582.90	238.73
583.06	180.22
583.22	215.33
583.38	283.20
583.54	191.92
583.70	280.86
583.86	212.99
584.02	208.31
584.18	220.01
584.34	182.56
584.50	191.92
584.66	184.90
584.82	147.45
584.98	194.26
585.14	208.31
585.30	278.52
585.46	259.80
585.62	196.60
585.78	220.01
585.94	210.65
586.10	224.69
586.26	304.27
586.42	301.93
586.58	224.69
586.74	287.89
586.90	266.82
587.06	273.84
587.22	243.42
587.38	287.89
587.54	280.86
587.70	241.08
587.86	250.44
588.02	166.18
588.18	173.20
588.34	208.31
588.49	154.48
588.65	255.12
588.81	215.33
588.97	238.73
589.13	217.67
589.29	177.88
589.45	273.84
589.61	182.56
589.77	198.95
589.93	194.26
590.08	250.44
590.24	140.43
590.40	201.29
590.56	187.24
590.72	234.05
590.88	163.84
591.04	208.31
591.20	203.63
591.35	234.05
591.51	194.26
591.67	187.24
591.83	257.46
591.99	283.20
592.15	313.63
592.31	154.48
592.46	189.58
592.62	243.42
592.78	241.08
592.94	177.88
593.10	231.71
593.26	173.20
593.41	203.63
593.57	290.23
593.73	308.95
593.89	243.42
594.05	149.79
594.20	264.48
594.36	248.10
594.52	231.71
594.68	271.50
594.84	156.82
594.99	266.82
595.15	264.48
595.31	238.73
595.47	276.18
595.62	201.29
595.78	238.73
595.94	191.92
596.10	210.65
596.25	203.63
596.41	205.97
596.57	177.88
596.73	166.18
596.88	159.16
597.04	210.65
597.20	138.09
597.36	212.99
597.51	229.37
597.67	156.82
597.83	191.92
597.99	255.12
598.14	215.33
598.30	191.92
598.46	212.99
598.61	154.48
598.77	191.92
598.93	243.42
599.09	266.82
599.24	182.56
599.40	269.16
599.56	194.26
599.71	177.88
599.87	126.39
600.03	163.84
600.18	243.42
600.34	194.26
600.50	194.26
600.65	168.52
600.81	198.95
600.97	170.86
601.12	180.22
601.28	173.20
601.44	264.48
601.59	189.58
601.75	191.92
601.91	145.11
602.06	180.22
602.22	189.58
602.37	161.50
602.53	184.90
602.69	170.86
602.84	156.82
603.00	149.79
603.16	121.71
603.31	215.33
603.47	238.73
603.62	191.92
603.78	238.73
603.94	131.07
604.09	231.71
604.25	182.56
604.40	224.69
604.56	161.50
604.71	196.60
604.87	170.86
605.03	220.01
605.18	170.86
605.34	173.20
605.49	262.14
605.65	191.92
605.80	170.86
605.96	145.11
606.12	173.20
606.27	212.99
606.43	241.08
606.58	196.60
606.74	203.63
606.89	287.89
607.05	196.60
607.20	201.29
607.36	191.92
607.51	269.16
607.67	245.76
607.82	227.03
607.98	222.35
608.13	175.54
608.29	212.99
608.44	255.12
608.60	217.67
608.75	292.57
608.91	234.05
609.06	227.03
609.22	243.42
609.37	238.73
609.53	264.48
609.68	262.14
609.84	322.99
609.99	369.80
610.15	365.12
610.30	400.23
610.46	524.28
610.61	606.20
610.76	594.50
610.92	805.14
611.07	793.44
611.23	816.85
611.38	809.83
611.54	634.29
611.69	592.16
611.84	547.69
612.00	444.70
612.15	383.85
612.31	362.78
612.46	311.29
612.62	376.83
612.77	423.64
612.92	355.76
613.08	337.04
613.23	320.65
613.39	358.10
613.54	299.59
613.69	285.55
613.85	241.08
614.00	315.97
614.15	330.02
614.31	271.50
614.46	238.73
614.62	318.31
614.77	266.82
614.92	227.03
615.08	315.97
615.23	255.12
615.38	215.33
615.54	327.68
615.69	205.97
615.84	257.46
616.00	201.29
616.15	241.08
616.30	152.13
616.46	231.71
616.61	234.05
616.76	285.55
616.92	280.86
617.07	245.76
617.22	236.39
617.37	180.22
617.53	222.35
617.68	241.08
617.83	280.86
617.99	224.69
618.14	215.33
618.29	236.39
618.45	182.56
618.60	248.10
618.75	257.46
618.90	163.84
619.06	191.92
619.21	208.31
619.36	227.03
619.51	166.18
619.67	245.76
619.82	201.29
619.97	205.97
620.12	194.26
620.28	245.76
620.43	203.63
620.58	243.42
620.73	154.48
620.89	173.20
621.04	163.84
621.19	222.35
621.34	133.41
621.49	147.45
621.65	241.08
621.80	220.01
621.95	205.97
622.10	194.26
622.25	182.56
622.41	187.24
622.56	173.20
622.71	250.44
622.86	194.26
623.01	203.63
623.16	238.73
623.32	173.20
623.47	191.92
623.62	215.33
623.77	236.39
623.92	168.52
624.07	238.73
624.23	212.99
624.38	229.37
624.53	196.60
624.68	196.60
624.83	264.48
624.98	173.20
625.13	177.88
625.29	205.97
625.44	208.31
625.59	191.92
625.74	248.10
625.89	208.31
626.04	245.76
626.19	259.80
626.34	128.73
626.49	128.73
626.65	203.63
626.80	147.45
626.95	262.14
627.10	182.56
627.25	198.95
627.40	166.18
627.55	142.77
627.70	196.60
627.85	194.26
628.00	196.60
628.15	205.97
628.30	194.26
628.45	173.20
628.60	205.97
628.76	187.24
628.91	159.16
629.06	220.01
629.21	170.86
629.36	212.99
629.51	245.76
629.66	220.01
629.81	184.90
629.96	224.69
630.11	196.60
630.26	287.89
630.41	163.84
630.56	215.33
630.71	135.75
630.86	161.50
631.01	198.95
631.16	278.52
631.31	224.69
631.46	259.80
631.61	217.67
631.76	149.79
631.91	140.43
632.06	269.16
632.21	217.67
632.36	152.13
632.51	145.11
632.66	217.67
632.81	128.73
632.96	117.03
633.10	191.92
633.25	182.56
633.40	212.99
633.55	133.41
633.70	198.95
633.85	67.88
634.00	128.73
634.15	117.03
634.30	131.07
634.45	147.45
634.60	191.92
634.75	105.32
634.90	147.45
635.05	205.97
635.19	147.45
635.34	121.71
635.49	128.73
635.64	189.58
635.79	182.56
635.94	161.50
636.09	189.58
636.24	177.88
636.39	189.58
636.53	133.41
636.68	184.90
636.83	177.88
636.98	177.88
637.13	107.66
637.28	182.56
637.43	203.63
637.57	159.16
637.72	128.73
637.87	149.79
638.02	124.05
638.17	100.64
638.32	208.31
638.46	220.01
638.61	161.50
638.76	135.75
638.91	70.22
639.06	227.03
639.20	252.78
639.35	100.64
639.50	135.75
639.65	205.97
639.80	159.16
639.94	191.92
640.09	168.52
640.24	212.99
640.39	196.60
640.54	152.13
640.68	173.20
640.83	138.09
640.98	163.84
641.13	205.97
641.27	177.88
641.42	173.20
641.57	201.29
641.72	187.24
641.86	142.77
642.01	114.69
642.16	201.29
642.31	184.90
642.45	248.10
642.60	175.54
642.75	145.11
642.90	198.95
643.04	210.65
643.19	145.11
643.34	187.24
643.48	205.97
643.63	189.58
643.78	196.60
643.93	198.95
644.07	145.11
644.22	208.31
644.37	140.43
644.51	135.75
644.66	177.88
644.81	119.37
644.95	229.37
645.10	191.92
645.25	180.22
645.39	177.88
645.54	133.41
645.69	205.97
645.83	128.73
645.98	238.73
646.13	93.62
646.27	210.65
646.42	117.03
646.57	168.52
646.71	135.75
646.86	119.37
647.00	154.48
647.15	182.56
647.30	217.67
647.44	147.45
647.59	152.13
647.74	74.90
647.88	142.77
648.03	173.20
648.17	189.58
648.32	93.62
648.47	156.82
648.61	102.98
648.76	84.26
648.90	112.35
649.05	91.28
649.20	173.20
649.34	128.73
649.49	102.98
649.63	156.82
649.78	173.20
649.92	177.88
650.07	156.82
650.21	229.37
650.36	191.92
650.51	222.35
650.65	257.46
650.80	191.92
650.94	142.77
651.09	175.54
651.23	149.79
651.38	173.20
651.52	166.18
651.67	98.30
651.81	173.20
651.96	184.90
652.10	159.16
652.25	161.50
652.39	53.83
652.54	95.96
652.68	166.18
652.83	163.84
652.97	142.77
653.12	170.86
653.26	173.20
653.41	138.09
653.55	126.39
653.70	114.69
653.84	117.03
653.99	196.60
654.13	196.60
654.27	170.86
654.42	189.58
654.56	177.88
654.71	191.92
654.85	142.77
655.00	124.05
655.14	161.50
655.29	152.13
655.43	128.73
655.57	117.03
655.72	187.24
655.86	140.43
656.01	154.48
656.15	142.77
656.30	126.39
656.44	84.26
656.58	180.22
656.73	194.26
656.87	121.71
657.01	81.92
657.16	231.71
657.30	191.92
657.45	152.13
657.59	114.69
657.73	140.43
657.88	168.52
658.02	152.13
658.16	145.11
658.31	177.88
658.45	138.09
658.60	133.41
658.74	126.39
658.88	142.77
659.03	95.96
659.17	81.92
659.31	138.09
659.46	140.43
659.60	189.58
659.74	138.09
659.89	177.88
660.03	163.84
660.17	201.29
660.32	124.05
660.46	114.69
660.60	112.35
660.74	175.54
660.89	154.48
661.03	147.45
661.17	110.01
661.32	166.18
661.46	140.43
661.60	170.86
661.74	147.45
661.89	124.05
662.03	203.63
662.17	166.18
662.31	93.62
662.46	168.52
662.60	124.05
662.74	208.31
662.88	156.82
663.03	142.77
663.17	220.01
663.31	124.05
663.45	138.09
663.60	149.79
663.74	51.49
663.88	117.03
664.02	177.88
664.17	119.37
664.31	180.22
664.45	117.03
664.59	196.60
664.73	220.01
664.88	112.35
665.02	152.13
665.16	112.35
665.30	255.12
665.44	201.29
665.59	212.99
665.73	135.75
665.87	124.05
666.01	147.45
666.15	184.90
666.29	121.71
666.44	147.45
666.58	203.63
666.72	198.95
666.86	107.66
667.00	119.37
667.14	135.75
667.28	156.82
667.43	74.90
667.57	159.16
667.71	121.71
667.85	63.19
667.99	126.39
668.13	145.11
668.27	194.26
668.41	102.98
668.56	203.63
668.70	255.12
668.84	170.86
668.98	156.82
669.12	105.32
669.26	133.41
669.40	224.69
669.54	184.90
669.68	135.75
669.82	117.03
669.96	51.49
670.10	81.92
670.25	194.26
670.39	203.63
670.53	128.73
670.67	67.88
670.81	105.32
670.95	102.98
671.09	72.56
671.23	187.24
671.37	210.65
671.51	180.22
671.65	88.94
671.79	117.03
671.93	135.75
672.07	156.82
672.21	161.50
672.35	166.18
672.49	191.92
672.63	156.82
672.77	102.98
672.91	145.11
673.05	100.64
673.19	231.71
673.33	128.73
673.47	173.20
673.61	112.35
673.75	95.96
673.89	152.13
674.03	121.71
674.17	168.52
674.31	133.41
674.45	231.71
674.59	187.24
674.73	163.84
674.87	159.16
675.01	175.54
675.15	91.28
675.29	105.32
675.43	173.20
675.56	166.18
675.70	152.13
675.84	212.99
675.98	117.03
676.12	191.92
676.26	98.30
676.40	133.41
676.54	229.37
676.68	77.24
676.82	142.77
676.96	95.96
677.10	112.35
677.23	138.09
677.37	53.83
677.51	135.75
677.65	189.58
677.79	119.37
677.93	119.37
678.07	84.26
678.21	229.37
678.34	79.58
678.48	107.66
678.62	166.18
678.76	124.05
678.90	149.79
679.04	166.18
679.18	51.49
679.31	110.01
679.45	107.66
679.59	154.48
679.73	93.62
679.87	145.11
680.00	86.60
680.14	140.43
680.28	126.39
680.42	72.56
680.56	180.22
680.70	166.18
680.83	131.07
680.97	14.04
681.11	152.13
681.25	184.90
681.39	86.60
681.52	145.11
681.66	210.65
681.80	191.92
681.94	128.73
682.07	140.43
682.21	187.24
682.35	112.35
682.49	154.48
682.62	175.54
682.76	112.35
682.90	175.54
683.04	194.26
683.17	182.56
683.31	154.48
683.45	175.54
683.59	154.48
683.72	65.54
683.86	81.92
684.00	159.16
684.13	215.33
684.27	166.18
684.41	170.86
684.55	79.58
684.68	170.86
684.82	95.96
684.96	170.86
685.09	95.96
685.23	156.82
685.37	95.96
685.50	147.45
685.64	131.07
685.78	203.63
685.91	159.16
686.05	215.33
686.19	149.79
686.32	114.69
686.46	173.20
686.60	88.94
686.73	224.69
686.87	128.73
687.01	93.62
687.14	67.88
687.28	42.13
687.42	95.96
687.55	32.77
687.69	152.13
687.82	152.13
687.96	105.32
688.10	238.73
688.23	131.07
688.37	140.43
688.50	177.88
688.64	112.35
688.78	102.98
688.91	93.62
689.05	67.88
689.18	126.39
689.32	93.62
689.46	135.75
689.59	156.82
689.73	126.39
689.86	65.54
690.00	74.90
690.13	140.43
690.27	159.16
690.41	163.84
690.54	102.98
690.68	86.60
690.81	243.42
690.95	124.05
691.08	110.01
691.22	81.92
691.35	72.56
691.49	114.69
691.62	161.50
691.76	81.92
691.89	67.88
692.03	67.88
692.16	154.48
692.30	166.18
692.43	189.58
692.57	231.71
692.70	77.24
692.84	112.35
692.97	110.01
693.11	114.69
693.24	152.13
693.38	210.65
693.51	159.16
693.65	119.37
693.78	154.48
693.92	121.71
694.05	140.43
694.19	124.05
694.32	86.60
694.45	91.28
694.59	112.35
694.72	77.24
694.86	93.62
694.99	86.60
695.13	170.86
695.26	93.62
695.39	124.05
695.53	187.24
695.66	117.03
695.80	133.41
695.93	88.94
696.07	170.86
696.20	44.47
696.33	114.69
696.47	152.13
696.60	140.43
696.73	70.22
696.87	63.19
697.00	124.05
697.14	152.13
697.27	81.92
697.40	205.97
697.54	107.66
697.67	93.62
697.80	133.41
697.94	147.45
698.07	107.66
698.21	65.54
698.34	142.77
698.47	102.98
698.61	121.71
698.74	98.30
698.87	149.79
699.01	163.84
699.14	67.88
699.27	112.35
699.40	187.24
699.54	67.88
699.67	170.86
699.80	119.37
699.94	0.00
700.07	49.15
700.20	49.15
700.34	163.84
700.47	100.64
700.60	142.77
700.73	74.90
700.87	168.52
701.00	93.62
701.13	95.96
701.26	100.64
701.40	131.07
701.53	86.60
701.66	124.05
701.79	156.82
701.93	189.58
702.06	140.43
702.19	201.29
702.32	145.11
702.46	58.51
702.59	84.26
702.72	126.39
702.85	77.24
702.99	88.94
703.12	86.60
703.25	105.32
703.38	100.64
703.51	184.90
703.65	93.62
703.78	147.45
703.91	7.02
704.04	145.11
704.17	121.71
704.31	65.54
704.44	84.26
704.57	182.56
704.70	184.90
704.83	102.98
704.96	65.54
705.10	152.13
705.23	121.71
>>>>>End Processed Spectral Data<<<<<
