SpectraSuite Data File
++++++++++++++++++++++++++++++++++++
Date: Fri Oct 04 11:42:09 GMT-05:00 2013
User: price-jones
Dark Spectrum Present: No
Reference Spectrum Present: No
Number of Sampled Component Spectra: 1
Spectrometers: USB2+H05261
Integration Time (usec): 100000 (USB2+H05261)
Spectra Averaged: 1 (USB2+H05261)
Boxcar Smoothing: 0 (USB2+H05261)
Correct for Electrical Dark: No (USB2+H05261)
Strobe/Lamp Enabled: No (USB2+H05261)
Correct for Detector Non-linearity: No (USB2+H05261)
Correct for Stray Light: No (USB2+H05261)
Number of Pixels in Processed Spectrum: 2048
>>>>>Begin Processed Spectral Data<<<<<
365.73	37.45
365.92	37.45
366.12	37.45
366.32	0.00
366.52	0.00
366.72	0.00
366.91	0.00
367.11	0.00
367.31	0.00
367.51	0.00
367.70	0.00
367.90	0.00
368.10	0.00
368.30	0.00
368.49	0.00
368.69	0.00
368.89	0.00
369.09	0.00
369.28	0.00
369.48	0.00
369.68	30.43
369.87	0.00
370.07	0.00
370.27	30.43
370.47	0.00
370.66	51.49
370.86	121.71
371.06	119.37
371.25	84.26
371.45	119.37
371.65	133.41
371.84	42.13
372.04	74.90
372.24	142.77
372.44	114.69
372.63	49.15
372.83	140.43
373.03	93.62
373.22	39.79
373.42	63.19
373.62	128.73
373.81	88.94
374.01	81.92
374.21	131.07
374.40	126.39
374.60	173.20
374.79	147.45
374.99	128.73
375.19	65.54
375.38	152.13
375.58	156.82
375.78	140.43
375.97	161.50
376.17	168.52
376.37	105.32
376.56	173.20
376.76	72.56
376.95	114.69
377.15	149.79
377.35	142.77
377.54	119.37
377.74	126.39
377.93	93.62
378.13	86.60
378.33	121.71
378.52	128.73
378.72	142.77
378.91	107.66
379.11	170.86
379.31	88.94
379.50	124.05
379.70	102.98
379.89	84.26
380.09	95.96
380.28	77.24
380.48	110.01
380.68	102.98
380.87	102.98
381.07	124.05
381.26	131.07
381.46	105.32
381.65	121.71
381.85	107.66
382.04	107.66
382.24	182.56
382.43	152.13
382.63	100.64
382.83	18.72
383.02	100.64
383.22	203.63
383.41	65.54
383.61	128.73
383.80	140.43
384.00	119.37
384.19	110.01
384.39	124.05
384.58	72.56
384.78	128.73
384.97	70.22
385.17	46.81
385.36	121.71
385.56	107.66
385.75	119.37
385.95	117.03
386.14	124.05
386.34	105.32
386.53	93.62
386.72	117.03
386.92	126.39
387.11	149.79
387.31	135.75
387.50	117.03
387.70	74.90
387.89	72.56
388.09	105.32
388.28	77.24
388.48	86.60
388.67	119.37
388.86	117.03
389.06	74.90
389.25	147.45
389.45	105.32
389.64	46.81
389.84	121.71
390.03	74.90
390.22	149.79
390.42	86.60
390.61	51.49
390.81	95.96
391.00	42.13
391.19	121.71
391.39	110.01
391.58	128.73
391.78	180.22
391.97	74.90
392.16	121.71
392.36	135.75
392.55	107.66
392.75	124.05
392.94	159.16
393.13	154.48
393.33	0.00
393.52	67.88
393.71	198.95
393.91	203.63
394.10	91.28
394.29	98.30
394.49	95.96
394.68	114.69
394.88	138.09
395.07	180.22
395.26	140.43
395.46	177.88
395.65	149.79
395.84	208.31
396.04	145.11
396.23	131.07
396.42	110.01
396.62	149.79
396.81	126.39
397.00	201.29
397.19	163.84
397.39	142.77
397.58	126.39
397.77	140.43
397.97	156.82
398.16	91.28
398.35	102.98
398.55	49.15
398.74	84.26
398.93	182.56
399.12	255.12
399.32	72.56
399.51	110.01
399.70	145.11
399.90	91.28
400.09	126.39
400.28	95.96
400.47	133.41
400.67	168.52
400.86	65.54
401.05	138.09
401.24	126.39
401.44	77.24
401.63	184.90
401.82	140.43
402.01	173.20
402.21	124.05
402.40	49.15
402.59	166.18
402.78	135.75
402.97	95.96
403.17	182.56
403.36	145.11
403.55	95.96
403.74	72.56
403.93	102.98
404.13	152.13
404.32	182.56
404.51	161.50
404.70	196.60
404.89	133.41
405.09	149.79
405.28	140.43
405.47	91.28
405.66	107.66
405.85	147.45
406.05	65.54
406.24	86.60
406.43	142.77
406.62	112.35
406.81	156.82
407.00	114.69
407.20	124.05
407.39	159.16
407.58	119.37
407.77	121.71
407.96	168.52
408.15	117.03
408.34	65.54
408.54	84.26
408.73	81.92
408.92	126.39
409.11	170.86
409.30	124.05
409.49	81.92
409.68	147.45
409.87	145.11
410.07	58.51
410.26	149.79
410.45	102.98
410.64	67.88
410.83	72.56
411.02	124.05
411.21	142.77
411.40	170.86
411.59	175.54
411.78	114.69
411.98	117.03
412.17	67.88
412.36	102.98
412.55	102.98
412.74	147.45
412.93	121.71
413.12	175.54
413.31	222.35
413.50	128.73
413.69	93.62
413.88	145.11
414.07	51.49
414.26	140.43
414.45	35.11
414.64	140.43
414.83	110.01
415.02	170.86
415.22	173.20
415.41	145.11
415.60	102.98
415.79	114.69
415.98	138.09
416.17	124.05
416.36	65.54
416.55	142.77
416.74	149.79
416.93	95.96
417.12	131.07
417.31	95.96
417.50	128.73
417.69	112.35
417.88	159.16
418.07	95.96
418.26	131.07
418.45	110.01
418.64	170.86
418.83	210.65
419.02	191.92
419.21	147.45
419.39	117.03
419.58	159.16
419.77	117.03
419.96	110.01
420.15	177.88
420.34	152.13
420.53	168.52
420.72	173.20
420.91	191.92
421.10	98.30
421.29	67.88
421.48	149.79
421.67	114.69
421.86	145.11
422.05	128.73
422.24	91.28
422.43	117.03
422.61	124.05
422.80	107.66
422.99	124.05
423.18	126.39
423.37	149.79
423.56	53.83
423.75	100.64
423.94	112.35
424.13	126.39
424.32	133.41
424.50	131.07
424.69	117.03
424.88	177.88
425.07	168.52
425.26	191.92
425.45	159.16
425.64	98.30
425.83	161.50
426.01	93.62
426.20	100.64
426.39	112.35
426.58	142.77
426.77	161.50
426.96	175.54
427.15	95.96
427.33	140.43
427.52	177.88
427.71	114.69
427.90	51.49
428.09	91.28
428.28	128.73
428.46	117.03
428.65	135.75
428.84	98.30
429.03	170.86
429.22	112.35
429.40	91.28
429.59	81.92
429.78	215.33
429.97	184.90
430.16	7.02
430.34	46.81
430.53	175.54
430.72	112.35
430.91	168.52
431.10	182.56
431.28	154.48
431.47	91.28
431.66	161.50
431.85	161.50
432.03	198.95
432.22	147.45
432.41	114.69
432.60	149.79
432.79	142.77
432.97	67.88
433.16	210.65
433.35	147.45
433.54	140.43
433.72	159.16
433.91	126.39
434.10	100.64
434.28	121.71
434.47	91.28
434.66	110.01
434.85	124.05
435.03	184.90
435.22	287.89
435.41	404.91
435.59	320.65
435.78	292.57
435.97	170.86
436.16	121.71
436.34	131.07
436.53	102.98
436.72	180.22
436.90	180.22
437.09	105.32
437.28	84.26
437.46	187.24
437.65	198.95
437.84	152.13
438.02	102.98
438.21	152.13
438.40	124.05
438.58	107.66
438.77	170.86
438.96	79.58
439.14	93.62
439.33	131.07
439.52	79.58
439.70	93.62
439.89	84.26
440.08	145.11
440.26	72.56
440.45	210.65
440.63	194.26
440.82	91.28
441.01	163.84
441.19	180.22
441.38	105.32
441.57	177.88
441.75	215.33
441.94	229.37
442.12	154.48
442.31	77.24
442.50	124.05
442.68	142.77
442.87	142.77
443.05	93.62
443.24	156.82
443.43	208.31
443.61	117.03
443.80	175.54
443.98	88.94
444.17	201.29
444.35	170.86
444.54	166.18
444.73	138.09
444.91	191.92
445.10	138.09
445.28	138.09
445.47	154.48
445.65	117.03
445.84	173.20
446.02	100.64
446.21	156.82
446.39	81.92
446.58	166.18
446.77	152.13
446.95	182.56
447.14	212.99
447.32	175.54
447.51	170.86
447.69	138.09
447.88	187.24
448.06	227.03
448.25	203.63
448.43	126.39
448.62	65.54
448.80	140.43
448.99	236.39
449.17	131.07
449.36	60.85
449.54	191.92
449.73	142.77
449.91	138.09
450.10	189.58
450.28	217.67
450.46	159.16
450.65	163.84
450.83	100.64
451.02	119.37
451.20	196.60
451.39	91.28
451.57	170.86
451.76	138.09
451.94	149.79
452.13	177.88
452.31	168.52
452.49	119.37
452.68	173.20
452.86	51.49
453.05	231.71
453.23	147.45
453.42	142.77
453.60	128.73
453.78	175.54
453.97	124.05
454.15	177.88
454.34	81.92
454.52	142.77
454.70	203.63
454.89	117.03
455.07	180.22
455.26	191.92
455.44	119.37
455.62	194.26
455.81	182.56
455.99	135.75
456.17	145.11
456.36	117.03
456.54	93.62
456.73	170.86
456.91	79.58
457.09	145.11
457.28	198.95
457.46	168.52
457.64	98.30
457.83	140.43
458.01	119.37
458.19	161.50
458.38	149.79
458.56	182.56
458.74	145.11
458.93	110.01
459.11	166.18
459.29	77.24
459.48	159.16
459.66	227.03
459.84	184.90
460.03	238.73
460.21	128.73
460.39	95.96
460.57	126.39
460.76	175.54
460.94	159.16
461.12	215.33
461.31	210.65
461.49	138.09
461.67	208.31
461.85	154.48
462.04	138.09
462.22	575.77
462.40	119.37
462.59	194.26
462.77	170.86
462.95	182.56
463.13	189.58
463.32	147.45
463.50	117.03
463.68	189.58
463.86	100.64
464.05	161.50
464.23	152.13
464.41	168.52
464.59	100.64
464.78	65.54
464.96	191.92
465.14	140.43
465.32	170.86
465.50	128.73
465.69	135.75
465.87	131.07
466.05	145.11
466.23	107.66
466.41	58.51
466.60	114.69
466.78	175.54
466.96	114.69
467.14	138.09
467.32	168.52
467.51	161.50
467.69	170.86
467.87	182.56
468.05	210.65
468.23	255.12
468.41	177.88
468.60	138.09
468.78	236.39
468.96	161.50
469.14	170.86
469.32	117.03
469.50	91.28
469.69	208.31
469.87	145.11
470.05	161.50
470.23	119.37
470.41	131.07
470.59	140.43
470.77	147.45
470.95	156.82
471.14	187.24
471.32	191.92
471.50	189.58
471.68	189.58
471.86	131.07
472.04	201.29
472.22	112.35
472.40	138.09
472.58	145.11
472.77	145.11
472.95	65.54
473.13	201.29
473.31	177.88
473.49	72.56
473.67	175.54
473.85	138.09
474.03	220.01
474.21	102.98
474.39	168.52
474.57	189.58
474.75	142.77
474.93	77.24
475.12	95.96
475.30	67.88
475.48	112.35
475.66	102.98
475.84	145.11
476.02	145.11
476.20	142.77
476.38	110.01
476.56	266.82
476.74	187.24
476.92	145.11
477.10	133.41
477.28	177.88
477.46	220.01
477.64	184.90
477.82	140.43
478.00	166.18
478.18	138.09
478.36	161.50
478.54	163.84
478.72	159.16
478.90	238.73
479.08	135.75
479.26	154.48
479.44	114.69
479.62	163.84
479.80	161.50
479.98	112.35
480.16	133.41
480.34	194.26
480.52	156.82
480.70	177.88
480.88	173.20
481.06	81.92
481.24	154.48
481.41	201.29
481.59	196.60
481.77	159.16
481.95	149.79
482.13	95.96
482.31	100.64
482.49	163.84
482.67	135.75
482.85	168.52
483.03	117.03
483.21	173.20
483.39	201.29
483.57	191.92
483.74	201.29
483.92	128.73
484.10	170.86
484.28	196.60
484.46	201.29
484.64	222.35
484.82	138.09
485.00	184.90
485.18	245.76
485.35	161.50
485.53	138.09
485.71	175.54
485.89	126.39
486.07	182.56
486.25	276.18
486.43	191.92
486.61	238.73
486.78	210.65
486.96	161.50
487.14	212.99
487.32	227.03
487.50	175.54
487.68	182.56
487.85	205.97
488.03	262.14
488.21	203.63
488.39	208.31
488.57	170.86
488.75	191.92
488.92	484.49
489.10	229.37
489.28	224.69
489.46	205.97
489.64	163.84
489.81	187.24
489.99	227.03
490.17	163.84
490.35	297.25
490.53	227.03
490.70	180.22
490.88	241.08
491.06	236.39
491.24	205.97
491.41	229.37
491.59	212.99
491.77	119.37
491.95	210.65
492.13	177.88
492.30	126.39
492.48	152.13
492.66	269.16
492.84	262.14
493.01	173.20
493.19	191.92
493.37	248.10
493.54	203.63
493.72	210.65
493.90	163.84
494.08	210.65
494.25	215.33
494.43	220.01
494.61	166.18
494.79	194.26
494.96	133.41
495.14	124.05
495.32	243.42
495.49	166.18
495.67	161.50
495.85	161.50
496.02	234.05
496.20	159.16
496.38	182.56
496.55	166.18
496.73	222.35
496.91	180.22
497.09	271.50
497.26	257.46
497.44	220.01
497.62	250.44
497.79	245.76
497.97	259.80
498.14	257.46
498.32	208.31
498.50	156.82
498.67	198.95
498.85	210.65
499.03	201.29
499.20	229.37
499.38	241.08
499.56	215.33
499.73	187.24
499.91	161.50
500.08	79.58
500.26	224.69
500.44	175.54
500.61	177.88
500.79	166.18
500.97	231.71
501.14	236.39
501.32	238.73
501.49	191.92
501.67	166.18
501.84	177.88
502.02	241.08
502.20	222.35
502.37	140.43
502.55	163.84
502.72	177.88
502.90	147.45
503.07	194.26
503.25	159.16
503.43	79.58
503.60	224.69
503.78	224.69
503.95	184.90
504.13	182.56
504.30	159.16
504.48	191.92
504.65	201.29
504.83	205.97
505.01	238.73
505.18	222.35
505.36	170.86
505.53	152.13
505.71	149.79
505.88	217.67
506.06	205.97
506.23	224.69
506.41	175.54
506.58	177.88
506.76	205.97
506.93	168.52
507.11	149.79
507.28	182.56
507.46	184.90
507.63	255.12
507.81	145.11
507.98	182.56
508.16	161.50
508.33	229.37
508.50	194.26
508.68	177.88
508.85	166.18
509.03	184.90
509.20	187.24
509.38	220.01
509.55	245.76
509.73	182.56
509.90	168.52
510.08	208.31
510.25	201.29
510.42	187.24
510.60	215.33
510.77	161.50
510.95	145.11
511.12	175.54
511.30	149.79
511.47	191.92
511.64	182.56
511.82	212.99
511.99	212.99
512.17	234.05
512.34	191.92
512.51	173.20
512.69	142.77
512.86	201.29
513.04	208.31
513.21	234.05
513.38	159.16
513.56	156.82
513.73	100.64
513.90	91.28
514.08	222.35
514.25	229.37
514.43	205.97
514.60	198.95
514.77	215.33
514.95	222.35
515.12	203.63
515.29	173.20
515.47	135.75
515.64	163.84
515.81	163.84
515.99	222.35
516.16	149.79
516.33	175.54
516.51	145.11
516.68	140.43
516.85	177.88
517.03	175.54
517.20	222.35
517.37	168.52
517.54	191.92
517.72	173.20
517.89	152.13
518.06	163.84
518.24	278.52
518.41	159.16
518.58	163.84
518.75	194.26
518.93	252.78
519.10	166.18
519.27	156.82
519.45	227.03
519.62	208.31
519.79	255.12
519.96	156.82
520.14	212.99
520.31	238.73
520.48	250.44
520.65	196.60
520.83	208.31
521.00	177.88
521.17	220.01
521.34	182.56
521.52	201.29
521.69	198.95
521.86	215.33
522.03	227.03
522.20	191.92
522.38	124.05
522.55	177.88
522.72	198.95
522.89	208.31
523.07	168.52
523.24	177.88
523.41	102.98
523.58	147.45
523.75	175.54
523.92	241.08
524.10	196.60
524.27	255.12
524.44	175.54
524.61	149.79
524.78	215.33
524.96	173.20
525.13	198.95
525.30	201.29
525.47	175.54
525.64	138.09
525.81	234.05
525.98	248.10
526.16	227.03
526.33	170.86
526.50	173.20
526.67	168.52
526.84	184.90
527.01	184.90
527.18	180.22
527.36	238.73
527.53	189.58
527.70	177.88
527.87	159.16
528.04	257.46
528.21	191.92
528.38	184.90
528.55	248.10
528.72	264.48
528.89	273.84
529.07	227.03
529.24	196.60
529.41	229.37
529.58	175.54
529.75	191.92
529.92	283.20
530.09	159.16
530.26	234.05
530.43	255.12
530.60	315.97
530.77	227.03
530.94	205.97
531.11	198.95
531.28	177.88
531.46	224.69
531.63	250.44
531.80	205.97
531.97	194.26
532.14	203.63
532.31	231.71
532.48	264.48
532.65	278.52
532.82	187.24
532.99	191.92
533.16	170.86
533.33	234.05
533.50	250.44
533.67	294.91
533.84	269.16
534.01	301.93
534.18	236.39
534.35	241.08
534.52	229.37
534.69	271.50
534.86	222.35
535.03	266.82
535.20	259.80
535.37	287.89
535.54	290.23
535.71	203.63
535.88	234.05
536.05	243.42
536.22	210.65
536.38	180.22
536.55	238.73
536.72	241.08
536.89	241.08
537.06	271.50
537.23	191.92
537.40	159.16
537.57	173.20
537.74	205.97
537.91	238.73
538.08	292.57
538.25	283.20
538.42	245.76
538.59	152.13
538.75	278.52
538.92	220.01
539.09	285.55
539.26	198.95
539.43	196.60
539.60	236.39
539.77	299.59
539.94	259.80
540.11	304.27
540.28	315.97
540.44	320.65
540.61	306.61
540.78	271.50
540.95	322.99
541.12	376.83
541.29	315.97
541.46	498.53
541.62	393.21
541.79	381.51
541.96	409.59
542.13	397.89
542.30	463.43
542.47	433.00
542.63	372.15
542.80	393.21
542.97	395.55
543.14	440.02
543.31	463.43
543.48	449.38
543.64	435.34
543.81	379.17
543.98	421.30
544.15	362.78
544.32	376.83
544.48	327.68
544.65	369.80
544.82	348.74
544.99	372.15
545.16	393.21
545.32	437.68
545.49	617.90
545.66	713.86
545.83	737.27
546.00	706.84
546.16	484.49
546.33	421.30
546.50	360.44
546.67	358.10
546.83	369.80
547.00	348.74
547.17	369.80
547.34	252.78
547.50	287.89
547.67	299.59
547.84	315.97
548.00	255.12
548.17	252.78
548.34	311.29
548.51	409.59
548.67	297.25
548.84	409.59
549.01	337.04
549.18	283.20
549.34	248.10
549.51	381.51
549.68	304.27
549.84	283.20
550.01	301.93
550.18	383.85
550.34	334.70
550.51	290.23
550.68	320.65
550.84	276.18
551.01	299.59
551.18	238.73
551.34	283.20
551.51	285.55
551.68	262.14
551.84	224.69
552.01	210.65
552.18	203.63
552.34	177.88
552.51	301.93
552.68	283.20
552.84	212.99
553.01	250.44
553.18	266.82
553.34	112.35
553.51	257.46
553.67	220.01
553.84	243.42
554.01	259.80
554.17	210.65
554.34	210.65
554.51	304.27
554.67	252.78
554.84	259.80
555.00	212.99
555.17	229.37
555.33	201.29
555.50	222.35
555.67	210.65
555.83	227.03
556.00	201.29
556.16	341.72
556.33	187.24
556.50	191.92
556.66	191.92
556.83	208.31
556.99	243.42
557.16	147.45
557.32	212.99
557.49	215.33
557.65	194.26
557.82	259.80
557.98	187.24
558.15	182.56
558.32	205.97
558.48	168.52
558.65	131.07
558.81	198.95
558.98	266.82
559.14	198.95
559.31	241.08
559.47	194.26
559.64	210.65
559.80	231.71
559.97	234.05
560.13	163.84
560.30	210.65
560.46	215.33
560.63	220.01
560.79	161.50
560.96	189.58
561.12	184.90
561.29	234.05
561.45	124.05
561.61	126.39
561.78	250.44
561.94	187.24
562.11	173.20
562.27	194.26
562.44	236.39
562.60	173.20
562.77	175.54
562.93	236.39
563.10	175.54
563.26	133.41
563.42	229.37
563.59	166.18
563.75	189.58
563.92	255.12
564.08	166.18
564.24	215.33
564.41	248.10
564.57	170.86
564.74	276.18
564.90	252.78
565.07	198.95
565.23	161.50
565.39	166.18
565.56	234.05
565.72	224.69
565.88	210.65
566.05	191.92
566.21	184.90
566.38	133.41
566.54	236.39
566.70	184.90
566.87	198.95
567.03	159.16
567.19	170.86
567.36	173.20
567.52	208.31
567.68	208.31
567.85	224.69
568.01	196.60
568.17	170.86
568.34	217.67
568.50	161.50
568.66	177.88
568.83	255.12
568.99	159.16
569.15	208.31
569.32	196.60
569.48	210.65
569.64	201.29
569.81	170.86
569.97	203.63
570.13	234.05
570.30	128.73
570.46	156.82
570.62	105.32
570.78	222.35
570.95	147.45
571.11	248.10
571.27	210.65
571.43	212.99
571.60	191.92
571.76	257.46
571.92	220.01
572.09	210.65
572.25	124.05
572.41	138.09
572.57	187.24
572.74	283.20
572.90	187.24
573.06	222.35
573.22	262.14
573.38	245.76
573.55	220.01
573.71	231.71
573.87	196.60
574.03	220.01
574.20	191.92
574.36	236.39
574.52	250.44
574.68	170.86
574.84	198.95
575.01	168.52
575.17	224.69
575.33	161.50
575.49	198.95
575.65	241.08
575.82	194.26
575.98	224.69
576.14	147.45
576.30	205.97
576.46	149.79
576.62	311.29
576.79	353.42
576.95	205.97
577.11	238.73
577.27	196.60
577.43	161.50
577.59	205.97
577.75	294.91
577.92	208.31
578.08	215.33
578.24	208.31
578.40	248.10
578.56	257.46
578.72	299.59
578.88	386.19
579.04	280.86
579.21	241.08
579.37	142.77
579.53	205.97
579.69	220.01
579.85	154.48
580.01	229.37
580.17	191.92
580.33	306.61
580.49	184.90
580.65	182.56
580.82	112.35
580.98	191.92
581.14	189.58
581.30	208.31
581.46	241.08
581.62	234.05
581.78	220.01
581.94	257.46
582.10	189.58
582.26	294.91
582.42	187.24
582.58	198.95
582.74	248.10
582.90	175.54
583.06	271.50
583.22	229.37
583.38	154.48
583.54	222.35
583.70	299.59
583.86	224.69
584.02	255.12
584.18	227.03
584.34	238.73
584.50	224.69
584.66	229.37
584.82	154.48
584.98	212.99
585.14	170.86
585.30	304.27
585.46	262.14
585.62	182.56
585.78	257.46
585.94	255.12
586.10	217.67
586.26	255.12
586.42	278.52
586.58	278.52
586.74	294.91
586.90	271.50
587.06	292.57
587.22	304.27
587.38	229.37
587.54	191.92
587.70	245.76
587.86	191.92
588.02	201.29
588.18	264.48
588.34	182.56
588.49	280.86
588.65	147.45
588.81	238.73
588.97	215.33
589.13	145.11
589.29	177.88
589.45	217.67
589.61	184.90
589.77	231.71
589.93	227.03
590.08	154.48
590.24	98.30
590.40	184.90
590.56	269.16
590.72	159.16
590.88	201.29
591.04	175.54
591.20	182.56
591.35	189.58
591.51	227.03
591.67	180.22
591.83	145.11
591.99	184.90
592.15	222.35
592.31	161.50
592.46	236.39
592.62	224.69
592.78	138.09
592.94	222.35
593.10	170.86
593.26	156.82
593.41	196.60
593.57	152.13
593.73	262.14
593.89	163.84
594.05	224.69
594.20	159.16
594.36	203.63
594.52	191.92
594.68	278.52
594.84	245.76
594.99	215.33
595.15	182.56
595.31	173.20
595.47	271.50
595.62	182.56
595.78	220.01
595.94	234.05
596.10	203.63
596.25	252.78
596.41	191.92
596.57	170.86
596.73	177.88
596.88	156.82
597.04	156.82
597.20	159.16
597.36	259.80
597.51	177.88
597.67	208.31
597.83	152.13
597.99	177.88
598.14	210.65
598.30	159.16
598.46	248.10
598.61	287.89
598.77	236.39
598.93	191.92
599.09	196.60
599.24	222.35
599.40	262.14
599.56	217.67
599.71	121.71
599.87	234.05
600.03	208.31
600.18	222.35
600.34	222.35
600.50	198.95
600.65	212.99
600.81	189.58
600.97	198.95
601.12	257.46
601.28	222.35
601.44	217.67
601.59	86.60
601.75	252.78
601.91	198.95
602.06	205.97
602.22	318.31
602.37	222.35
602.53	212.99
602.69	259.80
602.84	175.54
603.00	203.63
603.16	220.01
603.31	201.29
603.47	257.46
603.62	168.52
603.78	170.86
603.94	177.88
604.09	248.10
604.25	224.69
604.40	231.71
604.56	147.45
604.71	273.84
604.87	212.99
605.03	135.75
605.18	161.50
605.34	208.31
605.49	135.75
605.65	175.54
605.80	191.92
605.96	215.33
606.12	161.50
606.27	163.84
606.43	220.01
606.58	210.65
606.74	255.12
606.89	208.31
607.05	220.01
607.20	234.05
607.36	124.05
607.51	135.75
607.67	250.44
607.82	229.37
607.98	210.65
608.13	154.48
608.29	187.24
608.44	208.31
608.60	243.42
608.75	222.35
608.91	280.86
609.06	276.18
609.22	287.89
609.37	273.84
609.53	152.13
609.68	334.70
609.84	203.63
609.99	365.12
610.15	348.74
610.30	411.93
610.46	454.06
610.61	507.90
610.76	730.25
610.92	812.17
611.07	777.06
611.23	828.55
611.38	765.36
611.54	648.33
611.69	528.96
611.84	479.81
612.00	433.00
612.15	400.23
612.31	505.56
612.46	360.44
612.62	358.10
612.77	423.64
612.92	337.04
613.08	421.30
613.23	292.57
613.39	299.59
613.54	339.38
613.69	344.06
613.85	327.68
614.00	301.93
614.15	304.27
614.31	273.84
614.46	278.52
614.62	273.84
614.77	334.70
614.92	203.63
615.08	283.20
615.23	203.63
615.38	161.50
615.54	241.08
615.69	248.10
615.84	198.95
616.00	210.65
616.15	208.31
616.30	248.10
616.46	196.60
616.61	152.13
616.76	222.35
616.92	173.20
617.07	187.24
617.22	227.03
617.37	145.11
617.53	224.69
617.68	222.35
617.83	166.18
617.99	346.40
618.14	238.73
618.29	252.78
618.45	156.82
618.60	133.41
618.75	187.24
618.90	173.20
619.06	250.44
619.21	208.31
619.36	201.29
619.51	170.86
619.67	220.01
619.82	175.54
619.97	138.09
620.12	196.60
620.28	152.13
620.43	133.41
620.58	201.29
620.73	278.52
620.89	236.39
621.04	203.63
621.19	264.48
621.34	196.60
621.49	196.60
621.65	175.54
621.80	133.41
621.95	152.13
622.10	149.79
622.25	231.71
622.41	212.99
622.56	217.67
622.71	170.86
622.86	229.37
623.01	252.78
623.16	205.97
623.32	250.44
623.47	198.95
623.62	212.99
623.77	145.11
623.92	147.45
624.07	110.01
624.23	210.65
624.38	177.88
624.53	210.65
624.68	238.73
624.83	229.37
624.98	170.86
625.13	220.01
625.29	131.07
625.44	222.35
625.59	208.31
625.74	238.73
625.89	182.56
626.04	163.84
626.19	140.43
626.34	189.58
626.49	156.82
626.65	205.97
626.80	220.01
626.95	205.97
627.10	77.24
627.25	114.69
627.40	175.54
627.55	161.50
627.70	128.73
627.85	180.22
628.00	166.18
628.15	187.24
628.30	220.01
628.45	194.26
628.60	194.26
628.76	180.22
628.91	159.16
629.06	138.09
629.21	168.52
629.36	177.88
629.51	184.90
629.66	182.56
629.81	147.45
629.96	212.99
630.11	269.16
630.26	156.82
630.41	203.63
630.56	222.35
630.71	138.09
630.86	212.99
631.01	231.71
631.16	266.82
631.31	217.67
631.46	236.39
631.61	203.63
631.76	154.48
631.91	168.52
632.06	191.92
632.21	212.99
632.36	128.73
632.51	156.82
632.66	189.58
632.81	145.11
632.96	149.79
633.10	168.52
633.25	187.24
633.40	229.37
633.55	224.69
633.70	198.95
633.85	133.41
634.00	166.18
634.15	145.11
634.30	135.75
634.45	159.16
634.60	126.39
634.75	126.39
634.90	149.79
635.05	154.48
635.19	166.18
635.34	159.16
635.49	161.50
635.64	138.09
635.79	124.05
635.94	208.31
636.09	243.42
636.24	142.77
636.39	124.05
636.53	105.32
636.68	110.01
636.83	173.20
636.98	241.08
637.13	194.26
637.28	135.75
637.43	210.65
637.57	236.39
637.72	110.01
637.87	173.20
638.02	147.45
638.17	124.05
638.32	168.52
638.46	191.92
638.61	173.20
638.76	84.26
638.91	166.18
639.06	107.66
639.20	175.54
639.35	168.52
639.50	215.33
639.65	163.84
639.80	93.62
639.94	177.88
640.09	210.65
640.24	184.90
640.39	166.18
640.54	182.56
640.68	124.05
640.83	168.52
640.98	194.26
641.13	117.03
641.27	133.41
641.42	145.11
641.57	208.31
641.72	128.73
641.86	112.35
642.01	201.29
642.16	161.50
642.31	138.09
642.45	205.97
642.60	196.60
642.75	126.39
642.90	203.63
643.04	135.75
643.19	98.30
643.34	184.90
643.48	149.79
643.63	147.45
643.78	194.26
643.93	203.63
644.07	177.88
644.22	210.65
644.37	98.30
644.51	229.37
644.66	135.75
644.81	173.20
644.95	184.90
645.10	121.71
645.25	208.31
645.39	156.82
645.54	126.39
645.69	203.63
645.83	145.11
645.98	182.56
646.13	149.79
646.27	98.30
646.42	149.79
646.57	222.35
646.71	142.77
646.86	159.16
647.00	187.24
647.15	217.67
647.30	203.63
647.44	138.09
647.59	102.98
647.74	198.95
647.88	217.67
648.03	102.98
648.17	175.54
648.32	138.09
648.47	140.43
648.61	100.64
648.76	140.43
648.90	100.64
649.05	149.79
649.20	145.11
649.34	168.52
649.49	145.11
649.63	210.65
649.78	98.30
649.92	163.84
650.07	227.03
650.21	170.86
650.36	212.99
650.51	161.50
650.65	231.71
650.80	121.71
650.94	152.13
651.09	147.45
651.23	170.86
651.38	119.37
651.52	145.11
651.67	152.13
651.81	203.63
651.96	161.50
652.10	187.24
652.25	168.52
652.39	217.67
652.54	236.39
652.68	217.67
652.83	234.05
652.97	187.24
653.12	243.42
653.26	119.37
653.41	175.54
653.55	194.26
653.70	173.20
653.84	119.37
653.99	152.13
654.13	191.92
654.27	189.58
654.42	133.41
654.56	95.96
654.71	161.50
654.85	149.79
655.00	56.17
655.14	107.66
655.29	161.50
655.43	191.92
655.57	72.56
655.72	88.94
655.86	119.37
656.01	119.37
656.15	126.39
656.30	227.03
656.44	91.28
656.58	138.09
656.73	168.52
656.87	128.73
657.01	152.13
657.16	238.73
657.30	229.37
657.45	241.08
657.59	142.77
657.73	229.37
657.88	152.13
658.02	191.92
658.16	117.03
658.31	112.35
658.45	114.69
658.60	201.29
658.74	166.18
658.88	205.97
659.03	173.20
659.17	154.48
659.31	102.98
659.46	107.66
659.60	170.86
659.74	187.24
659.89	147.45
660.03	102.98
660.17	152.13
660.32	175.54
660.46	168.52
660.60	189.58
660.74	180.22
660.89	126.39
661.03	93.62
661.17	208.31
661.32	114.69
661.46	152.13
661.60	159.16
661.74	95.96
661.89	152.13
662.03	215.33
662.17	145.11
662.31	163.84
662.46	201.29
662.60	191.92
662.74	100.64
662.88	102.98
663.03	128.73
663.17	140.43
663.31	189.58
663.45	135.75
663.60	102.98
663.74	124.05
663.88	121.71
664.02	152.13
664.17	105.32
664.31	131.07
664.45	133.41
664.59	142.77
664.73	147.45
664.88	229.37
665.02	117.03
665.16	145.11
665.30	177.88
665.44	133.41
665.59	175.54
665.73	156.82
665.87	126.39
666.01	196.60
666.15	140.43
666.29	93.62
666.44	163.84
666.58	149.79
666.72	93.62
666.86	145.11
667.00	117.03
667.14	180.22
667.28	163.84
667.43	163.84
667.57	145.11
667.71	154.48
667.85	145.11
667.99	198.95
668.13	138.09
668.27	131.07
668.41	140.43
668.56	142.77
668.70	124.05
668.84	142.77
668.98	88.94
669.12	142.77
669.26	208.31
669.40	140.43
669.54	140.43
669.68	126.39
669.82	88.94
669.96	114.69
670.10	51.49
670.25	182.56
670.39	184.90
670.53	161.50
670.67	161.50
670.81	119.37
670.95	154.48
671.09	205.97
671.23	152.13
671.37	105.32
671.51	196.60
671.65	149.79
671.79	173.20
671.93	187.24
672.07	220.01
672.21	107.66
672.35	166.18
672.49	131.07
672.63	93.62
672.77	88.94
672.91	131.07
673.05	154.48
673.19	196.60
673.33	189.58
673.47	180.22
673.61	203.63
673.75	142.77
673.89	166.18
674.03	140.43
674.17	117.03
674.31	191.92
674.45	65.54
674.59	170.86
674.73	110.01
674.87	156.82
675.01	121.71
675.15	189.58
675.29	189.58
675.43	189.58
675.56	212.99
675.70	227.03
675.84	93.62
675.98	191.92
676.12	79.58
676.26	159.16
676.40	100.64
676.54	159.16
676.68	124.05
676.82	124.05
676.96	93.62
677.10	147.45
677.23	142.77
677.37	196.60
677.51	126.39
677.65	182.56
677.79	102.98
677.93	156.82
678.07	100.64
678.21	84.26
678.34	53.83
678.48	184.90
678.62	184.90
678.76	128.73
678.90	91.28
679.04	91.28
679.18	198.95
679.31	149.79
679.45	217.67
679.59	112.35
679.73	98.30
679.87	131.07
680.00	175.54
680.14	138.09
680.28	224.69
680.42	138.09
680.56	81.92
680.70	117.03
680.83	114.69
680.97	93.62
681.11	133.41
681.25	168.52
681.39	140.43
681.52	138.09
681.66	110.01
681.80	128.73
681.94	86.60
682.07	124.05
682.21	161.50
682.35	102.98
682.49	112.35
682.62	222.35
682.76	124.05
682.90	166.18
683.04	147.45
683.17	149.79
683.31	140.43
683.45	124.05
683.59	147.45
683.72	131.07
683.86	140.43
684.00	131.07
684.13	110.01
684.27	140.43
684.41	170.86
684.55	91.28
684.68	170.86
684.82	147.45
684.96	105.32
685.09	72.56
685.23	175.54
685.37	93.62
685.50	140.43
685.64	149.79
685.78	168.52
685.91	105.32
686.05	194.26
686.19	112.35
686.32	166.18
686.46	177.88
686.60	77.24
686.73	166.18
686.87	77.24
687.01	112.35
687.14	88.94
687.28	124.05
687.42	112.35
687.55	170.86
687.69	152.13
687.82	51.49
687.96	170.86
688.10	175.54
688.23	93.62
688.37	117.03
688.50	180.22
688.64	105.32
688.78	110.01
688.91	203.63
689.05	117.03
689.18	138.09
689.32	147.45
689.46	98.30
689.59	161.50
689.73	135.75
689.86	135.75
690.00	138.09
690.13	156.82
690.27	79.58
690.41	95.96
690.54	173.20
690.68	107.66
690.81	65.54
690.95	133.41
691.08	119.37
691.22	102.98
691.35	180.22
691.49	51.49
691.62	112.35
691.76	133.41
691.89	128.73
692.03	156.82
692.16	100.64
692.30	128.73
692.43	149.79
692.57	60.85
692.70	177.88
692.84	128.73
692.97	145.11
693.11	119.37
693.24	88.94
693.38	131.07
693.51	70.22
693.65	262.14
693.78	133.41
693.92	112.35
694.05	100.64
694.19	131.07
694.32	114.69
694.45	170.86
694.59	173.20
694.72	145.11
694.86	138.09
694.99	154.48
695.13	49.15
695.26	93.62
695.39	65.54
695.53	194.26
695.66	189.58
695.80	102.98
695.93	121.71
696.07	182.56
696.20	135.75
696.33	65.54
696.47	131.07
696.60	91.28
696.73	107.66
696.87	56.17
697.00	142.77
697.14	93.62
697.27	173.20
697.40	175.54
697.54	154.48
697.67	102.98
697.80	117.03
697.94	77.24
698.07	128.73
698.21	112.35
698.34	128.73
698.47	128.73
698.61	124.05
698.74	110.01
698.87	119.37
699.01	135.75
699.14	39.79
699.27	91.28
699.40	224.69
699.54	117.03
699.67	184.90
699.80	168.52
699.94	159.16
700.07	65.54
700.20	72.56
700.34	84.26
700.47	114.69
700.60	98.30
700.73	119.37
700.87	140.43
701.00	79.58
701.13	105.32
701.26	107.66
701.40	154.48
701.53	154.48
701.66	138.09
701.79	95.96
701.93	142.77
702.06	124.05
702.19	56.17
702.32	149.79
702.46	163.84
702.59	74.90
702.72	140.43
702.85	95.96
702.99	77.24
703.12	135.75
703.25	56.17
703.38	102.98
703.51	161.50
703.65	95.96
703.78	105.32
703.91	100.64
704.04	142.77
704.17	95.96
704.31	142.77
704.44	67.88
704.57	140.43
704.70	72.56
704.83	117.03
704.96	72.56
705.10	133.41
705.23	138.09
>>>>>End Processed Spectral Data<<<<<
