SpectraSuite Data File
++++++++++++++++++++++++++++++++++++
Date: Fri Oct 04 11:42:07 GMT-05:00 2013
User: price-jones
Dark Spectrum Present: No
Reference Spectrum Present: No
Number of Sampled Component Spectra: 1
Spectrometers: USB2+H05261
Integration Time (usec): 100000 (USB2+H05261)
Spectra Averaged: 1 (USB2+H05261)
Boxcar Smoothing: 0 (USB2+H05261)
Correct for Electrical Dark: No (USB2+H05261)
Strobe/Lamp Enabled: No (USB2+H05261)
Correct for Detector Non-linearity: No (USB2+H05261)
Correct for Stray Light: No (USB2+H05261)
Number of Pixels in Processed Spectrum: 2048
>>>>>Begin Processed Spectral Data<<<<<
365.73	23.41
365.92	23.41
366.12	23.41
366.32	0.00
366.52	0.00
366.72	9.36
366.91	0.00
367.11	0.00
367.31	0.00
367.51	0.00
367.70	0.00
367.90	0.00
368.10	0.00
368.30	0.00
368.49	4.68
368.69	7.02
368.89	0.00
369.09	0.00
369.28	11.70
369.48	0.00
369.68	49.15
369.87	0.00
370.07	9.36
370.27	11.70
370.47	88.94
370.66	23.41
370.86	72.56
371.06	114.69
371.25	70.22
371.45	0.00
371.65	72.56
371.84	44.47
372.04	0.00
372.24	77.24
372.44	98.30
372.63	84.26
372.83	159.16
373.03	86.60
373.22	65.54
373.42	88.94
373.62	84.26
373.81	74.90
374.01	98.30
374.21	44.47
374.40	124.05
374.60	112.35
374.79	105.32
374.99	147.45
375.19	91.28
375.38	86.60
375.58	126.39
375.78	142.77
375.97	105.32
376.17	114.69
376.37	93.62
376.56	88.94
376.76	121.71
376.95	128.73
377.15	105.32
377.35	138.09
377.54	133.41
377.74	196.60
377.93	124.05
378.13	114.69
378.33	74.90
378.52	100.64
378.72	189.58
378.91	124.05
379.11	119.37
379.31	53.83
379.50	98.30
379.70	56.17
379.89	154.48
380.09	72.56
380.28	79.58
380.48	133.41
380.68	79.58
380.87	37.45
381.07	131.07
381.26	110.01
381.46	98.30
381.65	56.17
381.85	53.83
382.04	81.92
382.24	133.41
382.43	74.90
382.63	72.56
382.83	112.35
383.02	173.20
383.22	133.41
383.41	98.30
383.61	53.83
383.80	58.51
384.00	86.60
384.19	25.75
384.39	128.73
384.58	114.69
384.78	84.26
384.97	93.62
385.17	70.22
385.36	117.03
385.56	168.52
385.75	112.35
385.95	154.48
386.14	126.39
386.34	117.03
386.53	63.19
386.72	81.92
386.92	191.92
387.11	147.45
387.31	105.32
387.50	42.13
387.70	37.45
387.89	117.03
388.09	65.54
388.28	121.71
388.48	70.22
388.67	117.03
388.86	112.35
389.06	168.52
389.25	140.43
389.45	121.71
389.64	58.51
389.84	107.66
390.03	105.32
390.22	156.82
390.42	35.11
390.61	121.71
390.81	79.58
391.00	187.24
391.19	173.20
391.39	79.58
391.58	166.18
391.78	93.62
391.97	105.32
392.16	72.56
392.36	84.26
392.55	156.82
392.75	84.26
392.94	60.85
393.13	133.41
393.33	88.94
393.52	81.92
393.71	131.07
393.91	84.26
394.10	168.52
394.29	98.30
394.49	28.09
394.68	138.09
394.88	154.48
395.07	154.48
395.26	124.05
395.46	70.22
395.65	84.26
395.84	112.35
396.04	180.22
396.23	65.54
396.42	93.62
396.62	119.37
396.81	95.96
397.00	65.54
397.19	102.98
397.39	149.79
397.58	81.92
397.77	124.05
397.97	163.84
398.16	107.66
398.35	121.71
398.55	114.69
398.74	119.37
398.93	133.41
399.12	77.24
399.32	175.54
399.51	105.32
399.70	107.66
399.90	119.37
400.09	98.30
400.28	119.37
400.47	88.94
400.67	95.96
400.86	91.28
401.05	46.81
401.24	81.92
401.44	152.13
401.63	161.50
401.82	30.43
402.01	100.64
402.21	119.37
402.40	131.07
402.59	105.32
402.78	124.05
402.97	81.92
403.17	119.37
403.36	39.79
403.55	163.84
403.74	140.43
403.93	119.37
404.13	203.63
404.32	220.01
404.51	145.11
404.70	168.52
404.89	74.90
405.09	170.86
405.28	128.73
405.47	67.88
405.66	189.58
405.85	138.09
406.05	128.73
406.24	161.50
406.43	121.71
406.62	147.45
406.81	170.86
407.00	170.86
407.20	110.01
407.39	93.62
407.58	98.30
407.77	98.30
407.96	154.48
408.15	154.48
408.34	98.30
408.54	110.01
408.73	81.92
408.92	117.03
409.11	112.35
409.30	166.18
409.49	88.94
409.68	100.64
409.87	152.13
410.07	93.62
410.26	88.94
410.45	102.98
410.64	84.26
410.83	112.35
411.02	161.50
411.21	107.66
411.40	152.13
411.59	140.43
411.78	102.98
411.98	35.11
412.17	88.94
412.36	128.73
412.55	14.04
412.74	177.88
412.93	168.52
413.12	91.28
413.31	93.62
413.50	128.73
413.69	70.22
413.88	152.13
414.07	84.26
414.26	58.51
414.45	95.96
414.64	74.90
414.83	128.73
415.02	91.28
415.22	201.29
415.41	140.43
415.60	79.58
415.79	149.79
415.98	210.65
416.17	140.43
416.36	180.22
416.55	100.64
416.74	184.90
416.93	145.11
417.12	124.05
417.31	105.32
417.50	163.84
417.69	170.86
417.88	91.28
418.07	79.58
418.26	128.73
418.45	170.86
418.64	145.11
418.83	212.99
419.02	170.86
419.21	163.84
419.39	156.82
419.58	142.77
419.77	84.26
419.96	177.88
420.15	170.86
420.34	161.50
420.53	135.75
420.72	112.35
420.91	161.50
421.10	95.96
421.29	149.79
421.48	138.09
421.67	138.09
421.86	102.98
422.05	180.22
422.24	65.54
422.43	159.16
422.61	9.36
422.80	145.11
422.99	102.98
423.18	128.73
423.37	145.11
423.56	121.71
423.75	114.69
423.94	110.01
424.13	126.39
424.32	142.77
424.50	133.41
424.69	117.03
424.88	187.24
425.07	128.73
425.26	114.69
425.45	105.32
425.64	161.50
425.83	107.66
426.01	149.79
426.20	72.56
426.39	117.03
426.58	138.09
426.77	187.24
426.96	187.24
427.15	222.35
427.33	184.90
427.52	124.05
427.71	105.32
427.90	114.69
428.09	154.48
428.28	18.72
428.46	126.39
428.65	184.90
428.84	100.64
429.03	112.35
429.22	241.08
429.40	112.35
429.59	133.41
429.78	159.16
429.97	56.17
430.16	135.75
430.34	180.22
430.53	163.84
430.72	177.88
430.91	156.82
431.10	102.98
431.28	98.30
431.47	149.79
431.66	175.54
431.85	114.69
432.03	131.07
432.22	170.86
432.41	117.03
432.60	203.63
432.79	133.41
432.97	102.98
433.16	79.58
433.35	152.13
433.54	114.69
433.72	119.37
433.91	117.03
434.10	53.83
434.28	168.52
434.47	138.09
434.66	201.29
434.85	140.43
435.03	231.71
435.22	383.85
435.41	550.03
435.59	538.32
435.78	404.91
435.97	227.03
436.16	177.88
436.34	156.82
436.53	154.48
436.72	184.90
436.90	138.09
437.09	159.16
437.28	224.69
437.46	102.98
437.65	159.16
437.84	142.77
438.02	142.77
438.21	95.96
438.40	187.24
438.58	140.43
438.77	145.11
438.96	163.84
439.14	189.58
439.33	149.79
439.52	110.01
439.70	126.39
439.89	170.86
440.08	180.22
440.26	168.52
440.45	173.20
440.63	189.58
440.82	177.88
441.01	154.48
441.19	86.60
441.38	124.05
441.57	121.71
441.75	168.52
441.94	220.01
442.12	168.52
442.31	102.98
442.50	163.84
442.68	161.50
442.87	166.18
443.05	119.37
443.24	105.32
443.43	126.39
443.61	184.90
443.80	107.66
443.98	159.16
444.17	187.24
444.35	201.29
444.54	182.56
444.73	161.50
444.91	145.11
445.10	100.64
445.28	154.48
445.47	236.39
445.65	201.29
445.84	210.65
446.02	81.92
446.21	182.56
446.39	152.13
446.58	95.96
446.77	156.82
446.95	222.35
447.14	91.28
447.32	173.20
447.51	163.84
447.69	112.35
447.88	182.56
448.06	196.60
448.25	166.18
448.43	138.09
448.62	131.07
448.80	161.50
448.99	159.16
449.17	184.90
449.36	180.22
449.54	100.64
449.73	187.24
449.91	208.31
450.10	163.84
450.28	217.67
450.46	156.82
450.65	86.60
450.83	147.45
451.02	170.86
451.20	241.08
451.39	184.90
451.57	95.96
451.76	187.24
451.94	227.03
452.13	131.07
452.31	159.16
452.49	210.65
452.68	98.30
452.86	156.82
453.05	117.03
453.23	180.22
453.42	67.88
453.60	124.05
453.78	198.95
453.97	159.16
454.15	112.35
454.34	142.77
454.52	177.88
454.70	159.16
454.89	205.97
455.07	88.94
455.26	133.41
455.44	86.60
455.62	217.67
455.81	196.60
455.99	159.16
456.17	154.48
456.36	184.90
456.54	140.43
456.73	124.05
456.91	231.71
457.09	138.09
457.28	217.67
457.46	177.88
457.64	166.18
457.83	205.97
458.01	147.45
458.19	138.09
458.38	201.29
458.56	112.35
458.74	154.48
458.93	135.75
459.11	135.75
459.29	168.52
459.48	208.31
459.66	191.92
459.84	107.66
460.03	248.10
460.21	161.50
460.39	112.35
460.57	152.13
460.76	135.75
460.94	88.94
461.12	138.09
461.31	170.86
461.49	140.43
461.67	191.92
461.85	128.73
462.04	147.45
462.22	601.52
462.40	180.22
462.59	133.41
462.77	159.16
462.95	180.22
463.13	168.52
463.32	142.77
463.50	145.11
463.68	161.50
463.86	154.48
464.05	119.37
464.23	201.29
464.41	135.75
464.59	114.69
464.78	184.90
464.96	110.01
465.14	161.50
465.32	159.16
465.50	142.77
465.69	119.37
465.87	67.88
466.05	198.95
466.23	142.77
466.41	105.32
466.60	107.66
466.78	128.73
466.96	196.60
467.14	154.48
467.32	227.03
467.51	163.84
467.69	154.48
467.87	205.97
468.05	131.07
468.23	187.24
468.41	198.95
468.60	149.79
468.78	149.79
468.96	102.98
469.14	168.52
469.32	147.45
469.50	95.96
469.69	156.82
469.87	114.69
470.05	154.48
470.23	72.56
470.41	187.24
470.59	147.45
470.77	117.03
470.95	121.71
471.14	175.54
471.32	88.94
471.50	145.11
471.68	182.56
471.86	215.33
472.04	166.18
472.22	142.77
472.40	102.98
472.58	81.92
472.77	147.45
472.95	149.79
473.13	243.42
473.31	210.65
473.49	145.11
473.67	133.41
473.85	187.24
474.03	168.52
474.21	152.13
474.39	147.45
474.57	205.97
474.75	198.95
474.93	84.26
475.12	142.77
475.30	203.63
475.48	170.86
475.66	166.18
475.84	156.82
476.02	156.82
476.20	182.56
476.38	184.90
476.56	234.05
476.74	147.45
476.92	128.73
477.10	168.52
477.28	119.37
477.46	224.69
477.64	145.11
477.82	105.32
478.00	198.95
478.18	208.31
478.36	156.82
478.54	182.56
478.72	133.41
478.90	187.24
479.08	145.11
479.26	110.01
479.44	203.63
479.62	63.19
479.80	119.37
479.98	194.26
480.16	126.39
480.34	205.97
480.52	145.11
480.70	191.92
480.88	105.32
481.06	102.98
481.24	189.58
481.41	140.43
481.59	184.90
481.77	161.50
481.95	140.43
482.13	170.86
482.31	138.09
482.49	189.58
482.67	194.26
482.85	264.48
483.03	208.31
483.21	170.86
483.39	168.52
483.57	124.05
483.74	238.73
483.92	152.13
484.10	131.07
484.28	259.80
484.46	273.84
484.64	140.43
484.82	243.42
485.00	133.41
485.18	276.18
485.35	212.99
485.53	114.69
485.71	222.35
485.89	156.82
486.07	201.29
486.25	241.08
486.43	203.63
486.61	280.86
486.78	154.48
486.96	166.18
487.14	198.95
487.32	243.42
487.50	159.16
487.68	196.60
487.85	201.29
488.03	173.20
488.21	215.33
488.39	208.31
488.57	215.33
488.75	252.78
488.92	425.98
489.10	245.76
489.28	252.78
489.46	163.84
489.64	203.63
489.81	194.26
489.99	198.95
490.17	290.23
490.35	252.78
490.53	201.29
490.70	112.35
490.88	156.82
491.06	227.03
491.24	175.54
491.41	255.12
491.59	215.33
491.77	184.90
491.95	205.97
492.13	205.97
492.30	198.95
492.48	154.48
492.66	161.50
492.84	243.42
493.01	241.08
493.19	236.39
493.37	264.48
493.54	203.63
493.72	203.63
493.90	173.20
494.08	135.75
494.25	189.58
494.43	231.71
494.61	241.08
494.79	126.39
494.96	222.35
495.14	231.71
495.32	248.10
495.49	245.76
495.67	170.86
495.85	168.52
496.02	220.01
496.20	227.03
496.38	159.16
496.55	278.52
496.73	278.52
496.91	203.63
497.09	217.67
497.26	170.86
497.44	283.20
497.62	177.88
497.79	220.01
497.97	208.31
498.14	224.69
498.32	191.92
498.50	177.88
498.67	161.50
498.85	184.90
499.03	196.60
499.20	208.31
499.38	194.26
499.56	149.79
499.73	224.69
499.91	201.29
500.08	255.12
500.26	212.99
500.44	210.65
500.61	215.33
500.79	212.99
500.97	196.60
501.14	229.37
501.32	252.78
501.49	166.18
501.67	159.16
501.84	212.99
502.02	222.35
502.20	238.73
502.37	180.22
502.55	102.98
502.72	145.11
502.90	227.03
503.07	175.54
503.25	220.01
503.43	175.54
503.60	112.35
503.78	198.95
503.95	187.24
504.13	173.20
504.30	191.92
504.48	198.95
504.65	241.08
504.83	154.48
505.01	166.18
505.18	163.84
505.36	138.09
505.53	133.41
505.71	252.78
505.88	271.50
506.06	201.29
506.23	224.69
506.41	159.16
506.58	227.03
506.76	229.37
506.93	229.37
507.11	173.20
507.28	184.90
507.46	220.01
507.63	191.92
507.81	210.65
507.98	159.16
508.16	140.43
508.33	163.84
508.50	187.24
508.68	198.95
508.85	238.73
509.03	250.44
509.20	133.41
509.38	285.55
509.55	301.93
509.73	173.20
509.90	205.97
510.08	227.03
510.25	234.05
510.42	128.73
510.60	184.90
510.77	208.31
510.95	196.60
511.12	180.22
511.30	210.65
511.47	245.76
511.64	201.29
511.82	140.43
511.99	177.88
512.17	138.09
512.34	159.16
512.51	112.35
512.69	222.35
512.86	224.69
513.04	112.35
513.21	266.82
513.38	234.05
513.56	152.13
513.73	215.33
513.90	182.56
514.08	205.97
514.25	229.37
514.43	126.39
514.60	147.45
514.77	203.63
514.95	269.16
515.12	243.42
515.29	217.67
515.47	198.95
515.64	180.22
515.81	234.05
515.99	215.33
516.16	250.44
516.33	201.29
516.51	131.07
516.68	266.82
516.85	154.48
517.03	241.08
517.20	222.35
517.37	220.01
517.54	224.69
517.72	262.14
517.89	189.58
518.06	159.16
518.24	208.31
518.41	259.80
518.58	166.18
518.75	142.77
518.93	187.24
519.10	191.92
519.27	159.16
519.45	191.92
519.62	156.82
519.79	259.80
519.96	227.03
520.14	250.44
520.31	189.58
520.48	187.24
520.65	236.39
520.83	266.82
521.00	196.60
521.17	276.18
521.34	210.65
521.52	180.22
521.69	131.07
521.86	110.01
522.03	203.63
522.20	222.35
522.38	161.50
522.55	198.95
522.72	142.77
522.89	182.56
523.07	220.01
523.24	168.52
523.41	283.20
523.58	166.18
523.75	140.43
523.92	198.95
524.10	220.01
524.27	255.12
524.44	173.20
524.61	149.79
524.78	201.29
524.96	131.07
525.13	180.22
525.30	203.63
525.47	264.48
525.64	227.03
525.81	227.03
525.98	140.43
526.16	194.26
526.33	187.24
526.50	156.82
526.67	201.29
526.84	196.60
527.01	187.24
527.18	238.73
527.36	182.56
527.53	177.88
527.70	290.23
527.87	224.69
528.04	344.06
528.21	198.95
528.38	290.23
528.55	294.91
528.72	220.01
528.89	215.33
529.07	203.63
529.24	163.84
529.41	215.33
529.58	269.16
529.75	229.37
529.92	142.77
530.09	184.90
530.26	224.69
530.43	231.71
530.60	208.31
530.77	198.95
530.94	231.71
531.11	243.42
531.28	210.65
531.46	152.13
531.63	222.35
531.80	168.52
531.97	156.82
532.14	243.42
532.31	255.12
532.48	245.76
532.65	283.20
532.82	217.67
532.99	224.69
533.16	287.89
533.33	227.03
533.50	217.67
533.67	241.08
533.84	203.63
534.01	248.10
534.18	299.59
534.35	182.56
534.52	245.76
534.69	220.01
534.86	273.84
535.03	255.12
535.20	264.48
535.37	182.56
535.54	283.20
535.71	271.50
535.88	182.56
536.05	217.67
536.22	259.80
536.38	217.67
536.55	285.55
536.72	227.03
536.89	248.10
537.06	222.35
537.23	227.03
537.40	313.63
537.57	262.14
537.74	259.80
537.91	294.91
538.08	241.08
538.25	283.20
538.42	203.63
538.59	308.95
538.75	264.48
538.92	266.82
539.09	327.68
539.26	325.33
539.43	372.15
539.60	301.93
539.77	374.49
539.94	322.99
540.11	360.44
540.28	365.12
540.44	425.98
540.61	388.53
540.78	444.70
540.95	456.40
541.12	594.50
541.29	517.26
541.46	587.47
541.62	566.41
541.79	533.64
541.96	449.38
542.13	585.13
542.30	606.20
542.47	507.90
542.63	599.18
542.80	505.56
542.97	557.05
543.14	498.53
543.31	554.71
543.48	519.60
543.64	580.45
543.81	554.71
543.98	463.43
544.15	571.09
544.32	543.00
544.48	531.30
544.65	571.09
544.82	505.56
544.99	430.66
545.16	550.03
545.32	540.66
545.49	873.02
545.66	1100.05
545.83	1268.57
546.00	1018.13
546.16	699.82
546.33	631.94
546.50	500.87
546.67	524.28
546.83	402.57
547.00	425.98
547.17	500.87
547.34	365.12
547.50	386.19
547.67	458.74
547.84	397.89
548.00	397.89
548.17	320.65
548.34	402.57
548.51	339.38
548.67	437.68
548.84	341.72
549.01	409.59
549.18	313.63
549.34	386.19
549.51	393.21
549.68	344.06
549.84	262.14
550.01	304.27
550.18	400.23
550.34	311.29
550.51	236.39
550.68	369.80
550.84	294.91
551.01	304.27
551.18	290.23
551.34	224.69
551.51	222.35
551.68	236.39
551.84	332.36
552.01	257.46
552.18	308.95
552.34	266.82
552.51	280.86
552.68	248.10
552.84	262.14
553.01	283.20
553.18	227.03
553.34	243.42
553.51	255.12
553.67	311.29
553.84	301.93
554.01	262.14
554.17	222.35
554.34	245.76
554.51	222.35
554.67	248.10
554.84	194.26
555.00	215.33
555.17	285.55
555.33	234.05
555.50	236.39
555.67	161.50
555.83	245.76
556.00	238.73
556.16	390.87
556.33	287.89
556.50	220.01
556.66	161.50
556.83	166.18
556.99	252.78
557.16	234.05
557.32	208.31
557.49	227.03
557.65	217.67
557.82	142.77
557.98	257.46
558.15	198.95
558.32	133.41
558.48	205.97
558.65	175.54
558.81	196.60
558.98	175.54
559.14	180.22
559.31	194.26
559.47	220.01
559.64	205.97
559.80	278.52
559.97	220.01
560.13	173.20
560.30	170.86
560.46	189.58
560.63	224.69
560.79	194.26
560.96	278.52
561.12	212.99
561.29	257.46
561.45	243.42
561.61	222.35
561.78	269.16
561.94	234.05
562.11	243.42
562.27	212.99
562.44	163.84
562.60	205.97
562.77	177.88
562.93	222.35
563.10	234.05
563.26	194.26
563.42	217.67
563.59	189.58
563.75	236.39
563.92	276.18
564.08	194.26
564.24	280.86
564.41	227.03
564.57	161.50
564.74	227.03
564.90	189.58
565.07	168.52
565.23	229.37
565.39	215.33
565.56	142.77
565.72	203.63
565.88	229.37
566.05	91.28
566.21	250.44
566.38	234.05
566.54	264.48
566.70	210.65
566.87	184.90
567.03	248.10
567.19	198.95
567.36	259.80
567.52	156.82
567.68	212.99
567.85	255.12
568.01	187.24
568.17	140.43
568.34	187.24
568.50	245.76
568.66	203.63
568.83	290.23
568.99	191.92
569.15	283.20
569.32	255.12
569.48	159.16
569.64	231.71
569.81	166.18
569.97	177.88
570.13	184.90
570.30	182.56
570.46	224.69
570.62	245.76
570.78	163.84
570.95	93.62
571.11	287.89
571.27	159.16
571.43	149.79
571.60	234.05
571.76	152.13
571.92	184.90
572.09	159.16
572.25	191.92
572.41	196.60
572.57	248.10
572.74	255.12
572.90	259.80
573.06	231.71
573.22	236.39
573.38	243.42
573.55	187.24
573.71	189.58
573.87	124.05
574.03	252.78
574.20	189.58
574.36	238.73
574.52	114.69
574.68	201.29
574.84	252.78
575.01	217.67
575.17	205.97
575.33	189.58
575.49	229.37
575.65	271.50
575.82	177.88
575.98	255.12
576.14	210.65
576.30	276.18
576.46	264.48
576.62	386.19
576.79	348.74
576.95	367.46
577.11	266.82
577.27	166.18
577.43	245.76
577.59	248.10
577.75	187.24
577.92	189.58
578.08	184.90
578.24	210.65
578.40	290.23
578.56	306.61
578.72	418.96
578.88	367.46
579.04	362.78
579.21	369.80
579.37	212.99
579.53	222.35
579.69	227.03
579.85	236.39
580.01	292.57
580.17	259.80
580.33	259.80
580.49	210.65
580.65	229.37
580.82	287.89
580.98	220.01
581.14	180.22
581.30	187.24
581.46	299.59
581.62	318.31
581.78	201.29
581.94	257.46
582.10	198.95
582.26	220.01
582.42	280.86
582.58	259.80
582.74	210.65
582.90	290.23
583.06	266.82
583.22	255.12
583.38	198.95
583.54	294.91
583.70	271.50
583.86	290.23
584.02	224.69
584.18	311.29
584.34	229.37
584.50	243.42
584.66	217.67
584.82	262.14
584.98	257.46
585.14	241.08
585.30	285.55
585.46	229.37
585.62	271.50
585.78	269.16
585.94	241.08
586.10	229.37
586.26	231.71
586.42	292.57
586.58	250.44
586.74	266.82
586.90	332.36
587.06	299.59
587.22	259.80
587.38	325.33
587.54	355.76
587.70	194.26
587.86	283.20
588.02	262.14
588.18	234.05
588.34	196.60
588.49	212.99
588.65	224.69
588.81	280.86
588.97	114.69
589.13	236.39
589.29	215.33
589.45	203.63
589.61	168.52
589.77	248.10
589.93	222.35
590.08	217.67
590.24	236.39
590.40	208.31
590.56	346.40
590.72	175.54
590.88	177.88
591.04	198.95
591.20	212.99
591.35	238.73
591.51	234.05
591.67	149.79
591.83	166.18
591.99	294.91
592.15	271.50
592.31	262.14
592.46	301.93
592.62	290.23
592.78	264.48
592.94	227.03
593.10	255.12
593.26	238.73
593.41	217.67
593.57	276.18
593.73	220.01
593.89	285.55
594.05	205.97
594.20	208.31
594.36	294.91
594.52	170.86
594.68	224.69
594.84	229.37
594.99	306.61
595.15	241.08
595.31	224.69
595.47	283.20
595.62	234.05
595.78	236.39
595.94	266.82
596.10	306.61
596.25	227.03
596.41	180.22
596.57	182.56
596.73	142.77
596.88	217.67
597.04	257.46
597.20	189.58
597.36	170.86
597.51	205.97
597.67	198.95
597.83	236.39
597.99	255.12
598.14	187.24
598.30	252.78
598.46	292.57
598.61	248.10
598.77	250.44
598.93	294.91
599.09	224.69
599.24	234.05
599.40	322.99
599.56	294.91
599.71	241.08
599.87	222.35
600.03	259.80
600.18	222.35
600.34	236.39
600.50	173.20
600.65	126.39
600.81	250.44
600.97	159.16
601.12	217.67
601.28	245.76
601.44	177.88
601.59	227.03
601.75	170.86
601.91	180.22
602.06	180.22
602.22	304.27
602.37	205.97
602.53	217.67
602.69	194.26
602.84	166.18
603.00	177.88
603.16	250.44
603.31	201.29
603.47	173.20
603.62	170.86
603.78	229.37
603.94	166.18
604.09	290.23
604.25	245.76
604.40	259.80
604.56	142.77
604.71	229.37
604.87	177.88
605.03	170.86
605.18	149.79
605.34	205.97
605.49	161.50
605.65	177.88
605.80	210.65
605.96	220.01
606.12	208.31
606.27	241.08
606.43	175.54
606.58	248.10
606.74	196.60
606.89	184.90
607.05	238.73
607.20	229.37
607.36	220.01
607.51	327.68
607.67	255.12
607.82	229.37
607.98	248.10
608.13	238.73
608.29	266.82
608.44	262.14
608.60	283.20
608.75	318.31
608.91	308.95
609.06	301.93
609.22	367.46
609.37	285.55
609.53	330.02
609.68	287.89
609.84	425.98
609.99	372.15
610.15	458.74
610.30	510.24
610.46	638.97
610.61	863.66
610.76	891.74
610.92	1090.69
611.07	1090.69
611.23	1179.63
611.38	1128.14
611.54	854.30
611.69	772.38
611.84	788.76
612.00	641.31
612.15	575.77
612.31	571.09
612.46	493.85
612.62	484.49
612.77	500.87
612.92	489.17
613.08	388.53
613.23	482.15
613.39	437.68
613.54	433.00
613.69	390.87
613.85	421.30
614.00	379.17
614.15	393.21
614.31	330.02
614.46	351.08
614.62	374.49
614.77	388.53
614.92	301.93
615.08	346.40
615.23	306.61
615.38	297.25
615.54	252.78
615.69	304.27
615.84	301.93
616.00	269.16
616.15	229.37
616.30	320.65
616.46	187.24
616.61	241.08
616.76	248.10
616.92	259.80
617.07	285.55
617.22	264.48
617.37	212.99
617.53	220.01
617.68	208.31
617.83	259.80
617.99	231.71
618.14	318.31
618.29	271.50
618.45	177.88
618.60	145.11
618.75	231.71
618.90	248.10
619.06	231.71
619.21	234.05
619.36	220.01
619.51	201.29
619.67	205.97
619.82	147.45
619.97	264.48
620.12	297.25
620.28	252.78
620.43	222.35
620.58	201.29
620.73	198.95
620.89	140.43
621.04	264.48
621.19	322.99
621.34	175.54
621.49	227.03
621.65	191.92
621.80	173.20
621.95	156.82
622.10	311.29
622.25	198.95
622.41	161.50
622.56	229.37
622.71	245.76
622.86	196.60
623.01	189.58
623.16	283.20
623.32	152.13
623.47	276.18
623.62	201.29
623.77	266.82
623.92	205.97
624.07	210.65
624.23	227.03
624.38	133.41
624.53	301.93
624.68	243.42
624.83	229.37
624.98	245.76
625.13	236.39
625.29	205.97
625.44	236.39
625.59	287.89
625.74	278.52
625.89	241.08
626.04	159.16
626.19	161.50
626.34	231.71
626.49	276.18
626.65	182.56
626.80	154.48
626.95	245.76
627.10	149.79
627.25	187.24
627.40	248.10
627.55	248.10
627.70	159.16
627.85	149.79
628.00	250.44
628.15	248.10
628.30	217.67
628.45	154.48
628.60	189.58
628.76	198.95
628.91	222.35
629.06	194.26
629.21	201.29
629.36	227.03
629.51	241.08
629.66	234.05
629.81	182.56
629.96	145.11
630.11	271.50
630.26	250.44
630.41	217.67
630.56	269.16
630.71	285.55
630.86	255.12
631.01	243.42
631.16	203.63
631.31	203.63
631.46	220.01
631.61	299.59
631.76	238.73
631.91	215.33
632.06	191.92
632.21	243.42
632.36	180.22
632.51	215.33
632.66	147.45
632.81	107.66
632.96	166.18
633.10	145.11
633.25	208.31
633.40	191.92
633.55	173.20
633.70	196.60
633.85	128.73
634.00	163.84
634.15	124.05
634.30	191.92
634.45	194.26
634.60	102.98
634.75	126.39
634.90	142.77
635.05	191.92
635.19	212.99
635.34	187.24
635.49	184.90
635.64	119.37
635.79	107.66
635.94	187.24
636.09	217.67
636.24	170.86
636.39	196.60
636.53	205.97
636.68	149.79
636.83	147.45
636.98	255.12
637.13	145.11
637.28	201.29
637.43	184.90
637.57	168.52
637.72	259.80
637.87	152.13
638.02	128.73
638.17	145.11
638.32	212.99
638.46	161.50
638.61	264.48
638.76	201.29
638.91	88.94
639.06	180.22
639.20	224.69
639.35	194.26
639.50	152.13
639.65	187.24
639.80	63.19
639.94	142.77
640.09	168.52
640.24	189.58
640.39	203.63
640.54	180.22
640.68	166.18
640.83	145.11
640.98	222.35
641.13	196.60
641.27	126.39
641.42	102.98
641.57	201.29
641.72	114.69
641.86	154.48
642.01	135.75
642.16	224.69
642.31	248.10
642.45	227.03
642.60	145.11
642.75	121.71
642.90	196.60
643.04	149.79
643.19	189.58
643.34	175.54
643.48	196.60
643.63	161.50
643.78	196.60
643.93	175.54
644.07	224.69
644.22	149.79
644.37	177.88
644.51	159.16
644.66	154.48
644.81	138.09
644.95	227.03
645.10	170.86
645.25	166.18
645.39	234.05
645.54	229.37
645.69	189.58
645.83	166.18
645.98	180.22
646.13	156.82
646.27	168.52
646.42	243.42
646.57	196.60
646.71	140.43
646.86	149.79
647.00	138.09
647.15	184.90
647.30	145.11
647.44	114.69
647.59	154.48
647.74	138.09
647.88	105.32
648.03	149.79
648.17	147.45
648.32	191.92
648.47	208.31
648.61	180.22
648.76	91.28
648.90	208.31
649.05	184.90
649.20	102.98
649.34	152.13
649.49	177.88
649.63	119.37
649.78	119.37
649.92	203.63
650.07	170.86
650.21	203.63
650.36	257.46
650.51	149.79
650.65	262.14
650.80	168.52
650.94	117.03
651.09	128.73
651.23	191.92
651.38	191.92
651.52	147.45
651.67	205.97
651.81	166.18
651.96	177.88
652.10	152.13
652.25	159.16
652.39	180.22
652.54	149.79
652.68	168.52
652.83	133.41
652.97	203.63
653.12	177.88
653.26	147.45
653.41	163.84
653.55	175.54
653.70	264.48
653.84	121.71
653.99	154.48
654.13	138.09
654.27	166.18
654.42	126.39
654.56	222.35
654.71	229.37
654.85	140.43
655.00	126.39
655.14	138.09
655.29	107.66
655.43	140.43
655.57	173.20
655.72	152.13
655.86	217.67
656.01	44.47
656.15	145.11
656.30	224.69
656.44	88.94
656.58	67.88
656.73	91.28
656.87	126.39
657.01	140.43
657.16	161.50
657.30	205.97
657.45	227.03
657.59	126.39
657.73	159.16
657.88	77.24
658.02	217.67
658.16	196.60
658.31	114.69
658.45	182.56
658.60	159.16
658.74	154.48
658.88	152.13
659.03	121.71
659.17	70.22
659.31	112.35
659.46	117.03
659.60	149.79
659.74	91.28
659.89	110.01
660.03	138.09
660.17	182.56
660.32	131.07
660.46	163.84
660.60	203.63
660.74	191.92
660.89	119.37
661.03	77.24
661.17	60.85
661.32	147.45
661.46	110.01
661.60	102.98
661.74	224.69
661.89	168.52
662.03	77.24
662.17	117.03
662.31	124.05
662.46	159.16
662.60	105.32
662.74	250.44
662.88	112.35
663.03	105.32
663.17	152.13
663.31	182.56
663.45	198.95
663.60	166.18
663.74	182.56
663.88	159.16
664.02	84.26
664.17	124.05
664.31	154.48
664.45	224.69
664.59	147.45
664.73	203.63
664.88	203.63
665.02	161.50
665.16	131.07
665.30	215.33
665.44	170.86
665.59	121.71
665.73	154.48
665.87	152.13
666.01	173.20
666.15	149.79
666.29	93.62
666.44	149.79
666.58	180.22
666.72	138.09
666.86	173.20
667.00	196.60
667.14	180.22
667.28	208.31
667.43	159.16
667.57	145.11
667.71	159.16
667.85	166.18
667.99	196.60
668.13	196.60
668.27	168.52
668.41	194.26
668.56	156.82
668.70	194.26
668.84	170.86
668.98	84.26
669.12	88.94
669.26	161.50
669.40	238.73
669.54	100.64
669.68	180.22
669.82	98.30
669.96	142.77
670.10	140.43
670.25	149.79
670.39	163.84
670.53	135.75
670.67	184.90
670.81	180.22
670.95	142.77
671.09	142.77
671.23	173.20
671.37	276.18
671.51	154.48
671.65	161.50
671.79	131.07
671.93	145.11
672.07	238.73
672.21	220.01
672.35	191.92
672.49	135.75
672.63	117.03
672.77	128.73
672.91	138.09
673.05	140.43
673.19	177.88
673.33	173.20
673.47	128.73
673.61	142.77
673.75	95.96
673.89	128.73
674.03	77.24
674.17	140.43
674.31	126.39
674.45	60.85
674.59	166.18
674.73	149.79
674.87	124.05
675.01	184.90
675.15	105.32
675.29	138.09
675.43	117.03
675.56	166.18
675.70	180.22
675.84	131.07
675.98	191.92
676.12	156.82
676.26	145.11
676.40	138.09
676.54	154.48
676.68	112.35
676.82	180.22
676.96	182.56
677.10	177.88
677.23	191.92
677.37	131.07
677.51	184.90
677.65	283.20
677.79	102.98
677.93	145.11
678.07	163.84
678.21	131.07
678.34	105.32
678.48	88.94
678.62	121.71
678.76	81.92
678.90	156.82
679.04	177.88
679.18	86.60
679.31	114.69
679.45	124.05
679.59	126.39
679.73	173.20
679.87	91.28
680.00	117.03
680.14	189.58
680.28	133.41
680.42	142.77
680.56	128.73
680.70	117.03
680.83	133.41
680.97	161.50
681.11	163.84
681.25	140.43
681.39	189.58
681.52	119.37
681.66	114.69
681.80	184.90
681.94	67.88
682.07	159.16
682.21	100.64
682.35	74.90
682.49	194.26
682.62	131.07
682.76	133.41
682.90	149.79
683.04	114.69
683.17	140.43
683.31	177.88
683.45	222.35
683.59	238.73
683.72	100.64
683.86	152.13
684.00	81.92
684.13	77.24
684.27	198.95
684.41	124.05
684.55	105.32
684.68	126.39
684.82	177.88
684.96	98.30
685.09	177.88
685.23	93.62
685.37	229.37
685.50	152.13
685.64	133.41
685.78	173.20
685.91	142.77
686.05	205.97
686.19	126.39
686.32	84.26
686.46	212.99
686.60	156.82
686.73	203.63
686.87	121.71
687.01	81.92
687.14	135.75
687.28	63.19
687.42	166.18
687.55	119.37
687.69	156.82
687.82	173.20
687.96	114.69
688.10	208.31
688.23	170.86
688.37	203.63
688.50	138.09
688.64	170.86
688.78	147.45
688.91	177.88
689.05	74.90
689.18	124.05
689.32	98.30
689.46	91.28
689.59	72.56
689.73	177.88
689.86	131.07
690.00	60.85
690.13	126.39
690.27	88.94
690.41	156.82
690.54	203.63
690.68	142.77
690.81	128.73
690.95	142.77
691.08	154.48
691.22	105.32
691.35	117.03
691.49	196.60
691.62	91.28
691.76	133.41
691.89	159.16
692.03	119.37
692.16	77.24
692.30	117.03
692.43	93.62
692.57	126.39
692.70	102.98
692.84	126.39
692.97	81.92
693.11	91.28
693.24	67.88
693.38	39.79
693.51	77.24
693.65	140.43
693.78	112.35
693.92	23.41
694.05	114.69
694.19	37.45
694.32	149.79
694.45	86.60
694.59	145.11
694.72	208.31
694.86	86.60
694.99	175.54
695.13	168.52
695.26	110.01
695.39	156.82
695.53	166.18
695.66	173.20
695.80	191.92
695.93	112.35
696.07	145.11
696.20	67.88
696.33	74.90
696.47	102.98
696.60	110.01
696.73	161.50
696.87	140.43
697.00	138.09
697.14	203.63
697.27	51.49
697.40	154.48
697.54	182.56
697.67	168.52
697.80	95.96
697.94	88.94
698.07	152.13
698.21	112.35
698.34	177.88
698.47	102.98
698.61	74.90
698.74	117.03
698.87	224.69
699.01	133.41
699.14	131.07
699.27	170.86
699.40	234.05
699.54	121.71
699.67	114.69
699.80	126.39
699.94	112.35
700.07	128.73
700.20	56.17
700.34	135.75
700.47	77.24
700.60	95.96
700.73	124.05
700.87	142.77
701.00	163.84
701.13	117.03
701.26	156.82
701.40	154.48
701.53	131.07
701.66	131.07
701.79	131.07
701.93	175.54
702.06	147.45
702.19	180.22
702.32	112.35
702.46	65.54
702.59	105.32
702.72	138.09
702.85	124.05
702.99	58.51
703.12	149.79
703.25	170.86
703.38	88.94
703.51	142.77
703.65	51.49
703.78	72.56
703.91	149.79
704.04	84.26
704.17	95.96
704.31	79.58
704.44	114.69
704.57	173.20
704.70	215.33
704.83	65.54
704.96	114.69
705.10	154.48
705.23	102.98
>>>>>End Processed Spectral Data<<<<<
