SpectraSuite Data File
++++++++++++++++++++++++++++++++++++
Date: Fri Oct 04 11:42:09 GMT-05:00 2013
User: price-jones
Dark Spectrum Present: No
Reference Spectrum Present: No
Number of Sampled Component Spectra: 1
Spectrometers: USB2+H05261
Integration Time (usec): 100000 (USB2+H05261)
Spectra Averaged: 1 (USB2+H05261)
Boxcar Smoothing: 0 (USB2+H05261)
Correct for Electrical Dark: No (USB2+H05261)
Strobe/Lamp Enabled: No (USB2+H05261)
Correct for Detector Non-linearity: No (USB2+H05261)
Correct for Stray Light: No (USB2+H05261)
Number of Pixels in Processed Spectrum: 2048
>>>>>Begin Processed Spectral Data<<<<<
365.73	77.24
365.92	77.24
366.12	77.24
366.32	0.00
366.52	0.00
366.72	0.00
366.91	0.00
367.11	0.00
367.31	0.00
367.51	0.00
367.70	0.00
367.90	0.00
368.10	0.00
368.30	0.00
368.49	0.00
368.69	0.00
368.89	0.00
369.09	0.00
369.28	0.00
369.48	0.00
369.68	0.00
369.87	16.38
370.07	0.00
370.27	42.13
370.47	7.02
370.66	0.00
370.86	0.00
371.06	91.28
371.25	117.03
371.45	21.06
371.65	124.05
371.84	72.56
372.04	0.00
372.24	9.36
372.44	98.30
372.63	21.06
372.83	173.20
373.03	128.73
373.22	95.96
373.42	114.69
373.62	128.73
373.81	126.39
374.01	112.35
374.21	212.99
374.40	138.09
374.60	175.54
374.79	135.75
374.99	147.45
375.19	49.15
375.38	110.01
375.58	131.07
375.78	105.32
375.97	135.75
376.17	220.01
376.37	177.88
376.56	65.54
376.76	58.51
376.95	105.32
377.15	156.82
377.35	156.82
377.54	60.85
377.74	72.56
377.93	142.77
378.13	149.79
378.33	100.64
378.52	142.77
378.72	149.79
378.91	126.39
379.11	126.39
379.31	107.66
379.50	133.41
379.70	100.64
379.89	70.22
380.09	142.77
380.28	114.69
380.48	142.77
380.68	58.51
380.87	124.05
381.07	25.75
381.26	81.92
381.46	138.09
381.65	138.09
381.85	77.24
382.04	98.30
382.24	140.43
382.43	72.56
382.63	67.88
382.83	77.24
383.02	107.66
383.22	63.19
383.41	138.09
383.61	161.50
383.80	25.75
384.00	145.11
384.19	124.05
384.39	77.24
384.58	152.13
384.78	110.01
384.97	156.82
385.17	194.26
385.36	135.75
385.56	114.69
385.75	161.50
385.95	105.32
386.14	84.26
386.34	117.03
386.53	112.35
386.72	105.32
386.92	128.73
387.11	145.11
387.31	147.45
387.50	142.77
387.70	37.45
387.89	65.54
388.09	119.37
388.28	105.32
388.48	105.32
388.67	77.24
388.86	49.15
389.06	114.69
389.25	131.07
389.45	154.48
389.64	74.90
389.84	98.30
390.03	88.94
390.22	81.92
390.42	79.58
390.61	63.19
390.81	49.15
391.00	110.01
391.19	131.07
391.39	46.81
391.58	46.81
391.78	84.26
391.97	145.11
392.16	189.58
392.36	98.30
392.55	91.28
392.75	114.69
392.94	49.15
393.13	95.96
393.33	98.30
393.52	51.49
393.71	100.64
393.91	102.98
394.10	112.35
394.29	65.54
394.49	88.94
394.68	138.09
394.88	110.01
395.07	149.79
395.26	131.07
395.46	119.37
395.65	114.69
395.84	86.60
396.04	224.69
396.23	84.26
396.42	65.54
396.62	166.18
396.81	126.39
397.00	131.07
397.19	121.71
397.39	91.28
397.58	147.45
397.77	112.35
397.97	72.56
398.16	128.73
398.35	121.71
398.55	100.64
398.74	149.79
398.93	145.11
399.12	154.48
399.32	173.20
399.51	105.32
399.70	74.90
399.90	154.48
400.09	128.73
400.28	121.71
400.47	53.83
400.67	102.98
400.86	53.83
401.05	95.96
401.24	182.56
401.44	74.90
401.63	79.58
401.82	131.07
402.01	95.96
402.21	191.92
402.40	212.99
402.59	51.49
402.78	81.92
402.97	79.58
403.17	60.85
403.36	79.58
403.55	72.56
403.74	88.94
403.93	117.03
404.13	201.29
404.32	177.88
404.51	208.31
404.70	95.96
404.89	138.09
405.09	205.97
405.28	152.13
405.47	86.60
405.66	166.18
405.85	175.54
406.05	53.83
406.24	112.35
406.43	126.39
406.62	175.54
406.81	126.39
407.00	135.75
407.20	159.16
407.39	163.84
407.58	126.39
407.77	110.01
407.96	142.77
408.15	198.95
408.34	98.30
408.54	168.52
408.73	124.05
408.92	138.09
409.11	187.24
409.30	138.09
409.49	100.64
409.68	95.96
409.87	117.03
410.07	163.84
410.26	168.52
410.45	156.82
410.64	74.90
410.83	142.77
411.02	147.45
411.21	128.73
411.40	93.62
411.59	77.24
411.78	84.26
411.98	100.64
412.17	95.96
412.36	100.64
412.55	161.50
412.74	107.66
412.93	163.84
413.12	156.82
413.31	124.05
413.50	102.98
413.69	142.77
413.88	217.67
414.07	86.60
414.26	182.56
414.45	67.88
414.64	128.73
414.83	166.18
415.02	86.60
415.22	84.26
415.41	114.69
415.60	159.16
415.79	81.92
415.98	163.84
416.17	159.16
416.36	110.01
416.55	126.39
416.74	112.35
416.93	79.58
417.12	201.29
417.31	173.20
417.50	201.29
417.69	187.24
417.88	189.58
418.07	117.03
418.26	117.03
418.45	128.73
418.64	79.58
418.83	124.05
419.02	159.16
419.21	154.48
419.39	100.64
419.58	107.66
419.77	102.98
419.96	156.82
420.15	100.64
420.34	154.48
420.53	163.84
420.72	224.69
420.91	102.98
421.10	145.11
421.29	121.71
421.48	154.48
421.67	140.43
421.86	88.94
422.05	72.56
422.24	32.77
422.43	86.60
422.61	102.98
422.80	140.43
422.99	138.09
423.18	152.13
423.37	191.92
423.56	112.35
423.75	159.16
423.94	56.17
424.13	145.11
424.32	135.75
424.50	131.07
424.69	117.03
424.88	215.33
425.07	93.62
425.26	100.64
425.45	98.30
425.64	117.03
425.83	145.11
426.01	166.18
426.20	117.03
426.39	182.56
426.58	63.19
426.77	117.03
426.96	191.92
427.15	93.62
427.33	105.32
427.52	203.63
427.71	154.48
427.90	117.03
428.09	187.24
428.28	107.66
428.46	138.09
428.65	173.20
428.84	166.18
429.03	149.79
429.22	107.66
429.40	128.73
429.59	84.26
429.78	191.92
429.97	198.95
430.16	102.98
430.34	133.41
430.53	79.58
430.72	159.16
430.91	121.71
431.10	114.69
431.28	180.22
431.47	79.58
431.66	138.09
431.85	145.11
432.03	114.69
432.22	205.97
432.41	133.41
432.60	175.54
432.79	100.64
432.97	63.19
433.16	114.69
433.35	124.05
433.54	88.94
433.72	88.94
433.91	117.03
434.10	173.20
434.28	184.90
434.47	107.66
434.66	159.16
434.85	173.20
435.03	191.92
435.22	238.73
435.41	341.72
435.59	390.87
435.78	308.95
435.97	191.92
436.16	114.69
436.34	147.45
436.53	175.54
436.72	133.41
436.90	159.16
437.09	184.90
437.28	201.29
437.46	91.28
437.65	121.71
437.84	170.86
438.02	142.77
438.21	154.48
438.40	168.52
438.58	100.64
438.77	166.18
438.96	126.39
439.14	133.41
439.33	154.48
439.52	152.13
439.70	119.37
439.89	182.56
440.08	131.07
440.26	121.71
440.45	238.73
440.63	159.16
440.82	175.54
441.01	84.26
441.19	170.86
441.38	119.37
441.57	119.37
441.75	173.20
441.94	135.75
442.12	147.45
442.31	79.58
442.50	159.16
442.68	100.64
442.87	182.56
443.05	126.39
443.24	156.82
443.43	182.56
443.61	201.29
443.80	149.79
443.98	124.05
444.17	156.82
444.35	119.37
444.54	91.28
444.73	117.03
444.91	203.63
445.10	98.30
445.28	110.01
445.47	156.82
445.65	161.50
445.84	166.18
446.02	170.86
446.21	173.20
446.39	121.71
446.58	177.88
446.77	177.88
446.95	98.30
447.14	182.56
447.32	168.52
447.51	112.35
447.69	110.01
447.88	133.41
448.06	163.84
448.25	170.86
448.43	140.43
448.62	184.90
448.80	166.18
448.99	238.73
449.17	142.77
449.36	131.07
449.54	161.50
449.73	105.32
449.91	145.11
450.10	91.28
450.28	201.29
450.46	248.10
450.65	142.77
450.83	166.18
451.02	145.11
451.20	70.22
451.39	117.03
451.57	117.03
451.76	86.60
451.94	133.41
452.13	161.50
452.31	138.09
452.49	175.54
452.68	142.77
452.86	154.48
453.05	152.13
453.23	175.54
453.42	107.66
453.60	159.16
453.78	102.98
453.97	67.88
454.15	102.98
454.34	98.30
454.52	173.20
454.70	135.75
454.89	142.77
455.07	142.77
455.26	86.60
455.44	81.92
455.62	95.96
455.81	95.96
455.99	170.86
456.17	170.86
456.36	264.48
456.54	128.73
456.73	133.41
456.91	154.48
457.09	138.09
457.28	161.50
457.46	124.05
457.64	170.86
457.83	138.09
458.01	128.73
458.19	145.11
458.38	187.24
458.56	135.75
458.74	133.41
458.93	154.48
459.11	182.56
459.29	114.69
459.48	105.32
459.66	224.69
459.84	163.84
460.03	131.07
460.21	102.98
460.39	124.05
460.57	135.75
460.76	107.66
460.94	161.50
461.12	191.92
461.31	184.90
461.49	114.69
461.67	102.98
461.85	201.29
462.04	100.64
462.22	596.84
462.40	191.92
462.59	203.63
462.77	152.13
462.95	100.64
463.13	147.45
463.32	117.03
463.50	201.29
463.68	159.16
463.86	163.84
464.05	227.03
464.23	194.26
464.41	182.56
464.59	112.35
464.78	175.54
464.96	145.11
465.14	88.94
465.32	133.41
465.50	159.16
465.69	194.26
465.87	187.24
466.05	189.58
466.23	110.01
466.41	170.86
466.60	191.92
466.78	98.30
466.96	180.22
467.14	102.98
467.32	222.35
467.51	126.39
467.69	168.52
467.87	154.48
468.05	166.18
468.23	161.50
468.41	161.50
468.60	145.11
468.78	135.75
468.96	180.22
469.14	147.45
469.32	100.64
469.50	152.13
469.69	170.86
469.87	194.26
470.05	154.48
470.23	184.90
470.41	121.71
470.59	114.69
470.77	112.35
470.95	159.16
471.14	227.03
471.32	152.13
471.50	177.88
471.68	145.11
471.86	163.84
472.04	138.09
472.22	149.79
472.40	175.54
472.58	149.79
472.77	191.92
472.95	138.09
473.13	231.71
473.31	220.01
473.49	173.20
473.67	154.48
473.85	264.48
474.03	173.20
474.21	128.73
474.39	201.29
474.57	222.35
474.75	135.75
474.93	203.63
475.12	154.48
475.30	180.22
475.48	70.22
475.66	95.96
475.84	177.88
476.02	159.16
476.20	114.69
476.38	58.51
476.56	234.05
476.74	140.43
476.92	135.75
477.10	217.67
477.28	128.73
477.46	124.05
477.64	138.09
477.82	196.60
478.00	121.71
478.18	175.54
478.36	149.79
478.54	152.13
478.72	98.30
478.90	203.63
479.08	163.84
479.26	173.20
479.44	131.07
479.62	140.43
479.80	131.07
479.98	138.09
480.16	147.45
480.34	184.90
480.52	149.79
480.70	191.92
480.88	117.03
481.06	147.45
481.24	124.05
481.41	215.33
481.59	201.29
481.77	243.42
481.95	95.96
482.13	180.22
482.31	149.79
482.49	145.11
482.67	205.97
482.85	88.94
483.03	177.88
483.21	180.22
483.39	187.24
483.57	182.56
483.74	205.97
483.92	198.95
484.10	182.56
484.28	201.29
484.46	191.92
484.64	161.50
484.82	175.54
485.00	187.24
485.18	276.18
485.35	135.75
485.53	126.39
485.71	262.14
485.89	166.18
486.07	133.41
486.25	194.26
486.43	220.01
486.61	187.24
486.78	170.86
486.96	173.20
487.14	154.48
487.32	252.78
487.50	156.82
487.68	264.48
487.85	184.90
488.03	121.71
488.21	201.29
488.39	154.48
488.57	224.69
488.75	184.90
488.92	463.43
489.10	196.60
489.28	215.33
489.46	154.48
489.64	210.65
489.81	255.12
489.99	203.63
490.17	184.90
490.35	220.01
490.53	166.18
490.70	175.54
490.88	285.55
491.06	220.01
491.24	220.01
491.41	250.44
491.59	212.99
491.77	220.01
491.95	170.86
492.13	234.05
492.30	177.88
492.48	217.67
492.66	217.67
492.84	276.18
493.01	161.50
493.19	264.48
493.37	259.80
493.54	163.84
493.72	187.24
493.90	117.03
494.08	168.52
494.25	191.92
494.43	257.46
494.61	173.20
494.79	201.29
494.96	156.82
495.14	220.01
495.32	205.97
495.49	180.22
495.67	241.08
495.85	212.99
496.02	229.37
496.20	227.03
496.38	245.76
496.55	147.45
496.73	196.60
496.91	229.37
497.09	224.69
497.26	147.45
497.44	203.63
497.62	194.26
497.79	201.29
497.97	177.88
498.14	154.48
498.32	203.63
498.50	170.86
498.67	245.76
498.85	177.88
499.03	227.03
499.20	231.71
499.38	84.26
499.56	147.45
499.73	259.80
499.91	243.42
500.08	156.82
500.26	175.54
500.44	173.20
500.61	124.05
500.79	229.37
500.97	215.33
501.14	201.29
501.32	140.43
501.49	280.86
501.67	203.63
501.84	205.97
502.02	133.41
502.20	215.33
502.37	142.77
502.55	236.39
502.72	215.33
502.90	236.39
503.07	201.29
503.25	299.59
503.43	287.89
503.60	194.26
503.78	220.01
503.95	149.79
504.13	126.39
504.30	231.71
504.48	245.76
504.65	299.59
504.83	266.82
505.01	196.60
505.18	215.33
505.36	180.22
505.53	212.99
505.71	175.54
505.88	182.56
506.06	133.41
506.23	194.26
506.41	175.54
506.58	177.88
506.76	156.82
506.93	194.26
507.11	196.60
507.28	238.73
507.46	215.33
507.63	292.57
507.81	175.54
507.98	196.60
508.16	189.58
508.33	173.20
508.50	257.46
508.68	182.56
508.85	175.54
509.03	220.01
509.20	177.88
509.38	170.86
509.55	149.79
509.73	212.99
509.90	308.95
510.08	269.16
510.25	149.79
510.42	154.48
510.60	210.65
510.77	175.54
510.95	234.05
511.12	201.29
511.30	208.31
511.47	191.92
511.64	248.10
511.82	154.48
511.99	210.65
512.17	189.58
512.34	191.92
512.51	184.90
512.69	189.58
512.86	187.24
513.04	205.97
513.21	187.24
513.38	168.52
513.56	243.42
513.73	229.37
513.90	217.67
514.08	231.71
514.25	173.20
514.43	159.16
514.60	149.79
514.77	196.60
514.95	234.05
515.12	264.48
515.29	126.39
515.47	175.54
515.64	245.76
515.81	191.92
515.99	273.84
516.16	194.26
516.33	196.60
516.51	154.48
516.68	128.73
516.85	189.58
517.03	182.56
517.20	159.16
517.37	175.54
517.54	149.79
517.72	191.92
517.89	201.29
518.06	184.90
518.24	266.82
518.41	210.65
518.58	297.25
518.75	133.41
518.93	182.56
519.10	248.10
519.27	145.11
519.45	210.65
519.62	177.88
519.79	182.56
519.96	121.71
520.14	152.13
520.31	205.97
520.48	248.10
520.65	191.92
520.83	205.97
521.00	208.31
521.17	210.65
521.34	217.67
521.52	175.54
521.69	220.01
521.86	187.24
522.03	205.97
522.20	236.39
522.38	227.03
522.55	170.86
522.72	119.37
522.89	191.92
523.07	294.91
523.24	224.69
523.41	189.58
523.58	205.97
523.75	142.77
523.92	124.05
524.10	173.20
524.27	187.24
524.44	210.65
524.61	196.60
524.78	142.77
524.96	152.13
525.13	161.50
525.30	220.01
525.47	187.24
525.64	163.84
525.81	154.48
525.98	231.71
526.16	175.54
526.33	177.88
526.50	107.66
526.67	250.44
526.84	140.43
527.01	205.97
527.18	231.71
527.36	203.63
527.53	149.79
527.70	276.18
527.87	145.11
528.04	339.38
528.21	184.90
528.38	159.16
528.55	161.50
528.72	159.16
528.89	297.25
529.07	299.59
529.24	257.46
529.41	205.97
529.58	234.05
529.75	170.86
529.92	194.26
530.09	203.63
530.26	250.44
530.43	231.71
530.60	189.58
530.77	187.24
530.94	238.73
531.11	173.20
531.28	227.03
531.46	205.97
531.63	217.67
531.80	227.03
531.97	238.73
532.14	177.88
532.31	276.18
532.48	168.52
532.65	203.63
532.82	215.33
532.99	175.54
533.16	128.73
533.33	276.18
533.50	175.54
533.67	229.37
533.84	224.69
534.01	220.01
534.18	205.97
534.35	173.20
534.52	194.26
534.69	184.90
534.86	257.46
535.03	201.29
535.20	210.65
535.37	201.29
535.54	212.99
535.71	229.37
535.88	182.56
536.05	222.35
536.22	210.65
536.38	196.60
536.55	220.01
536.72	266.82
536.89	184.90
537.06	184.90
537.23	245.76
537.40	184.90
537.57	255.12
537.74	201.29
537.91	224.69
538.08	212.99
538.25	166.18
538.42	283.20
538.59	208.31
538.75	269.16
538.92	250.44
539.09	236.39
539.26	285.55
539.43	311.29
539.60	259.80
539.77	234.05
539.94	229.37
540.11	301.93
540.28	393.21
540.44	365.12
540.61	351.08
540.78	369.80
540.95	330.02
541.12	409.59
541.29	383.85
541.46	395.55
541.62	463.43
541.79	472.79
541.96	475.13
542.13	430.66
542.30	423.64
542.47	327.68
542.63	379.17
542.80	344.06
542.97	433.00
543.14	414.27
543.31	369.80
543.48	353.42
543.64	430.66
543.81	425.98
543.98	346.40
544.15	411.93
544.32	322.99
544.48	388.53
544.65	304.27
544.82	339.38
544.99	367.46
545.16	355.76
545.32	463.43
545.49	557.05
545.66	725.57
545.83	791.10
546.00	636.63
546.16	451.72
546.33	521.94
546.50	376.83
546.67	388.53
546.83	390.87
547.00	337.04
547.17	320.65
547.34	229.37
547.50	285.55
547.67	311.29
547.84	299.59
548.00	264.48
548.17	252.78
548.34	304.27
548.51	311.29
548.67	292.57
548.84	243.42
549.01	376.83
549.18	304.27
549.34	287.89
549.51	280.86
549.68	184.90
549.84	308.95
550.01	280.86
550.18	294.91
550.34	341.72
550.51	273.84
550.68	330.02
550.84	234.05
551.01	212.99
551.18	278.52
551.34	224.69
551.51	276.18
551.68	266.82
551.84	301.93
552.01	215.33
552.18	278.52
552.34	203.63
552.51	177.88
552.68	236.39
552.84	187.24
553.01	262.14
553.18	191.92
553.34	173.20
553.51	180.22
553.67	227.03
553.84	212.99
554.01	205.97
554.17	222.35
554.34	262.14
554.51	285.55
554.67	269.16
554.84	135.75
555.00	245.76
555.17	229.37
555.33	259.80
555.50	241.08
555.67	241.08
555.83	196.60
556.00	145.11
556.16	344.06
556.33	212.99
556.50	201.29
556.66	175.54
556.83	189.58
556.99	245.76
557.16	168.52
557.32	194.26
557.49	161.50
557.65	163.84
557.82	166.18
557.98	166.18
558.15	177.88
558.32	257.46
558.48	217.67
558.65	203.63
558.81	203.63
558.98	114.69
559.14	285.55
559.31	220.01
559.47	147.45
559.64	138.09
559.80	212.99
559.97	194.26
560.13	182.56
560.30	156.82
560.46	173.20
560.63	203.63
560.79	177.88
560.96	229.37
561.12	215.33
561.29	208.31
561.45	149.79
561.61	259.80
561.78	273.84
561.94	290.23
562.11	168.52
562.27	159.16
562.44	166.18
562.60	245.76
562.77	159.16
562.93	276.18
563.10	168.52
563.26	166.18
563.42	229.37
563.59	215.33
563.75	227.03
563.92	259.80
564.08	224.69
564.24	248.10
564.41	243.42
564.57	203.63
564.74	161.50
564.90	105.32
565.07	166.18
565.23	182.56
565.39	215.33
565.56	215.33
565.72	177.88
565.88	191.92
566.05	131.07
566.21	156.82
566.38	229.37
566.54	147.45
566.70	227.03
566.87	180.22
567.03	140.43
567.19	175.54
567.36	231.71
567.52	166.18
567.68	191.92
567.85	189.58
568.01	203.63
568.17	147.45
568.34	234.05
568.50	189.58
568.66	184.90
568.83	259.80
568.99	161.50
569.15	196.60
569.32	156.82
569.48	259.80
569.64	154.48
569.81	222.35
569.97	217.67
570.13	182.56
570.30	154.48
570.46	184.90
570.62	208.31
570.78	154.48
570.95	175.54
571.11	212.99
571.27	210.65
571.43	138.09
571.60	182.56
571.76	189.58
571.92	161.50
572.09	194.26
572.25	220.01
572.41	201.29
572.57	187.24
572.74	276.18
572.90	245.76
573.06	196.60
573.22	163.84
573.38	210.65
573.55	184.90
573.71	203.63
573.87	217.67
574.03	133.41
574.20	135.75
574.36	257.46
574.52	257.46
574.68	245.76
574.84	294.91
575.01	217.67
575.17	175.54
575.33	170.86
575.49	196.60
575.65	180.22
575.82	196.60
575.98	231.71
576.14	163.84
576.30	238.73
576.46	264.48
576.62	301.93
576.79	325.33
576.95	304.27
577.11	297.25
577.27	205.97
577.43	177.88
577.59	236.39
577.75	259.80
577.92	182.56
578.08	154.48
578.24	168.52
578.40	236.39
578.56	280.86
578.72	332.36
578.88	264.48
579.04	243.42
579.21	276.18
579.37	166.18
579.53	320.65
579.69	187.24
579.85	241.08
580.01	231.71
580.17	276.18
580.33	236.39
580.49	236.39
580.65	182.56
580.82	107.66
580.98	205.97
581.14	250.44
581.30	189.58
581.46	313.63
581.62	198.95
581.78	217.67
581.94	283.20
582.10	196.60
582.26	234.05
582.42	245.76
582.58	205.97
582.74	210.65
582.90	292.57
583.06	283.20
583.22	236.39
583.38	180.22
583.54	229.37
583.70	264.48
583.86	269.16
584.02	252.78
584.18	201.29
584.34	173.20
584.50	236.39
584.66	205.97
584.82	257.46
584.98	236.39
585.14	234.05
585.30	234.05
585.46	248.10
585.62	248.10
585.78	259.80
585.94	304.27
586.10	168.52
586.26	220.01
586.42	191.92
586.58	210.65
586.74	283.20
586.90	278.52
587.06	245.76
587.22	264.48
587.38	173.20
587.54	259.80
587.70	227.03
587.86	229.37
588.02	220.01
588.18	203.63
588.34	159.16
588.49	168.52
588.65	161.50
588.81	159.16
588.97	166.18
589.13	166.18
589.29	191.92
589.45	191.92
589.61	182.56
589.77	187.24
589.93	177.88
590.08	227.03
590.24	161.50
590.40	194.26
590.56	257.46
590.72	294.91
590.88	107.66
591.04	145.11
591.20	191.92
591.35	229.37
591.51	227.03
591.67	175.54
591.83	182.56
591.99	201.29
592.15	203.63
592.31	173.20
592.46	229.37
592.62	236.39
592.78	191.92
592.94	245.76
593.10	177.88
593.26	224.69
593.41	252.78
593.57	175.54
593.73	215.33
593.89	255.12
594.05	248.10
594.20	212.99
594.36	191.92
594.52	173.20
594.68	196.60
594.84	227.03
594.99	264.48
595.15	210.65
595.31	229.37
595.47	210.65
595.62	98.30
595.78	203.63
595.94	294.91
596.10	177.88
596.25	252.78
596.41	198.95
596.57	173.20
596.73	147.45
596.88	238.73
597.04	264.48
597.20	210.65
597.36	182.56
597.51	184.90
597.67	182.56
597.83	252.78
597.99	215.33
598.14	245.76
598.30	210.65
598.46	196.60
598.61	231.71
598.77	208.31
598.93	191.92
599.09	248.10
599.24	201.29
599.40	250.44
599.56	114.69
599.71	222.35
599.87	205.97
600.03	203.63
600.18	196.60
600.34	194.26
600.50	173.20
600.65	234.05
600.81	203.63
600.97	149.79
601.12	168.52
601.28	196.60
601.44	149.79
601.59	140.43
601.75	154.48
601.91	198.95
602.06	234.05
602.22	257.46
602.37	182.56
602.53	189.58
602.69	215.33
602.84	138.09
603.00	201.29
603.16	177.88
603.31	241.08
603.47	222.35
603.62	173.20
603.78	264.48
603.94	198.95
604.09	222.35
604.25	210.65
604.40	194.26
604.56	149.79
604.71	287.89
604.87	212.99
605.03	224.69
605.18	191.92
605.34	173.20
605.49	229.37
605.65	170.86
605.80	180.22
605.96	191.92
606.12	154.48
606.27	250.44
606.43	248.10
606.58	227.03
606.74	212.99
606.89	175.54
607.05	248.10
607.20	198.95
607.36	166.18
607.51	208.31
607.67	133.41
607.82	243.42
607.98	231.71
608.13	252.78
608.29	255.12
608.44	236.39
608.60	259.80
608.75	266.82
608.91	201.29
609.06	308.95
609.22	262.14
609.37	210.65
609.53	276.18
609.68	257.46
609.84	292.57
609.99	376.83
610.15	369.80
610.30	395.55
610.46	486.83
610.61	554.71
610.76	629.60
610.92	798.12
611.07	772.38
611.23	812.17
611.38	786.42
611.54	566.41
611.69	599.18
611.84	477.47
612.00	433.00
612.15	423.64
612.31	475.13
612.46	346.40
612.62	388.53
612.77	318.31
612.92	334.70
613.08	376.83
613.23	416.62
613.39	306.61
613.54	283.20
613.69	332.36
613.85	337.04
614.00	231.71
614.15	320.65
614.31	255.12
614.46	400.23
614.62	315.97
614.77	381.51
614.92	255.12
615.08	280.86
615.23	180.22
615.38	299.59
615.54	224.69
615.69	215.33
615.84	224.69
616.00	259.80
616.15	224.69
616.30	236.39
616.46	215.33
616.61	198.95
616.76	189.58
616.92	264.48
617.07	222.35
617.22	203.63
617.37	238.73
617.53	250.44
617.68	191.92
617.83	184.90
617.99	290.23
618.14	208.31
618.29	170.86
618.45	194.26
618.60	203.63
618.75	215.33
618.90	161.50
619.06	203.63
619.21	241.08
619.36	220.01
619.51	222.35
619.67	107.66
619.82	170.86
619.97	243.42
620.12	184.90
620.28	184.90
620.43	250.44
620.58	250.44
620.73	262.14
620.89	212.99
621.04	159.16
621.19	276.18
621.34	194.26
621.49	81.92
621.65	182.56
621.80	147.45
621.95	131.07
622.10	217.67
622.25	145.11
622.41	145.11
622.56	224.69
622.71	203.63
622.86	163.84
623.01	217.67
623.16	220.01
623.32	184.90
623.47	145.11
623.62	241.08
623.77	119.37
623.92	170.86
624.07	205.97
624.23	255.12
624.38	156.82
624.53	173.20
624.68	140.43
624.83	262.14
624.98	131.07
625.13	297.25
625.29	173.20
625.44	177.88
625.59	287.89
625.74	229.37
625.89	273.84
626.04	180.22
626.19	194.26
626.34	259.80
626.49	177.88
626.65	224.69
626.80	231.71
626.95	243.42
627.10	231.71
627.25	222.35
627.40	133.41
627.55	208.31
627.70	205.97
627.85	203.63
628.00	138.09
628.15	170.86
628.30	229.37
628.45	163.84
628.60	208.31
628.76	154.48
628.91	138.09
629.06	231.71
629.21	145.11
629.36	210.65
629.51	208.31
629.66	187.24
629.81	198.95
629.96	180.22
630.11	184.90
630.26	243.42
630.41	135.75
630.56	250.44
630.71	177.88
630.86	236.39
631.01	255.12
631.16	196.60
631.31	177.88
631.46	161.50
631.61	128.73
631.76	203.63
631.91	198.95
632.06	245.76
632.21	170.86
632.36	210.65
632.51	166.18
632.66	210.65
632.81	140.43
632.96	166.18
633.10	128.73
633.25	220.01
633.40	257.46
633.55	149.79
633.70	147.45
633.85	119.37
634.00	119.37
634.15	102.98
634.30	250.44
634.45	255.12
634.60	91.28
634.75	112.35
634.90	159.16
635.05	198.95
635.19	220.01
635.34	152.13
635.49	229.37
635.64	177.88
635.79	175.54
635.94	161.50
636.09	166.18
636.24	255.12
636.39	93.62
636.53	227.03
636.68	208.31
636.83	198.95
636.98	212.99
637.13	177.88
637.28	215.33
637.43	168.52
637.57	187.24
637.72	149.79
637.87	191.92
638.02	201.29
638.17	168.52
638.32	184.90
638.46	128.73
638.61	194.26
638.76	222.35
638.91	175.54
639.06	205.97
639.20	170.86
639.35	138.09
639.50	142.77
639.65	191.92
639.80	170.86
639.94	147.45
640.09	215.33
640.24	187.24
640.39	234.05
640.54	222.35
640.68	196.60
640.83	131.07
640.98	124.05
641.13	145.11
641.27	182.56
641.42	201.29
641.57	248.10
641.72	156.82
641.86	152.13
642.01	131.07
642.16	161.50
642.31	140.43
642.45	161.50
642.60	231.71
642.75	161.50
642.90	112.35
643.04	114.69
643.19	114.69
643.34	114.69
643.48	182.56
643.63	102.98
643.78	110.01
643.93	170.86
644.07	189.58
644.22	168.52
644.37	135.75
644.51	212.99
644.66	224.69
644.81	156.82
644.95	196.60
645.10	205.97
645.25	208.31
645.39	182.56
645.54	100.64
645.69	229.37
645.83	159.16
645.98	217.67
646.13	110.01
646.27	205.97
646.42	119.37
646.57	180.22
646.71	93.62
646.86	145.11
647.00	149.79
647.15	173.20
647.30	60.85
647.44	128.73
647.59	126.39
647.74	77.24
647.88	138.09
648.03	84.26
648.17	163.84
648.32	198.95
648.47	212.99
648.61	142.77
648.76	177.88
648.90	177.88
649.05	208.31
649.20	163.84
649.34	91.28
649.49	114.69
649.63	154.48
649.78	189.58
649.92	147.45
650.07	135.75
650.21	91.28
650.36	133.41
650.51	81.92
650.65	161.50
650.80	112.35
650.94	166.18
651.09	156.82
651.23	74.90
651.38	140.43
651.52	105.32
651.67	93.62
651.81	187.24
651.96	231.71
652.10	264.48
652.25	203.63
652.39	177.88
652.54	135.75
652.68	121.71
652.83	175.54
652.97	119.37
653.12	229.37
653.26	201.29
653.41	168.52
653.55	117.03
653.70	159.16
653.84	189.58
653.99	51.49
654.13	93.62
654.27	142.77
654.42	173.20
654.56	198.95
654.71	170.86
654.85	74.90
655.00	187.24
655.14	205.97
655.29	159.16
655.43	212.99
655.57	161.50
655.72	147.45
655.86	126.39
656.01	121.71
656.15	105.32
656.30	147.45
656.44	152.13
656.58	135.75
656.73	135.75
656.87	77.24
657.01	128.73
657.16	135.75
657.30	114.69
657.45	229.37
657.59	93.62
657.73	112.35
657.88	180.22
658.02	205.97
658.16	93.62
658.31	126.39
658.45	180.22
658.60	91.28
658.74	81.92
658.88	149.79
659.03	135.75
659.17	105.32
659.31	84.26
659.46	191.92
659.60	145.11
659.74	124.05
659.89	156.82
660.03	74.90
660.17	243.42
660.32	131.07
660.46	102.98
660.60	119.37
660.74	156.82
660.89	147.45
661.03	58.51
661.17	98.30
661.32	112.35
661.46	194.26
661.60	124.05
661.74	194.26
661.89	205.97
662.03	175.54
662.17	138.09
662.31	131.07
662.46	154.48
662.60	163.84
662.74	84.26
662.88	128.73
663.03	128.73
663.17	142.77
663.31	147.45
663.45	119.37
663.60	159.16
663.74	184.90
663.88	93.62
664.02	147.45
664.17	191.92
664.31	102.98
664.45	203.63
664.59	182.56
664.73	138.09
664.88	126.39
665.02	175.54
665.16	159.16
665.30	187.24
665.44	138.09
665.59	189.58
665.73	147.45
665.87	166.18
666.01	191.92
666.15	133.41
666.29	191.92
666.44	229.37
666.58	215.33
666.72	156.82
666.86	166.18
667.00	175.54
667.14	114.69
667.28	187.24
667.43	117.03
667.57	175.54
667.71	128.73
667.85	140.43
667.99	184.90
668.13	138.09
668.27	245.76
668.41	95.96
668.56	114.69
668.70	184.90
668.84	121.71
668.98	128.73
669.12	131.07
669.26	198.95
669.40	184.90
669.54	152.13
669.68	177.88
669.82	145.11
669.96	154.48
670.10	159.16
670.25	184.90
670.39	147.45
670.53	124.05
670.67	168.52
670.81	131.07
670.95	140.43
671.09	145.11
671.23	166.18
671.37	156.82
671.51	107.66
671.65	51.49
671.79	124.05
671.93	117.03
672.07	156.82
672.21	161.50
672.35	95.96
672.49	112.35
672.63	140.43
672.77	156.82
672.91	196.60
673.05	107.66
673.19	102.98
673.33	84.26
673.47	241.08
673.61	79.58
673.75	163.84
673.89	107.66
674.03	154.48
674.17	126.39
674.31	220.01
674.45	145.11
674.59	117.03
674.73	32.77
674.87	70.22
675.01	145.11
675.15	161.50
675.29	161.50
675.43	196.60
675.56	201.29
675.70	182.56
675.84	168.52
675.98	126.39
676.12	147.45
676.26	140.43
676.40	182.56
676.54	131.07
676.68	145.11
676.82	231.71
676.96	112.35
677.10	212.99
677.23	95.96
677.37	187.24
677.51	161.50
677.65	220.01
677.79	86.60
677.93	175.54
678.07	135.75
678.21	131.07
678.34	95.96
678.48	70.22
678.62	173.20
678.76	65.54
678.90	98.30
679.04	79.58
679.18	177.88
679.31	168.52
679.45	49.15
679.59	121.71
679.73	102.98
679.87	110.01
680.00	121.71
680.14	121.71
680.28	126.39
680.42	140.43
680.56	180.22
680.70	110.01
680.83	149.79
680.97	154.48
681.11	124.05
681.25	208.31
681.39	74.90
681.52	114.69
681.66	168.52
681.80	142.77
681.94	138.09
682.07	133.41
682.21	65.54
682.35	121.71
682.49	135.75
682.62	156.82
682.76	119.37
682.90	105.32
683.04	117.03
683.17	189.58
683.31	166.18
683.45	154.48
683.59	196.60
683.72	128.73
683.86	173.20
684.00	46.81
684.13	126.39
684.27	100.64
684.41	159.16
684.55	119.37
684.68	124.05
684.82	133.41
684.96	163.84
685.09	189.58
685.23	126.39
685.37	93.62
685.50	135.75
685.64	154.48
685.78	107.66
685.91	241.08
686.05	163.84
686.19	161.50
686.32	93.62
686.46	107.66
686.60	149.79
686.73	177.88
686.87	163.84
687.01	126.39
687.14	91.28
687.28	86.60
687.42	138.09
687.55	145.11
687.69	208.31
687.82	159.16
687.96	149.79
688.10	170.86
688.23	79.58
688.37	184.90
688.50	168.52
688.64	138.09
688.78	100.64
688.91	154.48
689.05	126.39
689.18	142.77
689.32	93.62
689.46	98.30
689.59	166.18
689.73	86.60
689.86	32.77
690.00	53.83
690.13	44.47
690.27	102.98
690.41	126.39
690.54	166.18
690.68	77.24
690.81	166.18
690.95	131.07
691.08	196.60
691.22	133.41
691.35	93.62
691.49	107.66
691.62	187.24
691.76	119.37
691.89	161.50
692.03	105.32
692.16	112.35
692.30	147.45
692.43	231.71
692.57	119.37
692.70	114.69
692.84	175.54
692.97	102.98
693.11	100.64
693.24	100.64
693.38	77.24
693.51	138.09
693.65	135.75
693.78	154.48
693.92	191.92
694.05	110.01
694.19	88.94
694.32	114.69
694.45	98.30
694.59	102.98
694.72	117.03
694.86	63.19
694.99	140.43
695.13	131.07
695.26	124.05
695.39	126.39
695.53	142.77
695.66	126.39
695.80	112.35
695.93	63.19
696.07	187.24
696.20	121.71
696.33	95.96
696.47	105.32
696.60	49.15
696.73	128.73
696.87	86.60
697.00	184.90
697.14	124.05
697.27	77.24
697.40	224.69
697.54	119.37
697.67	156.82
697.80	159.16
697.94	145.11
698.07	124.05
698.21	86.60
698.34	138.09
698.47	77.24
698.61	79.58
698.74	175.54
698.87	131.07
699.01	79.58
699.14	189.58
699.27	128.73
699.40	161.50
699.54	84.26
699.67	168.52
699.80	173.20
699.94	112.35
700.07	65.54
700.20	74.90
700.34	145.11
700.47	100.64
700.60	105.32
700.73	112.35
700.87	187.24
701.00	114.69
701.13	126.39
701.26	145.11
701.40	84.26
701.53	124.05
701.66	100.64
701.79	53.83
701.93	131.07
702.06	173.20
702.19	175.54
702.32	173.20
702.46	98.30
702.59	147.45
702.72	63.19
702.85	149.79
702.99	114.69
703.12	184.90
703.25	102.98
703.38	147.45
703.51	117.03
703.65	98.30
703.78	102.98
703.91	124.05
704.04	133.41
704.17	166.18
704.31	65.54
704.44	98.30
704.57	135.75
704.70	121.71
704.83	56.17
704.96	154.48
705.10	138.09
705.23	138.09
>>>>>End Processed Spectral Data<<<<<
