SpectraSuite Data File
++++++++++++++++++++++++++++++++++++
Date: Fri Oct 04 11:42:09 GMT-05:00 2013
User: price-jones
Dark Spectrum Present: No
Reference Spectrum Present: No
Number of Sampled Component Spectra: 1
Spectrometers: USB2+H05261
Integration Time (usec): 100000 (USB2+H05261)
Spectra Averaged: 1 (USB2+H05261)
Boxcar Smoothing: 0 (USB2+H05261)
Correct for Electrical Dark: No (USB2+H05261)
Strobe/Lamp Enabled: No (USB2+H05261)
Correct for Detector Non-linearity: No (USB2+H05261)
Correct for Stray Light: No (USB2+H05261)
Number of Pixels in Processed Spectrum: 2048
>>>>>Begin Processed Spectral Data<<<<<
365.73	81.92
365.92	81.92
366.12	81.92
366.32	0.00
366.52	0.00
366.72	0.00
366.91	0.00
367.11	0.00
367.31	0.00
367.51	0.00
367.70	0.00
367.90	0.00
368.10	0.00
368.30	0.00
368.49	0.00
368.69	0.00
368.89	0.00
369.09	0.00
369.28	0.00
369.48	0.00
369.68	0.00
369.87	0.00
370.07	0.00
370.27	0.00
370.47	9.36
370.66	11.70
370.86	114.69
371.06	105.32
371.25	110.01
371.45	35.11
371.65	168.52
371.84	67.88
372.04	65.54
372.24	138.09
372.44	37.45
372.63	53.83
372.83	154.48
373.03	105.32
373.22	37.45
373.42	28.09
373.62	72.56
373.81	173.20
374.01	119.37
374.21	114.69
374.40	112.35
374.60	107.66
374.79	91.28
374.99	124.05
375.19	105.32
375.38	110.01
375.58	105.32
375.78	100.64
375.97	95.96
376.17	159.16
376.37	110.01
376.56	145.11
376.76	84.26
376.95	100.64
377.15	194.26
377.35	145.11
377.54	133.41
377.74	79.58
377.93	119.37
378.13	117.03
378.33	152.13
378.52	166.18
378.72	119.37
378.91	65.54
379.11	86.60
379.31	91.28
379.50	159.16
379.70	145.11
379.89	74.90
380.09	70.22
380.28	4.68
380.48	74.90
380.68	74.90
380.87	0.00
381.07	105.32
381.26	147.45
381.46	95.96
381.65	170.86
381.85	138.09
382.04	95.96
382.24	105.32
382.43	79.58
382.63	117.03
382.83	74.90
383.02	49.15
383.22	145.11
383.41	51.49
383.61	145.11
383.80	79.58
384.00	173.20
384.19	77.24
384.39	149.79
384.58	79.58
384.78	86.60
384.97	74.90
385.17	163.84
385.36	102.98
385.56	117.03
385.75	86.60
385.95	156.82
386.14	93.62
386.34	79.58
386.53	126.39
386.72	100.64
386.92	184.90
387.11	100.64
387.31	74.90
387.50	67.88
387.70	117.03
387.89	110.01
388.09	63.19
388.28	91.28
388.48	60.85
388.67	182.56
388.86	42.13
389.06	23.41
389.25	191.92
389.45	46.81
389.64	98.30
389.84	191.92
390.03	117.03
390.22	117.03
390.42	46.81
390.61	112.35
390.81	60.85
391.00	74.90
391.19	70.22
391.39	77.24
391.58	154.48
391.78	140.43
391.97	107.66
392.16	46.81
392.36	152.13
392.55	105.32
392.75	72.56
392.94	91.28
393.13	128.73
393.33	86.60
393.52	126.39
393.71	112.35
393.91	161.50
394.10	70.22
394.29	156.82
394.49	63.19
394.68	114.69
394.88	121.71
395.07	173.20
395.26	102.98
395.46	112.35
395.65	93.62
395.84	180.22
396.04	180.22
396.23	65.54
396.42	91.28
396.62	128.73
396.81	42.13
397.00	110.01
397.19	95.96
397.39	110.01
397.58	126.39
397.77	74.90
397.97	49.15
398.16	110.01
398.35	119.37
398.55	70.22
398.74	107.66
398.93	128.73
399.12	72.56
399.32	95.96
399.51	28.09
399.70	145.11
399.90	121.71
400.09	180.22
400.28	121.71
400.47	51.49
400.67	128.73
400.86	105.32
401.05	128.73
401.24	156.82
401.44	217.67
401.63	60.85
401.82	110.01
402.01	77.24
402.21	156.82
402.40	191.92
402.59	86.60
402.78	112.35
402.97	60.85
403.17	65.54
403.36	98.30
403.55	93.62
403.74	72.56
403.93	114.69
404.13	159.16
404.32	198.95
404.51	119.37
404.70	154.48
404.89	102.98
405.09	112.35
405.28	117.03
405.47	39.79
405.66	72.56
405.85	117.03
406.05	91.28
406.24	84.26
406.43	91.28
406.62	154.48
406.81	198.95
407.00	154.48
407.20	98.30
407.39	156.82
407.58	187.24
407.77	121.71
407.96	140.43
408.15	110.01
408.34	126.39
408.54	98.30
408.73	147.45
408.92	77.24
409.11	81.92
409.30	100.64
409.49	60.85
409.68	138.09
409.87	110.01
410.07	84.26
410.26	100.64
410.45	58.51
410.64	107.66
410.83	154.48
411.02	56.17
411.21	182.56
411.40	184.90
411.59	182.56
411.78	159.16
411.98	149.79
412.17	110.01
412.36	105.32
412.55	149.79
412.74	102.98
412.93	112.35
413.12	133.41
413.31	135.75
413.50	182.56
413.69	88.94
413.88	138.09
414.07	100.64
414.26	142.77
414.45	107.66
414.64	128.73
414.83	77.24
415.02	140.43
415.22	156.82
415.41	138.09
415.60	126.39
415.79	107.66
415.98	173.20
416.17	74.90
416.36	95.96
416.55	121.71
416.74	140.43
416.93	131.07
417.12	72.56
417.31	105.32
417.50	138.09
417.69	145.11
417.88	138.09
418.07	63.19
418.26	156.82
418.45	124.05
418.64	124.05
418.83	86.60
419.02	161.50
419.21	102.98
419.39	159.16
419.58	220.01
419.77	44.47
419.96	194.26
420.15	283.20
420.34	100.64
420.53	168.52
420.72	163.84
420.91	102.98
421.10	100.64
421.29	133.41
421.48	145.11
421.67	117.03
421.86	152.13
422.05	110.01
422.24	77.24
422.43	140.43
422.61	105.32
422.80	138.09
422.99	128.73
423.18	142.77
423.37	138.09
423.56	95.96
423.75	77.24
423.94	145.11
424.13	145.11
424.32	107.66
424.50	182.56
424.69	147.45
424.88	208.31
425.07	121.71
425.26	133.41
425.45	196.60
425.64	128.73
425.83	98.30
426.01	117.03
426.20	142.77
426.39	126.39
426.58	173.20
426.77	77.24
426.96	187.24
427.15	149.79
427.33	124.05
427.52	175.54
427.71	128.73
427.90	124.05
428.09	191.92
428.28	138.09
428.46	117.03
428.65	95.96
428.84	102.98
429.03	142.77
429.22	173.20
429.40	86.60
429.59	124.05
429.78	203.63
429.97	105.32
430.16	0.00
430.34	126.39
430.53	198.95
430.72	77.24
430.91	147.45
431.10	138.09
431.28	91.28
431.47	159.16
431.66	159.16
431.85	126.39
432.03	138.09
432.22	175.54
432.41	121.71
432.60	175.54
432.79	84.26
432.97	121.71
433.16	91.28
433.35	152.13
433.54	163.84
433.72	112.35
433.91	191.92
434.10	95.96
434.28	189.58
434.47	147.45
434.66	100.64
434.85	91.28
435.03	163.84
435.22	217.67
435.41	411.93
435.59	355.76
435.78	374.49
435.97	210.65
436.16	163.84
436.34	138.09
436.53	112.35
436.72	126.39
436.90	138.09
437.09	163.84
437.28	198.95
437.46	128.73
437.65	77.24
437.84	163.84
438.02	159.16
438.21	175.54
438.40	175.54
438.58	95.96
438.77	170.86
438.96	147.45
439.14	110.01
439.33	117.03
439.52	131.07
439.70	121.71
439.89	180.22
440.08	133.41
440.26	133.41
440.45	166.18
440.63	138.09
440.82	170.86
441.01	147.45
441.19	140.43
441.38	124.05
441.57	131.07
441.75	145.11
441.94	114.69
442.12	100.64
442.31	131.07
442.50	131.07
442.68	86.60
442.87	121.71
443.05	156.82
443.24	126.39
443.43	163.84
443.61	191.92
443.80	166.18
443.98	77.24
444.17	152.13
444.35	149.79
444.54	135.75
444.73	210.65
444.91	170.86
445.10	196.60
445.28	84.26
445.47	145.11
445.65	128.73
445.84	128.73
446.02	105.32
446.21	81.92
446.39	95.96
446.58	117.03
446.77	114.69
446.95	180.22
447.14	180.22
447.32	241.08
447.51	203.63
447.69	142.77
447.88	84.26
448.06	182.56
448.25	182.56
448.43	145.11
448.62	189.58
448.80	175.54
448.99	35.11
449.17	149.79
449.36	166.18
449.54	142.77
449.73	93.62
449.91	243.42
450.10	184.90
450.28	212.99
450.46	205.97
450.65	191.92
450.83	168.52
451.02	124.05
451.20	145.11
451.39	166.18
451.57	135.75
451.76	119.37
451.94	128.73
452.13	126.39
452.31	182.56
452.49	74.90
452.68	95.96
452.86	173.20
453.05	203.63
453.23	149.79
453.42	182.56
453.60	138.09
453.78	182.56
453.97	173.20
454.15	107.66
454.34	194.26
454.52	152.13
454.70	159.16
454.89	107.66
455.07	163.84
455.26	119.37
455.44	159.16
455.62	170.86
455.81	152.13
455.99	180.22
456.17	121.71
456.36	135.75
456.54	166.18
456.73	152.13
456.91	81.92
457.09	112.35
457.28	182.56
457.46	168.52
457.64	117.03
457.83	205.97
458.01	56.17
458.19	154.48
458.38	154.48
458.56	159.16
458.74	154.48
458.93	128.73
459.11	140.43
459.29	142.77
459.48	184.90
459.66	154.48
459.84	142.77
460.03	196.60
460.21	187.24
460.39	135.75
460.57	241.08
460.76	166.18
460.94	170.86
461.12	201.29
461.31	159.16
461.49	205.97
461.67	112.35
461.85	117.03
462.04	245.76
462.22	585.13
462.40	166.18
462.59	189.58
462.77	159.16
462.95	175.54
463.13	105.32
463.32	135.75
463.50	133.41
463.68	91.28
463.86	91.28
464.05	135.75
464.23	119.37
464.41	142.77
464.59	161.50
464.78	117.03
464.96	88.94
465.14	72.56
465.32	117.03
465.50	140.43
465.69	189.58
465.87	133.41
466.05	170.86
466.23	142.77
466.41	173.20
466.60	145.11
466.78	142.77
466.96	133.41
467.14	166.18
467.32	168.52
467.51	149.79
467.69	184.90
467.87	102.98
468.05	100.64
468.23	168.52
468.41	191.92
468.60	37.45
468.78	203.63
468.96	175.54
469.14	147.45
469.32	140.43
469.50	81.92
469.69	191.92
469.87	145.11
470.05	170.86
470.23	168.52
470.41	182.56
470.59	133.41
470.77	147.45
470.95	105.32
471.14	145.11
471.32	138.09
471.50	175.54
471.68	112.35
471.86	203.63
472.04	102.98
472.22	198.95
472.40	131.07
472.58	163.84
472.77	135.75
472.95	168.52
473.13	210.65
473.31	147.45
473.49	145.11
473.67	126.39
473.85	187.24
474.03	145.11
474.21	163.84
474.39	201.29
474.57	231.71
474.75	194.26
474.93	227.03
475.12	147.45
475.30	187.24
475.48	105.32
475.66	203.63
475.84	154.48
476.02	177.88
476.20	142.77
476.38	133.41
476.56	276.18
476.74	74.90
476.92	154.48
477.10	149.79
477.28	161.50
477.46	133.41
477.64	119.37
477.82	142.77
478.00	91.28
478.18	107.66
478.36	79.58
478.54	145.11
478.72	187.24
478.90	220.01
479.08	166.18
479.26	128.73
479.44	102.98
479.62	102.98
479.80	93.62
479.98	175.54
480.16	177.88
480.34	161.50
480.52	168.52
480.70	217.67
480.88	194.26
481.06	124.05
481.24	163.84
481.41	95.96
481.59	86.60
481.77	152.13
481.95	91.28
482.13	215.33
482.31	145.11
482.49	154.48
482.67	135.75
482.85	184.90
483.03	126.39
483.21	201.29
483.39	124.05
483.57	173.20
483.74	161.50
483.92	142.77
484.10	194.26
484.28	147.45
484.46	224.69
484.64	126.39
484.82	212.99
485.00	152.13
485.18	194.26
485.35	177.88
485.53	135.75
485.71	271.50
485.89	224.69
486.07	147.45
486.25	189.58
486.43	205.97
486.61	215.33
486.78	208.31
486.96	168.52
487.14	159.16
487.32	224.69
487.50	142.77
487.68	198.95
487.85	208.31
488.03	177.88
488.21	217.67
488.39	187.24
488.57	224.69
488.75	198.95
488.92	414.27
489.10	203.63
489.28	238.73
489.46	166.18
489.64	147.45
489.81	241.08
489.99	149.79
490.17	156.82
490.35	257.46
490.53	252.78
490.70	126.39
490.88	283.20
491.06	163.84
491.24	156.82
491.41	269.16
491.59	227.03
491.77	184.90
491.95	163.84
492.13	198.95
492.30	222.35
492.48	264.48
492.66	222.35
492.84	173.20
493.01	161.50
493.19	189.58
493.37	306.61
493.54	215.33
493.72	175.54
493.90	140.43
494.08	163.84
494.25	77.24
494.43	182.56
494.61	234.05
494.79	166.18
494.96	131.07
495.14	191.92
495.32	227.03
495.49	222.35
495.67	170.86
495.85	161.50
496.02	198.95
496.20	266.82
496.38	131.07
496.55	173.20
496.73	166.18
496.91	152.13
497.09	229.37
497.26	290.23
497.44	191.92
497.62	107.66
497.79	198.95
497.97	227.03
498.14	166.18
498.32	201.29
498.50	222.35
498.67	191.92
498.85	196.60
499.03	121.71
499.20	245.76
499.38	149.79
499.56	173.20
499.73	187.24
499.91	248.10
500.08	210.65
500.26	161.50
500.44	177.88
500.61	184.90
500.79	124.05
500.97	205.97
501.14	191.92
501.32	203.63
501.49	248.10
501.67	227.03
501.84	142.77
502.02	175.54
502.20	243.42
502.37	187.24
502.55	121.71
502.72	166.18
502.90	182.56
503.07	187.24
503.25	194.26
503.43	166.18
503.60	133.41
503.78	135.75
503.95	231.71
504.13	196.60
504.30	210.65
504.48	266.82
504.65	198.95
504.83	145.11
505.01	124.05
505.18	135.75
505.36	201.29
505.53	191.92
505.71	229.37
505.88	271.50
506.06	224.69
506.23	180.22
506.41	175.54
506.58	236.39
506.76	203.63
506.93	133.41
507.11	212.99
507.28	234.05
507.46	147.45
507.63	156.82
507.81	138.09
507.98	198.95
508.16	212.99
508.33	217.67
508.50	194.26
508.68	231.71
508.85	189.58
509.03	229.37
509.20	184.90
509.38	182.56
509.55	217.67
509.73	191.92
509.90	220.01
510.08	145.11
510.25	208.31
510.42	173.20
510.60	220.01
510.77	196.60
510.95	191.92
511.12	177.88
511.30	248.10
511.47	210.65
511.64	245.76
511.82	140.43
511.99	227.03
512.17	175.54
512.34	191.92
512.51	224.69
512.69	145.11
512.86	194.26
513.04	248.10
513.21	222.35
513.38	110.01
513.56	208.31
513.73	124.05
513.90	191.92
514.08	187.24
514.25	184.90
514.43	236.39
514.60	128.73
514.77	234.05
514.95	166.18
515.12	280.86
515.29	196.60
515.47	243.42
515.64	117.03
515.81	161.50
515.99	203.63
516.16	194.26
516.33	147.45
516.51	173.20
516.68	198.95
516.85	86.60
517.03	138.09
517.20	182.56
517.37	210.65
517.54	152.13
517.72	198.95
517.89	224.69
518.06	81.92
518.24	229.37
518.41	229.37
518.58	187.24
518.75	212.99
518.93	180.22
519.10	175.54
519.27	135.75
519.45	217.67
519.62	177.88
519.79	168.52
519.96	191.92
520.14	182.56
520.31	236.39
520.48	149.79
520.65	182.56
520.83	182.56
521.00	273.84
521.17	184.90
521.34	175.54
521.52	208.31
521.69	168.52
521.86	191.92
522.03	215.33
522.20	196.60
522.38	126.39
522.55	227.03
522.72	243.42
522.89	168.52
523.07	201.29
523.24	166.18
523.41	198.95
523.58	203.63
523.75	191.92
523.92	161.50
524.10	168.52
524.27	245.76
524.44	191.92
524.61	248.10
524.78	215.33
524.96	189.58
525.13	229.37
525.30	208.31
525.47	280.86
525.64	198.95
525.81	241.08
525.98	187.24
526.16	191.92
526.33	163.84
526.50	126.39
526.67	196.60
526.84	177.88
527.01	238.73
527.18	243.42
527.36	222.35
527.53	156.82
527.70	147.45
527.87	170.86
528.04	248.10
528.21	191.92
528.38	229.37
528.55	201.29
528.72	259.80
528.89	215.33
529.07	119.37
529.24	145.11
529.41	168.52
529.58	208.31
529.75	201.29
529.92	180.22
530.09	243.42
530.26	128.73
530.43	187.24
530.60	170.86
530.77	194.26
530.94	252.78
531.11	198.95
531.28	201.29
531.46	222.35
531.63	184.90
531.80	243.42
531.97	203.63
532.14	191.92
532.31	156.82
532.48	217.67
532.65	224.69
532.82	161.50
532.99	215.33
533.16	241.08
533.33	257.46
533.50	152.13
533.67	222.35
533.84	243.42
534.01	334.70
534.18	196.60
534.35	168.52
534.52	241.08
534.69	271.50
534.86	271.50
535.03	236.39
535.20	156.82
535.37	191.92
535.54	285.55
535.71	201.29
535.88	210.65
536.05	234.05
536.22	212.99
536.38	152.13
536.55	189.58
536.72	205.97
536.89	173.20
537.06	180.22
537.23	163.84
537.40	124.05
537.57	175.54
537.74	229.37
537.91	210.65
538.08	273.84
538.25	245.76
538.42	231.71
538.59	189.58
538.75	145.11
538.92	243.42
539.09	269.16
539.26	203.63
539.43	241.08
539.60	290.23
539.77	299.59
539.94	273.84
540.11	297.25
540.28	409.59
540.44	266.82
540.61	346.40
540.78	365.12
540.95	351.08
541.12	437.68
541.29	407.25
541.46	484.49
541.62	390.87
541.79	444.70
541.96	409.59
542.13	397.89
542.30	344.06
542.47	477.47
542.63	330.02
542.80	376.83
542.97	355.76
543.14	414.27
543.31	416.62
543.48	470.45
543.64	374.49
543.81	395.55
543.98	390.87
544.15	311.29
544.32	397.89
544.48	386.19
544.65	407.25
544.82	414.27
544.99	416.62
545.16	369.80
545.32	447.04
545.49	622.58
545.66	777.06
545.83	737.27
546.00	704.50
546.16	528.96
546.33	503.22
546.50	418.96
546.67	407.25
546.83	353.42
547.00	381.51
547.17	294.91
547.34	290.23
547.50	395.55
547.67	266.82
547.84	248.10
548.00	283.20
548.17	348.74
548.34	238.73
548.51	351.08
548.67	283.20
548.84	285.55
549.01	290.23
549.18	318.31
549.34	285.55
549.51	332.36
549.68	327.68
549.84	278.52
550.01	231.71
550.18	334.70
550.34	365.12
550.51	313.63
550.68	229.37
550.84	191.92
551.01	208.31
551.18	269.16
551.34	245.76
551.51	177.88
551.68	245.76
551.84	238.73
552.01	234.05
552.18	170.86
552.34	222.35
552.51	208.31
552.68	278.52
552.84	117.03
553.01	227.03
553.18	194.26
553.34	189.58
553.51	252.78
553.67	227.03
553.84	290.23
554.01	271.50
554.17	264.48
554.34	201.29
554.51	203.63
554.67	217.67
554.84	173.20
555.00	278.52
555.17	205.97
555.33	224.69
555.50	168.52
555.67	215.33
555.83	152.13
556.00	177.88
556.16	388.53
556.33	255.12
556.50	203.63
556.66	173.20
556.83	238.73
556.99	170.86
557.16	161.50
557.32	203.63
557.49	154.48
557.65	117.03
557.82	180.22
557.98	217.67
558.15	229.37
558.32	198.95
558.48	198.95
558.65	198.95
558.81	168.52
558.98	184.90
559.14	224.69
559.31	152.13
559.47	205.97
559.64	191.92
559.80	189.58
559.97	163.84
560.13	166.18
560.30	210.65
560.46	212.99
560.63	224.69
560.79	271.50
560.96	196.60
561.12	241.08
561.29	189.58
561.45	201.29
561.61	194.26
561.78	304.27
561.94	194.26
562.11	161.50
562.27	163.84
562.44	217.67
562.60	152.13
562.77	191.92
562.93	222.35
563.10	222.35
563.26	168.52
563.42	287.89
563.59	203.63
563.75	163.84
563.92	212.99
564.08	196.60
564.24	245.76
564.41	245.76
564.57	140.43
564.74	149.79
564.90	215.33
565.07	241.08
565.23	264.48
565.39	222.35
565.56	170.86
565.72	133.41
565.88	133.41
566.05	231.71
566.21	236.39
566.38	224.69
566.54	203.63
566.70	194.26
566.87	189.58
567.03	126.39
567.19	142.77
567.36	177.88
567.52	248.10
567.68	250.44
567.85	269.16
568.01	156.82
568.17	177.88
568.34	119.37
568.50	217.67
568.66	201.29
568.83	257.46
568.99	262.14
569.15	184.90
569.32	159.16
569.48	203.63
569.64	177.88
569.81	217.67
569.97	184.90
570.13	222.35
570.30	224.69
570.46	203.63
570.62	189.58
570.78	194.26
570.95	170.86
571.11	203.63
571.27	299.59
571.43	138.09
571.60	203.63
571.76	173.20
571.92	145.11
572.09	147.45
572.25	159.16
572.41	173.20
572.57	222.35
572.74	222.35
572.90	201.29
573.06	250.44
573.22	175.54
573.38	290.23
573.55	133.41
573.71	215.33
573.87	269.16
574.03	133.41
574.20	147.45
574.36	262.14
574.52	241.08
574.68	175.54
574.84	236.39
575.01	187.24
575.17	229.37
575.33	173.20
575.49	208.31
575.65	131.07
575.82	184.90
575.98	280.86
576.14	203.63
576.30	210.65
576.46	250.44
576.62	250.44
576.79	325.33
576.95	332.36
577.11	241.08
577.27	191.92
577.43	220.01
577.59	264.48
577.75	138.09
577.92	215.33
578.08	147.45
578.24	205.97
578.40	262.14
578.56	353.42
578.72	374.49
578.88	404.91
579.04	217.67
579.21	194.26
579.37	234.05
579.53	241.08
579.69	212.99
579.85	189.58
580.01	201.29
580.17	238.73
580.33	257.46
580.49	201.29
580.65	238.73
580.82	166.18
580.98	184.90
581.14	287.89
581.30	201.29
581.46	238.73
581.62	222.35
581.78	280.86
581.94	280.86
582.10	243.42
582.26	224.69
582.42	278.52
582.58	278.52
582.74	259.80
582.90	290.23
583.06	313.63
583.22	231.71
583.38	180.22
583.54	142.77
583.70	264.48
583.86	280.86
584.02	189.58
584.18	255.12
584.34	238.73
584.50	222.35
584.66	236.39
584.82	245.76
584.98	173.20
585.14	231.71
585.30	297.25
585.46	191.92
585.62	194.26
585.78	208.31
585.94	198.95
586.10	238.73
586.26	248.10
586.42	301.93
586.58	201.29
586.74	269.16
586.90	203.63
587.06	276.18
587.22	208.31
587.38	337.04
587.54	294.91
587.70	224.69
587.86	264.48
588.02	231.71
588.18	236.39
588.34	241.08
588.49	271.50
588.65	196.60
588.81	220.01
588.97	168.52
589.13	205.97
589.29	187.24
589.45	196.60
589.61	250.44
589.77	264.48
589.93	201.29
590.08	234.05
590.24	224.69
590.40	142.77
590.56	245.76
590.72	156.82
590.88	133.41
591.04	250.44
591.20	140.43
591.35	271.50
591.51	234.05
591.67	236.39
591.83	304.27
591.99	280.86
592.15	201.29
592.31	227.03
592.46	212.99
592.62	299.59
592.78	180.22
592.94	224.69
593.10	315.97
593.26	208.31
593.41	243.42
593.57	248.10
593.73	205.97
593.89	262.14
594.05	121.71
594.20	159.16
594.36	241.08
594.52	252.78
594.68	238.73
594.84	269.16
594.99	220.01
595.15	201.29
595.31	152.13
595.47	187.24
595.62	156.82
595.78	91.28
595.94	138.09
596.10	238.73
596.25	201.29
596.41	285.55
596.57	205.97
596.73	203.63
596.88	245.76
597.04	217.67
597.20	173.20
597.36	182.56
597.51	194.26
597.67	224.69
597.83	149.79
597.99	203.63
598.14	227.03
598.30	210.65
598.46	180.22
598.61	243.42
598.77	180.22
598.93	222.35
599.09	194.26
599.24	154.48
599.40	278.52
599.56	220.01
599.71	187.24
599.87	166.18
600.03	220.01
600.18	196.60
600.34	236.39
600.50	227.03
600.65	191.92
600.81	212.99
600.97	126.39
601.12	227.03
601.28	224.69
601.44	170.86
601.59	112.35
601.75	177.88
601.91	191.92
602.06	191.92
602.22	273.84
602.37	245.76
602.53	140.43
602.69	241.08
602.84	191.92
603.00	208.31
603.16	212.99
603.31	241.08
603.47	210.65
603.62	196.60
603.78	189.58
603.94	229.37
604.09	175.54
604.25	208.31
604.40	222.35
604.56	170.86
604.71	161.50
604.87	238.73
605.03	243.42
605.18	238.73
605.34	205.97
605.49	187.24
605.65	163.84
605.80	175.54
605.96	266.82
606.12	196.60
606.27	163.84
606.43	187.24
606.58	234.05
606.74	177.88
606.89	243.42
607.05	173.20
607.20	203.63
607.36	301.93
607.51	208.31
607.67	229.37
607.82	180.22
607.98	266.82
608.13	248.10
608.29	194.26
608.44	215.33
608.60	257.46
608.75	163.84
608.91	208.31
609.06	229.37
609.22	273.84
609.37	257.46
609.53	318.31
609.68	259.80
609.84	337.04
609.99	322.99
610.15	320.65
610.30	407.25
610.46	442.36
610.61	578.11
610.76	667.05
610.92	720.88
611.07	763.01
611.23	877.70
611.38	819.19
611.54	624.92
611.69	636.63
611.84	500.87
612.00	458.74
612.15	482.15
612.31	388.53
612.46	341.72
612.62	355.76
612.77	372.15
612.92	418.96
613.08	304.27
613.23	318.31
613.39	301.93
613.54	259.80
613.69	266.82
613.85	318.31
614.00	283.20
614.15	313.63
614.31	299.59
614.46	322.99
614.62	358.10
614.77	273.84
614.92	257.46
615.08	238.73
615.23	259.80
615.38	234.05
615.54	269.16
615.69	255.12
615.84	210.65
616.00	205.97
616.15	248.10
616.30	187.24
616.46	198.95
616.61	187.24
616.76	217.67
616.92	184.90
617.07	229.37
617.22	203.63
617.37	212.99
617.53	280.86
617.68	201.29
617.83	210.65
617.99	212.99
618.14	215.33
618.29	203.63
618.45	217.67
618.60	161.50
618.75	161.50
618.90	168.52
619.06	177.88
619.21	222.35
619.36	217.67
619.51	234.05
619.67	180.22
619.82	145.11
619.97	215.33
620.12	285.55
620.28	208.31
620.43	243.42
620.58	250.44
620.73	166.18
620.89	271.50
621.04	196.60
621.19	238.73
621.34	201.29
621.49	184.90
621.65	201.29
621.80	205.97
621.95	196.60
622.10	203.63
622.25	222.35
622.41	161.50
622.56	220.01
622.71	175.54
622.86	177.88
623.01	224.69
623.16	198.95
623.32	184.90
623.47	166.18
623.62	266.82
623.77	224.69
623.92	205.97
624.07	252.78
624.23	194.26
624.38	182.56
624.53	212.99
624.68	208.31
624.83	243.42
624.98	182.56
625.13	227.03
625.29	212.99
625.44	231.71
625.59	205.97
625.74	234.05
625.89	262.14
626.04	210.65
626.19	191.92
626.34	210.65
626.49	280.86
626.65	227.03
626.80	168.52
626.95	236.39
627.10	147.45
627.25	133.41
627.40	95.96
627.55	238.73
627.70	156.82
627.85	154.48
628.00	149.79
628.15	126.39
628.30	175.54
628.45	161.50
628.60	203.63
628.76	182.56
628.91	229.37
629.06	238.73
629.21	203.63
629.36	215.33
629.51	191.92
629.66	168.52
629.81	187.24
629.96	187.24
630.11	234.05
630.26	283.20
630.41	259.80
630.56	255.12
630.71	159.16
630.86	229.37
631.01	231.71
631.16	194.26
631.31	159.16
631.46	187.24
631.61	215.33
631.76	205.97
631.91	140.43
632.06	238.73
632.21	198.95
632.36	173.20
632.51	201.29
632.66	168.52
632.81	196.60
632.96	177.88
633.10	161.50
633.25	210.65
633.40	170.86
633.55	79.58
633.70	238.73
633.85	133.41
634.00	145.11
634.15	187.24
634.30	147.45
634.45	135.75
634.60	140.43
634.75	84.26
634.90	189.58
635.05	189.58
635.19	140.43
635.34	91.28
635.49	177.88
635.64	159.16
635.79	63.19
635.94	170.86
636.09	201.29
636.24	210.65
636.39	140.43
636.53	128.73
636.68	173.20
636.83	198.95
636.98	161.50
637.13	173.20
637.28	145.11
637.43	177.88
637.57	229.37
637.72	227.03
637.87	135.75
638.02	173.20
638.17	159.16
638.32	142.77
638.46	203.63
638.61	156.82
638.76	112.35
638.91	140.43
639.06	166.18
639.20	163.84
639.35	184.90
639.50	184.90
639.65	159.16
639.80	124.05
639.94	234.05
640.09	243.42
640.24	163.84
640.39	184.90
640.54	177.88
640.68	173.20
640.83	105.32
640.98	91.28
641.13	147.45
641.27	156.82
641.42	156.82
641.57	189.58
641.72	187.24
641.86	121.71
642.01	245.76
642.16	191.92
642.31	140.43
642.45	152.13
642.60	161.50
642.75	119.37
642.90	161.50
643.04	159.16
643.19	212.99
643.34	126.39
643.48	191.92
643.63	163.84
643.78	133.41
643.93	222.35
644.07	156.82
644.22	84.26
644.37	53.83
644.51	70.22
644.66	128.73
644.81	166.18
644.95	175.54
645.10	156.82
645.25	105.32
645.39	208.31
645.54	173.20
645.69	142.77
645.83	142.77
645.98	236.39
646.13	72.56
646.27	145.11
646.42	145.11
646.57	166.18
646.71	156.82
646.86	93.62
647.00	159.16
647.15	105.32
647.30	149.79
647.44	74.90
647.59	112.35
647.74	131.07
647.88	142.77
648.03	119.37
648.17	212.99
648.32	126.39
648.47	140.43
648.61	198.95
648.76	44.47
648.90	133.41
649.05	163.84
649.20	187.24
649.34	142.77
649.49	98.30
649.63	135.75
649.78	133.41
649.92	105.32
650.07	201.29
650.21	170.86
650.36	166.18
650.51	180.22
650.65	182.56
650.80	147.45
650.94	140.43
651.09	159.16
651.23	187.24
651.38	100.64
651.52	131.07
651.67	131.07
651.81	163.84
651.96	98.30
652.10	149.79
652.25	138.09
652.39	177.88
652.54	154.48
652.68	102.98
652.83	117.03
652.97	173.20
653.12	124.05
653.26	152.13
653.41	187.24
653.55	217.67
653.70	224.69
653.84	121.71
653.99	102.98
654.13	51.49
654.27	124.05
654.42	142.77
654.56	159.16
654.71	147.45
654.85	147.45
655.00	114.69
655.14	100.64
655.29	145.11
655.43	128.73
655.57	107.66
655.72	88.94
655.86	133.41
656.01	112.35
656.15	196.60
656.30	220.01
656.44	149.79
656.58	121.71
656.73	152.13
656.87	98.30
657.01	126.39
657.16	210.65
657.30	135.75
657.45	201.29
657.59	184.90
657.73	102.98
657.88	133.41
658.02	227.03
658.16	124.05
658.31	121.71
658.45	184.90
658.60	93.62
658.74	131.07
658.88	149.79
659.03	138.09
659.17	170.86
659.31	100.64
659.46	227.03
659.60	91.28
659.74	180.22
659.89	194.26
660.03	147.45
660.17	229.37
660.32	170.86
660.46	201.29
660.60	147.45
660.74	180.22
660.89	152.13
661.03	117.03
661.17	145.11
661.32	184.90
661.46	163.84
661.60	114.69
661.74	145.11
661.89	182.56
662.03	187.24
662.17	201.29
662.31	170.86
662.46	189.58
662.60	163.84
662.74	154.48
662.88	205.97
663.03	154.48
663.17	154.48
663.31	175.54
663.45	140.43
663.60	163.84
663.74	140.43
663.88	70.22
664.02	201.29
664.17	98.30
664.31	156.82
664.45	142.77
664.59	212.99
664.73	159.16
664.88	234.05
665.02	180.22
665.16	156.82
665.30	234.05
665.44	175.54
665.59	222.35
665.73	112.35
665.87	133.41
666.01	168.52
666.15	173.20
666.29	140.43
666.44	238.73
666.58	217.67
666.72	91.28
666.86	154.48
667.00	180.22
667.14	163.84
667.28	175.54
667.43	49.15
667.57	77.24
667.71	126.39
667.85	168.52
667.99	182.56
668.13	65.54
668.27	161.50
668.41	142.77
668.56	159.16
668.70	159.16
668.84	126.39
668.98	147.45
669.12	163.84
669.26	177.88
669.40	210.65
669.54	135.75
669.68	177.88
669.82	86.60
669.96	145.11
670.10	133.41
670.25	166.18
670.39	222.35
670.53	166.18
670.67	126.39
670.81	95.96
670.95	140.43
671.09	187.24
671.23	131.07
671.37	112.35
671.51	117.03
671.65	102.98
671.79	117.03
671.93	128.73
672.07	229.37
672.21	163.84
672.35	168.52
672.49	65.54
672.63	198.95
672.77	191.92
672.91	196.60
673.05	161.50
673.19	124.05
673.33	86.60
673.47	140.43
673.61	93.62
673.75	67.88
673.89	145.11
674.03	222.35
674.17	131.07
674.31	191.92
674.45	191.92
674.59	173.20
674.73	79.58
674.87	168.52
675.01	145.11
675.15	145.11
675.29	147.45
675.43	102.98
675.56	229.37
675.70	175.54
675.84	135.75
675.98	102.98
676.12	166.18
676.26	142.77
676.40	194.26
676.54	170.86
676.68	170.86
676.82	180.22
676.96	135.75
677.10	107.66
677.23	128.73
677.37	112.35
677.51	133.41
677.65	283.20
677.79	121.71
677.93	149.79
678.07	147.45
678.21	138.09
678.34	149.79
678.48	147.45
678.62	119.37
678.76	88.94
678.90	124.05
679.04	121.71
679.18	114.69
679.31	145.11
679.45	121.71
679.59	196.60
679.73	53.83
679.87	133.41
680.00	159.16
680.14	142.77
680.28	210.65
680.42	124.05
680.56	156.82
680.70	126.39
680.83	46.81
680.97	154.48
681.11	133.41
681.25	149.79
681.39	84.26
681.52	126.39
681.66	168.52
681.80	166.18
681.94	140.43
682.07	93.62
682.21	100.64
682.35	95.96
682.49	161.50
682.62	201.29
682.76	156.82
682.90	93.62
683.04	133.41
683.17	161.50
683.31	168.52
683.45	124.05
683.59	191.92
683.72	173.20
683.86	149.79
684.00	112.35
684.13	175.54
684.27	117.03
684.41	173.20
684.55	142.77
684.68	189.58
684.82	224.69
684.96	184.90
685.09	119.37
685.23	140.43
685.37	60.85
685.50	154.48
685.64	161.50
685.78	46.81
685.91	205.97
686.05	88.94
686.19	51.49
686.32	194.26
686.46	149.79
686.60	135.75
686.73	154.48
686.87	159.16
687.01	67.88
687.14	79.58
687.28	119.37
687.42	140.43
687.55	46.81
687.69	159.16
687.82	166.18
687.96	163.84
688.10	184.90
688.23	91.28
688.37	142.77
688.50	175.54
688.64	149.79
688.78	110.01
688.91	60.85
689.05	124.05
689.18	79.58
689.32	161.50
689.46	35.11
689.59	81.92
689.73	124.05
689.86	135.75
690.00	105.32
690.13	149.79
690.27	107.66
690.41	119.37
690.54	163.84
690.68	81.92
690.81	147.45
690.95	140.43
691.08	46.81
691.22	67.88
691.35	147.45
691.49	16.38
691.62	114.69
691.76	49.15
691.89	98.30
692.03	77.24
692.16	84.26
692.30	196.60
692.43	119.37
692.57	105.32
692.70	65.54
692.84	86.60
692.97	154.48
693.11	110.01
693.24	124.05
693.38	135.75
693.51	140.43
693.65	170.86
693.78	170.86
693.92	133.41
694.05	201.29
694.19	114.69
694.32	149.79
694.45	86.60
694.59	81.92
694.72	112.35
694.86	117.03
694.99	180.22
695.13	93.62
695.26	131.07
695.39	149.79
695.53	163.84
695.66	180.22
695.80	159.16
695.93	93.62
696.07	175.54
696.20	105.32
696.33	88.94
696.47	138.09
696.60	124.05
696.73	140.43
696.87	88.94
697.00	114.69
697.14	131.07
697.27	121.71
697.40	205.97
697.54	95.96
697.67	88.94
697.80	117.03
697.94	91.28
698.07	149.79
698.21	205.97
698.34	102.98
698.47	138.09
698.61	163.84
698.74	105.32
698.87	128.73
699.01	112.35
699.14	114.69
699.27	149.79
699.40	215.33
699.54	93.62
699.67	114.69
699.80	152.13
699.94	70.22
700.07	147.45
700.20	88.94
700.34	128.73
700.47	46.81
700.60	81.92
700.73	37.45
700.87	131.07
701.00	128.73
701.13	138.09
701.26	84.26
701.40	107.66
701.53	177.88
701.66	107.66
701.79	32.77
701.93	140.43
702.06	117.03
702.19	117.03
702.32	163.84
702.46	105.32
702.59	152.13
702.72	100.64
702.85	154.48
702.99	114.69
703.12	152.13
703.25	117.03
703.38	42.13
703.51	126.39
703.65	79.58
703.78	25.75
703.91	138.09
704.04	229.37
704.17	60.85
704.31	112.35
704.44	121.71
704.57	133.41
704.70	35.11
704.83	95.96
704.96	215.33
705.10	168.52
705.23	124.05
>>>>>End Processed Spectral Data<<<<<
