SpectraSuite Data File
++++++++++++++++++++++++++++++++++++
Date: Fri Oct 04 11:42:09 GMT-05:00 2013
User: price-jones
Dark Spectrum Present: No
Reference Spectrum Present: No
Number of Sampled Component Spectra: 1
Spectrometers: USB2+H05261
Integration Time (usec): 100000 (USB2+H05261)
Spectra Averaged: 1 (USB2+H05261)
Boxcar Smoothing: 0 (USB2+H05261)
Correct for Electrical Dark: No (USB2+H05261)
Strobe/Lamp Enabled: No (USB2+H05261)
Correct for Detector Non-linearity: No (USB2+H05261)
Correct for Stray Light: No (USB2+H05261)
Number of Pixels in Processed Spectrum: 2048
>>>>>Begin Processed Spectral Data<<<<<
365.73	72.56
365.92	72.56
366.12	72.56
366.32	0.00
366.52	0.00
366.72	0.00
366.91	0.00
367.11	0.00
367.31	0.00
367.51	0.00
367.70	0.00
367.90	0.00
368.10	0.00
368.30	0.00
368.49	0.00
368.69	0.00
368.89	28.09
369.09	0.00
369.28	7.02
369.48	0.00
369.68	0.00
369.87	16.38
370.07	0.00
370.27	2.34
370.47	0.00
370.66	7.02
370.86	98.30
371.06	110.01
371.25	35.11
371.45	28.09
371.65	60.85
371.84	112.35
372.04	37.45
372.24	133.41
372.44	53.83
372.63	126.39
372.83	173.20
373.03	65.54
373.22	105.32
373.42	154.48
373.62	112.35
373.81	95.96
374.01	128.73
374.21	152.13
374.40	95.96
374.60	135.75
374.79	100.64
374.99	98.30
375.19	159.16
375.38	231.71
375.58	119.37
375.78	140.43
375.97	161.50
376.17	189.58
376.37	30.43
376.56	112.35
376.76	105.32
376.95	102.98
377.15	126.39
377.35	100.64
377.54	140.43
377.74	79.58
377.93	142.77
378.13	107.66
378.33	128.73
378.52	159.16
378.72	86.60
378.91	222.35
379.11	110.01
379.31	121.71
379.50	124.05
379.70	133.41
379.89	79.58
380.09	84.26
380.28	88.94
380.48	105.32
380.68	98.30
380.87	51.49
381.07	86.60
381.26	126.39
381.46	86.60
381.65	95.96
381.85	149.79
382.04	107.66
382.24	98.30
382.43	67.88
382.63	53.83
382.83	100.64
383.02	187.24
383.22	135.75
383.41	142.77
383.61	112.35
383.80	39.79
384.00	60.85
384.19	79.58
384.39	121.71
384.58	161.50
384.78	119.37
384.97	53.83
385.17	126.39
385.36	114.69
385.56	198.95
385.75	95.96
385.95	32.77
386.14	161.50
386.34	84.26
386.53	149.79
386.72	149.79
386.92	126.39
387.11	112.35
387.31	107.66
387.50	42.13
387.70	166.18
387.89	56.17
388.09	133.41
388.28	163.84
388.48	72.56
388.67	243.42
388.86	107.66
389.06	110.01
389.25	56.17
389.45	140.43
389.64	128.73
389.84	138.09
390.03	161.50
390.22	98.30
390.42	110.01
390.61	147.45
390.81	58.51
391.00	110.01
391.19	86.60
391.39	84.26
391.58	105.32
391.78	107.66
391.97	133.41
392.16	110.01
392.36	77.24
392.55	135.75
392.75	77.24
392.94	126.39
393.13	95.96
393.33	124.05
393.52	105.32
393.71	166.18
393.91	84.26
394.10	105.32
394.29	100.64
394.49	114.69
394.68	187.24
394.88	119.37
395.07	163.84
395.26	135.75
395.46	84.26
395.65	138.09
395.84	138.09
396.04	135.75
396.23	72.56
396.42	138.09
396.62	140.43
396.81	184.90
397.00	152.13
397.19	145.11
397.39	149.79
397.58	131.07
397.77	114.69
397.97	152.13
398.16	63.19
398.35	107.66
398.55	107.66
398.74	110.01
398.93	149.79
399.12	25.75
399.32	128.73
399.51	74.90
399.70	84.26
399.90	81.92
400.09	88.94
400.28	70.22
400.47	23.41
400.67	166.18
400.86	163.84
401.05	93.62
401.24	163.84
401.44	102.98
401.63	124.05
401.82	128.73
402.01	154.48
402.21	65.54
402.40	124.05
402.59	74.90
402.78	84.26
402.97	128.73
403.17	128.73
403.36	145.11
403.55	91.28
403.74	93.62
403.93	128.73
404.13	170.86
404.32	198.95
404.51	142.77
404.70	140.43
404.89	140.43
405.09	154.48
405.28	114.69
405.47	60.85
405.66	63.19
405.85	138.09
406.05	114.69
406.24	77.24
406.43	70.22
406.62	91.28
406.81	100.64
407.00	110.01
407.20	180.22
407.39	135.75
407.58	168.52
407.77	98.30
407.96	182.56
408.15	117.03
408.34	105.32
408.54	173.20
408.73	135.75
408.92	114.69
409.11	168.52
409.30	46.81
409.49	100.64
409.68	128.73
409.87	128.73
410.07	77.24
410.26	205.97
410.45	93.62
410.64	58.51
410.83	95.96
411.02	81.92
411.21	72.56
411.40	154.48
411.59	128.73
411.78	105.32
411.98	79.58
412.17	145.11
412.36	142.77
412.55	126.39
412.74	98.30
412.93	138.09
413.12	152.13
413.31	86.60
413.50	77.24
413.69	138.09
413.88	147.45
414.07	126.39
414.26	149.79
414.45	63.19
414.64	126.39
414.83	126.39
415.02	131.07
415.22	81.92
415.41	194.26
415.60	110.01
415.79	124.05
415.98	182.56
416.17	133.41
416.36	124.05
416.55	133.41
416.74	126.39
416.93	184.90
417.12	88.94
417.31	74.90
417.50	102.98
417.69	187.24
417.88	142.77
418.07	74.90
418.26	60.85
418.45	53.83
418.64	161.50
418.83	173.20
419.02	51.49
419.21	119.37
419.39	135.75
419.58	166.18
419.77	100.64
419.96	159.16
420.15	154.48
420.34	114.69
420.53	117.03
420.72	191.92
420.91	149.79
421.10	138.09
421.29	60.85
421.48	72.56
421.67	180.22
421.86	119.37
422.05	138.09
422.24	166.18
422.43	168.52
422.61	79.58
422.80	117.03
422.99	161.50
423.18	9.36
423.37	201.29
423.56	88.94
423.75	72.56
423.94	107.66
424.13	196.60
424.32	88.94
424.50	84.26
424.69	138.09
424.88	175.54
425.07	44.47
425.26	93.62
425.45	60.85
425.64	65.54
425.83	67.88
426.01	102.98
426.20	110.01
426.39	114.69
426.58	177.88
426.77	140.43
426.96	149.79
427.15	142.77
427.33	107.66
427.52	175.54
427.71	79.58
427.90	105.32
428.09	65.54
428.28	114.69
428.46	128.73
428.65	201.29
428.84	138.09
429.03	56.17
429.22	81.92
429.40	121.71
429.59	110.01
429.78	203.63
429.97	131.07
430.16	74.90
430.34	114.69
430.53	114.69
430.72	100.64
430.91	135.75
431.10	126.39
431.28	133.41
431.47	177.88
431.66	102.98
431.85	126.39
432.03	58.51
432.22	194.26
432.41	126.39
432.60	184.90
432.79	107.66
432.97	126.39
433.16	135.75
433.35	149.79
433.54	138.09
433.72	135.75
433.91	107.66
434.10	191.92
434.28	133.41
434.47	119.37
434.66	217.67
434.85	163.84
435.03	215.33
435.22	236.39
435.41	367.46
435.59	322.99
435.78	222.35
435.97	170.86
436.16	191.92
436.34	175.54
436.53	140.43
436.72	88.94
436.90	187.24
437.09	112.35
437.28	135.75
437.46	110.01
437.65	161.50
437.84	126.39
438.02	168.52
438.21	126.39
438.40	53.83
438.58	88.94
438.77	124.05
438.96	163.84
439.14	152.13
439.33	105.32
439.52	84.26
439.70	156.82
439.89	133.41
440.08	128.73
440.26	152.13
440.45	140.43
440.63	110.01
440.82	191.92
441.01	161.50
441.19	124.05
441.38	161.50
441.57	149.79
441.75	173.20
441.94	159.16
442.12	173.20
442.31	126.39
442.50	100.64
442.68	128.73
442.87	112.35
443.05	142.77
443.24	110.01
443.43	138.09
443.61	126.39
443.80	154.48
443.98	173.20
444.17	154.48
444.35	124.05
444.54	128.73
444.73	119.37
444.91	145.11
445.10	135.75
445.28	154.48
445.47	152.13
445.65	84.26
445.84	175.54
446.02	121.71
446.21	81.92
446.39	126.39
446.58	173.20
446.77	77.24
446.95	161.50
447.14	182.56
447.32	77.24
447.51	133.41
447.69	180.22
447.88	131.07
448.06	175.54
448.25	140.43
448.43	105.32
448.62	128.73
448.80	133.41
448.99	138.09
449.17	135.75
449.36	182.56
449.54	140.43
449.73	65.54
449.91	168.52
450.10	126.39
450.28	121.71
450.46	152.13
450.65	102.98
450.83	131.07
451.02	196.60
451.20	152.13
451.39	140.43
451.57	145.11
451.76	133.41
451.94	180.22
452.13	74.90
452.31	222.35
452.49	138.09
452.68	170.86
452.86	175.54
453.05	208.31
453.23	170.86
453.42	74.90
453.60	86.60
453.78	77.24
453.97	77.24
454.15	187.24
454.34	156.82
454.52	135.75
454.70	241.08
454.89	117.03
455.07	154.48
455.26	142.77
455.44	102.98
455.62	105.32
455.81	138.09
455.99	145.11
456.17	168.52
456.36	170.86
456.54	128.73
456.73	117.03
456.91	156.82
457.09	107.66
457.28	135.75
457.46	210.65
457.64	147.45
457.83	138.09
458.01	117.03
458.19	184.90
458.38	133.41
458.56	145.11
458.74	67.88
458.93	187.24
459.11	175.54
459.29	184.90
459.48	208.31
459.66	196.60
459.84	138.09
460.03	285.55
460.21	245.76
460.39	170.86
460.57	161.50
460.76	173.20
460.94	203.63
461.12	170.86
461.31	210.65
461.49	198.95
461.67	133.41
461.85	107.66
462.04	81.92
462.22	535.98
462.40	154.48
462.59	168.52
462.77	168.52
462.95	159.16
463.13	112.35
463.32	201.29
463.50	152.13
463.68	175.54
463.86	220.01
464.05	182.56
464.23	156.82
464.41	117.03
464.59	133.41
464.78	201.29
464.96	110.01
465.14	149.79
465.32	114.69
465.50	182.56
465.69	131.07
465.87	180.22
466.05	205.97
466.23	107.66
466.41	131.07
466.60	175.54
466.78	173.20
466.96	198.95
467.14	140.43
467.32	175.54
467.51	91.28
467.69	177.88
467.87	248.10
468.05	149.79
468.23	215.33
468.41	166.18
468.60	212.99
468.78	175.54
468.96	175.54
469.14	173.20
469.32	112.35
469.50	212.99
469.69	121.71
469.87	161.50
470.05	180.22
470.23	105.32
470.41	177.88
470.59	147.45
470.77	212.99
470.95	138.09
471.14	231.71
471.32	210.65
471.50	189.58
471.68	145.11
471.86	138.09
472.04	98.30
472.22	159.16
472.40	112.35
472.58	170.86
472.77	126.39
472.95	107.66
473.13	205.97
473.31	149.79
473.49	191.92
473.67	102.98
473.85	84.26
474.03	128.73
474.21	145.11
474.39	149.79
474.57	182.56
474.75	208.31
474.93	88.94
475.12	138.09
475.30	159.16
475.48	227.03
475.66	231.71
475.84	203.63
476.02	98.30
476.20	131.07
476.38	128.73
476.56	131.07
476.74	138.09
476.92	140.43
477.10	220.01
477.28	114.69
477.46	156.82
477.64	175.54
477.82	126.39
478.00	149.79
478.18	194.26
478.36	105.32
478.54	65.54
478.72	114.69
478.90	128.73
479.08	187.24
479.26	170.86
479.44	154.48
479.62	156.82
479.80	105.32
479.98	128.73
480.16	154.48
480.34	215.33
480.52	198.95
480.70	243.42
480.88	196.60
481.06	135.75
481.24	163.84
481.41	166.18
481.59	124.05
481.77	105.32
481.95	138.09
482.13	245.76
482.31	114.69
482.49	107.66
482.67	184.90
482.85	182.56
483.03	212.99
483.21	184.90
483.39	154.48
483.57	100.64
483.74	182.56
483.92	175.54
484.10	262.14
484.28	215.33
484.46	227.03
484.64	121.71
484.82	187.24
485.00	145.11
485.18	173.20
485.35	234.05
485.53	161.50
485.71	194.26
485.89	170.86
486.07	126.39
486.25	170.86
486.43	194.26
486.61	198.95
486.78	285.55
486.96	201.29
487.14	182.56
487.32	184.90
487.50	149.79
487.68	159.16
487.85	203.63
488.03	234.05
488.21	320.65
488.39	156.82
488.57	259.80
488.75	131.07
488.92	477.47
489.10	250.44
489.28	159.16
489.46	152.13
489.64	187.24
489.81	131.07
489.99	142.77
490.17	241.08
490.35	241.08
490.53	224.69
490.70	135.75
490.88	198.95
491.06	224.69
491.24	142.77
491.41	243.42
491.59	210.65
491.77	198.95
491.95	161.50
492.13	182.56
492.30	156.82
492.48	198.95
492.66	180.22
492.84	201.29
493.01	236.39
493.19	212.99
493.37	248.10
493.54	212.99
493.72	255.12
493.90	163.84
494.08	201.29
494.25	231.71
494.43	241.08
494.61	257.46
494.79	187.24
494.96	166.18
495.14	250.44
495.32	191.92
495.49	138.09
495.67	156.82
495.85	177.88
496.02	217.67
496.20	161.50
496.38	203.63
496.55	168.52
496.73	187.24
496.91	168.52
497.09	278.52
497.26	163.84
497.44	217.67
497.62	194.26
497.79	173.20
497.97	152.13
498.14	205.97
498.32	220.01
498.50	241.08
498.67	234.05
498.85	124.05
499.03	180.22
499.20	194.26
499.38	210.65
499.56	173.20
499.73	229.37
499.91	215.33
500.08	131.07
500.26	152.13
500.44	156.82
500.61	217.67
500.79	102.98
500.97	187.24
501.14	201.29
501.32	229.37
501.49	170.86
501.67	128.73
501.84	140.43
502.02	196.60
502.20	292.57
502.37	198.95
502.55	203.63
502.72	194.26
502.90	149.79
503.07	159.16
503.25	196.60
503.43	180.22
503.60	187.24
503.78	173.20
503.95	222.35
504.13	142.77
504.30	224.69
504.48	231.71
504.65	170.86
504.83	196.60
505.01	131.07
505.18	124.05
505.36	245.76
505.53	184.90
505.71	212.99
505.88	224.69
506.06	198.95
506.23	159.16
506.41	208.31
506.58	182.56
506.76	149.79
506.93	229.37
507.11	222.35
507.28	149.79
507.46	152.13
507.63	170.86
507.81	138.09
507.98	208.31
508.16	203.63
508.33	198.95
508.50	250.44
508.68	173.20
508.85	105.32
509.03	161.50
509.20	191.92
509.38	156.82
509.55	191.92
509.73	191.92
509.90	269.16
510.08	142.77
510.25	231.71
510.42	196.60
510.60	243.42
510.77	170.86
510.95	184.90
511.12	156.82
511.30	170.86
511.47	189.58
511.64	229.37
511.82	262.14
511.99	191.92
512.17	126.39
512.34	105.32
512.51	145.11
512.69	114.69
512.86	231.71
513.04	241.08
513.21	231.71
513.38	161.50
513.56	135.75
513.73	159.16
513.90	152.13
514.08	205.97
514.25	175.54
514.43	201.29
514.60	168.52
514.77	98.30
514.95	280.86
515.12	168.52
515.29	243.42
515.47	161.50
515.64	198.95
515.81	177.88
515.99	205.97
516.16	133.41
516.33	156.82
516.51	203.63
516.68	215.33
516.85	210.65
517.03	191.92
517.20	182.56
517.37	170.86
517.54	220.01
517.72	203.63
517.89	138.09
518.06	177.88
518.24	215.33
518.41	210.65
518.58	212.99
518.75	156.82
518.93	156.82
519.10	191.92
519.27	189.58
519.45	224.69
519.62	217.67
519.79	191.92
519.96	182.56
520.14	205.97
520.31	245.76
520.48	147.45
520.65	105.32
520.83	168.52
521.00	187.24
521.17	166.18
521.34	182.56
521.52	149.79
521.69	203.63
521.86	189.58
522.03	196.60
522.20	255.12
522.38	187.24
522.55	142.77
522.72	220.01
522.89	184.90
523.07	234.05
523.24	168.52
523.41	222.35
523.58	187.24
523.75	194.26
523.92	175.54
524.10	154.48
524.27	194.26
524.44	149.79
524.61	222.35
524.78	166.18
524.96	208.31
525.13	224.69
525.30	205.97
525.47	262.14
525.64	227.03
525.81	215.33
525.98	234.05
526.16	175.54
526.33	208.31
526.50	138.09
526.67	184.90
526.84	224.69
527.01	224.69
527.18	210.65
527.36	208.31
527.53	147.45
527.70	205.97
527.87	203.63
528.04	191.92
528.21	95.96
528.38	220.01
528.55	184.90
528.72	187.24
528.89	217.67
529.07	166.18
529.24	191.92
529.41	224.69
529.58	180.22
529.75	205.97
529.92	278.52
530.09	163.84
530.26	208.31
530.43	196.60
530.60	161.50
530.77	243.42
530.94	182.56
531.11	264.48
531.28	168.52
531.46	161.50
531.63	201.29
531.80	177.88
531.97	229.37
532.14	236.39
532.31	271.50
532.48	147.45
532.65	187.24
532.82	208.31
532.99	135.75
533.16	154.48
533.33	241.08
533.50	198.95
533.67	241.08
533.84	217.67
534.01	297.25
534.18	198.95
534.35	224.69
534.52	163.84
534.69	191.92
534.86	224.69
535.03	131.07
535.20	205.97
535.37	220.01
535.54	196.60
535.71	297.25
535.88	269.16
536.05	161.50
536.22	215.33
536.38	173.20
536.55	215.33
536.72	290.23
536.89	257.46
537.06	194.26
537.23	205.97
537.40	138.09
537.57	236.39
537.74	227.03
537.91	229.37
538.08	243.42
538.25	290.23
538.42	201.29
538.59	315.97
538.75	278.52
538.92	271.50
539.09	304.27
539.26	264.48
539.43	259.80
539.60	264.48
539.77	283.20
539.94	243.42
540.11	341.72
540.28	339.38
540.44	341.72
540.61	362.78
540.78	341.72
540.95	376.83
541.12	440.02
541.29	414.27
541.46	477.47
541.62	409.59
541.79	407.25
541.96	421.30
542.13	395.55
542.30	423.64
542.47	355.76
542.63	416.62
542.80	407.25
542.97	447.04
543.14	365.12
543.31	376.83
543.48	507.90
543.64	393.21
543.81	369.80
543.98	362.78
544.15	411.93
544.32	341.72
544.48	397.89
544.65	318.31
544.82	334.70
544.99	423.64
545.16	358.10
545.32	437.68
545.49	627.26
545.66	669.39
545.83	772.38
546.00	737.27
546.16	484.49
546.33	451.72
546.50	367.46
546.67	390.87
546.83	306.61
547.00	308.95
547.17	308.95
547.34	285.55
547.50	355.76
547.67	248.10
547.84	285.55
548.00	297.25
548.17	283.20
548.34	243.42
548.51	308.95
548.67	301.93
548.84	250.44
549.01	217.67
549.18	234.05
549.34	266.82
549.51	271.50
549.68	264.48
549.84	201.29
550.01	241.08
550.18	402.57
550.34	344.06
550.51	245.76
550.68	313.63
550.84	222.35
551.01	238.73
551.18	243.42
551.34	212.99
551.51	248.10
551.68	210.65
551.84	236.39
552.01	250.44
552.18	205.97
552.34	259.80
552.51	271.50
552.68	266.82
552.84	198.95
553.01	198.95
553.18	222.35
553.34	163.84
553.51	175.54
553.67	248.10
553.84	224.69
554.01	217.67
554.17	245.76
554.34	180.22
554.51	166.18
554.67	215.33
554.84	266.82
555.00	264.48
555.17	266.82
555.33	273.84
555.50	196.60
555.67	184.90
555.83	189.58
556.00	175.54
556.16	348.74
556.33	234.05
556.50	147.45
556.66	163.84
556.83	238.73
556.99	227.03
557.16	236.39
557.32	208.31
557.49	222.35
557.65	128.73
557.82	241.08
557.98	224.69
558.15	128.73
558.32	145.11
558.48	189.58
558.65	212.99
558.81	196.60
558.98	196.60
559.14	149.79
559.31	287.89
559.47	173.20
559.64	147.45
559.80	203.63
559.97	140.43
560.13	191.92
560.30	248.10
560.46	163.84
560.63	156.82
560.79	180.22
560.96	243.42
561.12	243.42
561.29	182.56
561.45	227.03
561.61	187.24
561.78	262.14
561.94	205.97
562.11	182.56
562.27	243.42
562.44	243.42
562.60	201.29
562.77	194.26
562.93	241.08
563.10	203.63
563.26	201.29
563.42	220.01
563.59	140.43
563.75	191.92
563.92	177.88
564.08	205.97
564.24	264.48
564.41	250.44
564.57	140.43
564.74	112.35
564.90	210.65
565.07	248.10
565.23	168.52
565.39	203.63
565.56	175.54
565.72	152.13
565.88	187.24
566.05	159.16
566.21	159.16
566.38	180.22
566.54	189.58
566.70	224.69
566.87	212.99
567.03	170.86
567.19	189.58
567.36	257.46
567.52	168.52
567.68	112.35
567.85	212.99
568.01	152.13
568.17	191.92
568.34	212.99
568.50	205.97
568.66	271.50
568.83	259.80
568.99	107.66
569.15	262.14
569.32	196.60
569.48	229.37
569.64	145.11
569.81	161.50
569.97	177.88
570.13	149.79
570.30	196.60
570.46	189.58
570.62	194.26
570.78	220.01
570.95	187.24
571.11	245.76
571.27	297.25
571.43	105.32
571.60	227.03
571.76	95.96
571.92	159.16
572.09	189.58
572.25	245.76
572.41	217.67
572.57	238.73
572.74	147.45
572.90	182.56
573.06	196.60
573.22	180.22
573.38	163.84
573.55	215.33
573.71	163.84
573.87	212.99
574.03	222.35
574.20	222.35
574.36	210.65
574.52	135.75
574.68	159.16
574.84	210.65
575.01	205.97
575.17	187.24
575.33	182.56
575.49	212.99
575.65	245.76
575.82	203.63
575.98	273.84
576.14	196.60
576.30	236.39
576.46	264.48
576.62	224.69
576.79	346.40
576.95	353.42
577.11	243.42
577.27	229.37
577.43	227.03
577.59	208.31
577.75	210.65
577.92	133.41
578.08	215.33
578.24	168.52
578.40	241.08
578.56	308.95
578.72	308.95
578.88	292.57
579.04	280.86
579.21	212.99
579.37	304.27
579.53	252.78
579.69	276.18
579.85	234.05
580.01	229.37
580.17	191.92
580.33	248.10
580.49	198.95
580.65	266.82
580.82	255.12
580.98	205.97
581.14	180.22
581.30	229.37
581.46	196.60
581.62	234.05
581.78	147.45
581.94	248.10
582.10	196.60
582.26	264.48
582.42	212.99
582.58	241.08
582.74	278.52
582.90	236.39
583.06	259.80
583.22	252.78
583.38	241.08
583.54	283.20
583.70	259.80
583.86	252.78
584.02	252.78
584.18	294.91
584.34	273.84
584.50	168.52
584.66	259.80
584.82	163.84
584.98	271.50
585.14	187.24
585.30	241.08
585.46	252.78
585.62	243.42
585.78	187.24
585.94	191.92
586.10	205.97
586.26	191.92
586.42	255.12
586.58	252.78
586.74	234.05
586.90	304.27
587.06	313.63
587.22	318.31
587.38	198.95
587.54	271.50
587.70	215.33
587.86	271.50
588.02	182.56
588.18	220.01
588.34	238.73
588.49	198.95
588.65	180.22
588.81	161.50
588.97	217.67
589.13	208.31
589.29	203.63
589.45	205.97
589.61	229.37
589.77	170.86
589.93	107.66
590.08	180.22
590.24	182.56
590.40	212.99
590.56	201.29
590.72	250.44
590.88	191.92
591.04	205.97
591.20	217.67
591.35	229.37
591.51	198.95
591.67	238.73
591.83	205.97
591.99	196.60
592.15	231.71
592.31	252.78
592.46	236.39
592.62	262.14
592.78	236.39
592.94	215.33
593.10	252.78
593.26	189.58
593.41	166.18
593.57	191.92
593.73	194.26
593.89	198.95
594.05	163.84
594.20	149.79
594.36	163.84
594.52	177.88
594.68	187.24
594.84	177.88
594.99	278.52
595.15	184.90
595.31	152.13
595.47	266.82
595.62	196.60
595.78	173.20
595.94	224.69
596.10	222.35
596.25	156.82
596.41	201.29
596.57	259.80
596.73	149.79
596.88	212.99
597.04	173.20
597.20	187.24
597.36	217.67
597.51	180.22
597.67	131.07
597.83	224.69
597.99	163.84
598.14	149.79
598.30	245.76
598.46	149.79
598.61	152.13
598.77	210.65
598.93	159.16
599.09	241.08
599.24	154.48
599.40	257.46
599.56	250.44
599.71	238.73
599.87	173.20
600.03	257.46
600.18	229.37
600.34	285.55
600.50	117.03
600.65	133.41
600.81	212.99
600.97	152.13
601.12	196.60
601.28	187.24
601.44	196.60
601.59	208.31
601.75	187.24
601.91	198.95
602.06	170.86
602.22	266.82
602.37	210.65
602.53	177.88
602.69	201.29
602.84	95.96
603.00	191.92
603.16	238.73
603.31	198.95
603.47	198.95
603.62	124.05
603.78	187.24
603.94	243.42
604.09	119.37
604.25	156.82
604.40	187.24
604.56	187.24
604.71	229.37
604.87	168.52
605.03	184.90
605.18	196.60
605.34	229.37
605.49	248.10
605.65	182.56
605.80	156.82
605.96	210.65
606.12	145.11
606.27	166.18
606.43	182.56
606.58	259.80
606.74	170.86
606.89	173.20
607.05	189.58
607.20	210.65
607.36	177.88
607.51	203.63
607.67	161.50
607.82	102.98
607.98	255.12
608.13	292.57
608.29	210.65
608.44	166.18
608.60	173.20
608.75	269.16
608.91	208.31
609.06	264.48
609.22	313.63
609.37	220.01
609.53	252.78
609.68	198.95
609.84	252.78
609.99	283.20
610.15	341.72
610.30	444.70
610.46	465.77
610.61	578.11
610.76	709.18
610.92	727.91
611.07	802.80
611.23	819.19
611.38	725.57
611.54	610.88
611.69	505.56
611.84	554.71
612.00	454.06
612.15	402.57
612.31	428.32
612.46	362.78
612.62	369.80
612.77	388.53
612.92	325.33
613.08	379.17
613.23	315.97
613.39	269.16
613.54	241.08
613.69	299.59
613.85	280.86
614.00	276.18
614.15	348.74
614.31	322.99
614.46	308.95
614.62	257.46
614.77	262.14
614.92	245.76
615.08	236.39
615.23	290.23
615.38	313.63
615.54	276.18
615.69	163.84
615.84	205.97
616.00	161.50
616.15	173.20
616.30	170.86
616.46	149.79
616.61	238.73
616.76	205.97
616.92	224.69
617.07	264.48
617.22	177.88
617.37	173.20
617.53	208.31
617.68	180.22
617.83	210.65
617.99	271.50
618.14	245.76
618.29	184.90
618.45	177.88
618.60	166.18
618.75	180.22
618.90	95.96
619.06	205.97
619.21	292.57
619.36	273.84
619.51	191.92
619.67	156.82
619.82	252.78
619.97	205.97
620.12	170.86
620.28	201.29
620.43	175.54
620.58	227.03
620.73	238.73
620.89	234.05
621.04	196.60
621.19	250.44
621.34	86.60
621.49	241.08
621.65	257.46
621.80	138.09
621.95	191.92
622.10	105.32
622.25	121.71
622.41	245.76
622.56	198.95
622.71	168.52
622.86	278.52
623.01	215.33
623.16	187.24
623.32	184.90
623.47	161.50
623.62	217.67
623.77	220.01
623.92	196.60
624.07	154.48
624.23	168.52
624.38	222.35
624.53	177.88
624.68	194.26
624.83	231.71
624.98	152.13
625.13	198.95
625.29	250.44
625.44	163.84
625.59	227.03
625.74	166.18
625.89	177.88
626.04	215.33
626.19	140.43
626.34	180.22
626.49	168.52
626.65	210.65
626.80	175.54
626.95	250.44
627.10	184.90
627.25	163.84
627.40	173.20
627.55	215.33
627.70	280.86
627.85	180.22
628.00	117.03
628.15	187.24
628.30	159.16
628.45	184.90
628.60	208.31
628.76	224.69
628.91	215.33
629.06	161.50
629.21	163.84
629.36	205.97
629.51	133.41
629.66	198.95
629.81	135.75
629.96	147.45
630.11	236.39
630.26	191.92
630.41	208.31
630.56	255.12
630.71	238.73
630.86	257.46
631.01	189.58
631.16	245.76
631.31	215.33
631.46	243.42
631.61	257.46
631.76	243.42
631.91	121.71
632.06	234.05
632.21	191.92
632.36	159.16
632.51	147.45
632.66	131.07
632.81	175.54
632.96	114.69
633.10	205.97
633.25	320.65
633.40	145.11
633.55	154.48
633.70	173.20
633.85	121.71
634.00	173.20
634.15	138.09
634.30	161.50
634.45	224.69
634.60	112.35
634.75	138.09
634.90	191.92
635.05	182.56
635.19	177.88
635.34	95.96
635.49	112.35
635.64	119.37
635.79	191.92
635.94	152.13
636.09	135.75
636.24	100.64
636.39	163.84
636.53	166.18
636.68	145.11
636.83	198.95
636.98	142.77
637.13	86.60
637.28	187.24
637.43	248.10
637.57	196.60
637.72	166.18
637.87	203.63
638.02	163.84
638.17	114.69
638.32	182.56
638.46	194.26
638.61	196.60
638.76	220.01
638.91	163.84
639.06	124.05
639.20	173.20
639.35	220.01
639.50	156.82
639.65	198.95
639.80	88.94
639.94	128.73
640.09	145.11
640.24	177.88
640.39	220.01
640.54	128.73
640.68	156.82
640.83	161.50
640.98	229.37
641.13	124.05
641.27	105.32
641.42	154.48
641.57	203.63
641.72	84.26
641.86	147.45
642.01	142.77
642.16	236.39
642.31	166.18
642.45	154.48
642.60	180.22
642.75	159.16
642.90	203.63
643.04	180.22
643.19	177.88
643.34	156.82
643.48	191.92
643.63	124.05
643.78	210.65
643.93	250.44
644.07	177.88
644.22	173.20
644.37	133.41
644.51	170.86
644.66	196.60
644.81	126.39
644.95	168.52
645.10	187.24
645.25	147.45
645.39	152.13
645.54	131.07
645.69	180.22
645.83	161.50
645.98	194.26
646.13	128.73
646.27	201.29
646.42	77.24
646.57	119.37
646.71	121.71
646.86	98.30
647.00	121.71
647.15	177.88
647.30	128.73
647.44	175.54
647.59	138.09
647.74	77.24
647.88	175.54
648.03	168.52
648.17	201.29
648.32	175.54
648.47	205.97
648.61	140.43
648.76	180.22
648.90	140.43
649.05	212.99
649.20	117.03
649.34	110.01
649.49	107.66
649.63	135.75
649.78	147.45
649.92	163.84
650.07	156.82
650.21	170.86
650.36	124.05
650.51	234.05
650.65	189.58
650.80	201.29
650.94	177.88
651.09	126.39
651.23	117.03
651.38	159.16
651.52	98.30
651.67	138.09
651.81	156.82
651.96	147.45
652.10	201.29
652.25	107.66
652.39	93.62
652.54	191.92
652.68	198.95
652.83	215.33
652.97	163.84
653.12	91.28
653.26	95.96
653.41	205.97
653.55	187.24
653.70	196.60
653.84	154.48
653.99	152.13
654.13	175.54
654.27	198.95
654.42	72.56
654.56	205.97
654.71	210.65
654.85	121.71
655.00	187.24
655.14	98.30
655.29	208.31
655.43	156.82
655.57	126.39
655.72	154.48
655.86	191.92
656.01	133.41
656.15	112.35
656.30	205.97
656.44	135.75
656.58	67.88
656.73	133.41
656.87	60.85
657.01	201.29
657.16	191.92
657.30	168.52
657.45	194.26
657.59	166.18
657.73	159.16
657.88	170.86
658.02	224.69
658.16	133.41
658.31	152.13
658.45	133.41
658.60	91.28
658.74	184.90
658.88	93.62
659.03	126.39
659.17	98.30
659.31	149.79
659.46	224.69
659.60	229.37
659.74	102.98
659.89	168.52
660.03	117.03
660.17	210.65
660.32	196.60
660.46	142.77
660.60	121.71
660.74	227.03
660.89	147.45
661.03	205.97
661.17	182.56
661.32	110.01
661.46	100.64
661.60	51.49
661.74	152.13
661.89	128.73
662.03	147.45
662.17	88.94
662.31	121.71
662.46	131.07
662.60	156.82
662.74	105.32
662.88	138.09
663.03	201.29
663.17	159.16
663.31	163.84
663.45	147.45
663.60	147.45
663.74	107.66
663.88	112.35
664.02	180.22
664.17	138.09
664.31	170.86
664.45	159.16
664.59	110.01
664.73	100.64
664.88	149.79
665.02	79.58
665.16	74.90
665.30	196.60
665.44	135.75
665.59	161.50
665.73	154.48
665.87	140.43
666.01	161.50
666.15	152.13
666.29	105.32
666.44	159.16
666.58	184.90
666.72	98.30
666.86	138.09
667.00	182.56
667.14	168.52
667.28	110.01
667.43	124.05
667.57	154.48
667.71	203.63
667.85	88.94
667.99	135.75
668.13	229.37
668.27	168.52
668.41	91.28
668.56	91.28
668.70	163.84
668.84	135.75
668.98	142.77
669.12	77.24
669.26	131.07
669.40	203.63
669.54	159.16
669.68	161.50
669.82	159.16
669.96	145.11
670.10	184.90
670.25	252.78
670.39	173.20
670.53	91.28
670.67	222.35
670.81	170.86
670.95	196.60
671.09	72.56
671.23	154.48
671.37	191.92
671.51	100.64
671.65	147.45
671.79	149.79
671.93	231.71
672.07	184.90
672.21	170.86
672.35	166.18
672.49	133.41
672.63	184.90
672.77	170.86
672.91	93.62
673.05	154.48
673.19	128.73
673.33	95.96
673.47	227.03
673.61	67.88
673.75	145.11
673.89	117.03
674.03	145.11
674.17	161.50
674.31	175.54
674.45	124.05
674.59	112.35
674.73	124.05
674.87	180.22
675.01	175.54
675.15	154.48
675.29	187.24
675.43	121.71
675.56	220.01
675.70	142.77
675.84	58.51
675.98	135.75
676.12	110.01
676.26	161.50
676.40	86.60
676.54	170.86
676.68	110.01
676.82	145.11
676.96	140.43
677.10	142.77
677.23	114.69
677.37	81.92
677.51	173.20
677.65	208.31
677.79	126.39
677.93	77.24
678.07	173.20
678.21	154.48
678.34	140.43
678.48	119.37
678.62	119.37
678.76	126.39
678.90	149.79
679.04	182.56
679.18	60.85
679.31	159.16
679.45	145.11
679.59	161.50
679.73	142.77
679.87	168.52
680.00	77.24
680.14	102.98
680.28	154.48
680.42	138.09
680.56	84.26
680.70	86.60
680.83	98.30
680.97	112.35
681.11	124.05
681.25	145.11
681.39	203.63
681.52	140.43
681.66	154.48
681.80	84.26
681.94	135.75
682.07	128.73
682.21	177.88
682.35	86.60
682.49	53.83
682.62	175.54
682.76	126.39
682.90	126.39
683.04	131.07
683.17	60.85
683.31	91.28
683.45	163.84
683.59	95.96
683.72	126.39
683.86	86.60
684.00	159.16
684.13	184.90
684.27	91.28
684.41	117.03
684.55	95.96
684.68	110.01
684.82	156.82
684.96	119.37
685.09	147.45
685.23	105.32
685.37	156.82
685.50	191.92
685.64	114.69
685.78	126.39
685.91	102.98
686.05	163.84
686.19	98.30
686.32	163.84
686.46	124.05
686.60	70.22
686.73	173.20
686.87	107.66
687.01	107.66
687.14	86.60
687.28	91.28
687.42	128.73
687.55	72.56
687.69	229.37
687.82	126.39
687.96	124.05
688.10	135.75
688.23	105.32
688.37	184.90
688.50	91.28
688.64	128.73
688.78	72.56
688.91	86.60
689.05	135.75
689.18	102.98
689.32	72.56
689.46	114.69
689.59	72.56
689.73	100.64
689.86	102.98
690.00	149.79
690.13	117.03
690.27	124.05
690.41	49.15
690.54	88.94
690.68	126.39
690.81	98.30
690.95	152.13
691.08	145.11
691.22	53.83
691.35	114.69
691.49	81.92
691.62	39.79
691.76	63.19
691.89	25.75
692.03	88.94
692.16	133.41
692.30	145.11
692.43	84.26
692.57	84.26
692.70	119.37
692.84	135.75
692.97	77.24
693.11	166.18
693.24	60.85
693.38	65.54
693.51	119.37
693.65	173.20
693.78	110.01
693.92	30.43
694.05	201.29
694.19	95.96
694.32	110.01
694.45	100.64
694.59	102.98
694.72	133.41
694.86	114.69
694.99	60.85
695.13	166.18
695.26	161.50
695.39	81.92
695.53	215.33
695.66	182.56
695.80	184.90
695.93	133.41
696.07	182.56
696.20	124.05
696.33	140.43
696.47	105.32
696.60	161.50
696.73	149.79
696.87	74.90
697.00	182.56
697.14	170.86
697.27	159.16
697.40	128.73
697.54	72.56
697.67	133.41
697.80	201.29
697.94	128.73
698.07	184.90
698.21	65.54
698.34	105.32
698.47	74.90
698.61	98.30
698.74	138.09
698.87	170.86
699.01	175.54
699.14	147.45
699.27	112.35
699.40	271.50
699.54	102.98
699.67	105.32
699.80	117.03
699.94	142.77
700.07	84.26
700.20	79.58
700.34	184.90
700.47	93.62
700.60	142.77
700.73	114.69
700.87	163.84
701.00	180.22
701.13	126.39
701.26	149.79
701.40	133.41
701.53	81.92
701.66	95.96
701.79	117.03
701.93	131.07
702.06	93.62
702.19	138.09
702.32	44.47
702.46	170.86
702.59	133.41
702.72	72.56
702.85	42.13
702.99	72.56
703.12	152.13
703.25	65.54
703.38	119.37
703.51	105.32
703.65	102.98
703.78	124.05
703.91	128.73
704.04	124.05
704.17	72.56
704.31	135.75
704.44	102.98
704.57	140.43
704.70	128.73
704.83	112.35
704.96	60.85
705.10	72.56
705.23	131.07
>>>>>End Processed Spectral Data<<<<<
