SpectraSuite Data File
++++++++++++++++++++++++++++++++++++
Date: Fri Oct 04 11:47:20 GMT-05:00 2013
User: price-jones
Dark Spectrum Present: No
Reference Spectrum Present: No
Number of Sampled Component Spectra: 1
Spectrometers: USB2+H05261
Integration Time (usec): 100000 (USB2+H05261)
Spectra Averaged: 1 (USB2+H05261)
Boxcar Smoothing: 0 (USB2+H05261)
Correct for Electrical Dark: No (USB2+H05261)
Strobe/Lamp Enabled: No (USB2+H05261)
Correct for Detector Non-linearity: No (USB2+H05261)
Correct for Stray Light: No (USB2+H05261)
Number of Pixels in Processed Spectrum: 2048
>>>>>Begin Processed Spectral Data<<<<<
365.73	11.70
365.92	11.70
366.12	11.70
366.32	0.00
366.52	0.00
366.72	0.00
366.91	0.00
367.11	0.00
367.31	0.00
367.51	0.00
367.70	0.00
367.90	0.00
368.10	0.00
368.30	0.00
368.49	0.00
368.69	0.00
368.89	0.00
369.09	0.00
369.28	0.00
369.48	0.00
369.68	0.00
369.87	0.00
370.07	14.04
370.27	53.83
370.47	16.38
370.66	0.00
370.86	0.00
371.06	0.00
371.25	23.41
371.45	93.62
371.65	72.56
371.84	35.11
372.04	7.02
372.24	35.11
372.44	46.81
372.63	30.43
372.83	124.05
373.03	91.28
373.22	56.17
373.42	131.07
373.62	72.56
373.81	105.32
374.01	140.43
374.21	128.73
374.40	88.94
374.60	102.98
374.79	72.56
374.99	42.13
375.19	191.92
375.38	117.03
375.58	107.66
375.78	145.11
375.97	133.41
376.17	107.66
376.37	49.15
376.56	140.43
376.76	133.41
376.95	128.73
377.15	98.30
377.35	93.62
377.54	152.13
377.74	49.15
377.93	84.26
378.13	93.62
378.33	140.43
378.52	102.98
378.72	117.03
378.91	110.01
379.11	147.45
379.31	81.92
379.50	67.88
379.70	180.22
379.89	145.11
380.09	42.13
380.28	39.79
380.48	16.38
380.68	86.60
380.87	102.98
381.07	44.47
381.26	79.58
381.46	161.50
381.65	49.15
381.85	49.15
382.04	84.26
382.24	98.30
382.43	79.58
382.63	98.30
382.83	98.30
383.02	128.73
383.22	126.39
383.41	107.66
383.61	131.07
383.80	100.64
384.00	93.62
384.19	121.71
384.39	95.96
384.58	58.51
384.78	102.98
384.97	156.82
385.17	91.28
385.36	88.94
385.56	138.09
385.75	65.54
385.95	39.79
386.14	72.56
386.34	35.11
386.53	126.39
386.72	152.13
386.92	88.94
387.11	102.98
387.31	119.37
387.50	56.17
387.70	0.00
387.89	152.13
388.09	86.60
388.28	98.30
388.48	81.92
388.67	110.01
388.86	131.07
389.06	46.81
389.25	135.75
389.45	112.35
389.64	86.60
389.84	138.09
390.03	117.03
390.22	93.62
390.42	100.64
390.61	58.51
390.81	32.77
391.00	65.54
391.19	121.71
391.39	25.75
391.58	133.41
391.78	0.00
391.97	84.26
392.16	63.19
392.36	135.75
392.55	114.69
392.75	44.47
392.94	110.01
393.13	135.75
393.33	32.77
393.52	70.22
393.71	91.28
393.91	177.88
394.10	49.15
394.29	124.05
394.49	112.35
394.68	95.96
394.88	161.50
395.07	63.19
395.26	114.69
395.46	81.92
395.65	168.52
395.84	114.69
396.04	147.45
396.23	84.26
396.42	110.01
396.62	58.51
396.81	152.13
397.00	107.66
397.19	140.43
397.39	163.84
397.58	184.90
397.77	110.01
397.97	74.90
398.16	119.37
398.35	88.94
398.55	56.17
398.74	51.49
398.93	44.47
399.12	114.69
399.32	121.71
399.51	140.43
399.70	124.05
399.90	58.51
400.09	140.43
400.28	77.24
400.47	93.62
400.67	100.64
400.86	95.96
401.05	65.54
401.24	79.58
401.44	105.32
401.63	189.58
401.82	138.09
402.01	7.02
402.21	133.41
402.40	156.82
402.59	110.01
402.78	107.66
402.97	147.45
403.17	117.03
403.36	81.92
403.55	112.35
403.74	121.71
403.93	84.26
404.13	107.66
404.32	110.01
404.51	93.62
404.70	175.54
404.89	170.86
405.09	145.11
405.28	98.30
405.47	63.19
405.66	212.99
405.85	23.41
406.05	91.28
406.24	77.24
406.43	102.98
406.62	86.60
406.81	124.05
407.00	100.64
407.20	7.02
407.39	51.49
407.58	86.60
407.77	126.39
407.96	93.62
408.15	152.13
408.34	187.24
408.54	77.24
408.73	79.58
408.92	180.22
409.11	124.05
409.30	74.90
409.49	77.24
409.68	107.66
409.87	149.79
410.07	133.41
410.26	168.52
410.45	95.96
410.64	37.45
410.83	126.39
411.02	105.32
411.21	138.09
411.40	74.90
411.59	163.84
411.78	93.62
411.98	56.17
412.17	124.05
412.36	65.54
412.55	74.90
412.74	140.43
412.93	110.01
413.12	72.56
413.31	135.75
413.50	163.84
413.69	107.66
413.88	145.11
414.07	72.56
414.26	98.30
414.45	79.58
414.64	91.28
414.83	121.71
415.02	114.69
415.22	100.64
415.41	184.90
415.60	49.15
415.79	49.15
415.98	173.20
416.17	145.11
416.36	81.92
416.55	81.92
416.74	100.64
416.93	147.45
417.12	72.56
417.31	100.64
417.50	138.09
417.69	112.35
417.88	135.75
418.07	53.83
418.26	86.60
418.45	182.56
418.64	60.85
418.83	39.79
419.02	119.37
419.21	110.01
419.39	46.81
419.58	152.13
419.77	156.82
419.96	170.86
420.15	198.95
420.34	86.60
420.53	44.47
420.72	138.09
420.91	86.60
421.10	63.19
421.29	117.03
421.48	140.43
421.67	117.03
421.86	88.94
422.05	124.05
422.24	100.64
422.43	140.43
422.61	84.26
422.80	128.73
422.99	117.03
423.18	88.94
423.37	145.11
423.56	93.62
423.75	154.48
423.94	95.96
424.13	138.09
424.32	100.64
424.50	56.17
424.69	98.30
424.88	145.11
425.07	84.26
425.26	128.73
425.45	149.79
425.64	84.26
425.83	88.94
426.01	107.66
426.20	147.45
426.39	131.07
426.58	128.73
426.77	105.32
426.96	152.13
427.15	128.73
427.33	93.62
427.52	184.90
427.71	187.24
427.90	184.90
428.09	145.11
428.28	152.13
428.46	56.17
428.65	138.09
428.84	72.56
429.03	182.56
429.22	124.05
429.40	110.01
429.59	98.30
429.78	191.92
429.97	173.20
430.16	42.13
430.34	9.36
430.53	16.38
430.72	142.77
430.91	152.13
431.10	133.41
431.28	117.03
431.47	166.18
431.66	81.92
431.85	124.05
432.03	114.69
432.22	201.29
432.41	100.64
432.60	105.32
432.79	93.62
432.97	135.75
433.16	107.66
433.35	60.85
433.54	84.26
433.72	145.11
433.91	170.86
434.10	81.92
434.28	110.01
434.47	159.16
434.66	105.32
434.85	63.19
435.03	74.90
435.22	163.84
435.41	131.07
435.59	124.05
435.78	133.41
435.97	42.13
436.16	93.62
436.34	114.69
436.53	112.35
436.72	91.28
436.90	154.48
437.09	93.62
437.28	208.31
437.46	107.66
437.65	138.09
437.84	105.32
438.02	95.96
438.21	138.09
438.40	60.85
438.58	110.01
438.77	114.69
438.96	131.07
439.14	58.51
439.33	110.01
439.52	133.41
439.70	145.11
439.89	126.39
440.08	53.83
440.26	161.50
440.45	184.90
440.63	149.79
440.82	124.05
441.01	177.88
441.19	98.30
441.38	126.39
441.57	161.50
441.75	173.20
441.94	152.13
442.12	72.56
442.31	119.37
442.50	35.11
442.68	196.60
442.87	147.45
443.05	126.39
443.24	81.92
443.43	187.24
443.61	135.75
443.80	79.58
443.98	159.16
444.17	166.18
444.35	98.30
444.54	140.43
444.73	124.05
444.91	112.35
445.10	102.98
445.28	44.47
445.47	180.22
445.65	168.52
445.84	110.01
446.02	114.69
446.21	135.75
446.39	180.22
446.58	70.22
446.77	156.82
446.95	86.60
447.14	138.09
447.32	168.52
447.51	110.01
447.69	133.41
447.88	128.73
448.06	191.92
448.25	63.19
448.43	149.79
448.62	102.98
448.80	159.16
448.99	142.77
449.17	173.20
449.36	65.54
449.54	84.26
449.73	147.45
449.91	196.60
450.10	128.73
450.28	182.56
450.46	196.60
450.65	222.35
450.83	100.64
451.02	159.16
451.20	220.01
451.39	173.20
451.57	180.22
451.76	102.98
451.94	159.16
452.13	124.05
452.31	138.09
452.49	198.95
452.68	63.19
452.86	180.22
453.05	149.79
453.23	208.31
453.42	105.32
453.60	198.95
453.78	159.16
453.97	159.16
454.15	112.35
454.34	149.79
454.52	98.30
454.70	173.20
454.89	163.84
455.07	147.45
455.26	152.13
455.44	138.09
455.62	173.20
455.81	138.09
455.99	149.79
456.17	119.37
456.36	107.66
456.54	56.17
456.73	128.73
456.91	102.98
457.09	142.77
457.28	86.60
457.46	107.66
457.64	191.92
457.83	102.98
458.01	121.71
458.19	215.33
458.38	98.30
458.56	102.98
458.74	133.41
458.93	63.19
459.11	145.11
459.29	119.37
459.48	93.62
459.66	142.77
459.84	135.75
460.03	215.33
460.21	166.18
460.39	208.31
460.57	217.67
460.76	124.05
460.94	135.75
461.12	208.31
461.31	133.41
461.49	74.90
461.67	142.77
461.85	180.22
462.04	149.79
462.22	587.47
462.40	203.63
462.59	231.71
462.77	198.95
462.95	194.26
463.13	79.58
463.32	133.41
463.50	182.56
463.68	98.30
463.86	161.50
464.05	159.16
464.23	215.33
464.41	81.92
464.59	189.58
464.78	114.69
464.96	135.75
465.14	166.18
465.32	147.45
465.50	145.11
465.69	252.78
465.87	93.62
466.05	119.37
466.23	156.82
466.41	161.50
466.60	112.35
466.78	145.11
466.96	163.84
467.14	173.20
467.32	138.09
467.51	161.50
467.69	147.45
467.87	140.43
468.05	163.84
468.23	170.86
468.41	65.54
468.60	149.79
468.78	180.22
468.96	170.86
469.14	60.85
469.32	84.26
469.50	58.51
469.69	184.90
469.87	173.20
470.05	117.03
470.23	98.30
470.41	84.26
470.59	110.01
470.77	163.84
470.95	173.20
471.14	91.28
471.32	133.41
471.50	107.66
471.68	266.82
471.86	133.41
472.04	70.22
472.22	121.71
472.40	168.52
472.58	175.54
472.77	88.94
472.95	145.11
473.13	227.03
473.31	170.86
473.49	140.43
473.67	177.88
473.85	161.50
474.03	152.13
474.21	128.73
474.39	168.52
474.57	170.86
474.75	145.11
474.93	21.06
475.12	105.32
475.30	86.60
475.48	119.37
475.66	133.41
475.84	72.56
476.02	86.60
476.20	131.07
476.38	163.84
476.56	184.90
476.74	156.82
476.92	65.54
477.10	128.73
477.28	117.03
477.46	194.26
477.64	177.88
477.82	161.50
478.00	138.09
478.18	102.98
478.36	194.26
478.54	173.20
478.72	110.01
478.90	131.07
479.08	149.79
479.26	191.92
479.44	152.13
479.62	131.07
479.80	74.90
479.98	170.86
480.16	128.73
480.34	124.05
480.52	182.56
480.70	121.71
480.88	159.16
481.06	135.75
481.24	95.96
481.41	163.84
481.59	196.60
481.77	131.07
481.95	154.48
482.13	208.31
482.31	227.03
482.49	145.11
482.67	168.52
482.85	138.09
483.03	236.39
483.21	142.77
483.39	149.79
483.57	126.39
483.74	156.82
483.92	156.82
484.10	53.83
484.28	124.05
484.46	168.52
484.64	182.56
484.82	117.03
485.00	145.11
485.18	173.20
485.35	124.05
485.53	227.03
485.71	119.37
485.89	117.03
486.07	135.75
486.25	182.56
486.43	177.88
486.61	217.67
486.78	88.94
486.96	119.37
487.14	70.22
487.32	117.03
487.50	159.16
487.68	166.18
487.85	149.79
488.03	187.24
488.21	163.84
488.39	161.50
488.57	187.24
488.75	189.58
488.92	484.49
489.10	161.50
489.28	217.67
489.46	159.16
489.64	142.77
489.81	163.84
489.99	194.26
490.17	152.13
490.35	168.52
490.53	142.77
490.70	135.75
490.88	220.01
491.06	147.45
491.24	145.11
491.41	191.92
491.59	133.41
491.77	117.03
491.95	210.65
492.13	140.43
492.30	138.09
492.48	210.65
492.66	121.71
492.84	191.92
493.01	191.92
493.19	152.13
493.37	205.97
493.54	133.41
493.72	245.76
493.90	145.11
494.08	224.69
494.25	203.63
494.43	156.82
494.61	110.01
494.79	201.29
494.96	163.84
495.14	208.31
495.32	196.60
495.49	145.11
495.67	163.84
495.85	138.09
496.02	156.82
496.20	252.78
496.38	175.54
496.55	177.88
496.73	175.54
496.91	168.52
497.09	121.71
497.26	220.01
497.44	184.90
497.62	154.48
497.79	133.41
497.97	175.54
498.14	163.84
498.32	241.08
498.50	196.60
498.67	135.75
498.85	145.11
499.03	184.90
499.20	135.75
499.38	210.65
499.56	88.94
499.73	229.37
499.91	201.29
500.08	124.05
500.26	201.29
500.44	231.71
500.61	170.86
500.79	152.13
500.97	196.60
501.14	196.60
501.32	194.26
501.49	257.46
501.67	236.39
501.84	154.48
502.02	142.77
502.20	191.92
502.37	198.95
502.55	145.11
502.72	234.05
502.90	168.52
503.07	205.97
503.25	166.18
503.43	128.73
503.60	194.26
503.78	238.73
503.95	182.56
504.13	182.56
504.30	217.67
504.48	217.67
504.65	217.67
504.83	149.79
505.01	147.45
505.18	156.82
505.36	149.79
505.53	142.77
505.71	161.50
505.88	252.78
506.06	227.03
506.23	231.71
506.41	212.99
506.58	145.11
506.76	166.18
506.93	152.13
507.11	168.52
507.28	138.09
507.46	145.11
507.63	170.86
507.81	166.18
507.98	201.29
508.16	154.48
508.33	196.60
508.50	175.54
508.68	168.52
508.85	201.29
509.03	149.79
509.20	175.54
509.38	147.45
509.55	180.22
509.73	212.99
509.90	203.63
510.08	140.43
510.25	208.31
510.42	128.73
510.60	133.41
510.77	189.58
510.95	112.35
511.12	210.65
511.30	259.80
511.47	248.10
511.64	212.99
511.82	91.28
511.99	241.08
512.17	161.50
512.34	156.82
512.51	128.73
512.69	212.99
512.86	208.31
513.04	212.99
513.21	191.92
513.38	255.12
513.56	257.46
513.73	189.58
513.90	156.82
514.08	163.84
514.25	196.60
514.43	175.54
514.60	117.03
514.77	135.75
514.95	149.79
515.12	161.50
515.29	255.12
515.47	182.56
515.64	220.01
515.81	88.94
515.99	280.86
516.16	238.73
516.33	208.31
516.51	168.52
516.68	84.26
516.85	159.16
517.03	215.33
517.20	241.08
517.37	152.13
517.54	189.58
517.72	180.22
517.89	184.90
518.06	142.77
518.24	133.41
518.41	198.95
518.58	227.03
518.75	196.60
518.93	224.69
519.10	168.52
519.27	224.69
519.45	217.67
519.62	147.45
519.79	271.50
519.96	208.31
520.14	241.08
520.31	252.78
520.48	224.69
520.65	196.60
520.83	208.31
521.00	184.90
521.17	201.29
521.34	238.73
521.52	210.65
521.69	215.33
521.86	180.22
522.03	252.78
522.20	234.05
522.38	203.63
522.55	187.24
522.72	170.86
522.89	196.60
523.07	278.52
523.24	273.84
523.41	152.13
523.58	159.16
523.75	140.43
523.92	191.92
524.10	248.10
524.27	152.13
524.44	205.97
524.61	147.45
524.78	145.11
524.96	191.92
525.13	208.31
525.30	322.99
525.47	262.14
525.64	156.82
525.81	210.65
525.98	189.58
526.16	222.35
526.33	180.22
526.50	175.54
526.67	173.20
526.84	217.67
527.01	156.82
527.18	222.35
527.36	168.52
527.53	184.90
527.70	243.42
527.87	128.73
528.04	198.95
528.21	156.82
528.38	187.24
528.55	205.97
528.72	220.01
528.89	227.03
529.07	161.50
529.24	201.29
529.41	191.92
529.58	182.56
529.75	194.26
529.92	273.84
530.09	182.56
530.26	283.20
530.43	236.39
530.60	208.31
530.77	105.32
530.94	231.71
531.11	248.10
531.28	184.90
531.46	161.50
531.63	135.75
531.80	154.48
531.97	250.44
532.14	184.90
532.31	255.12
532.48	170.86
532.65	135.75
532.82	156.82
532.99	229.37
533.16	210.65
533.33	245.76
533.50	173.20
533.67	163.84
533.84	241.08
534.01	147.45
534.18	194.26
534.35	147.45
534.52	145.11
534.69	271.50
534.86	294.91
535.03	212.99
535.20	278.52
535.37	180.22
535.54	203.63
535.71	236.39
535.88	227.03
536.05	170.86
536.22	236.39
536.38	166.18
536.55	138.09
536.72	175.54
536.89	196.60
537.06	182.56
537.23	252.78
537.40	210.65
537.57	149.79
537.74	212.99
537.91	222.35
538.08	215.33
538.25	217.67
538.42	177.88
538.59	187.24
538.75	208.31
538.92	163.84
539.09	196.60
539.26	220.01
539.43	210.65
539.60	159.16
539.77	252.78
539.94	184.90
540.11	191.92
540.28	243.42
540.44	227.03
540.61	220.01
540.78	194.26
540.95	156.82
541.12	262.14
541.29	212.99
541.46	264.48
541.62	140.43
541.79	215.33
541.96	140.43
542.13	182.56
542.30	177.88
542.47	196.60
542.63	182.56
542.80	173.20
542.97	264.48
543.14	205.97
543.31	217.67
543.48	191.92
543.64	152.13
543.81	208.31
543.98	149.79
544.15	208.31
544.32	161.50
544.48	140.43
544.65	161.50
544.82	187.24
544.99	177.88
545.16	229.37
545.32	168.52
545.49	182.56
545.66	145.11
545.83	131.07
546.00	135.75
546.16	208.31
546.33	271.50
546.50	217.67
546.67	189.58
546.83	205.97
547.00	194.26
547.17	107.66
547.34	168.52
547.50	166.18
547.67	220.01
547.84	163.84
548.00	201.29
548.17	173.20
548.34	124.05
548.51	229.37
548.67	184.90
548.84	182.56
549.01	156.82
549.18	187.24
549.34	210.65
549.51	138.09
549.68	173.20
549.84	145.11
550.01	234.05
550.18	367.46
550.34	306.61
550.51	133.41
550.68	224.69
550.84	156.82
551.01	121.71
551.18	212.99
551.34	252.78
551.51	187.24
551.68	208.31
551.84	262.14
552.01	159.16
552.18	227.03
552.34	140.43
552.51	142.77
552.68	238.73
552.84	241.08
553.01	180.22
553.18	177.88
553.34	154.48
553.51	238.73
553.67	203.63
553.84	182.56
554.01	243.42
554.17	205.97
554.34	112.35
554.51	257.46
554.67	175.54
554.84	180.22
555.00	208.31
555.17	166.18
555.33	191.92
555.50	175.54
555.67	241.08
555.83	126.39
556.00	149.79
556.16	362.78
556.33	257.46
556.50	262.14
556.66	222.35
556.83	187.24
556.99	175.54
557.16	159.16
557.32	128.73
557.49	138.09
557.65	215.33
557.82	182.56
557.98	133.41
558.15	184.90
558.32	126.39
558.48	222.35
558.65	154.48
558.81	110.01
558.98	79.58
559.14	180.22
559.31	159.16
559.47	227.03
559.64	184.90
559.80	245.76
559.97	159.16
560.13	210.65
560.30	175.54
560.46	152.13
560.63	210.65
560.79	133.41
560.96	280.86
561.12	248.10
561.29	283.20
561.45	229.37
561.61	252.78
561.78	290.23
561.94	194.26
562.11	154.48
562.27	149.79
562.44	187.24
562.60	283.20
562.77	315.97
562.93	259.80
563.10	194.26
563.26	156.82
563.42	208.31
563.59	107.66
563.75	236.39
563.92	220.01
564.08	177.88
564.24	224.69
564.41	241.08
564.57	182.56
564.74	187.24
564.90	276.18
565.07	203.63
565.23	198.95
565.39	142.77
565.56	201.29
565.72	149.79
565.88	147.45
566.05	163.84
566.21	217.67
566.38	250.44
566.54	187.24
566.70	191.92
566.87	147.45
567.03	163.84
567.19	159.16
567.36	297.25
567.52	215.33
567.68	208.31
567.85	220.01
568.01	182.56
568.17	170.86
568.34	196.60
568.50	243.42
568.66	215.33
568.83	205.97
568.99	145.11
569.15	255.12
569.32	142.77
569.48	173.20
569.64	138.09
569.81	257.46
569.97	166.18
570.13	217.67
570.30	217.67
570.46	238.73
570.62	140.43
570.78	201.29
570.95	234.05
571.11	203.63
571.27	166.18
571.43	212.99
571.60	142.77
571.76	110.01
571.92	173.20
572.09	245.76
572.25	177.88
572.41	212.99
572.57	154.48
572.74	100.64
572.90	236.39
573.06	189.58
573.22	177.88
573.38	180.22
573.55	201.29
573.71	205.97
573.87	252.78
574.03	145.11
574.20	159.16
574.36	88.94
574.52	81.92
574.68	227.03
574.84	175.54
575.01	266.82
575.17	245.76
575.33	175.54
575.49	266.82
575.65	250.44
575.82	271.50
575.98	180.22
576.14	205.97
576.30	182.56
576.46	205.97
576.62	175.54
576.79	154.48
576.95	187.24
577.11	191.92
577.27	212.99
577.43	149.79
577.59	222.35
577.75	252.78
577.92	166.18
578.08	170.86
578.24	107.66
578.40	243.42
578.56	234.05
578.72	217.67
578.88	227.03
579.04	154.48
579.21	227.03
579.37	198.95
579.53	205.97
579.69	170.86
579.85	201.29
580.01	224.69
580.17	166.18
580.33	250.44
580.49	257.46
580.65	170.86
580.82	236.39
580.98	161.50
581.14	191.92
581.30	271.50
581.46	166.18
581.62	163.84
581.78	170.86
581.94	250.44
582.10	182.56
582.26	191.92
582.42	198.95
582.58	182.56
582.74	212.99
582.90	198.95
583.06	252.78
583.22	163.84
583.38	217.67
583.54	133.41
583.70	208.31
583.86	180.22
584.02	236.39
584.18	262.14
584.34	212.99
584.50	154.48
584.66	601.52
584.82	1170.27
584.98	1413.68
585.14	1254.53
585.30	882.38
585.46	601.52
585.62	365.12
585.78	290.23
585.94	203.63
586.10	159.16
586.26	248.10
586.42	191.92
586.58	180.22
586.74	210.65
586.90	180.22
587.06	194.26
587.22	203.63
587.38	138.09
587.54	220.01
587.70	304.27
587.86	330.02
588.02	299.59
588.18	250.44
588.34	252.78
588.49	124.05
588.65	124.05
588.81	154.48
588.97	180.22
589.13	70.22
589.29	184.90
589.45	154.48
589.61	180.22
589.77	145.11
589.93	184.90
590.08	156.82
590.24	170.86
590.40	198.95
590.56	227.03
590.72	196.60
590.88	140.43
591.04	241.08
591.20	187.24
591.35	161.50
591.51	110.01
591.67	93.62
591.83	100.64
591.99	177.88
592.15	114.69
592.31	121.71
592.46	163.84
592.62	131.07
592.78	142.77
592.94	182.56
593.10	67.88
593.26	159.16
593.41	163.84
593.57	215.33
593.73	95.96
593.89	273.84
594.05	264.48
594.20	262.14
594.36	292.57
594.52	250.44
594.68	189.58
594.84	212.99
594.99	292.57
595.15	182.56
595.31	189.58
595.47	285.55
595.62	102.98
595.78	166.18
595.94	175.54
596.10	180.22
596.25	170.86
596.41	177.88
596.57	156.82
596.73	210.65
596.88	145.11
597.04	210.65
597.20	166.18
597.36	236.39
597.51	182.56
597.67	112.35
597.83	180.22
597.99	180.22
598.14	187.24
598.30	250.44
598.46	152.13
598.61	217.67
598.77	138.09
598.93	145.11
599.09	198.95
599.24	227.03
599.40	166.18
599.56	208.31
599.71	175.54
599.87	170.86
600.03	184.90
600.18	182.56
600.34	220.01
600.50	224.69
600.65	124.05
600.81	269.16
600.97	184.90
601.12	222.35
601.28	191.92
601.44	166.18
601.59	128.73
601.75	224.69
601.91	196.60
602.06	231.71
602.22	306.61
602.37	177.88
602.53	220.01
602.69	170.86
602.84	229.37
603.00	227.03
603.16	212.99
603.31	184.90
603.47	173.20
603.62	126.39
603.78	159.16
603.94	210.65
604.09	182.56
604.25	170.86
604.40	234.05
604.56	203.63
604.71	182.56
604.87	201.29
605.03	229.37
605.18	110.01
605.34	229.37
605.49	124.05
605.65	196.60
605.80	135.75
605.96	152.13
606.12	170.86
606.27	194.26
606.43	212.99
606.58	145.11
606.74	224.69
606.89	227.03
607.05	283.20
607.20	372.15
607.36	285.55
607.51	131.07
607.67	189.58
607.82	266.82
607.98	212.99
608.13	203.63
608.29	224.69
608.44	238.73
608.60	77.24
608.75	252.78
608.91	145.11
609.06	308.95
609.22	353.42
609.37	351.08
609.53	341.72
609.68	238.73
609.84	287.89
609.99	173.20
610.15	224.69
610.30	194.26
610.46	215.33
610.61	201.29
610.76	191.92
610.92	255.12
611.07	201.29
611.23	278.52
611.38	191.92
611.54	180.22
611.69	149.79
611.84	145.11
612.00	189.58
612.15	203.63
612.31	236.39
612.46	140.43
612.62	189.58
612.77	156.82
612.92	182.56
613.08	173.20
613.23	182.56
613.39	161.50
613.54	231.71
613.69	271.50
613.85	421.30
614.00	484.49
614.15	566.41
614.31	379.17
614.46	435.34
614.62	266.82
614.77	245.76
614.92	145.11
615.08	140.43
615.23	163.84
615.38	212.99
615.54	145.11
615.69	163.84
615.84	175.54
616.00	259.80
616.15	238.73
616.30	191.92
616.46	236.39
616.61	245.76
616.76	156.82
616.92	177.88
617.07	114.69
617.22	112.35
617.37	205.97
617.53	163.84
617.68	166.18
617.83	177.88
617.99	222.35
618.14	163.84
618.29	217.67
618.45	196.60
618.60	135.75
618.75	142.77
618.90	135.75
619.06	152.13
619.21	217.67
619.36	154.48
619.51	175.54
619.67	198.95
619.82	140.43
619.97	180.22
620.12	163.84
620.28	215.33
620.43	191.92
620.58	170.86
620.73	147.45
620.89	117.03
621.04	159.16
621.19	220.01
621.34	180.22
621.49	238.73
621.65	163.84
621.80	196.60
621.95	220.01
622.10	210.65
622.25	102.98
622.41	182.56
622.56	187.24
622.71	266.82
622.86	191.92
623.01	88.94
623.16	142.77
623.32	175.54
623.47	168.52
623.62	175.54
623.77	248.10
623.92	194.26
624.07	208.31
624.23	161.50
624.38	205.97
624.53	154.48
624.68	128.73
624.83	236.39
624.98	100.64
625.13	163.84
625.29	112.35
625.44	124.05
625.59	168.52
625.74	208.31
625.89	88.94
626.04	205.97
626.19	241.08
626.34	360.44
626.49	339.38
626.65	301.93
626.80	222.35
626.95	184.90
627.10	173.20
627.25	152.13
627.40	131.07
627.55	159.16
627.70	147.45
627.85	163.84
628.00	110.01
628.15	135.75
628.30	173.20
628.45	152.13
628.60	133.41
628.76	180.22
628.91	70.22
629.06	72.56
629.21	117.03
629.36	266.82
629.51	91.28
629.66	182.56
629.81	212.99
629.96	163.84
630.11	166.18
630.26	292.57
630.41	173.20
630.56	201.29
630.71	210.65
630.86	217.67
631.01	152.13
631.16	119.37
631.31	189.58
631.46	161.50
631.61	196.60
631.76	177.88
631.91	119.37
632.06	177.88
632.21	194.26
632.36	189.58
632.51	147.45
632.66	175.54
632.81	166.18
632.96	234.05
633.10	327.68
633.25	215.33
633.40	241.08
633.55	285.55
633.70	124.05
633.85	187.24
634.00	161.50
634.15	201.29
634.30	142.77
634.45	77.24
634.60	79.58
634.75	60.85
634.90	133.41
635.05	180.22
635.19	215.33
635.34	138.09
635.49	156.82
635.64	180.22
635.79	124.05
635.94	138.09
636.09	138.09
636.24	177.88
636.39	124.05
636.53	187.24
636.68	147.45
636.83	140.43
636.98	138.09
637.13	166.18
637.28	173.20
637.43	142.77
637.57	215.33
637.72	191.92
637.87	294.91
638.02	360.44
638.17	390.87
638.32	283.20
638.46	315.97
638.61	273.84
638.76	196.60
638.91	191.92
639.06	107.66
639.20	163.84
639.35	203.63
639.50	86.60
639.65	315.97
639.80	344.06
639.94	521.94
640.09	533.64
640.24	365.12
640.39	320.65
640.54	315.97
640.68	217.67
640.83	145.11
640.98	124.05
641.13	95.96
641.27	149.79
641.42	189.58
641.57	124.05
641.72	168.52
641.86	168.52
642.01	191.92
642.16	149.79
642.31	140.43
642.45	210.65
642.60	189.58
642.75	154.48
642.90	234.05
643.04	72.56
643.19	117.03
643.34	196.60
643.48	124.05
643.63	142.77
643.78	163.84
643.93	105.32
644.07	149.79
644.22	177.88
644.37	95.96
644.51	187.24
644.66	173.20
644.81	138.09
644.95	138.09
645.10	77.24
645.25	81.92
645.39	105.32
645.54	168.52
645.69	210.65
645.83	138.09
645.98	184.90
646.13	140.43
646.27	126.39
646.42	189.58
646.57	182.56
646.71	163.84
646.86	105.32
647.00	131.07
647.15	84.26
647.30	117.03
647.44	145.11
647.59	163.84
647.74	149.79
647.88	166.18
648.03	124.05
648.17	112.35
648.32	124.05
648.47	152.13
648.61	159.16
648.76	212.99
648.90	107.66
649.05	180.22
649.20	105.32
649.34	114.69
649.49	128.73
649.63	110.01
649.78	117.03
649.92	166.18
650.07	119.37
650.21	252.78
650.36	346.40
650.51	285.55
650.65	325.33
650.80	271.50
650.94	283.20
651.09	180.22
651.23	222.35
651.38	198.95
651.52	163.84
651.67	147.45
651.81	126.39
651.96	128.73
652.10	140.43
652.25	175.54
652.39	194.26
652.54	166.18
652.68	196.60
652.83	161.50
652.97	241.08
653.12	222.35
653.26	205.97
653.41	159.16
653.55	173.20
653.70	191.92
653.84	145.11
653.99	210.65
654.13	208.31
654.27	184.90
654.42	117.03
654.56	126.39
654.71	234.05
654.85	189.58
655.00	133.41
655.14	126.39
655.29	149.79
655.43	156.82
655.57	98.30
655.72	147.45
655.86	100.64
656.01	145.11
656.15	131.07
656.30	196.60
656.44	177.88
656.58	110.01
656.73	152.13
656.87	114.69
657.01	114.69
657.16	159.16
657.30	93.62
657.45	189.58
657.59	159.16
657.73	107.66
657.88	128.73
658.02	259.80
658.16	117.03
658.31	175.54
658.45	184.90
658.60	114.69
658.74	128.73
658.88	46.81
659.03	133.41
659.17	145.11
659.31	93.62
659.46	189.58
659.60	234.05
659.74	243.42
659.89	194.26
660.03	201.29
660.17	217.67
660.32	154.48
660.46	140.43
660.60	95.96
660.74	152.13
660.89	175.54
661.03	117.03
661.17	95.96
661.32	95.96
661.46	135.75
661.60	84.26
661.74	133.41
661.89	131.07
662.03	212.99
662.17	79.58
662.31	98.30
662.46	168.52
662.60	161.50
662.74	105.32
662.88	126.39
663.03	159.16
663.17	88.94
663.31	163.84
663.45	140.43
663.60	152.13
663.74	84.26
663.88	100.64
664.02	175.54
664.17	142.77
664.31	91.28
664.45	74.90
664.59	149.79
664.73	149.79
664.88	191.92
665.02	170.86
665.16	131.07
665.30	133.41
665.44	70.22
665.59	184.90
665.73	117.03
665.87	156.82
666.01	145.11
666.15	161.50
666.29	175.54
666.44	114.69
666.58	227.03
666.72	72.56
666.86	42.13
667.00	191.92
667.14	159.16
667.28	159.16
667.43	245.76
667.57	241.08
667.71	348.74
667.85	234.05
667.99	231.71
668.13	163.84
668.27	145.11
668.41	133.41
668.56	138.09
668.70	161.50
668.84	119.37
668.98	142.77
669.12	81.92
669.26	147.45
669.40	180.22
669.54	184.90
669.68	212.99
669.82	149.79
669.96	119.37
670.10	112.35
670.25	184.90
670.39	175.54
670.53	117.03
670.67	222.35
670.81	91.28
670.95	201.29
671.09	117.03
671.23	189.58
671.37	184.90
671.51	236.39
671.65	390.87
671.79	145.11
671.93	187.24
672.07	238.73
672.21	184.90
672.35	133.41
672.49	72.56
672.63	189.58
672.77	124.05
672.91	152.13
673.05	112.35
673.19	91.28
673.33	154.48
673.47	180.22
673.61	119.37
673.75	205.97
673.89	39.79
674.03	177.88
674.17	135.75
674.31	189.58
674.45	110.01
674.59	191.92
674.73	110.01
674.87	98.30
675.01	184.90
675.15	110.01
675.29	135.75
675.43	170.86
675.56	203.63
675.70	140.43
675.84	170.86
675.98	121.71
676.12	84.26
676.26	142.77
676.40	149.79
676.54	159.16
676.68	175.54
676.82	135.75
676.96	105.32
677.10	91.28
677.23	166.18
677.37	145.11
677.51	145.11
677.65	212.99
677.79	124.05
677.93	133.41
678.07	140.43
678.21	126.39
678.34	147.45
678.48	60.85
678.62	149.79
678.76	79.58
678.90	210.65
679.04	121.71
679.18	124.05
679.31	79.58
679.45	117.03
679.59	121.71
679.73	140.43
679.87	84.26
680.00	203.63
680.14	159.16
680.28	100.64
680.42	173.20
680.56	121.71
680.70	93.62
680.83	131.07
680.97	91.28
681.11	156.82
681.25	166.18
681.39	86.60
681.52	156.82
681.66	65.54
681.80	79.58
681.94	117.03
682.07	126.39
682.21	117.03
682.35	145.11
682.49	51.49
682.62	182.56
682.76	39.79
682.90	124.05
683.04	175.54
683.17	131.07
683.31	198.95
683.45	142.77
683.59	114.69
683.72	138.09
683.86	196.60
684.00	152.13
684.13	154.48
684.27	131.07
684.41	102.98
684.55	84.26
684.68	25.75
684.82	187.24
684.96	102.98
685.09	114.69
685.23	74.90
685.37	60.85
685.50	147.45
685.64	184.90
685.78	145.11
685.91	79.58
686.05	140.43
686.19	163.84
686.32	140.43
686.46	110.01
686.60	56.17
686.73	114.69
686.87	142.77
687.01	159.16
687.14	100.64
687.28	117.03
687.42	98.30
687.55	147.45
687.69	86.60
687.82	56.17
687.96	60.85
688.10	105.32
688.23	170.86
688.37	224.69
688.50	138.09
688.64	93.62
688.78	152.13
688.91	81.92
689.05	77.24
689.18	30.43
689.32	112.35
689.46	119.37
689.59	128.73
689.73	198.95
689.86	140.43
690.00	53.83
690.13	142.77
690.27	175.54
690.41	121.71
690.54	72.56
690.68	142.77
690.81	95.96
690.95	135.75
691.08	149.79
691.22	152.13
691.35	98.30
691.49	88.94
691.62	133.41
691.76	88.94
691.89	46.81
692.03	112.35
692.16	138.09
692.30	145.11
692.43	102.98
692.57	154.48
692.70	142.77
692.84	126.39
692.97	70.22
693.11	198.95
693.24	187.24
693.38	72.56
693.51	145.11
693.65	145.11
693.78	88.94
693.92	67.88
694.05	70.22
694.19	84.26
694.32	63.19
694.45	110.01
694.59	102.98
694.72	117.03
694.86	145.11
694.99	67.88
695.13	154.48
695.26	79.58
695.39	84.26
695.53	166.18
695.66	119.37
695.80	124.05
695.93	131.07
696.07	126.39
696.20	131.07
696.33	70.22
696.47	91.28
696.60	35.11
696.73	128.73
696.87	88.94
697.00	175.54
697.14	140.43
697.27	70.22
697.40	133.41
697.54	102.98
697.67	110.01
697.80	124.05
697.94	46.81
698.07	159.16
698.21	168.52
698.34	65.54
698.47	25.75
698.61	60.85
698.74	63.19
698.87	194.26
699.01	121.71
699.14	102.98
699.27	117.03
699.40	196.60
699.54	65.54
699.67	119.37
699.80	126.39
699.94	124.05
700.07	91.28
700.20	60.85
700.34	67.88
700.47	65.54
700.60	65.54
700.73	88.94
700.87	79.58
701.00	126.39
701.13	44.47
701.26	100.64
701.40	74.90
701.53	112.35
701.66	105.32
701.79	65.54
701.93	74.90
702.06	102.98
702.19	161.50
702.32	119.37
702.46	21.06
702.59	154.48
702.72	81.92
702.85	140.43
702.99	121.71
703.12	250.44
703.25	283.20
703.38	205.97
703.51	236.39
703.65	205.97
703.78	121.71
703.91	110.01
704.04	119.37
704.17	128.73
704.31	79.58
704.44	60.85
704.57	138.09
704.70	121.71
704.83	56.17
704.96	32.77
705.10	110.01
705.23	128.73
>>>>>End Processed Spectral Data<<<<<
