SpectraSuite Data File
++++++++++++++++++++++++++++++++++++
Date: Fri Oct 04 11:47:12 GMT-05:00 2013
User: price-jones
Dark Spectrum Present: No
Reference Spectrum Present: No
Number of Sampled Component Spectra: 1
Spectrometers: USB2+H05261
Integration Time (usec): 100000 (USB2+H05261)
Spectra Averaged: 1 (USB2+H05261)
Boxcar Smoothing: 0 (USB2+H05261)
Correct for Electrical Dark: No (USB2+H05261)
Strobe/Lamp Enabled: No (USB2+H05261)
Correct for Detector Non-linearity: No (USB2+H05261)
Correct for Stray Light: No (USB2+H05261)
Number of Pixels in Processed Spectrum: 2048
>>>>>Begin Processed Spectral Data<<<<<
365.73	0.00
365.92	0.00
366.12	0.00
366.32	0.00
366.52	0.00
366.72	0.00
366.91	0.00
367.11	0.00
367.31	0.00
367.51	0.00
367.70	0.00
367.90	0.00
368.10	0.00
368.30	0.00
368.49	0.00
368.69	0.00
368.89	0.00
369.09	0.00
369.28	0.00
369.48	0.00
369.68	0.00
369.87	16.38
370.07	0.00
370.27	35.11
370.47	18.72
370.66	58.51
370.86	0.00
371.06	60.85
371.25	91.28
371.45	63.19
371.65	84.26
371.84	107.66
372.04	84.26
372.24	32.77
372.44	72.56
372.63	44.47
372.83	112.35
373.03	112.35
373.22	67.88
373.42	110.01
373.62	142.77
373.81	88.94
374.01	79.58
374.21	121.71
374.40	105.32
374.60	149.79
374.79	53.83
374.99	128.73
375.19	77.24
375.38	110.01
375.58	133.41
375.78	105.32
375.97	131.07
376.17	51.49
376.37	152.13
376.56	131.07
376.76	56.17
376.95	84.26
377.15	58.51
377.35	9.36
377.54	133.41
377.74	107.66
377.93	147.45
378.13	184.90
378.33	159.16
378.52	112.35
378.72	51.49
378.91	135.75
379.11	72.56
379.31	88.94
379.50	84.26
379.70	112.35
379.89	9.36
380.09	14.04
380.28	147.45
380.48	114.69
380.68	107.66
380.87	65.54
381.07	102.98
381.26	128.73
381.46	32.77
381.65	28.09
381.85	79.58
382.04	95.96
382.24	110.01
382.43	105.32
382.63	72.56
382.83	77.24
383.02	102.98
383.22	70.22
383.41	100.64
383.61	74.90
383.80	105.32
384.00	93.62
384.19	91.28
384.39	142.77
384.58	53.83
384.78	0.00
384.97	112.35
385.17	84.26
385.36	98.30
385.56	117.03
385.75	28.09
385.95	105.32
386.14	147.45
386.34	126.39
386.53	124.05
386.72	72.56
386.92	91.28
387.11	86.60
387.31	126.39
387.50	107.66
387.70	65.54
387.89	35.11
388.09	14.04
388.28	65.54
388.48	63.19
388.67	77.24
388.86	25.75
389.06	131.07
389.25	86.60
389.45	95.96
389.64	100.64
389.84	152.13
390.03	72.56
390.22	98.30
390.42	37.45
390.61	25.75
390.81	0.00
391.00	86.60
391.19	131.07
391.39	86.60
391.58	70.22
391.78	60.85
391.97	58.51
392.16	32.77
392.36	173.20
392.55	49.15
392.75	142.77
392.94	44.47
393.13	88.94
393.33	35.11
393.52	42.13
393.71	63.19
393.91	102.98
394.10	86.60
394.29	86.60
394.49	95.96
394.68	105.32
394.88	46.81
395.07	152.13
395.26	86.60
395.46	133.41
395.65	105.32
395.84	112.35
396.04	175.54
396.23	110.01
396.42	140.43
396.62	100.64
396.81	58.51
397.00	49.15
397.19	74.90
397.39	145.11
397.58	140.43
397.77	91.28
397.97	131.07
398.16	86.60
398.35	77.24
398.55	63.19
398.74	112.35
398.93	88.94
399.12	84.26
399.32	161.50
399.51	67.88
399.70	112.35
399.90	74.90
400.09	93.62
400.28	100.64
400.47	194.26
400.67	138.09
400.86	175.54
401.05	126.39
401.24	166.18
401.44	79.58
401.63	159.16
401.82	121.71
402.01	74.90
402.21	84.26
402.40	86.60
402.59	95.96
402.78	140.43
402.97	110.01
403.17	28.09
403.36	124.05
403.55	79.58
403.74	159.16
403.93	154.48
404.13	102.98
404.32	84.26
404.51	23.41
404.70	107.66
404.89	81.92
405.09	191.92
405.28	91.28
405.47	65.54
405.66	124.05
405.85	91.28
406.05	119.37
406.24	37.45
406.43	107.66
406.62	23.41
406.81	124.05
407.00	86.60
407.20	72.56
407.39	110.01
407.58	86.60
407.77	147.45
407.96	105.32
408.15	184.90
408.34	142.77
408.54	56.17
408.73	95.96
408.92	173.20
409.11	142.77
409.30	112.35
409.49	102.98
409.68	72.56
409.87	184.90
410.07	65.54
410.26	168.52
410.45	142.77
410.64	14.04
410.83	86.60
411.02	56.17
411.21	46.81
411.40	145.11
411.59	98.30
411.78	154.48
411.98	124.05
412.17	131.07
412.36	152.13
412.55	142.77
412.74	91.28
412.93	107.66
413.12	58.51
413.31	145.11
413.50	32.77
413.69	145.11
413.88	84.26
414.07	79.58
414.26	138.09
414.45	156.82
414.64	95.96
414.83	44.47
415.02	95.96
415.22	142.77
415.41	126.39
415.60	72.56
415.79	91.28
415.98	138.09
416.17	114.69
416.36	74.90
416.55	88.94
416.74	121.71
416.93	81.92
417.12	74.90
417.31	138.09
417.50	23.41
417.69	131.07
417.88	84.26
418.07	79.58
418.26	168.52
418.45	74.90
418.64	100.64
418.83	117.03
419.02	112.35
419.21	131.07
419.39	126.39
419.58	98.30
419.77	79.58
419.96	152.13
420.15	145.11
420.34	133.41
420.53	74.90
420.72	191.92
420.91	124.05
421.10	39.79
421.29	72.56
421.48	152.13
421.67	65.54
421.86	49.15
422.05	140.43
422.24	44.47
422.43	81.92
422.61	53.83
422.80	119.37
422.99	70.22
423.18	124.05
423.37	140.43
423.56	105.32
423.75	86.60
423.94	100.64
424.13	112.35
424.32	84.26
424.50	46.81
424.69	117.03
424.88	175.54
425.07	46.81
425.26	135.75
425.45	189.58
425.64	119.37
425.83	149.79
426.01	196.60
426.20	117.03
426.39	95.96
426.58	105.32
426.77	112.35
426.96	145.11
427.15	107.66
427.33	133.41
427.52	152.13
427.71	65.54
427.90	128.73
428.09	126.39
428.28	51.49
428.46	79.58
428.65	145.11
428.84	117.03
429.03	135.75
429.22	126.39
429.40	105.32
429.59	21.06
429.78	166.18
429.97	67.88
430.16	98.30
430.34	102.98
430.53	56.17
430.72	147.45
430.91	135.75
431.10	140.43
431.28	98.30
431.47	117.03
431.66	95.96
431.85	145.11
432.03	154.48
432.22	189.58
432.41	147.45
432.60	135.75
432.79	102.98
432.97	156.82
433.16	95.96
433.35	79.58
433.54	121.71
433.72	133.41
433.91	191.92
434.10	67.88
434.28	126.39
434.47	175.54
434.66	135.75
434.85	93.62
435.03	154.48
435.22	56.17
435.41	173.20
435.59	126.39
435.78	154.48
435.97	166.18
436.16	110.01
436.34	168.52
436.53	63.19
436.72	149.79
436.90	114.69
437.09	81.92
437.28	149.79
437.46	60.85
437.65	126.39
437.84	208.31
438.02	147.45
438.21	131.07
438.40	159.16
438.58	135.75
438.77	161.50
438.96	98.30
439.14	107.66
439.33	135.75
439.52	147.45
439.70	159.16
439.89	152.13
440.08	238.73
440.26	79.58
440.45	177.88
440.63	63.19
440.82	149.79
441.01	152.13
441.19	131.07
441.38	114.69
441.57	110.01
441.75	135.75
441.94	177.88
442.12	67.88
442.31	110.01
442.50	161.50
442.68	81.92
442.87	135.75
443.05	121.71
443.24	124.05
443.43	142.77
443.61	166.18
443.80	100.64
443.98	58.51
444.17	152.13
444.35	110.01
444.54	93.62
444.73	100.64
444.91	110.01
445.10	114.69
445.28	121.71
445.47	107.66
445.65	102.98
445.84	189.58
446.02	110.01
446.21	173.20
446.39	117.03
446.58	168.52
446.77	142.77
446.95	102.98
447.14	77.24
447.32	152.13
447.51	135.75
447.69	163.84
447.88	98.30
448.06	131.07
448.25	140.43
448.43	65.54
448.62	152.13
448.80	102.98
448.99	128.73
449.17	79.58
449.36	84.26
449.54	227.03
449.73	112.35
449.91	168.52
450.10	161.50
450.28	203.63
450.46	208.31
450.65	77.24
450.83	149.79
451.02	102.98
451.20	227.03
451.39	182.56
451.57	105.32
451.76	107.66
451.94	131.07
452.13	161.50
452.31	128.73
452.49	154.48
452.68	93.62
452.86	110.01
453.05	161.50
453.23	131.07
453.42	149.79
453.60	166.18
453.78	163.84
453.97	98.30
454.15	110.01
454.34	74.90
454.52	145.11
454.70	147.45
454.89	212.99
455.07	203.63
455.26	231.71
455.44	159.16
455.62	142.77
455.81	128.73
455.99	147.45
456.17	117.03
456.36	105.32
456.54	65.54
456.73	135.75
456.91	117.03
457.09	126.39
457.28	149.79
457.46	32.77
457.64	102.98
457.83	133.41
458.01	79.58
458.19	112.35
458.38	159.16
458.56	135.75
458.74	65.54
458.93	126.39
459.11	124.05
459.29	102.98
459.48	196.60
459.66	175.54
459.84	198.95
460.03	280.86
460.21	159.16
460.39	105.32
460.57	177.88
460.76	121.71
460.94	161.50
461.12	163.84
461.31	102.98
461.49	107.66
461.67	154.48
461.85	147.45
462.04	112.35
462.22	608.54
462.40	124.05
462.59	154.48
462.77	145.11
462.95	182.56
463.13	126.39
463.32	173.20
463.50	98.30
463.68	161.50
463.86	182.56
464.05	142.77
464.23	229.37
464.41	191.92
464.59	86.60
464.78	102.98
464.96	117.03
465.14	175.54
465.32	163.84
465.50	121.71
465.69	189.58
465.87	126.39
466.05	194.26
466.23	114.69
466.41	140.43
466.60	133.41
466.78	131.07
466.96	198.95
467.14	110.01
467.32	166.18
467.51	95.96
467.69	107.66
467.87	105.32
468.05	124.05
468.23	126.39
468.41	147.45
468.60	135.75
468.78	145.11
468.96	166.18
469.14	173.20
469.32	145.11
469.50	74.90
469.69	133.41
469.87	124.05
470.05	107.66
470.23	95.96
470.41	63.19
470.59	124.05
470.77	154.48
470.95	203.63
471.14	156.82
471.32	100.64
471.50	175.54
471.68	124.05
471.86	166.18
472.04	145.11
472.22	114.69
472.40	58.51
472.58	149.79
472.77	86.60
472.95	107.66
473.13	224.69
473.31	156.82
473.49	135.75
473.67	60.85
473.85	194.26
474.03	196.60
474.21	128.73
474.39	180.22
474.57	229.37
474.75	84.26
474.93	128.73
475.12	175.54
475.30	84.26
475.48	142.77
475.66	119.37
475.84	105.32
476.02	156.82
476.20	149.79
476.38	198.95
476.56	187.24
476.74	168.52
476.92	138.09
477.10	147.45
477.28	203.63
477.46	126.39
477.64	203.63
477.82	126.39
478.00	152.13
478.18	133.41
478.36	187.24
478.54	147.45
478.72	166.18
478.90	100.64
479.08	128.73
479.26	201.29
479.44	177.88
479.62	100.64
479.80	135.75
479.98	138.09
480.16	208.31
480.34	229.37
480.52	215.33
480.70	126.39
480.88	131.07
481.06	88.94
481.24	166.18
481.41	110.01
481.59	131.07
481.77	147.45
481.95	107.66
482.13	149.79
482.31	159.16
482.49	117.03
482.67	154.48
482.85	135.75
483.03	119.37
483.21	65.54
483.39	140.43
483.57	119.37
483.74	161.50
483.92	191.92
484.10	154.48
484.28	156.82
484.46	163.84
484.64	98.30
484.82	95.96
485.00	126.39
485.18	175.54
485.35	142.77
485.53	142.77
485.71	147.45
485.89	161.50
486.07	93.62
486.25	177.88
486.43	114.69
486.61	220.01
486.78	135.75
486.96	168.52
487.14	145.11
487.32	159.16
487.50	154.48
487.68	196.60
487.85	180.22
488.03	145.11
488.21	238.73
488.39	217.67
488.57	224.69
488.75	217.67
488.92	454.06
489.10	154.48
489.28	128.73
489.46	131.07
489.64	140.43
489.81	168.52
489.99	107.66
490.17	166.18
490.35	222.35
490.53	189.58
490.70	138.09
490.88	145.11
491.06	159.16
491.24	182.56
491.41	210.65
491.59	135.75
491.77	140.43
491.95	112.35
492.13	102.98
492.30	156.82
492.48	166.18
492.66	217.67
492.84	189.58
493.01	152.13
493.19	161.50
493.37	191.92
493.54	215.33
493.72	154.48
493.90	194.26
494.08	194.26
494.25	149.79
494.43	196.60
494.61	145.11
494.79	105.32
494.96	194.26
495.14	238.73
495.32	107.66
495.49	152.13
495.67	184.90
495.85	187.24
496.02	180.22
496.20	147.45
496.38	224.69
496.55	191.92
496.73	126.39
496.91	222.35
497.09	128.73
497.26	173.20
497.44	170.86
497.62	198.95
497.79	168.52
497.97	217.67
498.14	173.20
498.32	175.54
498.50	154.48
498.67	161.50
498.85	135.75
499.03	212.99
499.20	168.52
499.38	196.60
499.56	175.54
499.73	229.37
499.91	203.63
500.08	210.65
500.26	105.32
500.44	156.82
500.61	145.11
500.79	161.50
500.97	177.88
501.14	194.26
501.32	182.56
501.49	212.99
501.67	98.30
501.84	152.13
502.02	156.82
502.20	210.65
502.37	205.97
502.55	198.95
502.72	208.31
502.90	152.13
503.07	191.92
503.25	131.07
503.43	126.39
503.60	180.22
503.78	194.26
503.95	173.20
504.13	175.54
504.30	182.56
504.48	196.60
504.65	236.39
504.83	227.03
505.01	133.41
505.18	266.82
505.36	180.22
505.53	208.31
505.71	203.63
505.88	227.03
506.06	220.01
506.23	152.13
506.41	198.95
506.58	210.65
506.76	191.92
506.93	166.18
507.11	131.07
507.28	142.77
507.46	140.43
507.63	187.24
507.81	138.09
507.98	180.22
508.16	170.86
508.33	102.98
508.50	168.52
508.68	205.97
508.85	173.20
509.03	210.65
509.20	133.41
509.38	208.31
509.55	203.63
509.73	159.16
509.90	194.26
510.08	156.82
510.25	248.10
510.42	191.92
510.60	131.07
510.77	250.44
510.95	222.35
511.12	238.73
511.30	222.35
511.47	114.69
511.64	301.93
511.82	234.05
511.99	222.35
512.17	145.11
512.34	133.41
512.51	234.05
512.69	133.41
512.86	203.63
513.04	95.96
513.21	149.79
513.38	170.86
513.56	175.54
513.73	107.66
513.90	248.10
514.08	203.63
514.25	217.67
514.43	177.88
514.60	231.71
514.77	173.20
514.95	152.13
515.12	175.54
515.29	212.99
515.47	229.37
515.64	173.20
515.81	220.01
515.99	227.03
516.16	201.29
516.33	180.22
516.51	201.29
516.68	95.96
516.85	117.03
517.03	198.95
517.20	273.84
517.37	283.20
517.54	163.84
517.72	126.39
517.89	187.24
518.06	102.98
518.24	259.80
518.41	278.52
518.58	189.58
518.75	140.43
518.93	236.39
519.10	222.35
519.27	212.99
519.45	252.78
519.62	159.16
519.79	145.11
519.96	180.22
520.14	170.86
520.31	227.03
520.48	245.76
520.65	189.58
520.83	189.58
521.00	168.52
521.17	252.78
521.34	154.48
521.52	224.69
521.69	196.60
521.86	177.88
522.03	255.12
522.20	201.29
522.38	173.20
522.55	217.67
522.72	149.79
522.89	227.03
523.07	217.67
523.24	201.29
523.41	220.01
523.58	194.26
523.75	224.69
523.92	196.60
524.10	222.35
524.27	189.58
524.44	147.45
524.61	231.71
524.78	184.90
524.96	121.71
525.13	175.54
525.30	159.16
525.47	191.92
525.64	140.43
525.81	227.03
525.98	168.52
526.16	114.69
526.33	140.43
526.50	154.48
526.67	142.77
526.84	88.94
527.01	177.88
527.18	236.39
527.36	231.71
527.53	156.82
527.70	142.77
527.87	215.33
528.04	234.05
528.21	220.01
528.38	264.48
528.55	245.76
528.72	198.95
528.89	208.31
529.07	215.33
529.24	107.66
529.41	280.86
529.58	255.12
529.75	243.42
529.92	222.35
530.09	184.90
530.26	196.60
530.43	203.63
530.60	187.24
530.77	205.97
530.94	220.01
531.11	245.76
531.28	208.31
531.46	229.37
531.63	215.33
531.80	152.13
531.97	229.37
532.14	163.84
532.31	173.20
532.48	215.33
532.65	210.65
532.82	152.13
532.99	182.56
533.16	177.88
533.33	126.39
533.50	175.54
533.67	191.92
533.84	229.37
534.01	191.92
534.18	227.03
534.35	198.95
534.52	243.42
534.69	234.05
534.86	159.16
535.03	163.84
535.20	285.55
535.37	184.90
535.54	248.10
535.71	140.43
535.88	159.16
536.05	210.65
536.22	173.20
536.38	187.24
536.55	217.67
536.72	280.86
536.89	198.95
537.06	203.63
537.23	217.67
537.40	215.33
537.57	203.63
537.74	210.65
537.91	147.45
538.08	215.33
538.25	180.22
538.42	177.88
538.59	245.76
538.75	245.76
538.92	264.48
539.09	241.08
539.26	255.12
539.43	318.31
539.60	311.29
539.77	341.72
539.94	325.33
540.11	346.40
540.28	264.48
540.44	273.84
540.61	222.35
540.78	208.31
540.95	187.24
541.12	222.35
541.29	210.65
541.46	215.33
541.62	255.12
541.79	259.80
541.96	149.79
542.13	161.50
542.30	173.20
542.47	191.92
542.63	175.54
542.80	273.84
542.97	215.33
543.14	231.71
543.31	196.60
543.48	234.05
543.64	224.69
543.81	208.31
543.98	276.18
544.15	278.52
544.32	159.16
544.48	182.56
544.65	145.11
544.82	154.48
544.99	173.20
545.16	194.26
545.32	229.37
545.49	173.20
545.66	217.67
545.83	166.18
546.00	147.45
546.16	215.33
546.33	212.99
546.50	187.24
546.67	191.92
546.83	208.31
547.00	269.16
547.17	255.12
547.34	191.92
547.50	149.79
547.67	243.42
547.84	147.45
548.00	236.39
548.17	198.95
548.34	231.71
548.51	255.12
548.67	205.97
548.84	175.54
549.01	220.01
549.18	278.52
549.34	182.56
549.51	194.26
549.68	241.08
549.84	248.10
550.01	198.95
550.18	308.95
550.34	299.59
550.51	231.71
550.68	231.71
550.84	210.65
551.01	196.60
551.18	283.20
551.34	156.82
551.51	187.24
551.68	184.90
551.84	180.22
552.01	210.65
552.18	173.20
552.34	210.65
552.51	191.92
552.68	241.08
552.84	205.97
553.01	222.35
553.18	166.18
553.34	166.18
553.51	145.11
553.67	201.29
553.84	248.10
554.01	215.33
554.17	222.35
554.34	184.90
554.51	215.33
554.67	222.35
554.84	149.79
555.00	210.65
555.17	173.20
555.33	191.92
555.50	236.39
555.67	184.90
555.83	152.13
556.00	187.24
556.16	290.23
556.33	266.82
556.50	220.01
556.66	215.33
556.83	264.48
556.99	124.05
557.16	135.75
557.32	220.01
557.49	166.18
557.65	224.69
557.82	215.33
557.98	198.95
558.15	203.63
558.32	182.56
558.48	276.18
558.65	184.90
558.81	196.60
558.98	203.63
559.14	187.24
559.31	201.29
559.47	191.92
559.64	170.86
559.80	163.84
559.97	168.52
560.13	205.97
560.30	201.29
560.46	156.82
560.63	215.33
560.79	175.54
560.96	142.77
561.12	201.29
561.29	161.50
561.45	173.20
561.61	212.99
561.78	248.10
561.94	217.67
562.11	159.16
562.27	128.73
562.44	250.44
562.60	173.20
562.77	149.79
562.93	273.84
563.10	170.86
563.26	182.56
563.42	220.01
563.59	170.86
563.75	156.82
563.92	222.35
564.08	117.03
564.24	280.86
564.41	236.39
564.57	273.84
564.74	234.05
564.90	229.37
565.07	217.67
565.23	208.31
565.39	201.29
565.56	154.48
565.72	177.88
565.88	182.56
566.05	243.42
566.21	196.60
566.38	227.03
566.54	250.44
566.70	182.56
566.87	135.75
567.03	175.54
567.19	205.97
567.36	191.92
567.52	210.65
567.68	191.92
567.85	241.08
568.01	159.16
568.17	166.18
568.34	163.84
568.50	93.62
568.66	222.35
568.83	252.78
568.99	86.60
569.15	234.05
569.32	208.31
569.48	173.20
569.64	138.09
569.81	156.82
569.97	177.88
570.13	201.29
570.30	180.22
570.46	191.92
570.62	231.71
570.78	238.73
570.95	173.20
571.11	236.39
571.27	224.69
571.43	67.88
571.60	128.73
571.76	259.80
571.92	194.26
572.09	243.42
572.25	215.33
572.41	191.92
572.57	191.92
572.74	177.88
572.90	292.57
573.06	205.97
573.22	184.90
573.38	222.35
573.55	187.24
573.71	191.92
573.87	180.22
574.03	191.92
574.20	187.24
574.36	210.65
574.52	154.48
574.68	210.65
574.84	189.58
575.01	173.20
575.17	318.31
575.33	222.35
575.49	224.69
575.65	149.79
575.82	283.20
575.98	271.50
576.14	266.82
576.30	250.44
576.46	180.22
576.62	168.52
576.79	203.63
576.95	196.60
577.11	173.20
577.27	203.63
577.43	203.63
577.59	187.24
577.75	210.65
577.92	135.75
578.08	299.59
578.24	149.79
578.40	205.97
578.56	217.67
578.72	210.65
578.88	180.22
579.04	173.20
579.21	215.33
579.37	189.58
579.53	224.69
579.69	229.37
579.85	159.16
580.01	198.95
580.17	135.75
580.33	191.92
580.49	170.86
580.65	208.31
580.82	168.52
580.98	194.26
581.14	159.16
581.30	180.22
581.46	175.54
581.62	241.08
581.78	222.35
581.94	236.39
582.10	112.35
582.26	191.92
582.42	168.52
582.58	163.84
582.74	198.95
582.90	222.35
583.06	187.24
583.22	266.82
583.38	243.42
583.54	215.33
583.70	292.57
583.86	250.44
584.02	276.18
584.18	283.20
584.34	365.12
584.50	561.73
584.66	3255.69
584.82	7911.01
584.98	10981.79
585.14	9638.33
585.30	6050.28
585.46	3740.18
585.62	2370.96
585.78	1259.21
585.94	622.58
586.10	334.70
586.26	301.93
586.42	262.14
586.58	269.16
586.74	243.42
586.90	294.91
587.06	180.22
587.22	224.69
587.38	283.20
587.54	322.99
587.70	599.18
587.86	915.15
588.02	947.92
588.18	730.25
588.34	566.41
588.49	425.98
588.65	327.68
588.81	196.60
588.97	222.35
589.13	152.13
589.29	194.26
589.45	166.18
589.61	138.09
589.77	238.73
589.93	187.24
590.08	222.35
590.24	212.99
590.40	264.48
590.56	273.84
590.72	269.16
590.88	149.79
591.04	161.50
591.20	198.95
591.35	231.71
591.51	177.88
591.67	224.69
591.83	147.45
591.99	276.18
592.15	248.10
592.31	131.07
592.46	210.65
592.62	259.80
592.78	184.90
592.94	189.58
593.10	152.13
593.26	227.03
593.41	205.97
593.57	184.90
593.73	145.11
593.89	550.03
594.05	1100.05
594.20	1533.05
594.36	1519.01
594.52	1142.18
594.68	784.08
594.84	482.15
594.99	278.52
595.15	271.50
595.31	212.99
595.47	262.14
595.62	224.69
595.78	227.03
595.94	255.12
596.10	170.86
596.25	212.99
596.41	194.26
596.57	191.92
596.73	194.26
596.88	257.46
597.04	313.63
597.20	444.70
597.36	519.60
597.51	402.57
597.67	351.08
597.83	224.69
597.99	224.69
598.14	203.63
598.30	138.09
598.46	149.79
598.61	191.92
598.77	177.88
598.93	177.88
599.09	102.98
599.24	161.50
599.40	149.79
599.56	135.75
599.71	205.97
599.87	175.54
600.03	184.90
600.18	196.60
600.34	215.33
600.50	250.44
600.65	161.50
600.81	159.16
600.97	166.18
601.12	173.20
601.28	203.63
601.44	198.95
601.59	166.18
601.75	168.52
601.91	175.54
602.06	215.33
602.22	348.74
602.37	245.76
602.53	358.10
602.69	538.32
602.84	444.70
603.00	367.46
603.16	397.89
603.31	315.97
603.47	297.25
603.62	205.97
603.78	205.97
603.94	273.84
604.09	184.90
604.25	191.92
604.40	170.86
604.56	241.08
604.71	187.24
604.87	133.41
605.03	189.58
605.18	198.95
605.34	198.95
605.49	142.77
605.65	170.86
605.80	201.29
605.96	262.14
606.12	180.22
606.27	173.20
606.43	227.03
606.58	180.22
606.74	205.97
606.89	650.67
607.05	1081.33
607.20	1336.45
607.36	1207.72
607.51	795.78
607.67	514.92
607.82	421.30
607.98	334.70
608.13	332.36
608.29	191.92
608.44	248.10
608.60	208.31
608.75	313.63
608.91	339.38
609.06	915.15
609.22	1764.76
609.37	2157.97
609.53	1867.75
609.68	1418.36
609.84	945.58
609.99	554.71
610.15	404.91
610.30	320.65
610.46	283.20
610.61	294.91
610.76	166.18
610.92	194.26
611.07	177.88
611.23	243.42
611.38	184.90
611.54	128.73
611.69	187.24
611.84	152.13
612.00	198.95
612.15	194.26
612.31	220.01
612.46	236.39
612.62	198.95
612.77	269.16
612.92	278.52
613.08	238.73
613.23	271.50
613.39	234.05
613.54	271.50
613.69	896.43
613.85	2148.61
614.00	3145.68
614.15	3302.50
614.31	2450.54
614.46	1746.04
614.62	1174.95
614.77	758.33
614.92	433.00
615.08	262.14
615.23	236.39
615.38	196.60
615.54	145.11
615.69	299.59
615.84	547.69
616.00	877.70
616.15	1029.84
616.30	847.27
616.46	650.67
616.61	418.96
616.76	294.91
616.92	278.52
617.07	234.05
617.22	152.13
617.37	138.09
617.53	236.39
617.68	243.42
617.83	212.99
617.99	159.16
618.14	238.73
618.29	180.22
618.45	212.99
618.60	149.79
618.75	227.03
618.90	107.66
619.06	201.29
619.21	224.69
619.36	140.43
619.51	145.11
619.67	168.52
619.82	170.86
619.97	142.77
620.12	152.13
620.28	149.79
620.43	227.03
620.58	196.60
620.73	234.05
620.89	184.90
621.04	245.76
621.19	425.98
621.34	440.02
621.49	615.56
621.65	655.35
621.80	496.19
621.95	388.53
622.10	306.61
622.25	208.31
622.41	234.05
622.56	184.90
622.71	170.86
622.86	205.97
623.01	161.50
623.16	166.18
623.32	65.54
623.47	135.75
623.62	126.39
623.77	170.86
623.92	173.20
624.07	201.29
624.23	145.11
624.38	187.24
624.53	98.30
624.68	250.44
624.83	145.11
624.98	168.52
625.13	173.20
625.29	140.43
625.44	105.32
625.59	180.22
625.74	241.08
625.89	215.33
626.04	447.04
626.19	1158.57
626.34	1668.80
626.49	1827.96
626.65	1387.94
626.80	889.40
626.95	718.54
627.10	442.36
627.25	283.20
627.40	276.18
627.55	215.33
627.70	138.09
627.85	210.65
628.00	138.09
628.15	184.90
628.30	189.58
628.45	191.92
628.60	93.62
628.76	194.26
628.91	142.77
629.06	236.39
629.21	175.54
629.36	234.05
629.51	128.73
629.66	161.50
629.81	234.05
629.96	262.14
630.11	526.62
630.26	580.45
630.41	454.06
630.56	318.31
630.71	339.38
630.86	315.97
631.01	189.58
631.16	189.58
631.31	220.01
631.46	184.90
631.61	135.75
631.76	215.33
631.91	140.43
632.06	173.20
632.21	175.54
632.36	168.52
632.51	152.13
632.66	238.73
632.81	283.20
632.96	671.73
633.10	1097.71
633.25	1327.08
633.40	1093.03
633.55	786.42
633.70	608.54
633.85	418.96
634.00	287.89
634.15	177.88
634.30	131.07
634.45	264.48
634.60	175.54
634.75	147.45
634.90	245.76
635.05	147.45
635.19	102.98
635.34	138.09
635.49	147.45
635.64	112.35
635.79	184.90
635.94	110.01
636.09	161.50
636.24	243.42
636.39	196.60
636.53	229.37
636.68	105.32
636.83	91.28
636.98	114.69
637.13	133.41
637.28	166.18
637.43	194.26
637.57	234.05
637.72	674.07
637.87	1528.37
638.02	2155.63
638.17	2275.00
638.32	1682.85
638.46	1165.59
638.61	840.25
638.76	510.24
638.91	351.08
639.06	308.95
639.20	229.37
639.35	201.29
639.50	133.41
639.65	931.53
639.80	2155.63
639.94	3262.71
640.09	3431.23
640.24	2562.89
640.39	1792.85
640.54	1263.89
640.68	814.51
640.83	550.03
640.98	243.42
641.13	294.91
641.27	189.58
641.42	105.32
641.57	243.42
641.72	215.33
641.86	163.84
642.01	173.20
642.16	203.63
642.31	189.58
642.45	194.26
642.60	156.82
642.75	175.54
642.90	159.16
643.04	128.73
643.19	177.88
643.34	180.22
643.48	114.69
643.63	149.79
643.78	182.56
643.93	187.24
644.07	184.90
644.22	117.03
644.37	215.33
644.51	161.50
644.66	191.92
644.81	119.37
644.95	133.41
645.10	166.18
645.25	105.32
645.39	163.84
645.54	131.07
645.69	156.82
645.83	110.01
645.98	163.84
646.13	98.30
646.27	95.96
646.42	56.17
646.57	107.66
646.71	236.39
646.86	102.98
647.00	161.50
647.15	215.33
647.30	138.09
647.44	91.28
647.59	145.11
647.74	107.66
647.88	175.54
648.03	168.52
648.17	107.66
648.32	126.39
648.47	259.80
648.61	152.13
648.76	98.30
648.90	128.73
649.05	98.30
649.20	135.75
649.34	189.58
649.49	126.39
649.63	124.05
649.78	163.84
649.92	224.69
650.07	430.66
650.21	983.02
650.36	1605.61
650.51	1827.96
650.65	1629.01
650.80	1046.22
650.94	795.78
651.09	589.82
651.23	297.25
651.38	210.65
651.52	180.22
651.67	163.84
651.81	154.48
651.96	166.18
652.10	140.43
652.25	126.39
652.39	201.29
652.54	194.26
652.68	222.35
652.83	341.72
652.97	660.03
653.12	781.74
653.26	716.20
653.41	554.71
653.55	425.98
653.70	287.89
653.84	294.91
653.99	220.01
654.13	147.45
654.27	53.83
654.42	117.03
654.56	142.77
654.71	201.29
654.85	102.98
655.00	126.39
655.14	65.54
655.29	173.20
655.43	138.09
655.57	98.30
655.72	110.01
655.86	145.11
656.01	149.79
656.15	121.71
656.30	128.73
656.44	121.71
656.58	147.45
656.73	77.24
656.87	152.13
657.01	191.92
657.16	138.09
657.30	142.77
657.45	220.01
657.59	196.60
657.73	84.26
657.88	255.12
658.02	234.05
658.16	93.62
658.31	170.86
658.45	131.07
658.60	67.88
658.74	147.45
658.88	84.26
659.03	88.94
659.17	203.63
659.31	255.12
659.46	505.56
659.60	870.68
659.74	837.91
659.89	891.74
660.03	636.63
660.17	571.09
660.32	397.89
660.46	287.89
660.60	189.58
660.74	194.26
660.89	121.71
661.03	149.79
661.17	86.60
661.32	191.92
661.46	145.11
661.60	86.60
661.74	173.20
661.89	184.90
662.03	98.30
662.17	91.28
662.31	163.84
662.46	152.13
662.60	156.82
662.74	112.35
662.88	182.56
663.03	70.22
663.17	98.30
663.31	187.24
663.45	65.54
663.60	98.30
663.74	161.50
663.88	194.26
664.02	119.37
664.17	163.84
664.31	72.56
664.45	102.98
664.59	114.69
664.73	100.64
664.88	159.16
665.02	107.66
665.16	187.24
665.30	154.48
665.44	131.07
665.59	147.45
665.73	149.79
665.87	135.75
666.01	126.39
666.15	100.64
666.29	110.01
666.44	110.01
666.58	248.10
666.72	205.97
666.86	79.58
667.00	166.18
667.14	156.82
667.28	379.17
667.43	866.00
667.57	1366.87
667.71	1568.16
667.85	1420.71
667.99	1041.54
668.13	748.97
668.27	484.49
668.41	266.82
668.56	222.35
668.70	205.97
668.84	208.31
668.98	168.52
669.12	39.79
669.26	166.18
669.40	215.33
669.54	107.66
669.68	117.03
669.82	102.98
669.96	107.66
670.10	159.16
670.25	198.95
670.39	177.88
670.53	79.58
670.67	93.62
670.81	98.30
670.95	145.11
671.09	241.08
671.23	379.17
671.37	730.25
671.51	954.94
671.65	1048.56
671.79	912.81
671.93	573.43
672.07	442.36
672.21	369.80
672.35	252.78
672.49	173.20
672.63	217.67
672.77	198.95
672.91	163.84
673.05	133.41
673.19	114.69
673.33	119.37
673.47	154.48
673.61	159.16
673.75	119.37
673.89	161.50
674.03	35.11
674.17	86.60
674.31	100.64
674.45	173.20
674.59	147.45
674.73	126.39
674.87	196.60
675.01	173.20
675.15	131.07
675.29	189.58
675.43	201.29
675.56	215.33
675.70	112.35
675.84	161.50
675.98	126.39
676.12	140.43
676.26	142.77
676.40	145.11
676.54	119.37
676.68	147.45
676.82	175.54
676.96	117.03
677.10	65.54
677.23	166.18
677.37	63.19
677.51	173.20
677.65	182.56
677.79	149.79
677.93	117.03
678.07	110.01
678.21	117.03
678.34	149.79
678.48	58.51
678.62	205.97
678.76	140.43
678.90	133.41
679.04	110.01
679.18	126.39
679.31	145.11
679.45	112.35
679.59	138.09
679.73	147.45
679.87	56.17
680.00	56.17
680.14	128.73
680.28	102.98
680.42	140.43
680.56	128.73
680.70	121.71
680.83	194.26
680.97	119.37
681.11	98.30
681.25	105.32
681.39	187.24
681.52	145.11
681.66	102.98
681.80	128.73
681.94	189.58
682.07	138.09
682.21	107.66
682.35	128.73
682.49	191.92
682.62	163.84
682.76	65.54
682.90	140.43
683.04	114.69
683.17	173.20
683.31	117.03
683.45	198.95
683.59	126.39
683.72	100.64
683.86	107.66
684.00	128.73
684.13	187.24
684.27	110.01
684.41	182.56
684.55	180.22
684.68	170.86
684.82	93.62
684.96	91.28
685.09	126.39
685.23	86.60
685.37	110.01
685.50	215.33
685.64	138.09
685.78	121.71
685.91	152.13
686.05	154.48
686.19	107.66
686.32	100.64
686.46	147.45
686.60	42.13
686.73	124.05
686.87	128.73
687.01	107.66
687.14	110.01
687.28	56.17
687.42	105.32
687.55	95.96
687.69	201.29
687.82	124.05
687.96	117.03
688.10	133.41
688.23	117.03
688.37	77.24
688.50	187.24
688.64	159.16
688.78	51.49
688.91	112.35
689.05	21.06
689.18	131.07
689.32	110.01
689.46	91.28
689.59	126.39
689.73	107.66
689.86	35.11
690.00	67.88
690.13	49.15
690.27	98.30
690.41	88.94
690.54	84.26
690.68	72.56
690.81	42.13
690.95	149.79
691.08	154.48
691.22	51.49
691.35	135.75
691.49	166.18
691.62	81.92
691.76	86.60
691.89	81.92
692.03	124.05
692.16	86.60
692.30	145.11
692.43	149.79
692.57	421.30
692.70	641.31
692.84	704.50
692.97	660.03
693.11	456.40
693.24	344.06
693.38	325.33
693.51	276.18
693.65	175.54
693.78	177.88
693.92	159.16
694.05	81.92
694.19	126.39
694.32	121.71
694.45	60.85
694.59	131.07
694.72	124.05
694.86	128.73
694.99	170.86
695.13	98.30
695.26	124.05
695.39	133.41
695.53	145.11
695.66	152.13
695.80	168.52
695.93	140.43
696.07	128.73
696.20	138.09
696.33	117.03
696.47	170.86
696.60	184.90
696.73	131.07
696.87	93.62
697.00	112.35
697.14	131.07
697.27	102.98
697.40	163.84
697.54	117.03
697.67	93.62
697.80	161.50
697.94	175.54
698.07	117.03
698.21	95.96
698.34	142.77
698.47	72.56
698.61	135.75
698.74	91.28
698.87	72.56
699.01	63.19
699.14	93.62
699.27	39.79
699.40	149.79
699.54	121.71
699.67	37.45
699.80	114.69
699.94	102.98
700.07	140.43
700.20	88.94
700.34	93.62
700.47	124.05
700.60	114.69
700.73	147.45
700.87	119.37
701.00	67.88
701.13	149.79
701.26	212.99
701.40	93.62
701.53	135.75
701.66	140.43
701.79	159.16
701.93	201.29
702.06	88.94
702.19	159.16
702.32	262.14
702.46	175.54
702.59	161.50
702.72	236.39
702.85	564.07
702.99	896.43
703.12	1256.87
703.25	1423.05
703.38	1093.03
703.51	994.73
703.65	692.80
703.78	561.73
703.91	393.21
704.04	315.97
704.17	245.76
704.31	205.97
704.44	166.18
704.57	105.32
704.70	147.45
704.83	121.71
704.96	107.66
705.10	79.58
705.23	107.66
>>>>>End Processed Spectral Data<<<<<
