SpectraSuite Data File
++++++++++++++++++++++++++++++++++++
Date: Fri Oct 04 11:47:09 GMT-05:00 2013
User: price-jones
Dark Spectrum Present: No
Reference Spectrum Present: No
Number of Sampled Component Spectra: 1
Spectrometers: USB2+H05261
Integration Time (usec): 100000 (USB2+H05261)
Spectra Averaged: 1 (USB2+H05261)
Boxcar Smoothing: 0 (USB2+H05261)
Correct for Electrical Dark: No (USB2+H05261)
Strobe/Lamp Enabled: No (USB2+H05261)
Correct for Detector Non-linearity: No (USB2+H05261)
Correct for Stray Light: No (USB2+H05261)
Number of Pixels in Processed Spectrum: 2048
>>>>>Begin Processed Spectral Data<<<<<
365.73	37.45
365.92	37.45
366.12	37.45
366.32	0.00
366.52	0.00
366.72	0.00
366.91	0.00
367.11	0.00
367.31	0.00
367.51	0.00
367.70	0.00
367.90	0.00
368.10	0.00
368.30	0.00
368.49	0.00
368.69	0.00
368.89	0.00
369.09	0.00
369.28	0.00
369.48	7.02
369.68	0.00
369.87	0.00
370.07	0.00
370.27	0.00
370.47	0.00
370.66	0.00
370.86	16.38
371.06	25.75
371.25	18.72
371.45	63.19
371.65	91.28
371.84	7.02
372.04	21.06
372.24	30.43
372.44	133.41
372.63	39.79
372.83	133.41
373.03	100.64
373.22	49.15
373.42	72.56
373.62	63.19
373.81	84.26
374.01	170.86
374.21	140.43
374.40	65.54
374.60	107.66
374.79	84.26
374.99	105.32
375.19	131.07
375.38	121.71
375.58	91.28
375.78	102.98
375.97	154.48
376.17	156.82
376.37	65.54
376.56	65.54
376.76	53.83
376.95	88.94
377.15	95.96
377.35	124.05
377.54	119.37
377.74	124.05
377.93	107.66
378.13	88.94
378.33	39.79
378.52	88.94
378.72	159.16
378.91	105.32
379.11	46.81
379.31	84.26
379.50	124.05
379.70	100.64
379.89	74.90
380.09	72.56
380.28	0.00
380.48	81.92
380.68	37.45
380.87	156.82
381.07	105.32
381.26	110.01
381.46	74.90
381.65	119.37
381.85	100.64
382.04	126.39
382.24	70.22
382.43	133.41
382.63	114.69
382.83	74.90
383.02	121.71
383.22	60.85
383.41	105.32
383.61	98.30
383.80	32.77
384.00	63.19
384.19	126.39
384.39	145.11
384.58	107.66
384.78	149.79
384.97	114.69
385.17	140.43
385.36	81.92
385.56	84.26
385.75	135.75
385.95	84.26
386.14	72.56
386.34	44.47
386.53	105.32
386.72	74.90
386.92	131.07
387.11	74.90
387.31	86.60
387.50	58.51
387.70	124.05
387.89	0.00
388.09	44.47
388.28	114.69
388.48	98.30
388.67	84.26
388.86	81.92
389.06	119.37
389.25	126.39
389.45	133.41
389.64	112.35
389.84	105.32
390.03	30.43
390.22	67.88
390.42	114.69
390.61	42.13
390.81	133.41
391.00	117.03
391.19	91.28
391.39	2.34
391.58	93.62
391.78	56.17
391.97	0.00
392.16	79.58
392.36	117.03
392.55	121.71
392.75	142.77
392.94	117.03
393.13	154.48
393.33	79.58
393.52	30.43
393.71	166.18
393.91	112.35
394.10	35.11
394.29	107.66
394.49	42.13
394.68	42.13
394.88	114.69
395.07	88.94
395.26	44.47
395.46	86.60
395.65	112.35
395.84	107.66
396.04	154.48
396.23	74.90
396.42	142.77
396.62	77.24
396.81	95.96
397.00	142.77
397.19	58.51
397.39	88.94
397.58	114.69
397.77	133.41
397.97	28.09
398.16	95.96
398.35	156.82
398.55	74.90
398.74	84.26
398.93	173.20
399.12	140.43
399.32	159.16
399.51	121.71
399.70	131.07
399.90	65.54
400.09	44.47
400.28	208.31
400.47	58.51
400.67	28.09
400.86	110.01
401.05	102.98
401.24	95.96
401.44	72.56
401.63	182.56
401.82	67.88
402.01	58.51
402.21	98.30
402.40	102.98
402.59	46.81
402.78	110.01
402.97	88.94
403.17	51.49
403.36	25.75
403.55	110.01
403.74	95.96
403.93	79.58
404.13	166.18
404.32	44.47
404.51	60.85
404.70	119.37
404.89	53.83
405.09	100.64
405.28	198.95
405.47	91.28
405.66	86.60
405.85	124.05
406.05	91.28
406.24	74.90
406.43	147.45
406.62	117.03
406.81	159.16
407.00	112.35
407.20	93.62
407.39	84.26
407.58	37.45
407.77	117.03
407.96	117.03
408.15	84.26
408.34	124.05
408.54	84.26
408.73	145.11
408.92	133.41
409.11	70.22
409.30	142.77
409.49	100.64
409.68	121.71
409.87	93.62
410.07	128.73
410.26	84.26
410.45	37.45
410.64	154.48
410.83	25.75
411.02	107.66
411.21	102.98
411.40	119.37
411.59	175.54
411.78	117.03
411.98	32.77
412.17	131.07
412.36	142.77
412.55	128.73
412.74	163.84
412.93	175.54
413.12	67.88
413.31	117.03
413.50	88.94
413.69	100.64
413.88	140.43
414.07	79.58
414.26	107.66
414.45	110.01
414.64	114.69
414.83	44.47
415.02	140.43
415.22	124.05
415.41	119.37
415.60	161.50
415.79	84.26
415.98	149.79
416.17	154.48
416.36	161.50
416.55	112.35
416.74	86.60
416.93	91.28
417.12	67.88
417.31	114.69
417.50	154.48
417.69	107.66
417.88	60.85
418.07	79.58
418.26	131.07
418.45	79.58
418.64	117.03
418.83	93.62
419.02	147.45
419.21	117.03
419.39	49.15
419.58	98.30
419.77	67.88
419.96	93.62
420.15	77.24
420.34	100.64
420.53	105.32
420.72	79.58
420.91	100.64
421.10	124.05
421.29	163.84
421.48	156.82
421.67	81.92
421.86	63.19
422.05	149.79
422.24	142.77
422.43	84.26
422.61	65.54
422.80	128.73
422.99	121.71
423.18	56.17
423.37	35.11
423.56	159.16
423.75	224.69
423.94	154.48
424.13	138.09
424.32	95.96
424.50	84.26
424.69	70.22
424.88	91.28
425.07	95.96
425.26	152.13
425.45	28.09
425.64	81.92
425.83	131.07
426.01	154.48
426.20	156.82
426.39	121.71
426.58	140.43
426.77	149.79
426.96	184.90
427.15	107.66
427.33	102.98
427.52	142.77
427.71	142.77
427.90	81.92
428.09	88.94
428.28	107.66
428.46	86.60
428.65	86.60
428.84	56.17
429.03	140.43
429.22	67.88
429.40	70.22
429.59	95.96
429.78	102.98
429.97	98.30
430.16	67.88
430.34	173.20
430.53	91.28
430.72	140.43
430.91	145.11
431.10	81.92
431.28	138.09
431.47	201.29
431.66	100.64
431.85	131.07
432.03	88.94
432.22	140.43
432.41	142.77
432.60	140.43
432.79	98.30
432.97	149.79
433.16	60.85
433.35	100.64
433.54	63.19
433.72	133.41
433.91	56.17
434.10	56.17
434.28	175.54
434.47	177.88
434.66	184.90
434.85	147.45
435.03	131.07
435.22	131.07
435.41	154.48
435.59	112.35
435.78	149.79
435.97	95.96
436.16	81.92
436.34	105.32
436.53	107.66
436.72	180.22
436.90	180.22
437.09	37.45
437.28	248.10
437.46	105.32
437.65	124.05
437.84	189.58
438.02	163.84
438.21	168.52
438.40	79.58
438.58	147.45
438.77	74.90
438.96	180.22
439.14	46.81
439.33	77.24
439.52	121.71
439.70	86.60
439.89	112.35
440.08	149.79
440.26	170.86
440.45	121.71
440.63	147.45
440.82	112.35
441.01	142.77
441.19	119.37
441.38	112.35
441.57	88.94
441.75	196.60
441.94	161.50
442.12	58.51
442.31	117.03
442.50	189.58
442.68	135.75
442.87	149.79
443.05	110.01
443.24	159.16
443.43	170.86
443.61	163.84
443.80	112.35
443.98	140.43
444.17	110.01
444.35	114.69
444.54	86.60
444.73	184.90
444.91	159.16
445.10	124.05
445.28	138.09
445.47	124.05
445.65	163.84
445.84	140.43
446.02	117.03
446.21	95.96
446.39	63.19
446.58	196.60
446.77	131.07
446.95	166.18
447.14	138.09
447.32	191.92
447.51	138.09
447.69	98.30
447.88	147.45
448.06	161.50
448.25	135.75
448.43	65.54
448.62	110.01
448.80	107.66
448.99	191.92
449.17	56.17
449.36	102.98
449.54	110.01
449.73	110.01
449.91	105.32
450.10	180.22
450.28	175.54
450.46	98.30
450.65	191.92
450.83	227.03
451.02	138.09
451.20	152.13
451.39	67.88
451.57	145.11
451.76	81.92
451.94	170.86
452.13	105.32
452.31	215.33
452.49	135.75
452.68	60.85
452.86	98.30
453.05	175.54
453.23	170.86
453.42	145.11
453.60	147.45
453.78	163.84
453.97	95.96
454.15	140.43
454.34	35.11
454.52	105.32
454.70	177.88
454.89	91.28
455.07	84.26
455.26	93.62
455.44	168.52
455.62	105.32
455.81	154.48
455.99	98.30
456.17	180.22
456.36	58.51
456.54	102.98
456.73	154.48
456.91	175.54
457.09	152.13
457.28	208.31
457.46	149.79
457.64	198.95
457.83	112.35
458.01	119.37
458.19	140.43
458.38	86.60
458.56	142.77
458.74	72.56
458.93	124.05
459.11	149.79
459.29	98.30
459.48	152.13
459.66	161.50
459.84	86.60
460.03	182.56
460.21	205.97
460.39	117.03
460.57	231.71
460.76	133.41
460.94	131.07
461.12	138.09
461.31	180.22
461.49	81.92
461.67	117.03
461.85	156.82
462.04	95.96
462.22	561.73
462.40	126.39
462.59	201.29
462.77	138.09
462.95	156.82
463.13	135.75
463.32	138.09
463.50	140.43
463.68	131.07
463.86	152.13
464.05	110.01
464.23	145.11
464.41	140.43
464.59	163.84
464.78	149.79
464.96	95.96
465.14	177.88
465.32	142.77
465.50	142.77
465.69	121.71
465.87	121.71
466.05	212.99
466.23	173.20
466.41	208.31
466.60	105.32
466.78	105.32
466.96	145.11
467.14	86.60
467.32	163.84
467.51	182.56
467.69	93.62
467.87	231.71
468.05	133.41
468.23	138.09
468.41	173.20
468.60	175.54
468.78	77.24
468.96	121.71
469.14	102.98
469.32	91.28
469.50	121.71
469.69	140.43
469.87	138.09
470.05	93.62
470.23	131.07
470.41	154.48
470.59	131.07
470.77	93.62
470.95	198.95
471.14	229.37
471.32	166.18
471.50	184.90
471.68	184.90
471.86	212.99
472.04	168.52
472.22	156.82
472.40	60.85
472.58	121.71
472.77	79.58
472.95	145.11
473.13	220.01
473.31	138.09
473.49	119.37
473.67	135.75
473.85	95.96
474.03	212.99
474.21	163.84
474.39	100.64
474.57	224.69
474.75	163.84
474.93	168.52
475.12	138.09
475.30	133.41
475.48	205.97
475.66	194.26
475.84	152.13
476.02	173.20
476.20	170.86
476.38	110.01
476.56	161.50
476.74	161.50
476.92	152.13
477.10	198.95
477.28	187.24
477.46	175.54
477.64	140.43
477.82	126.39
478.00	173.20
478.18	105.32
478.36	126.39
478.54	65.54
478.72	93.62
478.90	135.75
479.08	173.20
479.26	196.60
479.44	121.71
479.62	145.11
479.80	154.48
479.98	168.52
480.16	133.41
480.34	189.58
480.52	159.16
480.70	152.13
480.88	124.05
481.06	126.39
481.24	86.60
481.41	163.84
481.59	154.48
481.77	145.11
481.95	58.51
482.13	224.69
482.31	168.52
482.49	152.13
482.67	133.41
482.85	201.29
483.03	133.41
483.21	128.73
483.39	91.28
483.57	173.20
483.74	217.67
483.92	110.01
484.10	95.96
484.28	133.41
484.46	201.29
484.64	194.26
484.82	105.32
485.00	149.79
485.18	196.60
485.35	152.13
485.53	175.54
485.71	189.58
485.89	161.50
486.07	138.09
486.25	187.24
486.43	184.90
486.61	126.39
486.78	170.86
486.96	138.09
487.14	117.03
487.32	189.58
487.50	154.48
487.68	180.22
487.85	128.73
488.03	177.88
488.21	217.67
488.39	121.71
488.57	201.29
488.75	149.79
488.92	409.59
489.10	166.18
489.28	215.33
489.46	152.13
489.64	184.90
489.81	159.16
489.99	201.29
490.17	102.98
490.35	245.76
490.53	170.86
490.70	168.52
490.88	201.29
491.06	154.48
491.24	147.45
491.41	135.75
491.59	168.52
491.77	91.28
491.95	203.63
492.13	180.22
492.30	128.73
492.48	117.03
492.66	163.84
492.84	105.32
493.01	163.84
493.19	191.92
493.37	156.82
493.54	180.22
493.72	86.60
493.90	131.07
494.08	126.39
494.25	142.77
494.43	161.50
494.61	163.84
494.79	264.48
494.96	138.09
495.14	175.54
495.32	182.56
495.49	203.63
495.67	124.05
495.85	147.45
496.02	241.08
496.20	212.99
496.38	198.95
496.55	203.63
496.73	184.90
496.91	149.79
497.09	201.29
497.26	152.13
497.44	107.66
497.62	182.56
497.79	215.33
497.97	208.31
498.14	187.24
498.32	149.79
498.50	173.20
498.67	110.01
498.85	217.67
499.03	159.16
499.20	145.11
499.38	135.75
499.56	145.11
499.73	262.14
499.91	201.29
500.08	245.76
500.26	184.90
500.44	191.92
500.61	201.29
500.79	170.86
500.97	182.56
501.14	126.39
501.32	191.92
501.49	166.18
501.67	187.24
501.84	107.66
502.02	252.78
502.20	262.14
502.37	255.12
502.55	166.18
502.72	175.54
502.90	189.58
503.07	205.97
503.25	128.73
503.43	203.63
503.60	182.56
503.78	220.01
503.95	95.96
504.13	154.48
504.30	156.82
504.48	248.10
504.65	229.37
504.83	187.24
505.01	168.52
505.18	215.33
505.36	273.84
505.53	180.22
505.71	208.31
505.88	245.76
506.06	177.88
506.23	182.56
506.41	182.56
506.58	264.48
506.76	194.26
506.93	159.16
507.11	168.52
507.28	128.73
507.46	208.31
507.63	201.29
507.81	196.60
507.98	147.45
508.16	156.82
508.33	175.54
508.50	142.77
508.68	236.39
508.85	187.24
509.03	149.79
509.20	170.86
509.38	191.92
509.55	159.16
509.73	142.77
509.90	217.67
510.08	119.37
510.25	184.90
510.42	91.28
510.60	159.16
510.77	182.56
510.95	194.26
511.12	212.99
511.30	177.88
511.47	191.92
511.64	203.63
511.82	152.13
511.99	220.01
512.17	210.65
512.34	196.60
512.51	191.92
512.69	161.50
512.86	212.99
513.04	189.58
513.21	191.92
513.38	175.54
513.56	238.73
513.73	191.92
513.90	173.20
514.08	201.29
514.25	147.45
514.43	224.69
514.60	201.29
514.77	182.56
514.95	170.86
515.12	191.92
515.29	182.56
515.47	229.37
515.64	142.77
515.81	238.73
515.99	191.92
516.16	201.29
516.33	231.71
516.51	194.26
516.68	163.84
516.85	131.07
517.03	145.11
517.20	241.08
517.37	184.90
517.54	121.71
517.72	175.54
517.89	121.71
518.06	112.35
518.24	194.26
518.41	180.22
518.58	229.37
518.75	102.98
518.93	180.22
519.10	173.20
519.27	182.56
519.45	241.08
519.62	229.37
519.79	229.37
519.96	184.90
520.14	224.69
520.31	229.37
520.48	107.66
520.65	166.18
520.83	220.01
521.00	198.95
521.17	203.63
521.34	266.82
521.52	182.56
521.69	161.50
521.86	234.05
522.03	271.50
522.20	159.16
522.38	140.43
522.55	250.44
522.72	133.41
522.89	117.03
523.07	208.31
523.24	194.26
523.41	215.33
523.58	180.22
523.75	203.63
523.92	201.29
524.10	250.44
524.27	156.82
524.44	149.79
524.61	297.25
524.78	114.69
524.96	149.79
525.13	273.84
525.30	269.16
525.47	217.67
525.64	227.03
525.81	163.84
525.98	182.56
526.16	124.05
526.33	166.18
526.50	180.22
526.67	205.97
526.84	170.86
527.01	149.79
527.18	138.09
527.36	203.63
527.53	159.16
527.70	175.54
527.87	133.41
528.04	252.78
528.21	191.92
528.38	259.80
528.55	163.84
528.72	189.58
528.89	168.52
529.07	283.20
529.24	189.58
529.41	222.35
529.58	243.42
529.75	177.88
529.92	177.88
530.09	259.80
530.26	224.69
530.43	234.05
530.60	170.86
530.77	187.24
530.94	175.54
531.11	201.29
531.28	222.35
531.46	184.90
531.63	208.31
531.80	241.08
531.97	259.80
532.14	145.11
532.31	234.05
532.48	220.01
532.65	215.33
532.82	212.99
532.99	198.95
533.16	173.20
533.33	191.92
533.50	121.71
533.67	138.09
533.84	241.08
534.01	184.90
534.18	191.92
534.35	212.99
534.52	208.31
534.69	287.89
534.86	191.92
535.03	220.01
535.20	168.52
535.37	163.84
535.54	222.35
535.71	205.97
535.88	212.99
536.05	149.79
536.22	189.58
536.38	166.18
536.55	189.58
536.72	250.44
536.89	215.33
537.06	220.01
537.23	196.60
537.40	236.39
537.57	266.82
537.74	227.03
537.91	252.78
538.08	238.73
538.25	215.33
538.42	175.54
538.59	184.90
538.75	175.54
538.92	236.39
539.09	229.37
539.26	131.07
539.43	224.69
539.60	262.14
539.77	170.86
539.94	222.35
540.11	220.01
540.28	280.86
540.44	187.24
540.61	215.33
540.78	198.95
540.95	217.67
541.12	229.37
541.29	220.01
541.46	271.50
541.62	191.92
541.79	126.39
541.96	149.79
542.13	154.48
542.30	248.10
542.47	271.50
542.63	166.18
542.80	175.54
542.97	175.54
543.14	187.24
543.31	220.01
543.48	257.46
543.64	215.33
543.81	238.73
543.98	187.24
544.15	189.58
544.32	222.35
544.48	180.22
544.65	140.43
544.82	135.75
544.99	175.54
545.16	182.56
545.32	149.79
545.49	231.71
545.66	205.97
545.83	182.56
546.00	112.35
546.16	257.46
546.33	259.80
546.50	238.73
546.67	208.31
546.83	280.86
547.00	220.01
547.17	212.99
547.34	182.56
547.50	203.63
547.67	177.88
547.84	163.84
548.00	257.46
548.17	250.44
548.34	205.97
548.51	201.29
548.67	189.58
548.84	170.86
549.01	292.57
549.18	168.52
549.34	229.37
549.51	205.97
549.68	224.69
549.84	222.35
550.01	241.08
550.18	297.25
550.34	271.50
550.51	102.98
550.68	259.80
550.84	236.39
551.01	212.99
551.18	255.12
551.34	175.54
551.51	191.92
551.68	198.95
551.84	147.45
552.01	220.01
552.18	238.73
552.34	121.71
552.51	215.33
552.68	229.37
552.84	156.82
553.01	236.39
553.18	217.67
553.34	224.69
553.51	161.50
553.67	170.86
553.84	262.14
554.01	184.90
554.17	266.82
554.34	142.77
554.51	243.42
554.67	224.69
554.84	252.78
555.00	156.82
555.17	180.22
555.33	126.39
555.50	198.95
555.67	194.26
555.83	189.58
556.00	236.39
556.16	334.70
556.33	189.58
556.50	227.03
556.66	227.03
556.83	252.78
556.99	252.78
557.16	184.90
557.32	266.82
557.49	145.11
557.65	191.92
557.82	177.88
557.98	201.29
558.15	170.86
558.32	205.97
558.48	210.65
558.65	198.95
558.81	222.35
558.98	121.71
559.14	147.45
559.31	173.20
559.47	187.24
559.64	152.13
559.80	203.63
559.97	170.86
560.13	182.56
560.30	189.58
560.46	189.58
560.63	156.82
560.79	220.01
560.96	196.60
561.12	140.43
561.29	217.67
561.45	175.54
561.61	243.42
561.78	250.44
561.94	231.71
562.11	154.48
562.27	241.08
562.44	175.54
562.60	187.24
562.77	128.73
562.93	332.36
563.10	154.48
563.26	175.54
563.42	236.39
563.59	198.95
563.75	184.90
563.92	126.39
564.08	182.56
564.24	222.35
564.41	250.44
564.57	191.92
564.74	182.56
564.90	269.16
565.07	212.99
565.23	149.79
565.39	201.29
565.56	210.65
565.72	138.09
565.88	173.20
566.05	149.79
566.21	262.14
566.38	248.10
566.54	250.44
566.70	147.45
566.87	168.52
567.03	224.69
567.19	252.78
567.36	149.79
567.52	152.13
567.68	161.50
567.85	163.84
568.01	180.22
568.17	159.16
568.34	234.05
568.50	154.48
568.66	173.20
568.83	245.76
568.99	231.71
569.15	259.80
569.32	159.16
569.48	168.52
569.64	187.24
569.81	203.63
569.97	191.92
570.13	231.71
570.30	163.84
570.46	145.11
570.62	203.63
570.78	201.29
570.95	140.43
571.11	217.67
571.27	217.67
571.43	203.63
571.60	145.11
571.76	166.18
571.92	191.92
572.09	126.39
572.25	149.79
572.41	156.82
572.57	180.22
572.74	252.78
572.90	227.03
573.06	212.99
573.22	198.95
573.38	220.01
573.55	255.12
573.71	182.56
573.87	224.69
574.03	201.29
574.20	224.69
574.36	238.73
574.52	187.24
574.68	189.58
574.84	205.97
575.01	121.71
575.17	161.50
575.33	241.08
575.49	210.65
575.65	194.26
575.82	168.52
575.98	238.73
576.14	217.67
576.30	182.56
576.46	217.67
576.62	212.99
576.79	142.77
576.95	208.31
577.11	128.73
577.27	184.90
577.43	212.99
577.59	248.10
577.75	182.56
577.92	203.63
578.08	212.99
578.24	98.30
578.40	215.33
578.56	203.63
578.72	210.65
578.88	170.86
579.04	184.90
579.21	180.22
579.37	210.65
579.53	135.75
579.69	187.24
579.85	205.97
580.01	159.16
580.17	149.79
580.33	93.62
580.49	145.11
580.65	173.20
580.82	88.94
580.98	154.48
581.14	238.73
581.30	201.29
581.46	117.03
581.62	231.71
581.78	236.39
581.94	212.99
582.10	131.07
582.26	154.48
582.42	236.39
582.58	147.45
582.74	161.50
582.90	163.84
583.06	133.41
583.22	212.99
583.38	173.20
583.54	163.84
583.70	245.76
583.86	245.76
584.02	124.05
584.18	280.86
584.34	196.60
584.50	133.41
584.66	180.22
584.82	88.94
584.98	177.88
585.14	196.60
585.30	259.80
585.46	287.89
585.62	121.71
585.78	126.39
585.94	243.42
586.10	238.73
586.26	182.56
586.42	187.24
586.58	201.29
586.74	194.26
586.90	191.92
587.06	145.11
587.22	168.52
587.38	184.90
587.54	187.24
587.70	241.08
587.86	182.56
588.02	196.60
588.18	191.92
588.34	182.56
588.49	126.39
588.65	208.31
588.81	203.63
588.97	81.92
589.13	133.41
589.29	149.79
589.45	201.29
589.61	166.18
589.77	177.88
589.93	154.48
590.08	220.01
590.24	222.35
590.40	102.98
590.56	135.75
590.72	152.13
590.88	166.18
591.04	194.26
591.20	159.16
591.35	262.14
591.51	149.79
591.67	114.69
591.83	84.26
591.99	166.18
592.15	191.92
592.31	212.99
592.46	98.30
592.62	159.16
592.78	117.03
592.94	119.37
593.10	191.92
593.26	105.32
593.41	203.63
593.57	102.98
593.73	140.43
593.89	131.07
594.05	138.09
594.20	187.24
594.36	243.42
594.52	138.09
594.68	166.18
594.84	177.88
594.99	196.60
595.15	180.22
595.31	201.29
595.47	189.58
595.62	196.60
595.78	215.33
595.94	147.45
596.10	149.79
596.25	98.30
596.41	203.63
596.57	175.54
596.73	191.92
596.88	245.76
597.04	248.10
597.20	138.09
597.36	175.54
597.51	95.96
597.67	154.48
597.83	159.16
597.99	191.92
598.14	187.24
598.30	170.86
598.46	189.58
598.61	238.73
598.77	128.73
598.93	98.30
599.09	189.58
599.24	205.97
599.40	287.89
599.56	201.29
599.71	138.09
599.87	173.20
600.03	170.86
600.18	156.82
600.34	203.63
600.50	133.41
600.65	133.41
600.81	203.63
600.97	102.98
601.12	166.18
601.28	238.73
601.44	215.33
601.59	198.95
601.75	184.90
601.91	147.45
602.06	135.75
602.22	175.54
602.37	145.11
602.53	252.78
602.69	259.80
602.84	166.18
603.00	212.99
603.16	217.67
603.31	142.77
603.47	217.67
603.62	140.43
603.78	131.07
603.94	215.33
604.09	170.86
604.25	210.65
604.40	220.01
604.56	173.20
604.71	170.86
604.87	170.86
605.03	156.82
605.18	187.24
605.34	264.48
605.49	201.29
605.65	187.24
605.80	198.95
605.96	198.95
606.12	140.43
606.27	128.73
606.43	145.11
606.58	170.86
606.74	217.67
606.89	205.97
607.05	255.12
607.20	149.79
607.36	154.48
607.51	149.79
607.67	156.82
607.82	201.29
607.98	149.79
608.13	121.71
608.29	131.07
608.44	147.45
608.60	234.05
608.75	175.54
608.91	170.86
609.06	187.24
609.22	201.29
609.37	119.37
609.53	154.48
609.68	189.58
609.84	205.97
609.99	194.26
610.15	177.88
610.30	159.16
610.46	161.50
610.61	184.90
610.76	154.48
610.92	222.35
611.07	152.13
611.23	269.16
611.38	231.71
611.54	166.18
611.69	198.95
611.84	180.22
612.00	138.09
612.15	149.79
612.31	133.41
612.46	138.09
612.62	128.73
612.77	177.88
612.92	131.07
613.08	243.42
613.23	166.18
613.39	191.92
613.54	177.88
613.69	117.03
613.85	140.43
614.00	140.43
614.15	175.54
614.31	250.44
614.46	126.39
614.62	191.92
614.77	191.92
614.92	152.13
615.08	135.75
615.23	147.45
615.38	117.03
615.54	198.95
615.69	100.64
615.84	95.96
616.00	191.92
616.15	163.84
616.30	159.16
616.46	227.03
616.61	217.67
616.76	196.60
616.92	81.92
617.07	135.75
617.22	37.45
617.37	182.56
617.53	135.75
617.68	77.24
617.83	168.52
617.99	196.60
618.14	208.31
618.29	138.09
618.45	168.52
618.60	194.26
618.75	177.88
618.90	147.45
619.06	152.13
619.21	180.22
619.36	126.39
619.51	93.62
619.67	264.48
619.82	166.18
619.97	238.73
620.12	187.24
620.28	175.54
620.43	163.84
620.58	170.86
620.73	189.58
620.89	128.73
621.04	138.09
621.19	177.88
621.34	135.75
621.49	154.48
621.65	180.22
621.80	119.37
621.95	184.90
622.10	177.88
622.25	182.56
622.41	163.84
622.56	227.03
622.71	166.18
622.86	180.22
623.01	152.13
623.16	224.69
623.32	187.24
623.47	149.79
623.62	145.11
623.77	187.24
623.92	231.71
624.07	182.56
624.23	63.19
624.38	177.88
624.53	135.75
624.68	189.58
624.83	234.05
624.98	177.88
625.13	119.37
625.29	161.50
625.44	196.60
625.59	194.26
625.74	124.05
625.89	156.82
626.04	119.37
626.19	152.13
626.34	205.97
626.49	173.20
626.65	175.54
626.80	114.69
626.95	252.78
627.10	161.50
627.25	147.45
627.40	124.05
627.55	168.52
627.70	131.07
627.85	140.43
628.00	126.39
628.15	72.56
628.30	184.90
628.45	110.01
628.60	189.58
628.76	180.22
628.91	91.28
629.06	166.18
629.21	142.77
629.36	170.86
629.51	93.62
629.66	149.79
629.81	243.42
629.96	177.88
630.11	173.20
630.26	145.11
630.41	105.32
630.56	110.01
630.71	88.94
630.86	156.82
631.01	121.71
631.16	124.05
631.31	220.01
631.46	142.77
631.61	140.43
631.76	212.99
631.91	154.48
632.06	208.31
632.21	231.71
632.36	191.92
632.51	112.35
632.66	147.45
632.81	138.09
632.96	194.26
633.10	189.58
633.25	149.79
633.40	177.88
633.55	159.16
633.70	173.20
633.85	107.66
634.00	135.75
634.15	72.56
634.30	168.52
634.45	100.64
634.60	187.24
634.75	184.90
634.90	177.88
635.05	102.98
635.19	107.66
635.34	131.07
635.49	117.03
635.64	177.88
635.79	67.88
635.94	170.86
636.09	187.24
636.24	154.48
636.39	241.08
636.53	210.65
636.68	126.39
636.83	124.05
636.98	142.77
637.13	149.79
637.28	112.35
637.43	166.18
637.57	173.20
637.72	114.69
637.87	100.64
638.02	79.58
638.17	100.64
638.32	142.77
638.46	88.94
638.61	215.33
638.76	105.32
638.91	168.52
639.06	180.22
639.20	156.82
639.35	170.86
639.50	194.26
639.65	205.97
639.80	124.05
639.94	259.80
640.09	175.54
640.24	180.22
640.39	175.54
640.54	121.71
640.68	159.16
640.83	227.03
640.98	135.75
641.13	74.90
641.27	119.37
641.42	161.50
641.57	205.97
641.72	161.50
641.86	128.73
642.01	70.22
642.16	128.73
642.31	152.13
642.45	194.26
642.60	142.77
642.75	156.82
642.90	205.97
643.04	117.03
643.19	173.20
643.34	93.62
643.48	168.52
643.63	187.24
643.78	187.24
643.93	198.95
644.07	105.32
644.22	201.29
644.37	88.94
644.51	133.41
644.66	175.54
644.81	201.29
644.95	222.35
645.10	128.73
645.25	95.96
645.39	182.56
645.54	133.41
645.69	170.86
645.83	110.01
645.98	229.37
646.13	74.90
646.27	117.03
646.42	121.71
646.57	60.85
646.71	142.77
646.86	231.71
647.00	114.69
647.15	145.11
647.30	65.54
647.44	147.45
647.59	105.32
647.74	121.71
647.88	159.16
648.03	173.20
648.17	194.26
648.32	42.13
648.47	126.39
648.61	175.54
648.76	102.98
648.90	112.35
649.05	121.71
649.20	86.60
649.34	117.03
649.49	161.50
649.63	58.51
649.78	114.69
649.92	161.50
650.07	175.54
650.21	105.32
650.36	170.86
650.51	166.18
650.65	196.60
650.80	168.52
650.94	119.37
651.09	49.15
651.23	91.28
651.38	205.97
651.52	168.52
651.67	126.39
651.81	191.92
651.96	191.92
652.10	255.12
652.25	133.41
652.39	166.18
652.54	131.07
652.68	135.75
652.83	168.52
652.97	156.82
653.12	147.45
653.26	187.24
653.41	227.03
653.55	163.84
653.70	161.50
653.84	105.32
653.99	107.66
654.13	189.58
654.27	149.79
654.42	135.75
654.56	63.19
654.71	142.77
654.85	124.05
655.00	81.92
655.14	140.43
655.29	128.73
655.43	32.77
655.57	86.60
655.72	145.11
655.86	77.24
656.01	131.07
656.15	112.35
656.30	205.97
656.44	182.56
656.58	170.86
656.73	154.48
656.87	177.88
657.01	145.11
657.16	198.95
657.30	175.54
657.45	163.84
657.59	231.71
657.73	126.39
657.88	175.54
658.02	273.84
658.16	112.35
658.31	154.48
658.45	131.07
658.60	105.32
658.74	182.56
658.88	138.09
659.03	91.28
659.17	105.32
659.31	166.18
659.46	145.11
659.60	147.45
659.74	145.11
659.89	156.82
660.03	107.66
660.17	220.01
660.32	184.90
660.46	168.52
660.60	168.52
660.74	191.92
660.89	105.32
661.03	124.05
661.17	126.39
661.32	156.82
661.46	140.43
661.60	147.45
661.74	215.33
661.89	161.50
662.03	140.43
662.17	126.39
662.31	145.11
662.46	152.13
662.60	126.39
662.74	74.90
662.88	81.92
663.03	173.20
663.17	72.56
663.31	161.50
663.45	72.56
663.60	67.88
663.74	91.28
663.88	145.11
664.02	105.32
664.17	77.24
664.31	102.98
664.45	173.20
664.59	166.18
664.73	114.69
664.88	203.63
665.02	117.03
665.16	163.84
665.30	166.18
665.44	159.16
665.59	149.79
665.73	168.52
665.87	159.16
666.01	191.92
666.15	100.64
666.29	128.73
666.44	220.01
666.58	168.52
666.72	147.45
666.86	98.30
667.00	229.37
667.14	114.69
667.28	133.41
667.43	105.32
667.57	126.39
667.71	196.60
667.85	133.41
667.99	145.11
668.13	138.09
668.27	159.16
668.41	168.52
668.56	98.30
668.70	147.45
668.84	147.45
668.98	128.73
669.12	194.26
669.26	119.37
669.40	220.01
669.54	126.39
669.68	121.71
669.82	142.77
669.96	86.60
670.10	191.92
670.25	112.35
670.39	189.58
670.53	131.07
670.67	121.71
670.81	114.69
670.95	152.13
671.09	14.04
671.23	189.58
671.37	184.90
671.51	154.48
671.65	95.96
671.79	170.86
671.93	149.79
672.07	175.54
672.21	145.11
672.35	121.71
672.49	60.85
672.63	184.90
672.77	236.39
672.91	154.48
673.05	128.73
673.19	117.03
673.33	93.62
673.47	128.73
673.61	128.73
673.75	145.11
673.89	88.94
674.03	77.24
674.17	93.62
674.31	147.45
674.45	156.82
674.59	77.24
674.73	102.98
674.87	114.69
675.01	191.92
675.15	53.83
675.29	98.30
675.43	170.86
675.56	159.16
675.70	131.07
675.84	135.75
675.98	170.86
676.12	114.69
676.26	133.41
676.40	98.30
676.54	91.28
676.68	177.88
676.82	147.45
676.96	149.79
677.10	100.64
677.23	79.58
677.37	86.60
677.51	154.48
677.65	180.22
677.79	161.50
677.93	222.35
678.07	105.32
678.21	88.94
678.34	105.32
678.48	152.13
678.62	135.75
678.76	98.30
678.90	159.16
679.04	145.11
679.18	88.94
679.31	177.88
679.45	161.50
679.59	131.07
679.73	173.20
679.87	65.54
680.00	128.73
680.14	93.62
680.28	140.43
680.42	126.39
680.56	128.73
680.70	135.75
680.83	177.88
680.97	91.28
681.11	154.48
681.25	156.82
681.39	86.60
681.52	168.52
681.66	145.11
681.80	110.01
681.94	102.98
682.07	173.20
682.21	18.72
682.35	102.98
682.49	133.41
682.62	180.22
682.76	88.94
682.90	128.73
683.04	149.79
683.17	114.69
683.31	140.43
683.45	149.79
683.59	140.43
683.72	88.94
683.86	117.03
684.00	110.01
684.13	159.16
684.27	210.65
684.41	110.01
684.55	65.54
684.68	126.39
684.82	98.30
684.96	149.79
685.09	128.73
685.23	102.98
685.37	72.56
685.50	145.11
685.64	152.13
685.78	63.19
685.91	166.18
686.05	131.07
686.19	67.88
686.32	149.79
686.46	117.03
686.60	93.62
686.73	119.37
686.87	63.19
687.01	42.13
687.14	88.94
687.28	49.15
687.42	70.22
687.55	126.39
687.69	102.98
687.82	105.32
687.96	145.11
688.10	117.03
688.23	56.17
688.37	175.54
688.50	170.86
688.64	107.66
688.78	77.24
688.91	126.39
689.05	170.86
689.18	70.22
689.32	112.35
689.46	133.41
689.59	142.77
689.73	180.22
689.86	124.05
690.00	121.71
690.13	154.48
690.27	107.66
690.41	98.30
690.54	112.35
690.68	105.32
690.81	105.32
690.95	100.64
691.08	35.11
691.22	128.73
691.35	121.71
691.49	154.48
691.62	93.62
691.76	105.32
691.89	107.66
692.03	107.66
692.16	110.01
692.30	74.90
692.43	205.97
692.57	81.92
692.70	81.92
692.84	191.92
692.97	163.84
693.11	21.06
693.24	105.32
693.38	86.60
693.51	107.66
693.65	93.62
693.78	112.35
693.92	105.32
694.05	105.32
694.19	67.88
694.32	81.92
694.45	60.85
694.59	107.66
694.72	110.01
694.86	77.24
694.99	135.75
695.13	60.85
695.26	100.64
695.39	100.64
695.53	154.48
695.66	121.71
695.80	53.83
695.93	100.64
696.07	56.17
696.20	117.03
696.33	88.94
696.47	77.24
696.60	170.86
696.73	70.22
696.87	84.26
697.00	128.73
697.14	138.09
697.27	203.63
697.40	198.95
697.54	135.75
697.67	93.62
697.80	65.54
697.94	114.69
698.07	170.86
698.21	93.62
698.34	95.96
698.47	56.17
698.61	88.94
698.74	128.73
698.87	98.30
699.01	133.41
699.14	93.62
699.27	102.98
699.40	243.42
699.54	44.47
699.67	102.98
699.80	95.96
699.94	72.56
700.07	93.62
700.20	159.16
700.34	140.43
700.47	37.45
700.60	39.79
700.73	135.75
700.87	135.75
701.00	98.30
701.13	138.09
701.26	77.24
701.40	74.90
701.53	180.22
701.66	95.96
701.79	74.90
701.93	156.82
702.06	173.20
702.19	102.98
702.32	163.84
702.46	152.13
702.59	133.41
702.72	166.18
702.85	117.03
702.99	63.19
703.12	140.43
703.25	58.51
703.38	161.50
703.51	131.07
703.65	53.83
703.78	95.96
703.91	149.79
704.04	140.43
704.17	124.05
704.31	74.90
704.44	114.69
704.57	107.66
704.70	156.82
704.83	177.88
704.96	114.69
705.10	32.77
705.23	112.35
>>>>>End Processed Spectral Data<<<<<
