SpectraSuite Data File
++++++++++++++++++++++++++++++++++++
Date: Fri Oct 04 12:13:27 GMT-05:00 2013
User: price-jones
Dark Spectrum Present: No
Reference Spectrum Present: No
Number of Sampled Component Spectra: 1
Spectrometers: USB2+H05261
Integration Time (usec): 10000 (USB2+H05261)
Spectra Averaged: 1 (USB2+H05261)
Boxcar Smoothing: 0 (USB2+H05261)
Correct for Electrical Dark: No (USB2+H05261)
Strobe/Lamp Enabled: No (USB2+H05261)
Correct for Detector Non-linearity: No (USB2+H05261)
Correct for Stray Light: No (USB2+H05261)
Number of Pixels in Processed Spectrum: 2048
>>>>>Begin Processed Spectral Data<<<<<
365.73	0.00
365.92	0.00
366.12	0.00
366.32	0.00
366.52	0.00
366.72	0.00
366.91	0.00
367.11	0.00
367.31	0.00
367.51	0.00
367.70	0.00
367.90	0.00
368.10	0.00
368.30	0.00
368.49	0.00
368.69	0.00
368.89	0.00
369.09	0.00
369.28	0.00
369.48	0.00
369.68	0.00
369.87	0.00
370.07	0.00
370.27	0.00
370.47	0.00
370.66	0.00
370.86	0.00
371.06	0.00
371.25	0.00
371.45	0.00
371.65	0.00
371.84	0.00
372.04	30.43
372.24	11.70
372.44	28.09
372.63	11.70
372.83	11.70
373.03	21.06
373.22	63.19
373.42	4.68
373.62	44.47
373.81	0.00
374.01	14.04
374.21	0.00
374.40	23.41
374.60	70.22
374.79	70.22
374.99	65.54
375.19	49.15
375.38	56.17
375.58	44.47
375.78	95.96
375.97	37.45
376.17	25.75
376.37	37.45
376.56	53.83
376.76	53.83
376.95	7.02
377.15	0.00
377.35	37.45
377.54	0.00
377.74	0.00
377.93	49.15
378.13	0.00
378.33	25.75
378.52	23.41
378.72	74.90
378.91	0.00
379.11	56.17
379.31	63.19
379.50	18.72
379.70	0.00
379.89	0.00
380.09	25.75
380.28	0.00
380.48	0.00
380.68	23.41
380.87	58.51
381.07	72.56
381.26	0.00
381.46	4.68
381.65	0.00
381.85	23.41
382.04	30.43
382.24	25.75
382.43	14.04
382.63	51.49
382.83	28.09
383.02	56.17
383.22	0.00
383.41	79.58
383.61	67.88
383.80	7.02
384.00	16.38
384.19	32.77
384.39	0.00
384.58	14.04
384.78	56.17
384.97	30.43
385.17	39.79
385.36	0.00
385.56	4.68
385.75	18.72
385.95	67.88
386.14	0.00
386.34	0.00
386.53	0.00
386.72	21.06
386.92	16.38
387.11	16.38
387.31	4.68
387.50	65.54
387.70	42.13
387.89	4.68
388.09	0.00
388.28	53.83
388.48	0.00
388.67	0.00
388.86	0.00
389.06	56.17
389.25	42.13
389.45	28.09
389.64	18.72
389.84	65.54
390.03	9.36
390.22	46.81
390.42	105.32
390.61	51.49
390.81	0.00
391.00	0.00
391.19	35.11
391.39	0.00
391.58	0.00
391.78	70.22
391.97	56.17
392.16	37.45
392.36	0.00
392.55	0.00
392.75	4.68
392.94	0.00
393.13	0.00
393.33	32.77
393.52	30.43
393.71	2.34
393.91	25.75
394.10	0.00
394.29	98.30
394.49	0.00
394.68	67.88
394.88	0.00
395.07	35.11
395.26	56.17
395.46	63.19
395.65	44.47
395.84	44.47
396.04	16.38
396.23	60.85
396.42	51.49
396.62	7.02
396.81	0.00
397.00	18.72
397.19	14.04
397.39	65.54
397.58	37.45
397.77	0.00
397.97	46.81
398.16	25.75
398.35	0.00
398.55	0.00
398.74	14.04
398.93	0.00
399.12	44.47
399.32	30.43
399.51	14.04
399.70	0.00
399.90	4.68
400.09	11.70
400.28	32.77
400.47	4.68
400.67	14.04
400.86	0.00
401.05	28.09
401.24	51.49
401.44	0.00
401.63	32.77
401.82	32.77
402.01	39.79
402.21	0.00
402.40	63.19
402.59	0.00
402.78	0.00
402.97	37.45
403.17	37.45
403.36	51.49
403.55	39.79
403.74	56.17
403.93	4.68
404.13	49.15
404.32	0.00
404.51	42.13
404.70	28.09
404.89	23.41
405.09	65.54
405.28	56.17
405.47	60.85
405.66	70.22
405.85	23.41
406.05	100.64
406.24	37.45
406.43	0.00
406.62	0.00
406.81	53.83
407.00	0.00
407.20	63.19
407.39	25.75
407.58	49.15
407.77	18.72
407.96	67.88
408.15	35.11
408.34	9.36
408.54	0.00
408.73	11.70
408.92	32.77
409.11	16.38
409.30	81.92
409.49	9.36
409.68	0.00
409.87	7.02
410.07	16.38
410.26	63.19
410.45	72.56
410.64	72.56
410.83	9.36
411.02	0.00
411.21	23.41
411.40	16.38
411.59	56.17
411.78	72.56
411.98	81.92
412.17	126.39
412.36	16.38
412.55	117.03
412.74	58.51
412.93	53.83
413.12	60.85
413.31	4.68
413.50	37.45
413.69	35.11
413.88	56.17
414.07	0.00
414.26	39.79
414.45	46.81
414.64	23.41
414.83	35.11
415.02	49.15
415.22	0.00
415.41	81.92
415.60	0.00
415.79	32.77
415.98	0.00
416.17	42.13
416.36	0.00
416.55	65.54
416.74	58.51
416.93	0.00
417.12	56.17
417.31	51.49
417.50	0.00
417.69	9.36
417.88	60.85
418.07	9.36
418.26	42.13
418.45	56.17
418.64	58.51
418.83	0.00
419.02	0.00
419.21	11.70
419.39	58.51
419.58	0.00
419.77	53.83
419.96	4.68
420.15	21.06
420.34	9.36
420.53	11.70
420.72	16.38
420.91	72.56
421.10	0.00
421.29	44.47
421.48	0.00
421.67	63.19
421.86	35.11
422.05	0.00
422.24	0.00
422.43	37.45
422.61	63.19
422.80	7.02
422.99	51.49
423.18	7.02
423.37	4.68
423.56	95.96
423.75	37.45
423.94	0.00
424.13	42.13
424.32	46.81
424.50	0.00
424.69	9.36
424.88	65.54
425.07	58.51
425.26	72.56
425.45	60.85
425.64	0.00
425.83	0.00
426.01	53.83
426.20	16.38
426.39	16.38
426.58	58.51
426.77	53.83
426.96	70.22
427.15	7.02
427.33	72.56
427.52	14.04
427.71	0.00
427.90	46.81
428.09	0.00
428.28	37.45
428.46	16.38
428.65	84.26
428.84	65.54
429.03	51.49
429.22	0.00
429.40	0.00
429.59	39.79
429.78	110.01
429.97	60.85
430.16	7.02
430.34	0.00
430.53	0.00
430.72	37.45
430.91	28.09
431.10	0.00
431.28	0.00
431.47	0.00
431.66	16.38
431.85	63.19
432.03	14.04
432.22	14.04
432.41	72.56
432.60	32.77
432.79	0.00
432.97	49.15
433.16	65.54
433.35	0.00
433.54	32.77
433.72	44.47
433.91	44.47
434.10	7.02
434.28	44.47
434.47	9.36
434.66	84.26
434.85	37.45
435.03	0.00
435.22	79.58
435.41	74.90
435.59	18.72
435.78	14.04
435.97	0.00
436.16	0.00
436.34	0.00
436.53	0.00
436.72	0.00
436.90	16.38
437.09	60.85
437.28	0.00
437.46	32.77
437.65	72.56
437.84	72.56
438.02	49.15
438.21	23.41
438.40	81.92
438.58	2.34
438.77	18.72
438.96	0.00
439.14	28.09
439.33	70.22
439.52	37.45
439.70	0.00
439.89	81.92
440.08	16.38
440.26	95.96
440.45	42.13
440.63	37.45
440.82	58.51
441.01	65.54
441.19	46.81
441.38	2.34
441.57	0.00
441.75	58.51
441.94	60.85
442.12	63.19
442.31	4.68
442.50	35.11
442.68	102.98
442.87	53.83
443.05	32.77
443.24	56.17
443.43	32.77
443.61	14.04
443.80	110.01
443.98	44.47
444.17	56.17
444.35	18.72
444.54	25.75
444.73	9.36
444.91	65.54
445.10	30.43
445.28	63.19
445.47	46.81
445.65	77.24
445.84	0.00
446.02	49.15
446.21	65.54
446.39	42.13
446.58	0.00
446.77	32.77
446.95	30.43
447.14	0.00
447.32	65.54
447.51	0.00
447.69	58.51
447.88	0.00
448.06	53.83
448.25	0.00
448.43	70.22
448.62	7.02
448.80	79.58
448.99	100.64
449.17	84.26
449.36	70.22
449.54	11.70
449.73	110.01
449.91	0.00
450.10	18.72
450.28	51.49
450.46	18.72
450.65	74.90
450.83	0.00
451.02	0.00
451.20	37.45
451.39	0.00
451.57	37.45
451.76	46.81
451.94	88.94
452.13	56.17
452.31	30.43
452.49	63.19
452.68	49.15
452.86	25.75
453.05	0.00
453.23	0.00
453.42	30.43
453.60	0.00
453.78	58.51
453.97	11.70
454.15	0.00
454.34	49.15
454.52	49.15
454.70	35.11
454.89	42.13
455.07	9.36
455.26	114.69
455.44	44.47
455.62	93.62
455.81	93.62
455.99	70.22
456.17	77.24
456.36	44.47
456.54	100.64
456.73	60.85
456.91	39.79
457.09	84.26
457.28	35.11
457.46	81.92
457.64	4.68
457.83	28.09
458.01	0.00
458.19	49.15
458.38	7.02
458.56	42.13
458.74	65.54
458.93	91.28
459.11	74.90
459.29	0.00
459.48	56.17
459.66	16.38
459.84	28.09
460.03	56.17
460.21	35.11
460.39	0.00
460.57	86.60
460.76	60.85
460.94	18.72
461.12	0.00
461.31	37.45
461.49	84.26
461.67	149.79
461.85	0.00
462.04	37.45
462.22	124.05
462.40	53.83
462.59	58.51
462.77	37.45
462.95	39.79
463.13	39.79
463.32	0.00
463.50	39.79
463.68	0.00
463.86	0.00
464.05	74.90
464.23	23.41
464.41	2.34
464.59	0.00
464.78	23.41
464.96	35.11
465.14	0.00
465.32	53.83
465.50	142.77
465.69	23.41
465.87	14.04
466.05	0.00
466.23	0.00
466.41	9.36
466.60	16.38
466.78	4.68
466.96	0.00
467.14	16.38
467.32	65.54
467.51	18.72
467.69	53.83
467.87	79.58
468.05	65.54
468.23	42.13
468.41	51.49
468.60	9.36
468.78	0.00
468.96	44.47
469.14	63.19
469.32	18.72
469.50	18.72
469.69	0.00
469.87	39.79
470.05	35.11
470.23	16.38
470.41	18.72
470.59	84.26
470.77	46.81
470.95	93.62
471.14	0.00
471.32	44.47
471.50	49.15
471.68	0.00
471.86	67.88
472.04	51.49
472.22	25.75
472.40	0.00
472.58	0.00
472.77	84.26
472.95	18.72
473.13	0.00
473.31	74.90
473.49	32.77
473.67	14.04
473.85	25.75
474.03	18.72
474.21	18.72
474.39	4.68
474.57	60.85
474.75	84.26
474.93	58.51
475.12	63.19
475.30	0.00
475.48	14.04
475.66	39.79
475.84	60.85
476.02	49.15
476.20	53.83
476.38	37.45
476.56	79.58
476.74	14.04
476.92	51.49
477.10	74.90
477.28	0.00
477.46	4.68
477.64	23.41
477.82	25.75
478.00	4.68
478.18	32.77
478.36	77.24
478.54	49.15
478.72	44.47
478.90	16.38
479.08	0.00
479.26	18.72
479.44	126.39
479.62	7.02
479.80	51.49
479.98	95.96
480.16	51.49
480.34	67.88
480.52	91.28
480.70	58.51
480.88	0.00
481.06	0.00
481.24	37.45
481.41	63.19
481.59	0.00
481.77	65.54
481.95	32.77
482.13	28.09
482.31	56.17
482.49	44.47
482.67	25.75
482.85	23.41
483.03	0.00
483.21	49.15
483.39	56.17
483.57	79.58
483.74	0.00
483.92	16.38
484.10	58.51
484.28	21.06
484.46	56.17
484.64	21.06
484.82	25.75
485.00	65.54
485.18	53.83
485.35	39.79
485.53	42.13
485.71	32.77
485.89	51.49
486.07	11.70
486.25	93.62
486.43	21.06
486.61	0.00
486.78	49.15
486.96	46.81
487.14	7.02
487.32	16.38
487.50	44.47
487.68	18.72
487.85	0.00
488.03	21.06
488.21	84.26
488.39	44.47
488.57	74.90
488.75	81.92
488.92	79.58
489.10	46.81
489.28	67.88
489.46	44.47
489.64	53.83
489.81	51.49
489.99	23.41
490.17	65.54
490.35	65.54
490.53	0.00
490.70	18.72
490.88	42.13
491.06	23.41
491.24	23.41
491.41	93.62
491.59	37.45
491.77	42.13
491.95	72.56
492.13	53.83
492.30	49.15
492.48	0.00
492.66	67.88
492.84	58.51
493.01	32.77
493.19	53.83
493.37	56.17
493.54	42.13
493.72	65.54
493.90	84.26
494.08	65.54
494.25	0.00
494.43	0.00
494.61	67.88
494.79	86.60
494.96	37.45
495.14	0.00
495.32	95.96
495.49	93.62
495.67	93.62
495.85	110.01
496.02	79.58
496.20	93.62
496.38	30.43
496.55	74.90
496.73	30.43
496.91	51.49
497.09	46.81
497.26	37.45
497.44	53.83
497.62	58.51
497.79	35.11
497.97	35.11
498.14	0.00
498.32	0.00
498.50	65.54
498.67	49.15
498.85	23.41
499.03	39.79
499.20	86.60
499.38	35.11
499.56	56.17
499.73	77.24
499.91	56.17
500.08	2.34
500.26	44.47
500.44	46.81
500.61	147.45
500.79	30.43
500.97	74.90
501.14	42.13
501.32	4.68
501.49	14.04
501.67	4.68
501.84	70.22
502.02	7.02
502.20	72.56
502.37	70.22
502.55	86.60
502.72	28.09
502.90	0.00
503.07	0.00
503.25	42.13
503.43	0.00
503.60	23.41
503.78	114.69
503.95	7.02
504.13	0.00
504.30	53.83
504.48	74.90
504.65	0.00
504.83	0.00
505.01	65.54
505.18	11.70
505.36	30.43
505.53	100.64
505.71	9.36
505.88	9.36
506.06	21.06
506.23	4.68
506.41	0.00
506.58	0.00
506.76	9.36
506.93	23.41
507.11	9.36
507.28	30.43
507.46	32.77
507.63	51.49
507.81	79.58
507.98	70.22
508.16	28.09
508.33	63.19
508.50	37.45
508.68	0.00
508.85	72.56
509.03	56.17
509.20	51.49
509.38	86.60
509.55	58.51
509.73	119.37
509.90	37.45
510.08	39.79
510.25	25.75
510.42	84.26
510.60	18.72
510.77	72.56
510.95	105.32
511.12	88.94
511.30	102.98
511.47	4.68
511.64	11.70
511.82	0.00
511.99	0.00
512.17	44.47
512.34	25.75
512.51	107.66
512.69	46.81
512.86	42.13
513.04	4.68
513.21	131.07
513.38	21.06
513.56	58.51
513.73	124.05
513.90	0.00
514.08	21.06
514.25	25.75
514.43	51.49
514.60	23.41
514.77	0.00
514.95	60.85
515.12	25.75
515.29	42.13
515.47	0.00
515.64	11.70
515.81	39.79
515.99	112.35
516.16	28.09
516.33	44.47
516.51	74.90
516.68	56.17
516.85	65.54
517.03	25.75
517.20	0.00
517.37	56.17
517.54	77.24
517.72	18.72
517.89	14.04
518.06	0.00
518.24	81.92
518.41	67.88
518.58	16.38
518.75	14.04
518.93	98.30
519.10	88.94
519.27	63.19
519.45	46.81
519.62	65.54
519.79	28.09
519.96	25.75
520.14	23.41
520.31	18.72
520.48	56.17
520.65	79.58
520.83	37.45
521.00	98.30
521.17	56.17
521.34	37.45
521.52	88.94
521.69	0.00
521.86	44.47
522.03	4.68
522.20	0.00
522.38	0.00
522.55	28.09
522.72	16.38
522.89	63.19
523.07	112.35
523.24	63.19
523.41	105.32
523.58	28.09
523.75	37.45
523.92	49.15
524.10	84.26
524.27	11.70
524.44	0.00
524.61	49.15
524.78	63.19
524.96	0.00
525.13	56.17
525.30	0.00
525.47	46.81
525.64	105.32
525.81	65.54
525.98	142.77
526.16	74.90
526.33	60.85
526.50	4.68
526.67	81.92
526.84	86.60
527.01	159.16
527.18	114.69
527.36	25.75
527.53	11.70
527.70	37.45
527.87	56.17
528.04	74.90
528.21	42.13
528.38	0.00
528.55	42.13
528.72	25.75
528.89	32.77
529.07	86.60
529.24	37.45
529.41	2.34
529.58	86.60
529.75	72.56
529.92	35.11
530.09	42.13
530.26	58.51
530.43	95.96
530.60	23.41
530.77	30.43
530.94	28.09
531.11	16.38
531.28	81.92
531.46	0.00
531.63	46.81
531.80	74.90
531.97	0.00
532.14	77.24
532.31	67.88
532.48	11.70
532.65	23.41
532.82	81.92
532.99	32.77
533.16	0.00
533.33	119.37
533.50	25.75
533.67	23.41
533.84	84.26
534.01	21.06
534.18	58.51
534.35	112.35
534.52	4.68
534.69	49.15
534.86	79.58
535.03	105.32
535.20	107.66
535.37	0.00
535.54	32.77
535.71	72.56
535.88	56.17
536.05	35.11
536.22	72.56
536.38	0.00
536.55	7.02
536.72	30.43
536.89	51.49
537.06	65.54
537.23	84.26
537.40	0.00
537.57	0.00
537.74	46.81
537.91	107.66
538.08	14.04
538.25	0.00
538.42	102.98
538.59	86.60
538.75	67.88
538.92	58.51
539.09	11.70
539.26	67.88
539.43	79.58
539.60	77.24
539.77	102.98
539.94	177.88
540.11	51.49
540.28	23.41
540.44	51.49
540.61	32.77
540.78	35.11
540.95	32.77
541.12	0.00
541.29	51.49
541.46	63.19
541.62	28.09
541.79	25.75
541.96	117.03
542.13	91.28
542.30	21.06
542.47	14.04
542.63	0.00
542.80	51.49
542.97	28.09
543.14	35.11
543.31	56.17
543.48	88.94
543.64	84.26
543.81	35.11
543.98	42.13
544.15	11.70
544.32	56.17
544.48	32.77
544.65	25.75
544.82	30.43
544.99	39.79
545.16	0.00
545.32	98.30
545.49	9.36
545.66	77.24
545.83	105.32
546.00	18.72
546.16	84.26
546.33	42.13
546.50	53.83
546.67	70.22
546.83	37.45
547.00	70.22
547.17	56.17
547.34	32.77
547.50	138.09
547.67	65.54
547.84	16.38
548.00	44.47
548.17	56.17
548.34	77.24
548.51	18.72
548.67	119.37
548.84	35.11
549.01	166.18
549.18	63.19
549.34	60.85
549.51	11.70
549.68	25.75
549.84	98.30
550.01	21.06
550.18	0.00
550.34	0.00
550.51	79.58
550.68	72.56
550.84	140.43
551.01	51.49
551.18	53.83
551.34	56.17
551.51	2.34
551.68	46.81
551.84	23.41
552.01	84.26
552.18	16.38
552.34	49.15
552.51	25.75
552.68	98.30
552.84	14.04
553.01	18.72
553.18	84.26
553.34	21.06
553.51	72.56
553.67	9.36
553.84	91.28
554.01	14.04
554.17	30.43
554.34	16.38
554.51	56.17
554.67	49.15
554.84	0.00
555.00	72.56
555.17	58.51
555.33	74.90
555.50	124.05
555.67	81.92
555.83	46.81
556.00	107.66
556.16	102.98
556.33	28.09
556.50	44.47
556.66	63.19
556.83	35.11
556.99	72.56
557.16	0.00
557.32	4.68
557.49	0.00
557.65	0.00
557.82	0.00
557.98	35.11
558.15	11.70
558.32	37.45
558.48	44.47
558.65	114.69
558.81	0.00
558.98	39.79
559.14	58.51
559.31	95.96
559.47	65.54
559.64	9.36
559.80	51.49
559.97	77.24
560.13	84.26
560.30	0.00
560.46	56.17
560.63	91.28
560.79	93.62
560.96	23.41
561.12	72.56
561.29	32.77
561.45	4.68
561.61	60.85
561.78	28.09
561.94	37.45
562.11	0.00
562.27	44.47
562.44	21.06
562.60	74.90
562.77	56.17
562.93	84.26
563.10	0.00
563.26	7.02
563.42	95.96
563.59	56.17
563.75	112.35
563.92	18.72
564.08	124.05
564.24	93.62
564.41	28.09
564.57	0.00
564.74	53.83
564.90	51.49
565.07	58.51
565.23	23.41
565.39	46.81
565.56	4.68
565.72	0.00
565.88	46.81
566.05	100.64
566.21	53.83
566.38	28.09
566.54	0.00
566.70	0.00
566.87	0.00
567.03	0.00
567.19	14.04
567.36	42.13
567.52	112.35
567.68	46.81
567.85	0.00
568.01	18.72
568.17	21.06
568.34	51.49
568.50	79.58
568.66	51.49
568.83	16.38
568.99	44.47
569.15	88.94
569.32	30.43
569.48	51.49
569.64	0.00
569.81	23.41
569.97	51.49
570.13	4.68
570.30	128.73
570.46	7.02
570.62	30.43
570.78	131.07
570.95	63.19
571.11	28.09
571.27	67.88
571.43	70.22
571.60	58.51
571.76	53.83
571.92	0.00
572.09	63.19
572.25	70.22
572.41	2.34
572.57	51.49
572.74	49.15
572.90	49.15
573.06	32.77
573.22	7.02
573.38	42.13
573.55	74.90
573.71	86.60
573.87	46.81
574.03	72.56
574.20	25.75
574.36	0.00
574.52	65.54
574.68	0.00
574.84	49.15
575.01	56.17
575.17	74.90
575.33	2.34
575.49	0.00
575.65	93.62
575.82	102.98
575.98	28.09
576.14	95.96
576.30	95.96
576.46	65.54
576.62	11.70
576.79	60.85
576.95	46.81
577.11	7.02
577.27	32.77
577.43	37.45
577.59	0.00
577.75	21.06
577.92	23.41
578.08	49.15
578.24	65.54
578.40	42.13
578.56	79.58
578.72	32.77
578.88	77.24
579.04	14.04
579.21	42.13
579.37	53.83
579.53	16.38
579.69	30.43
579.85	39.79
580.01	58.51
580.17	51.49
580.33	18.72
580.49	4.68
580.65	42.13
580.82	74.90
580.98	14.04
581.14	25.75
581.30	7.02
581.46	35.11
581.62	79.58
581.78	117.03
581.94	95.96
582.10	46.81
582.26	53.83
582.42	63.19
582.58	131.07
582.74	65.54
582.90	81.92
583.06	21.06
583.22	67.88
583.38	81.92
583.54	88.94
583.70	60.85
583.86	51.49
584.02	81.92
584.18	100.64
584.34	70.22
584.50	166.18
584.66	866.00
584.82	1970.73
584.98	2511.39
585.14	2148.61
585.30	1441.77
585.46	814.51
585.62	477.47
585.78	266.82
585.94	161.50
586.10	84.26
586.26	58.51
586.42	119.37
586.58	70.22
586.74	117.03
586.90	21.06
587.06	37.45
587.22	65.54
587.38	145.11
587.54	77.24
587.70	257.46
587.86	248.10
588.02	238.73
588.18	110.01
588.34	124.05
588.49	147.45
588.65	77.24
588.81	37.45
588.97	53.83
589.13	95.96
589.29	46.81
589.45	102.98
589.61	74.90
589.77	35.11
589.93	60.85
590.08	21.06
590.24	0.00
590.40	28.09
590.56	0.00
590.72	11.70
590.88	77.24
591.04	53.83
591.20	39.79
591.35	25.75
591.51	72.56
591.67	56.17
591.83	49.15
591.99	65.54
592.15	44.47
592.31	84.26
592.46	70.22
592.62	56.17
592.78	18.72
592.94	2.34
593.10	4.68
593.26	133.41
593.41	107.66
593.57	0.00
593.73	35.11
593.89	215.33
594.05	283.20
594.20	435.34
594.36	351.08
594.52	231.71
594.68	175.54
594.84	114.69
594.99	74.90
595.15	2.34
595.31	32.77
595.47	81.92
595.62	42.13
595.78	0.00
595.94	65.54
596.10	44.47
596.25	0.00
596.41	70.22
596.57	133.41
596.73	28.09
596.88	28.09
597.04	107.66
597.20	110.01
597.36	91.28
597.51	77.24
597.67	88.94
597.83	81.92
597.99	42.13
598.14	0.00
598.30	46.81
598.46	51.49
598.61	9.36
598.77	0.00
598.93	70.22
599.09	42.13
599.24	46.81
599.40	28.09
599.56	79.58
599.71	23.41
599.87	9.36
600.03	56.17
600.18	51.49
600.34	42.13
600.50	46.81
600.65	0.00
600.81	56.17
600.97	107.66
601.12	60.85
601.28	16.38
601.44	39.79
601.59	0.00
601.75	65.54
601.91	88.94
602.06	9.36
602.22	88.94
602.37	86.60
602.53	112.35
602.69	112.35
602.84	70.22
603.00	72.56
603.16	32.77
603.31	86.60
603.47	60.85
603.62	4.68
603.78	14.04
603.94	0.00
604.09	53.83
604.25	37.45
604.40	65.54
604.56	16.38
604.71	30.43
604.87	67.88
605.03	105.32
605.18	35.11
605.34	21.06
605.49	74.90
605.65	16.38
605.80	21.06
605.96	30.43
606.12	63.19
606.27	18.72
606.43	0.00
606.58	32.77
606.74	65.54
606.89	124.05
607.05	285.55
607.20	269.16
607.36	271.50
607.51	112.35
607.67	70.22
607.82	112.35
607.98	77.24
608.13	51.49
608.29	84.26
608.44	53.83
608.60	63.19
608.75	0.00
608.91	32.77
609.06	250.44
609.22	430.66
609.37	566.41
609.53	404.91
609.68	308.95
609.84	224.69
609.99	112.35
610.15	46.81
610.30	30.43
610.46	46.81
610.61	88.94
610.76	0.00
610.92	53.83
611.07	77.24
611.23	53.83
611.38	58.51
611.54	35.11
611.69	44.47
611.84	0.00
612.00	93.62
612.15	18.72
612.31	0.00
612.46	21.06
612.62	77.24
612.77	0.00
612.92	28.09
613.08	28.09
613.23	35.11
613.39	72.56
613.54	140.43
613.69	168.52
613.85	526.62
614.00	706.84
614.15	699.82
614.31	547.69
614.46	339.38
614.62	290.23
614.77	208.31
614.92	37.45
615.08	56.17
615.23	81.92
615.38	9.36
615.54	35.11
615.69	35.11
615.84	238.73
616.00	255.12
616.15	243.42
616.30	194.26
616.46	121.71
616.61	159.16
616.76	21.06
616.92	140.43
617.07	117.03
617.22	56.17
617.37	23.41
617.53	0.00
617.68	25.75
617.83	0.00
617.99	51.49
618.14	37.45
618.29	28.09
618.45	67.88
618.60	23.41
618.75	30.43
618.90	21.06
619.06	23.41
619.21	0.00
619.36	4.68
619.51	32.77
619.67	149.79
619.82	0.00
619.97	65.54
620.12	51.49
620.28	0.00
620.43	72.56
620.58	51.49
620.73	67.88
620.89	16.38
621.04	53.83
621.19	60.85
621.34	72.56
621.49	177.88
621.65	147.45
621.80	126.39
621.95	112.35
622.10	60.85
622.25	65.54
622.41	25.75
622.56	60.85
622.71	70.22
622.86	39.79
623.01	9.36
623.16	16.38
623.32	65.54
623.47	70.22
623.62	58.51
623.77	2.34
623.92	30.43
624.07	32.77
624.23	51.49
624.38	0.00
624.53	21.06
624.68	18.72
624.83	0.00
624.98	42.13
625.13	32.77
625.29	30.43
625.44	25.75
625.59	95.96
625.74	135.75
625.89	58.51
626.04	107.66
626.19	304.27
626.34	362.78
626.49	421.30
626.65	292.57
626.80	220.01
626.95	170.86
627.10	175.54
627.25	112.35
627.40	93.62
627.55	39.79
627.70	53.83
627.85	128.73
628.00	11.70
628.15	70.22
628.30	25.75
628.45	63.19
628.60	25.75
628.76	51.49
628.91	131.07
629.06	56.17
629.21	163.84
629.36	44.47
629.51	0.00
629.66	84.26
629.81	0.00
629.96	44.47
630.11	128.73
630.26	210.65
630.41	145.11
630.56	74.90
630.71	51.49
630.86	39.79
631.01	0.00
631.16	58.51
631.31	72.56
631.46	51.49
631.61	95.96
631.76	95.96
631.91	70.22
632.06	7.02
632.21	0.00
632.36	28.09
632.51	53.83
632.66	51.49
632.81	140.43
632.96	194.26
633.10	271.50
633.25	285.55
633.40	290.23
633.55	222.35
633.70	131.07
633.85	119.37
634.00	119.37
634.15	14.04
634.30	95.96
634.45	46.81
634.60	70.22
634.75	4.68
634.90	37.45
635.05	46.81
635.19	0.00
635.34	49.15
635.49	63.19
635.64	16.38
635.79	0.00
635.94	51.49
636.09	65.54
636.24	21.06
636.39	9.36
636.53	67.88
636.68	28.09
636.83	4.68
636.98	112.35
637.13	44.47
637.28	28.09
637.43	74.90
637.57	0.00
637.72	138.09
637.87	360.44
638.02	505.56
638.17	517.26
638.32	367.46
638.46	271.50
638.61	177.88
638.76	138.09
638.91	81.92
639.06	124.05
639.20	56.17
639.35	14.04
639.50	102.98
639.65	191.92
639.80	484.49
639.94	784.08
640.09	746.63
640.24	547.69
640.39	505.56
640.54	278.52
640.68	138.09
640.83	117.03
640.98	53.83
641.13	51.49
641.27	0.00
641.42	53.83
641.57	14.04
641.72	37.45
641.86	0.00
642.01	0.00
642.16	32.77
642.31	93.62
642.45	4.68
642.60	18.72
642.75	32.77
642.90	114.69
643.04	35.11
643.19	65.54
643.34	0.00
643.48	9.36
643.63	56.17
643.78	23.41
643.93	32.77
644.07	63.19
644.22	53.83
644.37	0.00
644.51	72.56
644.66	51.49
644.81	70.22
644.95	46.81
645.10	28.09
645.25	79.58
645.39	0.00
645.54	11.70
645.69	63.19
645.83	37.45
645.98	77.24
646.13	35.11
646.27	7.02
646.42	67.88
646.57	79.58
646.71	49.15
646.86	44.47
647.00	18.72
647.15	32.77
647.30	0.00
647.44	37.45
647.59	121.71
647.74	28.09
647.88	91.28
648.03	72.56
648.17	35.11
648.32	0.00
648.47	21.06
648.61	49.15
648.76	25.75
648.90	42.13
649.05	79.58
649.20	0.00
649.34	30.43
649.49	32.77
649.63	49.15
649.78	7.02
649.92	39.79
650.07	112.35
650.21	205.97
650.36	372.15
650.51	435.34
650.65	402.57
650.80	287.89
650.94	107.66
651.09	95.96
651.23	140.43
651.38	81.92
651.52	44.47
651.67	0.00
651.81	9.36
651.96	91.28
652.10	0.00
652.25	25.75
652.39	21.06
652.54	60.85
652.68	0.00
652.83	135.75
652.97	131.07
653.12	149.79
653.26	119.37
653.41	91.28
653.55	126.39
653.70	88.94
653.84	74.90
653.99	0.00
654.13	46.81
654.27	84.26
654.42	88.94
654.56	42.13
654.71	65.54
654.85	2.34
655.00	98.30
655.14	2.34
655.29	0.00
655.43	60.85
655.57	77.24
655.72	30.43
655.86	60.85
656.01	88.94
656.15	74.90
656.30	11.70
656.44	180.22
656.58	0.00
656.73	21.06
656.87	44.47
657.01	58.51
657.16	60.85
657.30	0.00
657.45	37.45
657.59	28.09
657.73	30.43
657.88	53.83
658.02	95.96
658.16	65.54
658.31	124.05
658.45	0.00
658.60	21.06
658.74	49.15
658.88	11.70
659.03	21.06
659.17	95.96
659.31	0.00
659.46	44.47
659.60	227.03
659.74	175.54
659.89	196.60
660.03	182.56
660.17	140.43
660.32	81.92
660.46	0.00
660.60	56.17
660.74	42.13
660.89	98.30
661.03	7.02
661.17	72.56
661.32	0.00
661.46	67.88
661.60	28.09
661.74	16.38
661.89	102.98
662.03	56.17
662.17	105.32
662.31	25.75
662.46	65.54
662.60	0.00
662.74	56.17
662.88	2.34
663.03	42.13
663.17	58.51
663.31	7.02
663.45	42.13
663.60	117.03
663.74	0.00
663.88	51.49
664.02	7.02
664.17	21.06
664.31	0.00
664.45	60.85
664.59	86.60
664.73	37.45
664.88	58.51
665.02	0.00
665.16	32.77
665.30	49.15
665.44	39.79
665.59	14.04
665.73	56.17
665.87	32.77
666.01	53.83
666.15	0.00
666.29	46.81
666.44	74.90
666.58	7.02
666.72	44.47
666.86	0.00
667.00	39.79
667.14	28.09
667.28	100.64
667.43	133.41
667.57	287.89
667.71	351.08
667.85	358.10
667.99	201.29
668.13	95.96
668.27	105.32
668.41	56.17
668.56	23.41
668.70	0.00
668.84	147.45
668.98	0.00
669.12	63.19
669.26	175.54
669.40	42.13
669.54	39.79
669.68	42.13
669.82	30.43
669.96	0.00
670.10	0.00
670.25	0.00
670.39	32.77
670.53	91.28
670.67	100.64
670.81	86.60
670.95	30.43
671.09	131.07
671.23	117.03
671.37	201.29
671.51	203.63
671.65	241.08
671.79	138.09
671.93	110.01
672.07	93.62
672.21	21.06
672.35	72.56
672.49	72.56
672.63	30.43
672.77	46.81
672.91	9.36
673.05	0.00
673.19	51.49
673.33	37.45
673.47	28.09
673.61	7.02
673.75	93.62
673.89	30.43
674.03	51.49
674.17	32.77
674.31	0.00
674.45	0.00
674.59	11.70
674.73	65.54
674.87	0.00
675.01	9.36
675.15	79.58
675.29	35.11
675.43	60.85
675.56	0.00
675.70	11.70
675.84	70.22
675.98	49.15
676.12	28.09
676.26	44.47
676.40	112.35
676.54	23.41
676.68	23.41
676.82	98.30
676.96	32.77
677.10	102.98
677.23	65.54
677.37	81.92
677.51	35.11
677.65	35.11
677.79	39.79
677.93	18.72
678.07	44.47
678.21	9.36
678.34	56.17
678.48	86.60
678.62	14.04
678.76	91.28
678.90	9.36
679.04	49.15
679.18	63.19
679.31	58.51
679.45	16.38
679.59	0.00
679.73	51.49
679.87	18.72
680.00	0.00
680.14	9.36
680.28	49.15
680.42	11.70
680.56	21.06
680.70	30.43
680.83	0.00
680.97	0.00
681.11	0.00
681.25	86.60
681.39	18.72
681.52	63.19
681.66	23.41
681.80	0.00
681.94	91.28
682.07	9.36
682.21	0.00
682.35	46.81
682.49	21.06
682.62	51.49
682.76	79.58
682.90	30.43
683.04	0.00
683.17	51.49
683.31	11.70
683.45	11.70
683.59	21.06
683.72	0.00
683.86	9.36
684.00	53.83
684.13	65.54
684.27	25.75
684.41	49.15
684.55	0.00
684.68	39.79
684.82	4.68
684.96	0.00
685.09	4.68
685.23	91.28
685.37	14.04
685.50	0.00
685.64	49.15
685.78	0.00
685.91	0.00
686.05	11.70
686.19	0.00
686.32	2.34
686.46	0.00
686.60	14.04
686.73	18.72
686.87	56.17
687.01	70.22
687.14	25.75
687.28	88.94
687.42	81.92
687.55	0.00
687.69	25.75
687.82	7.02
687.96	25.75
688.10	67.88
688.23	0.00
688.37	67.88
688.50	58.51
688.64	42.13
688.78	2.34
688.91	30.43
689.05	16.38
689.18	51.49
689.32	32.77
689.46	0.00
689.59	7.02
689.73	63.19
689.86	56.17
690.00	0.00
690.13	53.83
690.27	16.38
690.41	16.38
690.54	28.09
690.68	91.28
690.81	72.56
690.95	4.68
691.08	11.70
691.22	95.96
691.35	35.11
691.49	39.79
691.62	18.72
691.76	51.49
691.89	0.00
692.03	18.72
692.16	30.43
692.30	0.00
692.43	39.79
692.57	49.15
692.70	133.41
692.84	236.39
692.97	175.54
693.11	149.79
693.24	102.98
693.38	86.60
693.51	63.19
693.65	53.83
693.78	102.98
693.92	25.75
694.05	11.70
694.19	46.81
694.32	4.68
694.45	124.05
694.59	39.79
694.72	0.00
694.86	14.04
694.99	84.26
695.13	58.51
695.26	58.51
695.39	23.41
695.53	95.96
695.66	9.36
695.80	0.00
695.93	25.75
696.07	42.13
696.20	16.38
696.33	42.13
696.47	0.00
696.60	102.98
696.73	16.38
696.87	67.88
697.00	0.00
697.14	0.00
697.27	46.81
697.40	79.58
697.54	30.43
697.67	60.85
697.80	18.72
697.94	91.28
698.07	44.47
698.21	91.28
698.34	0.00
698.47	51.49
698.61	44.47
698.74	18.72
698.87	32.77
699.01	14.04
699.14	107.66
699.27	0.00
699.40	91.28
699.54	25.75
699.67	42.13
699.80	32.77
699.94	72.56
700.07	37.45
700.20	35.11
700.34	105.32
700.47	42.13
700.60	46.81
700.73	58.51
700.87	65.54
701.00	84.26
701.13	35.11
701.26	63.19
701.40	28.09
701.53	51.49
701.66	28.09
701.79	28.09
701.93	44.47
702.06	35.11
702.19	37.45
702.32	11.70
702.46	4.68
702.59	25.75
702.72	37.45
702.85	105.32
702.99	315.97
703.12	346.40
703.25	320.65
703.38	229.37
703.51	227.03
703.65	163.84
703.78	84.26
703.91	93.62
704.04	95.96
704.17	42.13
704.31	37.45
704.44	91.28
704.57	51.49
704.70	0.00
704.83	0.00
704.96	0.00
705.10	56.17
705.23	60.85
>>>>>End Processed Spectral Data<<<<<
