SpectraSuite Data File
++++++++++++++++++++++++++++++++++++
Date: Fri Oct 04 12:13:32 GMT-05:00 2013
User: price-jones
Dark Spectrum Present: No
Reference Spectrum Present: No
Number of Sampled Component Spectra: 1
Spectrometers: USB2+H05261
Integration Time (usec): 10000 (USB2+H05261)
Spectra Averaged: 1 (USB2+H05261)
Boxcar Smoothing: 0 (USB2+H05261)
Correct for Electrical Dark: No (USB2+H05261)
Strobe/Lamp Enabled: No (USB2+H05261)
Correct for Detector Non-linearity: No (USB2+H05261)
Correct for Stray Light: No (USB2+H05261)
Number of Pixels in Processed Spectrum: 2048
>>>>>Begin Processed Spectral Data<<<<<
365.73	7.02
365.92	7.02
366.12	7.02
366.32	0.00
366.52	0.00
366.72	0.00
366.91	0.00
367.11	0.00
367.31	0.00
367.51	0.00
367.70	0.00
367.90	0.00
368.10	0.00
368.30	0.00
368.49	0.00
368.69	0.00
368.89	0.00
369.09	0.00
369.28	0.00
369.48	0.00
369.68	0.00
369.87	0.00
370.07	0.00
370.27	0.00
370.47	0.00
370.66	0.00
370.86	0.00
371.06	0.00
371.25	0.00
371.45	0.00
371.65	0.00
371.84	23.41
372.04	53.83
372.24	4.68
372.44	0.00
372.63	37.45
372.83	53.83
373.03	88.94
373.22	44.47
373.42	49.15
373.62	21.06
373.81	56.17
374.01	53.83
374.21	14.04
374.40	21.06
374.60	63.19
374.79	46.81
374.99	53.83
375.19	11.70
375.38	77.24
375.58	0.00
375.78	30.43
375.97	32.77
376.17	51.49
376.37	0.00
376.56	74.90
376.76	0.00
376.95	0.00
377.15	16.38
377.35	28.09
377.54	0.00
377.74	37.45
377.93	0.00
378.13	14.04
378.33	63.19
378.52	0.00
378.72	0.00
378.91	0.00
379.11	53.83
379.31	51.49
379.50	46.81
379.70	23.41
379.89	0.00
380.09	30.43
380.28	25.75
380.48	25.75
380.68	11.70
380.87	0.00
381.07	53.83
381.26	0.00
381.46	0.00
381.65	88.94
381.85	14.04
382.04	0.00
382.24	0.00
382.43	35.11
382.63	14.04
382.83	84.26
383.02	46.81
383.22	79.58
383.41	77.24
383.61	0.00
383.80	0.00
384.00	30.43
384.19	32.77
384.39	51.49
384.58	49.15
384.78	28.09
384.97	0.00
385.17	0.00
385.36	0.00
385.56	0.00
385.75	0.00
385.95	7.02
386.14	28.09
386.34	0.00
386.53	42.13
386.72	46.81
386.92	9.36
387.11	51.49
387.31	7.02
387.50	49.15
387.70	79.58
387.89	7.02
388.09	70.22
388.28	70.22
388.48	25.75
388.67	2.34
388.86	42.13
389.06	32.77
389.25	0.00
389.45	14.04
389.64	49.15
389.84	21.06
390.03	0.00
390.22	0.00
390.42	0.00
390.61	0.00
390.81	98.30
391.00	18.72
391.19	37.45
391.39	56.17
391.58	32.77
391.78	0.00
391.97	63.19
392.16	35.11
392.36	0.00
392.55	35.11
392.75	32.77
392.94	0.00
393.13	0.00
393.33	0.00
393.52	7.02
393.71	0.00
393.91	32.77
394.10	0.00
394.29	60.85
394.49	23.41
394.68	60.85
394.88	28.09
395.07	4.68
395.26	44.47
395.46	44.47
395.65	0.00
395.84	32.77
396.04	0.00
396.23	7.02
396.42	0.00
396.62	32.77
396.81	42.13
397.00	56.17
397.19	53.83
397.39	0.00
397.58	46.81
397.77	0.00
397.97	18.72
398.16	0.00
398.35	21.06
398.55	9.36
398.74	35.11
398.93	0.00
399.12	60.85
399.32	0.00
399.51	70.22
399.70	124.05
399.90	30.43
400.09	0.00
400.28	32.77
400.47	0.00
400.67	0.00
400.86	0.00
401.05	21.06
401.24	42.13
401.44	16.38
401.63	14.04
401.82	25.75
402.01	18.72
402.21	39.79
402.40	44.47
402.59	60.85
402.78	121.71
402.97	42.13
403.17	11.70
403.36	84.26
403.55	119.37
403.74	11.70
403.93	4.68
404.13	44.47
404.32	0.00
404.51	42.13
404.70	46.81
404.89	0.00
405.09	35.11
405.28	0.00
405.47	0.00
405.66	39.79
405.85	7.02
406.05	60.85
406.24	30.43
406.43	35.11
406.62	23.41
406.81	0.00
407.00	32.77
407.20	32.77
407.39	0.00
407.58	0.00
407.77	0.00
407.96	44.47
408.15	0.00
408.34	63.19
408.54	37.45
408.73	18.72
408.92	23.41
409.11	37.45
409.30	0.00
409.49	18.72
409.68	39.79
409.87	21.06
410.07	28.09
410.26	114.69
410.45	21.06
410.64	35.11
410.83	53.83
411.02	14.04
411.21	84.26
411.40	0.00
411.59	14.04
411.78	0.00
411.98	0.00
412.17	9.36
412.36	67.88
412.55	60.85
412.74	25.75
412.93	51.49
413.12	0.00
413.31	72.56
413.50	0.00
413.69	23.41
413.88	0.00
414.07	37.45
414.26	0.00
414.45	7.02
414.64	0.00
414.83	117.03
415.02	49.15
415.22	21.06
415.41	0.00
415.60	18.72
415.79	28.09
415.98	49.15
416.17	53.83
416.36	0.00
416.55	0.00
416.74	30.43
416.93	39.79
417.12	53.83
417.31	74.90
417.50	105.32
417.69	9.36
417.88	4.68
418.07	0.00
418.26	21.06
418.45	14.04
418.64	2.34
418.83	51.49
419.02	77.24
419.21	0.00
419.39	56.17
419.58	63.19
419.77	0.00
419.96	0.00
420.15	11.70
420.34	30.43
420.53	58.51
420.72	0.00
420.91	7.02
421.10	39.79
421.29	0.00
421.48	23.41
421.67	9.36
421.86	42.13
422.05	37.45
422.24	14.04
422.43	46.81
422.61	0.00
422.80	88.94
422.99	16.38
423.18	21.06
423.37	70.22
423.56	44.47
423.75	0.00
423.94	42.13
424.13	0.00
424.32	91.28
424.50	91.28
424.69	81.92
424.88	7.02
425.07	35.11
425.26	9.36
425.45	0.00
425.64	65.54
425.83	0.00
426.01	58.51
426.20	16.38
426.39	44.47
426.58	53.83
426.77	49.15
426.96	11.70
427.15	0.00
427.33	25.75
427.52	53.83
427.71	42.13
427.90	0.00
428.09	0.00
428.28	0.00
428.46	0.00
428.65	14.04
428.84	0.00
429.03	4.68
429.22	0.00
429.40	0.00
429.59	30.43
429.78	18.72
429.97	0.00
430.16	0.00
430.34	93.62
430.53	58.51
430.72	0.00
430.91	14.04
431.10	100.64
431.28	23.41
431.47	18.72
431.66	86.60
431.85	0.00
432.03	70.22
432.22	0.00
432.41	30.43
432.60	65.54
432.79	11.70
432.97	0.00
433.16	32.77
433.35	98.30
433.54	0.00
433.72	0.00
433.91	46.81
434.10	0.00
434.28	58.51
434.47	30.43
434.66	37.45
434.85	23.41
435.03	0.00
435.22	16.38
435.41	107.66
435.59	32.77
435.78	58.51
435.97	30.43
436.16	14.04
436.34	23.41
436.53	25.75
436.72	9.36
436.90	0.00
437.09	0.00
437.28	51.49
437.46	58.51
437.65	25.75
437.84	0.00
438.02	0.00
438.21	81.92
438.40	72.56
438.58	32.77
438.77	100.64
438.96	0.00
439.14	14.04
439.33	72.56
439.52	46.81
439.70	39.79
439.89	49.15
440.08	9.36
440.26	42.13
440.45	63.19
440.63	0.00
440.82	53.83
441.01	25.75
441.19	46.81
441.38	88.94
441.57	0.00
441.75	58.51
441.94	0.00
442.12	7.02
442.31	67.88
442.50	25.75
442.68	49.15
442.87	56.17
443.05	37.45
443.24	0.00
443.43	28.09
443.61	58.51
443.80	53.83
443.98	35.11
444.17	44.47
444.35	18.72
444.54	28.09
444.73	49.15
444.91	58.51
445.10	35.11
445.28	0.00
445.47	0.00
445.65	88.94
445.84	60.85
446.02	126.39
446.21	39.79
446.39	88.94
446.58	88.94
446.77	0.00
446.95	21.06
447.14	30.43
447.32	77.24
447.51	0.00
447.69	63.19
447.88	0.00
448.06	11.70
448.25	25.75
448.43	35.11
448.62	126.39
448.80	53.83
448.99	60.85
449.17	23.41
449.36	93.62
449.54	30.43
449.73	124.05
449.91	46.81
450.10	72.56
450.28	49.15
450.46	131.07
450.65	21.06
450.83	81.92
451.02	37.45
451.20	77.24
451.39	77.24
451.57	72.56
451.76	77.24
451.94	11.70
452.13	23.41
452.31	4.68
452.49	18.72
452.68	18.72
452.86	44.47
453.05	51.49
453.23	0.00
453.42	63.19
453.60	39.79
453.78	44.47
453.97	72.56
454.15	0.00
454.34	4.68
454.52	58.51
454.70	0.00
454.89	46.81
455.07	32.77
455.26	70.22
455.44	70.22
455.62	56.17
455.81	11.70
455.99	67.88
456.17	32.77
456.36	0.00
456.54	35.11
456.73	88.94
456.91	0.00
457.09	37.45
457.28	51.49
457.46	0.00
457.64	7.02
457.83	2.34
458.01	56.17
458.19	37.45
458.38	35.11
458.56	21.06
458.74	102.98
458.93	51.49
459.11	72.56
459.29	16.38
459.48	67.88
459.66	28.09
459.84	0.00
460.03	28.09
460.21	35.11
460.39	2.34
460.57	0.00
460.76	28.09
460.94	35.11
461.12	23.41
461.31	56.17
461.49	84.26
461.67	63.19
461.85	0.00
462.04	18.72
462.22	114.69
462.40	72.56
462.59	98.30
462.77	11.70
462.95	25.75
463.13	39.79
463.32	0.00
463.50	0.00
463.68	105.32
463.86	0.00
464.05	23.41
464.23	23.41
464.41	0.00
464.59	0.00
464.78	21.06
464.96	4.68
465.14	63.19
465.32	56.17
465.50	0.00
465.69	98.30
465.87	0.00
466.05	72.56
466.23	28.09
466.41	16.38
466.60	37.45
466.78	56.17
466.96	4.68
467.14	46.81
467.32	56.17
467.51	44.47
467.69	114.69
467.87	58.51
468.05	60.85
468.23	23.41
468.41	39.79
468.60	95.96
468.78	60.85
468.96	16.38
469.14	49.15
469.32	107.66
469.50	60.85
469.69	28.09
469.87	30.43
470.05	23.41
470.23	30.43
470.41	14.04
470.59	39.79
470.77	49.15
470.95	77.24
471.14	30.43
471.32	42.13
471.50	63.19
471.68	0.00
471.86	70.22
472.04	2.34
472.22	49.15
472.40	77.24
472.58	56.17
472.77	18.72
472.95	72.56
473.13	44.47
473.31	42.13
473.49	107.66
473.67	11.70
473.85	53.83
474.03	9.36
474.21	37.45
474.39	88.94
474.57	0.00
474.75	138.09
474.93	16.38
475.12	37.45
475.30	37.45
475.48	51.49
475.66	18.72
475.84	32.77
476.02	63.19
476.20	102.98
476.38	0.00
476.56	18.72
476.74	32.77
476.92	21.06
477.10	37.45
477.28	126.39
477.46	16.38
477.64	84.26
477.82	30.43
478.00	63.19
478.18	0.00
478.36	98.30
478.54	105.32
478.72	14.04
478.90	37.45
479.08	32.77
479.26	4.68
479.44	77.24
479.62	4.68
479.80	9.36
479.98	53.83
480.16	0.00
480.34	51.49
480.52	0.00
480.70	74.90
480.88	11.70
481.06	67.88
481.24	30.43
481.41	16.38
481.59	32.77
481.77	65.54
481.95	0.00
482.13	49.15
482.31	46.81
482.49	32.77
482.67	65.54
482.85	84.26
483.03	0.00
483.21	18.72
483.39	112.35
483.57	60.85
483.74	0.00
483.92	25.75
484.10	23.41
484.28	102.98
484.46	105.32
484.64	86.60
484.82	95.96
485.00	37.45
485.18	49.15
485.35	0.00
485.53	0.00
485.71	65.54
485.89	46.81
486.07	18.72
486.25	37.45
486.43	60.85
486.61	25.75
486.78	0.00
486.96	0.00
487.14	25.75
487.32	32.77
487.50	72.56
487.68	0.00
487.85	4.68
488.03	0.00
488.21	0.00
488.39	0.00
488.57	30.43
488.75	53.83
488.92	70.22
489.10	74.90
489.28	70.22
489.46	0.00
489.64	18.72
489.81	51.49
489.99	0.00
490.17	74.90
490.35	39.79
490.53	65.54
490.70	53.83
490.88	49.15
491.06	58.51
491.24	65.54
491.41	74.90
491.59	0.00
491.77	74.90
491.95	16.38
492.13	21.06
492.30	37.45
492.48	14.04
492.66	9.36
492.84	70.22
493.01	117.03
493.19	91.28
493.37	35.11
493.54	65.54
493.72	9.36
493.90	86.60
494.08	100.64
494.25	81.92
494.43	53.83
494.61	0.00
494.79	35.11
494.96	11.70
495.14	46.81
495.32	53.83
495.49	51.49
495.67	44.47
495.85	147.45
496.02	58.51
496.20	37.45
496.38	65.54
496.55	70.22
496.73	53.83
496.91	44.47
497.09	44.47
497.26	81.92
497.44	7.02
497.62	81.92
497.79	0.00
497.97	42.13
498.14	102.98
498.32	88.94
498.50	30.43
498.67	0.00
498.85	0.00
499.03	0.00
499.20	81.92
499.38	49.15
499.56	119.37
499.73	16.38
499.91	16.38
500.08	93.62
500.26	0.00
500.44	0.00
500.61	18.72
500.79	119.37
500.97	77.24
501.14	16.38
501.32	14.04
501.49	42.13
501.67	72.56
501.84	0.00
502.02	84.26
502.20	77.24
502.37	7.02
502.55	84.26
502.72	60.85
502.90	95.96
503.07	28.09
503.25	42.13
503.43	32.77
503.60	0.00
503.78	32.77
503.95	74.90
504.13	56.17
504.30	0.00
504.48	53.83
504.65	42.13
504.83	39.79
505.01	18.72
505.18	30.43
505.36	32.77
505.53	32.77
505.71	46.81
505.88	7.02
506.06	88.94
506.23	77.24
506.41	9.36
506.58	119.37
506.76	16.38
506.93	65.54
507.11	65.54
507.28	18.72
507.46	37.45
507.63	30.43
507.81	37.45
507.98	32.77
508.16	60.85
508.33	60.85
508.50	11.70
508.68	0.00
508.85	110.01
509.03	0.00
509.20	32.77
509.38	49.15
509.55	7.02
509.73	25.75
509.90	0.00
510.08	0.00
510.25	2.34
510.42	46.81
510.60	21.06
510.77	51.49
510.95	42.13
511.12	21.06
511.30	46.81
511.47	32.77
511.64	91.28
511.82	105.32
511.99	86.60
512.17	112.35
512.34	95.96
512.51	72.56
512.69	11.70
512.86	63.19
513.04	28.09
513.21	30.43
513.38	56.17
513.56	77.24
513.73	32.77
513.90	18.72
514.08	67.88
514.25	42.13
514.43	65.54
514.60	23.41
514.77	0.00
514.95	102.98
515.12	79.58
515.29	35.11
515.47	46.81
515.64	37.45
515.81	16.38
515.99	58.51
516.16	7.02
516.33	37.45
516.51	28.09
516.68	79.58
516.85	30.43
517.03	0.00
517.20	88.94
517.37	88.94
517.54	39.79
517.72	25.75
517.89	100.64
518.06	39.79
518.24	42.13
518.41	30.43
518.58	0.00
518.75	81.92
518.93	44.47
519.10	42.13
519.27	21.06
519.45	63.19
519.62	42.13
519.79	0.00
519.96	35.11
520.14	18.72
520.31	79.58
520.48	0.00
520.65	30.43
520.83	28.09
521.00	105.32
521.17	16.38
521.34	39.79
521.52	53.83
521.69	35.11
521.86	56.17
522.03	84.26
522.20	88.94
522.38	100.64
522.55	152.13
522.72	46.81
522.89	91.28
523.07	70.22
523.24	30.43
523.41	44.47
523.58	81.92
523.75	18.72
523.92	72.56
524.10	32.77
524.27	37.45
524.44	14.04
524.61	0.00
524.78	51.49
524.96	0.00
525.13	79.58
525.30	117.03
525.47	98.30
525.64	7.02
525.81	72.56
525.98	23.41
526.16	98.30
526.33	49.15
526.50	39.79
526.67	0.00
526.84	0.00
527.01	32.77
527.18	98.30
527.36	14.04
527.53	49.15
527.70	21.06
527.87	86.60
528.04	70.22
528.21	114.69
528.38	79.58
528.55	88.94
528.72	102.98
528.89	21.06
529.07	37.45
529.24	86.60
529.41	58.51
529.58	7.02
529.75	30.43
529.92	135.75
530.09	49.15
530.26	0.00
530.43	77.24
530.60	39.79
530.77	67.88
530.94	79.58
531.11	44.47
531.28	46.81
531.46	51.49
531.63	21.06
531.80	7.02
531.97	110.01
532.14	74.90
532.31	67.88
532.48	72.56
532.65	60.85
532.82	70.22
532.99	0.00
533.16	81.92
533.33	56.17
533.50	84.26
533.67	77.24
533.84	44.47
534.01	77.24
534.18	18.72
534.35	0.00
534.52	14.04
534.69	16.38
534.86	30.43
535.03	79.58
535.20	28.09
535.37	44.47
535.54	18.72
535.71	39.79
535.88	93.62
536.05	32.77
536.22	44.47
536.38	72.56
536.55	86.60
536.72	58.51
536.89	79.58
537.06	0.00
537.23	46.81
537.40	105.32
537.57	107.66
537.74	23.41
537.91	81.92
538.08	107.66
538.25	32.77
538.42	114.69
538.59	53.83
538.75	25.75
538.92	37.45
539.09	86.60
539.26	0.00
539.43	91.28
539.60	60.85
539.77	121.71
539.94	35.11
540.11	91.28
540.28	84.26
540.44	23.41
540.61	25.75
540.78	4.68
540.95	74.90
541.12	28.09
541.29	0.00
541.46	63.19
541.62	42.13
541.79	37.45
541.96	65.54
542.13	25.75
542.30	49.15
542.47	74.90
542.63	4.68
542.80	30.43
542.97	114.69
543.14	0.00
543.31	84.26
543.48	53.83
543.64	46.81
543.81	0.00
543.98	37.45
544.15	25.75
544.32	102.98
544.48	14.04
544.65	58.51
544.82	46.81
544.99	44.47
545.16	44.47
545.32	0.00
545.49	79.58
545.66	107.66
545.83	110.01
546.00	98.30
546.16	117.03
546.33	56.17
546.50	46.81
546.67	133.41
546.83	51.49
547.00	18.72
547.17	88.94
547.34	77.24
547.50	112.35
547.67	107.66
547.84	67.88
548.00	60.85
548.17	81.92
548.34	53.83
548.51	51.49
548.67	35.11
548.84	46.81
549.01	44.47
549.18	39.79
549.34	58.51
549.51	49.15
549.68	0.00
549.84	35.11
550.01	74.90
550.18	88.94
550.34	0.00
550.51	46.81
550.68	112.35
550.84	88.94
551.01	112.35
551.18	91.28
551.34	105.32
551.51	70.22
551.68	37.45
551.84	14.04
552.01	11.70
552.18	25.75
552.34	0.00
552.51	37.45
552.68	32.77
552.84	58.51
553.01	65.54
553.18	81.92
553.34	88.94
553.51	23.41
553.67	86.60
553.84	98.30
554.01	102.98
554.17	100.64
554.34	53.83
554.51	28.09
554.67	100.64
554.84	95.96
555.00	37.45
555.17	39.79
555.33	58.51
555.50	81.92
555.67	65.54
555.83	63.19
556.00	0.00
556.16	53.83
556.33	0.00
556.50	74.90
556.66	0.00
556.83	70.22
556.99	91.28
557.16	21.06
557.32	79.58
557.49	0.00
557.65	0.00
557.82	74.90
557.98	93.62
558.15	49.15
558.32	49.15
558.48	0.00
558.65	30.43
558.81	25.75
558.98	42.13
559.14	86.60
559.31	81.92
559.47	60.85
559.64	0.00
559.80	60.85
559.97	46.81
560.13	58.51
560.30	79.58
560.46	30.43
560.63	42.13
560.79	4.68
560.96	39.79
561.12	58.51
561.29	49.15
561.45	35.11
561.61	30.43
561.78	49.15
561.94	18.72
562.11	0.00
562.27	25.75
562.44	14.04
562.60	23.41
562.77	11.70
562.93	21.06
563.10	95.96
563.26	0.00
563.42	37.45
563.59	51.49
563.75	16.38
563.92	67.88
564.08	67.88
564.24	56.17
564.41	67.88
564.57	23.41
564.74	4.68
564.90	86.60
565.07	88.94
565.23	0.00
565.39	16.38
565.56	30.43
565.72	56.17
565.88	0.00
566.05	28.09
566.21	21.06
566.38	35.11
566.54	91.28
566.70	39.79
566.87	37.45
567.03	32.77
567.19	32.77
567.36	72.56
567.52	63.19
567.68	86.60
567.85	0.00
568.01	79.58
568.17	65.54
568.34	42.13
568.50	81.92
568.66	60.85
568.83	49.15
568.99	95.96
569.15	23.41
569.32	79.58
569.48	42.13
569.64	67.88
569.81	32.77
569.97	46.81
570.13	79.58
570.30	74.90
570.46	53.83
570.62	74.90
570.78	42.13
570.95	42.13
571.11	2.34
571.27	79.58
571.43	42.13
571.60	60.85
571.76	28.09
571.92	46.81
572.09	49.15
572.25	37.45
572.41	154.48
572.57	74.90
572.74	0.00
572.90	74.90
573.06	21.06
573.22	42.13
573.38	84.26
573.55	0.00
573.71	46.81
573.87	14.04
574.03	58.51
574.20	16.38
574.36	21.06
574.52	30.43
574.68	77.24
574.84	32.77
575.01	91.28
575.17	37.45
575.33	11.70
575.49	60.85
575.65	39.79
575.82	0.00
575.98	95.96
576.14	11.70
576.30	28.09
576.46	46.81
576.62	63.19
576.79	44.47
576.95	46.81
577.11	46.81
577.27	7.02
577.43	51.49
577.59	58.51
577.75	25.75
577.92	77.24
578.08	9.36
578.24	28.09
578.40	91.28
578.56	0.00
578.72	4.68
578.88	42.13
579.04	65.54
579.21	18.72
579.37	95.96
579.53	25.75
579.69	67.88
579.85	46.81
580.01	65.54
580.17	21.06
580.33	0.00
580.49	18.72
580.65	23.41
580.82	110.01
580.98	30.43
581.14	65.54
581.30	124.05
581.46	67.88
581.62	28.09
581.78	65.54
581.94	93.62
582.10	56.17
582.26	0.00
582.42	93.62
582.58	0.00
582.74	42.13
582.90	77.24
583.06	28.09
583.22	114.69
583.38	65.54
583.54	49.15
583.70	53.83
583.86	72.56
584.02	16.38
584.18	107.66
584.34	0.00
584.50	18.72
584.66	0.00
584.82	37.45
584.98	51.49
585.14	46.81
585.30	46.81
585.46	56.17
585.62	88.94
585.78	39.79
585.94	46.81
586.10	42.13
586.26	60.85
586.42	98.30
586.58	0.00
586.74	39.79
586.90	79.58
587.06	72.56
587.22	63.19
587.38	70.22
587.54	9.36
587.70	98.30
587.86	49.15
588.02	107.66
588.18	77.24
588.34	58.51
588.49	58.51
588.65	0.00
588.81	0.00
588.97	93.62
589.13	74.90
589.29	18.72
589.45	60.85
589.61	28.09
589.77	56.17
589.93	11.70
590.08	7.02
590.24	65.54
590.40	23.41
590.56	42.13
590.72	105.32
590.88	9.36
591.04	25.75
591.20	58.51
591.35	53.83
591.51	100.64
591.67	2.34
591.83	14.04
591.99	0.00
592.15	49.15
592.31	35.11
592.46	42.13
592.62	65.54
592.78	56.17
592.94	23.41
593.10	11.70
593.26	14.04
593.41	81.92
593.57	7.02
593.73	21.06
593.89	74.90
594.05	44.47
594.20	0.00
594.36	2.34
594.52	70.22
594.68	119.37
594.84	32.77
594.99	18.72
595.15	2.34
595.31	95.96
595.47	14.04
595.62	53.83
595.78	23.41
595.94	60.85
596.10	30.43
596.25	74.90
596.41	67.88
596.57	25.75
596.73	18.72
596.88	28.09
597.04	63.19
597.20	25.75
597.36	37.45
597.51	44.47
597.67	21.06
597.83	32.77
597.99	32.77
598.14	37.45
598.30	35.11
598.46	72.56
598.61	149.79
598.77	58.51
598.93	0.00
599.09	88.94
599.24	0.00
599.40	0.00
599.56	63.19
599.71	72.56
599.87	72.56
600.03	51.49
600.18	44.47
600.34	49.15
600.50	65.54
600.65	133.41
600.81	42.13
600.97	23.41
601.12	77.24
601.28	65.54
601.44	39.79
601.59	0.00
601.75	0.00
601.91	72.56
602.06	46.81
602.22	70.22
602.37	70.22
602.53	93.62
602.69	77.24
602.84	0.00
603.00	58.51
603.16	30.43
603.31	145.11
603.47	44.47
603.62	0.00
603.78	14.04
603.94	23.41
604.09	4.68
604.25	49.15
604.40	14.04
604.56	84.26
604.71	32.77
604.87	56.17
605.03	46.81
605.18	147.45
605.34	86.60
605.49	28.09
605.65	30.43
605.80	35.11
605.96	35.11
606.12	11.70
606.27	67.88
606.43	95.96
606.58	0.00
606.74	16.38
606.89	4.68
607.05	86.60
607.20	35.11
607.36	88.94
607.51	0.00
607.67	53.83
607.82	67.88
607.98	107.66
608.13	70.22
608.29	35.11
608.44	79.58
608.60	16.38
608.75	60.85
608.91	37.45
609.06	95.96
609.22	100.64
609.37	28.09
609.53	0.00
609.68	67.88
609.84	42.13
609.99	65.54
610.15	74.90
610.30	51.49
610.46	35.11
610.61	46.81
610.76	65.54
610.92	88.94
611.07	72.56
611.23	60.85
611.38	0.00
611.54	56.17
611.69	4.68
611.84	53.83
612.00	65.54
612.15	51.49
612.31	30.43
612.46	7.02
612.62	67.88
612.77	138.09
612.92	46.81
613.08	70.22
613.23	39.79
613.39	37.45
613.54	56.17
613.69	81.92
613.85	128.73
614.00	46.81
614.15	105.32
614.31	30.43
614.46	16.38
614.62	112.35
614.77	0.00
614.92	0.00
615.08	65.54
615.23	60.85
615.38	2.34
615.54	84.26
615.69	98.30
615.84	93.62
616.00	56.17
616.15	88.94
616.30	81.92
616.46	102.98
616.61	119.37
616.76	35.11
616.92	56.17
617.07	63.19
617.22	72.56
617.37	18.72
617.53	65.54
617.68	0.00
617.83	65.54
617.99	74.90
618.14	28.09
618.29	44.47
618.45	0.00
618.60	60.85
618.75	46.81
618.90	14.04
619.06	91.28
619.21	79.58
619.36	18.72
619.51	28.09
619.67	0.00
619.82	86.60
619.97	21.06
620.12	0.00
620.28	0.00
620.43	0.00
620.58	77.24
620.73	98.30
620.89	7.02
621.04	67.88
621.19	60.85
621.34	23.41
621.49	58.51
621.65	0.00
621.80	16.38
621.95	67.88
622.10	16.38
622.25	25.75
622.41	25.75
622.56	70.22
622.71	84.26
622.86	42.13
623.01	16.38
623.16	42.13
623.32	126.39
623.47	28.09
623.62	32.77
623.77	117.03
623.92	51.49
624.07	0.00
624.23	32.77
624.38	25.75
624.53	30.43
624.68	18.72
624.83	63.19
624.98	46.81
625.13	49.15
625.29	84.26
625.44	35.11
625.59	51.49
625.74	60.85
625.89	46.81
626.04	30.43
626.19	0.00
626.34	37.45
626.49	60.85
626.65	23.41
626.80	74.90
626.95	42.13
627.10	100.64
627.25	88.94
627.40	79.58
627.55	114.69
627.70	60.85
627.85	2.34
628.00	86.60
628.15	91.28
628.30	93.62
628.45	16.38
628.60	56.17
628.76	28.09
628.91	0.00
629.06	63.19
629.21	65.54
629.36	32.77
629.51	58.51
629.66	0.00
629.81	9.36
629.96	18.72
630.11	23.41
630.26	72.56
630.41	32.77
630.56	49.15
630.71	72.56
630.86	51.49
631.01	35.11
631.16	0.00
631.31	46.81
631.46	16.38
631.61	53.83
631.76	0.00
631.91	14.04
632.06	42.13
632.21	91.28
632.36	67.88
632.51	74.90
632.66	81.92
632.81	11.70
632.96	42.13
633.10	58.51
633.25	35.11
633.40	81.92
633.55	51.49
633.70	11.70
633.85	42.13
634.00	0.00
634.15	39.79
634.30	9.36
634.45	0.00
634.60	49.15
634.75	32.77
634.90	35.11
635.05	0.00
635.19	4.68
635.34	18.72
635.49	49.15
635.64	74.90
635.79	30.43
635.94	0.00
636.09	53.83
636.24	28.09
636.39	49.15
636.53	32.77
636.68	14.04
636.83	0.00
636.98	91.28
637.13	42.13
637.28	18.72
637.43	56.17
637.57	18.72
637.72	2.34
637.87	25.75
638.02	84.26
638.17	84.26
638.32	7.02
638.46	30.43
638.61	81.92
638.76	102.98
638.91	32.77
639.06	60.85
639.20	28.09
639.35	4.68
639.50	51.49
639.65	53.83
639.80	53.83
639.94	16.38
640.09	46.81
640.24	88.94
640.39	60.85
640.54	25.75
640.68	51.49
640.83	51.49
640.98	35.11
641.13	112.35
641.27	0.00
641.42	102.98
641.57	60.85
641.72	30.43
641.86	0.00
642.01	23.41
642.16	72.56
642.31	39.79
642.45	63.19
642.60	128.73
642.75	51.49
642.90	0.00
643.04	32.77
643.19	0.00
643.34	70.22
643.48	21.06
643.63	23.41
643.78	58.51
643.93	74.90
644.07	100.64
644.22	28.09
644.37	88.94
644.51	42.13
644.66	18.72
644.81	0.00
644.95	9.36
645.10	107.66
645.25	18.72
645.39	21.06
645.54	44.47
645.69	49.15
645.83	77.24
645.98	86.60
646.13	84.26
646.27	4.68
646.42	32.77
646.57	105.32
646.71	65.54
646.86	16.38
647.00	86.60
647.15	60.85
647.30	32.77
647.44	28.09
647.59	30.43
647.74	74.90
647.88	88.94
648.03	0.00
648.17	23.41
648.32	79.58
648.47	51.49
648.61	4.68
648.76	16.38
648.90	16.38
649.05	42.13
649.20	0.00
649.34	56.17
649.49	35.11
649.63	30.43
649.78	0.00
649.92	23.41
650.07	53.83
650.21	63.19
650.36	0.00
650.51	0.00
650.65	105.32
650.80	16.38
650.94	0.00
651.09	49.15
651.23	110.01
651.38	30.43
651.52	0.00
651.67	56.17
651.81	42.13
651.96	28.09
652.10	49.15
652.25	77.24
652.39	84.26
652.54	65.54
652.68	67.88
652.83	63.19
652.97	11.70
653.12	0.00
653.26	0.00
653.41	51.49
653.55	44.47
653.70	84.26
653.84	23.41
653.99	44.47
654.13	28.09
654.27	63.19
654.42	65.54
654.56	28.09
654.71	0.00
654.85	7.02
655.00	65.54
655.14	37.45
655.29	95.96
655.43	28.09
655.57	140.43
655.72	16.38
655.86	60.85
656.01	30.43
656.15	53.83
656.30	0.00
656.44	32.77
656.58	60.85
656.73	51.49
656.87	60.85
657.01	0.00
657.16	102.98
657.30	0.00
657.45	0.00
657.59	42.13
657.73	42.13
657.88	91.28
658.02	0.00
658.16	51.49
658.31	56.17
658.45	53.83
658.60	39.79
658.74	0.00
658.88	63.19
659.03	53.83
659.17	77.24
659.31	70.22
659.46	65.54
659.60	0.00
659.74	14.04
659.89	11.70
660.03	0.00
660.17	37.45
660.32	51.49
660.46	0.00
660.60	65.54
660.74	32.77
660.89	56.17
661.03	81.92
661.17	23.41
661.32	49.15
661.46	16.38
661.60	107.66
661.74	81.92
661.89	9.36
662.03	51.49
662.17	91.28
662.31	0.00
662.46	95.96
662.60	65.54
662.74	112.35
662.88	79.58
663.03	11.70
663.17	32.77
663.31	0.00
663.45	42.13
663.60	16.38
663.74	18.72
663.88	84.26
664.02	84.26
664.17	25.75
664.31	0.00
664.45	105.32
664.59	93.62
664.73	14.04
664.88	53.83
665.02	21.06
665.16	42.13
665.30	63.19
665.44	79.58
665.59	53.83
665.73	35.11
665.87	86.60
666.01	65.54
666.15	0.00
666.29	51.49
666.44	88.94
666.58	14.04
666.72	49.15
666.86	0.00
667.00	42.13
667.14	28.09
667.28	53.83
667.43	32.77
667.57	9.36
667.71	0.00
667.85	35.11
667.99	42.13
668.13	72.56
668.27	81.92
668.41	39.79
668.56	0.00
668.70	28.09
668.84	25.75
668.98	42.13
669.12	42.13
669.26	32.77
669.40	30.43
669.54	0.00
669.68	58.51
669.82	42.13
669.96	39.79
670.10	42.13
670.25	25.75
670.39	25.75
670.53	117.03
670.67	0.00
670.81	81.92
670.95	0.00
671.09	4.68
671.23	98.30
671.37	63.19
671.51	37.45
671.65	0.00
671.79	2.34
671.93	18.72
672.07	72.56
672.21	51.49
672.35	44.47
672.49	0.00
672.63	44.47
672.77	67.88
672.91	37.45
673.05	16.38
673.19	35.11
673.33	0.00
673.47	53.83
673.61	23.41
673.75	79.58
673.89	39.79
674.03	88.94
674.17	0.00
674.31	11.70
674.45	49.15
674.59	56.17
674.73	0.00
674.87	0.00
675.01	67.88
675.15	42.13
675.29	37.45
675.43	84.26
675.56	11.70
675.70	0.00
675.84	56.17
675.98	25.75
676.12	0.00
676.26	0.00
676.40	65.54
676.54	16.38
676.68	95.96
676.82	23.41
676.96	91.28
677.10	60.85
677.23	102.98
677.37	7.02
677.51	28.09
677.65	51.49
677.79	25.75
677.93	63.19
678.07	42.13
678.21	4.68
678.34	35.11
678.48	67.88
678.62	67.88
678.76	0.00
678.90	0.00
679.04	0.00
679.18	9.36
679.31	25.75
679.45	0.00
679.59	100.64
679.73	95.96
679.87	0.00
680.00	51.49
680.14	28.09
680.28	23.41
680.42	79.58
680.56	42.13
680.70	77.24
680.83	49.15
680.97	28.09
681.11	16.38
681.25	23.41
681.39	102.98
681.52	79.58
681.66	67.88
681.80	44.47
681.94	30.43
682.07	60.85
682.21	11.70
682.35	72.56
682.49	4.68
682.62	28.09
682.76	0.00
682.90	51.49
683.04	32.77
683.17	21.06
683.31	0.00
683.45	100.64
683.59	30.43
683.72	0.00
683.86	65.54
684.00	126.39
684.13	39.79
684.27	30.43
684.41	30.43
684.55	18.72
684.68	9.36
684.82	11.70
684.96	60.85
685.09	21.06
685.23	70.22
685.37	42.13
685.50	28.09
685.64	49.15
685.78	0.00
685.91	49.15
686.05	7.02
686.19	9.36
686.32	0.00
686.46	35.11
686.60	79.58
686.73	7.02
686.87	30.43
687.01	21.06
687.14	21.06
687.28	86.60
687.42	107.66
687.55	0.00
687.69	53.83
687.82	0.00
687.96	0.00
688.10	23.41
688.23	44.47
688.37	16.38
688.50	0.00
688.64	46.81
688.78	39.79
688.91	23.41
689.05	11.70
689.18	53.83
689.32	0.00
689.46	16.38
689.59	16.38
689.73	9.36
689.86	58.51
690.00	2.34
690.13	0.00
690.27	49.15
690.41	93.62
690.54	35.11
690.68	37.45
690.81	28.09
690.95	32.77
691.08	0.00
691.22	28.09
691.35	53.83
691.49	4.68
691.62	51.49
691.76	79.58
691.89	53.83
692.03	67.88
692.16	39.79
692.30	60.85
692.43	42.13
692.57	84.26
692.70	0.00
692.84	42.13
692.97	35.11
693.11	93.62
693.24	81.92
693.38	9.36
693.51	7.02
693.65	67.88
693.78	28.09
693.92	7.02
694.05	11.70
694.19	42.13
694.32	0.00
694.45	25.75
694.59	0.00
694.72	42.13
694.86	51.49
694.99	14.04
695.13	46.81
695.26	51.49
695.39	51.49
695.53	44.47
695.66	102.98
695.80	74.90
695.93	58.51
696.07	117.03
696.20	0.00
696.33	0.00
696.47	39.79
696.60	7.02
696.73	46.81
696.87	18.72
697.00	49.15
697.14	79.58
697.27	56.17
697.40	32.77
697.54	25.75
697.67	44.47
697.80	49.15
697.94	60.85
698.07	42.13
698.21	25.75
698.34	44.47
698.47	100.64
698.61	44.47
698.74	21.06
698.87	25.75
699.01	32.77
699.14	88.94
699.27	25.75
699.40	107.66
699.54	14.04
699.67	56.17
699.80	147.45
699.94	56.17
700.07	49.15
700.20	60.85
700.34	53.83
700.47	42.13
700.60	42.13
700.73	14.04
700.87	86.60
701.00	72.56
701.13	21.06
701.26	0.00
701.40	0.00
701.53	46.81
701.66	37.45
701.79	0.00
701.93	0.00
702.06	23.41
702.19	37.45
702.32	51.49
702.46	0.00
702.59	102.98
702.72	37.45
702.85	0.00
702.99	18.72
703.12	67.88
703.25	102.98
703.38	0.00
703.51	0.00
703.65	39.79
703.78	18.72
703.91	7.02
704.04	32.77
704.17	0.00
704.31	4.68
704.44	28.09
704.57	35.11
704.70	65.54
704.83	2.34
704.96	37.45
705.10	42.13
705.23	46.81
>>>>>End Processed Spectral Data<<<<<
