SpectraSuite Data File
++++++++++++++++++++++++++++++++++++
Date: Fri Oct 04 12:13:45 GMT-05:00 2013
User: price-jones
Dark Spectrum Present: No
Reference Spectrum Present: No
Number of Sampled Component Spectra: 1
Spectrometers: USB2+H05261
Integration Time (usec): 10000 (USB2+H05261)
Spectra Averaged: 1 (USB2+H05261)
Boxcar Smoothing: 0 (USB2+H05261)
Correct for Electrical Dark: No (USB2+H05261)
Strobe/Lamp Enabled: No (USB2+H05261)
Correct for Detector Non-linearity: No (USB2+H05261)
Correct for Stray Light: No (USB2+H05261)
Number of Pixels in Processed Spectrum: 2048
>>>>>Begin Processed Spectral Data<<<<<
365.73	0.00
365.92	0.00
366.12	0.00
366.32	0.00
366.52	0.00
366.72	0.00
366.91	0.00
367.11	0.00
367.31	0.00
367.51	0.00
367.70	0.00
367.90	0.00
368.10	0.00
368.30	0.00
368.49	0.00
368.69	0.00
368.89	0.00
369.09	0.00
369.28	0.00
369.48	0.00
369.68	0.00
369.87	0.00
370.07	0.00
370.27	0.00
370.47	0.00
370.66	0.00
370.86	0.00
371.06	0.00
371.25	0.00
371.45	0.00
371.65	21.06
371.84	35.11
372.04	0.00
372.24	0.00
372.44	0.00
372.63	25.75
372.83	81.92
373.03	28.09
373.22	0.00
373.42	0.00
373.62	0.00
373.81	11.70
374.01	67.88
374.21	28.09
374.40	77.24
374.60	0.00
374.79	53.83
374.99	79.58
375.19	4.68
375.38	35.11
375.58	0.00
375.78	91.28
375.97	53.83
376.17	98.30
376.37	79.58
376.56	42.13
376.76	74.90
376.95	18.72
377.15	2.34
377.35	37.45
377.54	14.04
377.74	0.00
377.93	46.81
378.13	23.41
378.33	65.54
378.52	2.34
378.72	56.17
378.91	0.00
379.11	0.00
379.31	0.00
379.50	2.34
379.70	11.70
379.89	0.00
380.09	44.47
380.28	49.15
380.48	42.13
380.68	58.51
380.87	56.17
381.07	16.38
381.26	46.81
381.46	32.77
381.65	72.56
381.85	0.00
382.04	60.85
382.24	0.00
382.43	0.00
382.63	56.17
382.83	81.92
383.02	21.06
383.22	21.06
383.41	39.79
383.61	9.36
383.80	79.58
384.00	0.00
384.19	16.38
384.39	0.00
384.58	21.06
384.78	63.19
384.97	51.49
385.17	49.15
385.36	18.72
385.56	117.03
385.75	11.70
385.95	0.00
386.14	23.41
386.34	11.70
386.53	51.49
386.72	0.00
386.92	49.15
387.11	0.00
387.31	79.58
387.50	7.02
387.70	28.09
387.89	126.39
388.09	51.49
388.28	44.47
388.48	37.45
388.67	14.04
388.86	4.68
389.06	7.02
389.25	56.17
389.45	79.58
389.64	63.19
389.84	18.72
390.03	60.85
390.22	0.00
390.42	81.92
390.61	2.34
390.81	86.60
391.00	0.00
391.19	0.00
391.39	51.49
391.58	39.79
391.78	58.51
391.97	7.02
392.16	37.45
392.36	32.77
392.55	7.02
392.75	51.49
392.94	91.28
393.13	44.47
393.33	74.90
393.52	0.00
393.71	0.00
393.91	2.34
394.10	51.49
394.29	16.38
394.49	25.75
394.68	65.54
394.88	60.85
395.07	0.00
395.26	37.45
395.46	0.00
395.65	4.68
395.84	39.79
396.04	0.00
396.23	51.49
396.42	23.41
396.62	0.00
396.81	30.43
397.00	4.68
397.19	114.69
397.39	0.00
397.58	16.38
397.77	35.11
397.97	46.81
398.16	56.17
398.35	49.15
398.55	58.51
398.74	53.83
398.93	0.00
399.12	23.41
399.32	2.34
399.51	77.24
399.70	7.02
399.90	56.17
400.09	0.00
400.28	0.00
400.47	0.00
400.67	49.15
400.86	9.36
401.05	0.00
401.24	18.72
401.44	0.00
401.63	32.77
401.82	0.00
402.01	32.77
402.21	72.56
402.40	93.62
402.59	11.70
402.78	72.56
402.97	67.88
403.17	42.13
403.36	77.24
403.55	0.00
403.74	49.15
403.93	49.15
404.13	0.00
404.32	25.75
404.51	28.09
404.70	18.72
404.89	9.36
405.09	18.72
405.28	0.00
405.47	32.77
405.66	67.88
405.85	18.72
406.05	42.13
406.24	49.15
406.43	9.36
406.62	35.11
406.81	86.60
407.00	67.88
407.20	65.54
407.39	0.00
407.58	16.38
407.77	0.00
407.96	37.45
408.15	16.38
408.34	44.47
408.54	11.70
408.73	0.00
408.92	9.36
409.11	0.00
409.30	51.49
409.49	21.06
409.68	28.09
409.87	56.17
410.07	0.00
410.26	0.00
410.45	79.58
410.64	56.17
410.83	0.00
411.02	51.49
411.21	18.72
411.40	105.32
411.59	23.41
411.78	16.38
411.98	28.09
412.17	102.98
412.36	28.09
412.55	14.04
412.74	42.13
412.93	0.00
413.12	0.00
413.31	77.24
413.50	0.00
413.69	49.15
413.88	18.72
414.07	79.58
414.26	23.41
414.45	2.34
414.64	0.00
414.83	14.04
415.02	77.24
415.22	67.88
415.41	0.00
415.60	56.17
415.79	37.45
415.98	0.00
416.17	74.90
416.36	0.00
416.55	56.17
416.74	51.49
416.93	95.96
417.12	60.85
417.31	14.04
417.50	44.47
417.69	14.04
417.88	0.00
418.07	112.35
418.26	70.22
418.45	0.00
418.64	86.60
418.83	4.68
419.02	37.45
419.21	49.15
419.39	9.36
419.58	25.75
419.77	32.77
419.96	35.11
420.15	93.62
420.34	4.68
420.53	42.13
420.72	0.00
420.91	67.88
421.10	4.68
421.29	102.98
421.48	58.51
421.67	51.49
421.86	30.43
422.05	35.11
422.24	42.13
422.43	32.77
422.61	44.47
422.80	93.62
422.99	117.03
423.18	0.00
423.37	51.49
423.56	79.58
423.75	53.83
423.94	9.36
424.13	88.94
424.32	56.17
424.50	65.54
424.69	95.96
424.88	51.49
425.07	39.79
425.26	46.81
425.45	74.90
425.64	63.19
425.83	42.13
426.01	35.11
426.20	70.22
426.39	0.00
426.58	35.11
426.77	7.02
426.96	30.43
427.15	74.90
427.33	119.37
427.52	7.02
427.71	0.00
427.90	25.75
428.09	21.06
428.28	0.00
428.46	0.00
428.65	30.43
428.84	72.56
429.03	0.00
429.22	0.00
429.40	0.00
429.59	79.58
429.78	28.09
429.97	49.15
430.16	58.51
430.34	14.04
430.53	0.00
430.72	72.56
430.91	42.13
431.10	44.47
431.28	0.00
431.47	21.06
431.66	0.00
431.85	25.75
432.03	21.06
432.22	35.11
432.41	35.11
432.60	37.45
432.79	114.69
432.97	18.72
433.16	0.00
433.35	0.00
433.54	51.49
433.72	46.81
433.91	0.00
434.10	0.00
434.28	0.00
434.47	0.00
434.66	0.00
434.85	58.51
435.03	86.60
435.22	42.13
435.41	39.79
435.59	74.90
435.78	11.70
435.97	81.92
436.16	60.85
436.34	0.00
436.53	32.77
436.72	7.02
436.90	37.45
437.09	70.22
437.28	51.49
437.46	58.51
437.65	67.88
437.84	35.11
438.02	0.00
438.21	65.54
438.40	28.09
438.58	18.72
438.77	39.79
438.96	60.85
439.14	18.72
439.33	39.79
439.52	35.11
439.70	70.22
439.89	49.15
440.08	21.06
440.26	53.83
440.45	63.19
440.63	25.75
440.82	11.70
441.01	9.36
441.19	56.17
441.38	21.06
441.57	7.02
441.75	74.90
441.94	60.85
442.12	30.43
442.31	0.00
442.50	105.32
442.68	88.94
442.87	0.00
443.05	0.00
443.24	0.00
443.43	56.17
443.61	32.77
443.80	74.90
443.98	74.90
444.17	37.45
444.35	23.41
444.54	49.15
444.73	25.75
444.91	42.13
445.10	35.11
445.28	16.38
445.47	0.00
445.65	7.02
445.84	32.77
446.02	65.54
446.21	67.88
446.39	32.77
446.58	32.77
446.77	9.36
446.95	86.60
447.14	58.51
447.32	32.77
447.51	65.54
447.69	28.09
447.88	100.64
448.06	21.06
448.25	42.13
448.43	32.77
448.62	44.47
448.80	46.81
448.99	46.81
449.17	0.00
449.36	88.94
449.54	46.81
449.73	42.13
449.91	63.19
450.10	44.47
450.28	11.70
450.46	46.81
450.65	105.32
450.83	65.54
451.02	39.79
451.20	63.19
451.39	67.88
451.57	37.45
451.76	35.11
451.94	56.17
452.13	67.88
452.31	11.70
452.49	21.06
452.68	49.15
452.86	56.17
453.05	77.24
453.23	16.38
453.42	60.85
453.60	0.00
453.78	65.54
453.97	16.38
454.15	72.56
454.34	67.88
454.52	49.15
454.70	112.35
454.89	44.47
455.07	28.09
455.26	70.22
455.44	42.13
455.62	72.56
455.81	9.36
455.99	84.26
456.17	79.58
456.36	35.11
456.54	51.49
456.73	53.83
456.91	60.85
457.09	39.79
457.28	18.72
457.46	91.28
457.64	100.64
457.83	30.43
458.01	4.68
458.19	14.04
458.38	65.54
458.56	23.41
458.74	53.83
458.93	72.56
459.11	67.88
459.29	60.85
459.48	67.88
459.66	28.09
459.84	51.49
460.03	42.13
460.21	72.56
460.39	44.47
460.57	37.45
460.76	74.90
460.94	91.28
461.12	56.17
461.31	0.00
461.49	32.77
461.67	35.11
461.85	77.24
462.04	37.45
462.22	95.96
462.40	35.11
462.59	60.85
462.77	60.85
462.95	0.00
463.13	18.72
463.32	23.41
463.50	84.26
463.68	11.70
463.86	44.47
464.05	84.26
464.23	46.81
464.41	35.11
464.59	53.83
464.78	84.26
464.96	44.47
465.14	23.41
465.32	30.43
465.50	79.58
465.69	39.79
465.87	0.00
466.05	37.45
466.23	42.13
466.41	32.77
466.60	35.11
466.78	18.72
466.96	46.81
467.14	72.56
467.32	53.83
467.51	124.05
467.69	79.58
467.87	14.04
468.05	58.51
468.23	23.41
468.41	91.28
468.60	67.88
468.78	58.51
468.96	0.00
469.14	0.00
469.32	2.34
469.50	51.49
469.69	98.30
469.87	28.09
470.05	28.09
470.23	49.15
470.41	25.75
470.59	14.04
470.77	25.75
470.95	46.81
471.14	0.00
471.32	0.00
471.50	58.51
471.68	70.22
471.86	21.06
472.04	23.41
472.22	39.79
472.40	84.26
472.58	18.72
472.77	70.22
472.95	74.90
473.13	102.98
473.31	58.51
473.49	63.19
473.67	81.92
473.85	23.41
474.03	88.94
474.21	51.49
474.39	46.81
474.57	18.72
474.75	18.72
474.93	0.00
475.12	32.77
475.30	88.94
475.48	0.00
475.66	0.00
475.84	16.38
476.02	0.00
476.20	91.28
476.38	0.00
476.56	30.43
476.74	28.09
476.92	28.09
477.10	67.88
477.28	23.41
477.46	51.49
477.64	95.96
477.82	21.06
478.00	0.00
478.18	102.98
478.36	79.58
478.54	37.45
478.72	0.00
478.90	58.51
479.08	0.00
479.26	56.17
479.44	18.72
479.62	18.72
479.80	77.24
479.98	37.45
480.16	0.00
480.34	72.56
480.52	91.28
480.70	100.64
480.88	35.11
481.06	0.00
481.24	0.00
481.41	7.02
481.59	23.41
481.77	30.43
481.95	121.71
482.13	65.54
482.31	88.94
482.49	42.13
482.67	18.72
482.85	77.24
483.03	4.68
483.21	0.00
483.39	51.49
483.57	88.94
483.74	23.41
483.92	95.96
484.10	70.22
484.28	53.83
484.46	147.45
484.64	63.19
484.82	0.00
485.00	7.02
485.18	53.83
485.35	42.13
485.53	81.92
485.71	53.83
485.89	77.24
486.07	84.26
486.25	0.00
486.43	105.32
486.61	102.98
486.78	32.77
486.96	7.02
487.14	74.90
487.32	7.02
487.50	72.56
487.68	44.47
487.85	42.13
488.03	42.13
488.21	56.17
488.39	63.19
488.57	30.43
488.75	53.83
488.92	126.39
489.10	51.49
489.28	74.90
489.46	100.64
489.64	16.38
489.81	138.09
489.99	98.30
490.17	49.15
490.35	37.45
490.53	81.92
490.70	65.54
490.88	84.26
491.06	100.64
491.24	100.64
491.41	107.66
491.59	119.37
491.77	79.58
491.95	51.49
492.13	42.13
492.30	126.39
492.48	0.00
492.66	49.15
492.84	58.51
493.01	18.72
493.19	9.36
493.37	84.26
493.54	51.49
493.72	0.00
493.90	53.83
494.08	35.11
494.25	9.36
494.43	56.17
494.61	46.81
494.79	93.62
494.96	63.19
495.14	0.00
495.32	86.60
495.49	39.79
495.67	84.26
495.85	105.32
496.02	131.07
496.20	51.49
496.38	30.43
496.55	16.38
496.73	0.00
496.91	49.15
497.09	84.26
497.26	77.24
497.44	16.38
497.62	63.19
497.79	44.47
497.97	9.36
498.14	0.00
498.32	56.17
498.50	46.81
498.67	0.00
498.85	25.75
499.03	32.77
499.20	67.88
499.38	93.62
499.56	39.79
499.73	95.96
499.91	30.43
500.08	42.13
500.26	81.92
500.44	60.85
500.61	86.60
500.79	119.37
500.97	81.92
501.14	28.09
501.32	74.90
501.49	102.98
501.67	100.64
501.84	21.06
502.02	58.51
502.20	110.01
502.37	124.05
502.55	58.51
502.72	112.35
502.90	0.00
503.07	49.15
503.25	65.54
503.43	147.45
503.60	23.41
503.78	7.02
503.95	16.38
504.13	18.72
504.30	112.35
504.48	35.11
504.65	95.96
504.83	91.28
505.01	0.00
505.18	9.36
505.36	67.88
505.53	135.75
505.71	93.62
505.88	2.34
506.06	56.17
506.23	30.43
506.41	63.19
506.58	0.00
506.76	0.00
506.93	44.47
507.11	23.41
507.28	25.75
507.46	67.88
507.63	105.32
507.81	37.45
507.98	0.00
508.16	56.17
508.33	53.83
508.50	58.51
508.68	25.75
508.85	74.90
509.03	102.98
509.20	72.56
509.38	49.15
509.55	117.03
509.73	91.28
509.90	37.45
510.08	53.83
510.25	51.49
510.42	84.26
510.60	56.17
510.77	124.05
510.95	110.01
511.12	117.03
511.30	84.26
511.47	23.41
511.64	114.69
511.82	107.66
511.99	95.96
512.17	70.22
512.34	14.04
512.51	46.81
512.69	16.38
512.86	81.92
513.04	81.92
513.21	86.60
513.38	23.41
513.56	58.51
513.73	42.13
513.90	28.09
514.08	39.79
514.25	14.04
514.43	65.54
514.60	63.19
514.77	49.15
514.95	74.90
515.12	79.58
515.29	107.66
515.47	70.22
515.64	4.68
515.81	0.00
515.99	88.94
516.16	95.96
516.33	42.13
516.51	98.30
516.68	37.45
516.85	147.45
517.03	44.47
517.20	11.70
517.37	79.58
517.54	56.17
517.72	16.38
517.89	23.41
518.06	35.11
518.24	100.64
518.41	110.01
518.58	86.60
518.75	2.34
518.93	32.77
519.10	112.35
519.27	44.47
519.45	42.13
519.62	9.36
519.79	53.83
519.96	56.17
520.14	105.32
520.31	14.04
520.48	121.71
520.65	70.22
520.83	65.54
521.00	30.43
521.17	112.35
521.34	72.56
521.52	60.85
521.69	28.09
521.86	14.04
522.03	35.11
522.20	79.58
522.38	0.00
522.55	126.39
522.72	154.48
522.89	44.47
523.07	23.41
523.24	11.70
523.41	44.47
523.58	46.81
523.75	84.26
523.92	56.17
524.10	159.16
524.27	9.36
524.44	39.79
524.61	4.68
524.78	39.79
524.96	93.62
525.13	121.71
525.30	44.47
525.47	72.56
525.64	86.60
525.81	159.16
525.98	88.94
526.16	79.58
526.33	56.17
526.50	74.90
526.67	81.92
526.84	112.35
527.01	63.19
527.18	49.15
527.36	56.17
527.53	81.92
527.70	72.56
527.87	191.92
528.04	39.79
528.21	145.11
528.38	23.41
528.55	0.00
528.72	49.15
528.89	93.62
529.07	79.58
529.24	42.13
529.41	140.43
529.58	93.62
529.75	121.71
529.92	58.51
530.09	67.88
530.26	81.92
530.43	70.22
530.60	28.09
530.77	32.77
530.94	105.32
531.11	84.26
531.28	72.56
531.46	159.16
531.63	100.64
531.80	77.24
531.97	65.54
532.14	91.28
532.31	70.22
532.48	100.64
532.65	21.06
532.82	49.15
532.99	39.79
533.16	51.49
533.33	11.70
533.50	72.56
533.67	32.77
533.84	35.11
534.01	28.09
534.18	0.00
534.35	0.00
534.52	42.13
534.69	72.56
534.86	60.85
535.03	100.64
535.20	42.13
535.37	91.28
535.54	39.79
535.71	51.49
535.88	16.38
536.05	60.85
536.22	74.90
536.38	42.13
536.55	37.45
536.72	63.19
536.89	65.54
537.06	18.72
537.23	70.22
537.40	124.05
537.57	107.66
537.74	60.85
537.91	84.26
538.08	0.00
538.25	51.49
538.42	74.90
538.59	37.45
538.75	51.49
538.92	53.83
539.09	72.56
539.26	30.43
539.43	74.90
539.60	11.70
539.77	84.26
539.94	32.77
540.11	65.54
540.28	65.54
540.44	93.62
540.61	0.00
540.78	21.06
540.95	81.92
541.12	105.32
541.29	72.56
541.46	72.56
541.62	105.32
541.79	79.58
541.96	32.77
542.13	11.70
542.30	0.00
542.47	39.79
542.63	70.22
542.80	88.94
542.97	0.00
543.14	25.75
543.31	140.43
543.48	56.17
543.64	11.70
543.81	53.83
543.98	74.90
544.15	58.51
544.32	128.73
544.48	105.32
544.65	14.04
544.82	63.19
544.99	32.77
545.16	53.83
545.32	58.51
545.49	58.51
545.66	0.00
545.83	28.09
546.00	56.17
546.16	102.98
546.33	58.51
546.50	110.01
546.67	131.07
546.83	84.26
547.00	18.72
547.17	60.85
547.34	93.62
547.50	4.68
547.67	39.79
547.84	56.17
548.00	79.58
548.17	102.98
548.34	70.22
548.51	74.90
548.67	145.11
548.84	28.09
549.01	44.47
549.18	21.06
549.34	77.24
549.51	84.26
549.68	121.71
549.84	39.79
550.01	79.58
550.18	58.51
550.34	81.92
550.51	39.79
550.68	25.75
550.84	21.06
551.01	79.58
551.18	16.38
551.34	70.22
551.51	49.15
551.68	32.77
551.84	35.11
552.01	53.83
552.18	0.00
552.34	67.88
552.51	11.70
552.68	72.56
552.84	37.45
553.01	95.96
553.18	0.00
553.34	25.75
553.51	79.58
553.67	7.02
553.84	30.43
554.01	70.22
554.17	105.32
554.34	9.36
554.51	0.00
554.67	84.26
554.84	44.47
555.00	21.06
555.17	0.00
555.33	23.41
555.50	88.94
555.67	49.15
555.83	84.26
556.00	58.51
556.16	58.51
556.33	65.54
556.50	98.30
556.66	102.98
556.83	44.47
556.99	25.75
557.16	21.06
557.32	42.13
557.49	56.17
557.65	39.79
557.82	60.85
557.98	93.62
558.15	88.94
558.32	46.81
558.48	35.11
558.65	44.47
558.81	70.22
558.98	72.56
559.14	11.70
559.31	51.49
559.47	0.00
559.64	23.41
559.80	16.38
559.97	58.51
560.13	30.43
560.30	46.81
560.46	0.00
560.63	81.92
560.79	25.75
560.96	37.45
561.12	18.72
561.29	35.11
561.45	46.81
561.61	102.98
561.78	95.96
561.94	84.26
562.11	65.54
562.27	4.68
562.44	42.13
562.60	28.09
562.77	63.19
562.93	77.24
563.10	84.26
563.26	0.00
563.42	0.00
563.59	35.11
563.75	0.00
563.92	14.04
564.08	35.11
564.24	79.58
564.41	51.49
564.57	100.64
564.74	49.15
564.90	11.70
565.07	79.58
565.23	25.75
565.39	53.83
565.56	21.06
565.72	35.11
565.88	0.00
566.05	35.11
566.21	28.09
566.38	16.38
566.54	23.41
566.70	72.56
566.87	67.88
567.03	35.11
567.19	46.81
567.36	86.60
567.52	44.47
567.68	60.85
567.85	39.79
568.01	93.62
568.17	42.13
568.34	0.00
568.50	67.88
568.66	88.94
568.83	105.32
568.99	93.62
569.15	67.88
569.32	93.62
569.48	23.41
569.64	0.00
569.81	53.83
569.97	49.15
570.13	23.41
570.30	37.45
570.46	28.09
570.62	60.85
570.78	98.30
570.95	35.11
571.11	30.43
571.27	39.79
571.43	60.85
571.60	65.54
571.76	11.70
571.92	44.47
572.09	44.47
572.25	63.19
572.41	21.06
572.57	74.90
572.74	46.81
572.90	32.77
573.06	37.45
573.22	25.75
573.38	37.45
573.55	91.28
573.71	32.77
573.87	107.66
574.03	110.01
574.20	51.49
574.36	86.60
574.52	0.00
574.68	63.19
574.84	53.83
575.01	58.51
575.17	93.62
575.33	56.17
575.49	37.45
575.65	0.00
575.82	114.69
575.98	77.24
576.14	0.00
576.30	42.13
576.46	102.98
576.62	37.45
576.79	121.71
576.95	42.13
577.11	37.45
577.27	131.07
577.43	93.62
577.59	135.75
577.75	28.09
577.92	79.58
578.08	117.03
578.24	79.58
578.40	46.81
578.56	74.90
578.72	140.43
578.88	0.00
579.04	35.11
579.21	70.22
579.37	117.03
579.53	86.60
579.69	93.62
579.85	53.83
580.01	23.41
580.17	21.06
580.33	65.54
580.49	93.62
580.65	7.02
580.82	88.94
580.98	72.56
581.14	53.83
581.30	30.43
581.46	9.36
581.62	18.72
581.78	84.26
581.94	56.17
582.10	0.00
582.26	42.13
582.42	60.85
582.58	77.24
582.74	65.54
582.90	67.88
583.06	28.09
583.22	65.54
583.38	63.19
583.54	58.51
583.70	121.71
583.86	77.24
584.02	32.77
584.18	51.49
584.34	79.58
584.50	49.15
584.66	93.62
584.82	65.54
584.98	9.36
585.14	28.09
585.30	0.00
585.46	58.51
585.62	25.75
585.78	14.04
585.94	107.66
586.10	105.32
586.26	46.81
586.42	53.83
586.58	28.09
586.74	51.49
586.90	51.49
587.06	51.49
587.22	65.54
587.38	53.83
587.54	53.83
587.70	63.19
587.86	49.15
588.02	58.51
588.18	86.60
588.34	100.64
588.49	77.24
588.65	39.79
588.81	25.75
588.97	44.47
589.13	74.90
589.29	77.24
589.45	77.24
589.61	93.62
589.77	98.30
589.93	25.75
590.08	0.00
590.24	30.43
590.40	110.01
590.56	14.04
590.72	65.54
590.88	51.49
591.04	88.94
591.20	44.47
591.35	56.17
591.51	39.79
591.67	0.00
591.83	93.62
591.99	58.51
592.15	100.64
592.31	95.96
592.46	93.62
592.62	0.00
592.78	2.34
592.94	23.41
593.10	2.34
593.26	32.77
593.41	58.51
593.57	0.00
593.73	79.58
593.89	98.30
594.05	11.70
594.20	131.07
594.36	63.19
594.52	131.07
594.68	0.00
594.84	53.83
594.99	11.70
595.15	53.83
595.31	0.00
595.47	84.26
595.62	107.66
595.78	11.70
595.94	0.00
596.10	51.49
596.25	35.11
596.41	9.36
596.57	0.00
596.73	25.75
596.88	23.41
597.04	0.00
597.20	25.75
597.36	65.54
597.51	58.51
597.67	14.04
597.83	21.06
597.99	88.94
598.14	63.19
598.30	30.43
598.46	86.60
598.61	58.51
598.77	25.75
598.93	0.00
599.09	49.15
599.24	32.77
599.40	107.66
599.56	84.26
599.71	35.11
599.87	86.60
600.03	56.17
600.18	2.34
600.34	39.79
600.50	39.79
600.65	39.79
600.81	51.49
600.97	77.24
601.12	105.32
601.28	65.54
601.44	88.94
601.59	0.00
601.75	53.83
601.91	147.45
602.06	9.36
602.22	0.00
602.37	44.47
602.53	0.00
602.69	11.70
602.84	58.51
603.00	0.00
603.16	32.77
603.31	58.51
603.47	70.22
603.62	18.72
603.78	14.04
603.94	0.00
604.09	11.70
604.25	32.77
604.40	65.54
604.56	65.54
604.71	65.54
604.87	35.11
605.03	30.43
605.18	28.09
605.34	28.09
605.49	42.13
605.65	81.92
605.80	28.09
605.96	49.15
606.12	0.00
606.27	32.77
606.43	35.11
606.58	67.88
606.74	53.83
606.89	84.26
607.05	74.90
607.20	65.54
607.36	79.58
607.51	4.68
607.67	42.13
607.82	51.49
607.98	95.96
608.13	0.00
608.29	102.98
608.44	86.60
608.60	25.75
608.75	0.00
608.91	39.79
609.06	56.17
609.22	0.00
609.37	2.34
609.53	81.92
609.68	70.22
609.84	0.00
609.99	35.11
610.15	44.47
610.30	4.68
610.46	63.19
610.61	46.81
610.76	14.04
610.92	56.17
611.07	79.58
611.23	30.43
611.38	67.88
611.54	11.70
611.69	70.22
611.84	67.88
612.00	28.09
612.15	77.24
612.31	30.43
612.46	11.70
612.62	46.81
612.77	51.49
612.92	0.00
613.08	18.72
613.23	49.15
613.39	46.81
613.54	0.00
613.69	28.09
613.85	138.09
614.00	28.09
614.15	0.00
614.31	70.22
614.46	30.43
614.62	16.38
614.77	35.11
614.92	63.19
615.08	21.06
615.23	0.00
615.38	91.28
615.54	14.04
615.69	18.72
615.84	88.94
616.00	0.00
616.15	4.68
616.30	0.00
616.46	23.41
616.61	0.00
616.76	46.81
616.92	86.60
617.07	65.54
617.22	28.09
617.37	67.88
617.53	32.77
617.68	102.98
617.83	65.54
617.99	30.43
618.14	74.90
618.29	28.09
618.45	18.72
618.60	25.75
618.75	77.24
618.90	0.00
619.06	37.45
619.21	114.69
619.36	23.41
619.51	18.72
619.67	100.64
619.82	28.09
619.97	0.00
620.12	16.38
620.28	49.15
620.43	65.54
620.58	84.26
620.73	107.66
620.89	9.36
621.04	84.26
621.19	65.54
621.34	77.24
621.49	30.43
621.65	65.54
621.80	91.28
621.95	46.81
622.10	91.28
622.25	63.19
622.41	16.38
622.56	21.06
622.71	42.13
622.86	25.75
623.01	65.54
623.16	77.24
623.32	0.00
623.47	18.72
623.62	72.56
623.77	39.79
623.92	0.00
624.07	28.09
624.23	2.34
624.38	9.36
624.53	44.47
624.68	63.19
624.83	65.54
624.98	42.13
625.13	91.28
625.29	51.49
625.44	70.22
625.59	46.81
625.74	100.64
625.89	23.41
626.04	21.06
626.19	30.43
626.34	105.32
626.49	35.11
626.65	56.17
626.80	39.79
626.95	131.07
627.10	72.56
627.25	51.49
627.40	0.00
627.55	51.49
627.70	37.45
627.85	65.54
628.00	63.19
628.15	21.06
628.30	81.92
628.45	56.17
628.60	49.15
628.76	72.56
628.91	74.90
629.06	11.70
629.21	21.06
629.36	39.79
629.51	53.83
629.66	46.81
629.81	67.88
629.96	0.00
630.11	93.62
630.26	114.69
630.41	0.00
630.56	0.00
630.71	32.77
630.86	16.38
631.01	21.06
631.16	18.72
631.31	93.62
631.46	56.17
631.61	42.13
631.76	53.83
631.91	28.09
632.06	35.11
632.21	18.72
632.36	67.88
632.51	105.32
632.66	4.68
632.81	30.43
632.96	135.75
633.10	60.85
633.25	77.24
633.40	58.51
633.55	88.94
633.70	0.00
633.85	53.83
634.00	53.83
634.15	28.09
634.30	21.06
634.45	79.58
634.60	32.77
634.75	44.47
634.90	74.90
635.05	67.88
635.19	107.66
635.34	74.90
635.49	42.13
635.64	100.64
635.79	65.54
635.94	84.26
636.09	42.13
636.24	0.00
636.39	56.17
636.53	72.56
636.68	67.88
636.83	91.28
636.98	60.85
637.13	58.51
637.28	42.13
637.43	0.00
637.57	21.06
637.72	46.81
637.87	25.75
638.02	4.68
638.17	37.45
638.32	60.85
638.46	98.30
638.61	77.24
638.76	0.00
638.91	56.17
639.06	98.30
639.20	110.01
639.35	46.81
639.50	81.92
639.65	51.49
639.80	30.43
639.94	58.51
640.09	81.92
640.24	74.90
640.39	9.36
640.54	37.45
640.68	53.83
640.83	53.83
640.98	0.00
641.13	60.85
641.27	95.96
641.42	44.47
641.57	44.47
641.72	49.15
641.86	63.19
642.01	74.90
642.16	18.72
642.31	56.17
642.45	65.54
642.60	39.79
642.75	14.04
642.90	67.88
643.04	9.36
643.19	0.00
643.34	44.47
643.48	124.05
643.63	70.22
643.78	35.11
643.93	49.15
644.07	4.68
644.22	44.47
644.37	63.19
644.51	58.51
644.66	0.00
644.81	30.43
644.95	100.64
645.10	60.85
645.25	28.09
645.39	93.62
645.54	0.00
645.69	42.13
645.83	11.70
645.98	49.15
646.13	49.15
646.27	39.79
646.42	65.54
646.57	30.43
646.71	63.19
646.86	21.06
647.00	32.77
647.15	42.13
647.30	25.75
647.44	0.00
647.59	51.49
647.74	18.72
647.88	65.54
648.03	70.22
648.17	0.00
648.32	42.13
648.47	35.11
648.61	42.13
648.76	49.15
648.90	23.41
649.05	0.00
649.20	119.37
649.34	9.36
649.49	0.00
649.63	16.38
649.78	49.15
649.92	60.85
650.07	51.49
650.21	42.13
650.36	7.02
650.51	16.38
650.65	42.13
650.80	60.85
650.94	51.49
651.09	0.00
651.23	79.58
651.38	65.54
651.52	0.00
651.67	42.13
651.81	70.22
651.96	58.51
652.10	51.49
652.25	67.88
652.39	0.00
652.54	84.26
652.68	72.56
652.83	110.01
652.97	0.00
653.12	70.22
653.26	124.05
653.41	4.68
653.55	95.96
653.70	7.02
653.84	84.26
653.99	70.22
654.13	91.28
654.27	18.72
654.42	65.54
654.56	42.13
654.71	0.00
654.85	46.81
655.00	42.13
655.14	53.83
655.29	42.13
655.43	11.70
655.57	58.51
655.72	2.34
655.86	0.00
656.01	0.00
656.15	9.36
656.30	30.43
656.44	9.36
656.58	72.56
656.73	0.00
656.87	35.11
657.01	56.17
657.16	37.45
657.30	21.06
657.45	0.00
657.59	0.00
657.73	86.60
657.88	7.02
658.02	95.96
658.16	7.02
658.31	0.00
658.45	91.28
658.60	49.15
658.74	0.00
658.88	42.13
659.03	42.13
659.17	84.26
659.31	23.41
659.46	86.60
659.60	28.09
659.74	30.43
659.89	0.00
660.03	23.41
660.17	32.77
660.32	72.56
660.46	37.45
660.60	0.00
660.74	32.77
660.89	95.96
661.03	2.34
661.17	0.00
661.32	91.28
661.46	11.70
661.60	0.00
661.74	88.94
661.89	30.43
662.03	4.68
662.17	30.43
662.31	44.47
662.46	63.19
662.60	86.60
662.74	30.43
662.88	86.60
663.03	0.00
663.17	7.02
663.31	39.79
663.45	4.68
663.60	53.83
663.74	35.11
663.88	121.71
664.02	72.56
664.17	70.22
664.31	32.77
664.45	60.85
664.59	16.38
664.73	30.43
664.88	30.43
665.02	46.81
665.16	84.26
665.30	51.49
665.44	70.22
665.59	49.15
665.73	117.03
665.87	0.00
666.01	65.54
666.15	0.00
666.29	49.15
666.44	86.60
666.58	77.24
666.72	28.09
666.86	32.77
667.00	60.85
667.14	88.94
667.28	32.77
667.43	9.36
667.57	32.77
667.71	93.62
667.85	42.13
667.99	32.77
668.13	21.06
668.27	11.70
668.41	56.17
668.56	9.36
668.70	72.56
668.84	46.81
668.98	0.00
669.12	11.70
669.26	58.51
669.40	56.17
669.54	44.47
669.68	53.83
669.82	107.66
669.96	44.47
670.10	37.45
670.25	37.45
670.39	18.72
670.53	23.41
670.67	9.36
670.81	88.94
670.95	70.22
671.09	86.60
671.23	2.34
671.37	63.19
671.51	30.43
671.65	49.15
671.79	32.77
671.93	51.49
672.07	39.79
672.21	2.34
672.35	77.24
672.49	0.00
672.63	63.19
672.77	0.00
672.91	0.00
673.05	28.09
673.19	11.70
673.33	0.00
673.47	56.17
673.61	23.41
673.75	16.38
673.89	84.26
674.03	37.45
674.17	42.13
674.31	49.15
674.45	0.00
674.59	51.49
674.73	32.77
674.87	74.90
675.01	117.03
675.15	11.70
675.29	23.41
675.43	4.68
675.56	60.85
675.70	49.15
675.84	0.00
675.98	77.24
676.12	46.81
676.26	7.02
676.40	51.49
676.54	0.00
676.68	70.22
676.82	39.79
676.96	44.47
677.10	37.45
677.23	4.68
677.37	30.43
677.51	0.00
677.65	46.81
677.79	0.00
677.93	56.17
678.07	60.85
678.21	0.00
678.34	32.77
678.48	30.43
678.62	16.38
678.76	37.45
678.90	0.00
679.04	60.85
679.18	51.49
679.31	56.17
679.45	51.49
679.59	42.13
679.73	7.02
679.87	7.02
680.00	18.72
680.14	2.34
680.28	0.00
680.42	0.00
680.56	67.88
680.70	0.00
680.83	23.41
680.97	65.54
681.11	37.45
681.25	21.06
681.39	2.34
681.52	32.77
681.66	0.00
681.80	28.09
681.94	30.43
682.07	72.56
682.21	4.68
682.35	28.09
682.49	56.17
682.62	44.47
682.76	14.04
682.90	28.09
683.04	60.85
683.17	107.66
683.31	49.15
683.45	0.00
683.59	88.94
683.72	32.77
683.86	0.00
684.00	53.83
684.13	124.05
684.27	2.34
684.41	0.00
684.55	0.00
684.68	0.00
684.82	0.00
684.96	88.94
685.09	58.51
685.23	44.47
685.37	102.98
685.50	0.00
685.64	0.00
685.78	72.56
685.91	42.13
686.05	60.85
686.19	2.34
686.32	0.00
686.46	70.22
686.60	46.81
686.73	35.11
686.87	60.85
687.01	60.85
687.14	81.92
687.28	18.72
687.42	4.68
687.55	0.00
687.69	7.02
687.82	0.00
687.96	51.49
688.10	37.45
688.23	63.19
688.37	70.22
688.50	126.39
688.64	67.88
688.78	32.77
688.91	25.75
689.05	51.49
689.18	28.09
689.32	105.32
689.46	0.00
689.59	46.81
689.73	81.92
689.86	0.00
690.00	42.13
690.13	46.81
690.27	39.79
690.41	18.72
690.54	11.70
690.68	14.04
690.81	2.34
690.95	0.00
691.08	39.79
691.22	0.00
691.35	0.00
691.49	32.77
691.62	0.00
691.76	79.58
691.89	25.75
692.03	49.15
692.16	28.09
692.30	154.48
692.43	51.49
692.57	0.00
692.70	18.72
692.84	30.43
692.97	58.51
693.11	0.00
693.24	25.75
693.38	14.04
693.51	21.06
693.65	44.47
693.78	49.15
693.92	0.00
694.05	60.85
694.19	16.38
694.32	44.47
694.45	4.68
694.59	0.00
694.72	39.79
694.86	35.11
694.99	7.02
695.13	23.41
695.26	53.83
695.39	60.85
695.53	53.83
695.66	72.56
695.80	39.79
695.93	0.00
696.07	0.00
696.20	60.85
696.33	77.24
696.47	28.09
696.60	114.69
696.73	86.60
696.87	35.11
697.00	51.49
697.14	63.19
697.27	4.68
697.40	128.73
697.54	63.19
697.67	7.02
697.80	60.85
697.94	4.68
698.07	16.38
698.21	0.00
698.34	28.09
698.47	2.34
698.61	0.00
698.74	56.17
698.87	21.06
699.01	51.49
699.14	70.22
699.27	30.43
699.40	0.00
699.54	18.72
699.67	46.81
699.80	39.79
699.94	28.09
700.07	0.00
700.20	18.72
700.34	0.00
700.47	79.58
700.60	39.79
700.73	35.11
700.87	35.11
701.00	77.24
701.13	0.00
701.26	21.06
701.40	0.00
701.53	25.75
701.66	72.56
701.79	0.00
701.93	30.43
702.06	32.77
702.19	18.72
702.32	58.51
702.46	60.85
702.59	51.49
702.72	23.41
702.85	0.00
702.99	0.00
703.12	67.88
703.25	56.17
703.38	30.43
703.51	0.00
703.65	42.13
703.78	35.11
703.91	0.00
704.04	77.24
704.17	0.00
704.31	23.41
704.44	95.96
704.57	23.41
704.70	39.79
704.83	42.13
704.96	30.43
705.10	0.00
705.23	23.41
>>>>>End Processed Spectral Data<<<<<
