SpectraSuite Data File
++++++++++++++++++++++++++++++++++++
Date: Tue Oct 01 18:25:12 GMT-05:00 2013
User: stostad
Dark Spectrum Present: No
Reference Spectrum Present: No
Number of Sampled Component Spectra: 1
Spectrometers: USB2+H05261
Integration Time (usec): 100000 (USB2+H05261)
Spectra Averaged: 1 (USB2+H05261)
Boxcar Smoothing: 0 (USB2+H05261)
Correct for Electrical Dark: No (USB2+H05261)
Strobe/Lamp Enabled: No (USB2+H05261)
Correct for Detector Non-linearity: No (USB2+H05261)
Correct for Stray Light: No (USB2+H05261)
Number of Pixels in Processed Spectrum: 2048
>>>>>Begin Processed Spectral Data<<<<<
365.73	53.83
365.92	53.83
366.12	53.83
366.32	0.00
366.52	0.00
366.72	11.70
366.91	0.00
367.11	0.00
367.31	0.00
367.51	0.00
367.70	0.00
367.90	0.00
368.10	0.00
368.30	0.00
368.49	0.00
368.69	0.00
368.89	0.00
369.09	0.00
369.28	0.00
369.48	25.75
369.68	0.00
369.87	39.79
370.07	0.00
370.27	81.92
370.47	114.69
370.66	70.22
370.86	58.51
371.06	114.69
371.25	133.41
371.45	51.49
371.65	147.45
371.84	49.15
372.04	67.88
372.24	70.22
372.44	135.75
372.63	170.86
372.83	7.02
373.03	145.11
373.22	107.66
373.42	154.48
373.62	184.90
373.81	159.16
374.01	173.20
374.21	182.56
374.40	222.35
374.60	175.54
374.79	138.09
374.99	229.37
375.19	198.95
375.38	154.48
375.58	177.88
375.78	140.43
375.97	163.84
376.17	222.35
376.37	173.20
376.56	156.82
376.76	121.71
376.95	88.94
377.15	107.66
377.35	131.07
377.54	107.66
377.74	250.44
377.93	156.82
378.13	159.16
378.33	128.73
378.52	180.22
378.72	159.16
378.91	152.13
379.11	70.22
379.31	102.98
379.50	93.62
379.70	133.41
379.89	156.82
380.09	112.35
380.28	105.32
380.48	133.41
380.68	124.05
380.87	72.56
381.07	147.45
381.26	175.54
381.46	100.64
381.65	135.75
381.85	117.03
382.04	105.32
382.24	156.82
382.43	138.09
382.63	182.56
382.83	205.97
383.02	166.18
383.22	184.90
383.41	187.24
383.61	175.54
383.80	173.20
384.00	98.30
384.19	147.45
384.39	154.48
384.58	131.07
384.78	135.75
384.97	187.24
385.17	205.97
385.36	166.18
385.56	110.01
385.75	173.20
385.95	98.30
386.14	126.39
386.34	102.98
386.53	149.79
386.72	124.05
386.92	156.82
387.11	128.73
387.31	126.39
387.50	112.35
387.70	105.32
387.89	154.48
388.09	159.16
388.28	112.35
388.48	159.16
388.67	173.20
388.86	95.96
389.06	147.45
389.25	238.73
389.45	119.37
389.64	217.67
389.84	140.43
390.03	159.16
390.22	128.73
390.42	161.50
390.61	110.01
390.81	138.09
391.00	166.18
391.19	65.54
391.39	173.20
391.58	77.24
391.78	121.71
391.97	121.71
392.16	81.92
392.36	133.41
392.55	147.45
392.75	149.79
392.94	124.05
393.13	156.82
393.33	67.88
393.52	119.37
393.71	135.75
393.91	131.07
394.10	65.54
394.29	98.30
394.49	142.77
394.68	105.32
394.88	126.39
395.07	166.18
395.26	168.52
395.46	159.16
395.65	187.24
395.84	189.58
396.04	203.63
396.23	142.77
396.42	114.69
396.62	86.60
396.81	161.50
397.00	166.18
397.19	124.05
397.39	117.03
397.58	177.88
397.77	173.20
397.97	166.18
398.16	166.18
398.35	121.71
398.55	84.26
398.74	91.28
398.93	145.11
399.12	95.96
399.32	250.44
399.51	170.86
399.70	198.95
399.90	161.50
400.09	95.96
400.28	149.79
400.47	124.05
400.67	156.82
400.86	128.73
401.05	212.99
401.24	175.54
401.44	142.77
401.63	95.96
401.82	194.26
402.01	149.79
402.21	119.37
402.40	145.11
402.59	86.60
402.78	119.37
402.97	35.11
403.17	91.28
403.36	102.98
403.55	107.66
403.74	102.98
403.93	168.52
404.13	163.84
404.32	63.19
404.51	105.32
404.70	84.26
404.89	105.32
405.09	100.64
405.28	166.18
405.47	131.07
405.66	154.48
405.85	156.82
406.05	39.79
406.24	163.84
406.43	86.60
406.62	154.48
406.81	138.09
407.00	133.41
407.20	152.13
407.39	138.09
407.58	77.24
407.77	191.92
407.96	110.01
408.15	121.71
408.34	131.07
408.54	191.92
408.73	252.78
408.92	147.45
409.11	177.88
409.30	156.82
409.49	121.71
409.68	159.16
409.87	107.66
410.07	168.52
410.26	194.26
410.45	159.16
410.64	163.84
410.83	131.07
411.02	189.58
411.21	175.54
411.40	86.60
411.59	161.50
411.78	145.11
411.98	166.18
412.17	72.56
412.36	161.50
412.55	133.41
412.74	163.84
412.93	212.99
413.12	222.35
413.31	112.35
413.50	110.01
413.69	128.73
413.88	102.98
414.07	166.18
414.26	98.30
414.45	126.39
414.64	121.71
414.83	133.41
415.02	93.62
415.22	121.71
415.41	215.33
415.60	231.71
415.79	147.45
415.98	196.60
416.17	107.66
416.36	110.01
416.55	149.79
416.74	145.11
416.93	142.77
417.12	161.50
417.31	131.07
417.50	175.54
417.69	168.52
417.88	187.24
418.07	166.18
418.26	133.41
418.45	114.69
418.64	227.03
418.83	231.71
419.02	234.05
419.21	170.86
419.39	175.54
419.58	86.60
419.77	163.84
419.96	93.62
420.15	201.29
420.34	95.96
420.53	124.05
420.72	159.16
420.91	121.71
421.10	163.84
421.29	138.09
421.48	133.41
421.67	91.28
421.86	124.05
422.05	177.88
422.24	142.77
422.43	95.96
422.61	189.58
422.80	72.56
422.99	110.01
423.18	205.97
423.37	191.92
423.56	154.48
423.75	142.77
423.94	149.79
424.13	121.71
424.32	154.48
424.50	170.86
424.69	95.96
424.88	227.03
425.07	133.41
425.26	124.05
425.45	187.24
425.64	210.65
425.83	142.77
426.01	152.13
426.20	126.39
426.39	182.56
426.58	154.48
426.77	194.26
426.96	236.39
427.15	149.79
427.33	112.35
427.52	100.64
427.71	177.88
427.90	117.03
428.09	147.45
428.28	131.07
428.46	175.54
428.65	205.97
428.84	121.71
429.03	126.39
429.22	133.41
429.40	119.37
429.59	149.79
429.78	177.88
429.97	46.81
430.16	142.77
430.34	133.41
430.53	135.75
430.72	135.75
430.91	215.33
431.10	147.45
431.28	84.26
431.47	142.77
431.66	79.58
431.85	154.48
432.03	117.03
432.22	161.50
432.41	81.92
432.60	117.03
432.79	208.31
432.97	124.05
433.16	222.35
433.35	189.58
433.54	70.22
433.72	81.92
433.91	159.16
434.10	159.16
434.28	147.45
434.47	72.56
434.66	175.54
434.85	119.37
435.03	117.03
435.22	161.50
435.41	159.16
435.59	98.30
435.78	112.35
435.97	189.58
436.16	189.58
436.34	138.09
436.53	163.84
436.72	119.37
436.90	128.73
437.09	173.20
437.28	152.13
437.46	161.50
437.65	229.37
437.84	91.28
438.02	163.84
438.21	128.73
438.40	159.16
438.58	126.39
438.77	210.65
438.96	131.07
439.14	105.32
439.33	147.45
439.52	126.39
439.70	177.88
439.89	91.28
440.08	147.45
440.26	121.71
440.45	128.73
440.63	135.75
440.82	152.13
441.01	140.43
441.19	173.20
441.38	86.60
441.57	117.03
441.75	175.54
441.94	194.26
442.12	126.39
442.31	149.79
442.50	135.75
442.68	163.84
442.87	159.16
443.05	110.01
443.24	102.98
443.43	149.79
443.61	187.24
443.80	175.54
443.98	142.77
444.17	98.30
444.35	224.69
444.54	119.37
444.73	145.11
444.91	117.03
445.10	194.26
445.28	131.07
445.47	149.79
445.65	142.77
445.84	142.77
446.02	191.92
446.21	173.20
446.39	187.24
446.58	152.13
446.77	149.79
446.95	154.48
447.14	152.13
447.32	170.86
447.51	124.05
447.69	184.90
447.88	142.77
448.06	135.75
448.25	149.79
448.43	145.11
448.62	105.32
448.80	145.11
448.99	161.50
449.17	84.26
449.36	117.03
449.54	166.18
449.73	163.84
449.91	126.39
450.10	84.26
450.28	187.24
450.46	187.24
450.65	205.97
450.83	79.58
451.02	170.86
451.20	170.86
451.39	163.84
451.57	182.56
451.76	70.22
451.94	121.71
452.13	159.16
452.31	166.18
452.49	196.60
452.68	107.66
452.86	170.86
453.05	170.86
453.23	84.26
453.42	191.92
453.60	65.54
453.78	191.92
453.97	156.82
454.15	147.45
454.34	131.07
454.52	124.05
454.70	105.32
454.89	159.16
455.07	63.19
455.26	156.82
455.44	184.90
455.62	107.66
455.81	191.92
455.99	175.54
456.17	140.43
456.36	187.24
456.54	194.26
456.73	79.58
456.91	95.96
457.09	110.01
457.28	159.16
457.46	128.73
457.64	161.50
457.83	138.09
458.01	119.37
458.19	149.79
458.38	114.69
458.56	152.13
458.74	95.96
458.93	67.88
459.11	114.69
459.29	88.94
459.48	121.71
459.66	140.43
459.84	107.66
460.03	184.90
460.21	252.78
460.39	180.22
460.57	133.41
460.76	196.60
460.94	145.11
461.12	234.05
461.31	110.01
461.49	124.05
461.67	110.01
461.85	159.16
462.04	110.01
462.22	571.09
462.40	189.58
462.59	133.41
462.77	159.16
462.95	180.22
463.13	79.58
463.32	196.60
463.50	140.43
463.68	173.20
463.86	131.07
464.05	182.56
464.23	65.54
464.41	234.05
464.59	156.82
464.78	65.54
464.96	147.45
465.14	138.09
465.32	128.73
465.50	187.24
465.69	133.41
465.87	131.07
466.05	161.50
466.23	95.96
466.41	91.28
466.60	138.09
466.78	154.48
466.96	91.28
467.14	189.58
467.32	177.88
467.51	168.52
467.69	173.20
467.87	156.82
468.05	114.69
468.23	234.05
468.41	189.58
468.60	166.18
468.78	175.54
468.96	163.84
469.14	128.73
469.32	63.19
469.50	147.45
469.69	145.11
469.87	117.03
470.05	177.88
470.23	215.33
470.41	91.28
470.59	142.77
470.77	138.09
470.95	133.41
471.14	234.05
471.32	133.41
471.50	184.90
471.68	91.28
471.86	170.86
472.04	126.39
472.22	203.63
472.40	163.84
472.58	135.75
472.77	163.84
472.95	112.35
473.13	201.29
473.31	166.18
473.49	154.48
473.67	180.22
473.85	159.16
474.03	121.71
474.21	107.66
474.39	102.98
474.57	152.13
474.75	95.96
474.93	170.86
475.12	149.79
475.30	77.24
475.48	105.32
475.66	142.77
475.84	126.39
476.02	191.92
476.20	114.69
476.38	159.16
476.56	177.88
476.74	135.75
476.92	86.60
477.10	98.30
477.28	177.88
477.46	168.52
477.64	107.66
477.82	156.82
478.00	154.48
478.18	184.90
478.36	140.43
478.54	102.98
478.72	105.32
478.90	98.30
479.08	131.07
479.26	159.16
479.44	168.52
479.62	79.58
479.80	147.45
479.98	140.43
480.16	110.01
480.34	173.20
480.52	135.75
480.70	128.73
480.88	154.48
481.06	133.41
481.24	100.64
481.41	152.13
481.59	217.67
481.77	131.07
481.95	135.75
482.13	210.65
482.31	91.28
482.49	145.11
482.67	215.33
482.85	205.97
483.03	154.48
483.21	198.95
483.39	182.56
483.57	28.09
483.74	166.18
483.92	110.01
484.10	117.03
484.28	180.22
484.46	173.20
484.64	189.58
484.82	124.05
485.00	163.84
485.18	220.01
485.35	147.45
485.53	142.77
485.71	168.52
485.89	126.39
486.07	147.45
486.25	121.71
486.43	180.22
486.61	107.66
486.78	107.66
486.96	100.64
487.14	107.66
487.32	177.88
487.50	58.51
487.68	180.22
487.85	124.05
488.03	166.18
488.21	166.18
488.39	177.88
488.57	156.82
488.75	145.11
488.92	205.97
489.10	124.05
489.28	112.35
489.46	131.07
489.64	142.77
489.81	124.05
489.99	126.39
490.17	163.84
490.35	156.82
490.53	112.35
490.70	152.13
490.88	159.16
491.06	154.48
491.24	138.09
491.41	166.18
491.59	135.75
491.77	93.62
491.95	140.43
492.13	161.50
492.30	152.13
492.48	102.98
492.66	105.32
492.84	124.05
493.01	124.05
493.19	166.18
493.37	163.84
493.54	166.18
493.72	74.90
493.90	177.88
494.08	63.19
494.25	72.56
494.43	154.48
494.61	182.56
494.79	140.43
494.96	119.37
495.14	168.52
495.32	177.88
495.49	121.71
495.67	210.65
495.85	119.37
496.02	156.82
496.20	187.24
496.38	126.39
496.55	117.03
496.73	184.90
496.91	135.75
497.09	74.90
497.26	70.22
497.44	74.90
497.62	173.20
497.79	194.26
497.97	156.82
498.14	121.71
498.32	147.45
498.50	175.54
498.67	121.71
498.85	93.62
499.03	189.58
499.20	142.77
499.38	135.75
499.56	173.20
499.73	205.97
499.91	168.52
500.08	173.20
500.26	107.66
500.44	102.98
500.61	161.50
500.79	98.30
500.97	149.79
501.14	177.88
501.32	180.22
501.49	154.48
501.67	156.82
501.84	42.13
502.02	126.39
502.20	138.09
502.37	131.07
502.55	124.05
502.72	107.66
502.90	121.71
503.07	147.45
503.25	142.77
503.43	135.75
503.60	170.86
503.78	93.62
503.95	131.07
504.13	138.09
504.30	159.16
504.48	215.33
504.65	177.88
504.83	131.07
505.01	98.30
505.18	100.64
505.36	112.35
505.53	121.71
505.71	119.37
505.88	203.63
506.06	210.65
506.23	154.48
506.41	98.30
506.58	117.03
506.76	140.43
506.93	145.11
507.11	173.20
507.28	175.54
507.46	98.30
507.63	184.90
507.81	114.69
507.98	42.13
508.16	154.48
508.33	177.88
508.50	126.39
508.68	191.92
508.85	154.48
509.03	119.37
509.20	100.64
509.38	133.41
509.55	227.03
509.73	208.31
509.90	161.50
510.08	152.13
510.25	163.84
510.42	100.64
510.60	170.86
510.77	84.26
510.95	212.99
511.12	170.86
511.30	243.42
511.47	182.56
511.64	175.54
511.82	95.96
511.99	39.79
512.17	147.45
512.34	117.03
512.51	58.51
512.69	140.43
512.86	156.82
513.04	147.45
513.21	154.48
513.38	114.69
513.56	110.01
513.73	114.69
513.90	170.86
514.08	170.86
514.25	173.20
514.43	248.10
514.60	166.18
514.77	210.65
514.95	114.69
515.12	145.11
515.29	124.05
515.47	126.39
515.64	159.16
515.81	163.84
515.99	182.56
516.16	124.05
516.33	175.54
516.51	126.39
516.68	140.43
516.85	154.48
517.03	107.66
517.20	159.16
517.37	84.26
517.54	128.73
517.72	88.94
517.89	166.18
518.06	119.37
518.24	184.90
518.41	224.69
518.58	173.20
518.75	117.03
518.93	149.79
519.10	217.67
519.27	142.77
519.45	175.54
519.62	156.82
519.79	149.79
519.96	112.35
520.14	86.60
520.31	149.79
520.48	119.37
520.65	131.07
520.83	142.77
521.00	194.26
521.17	119.37
521.34	133.41
521.52	210.65
521.69	170.86
521.86	154.48
522.03	203.63
522.20	175.54
522.38	98.30
522.55	128.73
522.72	100.64
522.89	210.65
523.07	194.26
523.24	121.71
523.41	110.01
523.58	161.50
523.75	72.56
523.92	88.94
524.10	149.79
524.27	114.69
524.44	163.84
524.61	208.31
524.78	98.30
524.96	140.43
525.13	112.35
525.30	180.22
525.47	205.97
525.64	154.48
525.81	140.43
525.98	138.09
526.16	126.39
526.33	88.94
526.50	128.73
526.67	149.79
526.84	112.35
527.01	131.07
527.18	133.41
527.36	131.07
527.53	241.08
527.70	210.65
527.87	84.26
528.04	241.08
528.21	191.92
528.38	138.09
528.55	81.92
528.72	184.90
528.89	159.16
529.07	198.95
529.24	119.37
529.41	189.58
529.58	98.30
529.75	84.26
529.92	175.54
530.09	198.95
530.26	95.96
530.43	196.60
530.60	177.88
530.77	166.18
530.94	224.69
531.11	142.77
531.28	189.58
531.46	128.73
531.63	114.69
531.80	149.79
531.97	238.73
532.14	166.18
532.31	175.54
532.48	173.20
532.65	250.44
532.82	248.10
532.99	196.60
533.16	135.75
533.33	154.48
533.50	173.20
533.67	203.63
533.84	217.67
534.01	264.48
534.18	217.67
534.35	234.05
534.52	212.99
534.69	156.82
534.86	112.35
535.03	142.77
535.20	163.84
535.37	215.33
535.54	156.82
535.71	208.31
535.88	198.95
536.05	142.77
536.22	119.37
536.38	161.50
536.55	102.98
536.72	138.09
536.89	58.51
537.06	170.86
537.23	142.77
537.40	191.92
537.57	105.32
537.74	114.69
537.91	126.39
538.08	133.41
538.25	175.54
538.42	131.07
538.59	147.45
538.75	161.50
538.92	131.07
539.09	184.90
539.26	124.05
539.43	351.08
539.60	805.14
539.77	983.02
539.94	753.65
540.11	425.98
540.28	283.20
540.44	135.75
540.61	189.58
540.78	131.07
540.95	154.48
541.12	121.71
541.29	187.24
541.46	212.99
541.62	177.88
541.79	131.07
541.96	138.09
542.13	149.79
542.30	107.66
542.47	135.75
542.63	145.11
542.80	131.07
542.97	191.92
543.14	18.72
543.31	98.30
543.48	100.64
543.64	163.84
543.81	131.07
543.98	131.07
544.15	44.47
544.32	81.92
544.48	147.45
544.65	138.09
544.82	140.43
544.99	142.77
545.16	203.63
545.32	187.24
545.49	159.16
545.66	182.56
545.83	161.50
546.00	79.58
546.16	133.41
546.33	191.92
546.50	100.64
546.67	255.12
546.83	138.09
547.00	201.29
547.17	149.79
547.34	149.79
547.50	166.18
547.67	187.24
547.84	184.90
548.00	177.88
548.17	117.03
548.34	182.56
548.51	135.75
548.67	149.79
548.84	65.54
549.01	84.26
549.18	124.05
549.34	79.58
549.51	175.54
549.68	205.97
549.84	145.11
550.01	191.92
550.18	234.05
550.34	203.63
550.51	133.41
550.68	189.58
550.84	91.28
551.01	180.22
551.18	234.05
551.34	156.82
551.51	196.60
551.68	154.48
551.84	154.48
552.01	175.54
552.18	196.60
552.34	159.16
552.51	105.32
552.68	208.31
552.84	133.41
553.01	140.43
553.18	161.50
553.34	154.48
553.51	177.88
553.67	114.69
553.84	173.20
554.01	124.05
554.17	194.26
554.34	159.16
554.51	74.90
554.67	173.20
554.84	180.22
555.00	74.90
555.17	107.66
555.33	152.13
555.50	117.03
555.67	145.11
555.83	142.77
556.00	126.39
556.16	311.29
556.33	168.52
556.50	152.13
556.66	105.32
556.83	173.20
556.99	117.03
557.16	156.82
557.32	135.75
557.49	95.96
557.65	86.60
557.82	124.05
557.98	180.22
558.15	84.26
558.32	91.28
558.48	128.73
558.65	145.11
558.81	191.92
558.98	142.77
559.14	187.24
559.31	117.03
559.47	177.88
559.64	142.77
559.80	212.99
559.97	152.13
560.13	49.15
560.30	163.84
560.46	84.26
560.63	184.90
560.79	149.79
560.96	168.52
561.12	189.58
561.29	152.13
561.45	107.66
561.61	142.77
561.78	245.76
561.94	159.16
562.11	114.69
562.27	100.64
562.44	163.84
562.60	159.16
562.77	184.90
562.93	187.24
563.10	131.07
563.26	175.54
563.42	107.66
563.59	121.71
563.75	135.75
563.92	163.84
564.08	131.07
564.24	147.45
564.41	222.35
564.57	187.24
564.74	142.77
564.90	149.79
565.07	163.84
565.23	180.22
565.39	119.37
565.56	142.77
565.72	131.07
565.88	110.01
566.05	196.60
566.21	51.49
566.38	95.96
566.54	140.43
566.70	152.13
566.87	98.30
567.03	131.07
567.19	149.79
567.36	140.43
567.52	156.82
567.68	110.01
567.85	184.90
568.01	147.45
568.17	180.22
568.34	102.98
568.50	187.24
568.66	112.35
568.83	252.78
568.99	112.35
569.15	152.13
569.32	128.73
569.48	133.41
569.64	147.45
569.81	100.64
569.97	135.75
570.13	154.48
570.30	131.07
570.46	142.77
570.62	163.84
570.78	166.18
570.95	177.88
571.11	217.67
571.27	187.24
571.43	88.94
571.60	203.63
571.76	72.56
571.92	140.43
572.09	191.92
572.25	149.79
572.41	88.94
572.57	149.79
572.74	271.50
572.90	175.54
573.06	180.22
573.22	201.29
573.38	124.05
573.55	210.65
573.71	180.22
573.87	133.41
574.03	220.01
574.20	163.84
574.36	196.60
574.52	201.29
574.68	163.84
574.84	147.45
575.01	208.31
575.17	107.66
575.33	149.79
575.49	147.45
575.65	187.24
575.82	283.20
575.98	421.30
576.14	496.19
576.30	397.89
576.46	259.80
576.62	257.46
576.79	259.80
576.95	166.18
577.11	156.82
577.27	72.56
577.43	163.84
577.59	201.29
577.75	241.08
577.92	182.56
578.08	208.31
578.24	149.79
578.40	205.97
578.56	201.29
578.72	198.95
578.88	191.92
579.04	175.54
579.21	234.05
579.37	187.24
579.53	184.90
579.69	229.37
579.85	168.52
580.01	262.14
580.17	170.86
580.33	180.22
580.49	241.08
580.65	220.01
580.82	112.35
580.98	180.22
581.14	248.10
581.30	182.56
581.46	327.68
581.62	411.93
581.78	330.02
581.94	264.48
582.10	285.55
582.26	227.03
582.42	217.67
582.58	252.78
582.74	203.63
582.90	287.89
583.06	208.31
583.22	262.14
583.38	311.29
583.54	241.08
583.70	447.04
583.86	407.25
584.02	479.81
584.18	580.45
584.34	1121.12
584.50	8444.65
584.66	29549.26
584.82	48612.93
584.98	49715.32
585.14	31615.96
585.30	16961.86
585.46	8049.10
585.62	3243.98
585.78	1324.74
585.94	671.73
586.10	517.26
586.26	414.27
586.42	397.89
586.58	330.02
586.74	358.10
586.90	334.70
587.06	346.40
587.22	304.27
587.38	444.70
587.54	1673.48
587.70	3082.49
587.86	3985.93
588.02	2897.58
588.18	1785.83
588.34	1107.07
588.49	592.16
588.65	351.08
588.81	266.82
588.97	229.37
589.13	252.78
589.29	168.52
589.45	222.35
589.61	257.46
589.77	325.33
589.93	334.70
590.08	245.76
590.24	301.93
590.40	271.50
590.56	203.63
590.72	306.61
590.88	252.78
591.04	243.42
591.20	215.33
591.35	241.08
591.51	224.69
591.67	154.48
591.83	110.01
591.99	163.84
592.15	175.54
592.31	159.16
592.46	184.90
592.62	297.25
592.78	217.67
592.94	250.44
593.10	224.69
593.26	182.56
593.41	271.50
593.57	330.02
593.73	1334.11
593.89	3775.28
594.05	6361.58
594.20	6216.46
594.36	4191.90
594.52	2382.67
594.68	1350.49
594.84	613.22
594.99	386.19
595.15	220.01
595.31	145.11
595.47	278.52
595.62	205.97
595.78	210.65
595.94	220.01
596.10	222.35
596.25	196.60
596.41	212.99
596.57	131.07
596.73	278.52
596.88	739.61
597.04	1315.38
597.20	1579.86
597.36	1327.08
597.51	919.83
597.67	535.98
597.83	318.31
597.99	252.78
598.14	147.45
598.30	248.10
598.46	173.20
598.61	168.52
598.77	229.37
598.93	152.13
599.09	131.07
599.24	112.35
599.40	217.67
599.56	182.56
599.71	135.75
599.87	166.18
600.03	147.45
600.18	189.58
600.34	154.48
600.50	180.22
600.65	100.64
600.81	147.45
600.97	229.37
601.12	117.03
601.28	252.78
601.44	255.12
601.59	191.92
601.75	168.52
601.91	159.16
602.06	227.03
602.22	521.94
602.37	976.00
602.53	1650.08
602.69	1638.38
602.84	1203.04
603.00	805.14
603.16	573.43
603.31	360.44
603.47	205.97
603.62	166.18
603.78	154.48
603.94	231.71
604.09	224.69
604.25	121.71
604.40	231.71
604.56	131.07
604.71	198.95
604.87	152.13
605.03	208.31
605.18	224.69
605.34	187.24
605.49	140.43
605.65	187.24
605.80	198.95
605.96	212.99
606.12	264.48
606.27	208.31
606.43	248.10
606.58	531.30
606.74	2008.18
606.89	3943.80
607.05	5254.50
607.20	4428.29
607.36	2911.63
607.51	1907.54
607.67	1125.80
607.82	566.41
607.98	411.93
608.13	273.84
608.29	311.29
608.44	306.61
608.60	255.12
608.75	912.81
608.91	3262.71
609.06	6785.21
609.22	9015.74
609.37	7595.04
609.53	5125.77
609.68	3253.34
609.84	1921.58
609.99	889.40
610.15	486.83
610.30	322.99
610.46	210.65
610.61	227.03
610.76	250.44
610.92	159.16
611.07	243.42
611.23	250.44
611.38	224.69
611.54	177.88
611.69	205.97
611.84	168.52
612.00	212.99
612.15	238.73
612.31	379.17
612.46	437.68
612.62	444.70
612.77	423.64
612.92	280.86
613.08	381.51
613.23	315.97
613.39	664.71
613.54	3375.05
613.69	8727.86
613.85	13692.13
614.00	13788.10
614.15	10038.56
614.31	6345.19
614.46	3992.95
614.62	2069.03
614.77	959.62
614.92	491.51
615.08	372.15
615.23	355.76
615.38	308.95
615.54	697.48
615.69	1853.70
615.84	3267.39
616.00	3777.62
616.15	2958.44
616.30	2108.82
616.46	1338.79
616.61	809.83
616.76	507.90
616.92	322.99
617.07	201.29
617.22	180.22
617.37	154.48
617.53	224.69
617.68	220.01
617.83	255.12
617.99	234.05
618.14	285.55
618.29	245.76
618.45	266.82
618.60	163.84
618.75	177.88
618.90	175.54
619.06	203.63
619.21	187.24
619.36	194.26
619.51	180.22
619.67	72.56
619.82	180.22
619.97	133.41
620.12	215.33
620.28	184.90
620.43	138.09
620.58	215.33
620.73	283.20
620.89	437.68
621.04	1020.47
621.19	1842.00
621.34	2193.08
621.49	1902.86
621.65	1406.66
621.80	898.77
621.95	559.39
622.10	428.32
622.25	287.89
622.41	205.97
622.56	126.39
622.71	128.73
622.86	170.86
623.01	203.63
623.16	220.01
623.32	168.52
623.47	142.77
623.62	227.03
623.77	74.90
623.92	142.77
624.07	93.62
624.23	133.41
624.38	205.97
624.53	156.82
624.68	243.42
624.83	196.60
624.98	184.90
625.13	152.13
625.29	215.33
625.44	220.01
625.59	203.63
625.74	561.73
625.89	1942.64
626.04	4531.28
626.19	7087.14
626.34	7183.10
626.49	5163.22
626.65	3410.16
626.80	2228.19
626.95	1284.95
627.10	627.26
627.25	402.57
627.40	320.65
627.55	224.69
627.70	250.44
627.85	264.48
628.00	60.85
628.15	271.50
628.30	180.22
628.45	126.39
628.60	175.54
628.76	224.69
628.91	135.75
629.06	142.77
629.21	184.90
629.36	255.12
629.51	189.58
629.66	390.87
629.81	908.13
629.96	1703.91
630.11	1839.66
630.26	1549.43
630.41	1198.35
630.56	856.64
630.71	543.00
630.86	383.85
631.01	255.12
631.16	166.18
631.31	222.35
631.46	259.80
631.61	131.07
631.76	133.41
631.91	156.82
632.06	257.46
632.21	189.58
632.36	290.23
632.51	285.55
632.66	1146.86
632.81	2633.10
632.96	4374.46
633.10	4791.08
633.25	3885.29
633.40	2548.84
633.55	1827.96
633.70	1001.75
633.85	575.77
634.00	404.91
634.15	252.78
634.30	224.69
634.45	128.73
634.60	184.90
634.75	198.95
634.90	175.54
635.05	257.46
635.19	203.63
635.34	217.67
635.49	140.43
635.64	177.88
635.79	159.16
635.94	194.26
636.09	189.58
636.24	196.60
636.39	182.56
636.53	180.22
636.68	201.29
636.83	168.52
636.98	205.97
637.13	276.18
637.28	287.89
637.43	706.84
637.57	2822.69
637.72	6071.35
637.87	8887.01
638.02	8234.00
638.17	6195.40
638.32	4332.33
638.46	2785.24
638.61	1607.95
638.76	795.78
638.91	503.22
639.06	365.12
639.20	353.42
639.35	1025.15
639.50	4025.72
639.65	9177.24
639.80	13762.35
639.94	12678.68
640.09	9694.50
640.24	6715.00
640.39	4285.52
640.54	2363.94
640.68	1114.10
640.83	655.35
640.98	433.00
641.13	266.82
641.27	283.20
641.42	163.84
641.57	215.33
641.72	238.73
641.86	170.86
642.01	220.01
642.16	180.22
642.31	184.90
642.45	191.92
642.60	187.24
642.75	163.84
642.90	220.01
643.04	170.86
643.19	135.75
643.34	203.63
643.48	205.97
643.63	217.67
643.78	142.77
643.93	196.60
644.07	163.84
644.22	166.18
644.37	163.84
644.51	173.20
644.66	170.86
644.81	154.48
644.95	182.56
645.10	175.54
645.25	187.24
645.39	215.33
645.54	182.56
645.69	234.05
645.83	168.52
645.98	187.24
646.13	180.22
646.27	170.86
646.42	208.31
646.57	236.39
646.71	175.54
646.86	147.45
647.00	149.79
647.15	191.92
647.30	93.62
647.44	124.05
647.59	177.88
647.74	140.43
647.88	173.20
648.03	102.98
648.17	145.11
648.32	168.52
648.47	262.14
648.61	121.71
648.76	133.41
648.90	208.31
649.05	159.16
649.20	234.05
649.34	198.95
649.49	187.24
649.63	203.63
649.78	397.89
649.92	1675.82
650.07	4044.45
650.21	6593.29
650.36	7082.46
650.51	5493.24
650.65	3665.28
650.80	2523.10
650.94	1331.76
651.09	821.53
651.23	411.93
651.38	308.95
651.52	229.37
651.67	222.35
651.81	227.03
651.96	191.92
652.10	187.24
652.25	154.48
652.39	227.03
652.54	606.20
652.68	1387.94
652.83	2237.55
652.97	2525.44
653.12	2237.55
653.26	1664.12
653.41	1102.39
653.55	629.60
653.70	444.70
653.84	276.18
653.99	238.73
654.13	168.52
654.27	194.26
654.42	156.82
654.56	126.39
654.71	142.77
654.85	154.48
655.00	105.32
655.14	84.26
655.29	147.45
655.43	124.05
655.57	187.24
655.72	154.48
655.86	135.75
656.01	159.16
656.15	147.45
656.30	194.26
656.44	147.45
656.58	91.28
656.73	147.45
656.87	159.16
657.01	152.13
657.16	180.22
657.30	187.24
657.45	210.65
657.59	168.52
657.73	133.41
657.88	198.95
658.02	189.58
658.16	114.69
658.31	100.64
658.45	187.24
658.60	196.60
658.74	138.09
658.88	149.79
659.03	248.10
659.17	770.04
659.31	1933.28
659.46	3215.90
659.60	3749.54
659.74	3169.09
659.89	2134.57
660.03	1453.47
660.17	931.53
660.32	599.18
660.46	292.57
660.60	245.76
660.74	191.92
660.89	128.73
661.03	93.62
661.17	133.41
661.32	203.63
661.46	189.58
661.60	187.24
661.74	152.13
661.89	264.48
662.03	126.39
662.17	163.84
662.31	77.24
662.46	124.05
662.60	126.39
662.74	63.19
662.88	210.65
663.03	140.43
663.17	154.48
663.31	168.52
663.45	201.29
663.60	140.43
663.74	168.52
663.88	91.28
664.02	102.98
664.17	114.69
664.31	93.62
664.45	215.33
664.59	208.31
664.73	212.99
664.88	133.41
665.02	98.30
665.16	210.65
665.30	191.92
665.44	140.43
665.59	166.18
665.73	170.86
665.87	117.03
666.01	138.09
666.15	140.43
666.29	117.03
666.44	184.90
666.58	250.44
666.72	168.52
666.86	215.33
667.00	421.30
667.14	1444.11
667.28	3449.95
667.43	5753.04
667.57	6537.12
667.71	5188.97
667.85	3585.70
667.99	2298.41
668.13	1280.27
668.27	793.44
668.41	505.56
668.56	271.50
668.70	348.74
668.84	224.69
668.98	198.95
669.12	182.56
669.26	224.69
669.40	212.99
669.54	191.92
669.68	208.31
669.82	166.18
669.96	121.71
670.10	126.39
670.25	117.03
670.39	187.24
670.53	236.39
670.67	220.01
670.81	163.84
670.95	470.45
671.09	1364.53
671.23	2825.03
671.37	4058.49
671.51	3978.91
671.65	3021.63
671.79	1942.64
671.93	1245.16
672.07	725.57
672.21	491.51
672.35	278.52
672.49	156.82
672.63	259.80
672.77	182.56
672.91	180.22
673.05	131.07
673.19	182.56
673.33	173.20
673.47	243.42
673.61	145.11
673.75	135.75
673.89	112.35
674.03	175.54
674.17	147.45
674.31	189.58
674.45	187.24
674.59	107.66
674.73	112.35
674.87	248.10
675.01	156.82
675.15	187.24
675.29	215.33
675.43	227.03
675.56	177.88
675.70	194.26
675.84	105.32
675.98	161.50
676.12	105.32
676.26	161.50
676.40	124.05
676.54	217.67
676.68	234.05
676.82	161.50
676.96	105.32
677.10	222.35
677.23	166.18
677.37	154.48
677.51	142.77
677.65	194.26
677.79	140.43
677.93	175.54
678.07	140.43
678.21	170.86
678.34	152.13
678.48	105.32
678.62	131.07
678.76	138.09
678.90	159.16
679.04	156.82
679.18	84.26
679.31	140.43
679.45	93.62
679.59	98.30
679.73	114.69
679.87	131.07
680.00	177.88
680.14	175.54
680.28	74.90
680.42	135.75
680.56	187.24
680.70	117.03
680.83	121.71
680.97	152.13
681.11	135.75
681.25	138.09
681.39	180.22
681.52	131.07
681.66	222.35
681.80	198.95
681.94	145.11
682.07	203.63
682.21	142.77
682.35	107.66
682.49	124.05
682.62	175.54
682.76	187.24
682.90	88.94
683.04	194.26
683.17	161.50
683.31	56.17
683.45	140.43
683.59	170.86
683.72	112.35
683.86	133.41
684.00	124.05
684.13	173.20
684.27	184.90
684.41	156.82
684.55	110.01
684.68	133.41
684.82	107.66
684.96	46.81
685.09	163.84
685.23	168.52
685.37	91.28
685.50	168.52
685.64	205.97
685.78	142.77
685.91	149.79
686.05	177.88
686.19	184.90
686.32	114.69
686.46	124.05
686.60	182.56
686.73	210.65
686.87	194.26
687.01	168.52
687.14	182.56
687.28	180.22
687.42	170.86
687.55	152.13
687.69	156.82
687.82	205.97
687.96	173.20
688.10	135.75
688.23	156.82
688.37	220.01
688.50	210.65
688.64	166.18
688.78	187.24
688.91	154.48
689.05	135.75
689.18	93.62
689.32	175.54
689.46	161.50
689.59	110.01
689.73	102.98
689.86	152.13
690.00	156.82
690.13	121.71
690.27	93.62
690.41	212.99
690.54	105.32
690.68	198.95
690.81	114.69
690.95	126.39
691.08	102.98
691.22	133.41
691.35	173.20
691.49	161.50
691.62	161.50
691.76	138.09
691.89	126.39
692.03	203.63
692.16	201.29
692.30	629.60
692.43	1423.05
692.57	2286.70
692.70	2801.62
692.84	2359.26
692.97	1818.60
693.11	1355.17
693.24	985.37
693.38	725.57
693.51	561.73
693.65	381.51
693.78	170.86
693.92	191.92
694.05	152.13
694.19	177.88
694.32	194.26
694.45	135.75
694.59	175.54
694.72	133.41
694.86	145.11
694.99	245.76
695.13	168.52
695.26	196.60
695.39	100.64
695.53	210.65
695.66	152.13
695.80	205.97
695.93	145.11
696.07	311.29
696.20	341.72
696.33	330.02
696.47	313.63
696.60	374.49
696.73	210.65
696.87	234.05
697.00	203.63
697.14	114.69
697.27	170.86
697.40	196.60
697.54	135.75
697.67	147.45
697.80	180.22
697.94	147.45
698.07	159.16
698.21	156.82
698.34	163.84
698.47	138.09
698.61	170.86
698.74	168.52
698.87	86.60
699.01	152.13
699.14	166.18
699.27	86.60
699.40	308.95
699.54	191.92
699.67	135.75
699.80	70.22
699.94	135.75
700.07	63.19
700.20	152.13
700.34	117.03
700.47	128.73
700.60	107.66
700.73	203.63
700.87	149.79
701.00	175.54
701.13	77.24
701.26	203.63
701.40	133.41
701.53	184.90
701.66	147.45
701.79	198.95
701.93	252.78
702.06	285.55
702.19	330.02
702.32	372.15
702.46	440.02
702.59	617.90
702.72	1837.32
702.85	3370.37
702.99	4784.06
703.12	5231.10
703.25	4264.46
703.38	3646.55
703.51	2963.12
703.65	1944.99
703.78	1343.47
703.91	856.64
704.04	650.67
704.17	411.93
704.31	271.50
704.44	194.26
704.57	161.50
704.70	154.48
704.83	257.46
704.96	175.54
705.10	203.63
705.23	208.31
>>>>>End Processed Spectral Data<<<<<
