SpectraSuite Data File
++++++++++++++++++++++++++++++++++++
Date: Fri Oct 04 12:13:26 GMT-05:00 2013
User: price-jones
Dark Spectrum Present: No
Reference Spectrum Present: No
Number of Sampled Component Spectra: 1
Spectrometers: USB2+H05261
Integration Time (usec): 10000 (USB2+H05261)
Spectra Averaged: 1 (USB2+H05261)
Boxcar Smoothing: 0 (USB2+H05261)
Correct for Electrical Dark: No (USB2+H05261)
Strobe/Lamp Enabled: No (USB2+H05261)
Correct for Detector Non-linearity: No (USB2+H05261)
Correct for Stray Light: No (USB2+H05261)
Number of Pixels in Processed Spectrum: 2048
>>>>>Begin Processed Spectral Data<<<<<
365.73	0.00
365.92	0.00
366.12	0.00
366.32	0.00
366.52	0.00
366.72	0.00
366.91	0.00
367.11	0.00
367.31	0.00
367.51	0.00
367.70	0.00
367.90	0.00
368.10	0.00
368.30	0.00
368.49	0.00
368.69	0.00
368.89	0.00
369.09	0.00
369.28	0.00
369.48	0.00
369.68	0.00
369.87	0.00
370.07	0.00
370.27	0.00
370.47	0.00
370.66	0.00
370.86	0.00
371.06	0.00
371.25	0.00
371.45	0.00
371.65	0.00
371.84	0.00
372.04	0.00
372.24	42.13
372.44	18.72
372.63	7.02
372.83	0.00
373.03	0.00
373.22	44.47
373.42	0.00
373.62	56.17
373.81	2.34
374.01	51.49
374.21	74.90
374.40	74.90
374.60	67.88
374.79	79.58
374.99	46.81
375.19	51.49
375.38	81.92
375.58	32.77
375.78	88.94
375.97	14.04
376.17	74.90
376.37	39.79
376.56	0.00
376.76	0.00
376.95	39.79
377.15	4.68
377.35	28.09
377.54	0.00
377.74	42.13
377.93	79.58
378.13	63.19
378.33	42.13
378.52	0.00
378.72	65.54
378.91	2.34
379.11	0.00
379.31	39.79
379.50	11.70
379.70	18.72
379.89	4.68
380.09	23.41
380.28	39.79
380.48	0.00
380.68	0.00
380.87	0.00
381.07	23.41
381.26	0.00
381.46	53.83
381.65	0.00
381.85	0.00
382.04	25.75
382.24	74.90
382.43	65.54
382.63	0.00
382.83	16.38
383.02	44.47
383.22	32.77
383.41	88.94
383.61	44.47
383.80	42.13
384.00	39.79
384.19	51.49
384.39	0.00
384.58	42.13
384.78	42.13
384.97	25.75
385.17	0.00
385.36	0.00
385.56	0.00
385.75	25.75
385.95	0.00
386.14	0.00
386.34	0.00
386.53	65.54
386.72	39.79
386.92	9.36
387.11	0.00
387.31	9.36
387.50	42.13
387.70	9.36
387.89	0.00
388.09	4.68
388.28	35.11
388.48	65.54
388.67	0.00
388.86	16.38
389.06	0.00
389.25	18.72
389.45	65.54
389.64	7.02
389.84	11.70
390.03	49.15
390.22	0.00
390.42	4.68
390.61	0.00
390.81	0.00
391.00	74.90
391.19	0.00
391.39	16.38
391.58	42.13
391.78	0.00
391.97	0.00
392.16	77.24
392.36	0.00
392.55	37.45
392.75	23.41
392.94	49.15
393.13	0.00
393.33	28.09
393.52	0.00
393.71	11.70
393.91	0.00
394.10	0.00
394.29	30.43
394.49	0.00
394.68	72.56
394.88	0.00
395.07	79.58
395.26	28.09
395.46	21.06
395.65	49.15
395.84	0.00
396.04	0.00
396.23	46.81
396.42	70.22
396.62	65.54
396.81	0.00
397.00	74.90
397.19	39.79
397.39	23.41
397.58	0.00
397.77	0.00
397.97	4.68
398.16	0.00
398.35	9.36
398.55	11.70
398.74	18.72
398.93	46.81
399.12	11.70
399.32	23.41
399.51	35.11
399.70	0.00
399.90	77.24
400.09	23.41
400.28	72.56
400.47	18.72
400.67	0.00
400.86	0.00
401.05	30.43
401.24	67.88
401.44	0.00
401.63	63.19
401.82	60.85
402.01	0.00
402.21	37.45
402.40	49.15
402.59	0.00
402.78	0.00
402.97	23.41
403.17	0.00
403.36	44.47
403.55	51.49
403.74	58.51
403.93	0.00
404.13	9.36
404.32	0.00
404.51	44.47
404.70	98.30
404.89	16.38
405.09	35.11
405.28	0.00
405.47	28.09
405.66	0.00
405.85	0.00
406.05	65.54
406.24	7.02
406.43	11.70
406.62	0.00
406.81	0.00
407.00	49.15
407.20	49.15
407.39	58.51
407.58	58.51
407.77	14.04
407.96	0.00
408.15	88.94
408.34	42.13
408.54	72.56
408.73	0.00
408.92	37.45
409.11	0.00
409.30	0.00
409.49	72.56
409.68	0.00
409.87	0.00
410.07	53.83
410.26	102.98
410.45	28.09
410.64	0.00
410.83	67.88
411.02	16.38
411.21	21.06
411.40	18.72
411.59	14.04
411.78	51.49
411.98	0.00
412.17	42.13
412.36	53.83
412.55	51.49
412.74	53.83
412.93	79.58
413.12	0.00
413.31	102.98
413.50	30.43
413.69	51.49
413.88	0.00
414.07	30.43
414.26	4.68
414.45	74.90
414.64	23.41
414.83	0.00
415.02	14.04
415.22	0.00
415.41	32.77
415.60	16.38
415.79	0.00
415.98	11.70
416.17	23.41
416.36	0.00
416.55	0.00
416.74	23.41
416.93	49.15
417.12	65.54
417.31	65.54
417.50	53.83
417.69	39.79
417.88	100.64
418.07	60.85
418.26	63.19
418.45	0.00
418.64	18.72
418.83	4.68
419.02	32.77
419.21	2.34
419.39	67.88
419.58	0.00
419.77	2.34
419.96	0.00
420.15	60.85
420.34	95.96
420.53	88.94
420.72	63.19
420.91	9.36
421.10	60.85
421.29	79.58
421.48	14.04
421.67	49.15
421.86	70.22
422.05	30.43
422.24	32.77
422.43	53.83
422.61	9.36
422.80	65.54
422.99	2.34
423.18	46.81
423.37	30.43
423.56	0.00
423.75	67.88
423.94	46.81
424.13	16.38
424.32	14.04
424.50	56.17
424.69	30.43
424.88	18.72
425.07	84.26
425.26	14.04
425.45	4.68
425.64	32.77
425.83	2.34
426.01	35.11
426.20	51.49
426.39	37.45
426.58	0.00
426.77	42.13
426.96	39.79
427.15	14.04
427.33	63.19
427.52	51.49
427.71	32.77
427.90	0.00
428.09	0.00
428.28	46.81
428.46	30.43
428.65	14.04
428.84	30.43
429.03	84.26
429.22	39.79
429.40	30.43
429.59	67.88
429.78	60.85
429.97	0.00
430.16	4.68
430.34	0.00
430.53	30.43
430.72	32.77
430.91	11.70
431.10	32.77
431.28	21.06
431.47	42.13
431.66	23.41
431.85	70.22
432.03	56.17
432.22	112.35
432.41	70.22
432.60	0.00
432.79	0.00
432.97	32.77
433.16	0.00
433.35	37.45
433.54	0.00
433.72	0.00
433.91	14.04
434.10	56.17
434.28	49.15
434.47	7.02
434.66	18.72
434.85	91.28
435.03	42.13
435.22	0.00
435.41	79.58
435.59	32.77
435.78	51.49
435.97	35.11
436.16	25.75
436.34	2.34
436.53	84.26
436.72	30.43
436.90	81.92
437.09	11.70
437.28	0.00
437.46	0.00
437.65	16.38
437.84	4.68
438.02	0.00
438.21	0.00
438.40	23.41
438.58	102.98
438.77	81.92
438.96	0.00
439.14	53.83
439.33	91.28
439.52	16.38
439.70	25.75
439.89	7.02
440.08	14.04
440.26	32.77
440.45	58.51
440.63	39.79
440.82	65.54
441.01	9.36
441.19	0.00
441.38	39.79
441.57	0.00
441.75	21.06
441.94	70.22
442.12	16.38
442.31	30.43
442.50	16.38
442.68	42.13
442.87	46.81
443.05	23.41
443.24	11.70
443.43	65.54
443.61	0.00
443.80	56.17
443.98	2.34
444.17	7.02
444.35	42.13
444.54	0.00
444.73	110.01
444.91	107.66
445.10	42.13
445.28	72.56
445.47	0.00
445.65	49.15
445.84	4.68
446.02	53.83
446.21	23.41
446.39	0.00
446.58	0.00
446.77	67.88
446.95	18.72
447.14	2.34
447.32	18.72
447.51	60.85
447.69	25.75
447.88	7.02
448.06	46.81
448.25	0.00
448.43	0.00
448.62	72.56
448.80	63.19
448.99	44.47
449.17	14.04
449.36	98.30
449.54	11.70
449.73	25.75
449.91	44.47
450.10	32.77
450.28	0.00
450.46	16.38
450.65	0.00
450.83	7.02
451.02	107.66
451.20	44.47
451.39	98.30
451.57	28.09
451.76	91.28
451.94	30.43
452.13	18.72
452.31	25.75
452.49	30.43
452.68	51.49
452.86	28.09
453.05	49.15
453.23	16.38
453.42	42.13
453.60	49.15
453.78	60.85
453.97	23.41
454.15	18.72
454.34	79.58
454.52	30.43
454.70	16.38
454.89	58.51
455.07	58.51
455.26	39.79
455.44	39.79
455.62	14.04
455.81	16.38
455.99	58.51
456.17	30.43
456.36	11.70
456.54	77.24
456.73	98.30
456.91	46.81
457.09	42.13
457.28	88.94
457.46	37.45
457.64	0.00
457.83	74.90
458.01	49.15
458.19	14.04
458.38	126.39
458.56	72.56
458.74	110.01
458.93	98.30
459.11	0.00
459.29	0.00
459.48	42.13
459.66	77.24
459.84	60.85
460.03	67.88
460.21	42.13
460.39	0.00
460.57	30.43
460.76	60.85
460.94	53.83
461.12	74.90
461.31	74.90
461.49	70.22
461.67	84.26
461.85	51.49
462.04	53.83
462.22	180.22
462.40	49.15
462.59	35.11
462.77	93.62
462.95	30.43
463.13	51.49
463.32	72.56
463.50	46.81
463.68	49.15
463.86	72.56
464.05	0.00
464.23	72.56
464.41	0.00
464.59	81.92
464.78	14.04
464.96	0.00
465.14	11.70
465.32	0.00
465.50	0.00
465.69	0.00
465.87	32.77
466.05	0.00
466.23	30.43
466.41	28.09
466.60	0.00
466.78	21.06
466.96	2.34
467.14	0.00
467.32	18.72
467.51	44.47
467.69	37.45
467.87	18.72
468.05	84.26
468.23	4.68
468.41	63.19
468.60	42.13
468.78	30.43
468.96	2.34
469.14	0.00
469.32	91.28
469.50	44.47
469.69	110.01
469.87	60.85
470.05	0.00
470.23	46.81
470.41	18.72
470.59	30.43
470.77	44.47
470.95	86.60
471.14	42.13
471.32	11.70
471.50	95.96
471.68	51.49
471.86	0.00
472.04	39.79
472.22	23.41
472.40	39.79
472.58	16.38
472.77	49.15
472.95	60.85
473.13	60.85
473.31	35.11
473.49	0.00
473.67	16.38
473.85	0.00
474.03	30.43
474.21	44.47
474.39	32.77
474.57	60.85
474.75	0.00
474.93	77.24
475.12	44.47
475.30	0.00
475.48	0.00
475.66	4.68
475.84	72.56
476.02	51.49
476.20	72.56
476.38	18.72
476.56	74.90
476.74	30.43
476.92	14.04
477.10	53.83
477.28	21.06
477.46	18.72
477.64	49.15
477.82	23.41
478.00	9.36
478.18	14.04
478.36	49.15
478.54	51.49
478.72	60.85
478.90	32.77
479.08	53.83
479.26	0.00
479.44	0.00
479.62	49.15
479.80	46.81
479.98	23.41
480.16	58.51
480.34	51.49
480.52	53.83
480.70	4.68
480.88	32.77
481.06	16.38
481.24	56.17
481.41	65.54
481.59	56.17
481.77	9.36
481.95	46.81
482.13	0.00
482.31	0.00
482.49	14.04
482.67	70.22
482.85	4.68
483.03	60.85
483.21	0.00
483.39	9.36
483.57	0.00
483.74	30.43
483.92	9.36
484.10	98.30
484.28	49.15
484.46	35.11
484.64	35.11
484.82	49.15
485.00	0.00
485.18	28.09
485.35	9.36
485.53	2.34
485.71	56.17
485.89	0.00
486.07	72.56
486.25	25.75
486.43	60.85
486.61	51.49
486.78	16.38
486.96	0.00
487.14	28.09
487.32	21.06
487.50	93.62
487.68	91.28
487.85	16.38
488.03	49.15
488.21	39.79
488.39	32.77
488.57	37.45
488.75	0.00
488.92	79.58
489.10	58.51
489.28	4.68
489.46	51.49
489.64	23.41
489.81	51.49
489.99	60.85
490.17	60.85
490.35	110.01
490.53	79.58
490.70	0.00
490.88	28.09
491.06	7.02
491.24	9.36
491.41	133.41
491.59	93.62
491.77	35.11
491.95	30.43
492.13	42.13
492.30	23.41
492.48	23.41
492.66	14.04
492.84	84.26
493.01	0.00
493.19	86.60
493.37	9.36
493.54	28.09
493.72	2.34
493.90	81.92
494.08	51.49
494.25	72.56
494.43	44.47
494.61	88.94
494.79	95.96
494.96	0.00
495.14	81.92
495.32	28.09
495.49	74.90
495.67	51.49
495.85	16.38
496.02	28.09
496.20	79.58
496.38	0.00
496.55	53.83
496.73	0.00
496.91	0.00
497.09	23.41
497.26	112.35
497.44	46.81
497.62	23.41
497.79	95.96
497.97	37.45
498.14	46.81
498.32	56.17
498.50	46.81
498.67	25.75
498.85	93.62
499.03	14.04
499.20	37.45
499.38	67.88
499.56	67.88
499.73	84.26
499.91	51.49
500.08	51.49
500.26	98.30
500.44	79.58
500.61	0.00
500.79	44.47
500.97	0.00
501.14	60.85
501.32	18.72
501.49	7.02
501.67	44.47
501.84	28.09
502.02	39.79
502.20	56.17
502.37	0.00
502.55	46.81
502.72	0.00
502.90	46.81
503.07	53.83
503.25	18.72
503.43	42.13
503.60	67.88
503.78	51.49
503.95	39.79
504.13	39.79
504.30	60.85
504.48	140.43
504.65	9.36
504.83	51.49
505.01	21.06
505.18	0.00
505.36	0.00
505.53	60.85
505.71	35.11
505.88	9.36
506.06	7.02
506.23	14.04
506.41	0.00
506.58	39.79
506.76	42.13
506.93	53.83
507.11	28.09
507.28	16.38
507.46	77.24
507.63	74.90
507.81	9.36
507.98	18.72
508.16	126.39
508.33	74.90
508.50	0.00
508.68	32.77
508.85	14.04
509.03	67.88
509.20	0.00
509.38	98.30
509.55	63.19
509.73	42.13
509.90	42.13
510.08	0.00
510.25	14.04
510.42	7.02
510.60	0.00
510.77	0.00
510.95	100.64
511.12	30.43
511.30	39.79
511.47	74.90
511.64	18.72
511.82	0.00
511.99	46.81
512.17	25.75
512.34	56.17
512.51	42.13
512.69	100.64
512.86	49.15
513.04	0.00
513.21	65.54
513.38	49.15
513.56	0.00
513.73	11.70
513.90	63.19
514.08	0.00
514.25	65.54
514.43	0.00
514.60	0.00
514.77	46.81
514.95	39.79
515.12	51.49
515.29	79.58
515.47	98.30
515.64	67.88
515.81	42.13
515.99	65.54
516.16	25.75
516.33	88.94
516.51	91.28
516.68	30.43
516.85	23.41
517.03	25.75
517.20	58.51
517.37	84.26
517.54	39.79
517.72	58.51
517.89	95.96
518.06	51.49
518.24	72.56
518.41	72.56
518.58	56.17
518.75	81.92
518.93	93.62
519.10	18.72
519.27	95.96
519.45	56.17
519.62	0.00
519.79	37.45
519.96	60.85
520.14	60.85
520.31	93.62
520.48	32.77
520.65	56.17
520.83	32.77
521.00	37.45
521.17	114.69
521.34	58.51
521.52	44.47
521.69	32.77
521.86	46.81
522.03	2.34
522.20	39.79
522.38	51.49
522.55	30.43
522.72	63.19
522.89	0.00
523.07	63.19
523.24	121.71
523.41	18.72
523.58	84.26
523.75	60.85
523.92	7.02
524.10	112.35
524.27	25.75
524.44	67.88
524.61	58.51
524.78	21.06
524.96	53.83
525.13	72.56
525.30	70.22
525.47	93.62
525.64	0.00
525.81	37.45
525.98	84.26
526.16	16.38
526.33	9.36
526.50	0.00
526.67	0.00
526.84	86.60
527.01	0.00
527.18	74.90
527.36	14.04
527.53	23.41
527.70	46.81
527.87	16.38
528.04	93.62
528.21	67.88
528.38	9.36
528.55	72.56
528.72	56.17
528.89	93.62
529.07	49.15
529.24	63.19
529.41	0.00
529.58	0.00
529.75	44.47
529.92	42.13
530.09	23.41
530.26	32.77
530.43	4.68
530.60	42.13
530.77	30.43
530.94	4.68
531.11	56.17
531.28	142.77
531.46	77.24
531.63	4.68
531.80	51.49
531.97	147.45
532.14	0.00
532.31	119.37
532.48	58.51
532.65	9.36
532.82	58.51
532.99	93.62
533.16	46.81
533.33	21.06
533.50	72.56
533.67	18.72
533.84	44.47
534.01	25.75
534.18	0.00
534.35	91.28
534.52	11.70
534.69	2.34
534.86	44.47
535.03	65.54
535.20	42.13
535.37	60.85
535.54	23.41
535.71	88.94
535.88	11.70
536.05	7.02
536.22	23.41
536.38	72.56
536.55	65.54
536.72	58.51
536.89	14.04
537.06	0.00
537.23	14.04
537.40	16.38
537.57	63.19
537.74	84.26
537.91	0.00
538.08	65.54
538.25	51.49
538.42	84.26
538.59	0.00
538.75	23.41
538.92	9.36
539.09	0.00
539.26	11.70
539.43	86.60
539.60	7.02
539.77	0.00
539.94	0.00
540.11	0.00
540.28	42.13
540.44	35.11
540.61	65.54
540.78	67.88
540.95	7.02
541.12	37.45
541.29	46.81
541.46	23.41
541.62	39.79
541.79	63.19
541.96	35.11
542.13	46.81
542.30	72.56
542.47	7.02
542.63	49.15
542.80	18.72
542.97	49.15
543.14	0.00
543.31	0.00
543.48	16.38
543.64	49.15
543.81	60.85
543.98	0.00
544.15	32.77
544.32	46.81
544.48	65.54
544.65	72.56
544.82	0.00
544.99	28.09
545.16	72.56
545.32	0.00
545.49	60.85
545.66	0.00
545.83	4.68
546.00	84.26
546.16	60.85
546.33	49.15
546.50	42.13
546.67	23.41
546.83	7.02
547.00	37.45
547.17	11.70
547.34	72.56
547.50	77.24
547.67	14.04
547.84	70.22
548.00	28.09
548.17	67.88
548.34	91.28
548.51	124.05
548.67	32.77
548.84	11.70
549.01	11.70
549.18	37.45
549.34	117.03
549.51	0.00
549.68	58.51
549.84	0.00
550.01	60.85
550.18	70.22
550.34	23.41
550.51	60.85
550.68	63.19
550.84	25.75
551.01	9.36
551.18	23.41
551.34	16.38
551.51	74.90
551.68	32.77
551.84	56.17
552.01	42.13
552.18	0.00
552.34	65.54
552.51	0.00
552.68	98.30
552.84	32.77
553.01	67.88
553.18	23.41
553.34	11.70
553.51	72.56
553.67	77.24
553.84	42.13
554.01	0.00
554.17	42.13
554.34	16.38
554.51	39.79
554.67	72.56
554.84	18.72
555.00	72.56
555.17	0.00
555.33	14.04
555.50	18.72
555.67	35.11
555.83	21.06
556.00	51.49
556.16	70.22
556.33	72.56
556.50	25.75
556.66	11.70
556.83	42.13
556.99	9.36
557.16	7.02
557.32	32.77
557.49	18.72
557.65	2.34
557.82	63.19
557.98	2.34
558.15	46.81
558.32	23.41
558.48	44.47
558.65	18.72
558.81	81.92
558.98	18.72
559.14	0.00
559.31	65.54
559.47	67.88
559.64	35.11
559.80	30.43
559.97	11.70
560.13	95.96
560.30	16.38
560.46	67.88
560.63	18.72
560.79	0.00
560.96	79.58
561.12	39.79
561.29	84.26
561.45	35.11
561.61	0.00
561.78	2.34
561.94	88.94
562.11	81.92
562.27	56.17
562.44	25.75
562.60	0.00
562.77	65.54
562.93	98.30
563.10	0.00
563.26	30.43
563.42	72.56
563.59	74.90
563.75	84.26
563.92	128.73
564.08	93.62
564.24	51.49
564.41	67.88
564.57	65.54
564.74	25.75
564.90	58.51
565.07	16.38
565.23	16.38
565.39	102.98
565.56	63.19
565.72	32.77
565.88	35.11
566.05	93.62
566.21	81.92
566.38	84.26
566.54	28.09
566.70	23.41
566.87	0.00
567.03	56.17
567.19	102.98
567.36	88.94
567.52	58.51
567.68	0.00
567.85	70.22
568.01	86.60
568.17	77.24
568.34	42.13
568.50	0.00
568.66	0.00
568.83	39.79
568.99	32.77
569.15	0.00
569.32	42.13
569.48	9.36
569.64	0.00
569.81	51.49
569.97	21.06
570.13	4.68
570.30	51.49
570.46	44.47
570.62	39.79
570.78	32.77
570.95	14.04
571.11	46.81
571.27	86.60
571.43	72.56
571.60	95.96
571.76	46.81
571.92	32.77
572.09	81.92
572.25	21.06
572.41	63.19
572.57	49.15
572.74	35.11
572.90	60.85
573.06	4.68
573.22	65.54
573.38	74.90
573.55	86.60
573.71	44.47
573.87	30.43
574.03	63.19
574.20	16.38
574.36	37.45
574.52	56.17
574.68	23.41
574.84	0.00
575.01	25.75
575.17	9.36
575.33	53.83
575.49	0.00
575.65	72.56
575.82	30.43
575.98	84.26
576.14	0.00
576.30	0.00
576.46	28.09
576.62	0.00
576.79	65.54
576.95	11.70
577.11	49.15
577.27	9.36
577.43	44.47
577.59	28.09
577.75	23.41
577.92	56.17
578.08	74.90
578.24	49.15
578.40	60.85
578.56	44.47
578.72	58.51
578.88	28.09
579.04	46.81
579.21	67.88
579.37	28.09
579.53	39.79
579.69	67.88
579.85	32.77
580.01	9.36
580.17	30.43
580.33	0.00
580.49	51.49
580.65	11.70
580.82	0.00
580.98	65.54
581.14	30.43
581.30	16.38
581.46	0.00
581.62	46.81
581.78	77.24
581.94	112.35
582.10	107.66
582.26	74.90
582.42	65.54
582.58	42.13
582.74	0.00
582.90	0.00
583.06	95.96
583.22	49.15
583.38	42.13
583.54	30.43
583.70	51.49
583.86	7.02
584.02	0.00
584.18	58.51
584.34	0.00
584.50	32.77
584.66	0.00
584.82	23.41
584.98	51.49
585.14	53.83
585.30	98.30
585.46	7.02
585.62	72.56
585.78	21.06
585.94	30.43
586.10	58.51
586.26	56.17
586.42	84.26
586.58	53.83
586.74	37.45
586.90	86.60
587.06	35.11
587.22	30.43
587.38	0.00
587.54	46.81
587.70	11.70
587.86	0.00
588.02	42.13
588.18	72.56
588.34	0.00
588.49	0.00
588.65	0.00
588.81	18.72
588.97	21.06
589.13	21.06
589.29	39.79
589.45	51.49
589.61	32.77
589.77	93.62
589.93	63.19
590.08	110.01
590.24	0.00
590.40	56.17
590.56	9.36
590.72	93.62
590.88	53.83
591.04	72.56
591.20	16.38
591.35	35.11
591.51	39.79
591.67	81.92
591.83	21.06
591.99	56.17
592.15	0.00
592.31	0.00
592.46	46.81
592.62	51.49
592.78	21.06
592.94	0.00
593.10	95.96
593.26	128.73
593.41	14.04
593.57	63.19
593.73	91.28
593.89	72.56
594.05	65.54
594.20	0.00
594.36	105.32
594.52	56.17
594.68	44.47
594.84	53.83
594.99	0.00
595.15	11.70
595.31	51.49
595.47	51.49
595.62	60.85
595.78	30.43
595.94	7.02
596.10	0.00
596.25	107.66
596.41	37.45
596.57	23.41
596.73	28.09
596.88	63.19
597.04	72.56
597.20	44.47
597.36	51.49
597.51	74.90
597.67	32.77
597.83	102.98
597.99	16.38
598.14	0.00
598.30	53.83
598.46	81.92
598.61	0.00
598.77	63.19
598.93	4.68
599.09	0.00
599.24	21.06
599.40	37.45
599.56	46.81
599.71	9.36
599.87	42.13
600.03	70.22
600.18	0.00
600.34	84.26
600.50	65.54
600.65	39.79
600.81	56.17
600.97	4.68
601.12	42.13
601.28	0.00
601.44	30.43
601.59	35.11
601.75	37.45
601.91	77.24
602.06	91.28
602.22	84.26
602.37	0.00
602.53	0.00
602.69	72.56
602.84	0.00
603.00	0.00
603.16	49.15
603.31	0.00
603.47	58.51
603.62	63.19
603.78	67.88
603.94	56.17
604.09	39.79
604.25	0.00
604.40	95.96
604.56	11.70
604.71	25.75
604.87	2.34
605.03	21.06
605.18	4.68
605.34	28.09
605.49	42.13
605.65	16.38
605.80	58.51
605.96	0.00
606.12	53.83
606.27	58.51
606.43	0.00
606.58	56.17
606.74	51.49
606.89	65.54
607.05	0.00
607.20	16.38
607.36	70.22
607.51	152.13
607.67	4.68
607.82	39.79
607.98	32.77
608.13	42.13
608.29	0.00
608.44	56.17
608.60	37.45
608.75	37.45
608.91	72.56
609.06	2.34
609.22	16.38
609.37	51.49
609.53	0.00
609.68	28.09
609.84	67.88
609.99	30.43
610.15	30.43
610.30	25.75
610.46	60.85
610.61	35.11
610.76	86.60
610.92	23.41
611.07	84.26
611.23	81.92
611.38	51.49
611.54	16.38
611.69	11.70
611.84	14.04
612.00	42.13
612.15	0.00
612.31	30.43
612.46	56.17
612.62	0.00
612.77	58.51
612.92	112.35
613.08	86.60
613.23	32.77
613.39	0.00
613.54	42.13
613.69	7.02
613.85	37.45
614.00	21.06
614.15	0.00
614.31	2.34
614.46	28.09
614.62	42.13
614.77	0.00
614.92	98.30
615.08	0.00
615.23	7.02
615.38	65.54
615.54	65.54
615.69	23.41
615.84	65.54
616.00	56.17
616.15	60.85
616.30	23.41
616.46	91.28
616.61	0.00
616.76	9.36
616.92	67.88
617.07	0.00
617.22	77.24
617.37	53.83
617.53	4.68
617.68	95.96
617.83	105.32
617.99	30.43
618.14	46.81
618.29	44.47
618.45	86.60
618.60	51.49
618.75	23.41
618.90	28.09
619.06	56.17
619.21	60.85
619.36	0.00
619.51	56.17
619.67	0.00
619.82	56.17
619.97	16.38
620.12	93.62
620.28	30.43
620.43	49.15
620.58	0.00
620.73	25.75
620.89	21.06
621.04	0.00
621.19	124.05
621.34	42.13
621.49	42.13
621.65	0.00
621.80	56.17
621.95	23.41
622.10	67.88
622.25	51.49
622.41	0.00
622.56	147.45
622.71	0.00
622.86	28.09
623.01	58.51
623.16	44.47
623.32	0.00
623.47	46.81
623.62	2.34
623.77	0.00
623.92	49.15
624.07	0.00
624.23	0.00
624.38	23.41
624.53	0.00
624.68	37.45
624.83	70.22
624.98	51.49
625.13	9.36
625.29	67.88
625.44	0.00
625.59	7.02
625.74	79.58
625.89	77.24
626.04	81.92
626.19	25.75
626.34	14.04
626.49	37.45
626.65	0.00
626.80	0.00
626.95	72.56
627.10	79.58
627.25	25.75
627.40	53.83
627.55	84.26
627.70	25.75
627.85	25.75
628.00	84.26
628.15	11.70
628.30	58.51
628.45	4.68
628.60	21.06
628.76	46.81
628.91	49.15
629.06	67.88
629.21	0.00
629.36	67.88
629.51	42.13
629.66	88.94
629.81	70.22
629.96	77.24
630.11	39.79
630.26	18.72
630.41	114.69
630.56	35.11
630.71	18.72
630.86	9.36
631.01	14.04
631.16	74.90
631.31	44.47
631.46	37.45
631.61	0.00
631.76	16.38
631.91	77.24
632.06	0.00
632.21	39.79
632.36	49.15
632.51	124.05
632.66	63.19
632.81	42.13
632.96	42.13
633.10	53.83
633.25	102.98
633.40	0.00
633.55	42.13
633.70	46.81
633.85	4.68
634.00	72.56
634.15	7.02
634.30	37.45
634.45	51.49
634.60	0.00
634.75	30.43
634.90	21.06
635.05	44.47
635.19	21.06
635.34	88.94
635.49	4.68
635.64	39.79
635.79	56.17
635.94	88.94
636.09	0.00
636.24	42.13
636.39	11.70
636.53	25.75
636.68	74.90
636.83	28.09
636.98	0.00
637.13	37.45
637.28	28.09
637.43	23.41
637.57	14.04
637.72	37.45
637.87	46.81
638.02	88.94
638.17	42.13
638.32	42.13
638.46	18.72
638.61	37.45
638.76	37.45
638.91	16.38
639.06	107.66
639.20	53.83
639.35	56.17
639.50	53.83
639.65	32.77
639.80	79.58
639.94	91.28
640.09	53.83
640.24	56.17
640.39	0.00
640.54	0.00
640.68	117.03
640.83	9.36
640.98	67.88
641.13	21.06
641.27	70.22
641.42	77.24
641.57	53.83
641.72	25.75
641.86	28.09
642.01	9.36
642.16	67.88
642.31	44.47
642.45	32.77
642.60	0.00
642.75	21.06
642.90	23.41
643.04	4.68
643.19	0.00
643.34	16.38
643.48	32.77
643.63	63.19
643.78	28.09
643.93	0.00
644.07	107.66
644.22	46.81
644.37	0.00
644.51	0.00
644.66	46.81
644.81	39.79
644.95	46.81
645.10	79.58
645.25	0.00
645.39	74.90
645.54	67.88
645.69	63.19
645.83	0.00
645.98	21.06
646.13	79.58
646.27	49.15
646.42	39.79
646.57	18.72
646.71	16.38
646.86	32.77
647.00	42.13
647.15	28.09
647.30	0.00
647.44	46.81
647.59	105.32
647.74	18.72
647.88	63.19
648.03	0.00
648.17	0.00
648.32	0.00
648.47	0.00
648.61	0.00
648.76	0.00
648.90	30.43
649.05	63.19
649.20	95.96
649.34	95.96
649.49	30.43
649.63	77.24
649.78	0.00
649.92	95.96
650.07	49.15
650.21	23.41
650.36	16.38
650.51	9.36
650.65	23.41
650.80	4.68
650.94	79.58
651.09	28.09
651.23	2.34
651.38	0.00
651.52	58.51
651.67	42.13
651.81	46.81
651.96	14.04
652.10	0.00
652.25	32.77
652.39	32.77
652.54	60.85
652.68	21.06
652.83	37.45
652.97	21.06
653.12	0.00
653.26	18.72
653.41	18.72
653.55	18.72
653.70	35.11
653.84	0.00
653.99	72.56
654.13	46.81
654.27	114.69
654.42	21.06
654.56	49.15
654.71	42.13
654.85	28.09
655.00	7.02
655.14	16.38
655.29	60.85
655.43	42.13
655.57	11.70
655.72	0.00
655.86	16.38
656.01	42.13
656.15	53.83
656.30	16.38
656.44	30.43
656.58	37.45
656.73	35.11
656.87	77.24
657.01	28.09
657.16	56.17
657.30	81.92
657.45	0.00
657.59	60.85
657.73	30.43
657.88	0.00
658.02	46.81
658.16	0.00
658.31	2.34
658.45	2.34
658.60	0.00
658.74	32.77
658.88	30.43
659.03	0.00
659.17	126.39
659.31	46.81
659.46	0.00
659.60	0.00
659.74	2.34
659.89	58.51
660.03	39.79
660.17	21.06
660.32	32.77
660.46	0.00
660.60	35.11
660.74	39.79
660.89	14.04
661.03	0.00
661.17	2.34
661.32	0.00
661.46	0.00
661.60	35.11
661.74	16.38
661.89	44.47
662.03	72.56
662.17	72.56
662.31	23.41
662.46	56.17
662.60	16.38
662.74	0.00
662.88	74.90
663.03	18.72
663.17	4.68
663.31	0.00
663.45	65.54
663.60	51.49
663.74	84.26
663.88	30.43
664.02	25.75
664.17	11.70
664.31	49.15
664.45	65.54
664.59	2.34
664.73	46.81
664.88	74.90
665.02	0.00
665.16	51.49
665.30	81.92
665.44	16.38
665.59	67.88
665.73	70.22
665.87	0.00
666.01	0.00
666.15	0.00
666.29	46.81
666.44	35.11
666.58	60.85
666.72	98.30
666.86	46.81
667.00	93.62
667.14	84.26
667.28	84.26
667.43	0.00
667.57	0.00
667.71	53.83
667.85	44.47
667.99	0.00
668.13	11.70
668.27	91.28
668.41	131.07
668.56	30.43
668.70	0.00
668.84	11.70
668.98	0.00
669.12	100.64
669.26	28.09
669.40	51.49
669.54	53.83
669.68	77.24
669.82	28.09
669.96	42.13
670.10	70.22
670.25	7.02
670.39	60.85
670.53	51.49
670.67	60.85
670.81	0.00
670.95	18.72
671.09	93.62
671.23	49.15
671.37	4.68
671.51	0.00
671.65	65.54
671.79	105.32
671.93	42.13
672.07	0.00
672.21	42.13
672.35	0.00
672.49	44.47
672.63	121.71
672.77	16.38
672.91	0.00
673.05	4.68
673.19	25.75
673.33	0.00
673.47	11.70
673.61	44.47
673.75	44.47
673.89	9.36
674.03	56.17
674.17	53.83
674.31	2.34
674.45	65.54
674.59	14.04
674.73	4.68
674.87	2.34
675.01	28.09
675.15	0.00
675.29	88.94
675.43	91.28
675.56	16.38
675.70	11.70
675.84	0.00
675.98	30.43
676.12	112.35
676.26	70.22
676.40	25.75
676.54	88.94
676.68	112.35
676.82	0.00
676.96	42.13
677.10	0.00
677.23	32.77
677.37	0.00
677.51	53.83
677.65	14.04
677.79	53.83
677.93	23.41
678.07	21.06
678.21	53.83
678.34	0.00
678.48	0.00
678.62	0.00
678.76	23.41
678.90	56.17
679.04	42.13
679.18	14.04
679.31	77.24
679.45	0.00
679.59	14.04
679.73	0.00
679.87	53.83
680.00	0.00
680.14	9.36
680.28	60.85
680.42	0.00
680.56	7.02
680.70	37.45
680.83	44.47
680.97	23.41
681.11	65.54
681.25	16.38
681.39	35.11
681.52	44.47
681.66	7.02
681.80	18.72
681.94	28.09
682.07	37.45
682.21	28.09
682.35	0.00
682.49	7.02
682.62	42.13
682.76	86.60
682.90	0.00
683.04	53.83
683.17	37.45
683.31	21.06
683.45	44.47
683.59	93.62
683.72	14.04
683.86	35.11
684.00	81.92
684.13	39.79
684.27	0.00
684.41	44.47
684.55	21.06
684.68	0.00
684.82	44.47
684.96	44.47
685.09	65.54
685.23	14.04
685.37	0.00
685.50	42.13
685.64	39.79
685.78	14.04
685.91	51.49
686.05	67.88
686.19	51.49
686.32	77.24
686.46	14.04
686.60	39.79
686.73	21.06
686.87	37.45
687.01	0.00
687.14	35.11
687.28	21.06
687.42	0.00
687.55	21.06
687.69	42.13
687.82	18.72
687.96	53.83
688.10	35.11
688.23	2.34
688.37	28.09
688.50	0.00
688.64	79.58
688.78	88.94
688.91	42.13
689.05	53.83
689.18	23.41
689.32	58.51
689.46	30.43
689.59	39.79
689.73	67.88
689.86	18.72
690.00	46.81
690.13	4.68
690.27	18.72
690.41	14.04
690.54	0.00
690.68	0.00
690.81	88.94
690.95	30.43
691.08	21.06
691.22	63.19
691.35	65.54
691.49	0.00
691.62	86.60
691.76	100.64
691.89	42.13
692.03	32.77
692.16	0.00
692.30	30.43
692.43	0.00
692.57	0.00
692.70	4.68
692.84	11.70
692.97	0.00
693.11	0.00
693.24	77.24
693.38	0.00
693.51	14.04
693.65	2.34
693.78	58.51
693.92	44.47
694.05	98.30
694.19	39.79
694.32	39.79
694.45	84.26
694.59	39.79
694.72	0.00
694.86	0.00
694.99	23.41
695.13	93.62
695.26	44.47
695.39	63.19
695.53	74.90
695.66	11.70
695.80	46.81
695.93	0.00
696.07	46.81
696.20	14.04
696.33	0.00
696.47	18.72
696.60	0.00
696.73	0.00
696.87	53.83
697.00	0.00
697.14	4.68
697.27	72.56
697.40	21.06
697.54	0.00
697.67	37.45
697.80	35.11
697.94	42.13
698.07	21.06
698.21	131.07
698.34	46.81
698.47	30.43
698.61	0.00
698.74	0.00
698.87	0.00
699.01	7.02
699.14	4.68
699.27	72.56
699.40	95.96
699.54	51.49
699.67	25.75
699.80	44.47
699.94	0.00
700.07	32.77
700.20	28.09
700.34	14.04
700.47	7.02
700.60	0.00
700.73	37.45
700.87	21.06
701.00	72.56
701.13	49.15
701.26	30.43
701.40	42.13
701.53	42.13
701.66	60.85
701.79	32.77
701.93	0.00
702.06	30.43
702.19	74.90
702.32	70.22
702.46	0.00
702.59	23.41
702.72	37.45
702.85	0.00
702.99	56.17
703.12	58.51
703.25	16.38
703.38	30.43
703.51	53.83
703.65	0.00
703.78	9.36
703.91	72.56
704.04	0.00
704.17	56.17
704.31	21.06
704.44	14.04
704.57	88.94
704.70	23.41
704.83	112.35
704.96	77.24
705.10	0.00
705.23	9.36
>>>>>End Processed Spectral Data<<<<<
