SpectraSuite Data File
++++++++++++++++++++++++++++++++++++
Date: Fri Oct 04 12:13:42 GMT-05:00 2013
User: price-jones
Dark Spectrum Present: No
Reference Spectrum Present: No
Number of Sampled Component Spectra: 1
Spectrometers: USB2+H05261
Integration Time (usec): 10000 (USB2+H05261)
Spectra Averaged: 1 (USB2+H05261)
Boxcar Smoothing: 0 (USB2+H05261)
Correct for Electrical Dark: No (USB2+H05261)
Strobe/Lamp Enabled: No (USB2+H05261)
Correct for Detector Non-linearity: No (USB2+H05261)
Correct for Stray Light: No (USB2+H05261)
Number of Pixels in Processed Spectrum: 2048
>>>>>Begin Processed Spectral Data<<<<<
365.73	46.81
365.92	46.81
366.12	46.81
366.32	0.00
366.52	0.00
366.72	0.00
366.91	0.00
367.11	0.00
367.31	0.00
367.51	0.00
367.70	0.00
367.90	0.00
368.10	0.00
368.30	0.00
368.49	0.00
368.69	0.00
368.89	0.00
369.09	0.00
369.28	0.00
369.48	0.00
369.68	0.00
369.87	0.00
370.07	0.00
370.27	0.00
370.47	0.00
370.66	0.00
370.86	0.00
371.06	0.00
371.25	0.00
371.45	0.00
371.65	0.00
371.84	0.00
372.04	0.00
372.24	51.49
372.44	0.00
372.63	77.24
372.83	42.13
373.03	30.43
373.22	53.83
373.42	11.70
373.62	65.54
373.81	39.79
374.01	9.36
374.21	2.34
374.40	0.00
374.60	51.49
374.79	88.94
374.99	30.43
375.19	133.41
375.38	124.05
375.58	42.13
375.78	2.34
375.97	2.34
376.17	35.11
376.37	112.35
376.56	0.00
376.76	0.00
376.95	0.00
377.15	0.00
377.35	23.41
377.54	44.47
377.74	35.11
377.93	30.43
378.13	72.56
378.33	44.47
378.52	0.00
378.72	4.68
378.91	0.00
379.11	32.77
379.31	4.68
379.50	0.00
379.70	28.09
379.89	42.13
380.09	23.41
380.28	0.00
380.48	25.75
380.68	60.85
380.87	35.11
381.07	0.00
381.26	16.38
381.46	37.45
381.65	16.38
381.85	9.36
382.04	0.00
382.24	42.13
382.43	32.77
382.63	23.41
382.83	0.00
383.02	0.00
383.22	56.17
383.41	0.00
383.61	0.00
383.80	28.09
384.00	0.00
384.19	105.32
384.39	42.13
384.58	0.00
384.78	60.85
384.97	0.00
385.17	0.00
385.36	0.00
385.56	35.11
385.75	74.90
385.95	7.02
386.14	44.47
386.34	9.36
386.53	23.41
386.72	44.47
386.92	72.56
387.11	72.56
387.31	28.09
387.50	0.00
387.70	21.06
387.89	53.83
388.09	51.49
388.28	37.45
388.48	39.79
388.67	35.11
388.86	44.47
389.06	0.00
389.25	95.96
389.45	28.09
389.64	35.11
389.84	60.85
390.03	42.13
390.22	100.64
390.42	7.02
390.61	37.45
390.81	93.62
391.00	58.51
391.19	86.60
391.39	46.81
391.58	51.49
391.78	0.00
391.97	0.00
392.16	4.68
392.36	0.00
392.55	133.41
392.75	46.81
392.94	0.00
393.13	0.00
393.33	28.09
393.52	35.11
393.71	0.00
393.91	53.83
394.10	56.17
394.29	18.72
394.49	25.75
394.68	39.79
394.88	32.77
395.07	49.15
395.26	28.09
395.46	0.00
395.65	4.68
395.84	32.77
396.04	77.24
396.23	14.04
396.42	0.00
396.62	9.36
396.81	25.75
397.00	46.81
397.19	81.92
397.39	2.34
397.58	0.00
397.77	0.00
397.97	79.58
398.16	42.13
398.35	58.51
398.55	4.68
398.74	86.60
398.93	9.36
399.12	56.17
399.32	51.49
399.51	119.37
399.70	91.28
399.90	77.24
400.09	102.98
400.28	18.72
400.47	0.00
400.67	9.36
400.86	49.15
401.05	39.79
401.24	0.00
401.44	86.60
401.63	77.24
401.82	77.24
402.01	60.85
402.21	0.00
402.40	51.49
402.59	42.13
402.78	51.49
402.97	4.68
403.17	51.49
403.36	0.00
403.55	70.22
403.74	37.45
403.93	25.75
404.13	84.26
404.32	0.00
404.51	25.75
404.70	32.77
404.89	86.60
405.09	63.19
405.28	67.88
405.47	14.04
405.66	30.43
405.85	11.70
406.05	18.72
406.24	51.49
406.43	70.22
406.62	44.47
406.81	25.75
407.00	74.90
407.20	84.26
407.39	44.47
407.58	44.47
407.77	79.58
407.96	70.22
408.15	30.43
408.34	4.68
408.54	0.00
408.73	63.19
408.92	81.92
409.11	0.00
409.30	0.00
409.49	7.02
409.68	0.00
409.87	72.56
410.07	30.43
410.26	58.51
410.45	23.41
410.64	93.62
410.83	21.06
411.02	60.85
411.21	7.02
411.40	65.54
411.59	16.38
411.78	21.06
411.98	7.02
412.17	0.00
412.36	0.00
412.55	42.13
412.74	4.68
412.93	39.79
413.12	95.96
413.31	98.30
413.50	0.00
413.69	110.01
413.88	16.38
414.07	14.04
414.26	49.15
414.45	56.17
414.64	44.47
414.83	0.00
415.02	110.01
415.22	35.11
415.41	9.36
415.60	84.26
415.79	42.13
415.98	25.75
416.17	32.77
416.36	63.19
416.55	25.75
416.74	53.83
416.93	42.13
417.12	21.06
417.31	0.00
417.50	128.73
417.69	72.56
417.88	121.71
418.07	114.69
418.26	56.17
418.45	7.02
418.64	49.15
418.83	18.72
419.02	39.79
419.21	0.00
419.39	77.24
419.58	49.15
419.77	51.49
419.96	23.41
420.15	44.47
420.34	117.03
420.53	42.13
420.72	74.90
420.91	67.88
421.10	42.13
421.29	49.15
421.48	0.00
421.67	37.45
421.86	0.00
422.05	46.81
422.24	30.43
422.43	44.47
422.61	28.09
422.80	67.88
422.99	152.13
423.18	0.00
423.37	63.19
423.56	121.71
423.75	67.88
423.94	67.88
424.13	49.15
424.32	88.94
424.50	14.04
424.69	110.01
424.88	53.83
425.07	9.36
425.26	11.70
425.45	60.85
425.64	63.19
425.83	70.22
426.01	65.54
426.20	37.45
426.39	70.22
426.58	93.62
426.77	23.41
426.96	42.13
427.15	63.19
427.33	60.85
427.52	72.56
427.71	63.19
427.90	0.00
428.09	0.00
428.28	51.49
428.46	18.72
428.65	30.43
428.84	16.38
429.03	65.54
429.22	2.34
429.40	44.47
429.59	51.49
429.78	16.38
429.97	28.09
430.16	18.72
430.34	39.79
430.53	16.38
430.72	25.75
430.91	70.22
431.10	0.00
431.28	39.79
431.47	0.00
431.66	49.15
431.85	35.11
432.03	28.09
432.22	72.56
432.41	58.51
432.60	30.43
432.79	79.58
432.97	77.24
433.16	93.62
433.35	49.15
433.54	91.28
433.72	98.30
433.91	58.51
434.10	60.85
434.28	0.00
434.47	0.00
434.66	25.75
434.85	58.51
435.03	100.64
435.22	18.72
435.41	0.00
435.59	79.58
435.78	77.24
435.97	65.54
436.16	49.15
436.34	18.72
436.53	67.88
436.72	53.83
436.90	16.38
437.09	39.79
437.28	91.28
437.46	28.09
437.65	67.88
437.84	67.88
438.02	39.79
438.21	70.22
438.40	11.70
438.58	0.00
438.77	16.38
438.96	49.15
439.14	32.77
439.33	81.92
439.52	110.01
439.70	35.11
439.89	95.96
440.08	56.17
440.26	44.47
440.45	35.11
440.63	135.75
440.82	98.30
441.01	119.37
441.19	100.64
441.38	67.88
441.57	81.92
441.75	37.45
441.94	91.28
442.12	18.72
442.31	79.58
442.50	98.30
442.68	0.00
442.87	0.00
443.05	70.22
443.24	37.45
443.43	100.64
443.61	88.94
443.80	37.45
443.98	37.45
444.17	0.00
444.35	0.00
444.54	0.00
444.73	46.81
444.91	39.79
445.10	16.38
445.28	18.72
445.47	42.13
445.65	46.81
445.84	70.22
446.02	72.56
446.21	30.43
446.39	117.03
446.58	93.62
446.77	70.22
446.95	32.77
447.14	58.51
447.32	42.13
447.51	42.13
447.69	56.17
447.88	95.96
448.06	35.11
448.25	88.94
448.43	56.17
448.62	74.90
448.80	105.32
448.99	67.88
449.17	81.92
449.36	42.13
449.54	0.00
449.73	117.03
449.91	42.13
450.10	74.90
450.28	63.19
450.46	44.47
450.65	53.83
450.83	46.81
451.02	35.11
451.20	67.88
451.39	81.92
451.57	25.75
451.76	30.43
451.94	60.85
452.13	7.02
452.31	100.64
452.49	91.28
452.68	42.13
452.86	44.47
453.05	79.58
453.23	72.56
453.42	4.68
453.60	28.09
453.78	91.28
453.97	35.11
454.15	86.60
454.34	49.15
454.52	60.85
454.70	46.81
454.89	86.60
455.07	28.09
455.26	88.94
455.44	39.79
455.62	86.60
455.81	91.28
455.99	56.17
456.17	107.66
456.36	72.56
456.54	58.51
456.73	126.39
456.91	135.75
457.09	42.13
457.28	81.92
457.46	56.17
457.64	65.54
457.83	107.66
458.01	81.92
458.19	88.94
458.38	67.88
458.56	107.66
458.74	110.01
458.93	35.11
459.11	0.00
459.29	0.00
459.48	91.28
459.66	65.54
459.84	49.15
460.03	110.01
460.21	32.77
460.39	112.35
460.57	70.22
460.76	88.94
460.94	65.54
461.12	49.15
461.31	11.70
461.49	0.00
461.67	0.00
461.85	77.24
462.04	18.72
462.22	124.05
462.40	72.56
462.59	39.79
462.77	32.77
462.95	51.49
463.13	60.85
463.32	77.24
463.50	133.41
463.68	37.45
463.86	56.17
464.05	0.00
464.23	70.22
464.41	77.24
464.59	37.45
464.78	53.83
464.96	49.15
465.14	37.45
465.32	0.00
465.50	51.49
465.69	11.70
465.87	18.72
466.05	46.81
466.23	32.77
466.41	42.13
466.60	7.02
466.78	42.13
466.96	44.47
467.14	0.00
467.32	114.69
467.51	79.58
467.69	86.60
467.87	0.00
468.05	119.37
468.23	35.11
468.41	9.36
468.60	51.49
468.78	32.77
468.96	91.28
469.14	0.00
469.32	32.77
469.50	2.34
469.69	42.13
469.87	42.13
470.05	51.49
470.23	30.43
470.41	152.13
470.59	2.34
470.77	70.22
470.95	88.94
471.14	51.49
471.32	102.98
471.50	51.49
471.68	81.92
471.86	35.11
472.04	0.00
472.22	81.92
472.40	110.01
472.58	105.32
472.77	49.15
472.95	105.32
473.13	37.45
473.31	39.79
473.49	110.01
473.67	77.24
473.85	145.11
474.03	42.13
474.21	39.79
474.39	28.09
474.57	121.71
474.75	56.17
474.93	72.56
475.12	51.49
475.30	74.90
475.48	42.13
475.66	28.09
475.84	39.79
476.02	81.92
476.20	63.19
476.38	0.00
476.56	28.09
476.74	51.49
476.92	44.47
477.10	56.17
477.28	70.22
477.46	77.24
477.64	39.79
477.82	53.83
478.00	93.62
478.18	84.26
478.36	93.62
478.54	102.98
478.72	88.94
478.90	72.56
479.08	74.90
479.26	88.94
479.44	46.81
479.62	100.64
479.80	0.00
479.98	46.81
480.16	70.22
480.34	102.98
480.52	133.41
480.70	131.07
480.88	81.92
481.06	39.79
481.24	0.00
481.41	0.00
481.59	70.22
481.77	18.72
481.95	0.00
482.13	56.17
482.31	49.15
482.49	16.38
482.67	42.13
482.85	37.45
483.03	51.49
483.21	49.15
483.39	18.72
483.57	112.35
483.74	79.58
483.92	79.58
484.10	63.19
484.28	128.73
484.46	49.15
484.64	102.98
484.82	16.38
485.00	46.81
485.18	72.56
485.35	0.00
485.53	44.47
485.71	0.00
485.89	84.26
486.07	7.02
486.25	46.81
486.43	37.45
486.61	93.62
486.78	53.83
486.96	98.30
487.14	84.26
487.32	135.75
487.50	60.85
487.68	25.75
487.85	65.54
488.03	91.28
488.21	37.45
488.39	37.45
488.57	30.43
488.75	107.66
488.92	60.85
489.10	67.88
489.28	166.18
489.46	124.05
489.64	16.38
489.81	84.26
489.99	30.43
490.17	67.88
490.35	30.43
490.53	161.50
490.70	81.92
490.88	16.38
491.06	81.92
491.24	100.64
491.41	35.11
491.59	67.88
491.77	44.47
491.95	98.30
492.13	56.17
492.30	84.26
492.48	32.77
492.66	128.73
492.84	58.51
493.01	79.58
493.19	88.94
493.37	131.07
493.54	60.85
493.72	112.35
493.90	77.24
494.08	124.05
494.25	93.62
494.43	102.98
494.61	74.90
494.79	53.83
494.96	95.96
495.14	154.48
495.32	124.05
495.49	105.32
495.67	74.90
495.85	100.64
496.02	32.77
496.20	84.26
496.38	81.92
496.55	30.43
496.73	117.03
496.91	39.79
497.09	81.92
497.26	95.96
497.44	98.30
497.62	98.30
497.79	86.60
497.97	135.75
498.14	70.22
498.32	117.03
498.50	53.83
498.67	28.09
498.85	88.94
499.03	105.32
499.20	44.47
499.38	35.11
499.56	37.45
499.73	100.64
499.91	30.43
500.08	84.26
500.26	65.54
500.44	79.58
500.61	65.54
500.79	63.19
500.97	100.64
501.14	107.66
501.32	112.35
501.49	58.51
501.67	95.96
501.84	65.54
502.02	35.11
502.20	95.96
502.37	91.28
502.55	79.58
502.72	88.94
502.90	140.43
503.07	131.07
503.25	63.19
503.43	98.30
503.60	98.30
503.78	81.92
503.95	65.54
504.13	102.98
504.30	53.83
504.48	65.54
504.65	84.26
504.83	110.01
505.01	81.92
505.18	152.13
505.36	60.85
505.53	60.85
505.71	98.30
505.88	117.03
506.06	0.00
506.23	53.83
506.41	72.56
506.58	53.83
506.76	91.28
506.93	23.41
507.11	86.60
507.28	95.96
507.46	56.17
507.63	72.56
507.81	72.56
507.98	44.47
508.16	166.18
508.33	88.94
508.50	107.66
508.68	63.19
508.85	74.90
509.03	107.66
509.20	107.66
509.38	112.35
509.55	46.81
509.73	84.26
509.90	49.15
510.08	93.62
510.25	105.32
510.42	154.48
510.60	156.82
510.77	77.24
510.95	79.58
511.12	42.13
511.30	93.62
511.47	0.00
511.64	63.19
511.82	81.92
511.99	44.47
512.17	65.54
512.34	98.30
512.51	98.30
512.69	77.24
512.86	107.66
513.04	86.60
513.21	60.85
513.38	44.47
513.56	81.92
513.73	91.28
513.90	119.37
514.08	0.00
514.25	84.26
514.43	100.64
514.60	46.81
514.77	46.81
514.95	112.35
515.12	84.26
515.29	67.88
515.47	112.35
515.64	124.05
515.81	56.17
515.99	51.49
516.16	142.77
516.33	119.37
516.51	126.39
516.68	32.77
516.85	84.26
517.03	39.79
517.20	77.24
517.37	95.96
517.54	84.26
517.72	72.56
517.89	93.62
518.06	81.92
518.24	37.45
518.41	121.71
518.58	95.96
518.75	112.35
518.93	114.69
519.10	65.54
519.27	37.45
519.45	70.22
519.62	46.81
519.79	105.32
519.96	100.64
520.14	166.18
520.31	102.98
520.48	95.96
520.65	79.58
520.83	0.00
521.00	77.24
521.17	46.81
521.34	30.43
521.52	65.54
521.69	74.90
521.86	53.83
522.03	65.54
522.20	88.94
522.38	58.51
522.55	98.30
522.72	77.24
522.89	135.75
523.07	11.70
523.24	51.49
523.41	0.00
523.58	60.85
523.75	46.81
523.92	56.17
524.10	28.09
524.27	51.49
524.44	58.51
524.61	53.83
524.78	86.60
524.96	37.45
525.13	145.11
525.30	145.11
525.47	37.45
525.64	117.03
525.81	79.58
525.98	84.26
526.16	102.98
526.33	119.37
526.50	105.32
526.67	65.54
526.84	60.85
527.01	88.94
527.18	35.11
527.36	191.92
527.53	81.92
527.70	119.37
527.87	110.01
528.04	168.52
528.21	159.16
528.38	70.22
528.55	107.66
528.72	102.98
528.89	37.45
529.07	86.60
529.24	100.64
529.41	67.88
529.58	175.54
529.75	154.48
529.92	102.98
530.09	49.15
530.26	49.15
530.43	70.22
530.60	72.56
530.77	93.62
530.94	100.64
531.11	86.60
531.28	30.43
531.46	152.13
531.63	128.73
531.80	91.28
531.97	18.72
532.14	102.98
532.31	110.01
532.48	28.09
532.65	30.43
532.82	131.07
532.99	117.03
533.16	107.66
533.33	156.82
533.50	121.71
533.67	93.62
533.84	91.28
534.01	39.79
534.18	112.35
534.35	67.88
534.52	72.56
534.69	39.79
534.86	93.62
535.03	124.05
535.20	81.92
535.37	60.85
535.54	128.73
535.71	102.98
535.88	100.64
536.05	23.41
536.22	46.81
536.38	112.35
536.55	91.28
536.72	65.54
536.89	37.45
537.06	32.77
537.23	138.09
537.40	124.05
537.57	105.32
537.74	138.09
537.91	86.60
538.08	35.11
538.25	70.22
538.42	79.58
538.59	56.17
538.75	91.28
538.92	44.47
539.09	91.28
539.26	9.36
539.43	145.11
539.60	93.62
539.77	147.45
539.94	95.96
540.11	119.37
540.28	154.48
540.44	100.64
540.61	81.92
540.78	107.66
540.95	79.58
541.12	117.03
541.29	11.70
541.46	86.60
541.62	74.90
541.79	49.15
541.96	102.98
542.13	187.24
542.30	67.88
542.47	98.30
542.63	119.37
542.80	51.49
542.97	9.36
543.14	0.00
543.31	100.64
543.48	112.35
543.64	0.00
543.81	133.41
543.98	100.64
544.15	110.01
544.32	51.49
544.48	88.94
544.65	79.58
544.82	74.90
544.99	135.75
545.16	88.94
545.32	98.30
545.49	53.83
545.66	65.54
545.83	56.17
546.00	121.71
546.16	32.77
546.33	102.98
546.50	93.62
546.67	107.66
546.83	77.24
547.00	18.72
547.17	39.79
547.34	117.03
547.50	133.41
547.67	135.75
547.84	86.60
548.00	44.47
548.17	32.77
548.34	145.11
548.51	53.83
548.67	102.98
548.84	86.60
549.01	65.54
549.18	102.98
549.34	77.24
549.51	74.90
549.68	37.45
549.84	95.96
550.01	173.20
550.18	77.24
550.34	86.60
550.51	39.79
550.68	119.37
550.84	79.58
551.01	84.26
551.18	63.19
551.34	77.24
551.51	88.94
551.68	16.38
551.84	53.83
552.01	56.17
552.18	105.32
552.34	105.32
552.51	70.22
552.68	65.54
552.84	93.62
553.01	84.26
553.18	67.88
553.34	107.66
553.51	42.13
553.67	166.18
553.84	131.07
554.01	39.79
554.17	56.17
554.34	67.88
554.51	77.24
554.67	46.81
554.84	46.81
555.00	91.28
555.17	86.60
555.33	81.92
555.50	100.64
555.67	74.90
555.83	63.19
556.00	28.09
556.16	126.39
556.33	21.06
556.50	91.28
556.66	58.51
556.83	135.75
556.99	110.01
557.16	166.18
557.32	110.01
557.49	100.64
557.65	30.43
557.82	114.69
557.98	79.58
558.15	86.60
558.32	93.62
558.48	39.79
558.65	119.37
558.81	88.94
558.98	138.09
559.14	126.39
559.31	58.51
559.47	102.98
559.64	77.24
559.80	86.60
559.97	77.24
560.13	35.11
560.30	49.15
560.46	44.47
560.63	95.96
560.79	114.69
560.96	100.64
561.12	133.41
561.29	65.54
561.45	102.98
561.61	51.49
561.78	60.85
561.94	49.15
562.11	0.00
562.27	72.56
562.44	65.54
562.60	102.98
562.77	51.49
562.93	112.35
563.10	67.88
563.26	65.54
563.42	44.47
563.59	81.92
563.75	112.35
563.92	56.17
564.08	70.22
564.24	107.66
564.41	145.11
564.57	51.49
564.74	65.54
564.90	67.88
565.07	107.66
565.23	98.30
565.39	53.83
565.56	0.00
565.72	124.05
565.88	100.64
566.05	58.51
566.21	58.51
566.38	100.64
566.54	126.39
566.70	86.60
566.87	51.49
567.03	7.02
567.19	53.83
567.36	16.38
567.52	51.49
567.68	70.22
567.85	88.94
568.01	81.92
568.17	74.90
568.34	49.15
568.50	63.19
568.66	56.17
568.83	121.71
568.99	91.28
569.15	65.54
569.32	58.51
569.48	105.32
569.64	105.32
569.81	60.85
569.97	72.56
570.13	135.75
570.30	88.94
570.46	58.51
570.62	37.45
570.78	81.92
570.95	117.03
571.11	28.09
571.27	88.94
571.43	58.51
571.60	102.98
571.76	0.00
571.92	14.04
572.09	65.54
572.25	53.83
572.41	102.98
572.57	74.90
572.74	51.49
572.90	142.77
573.06	84.26
573.22	79.58
573.38	86.60
573.55	18.72
573.71	77.24
573.87	72.56
574.03	44.47
574.20	189.58
574.36	140.43
574.52	58.51
574.68	0.00
574.84	119.37
575.01	154.48
575.17	51.49
575.33	124.05
575.49	177.88
575.65	93.62
575.82	18.72
575.98	65.54
576.14	14.04
576.30	25.75
576.46	105.32
576.62	93.62
576.79	25.75
576.95	49.15
577.11	79.58
577.27	135.75
577.43	84.26
577.59	46.81
577.75	175.54
577.92	81.92
578.08	56.17
578.24	86.60
578.40	163.84
578.56	107.66
578.72	105.32
578.88	95.96
579.04	28.09
579.21	77.24
579.37	100.64
579.53	44.47
579.69	63.19
579.85	7.02
580.01	60.85
580.17	0.00
580.33	93.62
580.49	58.51
580.65	60.85
580.82	133.41
580.98	65.54
581.14	124.05
581.30	79.58
581.46	84.26
581.62	72.56
581.78	114.69
581.94	58.51
582.10	91.28
582.26	156.82
582.42	100.64
582.58	121.71
582.74	128.73
582.90	72.56
583.06	128.73
583.22	142.77
583.38	110.01
583.54	114.69
583.70	110.01
583.86	77.24
584.02	133.41
584.18	114.69
584.34	56.17
584.50	95.96
584.66	152.13
584.82	81.92
584.98	86.60
585.14	72.56
585.30	105.32
585.46	28.09
585.62	63.19
585.78	37.45
585.94	119.37
586.10	107.66
586.26	102.98
586.42	88.94
586.58	72.56
586.74	51.49
586.90	70.22
587.06	100.64
587.22	142.77
587.38	110.01
587.54	88.94
587.70	154.48
587.86	58.51
588.02	67.88
588.18	93.62
588.34	117.03
588.49	79.58
588.65	72.56
588.81	77.24
588.97	93.62
589.13	0.00
589.29	51.49
589.45	135.75
589.61	37.45
589.77	60.85
589.93	98.30
590.08	91.28
590.24	131.07
590.40	32.77
590.56	67.88
590.72	30.43
590.88	128.73
591.04	74.90
591.20	14.04
591.35	114.69
591.51	149.79
591.67	53.83
591.83	56.17
591.99	102.98
592.15	70.22
592.31	119.37
592.46	53.83
592.62	51.49
592.78	49.15
592.94	70.22
593.10	98.30
593.26	0.00
593.41	88.94
593.57	51.49
593.73	121.71
593.89	23.41
594.05	91.28
594.20	46.81
594.36	102.98
594.52	74.90
594.68	72.56
594.84	91.28
594.99	60.85
595.15	46.81
595.31	18.72
595.47	74.90
595.62	70.22
595.78	58.51
595.94	4.68
596.10	121.71
596.25	25.75
596.41	121.71
596.57	74.90
596.73	88.94
596.88	37.45
597.04	102.98
597.20	7.02
597.36	77.24
597.51	91.28
597.67	114.69
597.83	81.92
597.99	93.62
598.14	67.88
598.30	79.58
598.46	56.17
598.61	63.19
598.77	77.24
598.93	72.56
599.09	107.66
599.24	112.35
599.40	79.58
599.56	35.11
599.71	49.15
599.87	58.51
600.03	98.30
600.18	81.92
600.34	79.58
600.50	44.47
600.65	138.09
600.81	0.00
600.97	86.60
601.12	105.32
601.28	81.92
601.44	77.24
601.59	53.83
601.75	49.15
601.91	79.58
602.06	70.22
602.22	81.92
602.37	77.24
602.53	93.62
602.69	79.58
602.84	74.90
603.00	49.15
603.16	88.94
603.31	53.83
603.47	102.98
603.62	105.32
603.78	51.49
603.94	2.34
604.09	0.00
604.25	95.96
604.40	79.58
604.56	0.00
604.71	14.04
604.87	25.75
605.03	102.98
605.18	67.88
605.34	11.70
605.49	102.98
605.65	74.90
605.80	28.09
605.96	95.96
606.12	70.22
606.27	70.22
606.43	93.62
606.58	58.51
606.74	35.11
606.89	30.43
607.05	65.54
607.20	95.96
607.36	30.43
607.51	39.79
607.67	77.24
607.82	49.15
607.98	117.03
608.13	91.28
608.29	81.92
608.44	98.30
608.60	124.05
608.75	67.88
608.91	107.66
609.06	86.60
609.22	51.49
609.37	42.13
609.53	114.69
609.68	98.30
609.84	84.26
609.99	81.92
610.15	86.60
610.30	133.41
610.46	11.70
610.61	46.81
610.76	49.15
610.92	84.26
611.07	30.43
611.23	84.26
611.38	105.32
611.54	110.01
611.69	67.88
611.84	135.75
612.00	60.85
612.15	25.75
612.31	28.09
612.46	110.01
612.62	84.26
612.77	37.45
612.92	30.43
613.08	42.13
613.23	117.03
613.39	46.81
613.54	107.66
613.69	79.58
613.85	102.98
614.00	110.01
614.15	16.38
614.31	91.28
614.46	23.41
614.62	25.75
614.77	95.96
614.92	30.43
615.08	79.58
615.23	67.88
615.38	100.64
615.54	81.92
615.69	58.51
615.84	16.38
616.00	21.06
616.15	9.36
616.30	0.00
616.46	72.56
616.61	21.06
616.76	0.00
616.92	102.98
617.07	84.26
617.22	51.49
617.37	70.22
617.53	67.88
617.68	77.24
617.83	21.06
617.99	42.13
618.14	0.00
618.29	102.98
618.45	23.41
618.60	81.92
618.75	147.45
618.90	84.26
619.06	21.06
619.21	65.54
619.36	30.43
619.51	0.00
619.67	30.43
619.82	39.79
619.97	70.22
620.12	63.19
620.28	93.62
620.43	77.24
620.58	51.49
620.73	51.49
620.89	124.05
621.04	49.15
621.19	79.58
621.34	100.64
621.49	18.72
621.65	72.56
621.80	124.05
621.95	60.85
622.10	56.17
622.25	4.68
622.41	67.88
622.56	44.47
622.71	128.73
622.86	128.73
623.01	70.22
623.16	39.79
623.32	53.83
623.47	77.24
623.62	81.92
623.77	121.71
623.92	63.19
624.07	53.83
624.23	102.98
624.38	91.28
624.53	126.39
624.68	23.41
624.83	88.94
624.98	53.83
625.13	21.06
625.29	70.22
625.44	74.90
625.59	0.00
625.74	105.32
625.89	58.51
626.04	63.19
626.19	21.06
626.34	30.43
626.49	46.81
626.65	70.22
626.80	32.77
626.95	117.03
627.10	95.96
627.25	110.01
627.40	140.43
627.55	56.17
627.70	28.09
627.85	42.13
628.00	9.36
628.15	70.22
628.30	81.92
628.45	91.28
628.60	30.43
628.76	77.24
628.91	60.85
629.06	72.56
629.21	53.83
629.36	23.41
629.51	72.56
629.66	95.96
629.81	0.00
629.96	35.11
630.11	86.60
630.26	91.28
630.41	119.37
630.56	133.41
630.71	67.88
630.86	86.60
631.01	119.37
631.16	74.90
631.31	107.66
631.46	42.13
631.61	91.28
631.76	14.04
631.91	51.49
632.06	74.90
632.21	0.00
632.36	0.00
632.51	37.45
632.66	72.56
632.81	56.17
632.96	86.60
633.10	0.00
633.25	53.83
633.40	126.39
633.55	79.58
633.70	39.79
633.85	117.03
634.00	44.47
634.15	4.68
634.30	114.69
634.45	63.19
634.60	65.54
634.75	32.77
634.90	163.84
635.05	117.03
635.19	25.75
635.34	25.75
635.49	56.17
635.64	60.85
635.79	110.01
635.94	65.54
636.09	9.36
636.24	44.47
636.39	98.30
636.53	9.36
636.68	21.06
636.83	53.83
636.98	65.54
637.13	63.19
637.28	63.19
637.43	112.35
637.57	77.24
637.72	77.24
637.87	105.32
638.02	84.26
638.17	56.17
638.32	72.56
638.46	42.13
638.61	81.92
638.76	63.19
638.91	79.58
639.06	16.38
639.20	72.56
639.35	65.54
639.50	58.51
639.65	67.88
639.80	32.77
639.94	58.51
640.09	18.72
640.24	149.79
640.39	42.13
640.54	100.64
640.68	114.69
640.83	51.49
640.98	72.56
641.13	91.28
641.27	74.90
641.42	114.69
641.57	114.69
641.72	21.06
641.86	35.11
642.01	72.56
642.16	65.54
642.31	63.19
642.45	63.19
642.60	51.49
642.75	39.79
642.90	60.85
643.04	25.75
643.19	65.54
643.34	112.35
643.48	105.32
643.63	77.24
643.78	81.92
643.93	142.77
644.07	70.22
644.22	70.22
644.37	0.00
644.51	65.54
644.66	70.22
644.81	74.90
644.95	74.90
645.10	77.24
645.25	9.36
645.39	28.09
645.54	11.70
645.69	72.56
645.83	86.60
645.98	37.45
646.13	98.30
646.27	51.49
646.42	74.90
646.57	60.85
646.71	60.85
646.86	28.09
647.00	46.81
647.15	88.94
647.30	44.47
647.44	23.41
647.59	25.75
647.74	0.00
647.88	16.38
648.03	88.94
648.17	25.75
648.32	86.60
648.47	88.94
648.61	21.06
648.76	49.15
648.90	86.60
649.05	117.03
649.20	77.24
649.34	114.69
649.49	39.79
649.63	51.49
649.78	4.68
649.92	74.90
650.07	60.85
650.21	9.36
650.36	58.51
650.51	0.00
650.65	42.13
650.80	25.75
650.94	128.73
651.09	138.09
651.23	124.05
651.38	7.02
651.52	28.09
651.67	95.96
651.81	86.60
651.96	0.00
652.10	42.13
652.25	84.26
652.39	30.43
652.54	107.66
652.68	32.77
652.83	4.68
652.97	65.54
653.12	51.49
653.26	86.60
653.41	88.94
653.55	98.30
653.70	0.00
653.84	39.79
653.99	102.98
654.13	25.75
654.27	58.51
654.42	0.00
654.56	35.11
654.71	37.45
654.85	107.66
655.00	105.32
655.14	63.19
655.29	58.51
655.43	32.77
655.57	30.43
655.72	4.68
655.86	51.49
656.01	14.04
656.15	51.49
656.30	65.54
656.44	0.00
656.58	21.06
656.73	70.22
656.87	9.36
657.01	11.70
657.16	138.09
657.30	30.43
657.45	42.13
657.59	49.15
657.73	49.15
657.88	25.75
658.02	25.75
658.16	128.73
658.31	133.41
658.45	39.79
658.60	81.92
658.74	53.83
658.88	58.51
659.03	42.13
659.17	126.39
659.31	11.70
659.46	0.00
659.60	98.30
659.74	58.51
659.89	100.64
660.03	88.94
660.17	35.11
660.32	4.68
660.46	30.43
660.60	84.26
660.74	70.22
660.89	58.51
661.03	51.49
661.17	98.30
661.32	35.11
661.46	53.83
661.60	135.75
661.74	67.88
661.89	51.49
662.03	70.22
662.17	51.49
662.31	107.66
662.46	53.83
662.60	67.88
662.74	105.32
662.88	74.90
663.03	0.00
663.17	0.00
663.31	14.04
663.45	39.79
663.60	93.62
663.74	60.85
663.88	60.85
664.02	70.22
664.17	14.04
664.31	100.64
664.45	16.38
664.59	46.81
664.73	67.88
664.88	67.88
665.02	67.88
665.16	39.79
665.30	159.16
665.44	77.24
665.59	25.75
665.73	44.47
665.87	37.45
666.01	77.24
666.15	60.85
666.29	53.83
666.44	74.90
666.58	110.01
666.72	25.75
666.86	37.45
667.00	112.35
667.14	51.49
667.28	49.15
667.43	32.77
667.57	58.51
667.71	124.05
667.85	0.00
667.99	100.64
668.13	35.11
668.27	7.02
668.41	74.90
668.56	46.81
668.70	51.49
668.84	0.00
668.98	93.62
669.12	98.30
669.26	42.13
669.40	21.06
669.54	46.81
669.68	63.19
669.82	46.81
669.96	147.45
670.10	42.13
670.25	4.68
670.39	74.90
670.53	11.70
670.67	56.17
670.81	46.81
670.95	112.35
671.09	46.81
671.23	21.06
671.37	79.58
671.51	0.00
671.65	23.41
671.79	42.13
671.93	18.72
672.07	72.56
672.21	23.41
672.35	0.00
672.49	86.60
672.63	0.00
672.77	53.83
672.91	0.00
673.05	56.17
673.19	65.54
673.33	88.94
673.47	63.19
673.61	86.60
673.75	79.58
673.89	60.85
674.03	21.06
674.17	91.28
674.31	112.35
674.45	37.45
674.59	107.66
674.73	35.11
674.87	7.02
675.01	18.72
675.15	25.75
675.29	37.45
675.43	51.49
675.56	105.32
675.70	16.38
675.84	0.00
675.98	0.00
676.12	46.81
676.26	0.00
676.40	49.15
676.54	32.77
676.68	18.72
676.82	14.04
676.96	72.56
677.10	72.56
677.23	0.00
677.37	81.92
677.51	95.96
677.65	7.02
677.79	58.51
677.93	0.00
678.07	37.45
678.21	51.49
678.34	114.69
678.48	37.45
678.62	91.28
678.76	72.56
678.90	53.83
679.04	16.38
679.18	32.77
679.31	63.19
679.45	30.43
679.59	23.41
679.73	18.72
679.87	23.41
680.00	95.96
680.14	63.19
680.28	42.13
680.42	21.06
680.56	2.34
680.70	77.24
680.83	49.15
680.97	37.45
681.11	60.85
681.25	0.00
681.39	0.00
681.52	65.54
681.66	4.68
681.80	11.70
681.94	0.00
682.07	79.58
682.21	0.00
682.35	65.54
682.49	105.32
682.62	30.43
682.76	0.00
682.90	154.48
683.04	21.06
683.17	56.17
683.31	51.49
683.45	51.49
683.59	88.94
683.72	102.98
683.86	63.19
684.00	63.19
684.13	46.81
684.27	23.41
684.41	84.26
684.55	44.47
684.68	39.79
684.82	65.54
684.96	65.54
685.09	28.09
685.23	0.00
685.37	72.56
685.50	0.00
685.64	53.83
685.78	32.77
685.91	79.58
686.05	53.83
686.19	51.49
686.32	49.15
686.46	60.85
686.60	70.22
686.73	77.24
686.87	74.90
687.01	0.00
687.14	49.15
687.28	0.00
687.42	88.94
687.55	2.34
687.69	63.19
687.82	46.81
687.96	9.36
688.10	107.66
688.23	53.83
688.37	84.26
688.50	18.72
688.64	39.79
688.78	79.58
688.91	25.75
689.05	105.32
689.18	79.58
689.32	63.19
689.46	7.02
689.59	63.19
689.73	14.04
689.86	65.54
690.00	37.45
690.13	63.19
690.27	16.38
690.41	72.56
690.54	51.49
690.68	42.13
690.81	74.90
690.95	39.79
691.08	51.49
691.22	16.38
691.35	63.19
691.49	16.38
691.62	7.02
691.76	67.88
691.89	9.36
692.03	30.43
692.16	81.92
692.30	93.62
692.43	25.75
692.57	53.83
692.70	74.90
692.84	46.81
692.97	7.02
693.11	98.30
693.24	9.36
693.38	0.00
693.51	58.51
693.65	0.00
693.78	77.24
693.92	77.24
694.05	81.92
694.19	0.00
694.32	79.58
694.45	63.19
694.59	51.49
694.72	84.26
694.86	86.60
694.99	39.79
695.13	70.22
695.26	14.04
695.39	0.00
695.53	0.00
695.66	0.00
695.80	98.30
695.93	0.00
696.07	0.00
696.20	44.47
696.33	42.13
696.47	35.11
696.60	0.00
696.73	63.19
696.87	58.51
697.00	98.30
697.14	16.38
697.27	9.36
697.40	23.41
697.54	25.75
697.67	21.06
697.80	9.36
697.94	100.64
698.07	0.00
698.21	39.79
698.34	84.26
698.47	44.47
698.61	0.00
698.74	0.00
698.87	37.45
699.01	9.36
699.14	0.00
699.27	39.79
699.40	63.19
699.54	0.00
699.67	9.36
699.80	0.00
699.94	14.04
700.07	18.72
700.20	9.36
700.34	7.02
700.47	4.68
700.60	93.62
700.73	0.00
700.87	9.36
701.00	7.02
701.13	4.68
701.26	51.49
701.40	77.24
701.53	58.51
701.66	39.79
701.79	53.83
701.93	63.19
702.06	51.49
702.19	95.96
702.32	51.49
702.46	39.79
702.59	60.85
702.72	53.83
702.85	7.02
702.99	53.83
703.12	77.24
703.25	2.34
703.38	2.34
703.51	37.45
703.65	0.00
703.78	0.00
703.91	79.58
704.04	0.00
704.17	0.00
704.31	37.45
704.44	100.64
704.57	35.11
704.70	0.00
704.83	11.70
704.96	46.81
705.10	42.13
705.23	37.45
>>>>>End Processed Spectral Data<<<<<
