SpectraSuite Data File
++++++++++++++++++++++++++++++++++++
Date: Fri Oct 04 12:13:28 GMT-05:00 2013
User: price-jones
Dark Spectrum Present: No
Reference Spectrum Present: No
Number of Sampled Component Spectra: 1
Spectrometers: USB2+H05261
Integration Time (usec): 10000 (USB2+H05261)
Spectra Averaged: 1 (USB2+H05261)
Boxcar Smoothing: 0 (USB2+H05261)
Correct for Electrical Dark: No (USB2+H05261)
Strobe/Lamp Enabled: No (USB2+H05261)
Correct for Detector Non-linearity: No (USB2+H05261)
Correct for Stray Light: No (USB2+H05261)
Number of Pixels in Processed Spectrum: 2048
>>>>>Begin Processed Spectral Data<<<<<
365.73	0.00
365.92	0.00
366.12	0.00
366.32	0.00
366.52	0.00
366.72	0.00
366.91	0.00
367.11	0.00
367.31	0.00
367.51	0.00
367.70	0.00
367.90	0.00
368.10	0.00
368.30	0.00
368.49	0.00
368.69	0.00
368.89	0.00
369.09	0.00
369.28	0.00
369.48	0.00
369.68	0.00
369.87	0.00
370.07	0.00
370.27	0.00
370.47	0.00
370.66	0.00
370.86	0.00
371.06	0.00
371.25	0.00
371.45	0.00
371.65	0.00
371.84	0.00
372.04	7.02
372.24	95.96
372.44	0.00
372.63	0.00
372.83	23.41
373.03	98.30
373.22	2.34
373.42	37.45
373.62	49.15
373.81	0.00
374.01	2.34
374.21	42.13
374.40	4.68
374.60	0.00
374.79	0.00
374.99	51.49
375.19	16.38
375.38	51.49
375.58	60.85
375.78	11.70
375.97	65.54
376.17	0.00
376.37	2.34
376.56	65.54
376.76	79.58
376.95	4.68
377.15	18.72
377.35	67.88
377.54	44.47
377.74	51.49
377.93	2.34
378.13	0.00
378.33	95.96
378.52	7.02
378.72	63.19
378.91	51.49
379.11	25.75
379.31	18.72
379.50	21.06
379.70	0.00
379.89	0.00
380.09	0.00
380.28	74.90
380.48	107.66
380.68	30.43
380.87	9.36
381.07	98.30
381.26	23.41
381.46	0.00
381.65	0.00
381.85	0.00
382.04	46.81
382.24	39.79
382.43	28.09
382.63	0.00
382.83	0.00
383.02	0.00
383.22	44.47
383.41	0.00
383.61	0.00
383.80	0.00
384.00	0.00
384.19	0.00
384.39	0.00
384.58	42.13
384.78	0.00
384.97	14.04
385.17	4.68
385.36	53.83
385.56	0.00
385.75	25.75
385.95	0.00
386.14	0.00
386.34	65.54
386.53	0.00
386.72	70.22
386.92	93.62
387.11	9.36
387.31	39.79
387.50	0.00
387.70	42.13
387.89	0.00
388.09	0.00
388.28	42.13
388.48	56.17
388.67	14.04
388.86	2.34
389.06	56.17
389.25	0.00
389.45	0.00
389.64	0.00
389.84	0.00
390.03	84.26
390.22	23.41
390.42	32.77
390.61	30.43
390.81	23.41
391.00	0.00
391.19	37.45
391.39	51.49
391.58	42.13
391.78	39.79
391.97	9.36
392.16	37.45
392.36	51.49
392.55	63.19
392.75	39.79
392.94	16.38
393.13	0.00
393.33	0.00
393.52	49.15
393.71	16.38
393.91	37.45
394.10	63.19
394.29	0.00
394.49	25.75
394.68	49.15
394.88	100.64
395.07	70.22
395.26	91.28
395.46	0.00
395.65	32.77
395.84	74.90
396.04	16.38
396.23	63.19
396.42	0.00
396.62	63.19
396.81	0.00
397.00	4.68
397.19	23.41
397.39	2.34
397.58	56.17
397.77	37.45
397.97	0.00
398.16	98.30
398.35	4.68
398.55	44.47
398.74	39.79
398.93	0.00
399.12	0.00
399.32	21.06
399.51	39.79
399.70	2.34
399.90	9.36
400.09	44.47
400.28	35.11
400.47	28.09
400.67	0.00
400.86	39.79
401.05	25.75
401.24	91.28
401.44	16.38
401.63	30.43
401.82	23.41
402.01	44.47
402.21	65.54
402.40	0.00
402.59	28.09
402.78	14.04
402.97	21.06
403.17	0.00
403.36	58.51
403.55	56.17
403.74	60.85
403.93	23.41
404.13	51.49
404.32	63.19
404.51	0.00
404.70	32.77
404.89	56.17
405.09	7.02
405.28	65.54
405.47	18.72
405.66	93.62
405.85	37.45
406.05	0.00
406.24	51.49
406.43	25.75
406.62	51.49
406.81	44.47
407.00	91.28
407.20	0.00
407.39	0.00
407.58	0.00
407.77	0.00
407.96	91.28
408.15	39.79
408.34	0.00
408.54	0.00
408.73	107.66
408.92	60.85
409.11	72.56
409.30	18.72
409.49	0.00
409.68	14.04
409.87	0.00
410.07	0.00
410.26	63.19
410.45	25.75
410.64	37.45
410.83	42.13
411.02	70.22
411.21	23.41
411.40	65.54
411.59	39.79
411.78	14.04
411.98	28.09
412.17	9.36
412.36	72.56
412.55	44.47
412.74	0.00
412.93	0.00
413.12	0.00
413.31	46.81
413.50	28.09
413.69	56.17
413.88	28.09
414.07	0.00
414.26	4.68
414.45	32.77
414.64	0.00
414.83	105.32
415.02	16.38
415.22	0.00
415.41	0.00
415.60	56.17
415.79	0.00
415.98	35.11
416.17	91.28
416.36	35.11
416.55	77.24
416.74	21.06
416.93	0.00
417.12	42.13
417.31	32.77
417.50	39.79
417.69	0.00
417.88	0.00
418.07	51.49
418.26	9.36
418.45	51.49
418.64	56.17
418.83	70.22
419.02	84.26
419.21	56.17
419.39	79.58
419.58	77.24
419.77	16.38
419.96	65.54
420.15	74.90
420.34	39.79
420.53	0.00
420.72	37.45
420.91	0.00
421.10	0.00
421.29	119.37
421.48	0.00
421.67	14.04
421.86	60.85
422.05	32.77
422.24	30.43
422.43	72.56
422.61	53.83
422.80	46.81
422.99	23.41
423.18	0.00
423.37	11.70
423.56	53.83
423.75	2.34
423.94	107.66
424.13	30.43
424.32	49.15
424.50	63.19
424.69	14.04
424.88	93.62
425.07	84.26
425.26	42.13
425.45	23.41
425.64	79.58
425.83	86.60
426.01	42.13
426.20	0.00
426.39	0.00
426.58	9.36
426.77	30.43
426.96	21.06
427.15	0.00
427.33	63.19
427.52	56.17
427.71	23.41
427.90	0.00
428.09	95.96
428.28	25.75
428.46	46.81
428.65	58.51
428.84	14.04
429.03	79.58
429.22	32.77
429.40	37.45
429.59	35.11
429.78	51.49
429.97	100.64
430.16	16.38
430.34	0.00
430.53	49.15
430.72	32.77
430.91	49.15
431.10	42.13
431.28	74.90
431.47	79.58
431.66	93.62
431.85	21.06
432.03	0.00
432.22	30.43
432.41	18.72
432.60	37.45
432.79	42.13
432.97	25.75
433.16	56.17
433.35	37.45
433.54	84.26
433.72	0.00
433.91	51.49
434.10	35.11
434.28	0.00
434.47	0.00
434.66	0.00
434.85	0.00
435.03	21.06
435.22	0.00
435.41	18.72
435.59	23.41
435.78	23.41
435.97	49.15
436.16	70.22
436.34	32.77
436.53	37.45
436.72	84.26
436.90	32.77
437.09	0.00
437.28	79.58
437.46	0.00
437.65	30.43
437.84	39.79
438.02	25.75
438.21	23.41
438.40	32.77
438.58	30.43
438.77	0.00
438.96	51.49
439.14	117.03
439.33	65.54
439.52	58.51
439.70	70.22
439.89	42.13
440.08	53.83
440.26	9.36
440.45	65.54
440.63	72.56
440.82	63.19
441.01	60.85
441.19	9.36
441.38	0.00
441.57	60.85
441.75	23.41
441.94	0.00
442.12	86.60
442.31	0.00
442.50	0.00
442.68	32.77
442.87	14.04
443.05	0.00
443.24	9.36
443.43	0.00
443.61	46.81
443.80	9.36
443.98	67.88
444.17	88.94
444.35	0.00
444.54	9.36
444.73	0.00
444.91	53.83
445.10	4.68
445.28	9.36
445.47	0.00
445.65	56.17
445.84	35.11
446.02	9.36
446.21	110.01
446.39	49.15
446.58	0.00
446.77	58.51
446.95	39.79
447.14	84.26
447.32	2.34
447.51	2.34
447.69	91.28
447.88	35.11
448.06	70.22
448.25	81.92
448.43	18.72
448.62	32.77
448.80	0.00
448.99	35.11
449.17	32.77
449.36	0.00
449.54	37.45
449.73	32.77
449.91	60.85
450.10	126.39
450.28	100.64
450.46	60.85
450.65	0.00
450.83	49.15
451.02	95.96
451.20	0.00
451.39	18.72
451.57	72.56
451.76	93.62
451.94	32.77
452.13	30.43
452.31	0.00
452.49	0.00
452.68	7.02
452.86	7.02
453.05	32.77
453.23	58.51
453.42	51.49
453.60	44.47
453.78	11.70
453.97	35.11
454.15	9.36
454.34	30.43
454.52	30.43
454.70	0.00
454.89	23.41
455.07	7.02
455.26	7.02
455.44	70.22
455.62	7.02
455.81	25.75
455.99	114.69
456.17	35.11
456.36	0.00
456.54	0.00
456.73	11.70
456.91	2.34
457.09	42.13
457.28	30.43
457.46	58.51
457.64	0.00
457.83	56.17
458.01	63.19
458.19	74.90
458.38	14.04
458.56	84.26
458.74	28.09
458.93	88.94
459.11	60.85
459.29	0.00
459.48	121.71
459.66	84.26
459.84	0.00
460.03	0.00
460.21	0.00
460.39	0.00
460.57	51.49
460.76	63.19
460.94	49.15
461.12	0.00
461.31	0.00
461.49	2.34
461.67	65.54
461.85	0.00
462.04	16.38
462.22	46.81
462.40	37.45
462.59	18.72
462.77	2.34
462.95	0.00
463.13	51.49
463.32	4.68
463.50	53.83
463.68	0.00
463.86	0.00
464.05	70.22
464.23	30.43
464.41	0.00
464.59	0.00
464.78	0.00
464.96	0.00
465.14	11.70
465.32	63.19
465.50	86.60
465.69	30.43
465.87	35.11
466.05	0.00
466.23	56.17
466.41	18.72
466.60	0.00
466.78	67.88
466.96	49.15
467.14	63.19
467.32	39.79
467.51	32.77
467.69	2.34
467.87	44.47
468.05	18.72
468.23	49.15
468.41	49.15
468.60	79.58
468.78	98.30
468.96	25.75
469.14	51.49
469.32	0.00
469.50	32.77
469.69	53.83
469.87	9.36
470.05	56.17
470.23	18.72
470.41	35.11
470.59	51.49
470.77	37.45
470.95	46.81
471.14	7.02
471.32	42.13
471.50	0.00
471.68	30.43
471.86	67.88
472.04	44.47
472.22	58.51
472.40	77.24
472.58	67.88
472.77	35.11
472.95	4.68
473.13	28.09
473.31	0.00
473.49	4.68
473.67	49.15
473.85	56.17
474.03	72.56
474.21	70.22
474.39	72.56
474.57	0.00
474.75	67.88
474.93	35.11
475.12	21.06
475.30	42.13
475.48	0.00
475.66	63.19
475.84	51.49
476.02	49.15
476.20	0.00
476.38	28.09
476.56	18.72
476.74	30.43
476.92	58.51
477.10	4.68
477.28	16.38
477.46	60.85
477.64	56.17
477.82	51.49
478.00	23.41
478.18	11.70
478.36	32.77
478.54	0.00
478.72	88.94
478.90	18.72
479.08	49.15
479.26	53.83
479.44	37.45
479.62	53.83
479.80	0.00
479.98	0.00
480.16	58.51
480.34	25.75
480.52	4.68
480.70	49.15
480.88	28.09
481.06	51.49
481.24	0.00
481.41	16.38
481.59	51.49
481.77	37.45
481.95	7.02
482.13	14.04
482.31	51.49
482.49	25.75
482.67	44.47
482.85	30.43
483.03	49.15
483.21	11.70
483.39	11.70
483.57	25.75
483.74	46.81
483.92	74.90
484.10	42.13
484.28	70.22
484.46	53.83
484.64	23.41
484.82	0.00
485.00	9.36
485.18	67.88
485.35	58.51
485.53	14.04
485.71	0.00
485.89	0.00
486.07	0.00
486.25	65.54
486.43	72.56
486.61	98.30
486.78	0.00
486.96	9.36
487.14	23.41
487.32	9.36
487.50	65.54
487.68	60.85
487.85	70.22
488.03	0.00
488.21	0.00
488.39	0.00
488.57	49.15
488.75	0.00
488.92	81.92
489.10	0.00
489.28	25.75
489.46	7.02
489.64	58.51
489.81	117.03
489.99	81.92
490.17	46.81
490.35	35.11
490.53	51.49
490.70	0.00
490.88	0.00
491.06	60.85
491.24	28.09
491.41	81.92
491.59	53.83
491.77	14.04
491.95	2.34
492.13	88.94
492.30	0.00
492.48	56.17
492.66	67.88
492.84	74.90
493.01	95.96
493.19	63.19
493.37	32.77
493.54	60.85
493.72	0.00
493.90	25.75
494.08	37.45
494.25	0.00
494.43	37.45
494.61	0.00
494.79	39.79
494.96	46.81
495.14	86.60
495.32	0.00
495.49	39.79
495.67	0.00
495.85	39.79
496.02	28.09
496.20	39.79
496.38	95.96
496.55	51.49
496.73	9.36
496.91	100.64
497.09	18.72
497.26	7.02
497.44	0.00
497.62	39.79
497.79	39.79
497.97	28.09
498.14	44.47
498.32	0.00
498.50	23.41
498.67	46.81
498.85	53.83
499.03	39.79
499.20	67.88
499.38	21.06
499.56	84.26
499.73	7.02
499.91	21.06
500.08	163.84
500.26	70.22
500.44	44.47
500.61	42.13
500.79	67.88
500.97	0.00
501.14	60.85
501.32	51.49
501.49	88.94
501.67	0.00
501.84	56.17
502.02	86.60
502.20	21.06
502.37	67.88
502.55	67.88
502.72	110.01
502.90	30.43
503.07	0.00
503.25	53.83
503.43	37.45
503.60	37.45
503.78	105.32
503.95	0.00
504.13	0.00
504.30	56.17
504.48	56.17
504.65	2.34
504.83	0.00
505.01	25.75
505.18	0.00
505.36	28.09
505.53	32.77
505.71	25.75
505.88	81.92
506.06	98.30
506.23	93.62
506.41	30.43
506.58	39.79
506.76	32.77
506.93	49.15
507.11	11.70
507.28	14.04
507.46	65.54
507.63	72.56
507.81	18.72
507.98	30.43
508.16	4.68
508.33	58.51
508.50	4.68
508.68	0.00
508.85	65.54
509.03	77.24
509.20	42.13
509.38	7.02
509.55	95.96
509.73	28.09
509.90	0.00
510.08	67.88
510.25	23.41
510.42	7.02
510.60	0.00
510.77	25.75
510.95	133.41
511.12	7.02
511.30	44.47
511.47	44.47
511.64	28.09
511.82	7.02
511.99	37.45
512.17	37.45
512.34	21.06
512.51	56.17
512.69	77.24
512.86	16.38
513.04	0.00
513.21	0.00
513.38	49.15
513.56	49.15
513.73	44.47
513.90	32.77
514.08	74.90
514.25	14.04
514.43	65.54
514.60	72.56
514.77	23.41
514.95	18.72
515.12	53.83
515.29	79.58
515.47	51.49
515.64	4.68
515.81	42.13
515.99	46.81
516.16	107.66
516.33	32.77
516.51	16.38
516.68	14.04
516.85	107.66
517.03	23.41
517.20	39.79
517.37	60.85
517.54	14.04
517.72	42.13
517.89	81.92
518.06	44.47
518.24	74.90
518.41	112.35
518.58	58.51
518.75	81.92
518.93	49.15
519.10	11.70
519.27	81.92
519.45	84.26
519.62	65.54
519.79	56.17
519.96	79.58
520.14	14.04
520.31	107.66
520.48	58.51
520.65	25.75
520.83	7.02
521.00	9.36
521.17	72.56
521.34	81.92
521.52	79.58
521.69	4.68
521.86	56.17
522.03	67.88
522.20	16.38
522.38	0.00
522.55	49.15
522.72	49.15
522.89	25.75
523.07	88.94
523.24	0.00
523.41	67.88
523.58	51.49
523.75	0.00
523.92	72.56
524.10	98.30
524.27	42.13
524.44	32.77
524.61	88.94
524.78	14.04
524.96	7.02
525.13	91.28
525.30	112.35
525.47	30.43
525.64	16.38
525.81	16.38
525.98	67.88
526.16	16.38
526.33	32.77
526.50	39.79
526.67	51.49
526.84	84.26
527.01	21.06
527.18	18.72
527.36	23.41
527.53	46.81
527.70	35.11
527.87	63.19
528.04	110.01
528.21	86.60
528.38	0.00
528.55	74.90
528.72	44.47
528.89	21.06
529.07	39.79
529.24	60.85
529.41	84.26
529.58	2.34
529.75	9.36
529.92	42.13
530.09	11.70
530.26	9.36
530.43	74.90
530.60	121.71
530.77	11.70
530.94	56.17
531.11	91.28
531.28	14.04
531.46	56.17
531.63	42.13
531.80	91.28
531.97	84.26
532.14	37.45
532.31	23.41
532.48	72.56
532.65	44.47
532.82	60.85
532.99	14.04
533.16	46.81
533.33	93.62
533.50	2.34
533.67	0.00
533.84	102.98
534.01	37.45
534.18	44.47
534.35	56.17
534.52	53.83
534.69	4.68
534.86	0.00
535.03	84.26
535.20	0.00
535.37	23.41
535.54	0.00
535.71	0.00
535.88	56.17
536.05	11.70
536.22	0.00
536.38	28.09
536.55	56.17
536.72	72.56
536.89	60.85
537.06	35.11
537.23	0.00
537.40	77.24
537.57	4.68
537.74	37.45
537.91	0.00
538.08	105.32
538.25	58.51
538.42	56.17
538.59	58.51
538.75	70.22
538.92	0.00
539.09	30.43
539.26	32.77
539.43	37.45
539.60	189.58
539.77	250.44
539.94	339.38
540.11	210.65
540.28	131.07
540.44	102.98
540.61	56.17
540.78	44.47
540.95	23.41
541.12	35.11
541.29	44.47
541.46	28.09
541.62	121.71
541.79	23.41
541.96	16.38
542.13	56.17
542.30	37.45
542.47	14.04
542.63	60.85
542.80	65.54
542.97	28.09
543.14	0.00
543.31	18.72
543.48	0.00
543.64	25.75
543.81	9.36
543.98	105.32
544.15	44.47
544.32	16.38
544.48	14.04
544.65	0.00
544.82	63.19
544.99	18.72
545.16	42.13
545.32	67.88
545.49	16.38
545.66	32.77
545.83	37.45
546.00	0.00
546.16	2.34
546.33	63.19
546.50	56.17
546.67	44.47
546.83	11.70
547.00	128.73
547.17	102.98
547.34	42.13
547.50	46.81
547.67	86.60
547.84	56.17
548.00	39.79
548.17	32.77
548.34	2.34
548.51	21.06
548.67	0.00
548.84	4.68
549.01	46.81
549.18	39.79
549.34	63.19
549.51	58.51
549.68	46.81
549.84	58.51
550.01	42.13
550.18	0.00
550.34	0.00
550.51	18.72
550.68	23.41
550.84	110.01
551.01	81.92
551.18	56.17
551.34	46.81
551.51	51.49
551.68	4.68
551.84	70.22
552.01	14.04
552.18	14.04
552.34	72.56
552.51	28.09
552.68	30.43
552.84	0.00
553.01	35.11
553.18	30.43
553.34	110.01
553.51	44.47
553.67	58.51
553.84	42.13
554.01	100.64
554.17	117.03
554.34	9.36
554.51	72.56
554.67	49.15
554.84	18.72
555.00	100.64
555.17	65.54
555.33	46.81
555.50	112.35
555.67	46.81
555.83	18.72
556.00	11.70
556.16	63.19
556.33	37.45
556.50	53.83
556.66	67.88
556.83	14.04
556.99	51.49
557.16	63.19
557.32	110.01
557.49	67.88
557.65	35.11
557.82	32.77
557.98	18.72
558.15	53.83
558.32	74.90
558.48	30.43
558.65	93.62
558.81	0.00
558.98	67.88
559.14	60.85
559.31	53.83
559.47	46.81
559.64	25.75
559.80	25.75
559.97	56.17
560.13	91.28
560.30	79.58
560.46	60.85
560.63	58.51
560.79	86.60
560.96	35.11
561.12	44.47
561.29	23.41
561.45	51.49
561.61	25.75
561.78	18.72
561.94	44.47
562.11	74.90
562.27	23.41
562.44	84.26
562.60	58.51
562.77	67.88
562.93	65.54
563.10	2.34
563.26	35.11
563.42	7.02
563.59	100.64
563.75	42.13
563.92	42.13
564.08	21.06
564.24	42.13
564.41	16.38
564.57	63.19
564.74	81.92
564.90	98.30
565.07	42.13
565.23	88.94
565.39	23.41
565.56	98.30
565.72	95.96
565.88	74.90
566.05	102.98
566.21	44.47
566.38	37.45
566.54	102.98
566.70	37.45
566.87	42.13
567.03	7.02
567.19	30.43
567.36	0.00
567.52	77.24
567.68	35.11
567.85	95.96
568.01	0.00
568.17	11.70
568.34	30.43
568.50	79.58
568.66	28.09
568.83	67.88
568.99	0.00
569.15	56.17
569.32	14.04
569.48	32.77
569.64	0.00
569.81	51.49
569.97	46.81
570.13	35.11
570.30	124.05
570.46	56.17
570.62	0.00
570.78	77.24
570.95	117.03
571.11	65.54
571.27	39.79
571.43	7.02
571.60	4.68
571.76	4.68
571.92	42.13
572.09	9.36
572.25	65.54
572.41	63.19
572.57	0.00
572.74	70.22
572.90	60.85
573.06	18.72
573.22	16.38
573.38	37.45
573.55	0.00
573.71	30.43
573.87	23.41
574.03	58.51
574.20	35.11
574.36	107.66
574.52	23.41
574.68	56.17
574.84	49.15
575.01	42.13
575.17	4.68
575.33	42.13
575.49	23.41
575.65	44.47
575.82	81.92
575.98	39.79
576.14	128.73
576.30	88.94
576.46	100.64
576.62	131.07
576.79	124.05
576.95	86.60
577.11	23.41
577.27	2.34
577.43	88.94
577.59	56.17
577.75	60.85
577.92	91.28
578.08	58.51
578.24	35.11
578.40	39.79
578.56	46.81
578.72	30.43
578.88	63.19
579.04	100.64
579.21	32.77
579.37	18.72
579.53	51.49
579.69	28.09
579.85	51.49
580.01	60.85
580.17	84.26
580.33	126.39
580.49	28.09
580.65	30.43
580.82	74.90
580.98	56.17
581.14	107.66
581.30	86.60
581.46	145.11
581.62	74.90
581.78	131.07
581.94	100.64
582.10	32.77
582.26	37.45
582.42	128.73
582.58	53.83
582.74	39.79
582.90	44.47
583.06	138.09
583.22	72.56
583.38	98.30
583.54	135.75
583.70	191.92
583.86	189.58
584.02	124.05
584.18	180.22
584.34	245.76
584.50	580.45
584.66	4259.78
584.82	10614.33
584.98	15852.45
585.14	14157.90
585.30	8678.71
585.46	5275.57
585.62	3218.24
585.78	1519.01
585.94	596.84
586.10	250.44
586.26	140.43
586.42	194.26
586.58	138.09
586.74	147.45
586.90	140.43
587.06	102.98
587.22	84.26
587.38	56.17
587.54	135.75
587.70	645.99
587.86	1032.18
588.02	1224.10
588.18	760.67
588.34	528.96
588.49	353.42
588.65	175.54
588.81	126.39
588.97	79.58
589.13	77.24
589.29	100.64
589.45	124.05
589.61	35.11
589.77	23.41
589.93	98.30
590.08	95.96
590.24	58.51
590.40	70.22
590.56	63.19
590.72	110.01
590.88	28.09
591.04	79.58
591.20	32.77
591.35	93.62
591.51	51.49
591.67	74.90
591.83	81.92
591.99	58.51
592.15	72.56
592.31	46.81
592.46	37.45
592.62	121.71
592.78	28.09
592.94	30.43
593.10	58.51
593.26	51.49
593.41	30.43
593.57	65.54
593.73	124.05
593.89	580.45
594.05	1390.28
594.20	1959.03
594.36	1968.39
594.52	1210.06
594.68	774.72
594.84	550.03
594.99	313.63
595.15	147.45
595.31	60.85
595.47	88.94
595.62	72.56
595.78	88.94
595.94	81.92
596.10	93.62
596.25	107.66
596.41	9.36
596.57	11.70
596.73	18.72
596.88	152.13
597.04	224.69
597.20	433.00
597.36	463.43
597.51	418.96
597.67	210.65
597.83	163.84
597.99	222.35
598.14	77.24
598.30	100.64
598.46	112.35
598.61	58.51
598.77	51.49
598.93	60.85
599.09	49.15
599.24	51.49
599.40	65.54
599.56	0.00
599.71	84.26
599.87	86.60
600.03	4.68
600.18	21.06
600.34	65.54
600.50	84.26
600.65	72.56
600.81	53.83
600.97	46.81
601.12	0.00
601.28	42.13
601.44	51.49
601.59	93.62
601.75	39.79
601.91	18.72
602.06	77.24
602.22	65.54
602.37	166.18
602.53	315.97
602.69	493.85
602.84	533.64
603.00	418.96
603.16	348.74
603.31	168.52
603.47	60.85
603.62	53.83
603.78	77.24
603.94	63.19
604.09	25.75
604.25	23.41
604.40	58.51
604.56	84.26
604.71	65.54
604.87	49.15
605.03	0.00
605.18	0.00
605.34	39.79
605.49	46.81
605.65	53.83
605.80	53.83
605.96	42.13
606.12	58.51
606.27	53.83
606.43	0.00
606.58	60.85
606.74	224.69
606.89	671.73
607.05	1254.53
607.20	1598.59
607.36	1469.86
607.51	973.66
607.67	641.31
607.82	369.80
607.98	304.27
608.13	159.16
608.29	105.32
608.44	39.79
608.60	128.73
608.75	70.22
608.91	262.14
609.06	961.96
609.22	2141.59
609.37	3033.33
609.53	2546.50
609.68	1806.89
609.84	1172.61
609.99	744.29
610.15	381.51
610.30	170.86
610.46	39.79
610.61	0.00
610.76	67.88
610.92	117.03
611.07	7.02
611.23	128.73
611.38	37.45
611.54	67.88
611.69	39.79
611.84	46.81
612.00	51.49
612.15	35.11
612.31	93.62
612.46	119.37
612.62	170.86
612.77	114.69
612.92	198.95
613.08	95.96
613.23	86.60
613.39	149.79
613.54	149.79
613.69	943.24
613.85	2583.95
614.00	4301.90
614.15	4535.96
614.31	3314.20
614.46	2157.97
614.62	1462.83
614.77	849.61
614.92	425.98
615.08	229.37
615.23	159.16
615.38	98.30
615.54	114.69
615.69	191.92
615.84	538.32
616.00	922.17
616.15	1210.06
616.30	1039.20
616.46	608.54
616.61	390.87
616.76	292.57
616.92	126.39
617.07	51.49
617.22	102.98
617.37	18.72
617.53	58.51
617.68	32.77
617.83	91.28
617.99	42.13
618.14	18.72
618.29	63.19
618.45	112.35
618.60	79.58
618.75	126.39
618.90	100.64
619.06	60.85
619.21	39.79
619.36	7.02
619.51	32.77
619.67	37.45
619.82	25.75
619.97	37.45
620.12	65.54
620.28	131.07
620.43	51.49
620.58	67.88
620.73	23.41
620.89	30.43
621.04	56.17
621.19	320.65
621.34	543.00
621.49	711.52
621.65	645.99
621.80	517.26
621.95	304.27
622.10	262.14
622.25	145.11
622.41	74.90
622.56	107.66
622.71	46.81
622.86	0.00
623.01	58.51
623.16	49.15
623.32	14.04
623.47	25.75
623.62	121.71
623.77	14.04
623.92	35.11
624.07	0.00
624.23	0.00
624.38	25.75
624.53	0.00
624.68	56.17
624.83	72.56
624.98	93.62
625.13	18.72
625.29	56.17
625.44	0.00
625.59	4.68
625.74	16.38
625.89	135.75
626.04	554.71
626.19	1289.64
626.34	2188.40
626.49	2326.49
626.65	1809.23
626.80	1203.04
626.95	849.61
627.10	547.69
627.25	222.35
627.40	105.32
627.55	140.43
627.70	32.77
627.85	88.94
628.00	98.30
628.15	91.28
628.30	35.11
628.45	72.56
628.60	16.38
628.76	51.49
628.91	0.00
629.06	93.62
629.21	84.26
629.36	79.58
629.51	91.28
629.66	102.98
629.81	77.24
629.96	236.39
630.11	491.51
630.26	608.54
630.41	596.84
630.56	425.98
630.71	243.42
630.86	110.01
631.01	114.69
631.16	65.54
631.31	107.66
631.46	28.09
631.61	72.56
631.76	81.92
631.91	0.00
632.06	39.79
632.21	60.85
632.36	23.41
632.51	42.13
632.66	39.79
632.81	271.50
632.96	723.23
633.10	1341.13
633.25	1619.65
633.40	1420.71
633.55	858.98
633.70	678.76
633.85	430.66
634.00	229.37
634.15	159.16
634.30	105.32
634.45	88.94
634.60	81.92
634.75	35.11
634.90	72.56
635.05	72.56
635.19	79.58
635.34	39.79
635.49	0.00
635.64	102.98
635.79	117.03
635.94	25.75
636.09	23.41
636.24	0.00
636.39	39.79
636.53	124.05
636.68	23.41
636.83	74.90
636.98	114.69
637.13	51.49
637.28	63.19
637.43	119.37
637.57	154.48
637.72	594.50
637.87	1816.26
638.02	2822.69
638.17	3166.74
638.32	2382.67
638.46	1572.84
638.61	1083.67
638.76	650.67
638.91	344.06
639.06	255.12
639.20	72.56
639.35	91.28
639.50	154.48
639.65	940.90
639.80	2583.95
639.94	4269.14
640.09	4915.12
640.24	3599.74
640.39	2448.20
640.54	1551.78
640.68	1008.77
640.83	482.15
640.98	177.88
641.13	124.05
641.27	67.88
641.42	18.72
641.57	81.92
641.72	154.48
641.86	70.22
642.01	84.26
642.16	2.34
642.31	81.92
642.45	32.77
642.60	0.00
642.75	35.11
642.90	79.58
643.04	28.09
643.19	100.64
643.34	51.49
643.48	58.51
643.63	35.11
643.78	42.13
643.93	21.06
644.07	32.77
644.22	32.77
644.37	74.90
644.51	0.00
644.66	42.13
644.81	58.51
644.95	0.00
645.10	46.81
645.25	49.15
645.39	0.00
645.54	58.51
645.69	102.98
645.83	28.09
645.98	39.79
646.13	46.81
646.27	30.43
646.42	95.96
646.57	72.56
646.71	4.68
646.86	0.00
647.00	9.36
647.15	46.81
647.30	18.72
647.44	86.60
647.59	21.06
647.74	11.70
647.88	32.77
648.03	35.11
648.17	74.90
648.32	0.00
648.47	42.13
648.61	110.01
648.76	110.01
648.90	0.00
649.05	44.47
649.20	58.51
649.34	46.81
649.49	30.43
649.63	60.85
649.78	79.58
649.92	126.39
650.07	341.72
650.21	1107.07
650.36	1989.46
650.51	2525.44
650.65	2015.20
650.80	1462.83
650.94	931.53
651.09	601.52
651.23	290.23
651.38	210.65
651.52	102.98
651.67	74.90
651.81	72.56
651.96	53.83
652.10	4.68
652.25	81.92
652.39	102.98
652.54	72.56
652.68	95.96
652.83	430.66
652.97	718.54
653.12	840.25
653.26	828.55
653.41	627.26
653.55	437.68
653.70	273.84
653.84	152.13
653.99	23.41
654.13	117.03
654.27	11.70
654.42	9.36
654.56	107.66
654.71	9.36
654.85	0.00
655.00	25.75
655.14	53.83
655.29	105.32
655.43	30.43
655.57	0.00
655.72	0.00
655.86	37.45
656.01	28.09
656.15	0.00
656.30	84.26
656.44	21.06
656.58	11.70
656.73	16.38
656.87	30.43
657.01	79.58
657.16	49.15
657.30	98.30
657.45	84.26
657.59	7.02
657.73	9.36
657.88	74.90
658.02	65.54
658.16	42.13
658.31	0.00
658.45	0.00
658.60	112.35
658.74	60.85
658.88	0.00
659.03	56.17
659.17	42.13
659.31	196.60
659.46	498.53
659.60	917.49
659.74	1287.29
659.89	1149.20
660.03	786.42
660.17	526.62
660.32	425.98
660.46	175.54
660.60	93.62
660.74	53.83
660.89	74.90
661.03	63.19
661.17	74.90
661.32	60.85
661.46	60.85
661.60	28.09
661.74	37.45
661.89	49.15
662.03	37.45
662.17	74.90
662.31	91.28
662.46	60.85
662.60	2.34
662.74	0.00
662.88	79.58
663.03	49.15
663.17	51.49
663.31	102.98
663.45	9.36
663.60	53.83
663.74	56.17
663.88	74.90
664.02	72.56
664.17	44.47
664.31	0.00
664.45	102.98
664.59	32.77
664.73	107.66
664.88	56.17
665.02	49.15
665.16	98.30
665.30	93.62
665.44	21.06
665.59	11.70
665.73	51.49
665.87	28.09
666.01	0.00
666.15	56.17
666.29	0.00
666.44	67.88
666.58	32.77
666.72	60.85
666.86	93.62
667.00	149.79
667.14	72.56
667.28	255.12
667.43	1022.81
667.57	1666.46
667.71	2062.01
667.85	1856.04
667.99	1376.24
668.13	924.51
668.27	519.60
668.41	259.80
668.56	201.29
668.70	77.24
668.84	84.26
668.98	77.24
669.12	0.00
669.26	72.56
669.40	107.66
669.54	60.85
669.68	23.41
669.82	25.75
669.96	18.72
670.10	18.72
670.25	0.00
670.39	81.92
670.53	25.75
670.67	56.17
670.81	0.00
670.95	63.19
671.09	147.45
671.23	344.06
671.37	814.51
671.51	1245.16
671.65	1303.68
671.79	1050.90
671.93	732.59
672.07	367.46
672.21	294.91
672.35	182.56
672.49	110.01
672.63	53.83
672.77	60.85
672.91	0.00
673.05	18.72
673.19	110.01
673.33	37.45
673.47	79.58
673.61	65.54
673.75	0.00
673.89	7.02
674.03	49.15
674.17	37.45
674.31	58.51
674.45	18.72
674.59	56.17
674.73	18.72
674.87	53.83
675.01	93.62
675.15	32.77
675.29	42.13
675.43	67.88
675.56	46.81
675.70	72.56
675.84	21.06
675.98	4.68
676.12	35.11
676.26	93.62
676.40	18.72
676.54	4.68
676.68	37.45
676.82	60.85
676.96	56.17
677.10	44.47
677.23	11.70
677.37	0.00
677.51	0.00
677.65	16.38
677.79	56.17
677.93	56.17
678.07	72.56
678.21	63.19
678.34	63.19
678.48	74.90
678.62	0.00
678.76	37.45
678.90	42.13
679.04	53.83
679.18	7.02
679.31	51.49
679.45	70.22
679.59	0.00
679.73	0.00
679.87	21.06
680.00	7.02
680.14	37.45
680.28	0.00
680.42	67.88
680.56	28.09
680.70	18.72
680.83	0.00
680.97	0.00
681.11	98.30
681.25	44.47
681.39	4.68
681.52	25.75
681.66	0.00
681.80	4.68
681.94	51.49
682.07	30.43
682.21	72.56
682.35	28.09
682.49	37.45
682.62	0.00
682.76	16.38
682.90	35.11
683.04	37.45
683.17	51.49
683.31	51.49
683.45	51.49
683.59	0.00
683.72	21.06
683.86	58.51
684.00	84.26
684.13	58.51
684.27	7.02
684.41	44.47
684.55	0.00
684.68	0.00
684.82	44.47
684.96	0.00
685.09	23.41
685.23	0.00
685.37	30.43
685.50	51.49
685.64	32.77
685.78	0.00
685.91	53.83
686.05	0.00
686.19	7.02
686.32	63.19
686.46	37.45
686.60	4.68
686.73	35.11
686.87	30.43
687.01	63.19
687.14	25.75
687.28	60.85
687.42	44.47
687.55	0.00
687.69	14.04
687.82	49.15
687.96	0.00
688.10	7.02
688.23	51.49
688.37	58.51
688.50	7.02
688.64	119.37
688.78	84.26
688.91	28.09
689.05	7.02
689.18	28.09
689.32	0.00
689.46	105.32
689.59	30.43
689.73	23.41
689.86	39.79
690.00	49.15
690.13	4.68
690.27	0.00
690.41	0.00
690.54	110.01
690.68	21.06
690.81	35.11
690.95	35.11
691.08	42.13
691.22	74.90
691.35	77.24
691.49	53.83
691.62	84.26
691.76	0.00
691.89	51.49
692.03	60.85
692.16	25.75
692.30	4.68
692.43	166.18
692.57	519.60
692.70	763.01
692.84	964.30
692.97	961.96
693.11	667.05
693.24	540.66
693.38	353.42
693.51	234.05
693.65	133.41
693.78	105.32
693.92	98.30
694.05	30.43
694.19	65.54
694.32	2.34
694.45	2.34
694.59	11.70
694.72	51.49
694.86	58.51
694.99	0.00
695.13	88.94
695.26	7.02
695.39	37.45
695.53	72.56
695.66	21.06
695.80	0.00
695.93	2.34
696.07	84.26
696.20	53.83
696.33	72.56
696.47	112.35
696.60	84.26
696.73	126.39
696.87	102.98
697.00	49.15
697.14	79.58
697.27	77.24
697.40	9.36
697.54	0.00
697.67	79.58
697.80	46.81
697.94	0.00
698.07	0.00
698.21	107.66
698.34	60.85
698.47	23.41
698.61	0.00
698.74	60.85
698.87	105.32
699.01	11.70
699.14	0.00
699.27	84.26
699.40	74.90
699.54	70.22
699.67	126.39
699.80	0.00
699.94	30.43
700.07	67.88
700.20	0.00
700.34	42.13
700.47	18.72
700.60	14.04
700.73	23.41
700.87	74.90
701.00	18.72
701.13	49.15
701.26	2.34
701.40	0.00
701.53	21.06
701.66	77.24
701.79	60.85
701.93	30.43
702.06	74.90
702.19	4.68
702.32	121.71
702.46	65.54
702.59	135.75
702.72	229.37
702.85	617.90
702.99	1050.90
703.12	1572.84
703.25	1874.77
703.38	1610.29
703.51	1315.38
703.65	910.47
703.78	730.25
703.91	510.24
704.04	301.93
704.17	161.50
704.31	203.63
704.44	91.28
704.57	35.11
704.70	44.47
704.83	58.51
704.96	74.90
705.10	0.00
705.23	44.47
>>>>>End Processed Spectral Data<<<<<
