SpectraSuite Data File
++++++++++++++++++++++++++++++++++++
Date: Fri Oct 04 12:13:30 GMT-05:00 2013
User: price-jones
Dark Spectrum Present: No
Reference Spectrum Present: No
Number of Sampled Component Spectra: 1
Spectrometers: USB2+H05261
Integration Time (usec): 10000 (USB2+H05261)
Spectra Averaged: 1 (USB2+H05261)
Boxcar Smoothing: 0 (USB2+H05261)
Correct for Electrical Dark: No (USB2+H05261)
Strobe/Lamp Enabled: No (USB2+H05261)
Correct for Detector Non-linearity: No (USB2+H05261)
Correct for Stray Light: No (USB2+H05261)
Number of Pixels in Processed Spectrum: 2048
>>>>>Begin Processed Spectral Data<<<<<
365.73	0.00
365.92	0.00
366.12	0.00
366.32	0.00
366.52	0.00
366.72	0.00
366.91	0.00
367.11	0.00
367.31	0.00
367.51	0.00
367.70	0.00
367.90	0.00
368.10	0.00
368.30	0.00
368.49	0.00
368.69	0.00
368.89	0.00
369.09	0.00
369.28	0.00
369.48	0.00
369.68	0.00
369.87	0.00
370.07	0.00
370.27	0.00
370.47	0.00
370.66	0.00
370.86	0.00
371.06	7.02
371.25	4.68
371.45	0.00
371.65	0.00
371.84	0.00
372.04	0.00
372.24	0.00
372.44	9.36
372.63	51.49
372.83	0.00
373.03	2.34
373.22	46.81
373.42	0.00
373.62	65.54
373.81	95.96
374.01	58.51
374.21	0.00
374.40	23.41
374.60	0.00
374.79	91.28
374.99	58.51
375.19	9.36
375.38	0.00
375.58	44.47
375.78	0.00
375.97	42.13
376.17	35.11
376.37	18.72
376.56	84.26
376.76	21.06
376.95	74.90
377.15	14.04
377.35	7.02
377.54	0.00
377.74	44.47
377.93	0.00
378.13	9.36
378.33	14.04
378.52	0.00
378.72	46.81
378.91	18.72
379.11	30.43
379.31	39.79
379.50	16.38
379.70	0.00
379.89	0.00
380.09	28.09
380.28	0.00
380.48	42.13
380.68	0.00
380.87	0.00
381.07	0.00
381.26	110.01
381.46	0.00
381.65	0.00
381.85	0.00
382.04	0.00
382.24	42.13
382.43	0.00
382.63	7.02
382.83	30.43
383.02	4.68
383.22	16.38
383.41	0.00
383.61	0.00
383.80	0.00
384.00	79.58
384.19	0.00
384.39	0.00
384.58	21.06
384.78	0.00
384.97	0.00
385.17	46.81
385.36	30.43
385.56	44.47
385.75	9.36
385.95	42.13
386.14	21.06
386.34	51.49
386.53	51.49
386.72	0.00
386.92	18.72
387.11	0.00
387.31	16.38
387.50	44.47
387.70	16.38
387.89	18.72
388.09	9.36
388.28	2.34
388.48	49.15
388.67	28.09
388.86	32.77
389.06	0.00
389.25	0.00
389.45	0.00
389.64	0.00
389.84	18.72
390.03	135.75
390.22	60.85
390.42	56.17
390.61	0.00
390.81	0.00
391.00	51.49
391.19	0.00
391.39	63.19
391.58	0.00
391.78	4.68
391.97	21.06
392.16	0.00
392.36	0.00
392.55	72.56
392.75	56.17
392.94	21.06
393.13	0.00
393.33	7.02
393.52	42.13
393.71	7.02
393.91	0.00
394.10	0.00
394.29	0.00
394.49	9.36
394.68	58.51
394.88	65.54
395.07	0.00
395.26	32.77
395.46	42.13
395.65	35.11
395.84	133.41
396.04	60.85
396.23	2.34
396.42	0.00
396.62	0.00
396.81	53.83
397.00	67.88
397.19	28.09
397.39	4.68
397.58	25.75
397.77	58.51
397.97	0.00
398.16	107.66
398.35	67.88
398.55	0.00
398.74	91.28
398.93	42.13
399.12	63.19
399.32	51.49
399.51	30.43
399.70	0.00
399.90	0.00
400.09	16.38
400.28	79.58
400.47	77.24
400.67	0.00
400.86	65.54
401.05	0.00
401.24	28.09
401.44	21.06
401.63	79.58
401.82	93.62
402.01	25.75
402.21	37.45
402.40	37.45
402.59	0.00
402.78	0.00
402.97	30.43
403.17	11.70
403.36	0.00
403.55	65.54
403.74	32.77
403.93	0.00
404.13	0.00
404.32	28.09
404.51	0.00
404.70	51.49
404.89	53.83
405.09	67.88
405.28	56.17
405.47	30.43
405.66	2.34
405.85	65.54
406.05	53.83
406.24	70.22
406.43	79.58
406.62	0.00
406.81	0.00
407.00	16.38
407.20	81.92
407.39	28.09
407.58	37.45
407.77	56.17
407.96	102.98
408.15	35.11
408.34	42.13
408.54	0.00
408.73	0.00
408.92	0.00
409.11	84.26
409.30	42.13
409.49	42.13
409.68	11.70
409.87	30.43
410.07	58.51
410.26	105.32
410.45	16.38
410.64	14.04
410.83	0.00
411.02	2.34
411.21	86.60
411.40	72.56
411.59	0.00
411.78	77.24
411.98	60.85
412.17	0.00
412.36	105.32
412.55	70.22
412.74	21.06
412.93	37.45
413.12	0.00
413.31	0.00
413.50	30.43
413.69	25.75
413.88	32.77
414.07	72.56
414.26	30.43
414.45	44.47
414.64	21.06
414.83	0.00
415.02	0.00
415.22	58.51
415.41	42.13
415.60	49.15
415.79	2.34
415.98	63.19
416.17	0.00
416.36	14.04
416.55	63.19
416.74	49.15
416.93	37.45
417.12	72.56
417.31	23.41
417.50	7.02
417.69	53.83
417.88	7.02
418.07	74.90
418.26	23.41
418.45	9.36
418.64	56.17
418.83	7.02
419.02	58.51
419.21	18.72
419.39	11.70
419.58	58.51
419.77	53.83
419.96	53.83
420.15	105.32
420.34	0.00
420.53	0.00
420.72	46.81
420.91	7.02
421.10	23.41
421.29	65.54
421.48	30.43
421.67	145.11
421.86	46.81
422.05	35.11
422.24	23.41
422.43	16.38
422.61	67.88
422.80	32.77
422.99	18.72
423.18	0.00
423.37	9.36
423.56	32.77
423.75	0.00
423.94	58.51
424.13	46.81
424.32	18.72
424.50	4.68
424.69	2.34
424.88	0.00
425.07	77.24
425.26	79.58
425.45	37.45
425.64	21.06
425.83	0.00
426.01	0.00
426.20	2.34
426.39	0.00
426.58	11.70
426.77	37.45
426.96	65.54
427.15	0.00
427.33	39.79
427.52	28.09
427.71	4.68
427.90	77.24
428.09	65.54
428.28	28.09
428.46	42.13
428.65	0.00
428.84	16.38
429.03	9.36
429.22	2.34
429.40	7.02
429.59	0.00
429.78	74.90
429.97	110.01
430.16	49.15
430.34	14.04
430.53	65.54
430.72	42.13
430.91	23.41
431.10	58.51
431.28	0.00
431.47	60.85
431.66	74.90
431.85	28.09
432.03	84.26
432.22	14.04
432.41	44.47
432.60	0.00
432.79	42.13
432.97	49.15
433.16	51.49
433.35	18.72
433.54	32.77
433.72	49.15
433.91	16.38
434.10	39.79
434.28	18.72
434.47	32.77
434.66	65.54
434.85	32.77
435.03	60.85
435.22	63.19
435.41	0.00
435.59	56.17
435.78	0.00
435.97	107.66
436.16	30.43
436.34	51.49
436.53	74.90
436.72	86.60
436.90	0.00
437.09	63.19
437.28	21.06
437.46	58.51
437.65	81.92
437.84	42.13
438.02	0.00
438.21	74.90
438.40	0.00
438.58	72.56
438.77	51.49
438.96	39.79
439.14	77.24
439.33	16.38
439.52	11.70
439.70	72.56
439.89	49.15
440.08	14.04
440.26	0.00
440.45	58.51
440.63	42.13
440.82	25.75
441.01	72.56
441.19	25.75
441.38	0.00
441.57	2.34
441.75	0.00
441.94	14.04
442.12	91.28
442.31	30.43
442.50	0.00
442.68	0.00
442.87	65.54
443.05	0.00
443.24	16.38
443.43	105.32
443.61	21.06
443.80	42.13
443.98	16.38
444.17	42.13
444.35	77.24
444.54	32.77
444.73	56.17
444.91	77.24
445.10	112.35
445.28	63.19
445.47	58.51
445.65	44.47
445.84	11.70
446.02	4.68
446.21	145.11
446.39	0.00
446.58	0.00
446.77	9.36
446.95	53.83
447.14	114.69
447.32	60.85
447.51	56.17
447.69	0.00
447.88	100.64
448.06	30.43
448.25	7.02
448.43	0.00
448.62	0.00
448.80	16.38
448.99	18.72
449.17	30.43
449.36	51.49
449.54	21.06
449.73	60.85
449.91	51.49
450.10	32.77
450.28	9.36
450.46	107.66
450.65	21.06
450.83	60.85
451.02	14.04
451.20	28.09
451.39	0.00
451.57	21.06
451.76	91.28
451.94	32.77
452.13	60.85
452.31	60.85
452.49	65.54
452.68	37.45
452.86	9.36
453.05	11.70
453.23	79.58
453.42	88.94
453.60	56.17
453.78	51.49
453.97	79.58
454.15	28.09
454.34	35.11
454.52	32.77
454.70	16.38
454.89	88.94
455.07	9.36
455.26	0.00
455.44	9.36
455.62	44.47
455.81	0.00
455.99	25.75
456.17	28.09
456.36	0.00
456.54	21.06
456.73	51.49
456.91	42.13
457.09	35.11
457.28	7.02
457.46	25.75
457.64	11.70
457.83	35.11
458.01	25.75
458.19	58.51
458.38	30.43
458.56	35.11
458.74	0.00
458.93	49.15
459.11	65.54
459.29	0.00
459.48	60.85
459.66	117.03
459.84	42.13
460.03	49.15
460.21	0.00
460.39	23.41
460.57	63.19
460.76	21.06
460.94	28.09
461.12	0.00
461.31	32.77
461.49	2.34
461.67	65.54
461.85	35.11
462.04	79.58
462.22	25.75
462.40	65.54
462.59	18.72
462.77	0.00
462.95	35.11
463.13	84.26
463.32	56.17
463.50	0.00
463.68	28.09
463.86	0.00
464.05	107.66
464.23	23.41
464.41	21.06
464.59	28.09
464.78	35.11
464.96	0.00
465.14	11.70
465.32	53.83
465.50	124.05
465.69	72.56
465.87	72.56
466.05	70.22
466.23	56.17
466.41	74.90
466.60	0.00
466.78	60.85
466.96	65.54
467.14	72.56
467.32	35.11
467.51	44.47
467.69	30.43
467.87	81.92
468.05	25.75
468.23	51.49
468.41	2.34
468.60	70.22
468.78	39.79
468.96	70.22
469.14	0.00
469.32	0.00
469.50	44.47
469.69	9.36
469.87	25.75
470.05	44.47
470.23	25.75
470.41	67.88
470.59	0.00
470.77	46.81
470.95	18.72
471.14	67.88
471.32	86.60
471.50	25.75
471.68	72.56
471.86	44.47
472.04	51.49
472.22	0.00
472.40	0.00
472.58	51.49
472.77	65.54
472.95	30.43
473.13	56.17
473.31	25.75
473.49	2.34
473.67	72.56
473.85	0.00
474.03	25.75
474.21	35.11
474.39	0.00
474.57	44.47
474.75	7.02
474.93	56.17
475.12	28.09
475.30	14.04
475.48	0.00
475.66	67.88
475.84	88.94
476.02	37.45
476.20	30.43
476.38	28.09
476.56	0.00
476.74	0.00
476.92	46.81
477.10	44.47
477.28	56.17
477.46	95.96
477.64	51.49
477.82	0.00
478.00	9.36
478.18	23.41
478.36	0.00
478.54	67.88
478.72	0.00
478.90	79.58
479.08	4.68
479.26	0.00
479.44	11.70
479.62	14.04
479.80	39.79
479.98	49.15
480.16	4.68
480.34	51.49
480.52	2.34
480.70	25.75
480.88	44.47
481.06	0.00
481.24	0.00
481.41	42.13
481.59	42.13
481.77	44.47
481.95	70.22
482.13	14.04
482.31	53.83
482.49	16.38
482.67	42.13
482.85	65.54
483.03	44.47
483.21	30.43
483.39	77.24
483.57	4.68
483.74	56.17
483.92	0.00
484.10	0.00
484.28	37.45
484.46	39.79
484.64	0.00
484.82	58.51
485.00	0.00
485.18	74.90
485.35	23.41
485.53	79.58
485.71	7.02
485.89	56.17
486.07	37.45
486.25	14.04
486.43	30.43
486.61	51.49
486.78	23.41
486.96	32.77
487.14	63.19
487.32	39.79
487.50	35.11
487.68	25.75
487.85	25.75
488.03	32.77
488.21	0.00
488.39	70.22
488.57	88.94
488.75	39.79
488.92	91.28
489.10	0.00
489.28	67.88
489.46	77.24
489.64	65.54
489.81	114.69
489.99	14.04
490.17	58.51
490.35	56.17
490.53	35.11
490.70	56.17
490.88	84.26
491.06	49.15
491.24	23.41
491.41	98.30
491.59	0.00
491.77	14.04
491.95	0.00
492.13	0.00
492.30	2.34
492.48	23.41
492.66	53.83
492.84	0.00
493.01	98.30
493.19	37.45
493.37	128.73
493.54	0.00
493.72	102.98
493.90	25.75
494.08	28.09
494.25	93.62
494.43	100.64
494.61	0.00
494.79	0.00
494.96	42.13
495.14	0.00
495.32	16.38
495.49	21.06
495.67	65.54
495.85	44.47
496.02	77.24
496.20	9.36
496.38	74.90
496.55	53.83
496.73	0.00
496.91	58.51
497.09	88.94
497.26	72.56
497.44	42.13
497.62	30.43
497.79	98.30
497.97	95.96
498.14	77.24
498.32	14.04
498.50	37.45
498.67	39.79
498.85	35.11
499.03	42.13
499.20	46.81
499.38	30.43
499.56	39.79
499.73	46.81
499.91	0.00
500.08	79.58
500.26	2.34
500.44	30.43
500.61	0.00
500.79	77.24
500.97	39.79
501.14	30.43
501.32	32.77
501.49	0.00
501.67	21.06
501.84	0.00
502.02	44.47
502.20	46.81
502.37	21.06
502.55	65.54
502.72	42.13
502.90	51.49
503.07	39.79
503.25	35.11
503.43	56.17
503.60	42.13
503.78	42.13
503.95	44.47
504.13	0.00
504.30	65.54
504.48	37.45
504.65	16.38
504.83	23.41
505.01	81.92
505.18	65.54
505.36	9.36
505.53	46.81
505.71	77.24
505.88	65.54
506.06	28.09
506.23	0.00
506.41	42.13
506.58	18.72
506.76	74.90
506.93	63.19
507.11	30.43
507.28	58.51
507.46	30.43
507.63	35.11
507.81	35.11
507.98	39.79
508.16	72.56
508.33	0.00
508.50	0.00
508.68	0.00
508.85	95.96
509.03	42.13
509.20	65.54
509.38	28.09
509.55	16.38
509.73	0.00
509.90	0.00
510.08	112.35
510.25	51.49
510.42	70.22
510.60	35.11
510.77	46.81
510.95	0.00
511.12	86.60
511.30	56.17
511.47	35.11
511.64	42.13
511.82	23.41
511.99	0.00
512.17	32.77
512.34	63.19
512.51	88.94
512.69	11.70
512.86	0.00
513.04	58.51
513.21	23.41
513.38	23.41
513.56	0.00
513.73	0.00
513.90	28.09
514.08	49.15
514.25	58.51
514.43	0.00
514.60	0.00
514.77	0.00
514.95	14.04
515.12	28.09
515.29	18.72
515.47	63.19
515.64	25.75
515.81	72.56
515.99	56.17
516.16	65.54
516.33	0.00
516.51	28.09
516.68	56.17
516.85	81.92
517.03	133.41
517.20	0.00
517.37	28.09
517.54	39.79
517.72	28.09
517.89	21.06
518.06	25.75
518.24	72.56
518.41	25.75
518.58	51.49
518.75	77.24
518.93	0.00
519.10	0.00
519.27	16.38
519.45	14.04
519.62	0.00
519.79	67.88
519.96	14.04
520.14	37.45
520.31	46.81
520.48	0.00
520.65	35.11
520.83	0.00
521.00	72.56
521.17	51.49
521.34	105.32
521.52	60.85
521.69	32.77
521.86	58.51
522.03	30.43
522.20	44.47
522.38	56.17
522.55	28.09
522.72	77.24
522.89	110.01
523.07	95.96
523.24	124.05
523.41	100.64
523.58	0.00
523.75	21.06
523.92	72.56
524.10	0.00
524.27	105.32
524.44	32.77
524.61	32.77
524.78	49.15
524.96	67.88
525.13	53.83
525.30	42.13
525.47	11.70
525.64	53.83
525.81	67.88
525.98	16.38
526.16	37.45
526.33	60.85
526.50	21.06
526.67	77.24
526.84	46.81
527.01	7.02
527.18	46.81
527.36	0.00
527.53	7.02
527.70	0.00
527.87	60.85
528.04	98.30
528.21	21.06
528.38	74.90
528.55	95.96
528.72	131.07
528.89	60.85
529.07	4.68
529.24	14.04
529.41	25.75
529.58	21.06
529.75	65.54
529.92	56.17
530.09	72.56
530.26	9.36
530.43	53.83
530.60	18.72
530.77	25.75
530.94	2.34
531.11	65.54
531.28	110.01
531.46	58.51
531.63	0.00
531.80	63.19
531.97	0.00
532.14	0.00
532.31	0.00
532.48	49.15
532.65	18.72
532.82	0.00
532.99	0.00
533.16	42.13
533.33	18.72
533.50	70.22
533.67	9.36
533.84	53.83
534.01	86.60
534.18	135.75
534.35	25.75
534.52	16.38
534.69	0.00
534.86	65.54
535.03	67.88
535.20	39.79
535.37	93.62
535.54	63.19
535.71	53.83
535.88	49.15
536.05	25.75
536.22	44.47
536.38	37.45
536.55	84.26
536.72	77.24
536.89	0.00
537.06	0.00
537.23	9.36
537.40	18.72
537.57	11.70
537.74	42.13
537.91	28.09
538.08	60.85
538.25	11.70
538.42	4.68
538.59	42.13
538.75	51.49
538.92	18.72
539.09	0.00
539.26	30.43
539.43	81.92
539.60	91.28
539.77	166.18
539.94	124.05
540.11	126.39
540.28	98.30
540.44	86.60
540.61	53.83
540.78	142.77
540.95	28.09
541.12	0.00
541.29	7.02
541.46	91.28
541.62	35.11
541.79	154.48
541.96	7.02
542.13	0.00
542.30	7.02
542.47	46.81
542.63	0.00
542.80	56.17
542.97	30.43
543.14	42.13
543.31	14.04
543.48	72.56
543.64	58.51
543.81	32.77
543.98	70.22
544.15	72.56
544.32	91.28
544.48	11.70
544.65	23.41
544.82	9.36
544.99	0.00
545.16	49.15
545.32	11.70
545.49	79.58
545.66	0.00
545.83	53.83
546.00	0.00
546.16	0.00
546.33	72.56
546.50	74.90
546.67	30.43
546.83	114.69
547.00	44.47
547.17	18.72
547.34	53.83
547.50	44.47
547.67	51.49
547.84	4.68
548.00	102.98
548.17	107.66
548.34	67.88
548.51	18.72
548.67	32.77
548.84	28.09
549.01	84.26
549.18	98.30
549.34	0.00
549.51	0.00
549.68	14.04
549.84	81.92
550.01	11.70
550.18	51.49
550.34	0.00
550.51	14.04
550.68	70.22
550.84	58.51
551.01	58.51
551.18	51.49
551.34	0.00
551.51	53.83
551.68	2.34
551.84	63.19
552.01	4.68
552.18	58.51
552.34	32.77
552.51	42.13
552.68	28.09
552.84	0.00
553.01	39.79
553.18	28.09
553.34	28.09
553.51	25.75
553.67	30.43
553.84	67.88
554.01	65.54
554.17	0.00
554.34	119.37
554.51	60.85
554.67	28.09
554.84	35.11
555.00	67.88
555.17	25.75
555.33	131.07
555.50	44.47
555.67	23.41
555.83	30.43
556.00	42.13
556.16	81.92
556.33	16.38
556.50	161.50
556.66	42.13
556.83	9.36
556.99	79.58
557.16	23.41
557.32	2.34
557.49	25.75
557.65	35.11
557.82	0.00
557.98	0.00
558.15	0.00
558.32	72.56
558.48	2.34
558.65	49.15
558.81	49.15
558.98	21.06
559.14	11.70
559.31	0.00
559.47	2.34
559.64	0.00
559.80	0.00
559.97	88.94
560.13	98.30
560.30	70.22
560.46	51.49
560.63	72.56
560.79	56.17
560.96	98.30
561.12	14.04
561.29	23.41
561.45	39.79
561.61	65.54
561.78	79.58
561.94	67.88
562.11	9.36
562.27	79.58
562.44	74.90
562.60	39.79
562.77	0.00
562.93	32.77
563.10	72.56
563.26	46.81
563.42	51.49
563.59	0.00
563.75	42.13
563.92	79.58
564.08	95.96
564.24	44.47
564.41	49.15
564.57	23.41
564.74	0.00
564.90	0.00
565.07	0.00
565.23	9.36
565.39	53.83
565.56	56.17
565.72	23.41
565.88	11.70
566.05	18.72
566.21	9.36
566.38	0.00
566.54	23.41
566.70	49.15
566.87	7.02
567.03	4.68
567.19	25.75
567.36	46.81
567.52	110.01
567.68	30.43
567.85	37.45
568.01	16.38
568.17	42.13
568.34	60.85
568.50	79.58
568.66	86.60
568.83	72.56
568.99	86.60
569.15	152.13
569.32	56.17
569.48	51.49
569.64	135.75
569.81	79.58
569.97	32.77
570.13	16.38
570.30	23.41
570.46	51.49
570.62	21.06
570.78	0.00
570.95	25.75
571.11	0.00
571.27	14.04
571.43	32.77
571.60	79.58
571.76	58.51
571.92	98.30
572.09	77.24
572.25	95.96
572.41	65.54
572.57	49.15
572.74	42.13
572.90	147.45
573.06	107.66
573.22	67.88
573.38	0.00
573.55	74.90
573.71	35.11
573.87	107.66
574.03	0.00
574.20	51.49
574.36	98.30
574.52	110.01
574.68	42.13
574.84	4.68
575.01	39.79
575.17	60.85
575.33	42.13
575.49	0.00
575.65	30.43
575.82	7.02
575.98	70.22
576.14	51.49
576.30	98.30
576.46	11.70
576.62	86.60
576.79	21.06
576.95	65.54
577.11	23.41
577.27	30.43
577.43	28.09
577.59	28.09
577.75	4.68
577.92	0.00
578.08	100.64
578.24	0.00
578.40	32.77
578.56	67.88
578.72	42.13
578.88	107.66
579.04	46.81
579.21	46.81
579.37	7.02
579.53	0.00
579.69	58.51
579.85	23.41
580.01	128.73
580.17	0.00
580.33	72.56
580.49	23.41
580.65	60.85
580.82	28.09
580.98	35.11
581.14	67.88
581.30	98.30
581.46	35.11
581.62	46.81
581.78	0.00
581.94	53.83
582.10	81.92
582.26	58.51
582.42	0.00
582.58	107.66
582.74	58.51
582.90	4.68
583.06	51.49
583.22	128.73
583.38	65.54
583.54	58.51
583.70	95.96
583.86	124.05
584.02	18.72
584.18	88.94
584.34	39.79
584.50	231.71
584.66	1591.56
584.82	3630.17
584.98	4905.76
585.14	4217.65
585.30	2647.15
585.46	1701.57
585.62	1135.16
585.78	498.53
585.94	154.48
586.10	84.26
586.26	93.62
586.42	95.96
586.58	138.09
586.74	65.54
586.90	65.54
587.06	35.11
587.22	105.32
587.38	18.72
587.54	110.01
587.70	280.86
587.86	365.12
588.02	484.49
588.18	355.76
588.34	273.84
588.49	135.75
588.65	126.39
588.81	81.92
588.97	44.47
589.13	0.00
589.29	14.04
589.45	60.85
589.61	14.04
589.77	95.96
589.93	58.51
590.08	107.66
590.24	44.47
590.40	152.13
590.56	70.22
590.72	35.11
590.88	110.01
591.04	14.04
591.20	51.49
591.35	107.66
591.51	84.26
591.67	18.72
591.83	16.38
591.99	72.56
592.15	49.15
592.31	51.49
592.46	74.90
592.62	25.75
592.78	23.41
592.94	86.60
593.10	28.09
593.26	110.01
593.41	93.62
593.57	32.77
593.73	88.94
593.89	297.25
594.05	470.45
594.20	627.26
594.36	622.58
594.52	404.91
594.68	320.65
594.84	182.56
594.99	168.52
595.15	42.13
595.31	56.17
595.47	39.79
595.62	46.81
595.78	67.88
595.94	44.47
596.10	39.79
596.25	39.79
596.41	39.79
596.57	131.07
596.73	114.69
596.88	42.13
597.04	56.17
597.20	201.29
597.36	168.52
597.51	138.09
597.67	79.58
597.83	84.26
597.99	58.51
598.14	114.69
598.30	70.22
598.46	16.38
598.61	107.66
598.77	65.54
598.93	0.00
599.09	93.62
599.24	63.19
599.40	63.19
599.56	42.13
599.71	77.24
599.87	2.34
600.03	2.34
600.18	39.79
600.34	0.00
600.50	107.66
600.65	9.36
600.81	30.43
600.97	84.26
601.12	42.13
601.28	42.13
601.44	67.88
601.59	35.11
601.75	46.81
601.91	0.00
602.06	0.00
602.22	0.00
602.37	2.34
602.53	210.65
602.69	198.95
602.84	229.37
603.00	131.07
603.16	142.77
603.31	63.19
603.47	0.00
603.62	51.49
603.78	46.81
603.94	79.58
604.09	42.13
604.25	42.13
604.40	0.00
604.56	37.45
604.71	4.68
604.87	42.13
605.03	124.05
605.18	51.49
605.34	91.28
605.49	0.00
605.65	16.38
605.80	124.05
605.96	98.30
606.12	35.11
606.27	51.49
606.43	23.41
606.58	0.00
606.74	35.11
606.89	241.08
607.05	435.34
607.20	580.45
607.36	409.59
607.51	292.57
607.67	205.97
607.82	182.56
607.98	51.49
608.13	44.47
608.29	60.85
608.44	67.88
608.60	86.60
608.75	110.01
608.91	42.13
609.06	444.70
609.22	784.08
609.37	950.26
609.53	877.70
609.68	564.07
609.84	332.36
609.99	280.86
610.15	198.95
610.30	79.58
610.46	53.83
610.61	39.79
610.76	49.15
610.92	74.90
611.07	42.13
611.23	28.09
611.38	0.00
611.54	14.04
611.69	2.34
611.84	0.00
612.00	14.04
612.15	42.13
612.31	7.02
612.46	0.00
612.62	51.49
612.77	93.62
612.92	4.68
613.08	0.00
613.23	65.54
613.39	86.60
613.54	91.28
613.69	381.51
613.85	987.71
614.00	1446.45
614.15	1462.83
614.31	1100.05
614.46	809.83
614.62	503.22
614.77	315.97
614.92	135.75
615.08	107.66
615.23	2.34
615.38	84.26
615.54	81.92
615.69	42.13
615.84	229.37
616.00	362.78
616.15	456.40
616.30	365.12
616.46	142.77
616.61	170.86
616.76	177.88
616.92	74.90
617.07	25.75
617.22	28.09
617.37	0.00
617.53	42.13
617.68	18.72
617.83	81.92
617.99	65.54
618.14	117.03
618.29	9.36
618.45	21.06
618.60	46.81
618.75	93.62
618.90	18.72
619.06	28.09
619.21	56.17
619.36	86.60
619.51	46.81
619.67	0.00
619.82	46.81
619.97	74.90
620.12	30.43
620.28	65.54
620.43	16.38
620.58	37.45
620.73	152.13
620.89	28.09
621.04	58.51
621.19	159.16
621.34	182.56
621.49	217.67
621.65	227.03
621.80	203.63
621.95	135.75
622.10	0.00
622.25	30.43
622.41	53.83
622.56	2.34
622.71	35.11
622.86	53.83
623.01	16.38
623.16	95.96
623.32	51.49
623.47	58.51
623.62	72.56
623.77	23.41
623.92	25.75
624.07	53.83
624.23	49.15
624.38	91.28
624.53	0.00
624.68	0.00
624.83	56.17
624.98	81.92
625.13	117.03
625.29	23.41
625.44	9.36
625.59	126.39
625.74	16.38
625.89	65.54
626.04	245.76
626.19	479.81
626.34	765.36
626.49	744.29
626.65	573.43
626.80	395.55
626.95	301.93
627.10	215.33
627.25	142.77
627.40	30.43
627.55	51.49
627.70	53.83
627.85	28.09
628.00	77.24
628.15	0.00
628.30	44.47
628.45	44.47
628.60	79.58
628.76	77.24
628.91	2.34
629.06	0.00
629.21	21.06
629.36	98.30
629.51	0.00
629.66	37.45
629.81	25.75
629.96	152.13
630.11	173.20
630.26	299.59
630.41	234.05
630.56	138.09
630.71	74.90
630.86	39.79
631.01	7.02
631.16	0.00
631.31	88.94
631.46	35.11
631.61	18.72
631.76	14.04
631.91	58.51
632.06	100.64
632.21	0.00
632.36	53.83
632.51	77.24
632.66	67.88
632.81	102.98
632.96	306.61
633.10	414.27
633.25	449.38
633.40	435.34
633.55	299.59
633.70	276.18
633.85	208.31
634.00	91.28
634.15	42.13
634.30	63.19
634.45	74.90
634.60	88.94
634.75	23.41
634.90	28.09
635.05	93.62
635.19	30.43
635.34	0.00
635.49	35.11
635.64	11.70
635.79	53.83
635.94	79.58
636.09	42.13
636.24	60.85
636.39	81.92
636.53	60.85
636.68	35.11
636.83	18.72
636.98	107.66
637.13	0.00
637.28	37.45
637.43	63.19
637.57	49.15
637.72	290.23
637.87	662.37
638.02	943.24
638.17	978.34
638.32	774.72
638.46	484.49
638.61	435.34
638.76	287.89
638.91	147.45
639.06	100.64
639.20	98.30
639.35	77.24
639.50	126.39
639.65	430.66
639.80	1015.79
639.94	1467.52
640.09	1446.45
640.24	1139.84
640.39	807.48
640.54	601.52
640.68	367.46
640.83	212.99
640.98	65.54
641.13	49.15
641.27	98.30
641.42	0.00
641.57	74.90
641.72	72.56
641.86	14.04
642.01	44.47
642.16	25.75
642.31	25.75
642.45	42.13
642.60	95.96
642.75	86.60
642.90	100.64
643.04	51.49
643.19	67.88
643.34	53.83
643.48	42.13
643.63	30.43
643.78	7.02
643.93	58.51
644.07	53.83
644.22	49.15
644.37	18.72
644.51	2.34
644.66	0.00
644.81	51.49
644.95	84.26
645.10	44.47
645.25	84.26
645.39	51.49
645.54	0.00
645.69	53.83
645.83	35.11
645.98	18.72
646.13	39.79
646.27	0.00
646.42	56.17
646.57	2.34
646.71	25.75
646.86	63.19
647.00	30.43
647.15	16.38
647.30	30.43
647.44	58.51
647.59	32.77
647.74	72.56
647.88	72.56
648.03	32.77
648.17	30.43
648.32	81.92
648.47	44.47
648.61	39.79
648.76	49.15
648.90	39.79
649.05	0.00
649.20	2.34
649.34	23.41
649.49	11.70
649.63	18.72
649.78	0.00
649.92	58.51
650.07	187.24
650.21	428.32
650.36	641.31
650.51	828.55
650.65	697.48
650.80	484.49
650.94	320.65
651.09	180.22
651.23	128.73
651.38	42.13
651.52	51.49
651.67	44.47
651.81	7.02
651.96	0.00
652.10	16.38
652.25	60.85
652.39	53.83
652.54	74.90
652.68	70.22
652.83	159.16
652.97	224.69
653.12	280.86
653.26	276.18
653.41	238.73
653.55	184.90
653.70	105.32
653.84	63.19
653.99	114.69
654.13	86.60
654.27	58.51
654.42	0.00
654.56	0.00
654.71	9.36
654.85	0.00
655.00	23.41
655.14	77.24
655.29	72.56
655.43	35.11
655.57	0.00
655.72	0.00
655.86	49.15
656.01	35.11
656.15	32.77
656.30	53.83
656.44	51.49
656.58	93.62
656.73	46.81
656.87	30.43
657.01	51.49
657.16	44.47
657.30	9.36
657.45	44.47
657.59	7.02
657.73	56.17
657.88	44.47
658.02	30.43
658.16	9.36
658.31	35.11
658.45	7.02
658.60	51.49
658.74	7.02
658.88	51.49
659.03	51.49
659.17	102.98
659.31	126.39
659.46	198.95
659.60	337.04
659.74	409.59
659.89	402.57
660.03	355.76
660.17	156.82
660.32	189.58
660.46	159.16
660.60	100.64
660.74	0.00
660.89	30.43
661.03	49.15
661.17	70.22
661.32	0.00
661.46	23.41
661.60	53.83
661.74	23.41
661.89	11.70
662.03	51.49
662.17	138.09
662.31	0.00
662.46	67.88
662.60	0.00
662.74	7.02
662.88	79.58
663.03	51.49
663.17	44.47
663.31	7.02
663.45	23.41
663.60	28.09
663.74	28.09
663.88	4.68
664.02	42.13
664.17	25.75
664.31	23.41
664.45	135.75
664.59	32.77
664.73	65.54
664.88	0.00
665.02	58.51
665.16	35.11
665.30	4.68
665.44	81.92
665.59	16.38
665.73	105.32
665.87	39.79
666.01	56.17
666.15	42.13
666.29	30.43
666.44	70.22
666.58	0.00
666.72	37.45
666.86	0.00
667.00	84.26
667.14	63.19
667.28	168.52
667.43	411.93
667.57	641.31
667.71	688.12
667.85	648.33
667.99	372.15
668.13	304.27
668.27	215.33
668.41	149.79
668.56	128.73
668.70	51.49
668.84	72.56
668.98	25.75
669.12	0.00
669.26	7.02
669.40	46.81
669.54	100.64
669.68	39.79
669.82	53.83
669.96	65.54
670.10	21.06
670.25	37.45
670.39	58.51
670.53	0.00
670.67	37.45
670.81	18.72
670.95	32.77
671.09	70.22
671.23	91.28
671.37	250.44
671.51	337.04
671.65	496.19
671.79	421.30
671.93	229.37
672.07	145.11
672.21	93.62
672.35	18.72
672.49	21.06
672.63	86.60
672.77	4.68
672.91	25.75
673.05	32.77
673.19	0.00
673.33	49.15
673.47	35.11
673.61	18.72
673.75	0.00
673.89	23.41
674.03	16.38
674.17	28.09
674.31	0.00
674.45	32.77
674.59	0.00
674.73	39.79
674.87	18.72
675.01	30.43
675.15	56.17
675.29	16.38
675.43	67.88
675.56	81.92
675.70	72.56
675.84	0.00
675.98	95.96
676.12	100.64
676.26	51.49
676.40	0.00
676.54	70.22
676.68	4.68
676.82	21.06
676.96	0.00
677.10	11.70
677.23	51.49
677.37	91.28
677.51	105.32
677.65	88.94
677.79	28.09
677.93	0.00
678.07	44.47
678.21	7.02
678.34	53.83
678.48	46.81
678.62	77.24
678.76	39.79
678.90	35.11
679.04	84.26
679.18	9.36
679.31	0.00
679.45	79.58
679.59	0.00
679.73	25.75
679.87	37.45
680.00	28.09
680.14	0.00
680.28	0.00
680.42	56.17
680.56	0.00
680.70	30.43
680.83	32.77
680.97	35.11
681.11	51.49
681.25	42.13
681.39	46.81
681.52	30.43
681.66	9.36
681.80	65.54
681.94	0.00
682.07	0.00
682.21	77.24
682.35	0.00
682.49	18.72
682.62	32.77
682.76	70.22
682.90	39.79
683.04	72.56
683.17	0.00
683.31	37.45
683.45	7.02
683.59	9.36
683.72	84.26
683.86	0.00
684.00	7.02
684.13	14.04
684.27	51.49
684.41	53.83
684.55	58.51
684.68	2.34
684.82	65.54
684.96	46.81
685.09	21.06
685.23	14.04
685.37	0.00
685.50	0.00
685.64	23.41
685.78	18.72
685.91	11.70
686.05	0.00
686.19	32.77
686.32	79.58
686.46	25.75
686.60	65.54
686.73	88.94
686.87	32.77
687.01	39.79
687.14	0.00
687.28	0.00
687.42	67.88
687.55	25.75
687.69	51.49
687.82	32.77
687.96	63.19
688.10	65.54
688.23	14.04
688.37	81.92
688.50	30.43
688.64	65.54
688.78	42.13
688.91	91.28
689.05	11.70
689.18	7.02
689.32	0.00
689.46	46.81
689.59	60.85
689.73	18.72
689.86	53.83
690.00	9.36
690.13	21.06
690.27	7.02
690.41	102.98
690.54	32.77
690.68	70.22
690.81	58.51
690.95	46.81
691.08	14.04
691.22	32.77
691.35	0.00
691.49	32.77
691.62	91.28
691.76	93.62
691.89	39.79
692.03	35.11
692.16	21.06
692.30	18.72
692.43	65.54
692.57	184.90
692.70	234.05
692.84	337.04
692.97	245.76
693.11	210.65
693.24	121.71
693.38	128.73
693.51	95.96
693.65	60.85
693.78	58.51
693.92	107.66
694.05	58.51
694.19	7.02
694.32	0.00
694.45	0.00
694.59	0.00
694.72	32.77
694.86	0.00
694.99	14.04
695.13	0.00
695.26	4.68
695.39	93.62
695.53	67.88
695.66	39.79
695.80	32.77
695.93	93.62
696.07	51.49
696.20	77.24
696.33	32.77
696.47	77.24
696.60	0.00
696.73	86.60
696.87	28.09
697.00	107.66
697.14	0.00
697.27	53.83
697.40	4.68
697.54	67.88
697.67	49.15
697.80	49.15
697.94	79.58
698.07	77.24
698.21	114.69
698.34	32.77
698.47	72.56
698.61	25.75
698.74	25.75
698.87	0.00
699.01	11.70
699.14	88.94
699.27	18.72
699.40	35.11
699.54	49.15
699.67	14.04
699.80	72.56
699.94	142.77
700.07	0.00
700.20	0.00
700.34	4.68
700.47	21.06
700.60	0.00
700.73	0.00
700.87	84.26
701.00	0.00
701.13	56.17
701.26	21.06
701.40	63.19
701.53	35.11
701.66	30.43
701.79	18.72
701.93	91.28
702.06	4.68
702.19	67.88
702.32	79.58
702.46	32.77
702.59	77.24
702.72	100.64
702.85	135.75
702.99	400.23
703.12	615.56
703.25	505.56
703.38	475.13
703.51	393.21
703.65	269.16
703.78	248.10
703.91	187.24
704.04	107.66
704.17	51.49
704.31	49.15
704.44	35.11
704.57	0.00
704.70	23.41
704.83	51.49
704.96	2.34
705.10	30.43
705.23	39.79
>>>>>End Processed Spectral Data<<<<<
