SpectraSuite Data File
++++++++++++++++++++++++++++++++++++
Date: Fri Oct 04 12:13:25 GMT-05:00 2013
User: price-jones
Dark Spectrum Present: No
Reference Spectrum Present: No
Number of Sampled Component Spectra: 1
Spectrometers: USB2+H05261
Integration Time (usec): 10000 (USB2+H05261)
Spectra Averaged: 1 (USB2+H05261)
Boxcar Smoothing: 0 (USB2+H05261)
Correct for Electrical Dark: No (USB2+H05261)
Strobe/Lamp Enabled: No (USB2+H05261)
Correct for Detector Non-linearity: No (USB2+H05261)
Correct for Stray Light: No (USB2+H05261)
Number of Pixels in Processed Spectrum: 2048
>>>>>Begin Processed Spectral Data<<<<<
365.73	0.00
365.92	0.00
366.12	0.00
366.32	0.00
366.52	0.00
366.72	0.00
366.91	0.00
367.11	0.00
367.31	0.00
367.51	0.00
367.70	0.00
367.90	0.00
368.10	0.00
368.30	0.00
368.49	0.00
368.69	0.00
368.89	0.00
369.09	0.00
369.28	0.00
369.48	0.00
369.68	0.00
369.87	0.00
370.07	0.00
370.27	0.00
370.47	0.00
370.66	0.00
370.86	0.00
371.06	0.00
371.25	0.00
371.45	0.00
371.65	23.41
371.84	0.00
372.04	0.00
372.24	14.04
372.44	0.00
372.63	21.06
372.83	32.77
373.03	0.00
373.22	0.00
373.42	32.77
373.62	23.41
373.81	44.47
374.01	25.75
374.21	58.51
374.40	0.00
374.60	16.38
374.79	0.00
374.99	4.68
375.19	81.92
375.38	0.00
375.58	56.17
375.78	0.00
375.97	0.00
376.17	25.75
376.37	79.58
376.56	37.45
376.76	63.19
376.95	30.43
377.15	37.45
377.35	28.09
377.54	79.58
377.74	95.96
377.93	21.06
378.13	58.51
378.33	63.19
378.52	0.00
378.72	7.02
378.91	23.41
379.11	95.96
379.31	0.00
379.50	11.70
379.70	30.43
379.89	23.41
380.09	74.90
380.28	0.00
380.48	0.00
380.68	77.24
380.87	4.68
381.07	39.79
381.26	0.00
381.46	0.00
381.65	16.38
381.85	0.00
382.04	0.00
382.24	0.00
382.43	14.04
382.63	2.34
382.83	46.81
383.02	37.45
383.22	63.19
383.41	21.06
383.61	30.43
383.80	88.94
384.00	16.38
384.19	2.34
384.39	46.81
384.58	0.00
384.78	0.00
384.97	0.00
385.17	0.00
385.36	21.06
385.56	21.06
385.75	88.94
385.95	53.83
386.14	0.00
386.34	11.70
386.53	35.11
386.72	0.00
386.92	0.00
387.11	16.38
387.31	0.00
387.50	0.00
387.70	28.09
387.89	46.81
388.09	0.00
388.28	0.00
388.48	28.09
388.67	126.39
388.86	93.62
389.06	0.00
389.25	16.38
389.45	93.62
389.64	35.11
389.84	72.56
390.03	7.02
390.22	35.11
390.42	18.72
390.61	84.26
390.81	28.09
391.00	30.43
391.19	0.00
391.39	119.37
391.58	14.04
391.78	42.13
391.97	14.04
392.16	39.79
392.36	23.41
392.55	42.13
392.75	0.00
392.94	0.00
393.13	28.09
393.33	0.00
393.52	23.41
393.71	63.19
393.91	0.00
394.10	25.75
394.29	84.26
394.49	0.00
394.68	0.00
394.88	70.22
395.07	58.51
395.26	74.90
395.46	70.22
395.65	67.88
395.84	56.17
396.04	53.83
396.23	58.51
396.42	110.01
396.62	4.68
396.81	2.34
397.00	14.04
397.19	4.68
397.39	30.43
397.58	21.06
397.77	0.00
397.97	7.02
398.16	0.00
398.35	23.41
398.55	53.83
398.74	46.81
398.93	0.00
399.12	0.00
399.32	30.43
399.51	56.17
399.70	81.92
399.90	110.01
400.09	42.13
400.28	0.00
400.47	30.43
400.67	0.00
400.86	110.01
401.05	67.88
401.24	42.13
401.44	21.06
401.63	0.00
401.82	60.85
402.01	42.13
402.21	0.00
402.40	77.24
402.59	67.88
402.78	67.88
402.97	49.15
403.17	30.43
403.36	0.00
403.55	0.00
403.74	65.54
403.93	9.36
404.13	2.34
404.32	65.54
404.51	25.75
404.70	63.19
404.89	2.34
405.09	0.00
405.28	25.75
405.47	18.72
405.66	77.24
405.85	70.22
406.05	77.24
406.24	93.62
406.43	0.00
406.62	0.00
406.81	0.00
407.00	14.04
407.20	39.79
407.39	51.49
407.58	49.15
407.77	0.00
407.96	0.00
408.15	0.00
408.34	95.96
408.54	0.00
408.73	51.49
408.92	32.77
409.11	102.98
409.30	35.11
409.49	105.32
409.68	35.11
409.87	0.00
410.07	18.72
410.26	56.17
410.45	60.85
410.64	16.38
410.83	35.11
411.02	46.81
411.21	51.49
411.40	21.06
411.59	60.85
411.78	81.92
411.98	28.09
412.17	42.13
412.36	39.79
412.55	4.68
412.74	79.58
412.93	46.81
413.12	63.19
413.31	65.54
413.50	63.19
413.69	28.09
413.88	0.00
414.07	21.06
414.26	37.45
414.45	35.11
414.64	0.00
414.83	0.00
415.02	0.00
415.22	18.72
415.41	0.00
415.60	86.60
415.79	0.00
415.98	74.90
416.17	30.43
416.36	51.49
416.55	23.41
416.74	51.49
416.93	32.77
417.12	67.88
417.31	86.60
417.50	67.88
417.69	11.70
417.88	65.54
418.07	7.02
418.26	18.72
418.45	7.02
418.64	72.56
418.83	28.09
419.02	0.00
419.21	51.49
419.39	46.81
419.58	72.56
419.77	16.38
419.96	32.77
420.15	0.00
420.34	0.00
420.53	23.41
420.72	53.83
420.91	46.81
421.10	2.34
421.29	30.43
421.48	21.06
421.67	51.49
421.86	28.09
422.05	0.00
422.24	0.00
422.43	0.00
422.61	0.00
422.80	14.04
422.99	37.45
423.18	44.47
423.37	0.00
423.56	37.45
423.75	88.94
423.94	7.02
424.13	60.85
424.32	0.00
424.50	0.00
424.69	14.04
424.88	46.81
425.07	110.01
425.26	0.00
425.45	30.43
425.64	70.22
425.83	98.30
426.01	28.09
426.20	0.00
426.39	102.98
426.58	4.68
426.77	0.00
426.96	46.81
427.15	74.90
427.33	16.38
427.52	56.17
427.71	110.01
427.90	0.00
428.09	25.75
428.28	84.26
428.46	35.11
428.65	4.68
428.84	98.30
429.03	51.49
429.22	7.02
429.40	7.02
429.59	28.09
429.78	58.51
429.97	0.00
430.16	79.58
430.34	0.00
430.53	37.45
430.72	42.13
430.91	67.88
431.10	88.94
431.28	25.75
431.47	23.41
431.66	21.06
431.85	0.00
432.03	46.81
432.22	25.75
432.41	77.24
432.60	114.69
432.79	72.56
432.97	53.83
433.16	46.81
433.35	0.00
433.54	18.72
433.72	42.13
433.91	72.56
434.10	28.09
434.28	74.90
434.47	0.00
434.66	23.41
434.85	0.00
435.03	51.49
435.22	0.00
435.41	39.79
435.59	0.00
435.78	23.41
435.97	25.75
436.16	74.90
436.34	84.26
436.53	16.38
436.72	9.36
436.90	77.24
437.09	63.19
437.28	67.88
437.46	56.17
437.65	49.15
437.84	65.54
438.02	0.00
438.21	0.00
438.40	25.75
438.58	0.00
438.77	0.00
438.96	35.11
439.14	0.00
439.33	44.47
439.52	53.83
439.70	60.85
439.89	77.24
440.08	49.15
440.26	0.00
440.45	98.30
440.63	51.49
440.82	28.09
441.01	39.79
441.19	18.72
441.38	0.00
441.57	42.13
441.75	28.09
441.94	0.00
442.12	0.00
442.31	9.36
442.50	0.00
442.68	91.28
442.87	0.00
443.05	18.72
443.24	53.83
443.43	32.77
443.61	30.43
443.80	0.00
443.98	0.00
444.17	0.00
444.35	4.68
444.54	100.64
444.73	72.56
444.91	77.24
445.10	60.85
445.28	11.70
445.47	18.72
445.65	0.00
445.84	4.68
446.02	0.00
446.21	49.15
446.39	0.00
446.58	9.36
446.77	0.00
446.95	67.88
447.14	100.64
447.32	51.49
447.51	23.41
447.69	25.75
447.88	42.13
448.06	46.81
448.25	39.79
448.43	11.70
448.62	98.30
448.80	105.32
448.99	53.83
449.17	4.68
449.36	28.09
449.54	30.43
449.73	14.04
449.91	4.68
450.10	42.13
450.28	0.00
450.46	60.85
450.65	14.04
450.83	14.04
451.02	81.92
451.20	0.00
451.39	9.36
451.57	39.79
451.76	0.00
451.94	16.38
452.13	56.17
452.31	65.54
452.49	28.09
452.68	51.49
452.86	0.00
453.05	100.64
453.23	53.83
453.42	25.75
453.60	23.41
453.78	56.17
453.97	42.13
454.15	0.00
454.34	63.19
454.52	79.58
454.70	0.00
454.89	102.98
455.07	84.26
455.26	0.00
455.44	9.36
455.62	65.54
455.81	21.06
455.99	0.00
456.17	7.02
456.36	30.43
456.54	18.72
456.73	30.43
456.91	46.81
457.09	65.54
457.28	23.41
457.46	65.54
457.64	72.56
457.83	0.00
458.01	77.24
458.19	0.00
458.38	16.38
458.56	0.00
458.74	0.00
458.93	18.72
459.11	25.75
459.29	79.58
459.48	30.43
459.66	110.01
459.84	44.47
460.03	53.83
460.21	35.11
460.39	53.83
460.57	16.38
460.76	56.17
460.94	49.15
461.12	105.32
461.31	0.00
461.49	18.72
461.67	4.68
461.85	74.90
462.04	42.13
462.22	112.35
462.40	0.00
462.59	0.00
462.77	58.51
462.95	0.00
463.13	0.00
463.32	49.15
463.50	49.15
463.68	51.49
463.86	39.79
464.05	53.83
464.23	39.79
464.41	32.77
464.59	18.72
464.78	70.22
464.96	30.43
465.14	77.24
465.32	37.45
465.50	7.02
465.69	0.00
465.87	81.92
466.05	18.72
466.23	25.75
466.41	18.72
466.60	0.00
466.78	0.00
466.96	11.70
467.14	16.38
467.32	44.47
467.51	72.56
467.69	60.85
467.87	4.68
468.05	14.04
468.23	37.45
468.41	51.49
468.60	44.47
468.78	35.11
468.96	93.62
469.14	56.17
469.32	56.17
469.50	0.00
469.69	32.77
469.87	0.00
470.05	42.13
470.23	105.32
470.41	0.00
470.59	0.00
470.77	0.00
470.95	0.00
471.14	25.75
471.32	32.77
471.50	0.00
471.68	37.45
471.86	86.60
472.04	0.00
472.22	42.13
472.40	37.45
472.58	7.02
472.77	0.00
472.95	98.30
473.13	0.00
473.31	56.17
473.49	46.81
473.67	93.62
473.85	79.58
474.03	35.11
474.21	14.04
474.39	35.11
474.57	53.83
474.75	0.00
474.93	11.70
475.12	16.38
475.30	0.00
475.48	70.22
475.66	56.17
475.84	44.47
476.02	0.00
476.20	53.83
476.38	21.06
476.56	37.45
476.74	63.19
476.92	84.26
477.10	93.62
477.28	11.70
477.46	44.47
477.64	30.43
477.82	9.36
478.00	39.79
478.18	32.77
478.36	39.79
478.54	14.04
478.72	23.41
478.90	25.75
479.08	16.38
479.26	30.43
479.44	51.49
479.62	74.90
479.80	81.92
479.98	39.79
480.16	63.19
480.34	0.00
480.52	58.51
480.70	0.00
480.88	18.72
481.06	46.81
481.24	100.64
481.41	18.72
481.59	49.15
481.77	42.13
481.95	51.49
482.13	21.06
482.31	60.85
482.49	35.11
482.67	35.11
482.85	63.19
483.03	0.00
483.21	70.22
483.39	28.09
483.57	11.70
483.74	77.24
483.92	77.24
484.10	84.26
484.28	4.68
484.46	37.45
484.64	84.26
484.82	60.85
485.00	49.15
485.18	9.36
485.35	11.70
485.53	112.35
485.71	56.17
485.89	44.47
486.07	74.90
486.25	9.36
486.43	65.54
486.61	0.00
486.78	72.56
486.96	0.00
487.14	74.90
487.32	60.85
487.50	16.38
487.68	95.96
487.85	67.88
488.03	32.77
488.21	4.68
488.39	81.92
488.57	0.00
488.75	79.58
488.92	112.35
489.10	18.72
489.28	65.54
489.46	32.77
489.64	4.68
489.81	18.72
489.99	49.15
490.17	0.00
490.35	42.13
490.53	51.49
490.70	16.38
490.88	86.60
491.06	58.51
491.24	56.17
491.41	25.75
491.59	11.70
491.77	53.83
491.95	70.22
492.13	35.11
492.30	11.70
492.48	0.00
492.66	60.85
492.84	77.24
493.01	4.68
493.19	72.56
493.37	0.00
493.54	32.77
493.72	14.04
493.90	11.70
494.08	67.88
494.25	0.00
494.43	0.00
494.61	4.68
494.79	49.15
494.96	79.58
495.14	35.11
495.32	63.19
495.49	46.81
495.67	0.00
495.85	25.75
496.02	25.75
496.20	117.03
496.38	0.00
496.55	86.60
496.73	0.00
496.91	42.13
497.09	14.04
497.26	0.00
497.44	28.09
497.62	16.38
497.79	58.51
497.97	100.64
498.14	100.64
498.32	42.13
498.50	44.47
498.67	37.45
498.85	102.98
499.03	28.09
499.20	37.45
499.38	70.22
499.56	58.51
499.73	100.64
499.91	81.92
500.08	67.88
500.26	65.54
500.44	4.68
500.61	21.06
500.79	91.28
500.97	56.17
501.14	0.00
501.32	39.79
501.49	11.70
501.67	0.00
501.84	32.77
502.02	21.06
502.20	63.19
502.37	58.51
502.55	18.72
502.72	37.45
502.90	9.36
503.07	65.54
503.25	4.68
503.43	74.90
503.60	72.56
503.78	74.90
503.95	0.00
504.13	0.00
504.30	39.79
504.48	63.19
504.65	102.98
504.83	37.45
505.01	39.79
505.18	53.83
505.36	42.13
505.53	25.75
505.71	21.06
505.88	4.68
506.06	0.00
506.23	0.00
506.41	0.00
506.58	110.01
506.76	74.90
506.93	0.00
507.11	16.38
507.28	95.96
507.46	14.04
507.63	9.36
507.81	7.02
507.98	18.72
508.16	28.09
508.33	30.43
508.50	0.00
508.68	37.45
508.85	51.49
509.03	23.41
509.20	28.09
509.38	39.79
509.55	65.54
509.73	4.68
509.90	44.47
510.08	0.00
510.25	0.00
510.42	37.45
510.60	56.17
510.77	4.68
510.95	18.72
511.12	42.13
511.30	53.83
511.47	95.96
511.64	23.41
511.82	23.41
511.99	128.73
512.17	39.79
512.34	93.62
512.51	7.02
512.69	67.88
512.86	28.09
513.04	51.49
513.21	51.49
513.38	0.00
513.56	23.41
513.73	28.09
513.90	37.45
514.08	35.11
514.25	9.36
514.43	4.68
514.60	0.00
514.77	9.36
514.95	107.66
515.12	37.45
515.29	110.01
515.47	46.81
515.64	86.60
515.81	84.26
515.99	25.75
516.16	32.77
516.33	51.49
516.51	0.00
516.68	32.77
516.85	65.54
517.03	51.49
517.20	18.72
517.37	0.00
517.54	98.30
517.72	65.54
517.89	21.06
518.06	16.38
518.24	35.11
518.41	30.43
518.58	81.92
518.75	37.45
518.93	86.60
519.10	39.79
519.27	0.00
519.45	35.11
519.62	0.00
519.79	42.13
519.96	46.81
520.14	65.54
520.31	28.09
520.48	0.00
520.65	81.92
520.83	46.81
521.00	65.54
521.17	58.51
521.34	0.00
521.52	14.04
521.69	88.94
521.86	16.38
522.03	46.81
522.20	0.00
522.38	14.04
522.55	25.75
522.72	46.81
522.89	0.00
523.07	0.00
523.24	0.00
523.41	44.47
523.58	58.51
523.75	4.68
523.92	0.00
524.10	28.09
524.27	32.77
524.44	72.56
524.61	63.19
524.78	28.09
524.96	11.70
525.13	93.62
525.30	23.41
525.47	0.00
525.64	14.04
525.81	14.04
525.98	28.09
526.16	0.00
526.33	98.30
526.50	112.35
526.67	81.92
526.84	23.41
527.01	18.72
527.18	100.64
527.36	16.38
527.53	70.22
527.70	7.02
527.87	0.00
528.04	70.22
528.21	56.17
528.38	51.49
528.55	0.00
528.72	63.19
528.89	14.04
529.07	60.85
529.24	56.17
529.41	39.79
529.58	9.36
529.75	79.58
529.92	30.43
530.09	44.47
530.26	9.36
530.43	35.11
530.60	14.04
530.77	16.38
530.94	0.00
531.11	60.85
531.28	91.28
531.46	42.13
531.63	95.96
531.80	32.77
531.97	0.00
532.14	107.66
532.31	25.75
532.48	42.13
532.65	65.54
532.82	70.22
532.99	110.01
533.16	39.79
533.33	23.41
533.50	70.22
533.67	42.13
533.84	84.26
534.01	42.13
534.18	67.88
534.35	51.49
534.52	4.68
534.69	32.77
534.86	86.60
535.03	7.02
535.20	74.90
535.37	93.62
535.54	42.13
535.71	56.17
535.88	107.66
536.05	46.81
536.22	16.38
536.38	39.79
536.55	58.51
536.72	32.77
536.89	49.15
537.06	44.47
537.23	51.49
537.40	138.09
537.57	88.94
537.74	72.56
537.91	35.11
538.08	32.77
538.25	14.04
538.42	7.02
538.59	72.56
538.75	0.00
538.92	0.00
539.09	91.28
539.26	0.00
539.43	67.88
539.60	77.24
539.77	107.66
539.94	77.24
540.11	49.15
540.28	30.43
540.44	56.17
540.61	2.34
540.78	70.22
540.95	11.70
541.12	25.75
541.29	84.26
541.46	23.41
541.62	63.19
541.79	32.77
541.96	2.34
542.13	0.00
542.30	84.26
542.47	67.88
542.63	32.77
542.80	35.11
542.97	32.77
543.14	11.70
543.31	79.58
543.48	0.00
543.64	0.00
543.81	25.75
543.98	0.00
544.15	9.36
544.32	35.11
544.48	0.00
544.65	37.45
544.82	124.05
544.99	53.83
545.16	95.96
545.32	60.85
545.49	7.02
545.66	39.79
545.83	14.04
546.00	0.00
546.16	0.00
546.33	88.94
546.50	11.70
546.67	79.58
546.83	23.41
547.00	39.79
547.17	32.77
547.34	11.70
547.50	0.00
547.67	18.72
547.84	0.00
548.00	63.19
548.17	93.62
548.34	0.00
548.51	0.00
548.67	0.00
548.84	18.72
549.01	44.47
549.18	25.75
549.34	16.38
549.51	14.04
549.68	93.62
549.84	44.47
550.01	0.00
550.18	56.17
550.34	58.51
550.51	84.26
550.68	30.43
550.84	11.70
551.01	67.88
551.18	51.49
551.34	35.11
551.51	35.11
551.68	9.36
551.84	53.83
552.01	42.13
552.18	18.72
552.34	32.77
552.51	16.38
552.68	2.34
552.84	46.81
553.01	37.45
553.18	102.98
553.34	56.17
553.51	18.72
553.67	2.34
553.84	72.56
554.01	91.28
554.17	84.26
554.34	14.04
554.51	30.43
554.67	37.45
554.84	18.72
555.00	16.38
555.17	0.00
555.33	0.00
555.50	95.96
555.67	49.15
555.83	0.00
556.00	21.06
556.16	0.00
556.33	35.11
556.50	65.54
556.66	53.83
556.83	32.77
556.99	37.45
557.16	74.90
557.32	58.51
557.49	35.11
557.65	58.51
557.82	35.11
557.98	25.75
558.15	23.41
558.32	100.64
558.48	67.88
558.65	18.72
558.81	30.43
558.98	60.85
559.14	56.17
559.31	32.77
559.47	98.30
559.64	51.49
559.80	77.24
559.97	72.56
560.13	70.22
560.30	23.41
560.46	74.90
560.63	49.15
560.79	0.00
560.96	35.11
561.12	53.83
561.29	0.00
561.45	7.02
561.61	84.26
561.78	93.62
561.94	28.09
562.11	84.26
562.27	65.54
562.44	70.22
562.60	46.81
562.77	67.88
562.93	30.43
563.10	79.58
563.26	117.03
563.42	100.64
563.59	30.43
563.75	2.34
563.92	23.41
564.08	0.00
564.24	11.70
564.41	25.75
564.57	72.56
564.74	42.13
564.90	70.22
565.07	93.62
565.23	18.72
565.39	51.49
565.56	28.09
565.72	49.15
565.88	2.34
566.05	9.36
566.21	25.75
566.38	14.04
566.54	11.70
566.70	74.90
566.87	0.00
567.03	0.00
567.19	44.47
567.36	105.32
567.52	30.43
567.68	37.45
567.85	0.00
568.01	11.70
568.17	18.72
568.34	56.17
568.50	86.60
568.66	67.88
568.83	58.51
568.99	32.77
569.15	28.09
569.32	112.35
569.48	67.88
569.64	7.02
569.81	86.60
569.97	0.00
570.13	14.04
570.30	0.00
570.46	152.13
570.62	30.43
570.78	56.17
570.95	0.00
571.11	0.00
571.27	42.13
571.43	67.88
571.60	0.00
571.76	9.36
571.92	65.54
572.09	44.47
572.25	0.00
572.41	39.79
572.57	0.00
572.74	53.83
572.90	145.11
573.06	18.72
573.22	18.72
573.38	56.17
573.55	65.54
573.71	30.43
573.87	65.54
574.03	14.04
574.20	30.43
574.36	35.11
574.52	18.72
574.68	37.45
574.84	81.92
575.01	60.85
575.17	18.72
575.33	7.02
575.49	49.15
575.65	86.60
575.82	49.15
575.98	25.75
576.14	39.79
576.30	0.00
576.46	0.00
576.62	0.00
576.79	35.11
576.95	72.56
577.11	58.51
577.27	56.17
577.43	93.62
577.59	95.96
577.75	70.22
577.92	37.45
578.08	25.75
578.24	0.00
578.40	107.66
578.56	37.45
578.72	86.60
578.88	88.94
579.04	0.00
579.21	140.43
579.37	49.15
579.53	0.00
579.69	56.17
579.85	65.54
580.01	4.68
580.17	0.00
580.33	70.22
580.49	35.11
580.65	28.09
580.82	30.43
580.98	25.75
581.14	32.77
581.30	39.79
581.46	58.51
581.62	37.45
581.78	32.77
581.94	18.72
582.10	46.81
582.26	51.49
582.42	0.00
582.58	0.00
582.74	0.00
582.90	0.00
583.06	46.81
583.22	23.41
583.38	2.34
583.54	7.02
583.70	37.45
583.86	56.17
584.02	0.00
584.18	84.26
584.34	79.58
584.50	23.41
584.66	510.24
584.82	1203.04
584.98	1750.72
585.14	1467.52
585.30	1022.81
585.46	641.31
585.62	416.62
585.78	250.44
585.94	161.50
586.10	114.69
586.26	18.72
586.42	100.64
586.58	74.90
586.74	86.60
586.90	0.00
587.06	0.00
587.22	81.92
587.38	67.88
587.54	133.41
587.70	168.52
587.86	84.26
588.02	215.33
588.18	194.26
588.34	117.03
588.49	58.51
588.65	72.56
588.81	79.58
588.97	81.92
589.13	32.77
589.29	51.49
589.45	39.79
589.61	37.45
589.77	25.75
589.93	102.98
590.08	98.30
590.24	0.00
590.40	42.13
590.56	30.43
590.72	51.49
590.88	49.15
591.04	0.00
591.20	18.72
591.35	0.00
591.51	74.90
591.67	42.13
591.83	0.00
591.99	74.90
592.15	4.68
592.31	11.70
592.46	7.02
592.62	74.90
592.78	49.15
592.94	28.09
593.10	53.83
593.26	0.00
593.41	28.09
593.57	49.15
593.73	0.00
593.89	84.26
594.05	163.84
594.20	318.31
594.36	276.18
594.52	145.11
594.68	149.79
594.84	70.22
594.99	100.64
595.15	42.13
595.31	14.04
595.47	93.62
595.62	98.30
595.78	70.22
595.94	4.68
596.10	51.49
596.25	70.22
596.41	77.24
596.57	114.69
596.73	14.04
596.88	0.00
597.04	100.64
597.20	98.30
597.36	88.94
597.51	107.66
597.67	42.13
597.83	79.58
597.99	44.47
598.14	53.83
598.30	79.58
598.46	65.54
598.61	0.00
598.77	18.72
598.93	0.00
599.09	4.68
599.24	100.64
599.40	11.70
599.56	46.81
599.71	77.24
599.87	56.17
600.03	32.77
600.18	53.83
600.34	0.00
600.50	0.00
600.65	2.34
600.81	42.13
600.97	2.34
601.12	0.00
601.28	35.11
601.44	93.62
601.59	0.00
601.75	9.36
601.91	56.17
602.06	30.43
602.22	32.77
602.37	0.00
602.53	9.36
602.69	60.85
602.84	60.85
603.00	86.60
603.16	100.64
603.31	14.04
603.47	28.09
603.62	49.15
603.78	131.07
603.94	81.92
604.09	44.47
604.25	28.09
604.40	60.85
604.56	35.11
604.71	58.51
604.87	84.26
605.03	98.30
605.18	25.75
605.34	16.38
605.49	65.54
605.65	32.77
605.80	77.24
605.96	4.68
606.12	7.02
606.27	49.15
606.43	44.47
606.58	72.56
606.74	107.66
606.89	112.35
607.05	170.86
607.20	259.80
607.36	170.86
607.51	98.30
607.67	124.05
607.82	53.83
607.98	14.04
608.13	21.06
608.29	49.15
608.44	67.88
608.60	0.00
608.75	60.85
608.91	70.22
609.06	159.16
609.22	294.91
609.37	341.72
609.53	341.72
609.68	234.05
609.84	248.10
609.99	135.75
610.15	100.64
610.30	67.88
610.46	84.26
610.61	32.77
610.76	7.02
610.92	25.75
611.07	53.83
611.23	0.00
611.38	56.17
611.54	0.00
611.69	0.00
611.84	37.45
612.00	42.13
612.15	42.13
612.31	46.81
612.46	39.79
612.62	72.56
612.77	88.94
612.92	23.41
613.08	25.75
613.23	56.17
613.39	28.09
613.54	21.06
613.69	126.39
613.85	369.80
614.00	524.28
614.15	528.96
614.31	339.38
614.46	367.46
614.62	175.54
614.77	194.26
614.92	21.06
615.08	53.83
615.23	72.56
615.38	46.81
615.54	53.83
615.69	42.13
615.84	53.83
616.00	175.54
616.15	131.07
616.30	212.99
616.46	102.98
616.61	86.60
616.76	187.24
616.92	67.88
617.07	25.75
617.22	79.58
617.37	46.81
617.53	0.00
617.68	0.00
617.83	49.15
617.99	58.51
618.14	65.54
618.29	51.49
618.45	30.43
618.60	0.00
618.75	35.11
618.90	0.00
619.06	46.81
619.21	44.47
619.36	7.02
619.51	28.09
619.67	4.68
619.82	32.77
619.97	0.00
620.12	39.79
620.28	30.43
620.43	37.45
620.58	11.70
620.73	51.49
620.89	16.38
621.04	0.00
621.19	86.60
621.34	175.54
621.49	91.28
621.65	105.32
621.80	72.56
621.95	39.79
622.10	32.77
622.25	18.72
622.41	0.00
622.56	21.06
622.71	65.54
622.86	0.00
623.01	53.83
623.16	44.47
623.32	7.02
623.47	0.00
623.62	14.04
623.77	53.83
623.92	0.00
624.07	23.41
624.23	0.00
624.38	37.45
624.53	28.09
624.68	21.06
624.83	44.47
624.98	63.19
625.13	0.00
625.29	14.04
625.44	0.00
625.59	39.79
625.74	70.22
625.89	46.81
626.04	42.13
626.19	196.60
626.34	285.55
626.49	280.86
626.65	269.16
626.80	145.11
626.95	77.24
627.10	77.24
627.25	105.32
627.40	18.72
627.55	74.90
627.70	77.24
627.85	53.83
628.00	0.00
628.15	2.34
628.30	0.00
628.45	70.22
628.60	11.70
628.76	25.75
628.91	72.56
629.06	67.88
629.21	16.38
629.36	0.00
629.51	0.00
629.66	9.36
629.81	4.68
629.96	79.58
630.11	110.01
630.26	77.24
630.41	42.13
630.56	107.66
630.71	39.79
630.86	58.51
631.01	124.05
631.16	39.79
631.31	11.70
631.46	11.70
631.61	2.34
631.76	88.94
631.91	14.04
632.06	88.94
632.21	74.90
632.36	70.22
632.51	53.83
632.66	63.19
632.81	88.94
632.96	98.30
633.10	102.98
633.25	154.48
633.40	205.97
633.55	152.13
633.70	81.92
633.85	56.17
634.00	44.47
634.15	14.04
634.30	4.68
634.45	25.75
634.60	32.77
634.75	32.77
634.90	23.41
635.05	32.77
635.19	42.13
635.34	63.19
635.49	0.00
635.64	14.04
635.79	72.56
635.94	46.81
636.09	0.00
636.24	114.69
636.39	25.75
636.53	4.68
636.68	16.38
636.83	0.00
636.98	79.58
637.13	25.75
637.28	63.19
637.43	72.56
637.57	121.71
637.72	65.54
637.87	264.48
638.02	315.97
638.17	369.80
638.32	337.04
638.46	170.86
638.61	131.07
638.76	77.24
638.91	100.64
639.06	49.15
639.20	86.60
639.35	14.04
639.50	39.79
639.65	147.45
639.80	304.27
639.94	482.15
640.09	620.24
640.24	383.85
640.39	318.31
640.54	241.08
640.68	84.26
640.83	58.51
640.98	18.72
641.13	14.04
641.27	37.45
641.42	65.54
641.57	37.45
641.72	35.11
641.86	28.09
642.01	107.66
642.16	49.15
642.31	126.39
642.45	0.00
642.60	56.17
642.75	53.83
642.90	16.38
643.04	58.51
643.19	0.00
643.34	16.38
643.48	32.77
643.63	7.02
643.78	0.00
643.93	140.43
644.07	46.81
644.22	58.51
644.37	58.51
644.51	49.15
644.66	0.00
644.81	7.02
644.95	32.77
645.10	72.56
645.25	0.00
645.39	44.47
645.54	4.68
645.69	124.05
645.83	18.72
645.98	23.41
646.13	14.04
646.27	65.54
646.42	4.68
646.57	58.51
646.71	0.00
646.86	7.02
647.00	58.51
647.15	58.51
647.30	16.38
647.44	0.00
647.59	11.70
647.74	44.47
647.88	16.38
648.03	4.68
648.17	37.45
648.32	0.00
648.47	0.00
648.61	65.54
648.76	138.09
648.90	39.79
649.05	49.15
649.20	128.73
649.34	16.38
649.49	0.00
649.63	67.88
649.78	56.17
649.92	56.17
650.07	88.94
650.21	149.79
650.36	262.14
650.51	351.08
650.65	210.65
650.80	187.24
650.94	121.71
651.09	53.83
651.23	37.45
651.38	74.90
651.52	14.04
651.67	53.83
651.81	25.75
651.96	72.56
652.10	28.09
652.25	58.51
652.39	51.49
652.54	16.38
652.68	42.13
652.83	0.00
652.97	131.07
653.12	133.41
653.26	131.07
653.41	35.11
653.55	60.85
653.70	32.77
653.84	51.49
653.99	28.09
654.13	14.04
654.27	88.94
654.42	35.11
654.56	25.75
654.71	42.13
654.85	51.49
655.00	60.85
655.14	98.30
655.29	0.00
655.43	0.00
655.57	23.41
655.72	58.51
655.86	98.30
656.01	100.64
656.15	14.04
656.30	60.85
656.44	65.54
656.58	39.79
656.73	0.00
656.87	9.36
657.01	4.68
657.16	18.72
657.30	60.85
657.45	16.38
657.59	32.77
657.73	72.56
657.88	16.38
658.02	9.36
658.16	39.79
658.31	0.00
658.45	25.75
658.60	74.90
658.74	16.38
658.88	0.00
659.03	4.68
659.17	7.02
659.31	56.17
659.46	121.71
659.60	128.73
659.74	154.48
659.89	86.60
660.03	32.77
660.17	128.73
660.32	105.32
660.46	86.60
660.60	0.00
660.74	7.02
660.89	84.26
661.03	79.58
661.17	0.00
661.32	67.88
661.46	0.00
661.60	42.13
661.74	0.00
661.89	0.00
662.03	0.00
662.17	0.00
662.31	28.09
662.46	0.00
662.60	0.00
662.74	30.43
662.88	95.96
663.03	44.47
663.17	11.70
663.31	0.00
663.45	81.92
663.60	23.41
663.74	14.04
663.88	0.00
664.02	25.75
664.17	72.56
664.31	53.83
664.45	0.00
664.59	0.00
664.73	0.00
664.88	58.51
665.02	0.00
665.16	28.09
665.30	35.11
665.44	25.75
665.59	2.34
665.73	18.72
665.87	51.49
666.01	25.75
666.15	0.00
666.29	53.83
666.44	72.56
666.58	100.64
666.72	100.64
666.86	39.79
667.00	77.24
667.14	30.43
667.28	63.19
667.43	126.39
667.57	189.58
667.71	332.36
667.85	313.63
667.99	163.84
668.13	168.52
668.27	32.77
668.41	53.83
668.56	32.77
668.70	53.83
668.84	30.43
668.98	95.96
669.12	35.11
669.26	77.24
669.40	72.56
669.54	18.72
669.68	60.85
669.82	63.19
669.96	86.60
670.10	39.79
670.25	39.79
670.39	11.70
670.53	28.09
670.67	53.83
670.81	30.43
670.95	35.11
671.09	65.54
671.23	70.22
671.37	159.16
671.51	163.84
671.65	201.29
671.79	173.20
671.93	86.60
672.07	67.88
672.21	16.38
672.35	0.00
672.49	67.88
672.63	46.81
672.77	30.43
672.91	0.00
673.05	77.24
673.19	0.00
673.33	14.04
673.47	72.56
673.61	32.77
673.75	65.54
673.89	0.00
674.03	32.77
674.17	23.41
674.31	105.32
674.45	30.43
674.59	70.22
674.73	7.02
674.87	79.58
675.01	14.04
675.15	25.75
675.29	79.58
675.43	0.00
675.56	21.06
675.70	18.72
675.84	0.00
675.98	58.51
676.12	60.85
676.26	74.90
676.40	32.77
676.54	28.09
676.68	67.88
676.82	0.00
676.96	30.43
677.10	18.72
677.23	0.00
677.37	0.00
677.51	60.85
677.65	70.22
677.79	58.51
677.93	51.49
678.07	95.96
678.21	2.34
678.34	93.62
678.48	32.77
678.62	39.79
678.76	4.68
678.90	37.45
679.04	42.13
679.18	0.00
679.31	56.17
679.45	18.72
679.59	67.88
679.73	23.41
679.87	102.98
680.00	74.90
680.14	25.75
680.28	16.38
680.42	65.54
680.56	42.13
680.70	37.45
680.83	77.24
680.97	7.02
681.11	21.06
681.25	25.75
681.39	0.00
681.52	0.00
681.66	102.98
681.80	44.47
681.94	0.00
682.07	21.06
682.21	0.00
682.35	0.00
682.49	81.92
682.62	9.36
682.76	23.41
682.90	18.72
683.04	25.75
683.17	98.30
683.31	18.72
683.45	0.00
683.59	0.00
683.72	93.62
683.86	14.04
684.00	2.34
684.13	105.32
684.27	14.04
684.41	18.72
684.55	51.49
684.68	28.09
684.82	0.00
684.96	117.03
685.09	18.72
685.23	81.92
685.37	0.00
685.50	16.38
685.64	56.17
685.78	0.00
685.91	23.41
686.05	56.17
686.19	88.94
686.32	18.72
686.46	23.41
686.60	23.41
686.73	0.00
686.87	81.92
687.01	93.62
687.14	65.54
687.28	0.00
687.42	56.17
687.55	7.02
687.69	0.00
687.82	37.45
687.96	42.13
688.10	37.45
688.23	74.90
688.37	70.22
688.50	119.37
688.64	16.38
688.78	37.45
688.91	30.43
689.05	53.83
689.18	0.00
689.32	77.24
689.46	77.24
689.59	0.00
689.73	119.37
689.86	0.00
690.00	91.28
690.13	0.00
690.27	67.88
690.41	60.85
690.54	0.00
690.68	0.00
690.81	0.00
690.95	49.15
691.08	30.43
691.22	23.41
691.35	46.81
691.49	25.75
691.62	81.92
691.76	51.49
691.89	0.00
692.03	65.54
692.16	4.68
692.30	35.11
692.43	0.00
692.57	74.90
692.70	70.22
692.84	177.88
692.97	180.22
693.11	86.60
693.24	49.15
693.38	60.85
693.51	46.81
693.65	18.72
693.78	95.96
693.92	21.06
694.05	53.83
694.19	46.81
694.32	4.68
694.45	98.30
694.59	60.85
694.72	25.75
694.86	32.77
694.99	46.81
695.13	0.00
695.26	93.62
695.39	51.49
695.53	42.13
695.66	28.09
695.80	2.34
695.93	0.00
696.07	28.09
696.20	11.70
696.33	86.60
696.47	58.51
696.60	0.00
696.73	112.35
696.87	39.79
697.00	39.79
697.14	0.00
697.27	51.49
697.40	70.22
697.54	7.02
697.67	35.11
697.80	0.00
697.94	0.00
698.07	0.00
698.21	35.11
698.34	46.81
698.47	21.06
698.61	70.22
698.74	60.85
698.87	0.00
699.01	0.00
699.14	88.94
699.27	49.15
699.40	119.37
699.54	53.83
699.67	0.00
699.80	88.94
699.94	0.00
700.07	25.75
700.20	18.72
700.34	4.68
700.47	35.11
700.60	0.00
700.73	35.11
700.87	67.88
701.00	0.00
701.13	2.34
701.26	37.45
701.40	88.94
701.53	60.85
701.66	37.45
701.79	21.06
701.93	95.96
702.06	35.11
702.19	2.34
702.32	18.72
702.46	7.02
702.59	65.54
702.72	67.88
702.85	126.39
702.99	236.39
703.12	194.26
703.25	262.14
703.38	231.71
703.51	114.69
703.65	156.82
703.78	95.96
703.91	23.41
704.04	77.24
704.17	49.15
704.31	0.00
704.44	9.36
704.57	14.04
704.70	42.13
704.83	32.77
704.96	32.77
705.10	14.04
705.23	32.77
>>>>>End Processed Spectral Data<<<<<
