SpectraSuite Data File
++++++++++++++++++++++++++++++++++++
Date: Fri Oct 04 12:13:43 GMT-05:00 2013
User: price-jones
Dark Spectrum Present: No
Reference Spectrum Present: No
Number of Sampled Component Spectra: 1
Spectrometers: USB2+H05261
Integration Time (usec): 10000 (USB2+H05261)
Spectra Averaged: 1 (USB2+H05261)
Boxcar Smoothing: 0 (USB2+H05261)
Correct for Electrical Dark: No (USB2+H05261)
Strobe/Lamp Enabled: No (USB2+H05261)
Correct for Detector Non-linearity: No (USB2+H05261)
Correct for Stray Light: No (USB2+H05261)
Number of Pixels in Processed Spectrum: 2048
>>>>>Begin Processed Spectral Data<<<<<
365.73	0.00
365.92	0.00
366.12	0.00
366.32	0.00
366.52	0.00
366.72	0.00
366.91	0.00
367.11	0.00
367.31	0.00
367.51	0.00
367.70	0.00
367.90	0.00
368.10	0.00
368.30	0.00
368.49	0.00
368.69	0.00
368.89	0.00
369.09	0.00
369.28	0.00
369.48	0.00
369.68	0.00
369.87	0.00
370.07	0.00
370.27	0.00
370.47	0.00
370.66	0.00
370.86	0.00
371.06	0.00
371.25	21.06
371.45	23.41
371.65	0.00
371.84	0.00
372.04	0.00
372.24	4.68
372.44	0.00
372.63	0.00
372.83	42.13
373.03	7.02
373.22	0.00
373.42	0.00
373.62	53.83
373.81	0.00
374.01	0.00
374.21	65.54
374.40	35.11
374.60	39.79
374.79	60.85
374.99	4.68
375.19	0.00
375.38	93.62
375.58	86.60
375.78	14.04
375.97	44.47
376.17	56.17
376.37	39.79
376.56	102.98
376.76	32.77
376.95	147.45
377.15	35.11
377.35	46.81
377.54	25.75
377.74	32.77
377.93	49.15
378.13	49.15
378.33	7.02
378.52	63.19
378.72	0.00
378.91	14.04
379.11	0.00
379.31	30.43
379.50	21.06
379.70	110.01
379.89	42.13
380.09	25.75
380.28	2.34
380.48	74.90
380.68	0.00
380.87	49.15
381.07	23.41
381.26	25.75
381.46	18.72
381.65	30.43
381.85	9.36
382.04	0.00
382.24	25.75
382.43	0.00
382.63	56.17
382.83	2.34
383.02	46.81
383.22	21.06
383.41	18.72
383.61	9.36
383.80	4.68
384.00	18.72
384.19	0.00
384.39	72.56
384.58	53.83
384.78	0.00
384.97	0.00
385.17	0.00
385.36	23.41
385.56	39.79
385.75	0.00
385.95	30.43
386.14	0.00
386.34	39.79
386.53	0.00
386.72	32.77
386.92	0.00
387.11	44.47
387.31	53.83
387.50	32.77
387.70	86.60
387.89	0.00
388.09	49.15
388.28	67.88
388.48	49.15
388.67	16.38
388.86	70.22
389.06	18.72
389.25	37.45
389.45	79.58
389.64	0.00
389.84	32.77
390.03	72.56
390.22	0.00
390.42	25.75
390.61	46.81
390.81	0.00
391.00	42.13
391.19	0.00
391.39	4.68
391.58	11.70
391.78	4.68
391.97	0.00
392.16	81.92
392.36	114.69
392.55	60.85
392.75	56.17
392.94	35.11
393.13	58.51
393.33	4.68
393.52	2.34
393.71	30.43
393.91	0.00
394.10	23.41
394.29	51.49
394.49	11.70
394.68	72.56
394.88	0.00
395.07	84.26
395.26	4.68
395.46	25.75
395.65	72.56
395.84	42.13
396.04	117.03
396.23	0.00
396.42	4.68
396.62	37.45
396.81	23.41
397.00	0.00
397.19	37.45
397.39	133.41
397.58	44.47
397.77	81.92
397.97	84.26
398.16	0.00
398.35	30.43
398.55	65.54
398.74	16.38
398.93	7.02
399.12	93.62
399.32	7.02
399.51	56.17
399.70	14.04
399.90	35.11
400.09	4.68
400.28	86.60
400.47	0.00
400.67	77.24
400.86	14.04
401.05	70.22
401.24	72.56
401.44	16.38
401.63	14.04
401.82	44.47
402.01	77.24
402.21	65.54
402.40	74.90
402.59	16.38
402.78	0.00
402.97	56.17
403.17	0.00
403.36	32.77
403.55	0.00
403.74	18.72
403.93	0.00
404.13	0.00
404.32	37.45
404.51	72.56
404.70	67.88
404.89	0.00
405.09	119.37
405.28	35.11
405.47	21.06
405.66	49.15
405.85	0.00
406.05	100.64
406.24	39.79
406.43	28.09
406.62	42.13
406.81	121.71
407.00	63.19
407.20	72.56
407.39	0.00
407.58	0.00
407.77	21.06
407.96	30.43
408.15	74.90
408.34	77.24
408.54	44.47
408.73	95.96
408.92	77.24
409.11	74.90
409.30	77.24
409.49	39.79
409.68	25.75
409.87	21.06
410.07	35.11
410.26	25.75
410.45	11.70
410.64	2.34
410.83	58.51
411.02	105.32
411.21	95.96
411.40	0.00
411.59	0.00
411.78	0.00
411.98	58.51
412.17	51.49
412.36	39.79
412.55	84.26
412.74	72.56
412.93	14.04
413.12	56.17
413.31	30.43
413.50	0.00
413.69	32.77
413.88	53.83
414.07	56.17
414.26	23.41
414.45	56.17
414.64	100.64
414.83	35.11
415.02	60.85
415.22	51.49
415.41	32.77
415.60	65.54
415.79	21.06
415.98	117.03
416.17	60.85
416.36	77.24
416.55	93.62
416.74	23.41
416.93	46.81
417.12	42.13
417.31	60.85
417.50	86.60
417.69	88.94
417.88	98.30
418.07	30.43
418.26	84.26
418.45	25.75
418.64	46.81
418.83	14.04
419.02	95.96
419.21	161.50
419.39	0.00
419.58	0.00
419.77	53.83
419.96	91.28
420.15	35.11
420.34	42.13
420.53	98.30
420.72	72.56
420.91	2.34
421.10	0.00
421.29	65.54
421.48	110.01
421.67	16.38
421.86	126.39
422.05	51.49
422.24	32.77
422.43	39.79
422.61	53.83
422.80	117.03
422.99	100.64
423.18	32.77
423.37	42.13
423.56	126.39
423.75	119.37
423.94	42.13
424.13	23.41
424.32	28.09
424.50	60.85
424.69	51.49
424.88	9.36
425.07	16.38
425.26	86.60
425.45	53.83
425.64	114.69
425.83	49.15
426.01	112.35
426.20	93.62
426.39	37.45
426.58	28.09
426.77	63.19
426.96	77.24
427.15	117.03
427.33	72.56
427.52	117.03
427.71	44.47
427.90	107.66
428.09	84.26
428.28	105.32
428.46	58.51
428.65	39.79
428.84	32.77
429.03	51.49
429.22	9.36
429.40	14.04
429.59	77.24
429.78	74.90
429.97	58.51
430.16	18.72
430.34	42.13
430.53	121.71
430.72	126.39
430.91	37.45
431.10	74.90
431.28	51.49
431.47	0.00
431.66	4.68
431.85	70.22
432.03	44.47
432.22	51.49
432.41	25.75
432.60	21.06
432.79	21.06
432.97	102.98
433.16	58.51
433.35	37.45
433.54	72.56
433.72	2.34
433.91	44.47
434.10	37.45
434.28	35.11
434.47	30.43
434.66	7.02
434.85	32.77
435.03	112.35
435.22	39.79
435.41	53.83
435.59	63.19
435.78	49.15
435.97	39.79
436.16	14.04
436.34	49.15
436.53	28.09
436.72	39.79
436.90	114.69
437.09	56.17
437.28	42.13
437.46	37.45
437.65	46.81
437.84	51.49
438.02	58.51
438.21	119.37
438.40	70.22
438.58	11.70
438.77	7.02
438.96	77.24
439.14	110.01
439.33	72.56
439.52	0.00
439.70	100.64
439.89	72.56
440.08	56.17
440.26	25.75
440.45	39.79
440.63	98.30
440.82	32.77
441.01	74.90
441.19	56.17
441.38	84.26
441.57	63.19
441.75	67.88
441.94	84.26
442.12	100.64
442.31	100.64
442.50	117.03
442.68	107.66
442.87	56.17
443.05	65.54
443.24	119.37
443.43	30.43
443.61	91.28
443.80	110.01
443.98	88.94
444.17	86.60
444.35	86.60
444.54	30.43
444.73	84.26
444.91	58.51
445.10	42.13
445.28	110.01
445.47	98.30
445.65	28.09
445.84	49.15
446.02	95.96
446.21	60.85
446.39	110.01
446.58	49.15
446.77	79.58
446.95	91.28
447.14	102.98
447.32	72.56
447.51	49.15
447.69	77.24
447.88	79.58
448.06	74.90
448.25	84.26
448.43	112.35
448.62	119.37
448.80	60.85
448.99	58.51
449.17	74.90
449.36	95.96
449.54	16.38
449.73	51.49
449.91	0.00
450.10	102.98
450.28	63.19
450.46	74.90
450.65	117.03
450.83	100.64
451.02	77.24
451.20	49.15
451.39	16.38
451.57	119.37
451.76	72.56
451.94	135.75
452.13	53.83
452.31	131.07
452.49	156.82
452.68	49.15
452.86	166.18
453.05	93.62
453.23	58.51
453.42	145.11
453.60	86.60
453.78	42.13
453.97	149.79
454.15	79.58
454.34	21.06
454.52	42.13
454.70	91.28
454.89	44.47
455.07	77.24
455.26	86.60
455.44	51.49
455.62	63.19
455.81	91.28
455.99	102.98
456.17	18.72
456.36	88.94
456.54	60.85
456.73	49.15
456.91	58.51
457.09	56.17
457.28	53.83
457.46	114.69
457.64	112.35
457.83	44.47
458.01	67.88
458.19	88.94
458.38	60.85
458.56	84.26
458.74	42.13
458.93	84.26
459.11	9.36
459.29	79.58
459.48	39.79
459.66	107.66
459.84	95.96
460.03	93.62
460.21	77.24
460.39	42.13
460.57	16.38
460.76	53.83
460.94	102.98
461.12	65.54
461.31	135.75
461.49	86.60
461.67	102.98
461.85	74.90
462.04	98.30
462.22	175.54
462.40	70.22
462.59	74.90
462.77	107.66
462.95	84.26
463.13	84.26
463.32	93.62
463.50	93.62
463.68	91.28
463.86	28.09
464.05	74.90
464.23	124.05
464.41	58.51
464.59	84.26
464.78	70.22
464.96	49.15
465.14	79.58
465.32	30.43
465.50	93.62
465.69	70.22
465.87	60.85
466.05	117.03
466.23	74.90
466.41	124.05
466.60	72.56
466.78	114.69
466.96	46.81
467.14	79.58
467.32	105.32
467.51	203.63
467.69	91.28
467.87	56.17
468.05	42.13
468.23	60.85
468.41	124.05
468.60	7.02
468.78	16.38
468.96	142.77
469.14	102.98
469.32	84.26
469.50	56.17
469.69	46.81
469.87	70.22
470.05	86.60
470.23	124.05
470.41	70.22
470.59	58.51
470.77	25.75
470.95	84.26
471.14	35.11
471.32	112.35
471.50	67.88
471.68	91.28
471.86	51.49
472.04	49.15
472.22	133.41
472.40	88.94
472.58	131.07
472.77	67.88
472.95	7.02
473.13	81.92
473.31	86.60
473.49	42.13
473.67	107.66
473.85	51.49
474.03	98.30
474.21	23.41
474.39	65.54
474.57	145.11
474.75	128.73
474.93	65.54
475.12	100.64
475.30	88.94
475.48	37.45
475.66	86.60
475.84	177.88
476.02	0.00
476.20	112.35
476.38	42.13
476.56	117.03
476.74	114.69
476.92	88.94
477.10	128.73
477.28	77.24
477.46	72.56
477.64	91.28
477.82	91.28
478.00	70.22
478.18	67.88
478.36	42.13
478.54	25.75
478.72	65.54
478.90	0.00
479.08	114.69
479.26	138.09
479.44	70.22
479.62	142.77
479.80	107.66
479.98	135.75
480.16	114.69
480.34	114.69
480.52	81.92
480.70	105.32
480.88	119.37
481.06	91.28
481.24	60.85
481.41	49.15
481.59	117.03
481.77	140.43
481.95	77.24
482.13	98.30
482.31	86.60
482.49	42.13
482.67	81.92
482.85	16.38
483.03	35.11
483.21	110.01
483.39	67.88
483.57	131.07
483.74	74.90
483.92	56.17
484.10	0.00
484.28	42.13
484.46	44.47
484.64	72.56
484.82	32.77
485.00	67.88
485.18	102.98
485.35	30.43
485.53	114.69
485.71	51.49
485.89	84.26
486.07	65.54
486.25	74.90
486.43	98.30
486.61	25.75
486.78	84.26
486.96	58.51
487.14	102.98
487.32	79.58
487.50	67.88
487.68	53.83
487.85	110.01
488.03	74.90
488.21	131.07
488.39	42.13
488.57	140.43
488.75	182.56
488.92	81.92
489.10	74.90
489.28	128.73
489.46	135.75
489.64	100.64
489.81	39.79
489.99	147.45
490.17	67.88
490.35	110.01
490.53	140.43
490.70	156.82
490.88	28.09
491.06	93.62
491.24	117.03
491.41	117.03
491.59	93.62
491.77	0.00
491.95	77.24
492.13	95.96
492.30	121.71
492.48	72.56
492.66	198.95
492.84	84.26
493.01	114.69
493.19	88.94
493.37	65.54
493.54	102.98
493.72	133.41
493.90	117.03
494.08	77.24
494.25	138.09
494.43	70.22
494.61	0.00
494.79	72.56
494.96	98.30
495.14	121.71
495.32	72.56
495.49	60.85
495.67	145.11
495.85	77.24
496.02	105.32
496.20	128.73
496.38	2.34
496.55	91.28
496.73	140.43
496.91	126.39
497.09	119.37
497.26	159.16
497.44	79.58
497.62	182.56
497.79	107.66
497.97	74.90
498.14	128.73
498.32	110.01
498.50	79.58
498.67	11.70
498.85	100.64
499.03	46.81
499.20	170.86
499.38	131.07
499.56	142.77
499.73	51.49
499.91	86.60
500.08	133.41
500.26	84.26
500.44	166.18
500.61	131.07
500.79	56.17
500.97	105.32
501.14	105.32
501.32	70.22
501.49	91.28
501.67	98.30
501.84	168.52
502.02	42.13
502.20	88.94
502.37	93.62
502.55	128.73
502.72	86.60
502.90	135.75
503.07	86.60
503.25	112.35
503.43	117.03
503.60	74.90
503.78	88.94
503.95	44.47
504.13	42.13
504.30	117.03
504.48	168.52
504.65	128.73
504.83	65.54
505.01	170.86
505.18	91.28
505.36	198.95
505.53	131.07
505.71	128.73
505.88	145.11
506.06	168.52
506.23	65.54
506.41	152.13
506.58	67.88
506.76	114.69
506.93	110.01
507.11	58.51
507.28	105.32
507.46	147.45
507.63	133.41
507.81	84.26
507.98	51.49
508.16	25.75
508.33	126.39
508.50	100.64
508.68	100.64
508.85	189.58
509.03	72.56
509.20	142.77
509.38	128.73
509.55	74.90
509.73	154.48
509.90	194.26
510.08	112.35
510.25	74.90
510.42	98.30
510.60	107.66
510.77	72.56
510.95	79.58
511.12	65.54
511.30	91.28
511.47	128.73
511.64	156.82
511.82	42.13
511.99	56.17
512.17	7.02
512.34	42.13
512.51	107.66
512.69	53.83
512.86	84.26
513.04	56.17
513.21	95.96
513.38	166.18
513.56	114.69
513.73	147.45
513.90	77.24
514.08	102.98
514.25	173.20
514.43	105.32
514.60	131.07
514.77	133.41
514.95	117.03
515.12	51.49
515.29	133.41
515.47	65.54
515.64	100.64
515.81	173.20
515.99	88.94
516.16	81.92
516.33	110.01
516.51	88.94
516.68	60.85
516.85	105.32
517.03	105.32
517.20	131.07
517.37	124.05
517.54	74.90
517.72	67.88
517.89	35.11
518.06	67.88
518.24	25.75
518.41	81.92
518.58	84.26
518.75	91.28
518.93	93.62
519.10	187.24
519.27	100.64
519.45	93.62
519.62	126.39
519.79	42.13
519.96	138.09
520.14	77.24
520.31	88.94
520.48	58.51
520.65	105.32
520.83	173.20
521.00	182.56
521.17	121.71
521.34	135.75
521.52	156.82
521.69	138.09
521.86	93.62
522.03	84.26
522.20	79.58
522.38	121.71
522.55	81.92
522.72	156.82
522.89	133.41
523.07	124.05
523.24	102.98
523.41	107.66
523.58	102.98
523.75	168.52
523.92	107.66
524.10	112.35
524.27	156.82
524.44	128.73
524.61	74.90
524.78	126.39
524.96	21.06
525.13	128.73
525.30	100.64
525.47	147.45
525.64	102.98
525.81	70.22
525.98	194.26
526.16	140.43
526.33	105.32
526.50	152.13
526.67	98.30
526.84	88.94
527.01	32.77
527.18	98.30
527.36	98.30
527.53	88.94
527.70	81.92
527.87	114.69
528.04	93.62
528.21	149.79
528.38	187.24
528.55	79.58
528.72	110.01
528.89	53.83
529.07	74.90
529.24	100.64
529.41	117.03
529.58	110.01
529.75	154.48
529.92	114.69
530.09	107.66
530.26	159.16
530.43	145.11
530.60	105.32
530.77	126.39
530.94	58.51
531.11	152.13
531.28	102.98
531.46	140.43
531.63	112.35
531.80	117.03
531.97	88.94
532.14	42.13
532.31	175.54
532.48	133.41
532.65	138.09
532.82	112.35
532.99	117.03
533.16	135.75
533.33	98.30
533.50	173.20
533.67	95.96
533.84	72.56
534.01	77.24
534.18	114.69
534.35	56.17
534.52	84.26
534.69	93.62
534.86	63.19
535.03	53.83
535.20	53.83
535.37	133.41
535.54	163.84
535.71	128.73
535.88	98.30
536.05	93.62
536.22	198.95
536.38	121.71
536.55	131.07
536.72	60.85
536.89	93.62
537.06	170.86
537.23	91.28
537.40	173.20
537.57	121.71
537.74	159.16
537.91	168.52
538.08	84.26
538.25	117.03
538.42	95.96
538.59	121.71
538.75	117.03
538.92	124.05
539.09	133.41
539.26	46.81
539.43	114.69
539.60	81.92
539.77	147.45
539.94	135.75
540.11	39.79
540.28	81.92
540.44	79.58
540.61	112.35
540.78	168.52
540.95	102.98
541.12	105.32
541.29	86.60
541.46	203.63
541.62	79.58
541.79	95.96
541.96	154.48
542.13	140.43
542.30	18.72
542.47	51.49
542.63	119.37
542.80	49.15
542.97	95.96
543.14	142.77
543.31	72.56
543.48	74.90
543.64	88.94
543.81	67.88
543.98	152.13
544.15	163.84
544.32	131.07
544.48	119.37
544.65	121.71
544.82	79.58
544.99	117.03
545.16	35.11
545.32	175.54
545.49	98.30
545.66	100.64
545.83	74.90
546.00	124.05
546.16	142.77
546.33	53.83
546.50	35.11
546.67	56.17
546.83	91.28
547.00	124.05
547.17	173.20
547.34	63.19
547.50	39.79
547.67	86.60
547.84	93.62
548.00	32.77
548.17	0.00
548.34	49.15
548.51	124.05
548.67	152.13
548.84	124.05
549.01	98.30
549.18	140.43
549.34	149.79
549.51	131.07
549.68	102.98
549.84	140.43
550.01	128.73
550.18	86.60
550.34	142.77
550.51	121.71
550.68	133.41
550.84	81.92
551.01	84.26
551.18	53.83
551.34	170.86
551.51	121.71
551.68	112.35
551.84	84.26
552.01	88.94
552.18	49.15
552.34	93.62
552.51	145.11
552.68	88.94
552.84	72.56
553.01	135.75
553.18	163.84
553.34	79.58
553.51	77.24
553.67	208.31
553.84	212.99
554.01	105.32
554.17	131.07
554.34	91.28
554.51	191.92
554.67	39.79
554.84	152.13
555.00	194.26
555.17	140.43
555.33	128.73
555.50	107.66
555.67	105.32
555.83	74.90
556.00	70.22
556.16	147.45
556.33	133.41
556.50	152.13
556.66	65.54
556.83	72.56
556.99	110.01
557.16	114.69
557.32	95.96
557.49	77.24
557.65	154.48
557.82	100.64
557.98	152.13
558.15	105.32
558.32	67.88
558.48	131.07
558.65	84.26
558.81	35.11
558.98	84.26
559.14	46.81
559.31	91.28
559.47	142.77
559.64	121.71
559.80	131.07
559.97	126.39
560.13	117.03
560.30	114.69
560.46	72.56
560.63	114.69
560.79	138.09
560.96	98.30
561.12	138.09
561.29	168.52
561.45	121.71
561.61	156.82
561.78	77.24
561.94	42.13
562.11	77.24
562.27	117.03
562.44	121.71
562.60	102.98
562.77	86.60
562.93	70.22
563.10	32.77
563.26	88.94
563.42	49.15
563.59	194.26
563.75	156.82
563.92	126.39
564.08	140.43
564.24	95.96
564.41	135.75
564.57	86.60
564.74	182.56
564.90	147.45
565.07	86.60
565.23	154.48
565.39	65.54
565.56	72.56
565.72	98.30
565.88	114.69
566.05	117.03
566.21	159.16
566.38	107.66
566.54	131.07
566.70	135.75
566.87	93.62
567.03	100.64
567.19	84.26
567.36	149.79
567.52	88.94
567.68	119.37
567.85	91.28
568.01	128.73
568.17	105.32
568.34	112.35
568.50	131.07
568.66	124.05
568.83	128.73
568.99	131.07
569.15	107.66
569.32	161.50
569.48	58.51
569.64	107.66
569.81	93.62
569.97	128.73
570.13	163.84
570.30	65.54
570.46	107.66
570.62	98.30
570.78	102.98
570.95	63.19
571.11	173.20
571.27	98.30
571.43	102.98
571.60	91.28
571.76	142.77
571.92	18.72
572.09	67.88
572.25	95.96
572.41	46.81
572.57	81.92
572.74	208.31
572.90	86.60
573.06	133.41
573.22	145.11
573.38	175.54
573.55	2.34
573.71	39.79
573.87	166.18
574.03	16.38
574.20	110.01
574.36	128.73
574.52	56.17
574.68	0.00
574.84	60.85
575.01	91.28
575.17	117.03
575.33	86.60
575.49	117.03
575.65	93.62
575.82	117.03
575.98	98.30
576.14	44.47
576.30	95.96
576.46	72.56
576.62	84.26
576.79	84.26
576.95	128.73
577.11	107.66
577.27	56.17
577.43	128.73
577.59	63.19
577.75	72.56
577.92	100.64
578.08	138.09
578.24	107.66
578.40	110.01
578.56	79.58
578.72	16.38
578.88	0.00
579.04	56.17
579.21	107.66
579.37	100.64
579.53	95.96
579.69	182.56
579.85	124.05
580.01	112.35
580.17	11.70
580.33	37.45
580.49	53.83
580.65	84.26
580.82	128.73
580.98	100.64
581.14	86.60
581.30	98.30
581.46	84.26
581.62	39.79
581.78	175.54
581.94	131.07
582.10	91.28
582.26	140.43
582.42	102.98
582.58	93.62
582.74	117.03
582.90	140.43
583.06	105.32
583.22	86.60
583.38	60.85
583.54	149.79
583.70	117.03
583.86	124.05
584.02	175.54
584.18	86.60
584.34	107.66
584.50	53.83
584.66	63.19
584.82	145.11
584.98	119.37
585.14	56.17
585.30	126.39
585.46	119.37
585.62	147.45
585.78	93.62
585.94	84.26
586.10	114.69
586.26	25.75
586.42	70.22
586.58	58.51
586.74	102.98
586.90	74.90
587.06	46.81
587.22	149.79
587.38	159.16
587.54	93.62
587.70	142.77
587.86	138.09
588.02	124.05
588.18	70.22
588.34	63.19
588.49	88.94
588.65	72.56
588.81	95.96
588.97	58.51
589.13	95.96
589.29	131.07
589.45	91.28
589.61	86.60
589.77	56.17
589.93	149.79
590.08	56.17
590.24	28.09
590.40	110.01
590.56	88.94
590.72	74.90
590.88	100.64
591.04	0.00
591.20	74.90
591.35	119.37
591.51	110.01
591.67	79.58
591.83	112.35
591.99	25.75
592.15	84.26
592.31	119.37
592.46	56.17
592.62	124.05
592.78	77.24
592.94	77.24
593.10	72.56
593.26	65.54
593.41	107.66
593.57	86.60
593.73	98.30
593.89	126.39
594.05	156.82
594.20	77.24
594.36	93.62
594.52	98.30
594.68	74.90
594.84	131.07
594.99	42.13
595.15	154.48
595.31	81.92
595.47	32.77
595.62	102.98
595.78	145.11
595.94	42.13
596.10	42.13
596.25	135.75
596.41	117.03
596.57	102.98
596.73	105.32
596.88	72.56
597.04	152.13
597.20	133.41
597.36	18.72
597.51	114.69
597.67	70.22
597.83	30.43
597.99	70.22
598.14	124.05
598.30	53.83
598.46	74.90
598.61	126.39
598.77	77.24
598.93	21.06
599.09	51.49
599.24	93.62
599.40	88.94
599.56	159.16
599.71	112.35
599.87	88.94
600.03	44.47
600.18	58.51
600.34	98.30
600.50	152.13
600.65	25.75
600.81	98.30
600.97	88.94
601.12	53.83
601.28	74.90
601.44	126.39
601.59	159.16
601.75	95.96
601.91	100.64
602.06	168.52
602.22	25.75
602.37	79.58
602.53	67.88
602.69	170.86
602.84	161.50
603.00	121.71
603.16	93.62
603.31	67.88
603.47	65.54
603.62	72.56
603.78	112.35
603.94	67.88
604.09	70.22
604.25	49.15
604.40	67.88
604.56	60.85
604.71	0.00
604.87	53.83
605.03	81.92
605.18	100.64
605.34	140.43
605.49	70.22
605.65	117.03
605.80	81.92
605.96	152.13
606.12	60.85
606.27	91.28
606.43	121.71
606.58	81.92
606.74	114.69
606.89	56.17
607.05	51.49
607.20	95.96
607.36	7.02
607.51	149.79
607.67	51.49
607.82	67.88
607.98	86.60
608.13	79.58
608.29	128.73
608.44	105.32
608.60	72.56
608.75	98.30
608.91	65.54
609.06	67.88
609.22	58.51
609.37	173.20
609.53	77.24
609.68	98.30
609.84	95.96
609.99	28.09
610.15	91.28
610.30	93.62
610.46	91.28
610.61	88.94
610.76	154.48
610.92	42.13
611.07	102.98
611.23	91.28
611.38	93.62
611.54	0.00
611.69	58.51
611.84	70.22
612.00	56.17
612.15	65.54
612.31	159.16
612.46	133.41
612.62	100.64
612.77	105.32
612.92	46.81
613.08	135.75
613.23	56.17
613.39	65.54
613.54	91.28
613.69	0.00
613.85	74.90
614.00	77.24
614.15	138.09
614.31	117.03
614.46	119.37
614.62	95.96
614.77	114.69
614.92	74.90
615.08	159.16
615.23	98.30
615.38	98.30
615.54	86.60
615.69	39.79
615.84	74.90
616.00	100.64
616.15	91.28
616.30	32.77
616.46	14.04
616.61	93.62
616.76	152.13
616.92	46.81
617.07	60.85
617.22	46.81
617.37	86.60
617.53	98.30
617.68	51.49
617.83	56.17
617.99	42.13
618.14	67.88
618.29	70.22
618.45	63.19
618.60	95.96
618.75	67.88
618.90	77.24
619.06	86.60
619.21	81.92
619.36	60.85
619.51	161.50
619.67	67.88
619.82	30.43
619.97	7.02
620.12	0.00
620.28	49.15
620.43	110.01
620.58	28.09
620.73	18.72
620.89	65.54
621.04	77.24
621.19	102.98
621.34	14.04
621.49	81.92
621.65	39.79
621.80	131.07
621.95	81.92
622.10	105.32
622.25	42.13
622.41	58.51
622.56	53.83
622.71	163.84
622.86	53.83
623.01	51.49
623.16	107.66
623.32	18.72
623.47	63.19
623.62	70.22
623.77	65.54
623.92	39.79
624.07	60.85
624.23	114.69
624.38	65.54
624.53	110.01
624.68	67.88
624.83	53.83
624.98	77.24
625.13	117.03
625.29	49.15
625.44	77.24
625.59	72.56
625.74	39.79
625.89	112.35
626.04	11.70
626.19	93.62
626.34	88.94
626.49	84.26
626.65	105.32
626.80	91.28
626.95	77.24
627.10	100.64
627.25	23.41
627.40	49.15
627.55	0.00
627.70	65.54
627.85	0.00
628.00	102.98
628.15	93.62
628.30	44.47
628.45	98.30
628.60	131.07
628.76	133.41
628.91	91.28
629.06	77.24
629.21	32.77
629.36	67.88
629.51	65.54
629.66	98.30
629.81	86.60
629.96	81.92
630.11	32.77
630.26	107.66
630.41	32.77
630.56	133.41
630.71	117.03
630.86	63.19
631.01	51.49
631.16	93.62
631.31	105.32
631.46	100.64
631.61	0.00
631.76	51.49
631.91	91.28
632.06	46.81
632.21	0.00
632.36	49.15
632.51	0.00
632.66	63.19
632.81	72.56
632.96	44.47
633.10	56.17
633.25	23.41
633.40	58.51
633.55	53.83
633.70	110.01
633.85	74.90
634.00	81.92
634.15	110.01
634.30	0.00
634.45	84.26
634.60	88.94
634.75	51.49
634.90	67.88
635.05	53.83
635.19	107.66
635.34	46.81
635.49	91.28
635.64	114.69
635.79	25.75
635.94	37.45
636.09	46.81
636.24	58.51
636.39	133.41
636.53	53.83
636.68	32.77
636.83	112.35
636.98	74.90
637.13	60.85
637.28	77.24
637.43	65.54
637.57	74.90
637.72	4.68
637.87	102.98
638.02	88.94
638.17	107.66
638.32	23.41
638.46	74.90
638.61	95.96
638.76	70.22
638.91	88.94
639.06	0.00
639.20	84.26
639.35	44.47
639.50	121.71
639.65	126.39
639.80	23.41
639.94	81.92
640.09	23.41
640.24	166.18
640.39	44.47
640.54	102.98
640.68	60.85
640.83	93.62
640.98	35.11
641.13	173.20
641.27	107.66
641.42	98.30
641.57	60.85
641.72	25.75
641.86	74.90
642.01	4.68
642.16	44.47
642.31	74.90
642.45	44.47
642.60	67.88
642.75	60.85
642.90	91.28
643.04	56.17
643.19	77.24
643.34	88.94
643.48	2.34
643.63	177.88
643.78	93.62
643.93	21.06
644.07	133.41
644.22	23.41
644.37	21.06
644.51	126.39
644.66	49.15
644.81	79.58
644.95	51.49
645.10	74.90
645.25	18.72
645.39	112.35
645.54	98.30
645.69	105.32
645.83	44.47
645.98	21.06
646.13	117.03
646.27	32.77
646.42	74.90
646.57	74.90
646.71	107.66
646.86	147.45
647.00	81.92
647.15	60.85
647.30	39.79
647.44	42.13
647.59	32.77
647.74	91.28
647.88	67.88
648.03	18.72
648.17	91.28
648.32	65.54
648.47	95.96
648.61	84.26
648.76	72.56
648.90	124.05
649.05	131.07
649.20	46.81
649.34	63.19
649.49	51.49
649.63	79.58
649.78	53.83
649.92	46.81
650.07	88.94
650.21	86.60
650.36	133.41
650.51	60.85
650.65	21.06
650.80	65.54
650.94	30.43
651.09	53.83
651.23	9.36
651.38	0.00
651.52	140.43
651.67	112.35
651.81	23.41
651.96	72.56
652.10	102.98
652.25	39.79
652.39	67.88
652.54	128.73
652.68	95.96
652.83	32.77
652.97	72.56
653.12	28.09
653.26	28.09
653.41	58.51
653.55	112.35
653.70	121.71
653.84	152.13
653.99	72.56
654.13	79.58
654.27	84.26
654.42	81.92
654.56	32.77
654.71	77.24
654.85	110.01
655.00	81.92
655.14	93.62
655.29	88.94
655.43	124.05
655.57	84.26
655.72	49.15
655.86	42.13
656.01	84.26
656.15	28.09
656.30	105.32
656.44	100.64
656.58	16.38
656.73	84.26
656.87	84.26
657.01	79.58
657.16	58.51
657.30	51.49
657.45	98.30
657.59	46.81
657.73	37.45
657.88	91.28
658.02	63.19
658.16	39.79
658.31	112.35
658.45	23.41
658.60	23.41
658.74	74.90
658.88	37.45
659.03	67.88
659.17	133.41
659.31	126.39
659.46	67.88
659.60	119.37
659.74	58.51
659.89	79.58
660.03	63.19
660.17	95.96
660.32	70.22
660.46	23.41
660.60	140.43
660.74	124.05
660.89	28.09
661.03	81.92
661.17	81.92
661.32	30.43
661.46	112.35
661.60	79.58
661.74	105.32
661.89	60.85
662.03	53.83
662.17	93.62
662.31	135.75
662.46	58.51
662.60	49.15
662.74	102.98
662.88	23.41
663.03	53.83
663.17	35.11
663.31	25.75
663.45	65.54
663.60	159.16
663.74	30.43
663.88	42.13
664.02	65.54
664.17	126.39
664.31	93.62
664.45	114.69
664.59	105.32
664.73	91.28
664.88	21.06
665.02	39.79
665.16	9.36
665.30	93.62
665.44	0.00
665.59	46.81
665.73	105.32
665.87	79.58
666.01	60.85
666.15	126.39
666.29	95.96
666.44	30.43
666.58	74.90
666.72	21.06
666.86	39.79
667.00	65.54
667.14	77.24
667.28	60.85
667.43	88.94
667.57	60.85
667.71	81.92
667.85	0.00
667.99	74.90
668.13	23.41
668.27	65.54
668.41	114.69
668.56	0.00
668.70	46.81
668.84	93.62
668.98	168.52
669.12	81.92
669.26	93.62
669.40	161.50
669.54	100.64
669.68	4.68
669.82	77.24
669.96	0.00
670.10	93.62
670.25	107.66
670.39	58.51
670.53	11.70
670.67	16.38
670.81	58.51
670.95	65.54
671.09	0.00
671.23	39.79
671.37	81.92
671.51	23.41
671.65	63.19
671.79	39.79
671.93	128.73
672.07	30.43
672.21	107.66
672.35	77.24
672.49	70.22
672.63	88.94
672.77	0.00
672.91	0.00
673.05	65.54
673.19	53.83
673.33	121.71
673.47	88.94
673.61	0.00
673.75	93.62
673.89	112.35
674.03	105.32
674.17	60.85
674.31	70.22
674.45	81.92
674.59	88.94
674.73	60.85
674.87	4.68
675.01	70.22
675.15	72.56
675.29	72.56
675.43	30.43
675.56	159.16
675.70	88.94
675.84	88.94
675.98	70.22
676.12	56.17
676.26	86.60
676.40	35.11
676.54	65.54
676.68	46.81
676.82	105.32
676.96	14.04
677.10	95.96
677.23	28.09
677.37	51.49
677.51	42.13
677.65	11.70
677.79	79.58
677.93	63.19
678.07	0.00
678.21	16.38
678.34	72.56
678.48	0.00
678.62	0.00
678.76	63.19
678.90	93.62
679.04	135.75
679.18	105.32
679.31	65.54
679.45	23.41
679.59	81.92
679.73	63.19
679.87	32.77
680.00	0.00
680.14	70.22
680.28	114.69
680.42	91.28
680.56	28.09
680.70	105.32
680.83	37.45
680.97	98.30
681.11	147.45
681.25	35.11
681.39	86.60
681.52	100.64
681.66	35.11
681.80	39.79
681.94	42.13
682.07	18.72
682.21	79.58
682.35	56.17
682.49	58.51
682.62	138.09
682.76	110.01
682.90	56.17
683.04	30.43
683.17	56.17
683.31	70.22
683.45	53.83
683.59	28.09
683.72	35.11
683.86	4.68
684.00	32.77
684.13	74.90
684.27	93.62
684.41	44.47
684.55	53.83
684.68	84.26
684.82	0.00
684.96	98.30
685.09	23.41
685.23	98.30
685.37	98.30
685.50	0.00
685.64	44.47
685.78	37.45
685.91	30.43
686.05	7.02
686.19	25.75
686.32	30.43
686.46	79.58
686.60	37.45
686.73	46.81
686.87	53.83
687.01	93.62
687.14	46.81
687.28	0.00
687.42	121.71
687.55	53.83
687.69	28.09
687.82	70.22
687.96	16.38
688.10	74.90
688.23	67.88
688.37	60.85
688.50	0.00
688.64	51.49
688.78	102.98
688.91	39.79
689.05	0.00
689.18	56.17
689.32	16.38
689.46	30.43
689.59	0.00
689.73	84.26
689.86	44.47
690.00	9.36
690.13	32.77
690.27	37.45
690.41	51.49
690.54	0.00
690.68	32.77
690.81	16.38
690.95	93.62
691.08	88.94
691.22	53.83
691.35	37.45
691.49	77.24
691.62	51.49
691.76	0.00
691.89	72.56
692.03	30.43
692.16	67.88
692.30	0.00
692.43	0.00
692.57	65.54
692.70	98.30
692.84	67.88
692.97	81.92
693.11	35.11
693.24	65.54
693.38	25.75
693.51	81.92
693.65	105.32
693.78	114.69
693.92	86.60
694.05	0.00
694.19	74.90
694.32	21.06
694.45	7.02
694.59	0.00
694.72	14.04
694.86	39.79
694.99	42.13
695.13	11.70
695.26	65.54
695.39	0.00
695.53	65.54
695.66	25.75
695.80	98.30
695.93	18.72
696.07	58.51
696.20	39.79
696.33	0.00
696.47	81.92
696.60	107.66
696.73	46.81
696.87	81.92
697.00	107.66
697.14	46.81
697.27	53.83
697.40	49.15
697.54	63.19
697.67	0.00
697.80	102.98
697.94	18.72
698.07	0.00
698.21	42.13
698.34	35.11
698.47	0.00
698.61	4.68
698.74	70.22
698.87	21.06
699.01	44.47
699.14	46.81
699.27	77.24
699.40	49.15
699.54	0.00
699.67	32.77
699.80	0.00
699.94	9.36
700.07	53.83
700.20	51.49
700.34	44.47
700.47	39.79
700.60	53.83
700.73	77.24
700.87	0.00
701.00	0.00
701.13	63.19
701.26	9.36
701.40	65.54
701.53	95.96
701.66	63.19
701.79	67.88
701.93	42.13
702.06	2.34
702.19	63.19
702.32	56.17
702.46	32.77
702.59	0.00
702.72	70.22
702.85	32.77
702.99	65.54
703.12	21.06
703.25	0.00
703.38	32.77
703.51	0.00
703.65	49.15
703.78	0.00
703.91	30.43
704.04	0.00
704.17	4.68
704.31	30.43
704.44	30.43
704.57	18.72
704.70	56.17
704.83	46.81
704.96	53.83
705.10	49.15
705.23	18.72
>>>>>End Processed Spectral Data<<<<<
