SpectraSuite Data File
++++++++++++++++++++++++++++++++++++
Date: Fri Oct 04 12:13:26 GMT-05:00 2013
User: price-jones
Dark Spectrum Present: No
Reference Spectrum Present: No
Number of Sampled Component Spectra: 1
Spectrometers: USB2+H05261
Integration Time (usec): 10000 (USB2+H05261)
Spectra Averaged: 1 (USB2+H05261)
Boxcar Smoothing: 0 (USB2+H05261)
Correct for Electrical Dark: No (USB2+H05261)
Strobe/Lamp Enabled: No (USB2+H05261)
Correct for Detector Non-linearity: No (USB2+H05261)
Correct for Stray Light: No (USB2+H05261)
Number of Pixels in Processed Spectrum: 2048
>>>>>Begin Processed Spectral Data<<<<<
365.73	39.79
365.92	39.79
366.12	39.79
366.32	0.00
366.52	0.00
366.72	0.00
366.91	0.00
367.11	0.00
367.31	0.00
367.51	0.00
367.70	0.00
367.90	0.00
368.10	0.00
368.30	0.00
368.49	0.00
368.69	0.00
368.89	0.00
369.09	0.00
369.28	0.00
369.48	0.00
369.68	0.00
369.87	0.00
370.07	0.00
370.27	0.00
370.47	0.00
370.66	0.00
370.86	0.00
371.06	0.00
371.25	0.00
371.45	0.00
371.65	0.00
371.84	0.00
372.04	51.49
372.24	0.00
372.44	0.00
372.63	0.00
372.83	16.38
373.03	9.36
373.22	91.28
373.42	37.45
373.62	72.56
373.81	0.00
374.01	51.49
374.21	72.56
374.40	0.00
374.60	42.13
374.79	7.02
374.99	72.56
375.19	0.00
375.38	105.32
375.58	0.00
375.78	25.75
375.97	16.38
376.17	0.00
376.37	35.11
376.56	35.11
376.76	11.70
376.95	4.68
377.15	18.72
377.35	7.02
377.54	18.72
377.74	21.06
377.93	39.79
378.13	0.00
378.33	110.01
378.52	30.43
378.72	28.09
378.91	39.79
379.11	72.56
379.31	0.00
379.50	2.34
379.70	28.09
379.89	4.68
380.09	0.00
380.28	21.06
380.48	60.85
380.68	18.72
380.87	23.41
381.07	0.00
381.26	28.09
381.46	0.00
381.65	46.81
381.85	11.70
382.04	32.77
382.24	0.00
382.43	21.06
382.63	42.13
382.83	35.11
383.02	25.75
383.22	7.02
383.41	25.75
383.61	11.70
383.80	0.00
384.00	14.04
384.19	46.81
384.39	37.45
384.58	46.81
384.78	30.43
384.97	49.15
385.17	0.00
385.36	0.00
385.56	0.00
385.75	77.24
385.95	44.47
386.14	32.77
386.34	51.49
386.53	30.43
386.72	93.62
386.92	65.54
387.11	86.60
387.31	42.13
387.50	30.43
387.70	0.00
387.89	11.70
388.09	39.79
388.28	23.41
388.48	18.72
388.67	74.90
388.86	0.00
389.06	0.00
389.25	0.00
389.45	0.00
389.64	49.15
389.84	53.83
390.03	2.34
390.22	0.00
390.42	88.94
390.61	0.00
390.81	21.06
391.00	126.39
391.19	2.34
391.39	56.17
391.58	0.00
391.78	28.09
391.97	0.00
392.16	0.00
392.36	9.36
392.55	0.00
392.75	4.68
392.94	4.68
393.13	16.38
393.33	65.54
393.52	42.13
393.71	0.00
393.91	0.00
394.10	25.75
394.29	51.49
394.49	25.75
394.68	23.41
394.88	0.00
395.07	0.00
395.26	21.06
395.46	0.00
395.65	0.00
395.84	44.47
396.04	0.00
396.23	77.24
396.42	32.77
396.62	56.17
396.81	0.00
397.00	95.96
397.19	16.38
397.39	0.00
397.58	9.36
397.77	0.00
397.97	0.00
398.16	0.00
398.35	32.77
398.55	23.41
398.74	0.00
398.93	0.00
399.12	35.11
399.32	0.00
399.51	0.00
399.70	39.79
399.90	0.00
400.09	0.00
400.28	2.34
400.47	53.83
400.67	11.70
400.86	0.00
401.05	0.00
401.24	0.00
401.44	28.09
401.63	23.41
401.82	2.34
402.01	28.09
402.21	119.37
402.40	11.70
402.59	0.00
402.78	32.77
402.97	105.32
403.17	39.79
403.36	46.81
403.55	2.34
403.74	23.41
403.93	0.00
404.13	0.00
404.32	0.00
404.51	88.94
404.70	30.43
404.89	39.79
405.09	37.45
405.28	0.00
405.47	39.79
405.66	39.79
405.85	51.49
406.05	18.72
406.24	32.77
406.43	14.04
406.62	0.00
406.81	0.00
407.00	0.00
407.20	21.06
407.39	21.06
407.58	9.36
407.77	30.43
407.96	0.00
408.15	32.77
408.34	0.00
408.54	0.00
408.73	0.00
408.92	0.00
409.11	0.00
409.30	7.02
409.49	0.00
409.68	0.00
409.87	81.92
410.07	0.00
410.26	65.54
410.45	0.00
410.64	0.00
410.83	18.72
411.02	4.68
411.21	0.00
411.40	0.00
411.59	0.00
411.78	0.00
411.98	23.41
412.17	37.45
412.36	7.02
412.55	32.77
412.74	16.38
412.93	53.83
413.12	0.00
413.31	9.36
413.50	51.49
413.69	18.72
413.88	119.37
414.07	79.58
414.26	0.00
414.45	0.00
414.64	18.72
414.83	0.00
415.02	0.00
415.22	14.04
415.41	4.68
415.60	51.49
415.79	65.54
415.98	79.58
416.17	23.41
416.36	4.68
416.55	77.24
416.74	0.00
416.93	74.90
417.12	37.45
417.31	0.00
417.50	42.13
417.69	32.77
417.88	0.00
418.07	0.00
418.26	16.38
418.45	84.26
418.64	37.45
418.83	18.72
419.02	2.34
419.21	86.60
419.39	70.22
419.58	35.11
419.77	16.38
419.96	0.00
420.15	65.54
420.34	11.70
420.53	44.47
420.72	11.70
420.91	74.90
421.10	51.49
421.29	67.88
421.48	0.00
421.67	0.00
421.86	0.00
422.05	0.00
422.24	0.00
422.43	37.45
422.61	37.45
422.80	28.09
422.99	49.15
423.18	39.79
423.37	39.79
423.56	16.38
423.75	21.06
423.94	7.02
424.13	21.06
424.32	63.19
424.50	21.06
424.69	0.00
424.88	21.06
425.07	0.00
425.26	91.28
425.45	126.39
425.64	0.00
425.83	11.70
426.01	0.00
426.20	25.75
426.39	7.02
426.58	39.79
426.77	53.83
426.96	70.22
427.15	2.34
427.33	0.00
427.52	18.72
427.71	32.77
427.90	53.83
428.09	21.06
428.28	0.00
428.46	35.11
428.65	67.88
428.84	32.77
429.03	35.11
429.22	67.88
429.40	42.13
429.59	105.32
429.78	51.49
429.97	0.00
430.16	102.98
430.34	58.51
430.53	56.17
430.72	51.49
430.91	56.17
431.10	0.00
431.28	4.68
431.47	0.00
431.66	35.11
431.85	65.54
432.03	0.00
432.22	42.13
432.41	0.00
432.60	58.51
432.79	53.83
432.97	0.00
433.16	72.56
433.35	0.00
433.54	0.00
433.72	142.77
433.91	0.00
434.10	49.15
434.28	7.02
434.47	11.70
434.66	72.56
434.85	0.00
435.03	7.02
435.22	7.02
435.41	46.81
435.59	79.58
435.78	25.75
435.97	18.72
436.16	0.00
436.34	0.00
436.53	9.36
436.72	32.77
436.90	72.56
437.09	46.81
437.28	0.00
437.46	4.68
437.65	21.06
437.84	32.77
438.02	42.13
438.21	14.04
438.40	4.68
438.58	49.15
438.77	133.41
438.96	37.45
439.14	9.36
439.33	0.00
439.52	77.24
439.70	23.41
439.89	14.04
440.08	49.15
440.26	18.72
440.45	77.24
440.63	0.00
440.82	9.36
441.01	67.88
441.19	25.75
441.38	51.49
441.57	0.00
441.75	11.70
441.94	81.92
442.12	70.22
442.31	63.19
442.50	35.11
442.68	60.85
442.87	0.00
443.05	14.04
443.24	39.79
443.43	42.13
443.61	46.81
443.80	23.41
443.98	100.64
444.17	11.70
444.35	44.47
444.54	9.36
444.73	30.43
444.91	74.90
445.10	77.24
445.28	0.00
445.47	86.60
445.65	39.79
445.84	39.79
446.02	93.62
446.21	25.75
446.39	35.11
446.58	74.90
446.77	0.00
446.95	42.13
447.14	102.98
447.32	84.26
447.51	32.77
447.69	0.00
447.88	16.38
448.06	4.68
448.25	49.15
448.43	0.00
448.62	0.00
448.80	42.13
448.99	0.00
449.17	74.90
449.36	0.00
449.54	0.00
449.73	0.00
449.91	37.45
450.10	9.36
450.28	11.70
450.46	28.09
450.65	98.30
450.83	0.00
451.02	0.00
451.20	23.41
451.39	93.62
451.57	39.79
451.76	11.70
451.94	32.77
452.13	0.00
452.31	32.77
452.49	0.00
452.68	60.85
452.86	0.00
453.05	88.94
453.23	14.04
453.42	25.75
453.60	0.00
453.78	25.75
453.97	51.49
454.15	0.00
454.34	63.19
454.52	9.36
454.70	25.75
454.89	77.24
455.07	18.72
455.26	23.41
455.44	0.00
455.62	0.00
455.81	11.70
455.99	42.13
456.17	0.00
456.36	0.00
456.54	0.00
456.73	72.56
456.91	32.77
457.09	0.00
457.28	0.00
457.46	0.00
457.64	35.11
457.83	0.00
458.01	28.09
458.19	30.43
458.38	51.49
458.56	16.38
458.74	30.43
458.93	53.83
459.11	56.17
459.29	51.49
459.48	46.81
459.66	0.00
459.84	0.00
460.03	70.22
460.21	84.26
460.39	0.00
460.57	42.13
460.76	56.17
460.94	28.09
461.12	0.00
461.31	0.00
461.49	60.85
461.67	25.75
461.85	56.17
462.04	7.02
462.22	100.64
462.40	72.56
462.59	0.00
462.77	23.41
462.95	35.11
463.13	32.77
463.32	67.88
463.50	63.19
463.68	39.79
463.86	28.09
464.05	23.41
464.23	0.00
464.41	112.35
464.59	35.11
464.78	16.38
464.96	46.81
465.14	0.00
465.32	81.92
465.50	32.77
465.69	102.98
465.87	0.00
466.05	32.77
466.23	56.17
466.41	30.43
466.60	53.83
466.78	18.72
466.96	53.83
467.14	21.06
467.32	30.43
467.51	119.37
467.69	37.45
467.87	46.81
468.05	23.41
468.23	110.01
468.41	35.11
468.60	9.36
468.78	70.22
468.96	58.51
469.14	23.41
469.32	14.04
469.50	7.02
469.69	0.00
469.87	0.00
470.05	42.13
470.23	110.01
470.41	28.09
470.59	46.81
470.77	49.15
470.95	16.38
471.14	7.02
471.32	30.43
471.50	86.60
471.68	14.04
471.86	91.28
472.04	37.45
472.22	0.00
472.40	23.41
472.58	9.36
472.77	2.34
472.95	51.49
473.13	14.04
473.31	18.72
473.49	0.00
473.67	44.47
473.85	0.00
474.03	72.56
474.21	65.54
474.39	105.32
474.57	23.41
474.75	102.98
474.93	44.47
475.12	30.43
475.30	44.47
475.48	0.00
475.66	58.51
475.84	11.70
476.02	46.81
476.20	0.00
476.38	0.00
476.56	11.70
476.74	32.77
476.92	23.41
477.10	110.01
477.28	98.30
477.46	0.00
477.64	32.77
477.82	72.56
478.00	7.02
478.18	39.79
478.36	16.38
478.54	63.19
478.72	37.45
478.90	28.09
479.08	46.81
479.26	28.09
479.44	0.00
479.62	0.00
479.80	18.72
479.98	30.43
480.16	60.85
480.34	39.79
480.52	81.92
480.70	77.24
480.88	49.15
481.06	0.00
481.24	11.70
481.41	25.75
481.59	23.41
481.77	0.00
481.95	32.77
482.13	0.00
482.31	88.94
482.49	35.11
482.67	0.00
482.85	0.00
483.03	35.11
483.21	0.00
483.39	0.00
483.57	0.00
483.74	0.00
483.92	79.58
484.10	7.02
484.28	72.56
484.46	49.15
484.64	77.24
484.82	2.34
485.00	0.00
485.18	102.98
485.35	39.79
485.53	44.47
485.71	91.28
485.89	0.00
486.07	44.47
486.25	49.15
486.43	9.36
486.61	0.00
486.78	91.28
486.96	53.83
487.14	7.02
487.32	14.04
487.50	86.60
487.68	23.41
487.85	67.88
488.03	58.51
488.21	0.00
488.39	23.41
488.57	70.22
488.75	0.00
488.92	58.51
489.10	32.77
489.28	9.36
489.46	0.00
489.64	28.09
489.81	60.85
489.99	58.51
490.17	42.13
490.35	16.38
490.53	0.00
490.70	14.04
490.88	0.00
491.06	0.00
491.24	44.47
491.41	25.75
491.59	2.34
491.77	72.56
491.95	0.00
492.13	0.00
492.30	23.41
492.48	37.45
492.66	46.81
492.84	70.22
493.01	74.90
493.19	25.75
493.37	9.36
493.54	65.54
493.72	30.43
493.90	0.00
494.08	7.02
494.25	70.22
494.43	84.26
494.61	0.00
494.79	25.75
494.96	32.77
495.14	93.62
495.32	49.15
495.49	21.06
495.67	2.34
495.85	44.47
496.02	95.96
496.20	0.00
496.38	53.83
496.55	35.11
496.73	14.04
496.91	100.64
497.09	35.11
497.26	4.68
497.44	44.47
497.62	56.17
497.79	53.83
497.97	35.11
498.14	67.88
498.32	53.83
498.50	53.83
498.67	21.06
498.85	51.49
499.03	39.79
499.20	0.00
499.38	93.62
499.56	46.81
499.73	18.72
499.91	67.88
500.08	84.26
500.26	98.30
500.44	0.00
500.61	110.01
500.79	16.38
500.97	0.00
501.14	60.85
501.32	35.11
501.49	39.79
501.67	0.00
501.84	102.98
502.02	39.79
502.20	63.19
502.37	0.00
502.55	0.00
502.72	11.70
502.90	32.77
503.07	0.00
503.25	79.58
503.43	0.00
503.60	37.45
503.78	35.11
503.95	86.60
504.13	23.41
504.30	74.90
504.48	98.30
504.65	58.51
504.83	9.36
505.01	0.00
505.18	11.70
505.36	67.88
505.53	0.00
505.71	0.00
505.88	32.77
506.06	0.00
506.23	18.72
506.41	39.79
506.58	39.79
506.76	35.11
506.93	11.70
507.11	0.00
507.28	0.00
507.46	0.00
507.63	0.00
507.81	58.51
507.98	21.06
508.16	0.00
508.33	63.19
508.50	86.60
508.68	16.38
508.85	53.83
509.03	37.45
509.20	60.85
509.38	18.72
509.55	117.03
509.73	14.04
509.90	23.41
510.08	0.00
510.25	72.56
510.42	88.94
510.60	28.09
510.77	63.19
510.95	46.81
511.12	25.75
511.30	100.64
511.47	7.02
511.64	51.49
511.82	49.15
511.99	79.58
512.17	0.00
512.34	14.04
512.51	30.43
512.69	9.36
512.86	65.54
513.04	23.41
513.21	63.19
513.38	0.00
513.56	25.75
513.73	65.54
513.90	0.00
514.08	42.13
514.25	98.30
514.43	4.68
514.60	0.00
514.77	0.00
514.95	86.60
515.12	98.30
515.29	79.58
515.47	2.34
515.64	30.43
515.81	56.17
515.99	70.22
516.16	39.79
516.33	105.32
516.51	21.06
516.68	4.68
516.85	44.47
517.03	30.43
517.20	18.72
517.37	25.75
517.54	11.70
517.72	95.96
517.89	74.90
518.06	28.09
518.24	11.70
518.41	25.75
518.58	30.43
518.75	60.85
518.93	98.30
519.10	93.62
519.27	4.68
519.45	74.90
519.62	21.06
519.79	56.17
519.96	98.30
520.14	21.06
520.31	88.94
520.48	0.00
520.65	74.90
520.83	86.60
521.00	77.24
521.17	0.00
521.34	0.00
521.52	4.68
521.69	56.17
521.86	53.83
522.03	49.15
522.20	9.36
522.38	112.35
522.55	0.00
522.72	4.68
522.89	51.49
523.07	30.43
523.24	2.34
523.41	49.15
523.58	0.00
523.75	18.72
523.92	0.00
524.10	67.88
524.27	79.58
524.44	9.36
524.61	49.15
524.78	58.51
524.96	4.68
525.13	30.43
525.30	11.70
525.47	32.77
525.64	0.00
525.81	23.41
525.98	28.09
526.16	23.41
526.33	42.13
526.50	46.81
526.67	0.00
526.84	74.90
527.01	46.81
527.18	35.11
527.36	84.26
527.53	0.00
527.70	51.49
527.87	65.54
528.04	14.04
528.21	81.92
528.38	100.64
528.55	39.79
528.72	77.24
528.89	0.00
529.07	0.00
529.24	98.30
529.41	0.00
529.58	16.38
529.75	107.66
529.92	77.24
530.09	30.43
530.26	65.54
530.43	0.00
530.60	58.51
530.77	63.19
530.94	42.13
531.11	30.43
531.28	21.06
531.46	23.41
531.63	16.38
531.80	37.45
531.97	63.19
532.14	39.79
532.31	16.38
532.48	35.11
532.65	0.00
532.82	70.22
532.99	23.41
533.16	44.47
533.33	84.26
533.50	70.22
533.67	51.49
533.84	51.49
534.01	60.85
534.18	42.13
534.35	100.64
534.52	49.15
534.69	35.11
534.86	0.00
535.03	67.88
535.20	107.66
535.37	21.06
535.54	30.43
535.71	9.36
535.88	18.72
536.05	93.62
536.22	46.81
536.38	67.88
536.55	67.88
536.72	16.38
536.89	67.88
537.06	42.13
537.23	11.70
537.40	32.77
537.57	32.77
537.74	4.68
537.91	65.54
538.08	60.85
538.25	77.24
538.42	86.60
538.59	67.88
538.75	37.45
538.92	16.38
539.09	18.72
539.26	11.70
539.43	56.17
539.60	93.62
539.77	72.56
539.94	0.00
540.11	56.17
540.28	51.49
540.44	18.72
540.61	44.47
540.78	25.75
540.95	56.17
541.12	39.79
541.29	2.34
541.46	65.54
541.62	56.17
541.79	0.00
541.96	18.72
542.13	35.11
542.30	0.00
542.47	4.68
542.63	44.47
542.80	91.28
542.97	53.83
543.14	67.88
543.31	0.00
543.48	67.88
543.64	70.22
543.81	58.51
543.98	35.11
544.15	23.41
544.32	0.00
544.48	32.77
544.65	131.07
544.82	0.00
544.99	9.36
545.16	37.45
545.32	70.22
545.49	2.34
545.66	23.41
545.83	0.00
546.00	18.72
546.16	14.04
546.33	0.00
546.50	30.43
546.67	72.56
546.83	63.19
547.00	72.56
547.17	46.81
547.34	60.85
547.50	30.43
547.67	56.17
547.84	42.13
548.00	37.45
548.17	35.11
548.34	81.92
548.51	32.77
548.67	9.36
548.84	58.51
549.01	16.38
549.18	51.49
549.34	37.45
549.51	39.79
549.68	121.71
549.84	105.32
550.01	107.66
550.18	0.00
550.34	58.51
550.51	46.81
550.68	112.35
550.84	79.58
551.01	25.75
551.18	0.00
551.34	32.77
551.51	51.49
551.68	86.60
551.84	23.41
552.01	0.00
552.18	9.36
552.34	60.85
552.51	100.64
552.68	39.79
552.84	2.34
553.01	32.77
553.18	35.11
553.34	9.36
553.51	107.66
553.67	126.39
553.84	70.22
554.01	32.77
554.17	30.43
554.34	23.41
554.51	0.00
554.67	0.00
554.84	39.79
555.00	35.11
555.17	39.79
555.33	9.36
555.50	51.49
555.67	32.77
555.83	56.17
556.00	46.81
556.16	72.56
556.33	28.09
556.50	37.45
556.66	65.54
556.83	0.00
556.99	110.01
557.16	0.00
557.32	25.75
557.49	44.47
557.65	28.09
557.82	53.83
557.98	86.60
558.15	86.60
558.32	84.26
558.48	35.11
558.65	35.11
558.81	0.00
558.98	14.04
559.14	42.13
559.31	67.88
559.47	0.00
559.64	18.72
559.80	2.34
559.97	53.83
560.13	84.26
560.30	56.17
560.46	46.81
560.63	7.02
560.79	63.19
560.96	44.47
561.12	16.38
561.29	35.11
561.45	0.00
561.61	14.04
561.78	98.30
561.94	74.90
562.11	46.81
562.27	58.51
562.44	23.41
562.60	46.81
562.77	0.00
562.93	4.68
563.10	0.00
563.26	0.00
563.42	23.41
563.59	46.81
563.75	105.32
563.92	9.36
564.08	35.11
564.24	0.00
564.41	70.22
564.57	65.54
564.74	91.28
564.90	84.26
565.07	32.77
565.23	0.00
565.39	4.68
565.56	102.98
565.72	53.83
565.88	51.49
566.05	95.96
566.21	32.77
566.38	46.81
566.54	91.28
566.70	23.41
566.87	107.66
567.03	60.85
567.19	14.04
567.36	30.43
567.52	9.36
567.68	105.32
567.85	91.28
568.01	49.15
568.17	58.51
568.34	7.02
568.50	9.36
568.66	35.11
568.83	70.22
568.99	60.85
569.15	18.72
569.32	35.11
569.48	44.47
569.64	51.49
569.81	46.81
569.97	23.41
570.13	102.98
570.30	23.41
570.46	44.47
570.62	93.62
570.78	25.75
570.95	9.36
571.11	0.00
571.27	51.49
571.43	67.88
571.60	42.13
571.76	39.79
571.92	63.19
572.09	37.45
572.25	37.45
572.41	60.85
572.57	72.56
572.74	25.75
572.90	93.62
573.06	49.15
573.22	35.11
573.38	39.79
573.55	25.75
573.71	107.66
573.87	32.77
574.03	35.11
574.20	58.51
574.36	42.13
574.52	0.00
574.68	30.43
574.84	53.83
575.01	0.00
575.17	32.77
575.33	28.09
575.49	30.43
575.65	42.13
575.82	0.00
575.98	0.00
576.14	72.56
576.30	72.56
576.46	35.11
576.62	49.15
576.79	60.85
576.95	18.72
577.11	18.72
577.27	25.75
577.43	72.56
577.59	72.56
577.75	9.36
577.92	60.85
578.08	86.60
578.24	65.54
578.40	88.94
578.56	53.83
578.72	35.11
578.88	74.90
579.04	70.22
579.21	23.41
579.37	7.02
579.53	11.70
579.69	49.15
579.85	58.51
580.01	74.90
580.17	60.85
580.33	65.54
580.49	56.17
580.65	42.13
580.82	11.70
580.98	81.92
581.14	9.36
581.30	4.68
581.46	70.22
581.62	4.68
581.78	2.34
581.94	58.51
582.10	23.41
582.26	65.54
582.42	84.26
582.58	70.22
582.74	51.49
582.90	37.45
583.06	0.00
583.22	23.41
583.38	51.49
583.54	100.64
583.70	25.75
583.86	11.70
584.02	4.68
584.18	18.72
584.34	18.72
584.50	79.58
584.66	159.16
584.82	210.65
584.98	220.01
585.14	177.88
585.30	114.69
585.46	110.01
585.62	138.09
585.78	72.56
585.94	65.54
586.10	88.94
586.26	56.17
586.42	65.54
586.58	23.41
586.74	0.00
586.90	23.41
587.06	21.06
587.22	74.90
587.38	42.13
587.54	0.00
587.70	0.00
587.86	32.77
588.02	23.41
588.18	51.49
588.34	56.17
588.49	21.06
588.65	28.09
588.81	51.49
588.97	51.49
589.13	11.70
589.29	0.00
589.45	0.00
589.61	21.06
589.77	70.22
589.93	65.54
590.08	53.83
590.24	0.00
590.40	42.13
590.56	121.71
590.72	58.51
590.88	79.58
591.04	81.92
591.20	9.36
591.35	60.85
591.51	72.56
591.67	30.43
591.83	91.28
591.99	67.88
592.15	67.88
592.31	4.68
592.46	0.00
592.62	77.24
592.78	0.00
592.94	49.15
593.10	28.09
593.26	23.41
593.41	72.56
593.57	53.83
593.73	14.04
593.89	88.94
594.05	107.66
594.20	63.19
594.36	56.17
594.52	51.49
594.68	53.83
594.84	2.34
594.99	30.43
595.15	49.15
595.31	21.06
595.47	0.00
595.62	74.90
595.78	60.85
595.94	37.45
596.10	42.13
596.25	7.02
596.41	63.19
596.57	93.62
596.73	49.15
596.88	23.41
597.04	42.13
597.20	49.15
597.36	63.19
597.51	77.24
597.67	9.36
597.83	37.45
597.99	9.36
598.14	44.47
598.30	0.00
598.46	135.75
598.61	0.00
598.77	0.00
598.93	37.45
599.09	7.02
599.24	53.83
599.40	49.15
599.56	70.22
599.71	0.00
599.87	0.00
600.03	21.06
600.18	93.62
600.34	44.47
600.50	42.13
600.65	0.00
600.81	42.13
600.97	0.00
601.12	65.54
601.28	0.00
601.44	28.09
601.59	25.75
601.75	28.09
601.91	51.49
602.06	39.79
602.22	74.90
602.37	0.00
602.53	21.06
602.69	25.75
602.84	0.00
603.00	67.88
603.16	88.94
603.31	102.98
603.47	0.00
603.62	56.17
603.78	11.70
603.94	42.13
604.09	74.90
604.25	88.94
604.40	0.00
604.56	28.09
604.71	9.36
604.87	4.68
605.03	88.94
605.18	42.13
605.34	0.00
605.49	30.43
605.65	0.00
605.80	72.56
605.96	86.60
606.12	46.81
606.27	58.51
606.43	56.17
606.58	51.49
606.74	37.45
606.89	46.81
607.05	32.77
607.20	44.47
607.36	18.72
607.51	49.15
607.67	4.68
607.82	58.51
607.98	84.26
608.13	84.26
608.29	0.00
608.44	51.49
608.60	58.51
608.75	14.04
608.91	63.19
609.06	110.01
609.22	86.60
609.37	60.85
609.53	70.22
609.68	95.96
609.84	23.41
609.99	79.58
610.15	0.00
610.30	0.00
610.46	114.69
610.61	42.13
610.76	70.22
610.92	42.13
611.07	70.22
611.23	84.26
611.38	35.11
611.54	30.43
611.69	88.94
611.84	0.00
612.00	65.54
612.15	72.56
612.31	77.24
612.46	0.00
612.62	2.34
612.77	30.43
612.92	25.75
613.08	0.00
613.23	53.83
613.39	84.26
613.54	107.66
613.69	79.58
613.85	91.28
614.00	102.98
614.15	107.66
614.31	117.03
614.46	107.66
614.62	2.34
614.77	102.98
614.92	126.39
615.08	77.24
615.23	28.09
615.38	91.28
615.54	0.00
615.69	23.41
615.84	70.22
616.00	98.30
616.15	63.19
616.30	74.90
616.46	49.15
616.61	0.00
616.76	72.56
616.92	58.51
617.07	39.79
617.22	0.00
617.37	37.45
617.53	0.00
617.68	105.32
617.83	72.56
617.99	35.11
618.14	44.47
618.29	28.09
618.45	7.02
618.60	39.79
618.75	9.36
618.90	0.00
619.06	25.75
619.21	44.47
619.36	35.11
619.51	53.83
619.67	93.62
619.82	37.45
619.97	21.06
620.12	21.06
620.28	4.68
620.43	16.38
620.58	107.66
620.73	53.83
620.89	0.00
621.04	0.00
621.19	42.13
621.34	119.37
621.49	128.73
621.65	0.00
621.80	70.22
621.95	67.88
622.10	35.11
622.25	25.75
622.41	56.17
622.56	0.00
622.71	77.24
622.86	0.00
623.01	77.24
623.16	88.94
623.32	65.54
623.47	86.60
623.62	88.94
623.77	60.85
623.92	0.00
624.07	56.17
624.23	84.26
624.38	49.15
624.53	98.30
624.68	2.34
624.83	63.19
624.98	37.45
625.13	0.00
625.29	7.02
625.44	53.83
625.59	16.38
625.74	63.19
625.89	56.17
626.04	77.24
626.19	60.85
626.34	102.98
626.49	110.01
626.65	42.13
626.80	60.85
626.95	77.24
627.10	44.47
627.25	0.00
627.40	7.02
627.55	44.47
627.70	74.90
627.85	7.02
628.00	56.17
628.15	95.96
628.30	65.54
628.45	0.00
628.60	0.00
628.76	30.43
628.91	18.72
629.06	98.30
629.21	79.58
629.36	117.03
629.51	25.75
629.66	107.66
629.81	39.79
629.96	56.17
630.11	44.47
630.26	105.32
630.41	74.90
630.56	23.41
630.71	28.09
630.86	25.75
631.01	23.41
631.16	37.45
631.31	67.88
631.46	0.00
631.61	42.13
631.76	63.19
631.91	21.06
632.06	9.36
632.21	18.72
632.36	0.00
632.51	21.06
632.66	49.15
632.81	81.92
632.96	67.88
633.10	42.13
633.25	0.00
633.40	0.00
633.55	46.81
633.70	23.41
633.85	18.72
634.00	0.00
634.15	86.60
634.30	4.68
634.45	70.22
634.60	35.11
634.75	4.68
634.90	42.13
635.05	42.13
635.19	53.83
635.34	7.02
635.49	2.34
635.64	0.00
635.79	42.13
635.94	56.17
636.09	44.47
636.24	56.17
636.39	35.11
636.53	18.72
636.68	0.00
636.83	0.00
636.98	0.00
637.13	49.15
637.28	30.43
637.43	18.72
637.57	4.68
637.72	159.16
637.87	9.36
638.02	114.69
638.17	42.13
638.32	67.88
638.46	88.94
638.61	58.51
638.76	65.54
638.91	110.01
639.06	11.70
639.20	93.62
639.35	79.58
639.50	84.26
639.65	21.06
639.80	44.47
639.94	102.98
640.09	65.54
640.24	107.66
640.39	39.79
640.54	63.19
640.68	28.09
640.83	30.43
640.98	28.09
641.13	35.11
641.27	16.38
641.42	0.00
641.57	65.54
641.72	70.22
641.86	77.24
642.01	0.00
642.16	7.02
642.31	53.83
642.45	0.00
642.60	86.60
642.75	77.24
642.90	42.13
643.04	0.00
643.19	25.75
643.34	2.34
643.48	133.41
643.63	53.83
643.78	39.79
643.93	7.02
644.07	7.02
644.22	4.68
644.37	42.13
644.51	44.47
644.66	23.41
644.81	14.04
644.95	0.00
645.10	30.43
645.25	49.15
645.39	67.88
645.54	72.56
645.69	88.94
645.83	9.36
645.98	0.00
646.13	7.02
646.27	23.41
646.42	9.36
646.57	0.00
646.71	63.19
646.86	0.00
647.00	28.09
647.15	37.45
647.30	23.41
647.44	39.79
647.59	79.58
647.74	28.09
647.88	51.49
648.03	0.00
648.17	30.43
648.32	53.83
648.47	53.83
648.61	74.90
648.76	65.54
648.90	0.00
649.05	93.62
649.20	23.41
649.34	25.75
649.49	86.60
649.63	0.00
649.78	21.06
649.92	39.79
650.07	63.19
650.21	23.41
650.36	77.24
650.51	100.64
650.65	77.24
650.80	67.88
650.94	11.70
651.09	0.00
651.23	14.04
651.38	74.90
651.52	60.85
651.67	23.41
651.81	53.83
651.96	11.70
652.10	2.34
652.25	4.68
652.39	28.09
652.54	58.51
652.68	35.11
652.83	56.17
652.97	56.17
653.12	60.85
653.26	37.45
653.41	58.51
653.55	14.04
653.70	67.88
653.84	0.00
653.99	0.00
654.13	0.00
654.27	49.15
654.42	0.00
654.56	4.68
654.71	39.79
654.85	84.26
655.00	67.88
655.14	2.34
655.29	14.04
655.43	35.11
655.57	86.60
655.72	2.34
655.86	16.38
656.01	32.77
656.15	70.22
656.30	0.00
656.44	23.41
656.58	81.92
656.73	0.00
656.87	58.51
657.01	86.60
657.16	7.02
657.30	0.00
657.45	0.00
657.59	0.00
657.73	0.00
657.88	35.11
658.02	0.00
658.16	0.00
658.31	0.00
658.45	65.54
658.60	7.02
658.74	16.38
658.88	70.22
659.03	2.34
659.17	63.19
659.31	30.43
659.46	0.00
659.60	72.56
659.74	42.13
659.89	72.56
660.03	18.72
660.17	63.19
660.32	14.04
660.46	35.11
660.60	25.75
660.74	25.75
660.89	0.00
661.03	0.00
661.17	58.51
661.32	32.77
661.46	60.85
661.60	63.19
661.74	0.00
661.89	0.00
662.03	18.72
662.17	14.04
662.31	14.04
662.46	77.24
662.60	0.00
662.74	77.24
662.88	4.68
663.03	28.09
663.17	53.83
663.31	0.00
663.45	7.02
663.60	39.79
663.74	0.00
663.88	70.22
664.02	67.88
664.17	7.02
664.31	0.00
664.45	18.72
664.59	63.19
664.73	79.58
664.88	0.00
665.02	67.88
665.16	23.41
665.30	18.72
665.44	32.77
665.59	18.72
665.73	14.04
665.87	49.15
666.01	28.09
666.15	39.79
666.29	44.47
666.44	0.00
666.58	30.43
666.72	51.49
666.86	67.88
667.00	14.04
667.14	0.00
667.28	88.94
667.43	35.11
667.57	91.28
667.71	107.66
667.85	56.17
667.99	0.00
668.13	49.15
668.27	58.51
668.41	49.15
668.56	11.70
668.70	81.92
668.84	46.81
668.98	23.41
669.12	16.38
669.26	32.77
669.40	77.24
669.54	60.85
669.68	39.79
669.82	0.00
669.96	49.15
670.10	0.00
670.25	86.60
670.39	58.51
670.53	2.34
670.67	65.54
670.81	37.45
670.95	11.70
671.09	0.00
671.23	0.00
671.37	0.00
671.51	56.17
671.65	72.56
671.79	72.56
671.93	81.92
672.07	112.35
672.21	23.41
672.35	42.13
672.49	30.43
672.63	18.72
672.77	0.00
672.91	53.83
673.05	124.05
673.19	67.88
673.33	2.34
673.47	21.06
673.61	67.88
673.75	65.54
673.89	18.72
674.03	51.49
674.17	67.88
674.31	4.68
674.45	30.43
674.59	35.11
674.73	7.02
674.87	0.00
675.01	0.00
675.15	0.00
675.29	37.45
675.43	60.85
675.56	37.45
675.70	35.11
675.84	2.34
675.98	86.60
676.12	72.56
676.26	91.28
676.40	56.17
676.54	35.11
676.68	25.75
676.82	56.17
676.96	35.11
677.10	100.64
677.23	39.79
677.37	138.09
677.51	9.36
677.65	72.56
677.79	67.88
677.93	0.00
678.07	0.00
678.21	72.56
678.34	58.51
678.48	4.68
678.62	37.45
678.76	16.38
678.90	56.17
679.04	46.81
679.18	30.43
679.31	49.15
679.45	4.68
679.59	56.17
679.73	0.00
679.87	0.00
680.00	88.94
680.14	14.04
680.28	39.79
680.42	0.00
680.56	65.54
680.70	23.41
680.83	32.77
680.97	65.54
681.11	49.15
681.25	56.17
681.39	7.02
681.52	67.88
681.66	0.00
681.80	53.83
681.94	72.56
682.07	65.54
682.21	42.13
682.35	42.13
682.49	81.92
682.62	77.24
682.76	51.49
682.90	51.49
683.04	0.00
683.17	32.77
683.31	0.00
683.45	0.00
683.59	0.00
683.72	0.00
683.86	44.47
684.00	77.24
684.13	44.47
684.27	100.64
684.41	60.85
684.55	0.00
684.68	28.09
684.82	16.38
684.96	35.11
685.09	112.35
685.23	63.19
685.37	0.00
685.50	0.00
685.64	30.43
685.78	32.77
685.91	0.00
686.05	51.49
686.19	63.19
686.32	11.70
686.46	16.38
686.60	58.51
686.73	37.45
686.87	14.04
687.01	0.00
687.14	0.00
687.28	30.43
687.42	63.19
687.55	0.00
687.69	0.00
687.82	28.09
687.96	16.38
688.10	51.49
688.23	44.47
688.37	9.36
688.50	4.68
688.64	77.24
688.78	14.04
688.91	28.09
689.05	28.09
689.18	37.45
689.32	91.28
689.46	112.35
689.59	7.02
689.73	0.00
689.86	39.79
690.00	63.19
690.13	58.51
690.27	23.41
690.41	4.68
690.54	0.00
690.68	0.00
690.81	21.06
690.95	49.15
691.08	53.83
691.22	30.43
691.35	28.09
691.49	77.24
691.62	46.81
691.76	100.64
691.89	0.00
692.03	23.41
692.16	93.62
692.30	65.54
692.43	32.77
692.57	30.43
692.70	93.62
692.84	0.00
692.97	18.72
693.11	0.00
693.24	14.04
693.38	0.00
693.51	30.43
693.65	35.11
693.78	77.24
693.92	88.94
694.05	0.00
694.19	25.75
694.32	0.00
694.45	35.11
694.59	58.51
694.72	25.75
694.86	18.72
694.99	0.00
695.13	37.45
695.26	0.00
695.39	0.00
695.53	49.15
695.66	0.00
695.80	14.04
695.93	0.00
696.07	30.43
696.20	30.43
696.33	0.00
696.47	4.68
696.60	0.00
696.73	65.54
696.87	0.00
697.00	72.56
697.14	79.58
697.27	28.09
697.40	2.34
697.54	4.68
697.67	0.00
697.80	44.47
697.94	0.00
698.07	0.00
698.21	117.03
698.34	49.15
698.47	65.54
698.61	44.47
698.74	121.71
698.87	0.00
699.01	28.09
699.14	0.00
699.27	4.68
699.40	0.00
699.54	56.17
699.67	0.00
699.80	0.00
699.94	37.45
700.07	46.81
700.20	37.45
700.34	74.90
700.47	18.72
700.60	65.54
700.73	21.06
700.87	37.45
701.00	56.17
701.13	56.17
701.26	49.15
701.40	25.75
701.53	98.30
701.66	35.11
701.79	117.03
701.93	4.68
702.06	70.22
702.19	65.54
702.32	4.68
702.46	0.00
702.59	39.79
702.72	14.04
702.85	37.45
702.99	67.88
703.12	42.13
703.25	16.38
703.38	74.90
703.51	84.26
703.65	60.85
703.78	91.28
703.91	30.43
704.04	42.13
704.17	0.00
704.31	63.19
704.44	0.00
704.57	0.00
704.70	56.17
704.83	0.00
704.96	0.00
705.10	9.36
705.23	28.09
>>>>>End Processed Spectral Data<<<<<
