SpectraSuite Data File
++++++++++++++++++++++++++++++++++++
Date: Fri Oct 04 12:13:25 GMT-05:00 2013
User: price-jones
Dark Spectrum Present: No
Reference Spectrum Present: No
Number of Sampled Component Spectra: 1
Spectrometers: USB2+H05261
Integration Time (usec): 10000 (USB2+H05261)
Spectra Averaged: 1 (USB2+H05261)
Boxcar Smoothing: 0 (USB2+H05261)
Correct for Electrical Dark: No (USB2+H05261)
Strobe/Lamp Enabled: No (USB2+H05261)
Correct for Detector Non-linearity: No (USB2+H05261)
Correct for Stray Light: No (USB2+H05261)
Number of Pixels in Processed Spectrum: 2048
>>>>>Begin Processed Spectral Data<<<<<
365.73	0.00
365.92	0.00
366.12	0.00
366.32	0.00
366.52	0.00
366.72	0.00
366.91	0.00
367.11	0.00
367.31	0.00
367.51	0.00
367.70	0.00
367.90	0.00
368.10	0.00
368.30	0.00
368.49	0.00
368.69	0.00
368.89	0.00
369.09	0.00
369.28	0.00
369.48	0.00
369.68	0.00
369.87	21.06
370.07	0.00
370.27	0.00
370.47	0.00
370.66	0.00
370.86	0.00
371.06	0.00
371.25	0.00
371.45	0.00
371.65	0.00
371.84	14.04
372.04	0.00
372.24	0.00
372.44	0.00
372.63	39.79
372.83	0.00
373.03	51.49
373.22	0.00
373.42	23.41
373.62	11.70
373.81	65.54
374.01	0.00
374.21	51.49
374.40	32.77
374.60	100.64
374.79	23.41
374.99	4.68
375.19	0.00
375.38	39.79
375.58	35.11
375.78	9.36
375.97	21.06
376.17	49.15
376.37	21.06
376.56	21.06
376.76	25.75
376.95	0.00
377.15	9.36
377.35	53.83
377.54	25.75
377.74	30.43
377.93	30.43
378.13	42.13
378.33	98.30
378.52	110.01
378.72	32.77
378.91	30.43
379.11	91.28
379.31	32.77
379.50	11.70
379.70	14.04
379.89	4.68
380.09	46.81
380.28	0.00
380.48	42.13
380.68	16.38
380.87	28.09
381.07	32.77
381.26	74.90
381.46	11.70
381.65	65.54
381.85	65.54
382.04	0.00
382.24	18.72
382.43	42.13
382.63	14.04
382.83	0.00
383.02	21.06
383.22	28.09
383.41	0.00
383.61	42.13
383.80	0.00
384.00	0.00
384.19	18.72
384.39	58.51
384.58	0.00
384.78	63.19
384.97	35.11
385.17	4.68
385.36	11.70
385.56	0.00
385.75	0.00
385.95	51.49
386.14	58.51
386.34	0.00
386.53	39.79
386.72	74.90
386.92	39.79
387.11	35.11
387.31	35.11
387.50	28.09
387.70	28.09
387.89	32.77
388.09	0.00
388.28	39.79
388.48	67.88
388.67	23.41
388.86	74.90
389.06	0.00
389.25	0.00
389.45	51.49
389.64	7.02
389.84	30.43
390.03	0.00
390.22	21.06
390.42	0.00
390.61	9.36
390.81	0.00
391.00	70.22
391.19	18.72
391.39	0.00
391.58	11.70
391.78	86.60
391.97	56.17
392.16	0.00
392.36	0.00
392.55	4.68
392.75	14.04
392.94	0.00
393.13	0.00
393.33	0.00
393.52	7.02
393.71	53.83
393.91	0.00
394.10	0.00
394.29	32.77
394.49	46.81
394.68	21.06
394.88	46.81
395.07	30.43
395.26	14.04
395.46	77.24
395.65	0.00
395.84	7.02
396.04	46.81
396.23	0.00
396.42	16.38
396.62	18.72
396.81	0.00
397.00	25.75
397.19	32.77
397.39	30.43
397.58	23.41
397.77	0.00
397.97	37.45
398.16	53.83
398.35	0.00
398.55	67.88
398.74	0.00
398.93	32.77
399.12	44.47
399.32	4.68
399.51	0.00
399.70	44.47
399.90	14.04
400.09	30.43
400.28	0.00
400.47	0.00
400.67	0.00
400.86	37.45
401.05	58.51
401.24	65.54
401.44	0.00
401.63	51.49
401.82	21.06
402.01	0.00
402.21	56.17
402.40	0.00
402.59	35.11
402.78	25.75
402.97	30.43
403.17	0.00
403.36	39.79
403.55	37.45
403.74	0.00
403.93	32.77
404.13	72.56
404.32	25.75
404.51	67.88
404.70	28.09
404.89	0.00
405.09	32.77
405.28	0.00
405.47	21.06
405.66	37.45
405.85	0.00
406.05	0.00
406.24	79.58
406.43	37.45
406.62	63.19
406.81	21.06
407.00	0.00
407.20	0.00
407.39	65.54
407.58	72.56
407.77	2.34
407.96	67.88
408.15	79.58
408.34	0.00
408.54	0.00
408.73	49.15
408.92	0.00
409.11	39.79
409.30	37.45
409.49	0.00
409.68	0.00
409.87	16.38
410.07	0.00
410.26	44.47
410.45	56.17
410.64	0.00
410.83	25.75
411.02	46.81
411.21	44.47
411.40	4.68
411.59	119.37
411.78	126.39
411.98	63.19
412.17	0.00
412.36	30.43
412.55	0.00
412.74	65.54
412.93	0.00
413.12	35.11
413.31	51.49
413.50	44.47
413.69	56.17
413.88	65.54
414.07	56.17
414.26	58.51
414.45	35.11
414.64	0.00
414.83	79.58
415.02	9.36
415.22	44.47
415.41	65.54
415.60	79.58
415.79	0.00
415.98	110.01
416.17	63.19
416.36	0.00
416.55	18.72
416.74	0.00
416.93	0.00
417.12	46.81
417.31	81.92
417.50	51.49
417.69	0.00
417.88	32.77
418.07	0.00
418.26	2.34
418.45	42.13
418.64	39.79
418.83	49.15
419.02	65.54
419.21	18.72
419.39	0.00
419.58	77.24
419.77	0.00
419.96	35.11
420.15	0.00
420.34	9.36
420.53	63.19
420.72	0.00
420.91	0.00
421.10	70.22
421.29	28.09
421.48	0.00
421.67	18.72
421.86	49.15
422.05	18.72
422.24	28.09
422.43	112.35
422.61	0.00
422.80	77.24
422.99	60.85
423.18	44.47
423.37	56.17
423.56	0.00
423.75	58.51
423.94	53.83
424.13	0.00
424.32	0.00
424.50	44.47
424.69	44.47
424.88	72.56
425.07	60.85
425.26	42.13
425.45	56.17
425.64	11.70
425.83	32.77
426.01	95.96
426.20	23.41
426.39	51.49
426.58	0.00
426.77	4.68
426.96	91.28
427.15	32.77
427.33	51.49
427.52	18.72
427.71	0.00
427.90	35.11
428.09	70.22
428.28	16.38
428.46	0.00
428.65	0.00
428.84	23.41
429.03	37.45
429.22	79.58
429.40	23.41
429.59	2.34
429.78	7.02
429.97	0.00
430.16	0.00
430.34	11.70
430.53	28.09
430.72	79.58
430.91	14.04
431.10	9.36
431.28	9.36
431.47	49.15
431.66	56.17
431.85	37.45
432.03	98.30
432.22	107.66
432.41	95.96
432.60	28.09
432.79	53.83
432.97	117.03
433.16	30.43
433.35	67.88
433.54	28.09
433.72	0.00
433.91	2.34
434.10	102.98
434.28	49.15
434.47	79.58
434.66	39.79
434.85	0.00
435.03	0.00
435.22	65.54
435.41	0.00
435.59	35.11
435.78	67.88
435.97	63.19
436.16	53.83
436.34	79.58
436.53	35.11
436.72	9.36
436.90	86.60
437.09	16.38
437.28	51.49
437.46	79.58
437.65	42.13
437.84	67.88
438.02	46.81
438.21	0.00
438.40	28.09
438.58	0.00
438.77	23.41
438.96	0.00
439.14	0.00
439.33	0.00
439.52	30.43
439.70	0.00
439.89	37.45
440.08	11.70
440.26	4.68
440.45	4.68
440.63	0.00
440.82	63.19
441.01	37.45
441.19	0.00
441.38	18.72
441.57	0.00
441.75	4.68
441.94	11.70
442.12	42.13
442.31	4.68
442.50	23.41
442.68	114.69
442.87	74.90
443.05	25.75
443.24	95.96
443.43	11.70
443.61	39.79
443.80	72.56
443.98	0.00
444.17	46.81
444.35	4.68
444.54	23.41
444.73	37.45
444.91	30.43
445.10	44.47
445.28	9.36
445.47	0.00
445.65	18.72
445.84	39.79
446.02	46.81
446.21	30.43
446.39	28.09
446.58	11.70
446.77	46.81
446.95	0.00
447.14	9.36
447.32	42.13
447.51	49.15
447.69	0.00
447.88	18.72
448.06	63.19
448.25	14.04
448.43	2.34
448.62	117.03
448.80	63.19
448.99	84.26
449.17	37.45
449.36	0.00
449.54	11.70
449.73	79.58
449.91	88.94
450.10	51.49
450.28	67.88
450.46	84.26
450.65	0.00
450.83	58.51
451.02	0.00
451.20	37.45
451.39	16.38
451.57	18.72
451.76	32.77
451.94	18.72
452.13	0.00
452.31	39.79
452.49	46.81
452.68	46.81
452.86	53.83
453.05	14.04
453.23	37.45
453.42	16.38
453.60	88.94
453.78	0.00
453.97	21.06
454.15	21.06
454.34	11.70
454.52	14.04
454.70	9.36
454.89	11.70
455.07	21.06
455.26	65.54
455.44	72.56
455.62	11.70
455.81	37.45
455.99	70.22
456.17	30.43
456.36	58.51
456.54	60.85
456.73	0.00
456.91	23.41
457.09	35.11
457.28	37.45
457.46	70.22
457.64	70.22
457.83	65.54
458.01	0.00
458.19	7.02
458.38	30.43
458.56	53.83
458.74	11.70
458.93	84.26
459.11	9.36
459.29	74.90
459.48	0.00
459.66	42.13
459.84	49.15
460.03	0.00
460.21	23.41
460.39	74.90
460.57	18.72
460.76	60.85
460.94	30.43
461.12	28.09
461.31	81.92
461.49	28.09
461.67	0.00
461.85	30.43
462.04	14.04
462.22	88.94
462.40	4.68
462.59	42.13
462.77	0.00
462.95	23.41
463.13	16.38
463.32	21.06
463.50	37.45
463.68	37.45
463.86	30.43
464.05	39.79
464.23	25.75
464.41	0.00
464.59	72.56
464.78	70.22
464.96	23.41
465.14	72.56
465.32	100.64
465.50	0.00
465.69	44.47
465.87	0.00
466.05	46.81
466.23	16.38
466.41	58.51
466.60	81.92
466.78	0.00
466.96	88.94
467.14	35.11
467.32	65.54
467.51	2.34
467.69	60.85
467.87	49.15
468.05	35.11
468.23	9.36
468.41	0.00
468.60	60.85
468.78	18.72
468.96	72.56
469.14	37.45
469.32	28.09
469.50	88.94
469.69	60.85
469.87	44.47
470.05	60.85
470.23	88.94
470.41	56.17
470.59	51.49
470.77	0.00
470.95	4.68
471.14	4.68
471.32	32.77
471.50	72.56
471.68	60.85
471.86	35.11
472.04	39.79
472.22	42.13
472.40	7.02
472.58	56.17
472.77	16.38
472.95	0.00
473.13	70.22
473.31	46.81
473.49	0.00
473.67	7.02
473.85	2.34
474.03	86.60
474.21	74.90
474.39	0.00
474.57	51.49
474.75	28.09
474.93	0.00
475.12	0.00
475.30	35.11
475.48	14.04
475.66	25.75
475.84	30.43
476.02	56.17
476.20	49.15
476.38	0.00
476.56	4.68
476.74	46.81
476.92	0.00
477.10	7.02
477.28	7.02
477.46	51.49
477.64	88.94
477.82	51.49
478.00	42.13
478.18	0.00
478.36	0.00
478.54	42.13
478.72	32.77
478.90	0.00
479.08	18.72
479.26	0.00
479.44	25.75
479.62	37.45
479.80	30.43
479.98	14.04
480.16	65.54
480.34	39.79
480.52	28.09
480.70	98.30
480.88	91.28
481.06	42.13
481.24	0.00
481.41	0.00
481.59	42.13
481.77	77.24
481.95	0.00
482.13	32.77
482.31	35.11
482.49	0.00
482.67	0.00
482.85	32.77
483.03	100.64
483.21	53.83
483.39	14.04
483.57	70.22
483.74	4.68
483.92	79.58
484.10	67.88
484.28	0.00
484.46	0.00
484.64	102.98
484.82	14.04
485.00	42.13
485.18	44.47
485.35	32.77
485.53	39.79
485.71	25.75
485.89	86.60
486.07	74.90
486.25	0.00
486.43	44.47
486.61	4.68
486.78	44.47
486.96	7.02
487.14	46.81
487.32	98.30
487.50	21.06
487.68	0.00
487.85	2.34
488.03	65.54
488.21	28.09
488.39	37.45
488.57	65.54
488.75	0.00
488.92	79.58
489.10	152.13
489.28	72.56
489.46	0.00
489.64	35.11
489.81	0.00
489.99	86.60
490.17	0.00
490.35	39.79
490.53	72.56
490.70	23.41
490.88	49.15
491.06	32.77
491.24	16.38
491.41	44.47
491.59	32.77
491.77	4.68
491.95	0.00
492.13	21.06
492.30	60.85
492.48	4.68
492.66	0.00
492.84	32.77
493.01	49.15
493.19	67.88
493.37	58.51
493.54	16.38
493.72	72.56
493.90	7.02
494.08	42.13
494.25	56.17
494.43	0.00
494.61	98.30
494.79	18.72
494.96	14.04
495.14	53.83
495.32	14.04
495.49	51.49
495.67	72.56
495.85	65.54
496.02	42.13
496.20	25.75
496.38	4.68
496.55	28.09
496.73	0.00
496.91	9.36
497.09	0.00
497.26	2.34
497.44	74.90
497.62	14.04
497.79	35.11
497.97	0.00
498.14	0.00
498.32	49.15
498.50	60.85
498.67	23.41
498.85	44.47
499.03	0.00
499.20	0.00
499.38	0.00
499.56	44.47
499.73	11.70
499.91	9.36
500.08	0.00
500.26	0.00
500.44	67.88
500.61	0.00
500.79	0.00
500.97	23.41
501.14	21.06
501.32	28.09
501.49	44.47
501.67	16.38
501.84	84.26
502.02	65.54
502.20	18.72
502.37	72.56
502.55	42.13
502.72	46.81
502.90	21.06
503.07	0.00
503.25	4.68
503.43	37.45
503.60	58.51
503.78	32.77
503.95	60.85
504.13	93.62
504.30	35.11
504.48	49.15
504.65	42.13
504.83	98.30
505.01	70.22
505.18	0.00
505.36	98.30
505.53	0.00
505.71	65.54
505.88	28.09
506.06	7.02
506.23	84.26
506.41	21.06
506.58	98.30
506.76	88.94
506.93	60.85
507.11	0.00
507.28	74.90
507.46	42.13
507.63	70.22
507.81	0.00
507.98	53.83
508.16	0.00
508.33	110.01
508.50	37.45
508.68	58.51
508.85	0.00
509.03	63.19
509.20	42.13
509.38	39.79
509.55	21.06
509.73	0.00
509.90	51.49
510.08	32.77
510.25	0.00
510.42	81.92
510.60	2.34
510.77	37.45
510.95	102.98
511.12	25.75
511.30	98.30
511.47	35.11
511.64	49.15
511.82	0.00
511.99	7.02
512.17	44.47
512.34	51.49
512.51	25.75
512.69	25.75
512.86	0.00
513.04	46.81
513.21	25.75
513.38	65.54
513.56	0.00
513.73	46.81
513.90	28.09
514.08	95.96
514.25	58.51
514.43	0.00
514.60	0.00
514.77	18.72
514.95	112.35
515.12	81.92
515.29	91.28
515.47	37.45
515.64	28.09
515.81	77.24
515.99	53.83
516.16	37.45
516.33	18.72
516.51	7.02
516.68	60.85
516.85	51.49
517.03	0.00
517.20	0.00
517.37	107.66
517.54	18.72
517.72	51.49
517.89	58.51
518.06	39.79
518.24	32.77
518.41	39.79
518.58	0.00
518.75	74.90
518.93	67.88
519.10	16.38
519.27	72.56
519.45	0.00
519.62	84.26
519.79	25.75
519.96	35.11
520.14	0.00
520.31	53.83
520.48	53.83
520.65	60.85
520.83	21.06
521.00	72.56
521.17	72.56
521.34	67.88
521.52	0.00
521.69	70.22
521.86	44.47
522.03	114.69
522.20	49.15
522.38	79.58
522.55	56.17
522.72	77.24
522.89	53.83
523.07	28.09
523.24	7.02
523.41	72.56
523.58	112.35
523.75	60.85
523.92	100.64
524.10	35.11
524.27	46.81
524.44	28.09
524.61	77.24
524.78	60.85
524.96	0.00
525.13	25.75
525.30	32.77
525.47	16.38
525.64	53.83
525.81	39.79
525.98	79.58
526.16	30.43
526.33	84.26
526.50	32.77
526.67	0.00
526.84	44.47
527.01	58.51
527.18	23.41
527.36	32.77
527.53	53.83
527.70	102.98
527.87	72.56
528.04	0.00
528.21	0.00
528.38	9.36
528.55	60.85
528.72	2.34
528.89	4.68
529.07	21.06
529.24	0.00
529.41	0.00
529.58	18.72
529.75	88.94
529.92	42.13
530.09	7.02
530.26	0.00
530.43	39.79
530.60	46.81
530.77	0.00
530.94	30.43
531.11	16.38
531.28	23.41
531.46	32.77
531.63	98.30
531.80	60.85
531.97	25.75
532.14	0.00
532.31	2.34
532.48	0.00
532.65	7.02
532.82	67.88
532.99	42.13
533.16	39.79
533.33	0.00
533.50	81.92
533.67	51.49
533.84	30.43
534.01	2.34
534.18	23.41
534.35	42.13
534.52	65.54
534.69	11.70
534.86	60.85
535.03	30.43
535.20	37.45
535.37	7.02
535.54	9.36
535.71	30.43
535.88	63.19
536.05	16.38
536.22	0.00
536.38	18.72
536.55	0.00
536.72	25.75
536.89	95.96
537.06	0.00
537.23	60.85
537.40	65.54
537.57	18.72
537.74	63.19
537.91	142.77
538.08	32.77
538.25	56.17
538.42	70.22
538.59	95.96
538.75	77.24
538.92	30.43
539.09	0.00
539.26	79.58
539.43	102.98
539.60	56.17
539.77	114.69
539.94	110.01
540.11	93.62
540.28	37.45
540.44	32.77
540.61	46.81
540.78	51.49
540.95	72.56
541.12	86.60
541.29	18.72
541.46	35.11
541.62	28.09
541.79	53.83
541.96	0.00
542.13	56.17
542.30	84.26
542.47	28.09
542.63	46.81
542.80	42.13
542.97	81.92
543.14	0.00
543.31	0.00
543.48	9.36
543.64	60.85
543.81	72.56
543.98	79.58
544.15	32.77
544.32	65.54
544.48	46.81
544.65	9.36
544.82	25.75
544.99	0.00
545.16	49.15
545.32	0.00
545.49	0.00
545.66	53.83
545.83	56.17
546.00	70.22
546.16	0.00
546.33	37.45
546.50	0.00
546.67	81.92
546.83	39.79
547.00	30.43
547.17	77.24
547.34	0.00
547.50	0.00
547.67	0.00
547.84	4.68
548.00	18.72
548.17	67.88
548.34	11.70
548.51	67.88
548.67	72.56
548.84	65.54
549.01	35.11
549.18	4.68
549.34	28.09
549.51	119.37
549.68	42.13
549.84	35.11
550.01	14.04
550.18	37.45
550.34	18.72
550.51	51.49
550.68	18.72
550.84	0.00
551.01	18.72
551.18	74.90
551.34	67.88
551.51	9.36
551.68	23.41
551.84	11.70
552.01	44.47
552.18	18.72
552.34	23.41
552.51	35.11
552.68	23.41
552.84	53.83
553.01	25.75
553.18	18.72
553.34	53.83
553.51	11.70
553.67	56.17
553.84	30.43
554.01	0.00
554.17	9.36
554.34	0.00
554.51	0.00
554.67	49.15
554.84	35.11
555.00	37.45
555.17	30.43
555.33	25.75
555.50	30.43
555.67	32.77
555.83	53.83
556.00	0.00
556.16	42.13
556.33	51.49
556.50	18.72
556.66	35.11
556.83	0.00
556.99	100.64
557.16	63.19
557.32	42.13
557.49	49.15
557.65	30.43
557.82	25.75
557.98	46.81
558.15	42.13
558.32	51.49
558.48	0.00
558.65	86.60
558.81	42.13
558.98	58.51
559.14	23.41
559.31	88.94
559.47	0.00
559.64	28.09
559.80	63.19
559.97	72.56
560.13	39.79
560.30	114.69
560.46	37.45
560.63	39.79
560.79	32.77
560.96	0.00
561.12	46.81
561.29	32.77
561.45	9.36
561.61	65.54
561.78	2.34
561.94	46.81
562.11	72.56
562.27	56.17
562.44	39.79
562.60	60.85
562.77	0.00
562.93	65.54
563.10	23.41
563.26	70.22
563.42	28.09
563.59	14.04
563.75	42.13
563.92	42.13
564.08	93.62
564.24	4.68
564.41	65.54
564.57	35.11
564.74	72.56
564.90	51.49
565.07	4.68
565.23	28.09
565.39	30.43
565.56	39.79
565.72	44.47
565.88	28.09
566.05	100.64
566.21	72.56
566.38	60.85
566.54	0.00
566.70	42.13
566.87	77.24
567.03	0.00
567.19	14.04
567.36	72.56
567.52	86.60
567.68	53.83
567.85	32.77
568.01	86.60
568.17	72.56
568.34	9.36
568.50	56.17
568.66	0.00
568.83	51.49
568.99	46.81
569.15	18.72
569.32	58.51
569.48	11.70
569.64	11.70
569.81	49.15
569.97	56.17
570.13	74.90
570.30	14.04
570.46	30.43
570.62	56.17
570.78	30.43
570.95	4.68
571.11	4.68
571.27	84.26
571.43	28.09
571.60	51.49
571.76	42.13
571.92	112.35
572.09	74.90
572.25	88.94
572.41	35.11
572.57	30.43
572.74	60.85
572.90	74.90
573.06	21.06
573.22	60.85
573.38	81.92
573.55	0.00
573.71	23.41
573.87	42.13
574.03	32.77
574.20	67.88
574.36	2.34
574.52	0.00
574.68	65.54
574.84	42.13
575.01	60.85
575.17	0.00
575.33	30.43
575.49	70.22
575.65	67.88
575.82	0.00
575.98	56.17
576.14	67.88
576.30	72.56
576.46	42.13
576.62	16.38
576.79	28.09
576.95	42.13
577.11	30.43
577.27	70.22
577.43	4.68
577.59	0.00
577.75	0.00
577.92	0.00
578.08	30.43
578.24	0.00
578.40	37.45
578.56	14.04
578.72	58.51
578.88	86.60
579.04	7.02
579.21	53.83
579.37	0.00
579.53	0.00
579.69	65.54
579.85	0.00
580.01	39.79
580.17	0.00
580.33	14.04
580.49	0.00
580.65	16.38
580.82	32.77
580.98	0.00
581.14	51.49
581.30	2.34
581.46	53.83
581.62	72.56
581.78	81.92
581.94	35.11
582.10	86.60
582.26	0.00
582.42	7.02
582.58	58.51
582.74	49.15
582.90	46.81
583.06	77.24
583.22	44.47
583.38	0.00
583.54	70.22
583.70	42.13
583.86	119.37
584.02	2.34
584.18	67.88
584.34	119.37
584.50	74.90
584.66	660.03
584.82	1853.70
584.98	3265.05
585.14	3358.67
585.30	2026.90
585.46	1188.99
585.62	784.08
585.78	360.44
585.94	149.79
586.10	35.11
586.26	49.15
586.42	84.26
586.58	11.70
586.74	112.35
586.90	84.26
587.06	25.75
587.22	35.11
587.38	65.54
587.54	95.96
587.70	227.03
587.86	308.95
588.02	301.93
588.18	184.90
588.34	138.09
588.49	105.32
588.65	93.62
588.81	98.30
588.97	91.28
589.13	28.09
589.29	72.56
589.45	35.11
589.61	86.60
589.77	28.09
589.93	79.58
590.08	95.96
590.24	46.81
590.40	4.68
590.56	63.19
590.72	39.79
590.88	95.96
591.04	28.09
591.20	30.43
591.35	49.15
591.51	0.00
591.67	37.45
591.83	25.75
591.99	86.60
592.15	21.06
592.31	0.00
592.46	65.54
592.62	63.19
592.78	35.11
592.94	28.09
593.10	60.85
593.26	60.85
593.41	30.43
593.57	88.94
593.73	18.72
593.89	149.79
594.05	325.33
594.20	433.00
594.36	538.32
594.52	341.72
594.68	180.22
594.84	110.01
594.99	88.94
595.15	56.17
595.31	0.00
595.47	0.00
595.62	44.47
595.78	65.54
595.94	4.68
596.10	51.49
596.25	105.32
596.41	98.30
596.57	35.11
596.73	4.68
596.88	67.88
597.04	77.24
597.20	74.90
597.36	110.01
597.51	114.69
597.67	88.94
597.83	86.60
597.99	30.43
598.14	25.75
598.30	86.60
598.46	46.81
598.61	81.92
598.77	77.24
598.93	112.35
599.09	16.38
599.24	16.38
599.40	44.47
599.56	49.15
599.71	37.45
599.87	0.00
600.03	0.00
600.18	32.77
600.34	117.03
600.50	0.00
600.65	18.72
600.81	65.54
600.97	42.13
601.12	35.11
601.28	95.96
601.44	53.83
601.59	79.58
601.75	18.72
601.91	56.17
602.06	51.49
602.22	58.51
602.37	0.00
602.53	112.35
602.69	191.92
602.84	198.95
603.00	191.92
603.16	135.75
603.31	128.73
603.47	0.00
603.62	0.00
603.78	23.41
603.94	7.02
604.09	23.41
604.25	2.34
604.40	110.01
604.56	49.15
604.71	16.38
604.87	37.45
605.03	0.00
605.18	53.83
605.34	46.81
605.49	4.68
605.65	131.07
605.80	35.11
605.96	0.00
606.12	53.83
606.27	0.00
606.43	79.58
606.58	107.66
606.74	72.56
606.89	140.43
607.05	332.36
607.20	451.72
607.36	341.72
607.51	208.31
607.67	124.05
607.82	145.11
607.98	86.60
608.13	65.54
608.29	60.85
608.44	44.47
608.60	56.17
608.75	70.22
608.91	102.98
609.06	180.22
609.22	472.79
609.37	690.46
609.53	615.56
609.68	435.34
609.84	262.14
609.99	140.43
610.15	35.11
610.30	37.45
610.46	63.19
610.61	65.54
610.76	42.13
610.92	39.79
611.07	28.09
611.23	21.06
611.38	9.36
611.54	51.49
611.69	28.09
611.84	49.15
612.00	0.00
612.15	32.77
612.31	84.26
612.46	117.03
612.62	105.32
612.77	63.19
612.92	37.45
613.08	58.51
613.23	0.00
613.39	30.43
613.54	14.04
613.69	159.16
613.85	507.90
614.00	835.57
614.15	1090.69
614.31	802.80
614.46	521.94
614.62	299.59
614.77	238.73
614.92	152.13
615.08	37.45
615.23	37.45
615.38	105.32
615.54	37.45
615.69	7.02
615.84	100.64
616.00	269.16
616.15	285.55
616.30	198.95
616.46	163.84
616.61	140.43
616.76	67.88
616.92	32.77
617.07	9.36
617.22	11.70
617.37	77.24
617.53	53.83
617.68	74.90
617.83	93.62
617.99	25.75
618.14	23.41
618.29	138.09
618.45	51.49
618.60	28.09
618.75	14.04
618.90	14.04
619.06	9.36
619.21	42.13
619.36	18.72
619.51	65.54
619.67	14.04
619.82	86.60
619.97	25.75
620.12	49.15
620.28	32.77
620.43	51.49
620.58	35.11
620.73	39.79
620.89	28.09
621.04	46.81
621.19	98.30
621.34	140.43
621.49	191.92
621.65	124.05
621.80	93.62
621.95	14.04
622.10	77.24
622.25	86.60
622.41	32.77
622.56	58.51
622.71	18.72
622.86	21.06
623.01	11.70
623.16	70.22
623.32	23.41
623.47	93.62
623.62	44.47
623.77	0.00
623.92	0.00
624.07	16.38
624.23	0.00
624.38	0.00
624.53	0.00
624.68	88.94
624.83	37.45
624.98	21.06
625.13	67.88
625.29	39.79
625.44	53.83
625.59	49.15
625.74	0.00
625.89	56.17
626.04	112.35
626.19	243.42
626.34	444.70
626.49	660.03
626.65	407.25
626.80	306.61
626.95	180.22
627.10	156.82
627.25	77.24
627.40	91.28
627.55	107.66
627.70	63.19
627.85	46.81
628.00	105.32
628.15	44.47
628.30	51.49
628.45	65.54
628.60	18.72
628.76	37.45
628.91	107.66
629.06	23.41
629.21	81.92
629.36	25.75
629.51	35.11
629.66	0.00
629.81	0.00
629.96	60.85
630.11	95.96
630.26	147.45
630.41	128.73
630.56	128.73
630.71	56.17
630.86	0.00
631.01	72.56
631.16	11.70
631.31	67.88
631.46	2.34
631.61	63.19
631.76	42.13
631.91	53.83
632.06	0.00
632.21	11.70
632.36	32.77
632.51	53.83
632.66	25.75
632.81	18.72
632.96	126.39
633.10	346.40
633.25	402.57
633.40	376.83
633.55	182.56
633.70	229.37
633.85	173.20
634.00	114.69
634.15	18.72
634.30	79.58
634.45	32.77
634.60	79.58
634.75	0.00
634.90	37.45
635.05	21.06
635.19	58.51
635.34	37.45
635.49	35.11
635.64	14.04
635.79	18.72
635.94	21.06
636.09	0.00
636.24	32.77
636.39	21.06
636.53	28.09
636.68	63.19
636.83	88.94
636.98	100.64
637.13	72.56
637.28	14.04
637.43	60.85
637.57	100.64
637.72	152.13
637.87	304.27
638.02	505.56
638.17	674.07
638.32	566.41
638.46	409.59
638.61	306.61
638.76	138.09
638.91	14.04
639.06	39.79
639.20	0.00
639.35	49.15
639.50	51.49
639.65	156.82
639.80	437.68
639.94	880.04
640.09	1179.63
640.24	854.30
640.39	568.75
640.54	402.57
640.68	266.82
640.83	170.86
640.98	145.11
641.13	32.77
641.27	16.38
641.42	25.75
641.57	107.66
641.72	65.54
641.86	25.75
642.01	0.00
642.16	7.02
642.31	42.13
642.45	63.19
642.60	72.56
642.75	35.11
642.90	32.77
643.04	63.19
643.19	74.90
643.34	42.13
643.48	28.09
643.63	0.00
643.78	30.43
643.93	74.90
644.07	88.94
644.22	28.09
644.37	84.26
644.51	51.49
644.66	58.51
644.81	0.00
644.95	98.30
645.10	70.22
645.25	53.83
645.39	0.00
645.54	58.51
645.69	0.00
645.83	0.00
645.98	77.24
646.13	0.00
646.27	58.51
646.42	53.83
646.57	74.90
646.71	49.15
646.86	35.11
647.00	21.06
647.15	28.09
647.30	53.83
647.44	51.49
647.59	21.06
647.74	7.02
647.88	0.00
648.03	49.15
648.17	32.77
648.32	30.43
648.47	23.41
648.61	81.92
648.76	0.00
648.90	51.49
649.05	35.11
649.20	44.47
649.34	0.00
649.49	32.77
649.63	51.49
649.78	32.77
649.92	0.00
650.07	67.88
650.21	189.58
650.36	393.21
650.51	674.07
650.65	582.79
650.80	348.74
650.94	229.37
651.09	180.22
651.23	32.77
651.38	51.49
651.52	86.60
651.67	65.54
651.81	58.51
651.96	79.58
652.10	0.00
652.25	0.00
652.39	9.36
652.54	56.17
652.68	74.90
652.83	105.32
652.97	161.50
653.12	210.65
653.26	187.24
653.41	166.18
653.55	117.03
653.70	77.24
653.84	28.09
653.99	11.70
654.13	74.90
654.27	58.51
654.42	79.58
654.56	98.30
654.71	49.15
654.85	121.71
655.00	72.56
655.14	63.19
655.29	70.22
655.43	0.00
655.57	42.13
655.72	63.19
655.86	77.24
656.01	0.00
656.15	86.60
656.30	46.81
656.44	0.00
656.58	0.00
656.73	0.00
656.87	0.00
657.01	16.38
657.16	60.85
657.30	0.00
657.45	72.56
657.59	9.36
657.73	58.51
657.88	28.09
658.02	56.17
658.16	56.17
658.31	21.06
658.45	63.19
658.60	18.72
658.74	67.88
658.88	65.54
659.03	16.38
659.17	53.83
659.31	51.49
659.46	98.30
659.60	170.86
659.74	341.72
659.89	285.55
660.03	152.13
660.17	84.26
660.32	39.79
660.46	60.85
660.60	53.83
660.74	0.00
660.89	0.00
661.03	86.60
661.17	74.90
661.32	7.02
661.46	16.38
661.60	28.09
661.74	4.68
661.89	72.56
662.03	51.49
662.17	72.56
662.31	4.68
662.46	98.30
662.60	30.43
662.74	44.47
662.88	86.60
663.03	0.00
663.17	51.49
663.31	58.51
663.45	11.70
663.60	0.00
663.74	23.41
663.88	72.56
664.02	7.02
664.17	0.00
664.31	86.60
664.45	88.94
664.59	81.92
664.73	65.54
664.88	44.47
665.02	14.04
665.16	14.04
665.30	18.72
665.44	95.96
665.59	21.06
665.73	37.45
665.87	35.11
666.01	0.00
666.15	16.38
666.29	53.83
666.44	23.41
666.58	25.75
666.72	0.00
666.86	53.83
667.00	21.06
667.14	35.11
667.28	67.88
667.43	152.13
667.57	315.97
667.71	519.60
667.85	442.36
667.99	322.99
668.13	194.26
668.27	184.90
668.41	60.85
668.56	18.72
668.70	0.00
668.84	56.17
668.98	51.49
669.12	72.56
669.26	35.11
669.40	30.43
669.54	11.70
669.68	105.32
669.82	0.00
669.96	49.15
670.10	63.19
670.25	37.45
670.39	93.62
670.53	23.41
670.67	4.68
670.81	56.17
670.95	4.68
671.09	60.85
671.23	74.90
671.37	133.41
671.51	287.89
671.65	278.52
671.79	285.55
671.93	224.69
672.07	72.56
672.21	44.47
672.35	18.72
672.49	95.96
672.63	65.54
672.77	14.04
672.91	51.49
673.05	30.43
673.19	0.00
673.33	44.47
673.47	7.02
673.61	21.06
673.75	0.00
673.89	35.11
674.03	7.02
674.17	16.38
674.31	7.02
674.45	37.45
674.59	37.45
674.73	46.81
674.87	126.39
675.01	88.94
675.15	84.26
675.29	67.88
675.43	14.04
675.56	86.60
675.70	37.45
675.84	72.56
675.98	25.75
676.12	16.38
676.26	37.45
676.40	32.77
676.54	49.15
676.68	30.43
676.82	42.13
676.96	0.00
677.10	56.17
677.23	53.83
677.37	0.00
677.51	0.00
677.65	88.94
677.79	2.34
677.93	18.72
678.07	21.06
678.21	14.04
678.34	32.77
678.48	42.13
678.62	0.00
678.76	35.11
678.90	42.13
679.04	88.94
679.18	2.34
679.31	70.22
679.45	72.56
679.59	42.13
679.73	0.00
679.87	11.70
680.00	51.49
680.14	63.19
680.28	53.83
680.42	21.06
680.56	58.51
680.70	28.09
680.83	35.11
680.97	0.00
681.11	30.43
681.25	84.26
681.39	51.49
681.52	42.13
681.66	0.00
681.80	67.88
681.94	53.83
682.07	28.09
682.21	53.83
682.35	30.43
682.49	30.43
682.62	0.00
682.76	18.72
682.90	14.04
683.04	74.90
683.17	53.83
683.31	28.09
683.45	67.88
683.59	32.77
683.72	81.92
683.86	35.11
684.00	51.49
684.13	56.17
684.27	35.11
684.41	53.83
684.55	67.88
684.68	30.43
684.82	0.00
684.96	70.22
685.09	35.11
685.23	74.90
685.37	14.04
685.50	0.00
685.64	51.49
685.78	4.68
685.91	79.58
686.05	18.72
686.19	100.64
686.32	56.17
686.46	91.28
686.60	30.43
686.73	0.00
686.87	67.88
687.01	0.00
687.14	18.72
687.28	0.00
687.42	9.36
687.55	102.98
687.69	35.11
687.82	25.75
687.96	23.41
688.10	0.00
688.23	77.24
688.37	28.09
688.50	28.09
688.64	0.00
688.78	14.04
688.91	46.81
689.05	63.19
689.18	37.45
689.32	30.43
689.46	70.22
689.59	58.51
689.73	70.22
689.86	7.02
690.00	86.60
690.13	2.34
690.27	131.07
690.41	0.00
690.54	0.00
690.68	67.88
690.81	70.22
690.95	84.26
691.08	30.43
691.22	7.02
691.35	9.36
691.49	0.00
691.62	11.70
691.76	30.43
691.89	2.34
692.03	0.00
692.16	14.04
692.30	0.00
692.43	51.49
692.57	42.13
692.70	133.41
692.84	191.92
692.97	205.97
693.11	248.10
693.24	131.07
693.38	37.45
693.51	95.96
693.65	53.83
693.78	131.07
693.92	32.77
694.05	88.94
694.19	53.83
694.32	35.11
694.45	67.88
694.59	0.00
694.72	37.45
694.86	35.11
694.99	0.00
695.13	25.75
695.26	0.00
695.39	88.94
695.53	77.24
695.66	35.11
695.80	98.30
695.93	0.00
696.07	0.00
696.20	63.19
696.33	0.00
696.47	72.56
696.60	21.06
696.73	23.41
696.87	16.38
697.00	11.70
697.14	49.15
697.27	0.00
697.40	9.36
697.54	35.11
697.67	0.00
697.80	0.00
697.94	63.19
698.07	0.00
698.21	0.00
698.34	102.98
698.47	14.04
698.61	63.19
698.74	16.38
698.87	63.19
699.01	0.00
699.14	56.17
699.27	37.45
699.40	9.36
699.54	16.38
699.67	4.68
699.80	11.70
699.94	0.00
700.07	18.72
700.20	46.81
700.34	0.00
700.47	4.68
700.60	9.36
700.73	70.22
700.87	28.09
701.00	102.98
701.13	84.26
701.26	30.43
701.40	51.49
701.53	30.43
701.66	53.83
701.79	60.85
701.93	39.79
702.06	60.85
702.19	37.45
702.32	42.13
702.46	44.47
702.59	0.00
702.72	37.45
702.85	149.79
702.99	262.14
703.12	311.29
703.25	489.17
703.38	433.00
703.51	381.51
703.65	311.29
703.78	220.01
703.91	121.71
704.04	149.79
704.17	60.85
704.31	35.11
704.44	32.77
704.57	72.56
704.70	14.04
704.83	11.70
704.96	9.36
705.10	16.38
705.23	88.94
>>>>>End Processed Spectral Data<<<<<
