SpectraSuite Data File
++++++++++++++++++++++++++++++++++++
Date: Fri Oct 04 12:13:35 GMT-05:00 2013
User: price-jones
Dark Spectrum Present: No
Reference Spectrum Present: No
Number of Sampled Component Spectra: 1
Spectrometers: USB2+H05261
Integration Time (usec): 10000 (USB2+H05261)
Spectra Averaged: 1 (USB2+H05261)
Boxcar Smoothing: 0 (USB2+H05261)
Correct for Electrical Dark: No (USB2+H05261)
Strobe/Lamp Enabled: No (USB2+H05261)
Correct for Detector Non-linearity: No (USB2+H05261)
Correct for Stray Light: No (USB2+H05261)
Number of Pixels in Processed Spectrum: 2048
>>>>>Begin Processed Spectral Data<<<<<
365.73	0.00
365.92	0.00
366.12	0.00
366.32	0.00
366.52	0.00
366.72	0.00
366.91	0.00
367.11	0.00
367.31	0.00
367.51	0.00
367.70	0.00
367.90	0.00
368.10	0.00
368.30	0.00
368.49	0.00
368.69	0.00
368.89	0.00
369.09	0.00
369.28	0.00
369.48	0.00
369.68	0.00
369.87	0.00
370.07	0.00
370.27	0.00
370.47	16.38
370.66	0.00
370.86	0.00
371.06	0.00
371.25	4.68
371.45	0.00
371.65	0.00
371.84	0.00
372.04	0.00
372.24	53.83
372.44	0.00
372.63	0.00
372.83	32.77
373.03	0.00
373.22	14.04
373.42	16.38
373.62	39.79
373.81	30.43
374.01	49.15
374.21	39.79
374.40	51.49
374.60	79.58
374.79	2.34
374.99	39.79
375.19	95.96
375.38	0.00
375.58	53.83
375.78	37.45
375.97	49.15
376.17	44.47
376.37	0.00
376.56	32.77
376.76	74.90
376.95	67.88
377.15	0.00
377.35	28.09
377.54	39.79
377.74	18.72
377.93	18.72
378.13	70.22
378.33	16.38
378.52	28.09
378.72	124.05
378.91	35.11
379.11	28.09
379.31	14.04
379.50	0.00
379.70	0.00
379.89	0.00
380.09	0.00
380.28	0.00
380.48	0.00
380.68	51.49
380.87	0.00
381.07	25.75
381.26	77.24
381.46	0.00
381.65	16.38
381.85	53.83
382.04	0.00
382.24	0.00
382.43	30.43
382.63	72.56
382.83	18.72
383.02	0.00
383.22	72.56
383.41	4.68
383.61	0.00
383.80	53.83
384.00	9.36
384.19	9.36
384.39	2.34
384.58	11.70
384.78	0.00
384.97	16.38
385.17	0.00
385.36	0.00
385.56	0.00
385.75	88.94
385.95	28.09
386.14	4.68
386.34	91.28
386.53	44.47
386.72	0.00
386.92	0.00
387.11	28.09
387.31	21.06
387.50	11.70
387.70	65.54
387.89	32.77
388.09	2.34
388.28	25.75
388.48	0.00
388.67	0.00
388.86	0.00
389.06	53.83
389.25	0.00
389.45	72.56
389.64	126.39
389.84	0.00
390.03	51.49
390.22	49.15
390.42	56.17
390.61	23.41
390.81	21.06
391.00	39.79
391.19	21.06
391.39	51.49
391.58	0.00
391.78	84.26
391.97	0.00
392.16	0.00
392.36	18.72
392.55	9.36
392.75	9.36
392.94	0.00
393.13	2.34
393.33	9.36
393.52	37.45
393.71	0.00
393.91	9.36
394.10	0.00
394.29	0.00
394.49	25.75
394.68	18.72
394.88	14.04
395.07	42.13
395.26	0.00
395.46	18.72
395.65	0.00
395.84	112.35
396.04	18.72
396.23	39.79
396.42	30.43
396.62	18.72
396.81	0.00
397.00	77.24
397.19	16.38
397.39	30.43
397.58	42.13
397.77	11.70
397.97	0.00
398.16	0.00
398.35	0.00
398.55	2.34
398.74	56.17
398.93	42.13
399.12	35.11
399.32	18.72
399.51	51.49
399.70	0.00
399.90	30.43
400.09	114.69
400.28	39.79
400.47	14.04
400.67	58.51
400.86	37.45
401.05	60.85
401.24	18.72
401.44	0.00
401.63	44.47
401.82	65.54
402.01	0.00
402.21	14.04
402.40	88.94
402.59	25.75
402.78	9.36
402.97	37.45
403.17	9.36
403.36	77.24
403.55	9.36
403.74	2.34
403.93	42.13
404.13	0.00
404.32	60.85
404.51	32.77
404.70	79.58
404.89	4.68
405.09	51.49
405.28	7.02
405.47	0.00
405.66	77.24
405.85	0.00
406.05	42.13
406.24	67.88
406.43	88.94
406.62	93.62
406.81	49.15
407.00	67.88
407.20	37.45
407.39	11.70
407.58	32.77
407.77	0.00
407.96	102.98
408.15	0.00
408.34	0.00
408.54	91.28
408.73	49.15
408.92	0.00
409.11	14.04
409.30	86.60
409.49	56.17
409.68	70.22
409.87	21.06
410.07	0.00
410.26	28.09
410.45	63.19
410.64	21.06
410.83	23.41
411.02	39.79
411.21	0.00
411.40	0.00
411.59	16.38
411.78	7.02
411.98	21.06
412.17	63.19
412.36	11.70
412.55	32.77
412.74	42.13
412.93	9.36
413.12	32.77
413.31	65.54
413.50	42.13
413.69	79.58
413.88	67.88
414.07	14.04
414.26	51.49
414.45	4.68
414.64	35.11
414.83	88.94
415.02	2.34
415.22	14.04
415.41	65.54
415.60	25.75
415.79	72.56
415.98	23.41
416.17	84.26
416.36	4.68
416.55	58.51
416.74	107.66
416.93	30.43
417.12	74.90
417.31	70.22
417.50	30.43
417.69	21.06
417.88	14.04
418.07	42.13
418.26	53.83
418.45	77.24
418.64	39.79
418.83	16.38
419.02	60.85
419.21	74.90
419.39	81.92
419.58	49.15
419.77	51.49
419.96	93.62
420.15	0.00
420.34	0.00
420.53	100.64
420.72	28.09
420.91	18.72
421.10	86.60
421.29	51.49
421.48	102.98
421.67	7.02
421.86	53.83
422.05	77.24
422.24	140.43
422.43	93.62
422.61	67.88
422.80	14.04
422.99	0.00
423.18	23.41
423.37	53.83
423.56	0.00
423.75	0.00
423.94	107.66
424.13	42.13
424.32	51.49
424.50	70.22
424.69	91.28
424.88	16.38
425.07	0.00
425.26	28.09
425.45	84.26
425.64	63.19
425.83	145.11
426.01	39.79
426.20	39.79
426.39	77.24
426.58	35.11
426.77	28.09
426.96	35.11
427.15	88.94
427.33	25.75
427.52	53.83
427.71	14.04
427.90	14.04
428.09	117.03
428.28	32.77
428.46	72.56
428.65	46.81
428.84	21.06
429.03	56.17
429.22	0.00
429.40	79.58
429.59	60.85
429.78	0.00
429.97	58.51
430.16	84.26
430.34	63.19
430.53	0.00
430.72	53.83
430.91	4.68
431.10	74.90
431.28	23.41
431.47	53.83
431.66	102.98
431.85	88.94
432.03	0.00
432.22	51.49
432.41	0.00
432.60	53.83
432.79	0.00
432.97	63.19
433.16	35.11
433.35	49.15
433.54	0.00
433.72	25.75
433.91	93.62
434.10	0.00
434.28	9.36
434.47	60.85
434.66	28.09
434.85	51.49
435.03	74.90
435.22	0.00
435.41	49.15
435.59	98.30
435.78	51.49
435.97	44.47
436.16	32.77
436.34	63.19
436.53	28.09
436.72	114.69
436.90	51.49
437.09	0.00
437.28	60.85
437.46	74.90
437.65	46.81
437.84	37.45
438.02	0.00
438.21	81.92
438.40	63.19
438.58	25.75
438.77	0.00
438.96	93.62
439.14	84.26
439.33	81.92
439.52	30.43
439.70	49.15
439.89	79.58
440.08	0.00
440.26	49.15
440.45	84.26
440.63	37.45
440.82	114.69
441.01	0.00
441.19	86.60
441.38	147.45
441.57	42.13
441.75	56.17
441.94	56.17
442.12	65.54
442.31	65.54
442.50	0.00
442.68	0.00
442.87	23.41
443.05	42.13
443.24	28.09
443.43	88.94
443.61	16.38
443.80	0.00
443.98	4.68
444.17	0.00
444.35	117.03
444.54	42.13
444.73	23.41
444.91	88.94
445.10	88.94
445.28	135.75
445.47	93.62
445.65	81.92
445.84	79.58
446.02	46.81
446.21	0.00
446.39	0.00
446.58	42.13
446.77	88.94
446.95	4.68
447.14	23.41
447.32	21.06
447.51	49.15
447.69	42.13
447.88	0.00
448.06	46.81
448.25	37.45
448.43	2.34
448.62	102.98
448.80	128.73
448.99	84.26
449.17	0.00
449.36	16.38
449.54	32.77
449.73	25.75
449.91	74.90
450.10	51.49
450.28	39.79
450.46	14.04
450.65	70.22
450.83	32.77
451.02	65.54
451.20	95.96
451.39	7.02
451.57	44.47
451.76	105.32
451.94	16.38
452.13	32.77
452.31	51.49
452.49	81.92
452.68	35.11
452.86	44.47
453.05	39.79
453.23	51.49
453.42	72.56
453.60	58.51
453.78	58.51
453.97	39.79
454.15	28.09
454.34	0.00
454.52	124.05
454.70	133.41
454.89	100.64
455.07	156.82
455.26	42.13
455.44	44.47
455.62	39.79
455.81	79.58
455.99	88.94
456.17	32.77
456.36	88.94
456.54	32.77
456.73	79.58
456.91	46.81
457.09	49.15
457.28	58.51
457.46	42.13
457.64	0.00
457.83	44.47
458.01	60.85
458.19	88.94
458.38	84.26
458.56	2.34
458.74	79.58
458.93	42.13
459.11	44.47
459.29	60.85
459.48	105.32
459.66	11.70
459.84	14.04
460.03	14.04
460.21	0.00
460.39	0.00
460.57	60.85
460.76	46.81
460.94	79.58
461.12	100.64
461.31	67.88
461.49	30.43
461.67	84.26
461.85	112.35
462.04	30.43
462.22	91.28
462.40	77.24
462.59	114.69
462.77	84.26
462.95	56.17
463.13	7.02
463.32	105.32
463.50	0.00
463.68	79.58
463.86	42.13
464.05	37.45
464.23	93.62
464.41	112.35
464.59	84.26
464.78	79.58
464.96	56.17
465.14	0.00
465.32	30.43
465.50	114.69
465.69	119.37
465.87	39.79
466.05	32.77
466.23	60.85
466.41	35.11
466.60	81.92
466.78	79.58
466.96	28.09
467.14	53.83
467.32	95.96
467.51	98.30
467.69	100.64
467.87	0.00
468.05	37.45
468.23	84.26
468.41	112.35
468.60	65.54
468.78	51.49
468.96	117.03
469.14	58.51
469.32	107.66
469.50	105.32
469.69	49.15
469.87	56.17
470.05	9.36
470.23	30.43
470.41	0.00
470.59	0.00
470.77	46.81
470.95	53.83
471.14	28.09
471.32	79.58
471.50	79.58
471.68	110.01
471.86	42.13
472.04	0.00
472.22	81.92
472.40	56.17
472.58	110.01
472.77	60.85
472.95	63.19
473.13	100.64
473.31	21.06
473.49	44.47
473.67	95.96
473.85	95.96
474.03	14.04
474.21	84.26
474.39	81.92
474.57	72.56
474.75	98.30
474.93	53.83
475.12	18.72
475.30	0.00
475.48	86.60
475.66	56.17
475.84	0.00
476.02	81.92
476.20	0.00
476.38	58.51
476.56	131.07
476.74	0.00
476.92	18.72
477.10	0.00
477.28	102.98
477.46	37.45
477.64	105.32
477.82	65.54
478.00	14.04
478.18	2.34
478.36	44.47
478.54	44.47
478.72	84.26
478.90	67.88
479.08	91.28
479.26	72.56
479.44	51.49
479.62	119.37
479.80	42.13
479.98	51.49
480.16	84.26
480.34	46.81
480.52	35.11
480.70	149.79
480.88	60.85
481.06	65.54
481.24	0.00
481.41	86.60
481.59	114.69
481.77	11.70
481.95	114.69
482.13	51.49
482.31	11.70
482.49	105.32
482.67	65.54
482.85	110.01
483.03	149.79
483.21	102.98
483.39	119.37
483.57	140.43
483.74	93.62
483.92	70.22
484.10	145.11
484.28	70.22
484.46	84.26
484.64	86.60
484.82	95.96
485.00	72.56
485.18	32.77
485.35	72.56
485.53	65.54
485.71	42.13
485.89	30.43
486.07	95.96
486.25	140.43
486.43	100.64
486.61	100.64
486.78	53.83
486.96	110.01
487.14	28.09
487.32	58.51
487.50	32.77
487.68	105.32
487.85	95.96
488.03	70.22
488.21	112.35
488.39	58.51
488.57	39.79
488.75	28.09
488.92	102.98
489.10	65.54
489.28	44.47
489.46	67.88
489.64	112.35
489.81	42.13
489.99	70.22
490.17	100.64
490.35	49.15
490.53	35.11
490.70	105.32
490.88	152.13
491.06	117.03
491.24	126.39
491.41	100.64
491.59	95.96
491.77	32.77
491.95	93.62
492.13	124.05
492.30	107.66
492.48	39.79
492.66	53.83
492.84	30.43
493.01	67.88
493.19	124.05
493.37	4.68
493.54	81.92
493.72	56.17
493.90	32.77
494.08	105.32
494.25	11.70
494.43	32.77
494.61	100.64
494.79	72.56
494.96	91.28
495.14	88.94
495.32	112.35
495.49	65.54
495.67	25.75
495.85	39.79
496.02	28.09
496.20	67.88
496.38	126.39
496.55	117.03
496.73	77.24
496.91	102.98
497.09	152.13
497.26	60.85
497.44	93.62
497.62	93.62
497.79	39.79
497.97	42.13
498.14	49.15
498.32	102.98
498.50	74.90
498.67	53.83
498.85	51.49
499.03	37.45
499.20	91.28
499.38	18.72
499.56	72.56
499.73	100.64
499.91	95.96
500.08	88.94
500.26	91.28
500.44	44.47
500.61	119.37
500.79	70.22
500.97	119.37
501.14	126.39
501.32	93.62
501.49	56.17
501.67	128.73
501.84	23.41
502.02	133.41
502.20	102.98
502.37	77.24
502.55	126.39
502.72	65.54
502.90	124.05
503.07	51.49
503.25	98.30
503.43	100.64
503.60	86.60
503.78	110.01
503.95	91.28
504.13	72.56
504.30	88.94
504.48	21.06
504.65	77.24
504.83	58.51
505.01	145.11
505.18	102.98
505.36	81.92
505.53	117.03
505.71	131.07
505.88	65.54
506.06	58.51
506.23	30.43
506.41	93.62
506.58	70.22
506.76	110.01
506.93	81.92
507.11	121.71
507.28	72.56
507.46	105.32
507.63	84.26
507.81	21.06
507.98	107.66
508.16	46.81
508.33	93.62
508.50	105.32
508.68	98.30
508.85	37.45
509.03	93.62
509.20	84.26
509.38	44.47
509.55	65.54
509.73	84.26
509.90	60.85
510.08	114.69
510.25	105.32
510.42	91.28
510.60	91.28
510.77	117.03
510.95	67.88
511.12	11.70
511.30	56.17
511.47	163.84
511.64	121.71
511.82	107.66
511.99	86.60
512.17	79.58
512.34	23.41
512.51	56.17
512.69	102.98
512.86	110.01
513.04	65.54
513.21	56.17
513.38	49.15
513.56	14.04
513.73	84.26
513.90	28.09
514.08	56.17
514.25	117.03
514.43	72.56
514.60	56.17
514.77	98.30
514.95	128.73
515.12	30.43
515.29	65.54
515.47	72.56
515.64	74.90
515.81	35.11
515.99	39.79
516.16	11.70
516.33	51.49
516.51	67.88
516.68	81.92
516.85	63.19
517.03	53.83
517.20	105.32
517.37	65.54
517.54	42.13
517.72	53.83
517.89	88.94
518.06	152.13
518.24	56.17
518.41	77.24
518.58	70.22
518.75	152.13
518.93	135.75
519.10	0.00
519.27	58.51
519.45	147.45
519.62	81.92
519.79	95.96
519.96	110.01
520.14	142.77
520.31	30.43
520.48	138.09
520.65	30.43
520.83	65.54
521.00	95.96
521.17	39.79
521.34	72.56
521.52	100.64
521.69	91.28
521.86	98.30
522.03	30.43
522.20	98.30
522.38	88.94
522.55	23.41
522.72	72.56
522.89	117.03
523.07	112.35
523.24	88.94
523.41	93.62
523.58	74.90
523.75	91.28
523.92	152.13
524.10	114.69
524.27	84.26
524.44	49.15
524.61	121.71
524.78	91.28
524.96	88.94
525.13	84.26
525.30	152.13
525.47	65.54
525.64	35.11
525.81	110.01
525.98	81.92
526.16	135.75
526.33	100.64
526.50	7.02
526.67	0.00
526.84	65.54
527.01	18.72
527.18	7.02
527.36	9.36
527.53	88.94
527.70	72.56
527.87	135.75
528.04	102.98
528.21	110.01
528.38	77.24
528.55	126.39
528.72	74.90
528.89	93.62
529.07	131.07
529.24	110.01
529.41	159.16
529.58	32.77
529.75	67.88
529.92	98.30
530.09	86.60
530.26	126.39
530.43	95.96
530.60	100.64
530.77	72.56
530.94	53.83
531.11	140.43
531.28	126.39
531.46	81.92
531.63	168.52
531.80	51.49
531.97	84.26
532.14	77.24
532.31	102.98
532.48	46.81
532.65	159.16
532.82	114.69
532.99	86.60
533.16	63.19
533.33	53.83
533.50	81.92
533.67	154.48
533.84	70.22
534.01	70.22
534.18	131.07
534.35	98.30
534.52	163.84
534.69	65.54
534.86	67.88
535.03	65.54
535.20	23.41
535.37	161.50
535.54	35.11
535.71	110.01
535.88	67.88
536.05	102.98
536.22	135.75
536.38	72.56
536.55	63.19
536.72	84.26
536.89	58.51
537.06	114.69
537.23	112.35
537.40	9.36
537.57	74.90
537.74	77.24
537.91	46.81
538.08	121.71
538.25	21.06
538.42	25.75
538.59	124.05
538.75	142.77
538.92	58.51
539.09	114.69
539.26	145.11
539.43	100.64
539.60	105.32
539.77	79.58
539.94	7.02
540.11	98.30
540.28	93.62
540.44	58.51
540.61	60.85
540.78	140.43
540.95	100.64
541.12	110.01
541.29	107.66
541.46	65.54
541.62	154.48
541.79	51.49
541.96	58.51
542.13	37.45
542.30	30.43
542.47	25.75
542.63	93.62
542.80	0.00
542.97	77.24
543.14	102.98
543.31	39.79
543.48	39.79
543.64	77.24
543.81	74.90
543.98	117.03
544.15	95.96
544.32	152.13
544.48	128.73
544.65	112.35
544.82	100.64
544.99	117.03
545.16	49.15
545.32	46.81
545.49	131.07
545.66	110.01
545.83	117.03
546.00	46.81
546.16	86.60
546.33	79.58
546.50	110.01
546.67	51.49
546.83	131.07
547.00	131.07
547.17	131.07
547.34	32.77
547.50	44.47
547.67	88.94
547.84	58.51
548.00	131.07
548.17	74.90
548.34	79.58
548.51	74.90
548.67	91.28
548.84	84.26
549.01	117.03
549.18	93.62
549.34	131.07
549.51	114.69
549.68	44.47
549.84	2.34
550.01	107.66
550.18	124.05
550.34	72.56
550.51	128.73
550.68	86.60
550.84	25.75
551.01	91.28
551.18	77.24
551.34	67.88
551.51	110.01
551.68	63.19
551.84	149.79
552.01	124.05
552.18	107.66
552.34	138.09
552.51	112.35
552.68	56.17
552.84	30.43
553.01	93.62
553.18	81.92
553.34	56.17
553.51	102.98
553.67	72.56
553.84	88.94
554.01	112.35
554.17	102.98
554.34	107.66
554.51	105.32
554.67	53.83
554.84	74.90
555.00	124.05
555.17	88.94
555.33	58.51
555.50	72.56
555.67	37.45
555.83	114.69
556.00	49.15
556.16	163.84
556.33	77.24
556.50	114.69
556.66	107.66
556.83	74.90
556.99	67.88
557.16	110.01
557.32	79.58
557.49	147.45
557.65	102.98
557.82	51.49
557.98	74.90
558.15	98.30
558.32	93.62
558.48	51.49
558.65	58.51
558.81	39.79
558.98	0.00
559.14	23.41
559.31	95.96
559.47	53.83
559.64	60.85
559.80	121.71
559.97	58.51
560.13	166.18
560.30	86.60
560.46	42.13
560.63	81.92
560.79	70.22
560.96	51.49
561.12	72.56
561.29	112.35
561.45	126.39
561.61	37.45
561.78	56.17
561.94	154.48
562.11	105.32
562.27	140.43
562.44	84.26
562.60	51.49
562.77	86.60
562.93	77.24
563.10	56.17
563.26	32.77
563.42	117.03
563.59	98.30
563.75	60.85
563.92	77.24
564.08	60.85
564.24	93.62
564.41	126.39
564.57	100.64
564.74	173.20
564.90	49.15
565.07	65.54
565.23	60.85
565.39	65.54
565.56	56.17
565.72	16.38
565.88	124.05
566.05	65.54
566.21	56.17
566.38	0.00
566.54	114.69
566.70	60.85
566.87	112.35
567.03	39.79
567.19	77.24
567.36	72.56
567.52	63.19
567.68	49.15
567.85	49.15
568.01	124.05
568.17	91.28
568.34	98.30
568.50	131.07
568.66	60.85
568.83	128.73
568.99	56.17
569.15	67.88
569.32	14.04
569.48	93.62
569.64	77.24
569.81	84.26
569.97	21.06
570.13	79.58
570.30	46.81
570.46	95.96
570.62	93.62
570.78	110.01
570.95	65.54
571.11	102.98
571.27	0.00
571.43	131.07
571.60	107.66
571.76	51.49
571.92	79.58
572.09	84.26
572.25	58.51
572.41	58.51
572.57	74.90
572.74	58.51
572.90	81.92
573.06	65.54
573.22	124.05
573.38	119.37
573.55	133.41
573.71	128.73
573.87	60.85
574.03	35.11
574.20	84.26
574.36	84.26
574.52	39.79
574.68	30.43
574.84	81.92
575.01	58.51
575.17	86.60
575.33	53.83
575.49	117.03
575.65	84.26
575.82	67.88
575.98	79.58
576.14	77.24
576.30	14.04
576.46	124.05
576.62	65.54
576.79	86.60
576.95	98.30
577.11	100.64
577.27	93.62
577.43	77.24
577.59	58.51
577.75	23.41
577.92	25.75
578.08	84.26
578.24	25.75
578.40	67.88
578.56	147.45
578.72	100.64
578.88	0.00
579.04	126.39
579.21	56.17
579.37	86.60
579.53	81.92
579.69	142.77
579.85	102.98
580.01	77.24
580.17	114.69
580.33	63.19
580.49	91.28
580.65	112.35
580.82	72.56
580.98	107.66
581.14	67.88
581.30	72.56
581.46	46.81
581.62	74.90
581.78	100.64
581.94	72.56
582.10	117.03
582.26	60.85
582.42	100.64
582.58	32.77
582.74	124.05
582.90	60.85
583.06	81.92
583.22	93.62
583.38	58.51
583.54	77.24
583.70	117.03
583.86	23.41
584.02	72.56
584.18	91.28
584.34	98.30
584.50	100.64
584.66	110.01
584.82	110.01
584.98	131.07
585.14	105.32
585.30	81.92
585.46	42.13
585.62	86.60
585.78	58.51
585.94	114.69
586.10	81.92
586.26	105.32
586.42	53.83
586.58	51.49
586.74	49.15
586.90	72.56
587.06	81.92
587.22	46.81
587.38	39.79
587.54	98.30
587.70	131.07
587.86	105.32
588.02	2.34
588.18	30.43
588.34	53.83
588.49	53.83
588.65	98.30
588.81	126.39
588.97	46.81
589.13	9.36
589.29	79.58
589.45	44.47
589.61	25.75
589.77	70.22
589.93	105.32
590.08	107.66
590.24	35.11
590.40	53.83
590.56	42.13
590.72	114.69
590.88	77.24
591.04	32.77
591.20	9.36
591.35	53.83
591.51	86.60
591.67	32.77
591.83	63.19
591.99	72.56
592.15	9.36
592.31	56.17
592.46	98.30
592.62	86.60
592.78	147.45
592.94	74.90
593.10	98.30
593.26	35.11
593.41	86.60
593.57	32.77
593.73	84.26
593.89	72.56
594.05	81.92
594.20	91.28
594.36	149.79
594.52	63.19
594.68	133.41
594.84	81.92
594.99	154.48
595.15	23.41
595.31	107.66
595.47	135.75
595.62	37.45
595.78	91.28
595.94	105.32
596.10	86.60
596.25	35.11
596.41	14.04
596.57	51.49
596.73	121.71
596.88	102.98
597.04	56.17
597.20	110.01
597.36	166.18
597.51	91.28
597.67	51.49
597.83	49.15
597.99	72.56
598.14	100.64
598.30	72.56
598.46	49.15
598.61	86.60
598.77	60.85
598.93	0.00
599.09	0.00
599.24	86.60
599.40	58.51
599.56	0.00
599.71	9.36
599.87	105.32
600.03	95.96
600.18	53.83
600.34	93.62
600.50	70.22
600.65	100.64
600.81	63.19
600.97	93.62
601.12	70.22
601.28	77.24
601.44	84.26
601.59	70.22
601.75	145.11
601.91	84.26
602.06	121.71
602.22	110.01
602.37	63.19
602.53	44.47
602.69	30.43
602.84	119.37
603.00	42.13
603.16	53.83
603.31	51.49
603.47	114.69
603.62	124.05
603.78	60.85
603.94	86.60
604.09	49.15
604.25	51.49
604.40	4.68
604.56	124.05
604.71	81.92
604.87	77.24
605.03	74.90
605.18	42.13
605.34	11.70
605.49	81.92
605.65	60.85
605.80	18.72
605.96	114.69
606.12	124.05
606.27	114.69
606.43	60.85
606.58	84.26
606.74	117.03
606.89	124.05
607.05	86.60
607.20	53.83
607.36	91.28
607.51	63.19
607.67	140.43
607.82	102.98
607.98	131.07
608.13	67.88
608.29	79.58
608.44	91.28
608.60	88.94
608.75	107.66
608.91	105.32
609.06	79.58
609.22	74.90
609.37	65.54
609.53	53.83
609.68	56.17
609.84	70.22
609.99	79.58
610.15	208.31
610.30	91.28
610.46	28.09
610.61	67.88
610.76	46.81
610.92	56.17
611.07	121.71
611.23	128.73
611.38	95.96
611.54	56.17
611.69	32.77
611.84	21.06
612.00	128.73
612.15	152.13
612.31	152.13
612.46	91.28
612.62	18.72
612.77	93.62
612.92	102.98
613.08	114.69
613.23	25.75
613.39	56.17
613.54	60.85
613.69	60.85
613.85	77.24
614.00	23.41
614.15	60.85
614.31	84.26
614.46	91.28
614.62	74.90
614.77	60.85
614.92	84.26
615.08	131.07
615.23	21.06
615.38	65.54
615.54	0.00
615.69	112.35
615.84	100.64
616.00	51.49
616.15	105.32
616.30	95.96
616.46	74.90
616.61	117.03
616.76	9.36
616.92	56.17
617.07	30.43
617.22	58.51
617.37	114.69
617.53	88.94
617.68	105.32
617.83	18.72
617.99	46.81
618.14	131.07
618.29	25.75
618.45	11.70
618.60	91.28
618.75	51.49
618.90	74.90
619.06	53.83
619.21	28.09
619.36	37.45
619.51	0.00
619.67	88.94
619.82	60.85
619.97	42.13
620.12	102.98
620.28	32.77
620.43	81.92
620.58	42.13
620.73	91.28
620.89	25.75
621.04	32.77
621.19	60.85
621.34	32.77
621.49	0.00
621.65	30.43
621.80	51.49
621.95	133.41
622.10	49.15
622.25	65.54
622.41	84.26
622.56	42.13
622.71	70.22
622.86	86.60
623.01	51.49
623.16	70.22
623.32	72.56
623.47	105.32
623.62	25.75
623.77	42.13
623.92	58.51
624.07	56.17
624.23	72.56
624.38	74.90
624.53	100.64
624.68	51.49
624.83	4.68
624.98	58.51
625.13	32.77
625.29	67.88
625.44	91.28
625.59	70.22
625.74	79.58
625.89	77.24
626.04	56.17
626.19	44.47
626.34	32.77
626.49	65.54
626.65	42.13
626.80	67.88
626.95	56.17
627.10	91.28
627.25	51.49
627.40	30.43
627.55	25.75
627.70	44.47
627.85	163.84
628.00	72.56
628.15	7.02
628.30	77.24
628.45	42.13
628.60	28.09
628.76	42.13
628.91	44.47
629.06	25.75
629.21	95.96
629.36	37.45
629.51	11.70
629.66	35.11
629.81	65.54
629.96	67.88
630.11	133.41
630.26	112.35
630.41	67.88
630.56	86.60
630.71	70.22
630.86	30.43
631.01	121.71
631.16	74.90
631.31	95.96
631.46	46.81
631.61	98.30
631.76	67.88
631.91	84.26
632.06	91.28
632.21	51.49
632.36	0.00
632.51	56.17
632.66	49.15
632.81	74.90
632.96	121.71
633.10	37.45
633.25	72.56
633.40	70.22
633.55	39.79
633.70	105.32
633.85	32.77
634.00	114.69
634.15	63.19
634.30	95.96
634.45	63.19
634.60	154.48
634.75	128.73
634.90	0.00
635.05	44.47
635.19	35.11
635.34	65.54
635.49	65.54
635.64	84.26
635.79	95.96
635.94	117.03
636.09	16.38
636.24	18.72
636.39	65.54
636.53	53.83
636.68	16.38
636.83	70.22
636.98	140.43
637.13	79.58
637.28	49.15
637.43	23.41
637.57	42.13
637.72	16.38
637.87	105.32
638.02	16.38
638.17	86.60
638.32	42.13
638.46	14.04
638.61	7.02
638.76	79.58
638.91	91.28
639.06	0.00
639.20	114.69
639.35	86.60
639.50	114.69
639.65	65.54
639.80	91.28
639.94	114.69
640.09	28.09
640.24	11.70
640.39	28.09
640.54	11.70
640.68	37.45
640.83	16.38
640.98	42.13
641.13	37.45
641.27	4.68
641.42	14.04
641.57	65.54
641.72	56.17
641.86	58.51
642.01	131.07
642.16	51.49
642.31	2.34
642.45	18.72
642.60	0.00
642.75	0.00
642.90	30.43
643.04	37.45
643.19	56.17
643.34	0.00
643.48	53.83
643.63	51.49
643.78	0.00
643.93	74.90
644.07	0.00
644.22	39.79
644.37	0.00
644.51	56.17
644.66	58.51
644.81	35.11
644.95	16.38
645.10	67.88
645.25	77.24
645.39	126.39
645.54	4.68
645.69	4.68
645.83	9.36
645.98	28.09
646.13	53.83
646.27	84.26
646.42	70.22
646.57	166.18
646.71	30.43
646.86	51.49
647.00	93.62
647.15	0.00
647.30	95.96
647.44	131.07
647.59	100.64
647.74	21.06
647.88	0.00
648.03	46.81
648.17	77.24
648.32	0.00
648.47	0.00
648.61	39.79
648.76	30.43
648.90	49.15
649.05	44.47
649.20	44.47
649.34	67.88
649.49	49.15
649.63	0.00
649.78	0.00
649.92	88.94
650.07	23.41
650.21	32.77
650.36	51.49
650.51	25.75
650.65	0.00
650.80	112.35
650.94	70.22
651.09	131.07
651.23	51.49
651.38	46.81
651.52	51.49
651.67	46.81
651.81	53.83
651.96	0.00
652.10	51.49
652.25	117.03
652.39	81.92
652.54	77.24
652.68	88.94
652.83	42.13
652.97	51.49
653.12	100.64
653.26	112.35
653.41	25.75
653.55	65.54
653.70	28.09
653.84	74.90
653.99	0.00
654.13	0.00
654.27	102.98
654.42	133.41
654.56	56.17
654.71	60.85
654.85	65.54
655.00	32.77
655.14	81.92
655.29	63.19
655.43	28.09
655.57	28.09
655.72	23.41
655.86	32.77
656.01	23.41
656.15	72.56
656.30	44.47
656.44	46.81
656.58	9.36
656.73	79.58
656.87	126.39
657.01	39.79
657.16	11.70
657.30	16.38
657.45	70.22
657.59	140.43
657.73	100.64
657.88	58.51
658.02	46.81
658.16	39.79
658.31	30.43
658.45	30.43
658.60	60.85
658.74	25.75
658.88	0.00
659.03	4.68
659.17	18.72
659.31	35.11
659.46	72.56
659.60	86.60
659.74	67.88
659.89	37.45
660.03	18.72
660.17	49.15
660.32	37.45
660.46	70.22
660.60	32.77
660.74	72.56
660.89	53.83
661.03	65.54
661.17	60.85
661.32	28.09
661.46	25.75
661.60	21.06
661.74	81.92
661.89	44.47
662.03	119.37
662.17	23.41
662.31	9.36
662.46	93.62
662.60	65.54
662.74	16.38
662.88	14.04
663.03	2.34
663.17	46.81
663.31	16.38
663.45	0.00
663.60	117.03
663.74	46.81
663.88	72.56
664.02	112.35
664.17	86.60
664.31	16.38
664.45	32.77
664.59	42.13
664.73	88.94
664.88	23.41
665.02	67.88
665.16	51.49
665.30	67.88
665.44	119.37
665.59	49.15
665.73	65.54
665.87	37.45
666.01	0.00
666.15	0.00
666.29	44.47
666.44	0.00
666.58	72.56
666.72	49.15
666.86	0.00
667.00	16.38
667.14	0.00
667.28	98.30
667.43	79.58
667.57	95.96
667.71	81.92
667.85	51.49
667.99	56.17
668.13	39.79
668.27	56.17
668.41	32.77
668.56	65.54
668.70	98.30
668.84	56.17
668.98	46.81
669.12	84.26
669.26	95.96
669.40	88.94
669.54	30.43
669.68	51.49
669.82	86.60
669.96	16.38
670.10	39.79
670.25	14.04
670.39	0.00
670.53	11.70
670.67	70.22
670.81	49.15
670.95	39.79
671.09	30.43
671.23	72.56
671.37	35.11
671.51	105.32
671.65	0.00
671.79	23.41
671.93	63.19
672.07	65.54
672.21	56.17
672.35	23.41
672.49	9.36
672.63	65.54
672.77	77.24
672.91	56.17
673.05	28.09
673.19	30.43
673.33	65.54
673.47	42.13
673.61	44.47
673.75	4.68
673.89	86.60
674.03	28.09
674.17	51.49
674.31	0.00
674.45	16.38
674.59	49.15
674.73	37.45
674.87	112.35
675.01	72.56
675.15	124.05
675.29	51.49
675.43	84.26
675.56	58.51
675.70	0.00
675.84	65.54
675.98	28.09
676.12	79.58
676.26	112.35
676.40	56.17
676.54	46.81
676.68	81.92
676.82	74.90
676.96	56.17
677.10	11.70
677.23	58.51
677.37	35.11
677.51	63.19
677.65	14.04
677.79	107.66
677.93	53.83
678.07	28.09
678.21	65.54
678.34	102.98
678.48	0.00
678.62	32.77
678.76	7.02
678.90	84.26
679.04	0.00
679.18	49.15
679.31	91.28
679.45	39.79
679.59	46.81
679.73	93.62
679.87	21.06
680.00	91.28
680.14	105.32
680.28	65.54
680.42	117.03
680.56	49.15
680.70	0.00
680.83	14.04
680.97	51.49
681.11	117.03
681.25	0.00
681.39	37.45
681.52	77.24
681.66	65.54
681.80	28.09
681.94	67.88
682.07	72.56
682.21	32.77
682.35	30.43
682.49	56.17
682.62	91.28
682.76	114.69
682.90	14.04
683.04	2.34
683.17	86.60
683.31	18.72
683.45	46.81
683.59	107.66
683.72	39.79
683.86	46.81
684.00	70.22
684.13	46.81
684.27	98.30
684.41	110.01
684.55	51.49
684.68	0.00
684.82	67.88
684.96	42.13
685.09	2.34
685.23	32.77
685.37	58.51
685.50	0.00
685.64	56.17
685.78	74.90
685.91	9.36
686.05	28.09
686.19	7.02
686.32	16.38
686.46	42.13
686.60	16.38
686.73	16.38
686.87	0.00
687.01	18.72
687.14	23.41
687.28	81.92
687.42	46.81
687.55	81.92
687.69	91.28
687.82	46.81
687.96	100.64
688.10	44.47
688.23	21.06
688.37	14.04
688.50	70.22
688.64	74.90
688.78	0.00
688.91	72.56
689.05	23.41
689.18	117.03
689.32	28.09
689.46	0.00
689.59	44.47
689.73	46.81
689.86	51.49
690.00	56.17
690.13	44.47
690.27	79.58
690.41	51.49
690.54	60.85
690.68	60.85
690.81	51.49
690.95	2.34
691.08	7.02
691.22	25.75
691.35	0.00
691.49	49.15
691.62	0.00
691.76	9.36
691.89	63.19
692.03	114.69
692.16	70.22
692.30	77.24
692.43	46.81
692.57	46.81
692.70	44.47
692.84	58.51
692.97	0.00
693.11	110.01
693.24	77.24
693.38	28.09
693.51	53.83
693.65	46.81
693.78	72.56
693.92	11.70
694.05	49.15
694.19	2.34
694.32	74.90
694.45	4.68
694.59	79.58
694.72	0.00
694.86	72.56
694.99	32.77
695.13	30.43
695.26	0.00
695.39	9.36
695.53	35.11
695.66	42.13
695.80	77.24
695.93	0.00
696.07	58.51
696.20	28.09
696.33	79.58
696.47	91.28
696.60	0.00
696.73	0.00
696.87	98.30
697.00	0.00
697.14	9.36
697.27	9.36
697.40	51.49
697.54	9.36
697.67	74.90
697.80	4.68
697.94	0.00
698.07	28.09
698.21	0.00
698.34	16.38
698.47	28.09
698.61	28.09
698.74	63.19
698.87	21.06
699.01	81.92
699.14	46.81
699.27	30.43
699.40	0.00
699.54	49.15
699.67	28.09
699.80	0.00
699.94	67.88
700.07	0.00
700.20	65.54
700.34	0.00
700.47	46.81
700.60	51.49
700.73	74.90
700.87	53.83
701.00	56.17
701.13	0.00
701.26	23.41
701.40	4.68
701.53	79.58
701.66	18.72
701.79	30.43
701.93	37.45
702.06	0.00
702.19	60.85
702.32	42.13
702.46	21.06
702.59	42.13
702.72	53.83
702.85	107.66
702.99	60.85
703.12	49.15
703.25	65.54
703.38	98.30
703.51	74.90
703.65	7.02
703.78	0.00
703.91	18.72
704.04	0.00
704.17	18.72
704.31	37.45
704.44	93.62
704.57	7.02
704.70	0.00
704.83	37.45
704.96	21.06
705.10	18.72
705.23	88.94
>>>>>End Processed Spectral Data<<<<<
