SpectraSuite Data File
++++++++++++++++++++++++++++++++++++
Date: Tue Oct 01 18:25:13 GMT-05:00 2013
User: stostad
Dark Spectrum Present: No
Reference Spectrum Present: No
Number of Sampled Component Spectra: 1
Spectrometers: USB2+H05261
Integration Time (usec): 100000 (USB2+H05261)
Spectra Averaged: 1 (USB2+H05261)
Boxcar Smoothing: 0 (USB2+H05261)
Correct for Electrical Dark: No (USB2+H05261)
Strobe/Lamp Enabled: No (USB2+H05261)
Correct for Detector Non-linearity: No (USB2+H05261)
Correct for Stray Light: No (USB2+H05261)
Number of Pixels in Processed Spectrum: 2048
>>>>>Begin Processed Spectral Data<<<<<
365.73	0.00
365.92	0.00
366.12	0.00
366.32	39.79
366.52	16.38
366.72	49.15
366.91	16.38
367.11	0.00
367.31	0.00
367.51	0.00
367.70	0.00
367.90	0.00
368.10	0.00
368.30	0.00
368.49	0.00
368.69	0.00
368.89	0.00
369.09	0.00
369.28	0.00
369.48	0.00
369.68	30.43
369.87	21.06
370.07	0.00
370.27	65.54
370.47	25.75
370.66	39.79
370.86	2.34
371.06	58.51
371.25	145.11
371.45	105.32
371.65	131.07
371.84	110.01
372.04	105.32
372.24	93.62
372.44	58.51
372.63	173.20
372.83	95.96
373.03	124.05
373.22	102.98
373.42	173.20
373.62	117.03
373.81	133.41
374.01	170.86
374.21	227.03
374.40	131.07
374.60	140.43
374.79	163.84
374.99	170.86
375.19	161.50
375.38	105.32
375.58	124.05
375.78	100.64
375.97	156.82
376.17	191.92
376.37	124.05
376.56	161.50
376.76	95.96
376.95	173.20
377.15	182.56
377.35	168.52
377.54	262.14
377.74	131.07
377.93	166.18
378.13	138.09
378.33	119.37
378.52	107.66
378.72	168.52
378.91	110.01
379.11	163.84
379.31	187.24
379.50	72.56
379.70	126.39
379.89	107.66
380.09	102.98
380.28	93.62
380.48	107.66
380.68	79.58
380.87	142.77
381.07	110.01
381.26	140.43
381.46	98.30
381.65	135.75
381.85	128.73
382.04	119.37
382.24	128.73
382.43	168.52
382.63	88.94
382.83	131.07
383.02	128.73
383.22	201.29
383.41	65.54
383.61	140.43
383.80	154.48
384.00	112.35
384.19	114.69
384.39	117.03
384.58	154.48
384.78	126.39
384.97	117.03
385.17	93.62
385.36	126.39
385.56	145.11
385.75	98.30
385.95	112.35
386.14	198.95
386.34	56.17
386.53	149.79
386.72	74.90
386.92	234.05
387.11	142.77
387.31	142.77
387.50	126.39
387.70	161.50
387.89	133.41
388.09	100.64
388.28	177.88
388.48	114.69
388.67	220.01
388.86	145.11
389.06	121.71
389.25	86.60
389.45	182.56
389.64	182.56
389.84	131.07
390.03	119.37
390.22	105.32
390.42	133.41
390.61	88.94
390.81	168.52
391.00	152.13
391.19	133.41
391.39	110.01
391.58	121.71
391.78	124.05
391.97	131.07
392.16	65.54
392.36	194.26
392.55	189.58
392.75	135.75
392.94	152.13
393.13	203.63
393.33	51.49
393.52	105.32
393.71	74.90
393.91	152.13
394.10	156.82
394.29	86.60
394.49	86.60
394.68	182.56
394.88	128.73
395.07	133.41
395.26	191.92
395.46	60.85
395.65	135.75
395.84	138.09
396.04	189.58
396.23	156.82
396.42	138.09
396.62	170.86
396.81	198.95
397.00	145.11
397.19	154.48
397.39	140.43
397.58	154.48
397.77	105.32
397.97	170.86
398.16	112.35
398.35	147.45
398.55	84.26
398.74	124.05
398.93	177.88
399.12	117.03
399.32	65.54
399.51	175.54
399.70	114.69
399.90	102.98
400.09	74.90
400.28	119.37
400.47	140.43
400.67	124.05
400.86	56.17
401.05	177.88
401.24	163.84
401.44	126.39
401.63	173.20
401.82	142.77
402.01	88.94
402.21	77.24
402.40	152.13
402.59	126.39
402.78	102.98
402.97	67.88
403.17	93.62
403.36	117.03
403.55	133.41
403.74	131.07
403.93	138.09
404.13	102.98
404.32	166.18
404.51	152.13
404.70	119.37
404.89	149.79
405.09	175.54
405.28	124.05
405.47	156.82
405.66	163.84
405.85	128.73
406.05	177.88
406.24	149.79
406.43	152.13
406.62	149.79
406.81	276.18
407.00	152.13
407.20	138.09
407.39	86.60
407.58	107.66
407.77	194.26
407.96	182.56
408.15	110.01
408.34	124.05
408.54	154.48
408.73	124.05
408.92	79.58
409.11	63.19
409.30	135.75
409.49	149.79
409.68	170.86
409.87	168.52
410.07	145.11
410.26	156.82
410.45	156.82
410.64	182.56
410.83	140.43
411.02	93.62
411.21	131.07
411.40	166.18
411.59	184.90
411.78	110.01
411.98	124.05
412.17	138.09
412.36	212.99
412.55	93.62
412.74	156.82
412.93	112.35
413.12	110.01
413.31	156.82
413.50	159.16
413.69	161.50
413.88	229.37
414.07	124.05
414.26	161.50
414.45	114.69
414.64	149.79
414.83	133.41
415.02	161.50
415.22	128.73
415.41	201.29
415.60	152.13
415.79	102.98
415.98	114.69
416.17	159.16
416.36	112.35
416.55	72.56
416.74	135.75
416.93	161.50
417.12	135.75
417.31	86.60
417.50	119.37
417.69	187.24
417.88	177.88
418.07	142.77
418.26	156.82
418.45	138.09
418.64	187.24
418.83	187.24
419.02	170.86
419.21	145.11
419.39	126.39
419.58	152.13
419.77	110.01
419.96	133.41
420.15	119.37
420.34	161.50
420.53	163.84
420.72	173.20
420.91	138.09
421.10	156.82
421.29	224.69
421.48	135.75
421.67	98.30
421.86	159.16
422.05	81.92
422.24	100.64
422.43	161.50
422.61	95.96
422.80	140.43
422.99	121.71
423.18	114.69
423.37	166.18
423.56	140.43
423.75	177.88
423.94	121.71
424.13	77.24
424.32	102.98
424.50	154.48
424.69	159.16
424.88	152.13
425.07	140.43
425.26	159.16
425.45	259.80
425.64	205.97
425.83	198.95
426.01	135.75
426.20	184.90
426.39	191.92
426.58	135.75
426.77	166.18
426.96	138.09
427.15	142.77
427.33	142.77
427.52	114.69
427.71	138.09
427.90	91.28
428.09	93.62
428.28	110.01
428.46	110.01
428.65	154.48
428.84	145.11
429.03	168.52
429.22	140.43
429.40	166.18
429.59	112.35
429.78	203.63
429.97	142.77
430.16	56.17
430.34	152.13
430.53	88.94
430.72	175.54
430.91	145.11
431.10	51.49
431.28	159.16
431.47	187.24
431.66	217.67
431.85	119.37
432.03	142.77
432.22	168.52
432.41	74.90
432.60	205.97
432.79	159.16
432.97	212.99
433.16	245.76
433.35	229.37
433.54	248.10
433.72	177.88
433.91	177.88
434.10	105.32
434.28	156.82
434.47	138.09
434.66	142.77
434.85	159.16
435.03	156.82
435.22	170.86
435.41	131.07
435.59	95.96
435.78	175.54
435.97	102.98
436.16	124.05
436.34	86.60
436.53	166.18
436.72	217.67
436.90	180.22
437.09	140.43
437.28	140.43
437.46	175.54
437.65	135.75
437.84	142.77
438.02	98.30
438.21	161.50
438.40	138.09
438.58	166.18
438.77	114.69
438.96	126.39
439.14	110.01
439.33	126.39
439.52	70.22
439.70	100.64
439.89	156.82
440.08	198.95
440.26	63.19
440.45	124.05
440.63	60.85
440.82	163.84
441.01	220.01
441.19	154.48
441.38	84.26
441.57	159.16
441.75	121.71
441.94	161.50
442.12	149.79
442.31	119.37
442.50	98.30
442.68	124.05
442.87	159.16
443.05	100.64
443.24	138.09
443.43	121.71
443.61	184.90
443.80	112.35
443.98	53.83
444.17	163.84
444.35	147.45
444.54	126.39
444.73	166.18
444.91	138.09
445.10	140.43
445.28	86.60
445.47	187.24
445.65	156.82
445.84	140.43
446.02	147.45
446.21	159.16
446.39	110.01
446.58	100.64
446.77	133.41
446.95	149.79
447.14	119.37
447.32	163.84
447.51	166.18
447.69	126.39
447.88	124.05
448.06	203.63
448.25	124.05
448.43	58.51
448.62	152.13
448.80	166.18
448.99	177.88
449.17	81.92
449.36	133.41
449.54	168.52
449.73	198.95
449.91	170.86
450.10	84.26
450.28	135.75
450.46	212.99
450.65	203.63
450.83	177.88
451.02	84.26
451.20	135.75
451.39	196.60
451.57	168.52
451.76	74.90
451.94	208.31
452.13	177.88
452.31	147.45
452.49	173.20
452.68	173.20
452.86	161.50
453.05	126.39
453.23	131.07
453.42	56.17
453.60	133.41
453.78	180.22
453.97	159.16
454.15	119.37
454.34	114.69
454.52	74.90
454.70	175.54
454.89	74.90
455.07	159.16
455.26	173.20
455.44	175.54
455.62	102.98
455.81	140.43
455.99	201.29
456.17	161.50
456.36	180.22
456.54	117.03
456.73	131.07
456.91	124.05
457.09	135.75
457.28	152.13
457.46	119.37
457.64	124.05
457.83	203.63
458.01	142.77
458.19	147.45
458.38	117.03
458.56	65.54
458.74	156.82
458.93	166.18
459.11	175.54
459.29	98.30
459.48	163.84
459.66	215.33
459.84	154.48
460.03	224.69
460.21	140.43
460.39	112.35
460.57	215.33
460.76	229.37
460.94	51.49
461.12	177.88
461.31	210.65
461.49	147.45
461.67	131.07
461.85	126.39
462.04	163.84
462.22	615.56
462.40	170.86
462.59	147.45
462.77	117.03
462.95	93.62
463.13	81.92
463.32	170.86
463.50	182.56
463.68	131.07
463.86	159.16
464.05	79.58
464.23	184.90
464.41	56.17
464.59	121.71
464.78	79.58
464.96	180.22
465.14	161.50
465.32	102.98
465.50	215.33
465.69	152.13
465.87	191.92
466.05	252.78
466.23	107.66
466.41	161.50
466.60	107.66
466.78	138.09
466.96	222.35
467.14	95.96
467.32	161.50
467.51	170.86
467.69	180.22
467.87	156.82
468.05	147.45
468.23	138.09
468.41	133.41
468.60	149.79
468.78	114.69
468.96	191.92
469.14	215.33
469.32	131.07
469.50	110.01
469.69	67.88
469.87	210.65
470.05	156.82
470.23	121.71
470.41	67.88
470.59	227.03
470.77	133.41
470.95	100.64
471.14	147.45
471.32	135.75
471.50	173.20
471.68	196.60
471.86	180.22
472.04	161.50
472.22	147.45
472.40	110.01
472.58	114.69
472.77	110.01
472.95	67.88
473.13	128.73
473.31	184.90
473.49	159.16
473.67	112.35
473.85	93.62
474.03	180.22
474.21	135.75
474.39	149.79
474.57	166.18
474.75	152.13
474.93	131.07
475.12	102.98
475.30	93.62
475.48	133.41
475.66	84.26
475.84	126.39
476.02	119.37
476.20	159.16
476.38	110.01
476.56	210.65
476.74	131.07
476.92	124.05
477.10	140.43
477.28	175.54
477.46	107.66
477.64	126.39
477.82	110.01
478.00	177.88
478.18	112.35
478.36	107.66
478.54	105.32
478.72	93.62
478.90	177.88
479.08	142.77
479.26	65.54
479.44	224.69
479.62	105.32
479.80	147.45
479.98	138.09
480.16	140.43
480.34	117.03
480.52	117.03
480.70	198.95
480.88	72.56
481.06	156.82
481.24	161.50
481.41	156.82
481.59	152.13
481.77	105.32
481.95	175.54
482.13	182.56
482.31	124.05
482.49	60.85
482.67	95.96
482.85	170.86
483.03	212.99
483.21	163.84
483.39	56.17
483.57	79.58
483.74	203.63
483.92	161.50
484.10	152.13
484.28	114.69
484.46	191.92
484.64	161.50
484.82	135.75
485.00	128.73
485.18	205.97
485.35	98.30
485.53	170.86
485.71	201.29
485.89	124.05
486.07	208.31
486.25	177.88
486.43	131.07
486.61	149.79
486.78	95.96
486.96	126.39
487.14	72.56
487.32	105.32
487.50	119.37
487.68	140.43
487.85	131.07
488.03	142.77
488.21	152.13
488.39	173.20
488.57	161.50
488.75	163.84
488.92	238.73
489.10	135.75
489.28	156.82
489.46	161.50
489.64	100.64
489.81	168.52
489.99	152.13
490.17	159.16
490.35	163.84
490.53	208.31
490.70	135.75
490.88	145.11
491.06	131.07
491.24	196.60
491.41	147.45
491.59	156.82
491.77	131.07
491.95	77.24
492.13	67.88
492.30	46.81
492.48	42.13
492.66	58.51
492.84	46.81
493.01	182.56
493.19	154.48
493.37	138.09
493.54	102.98
493.72	187.24
493.90	152.13
494.08	95.96
494.25	180.22
494.43	102.98
494.61	131.07
494.79	196.60
494.96	98.30
495.14	138.09
495.32	166.18
495.49	201.29
495.67	145.11
495.85	88.94
496.02	149.79
496.20	203.63
496.38	182.56
496.55	142.77
496.73	173.20
496.91	93.62
497.09	102.98
497.26	138.09
497.44	133.41
497.62	67.88
497.79	91.28
497.97	126.39
498.14	98.30
498.32	145.11
498.50	128.73
498.67	117.03
498.85	131.07
499.03	170.86
499.20	149.79
499.38	170.86
499.56	119.37
499.73	229.37
499.91	187.24
500.08	184.90
500.26	168.52
500.44	149.79
500.61	145.11
500.79	93.62
500.97	156.82
501.14	110.01
501.32	126.39
501.49	161.50
501.67	187.24
501.84	91.28
502.02	77.24
502.20	159.16
502.37	117.03
502.55	100.64
502.72	189.58
502.90	152.13
503.07	100.64
503.25	175.54
503.43	70.22
503.60	149.79
503.78	212.99
503.95	63.19
504.13	112.35
504.30	147.45
504.48	95.96
504.65	128.73
504.83	170.86
505.01	65.54
505.18	145.11
505.36	126.39
505.53	126.39
505.71	114.69
505.88	124.05
506.06	124.05
506.23	119.37
506.41	117.03
506.58	187.24
506.76	166.18
506.93	95.96
507.11	145.11
507.28	112.35
507.46	117.03
507.63	142.77
507.81	140.43
507.98	177.88
508.16	117.03
508.33	128.73
508.50	133.41
508.68	102.98
508.85	112.35
509.03	177.88
509.20	102.98
509.38	203.63
509.55	131.07
509.73	102.98
509.90	124.05
510.08	119.37
510.25	180.22
510.42	100.64
510.60	128.73
510.77	205.97
510.95	124.05
511.12	135.75
511.30	140.43
511.47	105.32
511.64	231.71
511.82	131.07
511.99	135.75
512.17	114.69
512.34	65.54
512.51	95.96
512.69	53.83
512.86	159.16
513.04	126.39
513.21	140.43
513.38	65.54
513.56	205.97
513.73	163.84
513.90	98.30
514.08	149.79
514.25	187.24
514.43	126.39
514.60	77.24
514.77	201.29
514.95	189.58
515.12	100.64
515.29	205.97
515.47	173.20
515.64	131.07
515.81	110.01
515.99	154.48
516.16	79.58
516.33	191.92
516.51	147.45
516.68	131.07
516.85	128.73
517.03	131.07
517.20	182.56
517.37	149.79
517.54	180.22
517.72	194.26
517.89	133.41
518.06	138.09
518.24	175.54
518.41	203.63
518.58	198.95
518.75	147.45
518.93	88.94
519.10	163.84
519.27	138.09
519.45	74.90
519.62	170.86
519.79	93.62
519.96	140.43
520.14	149.79
520.31	154.48
520.48	161.50
520.65	154.48
520.83	196.60
521.00	133.41
521.17	145.11
521.34	152.13
521.52	168.52
521.69	166.18
521.86	98.30
522.03	128.73
522.20	170.86
522.38	159.16
522.55	72.56
522.72	119.37
522.89	191.92
523.07	175.54
523.24	119.37
523.41	170.86
523.58	187.24
523.75	166.18
523.92	201.29
524.10	159.16
524.27	187.24
524.44	180.22
524.61	135.75
524.78	133.41
524.96	147.45
525.13	182.56
525.30	182.56
525.47	238.73
525.64	182.56
525.81	255.12
525.98	140.43
526.16	147.45
526.33	124.05
526.50	135.75
526.67	175.54
526.84	187.24
527.01	42.13
527.18	131.07
527.36	114.69
527.53	135.75
527.70	156.82
527.87	119.37
528.04	156.82
528.21	191.92
528.38	117.03
528.55	126.39
528.72	154.48
528.89	79.58
529.07	79.58
529.24	194.26
529.41	205.97
529.58	117.03
529.75	91.28
529.92	212.99
530.09	117.03
530.26	145.11
530.43	58.51
530.60	100.64
530.77	126.39
530.94	126.39
531.11	107.66
531.28	173.20
531.46	149.79
531.63	131.07
531.80	149.79
531.97	131.07
532.14	145.11
532.31	177.88
532.48	203.63
532.65	231.71
532.82	227.03
532.99	229.37
533.16	138.09
533.33	133.41
533.50	152.13
533.67	168.52
533.84	201.29
534.01	264.48
534.18	241.08
534.35	170.86
534.52	117.03
534.69	184.90
534.86	105.32
535.03	161.50
535.20	220.01
535.37	163.84
535.54	95.96
535.71	149.79
535.88	187.24
536.05	140.43
536.22	191.92
536.38	182.56
536.55	147.45
536.72	107.66
536.89	170.86
537.06	98.30
537.23	142.77
537.40	163.84
537.57	163.84
537.74	173.20
537.91	105.32
538.08	154.48
538.25	182.56
538.42	93.62
538.59	79.58
538.75	149.79
538.92	159.16
539.09	196.60
539.26	208.31
539.43	437.68
539.60	732.59
539.77	957.28
539.94	826.21
540.11	458.74
540.28	374.49
540.44	170.86
540.61	133.41
540.78	154.48
540.95	138.09
541.12	255.12
541.29	124.05
541.46	159.16
541.62	201.29
541.79	79.58
541.96	98.30
542.13	156.82
542.30	117.03
542.47	189.58
542.63	126.39
542.80	86.60
542.97	112.35
543.14	95.96
543.31	175.54
543.48	194.26
543.64	194.26
543.81	182.56
543.98	128.73
544.15	117.03
544.32	128.73
544.48	184.90
544.65	189.58
544.82	163.84
544.99	177.88
545.16	112.35
545.32	140.43
545.49	149.79
545.66	173.20
545.83	177.88
546.00	177.88
546.16	100.64
546.33	142.77
546.50	105.32
546.67	126.39
546.83	208.31
547.00	189.58
547.17	191.92
547.34	140.43
547.50	194.26
547.67	201.29
547.84	161.50
548.00	128.73
548.17	156.82
548.34	77.24
548.51	189.58
548.67	147.45
548.84	175.54
549.01	271.50
549.18	189.58
549.34	145.11
549.51	175.54
549.68	124.05
549.84	117.03
550.01	133.41
550.18	201.29
550.34	227.03
550.51	49.15
550.68	138.09
550.84	234.05
551.01	117.03
551.18	191.92
551.34	163.84
551.51	142.77
551.68	88.94
551.84	187.24
552.01	142.77
552.18	191.92
552.34	224.69
552.51	203.63
552.68	170.86
552.84	147.45
553.01	194.26
553.18	161.50
553.34	182.56
553.51	126.39
553.67	184.90
553.84	163.84
554.01	166.18
554.17	161.50
554.34	95.96
554.51	100.64
554.67	140.43
554.84	187.24
555.00	133.41
555.17	161.50
555.33	107.66
555.50	98.30
555.67	147.45
555.83	147.45
556.00	217.67
556.16	339.38
556.33	168.52
556.50	182.56
556.66	147.45
556.83	77.24
556.99	135.75
557.16	184.90
557.32	124.05
557.49	180.22
557.65	84.26
557.82	194.26
557.98	138.09
558.15	147.45
558.32	140.43
558.48	184.90
558.65	224.69
558.81	231.71
558.98	117.03
559.14	184.90
559.31	149.79
559.47	138.09
559.64	102.98
559.80	152.13
559.97	114.69
560.13	173.20
560.30	119.37
560.46	175.54
560.63	131.07
560.79	131.07
560.96	133.41
561.12	124.05
561.29	163.84
561.45	124.05
561.61	110.01
561.78	147.45
561.94	114.69
562.11	126.39
562.27	168.52
562.44	114.69
562.60	121.71
562.77	173.20
562.93	187.24
563.10	250.44
563.26	79.58
563.42	119.37
563.59	133.41
563.75	95.96
563.92	170.86
564.08	198.95
564.24	163.84
564.41	215.33
564.57	196.60
564.74	117.03
564.90	159.16
565.07	149.79
565.23	112.35
565.39	142.77
565.56	189.58
565.72	126.39
565.88	147.45
566.05	140.43
566.21	110.01
566.38	105.32
566.54	163.84
566.70	159.16
566.87	196.60
567.03	121.71
567.19	135.75
567.36	154.48
567.52	67.88
567.68	191.92
567.85	194.26
568.01	156.82
568.17	86.60
568.34	142.77
568.50	117.03
568.66	163.84
568.83	156.82
568.99	187.24
569.15	198.95
569.32	159.16
569.48	163.84
569.64	152.13
569.81	56.17
569.97	135.75
570.13	145.11
570.30	205.97
570.46	138.09
570.62	177.88
570.78	128.73
570.95	149.79
571.11	170.86
571.27	262.14
571.43	159.16
571.60	196.60
571.76	259.80
571.92	152.13
572.09	126.39
572.25	147.45
572.41	212.99
572.57	152.13
572.74	196.60
572.90	147.45
573.06	95.96
573.22	102.98
573.38	194.26
573.55	189.58
573.71	149.79
573.87	86.60
574.03	121.71
574.20	91.28
574.36	189.58
574.52	299.59
574.68	175.54
574.84	170.86
575.01	191.92
575.17	121.71
575.33	119.37
575.49	250.44
575.65	227.03
575.82	362.78
575.98	472.79
576.14	454.06
576.30	346.40
576.46	276.18
576.62	269.16
576.79	231.71
576.95	229.37
577.11	133.41
577.27	100.64
577.43	198.95
577.59	231.71
577.75	124.05
577.92	196.60
578.08	205.97
578.24	168.52
578.40	159.16
578.56	198.95
578.72	177.88
578.88	173.20
579.04	201.29
579.21	189.58
579.37	184.90
579.53	194.26
579.69	131.07
579.85	243.42
580.01	170.86
580.17	205.97
580.33	201.29
580.49	131.07
580.65	184.90
580.82	236.39
580.98	241.08
581.14	208.31
581.30	245.76
581.46	217.67
581.62	332.36
581.78	315.97
581.94	294.91
582.10	203.63
582.26	257.46
582.42	212.99
582.58	205.97
582.74	299.59
582.90	290.23
583.06	280.86
583.22	271.50
583.38	285.55
583.54	372.15
583.70	449.38
583.86	404.91
584.02	421.30
584.18	676.41
584.34	1170.27
584.50	8224.64
584.66	28343.89
584.82	47547.98
584.98	48458.45
585.14	31000.40
585.30	16315.87
585.46	7882.92
585.62	3105.89
585.78	1423.05
585.94	732.59
586.10	578.11
586.26	503.22
586.42	409.59
586.58	374.49
586.74	362.78
586.90	266.82
587.06	299.59
587.22	292.57
587.38	538.32
587.54	1591.56
587.70	3000.57
587.86	3915.72
588.02	2958.44
588.18	1802.21
588.34	1062.60
588.49	571.09
588.65	322.99
588.81	241.08
588.97	194.26
589.13	276.18
589.29	135.75
589.45	182.56
589.61	255.12
589.77	360.44
589.93	311.29
590.08	278.52
590.24	262.14
590.40	205.97
590.56	159.16
590.72	215.33
590.88	227.03
591.04	220.01
591.20	231.71
591.35	294.91
591.51	194.26
591.67	131.07
591.83	217.67
591.99	231.71
592.15	250.44
592.31	177.88
592.46	227.03
592.62	180.22
592.78	205.97
592.94	182.56
593.10	236.39
593.26	212.99
593.41	205.97
593.57	341.72
593.73	1217.08
593.89	3674.64
594.05	6071.35
594.20	5944.96
594.36	3960.19
594.52	2370.96
594.68	1434.75
594.84	660.03
594.99	397.89
595.15	301.93
595.31	208.31
595.47	287.89
595.62	248.10
595.78	170.86
595.94	241.08
596.10	208.31
596.25	217.67
596.41	182.56
596.57	243.42
596.73	344.06
596.88	737.27
597.04	1256.87
597.20	1598.59
597.36	1184.31
597.51	842.59
597.67	505.56
597.83	360.44
597.99	234.05
598.14	194.26
598.30	212.99
598.46	234.05
598.61	252.78
598.77	238.73
598.93	121.71
599.09	138.09
599.24	149.79
599.40	227.03
599.56	191.92
599.71	241.08
599.87	203.63
600.03	166.18
600.18	161.50
600.34	156.82
600.50	208.31
600.65	105.32
600.81	170.86
600.97	138.09
601.12	196.60
601.28	184.90
601.44	201.29
601.59	154.48
601.75	72.56
601.91	196.60
602.06	236.39
602.22	470.45
602.37	922.17
602.53	1444.11
602.69	1603.27
602.84	1163.25
603.00	734.93
603.16	578.11
603.31	325.33
603.47	241.08
603.62	194.26
603.78	145.11
603.94	168.52
604.09	187.24
604.25	189.58
604.40	175.54
604.56	166.18
604.71	184.90
604.87	81.92
605.03	198.95
605.18	191.92
605.34	227.03
605.49	142.77
605.65	203.63
605.80	175.54
605.96	255.12
606.12	215.33
606.27	205.97
606.43	208.31
606.58	573.43
606.74	1914.56
606.89	3936.78
607.05	4896.40
607.20	4365.10
607.36	2881.20
607.51	1741.36
607.67	1057.92
607.82	587.47
607.98	346.40
608.13	304.27
608.29	308.95
608.44	344.06
608.60	210.65
608.75	905.79
608.91	3166.74
609.06	6717.34
609.22	8704.45
609.37	7227.57
609.53	4915.12
609.68	3204.19
609.84	1785.83
609.99	903.45
610.15	458.74
610.30	365.12
610.46	320.65
610.61	227.03
610.76	222.35
610.92	301.93
611.07	149.79
611.23	227.03
611.38	177.88
611.54	135.75
611.69	159.16
611.84	262.14
612.00	156.82
612.15	320.65
612.31	301.93
612.46	440.02
612.62	367.46
612.77	416.62
612.92	369.80
613.08	353.42
613.23	259.80
613.39	655.35
613.54	3309.52
613.69	8500.83
613.85	13462.76
614.00	13437.02
614.15	9680.46
614.31	6181.35
614.46	3824.44
614.62	1994.14
614.77	1027.50
614.92	472.79
615.08	348.74
615.23	297.25
615.38	292.57
615.54	599.18
615.69	1764.76
615.84	2970.14
616.00	3492.08
616.15	3028.65
616.30	2127.55
616.46	1364.53
616.61	858.98
616.76	496.19
616.92	337.04
617.07	191.92
617.22	201.29
617.37	156.82
617.53	236.39
617.68	292.57
617.83	163.84
617.99	187.24
618.14	236.39
618.29	180.22
618.45	194.26
618.60	177.88
618.75	210.65
618.90	142.77
619.06	198.95
619.21	198.95
619.36	196.60
619.51	110.01
619.67	152.13
619.82	142.77
619.97	100.64
620.12	135.75
620.28	222.35
620.43	168.52
620.58	238.73
620.73	238.73
620.89	421.30
621.04	1022.81
621.19	1797.53
621.34	2186.06
621.49	1741.36
621.65	1275.59
621.80	901.11
621.95	629.60
622.10	395.55
622.25	217.67
622.41	180.22
622.56	224.69
622.71	159.16
622.86	205.97
623.01	140.43
623.16	191.92
623.32	133.41
623.47	156.82
623.62	60.85
623.77	133.41
623.92	231.71
624.07	145.11
624.23	163.84
624.38	173.20
624.53	203.63
624.68	145.11
624.83	145.11
624.98	184.90
625.13	105.32
625.29	203.63
625.44	224.69
625.59	245.76
625.74	507.90
625.89	1863.07
626.04	4468.08
626.19	6869.47
626.34	6860.11
626.49	5097.69
626.65	3342.28
626.80	2216.49
626.95	1181.97
627.10	571.09
627.25	346.40
627.40	297.25
627.55	184.90
627.70	156.82
627.85	154.48
628.00	194.26
628.15	194.26
628.30	217.67
628.45	95.96
628.60	231.71
628.76	170.86
628.91	152.13
629.06	173.20
629.21	175.54
629.36	170.86
629.51	168.52
629.66	454.06
629.81	933.87
629.96	1605.61
630.11	1891.15
630.26	1558.80
630.41	1100.05
630.56	786.42
630.71	566.41
630.86	299.59
631.01	149.79
631.16	266.82
631.31	252.78
631.46	208.31
631.61	156.82
631.76	198.95
631.91	152.13
632.06	201.29
632.21	262.14
632.36	276.18
632.51	383.85
632.66	1078.99
632.81	2581.61
632.96	4287.86
633.10	4615.54
633.25	3672.30
633.40	2480.97
633.55	1671.14
633.70	1114.10
633.85	517.26
634.00	376.83
634.15	245.76
634.30	201.29
634.45	191.92
634.60	205.97
634.75	173.20
634.90	86.60
635.05	266.82
635.19	187.24
635.34	124.05
635.49	140.43
635.64	182.56
635.79	74.90
635.94	168.52
636.09	227.03
636.24	236.39
636.39	170.86
636.53	187.24
636.68	248.10
636.83	238.73
636.98	250.44
637.13	238.73
637.28	334.70
637.43	720.88
637.57	2864.82
637.72	5755.38
637.87	8379.12
638.02	7915.69
638.17	5989.43
638.32	4081.89
638.46	2635.44
638.61	1603.27
638.76	791.10
638.91	465.77
639.06	433.00
639.20	304.27
639.35	987.71
639.50	4035.08
639.65	8638.92
639.80	13092.96
639.94	12367.39
640.09	9252.14
640.24	6279.66
640.39	4098.28
640.54	2272.66
640.68	1137.50
640.83	678.76
640.98	306.61
641.13	285.55
641.27	264.48
641.42	243.42
641.57	184.90
641.72	241.08
641.86	194.26
642.01	189.58
642.16	180.22
642.31	208.31
642.45	224.69
642.60	201.29
642.75	234.05
642.90	262.14
643.04	191.92
643.19	140.43
643.34	187.24
643.48	220.01
643.63	140.43
643.78	224.69
643.93	168.52
644.07	173.20
644.22	81.92
644.37	156.82
644.51	126.39
644.66	119.37
644.81	131.07
644.95	203.63
645.10	117.03
645.25	119.37
645.39	224.69
645.54	140.43
645.69	198.95
645.83	205.97
645.98	182.56
646.13	159.16
646.27	203.63
646.42	72.56
646.57	161.50
646.71	110.01
646.86	159.16
647.00	156.82
647.15	210.65
647.30	184.90
647.44	98.30
647.59	126.39
647.74	133.41
647.88	156.82
648.03	145.11
648.17	170.86
648.32	161.50
648.47	224.69
648.61	154.48
648.76	133.41
648.90	161.50
649.05	184.90
649.20	224.69
649.34	229.37
649.49	180.22
649.63	290.23
649.78	423.64
649.92	1710.93
650.07	4074.87
650.21	6424.77
650.36	6913.94
650.51	5259.18
650.65	3719.11
650.80	2495.01
650.94	1437.09
651.09	807.48
651.23	407.25
651.38	283.20
651.52	304.27
651.67	159.16
651.81	210.65
651.96	250.44
652.10	198.95
652.25	241.08
652.39	271.50
652.54	582.79
652.68	1282.61
652.83	2232.87
652.97	2640.12
653.12	2127.55
653.26	1561.14
653.41	1001.75
653.55	601.52
653.70	435.34
653.84	301.93
653.99	191.92
654.13	182.56
654.27	147.45
654.42	126.39
654.56	163.84
654.71	203.63
654.85	184.90
655.00	250.44
655.14	138.09
655.29	205.97
655.43	189.58
655.57	133.41
655.72	131.07
655.86	191.92
656.01	196.60
656.15	140.43
656.30	168.52
656.44	170.86
656.58	154.48
656.73	166.18
656.87	166.18
657.01	88.94
657.16	166.18
657.30	177.88
657.45	142.77
657.59	135.75
657.73	107.66
657.88	166.18
658.02	156.82
658.16	180.22
658.31	166.18
658.45	102.98
658.60	149.79
658.74	161.50
658.88	154.48
659.03	269.16
659.17	713.86
659.31	1886.47
659.46	3171.43
659.60	3613.79
659.74	2977.16
659.89	2139.25
660.03	1439.43
660.17	901.11
660.32	552.37
660.46	337.04
660.60	217.67
660.74	170.86
660.89	149.79
661.03	189.58
661.17	142.77
661.32	191.92
661.46	112.35
661.60	88.94
661.74	196.60
661.89	114.69
662.03	217.67
662.17	102.98
662.31	124.05
662.46	126.39
662.60	177.88
662.74	39.79
662.88	133.41
663.03	177.88
663.17	152.13
663.31	131.07
663.45	180.22
663.60	126.39
663.74	168.52
663.88	149.79
664.02	77.24
664.17	166.18
664.31	156.82
664.45	131.07
664.59	156.82
664.73	135.75
664.88	187.24
665.02	110.01
665.16	102.98
665.30	250.44
665.44	173.20
665.59	166.18
665.73	131.07
665.87	93.62
666.01	107.66
666.15	203.63
666.29	135.75
666.44	182.56
666.58	203.63
666.72	255.12
666.86	180.22
667.00	390.87
667.14	1345.81
667.28	3400.80
667.43	5455.79
667.57	6326.47
667.71	5013.43
667.85	3548.25
667.99	2113.50
668.13	1174.95
668.27	732.59
668.41	444.70
668.56	285.55
668.70	194.26
668.84	194.26
668.98	198.95
669.12	135.75
669.26	222.35
669.40	262.14
669.54	138.09
669.68	212.99
669.82	159.16
669.96	175.54
670.10	142.77
670.25	194.26
670.39	191.92
670.53	203.63
670.67	173.20
670.81	205.97
670.95	421.30
671.09	1392.62
671.23	2551.18
671.37	3754.22
671.51	3791.67
671.65	2876.52
671.79	1881.79
671.93	1160.91
672.07	755.99
672.21	456.40
672.35	222.35
672.49	262.14
672.63	187.24
672.77	166.18
672.91	170.86
673.05	166.18
673.19	163.84
673.33	222.35
673.47	201.29
673.61	191.92
673.75	105.32
673.89	154.48
674.03	138.09
674.17	152.13
674.31	170.86
674.45	133.41
674.59	131.07
674.73	177.88
674.87	168.52
675.01	215.33
675.15	203.63
675.29	159.16
675.43	152.13
675.56	189.58
675.70	166.18
675.84	124.05
675.98	175.54
676.12	121.71
676.26	128.73
676.40	152.13
676.54	173.20
676.68	140.43
676.82	196.60
676.96	156.82
677.10	145.11
677.23	107.66
677.37	60.85
677.51	140.43
677.65	196.60
677.79	159.16
677.93	121.71
678.07	138.09
678.21	124.05
678.34	98.30
678.48	145.11
678.62	95.96
678.76	145.11
678.90	180.22
679.04	126.39
679.18	110.01
679.31	126.39
679.45	117.03
679.59	102.98
679.73	145.11
679.87	173.20
680.00	105.32
680.14	191.92
680.28	205.97
680.42	110.01
680.56	102.98
680.70	189.58
680.83	126.39
680.97	81.92
681.11	149.79
681.25	180.22
681.39	175.54
681.52	86.60
681.66	117.03
681.80	93.62
681.94	102.98
682.07	159.16
682.21	100.64
682.35	163.84
682.49	86.60
682.62	184.90
682.76	102.98
682.90	149.79
683.04	142.77
683.17	154.48
683.31	58.51
683.45	201.29
683.59	170.86
683.72	140.43
683.86	163.84
684.00	161.50
684.13	39.79
684.27	95.96
684.41	173.20
684.55	217.67
684.68	166.18
684.82	145.11
684.96	187.24
685.09	154.48
685.23	152.13
685.37	198.95
685.50	191.92
685.64	168.52
685.78	156.82
685.91	163.84
686.05	198.95
686.19	173.20
686.32	117.03
686.46	142.77
686.60	145.11
686.73	224.69
686.87	201.29
687.01	210.65
687.14	210.65
687.28	203.63
687.42	156.82
687.55	198.95
687.69	243.42
687.82	133.41
687.96	128.73
688.10	177.88
688.23	140.43
688.37	166.18
688.50	187.24
688.64	196.60
688.78	81.92
688.91	140.43
689.05	173.20
689.18	145.11
689.32	128.73
689.46	91.28
689.59	98.30
689.73	205.97
689.86	124.05
690.00	128.73
690.13	112.35
690.27	175.54
690.41	166.18
690.54	131.07
690.68	135.75
690.81	100.64
690.95	107.66
691.08	121.71
691.22	220.01
691.35	102.98
691.49	196.60
691.62	149.79
691.76	156.82
691.89	205.97
692.03	252.78
692.16	220.01
692.30	472.79
692.43	1390.28
692.57	2270.32
692.70	2827.37
692.84	2354.58
692.97	1839.66
693.11	1329.42
693.24	1060.26
693.38	578.11
693.51	479.81
693.65	360.44
693.78	236.39
693.92	198.95
694.05	227.03
694.19	187.24
694.32	170.86
694.45	138.09
694.59	107.66
694.72	205.97
694.86	159.16
694.99	210.65
695.13	114.69
695.26	201.29
695.39	138.09
695.53	217.67
695.66	189.58
695.80	138.09
695.93	128.73
696.07	257.46
696.20	311.29
696.33	372.15
696.47	334.70
696.60	278.52
696.73	236.39
696.87	142.77
697.00	203.63
697.14	142.77
697.27	147.45
697.40	231.71
697.54	100.64
697.67	180.22
697.80	138.09
697.94	152.13
698.07	227.03
698.21	107.66
698.34	210.65
698.47	170.86
698.61	149.79
698.74	135.75
698.87	126.39
699.01	154.48
699.14	102.98
699.27	159.16
699.40	217.67
699.54	180.22
699.67	112.35
699.80	166.18
699.94	180.22
700.07	161.50
700.20	44.47
700.34	156.82
700.47	222.35
700.60	210.65
700.73	191.92
700.87	194.26
701.00	170.86
701.13	121.71
701.26	142.77
701.40	105.32
701.53	217.67
701.66	145.11
701.79	191.92
701.93	276.18
702.06	252.78
702.19	238.73
702.32	318.31
702.46	322.99
702.59	765.36
702.72	1732.00
702.85	3272.07
702.99	4613.20
703.12	5132.79
703.25	4224.67
703.38	3571.66
703.51	2810.98
703.65	1933.28
703.78	1282.61
703.91	880.04
704.04	650.67
704.17	416.62
704.31	325.33
704.44	231.71
704.57	184.90
704.70	180.22
704.83	124.05
704.96	117.03
705.10	149.79
705.23	142.77
>>>>>End Processed Spectral Data<<<<<
