SpectraSuite Data File
++++++++++++++++++++++++++++++++++++
Date: Fri Oct 04 12:13:28 GMT-05:00 2013
User: price-jones
Dark Spectrum Present: No
Reference Spectrum Present: No
Number of Sampled Component Spectra: 1
Spectrometers: USB2+H05261
Integration Time (usec): 10000 (USB2+H05261)
Spectra Averaged: 1 (USB2+H05261)
Boxcar Smoothing: 0 (USB2+H05261)
Correct for Electrical Dark: No (USB2+H05261)
Strobe/Lamp Enabled: No (USB2+H05261)
Correct for Detector Non-linearity: No (USB2+H05261)
Correct for Stray Light: No (USB2+H05261)
Number of Pixels in Processed Spectrum: 2048
>>>>>Begin Processed Spectral Data<<<<<
365.73	0.00
365.92	0.00
366.12	0.00
366.32	0.00
366.52	0.00
366.72	0.00
366.91	0.00
367.11	0.00
367.31	0.00
367.51	0.00
367.70	0.00
367.90	0.00
368.10	0.00
368.30	0.00
368.49	0.00
368.69	0.00
368.89	0.00
369.09	0.00
369.28	0.00
369.48	0.00
369.68	0.00
369.87	0.00
370.07	0.00
370.27	0.00
370.47	0.00
370.66	0.00
370.86	0.00
371.06	0.00
371.25	0.00
371.45	23.41
371.65	0.00
371.84	0.00
372.04	0.00
372.24	25.75
372.44	63.19
372.63	0.00
372.83	23.41
373.03	0.00
373.22	0.00
373.42	9.36
373.62	72.56
373.81	49.15
374.01	77.24
374.21	0.00
374.40	30.43
374.60	70.22
374.79	35.11
374.99	0.00
375.19	7.02
375.38	32.77
375.58	84.26
375.78	95.96
375.97	35.11
376.17	46.81
376.37	72.56
376.56	0.00
376.76	0.00
376.95	42.13
377.15	21.06
377.35	60.85
377.54	0.00
377.74	21.06
377.93	18.72
378.13	18.72
378.33	42.13
378.52	42.13
378.72	9.36
378.91	42.13
379.11	0.00
379.31	32.77
379.50	0.00
379.70	25.75
379.89	46.81
380.09	18.72
380.28	0.00
380.48	0.00
380.68	14.04
380.87	23.41
381.07	0.00
381.26	42.13
381.46	70.22
381.65	74.90
381.85	0.00
382.04	0.00
382.24	18.72
382.43	4.68
382.63	0.00
382.83	0.00
383.02	28.09
383.22	2.34
383.41	32.77
383.61	0.00
383.80	147.45
384.00	0.00
384.19	16.38
384.39	46.81
384.58	0.00
384.78	4.68
384.97	93.62
385.17	72.56
385.36	65.54
385.56	53.83
385.75	16.38
385.95	0.00
386.14	44.47
386.34	0.00
386.53	11.70
386.72	11.70
386.92	39.79
387.11	100.64
387.31	0.00
387.50	49.15
387.70	58.51
387.89	0.00
388.09	0.00
388.28	0.00
388.48	70.22
388.67	35.11
388.86	11.70
389.06	49.15
389.25	42.13
389.45	11.70
389.64	42.13
389.84	74.90
390.03	9.36
390.22	46.81
390.42	30.43
390.61	2.34
390.81	46.81
391.00	65.54
391.19	60.85
391.39	4.68
391.58	0.00
391.78	23.41
391.97	0.00
392.16	58.51
392.36	51.49
392.55	28.09
392.75	7.02
392.94	46.81
393.13	0.00
393.33	0.00
393.52	11.70
393.71	46.81
393.91	70.22
394.10	0.00
394.29	9.36
394.49	0.00
394.68	11.70
394.88	0.00
395.07	0.00
395.26	0.00
395.46	23.41
395.65	23.41
395.84	0.00
396.04	39.79
396.23	0.00
396.42	0.00
396.62	46.81
396.81	49.15
397.00	23.41
397.19	18.72
397.39	30.43
397.58	30.43
397.77	65.54
397.97	0.00
398.16	46.81
398.35	65.54
398.55	35.11
398.74	0.00
398.93	42.13
399.12	100.64
399.32	0.00
399.51	7.02
399.70	18.72
399.90	42.13
400.09	35.11
400.28	70.22
400.47	70.22
400.67	0.00
400.86	21.06
401.05	37.45
401.24	70.22
401.44	7.02
401.63	7.02
401.82	79.58
402.01	42.13
402.21	42.13
402.40	16.38
402.59	32.77
402.78	42.13
402.97	67.88
403.17	51.49
403.36	18.72
403.55	21.06
403.74	2.34
403.93	0.00
404.13	60.85
404.32	23.41
404.51	60.85
404.70	44.47
404.89	93.62
405.09	0.00
405.28	11.70
405.47	11.70
405.66	56.17
405.85	7.02
406.05	32.77
406.24	0.00
406.43	9.36
406.62	84.26
406.81	0.00
407.00	0.00
407.20	4.68
407.39	0.00
407.58	14.04
407.77	0.00
407.96	124.05
408.15	0.00
408.34	28.09
408.54	72.56
408.73	4.68
408.92	0.00
409.11	0.00
409.30	49.15
409.49	28.09
409.68	0.00
409.87	0.00
410.07	21.06
410.26	0.00
410.45	39.79
410.64	42.13
410.83	0.00
411.02	0.00
411.21	60.85
411.40	0.00
411.59	42.13
411.78	9.36
411.98	56.17
412.17	77.24
412.36	39.79
412.55	91.28
412.74	21.06
412.93	0.00
413.12	60.85
413.31	2.34
413.50	84.26
413.69	81.92
413.88	88.94
414.07	14.04
414.26	0.00
414.45	0.00
414.64	14.04
414.83	14.04
415.02	30.43
415.22	93.62
415.41	39.79
415.60	65.54
415.79	56.17
415.98	4.68
416.17	30.43
416.36	30.43
416.55	14.04
416.74	53.83
416.93	0.00
417.12	23.41
417.31	0.00
417.50	32.77
417.69	72.56
417.88	65.54
418.07	2.34
418.26	65.54
418.45	84.26
418.64	70.22
418.83	46.81
419.02	32.77
419.21	2.34
419.39	16.38
419.58	44.47
419.77	35.11
419.96	0.00
420.15	16.38
420.34	0.00
420.53	44.47
420.72	0.00
420.91	70.22
421.10	0.00
421.29	53.83
421.48	0.00
421.67	81.92
421.86	0.00
422.05	0.00
422.24	46.81
422.43	81.92
422.61	0.00
422.80	0.00
422.99	0.00
423.18	30.43
423.37	28.09
423.56	105.32
423.75	112.35
423.94	4.68
424.13	0.00
424.32	102.98
424.50	65.54
424.69	4.68
424.88	49.15
425.07	16.38
425.26	105.32
425.45	74.90
425.64	51.49
425.83	4.68
426.01	23.41
426.20	63.19
426.39	4.68
426.58	35.11
426.77	0.00
426.96	51.49
427.15	42.13
427.33	21.06
427.52	0.00
427.71	46.81
427.90	18.72
428.09	9.36
428.28	28.09
428.46	0.00
428.65	35.11
428.84	42.13
429.03	79.58
429.22	32.77
429.40	65.54
429.59	44.47
429.78	32.77
429.97	0.00
430.16	44.47
430.34	51.49
430.53	44.47
430.72	25.75
430.91	0.00
431.10	28.09
431.28	23.41
431.47	32.77
431.66	56.17
431.85	0.00
432.03	4.68
432.22	21.06
432.41	0.00
432.60	102.98
432.79	81.92
432.97	11.70
433.16	86.60
433.35	79.58
433.54	14.04
433.72	60.85
433.91	49.15
434.10	102.98
434.28	7.02
434.47	72.56
434.66	77.24
434.85	65.54
435.03	28.09
435.22	7.02
435.41	72.56
435.59	25.75
435.78	51.49
435.97	9.36
436.16	0.00
436.34	23.41
436.53	0.00
436.72	98.30
436.90	60.85
437.09	0.00
437.28	23.41
437.46	0.00
437.65	91.28
437.84	53.83
438.02	0.00
438.21	56.17
438.40	0.00
438.58	117.03
438.77	11.70
438.96	0.00
439.14	9.36
439.33	95.96
439.52	28.09
439.70	0.00
439.89	117.03
440.08	0.00
440.26	23.41
440.45	60.85
440.63	35.11
440.82	77.24
441.01	79.58
441.19	30.43
441.38	21.06
441.57	58.51
441.75	46.81
441.94	39.79
442.12	21.06
442.31	11.70
442.50	65.54
442.68	35.11
442.87	2.34
443.05	0.00
443.24	0.00
443.43	23.41
443.61	11.70
443.80	25.75
443.98	11.70
444.17	63.19
444.35	18.72
444.54	0.00
444.73	9.36
444.91	0.00
445.10	102.98
445.28	30.43
445.47	0.00
445.65	0.00
445.84	51.49
446.02	0.00
446.21	44.47
446.39	39.79
446.58	0.00
446.77	46.81
446.95	44.47
447.14	7.02
447.32	0.00
447.51	77.24
447.69	0.00
447.88	16.38
448.06	35.11
448.25	2.34
448.43	7.02
448.62	0.00
448.80	95.96
448.99	11.70
449.17	25.75
449.36	21.06
449.54	56.17
449.73	28.09
449.91	39.79
450.10	49.15
450.28	4.68
450.46	74.90
450.65	56.17
450.83	18.72
451.02	81.92
451.20	0.00
451.39	35.11
451.57	7.02
451.76	58.51
451.94	114.69
452.13	49.15
452.31	67.88
452.49	46.81
452.68	46.81
452.86	72.56
453.05	67.88
453.23	0.00
453.42	0.00
453.60	39.79
453.78	105.32
453.97	9.36
454.15	0.00
454.34	65.54
454.52	58.51
454.70	35.11
454.89	88.94
455.07	0.00
455.26	39.79
455.44	67.88
455.62	30.43
455.81	51.49
455.99	0.00
456.17	21.06
456.36	39.79
456.54	37.45
456.73	0.00
456.91	16.38
457.09	11.70
457.28	0.00
457.46	0.00
457.64	107.66
457.83	58.51
458.01	49.15
458.19	53.83
458.38	30.43
458.56	79.58
458.74	51.49
458.93	35.11
459.11	14.04
459.29	58.51
459.48	86.60
459.66	23.41
459.84	53.83
460.03	88.94
460.21	4.68
460.39	37.45
460.57	81.92
460.76	0.00
460.94	44.47
461.12	0.00
461.31	42.13
461.49	65.54
461.67	70.22
461.85	18.72
462.04	105.32
462.22	84.26
462.40	23.41
462.59	9.36
462.77	18.72
462.95	74.90
463.13	30.43
463.32	14.04
463.50	46.81
463.68	0.00
463.86	63.19
464.05	0.00
464.23	0.00
464.41	30.43
464.59	28.09
464.78	23.41
464.96	60.85
465.14	0.00
465.32	0.00
465.50	65.54
465.69	88.94
465.87	11.70
466.05	21.06
466.23	0.00
466.41	0.00
466.60	56.17
466.78	49.15
466.96	18.72
467.14	0.00
467.32	42.13
467.51	21.06
467.69	0.00
467.87	30.43
468.05	46.81
468.23	74.90
468.41	0.00
468.60	60.85
468.78	51.49
468.96	81.92
469.14	81.92
469.32	49.15
469.50	0.00
469.69	100.64
469.87	28.09
470.05	46.81
470.23	39.79
470.41	39.79
470.59	16.38
470.77	0.00
470.95	9.36
471.14	0.00
471.32	114.69
471.50	4.68
471.68	9.36
471.86	81.92
472.04	0.00
472.22	4.68
472.40	63.19
472.58	0.00
472.77	25.75
472.95	60.85
473.13	11.70
473.31	63.19
473.49	11.70
473.67	63.19
473.85	128.73
474.03	32.77
474.21	39.79
474.39	23.41
474.57	0.00
474.75	72.56
474.93	0.00
475.12	0.00
475.30	2.34
475.48	9.36
475.66	0.00
475.84	0.00
476.02	84.26
476.20	46.81
476.38	39.79
476.56	74.90
476.74	79.58
476.92	39.79
477.10	0.00
477.28	21.06
477.46	14.04
477.64	117.03
477.82	11.70
478.00	0.00
478.18	30.43
478.36	58.51
478.54	4.68
478.72	11.70
478.90	35.11
479.08	18.72
479.26	110.01
479.44	49.15
479.62	35.11
479.80	16.38
479.98	44.47
480.16	28.09
480.34	14.04
480.52	0.00
480.70	39.79
480.88	65.54
481.06	46.81
481.24	21.06
481.41	4.68
481.59	18.72
481.77	32.77
481.95	0.00
482.13	0.00
482.31	56.17
482.49	7.02
482.67	72.56
482.85	79.58
483.03	0.00
483.21	49.15
483.39	51.49
483.57	110.01
483.74	95.96
483.92	4.68
484.10	18.72
484.28	0.00
484.46	72.56
484.64	39.79
484.82	63.19
485.00	88.94
485.18	32.77
485.35	105.32
485.53	25.75
485.71	74.90
485.89	7.02
486.07	67.88
486.25	0.00
486.43	0.00
486.61	0.00
486.78	28.09
486.96	72.56
487.14	21.06
487.32	4.68
487.50	93.62
487.68	42.13
487.85	23.41
488.03	88.94
488.21	32.77
488.39	35.11
488.57	81.92
488.75	23.41
488.92	79.58
489.10	14.04
489.28	25.75
489.46	18.72
489.64	32.77
489.81	84.26
489.99	25.75
490.17	14.04
490.35	18.72
490.53	23.41
490.70	46.81
490.88	56.17
491.06	28.09
491.24	21.06
491.41	2.34
491.59	58.51
491.77	0.00
491.95	51.49
492.13	60.85
492.30	28.09
492.48	23.41
492.66	11.70
492.84	93.62
493.01	98.30
493.19	53.83
493.37	11.70
493.54	25.75
493.72	32.77
493.90	77.24
494.08	42.13
494.25	91.28
494.43	42.13
494.61	67.88
494.79	58.51
494.96	0.00
495.14	88.94
495.32	0.00
495.49	21.06
495.67	60.85
495.85	0.00
496.02	37.45
496.20	77.24
496.38	67.88
496.55	42.13
496.73	44.47
496.91	128.73
497.09	30.43
497.26	63.19
497.44	67.88
497.62	32.77
497.79	0.00
497.97	0.00
498.14	46.81
498.32	0.00
498.50	121.71
498.67	39.79
498.85	0.00
499.03	0.00
499.20	0.00
499.38	16.38
499.56	95.96
499.73	0.00
499.91	28.09
500.08	37.45
500.26	39.79
500.44	35.11
500.61	9.36
500.79	18.72
500.97	0.00
501.14	11.70
501.32	93.62
501.49	0.00
501.67	0.00
501.84	95.96
502.02	67.88
502.20	93.62
502.37	65.54
502.55	18.72
502.72	0.00
502.90	0.00
503.07	46.81
503.25	16.38
503.43	72.56
503.60	39.79
503.78	0.00
503.95	7.02
504.13	58.51
504.30	2.34
504.48	21.06
504.65	0.00
504.83	0.00
505.01	23.41
505.18	16.38
505.36	0.00
505.53	42.13
505.71	2.34
505.88	9.36
506.06	28.09
506.23	37.45
506.41	133.41
506.58	84.26
506.76	21.06
506.93	72.56
507.11	39.79
507.28	0.00
507.46	32.77
507.63	0.00
507.81	32.77
507.98	46.81
508.16	35.11
508.33	86.60
508.50	28.09
508.68	0.00
508.85	42.13
509.03	39.79
509.20	16.38
509.38	0.00
509.55	49.15
509.73	88.94
509.90	46.81
510.08	60.85
510.25	84.26
510.42	42.13
510.60	60.85
510.77	42.13
510.95	0.00
511.12	9.36
511.30	0.00
511.47	28.09
511.64	70.22
511.82	81.92
511.99	79.58
512.17	0.00
512.34	67.88
512.51	98.30
512.69	28.09
512.86	11.70
513.04	0.00
513.21	79.58
513.38	67.88
513.56	46.81
513.73	49.15
513.90	0.00
514.08	60.85
514.25	58.51
514.43	72.56
514.60	49.15
514.77	7.02
514.95	147.45
515.12	9.36
515.29	77.24
515.47	0.00
515.64	53.83
515.81	42.13
515.99	100.64
516.16	63.19
516.33	88.94
516.51	0.00
516.68	51.49
516.85	0.00
517.03	39.79
517.20	39.79
517.37	0.00
517.54	0.00
517.72	4.68
517.89	67.88
518.06	51.49
518.24	2.34
518.41	25.75
518.58	37.45
518.75	39.79
518.93	53.83
519.10	53.83
519.27	98.30
519.45	42.13
519.62	28.09
519.79	0.00
519.96	44.47
520.14	74.90
520.31	9.36
520.48	0.00
520.65	0.00
520.83	16.38
521.00	65.54
521.17	2.34
521.34	49.15
521.52	51.49
521.69	0.00
521.86	100.64
522.03	0.00
522.20	114.69
522.38	58.51
522.55	21.06
522.72	0.00
522.89	0.00
523.07	53.83
523.24	53.83
523.41	30.43
523.58	18.72
523.75	2.34
523.92	23.41
524.10	0.00
524.27	21.06
524.44	46.81
524.61	95.96
524.78	28.09
524.96	51.49
525.13	58.51
525.30	60.85
525.47	4.68
525.64	7.02
525.81	9.36
525.98	0.00
526.16	0.00
526.33	91.28
526.50	79.58
526.67	39.79
526.84	30.43
527.01	23.41
527.18	2.34
527.36	51.49
527.53	77.24
527.70	21.06
527.87	44.47
528.04	91.28
528.21	72.56
528.38	60.85
528.55	0.00
528.72	35.11
528.89	79.58
529.07	70.22
529.24	7.02
529.41	35.11
529.58	21.06
529.75	18.72
529.92	28.09
530.09	44.47
530.26	25.75
530.43	9.36
530.60	28.09
530.77	91.28
530.94	140.43
531.11	4.68
531.28	18.72
531.46	16.38
531.63	95.96
531.80	7.02
531.97	53.83
532.14	79.58
532.31	60.85
532.48	58.51
532.65	117.03
532.82	53.83
532.99	49.15
533.16	39.79
533.33	51.49
533.50	88.94
533.67	112.35
533.84	4.68
534.01	32.77
534.18	0.00
534.35	23.41
534.52	60.85
534.69	53.83
534.86	72.56
535.03	53.83
535.20	63.19
535.37	39.79
535.54	42.13
535.71	28.09
535.88	86.60
536.05	53.83
536.22	72.56
536.38	32.77
536.55	86.60
536.72	0.00
536.89	14.04
537.06	37.45
537.23	42.13
537.40	60.85
537.57	145.11
537.74	67.88
537.91	56.17
538.08	53.83
538.25	46.81
538.42	77.24
538.59	39.79
538.75	21.06
538.92	35.11
539.09	74.90
539.26	98.30
539.43	95.96
539.60	182.56
539.77	238.73
539.94	234.05
540.11	149.79
540.28	70.22
540.44	67.88
540.61	72.56
540.78	32.77
540.95	39.79
541.12	0.00
541.29	0.00
541.46	56.17
541.62	84.26
541.79	37.45
541.96	56.17
542.13	0.00
542.30	49.15
542.47	58.51
542.63	0.00
542.80	79.58
542.97	81.92
543.14	2.34
543.31	84.26
543.48	91.28
543.64	0.00
543.81	46.81
543.98	70.22
544.15	0.00
544.32	74.90
544.48	21.06
544.65	0.00
544.82	58.51
544.99	39.79
545.16	149.79
545.32	14.04
545.49	51.49
545.66	0.00
545.83	32.77
546.00	14.04
546.16	88.94
546.33	42.13
546.50	65.54
546.67	56.17
546.83	37.45
547.00	30.43
547.17	0.00
547.34	9.36
547.50	2.34
547.67	65.54
547.84	72.56
548.00	49.15
548.17	35.11
548.34	49.15
548.51	18.72
548.67	0.00
548.84	51.49
549.01	37.45
549.18	74.90
549.34	77.24
549.51	60.85
549.68	11.70
549.84	35.11
550.01	0.00
550.18	49.15
550.34	147.45
550.51	0.00
550.68	0.00
550.84	0.00
551.01	30.43
551.18	74.90
551.34	7.02
551.51	18.72
551.68	32.77
551.84	60.85
552.01	2.34
552.18	49.15
552.34	56.17
552.51	58.51
552.68	9.36
552.84	58.51
553.01	23.41
553.18	44.47
553.34	37.45
553.51	35.11
553.67	35.11
553.84	46.81
554.01	72.56
554.17	39.79
554.34	32.77
554.51	74.90
554.67	60.85
554.84	2.34
555.00	46.81
555.17	4.68
555.33	32.77
555.50	23.41
555.67	100.64
555.83	63.19
556.00	0.00
556.16	67.88
556.33	51.49
556.50	60.85
556.66	0.00
556.83	98.30
556.99	93.62
557.16	74.90
557.32	7.02
557.49	37.45
557.65	70.22
557.82	14.04
557.98	128.73
558.15	49.15
558.32	25.75
558.48	58.51
558.65	86.60
558.81	72.56
558.98	28.09
559.14	91.28
559.31	49.15
559.47	14.04
559.64	39.79
559.80	77.24
559.97	32.77
560.13	21.06
560.30	4.68
560.46	67.88
560.63	0.00
560.79	0.00
560.96	11.70
561.12	0.00
561.29	4.68
561.45	9.36
561.61	88.94
561.78	28.09
561.94	72.56
562.11	0.00
562.27	18.72
562.44	98.30
562.60	23.41
562.77	35.11
562.93	0.00
563.10	49.15
563.26	14.04
563.42	46.81
563.59	88.94
563.75	2.34
563.92	28.09
564.08	70.22
564.24	0.00
564.41	14.04
564.57	18.72
564.74	88.94
564.90	51.49
565.07	4.68
565.23	102.98
565.39	98.30
565.56	49.15
565.72	30.43
565.88	107.66
566.05	79.58
566.21	9.36
566.38	9.36
566.54	30.43
566.70	30.43
566.87	37.45
567.03	56.17
567.19	49.15
567.36	30.43
567.52	44.47
567.68	0.00
567.85	121.71
568.01	37.45
568.17	4.68
568.34	14.04
568.50	86.60
568.66	117.03
568.83	0.00
568.99	14.04
569.15	35.11
569.32	84.26
569.48	56.17
569.64	0.00
569.81	30.43
569.97	18.72
570.13	0.00
570.30	44.47
570.46	7.02
570.62	0.00
570.78	28.09
570.95	37.45
571.11	18.72
571.27	0.00
571.43	4.68
571.60	2.34
571.76	138.09
571.92	0.00
572.09	51.49
572.25	0.00
572.41	86.60
572.57	0.00
572.74	91.28
572.90	72.56
573.06	35.11
573.22	107.66
573.38	105.32
573.55	105.32
573.71	74.90
573.87	4.68
574.03	88.94
574.20	23.41
574.36	84.26
574.52	112.35
574.68	100.64
574.84	88.94
575.01	0.00
575.17	32.77
575.33	32.77
575.49	65.54
575.65	46.81
575.82	0.00
575.98	147.45
576.14	177.88
576.30	93.62
576.46	107.66
576.62	51.49
576.79	72.56
576.95	30.43
577.11	30.43
577.27	77.24
577.43	32.77
577.59	60.85
577.75	0.00
577.92	63.19
578.08	63.19
578.24	39.79
578.40	46.81
578.56	81.92
578.72	0.00
578.88	30.43
579.04	0.00
579.21	44.47
579.37	35.11
579.53	39.79
579.69	95.96
579.85	14.04
580.01	112.35
580.17	131.07
580.33	56.17
580.49	72.56
580.65	107.66
580.82	16.38
580.98	35.11
581.14	28.09
581.30	86.60
581.46	81.92
581.62	49.15
581.78	51.49
581.94	145.11
582.10	135.75
582.26	86.60
582.42	93.62
582.58	0.00
582.74	72.56
582.90	51.49
583.06	23.41
583.22	72.56
583.38	126.39
583.54	46.81
583.70	72.56
583.86	131.07
584.02	142.77
584.18	182.56
584.34	159.16
584.50	500.87
584.66	3141.00
584.82	7810.37
584.98	12475.06
585.14	11171.38
585.30	6956.07
585.46	4074.87
585.62	2562.89
585.78	1233.46
585.94	451.72
586.10	287.89
586.26	182.56
586.42	100.64
586.58	124.05
586.74	49.15
586.90	42.13
587.06	117.03
587.22	65.54
587.38	70.22
587.54	110.01
587.70	505.56
587.86	767.70
588.02	943.24
588.18	727.91
588.34	454.06
588.49	311.29
588.65	152.13
588.81	154.48
588.97	53.83
589.13	37.45
589.29	0.00
589.45	84.26
589.61	79.58
589.77	28.09
589.93	11.70
590.08	126.39
590.24	58.51
590.40	18.72
590.56	4.68
590.72	112.35
590.88	37.45
591.04	39.79
591.20	58.51
591.35	56.17
591.51	37.45
591.67	70.22
591.83	114.69
591.99	44.47
592.15	63.19
592.31	110.01
592.46	70.22
592.62	67.88
592.78	60.85
592.94	16.38
593.10	53.83
593.26	56.17
593.41	53.83
593.57	46.81
593.73	93.62
593.89	402.57
594.05	1055.58
594.20	1591.56
594.36	1577.52
594.52	1013.45
594.68	692.80
594.84	409.59
594.99	257.46
595.15	51.49
595.31	93.62
595.47	114.69
595.62	28.09
595.78	58.51
595.94	44.47
596.10	9.36
596.25	0.00
596.41	46.81
596.57	0.00
596.73	63.19
596.88	135.75
597.04	170.86
597.20	388.53
597.36	393.21
597.51	362.78
597.67	227.03
597.83	140.43
597.99	53.83
598.14	60.85
598.30	51.49
598.46	70.22
598.61	56.17
598.77	9.36
598.93	28.09
599.09	72.56
599.24	14.04
599.40	86.60
599.56	53.83
599.71	16.38
599.87	91.28
600.03	37.45
600.18	0.00
600.34	65.54
600.50	0.00
600.65	65.54
600.81	56.17
600.97	18.72
601.12	37.45
601.28	100.64
601.44	32.77
601.59	0.00
601.75	63.19
601.91	56.17
602.06	60.85
602.22	35.11
602.37	156.82
602.53	330.02
602.69	425.98
602.84	449.38
603.00	330.02
603.16	245.76
603.31	91.28
603.47	152.13
603.62	70.22
603.78	65.54
603.94	0.00
604.09	14.04
604.25	124.05
604.40	77.24
604.56	25.75
604.71	95.96
604.87	25.75
605.03	25.75
605.18	70.22
605.34	32.77
605.49	11.70
605.65	44.47
605.80	77.24
605.96	9.36
606.12	49.15
606.27	51.49
606.43	30.43
606.58	25.75
606.74	156.82
606.89	496.19
607.05	978.34
607.20	1322.40
607.36	1086.01
607.51	723.23
607.67	510.24
607.82	344.06
607.98	161.50
608.13	95.96
608.29	56.17
608.44	70.22
608.60	30.43
608.75	70.22
608.91	177.88
609.06	758.33
609.22	1535.39
609.37	2265.64
609.53	1970.73
609.68	1341.13
609.84	746.63
609.99	571.09
610.15	250.44
610.30	177.88
610.46	91.28
610.61	93.62
610.76	4.68
610.92	67.88
611.07	91.28
611.23	86.60
611.38	0.00
611.54	58.51
611.69	7.02
611.84	16.38
612.00	58.51
612.15	11.70
612.31	46.81
612.46	65.54
612.62	58.51
612.77	119.37
612.92	60.85
613.08	95.96
613.23	112.35
613.39	145.11
613.54	194.26
613.69	681.10
613.85	2019.88
614.00	3239.30
614.15	3641.87
614.31	2455.22
614.46	1699.23
614.62	1114.10
614.77	709.18
614.92	259.80
615.08	140.43
615.23	135.75
615.38	107.66
615.54	0.00
615.69	149.79
615.84	425.98
616.00	683.44
616.15	978.34
616.30	772.38
616.46	552.37
616.61	395.55
616.76	220.01
616.92	147.45
617.07	84.26
617.22	107.66
617.37	60.85
617.53	4.68
617.68	84.26
617.83	84.26
617.99	100.64
618.14	95.96
618.29	16.38
618.45	23.41
618.60	58.51
618.75	42.13
618.90	4.68
619.06	46.81
619.21	51.49
619.36	37.45
619.51	0.00
619.67	79.58
619.82	16.38
619.97	30.43
620.12	4.68
620.28	14.04
620.43	88.94
620.58	21.06
620.73	86.60
620.89	32.77
621.04	110.01
621.19	217.67
621.34	414.27
621.49	582.79
621.65	493.85
621.80	339.38
621.95	252.78
622.10	138.09
622.25	184.90
622.41	53.83
622.56	42.13
622.71	67.88
622.86	65.54
623.01	58.51
623.16	25.75
623.32	35.11
623.47	102.98
623.62	0.00
623.77	7.02
623.92	0.00
624.07	21.06
624.23	2.34
624.38	95.96
624.53	51.49
624.68	30.43
624.83	46.81
624.98	9.36
625.13	46.81
625.29	28.09
625.44	117.03
625.59	102.98
625.74	0.00
625.89	105.32
626.04	315.97
626.19	987.71
626.34	1636.03
626.49	1973.07
626.65	1427.73
626.80	1015.79
626.95	688.12
627.10	440.02
627.25	201.29
627.40	98.30
627.55	81.92
627.70	91.28
627.85	0.00
628.00	44.47
628.15	63.19
628.30	39.79
628.45	77.24
628.60	46.81
628.76	91.28
628.91	121.71
629.06	56.17
629.21	100.64
629.36	2.34
629.51	44.47
629.66	58.51
629.81	88.94
629.96	184.90
630.11	367.46
630.26	451.72
630.41	475.13
630.56	304.27
630.71	255.12
630.86	212.99
631.01	126.39
631.16	67.88
631.31	4.68
631.46	56.17
631.61	32.77
631.76	44.47
631.91	112.35
632.06	51.49
632.21	91.28
632.36	133.41
632.51	100.64
632.66	70.22
632.81	227.03
632.96	557.05
633.10	1025.15
633.25	1224.10
633.40	1090.69
633.55	758.33
633.70	458.74
633.85	337.04
634.00	187.24
634.15	102.98
634.30	72.56
634.45	79.58
634.60	93.62
634.75	0.00
634.90	72.56
635.05	70.22
635.19	77.24
635.34	11.70
635.49	67.88
635.64	70.22
635.79	70.22
635.94	74.90
636.09	28.09
636.24	51.49
636.39	95.96
636.53	91.28
636.68	70.22
636.83	23.41
636.98	100.64
637.13	14.04
637.28	46.81
637.43	70.22
637.57	100.64
637.72	559.39
637.87	1287.29
638.02	2132.23
638.17	2438.84
638.32	1879.45
638.46	1224.10
638.61	828.55
638.76	514.92
638.91	315.97
639.06	156.82
639.20	135.75
639.35	39.79
639.50	161.50
639.65	767.70
639.80	1907.54
639.94	3363.35
640.09	3742.52
640.24	2953.76
640.39	1933.28
640.54	1322.40
640.68	830.89
640.83	468.11
640.98	236.39
641.13	77.24
641.27	102.98
641.42	4.68
641.57	72.56
641.72	119.37
641.86	46.81
642.01	60.85
642.16	21.06
642.31	72.56
642.45	46.81
642.60	11.70
642.75	84.26
642.90	30.43
643.04	77.24
643.19	18.72
643.34	4.68
643.48	72.56
643.63	49.15
643.78	86.60
643.93	0.00
644.07	30.43
644.22	60.85
644.37	117.03
644.51	56.17
644.66	37.45
644.81	32.77
644.95	30.43
645.10	14.04
645.25	4.68
645.39	28.09
645.54	25.75
645.69	9.36
645.83	18.72
645.98	42.13
646.13	79.58
646.27	0.00
646.42	23.41
646.57	107.66
646.71	53.83
646.86	84.26
647.00	70.22
647.15	32.77
647.30	7.02
647.44	49.15
647.59	4.68
647.74	46.81
647.88	51.49
648.03	0.00
648.17	93.62
648.32	37.45
648.47	16.38
648.61	46.81
648.76	0.00
648.90	60.85
649.05	44.47
649.20	2.34
649.34	28.09
649.49	28.09
649.63	105.32
649.78	0.00
649.92	93.62
650.07	280.86
650.21	844.93
650.36	1530.71
650.51	1998.82
650.65	1673.48
650.80	1130.48
650.94	814.51
651.09	543.00
651.23	248.10
651.38	138.09
651.52	0.00
651.67	79.58
651.81	35.11
651.96	84.26
652.10	56.17
652.25	39.79
652.39	30.43
652.54	63.19
652.68	138.09
652.83	337.04
652.97	543.00
653.12	713.86
653.26	552.37
653.41	482.15
653.55	358.10
653.70	203.63
653.84	161.50
653.99	131.07
654.13	42.13
654.27	110.01
654.42	79.58
654.56	42.13
654.71	49.15
654.85	79.58
655.00	0.00
655.14	49.15
655.29	44.47
655.43	84.26
655.57	11.70
655.72	53.83
655.86	46.81
656.01	2.34
656.15	0.00
656.30	63.19
656.44	39.79
656.58	65.54
656.73	0.00
656.87	4.68
657.01	51.49
657.16	56.17
657.30	39.79
657.45	30.43
657.59	0.00
657.73	25.75
657.88	51.49
658.02	35.11
658.16	74.90
658.31	23.41
658.45	0.00
658.60	37.45
658.74	0.00
658.88	77.24
659.03	39.79
659.17	93.62
659.31	201.29
659.46	411.93
659.60	732.59
659.74	985.37
659.89	842.59
660.03	650.67
660.17	449.38
660.32	311.29
660.46	119.37
660.60	81.92
660.74	21.06
660.89	42.13
661.03	11.70
661.17	60.85
661.32	11.70
661.46	16.38
661.60	42.13
661.74	0.00
661.89	7.02
662.03	88.94
662.17	42.13
662.31	9.36
662.46	46.81
662.60	0.00
662.74	70.22
662.88	42.13
663.03	0.00
663.17	107.66
663.31	25.75
663.45	77.24
663.60	0.00
663.74	42.13
663.88	60.85
664.02	42.13
664.17	0.00
664.31	58.51
664.45	35.11
664.59	51.49
664.73	161.50
664.88	70.22
665.02	0.00
665.16	18.72
665.30	0.00
665.44	28.09
665.59	39.79
665.73	39.79
665.87	65.54
666.01	84.26
666.15	114.69
666.29	39.79
666.44	86.60
666.58	77.24
666.72	42.13
666.86	51.49
667.00	102.98
667.14	140.43
667.28	220.01
667.43	777.06
667.57	1217.08
667.71	1736.68
667.85	1465.18
667.99	1125.80
668.13	674.07
668.27	468.11
668.41	170.86
668.56	70.22
668.70	105.32
668.84	60.85
668.98	131.07
669.12	9.36
669.26	25.75
669.40	0.00
669.54	95.96
669.68	23.41
669.82	21.06
669.96	37.45
670.10	39.79
670.25	72.56
670.39	107.66
670.53	39.79
670.67	0.00
670.81	0.00
670.95	42.13
671.09	77.24
671.23	358.10
671.37	617.90
671.51	905.79
671.65	1043.88
671.79	870.68
671.93	580.45
672.07	365.12
672.21	212.99
672.35	70.22
672.49	105.32
672.63	16.38
672.77	84.26
672.91	4.68
673.05	42.13
673.19	58.51
673.33	46.81
673.47	30.43
673.61	14.04
673.75	32.77
673.89	65.54
674.03	7.02
674.17	16.38
674.31	53.83
674.45	63.19
674.59	14.04
674.73	67.88
674.87	70.22
675.01	18.72
675.15	114.69
675.29	23.41
675.43	72.56
675.56	102.98
675.70	16.38
675.84	46.81
675.98	70.22
676.12	37.45
676.26	11.70
676.40	37.45
676.54	39.79
676.68	30.43
676.82	4.68
676.96	0.00
677.10	67.88
677.23	51.49
677.37	58.51
677.51	23.41
677.65	49.15
677.79	42.13
677.93	0.00
678.07	44.47
678.21	51.49
678.34	65.54
678.48	37.45
678.62	14.04
678.76	39.79
678.90	51.49
679.04	0.00
679.18	72.56
679.31	4.68
679.45	21.06
679.59	42.13
679.73	0.00
679.87	46.81
680.00	81.92
680.14	18.72
680.28	44.47
680.42	25.75
680.56	51.49
680.70	107.66
680.83	102.98
680.97	9.36
681.11	63.19
681.25	51.49
681.39	0.00
681.52	63.19
681.66	35.11
681.80	70.22
681.94	21.06
682.07	14.04
682.21	67.88
682.35	2.34
682.49	18.72
682.62	51.49
682.76	42.13
682.90	79.58
683.04	88.94
683.17	114.69
683.31	67.88
683.45	2.34
683.59	58.51
683.72	88.94
683.86	77.24
684.00	77.24
684.13	28.09
684.27	114.69
684.41	95.96
684.55	60.85
684.68	84.26
684.82	35.11
684.96	28.09
685.09	58.51
685.23	28.09
685.37	58.51
685.50	9.36
685.64	23.41
685.78	81.92
685.91	0.00
686.05	7.02
686.19	9.36
686.32	16.38
686.46	9.36
686.60	23.41
686.73	56.17
686.87	39.79
687.01	30.43
687.14	56.17
687.28	16.38
687.42	14.04
687.55	44.47
687.69	42.13
687.82	67.88
687.96	46.81
688.10	58.51
688.23	60.85
688.37	77.24
688.50	16.38
688.64	9.36
688.78	0.00
688.91	0.00
689.05	14.04
689.18	70.22
689.32	0.00
689.46	35.11
689.59	0.00
689.73	72.56
689.86	44.47
690.00	0.00
690.13	0.00
690.27	39.79
690.41	11.70
690.54	70.22
690.68	114.69
690.81	0.00
690.95	0.00
691.08	30.43
691.22	70.22
691.35	0.00
691.49	32.77
691.62	0.00
691.76	37.45
691.89	44.47
692.03	0.00
692.16	0.00
692.30	70.22
692.43	100.64
692.57	348.74
692.70	526.62
692.84	720.88
692.97	643.65
693.11	550.03
693.24	409.59
693.38	245.76
693.51	222.35
693.65	107.66
693.78	81.92
693.92	84.26
694.05	93.62
694.19	35.11
694.32	142.77
694.45	0.00
694.59	9.36
694.72	93.62
694.86	25.75
694.99	9.36
695.13	56.17
695.26	0.00
695.39	46.81
695.53	39.79
695.66	0.00
695.80	49.15
695.93	21.06
696.07	21.06
696.20	0.00
696.33	100.64
696.47	81.92
696.60	70.22
696.73	0.00
696.87	65.54
697.00	72.56
697.14	11.70
697.27	25.75
697.40	79.58
697.54	42.13
697.67	58.51
697.80	37.45
697.94	44.47
698.07	9.36
698.21	79.58
698.34	74.90
698.47	28.09
698.61	30.43
698.74	14.04
698.87	42.13
699.01	7.02
699.14	28.09
699.27	18.72
699.40	49.15
699.54	63.19
699.67	100.64
699.80	77.24
699.94	35.11
700.07	25.75
700.20	42.13
700.34	56.17
700.47	44.47
700.60	35.11
700.73	0.00
700.87	35.11
701.00	16.38
701.13	14.04
701.26	65.54
701.40	0.00
701.53	44.47
701.66	51.49
701.79	72.56
701.93	23.41
702.06	39.79
702.19	42.13
702.32	105.32
702.46	60.85
702.59	72.56
702.72	245.76
702.85	306.61
702.99	863.66
703.12	1282.61
703.25	1483.90
703.38	1331.76
703.51	1090.69
703.65	882.38
703.78	627.26
703.91	409.59
704.04	250.44
704.17	177.88
704.31	74.90
704.44	44.47
704.57	42.13
704.70	18.72
704.83	88.94
704.96	7.02
705.10	2.34
705.23	28.09
>>>>>End Processed Spectral Data<<<<<
