SpectraSuite Data File
++++++++++++++++++++++++++++++++++++
Date: Fri Oct 04 12:13:42 GMT-05:00 2013
User: price-jones
Dark Spectrum Present: No
Reference Spectrum Present: No
Number of Sampled Component Spectra: 1
Spectrometers: USB2+H05261
Integration Time (usec): 10000 (USB2+H05261)
Spectra Averaged: 1 (USB2+H05261)
Boxcar Smoothing: 0 (USB2+H05261)
Correct for Electrical Dark: No (USB2+H05261)
Strobe/Lamp Enabled: No (USB2+H05261)
Correct for Detector Non-linearity: No (USB2+H05261)
Correct for Stray Light: No (USB2+H05261)
Number of Pixels in Processed Spectrum: 2048
>>>>>Begin Processed Spectral Data<<<<<
365.73	7.02
365.92	7.02
366.12	7.02
366.32	0.00
366.52	0.00
366.72	0.00
366.91	0.00
367.11	0.00
367.31	0.00
367.51	0.00
367.70	0.00
367.90	0.00
368.10	0.00
368.30	0.00
368.49	0.00
368.69	0.00
368.89	0.00
369.09	0.00
369.28	0.00
369.48	0.00
369.68	0.00
369.87	0.00
370.07	0.00
370.27	0.00
370.47	0.00
370.66	0.00
370.86	0.00
371.06	0.00
371.25	7.02
371.45	0.00
371.65	0.00
371.84	0.00
372.04	0.00
372.24	0.00
372.44	39.79
372.63	46.81
372.83	7.02
373.03	23.41
373.22	0.00
373.42	14.04
373.62	37.45
373.81	0.00
374.01	72.56
374.21	0.00
374.40	21.06
374.60	74.90
374.79	0.00
374.99	9.36
375.19	11.70
375.38	0.00
375.58	23.41
375.78	11.70
375.97	105.32
376.17	11.70
376.37	74.90
376.56	74.90
376.76	7.02
376.95	0.00
377.15	70.22
377.35	0.00
377.54	0.00
377.74	91.28
377.93	0.00
378.13	81.92
378.33	42.13
378.52	58.51
378.72	53.83
378.91	51.49
379.11	70.22
379.31	53.83
379.50	67.88
379.70	0.00
379.89	0.00
380.09	65.54
380.28	0.00
380.48	9.36
380.68	0.00
380.87	18.72
381.07	23.41
381.26	44.47
381.46	51.49
381.65	0.00
381.85	21.06
382.04	0.00
382.24	0.00
382.43	25.75
382.63	0.00
382.83	0.00
383.02	0.00
383.22	39.79
383.41	42.13
383.61	72.56
383.80	60.85
384.00	0.00
384.19	0.00
384.39	0.00
384.58	25.75
384.78	30.43
384.97	65.54
385.17	60.85
385.36	32.77
385.56	30.43
385.75	0.00
385.95	30.43
386.14	14.04
386.34	0.00
386.53	30.43
386.72	11.70
386.92	0.00
387.11	0.00
387.31	51.49
387.50	0.00
387.70	93.62
387.89	86.60
388.09	53.83
388.28	0.00
388.48	0.00
388.67	37.45
388.86	16.38
389.06	0.00
389.25	7.02
389.45	9.36
389.64	0.00
389.84	39.79
390.03	39.79
390.22	42.13
390.42	0.00
390.61	44.47
390.81	7.02
391.00	35.11
391.19	4.68
391.39	16.38
391.58	0.00
391.78	7.02
391.97	9.36
392.16	18.72
392.36	135.75
392.55	46.81
392.75	46.81
392.94	18.72
393.13	7.02
393.33	9.36
393.52	25.75
393.71	0.00
393.91	0.00
394.10	9.36
394.29	0.00
394.49	9.36
394.68	49.15
394.88	72.56
395.07	53.83
395.26	42.13
395.46	70.22
395.65	0.00
395.84	4.68
396.04	51.49
396.23	32.77
396.42	93.62
396.62	42.13
396.81	42.13
397.00	0.00
397.19	67.88
397.39	84.26
397.58	0.00
397.77	9.36
397.97	49.15
398.16	58.51
398.35	35.11
398.55	28.09
398.74	39.79
398.93	0.00
399.12	53.83
399.32	11.70
399.51	21.06
399.70	42.13
399.90	63.19
400.09	32.77
400.28	30.43
400.47	2.34
400.67	44.47
400.86	7.02
401.05	49.15
401.24	7.02
401.44	60.85
401.63	23.41
401.82	79.58
402.01	0.00
402.21	0.00
402.40	0.00
402.59	56.17
402.78	2.34
402.97	0.00
403.17	65.54
403.36	0.00
403.55	28.09
403.74	53.83
403.93	100.64
404.13	25.75
404.32	42.13
404.51	0.00
404.70	46.81
404.89	58.51
405.09	79.58
405.28	25.75
405.47	0.00
405.66	0.00
405.85	58.51
406.05	0.00
406.24	21.06
406.43	112.35
406.62	18.72
406.81	56.17
407.00	0.00
407.20	23.41
407.39	35.11
407.58	18.72
407.77	18.72
407.96	63.19
408.15	0.00
408.34	18.72
408.54	32.77
408.73	37.45
408.92	72.56
409.11	0.00
409.30	0.00
409.49	11.70
409.68	28.09
409.87	0.00
410.07	79.58
410.26	70.22
410.45	39.79
410.64	25.75
410.83	0.00
411.02	91.28
411.21	79.58
411.40	65.54
411.59	0.00
411.78	23.41
411.98	46.81
412.17	77.24
412.36	44.47
412.55	74.90
412.74	28.09
412.93	37.45
413.12	0.00
413.31	95.96
413.50	46.81
413.69	81.92
413.88	49.15
414.07	67.88
414.26	74.90
414.45	49.15
414.64	53.83
414.83	58.51
415.02	0.00
415.22	21.06
415.41	0.00
415.60	4.68
415.79	0.00
415.98	46.81
416.17	81.92
416.36	0.00
416.55	0.00
416.74	0.00
416.93	95.96
417.12	37.45
417.31	93.62
417.50	16.38
417.69	0.00
417.88	37.45
418.07	42.13
418.26	67.88
418.45	37.45
418.64	58.51
418.83	30.43
419.02	0.00
419.21	21.06
419.39	77.24
419.58	58.51
419.77	60.85
419.96	74.90
420.15	49.15
420.34	51.49
420.53	121.71
420.72	77.24
420.91	67.88
421.10	25.75
421.29	25.75
421.48	51.49
421.67	67.88
421.86	42.13
422.05	0.00
422.24	51.49
422.43	23.41
422.61	2.34
422.80	105.32
422.99	35.11
423.18	21.06
423.37	124.05
423.56	105.32
423.75	11.70
423.94	0.00
424.13	37.45
424.32	70.22
424.50	67.88
424.69	84.26
424.88	86.60
425.07	42.13
425.26	7.02
425.45	32.77
425.64	42.13
425.83	67.88
426.01	60.85
426.20	4.68
426.39	39.79
426.58	72.56
426.77	81.92
426.96	56.17
427.15	0.00
427.33	79.58
427.52	100.64
427.71	9.36
427.90	84.26
428.09	51.49
428.28	0.00
428.46	56.17
428.65	51.49
428.84	74.90
429.03	51.49
429.22	51.49
429.40	58.51
429.59	21.06
429.78	63.19
429.97	14.04
430.16	4.68
430.34	32.77
430.53	74.90
430.72	84.26
430.91	67.88
431.10	44.47
431.28	51.49
431.47	67.88
431.66	16.38
431.85	0.00
432.03	0.00
432.22	46.81
432.41	67.88
432.60	72.56
432.79	37.45
432.97	39.79
433.16	32.77
433.35	58.51
433.54	35.11
433.72	74.90
433.91	0.00
434.10	32.77
434.28	84.26
434.47	28.09
434.66	65.54
434.85	28.09
435.03	25.75
435.22	0.00
435.41	0.00
435.59	46.81
435.78	0.00
435.97	18.72
436.16	88.94
436.34	18.72
436.53	56.17
436.72	65.54
436.90	51.49
437.09	86.60
437.28	58.51
437.46	60.85
437.65	0.00
437.84	88.94
438.02	70.22
438.21	0.00
438.40	53.83
438.58	51.49
438.77	0.00
438.96	112.35
439.14	51.49
439.33	37.45
439.52	56.17
439.70	32.77
439.89	42.13
440.08	79.58
440.26	72.56
440.45	98.30
440.63	32.77
440.82	7.02
441.01	46.81
441.19	25.75
441.38	46.81
441.57	72.56
441.75	107.66
441.94	93.62
442.12	42.13
442.31	56.17
442.50	105.32
442.68	65.54
442.87	51.49
443.05	18.72
443.24	0.00
443.43	42.13
443.61	51.49
443.80	23.41
443.98	4.68
444.17	49.15
444.35	30.43
444.54	46.81
444.73	21.06
444.91	0.00
445.10	88.94
445.28	51.49
445.47	14.04
445.65	84.26
445.84	35.11
446.02	51.49
446.21	7.02
446.39	32.77
446.58	56.17
446.77	93.62
446.95	70.22
447.14	58.51
447.32	105.32
447.51	93.62
447.69	107.66
447.88	86.60
448.06	30.43
448.25	56.17
448.43	102.98
448.62	35.11
448.80	0.00
448.99	23.41
449.17	65.54
449.36	63.19
449.54	46.81
449.73	49.15
449.91	53.83
450.10	0.00
450.28	44.47
450.46	79.58
450.65	53.83
450.83	88.94
451.02	114.69
451.20	65.54
451.39	63.19
451.57	30.43
451.76	18.72
451.94	74.90
452.13	77.24
452.31	105.32
452.49	44.47
452.68	65.54
452.86	67.88
453.05	25.75
453.23	42.13
453.42	37.45
453.60	32.77
453.78	107.66
453.97	9.36
454.15	93.62
454.34	35.11
454.52	84.26
454.70	117.03
454.89	25.75
455.07	21.06
455.26	39.79
455.44	46.81
455.62	93.62
455.81	16.38
455.99	35.11
456.17	46.81
456.36	0.00
456.54	46.81
456.73	86.60
456.91	105.32
457.09	86.60
457.28	35.11
457.46	112.35
457.64	114.69
457.83	81.92
458.01	16.38
458.19	18.72
458.38	98.30
458.56	60.85
458.74	105.32
458.93	51.49
459.11	72.56
459.29	88.94
459.48	147.45
459.66	140.43
459.84	79.58
460.03	65.54
460.21	81.92
460.39	0.00
460.57	0.00
460.76	74.90
460.94	0.00
461.12	49.15
461.31	81.92
461.49	79.58
461.67	74.90
461.85	84.26
462.04	14.04
462.22	131.07
462.40	107.66
462.59	53.83
462.77	46.81
462.95	65.54
463.13	16.38
463.32	25.75
463.50	42.13
463.68	0.00
463.86	44.47
464.05	2.34
464.23	35.11
464.41	0.00
464.59	53.83
464.78	30.43
464.96	95.96
465.14	7.02
465.32	93.62
465.50	21.06
465.69	4.68
465.87	77.24
466.05	30.43
466.23	42.13
466.41	25.75
466.60	21.06
466.78	0.00
466.96	93.62
467.14	60.85
467.32	88.94
467.51	67.88
467.69	56.17
467.87	2.34
468.05	60.85
468.23	25.75
468.41	88.94
468.60	0.00
468.78	65.54
468.96	9.36
469.14	56.17
469.32	25.75
469.50	0.00
469.69	72.56
469.87	30.43
470.05	56.17
470.23	74.90
470.41	67.88
470.59	37.45
470.77	53.83
470.95	98.30
471.14	28.09
471.32	49.15
471.50	126.39
471.68	16.38
471.86	58.51
472.04	77.24
472.22	21.06
472.40	72.56
472.58	51.49
472.77	112.35
472.95	9.36
473.13	63.19
473.31	30.43
473.49	46.81
473.67	63.19
473.85	67.88
474.03	65.54
474.21	114.69
474.39	16.38
474.57	121.71
474.75	102.98
474.93	77.24
475.12	112.35
475.30	95.96
475.48	84.26
475.66	79.58
475.84	42.13
476.02	44.47
476.20	42.13
476.38	91.28
476.56	74.90
476.74	35.11
476.92	70.22
477.10	32.77
477.28	114.69
477.46	110.01
477.64	25.75
477.82	56.17
478.00	39.79
478.18	7.02
478.36	0.00
478.54	65.54
478.72	98.30
478.90	72.56
479.08	23.41
479.26	65.54
479.44	102.98
479.62	100.64
479.80	110.01
479.98	88.94
480.16	81.92
480.34	95.96
480.52	16.38
480.70	84.26
480.88	65.54
481.06	60.85
481.24	0.00
481.41	65.54
481.59	46.81
481.77	72.56
481.95	131.07
482.13	117.03
482.31	77.24
482.49	39.79
482.67	105.32
482.85	102.98
483.03	49.15
483.21	58.51
483.39	91.28
483.57	128.73
483.74	72.56
483.92	30.43
484.10	30.43
484.28	16.38
484.46	28.09
484.64	107.66
484.82	32.77
485.00	84.26
485.18	63.19
485.35	74.90
485.53	46.81
485.71	77.24
485.89	70.22
486.07	63.19
486.25	112.35
486.43	77.24
486.61	77.24
486.78	58.51
486.96	72.56
487.14	79.58
487.32	77.24
487.50	95.96
487.68	0.00
487.85	77.24
488.03	58.51
488.21	67.88
488.39	16.38
488.57	72.56
488.75	2.34
488.92	44.47
489.10	128.73
489.28	102.98
489.46	100.64
489.64	93.62
489.81	93.62
489.99	58.51
490.17	128.73
490.35	63.19
490.53	56.17
490.70	37.45
490.88	72.56
491.06	107.66
491.24	79.58
491.41	98.30
491.59	98.30
491.77	138.09
491.95	77.24
492.13	102.98
492.30	119.37
492.48	35.11
492.66	135.75
492.84	91.28
493.01	86.60
493.19	39.79
493.37	35.11
493.54	98.30
493.72	107.66
493.90	58.51
494.08	0.00
494.25	102.98
494.43	65.54
494.61	74.90
494.79	58.51
494.96	126.39
495.14	84.26
495.32	56.17
495.49	35.11
495.67	105.32
495.85	60.85
496.02	4.68
496.20	58.51
496.38	77.24
496.55	16.38
496.73	60.85
496.91	128.73
497.09	86.60
497.26	21.06
497.44	30.43
497.62	14.04
497.79	86.60
497.97	77.24
498.14	119.37
498.32	126.39
498.50	98.30
498.67	177.88
498.85	53.83
499.03	95.96
499.20	60.85
499.38	58.51
499.56	88.94
499.73	53.83
499.91	131.07
500.08	46.81
500.26	79.58
500.44	119.37
500.61	46.81
500.79	98.30
500.97	70.22
501.14	91.28
501.32	74.90
501.49	77.24
501.67	72.56
501.84	93.62
502.02	102.98
502.20	42.13
502.37	91.28
502.55	49.15
502.72	91.28
502.90	126.39
503.07	110.01
503.25	131.07
503.43	46.81
503.60	91.28
503.78	86.60
503.95	124.05
504.13	74.90
504.30	46.81
504.48	100.64
504.65	93.62
504.83	53.83
505.01	53.83
505.18	21.06
505.36	60.85
505.53	91.28
505.71	86.60
505.88	72.56
506.06	102.98
506.23	91.28
506.41	74.90
506.58	53.83
506.76	51.49
506.93	86.60
507.11	121.71
507.28	67.88
507.46	63.19
507.63	37.45
507.81	95.96
507.98	37.45
508.16	58.51
508.33	124.05
508.50	107.66
508.68	30.43
508.85	35.11
509.03	102.98
509.20	67.88
509.38	77.24
509.55	28.09
509.73	58.51
509.90	44.47
510.08	88.94
510.25	159.16
510.42	81.92
510.60	49.15
510.77	72.56
510.95	119.37
511.12	81.92
511.30	46.81
511.47	11.70
511.64	56.17
511.82	72.56
511.99	86.60
512.17	128.73
512.34	53.83
512.51	30.43
512.69	60.85
512.86	37.45
513.04	46.81
513.21	107.66
513.38	117.03
513.56	131.07
513.73	65.54
513.90	9.36
514.08	67.88
514.25	67.88
514.43	100.64
514.60	114.69
514.77	39.79
514.95	44.47
515.12	46.81
515.29	107.66
515.47	18.72
515.64	42.13
515.81	51.49
515.99	79.58
516.16	107.66
516.33	51.49
516.51	105.32
516.68	100.64
516.85	46.81
517.03	84.26
517.20	39.79
517.37	110.01
517.54	42.13
517.72	81.92
517.89	128.73
518.06	46.81
518.24	35.11
518.41	86.60
518.58	138.09
518.75	91.28
518.93	42.13
519.10	72.56
519.27	56.17
519.45	53.83
519.62	131.07
519.79	44.47
519.96	44.47
520.14	102.98
520.31	84.26
520.48	124.05
520.65	156.82
520.83	114.69
521.00	107.66
521.17	74.90
521.34	131.07
521.52	112.35
521.69	72.56
521.86	100.64
522.03	91.28
522.20	88.94
522.38	46.81
522.55	84.26
522.72	0.00
522.89	0.00
523.07	58.51
523.24	0.00
523.41	58.51
523.58	114.69
523.75	112.35
523.92	114.69
524.10	65.54
524.27	58.51
524.44	35.11
524.61	100.64
524.78	128.73
524.96	53.83
525.13	121.71
525.30	28.09
525.47	100.64
525.64	65.54
525.81	145.11
525.98	112.35
526.16	72.56
526.33	98.30
526.50	60.85
526.67	98.30
526.84	53.83
527.01	44.47
527.18	84.26
527.36	72.56
527.53	77.24
527.70	145.11
527.87	91.28
528.04	110.01
528.21	135.75
528.38	58.51
528.55	74.90
528.72	21.06
528.89	30.43
529.07	112.35
529.24	46.81
529.41	149.79
529.58	30.43
529.75	91.28
529.92	156.82
530.09	112.35
530.26	105.32
530.43	58.51
530.60	152.13
530.77	182.56
530.94	51.49
531.11	53.83
531.28	110.01
531.46	14.04
531.63	44.47
531.80	135.75
531.97	67.88
532.14	100.64
532.31	159.16
532.48	119.37
532.65	79.58
532.82	58.51
532.99	58.51
533.16	161.50
533.33	56.17
533.50	107.66
533.67	67.88
533.84	79.58
534.01	28.09
534.18	65.54
534.35	56.17
534.52	74.90
534.69	93.62
534.86	133.41
535.03	65.54
535.20	91.28
535.37	112.35
535.54	51.49
535.71	46.81
535.88	131.07
536.05	95.96
536.22	74.90
536.38	60.85
536.55	7.02
536.72	124.05
536.89	112.35
537.06	93.62
537.23	105.32
537.40	147.45
537.57	98.30
537.74	74.90
537.91	93.62
538.08	84.26
538.25	126.39
538.42	30.43
538.59	98.30
538.75	72.56
538.92	149.79
539.09	128.73
539.26	74.90
539.43	131.07
539.60	60.85
539.77	51.49
539.94	60.85
540.11	49.15
540.28	138.09
540.44	86.60
540.61	152.13
540.78	142.77
540.95	93.62
541.12	91.28
541.29	107.66
541.46	84.26
541.62	107.66
541.79	112.35
541.96	84.26
542.13	37.45
542.30	95.96
542.47	128.73
542.63	86.60
542.80	72.56
542.97	21.06
543.14	67.88
543.31	105.32
543.48	112.35
543.64	91.28
543.81	119.37
543.98	145.11
544.15	119.37
544.32	110.01
544.48	112.35
544.65	93.62
544.82	88.94
544.99	70.22
545.16	91.28
545.32	74.90
545.49	86.60
545.66	93.62
545.83	74.90
546.00	145.11
546.16	53.83
546.33	126.39
546.50	135.75
546.67	102.98
546.83	46.81
547.00	93.62
547.17	147.45
547.34	117.03
547.50	117.03
547.67	124.05
547.84	53.83
548.00	79.58
548.17	51.49
548.34	74.90
548.51	175.54
548.67	11.70
548.84	67.88
549.01	77.24
549.18	105.32
549.34	53.83
549.51	67.88
549.68	112.35
549.84	135.75
550.01	81.92
550.18	84.26
550.34	84.26
550.51	51.49
550.68	18.72
550.84	44.47
551.01	102.98
551.18	112.35
551.34	51.49
551.51	84.26
551.68	98.30
551.84	98.30
552.01	65.54
552.18	119.37
552.34	25.75
552.51	88.94
552.68	124.05
552.84	119.37
553.01	58.51
553.18	81.92
553.34	42.13
553.51	67.88
553.67	63.19
553.84	107.66
554.01	119.37
554.17	58.51
554.34	102.98
554.51	58.51
554.67	114.69
554.84	53.83
555.00	112.35
555.17	149.79
555.33	74.90
555.50	42.13
555.67	77.24
555.83	63.19
556.00	35.11
556.16	77.24
556.33	88.94
556.50	39.79
556.66	72.56
556.83	72.56
556.99	32.77
557.16	74.90
557.32	25.75
557.49	98.30
557.65	77.24
557.82	81.92
557.98	86.60
558.15	88.94
558.32	117.03
558.48	105.32
558.65	102.98
558.81	44.47
558.98	112.35
559.14	91.28
559.31	138.09
559.47	56.17
559.64	74.90
559.80	23.41
559.97	88.94
560.13	18.72
560.30	131.07
560.46	49.15
560.63	147.45
560.79	30.43
560.96	91.28
561.12	58.51
561.29	131.07
561.45	72.56
561.61	65.54
561.78	65.54
561.94	63.19
562.11	60.85
562.27	72.56
562.44	56.17
562.60	84.26
562.77	67.88
562.93	91.28
563.10	63.19
563.26	79.58
563.42	58.51
563.59	0.00
563.75	81.92
563.92	60.85
564.08	117.03
564.24	105.32
564.41	95.96
564.57	84.26
564.74	105.32
564.90	0.00
565.07	67.88
565.23	77.24
565.39	23.41
565.56	110.01
565.72	77.24
565.88	131.07
566.05	84.26
566.21	70.22
566.38	67.88
566.54	105.32
566.70	88.94
566.87	44.47
567.03	81.92
567.19	107.66
567.36	37.45
567.52	7.02
567.68	46.81
567.85	110.01
568.01	88.94
568.17	74.90
568.34	11.70
568.50	67.88
568.66	142.77
568.83	39.79
568.99	86.60
569.15	44.47
569.32	18.72
569.48	133.41
569.64	100.64
569.81	156.82
569.97	131.07
570.13	126.39
570.30	152.13
570.46	30.43
570.62	81.92
570.78	44.47
570.95	102.98
571.11	60.85
571.27	0.00
571.43	46.81
571.60	81.92
571.76	81.92
571.92	81.92
572.09	147.45
572.25	58.51
572.41	93.62
572.57	53.83
572.74	128.73
572.90	95.96
573.06	124.05
573.22	23.41
573.38	88.94
573.55	53.83
573.71	58.51
573.87	79.58
574.03	74.90
574.20	0.00
574.36	182.56
574.52	58.51
574.68	81.92
574.84	79.58
575.01	53.83
575.17	138.09
575.33	58.51
575.49	110.01
575.65	70.22
575.82	154.48
575.98	86.60
576.14	70.22
576.30	72.56
576.46	18.72
576.62	67.88
576.79	102.98
576.95	28.09
577.11	23.41
577.27	126.39
577.43	70.22
577.59	25.75
577.75	58.51
577.92	86.60
578.08	37.45
578.24	88.94
578.40	74.90
578.56	63.19
578.72	128.73
578.88	74.90
579.04	133.41
579.21	42.13
579.37	105.32
579.53	107.66
579.69	0.00
579.85	51.49
580.01	30.43
580.17	51.49
580.33	65.54
580.49	98.30
580.65	65.54
580.82	16.38
580.98	112.35
581.14	81.92
581.30	67.88
581.46	145.11
581.62	39.79
581.78	121.71
581.94	72.56
582.10	117.03
582.26	100.64
582.42	98.30
582.58	74.90
582.74	72.56
582.90	44.47
583.06	93.62
583.22	119.37
583.38	0.00
583.54	110.01
583.70	2.34
583.86	53.83
584.02	93.62
584.18	81.92
584.34	107.66
584.50	128.73
584.66	25.75
584.82	84.26
584.98	107.66
585.14	84.26
585.30	37.45
585.46	7.02
585.62	88.94
585.78	98.30
585.94	56.17
586.10	107.66
586.26	95.96
586.42	25.75
586.58	56.17
586.74	88.94
586.90	79.58
587.06	18.72
587.22	56.17
587.38	67.88
587.54	60.85
587.70	60.85
587.86	30.43
588.02	95.96
588.18	102.98
588.34	46.81
588.49	32.77
588.65	105.32
588.81	88.94
588.97	124.05
589.13	58.51
589.29	9.36
589.45	0.00
589.61	98.30
589.77	44.47
589.93	74.90
590.08	102.98
590.24	60.85
590.40	63.19
590.56	67.88
590.72	51.49
590.88	14.04
591.04	105.32
591.20	39.79
591.35	56.17
591.51	77.24
591.67	60.85
591.83	121.71
591.99	102.98
592.15	0.00
592.31	126.39
592.46	79.58
592.62	67.88
592.78	35.11
592.94	56.17
593.10	56.17
593.26	28.09
593.41	70.22
593.57	18.72
593.73	63.19
593.89	9.36
594.05	81.92
594.20	28.09
594.36	72.56
594.52	124.05
594.68	58.51
594.84	102.98
594.99	37.45
595.15	79.58
595.31	49.15
595.47	110.01
595.62	77.24
595.78	79.58
595.94	100.64
596.10	0.00
596.25	74.90
596.41	42.13
596.57	102.98
596.73	98.30
596.88	67.88
597.04	16.38
597.20	77.24
597.36	7.02
597.51	88.94
597.67	72.56
597.83	119.37
597.99	0.00
598.14	86.60
598.30	42.13
598.46	72.56
598.61	163.84
598.77	51.49
598.93	39.79
599.09	51.49
599.24	0.00
599.40	72.56
599.56	65.54
599.71	30.43
599.87	98.30
600.03	114.69
600.18	35.11
600.34	35.11
600.50	105.32
600.65	53.83
600.81	100.64
600.97	91.28
601.12	91.28
601.28	77.24
601.44	86.60
601.59	39.79
601.75	79.58
601.91	37.45
602.06	74.90
602.22	84.26
602.37	23.41
602.53	42.13
602.69	0.00
602.84	28.09
603.00	46.81
603.16	70.22
603.31	0.00
603.47	79.58
603.62	98.30
603.78	110.01
603.94	65.54
604.09	32.77
604.25	46.81
604.40	53.83
604.56	79.58
604.71	30.43
604.87	60.85
605.03	72.56
605.18	72.56
605.34	35.11
605.49	100.64
605.65	37.45
605.80	72.56
605.96	105.32
606.12	28.09
606.27	28.09
606.43	42.13
606.58	124.05
606.74	102.98
606.89	51.49
607.05	44.47
607.20	91.28
607.36	46.81
607.51	56.17
607.67	63.19
607.82	58.51
607.98	56.17
608.13	25.75
608.29	21.06
608.44	51.49
608.60	35.11
608.75	91.28
608.91	49.15
609.06	88.94
609.22	128.73
609.37	42.13
609.53	72.56
609.68	156.82
609.84	93.62
609.99	74.90
610.15	100.64
610.30	65.54
610.46	95.96
610.61	42.13
610.76	77.24
610.92	102.98
611.07	32.77
611.23	91.28
611.38	42.13
611.54	67.88
611.69	72.56
611.84	119.37
612.00	81.92
612.15	72.56
612.31	135.75
612.46	86.60
612.62	23.41
612.77	39.79
612.92	84.26
613.08	49.15
613.23	84.26
613.39	58.51
613.54	110.01
613.69	74.90
613.85	112.35
614.00	140.43
614.15	119.37
614.31	49.15
614.46	81.92
614.62	60.85
614.77	107.66
614.92	9.36
615.08	74.90
615.23	23.41
615.38	11.70
615.54	86.60
615.69	16.38
615.84	121.71
616.00	0.00
616.15	25.75
616.30	67.88
616.46	105.32
616.61	60.85
616.76	79.58
616.92	77.24
617.07	98.30
617.22	32.77
617.37	4.68
617.53	124.05
617.68	63.19
617.83	88.94
617.99	37.45
618.14	84.26
618.29	58.51
618.45	77.24
618.60	0.00
618.75	105.32
618.90	74.90
619.06	0.00
619.21	110.01
619.36	117.03
619.51	70.22
619.67	28.09
619.82	107.66
619.97	112.35
620.12	58.51
620.28	42.13
620.43	28.09
620.58	18.72
620.73	107.66
620.89	107.66
621.04	16.38
621.19	46.81
621.34	42.13
621.49	2.34
621.65	88.94
621.80	70.22
621.95	56.17
622.10	100.64
622.25	95.96
622.41	39.79
622.56	149.79
622.71	91.28
622.86	145.11
623.01	58.51
623.16	16.38
623.32	114.69
623.47	81.92
623.62	9.36
623.77	88.94
623.92	107.66
624.07	7.02
624.23	100.64
624.38	60.85
624.53	7.02
624.68	117.03
624.83	114.69
624.98	91.28
625.13	88.94
625.29	88.94
625.44	35.11
625.59	7.02
625.74	51.49
625.89	25.75
626.04	60.85
626.19	25.75
626.34	53.83
626.49	32.77
626.65	0.00
626.80	16.38
626.95	0.00
627.10	79.58
627.25	93.62
627.40	112.35
627.55	46.81
627.70	58.51
627.85	93.62
628.00	49.15
628.15	56.17
628.30	0.00
628.45	86.60
628.60	39.79
628.76	77.24
628.91	77.24
629.06	91.28
629.21	16.38
629.36	67.88
629.51	72.56
629.66	84.26
629.81	126.39
629.96	30.43
630.11	23.41
630.26	72.56
630.41	91.28
630.56	110.01
630.71	60.85
630.86	86.60
631.01	86.60
631.16	119.37
631.31	112.35
631.46	18.72
631.61	117.03
631.76	11.70
631.91	30.43
632.06	56.17
632.21	53.83
632.36	88.94
632.51	11.70
632.66	9.36
632.81	0.00
632.96	35.11
633.10	39.79
633.25	74.90
633.40	70.22
633.55	107.66
633.70	0.00
633.85	84.26
634.00	63.19
634.15	14.04
634.30	56.17
634.45	30.43
634.60	42.13
634.75	11.70
634.90	86.60
635.05	86.60
635.19	56.17
635.34	63.19
635.49	105.32
635.64	95.96
635.79	46.81
635.94	30.43
636.09	74.90
636.24	147.45
636.39	30.43
636.53	46.81
636.68	51.49
636.83	60.85
636.98	60.85
637.13	81.92
637.28	0.00
637.43	37.45
637.57	98.30
637.72	53.83
637.87	35.11
638.02	72.56
638.17	121.71
638.32	46.81
638.46	100.64
638.61	95.96
638.76	63.19
638.91	86.60
639.06	9.36
639.20	51.49
639.35	2.34
639.50	79.58
639.65	142.77
639.80	23.41
639.94	58.51
640.09	112.35
640.24	95.96
640.39	42.13
640.54	84.26
640.68	84.26
640.83	0.00
640.98	23.41
641.13	114.69
641.27	91.28
641.42	95.96
641.57	0.00
641.72	107.66
641.86	32.77
642.01	58.51
642.16	79.58
642.31	46.81
642.45	79.58
642.60	14.04
642.75	60.85
642.90	60.85
643.04	28.09
643.19	124.05
643.34	32.77
643.48	72.56
643.63	0.00
643.78	0.00
643.93	42.13
644.07	37.45
644.22	58.51
644.37	35.11
644.51	35.11
644.66	84.26
644.81	67.88
644.95	58.51
645.10	44.47
645.25	74.90
645.39	28.09
645.54	98.30
645.69	67.88
645.83	100.64
645.98	39.79
646.13	0.00
646.27	42.13
646.42	70.22
646.57	0.00
646.71	84.26
646.86	14.04
647.00	35.11
647.15	58.51
647.30	77.24
647.44	81.92
647.59	35.11
647.74	65.54
647.88	0.00
648.03	88.94
648.17	81.92
648.32	25.75
648.47	53.83
648.61	0.00
648.76	102.98
648.90	77.24
649.05	65.54
649.20	117.03
649.34	53.83
649.49	35.11
649.63	93.62
649.78	93.62
649.92	0.00
650.07	14.04
650.21	49.15
650.36	74.90
650.51	0.00
650.65	0.00
650.80	105.32
650.94	72.56
651.09	28.09
651.23	105.32
651.38	0.00
651.52	63.19
651.67	18.72
651.81	91.28
651.96	100.64
652.10	67.88
652.25	23.41
652.39	74.90
652.54	42.13
652.68	25.75
652.83	53.83
652.97	46.81
653.12	18.72
653.26	21.06
653.41	65.54
653.55	46.81
653.70	93.62
653.84	72.56
653.99	140.43
654.13	156.82
654.27	102.98
654.42	21.06
654.56	100.64
654.71	91.28
654.85	58.51
655.00	107.66
655.14	88.94
655.29	53.83
655.43	0.00
655.57	37.45
655.72	30.43
655.86	46.81
656.01	0.00
656.15	0.00
656.30	74.90
656.44	0.00
656.58	23.41
656.73	60.85
656.87	93.62
657.01	86.60
657.16	70.22
657.30	67.88
657.45	32.77
657.59	2.34
657.73	86.60
657.88	0.00
658.02	0.00
658.16	30.43
658.31	67.88
658.45	93.62
658.60	28.09
658.74	58.51
658.88	67.88
659.03	37.45
659.17	63.19
659.31	46.81
659.46	60.85
659.60	0.00
659.74	70.22
659.89	46.81
660.03	107.66
660.17	49.15
660.32	37.45
660.46	42.13
660.60	67.88
660.74	72.56
660.89	23.41
661.03	46.81
661.17	72.56
661.32	58.51
661.46	44.47
661.60	16.38
661.74	49.15
661.89	60.85
662.03	51.49
662.17	88.94
662.31	21.06
662.46	23.41
662.60	11.70
662.74	86.60
662.88	77.24
663.03	39.79
663.17	145.11
663.31	25.75
663.45	105.32
663.60	0.00
663.74	42.13
663.88	93.62
664.02	14.04
664.17	32.77
664.31	51.49
664.45	21.06
664.59	60.85
664.73	46.81
664.88	9.36
665.02	32.77
665.16	42.13
665.30	32.77
665.44	0.00
665.59	74.90
665.73	16.38
665.87	121.71
666.01	107.66
666.15	70.22
666.29	63.19
666.44	93.62
666.58	63.19
666.72	105.32
666.86	21.06
667.00	32.77
667.14	7.02
667.28	56.17
667.43	46.81
667.57	63.19
667.71	51.49
667.85	39.79
667.99	37.45
668.13	102.98
668.27	77.24
668.41	44.47
668.56	18.72
668.70	67.88
668.84	32.77
668.98	7.02
669.12	37.45
669.26	39.79
669.40	37.45
669.54	7.02
669.68	60.85
669.82	42.13
669.96	124.05
670.10	67.88
670.25	4.68
670.39	60.85
670.53	74.90
670.67	32.77
670.81	46.81
670.95	4.68
671.09	107.66
671.23	44.47
671.37	18.72
671.51	46.81
671.65	44.47
671.79	4.68
671.93	58.51
672.07	46.81
672.21	0.00
672.35	25.75
672.49	58.51
672.63	23.41
672.77	49.15
672.91	4.68
673.05	58.51
673.19	23.41
673.33	4.68
673.47	51.49
673.61	44.47
673.75	44.47
673.89	65.54
674.03	84.26
674.17	72.56
674.31	60.85
674.45	42.13
674.59	56.17
674.73	46.81
674.87	93.62
675.01	35.11
675.15	53.83
675.29	77.24
675.43	16.38
675.56	112.35
675.70	35.11
675.84	77.24
675.98	56.17
676.12	39.79
676.26	39.79
676.40	88.94
676.54	25.75
676.68	56.17
676.82	65.54
676.96	58.51
677.10	53.83
677.23	4.68
677.37	56.17
677.51	32.77
677.65	0.00
677.79	63.19
677.93	18.72
678.07	37.45
678.21	56.17
678.34	53.83
678.48	37.45
678.62	58.51
678.76	21.06
678.90	25.75
679.04	77.24
679.18	37.45
679.31	105.32
679.45	60.85
679.59	7.02
679.73	60.85
679.87	63.19
680.00	44.47
680.14	79.58
680.28	72.56
680.42	37.45
680.56	0.00
680.70	42.13
680.83	91.28
680.97	60.85
681.11	0.00
681.25	42.13
681.39	30.43
681.52	39.79
681.66	16.38
681.80	60.85
681.94	81.92
682.07	37.45
682.21	2.34
682.35	70.22
682.49	44.47
682.62	23.41
682.76	63.19
682.90	39.79
683.04	23.41
683.17	56.17
683.31	25.75
683.45	70.22
683.59	4.68
683.72	37.45
683.86	74.90
684.00	79.58
684.13	74.90
684.27	9.36
684.41	37.45
684.55	46.81
684.68	98.30
684.82	0.00
684.96	46.81
685.09	51.49
685.23	7.02
685.37	42.13
685.50	49.15
685.64	49.15
685.78	30.43
685.91	102.98
686.05	65.54
686.19	51.49
686.32	14.04
686.46	2.34
686.60	4.68
686.73	0.00
686.87	112.35
687.01	95.96
687.14	51.49
687.28	16.38
687.42	28.09
687.55	11.70
687.69	91.28
687.82	0.00
687.96	9.36
688.10	37.45
688.23	65.54
688.37	53.83
688.50	112.35
688.64	0.00
688.78	0.00
688.91	84.26
689.05	60.85
689.18	30.43
689.32	23.41
689.46	0.00
689.59	18.72
689.73	0.00
689.86	67.88
690.00	56.17
690.13	58.51
690.27	46.81
690.41	86.60
690.54	81.92
690.68	70.22
690.81	35.11
690.95	44.47
691.08	18.72
691.22	65.54
691.35	9.36
691.49	46.81
691.62	37.45
691.76	28.09
691.89	37.45
692.03	51.49
692.16	4.68
692.30	72.56
692.43	70.22
692.57	53.83
692.70	126.39
692.84	51.49
692.97	9.36
693.11	16.38
693.24	21.06
693.38	135.75
693.51	63.19
693.65	74.90
693.78	67.88
693.92	0.00
694.05	0.00
694.19	0.00
694.32	30.43
694.45	51.49
694.59	107.66
694.72	67.88
694.86	18.72
694.99	7.02
695.13	72.56
695.26	0.00
695.39	9.36
695.53	77.24
695.66	4.68
695.80	56.17
695.93	35.11
696.07	23.41
696.20	60.85
696.33	21.06
696.47	0.00
696.60	11.70
696.73	58.51
696.87	37.45
697.00	77.24
697.14	30.43
697.27	0.00
697.40	0.00
697.54	23.41
697.67	0.00
697.80	100.64
697.94	72.56
698.07	58.51
698.21	53.83
698.34	9.36
698.47	35.11
698.61	25.75
698.74	0.00
698.87	42.13
699.01	7.02
699.14	25.75
699.27	51.49
699.40	32.77
699.54	0.00
699.67	58.51
699.80	0.00
699.94	77.24
700.07	86.60
700.20	63.19
700.34	44.47
700.47	42.13
700.60	107.66
700.73	53.83
700.87	81.92
701.00	67.88
701.13	0.00
701.26	14.04
701.40	11.70
701.53	16.38
701.66	37.45
701.79	46.81
701.93	0.00
702.06	0.00
702.19	0.00
702.32	0.00
702.46	51.49
702.59	74.90
702.72	21.06
702.85	42.13
702.99	74.90
703.12	9.36
703.25	51.49
703.38	53.83
703.51	42.13
703.65	23.41
703.78	30.43
703.91	58.51
704.04	70.22
704.17	37.45
704.31	51.49
704.44	102.98
704.57	86.60
704.70	16.38
704.83	121.71
704.96	56.17
705.10	60.85
705.23	28.09
>>>>>End Processed Spectral Data<<<<<
