SpectraSuite Data File
++++++++++++++++++++++++++++++++++++
Date: Fri Oct 04 12:13:29 GMT-05:00 2013
User: price-jones
Dark Spectrum Present: No
Reference Spectrum Present: No
Number of Sampled Component Spectra: 1
Spectrometers: USB2+H05261
Integration Time (usec): 10000 (USB2+H05261)
Spectra Averaged: 1 (USB2+H05261)
Boxcar Smoothing: 0 (USB2+H05261)
Correct for Electrical Dark: No (USB2+H05261)
Strobe/Lamp Enabled: No (USB2+H05261)
Correct for Detector Non-linearity: No (USB2+H05261)
Correct for Stray Light: No (USB2+H05261)
Number of Pixels in Processed Spectrum: 2048
>>>>>Begin Processed Spectral Data<<<<<
365.73	4.68
365.92	4.68
366.12	4.68
366.32	0.00
366.52	0.00
366.72	0.00
366.91	0.00
367.11	0.00
367.31	0.00
367.51	0.00
367.70	0.00
367.90	0.00
368.10	0.00
368.30	0.00
368.49	0.00
368.69	0.00
368.89	0.00
369.09	0.00
369.28	0.00
369.48	0.00
369.68	0.00
369.87	0.00
370.07	0.00
370.27	0.00
370.47	0.00
370.66	0.00
370.86	0.00
371.06	0.00
371.25	23.41
371.45	0.00
371.65	0.00
371.84	74.90
372.04	58.51
372.24	28.09
372.44	49.15
372.63	4.68
372.83	51.49
373.03	35.11
373.22	0.00
373.42	23.41
373.62	84.26
373.81	46.81
374.01	77.24
374.21	70.22
374.40	60.85
374.60	0.00
374.79	2.34
374.99	21.06
375.19	88.94
375.38	9.36
375.58	7.02
375.78	35.11
375.97	14.04
376.17	21.06
376.37	0.00
376.56	21.06
376.76	46.81
376.95	56.17
377.15	0.00
377.35	0.00
377.54	32.77
377.74	25.75
377.93	0.00
378.13	0.00
378.33	70.22
378.52	51.49
378.72	0.00
378.91	65.54
379.11	0.00
379.31	53.83
379.50	0.00
379.70	51.49
379.89	21.06
380.09	7.02
380.28	81.92
380.48	32.77
380.68	28.09
380.87	35.11
381.07	0.00
381.26	23.41
381.46	16.38
381.65	16.38
381.85	11.70
382.04	0.00
382.24	95.96
382.43	37.45
382.63	39.79
382.83	60.85
383.02	0.00
383.22	0.00
383.41	60.85
383.61	39.79
383.80	25.75
384.00	0.00
384.19	67.88
384.39	18.72
384.58	0.00
384.78	0.00
384.97	9.36
385.17	30.43
385.36	0.00
385.56	0.00
385.75	0.00
385.95	25.75
386.14	16.38
386.34	14.04
386.53	65.54
386.72	9.36
386.92	0.00
387.11	65.54
387.31	23.41
387.50	0.00
387.70	70.22
387.89	0.00
388.09	46.81
388.28	53.83
388.48	51.49
388.67	44.47
388.86	7.02
389.06	44.47
389.25	25.75
389.45	49.15
389.64	65.54
389.84	0.00
390.03	46.81
390.22	79.58
390.42	0.00
390.61	65.54
390.81	74.90
391.00	37.45
391.19	74.90
391.39	51.49
391.58	77.24
391.78	25.75
391.97	32.77
392.16	28.09
392.36	0.00
392.55	16.38
392.75	21.06
392.94	58.51
393.13	81.92
393.33	42.13
393.52	16.38
393.71	79.58
393.91	28.09
394.10	65.54
394.29	14.04
394.49	25.75
394.68	9.36
394.88	14.04
395.07	49.15
395.26	51.49
395.46	67.88
395.65	53.83
395.84	11.70
396.04	4.68
396.23	0.00
396.42	0.00
396.62	107.66
396.81	30.43
397.00	53.83
397.19	35.11
397.39	28.09
397.58	25.75
397.77	86.60
397.97	2.34
398.16	0.00
398.35	16.38
398.55	0.00
398.74	4.68
398.93	65.54
399.12	65.54
399.32	35.11
399.51	39.79
399.70	2.34
399.90	0.00
400.09	51.49
400.28	0.00
400.47	42.13
400.67	88.94
400.86	25.75
401.05	77.24
401.24	18.72
401.44	35.11
401.63	67.88
401.82	51.49
402.01	37.45
402.21	93.62
402.40	42.13
402.59	35.11
402.78	46.81
402.97	72.56
403.17	84.26
403.36	0.00
403.55	39.79
403.74	7.02
403.93	60.85
404.13	11.70
404.32	0.00
404.51	9.36
404.70	63.19
404.89	25.75
405.09	35.11
405.28	28.09
405.47	51.49
405.66	74.90
405.85	60.85
406.05	81.92
406.24	100.64
406.43	0.00
406.62	53.83
406.81	81.92
407.00	95.96
407.20	56.17
407.39	0.00
407.58	0.00
407.77	117.03
407.96	77.24
408.15	28.09
408.34	4.68
408.54	0.00
408.73	42.13
408.92	14.04
409.11	0.00
409.30	28.09
409.49	56.17
409.68	39.79
409.87	63.19
410.07	0.00
410.26	0.00
410.45	51.49
410.64	0.00
410.83	42.13
411.02	2.34
411.21	14.04
411.40	32.77
411.59	72.56
411.78	70.22
411.98	0.00
412.17	23.41
412.36	88.94
412.55	30.43
412.74	72.56
412.93	11.70
413.12	53.83
413.31	0.00
413.50	25.75
413.69	91.28
413.88	32.77
414.07	63.19
414.26	70.22
414.45	11.70
414.64	49.15
414.83	18.72
415.02	21.06
415.22	0.00
415.41	88.94
415.60	7.02
415.79	0.00
415.98	65.54
416.17	28.09
416.36	30.43
416.55	51.49
416.74	7.02
416.93	23.41
417.12	7.02
417.31	16.38
417.50	63.19
417.69	0.00
417.88	7.02
418.07	18.72
418.26	53.83
418.45	46.81
418.64	11.70
418.83	51.49
419.02	30.43
419.21	30.43
419.39	11.70
419.58	51.49
419.77	53.83
419.96	63.19
420.15	11.70
420.34	88.94
420.53	32.77
420.72	0.00
420.91	37.45
421.10	35.11
421.29	9.36
421.48	2.34
421.67	0.00
421.86	23.41
422.05	21.06
422.24	0.00
422.43	14.04
422.61	28.09
422.80	74.90
422.99	7.02
423.18	4.68
423.37	28.09
423.56	58.51
423.75	0.00
423.94	65.54
424.13	42.13
424.32	0.00
424.50	65.54
424.69	11.70
424.88	32.77
425.07	0.00
425.26	86.60
425.45	39.79
425.64	16.38
425.83	0.00
426.01	93.62
426.20	112.35
426.39	23.41
426.58	0.00
426.77	21.06
426.96	39.79
427.15	28.09
427.33	0.00
427.52	77.24
427.71	88.94
427.90	42.13
428.09	35.11
428.28	63.19
428.46	77.24
428.65	16.38
428.84	0.00
429.03	0.00
429.22	25.75
429.40	7.02
429.59	21.06
429.78	30.43
429.97	0.00
430.16	9.36
430.34	37.45
430.53	0.00
430.72	37.45
430.91	28.09
431.10	70.22
431.28	74.90
431.47	0.00
431.66	21.06
431.85	30.43
432.03	0.00
432.22	2.34
432.41	72.56
432.60	7.02
432.79	60.85
432.97	72.56
433.16	14.04
433.35	7.02
433.54	0.00
433.72	0.00
433.91	72.56
434.10	2.34
434.28	42.13
434.47	49.15
434.66	0.00
434.85	9.36
435.03	49.15
435.22	112.35
435.41	93.62
435.59	23.41
435.78	86.60
435.97	0.00
436.16	21.06
436.34	25.75
436.53	79.58
436.72	42.13
436.90	0.00
437.09	74.90
437.28	95.96
437.46	30.43
437.65	9.36
437.84	0.00
438.02	88.94
438.21	4.68
438.40	46.81
438.58	56.17
438.77	37.45
438.96	9.36
439.14	39.79
439.33	0.00
439.52	46.81
439.70	2.34
439.89	30.43
440.08	4.68
440.26	23.41
440.45	65.54
440.63	58.51
440.82	28.09
441.01	7.02
441.19	14.04
441.38	58.51
441.57	53.83
441.75	79.58
441.94	49.15
442.12	56.17
442.31	21.06
442.50	44.47
442.68	23.41
442.87	74.90
443.05	51.49
443.24	30.43
443.43	67.88
443.61	35.11
443.80	51.49
443.98	11.70
444.17	39.79
444.35	39.79
444.54	86.60
444.73	44.47
444.91	2.34
445.10	9.36
445.28	7.02
445.47	11.70
445.65	79.58
445.84	18.72
446.02	53.83
446.21	30.43
446.39	51.49
446.58	7.02
446.77	11.70
446.95	0.00
447.14	14.04
447.32	2.34
447.51	117.03
447.69	0.00
447.88	56.17
448.06	18.72
448.25	0.00
448.43	0.00
448.62	0.00
448.80	0.00
448.99	0.00
449.17	21.06
449.36	100.64
449.54	67.88
449.73	51.49
449.91	42.13
450.10	39.79
450.28	25.75
450.46	81.92
450.65	63.19
450.83	51.49
451.02	2.34
451.20	56.17
451.39	77.24
451.57	0.00
451.76	37.45
451.94	79.58
452.13	11.70
452.31	0.00
452.49	42.13
452.68	35.11
452.86	42.13
453.05	86.60
453.23	37.45
453.42	72.56
453.60	53.83
453.78	0.00
453.97	44.47
454.15	25.75
454.34	53.83
454.52	7.02
454.70	93.62
454.89	0.00
455.07	37.45
455.26	44.47
455.44	0.00
455.62	70.22
455.81	65.54
455.99	25.75
456.17	0.00
456.36	44.47
456.54	37.45
456.73	4.68
456.91	2.34
457.09	0.00
457.28	4.68
457.46	30.43
457.64	16.38
457.83	9.36
458.01	23.41
458.19	18.72
458.38	65.54
458.56	32.77
458.74	117.03
458.93	51.49
459.11	35.11
459.29	65.54
459.48	0.00
459.66	46.81
459.84	25.75
460.03	35.11
460.21	23.41
460.39	39.79
460.57	18.72
460.76	56.17
460.94	0.00
461.12	18.72
461.31	67.88
461.49	30.43
461.67	0.00
461.85	0.00
462.04	4.68
462.22	30.43
462.40	0.00
462.59	56.17
462.77	28.09
462.95	46.81
463.13	0.00
463.32	93.62
463.50	0.00
463.68	9.36
463.86	25.75
464.05	37.45
464.23	0.00
464.41	9.36
464.59	2.34
464.78	32.77
464.96	32.77
465.14	67.88
465.32	79.58
465.50	0.00
465.69	28.09
465.87	14.04
466.05	0.00
466.23	2.34
466.41	4.68
466.60	0.00
466.78	42.13
466.96	81.92
467.14	42.13
467.32	60.85
467.51	0.00
467.69	39.79
467.87	30.43
468.05	18.72
468.23	74.90
468.41	77.24
468.60	44.47
468.78	102.98
468.96	25.75
469.14	0.00
469.32	74.90
469.50	79.58
469.69	21.06
469.87	11.70
470.05	28.09
470.23	11.70
470.41	14.04
470.59	74.90
470.77	98.30
470.95	35.11
471.14	117.03
471.32	11.70
471.50	9.36
471.68	67.88
471.86	49.15
472.04	72.56
472.22	25.75
472.40	0.00
472.58	56.17
472.77	51.49
472.95	88.94
473.13	4.68
473.31	46.81
473.49	32.77
473.67	23.41
473.85	0.00
474.03	11.70
474.21	0.00
474.39	37.45
474.57	7.02
474.75	49.15
474.93	7.02
475.12	0.00
475.30	60.85
475.48	84.26
475.66	81.92
475.84	30.43
476.02	18.72
476.20	63.19
476.38	30.43
476.56	32.77
476.74	37.45
476.92	30.43
477.10	25.75
477.28	51.49
477.46	60.85
477.64	135.75
477.82	23.41
478.00	35.11
478.18	2.34
478.36	81.92
478.54	32.77
478.72	0.00
478.90	49.15
479.08	81.92
479.26	60.85
479.44	35.11
479.62	117.03
479.80	84.26
479.98	4.68
480.16	21.06
480.34	28.09
480.52	7.02
480.70	86.60
480.88	2.34
481.06	0.00
481.24	2.34
481.41	0.00
481.59	77.24
481.77	0.00
481.95	37.45
482.13	49.15
482.31	124.05
482.49	35.11
482.67	63.19
482.85	32.77
483.03	58.51
483.21	37.45
483.39	53.83
483.57	0.00
483.74	100.64
483.92	98.30
484.10	63.19
484.28	16.38
484.46	28.09
484.64	58.51
484.82	0.00
485.00	30.43
485.18	84.26
485.35	9.36
485.53	16.38
485.71	35.11
485.89	23.41
486.07	39.79
486.25	53.83
486.43	84.26
486.61	56.17
486.78	35.11
486.96	4.68
487.14	16.38
487.32	65.54
487.50	18.72
487.68	72.56
487.85	0.00
488.03	51.49
488.21	72.56
488.39	51.49
488.57	117.03
488.75	63.19
488.92	88.94
489.10	28.09
489.28	18.72
489.46	32.77
489.64	60.85
489.81	53.83
489.99	0.00
490.17	30.43
490.35	42.13
490.53	0.00
490.70	44.47
490.88	51.49
491.06	30.43
491.24	70.22
491.41	14.04
491.59	79.58
491.77	16.38
491.95	65.54
492.13	23.41
492.30	44.47
492.48	49.15
492.66	11.70
492.84	16.38
493.01	67.88
493.19	56.17
493.37	0.00
493.54	51.49
493.72	51.49
493.90	30.43
494.08	37.45
494.25	58.51
494.43	60.85
494.61	0.00
494.79	0.00
494.96	0.00
495.14	60.85
495.32	0.00
495.49	30.43
495.67	60.85
495.85	21.06
496.02	14.04
496.20	25.75
496.38	21.06
496.55	70.22
496.73	60.85
496.91	35.11
497.09	0.00
497.26	63.19
497.44	70.22
497.62	86.60
497.79	74.90
497.97	23.41
498.14	7.02
498.32	39.79
498.50	72.56
498.67	2.34
498.85	95.96
499.03	74.90
499.20	14.04
499.38	49.15
499.56	53.83
499.73	16.38
499.91	16.38
500.08	88.94
500.26	51.49
500.44	56.17
500.61	23.41
500.79	98.30
500.97	23.41
501.14	35.11
501.32	88.94
501.49	72.56
501.67	74.90
501.84	56.17
502.02	0.00
502.20	84.26
502.37	18.72
502.55	32.77
502.72	74.90
502.90	0.00
503.07	72.56
503.25	63.19
503.43	42.13
503.60	21.06
503.78	4.68
503.95	28.09
504.13	53.83
504.30	35.11
504.48	91.28
504.65	72.56
504.83	53.83
505.01	65.54
505.18	32.77
505.36	107.66
505.53	18.72
505.71	112.35
505.88	51.49
506.06	7.02
506.23	21.06
506.41	28.09
506.58	0.00
506.76	56.17
506.93	7.02
507.11	21.06
507.28	58.51
507.46	159.16
507.63	44.47
507.81	11.70
507.98	51.49
508.16	84.26
508.33	23.41
508.50	65.54
508.68	46.81
508.85	72.56
509.03	84.26
509.20	102.98
509.38	51.49
509.55	58.51
509.73	84.26
509.90	46.81
510.08	56.17
510.25	49.15
510.42	44.47
510.60	72.56
510.77	102.98
510.95	51.49
511.12	79.58
511.30	30.43
511.47	72.56
511.64	37.45
511.82	28.09
511.99	0.00
512.17	51.49
512.34	88.94
512.51	51.49
512.69	21.06
512.86	16.38
513.04	39.79
513.21	0.00
513.38	37.45
513.56	56.17
513.73	63.19
513.90	35.11
514.08	53.83
514.25	37.45
514.43	81.92
514.60	0.00
514.77	0.00
514.95	74.90
515.12	93.62
515.29	0.00
515.47	121.71
515.64	56.17
515.81	14.04
515.99	98.30
516.16	39.79
516.33	0.00
516.51	30.43
516.68	28.09
516.85	23.41
517.03	60.85
517.20	28.09
517.37	25.75
517.54	0.00
517.72	14.04
517.89	9.36
518.06	2.34
518.24	84.26
518.41	74.90
518.58	107.66
518.75	14.04
518.93	39.79
519.10	0.00
519.27	7.02
519.45	32.77
519.62	117.03
519.79	14.04
519.96	32.77
520.14	23.41
520.31	28.09
520.48	0.00
520.65	23.41
520.83	86.60
521.00	121.71
521.17	0.00
521.34	63.19
521.52	14.04
521.69	0.00
521.86	37.45
522.03	152.13
522.20	70.22
522.38	56.17
522.55	25.75
522.72	58.51
522.89	112.35
523.07	9.36
523.24	35.11
523.41	102.98
523.58	42.13
523.75	44.47
523.92	63.19
524.10	60.85
524.27	86.60
524.44	51.49
524.61	14.04
524.78	44.47
524.96	21.06
525.13	44.47
525.30	9.36
525.47	126.39
525.64	0.00
525.81	11.70
525.98	28.09
526.16	35.11
526.33	67.88
526.50	39.79
526.67	9.36
526.84	81.92
527.01	74.90
527.18	42.13
527.36	126.39
527.53	77.24
527.70	35.11
527.87	46.81
528.04	35.11
528.21	79.58
528.38	18.72
528.55	25.75
528.72	42.13
528.89	4.68
529.07	0.00
529.24	0.00
529.41	102.98
529.58	114.69
529.75	49.15
529.92	21.06
530.09	9.36
530.26	0.00
530.43	0.00
530.60	70.22
530.77	37.45
530.94	4.68
531.11	95.96
531.28	84.26
531.46	65.54
531.63	2.34
531.80	9.36
531.97	63.19
532.14	51.49
532.31	79.58
532.48	30.43
532.65	63.19
532.82	44.47
532.99	49.15
533.16	72.56
533.33	23.41
533.50	21.06
533.67	128.73
533.84	65.54
534.01	93.62
534.18	79.58
534.35	35.11
534.52	37.45
534.69	9.36
534.86	32.77
535.03	16.38
535.20	70.22
535.37	91.28
535.54	65.54
535.71	44.47
535.88	86.60
536.05	9.36
536.22	93.62
536.38	81.92
536.55	56.17
536.72	0.00
536.89	28.09
537.06	44.47
537.23	28.09
537.40	49.15
537.57	11.70
537.74	37.45
537.91	42.13
538.08	53.83
538.25	51.49
538.42	0.00
538.59	53.83
538.75	0.00
538.92	0.00
539.09	0.00
539.26	39.79
539.43	56.17
539.60	128.73
539.77	208.31
539.94	126.39
540.11	114.69
540.28	74.90
540.44	72.56
540.61	32.77
540.78	58.51
540.95	56.17
541.12	51.49
541.29	30.43
541.46	0.00
541.62	44.47
541.79	37.45
541.96	49.15
542.13	7.02
542.30	0.00
542.47	9.36
542.63	2.34
542.80	42.13
542.97	58.51
543.14	100.64
543.31	72.56
543.48	88.94
543.64	9.36
543.81	35.11
543.98	35.11
544.15	0.00
544.32	0.00
544.48	72.56
544.65	51.49
544.82	0.00
544.99	21.06
545.16	95.96
545.32	65.54
545.49	60.85
545.66	49.15
545.83	86.60
546.00	49.15
546.16	84.26
546.33	105.32
546.50	117.03
546.67	135.75
546.83	11.70
547.00	88.94
547.17	28.09
547.34	42.13
547.50	60.85
547.67	100.64
547.84	88.94
548.00	49.15
548.17	9.36
548.34	70.22
548.51	0.00
548.67	88.94
548.84	14.04
549.01	86.60
549.18	117.03
549.34	67.88
549.51	4.68
549.68	37.45
549.84	0.00
550.01	0.00
550.18	16.38
550.34	14.04
550.51	0.00
550.68	21.06
550.84	35.11
551.01	7.02
551.18	44.47
551.34	46.81
551.51	53.83
551.68	79.58
551.84	44.47
552.01	39.79
552.18	88.94
552.34	30.43
552.51	11.70
552.68	74.90
552.84	28.09
553.01	21.06
553.18	37.45
553.34	58.51
553.51	0.00
553.67	30.43
553.84	0.00
554.01	56.17
554.17	0.00
554.34	86.60
554.51	58.51
554.67	28.09
554.84	39.79
555.00	0.00
555.17	16.38
555.33	53.83
555.50	9.36
555.67	9.36
555.83	23.41
556.00	30.43
556.16	11.70
556.33	28.09
556.50	81.92
556.66	58.51
556.83	93.62
556.99	42.13
557.16	37.45
557.32	18.72
557.49	39.79
557.65	67.88
557.82	0.00
557.98	9.36
558.15	0.00
558.32	14.04
558.48	37.45
558.65	2.34
558.81	44.47
558.98	56.17
559.14	9.36
559.31	30.43
559.47	21.06
559.64	0.00
559.80	81.92
559.97	0.00
560.13	30.43
560.30	30.43
560.46	11.70
560.63	2.34
560.79	79.58
560.96	84.26
561.12	67.88
561.29	93.62
561.45	11.70
561.61	0.00
561.78	0.00
561.94	93.62
562.11	79.58
562.27	56.17
562.44	21.06
562.60	60.85
562.77	56.17
562.93	46.81
563.10	0.00
563.26	0.00
563.42	0.00
563.59	7.02
563.75	72.56
563.92	70.22
564.08	42.13
564.24	30.43
564.41	58.51
564.57	35.11
564.74	0.00
564.90	126.39
565.07	25.75
565.23	58.51
565.39	0.00
565.56	18.72
565.72	72.56
565.88	4.68
566.05	56.17
566.21	35.11
566.38	4.68
566.54	72.56
566.70	9.36
566.87	93.62
567.03	42.13
567.19	4.68
567.36	70.22
567.52	0.00
567.68	53.83
567.85	4.68
568.01	60.85
568.17	72.56
568.34	74.90
568.50	74.90
568.66	67.88
568.83	11.70
568.99	39.79
569.15	81.92
569.32	0.00
569.48	2.34
569.64	14.04
569.81	9.36
569.97	60.85
570.13	53.83
570.30	91.28
570.46	44.47
570.62	49.15
570.78	4.68
570.95	63.19
571.11	39.79
571.27	95.96
571.43	11.70
571.60	84.26
571.76	44.47
571.92	35.11
572.09	4.68
572.25	91.28
572.41	32.77
572.57	11.70
572.74	0.00
572.90	25.75
573.06	28.09
573.22	32.77
573.38	0.00
573.55	37.45
573.71	0.00
573.87	53.83
574.03	0.00
574.20	32.77
574.36	32.77
574.52	72.56
574.68	37.45
574.84	9.36
575.01	74.90
575.17	9.36
575.33	23.41
575.49	0.00
575.65	39.79
575.82	39.79
575.98	0.00
576.14	35.11
576.30	60.85
576.46	117.03
576.62	67.88
576.79	0.00
576.95	84.26
577.11	60.85
577.27	0.00
577.43	46.81
577.59	18.72
577.75	58.51
577.92	32.77
578.08	58.51
578.24	46.81
578.40	0.00
578.56	35.11
578.72	60.85
578.88	11.70
579.04	95.96
579.21	32.77
579.37	110.01
579.53	60.85
579.69	35.11
579.85	39.79
580.01	51.49
580.17	65.54
580.33	37.45
580.49	44.47
580.65	126.39
580.82	51.49
580.98	23.41
581.14	37.45
581.30	46.81
581.46	60.85
581.62	0.00
581.78	63.19
581.94	117.03
582.10	51.49
582.26	84.26
582.42	21.06
582.58	39.79
582.74	58.51
582.90	84.26
583.06	23.41
583.22	58.51
583.38	28.09
583.54	0.00
583.70	110.01
583.86	0.00
584.02	74.90
584.18	86.60
584.34	166.18
584.50	285.55
584.66	1720.29
584.82	4044.45
584.98	5420.68
585.14	4784.06
585.30	3117.59
585.46	1769.44
585.62	1184.31
585.78	571.09
585.94	234.05
586.10	126.39
586.26	14.04
586.42	56.17
586.58	46.81
586.74	100.64
586.90	88.94
587.06	39.79
587.22	53.83
587.38	42.13
587.54	114.69
587.70	215.33
587.86	381.51
588.02	425.98
588.18	322.99
588.34	208.31
588.49	140.43
588.65	93.62
588.81	14.04
588.97	0.00
589.13	23.41
589.29	16.38
589.45	28.09
589.61	49.15
589.77	42.13
589.93	2.34
590.08	110.01
590.24	112.35
590.40	30.43
590.56	16.38
590.72	9.36
590.88	0.00
591.04	35.11
591.20	119.37
591.35	14.04
591.51	14.04
591.67	21.06
591.83	56.17
591.99	0.00
592.15	42.13
592.31	0.00
592.46	74.90
592.62	16.38
592.78	0.00
592.94	46.81
593.10	114.69
593.26	28.09
593.41	88.94
593.57	56.17
593.73	46.81
593.89	196.60
594.05	575.77
594.20	737.27
594.36	746.63
594.52	507.90
594.68	245.76
594.84	234.05
594.99	79.58
595.15	14.04
595.31	77.24
595.47	46.81
595.62	16.38
595.78	42.13
595.94	35.11
596.10	56.17
596.25	105.32
596.41	58.51
596.57	4.68
596.73	28.09
596.88	81.92
597.04	138.09
597.20	227.03
597.36	173.20
597.51	264.48
597.67	133.41
597.83	102.98
597.99	65.54
598.14	18.72
598.30	110.01
598.46	0.00
598.61	102.98
598.77	60.85
598.93	56.17
599.09	35.11
599.24	32.77
599.40	35.11
599.56	63.19
599.71	88.94
599.87	67.88
600.03	32.77
600.18	7.02
600.34	46.81
600.50	72.56
600.65	18.72
600.81	0.00
600.97	0.00
601.12	58.51
601.28	53.83
601.44	102.98
601.59	16.38
601.75	35.11
601.91	0.00
602.06	107.66
602.22	35.11
602.37	77.24
602.53	154.48
602.69	222.35
602.84	161.50
603.00	145.11
603.16	112.35
603.31	107.66
603.47	81.92
603.62	63.19
603.78	46.81
603.94	72.56
604.09	56.17
604.25	51.49
604.40	0.00
604.56	58.51
604.71	32.77
604.87	56.17
605.03	42.13
605.18	63.19
605.34	16.38
605.49	58.51
605.65	77.24
605.80	110.01
605.96	105.32
606.12	56.17
606.27	0.00
606.43	56.17
606.58	0.00
606.74	86.60
606.89	325.33
607.05	512.58
607.20	669.39
607.36	528.96
607.51	365.12
607.67	297.25
607.82	189.58
607.98	154.48
608.13	63.19
608.29	100.64
608.44	67.88
608.60	9.36
608.75	95.96
608.91	126.39
609.06	344.06
609.22	819.19
609.37	999.41
609.53	931.53
609.68	697.48
609.84	411.93
609.99	297.25
610.15	245.76
610.30	102.98
610.46	56.17
610.61	70.22
610.76	0.00
610.92	23.41
611.07	74.90
611.23	95.96
611.38	9.36
611.54	25.75
611.69	0.00
611.84	81.92
612.00	72.56
612.15	100.64
612.31	42.13
612.46	77.24
612.62	53.83
612.77	79.58
612.92	107.66
613.08	74.90
613.23	65.54
613.39	53.83
613.54	128.73
613.69	369.80
613.85	1123.46
614.00	1511.99
614.15	1607.95
614.31	1132.82
614.46	791.10
614.62	606.20
614.77	322.99
614.92	175.54
615.08	44.47
615.23	91.28
615.38	81.92
615.54	159.16
615.69	159.16
615.84	224.69
616.00	365.12
616.15	451.72
616.30	468.11
616.46	217.67
616.61	191.92
616.76	138.09
616.92	42.13
617.07	77.24
617.22	0.00
617.37	0.00
617.53	67.88
617.68	88.94
617.83	0.00
617.99	21.06
618.14	35.11
618.29	25.75
618.45	119.37
618.60	67.88
618.75	124.05
618.90	30.43
619.06	39.79
619.21	28.09
619.36	0.00
619.51	14.04
619.67	60.85
619.82	7.02
619.97	49.15
620.12	0.00
620.28	95.96
620.43	0.00
620.58	46.81
620.73	44.47
620.89	0.00
621.04	30.43
621.19	182.56
621.34	271.50
621.49	297.25
621.65	173.20
621.80	163.84
621.95	133.41
622.10	117.03
622.25	37.45
622.41	63.19
622.56	35.11
622.71	44.47
622.86	39.79
623.01	63.19
623.16	25.75
623.32	18.72
623.47	63.19
623.62	28.09
623.77	95.96
623.92	0.00
624.07	0.00
624.23	0.00
624.38	72.56
624.53	79.58
624.68	30.43
624.83	51.49
624.98	100.64
625.13	100.64
625.29	84.26
625.44	0.00
625.59	112.35
625.74	14.04
625.89	35.11
626.04	222.35
626.19	552.37
626.34	851.96
626.49	851.96
626.65	664.71
626.80	440.02
626.95	236.39
627.10	173.20
627.25	102.98
627.40	100.64
627.55	60.85
627.70	32.77
627.85	35.11
628.00	30.43
628.15	32.77
628.30	14.04
628.45	53.83
628.60	42.13
628.76	21.06
628.91	51.49
629.06	0.00
629.21	30.43
629.36	32.77
629.51	30.43
629.66	53.83
629.81	46.81
629.96	88.94
630.11	215.33
630.26	215.33
630.41	262.14
630.56	142.77
630.71	32.77
630.86	77.24
631.01	32.77
631.16	107.66
631.31	53.83
631.46	9.36
631.61	0.00
631.76	81.92
631.91	16.38
632.06	44.47
632.21	16.38
632.36	42.13
632.51	11.70
632.66	32.77
632.81	107.66
632.96	374.49
633.10	470.45
633.25	578.11
633.40	547.69
633.55	430.66
633.70	243.42
633.85	224.69
634.00	117.03
634.15	67.88
634.30	91.28
634.45	86.60
634.60	25.75
634.75	42.13
634.90	44.47
635.05	23.41
635.19	70.22
635.34	11.70
635.49	100.64
635.64	16.38
635.79	0.00
635.94	60.85
636.09	14.04
636.24	21.06
636.39	70.22
636.53	70.22
636.68	44.47
636.83	51.49
636.98	42.13
637.13	79.58
637.28	105.32
637.43	25.75
637.57	32.77
637.72	229.37
637.87	692.80
638.02	1004.09
638.17	1111.75
638.32	702.16
638.46	547.69
638.61	416.62
638.76	285.55
638.91	184.90
639.06	154.48
639.20	70.22
639.35	51.49
639.50	119.37
639.65	479.81
639.80	1076.65
639.94	1523.69
640.09	1710.93
640.24	1242.82
640.39	894.08
640.54	608.54
640.68	388.53
640.83	212.99
640.98	79.58
641.13	110.01
641.27	0.00
641.42	30.43
641.57	88.94
641.72	86.60
641.86	25.75
642.01	46.81
642.16	70.22
642.31	4.68
642.45	65.54
642.60	46.81
642.75	60.85
642.90	51.49
643.04	0.00
643.19	0.00
643.34	0.00
643.48	81.92
643.63	102.98
643.78	14.04
643.93	37.45
644.07	0.00
644.22	0.00
644.37	42.13
644.51	0.00
644.66	23.41
644.81	42.13
644.95	49.15
645.10	72.56
645.25	60.85
645.39	67.88
645.54	53.83
645.69	30.43
645.83	21.06
645.98	81.92
646.13	53.83
646.27	56.17
646.42	0.00
646.57	88.94
646.71	84.26
646.86	11.70
647.00	46.81
647.15	102.98
647.30	0.00
647.44	25.75
647.59	35.11
647.74	0.00
647.88	149.79
648.03	0.00
648.17	39.79
648.32	0.00
648.47	51.49
648.61	11.70
648.76	35.11
648.90	58.51
649.05	9.36
649.20	35.11
649.34	65.54
649.49	16.38
649.63	98.30
649.78	11.70
649.92	9.36
650.07	205.97
650.21	428.32
650.36	866.00
650.51	816.85
650.65	765.36
650.80	575.77
650.94	353.42
651.09	229.37
651.23	152.13
651.38	145.11
651.52	117.03
651.67	30.43
651.81	18.72
651.96	65.54
652.10	39.79
652.25	28.09
652.39	0.00
652.54	25.75
652.68	93.62
652.83	154.48
652.97	231.71
653.12	294.91
653.26	306.61
653.41	250.44
653.55	142.77
653.70	37.45
653.84	102.98
653.99	70.22
654.13	0.00
654.27	107.66
654.42	37.45
654.56	14.04
654.71	11.70
654.85	0.00
655.00	16.38
655.14	98.30
655.29	42.13
655.43	23.41
655.57	114.69
655.72	23.41
655.86	49.15
656.01	53.83
656.15	46.81
656.30	42.13
656.44	0.00
656.58	65.54
656.73	30.43
656.87	65.54
657.01	105.32
657.16	11.70
657.30	0.00
657.45	0.00
657.59	35.11
657.73	0.00
657.88	28.09
658.02	126.39
658.16	88.94
658.31	21.06
658.45	28.09
658.60	56.17
658.74	44.47
658.88	110.01
659.03	72.56
659.17	49.15
659.31	163.84
659.46	159.16
659.60	397.89
659.74	409.59
659.89	322.99
660.03	299.59
660.17	227.03
660.32	133.41
660.46	133.41
660.60	74.90
660.74	84.26
660.89	42.13
661.03	67.88
661.17	25.75
661.32	65.54
661.46	117.03
661.60	28.09
661.74	32.77
661.89	25.75
662.03	32.77
662.17	25.75
662.31	0.00
662.46	93.62
662.60	0.00
662.74	51.49
662.88	39.79
663.03	46.81
663.17	30.43
663.31	0.00
663.45	23.41
663.60	23.41
663.74	0.00
663.88	46.81
664.02	9.36
664.17	42.13
664.31	60.85
664.45	35.11
664.59	93.62
664.73	2.34
664.88	16.38
665.02	0.00
665.16	35.11
665.30	95.96
665.44	0.00
665.59	11.70
665.73	16.38
665.87	11.70
666.01	93.62
666.15	60.85
666.29	51.49
666.44	4.68
666.58	51.49
666.72	53.83
666.86	0.00
667.00	28.09
667.14	79.58
667.28	128.73
667.43	433.00
667.57	592.16
667.71	702.16
667.85	622.58
667.99	433.00
668.13	351.08
668.27	271.50
668.41	84.26
668.56	95.96
668.70	58.51
668.84	16.38
668.98	37.45
669.12	32.77
669.26	25.75
669.40	25.75
669.54	46.81
669.68	32.77
669.82	37.45
669.96	79.58
670.10	0.00
670.25	107.66
670.39	84.26
670.53	0.00
670.67	98.30
670.81	46.81
670.95	0.00
671.09	16.38
671.23	161.50
671.37	320.65
671.51	430.66
671.65	517.26
671.79	425.98
671.93	250.44
672.07	236.39
672.21	107.66
672.35	14.04
672.49	0.00
672.63	81.92
672.77	25.75
672.91	0.00
673.05	32.77
673.19	35.11
673.33	16.38
673.47	0.00
673.61	79.58
673.75	0.00
673.89	0.00
674.03	28.09
674.17	11.70
674.31	86.60
674.45	44.47
674.59	98.30
674.73	60.85
674.87	30.43
675.01	84.26
675.15	63.19
675.29	16.38
675.43	25.75
675.56	86.60
675.70	32.77
675.84	0.00
675.98	9.36
676.12	0.00
676.26	84.26
676.40	21.06
676.54	0.00
676.68	32.77
676.82	23.41
676.96	37.45
677.10	49.15
677.23	4.68
677.37	11.70
677.51	81.92
677.65	0.00
677.79	46.81
677.93	0.00
678.07	0.00
678.21	0.00
678.34	0.00
678.48	93.62
678.62	28.09
678.76	35.11
678.90	0.00
679.04	72.56
679.18	4.68
679.31	93.62
679.45	4.68
679.59	30.43
679.73	44.47
679.87	88.94
680.00	51.49
680.14	60.85
680.28	63.19
680.42	107.66
680.56	0.00
680.70	21.06
680.83	14.04
680.97	63.19
681.11	28.09
681.25	74.90
681.39	105.32
681.52	11.70
681.66	4.68
681.80	4.68
681.94	23.41
682.07	53.83
682.21	60.85
682.35	49.15
682.49	21.06
682.62	65.54
682.76	46.81
682.90	14.04
683.04	18.72
683.17	42.13
683.31	25.75
683.45	60.85
683.59	0.00
683.72	35.11
683.86	46.81
684.00	21.06
684.13	25.75
684.27	42.13
684.41	53.83
684.55	0.00
684.68	65.54
684.82	32.77
684.96	35.11
685.09	67.88
685.23	0.00
685.37	67.88
685.50	11.70
685.64	42.13
685.78	63.19
685.91	63.19
686.05	32.77
686.19	14.04
686.32	16.38
686.46	67.88
686.60	110.01
686.73	46.81
686.87	70.22
687.01	98.30
687.14	18.72
687.28	63.19
687.42	9.36
687.55	35.11
687.69	49.15
687.82	16.38
687.96	0.00
688.10	37.45
688.23	88.94
688.37	35.11
688.50	0.00
688.64	58.51
688.78	18.72
688.91	9.36
689.05	21.06
689.18	46.81
689.32	74.90
689.46	44.47
689.59	74.90
689.73	46.81
689.86	11.70
690.00	74.90
690.13	88.94
690.27	11.70
690.41	72.56
690.54	37.45
690.68	35.11
690.81	25.75
690.95	0.00
691.08	18.72
691.22	53.83
691.35	16.38
691.49	53.83
691.62	128.73
691.76	0.00
691.89	4.68
692.03	0.00
692.16	21.06
692.30	32.77
692.43	124.05
692.57	182.56
692.70	191.92
692.84	463.43
692.97	306.61
693.11	229.37
693.24	152.13
693.38	110.01
693.51	142.77
693.65	79.58
693.78	25.75
693.92	0.00
694.05	98.30
694.19	7.02
694.32	18.72
694.45	39.79
694.59	56.17
694.72	0.00
694.86	0.00
694.99	70.22
695.13	49.15
695.26	14.04
695.39	0.00
695.53	35.11
695.66	60.85
695.80	58.51
695.93	39.79
696.07	46.81
696.20	0.00
696.33	0.00
696.47	35.11
696.60	93.62
696.73	70.22
696.87	67.88
697.00	30.43
697.14	16.38
697.27	65.54
697.40	39.79
697.54	46.81
697.67	7.02
697.80	4.68
697.94	32.77
698.07	0.00
698.21	81.92
698.34	53.83
698.47	35.11
698.61	9.36
698.74	30.43
698.87	0.00
699.01	25.75
699.14	98.30
699.27	35.11
699.40	4.68
699.54	93.62
699.67	2.34
699.80	32.77
699.94	0.00
700.07	11.70
700.20	16.38
700.34	25.75
700.47	35.11
700.60	0.00
700.73	35.11
700.87	0.00
701.00	63.19
701.13	67.88
701.26	60.85
701.40	74.90
701.53	14.04
701.66	98.30
701.79	25.75
701.93	14.04
702.06	18.72
702.19	37.45
702.32	72.56
702.46	42.13
702.59	53.83
702.72	65.54
702.85	208.31
702.99	486.83
703.12	533.64
703.25	629.60
703.38	528.96
703.51	383.85
703.65	348.74
703.78	231.71
703.91	173.20
704.04	133.41
704.17	98.30
704.31	56.17
704.44	9.36
704.57	7.02
704.70	42.13
704.83	44.47
704.96	84.26
705.10	35.11
705.23	18.72
>>>>>End Processed Spectral Data<<<<<
