SpectraSuite Data File
++++++++++++++++++++++++++++++++++++
Date: Fri Oct 04 12:13:44 GMT-05:00 2013
User: price-jones
Dark Spectrum Present: No
Reference Spectrum Present: No
Number of Sampled Component Spectra: 1
Spectrometers: USB2+H05261
Integration Time (usec): 10000 (USB2+H05261)
Spectra Averaged: 1 (USB2+H05261)
Boxcar Smoothing: 0 (USB2+H05261)
Correct for Electrical Dark: No (USB2+H05261)
Strobe/Lamp Enabled: No (USB2+H05261)
Correct for Detector Non-linearity: No (USB2+H05261)
Correct for Stray Light: No (USB2+H05261)
Number of Pixels in Processed Spectrum: 2048
>>>>>Begin Processed Spectral Data<<<<<
365.73	0.00
365.92	0.00
366.12	0.00
366.32	0.00
366.52	0.00
366.72	0.00
366.91	0.00
367.11	0.00
367.31	0.00
367.51	0.00
367.70	0.00
367.90	0.00
368.10	0.00
368.30	0.00
368.49	0.00
368.69	0.00
368.89	0.00
369.09	0.00
369.28	0.00
369.48	0.00
369.68	0.00
369.87	0.00
370.07	0.00
370.27	0.00
370.47	0.00
370.66	0.00
370.86	0.00
371.06	0.00
371.25	0.00
371.45	0.00
371.65	0.00
371.84	0.00
372.04	58.51
372.24	0.00
372.44	9.36
372.63	0.00
372.83	0.00
373.03	53.83
373.22	63.19
373.42	77.24
373.62	0.00
373.81	0.00
374.01	21.06
374.21	39.79
374.40	0.00
374.60	65.54
374.79	63.19
374.99	9.36
375.19	46.81
375.38	0.00
375.58	0.00
375.78	84.26
375.97	51.49
376.17	112.35
376.37	0.00
376.56	0.00
376.76	44.47
376.95	95.96
377.15	60.85
377.35	63.19
377.54	60.85
377.74	28.09
377.93	63.19
378.13	28.09
378.33	37.45
378.52	0.00
378.72	14.04
378.91	0.00
379.11	7.02
379.31	51.49
379.50	44.47
379.70	18.72
379.89	0.00
380.09	95.96
380.28	23.41
380.48	58.51
380.68	35.11
380.87	28.09
381.07	11.70
381.26	23.41
381.46	16.38
381.65	63.19
381.85	0.00
382.04	39.79
382.24	74.90
382.43	0.00
382.63	0.00
382.83	0.00
383.02	51.49
383.22	86.60
383.41	107.66
383.61	0.00
383.80	63.19
384.00	39.79
384.19	0.00
384.39	79.58
384.58	23.41
384.78	39.79
384.97	0.00
385.17	42.13
385.36	51.49
385.56	65.54
385.75	0.00
385.95	67.88
386.14	105.32
386.34	0.00
386.53	102.98
386.72	117.03
386.92	39.79
387.11	14.04
387.31	4.68
387.50	16.38
387.70	0.00
387.89	49.15
388.09	46.81
388.28	0.00
388.48	0.00
388.67	46.81
388.86	0.00
389.06	4.68
389.25	0.00
389.45	14.04
389.64	9.36
389.84	18.72
390.03	0.00
390.22	72.56
390.42	0.00
390.61	21.06
390.81	32.77
391.00	65.54
391.19	14.04
391.39	70.22
391.58	0.00
391.78	14.04
391.97	63.19
392.16	14.04
392.36	0.00
392.55	35.11
392.75	56.17
392.94	14.04
393.13	51.49
393.33	30.43
393.52	21.06
393.71	84.26
393.91	0.00
394.10	44.47
394.29	23.41
394.49	16.38
394.68	9.36
394.88	0.00
395.07	58.51
395.26	0.00
395.46	44.47
395.65	0.00
395.84	7.02
396.04	42.13
396.23	51.49
396.42	0.00
396.62	39.79
396.81	70.22
397.00	0.00
397.19	91.28
397.39	74.90
397.58	79.58
397.77	21.06
397.97	102.98
398.16	0.00
398.35	0.00
398.55	58.51
398.74	49.15
398.93	0.00
399.12	28.09
399.32	18.72
399.51	63.19
399.70	72.56
399.90	58.51
400.09	77.24
400.28	58.51
400.47	37.45
400.67	86.60
400.86	49.15
401.05	37.45
401.24	0.00
401.44	0.00
401.63	60.85
401.82	21.06
402.01	42.13
402.21	49.15
402.40	0.00
402.59	105.32
402.78	77.24
402.97	44.47
403.17	42.13
403.36	56.17
403.55	56.17
403.74	67.88
403.93	23.41
404.13	39.79
404.32	30.43
404.51	28.09
404.70	11.70
404.89	14.04
405.09	14.04
405.28	4.68
405.47	58.51
405.66	49.15
405.85	86.60
406.05	32.77
406.24	98.30
406.43	77.24
406.62	84.26
406.81	70.22
407.00	0.00
407.20	44.47
407.39	37.45
407.58	2.34
407.77	100.64
407.96	0.00
408.15	4.68
408.34	65.54
408.54	28.09
408.73	18.72
408.92	49.15
409.11	42.13
409.30	67.88
409.49	9.36
409.68	0.00
409.87	0.00
410.07	21.06
410.26	95.96
410.45	98.30
410.64	51.49
410.83	4.68
411.02	56.17
411.21	14.04
411.40	124.05
411.59	72.56
411.78	65.54
411.98	30.43
412.17	86.60
412.36	58.51
412.55	98.30
412.74	142.77
412.93	46.81
413.12	16.38
413.31	74.90
413.50	30.43
413.69	0.00
413.88	23.41
414.07	46.81
414.26	39.79
414.45	149.79
414.64	74.90
414.83	49.15
415.02	2.34
415.22	44.47
415.41	42.13
415.60	121.71
415.79	37.45
415.98	0.00
416.17	18.72
416.36	114.69
416.55	79.58
416.74	51.49
416.93	128.73
417.12	81.92
417.31	44.47
417.50	18.72
417.69	44.47
417.88	110.01
418.07	98.30
418.26	35.11
418.45	70.22
418.64	53.83
418.83	0.00
419.02	28.09
419.21	77.24
419.39	7.02
419.58	25.75
419.77	37.45
419.96	32.77
420.15	46.81
420.34	72.56
420.53	63.19
420.72	93.62
420.91	65.54
421.10	51.49
421.29	0.00
421.48	51.49
421.67	107.66
421.86	35.11
422.05	65.54
422.24	0.00
422.43	110.01
422.61	81.92
422.80	28.09
422.99	16.38
423.18	23.41
423.37	88.94
423.56	74.90
423.75	25.75
423.94	70.22
424.13	60.85
424.32	9.36
424.50	128.73
424.69	4.68
424.88	135.75
425.07	42.13
425.26	70.22
425.45	35.11
425.64	18.72
425.83	18.72
426.01	70.22
426.20	18.72
426.39	37.45
426.58	37.45
426.77	18.72
426.96	51.49
427.15	112.35
427.33	46.81
427.52	0.00
427.71	60.85
427.90	98.30
428.09	77.24
428.28	28.09
428.46	81.92
428.65	42.13
428.84	88.94
429.03	51.49
429.22	58.51
429.40	53.83
429.59	0.00
429.78	42.13
429.97	60.85
430.16	53.83
430.34	11.70
430.53	21.06
430.72	21.06
430.91	51.49
431.10	30.43
431.28	121.71
431.47	81.92
431.66	60.85
431.85	18.72
432.03	23.41
432.22	70.22
432.41	0.00
432.60	0.00
432.79	81.92
432.97	51.49
433.16	2.34
433.35	93.62
433.54	77.24
433.72	32.77
433.91	0.00
434.10	72.56
434.28	25.75
434.47	53.83
434.66	11.70
434.85	56.17
435.03	44.47
435.22	65.54
435.41	21.06
435.59	56.17
435.78	98.30
435.97	44.47
436.16	23.41
436.34	77.24
436.53	72.56
436.72	28.09
436.90	63.19
437.09	74.90
437.28	9.36
437.46	21.06
437.65	28.09
437.84	35.11
438.02	51.49
438.21	49.15
438.40	9.36
438.58	49.15
438.77	0.00
438.96	42.13
439.14	131.07
439.33	16.38
439.52	46.81
439.70	21.06
439.89	42.13
440.08	0.00
440.26	23.41
440.45	100.64
440.63	79.58
440.82	79.58
441.01	81.92
441.19	39.79
441.38	194.26
441.57	84.26
441.75	102.98
441.94	117.03
442.12	18.72
442.31	128.73
442.50	95.96
442.68	60.85
442.87	23.41
443.05	39.79
443.24	53.83
443.43	86.60
443.61	60.85
443.80	4.68
443.98	56.17
444.17	49.15
444.35	67.88
444.54	77.24
444.73	72.56
444.91	4.68
445.10	46.81
445.28	53.83
445.47	70.22
445.65	60.85
445.84	100.64
446.02	51.49
446.21	84.26
446.39	63.19
446.58	42.13
446.77	56.17
446.95	42.13
447.14	30.43
447.32	60.85
447.51	70.22
447.69	63.19
447.88	77.24
448.06	32.77
448.25	37.45
448.43	98.30
448.62	49.15
448.80	63.19
448.99	70.22
449.17	37.45
449.36	0.00
449.54	58.51
449.73	79.58
449.91	67.88
450.10	23.41
450.28	0.00
450.46	67.88
450.65	114.69
450.83	0.00
451.02	51.49
451.20	93.62
451.39	32.77
451.57	30.43
451.76	63.19
451.94	46.81
452.13	23.41
452.31	30.43
452.49	131.07
452.68	86.60
452.86	14.04
453.05	56.17
453.23	72.56
453.42	65.54
453.60	112.35
453.78	133.41
453.97	44.47
454.15	77.24
454.34	79.58
454.52	0.00
454.70	161.50
454.89	93.62
455.07	72.56
455.26	46.81
455.44	65.54
455.62	74.90
455.81	44.47
455.99	133.41
456.17	95.96
456.36	100.64
456.54	44.47
456.73	81.92
456.91	32.77
457.09	81.92
457.28	138.09
457.46	84.26
457.64	53.83
457.83	72.56
458.01	51.49
458.19	56.17
458.38	25.75
458.56	128.73
458.74	100.64
458.93	140.43
459.11	2.34
459.29	49.15
459.48	91.28
459.66	86.60
459.84	35.11
460.03	93.62
460.21	114.69
460.39	79.58
460.57	21.06
460.76	0.00
460.94	79.58
461.12	74.90
461.31	0.00
461.49	16.38
461.67	74.90
461.85	102.98
462.04	32.77
462.22	107.66
462.40	58.51
462.59	126.39
462.77	79.58
462.95	86.60
463.13	21.06
463.32	100.64
463.50	65.54
463.68	60.85
463.86	0.00
464.05	49.15
464.23	16.38
464.41	95.96
464.59	18.72
464.78	49.15
464.96	23.41
465.14	25.75
465.32	0.00
465.50	79.58
465.69	77.24
465.87	0.00
466.05	70.22
466.23	128.73
466.41	67.88
466.60	63.19
466.78	102.98
466.96	110.01
467.14	0.00
467.32	0.00
467.51	51.49
467.69	100.64
467.87	175.54
468.05	81.92
468.23	91.28
468.41	23.41
468.60	0.00
468.78	56.17
468.96	147.45
469.14	0.00
469.32	32.77
469.50	49.15
469.69	133.41
469.87	53.83
470.05	79.58
470.23	65.54
470.41	0.00
470.59	30.43
470.77	86.60
470.95	102.98
471.14	86.60
471.32	77.24
471.50	53.83
471.68	72.56
471.86	91.28
472.04	49.15
472.22	65.54
472.40	77.24
472.58	7.02
472.77	63.19
472.95	112.35
473.13	100.64
473.31	65.54
473.49	46.81
473.67	84.26
473.85	4.68
474.03	77.24
474.21	46.81
474.39	58.51
474.57	79.58
474.75	86.60
474.93	70.22
475.12	9.36
475.30	44.47
475.48	56.17
475.66	110.01
475.84	32.77
476.02	88.94
476.20	39.79
476.38	28.09
476.56	88.94
476.74	86.60
476.92	37.45
477.10	142.77
477.28	14.04
477.46	60.85
477.64	91.28
477.82	77.24
478.00	53.83
478.18	46.81
478.36	72.56
478.54	23.41
478.72	28.09
478.90	11.70
479.08	98.30
479.26	91.28
479.44	98.30
479.62	110.01
479.80	39.79
479.98	46.81
480.16	58.51
480.34	37.45
480.52	74.90
480.70	88.94
480.88	46.81
481.06	63.19
481.24	102.98
481.41	77.24
481.59	138.09
481.77	65.54
481.95	107.66
482.13	149.79
482.31	58.51
482.49	88.94
482.67	4.68
482.85	63.19
483.03	102.98
483.21	30.43
483.39	63.19
483.57	49.15
483.74	91.28
483.92	81.92
484.10	25.75
484.28	0.00
484.46	79.58
484.64	107.66
484.82	100.64
485.00	84.26
485.18	53.83
485.35	53.83
485.53	32.77
485.71	100.64
485.89	70.22
486.07	110.01
486.25	30.43
486.43	79.58
486.61	102.98
486.78	81.92
486.96	135.75
487.14	70.22
487.32	30.43
487.50	23.41
487.68	117.03
487.85	107.66
488.03	105.32
488.21	67.88
488.39	128.73
488.57	112.35
488.75	44.47
488.92	117.03
489.10	58.51
489.28	112.35
489.46	117.03
489.64	102.98
489.81	138.09
489.99	105.32
490.17	114.69
490.35	128.73
490.53	72.56
490.70	60.85
490.88	11.70
491.06	74.90
491.24	88.94
491.41	145.11
491.59	58.51
491.77	100.64
491.95	77.24
492.13	166.18
492.30	121.71
492.48	124.05
492.66	18.72
492.84	119.37
493.01	98.30
493.19	70.22
493.37	110.01
493.54	107.66
493.72	58.51
493.90	58.51
494.08	65.54
494.25	72.56
494.43	58.51
494.61	25.75
494.79	79.58
494.96	100.64
495.14	156.82
495.32	152.13
495.49	138.09
495.67	79.58
495.85	135.75
496.02	154.48
496.20	93.62
496.38	98.30
496.55	114.69
496.73	37.45
496.91	42.13
497.09	60.85
497.26	100.64
497.44	95.96
497.62	39.79
497.79	91.28
497.97	60.85
498.14	140.43
498.32	102.98
498.50	100.64
498.67	187.24
498.85	86.60
499.03	21.06
499.20	107.66
499.38	93.62
499.56	212.99
499.73	166.18
499.91	154.48
500.08	161.50
500.26	77.24
500.44	126.39
500.61	135.75
500.79	91.28
500.97	74.90
501.14	117.03
501.32	77.24
501.49	84.26
501.67	128.73
501.84	187.24
502.02	161.50
502.20	21.06
502.37	128.73
502.55	117.03
502.72	119.37
502.90	77.24
503.07	107.66
503.25	107.66
503.43	77.24
503.60	60.85
503.78	110.01
503.95	88.94
504.13	107.66
504.30	177.88
504.48	95.96
504.65	84.26
504.83	65.54
505.01	79.58
505.18	56.17
505.36	107.66
505.53	184.90
505.71	154.48
505.88	159.16
506.06	140.43
506.23	112.35
506.41	114.69
506.58	79.58
506.76	98.30
506.93	102.98
507.11	100.64
507.28	77.24
507.46	21.06
507.63	51.49
507.81	84.26
507.98	95.96
508.16	100.64
508.33	110.01
508.50	126.39
508.68	74.90
508.85	88.94
509.03	121.71
509.20	100.64
509.38	21.06
509.55	77.24
509.73	205.97
509.90	163.84
510.08	102.98
510.25	58.51
510.42	88.94
510.60	30.43
510.77	86.60
510.95	114.69
511.12	124.05
511.30	117.03
511.47	56.17
511.64	124.05
511.82	112.35
511.99	105.32
512.17	63.19
512.34	88.94
512.51	77.24
512.69	149.79
512.86	93.62
513.04	81.92
513.21	105.32
513.38	37.45
513.56	121.71
513.73	131.07
513.90	81.92
514.08	112.35
514.25	128.73
514.43	154.48
514.60	107.66
514.77	74.90
514.95	142.77
515.12	46.81
515.29	142.77
515.47	163.84
515.64	93.62
515.81	58.51
515.99	154.48
516.16	159.16
516.33	53.83
516.51	91.28
516.68	100.64
516.85	93.62
517.03	117.03
517.20	135.75
517.37	35.11
517.54	65.54
517.72	95.96
517.89	79.58
518.06	112.35
518.24	105.32
518.41	149.79
518.58	107.66
518.75	117.03
518.93	128.73
519.10	74.90
519.27	79.58
519.45	70.22
519.62	107.66
519.79	180.22
519.96	35.11
520.14	91.28
520.31	32.77
520.48	84.26
520.65	30.43
520.83	117.03
521.00	119.37
521.17	149.79
521.34	121.71
521.52	70.22
521.69	88.94
521.86	147.45
522.03	126.39
522.20	91.28
522.38	84.26
522.55	91.28
522.72	79.58
522.89	74.90
523.07	138.09
523.24	37.45
523.41	119.37
523.58	156.82
523.75	154.48
523.92	135.75
524.10	110.01
524.27	107.66
524.44	170.86
524.61	42.13
524.78	72.56
524.96	133.41
525.13	105.32
525.30	95.96
525.47	156.82
525.64	114.69
525.81	49.15
525.98	138.09
526.16	30.43
526.33	147.45
526.50	135.75
526.67	121.71
526.84	147.45
527.01	81.92
527.18	163.84
527.36	133.41
527.53	100.64
527.70	142.77
527.87	102.98
528.04	88.94
528.21	0.00
528.38	72.56
528.55	81.92
528.72	102.98
528.89	67.88
529.07	117.03
529.24	98.30
529.41	147.45
529.58	142.77
529.75	81.92
529.92	110.01
530.09	156.82
530.26	126.39
530.43	16.38
530.60	114.69
530.77	112.35
530.94	65.54
531.11	35.11
531.28	105.32
531.46	121.71
531.63	88.94
531.80	102.98
531.97	140.43
532.14	133.41
532.31	91.28
532.48	173.20
532.65	42.13
532.82	135.75
532.99	149.79
533.16	86.60
533.33	72.56
533.50	140.43
533.67	128.73
533.84	67.88
534.01	105.32
534.18	147.45
534.35	81.92
534.52	30.43
534.69	107.66
534.86	121.71
535.03	102.98
535.20	107.66
535.37	65.54
535.54	114.69
535.71	128.73
535.88	145.11
536.05	135.75
536.22	95.96
536.38	88.94
536.55	53.83
536.72	133.41
536.89	95.96
537.06	105.32
537.23	93.62
537.40	79.58
537.57	152.13
537.74	67.88
537.91	135.75
538.08	124.05
538.25	74.90
538.42	201.29
538.59	133.41
538.75	140.43
538.92	117.03
539.09	110.01
539.26	67.88
539.43	133.41
539.60	135.75
539.77	110.01
539.94	105.32
540.11	145.11
540.28	131.07
540.44	128.73
540.61	93.62
540.78	86.60
540.95	88.94
541.12	81.92
541.29	67.88
541.46	138.09
541.62	72.56
541.79	126.39
541.96	65.54
542.13	102.98
542.30	88.94
542.47	131.07
542.63	128.73
542.80	119.37
542.97	121.71
543.14	2.34
543.31	121.71
543.48	142.77
543.64	133.41
543.81	91.28
543.98	114.69
544.15	81.92
544.32	86.60
544.48	44.47
544.65	126.39
544.82	74.90
544.99	37.45
545.16	126.39
545.32	86.60
545.49	131.07
545.66	67.88
545.83	117.03
546.00	147.45
546.16	98.30
546.33	107.66
546.50	138.09
546.67	51.49
546.83	74.90
547.00	53.83
547.17	102.98
547.34	227.03
547.50	95.96
547.67	74.90
547.84	72.56
548.00	107.66
548.17	112.35
548.34	77.24
548.51	72.56
548.67	121.71
548.84	152.13
549.01	91.28
549.18	133.41
549.34	124.05
549.51	77.24
549.68	100.64
549.84	121.71
550.01	58.51
550.18	2.34
550.34	154.48
550.51	117.03
550.68	110.01
550.84	110.01
551.01	138.09
551.18	140.43
551.34	102.98
551.51	147.45
551.68	156.82
551.84	88.94
552.01	81.92
552.18	84.26
552.34	65.54
552.51	107.66
552.68	147.45
552.84	74.90
553.01	100.64
553.18	70.22
553.34	126.39
553.51	23.41
553.67	60.85
553.84	121.71
554.01	100.64
554.17	4.68
554.34	142.77
554.51	128.73
554.67	149.79
554.84	159.16
555.00	107.66
555.17	124.05
555.33	100.64
555.50	88.94
555.67	88.94
555.83	112.35
556.00	163.84
556.16	124.05
556.33	88.94
556.50	142.77
556.66	70.22
556.83	93.62
556.99	65.54
557.16	93.62
557.32	32.77
557.49	107.66
557.65	112.35
557.82	201.29
557.98	100.64
558.15	107.66
558.32	156.82
558.48	154.48
558.65	65.54
558.81	86.60
558.98	117.03
559.14	121.71
559.31	91.28
559.47	110.01
559.64	100.64
559.80	84.26
559.97	100.64
560.13	25.75
560.30	84.26
560.46	84.26
560.63	67.88
560.79	49.15
560.96	119.37
561.12	142.77
561.29	79.58
561.45	121.71
561.61	98.30
561.78	93.62
561.94	79.58
562.11	91.28
562.27	117.03
562.44	110.01
562.60	114.69
562.77	114.69
562.93	110.01
563.10	107.66
563.26	98.30
563.42	131.07
563.59	112.35
563.75	88.94
563.92	110.01
564.08	110.01
564.24	100.64
564.41	135.75
564.57	126.39
564.74	126.39
564.90	152.13
565.07	63.19
565.23	72.56
565.39	86.60
565.56	58.51
565.72	53.83
565.88	72.56
566.05	107.66
566.21	95.96
566.38	65.54
566.54	56.17
566.70	156.82
566.87	102.98
567.03	46.81
567.19	93.62
567.36	86.60
567.52	46.81
567.68	110.01
567.85	67.88
568.01	93.62
568.17	102.98
568.34	133.41
568.50	93.62
568.66	56.17
568.83	14.04
568.99	53.83
569.15	28.09
569.32	86.60
569.48	161.50
569.64	117.03
569.81	93.62
569.97	124.05
570.13	152.13
570.30	63.19
570.46	138.09
570.62	124.05
570.78	95.96
570.95	86.60
571.11	112.35
571.27	126.39
571.43	51.49
571.60	173.20
571.76	67.88
571.92	37.45
572.09	98.30
572.25	128.73
572.41	58.51
572.57	126.39
572.74	107.66
572.90	114.69
573.06	60.85
573.22	189.58
573.38	74.90
573.55	70.22
573.71	100.64
573.87	63.19
574.03	79.58
574.20	42.13
574.36	119.37
574.52	67.88
574.68	72.56
574.84	2.34
575.01	44.47
575.17	100.64
575.33	32.77
575.49	102.98
575.65	119.37
575.82	58.51
575.98	30.43
576.14	95.96
576.30	168.52
576.46	121.71
576.62	88.94
576.79	107.66
576.95	117.03
577.11	72.56
577.27	133.41
577.43	46.81
577.59	86.60
577.75	46.81
577.92	53.83
578.08	65.54
578.24	51.49
578.40	84.26
578.56	145.11
578.72	39.79
578.88	51.49
579.04	21.06
579.21	131.07
579.37	117.03
579.53	72.56
579.69	114.69
579.85	138.09
580.01	159.16
580.17	88.94
580.33	88.94
580.49	126.39
580.65	91.28
580.82	114.69
580.98	79.58
581.14	32.77
581.30	88.94
581.46	100.64
581.62	28.09
581.78	51.49
581.94	114.69
582.10	91.28
582.26	149.79
582.42	84.26
582.58	93.62
582.74	37.45
582.90	67.88
583.06	107.66
583.22	114.69
583.38	147.45
583.54	56.17
583.70	93.62
583.86	32.77
584.02	30.43
584.18	72.56
584.34	126.39
584.50	184.90
584.66	110.01
584.82	145.11
584.98	84.26
585.14	114.69
585.30	140.43
585.46	154.48
585.62	100.64
585.78	119.37
585.94	142.77
586.10	140.43
586.26	25.75
586.42	152.13
586.58	117.03
586.74	102.98
586.90	88.94
587.06	81.92
587.22	65.54
587.38	140.43
587.54	42.13
587.70	154.48
587.86	131.07
588.02	51.49
588.18	161.50
588.34	16.38
588.49	114.69
588.65	37.45
588.81	84.26
588.97	124.05
589.13	95.96
589.29	74.90
589.45	119.37
589.61	86.60
589.77	105.32
589.93	32.77
590.08	63.19
590.24	70.22
590.40	65.54
590.56	84.26
590.72	0.00
590.88	11.70
591.04	51.49
591.20	35.11
591.35	58.51
591.51	117.03
591.67	88.94
591.83	124.05
591.99	117.03
592.15	112.35
592.31	93.62
592.46	102.98
592.62	63.19
592.78	74.90
592.94	112.35
593.10	140.43
593.26	60.85
593.41	100.64
593.57	98.30
593.73	67.88
593.89	149.79
594.05	46.81
594.20	112.35
594.36	114.69
594.52	93.62
594.68	23.41
594.84	84.26
594.99	72.56
595.15	46.81
595.31	70.22
595.47	2.34
595.62	77.24
595.78	56.17
595.94	23.41
596.10	46.81
596.25	56.17
596.41	65.54
596.57	21.06
596.73	51.49
596.88	142.77
597.04	93.62
597.20	51.49
597.36	98.30
597.51	46.81
597.67	23.41
597.83	72.56
597.99	91.28
598.14	128.73
598.30	44.47
598.46	79.58
598.61	95.96
598.77	91.28
598.93	70.22
599.09	46.81
599.24	84.26
599.40	126.39
599.56	44.47
599.71	95.96
599.87	0.00
600.03	117.03
600.18	105.32
600.34	114.69
600.50	88.94
600.65	42.13
600.81	110.01
600.97	81.92
601.12	56.17
601.28	112.35
601.44	121.71
601.59	32.77
601.75	44.47
601.91	117.03
602.06	95.96
602.22	53.83
602.37	65.54
602.53	110.01
602.69	114.69
602.84	72.56
603.00	32.77
603.16	79.58
603.31	56.17
603.47	88.94
603.62	67.88
603.78	107.66
603.94	145.11
604.09	56.17
604.25	56.17
604.40	124.05
604.56	93.62
604.71	32.77
604.87	112.35
605.03	105.32
605.18	67.88
605.34	84.26
605.49	77.24
605.65	100.64
605.80	112.35
605.96	84.26
606.12	65.54
606.27	39.79
606.43	51.49
606.58	100.64
606.74	81.92
606.89	124.05
607.05	102.98
607.20	67.88
607.36	93.62
607.51	102.98
607.67	65.54
607.82	102.98
607.98	131.07
608.13	131.07
608.29	46.81
608.44	98.30
608.60	133.41
608.75	112.35
608.91	72.56
609.06	42.13
609.22	35.11
609.37	107.66
609.53	138.09
609.68	25.75
609.84	65.54
609.99	67.88
610.15	46.81
610.30	86.60
610.46	93.62
610.61	114.69
610.76	23.41
610.92	100.64
611.07	107.66
611.23	49.15
611.38	53.83
611.54	37.45
611.69	138.09
611.84	102.98
612.00	18.72
612.15	79.58
612.31	102.98
612.46	51.49
612.62	70.22
612.77	81.92
612.92	102.98
613.08	25.75
613.23	74.90
613.39	51.49
613.54	56.17
613.69	37.45
613.85	63.19
614.00	39.79
614.15	32.77
614.31	95.96
614.46	67.88
614.62	105.32
614.77	114.69
614.92	107.66
615.08	95.96
615.23	4.68
615.38	102.98
615.54	72.56
615.69	91.28
615.84	98.30
616.00	126.39
616.15	114.69
616.30	56.17
616.46	67.88
616.61	42.13
616.76	56.17
616.92	95.96
617.07	102.98
617.22	44.47
617.37	126.39
617.53	65.54
617.68	23.41
617.83	110.01
617.99	23.41
618.14	112.35
618.29	65.54
618.45	140.43
618.60	56.17
618.75	9.36
618.90	72.56
619.06	79.58
619.21	98.30
619.36	140.43
619.51	138.09
619.67	105.32
619.82	60.85
619.97	46.81
620.12	53.83
620.28	91.28
620.43	70.22
620.58	65.54
620.73	91.28
620.89	70.22
621.04	58.51
621.19	56.17
621.34	63.19
621.49	58.51
621.65	37.45
621.80	102.98
621.95	65.54
622.10	117.03
622.25	168.52
622.41	49.15
622.56	95.96
622.71	63.19
622.86	81.92
623.01	81.92
623.16	51.49
623.32	110.01
623.47	110.01
623.62	88.94
623.77	95.96
623.92	112.35
624.07	105.32
624.23	77.24
624.38	39.79
624.53	65.54
624.68	117.03
624.83	67.88
624.98	60.85
625.13	140.43
625.29	18.72
625.44	53.83
625.59	53.83
625.74	25.75
625.89	53.83
626.04	56.17
626.19	25.75
626.34	95.96
626.49	86.60
626.65	74.90
626.80	79.58
626.95	105.32
627.10	79.58
627.25	72.56
627.40	30.43
627.55	72.56
627.70	79.58
627.85	46.81
628.00	37.45
628.15	72.56
628.30	56.17
628.45	135.75
628.60	0.00
628.76	67.88
628.91	25.75
629.06	93.62
629.21	112.35
629.36	0.00
629.51	28.09
629.66	56.17
629.81	11.70
629.96	149.79
630.11	74.90
630.26	32.77
630.41	39.79
630.56	88.94
630.71	110.01
630.86	37.45
631.01	65.54
631.16	58.51
631.31	39.79
631.46	58.51
631.61	58.51
631.76	79.58
631.91	77.24
632.06	30.43
632.21	42.13
632.36	16.38
632.51	21.06
632.66	77.24
632.81	74.90
632.96	39.79
633.10	86.60
633.25	93.62
633.40	65.54
633.55	51.49
633.70	44.47
633.85	77.24
634.00	11.70
634.15	72.56
634.30	86.60
634.45	39.79
634.60	58.51
634.75	44.47
634.90	138.09
635.05	65.54
635.19	42.13
635.34	131.07
635.49	60.85
635.64	56.17
635.79	46.81
635.94	25.75
636.09	39.79
636.24	67.88
636.39	88.94
636.53	74.90
636.68	58.51
636.83	65.54
636.98	18.72
637.13	86.60
637.28	91.28
637.43	102.98
637.57	9.36
637.72	98.30
637.87	84.26
638.02	72.56
638.17	58.51
638.32	95.96
638.46	16.38
638.61	4.68
638.76	51.49
638.91	56.17
639.06	81.92
639.20	77.24
639.35	42.13
639.50	0.00
639.65	53.83
639.80	86.60
639.94	39.79
640.09	21.06
640.24	95.96
640.39	23.41
640.54	84.26
640.68	2.34
640.83	65.54
640.98	70.22
641.13	74.90
641.27	79.58
641.42	95.96
641.57	86.60
641.72	72.56
641.86	14.04
642.01	37.45
642.16	30.43
642.31	65.54
642.45	60.85
642.60	46.81
642.75	0.00
642.90	56.17
643.04	49.15
643.19	56.17
643.34	77.24
643.48	77.24
643.63	180.22
643.78	98.30
643.93	98.30
644.07	14.04
644.22	67.88
644.37	88.94
644.51	25.75
644.66	95.96
644.81	79.58
644.95	58.51
645.10	79.58
645.25	11.70
645.39	32.77
645.54	11.70
645.69	18.72
645.83	37.45
645.98	0.00
646.13	51.49
646.27	0.00
646.42	81.92
646.57	88.94
646.71	70.22
646.86	44.47
647.00	74.90
647.15	102.98
647.30	28.09
647.44	35.11
647.59	95.96
647.74	25.75
647.88	95.96
648.03	18.72
648.17	39.79
648.32	79.58
648.47	39.79
648.61	79.58
648.76	65.54
648.90	51.49
649.05	67.88
649.20	56.17
649.34	39.79
649.49	133.41
649.63	93.62
649.78	42.13
649.92	79.58
650.07	72.56
650.21	93.62
650.36	100.64
650.51	58.51
650.65	84.26
650.80	53.83
650.94	35.11
651.09	42.13
651.23	77.24
651.38	60.85
651.52	93.62
651.67	102.98
651.81	53.83
651.96	56.17
652.10	42.13
652.25	77.24
652.39	28.09
652.54	32.77
652.68	105.32
652.83	42.13
652.97	0.00
653.12	18.72
653.26	0.00
653.41	28.09
653.55	117.03
653.70	93.62
653.84	147.45
653.99	18.72
654.13	67.88
654.27	28.09
654.42	0.00
654.56	67.88
654.71	14.04
654.85	35.11
655.00	18.72
655.14	79.58
655.29	72.56
655.43	91.28
655.57	49.15
655.72	58.51
655.86	23.41
656.01	46.81
656.15	32.77
656.30	81.92
656.44	133.41
656.58	44.47
656.73	39.79
656.87	0.00
657.01	0.00
657.16	72.56
657.30	70.22
657.45	42.13
657.59	39.79
657.73	37.45
657.88	53.83
658.02	2.34
658.16	21.06
658.31	42.13
658.45	135.75
658.60	72.56
658.74	93.62
658.88	72.56
659.03	65.54
659.17	67.88
659.31	9.36
659.46	70.22
659.60	86.60
659.74	63.19
659.89	124.05
660.03	42.13
660.17	37.45
660.32	58.51
660.46	131.07
660.60	32.77
660.74	49.15
660.89	65.54
661.03	67.88
661.17	44.47
661.32	112.35
661.46	7.02
661.60	23.41
661.74	189.58
661.89	58.51
662.03	14.04
662.17	25.75
662.31	102.98
662.46	35.11
662.60	110.01
662.74	42.13
662.88	37.45
663.03	32.77
663.17	0.00
663.31	14.04
663.45	51.49
663.60	46.81
663.74	67.88
663.88	9.36
664.02	84.26
664.17	84.26
664.31	53.83
664.45	25.75
664.59	49.15
664.73	81.92
664.88	110.01
665.02	70.22
665.16	74.90
665.30	56.17
665.44	128.73
665.59	49.15
665.73	49.15
665.87	65.54
666.01	0.00
666.15	56.17
666.29	0.00
666.44	23.41
666.58	51.49
666.72	58.51
666.86	114.69
667.00	98.30
667.14	0.00
667.28	56.17
667.43	46.81
667.57	32.77
667.71	2.34
667.85	44.47
667.99	42.13
668.13	0.00
668.27	98.30
668.41	117.03
668.56	95.96
668.70	21.06
668.84	110.01
668.98	0.00
669.12	0.00
669.26	23.41
669.40	98.30
669.54	114.69
669.68	77.24
669.82	39.79
669.96	51.49
670.10	67.88
670.25	77.24
670.39	37.45
670.53	72.56
670.67	30.43
670.81	56.17
670.95	4.68
671.09	58.51
671.23	46.81
671.37	65.54
671.51	58.51
671.65	112.35
671.79	42.13
671.93	21.06
672.07	72.56
672.21	81.92
672.35	46.81
672.49	53.83
672.63	32.77
672.77	117.03
672.91	93.62
673.05	37.45
673.19	63.19
673.33	84.26
673.47	70.22
673.61	53.83
673.75	77.24
673.89	49.15
674.03	81.92
674.17	30.43
674.31	49.15
674.45	35.11
674.59	0.00
674.73	14.04
674.87	51.49
675.01	9.36
675.15	46.81
675.29	77.24
675.43	84.26
675.56	39.79
675.70	53.83
675.84	49.15
675.98	79.58
676.12	11.70
676.26	28.09
676.40	88.94
676.54	60.85
676.68	32.77
676.82	63.19
676.96	131.07
677.10	79.58
677.23	58.51
677.37	74.90
677.51	117.03
677.65	70.22
677.79	53.83
677.93	102.98
678.07	49.15
678.21	37.45
678.34	9.36
678.48	18.72
678.62	77.24
678.76	93.62
678.90	4.68
679.04	37.45
679.18	95.96
679.31	91.28
679.45	53.83
679.59	14.04
679.73	21.06
679.87	25.75
680.00	98.30
680.14	11.70
680.28	74.90
680.42	32.77
680.56	77.24
680.70	56.17
680.83	39.79
680.97	0.00
681.11	16.38
681.25	49.15
681.39	121.71
681.52	9.36
681.66	72.56
681.80	46.81
681.94	11.70
682.07	23.41
682.21	121.71
682.35	95.96
682.49	0.00
682.62	39.79
682.76	91.28
682.90	4.68
683.04	32.77
683.17	67.88
683.31	49.15
683.45	51.49
683.59	81.92
683.72	49.15
683.86	0.00
684.00	2.34
684.13	44.47
684.27	16.38
684.41	49.15
684.55	98.30
684.68	0.00
684.82	18.72
684.96	11.70
685.09	46.81
685.23	72.56
685.37	9.36
685.50	67.88
685.64	51.49
685.78	28.09
685.91	95.96
686.05	98.30
686.19	88.94
686.32	35.11
686.46	63.19
686.60	98.30
686.73	88.94
686.87	11.70
687.01	21.06
687.14	23.41
687.28	37.45
687.42	0.00
687.55	86.60
687.69	72.56
687.82	9.36
687.96	58.51
688.10	67.88
688.23	39.79
688.37	23.41
688.50	58.51
688.64	49.15
688.78	14.04
688.91	0.00
689.05	0.00
689.18	44.47
689.32	63.19
689.46	95.96
689.59	44.47
689.73	117.03
689.86	86.60
690.00	51.49
690.13	100.64
690.27	42.13
690.41	25.75
690.54	16.38
690.68	16.38
690.81	70.22
690.95	23.41
691.08	0.00
691.22	72.56
691.35	32.77
691.49	91.28
691.62	0.00
691.76	81.92
691.89	72.56
692.03	60.85
692.16	0.00
692.30	9.36
692.43	0.00
692.57	0.00
692.70	42.13
692.84	65.54
692.97	86.60
693.11	53.83
693.24	25.75
693.38	60.85
693.51	18.72
693.65	0.00
693.78	25.75
693.92	37.45
694.05	42.13
694.19	25.75
694.32	35.11
694.45	53.83
694.59	93.62
694.72	84.26
694.86	58.51
694.99	30.43
695.13	35.11
695.26	60.85
695.39	72.56
695.53	112.35
695.66	63.19
695.80	126.39
695.93	91.28
696.07	0.00
696.20	4.68
696.33	39.79
696.47	14.04
696.60	46.81
696.73	74.90
696.87	70.22
697.00	53.83
697.14	0.00
697.27	74.90
697.40	95.96
697.54	56.17
697.67	14.04
697.80	53.83
697.94	53.83
698.07	77.24
698.21	79.58
698.34	44.47
698.47	21.06
698.61	56.17
698.74	58.51
698.87	46.81
699.01	23.41
699.14	58.51
699.27	32.77
699.40	18.72
699.54	58.51
699.67	98.30
699.80	0.00
699.94	2.34
700.07	46.81
700.20	53.83
700.34	65.54
700.47	67.88
700.60	18.72
700.73	51.49
700.87	0.00
701.00	63.19
701.13	0.00
701.26	74.90
701.40	37.45
701.53	39.79
701.66	14.04
701.79	4.68
701.93	0.00
702.06	53.83
702.19	67.88
702.32	60.85
702.46	37.45
702.59	11.70
702.72	0.00
702.85	16.38
702.99	79.58
703.12	11.70
703.25	0.00
703.38	100.64
703.51	56.17
703.65	7.02
703.78	2.34
703.91	60.85
704.04	46.81
704.17	93.62
704.31	25.75
704.44	107.66
704.57	74.90
704.70	49.15
704.83	2.34
704.96	53.83
705.10	91.28
705.23	21.06
>>>>>End Processed Spectral Data<<<<<
