SpectraSuite Data File
++++++++++++++++++++++++++++++++++++
Date: Fri Oct 04 12:13:32 GMT-05:00 2013
User: price-jones
Dark Spectrum Present: No
Reference Spectrum Present: No
Number of Sampled Component Spectra: 1
Spectrometers: USB2+H05261
Integration Time (usec): 10000 (USB2+H05261)
Spectra Averaged: 1 (USB2+H05261)
Boxcar Smoothing: 0 (USB2+H05261)
Correct for Electrical Dark: No (USB2+H05261)
Strobe/Lamp Enabled: No (USB2+H05261)
Correct for Detector Non-linearity: No (USB2+H05261)
Correct for Stray Light: No (USB2+H05261)
Number of Pixels in Processed Spectrum: 2048
>>>>>Begin Processed Spectral Data<<<<<
365.73	37.45
365.92	37.45
366.12	37.45
366.32	0.00
366.52	0.00
366.72	0.00
366.91	0.00
367.11	0.00
367.31	0.00
367.51	0.00
367.70	0.00
367.90	0.00
368.10	0.00
368.30	0.00
368.49	0.00
368.69	0.00
368.89	0.00
369.09	0.00
369.28	0.00
369.48	0.00
369.68	0.00
369.87	0.00
370.07	0.00
370.27	0.00
370.47	0.00
370.66	0.00
370.86	0.00
371.06	0.00
371.25	2.34
371.45	9.36
371.65	0.00
371.84	0.00
372.04	28.09
372.24	0.00
372.44	7.02
372.63	9.36
372.83	14.04
373.03	11.70
373.22	0.00
373.42	25.75
373.62	11.70
373.81	32.77
374.01	35.11
374.21	9.36
374.40	32.77
374.60	16.38
374.79	28.09
374.99	23.41
375.19	46.81
375.38	0.00
375.58	102.98
375.78	0.00
375.97	39.79
376.17	4.68
376.37	32.77
376.56	0.00
376.76	2.34
376.95	0.00
377.15	0.00
377.35	60.85
377.54	51.49
377.74	21.06
377.93	126.39
378.13	56.17
378.33	0.00
378.52	30.43
378.72	53.83
378.91	42.13
379.11	37.45
379.31	0.00
379.50	0.00
379.70	0.00
379.89	21.06
380.09	0.00
380.28	0.00
380.48	25.75
380.68	14.04
380.87	25.75
381.07	51.49
381.26	0.00
381.46	0.00
381.65	58.51
381.85	0.00
382.04	56.17
382.24	42.13
382.43	30.43
382.63	0.00
382.83	0.00
383.02	81.92
383.22	37.45
383.41	4.68
383.61	0.00
383.80	0.00
384.00	0.00
384.19	21.06
384.39	25.75
384.58	37.45
384.78	23.41
384.97	18.72
385.17	46.81
385.36	11.70
385.56	0.00
385.75	0.00
385.95	86.60
386.14	0.00
386.34	35.11
386.53	37.45
386.72	0.00
386.92	30.43
387.11	49.15
387.31	23.41
387.50	0.00
387.70	18.72
387.89	0.00
388.09	11.70
388.28	0.00
388.48	0.00
388.67	67.88
388.86	0.00
389.06	16.38
389.25	0.00
389.45	21.06
389.64	72.56
389.84	60.85
390.03	9.36
390.22	39.79
390.42	39.79
390.61	49.15
390.81	23.41
391.00	0.00
391.19	14.04
391.39	30.43
391.58	51.49
391.78	4.68
391.97	37.45
392.16	14.04
392.36	46.81
392.55	0.00
392.75	39.79
392.94	53.83
393.13	56.17
393.33	0.00
393.52	0.00
393.71	46.81
393.91	0.00
394.10	4.68
394.29	0.00
394.49	0.00
394.68	9.36
394.88	0.00
395.07	0.00
395.26	0.00
395.46	0.00
395.65	0.00
395.84	2.34
396.04	0.00
396.23	0.00
396.42	0.00
396.62	23.41
396.81	0.00
397.00	0.00
397.19	23.41
397.39	35.11
397.58	63.19
397.77	28.09
397.97	21.06
398.16	0.00
398.35	0.00
398.55	46.81
398.74	0.00
398.93	14.04
399.12	0.00
399.32	18.72
399.51	51.49
399.70	32.77
399.90	32.77
400.09	18.72
400.28	9.36
400.47	37.45
400.67	119.37
400.86	18.72
401.05	42.13
401.24	53.83
401.44	84.26
401.63	51.49
401.82	0.00
402.01	79.58
402.21	0.00
402.40	0.00
402.59	9.36
402.78	77.24
402.97	32.77
403.17	0.00
403.36	44.47
403.55	35.11
403.74	88.94
403.93	0.00
404.13	21.06
404.32	0.00
404.51	0.00
404.70	25.75
404.89	0.00
405.09	44.47
405.28	0.00
405.47	0.00
405.66	9.36
405.85	0.00
406.05	30.43
406.24	53.83
406.43	44.47
406.62	84.26
406.81	0.00
407.00	0.00
407.20	28.09
407.39	30.43
407.58	49.15
407.77	117.03
407.96	93.62
408.15	39.79
408.34	0.00
408.54	0.00
408.73	11.70
408.92	35.11
409.11	70.22
409.30	63.19
409.49	49.15
409.68	0.00
409.87	46.81
410.07	32.77
410.26	0.00
410.45	0.00
410.64	51.49
410.83	0.00
411.02	98.30
411.21	28.09
411.40	44.47
411.59	7.02
411.78	0.00
411.98	7.02
412.17	74.90
412.36	0.00
412.55	2.34
412.74	51.49
412.93	30.43
413.12	49.15
413.31	65.54
413.50	91.28
413.69	2.34
413.88	0.00
414.07	44.47
414.26	0.00
414.45	77.24
414.64	0.00
414.83	7.02
415.02	0.00
415.22	32.77
415.41	16.38
415.60	37.45
415.79	23.41
415.98	102.98
416.17	46.81
416.36	14.04
416.55	70.22
416.74	0.00
416.93	79.58
417.12	0.00
417.31	25.75
417.50	0.00
417.69	60.85
417.88	21.06
418.07	23.41
418.26	0.00
418.45	67.88
418.64	37.45
418.83	28.09
419.02	30.43
419.21	46.81
419.39	72.56
419.58	0.00
419.77	23.41
419.96	53.83
420.15	60.85
420.34	37.45
420.53	0.00
420.72	0.00
420.91	30.43
421.10	0.00
421.29	0.00
421.48	105.32
421.67	93.62
421.86	58.51
422.05	0.00
422.24	0.00
422.43	2.34
422.61	4.68
422.80	37.45
422.99	30.43
423.18	70.22
423.37	42.13
423.56	18.72
423.75	0.00
423.94	0.00
424.13	30.43
424.32	4.68
424.50	91.28
424.69	7.02
424.88	67.88
425.07	63.19
425.26	0.00
425.45	32.77
425.64	79.58
425.83	35.11
426.01	147.45
426.20	46.81
426.39	0.00
426.58	49.15
426.77	25.75
426.96	23.41
427.15	53.83
427.33	37.45
427.52	67.88
427.71	37.45
427.90	9.36
428.09	0.00
428.28	81.92
428.46	28.09
428.65	37.45
428.84	35.11
429.03	56.17
429.22	53.83
429.40	70.22
429.59	95.96
429.78	4.68
429.97	23.41
430.16	72.56
430.34	4.68
430.53	2.34
430.72	60.85
430.91	21.06
431.10	46.81
431.28	0.00
431.47	30.43
431.66	0.00
431.85	72.56
432.03	0.00
432.22	0.00
432.41	25.75
432.60	14.04
432.79	67.88
432.97	30.43
433.16	56.17
433.35	21.06
433.54	63.19
433.72	0.00
433.91	51.49
434.10	11.70
434.28	39.79
434.47	67.88
434.66	46.81
434.85	28.09
435.03	28.09
435.22	0.00
435.41	70.22
435.59	67.88
435.78	18.72
435.97	0.00
436.16	21.06
436.34	37.45
436.53	88.94
436.72	0.00
436.90	2.34
437.09	58.51
437.28	53.83
437.46	0.00
437.65	110.01
437.84	35.11
438.02	0.00
438.21	0.00
438.40	4.68
438.58	77.24
438.77	0.00
438.96	37.45
439.14	11.70
439.33	53.83
439.52	138.09
439.70	4.68
439.89	56.17
440.08	46.81
440.26	9.36
440.45	0.00
440.63	30.43
440.82	11.70
441.01	0.00
441.19	53.83
441.38	0.00
441.57	58.51
441.75	25.75
441.94	128.73
442.12	0.00
442.31	16.38
442.50	37.45
442.68	79.58
442.87	53.83
443.05	53.83
443.24	2.34
443.43	11.70
443.61	112.35
443.80	114.69
443.98	14.04
444.17	37.45
444.35	46.81
444.54	0.00
444.73	56.17
444.91	60.85
445.10	32.77
445.28	35.11
445.47	7.02
445.65	0.00
445.84	42.13
446.02	53.83
446.21	46.81
446.39	7.02
446.58	23.41
446.77	37.45
446.95	49.15
447.14	0.00
447.32	81.92
447.51	7.02
447.69	49.15
447.88	0.00
448.06	58.51
448.25	9.36
448.43	32.77
448.62	18.72
448.80	0.00
448.99	16.38
449.17	7.02
449.36	86.60
449.54	0.00
449.73	72.56
449.91	77.24
450.10	39.79
450.28	84.26
450.46	46.81
450.65	23.41
450.83	42.13
451.02	149.79
451.20	0.00
451.39	0.00
451.57	21.06
451.76	16.38
451.94	0.00
452.13	35.11
452.31	2.34
452.49	39.79
452.68	60.85
452.86	23.41
453.05	0.00
453.23	9.36
453.42	14.04
453.60	37.45
453.78	0.00
453.97	0.00
454.15	79.58
454.34	0.00
454.52	18.72
454.70	0.00
454.89	21.06
455.07	9.36
455.26	0.00
455.44	0.00
455.62	44.47
455.81	72.56
455.99	18.72
456.17	2.34
456.36	23.41
456.54	56.17
456.73	7.02
456.91	79.58
457.09	28.09
457.28	0.00
457.46	0.00
457.64	25.75
457.83	0.00
458.01	81.92
458.19	65.54
458.38	63.19
458.56	16.38
458.74	30.43
458.93	35.11
459.11	0.00
459.29	44.47
459.48	67.88
459.66	23.41
459.84	0.00
460.03	42.13
460.21	37.45
460.39	46.81
460.57	16.38
460.76	18.72
460.94	74.90
461.12	98.30
461.31	32.77
461.49	4.68
461.67	21.06
461.85	77.24
462.04	14.04
462.22	58.51
462.40	44.47
462.59	4.68
462.77	86.60
462.95	44.47
463.13	11.70
463.32	65.54
463.50	51.49
463.68	49.15
463.86	0.00
464.05	0.00
464.23	110.01
464.41	95.96
464.59	4.68
464.78	0.00
464.96	0.00
465.14	32.77
465.32	98.30
465.50	35.11
465.69	46.81
465.87	93.62
466.05	18.72
466.23	9.36
466.41	56.17
466.60	88.94
466.78	28.09
466.96	72.56
467.14	0.00
467.32	0.00
467.51	14.04
467.69	86.60
467.87	21.06
468.05	46.81
468.23	70.22
468.41	0.00
468.60	0.00
468.78	14.04
468.96	25.75
469.14	51.49
469.32	25.75
469.50	60.85
469.69	93.62
469.87	28.09
470.05	0.00
470.23	0.00
470.41	9.36
470.59	0.00
470.77	11.70
470.95	35.11
471.14	0.00
471.32	4.68
471.50	14.04
471.68	0.00
471.86	11.70
472.04	7.02
472.22	25.75
472.40	56.17
472.58	4.68
472.77	0.00
472.95	86.60
473.13	70.22
473.31	84.26
473.49	49.15
473.67	39.79
473.85	63.19
474.03	63.19
474.21	86.60
474.39	0.00
474.57	0.00
474.75	0.00
474.93	56.17
475.12	77.24
475.30	91.28
475.48	0.00
475.66	32.77
475.84	0.00
476.02	0.00
476.20	9.36
476.38	37.45
476.56	18.72
476.74	88.94
476.92	107.66
477.10	2.34
477.28	30.43
477.46	53.83
477.64	0.00
477.82	16.38
478.00	60.85
478.18	0.00
478.36	133.41
478.54	16.38
478.72	0.00
478.90	9.36
479.08	0.00
479.26	35.11
479.44	0.00
479.62	16.38
479.80	35.11
479.98	46.81
480.16	18.72
480.34	46.81
480.52	0.00
480.70	58.51
480.88	56.17
481.06	63.19
481.24	67.88
481.41	11.70
481.59	93.62
481.77	35.11
481.95	49.15
482.13	70.22
482.31	100.64
482.49	70.22
482.67	16.38
482.85	86.60
483.03	79.58
483.21	56.17
483.39	0.00
483.57	60.85
483.74	46.81
483.92	18.72
484.10	28.09
484.28	18.72
484.46	7.02
484.64	11.70
484.82	11.70
485.00	30.43
485.18	46.81
485.35	14.04
485.53	21.06
485.71	112.35
485.89	44.47
486.07	0.00
486.25	58.51
486.43	60.85
486.61	0.00
486.78	0.00
486.96	0.00
487.14	65.54
487.32	72.56
487.50	35.11
487.68	0.00
487.85	0.00
488.03	84.26
488.21	18.72
488.39	56.17
488.57	28.09
488.75	23.41
488.92	23.41
489.10	46.81
489.28	58.51
489.46	0.00
489.64	133.41
489.81	39.79
489.99	70.22
490.17	63.19
490.35	98.30
490.53	49.15
490.70	95.96
490.88	53.83
491.06	14.04
491.24	44.47
491.41	0.00
491.59	65.54
491.77	7.02
491.95	74.90
492.13	77.24
492.30	0.00
492.48	56.17
492.66	46.81
492.84	53.83
493.01	46.81
493.19	23.41
493.37	44.47
493.54	30.43
493.72	0.00
493.90	42.13
494.08	60.85
494.25	42.13
494.43	0.00
494.61	63.19
494.79	51.49
494.96	84.26
495.14	60.85
495.32	42.13
495.49	86.60
495.67	70.22
495.85	30.43
496.02	70.22
496.20	51.49
496.38	91.28
496.55	56.17
496.73	0.00
496.91	28.09
497.09	0.00
497.26	18.72
497.44	18.72
497.62	0.00
497.79	51.49
497.97	28.09
498.14	28.09
498.32	100.64
498.50	51.49
498.67	32.77
498.85	53.83
499.03	67.88
499.20	0.00
499.38	0.00
499.56	37.45
499.73	119.37
499.91	28.09
500.08	58.51
500.26	51.49
500.44	7.02
500.61	39.79
500.79	95.96
500.97	93.62
501.14	0.00
501.32	42.13
501.49	93.62
501.67	63.19
501.84	21.06
502.02	46.81
502.20	72.56
502.37	30.43
502.55	0.00
502.72	51.49
502.90	42.13
503.07	37.45
503.25	65.54
503.43	9.36
503.60	0.00
503.78	42.13
503.95	84.26
504.13	58.51
504.30	77.24
504.48	32.77
504.65	0.00
504.83	49.15
505.01	28.09
505.18	42.13
505.36	42.13
505.53	0.00
505.71	81.92
505.88	0.00
506.06	133.41
506.23	91.28
506.41	72.56
506.58	0.00
506.76	58.51
506.93	51.49
507.11	23.41
507.28	98.30
507.46	91.28
507.63	110.01
507.81	56.17
507.98	0.00
508.16	74.90
508.33	0.00
508.50	23.41
508.68	42.13
508.85	70.22
509.03	25.75
509.20	67.88
509.38	56.17
509.55	28.09
509.73	65.54
509.90	51.49
510.08	30.43
510.25	70.22
510.42	166.18
510.60	70.22
510.77	39.79
510.95	16.38
511.12	81.92
511.30	28.09
511.47	42.13
511.64	131.07
511.82	105.32
511.99	79.58
512.17	23.41
512.34	121.71
512.51	23.41
512.69	0.00
512.86	70.22
513.04	11.70
513.21	0.00
513.38	32.77
513.56	11.70
513.73	49.15
513.90	35.11
514.08	124.05
514.25	28.09
514.43	67.88
514.60	30.43
514.77	16.38
514.95	53.83
515.12	0.00
515.29	25.75
515.47	46.81
515.64	46.81
515.81	81.92
515.99	0.00
516.16	81.92
516.33	77.24
516.51	74.90
516.68	86.60
516.85	37.45
517.03	25.75
517.20	4.68
517.37	51.49
517.54	51.49
517.72	35.11
517.89	74.90
518.06	0.00
518.24	58.51
518.41	30.43
518.58	39.79
518.75	49.15
518.93	56.17
519.10	98.30
519.27	35.11
519.45	56.17
519.62	74.90
519.79	25.75
519.96	32.77
520.14	0.00
520.31	91.28
520.48	2.34
520.65	39.79
520.83	0.00
521.00	95.96
521.17	14.04
521.34	53.83
521.52	0.00
521.69	18.72
521.86	9.36
522.03	35.11
522.20	42.13
522.38	0.00
522.55	65.54
522.72	0.00
522.89	21.06
523.07	81.92
523.24	79.58
523.41	0.00
523.58	25.75
523.75	70.22
523.92	79.58
524.10	53.83
524.27	25.75
524.44	70.22
524.61	35.11
524.78	0.00
524.96	32.77
525.13	77.24
525.30	0.00
525.47	28.09
525.64	86.60
525.81	77.24
525.98	0.00
526.16	72.56
526.33	25.75
526.50	44.47
526.67	37.45
526.84	46.81
527.01	39.79
527.18	37.45
527.36	70.22
527.53	2.34
527.70	86.60
527.87	49.15
528.04	30.43
528.21	9.36
528.38	84.26
528.55	88.94
528.72	81.92
528.89	67.88
529.07	42.13
529.24	110.01
529.41	65.54
529.58	84.26
529.75	58.51
529.92	77.24
530.09	0.00
530.26	18.72
530.43	0.00
530.60	51.49
530.77	39.79
530.94	37.45
531.11	77.24
531.28	81.92
531.46	105.32
531.63	51.49
531.80	74.90
531.97	42.13
532.14	32.77
532.31	0.00
532.48	58.51
532.65	60.85
532.82	93.62
532.99	28.09
533.16	49.15
533.33	18.72
533.50	11.70
533.67	18.72
533.84	0.00
534.01	119.37
534.18	46.81
534.35	0.00
534.52	60.85
534.69	63.19
534.86	77.24
535.03	107.66
535.20	79.58
535.37	39.79
535.54	88.94
535.71	51.49
535.88	91.28
536.05	9.36
536.22	53.83
536.38	65.54
536.55	0.00
536.72	49.15
536.89	16.38
537.06	44.47
537.23	28.09
537.40	0.00
537.57	2.34
537.74	46.81
537.91	60.85
538.08	0.00
538.25	9.36
538.42	63.19
538.59	58.51
538.75	56.17
538.92	37.45
539.09	58.51
539.26	9.36
539.43	58.51
539.60	93.62
539.77	28.09
539.94	60.85
540.11	2.34
540.28	84.26
540.44	16.38
540.61	51.49
540.78	56.17
540.95	0.00
541.12	77.24
541.29	56.17
541.46	23.41
541.62	0.00
541.79	44.47
541.96	14.04
542.13	9.36
542.30	72.56
542.47	0.00
542.63	0.00
542.80	86.60
542.97	42.13
543.14	67.88
543.31	46.81
543.48	23.41
543.64	98.30
543.81	105.32
543.98	46.81
544.15	56.17
544.32	86.60
544.48	0.00
544.65	21.06
544.82	14.04
544.99	16.38
545.16	0.00
545.32	9.36
545.49	0.00
545.66	95.96
545.83	0.00
546.00	7.02
546.16	63.19
546.33	63.19
546.50	32.77
546.67	63.19
546.83	21.06
547.00	0.00
547.17	30.43
547.34	72.56
547.50	4.68
547.67	28.09
547.84	39.79
548.00	63.19
548.17	149.79
548.34	72.56
548.51	46.81
548.67	0.00
548.84	35.11
549.01	14.04
549.18	28.09
549.34	105.32
549.51	18.72
549.68	44.47
549.84	44.47
550.01	44.47
550.18	21.06
550.34	74.90
550.51	42.13
550.68	44.47
550.84	14.04
551.01	81.92
551.18	9.36
551.34	32.77
551.51	9.36
551.68	0.00
551.84	51.49
552.01	42.13
552.18	74.90
552.34	0.00
552.51	32.77
552.68	65.54
552.84	39.79
553.01	60.85
553.18	46.81
553.34	0.00
553.51	16.38
553.67	53.83
553.84	0.00
554.01	0.00
554.17	0.00
554.34	0.00
554.51	0.00
554.67	46.81
554.84	53.83
555.00	18.72
555.17	30.43
555.33	79.58
555.50	81.92
555.67	18.72
555.83	91.28
556.00	2.34
556.16	35.11
556.33	39.79
556.50	35.11
556.66	37.45
556.83	95.96
556.99	81.92
557.16	25.75
557.32	32.77
557.49	84.26
557.65	74.90
557.82	91.28
557.98	0.00
558.15	35.11
558.32	138.09
558.48	14.04
558.65	32.77
558.81	51.49
558.98	91.28
559.14	65.54
559.31	28.09
559.47	56.17
559.64	65.54
559.80	9.36
559.97	65.54
560.13	67.88
560.30	18.72
560.46	23.41
560.63	23.41
560.79	100.64
560.96	79.58
561.12	39.79
561.29	67.88
561.45	53.83
561.61	46.81
561.78	39.79
561.94	70.22
562.11	37.45
562.27	70.22
562.44	0.00
562.60	14.04
562.77	0.00
562.93	0.00
563.10	23.41
563.26	63.19
563.42	25.75
563.59	25.75
563.75	30.43
563.92	86.60
564.08	72.56
564.24	0.00
564.41	100.64
564.57	28.09
564.74	30.43
564.90	60.85
565.07	18.72
565.23	60.85
565.39	9.36
565.56	0.00
565.72	0.00
565.88	23.41
566.05	86.60
566.21	23.41
566.38	37.45
566.54	7.02
566.70	42.13
566.87	81.92
567.03	86.60
567.19	51.49
567.36	44.47
567.52	23.41
567.68	18.72
567.85	53.83
568.01	72.56
568.17	35.11
568.34	16.38
568.50	0.00
568.66	28.09
568.83	67.88
568.99	70.22
569.15	58.51
569.32	49.15
569.48	11.70
569.64	0.00
569.81	25.75
569.97	0.00
570.13	51.49
570.30	23.41
570.46	53.83
570.62	14.04
570.78	25.75
570.95	0.00
571.11	21.06
571.27	37.45
571.43	32.77
571.60	46.81
571.76	23.41
571.92	44.47
572.09	74.90
572.25	39.79
572.41	16.38
572.57	21.06
572.74	28.09
572.90	46.81
573.06	49.15
573.22	100.64
573.38	49.15
573.55	112.35
573.71	42.13
573.87	25.75
574.03	63.19
574.20	32.77
574.36	7.02
574.52	28.09
574.68	0.00
574.84	4.68
575.01	100.64
575.17	74.90
575.33	30.43
575.49	79.58
575.65	0.00
575.82	30.43
575.98	9.36
576.14	37.45
576.30	65.54
576.46	9.36
576.62	25.75
576.79	49.15
576.95	28.09
577.11	18.72
577.27	39.79
577.43	35.11
577.59	70.22
577.75	37.45
577.92	81.92
578.08	70.22
578.24	11.70
578.40	39.79
578.56	49.15
578.72	21.06
578.88	0.00
579.04	16.38
579.21	16.38
579.37	51.49
579.53	70.22
579.69	49.15
579.85	35.11
580.01	25.75
580.17	95.96
580.33	84.26
580.49	0.00
580.65	56.17
580.82	18.72
580.98	49.15
581.14	9.36
581.30	98.30
581.46	0.00
581.62	49.15
581.78	28.09
581.94	37.45
582.10	21.06
582.26	37.45
582.42	0.00
582.58	16.38
582.74	46.81
582.90	9.36
583.06	0.00
583.22	0.00
583.38	49.15
583.54	0.00
583.70	9.36
583.86	23.41
584.02	0.00
584.18	65.54
584.34	2.34
584.50	46.81
584.66	7.02
584.82	4.68
584.98	37.45
585.14	28.09
585.30	23.41
585.46	42.13
585.62	100.64
585.78	7.02
585.94	0.00
586.10	21.06
586.26	77.24
586.42	0.00
586.58	131.07
586.74	4.68
586.90	0.00
587.06	44.47
587.22	0.00
587.38	105.32
587.54	100.64
587.70	35.11
587.86	0.00
588.02	42.13
588.18	0.00
588.34	46.81
588.49	67.88
588.65	42.13
588.81	14.04
588.97	46.81
589.13	77.24
589.29	60.85
589.45	35.11
589.61	7.02
589.77	79.58
589.93	60.85
590.08	88.94
590.24	16.38
590.40	51.49
590.56	67.88
590.72	91.28
590.88	21.06
591.04	37.45
591.20	0.00
591.35	0.00
591.51	0.00
591.67	58.51
591.83	0.00
591.99	81.92
592.15	9.36
592.31	11.70
592.46	79.58
592.62	11.70
592.78	49.15
592.94	18.72
593.10	21.06
593.26	35.11
593.41	44.47
593.57	65.54
593.73	16.38
593.89	11.70
594.05	23.41
594.20	0.00
594.36	72.56
594.52	16.38
594.68	14.04
594.84	11.70
594.99	4.68
595.15	28.09
595.31	63.19
595.47	0.00
595.62	25.75
595.78	23.41
595.94	9.36
596.10	30.43
596.25	37.45
596.41	39.79
596.57	28.09
596.73	14.04
596.88	37.45
597.04	91.28
597.20	28.09
597.36	0.00
597.51	30.43
597.67	28.09
597.83	0.00
597.99	100.64
598.14	2.34
598.30	79.58
598.46	51.49
598.61	44.47
598.77	16.38
598.93	18.72
599.09	51.49
599.24	0.00
599.40	0.00
599.56	46.81
599.71	37.45
599.87	39.79
600.03	0.00
600.18	35.11
600.34	0.00
600.50	98.30
600.65	18.72
600.81	35.11
600.97	0.00
601.12	0.00
601.28	56.17
601.44	25.75
601.59	25.75
601.75	9.36
601.91	49.15
602.06	93.62
602.22	35.11
602.37	32.77
602.53	0.00
602.69	25.75
602.84	9.36
603.00	42.13
603.16	9.36
603.31	23.41
603.47	32.77
603.62	39.79
603.78	86.60
603.94	77.24
604.09	42.13
604.25	81.92
604.40	93.62
604.56	42.13
604.71	25.75
604.87	0.00
605.03	51.49
605.18	37.45
605.34	49.15
605.49	49.15
605.65	117.03
605.80	11.70
605.96	81.92
606.12	46.81
606.27	51.49
606.43	0.00
606.58	77.24
606.74	77.24
606.89	84.26
607.05	4.68
607.20	0.00
607.36	2.34
607.51	102.98
607.67	98.30
607.82	18.72
607.98	16.38
608.13	60.85
608.29	0.00
608.44	51.49
608.60	67.88
608.75	2.34
608.91	9.36
609.06	39.79
609.22	28.09
609.37	9.36
609.53	9.36
609.68	0.00
609.84	81.92
609.99	74.90
610.15	105.32
610.30	11.70
610.46	79.58
610.61	0.00
610.76	0.00
610.92	53.83
611.07	25.75
611.23	0.00
611.38	0.00
611.54	74.90
611.69	0.00
611.84	39.79
612.00	35.11
612.15	72.56
612.31	18.72
612.46	32.77
612.62	46.81
612.77	74.90
612.92	65.54
613.08	16.38
613.23	35.11
613.39	0.00
613.54	2.34
613.69	51.49
613.85	35.11
614.00	0.00
614.15	79.58
614.31	0.00
614.46	107.66
614.62	91.28
614.77	70.22
614.92	51.49
615.08	14.04
615.23	58.51
615.38	4.68
615.54	32.77
615.69	0.00
615.84	30.43
616.00	39.79
616.15	0.00
616.30	28.09
616.46	105.32
616.61	28.09
616.76	23.41
616.92	25.75
617.07	16.38
617.22	16.38
617.37	56.17
617.53	21.06
617.68	35.11
617.83	30.43
617.99	56.17
618.14	9.36
618.29	21.06
618.45	14.04
618.60	23.41
618.75	11.70
618.90	84.26
619.06	21.06
619.21	0.00
619.36	42.13
619.51	42.13
619.67	9.36
619.82	84.26
619.97	21.06
620.12	42.13
620.28	2.34
620.43	63.19
620.58	0.00
620.73	42.13
620.89	56.17
621.04	42.13
621.19	98.30
621.34	23.41
621.49	67.88
621.65	18.72
621.80	74.90
621.95	88.94
622.10	65.54
622.25	0.00
622.41	0.00
622.56	0.00
622.71	2.34
622.86	53.83
623.01	35.11
623.16	0.00
623.32	46.81
623.47	86.60
623.62	0.00
623.77	42.13
623.92	63.19
624.07	51.49
624.23	110.01
624.38	67.88
624.53	30.43
624.68	100.64
624.83	0.00
624.98	35.11
625.13	16.38
625.29	53.83
625.44	67.88
625.59	51.49
625.74	84.26
625.89	39.79
626.04	51.49
626.19	49.15
626.34	39.79
626.49	28.09
626.65	88.94
626.80	21.06
626.95	46.81
627.10	0.00
627.25	0.00
627.40	35.11
627.55	91.28
627.70	0.00
627.85	23.41
628.00	88.94
628.15	67.88
628.30	0.00
628.45	0.00
628.60	0.00
628.76	0.00
628.91	51.49
629.06	23.41
629.21	18.72
629.36	32.77
629.51	81.92
629.66	67.88
629.81	88.94
629.96	102.98
630.11	119.37
630.26	60.85
630.41	0.00
630.56	4.68
630.71	51.49
630.86	25.75
631.01	0.00
631.16	46.81
631.31	117.03
631.46	0.00
631.61	0.00
631.76	51.49
631.91	67.88
632.06	39.79
632.21	18.72
632.36	30.43
632.51	65.54
632.66	70.22
632.81	46.81
632.96	16.38
633.10	23.41
633.25	60.85
633.40	0.00
633.55	0.00
633.70	2.34
633.85	35.11
634.00	51.49
634.15	84.26
634.30	0.00
634.45	70.22
634.60	0.00
634.75	18.72
634.90	58.51
635.05	88.94
635.19	14.04
635.34	42.13
635.49	23.41
635.64	0.00
635.79	14.04
635.94	67.88
636.09	65.54
636.24	51.49
636.39	100.64
636.53	79.58
636.68	25.75
636.83	0.00
636.98	74.90
637.13	0.00
637.28	46.81
637.43	51.49
637.57	67.88
637.72	4.68
637.87	4.68
638.02	44.47
638.17	84.26
638.32	0.00
638.46	16.38
638.61	65.54
638.76	74.90
638.91	42.13
639.06	18.72
639.20	25.75
639.35	0.00
639.50	0.00
639.65	37.45
639.80	16.38
639.94	58.51
640.09	39.79
640.24	49.15
640.39	0.00
640.54	46.81
640.68	65.54
640.83	30.43
640.98	46.81
641.13	53.83
641.27	77.24
641.42	0.00
641.57	65.54
641.72	23.41
641.86	23.41
642.01	58.51
642.16	11.70
642.31	0.00
642.45	79.58
642.60	58.51
642.75	0.00
642.90	42.13
643.04	49.15
643.19	14.04
643.34	63.19
643.48	9.36
643.63	56.17
643.78	74.90
643.93	23.41
644.07	112.35
644.22	49.15
644.37	0.00
644.51	37.45
644.66	65.54
644.81	0.00
644.95	0.00
645.10	81.92
645.25	77.24
645.39	28.09
645.54	14.04
645.69	0.00
645.83	2.34
645.98	53.83
646.13	0.00
646.27	28.09
646.42	39.79
646.57	0.00
646.71	86.60
646.86	32.77
647.00	53.83
647.15	23.41
647.30	74.90
647.44	74.90
647.59	51.49
647.74	0.00
647.88	46.81
648.03	37.45
648.17	86.60
648.32	30.43
648.47	35.11
648.61	53.83
648.76	39.79
648.90	110.01
649.05	32.77
649.20	39.79
649.34	51.49
649.49	79.58
649.63	0.00
649.78	21.06
649.92	86.60
650.07	37.45
650.21	86.60
650.36	0.00
650.51	2.34
650.65	11.70
650.80	81.92
650.94	46.81
651.09	7.02
651.23	91.28
651.38	18.72
651.52	70.22
651.67	0.00
651.81	32.77
651.96	0.00
652.10	2.34
652.25	91.28
652.39	58.51
652.54	11.70
652.68	25.75
652.83	21.06
652.97	49.15
653.12	60.85
653.26	25.75
653.41	44.47
653.55	58.51
653.70	32.77
653.84	14.04
653.99	72.56
654.13	70.22
654.27	58.51
654.42	32.77
654.56	23.41
654.71	0.00
654.85	11.70
655.00	46.81
655.14	65.54
655.29	53.83
655.43	49.15
655.57	2.34
655.72	35.11
655.86	35.11
656.01	49.15
656.15	9.36
656.30	11.70
656.44	51.49
656.58	0.00
656.73	25.75
656.87	51.49
657.01	28.09
657.16	93.62
657.30	60.85
657.45	35.11
657.59	0.00
657.73	51.49
657.88	86.60
658.02	0.00
658.16	4.68
658.31	110.01
658.45	32.77
658.60	44.47
658.74	4.68
658.88	7.02
659.03	95.96
659.17	30.43
659.31	56.17
659.46	14.04
659.60	58.51
659.74	107.66
659.89	16.38
660.03	0.00
660.17	0.00
660.32	28.09
660.46	28.09
660.60	11.70
660.74	53.83
660.89	135.75
661.03	16.38
661.17	0.00
661.32	42.13
661.46	39.79
661.60	0.00
661.74	4.68
661.89	35.11
662.03	51.49
662.17	0.00
662.31	4.68
662.46	16.38
662.60	49.15
662.74	7.02
662.88	44.47
663.03	16.38
663.17	102.98
663.31	63.19
663.45	74.90
663.60	0.00
663.74	0.00
663.88	56.17
664.02	16.38
664.17	60.85
664.31	37.45
664.45	0.00
664.59	0.00
664.73	23.41
664.88	39.79
665.02	0.00
665.16	53.83
665.30	0.00
665.44	72.56
665.59	74.90
665.73	46.81
665.87	79.58
666.01	0.00
666.15	70.22
666.29	0.00
666.44	9.36
666.58	67.88
666.72	9.36
666.86	28.09
667.00	0.00
667.14	0.00
667.28	49.15
667.43	70.22
667.57	37.45
667.71	0.00
667.85	74.90
667.99	44.47
668.13	28.09
668.27	39.79
668.41	0.00
668.56	28.09
668.70	28.09
668.84	0.00
668.98	21.06
669.12	88.94
669.26	79.58
669.40	98.30
669.54	0.00
669.68	74.90
669.82	53.83
669.96	0.00
670.10	0.00
670.25	14.04
670.39	53.83
670.53	0.00
670.67	72.56
670.81	51.49
670.95	14.04
671.09	70.22
671.23	0.00
671.37	51.49
671.51	58.51
671.65	32.77
671.79	21.06
671.93	30.43
672.07	0.00
672.21	72.56
672.35	21.06
672.49	42.13
672.63	0.00
672.77	21.06
672.91	14.04
673.05	0.00
673.19	16.38
673.33	63.19
673.47	25.75
673.61	49.15
673.75	63.19
673.89	18.72
674.03	4.68
674.17	37.45
674.31	100.64
674.45	70.22
674.59	0.00
674.73	23.41
674.87	44.47
675.01	86.60
675.15	63.19
675.29	11.70
675.43	0.00
675.56	32.77
675.70	37.45
675.84	9.36
675.98	0.00
676.12	67.88
676.26	0.00
676.40	42.13
676.54	0.00
676.68	74.90
676.82	77.24
676.96	32.77
677.10	16.38
677.23	0.00
677.37	86.60
677.51	42.13
677.65	35.11
677.79	0.00
677.93	0.00
678.07	0.00
678.21	0.00
678.34	39.79
678.48	51.49
678.62	9.36
678.76	4.68
678.90	60.85
679.04	58.51
679.18	0.00
679.31	44.47
679.45	0.00
679.59	7.02
679.73	56.17
679.87	37.45
680.00	30.43
680.14	0.00
680.28	4.68
680.42	23.41
680.56	28.09
680.70	49.15
680.83	2.34
680.97	86.60
681.11	0.00
681.25	42.13
681.39	56.17
681.52	49.15
681.66	84.26
681.80	70.22
681.94	11.70
682.07	128.73
682.21	16.38
682.35	35.11
682.49	2.34
682.62	25.75
682.76	32.77
682.90	128.73
683.04	46.81
683.17	46.81
683.31	46.81
683.45	74.90
683.59	84.26
683.72	2.34
683.86	28.09
684.00	0.00
684.13	63.19
684.27	37.45
684.41	14.04
684.55	51.49
684.68	21.06
684.82	25.75
684.96	32.77
685.09	0.00
685.23	0.00
685.37	25.75
685.50	0.00
685.64	65.54
685.78	0.00
685.91	0.00
686.05	7.02
686.19	0.00
686.32	56.17
686.46	18.72
686.60	51.49
686.73	0.00
686.87	35.11
687.01	16.38
687.14	2.34
687.28	7.02
687.42	0.00
687.55	11.70
687.69	0.00
687.82	39.79
687.96	28.09
688.10	16.38
688.23	37.45
688.37	32.77
688.50	86.60
688.64	0.00
688.78	21.06
688.91	9.36
689.05	14.04
689.18	0.00
689.32	7.02
689.46	100.64
689.59	28.09
689.73	11.70
689.86	56.17
690.00	74.90
690.13	0.00
690.27	39.79
690.41	58.51
690.54	86.60
690.68	16.38
690.81	72.56
690.95	74.90
691.08	49.15
691.22	4.68
691.35	77.24
691.49	0.00
691.62	0.00
691.76	9.36
691.89	114.69
692.03	79.58
692.16	79.58
692.30	65.54
692.43	16.38
692.57	65.54
692.70	67.88
692.84	105.32
692.97	51.49
693.11	35.11
693.24	0.00
693.38	0.00
693.51	86.60
693.65	28.09
693.78	25.75
693.92	11.70
694.05	42.13
694.19	0.00
694.32	0.00
694.45	63.19
694.59	98.30
694.72	42.13
694.86	49.15
694.99	44.47
695.13	46.81
695.26	39.79
695.39	91.28
695.53	35.11
695.66	49.15
695.80	7.02
695.93	39.79
696.07	32.77
696.20	25.75
696.33	0.00
696.47	4.68
696.60	2.34
696.73	11.70
696.87	0.00
697.00	63.19
697.14	93.62
697.27	21.06
697.40	102.98
697.54	51.49
697.67	72.56
697.80	0.00
697.94	93.62
698.07	30.43
698.21	0.00
698.34	21.06
698.47	0.00
698.61	11.70
698.74	4.68
698.87	0.00
699.01	9.36
699.14	72.56
699.27	16.38
699.40	16.38
699.54	32.77
699.67	2.34
699.80	0.00
699.94	23.41
700.07	4.68
700.20	23.41
700.34	0.00
700.47	0.00
700.60	72.56
700.73	0.00
700.87	9.36
701.00	30.43
701.13	37.45
701.26	0.00
701.40	0.00
701.53	60.85
701.66	0.00
701.79	0.00
701.93	86.60
702.06	28.09
702.19	0.00
702.32	21.06
702.46	65.54
702.59	14.04
702.72	0.00
702.85	9.36
702.99	0.00
703.12	14.04
703.25	56.17
703.38	42.13
703.51	0.00
703.65	14.04
703.78	32.77
703.91	23.41
704.04	30.43
704.17	32.77
704.31	37.45
704.44	74.90
704.57	21.06
704.70	65.54
704.83	21.06
704.96	0.00
705.10	70.22
705.23	51.49
>>>>>End Processed Spectral Data<<<<<
