SpectraSuite Data File
++++++++++++++++++++++++++++++++++++
Date: Fri Oct 04 12:13:31 GMT-05:00 2013
User: price-jones
Dark Spectrum Present: No
Reference Spectrum Present: No
Number of Sampled Component Spectra: 1
Spectrometers: USB2+H05261
Integration Time (usec): 10000 (USB2+H05261)
Spectra Averaged: 1 (USB2+H05261)
Boxcar Smoothing: 0 (USB2+H05261)
Correct for Electrical Dark: No (USB2+H05261)
Strobe/Lamp Enabled: No (USB2+H05261)
Correct for Detector Non-linearity: No (USB2+H05261)
Correct for Stray Light: No (USB2+H05261)
Number of Pixels in Processed Spectrum: 2048
>>>>>Begin Processed Spectral Data<<<<<
365.73	16.38
365.92	16.38
366.12	16.38
366.32	0.00
366.52	0.00
366.72	0.00
366.91	0.00
367.11	0.00
367.31	0.00
367.51	0.00
367.70	0.00
367.90	0.00
368.10	0.00
368.30	0.00
368.49	0.00
368.69	0.00
368.89	0.00
369.09	0.00
369.28	0.00
369.48	0.00
369.68	0.00
369.87	0.00
370.07	0.00
370.27	0.00
370.47	0.00
370.66	0.00
370.86	0.00
371.06	0.00
371.25	0.00
371.45	7.02
371.65	0.00
371.84	0.00
372.04	0.00
372.24	16.38
372.44	21.06
372.63	30.43
372.83	0.00
373.03	11.70
373.22	49.15
373.42	39.79
373.62	39.79
373.81	0.00
374.01	9.36
374.21	131.07
374.40	0.00
374.60	0.00
374.79	0.00
374.99	11.70
375.19	28.09
375.38	4.68
375.58	93.62
375.78	53.83
375.97	42.13
376.17	39.79
376.37	0.00
376.56	25.75
376.76	77.24
376.95	39.79
377.15	37.45
377.35	30.43
377.54	58.51
377.74	39.79
377.93	0.00
378.13	0.00
378.33	11.70
378.52	0.00
378.72	51.49
378.91	0.00
379.11	2.34
379.31	67.88
379.50	21.06
379.70	14.04
379.89	0.00
380.09	21.06
380.28	16.38
380.48	42.13
380.68	0.00
380.87	18.72
381.07	63.19
381.26	0.00
381.46	21.06
381.65	46.81
381.85	0.00
382.04	60.85
382.24	23.41
382.43	60.85
382.63	49.15
382.83	30.43
383.02	0.00
383.22	30.43
383.41	0.00
383.61	28.09
383.80	0.00
384.00	35.11
384.19	0.00
384.39	46.81
384.58	0.00
384.78	0.00
384.97	37.45
385.17	25.75
385.36	0.00
385.56	42.13
385.75	11.70
385.95	35.11
386.14	0.00
386.34	0.00
386.53	0.00
386.72	18.72
386.92	0.00
387.11	7.02
387.31	0.00
387.50	37.45
387.70	77.24
387.89	28.09
388.09	0.00
388.28	0.00
388.48	0.00
388.67	0.00
388.86	88.94
389.06	35.11
389.25	28.09
389.45	30.43
389.64	110.01
389.84	0.00
390.03	0.00
390.22	49.15
390.42	0.00
390.61	0.00
390.81	0.00
391.00	46.81
391.19	0.00
391.39	30.43
391.58	37.45
391.78	32.77
391.97	44.47
392.16	0.00
392.36	0.00
392.55	32.77
392.75	91.28
392.94	25.75
393.13	0.00
393.33	79.58
393.52	23.41
393.71	25.75
393.91	42.13
394.10	0.00
394.29	30.43
394.49	63.19
394.68	58.51
394.88	112.35
395.07	91.28
395.26	44.47
395.46	0.00
395.65	44.47
395.84	65.54
396.04	0.00
396.23	88.94
396.42	0.00
396.62	0.00
396.81	0.00
397.00	11.70
397.19	0.00
397.39	21.06
397.58	35.11
397.77	0.00
397.97	42.13
398.16	74.90
398.35	30.43
398.55	28.09
398.74	49.15
398.93	35.11
399.12	0.00
399.32	28.09
399.51	74.90
399.70	32.77
399.90	21.06
400.09	32.77
400.28	23.41
400.47	35.11
400.67	14.04
400.86	0.00
401.05	0.00
401.24	0.00
401.44	30.43
401.63	32.77
401.82	56.17
402.01	14.04
402.21	9.36
402.40	79.58
402.59	77.24
402.78	70.22
402.97	79.58
403.17	79.58
403.36	0.00
403.55	70.22
403.74	28.09
403.93	0.00
404.13	4.68
404.32	28.09
404.51	0.00
404.70	14.04
404.89	49.15
405.09	39.79
405.28	11.70
405.47	0.00
405.66	23.41
405.85	23.41
406.05	25.75
406.24	18.72
406.43	0.00
406.62	51.49
406.81	39.79
407.00	35.11
407.20	9.36
407.39	53.83
407.58	0.00
407.77	18.72
407.96	0.00
408.15	30.43
408.34	23.41
408.54	56.17
408.73	60.85
408.92	46.81
409.11	28.09
409.30	58.51
409.49	44.47
409.68	60.85
409.87	32.77
410.07	28.09
410.26	63.19
410.45	23.41
410.64	18.72
410.83	0.00
411.02	28.09
411.21	23.41
411.40	0.00
411.59	0.00
411.78	74.90
411.98	100.64
412.17	42.13
412.36	51.49
412.55	67.88
412.74	0.00
412.93	112.35
413.12	42.13
413.31	0.00
413.50	0.00
413.69	70.22
413.88	0.00
414.07	32.77
414.26	30.43
414.45	79.58
414.64	0.00
414.83	0.00
415.02	74.90
415.22	98.30
415.41	84.26
415.60	77.24
415.79	42.13
415.98	53.83
416.17	14.04
416.36	51.49
416.55	0.00
416.74	42.13
416.93	42.13
417.12	0.00
417.31	0.00
417.50	56.17
417.69	21.06
417.88	49.15
418.07	86.60
418.26	79.58
418.45	16.38
418.64	0.00
418.83	23.41
419.02	0.00
419.21	23.41
419.39	102.98
419.58	23.41
419.77	46.81
419.96	0.00
420.15	112.35
420.34	30.43
420.53	0.00
420.72	0.00
420.91	79.58
421.10	32.77
421.29	30.43
421.48	32.77
421.67	18.72
421.86	44.47
422.05	14.04
422.24	21.06
422.43	23.41
422.61	14.04
422.80	0.00
422.99	28.09
423.18	0.00
423.37	74.90
423.56	46.81
423.75	28.09
423.94	14.04
424.13	65.54
424.32	79.58
424.50	46.81
424.69	0.00
424.88	25.75
425.07	110.01
425.26	25.75
425.45	39.79
425.64	91.28
425.83	0.00
426.01	0.00
426.20	58.51
426.39	51.49
426.58	7.02
426.77	35.11
426.96	0.00
427.15	0.00
427.33	0.00
427.52	4.68
427.71	74.90
427.90	67.88
428.09	30.43
428.28	0.00
428.46	79.58
428.65	65.54
428.84	67.88
429.03	65.54
429.22	2.34
429.40	35.11
429.59	70.22
429.78	2.34
429.97	0.00
430.16	0.00
430.34	77.24
430.53	81.92
430.72	128.73
430.91	63.19
431.10	23.41
431.28	0.00
431.47	46.81
431.66	37.45
431.85	53.83
432.03	72.56
432.22	42.13
432.41	9.36
432.60	46.81
432.79	32.77
432.97	53.83
433.16	131.07
433.35	46.81
433.54	0.00
433.72	42.13
433.91	0.00
434.10	11.70
434.28	0.00
434.47	98.30
434.66	63.19
434.85	14.04
435.03	21.06
435.22	95.96
435.41	11.70
435.59	0.00
435.78	0.00
435.97	11.70
436.16	37.45
436.34	16.38
436.53	2.34
436.72	58.51
436.90	51.49
437.09	74.90
437.28	25.75
437.46	0.00
437.65	14.04
437.84	63.19
438.02	39.79
438.21	0.00
438.40	35.11
438.58	0.00
438.77	98.30
438.96	110.01
439.14	0.00
439.33	81.92
439.52	35.11
439.70	4.68
439.89	56.17
440.08	0.00
440.26	0.00
440.45	0.00
440.63	14.04
440.82	46.81
441.01	32.77
441.19	37.45
441.38	16.38
441.57	42.13
441.75	7.02
441.94	30.43
442.12	28.09
442.31	2.34
442.50	0.00
442.68	107.66
442.87	9.36
443.05	30.43
443.24	81.92
443.43	16.38
443.61	0.00
443.80	58.51
443.98	14.04
444.17	74.90
444.35	0.00
444.54	77.24
444.73	37.45
444.91	2.34
445.10	0.00
445.28	44.47
445.47	14.04
445.65	81.92
445.84	53.83
446.02	0.00
446.21	11.70
446.39	0.00
446.58	18.72
446.77	0.00
446.95	14.04
447.14	58.51
447.32	11.70
447.51	4.68
447.69	4.68
447.88	32.77
448.06	58.51
448.25	28.09
448.43	63.19
448.62	60.85
448.80	0.00
448.99	42.13
449.17	30.43
449.36	51.49
449.54	28.09
449.73	49.15
449.91	44.47
450.10	9.36
450.28	56.17
450.46	112.35
450.65	16.38
450.83	0.00
451.02	16.38
451.20	49.15
451.39	23.41
451.57	42.13
451.76	25.75
451.94	0.00
452.13	0.00
452.31	0.00
452.49	9.36
452.68	28.09
452.86	91.28
453.05	35.11
453.23	42.13
453.42	0.00
453.60	88.94
453.78	44.47
453.97	16.38
454.15	95.96
454.34	60.85
454.52	39.79
454.70	0.00
454.89	11.70
455.07	93.62
455.26	0.00
455.44	23.41
455.62	23.41
455.81	32.77
455.99	2.34
456.17	4.68
456.36	79.58
456.54	23.41
456.73	42.13
456.91	0.00
457.09	42.13
457.28	9.36
457.46	86.60
457.64	93.62
457.83	18.72
458.01	0.00
458.19	60.85
458.38	81.92
458.56	0.00
458.74	0.00
458.93	0.00
459.11	0.00
459.29	0.00
459.48	121.71
459.66	30.43
459.84	93.62
460.03	9.36
460.21	0.00
460.39	30.43
460.57	32.77
460.76	16.38
460.94	11.70
461.12	37.45
461.31	60.85
461.49	42.13
461.67	25.75
461.85	0.00
462.04	18.72
462.22	74.90
462.40	107.66
462.59	28.09
462.77	23.41
462.95	35.11
463.13	70.22
463.32	16.38
463.50	7.02
463.68	44.47
463.86	4.68
464.05	30.43
464.23	23.41
464.41	58.51
464.59	16.38
464.78	14.04
464.96	72.56
465.14	0.00
465.32	42.13
465.50	65.54
465.69	0.00
465.87	56.17
466.05	44.47
466.23	98.30
466.41	0.00
466.60	51.49
466.78	7.02
466.96	39.79
467.14	51.49
467.32	42.13
467.51	42.13
467.69	79.58
467.87	107.66
468.05	23.41
468.23	72.56
468.41	32.77
468.60	37.45
468.78	4.68
468.96	49.15
469.14	0.00
469.32	65.54
469.50	46.81
469.69	32.77
469.87	56.17
470.05	56.17
470.23	44.47
470.41	16.38
470.59	30.43
470.77	16.38
470.95	51.49
471.14	112.35
471.32	0.00
471.50	18.72
471.68	44.47
471.86	30.43
472.04	56.17
472.22	0.00
472.40	37.45
472.58	37.45
472.77	37.45
472.95	44.47
473.13	67.88
473.31	0.00
473.49	0.00
473.67	0.00
473.85	30.43
474.03	25.75
474.21	77.24
474.39	28.09
474.57	28.09
474.75	0.00
474.93	21.06
475.12	28.09
475.30	65.54
475.48	49.15
475.66	32.77
475.84	4.68
476.02	39.79
476.20	84.26
476.38	95.96
476.56	39.79
476.74	37.45
476.92	25.75
477.10	18.72
477.28	0.00
477.46	11.70
477.64	0.00
477.82	58.51
478.00	65.54
478.18	65.54
478.36	18.72
478.54	16.38
478.72	56.17
478.90	72.56
479.08	32.77
479.26	16.38
479.44	16.38
479.62	0.00
479.80	32.77
479.98	70.22
480.16	9.36
480.34	53.83
480.52	79.58
480.70	65.54
480.88	77.24
481.06	35.11
481.24	7.02
481.41	0.00
481.59	0.00
481.77	7.02
481.95	51.49
482.13	79.58
482.31	67.88
482.49	42.13
482.67	100.64
482.85	46.81
483.03	60.85
483.21	60.85
483.39	16.38
483.57	0.00
483.74	0.00
483.92	56.17
484.10	49.15
484.28	39.79
484.46	35.11
484.64	77.24
484.82	51.49
485.00	28.09
485.18	4.68
485.35	35.11
485.53	32.77
485.71	37.45
485.89	53.83
486.07	0.00
486.25	46.81
486.43	0.00
486.61	77.24
486.78	0.00
486.96	67.88
487.14	49.15
487.32	67.88
487.50	32.77
487.68	63.19
487.85	49.15
488.03	2.34
488.21	51.49
488.39	0.00
488.57	81.92
488.75	91.28
488.92	74.90
489.10	46.81
489.28	53.83
489.46	39.79
489.64	23.41
489.81	0.00
489.99	67.88
490.17	0.00
490.35	65.54
490.53	21.06
490.70	28.09
490.88	11.70
491.06	77.24
491.24	21.06
491.41	58.51
491.59	65.54
491.77	0.00
491.95	72.56
492.13	11.70
492.30	81.92
492.48	14.04
492.66	0.00
492.84	39.79
493.01	42.13
493.19	49.15
493.37	37.45
493.54	49.15
493.72	60.85
493.90	9.36
494.08	32.77
494.25	0.00
494.43	23.41
494.61	42.13
494.79	0.00
494.96	67.88
495.14	46.81
495.32	58.51
495.49	18.72
495.67	4.68
495.85	53.83
496.02	18.72
496.20	35.11
496.38	53.83
496.55	0.00
496.73	0.00
496.91	53.83
497.09	67.88
497.26	60.85
497.44	23.41
497.62	23.41
497.79	0.00
497.97	0.00
498.14	65.54
498.32	0.00
498.50	28.09
498.67	81.92
498.85	0.00
499.03	63.19
499.20	42.13
499.38	0.00
499.56	28.09
499.73	95.96
499.91	58.51
500.08	79.58
500.26	2.34
500.44	42.13
500.61	14.04
500.79	100.64
500.97	65.54
501.14	63.19
501.32	32.77
501.49	7.02
501.67	79.58
501.84	105.32
502.02	35.11
502.20	23.41
502.37	84.26
502.55	35.11
502.72	46.81
502.90	23.41
503.07	42.13
503.25	53.83
503.43	21.06
503.60	28.09
503.78	0.00
503.95	25.75
504.13	42.13
504.30	0.00
504.48	86.60
504.65	60.85
504.83	53.83
505.01	23.41
505.18	0.00
505.36	70.22
505.53	21.06
505.71	18.72
505.88	44.47
506.06	42.13
506.23	58.51
506.41	0.00
506.58	0.00
506.76	53.83
506.93	0.00
507.11	110.01
507.28	39.79
507.46	37.45
507.63	53.83
507.81	74.90
507.98	30.43
508.16	0.00
508.33	65.54
508.50	42.13
508.68	49.15
508.85	56.17
509.03	128.73
509.20	9.36
509.38	0.00
509.55	67.88
509.73	11.70
509.90	21.06
510.08	35.11
510.25	58.51
510.42	53.83
510.60	0.00
510.77	58.51
510.95	11.70
511.12	39.79
511.30	9.36
511.47	0.00
511.64	7.02
511.82	11.70
511.99	30.43
512.17	91.28
512.34	39.79
512.51	79.58
512.69	58.51
512.86	9.36
513.04	60.85
513.21	93.62
513.38	42.13
513.56	28.09
513.73	23.41
513.90	60.85
514.08	74.90
514.25	23.41
514.43	0.00
514.60	28.09
514.77	53.83
514.95	49.15
515.12	2.34
515.29	65.54
515.47	91.28
515.64	72.56
515.81	70.22
515.99	37.45
516.16	56.17
516.33	21.06
516.51	63.19
516.68	42.13
516.85	2.34
517.03	46.81
517.20	65.54
517.37	65.54
517.54	23.41
517.72	0.00
517.89	25.75
518.06	100.64
518.24	100.64
518.41	32.77
518.58	35.11
518.75	0.00
518.93	0.00
519.10	72.56
519.27	23.41
519.45	0.00
519.62	79.58
519.79	32.77
519.96	51.49
520.14	53.83
520.31	84.26
520.48	131.07
520.65	0.00
520.83	46.81
521.00	128.73
521.17	18.72
521.34	21.06
521.52	11.70
521.69	58.51
521.86	18.72
522.03	128.73
522.20	72.56
522.38	23.41
522.55	70.22
522.72	0.00
522.89	63.19
523.07	9.36
523.24	72.56
523.41	74.90
523.58	51.49
523.75	35.11
523.92	60.85
524.10	44.47
524.27	32.77
524.44	65.54
524.61	25.75
524.78	0.00
524.96	67.88
525.13	14.04
525.30	0.00
525.47	0.00
525.64	21.06
525.81	39.79
525.98	56.17
526.16	37.45
526.33	51.49
526.50	70.22
526.67	112.35
526.84	37.45
527.01	74.90
527.18	56.17
527.36	7.02
527.53	98.30
527.70	23.41
527.87	74.90
528.04	79.58
528.21	46.81
528.38	28.09
528.55	60.85
528.72	86.60
528.89	84.26
529.07	0.00
529.24	28.09
529.41	42.13
529.58	173.20
529.75	46.81
529.92	112.35
530.09	0.00
530.26	30.43
530.43	28.09
530.60	51.49
530.77	60.85
530.94	86.60
531.11	42.13
531.28	0.00
531.46	42.13
531.63	0.00
531.80	11.70
531.97	142.77
532.14	32.77
532.31	70.22
532.48	67.88
532.65	67.88
532.82	63.19
532.99	131.07
533.16	107.66
533.33	56.17
533.50	0.00
533.67	44.47
533.84	86.60
534.01	46.81
534.18	93.62
534.35	0.00
534.52	0.00
534.69	23.41
534.86	121.71
535.03	44.47
535.20	0.00
535.37	0.00
535.54	0.00
535.71	93.62
535.88	72.56
536.05	77.24
536.22	51.49
536.38	86.60
536.55	58.51
536.72	60.85
536.89	72.56
537.06	39.79
537.23	16.38
537.40	44.47
537.57	7.02
537.74	0.00
537.91	23.41
538.08	65.54
538.25	14.04
538.42	32.77
538.59	18.72
538.75	77.24
538.92	70.22
539.09	51.49
539.26	51.49
539.43	102.98
539.60	133.41
539.77	203.63
539.94	234.05
540.11	180.22
540.28	0.00
540.44	60.85
540.61	46.81
540.78	37.45
540.95	9.36
541.12	100.64
541.29	70.22
541.46	49.15
541.62	4.68
541.79	63.19
541.96	44.47
542.13	81.92
542.30	60.85
542.47	30.43
542.63	74.90
542.80	0.00
542.97	35.11
543.14	56.17
543.31	39.79
543.48	35.11
543.64	39.79
543.81	88.94
543.98	53.83
544.15	30.43
544.32	39.79
544.48	91.28
544.65	67.88
544.82	4.68
544.99	65.54
545.16	65.54
545.32	32.77
545.49	4.68
545.66	51.49
545.83	60.85
546.00	32.77
546.16	35.11
546.33	70.22
546.50	77.24
546.67	23.41
546.83	49.15
547.00	32.77
547.17	23.41
547.34	35.11
547.50	25.75
547.67	0.00
547.84	121.71
548.00	25.75
548.17	9.36
548.34	117.03
548.51	9.36
548.67	56.17
548.84	58.51
549.01	81.92
549.18	53.83
549.34	4.68
549.51	131.07
549.68	102.98
549.84	81.92
550.01	60.85
550.18	42.13
550.34	98.30
550.51	74.90
550.68	0.00
550.84	37.45
551.01	110.01
551.18	95.96
551.34	0.00
551.51	14.04
551.68	86.60
551.84	46.81
552.01	49.15
552.18	0.00
552.34	42.13
552.51	0.00
552.68	74.90
552.84	77.24
553.01	11.70
553.18	25.75
553.34	114.69
553.51	9.36
553.67	0.00
553.84	51.49
554.01	28.09
554.17	9.36
554.34	14.04
554.51	133.41
554.67	28.09
554.84	30.43
555.00	25.75
555.17	140.43
555.33	42.13
555.50	53.83
555.67	49.15
555.83	0.00
556.00	74.90
556.16	81.92
556.33	0.00
556.50	16.38
556.66	37.45
556.83	63.19
556.99	72.56
557.16	0.00
557.32	2.34
557.49	74.90
557.65	49.15
557.82	67.88
557.98	14.04
558.15	42.13
558.32	63.19
558.48	166.18
558.65	105.32
558.81	44.47
558.98	72.56
559.14	7.02
559.31	37.45
559.47	0.00
559.64	0.00
559.80	70.22
559.97	70.22
560.13	46.81
560.30	37.45
560.46	0.00
560.63	56.17
560.79	16.38
560.96	37.45
561.12	44.47
561.29	0.00
561.45	28.09
561.61	0.00
561.78	63.19
561.94	42.13
562.11	117.03
562.27	56.17
562.44	77.24
562.60	0.00
562.77	56.17
562.93	28.09
563.10	49.15
563.26	79.58
563.42	11.70
563.59	0.00
563.75	0.00
563.92	25.75
564.08	18.72
564.24	30.43
564.41	42.13
564.57	21.06
564.74	23.41
564.90	4.68
565.07	30.43
565.23	88.94
565.39	18.72
565.56	51.49
565.72	18.72
565.88	11.70
566.05	77.24
566.21	25.75
566.38	63.19
566.54	4.68
566.70	51.49
566.87	53.83
567.03	18.72
567.19	58.51
567.36	16.38
567.52	81.92
567.68	16.38
567.85	39.79
568.01	58.51
568.17	58.51
568.34	77.24
568.50	35.11
568.66	86.60
568.83	9.36
568.99	18.72
569.15	0.00
569.32	0.00
569.48	9.36
569.64	63.19
569.81	117.03
569.97	77.24
570.13	30.43
570.30	0.00
570.46	28.09
570.62	65.54
570.78	42.13
570.95	9.36
571.11	60.85
571.27	0.00
571.43	11.70
571.60	95.96
571.76	16.38
571.92	21.06
572.09	32.77
572.25	30.43
572.41	88.94
572.57	58.51
572.74	0.00
572.90	7.02
573.06	63.19
573.22	44.47
573.38	58.51
573.55	135.75
573.71	86.60
573.87	77.24
574.03	63.19
574.20	88.94
574.36	2.34
574.52	32.77
574.68	9.36
574.84	56.17
575.01	42.13
575.17	81.92
575.33	74.90
575.49	37.45
575.65	32.77
575.82	124.05
575.98	35.11
576.14	102.98
576.30	72.56
576.46	25.75
576.62	70.22
576.79	74.90
576.95	60.85
577.11	100.64
577.27	51.49
577.43	117.03
577.59	39.79
577.75	60.85
577.92	74.90
578.08	28.09
578.24	74.90
578.40	7.02
578.56	93.62
578.72	159.16
578.88	16.38
579.04	49.15
579.21	23.41
579.37	65.54
579.53	35.11
579.69	4.68
579.85	16.38
580.01	25.75
580.17	65.54
580.33	9.36
580.49	0.00
580.65	39.79
580.82	0.00
580.98	39.79
581.14	7.02
581.30	18.72
581.46	4.68
581.62	133.41
581.78	135.75
581.94	35.11
582.10	9.36
582.26	81.92
582.42	60.85
582.58	11.70
582.74	23.41
582.90	37.45
583.06	58.51
583.22	65.54
583.38	119.37
583.54	81.92
583.70	74.90
583.86	145.11
584.02	105.32
584.18	149.79
584.34	210.65
584.50	365.12
584.66	2686.94
584.82	7030.97
584.98	11040.31
585.14	9762.37
585.30	6249.23
585.46	3674.64
585.62	2230.53
585.78	1018.13
585.94	334.70
586.10	227.03
586.26	142.77
586.42	114.69
586.58	35.11
586.74	77.24
586.90	86.60
587.06	117.03
587.22	124.05
587.38	60.85
587.54	177.88
587.70	510.24
587.86	683.44
588.02	807.48
588.18	622.58
588.34	337.04
588.49	280.86
588.65	210.65
588.81	100.64
588.97	77.24
589.13	18.72
589.29	77.24
589.45	56.17
589.61	42.13
589.77	147.45
589.93	74.90
590.08	42.13
590.24	18.72
590.40	28.09
590.56	65.54
590.72	98.30
590.88	25.75
591.04	79.58
591.20	23.41
591.35	60.85
591.51	98.30
591.67	84.26
591.83	0.00
591.99	70.22
592.15	46.81
592.31	51.49
592.46	51.49
592.62	124.05
592.78	95.96
592.94	23.41
593.10	32.77
593.26	37.45
593.41	25.75
593.57	86.60
593.73	152.13
593.89	369.80
594.05	828.55
594.20	1394.96
594.36	1327.08
594.52	947.92
594.68	620.24
594.84	447.04
594.99	184.90
595.15	102.98
595.31	0.00
595.47	65.54
595.62	42.13
595.78	42.13
595.94	124.05
596.10	46.81
596.25	7.02
596.41	49.15
596.57	35.11
596.73	51.49
596.88	119.37
597.04	269.16
597.20	362.78
597.36	299.59
597.51	227.03
597.67	119.37
597.83	196.60
597.99	81.92
598.14	53.83
598.30	67.88
598.46	35.11
598.61	84.26
598.77	16.38
598.93	35.11
599.09	0.00
599.24	32.77
599.40	37.45
599.56	72.56
599.71	37.45
599.87	72.56
600.03	67.88
600.18	25.75
600.34	0.00
600.50	63.19
600.65	86.60
600.81	32.77
600.97	58.51
601.12	81.92
601.28	46.81
601.44	84.26
601.59	65.54
601.75	86.60
601.91	51.49
602.06	58.51
602.22	49.15
602.37	86.60
602.53	227.03
602.69	308.95
602.84	334.70
603.00	332.36
603.16	224.69
603.31	147.45
603.47	140.43
603.62	91.28
603.78	100.64
603.94	58.51
604.09	25.75
604.25	46.81
604.40	4.68
604.56	124.05
604.71	14.04
604.87	23.41
605.03	30.43
605.18	0.00
605.34	0.00
605.49	32.77
605.65	18.72
605.80	74.90
605.96	7.02
606.12	51.49
606.27	51.49
606.43	9.36
606.58	72.56
606.74	196.60
606.89	444.70
607.05	903.45
607.20	1146.86
607.36	1046.22
607.51	601.52
607.67	493.85
607.82	360.44
607.98	205.97
608.13	58.51
608.29	28.09
608.44	42.13
608.60	91.28
608.75	0.00
608.91	170.86
609.06	655.35
609.22	1476.88
609.37	2047.97
609.53	1753.06
609.68	1287.29
609.84	706.84
609.99	442.36
610.15	285.55
610.30	159.16
610.46	58.51
610.61	51.49
610.76	37.45
610.92	53.83
611.07	39.79
611.23	93.62
611.38	105.32
611.54	65.54
611.69	70.22
611.84	0.00
612.00	46.81
612.15	60.85
612.31	49.15
612.46	70.22
612.62	30.43
612.77	65.54
612.92	70.22
613.08	37.45
613.23	35.11
613.39	140.43
613.54	107.66
613.69	723.23
613.85	1867.75
614.00	2937.37
614.15	3159.72
614.31	2289.04
614.46	1479.22
614.62	952.60
614.77	645.99
614.92	269.16
615.08	175.54
615.23	84.26
615.38	37.45
615.54	124.05
615.69	180.22
615.84	369.80
616.00	641.31
616.15	854.30
616.30	709.18
616.46	463.43
616.61	346.40
616.76	238.73
616.92	191.92
617.07	0.00
617.22	145.11
617.37	39.79
617.53	124.05
617.68	28.09
617.83	72.56
617.99	107.66
618.14	51.49
618.29	0.00
618.45	63.19
618.60	0.00
618.75	74.90
618.90	4.68
619.06	21.06
619.21	0.00
619.36	18.72
619.51	56.17
619.67	44.47
619.82	42.13
619.97	32.77
620.12	42.13
620.28	72.56
620.43	102.98
620.58	72.56
620.73	65.54
620.89	0.00
621.04	46.81
621.19	210.65
621.34	301.93
621.49	514.92
621.65	472.79
621.80	308.95
621.95	236.39
622.10	142.77
622.25	91.28
622.41	46.81
622.56	39.79
622.71	53.83
622.86	46.81
623.01	63.19
623.16	63.19
623.32	0.00
623.47	133.41
623.62	0.00
623.77	28.09
623.92	51.49
624.07	63.19
624.23	37.45
624.38	0.00
624.53	110.01
624.68	91.28
624.83	72.56
624.98	46.81
625.13	23.41
625.29	60.85
625.44	42.13
625.59	79.58
625.74	0.00
625.89	37.45
626.04	252.78
626.19	854.30
626.34	1458.15
626.49	1760.08
626.65	1263.89
626.80	816.85
626.95	608.54
627.10	376.83
627.25	163.84
627.40	124.05
627.55	58.51
627.70	32.77
627.85	35.11
628.00	42.13
628.15	46.81
628.30	102.98
628.45	81.92
628.60	0.00
628.76	81.92
628.91	4.68
629.06	60.85
629.21	25.75
629.36	63.19
629.51	81.92
629.66	4.68
629.81	86.60
629.96	142.77
630.11	344.06
630.26	465.77
630.41	376.83
630.56	287.89
630.71	128.73
630.86	152.13
631.01	30.43
631.16	30.43
631.31	88.94
631.46	67.88
631.61	86.60
631.76	100.64
631.91	91.28
632.06	32.77
632.21	2.34
632.36	72.56
632.51	28.09
632.66	72.56
632.81	126.39
632.96	447.04
633.10	870.68
633.25	1156.22
633.40	903.45
633.55	669.39
633.70	482.15
633.85	269.16
634.00	154.48
634.15	79.58
634.30	16.38
634.45	110.01
634.60	18.72
634.75	46.81
634.90	56.17
635.05	74.90
635.19	35.11
635.34	32.77
635.49	30.43
635.64	79.58
635.79	56.17
635.94	67.88
636.09	100.64
636.24	86.60
636.39	77.24
636.53	128.73
636.68	18.72
636.83	0.00
636.98	28.09
637.13	0.00
637.28	42.13
637.43	28.09
637.57	138.09
637.72	414.27
637.87	1158.57
638.02	1795.19
638.17	2176.70
638.32	1579.86
638.46	1165.59
638.61	732.59
638.76	451.72
638.91	276.18
639.06	84.26
639.20	86.60
639.35	131.07
639.50	105.32
639.65	631.94
639.80	1842.00
639.94	2935.03
640.09	3410.16
640.24	2597.99
640.39	1699.23
640.54	1125.80
640.68	603.86
640.83	365.12
640.98	159.16
641.13	121.71
641.27	135.75
641.42	142.77
641.57	74.90
641.72	79.58
641.86	46.81
642.01	65.54
642.16	86.60
642.31	4.68
642.45	37.45
642.60	60.85
642.75	65.54
642.90	119.37
643.04	39.79
643.19	72.56
643.34	53.83
643.48	53.83
643.63	70.22
643.78	107.66
643.93	0.00
644.07	77.24
644.22	0.00
644.37	44.47
644.51	0.00
644.66	0.00
644.81	0.00
644.95	44.47
645.10	0.00
645.25	70.22
645.39	35.11
645.54	0.00
645.69	74.90
645.83	79.58
645.98	14.04
646.13	60.85
646.27	58.51
646.42	77.24
646.57	77.24
646.71	4.68
646.86	79.58
647.00	72.56
647.15	37.45
647.30	18.72
647.44	23.41
647.59	0.00
647.74	65.54
647.88	91.28
648.03	30.43
648.17	42.13
648.32	117.03
648.47	23.41
648.61	0.00
648.76	58.51
648.90	14.04
649.05	0.00
649.20	25.75
649.34	16.38
649.49	84.26
649.63	30.43
649.78	105.32
649.92	46.81
650.07	266.82
650.21	718.54
650.36	1303.68
650.51	1797.53
650.65	1390.28
650.80	1053.24
650.94	716.20
651.09	372.15
651.23	217.67
651.38	88.94
651.52	93.62
651.67	42.13
651.81	77.24
651.96	56.17
652.10	4.68
652.25	81.92
652.39	2.34
652.54	35.11
652.68	60.85
652.83	245.76
652.97	461.09
653.12	660.03
653.26	566.41
653.41	414.27
653.55	257.46
653.70	187.24
653.84	126.39
653.99	105.32
654.13	77.24
654.27	93.62
654.42	58.51
654.56	0.00
654.71	0.00
654.85	0.00
655.00	58.51
655.14	63.19
655.29	21.06
655.43	2.34
655.57	7.02
655.72	53.83
655.86	30.43
656.01	4.68
656.15	42.13
656.30	42.13
656.44	2.34
656.58	9.36
656.73	60.85
656.87	0.00
657.01	70.22
657.16	25.75
657.30	16.38
657.45	79.58
657.59	0.00
657.73	56.17
657.88	18.72
658.02	51.49
658.16	58.51
658.31	4.68
658.45	18.72
658.60	0.00
658.74	0.00
658.88	60.85
659.03	0.00
659.17	16.38
659.31	184.90
659.46	273.84
659.60	674.07
659.74	847.27
659.89	730.25
660.03	594.50
660.17	397.89
660.32	294.91
660.46	107.66
660.60	65.54
660.74	65.54
660.89	84.26
661.03	42.13
661.17	63.19
661.32	0.00
661.46	0.00
661.60	91.28
661.74	91.28
661.89	0.00
662.03	79.58
662.17	9.36
662.31	7.02
662.46	14.04
662.60	60.85
662.74	72.56
662.88	79.58
663.03	74.90
663.17	0.00
663.31	58.51
663.45	32.77
663.60	49.15
663.74	0.00
663.88	126.39
664.02	58.51
664.17	25.75
664.31	9.36
664.45	72.56
664.59	51.49
664.73	32.77
664.88	16.38
665.02	21.06
665.16	0.00
665.30	46.81
665.44	70.22
665.59	63.19
665.73	16.38
665.87	28.09
666.01	70.22
666.15	79.58
666.29	128.73
666.44	79.58
666.58	0.00
666.72	7.02
666.86	46.81
667.00	37.45
667.14	74.90
667.28	191.92
667.43	620.24
667.57	1172.61
667.71	1530.71
667.85	1350.49
667.99	1025.15
668.13	627.26
668.27	372.15
668.41	196.60
668.56	149.79
668.70	93.62
668.84	60.85
668.98	51.49
669.12	42.13
669.26	88.94
669.40	16.38
669.54	72.56
669.68	0.00
669.82	11.70
669.96	16.38
670.10	18.72
670.25	35.11
670.39	44.47
670.53	21.06
670.67	114.69
670.81	72.56
670.95	58.51
671.09	72.56
671.23	271.50
671.37	629.60
671.51	833.23
671.65	887.06
671.79	833.23
671.93	526.62
672.07	346.40
672.21	177.88
672.35	121.71
672.49	159.16
672.63	131.07
672.77	30.43
672.91	25.75
673.05	0.00
673.19	0.00
673.33	18.72
673.47	74.90
673.61	0.00
673.75	51.49
673.89	0.00
674.03	30.43
674.17	63.19
674.31	56.17
674.45	30.43
674.59	25.75
674.73	46.81
674.87	21.06
675.01	44.47
675.15	67.88
675.29	0.00
675.43	7.02
675.56	65.54
675.70	63.19
675.84	81.92
675.98	0.00
676.12	30.43
676.26	0.00
676.40	117.03
676.54	0.00
676.68	46.81
676.82	102.98
676.96	56.17
677.10	0.00
677.23	63.19
677.37	18.72
677.51	70.22
677.65	65.54
677.79	81.92
677.93	74.90
678.07	18.72
678.21	25.75
678.34	0.00
678.48	28.09
678.62	14.04
678.76	81.92
678.90	63.19
679.04	84.26
679.18	86.60
679.31	39.79
679.45	65.54
679.59	39.79
679.73	0.00
679.87	72.56
680.00	42.13
680.14	2.34
680.28	0.00
680.42	74.90
680.56	11.70
680.70	51.49
680.83	30.43
680.97	65.54
681.11	67.88
681.25	11.70
681.39	53.83
681.52	77.24
681.66	14.04
681.80	0.00
681.94	23.41
682.07	30.43
682.21	95.96
682.35	53.83
682.49	35.11
682.62	0.00
682.76	60.85
682.90	0.00
683.04	46.81
683.17	0.00
683.31	18.72
683.45	4.68
683.59	51.49
683.72	60.85
683.86	63.19
684.00	46.81
684.13	58.51
684.27	95.96
684.41	35.11
684.55	51.49
684.68	0.00
684.82	7.02
684.96	0.00
685.09	44.47
685.23	0.00
685.37	100.64
685.50	35.11
685.64	0.00
685.78	14.04
685.91	70.22
686.05	9.36
686.19	44.47
686.32	0.00
686.46	0.00
686.60	39.79
686.73	0.00
686.87	11.70
687.01	42.13
687.14	21.06
687.28	2.34
687.42	42.13
687.55	25.75
687.69	70.22
687.82	46.81
687.96	86.60
688.10	37.45
688.23	86.60
688.37	42.13
688.50	49.15
688.64	14.04
688.78	0.00
688.91	74.90
689.05	0.00
689.18	0.00
689.32	110.01
689.46	49.15
689.59	11.70
689.73	0.00
689.86	11.70
690.00	98.30
690.13	79.58
690.27	58.51
690.41	30.43
690.54	32.77
690.68	0.00
690.81	39.79
690.95	14.04
691.08	70.22
691.22	23.41
691.35	0.00
691.49	79.58
691.62	0.00
691.76	7.02
691.89	0.00
692.03	14.04
692.16	58.51
692.30	0.00
692.43	194.26
692.57	273.84
692.70	482.15
692.84	662.37
692.97	547.69
693.11	470.45
693.24	362.78
693.38	222.35
693.51	102.98
693.65	72.56
693.78	74.90
693.92	9.36
694.05	21.06
694.19	9.36
694.32	21.06
694.45	32.77
694.59	37.45
694.72	25.75
694.86	35.11
694.99	0.00
695.13	58.51
695.26	21.06
695.39	9.36
695.53	16.38
695.66	30.43
695.80	65.54
695.93	39.79
696.07	98.30
696.20	74.90
696.33	37.45
696.47	74.90
696.60	39.79
696.73	81.92
696.87	72.56
697.00	30.43
697.14	93.62
697.27	42.13
697.40	9.36
697.54	0.00
697.67	0.00
697.80	32.77
697.94	60.85
698.07	0.00
698.21	72.56
698.34	56.17
698.47	65.54
698.61	60.85
698.74	4.68
698.87	0.00
699.01	32.77
699.14	60.85
699.27	0.00
699.40	21.06
699.54	0.00
699.67	25.75
699.80	107.66
699.94	7.02
700.07	37.45
700.20	0.00
700.34	168.52
700.47	0.00
700.60	0.00
700.73	49.15
700.87	35.11
701.00	2.34
701.13	18.72
701.26	2.34
701.40	0.00
701.53	60.85
701.66	14.04
701.79	21.06
701.93	28.09
702.06	84.26
702.19	72.56
702.32	49.15
702.46	39.79
702.59	63.19
702.72	117.03
702.85	351.08
702.99	732.59
703.12	1107.07
703.25	1317.72
703.38	1130.48
703.51	966.64
703.65	641.31
703.78	491.51
703.91	362.78
704.04	187.24
704.17	159.16
704.31	84.26
704.44	44.47
704.57	46.81
704.70	37.45
704.83	4.68
704.96	81.92
705.10	74.90
705.23	102.98
>>>>>End Processed Spectral Data<<<<<
