SpectraSuite Data File
++++++++++++++++++++++++++++++++++++
Date: Fri Oct 04 12:13:39 GMT-05:00 2013
User: price-jones
Dark Spectrum Present: No
Reference Spectrum Present: No
Number of Sampled Component Spectra: 1
Spectrometers: USB2+H05261
Integration Time (usec): 10000 (USB2+H05261)
Spectra Averaged: 1 (USB2+H05261)
Boxcar Smoothing: 0 (USB2+H05261)
Correct for Electrical Dark: No (USB2+H05261)
Strobe/Lamp Enabled: No (USB2+H05261)
Correct for Detector Non-linearity: No (USB2+H05261)
Correct for Stray Light: No (USB2+H05261)
Number of Pixels in Processed Spectrum: 2048
>>>>>Begin Processed Spectral Data<<<<<
365.73	0.00
365.92	0.00
366.12	0.00
366.32	0.00
366.52	0.00
366.72	0.00
366.91	0.00
367.11	0.00
367.31	0.00
367.51	0.00
367.70	0.00
367.90	0.00
368.10	0.00
368.30	0.00
368.49	0.00
368.69	0.00
368.89	0.00
369.09	0.00
369.28	0.00
369.48	0.00
369.68	0.00
369.87	0.00
370.07	0.00
370.27	0.00
370.47	0.00
370.66	0.00
370.86	0.00
371.06	4.68
371.25	4.68
371.45	0.00
371.65	0.00
371.84	0.00
372.04	0.00
372.24	25.75
372.44	0.00
372.63	39.79
372.83	42.13
373.03	0.00
373.22	58.51
373.42	46.81
373.62	4.68
373.81	11.70
374.01	18.72
374.21	35.11
374.40	35.11
374.60	77.24
374.79	53.83
374.99	37.45
375.19	39.79
375.38	11.70
375.58	7.02
375.78	0.00
375.97	0.00
376.17	72.56
376.37	0.00
376.56	9.36
376.76	30.43
376.95	77.24
377.15	9.36
377.35	9.36
377.54	0.00
377.74	4.68
377.93	53.83
378.13	18.72
378.33	14.04
378.52	79.58
378.72	14.04
378.91	18.72
379.11	9.36
379.31	14.04
379.50	0.00
379.70	42.13
379.89	70.22
380.09	11.70
380.28	0.00
380.48	0.00
380.68	0.00
380.87	0.00
381.07	0.00
381.26	18.72
381.46	0.00
381.65	0.00
381.85	42.13
382.04	0.00
382.24	0.00
382.43	28.09
382.63	49.15
382.83	0.00
383.02	7.02
383.22	42.13
383.41	37.45
383.61	0.00
383.80	9.36
384.00	16.38
384.19	53.83
384.39	0.00
384.58	70.22
384.78	21.06
384.97	23.41
385.17	11.70
385.36	0.00
385.56	37.45
385.75	46.81
385.95	18.72
386.14	11.70
386.34	37.45
386.53	60.85
386.72	28.09
386.92	14.04
387.11	0.00
387.31	0.00
387.50	42.13
387.70	0.00
387.89	0.00
388.09	0.00
388.28	0.00
388.48	37.45
388.67	77.24
388.86	32.77
389.06	30.43
389.25	0.00
389.45	51.49
389.64	0.00
389.84	0.00
390.03	95.96
390.22	21.06
390.42	0.00
390.61	35.11
390.81	37.45
391.00	16.38
391.19	49.15
391.39	23.41
391.58	14.04
391.78	28.09
391.97	16.38
392.16	9.36
392.36	0.00
392.55	0.00
392.75	65.54
392.94	7.02
393.13	0.00
393.33	2.34
393.52	28.09
393.71	0.00
393.91	72.56
394.10	0.00
394.29	0.00
394.49	39.79
394.68	95.96
394.88	98.30
395.07	23.41
395.26	67.88
395.46	46.81
395.65	0.00
395.84	32.77
396.04	18.72
396.23	0.00
396.42	23.41
396.62	18.72
396.81	21.06
397.00	23.41
397.19	35.11
397.39	14.04
397.58	0.00
397.77	0.00
397.97	9.36
398.16	49.15
398.35	44.47
398.55	56.17
398.74	0.00
398.93	30.43
399.12	81.92
399.32	0.00
399.51	0.00
399.70	2.34
399.90	86.60
400.09	0.00
400.28	30.43
400.47	56.17
400.67	63.19
400.86	18.72
401.05	28.09
401.24	72.56
401.44	79.58
401.63	18.72
401.82	0.00
402.01	14.04
402.21	4.68
402.40	21.06
402.59	18.72
402.78	49.15
402.97	0.00
403.17	0.00
403.36	46.81
403.55	0.00
403.74	49.15
403.93	0.00
404.13	81.92
404.32	0.00
404.51	32.77
404.70	14.04
404.89	70.22
405.09	14.04
405.28	9.36
405.47	0.00
405.66	93.62
405.85	25.75
406.05	11.70
406.24	39.79
406.43	32.77
406.62	124.05
406.81	4.68
407.00	37.45
407.20	9.36
407.39	14.04
407.58	0.00
407.77	53.83
407.96	98.30
408.15	25.75
408.34	42.13
408.54	0.00
408.73	53.83
408.92	4.68
409.11	86.60
409.30	2.34
409.49	39.79
409.68	60.85
409.87	39.79
410.07	0.00
410.26	0.00
410.45	63.19
410.64	4.68
410.83	44.47
411.02	46.81
411.21	11.70
411.40	0.00
411.59	25.75
411.78	135.75
411.98	4.68
412.17	23.41
412.36	9.36
412.55	4.68
412.74	126.39
412.93	16.38
413.12	53.83
413.31	46.81
413.50	4.68
413.69	44.47
413.88	121.71
414.07	23.41
414.26	9.36
414.45	79.58
414.64	7.02
414.83	18.72
415.02	14.04
415.22	56.17
415.41	35.11
415.60	72.56
415.79	110.01
415.98	98.30
416.17	23.41
416.36	2.34
416.55	30.43
416.74	0.00
416.93	37.45
417.12	23.41
417.31	0.00
417.50	4.68
417.69	72.56
417.88	14.04
418.07	11.70
418.26	32.77
418.45	86.60
418.64	81.92
418.83	46.81
419.02	46.81
419.21	51.49
419.39	0.00
419.58	35.11
419.77	25.75
419.96	37.45
420.15	65.54
420.34	63.19
420.53	117.03
420.72	0.00
420.91	53.83
421.10	39.79
421.29	121.71
421.48	0.00
421.67	72.56
421.86	77.24
422.05	25.75
422.24	51.49
422.43	67.88
422.61	46.81
422.80	51.49
422.99	21.06
423.18	32.77
423.37	0.00
423.56	18.72
423.75	65.54
423.94	105.32
424.13	0.00
424.32	0.00
424.50	42.13
424.69	16.38
424.88	60.85
425.07	21.06
425.26	70.22
425.45	35.11
425.64	0.00
425.83	60.85
426.01	81.92
426.20	58.51
426.39	16.38
426.58	0.00
426.77	44.47
426.96	42.13
427.15	44.47
427.33	0.00
427.52	63.19
427.71	11.70
427.90	0.00
428.09	65.54
428.28	63.19
428.46	53.83
428.65	0.00
428.84	79.58
429.03	28.09
429.22	58.51
429.40	46.81
429.59	37.45
429.78	95.96
429.97	11.70
430.16	63.19
430.34	35.11
430.53	0.00
430.72	91.28
430.91	0.00
431.10	35.11
431.28	67.88
431.47	16.38
431.66	0.00
431.85	32.77
432.03	53.83
432.22	0.00
432.41	79.58
432.60	56.17
432.79	49.15
432.97	44.47
433.16	72.56
433.35	65.54
433.54	14.04
433.72	2.34
433.91	0.00
434.10	72.56
434.28	72.56
434.47	79.58
434.66	0.00
434.85	58.51
435.03	67.88
435.22	49.15
435.41	63.19
435.59	56.17
435.78	74.90
435.97	16.38
436.16	11.70
436.34	16.38
436.53	9.36
436.72	58.51
436.90	70.22
437.09	46.81
437.28	67.88
437.46	93.62
437.65	30.43
437.84	42.13
438.02	11.70
438.21	72.56
438.40	72.56
438.58	63.19
438.77	0.00
438.96	16.38
439.14	46.81
439.33	93.62
439.52	9.36
439.70	0.00
439.89	102.98
440.08	53.83
440.26	25.75
440.45	9.36
440.63	14.04
440.82	44.47
441.01	39.79
441.19	63.19
441.38	32.77
441.57	44.47
441.75	25.75
441.94	11.70
442.12	23.41
442.31	53.83
442.50	60.85
442.68	86.60
442.87	9.36
443.05	74.90
443.24	30.43
443.43	21.06
443.61	84.26
443.80	77.24
443.98	0.00
444.17	105.32
444.35	37.45
444.54	79.58
444.73	74.90
444.91	42.13
445.10	81.92
445.28	60.85
445.47	4.68
445.65	0.00
445.84	88.94
446.02	102.98
446.21	32.77
446.39	58.51
446.58	4.68
446.77	7.02
446.95	84.26
447.14	72.56
447.32	63.19
447.51	51.49
447.69	21.06
447.88	23.41
448.06	30.43
448.25	2.34
448.43	11.70
448.62	49.15
448.80	56.17
448.99	58.51
449.17	91.28
449.36	0.00
449.54	65.54
449.73	39.79
449.91	72.56
450.10	32.77
450.28	9.36
450.46	11.70
450.65	98.30
450.83	58.51
451.02	30.43
451.20	74.90
451.39	35.11
451.57	86.60
451.76	81.92
451.94	77.24
452.13	72.56
452.31	35.11
452.49	4.68
452.68	18.72
452.86	32.77
453.05	25.75
453.23	60.85
453.42	63.19
453.60	60.85
453.78	21.06
453.97	35.11
454.15	95.96
454.34	35.11
454.52	107.66
454.70	72.56
454.89	51.49
455.07	107.66
455.26	46.81
455.44	0.00
455.62	9.36
455.81	102.98
455.99	56.17
456.17	25.75
456.36	46.81
456.54	37.45
456.73	63.19
456.91	32.77
457.09	74.90
457.28	126.39
457.46	25.75
457.64	4.68
457.83	77.24
458.01	86.60
458.19	0.00
458.38	53.83
458.56	32.77
458.74	37.45
458.93	63.19
459.11	112.35
459.29	23.41
459.48	58.51
459.66	21.06
459.84	72.56
460.03	77.24
460.21	56.17
460.39	98.30
460.57	93.62
460.76	32.77
460.94	39.79
461.12	28.09
461.31	117.03
461.49	7.02
461.67	110.01
461.85	56.17
462.04	77.24
462.22	98.30
462.40	9.36
462.59	70.22
462.77	70.22
462.95	0.00
463.13	11.70
463.32	81.92
463.50	30.43
463.68	65.54
463.86	2.34
464.05	77.24
464.23	23.41
464.41	25.75
464.59	35.11
464.78	112.35
464.96	95.96
465.14	51.49
465.32	67.88
465.50	56.17
465.69	65.54
465.87	39.79
466.05	35.11
466.23	9.36
466.41	105.32
466.60	28.09
466.78	23.41
466.96	39.79
467.14	79.58
467.32	81.92
467.51	119.37
467.69	98.30
467.87	93.62
468.05	84.26
468.23	65.54
468.41	110.01
468.60	67.88
468.78	37.45
468.96	67.88
469.14	60.85
469.32	112.35
469.50	56.17
469.69	117.03
469.87	77.24
470.05	93.62
470.23	131.07
470.41	14.04
470.59	77.24
470.77	51.49
470.95	11.70
471.14	77.24
471.32	72.56
471.50	28.09
471.68	18.72
471.86	77.24
472.04	37.45
472.22	53.83
472.40	91.28
472.58	107.66
472.77	23.41
472.95	110.01
473.13	56.17
473.31	56.17
473.49	14.04
473.67	9.36
473.85	53.83
474.03	105.32
474.21	32.77
474.39	0.00
474.57	49.15
474.75	30.43
474.93	44.47
475.12	28.09
475.30	95.96
475.48	51.49
475.66	93.62
475.84	63.19
476.02	0.00
476.20	65.54
476.38	51.49
476.56	79.58
476.74	84.26
476.92	0.00
477.10	53.83
477.28	112.35
477.46	93.62
477.64	53.83
477.82	51.49
478.00	100.64
478.18	124.05
478.36	117.03
478.54	93.62
478.72	42.13
478.90	93.62
479.08	60.85
479.26	81.92
479.44	128.73
479.62	51.49
479.80	84.26
479.98	18.72
480.16	102.98
480.34	72.56
480.52	128.73
480.70	39.79
480.88	0.00
481.06	11.70
481.24	105.32
481.41	30.43
481.59	39.79
481.77	63.19
481.95	42.13
482.13	18.72
482.31	77.24
482.49	98.30
482.67	79.58
482.85	9.36
483.03	81.92
483.21	114.69
483.39	124.05
483.57	63.19
483.74	51.49
483.92	21.06
484.10	44.47
484.28	105.32
484.46	98.30
484.64	63.19
484.82	44.47
485.00	42.13
485.18	44.47
485.35	44.47
485.53	42.13
485.71	63.19
485.89	30.43
486.07	35.11
486.25	35.11
486.43	23.41
486.61	112.35
486.78	53.83
486.96	56.17
487.14	67.88
487.32	98.30
487.50	0.00
487.68	67.88
487.85	30.43
488.03	30.43
488.21	70.22
488.39	121.71
488.57	49.15
488.75	25.75
488.92	102.98
489.10	102.98
489.28	65.54
489.46	79.58
489.64	135.75
489.81	23.41
489.99	30.43
490.17	77.24
490.35	49.15
490.53	28.09
490.70	100.64
490.88	70.22
491.06	51.49
491.24	32.77
491.41	44.47
491.59	107.66
491.77	28.09
491.95	60.85
492.13	105.32
492.30	117.03
492.48	79.58
492.66	65.54
492.84	121.71
493.01	79.58
493.19	88.94
493.37	110.01
493.54	42.13
493.72	56.17
493.90	156.82
494.08	77.24
494.25	131.07
494.43	63.19
494.61	98.30
494.79	46.81
494.96	107.66
495.14	117.03
495.32	63.19
495.49	18.72
495.67	49.15
495.85	18.72
496.02	65.54
496.20	110.01
496.38	60.85
496.55	56.17
496.73	42.13
496.91	102.98
497.09	49.15
497.26	161.50
497.44	98.30
497.62	58.51
497.79	126.39
497.97	77.24
498.14	32.77
498.32	37.45
498.50	100.64
498.67	44.47
498.85	65.54
499.03	110.01
499.20	105.32
499.38	100.64
499.56	95.96
499.73	98.30
499.91	86.60
500.08	95.96
500.26	168.52
500.44	84.26
500.61	46.81
500.79	91.28
500.97	16.38
501.14	98.30
501.32	107.66
501.49	74.90
501.67	0.00
501.84	46.81
502.02	93.62
502.20	44.47
502.37	128.73
502.55	98.30
502.72	84.26
502.90	124.05
503.07	60.85
503.25	65.54
503.43	105.32
503.60	7.02
503.78	56.17
503.95	65.54
504.13	79.58
504.30	72.56
504.48	53.83
504.65	91.28
504.83	30.43
505.01	119.37
505.18	58.51
505.36	67.88
505.53	65.54
505.71	105.32
505.88	67.88
506.06	93.62
506.23	74.90
506.41	53.83
506.58	60.85
506.76	77.24
506.93	107.66
507.11	56.17
507.28	77.24
507.46	88.94
507.63	84.26
507.81	51.49
507.98	133.41
508.16	105.32
508.33	105.32
508.50	42.13
508.68	77.24
508.85	128.73
509.03	4.68
509.20	53.83
509.38	91.28
509.55	60.85
509.73	58.51
509.90	117.03
510.08	84.26
510.25	72.56
510.42	39.79
510.60	98.30
510.77	105.32
510.95	114.69
511.12	0.00
511.30	156.82
511.47	65.54
511.64	95.96
511.82	53.83
511.99	44.47
512.17	56.17
512.34	35.11
512.51	32.77
512.69	0.00
512.86	42.13
513.04	67.88
513.21	72.56
513.38	88.94
513.56	105.32
513.73	88.94
513.90	95.96
514.08	37.45
514.25	102.98
514.43	154.48
514.60	79.58
514.77	37.45
514.95	124.05
515.12	95.96
515.29	53.83
515.47	70.22
515.64	95.96
515.81	131.07
515.99	81.92
516.16	110.01
516.33	126.39
516.51	79.58
516.68	7.02
516.85	65.54
517.03	91.28
517.20	105.32
517.37	140.43
517.54	112.35
517.72	173.20
517.89	35.11
518.06	105.32
518.24	70.22
518.41	53.83
518.58	93.62
518.75	112.35
518.93	95.96
519.10	30.43
519.27	42.13
519.45	77.24
519.62	93.62
519.79	117.03
519.96	102.98
520.14	65.54
520.31	44.47
520.48	81.92
520.65	74.90
520.83	135.75
521.00	30.43
521.17	81.92
521.34	32.77
521.52	53.83
521.69	110.01
521.86	93.62
522.03	72.56
522.20	86.60
522.38	70.22
522.55	74.90
522.72	133.41
522.89	95.96
523.07	102.98
523.24	107.66
523.41	84.26
523.58	114.69
523.75	119.37
523.92	110.01
524.10	138.09
524.27	44.47
524.44	23.41
524.61	102.98
524.78	95.96
524.96	51.49
525.13	60.85
525.30	42.13
525.47	140.43
525.64	56.17
525.81	84.26
525.98	112.35
526.16	0.00
526.33	63.19
526.50	63.19
526.67	44.47
526.84	100.64
527.01	63.19
527.18	74.90
527.36	35.11
527.53	88.94
527.70	93.62
527.87	124.05
528.04	91.28
528.21	100.64
528.38	70.22
528.55	77.24
528.72	114.69
528.89	107.66
529.07	100.64
529.24	58.51
529.41	63.19
529.58	67.88
529.75	81.92
529.92	42.13
530.09	67.88
530.26	72.56
530.43	102.98
530.60	44.47
530.77	91.28
530.94	95.96
531.11	84.26
531.28	77.24
531.46	154.48
531.63	154.48
531.80	100.64
531.97	112.35
532.14	21.06
532.31	145.11
532.48	0.00
532.65	77.24
532.82	91.28
532.99	138.09
533.16	77.24
533.33	79.58
533.50	114.69
533.67	161.50
533.84	147.45
534.01	88.94
534.18	95.96
534.35	147.45
534.52	128.73
534.69	63.19
534.86	110.01
535.03	159.16
535.20	121.71
535.37	79.58
535.54	67.88
535.71	84.26
535.88	86.60
536.05	93.62
536.22	91.28
536.38	35.11
536.55	100.64
536.72	65.54
536.89	95.96
537.06	72.56
537.23	56.17
537.40	23.41
537.57	51.49
537.74	65.54
537.91	25.75
538.08	7.02
538.25	152.13
538.42	138.09
538.59	79.58
538.75	93.62
538.92	86.60
539.09	107.66
539.26	67.88
539.43	88.94
539.60	147.45
539.77	102.98
539.94	102.98
540.11	98.30
540.28	35.11
540.44	102.98
540.61	81.92
540.78	67.88
540.95	102.98
541.12	81.92
541.29	65.54
541.46	121.71
541.62	67.88
541.79	49.15
541.96	93.62
542.13	0.00
542.30	30.43
542.47	126.39
542.63	112.35
542.80	56.17
542.97	98.30
543.14	77.24
543.31	46.81
543.48	110.01
543.64	124.05
543.81	18.72
543.98	67.88
544.15	102.98
544.32	67.88
544.48	133.41
544.65	84.26
544.82	28.09
544.99	135.75
545.16	81.92
545.32	39.79
545.49	93.62
545.66	175.54
545.83	70.22
546.00	131.07
546.16	39.79
546.33	88.94
546.50	91.28
546.67	100.64
546.83	84.26
547.00	147.45
547.17	79.58
547.34	102.98
547.50	93.62
547.67	56.17
547.84	53.83
548.00	63.19
548.17	74.90
548.34	91.28
548.51	124.05
548.67	102.98
548.84	65.54
549.01	53.83
549.18	102.98
549.34	60.85
549.51	28.09
549.68	105.32
549.84	107.66
550.01	46.81
550.18	112.35
550.34	102.98
550.51	117.03
550.68	67.88
550.84	56.17
551.01	102.98
551.18	74.90
551.34	95.96
551.51	44.47
551.68	91.28
551.84	65.54
552.01	0.00
552.18	133.41
552.34	159.16
552.51	9.36
552.68	121.71
552.84	154.48
553.01	51.49
553.18	30.43
553.34	107.66
553.51	65.54
553.67	98.30
553.84	37.45
554.01	30.43
554.17	88.94
554.34	100.64
554.51	105.32
554.67	86.60
554.84	88.94
555.00	142.77
555.17	60.85
555.33	88.94
555.50	84.26
555.67	86.60
555.83	102.98
556.00	100.64
556.16	119.37
556.33	51.49
556.50	107.66
556.66	56.17
556.83	72.56
556.99	77.24
557.16	86.60
557.32	77.24
557.49	74.90
557.65	152.13
557.82	18.72
557.98	18.72
558.15	72.56
558.32	49.15
558.48	93.62
558.65	18.72
558.81	51.49
558.98	79.58
559.14	0.00
559.31	77.24
559.47	121.71
559.64	98.30
559.80	39.79
559.97	154.48
560.13	102.98
560.30	112.35
560.46	67.88
560.63	86.60
560.79	11.70
560.96	117.03
561.12	53.83
561.29	49.15
561.45	93.62
561.61	0.00
561.78	67.88
561.94	98.30
562.11	121.71
562.27	159.16
562.44	135.75
562.60	67.88
562.77	84.26
562.93	95.96
563.10	102.98
563.26	32.77
563.42	77.24
563.59	70.22
563.75	84.26
563.92	77.24
564.08	147.45
564.24	91.28
564.41	126.39
564.57	53.83
564.74	4.68
564.90	117.03
565.07	114.69
565.23	23.41
565.39	46.81
565.56	44.47
565.72	56.17
565.88	77.24
566.05	30.43
566.21	124.05
566.38	58.51
566.54	84.26
566.70	14.04
566.87	35.11
567.03	16.38
567.19	56.17
567.36	44.47
567.52	14.04
567.68	140.43
567.85	93.62
568.01	51.49
568.17	110.01
568.34	121.71
568.50	4.68
568.66	79.58
568.83	18.72
568.99	88.94
569.15	102.98
569.32	86.60
569.48	112.35
569.64	93.62
569.81	98.30
569.97	102.98
570.13	121.71
570.30	95.96
570.46	117.03
570.62	74.90
570.78	56.17
570.95	74.90
571.11	81.92
571.27	91.28
571.43	79.58
571.60	58.51
571.76	81.92
571.92	77.24
572.09	60.85
572.25	105.32
572.41	51.49
572.57	133.41
572.74	107.66
572.90	93.62
573.06	32.77
573.22	112.35
573.38	42.13
573.55	84.26
573.71	93.62
573.87	67.88
574.03	9.36
574.20	46.81
574.36	56.17
574.52	98.30
574.68	79.58
574.84	93.62
575.01	58.51
575.17	128.73
575.33	72.56
575.49	25.75
575.65	93.62
575.82	0.00
575.98	60.85
576.14	2.34
576.30	32.77
576.46	102.98
576.62	77.24
576.79	70.22
576.95	58.51
577.11	21.06
577.27	88.94
577.43	100.64
577.59	81.92
577.75	53.83
577.92	46.81
578.08	70.22
578.24	30.43
578.40	102.98
578.56	140.43
578.72	84.26
578.88	77.24
579.04	65.54
579.21	79.58
579.37	86.60
579.53	88.94
579.69	138.09
579.85	51.49
580.01	67.88
580.17	138.09
580.33	112.35
580.49	74.90
580.65	53.83
580.82	81.92
580.98	117.03
581.14	74.90
581.30	67.88
581.46	65.54
581.62	147.45
581.78	58.51
581.94	102.98
582.10	37.45
582.26	72.56
582.42	121.71
582.58	65.54
582.74	70.22
582.90	37.45
583.06	105.32
583.22	100.64
583.38	44.47
583.54	39.79
583.70	98.30
583.86	56.17
584.02	65.54
584.18	21.06
584.34	180.22
584.50	53.83
584.66	60.85
584.82	93.62
584.98	63.19
585.14	67.88
585.30	65.54
585.46	77.24
585.62	25.75
585.78	44.47
585.94	56.17
586.10	14.04
586.26	4.68
586.42	58.51
586.58	70.22
586.74	30.43
586.90	51.49
587.06	67.88
587.22	110.01
587.38	95.96
587.54	39.79
587.70	65.54
587.86	0.00
588.02	98.30
588.18	46.81
588.34	128.73
588.49	110.01
588.65	88.94
588.81	32.77
588.97	119.37
589.13	42.13
589.29	56.17
589.45	28.09
589.61	91.28
589.77	65.54
589.93	58.51
590.08	0.00
590.24	70.22
590.40	100.64
590.56	65.54
590.72	63.19
590.88	49.15
591.04	100.64
591.20	7.02
591.35	35.11
591.51	79.58
591.67	0.00
591.83	95.96
591.99	124.05
592.15	53.83
592.31	16.38
592.46	105.32
592.62	72.56
592.78	74.90
592.94	131.07
593.10	51.49
593.26	72.56
593.41	77.24
593.57	35.11
593.73	74.90
593.89	70.22
594.05	46.81
594.20	77.24
594.36	51.49
594.52	49.15
594.68	124.05
594.84	58.51
594.99	39.79
595.15	44.47
595.31	77.24
595.47	100.64
595.62	25.75
595.78	58.51
595.94	67.88
596.10	84.26
596.25	91.28
596.41	14.04
596.57	53.83
596.73	18.72
596.88	81.92
597.04	16.38
597.20	81.92
597.36	138.09
597.51	67.88
597.67	74.90
597.83	65.54
597.99	98.30
598.14	74.90
598.30	79.58
598.46	16.38
598.61	56.17
598.77	70.22
598.93	154.48
599.09	74.90
599.24	84.26
599.40	119.37
599.56	102.98
599.71	67.88
599.87	77.24
600.03	110.01
600.18	102.98
600.34	88.94
600.50	44.47
600.65	65.54
600.81	56.17
600.97	112.35
601.12	81.92
601.28	95.96
601.44	79.58
601.59	44.47
601.75	56.17
601.91	142.77
602.06	2.34
602.22	88.94
602.37	126.39
602.53	100.64
602.69	51.49
602.84	81.92
603.00	117.03
603.16	107.66
603.31	79.58
603.47	145.11
603.62	28.09
603.78	100.64
603.94	18.72
604.09	25.75
604.25	105.32
604.40	67.88
604.56	28.09
604.71	79.58
604.87	93.62
605.03	91.28
605.18	126.39
605.34	95.96
605.49	63.19
605.65	117.03
605.80	42.13
605.96	32.77
606.12	70.22
606.27	60.85
606.43	21.06
606.58	79.58
606.74	124.05
606.89	119.37
607.05	168.52
607.20	86.60
607.36	56.17
607.51	18.72
607.67	95.96
607.82	51.49
607.98	128.73
608.13	74.90
608.29	102.98
608.44	4.68
608.60	49.15
608.75	30.43
608.91	49.15
609.06	105.32
609.22	98.30
609.37	14.04
609.53	81.92
609.68	142.77
609.84	154.48
609.99	93.62
610.15	70.22
610.30	74.90
610.46	67.88
610.61	0.00
610.76	79.58
610.92	95.96
611.07	21.06
611.23	44.47
611.38	0.00
611.54	74.90
611.69	93.62
611.84	60.85
612.00	23.41
612.15	21.06
612.31	107.66
612.46	100.64
612.62	65.54
612.77	35.11
612.92	35.11
613.08	77.24
613.23	56.17
613.39	2.34
613.54	21.06
613.69	23.41
613.85	91.28
614.00	44.47
614.15	145.11
614.31	56.17
614.46	37.45
614.62	67.88
614.77	88.94
614.92	0.00
615.08	74.90
615.23	70.22
615.38	79.58
615.54	65.54
615.69	53.83
615.84	88.94
616.00	67.88
616.15	58.51
616.30	60.85
616.46	51.49
616.61	58.51
616.76	93.62
616.92	70.22
617.07	51.49
617.22	23.41
617.37	117.03
617.53	58.51
617.68	105.32
617.83	58.51
617.99	51.49
618.14	107.66
618.29	102.98
618.45	110.01
618.60	63.19
618.75	32.77
618.90	65.54
619.06	74.90
619.21	44.47
619.36	100.64
619.51	70.22
619.67	102.98
619.82	98.30
619.97	88.94
620.12	35.11
620.28	56.17
620.43	44.47
620.58	23.41
620.73	70.22
620.89	49.15
621.04	98.30
621.19	100.64
621.34	65.54
621.49	65.54
621.65	131.07
621.80	0.00
621.95	30.43
622.10	14.04
622.25	72.56
622.41	39.79
622.56	0.00
622.71	28.09
622.86	51.49
623.01	79.58
623.16	23.41
623.32	63.19
623.47	63.19
623.62	60.85
623.77	44.47
623.92	70.22
624.07	105.32
624.23	56.17
624.38	21.06
624.53	72.56
624.68	86.60
624.83	39.79
624.98	46.81
625.13	11.70
625.29	23.41
625.44	53.83
625.59	63.19
625.74	58.51
625.89	28.09
626.04	35.11
626.19	138.09
626.34	77.24
626.49	91.28
626.65	88.94
626.80	60.85
626.95	18.72
627.10	60.85
627.25	110.01
627.40	46.81
627.55	88.94
627.70	56.17
627.85	42.13
628.00	56.17
628.15	79.58
628.30	70.22
628.45	77.24
628.60	70.22
628.76	39.79
628.91	25.75
629.06	0.00
629.21	84.26
629.36	18.72
629.51	95.96
629.66	74.90
629.81	110.01
629.96	74.90
630.11	105.32
630.26	88.94
630.41	105.32
630.56	77.24
630.71	56.17
630.86	60.85
631.01	49.15
631.16	147.45
631.31	25.75
631.46	30.43
631.61	91.28
631.76	53.83
631.91	114.69
632.06	7.02
632.21	77.24
632.36	63.19
632.51	21.06
632.66	70.22
632.81	0.00
632.96	49.15
633.10	107.66
633.25	124.05
633.40	44.47
633.55	100.64
633.70	102.98
633.85	114.69
634.00	70.22
634.15	142.77
634.30	25.75
634.45	32.77
634.60	32.77
634.75	21.06
634.90	44.47
635.05	72.56
635.19	53.83
635.34	117.03
635.49	4.68
635.64	21.06
635.79	140.43
635.94	79.58
636.09	42.13
636.24	0.00
636.39	4.68
636.53	35.11
636.68	74.90
636.83	91.28
636.98	100.64
637.13	30.43
637.28	56.17
637.43	23.41
637.57	88.94
637.72	84.26
637.87	44.47
638.02	21.06
638.17	7.02
638.32	44.47
638.46	86.60
638.61	30.43
638.76	67.88
638.91	70.22
639.06	44.47
639.20	84.26
639.35	65.54
639.50	14.04
639.65	53.83
639.80	77.24
639.94	74.90
640.09	25.75
640.24	131.07
640.39	51.49
640.54	100.64
640.68	11.70
640.83	56.17
640.98	42.13
641.13	49.15
641.27	0.00
641.42	0.00
641.57	0.00
641.72	98.30
641.86	60.85
642.01	86.60
642.16	0.00
642.31	42.13
642.45	149.79
642.60	105.32
642.75	119.37
642.90	95.96
643.04	44.47
643.19	32.77
643.34	21.06
643.48	88.94
643.63	18.72
643.78	14.04
643.93	46.81
644.07	51.49
644.22	37.45
644.37	128.73
644.51	88.94
644.66	110.01
644.81	65.54
644.95	0.00
645.10	28.09
645.25	46.81
645.39	77.24
645.54	79.58
645.69	21.06
645.83	46.81
645.98	60.85
646.13	79.58
646.27	72.56
646.42	60.85
646.57	46.81
646.71	53.83
646.86	42.13
647.00	63.19
647.15	53.83
647.30	0.00
647.44	84.26
647.59	98.30
647.74	28.09
647.88	37.45
648.03	105.32
648.17	53.83
648.32	70.22
648.47	9.36
648.61	84.26
648.76	37.45
648.90	23.41
649.05	25.75
649.20	0.00
649.34	35.11
649.49	56.17
649.63	11.70
649.78	88.94
649.92	74.90
650.07	112.35
650.21	4.68
650.36	77.24
650.51	67.88
650.65	18.72
650.80	98.30
650.94	14.04
651.09	28.09
651.23	112.35
651.38	16.38
651.52	21.06
651.67	35.11
651.81	9.36
651.96	88.94
652.10	23.41
652.25	53.83
652.39	21.06
652.54	42.13
652.68	105.32
652.83	16.38
652.97	56.17
653.12	53.83
653.26	91.28
653.41	23.41
653.55	39.79
653.70	60.85
653.84	105.32
653.99	79.58
654.13	70.22
654.27	63.19
654.42	11.70
654.56	100.64
654.71	70.22
654.85	0.00
655.00	0.00
655.14	30.43
655.29	107.66
655.43	25.75
655.57	0.00
655.72	16.38
655.86	95.96
656.01	30.43
656.15	79.58
656.30	63.19
656.44	30.43
656.58	67.88
656.73	0.00
656.87	63.19
657.01	35.11
657.16	53.83
657.30	35.11
657.45	60.85
657.59	60.85
657.73	18.72
657.88	46.81
658.02	0.00
658.16	56.17
658.31	0.00
658.45	72.56
658.60	39.79
658.74	46.81
658.88	16.38
659.03	21.06
659.17	4.68
659.31	88.94
659.46	77.24
659.60	58.51
659.74	14.04
659.89	49.15
660.03	32.77
660.17	58.51
660.32	65.54
660.46	21.06
660.60	49.15
660.74	21.06
660.89	28.09
661.03	53.83
661.17	46.81
661.32	7.02
661.46	86.60
661.60	147.45
661.74	39.79
661.89	32.77
662.03	25.75
662.17	58.51
662.31	39.79
662.46	58.51
662.60	0.00
662.74	32.77
662.88	91.28
663.03	25.75
663.17	79.58
663.31	25.75
663.45	16.38
663.60	60.85
663.74	0.00
663.88	44.47
664.02	16.38
664.17	84.26
664.31	18.72
664.45	74.90
664.59	131.07
664.73	14.04
664.88	16.38
665.02	0.00
665.16	72.56
665.30	100.64
665.44	14.04
665.59	25.75
665.73	114.69
665.87	74.90
666.01	95.96
666.15	95.96
666.29	117.03
666.44	42.13
666.58	11.70
666.72	39.79
666.86	56.17
667.00	23.41
667.14	63.19
667.28	16.38
667.43	0.00
667.57	72.56
667.71	60.85
667.85	0.00
667.99	46.81
668.13	53.83
668.27	4.68
668.41	25.75
668.56	42.13
668.70	0.00
668.84	110.01
668.98	86.60
669.12	91.28
669.26	37.45
669.40	0.00
669.54	0.00
669.68	70.22
669.82	44.47
669.96	65.54
670.10	49.15
670.25	0.00
670.39	9.36
670.53	42.13
670.67	65.54
670.81	74.90
670.95	86.60
671.09	53.83
671.23	42.13
671.37	16.38
671.51	107.66
671.65	63.19
671.79	70.22
671.93	53.83
672.07	28.09
672.21	0.00
672.35	53.83
672.49	7.02
672.63	81.92
672.77	53.83
672.91	2.34
673.05	32.77
673.19	88.94
673.33	72.56
673.47	67.88
673.61	65.54
673.75	67.88
673.89	21.06
674.03	0.00
674.17	138.09
674.31	154.48
674.45	124.05
674.59	98.30
674.73	4.68
674.87	46.81
675.01	30.43
675.15	0.00
675.29	32.77
675.43	0.00
675.56	58.51
675.70	124.05
675.84	77.24
675.98	79.58
676.12	100.64
676.26	37.45
676.40	32.77
676.54	35.11
676.68	0.00
676.82	98.30
676.96	60.85
677.10	67.88
677.23	74.90
677.37	0.00
677.51	7.02
677.65	30.43
677.79	77.24
677.93	28.09
678.07	0.00
678.21	53.83
678.34	58.51
678.48	60.85
678.62	37.45
678.76	124.05
678.90	0.00
679.04	23.41
679.18	30.43
679.31	21.06
679.45	42.13
679.59	56.17
679.73	21.06
679.87	16.38
680.00	11.70
680.14	126.39
680.28	18.72
680.42	77.24
680.56	37.45
680.70	79.58
680.83	14.04
680.97	74.90
681.11	91.28
681.25	63.19
681.39	49.15
681.52	14.04
681.66	21.06
681.80	88.94
681.94	42.13
682.07	30.43
682.21	25.75
682.35	18.72
682.49	70.22
682.62	23.41
682.76	81.92
682.90	77.24
683.04	23.41
683.17	95.96
683.31	65.54
683.45	60.85
683.59	131.07
683.72	2.34
683.86	72.56
684.00	0.00
684.13	74.90
684.27	39.79
684.41	39.79
684.55	0.00
684.68	107.66
684.82	39.79
684.96	7.02
685.09	28.09
685.23	67.88
685.37	88.94
685.50	58.51
685.64	0.00
685.78	0.00
685.91	21.06
686.05	39.79
686.19	25.75
686.32	102.98
686.46	2.34
686.60	30.43
686.73	67.88
686.87	67.88
687.01	77.24
687.14	60.85
687.28	65.54
687.42	58.51
687.55	58.51
687.69	79.58
687.82	102.98
687.96	58.51
688.10	53.83
688.23	124.05
688.37	14.04
688.50	44.47
688.64	18.72
688.78	0.00
688.91	37.45
689.05	79.58
689.18	49.15
689.32	72.56
689.46	32.77
689.59	56.17
689.73	32.77
689.86	46.81
690.00	14.04
690.13	0.00
690.27	7.02
690.41	32.77
690.54	58.51
690.68	32.77
690.81	23.41
690.95	9.36
691.08	114.69
691.22	25.75
691.35	51.49
691.49	35.11
691.62	51.49
691.76	18.72
691.89	11.70
692.03	0.00
692.16	42.13
692.30	23.41
692.43	67.88
692.57	0.00
692.70	119.37
692.84	14.04
692.97	0.00
693.11	18.72
693.24	39.79
693.38	117.03
693.51	0.00
693.65	0.00
693.78	37.45
693.92	77.24
694.05	0.00
694.19	35.11
694.32	79.58
694.45	53.83
694.59	9.36
694.72	65.54
694.86	51.49
694.99	49.15
695.13	42.13
695.26	49.15
695.39	77.24
695.53	44.47
695.66	0.00
695.80	42.13
695.93	0.00
696.07	18.72
696.20	21.06
696.33	42.13
696.47	16.38
696.60	37.45
696.73	9.36
696.87	4.68
697.00	30.43
697.14	91.28
697.27	84.26
697.40	11.70
697.54	56.17
697.67	4.68
697.80	18.72
697.94	25.75
698.07	28.09
698.21	60.85
698.34	114.69
698.47	35.11
698.61	0.00
698.74	46.81
698.87	0.00
699.01	16.38
699.14	67.88
699.27	81.92
699.40	98.30
699.54	65.54
699.67	0.00
699.80	63.19
699.94	53.83
700.07	49.15
700.20	0.00
700.34	23.41
700.47	35.11
700.60	0.00
700.73	16.38
700.87	91.28
701.00	37.45
701.13	70.22
701.26	0.00
701.40	0.00
701.53	14.04
701.66	77.24
701.79	70.22
701.93	32.77
702.06	37.45
702.19	2.34
702.32	14.04
702.46	0.00
702.59	46.81
702.72	14.04
702.85	0.00
702.99	39.79
703.12	56.17
703.25	0.00
703.38	67.88
703.51	58.51
703.65	42.13
703.78	0.00
703.91	9.36
704.04	51.49
704.17	126.39
704.31	0.00
704.44	70.22
704.57	74.90
704.70	0.00
704.83	49.15
704.96	4.68
705.10	28.09
705.23	0.00
>>>>>End Processed Spectral Data<<<<<
