SpectraSuite Data File
++++++++++++++++++++++++++++++++++++
Date: Fri Oct 04 12:13:26 GMT-05:00 2013
User: price-jones
Dark Spectrum Present: No
Reference Spectrum Present: No
Number of Sampled Component Spectra: 1
Spectrometers: USB2+H05261
Integration Time (usec): 10000 (USB2+H05261)
Spectra Averaged: 1 (USB2+H05261)
Boxcar Smoothing: 0 (USB2+H05261)
Correct for Electrical Dark: No (USB2+H05261)
Strobe/Lamp Enabled: No (USB2+H05261)
Correct for Detector Non-linearity: No (USB2+H05261)
Correct for Stray Light: No (USB2+H05261)
Number of Pixels in Processed Spectrum: 2048
>>>>>Begin Processed Spectral Data<<<<<
365.73	35.11
365.92	35.11
366.12	35.11
366.32	0.00
366.52	0.00
366.72	0.00
366.91	0.00
367.11	0.00
367.31	0.00
367.51	0.00
367.70	0.00
367.90	0.00
368.10	0.00
368.30	0.00
368.49	0.00
368.69	0.00
368.89	0.00
369.09	0.00
369.28	0.00
369.48	0.00
369.68	0.00
369.87	0.00
370.07	0.00
370.27	0.00
370.47	0.00
370.66	0.00
370.86	0.00
371.06	0.00
371.25	0.00
371.45	0.00
371.65	0.00
371.84	0.00
372.04	0.00
372.24	0.00
372.44	28.09
372.63	0.00
372.83	0.00
373.03	9.36
373.22	0.00
373.42	32.77
373.62	14.04
373.81	18.72
374.01	81.92
374.21	95.96
374.40	0.00
374.60	91.28
374.79	67.88
374.99	30.43
375.19	16.38
375.38	18.72
375.58	0.00
375.78	21.06
375.97	70.22
376.17	30.43
376.37	91.28
376.56	0.00
376.76	46.81
376.95	56.17
377.15	39.79
377.35	51.49
377.54	11.70
377.74	0.00
377.93	0.00
378.13	4.68
378.33	7.02
378.52	25.75
378.72	0.00
378.91	58.51
379.11	0.00
379.31	25.75
379.50	42.13
379.70	44.47
379.89	65.54
380.09	30.43
380.28	0.00
380.48	44.47
380.68	0.00
380.87	25.75
381.07	0.00
381.26	0.00
381.46	86.60
381.65	32.77
381.85	0.00
382.04	0.00
382.24	0.00
382.43	0.00
382.63	42.13
382.83	0.00
383.02	58.51
383.22	77.24
383.41	49.15
383.61	72.56
383.80	46.81
384.00	4.68
384.19	28.09
384.39	0.00
384.58	30.43
384.78	79.58
384.97	0.00
385.17	0.00
385.36	30.43
385.56	0.00
385.75	7.02
385.95	0.00
386.14	56.17
386.34	9.36
386.53	21.06
386.72	0.00
386.92	79.58
387.11	53.83
387.31	0.00
387.50	0.00
387.70	0.00
387.89	0.00
388.09	7.02
388.28	42.13
388.48	32.77
388.67	0.00
388.86	56.17
389.06	0.00
389.25	11.70
389.45	4.68
389.64	0.00
389.84	65.54
390.03	9.36
390.22	18.72
390.42	0.00
390.61	70.22
390.81	32.77
391.00	28.09
391.19	105.32
391.39	60.85
391.58	16.38
391.78	0.00
391.97	60.85
392.16	0.00
392.36	0.00
392.55	4.68
392.75	0.00
392.94	9.36
393.13	0.00
393.33	28.09
393.52	18.72
393.71	23.41
393.91	0.00
394.10	4.68
394.29	0.00
394.49	21.06
394.68	0.00
394.88	0.00
395.07	0.00
395.26	51.49
395.46	14.04
395.65	42.13
395.84	0.00
396.04	11.70
396.23	0.00
396.42	39.79
396.62	102.98
396.81	84.26
397.00	77.24
397.19	9.36
397.39	72.56
397.58	88.94
397.77	0.00
397.97	72.56
398.16	53.83
398.35	95.96
398.55	93.62
398.74	0.00
398.93	60.85
399.12	0.00
399.32	7.02
399.51	0.00
399.70	28.09
399.90	39.79
400.09	32.77
400.28	25.75
400.47	4.68
400.67	39.79
400.86	114.69
401.05	0.00
401.24	0.00
401.44	30.43
401.63	25.75
401.82	46.81
402.01	53.83
402.21	53.83
402.40	0.00
402.59	51.49
402.78	18.72
402.97	42.13
403.17	0.00
403.36	0.00
403.55	32.77
403.74	0.00
403.93	42.13
404.13	0.00
404.32	0.00
404.51	77.24
404.70	0.00
404.89	0.00
405.09	0.00
405.28	16.38
405.47	0.00
405.66	23.41
405.85	0.00
406.05	56.17
406.24	0.00
406.43	0.00
406.62	0.00
406.81	0.00
407.00	0.00
407.20	35.11
407.39	28.09
407.58	0.00
407.77	0.00
407.96	53.83
408.15	37.45
408.34	42.13
408.54	0.00
408.73	44.47
408.92	42.13
409.11	9.36
409.30	16.38
409.49	81.92
409.68	11.70
409.87	23.41
410.07	0.00
410.26	18.72
410.45	86.60
410.64	32.77
410.83	2.34
411.02	23.41
411.21	49.15
411.40	0.00
411.59	28.09
411.78	14.04
411.98	0.00
412.17	46.81
412.36	0.00
412.55	67.88
412.74	0.00
412.93	74.90
413.12	0.00
413.31	0.00
413.50	11.70
413.69	35.11
413.88	16.38
414.07	2.34
414.26	0.00
414.45	16.38
414.64	98.30
414.83	7.02
415.02	28.09
415.22	51.49
415.41	9.36
415.60	0.00
415.79	32.77
415.98	0.00
416.17	0.00
416.36	86.60
416.55	23.41
416.74	28.09
416.93	79.58
417.12	4.68
417.31	42.13
417.50	37.45
417.69	72.56
417.88	39.79
418.07	63.19
418.26	56.17
418.45	32.77
418.64	30.43
418.83	35.11
419.02	58.51
419.21	35.11
419.39	28.09
419.58	70.22
419.77	49.15
419.96	32.77
420.15	35.11
420.34	0.00
420.53	39.79
420.72	46.81
420.91	30.43
421.10	67.88
421.29	14.04
421.48	18.72
421.67	35.11
421.86	0.00
422.05	91.28
422.24	88.94
422.43	9.36
422.61	21.06
422.80	93.62
422.99	0.00
423.18	0.00
423.37	21.06
423.56	0.00
423.75	58.51
423.94	11.70
424.13	37.45
424.32	0.00
424.50	2.34
424.69	0.00
424.88	53.83
425.07	53.83
425.26	23.41
425.45	14.04
425.64	0.00
425.83	0.00
426.01	0.00
426.20	35.11
426.39	67.88
426.58	32.77
426.77	28.09
426.96	0.00
427.15	2.34
427.33	23.41
427.52	25.75
427.71	0.00
427.90	37.45
428.09	0.00
428.28	14.04
428.46	44.47
428.65	60.85
428.84	0.00
429.03	53.83
429.22	0.00
429.40	21.06
429.59	25.75
429.78	65.54
429.97	46.81
430.16	23.41
430.34	60.85
430.53	25.75
430.72	0.00
430.91	46.81
431.10	88.94
431.28	21.06
431.47	0.00
431.66	51.49
431.85	0.00
432.03	25.75
432.22	23.41
432.41	21.06
432.60	11.70
432.79	0.00
432.97	0.00
433.16	0.00
433.35	0.00
433.54	25.75
433.72	44.47
433.91	23.41
434.10	0.00
434.28	53.83
434.47	37.45
434.66	37.45
434.85	44.47
435.03	39.79
435.22	46.81
435.41	0.00
435.59	79.58
435.78	0.00
435.97	9.36
436.16	42.13
436.34	25.75
436.53	37.45
436.72	39.79
436.90	56.17
437.09	11.70
437.28	58.51
437.46	39.79
437.65	39.79
437.84	0.00
438.02	0.00
438.21	58.51
438.40	72.56
438.58	56.17
438.77	0.00
438.96	25.75
439.14	0.00
439.33	0.00
439.52	9.36
439.70	100.64
439.89	63.19
440.08	56.17
440.26	79.58
440.45	102.98
440.63	32.77
440.82	30.43
441.01	0.00
441.19	35.11
441.38	63.19
441.57	32.77
441.75	86.60
441.94	77.24
442.12	21.06
442.31	23.41
442.50	49.15
442.68	28.09
442.87	53.83
443.05	0.00
443.24	46.81
443.43	0.00
443.61	25.75
443.80	23.41
443.98	67.88
444.17	51.49
444.35	25.75
444.54	39.79
444.73	79.58
444.91	0.00
445.10	0.00
445.28	51.49
445.47	70.22
445.65	72.56
445.84	72.56
446.02	88.94
446.21	0.00
446.39	4.68
446.58	77.24
446.77	98.30
446.95	102.98
447.14	63.19
447.32	49.15
447.51	2.34
447.69	14.04
447.88	7.02
448.06	42.13
448.25	4.68
448.43	70.22
448.62	46.81
448.80	4.68
448.99	32.77
449.17	0.00
449.36	51.49
449.54	11.70
449.73	67.88
449.91	25.75
450.10	35.11
450.28	56.17
450.46	0.00
450.65	18.72
450.83	21.06
451.02	0.00
451.20	16.38
451.39	30.43
451.57	63.19
451.76	4.68
451.94	44.47
452.13	88.94
452.31	49.15
452.49	11.70
452.68	0.00
452.86	102.98
453.05	95.96
453.23	70.22
453.42	21.06
453.60	30.43
453.78	0.00
453.97	9.36
454.15	0.00
454.34	95.96
454.52	149.79
454.70	56.17
454.89	0.00
455.07	0.00
455.26	18.72
455.44	56.17
455.62	23.41
455.81	23.41
455.99	32.77
456.17	18.72
456.36	14.04
456.54	7.02
456.73	56.17
456.91	14.04
457.09	0.00
457.28	4.68
457.46	51.49
457.64	28.09
457.83	18.72
458.01	0.00
458.19	28.09
458.38	11.70
458.56	0.00
458.74	23.41
458.93	39.79
459.11	53.83
459.29	63.19
459.48	58.51
459.66	14.04
459.84	72.56
460.03	72.56
460.21	46.81
460.39	32.77
460.57	60.85
460.76	32.77
460.94	30.43
461.12	37.45
461.31	25.75
461.49	39.79
461.67	46.81
461.85	60.85
462.04	0.00
462.22	170.86
462.40	49.15
462.59	65.54
462.77	0.00
462.95	14.04
463.13	2.34
463.32	23.41
463.50	0.00
463.68	65.54
463.86	77.24
464.05	0.00
464.23	39.79
464.41	84.26
464.59	0.00
464.78	0.00
464.96	39.79
465.14	35.11
465.32	28.09
465.50	49.15
465.69	18.72
465.87	23.41
466.05	42.13
466.23	44.47
466.41	21.06
466.60	23.41
466.78	0.00
466.96	53.83
467.14	25.75
467.32	67.88
467.51	42.13
467.69	32.77
467.87	84.26
468.05	0.00
468.23	46.81
468.41	35.11
468.60	28.09
468.78	63.19
468.96	0.00
469.14	56.17
469.32	7.02
469.50	39.79
469.69	53.83
469.87	16.38
470.05	30.43
470.23	39.79
470.41	51.49
470.59	49.15
470.77	49.15
470.95	95.96
471.14	30.43
471.32	9.36
471.50	14.04
471.68	0.00
471.86	37.45
472.04	11.70
472.22	86.60
472.40	0.00
472.58	0.00
472.77	9.36
472.95	44.47
473.13	91.28
473.31	79.58
473.49	39.79
473.67	23.41
473.85	79.58
474.03	42.13
474.21	37.45
474.39	18.72
474.57	23.41
474.75	28.09
474.93	0.00
475.12	0.00
475.30	74.90
475.48	39.79
475.66	37.45
475.84	0.00
476.02	0.00
476.20	0.00
476.38	39.79
476.56	28.09
476.74	25.75
476.92	42.13
477.10	65.54
477.28	42.13
477.46	98.30
477.64	16.38
477.82	63.19
478.00	46.81
478.18	0.00
478.36	95.96
478.54	0.00
478.72	77.24
478.90	23.41
479.08	44.47
479.26	58.51
479.44	58.51
479.62	25.75
479.80	88.94
479.98	7.02
480.16	58.51
480.34	67.88
480.52	53.83
480.70	67.88
480.88	32.77
481.06	0.00
481.24	58.51
481.41	53.83
481.59	51.49
481.77	53.83
481.95	4.68
482.13	121.71
482.31	0.00
482.49	39.79
482.67	0.00
482.85	63.19
483.03	58.51
483.21	7.02
483.39	0.00
483.57	35.11
483.74	42.13
483.92	0.00
484.10	51.49
484.28	53.83
484.46	4.68
484.64	28.09
484.82	30.43
485.00	63.19
485.18	51.49
485.35	42.13
485.53	86.60
485.71	58.51
485.89	51.49
486.07	7.02
486.25	65.54
486.43	72.56
486.61	70.22
486.78	44.47
486.96	0.00
487.14	11.70
487.32	9.36
487.50	35.11
487.68	79.58
487.85	60.85
488.03	23.41
488.21	39.79
488.39	4.68
488.57	35.11
488.75	14.04
488.92	138.09
489.10	32.77
489.28	46.81
489.46	39.79
489.64	51.49
489.81	35.11
489.99	44.47
490.17	25.75
490.35	98.30
490.53	42.13
490.70	30.43
490.88	0.00
491.06	58.51
491.24	72.56
491.41	0.00
491.59	56.17
491.77	28.09
491.95	11.70
492.13	56.17
492.30	46.81
492.48	0.00
492.66	16.38
492.84	67.88
493.01	98.30
493.19	51.49
493.37	46.81
493.54	60.85
493.72	86.60
493.90	72.56
494.08	88.94
494.25	39.79
494.43	88.94
494.61	25.75
494.79	51.49
494.96	0.00
495.14	18.72
495.32	107.66
495.49	44.47
495.67	4.68
495.85	9.36
496.02	37.45
496.20	4.68
496.38	44.47
496.55	49.15
496.73	77.24
496.91	9.36
497.09	7.02
497.26	0.00
497.44	11.70
497.62	4.68
497.79	18.72
497.97	32.77
498.14	110.01
498.32	44.47
498.50	18.72
498.67	51.49
498.85	14.04
499.03	42.13
499.20	0.00
499.38	0.00
499.56	0.00
499.73	4.68
499.91	93.62
500.08	21.06
500.26	37.45
500.44	0.00
500.61	35.11
500.79	51.49
500.97	65.54
501.14	9.36
501.32	60.85
501.49	25.75
501.67	7.02
501.84	37.45
502.02	70.22
502.20	0.00
502.37	14.04
502.55	4.68
502.72	37.45
502.90	51.49
503.07	0.00
503.25	0.00
503.43	0.00
503.60	0.00
503.78	60.85
503.95	114.69
504.13	60.85
504.30	46.81
504.48	0.00
504.65	4.68
504.83	39.79
505.01	7.02
505.18	65.54
505.36	65.54
505.53	44.47
505.71	18.72
505.88	63.19
506.06	107.66
506.23	35.11
506.41	0.00
506.58	0.00
506.76	117.03
506.93	7.02
507.11	77.24
507.28	95.96
507.46	58.51
507.63	63.19
507.81	23.41
507.98	25.75
508.16	16.38
508.33	18.72
508.50	72.56
508.68	63.19
508.85	23.41
509.03	46.81
509.20	81.92
509.38	42.13
509.55	44.47
509.73	46.81
509.90	74.90
510.08	67.88
510.25	0.00
510.42	9.36
510.60	30.43
510.77	0.00
510.95	4.68
511.12	58.51
511.30	0.00
511.47	44.47
511.64	70.22
511.82	18.72
511.99	14.04
512.17	63.19
512.34	100.64
512.51	81.92
512.69	30.43
512.86	0.00
513.04	0.00
513.21	49.15
513.38	51.49
513.56	7.02
513.73	32.77
513.90	74.90
514.08	7.02
514.25	117.03
514.43	63.19
514.60	0.00
514.77	91.28
514.95	74.90
515.12	51.49
515.29	0.00
515.47	51.49
515.64	77.24
515.81	35.11
515.99	63.19
516.16	88.94
516.33	93.62
516.51	0.00
516.68	74.90
516.85	0.00
517.03	16.38
517.20	9.36
517.37	44.47
517.54	0.00
517.72	0.00
517.89	56.17
518.06	0.00
518.24	25.75
518.41	60.85
518.58	60.85
518.75	16.38
518.93	32.77
519.10	11.70
519.27	46.81
519.45	35.11
519.62	0.00
519.79	58.51
519.96	0.00
520.14	0.00
520.31	70.22
520.48	0.00
520.65	28.09
520.83	102.98
521.00	53.83
521.17	42.13
521.34	65.54
521.52	4.68
521.69	21.06
521.86	11.70
522.03	25.75
522.20	53.83
522.38	37.45
522.55	39.79
522.72	0.00
522.89	53.83
523.07	84.26
523.24	65.54
523.41	58.51
523.58	0.00
523.75	112.35
523.92	72.56
524.10	4.68
524.27	0.00
524.44	56.17
524.61	35.11
524.78	0.00
524.96	42.13
525.13	28.09
525.30	98.30
525.47	77.24
525.64	60.85
525.81	81.92
525.98	60.85
526.16	0.00
526.33	44.47
526.50	0.00
526.67	0.00
526.84	58.51
527.01	51.49
527.18	72.56
527.36	35.11
527.53	42.13
527.70	49.15
527.87	72.56
528.04	60.85
528.21	42.13
528.38	63.19
528.55	42.13
528.72	28.09
528.89	107.66
529.07	28.09
529.24	35.11
529.41	58.51
529.58	72.56
529.75	39.79
529.92	51.49
530.09	21.06
530.26	88.94
530.43	4.68
530.60	60.85
530.77	100.64
530.94	18.72
531.11	74.90
531.28	37.45
531.46	9.36
531.63	0.00
531.80	44.47
531.97	23.41
532.14	0.00
532.31	0.00
532.48	53.83
532.65	0.00
532.82	23.41
532.99	74.90
533.16	0.00
533.33	77.24
533.50	58.51
533.67	60.85
533.84	0.00
534.01	0.00
534.18	0.00
534.35	126.39
534.52	72.56
534.69	32.77
534.86	0.00
535.03	0.00
535.20	105.32
535.37	23.41
535.54	58.51
535.71	35.11
535.88	0.00
536.05	0.00
536.22	35.11
536.38	44.47
536.55	14.04
536.72	42.13
536.89	0.00
537.06	23.41
537.23	60.85
537.40	11.70
537.57	88.94
537.74	28.09
537.91	21.06
538.08	30.43
538.25	49.15
538.42	0.00
538.59	67.88
538.75	63.19
538.92	11.70
539.09	81.92
539.26	84.26
539.43	56.17
539.60	28.09
539.77	35.11
539.94	74.90
540.11	0.00
540.28	21.06
540.44	119.37
540.61	9.36
540.78	9.36
540.95	70.22
541.12	58.51
541.29	14.04
541.46	28.09
541.62	39.79
541.79	58.51
541.96	4.68
542.13	74.90
542.30	16.38
542.47	0.00
542.63	0.00
542.80	0.00
542.97	37.45
543.14	11.70
543.31	100.64
543.48	93.62
543.64	0.00
543.81	14.04
543.98	77.24
544.15	79.58
544.32	84.26
544.48	60.85
544.65	63.19
544.82	9.36
544.99	67.88
545.16	56.17
545.32	14.04
545.49	23.41
545.66	46.81
545.83	0.00
546.00	65.54
546.16	51.49
546.33	46.81
546.50	18.72
546.67	0.00
546.83	35.11
547.00	0.00
547.17	81.92
547.34	53.83
547.50	9.36
547.67	7.02
547.84	37.45
548.00	23.41
548.17	77.24
548.34	60.85
548.51	95.96
548.67	79.58
548.84	18.72
549.01	88.94
549.18	112.35
549.34	79.58
549.51	0.00
549.68	21.06
549.84	37.45
550.01	37.45
550.18	37.45
550.34	23.41
550.51	105.32
550.68	25.75
550.84	37.45
551.01	65.54
551.18	7.02
551.34	72.56
551.51	0.00
551.68	21.06
551.84	53.83
552.01	39.79
552.18	21.06
552.34	11.70
552.51	70.22
552.68	77.24
552.84	70.22
553.01	0.00
553.18	63.19
553.34	51.49
553.51	21.06
553.67	84.26
553.84	63.19
554.01	42.13
554.17	0.00
554.34	49.15
554.51	4.68
554.67	93.62
554.84	11.70
555.00	56.17
555.17	37.45
555.33	60.85
555.50	100.64
555.67	56.17
555.83	32.77
556.00	0.00
556.16	77.24
556.33	91.28
556.50	42.13
556.66	0.00
556.83	16.38
556.99	46.81
557.16	30.43
557.32	67.88
557.49	56.17
557.65	16.38
557.82	16.38
557.98	23.41
558.15	35.11
558.32	79.58
558.48	32.77
558.65	37.45
558.81	63.19
558.98	25.75
559.14	140.43
559.31	18.72
559.47	86.60
559.64	16.38
559.80	0.00
559.97	0.00
560.13	56.17
560.30	51.49
560.46	124.05
560.63	32.77
560.79	77.24
560.96	0.00
561.12	30.43
561.29	35.11
561.45	119.37
561.61	32.77
561.78	60.85
561.94	72.56
562.11	23.41
562.27	51.49
562.44	28.09
562.60	37.45
562.77	0.00
562.93	30.43
563.10	0.00
563.26	0.00
563.42	28.09
563.59	74.90
563.75	35.11
563.92	11.70
564.08	16.38
564.24	32.77
564.41	74.90
564.57	0.00
564.74	0.00
564.90	79.58
565.07	56.17
565.23	63.19
565.39	23.41
565.56	0.00
565.72	93.62
565.88	88.94
566.05	35.11
566.21	0.00
566.38	67.88
566.54	23.41
566.70	18.72
566.87	37.45
567.03	0.00
567.19	28.09
567.36	16.38
567.52	0.00
567.68	32.77
567.85	23.41
568.01	35.11
568.17	9.36
568.34	49.15
568.50	44.47
568.66	7.02
568.83	0.00
568.99	84.26
569.15	56.17
569.32	25.75
569.48	91.28
569.64	18.72
569.81	0.00
569.97	0.00
570.13	98.30
570.30	37.45
570.46	25.75
570.62	32.77
570.78	49.15
570.95	70.22
571.11	14.04
571.27	25.75
571.43	42.13
571.60	42.13
571.76	63.19
571.92	53.83
572.09	0.00
572.25	30.43
572.41	14.04
572.57	63.19
572.74	0.00
572.90	11.70
573.06	21.06
573.22	81.92
573.38	140.43
573.55	86.60
573.71	28.09
573.87	44.47
574.03	70.22
574.20	14.04
574.36	58.51
574.52	9.36
574.68	0.00
574.84	23.41
575.01	0.00
575.17	25.75
575.33	23.41
575.49	30.43
575.65	72.56
575.82	53.83
575.98	79.58
576.14	63.19
576.30	44.47
576.46	93.62
576.62	60.85
576.79	44.47
576.95	0.00
577.11	37.45
577.27	63.19
577.43	95.96
577.59	30.43
577.75	74.90
577.92	79.58
578.08	28.09
578.24	70.22
578.40	18.72
578.56	84.26
578.72	138.09
578.88	67.88
579.04	65.54
579.21	0.00
579.37	65.54
579.53	51.49
579.69	63.19
579.85	16.38
580.01	56.17
580.17	46.81
580.33	51.49
580.49	39.79
580.65	25.75
580.82	72.56
580.98	35.11
581.14	7.02
581.30	25.75
581.46	18.72
581.62	0.00
581.78	42.13
581.94	74.90
582.10	25.75
582.26	0.00
582.42	42.13
582.58	84.26
582.74	46.81
582.90	49.15
583.06	65.54
583.22	7.02
583.38	16.38
583.54	11.70
583.70	25.75
583.86	42.13
584.02	30.43
584.18	14.04
584.34	42.13
584.50	28.09
584.66	91.28
584.82	112.35
584.98	70.22
585.14	154.48
585.30	138.09
585.46	51.49
585.62	30.43
585.78	95.96
585.94	112.35
586.10	107.66
586.26	70.22
586.42	25.75
586.58	0.00
586.74	67.88
586.90	60.85
587.06	14.04
587.22	9.36
587.38	16.38
587.54	35.11
587.70	14.04
587.86	72.56
588.02	21.06
588.18	32.77
588.34	21.06
588.49	107.66
588.65	46.81
588.81	11.70
588.97	9.36
589.13	35.11
589.29	72.56
589.45	81.92
589.61	35.11
589.77	60.85
589.93	32.77
590.08	46.81
590.24	51.49
590.40	0.00
590.56	60.85
590.72	60.85
590.88	100.64
591.04	0.00
591.20	0.00
591.35	32.77
591.51	51.49
591.67	79.58
591.83	84.26
591.99	42.13
592.15	60.85
592.31	37.45
592.46	65.54
592.62	46.81
592.78	37.45
592.94	14.04
593.10	35.11
593.26	0.00
593.41	51.49
593.57	21.06
593.73	91.28
593.89	112.35
594.05	16.38
594.20	93.62
594.36	119.37
594.52	35.11
594.68	72.56
594.84	77.24
594.99	110.01
595.15	18.72
595.31	4.68
595.47	51.49
595.62	56.17
595.78	0.00
595.94	28.09
596.10	77.24
596.25	0.00
596.41	0.00
596.57	72.56
596.73	0.00
596.88	77.24
597.04	21.06
597.20	37.45
597.36	65.54
597.51	9.36
597.67	0.00
597.83	53.83
597.99	4.68
598.14	0.00
598.30	28.09
598.46	51.49
598.61	14.04
598.77	49.15
598.93	74.90
599.09	0.00
599.24	79.58
599.40	0.00
599.56	42.13
599.71	0.00
599.87	65.54
600.03	53.83
600.18	49.15
600.34	72.56
600.50	0.00
600.65	46.81
600.81	0.00
600.97	49.15
601.12	0.00
601.28	35.11
601.44	30.43
601.59	21.06
601.75	91.28
601.91	63.19
602.06	46.81
602.22	95.96
602.37	30.43
602.53	46.81
602.69	67.88
602.84	0.00
603.00	86.60
603.16	14.04
603.31	4.68
603.47	28.09
603.62	4.68
603.78	7.02
603.94	0.00
604.09	46.81
604.25	42.13
604.40	58.51
604.56	58.51
604.71	60.85
604.87	0.00
605.03	51.49
605.18	11.70
605.34	9.36
605.49	18.72
605.65	46.81
605.80	128.73
605.96	0.00
606.12	63.19
606.27	44.47
606.43	0.00
606.58	44.47
606.74	79.58
606.89	84.26
607.05	32.77
607.20	7.02
607.36	65.54
607.51	98.30
607.67	14.04
607.82	0.00
607.98	23.41
608.13	4.68
608.29	49.15
608.44	60.85
608.60	74.90
608.75	105.32
608.91	37.45
609.06	23.41
609.22	30.43
609.37	102.98
609.53	107.66
609.68	32.77
609.84	65.54
609.99	30.43
610.15	88.94
610.30	93.62
610.46	51.49
610.61	51.49
610.76	65.54
610.92	60.85
611.07	42.13
611.23	51.49
611.38	0.00
611.54	35.11
611.69	0.00
611.84	30.43
612.00	21.06
612.15	58.51
612.31	0.00
612.46	21.06
612.62	0.00
612.77	140.43
612.92	77.24
613.08	25.75
613.23	23.41
613.39	0.00
613.54	2.34
613.69	42.13
613.85	95.96
614.00	58.51
614.15	65.54
614.31	74.90
614.46	63.19
614.62	23.41
614.77	84.26
614.92	11.70
615.08	11.70
615.23	67.88
615.38	53.83
615.54	49.15
615.69	46.81
615.84	4.68
616.00	56.17
616.15	0.00
616.30	81.92
616.46	35.11
616.61	32.77
616.76	14.04
616.92	16.38
617.07	0.00
617.22	14.04
617.37	0.00
617.53	53.83
617.68	110.01
617.83	37.45
617.99	0.00
618.14	93.62
618.29	88.94
618.45	46.81
618.60	49.15
618.75	88.94
618.90	30.43
619.06	105.32
619.21	16.38
619.36	16.38
619.51	39.79
619.67	35.11
619.82	9.36
619.97	63.19
620.12	0.00
620.28	9.36
620.43	84.26
620.58	70.22
620.73	56.17
620.89	39.79
621.04	51.49
621.19	53.83
621.34	28.09
621.49	51.49
621.65	46.81
621.80	84.26
621.95	18.72
622.10	53.83
622.25	46.81
622.41	0.00
622.56	18.72
622.71	0.00
622.86	67.88
623.01	30.43
623.16	16.38
623.32	44.47
623.47	0.00
623.62	0.00
623.77	25.75
623.92	0.00
624.07	0.00
624.23	30.43
624.38	39.79
624.53	39.79
624.68	63.19
624.83	25.75
624.98	77.24
625.13	39.79
625.29	0.00
625.44	56.17
625.59	2.34
625.74	30.43
625.89	23.41
626.04	0.00
626.19	72.56
626.34	112.35
626.49	81.92
626.65	77.24
626.80	56.17
626.95	81.92
627.10	42.13
627.25	0.00
627.40	16.38
627.55	4.68
627.70	102.98
627.85	0.00
628.00	4.68
628.15	86.60
628.30	14.04
628.45	32.77
628.60	11.70
628.76	37.45
628.91	14.04
629.06	9.36
629.21	72.56
629.36	77.24
629.51	84.26
629.66	149.79
629.81	74.90
629.96	35.11
630.11	18.72
630.26	49.15
630.41	60.85
630.56	35.11
630.71	23.41
630.86	53.83
631.01	39.79
631.16	9.36
631.31	28.09
631.46	0.00
631.61	63.19
631.76	11.70
631.91	58.51
632.06	42.13
632.21	42.13
632.36	51.49
632.51	100.64
632.66	4.68
632.81	65.54
632.96	0.00
633.10	46.81
633.25	67.88
633.40	14.04
633.55	28.09
633.70	2.34
633.85	18.72
634.00	28.09
634.15	28.09
634.30	35.11
634.45	11.70
634.60	25.75
634.75	4.68
634.90	131.07
635.05	4.68
635.19	74.90
635.34	56.17
635.49	60.85
635.64	35.11
635.79	9.36
635.94	74.90
636.09	25.75
636.24	44.47
636.39	42.13
636.53	37.45
636.68	11.70
636.83	60.85
636.98	23.41
637.13	0.00
637.28	0.00
637.43	18.72
637.57	98.30
637.72	74.90
637.87	42.13
638.02	72.56
638.17	81.92
638.32	32.77
638.46	58.51
638.61	7.02
638.76	81.92
638.91	30.43
639.06	53.83
639.20	23.41
639.35	9.36
639.50	35.11
639.65	63.19
639.80	65.54
639.94	79.58
640.09	79.58
640.24	0.00
640.39	72.56
640.54	32.77
640.68	4.68
640.83	16.38
640.98	46.81
641.13	0.00
641.27	35.11
641.42	0.00
641.57	51.49
641.72	9.36
641.86	58.51
642.01	51.49
642.16	63.19
642.31	49.15
642.45	21.06
642.60	58.51
642.75	23.41
642.90	86.60
643.04	84.26
643.19	39.79
643.34	4.68
643.48	11.70
643.63	74.90
643.78	46.81
643.93	49.15
644.07	56.17
644.22	2.34
644.37	23.41
644.51	14.04
644.66	58.51
644.81	28.09
644.95	28.09
645.10	84.26
645.25	0.00
645.39	53.83
645.54	110.01
645.69	39.79
645.83	95.96
645.98	74.90
646.13	117.03
646.27	77.24
646.42	84.26
646.57	11.70
646.71	0.00
646.86	51.49
647.00	25.75
647.15	0.00
647.30	65.54
647.44	35.11
647.59	7.02
647.74	56.17
647.88	67.88
648.03	23.41
648.17	88.94
648.32	0.00
648.47	0.00
648.61	0.00
648.76	25.75
648.90	0.00
649.05	67.88
649.20	102.98
649.34	25.75
649.49	46.81
649.63	0.00
649.78	42.13
649.92	23.41
650.07	0.00
650.21	25.75
650.36	11.70
650.51	67.88
650.65	56.17
650.80	102.98
650.94	53.83
651.09	9.36
651.23	14.04
651.38	51.49
651.52	0.00
651.67	9.36
651.81	4.68
651.96	60.85
652.10	18.72
652.25	11.70
652.39	140.43
652.54	32.77
652.68	42.13
652.83	21.06
652.97	91.28
653.12	53.83
653.26	11.70
653.41	0.00
653.55	46.81
653.70	16.38
653.84	4.68
653.99	2.34
654.13	63.19
654.27	0.00
654.42	2.34
654.56	4.68
654.71	0.00
654.85	72.56
655.00	4.68
655.14	0.00
655.29	42.13
655.43	0.00
655.57	2.34
655.72	0.00
655.86	0.00
656.01	25.75
656.15	56.17
656.30	60.85
656.44	67.88
656.58	28.09
656.73	72.56
656.87	84.26
657.01	63.19
657.16	107.66
657.30	0.00
657.45	0.00
657.59	53.83
657.73	28.09
657.88	4.68
658.02	67.88
658.16	0.00
658.31	0.00
658.45	0.00
658.60	0.00
658.74	86.60
658.88	23.41
659.03	35.11
659.17	42.13
659.31	11.70
659.46	32.77
659.60	0.00
659.74	30.43
659.89	53.83
660.03	9.36
660.17	18.72
660.32	39.79
660.46	0.00
660.60	44.47
660.74	9.36
660.89	0.00
661.03	42.13
661.17	46.81
661.32	91.28
661.46	0.00
661.60	65.54
661.74	63.19
661.89	4.68
662.03	44.47
662.17	37.45
662.31	98.30
662.46	42.13
662.60	0.00
662.74	16.38
662.88	72.56
663.03	4.68
663.17	84.26
663.31	56.17
663.45	56.17
663.60	81.92
663.74	11.70
663.88	0.00
664.02	39.79
664.17	16.38
664.31	0.00
664.45	49.15
664.59	0.00
664.73	0.00
664.88	30.43
665.02	0.00
665.16	0.00
665.30	105.32
665.44	63.19
665.59	46.81
665.73	18.72
665.87	51.49
666.01	56.17
666.15	0.00
666.29	18.72
666.44	72.56
666.58	39.79
666.72	49.15
666.86	88.94
667.00	81.92
667.14	30.43
667.28	35.11
667.43	0.00
667.57	79.58
667.71	42.13
667.85	51.49
667.99	25.75
668.13	0.00
668.27	84.26
668.41	133.41
668.56	105.32
668.70	0.00
668.84	81.92
668.98	32.77
669.12	30.43
669.26	23.41
669.40	0.00
669.54	9.36
669.68	86.60
669.82	53.83
669.96	32.77
670.10	46.81
670.25	32.77
670.39	2.34
670.53	21.06
670.67	79.58
670.81	0.00
670.95	30.43
671.09	49.15
671.23	112.35
671.37	105.32
671.51	56.17
671.65	58.51
671.79	72.56
671.93	58.51
672.07	81.92
672.21	7.02
672.35	14.04
672.49	0.00
672.63	9.36
672.77	114.69
672.91	0.00
673.05	67.88
673.19	2.34
673.33	25.75
673.47	0.00
673.61	25.75
673.75	110.01
673.89	51.49
674.03	0.00
674.17	60.85
674.31	28.09
674.45	70.22
674.59	98.30
674.73	95.96
674.87	100.64
675.01	72.56
675.15	28.09
675.29	0.00
675.43	25.75
675.56	42.13
675.70	18.72
675.84	23.41
675.98	25.75
676.12	58.51
676.26	32.77
676.40	70.22
676.54	37.45
676.68	0.00
676.82	74.90
676.96	60.85
677.10	4.68
677.23	0.00
677.37	28.09
677.51	77.24
677.65	117.03
677.79	72.56
677.93	46.81
678.07	88.94
678.21	21.06
678.34	74.90
678.48	51.49
678.62	0.00
678.76	53.83
678.90	112.35
679.04	39.79
679.18	0.00
679.31	0.00
679.45	0.00
679.59	51.49
679.73	46.81
679.87	0.00
680.00	39.79
680.14	18.72
680.28	107.66
680.42	56.17
680.56	23.41
680.70	39.79
680.83	0.00
680.97	0.00
681.11	28.09
681.25	102.98
681.39	0.00
681.52	18.72
681.66	32.77
681.80	56.17
681.94	35.11
682.07	7.02
682.21	77.24
682.35	42.13
682.49	67.88
682.62	25.75
682.76	28.09
682.90	86.60
683.04	67.88
683.17	23.41
683.31	91.28
683.45	21.06
683.59	28.09
683.72	0.00
683.86	93.62
684.00	0.00
684.13	9.36
684.27	0.00
684.41	37.45
684.55	0.00
684.68	0.00
684.82	44.47
684.96	23.41
685.09	4.68
685.23	28.09
685.37	0.00
685.50	11.70
685.64	32.77
685.78	16.38
685.91	0.00
686.05	30.43
686.19	0.00
686.32	86.60
686.46	28.09
686.60	0.00
686.73	0.00
686.87	39.79
687.01	28.09
687.14	0.00
687.28	74.90
687.42	46.81
687.55	0.00
687.69	0.00
687.82	42.13
687.96	65.54
688.10	95.96
688.23	30.43
688.37	9.36
688.50	44.47
688.64	0.00
688.78	0.00
688.91	39.79
689.05	21.06
689.18	0.00
689.32	70.22
689.46	35.11
689.59	14.04
689.73	0.00
689.86	7.02
690.00	49.15
690.13	0.00
690.27	51.49
690.41	0.00
690.54	67.88
690.68	25.75
690.81	7.02
690.95	11.70
691.08	42.13
691.22	0.00
691.35	56.17
691.49	0.00
691.62	32.77
691.76	9.36
691.89	11.70
692.03	53.83
692.16	0.00
692.30	77.24
692.43	0.00
692.57	21.06
692.70	37.45
692.84	9.36
692.97	105.32
693.11	23.41
693.24	124.05
693.38	37.45
693.51	0.00
693.65	44.47
693.78	30.43
693.92	37.45
694.05	70.22
694.19	0.00
694.32	21.06
694.45	16.38
694.59	0.00
694.72	56.17
694.86	121.71
694.99	30.43
695.13	11.70
695.26	7.02
695.39	11.70
695.53	72.56
695.66	74.90
695.80	121.71
695.93	0.00
696.07	0.00
696.20	35.11
696.33	72.56
696.47	58.51
696.60	0.00
696.73	65.54
696.87	32.77
697.00	4.68
697.14	93.62
697.27	65.54
697.40	35.11
697.54	0.00
697.67	4.68
697.80	0.00
697.94	0.00
698.07	0.00
698.21	4.68
698.34	30.43
698.47	0.00
698.61	39.79
698.74	0.00
698.87	53.83
699.01	39.79
699.14	58.51
699.27	42.13
699.40	72.56
699.54	25.75
699.67	46.81
699.80	53.83
699.94	0.00
700.07	18.72
700.20	0.00
700.34	0.00
700.47	0.00
700.60	37.45
700.73	0.00
700.87	0.00
701.00	35.11
701.13	14.04
701.26	131.07
701.40	7.02
701.53	16.38
701.66	46.81
701.79	70.22
701.93	23.41
702.06	4.68
702.19	25.75
702.32	0.00
702.46	28.09
702.59	98.30
702.72	18.72
702.85	60.85
702.99	65.54
703.12	119.37
703.25	7.02
703.38	32.77
703.51	65.54
703.65	42.13
703.78	70.22
703.91	21.06
704.04	0.00
704.17	21.06
704.31	23.41
704.44	25.75
704.57	51.49
704.70	74.90
704.83	18.72
704.96	0.00
705.10	28.09
705.23	72.56
>>>>>End Processed Spectral Data<<<<<
