SpectraSuite Data File
++++++++++++++++++++++++++++++++++++
Date: Fri Oct 04 12:13:39 GMT-05:00 2013
User: price-jones
Dark Spectrum Present: No
Reference Spectrum Present: No
Number of Sampled Component Spectra: 1
Spectrometers: USB2+H05261
Integration Time (usec): 10000 (USB2+H05261)
Spectra Averaged: 1 (USB2+H05261)
Boxcar Smoothing: 0 (USB2+H05261)
Correct for Electrical Dark: No (USB2+H05261)
Strobe/Lamp Enabled: No (USB2+H05261)
Correct for Detector Non-linearity: No (USB2+H05261)
Correct for Stray Light: No (USB2+H05261)
Number of Pixels in Processed Spectrum: 2048
>>>>>Begin Processed Spectral Data<<<<<
365.73	74.90
365.92	74.90
366.12	74.90
366.32	0.00
366.52	0.00
366.72	0.00
366.91	0.00
367.11	0.00
367.31	0.00
367.51	0.00
367.70	0.00
367.90	0.00
368.10	0.00
368.30	0.00
368.49	0.00
368.69	0.00
368.89	0.00
369.09	0.00
369.28	0.00
369.48	0.00
369.68	0.00
369.87	0.00
370.07	0.00
370.27	0.00
370.47	0.00
370.66	2.34
370.86	0.00
371.06	23.41
371.25	0.00
371.45	0.00
371.65	0.00
371.84	0.00
372.04	0.00
372.24	0.00
372.44	7.02
372.63	0.00
372.83	28.09
373.03	11.70
373.22	70.22
373.42	81.92
373.62	16.38
373.81	56.17
374.01	53.83
374.21	74.90
374.40	70.22
374.60	0.00
374.79	2.34
374.99	16.38
375.19	53.83
375.38	16.38
375.58	18.72
375.78	114.69
375.97	32.77
376.17	0.00
376.37	0.00
376.56	4.68
376.76	0.00
376.95	58.51
377.15	0.00
377.35	9.36
377.54	23.41
377.74	79.58
377.93	0.00
378.13	44.47
378.33	30.43
378.52	18.72
378.72	35.11
378.91	70.22
379.11	35.11
379.31	35.11
379.50	0.00
379.70	14.04
379.89	63.19
380.09	0.00
380.28	0.00
380.48	0.00
380.68	86.60
380.87	0.00
381.07	0.00
381.26	88.94
381.46	88.94
381.65	9.36
381.85	0.00
382.04	56.17
382.24	28.09
382.43	14.04
382.63	67.88
382.83	16.38
383.02	7.02
383.22	74.90
383.41	0.00
383.61	0.00
383.80	58.51
384.00	30.43
384.19	7.02
384.39	23.41
384.58	72.56
384.78	0.00
384.97	0.00
385.17	16.38
385.36	0.00
385.56	23.41
385.75	23.41
385.95	28.09
386.14	46.81
386.34	28.09
386.53	51.49
386.72	0.00
386.92	0.00
387.11	44.47
387.31	0.00
387.50	81.92
387.70	0.00
387.89	0.00
388.09	37.45
388.28	0.00
388.48	2.34
388.67	0.00
388.86	44.47
389.06	0.00
389.25	84.26
389.45	0.00
389.64	0.00
389.84	4.68
390.03	0.00
390.22	53.83
390.42	0.00
390.61	0.00
390.81	63.19
391.00	70.22
391.19	72.56
391.39	39.79
391.58	65.54
391.78	7.02
391.97	16.38
392.16	67.88
392.36	30.43
392.55	46.81
392.75	21.06
392.94	91.28
393.13	37.45
393.33	11.70
393.52	39.79
393.71	39.79
393.91	2.34
394.10	35.11
394.29	30.43
394.49	4.68
394.68	21.06
394.88	67.88
395.07	0.00
395.26	0.00
395.46	0.00
395.65	74.90
395.84	23.41
396.04	0.00
396.23	16.38
396.42	70.22
396.62	23.41
396.81	56.17
397.00	60.85
397.19	0.00
397.39	14.04
397.58	65.54
397.77	0.00
397.97	0.00
398.16	25.75
398.35	70.22
398.55	0.00
398.74	0.00
398.93	23.41
399.12	7.02
399.32	0.00
399.51	0.00
399.70	9.36
399.90	21.06
400.09	81.92
400.28	46.81
400.47	14.04
400.67	21.06
400.86	0.00
401.05	4.68
401.24	0.00
401.44	88.94
401.63	100.64
401.82	4.68
402.01	18.72
402.21	58.51
402.40	60.85
402.59	67.88
402.78	0.00
402.97	58.51
403.17	0.00
403.36	16.38
403.55	88.94
403.74	11.70
403.93	28.09
404.13	11.70
404.32	58.51
404.51	11.70
404.70	49.15
404.89	46.81
405.09	18.72
405.28	21.06
405.47	49.15
405.66	88.94
405.85	25.75
406.05	0.00
406.24	25.75
406.43	56.17
406.62	30.43
406.81	11.70
407.00	58.51
407.20	0.00
407.39	35.11
407.58	11.70
407.77	56.17
407.96	56.17
408.15	70.22
408.34	16.38
408.54	35.11
408.73	0.00
408.92	11.70
409.11	58.51
409.30	117.03
409.49	65.54
409.68	74.90
409.87	46.81
410.07	39.79
410.26	79.58
410.45	0.00
410.64	56.17
410.83	39.79
411.02	35.11
411.21	35.11
411.40	51.49
411.59	53.83
411.78	86.60
411.98	56.17
412.17	58.51
412.36	58.51
412.55	51.49
412.74	107.66
412.93	70.22
413.12	63.19
413.31	0.00
413.50	37.45
413.69	81.92
413.88	60.85
414.07	51.49
414.26	77.24
414.45	84.26
414.64	49.15
414.83	18.72
415.02	60.85
415.22	65.54
415.41	32.77
415.60	23.41
415.79	74.90
415.98	4.68
416.17	67.88
416.36	74.90
416.55	7.02
416.74	65.54
416.93	77.24
417.12	21.06
417.31	60.85
417.50	0.00
417.69	44.47
417.88	112.35
418.07	63.19
418.26	79.58
418.45	105.32
418.64	25.75
418.83	0.00
419.02	21.06
419.21	74.90
419.39	67.88
419.58	28.09
419.77	46.81
419.96	70.22
420.15	2.34
420.34	25.75
420.53	63.19
420.72	63.19
420.91	37.45
421.10	0.00
421.29	14.04
421.48	81.92
421.67	88.94
421.86	72.56
422.05	46.81
422.24	0.00
422.43	0.00
422.61	0.00
422.80	81.92
422.99	37.45
423.18	53.83
423.37	39.79
423.56	28.09
423.75	37.45
423.94	4.68
424.13	32.77
424.32	77.24
424.50	65.54
424.69	32.77
424.88	32.77
425.07	67.88
425.26	91.28
425.45	25.75
425.64	42.13
425.83	42.13
426.01	14.04
426.20	105.32
426.39	98.30
426.58	11.70
426.77	107.66
426.96	0.00
427.15	65.54
427.33	60.85
427.52	42.13
427.71	35.11
427.90	79.58
428.09	11.70
428.28	18.72
428.46	79.58
428.65	18.72
428.84	25.75
429.03	14.04
429.22	53.83
429.40	30.43
429.59	28.09
429.78	72.56
429.97	42.13
430.16	91.28
430.34	91.28
430.53	0.00
430.72	16.38
430.91	11.70
431.10	25.75
431.28	67.88
431.47	0.00
431.66	23.41
431.85	56.17
432.03	0.00
432.22	56.17
432.41	2.34
432.60	0.00
432.79	51.49
432.97	23.41
433.16	25.75
433.35	42.13
433.54	58.51
433.72	42.13
433.91	28.09
434.10	72.56
434.28	7.02
434.47	58.51
434.66	58.51
434.85	60.85
435.03	126.39
435.22	53.83
435.41	81.92
435.59	30.43
435.78	84.26
435.97	65.54
436.16	56.17
436.34	74.90
436.53	77.24
436.72	105.32
436.90	16.38
437.09	25.75
437.28	60.85
437.46	60.85
437.65	128.73
437.84	60.85
438.02	95.96
438.21	58.51
438.40	51.49
438.58	0.00
438.77	60.85
438.96	21.06
439.14	63.19
439.33	49.15
439.52	35.11
439.70	58.51
439.89	88.94
440.08	86.60
440.26	44.47
440.45	37.45
440.63	28.09
440.82	0.00
441.01	46.81
441.19	72.56
441.38	98.30
441.57	91.28
441.75	7.02
441.94	117.03
442.12	74.90
442.31	7.02
442.50	49.15
442.68	51.49
442.87	11.70
443.05	18.72
443.24	9.36
443.43	0.00
443.61	9.36
443.80	100.64
443.98	37.45
444.17	93.62
444.35	42.13
444.54	51.49
444.73	56.17
444.91	77.24
445.10	44.47
445.28	84.26
445.47	51.49
445.65	46.81
445.84	79.58
446.02	95.96
446.21	77.24
446.39	46.81
446.58	58.51
446.77	32.77
446.95	93.62
447.14	56.17
447.32	74.90
447.51	53.83
447.69	44.47
447.88	79.58
448.06	28.09
448.25	107.66
448.43	65.54
448.62	25.75
448.80	44.47
448.99	107.66
449.17	32.77
449.36	46.81
449.54	37.45
449.73	21.06
449.91	42.13
450.10	131.07
450.28	32.77
450.46	18.72
450.65	84.26
450.83	102.98
451.02	67.88
451.20	91.28
451.39	18.72
451.57	37.45
451.76	81.92
451.94	46.81
452.13	70.22
452.31	77.24
452.49	93.62
452.68	37.45
452.86	7.02
453.05	67.88
453.23	23.41
453.42	35.11
453.60	91.28
453.78	44.47
453.97	60.85
454.15	102.98
454.34	74.90
454.52	72.56
454.70	98.30
454.89	72.56
455.07	88.94
455.26	49.15
455.44	79.58
455.62	133.41
455.81	67.88
455.99	28.09
456.17	74.90
456.36	98.30
456.54	0.00
456.73	23.41
456.91	23.41
457.09	44.47
457.28	135.75
457.46	9.36
457.64	117.03
457.83	28.09
458.01	23.41
458.19	18.72
458.38	42.13
458.56	4.68
458.74	39.79
458.93	56.17
459.11	23.41
459.29	32.77
459.48	14.04
459.66	77.24
459.84	70.22
460.03	91.28
460.21	51.49
460.39	30.43
460.57	91.28
460.76	67.88
460.94	58.51
461.12	77.24
461.31	46.81
461.49	2.34
461.67	58.51
461.85	128.73
462.04	37.45
462.22	58.51
462.40	9.36
462.59	56.17
462.77	44.47
462.95	79.58
463.13	70.22
463.32	70.22
463.50	95.96
463.68	25.75
463.86	74.90
464.05	0.00
464.23	39.79
464.41	77.24
464.59	67.88
464.78	0.00
464.96	117.03
465.14	0.00
465.32	37.45
465.50	77.24
465.69	88.94
465.87	16.38
466.05	58.51
466.23	23.41
466.41	65.54
466.60	42.13
466.78	0.00
466.96	46.81
467.14	49.15
467.32	0.00
467.51	91.28
467.69	39.79
467.87	79.58
468.05	37.45
468.23	63.19
468.41	44.47
468.60	63.19
468.78	53.83
468.96	51.49
469.14	117.03
469.32	30.43
469.50	18.72
469.69	51.49
469.87	42.13
470.05	77.24
470.23	84.26
470.41	70.22
470.59	58.51
470.77	95.96
470.95	102.98
471.14	79.58
471.32	0.00
471.50	81.92
471.68	88.94
471.86	0.00
472.04	88.94
472.22	56.17
472.40	35.11
472.58	58.51
472.77	16.38
472.95	65.54
473.13	102.98
473.31	84.26
473.49	0.00
473.67	88.94
473.85	37.45
474.03	46.81
474.21	56.17
474.39	88.94
474.57	77.24
474.75	7.02
474.93	37.45
475.12	16.38
475.30	98.30
475.48	79.58
475.66	65.54
475.84	51.49
476.02	70.22
476.20	37.45
476.38	117.03
476.56	7.02
476.74	44.47
476.92	112.35
477.10	0.00
477.28	72.56
477.46	30.43
477.64	28.09
477.82	60.85
478.00	81.92
478.18	28.09
478.36	77.24
478.54	7.02
478.72	128.73
478.90	58.51
479.08	72.56
479.26	100.64
479.44	35.11
479.62	70.22
479.80	16.38
479.98	63.19
480.16	39.79
480.34	0.00
480.52	46.81
480.70	102.98
480.88	39.79
481.06	58.51
481.24	32.77
481.41	126.39
481.59	16.38
481.77	44.47
481.95	79.58
482.13	42.13
482.31	70.22
482.49	114.69
482.67	98.30
482.85	25.75
483.03	16.38
483.21	56.17
483.39	95.96
483.57	32.77
483.74	110.01
483.92	79.58
484.10	81.92
484.28	119.37
484.46	35.11
484.64	49.15
484.82	25.75
485.00	70.22
485.18	67.88
485.35	51.49
485.53	102.98
485.71	67.88
485.89	67.88
486.07	30.43
486.25	65.54
486.43	72.56
486.61	105.32
486.78	56.17
486.96	39.79
487.14	72.56
487.32	39.79
487.50	67.88
487.68	70.22
487.85	32.77
488.03	126.39
488.21	32.77
488.39	21.06
488.57	44.47
488.75	147.45
488.92	91.28
489.10	72.56
489.28	114.69
489.46	105.32
489.64	58.51
489.81	67.88
489.99	0.00
490.17	39.79
490.35	77.24
490.53	70.22
490.70	60.85
490.88	42.13
491.06	28.09
491.24	77.24
491.41	84.26
491.59	35.11
491.77	58.51
491.95	30.43
492.13	70.22
492.30	56.17
492.48	79.58
492.66	63.19
492.84	42.13
493.01	147.45
493.19	30.43
493.37	119.37
493.54	114.69
493.72	95.96
493.90	67.88
494.08	98.30
494.25	16.38
494.43	23.41
494.61	128.73
494.79	42.13
494.96	86.60
495.14	138.09
495.32	42.13
495.49	112.35
495.67	135.75
495.85	79.58
496.02	105.32
496.20	51.49
496.38	35.11
496.55	18.72
496.73	74.90
496.91	30.43
497.09	84.26
497.26	67.88
497.44	84.26
497.62	51.49
497.79	60.85
497.97	145.11
498.14	35.11
498.32	128.73
498.50	81.92
498.67	67.88
498.85	95.96
499.03	114.69
499.20	49.15
499.38	86.60
499.56	60.85
499.73	79.58
499.91	35.11
500.08	98.30
500.26	98.30
500.44	67.88
500.61	102.98
500.79	7.02
500.97	28.09
501.14	72.56
501.32	46.81
501.49	98.30
501.67	63.19
501.84	142.77
502.02	81.92
502.20	86.60
502.37	37.45
502.55	105.32
502.72	58.51
502.90	112.35
503.07	98.30
503.25	53.83
503.43	119.37
503.60	28.09
503.78	74.90
503.95	91.28
504.13	79.58
504.30	107.66
504.48	140.43
504.65	60.85
504.83	58.51
505.01	77.24
505.18	67.88
505.36	63.19
505.53	65.54
505.71	51.49
505.88	56.17
506.06	44.47
506.23	102.98
506.41	95.96
506.58	126.39
506.76	70.22
506.93	23.41
507.11	88.94
507.28	128.73
507.46	159.16
507.63	65.54
507.81	32.77
507.98	72.56
508.16	133.41
508.33	133.41
508.50	84.26
508.68	128.73
508.85	70.22
509.03	63.19
509.20	93.62
509.38	46.81
509.55	21.06
509.73	63.19
509.90	138.09
510.08	0.00
510.25	65.54
510.42	9.36
510.60	86.60
510.77	77.24
510.95	44.47
511.12	72.56
511.30	67.88
511.47	60.85
511.64	135.75
511.82	135.75
511.99	14.04
512.17	65.54
512.34	46.81
512.51	105.32
512.69	102.98
512.86	51.49
513.04	135.75
513.21	81.92
513.38	135.75
513.56	44.47
513.73	42.13
513.90	53.83
514.08	72.56
514.25	117.03
514.43	100.64
514.60	117.03
514.77	138.09
514.95	177.88
515.12	42.13
515.29	0.00
515.47	124.05
515.64	81.92
515.81	39.79
515.99	105.32
516.16	65.54
516.33	65.54
516.51	88.94
516.68	79.58
516.85	11.70
517.03	32.77
517.20	0.00
517.37	65.54
517.54	32.77
517.72	84.26
517.89	32.77
518.06	133.41
518.24	58.51
518.41	98.30
518.58	86.60
518.75	131.07
518.93	42.13
519.10	65.54
519.27	98.30
519.45	135.75
519.62	93.62
519.79	77.24
519.96	72.56
520.14	138.09
520.31	149.79
520.48	128.73
520.65	138.09
520.83	112.35
521.00	63.19
521.17	56.17
521.34	112.35
521.52	0.00
521.69	107.66
521.86	44.47
522.03	147.45
522.20	84.26
522.38	63.19
522.55	18.72
522.72	100.64
522.89	128.73
523.07	128.73
523.24	46.81
523.41	11.70
523.58	117.03
523.75	86.60
523.92	72.56
524.10	70.22
524.27	39.79
524.44	110.01
524.61	88.94
524.78	84.26
524.96	88.94
525.13	2.34
525.30	91.28
525.47	107.66
525.64	145.11
525.81	0.00
525.98	58.51
526.16	105.32
526.33	58.51
526.50	79.58
526.67	102.98
526.84	142.77
527.01	49.15
527.18	49.15
527.36	84.26
527.53	67.88
527.70	121.71
527.87	107.66
528.04	81.92
528.21	49.15
528.38	107.66
528.55	74.90
528.72	93.62
528.89	114.69
529.07	95.96
529.24	102.98
529.41	117.03
529.58	100.64
529.75	95.96
529.92	117.03
530.09	72.56
530.26	131.07
530.43	91.28
530.60	124.05
530.77	147.45
530.94	9.36
531.11	84.26
531.28	112.35
531.46	18.72
531.63	126.39
531.80	124.05
531.97	67.88
532.14	79.58
532.31	84.26
532.48	100.64
532.65	70.22
532.82	117.03
532.99	86.60
533.16	53.83
533.33	74.90
533.50	131.07
533.67	81.92
533.84	98.30
534.01	100.64
534.18	72.56
534.35	74.90
534.52	77.24
534.69	105.32
534.86	44.47
535.03	117.03
535.20	84.26
535.37	74.90
535.54	107.66
535.71	117.03
535.88	63.19
536.05	77.24
536.22	46.81
536.38	79.58
536.55	105.32
536.72	126.39
536.89	72.56
537.06	49.15
537.23	65.54
537.40	28.09
537.57	79.58
537.74	51.49
537.91	42.13
538.08	112.35
538.25	56.17
538.42	107.66
538.59	63.19
538.75	124.05
538.92	100.64
539.09	0.00
539.26	93.62
539.43	46.81
539.60	135.75
539.77	147.45
539.94	77.24
540.11	135.75
540.28	51.49
540.44	46.81
540.61	0.00
540.78	147.45
540.95	28.09
541.12	74.90
541.29	133.41
541.46	14.04
541.62	11.70
541.79	126.39
541.96	91.28
542.13	124.05
542.30	95.96
542.47	79.58
542.63	119.37
542.80	100.64
542.97	56.17
543.14	53.83
543.31	98.30
543.48	121.71
543.64	25.75
543.81	77.24
543.98	39.79
544.15	63.19
544.32	135.75
544.48	91.28
544.65	128.73
544.82	182.56
544.99	107.66
545.16	67.88
545.32	112.35
545.49	56.17
545.66	128.73
545.83	105.32
546.00	126.39
546.16	0.00
546.33	79.58
546.50	46.81
546.67	42.13
546.83	114.69
547.00	119.37
547.17	117.03
547.34	11.70
547.50	138.09
547.67	60.85
547.84	42.13
548.00	42.13
548.17	58.51
548.34	46.81
548.51	84.26
548.67	28.09
548.84	67.88
549.01	79.58
549.18	84.26
549.34	72.56
549.51	63.19
549.68	88.94
549.84	100.64
550.01	105.32
550.18	63.19
550.34	159.16
550.51	126.39
550.68	35.11
550.84	91.28
551.01	107.66
551.18	184.90
551.34	84.26
551.51	84.26
551.68	93.62
551.84	7.02
552.01	58.51
552.18	93.62
552.34	91.28
552.51	81.92
552.68	60.85
552.84	23.41
553.01	91.28
553.18	46.81
553.34	35.11
553.51	88.94
553.67	67.88
553.84	23.41
554.01	86.60
554.17	173.20
554.34	107.66
554.51	102.98
554.67	63.19
554.84	81.92
555.00	117.03
555.17	91.28
555.33	30.43
555.50	65.54
555.67	131.07
555.83	105.32
556.00	0.00
556.16	147.45
556.33	84.26
556.50	140.43
556.66	28.09
556.83	107.66
556.99	46.81
557.16	107.66
557.32	44.47
557.49	145.11
557.65	95.96
557.82	95.96
557.98	18.72
558.15	81.92
558.32	86.60
558.48	126.39
558.65	67.88
558.81	77.24
558.98	124.05
559.14	46.81
559.31	79.58
559.47	119.37
559.64	135.75
559.80	84.26
559.97	140.43
560.13	74.90
560.30	98.30
560.46	74.90
560.63	72.56
560.79	11.70
560.96	81.92
561.12	72.56
561.29	42.13
561.45	39.79
561.61	70.22
561.78	93.62
561.94	60.85
562.11	74.90
562.27	4.68
562.44	88.94
562.60	84.26
562.77	81.92
562.93	112.35
563.10	100.64
563.26	86.60
563.42	119.37
563.59	63.19
563.75	93.62
563.92	39.79
564.08	4.68
564.24	74.90
564.41	121.71
564.57	128.73
564.74	70.22
564.90	100.64
565.07	91.28
565.23	58.51
565.39	65.54
565.56	154.48
565.72	74.90
565.88	81.92
566.05	84.26
566.21	81.92
566.38	91.28
566.54	91.28
566.70	117.03
566.87	84.26
567.03	42.13
567.19	142.77
567.36	105.32
567.52	98.30
567.68	91.28
567.85	65.54
568.01	0.00
568.17	53.83
568.34	56.17
568.50	131.07
568.66	91.28
568.83	86.60
568.99	70.22
569.15	156.82
569.32	37.45
569.48	2.34
569.64	133.41
569.81	32.77
569.97	30.43
570.13	39.79
570.30	53.83
570.46	102.98
570.62	0.00
570.78	102.98
570.95	102.98
571.11	72.56
571.27	93.62
571.43	49.15
571.60	128.73
571.76	49.15
571.92	140.43
572.09	39.79
572.25	100.64
572.41	107.66
572.57	56.17
572.74	114.69
572.90	81.92
573.06	79.58
573.22	49.15
573.38	135.75
573.55	42.13
573.71	37.45
573.87	138.09
574.03	53.83
574.20	51.49
574.36	51.49
574.52	74.90
574.68	86.60
574.84	105.32
575.01	14.04
575.17	42.13
575.33	32.77
575.49	145.11
575.65	65.54
575.82	77.24
575.98	0.00
576.14	100.64
576.30	121.71
576.46	112.35
576.62	126.39
576.79	166.18
576.95	86.60
577.11	58.51
577.27	79.58
577.43	81.92
577.59	88.94
577.75	39.79
577.92	98.30
578.08	70.22
578.24	95.96
578.40	23.41
578.56	46.81
578.72	9.36
578.88	119.37
579.04	140.43
579.21	9.36
579.37	117.03
579.53	95.96
579.69	110.01
579.85	117.03
580.01	79.58
580.17	86.60
580.33	84.26
580.49	102.98
580.65	88.94
580.82	107.66
580.98	9.36
581.14	63.19
581.30	72.56
581.46	67.88
581.62	107.66
581.78	44.47
581.94	30.43
582.10	135.75
582.26	46.81
582.42	105.32
582.58	119.37
582.74	81.92
582.90	2.34
583.06	67.88
583.22	86.60
583.38	37.45
583.54	84.26
583.70	70.22
583.86	74.90
584.02	84.26
584.18	105.32
584.34	60.85
584.50	88.94
584.66	44.47
584.82	46.81
584.98	23.41
585.14	86.60
585.30	74.90
585.46	93.62
585.62	91.28
585.78	51.49
585.94	18.72
586.10	91.28
586.26	72.56
586.42	117.03
586.58	91.28
586.74	131.07
586.90	191.92
587.06	124.05
587.22	11.70
587.38	74.90
587.54	102.98
587.70	93.62
587.86	86.60
588.02	56.17
588.18	35.11
588.34	0.00
588.49	32.77
588.65	95.96
588.81	126.39
588.97	51.49
589.13	70.22
589.29	28.09
589.45	14.04
589.61	77.24
589.77	70.22
589.93	70.22
590.08	30.43
590.24	63.19
590.40	63.19
590.56	42.13
590.72	9.36
590.88	65.54
591.04	119.37
591.20	39.79
591.35	117.03
591.51	88.94
591.67	53.83
591.83	37.45
591.99	102.98
592.15	51.49
592.31	110.01
592.46	21.06
592.62	88.94
592.78	88.94
592.94	79.58
593.10	105.32
593.26	79.58
593.41	32.77
593.57	93.62
593.73	14.04
593.89	86.60
594.05	77.24
594.20	25.75
594.36	46.81
594.52	77.24
594.68	86.60
594.84	46.81
594.99	51.49
595.15	102.98
595.31	107.66
595.47	86.60
595.62	46.81
595.78	84.26
595.94	81.92
596.10	53.83
596.25	79.58
596.41	44.47
596.57	60.85
596.73	35.11
596.88	44.47
597.04	79.58
597.20	58.51
597.36	133.41
597.51	91.28
597.67	100.64
597.83	72.56
597.99	93.62
598.14	65.54
598.30	95.96
598.46	49.15
598.61	105.32
598.77	105.32
598.93	46.81
599.09	102.98
599.24	112.35
599.40	84.26
599.56	100.64
599.71	105.32
599.87	105.32
600.03	65.54
600.18	95.96
600.34	60.85
600.50	107.66
600.65	142.77
600.81	142.77
600.97	56.17
601.12	126.39
601.28	102.98
601.44	49.15
601.59	56.17
601.75	58.51
601.91	112.35
602.06	95.96
602.22	145.11
602.37	42.13
602.53	44.47
602.69	74.90
602.84	53.83
603.00	42.13
603.16	9.36
603.31	98.30
603.47	77.24
603.62	7.02
603.78	119.37
603.94	112.35
604.09	81.92
604.25	44.47
604.40	110.01
604.56	81.92
604.71	135.75
604.87	72.56
605.03	44.47
605.18	63.19
605.34	0.00
605.49	105.32
605.65	156.82
605.80	95.96
605.96	77.24
606.12	72.56
606.27	67.88
606.43	161.50
606.58	95.96
606.74	86.60
606.89	93.62
607.05	58.51
607.20	0.00
607.36	72.56
607.51	35.11
607.67	98.30
607.82	107.66
607.98	79.58
608.13	42.13
608.29	16.38
608.44	70.22
608.60	58.51
608.75	114.69
608.91	128.73
609.06	37.45
609.22	63.19
609.37	154.48
609.53	46.81
609.68	152.13
609.84	56.17
609.99	14.04
610.15	81.92
610.30	72.56
610.46	63.19
610.61	86.60
610.76	44.47
610.92	65.54
611.07	53.83
611.23	60.85
611.38	49.15
611.54	51.49
611.69	14.04
611.84	124.05
612.00	42.13
612.15	53.83
612.31	98.30
612.46	121.71
612.62	102.98
612.77	72.56
612.92	67.88
613.08	0.00
613.23	53.83
613.39	133.41
613.54	51.49
613.69	79.58
613.85	91.28
614.00	77.24
614.15	88.94
614.31	105.32
614.46	112.35
614.62	93.62
614.77	60.85
614.92	37.45
615.08	46.81
615.23	121.71
615.38	91.28
615.54	39.79
615.69	44.47
615.84	88.94
616.00	88.94
616.15	16.38
616.30	70.22
616.46	4.68
616.61	72.56
616.76	0.00
616.92	28.09
617.07	86.60
617.22	117.03
617.37	88.94
617.53	16.38
617.68	25.75
617.83	102.98
617.99	39.79
618.14	32.77
618.29	100.64
618.45	131.07
618.60	114.69
618.75	77.24
618.90	0.00
619.06	46.81
619.21	46.81
619.36	95.96
619.51	51.49
619.67	149.79
619.82	107.66
619.97	105.32
620.12	107.66
620.28	16.38
620.43	88.94
620.58	114.69
620.73	88.94
620.89	51.49
621.04	117.03
621.19	32.77
621.34	51.49
621.49	93.62
621.65	42.13
621.80	2.34
621.95	51.49
622.10	4.68
622.25	32.77
622.41	14.04
622.56	0.00
622.71	128.73
622.86	74.90
623.01	74.90
623.16	39.79
623.32	42.13
623.47	0.00
623.62	35.11
623.77	23.41
623.92	142.77
624.07	46.81
624.23	23.41
624.38	46.81
624.53	49.15
624.68	39.79
624.83	0.00
624.98	79.58
625.13	117.03
625.29	0.00
625.44	0.00
625.59	65.54
625.74	81.92
625.89	72.56
626.04	58.51
626.19	58.51
626.34	63.19
626.49	81.92
626.65	91.28
626.80	58.51
626.95	46.81
627.10	88.94
627.25	32.77
627.40	32.77
627.55	74.90
627.70	51.49
627.85	49.15
628.00	81.92
628.15	58.51
628.30	81.92
628.45	60.85
628.60	56.17
628.76	72.56
628.91	0.00
629.06	93.62
629.21	93.62
629.36	49.15
629.51	65.54
629.66	51.49
629.81	56.17
629.96	16.38
630.11	135.75
630.26	0.00
630.41	98.30
630.56	14.04
630.71	149.79
630.86	28.09
631.01	81.92
631.16	58.51
631.31	74.90
631.46	14.04
631.61	102.98
631.76	98.30
631.91	102.98
632.06	39.79
632.21	44.47
632.36	14.04
632.51	91.28
632.66	102.98
632.81	121.71
632.96	88.94
633.10	149.79
633.25	65.54
633.40	105.32
633.55	42.13
633.70	159.16
633.85	56.17
634.00	39.79
634.15	126.39
634.30	42.13
634.45	0.00
634.60	39.79
634.75	14.04
634.90	67.88
635.05	16.38
635.19	25.75
635.34	93.62
635.49	60.85
635.64	21.06
635.79	98.30
635.94	0.00
636.09	72.56
636.24	56.17
636.39	2.34
636.53	0.00
636.68	100.64
636.83	74.90
636.98	60.85
637.13	18.72
637.28	60.85
637.43	63.19
637.57	49.15
637.72	88.94
637.87	88.94
638.02	70.22
638.17	74.90
638.32	133.41
638.46	21.06
638.61	91.28
638.76	37.45
638.91	60.85
639.06	49.15
639.20	70.22
639.35	9.36
639.50	11.70
639.65	72.56
639.80	81.92
639.94	51.49
640.09	79.58
640.24	42.13
640.39	51.49
640.54	79.58
640.68	70.22
640.83	53.83
640.98	23.41
641.13	21.06
641.27	44.47
641.42	102.98
641.57	4.68
641.72	100.64
641.86	70.22
642.01	67.88
642.16	86.60
642.31	67.88
642.45	100.64
642.60	56.17
642.75	0.00
642.90	79.58
643.04	65.54
643.19	28.09
643.34	9.36
643.48	49.15
643.63	79.58
643.78	107.66
643.93	53.83
644.07	21.06
644.22	117.03
644.37	67.88
644.51	32.77
644.66	70.22
644.81	117.03
644.95	23.41
645.10	49.15
645.25	117.03
645.39	72.56
645.54	56.17
645.69	79.58
645.83	0.00
645.98	56.17
646.13	67.88
646.27	128.73
646.42	0.00
646.57	79.58
646.71	25.75
646.86	35.11
647.00	2.34
647.15	65.54
647.30	65.54
647.44	35.11
647.59	39.79
647.74	0.00
647.88	37.45
648.03	0.00
648.17	91.28
648.32	63.19
648.47	23.41
648.61	88.94
648.76	0.00
648.90	21.06
649.05	4.68
649.20	39.79
649.34	32.77
649.49	93.62
649.63	0.00
649.78	86.60
649.92	77.24
650.07	100.64
650.21	9.36
650.36	7.02
650.51	74.90
650.65	11.70
650.80	30.43
650.94	44.47
651.09	60.85
651.23	86.60
651.38	25.75
651.52	18.72
651.67	70.22
651.81	7.02
651.96	46.81
652.10	56.17
652.25	0.00
652.39	18.72
652.54	0.00
652.68	37.45
652.83	0.00
652.97	72.56
653.12	4.68
653.26	35.11
653.41	46.81
653.55	7.02
653.70	11.70
653.84	0.00
653.99	53.83
654.13	121.71
654.27	42.13
654.42	46.81
654.56	98.30
654.71	28.09
654.85	138.09
655.00	51.49
655.14	35.11
655.29	81.92
655.43	63.19
655.57	79.58
655.72	56.17
655.86	7.02
656.01	11.70
656.15	70.22
656.30	147.45
656.44	37.45
656.58	58.51
656.73	56.17
656.87	72.56
657.01	53.83
657.16	9.36
657.30	60.85
657.45	114.69
657.59	60.85
657.73	46.81
657.88	30.43
658.02	39.79
658.16	72.56
658.31	51.49
658.45	32.77
658.60	77.24
658.74	42.13
658.88	0.00
659.03	32.77
659.17	37.45
659.31	0.00
659.46	81.92
659.60	2.34
659.74	4.68
659.89	23.41
660.03	102.98
660.17	23.41
660.32	72.56
660.46	60.85
660.60	74.90
660.74	70.22
660.89	95.96
661.03	65.54
661.17	0.00
661.32	58.51
661.46	56.17
661.60	53.83
661.74	0.00
661.89	14.04
662.03	39.79
662.17	100.64
662.31	86.60
662.46	67.88
662.60	77.24
662.74	0.00
662.88	0.00
663.03	42.13
663.17	93.62
663.31	37.45
663.45	58.51
663.60	42.13
663.74	0.00
663.88	58.51
664.02	28.09
664.17	60.85
664.31	49.15
664.45	100.64
664.59	0.00
664.73	0.00
664.88	44.47
665.02	46.81
665.16	107.66
665.30	42.13
665.44	23.41
665.59	21.06
665.73	39.79
665.87	145.11
666.01	0.00
666.15	74.90
666.29	119.37
666.44	49.15
666.58	44.47
666.72	4.68
666.86	44.47
667.00	21.06
667.14	39.79
667.28	51.49
667.43	93.62
667.57	14.04
667.71	0.00
667.85	0.00
667.99	0.00
668.13	65.54
668.27	65.54
668.41	30.43
668.56	67.88
668.70	102.98
668.84	4.68
668.98	46.81
669.12	51.49
669.26	74.90
669.40	100.64
669.54	79.58
669.68	74.90
669.82	37.45
669.96	18.72
670.10	28.09
670.25	28.09
670.39	44.47
670.53	0.00
670.67	53.83
670.81	39.79
670.95	53.83
671.09	0.00
671.23	32.77
671.37	21.06
671.51	39.79
671.65	0.00
671.79	0.00
671.93	74.90
672.07	105.32
672.21	42.13
672.35	0.00
672.49	44.47
672.63	0.00
672.77	28.09
672.91	114.69
673.05	0.00
673.19	98.30
673.33	107.66
673.47	58.51
673.61	46.81
673.75	77.24
673.89	117.03
674.03	0.00
674.17	70.22
674.31	35.11
674.45	65.54
674.59	0.00
674.73	84.26
674.87	49.15
675.01	49.15
675.15	100.64
675.29	70.22
675.43	25.75
675.56	91.28
675.70	49.15
675.84	114.69
675.98	32.77
676.12	32.77
676.26	86.60
676.40	107.66
676.54	65.54
676.68	70.22
676.82	114.69
676.96	37.45
677.10	49.15
677.23	35.11
677.37	42.13
677.51	51.49
677.65	128.73
677.79	46.81
677.93	53.83
678.07	28.09
678.21	46.81
678.34	60.85
678.48	98.30
678.62	58.51
678.76	74.90
678.90	0.00
679.04	11.70
679.18	0.00
679.31	46.81
679.45	23.41
679.59	88.94
679.73	105.32
679.87	93.62
680.00	0.00
680.14	63.19
680.28	25.75
680.42	39.79
680.56	2.34
680.70	9.36
680.83	70.22
680.97	63.19
681.11	46.81
681.25	28.09
681.39	72.56
681.52	72.56
681.66	51.49
681.80	53.83
681.94	65.54
682.07	0.00
682.21	2.34
682.35	0.00
682.49	23.41
682.62	0.00
682.76	30.43
682.90	39.79
683.04	9.36
683.17	77.24
683.31	42.13
683.45	14.04
683.59	100.64
683.72	42.13
683.86	16.38
684.00	4.68
684.13	93.62
684.27	0.00
684.41	86.60
684.55	70.22
684.68	58.51
684.82	23.41
684.96	81.92
685.09	70.22
685.23	28.09
685.37	67.88
685.50	0.00
685.64	81.92
685.78	37.45
685.91	88.94
686.05	79.58
686.19	25.75
686.32	32.77
686.46	32.77
686.60	46.81
686.73	0.00
686.87	77.24
687.01	77.24
687.14	14.04
687.28	46.81
687.42	107.66
687.55	0.00
687.69	39.79
687.82	60.85
687.96	51.49
688.10	7.02
688.23	74.90
688.37	107.66
688.50	65.54
688.64	0.00
688.78	77.24
688.91	98.30
689.05	51.49
689.18	58.51
689.32	0.00
689.46	49.15
689.59	0.00
689.73	79.58
689.86	21.06
690.00	140.43
690.13	0.00
690.27	25.75
690.41	63.19
690.54	46.81
690.68	60.85
690.81	16.38
690.95	2.34
691.08	49.15
691.22	79.58
691.35	77.24
691.49	21.06
691.62	100.64
691.76	102.98
691.89	49.15
692.03	67.88
692.16	46.81
692.30	42.13
692.43	46.81
692.57	44.47
692.70	88.94
692.84	49.15
692.97	0.00
693.11	49.15
693.24	60.85
693.38	46.81
693.51	28.09
693.65	91.28
693.78	21.06
693.92	100.64
694.05	0.00
694.19	0.00
694.32	28.09
694.45	32.77
694.59	35.11
694.72	51.49
694.86	0.00
694.99	58.51
695.13	98.30
695.26	0.00
695.39	53.83
695.53	110.01
695.66	7.02
695.80	0.00
695.93	56.17
696.07	0.00
696.20	32.77
696.33	0.00
696.47	0.00
696.60	0.00
696.73	46.81
696.87	65.54
697.00	23.41
697.14	74.90
697.27	0.00
697.40	16.38
697.54	53.83
697.67	25.75
697.80	100.64
697.94	4.68
698.07	18.72
698.21	39.79
698.34	23.41
698.47	18.72
698.61	30.43
698.74	53.83
698.87	56.17
699.01	25.75
699.14	70.22
699.27	58.51
699.40	16.38
699.54	74.90
699.67	70.22
699.80	7.02
699.94	11.70
700.07	46.81
700.20	86.60
700.34	0.00
700.47	21.06
700.60	0.00
700.73	0.00
700.87	0.00
701.00	7.02
701.13	0.00
701.26	49.15
701.40	77.24
701.53	49.15
701.66	95.96
701.79	67.88
701.93	60.85
702.06	0.00
702.19	0.00
702.32	58.51
702.46	42.13
702.59	124.05
702.72	37.45
702.85	60.85
702.99	42.13
703.12	14.04
703.25	30.43
703.38	28.09
703.51	35.11
703.65	9.36
703.78	7.02
703.91	25.75
704.04	84.26
704.17	53.83
704.31	46.81
704.44	0.00
704.57	95.96
704.70	25.75
704.83	28.09
704.96	0.00
705.10	56.17
705.23	0.00
>>>>>End Processed Spectral Data<<<<<
