SpectraSuite Data File
++++++++++++++++++++++++++++++++++++
Date: Fri Oct 04 12:13:43 GMT-05:00 2013
User: price-jones
Dark Spectrum Present: No
Reference Spectrum Present: No
Number of Sampled Component Spectra: 1
Spectrometers: USB2+H05261
Integration Time (usec): 10000 (USB2+H05261)
Spectra Averaged: 1 (USB2+H05261)
Boxcar Smoothing: 0 (USB2+H05261)
Correct for Electrical Dark: No (USB2+H05261)
Strobe/Lamp Enabled: No (USB2+H05261)
Correct for Detector Non-linearity: No (USB2+H05261)
Correct for Stray Light: No (USB2+H05261)
Number of Pixels in Processed Spectrum: 2048
>>>>>Begin Processed Spectral Data<<<<<
365.73	21.06
365.92	21.06
366.12	21.06
366.32	0.00
366.52	0.00
366.72	0.00
366.91	0.00
367.11	0.00
367.31	0.00
367.51	0.00
367.70	0.00
367.90	0.00
368.10	0.00
368.30	0.00
368.49	0.00
368.69	0.00
368.89	0.00
369.09	0.00
369.28	0.00
369.48	0.00
369.68	0.00
369.87	0.00
370.07	0.00
370.27	0.00
370.47	0.00
370.66	0.00
370.86	0.00
371.06	11.70
371.25	0.00
371.45	0.00
371.65	0.00
371.84	0.00
372.04	0.00
372.24	0.00
372.44	0.00
372.63	16.38
372.83	2.34
373.03	25.75
373.22	74.90
373.42	0.00
373.62	11.70
373.81	93.62
374.01	28.09
374.21	42.13
374.40	0.00
374.60	9.36
374.79	37.45
374.99	0.00
375.19	21.06
375.38	84.26
375.58	0.00
375.78	49.15
375.97	0.00
376.17	2.34
376.37	37.45
376.56	14.04
376.76	117.03
376.95	112.35
377.15	0.00
377.35	14.04
377.54	0.00
377.74	21.06
377.93	91.28
378.13	63.19
378.33	63.19
378.52	42.13
378.72	39.79
378.91	77.24
379.11	72.56
379.31	14.04
379.50	0.00
379.70	0.00
379.89	0.00
380.09	51.49
380.28	32.77
380.48	51.49
380.68	9.36
380.87	0.00
381.07	37.45
381.26	30.43
381.46	21.06
381.65	0.00
381.85	86.60
382.04	88.94
382.24	0.00
382.43	23.41
382.63	21.06
382.83	0.00
383.02	0.00
383.22	32.77
383.41	7.02
383.61	65.54
383.80	37.45
384.00	25.75
384.19	9.36
384.39	133.41
384.58	42.13
384.78	30.43
384.97	49.15
385.17	23.41
385.36	28.09
385.56	23.41
385.75	53.83
385.95	86.60
386.14	44.47
386.34	25.75
386.53	16.38
386.72	67.88
386.92	86.60
387.11	0.00
387.31	60.85
387.50	7.02
387.70	0.00
387.89	37.45
388.09	2.34
388.28	53.83
388.48	0.00
388.67	95.96
388.86	14.04
389.06	53.83
389.25	46.81
389.45	0.00
389.64	4.68
389.84	35.11
390.03	11.70
390.22	51.49
390.42	63.19
390.61	0.00
390.81	79.58
391.00	63.19
391.19	21.06
391.39	0.00
391.58	0.00
391.78	0.00
391.97	56.17
392.16	0.00
392.36	56.17
392.55	0.00
392.75	0.00
392.94	63.19
393.13	0.00
393.33	37.45
393.52	18.72
393.71	16.38
393.91	0.00
394.10	65.54
394.29	4.68
394.49	21.06
394.68	117.03
394.88	72.56
395.07	44.47
395.26	0.00
395.46	42.13
395.65	74.90
395.84	56.17
396.04	0.00
396.23	0.00
396.42	0.00
396.62	0.00
396.81	9.36
397.00	14.04
397.19	0.00
397.39	60.85
397.58	86.60
397.77	28.09
397.97	70.22
398.16	46.81
398.35	91.28
398.55	63.19
398.74	30.43
398.93	16.38
399.12	2.34
399.32	56.17
399.51	0.00
399.70	67.88
399.90	67.88
400.09	0.00
400.28	0.00
400.47	49.15
400.67	0.00
400.86	21.06
401.05	30.43
401.24	35.11
401.44	35.11
401.63	4.68
401.82	60.85
402.01	16.38
402.21	39.79
402.40	84.26
402.59	46.81
402.78	77.24
402.97	21.06
403.17	28.09
403.36	74.90
403.55	2.34
403.74	102.98
403.93	0.00
404.13	86.60
404.32	0.00
404.51	0.00
404.70	11.70
404.89	35.11
405.09	2.34
405.28	0.00
405.47	0.00
405.66	32.77
405.85	49.15
406.05	98.30
406.24	100.64
406.43	0.00
406.62	81.92
406.81	0.00
407.00	7.02
407.20	60.85
407.39	0.00
407.58	70.22
407.77	28.09
407.96	46.81
408.15	0.00
408.34	0.00
408.54	72.56
408.73	0.00
408.92	86.60
409.11	93.62
409.30	25.75
409.49	95.96
409.68	21.06
409.87	0.00
410.07	53.83
410.26	56.17
410.45	0.00
410.64	65.54
410.83	49.15
411.02	46.81
411.21	0.00
411.40	23.41
411.59	53.83
411.78	16.38
411.98	7.02
412.17	70.22
412.36	53.83
412.55	25.75
412.74	0.00
412.93	46.81
413.12	49.15
413.31	58.51
413.50	16.38
413.69	51.49
413.88	49.15
414.07	63.19
414.26	0.00
414.45	44.47
414.64	70.22
414.83	32.77
415.02	21.06
415.22	23.41
415.41	133.41
415.60	56.17
415.79	46.81
415.98	74.90
416.17	70.22
416.36	70.22
416.55	42.13
416.74	37.45
416.93	39.79
417.12	42.13
417.31	16.38
417.50	32.77
417.69	93.62
417.88	56.17
418.07	65.54
418.26	44.47
418.45	0.00
418.64	39.79
418.83	91.28
419.02	44.47
419.21	0.00
419.39	0.00
419.58	46.81
419.77	39.79
419.96	18.72
420.15	28.09
420.34	86.60
420.53	53.83
420.72	42.13
420.91	32.77
421.10	72.56
421.29	98.30
421.48	100.64
421.67	79.58
421.86	11.70
422.05	39.79
422.24	53.83
422.43	18.72
422.61	102.98
422.80	0.00
422.99	56.17
423.18	46.81
423.37	168.52
423.56	58.51
423.75	93.62
423.94	0.00
424.13	0.00
424.32	70.22
424.50	51.49
424.69	60.85
424.88	58.51
425.07	95.96
425.26	65.54
425.45	84.26
425.64	63.19
425.83	72.56
426.01	18.72
426.20	93.62
426.39	25.75
426.58	53.83
426.77	2.34
426.96	110.01
427.15	49.15
427.33	35.11
427.52	77.24
427.71	63.19
427.90	14.04
428.09	35.11
428.28	32.77
428.46	39.79
428.65	21.06
428.84	28.09
429.03	46.81
429.22	9.36
429.40	0.00
429.59	74.90
429.78	98.30
429.97	39.79
430.16	25.75
430.34	58.51
430.53	9.36
430.72	23.41
430.91	60.85
431.10	7.02
431.28	39.79
431.47	37.45
431.66	70.22
431.85	60.85
432.03	44.47
432.22	53.83
432.41	0.00
432.60	25.75
432.79	35.11
432.97	56.17
433.16	70.22
433.35	0.00
433.54	56.17
433.72	14.04
433.91	81.92
434.10	11.70
434.28	95.96
434.47	72.56
434.66	44.47
434.85	51.49
435.03	100.64
435.22	18.72
435.41	84.26
435.59	0.00
435.78	0.00
435.97	4.68
436.16	9.36
436.34	9.36
436.53	0.00
436.72	65.54
436.90	16.38
437.09	58.51
437.28	18.72
437.46	63.19
437.65	0.00
437.84	65.54
438.02	81.92
438.21	35.11
438.40	56.17
438.58	25.75
438.77	9.36
438.96	100.64
439.14	44.47
439.33	51.49
439.52	110.01
439.70	51.49
439.89	63.19
440.08	65.54
440.26	67.88
440.45	51.49
440.63	42.13
440.82	0.00
441.01	95.96
441.19	42.13
441.38	95.96
441.57	95.96
441.75	100.64
441.94	44.47
442.12	58.51
442.31	58.51
442.50	49.15
442.68	7.02
442.87	102.98
443.05	93.62
443.24	72.56
443.43	86.60
443.61	44.47
443.80	77.24
443.98	35.11
444.17	56.17
444.35	37.45
444.54	102.98
444.73	16.38
444.91	37.45
445.10	46.81
445.28	124.05
445.47	72.56
445.65	23.41
445.84	0.00
446.02	25.75
446.21	0.00
446.39	63.19
446.58	23.41
446.77	107.66
446.95	74.90
447.14	95.96
447.32	9.36
447.51	63.19
447.69	51.49
447.88	70.22
448.06	23.41
448.25	0.00
448.43	86.60
448.62	72.56
448.80	30.43
448.99	95.96
449.17	46.81
449.36	25.75
449.54	53.83
449.73	102.98
449.91	63.19
450.10	0.00
450.28	56.17
450.46	60.85
450.65	88.94
450.83	70.22
451.02	74.90
451.20	77.24
451.39	0.00
451.57	77.24
451.76	39.79
451.94	39.79
452.13	21.06
452.31	49.15
452.49	23.41
452.68	46.81
452.86	0.00
453.05	142.77
453.23	102.98
453.42	88.94
453.60	60.85
453.78	98.30
453.97	35.11
454.15	51.49
454.34	70.22
454.52	0.00
454.70	86.60
454.89	114.69
455.07	0.00
455.26	0.00
455.44	67.88
455.62	28.09
455.81	93.62
455.99	53.83
456.17	67.88
456.36	23.41
456.54	67.88
456.73	56.17
456.91	107.66
457.09	9.36
457.28	79.58
457.46	67.88
457.64	88.94
457.83	79.58
458.01	74.90
458.19	58.51
458.38	51.49
458.56	77.24
458.74	63.19
458.93	77.24
459.11	0.00
459.29	65.54
459.48	0.00
459.66	65.54
459.84	44.47
460.03	81.92
460.21	21.06
460.39	79.58
460.57	117.03
460.76	42.13
460.94	39.79
461.12	9.36
461.31	145.11
461.49	102.98
461.67	21.06
461.85	32.77
462.04	18.72
462.22	51.49
462.40	21.06
462.59	72.56
462.77	28.09
462.95	42.13
463.13	112.35
463.32	11.70
463.50	18.72
463.68	77.24
463.86	37.45
464.05	7.02
464.23	112.35
464.41	44.47
464.59	0.00
464.78	46.81
464.96	49.15
465.14	23.41
465.32	74.90
465.50	16.38
465.69	60.85
465.87	0.00
466.05	11.70
466.23	46.81
466.41	0.00
466.60	56.17
466.78	56.17
466.96	138.09
467.14	51.49
467.32	18.72
467.51	65.54
467.69	114.69
467.87	105.32
468.05	98.30
468.23	42.13
468.41	60.85
468.60	110.01
468.78	88.94
468.96	65.54
469.14	53.83
469.32	142.77
469.50	74.90
469.69	39.79
469.87	0.00
470.05	77.24
470.23	44.47
470.41	11.70
470.59	72.56
470.77	100.64
470.95	56.17
471.14	74.90
471.32	91.28
471.50	56.17
471.68	49.15
471.86	0.00
472.04	4.68
472.22	0.00
472.40	65.54
472.58	74.90
472.77	25.75
472.95	74.90
473.13	138.09
473.31	44.47
473.49	98.30
473.67	35.11
473.85	23.41
474.03	93.62
474.21	112.35
474.39	35.11
474.57	86.60
474.75	79.58
474.93	23.41
475.12	117.03
475.30	42.13
475.48	39.79
475.66	74.90
475.84	135.75
476.02	79.58
476.20	65.54
476.38	56.17
476.56	58.51
476.74	70.22
476.92	18.72
477.10	107.66
477.28	0.00
477.46	53.83
477.64	81.92
477.82	133.41
478.00	86.60
478.18	30.43
478.36	58.51
478.54	79.58
478.72	91.28
478.90	32.77
479.08	51.49
479.26	42.13
479.44	0.00
479.62	95.96
479.80	105.32
479.98	86.60
480.16	18.72
480.34	58.51
480.52	18.72
480.70	42.13
480.88	23.41
481.06	56.17
481.24	95.96
481.41	0.00
481.59	117.03
481.77	81.92
481.95	88.94
482.13	79.58
482.31	70.22
482.49	65.54
482.67	7.02
482.85	163.84
483.03	18.72
483.21	0.00
483.39	35.11
483.57	60.85
483.74	102.98
483.92	37.45
484.10	0.00
484.28	63.19
484.46	88.94
484.64	7.02
484.82	88.94
485.00	126.39
485.18	119.37
485.35	49.15
485.53	0.00
485.71	28.09
485.89	42.13
486.07	81.92
486.25	107.66
486.43	95.96
486.61	67.88
486.78	65.54
486.96	46.81
487.14	23.41
487.32	93.62
487.50	117.03
487.68	32.77
487.85	49.15
488.03	100.64
488.21	37.45
488.39	112.35
488.57	149.79
488.75	119.37
488.92	119.37
489.10	117.03
489.28	105.32
489.46	93.62
489.64	142.77
489.81	18.72
489.99	67.88
490.17	0.00
490.35	100.64
490.53	46.81
490.70	37.45
490.88	7.02
491.06	72.56
491.24	84.26
491.41	72.56
491.59	39.79
491.77	128.73
491.95	105.32
492.13	84.26
492.30	46.81
492.48	91.28
492.66	112.35
492.84	60.85
493.01	49.15
493.19	74.90
493.37	51.49
493.54	44.47
493.72	44.47
493.90	56.17
494.08	60.85
494.25	23.41
494.43	124.05
494.61	114.69
494.79	100.64
494.96	91.28
495.14	46.81
495.32	126.39
495.49	88.94
495.67	98.30
495.85	37.45
496.02	72.56
496.20	86.60
496.38	4.68
496.55	72.56
496.73	81.92
496.91	156.82
497.09	67.88
497.26	39.79
497.44	102.98
497.62	58.51
497.79	93.62
497.97	35.11
498.14	86.60
498.32	126.39
498.50	65.54
498.67	79.58
498.85	65.54
499.03	142.77
499.20	117.03
499.38	79.58
499.56	60.85
499.73	107.66
499.91	93.62
500.08	110.01
500.26	56.17
500.44	117.03
500.61	77.24
500.79	93.62
500.97	114.69
501.14	102.98
501.32	91.28
501.49	44.47
501.67	121.71
501.84	56.17
502.02	51.49
502.20	42.13
502.37	79.58
502.55	65.54
502.72	0.00
502.90	72.56
503.07	135.75
503.25	149.79
503.43	0.00
503.60	60.85
503.78	58.51
503.95	70.22
504.13	32.77
504.30	53.83
504.48	119.37
504.65	117.03
504.83	60.85
505.01	72.56
505.18	46.81
505.36	152.13
505.53	72.56
505.71	102.98
505.88	46.81
506.06	60.85
506.23	58.51
506.41	117.03
506.58	46.81
506.76	93.62
506.93	84.26
507.11	128.73
507.28	70.22
507.46	149.79
507.63	60.85
507.81	67.88
507.98	107.66
508.16	86.60
508.33	79.58
508.50	21.06
508.68	138.09
508.85	156.82
509.03	42.13
509.20	100.64
509.38	107.66
509.55	114.69
509.73	79.58
509.90	159.16
510.08	30.43
510.25	46.81
510.42	39.79
510.60	131.07
510.77	107.66
510.95	88.94
511.12	124.05
511.30	124.05
511.47	53.83
511.64	119.37
511.82	35.11
511.99	77.24
512.17	53.83
512.34	51.49
512.51	46.81
512.69	79.58
512.86	126.39
513.04	119.37
513.21	114.69
513.38	107.66
513.56	16.38
513.73	117.03
513.90	0.00
514.08	100.64
514.25	98.30
514.43	63.19
514.60	30.43
514.77	0.00
514.95	93.62
515.12	16.38
515.29	98.30
515.47	65.54
515.64	110.01
515.81	37.45
515.99	86.60
516.16	110.01
516.33	107.66
516.51	42.13
516.68	58.51
516.85	65.54
517.03	88.94
517.20	72.56
517.37	91.28
517.54	65.54
517.72	117.03
517.89	138.09
518.06	81.92
518.24	133.41
518.41	42.13
518.58	91.28
518.75	74.90
518.93	88.94
519.10	88.94
519.27	25.75
519.45	70.22
519.62	88.94
519.79	124.05
519.96	65.54
520.14	51.49
520.31	119.37
520.48	60.85
520.65	56.17
520.83	7.02
521.00	95.96
521.17	170.86
521.34	112.35
521.52	131.07
521.69	91.28
521.86	170.86
522.03	60.85
522.20	30.43
522.38	95.96
522.55	98.30
522.72	0.00
522.89	39.79
523.07	142.77
523.24	81.92
523.41	46.81
523.58	18.72
523.75	51.49
523.92	112.35
524.10	100.64
524.27	91.28
524.44	44.47
524.61	4.68
524.78	105.32
524.96	81.92
525.13	117.03
525.30	98.30
525.47	65.54
525.64	100.64
525.81	86.60
525.98	53.83
526.16	86.60
526.33	46.81
526.50	77.24
526.67	142.77
526.84	79.58
527.01	0.00
527.18	63.19
527.36	58.51
527.53	128.73
527.70	86.60
527.87	79.58
528.04	84.26
528.21	140.43
528.38	133.41
528.55	98.30
528.72	58.51
528.89	53.83
529.07	107.66
529.24	74.90
529.41	142.77
529.58	65.54
529.75	51.49
529.92	0.00
530.09	42.13
530.26	124.05
530.43	63.19
530.60	114.69
530.77	42.13
530.94	77.24
531.11	86.60
531.28	84.26
531.46	72.56
531.63	93.62
531.80	60.85
531.97	42.13
532.14	65.54
532.31	53.83
532.48	124.05
532.65	63.19
532.82	107.66
532.99	21.06
533.16	124.05
533.33	138.09
533.50	72.56
533.67	63.19
533.84	112.35
534.01	124.05
534.18	98.30
534.35	32.77
534.52	100.64
534.69	37.45
534.86	140.43
535.03	114.69
535.20	86.60
535.37	77.24
535.54	114.69
535.71	110.01
535.88	30.43
536.05	135.75
536.22	91.28
536.38	170.86
536.55	88.94
536.72	124.05
536.89	100.64
537.06	25.75
537.23	67.88
537.40	70.22
537.57	65.54
537.74	117.03
537.91	84.26
538.08	107.66
538.25	51.49
538.42	70.22
538.59	100.64
538.75	58.51
538.92	77.24
539.09	44.47
539.26	107.66
539.43	98.30
539.60	32.77
539.77	84.26
539.94	72.56
540.11	28.09
540.28	112.35
540.44	107.66
540.61	16.38
540.78	44.47
540.95	91.28
541.12	77.24
541.29	114.69
541.46	23.41
541.62	110.01
541.79	28.09
541.96	107.66
542.13	105.32
542.30	147.45
542.47	74.90
542.63	53.83
542.80	79.58
542.97	44.47
543.14	81.92
543.31	37.45
543.48	77.24
543.64	110.01
543.81	72.56
543.98	18.72
544.15	110.01
544.32	21.06
544.48	105.32
544.65	93.62
544.82	67.88
544.99	105.32
545.16	2.34
545.32	102.98
545.49	95.96
545.66	98.30
545.83	86.60
546.00	65.54
546.16	142.77
546.33	147.45
546.50	95.96
546.67	67.88
546.83	124.05
547.00	72.56
547.17	63.19
547.34	72.56
547.50	72.56
547.67	32.77
547.84	131.07
548.00	44.47
548.17	53.83
548.34	114.69
548.51	107.66
548.67	154.48
548.84	114.69
549.01	11.70
549.18	72.56
549.34	102.98
549.51	138.09
549.68	131.07
549.84	98.30
550.01	91.28
550.18	93.62
550.34	112.35
550.51	105.32
550.68	79.58
550.84	112.35
551.01	126.39
551.18	131.07
551.34	114.69
551.51	56.17
551.68	53.83
551.84	14.04
552.01	39.79
552.18	95.96
552.34	53.83
552.51	124.05
552.68	117.03
552.84	49.15
553.01	51.49
553.18	81.92
553.34	35.11
553.51	77.24
553.67	88.94
553.84	114.69
554.01	121.71
554.17	102.98
554.34	14.04
554.51	74.90
554.67	63.19
554.84	110.01
555.00	74.90
555.17	128.73
555.33	35.11
555.50	98.30
555.67	63.19
555.83	102.98
556.00	117.03
556.16	131.07
556.33	91.28
556.50	11.70
556.66	44.47
556.83	60.85
556.99	53.83
557.16	107.66
557.32	37.45
557.49	107.66
557.65	117.03
557.82	112.35
557.98	105.32
558.15	124.05
558.32	16.38
558.48	49.15
558.65	30.43
558.81	65.54
558.98	119.37
559.14	30.43
559.31	56.17
559.47	114.69
559.64	53.83
559.80	74.90
559.97	35.11
560.13	39.79
560.30	70.22
560.46	110.01
560.63	117.03
560.79	86.60
560.96	112.35
561.12	63.19
561.29	2.34
561.45	79.58
561.61	98.30
561.78	102.98
561.94	60.85
562.11	7.02
562.27	16.38
562.44	112.35
562.60	140.43
562.77	84.26
562.93	0.00
563.10	93.62
563.26	114.69
563.42	60.85
563.59	86.60
563.75	72.56
563.92	156.82
564.08	67.88
564.24	142.77
564.41	67.88
564.57	117.03
564.74	142.77
564.90	49.15
565.07	107.66
565.23	84.26
565.39	21.06
565.56	102.98
565.72	77.24
565.88	121.71
566.05	81.92
566.21	72.56
566.38	77.24
566.54	114.69
566.70	53.83
566.87	81.92
567.03	95.96
567.19	126.39
567.36	51.49
567.52	95.96
567.68	32.77
567.85	53.83
568.01	63.19
568.17	65.54
568.34	98.30
568.50	74.90
568.66	117.03
568.83	51.49
568.99	81.92
569.15	107.66
569.32	86.60
569.48	98.30
569.64	46.81
569.81	60.85
569.97	63.19
570.13	56.17
570.30	35.11
570.46	88.94
570.62	95.96
570.78	112.35
570.95	100.64
571.11	72.56
571.27	133.41
571.43	53.83
571.60	65.54
571.76	37.45
571.92	170.86
572.09	93.62
572.25	86.60
572.41	135.75
572.57	56.17
572.74	77.24
572.90	30.43
573.06	72.56
573.22	105.32
573.38	91.28
573.55	114.69
573.71	105.32
573.87	86.60
574.03	95.96
574.20	0.00
574.36	70.22
574.52	23.41
574.68	93.62
574.84	53.83
575.01	63.19
575.17	119.37
575.33	67.88
575.49	51.49
575.65	114.69
575.82	100.64
575.98	84.26
576.14	91.28
576.30	105.32
576.46	51.49
576.62	77.24
576.79	128.73
576.95	138.09
577.11	95.96
577.27	102.98
577.43	63.19
577.59	53.83
577.75	4.68
577.92	107.66
578.08	42.13
578.24	102.98
578.40	107.66
578.56	65.54
578.72	0.00
578.88	74.90
579.04	7.02
579.21	56.17
579.37	39.79
579.53	67.88
579.69	72.56
579.85	100.64
580.01	112.35
580.17	53.83
580.33	105.32
580.49	147.45
580.65	114.69
580.82	131.07
580.98	140.43
581.14	42.13
581.30	79.58
581.46	9.36
581.62	7.02
581.78	72.56
581.94	77.24
582.10	9.36
582.26	72.56
582.42	133.41
582.58	88.94
582.74	9.36
582.90	91.28
583.06	147.45
583.22	53.83
583.38	81.92
583.54	121.71
583.70	168.52
583.86	119.37
584.02	46.81
584.18	28.09
584.34	53.83
584.50	140.43
584.66	70.22
584.82	46.81
584.98	39.79
585.14	128.73
585.30	114.69
585.46	77.24
585.62	51.49
585.78	51.49
585.94	133.41
586.10	74.90
586.26	49.15
586.42	93.62
586.58	95.96
586.74	93.62
586.90	72.56
587.06	67.88
587.22	23.41
587.38	25.75
587.54	84.26
587.70	112.35
587.86	126.39
588.02	63.19
588.18	35.11
588.34	110.01
588.49	16.38
588.65	112.35
588.81	93.62
588.97	42.13
589.13	58.51
589.29	95.96
589.45	0.00
589.61	88.94
589.77	46.81
589.93	25.75
590.08	65.54
590.24	74.90
590.40	0.00
590.56	124.05
590.72	72.56
590.88	79.58
591.04	67.88
591.20	93.62
591.35	79.58
591.51	60.85
591.67	16.38
591.83	93.62
591.99	74.90
592.15	35.11
592.31	11.70
592.46	131.07
592.62	117.03
592.78	100.64
592.94	119.37
593.10	110.01
593.26	32.77
593.41	51.49
593.57	60.85
593.73	95.96
593.89	65.54
594.05	98.30
594.20	32.77
594.36	74.90
594.52	128.73
594.68	42.13
594.84	88.94
594.99	84.26
595.15	25.75
595.31	117.03
595.47	124.05
595.62	23.41
595.78	121.71
595.94	105.32
596.10	95.96
596.25	9.36
596.41	65.54
596.57	72.56
596.73	79.58
596.88	77.24
597.04	0.00
597.20	0.00
597.36	46.81
597.51	58.51
597.67	4.68
597.83	72.56
597.99	112.35
598.14	65.54
598.30	74.90
598.46	117.03
598.61	135.75
598.77	30.43
598.93	56.17
599.09	65.54
599.24	37.45
599.40	56.17
599.56	100.64
599.71	63.19
599.87	81.92
600.03	65.54
600.18	53.83
600.34	124.05
600.50	25.75
600.65	11.70
600.81	84.26
600.97	102.98
601.12	84.26
601.28	11.70
601.44	49.15
601.59	84.26
601.75	67.88
601.91	42.13
602.06	100.64
602.22	25.75
602.37	95.96
602.53	32.77
602.69	42.13
602.84	102.98
603.00	9.36
603.16	81.92
603.31	65.54
603.47	100.64
603.62	145.11
603.78	60.85
603.94	23.41
604.09	63.19
604.25	74.90
604.40	67.88
604.56	79.58
604.71	119.37
604.87	77.24
605.03	84.26
605.18	126.39
605.34	159.16
605.49	86.60
605.65	51.49
605.80	70.22
605.96	28.09
606.12	79.58
606.27	58.51
606.43	86.60
606.58	105.32
606.74	91.28
606.89	65.54
607.05	37.45
607.20	65.54
607.36	95.96
607.51	110.01
607.67	70.22
607.82	53.83
607.98	105.32
608.13	100.64
608.29	88.94
608.44	72.56
608.60	18.72
608.75	100.64
608.91	39.79
609.06	112.35
609.22	77.24
609.37	42.13
609.53	37.45
609.68	81.92
609.84	9.36
609.99	112.35
610.15	81.92
610.30	142.77
610.46	102.98
610.61	60.85
610.76	51.49
610.92	84.26
611.07	0.00
611.23	4.68
611.38	107.66
611.54	112.35
611.69	46.81
611.84	114.69
612.00	110.01
612.15	56.17
612.31	42.13
612.46	121.71
612.62	25.75
612.77	23.41
612.92	70.22
613.08	74.90
613.23	119.37
613.39	84.26
613.54	42.13
613.69	28.09
613.85	74.90
614.00	100.64
614.15	70.22
614.31	102.98
614.46	86.60
614.62	124.05
614.77	88.94
614.92	119.37
615.08	0.00
615.23	42.13
615.38	77.24
615.54	107.66
615.69	86.60
615.84	112.35
616.00	39.79
616.15	100.64
616.30	107.66
616.46	79.58
616.61	25.75
616.76	39.79
616.92	107.66
617.07	37.45
617.22	74.90
617.37	42.13
617.53	49.15
617.68	107.66
617.83	58.51
617.99	102.98
618.14	95.96
618.29	46.81
618.45	105.32
618.60	131.07
618.75	86.60
618.90	67.88
619.06	30.43
619.21	84.26
619.36	23.41
619.51	67.88
619.67	102.98
619.82	72.56
619.97	53.83
620.12	58.51
620.28	98.30
620.43	119.37
620.58	65.54
620.73	93.62
620.89	42.13
621.04	74.90
621.19	30.43
621.34	126.39
621.49	72.56
621.65	79.58
621.80	67.88
621.95	81.92
622.10	93.62
622.25	88.94
622.41	88.94
622.56	126.39
622.71	18.72
622.86	53.83
623.01	77.24
623.16	98.30
623.32	25.75
623.47	0.00
623.62	42.13
623.77	88.94
623.92	95.96
624.07	18.72
624.23	147.45
624.38	21.06
624.53	53.83
624.68	91.28
624.83	72.56
624.98	51.49
625.13	18.72
625.29	102.98
625.44	91.28
625.59	49.15
625.74	95.96
625.89	114.69
626.04	72.56
626.19	60.85
626.34	81.92
626.49	72.56
626.65	100.64
626.80	98.30
626.95	70.22
627.10	53.83
627.25	28.09
627.40	51.49
627.55	2.34
627.70	112.35
627.85	42.13
628.00	0.00
628.15	63.19
628.30	51.49
628.45	42.13
628.60	21.06
628.76	105.32
628.91	37.45
629.06	39.79
629.21	35.11
629.36	51.49
629.51	63.19
629.66	88.94
629.81	77.24
629.96	56.17
630.11	30.43
630.26	42.13
630.41	25.75
630.56	16.38
630.71	16.38
630.86	18.72
631.01	28.09
631.16	67.88
631.31	107.66
631.46	77.24
631.61	0.00
631.76	16.38
631.91	28.09
632.06	0.00
632.21	0.00
632.36	28.09
632.51	56.17
632.66	51.49
632.81	35.11
632.96	72.56
633.10	98.30
633.25	42.13
633.40	65.54
633.55	70.22
633.70	65.54
633.85	21.06
634.00	102.98
634.15	95.96
634.30	140.43
634.45	105.32
634.60	98.30
634.75	51.49
634.90	28.09
635.05	18.72
635.19	105.32
635.34	53.83
635.49	91.28
635.64	60.85
635.79	9.36
635.94	98.30
636.09	105.32
636.24	77.24
636.39	9.36
636.53	60.85
636.68	93.62
636.83	84.26
636.98	145.11
637.13	0.00
637.28	79.58
637.43	124.05
637.57	23.41
637.72	37.45
637.87	95.96
638.02	119.37
638.17	107.66
638.32	79.58
638.46	35.11
638.61	112.35
638.76	79.58
638.91	14.04
639.06	0.00
639.20	88.94
639.35	14.04
639.50	56.17
639.65	53.83
639.80	23.41
639.94	37.45
640.09	35.11
640.24	72.56
640.39	128.73
640.54	114.69
640.68	65.54
640.83	77.24
640.98	74.90
641.13	28.09
641.27	86.60
641.42	23.41
641.57	58.51
641.72	42.13
641.86	107.66
642.01	16.38
642.16	102.98
642.31	88.94
642.45	56.17
642.60	77.24
642.75	79.58
642.90	105.32
643.04	93.62
643.19	102.98
643.34	42.13
643.48	35.11
643.63	44.47
643.78	18.72
643.93	32.77
644.07	91.28
644.22	114.69
644.37	95.96
644.51	42.13
644.66	16.38
644.81	23.41
644.95	67.88
645.10	159.16
645.25	70.22
645.39	37.45
645.54	44.47
645.69	88.94
645.83	0.00
645.98	112.35
646.13	46.81
646.27	112.35
646.42	70.22
646.57	100.64
646.71	100.64
646.86	74.90
647.00	65.54
647.15	60.85
647.30	11.70
647.44	65.54
647.59	39.79
647.74	56.17
647.88	58.51
648.03	46.81
648.17	56.17
648.32	44.47
648.47	9.36
648.61	21.06
648.76	14.04
648.90	4.68
649.05	46.81
649.20	102.98
649.34	60.85
649.49	14.04
649.63	35.11
649.78	77.24
649.92	35.11
650.07	74.90
650.21	0.00
650.36	58.51
650.51	37.45
650.65	56.17
650.80	56.17
650.94	77.24
651.09	53.83
651.23	35.11
651.38	14.04
651.52	49.15
651.67	37.45
651.81	0.00
651.96	37.45
652.10	18.72
652.25	77.24
652.39	46.81
652.54	70.22
652.68	56.17
652.83	70.22
652.97	49.15
653.12	14.04
653.26	63.19
653.41	70.22
653.55	102.98
653.70	32.77
653.84	23.41
653.99	0.00
654.13	65.54
654.27	37.45
654.42	95.96
654.56	0.00
654.71	100.64
654.85	23.41
655.00	23.41
655.14	11.70
655.29	49.15
655.43	35.11
655.57	11.70
655.72	74.90
655.86	42.13
656.01	49.15
656.15	51.49
656.30	105.32
656.44	0.00
656.58	107.66
656.73	79.58
656.87	0.00
657.01	51.49
657.16	0.00
657.30	39.79
657.45	49.15
657.59	39.79
657.73	72.56
657.88	93.62
658.02	135.75
658.16	44.47
658.31	53.83
658.45	23.41
658.60	30.43
658.74	56.17
658.88	77.24
659.03	4.68
659.17	44.47
659.31	46.81
659.46	49.15
659.60	81.92
659.74	107.66
659.89	30.43
660.03	58.51
660.17	39.79
660.32	53.83
660.46	56.17
660.60	0.00
660.74	74.90
660.89	28.09
661.03	30.43
661.17	60.85
661.32	72.56
661.46	65.54
661.60	70.22
661.74	105.32
661.89	65.54
662.03	91.28
662.17	51.49
662.31	0.00
662.46	102.98
662.60	32.77
662.74	56.17
662.88	91.28
663.03	51.49
663.17	11.70
663.31	53.83
663.45	46.81
663.60	30.43
663.74	79.58
663.88	70.22
664.02	72.56
664.17	117.03
664.31	0.00
664.45	18.72
664.59	79.58
664.73	18.72
664.88	35.11
665.02	49.15
665.16	145.11
665.30	70.22
665.44	51.49
665.59	138.09
665.73	44.47
665.87	53.83
666.01	0.00
666.15	37.45
666.29	42.13
666.44	145.11
666.58	53.83
666.72	23.41
666.86	42.13
667.00	18.72
667.14	86.60
667.28	107.66
667.43	79.58
667.57	51.49
667.71	81.92
667.85	46.81
667.99	65.54
668.13	102.98
668.27	72.56
668.41	117.03
668.56	28.09
668.70	25.75
668.84	77.24
668.98	46.81
669.12	58.51
669.26	95.96
669.40	93.62
669.54	46.81
669.68	11.70
669.82	28.09
669.96	95.96
670.10	65.54
670.25	98.30
670.39	21.06
670.53	86.60
670.67	44.47
670.81	16.38
670.95	39.79
671.09	60.85
671.23	35.11
671.37	46.81
671.51	37.45
671.65	46.81
671.79	0.00
671.93	95.96
672.07	37.45
672.21	30.43
672.35	46.81
672.49	28.09
672.63	42.13
672.77	0.00
672.91	42.13
673.05	60.85
673.19	46.81
673.33	16.38
673.47	67.88
673.61	70.22
673.75	7.02
673.89	58.51
674.03	32.77
674.17	60.85
674.31	88.94
674.45	70.22
674.59	51.49
674.73	2.34
674.87	65.54
675.01	63.19
675.15	65.54
675.29	100.64
675.43	79.58
675.56	42.13
675.70	53.83
675.84	102.98
675.98	72.56
676.12	63.19
676.26	21.06
676.40	16.38
676.54	86.60
676.68	56.17
676.82	35.11
676.96	84.26
677.10	51.49
677.23	32.77
677.37	79.58
677.51	23.41
677.65	102.98
677.79	51.49
677.93	0.00
678.07	14.04
678.21	86.60
678.34	72.56
678.48	42.13
678.62	0.00
678.76	18.72
678.90	86.60
679.04	149.79
679.18	0.00
679.31	81.92
679.45	56.17
679.59	35.11
679.73	84.26
679.87	35.11
680.00	0.00
680.14	11.70
680.28	51.49
680.42	53.83
680.56	88.94
680.70	0.00
680.83	86.60
680.97	53.83
681.11	0.00
681.25	37.45
681.39	67.88
681.52	30.43
681.66	18.72
681.80	0.00
681.94	53.83
682.07	39.79
682.21	70.22
682.35	0.00
682.49	65.54
682.62	79.58
682.76	23.41
682.90	32.77
683.04	147.45
683.17	0.00
683.31	11.70
683.45	67.88
683.59	93.62
683.72	53.83
683.86	30.43
684.00	21.06
684.13	44.47
684.27	53.83
684.41	11.70
684.55	0.00
684.68	23.41
684.82	86.60
684.96	72.56
685.09	39.79
685.23	58.51
685.37	0.00
685.50	128.73
685.64	51.49
685.78	35.11
685.91	4.68
686.05	72.56
686.19	11.70
686.32	60.85
686.46	2.34
686.60	0.00
686.73	42.13
686.87	32.77
687.01	18.72
687.14	0.00
687.28	0.00
687.42	70.22
687.55	84.26
687.69	0.00
687.82	0.00
687.96	124.05
688.10	2.34
688.23	14.04
688.37	30.43
688.50	95.96
688.64	21.06
688.78	65.54
688.91	39.79
689.05	98.30
689.18	51.49
689.32	9.36
689.46	16.38
689.59	79.58
689.73	53.83
689.86	0.00
690.00	0.00
690.13	95.96
690.27	126.39
690.41	77.24
690.54	14.04
690.68	65.54
690.81	46.81
690.95	30.43
691.08	2.34
691.22	25.75
691.35	74.90
691.49	37.45
691.62	67.88
691.76	95.96
691.89	2.34
692.03	7.02
692.16	44.47
692.30	44.47
692.43	30.43
692.57	11.70
692.70	9.36
692.84	11.70
692.97	0.00
693.11	32.77
693.24	49.15
693.38	0.00
693.51	21.06
693.65	11.70
693.78	49.15
693.92	49.15
694.05	46.81
694.19	53.83
694.32	25.75
694.45	18.72
694.59	110.01
694.72	0.00
694.86	4.68
694.99	0.00
695.13	79.58
695.26	46.81
695.39	42.13
695.53	23.41
695.66	107.66
695.80	119.37
695.93	81.92
696.07	37.45
696.20	25.75
696.33	7.02
696.47	30.43
696.60	9.36
696.73	49.15
696.87	93.62
697.00	42.13
697.14	63.19
697.27	56.17
697.40	77.24
697.54	42.13
697.67	0.00
697.80	23.41
697.94	107.66
698.07	0.00
698.21	0.00
698.34	2.34
698.47	65.54
698.61	9.36
698.74	30.43
698.87	23.41
699.01	30.43
699.14	95.96
699.27	16.38
699.40	37.45
699.54	21.06
699.67	32.77
699.80	0.00
699.94	49.15
700.07	63.19
700.20	88.94
700.34	25.75
700.47	16.38
700.60	28.09
700.73	0.00
700.87	0.00
701.00	117.03
701.13	28.09
701.26	18.72
701.40	30.43
701.53	67.88
701.66	35.11
701.79	23.41
701.93	107.66
702.06	93.62
702.19	51.49
702.32	72.56
702.46	28.09
702.59	51.49
702.72	25.75
702.85	23.41
702.99	18.72
703.12	35.11
703.25	51.49
703.38	91.28
703.51	18.72
703.65	14.04
703.78	51.49
703.91	18.72
704.04	86.60
704.17	7.02
704.31	11.70
704.44	37.45
704.57	51.49
704.70	60.85
704.83	18.72
704.96	25.75
705.10	84.26
705.23	28.09
>>>>>End Processed Spectral Data<<<<<
