SpectraSuite Data File
++++++++++++++++++++++++++++++++++++
Date: Fri Oct 04 12:13:41 GMT-05:00 2013
User: price-jones
Dark Spectrum Present: No
Reference Spectrum Present: No
Number of Sampled Component Spectra: 1
Spectrometers: USB2+H05261
Integration Time (usec): 10000 (USB2+H05261)
Spectra Averaged: 1 (USB2+H05261)
Boxcar Smoothing: 0 (USB2+H05261)
Correct for Electrical Dark: No (USB2+H05261)
Strobe/Lamp Enabled: No (USB2+H05261)
Correct for Detector Non-linearity: No (USB2+H05261)
Correct for Stray Light: No (USB2+H05261)
Number of Pixels in Processed Spectrum: 2048
>>>>>Begin Processed Spectral Data<<<<<
365.73	0.00
365.92	0.00
366.12	0.00
366.32	14.04
366.52	0.00
366.72	0.00
366.91	0.00
367.11	0.00
367.31	0.00
367.51	0.00
367.70	0.00
367.90	0.00
368.10	0.00
368.30	0.00
368.49	0.00
368.69	0.00
368.89	0.00
369.09	0.00
369.28	0.00
369.48	0.00
369.68	0.00
369.87	0.00
370.07	0.00
370.27	0.00
370.47	0.00
370.66	0.00
370.86	0.00
371.06	0.00
371.25	0.00
371.45	0.00
371.65	0.00
371.84	0.00
372.04	0.00
372.24	7.02
372.44	0.00
372.63	0.00
372.83	0.00
373.03	0.00
373.22	0.00
373.42	0.00
373.62	53.83
373.81	67.88
374.01	9.36
374.21	0.00
374.40	30.43
374.60	39.79
374.79	23.41
374.99	51.49
375.19	39.79
375.38	72.56
375.58	79.58
375.78	21.06
375.97	7.02
376.17	58.51
376.37	0.00
376.56	9.36
376.76	63.19
376.95	37.45
377.15	65.54
377.35	0.00
377.54	44.47
377.74	4.68
377.93	0.00
378.13	0.00
378.33	42.13
378.52	56.17
378.72	0.00
378.91	25.75
379.11	0.00
379.31	58.51
379.50	23.41
379.70	9.36
379.89	0.00
380.09	65.54
380.28	4.68
380.48	91.28
380.68	70.22
380.87	60.85
381.07	0.00
381.26	0.00
381.46	67.88
381.65	0.00
381.85	14.04
382.04	0.00
382.24	0.00
382.43	9.36
382.63	53.83
382.83	11.70
383.02	39.79
383.22	9.36
383.41	0.00
383.61	28.09
383.80	53.83
384.00	28.09
384.19	0.00
384.39	88.94
384.58	14.04
384.78	2.34
384.97	70.22
385.17	2.34
385.36	0.00
385.56	16.38
385.75	53.83
385.95	28.09
386.14	0.00
386.34	0.00
386.53	0.00
386.72	56.17
386.92	51.49
387.11	0.00
387.31	2.34
387.50	11.70
387.70	32.77
387.89	0.00
388.09	32.77
388.28	23.41
388.48	46.81
388.67	7.02
388.86	81.92
389.06	44.47
389.25	32.77
389.45	39.79
389.64	86.60
389.84	32.77
390.03	0.00
390.22	23.41
390.42	18.72
390.61	25.75
390.81	81.92
391.00	77.24
391.19	37.45
391.39	16.38
391.58	28.09
391.78	46.81
391.97	46.81
392.16	28.09
392.36	0.00
392.55	28.09
392.75	70.22
392.94	14.04
393.13	44.47
393.33	84.26
393.52	0.00
393.71	4.68
393.91	30.43
394.10	42.13
394.29	60.85
394.49	25.75
394.68	0.00
394.88	56.17
395.07	9.36
395.26	44.47
395.46	0.00
395.65	28.09
395.84	35.11
396.04	35.11
396.23	0.00
396.42	0.00
396.62	110.01
396.81	21.06
397.00	0.00
397.19	74.90
397.39	28.09
397.58	51.49
397.77	16.38
397.97	9.36
398.16	65.54
398.35	0.00
398.55	49.15
398.74	58.51
398.93	4.68
399.12	35.11
399.32	93.62
399.51	49.15
399.70	2.34
399.90	28.09
400.09	81.92
400.28	0.00
400.47	46.81
400.67	37.45
400.86	25.75
401.05	0.00
401.24	7.02
401.44	23.41
401.63	49.15
401.82	102.98
402.01	18.72
402.21	18.72
402.40	21.06
402.59	0.00
402.78	32.77
402.97	14.04
403.17	21.06
403.36	67.88
403.55	0.00
403.74	74.90
403.93	7.02
404.13	65.54
404.32	21.06
404.51	79.58
404.70	46.81
404.89	0.00
405.09	37.45
405.28	0.00
405.47	42.13
405.66	88.94
405.85	25.75
406.05	30.43
406.24	70.22
406.43	98.30
406.62	16.38
406.81	16.38
407.00	46.81
407.20	53.83
407.39	0.00
407.58	0.00
407.77	77.24
407.96	30.43
408.15	0.00
408.34	117.03
408.54	30.43
408.73	39.79
408.92	42.13
409.11	14.04
409.30	18.72
409.49	18.72
409.68	112.35
409.87	4.68
410.07	39.79
410.26	18.72
410.45	42.13
410.64	81.92
410.83	28.09
411.02	72.56
411.21	70.22
411.40	100.64
411.59	58.51
411.78	0.00
411.98	11.70
412.17	121.71
412.36	28.09
412.55	25.75
412.74	56.17
412.93	56.17
413.12	28.09
413.31	70.22
413.50	58.51
413.69	23.41
413.88	0.00
414.07	60.85
414.26	28.09
414.45	58.51
414.64	25.75
414.83	32.77
415.02	0.00
415.22	21.06
415.41	14.04
415.60	0.00
415.79	46.81
415.98	0.00
416.17	18.72
416.36	30.43
416.55	79.58
416.74	53.83
416.93	74.90
417.12	74.90
417.31	46.81
417.50	56.17
417.69	37.45
417.88	16.38
418.07	0.00
418.26	49.15
418.45	42.13
418.64	56.17
418.83	117.03
419.02	30.43
419.21	21.06
419.39	14.04
419.58	21.06
419.77	88.94
419.96	42.13
420.15	102.98
420.34	9.36
420.53	60.85
420.72	84.26
420.91	23.41
421.10	58.51
421.29	0.00
421.48	37.45
421.67	51.49
421.86	67.88
422.05	35.11
422.24	63.19
422.43	112.35
422.61	91.28
422.80	44.47
422.99	11.70
423.18	81.92
423.37	0.00
423.56	100.64
423.75	42.13
423.94	0.00
424.13	4.68
424.32	67.88
424.50	0.00
424.69	112.35
424.88	91.28
425.07	32.77
425.26	9.36
425.45	0.00
425.64	74.90
425.83	53.83
426.01	93.62
426.20	70.22
426.39	67.88
426.58	58.51
426.77	42.13
426.96	18.72
427.15	58.51
427.33	28.09
427.52	0.00
427.71	65.54
427.90	60.85
428.09	70.22
428.28	16.38
428.46	60.85
428.65	0.00
428.84	58.51
429.03	44.47
429.22	42.13
429.40	9.36
429.59	53.83
429.78	28.09
429.97	42.13
430.16	37.45
430.34	28.09
430.53	0.00
430.72	7.02
430.91	0.00
431.10	53.83
431.28	18.72
431.47	37.45
431.66	56.17
431.85	4.68
432.03	98.30
432.22	58.51
432.41	11.70
432.60	112.35
432.79	32.77
432.97	63.19
433.16	53.83
433.35	30.43
433.54	79.58
433.72	60.85
433.91	58.51
434.10	49.15
434.28	9.36
434.47	32.77
434.66	46.81
434.85	49.15
435.03	0.00
435.22	58.51
435.41	39.79
435.59	105.32
435.78	35.11
435.97	84.26
436.16	2.34
436.34	56.17
436.53	23.41
436.72	0.00
436.90	91.28
437.09	88.94
437.28	65.54
437.46	0.00
437.65	124.05
437.84	49.15
438.02	84.26
438.21	63.19
438.40	37.45
438.58	77.24
438.77	32.77
438.96	67.88
439.14	77.24
439.33	37.45
439.52	60.85
439.70	93.62
439.89	30.43
440.08	74.90
440.26	60.85
440.45	72.56
440.63	44.47
440.82	51.49
441.01	21.06
441.19	58.51
441.38	28.09
441.57	72.56
441.75	0.00
441.94	67.88
442.12	65.54
442.31	30.43
442.50	72.56
442.68	0.00
442.87	51.49
443.05	107.66
443.24	65.54
443.43	39.79
443.61	98.30
443.80	7.02
443.98	25.75
444.17	46.81
444.35	0.00
444.54	51.49
444.73	65.54
444.91	0.00
445.10	72.56
445.28	100.64
445.47	74.90
445.65	37.45
445.84	44.47
446.02	72.56
446.21	0.00
446.39	25.75
446.58	46.81
446.77	28.09
446.95	49.15
447.14	21.06
447.32	56.17
447.51	77.24
447.69	128.73
447.88	74.90
448.06	95.96
448.25	88.94
448.43	51.49
448.62	58.51
448.80	121.71
448.99	100.64
449.17	25.75
449.36	72.56
449.54	30.43
449.73	49.15
449.91	51.49
450.10	163.84
450.28	51.49
450.46	100.64
450.65	42.13
450.83	84.26
451.02	56.17
451.20	63.19
451.39	88.94
451.57	32.77
451.76	18.72
451.94	0.00
452.13	39.79
452.31	51.49
452.49	32.77
452.68	67.88
452.86	67.88
453.05	9.36
453.23	25.75
453.42	88.94
453.60	74.90
453.78	112.35
453.97	72.56
454.15	110.01
454.34	79.58
454.52	77.24
454.70	44.47
454.89	39.79
455.07	46.81
455.26	88.94
455.44	95.96
455.62	56.17
455.81	72.56
455.99	70.22
456.17	77.24
456.36	0.00
456.54	119.37
456.73	23.41
456.91	30.43
457.09	42.13
457.28	42.13
457.46	0.00
457.64	23.41
457.83	28.09
458.01	25.75
458.19	37.45
458.38	30.43
458.56	67.88
458.74	35.11
458.93	0.00
459.11	91.28
459.29	0.00
459.48	0.00
459.66	42.13
459.84	67.88
460.03	70.22
460.21	93.62
460.39	77.24
460.57	58.51
460.76	14.04
460.94	79.58
461.12	135.75
461.31	37.45
461.49	16.38
461.67	32.77
461.85	0.00
462.04	58.51
462.22	79.58
462.40	70.22
462.59	32.77
462.77	53.83
462.95	105.32
463.13	67.88
463.32	42.13
463.50	79.58
463.68	67.88
463.86	124.05
464.05	51.49
464.23	42.13
464.41	63.19
464.59	65.54
464.78	93.62
464.96	21.06
465.14	32.77
465.32	37.45
465.50	0.00
465.69	23.41
465.87	93.62
466.05	44.47
466.23	86.60
466.41	67.88
466.60	84.26
466.78	11.70
466.96	0.00
467.14	11.70
467.32	60.85
467.51	46.81
467.69	91.28
467.87	32.77
468.05	102.98
468.23	63.19
468.41	11.70
468.60	63.19
468.78	102.98
468.96	77.24
469.14	25.75
469.32	91.28
469.50	72.56
469.69	121.71
469.87	39.79
470.05	4.68
470.23	93.62
470.41	102.98
470.59	4.68
470.77	18.72
470.95	88.94
471.14	46.81
471.32	60.85
471.50	53.83
471.68	46.81
471.86	98.30
472.04	91.28
472.22	93.62
472.40	86.60
472.58	65.54
472.77	46.81
472.95	74.90
473.13	16.38
473.31	42.13
473.49	119.37
473.67	32.77
473.85	32.77
474.03	86.60
474.21	133.41
474.39	100.64
474.57	11.70
474.75	56.17
474.93	63.19
475.12	53.83
475.30	63.19
475.48	21.06
475.66	32.77
475.84	23.41
476.02	81.92
476.20	35.11
476.38	77.24
476.56	81.92
476.74	95.96
476.92	60.85
477.10	65.54
477.28	42.13
477.46	86.60
477.64	37.45
477.82	100.64
478.00	9.36
478.18	95.96
478.36	81.92
478.54	93.62
478.72	88.94
478.90	170.86
479.08	84.26
479.26	16.38
479.44	124.05
479.62	25.75
479.80	74.90
479.98	138.09
480.16	56.17
480.34	14.04
480.52	9.36
480.70	114.69
480.88	65.54
481.06	25.75
481.24	84.26
481.41	28.09
481.59	84.26
481.77	56.17
481.95	21.06
482.13	39.79
482.31	16.38
482.49	77.24
482.67	88.94
482.85	46.81
483.03	88.94
483.21	135.75
483.39	67.88
483.57	93.62
483.74	14.04
483.92	88.94
484.10	2.34
484.28	37.45
484.46	100.64
484.64	58.51
484.82	107.66
485.00	74.90
485.18	49.15
485.35	65.54
485.53	65.54
485.71	51.49
485.89	95.96
486.07	142.77
486.25	88.94
486.43	98.30
486.61	37.45
486.78	119.37
486.96	0.00
487.14	35.11
487.32	84.26
487.50	107.66
487.68	63.19
487.85	0.00
488.03	100.64
488.21	0.00
488.39	86.60
488.57	0.00
488.75	35.11
488.92	35.11
489.10	63.19
489.28	65.54
489.46	58.51
489.64	91.28
489.81	72.56
489.99	65.54
490.17	128.73
490.35	42.13
490.53	11.70
490.70	72.56
490.88	121.71
491.06	53.83
491.24	70.22
491.41	65.54
491.59	102.98
491.77	91.28
491.95	65.54
492.13	95.96
492.30	98.30
492.48	119.37
492.66	107.66
492.84	25.75
493.01	93.62
493.19	81.92
493.37	30.43
493.54	84.26
493.72	58.51
493.90	67.88
494.08	133.41
494.25	56.17
494.43	18.72
494.61	53.83
494.79	112.35
494.96	53.83
495.14	84.26
495.32	88.94
495.49	163.84
495.67	112.35
495.85	131.07
496.02	72.56
496.20	121.71
496.38	70.22
496.55	77.24
496.73	114.69
496.91	49.15
497.09	16.38
497.26	119.37
497.44	74.90
497.62	39.79
497.79	84.26
497.97	72.56
498.14	124.05
498.32	81.92
498.50	74.90
498.67	39.79
498.85	135.75
499.03	4.68
499.20	126.39
499.38	98.30
499.56	60.85
499.73	74.90
499.91	117.03
500.08	74.90
500.26	56.17
500.44	81.92
500.61	44.47
500.79	131.07
500.97	93.62
501.14	72.56
501.32	102.98
501.49	81.92
501.67	102.98
501.84	81.92
502.02	79.58
502.20	147.45
502.37	124.05
502.55	142.77
502.72	98.30
502.90	79.58
503.07	124.05
503.25	14.04
503.43	58.51
503.60	77.24
503.78	140.43
503.95	44.47
504.13	35.11
504.30	65.54
504.48	91.28
504.65	152.13
504.83	42.13
505.01	53.83
505.18	42.13
505.36	37.45
505.53	23.41
505.71	49.15
505.88	81.92
506.06	102.98
506.23	72.56
506.41	21.06
506.58	79.58
506.76	42.13
506.93	91.28
507.11	79.58
507.28	88.94
507.46	56.17
507.63	44.47
507.81	79.58
507.98	91.28
508.16	112.35
508.33	119.37
508.50	175.54
508.68	107.66
508.85	84.26
509.03	39.79
509.20	84.26
509.38	60.85
509.55	53.83
509.73	74.90
509.90	67.88
510.08	30.43
510.25	124.05
510.42	65.54
510.60	81.92
510.77	60.85
510.95	53.83
511.12	74.90
511.30	58.51
511.47	86.60
511.64	49.15
511.82	32.77
511.99	95.96
512.17	88.94
512.34	95.96
512.51	95.96
512.69	147.45
512.86	42.13
513.04	42.13
513.21	91.28
513.38	70.22
513.56	74.90
513.73	105.32
513.90	126.39
514.08	67.88
514.25	112.35
514.43	124.05
514.60	138.09
514.77	70.22
514.95	74.90
515.12	91.28
515.29	70.22
515.47	98.30
515.64	84.26
515.81	126.39
515.99	39.79
516.16	84.26
516.33	39.79
516.51	60.85
516.68	81.92
516.85	72.56
517.03	63.19
517.20	11.70
517.37	79.58
517.54	140.43
517.72	46.81
517.89	100.64
518.06	32.77
518.24	46.81
518.41	65.54
518.58	44.47
518.75	77.24
518.93	100.64
519.10	117.03
519.27	21.06
519.45	32.77
519.62	21.06
519.79	119.37
519.96	39.79
520.14	138.09
520.31	49.15
520.48	56.17
520.65	42.13
520.83	149.79
521.00	145.11
521.17	58.51
521.34	23.41
521.52	58.51
521.69	46.81
521.86	70.22
522.03	102.98
522.20	93.62
522.38	16.38
522.55	7.02
522.72	72.56
522.89	70.22
523.07	95.96
523.24	107.66
523.41	67.88
523.58	114.69
523.75	126.39
523.92	0.00
524.10	88.94
524.27	56.17
524.44	114.69
524.61	77.24
524.78	112.35
524.96	147.45
525.13	86.60
525.30	86.60
525.47	60.85
525.64	81.92
525.81	105.32
525.98	44.47
526.16	88.94
526.33	126.39
526.50	114.69
526.67	37.45
526.84	84.26
527.01	74.90
527.18	133.41
527.36	56.17
527.53	100.64
527.70	37.45
527.87	42.13
528.04	88.94
528.21	121.71
528.38	65.54
528.55	37.45
528.72	117.03
528.89	86.60
529.07	110.01
529.24	46.81
529.41	60.85
529.58	140.43
529.75	135.75
529.92	49.15
530.09	119.37
530.26	100.64
530.43	95.96
530.60	86.60
530.77	30.43
530.94	91.28
531.11	107.66
531.28	42.13
531.46	42.13
531.63	81.92
531.80	142.77
531.97	135.75
532.14	86.60
532.31	72.56
532.48	91.28
532.65	74.90
532.82	107.66
532.99	70.22
533.16	84.26
533.33	58.51
533.50	93.62
533.67	88.94
533.84	46.81
534.01	107.66
534.18	105.32
534.35	91.28
534.52	95.96
534.69	105.32
534.86	131.07
535.03	93.62
535.20	142.77
535.37	74.90
535.54	180.22
535.71	7.02
535.88	105.32
536.05	102.98
536.22	84.26
536.38	65.54
536.55	95.96
536.72	72.56
536.89	30.43
537.06	107.66
537.23	102.98
537.40	91.28
537.57	112.35
537.74	39.79
537.91	72.56
538.08	133.41
538.25	117.03
538.42	100.64
538.59	91.28
538.75	131.07
538.92	112.35
539.09	70.22
539.26	72.56
539.43	81.92
539.60	65.54
539.77	142.77
539.94	79.58
540.11	88.94
540.28	44.47
540.44	95.96
540.61	138.09
540.78	95.96
540.95	56.17
541.12	163.84
541.29	25.75
541.46	112.35
541.62	147.45
541.79	79.58
541.96	30.43
542.13	88.94
542.30	14.04
542.47	67.88
542.63	86.60
542.80	56.17
542.97	46.81
543.14	49.15
543.31	95.96
543.48	65.54
543.64	58.51
543.81	149.79
543.98	105.32
544.15	126.39
544.32	107.66
544.48	28.09
544.65	0.00
544.82	135.75
544.99	95.96
545.16	114.69
545.32	86.60
545.49	98.30
545.66	98.30
545.83	70.22
546.00	102.98
546.16	105.32
546.33	117.03
546.50	91.28
546.67	56.17
546.83	126.39
547.00	133.41
547.17	81.92
547.34	124.05
547.50	119.37
547.67	35.11
547.84	32.77
548.00	44.47
548.17	44.47
548.34	102.98
548.51	102.98
548.67	65.54
548.84	142.77
549.01	86.60
549.18	65.54
549.34	98.30
549.51	25.75
549.68	187.24
549.84	16.38
550.01	117.03
550.18	107.66
550.34	46.81
550.51	102.98
550.68	39.79
550.84	79.58
551.01	102.98
551.18	133.41
551.34	79.58
551.51	102.98
551.68	91.28
551.84	65.54
552.01	63.19
552.18	79.58
552.34	77.24
552.51	16.38
552.68	95.96
552.84	35.11
553.01	88.94
553.18	93.62
553.34	44.47
553.51	14.04
553.67	95.96
553.84	65.54
554.01	105.32
554.17	44.47
554.34	81.92
554.51	112.35
554.67	56.17
554.84	145.11
555.00	156.82
555.17	51.49
555.33	147.45
555.50	112.35
555.67	126.39
555.83	98.30
556.00	77.24
556.16	49.15
556.33	110.01
556.50	39.79
556.66	161.50
556.83	74.90
556.99	84.26
557.16	149.79
557.32	56.17
557.49	79.58
557.65	95.96
557.82	93.62
557.98	46.81
558.15	124.05
558.32	95.96
558.48	86.60
558.65	53.83
558.81	60.85
558.98	77.24
559.14	81.92
559.31	110.01
559.47	51.49
559.64	81.92
559.80	86.60
559.97	72.56
560.13	102.98
560.30	147.45
560.46	131.07
560.63	100.64
560.79	114.69
560.96	84.26
561.12	107.66
561.29	28.09
561.45	25.75
561.61	56.17
561.78	147.45
561.94	65.54
562.11	79.58
562.27	117.03
562.44	63.19
562.60	110.01
562.77	39.79
562.93	126.39
563.10	86.60
563.26	30.43
563.42	159.16
563.59	56.17
563.75	4.68
563.92	126.39
564.08	72.56
564.24	79.58
564.41	107.66
564.57	117.03
564.74	49.15
564.90	23.41
565.07	124.05
565.23	79.58
565.39	110.01
565.56	25.75
565.72	72.56
565.88	100.64
566.05	93.62
566.21	25.75
566.38	56.17
566.54	86.60
566.70	30.43
566.87	98.30
567.03	105.32
567.19	126.39
567.36	4.68
567.52	138.09
567.68	65.54
567.85	4.68
568.01	44.47
568.17	32.77
568.34	112.35
568.50	79.58
568.66	93.62
568.83	140.43
568.99	53.83
569.15	79.58
569.32	65.54
569.48	63.19
569.64	112.35
569.81	95.96
569.97	119.37
570.13	32.77
570.30	0.00
570.46	147.45
570.62	93.62
570.78	46.81
570.95	135.75
571.11	72.56
571.27	110.01
571.43	102.98
571.60	49.15
571.76	91.28
571.92	93.62
572.09	81.92
572.25	42.13
572.41	110.01
572.57	53.83
572.74	37.45
572.90	0.00
573.06	86.60
573.22	74.90
573.38	149.79
573.55	117.03
573.71	49.15
573.87	37.45
574.03	16.38
574.20	72.56
574.36	58.51
574.52	21.06
574.68	121.71
574.84	91.28
575.01	102.98
575.17	138.09
575.33	102.98
575.49	77.24
575.65	58.51
575.82	107.66
575.98	49.15
576.14	63.19
576.30	0.00
576.46	81.92
576.62	72.56
576.79	107.66
576.95	102.98
577.11	112.35
577.27	46.81
577.43	60.85
577.59	91.28
577.75	79.58
577.92	32.77
578.08	100.64
578.24	51.49
578.40	112.35
578.56	95.96
578.72	74.90
578.88	98.30
579.04	56.17
579.21	35.11
579.37	86.60
579.53	28.09
579.69	72.56
579.85	121.71
580.01	107.66
580.17	131.07
580.33	65.54
580.49	0.00
580.65	65.54
580.82	35.11
580.98	77.24
581.14	18.72
581.30	119.37
581.46	0.00
581.62	16.38
581.78	53.83
581.94	49.15
582.10	49.15
582.26	124.05
582.42	79.58
582.58	16.38
582.74	126.39
582.90	74.90
583.06	138.09
583.22	95.96
583.38	67.88
583.54	49.15
583.70	74.90
583.86	98.30
584.02	102.98
584.18	147.45
584.34	102.98
584.50	107.66
584.66	81.92
584.82	32.77
584.98	84.26
585.14	81.92
585.30	23.41
585.46	79.58
585.62	98.30
585.78	35.11
585.94	86.60
586.10	98.30
586.26	84.26
586.42	112.35
586.58	21.06
586.74	77.24
586.90	98.30
587.06	77.24
587.22	23.41
587.38	93.62
587.54	88.94
587.70	53.83
587.86	93.62
588.02	79.58
588.18	25.75
588.34	93.62
588.49	39.79
588.65	72.56
588.81	145.11
588.97	74.90
589.13	81.92
589.29	98.30
589.45	49.15
589.61	119.37
589.77	154.48
589.93	23.41
590.08	117.03
590.24	49.15
590.40	0.00
590.56	105.32
590.72	9.36
590.88	53.83
591.04	16.38
591.20	84.26
591.35	14.04
591.51	0.00
591.67	56.17
591.83	35.11
591.99	117.03
592.15	46.81
592.31	37.45
592.46	51.49
592.62	100.64
592.78	105.32
592.94	28.09
593.10	173.20
593.26	93.62
593.41	79.58
593.57	63.19
593.73	84.26
593.89	77.24
594.05	16.38
594.20	46.81
594.36	49.15
594.52	100.64
594.68	30.43
594.84	46.81
594.99	65.54
595.15	0.00
595.31	74.90
595.47	23.41
595.62	42.13
595.78	0.00
595.94	72.56
596.10	84.26
596.25	44.47
596.41	95.96
596.57	60.85
596.73	32.77
596.88	84.26
597.04	124.05
597.20	37.45
597.36	70.22
597.51	79.58
597.67	65.54
597.83	18.72
597.99	56.17
598.14	74.90
598.30	79.58
598.46	72.56
598.61	0.00
598.77	0.00
598.93	72.56
599.09	140.43
599.24	105.32
599.40	21.06
599.56	121.71
599.71	46.81
599.87	121.71
600.03	84.26
600.18	60.85
600.34	110.01
600.50	81.92
600.65	91.28
600.81	126.39
600.97	28.09
601.12	30.43
601.28	56.17
601.44	23.41
601.59	9.36
601.75	35.11
601.91	79.58
602.06	91.28
602.22	37.45
602.37	124.05
602.53	84.26
602.69	37.45
602.84	105.32
603.00	39.79
603.16	53.83
603.31	51.49
603.47	121.71
603.62	49.15
603.78	86.60
603.94	35.11
604.09	49.15
604.25	105.32
604.40	79.58
604.56	81.92
604.71	72.56
604.87	67.88
605.03	98.30
605.18	126.39
605.34	91.28
605.49	21.06
605.65	30.43
605.80	86.60
605.96	23.41
606.12	110.01
606.27	121.71
606.43	67.88
606.58	88.94
606.74	70.22
606.89	56.17
607.05	100.64
607.20	30.43
607.36	46.81
607.51	63.19
607.67	67.88
607.82	84.26
607.98	114.69
608.13	102.98
608.29	81.92
608.44	56.17
608.60	84.26
608.75	117.03
608.91	86.60
609.06	119.37
609.22	23.41
609.37	51.49
609.53	81.92
609.68	81.92
609.84	81.92
609.99	138.09
610.15	42.13
610.30	53.83
610.46	51.49
610.61	79.58
610.76	110.01
610.92	60.85
611.07	21.06
611.23	70.22
611.38	39.79
611.54	23.41
611.69	21.06
611.84	91.28
612.00	114.69
612.15	81.92
612.31	100.64
612.46	0.00
612.62	81.92
612.77	93.62
612.92	51.49
613.08	46.81
613.23	112.35
613.39	74.90
613.54	105.32
613.69	4.68
613.85	100.64
614.00	2.34
614.15	105.32
614.31	58.51
614.46	84.26
614.62	53.83
614.77	39.79
614.92	58.51
615.08	25.75
615.23	72.56
615.38	86.60
615.54	105.32
615.69	72.56
615.84	63.19
616.00	67.88
616.15	53.83
616.30	9.36
616.46	93.62
616.61	72.56
616.76	102.98
616.92	114.69
617.07	0.00
617.22	58.51
617.37	49.15
617.53	58.51
617.68	67.88
617.83	56.17
617.99	30.43
618.14	74.90
618.29	102.98
618.45	65.54
618.60	70.22
618.75	60.85
618.90	88.94
619.06	63.19
619.21	0.00
619.36	86.60
619.51	93.62
619.67	98.30
619.82	49.15
619.97	7.02
620.12	81.92
620.28	74.90
620.43	32.77
620.58	84.26
620.73	49.15
620.89	49.15
621.04	131.07
621.19	84.26
621.34	79.58
621.49	63.19
621.65	107.66
621.80	79.58
621.95	98.30
622.10	72.56
622.25	72.56
622.41	46.81
622.56	60.85
622.71	16.38
622.86	58.51
623.01	58.51
623.16	42.13
623.32	28.09
623.47	72.56
623.62	0.00
623.77	56.17
623.92	9.36
624.07	98.30
624.23	60.85
624.38	65.54
624.53	42.13
624.68	131.07
624.83	0.00
624.98	72.56
625.13	91.28
625.29	53.83
625.44	16.38
625.59	65.54
625.74	37.45
625.89	53.83
626.04	84.26
626.19	67.88
626.34	79.58
626.49	74.90
626.65	70.22
626.80	156.82
626.95	142.77
627.10	9.36
627.25	16.38
627.40	14.04
627.55	63.19
627.70	98.30
627.85	0.00
628.00	86.60
628.15	65.54
628.30	28.09
628.45	65.54
628.60	77.24
628.76	58.51
628.91	0.00
629.06	35.11
629.21	98.30
629.36	81.92
629.51	39.79
629.66	14.04
629.81	65.54
629.96	16.38
630.11	88.94
630.26	77.24
630.41	110.01
630.56	105.32
630.71	35.11
630.86	63.19
631.01	0.00
631.16	163.84
631.31	23.41
631.46	88.94
631.61	49.15
631.76	72.56
631.91	37.45
632.06	74.90
632.21	121.71
632.36	58.51
632.51	63.19
632.66	100.64
632.81	0.00
632.96	37.45
633.10	0.00
633.25	21.06
633.40	142.77
633.55	44.47
633.70	72.56
633.85	18.72
634.00	35.11
634.15	46.81
634.30	100.64
634.45	72.56
634.60	0.00
634.75	18.72
634.90	51.49
635.05	46.81
635.19	39.79
635.34	84.26
635.49	28.09
635.64	25.75
635.79	91.28
635.94	28.09
636.09	28.09
636.24	86.60
636.39	0.00
636.53	102.98
636.68	11.70
636.83	91.28
636.98	21.06
637.13	25.75
637.28	79.58
637.43	65.54
637.57	102.98
637.72	77.24
637.87	51.49
638.02	23.41
638.17	0.00
638.32	49.15
638.46	63.19
638.61	72.56
638.76	42.13
638.91	7.02
639.06	46.81
639.20	28.09
639.35	117.03
639.50	79.58
639.65	60.85
639.80	67.88
639.94	84.26
640.09	102.98
640.24	42.13
640.39	70.22
640.54	51.49
640.68	67.88
640.83	112.35
640.98	56.17
641.13	51.49
641.27	37.45
641.42	16.38
641.57	0.00
641.72	56.17
641.86	121.71
642.01	67.88
642.16	56.17
642.31	98.30
642.45	102.98
642.60	58.51
642.75	39.79
642.90	49.15
643.04	49.15
643.19	58.51
643.34	91.28
643.48	79.58
643.63	51.49
643.78	49.15
643.93	63.19
644.07	102.98
644.22	117.03
644.37	9.36
644.51	95.96
644.66	102.98
644.81	0.00
644.95	81.92
645.10	32.77
645.25	51.49
645.39	107.66
645.54	35.11
645.69	93.62
645.83	95.96
645.98	77.24
646.13	4.68
646.27	65.54
646.42	0.00
646.57	18.72
646.71	44.47
646.86	81.92
647.00	7.02
647.15	49.15
647.30	63.19
647.44	30.43
647.59	0.00
647.74	42.13
647.88	0.00
648.03	25.75
648.17	23.41
648.32	0.00
648.47	60.85
648.61	53.83
648.76	23.41
648.90	37.45
649.05	51.49
649.20	138.09
649.34	0.00
649.49	37.45
649.63	51.49
649.78	84.26
649.92	65.54
650.07	67.88
650.21	128.73
650.36	159.16
650.51	2.34
650.65	0.00
650.80	16.38
650.94	42.13
651.09	95.96
651.23	9.36
651.38	44.47
651.52	93.62
651.67	117.03
651.81	30.43
651.96	46.81
652.10	56.17
652.25	81.92
652.39	51.49
652.54	65.54
652.68	46.81
652.83	9.36
652.97	51.49
653.12	91.28
653.26	53.83
653.41	60.85
653.55	53.83
653.70	72.56
653.84	81.92
653.99	35.11
654.13	53.83
654.27	39.79
654.42	0.00
654.56	79.58
654.71	14.04
654.85	56.17
655.00	0.00
655.14	79.58
655.29	77.24
655.43	60.85
655.57	2.34
655.72	18.72
655.86	37.45
656.01	58.51
656.15	7.02
656.30	32.77
656.44	28.09
656.58	100.64
656.73	21.06
656.87	84.26
657.01	28.09
657.16	72.56
657.30	74.90
657.45	63.19
657.59	72.56
657.73	65.54
657.88	102.98
658.02	100.64
658.16	93.62
658.31	0.00
658.45	81.92
658.60	56.17
658.74	0.00
658.88	30.43
659.03	81.92
659.17	49.15
659.31	35.11
659.46	93.62
659.60	9.36
659.74	35.11
659.89	77.24
660.03	46.81
660.17	28.09
660.32	0.00
660.46	72.56
660.60	46.81
660.74	53.83
660.89	0.00
661.03	70.22
661.17	39.79
661.32	42.13
661.46	44.47
661.60	18.72
661.74	46.81
661.89	79.58
662.03	9.36
662.17	0.00
662.31	74.90
662.46	56.17
662.60	72.56
662.74	4.68
662.88	35.11
663.03	35.11
663.17	110.01
663.31	21.06
663.45	0.00
663.60	65.54
663.74	49.15
663.88	11.70
664.02	86.60
664.17	81.92
664.31	74.90
664.45	58.51
664.59	25.75
664.73	21.06
664.88	112.35
665.02	35.11
665.16	79.58
665.30	56.17
665.44	0.00
665.59	65.54
665.73	135.75
665.87	72.56
666.01	81.92
666.15	121.71
666.29	0.00
666.44	77.24
666.58	28.09
666.72	28.09
666.86	9.36
667.00	0.00
667.14	18.72
667.28	79.58
667.43	49.15
667.57	145.11
667.71	114.69
667.85	114.69
667.99	39.79
668.13	81.92
668.27	65.54
668.41	35.11
668.56	35.11
668.70	23.41
668.84	37.45
668.98	14.04
669.12	2.34
669.26	51.49
669.40	72.56
669.54	53.83
669.68	23.41
669.82	18.72
669.96	72.56
670.10	32.77
670.25	84.26
670.39	25.75
670.53	107.66
670.67	49.15
670.81	65.54
670.95	4.68
671.09	60.85
671.23	58.51
671.37	30.43
671.51	114.69
671.65	74.90
671.79	95.96
671.93	51.49
672.07	44.47
672.21	51.49
672.35	44.47
672.49	88.94
672.63	60.85
672.77	37.45
672.91	84.26
673.05	49.15
673.19	25.75
673.33	0.00
673.47	51.49
673.61	131.07
673.75	91.28
673.89	16.38
674.03	9.36
674.17	98.30
674.31	81.92
674.45	65.54
674.59	11.70
674.73	79.58
674.87	51.49
675.01	46.81
675.15	42.13
675.29	14.04
675.43	14.04
675.56	81.92
675.70	25.75
675.84	21.06
675.98	67.88
676.12	65.54
676.26	44.47
676.40	79.58
676.54	79.58
676.68	74.90
676.82	16.38
676.96	39.79
677.10	65.54
677.23	56.17
677.37	56.17
677.51	58.51
677.65	67.88
677.79	30.43
677.93	32.77
678.07	23.41
678.21	7.02
678.34	9.36
678.48	2.34
678.62	105.32
678.76	77.24
678.90	60.85
679.04	23.41
679.18	30.43
679.31	74.90
679.45	18.72
679.59	0.00
679.73	39.79
679.87	0.00
680.00	84.26
680.14	35.11
680.28	23.41
680.42	88.94
680.56	39.79
680.70	0.00
680.83	37.45
680.97	35.11
681.11	39.79
681.25	88.94
681.39	23.41
681.52	60.85
681.66	63.19
681.80	21.06
681.94	53.83
682.07	53.83
682.21	93.62
682.35	91.28
682.49	0.00
682.62	35.11
682.76	65.54
682.90	72.56
683.04	84.26
683.17	56.17
683.31	16.38
683.45	91.28
683.59	100.64
683.72	11.70
683.86	42.13
684.00	7.02
684.13	46.81
684.27	74.90
684.41	9.36
684.55	30.43
684.68	46.81
684.82	21.06
684.96	58.51
685.09	18.72
685.23	37.45
685.37	91.28
685.50	0.00
685.64	18.72
685.78	65.54
685.91	135.75
686.05	56.17
686.19	21.06
686.32	56.17
686.46	56.17
686.60	18.72
686.73	18.72
686.87	53.83
687.01	16.38
687.14	23.41
687.28	25.75
687.42	0.00
687.55	0.00
687.69	23.41
687.82	0.00
687.96	18.72
688.10	37.45
688.23	35.11
688.37	14.04
688.50	37.45
688.64	37.45
688.78	35.11
688.91	51.49
689.05	28.09
689.18	23.41
689.32	67.88
689.46	65.54
689.59	14.04
689.73	16.38
689.86	2.34
690.00	72.56
690.13	11.70
690.27	0.00
690.41	42.13
690.54	46.81
690.68	46.81
690.81	95.96
690.95	49.15
691.08	46.81
691.22	105.32
691.35	0.00
691.49	65.54
691.62	18.72
691.76	0.00
691.89	0.00
692.03	81.92
692.16	0.00
692.30	49.15
692.43	14.04
692.57	67.88
692.70	98.30
692.84	117.03
692.97	0.00
693.11	49.15
693.24	44.47
693.38	37.45
693.51	0.00
693.65	39.79
693.78	72.56
693.92	0.00
694.05	7.02
694.19	0.00
694.32	93.62
694.45	0.00
694.59	7.02
694.72	67.88
694.86	0.00
694.99	25.75
695.13	63.19
695.26	58.51
695.39	0.00
695.53	0.00
695.66	42.13
695.80	77.24
695.93	86.60
696.07	107.66
696.20	30.43
696.33	18.72
696.47	37.45
696.60	23.41
696.73	0.00
696.87	28.09
697.00	49.15
697.14	32.77
697.27	53.83
697.40	0.00
697.54	0.00
697.67	56.17
697.80	56.17
697.94	25.75
698.07	60.85
698.21	124.05
698.34	60.85
698.47	16.38
698.61	44.47
698.74	79.58
698.87	117.03
699.01	0.00
699.14	124.05
699.27	35.11
699.40	32.77
699.54	56.17
699.67	44.47
699.80	11.70
699.94	35.11
700.07	0.00
700.20	37.45
700.34	105.32
700.47	23.41
700.60	4.68
700.73	72.56
700.87	35.11
701.00	46.81
701.13	60.85
701.26	56.17
701.40	16.38
701.53	84.26
701.66	21.06
701.79	65.54
701.93	32.77
702.06	35.11
702.19	30.43
702.32	51.49
702.46	23.41
702.59	98.30
702.72	70.22
702.85	77.24
702.99	28.09
703.12	39.79
703.25	35.11
703.38	60.85
703.51	63.19
703.65	100.64
703.78	56.17
703.91	30.43
704.04	65.54
704.17	91.28
704.31	28.09
704.44	28.09
704.57	102.98
704.70	0.00
704.83	74.90
704.96	49.15
705.10	74.90
705.23	0.00
>>>>>End Processed Spectral Data<<<<<
