SpectraSuite Data File
++++++++++++++++++++++++++++++++++++
Date: Fri Oct 04 12:13:28 GMT-05:00 2013
User: price-jones
Dark Spectrum Present: No
Reference Spectrum Present: No
Number of Sampled Component Spectra: 1
Spectrometers: USB2+H05261
Integration Time (usec): 10000 (USB2+H05261)
Spectra Averaged: 1 (USB2+H05261)
Boxcar Smoothing: 0 (USB2+H05261)
Correct for Electrical Dark: No (USB2+H05261)
Strobe/Lamp Enabled: No (USB2+H05261)
Correct for Detector Non-linearity: No (USB2+H05261)
Correct for Stray Light: No (USB2+H05261)
Number of Pixels in Processed Spectrum: 2048
>>>>>Begin Processed Spectral Data<<<<<
365.73	23.41
365.92	23.41
366.12	23.41
366.32	0.00
366.52	0.00
366.72	0.00
366.91	0.00
367.11	0.00
367.31	0.00
367.51	0.00
367.70	0.00
367.90	0.00
368.10	0.00
368.30	0.00
368.49	0.00
368.69	0.00
368.89	0.00
369.09	0.00
369.28	0.00
369.48	0.00
369.68	0.00
369.87	0.00
370.07	0.00
370.27	0.00
370.47	0.00
370.66	0.00
370.86	0.00
371.06	0.00
371.25	0.00
371.45	0.00
371.65	28.09
371.84	0.00
372.04	23.41
372.24	0.00
372.44	0.00
372.63	0.00
372.83	0.00
373.03	0.00
373.22	14.04
373.42	0.00
373.62	77.24
373.81	77.24
374.01	60.85
374.21	14.04
374.40	60.85
374.60	39.79
374.79	4.68
374.99	0.00
375.19	16.38
375.38	23.41
375.58	60.85
375.78	30.43
375.97	0.00
376.17	21.06
376.37	30.43
376.56	86.60
376.76	23.41
376.95	35.11
377.15	25.75
377.35	0.00
377.54	53.83
377.74	0.00
377.93	0.00
378.13	0.00
378.33	72.56
378.52	0.00
378.72	60.85
378.91	46.81
379.11	0.00
379.31	0.00
379.50	39.79
379.70	0.00
379.89	0.00
380.09	53.83
380.28	28.09
380.48	63.19
380.68	58.51
380.87	32.77
381.07	39.79
381.26	0.00
381.46	25.75
381.65	44.47
381.85	63.19
382.04	14.04
382.24	30.43
382.43	0.00
382.63	30.43
382.83	42.13
383.02	18.72
383.22	0.00
383.41	51.49
383.61	51.49
383.80	0.00
384.00	0.00
384.19	35.11
384.39	23.41
384.58	0.00
384.78	0.00
384.97	0.00
385.17	2.34
385.36	14.04
385.56	53.83
385.75	0.00
385.95	95.96
386.14	23.41
386.34	60.85
386.53	56.17
386.72	72.56
386.92	0.00
387.11	0.00
387.31	11.70
387.50	51.49
387.70	72.56
387.89	32.77
388.09	0.00
388.28	39.79
388.48	0.00
388.67	51.49
388.86	7.02
389.06	4.68
389.25	0.00
389.45	32.77
389.64	0.00
389.84	37.45
390.03	25.75
390.22	21.06
390.42	25.75
390.61	0.00
390.81	105.32
391.00	42.13
391.19	95.96
391.39	25.75
391.58	35.11
391.78	42.13
391.97	11.70
392.16	37.45
392.36	35.11
392.55	51.49
392.75	72.56
392.94	35.11
393.13	0.00
393.33	79.58
393.52	77.24
393.71	46.81
393.91	58.51
394.10	0.00
394.29	30.43
394.49	0.00
394.68	25.75
394.88	35.11
395.07	79.58
395.26	46.81
395.46	0.00
395.65	105.32
395.84	30.43
396.04	95.96
396.23	0.00
396.42	21.06
396.62	0.00
396.81	0.00
397.00	39.79
397.19	7.02
397.39	0.00
397.58	0.00
397.77	46.81
397.97	23.41
398.16	16.38
398.35	0.00
398.55	18.72
398.74	53.83
398.93	37.45
399.12	37.45
399.32	37.45
399.51	112.35
399.70	35.11
399.90	32.77
400.09	91.28
400.28	0.00
400.47	16.38
400.67	0.00
400.86	18.72
401.05	0.00
401.24	46.81
401.44	65.54
401.63	0.00
401.82	4.68
402.01	56.17
402.21	7.02
402.40	18.72
402.59	2.34
402.78	18.72
402.97	0.00
403.17	16.38
403.36	49.15
403.55	0.00
403.74	0.00
403.93	30.43
404.13	0.00
404.32	9.36
404.51	35.11
404.70	74.90
404.89	32.77
405.09	28.09
405.28	53.83
405.47	9.36
405.66	100.64
405.85	0.00
406.05	14.04
406.24	21.06
406.43	0.00
406.62	23.41
406.81	44.47
407.00	0.00
407.20	0.00
407.39	63.19
407.58	70.22
407.77	16.38
407.96	0.00
408.15	0.00
408.34	0.00
408.54	35.11
408.73	35.11
408.92	11.70
409.11	56.17
409.30	0.00
409.49	4.68
409.68	46.81
409.87	98.30
410.07	9.36
410.26	14.04
410.45	42.13
410.64	23.41
410.83	30.43
411.02	18.72
411.21	46.81
411.40	49.15
411.59	42.13
411.78	9.36
411.98	32.77
412.17	4.68
412.36	70.22
412.55	16.38
412.74	23.41
412.93	42.13
413.12	23.41
413.31	63.19
413.50	42.13
413.69	0.00
413.88	11.70
414.07	28.09
414.26	0.00
414.45	72.56
414.64	4.68
414.83	46.81
415.02	42.13
415.22	25.75
415.41	102.98
415.60	28.09
415.79	25.75
415.98	39.79
416.17	74.90
416.36	37.45
416.55	79.58
416.74	9.36
416.93	63.19
417.12	30.43
417.31	11.70
417.50	98.30
417.69	18.72
417.88	35.11
418.07	28.09
418.26	18.72
418.45	16.38
418.64	58.51
418.83	2.34
419.02	81.92
419.21	42.13
419.39	7.02
419.58	28.09
419.77	18.72
419.96	11.70
420.15	0.00
420.34	95.96
420.53	74.90
420.72	72.56
420.91	42.13
421.10	63.19
421.29	0.00
421.48	0.00
421.67	39.79
421.86	0.00
422.05	0.00
422.24	9.36
422.43	30.43
422.61	11.70
422.80	49.15
422.99	14.04
423.18	0.00
423.37	0.00
423.56	35.11
423.75	58.51
423.94	51.49
424.13	65.54
424.32	7.02
424.50	67.88
424.69	7.02
424.88	63.19
425.07	0.00
425.26	39.79
425.45	14.04
425.64	51.49
425.83	9.36
426.01	42.13
426.20	72.56
426.39	14.04
426.58	65.54
426.77	53.83
426.96	0.00
427.15	63.19
427.33	0.00
427.52	67.88
427.71	18.72
427.90	37.45
428.09	39.79
428.28	70.22
428.46	0.00
428.65	131.07
428.84	63.19
429.03	60.85
429.22	16.38
429.40	0.00
429.59	0.00
429.78	91.28
429.97	46.81
430.16	7.02
430.34	102.98
430.53	102.98
430.72	51.49
430.91	53.83
431.10	53.83
431.28	49.15
431.47	95.96
431.66	42.13
431.85	9.36
432.03	60.85
432.22	0.00
432.41	0.00
432.60	53.83
432.79	2.34
432.97	60.85
433.16	14.04
433.35	44.47
433.54	44.47
433.72	11.70
433.91	117.03
434.10	37.45
434.28	56.17
434.47	0.00
434.66	42.13
434.85	102.98
435.03	60.85
435.22	70.22
435.41	4.68
435.59	37.45
435.78	18.72
435.97	30.43
436.16	56.17
436.34	84.26
436.53	102.98
436.72	39.79
436.90	21.06
437.09	86.60
437.28	23.41
437.46	0.00
437.65	0.00
437.84	79.58
438.02	60.85
438.21	0.00
438.40	79.58
438.58	32.77
438.77	16.38
438.96	98.30
439.14	0.00
439.33	18.72
439.52	23.41
439.70	9.36
439.89	4.68
440.08	30.43
440.26	16.38
440.45	11.70
440.63	2.34
440.82	93.62
441.01	74.90
441.19	37.45
441.38	0.00
441.57	16.38
441.75	0.00
441.94	4.68
442.12	44.47
442.31	56.17
442.50	37.45
442.68	7.02
442.87	65.54
443.05	0.00
443.24	0.00
443.43	53.83
443.61	77.24
443.80	0.00
443.98	53.83
444.17	49.15
444.35	63.19
444.54	39.79
444.73	107.66
444.91	32.77
445.10	0.00
445.28	51.49
445.47	39.79
445.65	39.79
445.84	56.17
446.02	28.09
446.21	91.28
446.39	44.47
446.58	16.38
446.77	51.49
446.95	53.83
447.14	56.17
447.32	0.00
447.51	4.68
447.69	93.62
447.88	4.68
448.06	2.34
448.25	16.38
448.43	37.45
448.62	23.41
448.80	21.06
448.99	0.00
449.17	0.00
449.36	46.81
449.54	7.02
449.73	16.38
449.91	53.83
450.10	42.13
450.28	86.60
450.46	18.72
450.65	11.70
450.83	51.49
451.02	0.00
451.20	0.00
451.39	0.00
451.57	93.62
451.76	63.19
451.94	4.68
452.13	0.00
452.31	39.79
452.49	60.85
452.68	11.70
452.86	0.00
453.05	0.00
453.23	30.43
453.42	0.00
453.60	0.00
453.78	16.38
453.97	37.45
454.15	100.64
454.34	93.62
454.52	88.94
454.70	44.47
454.89	4.68
455.07	9.36
455.26	60.85
455.44	102.98
455.62	0.00
455.81	42.13
455.99	9.36
456.17	2.34
456.36	21.06
456.54	67.88
456.73	14.04
456.91	28.09
457.09	0.00
457.28	95.96
457.46	0.00
457.64	0.00
457.83	39.79
458.01	32.77
458.19	77.24
458.38	49.15
458.56	4.68
458.74	0.00
458.93	9.36
459.11	32.77
459.29	14.04
459.48	72.56
459.66	0.00
459.84	56.17
460.03	74.90
460.21	42.13
460.39	18.72
460.57	67.88
460.76	88.94
460.94	51.49
461.12	25.75
461.31	2.34
461.49	56.17
461.67	42.13
461.85	53.83
462.04	0.00
462.22	72.56
462.40	46.81
462.59	0.00
462.77	37.45
462.95	0.00
463.13	49.15
463.32	46.81
463.50	0.00
463.68	44.47
463.86	51.49
464.05	2.34
464.23	39.79
464.41	0.00
464.59	21.06
464.78	16.38
464.96	0.00
465.14	67.88
465.32	0.00
465.50	39.79
465.69	58.51
465.87	30.43
466.05	70.22
466.23	84.26
466.41	0.00
466.60	37.45
466.78	46.81
466.96	25.75
467.14	49.15
467.32	46.81
467.51	18.72
467.69	0.00
467.87	88.94
468.05	72.56
468.23	0.00
468.41	79.58
468.60	51.49
468.78	49.15
468.96	18.72
469.14	51.49
469.32	42.13
469.50	112.35
469.69	60.85
469.87	11.70
470.05	32.77
470.23	84.26
470.41	51.49
470.59	0.00
470.77	30.43
470.95	121.71
471.14	53.83
471.32	23.41
471.50	60.85
471.68	35.11
471.86	39.79
472.04	23.41
472.22	0.00
472.40	72.56
472.58	37.45
472.77	25.75
472.95	53.83
473.13	79.58
473.31	39.79
473.49	51.49
473.67	81.92
473.85	0.00
474.03	0.00
474.21	23.41
474.39	32.77
474.57	0.00
474.75	49.15
474.93	37.45
475.12	0.00
475.30	42.13
475.48	60.85
475.66	70.22
475.84	25.75
476.02	42.13
476.20	11.70
476.38	21.06
476.56	60.85
476.74	112.35
476.92	63.19
477.10	53.83
477.28	4.68
477.46	91.28
477.64	65.54
477.82	28.09
478.00	119.37
478.18	49.15
478.36	58.51
478.54	63.19
478.72	65.54
478.90	9.36
479.08	60.85
479.26	42.13
479.44	42.13
479.62	4.68
479.80	37.45
479.98	11.70
480.16	0.00
480.34	0.00
480.52	7.02
480.70	138.09
480.88	42.13
481.06	42.13
481.24	21.06
481.41	95.96
481.59	0.00
481.77	23.41
481.95	7.02
482.13	60.85
482.31	4.68
482.49	28.09
482.67	72.56
482.85	35.11
483.03	32.77
483.21	100.64
483.39	16.38
483.57	35.11
483.74	16.38
483.92	98.30
484.10	110.01
484.28	72.56
484.46	60.85
484.64	18.72
484.82	0.00
485.00	9.36
485.18	58.51
485.35	18.72
485.53	72.56
485.71	23.41
485.89	7.02
486.07	28.09
486.25	70.22
486.43	60.85
486.61	9.36
486.78	67.88
486.96	58.51
487.14	37.45
487.32	58.51
487.50	0.00
487.68	46.81
487.85	67.88
488.03	25.75
488.21	32.77
488.39	67.88
488.57	30.43
488.75	39.79
488.92	60.85
489.10	37.45
489.28	107.66
489.46	44.47
489.64	21.06
489.81	7.02
489.99	95.96
490.17	0.00
490.35	0.00
490.53	72.56
490.70	56.17
490.88	56.17
491.06	0.00
491.24	58.51
491.41	39.79
491.59	0.00
491.77	7.02
491.95	2.34
492.13	28.09
492.30	88.94
492.48	63.19
492.66	30.43
492.84	44.47
493.01	39.79
493.19	4.68
493.37	58.51
493.54	37.45
493.72	0.00
493.90	37.45
494.08	53.83
494.25	86.60
494.43	95.96
494.61	0.00
494.79	32.77
494.96	60.85
495.14	84.26
495.32	77.24
495.49	49.15
495.67	16.38
495.85	67.88
496.02	9.36
496.20	112.35
496.38	37.45
496.55	56.17
496.73	0.00
496.91	25.75
497.09	4.68
497.26	23.41
497.44	25.75
497.62	42.13
497.79	14.04
497.97	37.45
498.14	110.01
498.32	79.58
498.50	35.11
498.67	44.47
498.85	49.15
499.03	98.30
499.20	105.32
499.38	72.56
499.56	77.24
499.73	49.15
499.91	46.81
500.08	46.81
500.26	0.00
500.44	84.26
500.61	46.81
500.79	42.13
500.97	37.45
501.14	16.38
501.32	42.13
501.49	49.15
501.67	79.58
501.84	16.38
502.02	39.79
502.20	9.36
502.37	42.13
502.55	74.90
502.72	67.88
502.90	0.00
503.07	37.45
503.25	0.00
503.43	35.11
503.60	39.79
503.78	46.81
503.95	42.13
504.13	0.00
504.30	14.04
504.48	110.01
504.65	51.49
504.83	56.17
505.01	21.06
505.18	37.45
505.36	39.79
505.53	86.60
505.71	28.09
505.88	46.81
506.06	7.02
506.23	63.19
506.41	93.62
506.58	2.34
506.76	0.00
506.93	32.77
507.11	0.00
507.28	18.72
507.46	58.51
507.63	30.43
507.81	88.94
507.98	88.94
508.16	98.30
508.33	7.02
508.50	0.00
508.68	28.09
508.85	84.26
509.03	32.77
509.20	63.19
509.38	60.85
509.55	25.75
509.73	65.54
509.90	58.51
510.08	16.38
510.25	32.77
510.42	0.00
510.60	35.11
510.77	84.26
510.95	16.38
511.12	23.41
511.30	0.00
511.47	70.22
511.64	39.79
511.82	35.11
511.99	72.56
512.17	0.00
512.34	4.68
512.51	0.00
512.69	0.00
512.86	7.02
513.04	65.54
513.21	51.49
513.38	42.13
513.56	37.45
513.73	102.98
513.90	63.19
514.08	4.68
514.25	35.11
514.43	67.88
514.60	28.09
514.77	84.26
514.95	84.26
515.12	65.54
515.29	0.00
515.47	79.58
515.64	28.09
515.81	32.77
515.99	72.56
516.16	39.79
516.33	39.79
516.51	7.02
516.68	32.77
516.85	0.00
517.03	37.45
517.20	35.11
517.37	77.24
517.54	107.66
517.72	58.51
517.89	44.47
518.06	117.03
518.24	70.22
518.41	0.00
518.58	72.56
518.75	86.60
518.93	93.62
519.10	23.41
519.27	156.82
519.45	170.86
519.62	72.56
519.79	25.75
519.96	0.00
520.14	2.34
520.31	21.06
520.48	0.00
520.65	56.17
520.83	42.13
521.00	84.26
521.17	0.00
521.34	49.15
521.52	23.41
521.69	42.13
521.86	88.94
522.03	42.13
522.20	30.43
522.38	14.04
522.55	46.81
522.72	63.19
522.89	7.02
523.07	105.32
523.24	30.43
523.41	72.56
523.58	72.56
523.75	14.04
523.92	98.30
524.10	49.15
524.27	74.90
524.44	44.47
524.61	79.58
524.78	86.60
524.96	95.96
525.13	32.77
525.30	44.47
525.47	39.79
525.64	44.47
525.81	67.88
525.98	107.66
526.16	133.41
526.33	7.02
526.50	2.34
526.67	119.37
526.84	9.36
527.01	0.00
527.18	72.56
527.36	23.41
527.53	0.00
527.70	107.66
527.87	86.60
528.04	65.54
528.21	11.70
528.38	39.79
528.55	30.43
528.72	46.81
528.89	91.28
529.07	84.26
529.24	86.60
529.41	86.60
529.58	11.70
529.75	0.00
529.92	117.03
530.09	88.94
530.26	60.85
530.43	9.36
530.60	0.00
530.77	0.00
530.94	53.83
531.11	63.19
531.28	93.62
531.46	0.00
531.63	42.13
531.80	81.92
531.97	63.19
532.14	23.41
532.31	16.38
532.48	18.72
532.65	0.00
532.82	51.49
532.99	93.62
533.16	56.17
533.33	23.41
533.50	84.26
533.67	4.68
533.84	72.56
534.01	112.35
534.18	60.85
534.35	88.94
534.52	21.06
534.69	28.09
534.86	44.47
535.03	21.06
535.20	0.00
535.37	7.02
535.54	91.28
535.71	0.00
535.88	32.77
536.05	7.02
536.22	42.13
536.38	58.51
536.55	0.00
536.72	11.70
536.89	9.36
537.06	39.79
537.23	28.09
537.40	28.09
537.57	39.79
537.74	58.51
537.91	79.58
538.08	105.32
538.25	74.90
538.42	95.96
538.59	37.45
538.75	46.81
538.92	23.41
539.09	46.81
539.26	2.34
539.43	70.22
539.60	198.95
539.77	189.58
539.94	360.44
540.11	278.52
540.28	102.98
540.44	93.62
540.61	53.83
540.78	77.24
540.95	16.38
541.12	21.06
541.29	7.02
541.46	51.49
541.62	25.75
541.79	18.72
541.96	88.94
542.13	9.36
542.30	0.00
542.47	100.64
542.63	72.56
542.80	74.90
542.97	51.49
543.14	32.77
543.31	105.32
543.48	14.04
543.64	0.00
543.81	46.81
543.98	58.51
544.15	32.77
544.32	84.26
544.48	4.68
544.65	18.72
544.82	21.06
544.99	28.09
545.16	67.88
545.32	9.36
545.49	42.13
545.66	25.75
545.83	16.38
546.00	0.00
546.16	4.68
546.33	74.90
546.50	37.45
546.67	86.60
546.83	70.22
547.00	0.00
547.17	72.56
547.34	39.79
547.50	42.13
547.67	84.26
547.84	9.36
548.00	51.49
548.17	0.00
548.34	53.83
548.51	79.58
548.67	0.00
548.84	28.09
549.01	9.36
549.18	42.13
549.34	126.39
549.51	0.00
549.68	93.62
549.84	32.77
550.01	72.56
550.18	42.13
550.34	70.22
550.51	0.00
550.68	100.64
550.84	0.00
551.01	14.04
551.18	58.51
551.34	67.88
551.51	79.58
551.68	114.69
551.84	60.85
552.01	18.72
552.18	0.00
552.34	35.11
552.51	39.79
552.68	4.68
552.84	32.77
553.01	7.02
553.18	56.17
553.34	0.00
553.51	102.98
553.67	0.00
553.84	21.06
554.01	114.69
554.17	0.00
554.34	14.04
554.51	77.24
554.67	91.28
554.84	56.17
555.00	46.81
555.17	58.51
555.33	63.19
555.50	4.68
555.67	79.58
555.83	105.32
556.00	0.00
556.16	14.04
556.33	0.00
556.50	0.00
556.66	42.13
556.83	18.72
556.99	56.17
557.16	86.60
557.32	28.09
557.49	131.07
557.65	46.81
557.82	0.00
557.98	58.51
558.15	53.83
558.32	86.60
558.48	65.54
558.65	56.17
558.81	58.51
558.98	56.17
559.14	86.60
559.31	28.09
559.47	128.73
559.64	7.02
559.80	35.11
559.97	16.38
560.13	79.58
560.30	18.72
560.46	18.72
560.63	0.00
560.79	51.49
560.96	21.06
561.12	39.79
561.29	67.88
561.45	102.98
561.61	0.00
561.78	35.11
561.94	30.43
562.11	21.06
562.27	0.00
562.44	16.38
562.60	49.15
562.77	77.24
562.93	25.75
563.10	74.90
563.26	51.49
563.42	18.72
563.59	32.77
563.75	0.00
563.92	102.98
564.08	65.54
564.24	53.83
564.41	16.38
564.57	60.85
564.74	28.09
564.90	0.00
565.07	9.36
565.23	30.43
565.39	18.72
565.56	0.00
565.72	0.00
565.88	67.88
566.05	46.81
566.21	28.09
566.38	49.15
566.54	4.68
566.70	42.13
566.87	39.79
567.03	11.70
567.19	23.41
567.36	32.77
567.52	81.92
567.68	28.09
567.85	23.41
568.01	2.34
568.17	0.00
568.34	32.77
568.50	4.68
568.66	72.56
568.83	74.90
568.99	67.88
569.15	77.24
569.32	0.00
569.48	77.24
569.64	46.81
569.81	98.30
569.97	72.56
570.13	35.11
570.30	95.96
570.46	37.45
570.62	0.00
570.78	35.11
570.95	98.30
571.11	58.51
571.27	21.06
571.43	152.13
571.60	67.88
571.76	16.38
571.92	0.00
572.09	58.51
572.25	46.81
572.41	16.38
572.57	2.34
572.74	51.49
572.90	32.77
573.06	77.24
573.22	81.92
573.38	72.56
573.55	42.13
573.71	28.09
573.87	95.96
574.03	102.98
574.20	114.69
574.36	0.00
574.52	14.04
574.68	88.94
574.84	51.49
575.01	44.47
575.17	142.77
575.33	35.11
575.49	11.70
575.65	98.30
575.82	138.09
575.98	42.13
576.14	170.86
576.30	112.35
576.46	70.22
576.62	93.62
576.79	98.30
576.95	91.28
577.11	65.54
577.27	51.49
577.43	44.47
577.59	72.56
577.75	114.69
577.92	44.47
578.08	81.92
578.24	74.90
578.40	0.00
578.56	88.94
578.72	37.45
578.88	58.51
579.04	0.00
579.21	58.51
579.37	0.00
579.53	93.62
579.69	32.77
579.85	0.00
580.01	21.06
580.17	110.01
580.33	110.01
580.49	70.22
580.65	25.75
580.82	46.81
580.98	60.85
581.14	42.13
581.30	86.60
581.46	39.79
581.62	84.26
581.78	145.11
581.94	70.22
582.10	70.22
582.26	114.69
582.42	56.17
582.58	79.58
582.74	72.56
582.90	58.51
583.06	117.03
583.22	93.62
583.38	74.90
583.54	119.37
583.70	156.82
583.86	135.75
584.02	156.82
584.18	170.86
584.34	208.31
584.50	552.37
584.66	3770.60
584.82	9912.17
584.98	16088.84
585.14	14457.49
585.30	8730.20
585.46	5186.63
585.62	3288.45
585.78	1526.03
585.94	685.78
586.10	341.72
586.26	187.24
586.42	187.24
586.58	142.77
586.74	142.77
586.90	65.54
587.06	63.19
587.22	98.30
587.38	60.85
587.54	201.29
587.70	538.32
587.86	1071.97
588.02	1263.89
588.18	905.79
588.34	582.79
588.49	311.29
588.65	238.73
588.81	100.64
588.97	117.03
589.13	93.62
589.29	39.79
589.45	79.58
589.61	4.68
589.77	86.60
589.93	93.62
590.08	100.64
590.24	58.51
590.40	21.06
590.56	105.32
590.72	23.41
590.88	105.32
591.04	37.45
591.20	79.58
591.35	88.94
591.51	25.75
591.67	4.68
591.83	67.88
591.99	93.62
592.15	46.81
592.31	0.00
592.46	91.28
592.62	119.37
592.78	53.83
592.94	32.77
593.10	0.00
593.26	117.03
593.41	23.41
593.57	37.45
593.73	121.71
593.89	458.74
594.05	1259.21
594.20	1916.90
594.36	1902.86
594.52	1240.48
594.68	802.80
594.84	463.43
594.99	301.93
595.15	124.05
595.31	112.35
595.47	49.15
595.62	32.77
595.78	4.68
595.94	88.94
596.10	67.88
596.25	58.51
596.41	42.13
596.57	79.58
596.73	81.92
596.88	131.07
597.04	259.80
597.20	454.06
597.36	517.26
597.51	461.09
597.67	362.78
597.83	159.16
597.99	119.37
598.14	98.30
598.30	84.26
598.46	18.72
598.61	105.32
598.77	102.98
598.93	112.35
599.09	0.00
599.24	42.13
599.40	0.00
599.56	30.43
599.71	44.47
599.87	32.77
600.03	21.06
600.18	74.90
600.34	0.00
600.50	60.85
600.65	35.11
600.81	37.45
600.97	84.26
601.12	91.28
601.28	51.49
601.44	88.94
601.59	67.88
601.75	4.68
601.91	23.41
602.06	46.81
602.22	44.47
602.37	79.58
602.53	290.23
602.69	505.56
602.84	538.32
603.00	400.23
603.16	290.23
603.31	135.75
603.47	91.28
603.62	65.54
603.78	93.62
603.94	14.04
604.09	49.15
604.25	81.92
604.40	74.90
604.56	86.60
604.71	0.00
604.87	23.41
605.03	81.92
605.18	9.36
605.34	30.43
605.49	18.72
605.65	74.90
605.80	16.38
605.96	9.36
606.12	98.30
606.27	100.64
606.43	53.83
606.58	105.32
606.74	156.82
606.89	543.00
607.05	1188.99
607.20	1612.63
607.36	1392.62
607.51	959.62
607.67	606.20
607.82	433.00
607.98	243.42
608.13	182.56
608.29	102.98
608.44	140.43
608.60	42.13
608.75	110.01
608.91	149.79
609.06	994.73
609.22	2045.63
609.37	2815.66
609.53	2525.44
609.68	1577.52
609.84	1086.01
609.99	655.35
610.15	362.78
610.30	184.90
610.46	154.48
610.61	142.77
610.76	63.19
610.92	81.92
611.07	91.28
611.23	77.24
611.38	77.24
611.54	11.70
611.69	91.28
611.84	112.35
612.00	0.00
612.15	60.85
612.31	79.58
612.46	107.66
612.62	131.07
612.77	133.41
612.92	147.45
613.08	112.35
613.23	93.62
613.39	98.30
613.54	264.48
613.69	884.72
613.85	2420.11
614.00	4248.07
614.15	4585.11
614.31	3166.74
614.46	2146.27
614.62	1441.77
614.77	800.46
614.92	355.76
615.08	208.31
615.23	149.79
615.38	112.35
615.54	114.69
615.69	149.79
615.84	486.83
616.00	926.85
616.15	1242.82
616.30	1008.77
616.46	739.61
616.61	491.51
616.76	308.95
616.92	203.63
617.07	177.88
617.22	25.75
617.37	39.79
617.53	98.30
617.68	128.73
617.83	86.60
617.99	58.51
618.14	105.32
618.29	91.28
618.45	60.85
618.60	30.43
618.75	18.72
618.90	2.34
619.06	4.68
619.21	25.75
619.36	74.90
619.51	28.09
619.67	77.24
619.82	51.49
619.97	86.60
620.12	23.41
620.28	79.58
620.43	93.62
620.58	28.09
620.73	51.49
620.89	4.68
621.04	88.94
621.19	330.02
621.34	486.83
621.49	716.20
621.65	695.14
621.80	456.40
621.95	325.33
622.10	271.50
622.25	133.41
622.41	88.94
622.56	84.26
622.71	102.98
622.86	70.22
623.01	77.24
623.16	23.41
623.32	32.77
623.47	51.49
623.62	0.00
623.77	14.04
623.92	44.47
624.07	37.45
624.23	46.81
624.38	4.68
624.53	42.13
624.68	30.43
624.83	42.13
624.98	9.36
625.13	86.60
625.29	86.60
625.44	58.51
625.59	49.15
625.74	93.62
625.89	67.88
626.04	475.13
626.19	1212.40
626.34	2059.67
626.49	2377.98
626.65	1729.66
626.80	1191.33
626.95	840.25
627.10	547.69
627.25	173.20
627.40	142.77
627.55	81.92
627.70	100.64
627.85	88.94
628.00	49.15
628.15	14.04
628.30	51.49
628.45	65.54
628.60	79.58
628.76	63.19
628.91	60.85
629.06	0.00
629.21	102.98
629.36	88.94
629.51	72.56
629.66	46.81
629.81	39.79
629.96	243.42
630.11	411.93
630.26	669.39
630.41	606.20
630.56	351.08
630.71	280.86
630.86	194.26
631.01	98.30
631.16	107.66
631.31	131.07
631.46	65.54
631.61	72.56
631.76	56.17
631.91	93.62
632.06	35.11
632.21	42.13
632.36	2.34
632.51	58.51
632.66	138.09
632.81	238.73
632.96	727.91
633.10	1299.00
633.25	1771.79
633.40	1315.38
633.55	940.90
633.70	631.94
633.85	423.64
634.00	252.78
634.15	147.45
634.30	102.98
634.45	30.43
634.60	84.26
634.75	107.66
634.90	46.81
635.05	44.47
635.19	32.77
635.34	72.56
635.49	35.11
635.64	42.13
635.79	11.70
635.94	86.60
636.09	23.41
636.24	77.24
636.39	25.75
636.53	0.00
636.68	0.00
636.83	49.15
636.98	81.92
637.13	58.51
637.28	126.39
637.43	117.03
637.57	117.03
637.72	599.18
637.87	1612.63
638.02	2635.44
638.17	3126.96
638.32	2333.51
638.46	1516.67
638.61	973.66
638.76	645.99
638.91	360.44
639.06	201.29
639.20	74.90
639.35	107.66
639.50	189.58
639.65	903.45
639.80	2406.07
639.94	4189.56
640.09	4830.87
640.24	3667.62
640.39	2401.39
640.54	1661.78
640.68	999.41
640.83	489.17
640.98	283.20
641.13	161.50
641.27	93.62
641.42	25.75
641.57	114.69
641.72	42.13
641.86	56.17
642.01	14.04
642.16	30.43
642.31	67.88
642.45	9.36
642.60	46.81
642.75	84.26
642.90	49.15
643.04	56.17
643.19	67.88
643.34	102.98
643.48	7.02
643.63	32.77
643.78	107.66
643.93	0.00
644.07	65.54
644.22	0.00
644.37	98.30
644.51	70.22
644.66	25.75
644.81	67.88
644.95	0.00
645.10	14.04
645.25	70.22
645.39	93.62
645.54	44.47
645.69	9.36
645.83	63.19
645.98	0.00
646.13	51.49
646.27	7.02
646.42	42.13
646.57	32.77
646.71	46.81
646.86	0.00
647.00	14.04
647.15	35.11
647.30	70.22
647.44	0.00
647.59	0.00
647.74	44.47
647.88	56.17
648.03	2.34
648.17	0.00
648.32	28.09
648.47	60.85
648.61	0.00
648.76	25.75
648.90	93.62
649.05	18.72
649.20	56.17
649.34	51.49
649.49	91.28
649.63	105.32
649.78	46.81
649.92	117.03
650.07	337.04
650.21	1006.43
650.36	1959.03
650.51	2455.22
650.65	2076.06
650.80	1455.81
650.94	978.34
651.09	510.24
651.23	383.85
651.38	191.92
651.52	107.66
651.67	79.58
651.81	32.77
651.96	72.56
652.10	0.00
652.25	0.00
652.39	32.77
652.54	152.13
652.68	93.62
652.83	353.42
652.97	538.32
653.12	912.81
653.26	837.91
653.41	603.86
653.55	514.92
653.70	215.33
653.84	201.29
653.99	98.30
654.13	72.56
654.27	72.56
654.42	56.17
654.56	21.06
654.71	0.00
654.85	60.85
655.00	42.13
655.14	86.60
655.29	0.00
655.43	11.70
655.57	0.00
655.72	119.37
655.86	51.49
656.01	88.94
656.15	35.11
656.30	74.90
656.44	88.94
656.58	51.49
656.73	44.47
656.87	0.00
657.01	0.00
657.16	32.77
657.30	14.04
657.45	0.00
657.59	4.68
657.73	4.68
657.88	0.00
658.02	63.19
658.16	0.00
658.31	30.43
658.45	39.79
658.60	18.72
658.74	42.13
658.88	70.22
659.03	0.00
659.17	74.90
659.31	187.24
659.46	533.64
659.60	922.17
659.74	1252.19
659.89	1071.97
660.03	777.06
660.17	582.79
660.32	341.72
660.46	180.22
660.60	147.45
660.74	65.54
660.89	0.00
661.03	60.85
661.17	74.90
661.32	86.60
661.46	56.17
661.60	51.49
661.74	46.81
661.89	51.49
662.03	0.00
662.17	21.06
662.31	0.00
662.46	0.00
662.60	23.41
662.74	0.00
662.88	9.36
663.03	44.47
663.17	35.11
663.31	67.88
663.45	0.00
663.60	91.28
663.74	16.38
663.88	0.00
664.02	16.38
664.17	0.00
664.31	51.49
664.45	79.58
664.59	63.19
664.73	49.15
664.88	98.30
665.02	112.35
665.16	28.09
665.30	28.09
665.44	65.54
665.59	39.79
665.73	0.00
665.87	93.62
666.01	58.51
666.15	74.90
666.29	95.96
666.44	7.02
666.58	65.54
666.72	11.70
666.86	53.83
667.00	135.75
667.14	42.13
667.28	341.72
667.43	915.15
667.57	1696.89
667.71	2256.28
667.85	1860.73
667.99	1446.45
668.13	833.23
668.27	454.06
668.41	255.12
668.56	210.65
668.70	53.83
668.84	0.00
668.98	74.90
669.12	14.04
669.26	32.77
669.40	79.58
669.54	0.00
669.68	91.28
669.82	9.36
669.96	4.68
670.10	0.00
670.25	25.75
670.39	14.04
670.53	0.00
670.67	14.04
670.81	35.11
670.95	37.45
671.09	86.60
671.23	353.42
671.37	748.97
671.51	1205.38
671.65	1315.38
671.79	1067.28
671.93	711.52
672.07	423.64
672.21	245.76
672.35	170.86
672.49	32.77
672.63	79.58
672.77	30.43
672.91	0.00
673.05	42.13
673.19	35.11
673.33	16.38
673.47	70.22
673.61	37.45
673.75	14.04
673.89	70.22
674.03	18.72
674.17	32.77
674.31	2.34
674.45	67.88
674.59	0.00
674.73	65.54
674.87	53.83
675.01	0.00
675.15	42.13
675.29	28.09
675.43	79.58
675.56	91.28
675.70	42.13
675.84	14.04
675.98	58.51
676.12	0.00
676.26	60.85
676.40	51.49
676.54	95.96
676.68	0.00
676.82	11.70
676.96	58.51
677.10	67.88
677.23	23.41
677.37	23.41
677.51	32.77
677.65	9.36
677.79	100.64
677.93	0.00
678.07	0.00
678.21	0.00
678.34	37.45
678.48	0.00
678.62	0.00
678.76	16.38
678.90	0.00
679.04	9.36
679.18	35.11
679.31	44.47
679.45	30.43
679.59	32.77
679.73	21.06
679.87	0.00
680.00	32.77
680.14	88.94
680.28	56.17
680.42	63.19
680.56	49.15
680.70	74.90
680.83	56.17
680.97	93.62
681.11	91.28
681.25	56.17
681.39	32.77
681.52	18.72
681.66	0.00
681.80	0.00
681.94	84.26
682.07	74.90
682.21	88.94
682.35	16.38
682.49	4.68
682.62	7.02
682.76	0.00
682.90	0.00
683.04	16.38
683.17	60.85
683.31	32.77
683.45	39.79
683.59	0.00
683.72	37.45
683.86	0.00
684.00	32.77
684.13	74.90
684.27	65.54
684.41	37.45
684.55	51.49
684.68	9.36
684.82	21.06
684.96	0.00
685.09	117.03
685.23	53.83
685.37	0.00
685.50	37.45
685.64	0.00
685.78	16.38
685.91	25.75
686.05	0.00
686.19	0.00
686.32	0.00
686.46	42.13
686.60	30.43
686.73	0.00
686.87	44.47
687.01	67.88
687.14	60.85
687.28	77.24
687.42	7.02
687.55	4.68
687.69	51.49
687.82	0.00
687.96	30.43
688.10	28.09
688.23	23.41
688.37	18.72
688.50	86.60
688.64	32.77
688.78	56.17
688.91	128.73
689.05	0.00
689.18	93.62
689.32	72.56
689.46	7.02
689.59	37.45
689.73	35.11
689.86	18.72
690.00	49.15
690.13	21.06
690.27	2.34
690.41	74.90
690.54	49.15
690.68	28.09
690.81	88.94
690.95	4.68
691.08	58.51
691.22	58.51
691.35	35.11
691.49	18.72
691.62	0.00
691.76	114.69
691.89	77.24
692.03	9.36
692.16	9.36
692.30	65.54
692.43	124.05
692.57	301.93
692.70	638.97
692.84	924.51
692.97	898.77
693.11	674.07
693.24	479.81
693.38	308.95
693.51	294.91
693.65	138.09
693.78	110.01
693.92	102.98
694.05	46.81
694.19	0.00
694.32	81.92
694.45	0.00
694.59	46.81
694.72	39.79
694.86	53.83
694.99	14.04
695.13	114.69
695.26	56.17
695.39	39.79
695.53	28.09
695.66	63.19
695.80	51.49
695.93	67.88
696.07	81.92
696.20	44.47
696.33	86.60
696.47	72.56
696.60	56.17
696.73	81.92
696.87	51.49
697.00	77.24
697.14	81.92
697.27	91.28
697.40	0.00
697.54	0.00
697.67	9.36
697.80	0.00
697.94	63.19
698.07	2.34
698.21	28.09
698.34	7.02
698.47	9.36
698.61	98.30
698.74	11.70
698.87	0.00
699.01	21.06
699.14	67.88
699.27	18.72
699.40	53.83
699.54	0.00
699.67	14.04
699.80	91.28
699.94	14.04
700.07	4.68
700.20	84.26
700.34	4.68
700.47	42.13
700.60	28.09
700.73	14.04
700.87	93.62
701.00	67.88
701.13	16.38
701.26	0.00
701.40	0.00
701.53	23.41
701.66	35.11
701.79	95.96
701.93	60.85
702.06	93.62
702.19	32.77
702.32	88.94
702.46	74.90
702.59	60.85
702.72	180.22
702.85	486.83
702.99	1090.69
703.12	1563.48
703.25	1940.30
703.38	1535.39
703.51	1315.38
703.65	1083.67
703.78	692.80
703.91	442.36
704.04	330.02
704.17	177.88
704.31	184.90
704.44	0.00
704.57	100.64
704.70	84.26
704.83	0.00
704.96	49.15
705.10	0.00
705.23	16.38
>>>>>End Processed Spectral Data<<<<<
