SpectraSuite Data File
++++++++++++++++++++++++++++++++++++
Date: Fri Oct 04 12:13:40 GMT-05:00 2013
User: price-jones
Dark Spectrum Present: No
Reference Spectrum Present: No
Number of Sampled Component Spectra: 1
Spectrometers: USB2+H05261
Integration Time (usec): 10000 (USB2+H05261)
Spectra Averaged: 1 (USB2+H05261)
Boxcar Smoothing: 0 (USB2+H05261)
Correct for Electrical Dark: No (USB2+H05261)
Strobe/Lamp Enabled: No (USB2+H05261)
Correct for Detector Non-linearity: No (USB2+H05261)
Correct for Stray Light: No (USB2+H05261)
Number of Pixels in Processed Spectrum: 2048
>>>>>Begin Processed Spectral Data<<<<<
365.73	18.72
365.92	18.72
366.12	18.72
366.32	0.00
366.52	0.00
366.72	0.00
366.91	0.00
367.11	0.00
367.31	0.00
367.51	0.00
367.70	0.00
367.90	0.00
368.10	0.00
368.30	0.00
368.49	0.00
368.69	0.00
368.89	0.00
369.09	0.00
369.28	0.00
369.48	0.00
369.68	0.00
369.87	0.00
370.07	0.00
370.27	0.00
370.47	0.00
370.66	0.00
370.86	0.00
371.06	0.00
371.25	0.00
371.45	51.49
371.65	14.04
371.84	18.72
372.04	0.00
372.24	9.36
372.44	72.56
372.63	44.47
372.83	25.75
373.03	60.85
373.22	35.11
373.42	0.00
373.62	0.00
373.81	67.88
374.01	58.51
374.21	53.83
374.40	63.19
374.60	14.04
374.79	0.00
374.99	0.00
375.19	0.00
375.38	18.72
375.58	14.04
375.78	79.58
375.97	16.38
376.17	32.77
376.37	0.00
376.56	18.72
376.76	63.19
376.95	0.00
377.15	67.88
377.35	70.22
377.54	39.79
377.74	65.54
377.93	91.28
378.13	49.15
378.33	0.00
378.52	0.00
378.72	105.32
378.91	28.09
379.11	39.79
379.31	18.72
379.50	4.68
379.70	11.70
379.89	0.00
380.09	11.70
380.28	18.72
380.48	65.54
380.68	42.13
380.87	16.38
381.07	0.00
381.26	16.38
381.46	32.77
381.65	42.13
381.85	4.68
382.04	28.09
382.24	0.00
382.43	46.81
382.63	30.43
382.83	88.94
383.02	0.00
383.22	0.00
383.41	14.04
383.61	44.47
383.80	0.00
384.00	35.11
384.19	65.54
384.39	0.00
384.58	0.00
384.78	53.83
384.97	16.38
385.17	28.09
385.36	49.15
385.56	0.00
385.75	18.72
385.95	25.75
386.14	0.00
386.34	25.75
386.53	0.00
386.72	56.17
386.92	46.81
387.11	25.75
387.31	0.00
387.50	7.02
387.70	42.13
387.89	0.00
388.09	9.36
388.28	0.00
388.48	72.56
388.67	77.24
388.86	28.09
389.06	0.00
389.25	0.00
389.45	77.24
389.64	2.34
389.84	70.22
390.03	63.19
390.22	49.15
390.42	93.62
390.61	60.85
390.81	11.70
391.00	11.70
391.19	0.00
391.39	65.54
391.58	21.06
391.78	65.54
391.97	0.00
392.16	4.68
392.36	0.00
392.55	51.49
392.75	0.00
392.94	0.00
393.13	14.04
393.33	51.49
393.52	58.51
393.71	72.56
393.91	72.56
394.10	0.00
394.29	0.00
394.49	30.43
394.68	0.00
394.88	46.81
395.07	14.04
395.26	11.70
395.46	0.00
395.65	16.38
395.84	44.47
396.04	0.00
396.23	7.02
396.42	0.00
396.62	23.41
396.81	42.13
397.00	28.09
397.19	51.49
397.39	84.26
397.58	98.30
397.77	28.09
397.97	44.47
398.16	0.00
398.35	0.00
398.55	23.41
398.74	74.90
398.93	84.26
399.12	63.19
399.32	81.92
399.51	37.45
399.70	0.00
399.90	18.72
400.09	4.68
400.28	46.81
400.47	39.79
400.67	4.68
400.86	18.72
401.05	51.49
401.24	65.54
401.44	77.24
401.63	56.17
401.82	0.00
402.01	81.92
402.21	74.90
402.40	18.72
402.59	11.70
402.78	0.00
402.97	11.70
403.17	30.43
403.36	0.00
403.55	7.02
403.74	49.15
403.93	67.88
404.13	7.02
404.32	14.04
404.51	79.58
404.70	49.15
404.89	44.47
405.09	37.45
405.28	0.00
405.47	2.34
405.66	65.54
405.85	0.00
406.05	0.00
406.24	56.17
406.43	60.85
406.62	0.00
406.81	51.49
407.00	84.26
407.20	46.81
407.39	72.56
407.58	53.83
407.77	60.85
407.96	60.85
408.15	46.81
408.34	9.36
408.54	53.83
408.73	37.45
408.92	23.41
409.11	35.11
409.30	35.11
409.49	0.00
409.68	11.70
409.87	53.83
410.07	39.79
410.26	9.36
410.45	23.41
410.64	2.34
410.83	9.36
411.02	79.58
411.21	23.41
411.40	9.36
411.59	21.06
411.78	72.56
411.98	44.47
412.17	100.64
412.36	70.22
412.55	42.13
412.74	51.49
412.93	14.04
413.12	4.68
413.31	42.13
413.50	0.00
413.69	60.85
413.88	28.09
414.07	18.72
414.26	65.54
414.45	16.38
414.64	0.00
414.83	65.54
415.02	2.34
415.22	102.98
415.41	72.56
415.60	25.75
415.79	56.17
415.98	53.83
416.17	14.04
416.36	100.64
416.55	9.36
416.74	16.38
416.93	65.54
417.12	70.22
417.31	49.15
417.50	79.58
417.69	81.92
417.88	56.17
418.07	35.11
418.26	51.49
418.45	60.85
418.64	21.06
418.83	14.04
419.02	21.06
419.21	30.43
419.39	0.00
419.58	0.00
419.77	74.90
419.96	49.15
420.15	42.13
420.34	0.00
420.53	46.81
420.72	67.88
420.91	37.45
421.10	2.34
421.29	51.49
421.48	0.00
421.67	60.85
421.86	0.00
422.05	32.77
422.24	0.00
422.43	2.34
422.61	37.45
422.80	70.22
422.99	63.19
423.18	25.75
423.37	149.79
423.56	21.06
423.75	9.36
423.94	70.22
424.13	39.79
424.32	11.70
424.50	0.00
424.69	14.04
424.88	37.45
425.07	51.49
425.26	11.70
425.45	18.72
425.64	4.68
425.83	72.56
426.01	0.00
426.20	28.09
426.39	0.00
426.58	88.94
426.77	98.30
426.96	112.35
427.15	72.56
427.33	0.00
427.52	51.49
427.71	18.72
427.90	14.04
428.09	0.00
428.28	0.00
428.46	32.77
428.65	95.96
428.84	88.94
429.03	25.75
429.22	44.47
429.40	0.00
429.59	2.34
429.78	74.90
429.97	42.13
430.16	46.81
430.34	53.83
430.53	60.85
430.72	77.24
430.91	14.04
431.10	65.54
431.28	18.72
431.47	21.06
431.66	0.00
431.85	70.22
432.03	46.81
432.22	30.43
432.41	23.41
432.60	60.85
432.79	77.24
432.97	21.06
433.16	37.45
433.35	117.03
433.54	0.00
433.72	53.83
433.91	81.92
434.10	37.45
434.28	79.58
434.47	42.13
434.66	84.26
434.85	74.90
435.03	39.79
435.22	65.54
435.41	7.02
435.59	49.15
435.78	100.64
435.97	28.09
436.16	11.70
436.34	86.60
436.53	107.66
436.72	0.00
436.90	51.49
437.09	21.06
437.28	42.13
437.46	56.17
437.65	18.72
437.84	65.54
438.02	145.11
438.21	18.72
438.40	60.85
438.58	32.77
438.77	25.75
438.96	44.47
439.14	81.92
439.33	98.30
439.52	53.83
439.70	53.83
439.89	11.70
440.08	51.49
440.26	7.02
440.45	102.98
440.63	81.92
440.82	100.64
441.01	46.81
441.19	0.00
441.38	51.49
441.57	53.83
441.75	11.70
441.94	53.83
442.12	32.77
442.31	18.72
442.50	28.09
442.68	49.15
442.87	46.81
443.05	42.13
443.24	39.79
443.43	30.43
443.61	35.11
443.80	53.83
443.98	81.92
444.17	72.56
444.35	37.45
444.54	11.70
444.73	145.11
444.91	84.26
445.10	0.00
445.28	63.19
445.47	72.56
445.65	0.00
445.84	30.43
446.02	30.43
446.21	44.47
446.39	21.06
446.58	32.77
446.77	60.85
446.95	0.00
447.14	0.00
447.32	23.41
447.51	23.41
447.69	49.15
447.88	0.00
448.06	88.94
448.25	49.15
448.43	110.01
448.62	37.45
448.80	72.56
448.99	32.77
449.17	42.13
449.36	14.04
449.54	67.88
449.73	23.41
449.91	131.07
450.10	67.88
450.28	67.88
450.46	67.88
450.65	60.85
450.83	102.98
451.02	42.13
451.20	42.13
451.39	14.04
451.57	98.30
451.76	93.62
451.94	42.13
452.13	84.26
452.31	0.00
452.49	49.15
452.68	46.81
452.86	88.94
453.05	39.79
453.23	9.36
453.42	21.06
453.60	72.56
453.78	112.35
453.97	37.45
454.15	14.04
454.34	100.64
454.52	72.56
454.70	65.54
454.89	18.72
455.07	16.38
455.26	84.26
455.44	32.77
455.62	102.98
455.81	102.98
455.99	112.35
456.17	28.09
456.36	46.81
456.54	107.66
456.73	39.79
456.91	23.41
457.09	37.45
457.28	140.43
457.46	0.00
457.64	18.72
457.83	0.00
458.01	49.15
458.19	28.09
458.38	23.41
458.56	0.00
458.74	70.22
458.93	88.94
459.11	56.17
459.29	32.77
459.48	35.11
459.66	88.94
459.84	32.77
460.03	42.13
460.21	18.72
460.39	0.00
460.57	51.49
460.76	30.43
460.94	79.58
461.12	44.47
461.31	49.15
461.49	114.69
461.67	133.41
461.85	37.45
462.04	81.92
462.22	16.38
462.40	51.49
462.59	44.47
462.77	56.17
462.95	42.13
463.13	0.00
463.32	16.38
463.50	81.92
463.68	25.75
463.86	39.79
464.05	63.19
464.23	23.41
464.41	25.75
464.59	102.98
464.78	63.19
464.96	95.96
465.14	105.32
465.32	42.13
465.50	170.86
465.69	105.32
465.87	117.03
466.05	84.26
466.23	32.77
466.41	51.49
466.60	42.13
466.78	37.45
466.96	114.69
467.14	63.19
467.32	117.03
467.51	35.11
467.69	35.11
467.87	37.45
468.05	84.26
468.23	74.90
468.41	25.75
468.60	42.13
468.78	53.83
468.96	21.06
469.14	0.00
469.32	77.24
469.50	95.96
469.69	81.92
469.87	49.15
470.05	72.56
470.23	25.75
470.41	9.36
470.59	0.00
470.77	154.48
470.95	166.18
471.14	9.36
471.32	70.22
471.50	91.28
471.68	0.00
471.86	60.85
472.04	49.15
472.22	70.22
472.40	23.41
472.58	35.11
472.77	23.41
472.95	91.28
473.13	72.56
473.31	32.77
473.49	0.00
473.67	79.58
473.85	42.13
474.03	56.17
474.21	28.09
474.39	70.22
474.57	56.17
474.75	21.06
474.93	63.19
475.12	173.20
475.30	58.51
475.48	0.00
475.66	65.54
475.84	81.92
476.02	42.13
476.20	88.94
476.38	86.60
476.56	112.35
476.74	93.62
476.92	79.58
477.10	46.81
477.28	72.56
477.46	60.85
477.64	18.72
477.82	100.64
478.00	58.51
478.18	81.92
478.36	7.02
478.54	117.03
478.72	18.72
478.90	60.85
479.08	98.30
479.26	67.88
479.44	39.79
479.62	138.09
479.80	42.13
479.98	60.85
480.16	63.19
480.34	98.30
480.52	114.69
480.70	91.28
480.88	60.85
481.06	79.58
481.24	37.45
481.41	95.96
481.59	65.54
481.77	70.22
481.95	93.62
482.13	100.64
482.31	39.79
482.49	121.71
482.67	35.11
482.85	53.83
483.03	91.28
483.21	58.51
483.39	93.62
483.57	0.00
483.74	49.15
483.92	58.51
484.10	114.69
484.28	37.45
484.46	21.06
484.64	131.07
484.82	95.96
485.00	84.26
485.18	39.79
485.35	25.75
485.53	128.73
485.71	42.13
485.89	0.00
486.07	70.22
486.25	25.75
486.43	93.62
486.61	72.56
486.78	86.60
486.96	65.54
487.14	70.22
487.32	93.62
487.50	107.66
487.68	51.49
487.85	74.90
488.03	16.38
488.21	60.85
488.39	56.17
488.57	39.79
488.75	46.81
488.92	140.43
489.10	63.19
489.28	102.98
489.46	102.98
489.64	77.24
489.81	95.96
489.99	42.13
490.17	32.77
490.35	79.58
490.53	98.30
490.70	67.88
490.88	44.47
491.06	2.34
491.24	63.19
491.41	42.13
491.59	39.79
491.77	30.43
491.95	49.15
492.13	95.96
492.30	79.58
492.48	65.54
492.66	58.51
492.84	39.79
493.01	95.96
493.19	98.30
493.37	133.41
493.54	60.85
493.72	56.17
493.90	56.17
494.08	142.77
494.25	168.52
494.43	119.37
494.61	79.58
494.79	84.26
494.96	0.00
495.14	121.71
495.32	124.05
495.49	37.45
495.67	79.58
495.85	44.47
496.02	128.73
496.20	42.13
496.38	100.64
496.55	74.90
496.73	98.30
496.91	121.71
497.09	16.38
497.26	63.19
497.44	86.60
497.62	88.94
497.79	93.62
497.97	42.13
498.14	72.56
498.32	51.49
498.50	42.13
498.67	149.79
498.85	63.19
499.03	117.03
499.20	56.17
499.38	23.41
499.56	51.49
499.73	63.19
499.91	121.71
500.08	117.03
500.26	81.92
500.44	60.85
500.61	81.92
500.79	70.22
500.97	95.96
501.14	91.28
501.32	60.85
501.49	74.90
501.67	95.96
501.84	95.96
502.02	112.35
502.20	60.85
502.37	72.56
502.55	110.01
502.72	28.09
502.90	105.32
503.07	189.58
503.25	53.83
503.43	121.71
503.60	16.38
503.78	58.51
503.95	37.45
504.13	53.83
504.30	102.98
504.48	77.24
504.65	51.49
504.83	46.81
505.01	74.90
505.18	53.83
505.36	0.00
505.53	37.45
505.71	56.17
505.88	32.77
506.06	121.71
506.23	79.58
506.41	98.30
506.58	30.43
506.76	42.13
506.93	25.75
507.11	74.90
507.28	131.07
507.46	53.83
507.63	28.09
507.81	72.56
507.98	0.00
508.16	4.68
508.33	51.49
508.50	88.94
508.68	128.73
508.85	102.98
509.03	37.45
509.20	74.90
509.38	49.15
509.55	23.41
509.73	32.77
509.90	70.22
510.08	81.92
510.25	98.30
510.42	46.81
510.60	110.01
510.77	86.60
510.95	77.24
511.12	110.01
511.30	138.09
511.47	105.32
511.64	102.98
511.82	107.66
511.99	105.32
512.17	51.49
512.34	105.32
512.51	105.32
512.69	0.00
512.86	72.56
513.04	105.32
513.21	74.90
513.38	121.71
513.56	117.03
513.73	51.49
513.90	145.11
514.08	114.69
514.25	86.60
514.43	145.11
514.60	65.54
514.77	70.22
514.95	53.83
515.12	110.01
515.29	72.56
515.47	138.09
515.64	91.28
515.81	9.36
515.99	95.96
516.16	56.17
516.33	131.07
516.51	117.03
516.68	102.98
516.85	91.28
517.03	79.58
517.20	91.28
517.37	56.17
517.54	93.62
517.72	67.88
517.89	142.77
518.06	58.51
518.24	135.75
518.41	91.28
518.58	42.13
518.75	88.94
518.93	7.02
519.10	81.92
519.27	16.38
519.45	0.00
519.62	49.15
519.79	72.56
519.96	32.77
520.14	70.22
520.31	49.15
520.48	121.71
520.65	49.15
520.83	88.94
521.00	98.30
521.17	117.03
521.34	86.60
521.52	88.94
521.69	91.28
521.86	102.98
522.03	119.37
522.20	152.13
522.38	124.05
522.55	100.64
522.72	138.09
522.89	112.35
523.07	100.64
523.24	46.81
523.41	112.35
523.58	46.81
523.75	105.32
523.92	63.19
524.10	72.56
524.27	133.41
524.44	60.85
524.61	107.66
524.78	175.54
524.96	77.24
525.13	119.37
525.30	49.15
525.47	56.17
525.64	60.85
525.81	28.09
525.98	142.77
526.16	91.28
526.33	2.34
526.50	28.09
526.67	163.84
526.84	93.62
527.01	65.54
527.18	117.03
527.36	124.05
527.53	28.09
527.70	95.96
527.87	135.75
528.04	112.35
528.21	58.51
528.38	114.69
528.55	93.62
528.72	81.92
528.89	58.51
529.07	121.71
529.24	100.64
529.41	74.90
529.58	21.06
529.75	95.96
529.92	86.60
530.09	77.24
530.26	117.03
530.43	28.09
530.60	124.05
530.77	88.94
530.94	42.13
531.11	112.35
531.28	93.62
531.46	182.56
531.63	56.17
531.80	63.19
531.97	102.98
532.14	79.58
532.31	159.16
532.48	86.60
532.65	37.45
532.82	84.26
532.99	49.15
533.16	42.13
533.33	60.85
533.50	84.26
533.67	98.30
533.84	42.13
534.01	114.69
534.18	72.56
534.35	98.30
534.52	124.05
534.69	67.88
534.86	91.28
535.03	138.09
535.20	98.30
535.37	126.39
535.54	53.83
535.71	79.58
535.88	100.64
536.05	65.54
536.22	88.94
536.38	58.51
536.55	46.81
536.72	102.98
536.89	86.60
537.06	51.49
537.23	131.07
537.40	60.85
537.57	105.32
537.74	21.06
537.91	112.35
538.08	63.19
538.25	7.02
538.42	23.41
538.59	121.71
538.75	102.98
538.92	100.64
539.09	79.58
539.26	112.35
539.43	112.35
539.60	63.19
539.77	117.03
539.94	138.09
540.11	98.30
540.28	60.85
540.44	88.94
540.61	81.92
540.78	102.98
540.95	63.19
541.12	58.51
541.29	91.28
541.46	32.77
541.62	53.83
541.79	110.01
541.96	51.49
542.13	72.56
542.30	63.19
542.47	25.75
542.63	81.92
542.80	60.85
542.97	65.54
543.14	16.38
543.31	110.01
543.48	77.24
543.64	86.60
543.81	65.54
543.98	93.62
544.15	126.39
544.32	60.85
544.48	46.81
544.65	86.60
544.82	81.92
544.99	91.28
545.16	100.64
545.32	107.66
545.49	100.64
545.66	100.64
545.83	51.49
546.00	72.56
546.16	81.92
546.33	98.30
546.50	51.49
546.67	74.90
546.83	51.49
547.00	159.16
547.17	88.94
547.34	77.24
547.50	133.41
547.67	163.84
547.84	39.79
548.00	0.00
548.17	51.49
548.34	79.58
548.51	133.41
548.67	44.47
548.84	58.51
549.01	102.98
549.18	60.85
549.34	65.54
549.51	65.54
549.68	102.98
549.84	124.05
550.01	58.51
550.18	81.92
550.34	70.22
550.51	98.30
550.68	107.66
550.84	39.79
551.01	53.83
551.18	124.05
551.34	163.84
551.51	117.03
551.68	77.24
551.84	114.69
552.01	72.56
552.18	49.15
552.34	126.39
552.51	63.19
552.68	117.03
552.84	142.77
553.01	121.71
553.18	88.94
553.34	42.13
553.51	46.81
553.67	11.70
553.84	30.43
554.01	67.88
554.17	42.13
554.34	105.32
554.51	65.54
554.67	70.22
554.84	119.37
555.00	77.24
555.17	81.92
555.33	98.30
555.50	7.02
555.67	65.54
555.83	95.96
556.00	81.92
556.16	37.45
556.33	114.69
556.50	135.75
556.66	42.13
556.83	53.83
556.99	138.09
557.16	11.70
557.32	65.54
557.49	93.62
557.65	58.51
557.82	18.72
557.98	124.05
558.15	117.03
558.32	37.45
558.48	53.83
558.65	70.22
558.81	65.54
558.98	112.35
559.14	93.62
559.31	135.75
559.47	63.19
559.64	84.26
559.80	49.15
559.97	128.73
560.13	74.90
560.30	119.37
560.46	58.51
560.63	173.20
560.79	154.48
560.96	46.81
561.12	21.06
561.29	53.83
561.45	168.52
561.61	128.73
561.78	138.09
561.94	53.83
562.11	30.43
562.27	53.83
562.44	30.43
562.60	18.72
562.77	35.11
562.93	84.26
563.10	77.24
563.26	67.88
563.42	86.60
563.59	32.77
563.75	105.32
563.92	128.73
564.08	77.24
564.24	112.35
564.41	81.92
564.57	86.60
564.74	102.98
564.90	74.90
565.07	133.41
565.23	67.88
565.39	72.56
565.56	100.64
565.72	81.92
565.88	37.45
566.05	102.98
566.21	35.11
566.38	60.85
566.54	102.98
566.70	65.54
566.87	110.01
567.03	63.19
567.19	77.24
567.36	102.98
567.52	98.30
567.68	65.54
567.85	102.98
568.01	84.26
568.17	42.13
568.34	114.69
568.50	91.28
568.66	77.24
568.83	63.19
568.99	88.94
569.15	84.26
569.32	173.20
569.48	98.30
569.64	39.79
569.81	79.58
569.97	86.60
570.13	79.58
570.30	70.22
570.46	117.03
570.62	58.51
570.78	88.94
570.95	131.07
571.11	84.26
571.27	21.06
571.43	88.94
571.60	51.49
571.76	81.92
571.92	44.47
572.09	74.90
572.25	102.98
572.41	110.01
572.57	0.00
572.74	77.24
572.90	102.98
573.06	35.11
573.22	21.06
573.38	86.60
573.55	91.28
573.71	72.56
573.87	112.35
574.03	88.94
574.20	110.01
574.36	35.11
574.52	86.60
574.68	58.51
574.84	51.49
575.01	135.75
575.17	25.75
575.33	74.90
575.49	25.75
575.65	42.13
575.82	166.18
575.98	147.45
576.14	49.15
576.30	2.34
576.46	84.26
576.62	37.45
576.79	63.19
576.95	46.81
577.11	67.88
577.27	95.96
577.43	39.79
577.59	102.98
577.75	72.56
577.92	86.60
578.08	32.77
578.24	18.72
578.40	133.41
578.56	114.69
578.72	102.98
578.88	11.70
579.04	86.60
579.21	88.94
579.37	14.04
579.53	56.17
579.69	53.83
579.85	79.58
580.01	18.72
580.17	100.64
580.33	84.26
580.49	72.56
580.65	42.13
580.82	14.04
580.98	49.15
581.14	53.83
581.30	56.17
581.46	32.77
581.62	98.30
581.78	110.01
581.94	93.62
582.10	114.69
582.26	114.69
582.42	53.83
582.58	88.94
582.74	56.17
582.90	149.79
583.06	102.98
583.22	84.26
583.38	46.81
583.54	133.41
583.70	86.60
583.86	74.90
584.02	0.00
584.18	88.94
584.34	44.47
584.50	0.00
584.66	42.13
584.82	49.15
584.98	63.19
585.14	9.36
585.30	25.75
585.46	53.83
585.62	72.56
585.78	56.17
585.94	91.28
586.10	65.54
586.26	95.96
586.42	100.64
586.58	49.15
586.74	56.17
586.90	0.00
587.06	42.13
587.22	95.96
587.38	124.05
587.54	72.56
587.70	72.56
587.86	105.32
588.02	67.88
588.18	102.98
588.34	42.13
588.49	63.19
588.65	74.90
588.81	37.45
588.97	60.85
589.13	102.98
589.29	0.00
589.45	23.41
589.61	4.68
589.77	30.43
589.93	56.17
590.08	81.92
590.24	63.19
590.40	86.60
590.56	30.43
590.72	112.35
590.88	81.92
591.04	86.60
591.20	95.96
591.35	119.37
591.51	32.77
591.67	37.45
591.83	81.92
591.99	88.94
592.15	110.01
592.31	117.03
592.46	44.47
592.62	49.15
592.78	88.94
592.94	42.13
593.10	98.30
593.26	56.17
593.41	91.28
593.57	121.71
593.73	49.15
593.89	119.37
594.05	58.51
594.20	37.45
594.36	49.15
594.52	9.36
594.68	98.30
594.84	131.07
594.99	79.58
595.15	37.45
595.31	9.36
595.47	79.58
595.62	100.64
595.78	63.19
595.94	67.88
596.10	100.64
596.25	60.85
596.41	105.32
596.57	39.79
596.73	135.75
596.88	9.36
597.04	65.54
597.20	30.43
597.36	42.13
597.51	39.79
597.67	124.05
597.83	79.58
597.99	121.71
598.14	74.90
598.30	63.19
598.46	124.05
598.61	93.62
598.77	63.19
598.93	30.43
599.09	86.60
599.24	28.09
599.40	70.22
599.56	86.60
599.71	0.00
599.87	18.72
600.03	30.43
600.18	84.26
600.34	0.00
600.50	58.51
600.65	53.83
600.81	107.66
600.97	60.85
601.12	60.85
601.28	74.90
601.44	63.19
601.59	91.28
601.75	74.90
601.91	102.98
602.06	93.62
602.22	56.17
602.37	86.60
602.53	114.69
602.69	56.17
602.84	63.19
603.00	86.60
603.16	114.69
603.31	105.32
603.47	60.85
603.62	74.90
603.78	58.51
603.94	25.75
604.09	49.15
604.25	53.83
604.40	46.81
604.56	65.54
604.71	37.45
604.87	65.54
605.03	102.98
605.18	56.17
605.34	91.28
605.49	128.73
605.65	65.54
605.80	46.81
605.96	86.60
606.12	95.96
606.27	7.02
606.43	56.17
606.58	32.77
606.74	32.77
606.89	65.54
607.05	166.18
607.20	117.03
607.36	72.56
607.51	67.88
607.67	44.47
607.82	0.00
607.98	67.88
608.13	4.68
608.29	126.39
608.44	60.85
608.60	46.81
608.75	46.81
608.91	105.32
609.06	95.96
609.22	124.05
609.37	107.66
609.53	131.07
609.68	56.17
609.84	77.24
609.99	46.81
610.15	53.83
610.30	35.11
610.46	133.41
610.61	128.73
610.76	60.85
610.92	51.49
611.07	86.60
611.23	77.24
611.38	117.03
611.54	16.38
611.69	53.83
611.84	67.88
612.00	105.32
612.15	51.49
612.31	56.17
612.46	53.83
612.62	53.83
612.77	98.30
612.92	65.54
613.08	4.68
613.23	93.62
613.39	84.26
613.54	53.83
613.69	28.09
613.85	110.01
614.00	18.72
614.15	28.09
614.31	93.62
614.46	65.54
614.62	60.85
614.77	86.60
614.92	67.88
615.08	77.24
615.23	53.83
615.38	86.60
615.54	51.49
615.69	65.54
615.84	32.77
616.00	74.90
616.15	88.94
616.30	98.30
616.46	46.81
616.61	107.66
616.76	25.75
616.92	131.07
617.07	63.19
617.22	77.24
617.37	51.49
617.53	114.69
617.68	147.45
617.83	56.17
617.99	51.49
618.14	70.22
618.29	53.83
618.45	93.62
618.60	86.60
618.75	2.34
618.90	86.60
619.06	95.96
619.21	72.56
619.36	72.56
619.51	63.19
619.67	74.90
619.82	93.62
619.97	88.94
620.12	77.24
620.28	30.43
620.43	65.54
620.58	105.32
620.73	86.60
620.89	91.28
621.04	131.07
621.19	112.35
621.34	53.83
621.49	95.96
621.65	86.60
621.80	53.83
621.95	53.83
622.10	51.49
622.25	88.94
622.41	2.34
622.56	60.85
622.71	42.13
622.86	0.00
623.01	53.83
623.16	14.04
623.32	46.81
623.47	53.83
623.62	9.36
623.77	145.11
623.92	145.11
624.07	42.13
624.23	35.11
624.38	117.03
624.53	117.03
624.68	44.47
624.83	56.17
624.98	21.06
625.13	63.19
625.29	32.77
625.44	14.04
625.59	49.15
625.74	28.09
625.89	53.83
626.04	65.54
626.19	119.37
626.34	46.81
626.49	100.64
626.65	117.03
626.80	32.77
626.95	16.38
627.10	9.36
627.25	39.79
627.40	77.24
627.55	95.96
627.70	0.00
627.85	53.83
628.00	95.96
628.15	58.51
628.30	53.83
628.45	77.24
628.60	42.13
628.76	79.58
628.91	14.04
629.06	77.24
629.21	0.00
629.36	70.22
629.51	98.30
629.66	74.90
629.81	18.72
629.96	44.47
630.11	60.85
630.26	70.22
630.41	79.58
630.56	114.69
630.71	67.88
630.86	88.94
631.01	60.85
631.16	0.00
631.31	84.26
631.46	21.06
631.61	0.00
631.76	35.11
631.91	84.26
632.06	77.24
632.21	28.09
632.36	56.17
632.51	84.26
632.66	23.41
632.81	23.41
632.96	121.71
633.10	84.26
633.25	65.54
633.40	9.36
633.55	58.51
633.70	105.32
633.85	93.62
634.00	77.24
634.15	72.56
634.30	67.88
634.45	65.54
634.60	117.03
634.75	63.19
634.90	142.77
635.05	44.47
635.19	102.98
635.34	70.22
635.49	79.58
635.64	56.17
635.79	14.04
635.94	53.83
636.09	37.45
636.24	44.47
636.39	0.00
636.53	98.30
636.68	98.30
636.83	77.24
636.98	56.17
637.13	107.66
637.28	72.56
637.43	107.66
637.57	131.07
637.72	30.43
637.87	114.69
638.02	74.90
638.17	60.85
638.32	30.43
638.46	28.09
638.61	58.51
638.76	51.49
638.91	42.13
639.06	60.85
639.20	23.41
639.35	42.13
639.50	9.36
639.65	46.81
639.80	72.56
639.94	30.43
640.09	81.92
640.24	51.49
640.39	23.41
640.54	67.88
640.68	37.45
640.83	60.85
640.98	72.56
641.13	79.58
641.27	0.00
641.42	44.47
641.57	42.13
641.72	25.75
641.86	74.90
642.01	46.81
642.16	46.81
642.31	44.47
642.45	46.81
642.60	25.75
642.75	16.38
642.90	56.17
643.04	49.15
643.19	93.62
643.34	0.00
643.48	93.62
643.63	79.58
643.78	60.85
643.93	25.75
644.07	21.06
644.22	0.00
644.37	95.96
644.51	0.00
644.66	63.19
644.81	77.24
644.95	79.58
645.10	42.13
645.25	14.04
645.39	16.38
645.54	42.13
645.69	23.41
645.83	32.77
645.98	23.41
646.13	4.68
646.27	100.64
646.42	46.81
646.57	84.26
646.71	51.49
646.86	107.66
647.00	25.75
647.15	28.09
647.30	42.13
647.44	60.85
647.59	112.35
647.74	51.49
647.88	128.73
648.03	0.00
648.17	77.24
648.32	51.49
648.47	0.00
648.61	0.00
648.76	18.72
648.90	46.81
649.05	72.56
649.20	112.35
649.34	11.70
649.49	18.72
649.63	67.88
649.78	0.00
649.92	25.75
650.07	30.43
650.21	79.58
650.36	84.26
650.51	72.56
650.65	100.64
650.80	39.79
650.94	46.81
651.09	84.26
651.23	81.92
651.38	0.00
651.52	14.04
651.67	67.88
651.81	49.15
651.96	18.72
652.10	30.43
652.25	60.85
652.39	35.11
652.54	42.13
652.68	0.00
652.83	16.38
652.97	102.98
653.12	39.79
653.26	16.38
653.41	124.05
653.55	60.85
653.70	0.00
653.84	28.09
653.99	74.90
654.13	86.60
654.27	11.70
654.42	35.11
654.56	18.72
654.71	56.17
654.85	46.81
655.00	37.45
655.14	91.28
655.29	18.72
655.43	16.38
655.57	37.45
655.72	53.83
655.86	67.88
656.01	39.79
656.15	2.34
656.30	25.75
656.44	30.43
656.58	79.58
656.73	30.43
656.87	0.00
657.01	86.60
657.16	35.11
657.30	46.81
657.45	110.01
657.59	77.24
657.73	63.19
657.88	30.43
658.02	88.94
658.16	56.17
658.31	16.38
658.45	25.75
658.60	35.11
658.74	14.04
658.88	91.28
659.03	67.88
659.17	95.96
659.31	18.72
659.46	39.79
659.60	72.56
659.74	105.32
659.89	117.03
660.03	84.26
660.17	37.45
660.32	58.51
660.46	0.00
660.60	18.72
660.74	117.03
660.89	79.58
661.03	39.79
661.17	51.49
661.32	107.66
661.46	30.43
661.60	11.70
661.74	84.26
661.89	93.62
662.03	4.68
662.17	9.36
662.31	102.98
662.46	44.47
662.60	63.19
662.74	2.34
662.88	81.92
663.03	65.54
663.17	25.75
663.31	51.49
663.45	49.15
663.60	72.56
663.74	32.77
663.88	42.13
664.02	0.00
664.17	18.72
664.31	70.22
664.45	0.00
664.59	0.00
664.73	37.45
664.88	28.09
665.02	0.00
665.16	2.34
665.30	14.04
665.44	93.62
665.59	105.32
665.73	30.43
665.87	84.26
666.01	63.19
666.15	58.51
666.29	0.00
666.44	72.56
666.58	63.19
666.72	14.04
666.86	4.68
667.00	88.94
667.14	65.54
667.28	112.35
667.43	128.73
667.57	4.68
667.71	88.94
667.85	18.72
667.99	91.28
668.13	98.30
668.27	74.90
668.41	4.68
668.56	100.64
668.70	42.13
668.84	65.54
668.98	77.24
669.12	30.43
669.26	51.49
669.40	7.02
669.54	42.13
669.68	86.60
669.82	32.77
669.96	37.45
670.10	56.17
670.25	74.90
670.39	98.30
670.53	0.00
670.67	0.00
670.81	0.00
670.95	79.58
671.09	44.47
671.23	124.05
671.37	100.64
671.51	168.52
671.65	112.35
671.79	25.75
671.93	51.49
672.07	21.06
672.21	49.15
672.35	65.54
672.49	81.92
672.63	91.28
672.77	25.75
672.91	107.66
673.05	100.64
673.19	25.75
673.33	81.92
673.47	9.36
673.61	88.94
673.75	86.60
673.89	46.81
674.03	81.92
674.17	42.13
674.31	18.72
674.45	77.24
674.59	65.54
674.73	51.49
674.87	60.85
675.01	91.28
675.15	7.02
675.29	35.11
675.43	21.06
675.56	32.77
675.70	7.02
675.84	32.77
675.98	65.54
676.12	0.00
676.26	84.26
676.40	46.81
676.54	0.00
676.68	72.56
676.82	9.36
676.96	81.92
677.10	63.19
677.23	77.24
677.37	107.66
677.51	65.54
677.65	25.75
677.79	51.49
677.93	124.05
678.07	93.62
678.21	79.58
678.34	74.90
678.48	21.06
678.62	9.36
678.76	44.47
678.90	51.49
679.04	84.26
679.18	98.30
679.31	70.22
679.45	112.35
679.59	39.79
679.73	0.00
679.87	65.54
680.00	44.47
680.14	42.13
680.28	0.00
680.42	72.56
680.56	63.19
680.70	163.84
680.83	35.11
680.97	56.17
681.11	7.02
681.25	16.38
681.39	37.45
681.52	81.92
681.66	58.51
681.80	49.15
681.94	53.83
682.07	117.03
682.21	30.43
682.35	4.68
682.49	86.60
682.62	58.51
682.76	23.41
682.90	42.13
683.04	35.11
683.17	11.70
683.31	0.00
683.45	56.17
683.59	16.38
683.72	11.70
683.86	16.38
684.00	0.00
684.13	9.36
684.27	0.00
684.41	0.00
684.55	44.47
684.68	16.38
684.82	9.36
684.96	0.00
685.09	107.66
685.23	105.32
685.37	0.00
685.50	42.13
685.64	39.79
685.78	39.79
685.91	58.51
686.05	65.54
686.19	86.60
686.32	14.04
686.46	72.56
686.60	93.62
686.73	46.81
686.87	18.72
687.01	60.85
687.14	0.00
687.28	79.58
687.42	81.92
687.55	60.85
687.69	11.70
687.82	74.90
687.96	0.00
688.10	42.13
688.23	37.45
688.37	39.79
688.50	0.00
688.64	79.58
688.78	35.11
688.91	51.49
689.05	56.17
689.18	42.13
689.32	60.85
689.46	14.04
689.59	74.90
689.73	51.49
689.86	0.00
690.00	0.00
690.13	79.58
690.27	46.81
690.41	18.72
690.54	70.22
690.68	46.81
690.81	25.75
690.95	32.77
691.08	49.15
691.22	25.75
691.35	124.05
691.49	7.02
691.62	23.41
691.76	16.38
691.89	65.54
692.03	28.09
692.16	0.00
692.30	18.72
692.43	60.85
692.57	70.22
692.70	67.88
692.84	58.51
692.97	77.24
693.11	91.28
693.24	114.69
693.38	70.22
693.51	32.77
693.65	53.83
693.78	49.15
693.92	70.22
694.05	63.19
694.19	21.06
694.32	58.51
694.45	88.94
694.59	16.38
694.72	16.38
694.86	37.45
694.99	49.15
695.13	56.17
695.26	0.00
695.39	65.54
695.53	93.62
695.66	88.94
695.80	0.00
695.93	67.88
696.07	0.00
696.20	30.43
696.33	58.51
696.47	23.41
696.60	0.00
696.73	49.15
696.87	63.19
697.00	86.60
697.14	72.56
697.27	32.77
697.40	25.75
697.54	0.00
697.67	18.72
697.80	60.85
697.94	0.00
698.07	28.09
698.21	7.02
698.34	63.19
698.47	21.06
698.61	0.00
698.74	30.43
698.87	32.77
699.01	58.51
699.14	0.00
699.27	32.77
699.40	56.17
699.54	53.83
699.67	11.70
699.80	0.00
699.94	7.02
700.07	25.75
700.20	51.49
700.34	32.77
700.47	37.45
700.60	72.56
700.73	67.88
700.87	9.36
701.00	11.70
701.13	39.79
701.26	44.47
701.40	32.77
701.53	0.00
701.66	126.39
701.79	0.00
701.93	0.00
702.06	0.00
702.19	46.81
702.32	42.13
702.46	53.83
702.59	0.00
702.72	23.41
702.85	16.38
702.99	0.00
703.12	42.13
703.25	60.85
703.38	58.51
703.51	49.15
703.65	98.30
703.78	28.09
703.91	21.06
704.04	35.11
704.17	0.00
704.31	60.85
704.44	60.85
704.57	0.00
704.70	74.90
704.83	39.79
704.96	2.34
705.10	35.11
705.23	39.79
>>>>>End Processed Spectral Data<<<<<
