SpectraSuite Data File
++++++++++++++++++++++++++++++++++++
Date: Tue Oct 01 18:25:09 GMT-05:00 2013
User: stostad
Dark Spectrum Present: No
Reference Spectrum Present: No
Number of Sampled Component Spectra: 1
Spectrometers: USB2+H05261
Integration Time (usec): 100000 (USB2+H05261)
Spectra Averaged: 1 (USB2+H05261)
Boxcar Smoothing: 0 (USB2+H05261)
Correct for Electrical Dark: No (USB2+H05261)
Strobe/Lamp Enabled: No (USB2+H05261)
Correct for Detector Non-linearity: No (USB2+H05261)
Correct for Stray Light: No (USB2+H05261)
Number of Pixels in Processed Spectrum: 2048
>>>>>Begin Processed Spectral Data<<<<<
365.73	28.09
365.92	28.09
366.12	28.09
366.32	0.00
366.52	0.00
366.72	0.00
366.91	18.72
367.11	4.68
367.31	0.00
367.51	0.00
367.70	0.00
367.90	0.00
368.10	0.00
368.30	0.00
368.49	0.00
368.69	0.00
368.89	0.00
369.09	0.00
369.28	0.00
369.48	0.00
369.68	0.00
369.87	16.38
370.07	53.83
370.27	102.98
370.47	131.07
370.66	65.54
370.86	49.15
371.06	84.26
371.25	105.32
371.45	147.45
371.65	91.28
371.84	142.77
372.04	37.45
372.24	49.15
372.44	21.06
372.63	140.43
372.83	184.90
373.03	154.48
373.22	95.96
373.42	117.03
373.62	117.03
373.81	138.09
374.01	152.13
374.21	175.54
374.40	119.37
374.60	131.07
374.79	163.84
374.99	110.01
375.19	95.96
375.38	191.92
375.58	140.43
375.78	126.39
375.97	177.88
376.17	243.42
376.37	105.32
376.56	175.54
376.76	170.86
376.95	156.82
377.15	180.22
377.35	145.11
377.54	177.88
377.74	154.48
377.93	107.66
378.13	112.35
378.33	194.26
378.52	135.75
378.72	201.29
378.91	140.43
379.11	100.64
379.31	156.82
379.50	124.05
379.70	152.13
379.89	177.88
380.09	117.03
380.28	100.64
380.48	124.05
380.68	91.28
380.87	46.81
381.07	152.13
381.26	145.11
381.46	58.51
381.65	208.31
381.85	95.96
382.04	140.43
382.24	110.01
382.43	79.58
382.63	126.39
382.83	128.73
383.02	105.32
383.22	163.84
383.41	81.92
383.61	166.18
383.80	182.56
384.00	95.96
384.19	177.88
384.39	147.45
384.58	126.39
384.78	147.45
384.97	182.56
385.17	126.39
385.36	126.39
385.56	205.97
385.75	163.84
385.95	166.18
386.14	168.52
386.34	126.39
386.53	126.39
386.72	23.41
386.92	147.45
387.11	131.07
387.31	95.96
387.50	128.73
387.70	154.48
387.89	117.03
388.09	79.58
388.28	163.84
388.48	147.45
388.67	170.86
388.86	187.24
389.06	119.37
389.25	184.90
389.45	140.43
389.64	152.13
389.84	166.18
390.03	198.95
390.22	210.65
390.42	102.98
390.61	194.26
390.81	161.50
391.00	166.18
391.19	159.16
391.39	180.22
391.58	70.22
391.78	91.28
391.97	145.11
392.16	88.94
392.36	124.05
392.55	163.84
392.75	180.22
392.94	131.07
393.13	154.48
393.33	161.50
393.52	102.98
393.71	93.62
393.91	163.84
394.10	124.05
394.29	100.64
394.49	126.39
394.68	201.29
394.88	145.11
395.07	154.48
395.26	72.56
395.46	135.75
395.65	126.39
395.84	166.18
396.04	196.60
396.23	102.98
396.42	112.35
396.62	196.60
396.81	140.43
397.00	140.43
397.19	119.37
397.39	166.18
397.58	154.48
397.77	182.56
397.97	187.24
398.16	126.39
398.35	107.66
398.55	88.94
398.74	114.69
398.93	154.48
399.12	107.66
399.32	124.05
399.51	107.66
399.70	138.09
399.90	210.65
400.09	205.97
400.28	58.51
400.47	161.50
400.67	119.37
400.86	152.13
401.05	124.05
401.24	194.26
401.44	168.52
401.63	145.11
401.82	145.11
402.01	138.09
402.21	187.24
402.40	100.64
402.59	149.79
402.78	168.52
402.97	56.17
403.17	121.71
403.36	135.75
403.55	194.26
403.74	79.58
403.93	154.48
404.13	177.88
404.32	182.56
404.51	168.52
404.70	159.16
404.89	98.30
405.09	152.13
405.28	170.86
405.47	166.18
405.66	170.86
405.85	159.16
406.05	140.43
406.24	110.01
406.43	117.03
406.62	121.71
406.81	126.39
407.00	110.01
407.20	112.35
407.39	114.69
407.58	131.07
407.77	74.90
407.96	222.35
408.15	161.50
408.34	161.50
408.54	177.88
408.73	102.98
408.92	128.73
409.11	175.54
409.30	217.67
409.49	88.94
409.68	124.05
409.87	135.75
410.07	124.05
410.26	117.03
410.45	114.69
410.64	177.88
410.83	154.48
411.02	81.92
411.21	191.92
411.40	112.35
411.59	112.35
411.78	138.09
411.98	175.54
412.17	163.84
412.36	70.22
412.55	175.54
412.74	93.62
412.93	119.37
413.12	119.37
413.31	142.77
413.50	56.17
413.69	156.82
413.88	222.35
414.07	184.90
414.26	156.82
414.45	138.09
414.64	154.48
414.83	140.43
415.02	163.84
415.22	124.05
415.41	269.16
415.60	191.92
415.79	124.05
415.98	180.22
416.17	105.32
416.36	154.48
416.55	140.43
416.74	93.62
416.93	203.63
417.12	119.37
417.31	140.43
417.50	117.03
417.69	217.67
417.88	112.35
418.07	124.05
418.26	121.71
418.45	180.22
418.64	170.86
418.83	198.95
419.02	205.97
419.21	128.73
419.39	149.79
419.58	124.05
419.77	163.84
419.96	194.26
420.15	133.41
420.34	133.41
420.53	187.24
420.72	105.32
420.91	173.20
421.10	152.13
421.29	142.77
421.48	114.69
421.67	112.35
421.86	142.77
422.05	79.58
422.24	105.32
422.43	95.96
422.61	112.35
422.80	121.71
422.99	196.60
423.18	77.24
423.37	173.20
423.56	156.82
423.75	170.86
423.94	121.71
424.13	86.60
424.32	161.50
424.50	152.13
424.69	231.71
424.88	170.86
425.07	156.82
425.26	138.09
425.45	208.31
425.64	215.33
425.83	133.41
426.01	159.16
426.20	159.16
426.39	163.84
426.58	114.69
426.77	140.43
426.96	110.01
427.15	121.71
427.33	184.90
427.52	177.88
427.71	135.75
427.90	119.37
428.09	124.05
428.28	154.48
428.46	86.60
428.65	227.03
428.84	117.03
429.03	117.03
429.22	114.69
429.40	166.18
429.59	140.43
429.78	128.73
429.97	121.71
430.16	110.01
430.34	205.97
430.53	182.56
430.72	114.69
430.91	177.88
431.10	102.98
431.28	105.32
431.47	140.43
431.66	119.37
431.85	152.13
432.03	119.37
432.22	182.56
432.41	154.48
432.60	154.48
432.79	203.63
432.97	194.26
433.16	262.14
433.35	105.32
433.54	79.58
433.72	180.22
433.91	154.48
434.10	112.35
434.28	196.60
434.47	187.24
434.66	124.05
434.85	112.35
435.03	145.11
435.22	189.58
435.41	180.22
435.59	149.79
435.78	65.54
435.97	88.94
436.16	189.58
436.34	138.09
436.53	93.62
436.72	128.73
436.90	156.82
437.09	152.13
437.28	168.52
437.46	156.82
437.65	107.66
437.84	177.88
438.02	191.92
438.21	133.41
438.40	135.75
438.58	88.94
438.77	135.75
438.96	184.90
439.14	145.11
439.33	138.09
439.52	152.13
439.70	117.03
439.89	201.29
440.08	166.18
440.26	117.03
440.45	128.73
440.63	145.11
440.82	119.37
441.01	67.88
441.19	133.41
441.38	161.50
441.57	119.37
441.75	131.07
441.94	138.09
442.12	194.26
442.31	65.54
442.50	170.86
442.68	196.60
442.87	126.39
443.05	149.79
443.24	177.88
443.43	149.79
443.61	149.79
443.80	173.20
443.98	161.50
444.17	84.26
444.35	191.92
444.54	159.16
444.73	152.13
444.91	131.07
445.10	140.43
445.28	110.01
445.47	182.56
445.65	88.94
445.84	135.75
446.02	187.24
446.21	163.84
446.39	133.41
446.58	77.24
446.77	126.39
446.95	105.32
447.14	142.77
447.32	140.43
447.51	135.75
447.69	154.48
447.88	152.13
448.06	170.86
448.25	147.45
448.43	131.07
448.62	98.30
448.80	152.13
448.99	131.07
449.17	152.13
449.36	187.24
449.54	173.20
449.73	198.95
449.91	177.88
450.10	133.41
450.28	152.13
450.46	189.58
450.65	156.82
450.83	65.54
451.02	117.03
451.20	128.73
451.39	166.18
451.57	67.88
451.76	112.35
451.94	119.37
452.13	140.43
452.31	166.18
452.49	182.56
452.68	156.82
452.86	166.18
453.05	154.48
453.23	154.48
453.42	79.58
453.60	105.32
453.78	105.32
453.97	131.07
454.15	70.22
454.34	107.66
454.52	110.01
454.70	198.95
454.89	131.07
455.07	79.58
455.26	145.11
455.44	154.48
455.62	119.37
455.81	154.48
455.99	145.11
456.17	161.50
456.36	152.13
456.54	4.68
456.73	131.07
456.91	110.01
457.09	168.52
457.28	184.90
457.46	147.45
457.64	126.39
457.83	121.71
458.01	138.09
458.19	154.48
458.38	168.52
458.56	119.37
458.74	44.47
458.93	168.52
459.11	138.09
459.29	147.45
459.48	107.66
459.66	215.33
459.84	180.22
460.03	250.44
460.21	196.60
460.39	154.48
460.57	128.73
460.76	198.95
460.94	159.16
461.12	215.33
461.31	208.31
461.49	208.31
461.67	163.84
461.85	112.35
462.04	168.52
462.22	519.60
462.40	201.29
462.59	117.03
462.77	152.13
462.95	147.45
463.13	88.94
463.32	152.13
463.50	210.65
463.68	145.11
463.86	173.20
464.05	128.73
464.23	159.16
464.41	163.84
464.59	161.50
464.78	145.11
464.96	107.66
465.14	156.82
465.32	117.03
465.50	163.84
465.69	154.48
465.87	159.16
466.05	166.18
466.23	65.54
466.41	91.28
466.60	70.22
466.78	79.58
466.96	229.37
467.14	133.41
467.32	173.20
467.51	166.18
467.69	168.52
467.87	138.09
468.05	138.09
468.23	194.26
468.41	184.90
468.60	77.24
468.78	117.03
468.96	156.82
469.14	145.11
469.32	149.79
469.50	102.98
469.69	81.92
469.87	161.50
470.05	175.54
470.23	131.07
470.41	105.32
470.59	208.31
470.77	159.16
470.95	156.82
471.14	191.92
471.32	175.54
471.50	168.52
471.68	187.24
471.86	142.77
472.04	152.13
472.22	74.90
472.40	142.77
472.58	133.41
472.77	95.96
472.95	177.88
473.13	222.35
473.31	163.84
473.49	65.54
473.67	131.07
473.85	175.54
474.03	107.66
474.21	189.58
474.39	107.66
474.57	196.60
474.75	210.65
474.93	142.77
475.12	65.54
475.30	112.35
475.48	119.37
475.66	152.13
475.84	119.37
476.02	110.01
476.20	168.52
476.38	154.48
476.56	229.37
476.74	166.18
476.92	135.75
477.10	98.30
477.28	177.88
477.46	100.64
477.64	156.82
477.82	138.09
478.00	117.03
478.18	170.86
478.36	131.07
478.54	117.03
478.72	145.11
478.90	58.51
479.08	177.88
479.26	140.43
479.44	100.64
479.62	107.66
479.80	86.60
479.98	140.43
480.16	93.62
480.34	121.71
480.52	140.43
480.70	138.09
480.88	91.28
481.06	74.90
481.24	126.39
481.41	138.09
481.59	60.85
481.77	163.84
481.95	149.79
482.13	191.92
482.31	149.79
482.49	117.03
482.67	128.73
482.85	175.54
483.03	166.18
483.21	177.88
483.39	142.77
483.57	107.66
483.74	135.75
483.92	198.95
484.10	60.85
484.28	133.41
484.46	229.37
484.64	182.56
484.82	194.26
485.00	205.97
485.18	63.19
485.35	154.48
485.53	86.60
485.71	161.50
485.89	107.66
486.07	182.56
486.25	184.90
486.43	201.29
486.61	234.05
486.78	138.09
486.96	138.09
487.14	98.30
487.32	149.79
487.50	105.32
487.68	152.13
487.85	84.26
488.03	189.58
488.21	168.52
488.39	110.01
488.57	142.77
488.75	177.88
488.92	245.76
489.10	182.56
489.28	184.90
489.46	159.16
489.64	170.86
489.81	98.30
489.99	142.77
490.17	166.18
490.35	212.99
490.53	79.58
490.70	147.45
490.88	152.13
491.06	126.39
491.24	88.94
491.41	154.48
491.59	196.60
491.77	135.75
491.95	189.58
492.13	145.11
492.30	133.41
492.48	124.05
492.66	196.60
492.84	142.77
493.01	191.92
493.19	119.37
493.37	191.92
493.54	91.28
493.72	114.69
493.90	117.03
494.08	107.66
494.25	140.43
494.43	159.16
494.61	152.13
494.79	140.43
494.96	110.01
495.14	81.92
495.32	135.75
495.49	77.24
495.67	135.75
495.85	154.48
496.02	110.01
496.20	175.54
496.38	220.01
496.55	173.20
496.73	189.58
496.91	133.41
497.09	112.35
497.26	131.07
497.44	105.32
497.62	100.64
497.79	208.31
497.97	128.73
498.14	128.73
498.32	119.37
498.50	159.16
498.67	93.62
498.85	126.39
499.03	138.09
499.20	81.92
499.38	95.96
499.56	128.73
499.73	159.16
499.91	121.71
500.08	152.13
500.26	100.64
500.44	112.35
500.61	189.58
500.79	159.16
500.97	168.52
501.14	203.63
501.32	107.66
501.49	177.88
501.67	77.24
501.84	140.43
502.02	147.45
502.20	126.39
502.37	241.08
502.55	126.39
502.72	121.71
502.90	182.56
503.07	180.22
503.25	163.84
503.43	124.05
503.60	198.95
503.78	175.54
503.95	152.13
504.13	133.41
504.30	145.11
504.48	182.56
504.65	161.50
504.83	91.28
505.01	110.01
505.18	173.20
505.36	156.82
505.53	65.54
505.71	128.73
505.88	170.86
506.06	114.69
506.23	126.39
506.41	154.48
506.58	191.92
506.76	102.98
506.93	142.77
507.11	191.92
507.28	175.54
507.46	140.43
507.63	182.56
507.81	168.52
507.98	79.58
508.16	142.77
508.33	175.54
508.50	187.24
508.68	196.60
508.85	65.54
509.03	124.05
509.20	166.18
509.38	121.71
509.55	131.07
509.73	159.16
509.90	133.41
510.08	182.56
510.25	70.22
510.42	81.92
510.60	100.64
510.77	180.22
510.95	163.84
511.12	170.86
511.30	138.09
511.47	168.52
511.64	266.82
511.82	189.58
511.99	170.86
512.17	194.26
512.34	93.62
512.51	100.64
512.69	112.35
512.86	201.29
513.04	149.79
513.21	121.71
513.38	112.35
513.56	182.56
513.73	245.76
513.90	131.07
514.08	145.11
514.25	210.65
514.43	170.86
514.60	88.94
514.77	135.75
514.95	117.03
515.12	91.28
515.29	161.50
515.47	159.16
515.64	145.11
515.81	161.50
515.99	191.92
516.16	166.18
516.33	119.37
516.51	93.62
516.68	161.50
516.85	117.03
517.03	198.95
517.20	107.66
517.37	133.41
517.54	201.29
517.72	131.07
517.89	149.79
518.06	149.79
518.24	262.14
518.41	203.63
518.58	173.20
518.75	84.26
518.93	154.48
519.10	117.03
519.27	91.28
519.45	121.71
519.62	117.03
519.79	170.86
519.96	114.69
520.14	189.58
520.31	142.77
520.48	152.13
520.65	159.16
520.83	163.84
521.00	112.35
521.17	114.69
521.34	208.31
521.52	145.11
521.69	140.43
521.86	133.41
522.03	147.45
522.20	210.65
522.38	149.79
522.55	149.79
522.72	105.32
522.89	173.20
523.07	227.03
523.24	182.56
523.41	184.90
523.58	63.19
523.75	140.43
523.92	177.88
524.10	159.16
524.27	182.56
524.44	110.01
524.61	196.60
524.78	145.11
524.96	210.65
525.13	110.01
525.30	201.29
525.47	201.29
525.64	177.88
525.81	112.35
525.98	135.75
526.16	163.84
526.33	100.64
526.50	131.07
526.67	142.77
526.84	194.26
527.01	142.77
527.18	91.28
527.36	60.85
527.53	65.54
527.70	102.98
527.87	135.75
528.04	215.33
528.21	184.90
528.38	110.01
528.55	198.95
528.72	231.71
528.89	152.13
529.07	173.20
529.24	107.66
529.41	112.35
529.58	131.07
529.75	121.71
529.92	196.60
530.09	140.43
530.26	112.35
530.43	119.37
530.60	210.65
530.77	131.07
530.94	177.88
531.11	189.58
531.28	128.73
531.46	112.35
531.63	220.01
531.80	119.37
531.97	161.50
532.14	166.18
532.31	161.50
532.48	210.65
532.65	191.92
532.82	250.44
532.99	135.75
533.16	119.37
533.33	100.64
533.50	117.03
533.67	161.50
533.84	198.95
534.01	205.97
534.18	117.03
534.35	81.92
534.52	135.75
534.69	100.64
534.86	156.82
535.03	138.09
535.20	135.75
535.37	65.54
535.54	173.20
535.71	124.05
535.88	88.94
536.05	107.66
536.22	142.77
536.38	126.39
536.55	117.03
536.72	163.84
536.89	110.01
537.06	149.79
537.23	131.07
537.40	110.01
537.57	112.35
537.74	53.83
537.91	184.90
538.08	93.62
538.25	121.71
538.42	149.79
538.59	102.98
538.75	135.75
538.92	163.84
539.09	121.71
539.26	119.37
539.43	285.55
539.60	568.75
539.77	716.20
539.94	589.82
540.11	369.80
540.28	294.91
540.44	173.20
540.61	154.48
540.78	147.45
540.95	100.64
541.12	248.10
541.29	152.13
541.46	175.54
541.62	166.18
541.79	152.13
541.96	224.69
542.13	175.54
542.30	152.13
542.47	166.18
542.63	135.75
542.80	196.60
542.97	149.79
543.14	149.79
543.31	163.84
543.48	117.03
543.64	105.32
543.81	145.11
543.98	168.52
544.15	119.37
544.32	107.66
544.48	145.11
544.65	114.69
544.82	154.48
544.99	147.45
545.16	159.16
545.32	161.50
545.49	154.48
545.66	95.96
545.83	128.73
546.00	175.54
546.16	114.69
546.33	117.03
546.50	145.11
546.67	163.84
546.83	182.56
547.00	145.11
547.17	191.92
547.34	72.56
547.50	72.56
547.67	107.66
547.84	117.03
548.00	184.90
548.17	133.41
548.34	142.77
548.51	163.84
548.67	100.64
548.84	126.39
549.01	173.20
549.18	124.05
549.34	187.24
549.51	133.41
549.68	161.50
549.84	117.03
550.01	159.16
550.18	243.42
550.34	212.99
550.51	159.16
550.68	182.56
550.84	72.56
551.01	128.73
551.18	107.66
551.34	112.35
551.51	95.96
551.68	196.60
551.84	159.16
552.01	161.50
552.18	145.11
552.34	147.45
552.51	131.07
552.68	177.88
552.84	147.45
553.01	142.77
553.18	161.50
553.34	177.88
553.51	128.73
553.67	149.79
553.84	180.22
554.01	128.73
554.17	159.16
554.34	102.98
554.51	259.80
554.67	203.63
554.84	189.58
555.00	138.09
555.17	142.77
555.33	168.52
555.50	145.11
555.67	220.01
555.83	128.73
556.00	110.01
556.16	292.57
556.33	163.84
556.50	152.13
556.66	182.56
556.83	135.75
556.99	140.43
557.16	124.05
557.32	121.71
557.49	84.26
557.65	173.20
557.82	117.03
557.98	142.77
558.15	107.66
558.32	191.92
558.48	156.82
558.65	147.45
558.81	112.35
558.98	86.60
559.14	173.20
559.31	217.67
559.47	180.22
559.64	124.05
559.80	227.03
559.97	154.48
560.13	203.63
560.30	124.05
560.46	159.16
560.63	121.71
560.79	184.90
560.96	177.88
561.12	152.13
561.29	135.75
561.45	110.01
561.61	170.86
561.78	152.13
561.94	65.54
562.11	138.09
562.27	161.50
562.44	72.56
562.60	142.77
562.77	135.75
562.93	224.69
563.10	210.65
563.26	175.54
563.42	161.50
563.59	210.65
563.75	156.82
563.92	215.33
564.08	154.48
564.24	95.96
564.41	198.95
564.57	93.62
564.74	107.66
564.90	166.18
565.07	184.90
565.23	198.95
565.39	147.45
565.56	126.39
565.72	81.92
565.88	135.75
566.05	135.75
566.21	131.07
566.38	161.50
566.54	189.58
566.70	131.07
566.87	135.75
567.03	184.90
567.19	215.33
567.36	152.13
567.52	180.22
567.68	180.22
567.85	140.43
568.01	128.73
568.17	93.62
568.34	105.32
568.50	184.90
568.66	163.84
568.83	220.01
568.99	149.79
569.15	168.52
569.32	100.64
569.48	161.50
569.64	95.96
569.81	140.43
569.97	159.16
570.13	156.82
570.30	124.05
570.46	124.05
570.62	142.77
570.78	161.50
570.95	107.66
571.11	198.95
571.27	135.75
571.43	159.16
571.60	262.14
571.76	128.73
571.92	114.69
572.09	117.03
572.25	138.09
572.41	67.88
572.57	152.13
572.74	154.48
572.90	154.48
573.06	177.88
573.22	84.26
573.38	177.88
573.55	161.50
573.71	180.22
573.87	74.90
574.03	133.41
574.20	168.52
574.36	191.92
574.52	196.60
574.68	203.63
574.84	168.52
575.01	149.79
575.17	163.84
575.33	133.41
575.49	142.77
575.65	208.31
575.82	147.45
575.98	283.20
576.14	360.44
576.30	287.89
576.46	248.10
576.62	208.31
576.79	177.88
576.95	194.26
577.11	182.56
577.27	135.75
577.43	175.54
577.59	196.60
577.75	163.84
577.92	128.73
578.08	152.13
578.24	208.31
578.40	187.24
578.56	173.20
578.72	220.01
578.88	163.84
579.04	147.45
579.21	159.16
579.37	241.08
579.53	112.35
579.69	210.65
579.85	149.79
580.01	266.82
580.17	257.46
580.33	161.50
580.49	100.64
580.65	142.77
580.82	175.54
580.98	231.71
581.14	201.29
581.30	280.86
581.46	203.63
581.62	280.86
581.78	252.78
581.94	250.44
582.10	163.84
582.26	245.76
582.42	255.12
582.58	227.03
582.74	259.80
582.90	210.65
583.06	177.88
583.22	283.20
583.38	229.37
583.54	196.60
583.70	334.70
583.86	318.31
584.02	348.74
584.18	468.11
584.34	816.85
584.50	5750.70
584.66	19871.15
584.82	32795.59
584.98	33818.40
585.14	20240.95
585.30	11197.12
585.46	5217.05
585.62	2211.81
585.78	940.90
585.94	543.00
586.10	374.49
586.26	344.06
586.42	395.55
586.58	299.59
586.74	360.44
586.90	264.48
587.06	231.71
587.22	257.46
587.38	348.74
587.54	1102.39
587.70	2141.59
587.86	2708.00
588.02	1952.01
588.18	1186.65
588.34	758.33
588.49	383.85
588.65	313.63
588.81	234.05
588.97	166.18
589.13	147.45
589.29	166.18
589.45	161.50
589.61	229.37
589.77	236.39
589.93	241.08
590.08	215.33
590.24	203.63
590.40	252.78
590.56	227.03
590.72	238.73
590.88	210.65
591.04	175.54
591.20	182.56
591.35	168.52
591.51	124.05
591.67	124.05
591.83	117.03
591.99	102.98
592.15	180.22
592.31	173.20
592.46	149.79
592.62	278.52
592.78	187.24
592.94	224.69
593.10	142.77
593.26	182.56
593.41	196.60
593.57	283.20
593.73	945.58
593.89	2537.14
594.05	4105.30
594.20	4105.30
594.36	2946.73
594.52	1682.85
594.68	929.19
594.84	477.47
594.99	306.61
595.15	220.01
595.31	175.54
595.47	222.35
595.62	208.31
595.78	133.41
595.94	212.99
596.10	236.39
596.25	227.03
596.41	229.37
596.57	196.60
596.73	215.33
596.88	554.71
597.04	870.68
597.20	1153.88
597.36	917.49
597.51	587.47
597.67	404.91
597.83	217.67
597.99	196.60
598.14	196.60
598.30	212.99
598.46	191.92
598.61	241.08
598.77	168.52
598.93	107.66
599.09	154.48
599.24	203.63
599.40	170.86
599.56	145.11
599.71	142.77
599.87	124.05
600.03	168.52
600.18	140.43
600.34	182.56
600.50	138.09
600.65	170.86
600.81	191.92
600.97	107.66
601.12	191.92
601.28	187.24
601.44	175.54
601.59	124.05
601.75	198.95
601.91	196.60
602.06	149.79
602.22	430.66
602.37	629.60
602.53	1144.52
602.69	1118.78
602.84	889.40
603.00	540.66
603.16	390.87
603.31	301.93
603.47	166.18
603.62	142.77
603.78	142.77
603.94	231.71
604.09	140.43
604.25	163.84
604.40	142.77
604.56	205.97
604.71	196.60
604.87	166.18
605.03	196.60
605.18	159.16
605.34	259.80
605.49	182.56
605.65	140.43
605.80	110.01
605.96	145.11
606.12	210.65
606.27	175.54
606.43	217.67
606.58	517.26
606.74	1397.30
606.89	2635.44
607.05	3482.72
607.20	2902.26
607.36	2029.24
607.51	1327.08
607.67	713.86
607.82	468.11
607.98	332.36
608.13	161.50
608.29	175.54
608.44	208.31
608.60	234.05
608.75	657.69
608.91	2317.13
609.06	4589.79
609.22	6054.97
609.37	4947.89
609.53	3473.36
609.68	2136.91
609.84	1277.93
609.99	648.33
610.15	362.78
610.30	301.93
610.46	189.58
610.61	177.88
610.76	177.88
610.92	215.33
611.07	154.48
611.23	264.48
611.38	205.97
611.54	201.29
611.69	243.42
611.84	110.01
612.00	175.54
612.15	215.33
612.31	196.60
612.46	313.63
612.62	278.52
612.77	332.36
612.92	264.48
613.08	252.78
613.23	320.65
613.39	557.05
613.54	2242.23
613.69	5863.04
613.85	9284.91
614.00	9174.90
614.15	6513.71
614.31	4063.17
614.46	2649.49
614.62	1303.68
614.77	709.18
614.92	470.45
615.08	248.10
615.23	311.29
615.38	248.10
615.54	482.15
615.69	1296.66
615.84	2169.68
616.00	2469.27
616.15	2064.35
616.30	1317.72
616.46	997.07
616.61	592.16
616.76	348.74
616.92	234.05
617.07	184.90
617.22	177.88
617.37	170.86
617.53	201.29
617.68	168.52
617.83	138.09
617.99	145.11
618.14	248.10
618.29	168.52
618.45	210.65
618.60	135.75
618.75	203.63
618.90	135.75
619.06	196.60
619.21	266.82
619.36	168.52
619.51	100.64
619.67	93.62
619.82	88.94
619.97	161.50
620.12	154.48
620.28	135.75
620.43	170.86
620.58	189.58
620.73	196.60
620.89	355.76
621.04	809.83
621.19	1256.87
621.34	1533.05
621.49	1242.82
621.65	891.74
621.80	634.29
621.95	437.68
622.10	388.53
622.25	156.82
622.41	187.24
622.56	168.52
622.71	154.48
622.86	173.20
623.01	142.77
623.16	149.79
623.32	77.24
623.47	95.96
623.62	161.50
623.77	142.77
623.92	145.11
624.07	187.24
624.23	166.18
624.38	156.82
624.53	124.05
624.68	198.95
624.83	175.54
624.98	152.13
625.13	142.77
625.29	110.01
625.44	173.20
625.59	212.99
625.74	304.27
625.89	1355.17
626.04	2972.48
626.19	4723.20
626.34	4685.75
626.49	3442.93
626.65	2319.47
626.80	1504.96
626.95	844.93
627.10	503.22
627.25	308.95
627.40	224.69
627.55	154.48
627.70	189.58
627.85	175.54
628.00	161.50
628.15	217.67
628.30	191.92
628.45	140.43
628.60	119.37
628.76	126.39
628.91	84.26
629.06	131.07
629.21	140.43
629.36	182.56
629.51	163.84
629.66	355.76
629.81	617.90
629.96	1111.75
630.11	1308.36
630.26	1135.16
630.41	809.83
630.56	634.29
630.71	418.96
630.86	229.37
631.01	119.37
631.16	163.84
631.31	184.90
631.46	194.26
631.61	166.18
631.76	294.91
631.91	189.58
632.06	166.18
632.21	257.46
632.36	266.82
632.51	304.27
632.66	765.36
632.81	1743.70
632.96	2871.84
633.10	3208.87
633.25	2436.50
633.40	1797.53
633.55	1146.86
633.70	692.80
633.85	510.24
634.00	311.29
634.15	220.01
634.30	252.78
634.45	189.58
634.60	152.13
634.75	152.13
634.90	198.95
635.05	124.05
635.19	238.73
635.34	177.88
635.49	166.18
635.64	149.79
635.79	201.29
635.94	257.46
636.09	140.43
636.24	201.29
636.39	133.41
636.53	126.39
636.68	220.01
636.83	227.03
636.98	205.97
637.13	119.37
637.28	266.82
637.43	496.19
637.57	1907.54
637.72	3955.51
637.87	5788.14
638.02	5636.01
638.17	4023.38
638.32	2923.33
638.46	1764.76
638.61	1203.04
638.76	545.34
638.91	383.85
639.06	262.14
639.20	304.27
639.35	772.38
639.50	2726.72
639.65	5685.16
639.80	8592.11
639.94	8292.52
640.09	6223.48
640.24	4203.60
640.39	2612.04
640.54	1675.82
640.68	835.57
640.83	468.11
640.98	245.76
641.13	208.31
641.27	205.97
641.42	184.90
641.57	149.79
641.72	212.99
641.86	168.52
642.01	177.88
642.16	229.37
642.31	177.88
642.45	220.01
642.60	224.69
642.75	161.50
642.90	224.69
643.04	119.37
643.19	159.16
643.34	124.05
643.48	215.33
643.63	107.66
643.78	156.82
643.93	152.13
644.07	145.11
644.22	154.48
644.37	161.50
644.51	154.48
644.66	142.77
644.81	135.75
644.95	161.50
645.10	208.31
645.25	114.69
645.39	152.13
645.54	56.17
645.69	210.65
645.83	180.22
645.98	215.33
646.13	112.35
646.27	173.20
646.42	173.20
646.57	88.94
646.71	166.18
646.86	98.30
647.00	133.41
647.15	238.73
647.30	203.63
647.44	180.22
647.59	154.48
647.74	110.01
647.88	156.82
648.03	196.60
648.17	149.79
648.32	194.26
648.47	128.73
648.61	140.43
648.76	149.79
648.90	107.66
649.05	177.88
649.20	84.26
649.34	212.99
649.49	126.39
649.63	182.56
649.78	360.44
649.92	1231.12
650.07	2696.30
650.21	4456.38
650.36	4638.94
650.51	3471.01
650.65	2502.03
650.80	1741.36
650.94	1041.54
651.09	603.86
651.23	358.10
651.38	278.52
651.52	205.97
651.67	170.86
651.81	175.54
651.96	255.12
652.10	212.99
652.25	135.75
652.39	166.18
652.54	404.91
652.68	854.30
652.83	1441.77
652.97	1703.91
653.12	1519.01
653.26	1015.79
653.41	720.88
653.55	596.84
653.70	276.18
653.84	236.39
653.99	259.80
654.13	154.48
654.27	152.13
654.42	138.09
654.56	191.92
654.71	177.88
654.85	105.32
655.00	114.69
655.14	182.56
655.29	154.48
655.43	168.52
655.57	133.41
655.72	135.75
655.86	112.35
656.01	170.86
656.15	145.11
656.30	227.03
656.44	201.29
656.58	100.64
656.73	126.39
656.87	166.18
657.01	205.97
657.16	212.99
657.30	182.56
657.45	191.92
657.59	135.75
657.73	161.50
657.88	79.58
658.02	152.13
658.16	119.37
658.31	152.13
658.45	166.18
658.60	135.75
658.74	208.31
658.88	229.37
659.03	229.37
659.17	561.73
659.31	1240.48
659.46	2078.40
659.60	2530.12
659.74	2087.76
659.89	1495.60
660.03	950.26
660.17	706.84
660.32	297.25
660.46	287.89
660.60	217.67
660.74	196.60
660.89	138.09
661.03	126.39
661.17	163.84
661.32	166.18
661.46	161.50
661.60	98.30
661.74	177.88
661.89	131.07
662.03	173.20
662.17	133.41
662.31	166.18
662.46	184.90
662.60	147.45
662.74	98.30
662.88	215.33
663.03	138.09
663.17	110.01
663.31	194.26
663.45	128.73
663.60	140.43
663.74	72.56
663.88	145.11
664.02	79.58
664.17	126.39
664.31	154.48
664.45	133.41
664.59	124.05
664.73	177.88
664.88	215.33
665.02	154.48
665.16	156.82
665.30	161.50
665.44	175.54
665.59	224.69
665.73	208.31
665.87	126.39
666.01	182.56
666.15	56.17
666.29	131.07
666.44	220.01
666.58	227.03
666.72	112.35
666.86	142.77
667.00	264.48
667.14	1036.86
667.28	2354.58
667.43	3786.99
667.57	4184.88
667.71	3508.46
667.85	2476.29
667.99	1542.41
668.13	866.00
668.27	526.62
668.41	348.74
668.56	187.24
668.70	208.31
668.84	156.82
668.98	201.29
669.12	131.07
669.26	140.43
669.40	257.46
669.54	154.48
669.68	145.11
669.82	156.82
669.96	128.73
670.10	184.90
670.25	140.43
670.39	175.54
670.53	196.60
670.67	205.97
670.81	191.92
670.95	386.19
671.09	1086.01
671.23	1827.96
671.37	2700.98
671.51	2506.71
671.65	1966.05
671.79	1252.19
671.93	814.51
672.07	594.50
672.21	397.89
672.35	124.05
672.49	166.18
672.63	201.29
672.77	173.20
672.91	161.50
673.05	98.30
673.19	168.52
673.33	124.05
673.47	180.22
673.61	152.13
673.75	107.66
673.89	98.30
674.03	173.20
674.17	117.03
674.31	156.82
674.45	128.73
674.59	112.35
674.73	177.88
674.87	145.11
675.01	128.73
675.15	159.16
675.29	234.05
675.43	140.43
675.56	168.52
675.70	88.94
675.84	117.03
675.98	196.60
676.12	133.41
676.26	86.60
676.40	88.94
676.54	135.75
676.68	159.16
676.82	187.24
676.96	177.88
677.10	154.48
677.23	166.18
677.37	95.96
677.51	168.52
677.65	208.31
677.79	159.16
677.93	124.05
678.07	194.26
678.21	152.13
678.34	166.18
678.48	114.69
678.62	177.88
678.76	128.73
678.90	182.56
679.04	145.11
679.18	98.30
679.31	67.88
679.45	77.24
679.59	152.13
679.73	138.09
679.87	156.82
680.00	119.37
680.14	170.86
680.28	138.09
680.42	173.20
680.56	208.31
680.70	191.92
680.83	140.43
680.97	168.52
681.11	114.69
681.25	187.24
681.39	114.69
681.52	152.13
681.66	173.20
681.80	189.58
681.94	149.79
682.07	81.92
682.21	42.13
682.35	166.18
682.49	121.71
682.62	198.95
682.76	191.92
682.90	166.18
683.04	156.82
683.17	159.16
683.31	159.16
683.45	131.07
683.59	110.01
683.72	102.98
683.86	163.84
684.00	140.43
684.13	175.54
684.27	152.13
684.41	173.20
684.55	177.88
684.68	93.62
684.82	159.16
684.96	100.64
685.09	227.03
685.23	152.13
685.37	133.41
685.50	203.63
685.64	128.73
685.78	180.22
685.91	229.37
686.05	215.33
686.19	142.77
686.32	119.37
686.46	166.18
686.60	114.69
686.73	224.69
686.87	217.67
687.01	124.05
687.14	119.37
687.28	138.09
687.42	173.20
687.55	142.77
687.69	166.18
687.82	161.50
687.96	142.77
688.10	168.52
688.23	121.71
688.37	299.59
688.50	175.54
688.64	168.52
688.78	142.77
688.91	159.16
689.05	152.13
689.18	161.50
689.32	44.47
689.46	187.24
689.59	145.11
689.73	121.71
689.86	135.75
690.00	194.26
690.13	93.62
690.27	121.71
690.41	145.11
690.54	166.18
690.68	124.05
690.81	135.75
690.95	201.29
691.08	173.20
691.22	112.35
691.35	201.29
691.49	67.88
691.62	177.88
691.76	128.73
691.89	119.37
692.03	114.69
692.16	168.52
692.30	304.27
692.43	917.49
692.57	1359.85
692.70	1825.62
692.84	1554.12
692.97	1343.47
693.11	1057.92
693.24	774.72
693.38	404.91
693.51	409.59
693.65	269.16
693.78	175.54
693.92	203.63
694.05	180.22
694.19	184.90
694.32	236.39
694.45	147.45
694.59	168.52
694.72	175.54
694.86	222.35
694.99	166.18
695.13	135.75
695.26	110.01
695.39	110.01
695.53	198.95
695.66	154.48
695.80	184.90
695.93	201.29
696.07	208.31
696.20	318.31
696.33	339.38
696.47	255.12
696.60	278.52
696.73	184.90
696.87	241.08
697.00	238.73
697.14	196.60
697.27	131.07
697.40	273.84
697.54	173.20
697.67	168.52
697.80	117.03
697.94	133.41
698.07	152.13
698.21	168.52
698.34	147.45
698.47	135.75
698.61	95.96
698.74	95.96
698.87	119.37
699.01	177.88
699.14	42.13
699.27	201.29
699.40	215.33
699.54	91.28
699.67	44.47
699.80	126.39
699.94	147.45
700.07	117.03
700.20	175.54
700.34	238.73
700.47	180.22
700.60	95.96
700.73	184.90
700.87	269.16
701.00	140.43
701.13	53.83
701.26	208.31
701.40	121.71
701.53	222.35
701.66	168.52
701.79	154.48
701.93	177.88
702.06	337.04
702.19	301.93
702.32	269.16
702.46	313.63
702.59	559.39
702.72	1188.99
702.85	2143.93
702.99	3258.03
703.12	3559.95
703.25	2951.42
703.38	2511.39
703.51	2038.61
703.65	1547.09
703.78	1013.45
703.91	669.39
704.04	517.26
704.17	299.59
704.31	159.16
704.44	187.24
704.57	163.84
704.70	159.16
704.83	184.90
704.96	124.05
705.10	208.31
705.23	126.39
>>>>>End Processed Spectral Data<<<<<
