SpectraSuite Data File
++++++++++++++++++++++++++++++++++++
Date: Fri Oct 04 12:13:29 GMT-05:00 2013
User: price-jones
Dark Spectrum Present: No
Reference Spectrum Present: No
Number of Sampled Component Spectra: 1
Spectrometers: USB2+H05261
Integration Time (usec): 10000 (USB2+H05261)
Spectra Averaged: 1 (USB2+H05261)
Boxcar Smoothing: 0 (USB2+H05261)
Correct for Electrical Dark: No (USB2+H05261)
Strobe/Lamp Enabled: No (USB2+H05261)
Correct for Detector Non-linearity: No (USB2+H05261)
Correct for Stray Light: No (USB2+H05261)
Number of Pixels in Processed Spectrum: 2048
>>>>>Begin Processed Spectral Data<<<<<
365.73	0.00
365.92	0.00
366.12	0.00
366.32	0.00
366.52	0.00
366.72	0.00
366.91	0.00
367.11	0.00
367.31	0.00
367.51	0.00
367.70	0.00
367.90	0.00
368.10	0.00
368.30	0.00
368.49	0.00
368.69	0.00
368.89	0.00
369.09	0.00
369.28	0.00
369.48	0.00
369.68	0.00
369.87	0.00
370.07	0.00
370.27	0.00
370.47	0.00
370.66	0.00
370.86	0.00
371.06	0.00
371.25	0.00
371.45	0.00
371.65	0.00
371.84	0.00
372.04	0.00
372.24	16.38
372.44	7.02
372.63	7.02
372.83	14.04
373.03	0.00
373.22	25.75
373.42	21.06
373.62	67.88
373.81	0.00
374.01	25.75
374.21	124.05
374.40	0.00
374.60	0.00
374.79	0.00
374.99	51.49
375.19	58.51
375.38	42.13
375.58	56.17
375.78	7.02
375.97	112.35
376.17	16.38
376.37	49.15
376.56	14.04
376.76	49.15
376.95	18.72
377.15	30.43
377.35	4.68
377.54	16.38
377.74	91.28
377.93	0.00
378.13	16.38
378.33	58.51
378.52	58.51
378.72	37.45
378.91	4.68
379.11	0.00
379.31	0.00
379.50	0.00
379.70	7.02
379.89	0.00
380.09	37.45
380.28	16.38
380.48	25.75
380.68	28.09
380.87	0.00
381.07	63.19
381.26	11.70
381.46	0.00
381.65	0.00
381.85	0.00
382.04	0.00
382.24	0.00
382.43	18.72
382.63	0.00
382.83	39.79
383.02	0.00
383.22	81.92
383.41	84.26
383.61	35.11
383.80	39.79
384.00	0.00
384.19	7.02
384.39	4.68
384.58	14.04
384.78	105.32
384.97	0.00
385.17	25.75
385.36	35.11
385.56	88.94
385.75	37.45
385.95	28.09
386.14	67.88
386.34	37.45
386.53	39.79
386.72	0.00
386.92	0.00
387.11	9.36
387.31	0.00
387.50	53.83
387.70	0.00
387.89	25.75
388.09	0.00
388.28	21.06
388.48	39.79
388.67	32.77
388.86	0.00
389.06	0.00
389.25	0.00
389.45	32.77
389.64	16.38
389.84	0.00
390.03	44.47
390.22	35.11
390.42	16.38
390.61	107.66
390.81	14.04
391.00	14.04
391.19	30.43
391.39	0.00
391.58	42.13
391.78	72.56
391.97	0.00
392.16	0.00
392.36	77.24
392.55	0.00
392.75	65.54
392.94	72.56
393.13	28.09
393.33	0.00
393.52	2.34
393.71	30.43
393.91	0.00
394.10	0.00
394.29	39.79
394.49	67.88
394.68	0.00
394.88	32.77
395.07	14.04
395.26	67.88
395.46	32.77
395.65	16.38
395.84	46.81
396.04	0.00
396.23	14.04
396.42	11.70
396.62	32.77
396.81	46.81
397.00	44.47
397.19	9.36
397.39	0.00
397.58	39.79
397.77	21.06
397.97	0.00
398.16	37.45
398.35	44.47
398.55	14.04
398.74	44.47
398.93	53.83
399.12	70.22
399.32	30.43
399.51	0.00
399.70	49.15
399.90	9.36
400.09	37.45
400.28	35.11
400.47	25.75
400.67	35.11
400.86	0.00
401.05	35.11
401.24	32.77
401.44	30.43
401.63	32.77
401.82	46.81
402.01	46.81
402.21	25.75
402.40	16.38
402.59	28.09
402.78	28.09
402.97	37.45
403.17	0.00
403.36	11.70
403.55	0.00
403.74	100.64
403.93	7.02
404.13	4.68
404.32	65.54
404.51	51.49
404.70	0.00
404.89	0.00
405.09	42.13
405.28	37.45
405.47	18.72
405.66	51.49
405.85	4.68
406.05	49.15
406.24	32.77
406.43	70.22
406.62	0.00
406.81	0.00
407.00	0.00
407.20	4.68
407.39	46.81
407.58	7.02
407.77	77.24
407.96	37.45
408.15	0.00
408.34	25.75
408.54	35.11
408.73	0.00
408.92	0.00
409.11	58.51
409.30	84.26
409.49	32.77
409.68	0.00
409.87	7.02
410.07	0.00
410.26	2.34
410.45	35.11
410.64	21.06
410.83	0.00
411.02	0.00
411.21	30.43
411.40	0.00
411.59	39.79
411.78	49.15
411.98	65.54
412.17	81.92
412.36	35.11
412.55	0.00
412.74	4.68
412.93	14.04
413.12	4.68
413.31	0.00
413.50	7.02
413.69	25.75
413.88	0.00
414.07	30.43
414.26	0.00
414.45	95.96
414.64	16.38
414.83	0.00
415.02	0.00
415.22	74.90
415.41	0.00
415.60	74.90
415.79	7.02
415.98	0.00
416.17	18.72
416.36	28.09
416.55	23.41
416.74	28.09
416.93	56.17
417.12	0.00
417.31	65.54
417.50	30.43
417.69	21.06
417.88	107.66
418.07	0.00
418.26	42.13
418.45	51.49
418.64	49.15
418.83	4.68
419.02	39.79
419.21	105.32
419.39	7.02
419.58	42.13
419.77	58.51
419.96	0.00
420.15	35.11
420.34	37.45
420.53	53.83
420.72	4.68
420.91	18.72
421.10	46.81
421.29	7.02
421.48	110.01
421.67	51.49
421.86	53.83
422.05	42.13
422.24	30.43
422.43	18.72
422.61	0.00
422.80	105.32
422.99	37.45
423.18	23.41
423.37	9.36
423.56	44.47
423.75	23.41
423.94	0.00
424.13	0.00
424.32	51.49
424.50	149.79
424.69	60.85
424.88	0.00
425.07	42.13
425.26	23.41
425.45	25.75
425.64	0.00
425.83	39.79
426.01	0.00
426.20	4.68
426.39	28.09
426.58	21.06
426.77	74.90
426.96	58.51
427.15	25.75
427.33	35.11
427.52	51.49
427.71	9.36
427.90	98.30
428.09	46.81
428.28	32.77
428.46	65.54
428.65	9.36
428.84	35.11
429.03	30.43
429.22	77.24
429.40	53.83
429.59	37.45
429.78	2.34
429.97	39.79
430.16	28.09
430.34	9.36
430.53	72.56
430.72	51.49
430.91	37.45
431.10	0.00
431.28	53.83
431.47	23.41
431.66	18.72
431.85	0.00
432.03	60.85
432.22	14.04
432.41	112.35
432.60	46.81
432.79	4.68
432.97	126.39
433.16	35.11
433.35	37.45
433.54	110.01
433.72	58.51
433.91	32.77
434.10	74.90
434.28	0.00
434.47	65.54
434.66	44.47
434.85	30.43
435.03	28.09
435.22	37.45
435.41	37.45
435.59	79.58
435.78	16.38
435.97	49.15
436.16	0.00
436.34	44.47
436.53	21.06
436.72	86.60
436.90	2.34
437.09	39.79
437.28	35.11
437.46	0.00
437.65	56.17
437.84	39.79
438.02	0.00
438.21	25.75
438.40	56.17
438.58	32.77
438.77	0.00
438.96	11.70
439.14	79.58
439.33	39.79
439.52	25.75
439.70	42.13
439.89	46.81
440.08	0.00
440.26	16.38
440.45	0.00
440.63	0.00
440.82	9.36
441.01	46.81
441.19	67.88
441.38	0.00
441.57	35.11
441.75	0.00
441.94	60.85
442.12	23.41
442.31	0.00
442.50	4.68
442.68	0.00
442.87	51.49
443.05	77.24
443.24	7.02
443.43	63.19
443.61	67.88
443.80	18.72
443.98	77.24
444.17	44.47
444.35	0.00
444.54	30.43
444.73	46.81
444.91	51.49
445.10	100.64
445.28	0.00
445.47	98.30
445.65	70.22
445.84	28.09
446.02	2.34
446.21	60.85
446.39	0.00
446.58	0.00
446.77	14.04
446.95	37.45
447.14	9.36
447.32	0.00
447.51	0.00
447.69	14.04
447.88	0.00
448.06	0.00
448.25	98.30
448.43	30.43
448.62	63.19
448.80	11.70
448.99	56.17
449.17	65.54
449.36	23.41
449.54	16.38
449.73	9.36
449.91	0.00
450.10	56.17
450.28	32.77
450.46	37.45
450.65	0.00
450.83	56.17
451.02	0.00
451.20	0.00
451.39	0.00
451.57	0.00
451.76	0.00
451.94	39.79
452.13	0.00
452.31	30.43
452.49	28.09
452.68	112.35
452.86	35.11
453.05	7.02
453.23	11.70
453.42	0.00
453.60	0.00
453.78	23.41
453.97	0.00
454.15	100.64
454.34	4.68
454.52	0.00
454.70	56.17
454.89	0.00
455.07	0.00
455.26	67.88
455.44	37.45
455.62	63.19
455.81	42.13
455.99	18.72
456.17	0.00
456.36	72.56
456.54	25.75
456.73	0.00
456.91	18.72
457.09	53.83
457.28	95.96
457.46	0.00
457.64	95.96
457.83	56.17
458.01	4.68
458.19	0.00
458.38	0.00
458.56	84.26
458.74	30.43
458.93	65.54
459.11	51.49
459.29	91.28
459.48	0.00
459.66	7.02
459.84	39.79
460.03	0.00
460.21	46.81
460.39	14.04
460.57	51.49
460.76	46.81
460.94	49.15
461.12	72.56
461.31	49.15
461.49	7.02
461.67	32.77
461.85	37.45
462.04	95.96
462.22	7.02
462.40	72.56
462.59	102.98
462.77	23.41
462.95	28.09
463.13	0.00
463.32	32.77
463.50	0.00
463.68	60.85
463.86	39.79
464.05	65.54
464.23	46.81
464.41	91.28
464.59	0.00
464.78	72.56
464.96	42.13
465.14	53.83
465.32	32.77
465.50	28.09
465.69	4.68
465.87	0.00
466.05	2.34
466.23	0.00
466.41	42.13
466.60	63.19
466.78	28.09
466.96	28.09
467.14	44.47
467.32	95.96
467.51	23.41
467.69	7.02
467.87	74.90
468.05	53.83
468.23	110.01
468.41	16.38
468.60	14.04
468.78	81.92
468.96	86.60
469.14	46.81
469.32	21.06
469.50	28.09
469.69	9.36
469.87	53.83
470.05	72.56
470.23	16.38
470.41	63.19
470.59	16.38
470.77	25.75
470.95	93.62
471.14	70.22
471.32	16.38
471.50	49.15
471.68	63.19
471.86	37.45
472.04	0.00
472.22	44.47
472.40	56.17
472.58	35.11
472.77	35.11
472.95	23.41
473.13	51.49
473.31	79.58
473.49	51.49
473.67	0.00
473.85	88.94
474.03	98.30
474.21	56.17
474.39	49.15
474.57	49.15
474.75	58.51
474.93	98.30
475.12	4.68
475.30	32.77
475.48	63.19
475.66	0.00
475.84	53.83
476.02	49.15
476.20	14.04
476.38	37.45
476.56	93.62
476.74	2.34
476.92	0.00
477.10	25.75
477.28	44.47
477.46	86.60
477.64	37.45
477.82	65.54
478.00	0.00
478.18	0.00
478.36	105.32
478.54	51.49
478.72	0.00
478.90	79.58
479.08	58.51
479.26	0.00
479.44	30.43
479.62	2.34
479.80	0.00
479.98	53.83
480.16	44.47
480.34	28.09
480.52	49.15
480.70	79.58
480.88	0.00
481.06	14.04
481.24	35.11
481.41	51.49
481.59	23.41
481.77	4.68
481.95	51.49
482.13	30.43
482.31	37.45
482.49	0.00
482.67	21.06
482.85	0.00
483.03	9.36
483.21	58.51
483.39	126.39
483.57	95.96
483.74	32.77
483.92	18.72
484.10	100.64
484.28	44.47
484.46	0.00
484.64	39.79
484.82	32.77
485.00	21.06
485.18	140.43
485.35	2.34
485.53	0.00
485.71	0.00
485.89	0.00
486.07	9.36
486.25	23.41
486.43	58.51
486.61	0.00
486.78	16.38
486.96	0.00
487.14	0.00
487.32	131.07
487.50	86.60
487.68	0.00
487.85	88.94
488.03	72.56
488.21	39.79
488.39	7.02
488.57	0.00
488.75	65.54
488.92	18.72
489.10	56.17
489.28	30.43
489.46	39.79
489.64	49.15
489.81	49.15
489.99	44.47
490.17	4.68
490.35	124.05
490.53	16.38
490.70	28.09
490.88	7.02
491.06	42.13
491.24	39.79
491.41	9.36
491.59	102.98
491.77	53.83
491.95	60.85
492.13	84.26
492.30	39.79
492.48	60.85
492.66	112.35
492.84	46.81
493.01	74.90
493.19	35.11
493.37	51.49
493.54	0.00
493.72	100.64
493.90	95.96
494.08	28.09
494.25	67.88
494.43	0.00
494.61	42.13
494.79	70.22
494.96	42.13
495.14	77.24
495.32	37.45
495.49	7.02
495.67	53.83
495.85	51.49
496.02	84.26
496.20	65.54
496.38	65.54
496.55	42.13
496.73	72.56
496.91	9.36
497.09	56.17
497.26	7.02
497.44	35.11
497.62	0.00
497.79	16.38
497.97	67.88
498.14	35.11
498.32	102.98
498.50	23.41
498.67	53.83
498.85	0.00
499.03	0.00
499.20	25.75
499.38	18.72
499.56	28.09
499.73	93.62
499.91	0.00
500.08	0.00
500.26	39.79
500.44	67.88
500.61	70.22
500.79	67.88
500.97	28.09
501.14	16.38
501.32	70.22
501.49	35.11
501.67	67.88
501.84	2.34
502.02	35.11
502.20	0.00
502.37	0.00
502.55	0.00
502.72	49.15
502.90	0.00
503.07	7.02
503.25	51.49
503.43	37.45
503.60	67.88
503.78	93.62
503.95	0.00
504.13	18.72
504.30	100.64
504.48	9.36
504.65	37.45
504.83	49.15
505.01	56.17
505.18	49.15
505.36	72.56
505.53	86.60
505.71	0.00
505.88	70.22
506.06	21.06
506.23	56.17
506.41	53.83
506.58	49.15
506.76	51.49
506.93	56.17
507.11	60.85
507.28	14.04
507.46	16.38
507.63	46.81
507.81	70.22
507.98	72.56
508.16	63.19
508.33	46.81
508.50	72.56
508.68	0.00
508.85	0.00
509.03	30.43
509.20	9.36
509.38	39.79
509.55	98.30
509.73	77.24
509.90	53.83
510.08	35.11
510.25	37.45
510.42	28.09
510.60	56.17
510.77	49.15
510.95	32.77
511.12	35.11
511.30	81.92
511.47	0.00
511.64	88.94
511.82	51.49
511.99	51.49
512.17	0.00
512.34	18.72
512.51	0.00
512.69	46.81
512.86	18.72
513.04	0.00
513.21	81.92
513.38	21.06
513.56	30.43
513.73	18.72
513.90	56.17
514.08	0.00
514.25	14.04
514.43	58.51
514.60	11.70
514.77	0.00
514.95	46.81
515.12	0.00
515.29	58.51
515.47	2.34
515.64	84.26
515.81	46.81
515.99	7.02
516.16	74.90
516.33	0.00
516.51	0.00
516.68	23.41
516.85	35.11
517.03	0.00
517.20	32.77
517.37	0.00
517.54	0.00
517.72	14.04
517.89	63.19
518.06	11.70
518.24	28.09
518.41	21.06
518.58	0.00
518.75	88.94
518.93	46.81
519.10	63.19
519.27	74.90
519.45	58.51
519.62	46.81
519.79	60.85
519.96	0.00
520.14	16.38
520.31	93.62
520.48	25.75
520.65	63.19
520.83	42.13
521.00	25.75
521.17	49.15
521.34	0.00
521.52	16.38
521.69	21.06
521.86	42.13
522.03	0.00
522.20	84.26
522.38	72.56
522.55	88.94
522.72	25.75
522.89	30.43
523.07	95.96
523.24	42.13
523.41	42.13
523.58	53.83
523.75	60.85
523.92	37.45
524.10	88.94
524.27	44.47
524.44	88.94
524.61	4.68
524.78	88.94
524.96	0.00
525.13	44.47
525.30	2.34
525.47	88.94
525.64	28.09
525.81	28.09
525.98	0.00
526.16	0.00
526.33	95.96
526.50	107.66
526.67	0.00
526.84	56.17
527.01	81.92
527.18	30.43
527.36	100.64
527.53	105.32
527.70	18.72
527.87	98.30
528.04	21.06
528.21	7.02
528.38	93.62
528.55	7.02
528.72	49.15
528.89	91.28
529.07	117.03
529.24	58.51
529.41	72.56
529.58	53.83
529.75	0.00
529.92	25.75
530.09	91.28
530.26	79.58
530.43	77.24
530.60	37.45
530.77	0.00
530.94	79.58
531.11	60.85
531.28	42.13
531.46	60.85
531.63	107.66
531.80	9.36
531.97	60.85
532.14	53.83
532.31	4.68
532.48	0.00
532.65	0.00
532.82	74.90
532.99	53.83
533.16	39.79
533.33	39.79
533.50	81.92
533.67	124.05
533.84	58.51
534.01	46.81
534.18	35.11
534.35	56.17
534.52	56.17
534.69	119.37
534.86	21.06
535.03	2.34
535.20	105.32
535.37	145.11
535.54	51.49
535.71	79.58
535.88	72.56
536.05	79.58
536.22	86.60
536.38	39.79
536.55	28.09
536.72	16.38
536.89	65.54
537.06	56.17
537.23	11.70
537.40	72.56
537.57	44.47
537.74	0.00
537.91	88.94
538.08	65.54
538.25	0.00
538.42	63.19
538.59	121.71
538.75	30.43
538.92	23.41
539.09	0.00
539.26	49.15
539.43	9.36
539.60	67.88
539.77	53.83
539.94	79.58
540.11	93.62
540.28	98.30
540.44	37.45
540.61	0.00
540.78	102.98
540.95	44.47
541.12	30.43
541.29	18.72
541.46	0.00
541.62	23.41
541.79	0.00
541.96	9.36
542.13	121.71
542.30	42.13
542.47	35.11
542.63	0.00
542.80	124.05
542.97	23.41
543.14	9.36
543.31	42.13
543.48	0.00
543.64	0.00
543.81	63.19
543.98	16.38
544.15	65.54
544.32	25.75
544.48	131.07
544.65	35.11
544.82	60.85
544.99	42.13
545.16	46.81
545.32	60.85
545.49	0.00
545.66	74.90
545.83	32.77
546.00	95.96
546.16	7.02
546.33	18.72
546.50	56.17
546.67	46.81
546.83	72.56
547.00	60.85
547.17	86.60
547.34	18.72
547.50	77.24
547.67	70.22
547.84	11.70
548.00	0.00
548.17	21.06
548.34	0.00
548.51	0.00
548.67	23.41
548.84	0.00
549.01	65.54
549.18	0.00
549.34	42.13
549.51	23.41
549.68	25.75
549.84	67.88
550.01	51.49
550.18	28.09
550.34	23.41
550.51	28.09
550.68	39.79
550.84	44.47
551.01	28.09
551.18	0.00
551.34	81.92
551.51	51.49
551.68	30.43
551.84	28.09
552.01	67.88
552.18	30.43
552.34	79.58
552.51	0.00
552.68	0.00
552.84	93.62
553.01	37.45
553.18	72.56
553.34	77.24
553.51	18.72
553.67	4.68
553.84	60.85
554.01	21.06
554.17	58.51
554.34	46.81
554.51	28.09
554.67	0.00
554.84	0.00
555.00	30.43
555.17	67.88
555.33	77.24
555.50	67.88
555.67	102.98
555.83	72.56
556.00	46.81
556.16	49.15
556.33	112.35
556.50	0.00
556.66	42.13
556.83	0.00
556.99	16.38
557.16	105.32
557.32	44.47
557.49	9.36
557.65	60.85
557.82	110.01
557.98	121.71
558.15	0.00
558.32	72.56
558.48	49.15
558.65	79.58
558.81	79.58
558.98	65.54
559.14	9.36
559.31	39.79
559.47	30.43
559.64	95.96
559.80	2.34
559.97	39.79
560.13	9.36
560.30	11.70
560.46	53.83
560.63	25.75
560.79	0.00
560.96	107.66
561.12	25.75
561.29	42.13
561.45	37.45
561.61	49.15
561.78	21.06
561.94	0.00
562.11	16.38
562.27	91.28
562.44	53.83
562.60	98.30
562.77	0.00
562.93	0.00
563.10	28.09
563.26	4.68
563.42	25.75
563.59	88.94
563.75	79.58
563.92	42.13
564.08	70.22
564.24	0.00
564.41	16.38
564.57	23.41
564.74	135.75
564.90	0.00
565.07	88.94
565.23	35.11
565.39	67.88
565.56	53.83
565.72	23.41
565.88	37.45
566.05	95.96
566.21	0.00
566.38	28.09
566.54	4.68
566.70	0.00
566.87	102.98
567.03	0.00
567.19	91.28
567.36	14.04
567.52	117.03
567.68	74.90
567.85	142.77
568.01	51.49
568.17	119.37
568.34	30.43
568.50	63.19
568.66	84.26
568.83	60.85
568.99	58.51
569.15	46.81
569.32	84.26
569.48	0.00
569.64	56.17
569.81	44.47
569.97	9.36
570.13	46.81
570.30	0.00
570.46	23.41
570.62	60.85
570.78	74.90
570.95	93.62
571.11	56.17
571.27	46.81
571.43	25.75
571.60	74.90
571.76	177.88
571.92	23.41
572.09	18.72
572.25	67.88
572.41	84.26
572.57	0.00
572.74	44.47
572.90	0.00
573.06	0.00
573.22	30.43
573.38	95.96
573.55	70.22
573.71	7.02
573.87	67.88
574.03	119.37
574.20	16.38
574.36	65.54
574.52	51.49
574.68	58.51
574.84	44.47
575.01	0.00
575.17	0.00
575.33	65.54
575.49	70.22
575.65	86.60
575.82	77.24
575.98	79.58
576.14	49.15
576.30	14.04
576.46	93.62
576.62	70.22
576.79	53.83
576.95	42.13
577.11	56.17
577.27	60.85
577.43	63.19
577.59	0.00
577.75	28.09
577.92	16.38
578.08	42.13
578.24	51.49
578.40	51.49
578.56	44.47
578.72	112.35
578.88	0.00
579.04	35.11
579.21	86.60
579.37	51.49
579.53	21.06
579.69	14.04
579.85	30.43
580.01	72.56
580.17	79.58
580.33	0.00
580.49	0.00
580.65	42.13
580.82	74.90
580.98	35.11
581.14	37.45
581.30	11.70
581.46	98.30
581.62	53.83
581.78	0.00
581.94	128.73
582.10	11.70
582.26	16.38
582.42	51.49
582.58	51.49
582.74	21.06
582.90	79.58
583.06	21.06
583.22	0.00
583.38	49.15
583.54	42.13
583.70	84.26
583.86	44.47
584.02	58.51
584.18	126.39
584.34	51.49
584.50	227.03
584.66	1163.25
584.82	2413.09
584.98	3145.68
585.14	2754.81
585.30	1694.55
585.46	1104.73
585.62	734.93
585.78	334.70
585.94	201.29
586.10	163.84
586.26	110.01
586.42	70.22
586.58	65.54
586.74	46.81
586.90	4.68
587.06	58.51
587.22	7.02
587.38	102.98
587.54	91.28
587.70	198.95
587.86	210.65
588.02	257.46
588.18	191.92
588.34	56.17
588.49	74.90
588.65	63.19
588.81	11.70
588.97	77.24
589.13	11.70
589.29	42.13
589.45	53.83
589.61	37.45
589.77	63.19
589.93	42.13
590.08	74.90
590.24	67.88
590.40	88.94
590.56	74.90
590.72	28.09
590.88	53.83
591.04	0.00
591.20	107.66
591.35	93.62
591.51	102.98
591.67	35.11
591.83	28.09
591.99	60.85
592.15	30.43
592.31	79.58
592.46	58.51
592.62	77.24
592.78	37.45
592.94	42.13
593.10	23.41
593.26	23.41
593.41	56.17
593.57	53.83
593.73	18.72
593.89	161.50
594.05	395.55
594.20	510.24
594.36	369.80
594.52	280.86
594.68	217.67
594.84	173.20
594.99	74.90
595.15	63.19
595.31	60.85
595.47	81.92
595.62	28.09
595.78	16.38
595.94	58.51
596.10	53.83
596.25	37.45
596.41	81.92
596.57	70.22
596.73	93.62
596.88	93.62
597.04	60.85
597.20	135.75
597.36	91.28
597.51	124.05
597.67	93.62
597.83	98.30
597.99	35.11
598.14	74.90
598.30	42.13
598.46	7.02
598.61	100.64
598.77	0.00
598.93	2.34
599.09	77.24
599.24	72.56
599.40	72.56
599.56	9.36
599.71	35.11
599.87	53.83
600.03	49.15
600.18	0.00
600.34	49.15
600.50	9.36
600.65	39.79
600.81	11.70
600.97	37.45
601.12	25.75
601.28	23.41
601.44	58.51
601.59	4.68
601.75	32.77
601.91	49.15
602.06	142.77
602.22	105.32
602.37	105.32
602.53	93.62
602.69	121.71
602.84	159.16
603.00	91.28
603.16	107.66
603.31	124.05
603.47	63.19
603.62	0.00
603.78	56.17
603.94	0.00
604.09	70.22
604.25	65.54
604.40	74.90
604.56	49.15
604.71	4.68
604.87	51.49
605.03	58.51
605.18	14.04
605.34	11.70
605.49	0.00
605.65	49.15
605.80	0.00
605.96	7.02
606.12	42.13
606.27	30.43
606.43	84.26
606.58	39.79
606.74	35.11
606.89	224.69
607.05	315.97
607.20	418.96
607.36	320.65
607.51	248.10
607.67	201.29
607.82	208.31
607.98	110.01
608.13	58.51
608.29	56.17
608.44	42.13
608.60	86.60
608.75	21.06
608.91	114.69
609.06	360.44
609.22	568.75
609.37	629.60
609.53	554.71
609.68	386.19
609.84	255.12
609.99	163.84
610.15	112.35
610.30	58.51
610.46	0.00
610.61	30.43
610.76	25.75
610.92	53.83
611.07	51.49
611.23	46.81
611.38	11.70
611.54	60.85
611.69	7.02
611.84	14.04
612.00	65.54
612.15	39.79
612.31	30.43
612.46	60.85
612.62	98.30
612.77	4.68
612.92	0.00
613.08	67.88
613.23	0.00
613.39	67.88
613.54	84.26
613.69	287.89
613.85	636.63
614.00	985.37
614.15	966.64
614.31	741.95
614.46	535.98
614.62	290.23
614.77	161.50
614.92	91.28
615.08	70.22
615.23	51.49
615.38	91.28
615.54	7.02
615.69	114.69
615.84	135.75
616.00	315.97
616.15	332.36
616.30	156.82
616.46	140.43
616.61	121.71
616.76	56.17
616.92	7.02
617.07	32.77
617.22	0.00
617.37	63.19
617.53	67.88
617.68	2.34
617.83	70.22
617.99	86.60
618.14	81.92
618.29	74.90
618.45	112.35
618.60	67.88
618.75	44.47
618.90	51.49
619.06	93.62
619.21	11.70
619.36	121.71
619.51	44.47
619.67	42.13
619.82	16.38
619.97	91.28
620.12	79.58
620.28	0.00
620.43	53.83
620.58	4.68
620.73	60.85
620.89	70.22
621.04	9.36
621.19	107.66
621.34	128.73
621.49	189.58
621.65	152.13
621.80	121.71
621.95	105.32
622.10	112.35
622.25	42.13
622.41	0.00
622.56	91.28
622.71	91.28
622.86	44.47
623.01	51.49
623.16	35.11
623.32	9.36
623.47	0.00
623.62	53.83
623.77	0.00
623.92	81.92
624.07	2.34
624.23	16.38
624.38	25.75
624.53	23.41
624.68	42.13
624.83	18.72
624.98	74.90
625.13	56.17
625.29	117.03
625.44	4.68
625.59	16.38
625.74	0.00
625.89	0.00
626.04	149.79
626.19	369.80
626.34	491.51
626.49	493.85
626.65	355.76
626.80	301.93
626.95	238.73
627.10	142.77
627.25	46.81
627.40	95.96
627.55	79.58
627.70	56.17
627.85	0.00
628.00	63.19
628.15	79.58
628.30	53.83
628.45	79.58
628.60	21.06
628.76	49.15
628.91	42.13
629.06	21.06
629.21	79.58
629.36	51.49
629.51	63.19
629.66	95.96
629.81	39.79
629.96	112.35
630.11	182.56
630.26	117.03
630.41	152.13
630.56	102.98
630.71	126.39
630.86	67.88
631.01	7.02
631.16	21.06
631.31	0.00
631.46	32.77
631.61	11.70
631.76	58.51
631.91	23.41
632.06	37.45
632.21	30.43
632.36	23.41
632.51	44.47
632.66	56.17
632.81	138.09
632.96	280.86
633.10	353.42
633.25	395.55
633.40	294.91
633.55	191.92
633.70	133.41
633.85	93.62
634.00	60.85
634.15	119.37
634.30	91.28
634.45	51.49
634.60	42.13
634.75	25.75
634.90	63.19
635.05	84.26
635.19	14.04
635.34	60.85
635.49	2.34
635.64	44.47
635.79	44.47
635.94	51.49
636.09	91.28
636.24	32.77
636.39	70.22
636.53	44.47
636.68	0.00
636.83	39.79
636.98	0.00
637.13	60.85
637.28	4.68
637.43	7.02
637.57	0.00
637.72	222.35
637.87	528.96
638.02	519.60
638.17	688.12
638.32	465.77
638.46	311.29
638.61	248.10
638.76	180.22
638.91	117.03
639.06	16.38
639.20	30.43
639.35	93.62
639.50	117.03
639.65	264.48
639.80	657.69
639.94	929.19
640.09	1043.88
640.24	802.80
640.39	533.64
640.54	339.38
640.68	231.71
640.83	133.41
640.98	112.35
641.13	72.56
641.27	30.43
641.42	56.17
641.57	37.45
641.72	9.36
641.86	0.00
642.01	49.15
642.16	30.43
642.31	79.58
642.45	53.83
642.60	79.58
642.75	30.43
642.90	0.00
643.04	37.45
643.19	18.72
643.34	72.56
643.48	51.49
643.63	77.24
643.78	0.00
643.93	28.09
644.07	46.81
644.22	53.83
644.37	46.81
644.51	42.13
644.66	14.04
644.81	77.24
644.95	9.36
645.10	30.43
645.25	0.00
645.39	35.11
645.54	0.00
645.69	63.19
645.83	0.00
645.98	79.58
646.13	28.09
646.27	56.17
646.42	72.56
646.57	60.85
646.71	74.90
646.86	30.43
647.00	107.66
647.15	35.11
647.30	14.04
647.44	117.03
647.59	35.11
647.74	46.81
647.88	9.36
648.03	0.00
648.17	0.00
648.32	0.00
648.47	25.75
648.61	39.79
648.76	46.81
648.90	63.19
649.05	91.28
649.20	63.19
649.34	77.24
649.49	37.45
649.63	0.00
649.78	74.90
649.92	81.92
650.07	156.82
650.21	308.95
650.36	414.27
650.51	514.92
650.65	400.23
650.80	313.63
650.94	161.50
651.09	77.24
651.23	58.51
651.38	67.88
651.52	30.43
651.67	0.00
651.81	37.45
651.96	28.09
652.10	9.36
652.25	37.45
652.39	42.13
652.54	49.15
652.68	0.00
652.83	156.82
652.97	191.92
653.12	227.03
653.26	189.58
653.41	81.92
653.55	168.52
653.70	182.56
653.84	74.90
653.99	21.06
654.13	11.70
654.27	21.06
654.42	70.22
654.56	0.00
654.71	51.49
654.85	0.00
655.00	53.83
655.14	25.75
655.29	60.85
655.43	60.85
655.57	117.03
655.72	86.60
655.86	51.49
656.01	28.09
656.15	23.41
656.30	4.68
656.44	51.49
656.58	58.51
656.73	0.00
656.87	63.19
657.01	0.00
657.16	37.45
657.30	63.19
657.45	84.26
657.59	79.58
657.73	81.92
657.88	0.00
658.02	25.75
658.16	46.81
658.31	56.17
658.45	0.00
658.60	0.00
658.74	42.13
658.88	4.68
659.03	0.00
659.17	11.70
659.31	63.19
659.46	184.90
659.60	180.22
659.74	292.57
659.89	255.12
660.03	119.37
660.17	65.54
660.32	95.96
660.46	86.60
660.60	37.45
660.74	39.79
660.89	0.00
661.03	25.75
661.17	0.00
661.32	23.41
661.46	16.38
661.60	42.13
661.74	0.00
661.89	84.26
662.03	0.00
662.17	0.00
662.31	88.94
662.46	72.56
662.60	0.00
662.74	70.22
662.88	51.49
663.03	14.04
663.17	67.88
663.31	98.30
663.45	79.58
663.60	49.15
663.74	4.68
663.88	77.24
664.02	0.00
664.17	39.79
664.31	49.15
664.45	0.00
664.59	14.04
664.73	72.56
664.88	4.68
665.02	53.83
665.16	39.79
665.30	30.43
665.44	28.09
665.59	74.90
665.73	88.94
665.87	81.92
666.01	11.70
666.15	32.77
666.29	105.32
666.44	16.38
666.58	0.00
666.72	74.90
666.86	0.00
667.00	0.00
667.14	60.85
667.28	114.69
667.43	325.33
667.57	395.55
667.71	486.83
667.85	397.89
667.99	320.65
668.13	149.79
668.27	133.41
668.41	58.51
668.56	37.45
668.70	65.54
668.84	51.49
668.98	107.66
669.12	28.09
669.26	79.58
669.40	9.36
669.54	81.92
669.68	95.96
669.82	0.00
669.96	35.11
670.10	74.90
670.25	2.34
670.39	51.49
670.53	114.69
670.67	30.43
670.81	105.32
670.95	46.81
671.09	42.13
671.23	124.05
671.37	243.42
671.51	315.97
671.65	346.40
671.79	168.52
671.93	201.29
672.07	170.86
672.21	28.09
672.35	72.56
672.49	65.54
672.63	42.13
672.77	46.81
672.91	44.47
673.05	46.81
673.19	23.41
673.33	25.75
673.47	102.98
673.61	51.49
673.75	0.00
673.89	0.00
674.03	7.02
674.17	79.58
674.31	53.83
674.45	28.09
674.59	35.11
674.73	37.45
674.87	49.15
675.01	58.51
675.15	18.72
675.29	0.00
675.43	67.88
675.56	70.22
675.70	7.02
675.84	35.11
675.98	14.04
676.12	77.24
676.26	53.83
676.40	2.34
676.54	79.58
676.68	21.06
676.82	32.77
676.96	37.45
677.10	42.13
677.23	32.77
677.37	60.85
677.51	58.51
677.65	14.04
677.79	14.04
677.93	35.11
678.07	4.68
678.21	42.13
678.34	58.51
678.48	21.06
678.62	0.00
678.76	0.00
678.90	25.75
679.04	56.17
679.18	100.64
679.31	0.00
679.45	67.88
679.59	25.75
679.73	23.41
679.87	102.98
680.00	77.24
680.14	0.00
680.28	21.06
680.42	42.13
680.56	16.38
680.70	21.06
680.83	2.34
680.97	70.22
681.11	28.09
681.25	32.77
681.39	58.51
681.52	42.13
681.66	0.00
681.80	0.00
681.94	25.75
682.07	95.96
682.21	25.75
682.35	51.49
682.49	0.00
682.62	9.36
682.76	0.00
682.90	70.22
683.04	0.00
683.17	16.38
683.31	2.34
683.45	11.70
683.59	0.00
683.72	30.43
683.86	46.81
684.00	0.00
684.13	46.81
684.27	0.00
684.41	14.04
684.55	0.00
684.68	21.06
684.82	46.81
684.96	0.00
685.09	4.68
685.23	4.68
685.37	21.06
685.50	53.83
685.64	16.38
685.78	72.56
685.91	35.11
686.05	65.54
686.19	21.06
686.32	63.19
686.46	21.06
686.60	0.00
686.73	4.68
686.87	70.22
687.01	0.00
687.14	44.47
687.28	42.13
687.42	114.69
687.55	35.11
687.69	79.58
687.82	0.00
687.96	117.03
688.10	28.09
688.23	21.06
688.37	98.30
688.50	100.64
688.64	56.17
688.78	74.90
688.91	124.05
689.05	32.77
689.18	18.72
689.32	39.79
689.46	79.58
689.59	42.13
689.73	9.36
689.86	16.38
690.00	2.34
690.13	0.00
690.27	0.00
690.41	14.04
690.54	131.07
690.68	53.83
690.81	16.38
690.95	46.81
691.08	67.88
691.22	79.58
691.35	95.96
691.49	35.11
691.62	18.72
691.76	0.00
691.89	46.81
692.03	81.92
692.16	7.02
692.30	72.56
692.43	42.13
692.57	142.77
692.70	166.18
692.84	191.92
692.97	212.99
693.11	198.95
693.24	95.96
693.38	51.49
693.51	53.83
693.65	42.13
693.78	65.54
693.92	11.70
694.05	16.38
694.19	56.17
694.32	67.88
694.45	77.24
694.59	0.00
694.72	0.00
694.86	49.15
694.99	0.00
695.13	0.00
695.26	98.30
695.39	18.72
695.53	23.41
695.66	0.00
695.80	67.88
695.93	53.83
696.07	105.32
696.20	0.00
696.33	44.47
696.47	42.13
696.60	0.00
696.73	28.09
696.87	51.49
697.00	0.00
697.14	28.09
697.27	58.51
697.40	0.00
697.54	63.19
697.67	93.62
697.80	67.88
697.94	0.00
698.07	11.70
698.21	79.58
698.34	53.83
698.47	0.00
698.61	77.24
698.74	0.00
698.87	74.90
699.01	67.88
699.14	77.24
699.27	18.72
699.40	79.58
699.54	93.62
699.67	56.17
699.80	21.06
699.94	0.00
700.07	14.04
700.20	0.00
700.34	18.72
700.47	56.17
700.60	39.79
700.73	39.79
700.87	51.49
701.00	4.68
701.13	49.15
701.26	53.83
701.40	58.51
701.53	58.51
701.66	11.70
701.79	0.00
701.93	21.06
702.06	16.38
702.19	4.68
702.32	37.45
702.46	79.58
702.59	60.85
702.72	63.19
702.85	107.66
702.99	320.65
703.12	332.36
703.25	407.25
703.38	301.93
703.51	297.25
703.65	168.52
703.78	145.11
703.91	131.07
704.04	168.52
704.17	28.09
704.31	79.58
704.44	0.00
704.57	58.51
704.70	0.00
704.83	42.13
704.96	0.00
705.10	81.92
705.23	2.34
>>>>>End Processed Spectral Data<<<<<
