SpectraSuite Data File
++++++++++++++++++++++++++++++++++++
Date: Fri Oct 04 12:13:24 GMT-05:00 2013
User: price-jones
Dark Spectrum Present: No
Reference Spectrum Present: No
Number of Sampled Component Spectra: 1
Spectrometers: USB2+H05261
Integration Time (usec): 10000 (USB2+H05261)
Spectra Averaged: 1 (USB2+H05261)
Boxcar Smoothing: 0 (USB2+H05261)
Correct for Electrical Dark: No (USB2+H05261)
Strobe/Lamp Enabled: No (USB2+H05261)
Correct for Detector Non-linearity: No (USB2+H05261)
Correct for Stray Light: No (USB2+H05261)
Number of Pixels in Processed Spectrum: 2048
>>>>>Begin Processed Spectral Data<<<<<
365.73	0.00
365.92	0.00
366.12	0.00
366.32	0.00
366.52	0.00
366.72	0.00
366.91	0.00
367.11	0.00
367.31	0.00
367.51	0.00
367.70	0.00
367.90	0.00
368.10	0.00
368.30	0.00
368.49	0.00
368.69	0.00
368.89	0.00
369.09	0.00
369.28	0.00
369.48	0.00
369.68	0.00
369.87	0.00
370.07	0.00
370.27	0.00
370.47	0.00
370.66	0.00
370.86	0.00
371.06	4.68
371.25	0.00
371.45	0.00
371.65	42.13
371.84	30.43
372.04	0.00
372.24	0.00
372.44	0.00
372.63	4.68
372.83	35.11
373.03	0.00
373.22	0.00
373.42	74.90
373.62	74.90
373.81	65.54
374.01	32.77
374.21	23.41
374.40	11.70
374.60	32.77
374.79	18.72
374.99	0.00
375.19	88.94
375.38	126.39
375.58	35.11
375.78	0.00
375.97	44.47
376.17	67.88
376.37	131.07
376.56	0.00
376.76	67.88
376.95	23.41
377.15	0.00
377.35	0.00
377.54	58.51
377.74	0.00
377.93	0.00
378.13	112.35
378.33	0.00
378.52	0.00
378.72	23.41
378.91	112.35
379.11	4.68
379.31	2.34
379.50	70.22
379.70	49.15
379.89	18.72
380.09	0.00
380.28	4.68
380.48	53.83
380.68	51.49
380.87	21.06
381.07	14.04
381.26	0.00
381.46	65.54
381.65	46.81
381.85	0.00
382.04	0.00
382.24	7.02
382.43	23.41
382.63	0.00
382.83	86.60
383.02	60.85
383.22	4.68
383.41	0.00
383.61	0.00
383.80	42.13
384.00	0.00
384.19	67.88
384.39	70.22
384.58	65.54
384.78	2.34
384.97	0.00
385.17	60.85
385.36	35.11
385.56	53.83
385.75	28.09
385.95	44.47
386.14	0.00
386.34	0.00
386.53	0.00
386.72	0.00
386.92	23.41
387.11	44.47
387.31	37.45
387.50	0.00
387.70	0.00
387.89	58.51
388.09	0.00
388.28	30.43
388.48	39.79
388.67	0.00
388.86	21.06
389.06	0.00
389.25	67.88
389.45	4.68
389.64	11.70
389.84	21.06
390.03	0.00
390.22	28.09
390.42	53.83
390.61	58.51
390.81	0.00
391.00	39.79
391.19	0.00
391.39	25.75
391.58	21.06
391.78	39.79
391.97	49.15
392.16	0.00
392.36	0.00
392.55	18.72
392.75	14.04
392.94	44.47
393.13	21.06
393.33	39.79
393.52	0.00
393.71	16.38
393.91	67.88
394.10	44.47
394.29	0.00
394.49	0.00
394.68	14.04
394.88	28.09
395.07	53.83
395.26	163.84
395.46	58.51
395.65	2.34
395.84	23.41
396.04	4.68
396.23	46.81
396.42	0.00
396.62	4.68
396.81	0.00
397.00	0.00
397.19	9.36
397.39	81.92
397.58	58.51
397.77	14.04
397.97	42.13
398.16	0.00
398.35	28.09
398.55	4.68
398.74	32.77
398.93	35.11
399.12	42.13
399.32	4.68
399.51	9.36
399.70	0.00
399.90	18.72
400.09	25.75
400.28	0.00
400.47	16.38
400.67	49.15
400.86	0.00
401.05	0.00
401.24	4.68
401.44	4.68
401.63	72.56
401.82	0.00
402.01	7.02
402.21	67.88
402.40	25.75
402.59	74.90
402.78	32.77
402.97	23.41
403.17	46.81
403.36	49.15
403.55	32.77
403.74	11.70
403.93	39.79
404.13	4.68
404.32	28.09
404.51	9.36
404.70	46.81
404.89	0.00
405.09	30.43
405.28	39.79
405.47	39.79
405.66	4.68
405.85	79.58
406.05	42.13
406.24	79.58
406.43	21.06
406.62	2.34
406.81	70.22
407.00	0.00
407.20	14.04
407.39	37.45
407.58	21.06
407.77	18.72
407.96	51.49
408.15	0.00
408.34	0.00
408.54	39.79
408.73	30.43
408.92	25.75
409.11	42.13
409.30	95.96
409.49	88.94
409.68	18.72
409.87	0.00
410.07	35.11
410.26	0.00
410.45	28.09
410.64	23.41
410.83	7.02
411.02	0.00
411.21	65.54
411.40	0.00
411.59	0.00
411.78	0.00
411.98	11.70
412.17	49.15
412.36	88.94
412.55	21.06
412.74	0.00
412.93	39.79
413.12	74.90
413.31	0.00
413.50	37.45
413.69	4.68
413.88	72.56
414.07	4.68
414.26	63.19
414.45	44.47
414.64	4.68
414.83	0.00
415.02	51.49
415.22	0.00
415.41	11.70
415.60	21.06
415.79	37.45
415.98	81.92
416.17	0.00
416.36	77.24
416.55	67.88
416.74	16.38
416.93	39.79
417.12	21.06
417.31	58.51
417.50	18.72
417.69	0.00
417.88	4.68
418.07	2.34
418.26	32.77
418.45	2.34
418.64	53.83
418.83	67.88
419.02	60.85
419.21	4.68
419.39	74.90
419.58	126.39
419.77	32.77
419.96	0.00
420.15	65.54
420.34	37.45
420.53	0.00
420.72	11.70
420.91	30.43
421.10	49.15
421.29	0.00
421.48	46.81
421.67	7.02
421.86	7.02
422.05	46.81
422.24	74.90
422.43	58.51
422.61	30.43
422.80	44.47
422.99	18.72
423.18	0.00
423.37	0.00
423.56	86.60
423.75	51.49
423.94	98.30
424.13	46.81
424.32	35.11
424.50	0.00
424.69	25.75
424.88	7.02
425.07	58.51
425.26	70.22
425.45	0.00
425.64	53.83
425.83	25.75
426.01	35.11
426.20	0.00
426.39	35.11
426.58	16.38
426.77	53.83
426.96	9.36
427.15	25.75
427.33	9.36
427.52	98.30
427.71	79.58
427.90	81.92
428.09	39.79
428.28	16.38
428.46	0.00
428.65	49.15
428.84	0.00
429.03	60.85
429.22	51.49
429.40	37.45
429.59	9.36
429.78	25.75
429.97	67.88
430.16	4.68
430.34	23.41
430.53	84.26
430.72	0.00
430.91	18.72
431.10	91.28
431.28	49.15
431.47	0.00
431.66	53.83
431.85	37.45
432.03	65.54
432.22	70.22
432.41	81.92
432.60	2.34
432.79	60.85
432.97	0.00
433.16	37.45
433.35	79.58
433.54	0.00
433.72	25.75
433.91	25.75
434.10	11.70
434.28	72.56
434.47	4.68
434.66	4.68
434.85	46.81
435.03	39.79
435.22	60.85
435.41	65.54
435.59	0.00
435.78	0.00
435.97	9.36
436.16	77.24
436.34	30.43
436.53	7.02
436.72	0.00
436.90	32.77
437.09	28.09
437.28	0.00
437.46	84.26
437.65	4.68
437.84	35.11
438.02	4.68
438.21	100.64
438.40	51.49
438.58	23.41
438.77	35.11
438.96	70.22
439.14	21.06
439.33	11.70
439.52	81.92
439.70	42.13
439.89	35.11
440.08	53.83
440.26	30.43
440.45	0.00
440.63	0.00
440.82	4.68
441.01	25.75
441.19	67.88
441.38	21.06
441.57	0.00
441.75	37.45
441.94	9.36
442.12	60.85
442.31	58.51
442.50	32.77
442.68	74.90
442.87	86.60
443.05	100.64
443.24	4.68
443.43	32.77
443.61	0.00
443.80	0.00
443.98	14.04
444.17	79.58
444.35	79.58
444.54	16.38
444.73	60.85
444.91	84.26
445.10	72.56
445.28	53.83
445.47	91.28
445.65	60.85
445.84	56.17
446.02	21.06
446.21	53.83
446.39	74.90
446.58	58.51
446.77	0.00
446.95	67.88
447.14	37.45
447.32	37.45
447.51	67.88
447.69	0.00
447.88	16.38
448.06	14.04
448.25	46.81
448.43	23.41
448.62	44.47
448.80	18.72
448.99	32.77
449.17	67.88
449.36	14.04
449.54	53.83
449.73	0.00
449.91	28.09
450.10	93.62
450.28	2.34
450.46	0.00
450.65	37.45
450.83	88.94
451.02	25.75
451.20	30.43
451.39	95.96
451.57	23.41
451.76	21.06
451.94	28.09
452.13	25.75
452.31	11.70
452.49	117.03
452.68	72.56
452.86	53.83
453.05	4.68
453.23	74.90
453.42	25.75
453.60	88.94
453.78	14.04
453.97	0.00
454.15	37.45
454.34	16.38
454.52	7.02
454.70	56.17
454.89	79.58
455.07	81.92
455.26	70.22
455.44	0.00
455.62	39.79
455.81	0.00
455.99	53.83
456.17	9.36
456.36	16.38
456.54	0.00
456.73	93.62
456.91	9.36
457.09	142.77
457.28	49.15
457.46	0.00
457.64	0.00
457.83	46.81
458.01	0.00
458.19	56.17
458.38	39.79
458.56	53.83
458.74	14.04
458.93	28.09
459.11	39.79
459.29	0.00
459.48	51.49
459.66	0.00
459.84	0.00
460.03	0.00
460.21	4.68
460.39	37.45
460.57	0.00
460.76	58.51
460.94	67.88
461.12	60.85
461.31	0.00
461.49	42.13
461.67	46.81
461.85	14.04
462.04	42.13
462.22	149.79
462.40	42.13
462.59	53.83
462.77	49.15
462.95	105.32
463.13	51.49
463.32	77.24
463.50	23.41
463.68	7.02
463.86	58.51
464.05	0.00
464.23	0.00
464.41	2.34
464.59	56.17
464.78	14.04
464.96	32.77
465.14	16.38
465.32	37.45
465.50	4.68
465.69	0.00
465.87	135.75
466.05	0.00
466.23	72.56
466.41	86.60
466.60	37.45
466.78	30.43
466.96	2.34
467.14	39.79
467.32	49.15
467.51	11.70
467.69	0.00
467.87	42.13
468.05	0.00
468.23	84.26
468.41	11.70
468.60	37.45
468.78	11.70
468.96	63.19
469.14	42.13
469.32	0.00
469.50	74.90
469.69	0.00
469.87	44.47
470.05	28.09
470.23	18.72
470.41	37.45
470.59	21.06
470.77	60.85
470.95	21.06
471.14	70.22
471.32	60.85
471.50	0.00
471.68	2.34
471.86	53.83
472.04	0.00
472.22	9.36
472.40	0.00
472.58	67.88
472.77	81.92
472.95	16.38
473.13	46.81
473.31	37.45
473.49	7.02
473.67	9.36
473.85	0.00
474.03	0.00
474.21	9.36
474.39	7.02
474.57	65.54
474.75	28.09
474.93	72.56
475.12	2.34
475.30	60.85
475.48	49.15
475.66	65.54
475.84	23.41
476.02	18.72
476.20	0.00
476.38	4.68
476.56	0.00
476.74	4.68
476.92	51.49
477.10	2.34
477.28	72.56
477.46	9.36
477.64	18.72
477.82	44.47
478.00	53.83
478.18	14.04
478.36	23.41
478.54	14.04
478.72	0.00
478.90	25.75
479.08	11.70
479.26	60.85
479.44	53.83
479.62	56.17
479.80	58.51
479.98	0.00
480.16	46.81
480.34	39.79
480.52	37.45
480.70	2.34
480.88	0.00
481.06	18.72
481.24	60.85
481.41	56.17
481.59	56.17
481.77	91.28
481.95	0.00
482.13	35.11
482.31	32.77
482.49	72.56
482.67	23.41
482.85	63.19
483.03	88.94
483.21	16.38
483.39	25.75
483.57	0.00
483.74	39.79
483.92	72.56
484.10	0.00
484.28	14.04
484.46	16.38
484.64	84.26
484.82	4.68
485.00	0.00
485.18	0.00
485.35	2.34
485.53	21.06
485.71	0.00
485.89	18.72
486.07	74.90
486.25	18.72
486.43	70.22
486.61	74.90
486.78	79.58
486.96	63.19
487.14	16.38
487.32	28.09
487.50	0.00
487.68	63.19
487.85	67.88
488.03	79.58
488.21	72.56
488.39	86.60
488.57	117.03
488.75	42.13
488.92	25.75
489.10	60.85
489.28	42.13
489.46	39.79
489.64	18.72
489.81	18.72
489.99	7.02
490.17	0.00
490.35	18.72
490.53	11.70
490.70	51.49
490.88	35.11
491.06	0.00
491.24	51.49
491.41	0.00
491.59	7.02
491.77	28.09
491.95	4.68
492.13	0.00
492.30	53.83
492.48	98.30
492.66	25.75
492.84	25.75
493.01	65.54
493.19	98.30
493.37	4.68
493.54	81.92
493.72	145.11
493.90	79.58
494.08	0.00
494.25	28.09
494.43	91.28
494.61	32.77
494.79	39.79
494.96	84.26
495.14	63.19
495.32	95.96
495.49	105.32
495.67	30.43
495.85	0.00
496.02	53.83
496.20	7.02
496.38	49.15
496.55	14.04
496.73	16.38
496.91	72.56
497.09	16.38
497.26	65.54
497.44	74.90
497.62	28.09
497.79	63.19
497.97	0.00
498.14	35.11
498.32	44.47
498.50	77.24
498.67	7.02
498.85	65.54
499.03	35.11
499.20	86.60
499.38	14.04
499.56	67.88
499.73	11.70
499.91	0.00
500.08	18.72
500.26	0.00
500.44	0.00
500.61	30.43
500.79	7.02
500.97	42.13
501.14	0.00
501.32	81.92
501.49	25.75
501.67	49.15
501.84	0.00
502.02	21.06
502.20	14.04
502.37	44.47
502.55	70.22
502.72	39.79
502.90	2.34
503.07	58.51
503.25	18.72
503.43	0.00
503.60	37.45
503.78	23.41
503.95	72.56
504.13	56.17
504.30	65.54
504.48	21.06
504.65	110.01
504.83	0.00
505.01	63.19
505.18	58.51
505.36	7.02
505.53	67.88
505.71	51.49
505.88	23.41
506.06	9.36
506.23	28.09
506.41	102.98
506.58	0.00
506.76	0.00
506.93	7.02
507.11	16.38
507.28	53.83
507.46	65.54
507.63	2.34
507.81	53.83
507.98	0.00
508.16	18.72
508.33	23.41
508.50	74.90
508.68	74.90
508.85	0.00
509.03	42.13
509.20	84.26
509.38	74.90
509.55	74.90
509.73	32.77
509.90	60.85
510.08	0.00
510.25	56.17
510.42	49.15
510.60	79.58
510.77	28.09
510.95	46.81
511.12	0.00
511.30	16.38
511.47	21.06
511.64	42.13
511.82	37.45
511.99	0.00
512.17	21.06
512.34	93.62
512.51	32.77
512.69	18.72
512.86	39.79
513.04	4.68
513.21	21.06
513.38	28.09
513.56	0.00
513.73	56.17
513.90	0.00
514.08	0.00
514.25	30.43
514.43	105.32
514.60	35.11
514.77	0.00
514.95	0.00
515.12	42.13
515.29	4.68
515.47	0.00
515.64	51.49
515.81	110.01
515.99	53.83
516.16	65.54
516.33	0.00
516.51	63.19
516.68	58.51
516.85	44.47
517.03	65.54
517.20	95.96
517.37	51.49
517.54	0.00
517.72	74.90
517.89	37.45
518.06	0.00
518.24	170.86
518.41	21.06
518.58	0.00
518.75	23.41
518.93	53.83
519.10	18.72
519.27	58.51
519.45	49.15
519.62	56.17
519.79	0.00
519.96	0.00
520.14	7.02
520.31	28.09
520.48	70.22
520.65	70.22
520.83	114.69
521.00	46.81
521.17	4.68
521.34	53.83
521.52	35.11
521.69	79.58
521.86	37.45
522.03	124.05
522.20	0.00
522.38	21.06
522.55	16.38
522.72	32.77
522.89	84.26
523.07	53.83
523.24	30.43
523.41	44.47
523.58	74.90
523.75	11.70
523.92	72.56
524.10	0.00
524.27	37.45
524.44	49.15
524.61	56.17
524.78	53.83
524.96	0.00
525.13	35.11
525.30	11.70
525.47	25.75
525.64	25.75
525.81	37.45
525.98	56.17
526.16	60.85
526.33	0.00
526.50	16.38
526.67	30.43
526.84	67.88
527.01	102.98
527.18	84.26
527.36	53.83
527.53	0.00
527.70	30.43
527.87	65.54
528.04	30.43
528.21	84.26
528.38	25.75
528.55	11.70
528.72	49.15
528.89	16.38
529.07	145.11
529.24	0.00
529.41	84.26
529.58	53.83
529.75	0.00
529.92	72.56
530.09	28.09
530.26	23.41
530.43	53.83
530.60	28.09
530.77	70.22
530.94	49.15
531.11	0.00
531.28	84.26
531.46	35.11
531.63	30.43
531.80	0.00
531.97	2.34
532.14	30.43
532.31	79.58
532.48	32.77
532.65	39.79
532.82	0.00
532.99	105.32
533.16	37.45
533.33	0.00
533.50	9.36
533.67	65.54
533.84	0.00
534.01	60.85
534.18	2.34
534.35	23.41
534.52	0.00
534.69	23.41
534.86	23.41
535.03	42.13
535.20	0.00
535.37	9.36
535.54	0.00
535.71	21.06
535.88	30.43
536.05	28.09
536.22	25.75
536.38	23.41
536.55	46.81
536.72	23.41
536.89	110.01
537.06	74.90
537.23	0.00
537.40	93.62
537.57	102.98
537.74	74.90
537.91	32.77
538.08	18.72
538.25	28.09
538.42	67.88
538.59	70.22
538.75	72.56
538.92	65.54
539.09	60.85
539.26	16.38
539.43	25.75
539.60	91.28
539.77	63.19
539.94	67.88
540.11	30.43
540.28	2.34
540.44	16.38
540.61	9.36
540.78	21.06
540.95	67.88
541.12	39.79
541.29	72.56
541.46	77.24
541.62	44.47
541.79	67.88
541.96	0.00
542.13	18.72
542.30	98.30
542.47	18.72
542.63	4.68
542.80	28.09
542.97	14.04
543.14	70.22
543.31	60.85
543.48	98.30
543.64	60.85
543.81	28.09
543.98	35.11
544.15	58.51
544.32	72.56
544.48	63.19
544.65	65.54
544.82	0.00
544.99	152.13
545.16	23.41
545.32	65.54
545.49	0.00
545.66	44.47
545.83	79.58
546.00	28.09
546.16	51.49
546.33	56.17
546.50	79.58
546.67	84.26
546.83	70.22
547.00	0.00
547.17	0.00
547.34	56.17
547.50	0.00
547.67	60.85
547.84	67.88
548.00	53.83
548.17	51.49
548.34	67.88
548.51	65.54
548.67	18.72
548.84	16.38
549.01	21.06
549.18	51.49
549.34	70.22
549.51	86.60
549.68	46.81
549.84	117.03
550.01	58.51
550.18	56.17
550.34	77.24
550.51	46.81
550.68	39.79
550.84	114.69
551.01	67.88
551.18	28.09
551.34	58.51
551.51	37.45
551.68	0.00
551.84	37.45
552.01	0.00
552.18	23.41
552.34	53.83
552.51	58.51
552.68	7.02
552.84	77.24
553.01	56.17
553.18	0.00
553.34	51.49
553.51	65.54
553.67	0.00
553.84	23.41
554.01	32.77
554.17	28.09
554.34	81.92
554.51	30.43
554.67	74.90
554.84	42.13
555.00	72.56
555.17	30.43
555.33	58.51
555.50	0.00
555.67	81.92
555.83	44.47
556.00	81.92
556.16	7.02
556.33	2.34
556.50	53.83
556.66	32.77
556.83	67.88
556.99	72.56
557.16	0.00
557.32	44.47
557.49	30.43
557.65	39.79
557.82	102.98
557.98	44.47
558.15	56.17
558.32	0.00
558.48	74.90
558.65	56.17
558.81	42.13
558.98	4.68
559.14	77.24
559.31	4.68
559.47	0.00
559.64	0.00
559.80	21.06
559.97	98.30
560.13	0.00
560.30	0.00
560.46	98.30
560.63	0.00
560.79	0.00
560.96	0.00
561.12	42.13
561.29	0.00
561.45	42.13
561.61	32.77
561.78	84.26
561.94	30.43
562.11	46.81
562.27	121.71
562.44	28.09
562.60	77.24
562.77	60.85
562.93	79.58
563.10	88.94
563.26	65.54
563.42	60.85
563.59	65.54
563.75	88.94
563.92	60.85
564.08	16.38
564.24	131.07
564.41	117.03
564.57	2.34
564.74	84.26
564.90	28.09
565.07	16.38
565.23	0.00
565.39	30.43
565.56	16.38
565.72	35.11
565.88	119.37
566.05	81.92
566.21	32.77
566.38	16.38
566.54	0.00
566.70	65.54
566.87	0.00
567.03	49.15
567.19	11.70
567.36	42.13
567.52	2.34
567.68	0.00
567.85	21.06
568.01	44.47
568.17	58.51
568.34	14.04
568.50	0.00
568.66	0.00
568.83	86.60
568.99	0.00
569.15	0.00
569.32	0.00
569.48	53.83
569.64	25.75
569.81	42.13
569.97	86.60
570.13	42.13
570.30	28.09
570.46	0.00
570.62	67.88
570.78	30.43
570.95	11.70
571.11	46.81
571.27	21.06
571.43	77.24
571.60	18.72
571.76	0.00
571.92	23.41
572.09	95.96
572.25	9.36
572.41	42.13
572.57	91.28
572.74	60.85
572.90	88.94
573.06	49.15
573.22	77.24
573.38	79.58
573.55	42.13
573.71	39.79
573.87	56.17
574.03	0.00
574.20	86.60
574.36	0.00
574.52	53.83
574.68	4.68
574.84	21.06
575.01	65.54
575.17	28.09
575.33	35.11
575.49	56.17
575.65	65.54
575.82	4.68
575.98	35.11
576.14	18.72
576.30	44.47
576.46	16.38
576.62	93.62
576.79	32.77
576.95	16.38
577.11	11.70
577.27	70.22
577.43	46.81
577.59	14.04
577.75	42.13
577.92	37.45
578.08	18.72
578.24	81.92
578.40	74.90
578.56	46.81
578.72	30.43
578.88	88.94
579.04	30.43
579.21	65.54
579.37	63.19
579.53	46.81
579.69	77.24
579.85	49.15
580.01	46.81
580.17	65.54
580.33	0.00
580.49	0.00
580.65	58.51
580.82	0.00
580.98	65.54
581.14	0.00
581.30	0.00
581.46	49.15
581.62	0.00
581.78	0.00
581.94	37.45
582.10	0.00
582.26	53.83
582.42	79.58
582.58	58.51
582.74	32.77
582.90	49.15
583.06	119.37
583.22	93.62
583.38	95.96
583.54	117.03
583.70	28.09
583.86	18.72
584.02	74.90
584.18	72.56
584.34	0.00
584.50	107.66
584.66	0.00
584.82	53.83
584.98	56.17
585.14	102.98
585.30	28.09
585.46	0.00
585.62	7.02
585.78	30.43
585.94	44.47
586.10	25.75
586.26	42.13
586.42	28.09
586.58	25.75
586.74	49.15
586.90	11.70
587.06	98.30
587.22	51.49
587.38	74.90
587.54	2.34
587.70	37.45
587.86	0.00
588.02	65.54
588.18	58.51
588.34	32.77
588.49	0.00
588.65	81.92
588.81	58.51
588.97	51.49
589.13	91.28
589.29	44.47
589.45	39.79
589.61	0.00
589.77	4.68
589.93	21.06
590.08	4.68
590.24	0.00
590.40	7.02
590.56	65.54
590.72	9.36
590.88	0.00
591.04	65.54
591.20	100.64
591.35	58.51
591.51	7.02
591.67	0.00
591.83	53.83
591.99	2.34
592.15	32.77
592.31	0.00
592.46	14.04
592.62	77.24
592.78	63.19
592.94	110.01
593.10	53.83
593.26	21.06
593.41	63.19
593.57	67.88
593.73	91.28
593.89	72.56
594.05	74.90
594.20	25.75
594.36	51.49
594.52	0.00
594.68	65.54
594.84	4.68
594.99	65.54
595.15	86.60
595.31	4.68
595.47	14.04
595.62	58.51
595.78	16.38
595.94	53.83
596.10	84.26
596.25	0.00
596.41	91.28
596.57	49.15
596.73	91.28
596.88	23.41
597.04	70.22
597.20	0.00
597.36	30.43
597.51	14.04
597.67	86.60
597.83	32.77
597.99	39.79
598.14	53.83
598.30	4.68
598.46	102.98
598.61	0.00
598.77	100.64
598.93	102.98
599.09	4.68
599.24	39.79
599.40	9.36
599.56	42.13
599.71	58.51
599.87	44.47
600.03	70.22
600.18	14.04
600.34	18.72
600.50	56.17
600.65	60.85
600.81	35.11
600.97	67.88
601.12	32.77
601.28	28.09
601.44	0.00
601.59	21.06
601.75	65.54
601.91	32.77
602.06	46.81
602.22	77.24
602.37	37.45
602.53	25.75
602.69	28.09
602.84	79.58
603.00	0.00
603.16	133.41
603.31	86.60
603.47	16.38
603.62	51.49
603.78	0.00
603.94	86.60
604.09	4.68
604.25	67.88
604.40	0.00
604.56	0.00
604.71	119.37
604.87	86.60
605.03	63.19
605.18	67.88
605.34	0.00
605.49	39.79
605.65	2.34
605.80	0.00
605.96	0.00
606.12	2.34
606.27	81.92
606.43	0.00
606.58	110.01
606.74	2.34
606.89	0.00
607.05	16.38
607.20	23.41
607.36	2.34
607.51	30.43
607.67	65.54
607.82	72.56
607.98	21.06
608.13	42.13
608.29	44.47
608.44	30.43
608.60	7.02
608.75	28.09
608.91	25.75
609.06	0.00
609.22	46.81
609.37	95.96
609.53	0.00
609.68	4.68
609.84	7.02
609.99	37.45
610.15	93.62
610.30	51.49
610.46	16.38
610.61	72.56
610.76	72.56
610.92	0.00
611.07	86.60
611.23	21.06
611.38	0.00
611.54	0.00
611.69	58.51
611.84	0.00
612.00	37.45
612.15	42.13
612.31	0.00
612.46	0.00
612.62	49.15
612.77	0.00
612.92	49.15
613.08	21.06
613.23	18.72
613.39	32.77
613.54	39.79
613.69	25.75
613.85	51.49
614.00	70.22
614.15	18.72
614.31	0.00
614.46	58.51
614.62	0.00
614.77	53.83
614.92	28.09
615.08	39.79
615.23	4.68
615.38	42.13
615.54	0.00
615.69	9.36
615.84	28.09
616.00	60.85
616.15	0.00
616.30	56.17
616.46	39.79
616.61	11.70
616.76	51.49
616.92	56.17
617.07	23.41
617.22	25.75
617.37	56.17
617.53	0.00
617.68	77.24
617.83	0.00
617.99	0.00
618.14	25.75
618.29	49.15
618.45	51.49
618.60	49.15
618.75	53.83
618.90	58.51
619.06	28.09
619.21	56.17
619.36	2.34
619.51	46.81
619.67	39.79
619.82	67.88
619.97	18.72
620.12	0.00
620.28	49.15
620.43	14.04
620.58	28.09
620.73	0.00
620.89	25.75
621.04	70.22
621.19	0.00
621.34	53.83
621.49	0.00
621.65	0.00
621.80	11.70
621.95	32.77
622.10	42.13
622.25	0.00
622.41	23.41
622.56	32.77
622.71	42.13
622.86	63.19
623.01	53.83
623.16	25.75
623.32	56.17
623.47	37.45
623.62	25.75
623.77	32.77
623.92	30.43
624.07	39.79
624.23	88.94
624.38	23.41
624.53	35.11
624.68	65.54
624.83	46.81
624.98	79.58
625.13	0.00
625.29	32.77
625.44	77.24
625.59	65.54
625.74	11.70
625.89	91.28
626.04	0.00
626.19	18.72
626.34	37.45
626.49	35.11
626.65	56.17
626.80	117.03
626.95	37.45
627.10	102.98
627.25	72.56
627.40	0.00
627.55	0.00
627.70	51.49
627.85	53.83
628.00	25.75
628.15	9.36
628.30	25.75
628.45	11.70
628.60	93.62
628.76	0.00
628.91	14.04
629.06	32.77
629.21	32.77
629.36	93.62
629.51	79.58
629.66	42.13
629.81	79.58
629.96	81.92
630.11	49.15
630.26	46.81
630.41	74.90
630.56	0.00
630.71	21.06
630.86	23.41
631.01	42.13
631.16	11.70
631.31	79.58
631.46	0.00
631.61	88.94
631.76	81.92
631.91	32.77
632.06	93.62
632.21	9.36
632.36	37.45
632.51	79.58
632.66	58.51
632.81	37.45
632.96	72.56
633.10	63.19
633.25	53.83
633.40	98.30
633.55	49.15
633.70	0.00
633.85	58.51
634.00	30.43
634.15	74.90
634.30	0.00
634.45	21.06
634.60	25.75
634.75	0.00
634.90	0.00
635.05	102.98
635.19	28.09
635.34	56.17
635.49	11.70
635.64	11.70
635.79	0.00
635.94	9.36
636.09	77.24
636.24	0.00
636.39	0.00
636.53	0.00
636.68	39.79
636.83	72.56
636.98	93.62
637.13	28.09
637.28	0.00
637.43	4.68
637.57	63.19
637.72	28.09
637.87	39.79
638.02	138.09
638.17	35.11
638.32	39.79
638.46	65.54
638.61	39.79
638.76	42.13
638.91	0.00
639.06	72.56
639.20	0.00
639.35	25.75
639.50	39.79
639.65	91.28
639.80	53.83
639.94	25.75
640.09	63.19
640.24	32.77
640.39	39.79
640.54	42.13
640.68	0.00
640.83	84.26
640.98	0.00
641.13	11.70
641.27	0.00
641.42	0.00
641.57	32.77
641.72	0.00
641.86	74.90
642.01	56.17
642.16	14.04
642.31	11.70
642.45	9.36
642.60	0.00
642.75	51.49
642.90	49.15
643.04	9.36
643.19	56.17
643.34	95.96
643.48	46.81
643.63	44.47
643.78	102.98
643.93	84.26
644.07	35.11
644.22	14.04
644.37	7.02
644.51	105.32
644.66	11.70
644.81	39.79
644.95	60.85
645.10	44.47
645.25	65.54
645.39	32.77
645.54	23.41
645.69	79.58
645.83	11.70
645.98	39.79
646.13	63.19
646.27	0.00
646.42	0.00
646.57	72.56
646.71	35.11
646.86	28.09
647.00	4.68
647.15	46.81
647.30	86.60
647.44	39.79
647.59	95.96
647.74	14.04
647.88	0.00
648.03	86.60
648.17	67.88
648.32	51.49
648.47	0.00
648.61	79.58
648.76	0.00
648.90	0.00
649.05	51.49
649.20	0.00
649.34	32.77
649.49	72.56
649.63	4.68
649.78	0.00
649.92	95.96
650.07	11.70
650.21	53.83
650.36	0.00
650.51	77.24
650.65	56.17
650.80	4.68
650.94	0.00
651.09	0.00
651.23	42.13
651.38	49.15
651.52	72.56
651.67	23.41
651.81	100.64
651.96	91.28
652.10	72.56
652.25	93.62
652.39	21.06
652.54	35.11
652.68	25.75
652.83	35.11
652.97	84.26
653.12	46.81
653.26	0.00
653.41	51.49
653.55	65.54
653.70	0.00
653.84	51.49
653.99	44.47
654.13	44.47
654.27	70.22
654.42	44.47
654.56	14.04
654.71	11.70
654.85	56.17
655.00	7.02
655.14	0.00
655.29	23.41
655.43	39.79
655.57	44.47
655.72	39.79
655.86	0.00
656.01	21.06
656.15	63.19
656.30	32.77
656.44	60.85
656.58	28.09
656.73	18.72
656.87	0.00
657.01	44.47
657.16	70.22
657.30	56.17
657.45	25.75
657.59	98.30
657.73	37.45
657.88	60.85
658.02	53.83
658.16	0.00
658.31	49.15
658.45	25.75
658.60	0.00
658.74	105.32
658.88	72.56
659.03	39.79
659.17	11.70
659.31	30.43
659.46	37.45
659.60	44.47
659.74	0.00
659.89	98.30
660.03	18.72
660.17	49.15
660.32	70.22
660.46	46.81
660.60	0.00
660.74	0.00
660.89	0.00
661.03	30.43
661.17	9.36
661.32	32.77
661.46	42.13
661.60	2.34
661.74	0.00
661.89	32.77
662.03	21.06
662.17	18.72
662.31	98.30
662.46	44.47
662.60	35.11
662.74	42.13
662.88	44.47
663.03	9.36
663.17	21.06
663.31	70.22
663.45	0.00
663.60	81.92
663.74	0.00
663.88	72.56
664.02	49.15
664.17	0.00
664.31	39.79
664.45	30.43
664.59	0.00
664.73	56.17
664.88	56.17
665.02	14.04
665.16	35.11
665.30	25.75
665.44	37.45
665.59	95.96
665.73	21.06
665.87	56.17
666.01	63.19
666.15	53.83
666.29	25.75
666.44	58.51
666.58	35.11
666.72	0.00
666.86	84.26
667.00	35.11
667.14	0.00
667.28	0.00
667.43	23.41
667.57	7.02
667.71	39.79
667.85	0.00
667.99	49.15
668.13	67.88
668.27	39.79
668.41	0.00
668.56	9.36
668.70	16.38
668.84	56.17
668.98	138.09
669.12	0.00
669.26	35.11
669.40	39.79
669.54	100.64
669.68	4.68
669.82	4.68
669.96	114.69
670.10	21.06
670.25	18.72
670.39	100.64
670.53	0.00
670.67	79.58
670.81	35.11
670.95	67.88
671.09	46.81
671.23	0.00
671.37	51.49
671.51	100.64
671.65	44.47
671.79	81.92
671.93	4.68
672.07	60.85
672.21	74.90
672.35	53.83
672.49	63.19
672.63	126.39
672.77	0.00
672.91	25.75
673.05	28.09
673.19	4.68
673.33	16.38
673.47	110.01
673.61	84.26
673.75	32.77
673.89	77.24
674.03	0.00
674.17	60.85
674.31	131.07
674.45	0.00
674.59	105.32
674.73	0.00
674.87	42.13
675.01	58.51
675.15	0.00
675.29	0.00
675.43	4.68
675.56	9.36
675.70	25.75
675.84	70.22
675.98	9.36
676.12	74.90
676.26	4.68
676.40	28.09
676.54	63.19
676.68	37.45
676.82	53.83
676.96	86.60
677.10	95.96
677.23	56.17
677.37	0.00
677.51	25.75
677.65	93.62
677.79	4.68
677.93	25.75
678.07	102.98
678.21	35.11
678.34	28.09
678.48	42.13
678.62	44.47
678.76	37.45
678.90	0.00
679.04	16.38
679.18	56.17
679.31	9.36
679.45	11.70
679.59	63.19
679.73	0.00
679.87	23.41
680.00	63.19
680.14	2.34
680.28	2.34
680.42	23.41
680.56	39.79
680.70	60.85
680.83	23.41
680.97	46.81
681.11	32.77
681.25	21.06
681.39	16.38
681.52	0.00
681.66	53.83
681.80	21.06
681.94	0.00
682.07	51.49
682.21	126.39
682.35	28.09
682.49	23.41
682.62	42.13
682.76	53.83
682.90	0.00
683.04	46.81
683.17	70.22
683.31	11.70
683.45	0.00
683.59	0.00
683.72	0.00
683.86	14.04
684.00	95.96
684.13	58.51
684.27	58.51
684.41	0.00
684.55	0.00
684.68	35.11
684.82	39.79
684.96	23.41
685.09	56.17
685.23	18.72
685.37	44.47
685.50	32.77
685.64	88.94
685.78	4.68
685.91	35.11
686.05	25.75
686.19	39.79
686.32	63.19
686.46	0.00
686.60	25.75
686.73	51.49
686.87	81.92
687.01	4.68
687.14	58.51
687.28	18.72
687.42	0.00
687.55	32.77
687.69	58.51
687.82	44.47
687.96	67.88
688.10	16.38
688.23	0.00
688.37	0.00
688.50	0.00
688.64	0.00
688.78	25.75
688.91	30.43
689.05	91.28
689.18	0.00
689.32	35.11
689.46	7.02
689.59	0.00
689.73	46.81
689.86	105.32
690.00	0.00
690.13	0.00
690.27	14.04
690.41	37.45
690.54	18.72
690.68	28.09
690.81	37.45
690.95	16.38
691.08	37.45
691.22	42.13
691.35	84.26
691.49	0.00
691.62	28.09
691.76	30.43
691.89	58.51
692.03	21.06
692.16	0.00
692.30	35.11
692.43	0.00
692.57	25.75
692.70	42.13
692.84	7.02
692.97	32.77
693.11	0.00
693.24	0.00
693.38	21.06
693.51	0.00
693.65	56.17
693.78	0.00
693.92	25.75
694.05	124.05
694.19	28.09
694.32	0.00
694.45	16.38
694.59	124.05
694.72	49.15
694.86	37.45
694.99	11.70
695.13	18.72
695.26	2.34
695.39	30.43
695.53	117.03
695.66	74.90
695.80	77.24
695.93	46.81
696.07	0.00
696.20	37.45
696.33	7.02
696.47	51.49
696.60	28.09
696.73	2.34
696.87	110.01
697.00	4.68
697.14	4.68
697.27	35.11
697.40	23.41
697.54	63.19
697.67	0.00
697.80	0.00
697.94	32.77
698.07	74.90
698.21	42.13
698.34	7.02
698.47	21.06
698.61	2.34
698.74	28.09
698.87	84.26
699.01	4.68
699.14	11.70
699.27	0.00
699.40	100.64
699.54	4.68
699.67	0.00
699.80	7.02
699.94	63.19
700.07	63.19
700.20	0.00
700.34	67.88
700.47	117.03
700.60	42.13
700.73	58.51
700.87	0.00
701.00	35.11
701.13	23.41
701.26	63.19
701.40	32.77
701.53	0.00
701.66	16.38
701.79	39.79
701.93	0.00
702.06	0.00
702.19	32.77
702.32	18.72
702.46	81.92
702.59	4.68
702.72	11.70
702.85	58.51
702.99	0.00
703.12	7.02
703.25	7.02
703.38	32.77
703.51	84.26
703.65	0.00
703.78	16.38
703.91	4.68
704.04	23.41
704.17	58.51
704.31	35.11
704.44	18.72
704.57	0.00
704.70	18.72
704.83	16.38
704.96	44.47
705.10	70.22
705.23	0.00
>>>>>End Processed Spectral Data<<<<<
