SpectraSuite Data File
++++++++++++++++++++++++++++++++++++
Date: Fri Oct 04 12:13:45 GMT-05:00 2013
User: price-jones
Dark Spectrum Present: No
Reference Spectrum Present: No
Number of Sampled Component Spectra: 1
Spectrometers: USB2+H05261
Integration Time (usec): 10000 (USB2+H05261)
Spectra Averaged: 1 (USB2+H05261)
Boxcar Smoothing: 0 (USB2+H05261)
Correct for Electrical Dark: No (USB2+H05261)
Strobe/Lamp Enabled: No (USB2+H05261)
Correct for Detector Non-linearity: No (USB2+H05261)
Correct for Stray Light: No (USB2+H05261)
Number of Pixels in Processed Spectrum: 2048
>>>>>Begin Processed Spectral Data<<<<<
365.73	0.00
365.92	0.00
366.12	0.00
366.32	0.00
366.52	0.00
366.72	0.00
366.91	0.00
367.11	0.00
367.31	0.00
367.51	0.00
367.70	0.00
367.90	0.00
368.10	0.00
368.30	0.00
368.49	0.00
368.69	0.00
368.89	0.00
369.09	0.00
369.28	0.00
369.48	0.00
369.68	0.00
369.87	0.00
370.07	0.00
370.27	0.00
370.47	0.00
370.66	0.00
370.86	4.68
371.06	0.00
371.25	0.00
371.45	0.00
371.65	0.00
371.84	4.68
372.04	0.00
372.24	30.43
372.44	0.00
372.63	0.00
372.83	37.45
373.03	9.36
373.22	0.00
373.42	65.54
373.62	49.15
373.81	0.00
374.01	14.04
374.21	0.00
374.40	16.38
374.60	18.72
374.79	2.34
374.99	0.00
375.19	35.11
375.38	49.15
375.58	0.00
375.78	14.04
375.97	14.04
376.17	56.17
376.37	46.81
376.56	21.06
376.76	65.54
376.95	100.64
377.15	0.00
377.35	0.00
377.54	60.85
377.74	25.75
377.93	14.04
378.13	23.41
378.33	44.47
378.52	53.83
378.72	18.72
378.91	39.79
379.11	42.13
379.31	0.00
379.50	4.68
379.70	0.00
379.89	72.56
380.09	16.38
380.28	0.00
380.48	39.79
380.68	0.00
380.87	7.02
381.07	4.68
381.26	4.68
381.46	39.79
381.65	32.77
381.85	0.00
382.04	0.00
382.24	0.00
382.43	25.75
382.63	23.41
382.83	16.38
383.02	14.04
383.22	0.00
383.41	11.70
383.61	0.00
383.80	65.54
384.00	0.00
384.19	37.45
384.39	72.56
384.58	18.72
384.78	0.00
384.97	28.09
385.17	0.00
385.36	0.00
385.56	21.06
385.75	0.00
385.95	110.01
386.14	84.26
386.34	0.00
386.53	25.75
386.72	0.00
386.92	0.00
387.11	25.75
387.31	0.00
387.50	0.00
387.70	0.00
387.89	74.90
388.09	0.00
388.28	51.49
388.48	30.43
388.67	67.88
388.86	0.00
389.06	14.04
389.25	79.58
389.45	53.83
389.64	23.41
389.84	56.17
390.03	0.00
390.22	74.90
390.42	37.45
390.61	32.77
390.81	44.47
391.00	74.90
391.19	53.83
391.39	58.51
391.58	23.41
391.78	56.17
391.97	9.36
392.16	7.02
392.36	0.00
392.55	60.85
392.75	0.00
392.94	32.77
393.13	44.47
393.33	0.00
393.52	0.00
393.71	60.85
393.91	30.43
394.10	28.09
394.29	0.00
394.49	18.72
394.68	35.11
394.88	28.09
395.07	105.32
395.26	74.90
395.46	23.41
395.65	42.13
395.84	56.17
396.04	98.30
396.23	0.00
396.42	28.09
396.62	74.90
396.81	16.38
397.00	25.75
397.19	30.43
397.39	0.00
397.58	0.00
397.77	49.15
397.97	37.45
398.16	63.19
398.35	18.72
398.55	28.09
398.74	32.77
398.93	0.00
399.12	84.26
399.32	49.15
399.51	11.70
399.70	32.77
399.90	35.11
400.09	46.81
400.28	65.54
400.47	58.51
400.67	4.68
400.86	14.04
401.05	0.00
401.24	51.49
401.44	0.00
401.63	30.43
401.82	95.96
402.01	65.54
402.21	100.64
402.40	35.11
402.59	91.28
402.78	74.90
402.97	56.17
403.17	21.06
403.36	0.00
403.55	37.45
403.74	39.79
403.93	32.77
404.13	32.77
404.32	0.00
404.51	0.00
404.70	84.26
404.89	0.00
405.09	88.94
405.28	65.54
405.47	0.00
405.66	77.24
405.85	79.58
406.05	0.00
406.24	63.19
406.43	0.00
406.62	0.00
406.81	39.79
407.00	51.49
407.20	0.00
407.39	44.47
407.58	44.47
407.77	21.06
407.96	46.81
408.15	93.62
408.34	63.19
408.54	16.38
408.73	30.43
408.92	70.22
409.11	0.00
409.30	21.06
409.49	63.19
409.68	0.00
409.87	84.26
410.07	16.38
410.26	126.39
410.45	30.43
410.64	0.00
410.83	79.58
411.02	86.60
411.21	0.00
411.40	32.77
411.59	7.02
411.78	44.47
411.98	37.45
412.17	0.00
412.36	60.85
412.55	23.41
412.74	2.34
412.93	37.45
413.12	98.30
413.31	100.64
413.50	21.06
413.69	0.00
413.88	44.47
414.07	58.51
414.26	70.22
414.45	7.02
414.64	2.34
414.83	30.43
415.02	56.17
415.22	46.81
415.41	32.77
415.60	7.02
415.79	18.72
415.98	0.00
416.17	58.51
416.36	18.72
416.55	86.60
416.74	42.13
416.93	60.85
417.12	79.58
417.31	0.00
417.50	46.81
417.69	37.45
417.88	14.04
418.07	7.02
418.26	21.06
418.45	0.00
418.64	39.79
418.83	0.00
419.02	4.68
419.21	42.13
419.39	37.45
419.58	30.43
419.77	18.72
419.96	74.90
420.15	18.72
420.34	0.00
420.53	84.26
420.72	44.47
420.91	11.70
421.10	67.88
421.29	77.24
421.48	0.00
421.67	56.17
421.86	35.11
422.05	25.75
422.24	32.77
422.43	74.90
422.61	72.56
422.80	39.79
422.99	84.26
423.18	37.45
423.37	100.64
423.56	44.47
423.75	51.49
423.94	63.19
424.13	112.35
424.32	70.22
424.50	30.43
424.69	81.92
424.88	0.00
425.07	35.11
425.26	98.30
425.45	46.81
425.64	11.70
425.83	51.49
426.01	88.94
426.20	0.00
426.39	0.00
426.58	100.64
426.77	46.81
426.96	95.96
427.15	21.06
427.33	58.51
427.52	72.56
427.71	9.36
427.90	72.56
428.09	70.22
428.28	42.13
428.46	30.43
428.65	46.81
428.84	46.81
429.03	32.77
429.22	72.56
429.40	81.92
429.59	70.22
429.78	0.00
429.97	0.00
430.16	30.43
430.34	63.19
430.53	0.00
430.72	0.00
430.91	77.24
431.10	30.43
431.28	16.38
431.47	91.28
431.66	56.17
431.85	25.75
432.03	32.77
432.22	58.51
432.41	91.28
432.60	95.96
432.79	107.66
432.97	107.66
433.16	9.36
433.35	35.11
433.54	81.92
433.72	74.90
433.91	37.45
434.10	98.30
434.28	0.00
434.47	28.09
434.66	79.58
434.85	37.45
435.03	35.11
435.22	46.81
435.41	0.00
435.59	112.35
435.78	0.00
435.97	37.45
436.16	37.45
436.34	44.47
436.53	77.24
436.72	100.64
436.90	0.00
437.09	60.85
437.28	11.70
437.46	51.49
437.65	77.24
437.84	51.49
438.02	30.43
438.21	91.28
438.40	86.60
438.58	0.00
438.77	37.45
438.96	88.94
439.14	28.09
439.33	102.98
439.52	74.90
439.70	98.30
439.89	28.09
440.08	0.00
440.26	0.00
440.45	30.43
440.63	14.04
440.82	102.98
441.01	91.28
441.19	14.04
441.38	56.17
441.57	100.64
441.75	60.85
441.94	56.17
442.12	0.00
442.31	23.41
442.50	53.83
442.68	37.45
442.87	72.56
443.05	0.00
443.24	49.15
443.43	63.19
443.61	93.62
443.80	16.38
443.98	37.45
444.17	46.81
444.35	65.54
444.54	81.92
444.73	81.92
444.91	53.83
445.10	35.11
445.28	0.00
445.47	91.28
445.65	67.88
445.84	102.98
446.02	21.06
446.21	110.01
446.39	88.94
446.58	21.06
446.77	84.26
446.95	63.19
447.14	46.81
447.32	86.60
447.51	65.54
447.69	105.32
447.88	0.00
448.06	42.13
448.25	44.47
448.43	121.71
448.62	28.09
448.80	60.85
448.99	60.85
449.17	88.94
449.36	11.70
449.54	117.03
449.73	91.28
449.91	18.72
450.10	117.03
450.28	51.49
450.46	0.00
450.65	58.51
450.83	9.36
451.02	37.45
451.20	14.04
451.39	138.09
451.57	110.01
451.76	18.72
451.94	21.06
452.13	70.22
452.31	93.62
452.49	35.11
452.68	84.26
452.86	0.00
453.05	21.06
453.23	102.98
453.42	0.00
453.60	30.43
453.78	72.56
453.97	58.51
454.15	102.98
454.34	65.54
454.52	39.79
454.70	44.47
454.89	56.17
455.07	63.19
455.26	11.70
455.44	0.00
455.62	21.06
455.81	60.85
455.99	37.45
456.17	30.43
456.36	37.45
456.54	11.70
456.73	51.49
456.91	58.51
457.09	11.70
457.28	9.36
457.46	35.11
457.64	72.56
457.83	25.75
458.01	67.88
458.19	28.09
458.38	51.49
458.56	14.04
458.74	4.68
458.93	67.88
459.11	72.56
459.29	0.00
459.48	128.73
459.66	133.41
459.84	0.00
460.03	49.15
460.21	117.03
460.39	37.45
460.57	121.71
460.76	79.58
460.94	0.00
461.12	44.47
461.31	110.01
461.49	0.00
461.67	39.79
461.85	74.90
462.04	98.30
462.22	102.98
462.40	112.35
462.59	0.00
462.77	119.37
462.95	74.90
463.13	23.41
463.32	95.96
463.50	39.79
463.68	60.85
463.86	46.81
464.05	28.09
464.23	14.04
464.41	44.47
464.59	93.62
464.78	16.38
464.96	81.92
465.14	65.54
465.32	88.94
465.50	0.00
465.69	86.60
465.87	95.96
466.05	105.32
466.23	77.24
466.41	159.16
466.60	28.09
466.78	0.00
466.96	110.01
467.14	28.09
467.32	74.90
467.51	51.49
467.69	44.47
467.87	79.58
468.05	88.94
468.23	63.19
468.41	58.51
468.60	107.66
468.78	88.94
468.96	91.28
469.14	51.49
469.32	95.96
469.50	23.41
469.69	77.24
469.87	44.47
470.05	39.79
470.23	9.36
470.41	110.01
470.59	23.41
470.77	58.51
470.95	0.00
471.14	16.38
471.32	58.51
471.50	81.92
471.68	74.90
471.86	23.41
472.04	0.00
472.22	65.54
472.40	18.72
472.58	107.66
472.77	32.77
472.95	88.94
473.13	70.22
473.31	93.62
473.49	81.92
473.67	32.77
473.85	44.47
474.03	32.77
474.21	18.72
474.39	95.96
474.57	46.81
474.75	77.24
474.93	107.66
475.12	2.34
475.30	0.00
475.48	58.51
475.66	88.94
475.84	60.85
476.02	58.51
476.20	79.58
476.38	88.94
476.56	95.96
476.74	23.41
476.92	30.43
477.10	65.54
477.28	30.43
477.46	91.28
477.64	0.00
477.82	42.13
478.00	74.90
478.18	0.00
478.36	124.05
478.54	53.83
478.72	70.22
478.90	56.17
479.08	58.51
479.26	86.60
479.44	60.85
479.62	39.79
479.80	53.83
479.98	42.13
480.16	32.77
480.34	39.79
480.52	23.41
480.70	147.45
480.88	49.15
481.06	25.75
481.24	51.49
481.41	42.13
481.59	112.35
481.77	7.02
481.95	91.28
482.13	131.07
482.31	56.17
482.49	67.88
482.67	60.85
482.85	128.73
483.03	49.15
483.21	37.45
483.39	16.38
483.57	107.66
483.74	25.75
483.92	9.36
484.10	67.88
484.28	70.22
484.46	51.49
484.64	18.72
484.82	70.22
485.00	93.62
485.18	65.54
485.35	60.85
485.53	63.19
485.71	65.54
485.89	25.75
486.07	18.72
486.25	49.15
486.43	16.38
486.61	84.26
486.78	9.36
486.96	35.11
487.14	30.43
487.32	0.00
487.50	67.88
487.68	63.19
487.85	32.77
488.03	9.36
488.21	107.66
488.39	91.28
488.57	14.04
488.75	51.49
488.92	107.66
489.10	79.58
489.28	93.62
489.46	58.51
489.64	70.22
489.81	4.68
489.99	105.32
490.17	72.56
490.35	70.22
490.53	79.58
490.70	42.13
490.88	81.92
491.06	168.52
491.24	131.07
491.41	0.00
491.59	91.28
491.77	102.98
491.95	11.70
492.13	114.69
492.30	88.94
492.48	98.30
492.66	77.24
492.84	21.06
493.01	42.13
493.19	91.28
493.37	105.32
493.54	63.19
493.72	74.90
493.90	16.38
494.08	70.22
494.25	152.13
494.43	46.81
494.61	149.79
494.79	65.54
494.96	84.26
495.14	133.41
495.32	93.62
495.49	16.38
495.67	35.11
495.85	175.54
496.02	112.35
496.20	102.98
496.38	74.90
496.55	60.85
496.73	124.05
496.91	28.09
497.09	91.28
497.26	77.24
497.44	42.13
497.62	37.45
497.79	112.35
497.97	131.07
498.14	100.64
498.32	35.11
498.50	60.85
498.67	191.92
498.85	18.72
499.03	0.00
499.20	67.88
499.38	107.66
499.56	53.83
499.73	37.45
499.91	9.36
500.08	72.56
500.26	77.24
500.44	81.92
500.61	25.75
500.79	100.64
500.97	58.51
501.14	65.54
501.32	42.13
501.49	60.85
501.67	88.94
501.84	84.26
502.02	79.58
502.20	88.94
502.37	74.90
502.55	100.64
502.72	112.35
502.90	124.05
503.07	28.09
503.25	32.77
503.43	121.71
503.60	35.11
503.78	93.62
503.95	117.03
504.13	49.15
504.30	112.35
504.48	154.48
504.65	58.51
504.83	39.79
505.01	105.32
505.18	110.01
505.36	100.64
505.53	65.54
505.71	93.62
505.88	63.19
506.06	105.32
506.23	53.83
506.41	58.51
506.58	110.01
506.76	107.66
506.93	126.39
507.11	35.11
507.28	91.28
507.46	56.17
507.63	49.15
507.81	60.85
507.98	102.98
508.16	102.98
508.33	46.81
508.50	58.51
508.68	25.75
508.85	37.45
509.03	112.35
509.20	72.56
509.38	51.49
509.55	4.68
509.73	121.71
509.90	81.92
510.08	79.58
510.25	102.98
510.42	53.83
510.60	128.73
510.77	84.26
510.95	154.48
511.12	0.00
511.30	53.83
511.47	56.17
511.64	74.90
511.82	46.81
511.99	95.96
512.17	72.56
512.34	72.56
512.51	95.96
512.69	18.72
512.86	91.28
513.04	74.90
513.21	18.72
513.38	53.83
513.56	14.04
513.73	102.98
513.90	0.00
514.08	114.69
514.25	70.22
514.43	53.83
514.60	72.56
514.77	105.32
514.95	98.30
515.12	140.43
515.29	77.24
515.47	58.51
515.64	84.26
515.81	67.88
515.99	135.75
516.16	74.90
516.33	42.13
516.51	49.15
516.68	30.43
516.85	58.51
517.03	58.51
517.20	79.58
517.37	60.85
517.54	74.90
517.72	65.54
517.89	42.13
518.06	72.56
518.24	0.00
518.41	79.58
518.58	77.24
518.75	117.03
518.93	107.66
519.10	81.92
519.27	84.26
519.45	16.38
519.62	58.51
519.79	53.83
519.96	16.38
520.14	32.77
520.31	119.37
520.48	100.64
520.65	128.73
520.83	117.03
521.00	72.56
521.17	51.49
521.34	117.03
521.52	37.45
521.69	128.73
521.86	21.06
522.03	25.75
522.20	63.19
522.38	175.54
522.55	77.24
522.72	56.17
522.89	140.43
523.07	100.64
523.24	74.90
523.41	65.54
523.58	84.26
523.75	0.00
523.92	46.81
524.10	42.13
524.27	70.22
524.44	7.02
524.61	30.43
524.78	100.64
524.96	133.41
525.13	91.28
525.30	70.22
525.47	30.43
525.64	93.62
525.81	53.83
525.98	152.13
526.16	70.22
526.33	58.51
526.50	77.24
526.67	63.19
526.84	58.51
527.01	14.04
527.18	77.24
527.36	72.56
527.53	112.35
527.70	25.75
527.87	70.22
528.04	114.69
528.21	67.88
528.38	93.62
528.55	100.64
528.72	107.66
528.89	128.73
529.07	44.47
529.24	84.26
529.41	49.15
529.58	72.56
529.75	58.51
529.92	107.66
530.09	72.56
530.26	28.09
530.43	28.09
530.60	51.49
530.77	56.17
530.94	72.56
531.11	0.00
531.28	60.85
531.46	93.62
531.63	79.58
531.80	79.58
531.97	32.77
532.14	86.60
532.31	11.70
532.48	84.26
532.65	77.24
532.82	14.04
532.99	39.79
533.16	42.13
533.33	140.43
533.50	25.75
533.67	16.38
533.84	60.85
534.01	53.83
534.18	46.81
534.35	84.26
534.52	44.47
534.69	74.90
534.86	149.79
535.03	39.79
535.20	74.90
535.37	93.62
535.54	81.92
535.71	88.94
535.88	46.81
536.05	70.22
536.22	79.58
536.38	44.47
536.55	0.00
536.72	4.68
536.89	42.13
537.06	72.56
537.23	86.60
537.40	58.51
537.57	91.28
537.74	28.09
537.91	42.13
538.08	88.94
538.25	53.83
538.42	77.24
538.59	37.45
538.75	74.90
538.92	117.03
539.09	126.39
539.26	7.02
539.43	65.54
539.60	49.15
539.77	107.66
539.94	56.17
540.11	44.47
540.28	93.62
540.44	39.79
540.61	44.47
540.78	95.96
540.95	117.03
541.12	112.35
541.29	72.56
541.46	81.92
541.62	77.24
541.79	56.17
541.96	88.94
542.13	79.58
542.30	46.81
542.47	140.43
542.63	42.13
542.80	88.94
542.97	79.58
543.14	0.00
543.31	46.81
543.48	84.26
543.64	67.88
543.81	44.47
543.98	156.82
544.15	60.85
544.32	70.22
544.48	72.56
544.65	114.69
544.82	70.22
544.99	86.60
545.16	77.24
545.32	46.81
545.49	63.19
545.66	53.83
545.83	131.07
546.00	95.96
546.16	65.54
546.33	35.11
546.50	28.09
546.67	152.13
546.83	44.47
547.00	60.85
547.17	114.69
547.34	70.22
547.50	81.92
547.67	105.32
547.84	37.45
548.00	35.11
548.17	147.45
548.34	65.54
548.51	67.88
548.67	119.37
548.84	79.58
549.01	67.88
549.18	121.71
549.34	77.24
549.51	0.00
549.68	72.56
549.84	46.81
550.01	25.75
550.18	39.79
550.34	63.19
550.51	110.01
550.68	46.81
550.84	140.43
551.01	105.32
551.18	49.15
551.34	65.54
551.51	168.52
551.68	67.88
551.84	107.66
552.01	114.69
552.18	56.17
552.34	173.20
552.51	58.51
552.68	135.75
552.84	9.36
553.01	119.37
553.18	93.62
553.34	37.45
553.51	102.98
553.67	88.94
553.84	53.83
554.01	42.13
554.17	102.98
554.34	51.49
554.51	65.54
554.67	117.03
554.84	60.85
555.00	42.13
555.17	72.56
555.33	98.30
555.50	30.43
555.67	93.62
555.83	102.98
556.00	77.24
556.16	117.03
556.33	95.96
556.50	9.36
556.66	98.30
556.83	42.13
556.99	37.45
557.16	9.36
557.32	60.85
557.49	32.77
557.65	42.13
557.82	56.17
557.98	51.49
558.15	86.60
558.32	117.03
558.48	42.13
558.65	124.05
558.81	74.90
558.98	72.56
559.14	88.94
559.31	56.17
559.47	0.00
559.64	98.30
559.80	44.47
559.97	140.43
560.13	9.36
560.30	58.51
560.46	56.17
560.63	74.90
560.79	77.24
560.96	79.58
561.12	39.79
561.29	100.64
561.45	128.73
561.61	56.17
561.78	32.77
561.94	98.30
562.11	79.58
562.27	53.83
562.44	70.22
562.60	70.22
562.77	67.88
562.93	95.96
563.10	74.90
563.26	25.75
563.42	100.64
563.59	53.83
563.75	117.03
563.92	25.75
564.08	107.66
564.24	11.70
564.41	51.49
564.57	7.02
564.74	86.60
564.90	81.92
565.07	35.11
565.23	42.13
565.39	42.13
565.56	49.15
565.72	86.60
565.88	46.81
566.05	110.01
566.21	56.17
566.38	0.00
566.54	9.36
566.70	65.54
566.87	21.06
567.03	70.22
567.19	35.11
567.36	72.56
567.52	21.06
567.68	119.37
567.85	67.88
568.01	117.03
568.17	16.38
568.34	128.73
568.50	63.19
568.66	84.26
568.83	58.51
568.99	95.96
569.15	93.62
569.32	126.39
569.48	79.58
569.64	63.19
569.81	72.56
569.97	79.58
570.13	0.00
570.30	51.49
570.46	28.09
570.62	37.45
570.78	119.37
570.95	14.04
571.11	114.69
571.27	128.73
571.43	18.72
571.60	72.56
571.76	72.56
571.92	30.43
572.09	46.81
572.25	51.49
572.41	105.32
572.57	95.96
572.74	23.41
572.90	11.70
573.06	107.66
573.22	53.83
573.38	93.62
573.55	4.68
573.71	81.92
573.87	37.45
574.03	44.47
574.20	63.19
574.36	65.54
574.52	77.24
574.68	77.24
574.84	35.11
575.01	81.92
575.17	67.88
575.33	126.39
575.49	0.00
575.65	16.38
575.82	63.19
575.98	42.13
576.14	53.83
576.30	77.24
576.46	98.30
576.62	53.83
576.79	42.13
576.95	133.41
577.11	14.04
577.27	46.81
577.43	46.81
577.59	49.15
577.75	152.13
577.92	14.04
578.08	44.47
578.24	7.02
578.40	168.52
578.56	124.05
578.72	110.01
578.88	53.83
579.04	133.41
579.21	74.90
579.37	65.54
579.53	58.51
579.69	74.90
579.85	0.00
580.01	53.83
580.17	70.22
580.33	42.13
580.49	58.51
580.65	114.69
580.82	156.82
580.98	74.90
581.14	119.37
581.30	91.28
581.46	23.41
581.62	16.38
581.78	42.13
581.94	128.73
582.10	39.79
582.26	65.54
582.42	74.90
582.58	42.13
582.74	60.85
582.90	60.85
583.06	53.83
583.22	81.92
583.38	28.09
583.54	46.81
583.70	114.69
583.86	53.83
584.02	42.13
584.18	16.38
584.34	56.17
584.50	70.22
584.66	77.24
584.82	44.47
584.98	39.79
585.14	0.00
585.30	77.24
585.46	74.90
585.62	65.54
585.78	67.88
585.94	88.94
586.10	86.60
586.26	74.90
586.42	149.79
586.58	18.72
586.74	25.75
586.90	44.47
587.06	18.72
587.22	112.35
587.38	91.28
587.54	28.09
587.70	67.88
587.86	42.13
588.02	112.35
588.18	9.36
588.34	60.85
588.49	0.00
588.65	39.79
588.81	42.13
588.97	81.92
589.13	9.36
589.29	74.90
589.45	84.26
589.61	70.22
589.77	77.24
589.93	86.60
590.08	28.09
590.24	67.88
590.40	81.92
590.56	86.60
590.72	25.75
590.88	81.92
591.04	56.17
591.20	70.22
591.35	86.60
591.51	95.96
591.67	58.51
591.83	56.17
591.99	25.75
592.15	70.22
592.31	44.47
592.46	16.38
592.62	0.00
592.78	18.72
592.94	28.09
593.10	74.90
593.26	77.24
593.41	46.81
593.57	65.54
593.73	63.19
593.89	72.56
594.05	65.54
594.20	25.75
594.36	81.92
594.52	53.83
594.68	51.49
594.84	105.32
594.99	30.43
595.15	51.49
595.31	110.01
595.47	42.13
595.62	11.70
595.78	0.00
595.94	25.75
596.10	30.43
596.25	35.11
596.41	53.83
596.57	72.56
596.73	70.22
596.88	21.06
597.04	51.49
597.20	18.72
597.36	79.58
597.51	70.22
597.67	0.00
597.83	86.60
597.99	32.77
598.14	81.92
598.30	84.26
598.46	70.22
598.61	102.98
598.77	25.75
598.93	67.88
599.09	112.35
599.24	51.49
599.40	74.90
599.56	60.85
599.71	0.00
599.87	0.00
600.03	14.04
600.18	0.00
600.34	25.75
600.50	28.09
600.65	0.00
600.81	98.30
600.97	67.88
601.12	49.15
601.28	60.85
601.44	91.28
601.59	98.30
601.75	65.54
601.91	70.22
602.06	67.88
602.22	86.60
602.37	72.56
602.53	44.47
602.69	53.83
602.84	32.77
603.00	2.34
603.16	135.75
603.31	77.24
603.47	63.19
603.62	51.49
603.78	88.94
603.94	79.58
604.09	117.03
604.25	51.49
604.40	49.15
604.56	81.92
604.71	2.34
604.87	18.72
605.03	77.24
605.18	79.58
605.34	11.70
605.49	18.72
605.65	133.41
605.80	42.13
605.96	37.45
606.12	70.22
606.27	0.00
606.43	46.81
606.58	67.88
606.74	25.75
606.89	56.17
607.05	46.81
607.20	72.56
607.36	91.28
607.51	51.49
607.67	74.90
607.82	105.32
607.98	53.83
608.13	23.41
608.29	46.81
608.44	67.88
608.60	105.32
608.75	67.88
608.91	81.92
609.06	145.11
609.22	51.49
609.37	51.49
609.53	56.17
609.68	121.71
609.84	37.45
609.99	42.13
610.15	67.88
610.30	42.13
610.46	53.83
610.61	46.81
610.76	91.28
610.92	11.70
611.07	7.02
611.23	112.35
611.38	86.60
611.54	0.00
611.69	74.90
611.84	28.09
612.00	0.00
612.15	77.24
612.31	35.11
612.46	105.32
612.62	28.09
612.77	77.24
612.92	11.70
613.08	72.56
613.23	93.62
613.39	37.45
613.54	107.66
613.69	110.01
613.85	88.94
614.00	0.00
614.15	28.09
614.31	60.85
614.46	124.05
614.62	23.41
614.77	60.85
614.92	63.19
615.08	53.83
615.23	25.75
615.38	86.60
615.54	53.83
615.69	30.43
615.84	11.70
616.00	23.41
616.15	79.58
616.30	0.00
616.46	100.64
616.61	67.88
616.76	0.00
616.92	86.60
617.07	4.68
617.22	65.54
617.37	77.24
617.53	86.60
617.68	2.34
617.83	98.30
617.99	65.54
618.14	63.19
618.29	58.51
618.45	53.83
618.60	30.43
618.75	25.75
618.90	0.00
619.06	21.06
619.21	91.28
619.36	98.30
619.51	4.68
619.67	65.54
619.82	16.38
619.97	25.75
620.12	91.28
620.28	53.83
620.43	88.94
620.58	124.05
620.73	28.09
620.89	91.28
621.04	67.88
621.19	23.41
621.34	35.11
621.49	32.77
621.65	117.03
621.80	79.58
621.95	0.00
622.10	117.03
622.25	117.03
622.41	0.00
622.56	98.30
622.71	60.85
622.86	0.00
623.01	95.96
623.16	126.39
623.32	0.00
623.47	21.06
623.62	60.85
623.77	124.05
623.92	35.11
624.07	67.88
624.23	79.58
624.38	0.00
624.53	88.94
624.68	67.88
624.83	58.51
624.98	25.75
625.13	42.13
625.29	79.58
625.44	63.19
625.59	14.04
625.74	117.03
625.89	65.54
626.04	0.00
626.19	53.83
626.34	51.49
626.49	14.04
626.65	79.58
626.80	60.85
626.95	72.56
627.10	91.28
627.25	88.94
627.40	4.68
627.55	30.43
627.70	74.90
627.85	67.88
628.00	32.77
628.15	51.49
628.30	60.85
628.45	0.00
628.60	0.00
628.76	2.34
628.91	84.26
629.06	9.36
629.21	93.62
629.36	18.72
629.51	32.77
629.66	0.00
629.81	65.54
629.96	18.72
630.11	18.72
630.26	9.36
630.41	9.36
630.56	95.96
630.71	95.96
630.86	44.47
631.01	18.72
631.16	60.85
631.31	39.79
631.46	32.77
631.61	63.19
631.76	9.36
631.91	72.56
632.06	37.45
632.21	88.94
632.36	37.45
632.51	11.70
632.66	72.56
632.81	86.60
632.96	4.68
633.10	58.51
633.25	107.66
633.40	107.66
633.55	102.98
633.70	16.38
633.85	32.77
634.00	0.00
634.15	32.77
634.30	56.17
634.45	63.19
634.60	30.43
634.75	100.64
634.90	2.34
635.05	53.83
635.19	14.04
635.34	30.43
635.49	0.00
635.64	53.83
635.79	70.22
635.94	16.38
636.09	30.43
636.24	25.75
636.39	88.94
636.53	110.01
636.68	42.13
636.83	28.09
636.98	0.00
637.13	91.28
637.28	44.47
637.43	77.24
637.57	105.32
637.72	46.81
637.87	110.01
638.02	0.00
638.17	44.47
638.32	0.00
638.46	11.70
638.61	25.75
638.76	4.68
638.91	72.56
639.06	77.24
639.20	60.85
639.35	0.00
639.50	79.58
639.65	35.11
639.80	58.51
639.94	74.90
640.09	35.11
640.24	81.92
640.39	81.92
640.54	74.90
640.68	16.38
640.83	14.04
640.98	28.09
641.13	46.81
641.27	28.09
641.42	72.56
641.57	11.70
641.72	0.00
641.86	60.85
642.01	67.88
642.16	91.28
642.31	30.43
642.45	53.83
642.60	56.17
642.75	49.15
642.90	0.00
643.04	81.92
643.19	70.22
643.34	32.77
643.48	79.58
643.63	11.70
643.78	51.49
643.93	93.62
644.07	32.77
644.22	98.30
644.37	51.49
644.51	131.07
644.66	42.13
644.81	39.79
644.95	140.43
645.10	84.26
645.25	91.28
645.39	53.83
645.54	11.70
645.69	46.81
645.83	23.41
645.98	51.49
646.13	42.13
646.27	72.56
646.42	65.54
646.57	77.24
646.71	32.77
646.86	16.38
647.00	30.43
647.15	0.00
647.30	0.00
647.44	14.04
647.59	0.00
647.74	0.00
647.88	131.07
648.03	46.81
648.17	14.04
648.32	16.38
648.47	0.00
648.61	14.04
648.76	42.13
648.90	58.51
649.05	21.06
649.20	51.49
649.34	51.49
649.49	46.81
649.63	44.47
649.78	11.70
649.92	53.83
650.07	105.32
650.21	25.75
650.36	21.06
650.51	0.00
650.65	21.06
650.80	14.04
650.94	32.77
651.09	2.34
651.23	39.79
651.38	39.79
651.52	0.00
651.67	79.58
651.81	0.00
651.96	95.96
652.10	79.58
652.25	58.51
652.39	37.45
652.54	32.77
652.68	100.64
652.83	88.94
652.97	0.00
653.12	65.54
653.26	0.00
653.41	44.47
653.55	44.47
653.70	0.00
653.84	84.26
653.99	0.00
654.13	51.49
654.27	86.60
654.42	0.00
654.56	70.22
654.71	0.00
654.85	9.36
655.00	25.75
655.14	23.41
655.29	0.00
655.43	0.00
655.57	21.06
655.72	67.88
655.86	0.00
656.01	79.58
656.15	25.75
656.30	42.13
656.44	44.47
656.58	51.49
656.73	44.47
656.87	77.24
657.01	18.72
657.16	35.11
657.30	86.60
657.45	51.49
657.59	9.36
657.73	0.00
657.88	58.51
658.02	28.09
658.16	14.04
658.31	91.28
658.45	81.92
658.60	65.54
658.74	63.19
658.88	46.81
659.03	42.13
659.17	28.09
659.31	79.58
659.46	72.56
659.60	11.70
659.74	37.45
659.89	30.43
660.03	21.06
660.17	77.24
660.32	0.00
660.46	28.09
660.60	81.92
660.74	72.56
660.89	74.90
661.03	58.51
661.17	11.70
661.32	11.70
661.46	0.00
661.60	84.26
661.74	16.38
661.89	39.79
662.03	2.34
662.17	37.45
662.31	65.54
662.46	56.17
662.60	105.32
662.74	53.83
662.88	0.00
663.03	16.38
663.17	46.81
663.31	16.38
663.45	28.09
663.60	0.00
663.74	9.36
663.88	74.90
664.02	0.00
664.17	51.49
664.31	88.94
664.45	77.24
664.59	93.62
664.73	9.36
664.88	0.00
665.02	74.90
665.16	79.58
665.30	102.98
665.44	46.81
665.59	42.13
665.73	30.43
665.87	23.41
666.01	35.11
666.15	49.15
666.29	58.51
666.44	4.68
666.58	53.83
666.72	0.00
666.86	9.36
667.00	18.72
667.14	30.43
667.28	119.37
667.43	49.15
667.57	156.82
667.71	93.62
667.85	0.00
667.99	95.96
668.13	79.58
668.27	46.81
668.41	14.04
668.56	28.09
668.70	102.98
668.84	16.38
668.98	63.19
669.12	91.28
669.26	46.81
669.40	32.77
669.54	32.77
669.68	100.64
669.82	39.79
669.96	107.66
670.10	25.75
670.25	88.94
670.39	60.85
670.53	30.43
670.67	51.49
670.81	67.88
670.95	51.49
671.09	14.04
671.23	46.81
671.37	149.79
671.51	44.47
671.65	30.43
671.79	49.15
671.93	0.00
672.07	107.66
672.21	44.47
672.35	77.24
672.49	25.75
672.63	32.77
672.77	79.58
672.91	37.45
673.05	0.00
673.19	39.79
673.33	0.00
673.47	14.04
673.61	102.98
673.75	28.09
673.89	0.00
674.03	84.26
674.17	0.00
674.31	70.22
674.45	0.00
674.59	42.13
674.73	0.00
674.87	0.00
675.01	53.83
675.15	18.72
675.29	44.47
675.43	14.04
675.56	2.34
675.70	23.41
675.84	0.00
675.98	77.24
676.12	39.79
676.26	53.83
676.40	110.01
676.54	39.79
676.68	18.72
676.82	53.83
676.96	21.06
677.10	53.83
677.23	30.43
677.37	72.56
677.51	53.83
677.65	37.45
677.79	37.45
677.93	37.45
678.07	105.32
678.21	30.43
678.34	0.00
678.48	53.83
678.62	11.70
678.76	0.00
678.90	30.43
679.04	42.13
679.18	81.92
679.31	102.98
679.45	51.49
679.59	58.51
679.73	81.92
679.87	0.00
680.00	21.06
680.14	16.38
680.28	60.85
680.42	35.11
680.56	39.79
680.70	18.72
680.83	35.11
680.97	126.39
681.11	28.09
681.25	21.06
681.39	77.24
681.52	18.72
681.66	16.38
681.80	63.19
681.94	42.13
682.07	28.09
682.21	91.28
682.35	60.85
682.49	37.45
682.62	39.79
682.76	0.00
682.90	28.09
683.04	91.28
683.17	11.70
683.31	7.02
683.45	0.00
683.59	0.00
683.72	0.00
683.86	58.51
684.00	0.00
684.13	53.83
684.27	32.77
684.41	7.02
684.55	65.54
684.68	7.02
684.82	42.13
684.96	51.49
685.09	4.68
685.23	63.19
685.37	84.26
685.50	46.81
685.64	46.81
685.78	58.51
685.91	53.83
686.05	35.11
686.19	49.15
686.32	23.41
686.46	0.00
686.60	0.00
686.73	67.88
686.87	30.43
687.01	30.43
687.14	0.00
687.28	98.30
687.42	102.98
687.55	126.39
687.69	58.51
687.82	67.88
687.96	14.04
688.10	51.49
688.23	44.47
688.37	67.88
688.50	0.00
688.64	0.00
688.78	21.06
688.91	0.00
689.05	93.62
689.18	16.38
689.32	9.36
689.46	74.90
689.59	44.47
689.73	46.81
689.86	0.00
690.00	49.15
690.13	49.15
690.27	65.54
690.41	25.75
690.54	58.51
690.68	51.49
690.81	44.47
690.95	51.49
691.08	42.13
691.22	81.92
691.35	23.41
691.49	2.34
691.62	21.06
691.76	25.75
691.89	21.06
692.03	67.88
692.16	23.41
692.30	44.47
692.43	42.13
692.57	0.00
692.70	18.72
692.84	42.13
692.97	35.11
693.11	16.38
693.24	60.85
693.38	53.83
693.51	70.22
693.65	0.00
693.78	7.02
693.92	0.00
694.05	98.30
694.19	51.49
694.32	2.34
694.45	9.36
694.59	16.38
694.72	4.68
694.86	67.88
694.99	93.62
695.13	0.00
695.26	0.00
695.39	88.94
695.53	93.62
695.66	23.41
695.80	0.00
695.93	11.70
696.07	58.51
696.20	42.13
696.33	56.17
696.47	32.77
696.60	58.51
696.73	2.34
696.87	67.88
697.00	49.15
697.14	56.17
697.27	18.72
697.40	100.64
697.54	79.58
697.67	49.15
697.80	0.00
697.94	2.34
698.07	46.81
698.21	65.54
698.34	67.88
698.47	107.66
698.61	67.88
698.74	32.77
698.87	60.85
699.01	53.83
699.14	56.17
699.27	11.70
699.40	0.00
699.54	51.49
699.67	79.58
699.80	0.00
699.94	0.00
700.07	0.00
700.20	39.79
700.34	0.00
700.47	39.79
700.60	93.62
700.73	18.72
700.87	0.00
701.00	110.01
701.13	42.13
701.26	30.43
701.40	44.47
701.53	72.56
701.66	63.19
701.79	16.38
701.93	32.77
702.06	0.00
702.19	56.17
702.32	65.54
702.46	0.00
702.59	0.00
702.72	74.90
702.85	30.43
702.99	23.41
703.12	30.43
703.25	11.70
703.38	14.04
703.51	107.66
703.65	46.81
703.78	51.49
703.91	67.88
704.04	30.43
704.17	58.51
704.31	100.64
704.44	23.41
704.57	74.90
704.70	0.00
704.83	65.54
704.96	60.85
705.10	65.54
705.23	21.06
>>>>>End Processed Spectral Data<<<<<
