SpectraSuite Data File
++++++++++++++++++++++++++++++++++++
Date: Fri Oct 04 12:13:28 GMT-05:00 2013
User: price-jones
Dark Spectrum Present: No
Reference Spectrum Present: No
Number of Sampled Component Spectra: 1
Spectrometers: USB2+H05261
Integration Time (usec): 10000 (USB2+H05261)
Spectra Averaged: 1 (USB2+H05261)
Boxcar Smoothing: 0 (USB2+H05261)
Correct for Electrical Dark: No (USB2+H05261)
Strobe/Lamp Enabled: No (USB2+H05261)
Correct for Detector Non-linearity: No (USB2+H05261)
Correct for Stray Light: No (USB2+H05261)
Number of Pixels in Processed Spectrum: 2048
>>>>>Begin Processed Spectral Data<<<<<
365.73	0.00
365.92	0.00
366.12	0.00
366.32	0.00
366.52	0.00
366.72	0.00
366.91	0.00
367.11	0.00
367.31	0.00
367.51	0.00
367.70	0.00
367.90	0.00
368.10	0.00
368.30	0.00
368.49	0.00
368.69	0.00
368.89	0.00
369.09	0.00
369.28	0.00
369.48	0.00
369.68	0.00
369.87	0.00
370.07	58.51
370.27	0.00
370.47	0.00
370.66	4.68
370.86	0.00
371.06	0.00
371.25	0.00
371.45	0.00
371.65	0.00
371.84	0.00
372.04	21.06
372.24	0.00
372.44	35.11
372.63	56.17
372.83	110.01
373.03	0.00
373.22	0.00
373.42	60.85
373.62	0.00
373.81	0.00
374.01	0.00
374.21	42.13
374.40	63.19
374.60	35.11
374.79	0.00
374.99	51.49
375.19	7.02
375.38	7.02
375.58	23.41
375.78	32.77
375.97	72.56
376.17	2.34
376.37	51.49
376.56	84.26
376.76	49.15
376.95	14.04
377.15	37.45
377.35	21.06
377.54	0.00
377.74	81.92
377.93	14.04
378.13	63.19
378.33	35.11
378.52	0.00
378.72	46.81
378.91	77.24
379.11	46.81
379.31	53.83
379.50	72.56
379.70	23.41
379.89	39.79
380.09	58.51
380.28	0.00
380.48	16.38
380.68	0.00
380.87	79.58
381.07	0.00
381.26	0.00
381.46	102.98
381.65	86.60
381.85	0.00
382.04	0.00
382.24	81.92
382.43	60.85
382.63	0.00
382.83	21.06
383.02	0.00
383.22	56.17
383.41	0.00
383.61	9.36
383.80	21.06
384.00	16.38
384.19	11.70
384.39	2.34
384.58	7.02
384.78	0.00
384.97	81.92
385.17	11.70
385.36	53.83
385.56	0.00
385.75	11.70
385.95	0.00
386.14	0.00
386.34	0.00
386.53	0.00
386.72	35.11
386.92	42.13
387.11	32.77
387.31	37.45
387.50	42.13
387.70	7.02
387.89	16.38
388.09	74.90
388.28	23.41
388.48	46.81
388.67	63.19
388.86	74.90
389.06	46.81
389.25	0.00
389.45	28.09
389.64	0.00
389.84	32.77
390.03	35.11
390.22	25.75
390.42	119.37
390.61	0.00
390.81	42.13
391.00	14.04
391.19	65.54
391.39	4.68
391.58	11.70
391.78	30.43
391.97	84.26
392.16	23.41
392.36	0.00
392.55	110.01
392.75	21.06
392.94	0.00
393.13	67.88
393.33	18.72
393.52	70.22
393.71	35.11
393.91	51.49
394.10	37.45
394.29	39.79
394.49	18.72
394.68	35.11
394.88	67.88
395.07	49.15
395.26	16.38
395.46	0.00
395.65	11.70
395.84	14.04
396.04	0.00
396.23	37.45
396.42	0.00
396.62	0.00
396.81	23.41
397.00	25.75
397.19	35.11
397.39	11.70
397.58	35.11
397.77	0.00
397.97	35.11
398.16	30.43
398.35	42.13
398.55	58.51
398.74	0.00
398.93	72.56
399.12	21.06
399.32	39.79
399.51	25.75
399.70	37.45
399.90	0.00
400.09	0.00
400.28	79.58
400.47	58.51
400.67	14.04
400.86	0.00
401.05	0.00
401.24	7.02
401.44	77.24
401.63	46.81
401.82	93.62
402.01	18.72
402.21	0.00
402.40	0.00
402.59	51.49
402.78	110.01
402.97	30.43
403.17	23.41
403.36	9.36
403.55	58.51
403.74	37.45
403.93	0.00
404.13	0.00
404.32	21.06
404.51	9.36
404.70	0.00
404.89	93.62
405.09	81.92
405.28	72.56
405.47	7.02
405.66	0.00
405.85	16.38
406.05	0.00
406.24	14.04
406.43	81.92
406.62	7.02
406.81	7.02
407.00	0.00
407.20	0.00
407.39	131.07
407.58	21.06
407.77	2.34
407.96	0.00
408.15	0.00
408.34	30.43
408.54	16.38
408.73	21.06
408.92	0.00
409.11	0.00
409.30	77.24
409.49	51.49
409.68	51.49
409.87	79.58
410.07	72.56
410.26	30.43
410.45	51.49
410.64	21.06
410.83	56.17
411.02	16.38
411.21	0.00
411.40	0.00
411.59	0.00
411.78	0.00
411.98	35.11
412.17	16.38
412.36	39.79
412.55	0.00
412.74	9.36
412.93	4.68
413.12	56.17
413.31	25.75
413.50	0.00
413.69	4.68
413.88	0.00
414.07	65.54
414.26	0.00
414.45	0.00
414.64	0.00
414.83	0.00
415.02	138.09
415.22	44.47
415.41	49.15
415.60	37.45
415.79	21.06
415.98	32.77
416.17	0.00
416.36	28.09
416.55	44.47
416.74	25.75
416.93	44.47
417.12	53.83
417.31	46.81
417.50	28.09
417.69	56.17
417.88	37.45
418.07	65.54
418.26	2.34
418.45	74.90
418.64	30.43
418.83	32.77
419.02	25.75
419.21	4.68
419.39	4.68
419.58	49.15
419.77	37.45
419.96	0.00
420.15	35.11
420.34	58.51
420.53	53.83
420.72	32.77
420.91	81.92
421.10	35.11
421.29	63.19
421.48	46.81
421.67	0.00
421.86	35.11
422.05	0.00
422.24	0.00
422.43	70.22
422.61	30.43
422.80	58.51
422.99	114.69
423.18	100.64
423.37	32.77
423.56	56.17
423.75	39.79
423.94	0.00
424.13	35.11
424.32	23.41
424.50	9.36
424.69	16.38
424.88	42.13
425.07	67.88
425.26	37.45
425.45	18.72
425.64	0.00
425.83	9.36
426.01	42.13
426.20	58.51
426.39	0.00
426.58	32.77
426.77	37.45
426.96	32.77
427.15	39.79
427.33	0.00
427.52	21.06
427.71	67.88
427.90	4.68
428.09	0.00
428.28	0.00
428.46	0.00
428.65	7.02
428.84	30.43
429.03	72.56
429.22	105.32
429.40	51.49
429.59	56.17
429.78	51.49
429.97	79.58
430.16	30.43
430.34	0.00
430.53	0.00
430.72	65.54
430.91	0.00
431.10	67.88
431.28	35.11
431.47	114.69
431.66	60.85
431.85	14.04
432.03	35.11
432.22	53.83
432.41	65.54
432.60	72.56
432.79	0.00
432.97	11.70
433.16	0.00
433.35	4.68
433.54	49.15
433.72	4.68
433.91	23.41
434.10	0.00
434.28	88.94
434.47	11.70
434.66	44.47
434.85	67.88
435.03	21.06
435.22	0.00
435.41	0.00
435.59	0.00
435.78	86.60
435.97	81.92
436.16	37.45
436.34	18.72
436.53	72.56
436.72	58.51
436.90	23.41
437.09	0.00
437.28	25.75
437.46	70.22
437.65	0.00
437.84	16.38
438.02	4.68
438.21	51.49
438.40	51.49
438.58	4.68
438.77	53.83
438.96	30.43
439.14	49.15
439.33	53.83
439.52	9.36
439.70	79.58
439.89	49.15
440.08	67.88
440.26	42.13
440.45	0.00
440.63	0.00
440.82	14.04
441.01	0.00
441.19	0.00
441.38	23.41
441.57	16.38
441.75	44.47
441.94	51.49
442.12	23.41
442.31	49.15
442.50	0.00
442.68	42.13
442.87	79.58
443.05	51.49
443.24	72.56
443.43	65.54
443.61	30.43
443.80	14.04
443.98	0.00
444.17	0.00
444.35	56.17
444.54	72.56
444.73	93.62
444.91	37.45
445.10	28.09
445.28	39.79
445.47	11.70
445.65	32.77
445.84	0.00
446.02	49.15
446.21	23.41
446.39	0.00
446.58	4.68
446.77	18.72
446.95	112.35
447.14	28.09
447.32	49.15
447.51	77.24
447.69	72.56
447.88	9.36
448.06	65.54
448.25	51.49
448.43	28.09
448.62	0.00
448.80	0.00
448.99	0.00
449.17	21.06
449.36	81.92
449.54	0.00
449.73	56.17
449.91	46.81
450.10	14.04
450.28	39.79
450.46	0.00
450.65	46.81
450.83	74.90
451.02	0.00
451.20	7.02
451.39	0.00
451.57	18.72
451.76	25.75
451.94	23.41
452.13	16.38
452.31	0.00
452.49	30.43
452.68	0.00
452.86	81.92
453.05	51.49
453.23	0.00
453.42	42.13
453.60	0.00
453.78	49.15
453.97	16.38
454.15	63.19
454.34	0.00
454.52	46.81
454.70	44.47
454.89	63.19
455.07	0.00
455.26	11.70
455.44	105.32
455.62	16.38
455.81	81.92
455.99	44.47
456.17	0.00
456.36	46.81
456.54	42.13
456.73	0.00
456.91	0.00
457.09	32.77
457.28	51.49
457.46	28.09
457.64	23.41
457.83	0.00
458.01	0.00
458.19	72.56
458.38	0.00
458.56	0.00
458.74	72.56
458.93	0.00
459.11	7.02
459.29	28.09
459.48	0.00
459.66	7.02
459.84	42.13
460.03	86.60
460.21	53.83
460.39	16.38
460.57	0.00
460.76	58.51
460.94	14.04
461.12	21.06
461.31	70.22
461.49	60.85
461.67	95.96
461.85	77.24
462.04	70.22
462.22	107.66
462.40	0.00
462.59	72.56
462.77	91.28
462.95	37.45
463.13	0.00
463.32	53.83
463.50	0.00
463.68	0.00
463.86	0.00
464.05	25.75
464.23	63.19
464.41	42.13
464.59	58.51
464.78	46.81
464.96	0.00
465.14	7.02
465.32	14.04
465.50	32.77
465.69	25.75
465.87	14.04
466.05	4.68
466.23	72.56
466.41	84.26
466.60	39.79
466.78	53.83
466.96	53.83
467.14	30.43
467.32	119.37
467.51	0.00
467.69	79.58
467.87	81.92
468.05	46.81
468.23	0.00
468.41	0.00
468.60	56.17
468.78	0.00
468.96	0.00
469.14	0.00
469.32	30.43
469.50	77.24
469.69	65.54
469.87	112.35
470.05	39.79
470.23	35.11
470.41	49.15
470.59	60.85
470.77	30.43
470.95	30.43
471.14	0.00
471.32	2.34
471.50	74.90
471.68	0.00
471.86	93.62
472.04	30.43
472.22	2.34
472.40	18.72
472.58	11.70
472.77	53.83
472.95	14.04
473.13	4.68
473.31	37.45
473.49	70.22
473.67	16.38
473.85	128.73
474.03	18.72
474.21	4.68
474.39	18.72
474.57	65.54
474.75	0.00
474.93	49.15
475.12	0.00
475.30	49.15
475.48	49.15
475.66	0.00
475.84	37.45
476.02	37.45
476.20	102.98
476.38	37.45
476.56	0.00
476.74	0.00
476.92	49.15
477.10	30.43
477.28	37.45
477.46	65.54
477.64	93.62
477.82	74.90
478.00	18.72
478.18	0.00
478.36	14.04
478.54	2.34
478.72	25.75
478.90	84.26
479.08	77.24
479.26	58.51
479.44	74.90
479.62	65.54
479.80	28.09
479.98	65.54
480.16	72.56
480.34	74.90
480.52	30.43
480.70	60.85
480.88	25.75
481.06	28.09
481.24	44.47
481.41	49.15
481.59	9.36
481.77	0.00
481.95	32.77
482.13	0.00
482.31	7.02
482.49	67.88
482.67	77.24
482.85	51.49
483.03	28.09
483.21	25.75
483.39	0.00
483.57	11.70
483.74	32.77
483.92	46.81
484.10	9.36
484.28	30.43
484.46	72.56
484.64	63.19
484.82	74.90
485.00	70.22
485.18	23.41
485.35	51.49
485.53	0.00
485.71	14.04
485.89	2.34
486.07	0.00
486.25	0.00
486.43	46.81
486.61	67.88
486.78	44.47
486.96	72.56
487.14	0.00
487.32	58.51
487.50	37.45
487.68	37.45
487.85	46.81
488.03	39.79
488.21	35.11
488.39	2.34
488.57	95.96
488.75	60.85
488.92	9.36
489.10	25.75
489.28	44.47
489.46	63.19
489.64	0.00
489.81	28.09
489.99	56.17
490.17	25.75
490.35	9.36
490.53	16.38
490.70	21.06
490.88	23.41
491.06	28.09
491.24	58.51
491.41	44.47
491.59	74.90
491.77	37.45
491.95	16.38
492.13	16.38
492.30	65.54
492.48	140.43
492.66	9.36
492.84	77.24
493.01	18.72
493.19	119.37
493.37	100.64
493.54	46.81
493.72	35.11
493.90	65.54
494.08	0.00
494.25	0.00
494.43	46.81
494.61	77.24
494.79	28.09
494.96	25.75
495.14	65.54
495.32	18.72
495.49	65.54
495.67	72.56
495.85	4.68
496.02	32.77
496.20	0.00
496.38	0.00
496.55	25.75
496.73	0.00
496.91	63.19
497.09	147.45
497.26	91.28
497.44	39.79
497.62	23.41
497.79	25.75
497.97	11.70
498.14	37.45
498.32	46.81
498.50	0.00
498.67	91.28
498.85	46.81
499.03	63.19
499.20	88.94
499.38	42.13
499.56	100.64
499.73	79.58
499.91	65.54
500.08	39.79
500.26	0.00
500.44	84.26
500.61	0.00
500.79	0.00
500.97	0.00
501.14	49.15
501.32	28.09
501.49	7.02
501.67	2.34
501.84	25.75
502.02	11.70
502.20	65.54
502.37	53.83
502.55	58.51
502.72	23.41
502.90	70.22
503.07	14.04
503.25	63.19
503.43	11.70
503.60	0.00
503.78	44.47
503.95	72.56
504.13	28.09
504.30	30.43
504.48	39.79
504.65	79.58
504.83	74.90
505.01	46.81
505.18	49.15
505.36	49.15
505.53	0.00
505.71	23.41
505.88	81.92
506.06	58.51
506.23	60.85
506.41	63.19
506.58	39.79
506.76	110.01
506.93	74.90
507.11	58.51
507.28	86.60
507.46	35.11
507.63	67.88
507.81	49.15
507.98	81.92
508.16	84.26
508.33	0.00
508.50	39.79
508.68	37.45
508.85	46.81
509.03	9.36
509.20	65.54
509.38	0.00
509.55	112.35
509.73	81.92
509.90	65.54
510.08	51.49
510.25	30.43
510.42	56.17
510.60	21.06
510.77	44.47
510.95	30.43
511.12	39.79
511.30	2.34
511.47	44.47
511.64	44.47
511.82	16.38
511.99	0.00
512.17	0.00
512.34	0.00
512.51	53.83
512.69	39.79
512.86	154.48
513.04	70.22
513.21	37.45
513.38	37.45
513.56	25.75
513.73	0.00
513.90	81.92
514.08	46.81
514.25	100.64
514.43	72.56
514.60	86.60
514.77	86.60
514.95	60.85
515.12	0.00
515.29	58.51
515.47	86.60
515.64	0.00
515.81	70.22
515.99	32.77
516.16	0.00
516.33	67.88
516.51	0.00
516.68	0.00
516.85	0.00
517.03	30.43
517.20	35.11
517.37	28.09
517.54	65.54
517.72	79.58
517.89	2.34
518.06	0.00
518.24	102.98
518.41	53.83
518.58	9.36
518.75	46.81
518.93	72.56
519.10	7.02
519.27	119.37
519.45	0.00
519.62	67.88
519.79	51.49
519.96	72.56
520.14	49.15
520.31	0.00
520.48	58.51
520.65	28.09
520.83	100.64
521.00	0.00
521.17	39.79
521.34	63.19
521.52	138.09
521.69	86.60
521.86	56.17
522.03	37.45
522.20	124.05
522.38	49.15
522.55	110.01
522.72	23.41
522.89	7.02
523.07	0.00
523.24	63.19
523.41	49.15
523.58	0.00
523.75	107.66
523.92	74.90
524.10	42.13
524.27	23.41
524.44	60.85
524.61	16.38
524.78	65.54
524.96	79.58
525.13	0.00
525.30	18.72
525.47	72.56
525.64	39.79
525.81	49.15
525.98	51.49
526.16	23.41
526.33	0.00
526.50	56.17
526.67	18.72
526.84	72.56
527.01	37.45
527.18	77.24
527.36	23.41
527.53	0.00
527.70	72.56
527.87	63.19
528.04	46.81
528.21	28.09
528.38	16.38
528.55	102.98
528.72	51.49
528.89	0.00
529.07	44.47
529.24	67.88
529.41	51.49
529.58	0.00
529.75	46.81
529.92	37.45
530.09	0.00
530.26	14.04
530.43	84.26
530.60	4.68
530.77	93.62
530.94	4.68
531.11	39.79
531.28	60.85
531.46	128.73
531.63	11.70
531.80	11.70
531.97	81.92
532.14	46.81
532.31	70.22
532.48	91.28
532.65	28.09
532.82	37.45
532.99	28.09
533.16	74.90
533.33	35.11
533.50	63.19
533.67	53.83
533.84	72.56
534.01	49.15
534.18	30.43
534.35	58.51
534.52	58.51
534.69	67.88
534.86	72.56
535.03	37.45
535.20	0.00
535.37	0.00
535.54	42.13
535.71	70.22
535.88	35.11
536.05	0.00
536.22	37.45
536.38	0.00
536.55	46.81
536.72	32.77
536.89	28.09
537.06	93.62
537.23	42.13
537.40	95.96
537.57	14.04
537.74	0.00
537.91	16.38
538.08	39.79
538.25	25.75
538.42	35.11
538.59	30.43
538.75	16.38
538.92	2.34
539.09	42.13
539.26	77.24
539.43	49.15
539.60	119.37
539.77	121.71
539.94	170.86
540.11	152.13
540.28	65.54
540.44	88.94
540.61	77.24
540.78	39.79
540.95	37.45
541.12	32.77
541.29	0.00
541.46	100.64
541.62	53.83
541.79	35.11
541.96	7.02
542.13	93.62
542.30	81.92
542.47	51.49
542.63	67.88
542.80	21.06
542.97	9.36
543.14	0.00
543.31	42.13
543.48	14.04
543.64	18.72
543.81	0.00
543.98	44.47
544.15	0.00
544.32	0.00
544.48	105.32
544.65	49.15
544.82	18.72
544.99	42.13
545.16	25.75
545.32	63.19
545.49	11.70
545.66	37.45
545.83	21.06
546.00	23.41
546.16	23.41
546.33	0.00
546.50	23.41
546.67	2.34
546.83	35.11
547.00	56.17
547.17	39.79
547.34	0.00
547.50	77.24
547.67	18.72
547.84	0.00
548.00	30.43
548.17	53.83
548.34	0.00
548.51	84.26
548.67	79.58
548.84	65.54
549.01	23.41
549.18	0.00
549.34	18.72
549.51	18.72
549.68	28.09
549.84	63.19
550.01	32.77
550.18	39.79
550.34	39.79
550.51	0.00
550.68	32.77
550.84	0.00
551.01	25.75
551.18	65.54
551.34	60.85
551.51	7.02
551.68	11.70
551.84	14.04
552.01	16.38
552.18	98.30
552.34	70.22
552.51	84.26
552.68	44.47
552.84	65.54
553.01	100.64
553.18	35.11
553.34	21.06
553.51	65.54
553.67	0.00
553.84	74.90
554.01	42.13
554.17	32.77
554.34	30.43
554.51	11.70
554.67	4.68
554.84	67.88
555.00	67.88
555.17	67.88
555.33	46.81
555.50	37.45
555.67	63.19
555.83	9.36
556.00	37.45
556.16	18.72
556.33	0.00
556.50	0.00
556.66	16.38
556.83	65.54
556.99	0.00
557.16	0.00
557.32	0.00
557.49	77.24
557.65	49.15
557.82	25.75
557.98	102.98
558.15	25.75
558.32	86.60
558.48	49.15
558.65	30.43
558.81	58.51
558.98	98.30
559.14	110.01
559.31	65.54
559.47	16.38
559.64	0.00
559.80	93.62
559.97	84.26
560.13	0.00
560.30	91.28
560.46	44.47
560.63	0.00
560.79	42.13
560.96	0.00
561.12	35.11
561.29	14.04
561.45	0.00
561.61	0.00
561.78	98.30
561.94	112.35
562.11	21.06
562.27	77.24
562.44	0.00
562.60	37.45
562.77	72.56
562.93	46.81
563.10	0.00
563.26	77.24
563.42	0.00
563.59	30.43
563.75	56.17
563.92	32.77
564.08	51.49
564.24	72.56
564.41	18.72
564.57	30.43
564.74	110.01
564.90	18.72
565.07	49.15
565.23	117.03
565.39	79.58
565.56	107.66
565.72	4.68
565.88	42.13
566.05	74.90
566.21	79.58
566.38	67.88
566.54	9.36
566.70	39.79
566.87	124.05
567.03	0.00
567.19	58.51
567.36	7.02
567.52	53.83
567.68	11.70
567.85	79.58
568.01	65.54
568.17	28.09
568.34	60.85
568.50	39.79
568.66	93.62
568.83	105.32
568.99	37.45
569.15	7.02
569.32	23.41
569.48	44.47
569.64	60.85
569.81	77.24
569.97	53.83
570.13	0.00
570.30	53.83
570.46	0.00
570.62	23.41
570.78	65.54
570.95	42.13
571.11	0.00
571.27	23.41
571.43	46.81
571.60	39.79
571.76	42.13
571.92	0.00
572.09	53.83
572.25	0.00
572.41	58.51
572.57	28.09
572.74	0.00
572.90	51.49
573.06	0.00
573.22	42.13
573.38	0.00
573.55	88.94
573.71	49.15
573.87	11.70
574.03	35.11
574.20	23.41
574.36	72.56
574.52	25.75
574.68	49.15
574.84	51.49
575.01	58.51
575.17	49.15
575.33	28.09
575.49	9.36
575.65	14.04
575.82	39.79
575.98	51.49
576.14	142.77
576.30	105.32
576.46	156.82
576.62	0.00
576.79	53.83
576.95	25.75
577.11	18.72
577.27	0.00
577.43	79.58
577.59	28.09
577.75	44.47
577.92	0.00
578.08	86.60
578.24	11.70
578.40	44.47
578.56	44.47
578.72	46.81
578.88	107.66
579.04	60.85
579.21	30.43
579.37	0.00
579.53	67.88
579.69	25.75
579.85	49.15
580.01	91.28
580.17	67.88
580.33	70.22
580.49	42.13
580.65	7.02
580.82	53.83
580.98	16.38
581.14	39.79
581.30	16.38
581.46	35.11
581.62	39.79
581.78	121.71
581.94	72.56
582.10	39.79
582.26	65.54
582.42	77.24
582.58	58.51
582.74	91.28
582.90	53.83
583.06	84.26
583.22	93.62
583.38	46.81
583.54	88.94
583.70	44.47
583.86	154.48
584.02	74.90
584.18	128.73
584.34	177.88
584.50	444.70
584.66	2099.46
584.82	5467.49
584.98	7974.21
585.14	6869.47
585.30	4308.93
585.46	2705.66
585.62	1727.32
585.78	809.83
585.94	358.10
586.10	131.07
586.26	173.20
586.42	65.54
586.58	65.54
586.74	39.79
586.90	25.75
587.06	86.60
587.22	95.96
587.38	67.88
587.54	168.52
587.70	297.25
587.86	521.94
588.02	580.45
588.18	428.32
588.34	325.33
588.49	250.44
588.65	149.79
588.81	32.77
588.97	35.11
589.13	138.09
589.29	95.96
589.45	39.79
589.61	74.90
589.77	95.96
589.93	56.17
590.08	42.13
590.24	7.02
590.40	0.00
590.56	0.00
590.72	58.51
590.88	100.64
591.04	112.35
591.20	100.64
591.35	53.83
591.51	18.72
591.67	0.00
591.83	14.04
591.99	39.79
592.15	53.83
592.31	0.00
592.46	25.75
592.62	0.00
592.78	16.38
592.94	42.13
593.10	9.36
593.26	65.54
593.41	84.26
593.57	46.81
593.73	39.79
593.89	227.03
594.05	697.48
594.20	1029.84
594.36	994.73
594.52	627.26
594.68	416.62
594.84	287.89
594.99	224.69
595.15	126.39
595.31	46.81
595.47	105.32
595.62	53.83
595.78	16.38
595.94	35.11
596.10	0.00
596.25	49.15
596.41	70.22
596.57	0.00
596.73	30.43
596.88	131.07
597.04	196.60
597.20	210.65
597.36	243.42
597.51	194.26
597.67	131.07
597.83	86.60
597.99	35.11
598.14	18.72
598.30	18.72
598.46	11.70
598.61	0.00
598.77	72.56
598.93	58.51
599.09	51.49
599.24	51.49
599.40	42.13
599.56	0.00
599.71	72.56
599.87	65.54
600.03	35.11
600.18	0.00
600.34	60.85
600.50	25.75
600.65	42.13
600.81	91.28
600.97	67.88
601.12	60.85
601.28	42.13
601.44	2.34
601.59	159.16
601.75	35.11
601.91	25.75
602.06	23.41
602.22	21.06
602.37	135.75
602.53	170.86
602.69	210.65
602.84	322.99
603.00	241.08
603.16	128.73
603.31	58.51
603.47	16.38
603.62	72.56
603.78	56.17
603.94	53.83
604.09	142.77
604.25	42.13
604.40	56.17
604.56	58.51
604.71	23.41
604.87	32.77
605.03	0.00
605.18	58.51
605.34	23.41
605.49	35.11
605.65	56.17
605.80	25.75
605.96	77.24
606.12	49.15
606.27	46.81
606.43	18.72
606.58	30.43
606.74	117.03
606.89	332.36
607.05	704.50
607.20	954.94
607.36	709.18
607.51	540.66
607.67	351.08
607.82	212.99
607.98	163.84
608.13	49.15
608.29	79.58
608.44	32.77
608.60	37.45
608.75	72.56
608.91	147.45
609.06	543.00
609.22	1123.46
609.37	1455.81
609.53	1277.93
609.68	945.58
609.84	578.11
609.99	381.51
610.15	191.92
610.30	102.98
610.46	42.13
610.61	65.54
610.76	9.36
610.92	67.88
611.07	32.77
611.23	67.88
611.38	56.17
611.54	0.00
611.69	21.06
611.84	42.13
612.00	37.45
612.15	44.47
612.31	28.09
612.46	65.54
612.62	9.36
612.77	86.60
612.92	67.88
613.08	117.03
613.23	147.45
613.39	110.01
613.54	152.13
613.69	461.09
613.85	1458.15
614.00	2225.85
614.15	2354.58
614.31	1715.61
614.46	1142.18
614.62	805.14
614.77	500.87
614.92	220.01
615.08	46.81
615.23	53.83
615.38	98.30
615.54	79.58
615.69	156.82
615.84	301.93
616.00	538.32
616.15	627.26
616.30	547.69
616.46	402.57
616.61	278.52
616.76	187.24
616.92	145.11
617.07	0.00
617.22	4.68
617.37	4.68
617.53	72.56
617.68	9.36
617.83	21.06
617.99	39.79
618.14	0.00
618.29	60.85
618.45	0.00
618.60	119.37
618.75	42.13
618.90	25.75
619.06	63.19
619.21	25.75
619.36	18.72
619.51	84.26
619.67	25.75
619.82	46.81
619.97	0.00
620.12	0.00
620.28	39.79
620.43	42.13
620.58	49.15
620.73	56.17
620.89	152.13
621.04	65.54
621.19	124.05
621.34	297.25
621.49	379.17
621.65	318.31
621.80	262.14
621.95	131.07
622.10	105.32
622.25	88.94
622.41	81.92
622.56	0.00
622.71	67.88
622.86	4.68
623.01	37.45
623.16	44.47
623.32	58.51
623.47	60.85
623.62	18.72
623.77	79.58
623.92	0.00
624.07	105.32
624.23	28.09
624.38	56.17
624.53	77.24
624.68	102.98
624.83	2.34
624.98	7.02
625.13	28.09
625.29	58.51
625.44	60.85
625.59	16.38
625.74	18.72
625.89	56.17
626.04	290.23
626.19	685.78
626.34	1116.44
626.49	1240.48
626.65	933.87
626.80	622.58
626.95	374.49
627.10	285.55
627.25	119.37
627.40	135.75
627.55	70.22
627.70	58.51
627.85	11.70
628.00	42.13
628.15	65.54
628.30	28.09
628.45	30.43
628.60	18.72
628.76	0.00
628.91	49.15
629.06	0.00
629.21	56.17
629.36	11.70
629.51	0.00
629.66	63.19
629.81	44.47
629.96	145.11
630.11	259.80
630.26	358.10
630.41	278.52
630.56	222.35
630.71	180.22
630.86	173.20
631.01	60.85
631.16	30.43
631.31	58.51
631.46	32.77
631.61	0.00
631.76	79.58
631.91	70.22
632.06	39.79
632.21	21.06
632.36	58.51
632.51	63.19
632.66	70.22
632.81	135.75
632.96	407.25
633.10	704.50
633.25	898.77
633.40	720.88
633.55	524.28
633.70	322.99
633.85	234.05
634.00	105.32
634.15	70.22
634.30	65.54
634.45	32.77
634.60	44.47
634.75	0.00
634.90	39.79
635.05	72.56
635.19	0.00
635.34	28.09
635.49	60.85
635.64	39.79
635.79	11.70
635.94	72.56
636.09	0.00
636.24	25.75
636.39	18.72
636.53	25.75
636.68	86.60
636.83	0.00
636.98	98.30
637.13	32.77
637.28	70.22
637.43	84.26
637.57	114.69
637.72	313.63
637.87	898.77
638.02	1401.98
638.17	1544.75
638.32	1135.16
638.46	784.08
638.61	587.47
638.76	320.65
638.91	112.35
639.06	63.19
639.20	63.19
639.35	91.28
639.50	112.35
639.65	402.57
639.80	1275.59
639.94	2036.27
640.09	2312.45
640.24	1736.68
640.39	1144.52
640.54	800.46
640.68	526.62
640.83	205.97
640.98	149.79
641.13	58.51
641.27	67.88
641.42	30.43
641.57	65.54
641.72	60.85
641.86	102.98
642.01	53.83
642.16	11.70
642.31	0.00
642.45	46.81
642.60	65.54
642.75	77.24
642.90	46.81
643.04	32.77
643.19	23.41
643.34	63.19
643.48	86.60
643.63	44.47
643.78	25.75
643.93	7.02
644.07	0.00
644.22	21.06
644.37	81.92
644.51	7.02
644.66	102.98
644.81	65.54
644.95	32.77
645.10	81.92
645.25	88.94
645.39	84.26
645.54	14.04
645.69	9.36
645.83	30.43
645.98	51.49
646.13	135.75
646.27	119.37
646.42	35.11
646.57	79.58
646.71	0.00
646.86	53.83
647.00	0.00
647.15	79.58
647.30	4.68
647.44	25.75
647.59	14.04
647.74	49.15
647.88	4.68
648.03	16.38
648.17	74.90
648.32	32.77
648.47	84.26
648.61	77.24
648.76	0.00
648.90	67.88
649.05	95.96
649.20	23.41
649.34	58.51
649.49	0.00
649.63	42.13
649.78	63.19
649.92	51.49
650.07	145.11
650.21	624.92
650.36	1022.81
650.51	1203.04
650.65	992.39
650.80	720.88
650.94	514.92
651.09	365.12
651.23	168.52
651.38	74.90
651.52	86.60
651.67	0.00
651.81	65.54
651.96	4.68
652.10	30.43
652.25	0.00
652.39	0.00
652.54	0.00
652.68	159.16
652.83	180.22
652.97	372.15
653.12	468.11
653.26	425.98
653.41	287.89
653.55	175.54
653.70	128.73
653.84	102.98
653.99	100.64
654.13	63.19
654.27	42.13
654.42	14.04
654.56	4.68
654.71	4.68
654.85	39.79
655.00	9.36
655.14	72.56
655.29	70.22
655.43	110.01
655.57	42.13
655.72	84.26
655.86	74.90
656.01	0.00
656.15	14.04
656.30	21.06
656.44	63.19
656.58	131.07
656.73	9.36
656.87	32.77
657.01	39.79
657.16	84.26
657.30	51.49
657.45	25.75
657.59	32.77
657.73	0.00
657.88	7.02
658.02	56.17
658.16	30.43
658.31	56.17
658.45	42.13
658.60	77.24
658.74	51.49
658.88	81.92
659.03	0.00
659.17	44.47
659.31	128.73
659.46	236.39
659.60	528.96
659.74	678.76
659.89	587.47
660.03	369.80
660.17	337.04
660.32	187.24
660.46	72.56
660.60	49.15
660.74	110.01
660.89	58.51
661.03	131.07
661.17	60.85
661.32	4.68
661.46	81.92
661.60	0.00
661.74	0.00
661.89	74.90
662.03	7.02
662.17	42.13
662.31	49.15
662.46	0.00
662.60	102.98
662.74	72.56
662.88	0.00
663.03	100.64
663.17	65.54
663.31	18.72
663.45	117.03
663.60	51.49
663.74	28.09
663.88	30.43
664.02	21.06
664.17	9.36
664.31	72.56
664.45	100.64
664.59	0.00
664.73	44.47
664.88	86.60
665.02	23.41
665.16	72.56
665.30	60.85
665.44	58.51
665.59	70.22
665.73	23.41
665.87	0.00
666.01	77.24
666.15	0.00
666.29	0.00
666.44	21.06
666.58	4.68
666.72	0.00
666.86	63.19
667.00	39.79
667.14	86.60
667.28	166.18
667.43	545.34
667.57	889.40
667.71	1060.26
667.85	861.32
667.99	725.57
668.13	430.66
668.27	327.68
668.41	147.45
668.56	147.45
668.70	49.15
668.84	42.13
668.98	0.00
669.12	0.00
669.26	0.00
669.40	44.47
669.54	42.13
669.68	28.09
669.82	0.00
669.96	0.00
670.10	25.75
670.25	0.00
670.39	121.71
670.53	49.15
670.67	63.19
670.81	58.51
670.95	121.71
671.09	100.64
671.23	107.66
671.37	421.30
671.51	608.54
671.65	645.99
671.79	528.96
671.93	395.55
672.07	128.73
672.21	67.88
672.35	140.43
672.49	56.17
672.63	0.00
672.77	2.34
672.91	0.00
673.05	0.00
673.19	42.13
673.33	63.19
673.47	11.70
673.61	93.62
673.75	16.38
673.89	18.72
674.03	21.06
674.17	2.34
674.31	53.83
674.45	42.13
674.59	18.72
674.73	16.38
674.87	70.22
675.01	93.62
675.15	67.88
675.29	70.22
675.43	0.00
675.56	0.00
675.70	86.60
675.84	9.36
675.98	25.75
676.12	49.15
676.26	56.17
676.40	70.22
676.54	93.62
676.68	0.00
676.82	49.15
676.96	0.00
677.10	30.43
677.23	91.28
677.37	107.66
677.51	0.00
677.65	65.54
677.79	0.00
677.93	39.79
678.07	0.00
678.21	39.79
678.34	2.34
678.48	0.00
678.62	86.60
678.76	93.62
678.90	60.85
679.04	65.54
679.18	16.38
679.31	4.68
679.45	35.11
679.59	28.09
679.73	14.04
679.87	44.47
680.00	37.45
680.14	49.15
680.28	0.00
680.42	51.49
680.56	58.51
680.70	0.00
680.83	60.85
680.97	0.00
681.11	21.06
681.25	56.17
681.39	53.83
681.52	124.05
681.66	81.92
681.80	58.51
681.94	0.00
682.07	42.13
682.21	0.00
682.35	0.00
682.49	56.17
682.62	86.60
682.76	25.75
682.90	14.04
683.04	67.88
683.17	2.34
683.31	21.06
683.45	4.68
683.59	30.43
683.72	0.00
683.86	28.09
684.00	30.43
684.13	65.54
684.27	63.19
684.41	35.11
684.55	53.83
684.68	0.00
684.82	9.36
684.96	9.36
685.09	23.41
685.23	77.24
685.37	51.49
685.50	51.49
685.64	56.17
685.78	44.47
685.91	0.00
686.05	0.00
686.19	0.00
686.32	74.90
686.46	95.96
686.60	74.90
686.73	18.72
686.87	4.68
687.01	58.51
687.14	65.54
687.28	79.58
687.42	9.36
687.55	0.00
687.69	53.83
687.82	39.79
687.96	0.00
688.10	56.17
688.23	0.00
688.37	102.98
688.50	56.17
688.64	84.26
688.78	28.09
688.91	18.72
689.05	0.00
689.18	16.38
689.32	81.92
689.46	93.62
689.59	0.00
689.73	23.41
689.86	18.72
690.00	42.13
690.13	0.00
690.27	65.54
690.41	11.70
690.54	37.45
690.68	0.00
690.81	95.96
690.95	42.13
691.08	37.45
691.22	44.47
691.35	77.24
691.49	11.70
691.62	23.41
691.76	11.70
691.89	56.17
692.03	30.43
692.16	16.38
692.30	32.77
692.43	44.47
692.57	191.92
692.70	346.40
692.84	479.81
692.97	498.53
693.11	374.49
693.24	266.82
693.38	133.41
693.51	74.90
693.65	88.94
693.78	51.49
693.92	42.13
694.05	2.34
694.19	65.54
694.32	11.70
694.45	0.00
694.59	56.17
694.72	4.68
694.86	42.13
694.99	77.24
695.13	18.72
695.26	28.09
695.39	49.15
695.53	0.00
695.66	65.54
695.80	37.45
695.93	56.17
696.07	2.34
696.20	86.60
696.33	74.90
696.47	70.22
696.60	79.58
696.73	0.00
696.87	46.81
697.00	70.22
697.14	23.41
697.27	56.17
697.40	0.00
697.54	16.38
697.67	0.00
697.80	23.41
697.94	21.06
698.07	58.51
698.21	88.94
698.34	32.77
698.47	28.09
698.61	86.60
698.74	25.75
698.87	44.47
699.01	21.06
699.14	53.83
699.27	35.11
699.40	77.24
699.54	4.68
699.67	0.00
699.80	0.00
699.94	0.00
700.07	23.41
700.20	42.13
700.34	100.64
700.47	0.00
700.60	21.06
700.73	102.98
700.87	32.77
701.00	44.47
701.13	0.00
701.26	28.09
701.40	63.19
701.53	30.43
701.66	23.41
701.79	84.26
701.93	53.83
702.06	28.09
702.19	70.22
702.32	53.83
702.46	65.54
702.59	21.06
702.72	112.35
702.85	255.12
702.99	610.88
703.12	856.64
703.25	1008.77
703.38	737.27
703.51	561.73
703.65	526.62
703.78	416.62
703.91	194.26
704.04	163.84
704.17	70.22
704.31	56.17
704.44	37.45
704.57	53.83
704.70	65.54
704.83	119.37
704.96	0.00
705.10	39.79
705.23	0.00
>>>>>End Processed Spectral Data<<<<<
