SpectraSuite Data File
++++++++++++++++++++++++++++++++++++
Date: Fri Oct 04 12:13:45 GMT-05:00 2013
User: price-jones
Dark Spectrum Present: No
Reference Spectrum Present: No
Number of Sampled Component Spectra: 1
Spectrometers: USB2+H05261
Integration Time (usec): 10000 (USB2+H05261)
Spectra Averaged: 1 (USB2+H05261)
Boxcar Smoothing: 0 (USB2+H05261)
Correct for Electrical Dark: No (USB2+H05261)
Strobe/Lamp Enabled: No (USB2+H05261)
Correct for Detector Non-linearity: No (USB2+H05261)
Correct for Stray Light: No (USB2+H05261)
Number of Pixels in Processed Spectrum: 2048
>>>>>Begin Processed Spectral Data<<<<<
365.73	18.72
365.92	18.72
366.12	18.72
366.32	0.00
366.52	0.00
366.72	0.00
366.91	0.00
367.11	0.00
367.31	0.00
367.51	0.00
367.70	0.00
367.90	0.00
368.10	0.00
368.30	0.00
368.49	0.00
368.69	0.00
368.89	0.00
369.09	0.00
369.28	0.00
369.48	0.00
369.68	0.00
369.87	0.00
370.07	0.00
370.27	0.00
370.47	0.00
370.66	0.00
370.86	0.00
371.06	0.00
371.25	0.00
371.45	9.36
371.65	0.00
371.84	0.00
372.04	0.00
372.24	0.00
372.44	0.00
372.63	0.00
372.83	21.06
373.03	39.79
373.22	53.83
373.42	37.45
373.62	14.04
373.81	65.54
374.01	0.00
374.21	0.00
374.40	21.06
374.60	77.24
374.79	18.72
374.99	42.13
375.19	86.60
375.38	0.00
375.58	32.77
375.78	51.49
375.97	25.75
376.17	39.79
376.37	56.17
376.56	35.11
376.76	53.83
376.95	37.45
377.15	49.15
377.35	25.75
377.54	39.79
377.74	2.34
377.93	42.13
378.13	14.04
378.33	23.41
378.52	28.09
378.72	42.13
378.91	21.06
379.11	7.02
379.31	11.70
379.50	16.38
379.70	18.72
379.89	0.00
380.09	7.02
380.28	0.00
380.48	0.00
380.68	37.45
380.87	16.38
381.07	32.77
381.26	0.00
381.46	18.72
381.65	63.19
381.85	4.68
382.04	32.77
382.24	44.47
382.43	0.00
382.63	42.13
382.83	7.02
383.02	4.68
383.22	25.75
383.41	32.77
383.61	0.00
383.80	65.54
384.00	35.11
384.19	14.04
384.39	4.68
384.58	23.41
384.78	0.00
384.97	11.70
385.17	23.41
385.36	23.41
385.56	65.54
385.75	49.15
385.95	0.00
386.14	51.49
386.34	81.92
386.53	42.13
386.72	0.00
386.92	14.04
387.11	30.43
387.31	37.45
387.50	9.36
387.70	0.00
387.89	46.81
388.09	0.00
388.28	0.00
388.48	14.04
388.67	37.45
388.86	35.11
389.06	37.45
389.25	0.00
389.45	0.00
389.64	42.13
389.84	18.72
390.03	0.00
390.22	2.34
390.42	0.00
390.61	0.00
390.81	0.00
391.00	86.60
391.19	0.00
391.39	42.13
391.58	11.70
391.78	4.68
391.97	39.79
392.16	42.13
392.36	30.43
392.55	74.90
392.75	105.32
392.94	35.11
393.13	91.28
393.33	2.34
393.52	51.49
393.71	9.36
393.91	30.43
394.10	42.13
394.29	9.36
394.49	7.02
394.68	39.79
394.88	30.43
395.07	0.00
395.26	46.81
395.46	51.49
395.65	4.68
395.84	0.00
396.04	60.85
396.23	0.00
396.42	79.58
396.62	14.04
396.81	0.00
397.00	0.00
397.19	0.00
397.39	37.45
397.58	37.45
397.77	0.00
397.97	23.41
398.16	0.00
398.35	86.60
398.55	53.83
398.74	0.00
398.93	53.83
399.12	37.45
399.32	65.54
399.51	9.36
399.70	70.22
399.90	100.64
400.09	0.00
400.28	98.30
400.47	0.00
400.67	0.00
400.86	53.83
401.05	23.41
401.24	7.02
401.44	14.04
401.63	0.00
401.82	30.43
402.01	42.13
402.21	79.58
402.40	53.83
402.59	58.51
402.78	63.19
402.97	46.81
403.17	11.70
403.36	32.77
403.55	0.00
403.74	0.00
403.93	0.00
404.13	0.00
404.32	53.83
404.51	67.88
404.70	14.04
404.89	4.68
405.09	4.68
405.28	63.19
405.47	44.47
405.66	0.00
405.85	11.70
406.05	0.00
406.24	14.04
406.43	35.11
406.62	25.75
406.81	9.36
407.00	14.04
407.20	100.64
407.39	86.60
407.58	46.81
407.77	49.15
407.96	0.00
408.15	0.00
408.34	0.00
408.54	18.72
408.73	39.79
408.92	39.79
409.11	51.49
409.30	16.38
409.49	56.17
409.68	23.41
409.87	0.00
410.07	0.00
410.26	28.09
410.45	0.00
410.64	37.45
410.83	44.47
411.02	16.38
411.21	14.04
411.40	0.00
411.59	21.06
411.78	7.02
411.98	72.56
412.17	86.60
412.36	53.83
412.55	39.79
412.74	28.09
412.93	23.41
413.12	18.72
413.31	28.09
413.50	28.09
413.69	0.00
413.88	49.15
414.07	67.88
414.26	28.09
414.45	65.54
414.64	35.11
414.83	145.11
415.02	0.00
415.22	0.00
415.41	37.45
415.60	30.43
415.79	0.00
415.98	18.72
416.17	124.05
416.36	53.83
416.55	0.00
416.74	39.79
416.93	14.04
417.12	25.75
417.31	30.43
417.50	0.00
417.69	100.64
417.88	0.00
418.07	0.00
418.26	93.62
418.45	16.38
418.64	46.81
418.83	58.51
419.02	35.11
419.21	0.00
419.39	0.00
419.58	77.24
419.77	42.13
419.96	0.00
420.15	0.00
420.34	53.83
420.53	70.22
420.72	58.51
420.91	0.00
421.10	16.38
421.29	0.00
421.48	9.36
421.67	65.54
421.86	11.70
422.05	25.75
422.24	35.11
422.43	30.43
422.61	0.00
422.80	2.34
422.99	65.54
423.18	42.13
423.37	0.00
423.56	0.00
423.75	67.88
423.94	35.11
424.13	0.00
424.32	9.36
424.50	0.00
424.69	32.77
424.88	72.56
425.07	37.45
425.26	0.00
425.45	7.02
425.64	9.36
425.83	65.54
426.01	79.58
426.20	0.00
426.39	28.09
426.58	16.38
426.77	79.58
426.96	14.04
427.15	25.75
427.33	0.00
427.52	18.72
427.71	0.00
427.90	16.38
428.09	21.06
428.28	67.88
428.46	32.77
428.65	0.00
428.84	4.68
429.03	0.00
429.22	0.00
429.40	16.38
429.59	44.47
429.78	56.17
429.97	23.41
430.16	0.00
430.34	49.15
430.53	18.72
430.72	28.09
430.91	0.00
431.10	51.49
431.28	46.81
431.47	84.26
431.66	53.83
431.85	4.68
432.03	46.81
432.22	28.09
432.41	4.68
432.60	0.00
432.79	49.15
432.97	0.00
433.16	18.72
433.35	32.77
433.54	30.43
433.72	21.06
433.91	39.79
434.10	0.00
434.28	91.28
434.47	0.00
434.66	0.00
434.85	0.00
435.03	56.17
435.22	51.49
435.41	0.00
435.59	11.70
435.78	0.00
435.97	0.00
436.16	7.02
436.34	32.77
436.53	112.35
436.72	93.62
436.90	65.54
437.09	0.00
437.28	21.06
437.46	53.83
437.65	46.81
437.84	46.81
438.02	23.41
438.21	74.90
438.40	37.45
438.58	0.00
438.77	67.88
438.96	51.49
439.14	44.47
439.33	105.32
439.52	0.00
439.70	28.09
439.89	58.51
440.08	42.13
440.26	2.34
440.45	67.88
440.63	28.09
440.82	67.88
441.01	70.22
441.19	2.34
441.38	53.83
441.57	70.22
441.75	84.26
441.94	16.38
442.12	49.15
442.31	58.51
442.50	14.04
442.68	28.09
442.87	49.15
443.05	32.77
443.24	18.72
443.43	9.36
443.61	100.64
443.80	46.81
443.98	9.36
444.17	77.24
444.35	0.00
444.54	86.60
444.73	32.77
444.91	58.51
445.10	67.88
445.28	79.58
445.47	0.00
445.65	39.79
445.84	16.38
446.02	0.00
446.21	81.92
446.39	39.79
446.58	0.00
446.77	72.56
446.95	53.83
447.14	60.85
447.32	49.15
447.51	42.13
447.69	0.00
447.88	28.09
448.06	67.88
448.25	35.11
448.43	67.88
448.62	2.34
448.80	0.00
448.99	23.41
449.17	35.11
449.36	58.51
449.54	84.26
449.73	81.92
449.91	30.43
450.10	4.68
450.28	119.37
450.46	0.00
450.65	32.77
450.83	46.81
451.02	0.00
451.20	0.00
451.39	42.13
451.57	0.00
451.76	65.54
451.94	51.49
452.13	0.00
452.31	67.88
452.49	0.00
452.68	53.83
452.86	0.00
453.05	46.81
453.23	0.00
453.42	86.60
453.60	0.00
453.78	25.75
453.97	128.73
454.15	60.85
454.34	42.13
454.52	63.19
454.70	84.26
454.89	21.06
455.07	37.45
455.26	11.70
455.44	51.49
455.62	32.77
455.81	0.00
455.99	0.00
456.17	46.81
456.36	98.30
456.54	7.02
456.73	44.47
456.91	28.09
457.09	0.00
457.28	0.00
457.46	16.38
457.64	9.36
457.83	100.64
458.01	32.77
458.19	4.68
458.38	9.36
458.56	42.13
458.74	70.22
458.93	44.47
459.11	28.09
459.29	42.13
459.48	4.68
459.66	67.88
459.84	63.19
460.03	81.92
460.21	11.70
460.39	35.11
460.57	0.00
460.76	23.41
460.94	79.58
461.12	46.81
461.31	32.77
461.49	0.00
461.67	51.49
461.85	117.03
462.04	51.49
462.22	86.60
462.40	39.79
462.59	91.28
462.77	51.49
462.95	14.04
463.13	93.62
463.32	11.70
463.50	16.38
463.68	126.39
463.86	58.51
464.05	0.00
464.23	35.11
464.41	0.00
464.59	93.62
464.78	60.85
464.96	32.77
465.14	30.43
465.32	14.04
465.50	58.51
465.69	74.90
465.87	72.56
466.05	81.92
466.23	42.13
466.41	0.00
466.60	44.47
466.78	9.36
466.96	53.83
467.14	32.77
467.32	44.47
467.51	39.79
467.69	32.77
467.87	11.70
468.05	46.81
468.23	4.68
468.41	32.77
468.60	25.75
468.78	81.92
468.96	11.70
469.14	28.09
469.32	28.09
469.50	0.00
469.69	77.24
469.87	11.70
470.05	53.83
470.23	77.24
470.41	37.45
470.59	4.68
470.77	7.02
470.95	56.17
471.14	32.77
471.32	72.56
471.50	32.77
471.68	11.70
471.86	0.00
472.04	0.00
472.22	14.04
472.40	28.09
472.58	56.17
472.77	49.15
472.95	51.49
473.13	30.43
473.31	63.19
473.49	0.00
473.67	42.13
473.85	53.83
474.03	37.45
474.21	60.85
474.39	46.81
474.57	107.66
474.75	18.72
474.93	0.00
475.12	107.66
475.30	37.45
475.48	0.00
475.66	25.75
475.84	28.09
476.02	74.90
476.20	9.36
476.38	49.15
476.56	32.77
476.74	110.01
476.92	7.02
477.10	0.00
477.28	49.15
477.46	51.49
477.64	18.72
477.82	0.00
478.00	16.38
478.18	4.68
478.36	49.15
478.54	30.43
478.72	98.30
478.90	56.17
479.08	58.51
479.26	63.19
479.44	18.72
479.62	65.54
479.80	30.43
479.98	0.00
480.16	28.09
480.34	0.00
480.52	74.90
480.70	88.94
480.88	53.83
481.06	18.72
481.24	42.13
481.41	28.09
481.59	60.85
481.77	79.58
481.95	7.02
482.13	18.72
482.31	0.00
482.49	25.75
482.67	39.79
482.85	79.58
483.03	72.56
483.21	28.09
483.39	30.43
483.57	67.88
483.74	58.51
483.92	11.70
484.10	35.11
484.28	72.56
484.46	14.04
484.64	0.00
484.82	9.36
485.00	14.04
485.18	79.58
485.35	67.88
485.53	56.17
485.71	21.06
485.89	91.28
486.07	65.54
486.25	91.28
486.43	39.79
486.61	39.79
486.78	23.41
486.96	86.60
487.14	21.06
487.32	0.00
487.50	58.51
487.68	110.01
487.85	49.15
488.03	28.09
488.21	16.38
488.39	16.38
488.57	91.28
488.75	28.09
488.92	60.85
489.10	93.62
489.28	9.36
489.46	60.85
489.64	46.81
489.81	28.09
489.99	0.00
490.17	74.90
490.35	9.36
490.53	95.96
490.70	46.81
490.88	72.56
491.06	39.79
491.24	63.19
491.41	63.19
491.59	42.13
491.77	2.34
491.95	117.03
492.13	84.26
492.30	37.45
492.48	0.00
492.66	16.38
492.84	0.00
493.01	0.00
493.19	37.45
493.37	88.94
493.54	65.54
493.72	30.43
493.90	51.49
494.08	4.68
494.25	49.15
494.43	25.75
494.61	65.54
494.79	0.00
494.96	0.00
495.14	70.22
495.32	7.02
495.49	0.00
495.67	35.11
495.85	0.00
496.02	72.56
496.20	42.13
496.38	14.04
496.55	32.77
496.73	23.41
496.91	32.77
497.09	53.83
497.26	88.94
497.44	128.73
497.62	84.26
497.79	56.17
497.97	0.00
498.14	51.49
498.32	128.73
498.50	56.17
498.67	0.00
498.85	11.70
499.03	77.24
499.20	30.43
499.38	0.00
499.56	14.04
499.73	9.36
499.91	91.28
500.08	16.38
500.26	0.00
500.44	28.09
500.61	0.00
500.79	37.45
500.97	35.11
501.14	14.04
501.32	65.54
501.49	46.81
501.67	56.17
501.84	74.90
502.02	4.68
502.20	49.15
502.37	0.00
502.55	7.02
502.72	70.22
502.90	37.45
503.07	16.38
503.25	67.88
503.43	88.94
503.60	28.09
503.78	14.04
503.95	60.85
504.13	72.56
504.30	49.15
504.48	93.62
504.65	72.56
504.83	98.30
505.01	77.24
505.18	110.01
505.36	25.75
505.53	25.75
505.71	102.98
505.88	23.41
506.06	28.09
506.23	32.77
506.41	131.07
506.58	72.56
506.76	56.17
506.93	39.79
507.11	7.02
507.28	35.11
507.46	49.15
507.63	9.36
507.81	32.77
507.98	81.92
508.16	32.77
508.33	37.45
508.50	37.45
508.68	63.19
508.85	65.54
509.03	28.09
509.20	74.90
509.38	53.83
509.55	63.19
509.73	35.11
509.90	0.00
510.08	28.09
510.25	117.03
510.42	102.98
510.60	56.17
510.77	0.00
510.95	95.96
511.12	81.92
511.30	63.19
511.47	37.45
511.64	35.11
511.82	39.79
511.99	11.70
512.17	21.06
512.34	23.41
512.51	30.43
512.69	42.13
512.86	0.00
513.04	35.11
513.21	39.79
513.38	70.22
513.56	2.34
513.73	44.47
513.90	42.13
514.08	28.09
514.25	0.00
514.43	21.06
514.60	70.22
514.77	93.62
514.95	30.43
515.12	18.72
515.29	95.96
515.47	14.04
515.64	9.36
515.81	51.49
515.99	60.85
516.16	53.83
516.33	51.49
516.51	117.03
516.68	65.54
516.85	7.02
517.03	49.15
517.20	39.79
517.37	44.47
517.54	56.17
517.72	37.45
517.89	32.77
518.06	58.51
518.24	37.45
518.41	0.00
518.58	81.92
518.75	9.36
518.93	67.88
519.10	0.00
519.27	86.60
519.45	51.49
519.62	63.19
519.79	98.30
519.96	112.35
520.14	56.17
520.31	51.49
520.48	98.30
520.65	70.22
520.83	37.45
521.00	7.02
521.17	2.34
521.34	0.00
521.52	14.04
521.69	46.81
521.86	53.83
522.03	79.58
522.20	30.43
522.38	53.83
522.55	37.45
522.72	0.00
522.89	35.11
523.07	81.92
523.24	39.79
523.41	67.88
523.58	14.04
523.75	44.47
523.92	0.00
524.10	74.90
524.27	35.11
524.44	60.85
524.61	70.22
524.78	56.17
524.96	58.51
525.13	105.32
525.30	86.60
525.47	56.17
525.64	93.62
525.81	67.88
525.98	107.66
526.16	25.75
526.33	72.56
526.50	67.88
526.67	79.58
526.84	37.45
527.01	95.96
527.18	39.79
527.36	23.41
527.53	0.00
527.70	42.13
527.87	110.01
528.04	4.68
528.21	86.60
528.38	126.39
528.55	98.30
528.72	58.51
528.89	81.92
529.07	63.19
529.24	91.28
529.41	121.71
529.58	23.41
529.75	0.00
529.92	93.62
530.09	37.45
530.26	77.24
530.43	35.11
530.60	91.28
530.77	53.83
530.94	112.35
531.11	39.79
531.28	65.54
531.46	79.58
531.63	0.00
531.80	60.85
531.97	67.88
532.14	56.17
532.31	49.15
532.48	63.19
532.65	67.88
532.82	100.64
532.99	42.13
533.16	14.04
533.33	18.72
533.50	74.90
533.67	25.75
533.84	21.06
534.01	63.19
534.18	30.43
534.35	102.98
534.52	131.07
534.69	93.62
534.86	21.06
535.03	58.51
535.20	84.26
535.37	46.81
535.54	46.81
535.71	72.56
535.88	63.19
536.05	0.00
536.22	56.17
536.38	67.88
536.55	28.09
536.72	32.77
536.89	39.79
537.06	56.17
537.23	28.09
537.40	44.47
537.57	0.00
537.74	81.92
537.91	126.39
538.08	37.45
538.25	63.19
538.42	72.56
538.59	44.47
538.75	32.77
538.92	67.88
539.09	23.41
539.26	30.43
539.43	39.79
539.60	51.49
539.77	37.45
539.94	70.22
540.11	42.13
540.28	49.15
540.44	91.28
540.61	0.00
540.78	0.00
540.95	79.58
541.12	49.15
541.29	32.77
541.46	79.58
541.62	63.19
541.79	0.00
541.96	114.69
542.13	128.73
542.30	44.47
542.47	53.83
542.63	14.04
542.80	91.28
542.97	51.49
543.14	37.45
543.31	7.02
543.48	79.58
543.64	98.30
543.81	0.00
543.98	0.00
544.15	86.60
544.32	25.75
544.48	74.90
544.65	65.54
544.82	84.26
544.99	154.48
545.16	100.64
545.32	58.51
545.49	53.83
545.66	110.01
545.83	121.71
546.00	91.28
546.16	105.32
546.33	81.92
546.50	37.45
546.67	70.22
546.83	70.22
547.00	18.72
547.17	67.88
547.34	0.00
547.50	53.83
547.67	0.00
547.84	84.26
548.00	23.41
548.17	44.47
548.34	0.00
548.51	28.09
548.67	74.90
548.84	0.00
549.01	16.38
549.18	28.09
549.34	32.77
549.51	114.69
549.68	35.11
549.84	18.72
550.01	39.79
550.18	53.83
550.34	49.15
550.51	140.43
550.68	42.13
550.84	0.00
551.01	39.79
551.18	56.17
551.34	21.06
551.51	28.09
551.68	18.72
551.84	117.03
552.01	63.19
552.18	39.79
552.34	32.77
552.51	11.70
552.68	88.94
552.84	100.64
553.01	0.00
553.18	21.06
553.34	72.56
553.51	49.15
553.67	105.32
553.84	56.17
554.01	14.04
554.17	0.00
554.34	37.45
554.51	16.38
554.67	49.15
554.84	37.45
555.00	88.94
555.17	86.60
555.33	28.09
555.50	60.85
555.67	0.00
555.83	16.38
556.00	121.71
556.16	63.19
556.33	67.88
556.50	0.00
556.66	77.24
556.83	0.00
556.99	7.02
557.16	93.62
557.32	32.77
557.49	35.11
557.65	102.98
557.82	60.85
557.98	16.38
558.15	53.83
558.32	46.81
558.48	7.02
558.65	51.49
558.81	114.69
558.98	98.30
559.14	70.22
559.31	23.41
559.47	93.62
559.64	18.72
559.80	77.24
559.97	72.56
560.13	56.17
560.30	30.43
560.46	0.00
560.63	44.47
560.79	11.70
560.96	70.22
561.12	39.79
561.29	72.56
561.45	72.56
561.61	70.22
561.78	63.19
561.94	49.15
562.11	7.02
562.27	35.11
562.44	86.60
562.60	35.11
562.77	16.38
562.93	51.49
563.10	88.94
563.26	30.43
563.42	30.43
563.59	72.56
563.75	25.75
563.92	58.51
564.08	81.92
564.24	39.79
564.41	70.22
564.57	84.26
564.74	60.85
564.90	11.70
565.07	39.79
565.23	28.09
565.39	56.17
565.56	21.06
565.72	44.47
565.88	79.58
566.05	44.47
566.21	74.90
566.38	79.58
566.54	42.13
566.70	72.56
566.87	46.81
567.03	30.43
567.19	0.00
567.36	44.47
567.52	58.51
567.68	77.24
567.85	7.02
568.01	0.00
568.17	0.00
568.34	79.58
568.50	39.79
568.66	16.38
568.83	16.38
568.99	49.15
569.15	88.94
569.32	84.26
569.48	0.00
569.64	60.85
569.81	72.56
569.97	102.98
570.13	35.11
570.30	119.37
570.46	39.79
570.62	39.79
570.78	105.32
570.95	51.49
571.11	21.06
571.27	0.00
571.43	53.83
571.60	107.66
571.76	110.01
571.92	84.26
572.09	67.88
572.25	86.60
572.41	67.88
572.57	42.13
572.74	51.49
572.90	86.60
573.06	49.15
573.22	49.15
573.38	49.15
573.55	107.66
573.71	121.71
573.87	37.45
574.03	70.22
574.20	0.00
574.36	30.43
574.52	30.43
574.68	91.28
574.84	4.68
575.01	39.79
575.17	0.00
575.33	0.00
575.49	42.13
575.65	49.15
575.82	2.34
575.98	0.00
576.14	42.13
576.30	4.68
576.46	42.13
576.62	11.70
576.79	124.05
576.95	0.00
577.11	42.13
577.27	0.00
577.43	23.41
577.59	100.64
577.75	28.09
577.92	4.68
578.08	56.17
578.24	60.85
578.40	44.47
578.56	65.54
578.72	46.81
578.88	4.68
579.04	21.06
579.21	0.00
579.37	60.85
579.53	65.54
579.69	46.81
579.85	49.15
580.01	105.32
580.17	0.00
580.33	23.41
580.49	72.56
580.65	37.45
580.82	60.85
580.98	32.77
581.14	28.09
581.30	63.19
581.46	58.51
581.62	0.00
581.78	0.00
581.94	0.00
582.10	0.00
582.26	14.04
582.42	28.09
582.58	42.13
582.74	86.60
582.90	110.01
583.06	0.00
583.22	67.88
583.38	56.17
583.54	39.79
583.70	84.26
583.86	0.00
584.02	28.09
584.18	79.58
584.34	32.77
584.50	16.38
584.66	65.54
584.82	58.51
584.98	4.68
585.14	16.38
585.30	42.13
585.46	18.72
585.62	0.00
585.78	37.45
585.94	86.60
586.10	35.11
586.26	23.41
586.42	0.00
586.58	0.00
586.74	74.90
586.90	0.00
587.06	28.09
587.22	30.43
587.38	39.79
587.54	21.06
587.70	28.09
587.86	49.15
588.02	23.41
588.18	84.26
588.34	21.06
588.49	14.04
588.65	63.19
588.81	0.00
588.97	0.00
589.13	42.13
589.29	14.04
589.45	37.45
589.61	35.11
589.77	14.04
589.93	53.83
590.08	51.49
590.24	0.00
590.40	21.06
590.56	65.54
590.72	70.22
590.88	37.45
591.04	77.24
591.20	0.00
591.35	126.39
591.51	112.35
591.67	86.60
591.83	0.00
591.99	84.26
592.15	21.06
592.31	102.98
592.46	67.88
592.62	98.30
592.78	77.24
592.94	28.09
593.10	37.45
593.26	42.13
593.41	0.00
593.57	39.79
593.73	72.56
593.89	0.00
594.05	32.77
594.20	60.85
594.36	46.81
594.52	53.83
594.68	11.70
594.84	11.70
594.99	79.58
595.15	0.00
595.31	30.43
595.47	0.00
595.62	30.43
595.78	16.38
595.94	53.83
596.10	37.45
596.25	63.19
596.41	16.38
596.57	0.00
596.73	28.09
596.88	133.41
597.04	53.83
597.20	4.68
597.36	53.83
597.51	23.41
597.67	110.01
597.83	58.51
597.99	11.70
598.14	9.36
598.30	25.75
598.46	86.60
598.61	88.94
598.77	37.45
598.93	4.68
599.09	77.24
599.24	84.26
599.40	53.83
599.56	63.19
599.71	18.72
599.87	84.26
600.03	74.90
600.18	35.11
600.34	60.85
600.50	37.45
600.65	18.72
600.81	32.77
600.97	39.79
601.12	77.24
601.28	98.30
601.44	21.06
601.59	4.68
601.75	0.00
601.91	49.15
602.06	70.22
602.22	16.38
602.37	11.70
602.53	18.72
602.69	28.09
602.84	58.51
603.00	79.58
603.16	53.83
603.31	23.41
603.47	88.94
603.62	35.11
603.78	63.19
603.94	63.19
604.09	79.58
604.25	30.43
604.40	0.00
604.56	2.34
604.71	98.30
604.87	58.51
605.03	44.47
605.18	163.84
605.34	56.17
605.49	77.24
605.65	28.09
605.80	95.96
605.96	67.88
606.12	84.26
606.27	58.51
606.43	93.62
606.58	18.72
606.74	25.75
606.89	37.45
607.05	58.51
607.20	91.28
607.36	60.85
607.51	53.83
607.67	7.02
607.82	39.79
607.98	44.47
608.13	95.96
608.29	35.11
608.44	88.94
608.60	21.06
608.75	28.09
608.91	35.11
609.06	117.03
609.22	117.03
609.37	74.90
609.53	35.11
609.68	2.34
609.84	2.34
609.99	51.49
610.15	0.00
610.30	98.30
610.46	42.13
610.61	107.66
610.76	88.94
610.92	107.66
611.07	37.45
611.23	42.13
611.38	37.45
611.54	0.00
611.69	65.54
611.84	0.00
612.00	21.06
612.15	56.17
612.31	37.45
612.46	9.36
612.62	23.41
612.77	46.81
612.92	56.17
613.08	32.77
613.23	25.75
613.39	25.75
613.54	44.47
613.69	7.02
613.85	0.00
614.00	42.13
614.15	23.41
614.31	49.15
614.46	37.45
614.62	0.00
614.77	84.26
614.92	49.15
615.08	84.26
615.23	51.49
615.38	58.51
615.54	95.96
615.69	107.66
615.84	117.03
616.00	72.56
616.15	114.69
616.30	28.09
616.46	7.02
616.61	39.79
616.76	51.49
616.92	93.62
617.07	0.00
617.22	14.04
617.37	9.36
617.53	35.11
617.68	30.43
617.83	49.15
617.99	131.07
618.14	88.94
618.29	58.51
618.45	2.34
618.60	0.00
618.75	72.56
618.90	42.13
619.06	102.98
619.21	4.68
619.36	72.56
619.51	44.47
619.67	60.85
619.82	67.88
619.97	42.13
620.12	18.72
620.28	46.81
620.43	0.00
620.58	0.00
620.73	72.56
620.89	56.17
621.04	84.26
621.19	28.09
621.34	9.36
621.49	37.45
621.65	53.83
621.80	4.68
621.95	35.11
622.10	32.77
622.25	18.72
622.41	95.96
622.56	93.62
622.71	25.75
622.86	0.00
623.01	4.68
623.16	4.68
623.32	23.41
623.47	65.54
623.62	0.00
623.77	70.22
623.92	42.13
624.07	63.19
624.23	42.13
624.38	42.13
624.53	30.43
624.68	35.11
624.83	56.17
624.98	74.90
625.13	49.15
625.29	56.17
625.44	0.00
625.59	72.56
625.74	49.15
625.89	91.28
626.04	23.41
626.19	72.56
626.34	72.56
626.49	11.70
626.65	81.92
626.80	30.43
626.95	0.00
627.10	49.15
627.25	56.17
627.40	0.00
627.55	21.06
627.70	37.45
627.85	37.45
628.00	53.83
628.15	51.49
628.30	77.24
628.45	37.45
628.60	79.58
628.76	65.54
628.91	7.02
629.06	9.36
629.21	16.38
629.36	37.45
629.51	0.00
629.66	49.15
629.81	23.41
629.96	81.92
630.11	105.32
630.26	16.38
630.41	74.90
630.56	7.02
630.71	0.00
630.86	11.70
631.01	0.00
631.16	35.11
631.31	91.28
631.46	7.02
631.61	0.00
631.76	58.51
631.91	63.19
632.06	28.09
632.21	39.79
632.36	0.00
632.51	84.26
632.66	49.15
632.81	53.83
632.96	14.04
633.10	72.56
633.25	67.88
633.40	9.36
633.55	67.88
633.70	58.51
633.85	70.22
634.00	30.43
634.15	35.11
634.30	32.77
634.45	49.15
634.60	35.11
634.75	49.15
634.90	2.34
635.05	0.00
635.19	53.83
635.34	0.00
635.49	63.19
635.64	44.47
635.79	102.98
635.94	0.00
636.09	37.45
636.24	65.54
636.39	28.09
636.53	93.62
636.68	77.24
636.83	63.19
636.98	65.54
637.13	37.45
637.28	37.45
637.43	95.96
637.57	16.38
637.72	4.68
637.87	37.45
638.02	0.00
638.17	0.00
638.32	0.00
638.46	0.00
638.61	91.28
638.76	0.00
638.91	2.34
639.06	28.09
639.20	91.28
639.35	14.04
639.50	102.98
639.65	56.17
639.80	39.79
639.94	72.56
640.09	0.00
640.24	70.22
640.39	72.56
640.54	63.19
640.68	32.77
640.83	39.79
640.98	14.04
641.13	0.00
641.27	0.00
641.42	11.70
641.57	42.13
641.72	72.56
641.86	14.04
642.01	60.85
642.16	112.35
642.31	0.00
642.45	42.13
642.60	58.51
642.75	0.00
642.90	0.00
643.04	30.43
643.19	11.70
643.34	4.68
643.48	84.26
643.63	53.83
643.78	44.47
643.93	30.43
644.07	4.68
644.22	42.13
644.37	37.45
644.51	79.58
644.66	35.11
644.81	23.41
644.95	60.85
645.10	67.88
645.25	23.41
645.39	60.85
645.54	0.00
645.69	23.41
645.83	0.00
645.98	60.85
646.13	60.85
646.27	30.43
646.42	14.04
646.57	18.72
646.71	16.38
646.86	81.92
647.00	88.94
647.15	32.77
647.30	72.56
647.44	35.11
647.59	18.72
647.74	42.13
647.88	0.00
648.03	11.70
648.17	0.00
648.32	0.00
648.47	21.06
648.61	11.70
648.76	81.92
648.90	9.36
649.05	25.75
649.20	0.00
649.34	86.60
649.49	35.11
649.63	0.00
649.78	0.00
649.92	110.01
650.07	53.83
650.21	67.88
650.36	28.09
650.51	0.00
650.65	44.47
650.80	4.68
650.94	63.19
651.09	37.45
651.23	53.83
651.38	37.45
651.52	39.79
651.67	16.38
651.81	30.43
651.96	42.13
652.10	42.13
652.25	46.81
652.39	0.00
652.54	35.11
652.68	16.38
652.83	42.13
652.97	70.22
653.12	42.13
653.26	74.90
653.41	72.56
653.55	32.77
653.70	53.83
653.84	88.94
653.99	60.85
654.13	39.79
654.27	107.66
654.42	16.38
654.56	58.51
654.71	67.88
654.85	18.72
655.00	93.62
655.14	65.54
655.29	53.83
655.43	21.06
655.57	21.06
655.72	56.17
655.86	46.81
656.01	128.73
656.15	42.13
656.30	74.90
656.44	11.70
656.58	0.00
656.73	28.09
656.87	51.49
657.01	25.75
657.16	53.83
657.30	11.70
657.45	23.41
657.59	56.17
657.73	42.13
657.88	138.09
658.02	11.70
658.16	0.00
658.31	0.00
658.45	39.79
658.60	30.43
658.74	74.90
658.88	58.51
659.03	67.88
659.17	79.58
659.31	30.43
659.46	21.06
659.60	11.70
659.74	14.04
659.89	14.04
660.03	14.04
660.17	39.79
660.32	35.11
660.46	79.58
660.60	79.58
660.74	70.22
660.89	65.54
661.03	63.19
661.17	32.77
661.32	16.38
661.46	70.22
661.60	0.00
661.74	23.41
661.89	32.77
662.03	0.00
662.17	23.41
662.31	56.17
662.46	21.06
662.60	18.72
662.74	16.38
662.88	93.62
663.03	30.43
663.17	14.04
663.31	70.22
663.45	44.47
663.60	126.39
663.74	79.58
663.88	42.13
664.02	25.75
664.17	0.00
664.31	0.00
664.45	128.73
664.59	77.24
664.73	53.83
664.88	30.43
665.02	46.81
665.16	28.09
665.30	0.00
665.44	32.77
665.59	0.00
665.73	53.83
665.87	4.68
666.01	7.02
666.15	28.09
666.29	70.22
666.44	37.45
666.58	56.17
666.72	21.06
666.86	32.77
667.00	60.85
667.14	49.15
667.28	65.54
667.43	110.01
667.57	0.00
667.71	37.45
667.85	63.19
667.99	63.19
668.13	0.00
668.27	70.22
668.41	58.51
668.56	25.75
668.70	18.72
668.84	49.15
668.98	79.58
669.12	51.49
669.26	39.79
669.40	98.30
669.54	28.09
669.68	4.68
669.82	67.88
669.96	74.90
670.10	25.75
670.25	88.94
670.39	107.66
670.53	28.09
670.67	81.92
670.81	126.39
670.95	46.81
671.09	70.22
671.23	74.90
671.37	65.54
671.51	0.00
671.65	21.06
671.79	0.00
671.93	0.00
672.07	4.68
672.21	18.72
672.35	46.81
672.49	88.94
672.63	44.47
672.77	65.54
672.91	4.68
673.05	25.75
673.19	0.00
673.33	23.41
673.47	9.36
673.61	56.17
673.75	0.00
673.89	0.00
674.03	81.92
674.17	49.15
674.31	42.13
674.45	0.00
674.59	0.00
674.73	14.04
674.87	35.11
675.01	4.68
675.15	18.72
675.29	56.17
675.43	63.19
675.56	135.75
675.70	0.00
675.84	60.85
675.98	28.09
676.12	0.00
676.26	16.38
676.40	14.04
676.54	56.17
676.68	28.09
676.82	30.43
676.96	18.72
677.10	21.06
677.23	11.70
677.37	9.36
677.51	9.36
677.65	88.94
677.79	0.00
677.93	0.00
678.07	0.00
678.21	81.92
678.34	0.00
678.48	14.04
678.62	49.15
678.76	46.81
678.90	28.09
679.04	0.00
679.18	28.09
679.31	9.36
679.45	0.00
679.59	44.47
679.73	37.45
679.87	0.00
680.00	49.15
680.14	77.24
680.28	51.49
680.42	67.88
680.56	67.88
680.70	46.81
680.83	28.09
680.97	35.11
681.11	72.56
681.25	39.79
681.39	39.79
681.52	14.04
681.66	84.26
681.80	25.75
681.94	28.09
682.07	51.49
682.21	11.70
682.35	49.15
682.49	84.26
682.62	88.94
682.76	28.09
682.90	60.85
683.04	37.45
683.17	11.70
683.31	28.09
683.45	0.00
683.59	42.13
683.72	11.70
683.86	112.35
684.00	0.00
684.13	0.00
684.27	30.43
684.41	0.00
684.55	37.45
684.68	63.19
684.82	30.43
684.96	9.36
685.09	56.17
685.23	0.00
685.37	35.11
685.50	0.00
685.64	32.77
685.78	28.09
685.91	0.00
686.05	37.45
686.19	51.49
686.32	72.56
686.46	0.00
686.60	0.00
686.73	51.49
686.87	91.28
687.01	37.45
687.14	0.00
687.28	16.38
687.42	63.19
687.55	25.75
687.69	16.38
687.82	35.11
687.96	44.47
688.10	63.19
688.23	25.75
688.37	23.41
688.50	0.00
688.64	51.49
688.78	49.15
688.91	25.75
689.05	51.49
689.18	21.06
689.32	39.79
689.46	0.00
689.59	0.00
689.73	67.88
689.86	0.00
690.00	88.94
690.13	133.41
690.27	0.00
690.41	88.94
690.54	49.15
690.68	79.58
690.81	60.85
690.95	95.96
691.08	67.88
691.22	74.90
691.35	37.45
691.49	35.11
691.62	79.58
691.76	30.43
691.89	84.26
692.03	16.38
692.16	0.00
692.30	0.00
692.43	74.90
692.57	46.81
692.70	79.58
692.84	21.06
692.97	126.39
693.11	0.00
693.24	18.72
693.38	14.04
693.51	77.24
693.65	51.49
693.78	67.88
693.92	0.00
694.05	16.38
694.19	44.47
694.32	67.88
694.45	9.36
694.59	28.09
694.72	49.15
694.86	0.00
694.99	16.38
695.13	25.75
695.26	0.00
695.39	56.17
695.53	0.00
695.66	21.06
695.80	79.58
695.93	77.24
696.07	60.85
696.20	53.83
696.33	79.58
696.47	35.11
696.60	0.00
696.73	74.90
696.87	0.00
697.00	0.00
697.14	63.19
697.27	86.60
697.40	0.00
697.54	51.49
697.67	117.03
697.80	42.13
697.94	11.70
698.07	86.60
698.21	60.85
698.34	60.85
698.47	63.19
698.61	0.00
698.74	60.85
698.87	53.83
699.01	53.83
699.14	86.60
699.27	32.77
699.40	77.24
699.54	28.09
699.67	93.62
699.80	7.02
699.94	25.75
700.07	74.90
700.20	56.17
700.34	44.47
700.47	65.54
700.60	42.13
700.73	56.17
700.87	72.56
701.00	0.00
701.13	23.41
701.26	35.11
701.40	35.11
701.53	88.94
701.66	81.92
701.79	51.49
701.93	58.51
702.06	30.43
702.19	53.83
702.32	11.70
702.46	0.00
702.59	79.58
702.72	65.54
702.85	14.04
702.99	0.00
703.12	124.05
703.25	44.47
703.38	16.38
703.51	46.81
703.65	0.00
703.78	0.00
703.91	58.51
704.04	93.62
704.17	0.00
704.31	46.81
704.44	25.75
704.57	28.09
704.70	37.45
704.83	16.38
704.96	86.60
705.10	0.00
705.23	60.85
>>>>>End Processed Spectral Data<<<<<
