SpectraSuite Data File
++++++++++++++++++++++++++++++++++++
Date: Fri Oct 04 12:13:29 GMT-05:00 2013
User: price-jones
Dark Spectrum Present: No
Reference Spectrum Present: No
Number of Sampled Component Spectra: 1
Spectrometers: USB2+H05261
Integration Time (usec): 10000 (USB2+H05261)
Spectra Averaged: 1 (USB2+H05261)
Boxcar Smoothing: 0 (USB2+H05261)
Correct for Electrical Dark: No (USB2+H05261)
Strobe/Lamp Enabled: No (USB2+H05261)
Correct for Detector Non-linearity: No (USB2+H05261)
Correct for Stray Light: No (USB2+H05261)
Number of Pixels in Processed Spectrum: 2048
>>>>>Begin Processed Spectral Data<<<<<
365.73	32.77
365.92	32.77
366.12	32.77
366.32	0.00
366.52	0.00
366.72	0.00
366.91	0.00
367.11	0.00
367.31	0.00
367.51	0.00
367.70	0.00
367.90	0.00
368.10	0.00
368.30	0.00
368.49	0.00
368.69	0.00
368.89	0.00
369.09	0.00
369.28	0.00
369.48	0.00
369.68	0.00
369.87	0.00
370.07	0.00
370.27	0.00
370.47	0.00
370.66	0.00
370.86	0.00
371.06	4.68
371.25	0.00
371.45	0.00
371.65	51.49
371.84	0.00
372.04	0.00
372.24	0.00
372.44	117.03
372.63	7.02
372.83	0.00
373.03	0.00
373.22	0.00
373.42	0.00
373.62	0.00
373.81	16.38
374.01	2.34
374.21	58.51
374.40	28.09
374.60	18.72
374.79	100.64
374.99	32.77
375.19	25.75
375.38	37.45
375.58	4.68
375.78	63.19
375.97	65.54
376.17	46.81
376.37	28.09
376.56	0.00
376.76	72.56
376.95	72.56
377.15	14.04
377.35	86.60
377.54	84.26
377.74	70.22
377.93	0.00
378.13	23.41
378.33	110.01
378.52	32.77
378.72	0.00
378.91	0.00
379.11	74.90
379.31	0.00
379.50	56.17
379.70	30.43
379.89	0.00
380.09	16.38
380.28	0.00
380.48	0.00
380.68	28.09
380.87	25.75
381.07	0.00
381.26	32.77
381.46	0.00
381.65	46.81
381.85	7.02
382.04	23.41
382.24	30.43
382.43	0.00
382.63	0.00
382.83	21.06
383.02	35.11
383.22	44.47
383.41	0.00
383.61	14.04
383.80	74.90
384.00	11.70
384.19	0.00
384.39	0.00
384.58	0.00
384.78	0.00
384.97	0.00
385.17	2.34
385.36	0.00
385.56	37.45
385.75	25.75
385.95	35.11
386.14	11.70
386.34	0.00
386.53	0.00
386.72	51.49
386.92	46.81
387.11	11.70
387.31	0.00
387.50	0.00
387.70	37.45
387.89	25.75
388.09	44.47
388.28	35.11
388.48	2.34
388.67	0.00
388.86	0.00
389.06	21.06
389.25	58.51
389.45	0.00
389.64	21.06
389.84	9.36
390.03	30.43
390.22	39.79
390.42	0.00
390.61	35.11
390.81	28.09
391.00	42.13
391.19	35.11
391.39	0.00
391.58	7.02
391.78	0.00
391.97	0.00
392.16	32.77
392.36	0.00
392.55	60.85
392.75	0.00
392.94	49.15
393.13	58.51
393.33	0.00
393.52	0.00
393.71	42.13
393.91	7.02
394.10	0.00
394.29	39.79
394.49	0.00
394.68	28.09
394.88	35.11
395.07	30.43
395.26	23.41
395.46	0.00
395.65	11.70
395.84	14.04
396.04	0.00
396.23	0.00
396.42	18.72
396.62	72.56
396.81	65.54
397.00	58.51
397.19	81.92
397.39	37.45
397.58	0.00
397.77	0.00
397.97	32.77
398.16	0.00
398.35	0.00
398.55	0.00
398.74	25.75
398.93	0.00
399.12	14.04
399.32	0.00
399.51	81.92
399.70	0.00
399.90	25.75
400.09	79.58
400.28	21.06
400.47	0.00
400.67	51.49
400.86	0.00
401.05	11.70
401.24	0.00
401.44	0.00
401.63	14.04
401.82	9.36
402.01	58.51
402.21	0.00
402.40	23.41
402.59	0.00
402.78	56.17
402.97	11.70
403.17	25.75
403.36	0.00
403.55	0.00
403.74	23.41
403.93	63.19
404.13	0.00
404.32	0.00
404.51	0.00
404.70	9.36
404.89	0.00
405.09	7.02
405.28	72.56
405.47	49.15
405.66	72.56
405.85	0.00
406.05	0.00
406.24	14.04
406.43	16.38
406.62	0.00
406.81	39.79
407.00	46.81
407.20	72.56
407.39	4.68
407.58	11.70
407.77	58.51
407.96	39.79
408.15	58.51
408.34	9.36
408.54	14.04
408.73	32.77
408.92	46.81
409.11	0.00
409.30	60.85
409.49	0.00
409.68	65.54
409.87	72.56
410.07	44.47
410.26	23.41
410.45	32.77
410.64	35.11
410.83	0.00
411.02	46.81
411.21	32.77
411.40	18.72
411.59	4.68
411.78	39.79
411.98	25.75
412.17	37.45
412.36	18.72
412.55	51.49
412.74	18.72
412.93	0.00
413.12	63.19
413.31	42.13
413.50	60.85
413.69	0.00
413.88	11.70
414.07	100.64
414.26	53.83
414.45	39.79
414.64	32.77
414.83	16.38
415.02	51.49
415.22	21.06
415.41	35.11
415.60	56.17
415.79	0.00
415.98	46.81
416.17	84.26
416.36	49.15
416.55	23.41
416.74	58.51
416.93	18.72
417.12	0.00
417.31	0.00
417.50	51.49
417.69	39.79
417.88	63.19
418.07	86.60
418.26	28.09
418.45	79.58
418.64	60.85
418.83	58.51
419.02	58.51
419.21	39.79
419.39	84.26
419.58	117.03
419.77	74.90
419.96	39.79
420.15	0.00
420.34	100.64
420.53	60.85
420.72	23.41
420.91	0.00
421.10	42.13
421.29	35.11
421.48	28.09
421.67	9.36
421.86	70.22
422.05	32.77
422.24	18.72
422.43	11.70
422.61	0.00
422.80	2.34
422.99	21.06
423.18	44.47
423.37	11.70
423.56	11.70
423.75	23.41
423.94	4.68
424.13	2.34
424.32	51.49
424.50	0.00
424.69	0.00
424.88	0.00
425.07	28.09
425.26	56.17
425.45	44.47
425.64	79.58
425.83	0.00
426.01	28.09
426.20	16.38
426.39	74.90
426.58	0.00
426.77	39.79
426.96	7.02
427.15	56.17
427.33	2.34
427.52	79.58
427.71	4.68
427.90	84.26
428.09	44.47
428.28	39.79
428.46	100.64
428.65	74.90
428.84	58.51
429.03	14.04
429.22	23.41
429.40	39.79
429.59	93.62
429.78	18.72
429.97	112.35
430.16	0.00
430.34	0.00
430.53	32.77
430.72	4.68
430.91	0.00
431.10	18.72
431.28	0.00
431.47	9.36
431.66	7.02
431.85	30.43
432.03	39.79
432.22	16.38
432.41	0.00
432.60	16.38
432.79	65.54
432.97	67.88
433.16	4.68
433.35	35.11
433.54	0.00
433.72	14.04
433.91	51.49
434.10	9.36
434.28	0.00
434.47	0.00
434.66	42.13
434.85	9.36
435.03	65.54
435.22	0.00
435.41	100.64
435.59	16.38
435.78	14.04
435.97	2.34
436.16	42.13
436.34	46.81
436.53	46.81
436.72	0.00
436.90	74.90
437.09	7.02
437.28	0.00
437.46	0.00
437.65	30.43
437.84	0.00
438.02	30.43
438.21	0.00
438.40	0.00
438.58	49.15
438.77	21.06
438.96	37.45
439.14	67.88
439.33	23.41
439.52	100.64
439.70	70.22
439.89	42.13
440.08	4.68
440.26	56.17
440.45	81.92
440.63	2.34
440.82	46.81
441.01	72.56
441.19	28.09
441.38	0.00
441.57	0.00
441.75	25.75
441.94	49.15
442.12	70.22
442.31	114.69
442.50	25.75
442.68	42.13
442.87	0.00
443.05	4.68
443.24	37.45
443.43	39.79
443.61	51.49
443.80	0.00
443.98	44.47
444.17	65.54
444.35	37.45
444.54	21.06
444.73	56.17
444.91	14.04
445.10	60.85
445.28	79.58
445.47	11.70
445.65	28.09
445.84	42.13
446.02	58.51
446.21	14.04
446.39	23.41
446.58	60.85
446.77	16.38
446.95	58.51
447.14	11.70
447.32	53.83
447.51	25.75
447.69	86.60
447.88	44.47
448.06	51.49
448.25	0.00
448.43	11.70
448.62	18.72
448.80	0.00
448.99	51.49
449.17	49.15
449.36	0.00
449.54	84.26
449.73	63.19
449.91	0.00
450.10	35.11
450.28	0.00
450.46	88.94
450.65	60.85
450.83	39.79
451.02	79.58
451.20	37.45
451.39	63.19
451.57	39.79
451.76	21.06
451.94	39.79
452.13	2.34
452.31	72.56
452.49	0.00
452.68	91.28
452.86	16.38
453.05	53.83
453.23	46.81
453.42	9.36
453.60	23.41
453.78	81.92
453.97	53.83
454.15	67.88
454.34	74.90
454.52	42.13
454.70	124.05
454.89	79.58
455.07	53.83
455.26	93.62
455.44	14.04
455.62	70.22
455.81	84.26
455.99	74.90
456.17	35.11
456.36	44.47
456.54	42.13
456.73	35.11
456.91	0.00
457.09	32.77
457.28	46.81
457.46	28.09
457.64	91.28
457.83	100.64
458.01	7.02
458.19	65.54
458.38	44.47
458.56	65.54
458.74	14.04
458.93	49.15
459.11	46.81
459.29	0.00
459.48	32.77
459.66	37.45
459.84	81.92
460.03	79.58
460.21	81.92
460.39	100.64
460.57	53.83
460.76	100.64
460.94	32.77
461.12	0.00
461.31	18.72
461.49	56.17
461.67	42.13
461.85	0.00
462.04	0.00
462.22	53.83
462.40	60.85
462.59	53.83
462.77	0.00
462.95	74.90
463.13	9.36
463.32	98.30
463.50	18.72
463.68	56.17
463.86	32.77
464.05	4.68
464.23	58.51
464.41	25.75
464.59	0.00
464.78	0.00
464.96	11.70
465.14	21.06
465.32	39.79
465.50	58.51
465.69	39.79
465.87	21.06
466.05	4.68
466.23	42.13
466.41	44.47
466.60	16.38
466.78	0.00
466.96	32.77
467.14	86.60
467.32	25.75
467.51	58.51
467.69	65.54
467.87	0.00
468.05	37.45
468.23	14.04
468.41	0.00
468.60	0.00
468.78	21.06
468.96	30.43
469.14	53.83
469.32	0.00
469.50	49.15
469.69	49.15
469.87	39.79
470.05	0.00
470.23	81.92
470.41	100.64
470.59	74.90
470.77	46.81
470.95	9.36
471.14	63.19
471.32	37.45
471.50	0.00
471.68	39.79
471.86	58.51
472.04	18.72
472.22	56.17
472.40	84.26
472.58	65.54
472.77	67.88
472.95	100.64
473.13	51.49
473.31	4.68
473.49	14.04
473.67	53.83
473.85	77.24
474.03	0.00
474.21	58.51
474.39	32.77
474.57	56.17
474.75	11.70
474.93	72.56
475.12	21.06
475.30	93.62
475.48	86.60
475.66	4.68
475.84	44.47
476.02	58.51
476.20	110.01
476.38	124.05
476.56	39.79
476.74	39.79
476.92	0.00
477.10	0.00
477.28	0.00
477.46	72.56
477.64	0.00
477.82	11.70
478.00	44.47
478.18	35.11
478.36	32.77
478.54	0.00
478.72	16.38
478.90	42.13
479.08	11.70
479.26	77.24
479.44	16.38
479.62	53.83
479.80	11.70
479.98	0.00
480.16	25.75
480.34	77.24
480.52	63.19
480.70	39.79
480.88	0.00
481.06	0.00
481.24	119.37
481.41	56.17
481.59	0.00
481.77	0.00
481.95	25.75
482.13	124.05
482.31	133.41
482.49	0.00
482.67	0.00
482.85	4.68
483.03	0.00
483.21	77.24
483.39	2.34
483.57	67.88
483.74	39.79
483.92	21.06
484.10	0.00
484.28	72.56
484.46	63.19
484.64	124.05
484.82	70.22
485.00	28.09
485.18	42.13
485.35	72.56
485.53	0.00
485.71	9.36
485.89	7.02
486.07	88.94
486.25	51.49
486.43	72.56
486.61	37.45
486.78	58.51
486.96	0.00
487.14	30.43
487.32	11.70
487.50	37.45
487.68	0.00
487.85	18.72
488.03	0.00
488.21	51.49
488.39	72.56
488.57	70.22
488.75	60.85
488.92	81.92
489.10	30.43
489.28	0.00
489.46	51.49
489.64	98.30
489.81	49.15
489.99	79.58
490.17	74.90
490.35	74.90
490.53	46.81
490.70	79.58
490.88	119.37
491.06	79.58
491.24	4.68
491.41	86.60
491.59	18.72
491.77	21.06
491.95	0.00
492.13	0.00
492.30	0.00
492.48	79.58
492.66	102.98
492.84	39.79
493.01	14.04
493.19	2.34
493.37	21.06
493.54	53.83
493.72	23.41
493.90	32.77
494.08	58.51
494.25	58.51
494.43	7.02
494.61	65.54
494.79	11.70
494.96	0.00
495.14	37.45
495.32	79.58
495.49	65.54
495.67	32.77
495.85	49.15
496.02	84.26
496.20	9.36
496.38	42.13
496.55	9.36
496.73	11.70
496.91	14.04
497.09	21.06
497.26	140.43
497.44	60.85
497.62	58.51
497.79	2.34
497.97	11.70
498.14	0.00
498.32	35.11
498.50	14.04
498.67	65.54
498.85	28.09
499.03	81.92
499.20	35.11
499.38	126.39
499.56	77.24
499.73	91.28
499.91	56.17
500.08	39.79
500.26	4.68
500.44	11.70
500.61	60.85
500.79	67.88
500.97	49.15
501.14	112.35
501.32	63.19
501.49	11.70
501.67	0.00
501.84	81.92
502.02	98.30
502.20	86.60
502.37	100.64
502.55	0.00
502.72	0.00
502.90	37.45
503.07	21.06
503.25	98.30
503.43	35.11
503.60	21.06
503.78	110.01
503.95	79.58
504.13	0.00
504.30	65.54
504.48	142.77
504.65	46.81
504.83	42.13
505.01	56.17
505.18	81.92
505.36	42.13
505.53	46.81
505.71	49.15
505.88	77.24
506.06	133.41
506.23	42.13
506.41	0.00
506.58	91.28
506.76	72.56
506.93	16.38
507.11	79.58
507.28	39.79
507.46	0.00
507.63	93.62
507.81	65.54
507.98	65.54
508.16	7.02
508.33	65.54
508.50	9.36
508.68	0.00
508.85	72.56
509.03	91.28
509.20	0.00
509.38	11.70
509.55	14.04
509.73	0.00
509.90	58.51
510.08	42.13
510.25	88.94
510.42	14.04
510.60	11.70
510.77	2.34
510.95	0.00
511.12	0.00
511.30	32.77
511.47	39.79
511.64	0.00
511.82	93.62
511.99	46.81
512.17	7.02
512.34	46.81
512.51	32.77
512.69	77.24
512.86	37.45
513.04	0.00
513.21	65.54
513.38	44.47
513.56	23.41
513.73	0.00
513.90	0.00
514.08	0.00
514.25	53.83
514.43	60.85
514.60	16.38
514.77	25.75
514.95	14.04
515.12	105.32
515.29	21.06
515.47	112.35
515.64	58.51
515.81	49.15
515.99	70.22
516.16	91.28
516.33	11.70
516.51	49.15
516.68	14.04
516.85	74.90
517.03	23.41
517.20	18.72
517.37	0.00
517.54	35.11
517.72	9.36
517.89	72.56
518.06	51.49
518.24	0.00
518.41	65.54
518.58	60.85
518.75	53.83
518.93	0.00
519.10	58.51
519.27	0.00
519.45	21.06
519.62	28.09
519.79	14.04
519.96	16.38
520.14	0.00
520.31	7.02
520.48	16.38
520.65	74.90
520.83	30.43
521.00	0.00
521.17	0.00
521.34	4.68
521.52	14.04
521.69	35.11
521.86	0.00
522.03	49.15
522.20	39.79
522.38	21.06
522.55	60.85
522.72	11.70
522.89	100.64
523.07	77.24
523.24	81.92
523.41	7.02
523.58	0.00
523.75	28.09
523.92	39.79
524.10	74.90
524.27	21.06
524.44	30.43
524.61	60.85
524.78	14.04
524.96	32.77
525.13	56.17
525.30	77.24
525.47	39.79
525.64	11.70
525.81	51.49
525.98	9.36
526.16	0.00
526.33	84.26
526.50	0.00
526.67	0.00
526.84	0.00
527.01	0.00
527.18	0.00
527.36	51.49
527.53	0.00
527.70	0.00
527.87	49.15
528.04	70.22
528.21	81.92
528.38	42.13
528.55	107.66
528.72	46.81
528.89	79.58
529.07	49.15
529.24	30.43
529.41	0.00
529.58	42.13
529.75	9.36
529.92	2.34
530.09	28.09
530.26	74.90
530.43	58.51
530.60	77.24
530.77	11.70
530.94	4.68
531.11	32.77
531.28	49.15
531.46	0.00
531.63	39.79
531.80	21.06
531.97	42.13
532.14	100.64
532.31	35.11
532.48	0.00
532.65	21.06
532.82	4.68
532.99	4.68
533.16	60.85
533.33	70.22
533.50	58.51
533.67	0.00
533.84	14.04
534.01	0.00
534.18	23.41
534.35	28.09
534.52	65.54
534.69	67.88
534.86	4.68
535.03	70.22
535.20	51.49
535.37	70.22
535.54	35.11
535.71	58.51
535.88	0.00
536.05	46.81
536.22	44.47
536.38	23.41
536.55	0.00
536.72	0.00
536.89	63.19
537.06	16.38
537.23	49.15
537.40	93.62
537.57	74.90
537.74	35.11
537.91	105.32
538.08	63.19
538.25	11.70
538.42	30.43
538.59	74.90
538.75	18.72
538.92	74.90
539.09	70.22
539.26	91.28
539.43	39.79
539.60	102.98
539.77	135.75
539.94	23.41
540.11	74.90
540.28	49.15
540.44	0.00
540.61	23.41
540.78	74.90
540.95	56.17
541.12	72.56
541.29	9.36
541.46	0.00
541.62	32.77
541.79	0.00
541.96	88.94
542.13	46.81
542.30	117.03
542.47	46.81
542.63	30.43
542.80	23.41
542.97	30.43
543.14	35.11
543.31	63.19
543.48	18.72
543.64	51.49
543.81	0.00
543.98	51.49
544.15	32.77
544.32	74.90
544.48	60.85
544.65	4.68
544.82	86.60
544.99	65.54
545.16	28.09
545.32	79.58
545.49	67.88
545.66	72.56
545.83	74.90
546.00	49.15
546.16	86.60
546.33	32.77
546.50	0.00
546.67	7.02
546.83	0.00
547.00	86.60
547.17	105.32
547.34	21.06
547.50	42.13
547.67	46.81
547.84	0.00
548.00	95.96
548.17	18.72
548.34	105.32
548.51	131.07
548.67	28.09
548.84	25.75
549.01	93.62
549.18	46.81
549.34	51.49
549.51	30.43
549.68	77.24
549.84	79.58
550.01	23.41
550.18	51.49
550.34	100.64
550.51	37.45
550.68	9.36
550.84	0.00
551.01	28.09
551.18	35.11
551.34	23.41
551.51	0.00
551.68	53.83
551.84	0.00
552.01	30.43
552.18	0.00
552.34	42.13
552.51	9.36
552.68	16.38
552.84	51.49
553.01	0.00
553.18	39.79
553.34	4.68
553.51	0.00
553.67	0.00
553.84	18.72
554.01	35.11
554.17	9.36
554.34	11.70
554.51	58.51
554.67	35.11
554.84	11.70
555.00	63.19
555.17	84.26
555.33	14.04
555.50	25.75
555.67	30.43
555.83	79.58
556.00	28.09
556.16	81.92
556.33	14.04
556.50	0.00
556.66	63.19
556.83	21.06
556.99	95.96
557.16	9.36
557.32	79.58
557.49	65.54
557.65	9.36
557.82	30.43
557.98	70.22
558.15	25.75
558.32	7.02
558.48	56.17
558.65	72.56
558.81	32.77
558.98	2.34
559.14	0.00
559.31	65.54
559.47	84.26
559.64	0.00
559.80	4.68
559.97	56.17
560.13	7.02
560.30	0.00
560.46	39.79
560.63	23.41
560.79	81.92
560.96	67.88
561.12	39.79
561.29	56.17
561.45	79.58
561.61	28.09
561.78	18.72
561.94	60.85
562.11	21.06
562.27	37.45
562.44	77.24
562.60	23.41
562.77	49.15
562.93	51.49
563.10	0.00
563.26	35.11
563.42	28.09
563.59	37.45
563.75	46.81
563.92	0.00
564.08	35.11
564.24	39.79
564.41	74.90
564.57	70.22
564.74	81.92
564.90	100.64
565.07	9.36
565.23	23.41
565.39	60.85
565.56	46.81
565.72	70.22
565.88	67.88
566.05	49.15
566.21	0.00
566.38	35.11
566.54	7.02
566.70	88.94
566.87	0.00
567.03	60.85
567.19	32.77
567.36	0.00
567.52	70.22
567.68	35.11
567.85	23.41
568.01	4.68
568.17	56.17
568.34	79.58
568.50	35.11
568.66	46.81
568.83	0.00
568.99	79.58
569.15	25.75
569.32	42.13
569.48	35.11
569.64	77.24
569.81	51.49
569.97	93.62
570.13	44.47
570.30	21.06
570.46	39.79
570.62	70.22
570.78	7.02
570.95	88.94
571.11	81.92
571.27	37.45
571.43	30.43
571.60	11.70
571.76	4.68
571.92	91.28
572.09	91.28
572.25	86.60
572.41	23.41
572.57	0.00
572.74	53.83
572.90	18.72
573.06	23.41
573.22	4.68
573.38	91.28
573.55	28.09
573.71	72.56
573.87	32.77
574.03	51.49
574.20	2.34
574.36	0.00
574.52	63.19
574.68	4.68
574.84	79.58
575.01	35.11
575.17	72.56
575.33	60.85
575.49	30.43
575.65	102.98
575.82	28.09
575.98	86.60
576.14	88.94
576.30	4.68
576.46	67.88
576.62	0.00
576.79	0.00
576.95	67.88
577.11	46.81
577.27	67.88
577.43	0.00
577.59	44.47
577.75	53.83
577.92	0.00
578.08	105.32
578.24	53.83
578.40	81.92
578.56	44.47
578.72	11.70
578.88	77.24
579.04	18.72
579.21	0.00
579.37	63.19
579.53	93.62
579.69	37.45
579.85	9.36
580.01	53.83
580.17	0.00
580.33	98.30
580.49	0.00
580.65	72.56
580.82	18.72
580.98	84.26
581.14	53.83
581.30	65.54
581.46	42.13
581.62	102.98
581.78	72.56
581.94	60.85
582.10	0.00
582.26	56.17
582.42	14.04
582.58	0.00
582.74	86.60
582.90	133.41
583.06	39.79
583.22	42.13
583.38	46.81
583.54	30.43
583.70	91.28
583.86	88.94
584.02	21.06
584.18	86.60
584.34	105.32
584.50	170.86
584.66	983.02
584.82	1905.20
584.98	2621.40
585.14	2162.66
585.30	1413.68
585.46	901.11
585.62	634.29
585.78	271.50
585.94	168.52
586.10	98.30
586.26	79.58
586.42	79.58
586.58	14.04
586.74	0.00
586.90	91.28
587.06	30.43
587.22	42.13
587.38	105.32
587.54	63.19
587.70	168.52
587.86	238.73
588.02	168.52
588.18	140.43
588.34	128.73
588.49	98.30
588.65	7.02
588.81	28.09
588.97	91.28
589.13	44.47
589.29	81.92
589.45	21.06
589.61	121.71
589.77	7.02
589.93	46.81
590.08	74.90
590.24	56.17
590.40	18.72
590.56	88.94
590.72	74.90
590.88	74.90
591.04	23.41
591.20	42.13
591.35	30.43
591.51	46.81
591.67	32.77
591.83	21.06
591.99	84.26
592.15	7.02
592.31	0.00
592.46	79.58
592.62	37.45
592.78	32.77
592.94	58.51
593.10	56.17
593.26	63.19
593.41	56.17
593.57	2.34
593.73	46.81
593.89	215.33
594.05	315.97
594.20	334.70
594.36	365.12
594.52	264.48
594.68	189.58
594.84	124.05
594.99	74.90
595.15	46.81
595.31	18.72
595.47	60.85
595.62	86.60
595.78	32.77
595.94	79.58
596.10	91.28
596.25	95.96
596.41	14.04
596.57	44.47
596.73	28.09
596.88	79.58
597.04	91.28
597.20	121.71
597.36	81.92
597.51	124.05
597.67	126.39
597.83	67.88
597.99	63.19
598.14	37.45
598.30	2.34
598.46	44.47
598.61	11.70
598.77	79.58
598.93	0.00
599.09	0.00
599.24	0.00
599.40	25.75
599.56	37.45
599.71	18.72
599.87	0.00
600.03	25.75
600.18	51.49
600.34	65.54
600.50	53.83
600.65	23.41
600.81	74.90
600.97	32.77
601.12	39.79
601.28	88.94
601.44	65.54
601.59	35.11
601.75	37.45
601.91	9.36
602.06	14.04
602.22	58.51
602.37	156.82
602.53	65.54
602.69	135.75
602.84	100.64
603.00	44.47
603.16	46.81
603.31	46.81
603.47	42.13
603.62	4.68
603.78	0.00
603.94	72.56
604.09	60.85
604.25	70.22
604.40	35.11
604.56	46.81
604.71	72.56
604.87	0.00
605.03	32.77
605.18	44.47
605.34	39.79
605.49	51.49
605.65	4.68
605.80	67.88
605.96	53.83
606.12	65.54
606.27	79.58
606.43	42.13
606.58	9.36
606.74	9.36
606.89	138.09
607.05	201.29
607.20	290.23
607.36	257.46
607.51	184.90
607.67	124.05
607.82	117.03
607.98	21.06
608.13	56.17
608.29	11.70
608.44	53.83
608.60	86.60
608.75	32.77
608.91	70.22
609.06	283.20
609.22	428.32
609.37	528.96
609.53	440.02
609.68	283.20
609.84	222.35
609.99	187.24
610.15	126.39
610.30	44.47
610.46	60.85
610.61	93.62
610.76	56.17
610.92	44.47
611.07	37.45
611.23	0.00
611.38	70.22
611.54	35.11
611.69	79.58
611.84	0.00
612.00	35.11
612.15	49.15
612.31	110.01
612.46	30.43
612.62	28.09
612.77	0.00
612.92	4.68
613.08	37.45
613.23	35.11
613.39	46.81
613.54	2.34
613.69	269.16
613.85	641.31
614.00	777.06
614.15	713.86
614.31	545.34
614.46	287.89
614.62	194.26
614.77	168.52
614.92	74.90
615.08	11.70
615.23	37.45
615.38	93.62
615.54	51.49
615.69	72.56
615.84	177.88
616.00	238.73
616.15	182.56
616.30	177.88
616.46	32.77
616.61	124.05
616.76	35.11
616.92	32.77
617.07	182.56
617.22	91.28
617.37	65.54
617.53	102.98
617.68	58.51
617.83	0.00
617.99	30.43
618.14	114.69
618.29	28.09
618.45	30.43
618.60	79.58
618.75	28.09
618.90	28.09
619.06	21.06
619.21	53.83
619.36	72.56
619.51	0.00
619.67	60.85
619.82	4.68
619.97	37.45
620.12	42.13
620.28	0.00
620.43	84.26
620.58	70.22
620.73	2.34
620.89	39.79
621.04	0.00
621.19	0.00
621.34	60.85
621.49	182.56
621.65	138.09
621.80	128.73
621.95	49.15
622.10	0.00
622.25	49.15
622.41	14.04
622.56	49.15
622.71	114.69
622.86	0.00
623.01	37.45
623.16	53.83
623.32	42.13
623.47	0.00
623.62	0.00
623.77	98.30
623.92	46.81
624.07	0.00
624.23	39.79
624.38	30.43
624.53	0.00
624.68	79.58
624.83	102.98
624.98	37.45
625.13	18.72
625.29	100.64
625.44	0.00
625.59	14.04
625.74	56.17
625.89	128.73
626.04	110.01
626.19	301.93
626.34	400.23
626.49	461.09
626.65	280.86
626.80	203.63
626.95	107.66
627.10	60.85
627.25	53.83
627.40	110.01
627.55	58.51
627.70	32.77
627.85	77.24
628.00	49.15
628.15	63.19
628.30	30.43
628.45	0.00
628.60	23.41
628.76	58.51
628.91	16.38
629.06	35.11
629.21	4.68
629.36	72.56
629.51	30.43
629.66	0.00
629.81	53.83
629.96	131.07
630.11	152.13
630.26	84.26
630.41	126.39
630.56	161.50
630.71	35.11
630.86	145.11
631.01	56.17
631.16	11.70
631.31	23.41
631.46	74.90
631.61	53.83
631.76	60.85
631.91	65.54
632.06	140.43
632.21	58.51
632.36	117.03
632.51	32.77
632.66	51.49
632.81	112.35
632.96	245.76
633.10	299.59
633.25	344.06
633.40	177.88
633.55	114.69
633.70	100.64
633.85	112.35
634.00	56.17
634.15	39.79
634.30	86.60
634.45	91.28
634.60	28.09
634.75	46.81
634.90	21.06
635.05	84.26
635.19	44.47
635.34	49.15
635.49	30.43
635.64	65.54
635.79	35.11
635.94	0.00
636.09	159.16
636.24	42.13
636.39	98.30
636.53	44.47
636.68	0.00
636.83	23.41
636.98	114.69
637.13	0.00
637.28	67.88
637.43	63.19
637.57	21.06
637.72	163.84
637.87	353.42
638.02	433.00
638.17	365.12
638.32	421.30
638.46	217.67
638.61	191.92
638.76	161.50
638.91	147.45
639.06	32.77
639.20	25.75
639.35	91.28
639.50	63.19
639.65	245.76
639.80	571.09
639.94	739.61
640.09	767.70
640.24	718.54
640.39	463.43
640.54	313.63
640.68	147.45
640.83	133.41
640.98	86.60
641.13	88.94
641.27	11.70
641.42	145.11
641.57	25.75
641.72	37.45
641.86	44.47
642.01	65.54
642.16	23.41
642.31	0.00
642.45	65.54
642.60	32.77
642.75	25.75
642.90	42.13
643.04	67.88
643.19	9.36
643.34	0.00
643.48	4.68
643.63	46.81
643.78	42.13
643.93	91.28
644.07	42.13
644.22	0.00
644.37	49.15
644.51	0.00
644.66	102.98
644.81	7.02
644.95	0.00
645.10	46.81
645.25	23.41
645.39	30.43
645.54	21.06
645.69	25.75
645.83	49.15
645.98	37.45
646.13	86.60
646.27	49.15
646.42	0.00
646.57	0.00
646.71	42.13
646.86	58.51
647.00	9.36
647.15	84.26
647.30	46.81
647.44	21.06
647.59	30.43
647.74	25.75
647.88	65.54
648.03	2.34
648.17	0.00
648.32	0.00
648.47	30.43
648.61	53.83
648.76	98.30
648.90	0.00
649.05	46.81
649.20	4.68
649.34	28.09
649.49	2.34
649.63	46.81
649.78	63.19
649.92	0.00
650.07	95.96
650.21	278.52
650.36	411.93
650.51	468.11
650.65	315.97
650.80	285.55
650.94	191.92
651.09	84.26
651.23	93.62
651.38	28.09
651.52	23.41
651.67	0.00
651.81	14.04
651.96	51.49
652.10	0.00
652.25	30.43
652.39	107.66
652.54	21.06
652.68	21.06
652.83	110.01
652.97	138.09
653.12	184.90
653.26	180.22
653.41	93.62
653.55	138.09
653.70	112.35
653.84	74.90
653.99	25.75
654.13	46.81
654.27	21.06
654.42	46.81
654.56	67.88
654.71	56.17
654.85	0.00
655.00	39.79
655.14	65.54
655.29	58.51
655.43	7.02
655.57	67.88
655.72	74.90
655.86	72.56
656.01	56.17
656.15	72.56
656.30	70.22
656.44	53.83
656.58	25.75
656.73	70.22
656.87	46.81
657.01	51.49
657.16	21.06
657.30	0.00
657.45	0.00
657.59	39.79
657.73	0.00
657.88	28.09
658.02	16.38
658.16	72.56
658.31	2.34
658.45	18.72
658.60	35.11
658.74	49.15
658.88	88.94
659.03	11.70
659.17	79.58
659.31	67.88
659.46	91.28
659.60	203.63
659.74	227.03
659.89	201.29
660.03	283.20
660.17	112.35
660.32	93.62
660.46	51.49
660.60	11.70
660.74	72.56
660.89	63.19
661.03	65.54
661.17	65.54
661.32	0.00
661.46	0.00
661.60	30.43
661.74	14.04
661.89	117.03
662.03	11.70
662.17	98.30
662.31	98.30
662.46	28.09
662.60	2.34
662.74	0.00
662.88	74.90
663.03	0.00
663.17	42.13
663.31	65.54
663.45	128.73
663.60	0.00
663.74	28.09
663.88	14.04
664.02	44.47
664.17	0.00
664.31	28.09
664.45	23.41
664.59	86.60
664.73	81.92
664.88	42.13
665.02	30.43
665.16	0.00
665.30	14.04
665.44	23.41
665.59	23.41
665.73	49.15
665.87	53.83
666.01	30.43
666.15	0.00
666.29	0.00
666.44	72.56
666.58	0.00
666.72	0.00
666.86	44.47
667.00	84.26
667.14	114.69
667.28	93.62
667.43	252.78
667.57	374.49
667.71	308.95
667.85	276.18
667.99	234.05
668.13	201.29
668.27	100.64
668.41	77.24
668.56	30.43
668.70	7.02
668.84	35.11
668.98	67.88
669.12	28.09
669.26	14.04
669.40	77.24
669.54	32.77
669.68	49.15
669.82	56.17
669.96	14.04
670.10	21.06
670.25	0.00
670.39	0.00
670.53	28.09
670.67	56.17
670.81	21.06
670.95	44.47
671.09	72.56
671.23	177.88
671.37	161.50
671.51	210.65
671.65	264.48
671.79	194.26
671.93	21.06
672.07	88.94
672.21	49.15
672.35	16.38
672.49	0.00
672.63	9.36
672.77	28.09
672.91	11.70
673.05	65.54
673.19	14.04
673.33	0.00
673.47	79.58
673.61	18.72
673.75	56.17
673.89	0.00
674.03	32.77
674.17	72.56
674.31	4.68
674.45	110.01
674.59	32.77
674.73	16.38
674.87	18.72
675.01	81.92
675.15	44.47
675.29	35.11
675.43	152.13
675.56	60.85
675.70	28.09
675.84	86.60
675.98	14.04
676.12	2.34
676.26	0.00
676.40	0.00
676.54	37.45
676.68	11.70
676.82	77.24
676.96	0.00
677.10	53.83
677.23	23.41
677.37	0.00
677.51	28.09
677.65	46.81
677.79	9.36
677.93	0.00
678.07	67.88
678.21	91.28
678.34	18.72
678.48	42.13
678.62	95.96
678.76	49.15
678.90	25.75
679.04	102.98
679.18	16.38
679.31	7.02
679.45	74.90
679.59	23.41
679.73	28.09
679.87	0.00
680.00	0.00
680.14	4.68
680.28	46.81
680.42	86.60
680.56	39.79
680.70	56.17
680.83	4.68
680.97	32.77
681.11	0.00
681.25	42.13
681.39	18.72
681.52	0.00
681.66	4.68
681.80	70.22
681.94	14.04
682.07	0.00
682.21	23.41
682.35	0.00
682.49	28.09
682.62	30.43
682.76	35.11
682.90	60.85
683.04	56.17
683.17	0.00
683.31	51.49
683.45	63.19
683.59	95.96
683.72	0.00
683.86	9.36
684.00	25.75
684.13	105.32
684.27	107.66
684.41	53.83
684.55	37.45
684.68	9.36
684.82	30.43
684.96	7.02
685.09	28.09
685.23	0.00
685.37	0.00
685.50	46.81
685.64	30.43
685.78	0.00
685.91	39.79
686.05	60.85
686.19	11.70
686.32	0.00
686.46	11.70
686.60	2.34
686.73	23.41
686.87	0.00
687.01	0.00
687.14	79.58
687.28	9.36
687.42	39.79
687.55	0.00
687.69	35.11
687.82	42.13
687.96	46.81
688.10	0.00
688.23	0.00
688.37	56.17
688.50	0.00
688.64	21.06
688.78	72.56
688.91	84.26
689.05	70.22
689.18	4.68
689.32	16.38
689.46	53.83
689.59	0.00
689.73	0.00
689.86	35.11
690.00	74.90
690.13	56.17
690.27	0.00
690.41	74.90
690.54	53.83
690.68	121.71
690.81	49.15
690.95	0.00
691.08	30.43
691.22	4.68
691.35	46.81
691.49	35.11
691.62	25.75
691.76	18.72
691.89	46.81
692.03	51.49
692.16	25.75
692.30	63.19
692.43	9.36
692.57	112.35
692.70	121.71
692.84	205.97
692.97	194.26
693.11	163.84
693.24	44.47
693.38	74.90
693.51	65.54
693.65	30.43
693.78	67.88
693.92	0.00
694.05	0.00
694.19	14.04
694.32	30.43
694.45	39.79
694.59	0.00
694.72	51.49
694.86	25.75
694.99	25.75
695.13	72.56
695.26	88.94
695.39	35.11
695.53	37.45
695.66	105.32
695.80	16.38
695.93	0.00
696.07	32.77
696.20	67.88
696.33	49.15
696.47	74.90
696.60	67.88
696.73	4.68
696.87	0.00
697.00	0.00
697.14	44.47
697.27	9.36
697.40	0.00
697.54	0.00
697.67	25.75
697.80	0.00
697.94	44.47
698.07	0.00
698.21	23.41
698.34	0.00
698.47	100.64
698.61	16.38
698.74	0.00
698.87	11.70
699.01	11.70
699.14	44.47
699.27	32.77
699.40	35.11
699.54	42.13
699.67	35.11
699.80	0.00
699.94	18.72
700.07	0.00
700.20	49.15
700.34	18.72
700.47	105.32
700.60	18.72
700.73	131.07
700.87	0.00
701.00	18.72
701.13	44.47
701.26	35.11
701.40	14.04
701.53	46.81
701.66	28.09
701.79	7.02
701.93	0.00
702.06	23.41
702.19	65.54
702.32	49.15
702.46	79.58
702.59	79.58
702.72	25.75
702.85	163.84
702.99	224.69
703.12	308.95
703.25	243.42
703.38	262.14
703.51	248.10
703.65	147.45
703.78	191.92
703.91	91.28
704.04	60.85
704.17	67.88
704.31	81.92
704.44	11.70
704.57	77.24
704.70	0.00
704.83	30.43
704.96	16.38
705.10	0.00
705.23	0.00
>>>>>End Processed Spectral Data<<<<<
