SpectraSuite Data File
++++++++++++++++++++++++++++++++++++
Date: Fri Oct 04 12:13:25 GMT-05:00 2013
User: price-jones
Dark Spectrum Present: No
Reference Spectrum Present: No
Number of Sampled Component Spectra: 1
Spectrometers: USB2+H05261
Integration Time (usec): 10000 (USB2+H05261)
Spectra Averaged: 1 (USB2+H05261)
Boxcar Smoothing: 0 (USB2+H05261)
Correct for Electrical Dark: No (USB2+H05261)
Strobe/Lamp Enabled: No (USB2+H05261)
Correct for Detector Non-linearity: No (USB2+H05261)
Correct for Stray Light: No (USB2+H05261)
Number of Pixels in Processed Spectrum: 2048
>>>>>Begin Processed Spectral Data<<<<<
365.73	28.09
365.92	28.09
366.12	28.09
366.32	0.00
366.52	0.00
366.72	0.00
366.91	0.00
367.11	0.00
367.31	0.00
367.51	0.00
367.70	0.00
367.90	0.00
368.10	0.00
368.30	0.00
368.49	0.00
368.69	0.00
368.89	0.00
369.09	0.00
369.28	0.00
369.48	0.00
369.68	0.00
369.87	0.00
370.07	0.00
370.27	0.00
370.47	0.00
370.66	0.00
370.86	0.00
371.06	37.45
371.25	0.00
371.45	0.00
371.65	0.00
371.84	0.00
372.04	0.00
372.24	0.00
372.44	23.41
372.63	35.11
372.83	28.09
373.03	9.36
373.22	9.36
373.42	0.00
373.62	0.00
373.81	21.06
374.01	11.70
374.21	44.47
374.40	23.41
374.60	0.00
374.79	28.09
374.99	70.22
375.19	4.68
375.38	46.81
375.58	53.83
375.78	0.00
375.97	0.00
376.17	42.13
376.37	44.47
376.56	93.62
376.76	32.77
376.95	0.00
377.15	49.15
377.35	9.36
377.54	63.19
377.74	0.00
377.93	2.34
378.13	0.00
378.33	0.00
378.52	23.41
378.72	21.06
378.91	65.54
379.11	60.85
379.31	11.70
379.50	0.00
379.70	0.00
379.89	21.06
380.09	0.00
380.28	4.68
380.48	0.00
380.68	7.02
380.87	107.66
381.07	32.77
381.26	0.00
381.46	0.00
381.65	0.00
381.85	0.00
382.04	18.72
382.24	74.90
382.43	0.00
382.63	11.70
382.83	74.90
383.02	0.00
383.22	49.15
383.41	23.41
383.61	60.85
383.80	0.00
384.00	0.00
384.19	35.11
384.39	37.45
384.58	37.45
384.78	32.77
384.97	28.09
385.17	0.00
385.36	0.00
385.56	0.00
385.75	35.11
385.95	42.13
386.14	70.22
386.34	35.11
386.53	9.36
386.72	9.36
386.92	58.51
387.11	0.00
387.31	16.38
387.50	7.02
387.70	35.11
387.89	23.41
388.09	35.11
388.28	112.35
388.48	9.36
388.67	0.00
388.86	0.00
389.06	42.13
389.25	2.34
389.45	7.02
389.64	53.83
389.84	0.00
390.03	2.34
390.22	0.00
390.42	0.00
390.61	0.00
390.81	0.00
391.00	7.02
391.19	37.45
391.39	35.11
391.58	0.00
391.78	28.09
391.97	65.54
392.16	0.00
392.36	39.79
392.55	49.15
392.75	0.00
392.94	0.00
393.13	14.04
393.33	44.47
393.52	0.00
393.71	46.81
393.91	2.34
394.10	0.00
394.29	46.81
394.49	30.43
394.68	11.70
394.88	16.38
395.07	35.11
395.26	53.83
395.46	0.00
395.65	42.13
395.84	0.00
396.04	2.34
396.23	14.04
396.42	63.19
396.62	0.00
396.81	11.70
397.00	44.47
397.19	0.00
397.39	58.51
397.58	11.70
397.77	23.41
397.97	39.79
398.16	0.00
398.35	16.38
398.55	37.45
398.74	58.51
398.93	74.90
399.12	0.00
399.32	79.58
399.51	102.98
399.70	51.49
399.90	18.72
400.09	0.00
400.28	0.00
400.47	0.00
400.67	25.75
400.86	58.51
401.05	35.11
401.24	0.00
401.44	21.06
401.63	81.92
401.82	128.73
402.01	0.00
402.21	0.00
402.40	25.75
402.59	9.36
402.78	49.15
402.97	42.13
403.17	70.22
403.36	0.00
403.55	44.47
403.74	0.00
403.93	4.68
404.13	0.00
404.32	0.00
404.51	39.79
404.70	0.00
404.89	46.81
405.09	23.41
405.28	77.24
405.47	0.00
405.66	23.41
405.85	124.05
406.05	0.00
406.24	65.54
406.43	7.02
406.62	35.11
406.81	0.00
407.00	23.41
407.20	7.02
407.39	65.54
407.58	49.15
407.77	65.54
407.96	4.68
408.15	30.43
408.34	16.38
408.54	35.11
408.73	0.00
408.92	39.79
409.11	56.17
409.30	0.00
409.49	28.09
409.68	0.00
409.87	46.81
410.07	16.38
410.26	88.94
410.45	0.00
410.64	39.79
410.83	0.00
411.02	65.54
411.21	0.00
411.40	11.70
411.59	79.58
411.78	32.77
411.98	63.19
412.17	0.00
412.36	102.98
412.55	21.06
412.74	4.68
412.93	46.81
413.12	28.09
413.31	0.00
413.50	0.00
413.69	0.00
413.88	0.00
414.07	9.36
414.26	110.01
414.45	65.54
414.64	51.49
414.83	39.79
415.02	11.70
415.22	21.06
415.41	16.38
415.60	63.19
415.79	46.81
415.98	77.24
416.17	4.68
416.36	65.54
416.55	0.00
416.74	25.75
416.93	23.41
417.12	51.49
417.31	42.13
417.50	9.36
417.69	23.41
417.88	49.15
418.07	0.00
418.26	4.68
418.45	28.09
418.64	37.45
418.83	0.00
419.02	37.45
419.21	58.51
419.39	16.38
419.58	0.00
419.77	16.38
419.96	46.81
420.15	9.36
420.34	44.47
420.53	88.94
420.72	37.45
420.91	14.04
421.10	18.72
421.29	35.11
421.48	72.56
421.67	112.35
421.86	0.00
422.05	0.00
422.24	18.72
422.43	86.60
422.61	63.19
422.80	37.45
422.99	77.24
423.18	84.26
423.37	30.43
423.56	23.41
423.75	58.51
423.94	16.38
424.13	32.77
424.32	0.00
424.50	21.06
424.69	53.83
424.88	39.79
425.07	49.15
425.26	74.90
425.45	32.77
425.64	32.77
425.83	74.90
426.01	44.47
426.20	4.68
426.39	0.00
426.58	65.54
426.77	77.24
426.96	0.00
427.15	0.00
427.33	32.77
427.52	0.00
427.71	51.49
427.90	0.00
428.09	39.79
428.28	0.00
428.46	0.00
428.65	51.49
428.84	37.45
429.03	11.70
429.22	30.43
429.40	72.56
429.59	14.04
429.78	14.04
429.97	14.04
430.16	102.98
430.34	0.00
430.53	11.70
430.72	11.70
430.91	72.56
431.10	4.68
431.28	37.45
431.47	0.00
431.66	0.00
431.85	42.13
432.03	37.45
432.22	35.11
432.41	0.00
432.60	42.13
432.79	28.09
432.97	0.00
433.16	4.68
433.35	0.00
433.54	0.00
433.72	74.90
433.91	0.00
434.10	16.38
434.28	25.75
434.47	0.00
434.66	77.24
434.85	4.68
435.03	44.47
435.22	18.72
435.41	37.45
435.59	53.83
435.78	84.26
435.97	0.00
436.16	37.45
436.34	25.75
436.53	11.70
436.72	100.64
436.90	37.45
437.09	11.70
437.28	0.00
437.46	28.09
437.65	4.68
437.84	77.24
438.02	77.24
438.21	107.66
438.40	0.00
438.58	32.77
438.77	63.19
438.96	58.51
439.14	77.24
439.33	49.15
439.52	53.83
439.70	32.77
439.89	88.94
440.08	65.54
440.26	102.98
440.45	14.04
440.63	79.58
440.82	42.13
441.01	0.00
441.19	0.00
441.38	2.34
441.57	37.45
441.75	53.83
441.94	0.00
442.12	11.70
442.31	14.04
442.50	0.00
442.68	0.00
442.87	35.11
443.05	2.34
443.24	35.11
443.43	28.09
443.61	105.32
443.80	65.54
443.98	0.00
444.17	28.09
444.35	25.75
444.54	32.77
444.73	35.11
444.91	77.24
445.10	30.43
445.28	7.02
445.47	9.36
445.65	18.72
445.84	0.00
446.02	60.85
446.21	88.94
446.39	0.00
446.58	0.00
446.77	0.00
446.95	35.11
447.14	72.56
447.32	0.00
447.51	14.04
447.69	11.70
447.88	9.36
448.06	65.54
448.25	51.49
448.43	0.00
448.62	32.77
448.80	42.13
448.99	0.00
449.17	86.60
449.36	49.15
449.54	60.85
449.73	9.36
449.91	0.00
450.10	7.02
450.28	86.60
450.46	0.00
450.65	30.43
450.83	49.15
451.02	0.00
451.20	0.00
451.39	0.00
451.57	9.36
451.76	88.94
451.94	0.00
452.13	42.13
452.31	53.83
452.49	0.00
452.68	51.49
452.86	35.11
453.05	9.36
453.23	86.60
453.42	32.77
453.60	32.77
453.78	65.54
453.97	42.13
454.15	0.00
454.34	81.92
454.52	0.00
454.70	23.41
454.89	0.00
455.07	0.00
455.26	0.00
455.44	0.00
455.62	0.00
455.81	18.72
455.99	21.06
456.17	53.83
456.36	79.58
456.54	44.47
456.73	28.09
456.91	37.45
457.09	72.56
457.28	53.83
457.46	16.38
457.64	49.15
457.83	56.17
458.01	0.00
458.19	28.09
458.38	0.00
458.56	51.49
458.74	28.09
458.93	53.83
459.11	58.51
459.29	16.38
459.48	9.36
459.66	49.15
459.84	4.68
460.03	39.79
460.21	42.13
460.39	51.49
460.57	46.81
460.76	4.68
460.94	81.92
461.12	23.41
461.31	53.83
461.49	0.00
461.67	0.00
461.85	0.00
462.04	51.49
462.22	51.49
462.40	72.56
462.59	18.72
462.77	0.00
462.95	63.19
463.13	128.73
463.32	32.77
463.50	72.56
463.68	14.04
463.86	32.77
464.05	28.09
464.23	23.41
464.41	0.00
464.59	0.00
464.78	0.00
464.96	58.51
465.14	42.13
465.32	107.66
465.50	11.70
465.69	25.75
465.87	74.90
466.05	77.24
466.23	53.83
466.41	56.17
466.60	58.51
466.78	39.79
466.96	21.06
467.14	4.68
467.32	51.49
467.51	0.00
467.69	37.45
467.87	98.30
468.05	18.72
468.23	21.06
468.41	63.19
468.60	0.00
468.78	81.92
468.96	46.81
469.14	35.11
469.32	39.79
469.50	21.06
469.69	14.04
469.87	49.15
470.05	67.88
470.23	23.41
470.41	0.00
470.59	28.09
470.77	32.77
470.95	0.00
471.14	0.00
471.32	0.00
471.50	58.51
471.68	18.72
471.86	11.70
472.04	0.00
472.22	25.75
472.40	32.77
472.58	0.00
472.77	72.56
472.95	14.04
473.13	63.19
473.31	46.81
473.49	16.38
473.67	0.00
473.85	0.00
474.03	25.75
474.21	18.72
474.39	32.77
474.57	79.58
474.75	28.09
474.93	25.75
475.12	105.32
475.30	112.35
475.48	51.49
475.66	23.41
475.84	56.17
476.02	39.79
476.20	72.56
476.38	77.24
476.56	84.26
476.74	35.11
476.92	63.19
477.10	21.06
477.28	44.47
477.46	67.88
477.64	39.79
477.82	72.56
478.00	23.41
478.18	53.83
478.36	4.68
478.54	42.13
478.72	0.00
478.90	0.00
479.08	9.36
479.26	49.15
479.44	63.19
479.62	14.04
479.80	46.81
479.98	72.56
480.16	18.72
480.34	35.11
480.52	16.38
480.70	30.43
480.88	23.41
481.06	37.45
481.24	0.00
481.41	70.22
481.59	23.41
481.77	51.49
481.95	4.68
482.13	51.49
482.31	42.13
482.49	0.00
482.67	93.62
482.85	49.15
483.03	28.09
483.21	9.36
483.39	77.24
483.57	74.90
483.74	0.00
483.92	53.83
484.10	11.70
484.28	81.92
484.46	9.36
484.64	51.49
484.82	32.77
485.00	44.47
485.18	30.43
485.35	88.94
485.53	35.11
485.71	28.09
485.89	39.79
486.07	67.88
486.25	37.45
486.43	0.00
486.61	0.00
486.78	23.41
486.96	44.47
487.14	58.51
487.32	91.28
487.50	23.41
487.68	30.43
487.85	72.56
488.03	126.39
488.21	53.83
488.39	63.19
488.57	86.60
488.75	35.11
488.92	72.56
489.10	28.09
489.28	0.00
489.46	2.34
489.64	44.47
489.81	67.88
489.99	88.94
490.17	30.43
490.35	112.35
490.53	53.83
490.70	42.13
490.88	0.00
491.06	0.00
491.24	23.41
491.41	14.04
491.59	30.43
491.77	30.43
491.95	0.00
492.13	16.38
492.30	70.22
492.48	18.72
492.66	21.06
492.84	70.22
493.01	51.49
493.19	74.90
493.37	16.38
493.54	67.88
493.72	86.60
493.90	30.43
494.08	67.88
494.25	107.66
494.43	121.71
494.61	0.00
494.79	51.49
494.96	86.60
495.14	51.49
495.32	95.96
495.49	23.41
495.67	37.45
495.85	35.11
496.02	51.49
496.20	14.04
496.38	0.00
496.55	23.41
496.73	0.00
496.91	4.68
497.09	0.00
497.26	21.06
497.44	93.62
497.62	0.00
497.79	0.00
497.97	95.96
498.14	0.00
498.32	18.72
498.50	30.43
498.67	44.47
498.85	37.45
499.03	7.02
499.20	91.28
499.38	32.77
499.56	72.56
499.73	77.24
499.91	0.00
500.08	23.41
500.26	0.00
500.44	0.00
500.61	30.43
500.79	56.17
500.97	58.51
501.14	32.77
501.32	42.13
501.49	23.41
501.67	86.60
501.84	0.00
502.02	86.60
502.20	0.00
502.37	107.66
502.55	60.85
502.72	9.36
502.90	32.77
503.07	88.94
503.25	30.43
503.43	25.75
503.60	0.00
503.78	79.58
503.95	91.28
504.13	67.88
504.30	63.19
504.48	11.70
504.65	0.00
504.83	0.00
505.01	21.06
505.18	0.00
505.36	107.66
505.53	23.41
505.71	56.17
505.88	2.34
506.06	7.02
506.23	44.47
506.41	81.92
506.58	16.38
506.76	32.77
506.93	77.24
507.11	79.58
507.28	84.26
507.46	56.17
507.63	42.13
507.81	25.75
507.98	4.68
508.16	51.49
508.33	70.22
508.50	70.22
508.68	77.24
508.85	0.00
509.03	16.38
509.20	0.00
509.38	0.00
509.55	32.77
509.73	74.90
509.90	49.15
510.08	70.22
510.25	60.85
510.42	9.36
510.60	58.51
510.77	23.41
510.95	25.75
511.12	84.26
511.30	28.09
511.47	100.64
511.64	23.41
511.82	0.00
511.99	0.00
512.17	7.02
512.34	117.03
512.51	0.00
512.69	42.13
512.86	53.83
513.04	0.00
513.21	81.92
513.38	30.43
513.56	0.00
513.73	0.00
513.90	0.00
514.08	0.00
514.25	67.88
514.43	16.38
514.60	9.36
514.77	0.00
514.95	14.04
515.12	21.06
515.29	0.00
515.47	28.09
515.64	84.26
515.81	58.51
515.99	56.17
516.16	11.70
516.33	77.24
516.51	102.98
516.68	0.00
516.85	93.62
517.03	23.41
517.20	60.85
517.37	18.72
517.54	70.22
517.72	81.92
517.89	0.00
518.06	46.81
518.24	105.32
518.41	37.45
518.58	21.06
518.75	0.00
518.93	39.79
519.10	23.41
519.27	44.47
519.45	65.54
519.62	37.45
519.79	58.51
519.96	30.43
520.14	93.62
520.31	0.00
520.48	42.13
520.65	51.49
520.83	65.54
521.00	60.85
521.17	30.43
521.34	114.69
521.52	77.24
521.69	42.13
521.86	53.83
522.03	0.00
522.20	0.00
522.38	98.30
522.55	65.54
522.72	49.15
522.89	77.24
523.07	112.35
523.24	49.15
523.41	18.72
523.58	51.49
523.75	35.11
523.92	67.88
524.10	0.00
524.27	72.56
524.44	25.75
524.61	49.15
524.78	81.92
524.96	95.96
525.13	88.94
525.30	53.83
525.47	72.56
525.64	30.43
525.81	35.11
525.98	67.88
526.16	0.00
526.33	77.24
526.50	112.35
526.67	46.81
526.84	39.79
527.01	39.79
527.18	0.00
527.36	44.47
527.53	7.02
527.70	35.11
527.87	56.17
528.04	88.94
528.21	14.04
528.38	0.00
528.55	0.00
528.72	65.54
528.89	0.00
529.07	25.75
529.24	49.15
529.41	53.83
529.58	79.58
529.75	37.45
529.92	42.13
530.09	86.60
530.26	51.49
530.43	0.00
530.60	60.85
530.77	18.72
530.94	70.22
531.11	25.75
531.28	67.88
531.46	42.13
531.63	51.49
531.80	70.22
531.97	30.43
532.14	53.83
532.31	56.17
532.48	25.75
532.65	72.56
532.82	16.38
532.99	25.75
533.16	124.05
533.33	86.60
533.50	2.34
533.67	28.09
533.84	44.47
534.01	70.22
534.18	100.64
534.35	81.92
534.52	16.38
534.69	51.49
534.86	63.19
535.03	70.22
535.20	65.54
535.37	63.19
535.54	86.60
535.71	0.00
535.88	63.19
536.05	102.98
536.22	86.60
536.38	65.54
536.55	63.19
536.72	28.09
536.89	60.85
537.06	0.00
537.23	98.30
537.40	58.51
537.57	0.00
537.74	23.41
537.91	7.02
538.08	60.85
538.25	46.81
538.42	84.26
538.59	95.96
538.75	44.47
538.92	49.15
539.09	63.19
539.26	0.00
539.43	28.09
539.60	14.04
539.77	0.00
539.94	0.00
540.11	88.94
540.28	119.37
540.44	2.34
540.61	28.09
540.78	14.04
540.95	56.17
541.12	110.01
541.29	0.00
541.46	39.79
541.62	0.00
541.79	0.00
541.96	0.00
542.13	9.36
542.30	2.34
542.47	32.77
542.63	63.19
542.80	0.00
542.97	21.06
543.14	39.79
543.31	49.15
543.48	2.34
543.64	81.92
543.81	21.06
543.98	14.04
544.15	0.00
544.32	72.56
544.48	4.68
544.65	46.81
544.82	49.15
544.99	65.54
545.16	72.56
545.32	35.11
545.49	81.92
545.66	56.17
545.83	100.64
546.00	102.98
546.16	11.70
546.33	126.39
546.50	30.43
546.67	88.94
546.83	0.00
547.00	44.47
547.17	25.75
547.34	30.43
547.50	30.43
547.67	2.34
547.84	46.81
548.00	30.43
548.17	0.00
548.34	25.75
548.51	14.04
548.67	63.19
548.84	7.02
549.01	121.71
549.18	65.54
549.34	49.15
549.51	0.00
549.68	100.64
549.84	67.88
550.01	0.00
550.18	0.00
550.34	28.09
550.51	0.00
550.68	35.11
550.84	21.06
551.01	11.70
551.18	79.58
551.34	142.77
551.51	39.79
551.68	28.09
551.84	72.56
552.01	23.41
552.18	51.49
552.34	42.13
552.51	30.43
552.68	70.22
552.84	51.49
553.01	107.66
553.18	98.30
553.34	81.92
553.51	0.00
553.67	98.30
553.84	32.77
554.01	70.22
554.17	119.37
554.34	53.83
554.51	46.81
554.67	46.81
554.84	95.96
555.00	58.51
555.17	0.00
555.33	39.79
555.50	49.15
555.67	32.77
555.83	60.85
556.00	28.09
556.16	100.64
556.33	77.24
556.50	95.96
556.66	70.22
556.83	0.00
556.99	0.00
557.16	0.00
557.32	74.90
557.49	35.11
557.65	44.47
557.82	72.56
557.98	18.72
558.15	53.83
558.32	28.09
558.48	9.36
558.65	53.83
558.81	0.00
558.98	16.38
559.14	46.81
559.31	56.17
559.47	11.70
559.64	35.11
559.80	86.60
559.97	16.38
560.13	32.77
560.30	67.88
560.46	37.45
560.63	0.00
560.79	56.17
560.96	0.00
561.12	88.94
561.29	35.11
561.45	39.79
561.61	79.58
561.78	70.22
561.94	44.47
562.11	51.49
562.27	0.00
562.44	44.47
562.60	7.02
562.77	0.00
562.93	25.75
563.10	0.00
563.26	16.38
563.42	42.13
563.59	79.58
563.75	9.36
563.92	18.72
564.08	51.49
564.24	25.75
564.41	11.70
564.57	0.00
564.74	91.28
564.90	32.77
565.07	88.94
565.23	65.54
565.39	67.88
565.56	72.56
565.72	4.68
565.88	58.51
566.05	21.06
566.21	117.03
566.38	28.09
566.54	42.13
566.70	21.06
566.87	9.36
567.03	0.00
567.19	0.00
567.36	0.00
567.52	0.00
567.68	51.49
567.85	100.64
568.01	9.36
568.17	53.83
568.34	56.17
568.50	53.83
568.66	51.49
568.83	0.00
568.99	74.90
569.15	23.41
569.32	21.06
569.48	0.00
569.64	44.47
569.81	70.22
569.97	46.81
570.13	93.62
570.30	86.60
570.46	72.56
570.62	70.22
570.78	77.24
570.95	37.45
571.11	16.38
571.27	60.85
571.43	11.70
571.60	63.19
571.76	25.75
571.92	91.28
572.09	49.15
572.25	49.15
572.41	51.49
572.57	30.43
572.74	28.09
572.90	86.60
573.06	0.00
573.22	37.45
573.38	65.54
573.55	84.26
573.71	0.00
573.87	74.90
574.03	28.09
574.20	21.06
574.36	107.66
574.52	44.47
574.68	0.00
574.84	42.13
575.01	100.64
575.17	46.81
575.33	4.68
575.49	32.77
575.65	23.41
575.82	37.45
575.98	105.32
576.14	0.00
576.30	11.70
576.46	23.41
576.62	11.70
576.79	35.11
576.95	0.00
577.11	63.19
577.27	81.92
577.43	16.38
577.59	37.45
577.75	16.38
577.92	44.47
578.08	18.72
578.24	0.00
578.40	60.85
578.56	77.24
578.72	88.94
578.88	9.36
579.04	16.38
579.21	42.13
579.37	0.00
579.53	25.75
579.69	7.02
579.85	23.41
580.01	18.72
580.17	0.00
580.33	0.00
580.49	100.64
580.65	46.81
580.82	28.09
580.98	42.13
581.14	58.51
581.30	0.00
581.46	60.85
581.62	44.47
581.78	30.43
581.94	11.70
582.10	51.49
582.26	23.41
582.42	60.85
582.58	39.79
582.74	2.34
582.90	51.49
583.06	23.41
583.22	0.00
583.38	7.02
583.54	51.49
583.70	7.02
583.86	79.58
584.02	56.17
584.18	23.41
584.34	25.75
584.50	51.49
584.66	44.47
584.82	44.47
584.98	84.26
585.14	177.88
585.30	65.54
585.46	25.75
585.62	0.00
585.78	35.11
585.94	56.17
586.10	0.00
586.26	32.77
586.42	25.75
586.58	0.00
586.74	56.17
586.90	0.00
587.06	63.19
587.22	51.49
587.38	0.00
587.54	11.70
587.70	39.79
587.86	72.56
588.02	53.83
588.18	0.00
588.34	0.00
588.49	11.70
588.65	42.13
588.81	117.03
588.97	72.56
589.13	30.43
589.29	0.00
589.45	18.72
589.61	21.06
589.77	117.03
589.93	0.00
590.08	46.81
590.24	9.36
590.40	86.60
590.56	28.09
590.72	77.24
590.88	39.79
591.04	25.75
591.20	42.13
591.35	14.04
591.51	112.35
591.67	42.13
591.83	14.04
591.99	28.09
592.15	7.02
592.31	0.00
592.46	39.79
592.62	9.36
592.78	4.68
592.94	2.34
593.10	11.70
593.26	110.01
593.41	70.22
593.57	51.49
593.73	86.60
593.89	67.88
594.05	16.38
594.20	58.51
594.36	0.00
594.52	46.81
594.68	88.94
594.84	44.47
594.99	35.11
595.15	70.22
595.31	58.51
595.47	72.56
595.62	74.90
595.78	9.36
595.94	18.72
596.10	0.00
596.25	35.11
596.41	25.75
596.57	105.32
596.73	58.51
596.88	0.00
597.04	23.41
597.20	35.11
597.36	16.38
597.51	23.41
597.67	32.77
597.83	37.45
597.99	4.68
598.14	0.00
598.30	56.17
598.46	0.00
598.61	63.19
598.77	18.72
598.93	0.00
599.09	74.90
599.24	58.51
599.40	4.68
599.56	72.56
599.71	18.72
599.87	39.79
600.03	77.24
600.18	9.36
600.34	77.24
600.50	18.72
600.65	39.79
600.81	42.13
600.97	110.01
601.12	0.00
601.28	72.56
601.44	84.26
601.59	58.51
601.75	70.22
601.91	11.70
602.06	25.75
602.22	51.49
602.37	4.68
602.53	124.05
602.69	107.66
602.84	0.00
603.00	58.51
603.16	25.75
603.31	74.90
603.47	21.06
603.62	14.04
603.78	11.70
603.94	140.43
604.09	18.72
604.25	46.81
604.40	46.81
604.56	37.45
604.71	159.16
604.87	60.85
605.03	37.45
605.18	86.60
605.34	88.94
605.49	11.70
605.65	46.81
605.80	51.49
605.96	67.88
606.12	0.00
606.27	44.47
606.43	56.17
606.58	11.70
606.74	110.01
606.89	23.41
607.05	37.45
607.20	4.68
607.36	37.45
607.51	39.79
607.67	51.49
607.82	67.88
607.98	51.49
608.13	42.13
608.29	7.02
608.44	0.00
608.60	0.00
608.75	56.17
608.91	81.92
609.06	0.00
609.22	44.47
609.37	9.36
609.53	79.58
609.68	51.49
609.84	51.49
609.99	9.36
610.15	0.00
610.30	0.00
610.46	49.15
610.61	42.13
610.76	53.83
610.92	0.00
611.07	46.81
611.23	0.00
611.38	67.88
611.54	67.88
611.69	79.58
611.84	112.35
612.00	14.04
612.15	44.47
612.31	21.06
612.46	0.00
612.62	0.00
612.77	23.41
612.92	0.00
613.08	28.09
613.23	95.96
613.39	63.19
613.54	32.77
613.69	42.13
613.85	0.00
614.00	0.00
614.15	23.41
614.31	23.41
614.46	0.00
614.62	9.36
614.77	16.38
614.92	37.45
615.08	37.45
615.23	100.64
615.38	46.81
615.54	0.00
615.69	28.09
615.84	42.13
616.00	67.88
616.15	0.00
616.30	72.56
616.46	0.00
616.61	0.00
616.76	11.70
616.92	0.00
617.07	0.00
617.22	0.00
617.37	0.00
617.53	37.45
617.68	4.68
617.83	70.22
617.99	44.47
618.14	25.75
618.29	37.45
618.45	49.15
618.60	9.36
618.75	42.13
618.90	46.81
619.06	53.83
619.21	0.00
619.36	14.04
619.51	56.17
619.67	98.30
619.82	0.00
619.97	63.19
620.12	25.75
620.28	0.00
620.43	65.54
620.58	30.43
620.73	119.37
620.89	9.36
621.04	95.96
621.19	39.79
621.34	39.79
621.49	7.02
621.65	63.19
621.80	25.75
621.95	37.45
622.10	16.38
622.25	2.34
622.41	95.96
622.56	65.54
622.71	23.41
622.86	53.83
623.01	91.28
623.16	46.81
623.32	7.02
623.47	58.51
623.62	30.43
623.77	112.35
623.92	28.09
624.07	84.26
624.23	0.00
624.38	0.00
624.53	0.00
624.68	72.56
624.83	77.24
624.98	86.60
625.13	81.92
625.29	35.11
625.44	30.43
625.59	0.00
625.74	0.00
625.89	74.90
626.04	18.72
626.19	0.00
626.34	0.00
626.49	30.43
626.65	0.00
626.80	72.56
626.95	60.85
627.10	9.36
627.25	72.56
627.40	53.83
627.55	32.77
627.70	4.68
627.85	7.02
628.00	0.00
628.15	25.75
628.30	91.28
628.45	0.00
628.60	58.51
628.76	16.38
628.91	42.13
629.06	23.41
629.21	49.15
629.36	0.00
629.51	49.15
629.66	49.15
629.81	9.36
629.96	0.00
630.11	0.00
630.26	14.04
630.41	51.49
630.56	32.77
630.71	42.13
630.86	56.17
631.01	93.62
631.16	35.11
631.31	0.00
631.46	72.56
631.61	35.11
631.76	100.64
631.91	14.04
632.06	63.19
632.21	30.43
632.36	7.02
632.51	63.19
632.66	0.00
632.81	100.64
632.96	39.79
633.10	2.34
633.25	32.77
633.40	70.22
633.55	21.06
633.70	67.88
633.85	0.00
634.00	0.00
634.15	81.92
634.30	35.11
634.45	51.49
634.60	16.38
634.75	9.36
634.90	107.66
635.05	56.17
635.19	37.45
635.34	107.66
635.49	56.17
635.64	117.03
635.79	81.92
635.94	42.13
636.09	0.00
636.24	0.00
636.39	37.45
636.53	23.41
636.68	51.49
636.83	65.54
636.98	14.04
637.13	42.13
637.28	32.77
637.43	39.79
637.57	74.90
637.72	16.38
637.87	37.45
638.02	77.24
638.17	7.02
638.32	0.00
638.46	86.60
638.61	67.88
638.76	44.47
638.91	42.13
639.06	30.43
639.20	51.49
639.35	32.77
639.50	42.13
639.65	70.22
639.80	77.24
639.94	25.75
640.09	0.00
640.24	25.75
640.39	49.15
640.54	39.79
640.68	51.49
640.83	105.32
640.98	79.58
641.13	21.06
641.27	63.19
641.42	56.17
641.57	46.81
641.72	0.00
641.86	58.51
642.01	37.45
642.16	16.38
642.31	74.90
642.45	11.70
642.60	0.00
642.75	74.90
642.90	56.17
643.04	0.00
643.19	25.75
643.34	49.15
643.48	0.00
643.63	81.92
643.78	11.70
643.93	14.04
644.07	91.28
644.22	30.43
644.37	21.06
644.51	51.49
644.66	42.13
644.81	86.60
644.95	51.49
645.10	98.30
645.25	35.11
645.39	0.00
645.54	81.92
645.69	11.70
645.83	28.09
645.98	0.00
646.13	0.00
646.27	0.00
646.42	25.75
646.57	35.11
646.71	0.00
646.86	0.00
647.00	0.00
647.15	28.09
647.30	44.47
647.44	2.34
647.59	35.11
647.74	25.75
647.88	0.00
648.03	0.00
648.17	2.34
648.32	58.51
648.47	100.64
648.61	14.04
648.76	102.98
648.90	49.15
649.05	88.94
649.20	0.00
649.34	7.02
649.49	0.00
649.63	131.07
649.78	79.58
649.92	77.24
650.07	21.06
650.21	25.75
650.36	86.60
650.51	32.77
650.65	100.64
650.80	25.75
650.94	77.24
651.09	32.77
651.23	0.00
651.38	14.04
651.52	0.00
651.67	0.00
651.81	63.19
651.96	56.17
652.10	56.17
652.25	72.56
652.39	67.88
652.54	53.83
652.68	63.19
652.83	42.13
652.97	58.51
653.12	0.00
653.26	2.34
653.41	25.75
653.55	0.00
653.70	56.17
653.84	11.70
653.99	25.75
654.13	7.02
654.27	0.00
654.42	30.43
654.56	56.17
654.71	0.00
654.85	0.00
655.00	7.02
655.14	65.54
655.29	74.90
655.43	0.00
655.57	2.34
655.72	60.85
655.86	30.43
656.01	0.00
656.15	39.79
656.30	21.06
656.44	53.83
656.58	0.00
656.73	37.45
656.87	46.81
657.01	98.30
657.16	25.75
657.30	0.00
657.45	28.09
657.59	42.13
657.73	0.00
657.88	51.49
658.02	0.00
658.16	0.00
658.31	11.70
658.45	65.54
658.60	18.72
658.74	23.41
658.88	79.58
659.03	128.73
659.17	86.60
659.31	51.49
659.46	14.04
659.60	25.75
659.74	42.13
659.89	23.41
660.03	18.72
660.17	63.19
660.32	21.06
660.46	4.68
660.60	7.02
660.74	53.83
660.89	32.77
661.03	0.00
661.17	0.00
661.32	0.00
661.46	60.85
661.60	37.45
661.74	35.11
661.89	39.79
662.03	58.51
662.17	46.81
662.31	81.92
662.46	16.38
662.60	28.09
662.74	0.00
662.88	0.00
663.03	79.58
663.17	114.69
663.31	124.05
663.45	60.85
663.60	35.11
663.74	37.45
663.88	11.70
664.02	56.17
664.17	35.11
664.31	58.51
664.45	21.06
664.59	7.02
664.73	4.68
664.88	110.01
665.02	35.11
665.16	46.81
665.30	37.45
665.44	0.00
665.59	0.00
665.73	65.54
665.87	0.00
666.01	65.54
666.15	42.13
666.29	0.00
666.44	0.00
666.58	107.66
666.72	0.00
666.86	65.54
667.00	0.00
667.14	65.54
667.28	67.88
667.43	91.28
667.57	4.68
667.71	74.90
667.85	98.30
667.99	74.90
668.13	56.17
668.27	72.56
668.41	11.70
668.56	86.60
668.70	58.51
668.84	23.41
668.98	4.68
669.12	56.17
669.26	37.45
669.40	53.83
669.54	25.75
669.68	79.58
669.82	2.34
669.96	110.01
670.10	39.79
670.25	25.75
670.39	0.00
670.53	126.39
670.67	30.43
670.81	0.00
670.95	39.79
671.09	0.00
671.23	37.45
671.37	16.38
671.51	58.51
671.65	56.17
671.79	88.94
671.93	81.92
672.07	72.56
672.21	0.00
672.35	7.02
672.49	0.00
672.63	4.68
672.77	0.00
672.91	23.41
673.05	44.47
673.19	74.90
673.33	7.02
673.47	60.85
673.61	58.51
673.75	63.19
673.89	32.77
674.03	121.71
674.17	2.34
674.31	28.09
674.45	28.09
674.59	25.75
674.73	37.45
674.87	44.47
675.01	0.00
675.15	0.00
675.29	86.60
675.43	0.00
675.56	60.85
675.70	42.13
675.84	74.90
675.98	21.06
676.12	32.77
676.26	0.00
676.40	46.81
676.54	39.79
676.68	32.77
676.82	35.11
676.96	0.00
677.10	140.43
677.23	124.05
677.37	16.38
677.51	0.00
677.65	2.34
677.79	2.34
677.93	56.17
678.07	102.98
678.21	91.28
678.34	42.13
678.48	35.11
678.62	30.43
678.76	53.83
678.90	28.09
679.04	25.75
679.18	0.00
679.31	37.45
679.45	0.00
679.59	0.00
679.73	39.79
679.87	18.72
680.00	0.00
680.14	7.02
680.28	70.22
680.42	65.54
680.56	30.43
680.70	67.88
680.83	44.47
680.97	2.34
681.11	84.26
681.25	63.19
681.39	46.81
681.52	25.75
681.66	42.13
681.80	91.28
681.94	18.72
682.07	140.43
682.21	32.77
682.35	86.60
682.49	2.34
682.62	91.28
682.76	32.77
682.90	67.88
683.04	58.51
683.17	51.49
683.31	37.45
683.45	70.22
683.59	2.34
683.72	53.83
683.86	9.36
684.00	95.96
684.13	30.43
684.27	49.15
684.41	16.38
684.55	0.00
684.68	74.90
684.82	7.02
684.96	23.41
685.09	30.43
685.23	65.54
685.37	44.47
685.50	30.43
685.64	49.15
685.78	30.43
685.91	0.00
686.05	51.49
686.19	30.43
686.32	51.49
686.46	81.92
686.60	0.00
686.73	11.70
686.87	58.51
687.01	7.02
687.14	2.34
687.28	0.00
687.42	21.06
687.55	74.90
687.69	0.00
687.82	0.00
687.96	0.00
688.10	46.81
688.23	25.75
688.37	42.13
688.50	25.75
688.64	39.79
688.78	58.51
688.91	81.92
689.05	0.00
689.18	46.81
689.32	81.92
689.46	65.54
689.59	49.15
689.73	4.68
689.86	11.70
690.00	35.11
690.13	25.75
690.27	53.83
690.41	39.79
690.54	60.85
690.68	51.49
690.81	2.34
690.95	16.38
691.08	42.13
691.22	28.09
691.35	37.45
691.49	30.43
691.62	21.06
691.76	86.60
691.89	79.58
692.03	49.15
692.16	32.77
692.30	23.41
692.43	0.00
692.57	35.11
692.70	58.51
692.84	28.09
692.97	56.17
693.11	4.68
693.24	0.00
693.38	14.04
693.51	30.43
693.65	32.77
693.78	84.26
693.92	81.92
694.05	51.49
694.19	0.00
694.32	67.88
694.45	39.79
694.59	11.70
694.72	56.17
694.86	37.45
694.99	39.79
695.13	4.68
695.26	44.47
695.39	11.70
695.53	74.90
695.66	88.94
695.80	28.09
695.93	14.04
696.07	42.13
696.20	0.00
696.33	25.75
696.47	0.00
696.60	14.04
696.73	0.00
696.87	67.88
697.00	58.51
697.14	37.45
697.27	14.04
697.40	2.34
697.54	32.77
697.67	11.70
697.80	4.68
697.94	28.09
698.07	58.51
698.21	70.22
698.34	65.54
698.47	63.19
698.61	67.88
698.74	67.88
698.87	37.45
699.01	77.24
699.14	14.04
699.27	46.81
699.40	67.88
699.54	9.36
699.67	35.11
699.80	14.04
699.94	7.02
700.07	21.06
700.20	18.72
700.34	0.00
700.47	14.04
700.60	72.56
700.73	9.36
700.87	110.01
701.00	42.13
701.13	119.37
701.26	7.02
701.40	74.90
701.53	28.09
701.66	16.38
701.79	30.43
701.93	37.45
702.06	84.26
702.19	18.72
702.32	49.15
702.46	14.04
702.59	74.90
702.72	51.49
702.85	25.75
702.99	39.79
703.12	23.41
703.25	53.83
703.38	0.00
703.51	28.09
703.65	16.38
703.78	30.43
703.91	42.13
704.04	28.09
704.17	0.00
704.31	37.45
704.44	0.00
704.57	11.70
704.70	4.68
704.83	16.38
704.96	0.00
705.10	0.00
705.23	21.06
>>>>>End Processed Spectral Data<<<<<
