SpectraSuite Data File
++++++++++++++++++++++++++++++++++++
Date: Fri Oct 04 12:13:33 GMT-05:00 2013
User: price-jones
Dark Spectrum Present: No
Reference Spectrum Present: No
Number of Sampled Component Spectra: 1
Spectrometers: USB2+H05261
Integration Time (usec): 10000 (USB2+H05261)
Spectra Averaged: 1 (USB2+H05261)
Boxcar Smoothing: 0 (USB2+H05261)
Correct for Electrical Dark: No (USB2+H05261)
Strobe/Lamp Enabled: No (USB2+H05261)
Correct for Detector Non-linearity: No (USB2+H05261)
Correct for Stray Light: No (USB2+H05261)
Number of Pixels in Processed Spectrum: 2048
>>>>>Begin Processed Spectral Data<<<<<
365.73	37.45
365.92	37.45
366.12	37.45
366.32	0.00
366.52	0.00
366.72	0.00
366.91	0.00
367.11	0.00
367.31	0.00
367.51	0.00
367.70	0.00
367.90	0.00
368.10	0.00
368.30	0.00
368.49	0.00
368.69	0.00
368.89	0.00
369.09	0.00
369.28	0.00
369.48	0.00
369.68	0.00
369.87	0.00
370.07	0.00
370.27	0.00
370.47	0.00
370.66	0.00
370.86	0.00
371.06	0.00
371.25	0.00
371.45	0.00
371.65	0.00
371.84	0.00
372.04	0.00
372.24	4.68
372.44	0.00
372.63	0.00
372.83	42.13
373.03	0.00
373.22	44.47
373.42	42.13
373.62	44.47
373.81	53.83
374.01	39.79
374.21	58.51
374.40	44.47
374.60	0.00
374.79	23.41
374.99	72.56
375.19	16.38
375.38	56.17
375.58	35.11
375.78	0.00
375.97	107.66
376.17	39.79
376.37	56.17
376.56	0.00
376.76	42.13
376.95	0.00
377.15	0.00
377.35	93.62
377.54	84.26
377.74	32.77
377.93	0.00
378.13	9.36
378.33	46.81
378.52	28.09
378.72	42.13
378.91	46.81
379.11	42.13
379.31	0.00
379.50	0.00
379.70	0.00
379.89	0.00
380.09	11.70
380.28	23.41
380.48	70.22
380.68	0.00
380.87	0.00
381.07	18.72
381.26	67.88
381.46	65.54
381.65	49.15
381.85	0.00
382.04	14.04
382.24	16.38
382.43	9.36
382.63	0.00
382.83	11.70
383.02	0.00
383.22	35.11
383.41	0.00
383.61	46.81
383.80	42.13
384.00	0.00
384.19	11.70
384.39	0.00
384.58	14.04
384.78	102.98
384.97	37.45
385.17	0.00
385.36	7.02
385.56	14.04
385.75	16.38
385.95	0.00
386.14	9.36
386.34	18.72
386.53	11.70
386.72	0.00
386.92	32.77
387.11	93.62
387.31	0.00
387.50	18.72
387.70	14.04
387.89	0.00
388.09	0.00
388.28	28.09
388.48	0.00
388.67	32.77
388.86	18.72
389.06	18.72
389.25	100.64
389.45	35.11
389.64	0.00
389.84	0.00
390.03	0.00
390.22	32.77
390.42	32.77
390.61	16.38
390.81	25.75
391.00	0.00
391.19	95.96
391.39	0.00
391.58	14.04
391.78	0.00
391.97	28.09
392.16	0.00
392.36	9.36
392.55	18.72
392.75	72.56
392.94	91.28
393.13	98.30
393.33	44.47
393.52	14.04
393.71	0.00
393.91	21.06
394.10	42.13
394.29	107.66
394.49	60.85
394.68	14.04
394.88	65.54
395.07	37.45
395.26	70.22
395.46	58.51
395.65	21.06
395.84	35.11
396.04	86.60
396.23	0.00
396.42	42.13
396.62	65.54
396.81	79.58
397.00	0.00
397.19	44.47
397.39	44.47
397.58	0.00
397.77	42.13
397.97	9.36
398.16	60.85
398.35	25.75
398.55	21.06
398.74	14.04
398.93	28.09
399.12	21.06
399.32	86.60
399.51	7.02
399.70	49.15
399.90	0.00
400.09	11.70
400.28	0.00
400.47	0.00
400.67	9.36
400.86	49.15
401.05	67.88
401.24	25.75
401.44	32.77
401.63	81.92
401.82	67.88
402.01	46.81
402.21	37.45
402.40	21.06
402.59	0.00
402.78	79.58
402.97	81.92
403.17	35.11
403.36	102.98
403.55	46.81
403.74	0.00
403.93	0.00
404.13	11.70
404.32	23.41
404.51	39.79
404.70	16.38
404.89	74.90
405.09	11.70
405.28	44.47
405.47	56.17
405.66	63.19
405.85	35.11
406.05	18.72
406.24	9.36
406.43	65.54
406.62	70.22
406.81	25.75
407.00	42.13
407.20	93.62
407.39	60.85
407.58	30.43
407.77	11.70
407.96	32.77
408.15	32.77
408.34	23.41
408.54	0.00
408.73	67.88
408.92	46.81
409.11	0.00
409.30	32.77
409.49	30.43
409.68	0.00
409.87	7.02
410.07	0.00
410.26	46.81
410.45	0.00
410.64	63.19
410.83	67.88
411.02	70.22
411.21	25.75
411.40	42.13
411.59	93.62
411.78	42.13
411.98	39.79
412.17	100.64
412.36	0.00
412.55	0.00
412.74	25.75
412.93	70.22
413.12	0.00
413.31	72.56
413.50	37.45
413.69	30.43
413.88	53.83
414.07	84.26
414.26	0.00
414.45	11.70
414.64	42.13
414.83	0.00
415.02	18.72
415.22	7.02
415.41	35.11
415.60	0.00
415.79	32.77
415.98	114.69
416.17	65.54
416.36	32.77
416.55	16.38
416.74	49.15
416.93	107.66
417.12	0.00
417.31	0.00
417.50	11.70
417.69	46.81
417.88	72.56
418.07	0.00
418.26	35.11
418.45	0.00
418.64	0.00
418.83	49.15
419.02	0.00
419.21	0.00
419.39	7.02
419.58	14.04
419.77	53.83
419.96	16.38
420.15	4.68
420.34	0.00
420.53	0.00
420.72	0.00
420.91	28.09
421.10	28.09
421.29	93.62
421.48	32.77
421.67	37.45
421.86	39.79
422.05	51.49
422.24	0.00
422.43	18.72
422.61	23.41
422.80	0.00
422.99	95.96
423.18	35.11
423.37	42.13
423.56	16.38
423.75	0.00
423.94	0.00
424.13	93.62
424.32	0.00
424.50	46.81
424.69	11.70
424.88	14.04
425.07	0.00
425.26	0.00
425.45	42.13
425.64	65.54
425.83	39.79
426.01	46.81
426.20	0.00
426.39	16.38
426.58	51.49
426.77	65.54
426.96	79.58
427.15	0.00
427.33	35.11
427.52	0.00
427.71	91.28
427.90	2.34
428.09	0.00
428.28	0.00
428.46	0.00
428.65	56.17
428.84	0.00
429.03	0.00
429.22	88.94
429.40	72.56
429.59	0.00
429.78	0.00
429.97	77.24
430.16	0.00
430.34	42.13
430.53	65.54
430.72	0.00
430.91	93.62
431.10	35.11
431.28	65.54
431.47	14.04
431.66	44.47
431.85	21.06
432.03	0.00
432.22	42.13
432.41	42.13
432.60	37.45
432.79	16.38
432.97	4.68
433.16	49.15
433.35	14.04
433.54	4.68
433.72	56.17
433.91	88.94
434.10	7.02
434.28	0.00
434.47	0.00
434.66	35.11
434.85	0.00
435.03	25.75
435.22	32.77
435.41	46.81
435.59	88.94
435.78	2.34
435.97	110.01
436.16	4.68
436.34	2.34
436.53	60.85
436.72	18.72
436.90	56.17
437.09	77.24
437.28	91.28
437.46	58.51
437.65	0.00
437.84	9.36
438.02	35.11
438.21	72.56
438.40	114.69
438.58	0.00
438.77	7.02
438.96	11.70
439.14	39.79
439.33	0.00
439.52	46.81
439.70	65.54
439.89	98.30
440.08	28.09
440.26	0.00
440.45	0.00
440.63	107.66
440.82	0.00
441.01	32.77
441.19	0.00
441.38	0.00
441.57	56.17
441.75	32.77
441.94	100.64
442.12	0.00
442.31	11.70
442.50	81.92
442.68	28.09
442.87	7.02
443.05	37.45
443.24	65.54
443.43	0.00
443.61	18.72
443.80	44.47
443.98	0.00
444.17	14.04
444.35	9.36
444.54	72.56
444.73	21.06
444.91	39.79
445.10	0.00
445.28	39.79
445.47	56.17
445.65	95.96
445.84	0.00
446.02	16.38
446.21	0.00
446.39	44.47
446.58	0.00
446.77	51.49
446.95	0.00
447.14	30.43
447.32	49.15
447.51	0.00
447.69	88.94
447.88	46.81
448.06	58.51
448.25	88.94
448.43	39.79
448.62	21.06
448.80	0.00
448.99	0.00
449.17	35.11
449.36	70.22
449.54	77.24
449.73	39.79
449.91	9.36
450.10	18.72
450.28	30.43
450.46	37.45
450.65	95.96
450.83	0.00
451.02	23.41
451.20	0.00
451.39	30.43
451.57	53.83
451.76	7.02
451.94	88.94
452.13	44.47
452.31	56.17
452.49	56.17
452.68	95.96
452.86	2.34
453.05	39.79
453.23	11.70
453.42	77.24
453.60	60.85
453.78	56.17
453.97	44.47
454.15	84.26
454.34	30.43
454.52	60.85
454.70	32.77
454.89	58.51
455.07	46.81
455.26	0.00
455.44	0.00
455.62	37.45
455.81	72.56
455.99	65.54
456.17	49.15
456.36	65.54
456.54	0.00
456.73	0.00
456.91	23.41
457.09	37.45
457.28	63.19
457.46	49.15
457.64	72.56
457.83	60.85
458.01	21.06
458.19	0.00
458.38	32.77
458.56	102.98
458.74	44.47
458.93	0.00
459.11	23.41
459.29	23.41
459.48	0.00
459.66	0.00
459.84	72.56
460.03	32.77
460.21	9.36
460.39	0.00
460.57	23.41
460.76	60.85
460.94	67.88
461.12	114.69
461.31	60.85
461.49	37.45
461.67	23.41
461.85	42.13
462.04	30.43
462.22	159.16
462.40	79.58
462.59	25.75
462.77	70.22
462.95	77.24
463.13	77.24
463.32	72.56
463.50	44.47
463.68	0.00
463.86	60.85
464.05	42.13
464.23	35.11
464.41	46.81
464.59	93.62
464.78	0.00
464.96	0.00
465.14	86.60
465.32	126.39
465.50	0.00
465.69	39.79
465.87	0.00
466.05	14.04
466.23	25.75
466.41	0.00
466.60	70.22
466.78	18.72
466.96	100.64
467.14	42.13
467.32	112.35
467.51	0.00
467.69	56.17
467.87	18.72
468.05	39.79
468.23	46.81
468.41	53.83
468.60	4.68
468.78	77.24
468.96	53.83
469.14	51.49
469.32	39.79
469.50	44.47
469.69	42.13
469.87	0.00
470.05	44.47
470.23	84.26
470.41	86.60
470.59	35.11
470.77	58.51
470.95	39.79
471.14	51.49
471.32	0.00
471.50	25.75
471.68	37.45
471.86	51.49
472.04	0.00
472.22	42.13
472.40	58.51
472.58	74.90
472.77	35.11
472.95	16.38
473.13	39.79
473.31	84.26
473.49	28.09
473.67	72.56
473.85	49.15
474.03	42.13
474.21	23.41
474.39	72.56
474.57	35.11
474.75	21.06
474.93	7.02
475.12	42.13
475.30	86.60
475.48	81.92
475.66	0.00
475.84	65.54
476.02	53.83
476.20	67.88
476.38	32.77
476.56	79.58
476.74	58.51
476.92	81.92
477.10	9.36
477.28	14.04
477.46	11.70
477.64	44.47
477.82	51.49
478.00	77.24
478.18	7.02
478.36	86.60
478.54	53.83
478.72	0.00
478.90	53.83
479.08	65.54
479.26	37.45
479.44	46.81
479.62	128.73
479.80	30.43
479.98	0.00
480.16	56.17
480.34	32.77
480.52	105.32
480.70	93.62
480.88	119.37
481.06	79.58
481.24	37.45
481.41	63.19
481.59	0.00
481.77	0.00
481.95	44.47
482.13	63.19
482.31	11.70
482.49	0.00
482.67	30.43
482.85	58.51
483.03	44.47
483.21	14.04
483.39	4.68
483.57	16.38
483.74	95.96
483.92	37.45
484.10	39.79
484.28	0.00
484.46	65.54
484.64	72.56
484.82	63.19
485.00	49.15
485.18	39.79
485.35	128.73
485.53	39.79
485.71	35.11
485.89	56.17
486.07	86.60
486.25	25.75
486.43	23.41
486.61	39.79
486.78	14.04
486.96	42.13
487.14	51.49
487.32	23.41
487.50	16.38
487.68	14.04
487.85	0.00
488.03	30.43
488.21	14.04
488.39	53.83
488.57	37.45
488.75	60.85
488.92	86.60
489.10	16.38
489.28	16.38
489.46	74.90
489.64	0.00
489.81	28.09
489.99	84.26
490.17	25.75
490.35	0.00
490.53	25.75
490.70	93.62
490.88	0.00
491.06	67.88
491.24	102.98
491.41	23.41
491.59	0.00
491.77	74.90
491.95	0.00
492.13	4.68
492.30	93.62
492.48	53.83
492.66	60.85
492.84	11.70
493.01	51.49
493.19	0.00
493.37	79.58
493.54	42.13
493.72	0.00
493.90	2.34
494.08	4.68
494.25	44.47
494.43	56.17
494.61	23.41
494.79	39.79
494.96	44.47
495.14	44.47
495.32	18.72
495.49	37.45
495.67	63.19
495.85	44.47
496.02	72.56
496.20	0.00
496.38	51.49
496.55	81.92
496.73	4.68
496.91	58.51
497.09	0.00
497.26	0.00
497.44	70.22
497.62	65.54
497.79	74.90
497.97	81.92
498.14	0.00
498.32	4.68
498.50	28.09
498.67	0.00
498.85	74.90
499.03	9.36
499.20	77.24
499.38	67.88
499.56	39.79
499.73	28.09
499.91	53.83
500.08	79.58
500.26	77.24
500.44	56.17
500.61	18.72
500.79	44.47
500.97	65.54
501.14	81.92
501.32	21.06
501.49	0.00
501.67	37.45
501.84	51.49
502.02	67.88
502.20	53.83
502.37	14.04
502.55	7.02
502.72	58.51
502.90	79.58
503.07	91.28
503.25	65.54
503.43	44.47
503.60	0.00
503.78	63.19
503.95	63.19
504.13	67.88
504.30	58.51
504.48	86.60
504.65	154.48
504.83	88.94
505.01	16.38
505.18	74.90
505.36	18.72
505.53	65.54
505.71	30.43
505.88	9.36
506.06	0.00
506.23	44.47
506.41	18.72
506.58	16.38
506.76	35.11
506.93	25.75
507.11	84.26
507.28	58.51
507.46	102.98
507.63	0.00
507.81	98.30
507.98	51.49
508.16	95.96
508.33	51.49
508.50	91.28
508.68	35.11
508.85	53.83
509.03	107.66
509.20	53.83
509.38	42.13
509.55	121.71
509.73	56.17
509.90	2.34
510.08	32.77
510.25	39.79
510.42	21.06
510.60	128.73
510.77	37.45
510.95	145.11
511.12	60.85
511.30	0.00
511.47	0.00
511.64	70.22
511.82	0.00
511.99	70.22
512.17	49.15
512.34	0.00
512.51	107.66
512.69	44.47
512.86	21.06
513.04	72.56
513.21	28.09
513.38	0.00
513.56	91.28
513.73	121.71
513.90	39.79
514.08	74.90
514.25	58.51
514.43	91.28
514.60	74.90
514.77	147.45
514.95	14.04
515.12	0.00
515.29	65.54
515.47	42.13
515.64	0.00
515.81	91.28
515.99	46.81
516.16	49.15
516.33	95.96
516.51	79.58
516.68	37.45
516.85	46.81
517.03	35.11
517.20	110.01
517.37	91.28
517.54	46.81
517.72	49.15
517.89	110.01
518.06	67.88
518.24	30.43
518.41	72.56
518.58	72.56
518.75	0.00
518.93	79.58
519.10	0.00
519.27	93.62
519.45	39.79
519.62	32.77
519.79	0.00
519.96	58.51
520.14	2.34
520.31	39.79
520.48	42.13
520.65	0.00
520.83	0.00
521.00	51.49
521.17	18.72
521.34	56.17
521.52	42.13
521.69	84.26
521.86	0.00
522.03	16.38
522.20	58.51
522.38	25.75
522.55	4.68
522.72	42.13
522.89	51.49
523.07	60.85
523.24	0.00
523.41	70.22
523.58	0.00
523.75	86.60
523.92	35.11
524.10	49.15
524.27	58.51
524.44	58.51
524.61	49.15
524.78	9.36
524.96	67.88
525.13	74.90
525.30	0.00
525.47	121.71
525.64	53.83
525.81	0.00
525.98	51.49
526.16	70.22
526.33	25.75
526.50	18.72
526.67	81.92
526.84	72.56
527.01	14.04
527.18	25.75
527.36	77.24
527.53	138.09
527.70	42.13
527.87	67.88
528.04	117.03
528.21	67.88
528.38	28.09
528.55	25.75
528.72	4.68
528.89	0.00
529.07	44.47
529.24	0.00
529.41	121.71
529.58	30.43
529.75	25.75
529.92	0.00
530.09	14.04
530.26	35.11
530.43	105.32
530.60	18.72
530.77	32.77
530.94	72.56
531.11	77.24
531.28	58.51
531.46	23.41
531.63	65.54
531.80	23.41
531.97	7.02
532.14	9.36
532.31	0.00
532.48	7.02
532.65	30.43
532.82	0.00
532.99	60.85
533.16	117.03
533.33	74.90
533.50	30.43
533.67	42.13
533.84	84.26
534.01	14.04
534.18	39.79
534.35	81.92
534.52	9.36
534.69	35.11
534.86	14.04
535.03	56.17
535.20	93.62
535.37	70.22
535.54	100.64
535.71	58.51
535.88	18.72
536.05	72.56
536.22	86.60
536.38	81.92
536.55	53.83
536.72	35.11
536.89	147.45
537.06	56.17
537.23	74.90
537.40	0.00
537.57	133.41
537.74	88.94
537.91	105.32
538.08	56.17
538.25	95.96
538.42	63.19
538.59	72.56
538.75	88.94
538.92	44.47
539.09	58.51
539.26	7.02
539.43	39.79
539.60	0.00
539.77	46.81
539.94	0.00
540.11	56.17
540.28	28.09
540.44	0.00
540.61	23.41
540.78	74.90
540.95	0.00
541.12	21.06
541.29	32.77
541.46	18.72
541.62	28.09
541.79	32.77
541.96	11.70
542.13	63.19
542.30	60.85
542.47	42.13
542.63	18.72
542.80	86.60
542.97	100.64
543.14	65.54
543.31	63.19
543.48	67.88
543.64	60.85
543.81	102.98
543.98	37.45
544.15	0.00
544.32	0.00
544.48	53.83
544.65	53.83
544.82	65.54
544.99	81.92
545.16	7.02
545.32	35.11
545.49	84.26
545.66	56.17
545.83	84.26
546.00	16.38
546.16	39.79
546.33	70.22
546.50	72.56
546.67	28.09
546.83	88.94
547.00	107.66
547.17	77.24
547.34	95.96
547.50	107.66
547.67	88.94
547.84	51.49
548.00	72.56
548.17	37.45
548.34	0.00
548.51	0.00
548.67	88.94
548.84	39.79
549.01	7.02
549.18	30.43
549.34	35.11
549.51	58.51
549.68	140.43
549.84	58.51
550.01	110.01
550.18	60.85
550.34	102.98
550.51	28.09
550.68	46.81
550.84	100.64
551.01	30.43
551.18	79.58
551.34	0.00
551.51	74.90
551.68	88.94
551.84	4.68
552.01	0.00
552.18	21.06
552.34	37.45
552.51	112.35
552.68	9.36
552.84	110.01
553.01	56.17
553.18	0.00
553.34	44.47
553.51	42.13
553.67	21.06
553.84	98.30
554.01	74.90
554.17	60.85
554.34	112.35
554.51	74.90
554.67	16.38
554.84	39.79
555.00	35.11
555.17	0.00
555.33	30.43
555.50	70.22
555.67	37.45
555.83	58.51
556.00	49.15
556.16	37.45
556.33	0.00
556.50	44.47
556.66	100.64
556.83	70.22
556.99	81.92
557.16	86.60
557.32	63.19
557.49	70.22
557.65	88.94
557.82	39.79
557.98	0.00
558.15	63.19
558.32	16.38
558.48	32.77
558.65	84.26
558.81	28.09
558.98	77.24
559.14	91.28
559.31	58.51
559.47	84.26
559.64	74.90
559.80	91.28
559.97	95.96
560.13	23.41
560.30	56.17
560.46	11.70
560.63	56.17
560.79	35.11
560.96	35.11
561.12	32.77
561.29	98.30
561.45	60.85
561.61	39.79
561.78	86.60
561.94	135.75
562.11	88.94
562.27	60.85
562.44	56.17
562.60	42.13
562.77	159.16
562.93	88.94
563.10	21.06
563.26	32.77
563.42	102.98
563.59	49.15
563.75	58.51
563.92	84.26
564.08	60.85
564.24	124.05
564.41	46.81
564.57	7.02
564.74	28.09
564.90	44.47
565.07	18.72
565.23	49.15
565.39	79.58
565.56	0.00
565.72	86.60
565.88	72.56
566.05	93.62
566.21	4.68
566.38	67.88
566.54	112.35
566.70	58.51
566.87	46.81
567.03	60.85
567.19	11.70
567.36	18.72
567.52	51.49
567.68	25.75
567.85	56.17
568.01	0.00
568.17	23.41
568.34	11.70
568.50	28.09
568.66	102.98
568.83	14.04
568.99	18.72
569.15	74.90
569.32	86.60
569.48	67.88
569.64	56.17
569.81	93.62
569.97	58.51
570.13	0.00
570.30	74.90
570.46	114.69
570.62	23.41
570.78	53.83
570.95	86.60
571.11	86.60
571.27	74.90
571.43	91.28
571.60	67.88
571.76	14.04
571.92	79.58
572.09	14.04
572.25	30.43
572.41	114.69
572.57	21.06
572.74	21.06
572.90	65.54
573.06	95.96
573.22	42.13
573.38	35.11
573.55	46.81
573.71	39.79
573.87	58.51
574.03	23.41
574.20	21.06
574.36	42.13
574.52	77.24
574.68	117.03
574.84	56.17
575.01	88.94
575.17	23.41
575.33	42.13
575.49	102.98
575.65	58.51
575.82	93.62
575.98	77.24
576.14	81.92
576.30	46.81
576.46	35.11
576.62	86.60
576.79	39.79
576.95	84.26
577.11	77.24
577.27	0.00
577.43	25.75
577.59	49.15
577.75	0.00
577.92	114.69
578.08	53.83
578.24	18.72
578.40	4.68
578.56	72.56
578.72	74.90
578.88	39.79
579.04	21.06
579.21	114.69
579.37	2.34
579.53	46.81
579.69	56.17
579.85	49.15
580.01	30.43
580.17	65.54
580.33	0.00
580.49	65.54
580.65	28.09
580.82	74.90
580.98	77.24
581.14	28.09
581.30	53.83
581.46	74.90
581.62	46.81
581.78	35.11
581.94	51.49
582.10	2.34
582.26	98.30
582.42	49.15
582.58	37.45
582.74	42.13
582.90	98.30
583.06	49.15
583.22	56.17
583.38	4.68
583.54	81.92
583.70	25.75
583.86	79.58
584.02	56.17
584.18	28.09
584.34	30.43
584.50	58.51
584.66	98.30
584.82	46.81
584.98	0.00
585.14	9.36
585.30	44.47
585.46	72.56
585.62	0.00
585.78	0.00
585.94	49.15
586.10	70.22
586.26	74.90
586.42	0.00
586.58	32.77
586.74	88.94
586.90	65.54
587.06	67.88
587.22	74.90
587.38	0.00
587.54	102.98
587.70	81.92
587.86	42.13
588.02	32.77
588.18	37.45
588.34	37.45
588.49	0.00
588.65	21.06
588.81	44.47
588.97	114.69
589.13	56.17
589.29	0.00
589.45	53.83
589.61	0.00
589.77	131.07
589.93	4.68
590.08	0.00
590.24	67.88
590.40	114.69
590.56	79.58
590.72	88.94
590.88	21.06
591.04	51.49
591.20	98.30
591.35	93.62
591.51	70.22
591.67	107.66
591.83	60.85
591.99	56.17
592.15	11.70
592.31	42.13
592.46	18.72
592.62	117.03
592.78	30.43
592.94	37.45
593.10	46.81
593.26	46.81
593.41	2.34
593.57	46.81
593.73	53.83
593.89	4.68
594.05	72.56
594.20	21.06
594.36	18.72
594.52	42.13
594.68	39.79
594.84	60.85
594.99	46.81
595.15	53.83
595.31	23.41
595.47	70.22
595.62	25.75
595.78	37.45
595.94	32.77
596.10	18.72
596.25	51.49
596.41	11.70
596.57	77.24
596.73	25.75
596.88	28.09
597.04	42.13
597.20	67.88
597.36	23.41
597.51	84.26
597.67	44.47
597.83	44.47
597.99	32.77
598.14	35.11
598.30	21.06
598.46	81.92
598.61	72.56
598.77	37.45
598.93	86.60
599.09	42.13
599.24	77.24
599.40	28.09
599.56	65.54
599.71	166.18
599.87	81.92
600.03	0.00
600.18	42.13
600.34	49.15
600.50	0.00
600.65	28.09
600.81	46.81
600.97	35.11
601.12	44.47
601.28	65.54
601.44	46.81
601.59	0.00
601.75	81.92
601.91	39.79
602.06	56.17
602.22	110.01
602.37	23.41
602.53	100.64
602.69	67.88
602.84	30.43
603.00	2.34
603.16	0.00
603.31	18.72
603.47	93.62
603.62	74.90
603.78	25.75
603.94	2.34
604.09	74.90
604.25	28.09
604.40	77.24
604.56	105.32
604.71	60.85
604.87	37.45
605.03	4.68
605.18	60.85
605.34	81.92
605.49	51.49
605.65	21.06
605.80	35.11
605.96	37.45
606.12	74.90
606.27	39.79
606.43	70.22
606.58	53.83
606.74	4.68
606.89	93.62
607.05	0.00
607.20	53.83
607.36	70.22
607.51	44.47
607.67	35.11
607.82	46.81
607.98	46.81
608.13	91.28
608.29	56.17
608.44	0.00
608.60	67.88
608.75	56.17
608.91	23.41
609.06	56.17
609.22	56.17
609.37	98.30
609.53	0.00
609.68	60.85
609.84	44.47
609.99	23.41
610.15	95.96
610.30	23.41
610.46	58.51
610.61	32.77
610.76	63.19
610.92	28.09
611.07	58.51
611.23	51.49
611.38	46.81
611.54	2.34
611.69	117.03
611.84	60.85
612.00	37.45
612.15	65.54
612.31	21.06
612.46	25.75
612.62	18.72
612.77	0.00
612.92	91.28
613.08	67.88
613.23	16.38
613.39	84.26
613.54	65.54
613.69	16.38
613.85	0.00
614.00	35.11
614.15	39.79
614.31	70.22
614.46	42.13
614.62	23.41
614.77	0.00
614.92	2.34
615.08	14.04
615.23	0.00
615.38	39.79
615.54	58.51
615.69	14.04
615.84	0.00
616.00	0.00
616.15	67.88
616.30	93.62
616.46	0.00
616.61	25.75
616.76	70.22
616.92	63.19
617.07	84.26
617.22	84.26
617.37	44.47
617.53	81.92
617.68	4.68
617.83	32.77
617.99	49.15
618.14	0.00
618.29	37.45
618.45	7.02
618.60	70.22
618.75	0.00
618.90	79.58
619.06	35.11
619.21	51.49
619.36	95.96
619.51	14.04
619.67	88.94
619.82	60.85
619.97	63.19
620.12	56.17
620.28	86.60
620.43	25.75
620.58	60.85
620.73	63.19
620.89	117.03
621.04	124.05
621.19	2.34
621.34	84.26
621.49	0.00
621.65	140.43
621.80	84.26
621.95	39.79
622.10	37.45
622.25	30.43
622.41	84.26
622.56	32.77
622.71	42.13
622.86	58.51
623.01	79.58
623.16	21.06
623.32	70.22
623.47	74.90
623.62	88.94
623.77	65.54
623.92	74.90
624.07	28.09
624.23	60.85
624.38	35.11
624.53	42.13
624.68	140.43
624.83	51.49
624.98	30.43
625.13	65.54
625.29	72.56
625.44	23.41
625.59	35.11
625.74	67.88
625.89	25.75
626.04	88.94
626.19	37.45
626.34	58.51
626.49	25.75
626.65	37.45
626.80	93.62
626.95	60.85
627.10	0.00
627.25	18.72
627.40	72.56
627.55	18.72
627.70	7.02
627.85	51.49
628.00	44.47
628.15	9.36
628.30	9.36
628.45	9.36
628.60	25.75
628.76	0.00
628.91	107.66
629.06	67.88
629.21	0.00
629.36	25.75
629.51	0.00
629.66	7.02
629.81	46.81
629.96	23.41
630.11	0.00
630.26	9.36
630.41	88.94
630.56	0.00
630.71	42.13
630.86	44.47
631.01	30.43
631.16	51.49
631.31	44.47
631.46	28.09
631.61	51.49
631.76	81.92
631.91	11.70
632.06	60.85
632.21	51.49
632.36	70.22
632.51	100.64
632.66	102.98
632.81	81.92
632.96	46.81
633.10	44.47
633.25	77.24
633.40	37.45
633.55	9.36
633.70	49.15
633.85	51.49
634.00	32.77
634.15	0.00
634.30	56.17
634.45	67.88
634.60	16.38
634.75	102.98
634.90	44.47
635.05	21.06
635.19	58.51
635.34	46.81
635.49	63.19
635.64	81.92
635.79	63.19
635.94	16.38
636.09	4.68
636.24	28.09
636.39	35.11
636.53	0.00
636.68	0.00
636.83	58.51
636.98	63.19
637.13	18.72
637.28	0.00
637.43	56.17
637.57	49.15
637.72	128.73
637.87	0.00
638.02	114.69
638.17	37.45
638.32	51.49
638.46	79.58
638.61	63.19
638.76	93.62
638.91	0.00
639.06	107.66
639.20	74.90
639.35	79.58
639.50	102.98
639.65	88.94
639.80	142.77
639.94	0.00
640.09	7.02
640.24	0.00
640.39	70.22
640.54	0.00
640.68	65.54
640.83	37.45
640.98	2.34
641.13	16.38
641.27	0.00
641.42	58.51
641.57	51.49
641.72	37.45
641.86	23.41
642.01	32.77
642.16	56.17
642.31	37.45
642.45	46.81
642.60	7.02
642.75	53.83
642.90	32.77
643.04	30.43
643.19	58.51
643.34	37.45
643.48	91.28
643.63	81.92
643.78	124.05
643.93	2.34
644.07	79.58
644.22	4.68
644.37	0.00
644.51	0.00
644.66	110.01
644.81	67.88
644.95	44.47
645.10	81.92
645.25	70.22
645.39	44.47
645.54	0.00
645.69	16.38
645.83	2.34
645.98	14.04
646.13	37.45
646.27	49.15
646.42	0.00
646.57	0.00
646.71	56.17
646.86	79.58
647.00	39.79
647.15	67.88
647.30	21.06
647.44	58.51
647.59	77.24
647.74	25.75
647.88	0.00
648.03	42.13
648.17	0.00
648.32	23.41
648.47	16.38
648.61	0.00
648.76	84.26
648.90	63.19
649.05	65.54
649.20	70.22
649.34	21.06
649.49	49.15
649.63	63.19
649.78	2.34
649.92	58.51
650.07	91.28
650.21	42.13
650.36	49.15
650.51	0.00
650.65	28.09
650.80	53.83
650.94	32.77
651.09	11.70
651.23	63.19
651.38	32.77
651.52	63.19
651.67	0.00
651.81	46.81
651.96	30.43
652.10	44.47
652.25	100.64
652.39	39.79
652.54	2.34
652.68	18.72
652.83	18.72
652.97	14.04
653.12	91.28
653.26	0.00
653.41	4.68
653.55	23.41
653.70	102.98
653.84	11.70
653.99	67.88
654.13	28.09
654.27	79.58
654.42	28.09
654.56	21.06
654.71	16.38
654.85	0.00
655.00	44.47
655.14	35.11
655.29	32.77
655.43	81.92
655.57	35.11
655.72	39.79
655.86	65.54
656.01	14.04
656.15	30.43
656.30	18.72
656.44	56.17
656.58	32.77
656.73	84.26
656.87	72.56
657.01	79.58
657.16	79.58
657.30	110.01
657.45	32.77
657.59	0.00
657.73	7.02
657.88	60.85
658.02	0.00
658.16	65.54
658.31	39.79
658.45	63.19
658.60	0.00
658.74	74.90
658.88	0.00
659.03	0.00
659.17	56.17
659.31	58.51
659.46	58.51
659.60	0.00
659.74	0.00
659.89	30.43
660.03	93.62
660.17	0.00
660.32	28.09
660.46	51.49
660.60	23.41
660.74	114.69
660.89	51.49
661.03	39.79
661.17	105.32
661.32	4.68
661.46	0.00
661.60	0.00
661.74	100.64
661.89	70.22
662.03	93.62
662.17	0.00
662.31	11.70
662.46	0.00
662.60	65.54
662.74	81.92
662.88	37.45
663.03	86.60
663.17	0.00
663.31	21.06
663.45	30.43
663.60	37.45
663.74	4.68
663.88	7.02
664.02	42.13
664.17	53.83
664.31	0.00
664.45	0.00
664.59	44.47
664.73	65.54
664.88	86.60
665.02	98.30
665.16	56.17
665.30	63.19
665.44	67.88
665.59	14.04
665.73	4.68
665.87	77.24
666.01	72.56
666.15	23.41
666.29	28.09
666.44	77.24
666.58	0.00
666.72	30.43
666.86	16.38
667.00	37.45
667.14	0.00
667.28	32.77
667.43	65.54
667.57	25.75
667.71	74.90
667.85	32.77
667.99	88.94
668.13	98.30
668.27	35.11
668.41	9.36
668.56	25.75
668.70	70.22
668.84	0.00
668.98	25.75
669.12	58.51
669.26	49.15
669.40	91.28
669.54	32.77
669.68	37.45
669.82	28.09
669.96	58.51
670.10	4.68
670.25	0.00
670.39	25.75
670.53	79.58
670.67	46.81
670.81	9.36
670.95	16.38
671.09	30.43
671.23	133.41
671.37	0.00
671.51	46.81
671.65	14.04
671.79	0.00
671.93	53.83
672.07	0.00
672.21	0.00
672.35	42.13
672.49	0.00
672.63	9.36
672.77	51.49
672.91	18.72
673.05	11.70
673.19	23.41
673.33	14.04
673.47	21.06
673.61	46.81
673.75	46.81
673.89	37.45
674.03	98.30
674.17	37.45
674.31	58.51
674.45	70.22
674.59	58.51
674.73	42.13
674.87	65.54
675.01	88.94
675.15	74.90
675.29	2.34
675.43	32.77
675.56	28.09
675.70	133.41
675.84	18.72
675.98	37.45
676.12	74.90
676.26	56.17
676.40	46.81
676.54	32.77
676.68	72.56
676.82	30.43
676.96	46.81
677.10	145.11
677.23	4.68
677.37	21.06
677.51	72.56
677.65	60.85
677.79	102.98
677.93	42.13
678.07	86.60
678.21	49.15
678.34	100.64
678.48	0.00
678.62	72.56
678.76	16.38
678.90	32.77
679.04	4.68
679.18	0.00
679.31	39.79
679.45	30.43
679.59	37.45
679.73	14.04
679.87	21.06
680.00	7.02
680.14	49.15
680.28	18.72
680.42	4.68
680.56	4.68
680.70	18.72
680.83	21.06
680.97	0.00
681.11	44.47
681.25	72.56
681.39	37.45
681.52	72.56
681.66	65.54
681.80	35.11
681.94	74.90
682.07	39.79
682.21	4.68
682.35	16.38
682.49	28.09
682.62	53.83
682.76	51.49
682.90	0.00
683.04	0.00
683.17	37.45
683.31	0.00
683.45	30.43
683.59	14.04
683.72	81.92
683.86	95.96
684.00	0.00
684.13	25.75
684.27	46.81
684.41	16.38
684.55	0.00
684.68	11.70
684.82	14.04
684.96	72.56
685.09	0.00
685.23	65.54
685.37	119.37
685.50	18.72
685.64	65.54
685.78	14.04
685.91	7.02
686.05	63.19
686.19	4.68
686.32	28.09
686.46	14.04
686.60	14.04
686.73	124.05
686.87	37.45
687.01	56.17
687.14	0.00
687.28	28.09
687.42	63.19
687.55	51.49
687.69	0.00
687.82	37.45
687.96	56.17
688.10	67.88
688.23	42.13
688.37	35.11
688.50	53.83
688.64	11.70
688.78	21.06
688.91	51.49
689.05	4.68
689.18	2.34
689.32	0.00
689.46	79.58
689.59	44.47
689.73	63.19
689.86	46.81
690.00	39.79
690.13	60.85
690.27	98.30
690.41	81.92
690.54	72.56
690.68	32.77
690.81	0.00
690.95	0.00
691.08	37.45
691.22	0.00
691.35	39.79
691.49	46.81
691.62	56.17
691.76	63.19
691.89	0.00
692.03	46.81
692.16	0.00
692.30	70.22
692.43	11.70
692.57	11.70
692.70	7.02
692.84	72.56
692.97	4.68
693.11	133.41
693.24	91.28
693.38	23.41
693.51	84.26
693.65	53.83
693.78	0.00
693.92	7.02
694.05	0.00
694.19	23.41
694.32	49.15
694.45	63.19
694.59	25.75
694.72	56.17
694.86	23.41
694.99	42.13
695.13	0.00
695.26	53.83
695.39	0.00
695.53	2.34
695.66	30.43
695.80	16.38
695.93	28.09
696.07	67.88
696.20	25.75
696.33	7.02
696.47	86.60
696.60	35.11
696.73	107.66
696.87	0.00
697.00	37.45
697.14	35.11
697.27	42.13
697.40	25.75
697.54	0.00
697.67	42.13
697.80	11.70
697.94	7.02
698.07	9.36
698.21	81.92
698.34	49.15
698.47	0.00
698.61	0.00
698.74	0.00
698.87	28.09
699.01	126.39
699.14	23.41
699.27	23.41
699.40	67.88
699.54	0.00
699.67	16.38
699.80	0.00
699.94	11.70
700.07	21.06
700.20	0.00
700.34	60.85
700.47	14.04
700.60	53.83
700.73	0.00
700.87	0.00
701.00	37.45
701.13	46.81
701.26	0.00
701.40	81.92
701.53	28.09
701.66	0.00
701.79	9.36
701.93	16.38
702.06	53.83
702.19	37.45
702.32	35.11
702.46	7.02
702.59	77.24
702.72	28.09
702.85	0.00
702.99	46.81
703.12	42.13
703.25	2.34
703.38	0.00
703.51	35.11
703.65	98.30
703.78	110.01
703.91	0.00
704.04	88.94
704.17	70.22
704.31	11.70
704.44	0.00
704.57	53.83
704.70	42.13
704.83	60.85
704.96	39.79
705.10	0.00
705.23	14.04
>>>>>End Processed Spectral Data<<<<<
