SpectraSuite Data File
++++++++++++++++++++++++++++++++++++
Date: Fri Oct 04 12:13:30 GMT-05:00 2013
User: price-jones
Dark Spectrum Present: No
Reference Spectrum Present: No
Number of Sampled Component Spectra: 1
Spectrometers: USB2+H05261
Integration Time (usec): 10000 (USB2+H05261)
Spectra Averaged: 1 (USB2+H05261)
Boxcar Smoothing: 0 (USB2+H05261)
Correct for Electrical Dark: No (USB2+H05261)
Strobe/Lamp Enabled: No (USB2+H05261)
Correct for Detector Non-linearity: No (USB2+H05261)
Correct for Stray Light: No (USB2+H05261)
Number of Pixels in Processed Spectrum: 2048
>>>>>Begin Processed Spectral Data<<<<<
365.73	0.00
365.92	0.00
366.12	0.00
366.32	0.00
366.52	0.00
366.72	0.00
366.91	0.00
367.11	0.00
367.31	0.00
367.51	0.00
367.70	0.00
367.90	0.00
368.10	0.00
368.30	0.00
368.49	0.00
368.69	0.00
368.89	0.00
369.09	0.00
369.28	0.00
369.48	0.00
369.68	0.00
369.87	0.00
370.07	0.00
370.27	0.00
370.47	0.00
370.66	0.00
370.86	0.00
371.06	0.00
371.25	0.00
371.45	0.00
371.65	0.00
371.84	30.43
372.04	25.75
372.24	0.00
372.44	0.00
372.63	7.02
372.83	0.00
373.03	4.68
373.22	2.34
373.42	0.00
373.62	28.09
373.81	63.19
374.01	0.00
374.21	2.34
374.40	11.70
374.60	0.00
374.79	11.70
374.99	51.49
375.19	0.00
375.38	21.06
375.58	93.62
375.78	0.00
375.97	32.77
376.17	84.26
376.37	28.09
376.56	35.11
376.76	32.77
376.95	0.00
377.15	0.00
377.35	0.00
377.54	16.38
377.74	67.88
377.93	25.75
378.13	7.02
378.33	35.11
378.52	14.04
378.72	2.34
378.91	0.00
379.11	9.36
379.31	0.00
379.50	37.45
379.70	28.09
379.89	4.68
380.09	42.13
380.28	0.00
380.48	30.43
380.68	42.13
380.87	65.54
381.07	88.94
381.26	0.00
381.46	18.72
381.65	42.13
381.85	0.00
382.04	14.04
382.24	72.56
382.43	0.00
382.63	46.81
382.83	102.98
383.02	32.77
383.22	0.00
383.41	56.17
383.61	18.72
383.80	0.00
384.00	56.17
384.19	0.00
384.39	9.36
384.58	23.41
384.78	32.77
384.97	32.77
385.17	0.00
385.36	30.43
385.56	44.47
385.75	0.00
385.95	4.68
386.14	2.34
386.34	0.00
386.53	28.09
386.72	28.09
386.92	28.09
387.11	18.72
387.31	56.17
387.50	51.49
387.70	21.06
387.89	28.09
388.09	7.02
388.28	0.00
388.48	56.17
388.67	21.06
388.86	63.19
389.06	32.77
389.25	74.90
389.45	39.79
389.64	16.38
389.84	21.06
390.03	65.54
390.22	53.83
390.42	18.72
390.61	0.00
390.81	119.37
391.00	53.83
391.19	53.83
391.39	16.38
391.58	46.81
391.78	0.00
391.97	0.00
392.16	44.47
392.36	0.00
392.55	39.79
392.75	67.88
392.94	86.60
393.13	81.92
393.33	0.00
393.52	0.00
393.71	49.15
393.91	39.79
394.10	0.00
394.29	25.75
394.49	67.88
394.68	42.13
394.88	25.75
395.07	88.94
395.26	49.15
395.46	56.17
395.65	72.56
395.84	81.92
396.04	39.79
396.23	91.28
396.42	53.83
396.62	60.85
396.81	7.02
397.00	0.00
397.19	16.38
397.39	4.68
397.58	51.49
397.77	0.00
397.97	0.00
398.16	0.00
398.35	28.09
398.55	0.00
398.74	23.41
398.93	65.54
399.12	0.00
399.32	0.00
399.51	30.43
399.70	0.00
399.90	14.04
400.09	23.41
400.28	56.17
400.47	0.00
400.67	70.22
400.86	7.02
401.05	79.58
401.24	0.00
401.44	28.09
401.63	0.00
401.82	0.00
402.01	23.41
402.21	21.06
402.40	35.11
402.59	51.49
402.78	0.00
402.97	91.28
403.17	65.54
403.36	91.28
403.55	25.75
403.74	60.85
403.93	44.47
404.13	42.13
404.32	46.81
404.51	84.26
404.70	63.19
404.89	25.75
405.09	37.45
405.28	81.92
405.47	42.13
405.66	77.24
405.85	60.85
406.05	14.04
406.24	7.02
406.43	51.49
406.62	7.02
406.81	91.28
407.00	81.92
407.20	72.56
407.39	0.00
407.58	0.00
407.77	56.17
407.96	0.00
408.15	18.72
408.34	21.06
408.54	30.43
408.73	0.00
408.92	72.56
409.11	86.60
409.30	0.00
409.49	35.11
409.68	51.49
409.87	39.79
410.07	23.41
410.26	0.00
410.45	35.11
410.64	21.06
410.83	46.81
411.02	74.90
411.21	7.02
411.40	0.00
411.59	42.13
411.78	39.79
411.98	0.00
412.17	0.00
412.36	51.49
412.55	21.06
412.74	0.00
412.93	70.22
413.12	39.79
413.31	58.51
413.50	35.11
413.69	0.00
413.88	23.41
414.07	56.17
414.26	0.00
414.45	16.38
414.64	0.00
414.83	60.85
415.02	0.00
415.22	23.41
415.41	77.24
415.60	58.51
415.79	30.43
415.98	81.92
416.17	18.72
416.36	0.00
416.55	0.00
416.74	0.00
416.93	21.06
417.12	60.85
417.31	86.60
417.50	46.81
417.69	39.79
417.88	4.68
418.07	67.88
418.26	25.75
418.45	0.00
418.64	58.51
418.83	32.77
419.02	93.62
419.21	0.00
419.39	37.45
419.58	63.19
419.77	86.60
419.96	35.11
420.15	0.00
420.34	88.94
420.53	60.85
420.72	42.13
420.91	9.36
421.10	23.41
421.29	0.00
421.48	0.00
421.67	0.00
421.86	42.13
422.05	18.72
422.24	93.62
422.43	0.00
422.61	65.54
422.80	70.22
422.99	35.11
423.18	21.06
423.37	4.68
423.56	60.85
423.75	37.45
423.94	0.00
424.13	9.36
424.32	25.75
424.50	16.38
424.69	2.34
424.88	0.00
425.07	63.19
425.26	30.43
425.45	4.68
425.64	0.00
425.83	16.38
426.01	86.60
426.20	25.75
426.39	0.00
426.58	60.85
426.77	0.00
426.96	9.36
427.15	98.30
427.33	0.00
427.52	0.00
427.71	84.26
427.90	51.49
428.09	0.00
428.28	46.81
428.46	46.81
428.65	86.60
428.84	18.72
429.03	39.79
429.22	0.00
429.40	46.81
429.59	74.90
429.78	44.47
429.97	2.34
430.16	81.92
430.34	7.02
430.53	16.38
430.72	21.06
430.91	93.62
431.10	42.13
431.28	32.77
431.47	9.36
431.66	140.43
431.85	95.96
432.03	49.15
432.22	60.85
432.41	49.15
432.60	84.26
432.79	46.81
432.97	0.00
433.16	0.00
433.35	35.11
433.54	0.00
433.72	28.09
433.91	32.77
434.10	35.11
434.28	44.47
434.47	0.00
434.66	23.41
434.85	42.13
435.03	72.56
435.22	77.24
435.41	51.49
435.59	28.09
435.78	0.00
435.97	0.00
436.16	9.36
436.34	16.38
436.53	0.00
436.72	0.00
436.90	51.49
437.09	51.49
437.28	42.13
437.46	0.00
437.65	28.09
437.84	42.13
438.02	0.00
438.21	23.41
438.40	23.41
438.58	11.70
438.77	0.00
438.96	23.41
439.14	30.43
439.33	0.00
439.52	0.00
439.70	0.00
439.89	65.54
440.08	42.13
440.26	4.68
440.45	0.00
440.63	86.60
440.82	56.17
441.01	21.06
441.19	77.24
441.38	65.54
441.57	11.70
441.75	30.43
441.94	37.45
442.12	7.02
442.31	42.13
442.50	30.43
442.68	37.45
442.87	88.94
443.05	51.49
443.24	60.85
443.43	35.11
443.61	39.79
443.80	23.41
443.98	37.45
444.17	9.36
444.35	0.00
444.54	0.00
444.73	23.41
444.91	51.49
445.10	25.75
445.28	35.11
445.47	81.92
445.65	0.00
445.84	32.77
446.02	100.64
446.21	93.62
446.39	37.45
446.58	0.00
446.77	63.19
446.95	86.60
447.14	0.00
447.32	0.00
447.51	14.04
447.69	23.41
447.88	44.47
448.06	16.38
448.25	56.17
448.43	2.34
448.62	84.26
448.80	16.38
448.99	112.35
449.17	35.11
449.36	84.26
449.54	32.77
449.73	44.47
449.91	11.70
450.10	56.17
450.28	0.00
450.46	79.58
450.65	32.77
450.83	0.00
451.02	70.22
451.20	86.60
451.39	18.72
451.57	0.00
451.76	0.00
451.94	2.34
452.13	23.41
452.31	102.98
452.49	0.00
452.68	56.17
452.86	0.00
453.05	39.79
453.23	30.43
453.42	35.11
453.60	39.79
453.78	0.00
453.97	63.19
454.15	74.90
454.34	30.43
454.52	9.36
454.70	18.72
454.89	0.00
455.07	2.34
455.26	74.90
455.44	156.82
455.62	117.03
455.81	0.00
455.99	53.83
456.17	16.38
456.36	39.79
456.54	56.17
456.73	30.43
456.91	23.41
457.09	98.30
457.28	7.02
457.46	35.11
457.64	67.88
457.83	7.02
458.01	11.70
458.19	0.00
458.38	56.17
458.56	70.22
458.74	65.54
458.93	0.00
459.11	81.92
459.29	4.68
459.48	16.38
459.66	88.94
459.84	117.03
460.03	65.54
460.21	32.77
460.39	70.22
460.57	21.06
460.76	0.00
460.94	0.00
461.12	4.68
461.31	25.75
461.49	37.45
461.67	25.75
461.85	11.70
462.04	16.38
462.22	121.71
462.40	0.00
462.59	49.15
462.77	46.81
462.95	35.11
463.13	119.37
463.32	100.64
463.50	0.00
463.68	0.00
463.86	35.11
464.05	53.83
464.23	0.00
464.41	42.13
464.59	51.49
464.78	46.81
464.96	72.56
465.14	14.04
465.32	42.13
465.50	23.41
465.69	56.17
465.87	37.45
466.05	0.00
466.23	0.00
466.41	0.00
466.60	91.28
466.78	98.30
466.96	42.13
467.14	77.24
467.32	65.54
467.51	49.15
467.69	0.00
467.87	30.43
468.05	11.70
468.23	0.00
468.41	51.49
468.60	53.83
468.78	23.41
468.96	9.36
469.14	77.24
469.32	0.00
469.50	18.72
469.69	49.15
469.87	86.60
470.05	0.00
470.23	56.17
470.41	0.00
470.59	65.54
470.77	49.15
470.95	0.00
471.14	42.13
471.32	44.47
471.50	67.88
471.68	25.75
471.86	25.75
472.04	0.00
472.22	35.11
472.40	0.00
472.58	49.15
472.77	42.13
472.95	18.72
473.13	105.32
473.31	32.77
473.49	42.13
473.67	4.68
473.85	16.38
474.03	25.75
474.21	102.98
474.39	93.62
474.57	72.56
474.75	74.90
474.93	42.13
475.12	49.15
475.30	56.17
475.48	72.56
475.66	0.00
475.84	23.41
476.02	56.17
476.20	0.00
476.38	4.68
476.56	32.77
476.74	14.04
476.92	18.72
477.10	63.19
477.28	0.00
477.46	2.34
477.64	7.02
477.82	51.49
478.00	0.00
478.18	14.04
478.36	67.88
478.54	7.02
478.72	0.00
478.90	56.17
479.08	91.28
479.26	56.17
479.44	51.49
479.62	18.72
479.80	25.75
479.98	63.19
480.16	74.90
480.34	107.66
480.52	44.47
480.70	0.00
480.88	63.19
481.06	72.56
481.24	107.66
481.41	18.72
481.59	0.00
481.77	42.13
481.95	65.54
482.13	60.85
482.31	44.47
482.49	63.19
482.67	7.02
482.85	35.11
483.03	35.11
483.21	23.41
483.39	0.00
483.57	44.47
483.74	0.00
483.92	0.00
484.10	23.41
484.28	21.06
484.46	49.15
484.64	51.49
484.82	0.00
485.00	53.83
485.18	91.28
485.35	42.13
485.53	42.13
485.71	28.09
485.89	58.51
486.07	32.77
486.25	0.00
486.43	16.38
486.61	0.00
486.78	37.45
486.96	28.09
487.14	46.81
487.32	7.02
487.50	37.45
487.68	42.13
487.85	0.00
488.03	51.49
488.21	86.60
488.39	25.75
488.57	0.00
488.75	32.77
488.92	58.51
489.10	56.17
489.28	42.13
489.46	37.45
489.64	23.41
489.81	0.00
489.99	37.45
490.17	39.79
490.35	70.22
490.53	14.04
490.70	58.51
490.88	86.60
491.06	28.09
491.24	44.47
491.41	0.00
491.59	70.22
491.77	35.11
491.95	46.81
492.13	7.02
492.30	4.68
492.48	21.06
492.66	9.36
492.84	70.22
493.01	18.72
493.19	0.00
493.37	53.83
493.54	35.11
493.72	16.38
493.90	70.22
494.08	16.38
494.25	21.06
494.43	107.66
494.61	23.41
494.79	53.83
494.96	23.41
495.14	37.45
495.32	0.00
495.49	53.83
495.67	0.00
495.85	9.36
496.02	88.94
496.20	18.72
496.38	56.17
496.55	105.32
496.73	95.96
496.91	102.98
497.09	0.00
497.26	72.56
497.44	28.09
497.62	49.15
497.79	42.13
497.97	91.28
498.14	58.51
498.32	0.00
498.50	51.49
498.67	7.02
498.85	49.15
499.03	70.22
499.20	18.72
499.38	42.13
499.56	39.79
499.73	49.15
499.91	72.56
500.08	39.79
500.26	0.00
500.44	42.13
500.61	30.43
500.79	25.75
500.97	25.75
501.14	44.47
501.32	51.49
501.49	0.00
501.67	21.06
501.84	16.38
502.02	65.54
502.20	11.70
502.37	51.49
502.55	86.60
502.72	11.70
502.90	49.15
503.07	28.09
503.25	53.83
503.43	28.09
503.60	39.79
503.78	0.00
503.95	7.02
504.13	0.00
504.30	88.94
504.48	35.11
504.65	67.88
504.83	63.19
505.01	51.49
505.18	0.00
505.36	37.45
505.53	46.81
505.71	7.02
505.88	46.81
506.06	21.06
506.23	42.13
506.41	58.51
506.58	35.11
506.76	18.72
506.93	72.56
507.11	37.45
507.28	0.00
507.46	51.49
507.63	28.09
507.81	23.41
507.98	28.09
508.16	4.68
508.33	72.56
508.50	9.36
508.68	74.90
508.85	42.13
509.03	39.79
509.20	53.83
509.38	28.09
509.55	63.19
509.73	37.45
509.90	140.43
510.08	28.09
510.25	58.51
510.42	72.56
510.60	65.54
510.77	16.38
510.95	39.79
511.12	11.70
511.30	72.56
511.47	25.75
511.64	105.32
511.82	0.00
511.99	58.51
512.17	4.68
512.34	0.00
512.51	9.36
512.69	18.72
512.86	25.75
513.04	49.15
513.21	23.41
513.38	102.98
513.56	28.09
513.73	23.41
513.90	60.85
514.08	79.58
514.25	37.45
514.43	65.54
514.60	28.09
514.77	25.75
514.95	4.68
515.12	18.72
515.29	72.56
515.47	102.98
515.64	0.00
515.81	44.47
515.99	100.64
516.16	86.60
516.33	84.26
516.51	84.26
516.68	39.79
516.85	0.00
517.03	67.88
517.20	11.70
517.37	60.85
517.54	0.00
517.72	53.83
517.89	0.00
518.06	21.06
518.24	21.06
518.41	60.85
518.58	49.15
518.75	95.96
518.93	0.00
519.10	63.19
519.27	32.77
519.45	30.43
519.62	23.41
519.79	2.34
519.96	42.13
520.14	18.72
520.31	30.43
520.48	0.00
520.65	30.43
520.83	0.00
521.00	81.92
521.17	56.17
521.34	51.49
521.52	32.77
521.69	72.56
521.86	42.13
522.03	84.26
522.20	30.43
522.38	18.72
522.55	11.70
522.72	67.88
522.89	28.09
523.07	4.68
523.24	0.00
523.41	60.85
523.58	28.09
523.75	0.00
523.92	56.17
524.10	98.30
524.27	67.88
524.44	0.00
524.61	86.60
524.78	2.34
524.96	46.81
525.13	32.77
525.30	79.58
525.47	4.68
525.64	44.47
525.81	4.68
525.98	42.13
526.16	14.04
526.33	46.81
526.50	93.62
526.67	65.54
526.84	21.06
527.01	77.24
527.18	21.06
527.36	72.56
527.53	0.00
527.70	0.00
527.87	86.60
528.04	14.04
528.21	35.11
528.38	46.81
528.55	0.00
528.72	88.94
528.89	30.43
529.07	4.68
529.24	88.94
529.41	72.56
529.58	28.09
529.75	58.51
529.92	65.54
530.09	81.92
530.26	37.45
530.43	9.36
530.60	81.92
530.77	0.00
530.94	39.79
531.11	70.22
531.28	25.75
531.46	7.02
531.63	91.28
531.80	35.11
531.97	0.00
532.14	16.38
532.31	0.00
532.48	0.00
532.65	44.47
532.82	23.41
532.99	46.81
533.16	86.60
533.33	0.00
533.50	74.90
533.67	32.77
533.84	0.00
534.01	2.34
534.18	46.81
534.35	37.45
534.52	56.17
534.69	16.38
534.86	14.04
535.03	88.94
535.20	81.92
535.37	51.49
535.54	70.22
535.71	63.19
535.88	28.09
536.05	25.75
536.22	70.22
536.38	49.15
536.55	65.54
536.72	28.09
536.89	0.00
537.06	51.49
537.23	91.28
537.40	98.30
537.57	110.01
537.74	70.22
537.91	30.43
538.08	35.11
538.25	46.81
538.42	25.75
538.59	74.90
538.75	4.68
538.92	14.04
539.09	37.45
539.26	35.11
539.43	81.92
539.60	145.11
539.77	119.37
539.94	100.64
540.11	98.30
540.28	119.37
540.44	60.85
540.61	63.19
540.78	77.24
540.95	30.43
541.12	133.41
541.29	0.00
541.46	102.98
541.62	56.17
541.79	49.15
541.96	81.92
542.13	35.11
542.30	67.88
542.47	102.98
542.63	25.75
542.80	67.88
542.97	53.83
543.14	74.90
543.31	49.15
543.48	60.85
543.64	60.85
543.81	53.83
543.98	39.79
544.15	100.64
544.32	16.38
544.48	51.49
544.65	49.15
544.82	21.06
544.99	32.77
545.16	28.09
545.32	91.28
545.49	81.92
545.66	39.79
545.83	23.41
546.00	98.30
546.16	16.38
546.33	37.45
546.50	70.22
546.67	84.26
546.83	9.36
547.00	74.90
547.17	67.88
547.34	0.00
547.50	56.17
547.67	7.02
547.84	18.72
548.00	53.83
548.17	23.41
548.34	79.58
548.51	25.75
548.67	51.49
548.84	9.36
549.01	60.85
549.18	11.70
549.34	42.13
549.51	63.19
549.68	28.09
549.84	23.41
550.01	23.41
550.18	74.90
550.34	95.96
550.51	124.05
550.68	98.30
550.84	25.75
551.01	25.75
551.18	9.36
551.34	65.54
551.51	0.00
551.68	25.75
551.84	37.45
552.01	65.54
552.18	49.15
552.34	25.75
552.51	35.11
552.68	7.02
552.84	39.79
553.01	56.17
553.18	37.45
553.34	23.41
553.51	11.70
553.67	2.34
553.84	51.49
554.01	21.06
554.17	32.77
554.34	0.00
554.51	49.15
554.67	0.00
554.84	56.17
555.00	18.72
555.17	56.17
555.33	46.81
555.50	67.88
555.67	25.75
555.83	0.00
556.00	42.13
556.16	60.85
556.33	88.94
556.50	77.24
556.66	35.11
556.83	0.00
556.99	58.51
557.16	46.81
557.32	2.34
557.49	14.04
557.65	53.83
557.82	0.00
557.98	37.45
558.15	18.72
558.32	0.00
558.48	42.13
558.65	100.64
558.81	35.11
558.98	4.68
559.14	28.09
559.31	14.04
559.47	114.69
559.64	21.06
559.80	9.36
559.97	14.04
560.13	32.77
560.30	72.56
560.46	49.15
560.63	39.79
560.79	98.30
560.96	88.94
561.12	28.09
561.29	25.75
561.45	37.45
561.61	21.06
561.78	100.64
561.94	86.60
562.11	23.41
562.27	93.62
562.44	28.09
562.60	72.56
562.77	30.43
562.93	28.09
563.10	51.49
563.26	81.92
563.42	2.34
563.59	16.38
563.75	39.79
563.92	44.47
564.08	18.72
564.24	21.06
564.41	74.90
564.57	11.70
564.74	53.83
564.90	49.15
565.07	21.06
565.23	28.09
565.39	23.41
565.56	2.34
565.72	11.70
565.88	30.43
566.05	37.45
566.21	145.11
566.38	18.72
566.54	77.24
566.70	0.00
566.87	67.88
567.03	11.70
567.19	102.98
567.36	138.09
567.52	60.85
567.68	46.81
567.85	77.24
568.01	39.79
568.17	18.72
568.34	28.09
568.50	0.00
568.66	37.45
568.83	60.85
568.99	91.28
569.15	65.54
569.32	79.58
569.48	142.77
569.64	11.70
569.81	70.22
569.97	9.36
570.13	0.00
570.30	21.06
570.46	88.94
570.62	0.00
570.78	65.54
570.95	114.69
571.11	77.24
571.27	28.09
571.43	0.00
571.60	58.51
571.76	18.72
571.92	42.13
572.09	74.90
572.25	72.56
572.41	42.13
572.57	60.85
572.74	30.43
572.90	105.32
573.06	72.56
573.22	42.13
573.38	30.43
573.55	58.51
573.71	56.17
573.87	32.77
574.03	25.75
574.20	56.17
574.36	53.83
574.52	23.41
574.68	18.72
574.84	35.11
575.01	28.09
575.17	72.56
575.33	60.85
575.49	16.38
575.65	70.22
575.82	72.56
575.98	49.15
576.14	0.00
576.30	105.32
576.46	44.47
576.62	11.70
576.79	46.81
576.95	95.96
577.11	21.06
577.27	84.26
577.43	70.22
577.59	42.13
577.75	42.13
577.92	74.90
578.08	0.00
578.24	37.45
578.40	100.64
578.56	18.72
578.72	35.11
578.88	60.85
579.04	49.15
579.21	46.81
579.37	39.79
579.53	44.47
579.69	60.85
579.85	4.68
580.01	42.13
580.17	37.45
580.33	14.04
580.49	63.19
580.65	56.17
580.82	58.51
580.98	60.85
581.14	102.98
581.30	105.32
581.46	42.13
581.62	14.04
581.78	46.81
581.94	56.17
582.10	0.00
582.26	86.60
582.42	79.58
582.58	72.56
582.74	4.68
582.90	0.00
583.06	2.34
583.22	95.96
583.38	56.17
583.54	74.90
583.70	46.81
583.86	65.54
584.02	18.72
584.18	58.51
584.34	88.94
584.50	212.99
584.66	1394.96
584.82	3241.64
584.98	4273.82
585.14	3548.25
585.30	2354.58
585.46	1486.24
585.62	926.85
585.78	414.27
585.94	212.99
586.10	74.90
586.26	63.19
586.42	77.24
586.58	32.77
586.74	95.96
586.90	23.41
587.06	21.06
587.22	93.62
587.38	42.13
587.54	110.01
587.70	276.18
587.86	322.99
588.02	339.38
588.18	287.89
588.34	131.07
588.49	107.66
588.65	25.75
588.81	16.38
588.97	79.58
589.13	84.26
589.29	70.22
589.45	39.79
589.61	37.45
589.77	84.26
589.93	2.34
590.08	105.32
590.24	88.94
590.40	2.34
590.56	88.94
590.72	67.88
590.88	72.56
591.04	84.26
591.20	58.51
591.35	28.09
591.51	81.92
591.67	37.45
591.83	37.45
591.99	0.00
592.15	79.58
592.31	70.22
592.46	0.00
592.62	0.00
592.78	18.72
592.94	11.70
593.10	81.92
593.26	91.28
593.41	11.70
593.57	18.72
593.73	51.49
593.89	159.16
594.05	418.96
594.20	664.71
594.36	510.24
594.52	376.83
594.68	297.25
594.84	133.41
594.99	60.85
595.15	44.47
595.31	23.41
595.47	35.11
595.62	35.11
595.78	81.92
595.94	28.09
596.10	67.88
596.25	81.92
596.41	51.49
596.57	35.11
596.73	21.06
596.88	0.00
597.04	133.41
597.20	154.48
597.36	191.92
597.51	145.11
597.67	147.45
597.83	124.05
597.99	72.56
598.14	23.41
598.30	44.47
598.46	51.49
598.61	39.79
598.77	77.24
598.93	49.15
599.09	72.56
599.24	84.26
599.40	0.00
599.56	53.83
599.71	63.19
599.87	21.06
600.03	30.43
600.18	72.56
600.34	28.09
600.50	32.77
600.65	9.36
600.81	79.58
600.97	91.28
601.12	60.85
601.28	7.02
601.44	70.22
601.59	98.30
601.75	46.81
601.91	0.00
602.06	100.64
602.22	46.81
602.37	72.56
602.53	91.28
602.69	145.11
602.84	182.56
603.00	107.66
603.16	30.43
603.31	39.79
603.47	32.77
603.62	107.66
603.78	93.62
603.94	95.96
604.09	39.79
604.25	39.79
604.40	0.00
604.56	44.47
604.71	0.00
604.87	14.04
605.03	35.11
605.18	72.56
605.34	0.00
605.49	0.00
605.65	107.66
605.80	53.83
605.96	49.15
606.12	0.00
606.27	86.60
606.43	0.00
606.58	23.41
606.74	102.98
606.89	236.39
607.05	423.64
607.20	475.13
607.36	383.85
607.51	236.39
607.67	266.82
607.82	131.07
607.98	91.28
608.13	42.13
608.29	46.81
608.44	70.22
608.60	2.34
608.75	0.00
608.91	159.16
609.06	339.38
609.22	606.20
609.37	842.59
609.53	716.20
609.68	554.71
609.84	341.72
609.99	194.26
610.15	140.43
610.30	58.51
610.46	81.92
610.61	65.54
610.76	67.88
610.92	25.75
611.07	30.43
611.23	56.17
611.38	18.72
611.54	42.13
611.69	0.00
611.84	14.04
612.00	60.85
612.15	105.32
612.31	56.17
612.46	0.00
612.62	53.83
612.77	70.22
612.92	58.51
613.08	30.43
613.23	23.41
613.39	60.85
613.54	117.03
613.69	257.46
613.85	868.34
614.00	1210.06
614.15	1287.29
614.31	931.53
614.46	683.44
614.62	407.25
614.77	301.93
614.92	98.30
615.08	67.88
615.23	35.11
615.38	86.60
615.54	74.90
615.69	39.79
615.84	250.44
616.00	341.72
616.15	393.21
616.30	269.16
616.46	182.56
616.61	88.94
616.76	117.03
616.92	81.92
617.07	51.49
617.22	0.00
617.37	60.85
617.53	72.56
617.68	79.58
617.83	49.15
617.99	60.85
618.14	95.96
618.29	86.60
618.45	0.00
618.60	23.41
618.75	0.00
618.90	119.37
619.06	100.64
619.21	51.49
619.36	105.32
619.51	23.41
619.67	56.17
619.82	0.00
619.97	25.75
620.12	39.79
620.28	0.00
620.43	0.00
620.58	28.09
620.73	0.00
620.89	16.38
621.04	56.17
621.19	191.92
621.34	114.69
621.49	212.99
621.65	175.54
621.80	163.84
621.95	107.66
622.10	65.54
622.25	145.11
622.41	30.43
622.56	102.98
622.71	44.47
622.86	14.04
623.01	16.38
623.16	0.00
623.32	0.00
623.47	58.51
623.62	77.24
623.77	14.04
623.92	37.45
624.07	91.28
624.23	58.51
624.38	30.43
624.53	60.85
624.68	67.88
624.83	44.47
624.98	0.00
625.13	53.83
625.29	35.11
625.44	0.00
625.59	44.47
625.74	65.54
625.89	65.54
626.04	173.20
626.19	428.32
626.34	617.90
626.49	751.31
626.65	489.17
626.80	369.80
626.95	229.37
627.10	177.88
627.25	46.81
627.40	14.04
627.55	81.92
627.70	0.00
627.85	11.70
628.00	53.83
628.15	21.06
628.30	44.47
628.45	72.56
628.60	110.01
628.76	63.19
628.91	65.54
629.06	28.09
629.21	86.60
629.36	95.96
629.51	110.01
629.66	4.68
629.81	46.81
629.96	88.94
630.11	180.22
630.26	161.50
630.41	220.01
630.56	135.75
630.71	91.28
630.86	49.15
631.01	23.41
631.16	42.13
631.31	42.13
631.46	32.77
631.61	56.17
631.76	42.13
631.91	9.36
632.06	60.85
632.21	35.11
632.36	39.79
632.51	46.81
632.66	58.51
632.81	88.94
632.96	278.52
633.10	449.38
633.25	463.43
633.40	409.59
633.55	297.25
633.70	198.95
633.85	119.37
634.00	25.75
634.15	91.28
634.30	63.19
634.45	77.24
634.60	42.13
634.75	44.47
634.90	0.00
635.05	65.54
635.19	32.77
635.34	2.34
635.49	0.00
635.64	0.00
635.79	0.00
635.94	28.09
636.09	93.62
636.24	51.49
636.39	81.92
636.53	30.43
636.68	0.00
636.83	133.41
636.98	32.77
637.13	63.19
637.28	0.00
637.43	67.88
637.57	102.98
637.72	215.33
637.87	627.26
638.02	798.12
638.17	851.96
638.32	678.76
638.46	458.74
638.61	313.63
638.76	273.84
638.91	86.60
639.06	110.01
639.20	102.98
639.35	32.77
639.50	100.64
639.65	334.70
639.80	795.78
639.94	1324.74
640.09	1338.79
640.24	966.64
640.39	585.13
640.54	465.77
640.68	348.74
640.83	135.75
640.98	112.35
641.13	44.47
641.27	16.38
641.42	11.70
641.57	56.17
641.72	0.00
641.86	63.19
642.01	0.00
642.16	44.47
642.31	112.35
642.45	30.43
642.60	7.02
642.75	37.45
642.90	18.72
643.04	0.00
643.19	79.58
643.34	42.13
643.48	0.00
643.63	0.00
643.78	93.62
643.93	42.13
644.07	32.77
644.22	46.81
644.37	18.72
644.51	49.15
644.66	18.72
644.81	37.45
644.95	77.24
645.10	0.00
645.25	58.51
645.39	30.43
645.54	0.00
645.69	0.00
645.83	16.38
645.98	21.06
646.13	25.75
646.27	25.75
646.42	2.34
646.57	7.02
646.71	30.43
646.86	0.00
647.00	21.06
647.15	0.00
647.30	42.13
647.44	51.49
647.59	53.83
647.74	7.02
647.88	0.00
648.03	0.00
648.17	16.38
648.32	0.00
648.47	53.83
648.61	32.77
648.76	21.06
648.90	37.45
649.05	67.88
649.20	9.36
649.34	0.00
649.49	37.45
649.63	37.45
649.78	58.51
649.92	60.85
650.07	154.48
650.21	418.96
650.36	606.20
650.51	720.88
650.65	620.24
650.80	351.08
650.94	276.18
651.09	152.13
651.23	126.39
651.38	117.03
651.52	126.39
651.67	18.72
651.81	81.92
651.96	35.11
652.10	28.09
652.25	11.70
652.39	16.38
652.54	51.49
652.68	14.04
652.83	126.39
652.97	250.44
653.12	138.09
653.26	184.90
653.41	205.97
653.55	105.32
653.70	112.35
653.84	91.28
653.99	44.47
654.13	81.92
654.27	16.38
654.42	63.19
654.56	0.00
654.71	14.04
654.85	4.68
655.00	110.01
655.14	100.64
655.29	65.54
655.43	49.15
655.57	51.49
655.72	23.41
655.86	72.56
656.01	65.54
656.15	60.85
656.30	46.81
656.44	42.13
656.58	72.56
656.73	42.13
656.87	60.85
657.01	2.34
657.16	46.81
657.30	39.79
657.45	63.19
657.59	49.15
657.73	0.00
657.88	37.45
658.02	30.43
658.16	11.70
658.31	30.43
658.45	46.81
658.60	0.00
658.74	79.58
658.88	70.22
659.03	77.24
659.17	58.51
659.31	98.30
659.46	182.56
659.60	262.14
659.74	388.53
659.89	390.87
660.03	290.23
660.17	194.26
660.32	149.79
660.46	95.96
660.60	95.96
660.74	32.77
660.89	58.51
661.03	49.15
661.17	0.00
661.32	21.06
661.46	16.38
661.60	42.13
661.74	53.83
661.89	72.56
662.03	32.77
662.17	0.00
662.31	98.30
662.46	30.43
662.60	51.49
662.74	28.09
662.88	37.45
663.03	67.88
663.17	0.00
663.31	63.19
663.45	4.68
663.60	16.38
663.74	0.00
663.88	0.00
664.02	46.81
664.17	49.15
664.31	0.00
664.45	0.00
664.59	72.56
664.73	25.75
664.88	0.00
665.02	28.09
665.16	32.77
665.30	65.54
665.44	79.58
665.59	37.45
665.73	84.26
665.87	72.56
666.01	51.49
666.15	51.49
666.29	2.34
666.44	58.51
666.58	51.49
666.72	56.17
666.86	0.00
667.00	37.45
667.14	74.90
667.28	114.69
667.43	337.04
667.57	512.58
667.71	631.94
667.85	538.32
667.99	407.25
668.13	264.48
668.27	145.11
668.41	102.98
668.56	51.49
668.70	74.90
668.84	81.92
668.98	77.24
669.12	67.88
669.26	9.36
669.40	37.45
669.54	28.09
669.68	18.72
669.82	0.00
669.96	30.43
670.10	49.15
670.25	49.15
670.39	25.75
670.53	25.75
670.67	32.77
670.81	30.43
670.95	56.17
671.09	46.81
671.23	133.41
671.37	234.05
671.51	400.23
671.65	400.23
671.79	299.59
671.93	170.86
672.07	170.86
672.21	124.05
672.35	86.60
672.49	93.62
672.63	74.90
672.77	93.62
672.91	56.17
673.05	0.00
673.19	110.01
673.33	28.09
673.47	60.85
673.61	0.00
673.75	35.11
673.89	23.41
674.03	25.75
674.17	105.32
674.31	58.51
674.45	25.75
674.59	9.36
674.73	14.04
674.87	63.19
675.01	0.00
675.15	44.47
675.29	0.00
675.43	42.13
675.56	35.11
675.70	46.81
675.84	114.69
675.98	0.00
676.12	42.13
676.26	37.45
676.40	25.75
676.54	51.49
676.68	53.83
676.82	63.19
676.96	42.13
677.10	72.56
677.23	49.15
677.37	16.38
677.51	21.06
677.65	58.51
677.79	93.62
677.93	46.81
678.07	23.41
678.21	0.00
678.34	58.51
678.48	32.77
678.62	0.00
678.76	32.77
678.90	42.13
679.04	58.51
679.18	70.22
679.31	0.00
679.45	39.79
679.59	16.38
679.73	0.00
679.87	0.00
680.00	44.47
680.14	0.00
680.28	0.00
680.42	53.83
680.56	0.00
680.70	51.49
680.83	28.09
680.97	46.81
681.11	70.22
681.25	63.19
681.39	53.83
681.52	32.77
681.66	0.00
681.80	7.02
681.94	95.96
682.07	21.06
682.21	2.34
682.35	58.51
682.49	32.77
682.62	58.51
682.76	93.62
682.90	2.34
683.04	25.75
683.17	114.69
683.31	49.15
683.45	79.58
683.59	46.81
683.72	44.47
683.86	0.00
684.00	46.81
684.13	86.60
684.27	21.06
684.41	56.17
684.55	14.04
684.68	42.13
684.82	16.38
684.96	0.00
685.09	51.49
685.23	49.15
685.37	32.77
685.50	21.06
685.64	14.04
685.78	56.17
685.91	56.17
686.05	9.36
686.19	4.68
686.32	42.13
686.46	0.00
686.60	18.72
686.73	100.64
686.87	2.34
687.01	0.00
687.14	0.00
687.28	0.00
687.42	93.62
687.55	0.00
687.69	2.34
687.82	0.00
687.96	39.79
688.10	0.00
688.23	0.00
688.37	46.81
688.50	25.75
688.64	0.00
688.78	0.00
688.91	0.00
689.05	65.54
689.18	44.47
689.32	0.00
689.46	35.11
689.59	39.79
689.73	42.13
689.86	56.17
690.00	25.75
690.13	53.83
690.27	72.56
690.41	42.13
690.54	0.00
690.68	67.88
690.81	28.09
690.95	39.79
691.08	74.90
691.22	28.09
691.35	39.79
691.49	0.00
691.62	2.34
691.76	21.06
691.89	37.45
692.03	0.00
692.16	0.00
692.30	0.00
692.43	126.39
692.57	180.22
692.70	198.95
692.84	266.82
692.97	236.39
693.11	208.31
693.24	126.39
693.38	161.50
693.51	51.49
693.65	72.56
693.78	44.47
693.92	16.38
694.05	49.15
694.19	16.38
694.32	60.85
694.45	67.88
694.59	74.90
694.72	39.79
694.86	25.75
694.99	23.41
695.13	72.56
695.26	0.00
695.39	81.92
695.53	81.92
695.66	49.15
695.80	58.51
695.93	49.15
696.07	0.00
696.20	53.83
696.33	81.92
696.47	163.84
696.60	91.28
696.73	0.00
696.87	0.00
697.00	42.13
697.14	0.00
697.27	46.81
697.40	56.17
697.54	0.00
697.67	58.51
697.80	37.45
697.94	18.72
698.07	21.06
698.21	37.45
698.34	74.90
698.47	0.00
698.61	128.73
698.74	0.00
698.87	9.36
699.01	65.54
699.14	46.81
699.27	4.68
699.40	25.75
699.54	28.09
699.67	91.28
699.80	58.51
699.94	58.51
700.07	0.00
700.20	79.58
700.34	42.13
700.47	0.00
700.60	70.22
700.73	30.43
700.87	81.92
701.00	124.05
701.13	46.81
701.26	56.17
701.40	32.77
701.53	39.79
701.66	0.00
701.79	60.85
701.93	0.00
702.06	58.51
702.19	18.72
702.32	58.51
702.46	21.06
702.59	7.02
702.72	88.94
702.85	222.35
702.99	332.36
703.12	477.47
703.25	552.37
703.38	421.30
703.51	414.27
703.65	191.92
703.78	156.82
703.91	166.18
704.04	67.88
704.17	72.56
704.31	30.43
704.44	65.54
704.57	0.00
704.70	91.28
704.83	21.06
704.96	35.11
705.10	53.83
705.23	37.45
>>>>>End Processed Spectral Data<<<<<
