SpectraSuite Data File
++++++++++++++++++++++++++++++++++++
Date: Fri Oct 04 12:13:41 GMT-05:00 2013
User: price-jones
Dark Spectrum Present: No
Reference Spectrum Present: No
Number of Sampled Component Spectra: 1
Spectrometers: USB2+H05261
Integration Time (usec): 10000 (USB2+H05261)
Spectra Averaged: 1 (USB2+H05261)
Boxcar Smoothing: 0 (USB2+H05261)
Correct for Electrical Dark: No (USB2+H05261)
Strobe/Lamp Enabled: No (USB2+H05261)
Correct for Detector Non-linearity: No (USB2+H05261)
Correct for Stray Light: No (USB2+H05261)
Number of Pixels in Processed Spectrum: 2048
>>>>>Begin Processed Spectral Data<<<<<
365.73	25.75
365.92	25.75
366.12	25.75
366.32	0.00
366.52	0.00
366.72	0.00
366.91	0.00
367.11	0.00
367.31	0.00
367.51	0.00
367.70	0.00
367.90	0.00
368.10	0.00
368.30	0.00
368.49	0.00
368.69	0.00
368.89	0.00
369.09	0.00
369.28	0.00
369.48	0.00
369.68	0.00
369.87	0.00
370.07	0.00
370.27	0.00
370.47	0.00
370.66	0.00
370.86	0.00
371.06	0.00
371.25	0.00
371.45	7.02
371.65	0.00
371.84	0.00
372.04	0.00
372.24	0.00
372.44	0.00
372.63	37.45
372.83	0.00
373.03	4.68
373.22	0.00
373.42	35.11
373.62	67.88
373.81	77.24
374.01	65.54
374.21	42.13
374.40	32.77
374.60	70.22
374.79	2.34
374.99	49.15
375.19	65.54
375.38	0.00
375.58	46.81
375.78	7.02
375.97	86.60
376.17	35.11
376.37	74.90
376.56	11.70
376.76	4.68
376.95	0.00
377.15	63.19
377.35	0.00
377.54	46.81
377.74	49.15
377.93	23.41
378.13	49.15
378.33	30.43
378.52	16.38
378.72	16.38
378.91	0.00
379.11	56.17
379.31	0.00
379.50	56.17
379.70	0.00
379.89	0.00
380.09	23.41
380.28	0.00
380.48	9.36
380.68	32.77
380.87	81.92
381.07	79.58
381.26	53.83
381.46	58.51
381.65	67.88
381.85	21.06
382.04	86.60
382.24	7.02
382.43	25.75
382.63	0.00
382.83	21.06
383.02	0.00
383.22	126.39
383.41	0.00
383.61	9.36
383.80	39.79
384.00	21.06
384.19	46.81
384.39	0.00
384.58	49.15
384.78	18.72
384.97	18.72
385.17	42.13
385.36	30.43
385.56	28.09
385.75	63.19
385.95	4.68
386.14	9.36
386.34	0.00
386.53	0.00
386.72	0.00
386.92	18.72
387.11	0.00
387.31	11.70
387.50	72.56
387.70	30.43
387.89	0.00
388.09	11.70
388.28	7.02
388.48	0.00
388.67	4.68
388.86	4.68
389.06	0.00
389.25	124.05
389.45	0.00
389.64	117.03
389.84	32.77
390.03	53.83
390.22	0.00
390.42	51.49
390.61	58.51
390.81	74.90
391.00	84.26
391.19	18.72
391.39	11.70
391.58	0.00
391.78	51.49
391.97	0.00
392.16	65.54
392.36	42.13
392.55	0.00
392.75	0.00
392.94	0.00
393.13	0.00
393.33	32.77
393.52	14.04
393.71	4.68
393.91	53.83
394.10	2.34
394.29	2.34
394.49	25.75
394.68	35.11
394.88	72.56
395.07	21.06
395.26	0.00
395.46	25.75
395.65	0.00
395.84	0.00
396.04	49.15
396.23	7.02
396.42	0.00
396.62	105.32
396.81	37.45
397.00	49.15
397.19	0.00
397.39	70.22
397.58	0.00
397.77	0.00
397.97	84.26
398.16	93.62
398.35	11.70
398.55	60.85
398.74	0.00
398.93	28.09
399.12	0.00
399.32	0.00
399.51	0.00
399.70	77.24
399.90	0.00
400.09	2.34
400.28	0.00
400.47	23.41
400.67	35.11
400.86	23.41
401.05	67.88
401.24	14.04
401.44	0.00
401.63	0.00
401.82	63.19
402.01	35.11
402.21	4.68
402.40	0.00
402.59	56.17
402.78	0.00
402.97	25.75
403.17	46.81
403.36	0.00
403.55	18.72
403.74	11.70
403.93	46.81
404.13	53.83
404.32	30.43
404.51	63.19
404.70	46.81
404.89	39.79
405.09	39.79
405.28	65.54
405.47	0.00
405.66	0.00
405.85	0.00
406.05	0.00
406.24	77.24
406.43	37.45
406.62	58.51
406.81	30.43
407.00	91.28
407.20	53.83
407.39	0.00
407.58	28.09
407.77	28.09
407.96	14.04
408.15	53.83
408.34	11.70
408.54	0.00
408.73	0.00
408.92	7.02
409.11	18.72
409.30	4.68
409.49	11.70
409.68	39.79
409.87	77.24
410.07	63.19
410.26	35.11
410.45	42.13
410.64	58.51
410.83	0.00
411.02	35.11
411.21	23.41
411.40	58.51
411.59	81.92
411.78	0.00
411.98	42.13
412.17	60.85
412.36	0.00
412.55	0.00
412.74	21.06
412.93	70.22
413.12	53.83
413.31	14.04
413.50	58.51
413.69	74.90
413.88	32.77
414.07	42.13
414.26	9.36
414.45	21.06
414.64	39.79
414.83	0.00
415.02	65.54
415.22	81.92
415.41	0.00
415.60	0.00
415.79	0.00
415.98	46.81
416.17	102.98
416.36	16.38
416.55	39.79
416.74	58.51
416.93	42.13
417.12	23.41
417.31	84.26
417.50	93.62
417.69	0.00
417.88	7.02
418.07	74.90
418.26	53.83
418.45	67.88
418.64	60.85
418.83	0.00
419.02	84.26
419.21	51.49
419.39	102.98
419.58	21.06
419.77	0.00
419.96	102.98
420.15	53.83
420.34	56.17
420.53	42.13
420.72	0.00
420.91	58.51
421.10	49.15
421.29	9.36
421.48	51.49
421.67	70.22
421.86	102.98
422.05	21.06
422.24	21.06
422.43	35.11
422.61	67.88
422.80	39.79
422.99	60.85
423.18	70.22
423.37	74.90
423.56	91.28
423.75	72.56
423.94	0.00
424.13	30.43
424.32	30.43
424.50	9.36
424.69	60.85
424.88	14.04
425.07	56.17
425.26	49.15
425.45	107.66
425.64	49.15
425.83	70.22
426.01	60.85
426.20	28.09
426.39	77.24
426.58	110.01
426.77	28.09
426.96	21.06
427.15	53.83
427.33	9.36
427.52	93.62
427.71	30.43
427.90	49.15
428.09	4.68
428.28	63.19
428.46	37.45
428.65	91.28
428.84	0.00
429.03	0.00
429.22	49.15
429.40	37.45
429.59	100.64
429.78	60.85
429.97	74.90
430.16	72.56
430.34	79.58
430.53	72.56
430.72	72.56
430.91	119.37
431.10	23.41
431.28	112.35
431.47	11.70
431.66	117.03
431.85	25.75
432.03	63.19
432.22	28.09
432.41	49.15
432.60	112.35
432.79	102.98
432.97	0.00
433.16	30.43
433.35	0.00
433.54	28.09
433.72	65.54
433.91	77.24
434.10	32.77
434.28	0.00
434.47	28.09
434.66	126.39
434.85	86.60
435.03	53.83
435.22	37.45
435.41	91.28
435.59	110.01
435.78	0.00
435.97	58.51
436.16	28.09
436.34	32.77
436.53	49.15
436.72	32.77
436.90	46.81
437.09	44.47
437.28	32.77
437.46	42.13
437.65	58.51
437.84	53.83
438.02	84.26
438.21	72.56
438.40	21.06
438.58	42.13
438.77	25.75
438.96	23.41
439.14	77.24
439.33	0.00
439.52	98.30
439.70	7.02
439.89	4.68
440.08	51.49
440.26	39.79
440.45	18.72
440.63	39.79
440.82	23.41
441.01	44.47
441.19	107.66
441.38	110.01
441.57	23.41
441.75	95.96
441.94	16.38
442.12	91.28
442.31	70.22
442.50	11.70
442.68	28.09
442.87	60.85
443.05	58.51
443.24	56.17
443.43	28.09
443.61	28.09
443.80	140.43
443.98	0.00
444.17	25.75
444.35	79.58
444.54	46.81
444.73	32.77
444.91	72.56
445.10	56.17
445.28	28.09
445.47	46.81
445.65	0.00
445.84	84.26
446.02	65.54
446.21	79.58
446.39	98.30
446.58	25.75
446.77	56.17
446.95	86.60
447.14	72.56
447.32	32.77
447.51	74.90
447.69	25.75
447.88	121.71
448.06	74.90
448.25	14.04
448.43	72.56
448.62	23.41
448.80	79.58
448.99	35.11
449.17	11.70
449.36	74.90
449.54	37.45
449.73	91.28
449.91	107.66
450.10	37.45
450.28	77.24
450.46	124.05
450.65	14.04
450.83	72.56
451.02	35.11
451.20	88.94
451.39	0.00
451.57	4.68
451.76	11.70
451.94	102.98
452.13	93.62
452.31	42.13
452.49	79.58
452.68	0.00
452.86	9.36
453.05	32.77
453.23	30.43
453.42	0.00
453.60	42.13
453.78	0.00
453.97	23.41
454.15	42.13
454.34	63.19
454.52	25.75
454.70	88.94
454.89	79.58
455.07	32.77
455.26	95.96
455.44	63.19
455.62	77.24
455.81	98.30
455.99	67.88
456.17	37.45
456.36	25.75
456.54	39.79
456.73	0.00
456.91	63.19
457.09	53.83
457.28	46.81
457.46	58.51
457.64	49.15
457.83	70.22
458.01	72.56
458.19	72.56
458.38	51.49
458.56	53.83
458.74	46.81
458.93	46.81
459.11	93.62
459.29	0.00
459.48	112.35
459.66	65.54
459.84	128.73
460.03	70.22
460.21	63.19
460.39	44.47
460.57	84.26
460.76	98.30
460.94	56.17
461.12	53.83
461.31	107.66
461.49	77.24
461.67	81.92
461.85	138.09
462.04	0.00
462.22	140.43
462.40	42.13
462.59	79.58
462.77	44.47
462.95	9.36
463.13	110.01
463.32	95.96
463.50	51.49
463.68	74.90
463.86	30.43
464.05	107.66
464.23	37.45
464.41	58.51
464.59	67.88
464.78	32.77
464.96	30.43
465.14	32.77
465.32	86.60
465.50	65.54
465.69	37.45
465.87	9.36
466.05	84.26
466.23	42.13
466.41	9.36
466.60	79.58
466.78	70.22
466.96	131.07
467.14	86.60
467.32	0.00
467.51	16.38
467.69	37.45
467.87	81.92
468.05	91.28
468.23	32.77
468.41	131.07
468.60	30.43
468.78	23.41
468.96	72.56
469.14	30.43
469.32	7.02
469.50	149.79
469.69	32.77
469.87	4.68
470.05	93.62
470.23	53.83
470.41	44.47
470.59	23.41
470.77	51.49
470.95	23.41
471.14	58.51
471.32	46.81
471.50	37.45
471.68	100.64
471.86	70.22
472.04	32.77
472.22	93.62
472.40	114.69
472.58	0.00
472.77	149.79
472.95	16.38
473.13	100.64
473.31	112.35
473.49	35.11
473.67	56.17
473.85	77.24
474.03	110.01
474.21	46.81
474.39	14.04
474.57	58.51
474.75	67.88
474.93	49.15
475.12	72.56
475.30	32.77
475.48	37.45
475.66	100.64
475.84	16.38
476.02	0.00
476.20	21.06
476.38	84.26
476.56	117.03
476.74	56.17
476.92	95.96
477.10	32.77
477.28	72.56
477.46	35.11
477.64	51.49
477.82	32.77
478.00	79.58
478.18	81.92
478.36	91.28
478.54	63.19
478.72	63.19
478.90	77.24
479.08	60.85
479.26	32.77
479.44	35.11
479.62	56.17
479.80	117.03
479.98	77.24
480.16	35.11
480.34	88.94
480.52	25.75
480.70	39.79
480.88	86.60
481.06	67.88
481.24	39.79
481.41	105.32
481.59	86.60
481.77	58.51
481.95	77.24
482.13	60.85
482.31	37.45
482.49	81.92
482.67	44.47
482.85	23.41
483.03	0.00
483.21	58.51
483.39	25.75
483.57	16.38
483.74	28.09
483.92	46.81
484.10	100.64
484.28	46.81
484.46	42.13
484.64	131.07
484.82	25.75
485.00	95.96
485.18	112.35
485.35	88.94
485.53	58.51
485.71	95.96
485.89	86.60
486.07	44.47
486.25	65.54
486.43	95.96
486.61	107.66
486.78	23.41
486.96	28.09
487.14	51.49
487.32	77.24
487.50	86.60
487.68	79.58
487.85	32.77
488.03	67.88
488.21	117.03
488.39	9.36
488.57	65.54
488.75	117.03
488.92	142.77
489.10	93.62
489.28	77.24
489.46	98.30
489.64	70.22
489.81	93.62
489.99	65.54
490.17	110.01
490.35	84.26
490.53	56.17
490.70	81.92
490.88	121.71
491.06	44.47
491.24	102.98
491.41	39.79
491.59	42.13
491.77	56.17
491.95	53.83
492.13	37.45
492.30	63.19
492.48	102.98
492.66	42.13
492.84	16.38
493.01	25.75
493.19	46.81
493.37	63.19
493.54	65.54
493.72	105.32
493.90	39.79
494.08	84.26
494.25	70.22
494.43	67.88
494.61	53.83
494.79	91.28
494.96	60.85
495.14	25.75
495.32	30.43
495.49	25.75
495.67	30.43
495.85	107.66
496.02	95.96
496.20	86.60
496.38	39.79
496.55	63.19
496.73	117.03
496.91	51.49
497.09	128.73
497.26	128.73
497.44	56.17
497.62	72.56
497.79	18.72
497.97	91.28
498.14	56.17
498.32	30.43
498.50	30.43
498.67	79.58
498.85	46.81
499.03	46.81
499.20	32.77
499.38	79.58
499.56	133.41
499.73	72.56
499.91	95.96
500.08	51.49
500.26	53.83
500.44	53.83
500.61	32.77
500.79	37.45
500.97	110.01
501.14	88.94
501.32	88.94
501.49	107.66
501.67	88.94
501.84	121.71
502.02	84.26
502.20	32.77
502.37	58.51
502.55	81.92
502.72	112.35
502.90	100.64
503.07	117.03
503.25	93.62
503.43	86.60
503.60	135.75
503.78	119.37
503.95	91.28
504.13	44.47
504.30	114.69
504.48	88.94
504.65	117.03
504.83	105.32
505.01	182.56
505.18	28.09
505.36	65.54
505.53	81.92
505.71	81.92
505.88	60.85
506.06	18.72
506.23	39.79
506.41	93.62
506.58	105.32
506.76	79.58
506.93	95.96
507.11	9.36
507.28	72.56
507.46	95.96
507.63	70.22
507.81	77.24
507.98	102.98
508.16	49.15
508.33	56.17
508.50	149.79
508.68	140.43
508.85	63.19
509.03	124.05
509.20	65.54
509.38	128.73
509.55	49.15
509.73	42.13
509.90	159.16
510.08	154.48
510.25	107.66
510.42	98.30
510.60	110.01
510.77	112.35
510.95	65.54
511.12	16.38
511.30	124.05
511.47	95.96
511.64	93.62
511.82	77.24
511.99	110.01
512.17	119.37
512.34	67.88
512.51	70.22
512.69	49.15
512.86	16.38
513.04	0.00
513.21	72.56
513.38	0.00
513.56	60.85
513.73	58.51
513.90	81.92
514.08	23.41
514.25	77.24
514.43	49.15
514.60	35.11
514.77	65.54
514.95	102.98
515.12	93.62
515.29	58.51
515.47	44.47
515.64	154.48
515.81	70.22
515.99	107.66
516.16	86.60
516.33	102.98
516.51	74.90
516.68	67.88
516.85	77.24
517.03	102.98
517.20	154.48
517.37	133.41
517.54	65.54
517.72	65.54
517.89	51.49
518.06	49.15
518.24	72.56
518.41	21.06
518.58	42.13
518.75	88.94
518.93	63.19
519.10	107.66
519.27	91.28
519.45	79.58
519.62	9.36
519.79	105.32
519.96	79.58
520.14	117.03
520.31	0.00
520.48	121.71
520.65	23.41
520.83	100.64
521.00	117.03
521.17	63.19
521.34	93.62
521.52	60.85
521.69	114.69
521.86	46.81
522.03	114.69
522.20	65.54
522.38	100.64
522.55	98.30
522.72	147.45
522.89	53.83
523.07	86.60
523.24	65.54
523.41	98.30
523.58	77.24
523.75	86.60
523.92	107.66
524.10	100.64
524.27	149.79
524.44	4.68
524.61	30.43
524.78	79.58
524.96	131.07
525.13	95.96
525.30	105.32
525.47	67.88
525.64	119.37
525.81	138.09
525.98	124.05
526.16	72.56
526.33	9.36
526.50	51.49
526.67	102.98
526.84	4.68
527.01	67.88
527.18	126.39
527.36	131.07
527.53	18.72
527.70	126.39
527.87	51.49
528.04	35.11
528.21	77.24
528.38	133.41
528.55	105.32
528.72	60.85
528.89	133.41
529.07	131.07
529.24	30.43
529.41	124.05
529.58	98.30
529.75	107.66
529.92	86.60
530.09	128.73
530.26	149.79
530.43	79.58
530.60	23.41
530.77	102.98
530.94	121.71
531.11	110.01
531.28	42.13
531.46	112.35
531.63	102.98
531.80	63.19
531.97	88.94
532.14	117.03
532.31	46.81
532.48	58.51
532.65	128.73
532.82	98.30
532.99	170.86
533.16	88.94
533.33	84.26
533.50	37.45
533.67	117.03
533.84	102.98
534.01	51.49
534.18	32.77
534.35	93.62
534.52	14.04
534.69	107.66
534.86	152.13
535.03	86.60
535.20	119.37
535.37	175.54
535.54	117.03
535.71	149.79
535.88	98.30
536.05	100.64
536.22	86.60
536.38	119.37
536.55	60.85
536.72	81.92
536.89	95.96
537.06	84.26
537.23	124.05
537.40	81.92
537.57	42.13
537.74	77.24
537.91	93.62
538.08	135.75
538.25	42.13
538.42	84.26
538.59	58.51
538.75	44.47
538.92	117.03
539.09	163.84
539.26	112.35
539.43	63.19
539.60	93.62
539.77	63.19
539.94	102.98
540.11	74.90
540.28	119.37
540.44	65.54
540.61	98.30
540.78	163.84
540.95	53.83
541.12	79.58
541.29	117.03
541.46	126.39
541.62	91.28
541.79	88.94
541.96	60.85
542.13	16.38
542.30	0.00
542.47	44.47
542.63	114.69
542.80	124.05
542.97	121.71
543.14	63.19
543.31	177.88
543.48	53.83
543.64	102.98
543.81	138.09
543.98	32.77
544.15	88.94
544.32	79.58
544.48	63.19
544.65	133.41
544.82	63.19
544.99	126.39
545.16	93.62
545.32	100.64
545.49	112.35
545.66	67.88
545.83	49.15
546.00	105.32
546.16	79.58
546.33	63.19
546.50	42.13
546.67	72.56
546.83	98.30
547.00	86.60
547.17	152.13
547.34	102.98
547.50	110.01
547.67	91.28
547.84	72.56
548.00	70.22
548.17	102.98
548.34	117.03
548.51	74.90
548.67	138.09
548.84	131.07
549.01	95.96
549.18	93.62
549.34	77.24
549.51	28.09
549.68	79.58
549.84	79.58
550.01	63.19
550.18	147.45
550.34	110.01
550.51	88.94
550.68	128.73
550.84	70.22
551.01	91.28
551.18	51.49
551.34	56.17
551.51	81.92
551.68	95.96
551.84	135.75
552.01	4.68
552.18	126.39
552.34	91.28
552.51	81.92
552.68	60.85
552.84	32.77
553.01	100.64
553.18	114.69
553.34	100.64
553.51	100.64
553.67	79.58
553.84	88.94
554.01	63.19
554.17	84.26
554.34	42.13
554.51	60.85
554.67	72.56
554.84	58.51
555.00	77.24
555.17	140.43
555.33	110.01
555.50	131.07
555.67	128.73
555.83	86.60
556.00	98.30
556.16	81.92
556.33	100.64
556.50	128.73
556.66	74.90
556.83	112.35
556.99	65.54
557.16	110.01
557.32	77.24
557.49	77.24
557.65	60.85
557.82	39.79
557.98	98.30
558.15	117.03
558.32	110.01
558.48	25.75
558.65	65.54
558.81	63.19
558.98	23.41
559.14	21.06
559.31	42.13
559.47	84.26
559.64	121.71
559.80	102.98
559.97	114.69
560.13	74.90
560.30	88.94
560.46	60.85
560.63	44.47
560.79	74.90
560.96	161.50
561.12	72.56
561.29	25.75
561.45	91.28
561.61	102.98
561.78	84.26
561.94	112.35
562.11	112.35
562.27	121.71
562.44	28.09
562.60	86.60
562.77	56.17
562.93	70.22
563.10	70.22
563.26	0.00
563.42	51.49
563.59	70.22
563.75	49.15
563.92	140.43
564.08	112.35
564.24	77.24
564.41	117.03
564.57	67.88
564.74	79.58
564.90	119.37
565.07	105.32
565.23	88.94
565.39	46.81
565.56	30.43
565.72	16.38
565.88	0.00
566.05	0.00
566.21	51.49
566.38	138.09
566.54	65.54
566.70	131.07
566.87	4.68
567.03	95.96
567.19	77.24
567.36	53.83
567.52	67.88
567.68	112.35
567.85	105.32
568.01	110.01
568.17	88.94
568.34	51.49
568.50	126.39
568.66	65.54
568.83	63.19
568.99	46.81
569.15	16.38
569.32	65.54
569.48	49.15
569.64	168.52
569.81	84.26
569.97	67.88
570.13	114.69
570.30	81.92
570.46	39.79
570.62	77.24
570.78	126.39
570.95	44.47
571.11	149.79
571.27	84.26
571.43	86.60
571.60	128.73
571.76	149.79
571.92	58.51
572.09	60.85
572.25	32.77
572.41	84.26
572.57	70.22
572.74	28.09
572.90	121.71
573.06	60.85
573.22	81.92
573.38	100.64
573.55	35.11
573.71	63.19
573.87	77.24
574.03	53.83
574.20	65.54
574.36	72.56
574.52	133.41
574.68	77.24
574.84	67.88
575.01	14.04
575.17	79.58
575.33	67.88
575.49	35.11
575.65	42.13
575.82	72.56
575.98	79.58
576.14	124.05
576.30	156.82
576.46	102.98
576.62	88.94
576.79	117.03
576.95	145.11
577.11	117.03
577.27	79.58
577.43	177.88
577.59	25.75
577.75	117.03
577.92	100.64
578.08	93.62
578.24	14.04
578.40	128.73
578.56	37.45
578.72	86.60
578.88	102.98
579.04	124.05
579.21	95.96
579.37	95.96
579.53	112.35
579.69	65.54
579.85	124.05
580.01	60.85
580.17	53.83
580.33	56.17
580.49	53.83
580.65	145.11
580.82	63.19
580.98	72.56
581.14	102.98
581.30	70.22
581.46	100.64
581.62	84.26
581.78	67.88
581.94	70.22
582.10	112.35
582.26	93.62
582.42	42.13
582.58	81.92
582.74	16.38
582.90	7.02
583.06	102.98
583.22	65.54
583.38	32.77
583.54	51.49
583.70	112.35
583.86	84.26
584.02	88.94
584.18	72.56
584.34	79.58
584.50	32.77
584.66	74.90
584.82	0.00
584.98	65.54
585.14	25.75
585.30	0.00
585.46	49.15
585.62	0.00
585.78	37.45
585.94	156.82
586.10	51.49
586.26	74.90
586.42	0.00
586.58	84.26
586.74	63.19
586.90	93.62
587.06	128.73
587.22	77.24
587.38	0.00
587.54	105.32
587.70	114.69
587.86	147.45
588.02	138.09
588.18	91.28
588.34	74.90
588.49	37.45
588.65	93.62
588.81	21.06
588.97	74.90
589.13	86.60
589.29	32.77
589.45	79.58
589.61	65.54
589.77	53.83
589.93	49.15
590.08	11.70
590.24	72.56
590.40	107.66
590.56	102.98
590.72	42.13
590.88	74.90
591.04	100.64
591.20	65.54
591.35	58.51
591.51	84.26
591.67	88.94
591.83	70.22
591.99	70.22
592.15	91.28
592.31	42.13
592.46	126.39
592.62	53.83
592.78	128.73
592.94	44.47
593.10	121.71
593.26	95.96
593.41	42.13
593.57	77.24
593.73	102.98
593.89	93.62
594.05	65.54
594.20	53.83
594.36	51.49
594.52	67.88
594.68	67.88
594.84	35.11
594.99	65.54
595.15	32.77
595.31	72.56
595.47	46.81
595.62	110.01
595.78	91.28
595.94	72.56
596.10	91.28
596.25	37.45
596.41	0.00
596.57	0.00
596.73	23.41
596.88	63.19
597.04	88.94
597.20	63.19
597.36	63.19
597.51	91.28
597.67	74.90
597.83	63.19
597.99	112.35
598.14	44.47
598.30	25.75
598.46	70.22
598.61	63.19
598.77	95.96
598.93	84.26
599.09	88.94
599.24	53.83
599.40	117.03
599.56	79.58
599.71	11.70
599.87	44.47
600.03	98.30
600.18	4.68
600.34	28.09
600.50	154.48
600.65	37.45
600.81	95.96
600.97	28.09
601.12	65.54
601.28	119.37
601.44	65.54
601.59	79.58
601.75	28.09
601.91	91.28
602.06	95.96
602.22	58.51
602.37	25.75
602.53	88.94
602.69	42.13
602.84	145.11
603.00	60.85
603.16	91.28
603.31	42.13
603.47	44.47
603.62	39.79
603.78	91.28
603.94	81.92
604.09	56.17
604.25	30.43
604.40	58.51
604.56	138.09
604.71	2.34
604.87	28.09
605.03	84.26
605.18	145.11
605.34	147.45
605.49	88.94
605.65	70.22
605.80	56.17
605.96	37.45
606.12	70.22
606.27	60.85
606.43	72.56
606.58	74.90
606.74	74.90
606.89	70.22
607.05	58.51
607.20	46.81
607.36	126.39
607.51	98.30
607.67	114.69
607.82	49.15
607.98	37.45
608.13	4.68
608.29	77.24
608.44	42.13
608.60	102.98
608.75	42.13
608.91	74.90
609.06	42.13
609.22	53.83
609.37	74.90
609.53	32.77
609.68	72.56
609.84	131.07
609.99	35.11
610.15	142.77
610.30	2.34
610.46	11.70
610.61	65.54
610.76	86.60
610.92	156.82
611.07	42.13
611.23	63.19
611.38	88.94
611.54	79.58
611.69	39.79
611.84	126.39
612.00	88.94
612.15	140.43
612.31	37.45
612.46	32.77
612.62	86.60
612.77	65.54
612.92	79.58
613.08	11.70
613.23	67.88
613.39	77.24
613.54	121.71
613.69	53.83
613.85	16.38
614.00	11.70
614.15	58.51
614.31	0.00
614.46	42.13
614.62	110.01
614.77	74.90
614.92	39.79
615.08	46.81
615.23	35.11
615.38	102.98
615.54	88.94
615.69	37.45
615.84	93.62
616.00	74.90
616.15	39.79
616.30	21.06
616.46	70.22
616.61	79.58
616.76	51.49
616.92	58.51
617.07	74.90
617.22	81.92
617.37	56.17
617.53	56.17
617.68	23.41
617.83	88.94
617.99	46.81
618.14	88.94
618.29	0.00
618.45	65.54
618.60	28.09
618.75	35.11
618.90	18.72
619.06	79.58
619.21	44.47
619.36	56.17
619.51	93.62
619.67	102.98
619.82	30.43
619.97	53.83
620.12	53.83
620.28	32.77
620.43	46.81
620.58	79.58
620.73	11.70
620.89	35.11
621.04	42.13
621.19	44.47
621.34	53.83
621.49	145.11
621.65	35.11
621.80	77.24
621.95	60.85
622.10	32.77
622.25	105.32
622.41	63.19
622.56	72.56
622.71	93.62
622.86	72.56
623.01	7.02
623.16	81.92
623.32	0.00
623.47	11.70
623.62	72.56
623.77	79.58
623.92	35.11
624.07	93.62
624.23	25.75
624.38	67.88
624.53	58.51
624.68	107.66
624.83	100.64
624.98	32.77
625.13	23.41
625.29	60.85
625.44	133.41
625.59	79.58
625.74	91.28
625.89	60.85
626.04	39.79
626.19	63.19
626.34	79.58
626.49	16.38
626.65	60.85
626.80	14.04
626.95	53.83
627.10	95.96
627.25	11.70
627.40	21.06
627.55	14.04
627.70	56.17
627.85	67.88
628.00	60.85
628.15	117.03
628.30	63.19
628.45	37.45
628.60	79.58
628.76	91.28
628.91	100.64
629.06	126.39
629.21	72.56
629.36	2.34
629.51	28.09
629.66	91.28
629.81	0.00
629.96	9.36
630.11	39.79
630.26	46.81
630.41	102.98
630.56	49.15
630.71	95.96
630.86	11.70
631.01	74.90
631.16	58.51
631.31	51.49
631.46	117.03
631.61	88.94
631.76	79.58
631.91	56.17
632.06	42.13
632.21	124.05
632.36	70.22
632.51	53.83
632.66	39.79
632.81	60.85
632.96	60.85
633.10	51.49
633.25	60.85
633.40	46.81
633.55	37.45
633.70	58.51
633.85	0.00
634.00	35.11
634.15	86.60
634.30	114.69
634.45	11.70
634.60	86.60
634.75	105.32
634.90	72.56
635.05	119.37
635.19	117.03
635.34	28.09
635.49	67.88
635.64	53.83
635.79	46.81
635.94	46.81
636.09	42.13
636.24	28.09
636.39	60.85
636.53	44.47
636.68	100.64
636.83	88.94
636.98	117.03
637.13	4.68
637.28	16.38
637.43	124.05
637.57	79.58
637.72	49.15
637.87	100.64
638.02	84.26
638.17	44.47
638.32	81.92
638.46	16.38
638.61	0.00
638.76	100.64
638.91	25.75
639.06	112.35
639.20	100.64
639.35	100.64
639.50	79.58
639.65	107.66
639.80	0.00
639.94	0.00
640.09	28.09
640.24	95.96
640.39	107.66
640.54	23.41
640.68	39.79
640.83	72.56
640.98	28.09
641.13	107.66
641.27	65.54
641.42	28.09
641.57	86.60
641.72	49.15
641.86	72.56
642.01	126.39
642.16	16.38
642.31	14.04
642.45	70.22
642.60	14.04
642.75	35.11
642.90	46.81
643.04	100.64
643.19	60.85
643.34	63.19
643.48	51.49
643.63	77.24
643.78	88.94
643.93	58.51
644.07	88.94
644.22	28.09
644.37	63.19
644.51	42.13
644.66	11.70
644.81	95.96
644.95	65.54
645.10	56.17
645.25	91.28
645.39	88.94
645.54	39.79
645.69	93.62
645.83	18.72
645.98	0.00
646.13	0.00
646.27	0.00
646.42	30.43
646.57	60.85
646.71	42.13
646.86	25.75
647.00	86.60
647.15	51.49
647.30	44.47
647.44	46.81
647.59	44.47
647.74	0.00
647.88	7.02
648.03	74.90
648.17	65.54
648.32	0.00
648.47	72.56
648.61	81.92
648.76	100.64
648.90	117.03
649.05	25.75
649.20	81.92
649.34	35.11
649.49	11.70
649.63	0.00
649.78	86.60
649.92	0.00
650.07	72.56
650.21	49.15
650.36	98.30
650.51	35.11
650.65	110.01
650.80	95.96
650.94	23.41
651.09	21.06
651.23	58.51
651.38	65.54
651.52	117.03
651.67	39.79
651.81	49.15
651.96	25.75
652.10	21.06
652.25	51.49
652.39	0.00
652.54	93.62
652.68	51.49
652.83	39.79
652.97	32.77
653.12	105.32
653.26	93.62
653.41	37.45
653.55	84.26
653.70	0.00
653.84	4.68
653.99	107.66
654.13	74.90
654.27	25.75
654.42	56.17
654.56	67.88
654.71	0.00
654.85	119.37
655.00	79.58
655.14	37.45
655.29	67.88
655.43	56.17
655.57	30.43
655.72	117.03
655.86	0.00
656.01	0.00
656.15	0.00
656.30	0.00
656.44	56.17
656.58	16.38
656.73	11.70
656.87	51.49
657.01	74.90
657.16	88.94
657.30	91.28
657.45	30.43
657.59	93.62
657.73	0.00
657.88	91.28
658.02	42.13
658.16	53.83
658.31	86.60
658.45	49.15
658.60	58.51
658.74	79.58
658.88	37.45
659.03	30.43
659.17	49.15
659.31	63.19
659.46	60.85
659.60	74.90
659.74	74.90
659.89	9.36
660.03	28.09
660.17	58.51
660.32	95.96
660.46	84.26
660.60	72.56
660.74	18.72
660.89	67.88
661.03	63.19
661.17	72.56
661.32	0.00
661.46	77.24
661.60	53.83
661.74	107.66
661.89	25.75
662.03	56.17
662.17	86.60
662.31	74.90
662.46	100.64
662.60	49.15
662.74	44.47
662.88	110.01
663.03	74.90
663.17	63.19
663.31	0.00
663.45	117.03
663.60	112.35
663.74	79.58
663.88	133.41
664.02	28.09
664.17	18.72
664.31	56.17
664.45	102.98
664.59	35.11
664.73	119.37
664.88	65.54
665.02	79.58
665.16	49.15
665.30	4.68
665.44	79.58
665.59	126.39
665.73	14.04
665.87	0.00
666.01	46.81
666.15	14.04
666.29	117.03
666.44	58.51
666.58	35.11
666.72	4.68
666.86	14.04
667.00	86.60
667.14	16.38
667.28	60.85
667.43	51.49
667.57	30.43
667.71	49.15
667.85	0.00
667.99	53.83
668.13	121.71
668.27	0.00
668.41	44.47
668.56	21.06
668.70	84.26
668.84	86.60
668.98	46.81
669.12	102.98
669.26	37.45
669.40	28.09
669.54	117.03
669.68	21.06
669.82	74.90
669.96	56.17
670.10	53.83
670.25	79.58
670.39	49.15
670.53	30.43
670.67	74.90
670.81	18.72
670.95	58.51
671.09	51.49
671.23	2.34
671.37	53.83
671.51	0.00
671.65	16.38
671.79	119.37
671.93	102.98
672.07	32.77
672.21	98.30
672.35	81.92
672.49	16.38
672.63	98.30
672.77	77.24
672.91	74.90
673.05	77.24
673.19	44.47
673.33	70.22
673.47	74.90
673.61	60.85
673.75	23.41
673.89	37.45
674.03	16.38
674.17	0.00
674.31	42.13
674.45	74.90
674.59	0.00
674.73	0.00
674.87	46.81
675.01	72.56
675.15	121.71
675.29	44.47
675.43	30.43
675.56	88.94
675.70	114.69
675.84	21.06
675.98	16.38
676.12	0.00
676.26	16.38
676.40	32.77
676.54	117.03
676.68	7.02
676.82	112.35
676.96	30.43
677.10	30.43
677.23	56.17
677.37	77.24
677.51	0.00
677.65	56.17
677.79	9.36
677.93	0.00
678.07	14.04
678.21	74.90
678.34	35.11
678.48	14.04
678.62	60.85
678.76	53.83
678.90	70.22
679.04	11.70
679.18	46.81
679.31	0.00
679.45	53.83
679.59	100.64
679.73	79.58
679.87	18.72
680.00	105.32
680.14	86.60
680.28	77.24
680.42	65.54
680.56	44.47
680.70	65.54
680.83	60.85
680.97	93.62
681.11	88.94
681.25	39.79
681.39	84.26
681.52	35.11
681.66	11.70
681.80	91.28
681.94	37.45
682.07	32.77
682.21	67.88
682.35	53.83
682.49	91.28
682.62	21.06
682.76	77.24
682.90	60.85
683.04	18.72
683.17	53.83
683.31	23.41
683.45	46.81
683.59	51.49
683.72	81.92
683.86	60.85
684.00	37.45
684.13	18.72
684.27	42.13
684.41	42.13
684.55	84.26
684.68	67.88
684.82	58.51
684.96	16.38
685.09	14.04
685.23	0.00
685.37	9.36
685.50	56.17
685.64	58.51
685.78	79.58
685.91	77.24
686.05	70.22
686.19	58.51
686.32	25.75
686.46	35.11
686.60	21.06
686.73	28.09
686.87	0.00
687.01	4.68
687.14	0.00
687.28	58.51
687.42	53.83
687.55	18.72
687.69	63.19
687.82	77.24
687.96	23.41
688.10	28.09
688.23	84.26
688.37	30.43
688.50	84.26
688.64	60.85
688.78	70.22
688.91	37.45
689.05	7.02
689.18	28.09
689.32	18.72
689.46	56.17
689.59	21.06
689.73	37.45
689.86	107.66
690.00	39.79
690.13	56.17
690.27	16.38
690.41	2.34
690.54	23.41
690.68	23.41
690.81	0.00
690.95	46.81
691.08	11.70
691.22	0.00
691.35	25.75
691.49	44.47
691.62	72.56
691.76	81.92
691.89	91.28
692.03	0.00
692.16	0.00
692.30	95.96
692.43	53.83
692.57	14.04
692.70	77.24
692.84	44.47
692.97	7.02
693.11	70.22
693.24	42.13
693.38	14.04
693.51	0.00
693.65	91.28
693.78	67.88
693.92	67.88
694.05	81.92
694.19	0.00
694.32	2.34
694.45	79.58
694.59	35.11
694.72	98.30
694.86	81.92
694.99	37.45
695.13	14.04
695.26	0.00
695.39	42.13
695.53	0.00
695.66	18.72
695.80	23.41
695.93	117.03
696.07	35.11
696.20	84.26
696.33	65.54
696.47	0.00
696.60	44.47
696.73	16.38
696.87	56.17
697.00	37.45
697.14	95.96
697.27	23.41
697.40	79.58
697.54	51.49
697.67	102.98
697.80	60.85
697.94	53.83
698.07	37.45
698.21	67.88
698.34	16.38
698.47	30.43
698.61	49.15
698.74	0.00
698.87	60.85
699.01	0.00
699.14	74.90
699.27	81.92
699.40	42.13
699.54	67.88
699.67	0.00
699.80	16.38
699.94	23.41
700.07	46.81
700.20	63.19
700.34	0.00
700.47	74.90
700.60	28.09
700.73	16.38
700.87	84.26
701.00	0.00
701.13	35.11
701.26	39.79
701.40	100.64
701.53	0.00
701.66	46.81
701.79	56.17
701.93	7.02
702.06	46.81
702.19	53.83
702.32	53.83
702.46	9.36
702.59	35.11
702.72	65.54
702.85	28.09
702.99	0.00
703.12	67.88
703.25	0.00
703.38	51.49
703.51	37.45
703.65	39.79
703.78	0.00
703.91	51.49
704.04	0.00
704.17	0.00
704.31	56.17
704.44	65.54
704.57	56.17
704.70	81.92
704.83	21.06
704.96	32.77
705.10	51.49
705.23	21.06
>>>>>End Processed Spectral Data<<<<<
