SpectraSuite Data File
++++++++++++++++++++++++++++++++++++
Date: Fri Oct 04 12:13:26 GMT-05:00 2013
User: price-jones
Dark Spectrum Present: No
Reference Spectrum Present: No
Number of Sampled Component Spectra: 1
Spectrometers: USB2+H05261
Integration Time (usec): 10000 (USB2+H05261)
Spectra Averaged: 1 (USB2+H05261)
Boxcar Smoothing: 0 (USB2+H05261)
Correct for Electrical Dark: No (USB2+H05261)
Strobe/Lamp Enabled: No (USB2+H05261)
Correct for Detector Non-linearity: No (USB2+H05261)
Correct for Stray Light: No (USB2+H05261)
Number of Pixels in Processed Spectrum: 2048
>>>>>Begin Processed Spectral Data<<<<<
365.73	0.00
365.92	0.00
366.12	0.00
366.32	0.00
366.52	0.00
366.72	0.00
366.91	0.00
367.11	0.00
367.31	0.00
367.51	0.00
367.70	0.00
367.90	0.00
368.10	0.00
368.30	0.00
368.49	0.00
368.69	0.00
368.89	0.00
369.09	0.00
369.28	0.00
369.48	0.00
369.68	0.00
369.87	0.00
370.07	0.00
370.27	0.00
370.47	0.00
370.66	0.00
370.86	0.00
371.06	32.77
371.25	0.00
371.45	0.00
371.65	0.00
371.84	0.00
372.04	0.00
372.24	0.00
372.44	0.00
372.63	0.00
372.83	0.00
373.03	44.47
373.22	0.00
373.42	0.00
373.62	51.49
373.81	0.00
374.01	18.72
374.21	7.02
374.40	58.51
374.60	11.70
374.79	0.00
374.99	32.77
375.19	0.00
375.38	14.04
375.58	58.51
375.78	42.13
375.97	58.51
376.17	56.17
376.37	25.75
376.56	30.43
376.76	67.88
376.95	16.38
377.15	32.77
377.35	49.15
377.54	39.79
377.74	0.00
377.93	21.06
378.13	0.00
378.33	18.72
378.52	39.79
378.72	0.00
378.91	18.72
379.11	79.58
379.31	0.00
379.50	0.00
379.70	53.83
379.89	0.00
380.09	30.43
380.28	35.11
380.48	56.17
380.68	42.13
380.87	9.36
381.07	0.00
381.26	0.00
381.46	16.38
381.65	95.96
381.85	0.00
382.04	0.00
382.24	0.00
382.43	0.00
382.63	49.15
382.83	23.41
383.02	0.00
383.22	37.45
383.41	72.56
383.61	79.58
383.80	0.00
384.00	0.00
384.19	0.00
384.39	30.43
384.58	0.00
384.78	0.00
384.97	14.04
385.17	0.00
385.36	23.41
385.56	0.00
385.75	74.90
385.95	53.83
386.14	0.00
386.34	0.00
386.53	53.83
386.72	9.36
386.92	4.68
387.11	0.00
387.31	56.17
387.50	0.00
387.70	14.04
387.89	44.47
388.09	0.00
388.28	42.13
388.48	42.13
388.67	0.00
388.86	0.00
389.06	4.68
389.25	0.00
389.45	0.00
389.64	0.00
389.84	16.38
390.03	0.00
390.22	65.54
390.42	0.00
390.61	72.56
390.81	0.00
391.00	0.00
391.19	0.00
391.39	51.49
391.58	4.68
391.78	42.13
391.97	74.90
392.16	49.15
392.36	25.75
392.55	30.43
392.75	9.36
392.94	0.00
393.13	51.49
393.33	51.49
393.52	16.38
393.71	11.70
393.91	44.47
394.10	39.79
394.29	18.72
394.49	0.00
394.68	21.06
394.88	0.00
395.07	56.17
395.26	28.09
395.46	9.36
395.65	0.00
395.84	25.75
396.04	23.41
396.23	86.60
396.42	60.85
396.62	0.00
396.81	72.56
397.00	0.00
397.19	21.06
397.39	0.00
397.58	56.17
397.77	0.00
397.97	0.00
398.16	14.04
398.35	63.19
398.55	23.41
398.74	42.13
398.93	67.88
399.12	67.88
399.32	0.00
399.51	39.79
399.70	84.26
399.90	49.15
400.09	72.56
400.28	14.04
400.47	0.00
400.67	16.38
400.86	18.72
401.05	0.00
401.24	23.41
401.44	14.04
401.63	0.00
401.82	30.43
402.01	14.04
402.21	0.00
402.40	0.00
402.59	11.70
402.78	23.41
402.97	0.00
403.17	0.00
403.36	0.00
403.55	0.00
403.74	16.38
403.93	0.00
404.13	0.00
404.32	0.00
404.51	0.00
404.70	11.70
404.89	44.47
405.09	14.04
405.28	25.75
405.47	53.83
405.66	72.56
405.85	58.51
406.05	0.00
406.24	74.90
406.43	67.88
406.62	0.00
406.81	42.13
407.00	63.19
407.20	23.41
407.39	0.00
407.58	0.00
407.77	49.15
407.96	100.64
408.15	51.49
408.34	0.00
408.54	0.00
408.73	21.06
408.92	32.77
409.11	9.36
409.30	44.47
409.49	35.11
409.68	35.11
409.87	0.00
410.07	0.00
410.26	21.06
410.45	0.00
410.64	11.70
410.83	35.11
411.02	95.96
411.21	46.81
411.40	32.77
411.59	35.11
411.78	32.77
411.98	35.11
412.17	32.77
412.36	25.75
412.55	72.56
412.74	77.24
412.93	0.00
413.12	0.00
413.31	37.45
413.50	0.00
413.69	79.58
413.88	25.75
414.07	0.00
414.26	4.68
414.45	81.92
414.64	0.00
414.83	37.45
415.02	67.88
415.22	0.00
415.41	46.81
415.60	28.09
415.79	32.77
415.98	14.04
416.17	0.00
416.36	0.00
416.55	28.09
416.74	30.43
416.93	0.00
417.12	39.79
417.31	84.26
417.50	7.02
417.69	0.00
417.88	28.09
418.07	14.04
418.26	4.68
418.45	0.00
418.64	0.00
418.83	49.15
419.02	0.00
419.21	0.00
419.39	79.58
419.58	39.79
419.77	39.79
419.96	86.60
420.15	32.77
420.34	86.60
420.53	30.43
420.72	7.02
420.91	23.41
421.10	21.06
421.29	0.00
421.48	0.00
421.67	60.85
421.86	9.36
422.05	0.00
422.24	0.00
422.43	0.00
422.61	28.09
422.80	84.26
422.99	44.47
423.18	60.85
423.37	16.38
423.56	0.00
423.75	42.13
423.94	46.81
424.13	0.00
424.32	0.00
424.50	25.75
424.69	23.41
424.88	4.68
425.07	49.15
425.26	0.00
425.45	51.49
425.64	58.51
425.83	2.34
426.01	58.51
426.20	67.88
426.39	105.32
426.58	0.00
426.77	0.00
426.96	102.98
427.15	67.88
427.33	11.70
427.52	23.41
427.71	114.69
427.90	25.75
428.09	11.70
428.28	0.00
428.46	58.51
428.65	32.77
428.84	4.68
429.03	0.00
429.22	21.06
429.40	4.68
429.59	70.22
429.78	63.19
429.97	124.05
430.16	0.00
430.34	70.22
430.53	86.60
430.72	70.22
430.91	39.79
431.10	18.72
431.28	79.58
431.47	21.06
431.66	0.00
431.85	28.09
432.03	0.00
432.22	98.30
432.41	4.68
432.60	0.00
432.79	0.00
432.97	0.00
433.16	37.45
433.35	46.81
433.54	28.09
433.72	42.13
433.91	100.64
434.10	65.54
434.28	67.88
434.47	91.28
434.66	46.81
434.85	7.02
435.03	4.68
435.22	0.00
435.41	4.68
435.59	30.43
435.78	67.88
435.97	21.06
436.16	51.49
436.34	2.34
436.53	58.51
436.72	56.17
436.90	0.00
437.09	9.36
437.28	4.68
437.46	0.00
437.65	32.77
437.84	53.83
438.02	23.41
438.21	4.68
438.40	53.83
438.58	35.11
438.77	67.88
438.96	18.72
439.14	32.77
439.33	21.06
439.52	39.79
439.70	0.00
439.89	7.02
440.08	39.79
440.26	14.04
440.45	14.04
440.63	53.83
440.82	42.13
441.01	88.94
441.19	28.09
441.38	0.00
441.57	98.30
441.75	39.79
441.94	49.15
442.12	0.00
442.31	18.72
442.50	0.00
442.68	0.00
442.87	53.83
443.05	56.17
443.24	49.15
443.43	14.04
443.61	4.68
443.80	0.00
443.98	11.70
444.17	44.47
444.35	25.75
444.54	107.66
444.73	30.43
444.91	65.54
445.10	0.00
445.28	39.79
445.47	32.77
445.65	0.00
445.84	18.72
446.02	21.06
446.21	81.92
446.39	81.92
446.58	32.77
446.77	84.26
446.95	56.17
447.14	25.75
447.32	18.72
447.51	58.51
447.69	25.75
447.88	0.00
448.06	37.45
448.25	44.47
448.43	7.02
448.62	37.45
448.80	86.60
448.99	0.00
449.17	25.75
449.36	37.45
449.54	21.06
449.73	30.43
449.91	60.85
450.10	63.19
450.28	0.00
450.46	58.51
450.65	18.72
450.83	14.04
451.02	32.77
451.20	58.51
451.39	2.34
451.57	0.00
451.76	23.41
451.94	124.05
452.13	63.19
452.31	30.43
452.49	2.34
452.68	16.38
452.86	60.85
453.05	25.75
453.23	0.00
453.42	0.00
453.60	9.36
453.78	23.41
453.97	30.43
454.15	51.49
454.34	0.00
454.52	18.72
454.70	42.13
454.89	56.17
455.07	4.68
455.26	7.02
455.44	0.00
455.62	4.68
455.81	42.13
455.99	51.49
456.17	14.04
456.36	65.54
456.54	63.19
456.73	0.00
456.91	14.04
457.09	44.47
457.28	72.56
457.46	18.72
457.64	7.02
457.83	0.00
458.01	0.00
458.19	0.00
458.38	14.04
458.56	0.00
458.74	16.38
458.93	14.04
459.11	18.72
459.29	58.51
459.48	39.79
459.66	0.00
459.84	0.00
460.03	0.00
460.21	51.49
460.39	14.04
460.57	51.49
460.76	30.43
460.94	53.83
461.12	9.36
461.31	0.00
461.49	107.66
461.67	0.00
461.85	74.90
462.04	32.77
462.22	67.88
462.40	7.02
462.59	0.00
462.77	0.00
462.95	63.19
463.13	30.43
463.32	39.79
463.50	11.70
463.68	56.17
463.86	46.81
464.05	126.39
464.23	77.24
464.41	23.41
464.59	58.51
464.78	0.00
464.96	58.51
465.14	0.00
465.32	56.17
465.50	56.17
465.69	39.79
465.87	2.34
466.05	9.36
466.23	11.70
466.41	14.04
466.60	86.60
466.78	58.51
466.96	28.09
467.14	91.28
467.32	58.51
467.51	84.26
467.69	18.72
467.87	11.70
468.05	7.02
468.23	11.70
468.41	81.92
468.60	16.38
468.78	70.22
468.96	46.81
469.14	0.00
469.32	0.00
469.50	18.72
469.69	21.06
469.87	72.56
470.05	35.11
470.23	32.77
470.41	0.00
470.59	0.00
470.77	23.41
470.95	77.24
471.14	0.00
471.32	42.13
471.50	11.70
471.68	67.88
471.86	16.38
472.04	18.72
472.22	21.06
472.40	4.68
472.58	42.13
472.77	91.28
472.95	63.19
473.13	39.79
473.31	0.00
473.49	81.92
473.67	0.00
473.85	37.45
474.03	4.68
474.21	79.58
474.39	110.01
474.57	65.54
474.75	37.45
474.93	58.51
475.12	37.45
475.30	42.13
475.48	63.19
475.66	39.79
475.84	0.00
476.02	65.54
476.20	67.88
476.38	79.58
476.56	72.56
476.74	4.68
476.92	0.00
477.10	9.36
477.28	35.11
477.46	2.34
477.64	86.60
477.82	42.13
478.00	25.75
478.18	0.00
478.36	14.04
478.54	25.75
478.72	32.77
478.90	7.02
479.08	70.22
479.26	35.11
479.44	49.15
479.62	49.15
479.80	0.00
479.98	23.41
480.16	0.00
480.34	56.17
480.52	77.24
480.70	51.49
480.88	16.38
481.06	37.45
481.24	53.83
481.41	37.45
481.59	63.19
481.77	72.56
481.95	65.54
482.13	0.00
482.31	4.68
482.49	81.92
482.67	46.81
482.85	84.26
483.03	28.09
483.21	44.47
483.39	0.00
483.57	56.17
483.74	0.00
483.92	0.00
484.10	23.41
484.28	0.00
484.46	74.90
484.64	44.47
484.82	56.17
485.00	0.00
485.18	81.92
485.35	56.17
485.53	39.79
485.71	7.02
485.89	14.04
486.07	42.13
486.25	46.81
486.43	23.41
486.61	35.11
486.78	23.41
486.96	65.54
487.14	42.13
487.32	56.17
487.50	63.19
487.68	23.41
487.85	44.47
488.03	81.92
488.21	9.36
488.39	28.09
488.57	42.13
488.75	77.24
488.92	0.00
489.10	124.05
489.28	49.15
489.46	65.54
489.64	93.62
489.81	131.07
489.99	18.72
490.17	67.88
490.35	23.41
490.53	84.26
490.70	28.09
490.88	98.30
491.06	46.81
491.24	32.77
491.41	37.45
491.59	42.13
491.77	56.17
491.95	77.24
492.13	105.32
492.30	0.00
492.48	74.90
492.66	11.70
492.84	32.77
493.01	46.81
493.19	121.71
493.37	98.30
493.54	0.00
493.72	0.00
493.90	0.00
494.08	0.00
494.25	46.81
494.43	37.45
494.61	25.75
494.79	32.77
494.96	63.19
495.14	23.41
495.32	46.81
495.49	9.36
495.67	56.17
495.85	35.11
496.02	44.47
496.20	35.11
496.38	0.00
496.55	32.77
496.73	14.04
496.91	14.04
497.09	0.00
497.26	39.79
497.44	93.62
497.62	46.81
497.79	0.00
497.97	25.75
498.14	9.36
498.32	0.00
498.50	0.00
498.67	0.00
498.85	23.41
499.03	28.09
499.20	60.85
499.38	9.36
499.56	9.36
499.73	42.13
499.91	44.47
500.08	0.00
500.26	0.00
500.44	7.02
500.61	14.04
500.79	0.00
500.97	14.04
501.14	46.81
501.32	70.22
501.49	0.00
501.67	105.32
501.84	79.58
502.02	0.00
502.20	9.36
502.37	32.77
502.55	0.00
502.72	49.15
502.90	117.03
503.07	131.07
503.25	131.07
503.43	28.09
503.60	0.00
503.78	79.58
503.95	23.41
504.13	37.45
504.30	131.07
504.48	28.09
504.65	18.72
504.83	58.51
505.01	42.13
505.18	105.32
505.36	81.92
505.53	100.64
505.71	67.88
505.88	114.69
506.06	0.00
506.23	25.75
506.41	18.72
506.58	79.58
506.76	37.45
506.93	46.81
507.11	16.38
507.28	14.04
507.46	14.04
507.63	56.17
507.81	39.79
507.98	0.00
508.16	23.41
508.33	0.00
508.50	0.00
508.68	0.00
508.85	23.41
509.03	4.68
509.20	51.49
509.38	9.36
509.55	81.92
509.73	0.00
509.90	79.58
510.08	49.15
510.25	67.88
510.42	32.77
510.60	84.26
510.77	30.43
510.95	58.51
511.12	53.83
511.30	14.04
511.47	95.96
511.64	9.36
511.82	0.00
511.99	49.15
512.17	32.77
512.34	0.00
512.51	42.13
512.69	67.88
512.86	42.13
513.04	18.72
513.21	149.79
513.38	32.77
513.56	56.17
513.73	77.24
513.90	88.94
514.08	18.72
514.25	49.15
514.43	42.13
514.60	67.88
514.77	42.13
514.95	0.00
515.12	7.02
515.29	65.54
515.47	95.96
515.64	0.00
515.81	0.00
515.99	14.04
516.16	14.04
516.33	2.34
516.51	65.54
516.68	67.88
516.85	124.05
517.03	42.13
517.20	30.43
517.37	65.54
517.54	23.41
517.72	0.00
517.89	0.00
518.06	95.96
518.24	44.47
518.41	37.45
518.58	28.09
518.75	0.00
518.93	100.64
519.10	51.49
519.27	58.51
519.45	70.22
519.62	46.81
519.79	42.13
519.96	39.79
520.14	60.85
520.31	84.26
520.48	42.13
520.65	0.00
520.83	95.96
521.00	58.51
521.17	51.49
521.34	0.00
521.52	11.70
521.69	28.09
521.86	0.00
522.03	28.09
522.20	32.77
522.38	37.45
522.55	0.00
522.72	35.11
522.89	49.15
523.07	65.54
523.24	49.15
523.41	93.62
523.58	42.13
523.75	60.85
523.92	74.90
524.10	77.24
524.27	51.49
524.44	117.03
524.61	72.56
524.78	70.22
524.96	86.60
525.13	93.62
525.30	7.02
525.47	72.56
525.64	102.98
525.81	0.00
525.98	0.00
526.16	21.06
526.33	39.79
526.50	65.54
526.67	60.85
526.84	0.00
527.01	2.34
527.18	51.49
527.36	11.70
527.53	51.49
527.70	98.30
527.87	18.72
528.04	88.94
528.21	23.41
528.38	42.13
528.55	49.15
528.72	0.00
528.89	60.85
529.07	39.79
529.24	42.13
529.41	9.36
529.58	21.06
529.75	37.45
529.92	30.43
530.09	0.00
530.26	63.19
530.43	11.70
530.60	35.11
530.77	0.00
530.94	72.56
531.11	53.83
531.28	117.03
531.46	42.13
531.63	49.15
531.80	42.13
531.97	98.30
532.14	0.00
532.31	35.11
532.48	88.94
532.65	70.22
532.82	119.37
532.99	81.92
533.16	23.41
533.33	23.41
533.50	46.81
533.67	16.38
533.84	67.88
534.01	32.77
534.18	0.00
534.35	30.43
534.52	70.22
534.69	28.09
534.86	67.88
535.03	14.04
535.20	91.28
535.37	11.70
535.54	60.85
535.71	37.45
535.88	95.96
536.05	51.49
536.22	39.79
536.38	21.06
536.55	25.75
536.72	0.00
536.89	58.51
537.06	0.00
537.23	77.24
537.40	30.43
537.57	11.70
537.74	39.79
537.91	16.38
538.08	0.00
538.25	56.17
538.42	37.45
538.59	2.34
538.75	0.00
538.92	0.00
539.09	30.43
539.26	14.04
539.43	0.00
539.60	28.09
539.77	102.98
539.94	53.83
540.11	81.92
540.28	32.77
540.44	46.81
540.61	0.00
540.78	0.00
540.95	0.00
541.12	30.43
541.29	32.77
541.46	63.19
541.62	25.75
541.79	14.04
541.96	98.30
542.13	81.92
542.30	16.38
542.47	32.77
542.63	84.26
542.80	93.62
542.97	7.02
543.14	0.00
543.31	0.00
543.48	0.00
543.64	81.92
543.81	0.00
543.98	0.00
544.15	42.13
544.32	30.43
544.48	39.79
544.65	4.68
544.82	49.15
544.99	23.41
545.16	79.58
545.32	46.81
545.49	91.28
545.66	63.19
545.83	81.92
546.00	63.19
546.16	49.15
546.33	44.47
546.50	11.70
546.67	91.28
546.83	0.00
547.00	0.00
547.17	0.00
547.34	35.11
547.50	70.22
547.67	2.34
547.84	0.00
548.00	35.11
548.17	30.43
548.34	0.00
548.51	14.04
548.67	81.92
548.84	0.00
549.01	93.62
549.18	58.51
549.34	0.00
549.51	46.81
549.68	74.90
549.84	28.09
550.01	0.00
550.18	25.75
550.34	56.17
550.51	72.56
550.68	56.17
550.84	74.90
551.01	0.00
551.18	35.11
551.34	0.00
551.51	0.00
551.68	79.58
551.84	67.88
552.01	14.04
552.18	16.38
552.34	58.51
552.51	53.83
552.68	77.24
552.84	0.00
553.01	35.11
553.18	79.58
553.34	102.98
553.51	79.58
553.67	0.00
553.84	42.13
554.01	21.06
554.17	70.22
554.34	46.81
554.51	37.45
554.67	49.15
554.84	70.22
555.00	14.04
555.17	53.83
555.33	60.85
555.50	39.79
555.67	16.38
555.83	0.00
556.00	18.72
556.16	128.73
556.33	7.02
556.50	98.30
556.66	0.00
556.83	74.90
556.99	35.11
557.16	98.30
557.32	51.49
557.49	21.06
557.65	58.51
557.82	44.47
557.98	95.96
558.15	63.19
558.32	23.41
558.48	9.36
558.65	60.85
558.81	11.70
558.98	0.00
559.14	16.38
559.31	0.00
559.47	0.00
559.64	51.49
559.80	4.68
559.97	91.28
560.13	93.62
560.30	11.70
560.46	0.00
560.63	46.81
560.79	65.54
560.96	0.00
561.12	0.00
561.29	56.17
561.45	79.58
561.61	16.38
561.78	77.24
561.94	49.15
562.11	119.37
562.27	65.54
562.44	18.72
562.60	0.00
562.77	58.51
562.93	56.17
563.10	39.79
563.26	74.90
563.42	56.17
563.59	53.83
563.75	46.81
563.92	11.70
564.08	11.70
564.24	23.41
564.41	30.43
564.57	7.02
564.74	37.45
564.90	25.75
565.07	35.11
565.23	0.00
565.39	79.58
565.56	39.79
565.72	56.17
565.88	32.77
566.05	16.38
566.21	60.85
566.38	30.43
566.54	49.15
566.70	56.17
566.87	60.85
567.03	58.51
567.19	91.28
567.36	0.00
567.52	16.38
567.68	37.45
567.85	60.85
568.01	44.47
568.17	0.00
568.34	60.85
568.50	9.36
568.66	0.00
568.83	30.43
568.99	39.79
569.15	16.38
569.32	74.90
569.48	72.56
569.64	46.81
569.81	21.06
569.97	0.00
570.13	49.15
570.30	49.15
570.46	14.04
570.62	32.77
570.78	14.04
570.95	0.00
571.11	16.38
571.27	28.09
571.43	28.09
571.60	0.00
571.76	16.38
571.92	9.36
572.09	35.11
572.25	9.36
572.41	51.49
572.57	58.51
572.74	32.77
572.90	46.81
573.06	88.94
573.22	49.15
573.38	9.36
573.55	37.45
573.71	35.11
573.87	88.94
574.03	7.02
574.20	0.00
574.36	72.56
574.52	23.41
574.68	112.35
574.84	39.79
575.01	37.45
575.17	18.72
575.33	91.28
575.49	30.43
575.65	133.41
575.82	93.62
575.98	14.04
576.14	98.30
576.30	2.34
576.46	42.13
576.62	21.06
576.79	2.34
576.95	58.51
577.11	58.51
577.27	65.54
577.43	9.36
577.59	16.38
577.75	72.56
577.92	138.09
578.08	110.01
578.24	56.17
578.40	0.00
578.56	2.34
578.72	0.00
578.88	39.79
579.04	112.35
579.21	11.70
579.37	152.13
579.53	100.64
579.69	105.32
579.85	39.79
580.01	18.72
580.17	102.98
580.33	32.77
580.49	0.00
580.65	70.22
580.82	16.38
580.98	23.41
581.14	53.83
581.30	0.00
581.46	0.00
581.62	63.19
581.78	30.43
581.94	49.15
582.10	0.00
582.26	30.43
582.42	21.06
582.58	0.00
582.74	102.98
582.90	9.36
583.06	23.41
583.22	35.11
583.38	28.09
583.54	28.09
583.70	0.00
583.86	88.94
584.02	4.68
584.18	81.92
584.34	18.72
584.50	65.54
584.66	163.84
584.82	433.00
584.98	683.44
585.14	610.88
585.30	400.23
585.46	278.52
585.62	100.64
585.78	107.66
585.94	70.22
586.10	0.00
586.26	30.43
586.42	60.85
586.58	58.51
586.74	86.60
586.90	7.02
587.06	60.85
587.22	49.15
587.38	53.83
587.54	51.49
587.70	56.17
587.86	102.98
588.02	56.17
588.18	91.28
588.34	49.15
588.49	0.00
588.65	32.77
588.81	49.15
588.97	58.51
589.13	2.34
589.29	11.70
589.45	35.11
589.61	18.72
589.77	25.75
589.93	46.81
590.08	110.01
590.24	35.11
590.40	37.45
590.56	25.75
590.72	53.83
590.88	77.24
591.04	11.70
591.20	28.09
591.35	0.00
591.51	23.41
591.67	51.49
591.83	51.49
591.99	16.38
592.15	44.47
592.31	30.43
592.46	11.70
592.62	88.94
592.78	51.49
592.94	0.00
593.10	51.49
593.26	37.45
593.41	58.51
593.57	56.17
593.73	91.28
593.89	46.81
594.05	51.49
594.20	133.41
594.36	91.28
594.52	86.60
594.68	110.01
594.84	72.56
594.99	126.39
595.15	72.56
595.31	67.88
595.47	65.54
595.62	49.15
595.78	0.00
595.94	4.68
596.10	9.36
596.25	0.00
596.41	0.00
596.57	44.47
596.73	0.00
596.88	0.00
597.04	53.83
597.20	9.36
597.36	42.13
597.51	42.13
597.67	18.72
597.83	0.00
597.99	77.24
598.14	46.81
598.30	98.30
598.46	30.43
598.61	0.00
598.77	91.28
598.93	11.70
599.09	86.60
599.24	119.37
599.40	74.90
599.56	93.62
599.71	0.00
599.87	0.00
600.03	0.00
600.18	0.00
600.34	32.77
600.50	88.94
600.65	79.58
600.81	35.11
600.97	0.00
601.12	0.00
601.28	95.96
601.44	0.00
601.59	65.54
601.75	0.00
601.91	21.06
602.06	88.94
602.22	11.70
602.37	0.00
602.53	39.79
602.69	0.00
602.84	39.79
603.00	77.24
603.16	14.04
603.31	14.04
603.47	9.36
603.62	0.00
603.78	0.00
603.94	72.56
604.09	95.96
604.25	9.36
604.40	56.17
604.56	2.34
604.71	14.04
604.87	44.47
605.03	23.41
605.18	32.77
605.34	74.90
605.49	0.00
605.65	117.03
605.80	21.06
605.96	18.72
606.12	77.24
606.27	93.62
606.43	51.49
606.58	0.00
606.74	16.38
606.89	56.17
607.05	126.39
607.20	126.39
607.36	11.70
607.51	0.00
607.67	51.49
607.82	49.15
607.98	46.81
608.13	72.56
608.29	21.06
608.44	42.13
608.60	44.47
608.75	39.79
608.91	14.04
609.06	63.19
609.22	152.13
609.37	135.75
609.53	119.37
609.68	74.90
609.84	72.56
609.99	0.00
610.15	35.11
610.30	70.22
610.46	18.72
610.61	74.90
610.76	93.62
610.92	44.47
611.07	0.00
611.23	21.06
611.38	0.00
611.54	51.49
611.69	53.83
611.84	72.56
612.00	23.41
612.15	18.72
612.31	56.17
612.46	91.28
612.62	46.81
612.77	46.81
612.92	14.04
613.08	0.00
613.23	42.13
613.39	18.72
613.54	0.00
613.69	77.24
613.85	105.32
614.00	184.90
614.15	285.55
614.31	175.54
614.46	95.96
614.62	121.71
614.77	0.00
614.92	46.81
615.08	105.32
615.23	16.38
615.38	25.75
615.54	56.17
615.69	32.77
615.84	46.81
616.00	79.58
616.15	138.09
616.30	93.62
616.46	107.66
616.61	154.48
616.76	72.56
616.92	74.90
617.07	0.00
617.22	21.06
617.37	25.75
617.53	0.00
617.68	42.13
617.83	35.11
617.99	51.49
618.14	39.79
618.29	81.92
618.45	35.11
618.60	93.62
618.75	60.85
618.90	32.77
619.06	16.38
619.21	28.09
619.36	56.17
619.51	42.13
619.67	51.49
619.82	35.11
619.97	53.83
620.12	72.56
620.28	63.19
620.43	72.56
620.58	37.45
620.73	81.92
620.89	117.03
621.04	63.19
621.19	37.45
621.34	32.77
621.49	39.79
621.65	124.05
621.80	81.92
621.95	60.85
622.10	56.17
622.25	142.77
622.41	37.45
622.56	9.36
622.71	72.56
622.86	25.75
623.01	0.00
623.16	23.41
623.32	0.00
623.47	30.43
623.62	21.06
623.77	14.04
623.92	0.00
624.07	46.81
624.23	32.77
624.38	44.47
624.53	0.00
624.68	4.68
624.83	72.56
624.98	42.13
625.13	0.00
625.29	65.54
625.44	58.51
625.59	2.34
625.74	16.38
625.89	25.75
626.04	110.01
626.19	70.22
626.34	58.51
626.49	124.05
626.65	65.54
626.80	39.79
626.95	21.06
627.10	56.17
627.25	0.00
627.40	0.00
627.55	51.49
627.70	72.56
627.85	32.77
628.00	39.79
628.15	11.70
628.30	0.00
628.45	2.34
628.60	28.09
628.76	28.09
628.91	0.00
629.06	0.00
629.21	44.47
629.36	16.38
629.51	37.45
629.66	51.49
629.81	42.13
629.96	7.02
630.11	70.22
630.26	49.15
630.41	63.19
630.56	93.62
630.71	56.17
630.86	49.15
631.01	35.11
631.16	72.56
631.31	88.94
631.46	16.38
631.61	44.47
631.76	14.04
631.91	46.81
632.06	58.51
632.21	39.79
632.36	42.13
632.51	70.22
632.66	102.98
632.81	74.90
632.96	107.66
633.10	138.09
633.25	58.51
633.40	35.11
633.55	79.58
633.70	0.00
633.85	42.13
634.00	28.09
634.15	30.43
634.30	56.17
634.45	0.00
634.60	0.00
634.75	11.70
634.90	56.17
635.05	9.36
635.19	0.00
635.34	110.01
635.49	100.64
635.64	49.15
635.79	81.92
635.94	42.13
636.09	30.43
636.24	56.17
636.39	105.32
636.53	98.30
636.68	9.36
636.83	35.11
636.98	79.58
637.13	77.24
637.28	25.75
637.43	25.75
637.57	0.00
637.72	70.22
637.87	121.71
638.02	149.79
638.17	121.71
638.32	11.70
638.46	114.69
638.61	86.60
638.76	60.85
638.91	67.88
639.06	112.35
639.20	0.00
639.35	4.68
639.50	46.81
639.65	79.58
639.80	168.52
639.94	187.24
640.09	154.48
640.24	222.35
640.39	161.50
640.54	112.35
640.68	65.54
640.83	2.34
640.98	46.81
641.13	7.02
641.27	0.00
641.42	46.81
641.57	35.11
641.72	77.24
641.86	88.94
642.01	44.47
642.16	37.45
642.31	11.70
642.45	46.81
642.60	0.00
642.75	35.11
642.90	70.22
643.04	30.43
643.19	7.02
643.34	44.47
643.48	58.51
643.63	11.70
643.78	72.56
643.93	65.54
644.07	16.38
644.22	67.88
644.37	84.26
644.51	51.49
644.66	56.17
644.81	0.00
644.95	28.09
645.10	0.00
645.25	77.24
645.39	77.24
645.54	77.24
645.69	0.00
645.83	32.77
645.98	4.68
646.13	74.90
646.27	60.85
646.42	84.26
646.57	98.30
646.71	131.07
646.86	0.00
647.00	28.09
647.15	21.06
647.30	49.15
647.44	11.70
647.59	42.13
647.74	39.79
647.88	16.38
648.03	0.00
648.17	23.41
648.32	18.72
648.47	0.00
648.61	16.38
648.76	0.00
648.90	28.09
649.05	35.11
649.20	65.54
649.34	25.75
649.49	58.51
649.63	60.85
649.78	7.02
649.92	0.00
650.07	0.00
650.21	65.54
650.36	72.56
650.51	121.71
650.65	128.73
650.80	110.01
650.94	70.22
651.09	32.77
651.23	0.00
651.38	35.11
651.52	60.85
651.67	0.00
651.81	42.13
651.96	67.88
652.10	84.26
652.25	72.56
652.39	23.41
652.54	86.60
652.68	39.79
652.83	21.06
652.97	114.69
653.12	58.51
653.26	72.56
653.41	88.94
653.55	0.00
653.70	67.88
653.84	23.41
653.99	46.81
654.13	14.04
654.27	0.00
654.42	0.00
654.56	77.24
654.71	0.00
654.85	44.47
655.00	74.90
655.14	37.45
655.29	72.56
655.43	0.00
655.57	23.41
655.72	88.94
655.86	53.83
656.01	0.00
656.15	0.00
656.30	9.36
656.44	70.22
656.58	9.36
656.73	44.47
656.87	11.70
657.01	16.38
657.16	14.04
657.30	0.00
657.45	21.06
657.59	86.60
657.73	56.17
657.88	0.00
658.02	53.83
658.16	23.41
658.31	74.90
658.45	63.19
658.60	0.00
658.74	32.77
658.88	39.79
659.03	49.15
659.17	32.77
659.31	23.41
659.46	0.00
659.60	81.92
659.74	117.03
659.89	77.24
660.03	74.90
660.17	79.58
660.32	77.24
660.46	98.30
660.60	0.00
660.74	0.00
660.89	60.85
661.03	0.00
661.17	49.15
661.32	7.02
661.46	107.66
661.60	0.00
661.74	23.41
661.89	23.41
662.03	0.00
662.17	60.85
662.31	46.81
662.46	46.81
662.60	0.00
662.74	0.00
662.88	4.68
663.03	0.00
663.17	46.81
663.31	18.72
663.45	0.00
663.60	30.43
663.74	51.49
663.88	42.13
664.02	63.19
664.17	0.00
664.31	11.70
664.45	28.09
664.59	2.34
664.73	49.15
664.88	2.34
665.02	88.94
665.16	9.36
665.30	53.83
665.44	0.00
665.59	14.04
665.73	60.85
665.87	79.58
666.01	74.90
666.15	44.47
666.29	0.00
666.44	30.43
666.58	37.45
666.72	7.02
666.86	95.96
667.00	42.13
667.14	2.34
667.28	39.79
667.43	0.00
667.57	88.94
667.71	100.64
667.85	67.88
667.99	49.15
668.13	11.70
668.27	72.56
668.41	9.36
668.56	53.83
668.70	30.43
668.84	102.98
668.98	70.22
669.12	32.77
669.26	39.79
669.40	74.90
669.54	2.34
669.68	0.00
669.82	37.45
669.96	60.85
670.10	42.13
670.25	46.81
670.39	70.22
670.53	79.58
670.67	0.00
670.81	0.00
670.95	16.38
671.09	9.36
671.23	56.17
671.37	46.81
671.51	91.28
671.65	93.62
671.79	77.24
671.93	88.94
672.07	67.88
672.21	84.26
672.35	98.30
672.49	35.11
672.63	0.00
672.77	28.09
672.91	46.81
673.05	72.56
673.19	42.13
673.33	4.68
673.47	0.00
673.61	42.13
673.75	11.70
673.89	2.34
674.03	39.79
674.17	63.19
674.31	65.54
674.45	44.47
674.59	44.47
674.73	0.00
674.87	39.79
675.01	0.00
675.15	49.15
675.29	72.56
675.43	0.00
675.56	63.19
675.70	2.34
675.84	14.04
675.98	7.02
676.12	37.45
676.26	14.04
676.40	2.34
676.54	49.15
676.68	9.36
676.82	60.85
676.96	44.47
677.10	65.54
677.23	0.00
677.37	60.85
677.51	30.43
677.65	77.24
677.79	25.75
677.93	74.90
678.07	4.68
678.21	2.34
678.34	58.51
678.48	11.70
678.62	100.64
678.76	39.79
678.90	35.11
679.04	77.24
679.18	110.01
679.31	0.00
679.45	14.04
679.59	74.90
679.73	2.34
679.87	67.88
680.00	0.00
680.14	37.45
680.28	88.94
680.42	46.81
680.56	93.62
680.70	56.17
680.83	39.79
680.97	53.83
681.11	0.00
681.25	63.19
681.39	77.24
681.52	98.30
681.66	49.15
681.80	79.58
681.94	56.17
682.07	51.49
682.21	98.30
682.35	114.69
682.49	11.70
682.62	95.96
682.76	28.09
682.90	44.47
683.04	81.92
683.17	60.85
683.31	23.41
683.45	65.54
683.59	0.00
683.72	86.60
683.86	60.85
684.00	37.45
684.13	37.45
684.27	67.88
684.41	39.79
684.55	30.43
684.68	23.41
684.82	53.83
684.96	100.64
685.09	51.49
685.23	28.09
685.37	35.11
685.50	98.30
685.64	0.00
685.78	18.72
685.91	4.68
686.05	81.92
686.19	98.30
686.32	100.64
686.46	121.71
686.60	44.47
686.73	56.17
686.87	79.58
687.01	42.13
687.14	65.54
687.28	0.00
687.42	95.96
687.55	39.79
687.69	7.02
687.82	0.00
687.96	51.49
688.10	32.77
688.23	0.00
688.37	56.17
688.50	58.51
688.64	9.36
688.78	0.00
688.91	0.00
689.05	37.45
689.18	60.85
689.32	60.85
689.46	49.15
689.59	0.00
689.73	81.92
689.86	0.00
690.00	0.00
690.13	14.04
690.27	7.02
690.41	0.00
690.54	35.11
690.68	14.04
690.81	18.72
690.95	56.17
691.08	23.41
691.22	25.75
691.35	86.60
691.49	46.81
691.62	46.81
691.76	49.15
691.89	16.38
692.03	42.13
692.16	0.00
692.30	63.19
692.43	44.47
692.57	81.92
692.70	88.94
692.84	84.26
692.97	65.54
693.11	28.09
693.24	37.45
693.38	25.75
693.51	4.68
693.65	63.19
693.78	11.70
693.92	25.75
694.05	44.47
694.19	42.13
694.32	0.00
694.45	102.98
694.59	84.26
694.72	56.17
694.86	44.47
694.99	0.00
695.13	28.09
695.26	0.00
695.39	30.43
695.53	0.00
695.66	0.00
695.80	4.68
695.93	0.00
696.07	0.00
696.20	0.00
696.33	11.70
696.47	60.85
696.60	23.41
696.73	28.09
696.87	23.41
697.00	72.56
697.14	23.41
697.27	0.00
697.40	21.06
697.54	18.72
697.67	0.00
697.80	0.00
697.94	46.81
698.07	18.72
698.21	0.00
698.34	9.36
698.47	35.11
698.61	28.09
698.74	49.15
698.87	70.22
699.01	28.09
699.14	9.36
699.27	0.00
699.40	9.36
699.54	7.02
699.67	51.49
699.80	18.72
699.94	35.11
700.07	14.04
700.20	25.75
700.34	65.54
700.47	30.43
700.60	4.68
700.73	23.41
700.87	105.32
701.00	112.35
701.13	32.77
701.26	0.00
701.40	0.00
701.53	53.83
701.66	32.77
701.79	39.79
701.93	42.13
702.06	49.15
702.19	14.04
702.32	81.92
702.46	56.17
702.59	53.83
702.72	35.11
702.85	53.83
702.99	49.15
703.12	112.35
703.25	77.24
703.38	88.94
703.51	0.00
703.65	102.98
703.78	86.60
703.91	84.26
704.04	37.45
704.17	67.88
704.31	37.45
704.44	42.13
704.57	42.13
704.70	0.00
704.83	84.26
704.96	67.88
705.10	46.81
705.23	0.00
>>>>>End Processed Spectral Data<<<<<
