SpectraSuite Data File
++++++++++++++++++++++++++++++++++++
Date: Fri Oct 04 12:13:29 GMT-05:00 2013
User: price-jones
Dark Spectrum Present: No
Reference Spectrum Present: No
Number of Sampled Component Spectra: 1
Spectrometers: USB2+H05261
Integration Time (usec): 10000 (USB2+H05261)
Spectra Averaged: 1 (USB2+H05261)
Boxcar Smoothing: 0 (USB2+H05261)
Correct for Electrical Dark: No (USB2+H05261)
Strobe/Lamp Enabled: No (USB2+H05261)
Correct for Detector Non-linearity: No (USB2+H05261)
Correct for Stray Light: No (USB2+H05261)
Number of Pixels in Processed Spectrum: 2048
>>>>>Begin Processed Spectral Data<<<<<
365.73	0.00
365.92	0.00
366.12	0.00
366.32	0.00
366.52	0.00
366.72	0.00
366.91	0.00
367.11	0.00
367.31	0.00
367.51	0.00
367.70	0.00
367.90	0.00
368.10	0.00
368.30	0.00
368.49	0.00
368.69	0.00
368.89	0.00
369.09	0.00
369.28	0.00
369.48	0.00
369.68	0.00
369.87	0.00
370.07	0.00
370.27	0.00
370.47	0.00
370.66	0.00
370.86	0.00
371.06	0.00
371.25	0.00
371.45	0.00
371.65	0.00
371.84	0.00
372.04	0.00
372.24	0.00
372.44	0.00
372.63	2.34
372.83	16.38
373.03	35.11
373.22	0.00
373.42	0.00
373.62	28.09
373.81	0.00
374.01	142.77
374.21	0.00
374.40	16.38
374.60	46.81
374.79	30.43
374.99	9.36
375.19	67.88
375.38	23.41
375.58	58.51
375.78	37.45
375.97	39.79
376.17	23.41
376.37	0.00
376.56	11.70
376.76	0.00
376.95	0.00
377.15	86.60
377.35	28.09
377.54	30.43
377.74	0.00
377.93	21.06
378.13	35.11
378.33	0.00
378.52	0.00
378.72	65.54
378.91	11.70
379.11	0.00
379.31	35.11
379.50	51.49
379.70	14.04
379.89	0.00
380.09	0.00
380.28	23.41
380.48	25.75
380.68	0.00
380.87	16.38
381.07	0.00
381.26	9.36
381.46	9.36
381.65	18.72
381.85	0.00
382.04	2.34
382.24	88.94
382.43	56.17
382.63	28.09
382.83	30.43
383.02	49.15
383.22	0.00
383.41	4.68
383.61	0.00
383.80	60.85
384.00	30.43
384.19	35.11
384.39	14.04
384.58	51.49
384.78	0.00
384.97	0.00
385.17	30.43
385.36	79.58
385.56	23.41
385.75	28.09
385.95	0.00
386.14	0.00
386.34	4.68
386.53	0.00
386.72	0.00
386.92	0.00
387.11	0.00
387.31	4.68
387.50	11.70
387.70	56.17
387.89	0.00
388.09	0.00
388.28	65.54
388.48	28.09
388.67	35.11
388.86	39.79
389.06	9.36
389.25	25.75
389.45	0.00
389.64	23.41
389.84	0.00
390.03	9.36
390.22	0.00
390.42	0.00
390.61	46.81
390.81	0.00
391.00	0.00
391.19	2.34
391.39	25.75
391.58	0.00
391.78	63.19
391.97	86.60
392.16	42.13
392.36	60.85
392.55	95.96
392.75	81.92
392.94	14.04
393.13	51.49
393.33	0.00
393.52	4.68
393.71	4.68
393.91	0.00
394.10	23.41
394.29	7.02
394.49	42.13
394.68	0.00
394.88	49.15
395.07	0.00
395.26	0.00
395.46	28.09
395.65	49.15
395.84	46.81
396.04	7.02
396.23	65.54
396.42	0.00
396.62	44.47
396.81	18.72
397.00	0.00
397.19	44.47
397.39	0.00
397.58	53.83
397.77	0.00
397.97	0.00
398.16	18.72
398.35	51.49
398.55	0.00
398.74	0.00
398.93	0.00
399.12	42.13
399.32	0.00
399.51	0.00
399.70	14.04
399.90	0.00
400.09	9.36
400.28	0.00
400.47	58.51
400.67	2.34
400.86	0.00
401.05	0.00
401.24	84.26
401.44	117.03
401.63	9.36
401.82	58.51
402.01	0.00
402.21	46.81
402.40	0.00
402.59	0.00
402.78	0.00
402.97	0.00
403.17	11.70
403.36	58.51
403.55	4.68
403.74	7.02
403.93	65.54
404.13	21.06
404.32	0.00
404.51	7.02
404.70	51.49
404.89	0.00
405.09	88.94
405.28	53.83
405.47	2.34
405.66	42.13
405.85	32.77
406.05	23.41
406.24	21.06
406.43	18.72
406.62	0.00
406.81	58.51
407.00	0.00
407.20	25.75
407.39	72.56
407.58	63.19
407.77	23.41
407.96	51.49
408.15	11.70
408.34	25.75
408.54	63.19
408.73	32.77
408.92	0.00
409.11	98.30
409.30	0.00
409.49	23.41
409.68	35.11
409.87	23.41
410.07	11.70
410.26	0.00
410.45	44.47
410.64	37.45
410.83	65.54
411.02	16.38
411.21	0.00
411.40	4.68
411.59	9.36
411.78	35.11
411.98	0.00
412.17	42.13
412.36	86.60
412.55	74.90
412.74	79.58
412.93	56.17
413.12	28.09
413.31	67.88
413.50	0.00
413.69	32.77
413.88	56.17
414.07	46.81
414.26	79.58
414.45	119.37
414.64	60.85
414.83	42.13
415.02	21.06
415.22	58.51
415.41	107.66
415.60	25.75
415.79	37.45
415.98	21.06
416.17	105.32
416.36	63.19
416.55	25.75
416.74	39.79
416.93	81.92
417.12	124.05
417.31	16.38
417.50	14.04
417.69	91.28
417.88	18.72
418.07	86.60
418.26	84.26
418.45	35.11
418.64	58.51
418.83	100.64
419.02	53.83
419.21	44.47
419.39	91.28
419.58	0.00
419.77	39.79
419.96	0.00
420.15	0.00
420.34	21.06
420.53	30.43
420.72	44.47
420.91	0.00
421.10	0.00
421.29	0.00
421.48	23.41
421.67	49.15
421.86	18.72
422.05	0.00
422.24	14.04
422.43	63.19
422.61	63.19
422.80	60.85
422.99	0.00
423.18	0.00
423.37	28.09
423.56	37.45
423.75	49.15
423.94	23.41
424.13	110.01
424.32	28.09
424.50	0.00
424.69	51.49
424.88	46.81
425.07	2.34
425.26	21.06
425.45	51.49
425.64	0.00
425.83	44.47
426.01	0.00
426.20	39.79
426.39	60.85
426.58	0.00
426.77	32.77
426.96	0.00
427.15	28.09
427.33	0.00
427.52	39.79
427.71	16.38
427.90	23.41
428.09	46.81
428.28	32.77
428.46	0.00
428.65	60.85
428.84	105.32
429.03	49.15
429.22	16.38
429.40	44.47
429.59	0.00
429.78	53.83
429.97	42.13
430.16	4.68
430.34	0.00
430.53	60.85
430.72	37.45
430.91	0.00
431.10	7.02
431.28	21.06
431.47	53.83
431.66	0.00
431.85	0.00
432.03	65.54
432.22	35.11
432.41	88.94
432.60	16.38
432.79	67.88
432.97	74.90
433.16	7.02
433.35	70.22
433.54	23.41
433.72	37.45
433.91	7.02
434.10	74.90
434.28	74.90
434.47	14.04
434.66	2.34
434.85	0.00
435.03	0.00
435.22	49.15
435.41	46.81
435.59	0.00
435.78	0.00
435.97	2.34
436.16	74.90
436.34	32.77
436.53	14.04
436.72	16.38
436.90	49.15
437.09	16.38
437.28	51.49
437.46	35.11
437.65	44.47
437.84	84.26
438.02	0.00
438.21	93.62
438.40	7.02
438.58	30.43
438.77	2.34
438.96	0.00
439.14	51.49
439.33	39.79
439.52	79.58
439.70	30.43
439.89	60.85
440.08	4.68
440.26	21.06
440.45	30.43
440.63	7.02
440.82	53.83
441.01	95.96
441.19	21.06
441.38	81.92
441.57	77.24
441.75	9.36
441.94	14.04
442.12	21.06
442.31	18.72
442.50	25.75
442.68	28.09
442.87	11.70
443.05	35.11
443.24	0.00
443.43	0.00
443.61	44.47
443.80	18.72
443.98	0.00
444.17	14.04
444.35	0.00
444.54	0.00
444.73	0.00
444.91	72.56
445.10	65.54
445.28	0.00
445.47	60.85
445.65	0.00
445.84	70.22
446.02	11.70
446.21	25.75
446.39	0.00
446.58	2.34
446.77	49.15
446.95	0.00
447.14	67.88
447.32	46.81
447.51	79.58
447.69	39.79
447.88	0.00
448.06	28.09
448.25	28.09
448.43	53.83
448.62	9.36
448.80	56.17
448.99	11.70
449.17	46.81
449.36	0.00
449.54	0.00
449.73	30.43
449.91	53.83
450.10	72.56
450.28	63.19
450.46	0.00
450.65	21.06
450.83	91.28
451.02	7.02
451.20	0.00
451.39	72.56
451.57	42.13
451.76	53.83
451.94	42.13
452.13	65.54
452.31	72.56
452.49	65.54
452.68	35.11
452.86	53.83
453.05	9.36
453.23	0.00
453.42	37.45
453.60	30.43
453.78	0.00
453.97	46.81
454.15	0.00
454.34	86.60
454.52	37.45
454.70	16.38
454.89	4.68
455.07	30.43
455.26	4.68
455.44	4.68
455.62	42.13
455.81	79.58
455.99	35.11
456.17	60.85
456.36	0.00
456.54	60.85
456.73	63.19
456.91	35.11
457.09	25.75
457.28	7.02
457.46	23.41
457.64	58.51
457.83	35.11
458.01	18.72
458.19	95.96
458.38	23.41
458.56	0.00
458.74	37.45
458.93	11.70
459.11	0.00
459.29	14.04
459.48	77.24
459.66	0.00
459.84	32.77
460.03	37.45
460.21	70.22
460.39	25.75
460.57	2.34
460.76	4.68
460.94	84.26
461.12	0.00
461.31	11.70
461.49	0.00
461.67	30.43
461.85	16.38
462.04	11.70
462.22	95.96
462.40	21.06
462.59	53.83
462.77	30.43
462.95	11.70
463.13	18.72
463.32	51.49
463.50	0.00
463.68	25.75
463.86	18.72
464.05	4.68
464.23	79.58
464.41	37.45
464.59	18.72
464.78	74.90
464.96	0.00
465.14	44.47
465.32	51.49
465.50	42.13
465.69	77.24
465.87	37.45
466.05	16.38
466.23	58.51
466.41	0.00
466.60	28.09
466.78	53.83
466.96	21.06
467.14	0.00
467.32	0.00
467.51	0.00
467.69	7.02
467.87	14.04
468.05	32.77
468.23	77.24
468.41	23.41
468.60	44.47
468.78	42.13
468.96	77.24
469.14	56.17
469.32	42.13
469.50	11.70
469.69	0.00
469.87	11.70
470.05	32.77
470.23	95.96
470.41	25.75
470.59	18.72
470.77	79.58
470.95	67.88
471.14	21.06
471.32	28.09
471.50	0.00
471.68	21.06
471.86	4.68
472.04	0.00
472.22	14.04
472.40	46.81
472.58	25.75
472.77	32.77
472.95	23.41
473.13	0.00
473.31	0.00
473.49	91.28
473.67	65.54
473.85	63.19
474.03	67.88
474.21	4.68
474.39	58.51
474.57	30.43
474.75	0.00
474.93	63.19
475.12	0.00
475.30	0.00
475.48	35.11
475.66	98.30
475.84	107.66
476.02	21.06
476.20	16.38
476.38	0.00
476.56	0.00
476.74	42.13
476.92	84.26
477.10	95.96
477.28	121.71
477.46	0.00
477.64	2.34
477.82	32.77
478.00	0.00
478.18	37.45
478.36	0.00
478.54	35.11
478.72	0.00
478.90	11.70
479.08	53.83
479.26	0.00
479.44	11.70
479.62	42.13
479.80	46.81
479.98	105.32
480.16	23.41
480.34	67.88
480.52	84.26
480.70	77.24
480.88	107.66
481.06	14.04
481.24	0.00
481.41	42.13
481.59	23.41
481.77	0.00
481.95	105.32
482.13	60.85
482.31	14.04
482.49	14.04
482.67	74.90
482.85	0.00
483.03	28.09
483.21	79.58
483.39	72.56
483.57	4.68
483.74	32.77
483.92	74.90
484.10	18.72
484.28	84.26
484.46	65.54
484.64	79.58
484.82	88.94
485.00	44.47
485.18	4.68
485.35	74.90
485.53	21.06
485.71	28.09
485.89	0.00
486.07	18.72
486.25	67.88
486.43	42.13
486.61	51.49
486.78	91.28
486.96	46.81
487.14	37.45
487.32	0.00
487.50	0.00
487.68	0.00
487.85	0.00
488.03	65.54
488.21	86.60
488.39	14.04
488.57	23.41
488.75	70.22
488.92	131.07
489.10	0.00
489.28	56.17
489.46	51.49
489.64	0.00
489.81	58.51
489.99	4.68
490.17	25.75
490.35	11.70
490.53	23.41
490.70	51.49
490.88	46.81
491.06	51.49
491.24	72.56
491.41	74.90
491.59	112.35
491.77	23.41
491.95	37.45
492.13	35.11
492.30	49.15
492.48	30.43
492.66	67.88
492.84	11.70
493.01	4.68
493.19	67.88
493.37	0.00
493.54	98.30
493.72	65.54
493.90	105.32
494.08	60.85
494.25	0.00
494.43	91.28
494.61	42.13
494.79	114.69
494.96	53.83
495.14	63.19
495.32	25.75
495.49	53.83
495.67	110.01
495.85	39.79
496.02	58.51
496.20	51.49
496.38	95.96
496.55	9.36
496.73	51.49
496.91	0.00
497.09	95.96
497.26	9.36
497.44	42.13
497.62	51.49
497.79	102.98
497.97	0.00
498.14	0.00
498.32	91.28
498.50	28.09
498.67	0.00
498.85	51.49
499.03	0.00
499.20	0.00
499.38	9.36
499.56	0.00
499.73	30.43
499.91	63.19
500.08	35.11
500.26	0.00
500.44	14.04
500.61	67.88
500.79	51.49
500.97	58.51
501.14	72.56
501.32	14.04
501.49	91.28
501.67	28.09
501.84	93.62
502.02	21.06
502.20	42.13
502.37	0.00
502.55	0.00
502.72	44.47
502.90	0.00
503.07	42.13
503.25	58.51
503.43	112.35
503.60	35.11
503.78	21.06
503.95	84.26
504.13	53.83
504.30	16.38
504.48	30.43
504.65	35.11
504.83	77.24
505.01	65.54
505.18	32.77
505.36	79.58
505.53	0.00
505.71	110.01
505.88	67.88
506.06	37.45
506.23	46.81
506.41	107.66
506.58	18.72
506.76	23.41
506.93	32.77
507.11	23.41
507.28	42.13
507.46	63.19
507.63	0.00
507.81	126.39
507.98	65.54
508.16	74.90
508.33	53.83
508.50	77.24
508.68	35.11
508.85	72.56
509.03	23.41
509.20	0.00
509.38	63.19
509.55	0.00
509.73	7.02
509.90	46.81
510.08	39.79
510.25	42.13
510.42	44.47
510.60	77.24
510.77	79.58
510.95	58.51
511.12	30.43
511.30	30.43
511.47	100.64
511.64	51.49
511.82	4.68
511.99	63.19
512.17	46.81
512.34	53.83
512.51	4.68
512.69	100.64
512.86	56.17
513.04	42.13
513.21	79.58
513.38	51.49
513.56	23.41
513.73	4.68
513.90	0.00
514.08	35.11
514.25	42.13
514.43	79.58
514.60	58.51
514.77	46.81
514.95	53.83
515.12	0.00
515.29	46.81
515.47	51.49
515.64	37.45
515.81	28.09
515.99	67.88
516.16	32.77
516.33	4.68
516.51	0.00
516.68	49.15
516.85	0.00
517.03	4.68
517.20	9.36
517.37	42.13
517.54	65.54
517.72	0.00
517.89	95.96
518.06	18.72
518.24	63.19
518.41	21.06
518.58	16.38
518.75	0.00
518.93	0.00
519.10	70.22
519.27	44.47
519.45	28.09
519.62	63.19
519.79	42.13
519.96	0.00
520.14	77.24
520.31	46.81
520.48	25.75
520.65	4.68
520.83	51.49
521.00	46.81
521.17	37.45
521.34	77.24
521.52	65.54
521.69	65.54
521.86	18.72
522.03	138.09
522.20	107.66
522.38	95.96
522.55	14.04
522.72	49.15
522.89	53.83
523.07	0.00
523.24	65.54
523.41	0.00
523.58	86.60
523.75	0.00
523.92	44.47
524.10	0.00
524.27	14.04
524.44	0.00
524.61	79.58
524.78	91.28
524.96	11.70
525.13	0.00
525.30	95.96
525.47	11.70
525.64	30.43
525.81	21.06
525.98	44.47
526.16	74.90
526.33	91.28
526.50	53.83
526.67	0.00
526.84	84.26
527.01	60.85
527.18	77.24
527.36	67.88
527.53	32.77
527.70	14.04
527.87	65.54
528.04	42.13
528.21	18.72
528.38	74.90
528.55	16.38
528.72	44.47
528.89	0.00
529.07	49.15
529.24	42.13
529.41	37.45
529.58	102.98
529.75	79.58
529.92	60.85
530.09	107.66
530.26	0.00
530.43	58.51
530.60	35.11
530.77	35.11
530.94	74.90
531.11	37.45
531.28	21.06
531.46	7.02
531.63	107.66
531.80	74.90
531.97	72.56
532.14	30.43
532.31	28.09
532.48	74.90
532.65	114.69
532.82	25.75
532.99	72.56
533.16	46.81
533.33	102.98
533.50	2.34
533.67	42.13
533.84	0.00
534.01	39.79
534.18	91.28
534.35	58.51
534.52	18.72
534.69	0.00
534.86	42.13
535.03	81.92
535.20	14.04
535.37	14.04
535.54	56.17
535.71	51.49
535.88	0.00
536.05	0.00
536.22	95.96
536.38	154.48
536.55	63.19
536.72	0.00
536.89	0.00
537.06	0.00
537.23	56.17
537.40	39.79
537.57	84.26
537.74	44.47
537.91	70.22
538.08	70.22
538.25	65.54
538.42	0.00
538.59	91.28
538.75	86.60
538.92	98.30
539.09	81.92
539.26	86.60
539.43	35.11
539.60	133.41
539.77	182.56
539.94	175.54
540.11	81.92
540.28	65.54
540.44	9.36
540.61	2.34
540.78	107.66
540.95	49.15
541.12	0.00
541.29	67.88
541.46	53.83
541.62	0.00
541.79	32.77
541.96	0.00
542.13	0.00
542.30	74.90
542.47	98.30
542.63	51.49
542.80	7.02
542.97	9.36
543.14	35.11
543.31	21.06
543.48	30.43
543.64	23.41
543.81	4.68
543.98	0.00
544.15	53.83
544.32	16.38
544.48	84.26
544.65	4.68
544.82	42.13
544.99	42.13
545.16	7.02
545.32	74.90
545.49	112.35
545.66	18.72
545.83	67.88
546.00	11.70
546.16	35.11
546.33	58.51
546.50	100.64
546.67	93.62
546.83	14.04
547.00	74.90
547.17	117.03
547.34	67.88
547.50	35.11
547.67	0.00
547.84	0.00
548.00	60.85
548.17	79.58
548.34	84.26
548.51	30.43
548.67	112.35
548.84	42.13
549.01	67.88
549.18	28.09
549.34	51.49
549.51	56.17
549.68	0.00
549.84	0.00
550.01	91.28
550.18	84.26
550.34	70.22
550.51	0.00
550.68	51.49
550.84	9.36
551.01	84.26
551.18	53.83
551.34	67.88
551.51	88.94
551.68	42.13
551.84	131.07
552.01	105.32
552.18	56.17
552.34	0.00
552.51	11.70
552.68	95.96
552.84	56.17
553.01	21.06
553.18	74.90
553.34	49.15
553.51	60.85
553.67	60.85
553.84	53.83
554.01	72.56
554.17	72.56
554.34	25.75
554.51	46.81
554.67	56.17
554.84	32.77
555.00	84.26
555.17	51.49
555.33	0.00
555.50	7.02
555.67	51.49
555.83	16.38
556.00	7.02
556.16	35.11
556.33	30.43
556.50	28.09
556.66	23.41
556.83	81.92
556.99	44.47
557.16	42.13
557.32	46.81
557.49	28.09
557.65	56.17
557.82	44.47
557.98	37.45
558.15	23.41
558.32	58.51
558.48	0.00
558.65	23.41
558.81	18.72
558.98	72.56
559.14	16.38
559.31	77.24
559.47	42.13
559.64	77.24
559.80	39.79
559.97	37.45
560.13	63.19
560.30	46.81
560.46	63.19
560.63	86.60
560.79	0.00
560.96	56.17
561.12	16.38
561.29	11.70
561.45	23.41
561.61	39.79
561.78	7.02
561.94	56.17
562.11	16.38
562.27	37.45
562.44	112.35
562.60	28.09
562.77	0.00
562.93	70.22
563.10	49.15
563.26	37.45
563.42	60.85
563.59	67.88
563.75	46.81
563.92	77.24
564.08	60.85
564.24	67.88
564.41	0.00
564.57	46.81
564.74	70.22
564.90	0.00
565.07	0.00
565.23	28.09
565.39	42.13
565.56	53.83
565.72	39.79
565.88	0.00
566.05	42.13
566.21	77.24
566.38	44.47
566.54	112.35
566.70	37.45
566.87	67.88
567.03	51.49
567.19	51.49
567.36	30.43
567.52	2.34
567.68	25.75
567.85	0.00
568.01	74.90
568.17	58.51
568.34	49.15
568.50	60.85
568.66	4.68
568.83	93.62
568.99	0.00
569.15	58.51
569.32	35.11
569.48	110.01
569.64	44.47
569.81	28.09
569.97	46.81
570.13	70.22
570.30	77.24
570.46	46.81
570.62	7.02
570.78	46.81
570.95	46.81
571.11	98.30
571.27	0.00
571.43	0.00
571.60	102.98
571.76	30.43
571.92	16.38
572.09	72.56
572.25	0.00
572.41	63.19
572.57	51.49
572.74	0.00
572.90	74.90
573.06	0.00
573.22	77.24
573.38	42.13
573.55	18.72
573.71	86.60
573.87	18.72
574.03	49.15
574.20	0.00
574.36	2.34
574.52	37.45
574.68	2.34
574.84	51.49
575.01	70.22
575.17	7.02
575.33	0.00
575.49	74.90
575.65	58.51
575.82	65.54
575.98	32.77
576.14	46.81
576.30	107.66
576.46	53.83
576.62	4.68
576.79	67.88
576.95	51.49
577.11	9.36
577.27	0.00
577.43	81.92
577.59	16.38
577.75	51.49
577.92	53.83
578.08	60.85
578.24	7.02
578.40	86.60
578.56	49.15
578.72	70.22
578.88	4.68
579.04	95.96
579.21	128.73
579.37	84.26
579.53	32.77
579.69	67.88
579.85	32.77
580.01	37.45
580.17	39.79
580.33	18.72
580.49	0.00
580.65	32.77
580.82	98.30
580.98	93.62
581.14	91.28
581.30	56.17
581.46	28.09
581.62	74.90
581.78	138.09
581.94	131.07
582.10	44.47
582.26	84.26
582.42	53.83
582.58	42.13
582.74	49.15
582.90	131.07
583.06	72.56
583.22	84.26
583.38	0.00
583.54	81.92
583.70	88.94
583.86	77.24
584.02	0.00
584.18	70.22
584.34	152.13
584.50	353.42
584.66	1858.39
584.82	4360.42
584.98	6237.53
585.14	5369.19
585.30	3487.40
585.46	2181.38
585.62	1259.21
585.78	690.46
585.94	292.57
586.10	114.69
586.26	117.03
586.42	39.79
586.58	100.64
586.74	25.75
586.90	53.83
587.06	49.15
587.22	30.43
587.38	0.00
587.54	154.48
587.70	271.50
587.86	463.43
588.02	540.66
588.18	355.76
588.34	189.58
588.49	128.73
588.65	102.98
588.81	126.39
588.97	44.47
589.13	51.49
589.29	0.00
589.45	72.56
589.61	28.09
589.77	112.35
589.93	119.37
590.08	42.13
590.24	56.17
590.40	65.54
590.56	56.17
590.72	128.73
590.88	46.81
591.04	23.41
591.20	0.00
591.35	91.28
591.51	16.38
591.67	56.17
591.83	74.90
591.99	0.00
592.15	60.85
592.31	46.81
592.46	65.54
592.62	37.45
592.78	25.75
592.94	65.54
593.10	44.47
593.26	7.02
593.41	84.26
593.57	37.45
593.73	140.43
593.89	175.54
594.05	512.58
594.20	772.38
594.36	793.44
594.52	594.50
594.68	306.61
594.84	262.14
594.99	117.03
595.15	74.90
595.31	44.47
595.47	23.41
595.62	9.36
595.78	0.00
595.94	0.00
596.10	56.17
596.25	110.01
596.41	74.90
596.57	58.51
596.73	16.38
596.88	100.64
597.04	100.64
597.20	184.90
597.36	257.46
597.51	163.84
597.67	114.69
597.83	79.58
597.99	100.64
598.14	28.09
598.30	91.28
598.46	2.34
598.61	16.38
598.77	30.43
598.93	81.92
599.09	28.09
599.24	42.13
599.40	39.79
599.56	28.09
599.71	63.19
599.87	25.75
600.03	14.04
600.18	72.56
600.34	74.90
600.50	7.02
600.65	28.09
600.81	86.60
600.97	2.34
601.12	0.00
601.28	60.85
601.44	11.70
601.59	44.47
601.75	0.00
601.91	70.22
602.06	56.17
602.22	53.83
602.37	161.50
602.53	119.37
602.69	250.44
602.84	283.20
603.00	140.43
603.16	126.39
603.31	72.56
603.47	91.28
603.62	72.56
603.78	81.92
603.94	121.71
604.09	11.70
604.25	95.96
604.40	58.51
604.56	46.81
604.71	60.85
604.87	2.34
605.03	56.17
605.18	65.54
605.34	74.90
605.49	2.34
605.65	46.81
605.80	9.36
605.96	25.75
606.12	7.02
606.27	81.92
606.43	0.00
606.58	91.28
606.74	79.58
606.89	262.14
607.05	559.39
607.20	741.95
607.36	580.45
607.51	470.45
607.67	301.93
607.82	86.60
607.98	100.64
608.13	131.07
608.29	102.98
608.44	114.69
608.60	74.90
608.75	70.22
608.91	110.01
609.06	433.00
609.22	903.45
609.37	1242.82
609.53	957.28
609.68	638.97
609.84	449.38
609.99	318.31
610.15	212.99
610.30	112.35
610.46	65.54
610.61	23.41
610.76	65.54
610.92	56.17
611.07	28.09
611.23	86.60
611.38	49.15
611.54	91.28
611.69	4.68
611.84	67.88
612.00	0.00
612.15	46.81
612.31	16.38
612.46	56.17
612.62	28.09
612.77	53.83
612.92	65.54
613.08	135.75
613.23	49.15
613.39	9.36
613.54	114.69
613.69	440.02
613.85	1057.92
614.00	1678.16
614.15	1764.76
614.31	1348.15
614.46	917.49
614.62	631.94
614.77	341.72
614.92	119.37
615.08	142.77
615.23	91.28
615.38	105.32
615.54	53.83
615.69	131.07
615.84	217.67
616.00	435.34
616.15	545.34
616.30	386.19
616.46	257.46
616.61	212.99
616.76	177.88
616.92	100.64
617.07	70.22
617.22	7.02
617.37	91.28
617.53	51.49
617.68	37.45
617.83	133.41
617.99	2.34
618.14	53.83
618.29	0.00
618.45	60.85
618.60	114.69
618.75	56.17
618.90	9.36
619.06	0.00
619.21	84.26
619.36	28.09
619.51	39.79
619.67	131.07
619.82	28.09
619.97	142.77
620.12	18.72
620.28	65.54
620.43	42.13
620.58	42.13
620.73	32.77
620.89	0.00
621.04	7.02
621.19	135.75
621.34	313.63
621.49	269.16
621.65	320.65
621.80	161.50
621.95	175.54
622.10	91.28
622.25	63.19
622.41	0.00
622.56	53.83
622.71	44.47
622.86	42.13
623.01	51.49
623.16	51.49
623.32	65.54
623.47	79.58
623.62	81.92
623.77	56.17
623.92	72.56
624.07	79.58
624.23	81.92
624.38	147.45
624.53	88.94
624.68	28.09
624.83	25.75
624.98	63.19
625.13	56.17
625.29	53.83
625.44	35.11
625.59	9.36
625.74	63.19
625.89	70.22
626.04	220.01
626.19	524.28
626.34	884.72
626.49	1013.45
626.65	678.76
626.80	486.83
626.95	311.29
627.10	191.92
627.25	91.28
627.40	72.56
627.55	56.17
627.70	46.81
627.85	0.00
628.00	9.36
628.15	84.26
628.30	28.09
628.45	28.09
628.60	16.38
628.76	0.00
628.91	51.49
629.06	0.00
629.21	37.45
629.36	0.00
629.51	37.45
629.66	14.04
629.81	37.45
629.96	42.13
630.11	170.86
630.26	290.23
630.41	276.18
630.56	203.63
630.71	112.35
630.86	74.90
631.01	23.41
631.16	86.60
631.31	81.92
631.46	67.88
631.61	0.00
631.76	42.13
631.91	0.00
632.06	44.47
632.21	37.45
632.36	70.22
632.51	60.85
632.66	30.43
632.81	159.16
632.96	301.93
633.10	589.82
633.25	645.99
633.40	596.84
633.55	348.74
633.70	222.35
633.85	222.35
634.00	124.05
634.15	53.83
634.30	46.81
634.45	65.54
634.60	79.58
634.75	81.92
634.90	42.13
635.05	70.22
635.19	79.58
635.34	53.83
635.49	0.00
635.64	39.79
635.79	49.15
635.94	0.00
636.09	95.96
636.24	0.00
636.39	140.43
636.53	0.00
636.68	42.13
636.83	42.13
636.98	9.36
637.13	42.13
637.28	77.24
637.43	56.17
637.57	49.15
637.72	297.25
637.87	748.97
638.02	1174.95
638.17	1254.53
638.32	910.47
638.46	662.37
638.61	498.53
638.76	355.76
638.91	159.16
639.06	42.13
639.20	100.64
639.35	58.51
639.50	58.51
639.65	463.43
639.80	1217.08
639.94	1771.79
640.09	1893.49
640.24	1359.85
640.39	954.94
640.54	634.29
640.68	451.72
640.83	241.08
640.98	32.77
641.13	70.22
641.27	0.00
641.42	110.01
641.57	30.43
641.72	28.09
641.86	44.47
642.01	2.34
642.16	9.36
642.31	124.05
642.45	46.81
642.60	0.00
642.75	88.94
642.90	102.98
643.04	65.54
643.19	23.41
643.34	39.79
643.48	63.19
643.63	84.26
643.78	114.69
643.93	91.28
644.07	4.68
644.22	63.19
644.37	32.77
644.51	70.22
644.66	88.94
644.81	67.88
644.95	37.45
645.10	53.83
645.25	37.45
645.39	84.26
645.54	9.36
645.69	72.56
645.83	0.00
645.98	0.00
646.13	32.77
646.27	67.88
646.42	28.09
646.57	0.00
646.71	72.56
646.86	0.00
647.00	23.41
647.15	72.56
647.30	7.02
647.44	0.00
647.59	0.00
647.74	65.54
647.88	21.06
648.03	88.94
648.17	56.17
648.32	0.00
648.47	0.00
648.61	18.72
648.76	58.51
648.90	67.88
649.05	18.72
649.20	0.00
649.34	42.13
649.49	37.45
649.63	25.75
649.78	28.09
649.92	86.60
650.07	173.20
650.21	489.17
650.36	887.06
650.51	1053.24
650.65	922.17
650.80	620.24
650.94	451.72
651.09	304.27
651.23	147.45
651.38	135.75
651.52	51.49
651.67	35.11
651.81	32.77
651.96	35.11
652.10	65.54
652.25	95.96
652.39	0.00
652.54	44.47
652.68	42.13
652.83	161.50
652.97	257.46
653.12	475.13
653.26	362.78
653.41	276.18
653.55	210.65
653.70	114.69
653.84	42.13
653.99	56.17
654.13	124.05
654.27	9.36
654.42	110.01
654.56	74.90
654.71	63.19
654.85	60.85
655.00	0.00
655.14	23.41
655.29	0.00
655.43	32.77
655.57	49.15
655.72	42.13
655.86	133.41
656.01	4.68
656.15	30.43
656.30	49.15
656.44	49.15
656.58	53.83
656.73	16.38
656.87	0.00
657.01	42.13
657.16	67.88
657.30	100.64
657.45	93.62
657.59	37.45
657.73	0.00
657.88	46.81
658.02	102.98
658.16	0.00
658.31	74.90
658.45	65.54
658.60	84.26
658.74	35.11
658.88	72.56
659.03	32.77
659.17	88.94
659.31	60.85
659.46	187.24
659.60	423.64
659.74	514.92
659.89	498.53
660.03	383.85
660.17	283.20
660.32	142.77
660.46	114.69
660.60	112.35
660.74	37.45
660.89	53.83
661.03	53.83
661.17	23.41
661.32	56.17
661.46	25.75
661.60	14.04
661.74	42.13
661.89	42.13
662.03	9.36
662.17	30.43
662.31	4.68
662.46	42.13
662.60	0.00
662.74	18.72
662.88	67.88
663.03	56.17
663.17	32.77
663.31	42.13
663.45	72.56
663.60	28.09
663.74	11.70
663.88	0.00
664.02	67.88
664.17	39.79
664.31	74.90
664.45	81.92
664.59	0.00
664.73	28.09
664.88	23.41
665.02	0.00
665.16	0.00
665.30	9.36
665.44	35.11
665.59	37.45
665.73	119.37
665.87	95.96
666.01	0.00
666.15	0.00
666.29	0.00
666.44	70.22
666.58	53.83
666.72	0.00
666.86	70.22
667.00	18.72
667.14	32.77
667.28	147.45
667.43	409.59
667.57	779.40
667.71	847.27
667.85	798.12
667.99	519.60
668.13	353.42
668.27	170.86
668.41	117.03
668.56	156.82
668.70	37.45
668.84	112.35
668.98	91.28
669.12	11.70
669.26	0.00
669.40	30.43
669.54	74.90
669.68	14.04
669.82	21.06
669.96	44.47
670.10	49.15
670.25	32.77
670.39	79.58
670.53	70.22
670.67	42.13
670.81	93.62
670.95	32.77
671.09	42.13
671.23	154.48
671.37	330.02
671.51	540.66
671.65	594.50
671.79	437.68
671.93	383.85
672.07	159.16
672.21	126.39
672.35	37.45
672.49	67.88
672.63	7.02
672.77	28.09
672.91	53.83
673.05	0.00
673.19	72.56
673.33	58.51
673.47	67.88
673.61	18.72
673.75	72.56
673.89	98.30
674.03	100.64
674.17	37.45
674.31	0.00
674.45	0.00
674.59	35.11
674.73	0.00
674.87	72.56
675.01	30.43
675.15	58.51
675.29	25.75
675.43	23.41
675.56	25.75
675.70	16.38
675.84	42.13
675.98	11.70
676.12	58.51
676.26	67.88
676.40	21.06
676.54	0.00
676.68	37.45
676.82	16.38
676.96	63.19
677.10	30.43
677.23	51.49
677.37	53.83
677.51	0.00
677.65	49.15
677.79	16.38
677.93	25.75
678.07	72.56
678.21	84.26
678.34	42.13
678.48	105.32
678.62	46.81
678.76	18.72
678.90	0.00
679.04	4.68
679.18	46.81
679.31	7.02
679.45	0.00
679.59	49.15
679.73	18.72
679.87	42.13
680.00	56.17
680.14	128.73
680.28	11.70
680.42	25.75
680.56	14.04
680.70	0.00
680.83	9.36
680.97	0.00
681.11	86.60
681.25	63.19
681.39	0.00
681.52	18.72
681.66	42.13
681.80	16.38
681.94	18.72
682.07	0.00
682.21	14.04
682.35	49.15
682.49	18.72
682.62	72.56
682.76	0.00
682.90	18.72
683.04	0.00
683.17	67.88
683.31	0.00
683.45	0.00
683.59	42.13
683.72	0.00
683.86	65.54
684.00	0.00
684.13	0.00
684.27	91.28
684.41	102.98
684.55	14.04
684.68	0.00
684.82	25.75
684.96	28.09
685.09	28.09
685.23	77.24
685.37	49.15
685.50	93.62
685.64	0.00
685.78	28.09
685.91	37.45
686.05	44.47
686.19	14.04
686.32	9.36
686.46	84.26
686.60	0.00
686.73	0.00
686.87	56.17
687.01	0.00
687.14	4.68
687.28	28.09
687.42	37.45
687.55	9.36
687.69	21.06
687.82	21.06
687.96	0.00
688.10	0.00
688.23	9.36
688.37	39.79
688.50	21.06
688.64	0.00
688.78	0.00
688.91	46.81
689.05	11.70
689.18	30.43
689.32	2.34
689.46	77.24
689.59	16.38
689.73	107.66
689.86	70.22
690.00	42.13
690.13	60.85
690.27	0.00
690.41	105.32
690.54	16.38
690.68	35.11
690.81	72.56
690.95	39.79
691.08	30.43
691.22	30.43
691.35	4.68
691.49	0.00
691.62	0.00
691.76	79.58
691.89	30.43
692.03	0.00
692.16	37.45
692.30	49.15
692.43	37.45
692.57	210.65
692.70	344.06
692.84	383.85
692.97	346.40
693.11	271.50
693.24	238.73
693.38	107.66
693.51	124.05
693.65	95.96
693.78	35.11
693.92	138.09
694.05	91.28
694.19	23.41
694.32	56.17
694.45	4.68
694.59	30.43
694.72	65.54
694.86	102.98
694.99	60.85
695.13	28.09
695.26	0.00
695.39	37.45
695.53	35.11
695.66	0.00
695.80	49.15
695.93	44.47
696.07	49.15
696.20	7.02
696.33	37.45
696.47	0.00
696.60	86.60
696.73	84.26
696.87	39.79
697.00	60.85
697.14	18.72
697.27	30.43
697.40	60.85
697.54	9.36
697.67	0.00
697.80	63.19
697.94	70.22
698.07	25.75
698.21	0.00
698.34	32.77
698.47	0.00
698.61	72.56
698.74	25.75
698.87	77.24
699.01	9.36
699.14	35.11
699.27	0.00
699.40	25.75
699.54	60.85
699.67	23.41
699.80	11.70
699.94	37.45
700.07	51.49
700.20	56.17
700.34	0.00
700.47	7.02
700.60	0.00
700.73	30.43
700.87	30.43
701.00	86.60
701.13	23.41
701.26	16.38
701.40	51.49
701.53	56.17
701.66	25.75
701.79	56.17
701.93	7.02
702.06	9.36
702.19	84.26
702.32	72.56
702.46	60.85
702.59	74.90
702.72	79.58
702.85	276.18
702.99	545.34
703.12	709.18
703.25	713.86
703.38	664.71
703.51	535.98
703.65	416.62
703.78	290.23
703.91	215.33
704.04	121.71
704.17	79.58
704.31	105.32
704.44	86.60
704.57	44.47
704.70	60.85
704.83	0.00
704.96	35.11
705.10	53.83
705.23	51.49
>>>>>End Processed Spectral Data<<<<<
