SpectraSuite Data File
++++++++++++++++++++++++++++++++++++
Date: Fri Oct 04 12:13:39 GMT-05:00 2013
User: price-jones
Dark Spectrum Present: No
Reference Spectrum Present: No
Number of Sampled Component Spectra: 1
Spectrometers: USB2+H05261
Integration Time (usec): 10000 (USB2+H05261)
Spectra Averaged: 1 (USB2+H05261)
Boxcar Smoothing: 0 (USB2+H05261)
Correct for Electrical Dark: No (USB2+H05261)
Strobe/Lamp Enabled: No (USB2+H05261)
Correct for Detector Non-linearity: No (USB2+H05261)
Correct for Stray Light: No (USB2+H05261)
Number of Pixels in Processed Spectrum: 2048
>>>>>Begin Processed Spectral Data<<<<<
365.73	0.00
365.92	0.00
366.12	0.00
366.32	0.00
366.52	0.00
366.72	0.00
366.91	0.00
367.11	0.00
367.31	0.00
367.51	0.00
367.70	0.00
367.90	0.00
368.10	0.00
368.30	0.00
368.49	0.00
368.69	0.00
368.89	0.00
369.09	0.00
369.28	0.00
369.48	0.00
369.68	0.00
369.87	0.00
370.07	0.00
370.27	0.00
370.47	0.00
370.66	0.00
370.86	0.00
371.06	0.00
371.25	0.00
371.45	11.70
371.65	0.00
371.84	0.00
372.04	37.45
372.24	65.54
372.44	0.00
372.63	0.00
372.83	9.36
373.03	0.00
373.22	23.41
373.42	0.00
373.62	0.00
373.81	2.34
374.01	105.32
374.21	9.36
374.40	70.22
374.60	72.56
374.79	110.01
374.99	53.83
375.19	2.34
375.38	46.81
375.58	0.00
375.78	39.79
375.97	91.28
376.17	49.15
376.37	35.11
376.56	42.13
376.76	0.00
376.95	30.43
377.15	21.06
377.35	53.83
377.54	58.51
377.74	25.75
377.93	0.00
378.13	7.02
378.33	72.56
378.52	21.06
378.72	0.00
378.91	21.06
379.11	42.13
379.31	42.13
379.50	124.05
379.70	0.00
379.89	28.09
380.09	0.00
380.28	21.06
380.48	21.06
380.68	0.00
380.87	0.00
381.07	11.70
381.26	0.00
381.46	25.75
381.65	0.00
381.85	0.00
382.04	4.68
382.24	9.36
382.43	51.49
382.63	51.49
382.83	14.04
383.02	46.81
383.22	11.70
383.41	9.36
383.61	0.00
383.80	16.38
384.00	46.81
384.19	0.00
384.39	70.22
384.58	0.00
384.78	30.43
384.97	0.00
385.17	0.00
385.36	58.51
385.56	0.00
385.75	51.49
385.95	2.34
386.14	0.00
386.34	74.90
386.53	58.51
386.72	23.41
386.92	0.00
387.11	0.00
387.31	0.00
387.50	74.90
387.70	46.81
387.89	23.41
388.09	77.24
388.28	4.68
388.48	0.00
388.67	0.00
388.86	0.00
389.06	0.00
389.25	60.85
389.45	7.02
389.64	18.72
389.84	0.00
390.03	0.00
390.22	107.66
390.42	4.68
390.61	42.13
390.81	42.13
391.00	0.00
391.19	0.00
391.39	25.75
391.58	2.34
391.78	0.00
391.97	23.41
392.16	0.00
392.36	39.79
392.55	32.77
392.75	114.69
392.94	28.09
393.13	0.00
393.33	39.79
393.52	28.09
393.71	42.13
393.91	7.02
394.10	23.41
394.29	56.17
394.49	21.06
394.68	7.02
394.88	18.72
395.07	51.49
395.26	7.02
395.46	0.00
395.65	23.41
395.84	0.00
396.04	81.92
396.23	25.75
396.42	0.00
396.62	0.00
396.81	51.49
397.00	9.36
397.19	0.00
397.39	7.02
397.58	37.45
397.77	0.00
397.97	51.49
398.16	14.04
398.35	28.09
398.55	21.06
398.74	9.36
398.93	35.11
399.12	30.43
399.32	0.00
399.51	23.41
399.70	0.00
399.90	53.83
400.09	0.00
400.28	0.00
400.47	74.90
400.67	0.00
400.86	0.00
401.05	21.06
401.24	42.13
401.44	21.06
401.63	0.00
401.82	70.22
402.01	53.83
402.21	0.00
402.40	46.81
402.59	42.13
402.78	32.77
402.97	14.04
403.17	0.00
403.36	56.17
403.55	30.43
403.74	49.15
403.93	0.00
404.13	0.00
404.32	18.72
404.51	0.00
404.70	107.66
404.89	18.72
405.09	81.92
405.28	58.51
405.47	18.72
405.66	39.79
405.85	37.45
406.05	0.00
406.24	42.13
406.43	37.45
406.62	63.19
406.81	32.77
407.00	49.15
407.20	67.88
407.39	23.41
407.58	39.79
407.77	0.00
407.96	102.98
408.15	58.51
408.34	21.06
408.54	25.75
408.73	105.32
408.92	11.70
409.11	67.88
409.30	0.00
409.49	42.13
409.68	0.00
409.87	49.15
410.07	46.81
410.26	95.96
410.45	18.72
410.64	28.09
410.83	32.77
411.02	7.02
411.21	30.43
411.40	56.17
411.59	16.38
411.78	42.13
411.98	30.43
412.17	25.75
412.36	84.26
412.55	58.51
412.74	74.90
412.93	79.58
413.12	9.36
413.31	49.15
413.50	0.00
413.69	65.54
413.88	30.43
414.07	49.15
414.26	23.41
414.45	91.28
414.64	65.54
414.83	16.38
415.02	7.02
415.22	0.00
415.41	16.38
415.60	102.98
415.79	44.47
415.98	46.81
416.17	63.19
416.36	0.00
416.55	46.81
416.74	102.98
416.93	23.41
417.12	14.04
417.31	30.43
417.50	16.38
417.69	0.00
417.88	0.00
418.07	79.58
418.26	0.00
418.45	51.49
418.64	23.41
418.83	2.34
419.02	46.81
419.21	100.64
419.39	18.72
419.58	0.00
419.77	28.09
419.96	42.13
420.15	93.62
420.34	65.54
420.53	14.04
420.72	18.72
420.91	51.49
421.10	49.15
421.29	63.19
421.48	23.41
421.67	60.85
421.86	39.79
422.05	105.32
422.24	42.13
422.43	46.81
422.61	0.00
422.80	117.03
422.99	28.09
423.18	18.72
423.37	131.07
423.56	44.47
423.75	44.47
423.94	25.75
424.13	79.58
424.32	7.02
424.50	2.34
424.69	37.45
424.88	25.75
425.07	0.00
425.26	0.00
425.45	49.15
425.64	35.11
425.83	9.36
426.01	77.24
426.20	77.24
426.39	72.56
426.58	63.19
426.77	7.02
426.96	0.00
427.15	7.02
427.33	133.41
427.52	16.38
427.71	14.04
427.90	35.11
428.09	51.49
428.28	42.13
428.46	7.02
428.65	74.90
428.84	32.77
429.03	14.04
429.22	46.81
429.40	114.69
429.59	7.02
429.78	30.43
429.97	0.00
430.16	7.02
430.34	25.75
430.53	14.04
430.72	9.36
430.91	0.00
431.10	77.24
431.28	42.13
431.47	28.09
431.66	16.38
431.85	79.58
432.03	70.22
432.22	9.36
432.41	51.49
432.60	81.92
432.79	21.06
432.97	79.58
433.16	100.64
433.35	81.92
433.54	30.43
433.72	74.90
433.91	0.00
434.10	39.79
434.28	0.00
434.47	107.66
434.66	23.41
434.85	81.92
435.03	14.04
435.22	65.54
435.41	32.77
435.59	51.49
435.78	42.13
435.97	56.17
436.16	107.66
436.34	105.32
436.53	67.88
436.72	51.49
436.90	0.00
437.09	58.51
437.28	77.24
437.46	0.00
437.65	0.00
437.84	117.03
438.02	44.47
438.21	23.41
438.40	95.96
438.58	16.38
438.77	51.49
438.96	58.51
439.14	0.00
439.33	21.06
439.52	53.83
439.70	56.17
439.89	72.56
440.08	28.09
440.26	44.47
440.45	100.64
440.63	32.77
440.82	100.64
441.01	81.92
441.19	58.51
441.38	77.24
441.57	46.81
441.75	56.17
441.94	0.00
442.12	53.83
442.31	84.26
442.50	18.72
442.68	70.22
442.87	49.15
443.05	77.24
443.24	37.45
443.43	88.94
443.61	35.11
443.80	56.17
443.98	93.62
444.17	98.30
444.35	67.88
444.54	42.13
444.73	35.11
444.91	30.43
445.10	4.68
445.28	81.92
445.47	77.24
445.65	74.90
445.84	4.68
446.02	0.00
446.21	0.00
446.39	0.00
446.58	18.72
446.77	105.32
446.95	156.82
447.14	100.64
447.32	72.56
447.51	138.09
447.69	51.49
447.88	35.11
448.06	0.00
448.25	51.49
448.43	72.56
448.62	105.32
448.80	81.92
448.99	58.51
449.17	72.56
449.36	0.00
449.54	37.45
449.73	58.51
449.91	81.92
450.10	28.09
450.28	114.69
450.46	46.81
450.65	70.22
450.83	65.54
451.02	79.58
451.20	16.38
451.39	42.13
451.57	14.04
451.76	79.58
451.94	53.83
452.13	67.88
452.31	53.83
452.49	107.66
452.68	49.15
452.86	23.41
453.05	60.85
453.23	86.60
453.42	65.54
453.60	63.19
453.78	0.00
453.97	53.83
454.15	98.30
454.34	51.49
454.52	63.19
454.70	39.79
454.89	0.00
455.07	18.72
455.26	98.30
455.44	70.22
455.62	49.15
455.81	4.68
455.99	23.41
456.17	79.58
456.36	23.41
456.54	72.56
456.73	11.70
456.91	0.00
457.09	65.54
457.28	110.01
457.46	25.75
457.64	67.88
457.83	18.72
458.01	105.32
458.19	0.00
458.38	117.03
458.56	74.90
458.74	67.88
458.93	21.06
459.11	93.62
459.29	67.88
459.48	0.00
459.66	53.83
459.84	49.15
460.03	117.03
460.21	16.38
460.39	67.88
460.57	9.36
460.76	46.81
460.94	102.98
461.12	93.62
461.31	60.85
461.49	91.28
461.67	0.00
461.85	4.68
462.04	86.60
462.22	72.56
462.40	77.24
462.59	79.58
462.77	84.26
462.95	65.54
463.13	72.56
463.32	77.24
463.50	21.06
463.68	60.85
463.86	70.22
464.05	2.34
464.23	2.34
464.41	91.28
464.59	70.22
464.78	2.34
464.96	51.49
465.14	70.22
465.32	21.06
465.50	91.28
465.69	9.36
465.87	63.19
466.05	32.77
466.23	77.24
466.41	114.69
466.60	21.06
466.78	23.41
466.96	30.43
467.14	16.38
467.32	58.51
467.51	0.00
467.69	60.85
467.87	42.13
468.05	18.72
468.23	102.98
468.41	133.41
468.60	0.00
468.78	32.77
468.96	46.81
469.14	67.88
469.32	170.86
469.50	65.54
469.69	117.03
469.87	91.28
470.05	98.30
470.23	93.62
470.41	51.49
470.59	84.26
470.77	67.88
470.95	37.45
471.14	46.81
471.32	37.45
471.50	23.41
471.68	100.64
471.86	60.85
472.04	56.17
472.22	18.72
472.40	37.45
472.58	84.26
472.77	154.48
472.95	72.56
473.13	53.83
473.31	149.79
473.49	37.45
473.67	84.26
473.85	70.22
474.03	95.96
474.21	42.13
474.39	88.94
474.57	53.83
474.75	79.58
474.93	77.24
475.12	81.92
475.30	35.11
475.48	72.56
475.66	32.77
475.84	63.19
476.02	46.81
476.20	91.28
476.38	60.85
476.56	67.88
476.74	60.85
476.92	14.04
477.10	86.60
477.28	93.62
477.46	0.00
477.64	4.68
477.82	35.11
478.00	84.26
478.18	56.17
478.36	37.45
478.54	74.90
478.72	14.04
478.90	79.58
479.08	49.15
479.26	79.58
479.44	98.30
479.62	9.36
479.80	35.11
479.98	39.79
480.16	56.17
480.34	98.30
480.52	37.45
480.70	105.32
480.88	39.79
481.06	107.66
481.24	91.28
481.41	91.28
481.59	74.90
481.77	58.51
481.95	46.81
482.13	37.45
482.31	63.19
482.49	0.00
482.67	42.13
482.85	121.71
483.03	100.64
483.21	86.60
483.39	72.56
483.57	110.01
483.74	18.72
483.92	72.56
484.10	9.36
484.28	67.88
484.46	88.94
484.64	72.56
484.82	23.41
485.00	25.75
485.18	23.41
485.35	121.71
485.53	56.17
485.71	14.04
485.89	84.26
486.07	77.24
486.25	84.26
486.43	79.58
486.61	7.02
486.78	147.45
486.96	67.88
487.14	25.75
487.32	37.45
487.50	42.13
487.68	77.24
487.85	67.88
488.03	0.00
488.21	65.54
488.39	53.83
488.57	93.62
488.75	39.79
488.92	60.85
489.10	88.94
489.28	35.11
489.46	182.56
489.64	25.75
489.81	121.71
489.99	49.15
490.17	39.79
490.35	93.62
490.53	18.72
490.70	72.56
490.88	56.17
491.06	18.72
491.24	86.60
491.41	84.26
491.59	84.26
491.77	175.54
491.95	63.19
492.13	98.30
492.30	4.68
492.48	30.43
492.66	84.26
492.84	67.88
493.01	21.06
493.19	37.45
493.37	58.51
493.54	32.77
493.72	63.19
493.90	42.13
494.08	37.45
494.25	86.60
494.43	105.32
494.61	30.43
494.79	63.19
494.96	25.75
495.14	88.94
495.32	126.39
495.49	145.11
495.67	93.62
495.85	133.41
496.02	105.32
496.20	121.71
496.38	88.94
496.55	67.88
496.73	39.79
496.91	63.19
497.09	86.60
497.26	84.26
497.44	135.75
497.62	102.98
497.79	70.22
497.97	107.66
498.14	107.66
498.32	70.22
498.50	74.90
498.67	100.64
498.85	60.85
499.03	114.69
499.20	95.96
499.38	30.43
499.56	105.32
499.73	105.32
499.91	110.01
500.08	140.43
500.26	30.43
500.44	56.17
500.61	56.17
500.79	65.54
500.97	7.02
501.14	65.54
501.32	79.58
501.49	100.64
501.67	67.88
501.84	9.36
502.02	95.96
502.20	74.90
502.37	14.04
502.55	18.72
502.72	79.58
502.90	112.35
503.07	88.94
503.25	14.04
503.43	79.58
503.60	107.66
503.78	25.75
503.95	98.30
504.13	51.49
504.30	105.32
504.48	135.75
504.65	107.66
504.83	4.68
505.01	32.77
505.18	65.54
505.36	16.38
505.53	95.96
505.71	93.62
505.88	77.24
506.06	49.15
506.23	51.49
506.41	77.24
506.58	100.64
506.76	74.90
506.93	98.30
507.11	72.56
507.28	42.13
507.46	98.30
507.63	117.03
507.81	65.54
507.98	49.15
508.16	126.39
508.33	63.19
508.50	70.22
508.68	53.83
508.85	117.03
509.03	77.24
509.20	147.45
509.38	121.71
509.55	32.77
509.73	37.45
509.90	145.11
510.08	44.47
510.25	65.54
510.42	46.81
510.60	46.81
510.77	32.77
510.95	133.41
511.12	81.92
511.30	102.98
511.47	42.13
511.64	77.24
511.82	49.15
511.99	161.50
512.17	56.17
512.34	25.75
512.51	16.38
512.69	65.54
512.86	28.09
513.04	81.92
513.21	37.45
513.38	51.49
513.56	60.85
513.73	51.49
513.90	21.06
514.08	91.28
514.25	63.19
514.43	81.92
514.60	86.60
514.77	110.01
514.95	44.47
515.12	65.54
515.29	95.96
515.47	124.05
515.64	84.26
515.81	93.62
515.99	105.32
516.16	67.88
516.33	128.73
516.51	63.19
516.68	88.94
516.85	91.28
517.03	51.49
517.20	67.88
517.37	60.85
517.54	77.24
517.72	72.56
517.89	60.85
518.06	79.58
518.24	67.88
518.41	51.49
518.58	74.90
518.75	107.66
518.93	128.73
519.10	77.24
519.27	46.81
519.45	102.98
519.62	126.39
519.79	95.96
519.96	102.98
520.14	154.48
520.31	53.83
520.48	93.62
520.65	86.60
520.83	51.49
521.00	163.84
521.17	51.49
521.34	105.32
521.52	102.98
521.69	114.69
521.86	70.22
522.03	60.85
522.20	0.00
522.38	88.94
522.55	93.62
522.72	60.85
522.89	63.19
523.07	25.75
523.24	67.88
523.41	126.39
523.58	107.66
523.75	128.73
523.92	107.66
524.10	107.66
524.27	67.88
524.44	121.71
524.61	93.62
524.78	215.33
524.96	70.22
525.13	63.19
525.30	98.30
525.47	84.26
525.64	117.03
525.81	65.54
525.98	74.90
526.16	110.01
526.33	102.98
526.50	102.98
526.67	60.85
526.84	102.98
527.01	9.36
527.18	65.54
527.36	74.90
527.53	93.62
527.70	63.19
527.87	110.01
528.04	53.83
528.21	60.85
528.38	98.30
528.55	93.62
528.72	124.05
528.89	44.47
529.07	72.56
529.24	72.56
529.41	44.47
529.58	46.81
529.75	102.98
529.92	46.81
530.09	107.66
530.26	63.19
530.43	98.30
530.60	70.22
530.77	7.02
530.94	18.72
531.11	74.90
531.28	88.94
531.46	124.05
531.63	88.94
531.80	138.09
531.97	70.22
532.14	119.37
532.31	102.98
532.48	28.09
532.65	65.54
532.82	124.05
532.99	147.45
533.16	93.62
533.33	156.82
533.50	30.43
533.67	0.00
533.84	21.06
534.01	65.54
534.18	25.75
534.35	81.92
534.52	110.01
534.69	81.92
534.86	91.28
535.03	35.11
535.20	72.56
535.37	58.51
535.54	121.71
535.71	182.56
535.88	128.73
536.05	74.90
536.22	100.64
536.38	84.26
536.55	102.98
536.72	86.60
536.89	117.03
537.06	107.66
537.23	112.35
537.40	58.51
537.57	95.96
537.74	65.54
537.91	98.30
538.08	81.92
538.25	60.85
538.42	170.86
538.59	77.24
538.75	28.09
538.92	105.32
539.09	208.31
539.26	107.66
539.43	140.43
539.60	95.96
539.77	74.90
539.94	124.05
540.11	105.32
540.28	119.37
540.44	0.00
540.61	93.62
540.78	86.60
540.95	133.41
541.12	58.51
541.29	119.37
541.46	77.24
541.62	147.45
541.79	91.28
541.96	81.92
542.13	63.19
542.30	119.37
542.47	84.26
542.63	79.58
542.80	102.98
542.97	126.39
543.14	58.51
543.31	67.88
543.48	65.54
543.64	18.72
543.81	102.98
543.98	147.45
544.15	140.43
544.32	119.37
544.48	72.56
544.65	154.48
544.82	58.51
544.99	67.88
545.16	44.47
545.32	84.26
545.49	46.81
545.66	32.77
545.83	23.41
546.00	86.60
546.16	86.60
546.33	105.32
546.50	72.56
546.67	60.85
546.83	53.83
547.00	114.69
547.17	72.56
547.34	114.69
547.50	117.03
547.67	67.88
547.84	42.13
548.00	105.32
548.17	100.64
548.34	86.60
548.51	91.28
548.67	98.30
548.84	53.83
549.01	77.24
549.18	124.05
549.34	39.79
549.51	114.69
549.68	67.88
549.84	58.51
550.01	79.58
550.18	135.75
550.34	88.94
550.51	65.54
550.68	86.60
550.84	65.54
551.01	145.11
551.18	63.19
551.34	91.28
551.51	46.81
551.68	88.94
551.84	95.96
552.01	72.56
552.18	84.26
552.34	117.03
552.51	67.88
552.68	63.19
552.84	49.15
553.01	70.22
553.18	107.66
553.34	65.54
553.51	121.71
553.67	91.28
553.84	79.58
554.01	126.39
554.17	91.28
554.34	60.85
554.51	119.37
554.67	91.28
554.84	53.83
555.00	16.38
555.17	42.13
555.33	42.13
555.50	126.39
555.67	18.72
555.83	100.64
556.00	42.13
556.16	131.07
556.33	133.41
556.50	140.43
556.66	159.16
556.83	128.73
556.99	74.90
557.16	72.56
557.32	88.94
557.49	39.79
557.65	60.85
557.82	42.13
557.98	58.51
558.15	93.62
558.32	53.83
558.48	74.90
558.65	4.68
558.81	65.54
558.98	65.54
559.14	95.96
559.31	53.83
559.47	88.94
559.64	138.09
559.80	163.84
559.97	65.54
560.13	2.34
560.30	46.81
560.46	39.79
560.63	95.96
560.79	37.45
560.96	46.81
561.12	30.43
561.29	25.75
561.45	88.94
561.61	0.00
561.78	98.30
561.94	110.01
562.11	70.22
562.27	56.17
562.44	11.70
562.60	102.98
562.77	145.11
562.93	84.26
563.10	58.51
563.26	28.09
563.42	32.77
563.59	110.01
563.75	56.17
563.92	133.41
564.08	37.45
564.24	131.07
564.41	72.56
564.57	100.64
564.74	126.39
564.90	74.90
565.07	84.26
565.23	168.52
565.39	37.45
565.56	53.83
565.72	91.28
565.88	79.58
566.05	58.51
566.21	42.13
566.38	140.43
566.54	79.58
566.70	98.30
566.87	72.56
567.03	0.00
567.19	135.75
567.36	21.06
567.52	28.09
567.68	60.85
567.85	74.90
568.01	74.90
568.17	46.81
568.34	77.24
568.50	79.58
568.66	74.90
568.83	119.37
568.99	95.96
569.15	142.77
569.32	70.22
569.48	86.60
569.64	32.77
569.81	93.62
569.97	102.98
570.13	159.16
570.30	70.22
570.46	0.00
570.62	117.03
570.78	88.94
570.95	110.01
571.11	77.24
571.27	58.51
571.43	28.09
571.60	37.45
571.76	16.38
571.92	112.35
572.09	30.43
572.25	98.30
572.41	124.05
572.57	37.45
572.74	25.75
572.90	60.85
573.06	74.90
573.22	72.56
573.38	56.17
573.55	142.77
573.71	84.26
573.87	124.05
574.03	25.75
574.20	140.43
574.36	119.37
574.52	114.69
574.68	79.58
574.84	60.85
575.01	88.94
575.17	58.51
575.33	117.03
575.49	100.64
575.65	70.22
575.82	88.94
575.98	56.17
576.14	14.04
576.30	51.49
576.46	16.38
576.62	77.24
576.79	42.13
576.95	91.28
577.11	177.88
577.27	46.81
577.43	91.28
577.59	65.54
577.75	53.83
577.92	44.47
578.08	112.35
578.24	124.05
578.40	63.19
578.56	65.54
578.72	46.81
578.88	100.64
579.04	102.98
579.21	46.81
579.37	124.05
579.53	91.28
579.69	9.36
579.85	91.28
580.01	77.24
580.17	102.98
580.33	39.79
580.49	98.30
580.65	105.32
580.82	70.22
580.98	119.37
581.14	105.32
581.30	25.75
581.46	91.28
581.62	95.96
581.78	79.58
581.94	51.49
582.10	135.75
582.26	70.22
582.42	77.24
582.58	56.17
582.74	42.13
582.90	107.66
583.06	117.03
583.22	91.28
583.38	7.02
583.54	72.56
583.70	51.49
583.86	77.24
584.02	72.56
584.18	88.94
584.34	98.30
584.50	112.35
584.66	84.26
584.82	58.51
584.98	72.56
585.14	63.19
585.30	86.60
585.46	74.90
585.62	86.60
585.78	79.58
585.94	65.54
586.10	88.94
586.26	46.81
586.42	98.30
586.58	25.75
586.74	46.81
586.90	56.17
587.06	98.30
587.22	46.81
587.38	58.51
587.54	30.43
587.70	81.92
587.86	14.04
588.02	4.68
588.18	70.22
588.34	86.60
588.49	133.41
588.65	14.04
588.81	46.81
588.97	4.68
589.13	37.45
589.29	39.79
589.45	25.75
589.61	114.69
589.77	60.85
589.93	110.01
590.08	124.05
590.24	100.64
590.40	44.47
590.56	81.92
590.72	77.24
590.88	70.22
591.04	131.07
591.20	42.13
591.35	102.98
591.51	77.24
591.67	63.19
591.83	91.28
591.99	145.11
592.15	105.32
592.31	86.60
592.46	93.62
592.62	107.66
592.78	39.79
592.94	42.13
593.10	147.45
593.26	117.03
593.41	65.54
593.57	51.49
593.73	28.09
593.89	37.45
594.05	32.77
594.20	65.54
594.36	121.71
594.52	65.54
594.68	67.88
594.84	49.15
594.99	98.30
595.15	35.11
595.31	110.01
595.47	37.45
595.62	39.79
595.78	67.88
595.94	84.26
596.10	72.56
596.25	56.17
596.41	28.09
596.57	95.96
596.73	56.17
596.88	67.88
597.04	60.85
597.20	107.66
597.36	79.58
597.51	126.39
597.67	37.45
597.83	67.88
597.99	81.92
598.14	58.51
598.30	91.28
598.46	121.71
598.61	42.13
598.77	81.92
598.93	0.00
599.09	72.56
599.24	81.92
599.40	140.43
599.56	84.26
599.71	124.05
599.87	46.81
600.03	105.32
600.18	72.56
600.34	93.62
600.50	28.09
600.65	4.68
600.81	58.51
600.97	0.00
601.12	28.09
601.28	37.45
601.44	91.28
601.59	28.09
601.75	0.00
601.91	58.51
602.06	95.96
602.22	86.60
602.37	100.64
602.53	30.43
602.69	84.26
602.84	117.03
603.00	60.85
603.16	35.11
603.31	133.41
603.47	107.66
603.62	81.92
603.78	51.49
603.94	0.00
604.09	39.79
604.25	88.94
604.40	95.96
604.56	21.06
604.71	133.41
604.87	112.35
605.03	0.00
605.18	91.28
605.34	56.17
605.49	124.05
605.65	77.24
605.80	42.13
605.96	51.49
606.12	79.58
606.27	72.56
606.43	70.22
606.58	35.11
606.74	131.07
606.89	23.41
607.05	65.54
607.20	16.38
607.36	35.11
607.51	25.75
607.67	112.35
607.82	126.39
607.98	0.00
608.13	86.60
608.29	86.60
608.44	142.77
608.60	23.41
608.75	37.45
608.91	86.60
609.06	46.81
609.22	7.02
609.37	86.60
609.53	161.50
609.68	23.41
609.84	53.83
609.99	39.79
610.15	39.79
610.30	100.64
610.46	119.37
610.61	124.05
610.76	138.09
610.92	0.00
611.07	67.88
611.23	79.58
611.38	131.07
611.54	32.77
611.69	67.88
611.84	60.85
612.00	138.09
612.15	56.17
612.31	95.96
612.46	39.79
612.62	28.09
612.77	0.00
612.92	81.92
613.08	152.13
613.23	28.09
613.39	51.49
613.54	42.13
613.69	0.00
613.85	100.64
614.00	60.85
614.15	16.38
614.31	37.45
614.46	42.13
614.62	93.62
614.77	128.73
614.92	51.49
615.08	11.70
615.23	74.90
615.38	0.00
615.54	37.45
615.69	21.06
615.84	42.13
616.00	81.92
616.15	166.18
616.30	72.56
616.46	32.77
616.61	18.72
616.76	58.51
616.92	86.60
617.07	46.81
617.22	28.09
617.37	114.69
617.53	11.70
617.68	65.54
617.83	100.64
617.99	63.19
618.14	105.32
618.29	60.85
618.45	102.98
618.60	46.81
618.75	72.56
618.90	11.70
619.06	14.04
619.21	49.15
619.36	88.94
619.51	63.19
619.67	18.72
619.82	60.85
619.97	58.51
620.12	98.30
620.28	107.66
620.43	79.58
620.58	81.92
620.73	119.37
620.89	32.77
621.04	86.60
621.19	49.15
621.34	46.81
621.49	74.90
621.65	51.49
621.80	53.83
621.95	46.81
622.10	44.47
622.25	86.60
622.41	60.85
622.56	56.17
622.71	53.83
622.86	44.47
623.01	53.83
623.16	35.11
623.32	110.01
623.47	86.60
623.62	121.71
623.77	84.26
623.92	46.81
624.07	46.81
624.23	84.26
624.38	9.36
624.53	124.05
624.68	30.43
624.83	67.88
624.98	46.81
625.13	14.04
625.29	0.00
625.44	2.34
625.59	23.41
625.74	49.15
625.89	51.49
626.04	56.17
626.19	72.56
626.34	42.13
626.49	70.22
626.65	0.00
626.80	91.28
626.95	149.79
627.10	107.66
627.25	28.09
627.40	81.92
627.55	46.81
627.70	86.60
627.85	0.00
628.00	32.77
628.15	79.58
628.30	32.77
628.45	88.94
628.60	49.15
628.76	81.92
628.91	44.47
629.06	105.32
629.21	42.13
629.36	114.69
629.51	65.54
629.66	46.81
629.81	77.24
629.96	91.28
630.11	56.17
630.26	74.90
630.41	53.83
630.56	18.72
630.71	39.79
630.86	51.49
631.01	67.88
631.16	60.85
631.31	88.94
631.46	44.47
631.61	0.00
631.76	63.19
631.91	60.85
632.06	16.38
632.21	67.88
632.36	74.90
632.51	58.51
632.66	23.41
632.81	70.22
632.96	49.15
633.10	72.56
633.25	18.72
633.40	42.13
633.55	77.24
633.70	44.47
633.85	124.05
634.00	0.00
634.15	81.92
634.30	65.54
634.45	56.17
634.60	131.07
634.75	81.92
634.90	53.83
635.05	72.56
635.19	102.98
635.34	84.26
635.49	4.68
635.64	0.00
635.79	0.00
635.94	67.88
636.09	131.07
636.24	72.56
636.39	65.54
636.53	11.70
636.68	32.77
636.83	42.13
636.98	100.64
637.13	74.90
637.28	81.92
637.43	77.24
637.57	23.41
637.72	119.37
637.87	77.24
638.02	49.15
638.17	44.47
638.32	65.54
638.46	32.77
638.61	77.24
638.76	67.88
638.91	25.75
639.06	58.51
639.20	46.81
639.35	86.60
639.50	37.45
639.65	2.34
639.80	124.05
639.94	72.56
640.09	39.79
640.24	74.90
640.39	74.90
640.54	79.58
640.68	14.04
640.83	81.92
640.98	35.11
641.13	117.03
641.27	37.45
641.42	72.56
641.57	21.06
641.72	4.68
641.86	23.41
642.01	53.83
642.16	0.00
642.31	107.66
642.45	63.19
642.60	60.85
642.75	112.35
642.90	53.83
643.04	100.64
643.19	23.41
643.34	84.26
643.48	16.38
643.63	154.48
643.78	32.77
643.93	30.43
644.07	60.85
644.22	63.19
644.37	65.54
644.51	39.79
644.66	0.00
644.81	46.81
644.95	30.43
645.10	58.51
645.25	21.06
645.39	131.07
645.54	46.81
645.69	35.11
645.83	0.00
645.98	42.13
646.13	56.17
646.27	11.70
646.42	44.47
646.57	42.13
646.71	46.81
646.86	98.30
647.00	4.68
647.15	65.54
647.30	84.26
647.44	9.36
647.59	72.56
647.74	28.09
647.88	117.03
648.03	98.30
648.17	18.72
648.32	67.88
648.47	74.90
648.61	46.81
648.76	79.58
648.90	46.81
649.05	44.47
649.20	74.90
649.34	63.19
649.49	4.68
649.63	11.70
649.78	23.41
649.92	0.00
650.07	117.03
650.21	4.68
650.36	63.19
650.51	65.54
650.65	44.47
650.80	7.02
650.94	28.09
651.09	0.00
651.23	56.17
651.38	16.38
651.52	79.58
651.67	67.88
651.81	63.19
651.96	11.70
652.10	28.09
652.25	58.51
652.39	14.04
652.54	28.09
652.68	49.15
652.83	74.90
652.97	63.19
653.12	39.79
653.26	77.24
653.41	74.90
653.55	16.38
653.70	44.47
653.84	77.24
653.99	110.01
654.13	30.43
654.27	86.60
654.42	7.02
654.56	107.66
654.71	56.17
654.85	28.09
655.00	49.15
655.14	58.51
655.29	72.56
655.43	67.88
655.57	60.85
655.72	11.70
655.86	0.00
656.01	65.54
656.15	37.45
656.30	51.49
656.44	21.06
656.58	56.17
656.73	11.70
656.87	72.56
657.01	84.26
657.16	114.69
657.30	14.04
657.45	35.11
657.59	74.90
657.73	86.60
657.88	44.47
658.02	67.88
658.16	0.00
658.31	60.85
658.45	84.26
658.60	0.00
658.74	0.00
658.88	58.51
659.03	42.13
659.17	0.00
659.31	37.45
659.46	39.79
659.60	72.56
659.74	95.96
659.89	23.41
660.03	51.49
660.17	39.79
660.32	0.00
660.46	49.15
660.60	65.54
660.74	88.94
660.89	67.88
661.03	77.24
661.17	18.72
661.32	39.79
661.46	44.47
661.60	49.15
661.74	23.41
661.89	152.13
662.03	42.13
662.17	28.09
662.31	65.54
662.46	63.19
662.60	117.03
662.74	102.98
662.88	91.28
663.03	60.85
663.17	44.47
663.31	46.81
663.45	23.41
663.60	14.04
663.74	30.43
663.88	49.15
664.02	30.43
664.17	9.36
664.31	56.17
664.45	70.22
664.59	35.11
664.73	7.02
664.88	0.00
665.02	35.11
665.16	42.13
665.30	4.68
665.44	39.79
665.59	67.88
665.73	77.24
665.87	58.51
666.01	65.54
666.15	131.07
666.29	0.00
666.44	102.98
666.58	100.64
666.72	35.11
666.86	53.83
667.00	16.38
667.14	79.58
667.28	56.17
667.43	14.04
667.57	60.85
667.71	74.90
667.85	0.00
667.99	121.71
668.13	0.00
668.27	7.02
668.41	79.58
668.56	70.22
668.70	110.01
668.84	0.00
668.98	35.11
669.12	42.13
669.26	35.11
669.40	37.45
669.54	42.13
669.68	53.83
669.82	32.77
669.96	81.92
670.10	79.58
670.25	60.85
670.39	23.41
670.53	32.77
670.67	79.58
670.81	91.28
670.95	60.85
671.09	51.49
671.23	9.36
671.37	44.47
671.51	28.09
671.65	72.56
671.79	0.00
671.93	81.92
672.07	28.09
672.21	42.13
672.35	23.41
672.49	128.73
672.63	86.60
672.77	14.04
672.91	74.90
673.05	74.90
673.19	0.00
673.33	105.32
673.47	95.96
673.61	95.96
673.75	58.51
673.89	53.83
674.03	39.79
674.17	0.00
674.31	23.41
674.45	105.32
674.59	18.72
674.73	21.06
674.87	72.56
675.01	65.54
675.15	11.70
675.29	65.54
675.43	74.90
675.56	77.24
675.70	51.49
675.84	187.24
675.98	60.85
676.12	0.00
676.26	32.77
676.40	28.09
676.54	39.79
676.68	30.43
676.82	14.04
676.96	39.79
677.10	46.81
677.23	119.37
677.37	28.09
677.51	28.09
677.65	88.94
677.79	49.15
677.93	95.96
678.07	77.24
678.21	35.11
678.34	7.02
678.48	32.77
678.62	39.79
678.76	58.51
678.90	51.49
679.04	37.45
679.18	39.79
679.31	98.30
679.45	77.24
679.59	9.36
679.73	72.56
679.87	35.11
680.00	86.60
680.14	124.05
680.28	46.81
680.42	63.19
680.56	67.88
680.70	79.58
680.83	0.00
680.97	60.85
681.11	18.72
681.25	112.35
681.39	23.41
681.52	23.41
681.66	30.43
681.80	91.28
681.94	0.00
682.07	0.00
682.21	0.00
682.35	28.09
682.49	53.83
682.62	11.70
682.76	74.90
682.90	16.38
683.04	56.17
683.17	60.85
683.31	32.77
683.45	23.41
683.59	0.00
683.72	28.09
683.86	14.04
684.00	88.94
684.13	0.00
684.27	53.83
684.41	133.41
684.55	0.00
684.68	37.45
684.82	60.85
684.96	28.09
685.09	25.75
685.23	77.24
685.37	81.92
685.50	65.54
685.64	37.45
685.78	110.01
685.91	84.26
686.05	53.83
686.19	0.00
686.32	98.30
686.46	65.54
686.60	32.77
686.73	23.41
686.87	77.24
687.01	0.00
687.14	84.26
687.28	23.41
687.42	74.90
687.55	65.54
687.69	67.88
687.82	44.47
687.96	39.79
688.10	147.45
688.23	51.49
688.37	0.00
688.50	79.58
688.64	67.88
688.78	63.19
688.91	11.70
689.05	28.09
689.18	0.00
689.32	51.49
689.46	86.60
689.59	44.47
689.73	42.13
689.86	39.79
690.00	77.24
690.13	53.83
690.27	11.70
690.41	58.51
690.54	93.62
690.68	0.00
690.81	30.43
690.95	11.70
691.08	93.62
691.22	65.54
691.35	16.38
691.49	74.90
691.62	65.54
691.76	128.73
691.89	67.88
692.03	0.00
692.16	18.72
692.30	35.11
692.43	28.09
692.57	28.09
692.70	63.19
692.84	23.41
692.97	74.90
693.11	16.38
693.24	88.94
693.38	39.79
693.51	30.43
693.65	0.00
693.78	0.00
693.92	56.17
694.05	25.75
694.19	37.45
694.32	0.00
694.45	53.83
694.59	11.70
694.72	0.00
694.86	21.06
694.99	0.00
695.13	86.60
695.26	0.00
695.39	0.00
695.53	16.38
695.66	56.17
695.80	72.56
695.93	4.68
696.07	58.51
696.20	88.94
696.33	56.17
696.47	60.85
696.60	42.13
696.73	32.77
696.87	46.81
697.00	60.85
697.14	21.06
697.27	35.11
697.40	32.77
697.54	0.00
697.67	102.98
697.80	23.41
697.94	30.43
698.07	30.43
698.21	70.22
698.34	39.79
698.47	79.58
698.61	32.77
698.74	88.94
698.87	37.45
699.01	58.51
699.14	0.00
699.27	16.38
699.40	42.13
699.54	49.15
699.67	0.00
699.80	39.79
699.94	0.00
700.07	63.19
700.20	0.00
700.34	63.19
700.47	58.51
700.60	44.47
700.73	18.72
700.87	65.54
701.00	0.00
701.13	35.11
701.26	11.70
701.40	65.54
701.53	4.68
701.66	30.43
701.79	58.51
701.93	60.85
702.06	42.13
702.19	49.15
702.32	21.06
702.46	49.15
702.59	65.54
702.72	63.19
702.85	0.00
702.99	7.02
703.12	70.22
703.25	2.34
703.38	0.00
703.51	74.90
703.65	70.22
703.78	0.00
703.91	56.17
704.04	11.70
704.17	0.00
704.31	0.00
704.44	16.38
704.57	95.96
704.70	49.15
704.83	23.41
704.96	65.54
705.10	23.41
705.23	11.70
>>>>>End Processed Spectral Data<<<<<
