SpectraSuite Data File
++++++++++++++++++++++++++++++++++++
Date: Fri Oct 04 12:13:38 GMT-05:00 2013
User: price-jones
Dark Spectrum Present: No
Reference Spectrum Present: No
Number of Sampled Component Spectra: 1
Spectrometers: USB2+H05261
Integration Time (usec): 10000 (USB2+H05261)
Spectra Averaged: 1 (USB2+H05261)
Boxcar Smoothing: 0 (USB2+H05261)
Correct for Electrical Dark: No (USB2+H05261)
Strobe/Lamp Enabled: No (USB2+H05261)
Correct for Detector Non-linearity: No (USB2+H05261)
Correct for Stray Light: No (USB2+H05261)
Number of Pixels in Processed Spectrum: 2048
>>>>>Begin Processed Spectral Data<<<<<
365.73	21.06
365.92	21.06
366.12	21.06
366.32	0.00
366.52	0.00
366.72	0.00
366.91	0.00
367.11	0.00
367.31	0.00
367.51	0.00
367.70	0.00
367.90	0.00
368.10	0.00
368.30	0.00
368.49	0.00
368.69	0.00
368.89	0.00
369.09	0.00
369.28	0.00
369.48	0.00
369.68	0.00
369.87	0.00
370.07	0.00
370.27	0.00
370.47	0.00
370.66	0.00
370.86	0.00
371.06	0.00
371.25	0.00
371.45	0.00
371.65	4.68
371.84	0.00
372.04	0.00
372.24	9.36
372.44	23.41
372.63	0.00
372.83	49.15
373.03	72.56
373.22	86.60
373.42	0.00
373.62	35.11
373.81	42.13
374.01	0.00
374.21	2.34
374.40	14.04
374.60	16.38
374.79	0.00
374.99	0.00
375.19	30.43
375.38	74.90
375.58	30.43
375.78	74.90
375.97	0.00
376.17	14.04
376.37	16.38
376.56	2.34
376.76	14.04
376.95	35.11
377.15	14.04
377.35	11.70
377.54	0.00
377.74	32.77
377.93	70.22
378.13	0.00
378.33	16.38
378.52	0.00
378.72	51.49
378.91	30.43
379.11	0.00
379.31	0.00
379.50	0.00
379.70	18.72
379.89	49.15
380.09	60.85
380.28	67.88
380.48	0.00
380.68	81.92
380.87	0.00
381.07	32.77
381.26	0.00
381.46	39.79
381.65	0.00
381.85	51.49
382.04	0.00
382.24	21.06
382.43	18.72
382.63	0.00
382.83	28.09
383.02	0.00
383.22	0.00
383.41	30.43
383.61	9.36
383.80	44.47
384.00	117.03
384.19	0.00
384.39	23.41
384.58	32.77
384.78	37.45
384.97	25.75
385.17	0.00
385.36	35.11
385.56	63.19
385.75	0.00
385.95	18.72
386.14	35.11
386.34	42.13
386.53	7.02
386.72	0.00
386.92	0.00
387.11	28.09
387.31	30.43
387.50	0.00
387.70	35.11
387.89	23.41
388.09	86.60
388.28	0.00
388.48	0.00
388.67	0.00
388.86	0.00
389.06	14.04
389.25	46.81
389.45	56.17
389.64	0.00
389.84	16.38
390.03	0.00
390.22	0.00
390.42	46.81
390.61	14.04
390.81	0.00
391.00	0.00
391.19	0.00
391.39	0.00
391.58	44.47
391.78	0.00
391.97	25.75
392.16	0.00
392.36	0.00
392.55	84.26
392.75	53.83
392.94	39.79
393.13	0.00
393.33	18.72
393.52	14.04
393.71	0.00
393.91	9.36
394.10	51.49
394.29	0.00
394.49	37.45
394.68	0.00
394.88	77.24
395.07	0.00
395.26	39.79
395.46	35.11
395.65	53.83
395.84	51.49
396.04	86.60
396.23	0.00
396.42	30.43
396.62	81.92
396.81	9.36
397.00	16.38
397.19	112.35
397.39	0.00
397.58	35.11
397.77	0.00
397.97	46.81
398.16	63.19
398.35	51.49
398.55	0.00
398.74	65.54
398.93	35.11
399.12	28.09
399.32	0.00
399.51	25.75
399.70	39.79
399.90	35.11
400.09	98.30
400.28	18.72
400.47	35.11
400.67	79.58
400.86	58.51
401.05	21.06
401.24	32.77
401.44	30.43
401.63	11.70
401.82	32.77
402.01	98.30
402.21	0.00
402.40	32.77
402.59	21.06
402.78	79.58
402.97	60.85
403.17	46.81
403.36	21.06
403.55	49.15
403.74	32.77
403.93	32.77
404.13	44.47
404.32	0.00
404.51	51.49
404.70	53.83
404.89	0.00
405.09	0.00
405.28	0.00
405.47	30.43
405.66	30.43
405.85	28.09
406.05	53.83
406.24	79.58
406.43	58.51
406.62	30.43
406.81	74.90
407.00	72.56
407.20	25.75
407.39	105.32
407.58	32.77
407.77	4.68
407.96	70.22
408.15	0.00
408.34	0.00
408.54	28.09
408.73	9.36
408.92	58.51
409.11	53.83
409.30	11.70
409.49	0.00
409.68	42.13
409.87	37.45
410.07	7.02
410.26	42.13
410.45	0.00
410.64	63.19
410.83	60.85
411.02	0.00
411.21	0.00
411.40	44.47
411.59	4.68
411.78	81.92
411.98	39.79
412.17	0.00
412.36	0.00
412.55	9.36
412.74	114.69
412.93	114.69
413.12	65.54
413.31	37.45
413.50	86.60
413.69	39.79
413.88	81.92
414.07	42.13
414.26	88.94
414.45	18.72
414.64	9.36
414.83	2.34
415.02	37.45
415.22	9.36
415.41	126.39
415.60	32.77
415.79	72.56
415.98	65.54
416.17	49.15
416.36	58.51
416.55	0.00
416.74	0.00
416.93	124.05
417.12	35.11
417.31	39.79
417.50	67.88
417.69	44.47
417.88	56.17
418.07	65.54
418.26	0.00
418.45	84.26
418.64	149.79
418.83	35.11
419.02	18.72
419.21	4.68
419.39	7.02
419.58	32.77
419.77	23.41
419.96	30.43
420.15	53.83
420.34	0.00
420.53	88.94
420.72	28.09
420.91	0.00
421.10	39.79
421.29	21.06
421.48	65.54
421.67	28.09
421.86	58.51
422.05	81.92
422.24	35.11
422.43	51.49
422.61	44.47
422.80	42.13
422.99	60.85
423.18	0.00
423.37	63.19
423.56	49.15
423.75	14.04
423.94	67.88
424.13	105.32
424.32	23.41
424.50	25.75
424.69	53.83
424.88	86.60
425.07	65.54
425.26	0.00
425.45	72.56
425.64	53.83
425.83	0.00
426.01	2.34
426.20	81.92
426.39	0.00
426.58	9.36
426.77	51.49
426.96	25.75
427.15	44.47
427.33	0.00
427.52	0.00
427.71	0.00
427.90	21.06
428.09	25.75
428.28	32.77
428.46	42.13
428.65	63.19
428.84	0.00
429.03	74.90
429.22	9.36
429.40	14.04
429.59	0.00
429.78	25.75
429.97	46.81
430.16	44.47
430.34	74.90
430.53	56.17
430.72	37.45
430.91	49.15
431.10	0.00
431.28	9.36
431.47	21.06
431.66	0.00
431.85	56.17
432.03	46.81
432.22	0.00
432.41	86.60
432.60	56.17
432.79	44.47
432.97	39.79
433.16	98.30
433.35	81.92
433.54	14.04
433.72	2.34
433.91	100.64
434.10	21.06
434.28	0.00
434.47	74.90
434.66	44.47
434.85	46.81
435.03	14.04
435.22	0.00
435.41	14.04
435.59	121.71
435.78	0.00
435.97	39.79
436.16	72.56
436.34	16.38
436.53	100.64
436.72	147.45
436.90	14.04
437.09	46.81
437.28	60.85
437.46	65.54
437.65	37.45
437.84	58.51
438.02	42.13
438.21	93.62
438.40	56.17
438.58	100.64
438.77	74.90
438.96	11.70
439.14	77.24
439.33	53.83
439.52	58.51
439.70	53.83
439.89	4.68
440.08	30.43
440.26	44.47
440.45	21.06
440.63	88.94
440.82	81.92
441.01	39.79
441.19	11.70
441.38	51.49
441.57	30.43
441.75	60.85
441.94	42.13
442.12	67.88
442.31	11.70
442.50	77.24
442.68	105.32
442.87	30.43
443.05	7.02
443.24	58.51
443.43	32.77
443.61	105.32
443.80	11.70
443.98	0.00
444.17	81.92
444.35	14.04
444.54	39.79
444.73	74.90
444.91	14.04
445.10	51.49
445.28	77.24
445.47	60.85
445.65	7.02
445.84	53.83
446.02	135.75
446.21	28.09
446.39	58.51
446.58	86.60
446.77	95.96
446.95	86.60
447.14	77.24
447.32	117.03
447.51	98.30
447.69	9.36
447.88	49.15
448.06	42.13
448.25	110.01
448.43	100.64
448.62	70.22
448.80	18.72
448.99	42.13
449.17	49.15
449.36	0.00
449.54	30.43
449.73	16.38
449.91	18.72
450.10	35.11
450.28	117.03
450.46	23.41
450.65	67.88
450.83	49.15
451.02	0.00
451.20	32.77
451.39	60.85
451.57	79.58
451.76	37.45
451.94	53.83
452.13	72.56
452.31	46.81
452.49	74.90
452.68	84.26
452.86	28.09
453.05	14.04
453.23	11.70
453.42	53.83
453.60	32.77
453.78	81.92
453.97	39.79
454.15	88.94
454.34	53.83
454.52	79.58
454.70	81.92
454.89	39.79
455.07	32.77
455.26	39.79
455.44	65.54
455.62	74.90
455.81	93.62
455.99	25.75
456.17	25.75
456.36	25.75
456.54	35.11
456.73	63.19
456.91	16.38
457.09	74.90
457.28	28.09
457.46	70.22
457.64	91.28
457.83	46.81
458.01	35.11
458.19	18.72
458.38	7.02
458.56	56.17
458.74	32.77
458.93	107.66
459.11	95.96
459.29	58.51
459.48	138.09
459.66	11.70
459.84	0.00
460.03	42.13
460.21	65.54
460.39	102.98
460.57	9.36
460.76	4.68
460.94	42.13
461.12	86.60
461.31	53.83
461.49	102.98
461.67	81.92
461.85	93.62
462.04	74.90
462.22	72.56
462.40	67.88
462.59	91.28
462.77	67.88
462.95	58.51
463.13	51.49
463.32	51.49
463.50	49.15
463.68	0.00
463.86	93.62
464.05	93.62
464.23	7.02
464.41	56.17
464.59	81.92
464.78	60.85
464.96	39.79
465.14	72.56
465.32	51.49
465.50	91.28
465.69	0.00
465.87	35.11
466.05	58.51
466.23	35.11
466.41	114.69
466.60	86.60
466.78	91.28
466.96	18.72
467.14	56.17
467.32	53.83
467.51	63.19
467.69	81.92
467.87	58.51
468.05	77.24
468.23	110.01
468.41	65.54
468.60	0.00
468.78	91.28
468.96	30.43
469.14	9.36
469.32	100.64
469.50	65.54
469.69	39.79
469.87	0.00
470.05	42.13
470.23	72.56
470.41	42.13
470.59	42.13
470.77	67.88
470.95	65.54
471.14	28.09
471.32	84.26
471.50	67.88
471.68	74.90
471.86	0.00
472.04	25.75
472.22	32.77
472.40	81.92
472.58	44.47
472.77	81.92
472.95	79.58
473.13	88.94
473.31	114.69
473.49	25.75
473.67	21.06
473.85	105.32
474.03	44.47
474.21	81.92
474.39	67.88
474.57	23.41
474.75	49.15
474.93	102.98
475.12	65.54
475.30	46.81
475.48	58.51
475.66	18.72
475.84	7.02
476.02	28.09
476.20	4.68
476.38	102.98
476.56	51.49
476.74	63.19
476.92	46.81
477.10	46.81
477.28	147.45
477.46	145.11
477.64	37.45
477.82	72.56
478.00	86.60
478.18	56.17
478.36	95.96
478.54	58.51
478.72	84.26
478.90	0.00
479.08	102.98
479.26	63.19
479.44	105.32
479.62	44.47
479.80	98.30
479.98	4.68
480.16	23.41
480.34	77.24
480.52	107.66
480.70	53.83
480.88	79.58
481.06	28.09
481.24	95.96
481.41	46.81
481.59	98.30
481.77	70.22
481.95	95.96
482.13	107.66
482.31	126.39
482.49	23.41
482.67	77.24
482.85	63.19
483.03	58.51
483.21	88.94
483.39	25.75
483.57	60.85
483.74	42.13
483.92	51.49
484.10	74.90
484.28	56.17
484.46	51.49
484.64	60.85
484.82	0.00
485.00	140.43
485.18	149.79
485.35	65.54
485.53	114.69
485.71	67.88
485.89	49.15
486.07	2.34
486.25	37.45
486.43	112.35
486.61	0.00
486.78	124.05
486.96	56.17
487.14	98.30
487.32	0.00
487.50	72.56
487.68	30.43
487.85	46.81
488.03	91.28
488.21	67.88
488.39	0.00
488.57	60.85
488.75	63.19
488.92	180.22
489.10	63.19
489.28	28.09
489.46	131.07
489.64	44.47
489.81	42.13
489.99	65.54
490.17	44.47
490.35	93.62
490.53	25.75
490.70	107.66
490.88	0.00
491.06	128.73
491.24	84.26
491.41	35.11
491.59	56.17
491.77	56.17
491.95	32.77
492.13	131.07
492.30	102.98
492.48	84.26
492.66	58.51
492.84	63.19
493.01	16.38
493.19	4.68
493.37	67.88
493.54	65.54
493.72	105.32
493.90	126.39
494.08	81.92
494.25	72.56
494.43	37.45
494.61	25.75
494.79	98.30
494.96	44.47
495.14	124.05
495.32	49.15
495.49	86.60
495.67	67.88
495.85	58.51
496.02	67.88
496.20	0.00
496.38	102.98
496.55	46.81
496.73	37.45
496.91	58.51
497.09	84.26
497.26	119.37
497.44	67.88
497.62	65.54
497.79	21.06
497.97	131.07
498.14	79.58
498.32	70.22
498.50	46.81
498.67	105.32
498.85	112.35
499.03	105.32
499.20	23.41
499.38	70.22
499.56	84.26
499.73	84.26
499.91	23.41
500.08	124.05
500.26	56.17
500.44	102.98
500.61	39.79
500.79	46.81
500.97	63.19
501.14	60.85
501.32	53.83
501.49	51.49
501.67	88.94
501.84	74.90
502.02	4.68
502.20	98.30
502.37	135.75
502.55	74.90
502.72	131.07
502.90	88.94
503.07	16.38
503.25	53.83
503.43	142.77
503.60	63.19
503.78	49.15
503.95	117.03
504.13	93.62
504.30	91.28
504.48	25.75
504.65	67.88
504.83	98.30
505.01	149.79
505.18	65.54
505.36	86.60
505.53	42.13
505.71	70.22
505.88	39.79
506.06	37.45
506.23	91.28
506.41	67.88
506.58	35.11
506.76	91.28
506.93	30.43
507.11	37.45
507.28	70.22
507.46	84.26
507.63	77.24
507.81	74.90
507.98	84.26
508.16	23.41
508.33	63.19
508.50	98.30
508.68	46.81
508.85	58.51
509.03	46.81
509.20	100.64
509.38	117.03
509.55	16.38
509.73	128.73
509.90	77.24
510.08	67.88
510.25	51.49
510.42	154.48
510.60	67.88
510.77	58.51
510.95	16.38
511.12	77.24
511.30	67.88
511.47	91.28
511.64	77.24
511.82	98.30
511.99	18.72
512.17	9.36
512.34	67.88
512.51	25.75
512.69	44.47
512.86	110.01
513.04	67.88
513.21	79.58
513.38	79.58
513.56	102.98
513.73	117.03
513.90	121.71
514.08	121.71
514.25	131.07
514.43	121.71
514.60	37.45
514.77	70.22
514.95	70.22
515.12	58.51
515.29	175.54
515.47	25.75
515.64	58.51
515.81	81.92
515.99	86.60
516.16	100.64
516.33	11.70
516.51	119.37
516.68	102.98
516.85	53.83
517.03	112.35
517.20	107.66
517.37	70.22
517.54	72.56
517.72	166.18
517.89	138.09
518.06	79.58
518.24	49.15
518.41	60.85
518.58	98.30
518.75	100.64
518.93	67.88
519.10	74.90
519.27	112.35
519.45	39.79
519.62	107.66
519.79	112.35
519.96	100.64
520.14	168.52
520.31	81.92
520.48	95.96
520.65	2.34
520.83	56.17
521.00	53.83
521.17	140.43
521.34	42.13
521.52	4.68
521.69	25.75
521.86	168.52
522.03	35.11
522.20	114.69
522.38	117.03
522.55	121.71
522.72	60.85
522.89	100.64
523.07	70.22
523.24	14.04
523.41	105.32
523.58	124.05
523.75	84.26
523.92	86.60
524.10	95.96
524.27	28.09
524.44	32.77
524.61	65.54
524.78	35.11
524.96	114.69
525.13	131.07
525.30	131.07
525.47	77.24
525.64	93.62
525.81	39.79
525.98	112.35
526.16	126.39
526.33	128.73
526.50	152.13
526.67	138.09
526.84	95.96
527.01	84.26
527.18	23.41
527.36	70.22
527.53	135.75
527.70	102.98
527.87	63.19
528.04	84.26
528.21	152.13
528.38	140.43
528.55	72.56
528.72	84.26
528.89	51.49
529.07	107.66
529.24	152.13
529.41	100.64
529.58	110.01
529.75	84.26
529.92	110.01
530.09	98.30
530.26	42.13
530.43	105.32
530.60	77.24
530.77	95.96
530.94	131.07
531.11	117.03
531.28	93.62
531.46	35.11
531.63	67.88
531.80	23.41
531.97	93.62
532.14	60.85
532.31	107.66
532.48	79.58
532.65	138.09
532.82	28.09
532.99	81.92
533.16	39.79
533.33	46.81
533.50	81.92
533.67	110.01
533.84	126.39
534.01	93.62
534.18	173.20
534.35	74.90
534.52	102.98
534.69	86.60
534.86	42.13
535.03	84.26
535.20	65.54
535.37	60.85
535.54	23.41
535.71	110.01
535.88	46.81
536.05	126.39
536.22	35.11
536.38	81.92
536.55	98.30
536.72	49.15
536.89	65.54
537.06	163.84
537.23	105.32
537.40	93.62
537.57	84.26
537.74	93.62
537.91	74.90
538.08	77.24
538.25	88.94
538.42	35.11
538.59	147.45
538.75	0.00
538.92	46.81
539.09	63.19
539.26	88.94
539.43	91.28
539.60	30.43
539.77	91.28
539.94	44.47
540.11	117.03
540.28	39.79
540.44	105.32
540.61	72.56
540.78	112.35
540.95	81.92
541.12	147.45
541.29	79.58
541.46	79.58
541.62	70.22
541.79	84.26
541.96	70.22
542.13	121.71
542.30	102.98
542.47	81.92
542.63	56.17
542.80	138.09
542.97	35.11
543.14	77.24
543.31	39.79
543.48	95.96
543.64	105.32
543.81	67.88
543.98	88.94
544.15	107.66
544.32	138.09
544.48	135.75
544.65	42.13
544.82	63.19
544.99	74.90
545.16	93.62
545.32	70.22
545.49	70.22
545.66	79.58
545.83	154.48
546.00	124.05
546.16	58.51
546.33	28.09
546.50	152.13
546.67	77.24
546.83	110.01
547.00	121.71
547.17	112.35
547.34	93.62
547.50	88.94
547.67	126.39
547.84	60.85
548.00	65.54
548.17	110.01
548.34	93.62
548.51	28.09
548.67	93.62
548.84	77.24
549.01	86.60
549.18	67.88
549.34	86.60
549.51	72.56
549.68	44.47
549.84	77.24
550.01	65.54
550.18	70.22
550.34	72.56
550.51	107.66
550.68	86.60
550.84	84.26
551.01	161.50
551.18	46.81
551.34	93.62
551.51	142.77
551.68	65.54
551.84	114.69
552.01	51.49
552.18	166.18
552.34	32.77
552.51	32.77
552.68	70.22
552.84	70.22
553.01	105.32
553.18	65.54
553.34	91.28
553.51	84.26
553.67	93.62
553.84	77.24
554.01	56.17
554.17	128.73
554.34	91.28
554.51	112.35
554.67	9.36
554.84	93.62
555.00	35.11
555.17	79.58
555.33	53.83
555.50	84.26
555.67	4.68
555.83	44.47
556.00	74.90
556.16	102.98
556.33	84.26
556.50	65.54
556.66	138.09
556.83	93.62
556.99	98.30
557.16	88.94
557.32	135.75
557.49	126.39
557.65	100.64
557.82	100.64
557.98	124.05
558.15	53.83
558.32	58.51
558.48	100.64
558.65	100.64
558.81	81.92
558.98	51.49
559.14	49.15
559.31	72.56
559.47	131.07
559.64	81.92
559.80	51.49
559.97	84.26
560.13	70.22
560.30	140.43
560.46	16.38
560.63	88.94
560.79	60.85
560.96	18.72
561.12	138.09
561.29	51.49
561.45	145.11
561.61	46.81
561.78	58.51
561.94	56.17
562.11	65.54
562.27	30.43
562.44	128.73
562.60	65.54
562.77	147.45
562.93	32.77
563.10	18.72
563.26	72.56
563.42	81.92
563.59	117.03
563.75	126.39
563.92	56.17
564.08	58.51
564.24	77.24
564.41	124.05
564.57	65.54
564.74	72.56
564.90	107.66
565.07	42.13
565.23	42.13
565.39	42.13
565.56	60.85
565.72	51.49
565.88	53.83
566.05	49.15
566.21	37.45
566.38	98.30
566.54	121.71
566.70	131.07
566.87	121.71
567.03	30.43
567.19	91.28
567.36	135.75
567.52	11.70
567.68	51.49
567.85	86.60
568.01	37.45
568.17	95.96
568.34	91.28
568.50	77.24
568.66	79.58
568.83	77.24
568.99	56.17
569.15	51.49
569.32	60.85
569.48	51.49
569.64	98.30
569.81	51.49
569.97	110.01
570.13	107.66
570.30	88.94
570.46	74.90
570.62	119.37
570.78	67.88
570.95	86.60
571.11	93.62
571.27	30.43
571.43	88.94
571.60	142.77
571.76	86.60
571.92	0.00
572.09	53.83
572.25	154.48
572.41	95.96
572.57	0.00
572.74	39.79
572.90	100.64
573.06	39.79
573.22	105.32
573.38	18.72
573.55	74.90
573.71	91.28
573.87	60.85
574.03	86.60
574.20	0.00
574.36	44.47
574.52	126.39
574.68	102.98
574.84	16.38
575.01	163.84
575.17	74.90
575.33	0.00
575.49	102.98
575.65	110.01
575.82	25.75
575.98	51.49
576.14	67.88
576.30	88.94
576.46	100.64
576.62	77.24
576.79	37.45
576.95	86.60
577.11	72.56
577.27	67.88
577.43	77.24
577.59	70.22
577.75	112.35
577.92	88.94
578.08	121.71
578.24	77.24
578.40	39.79
578.56	72.56
578.72	44.47
578.88	86.60
579.04	84.26
579.21	93.62
579.37	51.49
579.53	84.26
579.69	72.56
579.85	28.09
580.01	81.92
580.17	18.72
580.33	77.24
580.49	114.69
580.65	35.11
580.82	100.64
580.98	72.56
581.14	58.51
581.30	44.47
581.46	23.41
581.62	138.09
581.78	46.81
581.94	93.62
582.10	119.37
582.26	93.62
582.42	65.54
582.58	112.35
582.74	91.28
582.90	147.45
583.06	86.60
583.22	117.03
583.38	81.92
583.54	28.09
583.70	65.54
583.86	53.83
584.02	51.49
584.18	119.37
584.34	39.79
584.50	91.28
584.66	53.83
584.82	79.58
584.98	79.58
585.14	124.05
585.30	30.43
585.46	74.90
585.62	60.85
585.78	102.98
585.94	9.36
586.10	110.01
586.26	81.92
586.42	91.28
586.58	65.54
586.74	93.62
586.90	138.09
587.06	49.15
587.22	42.13
587.38	77.24
587.54	95.96
587.70	0.00
587.86	91.28
588.02	42.13
588.18	86.60
588.34	67.88
588.49	0.00
588.65	0.00
588.81	58.51
588.97	114.69
589.13	131.07
589.29	142.77
589.45	74.90
589.61	74.90
589.77	74.90
589.93	9.36
590.08	112.35
590.24	112.35
590.40	53.83
590.56	42.13
590.72	93.62
590.88	102.98
591.04	58.51
591.20	60.85
591.35	70.22
591.51	107.66
591.67	4.68
591.83	60.85
591.99	142.77
592.15	37.45
592.31	107.66
592.46	28.09
592.62	42.13
592.78	81.92
592.94	86.60
593.10	25.75
593.26	81.92
593.41	72.56
593.57	2.34
593.73	51.49
593.89	100.64
594.05	23.41
594.20	81.92
594.36	39.79
594.52	86.60
594.68	112.35
594.84	65.54
594.99	98.30
595.15	53.83
595.31	0.00
595.47	74.90
595.62	79.58
595.78	102.98
595.94	46.81
596.10	72.56
596.25	65.54
596.41	124.05
596.57	110.01
596.73	46.81
596.88	25.75
597.04	81.92
597.20	79.58
597.36	16.38
597.51	44.47
597.67	49.15
597.83	44.47
597.99	79.58
598.14	35.11
598.30	21.06
598.46	14.04
598.61	42.13
598.77	77.24
598.93	100.64
599.09	86.60
599.24	84.26
599.40	49.15
599.56	84.26
599.71	84.26
599.87	58.51
600.03	117.03
600.18	32.77
600.34	70.22
600.50	138.09
600.65	81.92
600.81	98.30
600.97	102.98
601.12	163.84
601.28	84.26
601.44	72.56
601.59	63.19
601.75	42.13
601.91	44.47
602.06	65.54
602.22	102.98
602.37	63.19
602.53	74.90
602.69	16.38
602.84	67.88
603.00	79.58
603.16	65.54
603.31	72.56
603.47	51.49
603.62	77.24
603.78	9.36
603.94	70.22
604.09	0.00
604.25	72.56
604.40	63.19
604.56	42.13
604.71	117.03
604.87	65.54
605.03	72.56
605.18	79.58
605.34	79.58
605.49	145.11
605.65	67.88
605.80	53.83
605.96	95.96
606.12	79.58
606.27	46.81
606.43	39.79
606.58	56.17
606.74	39.79
606.89	51.49
607.05	11.70
607.20	21.06
607.36	63.19
607.51	107.66
607.67	0.00
607.82	63.19
607.98	46.81
608.13	56.17
608.29	65.54
608.44	91.28
608.60	67.88
608.75	42.13
608.91	37.45
609.06	51.49
609.22	46.81
609.37	98.30
609.53	140.43
609.68	72.56
609.84	56.17
609.99	23.41
610.15	14.04
610.30	117.03
610.46	79.58
610.61	100.64
610.76	4.68
610.92	91.28
611.07	91.28
611.23	81.92
611.38	58.51
611.54	84.26
611.69	42.13
611.84	102.98
612.00	42.13
612.15	107.66
612.31	100.64
612.46	114.69
612.62	88.94
612.77	117.03
612.92	58.51
613.08	30.43
613.23	58.51
613.39	79.58
613.54	32.77
613.69	72.56
613.85	28.09
614.00	63.19
614.15	74.90
614.31	114.69
614.46	39.79
614.62	39.79
614.77	11.70
614.92	14.04
615.08	56.17
615.23	100.64
615.38	72.56
615.54	53.83
615.69	44.47
615.84	42.13
616.00	42.13
616.15	11.70
616.30	70.22
616.46	63.19
616.61	70.22
616.76	93.62
616.92	79.58
617.07	168.52
617.22	102.98
617.37	44.47
617.53	58.51
617.68	124.05
617.83	39.79
617.99	65.54
618.14	46.81
618.29	42.13
618.45	0.00
618.60	42.13
618.75	110.01
618.90	46.81
619.06	9.36
619.21	74.90
619.36	74.90
619.51	35.11
619.67	56.17
619.82	77.24
619.97	51.49
620.12	58.51
620.28	105.32
620.43	84.26
620.58	0.00
620.73	77.24
620.89	25.75
621.04	32.77
621.19	51.49
621.34	39.79
621.49	67.88
621.65	42.13
621.80	128.73
621.95	18.72
622.10	93.62
622.25	42.13
622.41	4.68
622.56	86.60
622.71	53.83
622.86	65.54
623.01	112.35
623.16	2.34
623.32	16.38
623.47	70.22
623.62	42.13
623.77	121.71
623.92	70.22
624.07	67.88
624.23	4.68
624.38	58.51
624.53	18.72
624.68	88.94
624.83	56.17
624.98	93.62
625.13	114.69
625.29	51.49
625.44	42.13
625.59	93.62
625.74	93.62
625.89	49.15
626.04	46.81
626.19	117.03
626.34	107.66
626.49	56.17
626.65	110.01
626.80	56.17
626.95	105.32
627.10	9.36
627.25	4.68
627.40	28.09
627.55	72.56
627.70	112.35
627.85	121.71
628.00	7.02
628.15	67.88
628.30	60.85
628.45	88.94
628.60	46.81
628.76	105.32
628.91	32.77
629.06	70.22
629.21	81.92
629.36	98.30
629.51	112.35
629.66	21.06
629.81	42.13
629.96	86.60
630.11	51.49
630.26	67.88
630.41	72.56
630.56	67.88
630.71	77.24
630.86	105.32
631.01	58.51
631.16	39.79
631.31	65.54
631.46	72.56
631.61	65.54
631.76	14.04
631.91	46.81
632.06	74.90
632.21	58.51
632.36	39.79
632.51	23.41
632.66	0.00
632.81	39.79
632.96	60.85
633.10	95.96
633.25	42.13
633.40	0.00
633.55	7.02
633.70	4.68
633.85	16.38
634.00	74.90
634.15	0.00
634.30	72.56
634.45	93.62
634.60	49.15
634.75	35.11
634.90	65.54
635.05	110.01
635.19	58.51
635.34	72.56
635.49	28.09
635.64	107.66
635.79	0.00
635.94	124.05
636.09	11.70
636.24	72.56
636.39	42.13
636.53	23.41
636.68	60.85
636.83	21.06
636.98	114.69
637.13	35.11
637.28	70.22
637.43	112.35
637.57	63.19
637.72	72.56
637.87	72.56
638.02	63.19
638.17	25.75
638.32	46.81
638.46	51.49
638.61	102.98
638.76	63.19
638.91	28.09
639.06	70.22
639.20	88.94
639.35	95.96
639.50	56.17
639.65	30.43
639.80	65.54
639.94	93.62
640.09	95.96
640.24	81.92
640.39	81.92
640.54	0.00
640.68	0.00
640.83	28.09
640.98	98.30
641.13	81.92
641.27	56.17
641.42	37.45
641.57	156.82
641.72	93.62
641.86	67.88
642.01	30.43
642.16	81.92
642.31	51.49
642.45	28.09
642.60	72.56
642.75	42.13
642.90	58.51
643.04	53.83
643.19	105.32
643.34	77.24
643.48	58.51
643.63	25.75
643.78	135.75
643.93	81.92
644.07	84.26
644.22	32.77
644.37	72.56
644.51	112.35
644.66	79.58
644.81	114.69
644.95	51.49
645.10	56.17
645.25	49.15
645.39	37.45
645.54	70.22
645.69	53.83
645.83	77.24
645.98	30.43
646.13	53.83
646.27	124.05
646.42	21.06
646.57	67.88
646.71	60.85
646.86	9.36
647.00	35.11
647.15	56.17
647.30	79.58
647.44	63.19
647.59	0.00
647.74	37.45
647.88	63.19
648.03	74.90
648.17	58.51
648.32	11.70
648.47	14.04
648.61	46.81
648.76	56.17
648.90	105.32
649.05	98.30
649.20	28.09
649.34	53.83
649.49	0.00
649.63	74.90
649.78	32.77
649.92	67.88
650.07	63.19
650.21	30.43
650.36	49.15
650.51	86.60
650.65	25.75
650.80	56.17
650.94	0.00
651.09	30.43
651.23	46.81
651.38	9.36
651.52	7.02
651.67	63.19
651.81	18.72
651.96	44.47
652.10	49.15
652.25	37.45
652.39	32.77
652.54	100.64
652.68	79.58
652.83	25.75
652.97	4.68
653.12	86.60
653.26	65.54
653.41	72.56
653.55	9.36
653.70	32.77
653.84	72.56
653.99	32.77
654.13	35.11
654.27	86.60
654.42	117.03
654.56	0.00
654.71	72.56
654.85	63.19
655.00	98.30
655.14	30.43
655.29	23.41
655.43	142.77
655.57	81.92
655.72	21.06
655.86	86.60
656.01	117.03
656.15	49.15
656.30	42.13
656.44	0.00
656.58	42.13
656.73	70.22
656.87	72.56
657.01	110.01
657.16	63.19
657.30	42.13
657.45	95.96
657.59	63.19
657.73	14.04
657.88	53.83
658.02	81.92
658.16	51.49
658.31	16.38
658.45	81.92
658.60	117.03
658.74	49.15
658.88	25.75
659.03	0.00
659.17	21.06
659.31	49.15
659.46	79.58
659.60	30.43
659.74	30.43
659.89	79.58
660.03	0.00
660.17	114.69
660.32	77.24
660.46	93.62
660.60	135.75
660.74	79.58
660.89	86.60
661.03	46.81
661.17	28.09
661.32	81.92
661.46	39.79
661.60	93.62
661.74	152.13
661.89	53.83
662.03	70.22
662.17	93.62
662.31	46.81
662.46	25.75
662.60	18.72
662.74	0.00
662.88	0.00
663.03	81.92
663.17	56.17
663.31	46.81
663.45	60.85
663.60	11.70
663.74	11.70
663.88	18.72
664.02	114.69
664.17	37.45
664.31	39.79
664.45	56.17
664.59	25.75
664.73	18.72
664.88	0.00
665.02	25.75
665.16	60.85
665.30	30.43
665.44	65.54
665.59	70.22
665.73	35.11
665.87	72.56
666.01	35.11
666.15	86.60
666.29	0.00
666.44	102.98
666.58	86.60
666.72	0.00
666.86	53.83
667.00	37.45
667.14	81.92
667.28	42.13
667.43	124.05
667.57	84.26
667.71	25.75
667.85	63.19
667.99	44.47
668.13	170.86
668.27	51.49
668.41	84.26
668.56	58.51
668.70	53.83
668.84	0.00
668.98	65.54
669.12	114.69
669.26	30.43
669.40	35.11
669.54	95.96
669.68	51.49
669.82	63.19
669.96	112.35
670.10	77.24
670.25	0.00
670.39	91.28
670.53	39.79
670.67	72.56
670.81	0.00
670.95	0.00
671.09	32.77
671.23	0.00
671.37	100.64
671.51	4.68
671.65	72.56
671.79	131.07
671.93	51.49
672.07	79.58
672.21	84.26
672.35	79.58
672.49	9.36
672.63	42.13
672.77	16.38
672.91	0.00
673.05	7.02
673.19	23.41
673.33	32.77
673.47	4.68
673.61	86.60
673.75	32.77
673.89	39.79
674.03	51.49
674.17	0.00
674.31	0.00
674.45	58.51
674.59	63.19
674.73	25.75
674.87	128.73
675.01	32.77
675.15	67.88
675.29	18.72
675.43	35.11
675.56	70.22
675.70	32.77
675.84	107.66
675.98	35.11
676.12	51.49
676.26	35.11
676.40	117.03
676.54	37.45
676.68	16.38
676.82	67.88
676.96	18.72
677.10	86.60
677.23	16.38
677.37	112.35
677.51	32.77
677.65	63.19
677.79	72.56
677.93	32.77
678.07	65.54
678.21	49.15
678.34	72.56
678.48	14.04
678.62	84.26
678.76	0.00
678.90	46.81
679.04	37.45
679.18	18.72
679.31	70.22
679.45	16.38
679.59	53.83
679.73	72.56
679.87	14.04
680.00	23.41
680.14	30.43
680.28	51.49
680.42	37.45
680.56	28.09
680.70	65.54
680.83	28.09
680.97	30.43
681.11	63.19
681.25	58.51
681.39	88.94
681.52	39.79
681.66	53.83
681.80	126.39
681.94	140.43
682.07	23.41
682.21	18.72
682.35	37.45
682.49	23.41
682.62	42.13
682.76	39.79
682.90	46.81
683.04	23.41
683.17	35.11
683.31	72.56
683.45	39.79
683.59	21.06
683.72	98.30
683.86	25.75
684.00	51.49
684.13	23.41
684.27	46.81
684.41	86.60
684.55	0.00
684.68	44.47
684.82	25.75
684.96	30.43
685.09	0.00
685.23	21.06
685.37	63.19
685.50	23.41
685.64	51.49
685.78	70.22
685.91	126.39
686.05	53.83
686.19	25.75
686.32	65.54
686.46	0.00
686.60	53.83
686.73	42.13
686.87	35.11
687.01	32.77
687.14	72.56
687.28	21.06
687.42	0.00
687.55	32.77
687.69	46.81
687.82	4.68
687.96	9.36
688.10	46.81
688.23	32.77
688.37	0.00
688.50	42.13
688.64	77.24
688.78	77.24
688.91	44.47
689.05	77.24
689.18	14.04
689.32	7.02
689.46	32.77
689.59	32.77
689.73	110.01
689.86	39.79
690.00	30.43
690.13	74.90
690.27	7.02
690.41	51.49
690.54	60.85
690.68	0.00
690.81	28.09
690.95	58.51
691.08	9.36
691.22	25.75
691.35	65.54
691.49	140.43
691.62	88.94
691.76	53.83
691.89	0.00
692.03	53.83
692.16	30.43
692.30	49.15
692.43	0.00
692.57	39.79
692.70	42.13
692.84	100.64
692.97	16.38
693.11	0.00
693.24	32.77
693.38	107.66
693.51	0.00
693.65	88.94
693.78	49.15
693.92	72.56
694.05	70.22
694.19	39.79
694.32	0.00
694.45	86.60
694.59	58.51
694.72	32.77
694.86	86.60
694.99	28.09
695.13	51.49
695.26	32.77
695.39	53.83
695.53	30.43
695.66	60.85
695.80	39.79
695.93	32.77
696.07	91.28
696.20	53.83
696.33	0.00
696.47	11.70
696.60	110.01
696.73	91.28
696.87	58.51
697.00	35.11
697.14	2.34
697.27	0.00
697.40	23.41
697.54	21.06
697.67	0.00
697.80	0.00
697.94	0.00
698.07	0.00
698.21	0.00
698.34	42.13
698.47	35.11
698.61	0.00
698.74	58.51
698.87	30.43
699.01	0.00
699.14	0.00
699.27	79.58
699.40	28.09
699.54	0.00
699.67	60.85
699.80	67.88
699.94	67.88
700.07	0.00
700.20	30.43
700.34	14.04
700.47	30.43
700.60	4.68
700.73	0.00
700.87	84.26
701.00	14.04
701.13	105.32
701.26	95.96
701.40	0.00
701.53	117.03
701.66	14.04
701.79	84.26
701.93	114.69
702.06	60.85
702.19	30.43
702.32	11.70
702.46	14.04
702.59	56.17
702.72	21.06
702.85	60.85
702.99	9.36
703.12	14.04
703.25	11.70
703.38	28.09
703.51	0.00
703.65	28.09
703.78	7.02
703.91	30.43
704.04	63.19
704.17	44.47
704.31	74.90
704.44	0.00
704.57	30.43
704.70	4.68
704.83	44.47
704.96	53.83
705.10	32.77
705.23	37.45
>>>>>End Processed Spectral Data<<<<<
