SpectraSuite Data File
++++++++++++++++++++++++++++++++++++
Date: Fri Oct 04 12:13:24 GMT-05:00 2013
User: price-jones
Dark Spectrum Present: No
Reference Spectrum Present: No
Number of Sampled Component Spectra: 1
Spectrometers: USB2+H05261
Integration Time (usec): 10000 (USB2+H05261)
Spectra Averaged: 1 (USB2+H05261)
Boxcar Smoothing: 0 (USB2+H05261)
Correct for Electrical Dark: No (USB2+H05261)
Strobe/Lamp Enabled: No (USB2+H05261)
Correct for Detector Non-linearity: No (USB2+H05261)
Correct for Stray Light: No (USB2+H05261)
Number of Pixels in Processed Spectrum: 2048
>>>>>Begin Processed Spectral Data<<<<<
365.73	0.00
365.92	0.00
366.12	0.00
366.32	0.00
366.52	0.00
366.72	0.00
366.91	0.00
367.11	0.00
367.31	0.00
367.51	0.00
367.70	0.00
367.90	0.00
368.10	0.00
368.30	0.00
368.49	0.00
368.69	0.00
368.89	0.00
369.09	0.00
369.28	0.00
369.48	0.00
369.68	0.00
369.87	0.00
370.07	0.00
370.27	0.00
370.47	0.00
370.66	0.00
370.86	0.00
371.06	0.00
371.25	0.00
371.45	0.00
371.65	0.00
371.84	11.70
372.04	0.00
372.24	0.00
372.44	7.02
372.63	30.43
372.83	0.00
373.03	35.11
373.22	0.00
373.42	72.56
373.62	0.00
373.81	56.17
374.01	32.77
374.21	65.54
374.40	65.54
374.60	53.83
374.79	0.00
374.99	138.09
375.19	51.49
375.38	0.00
375.58	0.00
375.78	60.85
375.97	35.11
376.17	77.24
376.37	30.43
376.56	44.47
376.76	21.06
376.95	0.00
377.15	49.15
377.35	0.00
377.54	72.56
377.74	0.00
377.93	56.17
378.13	74.90
378.33	51.49
378.52	0.00
378.72	0.00
378.91	0.00
379.11	56.17
379.31	14.04
379.50	37.45
379.70	9.36
379.89	51.49
380.09	46.81
380.28	23.41
380.48	21.06
380.68	0.00
380.87	0.00
381.07	37.45
381.26	0.00
381.46	4.68
381.65	9.36
381.85	0.00
382.04	56.17
382.24	0.00
382.43	21.06
382.63	7.02
382.83	0.00
383.02	0.00
383.22	67.88
383.41	39.79
383.61	23.41
383.80	25.75
384.00	4.68
384.19	42.13
384.39	0.00
384.58	65.54
384.78	0.00
384.97	39.79
385.17	32.77
385.36	23.41
385.56	18.72
385.75	37.45
385.95	56.17
386.14	0.00
386.34	72.56
386.53	32.77
386.72	35.11
386.92	0.00
387.11	0.00
387.31	0.00
387.50	21.06
387.70	0.00
387.89	0.00
388.09	0.00
388.28	0.00
388.48	23.41
388.67	0.00
388.86	0.00
389.06	18.72
389.25	93.62
389.45	37.45
389.64	0.00
389.84	32.77
390.03	63.19
390.22	63.19
390.42	0.00
390.61	23.41
390.81	18.72
391.00	0.00
391.19	42.13
391.39	110.01
391.58	0.00
391.78	21.06
391.97	4.68
392.16	63.19
392.36	21.06
392.55	88.94
392.75	0.00
392.94	30.43
393.13	74.90
393.33	18.72
393.52	25.75
393.71	23.41
393.91	35.11
394.10	42.13
394.29	0.00
394.49	56.17
394.68	0.00
394.88	23.41
395.07	16.38
395.26	84.26
395.46	0.00
395.65	25.75
395.84	88.94
396.04	32.77
396.23	39.79
396.42	39.79
396.62	0.00
396.81	0.00
397.00	28.09
397.19	77.24
397.39	39.79
397.58	28.09
397.77	0.00
397.97	4.68
398.16	74.90
398.35	0.00
398.55	46.81
398.74	11.70
398.93	56.17
399.12	51.49
399.32	39.79
399.51	53.83
399.70	0.00
399.90	39.79
400.09	42.13
400.28	16.38
400.47	0.00
400.67	2.34
400.86	77.24
401.05	25.75
401.24	0.00
401.44	79.58
401.63	23.41
401.82	0.00
402.01	39.79
402.21	30.43
402.40	9.36
402.59	30.43
402.78	14.04
402.97	14.04
403.17	7.02
403.36	16.38
403.55	0.00
403.74	70.22
403.93	14.04
404.13	35.11
404.32	0.00
404.51	18.72
404.70	32.77
404.89	44.47
405.09	21.06
405.28	0.00
405.47	0.00
405.66	9.36
405.85	140.43
406.05	16.38
406.24	0.00
406.43	18.72
406.62	14.04
406.81	23.41
407.00	7.02
407.20	93.62
407.39	0.00
407.58	42.13
407.77	0.00
407.96	14.04
408.15	0.00
408.34	32.77
408.54	0.00
408.73	81.92
408.92	0.00
409.11	0.00
409.30	37.45
409.49	49.15
409.68	4.68
409.87	39.79
410.07	100.64
410.26	0.00
410.45	0.00
410.64	39.79
410.83	35.11
411.02	23.41
411.21	37.45
411.40	84.26
411.59	88.94
411.78	35.11
411.98	0.00
412.17	0.00
412.36	81.92
412.55	14.04
412.74	39.79
412.93	70.22
413.12	9.36
413.31	70.22
413.50	16.38
413.69	37.45
413.88	0.00
414.07	0.00
414.26	74.90
414.45	0.00
414.64	0.00
414.83	14.04
415.02	0.00
415.22	105.32
415.41	35.11
415.60	9.36
415.79	51.49
415.98	18.72
416.17	0.00
416.36	9.36
416.55	46.81
416.74	18.72
416.93	28.09
417.12	16.38
417.31	0.00
417.50	30.43
417.69	86.60
417.88	63.19
418.07	42.13
418.26	30.43
418.45	37.45
418.64	2.34
418.83	39.79
419.02	23.41
419.21	2.34
419.39	35.11
419.58	102.98
419.77	0.00
419.96	0.00
420.15	56.17
420.34	30.43
420.53	49.15
420.72	60.85
420.91	107.66
421.10	53.83
421.29	2.34
421.48	0.00
421.67	67.88
421.86	23.41
422.05	9.36
422.24	7.02
422.43	0.00
422.61	0.00
422.80	11.70
422.99	25.75
423.18	65.54
423.37	105.32
423.56	58.51
423.75	0.00
423.94	0.00
424.13	60.85
424.32	110.01
424.50	37.45
424.69	0.00
424.88	58.51
425.07	9.36
425.26	53.83
425.45	2.34
425.64	0.00
425.83	0.00
426.01	0.00
426.20	0.00
426.39	0.00
426.58	0.00
426.77	0.00
426.96	86.60
427.15	60.85
427.33	16.38
427.52	0.00
427.71	9.36
427.90	56.17
428.09	32.77
428.28	28.09
428.46	0.00
428.65	42.13
428.84	0.00
429.03	65.54
429.22	0.00
429.40	0.00
429.59	28.09
429.78	114.69
429.97	32.77
430.16	70.22
430.34	91.28
430.53	74.90
430.72	9.36
430.91	0.00
431.10	7.02
431.28	25.75
431.47	0.00
431.66	0.00
431.85	14.04
432.03	42.13
432.22	51.49
432.41	21.06
432.60	84.26
432.79	44.47
432.97	37.45
433.16	63.19
433.35	23.41
433.54	35.11
433.72	16.38
433.91	16.38
434.10	0.00
434.28	37.45
434.47	84.26
434.66	86.60
434.85	74.90
435.03	53.83
435.22	23.41
435.41	0.00
435.59	14.04
435.78	0.00
435.97	16.38
436.16	11.70
436.34	2.34
436.53	53.83
436.72	105.32
436.90	23.41
437.09	84.26
437.28	9.36
437.46	0.00
437.65	56.17
437.84	30.43
438.02	65.54
438.21	30.43
438.40	88.94
438.58	0.00
438.77	49.15
438.96	42.13
439.14	105.32
439.33	46.81
439.52	0.00
439.70	0.00
439.89	0.00
440.08	4.68
440.26	0.00
440.45	63.19
440.63	28.09
440.82	30.43
441.01	37.45
441.19	0.00
441.38	0.00
441.57	9.36
441.75	0.00
441.94	23.41
442.12	32.77
442.31	0.00
442.50	11.70
442.68	0.00
442.87	4.68
443.05	67.88
443.24	60.85
443.43	102.98
443.61	79.58
443.80	0.00
443.98	21.06
444.17	32.77
444.35	0.00
444.54	42.13
444.73	51.49
444.91	35.11
445.10	0.00
445.28	74.90
445.47	0.00
445.65	14.04
445.84	100.64
446.02	65.54
446.21	63.19
446.39	86.60
446.58	44.47
446.77	49.15
446.95	0.00
447.14	128.73
447.32	49.15
447.51	25.75
447.69	67.88
447.88	25.75
448.06	0.00
448.25	91.28
448.43	0.00
448.62	32.77
448.80	37.45
448.99	65.54
449.17	21.06
449.36	21.06
449.54	18.72
449.73	53.83
449.91	23.41
450.10	56.17
450.28	74.90
450.46	93.62
450.65	84.26
450.83	98.30
451.02	16.38
451.20	60.85
451.39	58.51
451.57	21.06
451.76	86.60
451.94	49.15
452.13	28.09
452.31	32.77
452.49	60.85
452.68	4.68
452.86	35.11
453.05	0.00
453.23	0.00
453.42	142.77
453.60	56.17
453.78	79.58
453.97	30.43
454.15	79.58
454.34	21.06
454.52	30.43
454.70	63.19
454.89	28.09
455.07	74.90
455.26	9.36
455.44	70.22
455.62	46.81
455.81	37.45
455.99	16.38
456.17	9.36
456.36	88.94
456.54	0.00
456.73	98.30
456.91	9.36
457.09	32.77
457.28	7.02
457.46	30.43
457.64	11.70
457.83	65.54
458.01	35.11
458.19	49.15
458.38	28.09
458.56	72.56
458.74	112.35
458.93	0.00
459.11	65.54
459.29	77.24
459.48	23.41
459.66	74.90
459.84	42.13
460.03	124.05
460.21	56.17
460.39	0.00
460.57	0.00
460.76	84.26
460.94	147.45
461.12	70.22
461.31	42.13
461.49	0.00
461.67	0.00
461.85	0.00
462.04	42.13
462.22	77.24
462.40	14.04
462.59	35.11
462.77	0.00
462.95	67.88
463.13	30.43
463.32	102.98
463.50	0.00
463.68	67.88
463.86	88.94
464.05	70.22
464.23	95.96
464.41	39.79
464.59	11.70
464.78	23.41
464.96	91.28
465.14	23.41
465.32	23.41
465.50	58.51
465.69	53.83
465.87	0.00
466.05	49.15
466.23	4.68
466.41	30.43
466.60	70.22
466.78	88.94
466.96	0.00
467.14	35.11
467.32	28.09
467.51	70.22
467.69	112.35
467.87	74.90
468.05	42.13
468.23	107.66
468.41	32.77
468.60	0.00
468.78	58.51
468.96	23.41
469.14	91.28
469.32	4.68
469.50	4.68
469.69	0.00
469.87	51.49
470.05	39.79
470.23	91.28
470.41	21.06
470.59	0.00
470.77	88.94
470.95	63.19
471.14	18.72
471.32	23.41
471.50	51.49
471.68	0.00
471.86	9.36
472.04	86.60
472.22	44.47
472.40	79.58
472.58	23.41
472.77	46.81
472.95	44.47
473.13	44.47
473.31	0.00
473.49	81.92
473.67	51.49
473.85	11.70
474.03	77.24
474.21	0.00
474.39	63.19
474.57	0.00
474.75	121.71
474.93	16.38
475.12	9.36
475.30	0.00
475.48	42.13
475.66	14.04
475.84	74.90
476.02	49.15
476.20	60.85
476.38	86.60
476.56	16.38
476.74	7.02
476.92	128.73
477.10	25.75
477.28	42.13
477.46	25.75
477.64	42.13
477.82	0.00
478.00	0.00
478.18	25.75
478.36	30.43
478.54	23.41
478.72	84.26
478.90	60.85
479.08	51.49
479.26	72.56
479.44	0.00
479.62	46.81
479.80	63.19
479.98	65.54
480.16	56.17
480.34	0.00
480.52	2.34
480.70	60.85
480.88	79.58
481.06	9.36
481.24	25.75
481.41	60.85
481.59	0.00
481.77	23.41
481.95	46.81
482.13	60.85
482.31	37.45
482.49	9.36
482.67	25.75
482.85	9.36
483.03	60.85
483.21	51.49
483.39	79.58
483.57	28.09
483.74	72.56
483.92	37.45
484.10	72.56
484.28	0.00
484.46	53.83
484.64	51.49
484.82	4.68
485.00	37.45
485.18	0.00
485.35	14.04
485.53	2.34
485.71	60.85
485.89	0.00
486.07	49.15
486.25	23.41
486.43	86.60
486.61	18.72
486.78	37.45
486.96	79.58
487.14	46.81
487.32	28.09
487.50	7.02
487.68	142.77
487.85	0.00
488.03	84.26
488.21	46.81
488.39	44.47
488.57	0.00
488.75	0.00
488.92	44.47
489.10	58.51
489.28	44.47
489.46	95.96
489.64	16.38
489.81	14.04
489.99	142.77
490.17	28.09
490.35	65.54
490.53	42.13
490.70	84.26
490.88	112.35
491.06	0.00
491.24	23.41
491.41	7.02
491.59	7.02
491.77	65.54
491.95	42.13
492.13	35.11
492.30	21.06
492.48	37.45
492.66	67.88
492.84	23.41
493.01	51.49
493.19	16.38
493.37	44.47
493.54	23.41
493.72	42.13
493.90	63.19
494.08	58.51
494.25	0.00
494.43	56.17
494.61	44.47
494.79	0.00
494.96	46.81
495.14	63.19
495.32	51.49
495.49	100.64
495.67	0.00
495.85	49.15
496.02	46.81
496.20	70.22
496.38	93.62
496.55	42.13
496.73	63.19
496.91	25.75
497.09	30.43
497.26	0.00
497.44	18.72
497.62	0.00
497.79	7.02
497.97	0.00
498.14	95.96
498.32	72.56
498.50	11.70
498.67	67.88
498.85	58.51
499.03	112.35
499.20	9.36
499.38	23.41
499.56	23.41
499.73	84.26
499.91	14.04
500.08	42.13
500.26	86.60
500.44	88.94
500.61	93.62
500.79	81.92
500.97	110.01
501.14	56.17
501.32	0.00
501.49	126.39
501.67	42.13
501.84	16.38
502.02	32.77
502.20	0.00
502.37	21.06
502.55	39.79
502.72	0.00
502.90	105.32
503.07	51.49
503.25	25.75
503.43	21.06
503.60	49.15
503.78	0.00
503.95	56.17
504.13	21.06
504.30	11.70
504.48	14.04
504.65	72.56
504.83	65.54
505.01	46.81
505.18	60.85
505.36	70.22
505.53	65.54
505.71	35.11
505.88	49.15
506.06	14.04
506.23	30.43
506.41	44.47
506.58	23.41
506.76	42.13
506.93	49.15
507.11	53.83
507.28	39.79
507.46	119.37
507.63	100.64
507.81	4.68
507.98	28.09
508.16	18.72
508.33	102.98
508.50	28.09
508.68	0.00
508.85	0.00
509.03	70.22
509.20	86.60
509.38	65.54
509.55	51.49
509.73	84.26
509.90	11.70
510.08	58.51
510.25	77.24
510.42	0.00
510.60	25.75
510.77	81.92
510.95	28.09
511.12	28.09
511.30	86.60
511.47	74.90
511.64	49.15
511.82	37.45
511.99	53.83
512.17	95.96
512.34	9.36
512.51	0.00
512.69	117.03
512.86	117.03
513.04	23.41
513.21	7.02
513.38	35.11
513.56	35.11
513.73	14.04
513.90	0.00
514.08	49.15
514.25	0.00
514.43	72.56
514.60	14.04
514.77	42.13
514.95	21.06
515.12	37.45
515.29	4.68
515.47	81.92
515.64	0.00
515.81	93.62
515.99	35.11
516.16	37.45
516.33	81.92
516.51	88.94
516.68	30.43
516.85	14.04
517.03	95.96
517.20	114.69
517.37	35.11
517.54	42.13
517.72	63.19
517.89	100.64
518.06	65.54
518.24	79.58
518.41	79.58
518.58	84.26
518.75	91.28
518.93	128.73
519.10	58.51
519.27	117.03
519.45	28.09
519.62	53.83
519.79	91.28
519.96	42.13
520.14	0.00
520.31	84.26
520.48	39.79
520.65	18.72
520.83	37.45
521.00	32.77
521.17	79.58
521.34	84.26
521.52	39.79
521.69	65.54
521.86	35.11
522.03	35.11
522.20	88.94
522.38	37.45
522.55	49.15
522.72	46.81
522.89	7.02
523.07	100.64
523.24	117.03
523.41	35.11
523.58	49.15
523.75	77.24
523.92	7.02
524.10	128.73
524.27	46.81
524.44	105.32
524.61	60.85
524.78	0.00
524.96	39.79
525.13	21.06
525.30	46.81
525.47	35.11
525.64	60.85
525.81	42.13
525.98	56.17
526.16	28.09
526.33	149.79
526.50	37.45
526.67	84.26
526.84	18.72
527.01	95.96
527.18	81.92
527.36	0.00
527.53	72.56
527.70	42.13
527.87	114.69
528.04	91.28
528.21	51.49
528.38	30.43
528.55	46.81
528.72	0.00
528.89	72.56
529.07	77.24
529.24	86.60
529.41	70.22
529.58	58.51
529.75	0.00
529.92	112.35
530.09	84.26
530.26	65.54
530.43	37.45
530.60	9.36
530.77	7.02
530.94	23.41
531.11	77.24
531.28	70.22
531.46	0.00
531.63	4.68
531.80	72.56
531.97	44.47
532.14	65.54
532.31	70.22
532.48	18.72
532.65	42.13
532.82	30.43
532.99	35.11
533.16	21.06
533.33	14.04
533.50	9.36
533.67	32.77
533.84	159.16
534.01	4.68
534.18	49.15
534.35	77.24
534.52	23.41
534.69	25.75
534.86	100.64
535.03	81.92
535.20	42.13
535.37	0.00
535.54	18.72
535.71	56.17
535.88	100.64
536.05	0.00
536.22	35.11
536.38	95.96
536.55	28.09
536.72	46.81
536.89	7.02
537.06	102.98
537.23	46.81
537.40	46.81
537.57	60.85
537.74	65.54
537.91	63.19
538.08	53.83
538.25	49.15
538.42	9.36
538.59	86.60
538.75	30.43
538.92	91.28
539.09	79.58
539.26	28.09
539.43	93.62
539.60	79.58
539.77	124.05
539.94	60.85
540.11	21.06
540.28	46.81
540.44	18.72
540.61	67.88
540.78	11.70
540.95	63.19
541.12	63.19
541.29	95.96
541.46	98.30
541.62	42.13
541.79	0.00
541.96	95.96
542.13	46.81
542.30	21.06
542.47	0.00
542.63	21.06
542.80	95.96
542.97	81.92
543.14	65.54
543.31	28.09
543.48	63.19
543.64	88.94
543.81	49.15
543.98	98.30
544.15	28.09
544.32	37.45
544.48	95.96
544.65	0.00
544.82	0.00
544.99	58.51
545.16	56.17
545.32	79.58
545.49	46.81
545.66	30.43
545.83	56.17
546.00	0.00
546.16	110.01
546.33	0.00
546.50	65.54
546.67	39.79
546.83	119.37
547.00	28.09
547.17	79.58
547.34	0.00
547.50	35.11
547.67	86.60
547.84	67.88
548.00	44.47
548.17	18.72
548.34	42.13
548.51	32.77
548.67	63.19
548.84	93.62
549.01	70.22
549.18	44.47
549.34	72.56
549.51	23.41
549.68	44.47
549.84	35.11
550.01	42.13
550.18	84.26
550.34	32.77
550.51	28.09
550.68	49.15
550.84	16.38
551.01	95.96
551.18	11.70
551.34	32.77
551.51	70.22
551.68	63.19
551.84	124.05
552.01	0.00
552.18	77.24
552.34	65.54
552.51	49.15
552.68	4.68
552.84	30.43
553.01	14.04
553.18	14.04
553.34	67.88
553.51	49.15
553.67	49.15
553.84	32.77
554.01	53.83
554.17	42.13
554.34	35.11
554.51	63.19
554.67	42.13
554.84	44.47
555.00	112.35
555.17	49.15
555.33	28.09
555.50	0.00
555.67	74.90
555.83	21.06
556.00	0.00
556.16	67.88
556.33	53.83
556.50	58.51
556.66	37.45
556.83	11.70
556.99	32.77
557.16	95.96
557.32	63.19
557.49	30.43
557.65	51.49
557.82	105.32
557.98	35.11
558.15	37.45
558.32	0.00
558.48	67.88
558.65	0.00
558.81	32.77
558.98	51.49
559.14	16.38
559.31	28.09
559.47	23.41
559.64	81.92
559.80	72.56
559.97	58.51
560.13	0.00
560.30	23.41
560.46	60.85
560.63	0.00
560.79	0.00
560.96	77.24
561.12	51.49
561.29	30.43
561.45	63.19
561.61	58.51
561.78	63.19
561.94	46.81
562.11	60.85
562.27	60.85
562.44	0.00
562.60	100.64
562.77	4.68
562.93	39.79
563.10	70.22
563.26	77.24
563.42	44.47
563.59	14.04
563.75	0.00
563.92	67.88
564.08	79.58
564.24	2.34
564.41	42.13
564.57	105.32
564.74	72.56
564.90	79.58
565.07	56.17
565.23	74.90
565.39	56.17
565.56	46.81
565.72	91.28
565.88	51.49
566.05	0.00
566.21	81.92
566.38	49.15
566.54	81.92
566.70	67.88
566.87	49.15
567.03	98.30
567.19	4.68
567.36	21.06
567.52	18.72
567.68	74.90
567.85	93.62
568.01	42.13
568.17	51.49
568.34	72.56
568.50	35.11
568.66	18.72
568.83	0.00
568.99	0.00
569.15	74.90
569.32	51.49
569.48	105.32
569.64	67.88
569.81	0.00
569.97	56.17
570.13	49.15
570.30	18.72
570.46	51.49
570.62	23.41
570.78	23.41
570.95	14.04
571.11	42.13
571.27	30.43
571.43	42.13
571.60	53.83
571.76	56.17
571.92	58.51
572.09	7.02
572.25	9.36
572.41	72.56
572.57	51.49
572.74	84.26
572.90	46.81
573.06	42.13
573.22	58.51
573.38	0.00
573.55	74.90
573.71	28.09
573.87	0.00
574.03	37.45
574.20	56.17
574.36	44.47
574.52	0.00
574.68	53.83
574.84	0.00
575.01	25.75
575.17	70.22
575.33	0.00
575.49	46.81
575.65	39.79
575.82	42.13
575.98	53.83
576.14	65.54
576.30	72.56
576.46	0.00
576.62	37.45
576.79	79.58
576.95	21.06
577.11	37.45
577.27	35.11
577.43	74.90
577.59	72.56
577.75	56.17
577.92	119.37
578.08	56.17
578.24	56.17
578.40	16.38
578.56	81.92
578.72	107.66
578.88	32.77
579.04	77.24
579.21	44.47
579.37	51.49
579.53	18.72
579.69	65.54
579.85	0.00
580.01	53.83
580.17	81.92
580.33	0.00
580.49	4.68
580.65	35.11
580.82	11.70
580.98	9.36
581.14	23.41
581.30	18.72
581.46	77.24
581.62	77.24
581.78	25.75
581.94	46.81
582.10	58.51
582.26	56.17
582.42	44.47
582.58	91.28
582.74	93.62
582.90	53.83
583.06	28.09
583.22	37.45
583.38	42.13
583.54	49.15
583.70	95.96
583.86	63.19
584.02	44.47
584.18	84.26
584.34	46.81
584.50	39.79
584.66	30.43
584.82	56.17
584.98	25.75
585.14	93.62
585.30	91.28
585.46	60.85
585.62	16.38
585.78	88.94
585.94	11.70
586.10	60.85
586.26	11.70
586.42	70.22
586.58	30.43
586.74	37.45
586.90	74.90
587.06	58.51
587.22	63.19
587.38	0.00
587.54	25.75
587.70	11.70
587.86	98.30
588.02	0.00
588.18	56.17
588.34	25.75
588.49	2.34
588.65	42.13
588.81	74.90
588.97	37.45
589.13	56.17
589.29	107.66
589.45	25.75
589.61	65.54
589.77	88.94
589.93	58.51
590.08	60.85
590.24	74.90
590.40	58.51
590.56	11.70
590.72	46.81
590.88	0.00
591.04	60.85
591.20	28.09
591.35	46.81
591.51	35.11
591.67	25.75
591.83	86.60
591.99	25.75
592.15	81.92
592.31	25.75
592.46	44.47
592.62	56.17
592.78	0.00
592.94	37.45
593.10	23.41
593.26	18.72
593.41	117.03
593.57	79.58
593.73	46.81
593.89	49.15
594.05	25.75
594.20	107.66
594.36	58.51
594.52	0.00
594.68	46.81
594.84	14.04
594.99	98.30
595.15	98.30
595.31	21.06
595.47	21.06
595.62	0.00
595.78	37.45
595.94	56.17
596.10	2.34
596.25	63.19
596.41	0.00
596.57	65.54
596.73	77.24
596.88	60.85
597.04	0.00
597.20	0.00
597.36	16.38
597.51	28.09
597.67	4.68
597.83	0.00
597.99	14.04
598.14	84.26
598.30	100.64
598.46	51.49
598.61	7.02
598.77	72.56
598.93	74.90
599.09	25.75
599.24	18.72
599.40	35.11
599.56	86.60
599.71	84.26
599.87	51.49
600.03	102.98
600.18	70.22
600.34	84.26
600.50	14.04
600.65	84.26
600.81	4.68
600.97	7.02
601.12	70.22
601.28	70.22
601.44	100.64
601.59	58.51
601.75	49.15
601.91	11.70
602.06	4.68
602.22	72.56
602.37	0.00
602.53	11.70
602.69	30.43
602.84	70.22
603.00	0.00
603.16	58.51
603.31	67.88
603.47	39.79
603.62	42.13
603.78	0.00
603.94	16.38
604.09	63.19
604.25	51.49
604.40	9.36
604.56	53.83
604.71	53.83
604.87	32.77
605.03	39.79
605.18	0.00
605.34	84.26
605.49	81.92
605.65	23.41
605.80	25.75
605.96	16.38
606.12	77.24
606.27	86.60
606.43	63.19
606.58	42.13
606.74	65.54
606.89	11.70
607.05	21.06
607.20	72.56
607.36	0.00
607.51	65.54
607.67	46.81
607.82	98.30
607.98	0.00
608.13	65.54
608.29	0.00
608.44	2.34
608.60	32.77
608.75	56.17
608.91	32.77
609.06	98.30
609.22	56.17
609.37	18.72
609.53	0.00
609.68	0.00
609.84	32.77
609.99	49.15
610.15	11.70
610.30	23.41
610.46	39.79
610.61	77.24
610.76	95.96
610.92	70.22
611.07	42.13
611.23	86.60
611.38	42.13
611.54	37.45
611.69	131.07
611.84	58.51
612.00	0.00
612.15	74.90
612.31	74.90
612.46	0.00
612.62	7.02
612.77	11.70
612.92	30.43
613.08	23.41
613.23	32.77
613.39	39.79
613.54	2.34
613.69	0.00
613.85	70.22
614.00	60.85
614.15	46.81
614.31	14.04
614.46	28.09
614.62	25.75
614.77	44.47
614.92	117.03
615.08	2.34
615.23	114.69
615.38	18.72
615.54	0.00
615.69	53.83
615.84	0.00
616.00	28.09
616.15	0.00
616.30	30.43
616.46	72.56
616.61	39.79
616.76	35.11
616.92	72.56
617.07	42.13
617.22	16.38
617.37	35.11
617.53	44.47
617.68	84.26
617.83	49.15
617.99	72.56
618.14	112.35
618.29	58.51
618.45	98.30
618.60	35.11
618.75	0.00
618.90	32.77
619.06	4.68
619.21	32.77
619.36	16.38
619.51	0.00
619.67	0.00
619.82	25.75
619.97	100.64
620.12	60.85
620.28	93.62
620.43	46.81
620.58	11.70
620.73	46.81
620.89	23.41
621.04	53.83
621.19	39.79
621.34	84.26
621.49	93.62
621.65	16.38
621.80	0.00
621.95	37.45
622.10	51.49
622.25	0.00
622.41	30.43
622.56	51.49
622.71	42.13
622.86	126.39
623.01	0.00
623.16	53.83
623.32	53.83
623.47	0.00
623.62	84.26
623.77	100.64
623.92	42.13
624.07	65.54
624.23	39.79
624.38	79.58
624.53	37.45
624.68	77.24
624.83	28.09
624.98	88.94
625.13	77.24
625.29	107.66
625.44	98.30
625.59	70.22
625.74	56.17
625.89	0.00
626.04	16.38
626.19	11.70
626.34	2.34
626.49	149.79
626.65	7.02
626.80	79.58
626.95	65.54
627.10	56.17
627.25	63.19
627.40	63.19
627.55	0.00
627.70	46.81
627.85	32.77
628.00	9.36
628.15	21.06
628.30	23.41
628.45	0.00
628.60	0.00
628.76	35.11
628.91	18.72
629.06	70.22
629.21	42.13
629.36	18.72
629.51	21.06
629.66	70.22
629.81	42.13
629.96	49.15
630.11	0.00
630.26	88.94
630.41	145.11
630.56	30.43
630.71	93.62
630.86	0.00
631.01	0.00
631.16	44.47
631.31	0.00
631.46	0.00
631.61	21.06
631.76	21.06
631.91	0.00
632.06	37.45
632.21	9.36
632.36	21.06
632.51	32.77
632.66	0.00
632.81	35.11
632.96	4.68
633.10	30.43
633.25	0.00
633.40	49.15
633.55	67.88
633.70	0.00
633.85	70.22
634.00	39.79
634.15	23.41
634.30	81.92
634.45	11.70
634.60	56.17
634.75	81.92
634.90	0.00
635.05	16.38
635.19	23.41
635.34	46.81
635.49	0.00
635.64	39.79
635.79	14.04
635.94	93.62
636.09	51.49
636.24	18.72
636.39	58.51
636.53	56.17
636.68	65.54
636.83	74.90
636.98	60.85
637.13	0.00
637.28	18.72
637.43	114.69
637.57	23.41
637.72	21.06
637.87	84.26
638.02	93.62
638.17	25.75
638.32	37.45
638.46	39.79
638.61	63.19
638.76	28.09
638.91	102.98
639.06	18.72
639.20	37.45
639.35	2.34
639.50	37.45
639.65	0.00
639.80	91.28
639.94	79.58
640.09	2.34
640.24	140.43
640.39	0.00
640.54	0.00
640.68	79.58
640.83	18.72
640.98	0.00
641.13	0.00
641.27	77.24
641.42	46.81
641.57	7.02
641.72	51.49
641.86	2.34
642.01	60.85
642.16	30.43
642.31	2.34
642.45	74.90
642.60	93.62
642.75	0.00
642.90	65.54
643.04	53.83
643.19	79.58
643.34	60.85
643.48	74.90
643.63	42.13
643.78	72.56
643.93	37.45
644.07	0.00
644.22	7.02
644.37	0.00
644.51	0.00
644.66	67.88
644.81	35.11
644.95	0.00
645.10	25.75
645.25	56.17
645.39	25.75
645.54	25.75
645.69	117.03
645.83	60.85
645.98	81.92
646.13	9.36
646.27	100.64
646.42	28.09
646.57	11.70
646.71	21.06
646.86	30.43
647.00	37.45
647.15	0.00
647.30	37.45
647.44	16.38
647.59	46.81
647.74	0.00
647.88	28.09
648.03	21.06
648.17	98.30
648.32	23.41
648.47	46.81
648.61	11.70
648.76	16.38
648.90	56.17
649.05	11.70
649.20	72.56
649.34	60.85
649.49	23.41
649.63	4.68
649.78	79.58
649.92	77.24
650.07	18.72
650.21	37.45
650.36	23.41
650.51	32.77
650.65	18.72
650.80	14.04
650.94	53.83
651.09	49.15
651.23	25.75
651.38	7.02
651.52	0.00
651.67	84.26
651.81	0.00
651.96	35.11
652.10	28.09
652.25	58.51
652.39	11.70
652.54	58.51
652.68	7.02
652.83	0.00
652.97	65.54
653.12	49.15
653.26	44.47
653.41	4.68
653.55	42.13
653.70	117.03
653.84	11.70
653.99	18.72
654.13	32.77
654.27	39.79
654.42	35.11
654.56	0.00
654.71	86.60
654.85	2.34
655.00	35.11
655.14	0.00
655.29	25.75
655.43	7.02
655.57	0.00
655.72	18.72
655.86	105.32
656.01	0.00
656.15	44.47
656.30	102.98
656.44	100.64
656.58	0.00
656.73	21.06
656.87	42.13
657.01	112.35
657.16	39.79
657.30	0.00
657.45	39.79
657.59	133.41
657.73	0.00
657.88	49.15
658.02	105.32
658.16	44.47
658.31	4.68
658.45	70.22
658.60	77.24
658.74	42.13
658.88	74.90
659.03	58.51
659.17	9.36
659.31	0.00
659.46	25.75
659.60	65.54
659.74	53.83
659.89	46.81
660.03	11.70
660.17	14.04
660.32	28.09
660.46	23.41
660.60	28.09
660.74	0.00
660.89	35.11
661.03	25.75
661.17	35.11
661.32	58.51
661.46	37.45
661.60	72.56
661.74	11.70
661.89	23.41
662.03	58.51
662.17	49.15
662.31	53.83
662.46	46.81
662.60	67.88
662.74	14.04
662.88	18.72
663.03	77.24
663.17	79.58
663.31	72.56
663.45	142.77
663.60	0.00
663.74	0.00
663.88	86.60
664.02	7.02
664.17	49.15
664.31	0.00
664.45	67.88
664.59	46.81
664.73	14.04
664.88	0.00
665.02	51.49
665.16	28.09
665.30	46.81
665.44	2.34
665.59	39.79
665.73	121.71
665.87	25.75
666.01	0.00
666.15	60.85
666.29	9.36
666.44	79.58
666.58	0.00
666.72	46.81
666.86	70.22
667.00	56.17
667.14	30.43
667.28	21.06
667.43	81.92
667.57	42.13
667.71	65.54
667.85	86.60
667.99	28.09
668.13	100.64
668.27	18.72
668.41	49.15
668.56	21.06
668.70	49.15
668.84	30.43
668.98	0.00
669.12	77.24
669.26	49.15
669.40	16.38
669.54	16.38
669.68	0.00
669.82	0.00
669.96	0.00
670.10	21.06
670.25	88.94
670.39	30.43
670.53	18.72
670.67	37.45
670.81	0.00
670.95	35.11
671.09	112.35
671.23	72.56
671.37	28.09
671.51	23.41
671.65	98.30
671.79	102.98
671.93	0.00
672.07	0.00
672.21	0.00
672.35	30.43
672.49	0.00
672.63	30.43
672.77	67.88
672.91	21.06
673.05	32.77
673.19	30.43
673.33	0.00
673.47	42.13
673.61	0.00
673.75	0.00
673.89	0.00
674.03	35.11
674.17	4.68
674.31	74.90
674.45	53.83
674.59	37.45
674.73	56.17
674.87	81.92
675.01	0.00
675.15	18.72
675.29	9.36
675.43	84.26
675.56	70.22
675.70	53.83
675.84	28.09
675.98	21.06
676.12	39.79
676.26	35.11
676.40	65.54
676.54	28.09
676.68	63.19
676.82	0.00
676.96	0.00
677.10	53.83
677.23	0.00
677.37	100.64
677.51	16.38
677.65	131.07
677.79	53.83
677.93	84.26
678.07	4.68
678.21	63.19
678.34	35.11
678.48	9.36
678.62	9.36
678.76	88.94
678.90	23.41
679.04	16.38
679.18	42.13
679.31	32.77
679.45	65.54
679.59	42.13
679.73	16.38
679.87	14.04
680.00	63.19
680.14	4.68
680.28	67.88
680.42	67.88
680.56	32.77
680.70	42.13
680.83	21.06
680.97	84.26
681.11	91.28
681.25	65.54
681.39	7.02
681.52	35.11
681.66	0.00
681.80	79.58
681.94	112.35
682.07	42.13
682.21	88.94
682.35	16.38
682.49	14.04
682.62	4.68
682.76	0.00
682.90	56.17
683.04	30.43
683.17	14.04
683.31	28.09
683.45	42.13
683.59	14.04
683.72	58.51
683.86	16.38
684.00	67.88
684.13	119.37
684.27	35.11
684.41	21.06
684.55	37.45
684.68	0.00
684.82	93.62
684.96	21.06
685.09	53.83
685.23	44.47
685.37	11.70
685.50	0.00
685.64	72.56
685.78	18.72
685.91	49.15
686.05	46.81
686.19	42.13
686.32	9.36
686.46	0.00
686.60	0.00
686.73	67.88
686.87	30.43
687.01	0.00
687.14	0.00
687.28	2.34
687.42	60.85
687.55	0.00
687.69	35.11
687.82	42.13
687.96	60.85
688.10	0.00
688.23	35.11
688.37	16.38
688.50	21.06
688.64	42.13
688.78	0.00
688.91	102.98
689.05	16.38
689.18	124.05
689.32	140.43
689.46	0.00
689.59	39.79
689.73	28.09
689.86	0.00
690.00	16.38
690.13	95.96
690.27	81.92
690.41	56.17
690.54	49.15
690.68	32.77
690.81	0.00
690.95	63.19
691.08	2.34
691.22	35.11
691.35	46.81
691.49	0.00
691.62	44.47
691.76	0.00
691.89	30.43
692.03	53.83
692.16	91.28
692.30	0.00
692.43	23.41
692.57	117.03
692.70	0.00
692.84	88.94
692.97	11.70
693.11	74.90
693.24	23.41
693.38	0.00
693.51	0.00
693.65	32.77
693.78	16.38
693.92	35.11
694.05	60.85
694.19	39.79
694.32	0.00
694.45	14.04
694.59	21.06
694.72	14.04
694.86	28.09
694.99	18.72
695.13	16.38
695.26	18.72
695.39	0.00
695.53	0.00
695.66	35.11
695.80	9.36
695.93	21.06
696.07	11.70
696.20	0.00
696.33	72.56
696.47	58.51
696.60	0.00
696.73	58.51
696.87	0.00
697.00	65.54
697.14	56.17
697.27	32.77
697.40	79.58
697.54	7.02
697.67	25.75
697.80	65.54
697.94	56.17
698.07	0.00
698.21	58.51
698.34	2.34
698.47	14.04
698.61	0.00
698.74	4.68
698.87	53.83
699.01	44.47
699.14	65.54
699.27	11.70
699.40	56.17
699.54	53.83
699.67	74.90
699.80	9.36
699.94	53.83
700.07	91.28
700.20	42.13
700.34	35.11
700.47	53.83
700.60	0.00
700.73	0.00
700.87	49.15
701.00	0.00
701.13	37.45
701.26	16.38
701.40	0.00
701.53	0.00
701.66	0.00
701.79	25.75
701.93	0.00
702.06	53.83
702.19	0.00
702.32	0.00
702.46	102.98
702.59	74.90
702.72	58.51
702.85	7.02
702.99	0.00
703.12	9.36
703.25	21.06
703.38	16.38
703.51	49.15
703.65	0.00
703.78	0.00
703.91	39.79
704.04	11.70
704.17	77.24
704.31	9.36
704.44	0.00
704.57	112.35
704.70	0.00
704.83	14.04
704.96	56.17
705.10	65.54
705.23	60.85
>>>>>End Processed Spectral Data<<<<<
