SpectraSuite Data File
++++++++++++++++++++++++++++++++++++
Date: Fri Oct 04 12:13:34 GMT-05:00 2013
User: price-jones
Dark Spectrum Present: No
Reference Spectrum Present: No
Number of Sampled Component Spectra: 1
Spectrometers: USB2+H05261
Integration Time (usec): 10000 (USB2+H05261)
Spectra Averaged: 1 (USB2+H05261)
Boxcar Smoothing: 0 (USB2+H05261)
Correct for Electrical Dark: No (USB2+H05261)
Strobe/Lamp Enabled: No (USB2+H05261)
Correct for Detector Non-linearity: No (USB2+H05261)
Correct for Stray Light: No (USB2+H05261)
Number of Pixels in Processed Spectrum: 2048
>>>>>Begin Processed Spectral Data<<<<<
365.73	0.00
365.92	0.00
366.12	0.00
366.32	0.00
366.52	0.00
366.72	0.00
366.91	0.00
367.11	0.00
367.31	0.00
367.51	0.00
367.70	0.00
367.90	0.00
368.10	0.00
368.30	0.00
368.49	0.00
368.69	0.00
368.89	0.00
369.09	0.00
369.28	0.00
369.48	0.00
369.68	0.00
369.87	0.00
370.07	0.00
370.27	0.00
370.47	0.00
370.66	0.00
370.86	0.00
371.06	0.00
371.25	0.00
371.45	0.00
371.65	0.00
371.84	0.00
372.04	0.00
372.24	11.70
372.44	0.00
372.63	0.00
372.83	88.94
373.03	0.00
373.22	0.00
373.42	0.00
373.62	58.51
373.81	42.13
374.01	11.70
374.21	53.83
374.40	44.47
374.60	74.90
374.79	0.00
374.99	7.02
375.19	32.77
375.38	0.00
375.58	53.83
375.78	0.00
375.97	11.70
376.17	46.81
376.37	7.02
376.56	0.00
376.76	18.72
376.95	25.75
377.15	56.17
377.35	95.96
377.54	0.00
377.74	18.72
377.93	14.04
378.13	46.81
378.33	23.41
378.52	23.41
378.72	44.47
378.91	0.00
379.11	0.00
379.31	18.72
379.50	11.70
379.70	0.00
379.89	9.36
380.09	0.00
380.28	0.00
380.48	53.83
380.68	0.00
380.87	67.88
381.07	21.06
381.26	16.38
381.46	21.06
381.65	0.00
381.85	0.00
382.04	0.00
382.24	0.00
382.43	25.75
382.63	23.41
382.83	0.00
383.02	0.00
383.22	53.83
383.41	4.68
383.61	14.04
383.80	0.00
384.00	58.51
384.19	0.00
384.39	21.06
384.58	0.00
384.78	74.90
384.97	28.09
385.17	0.00
385.36	0.00
385.56	0.00
385.75	65.54
385.95	63.19
386.14	32.77
386.34	0.00
386.53	65.54
386.72	49.15
386.92	0.00
387.11	0.00
387.31	0.00
387.50	0.00
387.70	46.81
387.89	124.05
388.09	0.00
388.28	86.60
388.48	23.41
388.67	42.13
388.86	0.00
389.06	0.00
389.25	21.06
389.45	28.09
389.64	18.72
389.84	51.49
390.03	51.49
390.22	2.34
390.42	30.43
390.61	2.34
390.81	0.00
391.00	16.38
391.19	81.92
391.39	77.24
391.58	0.00
391.78	0.00
391.97	0.00
392.16	28.09
392.36	11.70
392.55	0.00
392.75	0.00
392.94	9.36
393.13	21.06
393.33	0.00
393.52	0.00
393.71	0.00
393.91	25.75
394.10	65.54
394.29	7.02
394.49	18.72
394.68	46.81
394.88	42.13
395.07	2.34
395.26	63.19
395.46	65.54
395.65	11.70
395.84	39.79
396.04	91.28
396.23	53.83
396.42	32.77
396.62	32.77
396.81	0.00
397.00	53.83
397.19	21.06
397.39	14.04
397.58	0.00
397.77	0.00
397.97	21.06
398.16	0.00
398.35	91.28
398.55	0.00
398.74	0.00
398.93	93.62
399.12	9.36
399.32	23.41
399.51	2.34
399.70	44.47
399.90	14.04
400.09	46.81
400.28	0.00
400.47	21.06
400.67	23.41
400.86	18.72
401.05	16.38
401.24	0.00
401.44	102.98
401.63	46.81
401.82	81.92
402.01	0.00
402.21	65.54
402.40	65.54
402.59	23.41
402.78	30.43
402.97	0.00
403.17	0.00
403.36	0.00
403.55	65.54
403.74	0.00
403.93	23.41
404.13	81.92
404.32	81.92
404.51	65.54
404.70	35.11
404.89	53.83
405.09	42.13
405.28	46.81
405.47	39.79
405.66	21.06
405.85	67.88
406.05	81.92
406.24	70.22
406.43	60.85
406.62	18.72
406.81	65.54
407.00	42.13
407.20	0.00
407.39	63.19
407.58	7.02
407.77	0.00
407.96	58.51
408.15	0.00
408.34	114.69
408.54	0.00
408.73	39.79
408.92	84.26
409.11	56.17
409.30	70.22
409.49	0.00
409.68	37.45
409.87	0.00
410.07	7.02
410.26	7.02
410.45	14.04
410.64	28.09
410.83	79.58
411.02	53.83
411.21	49.15
411.40	95.96
411.59	84.26
411.78	63.19
411.98	32.77
412.17	0.00
412.36	9.36
412.55	49.15
412.74	37.45
412.93	46.81
413.12	9.36
413.31	91.28
413.50	91.28
413.69	56.17
413.88	30.43
414.07	0.00
414.26	18.72
414.45	49.15
414.64	56.17
414.83	44.47
415.02	74.90
415.22	46.81
415.41	60.85
415.60	74.90
415.79	39.79
415.98	72.56
416.17	60.85
416.36	0.00
416.55	0.00
416.74	21.06
416.93	53.83
417.12	53.83
417.31	110.01
417.50	65.54
417.69	16.38
417.88	65.54
418.07	9.36
418.26	42.13
418.45	16.38
418.64	0.00
418.83	84.26
419.02	0.00
419.21	28.09
419.39	16.38
419.58	74.90
419.77	46.81
419.96	2.34
420.15	79.58
420.34	56.17
420.53	14.04
420.72	67.88
420.91	154.48
421.10	0.00
421.29	63.19
421.48	77.24
421.67	107.66
421.86	21.06
422.05	86.60
422.24	74.90
422.43	77.24
422.61	51.49
422.80	65.54
422.99	39.79
423.18	25.75
423.37	0.00
423.56	84.26
423.75	0.00
423.94	28.09
424.13	37.45
424.32	86.60
424.50	0.00
424.69	23.41
424.88	25.75
425.07	72.56
425.26	14.04
425.45	74.90
425.64	39.79
425.83	95.96
426.01	0.00
426.20	93.62
426.39	35.11
426.58	42.13
426.77	23.41
426.96	39.79
427.15	0.00
427.33	0.00
427.52	56.17
427.71	86.60
427.90	0.00
428.09	7.02
428.28	53.83
428.46	86.60
428.65	37.45
428.84	63.19
429.03	14.04
429.22	0.00
429.40	14.04
429.59	51.49
429.78	70.22
429.97	56.17
430.16	72.56
430.34	77.24
430.53	42.13
430.72	30.43
430.91	0.00
431.10	60.85
431.28	0.00
431.47	0.00
431.66	0.00
431.85	11.70
432.03	149.79
432.22	46.81
432.41	0.00
432.60	21.06
432.79	2.34
432.97	142.77
433.16	14.04
433.35	0.00
433.54	56.17
433.72	112.35
433.91	25.75
434.10	2.34
434.28	35.11
434.47	67.88
434.66	23.41
434.85	49.15
435.03	95.96
435.22	18.72
435.41	56.17
435.59	46.81
435.78	9.36
435.97	72.56
436.16	60.85
436.34	53.83
436.53	0.00
436.72	25.75
436.90	93.62
437.09	51.49
437.28	2.34
437.46	67.88
437.65	4.68
437.84	65.54
438.02	4.68
438.21	63.19
438.40	131.07
438.58	2.34
438.77	53.83
438.96	42.13
439.14	28.09
439.33	21.06
439.52	72.56
439.70	107.66
439.89	4.68
440.08	23.41
440.26	44.47
440.45	39.79
440.63	56.17
440.82	67.88
441.01	32.77
441.19	0.00
441.38	46.81
441.57	60.85
441.75	70.22
441.94	88.94
442.12	46.81
442.31	60.85
442.50	67.88
442.68	84.26
442.87	67.88
443.05	28.09
443.24	0.00
443.43	37.45
443.61	58.51
443.80	37.45
443.98	67.88
444.17	37.45
444.35	65.54
444.54	32.77
444.73	42.13
444.91	60.85
445.10	0.00
445.28	21.06
445.47	72.56
445.65	21.06
445.84	4.68
446.02	14.04
446.21	84.26
446.39	95.96
446.58	42.13
446.77	84.26
446.95	98.30
447.14	21.06
447.32	65.54
447.51	51.49
447.69	9.36
447.88	107.66
448.06	46.81
448.25	67.88
448.43	77.24
448.62	14.04
448.80	28.09
448.99	58.51
449.17	42.13
449.36	70.22
449.54	67.88
449.73	0.00
449.91	105.32
450.10	133.41
450.28	117.03
450.46	91.28
450.65	79.58
450.83	72.56
451.02	58.51
451.20	0.00
451.39	37.45
451.57	28.09
451.76	95.96
451.94	95.96
452.13	124.05
452.31	70.22
452.49	95.96
452.68	84.26
452.86	49.15
453.05	84.26
453.23	0.00
453.42	44.47
453.60	0.00
453.78	28.09
453.97	18.72
454.15	58.51
454.34	49.15
454.52	105.32
454.70	56.17
454.89	124.05
455.07	0.00
455.26	46.81
455.44	46.81
455.62	138.09
455.81	121.71
455.99	81.92
456.17	46.81
456.36	51.49
456.54	14.04
456.73	58.51
456.91	30.43
457.09	51.49
457.28	0.00
457.46	0.00
457.64	37.45
457.83	51.49
458.01	117.03
458.19	0.00
458.38	30.43
458.56	39.79
458.74	28.09
458.93	100.64
459.11	35.11
459.29	32.77
459.48	32.77
459.66	23.41
459.84	56.17
460.03	65.54
460.21	112.35
460.39	56.17
460.57	44.47
460.76	0.00
460.94	72.56
461.12	65.54
461.31	49.15
461.49	18.72
461.67	107.66
461.85	70.22
462.04	49.15
462.22	93.62
462.40	0.00
462.59	67.88
462.77	16.38
462.95	98.30
463.13	133.41
463.32	58.51
463.50	46.81
463.68	107.66
463.86	77.24
464.05	37.45
464.23	70.22
464.41	77.24
464.59	128.73
464.78	88.94
464.96	100.64
465.14	84.26
465.32	110.01
465.50	86.60
465.69	53.83
465.87	100.64
466.05	7.02
466.23	0.00
466.41	88.94
466.60	32.77
466.78	0.00
466.96	28.09
467.14	91.28
467.32	0.00
467.51	0.00
467.69	14.04
467.87	93.62
468.05	77.24
468.23	39.79
468.41	70.22
468.60	88.94
468.78	77.24
468.96	42.13
469.14	88.94
469.32	37.45
469.50	16.38
469.69	11.70
469.87	42.13
470.05	88.94
470.23	107.66
470.41	63.19
470.59	70.22
470.77	21.06
470.95	23.41
471.14	0.00
471.32	51.49
471.50	67.88
471.68	112.35
471.86	21.06
472.04	46.81
472.22	63.19
472.40	18.72
472.58	44.47
472.77	39.79
472.95	4.68
473.13	23.41
473.31	0.00
473.49	53.83
473.67	32.77
473.85	51.49
474.03	63.19
474.21	79.58
474.39	67.88
474.57	46.81
474.75	30.43
474.93	49.15
475.12	110.01
475.30	39.79
475.48	81.92
475.66	88.94
475.84	112.35
476.02	35.11
476.20	44.47
476.38	140.43
476.56	23.41
476.74	0.00
476.92	28.09
477.10	9.36
477.28	91.28
477.46	149.79
477.64	100.64
477.82	0.00
478.00	18.72
478.18	58.51
478.36	60.85
478.54	58.51
478.72	11.70
478.90	28.09
479.08	74.90
479.26	23.41
479.44	56.17
479.62	11.70
479.80	0.00
479.98	18.72
480.16	63.19
480.34	21.06
480.52	0.00
480.70	0.00
480.88	63.19
481.06	67.88
481.24	42.13
481.41	58.51
481.59	79.58
481.77	53.83
481.95	14.04
482.13	84.26
482.31	46.81
482.49	21.06
482.67	88.94
482.85	0.00
483.03	51.49
483.21	56.17
483.39	53.83
483.57	16.38
483.74	112.35
483.92	30.43
484.10	65.54
484.28	32.77
484.46	56.17
484.64	79.58
484.82	100.64
485.00	42.13
485.18	63.19
485.35	102.98
485.53	72.56
485.71	49.15
485.89	16.38
486.07	44.47
486.25	0.00
486.43	56.17
486.61	35.11
486.78	30.43
486.96	37.45
487.14	79.58
487.32	30.43
487.50	58.51
487.68	105.32
487.85	30.43
488.03	60.85
488.21	95.96
488.39	0.00
488.57	37.45
488.75	81.92
488.92	11.70
489.10	67.88
489.28	121.71
489.46	74.90
489.64	79.58
489.81	60.85
489.99	16.38
490.17	84.26
490.35	79.58
490.53	32.77
490.70	98.30
490.88	72.56
491.06	35.11
491.24	42.13
491.41	4.68
491.59	46.81
491.77	23.41
491.95	18.72
492.13	102.98
492.30	35.11
492.48	53.83
492.66	58.51
492.84	105.32
493.01	100.64
493.19	81.92
493.37	42.13
493.54	49.15
493.72	21.06
493.90	53.83
494.08	88.94
494.25	53.83
494.43	44.47
494.61	65.54
494.79	86.60
494.96	30.43
495.14	35.11
495.32	95.96
495.49	173.20
495.67	128.73
495.85	65.54
496.02	56.17
496.20	72.56
496.38	67.88
496.55	56.17
496.73	72.56
496.91	51.49
497.09	63.19
497.26	119.37
497.44	56.17
497.62	72.56
497.79	53.83
497.97	91.28
498.14	37.45
498.32	93.62
498.50	79.58
498.67	140.43
498.85	58.51
499.03	56.17
499.20	46.81
499.38	84.26
499.56	91.28
499.73	60.85
499.91	0.00
500.08	128.73
500.26	107.66
500.44	60.85
500.61	72.56
500.79	0.00
500.97	44.47
501.14	56.17
501.32	21.06
501.49	86.60
501.67	46.81
501.84	128.73
502.02	72.56
502.20	86.60
502.37	88.94
502.55	142.77
502.72	72.56
502.90	98.30
503.07	77.24
503.25	107.66
503.43	25.75
503.60	39.79
503.78	30.43
503.95	16.38
504.13	79.58
504.30	77.24
504.48	72.56
504.65	91.28
504.83	105.32
505.01	133.41
505.18	53.83
505.36	126.39
505.53	58.51
505.71	145.11
505.88	95.96
506.06	51.49
506.23	119.37
506.41	84.26
506.58	91.28
506.76	149.79
506.93	95.96
507.11	72.56
507.28	86.60
507.46	159.16
507.63	84.26
507.81	117.03
507.98	70.22
508.16	95.96
508.33	51.49
508.50	88.94
508.68	58.51
508.85	121.71
509.03	74.90
509.20	126.39
509.38	72.56
509.55	147.45
509.73	112.35
509.90	100.64
510.08	110.01
510.25	39.79
510.42	133.41
510.60	4.68
510.77	39.79
510.95	86.60
511.12	74.90
511.30	44.47
511.47	88.94
511.64	131.07
511.82	88.94
511.99	49.15
512.17	63.19
512.34	128.73
512.51	16.38
512.69	32.77
512.86	95.96
513.04	9.36
513.21	60.85
513.38	81.92
513.56	91.28
513.73	63.19
513.90	135.75
514.08	112.35
514.25	91.28
514.43	98.30
514.60	105.32
514.77	44.47
514.95	53.83
515.12	58.51
515.29	149.79
515.47	65.54
515.64	105.32
515.81	30.43
515.99	121.71
516.16	74.90
516.33	86.60
516.51	56.17
516.68	84.26
516.85	81.92
517.03	53.83
517.20	102.98
517.37	70.22
517.54	107.66
517.72	161.50
517.89	0.00
518.06	0.00
518.24	39.79
518.41	60.85
518.58	119.37
518.75	63.19
518.93	84.26
519.10	133.41
519.27	53.83
519.45	121.71
519.62	93.62
519.79	128.73
519.96	88.94
520.14	107.66
520.31	58.51
520.48	88.94
520.65	98.30
520.83	70.22
521.00	35.11
521.17	156.82
521.34	100.64
521.52	14.04
521.69	124.05
521.86	70.22
522.03	161.50
522.20	53.83
522.38	124.05
522.55	23.41
522.72	77.24
522.89	67.88
523.07	9.36
523.24	102.98
523.41	56.17
523.58	102.98
523.75	86.60
523.92	70.22
524.10	0.00
524.27	65.54
524.44	79.58
524.61	77.24
524.78	42.13
524.96	56.17
525.13	93.62
525.30	70.22
525.47	117.03
525.64	63.19
525.81	42.13
525.98	65.54
526.16	102.98
526.33	32.77
526.50	65.54
526.67	79.58
526.84	142.77
527.01	93.62
527.18	91.28
527.36	14.04
527.53	138.09
527.70	112.35
527.87	107.66
528.04	121.71
528.21	0.00
528.38	49.15
528.55	0.00
528.72	42.13
528.89	81.92
529.07	100.64
529.24	81.92
529.41	37.45
529.58	79.58
529.75	63.19
529.92	79.58
530.09	51.49
530.26	39.79
530.43	105.32
530.60	142.77
530.77	126.39
530.94	16.38
531.11	117.03
531.28	112.35
531.46	166.18
531.63	159.16
531.80	44.47
531.97	56.17
532.14	18.72
532.31	100.64
532.48	91.28
532.65	49.15
532.82	74.90
532.99	65.54
533.16	88.94
533.33	44.47
533.50	126.39
533.67	14.04
533.84	16.38
534.01	98.30
534.18	149.79
534.35	44.47
534.52	91.28
534.69	79.58
534.86	49.15
535.03	70.22
535.20	16.38
535.37	107.66
535.54	102.98
535.71	166.18
535.88	51.49
536.05	114.69
536.22	58.51
536.38	100.64
536.55	60.85
536.72	81.92
536.89	105.32
537.06	16.38
537.23	67.88
537.40	63.19
537.57	60.85
537.74	107.66
537.91	58.51
538.08	88.94
538.25	84.26
538.42	65.54
538.59	49.15
538.75	25.75
538.92	53.83
539.09	72.56
539.26	58.51
539.43	168.52
539.60	142.77
539.77	56.17
539.94	100.64
540.11	117.03
540.28	77.24
540.44	35.11
540.61	23.41
540.78	65.54
540.95	11.70
541.12	39.79
541.29	63.19
541.46	49.15
541.62	107.66
541.79	44.47
541.96	77.24
542.13	110.01
542.30	147.45
542.47	121.71
542.63	30.43
542.80	70.22
542.97	44.47
543.14	105.32
543.31	147.45
543.48	110.01
543.64	117.03
543.81	95.96
543.98	11.70
544.15	152.13
544.32	93.62
544.48	79.58
544.65	74.90
544.82	63.19
544.99	98.30
545.16	98.30
545.32	117.03
545.49	88.94
545.66	72.56
545.83	102.98
546.00	105.32
546.16	95.96
546.33	93.62
546.50	135.75
546.67	86.60
546.83	70.22
547.00	56.17
547.17	30.43
547.34	77.24
547.50	84.26
547.67	135.75
547.84	51.49
548.00	58.51
548.17	65.54
548.34	0.00
548.51	46.81
548.67	105.32
548.84	42.13
549.01	117.03
549.18	74.90
549.34	102.98
549.51	84.26
549.68	95.96
549.84	135.75
550.01	81.92
550.18	100.64
550.34	114.69
550.51	161.50
550.68	98.30
550.84	142.77
551.01	142.77
551.18	95.96
551.34	67.88
551.51	100.64
551.68	60.85
551.84	100.64
552.01	112.35
552.18	114.69
552.34	93.62
552.51	42.13
552.68	30.43
552.84	23.41
553.01	107.66
553.18	112.35
553.34	84.26
553.51	81.92
553.67	102.98
553.84	93.62
554.01	91.28
554.17	93.62
554.34	126.39
554.51	0.00
554.67	42.13
554.84	88.94
555.00	60.85
555.17	16.38
555.33	98.30
555.50	32.77
555.67	91.28
555.83	79.58
556.00	72.56
556.16	77.24
556.33	70.22
556.50	16.38
556.66	128.73
556.83	91.28
556.99	67.88
557.16	42.13
557.32	37.45
557.49	117.03
557.65	142.77
557.82	91.28
557.98	119.37
558.15	107.66
558.32	126.39
558.48	128.73
558.65	110.01
558.81	105.32
558.98	14.04
559.14	102.98
559.31	81.92
559.47	112.35
559.64	70.22
559.80	79.58
559.97	60.85
560.13	88.94
560.30	65.54
560.46	77.24
560.63	72.56
560.79	91.28
560.96	32.77
561.12	131.07
561.29	23.41
561.45	110.01
561.61	44.47
561.78	86.60
561.94	93.62
562.11	56.17
562.27	124.05
562.44	25.75
562.60	63.19
562.77	91.28
562.93	140.43
563.10	114.69
563.26	67.88
563.42	112.35
563.59	46.81
563.75	0.00
563.92	84.26
564.08	131.07
564.24	98.30
564.41	63.19
564.57	14.04
564.74	28.09
564.90	70.22
565.07	107.66
565.23	128.73
565.39	70.22
565.56	88.94
565.72	37.45
565.88	56.17
566.05	7.02
566.21	86.60
566.38	67.88
566.54	84.26
566.70	0.00
566.87	23.41
567.03	58.51
567.19	51.49
567.36	133.41
567.52	46.81
567.68	58.51
567.85	119.37
568.01	0.00
568.17	88.94
568.34	102.98
568.50	81.92
568.66	63.19
568.83	84.26
568.99	63.19
569.15	30.43
569.32	112.35
569.48	166.18
569.64	124.05
569.81	51.49
569.97	81.92
570.13	88.94
570.30	60.85
570.46	53.83
570.62	88.94
570.78	95.96
570.95	60.85
571.11	91.28
571.27	117.03
571.43	42.13
571.60	28.09
571.76	56.17
571.92	119.37
572.09	25.75
572.25	51.49
572.41	77.24
572.57	53.83
572.74	72.56
572.90	88.94
573.06	93.62
573.22	51.49
573.38	70.22
573.55	95.96
573.71	21.06
573.87	30.43
574.03	91.28
574.20	110.01
574.36	74.90
574.52	0.00
574.68	72.56
574.84	91.28
575.01	161.50
575.17	49.15
575.33	49.15
575.49	98.30
575.65	28.09
575.82	70.22
575.98	128.73
576.14	84.26
576.30	166.18
576.46	65.54
576.62	60.85
576.79	58.51
576.95	42.13
577.11	65.54
577.27	100.64
577.43	84.26
577.59	18.72
577.75	56.17
577.92	35.11
578.08	46.81
578.24	42.13
578.40	60.85
578.56	56.17
578.72	28.09
578.88	100.64
579.04	93.62
579.21	107.66
579.37	81.92
579.53	98.30
579.69	86.60
579.85	112.35
580.01	28.09
580.17	2.34
580.33	98.30
580.49	49.15
580.65	100.64
580.82	102.98
580.98	49.15
581.14	39.79
581.30	91.28
581.46	70.22
581.62	133.41
581.78	70.22
581.94	42.13
582.10	128.73
582.26	67.88
582.42	159.16
582.58	67.88
582.74	93.62
582.90	67.88
583.06	95.96
583.22	58.51
583.38	42.13
583.54	51.49
583.70	72.56
583.86	86.60
584.02	60.85
584.18	70.22
584.34	67.88
584.50	128.73
584.66	0.00
584.82	56.17
584.98	124.05
585.14	86.60
585.30	119.37
585.46	23.41
585.62	9.36
585.78	72.56
585.94	88.94
586.10	51.49
586.26	30.43
586.42	88.94
586.58	72.56
586.74	114.69
586.90	14.04
587.06	117.03
587.22	37.45
587.38	35.11
587.54	152.13
587.70	86.60
587.86	11.70
588.02	70.22
588.18	91.28
588.34	84.26
588.49	0.00
588.65	88.94
588.81	88.94
588.97	46.81
589.13	0.00
589.29	177.88
589.45	65.54
589.61	18.72
589.77	18.72
589.93	100.64
590.08	112.35
590.24	95.96
590.40	131.07
590.56	72.56
590.72	88.94
590.88	42.13
591.04	100.64
591.20	0.00
591.35	51.49
591.51	121.71
591.67	91.28
591.83	35.11
591.99	67.88
592.15	100.64
592.31	84.26
592.46	39.79
592.62	72.56
592.78	32.77
592.94	4.68
593.10	42.13
593.26	173.20
593.41	67.88
593.57	95.96
593.73	46.81
593.89	51.49
594.05	84.26
594.20	112.35
594.36	49.15
594.52	70.22
594.68	128.73
594.84	77.24
594.99	37.45
595.15	0.00
595.31	49.15
595.47	81.92
595.62	46.81
595.78	11.70
595.94	56.17
596.10	49.15
596.25	102.98
596.41	56.17
596.57	44.47
596.73	114.69
596.88	44.47
597.04	60.85
597.20	93.62
597.36	63.19
597.51	65.54
597.67	37.45
597.83	37.45
597.99	84.26
598.14	72.56
598.30	128.73
598.46	49.15
598.61	44.47
598.77	51.49
598.93	98.30
599.09	128.73
599.24	60.85
599.40	84.26
599.56	84.26
599.71	37.45
599.87	46.81
600.03	53.83
600.18	91.28
600.34	154.48
600.50	107.66
600.65	7.02
600.81	74.90
600.97	51.49
601.12	159.16
601.28	49.15
601.44	88.94
601.59	56.17
601.75	107.66
601.91	39.79
602.06	58.51
602.22	124.05
602.37	21.06
602.53	28.09
602.69	107.66
602.84	60.85
603.00	81.92
603.16	114.69
603.31	93.62
603.47	53.83
603.62	32.77
603.78	70.22
603.94	110.01
604.09	67.88
604.25	67.88
604.40	30.43
604.56	23.41
604.71	67.88
604.87	2.34
605.03	53.83
605.18	9.36
605.34	131.07
605.49	56.17
605.65	56.17
605.80	88.94
605.96	63.19
606.12	53.83
606.27	131.07
606.43	49.15
606.58	35.11
606.74	88.94
606.89	16.38
607.05	35.11
607.20	65.54
607.36	46.81
607.51	37.45
607.67	9.36
607.82	98.30
607.98	88.94
608.13	65.54
608.29	42.13
608.44	0.00
608.60	98.30
608.75	107.66
608.91	65.54
609.06	18.72
609.22	7.02
609.37	32.77
609.53	124.05
609.68	114.69
609.84	77.24
609.99	39.79
610.15	77.24
610.30	37.45
610.46	37.45
610.61	79.58
610.76	77.24
610.92	67.88
611.07	65.54
611.23	51.49
611.38	138.09
611.54	63.19
611.69	84.26
611.84	44.47
612.00	32.77
612.15	72.56
612.31	23.41
612.46	39.79
612.62	107.66
612.77	39.79
612.92	121.71
613.08	102.98
613.23	100.64
613.39	32.77
613.54	44.47
613.69	74.90
613.85	114.69
614.00	0.00
614.15	46.81
614.31	91.28
614.46	135.75
614.62	112.35
614.77	49.15
614.92	56.17
615.08	117.03
615.23	32.77
615.38	7.02
615.54	28.09
615.69	67.88
615.84	100.64
616.00	7.02
616.15	119.37
616.30	21.06
616.46	63.19
616.61	51.49
616.76	37.45
616.92	0.00
617.07	77.24
617.22	51.49
617.37	46.81
617.53	63.19
617.68	37.45
617.83	51.49
617.99	105.32
618.14	77.24
618.29	93.62
618.45	25.75
618.60	51.49
618.75	0.00
618.90	110.01
619.06	21.06
619.21	58.51
619.36	77.24
619.51	0.00
619.67	70.22
619.82	18.72
619.97	63.19
620.12	46.81
620.28	88.94
620.43	88.94
620.58	65.54
620.73	79.58
620.89	23.41
621.04	121.71
621.19	107.66
621.34	102.98
621.49	114.69
621.65	72.56
621.80	95.96
621.95	60.85
622.10	77.24
622.25	0.00
622.41	56.17
622.56	63.19
622.71	102.98
622.86	21.06
623.01	35.11
623.16	60.85
623.32	58.51
623.47	74.90
623.62	67.88
623.77	28.09
623.92	70.22
624.07	60.85
624.23	63.19
624.38	25.75
624.53	35.11
624.68	86.60
624.83	37.45
624.98	88.94
625.13	105.32
625.29	98.30
625.44	91.28
625.59	0.00
625.74	60.85
625.89	112.35
626.04	49.15
626.19	95.96
626.34	72.56
626.49	110.01
626.65	112.35
626.80	58.51
626.95	117.03
627.10	93.62
627.25	121.71
627.40	51.49
627.55	0.00
627.70	32.77
627.85	18.72
628.00	77.24
628.15	32.77
628.30	95.96
628.45	126.39
628.60	102.98
628.76	51.49
628.91	25.75
629.06	93.62
629.21	49.15
629.36	44.47
629.51	128.73
629.66	98.30
629.81	4.68
629.96	72.56
630.11	44.47
630.26	117.03
630.41	196.60
630.56	35.11
630.71	53.83
630.86	147.45
631.01	18.72
631.16	35.11
631.31	67.88
631.46	51.49
631.61	100.64
631.76	51.49
631.91	81.92
632.06	63.19
632.21	112.35
632.36	102.98
632.51	30.43
632.66	2.34
632.81	28.09
632.96	60.85
633.10	32.77
633.25	81.92
633.40	81.92
633.55	44.47
633.70	107.66
633.85	37.45
634.00	149.79
634.15	0.00
634.30	30.43
634.45	84.26
634.60	77.24
634.75	56.17
634.90	49.15
635.05	35.11
635.19	49.15
635.34	86.60
635.49	56.17
635.64	35.11
635.79	88.94
635.94	70.22
636.09	58.51
636.24	102.98
636.39	79.58
636.53	100.64
636.68	63.19
636.83	23.41
636.98	39.79
637.13	100.64
637.28	84.26
637.43	51.49
637.57	0.00
637.72	46.81
637.87	70.22
638.02	42.13
638.17	44.47
638.32	0.00
638.46	74.90
638.61	121.71
638.76	58.51
638.91	56.17
639.06	0.00
639.20	114.69
639.35	11.70
639.50	70.22
639.65	7.02
639.80	102.98
639.94	84.26
640.09	74.90
640.24	67.88
640.39	70.22
640.54	79.58
640.68	126.39
640.83	95.96
640.98	67.88
641.13	42.13
641.27	74.90
641.42	51.49
641.57	49.15
641.72	74.90
641.86	138.09
642.01	58.51
642.16	91.28
642.31	16.38
642.45	79.58
642.60	2.34
642.75	46.81
642.90	88.94
643.04	166.18
643.19	46.81
643.34	37.45
643.48	51.49
643.63	53.83
643.78	65.54
643.93	11.70
644.07	67.88
644.22	0.00
644.37	7.02
644.51	65.54
644.66	79.58
644.81	32.77
644.95	30.43
645.10	0.00
645.25	95.96
645.39	0.00
645.54	70.22
645.69	84.26
645.83	114.69
645.98	100.64
646.13	0.00
646.27	72.56
646.42	35.11
646.57	7.02
646.71	39.79
646.86	65.54
647.00	56.17
647.15	79.58
647.30	81.92
647.44	133.41
647.59	77.24
647.74	14.04
647.88	30.43
648.03	0.00
648.17	23.41
648.32	37.45
648.47	4.68
648.61	49.15
648.76	53.83
648.90	56.17
649.05	79.58
649.20	32.77
649.34	4.68
649.49	74.90
649.63	58.51
649.78	32.77
649.92	135.75
650.07	18.72
650.21	53.83
650.36	100.64
650.51	14.04
650.65	39.79
650.80	32.77
650.94	53.83
651.09	49.15
651.23	11.70
651.38	107.66
651.52	86.60
651.67	117.03
651.81	140.43
651.96	93.62
652.10	37.45
652.25	110.01
652.39	56.17
652.54	37.45
652.68	28.09
652.83	102.98
652.97	0.00
653.12	39.79
653.26	30.43
653.41	53.83
653.55	18.72
653.70	70.22
653.84	21.06
653.99	46.81
654.13	56.17
654.27	63.19
654.42	72.56
654.56	23.41
654.71	93.62
654.85	63.19
655.00	58.51
655.14	23.41
655.29	14.04
655.43	53.83
655.57	107.66
655.72	72.56
655.86	65.54
656.01	79.58
656.15	79.58
656.30	107.66
656.44	0.00
656.58	0.00
656.73	72.56
656.87	16.38
657.01	0.00
657.16	107.66
657.30	46.81
657.45	126.39
657.59	9.36
657.73	4.68
657.88	39.79
658.02	81.92
658.16	63.19
658.31	30.43
658.45	39.79
658.60	0.00
658.74	0.00
658.88	0.00
659.03	0.00
659.17	63.19
659.31	25.75
659.46	79.58
659.60	28.09
659.74	49.15
659.89	42.13
660.03	163.84
660.17	51.49
660.32	46.81
660.46	95.96
660.60	18.72
660.74	21.06
660.89	63.19
661.03	30.43
661.17	23.41
661.32	25.75
661.46	58.51
661.60	53.83
661.74	63.19
661.89	74.90
662.03	37.45
662.17	67.88
662.31	39.79
662.46	65.54
662.60	91.28
662.74	44.47
662.88	0.00
663.03	70.22
663.17	37.45
663.31	0.00
663.45	28.09
663.60	67.88
663.74	14.04
663.88	91.28
664.02	84.26
664.17	79.58
664.31	86.60
664.45	35.11
664.59	44.47
664.73	37.45
664.88	60.85
665.02	25.75
665.16	86.60
665.30	79.58
665.44	44.47
665.59	100.64
665.73	128.73
665.87	67.88
666.01	37.45
666.15	0.00
666.29	65.54
666.44	65.54
666.58	53.83
666.72	28.09
666.86	67.88
667.00	105.32
667.14	37.45
667.28	98.30
667.43	23.41
667.57	37.45
667.71	88.94
667.85	107.66
667.99	81.92
668.13	32.77
668.27	39.79
668.41	39.79
668.56	70.22
668.70	51.49
668.84	0.00
668.98	11.70
669.12	32.77
669.26	60.85
669.40	39.79
669.54	0.00
669.68	18.72
669.82	72.56
669.96	46.81
670.10	60.85
670.25	4.68
670.39	84.26
670.53	58.51
670.67	32.77
670.81	49.15
670.95	39.79
671.09	67.88
671.23	14.04
671.37	4.68
671.51	35.11
671.65	105.32
671.79	11.70
671.93	74.90
672.07	14.04
672.21	35.11
672.35	72.56
672.49	79.58
672.63	18.72
672.77	95.96
672.91	91.28
673.05	18.72
673.19	67.88
673.33	2.34
673.47	46.81
673.61	88.94
673.75	53.83
673.89	0.00
674.03	37.45
674.17	21.06
674.31	67.88
674.45	72.56
674.59	0.00
674.73	60.85
674.87	74.90
675.01	30.43
675.15	46.81
675.29	84.26
675.43	79.58
675.56	58.51
675.70	65.54
675.84	81.92
675.98	23.41
676.12	65.54
676.26	65.54
676.40	39.79
676.54	53.83
676.68	16.38
676.82	0.00
676.96	16.38
677.10	131.07
677.23	88.94
677.37	21.06
677.51	28.09
677.65	93.62
677.79	11.70
677.93	60.85
678.07	0.00
678.21	0.00
678.34	46.81
678.48	0.00
678.62	51.49
678.76	112.35
678.90	58.51
679.04	67.88
679.18	81.92
679.31	23.41
679.45	51.49
679.59	30.43
679.73	67.88
679.87	0.00
680.00	14.04
680.14	23.41
680.28	84.26
680.42	39.79
680.56	0.00
680.70	14.04
680.83	84.26
680.97	11.70
681.11	39.79
681.25	112.35
681.39	63.19
681.52	56.17
681.66	98.30
681.80	72.56
681.94	51.49
682.07	37.45
682.21	49.15
682.35	51.49
682.49	39.79
682.62	60.85
682.76	63.19
682.90	14.04
683.04	7.02
683.17	56.17
683.31	2.34
683.45	74.90
683.59	77.24
683.72	88.94
683.86	60.85
684.00	14.04
684.13	0.00
684.27	93.62
684.41	46.81
684.55	35.11
684.68	53.83
684.82	21.06
684.96	28.09
685.09	35.11
685.23	102.98
685.37	46.81
685.50	46.81
685.64	21.06
685.78	95.96
685.91	0.00
686.05	63.19
686.19	2.34
686.32	0.00
686.46	23.41
686.60	11.70
686.73	51.49
686.87	7.02
687.01	74.90
687.14	65.54
687.28	9.36
687.42	56.17
687.55	86.60
687.69	16.38
687.82	46.81
687.96	9.36
688.10	105.32
688.23	60.85
688.37	126.39
688.50	0.00
688.64	32.77
688.78	63.19
688.91	4.68
689.05	46.81
689.18	7.02
689.32	107.66
689.46	53.83
689.59	0.00
689.73	72.56
689.86	65.54
690.00	65.54
690.13	46.81
690.27	100.64
690.41	95.96
690.54	37.45
690.68	0.00
690.81	138.09
690.95	56.17
691.08	93.62
691.22	70.22
691.35	81.92
691.49	0.00
691.62	58.51
691.76	39.79
691.89	56.17
692.03	39.79
692.16	30.43
692.30	105.32
692.43	30.43
692.57	49.15
692.70	63.19
692.84	74.90
692.97	51.49
693.11	32.77
693.24	11.70
693.38	0.00
693.51	0.00
693.65	30.43
693.78	121.71
693.92	88.94
694.05	65.54
694.19	0.00
694.32	49.15
694.45	44.47
694.59	77.24
694.72	84.26
694.86	51.49
694.99	25.75
695.13	39.79
695.26	74.90
695.39	81.92
695.53	63.19
695.66	107.66
695.80	7.02
695.93	25.75
696.07	0.00
696.20	0.00
696.33	100.64
696.47	81.92
696.60	18.72
696.73	98.30
696.87	70.22
697.00	28.09
697.14	23.41
697.27	0.00
697.40	81.92
697.54	51.49
697.67	32.77
697.80	9.36
697.94	37.45
698.07	11.70
698.21	53.83
698.34	35.11
698.47	67.88
698.61	4.68
698.74	21.06
698.87	11.70
699.01	21.06
699.14	63.19
699.27	4.68
699.40	114.69
699.54	65.54
699.67	18.72
699.80	0.00
699.94	28.09
700.07	7.02
700.20	7.02
700.34	14.04
700.47	72.56
700.60	32.77
700.73	77.24
700.87	9.36
701.00	16.38
701.13	32.77
701.26	35.11
701.40	42.13
701.53	32.77
701.66	56.17
701.79	60.85
701.93	44.47
702.06	77.24
702.19	35.11
702.32	74.90
702.46	49.15
702.59	60.85
702.72	32.77
702.85	0.00
702.99	51.49
703.12	77.24
703.25	42.13
703.38	53.83
703.51	65.54
703.65	60.85
703.78	0.00
703.91	11.70
704.04	44.47
704.17	0.00
704.31	30.43
704.44	25.75
704.57	44.47
704.70	49.15
704.83	0.00
704.96	23.41
705.10	0.00
705.23	53.83
>>>>>End Processed Spectral Data<<<<<
