SpectraSuite Data File
++++++++++++++++++++++++++++++++++++
Date: Fri Oct 04 12:13:26 GMT-05:00 2013
User: price-jones
Dark Spectrum Present: No
Reference Spectrum Present: No
Number of Sampled Component Spectra: 1
Spectrometers: USB2+H05261
Integration Time (usec): 10000 (USB2+H05261)
Spectra Averaged: 1 (USB2+H05261)
Boxcar Smoothing: 0 (USB2+H05261)
Correct for Electrical Dark: No (USB2+H05261)
Strobe/Lamp Enabled: No (USB2+H05261)
Correct for Detector Non-linearity: No (USB2+H05261)
Correct for Stray Light: No (USB2+H05261)
Number of Pixels in Processed Spectrum: 2048
>>>>>Begin Processed Spectral Data<<<<<
365.73	0.00
365.92	0.00
366.12	0.00
366.32	0.00
366.52	0.00
366.72	0.00
366.91	0.00
367.11	0.00
367.31	0.00
367.51	0.00
367.70	0.00
367.90	0.00
368.10	0.00
368.30	0.00
368.49	0.00
368.69	0.00
368.89	0.00
369.09	0.00
369.28	0.00
369.48	0.00
369.68	0.00
369.87	0.00
370.07	0.00
370.27	0.00
370.47	0.00
370.66	0.00
370.86	0.00
371.06	32.77
371.25	0.00
371.45	0.00
371.65	0.00
371.84	39.79
372.04	49.15
372.24	0.00
372.44	14.04
372.63	0.00
372.83	14.04
373.03	0.00
373.22	30.43
373.42	0.00
373.62	0.00
373.81	0.00
374.01	39.79
374.21	72.56
374.40	28.09
374.60	0.00
374.79	0.00
374.99	11.70
375.19	37.45
375.38	65.54
375.58	18.72
375.78	21.06
375.97	91.28
376.17	56.17
376.37	56.17
376.56	25.75
376.76	16.38
376.95	81.92
377.15	0.00
377.35	0.00
377.54	39.79
377.74	79.58
377.93	67.88
378.13	42.13
378.33	0.00
378.52	65.54
378.72	51.49
378.91	0.00
379.11	39.79
379.31	0.00
379.50	21.06
379.70	28.09
379.89	0.00
380.09	7.02
380.28	0.00
380.48	58.51
380.68	0.00
380.87	0.00
381.07	84.26
381.26	21.06
381.46	0.00
381.65	0.00
381.85	0.00
382.04	0.00
382.24	0.00
382.43	9.36
382.63	0.00
382.83	32.77
383.02	39.79
383.22	28.09
383.41	0.00
383.61	0.00
383.80	4.68
384.00	0.00
384.19	30.43
384.39	35.11
384.58	0.00
384.78	53.83
384.97	11.70
385.17	9.36
385.36	4.68
385.56	0.00
385.75	23.41
385.95	21.06
386.14	30.43
386.34	102.98
386.53	0.00
386.72	18.72
386.92	21.06
387.11	14.04
387.31	28.09
387.50	0.00
387.70	16.38
387.89	42.13
388.09	28.09
388.28	56.17
388.48	0.00
388.67	105.32
388.86	0.00
389.06	51.49
389.25	65.54
389.45	46.81
389.64	0.00
389.84	7.02
390.03	9.36
390.22	21.06
390.42	16.38
390.61	0.00
390.81	0.00
391.00	44.47
391.19	18.72
391.39	0.00
391.58	0.00
391.78	7.02
391.97	28.09
392.16	0.00
392.36	65.54
392.55	58.51
392.75	16.38
392.94	7.02
393.13	0.00
393.33	0.00
393.52	25.75
393.71	37.45
393.91	16.38
394.10	25.75
394.29	70.22
394.49	0.00
394.68	65.54
394.88	9.36
395.07	0.00
395.26	49.15
395.46	42.13
395.65	11.70
395.84	0.00
396.04	7.02
396.23	16.38
396.42	2.34
396.62	4.68
396.81	9.36
397.00	65.54
397.19	65.54
397.39	93.62
397.58	63.19
397.77	9.36
397.97	16.38
398.16	14.04
398.35	0.00
398.55	44.47
398.74	0.00
398.93	37.45
399.12	28.09
399.32	46.81
399.51	2.34
399.70	58.51
399.90	98.30
400.09	21.06
400.28	44.47
400.47	23.41
400.67	35.11
400.86	9.36
401.05	28.09
401.24	0.00
401.44	0.00
401.63	0.00
401.82	16.38
402.01	0.00
402.21	0.00
402.40	44.47
402.59	0.00
402.78	37.45
402.97	25.75
403.17	0.00
403.36	0.00
403.55	0.00
403.74	7.02
403.93	25.75
404.13	84.26
404.32	49.15
404.51	25.75
404.70	18.72
404.89	9.36
405.09	46.81
405.28	42.13
405.47	77.24
405.66	0.00
405.85	77.24
406.05	11.70
406.24	25.75
406.43	39.79
406.62	23.41
406.81	0.00
407.00	0.00
407.20	0.00
407.39	7.02
407.58	65.54
407.77	18.72
407.96	4.68
408.15	39.79
408.34	0.00
408.54	60.85
408.73	56.17
408.92	30.43
409.11	0.00
409.30	0.00
409.49	7.02
409.68	9.36
409.87	23.41
410.07	25.75
410.26	0.00
410.45	28.09
410.64	58.51
410.83	37.45
411.02	56.17
411.21	0.00
411.40	0.00
411.59	16.38
411.78	63.19
411.98	42.13
412.17	0.00
412.36	21.06
412.55	44.47
412.74	49.15
412.93	7.02
413.12	9.36
413.31	18.72
413.50	56.17
413.69	0.00
413.88	0.00
414.07	14.04
414.26	0.00
414.45	37.45
414.64	32.77
414.83	21.06
415.02	35.11
415.22	56.17
415.41	77.24
415.60	0.00
415.79	58.51
415.98	18.72
416.17	65.54
416.36	14.04
416.55	46.81
416.74	25.75
416.93	28.09
417.12	21.06
417.31	95.96
417.50	60.85
417.69	4.68
417.88	0.00
418.07	44.47
418.26	42.13
418.45	37.45
418.64	30.43
418.83	128.73
419.02	30.43
419.21	23.41
419.39	0.00
419.58	44.47
419.77	2.34
419.96	49.15
420.15	23.41
420.34	16.38
420.53	88.94
420.72	0.00
420.91	49.15
421.10	42.13
421.29	18.72
421.48	58.51
421.67	21.06
421.86	30.43
422.05	11.70
422.24	16.38
422.43	0.00
422.61	0.00
422.80	44.47
422.99	0.00
423.18	53.83
423.37	18.72
423.56	14.04
423.75	0.00
423.94	0.00
424.13	7.02
424.32	0.00
424.50	58.51
424.69	7.02
424.88	46.81
425.07	93.62
425.26	35.11
425.45	53.83
425.64	0.00
425.83	0.00
426.01	37.45
426.20	7.02
426.39	28.09
426.58	0.00
426.77	0.00
426.96	70.22
427.15	44.47
427.33	14.04
427.52	23.41
427.71	7.02
427.90	35.11
428.09	49.15
428.28	21.06
428.46	0.00
428.65	11.70
428.84	105.32
429.03	84.26
429.22	16.38
429.40	9.36
429.59	67.88
429.78	67.88
429.97	63.19
430.16	60.85
430.34	30.43
430.53	84.26
430.72	0.00
430.91	77.24
431.10	2.34
431.28	0.00
431.47	0.00
431.66	49.15
431.85	35.11
432.03	14.04
432.22	88.94
432.41	14.04
432.60	30.43
432.79	42.13
432.97	56.17
433.16	0.00
433.35	0.00
433.54	25.75
433.72	9.36
433.91	28.09
434.10	44.47
434.28	53.83
434.47	21.06
434.66	42.13
434.85	58.51
435.03	102.98
435.22	18.72
435.41	98.30
435.59	28.09
435.78	0.00
435.97	77.24
436.16	44.47
436.34	84.26
436.53	21.06
436.72	14.04
436.90	4.68
437.09	21.06
437.28	42.13
437.46	63.19
437.65	23.41
437.84	7.02
438.02	9.36
438.21	21.06
438.40	105.32
438.58	42.13
438.77	86.60
438.96	42.13
439.14	86.60
439.33	42.13
439.52	72.56
439.70	77.24
439.89	4.68
440.08	0.00
440.26	2.34
440.45	23.41
440.63	14.04
440.82	53.83
441.01	81.92
441.19	81.92
441.38	37.45
441.57	14.04
441.75	0.00
441.94	72.56
442.12	25.75
442.31	0.00
442.50	0.00
442.68	0.00
442.87	72.56
443.05	67.88
443.24	77.24
443.43	25.75
443.61	67.88
443.80	70.22
443.98	28.09
444.17	14.04
444.35	0.00
444.54	11.70
444.73	9.36
444.91	84.26
445.10	60.85
445.28	0.00
445.47	86.60
445.65	0.00
445.84	39.79
446.02	11.70
446.21	65.54
446.39	9.36
446.58	58.51
446.77	39.79
446.95	114.69
447.14	23.41
447.32	70.22
447.51	28.09
447.69	39.79
447.88	25.75
448.06	46.81
448.25	18.72
448.43	4.68
448.62	0.00
448.80	23.41
448.99	0.00
449.17	53.83
449.36	21.06
449.54	25.75
449.73	51.49
449.91	35.11
450.10	51.49
450.28	35.11
450.46	11.70
450.65	46.81
450.83	91.28
451.02	7.02
451.20	65.54
451.39	7.02
451.57	4.68
451.76	30.43
451.94	14.04
452.13	4.68
452.31	39.79
452.49	16.38
452.68	0.00
452.86	46.81
453.05	53.83
453.23	77.24
453.42	18.72
453.60	81.92
453.78	0.00
453.97	37.45
454.15	16.38
454.34	79.58
454.52	2.34
454.70	58.51
454.89	2.34
455.07	46.81
455.26	70.22
455.44	56.17
455.62	28.09
455.81	0.00
455.99	51.49
456.17	77.24
456.36	16.38
456.54	30.43
456.73	23.41
456.91	42.13
457.09	0.00
457.28	35.11
457.46	70.22
457.64	0.00
457.83	119.37
458.01	7.02
458.19	0.00
458.38	67.88
458.56	58.51
458.74	25.75
458.93	81.92
459.11	28.09
459.29	37.45
459.48	16.38
459.66	119.37
459.84	32.77
460.03	7.02
460.21	72.56
460.39	46.81
460.57	23.41
460.76	72.56
460.94	95.96
461.12	30.43
461.31	0.00
461.49	67.88
461.67	63.19
461.85	39.79
462.04	56.17
462.22	117.03
462.40	30.43
462.59	9.36
462.77	0.00
462.95	9.36
463.13	7.02
463.32	84.26
463.50	16.38
463.68	102.98
463.86	119.37
464.05	37.45
464.23	28.09
464.41	39.79
464.59	72.56
464.78	37.45
464.96	37.45
465.14	53.83
465.32	44.47
465.50	21.06
465.69	70.22
465.87	25.75
466.05	21.06
466.23	14.04
466.41	0.00
466.60	23.41
466.78	0.00
466.96	16.38
467.14	32.77
467.32	23.41
467.51	11.70
467.69	37.45
467.87	133.41
468.05	51.49
468.23	65.54
468.41	67.88
468.60	44.47
468.78	51.49
468.96	53.83
469.14	42.13
469.32	56.17
469.50	0.00
469.69	0.00
469.87	72.56
470.05	58.51
470.23	72.56
470.41	16.38
470.59	0.00
470.77	9.36
470.95	18.72
471.14	0.00
471.32	0.00
471.50	18.72
471.68	42.13
471.86	0.00
472.04	28.09
472.22	37.45
472.40	42.13
472.58	51.49
472.77	7.02
472.95	35.11
473.13	42.13
473.31	81.92
473.49	32.77
473.67	67.88
473.85	32.77
474.03	51.49
474.21	11.70
474.39	0.00
474.57	46.81
474.75	32.77
474.93	0.00
475.12	0.00
475.30	65.54
475.48	46.81
475.66	0.00
475.84	42.13
476.02	4.68
476.20	42.13
476.38	18.72
476.56	112.35
476.74	30.43
476.92	35.11
477.10	42.13
477.28	35.11
477.46	91.28
477.64	53.83
477.82	70.22
478.00	0.00
478.18	60.85
478.36	56.17
478.54	95.96
478.72	74.90
478.90	49.15
479.08	0.00
479.26	42.13
479.44	58.51
479.62	11.70
479.80	70.22
479.98	49.15
480.16	37.45
480.34	0.00
480.52	32.77
480.70	70.22
480.88	4.68
481.06	28.09
481.24	72.56
481.41	58.51
481.59	72.56
481.77	49.15
481.95	16.38
482.13	56.17
482.31	2.34
482.49	25.75
482.67	39.79
482.85	56.17
483.03	21.06
483.21	112.35
483.39	0.00
483.57	7.02
483.74	23.41
483.92	0.00
484.10	0.00
484.28	0.00
484.46	65.54
484.64	79.58
484.82	18.72
485.00	32.77
485.18	0.00
485.35	42.13
485.53	0.00
485.71	14.04
485.89	2.34
486.07	30.43
486.25	56.17
486.43	30.43
486.61	28.09
486.78	56.17
486.96	0.00
487.14	81.92
487.32	0.00
487.50	74.90
487.68	0.00
487.85	7.02
488.03	49.15
488.21	53.83
488.39	2.34
488.57	39.79
488.75	56.17
488.92	0.00
489.10	53.83
489.28	93.62
489.46	21.06
489.64	67.88
489.81	58.51
489.99	49.15
490.17	11.70
490.35	53.83
490.53	56.17
490.70	16.38
490.88	32.77
491.06	14.04
491.24	23.41
491.41	37.45
491.59	102.98
491.77	107.66
491.95	51.49
492.13	0.00
492.30	2.34
492.48	32.77
492.66	32.77
492.84	0.00
493.01	0.00
493.19	65.54
493.37	32.77
493.54	53.83
493.72	51.49
493.90	60.85
494.08	21.06
494.25	67.88
494.43	51.49
494.61	23.41
494.79	56.17
494.96	49.15
495.14	23.41
495.32	51.49
495.49	0.00
495.67	14.04
495.85	0.00
496.02	14.04
496.20	0.00
496.38	14.04
496.55	0.00
496.73	65.54
496.91	35.11
497.09	102.98
497.26	18.72
497.44	49.15
497.62	56.17
497.79	2.34
497.97	60.85
498.14	46.81
498.32	44.47
498.50	18.72
498.67	0.00
498.85	0.00
499.03	0.00
499.20	32.77
499.38	11.70
499.56	51.49
499.73	11.70
499.91	0.00
500.08	28.09
500.26	11.70
500.44	18.72
500.61	42.13
500.79	28.09
500.97	7.02
501.14	74.90
501.32	42.13
501.49	51.49
501.67	46.81
501.84	67.88
502.02	18.72
502.20	63.19
502.37	23.41
502.55	23.41
502.72	39.79
502.90	46.81
503.07	37.45
503.25	9.36
503.43	70.22
503.60	23.41
503.78	28.09
503.95	11.70
504.13	88.94
504.30	0.00
504.48	81.92
504.65	28.09
504.83	65.54
505.01	72.56
505.18	28.09
505.36	9.36
505.53	4.68
505.71	0.00
505.88	2.34
506.06	72.56
506.23	21.06
506.41	49.15
506.58	110.01
506.76	42.13
506.93	53.83
507.11	67.88
507.28	49.15
507.46	32.77
507.63	0.00
507.81	30.43
507.98	11.70
508.16	70.22
508.33	77.24
508.50	72.56
508.68	58.51
508.85	98.30
509.03	84.26
509.20	0.00
509.38	0.00
509.55	35.11
509.73	11.70
509.90	21.06
510.08	37.45
510.25	0.00
510.42	39.79
510.60	72.56
510.77	88.94
510.95	105.32
511.12	37.45
511.30	16.38
511.47	25.75
511.64	7.02
511.82	16.38
511.99	53.83
512.17	23.41
512.34	2.34
512.51	9.36
512.69	65.54
512.86	51.49
513.04	65.54
513.21	42.13
513.38	95.96
513.56	42.13
513.73	84.26
513.90	0.00
514.08	53.83
514.25	77.24
514.43	49.15
514.60	84.26
514.77	2.34
514.95	30.43
515.12	91.28
515.29	0.00
515.47	28.09
515.64	49.15
515.81	0.00
515.99	9.36
516.16	35.11
516.33	23.41
516.51	4.68
516.68	11.70
516.85	58.51
517.03	72.56
517.20	93.62
517.37	51.49
517.54	0.00
517.72	84.26
517.89	4.68
518.06	65.54
518.24	84.26
518.41	44.47
518.58	88.94
518.75	65.54
518.93	42.13
519.10	11.70
519.27	28.09
519.45	11.70
519.62	0.00
519.79	86.60
519.96	39.79
520.14	28.09
520.31	86.60
520.48	91.28
520.65	0.00
520.83	37.45
521.00	74.90
521.17	63.19
521.34	35.11
521.52	93.62
521.69	44.47
521.86	32.77
522.03	0.00
522.20	11.70
522.38	107.66
522.55	46.81
522.72	32.77
522.89	126.39
523.07	74.90
523.24	0.00
523.41	0.00
523.58	81.92
523.75	60.85
523.92	51.49
524.10	86.60
524.27	53.83
524.44	42.13
524.61	60.85
524.78	18.72
524.96	39.79
525.13	35.11
525.30	112.35
525.47	42.13
525.64	56.17
525.81	51.49
525.98	25.75
526.16	58.51
526.33	74.90
526.50	0.00
526.67	18.72
526.84	0.00
527.01	39.79
527.18	42.13
527.36	53.83
527.53	35.11
527.70	91.28
527.87	21.06
528.04	51.49
528.21	21.06
528.38	65.54
528.55	72.56
528.72	128.73
528.89	35.11
529.07	4.68
529.24	21.06
529.41	46.81
529.58	86.60
529.75	0.00
529.92	98.30
530.09	0.00
530.26	79.58
530.43	16.38
530.60	46.81
530.77	44.47
530.94	60.85
531.11	131.07
531.28	39.79
531.46	0.00
531.63	46.81
531.80	37.45
531.97	72.56
532.14	65.54
532.31	56.17
532.48	84.26
532.65	14.04
532.82	0.00
532.99	0.00
533.16	121.71
533.33	114.69
533.50	72.56
533.67	23.41
533.84	79.58
534.01	23.41
534.18	67.88
534.35	7.02
534.52	2.34
534.69	0.00
534.86	91.28
535.03	121.71
535.20	0.00
535.37	56.17
535.54	0.00
535.71	44.47
535.88	88.94
536.05	0.00
536.22	30.43
536.38	56.17
536.55	35.11
536.72	0.00
536.89	0.00
537.06	91.28
537.23	49.15
537.40	23.41
537.57	16.38
537.74	2.34
537.91	16.38
538.08	65.54
538.25	53.83
538.42	14.04
538.59	18.72
538.75	0.00
538.92	58.51
539.09	49.15
539.26	4.68
539.43	23.41
539.60	0.00
539.77	25.75
539.94	30.43
540.11	63.19
540.28	114.69
540.44	58.51
540.61	58.51
540.78	14.04
540.95	25.75
541.12	42.13
541.29	25.75
541.46	67.88
541.62	72.56
541.79	7.02
541.96	53.83
542.13	49.15
542.30	25.75
542.47	46.81
542.63	25.75
542.80	58.51
542.97	37.45
543.14	53.83
543.31	72.56
543.48	14.04
543.64	7.02
543.81	35.11
543.98	56.17
544.15	72.56
544.32	49.15
544.48	7.02
544.65	0.00
544.82	51.49
544.99	74.90
545.16	135.75
545.32	77.24
545.49	25.75
545.66	28.09
545.83	0.00
546.00	0.00
546.16	21.06
546.33	0.00
546.50	28.09
546.67	42.13
546.83	28.09
547.00	25.75
547.17	53.83
547.34	2.34
547.50	65.54
547.67	9.36
547.84	0.00
548.00	63.19
548.17	30.43
548.34	77.24
548.51	46.81
548.67	0.00
548.84	2.34
549.01	63.19
549.18	0.00
549.34	100.64
549.51	51.49
549.68	74.90
549.84	53.83
550.01	37.45
550.18	53.83
550.34	53.83
550.51	28.09
550.68	18.72
550.84	9.36
551.01	79.58
551.18	58.51
551.34	4.68
551.51	44.47
551.68	37.45
551.84	32.77
552.01	16.38
552.18	21.06
552.34	58.51
552.51	88.94
552.68	95.96
552.84	0.00
553.01	60.85
553.18	35.11
553.34	4.68
553.51	23.41
553.67	23.41
553.84	72.56
554.01	23.41
554.17	58.51
554.34	102.98
554.51	35.11
554.67	32.77
554.84	79.58
555.00	74.90
555.17	9.36
555.33	58.51
555.50	56.17
555.67	63.19
555.83	67.88
556.00	14.04
556.16	9.36
556.33	0.00
556.50	23.41
556.66	65.54
556.83	30.43
556.99	51.49
557.16	9.36
557.32	42.13
557.49	53.83
557.65	35.11
557.82	93.62
557.98	79.58
558.15	32.77
558.32	65.54
558.48	37.45
558.65	14.04
558.81	23.41
558.98	39.79
559.14	25.75
559.31	74.90
559.47	0.00
559.64	28.09
559.80	14.04
559.97	60.85
560.13	37.45
560.30	11.70
560.46	14.04
560.63	35.11
560.79	91.28
560.96	35.11
561.12	32.77
561.29	56.17
561.45	44.47
561.61	42.13
561.78	4.68
561.94	105.32
562.11	0.00
562.27	112.35
562.44	2.34
562.60	28.09
562.77	23.41
562.93	0.00
563.10	7.02
563.26	53.83
563.42	81.92
563.59	14.04
563.75	2.34
563.92	46.81
564.08	79.58
564.24	37.45
564.41	35.11
564.57	0.00
564.74	21.06
564.90	49.15
565.07	42.13
565.23	11.70
565.39	72.56
565.56	0.00
565.72	95.96
565.88	60.85
566.05	77.24
566.21	42.13
566.38	51.49
566.54	46.81
566.70	81.92
566.87	23.41
567.03	30.43
567.19	72.56
567.36	23.41
567.52	28.09
567.68	35.11
567.85	65.54
568.01	23.41
568.17	30.43
568.34	35.11
568.50	21.06
568.66	28.09
568.83	23.41
568.99	56.17
569.15	95.96
569.32	0.00
569.48	102.98
569.64	9.36
569.81	0.00
569.97	39.79
570.13	39.79
570.30	60.85
570.46	32.77
570.62	9.36
570.78	119.37
570.95	42.13
571.11	72.56
571.27	42.13
571.43	63.19
571.60	77.24
571.76	46.81
571.92	51.49
572.09	63.19
572.25	49.15
572.41	44.47
572.57	102.98
572.74	49.15
572.90	18.72
573.06	25.75
573.22	42.13
573.38	44.47
573.55	0.00
573.71	35.11
573.87	86.60
574.03	81.92
574.20	65.54
574.36	58.51
574.52	44.47
574.68	32.77
574.84	39.79
575.01	67.88
575.17	51.49
575.33	32.77
575.49	67.88
575.65	77.24
575.82	16.38
575.98	65.54
576.14	98.30
576.30	84.26
576.46	14.04
576.62	2.34
576.79	0.00
576.95	81.92
577.11	28.09
577.27	9.36
577.43	93.62
577.59	49.15
577.75	95.96
577.92	100.64
578.08	44.47
578.24	0.00
578.40	37.45
578.56	56.17
578.72	63.19
578.88	39.79
579.04	0.00
579.21	63.19
579.37	51.49
579.53	88.94
579.69	0.00
579.85	46.81
580.01	37.45
580.17	23.41
580.33	58.51
580.49	21.06
580.65	28.09
580.82	88.94
580.98	74.90
581.14	79.58
581.30	16.38
581.46	11.70
581.62	14.04
581.78	51.49
581.94	0.00
582.10	0.00
582.26	18.72
582.42	42.13
582.58	46.81
582.74	16.38
582.90	0.00
583.06	0.00
583.22	51.49
583.38	49.15
583.54	0.00
583.70	37.45
583.86	18.72
584.02	16.38
584.18	0.00
584.34	0.00
584.50	95.96
584.66	166.18
584.82	285.55
584.98	416.62
585.14	381.51
585.30	290.23
585.46	161.50
585.62	191.92
585.78	77.24
585.94	49.15
586.10	65.54
586.26	2.34
586.42	93.62
586.58	16.38
586.74	84.26
586.90	100.64
587.06	53.83
587.22	46.81
587.38	18.72
587.54	23.41
587.70	70.22
587.86	0.00
588.02	91.28
588.18	131.07
588.34	56.17
588.49	63.19
588.65	37.45
588.81	46.81
588.97	44.47
589.13	16.38
589.29	65.54
589.45	42.13
589.61	37.45
589.77	42.13
589.93	28.09
590.08	39.79
590.24	74.90
590.40	0.00
590.56	0.00
590.72	14.04
590.88	32.77
591.04	11.70
591.20	67.88
591.35	86.60
591.51	7.02
591.67	65.54
591.83	46.81
591.99	65.54
592.15	117.03
592.31	0.00
592.46	0.00
592.62	35.11
592.78	0.00
592.94	63.19
593.10	25.75
593.26	23.41
593.41	72.56
593.57	42.13
593.73	51.49
593.89	46.81
594.05	14.04
594.20	84.26
594.36	128.73
594.52	46.81
594.68	14.04
594.84	70.22
594.99	70.22
595.15	49.15
595.31	128.73
595.47	93.62
595.62	84.26
595.78	0.00
595.94	28.09
596.10	0.00
596.25	0.00
596.41	0.00
596.57	37.45
596.73	42.13
596.88	0.00
597.04	11.70
597.20	100.64
597.36	65.54
597.51	42.13
597.67	42.13
597.83	39.79
597.99	65.54
598.14	39.79
598.30	42.13
598.46	81.92
598.61	0.00
598.77	32.77
598.93	35.11
599.09	0.00
599.24	0.00
599.40	0.00
599.56	0.00
599.71	0.00
599.87	0.00
600.03	0.00
600.18	63.19
600.34	4.68
600.50	63.19
600.65	2.34
600.81	9.36
600.97	56.17
601.12	56.17
601.28	0.00
601.44	14.04
601.59	0.00
601.75	51.49
601.91	58.51
602.06	56.17
602.22	42.13
602.37	0.00
602.53	18.72
602.69	79.58
602.84	81.92
603.00	37.45
603.16	105.32
603.31	72.56
603.47	32.77
603.62	28.09
603.78	18.72
603.94	30.43
604.09	18.72
604.25	107.66
604.40	16.38
604.56	35.11
604.71	35.11
604.87	53.83
605.03	74.90
605.18	46.81
605.34	53.83
605.49	67.88
605.65	4.68
605.80	42.13
605.96	91.28
606.12	0.00
606.27	0.00
606.43	9.36
606.58	53.83
606.74	7.02
606.89	124.05
607.05	88.94
607.20	77.24
607.36	60.85
607.51	60.85
607.67	53.83
607.82	72.56
607.98	23.41
608.13	23.41
608.29	35.11
608.44	23.41
608.60	0.00
608.75	28.09
608.91	84.26
609.06	21.06
609.22	67.88
609.37	95.96
609.53	128.73
609.68	51.49
609.84	11.70
609.99	0.00
610.15	44.47
610.30	0.00
610.46	37.45
610.61	7.02
610.76	0.00
610.92	63.19
611.07	84.26
611.23	30.43
611.38	58.51
611.54	9.36
611.69	4.68
611.84	14.04
612.00	30.43
612.15	0.00
612.31	14.04
612.46	70.22
612.62	63.19
612.77	67.88
612.92	18.72
613.08	28.09
613.23	79.58
613.39	112.35
613.54	16.38
613.69	100.64
613.85	117.03
614.00	166.18
614.15	149.79
614.31	140.43
614.46	140.43
614.62	25.75
614.77	121.71
614.92	79.58
615.08	67.88
615.23	74.90
615.38	49.15
615.54	88.94
615.69	72.56
615.84	46.81
616.00	95.96
616.15	93.62
616.30	95.96
616.46	67.88
616.61	25.75
616.76	81.92
616.92	74.90
617.07	18.72
617.22	53.83
617.37	4.68
617.53	63.19
617.68	9.36
617.83	23.41
617.99	37.45
618.14	95.96
618.29	65.54
618.45	42.13
618.60	58.51
618.75	105.32
618.90	117.03
619.06	0.00
619.21	25.75
619.36	0.00
619.51	51.49
619.67	23.41
619.82	18.72
619.97	60.85
620.12	0.00
620.28	0.00
620.43	65.54
620.58	0.00
620.73	58.51
620.89	35.11
621.04	0.00
621.19	60.85
621.34	46.81
621.49	53.83
621.65	72.56
621.80	72.56
621.95	51.49
622.10	79.58
622.25	28.09
622.41	44.47
622.56	0.00
622.71	7.02
622.86	35.11
623.01	74.90
623.16	30.43
623.32	0.00
623.47	0.00
623.62	44.47
623.77	60.85
623.92	67.88
624.07	42.13
624.23	72.56
624.38	65.54
624.53	0.00
624.68	58.51
624.83	0.00
624.98	42.13
625.13	0.00
625.29	0.00
625.44	46.81
625.59	86.60
625.74	37.45
625.89	117.03
626.04	67.88
626.19	112.35
626.34	156.82
626.49	149.79
626.65	126.39
626.80	84.26
626.95	42.13
627.10	0.00
627.25	56.17
627.40	60.85
627.55	21.06
627.70	49.15
627.85	28.09
628.00	28.09
628.15	4.68
628.30	0.00
628.45	7.02
628.60	4.68
628.76	9.36
628.91	0.00
629.06	0.00
629.21	107.66
629.36	65.54
629.51	60.85
629.66	2.34
629.81	95.96
629.96	35.11
630.11	67.88
630.26	44.47
630.41	39.79
630.56	0.00
630.71	105.32
630.86	4.68
631.01	51.49
631.16	84.26
631.31	11.70
631.46	0.00
631.61	79.58
631.76	28.09
631.91	35.11
632.06	58.51
632.21	72.56
632.36	25.75
632.51	0.00
632.66	25.75
632.81	44.47
632.96	18.72
633.10	72.56
633.25	180.22
633.40	138.09
633.55	46.81
633.70	63.19
633.85	51.49
634.00	42.13
634.15	28.09
634.30	100.64
634.45	32.77
634.60	23.41
634.75	46.81
634.90	30.43
635.05	23.41
635.19	2.34
635.34	67.88
635.49	44.47
635.64	39.79
635.79	39.79
635.94	81.92
636.09	11.70
636.24	42.13
636.39	44.47
636.53	0.00
636.68	0.00
636.83	14.04
636.98	65.54
637.13	42.13
637.28	28.09
637.43	49.15
637.57	25.75
637.72	18.72
637.87	163.84
638.02	205.97
638.17	201.29
638.32	51.49
638.46	53.83
638.61	46.81
638.76	0.00
638.91	30.43
639.06	81.92
639.20	39.79
639.35	98.30
639.50	51.49
639.65	65.54
639.80	72.56
639.94	191.92
640.09	163.84
640.24	154.48
640.39	131.07
640.54	65.54
640.68	102.98
640.83	30.43
640.98	0.00
641.13	0.00
641.27	42.13
641.42	124.05
641.57	28.09
641.72	60.85
641.86	9.36
642.01	0.00
642.16	18.72
642.31	110.01
642.45	72.56
642.60	58.51
642.75	0.00
642.90	9.36
643.04	77.24
643.19	4.68
643.34	51.49
643.48	44.47
643.63	72.56
643.78	93.62
643.93	25.75
644.07	42.13
644.22	51.49
644.37	9.36
644.51	32.77
644.66	49.15
644.81	79.58
644.95	53.83
645.10	32.77
645.25	58.51
645.39	91.28
645.54	0.00
645.69	0.00
645.83	58.51
645.98	0.00
646.13	18.72
646.27	23.41
646.42	9.36
646.57	88.94
646.71	44.47
646.86	32.77
647.00	42.13
647.15	44.47
647.30	51.49
647.44	32.77
647.59	7.02
647.74	0.00
647.88	7.02
648.03	18.72
648.17	56.17
648.32	18.72
648.47	51.49
648.61	81.92
648.76	25.75
648.90	77.24
649.05	0.00
649.20	53.83
649.34	77.24
649.49	0.00
649.63	79.58
649.78	23.41
649.92	0.00
650.07	56.17
650.21	37.45
650.36	56.17
650.51	156.82
650.65	131.07
650.80	114.69
650.94	100.64
651.09	79.58
651.23	23.41
651.38	28.09
651.52	56.17
651.67	18.72
651.81	42.13
651.96	21.06
652.10	0.00
652.25	79.58
652.39	81.92
652.54	23.41
652.68	72.56
652.83	28.09
652.97	49.15
653.12	74.90
653.26	93.62
653.41	65.54
653.55	121.71
653.70	58.51
653.84	51.49
653.99	56.17
654.13	91.28
654.27	23.41
654.42	0.00
654.56	42.13
654.71	0.00
654.85	14.04
655.00	49.15
655.14	0.00
655.29	32.77
655.43	98.30
655.57	63.19
655.72	0.00
655.86	60.85
656.01	28.09
656.15	56.17
656.30	49.15
656.44	11.70
656.58	39.79
656.73	37.45
656.87	42.13
657.01	4.68
657.16	7.02
657.30	65.54
657.45	86.60
657.59	14.04
657.73	9.36
657.88	56.17
658.02	0.00
658.16	0.00
658.31	98.30
658.45	77.24
658.60	72.56
658.74	53.83
658.88	0.00
659.03	91.28
659.17	42.13
659.31	28.09
659.46	67.88
659.60	70.22
659.74	25.75
659.89	11.70
660.03	161.50
660.17	102.98
660.32	42.13
660.46	4.68
660.60	0.00
660.74	2.34
660.89	81.92
661.03	81.92
661.17	7.02
661.32	56.17
661.46	25.75
661.60	114.69
661.74	25.75
661.89	91.28
662.03	0.00
662.17	0.00
662.31	63.19
662.46	37.45
662.60	23.41
662.74	44.47
662.88	65.54
663.03	100.64
663.17	63.19
663.31	32.77
663.45	49.15
663.60	84.26
663.74	49.15
663.88	67.88
664.02	16.38
664.17	44.47
664.31	49.15
664.45	56.17
664.59	28.09
664.73	39.79
664.88	58.51
665.02	37.45
665.16	70.22
665.30	58.51
665.44	72.56
665.59	77.24
665.73	37.45
665.87	63.19
666.01	65.54
666.15	0.00
666.29	9.36
666.44	44.47
666.58	23.41
666.72	58.51
666.86	35.11
667.00	28.09
667.14	51.49
667.28	51.49
667.43	126.39
667.57	42.13
667.71	86.60
667.85	46.81
667.99	65.54
668.13	37.45
668.27	51.49
668.41	0.00
668.56	0.00
668.70	37.45
668.84	28.09
668.98	0.00
669.12	0.00
669.26	39.79
669.40	51.49
669.54	0.00
669.68	0.00
669.82	84.26
669.96	4.68
670.10	70.22
670.25	9.36
670.39	0.00
670.53	0.00
670.67	0.00
670.81	58.51
670.95	0.00
671.09	46.81
671.23	0.00
671.37	18.72
671.51	79.58
671.65	133.41
671.79	112.35
671.93	65.54
672.07	77.24
672.21	77.24
672.35	107.66
672.49	32.77
672.63	28.09
672.77	23.41
672.91	18.72
673.05	60.85
673.19	74.90
673.33	0.00
673.47	0.00
673.61	39.79
673.75	42.13
673.89	70.22
674.03	88.94
674.17	9.36
674.31	14.04
674.45	86.60
674.59	77.24
674.73	23.41
674.87	7.02
675.01	21.06
675.15	44.47
675.29	0.00
675.43	128.73
675.56	58.51
675.70	42.13
675.84	37.45
675.98	0.00
676.12	14.04
676.26	58.51
676.40	98.30
676.54	0.00
676.68	2.34
676.82	0.00
676.96	0.00
677.10	51.49
677.23	0.00
677.37	25.75
677.51	7.02
677.65	0.00
677.79	0.00
677.93	53.83
678.07	0.00
678.21	18.72
678.34	28.09
678.48	0.00
678.62	49.15
678.76	18.72
678.90	2.34
679.04	0.00
679.18	86.60
679.31	37.45
679.45	49.15
679.59	102.98
679.73	110.01
679.87	0.00
680.00	56.17
680.14	16.38
680.28	23.41
680.42	16.38
680.56	21.06
680.70	102.98
680.83	49.15
680.97	88.94
681.11	28.09
681.25	16.38
681.39	0.00
681.52	25.75
681.66	37.45
681.80	25.75
681.94	0.00
682.07	53.83
682.21	11.70
682.35	35.11
682.49	88.94
682.62	79.58
682.76	44.47
682.90	51.49
683.04	32.77
683.17	37.45
683.31	0.00
683.45	67.88
683.59	86.60
683.72	56.17
683.86	21.06
684.00	67.88
684.13	84.26
684.27	4.68
684.41	0.00
684.55	49.15
684.68	63.19
684.82	51.49
684.96	0.00
685.09	23.41
685.23	16.38
685.37	42.13
685.50	91.28
685.64	30.43
685.78	0.00
685.91	67.88
686.05	35.11
686.19	0.00
686.32	35.11
686.46	11.70
686.60	11.70
686.73	49.15
686.87	21.06
687.01	0.00
687.14	21.06
687.28	0.00
687.42	0.00
687.55	18.72
687.69	37.45
687.82	14.04
687.96	58.51
688.10	35.11
688.23	14.04
688.37	84.26
688.50	98.30
688.64	30.43
688.78	25.75
688.91	25.75
689.05	35.11
689.18	18.72
689.32	58.51
689.46	42.13
689.59	16.38
689.73	67.88
689.86	37.45
690.00	0.00
690.13	0.00
690.27	39.79
690.41	0.00
690.54	25.75
690.68	60.85
690.81	0.00
690.95	0.00
691.08	39.79
691.22	74.90
691.35	53.83
691.49	37.45
691.62	65.54
691.76	0.00
691.89	49.15
692.03	44.47
692.16	35.11
692.30	0.00
692.43	72.56
692.57	0.00
692.70	65.54
692.84	93.62
692.97	79.58
693.11	9.36
693.24	37.45
693.38	93.62
693.51	9.36
693.65	7.02
693.78	0.00
693.92	25.75
694.05	42.13
694.19	14.04
694.32	0.00
694.45	9.36
694.59	53.83
694.72	65.54
694.86	77.24
694.99	65.54
695.13	53.83
695.26	84.26
695.39	25.75
695.53	70.22
695.66	23.41
695.80	56.17
695.93	0.00
696.07	4.68
696.20	16.38
696.33	46.81
696.47	32.77
696.60	18.72
696.73	14.04
696.87	51.49
697.00	0.00
697.14	0.00
697.27	11.70
697.40	44.47
697.54	53.83
697.67	18.72
697.80	67.88
697.94	18.72
698.07	0.00
698.21	11.70
698.34	65.54
698.47	49.15
698.61	0.00
698.74	0.00
698.87	23.41
699.01	25.75
699.14	11.70
699.27	35.11
699.40	49.15
699.54	30.43
699.67	39.79
699.80	0.00
699.94	56.17
700.07	0.00
700.20	0.00
700.34	72.56
700.47	0.00
700.60	44.47
700.73	39.79
700.87	51.49
701.00	16.38
701.13	32.77
701.26	28.09
701.40	7.02
701.53	28.09
701.66	42.13
701.79	46.81
701.93	79.58
702.06	100.64
702.19	21.06
702.32	35.11
702.46	9.36
702.59	37.45
702.72	21.06
702.85	14.04
702.99	0.00
703.12	7.02
703.25	39.79
703.38	88.94
703.51	100.64
703.65	93.62
703.78	65.54
703.91	46.81
704.04	60.85
704.17	56.17
704.31	91.28
704.44	70.22
704.57	46.81
704.70	51.49
704.83	0.00
704.96	81.92
705.10	0.00
705.23	84.26
>>>>>End Processed Spectral Data<<<<<
