SpectraSuite Data File
++++++++++++++++++++++++++++++++++++
Date: Fri Oct 04 12:13:26 GMT-05:00 2013
User: price-jones
Dark Spectrum Present: No
Reference Spectrum Present: No
Number of Sampled Component Spectra: 1
Spectrometers: USB2+H05261
Integration Time (usec): 10000 (USB2+H05261)
Spectra Averaged: 1 (USB2+H05261)
Boxcar Smoothing: 0 (USB2+H05261)
Correct for Electrical Dark: No (USB2+H05261)
Strobe/Lamp Enabled: No (USB2+H05261)
Correct for Detector Non-linearity: No (USB2+H05261)
Correct for Stray Light: No (USB2+H05261)
Number of Pixels in Processed Spectrum: 2048
>>>>>Begin Processed Spectral Data<<<<<
365.73	42.13
365.92	42.13
366.12	42.13
366.32	0.00
366.52	0.00
366.72	0.00
366.91	0.00
367.11	0.00
367.31	0.00
367.51	0.00
367.70	0.00
367.90	0.00
368.10	0.00
368.30	0.00
368.49	0.00
368.69	0.00
368.89	0.00
369.09	0.00
369.28	0.00
369.48	0.00
369.68	0.00
369.87	0.00
370.07	0.00
370.27	0.00
370.47	0.00
370.66	0.00
370.86	0.00
371.06	0.00
371.25	0.00
371.45	0.00
371.65	77.24
371.84	0.00
372.04	4.68
372.24	30.43
372.44	14.04
372.63	2.34
372.83	18.72
373.03	79.58
373.22	11.70
373.42	49.15
373.62	21.06
373.81	0.00
374.01	30.43
374.21	81.92
374.40	72.56
374.60	58.51
374.79	25.75
374.99	32.77
375.19	70.22
375.38	0.00
375.58	9.36
375.78	65.54
375.97	42.13
376.17	9.36
376.37	37.45
376.56	110.01
376.76	56.17
376.95	51.49
377.15	16.38
377.35	21.06
377.54	0.00
377.74	0.00
377.93	0.00
378.13	18.72
378.33	28.09
378.52	14.04
378.72	18.72
378.91	0.00
379.11	0.00
379.31	58.51
379.50	23.41
379.70	11.70
379.89	7.02
380.09	86.60
380.28	0.00
380.48	107.66
380.68	14.04
380.87	49.15
381.07	72.56
381.26	74.90
381.46	0.00
381.65	77.24
381.85	25.75
382.04	42.13
382.24	32.77
382.43	95.96
382.63	0.00
382.83	28.09
383.02	51.49
383.22	0.00
383.41	0.00
383.61	21.06
383.80	9.36
384.00	23.41
384.19	0.00
384.39	23.41
384.58	2.34
384.78	65.54
384.97	4.68
385.17	0.00
385.36	56.17
385.56	28.09
385.75	18.72
385.95	0.00
386.14	49.15
386.34	0.00
386.53	81.92
386.72	63.19
386.92	0.00
387.11	14.04
387.31	56.17
387.50	21.06
387.70	63.19
387.89	0.00
388.09	25.75
388.28	0.00
388.48	0.00
388.67	14.04
388.86	18.72
389.06	9.36
389.25	60.85
389.45	37.45
389.64	0.00
389.84	0.00
390.03	35.11
390.22	0.00
390.42	42.13
390.61	0.00
390.81	44.47
391.00	56.17
391.19	49.15
391.39	39.79
391.58	35.11
391.78	2.34
391.97	35.11
392.16	7.02
392.36	32.77
392.55	0.00
392.75	0.00
392.94	2.34
393.13	46.81
393.33	70.22
393.52	0.00
393.71	23.41
393.91	7.02
394.10	9.36
394.29	21.06
394.49	14.04
394.68	11.70
394.88	0.00
395.07	0.00
395.26	44.47
395.46	39.79
395.65	0.00
395.84	0.00
396.04	131.07
396.23	30.43
396.42	0.00
396.62	0.00
396.81	0.00
397.00	53.83
397.19	23.41
397.39	121.71
397.58	42.13
397.77	30.43
397.97	4.68
398.16	0.00
398.35	0.00
398.55	0.00
398.74	16.38
398.93	42.13
399.12	102.98
399.32	0.00
399.51	37.45
399.70	49.15
399.90	0.00
400.09	65.54
400.28	35.11
400.47	44.47
400.67	0.00
400.86	0.00
401.05	9.36
401.24	0.00
401.44	25.75
401.63	2.34
401.82	0.00
402.01	0.00
402.21	0.00
402.40	53.83
402.59	0.00
402.78	0.00
402.97	0.00
403.17	11.70
403.36	63.19
403.55	93.62
403.74	0.00
403.93	0.00
404.13	56.17
404.32	32.77
404.51	28.09
404.70	30.43
404.89	42.13
405.09	23.41
405.28	0.00
405.47	60.85
405.66	32.77
405.85	0.00
406.05	35.11
406.24	46.81
406.43	39.79
406.62	0.00
406.81	0.00
407.00	14.04
407.20	67.88
407.39	25.75
407.58	32.77
407.77	0.00
407.96	46.81
408.15	21.06
408.34	37.45
408.54	0.00
408.73	9.36
408.92	56.17
409.11	51.49
409.30	42.13
409.49	86.60
409.68	21.06
409.87	65.54
410.07	42.13
410.26	58.51
410.45	35.11
410.64	0.00
410.83	4.68
411.02	0.00
411.21	37.45
411.40	60.85
411.59	74.90
411.78	37.45
411.98	0.00
412.17	32.77
412.36	2.34
412.55	128.73
412.74	58.51
412.93	0.00
413.12	0.00
413.31	0.00
413.50	28.09
413.69	28.09
413.88	0.00
414.07	4.68
414.26	35.11
414.45	58.51
414.64	39.79
414.83	0.00
415.02	58.51
415.22	32.77
415.41	16.38
415.60	0.00
415.79	14.04
415.98	30.43
416.17	67.88
416.36	67.88
416.55	0.00
416.74	9.36
416.93	51.49
417.12	30.43
417.31	0.00
417.50	0.00
417.69	70.22
417.88	79.58
418.07	53.83
418.26	32.77
418.45	46.81
418.64	46.81
418.83	18.72
419.02	9.36
419.21	0.00
419.39	30.43
419.58	7.02
419.77	0.00
419.96	0.00
420.15	70.22
420.34	51.49
420.53	2.34
420.72	32.77
420.91	51.49
421.10	53.83
421.29	67.88
421.48	0.00
421.67	0.00
421.86	72.56
422.05	37.45
422.24	14.04
422.43	58.51
422.61	0.00
422.80	0.00
422.99	46.81
423.18	88.94
423.37	14.04
423.56	46.81
423.75	0.00
423.94	0.00
424.13	93.62
424.32	44.47
424.50	51.49
424.69	23.41
424.88	51.49
425.07	23.41
425.26	77.24
425.45	46.81
425.64	32.77
425.83	65.54
426.01	16.38
426.20	0.00
426.39	46.81
426.58	98.30
426.77	0.00
426.96	51.49
427.15	14.04
427.33	16.38
427.52	58.51
427.71	63.19
427.90	42.13
428.09	28.09
428.28	0.00
428.46	77.24
428.65	16.38
428.84	11.70
429.03	51.49
429.22	37.45
429.40	0.00
429.59	60.85
429.78	74.90
429.97	74.90
430.16	0.00
430.34	42.13
430.53	23.41
430.72	131.07
430.91	46.81
431.10	16.38
431.28	0.00
431.47	70.22
431.66	32.77
431.85	2.34
432.03	63.19
432.22	60.85
432.41	30.43
432.60	0.00
432.79	0.00
432.97	0.00
433.16	16.38
433.35	9.36
433.54	0.00
433.72	21.06
433.91	9.36
434.10	46.81
434.28	49.15
434.47	98.30
434.66	0.00
434.85	72.56
435.03	7.02
435.22	81.92
435.41	77.24
435.59	28.09
435.78	18.72
435.97	42.13
436.16	93.62
436.34	39.79
436.53	14.04
436.72	72.56
436.90	30.43
437.09	7.02
437.28	11.70
437.46	37.45
437.65	56.17
437.84	149.79
438.02	30.43
438.21	42.13
438.40	7.02
438.58	28.09
438.77	35.11
438.96	18.72
439.14	0.00
439.33	53.83
439.52	2.34
439.70	63.19
439.89	32.77
440.08	35.11
440.26	79.58
440.45	77.24
440.63	72.56
440.82	14.04
441.01	51.49
441.19	21.06
441.38	44.47
441.57	77.24
441.75	23.41
441.94	4.68
442.12	84.26
442.31	86.60
442.50	0.00
442.68	44.47
442.87	32.77
443.05	0.00
443.24	21.06
443.43	70.22
443.61	0.00
443.80	0.00
443.98	58.51
444.17	28.09
444.35	0.00
444.54	0.00
444.73	49.15
444.91	0.00
445.10	35.11
445.28	30.43
445.47	0.00
445.65	81.92
445.84	81.92
446.02	72.56
446.21	16.38
446.39	67.88
446.58	42.13
446.77	21.06
446.95	79.58
447.14	28.09
447.32	28.09
447.51	23.41
447.69	42.13
447.88	25.75
448.06	67.88
448.25	16.38
448.43	35.11
448.62	58.51
448.80	4.68
448.99	35.11
449.17	9.36
449.36	0.00
449.54	53.83
449.73	0.00
449.91	42.13
450.10	0.00
450.28	0.00
450.46	100.64
450.65	84.26
450.83	39.79
451.02	0.00
451.20	37.45
451.39	0.00
451.57	65.54
451.76	121.71
451.94	84.26
452.13	35.11
452.31	23.41
452.49	46.81
452.68	0.00
452.86	14.04
453.05	51.49
453.23	51.49
453.42	28.09
453.60	119.37
453.78	67.88
453.97	23.41
454.15	0.00
454.34	30.43
454.52	11.70
454.70	30.43
454.89	88.94
455.07	42.13
455.26	70.22
455.44	4.68
455.62	0.00
455.81	0.00
455.99	84.26
456.17	0.00
456.36	42.13
456.54	77.24
456.73	81.92
456.91	0.00
457.09	49.15
457.28	35.11
457.46	0.00
457.64	114.69
457.83	0.00
458.01	51.49
458.19	74.90
458.38	51.49
458.56	32.77
458.74	0.00
458.93	63.19
459.11	23.41
459.29	95.96
459.48	63.19
459.66	63.19
459.84	84.26
460.03	46.81
460.21	2.34
460.39	58.51
460.57	74.90
460.76	65.54
460.94	65.54
461.12	18.72
461.31	65.54
461.49	44.47
461.67	39.79
461.85	0.00
462.04	32.77
462.22	67.88
462.40	0.00
462.59	0.00
462.77	102.98
462.95	14.04
463.13	46.81
463.32	53.83
463.50	0.00
463.68	58.51
463.86	18.72
464.05	114.69
464.23	0.00
464.41	32.77
464.59	35.11
464.78	18.72
464.96	42.13
465.14	44.47
465.32	81.92
465.50	23.41
465.69	53.83
465.87	32.77
466.05	14.04
466.23	49.15
466.41	37.45
466.60	0.00
466.78	58.51
466.96	39.79
467.14	0.00
467.32	35.11
467.51	72.56
467.69	25.75
467.87	32.77
468.05	21.06
468.23	18.72
468.41	46.81
468.60	70.22
468.78	30.43
468.96	60.85
469.14	2.34
469.32	2.34
469.50	53.83
469.69	42.13
469.87	37.45
470.05	21.06
470.23	35.11
470.41	2.34
470.59	0.00
470.77	0.00
470.95	0.00
471.14	21.06
471.32	98.30
471.50	0.00
471.68	49.15
471.86	107.66
472.04	79.58
472.22	46.81
472.40	30.43
472.58	21.06
472.77	93.62
472.95	28.09
473.13	23.41
473.31	119.37
473.49	0.00
473.67	0.00
473.85	0.00
474.03	51.49
474.21	7.02
474.39	23.41
474.57	0.00
474.75	67.88
474.93	42.13
475.12	93.62
475.30	42.13
475.48	21.06
475.66	46.81
475.84	93.62
476.02	2.34
476.20	72.56
476.38	58.51
476.56	51.49
476.74	25.75
476.92	0.00
477.10	0.00
477.28	65.54
477.46	0.00
477.64	70.22
477.82	21.06
478.00	0.00
478.18	2.34
478.36	23.41
478.54	37.45
478.72	0.00
478.90	0.00
479.08	37.45
479.26	77.24
479.44	14.04
479.62	0.00
479.80	4.68
479.98	2.34
480.16	18.72
480.34	100.64
480.52	16.38
480.70	25.75
480.88	9.36
481.06	0.00
481.24	60.85
481.41	53.83
481.59	77.24
481.77	0.00
481.95	39.79
482.13	51.49
482.31	0.00
482.49	53.83
482.67	0.00
482.85	0.00
483.03	30.43
483.21	65.54
483.39	14.04
483.57	0.00
483.74	72.56
483.92	0.00
484.10	58.51
484.28	14.04
484.46	9.36
484.64	51.49
484.82	37.45
485.00	117.03
485.18	32.77
485.35	35.11
485.53	81.92
485.71	65.54
485.89	18.72
486.07	51.49
486.25	128.73
486.43	0.00
486.61	0.00
486.78	7.02
486.96	56.17
487.14	53.83
487.32	23.41
487.50	14.04
487.68	14.04
487.85	2.34
488.03	21.06
488.21	23.41
488.39	11.70
488.57	11.70
488.75	81.92
488.92	21.06
489.10	25.75
489.28	0.00
489.46	56.17
489.64	0.00
489.81	65.54
489.99	58.51
490.17	28.09
490.35	28.09
490.53	51.49
490.70	18.72
490.88	58.51
491.06	32.77
491.24	16.38
491.41	105.32
491.59	32.77
491.77	0.00
491.95	28.09
492.13	0.00
492.30	14.04
492.48	0.00
492.66	23.41
492.84	88.94
493.01	49.15
493.19	9.36
493.37	23.41
493.54	21.06
493.72	0.00
493.90	4.68
494.08	35.11
494.25	74.90
494.43	42.13
494.61	30.43
494.79	112.35
494.96	16.38
495.14	88.94
495.32	79.58
495.49	32.77
495.67	110.01
495.85	112.35
496.02	67.88
496.20	44.47
496.38	16.38
496.55	14.04
496.73	9.36
496.91	39.79
497.09	88.94
497.26	60.85
497.44	16.38
497.62	28.09
497.79	42.13
497.97	30.43
498.14	74.90
498.32	18.72
498.50	16.38
498.67	46.81
498.85	0.00
499.03	32.77
499.20	28.09
499.38	30.43
499.56	0.00
499.73	0.00
499.91	65.54
500.08	70.22
500.26	39.79
500.44	51.49
500.61	35.11
500.79	25.75
500.97	35.11
501.14	30.43
501.32	39.79
501.49	14.04
501.67	56.17
501.84	88.94
502.02	0.00
502.20	46.81
502.37	91.28
502.55	70.22
502.72	67.88
502.90	2.34
503.07	46.81
503.25	30.43
503.43	23.41
503.60	9.36
503.78	102.98
503.95	18.72
504.13	74.90
504.30	16.38
504.48	4.68
504.65	100.64
504.83	39.79
505.01	0.00
505.18	74.90
505.36	65.54
505.53	117.03
505.71	81.92
505.88	18.72
506.06	44.47
506.23	56.17
506.41	67.88
506.58	51.49
506.76	28.09
506.93	46.81
507.11	56.17
507.28	4.68
507.46	21.06
507.63	0.00
507.81	0.00
507.98	58.51
508.16	91.28
508.33	28.09
508.50	159.16
508.68	67.88
508.85	16.38
509.03	9.36
509.20	0.00
509.38	21.06
509.55	0.00
509.73	0.00
509.90	65.54
510.08	46.81
510.25	74.90
510.42	37.45
510.60	37.45
510.77	79.58
510.95	140.43
511.12	23.41
511.30	44.47
511.47	102.98
511.64	51.49
511.82	32.77
511.99	65.54
512.17	114.69
512.34	0.00
512.51	23.41
512.69	67.88
512.86	0.00
513.04	42.13
513.21	65.54
513.38	88.94
513.56	42.13
513.73	105.32
513.90	98.30
514.08	63.19
514.25	72.56
514.43	88.94
514.60	112.35
514.77	21.06
514.95	117.03
515.12	30.43
515.29	51.49
515.47	2.34
515.64	0.00
515.81	0.00
515.99	18.72
516.16	44.47
516.33	46.81
516.51	91.28
516.68	0.00
516.85	0.00
517.03	32.77
517.20	21.06
517.37	105.32
517.54	0.00
517.72	39.79
517.89	60.85
518.06	72.56
518.24	110.01
518.41	0.00
518.58	32.77
518.75	56.17
518.93	67.88
519.10	65.54
519.27	0.00
519.45	51.49
519.62	84.26
519.79	21.06
519.96	25.75
520.14	84.26
520.31	126.39
520.48	25.75
520.65	91.28
520.83	44.47
521.00	84.26
521.17	39.79
521.34	23.41
521.52	30.43
521.69	70.22
521.86	105.32
522.03	70.22
522.20	14.04
522.38	49.15
522.55	9.36
522.72	60.85
522.89	0.00
523.07	60.85
523.24	7.02
523.41	25.75
523.58	58.51
523.75	0.00
523.92	93.62
524.10	133.41
524.27	18.72
524.44	7.02
524.61	0.00
524.78	7.02
524.96	7.02
525.13	28.09
525.30	65.54
525.47	72.56
525.64	58.51
525.81	65.54
525.98	7.02
526.16	0.00
526.33	37.45
526.50	98.30
526.67	16.38
526.84	63.19
527.01	4.68
527.18	16.38
527.36	53.83
527.53	0.00
527.70	35.11
527.87	65.54
528.04	30.43
528.21	21.06
528.38	35.11
528.55	98.30
528.72	53.83
528.89	58.51
529.07	0.00
529.24	56.17
529.41	4.68
529.58	0.00
529.75	11.70
529.92	0.00
530.09	42.13
530.26	58.51
530.43	0.00
530.60	0.00
530.77	39.79
530.94	67.88
531.11	51.49
531.28	28.09
531.46	77.24
531.63	9.36
531.80	72.56
531.97	7.02
532.14	58.51
532.31	39.79
532.48	0.00
532.65	46.81
532.82	21.06
532.99	135.75
533.16	53.83
533.33	35.11
533.50	53.83
533.67	93.62
533.84	46.81
534.01	28.09
534.18	30.43
534.35	60.85
534.52	44.47
534.69	23.41
534.86	60.85
535.03	0.00
535.20	14.04
535.37	35.11
535.54	16.38
535.71	9.36
535.88	67.88
536.05	4.68
536.22	21.06
536.38	44.47
536.55	9.36
536.72	0.00
536.89	42.13
537.06	81.92
537.23	0.00
537.40	0.00
537.57	0.00
537.74	42.13
537.91	39.79
538.08	81.92
538.25	86.60
538.42	79.58
538.59	7.02
538.75	105.32
538.92	77.24
539.09	93.62
539.26	30.43
539.43	14.04
539.60	65.54
539.77	18.72
539.94	0.00
540.11	60.85
540.28	107.66
540.44	70.22
540.61	98.30
540.78	0.00
540.95	0.00
541.12	25.75
541.29	32.77
541.46	49.15
541.62	28.09
541.79	28.09
541.96	65.54
542.13	81.92
542.30	9.36
542.47	2.34
542.63	2.34
542.80	0.00
542.97	37.45
543.14	30.43
543.31	9.36
543.48	93.62
543.64	37.45
543.81	79.58
543.98	133.41
544.15	119.37
544.32	30.43
544.48	44.47
544.65	91.28
544.82	100.64
544.99	67.88
545.16	91.28
545.32	63.19
545.49	32.77
545.66	58.51
545.83	44.47
546.00	30.43
546.16	65.54
546.33	21.06
546.50	42.13
546.67	46.81
546.83	84.26
547.00	35.11
547.17	28.09
547.34	23.41
547.50	39.79
547.67	0.00
547.84	11.70
548.00	77.24
548.17	67.88
548.34	53.83
548.51	0.00
548.67	25.75
548.84	0.00
549.01	0.00
549.18	37.45
549.34	81.92
549.51	35.11
549.68	74.90
549.84	114.69
550.01	84.26
550.18	0.00
550.34	21.06
550.51	4.68
550.68	28.09
550.84	67.88
551.01	72.56
551.18	0.00
551.34	39.79
551.51	0.00
551.68	84.26
551.84	39.79
552.01	9.36
552.18	77.24
552.34	0.00
552.51	107.66
552.68	32.77
552.84	58.51
553.01	4.68
553.18	9.36
553.34	0.00
553.51	42.13
553.67	32.77
553.84	4.68
554.01	42.13
554.17	32.77
554.34	58.51
554.51	37.45
554.67	84.26
554.84	14.04
555.00	60.85
555.17	9.36
555.33	88.94
555.50	23.41
555.67	60.85
555.83	21.06
556.00	30.43
556.16	0.00
556.33	30.43
556.50	0.00
556.66	95.96
556.83	58.51
556.99	49.15
557.16	42.13
557.32	51.49
557.49	7.02
557.65	0.00
557.82	74.90
557.98	9.36
558.15	49.15
558.32	49.15
558.48	0.00
558.65	79.58
558.81	7.02
558.98	30.43
559.14	28.09
559.31	42.13
559.47	67.88
559.64	117.03
559.80	107.66
559.97	0.00
560.13	0.00
560.30	46.81
560.46	56.17
560.63	51.49
560.79	30.43
560.96	42.13
561.12	42.13
561.29	79.58
561.45	107.66
561.61	53.83
561.78	56.17
561.94	67.88
562.11	0.00
562.27	42.13
562.44	18.72
562.60	0.00
562.77	0.00
562.93	46.81
563.10	23.41
563.26	56.17
563.42	2.34
563.59	77.24
563.75	11.70
563.92	163.84
564.08	23.41
564.24	49.15
564.41	77.24
564.57	0.00
564.74	77.24
564.90	58.51
565.07	11.70
565.23	28.09
565.39	28.09
565.56	72.56
565.72	49.15
565.88	86.60
566.05	32.77
566.21	0.00
566.38	72.56
566.54	32.77
566.70	14.04
566.87	91.28
567.03	58.51
567.19	28.09
567.36	2.34
567.52	32.77
567.68	35.11
567.85	0.00
568.01	112.35
568.17	0.00
568.34	0.00
568.50	46.81
568.66	51.49
568.83	30.43
568.99	102.98
569.15	0.00
569.32	39.79
569.48	44.47
569.64	86.60
569.81	51.49
569.97	0.00
570.13	30.43
570.30	0.00
570.46	14.04
570.62	0.00
570.78	42.13
570.95	53.83
571.11	81.92
571.27	4.68
571.43	9.36
571.60	25.75
571.76	58.51
571.92	56.17
572.09	77.24
572.25	0.00
572.41	9.36
572.57	72.56
572.74	42.13
572.90	88.94
573.06	49.15
573.22	65.54
573.38	53.83
573.55	51.49
573.71	23.41
573.87	0.00
574.03	4.68
574.20	56.17
574.36	49.15
574.52	77.24
574.68	51.49
574.84	0.00
575.01	0.00
575.17	0.00
575.33	16.38
575.49	37.45
575.65	37.45
575.82	23.41
575.98	53.83
576.14	51.49
576.30	60.85
576.46	16.38
576.62	42.13
576.79	60.85
576.95	0.00
577.11	67.88
577.27	42.13
577.43	56.17
577.59	0.00
577.75	67.88
577.92	4.68
578.08	93.62
578.24	60.85
578.40	0.00
578.56	4.68
578.72	9.36
578.88	30.43
579.04	0.00
579.21	16.38
579.37	18.72
579.53	72.56
579.69	16.38
579.85	100.64
580.01	25.75
580.17	58.51
580.33	140.43
580.49	145.11
580.65	46.81
580.82	95.96
580.98	21.06
581.14	0.00
581.30	0.00
581.46	0.00
581.62	56.17
581.78	91.28
581.94	32.77
582.10	44.47
582.26	0.00
582.42	35.11
582.58	79.58
582.74	32.77
582.90	65.54
583.06	28.09
583.22	44.47
583.38	107.66
583.54	0.00
583.70	51.49
583.86	100.64
584.02	30.43
584.18	44.47
584.34	86.60
584.50	44.47
584.66	273.84
584.82	433.00
584.98	498.53
585.14	451.72
585.30	383.85
585.46	201.29
585.62	198.95
585.78	131.07
585.94	63.19
586.10	0.00
586.26	81.92
586.42	37.45
586.58	51.49
586.74	63.19
586.90	88.94
587.06	16.38
587.22	23.41
587.38	56.17
587.54	142.77
587.70	60.85
587.86	84.26
588.02	63.19
588.18	28.09
588.34	14.04
588.49	65.54
588.65	39.79
588.81	74.90
588.97	77.24
589.13	35.11
589.29	56.17
589.45	0.00
589.61	11.70
589.77	60.85
589.93	46.81
590.08	0.00
590.24	18.72
590.40	0.00
590.56	63.19
590.72	86.60
590.88	56.17
591.04	65.54
591.20	0.00
591.35	51.49
591.51	65.54
591.67	0.00
591.83	65.54
591.99	65.54
592.15	37.45
592.31	74.90
592.46	2.34
592.62	18.72
592.78	0.00
592.94	0.00
593.10	53.83
593.26	32.77
593.41	39.79
593.57	0.00
593.73	46.81
593.89	25.75
594.05	128.73
594.20	44.47
594.36	81.92
594.52	30.43
594.68	74.90
594.84	30.43
594.99	23.41
595.15	51.49
595.31	56.17
595.47	35.11
595.62	86.60
595.78	56.17
595.94	65.54
596.10	63.19
596.25	53.83
596.41	46.81
596.57	65.54
596.73	39.79
596.88	7.02
597.04	117.03
597.20	65.54
597.36	74.90
597.51	105.32
597.67	51.49
597.83	70.22
597.99	0.00
598.14	53.83
598.30	11.70
598.46	28.09
598.61	70.22
598.77	60.85
598.93	28.09
599.09	18.72
599.24	37.45
599.40	2.34
599.56	28.09
599.71	74.90
599.87	86.60
600.03	81.92
600.18	0.00
600.34	70.22
600.50	159.16
600.65	32.77
600.81	126.39
600.97	72.56
601.12	39.79
601.28	11.70
601.44	77.24
601.59	72.56
601.75	42.13
601.91	42.13
602.06	93.62
602.22	0.00
602.37	65.54
602.53	0.00
602.69	51.49
602.84	86.60
603.00	44.47
603.16	65.54
603.31	39.79
603.47	18.72
603.62	0.00
603.78	53.83
603.94	100.64
604.09	16.38
604.25	77.24
604.40	11.70
604.56	21.06
604.71	51.49
604.87	49.15
605.03	0.00
605.18	0.00
605.34	114.69
605.49	53.83
605.65	21.06
605.80	4.68
605.96	16.38
606.12	39.79
606.27	42.13
606.43	63.19
606.58	58.51
606.74	91.28
606.89	63.19
607.05	95.96
607.20	119.37
607.36	126.39
607.51	102.98
607.67	2.34
607.82	21.06
607.98	56.17
608.13	65.54
608.29	95.96
608.44	77.24
608.60	44.47
608.75	0.00
608.91	44.47
609.06	81.92
609.22	88.94
609.37	126.39
609.53	74.90
609.68	74.90
609.84	93.62
609.99	58.51
610.15	77.24
610.30	53.83
610.46	37.45
610.61	44.47
610.76	25.75
610.92	0.00
611.07	14.04
611.23	0.00
611.38	95.96
611.54	23.41
611.69	56.17
611.84	70.22
612.00	0.00
612.15	42.13
612.31	84.26
612.46	0.00
612.62	23.41
612.77	88.94
612.92	58.51
613.08	4.68
613.23	0.00
613.39	0.00
613.54	58.51
613.69	65.54
613.85	124.05
614.00	163.84
614.15	154.48
614.31	112.35
614.46	74.90
614.62	65.54
614.77	81.92
614.92	39.79
615.08	37.45
615.23	35.11
615.38	0.00
615.54	4.68
615.69	63.19
615.84	0.00
616.00	28.09
616.15	88.94
616.30	30.43
616.46	18.72
616.61	32.77
616.76	25.75
616.92	2.34
617.07	28.09
617.22	25.75
617.37	0.00
617.53	23.41
617.68	0.00
617.83	16.38
617.99	77.24
618.14	70.22
618.29	21.06
618.45	49.15
618.60	51.49
618.75	51.49
618.90	46.81
619.06	49.15
619.21	37.45
619.36	72.56
619.51	65.54
619.67	11.70
619.82	49.15
619.97	98.30
620.12	28.09
620.28	25.75
620.43	25.75
620.58	51.49
620.73	51.49
620.89	25.75
621.04	35.11
621.19	0.00
621.34	110.01
621.49	0.00
621.65	81.92
621.80	16.38
621.95	74.90
622.10	84.26
622.25	60.85
622.41	39.79
622.56	39.79
622.71	81.92
622.86	37.45
623.01	0.00
623.16	49.15
623.32	35.11
623.47	74.90
623.62	23.41
623.77	70.22
623.92	39.79
624.07	16.38
624.23	70.22
624.38	9.36
624.53	0.00
624.68	0.00
624.83	4.68
624.98	72.56
625.13	25.75
625.29	11.70
625.44	32.77
625.59	42.13
625.74	79.58
625.89	53.83
626.04	72.56
626.19	117.03
626.34	77.24
626.49	131.07
626.65	133.41
626.80	95.96
626.95	110.01
627.10	9.36
627.25	138.09
627.40	49.15
627.55	0.00
627.70	0.00
627.85	0.00
628.00	60.85
628.15	25.75
628.30	56.17
628.45	35.11
628.60	42.13
628.76	72.56
628.91	128.73
629.06	0.00
629.21	0.00
629.36	65.54
629.51	46.81
629.66	77.24
629.81	39.79
629.96	91.28
630.11	37.45
630.26	163.84
630.41	65.54
630.56	18.72
630.71	79.58
630.86	7.02
631.01	28.09
631.16	0.00
631.31	0.00
631.46	28.09
631.61	23.41
631.76	0.00
631.91	32.77
632.06	0.00
632.21	21.06
632.36	14.04
632.51	0.00
632.66	32.77
632.81	63.19
632.96	93.62
633.10	166.18
633.25	70.22
633.40	35.11
633.55	0.00
633.70	28.09
633.85	65.54
634.00	35.11
634.15	21.06
634.30	51.49
634.45	60.85
634.60	0.00
634.75	11.70
634.90	21.06
635.05	51.49
635.19	44.47
635.34	0.00
635.49	93.62
635.64	0.00
635.79	56.17
635.94	84.26
636.09	86.60
636.24	121.71
636.39	37.45
636.53	128.73
636.68	67.88
636.83	25.75
636.98	18.72
637.13	16.38
637.28	49.15
637.43	51.49
637.57	9.36
637.72	65.54
637.87	84.26
638.02	138.09
638.17	110.01
638.32	173.20
638.46	128.73
638.61	105.32
638.76	9.36
638.91	25.75
639.06	72.56
639.20	60.85
639.35	18.72
639.50	98.30
639.65	58.51
639.80	105.32
639.94	163.84
640.09	180.22
640.24	173.20
640.39	112.35
640.54	133.41
640.68	30.43
640.83	84.26
640.98	14.04
641.13	0.00
641.27	46.81
641.42	2.34
641.57	65.54
641.72	2.34
641.86	25.75
642.01	37.45
642.16	37.45
642.31	30.43
642.45	88.94
642.60	37.45
642.75	65.54
642.90	37.45
643.04	79.58
643.19	0.00
643.34	72.56
643.48	56.17
643.63	95.96
643.78	53.83
643.93	84.26
644.07	102.98
644.22	79.58
644.37	86.60
644.51	53.83
644.66	30.43
644.81	28.09
644.95	65.54
645.10	44.47
645.25	2.34
645.39	0.00
645.54	56.17
645.69	28.09
645.83	21.06
645.98	49.15
646.13	11.70
646.27	79.58
646.42	58.51
646.57	107.66
646.71	11.70
646.86	72.56
647.00	23.41
647.15	81.92
647.30	9.36
647.44	0.00
647.59	107.66
647.74	72.56
647.88	30.43
648.03	35.11
648.17	60.85
648.32	0.00
648.47	0.00
648.61	37.45
648.76	37.45
648.90	30.43
649.05	14.04
649.20	65.54
649.34	0.00
649.49	51.49
649.63	0.00
649.78	0.00
649.92	30.43
650.07	28.09
650.21	70.22
650.36	110.01
650.51	112.35
650.65	100.64
650.80	81.92
650.94	77.24
651.09	86.60
651.23	56.17
651.38	88.94
651.52	18.72
651.67	39.79
651.81	32.77
651.96	11.70
652.10	51.49
652.25	79.58
652.39	107.66
652.54	0.00
652.68	0.00
652.83	60.85
652.97	67.88
653.12	81.92
653.26	56.17
653.41	49.15
653.55	81.92
653.70	35.11
653.84	60.85
653.99	0.00
654.13	30.43
654.27	100.64
654.42	67.88
654.56	60.85
654.71	35.11
654.85	63.19
655.00	11.70
655.14	81.92
655.29	44.47
655.43	0.00
655.57	28.09
655.72	58.51
655.86	32.77
656.01	0.00
656.15	65.54
656.30	0.00
656.44	21.06
656.58	53.83
656.73	58.51
656.87	0.00
657.01	42.13
657.16	30.43
657.30	4.68
657.45	112.35
657.59	25.75
657.73	88.94
657.88	105.32
658.02	44.47
658.16	4.68
658.31	49.15
658.45	35.11
658.60	21.06
658.74	0.00
658.88	60.85
659.03	60.85
659.17	28.09
659.31	81.92
659.46	74.90
659.60	107.66
659.74	77.24
659.89	44.47
660.03	0.00
660.17	0.00
660.32	0.00
660.46	100.64
660.60	14.04
660.74	0.00
660.89	28.09
661.03	25.75
661.17	65.54
661.32	14.04
661.46	93.62
661.60	23.41
661.74	37.45
661.89	56.17
662.03	37.45
662.17	53.83
662.31	14.04
662.46	63.19
662.60	0.00
662.74	23.41
662.88	0.00
663.03	35.11
663.17	0.00
663.31	21.06
663.45	28.09
663.60	9.36
663.74	32.77
663.88	0.00
664.02	0.00
664.17	79.58
664.31	7.02
664.45	18.72
664.59	44.47
664.73	7.02
664.88	0.00
665.02	88.94
665.16	0.00
665.30	53.83
665.44	79.58
665.59	98.30
665.73	51.49
665.87	44.47
666.01	0.00
666.15	4.68
666.29	58.51
666.44	58.51
666.58	93.62
666.72	35.11
666.86	44.47
667.00	0.00
667.14	35.11
667.28	0.00
667.43	74.90
667.57	156.82
667.71	81.92
667.85	110.01
667.99	175.54
668.13	23.41
668.27	37.45
668.41	39.79
668.56	53.83
668.70	58.51
668.84	81.92
668.98	70.22
669.12	0.00
669.26	32.77
669.40	84.26
669.54	9.36
669.68	51.49
669.82	35.11
669.96	2.34
670.10	32.77
670.25	142.77
670.39	77.24
670.53	49.15
670.67	77.24
670.81	44.47
670.95	74.90
671.09	35.11
671.23	46.81
671.37	37.45
671.51	35.11
671.65	53.83
671.79	65.54
671.93	18.72
672.07	42.13
672.21	128.73
672.35	11.70
672.49	0.00
672.63	77.24
672.77	0.00
672.91	53.83
673.05	37.45
673.19	0.00
673.33	23.41
673.47	0.00
673.61	0.00
673.75	25.75
673.89	70.22
674.03	11.70
674.17	0.00
674.31	51.49
674.45	25.75
674.59	79.58
674.73	30.43
674.87	65.54
675.01	44.47
675.15	37.45
675.29	16.38
675.43	30.43
675.56	91.28
675.70	72.56
675.84	0.00
675.98	0.00
676.12	0.00
676.26	77.24
676.40	16.38
676.54	95.96
676.68	81.92
676.82	28.09
676.96	121.71
677.10	11.70
677.23	105.32
677.37	30.43
677.51	60.85
677.65	0.00
677.79	35.11
677.93	67.88
678.07	37.45
678.21	25.75
678.34	18.72
678.48	46.81
678.62	70.22
678.76	25.75
678.90	32.77
679.04	32.77
679.18	9.36
679.31	21.06
679.45	28.09
679.59	28.09
679.73	63.19
679.87	77.24
680.00	100.64
680.14	67.88
680.28	39.79
680.42	37.45
680.56	25.75
680.70	88.94
680.83	44.47
680.97	9.36
681.11	2.34
681.25	23.41
681.39	49.15
681.52	32.77
681.66	0.00
681.80	67.88
681.94	35.11
682.07	32.77
682.21	44.47
682.35	0.00
682.49	0.00
682.62	42.13
682.76	51.49
682.90	79.58
683.04	0.00
683.17	81.92
683.31	0.00
683.45	30.43
683.59	46.81
683.72	39.79
683.86	0.00
684.00	0.00
684.13	74.90
684.27	0.00
684.41	16.38
684.55	0.00
684.68	0.00
684.82	0.00
684.96	32.77
685.09	77.24
685.23	7.02
685.37	147.45
685.50	9.36
685.64	23.41
685.78	49.15
685.91	53.83
686.05	37.45
686.19	14.04
686.32	35.11
686.46	95.96
686.60	11.70
686.73	35.11
686.87	21.06
687.01	0.00
687.14	0.00
687.28	39.79
687.42	0.00
687.55	2.34
687.69	81.92
687.82	18.72
687.96	0.00
688.10	0.00
688.23	16.38
688.37	56.17
688.50	56.17
688.64	44.47
688.78	0.00
688.91	0.00
689.05	0.00
689.18	65.54
689.32	77.24
689.46	0.00
689.59	60.85
689.73	35.11
689.86	11.70
690.00	51.49
690.13	30.43
690.27	39.79
690.41	35.11
690.54	46.81
690.68	51.49
690.81	51.49
690.95	0.00
691.08	49.15
691.22	0.00
691.35	0.00
691.49	77.24
691.62	0.00
691.76	21.06
691.89	37.45
692.03	0.00
692.16	21.06
692.30	14.04
692.43	7.02
692.57	79.58
692.70	0.00
692.84	56.17
692.97	7.02
693.11	65.54
693.24	60.85
693.38	30.43
693.51	56.17
693.65	28.09
693.78	4.68
693.92	23.41
694.05	0.00
694.19	16.38
694.32	0.00
694.45	79.58
694.59	65.54
694.72	37.45
694.86	30.43
694.99	49.15
695.13	37.45
695.26	28.09
695.39	18.72
695.53	79.58
695.66	39.79
695.80	21.06
695.93	23.41
696.07	0.00
696.20	39.79
696.33	2.34
696.47	58.51
696.60	2.34
696.73	105.32
696.87	51.49
697.00	0.00
697.14	0.00
697.27	21.06
697.40	2.34
697.54	0.00
697.67	11.70
697.80	0.00
697.94	53.83
698.07	70.22
698.21	79.58
698.34	9.36
698.47	42.13
698.61	37.45
698.74	0.00
698.87	0.00
699.01	0.00
699.14	0.00
699.27	18.72
699.40	0.00
699.54	0.00
699.67	23.41
699.80	77.24
699.94	131.07
700.07	0.00
700.20	46.81
700.34	0.00
700.47	0.00
700.60	9.36
700.73	14.04
700.87	49.15
701.00	37.45
701.13	4.68
701.26	25.75
701.40	0.00
701.53	60.85
701.66	46.81
701.79	63.19
701.93	44.47
702.06	110.01
702.19	95.96
702.32	53.83
702.46	60.85
702.59	0.00
702.72	11.70
702.85	60.85
702.99	39.79
703.12	138.09
703.25	161.50
703.38	67.88
703.51	30.43
703.65	67.88
703.78	77.24
703.91	39.79
704.04	0.00
704.17	21.06
704.31	21.06
704.44	72.56
704.57	0.00
704.70	0.00
704.83	30.43
704.96	42.13
705.10	44.47
705.23	0.00
>>>>>End Processed Spectral Data<<<<<
