SpectraSuite Data File
++++++++++++++++++++++++++++++++++++
Date: Fri Oct 04 12:13:37 GMT-05:00 2013
User: price-jones
Dark Spectrum Present: No
Reference Spectrum Present: No
Number of Sampled Component Spectra: 1
Spectrometers: USB2+H05261
Integration Time (usec): 10000 (USB2+H05261)
Spectra Averaged: 1 (USB2+H05261)
Boxcar Smoothing: 0 (USB2+H05261)
Correct for Electrical Dark: No (USB2+H05261)
Strobe/Lamp Enabled: No (USB2+H05261)
Correct for Detector Non-linearity: No (USB2+H05261)
Correct for Stray Light: No (USB2+H05261)
Number of Pixels in Processed Spectrum: 2048
>>>>>Begin Processed Spectral Data<<<<<
365.73	11.70
365.92	11.70
366.12	11.70
366.32	0.00
366.52	0.00
366.72	0.00
366.91	0.00
367.11	0.00
367.31	0.00
367.51	0.00
367.70	0.00
367.90	0.00
368.10	0.00
368.30	0.00
368.49	0.00
368.69	0.00
368.89	0.00
369.09	0.00
369.28	0.00
369.48	0.00
369.68	0.00
369.87	0.00
370.07	0.00
370.27	0.00
370.47	0.00
370.66	0.00
370.86	0.00
371.06	0.00
371.25	49.15
371.45	32.77
371.65	2.34
371.84	4.68
372.04	16.38
372.24	0.00
372.44	0.00
372.63	42.13
372.83	0.00
373.03	0.00
373.22	0.00
373.42	32.77
373.62	30.43
373.81	70.22
374.01	0.00
374.21	0.00
374.40	37.45
374.60	0.00
374.79	58.51
374.99	79.58
375.19	25.75
375.38	112.35
375.58	2.34
375.78	105.32
375.97	65.54
376.17	70.22
376.37	9.36
376.56	0.00
376.76	67.88
376.95	4.68
377.15	0.00
377.35	0.00
377.54	0.00
377.74	0.00
377.93	0.00
378.13	0.00
378.33	65.54
378.52	0.00
378.72	30.43
378.91	37.45
379.11	16.38
379.31	18.72
379.50	0.00
379.70	18.72
379.89	60.85
380.09	65.54
380.28	39.79
380.48	14.04
380.68	53.83
380.87	7.02
381.07	9.36
381.26	0.00
381.46	32.77
381.65	28.09
381.85	0.00
382.04	9.36
382.24	56.17
382.43	81.92
382.63	30.43
382.83	60.85
383.02	0.00
383.22	25.75
383.41	9.36
383.61	0.00
383.80	25.75
384.00	44.47
384.19	0.00
384.39	67.88
384.58	0.00
384.78	4.68
384.97	0.00
385.17	14.04
385.36	0.00
385.56	53.83
385.75	49.15
385.95	0.00
386.14	0.00
386.34	51.49
386.53	39.79
386.72	37.45
386.92	0.00
387.11	0.00
387.31	0.00
387.50	37.45
387.70	0.00
387.89	0.00
388.09	0.00
388.28	11.70
388.48	53.83
388.67	53.83
388.86	42.13
389.06	32.77
389.25	25.75
389.45	28.09
389.64	0.00
389.84	49.15
390.03	53.83
390.22	0.00
390.42	11.70
390.61	0.00
390.81	0.00
391.00	23.41
391.19	60.85
391.39	37.45
391.58	0.00
391.78	0.00
391.97	0.00
392.16	0.00
392.36	25.75
392.55	0.00
392.75	0.00
392.94	0.00
393.13	51.49
393.33	0.00
393.52	46.81
393.71	49.15
393.91	11.70
394.10	14.04
394.29	65.54
394.49	30.43
394.68	32.77
394.88	30.43
395.07	11.70
395.26	131.07
395.46	72.56
395.65	53.83
395.84	25.75
396.04	11.70
396.23	0.00
396.42	0.00
396.62	42.13
396.81	0.00
397.00	0.00
397.19	0.00
397.39	0.00
397.58	42.13
397.77	88.94
397.97	4.68
398.16	67.88
398.35	0.00
398.55	0.00
398.74	0.00
398.93	25.75
399.12	25.75
399.32	44.47
399.51	65.54
399.70	79.58
399.90	58.51
400.09	44.47
400.28	56.17
400.47	35.11
400.67	21.06
400.86	28.09
401.05	0.00
401.24	0.00
401.44	93.62
401.63	28.09
401.82	67.88
402.01	11.70
402.21	44.47
402.40	23.41
402.59	0.00
402.78	49.15
402.97	0.00
403.17	46.81
403.36	67.88
403.55	58.51
403.74	0.00
403.93	67.88
404.13	107.66
404.32	63.19
404.51	14.04
404.70	79.58
404.89	49.15
405.09	51.49
405.28	0.00
405.47	9.36
405.66	9.36
405.85	25.75
406.05	88.94
406.24	63.19
406.43	0.00
406.62	60.85
406.81	56.17
407.00	14.04
407.20	79.58
407.39	65.54
407.58	49.15
407.77	0.00
407.96	53.83
408.15	32.77
408.34	2.34
408.54	16.38
408.73	16.38
408.92	32.77
409.11	72.56
409.30	44.47
409.49	67.88
409.68	51.49
409.87	16.38
410.07	0.00
410.26	25.75
410.45	53.83
410.64	79.58
410.83	9.36
411.02	53.83
411.21	37.45
411.40	7.02
411.59	4.68
411.78	0.00
411.98	46.81
412.17	56.17
412.36	39.79
412.55	46.81
412.74	35.11
412.93	18.72
413.12	14.04
413.31	91.28
413.50	0.00
413.69	28.09
413.88	51.49
414.07	74.90
414.26	0.00
414.45	32.77
414.64	30.43
414.83	0.00
415.02	2.34
415.22	16.38
415.41	0.00
415.60	14.04
415.79	63.19
415.98	0.00
416.17	39.79
416.36	35.11
416.55	9.36
416.74	11.70
416.93	42.13
417.12	25.75
417.31	16.38
417.50	9.36
417.69	88.94
417.88	18.72
418.07	7.02
418.26	25.75
418.45	63.19
418.64	0.00
418.83	9.36
419.02	112.35
419.21	9.36
419.39	39.79
419.58	77.24
419.77	74.90
419.96	0.00
420.15	98.30
420.34	60.85
420.53	42.13
420.72	0.00
420.91	98.30
421.10	30.43
421.29	0.00
421.48	0.00
421.67	4.68
421.86	56.17
422.05	0.00
422.24	14.04
422.43	58.51
422.61	28.09
422.80	93.62
422.99	56.17
423.18	53.83
423.37	32.77
423.56	37.45
423.75	0.00
423.94	98.30
424.13	37.45
424.32	70.22
424.50	65.54
424.69	95.96
424.88	72.56
425.07	9.36
425.26	23.41
425.45	79.58
425.64	63.19
425.83	32.77
426.01	81.92
426.20	14.04
426.39	46.81
426.58	77.24
426.77	2.34
426.96	4.68
427.15	56.17
427.33	37.45
427.52	98.30
427.71	100.64
427.90	0.00
428.09	53.83
428.28	86.60
428.46	65.54
428.65	86.60
428.84	35.11
429.03	63.19
429.22	30.43
429.40	84.26
429.59	0.00
429.78	74.90
429.97	9.36
430.16	77.24
430.34	7.02
430.53	65.54
430.72	0.00
430.91	2.34
431.10	0.00
431.28	18.72
431.47	65.54
431.66	11.70
431.85	65.54
432.03	0.00
432.22	53.83
432.41	0.00
432.60	67.88
432.79	46.81
432.97	81.92
433.16	72.56
433.35	91.28
433.54	2.34
433.72	23.41
433.91	35.11
434.10	79.58
434.28	32.77
434.47	84.26
434.66	18.72
434.85	2.34
435.03	81.92
435.22	18.72
435.41	58.51
435.59	77.24
435.78	63.19
435.97	0.00
436.16	39.79
436.34	102.98
436.53	23.41
436.72	23.41
436.90	30.43
437.09	0.00
437.28	72.56
437.46	14.04
437.65	39.79
437.84	107.66
438.02	84.26
438.21	67.88
438.40	70.22
438.58	28.09
438.77	102.98
438.96	28.09
439.14	65.54
439.33	18.72
439.52	65.54
439.70	51.49
439.89	11.70
440.08	91.28
440.26	119.37
440.45	39.79
440.63	44.47
440.82	88.94
441.01	65.54
441.19	46.81
441.38	138.09
441.57	51.49
441.75	18.72
441.94	53.83
442.12	65.54
442.31	88.94
442.50	107.66
442.68	81.92
442.87	86.60
443.05	56.17
443.24	9.36
443.43	4.68
443.61	42.13
443.80	30.43
443.98	25.75
444.17	42.13
444.35	58.51
444.54	46.81
444.73	49.15
444.91	56.17
445.10	49.15
445.28	74.90
445.47	63.19
445.65	4.68
445.84	9.36
446.02	0.00
446.21	7.02
446.39	53.83
446.58	79.58
446.77	84.26
446.95	60.85
447.14	0.00
447.32	16.38
447.51	93.62
447.69	30.43
447.88	0.00
448.06	65.54
448.25	14.04
448.43	72.56
448.62	7.02
448.80	0.00
448.99	98.30
449.17	93.62
449.36	58.51
449.54	72.56
449.73	42.13
449.91	79.58
450.10	28.09
450.28	21.06
450.46	105.32
450.65	51.49
450.83	9.36
451.02	95.96
451.20	44.47
451.39	79.58
451.57	7.02
451.76	98.30
451.94	25.75
452.13	35.11
452.31	23.41
452.49	21.06
452.68	100.64
452.86	14.04
453.05	60.85
453.23	25.75
453.42	46.81
453.60	0.00
453.78	35.11
453.97	4.68
454.15	112.35
454.34	39.79
454.52	16.38
454.70	58.51
454.89	51.49
455.07	9.36
455.26	39.79
455.44	46.81
455.62	53.83
455.81	42.13
455.99	100.64
456.17	86.60
456.36	37.45
456.54	0.00
456.73	21.06
456.91	117.03
457.09	44.47
457.28	100.64
457.46	131.07
457.64	84.26
457.83	42.13
458.01	0.00
458.19	28.09
458.38	7.02
458.56	72.56
458.74	23.41
458.93	67.88
459.11	56.17
459.29	86.60
459.48	21.06
459.66	65.54
459.84	67.88
460.03	46.81
460.21	74.90
460.39	112.35
460.57	35.11
460.76	88.94
460.94	56.17
461.12	49.15
461.31	23.41
461.49	53.83
461.67	63.19
461.85	51.49
462.04	32.77
462.22	102.98
462.40	18.72
462.59	56.17
462.77	63.19
462.95	112.35
463.13	107.66
463.32	51.49
463.50	72.56
463.68	65.54
463.86	88.94
464.05	9.36
464.23	42.13
464.41	28.09
464.59	35.11
464.78	84.26
464.96	32.77
465.14	56.17
465.32	30.43
465.50	91.28
465.69	42.13
465.87	98.30
466.05	126.39
466.23	39.79
466.41	91.28
466.60	74.90
466.78	51.49
466.96	56.17
467.14	25.75
467.32	23.41
467.51	2.34
467.69	79.58
467.87	98.30
468.05	25.75
468.23	53.83
468.41	112.35
468.60	39.79
468.78	4.68
468.96	25.75
469.14	70.22
469.32	32.77
469.50	39.79
469.69	95.96
469.87	18.72
470.05	44.47
470.23	58.51
470.41	39.79
470.59	72.56
470.77	86.60
470.95	18.72
471.14	53.83
471.32	65.54
471.50	56.17
471.68	74.90
471.86	131.07
472.04	81.92
472.22	114.69
472.40	14.04
472.58	63.19
472.77	102.98
472.95	72.56
473.13	60.85
473.31	110.01
473.49	51.49
473.67	81.92
473.85	84.26
474.03	51.49
474.21	37.45
474.39	126.39
474.57	51.49
474.75	30.43
474.93	0.00
475.12	84.26
475.30	28.09
475.48	37.45
475.66	32.77
475.84	60.85
476.02	30.43
476.20	37.45
476.38	60.85
476.56	49.15
476.74	168.52
476.92	16.38
477.10	0.00
477.28	88.94
477.46	58.51
477.64	126.39
477.82	51.49
478.00	25.75
478.18	65.54
478.36	0.00
478.54	18.72
478.72	14.04
478.90	46.81
479.08	70.22
479.26	56.17
479.44	133.41
479.62	56.17
479.80	93.62
479.98	81.92
480.16	28.09
480.34	30.43
480.52	14.04
480.70	44.47
480.88	114.69
481.06	44.47
481.24	0.00
481.41	60.85
481.59	100.64
481.77	72.56
481.95	51.49
482.13	74.90
482.31	30.43
482.49	18.72
482.67	56.17
482.85	84.26
483.03	21.06
483.21	63.19
483.39	114.69
483.57	63.19
483.74	133.41
483.92	7.02
484.10	91.28
484.28	147.45
484.46	67.88
484.64	18.72
484.82	63.19
485.00	18.72
485.18	98.30
485.35	117.03
485.53	60.85
485.71	70.22
485.89	23.41
486.07	35.11
486.25	88.94
486.43	58.51
486.61	65.54
486.78	32.77
486.96	51.49
487.14	217.67
487.32	84.26
487.50	67.88
487.68	44.47
487.85	14.04
488.03	25.75
488.21	32.77
488.39	53.83
488.57	14.04
488.75	84.26
488.92	114.69
489.10	102.98
489.28	23.41
489.46	63.19
489.64	119.37
489.81	49.15
489.99	56.17
490.17	44.47
490.35	86.60
490.53	128.73
490.70	91.28
490.88	37.45
491.06	42.13
491.24	53.83
491.41	39.79
491.59	7.02
491.77	14.04
491.95	46.81
492.13	0.00
492.30	117.03
492.48	79.58
492.66	112.35
492.84	49.15
493.01	95.96
493.19	152.13
493.37	74.90
493.54	93.62
493.72	2.34
493.90	98.30
494.08	44.47
494.25	91.28
494.43	23.41
494.61	88.94
494.79	124.05
494.96	114.69
495.14	140.43
495.32	79.58
495.49	117.03
495.67	60.85
495.85	58.51
496.02	133.41
496.20	63.19
496.38	91.28
496.55	51.49
496.73	84.26
496.91	95.96
497.09	128.73
497.26	74.90
497.44	84.26
497.62	42.13
497.79	67.88
497.97	58.51
498.14	63.19
498.32	65.54
498.50	72.56
498.67	98.30
498.85	63.19
499.03	4.68
499.20	105.32
499.38	135.75
499.56	117.03
499.73	65.54
499.91	72.56
500.08	93.62
500.26	70.22
500.44	28.09
500.61	88.94
500.79	58.51
500.97	32.77
501.14	72.56
501.32	51.49
501.49	93.62
501.67	58.51
501.84	177.88
502.02	81.92
502.20	81.92
502.37	72.56
502.55	86.60
502.72	100.64
502.90	84.26
503.07	100.64
503.25	128.73
503.43	56.17
503.60	58.51
503.78	56.17
503.95	121.71
504.13	35.11
504.30	86.60
504.48	44.47
504.65	138.09
504.83	128.73
505.01	112.35
505.18	154.48
505.36	30.43
505.53	105.32
505.71	124.05
505.88	86.60
506.06	53.83
506.23	107.66
506.41	84.26
506.58	105.32
506.76	53.83
506.93	79.58
507.11	79.58
507.28	126.39
507.46	21.06
507.63	117.03
507.81	84.26
507.98	93.62
508.16	100.64
508.33	112.35
508.50	135.75
508.68	39.79
508.85	105.32
509.03	114.69
509.20	46.81
509.38	67.88
509.55	117.03
509.73	145.11
509.90	138.09
510.08	110.01
510.25	110.01
510.42	65.54
510.60	21.06
510.77	84.26
510.95	88.94
511.12	46.81
511.30	60.85
511.47	88.94
511.64	95.96
511.82	93.62
511.99	128.73
512.17	100.64
512.34	77.24
512.51	107.66
512.69	107.66
512.86	138.09
513.04	114.69
513.21	133.41
513.38	53.83
513.56	107.66
513.73	49.15
513.90	79.58
514.08	154.48
514.25	114.69
514.43	60.85
514.60	119.37
514.77	74.90
514.95	112.35
515.12	77.24
515.29	128.73
515.47	46.81
515.64	112.35
515.81	93.62
515.99	91.28
516.16	74.90
516.33	79.58
516.51	138.09
516.68	28.09
516.85	56.17
517.03	23.41
517.20	58.51
517.37	51.49
517.54	60.85
517.72	72.56
517.89	39.79
518.06	84.26
518.24	84.26
518.41	63.19
518.58	102.98
518.75	105.32
518.93	100.64
519.10	100.64
519.27	105.32
519.45	23.41
519.62	105.32
519.79	77.24
519.96	107.66
520.14	0.00
520.31	46.81
520.48	77.24
520.65	56.17
520.83	65.54
521.00	84.26
521.17	70.22
521.34	117.03
521.52	60.85
521.69	102.98
521.86	95.96
522.03	32.77
522.20	114.69
522.38	105.32
522.55	114.69
522.72	77.24
522.89	42.13
523.07	91.28
523.24	102.98
523.41	124.05
523.58	135.75
523.75	58.51
523.92	56.17
524.10	84.26
524.27	119.37
524.44	28.09
524.61	180.22
524.78	98.30
524.96	28.09
525.13	7.02
525.30	51.49
525.47	147.45
525.64	131.07
525.81	95.96
525.98	60.85
526.16	65.54
526.33	0.00
526.50	35.11
526.67	128.73
526.84	100.64
527.01	39.79
527.18	30.43
527.36	74.90
527.53	88.94
527.70	74.90
527.87	102.98
528.04	42.13
528.21	112.35
528.38	49.15
528.55	81.92
528.72	39.79
528.89	114.69
529.07	110.01
529.24	117.03
529.41	161.50
529.58	81.92
529.75	21.06
529.92	63.19
530.09	93.62
530.26	58.51
530.43	168.52
530.60	107.66
530.77	95.96
530.94	63.19
531.11	25.75
531.28	84.26
531.46	39.79
531.63	74.90
531.80	60.85
531.97	131.07
532.14	119.37
532.31	149.79
532.48	117.03
532.65	65.54
532.82	32.77
532.99	126.39
533.16	72.56
533.33	110.01
533.50	42.13
533.67	30.43
533.84	2.34
534.01	93.62
534.18	105.32
534.35	88.94
534.52	105.32
534.69	88.94
534.86	88.94
535.03	46.81
535.20	65.54
535.37	124.05
535.54	117.03
535.71	102.98
535.88	201.29
536.05	138.09
536.22	88.94
536.38	145.11
536.55	93.62
536.72	60.85
536.89	51.49
537.06	49.15
537.23	51.49
537.40	74.90
537.57	117.03
537.74	93.62
537.91	46.81
538.08	58.51
538.25	114.69
538.42	72.56
538.59	100.64
538.75	63.19
538.92	0.00
539.09	208.31
539.26	117.03
539.43	60.85
539.60	58.51
539.77	107.66
539.94	140.43
540.11	39.79
540.28	102.98
540.44	25.75
540.61	93.62
540.78	114.69
540.95	56.17
541.12	95.96
541.29	98.30
541.46	81.92
541.62	37.45
541.79	51.49
541.96	93.62
542.13	56.17
542.30	91.28
542.47	49.15
542.63	133.41
542.80	133.41
542.97	74.90
543.14	152.13
543.31	72.56
543.48	100.64
543.64	98.30
543.81	131.07
543.98	51.49
544.15	72.56
544.32	53.83
544.48	81.92
544.65	11.70
544.82	35.11
544.99	72.56
545.16	65.54
545.32	128.73
545.49	67.88
545.66	102.98
545.83	79.58
546.00	81.92
546.16	44.47
546.33	63.19
546.50	88.94
546.67	98.30
546.83	138.09
547.00	114.69
547.17	23.41
547.34	102.98
547.50	159.16
547.67	56.17
547.84	46.81
548.00	77.24
548.17	70.22
548.34	149.79
548.51	105.32
548.67	95.96
548.84	77.24
549.01	65.54
549.18	121.71
549.34	63.19
549.51	32.77
549.68	126.39
549.84	140.43
550.01	91.28
550.18	121.71
550.34	67.88
550.51	28.09
550.68	51.49
550.84	23.41
551.01	114.69
551.18	67.88
551.34	42.13
551.51	77.24
551.68	145.11
551.84	65.54
552.01	124.05
552.18	117.03
552.34	102.98
552.51	147.45
552.68	72.56
552.84	81.92
553.01	98.30
553.18	81.92
553.34	72.56
553.51	142.77
553.67	67.88
553.84	114.69
554.01	86.60
554.17	23.41
554.34	46.81
554.51	102.98
554.67	95.96
554.84	173.20
555.00	42.13
555.17	140.43
555.33	91.28
555.50	32.77
555.67	88.94
555.83	88.94
556.00	124.05
556.16	84.26
556.33	119.37
556.50	110.01
556.66	28.09
556.83	77.24
556.99	81.92
557.16	67.88
557.32	65.54
557.49	53.83
557.65	58.51
557.82	86.60
557.98	25.75
558.15	28.09
558.32	81.92
558.48	21.06
558.65	23.41
558.81	65.54
558.98	49.15
559.14	35.11
559.31	35.11
559.47	60.85
559.64	42.13
559.80	79.58
559.97	72.56
560.13	46.81
560.30	4.68
560.46	58.51
560.63	145.11
560.79	72.56
560.96	23.41
561.12	72.56
561.29	84.26
561.45	25.75
561.61	21.06
561.78	133.41
561.94	133.41
562.11	128.73
562.27	154.48
562.44	107.66
562.60	126.39
562.77	124.05
562.93	98.30
563.10	4.68
563.26	79.58
563.42	70.22
563.59	81.92
563.75	18.72
563.92	49.15
564.08	63.19
564.24	119.37
564.41	79.58
564.57	49.15
564.74	152.13
564.90	72.56
565.07	81.92
565.23	60.85
565.39	131.07
565.56	105.32
565.72	0.00
565.88	65.54
566.05	37.45
566.21	35.11
566.38	140.43
566.54	88.94
566.70	72.56
566.87	79.58
567.03	53.83
567.19	65.54
567.36	77.24
567.52	84.26
567.68	16.38
567.85	65.54
568.01	42.13
568.17	98.30
568.34	98.30
568.50	30.43
568.66	86.60
568.83	88.94
568.99	95.96
569.15	91.28
569.32	67.88
569.48	72.56
569.64	7.02
569.81	51.49
569.97	107.66
570.13	44.47
570.30	23.41
570.46	39.79
570.62	142.77
570.78	117.03
570.95	114.69
571.11	154.48
571.27	25.75
571.43	107.66
571.60	86.60
571.76	102.98
571.92	72.56
572.09	77.24
572.25	30.43
572.41	14.04
572.57	49.15
572.74	65.54
572.90	42.13
573.06	81.92
573.22	74.90
573.38	70.22
573.55	0.00
573.71	72.56
573.87	170.86
574.03	124.05
574.20	56.17
574.36	58.51
574.52	126.39
574.68	53.83
574.84	63.19
575.01	98.30
575.17	102.98
575.33	35.11
575.49	88.94
575.65	81.92
575.82	95.96
575.98	67.88
576.14	147.45
576.30	86.60
576.46	30.43
576.62	100.64
576.79	42.13
576.95	30.43
577.11	72.56
577.27	81.92
577.43	16.38
577.59	60.85
577.75	65.54
577.92	9.36
578.08	11.70
578.24	114.69
578.40	95.96
578.56	124.05
578.72	70.22
578.88	128.73
579.04	39.79
579.21	11.70
579.37	37.45
579.53	88.94
579.69	91.28
579.85	74.90
580.01	46.81
580.17	23.41
580.33	114.69
580.49	72.56
580.65	98.30
580.82	128.73
580.98	35.11
581.14	67.88
581.30	51.49
581.46	86.60
581.62	79.58
581.78	74.90
581.94	28.09
582.10	70.22
582.26	18.72
582.42	98.30
582.58	23.41
582.74	49.15
582.90	53.83
583.06	81.92
583.22	65.54
583.38	77.24
583.54	79.58
583.70	60.85
583.86	7.02
584.02	100.64
584.18	119.37
584.34	37.45
584.50	28.09
584.66	135.75
584.82	98.30
584.98	98.30
585.14	53.83
585.30	100.64
585.46	42.13
585.62	58.51
585.78	42.13
585.94	79.58
586.10	168.52
586.26	77.24
586.42	46.81
586.58	86.60
586.74	32.77
586.90	93.62
587.06	95.96
587.22	79.58
587.38	65.54
587.54	18.72
587.70	88.94
587.86	91.28
588.02	91.28
588.18	131.07
588.34	133.41
588.49	58.51
588.65	131.07
588.81	42.13
588.97	98.30
589.13	58.51
589.29	35.11
589.45	112.35
589.61	2.34
589.77	124.05
589.93	77.24
590.08	58.51
590.24	117.03
590.40	58.51
590.56	56.17
590.72	58.51
590.88	100.64
591.04	102.98
591.20	74.90
591.35	37.45
591.51	105.32
591.67	11.70
591.83	112.35
591.99	105.32
592.15	95.96
592.31	100.64
592.46	77.24
592.62	88.94
592.78	46.81
592.94	30.43
593.10	140.43
593.26	37.45
593.41	28.09
593.57	21.06
593.73	9.36
593.89	77.24
594.05	60.85
594.20	56.17
594.36	117.03
594.52	88.94
594.68	93.62
594.84	77.24
594.99	11.70
595.15	121.71
595.31	35.11
595.47	124.05
595.62	60.85
595.78	63.19
595.94	25.75
596.10	39.79
596.25	117.03
596.41	51.49
596.57	74.90
596.73	37.45
596.88	49.15
597.04	84.26
597.20	16.38
597.36	98.30
597.51	39.79
597.67	95.96
597.83	128.73
597.99	105.32
598.14	110.01
598.30	9.36
598.46	105.32
598.61	105.32
598.77	98.30
598.93	119.37
599.09	74.90
599.24	107.66
599.40	53.83
599.56	23.41
599.71	49.15
599.87	51.49
600.03	44.47
600.18	4.68
600.34	28.09
600.50	84.26
600.65	98.30
600.81	25.75
600.97	56.17
601.12	72.56
601.28	72.56
601.44	88.94
601.59	81.92
601.75	79.58
601.91	14.04
602.06	46.81
602.22	77.24
602.37	79.58
602.53	91.28
602.69	102.98
602.84	93.62
603.00	44.47
603.16	65.54
603.31	39.79
603.47	46.81
603.62	7.02
603.78	32.77
603.94	72.56
604.09	77.24
604.25	72.56
604.40	65.54
604.56	84.26
604.71	39.79
604.87	70.22
605.03	28.09
605.18	23.41
605.34	35.11
605.49	58.51
605.65	77.24
605.80	84.26
605.96	65.54
606.12	60.85
606.27	18.72
606.43	70.22
606.58	11.70
606.74	81.92
606.89	65.54
607.05	152.13
607.20	11.70
607.36	88.94
607.51	44.47
607.67	79.58
607.82	77.24
607.98	91.28
608.13	65.54
608.29	133.41
608.44	16.38
608.60	70.22
608.75	128.73
608.91	9.36
609.06	131.07
609.22	91.28
609.37	98.30
609.53	58.51
609.68	58.51
609.84	56.17
609.99	65.54
610.15	28.09
610.30	60.85
610.46	142.77
610.61	56.17
610.76	100.64
610.92	46.81
611.07	7.02
611.23	23.41
611.38	107.66
611.54	30.43
611.69	25.75
611.84	117.03
612.00	63.19
612.15	28.09
612.31	70.22
612.46	93.62
612.62	98.30
612.77	86.60
612.92	28.09
613.08	74.90
613.23	105.32
613.39	25.75
613.54	100.64
613.69	63.19
613.85	107.66
614.00	4.68
614.15	25.75
614.31	79.58
614.46	49.15
614.62	51.49
614.77	39.79
614.92	91.28
615.08	119.37
615.23	88.94
615.38	49.15
615.54	72.56
615.69	79.58
615.84	18.72
616.00	74.90
616.15	93.62
616.30	21.06
616.46	2.34
616.61	107.66
616.76	44.47
616.92	0.00
617.07	67.88
617.22	0.00
617.37	0.00
617.53	128.73
617.68	110.01
617.83	42.13
617.99	30.43
618.14	35.11
618.29	102.98
618.45	37.45
618.60	0.00
618.75	28.09
618.90	0.00
619.06	46.81
619.21	84.26
619.36	145.11
619.51	63.19
619.67	35.11
619.82	37.45
619.97	23.41
620.12	88.94
620.28	86.60
620.43	46.81
620.58	126.39
620.73	23.41
620.89	56.17
621.04	49.15
621.19	91.28
621.34	39.79
621.49	16.38
621.65	44.47
621.80	51.49
621.95	74.90
622.10	42.13
622.25	18.72
622.41	51.49
622.56	112.35
622.71	60.85
622.86	124.05
623.01	114.69
623.16	81.92
623.32	168.52
623.47	58.51
623.62	53.83
623.77	56.17
623.92	18.72
624.07	0.00
624.23	25.75
624.38	67.88
624.53	119.37
624.68	18.72
624.83	114.69
624.98	53.83
625.13	58.51
625.29	149.79
625.44	42.13
625.59	18.72
625.74	170.86
625.89	67.88
626.04	93.62
626.19	39.79
626.34	11.70
626.49	77.24
626.65	77.24
626.80	0.00
626.95	51.49
627.10	74.90
627.25	49.15
627.40	84.26
627.55	72.56
627.70	88.94
627.85	88.94
628.00	32.77
628.15	0.00
628.30	0.00
628.45	18.72
628.60	81.92
628.76	0.00
628.91	72.56
629.06	51.49
629.21	44.47
629.36	18.72
629.51	42.13
629.66	67.88
629.81	72.56
629.96	133.41
630.11	44.47
630.26	93.62
630.41	7.02
630.56	0.00
630.71	72.56
630.86	107.66
631.01	88.94
631.16	51.49
631.31	46.81
631.46	67.88
631.61	11.70
631.76	32.77
631.91	70.22
632.06	56.17
632.21	100.64
632.36	16.38
632.51	0.00
632.66	74.90
632.81	84.26
632.96	0.00
633.10	110.01
633.25	21.06
633.40	49.15
633.55	0.00
633.70	84.26
633.85	131.07
634.00	93.62
634.15	37.45
634.30	67.88
634.45	93.62
634.60	112.35
634.75	21.06
634.90	25.75
635.05	51.49
635.19	102.98
635.34	65.54
635.49	53.83
635.64	107.66
635.79	77.24
635.94	63.19
636.09	91.28
636.24	21.06
636.39	67.88
636.53	0.00
636.68	51.49
636.83	25.75
636.98	16.38
637.13	30.43
637.28	91.28
637.43	105.32
637.57	107.66
637.72	23.41
637.87	35.11
638.02	88.94
638.17	32.77
638.32	46.81
638.46	128.73
638.61	25.75
638.76	72.56
638.91	18.72
639.06	100.64
639.20	65.54
639.35	65.54
639.50	0.00
639.65	93.62
639.80	63.19
639.94	79.58
640.09	25.75
640.24	74.90
640.39	0.00
640.54	0.00
640.68	35.11
640.83	124.05
640.98	0.00
641.13	93.62
641.27	105.32
641.42	11.70
641.57	88.94
641.72	79.58
641.86	77.24
642.01	58.51
642.16	91.28
642.31	63.19
642.45	121.71
642.60	21.06
642.75	42.13
642.90	56.17
643.04	205.97
643.19	37.45
643.34	67.88
643.48	107.66
643.63	51.49
643.78	28.09
643.93	7.02
644.07	72.56
644.22	70.22
644.37	58.51
644.51	32.77
644.66	84.26
644.81	84.26
644.95	0.00
645.10	51.49
645.25	42.13
645.39	124.05
645.54	11.70
645.69	88.94
645.83	110.01
645.98	98.30
646.13	81.92
646.27	46.81
646.42	37.45
646.57	42.13
646.71	25.75
646.86	93.62
647.00	102.98
647.15	67.88
647.30	119.37
647.44	74.90
647.59	107.66
647.74	14.04
647.88	46.81
648.03	65.54
648.17	60.85
648.32	72.56
648.47	35.11
648.61	110.01
648.76	7.02
648.90	18.72
649.05	18.72
649.20	39.79
649.34	67.88
649.49	56.17
649.63	42.13
649.78	102.98
649.92	147.45
650.07	79.58
650.21	4.68
650.36	112.35
650.51	0.00
650.65	77.24
650.80	18.72
650.94	16.38
651.09	124.05
651.23	79.58
651.38	95.96
651.52	77.24
651.67	84.26
651.81	14.04
651.96	121.71
652.10	46.81
652.25	86.60
652.39	110.01
652.54	44.47
652.68	53.83
652.83	65.54
652.97	114.69
653.12	18.72
653.26	0.00
653.41	11.70
653.55	30.43
653.70	53.83
653.84	81.92
653.99	42.13
654.13	23.41
654.27	77.24
654.42	14.04
654.56	74.90
654.71	74.90
654.85	37.45
655.00	84.26
655.14	42.13
655.29	84.26
655.43	67.88
655.57	0.00
655.72	0.00
655.86	37.45
656.01	2.34
656.15	49.15
656.30	93.62
656.44	21.06
656.58	0.00
656.73	102.98
656.87	0.00
657.01	110.01
657.16	79.58
657.30	142.77
657.45	46.81
657.59	42.13
657.73	42.13
657.88	25.75
658.02	63.19
658.16	72.56
658.31	49.15
658.45	56.17
658.60	39.79
658.74	56.17
658.88	0.00
659.03	0.00
659.17	100.64
659.31	28.09
659.46	79.58
659.60	30.43
659.74	72.56
659.89	114.69
660.03	72.56
660.17	58.51
660.32	93.62
660.46	42.13
660.60	81.92
660.74	58.51
660.89	86.60
661.03	14.04
661.17	0.00
661.32	46.81
661.46	44.47
661.60	56.17
661.74	159.16
661.89	16.38
662.03	37.45
662.17	63.19
662.31	98.30
662.46	21.06
662.60	81.92
662.74	0.00
662.88	119.37
663.03	77.24
663.17	11.70
663.31	23.41
663.45	0.00
663.60	53.83
663.74	35.11
663.88	49.15
664.02	25.75
664.17	93.62
664.31	0.00
664.45	70.22
664.59	105.32
664.73	7.02
664.88	16.38
665.02	0.00
665.16	42.13
665.30	30.43
665.44	16.38
665.59	16.38
665.73	0.00
665.87	42.13
666.01	81.92
666.15	56.17
666.29	51.49
666.44	44.47
666.58	95.96
666.72	30.43
666.86	42.13
667.00	77.24
667.14	79.58
667.28	0.00
667.43	77.24
667.57	23.41
667.71	25.75
667.85	93.62
667.99	0.00
668.13	67.88
668.27	42.13
668.41	11.70
668.56	49.15
668.70	105.32
668.84	37.45
668.98	0.00
669.12	0.00
669.26	9.36
669.40	133.41
669.54	39.79
669.68	63.19
669.82	114.69
669.96	67.88
670.10	74.90
670.25	0.00
670.39	32.77
670.53	51.49
670.67	30.43
670.81	74.90
670.95	0.00
671.09	0.00
671.23	0.00
671.37	81.92
671.51	23.41
671.65	110.01
671.79	121.71
671.93	86.60
672.07	51.49
672.21	102.98
672.35	65.54
672.49	102.98
672.63	32.77
672.77	95.96
672.91	30.43
673.05	23.41
673.19	0.00
673.33	44.47
673.47	30.43
673.61	46.81
673.75	25.75
673.89	0.00
674.03	35.11
674.17	42.13
674.31	65.54
674.45	102.98
674.59	18.72
674.73	63.19
674.87	91.28
675.01	42.13
675.15	81.92
675.29	93.62
675.43	65.54
675.56	65.54
675.70	112.35
675.84	81.92
675.98	93.62
676.12	37.45
676.26	37.45
676.40	72.56
676.54	147.45
676.68	39.79
676.82	9.36
676.96	23.41
677.10	25.75
677.23	79.58
677.37	18.72
677.51	65.54
677.65	28.09
677.79	60.85
677.93	79.58
678.07	84.26
678.21	37.45
678.34	110.01
678.48	46.81
678.62	28.09
678.76	46.81
678.90	56.17
679.04	0.00
679.18	0.00
679.31	2.34
679.45	53.83
679.59	49.15
679.73	105.32
679.87	79.58
680.00	67.88
680.14	44.47
680.28	117.03
680.42	49.15
680.56	72.56
680.70	100.64
680.83	51.49
680.97	60.85
681.11	58.51
681.25	0.00
681.39	18.72
681.52	0.00
681.66	65.54
681.80	53.83
681.94	88.94
682.07	79.58
682.21	107.66
682.35	65.54
682.49	4.68
682.62	0.00
682.76	51.49
682.90	49.15
683.04	53.83
683.17	0.00
683.31	84.26
683.45	28.09
683.59	79.58
683.72	77.24
683.86	84.26
684.00	0.00
684.13	25.75
684.27	0.00
684.41	86.60
684.55	65.54
684.68	4.68
684.82	28.09
684.96	35.11
685.09	60.85
685.23	112.35
685.37	23.41
685.50	2.34
685.64	70.22
685.78	21.06
685.91	30.43
686.05	56.17
686.19	4.68
686.32	0.00
686.46	88.94
686.60	65.54
686.73	70.22
686.87	49.15
687.01	0.00
687.14	39.79
687.28	0.00
687.42	86.60
687.55	77.24
687.69	107.66
687.82	51.49
687.96	0.00
688.10	77.24
688.23	0.00
688.37	65.54
688.50	51.49
688.64	79.58
688.78	4.68
688.91	0.00
689.05	46.81
689.18	0.00
689.32	0.00
689.46	72.56
689.59	18.72
689.73	0.00
689.86	25.75
690.00	0.00
690.13	84.26
690.27	44.47
690.41	60.85
690.54	60.85
690.68	42.13
690.81	56.17
690.95	60.85
691.08	63.19
691.22	46.81
691.35	32.77
691.49	14.04
691.62	49.15
691.76	117.03
691.89	0.00
692.03	35.11
692.16	63.19
692.30	0.00
692.43	70.22
692.57	79.58
692.70	0.00
692.84	0.00
692.97	11.70
693.11	0.00
693.24	44.47
693.38	16.38
693.51	81.92
693.65	42.13
693.78	0.00
693.92	0.00
694.05	88.94
694.19	35.11
694.32	9.36
694.45	28.09
694.59	51.49
694.72	14.04
694.86	49.15
694.99	53.83
695.13	79.58
695.26	21.06
695.39	0.00
695.53	65.54
695.66	30.43
695.80	63.19
695.93	0.00
696.07	60.85
696.20	46.81
696.33	32.77
696.47	56.17
696.60	49.15
696.73	65.54
696.87	35.11
697.00	0.00
697.14	77.24
697.27	21.06
697.40	114.69
697.54	46.81
697.67	84.26
697.80	30.43
697.94	0.00
698.07	46.81
698.21	0.00
698.34	25.75
698.47	23.41
698.61	32.77
698.74	32.77
698.87	56.17
699.01	86.60
699.14	4.68
699.27	65.54
699.40	86.60
699.54	58.51
699.67	0.00
699.80	23.41
699.94	37.45
700.07	91.28
700.20	16.38
700.34	56.17
700.47	9.36
700.60	21.06
700.73	37.45
700.87	44.47
701.00	21.06
701.13	58.51
701.26	67.88
701.40	35.11
701.53	0.00
701.66	51.49
701.79	0.00
701.93	23.41
702.06	0.00
702.19	53.83
702.32	60.85
702.46	86.60
702.59	100.64
702.72	37.45
702.85	49.15
702.99	117.03
703.12	35.11
703.25	37.45
703.38	0.00
703.51	0.00
703.65	21.06
703.78	81.92
703.91	51.49
704.04	16.38
704.17	49.15
704.31	65.54
704.44	4.68
704.57	37.45
704.70	63.19
704.83	42.13
704.96	9.36
705.10	51.49
705.23	0.00
>>>>>End Processed Spectral Data<<<<<
