SpectraSuite Data File
++++++++++++++++++++++++++++++++++++
Date: Fri Oct 04 12:13:39 GMT-05:00 2013
User: price-jones
Dark Spectrum Present: No
Reference Spectrum Present: No
Number of Sampled Component Spectra: 1
Spectrometers: USB2+H05261
Integration Time (usec): 10000 (USB2+H05261)
Spectra Averaged: 1 (USB2+H05261)
Boxcar Smoothing: 0 (USB2+H05261)
Correct for Electrical Dark: No (USB2+H05261)
Strobe/Lamp Enabled: No (USB2+H05261)
Correct for Detector Non-linearity: No (USB2+H05261)
Correct for Stray Light: No (USB2+H05261)
Number of Pixels in Processed Spectrum: 2048
>>>>>Begin Processed Spectral Data<<<<<
365.73	0.00
365.92	0.00
366.12	0.00
366.32	0.00
366.52	0.00
366.72	0.00
366.91	0.00
367.11	0.00
367.31	0.00
367.51	0.00
367.70	0.00
367.90	0.00
368.10	0.00
368.30	0.00
368.49	0.00
368.69	0.00
368.89	0.00
369.09	0.00
369.28	0.00
369.48	0.00
369.68	0.00
369.87	0.00
370.07	0.00
370.27	0.00
370.47	0.00
370.66	0.00
370.86	0.00
371.06	0.00
371.25	21.06
371.45	0.00
371.65	0.00
371.84	4.68
372.04	7.02
372.24	0.00
372.44	0.00
372.63	46.81
372.83	18.72
373.03	51.49
373.22	23.41
373.42	46.81
373.62	14.04
373.81	42.13
374.01	25.75
374.21	42.13
374.40	88.94
374.60	0.00
374.79	60.85
374.99	0.00
375.19	58.51
375.38	0.00
375.58	16.38
375.78	11.70
375.97	105.32
376.17	56.17
376.37	11.70
376.56	25.75
376.76	37.45
376.95	0.00
377.15	35.11
377.35	46.81
377.54	7.02
377.74	0.00
377.93	39.79
378.13	70.22
378.33	23.41
378.52	25.75
378.72	28.09
378.91	0.00
379.11	2.34
379.31	53.83
379.50	0.00
379.70	18.72
379.89	0.00
380.09	0.00
380.28	0.00
380.48	18.72
380.68	23.41
380.87	0.00
381.07	51.49
381.26	7.02
381.46	32.77
381.65	65.54
381.85	0.00
382.04	35.11
382.24	16.38
382.43	67.88
382.63	30.43
382.83	0.00
383.02	28.09
383.22	23.41
383.41	44.47
383.61	56.17
383.80	37.45
384.00	0.00
384.19	0.00
384.39	11.70
384.58	42.13
384.78	11.70
384.97	2.34
385.17	0.00
385.36	30.43
385.56	51.49
385.75	58.51
385.95	4.68
386.14	0.00
386.34	0.00
386.53	16.38
386.72	51.49
386.92	81.92
387.11	100.64
387.31	9.36
387.50	79.58
387.70	25.75
387.89	70.22
388.09	0.00
388.28	4.68
388.48	35.11
388.67	46.81
388.86	60.85
389.06	0.00
389.25	67.88
389.45	0.00
389.64	16.38
389.84	53.83
390.03	39.79
390.22	0.00
390.42	51.49
390.61	0.00
390.81	0.00
391.00	72.56
391.19	16.38
391.39	42.13
391.58	23.41
391.78	4.68
391.97	44.47
392.16	0.00
392.36	30.43
392.55	35.11
392.75	7.02
392.94	16.38
393.13	30.43
393.33	0.00
393.52	30.43
393.71	0.00
393.91	30.43
394.10	35.11
394.29	37.45
394.49	0.00
394.68	28.09
394.88	0.00
395.07	0.00
395.26	4.68
395.46	0.00
395.65	49.15
395.84	0.00
396.04	7.02
396.23	67.88
396.42	39.79
396.62	0.00
396.81	21.06
397.00	60.85
397.19	2.34
397.39	159.16
397.58	32.77
397.77	25.75
397.97	0.00
398.16	70.22
398.35	0.00
398.55	35.11
398.74	25.75
398.93	46.81
399.12	0.00
399.32	23.41
399.51	37.45
399.70	0.00
399.90	0.00
400.09	0.00
400.28	28.09
400.47	0.00
400.67	4.68
400.86	53.83
401.05	35.11
401.24	28.09
401.44	56.17
401.63	53.83
401.82	39.79
402.01	16.38
402.21	28.09
402.40	0.00
402.59	35.11
402.78	28.09
402.97	25.75
403.17	46.81
403.36	60.85
403.55	0.00
403.74	2.34
403.93	39.79
404.13	30.43
404.32	0.00
404.51	2.34
404.70	0.00
404.89	39.79
405.09	100.64
405.28	81.92
405.47	9.36
405.66	42.13
405.85	2.34
406.05	25.75
406.24	46.81
406.43	0.00
406.62	51.49
406.81	2.34
407.00	70.22
407.20	0.00
407.39	21.06
407.58	37.45
407.77	28.09
407.96	67.88
408.15	0.00
408.34	35.11
408.54	53.83
408.73	79.58
408.92	25.75
409.11	74.90
409.30	16.38
409.49	4.68
409.68	84.26
409.87	0.00
410.07	16.38
410.26	9.36
410.45	9.36
410.64	7.02
410.83	16.38
411.02	51.49
411.21	58.51
411.40	79.58
411.59	42.13
411.78	51.49
411.98	91.28
412.17	60.85
412.36	72.56
412.55	32.77
412.74	42.13
412.93	91.28
413.12	81.92
413.31	0.00
413.50	60.85
413.69	0.00
413.88	56.17
414.07	0.00
414.26	30.43
414.45	79.58
414.64	53.83
414.83	63.19
415.02	0.00
415.22	58.51
415.41	0.00
415.60	25.75
415.79	0.00
415.98	0.00
416.17	58.51
416.36	42.13
416.55	18.72
416.74	32.77
416.93	37.45
417.12	60.85
417.31	2.34
417.50	7.02
417.69	23.41
417.88	65.54
418.07	65.54
418.26	107.66
418.45	67.88
418.64	86.60
418.83	49.15
419.02	0.00
419.21	7.02
419.39	65.54
419.58	14.04
419.77	91.28
419.96	67.88
420.15	21.06
420.34	105.32
420.53	98.30
420.72	56.17
420.91	60.85
421.10	63.19
421.29	25.75
421.48	51.49
421.67	28.09
421.86	67.88
422.05	23.41
422.24	65.54
422.43	131.07
422.61	0.00
422.80	32.77
422.99	84.26
423.18	18.72
423.37	51.49
423.56	4.68
423.75	44.47
423.94	46.81
424.13	49.15
424.32	86.60
424.50	119.37
424.69	0.00
424.88	0.00
425.07	0.00
425.26	147.45
425.45	0.00
425.64	72.56
425.83	46.81
426.01	23.41
426.20	98.30
426.39	67.88
426.58	93.62
426.77	63.19
426.96	70.22
427.15	0.00
427.33	114.69
427.52	9.36
427.71	56.17
427.90	42.13
428.09	0.00
428.28	37.45
428.46	32.77
428.65	79.58
428.84	32.77
429.03	32.77
429.22	0.00
429.40	11.70
429.59	0.00
429.78	65.54
429.97	70.22
430.16	0.00
430.34	65.54
430.53	16.38
430.72	117.03
430.91	7.02
431.10	0.00
431.28	53.83
431.47	60.85
431.66	53.83
431.85	4.68
432.03	18.72
432.22	32.77
432.41	2.34
432.60	42.13
432.79	49.15
432.97	35.11
433.16	63.19
433.35	0.00
433.54	51.49
433.72	91.28
433.91	42.13
434.10	7.02
434.28	0.00
434.47	28.09
434.66	79.58
434.85	2.34
435.03	49.15
435.22	11.70
435.41	58.51
435.59	65.54
435.78	46.81
435.97	60.85
436.16	46.81
436.34	35.11
436.53	11.70
436.72	70.22
436.90	77.24
437.09	70.22
437.28	51.49
437.46	0.00
437.65	14.04
437.84	4.68
438.02	70.22
438.21	112.35
438.40	0.00
438.58	0.00
438.77	0.00
438.96	0.00
439.14	53.83
439.33	23.41
439.52	9.36
439.70	42.13
439.89	37.45
440.08	16.38
440.26	58.51
440.45	81.92
440.63	70.22
440.82	35.11
441.01	58.51
441.19	77.24
441.38	9.36
441.57	28.09
441.75	18.72
441.94	9.36
442.12	72.56
442.31	9.36
442.50	14.04
442.68	65.54
442.87	58.51
443.05	70.22
443.24	79.58
443.43	39.79
443.61	67.88
443.80	46.81
443.98	135.75
444.17	53.83
444.35	4.68
444.54	7.02
444.73	4.68
444.91	56.17
445.10	86.60
445.28	0.00
445.47	81.92
445.65	42.13
445.84	98.30
446.02	30.43
446.21	46.81
446.39	14.04
446.58	46.81
446.77	32.77
446.95	74.90
447.14	79.58
447.32	98.30
447.51	4.68
447.69	49.15
447.88	0.00
448.06	9.36
448.25	30.43
448.43	63.19
448.62	84.26
448.80	102.98
448.99	88.94
449.17	51.49
449.36	60.85
449.54	63.19
449.73	79.58
449.91	42.13
450.10	35.11
450.28	110.01
450.46	51.49
450.65	67.88
450.83	74.90
451.02	46.81
451.20	74.90
451.39	58.51
451.57	81.92
451.76	49.15
451.94	49.15
452.13	105.32
452.31	11.70
452.49	23.41
452.68	53.83
452.86	44.47
453.05	72.56
453.23	32.77
453.42	58.51
453.60	53.83
453.78	51.49
453.97	49.15
454.15	88.94
454.34	44.47
454.52	42.13
454.70	46.81
454.89	37.45
455.07	0.00
455.26	28.09
455.44	37.45
455.62	0.00
455.81	70.22
455.99	49.15
456.17	128.73
456.36	114.69
456.54	67.88
456.73	28.09
456.91	53.83
457.09	56.17
457.28	37.45
457.46	32.77
457.64	170.86
457.83	46.81
458.01	23.41
458.19	4.68
458.38	51.49
458.56	0.00
458.74	58.51
458.93	63.19
459.11	67.88
459.29	23.41
459.48	49.15
459.66	39.79
459.84	58.51
460.03	63.19
460.21	35.11
460.39	65.54
460.57	30.43
460.76	35.11
460.94	60.85
461.12	65.54
461.31	44.47
461.49	21.06
461.67	32.77
461.85	53.83
462.04	53.83
462.22	98.30
462.40	95.96
462.59	77.24
462.77	49.15
462.95	74.90
463.13	46.81
463.32	30.43
463.50	49.15
463.68	30.43
463.86	67.88
464.05	42.13
464.23	4.68
464.41	44.47
464.59	65.54
464.78	72.56
464.96	98.30
465.14	4.68
465.32	72.56
465.50	140.43
465.69	77.24
465.87	60.85
466.05	42.13
466.23	63.19
466.41	53.83
466.60	51.49
466.78	81.92
466.96	88.94
467.14	72.56
467.32	107.66
467.51	84.26
467.69	65.54
467.87	140.43
468.05	42.13
468.23	131.07
468.41	35.11
468.60	39.79
468.78	14.04
468.96	0.00
469.14	14.04
469.32	102.98
469.50	51.49
469.69	161.50
469.87	4.68
470.05	100.64
470.23	11.70
470.41	0.00
470.59	39.79
470.77	4.68
470.95	140.43
471.14	63.19
471.32	0.00
471.50	0.00
471.68	0.00
471.86	63.19
472.04	74.90
472.22	100.64
472.40	84.26
472.58	100.64
472.77	79.58
472.95	77.24
473.13	37.45
473.31	46.81
473.49	42.13
473.67	30.43
473.85	63.19
474.03	74.90
474.21	11.70
474.39	93.62
474.57	32.77
474.75	32.77
474.93	46.81
475.12	44.47
475.30	114.69
475.48	21.06
475.66	32.77
475.84	0.00
476.02	74.90
476.20	70.22
476.38	86.60
476.56	63.19
476.74	114.69
476.92	37.45
477.10	58.51
477.28	18.72
477.46	46.81
477.64	60.85
477.82	100.64
478.00	98.30
478.18	102.98
478.36	65.54
478.54	49.15
478.72	114.69
478.90	35.11
479.08	14.04
479.26	11.70
479.44	88.94
479.62	2.34
479.80	112.35
479.98	79.58
480.16	95.96
480.34	100.64
480.52	105.32
480.70	70.22
480.88	0.00
481.06	16.38
481.24	77.24
481.41	98.30
481.59	72.56
481.77	49.15
481.95	74.90
482.13	77.24
482.31	112.35
482.49	46.81
482.67	84.26
482.85	37.45
483.03	70.22
483.21	77.24
483.39	77.24
483.57	25.75
483.74	23.41
483.92	79.58
484.10	7.02
484.28	77.24
484.46	42.13
484.64	93.62
484.82	79.58
485.00	18.72
485.18	37.45
485.35	86.60
485.53	77.24
485.71	46.81
485.89	32.77
486.07	91.28
486.25	100.64
486.43	81.92
486.61	117.03
486.78	51.49
486.96	67.88
487.14	30.43
487.32	25.75
487.50	28.09
487.68	98.30
487.85	37.45
488.03	93.62
488.21	58.51
488.39	37.45
488.57	88.94
488.75	51.49
488.92	128.73
489.10	95.96
489.28	14.04
489.46	105.32
489.64	93.62
489.81	51.49
489.99	32.77
490.17	23.41
490.35	70.22
490.53	25.75
490.70	0.00
490.88	114.69
491.06	58.51
491.24	42.13
491.41	126.39
491.59	105.32
491.77	28.09
491.95	112.35
492.13	67.88
492.30	9.36
492.48	102.98
492.66	79.58
492.84	28.09
493.01	70.22
493.19	100.64
493.37	91.28
493.54	91.28
493.72	65.54
493.90	44.47
494.08	81.92
494.25	74.90
494.43	110.01
494.61	81.92
494.79	105.32
494.96	53.83
495.14	91.28
495.32	51.49
495.49	126.39
495.67	84.26
495.85	112.35
496.02	102.98
496.20	124.05
496.38	147.45
496.55	67.88
496.73	91.28
496.91	65.54
497.09	86.60
497.26	60.85
497.44	102.98
497.62	63.19
497.79	46.81
497.97	102.98
498.14	102.98
498.32	149.79
498.50	56.17
498.67	81.92
498.85	30.43
499.03	53.83
499.20	77.24
499.38	117.03
499.56	149.79
499.73	56.17
499.91	49.15
500.08	72.56
500.26	126.39
500.44	117.03
500.61	65.54
500.79	95.96
500.97	86.60
501.14	51.49
501.32	152.13
501.49	98.30
501.67	173.20
501.84	95.96
502.02	117.03
502.20	60.85
502.37	88.94
502.55	98.30
502.72	119.37
502.90	21.06
503.07	95.96
503.25	9.36
503.43	91.28
503.60	65.54
503.78	131.07
503.95	114.69
504.13	0.00
504.30	39.79
504.48	102.98
504.65	42.13
504.83	49.15
505.01	74.90
505.18	112.35
505.36	74.90
505.53	70.22
505.71	44.47
505.88	42.13
506.06	51.49
506.23	117.03
506.41	60.85
506.58	112.35
506.76	142.77
506.93	67.88
507.11	105.32
507.28	58.51
507.46	74.90
507.63	91.28
507.81	107.66
507.98	51.49
508.16	46.81
508.33	67.88
508.50	175.54
508.68	126.39
508.85	79.58
509.03	117.03
509.20	35.11
509.38	135.75
509.55	51.49
509.73	77.24
509.90	126.39
510.08	93.62
510.25	98.30
510.42	79.58
510.60	14.04
510.77	53.83
510.95	67.88
511.12	72.56
511.30	93.62
511.47	70.22
511.64	88.94
511.82	70.22
511.99	32.77
512.17	100.64
512.34	53.83
512.51	25.75
512.69	126.39
512.86	81.92
513.04	95.96
513.21	46.81
513.38	70.22
513.56	138.09
513.73	77.24
513.90	49.15
514.08	107.66
514.25	42.13
514.43	138.09
514.60	46.81
514.77	74.90
514.95	35.11
515.12	88.94
515.29	145.11
515.47	63.19
515.64	88.94
515.81	110.01
515.99	145.11
516.16	126.39
516.33	93.62
516.51	114.69
516.68	0.00
516.85	107.66
517.03	81.92
517.20	74.90
517.37	102.98
517.54	93.62
517.72	65.54
517.89	70.22
518.06	65.54
518.24	81.92
518.41	81.92
518.58	107.66
518.75	121.71
518.93	88.94
519.10	81.92
519.27	156.82
519.45	53.83
519.62	39.79
519.79	102.98
519.96	63.19
520.14	84.26
520.31	84.26
520.48	46.81
520.65	159.16
520.83	16.38
521.00	65.54
521.17	46.81
521.34	100.64
521.52	86.60
521.69	112.35
521.86	63.19
522.03	88.94
522.20	65.54
522.38	81.92
522.55	58.51
522.72	105.32
522.89	28.09
523.07	37.45
523.24	79.58
523.41	49.15
523.58	102.98
523.75	74.90
523.92	86.60
524.10	35.11
524.27	0.00
524.44	140.43
524.61	126.39
524.78	98.30
524.96	39.79
525.13	25.75
525.30	112.35
525.47	156.82
525.64	159.16
525.81	39.79
525.98	72.56
526.16	70.22
526.33	53.83
526.50	88.94
526.67	86.60
526.84	37.45
527.01	70.22
527.18	72.56
527.36	46.81
527.53	107.66
527.70	110.01
527.87	72.56
528.04	23.41
528.21	86.60
528.38	56.17
528.55	98.30
528.72	65.54
528.89	53.83
529.07	175.54
529.24	154.48
529.41	58.51
529.58	131.07
529.75	49.15
529.92	35.11
530.09	117.03
530.26	58.51
530.43	81.92
530.60	84.26
530.77	117.03
530.94	112.35
531.11	100.64
531.28	60.85
531.46	42.13
531.63	70.22
531.80	124.05
531.97	107.66
532.14	93.62
532.31	105.32
532.48	196.60
532.65	126.39
532.82	161.50
532.99	110.01
533.16	32.77
533.33	135.75
533.50	37.45
533.67	49.15
533.84	98.30
534.01	56.17
534.18	72.56
534.35	46.81
534.52	0.00
534.69	180.22
534.86	133.41
535.03	72.56
535.20	149.79
535.37	102.98
535.54	91.28
535.71	105.32
535.88	74.90
536.05	53.83
536.22	81.92
536.38	93.62
536.55	70.22
536.72	112.35
536.89	21.06
537.06	84.26
537.23	187.24
537.40	77.24
537.57	86.60
537.74	95.96
537.91	84.26
538.08	91.28
538.25	128.73
538.42	147.45
538.59	100.64
538.75	44.47
538.92	105.32
539.09	154.48
539.26	110.01
539.43	102.98
539.60	81.92
539.77	159.16
539.94	91.28
540.11	110.01
540.28	56.17
540.44	60.85
540.61	39.79
540.78	72.56
540.95	67.88
541.12	128.73
541.29	42.13
541.46	168.52
541.62	91.28
541.79	58.51
541.96	60.85
542.13	79.58
542.30	72.56
542.47	126.39
542.63	23.41
542.80	74.90
542.97	77.24
543.14	112.35
543.31	170.86
543.48	4.68
543.64	124.05
543.81	110.01
543.98	37.45
544.15	91.28
544.32	112.35
544.48	147.45
544.65	100.64
544.82	91.28
544.99	53.83
545.16	91.28
545.32	107.66
545.49	53.83
545.66	25.75
545.83	124.05
546.00	84.26
546.16	88.94
546.33	84.26
546.50	65.54
546.67	60.85
546.83	44.47
547.00	86.60
547.17	0.00
547.34	142.77
547.50	0.00
547.67	74.90
547.84	74.90
548.00	35.11
548.17	46.81
548.34	126.39
548.51	42.13
548.67	46.81
548.84	95.96
549.01	72.56
549.18	88.94
549.34	72.56
549.51	84.26
549.68	124.05
549.84	32.77
550.01	95.96
550.18	88.94
550.34	131.07
550.51	84.26
550.68	49.15
550.84	44.47
551.01	112.35
551.18	140.43
551.34	145.11
551.51	117.03
551.68	91.28
551.84	18.72
552.01	25.75
552.18	25.75
552.34	46.81
552.51	14.04
552.68	133.41
552.84	102.98
553.01	121.71
553.18	98.30
553.34	121.71
553.51	128.73
553.67	154.48
553.84	70.22
554.01	70.22
554.17	93.62
554.34	93.62
554.51	16.38
554.67	70.22
554.84	112.35
555.00	79.58
555.17	16.38
555.33	65.54
555.50	67.88
555.67	159.16
555.83	91.28
556.00	135.75
556.16	117.03
556.33	107.66
556.50	93.62
556.66	110.01
556.83	88.94
556.99	105.32
557.16	107.66
557.32	72.56
557.49	93.62
557.65	21.06
557.82	23.41
557.98	117.03
558.15	77.24
558.32	35.11
558.48	44.47
558.65	74.90
558.81	110.01
558.98	60.85
559.14	72.56
559.31	56.17
559.47	72.56
559.64	67.88
559.80	23.41
559.97	74.90
560.13	63.19
560.30	91.28
560.46	112.35
560.63	91.28
560.79	70.22
560.96	110.01
561.12	77.24
561.29	53.83
561.45	70.22
561.61	4.68
561.78	93.62
561.94	152.13
562.11	105.32
562.27	102.98
562.44	163.84
562.60	63.19
562.77	119.37
562.93	95.96
563.10	86.60
563.26	70.22
563.42	46.81
563.59	100.64
563.75	32.77
563.92	102.98
564.08	63.19
564.24	42.13
564.41	58.51
564.57	74.90
564.74	142.77
564.90	154.48
565.07	28.09
565.23	42.13
565.39	0.00
565.56	117.03
565.72	74.90
565.88	86.60
566.05	81.92
566.21	88.94
566.38	72.56
566.54	100.64
566.70	16.38
566.87	93.62
567.03	81.92
567.19	0.00
567.36	77.24
567.52	56.17
567.68	93.62
567.85	60.85
568.01	65.54
568.17	56.17
568.34	67.88
568.50	70.22
568.66	105.32
568.83	74.90
568.99	86.60
569.15	42.13
569.32	131.07
569.48	35.11
569.64	37.45
569.81	107.66
569.97	67.88
570.13	152.13
570.30	63.19
570.46	100.64
570.62	7.02
570.78	39.79
570.95	25.75
571.11	25.75
571.27	79.58
571.43	81.92
571.60	70.22
571.76	44.47
571.92	117.03
572.09	138.09
572.25	112.35
572.41	58.51
572.57	100.64
572.74	105.32
572.90	149.79
573.06	105.32
573.22	152.13
573.38	81.92
573.55	74.90
573.71	16.38
573.87	119.37
574.03	0.00
574.20	42.13
574.36	9.36
574.52	163.84
574.68	39.79
574.84	21.06
575.01	53.83
575.17	140.43
575.33	9.36
575.49	49.15
575.65	72.56
575.82	46.81
575.98	168.52
576.14	126.39
576.30	65.54
576.46	35.11
576.62	74.90
576.79	25.75
576.95	79.58
577.11	0.00
577.27	135.75
577.43	131.07
577.59	70.22
577.75	74.90
577.92	53.83
578.08	63.19
578.24	100.64
578.40	100.64
578.56	49.15
578.72	79.58
578.88	42.13
579.04	49.15
579.21	100.64
579.37	70.22
579.53	74.90
579.69	25.75
579.85	72.56
580.01	72.56
580.17	112.35
580.33	100.64
580.49	79.58
580.65	91.28
580.82	79.58
580.98	86.60
581.14	14.04
581.30	77.24
581.46	105.32
581.62	37.45
581.78	142.77
581.94	46.81
582.10	0.00
582.26	70.22
582.42	159.16
582.58	67.88
582.74	100.64
582.90	30.43
583.06	124.05
583.22	91.28
583.38	70.22
583.54	95.96
583.70	84.26
583.86	72.56
584.02	14.04
584.18	42.13
584.34	100.64
584.50	117.03
584.66	58.51
584.82	72.56
584.98	117.03
585.14	58.51
585.30	91.28
585.46	53.83
585.62	100.64
585.78	98.30
585.94	107.66
586.10	65.54
586.26	98.30
586.42	91.28
586.58	117.03
586.74	145.11
586.90	114.69
587.06	49.15
587.22	72.56
587.38	0.00
587.54	16.38
587.70	4.68
587.86	37.45
588.02	77.24
588.18	39.79
588.34	39.79
588.49	93.62
588.65	23.41
588.81	42.13
588.97	0.00
589.13	65.54
589.29	91.28
589.45	74.90
589.61	14.04
589.77	60.85
589.93	138.09
590.08	128.73
590.24	67.88
590.40	74.90
590.56	46.81
590.72	135.75
590.88	46.81
591.04	67.88
591.20	70.22
591.35	56.17
591.51	58.51
591.67	84.26
591.83	49.15
591.99	49.15
592.15	65.54
592.31	79.58
592.46	0.00
592.62	63.19
592.78	32.77
592.94	65.54
593.10	25.75
593.26	32.77
593.41	84.26
593.57	117.03
593.73	56.17
593.89	25.75
594.05	60.85
594.20	72.56
594.36	81.92
594.52	95.96
594.68	18.72
594.84	53.83
594.99	81.92
595.15	86.60
595.31	95.96
595.47	84.26
595.62	11.70
595.78	107.66
595.94	65.54
596.10	77.24
596.25	149.79
596.41	58.51
596.57	100.64
596.73	70.22
596.88	110.01
597.04	88.94
597.20	60.85
597.36	18.72
597.51	30.43
597.67	39.79
597.83	81.92
597.99	44.47
598.14	177.88
598.30	100.64
598.46	46.81
598.61	81.92
598.77	86.60
598.93	72.56
599.09	114.69
599.24	25.75
599.40	63.19
599.56	138.09
599.71	65.54
599.87	114.69
600.03	35.11
600.18	42.13
600.34	100.64
600.50	100.64
600.65	18.72
600.81	79.58
600.97	128.73
601.12	84.26
601.28	39.79
601.44	44.47
601.59	56.17
601.75	14.04
601.91	60.85
602.06	91.28
602.22	95.96
602.37	91.28
602.53	138.09
602.69	100.64
602.84	56.17
603.00	51.49
603.16	100.64
603.31	93.62
603.47	119.37
603.62	16.38
603.78	37.45
603.94	72.56
604.09	128.73
604.25	117.03
604.40	98.30
604.56	35.11
604.71	49.15
604.87	81.92
605.03	65.54
605.18	63.19
605.34	88.94
605.49	86.60
605.65	102.98
605.80	9.36
605.96	14.04
606.12	60.85
606.27	7.02
606.43	56.17
606.58	28.09
606.74	65.54
606.89	58.51
607.05	65.54
607.20	0.00
607.36	88.94
607.51	79.58
607.67	86.60
607.82	51.49
607.98	46.81
608.13	147.45
608.29	121.71
608.44	49.15
608.60	35.11
608.75	152.13
608.91	0.00
609.06	91.28
609.22	88.94
609.37	72.56
609.53	7.02
609.68	102.98
609.84	42.13
609.99	35.11
610.15	35.11
610.30	58.51
610.46	107.66
610.61	65.54
610.76	35.11
610.92	0.00
611.07	28.09
611.23	77.24
611.38	93.62
611.54	93.62
611.69	60.85
611.84	86.60
612.00	0.00
612.15	112.35
612.31	32.77
612.46	0.00
612.62	60.85
612.77	51.49
612.92	91.28
613.08	149.79
613.23	25.75
613.39	0.00
613.54	0.00
613.69	91.28
613.85	133.41
614.00	42.13
614.15	77.24
614.31	35.11
614.46	88.94
614.62	117.03
614.77	37.45
614.92	35.11
615.08	56.17
615.23	0.00
615.38	81.92
615.54	53.83
615.69	7.02
615.84	72.56
616.00	60.85
616.15	67.88
616.30	53.83
616.46	112.35
616.61	81.92
616.76	44.47
616.92	79.58
617.07	86.60
617.22	49.15
617.37	102.98
617.53	112.35
617.68	60.85
617.83	74.90
617.99	110.01
618.14	14.04
618.29	9.36
618.45	77.24
618.60	102.98
618.75	53.83
618.90	37.45
619.06	159.16
619.21	51.49
619.36	81.92
619.51	74.90
619.67	53.83
619.82	18.72
619.97	100.64
620.12	77.24
620.28	53.83
620.43	63.19
620.58	37.45
620.73	25.75
620.89	42.13
621.04	63.19
621.19	39.79
621.34	0.00
621.49	37.45
621.65	121.71
621.80	0.00
621.95	0.00
622.10	98.30
622.25	32.77
622.41	86.60
622.56	77.24
622.71	117.03
622.86	110.01
623.01	88.94
623.16	25.75
623.32	112.35
623.47	121.71
623.62	16.38
623.77	58.51
623.92	114.69
624.07	91.28
624.23	46.81
624.38	79.58
624.53	81.92
624.68	58.51
624.83	74.90
624.98	88.94
625.13	105.32
625.29	95.96
625.44	44.47
625.59	149.79
625.74	30.43
625.89	107.66
626.04	91.28
626.19	39.79
626.34	16.38
626.49	86.60
626.65	86.60
626.80	91.28
626.95	138.09
627.10	91.28
627.25	93.62
627.40	88.94
627.55	14.04
627.70	67.88
627.85	28.09
628.00	56.17
628.15	23.41
628.30	84.26
628.45	67.88
628.60	72.56
628.76	74.90
628.91	81.92
629.06	86.60
629.21	35.11
629.36	23.41
629.51	39.79
629.66	49.15
629.81	67.88
629.96	37.45
630.11	170.86
630.26	65.54
630.41	56.17
630.56	21.06
630.71	4.68
630.86	9.36
631.01	65.54
631.16	86.60
631.31	63.19
631.46	58.51
631.61	91.28
631.76	86.60
631.91	70.22
632.06	42.13
632.21	149.79
632.36	9.36
632.51	32.77
632.66	67.88
632.81	51.49
632.96	0.00
633.10	49.15
633.25	107.66
633.40	105.32
633.55	56.17
633.70	39.79
633.85	84.26
634.00	79.58
634.15	102.98
634.30	102.98
634.45	95.96
634.60	79.58
634.75	0.00
634.90	58.51
635.05	88.94
635.19	0.00
635.34	42.13
635.49	30.43
635.64	112.35
635.79	9.36
635.94	58.51
636.09	49.15
636.24	49.15
636.39	49.15
636.53	100.64
636.68	18.72
636.83	74.90
636.98	42.13
637.13	0.00
637.28	4.68
637.43	51.49
637.57	86.60
637.72	39.79
637.87	72.56
638.02	0.00
638.17	79.58
638.32	18.72
638.46	30.43
638.61	131.07
638.76	102.98
638.91	25.75
639.06	126.39
639.20	67.88
639.35	72.56
639.50	79.58
639.65	0.00
639.80	21.06
639.94	4.68
640.09	30.43
640.24	98.30
640.39	37.45
640.54	46.81
640.68	9.36
640.83	56.17
640.98	72.56
641.13	25.75
641.27	46.81
641.42	16.38
641.57	77.24
641.72	124.05
641.86	42.13
642.01	0.00
642.16	72.56
642.31	37.45
642.45	88.94
642.60	65.54
642.75	79.58
642.90	72.56
643.04	112.35
643.19	117.03
643.34	70.22
643.48	42.13
643.63	0.00
643.78	93.62
643.93	11.70
644.07	0.00
644.22	56.17
644.37	86.60
644.51	37.45
644.66	74.90
644.81	46.81
644.95	112.35
645.10	65.54
645.25	30.43
645.39	84.26
645.54	72.56
645.69	63.19
645.83	63.19
645.98	32.77
646.13	39.79
646.27	84.26
646.42	105.32
646.57	32.77
646.71	65.54
646.86	46.81
647.00	145.11
647.15	44.47
647.30	16.38
647.44	79.58
647.59	51.49
647.74	117.03
647.88	107.66
648.03	126.39
648.17	21.06
648.32	21.06
648.47	4.68
648.61	46.81
648.76	65.54
648.90	0.00
649.05	0.00
649.20	77.24
649.34	25.75
649.49	32.77
649.63	107.66
649.78	65.54
649.92	60.85
650.07	0.00
650.21	74.90
650.36	105.32
650.51	72.56
650.65	67.88
650.80	37.45
650.94	124.05
651.09	72.56
651.23	46.81
651.38	39.79
651.52	0.00
651.67	18.72
651.81	21.06
651.96	63.19
652.10	105.32
652.25	35.11
652.39	21.06
652.54	42.13
652.68	0.00
652.83	100.64
652.97	105.32
653.12	39.79
653.26	0.00
653.41	95.96
653.55	72.56
653.70	67.88
653.84	18.72
653.99	107.66
654.13	0.00
654.27	58.51
654.42	14.04
654.56	14.04
654.71	77.24
654.85	65.54
655.00	25.75
655.14	46.81
655.29	107.66
655.43	121.71
655.57	44.47
655.72	42.13
655.86	28.09
656.01	100.64
656.15	49.15
656.30	58.51
656.44	112.35
656.58	81.92
656.73	102.98
656.87	9.36
657.01	156.82
657.16	56.17
657.30	28.09
657.45	42.13
657.59	79.58
657.73	56.17
657.88	58.51
658.02	86.60
658.16	79.58
658.31	98.30
658.45	46.81
658.60	0.00
658.74	14.04
658.88	25.75
659.03	44.47
659.17	42.13
659.31	100.64
659.46	39.79
659.60	67.88
659.74	42.13
659.89	2.34
660.03	88.94
660.17	9.36
660.32	18.72
660.46	58.51
660.60	53.83
660.74	0.00
660.89	58.51
661.03	42.13
661.17	84.26
661.32	14.04
661.46	58.51
661.60	56.17
661.74	51.49
661.89	124.05
662.03	74.90
662.17	14.04
662.31	37.45
662.46	35.11
662.60	72.56
662.74	21.06
662.88	107.66
663.03	67.88
663.17	30.43
663.31	91.28
663.45	56.17
663.60	4.68
663.74	51.49
663.88	11.70
664.02	63.19
664.17	32.77
664.31	58.51
664.45	0.00
664.59	39.79
664.73	135.75
664.88	65.54
665.02	84.26
665.16	91.28
665.30	84.26
665.44	14.04
665.59	72.56
665.73	25.75
665.87	9.36
666.01	25.75
666.15	58.51
666.29	23.41
666.44	63.19
666.58	39.79
666.72	91.28
666.86	60.85
667.00	84.26
667.14	77.24
667.28	35.11
667.43	39.79
667.57	32.77
667.71	112.35
667.85	74.90
667.99	91.28
668.13	7.02
668.27	79.58
668.41	119.37
668.56	25.75
668.70	4.68
668.84	42.13
668.98	14.04
669.12	44.47
669.26	79.58
669.40	18.72
669.54	56.17
669.68	105.32
669.82	88.94
669.96	70.22
670.10	32.77
670.25	53.83
670.39	18.72
670.53	67.88
670.67	156.82
670.81	0.00
670.95	58.51
671.09	105.32
671.23	93.62
671.37	86.60
671.51	46.81
671.65	25.75
671.79	14.04
671.93	74.90
672.07	0.00
672.21	7.02
672.35	81.92
672.49	14.04
672.63	67.88
672.77	84.26
672.91	121.71
673.05	58.51
673.19	70.22
673.33	25.75
673.47	100.64
673.61	21.06
673.75	7.02
673.89	58.51
674.03	42.13
674.17	86.60
674.31	0.00
674.45	74.90
674.59	37.45
674.73	58.51
674.87	56.17
675.01	30.43
675.15	58.51
675.29	107.66
675.43	77.24
675.56	46.81
675.70	93.62
675.84	60.85
675.98	72.56
676.12	49.15
676.26	72.56
676.40	74.90
676.54	0.00
676.68	0.00
676.82	35.11
676.96	86.60
677.10	72.56
677.23	81.92
677.37	35.11
677.51	35.11
677.65	16.38
677.79	42.13
677.93	21.06
678.07	121.71
678.21	46.81
678.34	4.68
678.48	63.19
678.62	0.00
678.76	11.70
678.90	84.26
679.04	88.94
679.18	32.77
679.31	21.06
679.45	32.77
679.59	2.34
679.73	4.68
679.87	60.85
680.00	81.92
680.14	42.13
680.28	67.88
680.42	42.13
680.56	86.60
680.70	39.79
680.83	95.96
680.97	84.26
681.11	0.00
681.25	93.62
681.39	65.54
681.52	0.00
681.66	63.19
681.80	53.83
681.94	39.79
682.07	60.85
682.21	44.47
682.35	9.36
682.49	51.49
682.62	0.00
682.76	56.17
682.90	25.75
683.04	11.70
683.17	0.00
683.31	0.00
683.45	58.51
683.59	21.06
683.72	0.00
683.86	28.09
684.00	9.36
684.13	60.85
684.27	72.56
684.41	86.60
684.55	70.22
684.68	51.49
684.82	37.45
684.96	72.56
685.09	23.41
685.23	86.60
685.37	63.19
685.50	18.72
685.64	23.41
685.78	0.00
685.91	32.77
686.05	79.58
686.19	0.00
686.32	11.70
686.46	39.79
686.60	60.85
686.73	39.79
686.87	0.00
687.01	42.13
687.14	32.77
687.28	56.17
687.42	4.68
687.55	14.04
687.69	56.17
687.82	30.43
687.96	21.06
688.10	84.26
688.23	86.60
688.37	67.88
688.50	0.00
688.64	84.26
688.78	84.26
688.91	21.06
689.05	32.77
689.18	14.04
689.32	53.83
689.46	18.72
689.59	67.88
689.73	77.24
689.86	35.11
690.00	18.72
690.13	0.00
690.27	11.70
690.41	0.00
690.54	9.36
690.68	0.00
690.81	39.79
690.95	51.49
691.08	39.79
691.22	21.06
691.35	100.64
691.49	42.13
691.62	7.02
691.76	0.00
691.89	30.43
692.03	58.51
692.16	23.41
692.30	28.09
692.43	0.00
692.57	46.81
692.70	84.26
692.84	37.45
692.97	70.22
693.11	86.60
693.24	30.43
693.38	0.00
693.51	4.68
693.65	46.81
693.78	65.54
693.92	0.00
694.05	42.13
694.19	0.00
694.32	28.09
694.45	0.00
694.59	51.49
694.72	18.72
694.86	56.17
694.99	7.02
695.13	98.30
695.26	46.81
695.39	37.45
695.53	77.24
695.66	9.36
695.80	39.79
695.93	46.81
696.07	110.01
696.20	72.56
696.33	56.17
696.47	53.83
696.60	46.81
696.73	49.15
696.87	81.92
697.00	74.90
697.14	21.06
697.27	0.00
697.40	70.22
697.54	117.03
697.67	56.17
697.80	70.22
697.94	7.02
698.07	72.56
698.21	42.13
698.34	135.75
698.47	105.32
698.61	91.28
698.74	0.00
698.87	114.69
699.01	16.38
699.14	0.00
699.27	53.83
699.40	42.13
699.54	35.11
699.67	37.45
699.80	91.28
699.94	7.02
700.07	84.26
700.20	105.32
700.34	21.06
700.47	74.90
700.60	60.85
700.73	65.54
700.87	0.00
701.00	0.00
701.13	79.58
701.26	9.36
701.40	112.35
701.53	32.77
701.66	70.22
701.79	11.70
701.93	14.04
702.06	25.75
702.19	32.77
702.32	51.49
702.46	21.06
702.59	44.47
702.72	60.85
702.85	14.04
702.99	42.13
703.12	0.00
703.25	7.02
703.38	2.34
703.51	25.75
703.65	44.47
703.78	0.00
703.91	14.04
704.04	16.38
704.17	88.94
704.31	93.62
704.44	4.68
704.57	46.81
704.70	42.13
704.83	14.04
704.96	7.02
705.10	70.22
705.23	0.00
>>>>>End Processed Spectral Data<<<<<
