SpectraSuite Data File
++++++++++++++++++++++++++++++++++++
Date: Fri Oct 04 12:13:24 GMT-05:00 2013
User: price-jones
Dark Spectrum Present: No
Reference Spectrum Present: No
Number of Sampled Component Spectra: 1
Spectrometers: USB2+H05261
Integration Time (usec): 10000 (USB2+H05261)
Spectra Averaged: 1 (USB2+H05261)
Boxcar Smoothing: 0 (USB2+H05261)
Correct for Electrical Dark: No (USB2+H05261)
Strobe/Lamp Enabled: No (USB2+H05261)
Correct for Detector Non-linearity: No (USB2+H05261)
Correct for Stray Light: No (USB2+H05261)
Number of Pixels in Processed Spectrum: 2048
>>>>>Begin Processed Spectral Data<<<<<
365.73	9.36
365.92	9.36
366.12	9.36
366.32	0.00
366.52	0.00
366.72	0.00
366.91	0.00
367.11	0.00
367.31	0.00
367.51	0.00
367.70	0.00
367.90	0.00
368.10	0.00
368.30	0.00
368.49	0.00
368.69	0.00
368.89	0.00
369.09	0.00
369.28	0.00
369.48	0.00
369.68	0.00
369.87	0.00
370.07	0.00
370.27	0.00
370.47	0.00
370.66	0.00
370.86	0.00
371.06	0.00
371.25	0.00
371.45	0.00
371.65	0.00
371.84	0.00
372.04	0.00
372.24	0.00
372.44	18.72
372.63	30.43
372.83	25.75
373.03	65.54
373.22	39.79
373.42	18.72
373.62	9.36
373.81	28.09
374.01	39.79
374.21	39.79
374.40	72.56
374.60	0.00
374.79	16.38
374.99	39.79
375.19	46.81
375.38	2.34
375.58	32.77
375.78	21.06
375.97	117.03
376.17	42.13
376.37	39.79
376.56	35.11
376.76	23.41
376.95	0.00
377.15	4.68
377.35	11.70
377.54	0.00
377.74	0.00
377.93	35.11
378.13	0.00
378.33	25.75
378.52	70.22
378.72	30.43
378.91	49.15
379.11	39.79
379.31	9.36
379.50	60.85
379.70	42.13
379.89	30.43
380.09	0.00
380.28	9.36
380.48	107.66
380.68	70.22
380.87	51.49
381.07	0.00
381.26	28.09
381.46	0.00
381.65	0.00
381.85	4.68
382.04	18.72
382.24	0.00
382.43	7.02
382.63	11.70
382.83	14.04
383.02	35.11
383.22	39.79
383.41	35.11
383.61	14.04
383.80	81.92
384.00	79.58
384.19	4.68
384.39	2.34
384.58	2.34
384.78	65.54
384.97	51.49
385.17	0.00
385.36	0.00
385.56	39.79
385.75	30.43
385.95	4.68
386.14	44.47
386.34	32.77
386.53	9.36
386.72	65.54
386.92	23.41
387.11	16.38
387.31	0.00
387.50	0.00
387.70	0.00
387.89	0.00
388.09	0.00
388.28	72.56
388.48	44.47
388.67	0.00
388.86	0.00
389.06	131.07
389.25	23.41
389.45	63.19
389.64	0.00
389.84	2.34
390.03	32.77
390.22	51.49
390.42	28.09
390.61	0.00
390.81	0.00
391.00	23.41
391.19	16.38
391.39	25.75
391.58	9.36
391.78	0.00
391.97	58.51
392.16	28.09
392.36	9.36
392.55	42.13
392.75	0.00
392.94	14.04
393.13	11.70
393.33	0.00
393.52	11.70
393.71	35.11
393.91	0.00
394.10	67.88
394.29	4.68
394.49	86.60
394.68	0.00
394.88	44.47
395.07	0.00
395.26	0.00
395.46	18.72
395.65	46.81
395.84	0.00
396.04	0.00
396.23	0.00
396.42	30.43
396.62	0.00
396.81	51.49
397.00	46.81
397.19	14.04
397.39	2.34
397.58	53.83
397.77	95.96
397.97	77.24
398.16	4.68
398.35	42.13
398.55	30.43
398.74	35.11
398.93	102.98
399.12	51.49
399.32	65.54
399.51	77.24
399.70	28.09
399.90	79.58
400.09	21.06
400.28	11.70
400.47	86.60
400.67	0.00
400.86	46.81
401.05	0.00
401.24	0.00
401.44	0.00
401.63	2.34
401.82	98.30
402.01	0.00
402.21	0.00
402.40	67.88
402.59	58.51
402.78	124.05
402.97	53.83
403.17	0.00
403.36	23.41
403.55	42.13
403.74	56.17
403.93	49.15
404.13	32.77
404.32	4.68
404.51	65.54
404.70	49.15
404.89	0.00
405.09	25.75
405.28	67.88
405.47	0.00
405.66	72.56
405.85	0.00
406.05	42.13
406.24	30.43
406.43	16.38
406.62	42.13
406.81	65.54
407.00	0.00
407.20	23.41
407.39	105.32
407.58	121.71
407.77	70.22
407.96	23.41
408.15	60.85
408.34	63.19
408.54	25.75
408.73	53.83
408.92	32.77
409.11	39.79
409.30	21.06
409.49	44.47
409.68	0.00
409.87	4.68
410.07	49.15
410.26	42.13
410.45	16.38
410.64	25.75
410.83	0.00
411.02	49.15
411.21	21.06
411.40	63.19
411.59	37.45
411.78	0.00
411.98	51.49
412.17	23.41
412.36	67.88
412.55	70.22
412.74	21.06
412.93	51.49
413.12	11.70
413.31	23.41
413.50	0.00
413.69	56.17
413.88	37.45
414.07	11.70
414.26	32.77
414.45	39.79
414.64	2.34
414.83	28.09
415.02	25.75
415.22	51.49
415.41	0.00
415.60	14.04
415.79	18.72
415.98	16.38
416.17	35.11
416.36	0.00
416.55	42.13
416.74	2.34
416.93	0.00
417.12	0.00
417.31	0.00
417.50	0.00
417.69	63.19
417.88	60.85
418.07	32.77
418.26	88.94
418.45	39.79
418.64	81.92
418.83	67.88
419.02	0.00
419.21	0.00
419.39	0.00
419.58	56.17
419.77	77.24
419.96	2.34
420.15	72.56
420.34	11.70
420.53	56.17
420.72	23.41
420.91	25.75
421.10	44.47
421.29	35.11
421.48	25.75
421.67	30.43
421.86	88.94
422.05	37.45
422.24	4.68
422.43	25.75
422.61	58.51
422.80	72.56
422.99	0.00
423.18	56.17
423.37	63.19
423.56	56.17
423.75	74.90
423.94	25.75
424.13	35.11
424.32	67.88
424.50	0.00
424.69	0.00
424.88	63.19
425.07	46.81
425.26	0.00
425.45	53.83
425.64	46.81
425.83	28.09
426.01	72.56
426.20	0.00
426.39	81.92
426.58	72.56
426.77	0.00
426.96	0.00
427.15	63.19
427.33	7.02
427.52	53.83
427.71	30.43
427.90	4.68
428.09	4.68
428.28	16.38
428.46	49.15
428.65	18.72
428.84	0.00
429.03	11.70
429.22	0.00
429.40	46.81
429.59	0.00
429.78	23.41
429.97	63.19
430.16	42.13
430.34	23.41
430.53	32.77
430.72	0.00
430.91	4.68
431.10	46.81
431.28	58.51
431.47	49.15
431.66	0.00
431.85	11.70
432.03	0.00
432.22	51.49
432.41	79.58
432.60	25.75
432.79	0.00
432.97	67.88
433.16	23.41
433.35	67.88
433.54	16.38
433.72	42.13
433.91	0.00
434.10	25.75
434.28	30.43
434.47	67.88
434.66	18.72
434.85	126.39
435.03	0.00
435.22	9.36
435.41	46.81
435.59	70.22
435.78	39.79
435.97	23.41
436.16	49.15
436.34	0.00
436.53	51.49
436.72	46.81
436.90	60.85
437.09	53.83
437.28	30.43
437.46	65.54
437.65	46.81
437.84	7.02
438.02	0.00
438.21	25.75
438.40	44.47
438.58	60.85
438.77	18.72
438.96	0.00
439.14	60.85
439.33	32.77
439.52	21.06
439.70	0.00
439.89	65.54
440.08	4.68
440.26	51.49
440.45	21.06
440.63	0.00
440.82	42.13
441.01	39.79
441.19	18.72
441.38	60.85
441.57	21.06
441.75	56.17
441.94	35.11
442.12	49.15
442.31	46.81
442.50	14.04
442.68	72.56
442.87	63.19
443.05	11.70
443.24	49.15
443.43	65.54
443.61	0.00
443.80	4.68
443.98	30.43
444.17	70.22
444.35	46.81
444.54	0.00
444.73	0.00
444.91	93.62
445.10	30.43
445.28	72.56
445.47	56.17
445.65	65.54
445.84	2.34
446.02	56.17
446.21	9.36
446.39	70.22
446.58	0.00
446.77	28.09
446.95	4.68
447.14	0.00
447.32	28.09
447.51	53.83
447.69	23.41
447.88	0.00
448.06	7.02
448.25	28.09
448.43	0.00
448.62	0.00
448.80	51.49
448.99	23.41
449.17	32.77
449.36	0.00
449.54	88.94
449.73	14.04
449.91	0.00
450.10	42.13
450.28	23.41
450.46	56.17
450.65	30.43
450.83	2.34
451.02	0.00
451.20	0.00
451.39	4.68
451.57	53.83
451.76	56.17
451.94	105.32
452.13	56.17
452.31	51.49
452.49	65.54
452.68	2.34
452.86	56.17
453.05	16.38
453.23	46.81
453.42	65.54
453.60	51.49
453.78	49.15
453.97	16.38
454.15	0.00
454.34	39.79
454.52	25.75
454.70	65.54
454.89	65.54
455.07	37.45
455.26	32.77
455.44	0.00
455.62	72.56
455.81	4.68
455.99	84.26
456.17	0.00
456.36	49.15
456.54	7.02
456.73	16.38
456.91	107.66
457.09	42.13
457.28	39.79
457.46	9.36
457.64	39.79
457.83	32.77
458.01	56.17
458.19	67.88
458.38	4.68
458.56	9.36
458.74	21.06
458.93	67.88
459.11	16.38
459.29	28.09
459.48	51.49
459.66	44.47
459.84	56.17
460.03	58.51
460.21	44.47
460.39	21.06
460.57	35.11
460.76	18.72
460.94	46.81
461.12	42.13
461.31	28.09
461.49	44.47
461.67	49.15
461.85	58.51
462.04	0.00
462.22	88.94
462.40	32.77
462.59	56.17
462.77	0.00
462.95	0.00
463.13	30.43
463.32	67.88
463.50	0.00
463.68	102.98
463.86	98.30
464.05	44.47
464.23	39.79
464.41	32.77
464.59	0.00
464.78	14.04
464.96	0.00
465.14	7.02
465.32	91.28
465.50	4.68
465.69	0.00
465.87	23.41
466.05	16.38
466.23	18.72
466.41	49.15
466.60	100.64
466.78	0.00
466.96	21.06
467.14	46.81
467.32	51.49
467.51	102.98
467.69	39.79
467.87	0.00
468.05	70.22
468.23	53.83
468.41	21.06
468.60	63.19
468.78	0.00
468.96	35.11
469.14	14.04
469.32	0.00
469.50	0.00
469.69	14.04
469.87	14.04
470.05	79.58
470.23	30.43
470.41	63.19
470.59	84.26
470.77	0.00
470.95	72.56
471.14	86.60
471.32	0.00
471.50	70.22
471.68	16.38
471.86	39.79
472.04	21.06
472.22	86.60
472.40	114.69
472.58	0.00
472.77	25.75
472.95	9.36
473.13	86.60
473.31	44.47
473.49	37.45
473.67	56.17
473.85	46.81
474.03	63.19
474.21	23.41
474.39	32.77
474.57	2.34
474.75	21.06
474.93	105.32
475.12	51.49
475.30	25.75
475.48	32.77
475.66	65.54
475.84	74.90
476.02	0.00
476.20	53.83
476.38	53.83
476.56	44.47
476.74	21.06
476.92	23.41
477.10	28.09
477.28	60.85
477.46	37.45
477.64	84.26
477.82	18.72
478.00	0.00
478.18	46.81
478.36	49.15
478.54	63.19
478.72	56.17
478.90	58.51
479.08	65.54
479.26	39.79
479.44	60.85
479.62	21.06
479.80	25.75
479.98	28.09
480.16	39.79
480.34	81.92
480.52	98.30
480.70	32.77
480.88	86.60
481.06	9.36
481.24	23.41
481.41	28.09
481.59	86.60
481.77	81.92
481.95	72.56
482.13	84.26
482.31	39.79
482.49	79.58
482.67	0.00
482.85	18.72
483.03	0.00
483.21	42.13
483.39	11.70
483.57	70.22
483.74	18.72
483.92	53.83
484.10	23.41
484.28	60.85
484.46	93.62
484.64	16.38
484.82	16.38
485.00	23.41
485.18	23.41
485.35	0.00
485.53	91.28
485.71	39.79
485.89	21.06
486.07	42.13
486.25	0.00
486.43	65.54
486.61	63.19
486.78	2.34
486.96	0.00
487.14	91.28
487.32	18.72
487.50	98.30
487.68	65.54
487.85	98.30
488.03	35.11
488.21	74.90
488.39	2.34
488.57	0.00
488.75	58.51
488.92	18.72
489.10	16.38
489.28	84.26
489.46	32.77
489.64	58.51
489.81	72.56
489.99	49.15
490.17	53.83
490.35	98.30
490.53	37.45
490.70	0.00
490.88	112.35
491.06	51.49
491.24	0.00
491.41	51.49
491.59	60.85
491.77	46.81
491.95	56.17
492.13	0.00
492.30	72.56
492.48	35.11
492.66	86.60
492.84	0.00
493.01	7.02
493.19	67.88
493.37	0.00
493.54	35.11
493.72	0.00
493.90	56.17
494.08	32.77
494.25	49.15
494.43	23.41
494.61	81.92
494.79	11.70
494.96	0.00
495.14	0.00
495.32	0.00
495.49	110.01
495.67	70.22
495.85	46.81
496.02	88.94
496.20	0.00
496.38	14.04
496.55	49.15
496.73	39.79
496.91	46.81
497.09	39.79
497.26	30.43
497.44	91.28
497.62	35.11
497.79	84.26
497.97	30.43
498.14	9.36
498.32	18.72
498.50	63.19
498.67	67.88
498.85	56.17
499.03	18.72
499.20	79.58
499.38	58.51
499.56	72.56
499.73	65.54
499.91	0.00
500.08	0.00
500.26	70.22
500.44	58.51
500.61	51.49
500.79	74.90
500.97	51.49
501.14	44.47
501.32	49.15
501.49	77.24
501.67	44.47
501.84	65.54
502.02	70.22
502.20	51.49
502.37	42.13
502.55	49.15
502.72	28.09
502.90	46.81
503.07	44.47
503.25	67.88
503.43	58.51
503.60	72.56
503.78	7.02
503.95	98.30
504.13	9.36
504.30	42.13
504.48	67.88
504.65	49.15
504.83	74.90
505.01	53.83
505.18	65.54
505.36	145.11
505.53	46.81
505.71	35.11
505.88	0.00
506.06	102.98
506.23	0.00
506.41	16.38
506.58	77.24
506.76	18.72
506.93	58.51
507.11	51.49
507.28	0.00
507.46	39.79
507.63	18.72
507.81	46.81
507.98	0.00
508.16	21.06
508.33	74.90
508.50	77.24
508.68	77.24
508.85	79.58
509.03	9.36
509.20	95.96
509.38	44.47
509.55	46.81
509.73	9.36
509.90	0.00
510.08	58.51
510.25	44.47
510.42	70.22
510.60	16.38
510.77	42.13
510.95	46.81
511.12	2.34
511.30	4.68
511.47	46.81
511.64	0.00
511.82	11.70
511.99	0.00
512.17	56.17
512.34	74.90
512.51	0.00
512.69	14.04
512.86	110.01
513.04	49.15
513.21	37.45
513.38	0.00
513.56	0.00
513.73	51.49
513.90	114.69
514.08	0.00
514.25	0.00
514.43	67.88
514.60	53.83
514.77	98.30
514.95	0.00
515.12	70.22
515.29	81.92
515.47	49.15
515.64	21.06
515.81	28.09
515.99	0.00
516.16	32.77
516.33	86.60
516.51	49.15
516.68	0.00
516.85	25.75
517.03	77.24
517.20	25.75
517.37	21.06
517.54	79.58
517.72	81.92
517.89	7.02
518.06	56.17
518.24	46.81
518.41	88.94
518.58	32.77
518.75	32.77
518.93	60.85
519.10	49.15
519.27	60.85
519.45	23.41
519.62	0.00
519.79	46.81
519.96	67.88
520.14	70.22
520.31	28.09
520.48	60.85
520.65	58.51
520.83	88.94
521.00	0.00
521.17	0.00
521.34	37.45
521.52	93.62
521.69	67.88
521.86	25.75
522.03	35.11
522.20	44.47
522.38	0.00
522.55	105.32
522.72	65.54
522.89	74.90
523.07	53.83
523.24	49.15
523.41	58.51
523.58	37.45
523.75	0.00
523.92	0.00
524.10	14.04
524.27	51.49
524.44	42.13
524.61	23.41
524.78	11.70
524.96	49.15
525.13	140.43
525.30	77.24
525.47	70.22
525.64	25.75
525.81	0.00
525.98	14.04
526.16	56.17
526.33	0.00
526.50	0.00
526.67	105.32
526.84	93.62
527.01	0.00
527.18	23.41
527.36	110.01
527.53	32.77
527.70	18.72
527.87	53.83
528.04	0.00
528.21	0.00
528.38	28.09
528.55	0.00
528.72	88.94
528.89	105.32
529.07	65.54
529.24	107.66
529.41	0.00
529.58	23.41
529.75	14.04
529.92	4.68
530.09	98.30
530.26	16.38
530.43	28.09
530.60	121.71
530.77	0.00
530.94	84.26
531.11	7.02
531.28	53.83
531.46	23.41
531.63	74.90
531.80	0.00
531.97	107.66
532.14	74.90
532.31	7.02
532.48	2.34
532.65	74.90
532.82	39.79
532.99	32.77
533.16	70.22
533.33	81.92
533.50	0.00
533.67	88.94
533.84	79.58
534.01	88.94
534.18	14.04
534.35	88.94
534.52	21.06
534.69	72.56
534.86	46.81
535.03	53.83
535.20	124.05
535.37	53.83
535.54	95.96
535.71	93.62
535.88	117.03
536.05	79.58
536.22	65.54
536.38	16.38
536.55	0.00
536.72	67.88
536.89	51.49
537.06	102.98
537.23	42.13
537.40	121.71
537.57	88.94
537.74	2.34
537.91	53.83
538.08	60.85
538.25	65.54
538.42	28.09
538.59	14.04
538.75	0.00
538.92	86.60
539.09	32.77
539.26	7.02
539.43	42.13
539.60	67.88
539.77	51.49
539.94	70.22
540.11	37.45
540.28	74.90
540.44	145.11
540.61	67.88
540.78	25.75
540.95	44.47
541.12	77.24
541.29	18.72
541.46	9.36
541.62	65.54
541.79	58.51
541.96	11.70
542.13	14.04
542.30	18.72
542.47	42.13
542.63	51.49
542.80	51.49
542.97	30.43
543.14	39.79
543.31	0.00
543.48	93.62
543.64	42.13
543.81	100.64
543.98	14.04
544.15	84.26
544.32	9.36
544.48	53.83
544.65	0.00
544.82	44.47
544.99	53.83
545.16	58.51
545.32	140.43
545.49	18.72
545.66	30.43
545.83	4.68
546.00	102.98
546.16	60.85
546.33	39.79
546.50	21.06
546.67	56.17
546.83	32.77
547.00	0.00
547.17	9.36
547.34	67.88
547.50	14.04
547.67	4.68
547.84	0.00
548.00	49.15
548.17	0.00
548.34	0.00
548.51	107.66
548.67	60.85
548.84	16.38
549.01	67.88
549.18	4.68
549.34	0.00
549.51	72.56
549.68	0.00
549.84	42.13
550.01	16.38
550.18	30.43
550.34	72.56
550.51	44.47
550.68	105.32
550.84	0.00
551.01	16.38
551.18	114.69
551.34	30.43
551.51	0.00
551.68	32.77
551.84	91.28
552.01	56.17
552.18	28.09
552.34	23.41
552.51	42.13
552.68	56.17
552.84	51.49
553.01	4.68
553.18	21.06
553.34	51.49
553.51	11.70
553.67	98.30
553.84	114.69
554.01	4.68
554.17	25.75
554.34	2.34
554.51	84.26
554.67	58.51
554.84	4.68
555.00	32.77
555.17	65.54
555.33	58.51
555.50	25.75
555.67	56.17
555.83	14.04
556.00	0.00
556.16	16.38
556.33	18.72
556.50	70.22
556.66	11.70
556.83	14.04
556.99	30.43
557.16	70.22
557.32	88.94
557.49	86.60
557.65	21.06
557.82	58.51
557.98	25.75
558.15	0.00
558.32	44.47
558.48	0.00
558.65	67.88
558.81	65.54
558.98	0.00
559.14	28.09
559.31	0.00
559.47	0.00
559.64	39.79
559.80	7.02
559.97	74.90
560.13	53.83
560.30	23.41
560.46	21.06
560.63	9.36
560.79	46.81
560.96	2.34
561.12	88.94
561.29	44.47
561.45	49.15
561.61	21.06
561.78	70.22
561.94	77.24
562.11	2.34
562.27	0.00
562.44	46.81
562.60	63.19
562.77	67.88
562.93	65.54
563.10	58.51
563.26	81.92
563.42	0.00
563.59	51.49
563.75	37.45
563.92	56.17
564.08	67.88
564.24	32.77
564.41	107.66
564.57	0.00
564.74	37.45
564.90	42.13
565.07	7.02
565.23	79.58
565.39	86.60
565.56	18.72
565.72	51.49
565.88	25.75
566.05	86.60
566.21	39.79
566.38	0.00
566.54	4.68
566.70	32.77
566.87	4.68
567.03	25.75
567.19	65.54
567.36	32.77
567.52	56.17
567.68	2.34
567.85	70.22
568.01	51.49
568.17	0.00
568.34	14.04
568.50	67.88
568.66	28.09
568.83	21.06
568.99	32.77
569.15	14.04
569.32	56.17
569.48	21.06
569.64	91.28
569.81	49.15
569.97	60.85
570.13	65.54
570.30	0.00
570.46	28.09
570.62	30.43
570.78	119.37
570.95	44.47
571.11	42.13
571.27	16.38
571.43	37.45
571.60	42.13
571.76	0.00
571.92	42.13
572.09	2.34
572.25	72.56
572.41	30.43
572.57	63.19
572.74	110.01
572.90	74.90
573.06	14.04
573.22	77.24
573.38	28.09
573.55	65.54
573.71	88.94
573.87	81.92
574.03	67.88
574.20	56.17
574.36	42.13
574.52	9.36
574.68	0.00
574.84	0.00
575.01	2.34
575.17	58.51
575.33	0.00
575.49	67.88
575.65	86.60
575.82	30.43
575.98	0.00
576.14	0.00
576.30	0.00
576.46	49.15
576.62	58.51
576.79	4.68
576.95	11.70
577.11	2.34
577.27	81.92
577.43	0.00
577.59	100.64
577.75	79.58
577.92	25.75
578.08	56.17
578.24	0.00
578.40	72.56
578.56	23.41
578.72	67.88
578.88	16.38
579.04	0.00
579.21	42.13
579.37	49.15
579.53	11.70
579.69	44.47
579.85	0.00
580.01	81.92
580.17	91.28
580.33	39.79
580.49	65.54
580.65	28.09
580.82	0.00
580.98	86.60
581.14	46.81
581.30	72.56
581.46	56.17
581.62	72.56
581.78	60.85
581.94	51.49
582.10	0.00
582.26	84.26
582.42	21.06
582.58	7.02
582.74	28.09
582.90	32.77
583.06	60.85
583.22	88.94
583.38	74.90
583.54	14.04
583.70	56.17
583.86	37.45
584.02	91.28
584.18	65.54
584.34	0.00
584.50	58.51
584.66	37.45
584.82	84.26
584.98	16.38
585.14	42.13
585.30	14.04
585.46	58.51
585.62	18.72
585.78	70.22
585.94	7.02
586.10	9.36
586.26	124.05
586.42	11.70
586.58	51.49
586.74	32.77
586.90	32.77
587.06	77.24
587.22	51.49
587.38	39.79
587.54	28.09
587.70	46.81
587.86	70.22
588.02	23.41
588.18	37.45
588.34	112.35
588.49	51.49
588.65	39.79
588.81	49.15
588.97	25.75
589.13	16.38
589.29	60.85
589.45	0.00
589.61	39.79
589.77	0.00
589.93	51.49
590.08	23.41
590.24	0.00
590.40	0.00
590.56	0.00
590.72	110.01
590.88	0.00
591.04	93.62
591.20	0.00
591.35	0.00
591.51	0.00
591.67	35.11
591.83	35.11
591.99	16.38
592.15	70.22
592.31	49.15
592.46	0.00
592.62	0.00
592.78	49.15
592.94	35.11
593.10	4.68
593.26	35.11
593.41	21.06
593.57	16.38
593.73	56.17
593.89	77.24
594.05	0.00
594.20	0.00
594.36	0.00
594.52	51.49
594.68	9.36
594.84	30.43
594.99	28.09
595.15	0.00
595.31	86.60
595.47	44.47
595.62	42.13
595.78	42.13
595.94	14.04
596.10	81.92
596.25	65.54
596.41	0.00
596.57	4.68
596.73	58.51
596.88	35.11
597.04	60.85
597.20	42.13
597.36	51.49
597.51	67.88
597.67	37.45
597.83	42.13
597.99	0.00
598.14	42.13
598.30	84.26
598.46	0.00
598.61	0.00
598.77	49.15
598.93	65.54
599.09	67.88
599.24	44.47
599.40	11.70
599.56	25.75
599.71	37.45
599.87	0.00
600.03	70.22
600.18	70.22
600.34	93.62
600.50	58.51
600.65	0.00
600.81	72.56
600.97	81.92
601.12	25.75
601.28	11.70
601.44	9.36
601.59	53.83
601.75	11.70
601.91	11.70
602.06	74.90
602.22	4.68
602.37	28.09
602.53	65.54
602.69	18.72
602.84	35.11
603.00	79.58
603.16	51.49
603.31	0.00
603.47	0.00
603.62	58.51
603.78	44.47
603.94	21.06
604.09	0.00
604.25	63.19
604.40	95.96
604.56	21.06
604.71	25.75
604.87	39.79
605.03	42.13
605.18	51.49
605.34	117.03
605.49	56.17
605.65	2.34
605.80	63.19
605.96	16.38
606.12	25.75
606.27	63.19
606.43	72.56
606.58	79.58
606.74	32.77
606.89	79.58
607.05	25.75
607.20	74.90
607.36	0.00
607.51	0.00
607.67	0.00
607.82	72.56
607.98	14.04
608.13	0.00
608.29	32.77
608.44	81.92
608.60	18.72
608.75	21.06
608.91	67.88
609.06	58.51
609.22	25.75
609.37	0.00
609.53	0.00
609.68	63.19
609.84	53.83
609.99	14.04
610.15	44.47
610.30	124.05
610.46	63.19
610.61	53.83
610.76	11.70
610.92	37.45
611.07	35.11
611.23	0.00
611.38	0.00
611.54	42.13
611.69	84.26
611.84	28.09
612.00	0.00
612.15	0.00
612.31	4.68
612.46	53.83
612.62	51.49
612.77	0.00
612.92	49.15
613.08	0.00
613.23	44.47
613.39	9.36
613.54	63.19
613.69	0.00
613.85	0.00
614.00	81.92
614.15	14.04
614.31	0.00
614.46	44.47
614.62	32.77
614.77	0.00
614.92	30.43
615.08	25.75
615.23	42.13
615.38	0.00
615.54	21.06
615.69	30.43
615.84	11.70
616.00	65.54
616.15	21.06
616.30	79.58
616.46	30.43
616.61	72.56
616.76	56.17
616.92	0.00
617.07	74.90
617.22	0.00
617.37	86.60
617.53	25.75
617.68	0.00
617.83	74.90
617.99	67.88
618.14	46.81
618.29	7.02
618.45	0.00
618.60	18.72
618.75	53.83
618.90	84.26
619.06	4.68
619.21	58.51
619.36	56.17
619.51	60.85
619.67	53.83
619.82	42.13
619.97	98.30
620.12	35.11
620.28	0.00
620.43	63.19
620.58	74.90
620.73	81.92
620.89	63.19
621.04	4.68
621.19	25.75
621.34	53.83
621.49	23.41
621.65	14.04
621.80	14.04
621.95	0.00
622.10	16.38
622.25	23.41
622.41	37.45
622.56	0.00
622.71	4.68
622.86	37.45
623.01	0.00
623.16	14.04
623.32	32.77
623.47	0.00
623.62	23.41
623.77	25.75
623.92	74.90
624.07	0.00
624.23	25.75
624.38	53.83
624.53	0.00
624.68	0.00
624.83	0.00
624.98	42.13
625.13	95.96
625.29	28.09
625.44	35.11
625.59	0.00
625.74	0.00
625.89	16.38
626.04	53.83
626.19	4.68
626.34	28.09
626.49	25.75
626.65	124.05
626.80	35.11
626.95	60.85
627.10	56.17
627.25	74.90
627.40	28.09
627.55	0.00
627.70	86.60
627.85	72.56
628.00	28.09
628.15	67.88
628.30	51.49
628.45	56.17
628.60	46.81
628.76	32.77
628.91	42.13
629.06	44.47
629.21	0.00
629.36	56.17
629.51	121.71
629.66	93.62
629.81	58.51
629.96	4.68
630.11	39.79
630.26	42.13
630.41	9.36
630.56	9.36
630.71	0.00
630.86	37.45
631.01	44.47
631.16	60.85
631.31	4.68
631.46	95.96
631.61	46.81
631.76	107.66
631.91	58.51
632.06	42.13
632.21	0.00
632.36	79.58
632.51	67.88
632.66	25.75
632.81	4.68
632.96	32.77
633.10	37.45
633.25	56.17
633.40	0.00
633.55	102.98
633.70	84.26
633.85	11.70
634.00	121.71
634.15	39.79
634.30	77.24
634.45	30.43
634.60	28.09
634.75	18.72
634.90	58.51
635.05	58.51
635.19	63.19
635.34	30.43
635.49	0.00
635.64	44.47
635.79	32.77
635.94	65.54
636.09	11.70
636.24	0.00
636.39	30.43
636.53	56.17
636.68	119.37
636.83	21.06
636.98	79.58
637.13	7.02
637.28	7.02
637.43	23.41
637.57	0.00
637.72	9.36
637.87	35.11
638.02	11.70
638.17	7.02
638.32	21.06
638.46	32.77
638.61	37.45
638.76	16.38
638.91	114.69
639.06	74.90
639.20	18.72
639.35	84.26
639.50	35.11
639.65	84.26
639.80	0.00
639.94	32.77
640.09	58.51
640.24	44.47
640.39	93.62
640.54	93.62
640.68	70.22
640.83	39.79
640.98	88.94
641.13	133.41
641.27	60.85
641.42	0.00
641.57	42.13
641.72	32.77
641.86	16.38
642.01	11.70
642.16	53.83
642.31	107.66
642.45	70.22
642.60	44.47
642.75	49.15
642.90	60.85
643.04	28.09
643.19	95.96
643.34	0.00
643.48	16.38
643.63	63.19
643.78	30.43
643.93	51.49
644.07	18.72
644.22	30.43
644.37	58.51
644.51	0.00
644.66	0.00
644.81	25.75
644.95	65.54
645.10	60.85
645.25	25.75
645.39	25.75
645.54	49.15
645.69	21.06
645.83	44.47
645.98	39.79
646.13	53.83
646.27	81.92
646.42	9.36
646.57	58.51
646.71	44.47
646.86	18.72
647.00	88.94
647.15	21.06
647.30	18.72
647.44	18.72
647.59	91.28
647.74	0.00
647.88	0.00
648.03	0.00
648.17	0.00
648.32	0.00
648.47	7.02
648.61	30.43
648.76	46.81
648.90	60.85
649.05	37.45
649.20	105.32
649.34	84.26
649.49	0.00
649.63	4.68
649.78	28.09
649.92	14.04
650.07	60.85
650.21	46.81
650.36	56.17
650.51	0.00
650.65	11.70
650.80	70.22
650.94	35.11
651.09	16.38
651.23	46.81
651.38	0.00
651.52	0.00
651.67	25.75
651.81	21.06
651.96	25.75
652.10	46.81
652.25	35.11
652.39	60.85
652.54	37.45
652.68	42.13
652.83	21.06
652.97	74.90
653.12	30.43
653.26	21.06
653.41	72.56
653.55	0.00
653.70	32.77
653.84	4.68
653.99	32.77
654.13	110.01
654.27	67.88
654.42	100.64
654.56	2.34
654.71	51.49
654.85	0.00
655.00	0.00
655.14	39.79
655.29	28.09
655.43	63.19
655.57	65.54
655.72	28.09
655.86	74.90
656.01	25.75
656.15	72.56
656.30	51.49
656.44	86.60
656.58	18.72
656.73	4.68
656.87	4.68
657.01	18.72
657.16	0.00
657.30	53.83
657.45	56.17
657.59	95.96
657.73	53.83
657.88	37.45
658.02	14.04
658.16	58.51
658.31	18.72
658.45	95.96
658.60	67.88
658.74	35.11
658.88	18.72
659.03	42.13
659.17	32.77
659.31	14.04
659.46	60.85
659.60	65.54
659.74	21.06
659.89	91.28
660.03	81.92
660.17	0.00
660.32	0.00
660.46	0.00
660.60	18.72
660.74	28.09
660.89	56.17
661.03	65.54
661.17	0.00
661.32	0.00
661.46	25.75
661.60	79.58
661.74	39.79
661.89	0.00
662.03	25.75
662.17	58.51
662.31	65.54
662.46	0.00
662.60	28.09
662.74	42.13
662.88	11.70
663.03	0.00
663.17	30.43
663.31	53.83
663.45	14.04
663.60	32.77
663.74	14.04
663.88	63.19
664.02	9.36
664.17	110.01
664.31	0.00
664.45	102.98
664.59	18.72
664.73	88.94
664.88	0.00
665.02	0.00
665.16	23.41
665.30	86.60
665.44	32.77
665.59	58.51
665.73	0.00
665.87	0.00
666.01	126.39
666.15	79.58
666.29	21.06
666.44	0.00
666.58	39.79
666.72	7.02
666.86	16.38
667.00	28.09
667.14	35.11
667.28	44.47
667.43	0.00
667.57	0.00
667.71	25.75
667.85	0.00
667.99	42.13
668.13	0.00
668.27	35.11
668.41	0.00
668.56	53.83
668.70	14.04
668.84	63.19
668.98	42.13
669.12	0.00
669.26	53.83
669.40	18.72
669.54	56.17
669.68	23.41
669.82	42.13
669.96	4.68
670.10	11.70
670.25	32.77
670.39	74.90
670.53	74.90
670.67	0.00
670.81	37.45
670.95	18.72
671.09	81.92
671.23	72.56
671.37	32.77
671.51	46.81
671.65	0.00
671.79	46.81
671.93	23.41
672.07	58.51
672.21	42.13
672.35	126.39
672.49	35.11
672.63	0.00
672.77	30.43
672.91	0.00
673.05	0.00
673.19	18.72
673.33	0.00
673.47	35.11
673.61	30.43
673.75	0.00
673.89	0.00
674.03	58.51
674.17	49.15
674.31	60.85
674.45	0.00
674.59	25.75
674.73	46.81
674.87	11.70
675.01	0.00
675.15	0.00
675.29	35.11
675.43	0.00
675.56	32.77
675.70	51.49
675.84	14.04
675.98	0.00
676.12	63.19
676.26	0.00
676.40	63.19
676.54	23.41
676.68	32.77
676.82	35.11
676.96	35.11
677.10	7.02
677.23	100.64
677.37	93.62
677.51	56.17
677.65	9.36
677.79	28.09
677.93	72.56
678.07	0.00
678.21	0.00
678.34	42.13
678.48	32.77
678.62	77.24
678.76	0.00
678.90	25.75
679.04	30.43
679.18	42.13
679.31	46.81
679.45	0.00
679.59	4.68
679.73	21.06
679.87	0.00
680.00	56.17
680.14	28.09
680.28	65.54
680.42	9.36
680.56	65.54
680.70	56.17
680.83	67.88
680.97	7.02
681.11	11.70
681.25	58.51
681.39	67.88
681.52	51.49
681.66	37.45
681.80	11.70
681.94	32.77
682.07	0.00
682.21	23.41
682.35	0.00
682.49	28.09
682.62	2.34
682.76	93.62
682.90	81.92
683.04	51.49
683.17	56.17
683.31	21.06
683.45	70.22
683.59	42.13
683.72	35.11
683.86	9.36
684.00	56.17
684.13	25.75
684.27	53.83
684.41	0.00
684.55	91.28
684.68	0.00
684.82	51.49
684.96	37.45
685.09	51.49
685.23	105.32
685.37	56.17
685.50	56.17
685.64	102.98
685.78	93.62
685.91	25.75
686.05	16.38
686.19	39.79
686.32	56.17
686.46	0.00
686.60	0.00
686.73	16.38
686.87	0.00
687.01	16.38
687.14	51.49
687.28	0.00
687.42	16.38
687.55	84.26
687.69	11.70
687.82	0.00
687.96	23.41
688.10	37.45
688.23	0.00
688.37	0.00
688.50	0.00
688.64	86.60
688.78	30.43
688.91	32.77
689.05	16.38
689.18	25.75
689.32	32.77
689.46	0.00
689.59	58.51
689.73	74.90
689.86	0.00
690.00	51.49
690.13	7.02
690.27	84.26
690.41	18.72
690.54	84.26
690.68	0.00
690.81	72.56
690.95	42.13
691.08	0.00
691.22	0.00
691.35	0.00
691.49	72.56
691.62	25.75
691.76	46.81
691.89	9.36
692.03	30.43
692.16	0.00
692.30	37.45
692.43	28.09
692.57	2.34
692.70	102.98
692.84	14.04
692.97	0.00
693.11	11.70
693.24	28.09
693.38	9.36
693.51	60.85
693.65	0.00
693.78	39.79
693.92	28.09
694.05	51.49
694.19	23.41
694.32	2.34
694.45	16.38
694.59	30.43
694.72	70.22
694.86	4.68
694.99	0.00
695.13	51.49
695.26	23.41
695.39	42.13
695.53	51.49
695.66	4.68
695.80	0.00
695.93	0.00
696.07	7.02
696.20	44.47
696.33	0.00
696.47	0.00
696.60	16.38
696.73	0.00
696.87	44.47
697.00	18.72
697.14	0.00
697.27	35.11
697.40	91.28
697.54	37.45
697.67	28.09
697.80	32.77
697.94	53.83
698.07	46.81
698.21	49.15
698.34	0.00
698.47	0.00
698.61	23.41
698.74	0.00
698.87	42.13
699.01	16.38
699.14	35.11
699.27	25.75
699.40	30.43
699.54	0.00
699.67	11.70
699.80	0.00
699.94	7.02
700.07	32.77
700.20	39.79
700.34	56.17
700.47	0.00
700.60	79.58
700.73	37.45
700.87	56.17
701.00	37.45
701.13	35.11
701.26	42.13
701.40	49.15
701.53	0.00
701.66	23.41
701.79	63.19
701.93	0.00
702.06	9.36
702.19	0.00
702.32	42.13
702.46	56.17
702.59	4.68
702.72	0.00
702.85	79.58
702.99	0.00
703.12	37.45
703.25	39.79
703.38	0.00
703.51	23.41
703.65	0.00
703.78	49.15
703.91	14.04
704.04	9.36
704.17	2.34
704.31	32.77
704.44	77.24
704.57	63.19
704.70	14.04
704.83	0.00
704.96	39.79
705.10	70.22
705.23	44.47
>>>>>End Processed Spectral Data<<<<<
