SpectraSuite Data File
++++++++++++++++++++++++++++++++++++
Date: Fri Oct 04 12:13:42 GMT-05:00 2013
User: price-jones
Dark Spectrum Present: No
Reference Spectrum Present: No
Number of Sampled Component Spectra: 1
Spectrometers: USB2+H05261
Integration Time (usec): 10000 (USB2+H05261)
Spectra Averaged: 1 (USB2+H05261)
Boxcar Smoothing: 0 (USB2+H05261)
Correct for Electrical Dark: No (USB2+H05261)
Strobe/Lamp Enabled: No (USB2+H05261)
Correct for Detector Non-linearity: No (USB2+H05261)
Correct for Stray Light: No (USB2+H05261)
Number of Pixels in Processed Spectrum: 2048
>>>>>Begin Processed Spectral Data<<<<<
365.73	0.00
365.92	0.00
366.12	0.00
366.32	0.00
366.52	0.00
366.72	0.00
366.91	0.00
367.11	0.00
367.31	0.00
367.51	0.00
367.70	0.00
367.90	0.00
368.10	0.00
368.30	0.00
368.49	0.00
368.69	0.00
368.89	0.00
369.09	0.00
369.28	0.00
369.48	0.00
369.68	0.00
369.87	0.00
370.07	0.00
370.27	0.00
370.47	0.00
370.66	0.00
370.86	0.00
371.06	0.00
371.25	0.00
371.45	0.00
371.65	0.00
371.84	0.00
372.04	0.00
372.24	0.00
372.44	0.00
372.63	0.00
372.83	42.13
373.03	0.00
373.22	0.00
373.42	107.66
373.62	107.66
373.81	11.70
374.01	67.88
374.21	0.00
374.40	81.92
374.60	58.51
374.79	30.43
374.99	44.47
375.19	0.00
375.38	42.13
375.58	42.13
375.78	0.00
375.97	0.00
376.17	44.47
376.37	18.72
376.56	37.45
376.76	166.18
376.95	98.30
377.15	46.81
377.35	100.64
377.54	51.49
377.74	0.00
377.93	0.00
378.13	0.00
378.33	49.15
378.52	70.22
378.72	0.00
378.91	0.00
379.11	14.04
379.31	11.70
379.50	0.00
379.70	14.04
379.89	56.17
380.09	0.00
380.28	0.00
380.48	46.81
380.68	72.56
380.87	0.00
381.07	74.90
381.26	39.79
381.46	11.70
381.65	65.54
381.85	28.09
382.04	0.00
382.24	0.00
382.43	49.15
382.63	18.72
382.83	25.75
383.02	0.00
383.22	44.47
383.41	46.81
383.61	4.68
383.80	32.77
384.00	51.49
384.19	0.00
384.39	0.00
384.58	4.68
384.78	42.13
384.97	32.77
385.17	65.54
385.36	14.04
385.56	0.00
385.75	0.00
385.95	0.00
386.14	0.00
386.34	37.45
386.53	79.58
386.72	7.02
386.92	0.00
387.11	0.00
387.31	35.11
387.50	25.75
387.70	0.00
387.89	0.00
388.09	93.62
388.28	0.00
388.48	72.56
388.67	39.79
388.86	0.00
389.06	0.00
389.25	51.49
389.45	77.24
389.64	56.17
389.84	35.11
390.03	4.68
390.22	23.41
390.42	0.00
390.61	0.00
390.81	46.81
391.00	0.00
391.19	44.47
391.39	0.00
391.58	0.00
391.78	32.77
391.97	77.24
392.16	49.15
392.36	51.49
392.55	0.00
392.75	42.13
392.94	0.00
393.13	0.00
393.33	0.00
393.52	46.81
393.71	30.43
393.91	67.88
394.10	70.22
394.29	0.00
394.49	49.15
394.68	44.47
394.88	30.43
395.07	0.00
395.26	79.58
395.46	0.00
395.65	28.09
395.84	32.77
396.04	4.68
396.23	0.00
396.42	0.00
396.62	30.43
396.81	72.56
397.00	58.51
397.19	46.81
397.39	0.00
397.58	0.00
397.77	39.79
397.97	63.19
398.16	28.09
398.35	100.64
398.55	21.06
398.74	56.17
398.93	4.68
399.12	49.15
399.32	32.77
399.51	28.09
399.70	49.15
399.90	53.83
400.09	21.06
400.28	39.79
400.47	56.17
400.67	74.90
400.86	14.04
401.05	74.90
401.24	44.47
401.44	49.15
401.63	44.47
401.82	23.41
402.01	0.00
402.21	0.00
402.40	7.02
402.59	28.09
402.78	91.28
402.97	79.58
403.17	105.32
403.36	0.00
403.55	16.38
403.74	0.00
403.93	23.41
404.13	11.70
404.32	74.90
404.51	51.49
404.70	0.00
404.89	30.43
405.09	72.56
405.28	91.28
405.47	56.17
405.66	2.34
405.85	35.11
406.05	110.01
406.24	37.45
406.43	0.00
406.62	60.85
406.81	70.22
407.00	0.00
407.20	60.85
407.39	25.75
407.58	23.41
407.77	53.83
407.96	44.47
408.15	0.00
408.34	77.24
408.54	63.19
408.73	37.45
408.92	25.75
409.11	49.15
409.30	44.47
409.49	0.00
409.68	51.49
409.87	37.45
410.07	0.00
410.26	32.77
410.45	2.34
410.64	56.17
410.83	23.41
411.02	46.81
411.21	58.51
411.40	49.15
411.59	23.41
411.78	28.09
411.98	37.45
412.17	0.00
412.36	35.11
412.55	30.43
412.74	28.09
412.93	58.51
413.12	4.68
413.31	0.00
413.50	110.01
413.69	86.60
413.88	98.30
414.07	25.75
414.26	56.17
414.45	37.45
414.64	18.72
414.83	67.88
415.02	42.13
415.22	18.72
415.41	42.13
415.60	25.75
415.79	102.98
415.98	100.64
416.17	91.28
416.36	105.32
416.55	25.75
416.74	37.45
416.93	11.70
417.12	51.49
417.31	67.88
417.50	18.72
417.69	42.13
417.88	95.96
418.07	28.09
418.26	0.00
418.45	42.13
418.64	32.77
418.83	77.24
419.02	107.66
419.21	44.47
419.39	70.22
419.58	74.90
419.77	32.77
419.96	21.06
420.15	44.47
420.34	91.28
420.53	46.81
420.72	18.72
420.91	56.17
421.10	102.98
421.29	0.00
421.48	49.15
421.67	35.11
421.86	102.98
422.05	14.04
422.24	72.56
422.43	70.22
422.61	0.00
422.80	0.00
422.99	0.00
423.18	11.70
423.37	14.04
423.56	65.54
423.75	84.26
423.94	49.15
424.13	70.22
424.32	14.04
424.50	56.17
424.69	0.00
424.88	60.85
425.07	49.15
425.26	28.09
425.45	112.35
425.64	7.02
425.83	14.04
426.01	53.83
426.20	60.85
426.39	46.81
426.58	124.05
426.77	49.15
426.96	46.81
427.15	102.98
427.33	28.09
427.52	79.58
427.71	16.38
427.90	0.00
428.09	0.00
428.28	100.64
428.46	81.92
428.65	58.51
428.84	0.00
429.03	81.92
429.22	124.05
429.40	32.77
429.59	105.32
429.78	32.77
429.97	86.60
430.16	0.00
430.34	28.09
430.53	0.00
430.72	0.00
430.91	0.00
431.10	46.81
431.28	49.15
431.47	7.02
431.66	0.00
431.85	58.51
432.03	42.13
432.22	37.45
432.41	18.72
432.60	0.00
432.79	0.00
432.97	37.45
433.16	18.72
433.35	98.30
433.54	16.38
433.72	63.19
433.91	44.47
434.10	30.43
434.28	74.90
434.47	81.92
434.66	23.41
434.85	23.41
435.03	0.00
435.22	124.05
435.41	51.49
435.59	0.00
435.78	65.54
435.97	81.92
436.16	14.04
436.34	18.72
436.53	7.02
436.72	23.41
436.90	0.00
437.09	51.49
437.28	39.79
437.46	42.13
437.65	0.00
437.84	72.56
438.02	0.00
438.21	16.38
438.40	0.00
438.58	110.01
438.77	39.79
438.96	32.77
439.14	49.15
439.33	79.58
439.52	0.00
439.70	0.00
439.89	56.17
440.08	23.41
440.26	23.41
440.45	93.62
440.63	72.56
440.82	81.92
441.01	46.81
441.19	81.92
441.38	42.13
441.57	7.02
441.75	4.68
441.94	0.00
442.12	95.96
442.31	16.38
442.50	30.43
442.68	53.83
442.87	88.94
443.05	32.77
443.24	117.03
443.43	100.64
443.61	28.09
443.80	74.90
443.98	81.92
444.17	42.13
444.35	32.77
444.54	79.58
444.73	28.09
444.91	98.30
445.10	84.26
445.28	53.83
445.47	46.81
445.65	42.13
445.84	53.83
446.02	44.47
446.21	39.79
446.39	98.30
446.58	65.54
446.77	0.00
446.95	51.49
447.14	100.64
447.32	49.15
447.51	133.41
447.69	58.51
447.88	95.96
448.06	114.69
448.25	53.83
448.43	121.71
448.62	51.49
448.80	46.81
448.99	77.24
449.17	60.85
449.36	93.62
449.54	58.51
449.73	32.77
449.91	79.58
450.10	9.36
450.28	18.72
450.46	112.35
450.65	56.17
450.83	51.49
451.02	58.51
451.20	49.15
451.39	44.47
451.57	58.51
451.76	21.06
451.94	70.22
452.13	39.79
452.31	77.24
452.49	72.56
452.68	88.94
452.86	53.83
453.05	84.26
453.23	65.54
453.42	21.06
453.60	7.02
453.78	16.38
453.97	131.07
454.15	72.56
454.34	49.15
454.52	170.86
454.70	88.94
454.89	65.54
455.07	77.24
455.26	79.58
455.44	65.54
455.62	0.00
455.81	11.70
455.99	25.75
456.17	49.15
456.36	30.43
456.54	25.75
456.73	91.28
456.91	93.62
457.09	14.04
457.28	74.90
457.46	56.17
457.64	81.92
457.83	21.06
458.01	4.68
458.19	14.04
458.38	110.01
458.56	42.13
458.74	53.83
458.93	35.11
459.11	11.70
459.29	9.36
459.48	88.94
459.66	18.72
459.84	60.85
460.03	58.51
460.21	102.98
460.39	63.19
460.57	18.72
460.76	79.58
460.94	74.90
461.12	58.51
461.31	49.15
461.49	0.00
461.67	4.68
461.85	35.11
462.04	53.83
462.22	37.45
462.40	124.05
462.59	107.66
462.77	65.54
462.95	32.77
463.13	173.20
463.32	30.43
463.50	105.32
463.68	86.60
463.86	56.17
464.05	37.45
464.23	2.34
464.41	74.90
464.59	86.60
464.78	53.83
464.96	0.00
465.14	77.24
465.32	70.22
465.50	9.36
465.69	112.35
465.87	32.77
466.05	81.92
466.23	95.96
466.41	51.49
466.60	9.36
466.78	35.11
466.96	23.41
467.14	91.28
467.32	72.56
467.51	21.06
467.69	51.49
467.87	67.88
468.05	77.24
468.23	60.85
468.41	163.84
468.60	74.90
468.78	25.75
468.96	60.85
469.14	112.35
469.32	56.17
469.50	49.15
469.69	98.30
469.87	30.43
470.05	124.05
470.23	37.45
470.41	98.30
470.59	28.09
470.77	32.77
470.95	0.00
471.14	67.88
471.32	14.04
471.50	28.09
471.68	95.96
471.86	42.13
472.04	72.56
472.22	32.77
472.40	77.24
472.58	215.33
472.77	51.49
472.95	72.56
473.13	98.30
473.31	46.81
473.49	74.90
473.67	30.43
473.85	42.13
474.03	42.13
474.21	72.56
474.39	79.58
474.57	149.79
474.75	58.51
474.93	35.11
475.12	79.58
475.30	105.32
475.48	65.54
475.66	46.81
475.84	23.41
476.02	25.75
476.20	91.28
476.38	91.28
476.56	88.94
476.74	49.15
476.92	79.58
477.10	77.24
477.28	121.71
477.46	58.51
477.64	9.36
477.82	42.13
478.00	58.51
478.18	110.01
478.36	37.45
478.54	81.92
478.72	67.88
478.90	88.94
479.08	46.81
479.26	0.00
479.44	70.22
479.62	128.73
479.80	30.43
479.98	128.73
480.16	51.49
480.34	98.30
480.52	56.17
480.70	67.88
480.88	32.77
481.06	124.05
481.24	65.54
481.41	42.13
481.59	39.79
481.77	56.17
481.95	88.94
482.13	30.43
482.31	63.19
482.49	30.43
482.67	0.00
482.85	67.88
483.03	98.30
483.21	110.01
483.39	46.81
483.57	65.54
483.74	46.81
483.92	67.88
484.10	37.45
484.28	88.94
484.46	51.49
484.64	72.56
484.82	11.70
485.00	126.39
485.18	58.51
485.35	98.30
485.53	110.01
485.71	84.26
485.89	44.47
486.07	63.19
486.25	60.85
486.43	93.62
486.61	39.79
486.78	131.07
486.96	74.90
487.14	58.51
487.32	117.03
487.50	79.58
487.68	107.66
487.85	70.22
488.03	67.88
488.21	0.00
488.39	53.83
488.57	93.62
488.75	42.13
488.92	53.83
489.10	93.62
489.28	95.96
489.46	18.72
489.64	98.30
489.81	84.26
489.99	88.94
490.17	65.54
490.35	53.83
490.53	32.77
490.70	14.04
490.88	14.04
491.06	49.15
491.24	0.00
491.41	81.92
491.59	133.41
491.77	37.45
491.95	72.56
492.13	131.07
492.30	65.54
492.48	110.01
492.66	102.98
492.84	72.56
493.01	102.98
493.19	63.19
493.37	39.79
493.54	107.66
493.72	44.47
493.90	42.13
494.08	37.45
494.25	98.30
494.43	67.88
494.61	63.19
494.79	67.88
494.96	93.62
495.14	49.15
495.32	110.01
495.49	23.41
495.67	39.79
495.85	79.58
496.02	100.64
496.20	88.94
496.38	42.13
496.55	4.68
496.73	65.54
496.91	126.39
497.09	149.79
497.26	56.17
497.44	51.49
497.62	126.39
497.79	100.64
497.97	56.17
498.14	102.98
498.32	107.66
498.50	133.41
498.67	70.22
498.85	23.41
499.03	95.96
499.20	105.32
499.38	98.30
499.56	149.79
499.73	86.60
499.91	81.92
500.08	86.60
500.26	88.94
500.44	58.51
500.61	84.26
500.79	4.68
500.97	4.68
501.14	126.39
501.32	98.30
501.49	77.24
501.67	126.39
501.84	70.22
502.02	100.64
502.20	95.96
502.37	53.83
502.55	95.96
502.72	93.62
502.90	84.26
503.07	37.45
503.25	67.88
503.43	39.79
503.60	74.90
503.78	102.98
503.95	95.96
504.13	49.15
504.30	53.83
504.48	60.85
504.65	121.71
504.83	60.85
505.01	107.66
505.18	42.13
505.36	0.00
505.53	81.92
505.71	70.22
505.88	39.79
506.06	88.94
506.23	114.69
506.41	7.02
506.58	51.49
506.76	74.90
506.93	35.11
507.11	44.47
507.28	105.32
507.46	0.00
507.63	114.69
507.81	58.51
507.98	145.11
508.16	163.84
508.33	23.41
508.50	86.60
508.68	86.60
508.85	110.01
509.03	86.60
509.20	67.88
509.38	112.35
509.55	23.41
509.73	30.43
509.90	98.30
510.08	37.45
510.25	37.45
510.42	18.72
510.60	77.24
510.77	126.39
510.95	154.48
511.12	65.54
511.30	100.64
511.47	102.98
511.64	114.69
511.82	110.01
511.99	187.24
512.17	135.75
512.34	39.79
512.51	138.09
512.69	28.09
512.86	67.88
513.04	133.41
513.21	23.41
513.38	149.79
513.56	140.43
513.73	119.37
513.90	9.36
514.08	145.11
514.25	124.05
514.43	67.88
514.60	149.79
514.77	53.83
514.95	0.00
515.12	46.81
515.29	117.03
515.47	135.75
515.64	72.56
515.81	88.94
515.99	107.66
516.16	63.19
516.33	72.56
516.51	145.11
516.68	63.19
516.85	35.11
517.03	0.00
517.20	86.60
517.37	70.22
517.54	37.45
517.72	9.36
517.89	58.51
518.06	63.19
518.24	93.62
518.41	88.94
518.58	49.15
518.75	35.11
518.93	91.28
519.10	42.13
519.27	67.88
519.45	53.83
519.62	124.05
519.79	4.68
519.96	23.41
520.14	63.19
520.31	100.64
520.48	23.41
520.65	100.64
520.83	117.03
521.00	58.51
521.17	32.77
521.34	98.30
521.52	149.79
521.69	112.35
521.86	37.45
522.03	98.30
522.20	67.88
522.38	42.13
522.55	63.19
522.72	138.09
522.89	107.66
523.07	98.30
523.24	88.94
523.41	107.66
523.58	138.09
523.75	23.41
523.92	16.38
524.10	49.15
524.27	114.69
524.44	23.41
524.61	117.03
524.78	84.26
524.96	98.30
525.13	81.92
525.30	159.16
525.47	51.49
525.64	81.92
525.81	88.94
525.98	135.75
526.16	72.56
526.33	56.17
526.50	53.83
526.67	63.19
526.84	30.43
527.01	86.60
527.18	119.37
527.36	60.85
527.53	91.28
527.70	93.62
527.87	102.98
528.04	91.28
528.21	77.24
528.38	42.13
528.55	117.03
528.72	77.24
528.89	102.98
529.07	53.83
529.24	72.56
529.41	98.30
529.58	166.18
529.75	105.32
529.92	84.26
530.09	147.45
530.26	93.62
530.43	126.39
530.60	152.13
530.77	72.56
530.94	117.03
531.11	126.39
531.28	74.90
531.46	105.32
531.63	58.51
531.80	91.28
531.97	93.62
532.14	93.62
532.31	77.24
532.48	42.13
532.65	114.69
532.82	79.58
532.99	77.24
533.16	121.71
533.33	124.05
533.50	117.03
533.67	100.64
533.84	84.26
534.01	72.56
534.18	112.35
534.35	93.62
534.52	56.17
534.69	88.94
534.86	70.22
535.03	65.54
535.20	67.88
535.37	112.35
535.54	72.56
535.71	147.45
535.88	100.64
536.05	81.92
536.22	58.51
536.38	65.54
536.55	145.11
536.72	72.56
536.89	70.22
537.06	35.11
537.23	133.41
537.40	88.94
537.57	0.00
537.74	227.03
537.91	126.39
538.08	154.48
538.25	154.48
538.42	126.39
538.59	35.11
538.75	86.60
538.92	81.92
539.09	79.58
539.26	112.35
539.43	81.92
539.60	74.90
539.77	63.19
539.94	81.92
540.11	35.11
540.28	100.64
540.44	95.96
540.61	39.79
540.78	114.69
540.95	119.37
541.12	117.03
541.29	39.79
541.46	53.83
541.62	124.05
541.79	74.90
541.96	79.58
542.13	37.45
542.30	60.85
542.47	77.24
542.63	18.72
542.80	145.11
542.97	18.72
543.14	58.51
543.31	9.36
543.48	95.96
543.64	102.98
543.81	77.24
543.98	128.73
544.15	128.73
544.32	70.22
544.48	142.77
544.65	67.88
544.82	102.98
544.99	58.51
545.16	98.30
545.32	110.01
545.49	196.60
545.66	128.73
545.83	117.03
546.00	84.26
546.16	142.77
546.33	44.47
546.50	102.98
546.67	86.60
546.83	110.01
547.00	93.62
547.17	39.79
547.34	86.60
547.50	182.56
547.67	91.28
547.84	70.22
548.00	168.52
548.17	79.58
548.34	35.11
548.51	58.51
548.67	35.11
548.84	86.60
549.01	77.24
549.18	49.15
549.34	32.77
549.51	107.66
549.68	100.64
549.84	65.54
550.01	35.11
550.18	154.48
550.34	100.64
550.51	121.71
550.68	142.77
550.84	53.83
551.01	119.37
551.18	72.56
551.34	67.88
551.51	98.30
551.68	77.24
551.84	84.26
552.01	147.45
552.18	156.82
552.34	110.01
552.51	161.50
552.68	105.32
552.84	74.90
553.01	107.66
553.18	77.24
553.34	91.28
553.51	131.07
553.67	105.32
553.84	88.94
554.01	112.35
554.17	133.41
554.34	28.09
554.51	53.83
554.67	77.24
554.84	63.19
555.00	77.24
555.17	56.17
555.33	161.50
555.50	49.15
555.67	77.24
555.83	105.32
556.00	95.96
556.16	131.07
556.33	88.94
556.50	91.28
556.66	79.58
556.83	42.13
556.99	117.03
557.16	84.26
557.32	77.24
557.49	102.98
557.65	58.51
557.82	110.01
557.98	98.30
558.15	81.92
558.32	58.51
558.48	30.43
558.65	60.85
558.81	4.68
558.98	63.19
559.14	107.66
559.31	60.85
559.47	121.71
559.64	121.71
559.80	35.11
559.97	74.90
560.13	102.98
560.30	63.19
560.46	81.92
560.63	74.90
560.79	77.24
560.96	63.19
561.12	93.62
561.29	58.51
561.45	107.66
561.61	81.92
561.78	72.56
561.94	93.62
562.11	110.01
562.27	95.96
562.44	60.85
562.60	60.85
562.77	84.26
562.93	95.96
563.10	138.09
563.26	102.98
563.42	100.64
563.59	112.35
563.75	0.00
563.92	53.83
564.08	32.77
564.24	133.41
564.41	128.73
564.57	25.75
564.74	131.07
564.90	84.26
565.07	42.13
565.23	124.05
565.39	42.13
565.56	56.17
565.72	70.22
565.88	88.94
566.05	0.00
566.21	100.64
566.38	18.72
566.54	117.03
566.70	84.26
566.87	81.92
567.03	49.15
567.19	49.15
567.36	156.82
567.52	16.38
567.68	72.56
567.85	102.98
568.01	138.09
568.17	102.98
568.34	107.66
568.50	56.17
568.66	91.28
568.83	100.64
568.99	117.03
569.15	60.85
569.32	110.01
569.48	35.11
569.64	81.92
569.81	60.85
569.97	124.05
570.13	0.00
570.30	105.32
570.46	98.30
570.62	16.38
570.78	145.11
570.95	23.41
571.11	60.85
571.27	86.60
571.43	42.13
571.60	102.98
571.76	107.66
571.92	39.79
572.09	65.54
572.25	42.13
572.41	86.60
572.57	93.62
572.74	42.13
572.90	88.94
573.06	39.79
573.22	95.96
573.38	102.98
573.55	110.01
573.71	79.58
573.87	53.83
574.03	74.90
574.20	126.39
574.36	77.24
574.52	107.66
574.68	0.00
574.84	100.64
575.01	95.96
575.17	86.60
575.33	70.22
575.49	56.17
575.65	79.58
575.82	114.69
575.98	79.58
576.14	93.62
576.30	46.81
576.46	58.51
576.62	51.49
576.79	77.24
576.95	102.98
577.11	67.88
577.27	42.13
577.43	72.56
577.59	74.90
577.75	60.85
577.92	74.90
578.08	65.54
578.24	95.96
578.40	88.94
578.56	95.96
578.72	100.64
578.88	86.60
579.04	4.68
579.21	67.88
579.37	84.26
579.53	67.88
579.69	25.75
579.85	117.03
580.01	60.85
580.17	107.66
580.33	49.15
580.49	119.37
580.65	46.81
580.82	77.24
580.98	70.22
581.14	145.11
581.30	88.94
581.46	39.79
581.62	79.58
581.78	98.30
581.94	0.00
582.10	0.00
582.26	67.88
582.42	49.15
582.58	77.24
582.74	58.51
582.90	53.83
583.06	145.11
583.22	23.41
583.38	88.94
583.54	93.62
583.70	77.24
583.86	119.37
584.02	170.86
584.18	124.05
584.34	95.96
584.50	81.92
584.66	81.92
584.82	42.13
584.98	84.26
585.14	88.94
585.30	63.19
585.46	49.15
585.62	86.60
585.78	131.07
585.94	18.72
586.10	28.09
586.26	77.24
586.42	70.22
586.58	72.56
586.74	72.56
586.90	112.35
587.06	11.70
587.22	25.75
587.38	93.62
587.54	100.64
587.70	46.81
587.86	56.17
588.02	44.47
588.18	56.17
588.34	0.00
588.49	84.26
588.65	105.32
588.81	79.58
588.97	16.38
589.13	63.19
589.29	0.00
589.45	79.58
589.61	65.54
589.77	79.58
589.93	102.98
590.08	107.66
590.24	53.83
590.40	58.51
590.56	72.56
590.72	39.79
590.88	18.72
591.04	105.32
591.20	53.83
591.35	60.85
591.51	72.56
591.67	51.49
591.83	138.09
591.99	107.66
592.15	58.51
592.31	58.51
592.46	72.56
592.62	51.49
592.78	100.64
592.94	9.36
593.10	39.79
593.26	145.11
593.41	133.41
593.57	58.51
593.73	39.79
593.89	81.92
594.05	93.62
594.20	14.04
594.36	7.02
594.52	56.17
594.68	63.19
594.84	77.24
594.99	74.90
595.15	81.92
595.31	86.60
595.47	126.39
595.62	65.54
595.78	205.97
595.94	145.11
596.10	88.94
596.25	84.26
596.41	88.94
596.57	117.03
596.73	93.62
596.88	56.17
597.04	88.94
597.20	53.83
597.36	131.07
597.51	53.83
597.67	63.19
597.83	39.79
597.99	98.30
598.14	110.01
598.30	28.09
598.46	51.49
598.61	117.03
598.77	25.75
598.93	60.85
599.09	112.35
599.24	65.54
599.40	79.58
599.56	98.30
599.71	86.60
599.87	42.13
600.03	77.24
600.18	70.22
600.34	128.73
600.50	128.73
600.65	102.98
600.81	58.51
600.97	60.85
601.12	84.26
601.28	84.26
601.44	58.51
601.59	84.26
601.75	51.49
601.91	88.94
602.06	91.28
602.22	81.92
602.37	95.96
602.53	60.85
602.69	0.00
602.84	18.72
603.00	25.75
603.16	79.58
603.31	152.13
603.47	100.64
603.62	72.56
603.78	100.64
603.94	91.28
604.09	74.90
604.25	86.60
604.40	84.26
604.56	98.30
604.71	117.03
604.87	28.09
605.03	63.19
605.18	16.38
605.34	79.58
605.49	35.11
605.65	91.28
605.80	110.01
605.96	91.28
606.12	53.83
606.27	100.64
606.43	107.66
606.58	46.81
606.74	95.96
606.89	58.51
607.05	149.79
607.20	35.11
607.36	95.96
607.51	67.88
607.67	37.45
607.82	63.19
607.98	51.49
608.13	98.30
608.29	84.26
608.44	126.39
608.60	100.64
608.75	56.17
608.91	44.47
609.06	14.04
609.22	121.71
609.37	117.03
609.53	0.00
609.68	119.37
609.84	72.56
609.99	49.15
610.15	86.60
610.30	49.15
610.46	56.17
610.61	105.32
610.76	51.49
610.92	126.39
611.07	77.24
611.23	95.96
611.38	170.86
611.54	98.30
611.69	42.13
611.84	67.88
612.00	86.60
612.15	91.28
612.31	110.01
612.46	119.37
612.62	53.83
612.77	145.11
612.92	42.13
613.08	102.98
613.23	175.54
613.39	14.04
613.54	16.38
613.69	98.30
613.85	81.92
614.00	86.60
614.15	30.43
614.31	84.26
614.46	56.17
614.62	138.09
614.77	133.41
614.92	142.77
615.08	88.94
615.23	60.85
615.38	39.79
615.54	88.94
615.69	30.43
615.84	77.24
616.00	102.98
616.15	21.06
616.30	51.49
616.46	67.88
616.61	42.13
616.76	53.83
616.92	84.26
617.07	16.38
617.22	51.49
617.37	56.17
617.53	51.49
617.68	51.49
617.83	70.22
617.99	112.35
618.14	30.43
618.29	95.96
618.45	70.22
618.60	14.04
618.75	84.26
618.90	88.94
619.06	72.56
619.21	84.26
619.36	110.01
619.51	51.49
619.67	121.71
619.82	44.47
619.97	23.41
620.12	100.64
620.28	30.43
620.43	42.13
620.58	25.75
620.73	56.17
620.89	67.88
621.04	0.00
621.19	98.30
621.34	28.09
621.49	25.75
621.65	67.88
621.80	46.81
621.95	7.02
622.10	102.98
622.25	0.00
622.41	128.73
622.56	51.49
622.71	93.62
622.86	124.05
623.01	14.04
623.16	117.03
623.32	159.16
623.47	110.01
623.62	14.04
623.77	30.43
623.92	58.51
624.07	21.06
624.23	4.68
624.38	95.96
624.53	49.15
624.68	112.35
624.83	119.37
624.98	46.81
625.13	98.30
625.29	110.01
625.44	72.56
625.59	42.13
625.74	7.02
625.89	51.49
626.04	28.09
626.19	42.13
626.34	124.05
626.49	63.19
626.65	81.92
626.80	0.00
626.95	70.22
627.10	46.81
627.25	42.13
627.40	25.75
627.55	114.69
627.70	147.45
627.85	46.81
628.00	105.32
628.15	37.45
628.30	131.07
628.45	105.32
628.60	95.96
628.76	86.60
628.91	46.81
629.06	37.45
629.21	93.62
629.36	53.83
629.51	84.26
629.66	35.11
629.81	21.06
629.96	39.79
630.11	7.02
630.26	51.49
630.41	30.43
630.56	86.60
630.71	88.94
630.86	79.58
631.01	67.88
631.16	18.72
631.31	51.49
631.46	25.75
631.61	102.98
631.76	70.22
631.91	23.41
632.06	65.54
632.21	14.04
632.36	9.36
632.51	30.43
632.66	14.04
632.81	4.68
632.96	98.30
633.10	0.00
633.25	44.47
633.40	121.71
633.55	2.34
633.70	44.47
633.85	58.51
634.00	72.56
634.15	63.19
634.30	70.22
634.45	81.92
634.60	67.88
634.75	93.62
634.90	4.68
635.05	63.19
635.19	23.41
635.34	72.56
635.49	51.49
635.64	51.49
635.79	81.92
635.94	110.01
636.09	131.07
636.24	49.15
636.39	102.98
636.53	4.68
636.68	147.45
636.83	112.35
636.98	74.90
637.13	0.00
637.28	67.88
637.43	95.96
637.57	11.70
637.72	72.56
637.87	53.83
638.02	74.90
638.17	93.62
638.32	112.35
638.46	63.19
638.61	32.77
638.76	49.15
638.91	140.43
639.06	9.36
639.20	25.75
639.35	30.43
639.50	77.24
639.65	42.13
639.80	100.64
639.94	77.24
640.09	79.58
640.24	0.00
640.39	67.88
640.54	65.54
640.68	84.26
640.83	49.15
640.98	79.58
641.13	16.38
641.27	60.85
641.42	58.51
641.57	60.85
641.72	67.88
641.86	51.49
642.01	119.37
642.16	84.26
642.31	37.45
642.45	72.56
642.60	11.70
642.75	53.83
642.90	49.15
643.04	11.70
643.19	16.38
643.34	72.56
643.48	100.64
643.63	86.60
643.78	28.09
643.93	42.13
644.07	46.81
644.22	39.79
644.37	23.41
644.51	16.38
644.66	67.88
644.81	63.19
644.95	133.41
645.10	51.49
645.25	88.94
645.39	39.79
645.54	63.19
645.69	56.17
645.83	77.24
645.98	2.34
646.13	51.49
646.27	121.71
646.42	53.83
646.57	60.85
646.71	56.17
646.86	44.47
647.00	67.88
647.15	0.00
647.30	65.54
647.44	42.13
647.59	77.24
647.74	60.85
647.88	79.58
648.03	110.01
648.17	126.39
648.32	53.83
648.47	102.98
648.61	51.49
648.76	46.81
648.90	0.00
649.05	60.85
649.20	88.94
649.34	93.62
649.49	70.22
649.63	49.15
649.78	112.35
649.92	4.68
650.07	28.09
650.21	72.56
650.36	23.41
650.51	119.37
650.65	51.49
650.80	70.22
650.94	14.04
651.09	100.64
651.23	0.00
651.38	51.49
651.52	126.39
651.67	117.03
651.81	72.56
651.96	105.32
652.10	81.92
652.25	37.45
652.39	81.92
652.54	107.66
652.68	25.75
652.83	79.58
652.97	30.43
653.12	58.51
653.26	65.54
653.41	39.79
653.55	119.37
653.70	30.43
653.84	53.83
653.99	2.34
654.13	21.06
654.27	58.51
654.42	11.70
654.56	0.00
654.71	46.81
654.85	65.54
655.00	114.69
655.14	56.17
655.29	21.06
655.43	105.32
655.57	0.00
655.72	46.81
655.86	63.19
656.01	72.56
656.15	72.56
656.30	72.56
656.44	60.85
656.58	98.30
656.73	46.81
656.87	53.83
657.01	70.22
657.16	142.77
657.30	0.00
657.45	84.26
657.59	46.81
657.73	42.13
657.88	88.94
658.02	63.19
658.16	74.90
658.31	63.19
658.45	65.54
658.60	63.19
658.74	0.00
658.88	74.90
659.03	128.73
659.17	56.17
659.31	0.00
659.46	95.96
659.60	95.96
659.74	110.01
659.89	72.56
660.03	84.26
660.17	91.28
660.32	77.24
660.46	0.00
660.60	0.00
660.74	63.19
660.89	84.26
661.03	21.06
661.17	70.22
661.32	32.77
661.46	0.00
661.60	77.24
661.74	0.00
661.89	37.45
662.03	77.24
662.17	91.28
662.31	74.90
662.46	0.00
662.60	86.60
662.74	56.17
662.88	51.49
663.03	0.00
663.17	0.00
663.31	0.00
663.45	63.19
663.60	42.13
663.74	32.77
663.88	18.72
664.02	44.47
664.17	32.77
664.31	25.75
664.45	72.56
664.59	0.00
664.73	0.00
664.88	98.30
665.02	53.83
665.16	32.77
665.30	56.17
665.44	51.49
665.59	60.85
665.73	107.66
665.87	30.43
666.01	16.38
666.15	32.77
666.29	18.72
666.44	18.72
666.58	46.81
666.72	9.36
666.86	53.83
667.00	93.62
667.14	2.34
667.28	7.02
667.43	49.15
667.57	0.00
667.71	53.83
667.85	72.56
667.99	70.22
668.13	51.49
668.27	42.13
668.41	65.54
668.56	0.00
668.70	100.64
668.84	32.77
668.98	74.90
669.12	14.04
669.26	42.13
669.40	53.83
669.54	42.13
669.68	63.19
669.82	53.83
669.96	0.00
670.10	23.41
670.25	14.04
670.39	56.17
670.53	28.09
670.67	63.19
670.81	56.17
670.95	2.34
671.09	84.26
671.23	51.49
671.37	37.45
671.51	4.68
671.65	44.47
671.79	81.92
671.93	28.09
672.07	46.81
672.21	25.75
672.35	81.92
672.49	14.04
672.63	117.03
672.77	110.01
672.91	72.56
673.05	56.17
673.19	18.72
673.33	39.79
673.47	18.72
673.61	39.79
673.75	67.88
673.89	44.47
674.03	88.94
674.17	35.11
674.31	63.19
674.45	70.22
674.59	39.79
674.73	88.94
674.87	14.04
675.01	156.82
675.15	58.51
675.29	72.56
675.43	4.68
675.56	9.36
675.70	117.03
675.84	56.17
675.98	79.58
676.12	21.06
676.26	93.62
676.40	32.77
676.54	28.09
676.68	128.73
676.82	16.38
676.96	51.49
677.10	88.94
677.23	60.85
677.37	35.11
677.51	46.81
677.65	98.30
677.79	53.83
677.93	70.22
678.07	56.17
678.21	32.77
678.34	39.79
678.48	0.00
678.62	79.58
678.76	56.17
678.90	4.68
679.04	35.11
679.18	0.00
679.31	63.19
679.45	51.49
679.59	107.66
679.73	81.92
679.87	86.60
680.00	49.15
680.14	67.88
680.28	77.24
680.42	98.30
680.56	46.81
680.70	42.13
680.83	30.43
680.97	105.32
681.11	81.92
681.25	44.47
681.39	9.36
681.52	95.96
681.66	147.45
681.80	11.70
681.94	51.49
682.07	0.00
682.21	14.04
682.35	112.35
682.49	67.88
682.62	37.45
682.76	114.69
682.90	0.00
683.04	28.09
683.17	72.56
683.31	32.77
683.45	35.11
683.59	37.45
683.72	81.92
683.86	25.75
684.00	0.00
684.13	23.41
684.27	49.15
684.41	0.00
684.55	0.00
684.68	93.62
684.82	95.96
684.96	14.04
685.09	14.04
685.23	95.96
685.37	0.00
685.50	21.06
685.64	14.04
685.78	42.13
685.91	88.94
686.05	60.85
686.19	35.11
686.32	37.45
686.46	35.11
686.60	18.72
686.73	49.15
686.87	60.85
687.01	16.38
687.14	11.70
687.28	0.00
687.42	53.83
687.55	60.85
687.69	0.00
687.82	110.01
687.96	0.00
688.10	14.04
688.23	7.02
688.37	21.06
688.50	0.00
688.64	86.60
688.78	30.43
688.91	60.85
689.05	51.49
689.18	23.41
689.32	42.13
689.46	65.54
689.59	49.15
689.73	0.00
689.86	16.38
690.00	102.98
690.13	18.72
690.27	86.60
690.41	102.98
690.54	56.17
690.68	30.43
690.81	0.00
690.95	84.26
691.08	35.11
691.22	0.00
691.35	63.19
691.49	46.81
691.62	37.45
691.76	46.81
691.89	67.88
692.03	58.51
692.16	58.51
692.30	70.22
692.43	37.45
692.57	79.58
692.70	77.24
692.84	49.15
692.97	11.70
693.11	25.75
693.24	42.13
693.38	0.00
693.51	0.00
693.65	32.77
693.78	0.00
693.92	56.17
694.05	65.54
694.19	9.36
694.32	128.73
694.45	56.17
694.59	63.19
694.72	39.79
694.86	16.38
694.99	35.11
695.13	53.83
695.26	53.83
695.39	53.83
695.53	23.41
695.66	35.11
695.80	0.00
695.93	72.56
696.07	37.45
696.20	23.41
696.33	72.56
696.47	72.56
696.60	25.75
696.73	35.11
696.87	72.56
697.00	18.72
697.14	37.45
697.27	25.75
697.40	0.00
697.54	67.88
697.67	49.15
697.80	35.11
697.94	37.45
698.07	49.15
698.21	65.54
698.34	46.81
698.47	79.58
698.61	42.13
698.74	39.79
698.87	100.64
699.01	53.83
699.14	51.49
699.27	56.17
699.40	21.06
699.54	107.66
699.67	0.00
699.80	117.03
699.94	49.15
700.07	42.13
700.20	25.75
700.34	0.00
700.47	65.54
700.60	42.13
700.73	112.35
700.87	95.96
701.00	30.43
701.13	0.00
701.26	35.11
701.40	72.56
701.53	35.11
701.66	30.43
701.79	35.11
701.93	0.00
702.06	11.70
702.19	18.72
702.32	23.41
702.46	37.45
702.59	0.00
702.72	14.04
702.85	0.00
702.99	86.60
703.12	98.30
703.25	0.00
703.38	63.19
703.51	0.00
703.65	23.41
703.78	65.54
703.91	81.92
704.04	0.00
704.17	86.60
704.31	49.15
704.44	39.79
704.57	51.49
704.70	51.49
704.83	7.02
704.96	58.51
705.10	39.79
705.23	79.58
>>>>>End Processed Spectral Data<<<<<
