SpectraSuite Data File
++++++++++++++++++++++++++++++++++++
Date: Fri Oct 04 12:13:25 GMT-05:00 2013
User: price-jones
Dark Spectrum Present: No
Reference Spectrum Present: No
Number of Sampled Component Spectra: 1
Spectrometers: USB2+H05261
Integration Time (usec): 10000 (USB2+H05261)
Spectra Averaged: 1 (USB2+H05261)
Boxcar Smoothing: 0 (USB2+H05261)
Correct for Electrical Dark: No (USB2+H05261)
Strobe/Lamp Enabled: No (USB2+H05261)
Correct for Detector Non-linearity: No (USB2+H05261)
Correct for Stray Light: No (USB2+H05261)
Number of Pixels in Processed Spectrum: 2048
>>>>>Begin Processed Spectral Data<<<<<
365.73	46.81
365.92	46.81
366.12	46.81
366.32	0.00
366.52	0.00
366.72	0.00
366.91	0.00
367.11	0.00
367.31	0.00
367.51	0.00
367.70	0.00
367.90	0.00
368.10	0.00
368.30	0.00
368.49	0.00
368.69	0.00
368.89	0.00
369.09	0.00
369.28	0.00
369.48	0.00
369.68	0.00
369.87	0.00
370.07	0.00
370.27	0.00
370.47	0.00
370.66	0.00
370.86	0.00
371.06	0.00
371.25	0.00
371.45	0.00
371.65	0.00
371.84	0.00
372.04	0.00
372.24	35.11
372.44	0.00
372.63	7.02
372.83	14.04
373.03	35.11
373.22	39.79
373.42	28.09
373.62	23.41
373.81	42.13
374.01	2.34
374.21	18.72
374.40	79.58
374.60	65.54
374.79	0.00
374.99	65.54
375.19	60.85
375.38	35.11
375.58	46.81
375.78	0.00
375.97	28.09
376.17	93.62
376.37	9.36
376.56	112.35
376.76	2.34
376.95	39.79
377.15	21.06
377.35	11.70
377.54	67.88
377.74	30.43
377.93	16.38
378.13	60.85
378.33	0.00
378.52	21.06
378.72	0.00
378.91	7.02
379.11	58.51
379.31	25.75
379.50	51.49
379.70	0.00
379.89	23.41
380.09	58.51
380.28	39.79
380.48	58.51
380.68	86.60
380.87	42.13
381.07	0.00
381.26	2.34
381.46	107.66
381.65	37.45
381.85	42.13
382.04	0.00
382.24	110.01
382.43	0.00
382.63	51.49
382.83	11.70
383.02	42.13
383.22	51.49
383.41	74.90
383.61	2.34
383.80	18.72
384.00	49.15
384.19	60.85
384.39	0.00
384.58	16.38
384.78	9.36
384.97	9.36
385.17	0.00
385.36	39.79
385.56	0.00
385.75	0.00
385.95	21.06
386.14	16.38
386.34	23.41
386.53	7.02
386.72	23.41
386.92	35.11
387.11	14.04
387.31	30.43
387.50	4.68
387.70	0.00
387.89	60.85
388.09	4.68
388.28	0.00
388.48	0.00
388.67	0.00
388.86	37.45
389.06	35.11
389.25	21.06
389.45	0.00
389.64	4.68
389.84	11.70
390.03	91.28
390.22	0.00
390.42	105.32
390.61	30.43
390.81	0.00
391.00	74.90
391.19	51.49
391.39	79.58
391.58	14.04
391.78	16.38
391.97	37.45
392.16	11.70
392.36	135.75
392.55	58.51
392.75	18.72
392.94	58.51
393.13	46.81
393.33	46.81
393.52	0.00
393.71	42.13
393.91	77.24
394.10	28.09
394.29	0.00
394.49	0.00
394.68	4.68
394.88	39.79
395.07	42.13
395.26	37.45
395.46	25.75
395.65	86.60
395.84	28.09
396.04	30.43
396.23	0.00
396.42	0.00
396.62	0.00
396.81	16.38
397.00	42.13
397.19	25.75
397.39	28.09
397.58	0.00
397.77	86.60
397.97	70.22
398.16	44.47
398.35	7.02
398.55	0.00
398.74	23.41
398.93	74.90
399.12	46.81
399.32	119.37
399.51	42.13
399.70	4.68
399.90	18.72
400.09	56.17
400.28	0.00
400.47	0.00
400.67	23.41
400.86	0.00
401.05	44.47
401.24	21.06
401.44	161.50
401.63	44.47
401.82	0.00
402.01	35.11
402.21	23.41
402.40	37.45
402.59	0.00
402.78	0.00
402.97	60.85
403.17	0.00
403.36	14.04
403.55	32.77
403.74	39.79
403.93	35.11
404.13	9.36
404.32	25.75
404.51	0.00
404.70	11.70
404.89	58.51
405.09	0.00
405.28	25.75
405.47	39.79
405.66	23.41
405.85	35.11
406.05	9.36
406.24	7.02
406.43	65.54
406.62	51.49
406.81	51.49
407.00	30.43
407.20	0.00
407.39	18.72
407.58	74.90
407.77	35.11
407.96	25.75
408.15	49.15
408.34	28.09
408.54	0.00
408.73	35.11
408.92	65.54
409.11	74.90
409.30	0.00
409.49	14.04
409.68	23.41
409.87	0.00
410.07	46.81
410.26	37.45
410.45	67.88
410.64	0.00
410.83	30.43
411.02	60.85
411.21	46.81
411.40	0.00
411.59	14.04
411.78	16.38
411.98	0.00
412.17	23.41
412.36	9.36
412.55	0.00
412.74	18.72
412.93	11.70
413.12	21.06
413.31	14.04
413.50	0.00
413.69	67.88
413.88	2.34
414.07	84.26
414.26	39.79
414.45	30.43
414.64	0.00
414.83	30.43
415.02	11.70
415.22	46.81
415.41	44.47
415.60	9.36
415.79	0.00
415.98	79.58
416.17	67.88
416.36	39.79
416.55	0.00
416.74	46.81
416.93	16.38
417.12	53.83
417.31	23.41
417.50	74.90
417.69	16.38
417.88	14.04
418.07	53.83
418.26	23.41
418.45	49.15
418.64	0.00
418.83	9.36
419.02	70.22
419.21	16.38
419.39	0.00
419.58	2.34
419.77	0.00
419.96	81.92
420.15	0.00
420.34	65.54
420.53	4.68
420.72	0.00
420.91	25.75
421.10	18.72
421.29	23.41
421.48	0.00
421.67	67.88
421.86	49.15
422.05	49.15
422.24	37.45
422.43	4.68
422.61	49.15
422.80	0.00
422.99	11.70
423.18	0.00
423.37	0.00
423.56	70.22
423.75	16.38
423.94	11.70
424.13	53.83
424.32	0.00
424.50	9.36
424.69	0.00
424.88	65.54
425.07	28.09
425.26	91.28
425.45	42.13
425.64	0.00
425.83	0.00
426.01	30.43
426.20	72.56
426.39	0.00
426.58	0.00
426.77	0.00
426.96	56.17
427.15	56.17
427.33	21.06
427.52	18.72
427.71	9.36
427.90	0.00
428.09	46.81
428.28	4.68
428.46	88.94
428.65	0.00
428.84	102.98
429.03	35.11
429.22	0.00
429.40	37.45
429.59	16.38
429.78	18.72
429.97	56.17
430.16	2.34
430.34	39.79
430.53	0.00
430.72	23.41
430.91	0.00
431.10	23.41
431.28	23.41
431.47	0.00
431.66	7.02
431.85	58.51
432.03	42.13
432.22	39.79
432.41	16.38
432.60	18.72
432.79	28.09
432.97	7.02
433.16	39.79
433.35	37.45
433.54	16.38
433.72	0.00
433.91	53.83
434.10	44.47
434.28	0.00
434.47	11.70
434.66	0.00
434.85	25.75
435.03	107.66
435.22	84.26
435.41	56.17
435.59	9.36
435.78	63.19
435.97	16.38
436.16	91.28
436.34	81.92
436.53	46.81
436.72	72.56
436.90	49.15
437.09	95.96
437.28	0.00
437.46	21.06
437.65	39.79
437.84	18.72
438.02	30.43
438.21	65.54
438.40	51.49
438.58	9.36
438.77	32.77
438.96	39.79
439.14	37.45
439.33	53.83
439.52	42.13
439.70	60.85
439.89	9.36
440.08	7.02
440.26	9.36
440.45	65.54
440.63	79.58
440.82	44.47
441.01	44.47
441.19	0.00
441.38	42.13
441.57	91.28
441.75	51.49
441.94	0.00
442.12	65.54
442.31	23.41
442.50	0.00
442.68	23.41
442.87	7.02
443.05	28.09
443.24	53.83
443.43	51.49
443.61	51.49
443.80	63.19
443.98	65.54
444.17	23.41
444.35	0.00
444.54	16.38
444.73	56.17
444.91	0.00
445.10	42.13
445.28	0.00
445.47	58.51
445.65	0.00
445.84	0.00
446.02	0.00
446.21	0.00
446.39	0.00
446.58	44.47
446.77	0.00
446.95	0.00
447.14	147.45
447.32	0.00
447.51	11.70
447.69	77.24
447.88	42.13
448.06	37.45
448.25	25.75
448.43	0.00
448.62	63.19
448.80	0.00
448.99	9.36
449.17	32.77
449.36	9.36
449.54	18.72
449.73	0.00
449.91	0.00
450.10	0.00
450.28	79.58
450.46	42.13
450.65	16.38
450.83	4.68
451.02	56.17
451.20	63.19
451.39	35.11
451.57	74.90
451.76	70.22
451.94	11.70
452.13	0.00
452.31	37.45
452.49	42.13
452.68	9.36
452.86	42.13
453.05	56.17
453.23	100.64
453.42	58.51
453.60	51.49
453.78	44.47
453.97	11.70
454.15	44.47
454.34	49.15
454.52	46.81
454.70	46.81
454.89	93.62
455.07	32.77
455.26	18.72
455.44	32.77
455.62	9.36
455.81	18.72
455.99	42.13
456.17	37.45
456.36	0.00
456.54	25.75
456.73	0.00
456.91	110.01
457.09	16.38
457.28	79.58
457.46	56.17
457.64	0.00
457.83	35.11
458.01	0.00
458.19	49.15
458.38	91.28
458.56	28.09
458.74	46.81
458.93	88.94
459.11	0.00
459.29	42.13
459.48	49.15
459.66	56.17
459.84	0.00
460.03	37.45
460.21	0.00
460.39	0.00
460.57	0.00
460.76	23.41
460.94	0.00
461.12	0.00
461.31	0.00
461.49	35.11
461.67	0.00
461.85	18.72
462.04	2.34
462.22	79.58
462.40	72.56
462.59	16.38
462.77	9.36
462.95	53.83
463.13	35.11
463.32	49.15
463.50	4.68
463.68	16.38
463.86	81.92
464.05	0.00
464.23	0.00
464.41	79.58
464.59	2.34
464.78	44.47
464.96	28.09
465.14	65.54
465.32	35.11
465.50	39.79
465.69	18.72
465.87	7.02
466.05	63.19
466.23	65.54
466.41	65.54
466.60	14.04
466.78	9.36
466.96	18.72
467.14	14.04
467.32	28.09
467.51	0.00
467.69	37.45
467.87	56.17
468.05	42.13
468.23	60.85
468.41	0.00
468.60	9.36
468.78	65.54
468.96	77.24
469.14	32.77
469.32	25.75
469.50	65.54
469.69	39.79
469.87	14.04
470.05	0.00
470.23	7.02
470.41	65.54
470.59	0.00
470.77	58.51
470.95	98.30
471.14	11.70
471.32	23.41
471.50	0.00
471.68	9.36
471.86	107.66
472.04	11.70
472.22	0.00
472.40	11.70
472.58	60.85
472.77	0.00
472.95	39.79
473.13	49.15
473.31	86.60
473.49	0.00
473.67	72.56
473.85	37.45
474.03	18.72
474.21	23.41
474.39	51.49
474.57	0.00
474.75	107.66
474.93	53.83
475.12	32.77
475.30	84.26
475.48	133.41
475.66	30.43
475.84	112.35
476.02	2.34
476.20	53.83
476.38	51.49
476.56	37.45
476.74	65.54
476.92	53.83
477.10	37.45
477.28	44.47
477.46	0.00
477.64	35.11
477.82	65.54
478.00	35.11
478.18	28.09
478.36	16.38
478.54	0.00
478.72	56.17
478.90	0.00
479.08	65.54
479.26	46.81
479.44	0.00
479.62	102.98
479.80	58.51
479.98	70.22
480.16	93.62
480.34	16.38
480.52	18.72
480.70	44.47
480.88	63.19
481.06	9.36
481.24	0.00
481.41	51.49
481.59	30.43
481.77	7.02
481.95	7.02
482.13	23.41
482.31	100.64
482.49	58.51
482.67	67.88
482.85	25.75
483.03	0.00
483.21	16.38
483.39	0.00
483.57	16.38
483.74	14.04
483.92	65.54
484.10	37.45
484.28	44.47
484.46	18.72
484.64	65.54
484.82	53.83
485.00	0.00
485.18	14.04
485.35	32.77
485.53	77.24
485.71	16.38
485.89	72.56
486.07	46.81
486.25	0.00
486.43	18.72
486.61	46.81
486.78	44.47
486.96	0.00
487.14	60.85
487.32	53.83
487.50	28.09
487.68	72.56
487.85	39.79
488.03	79.58
488.21	4.68
488.39	98.30
488.57	81.92
488.75	18.72
488.92	63.19
489.10	152.13
489.28	0.00
489.46	58.51
489.64	70.22
489.81	84.26
489.99	35.11
490.17	2.34
490.35	23.41
490.53	0.00
490.70	72.56
490.88	11.70
491.06	0.00
491.24	35.11
491.41	119.37
491.59	58.51
491.77	0.00
491.95	4.68
492.13	79.58
492.30	65.54
492.48	30.43
492.66	84.26
492.84	98.30
493.01	30.43
493.19	58.51
493.37	0.00
493.54	0.00
493.72	11.70
493.90	84.26
494.08	46.81
494.25	0.00
494.43	0.00
494.61	72.56
494.79	25.75
494.96	56.17
495.14	44.47
495.32	0.00
495.49	21.06
495.67	53.83
495.85	51.49
496.02	51.49
496.20	30.43
496.38	30.43
496.55	32.77
496.73	0.00
496.91	53.83
497.09	0.00
497.26	81.92
497.44	37.45
497.62	88.94
497.79	14.04
497.97	56.17
498.14	28.09
498.32	100.64
498.50	0.00
498.67	25.75
498.85	32.77
499.03	4.68
499.20	88.94
499.38	32.77
499.56	70.22
499.73	0.00
499.91	0.00
500.08	23.41
500.26	35.11
500.44	0.00
500.61	51.49
500.79	32.77
500.97	49.15
501.14	28.09
501.32	0.00
501.49	88.94
501.67	0.00
501.84	51.49
502.02	39.79
502.20	44.47
502.37	56.17
502.55	84.26
502.72	30.43
502.90	149.79
503.07	32.77
503.25	65.54
503.43	39.79
503.60	30.43
503.78	114.69
503.95	100.64
504.13	58.51
504.30	25.75
504.48	30.43
504.65	42.13
504.83	21.06
505.01	107.66
505.18	25.75
505.36	25.75
505.53	21.06
505.71	30.43
505.88	46.81
506.06	7.02
506.23	30.43
506.41	93.62
506.58	65.54
506.76	60.85
506.93	44.47
507.11	65.54
507.28	30.43
507.46	42.13
507.63	16.38
507.81	0.00
507.98	84.26
508.16	7.02
508.33	37.45
508.50	58.51
508.68	4.68
508.85	91.28
509.03	88.94
509.20	9.36
509.38	4.68
509.55	0.00
509.73	21.06
509.90	88.94
510.08	0.00
510.25	88.94
510.42	18.72
510.60	28.09
510.77	0.00
510.95	35.11
511.12	112.35
511.30	23.41
511.47	79.58
511.64	133.41
511.82	63.19
511.99	42.13
512.17	28.09
512.34	28.09
512.51	81.92
512.69	2.34
512.86	131.07
513.04	56.17
513.21	0.00
513.38	42.13
513.56	63.19
513.73	44.47
513.90	77.24
514.08	42.13
514.25	70.22
514.43	0.00
514.60	88.94
514.77	21.06
514.95	72.56
515.12	0.00
515.29	0.00
515.47	0.00
515.64	58.51
515.81	11.70
515.99	28.09
516.16	42.13
516.33	18.72
516.51	0.00
516.68	60.85
516.85	58.51
517.03	39.79
517.20	32.77
517.37	9.36
517.54	14.04
517.72	39.79
517.89	81.92
518.06	28.09
518.24	9.36
518.41	63.19
518.58	39.79
518.75	39.79
518.93	4.68
519.10	42.13
519.27	0.00
519.45	56.17
519.62	18.72
519.79	51.49
519.96	18.72
520.14	56.17
520.31	42.13
520.48	0.00
520.65	44.47
520.83	0.00
521.00	105.32
521.17	42.13
521.34	28.09
521.52	9.36
521.69	0.00
521.86	44.47
522.03	74.90
522.20	11.70
522.38	91.28
522.55	72.56
522.72	0.00
522.89	39.79
523.07	65.54
523.24	88.94
523.41	18.72
523.58	25.75
523.75	4.68
523.92	77.24
524.10	77.24
524.27	37.45
524.44	7.02
524.61	0.00
524.78	51.49
524.96	79.58
525.13	0.00
525.30	51.49
525.47	51.49
525.64	60.85
525.81	56.17
525.98	53.83
526.16	14.04
526.33	60.85
526.50	67.88
526.67	84.26
526.84	86.60
527.01	35.11
527.18	32.77
527.36	23.41
527.53	2.34
527.70	53.83
527.87	0.00
528.04	98.30
528.21	100.64
528.38	7.02
528.55	35.11
528.72	46.81
528.89	60.85
529.07	67.88
529.24	39.79
529.41	46.81
529.58	30.43
529.75	0.00
529.92	56.17
530.09	21.06
530.26	84.26
530.43	39.79
530.60	49.15
530.77	91.28
530.94	21.06
531.11	72.56
531.28	56.17
531.46	21.06
531.63	23.41
531.80	23.41
531.97	35.11
532.14	51.49
532.31	0.00
532.48	58.51
532.65	9.36
532.82	16.38
532.99	18.72
533.16	9.36
533.33	79.58
533.50	18.72
533.67	107.66
533.84	21.06
534.01	0.00
534.18	77.24
534.35	23.41
534.52	35.11
534.69	35.11
534.86	42.13
535.03	30.43
535.20	0.00
535.37	100.64
535.54	0.00
535.71	44.47
535.88	30.43
536.05	70.22
536.22	51.49
536.38	42.13
536.55	16.38
536.72	81.92
536.89	4.68
537.06	70.22
537.23	28.09
537.40	98.30
537.57	74.90
537.74	0.00
537.91	65.54
538.08	0.00
538.25	91.28
538.42	25.75
538.59	42.13
538.75	4.68
538.92	93.62
539.09	37.45
539.26	93.62
539.43	102.98
539.60	4.68
539.77	60.85
539.94	81.92
540.11	9.36
540.28	11.70
540.44	25.75
540.61	39.79
540.78	102.98
540.95	77.24
541.12	7.02
541.29	88.94
541.46	128.73
541.62	0.00
541.79	0.00
541.96	0.00
542.13	49.15
542.30	51.49
542.47	46.81
542.63	0.00
542.80	0.00
542.97	56.17
543.14	58.51
543.31	11.70
543.48	32.77
543.64	81.92
543.81	67.88
543.98	18.72
544.15	107.66
544.32	0.00
544.48	30.43
544.65	11.70
544.82	126.39
544.99	37.45
545.16	88.94
545.32	42.13
545.49	49.15
545.66	56.17
545.83	46.81
546.00	37.45
546.16	60.85
546.33	74.90
546.50	58.51
546.67	30.43
546.83	42.13
547.00	21.06
547.17	32.77
547.34	0.00
547.50	42.13
547.67	25.75
547.84	32.77
548.00	25.75
548.17	88.94
548.34	2.34
548.51	30.43
548.67	81.92
548.84	79.58
549.01	28.09
549.18	32.77
549.34	133.41
549.51	14.04
549.68	84.26
549.84	18.72
550.01	11.70
550.18	86.60
550.34	23.41
550.51	37.45
550.68	2.34
550.84	0.00
551.01	4.68
551.18	51.49
551.34	58.51
551.51	51.49
551.68	56.17
551.84	74.90
552.01	70.22
552.18	0.00
552.34	49.15
552.51	25.75
552.68	42.13
552.84	65.54
553.01	30.43
553.18	30.43
553.34	42.13
553.51	0.00
553.67	53.83
553.84	4.68
554.01	0.00
554.17	60.85
554.34	39.79
554.51	72.56
554.67	117.03
554.84	95.96
555.00	60.85
555.17	9.36
555.33	0.00
555.50	18.72
555.67	117.03
555.83	39.79
556.00	79.58
556.16	9.36
556.33	14.04
556.50	124.05
556.66	21.06
556.83	44.47
556.99	49.15
557.16	14.04
557.32	7.02
557.49	93.62
557.65	72.56
557.82	67.88
557.98	51.49
558.15	42.13
558.32	121.71
558.48	23.41
558.65	39.79
558.81	93.62
558.98	39.79
559.14	60.85
559.31	4.68
559.47	110.01
559.64	16.38
559.80	98.30
559.97	39.79
560.13	44.47
560.30	0.00
560.46	44.47
560.63	21.06
560.79	44.47
560.96	0.00
561.12	77.24
561.29	58.51
561.45	42.13
561.61	0.00
561.78	91.28
561.94	114.69
562.11	67.88
562.27	7.02
562.44	72.56
562.60	35.11
562.77	2.34
562.93	81.92
563.10	60.85
563.26	74.90
563.42	37.45
563.59	93.62
563.75	70.22
563.92	65.54
564.08	72.56
564.24	28.09
564.41	42.13
564.57	39.79
564.74	63.19
564.90	93.62
565.07	30.43
565.23	14.04
565.39	53.83
565.56	46.81
565.72	0.00
565.88	0.00
566.05	0.00
566.21	0.00
566.38	74.90
566.54	60.85
566.70	84.26
566.87	32.77
567.03	42.13
567.19	42.13
567.36	98.30
567.52	98.30
567.68	4.68
567.85	9.36
568.01	0.00
568.17	79.58
568.34	0.00
568.50	46.81
568.66	60.85
568.83	14.04
568.99	11.70
569.15	67.88
569.32	37.45
569.48	0.00
569.64	21.06
569.81	0.00
569.97	42.13
570.13	2.34
570.30	49.15
570.46	63.19
570.62	30.43
570.78	63.19
570.95	11.70
571.11	23.41
571.27	0.00
571.43	23.41
571.60	67.88
571.76	0.00
571.92	14.04
572.09	18.72
572.25	0.00
572.41	53.83
572.57	72.56
572.74	39.79
572.90	56.17
573.06	14.04
573.22	21.06
573.38	46.81
573.55	70.22
573.71	0.00
573.87	9.36
574.03	0.00
574.20	21.06
574.36	100.64
574.52	16.38
574.68	2.34
574.84	53.83
575.01	35.11
575.17	65.54
575.33	37.45
575.49	21.06
575.65	74.90
575.82	51.49
575.98	112.35
576.14	79.58
576.30	42.13
576.46	30.43
576.62	39.79
576.79	0.00
576.95	0.00
577.11	16.38
577.27	0.00
577.43	32.77
577.59	117.03
577.75	28.09
577.92	0.00
578.08	53.83
578.24	7.02
578.40	91.28
578.56	53.83
578.72	25.75
578.88	4.68
579.04	70.22
579.21	9.36
579.37	9.36
579.53	67.88
579.69	0.00
579.85	58.51
580.01	39.79
580.17	72.56
580.33	35.11
580.49	112.35
580.65	65.54
580.82	81.92
580.98	14.04
581.14	25.75
581.30	49.15
581.46	32.77
581.62	56.17
581.78	88.94
581.94	11.70
582.10	46.81
582.26	58.51
582.42	60.85
582.58	88.94
582.74	32.77
582.90	42.13
583.06	0.00
583.22	42.13
583.38	72.56
583.54	44.47
583.70	112.35
583.86	91.28
584.02	0.00
584.18	14.04
584.34	98.30
584.50	88.94
584.66	102.98
584.82	0.00
584.98	23.41
585.14	72.56
585.30	0.00
585.46	81.92
585.62	60.85
585.78	84.26
585.94	58.51
586.10	28.09
586.26	28.09
586.42	0.00
586.58	35.11
586.74	44.47
586.90	42.13
587.06	53.83
587.22	42.13
587.38	100.64
587.54	79.58
587.70	23.41
587.86	18.72
588.02	7.02
588.18	0.00
588.34	49.15
588.49	14.04
588.65	0.00
588.81	18.72
588.97	4.68
589.13	16.38
589.29	0.00
589.45	56.17
589.61	18.72
589.77	30.43
589.93	63.19
590.08	49.15
590.24	77.24
590.40	53.83
590.56	51.49
590.72	0.00
590.88	42.13
591.04	100.64
591.20	100.64
591.35	72.56
591.51	56.17
591.67	84.26
591.83	72.56
591.99	51.49
592.15	65.54
592.31	25.75
592.46	53.83
592.62	14.04
592.78	39.79
592.94	95.96
593.10	42.13
593.26	39.79
593.41	23.41
593.57	2.34
593.73	18.72
593.89	74.90
594.05	32.77
594.20	18.72
594.36	0.00
594.52	0.00
594.68	0.00
594.84	0.00
594.99	51.49
595.15	46.81
595.31	51.49
595.47	44.47
595.62	25.75
595.78	18.72
595.94	72.56
596.10	18.72
596.25	42.13
596.41	86.60
596.57	60.85
596.73	35.11
596.88	0.00
597.04	16.38
597.20	51.49
597.36	0.00
597.51	70.22
597.67	4.68
597.83	46.81
597.99	51.49
598.14	70.22
598.30	58.51
598.46	63.19
598.61	70.22
598.77	53.83
598.93	53.83
599.09	23.41
599.24	77.24
599.40	0.00
599.56	21.06
599.71	30.43
599.87	51.49
600.03	0.00
600.18	35.11
600.34	30.43
600.50	88.94
600.65	79.58
600.81	0.00
600.97	16.38
601.12	70.22
601.28	49.15
601.44	58.51
601.59	7.02
601.75	51.49
601.91	0.00
602.06	25.75
602.22	88.94
602.37	2.34
602.53	46.81
602.69	35.11
602.84	46.81
603.00	0.00
603.16	37.45
603.31	21.06
603.47	49.15
603.62	39.79
603.78	49.15
603.94	23.41
604.09	0.00
604.25	0.00
604.40	0.00
604.56	0.00
604.71	74.90
604.87	0.00
605.03	42.13
605.18	58.51
605.34	79.58
605.49	23.41
605.65	4.68
605.80	18.72
605.96	18.72
606.12	44.47
606.27	60.85
606.43	0.00
606.58	9.36
606.74	0.00
606.89	84.26
607.05	0.00
607.20	25.75
607.36	32.77
607.51	81.92
607.67	25.75
607.82	30.43
607.98	77.24
608.13	0.00
608.29	14.04
608.44	74.90
608.60	70.22
608.75	0.00
608.91	42.13
609.06	46.81
609.22	42.13
609.37	46.81
609.53	112.35
609.68	46.81
609.84	79.58
609.99	39.79
610.15	74.90
610.30	42.13
610.46	44.47
610.61	58.51
610.76	56.17
610.92	46.81
611.07	35.11
611.23	51.49
611.38	77.24
611.54	0.00
611.69	42.13
611.84	0.00
612.00	28.09
612.15	25.75
612.31	11.70
612.46	0.00
612.62	79.58
612.77	14.04
612.92	21.06
613.08	74.90
613.23	21.06
613.39	25.75
613.54	86.60
613.69	77.24
613.85	65.54
614.00	0.00
614.15	11.70
614.31	35.11
614.46	60.85
614.62	44.47
614.77	25.75
614.92	37.45
615.08	35.11
615.23	0.00
615.38	51.49
615.54	0.00
615.69	98.30
615.84	79.58
616.00	74.90
616.15	0.00
616.30	32.77
616.46	0.00
616.61	65.54
616.76	58.51
616.92	72.56
617.07	18.72
617.22	46.81
617.37	11.70
617.53	4.68
617.68	39.79
617.83	0.00
617.99	49.15
618.14	93.62
618.29	67.88
618.45	77.24
618.60	7.02
618.75	74.90
618.90	37.45
619.06	32.77
619.21	117.03
619.36	60.85
619.51	23.41
619.67	14.04
619.82	7.02
619.97	42.13
620.12	0.00
620.28	37.45
620.43	28.09
620.58	14.04
620.73	0.00
620.89	37.45
621.04	0.00
621.19	60.85
621.34	72.56
621.49	93.62
621.65	4.68
621.80	35.11
621.95	16.38
622.10	65.54
622.25	49.15
622.41	39.79
622.56	84.26
622.71	63.19
622.86	9.36
623.01	4.68
623.16	2.34
623.32	0.00
623.47	16.38
623.62	63.19
623.77	0.00
623.92	28.09
624.07	30.43
624.23	42.13
624.38	53.83
624.53	44.47
624.68	65.54
624.83	18.72
624.98	51.49
625.13	72.56
625.29	14.04
625.44	72.56
625.59	46.81
625.74	23.41
625.89	0.00
626.04	53.83
626.19	84.26
626.34	18.72
626.49	7.02
626.65	91.28
626.80	58.51
626.95	53.83
627.10	18.72
627.25	63.19
627.40	44.47
627.55	2.34
627.70	0.00
627.85	0.00
628.00	32.77
628.15	72.56
628.30	88.94
628.45	93.62
628.60	37.45
628.76	16.38
628.91	46.81
629.06	37.45
629.21	51.49
629.36	30.43
629.51	81.92
629.66	70.22
629.81	0.00
629.96	0.00
630.11	51.49
630.26	42.13
630.41	56.17
630.56	107.66
630.71	7.02
630.86	4.68
631.01	7.02
631.16	0.00
631.31	93.62
631.46	67.88
631.61	14.04
631.76	70.22
631.91	18.72
632.06	0.00
632.21	32.77
632.36	9.36
632.51	58.51
632.66	28.09
632.81	28.09
632.96	117.03
633.10	53.83
633.25	77.24
633.40	0.00
633.55	79.58
633.70	95.96
633.85	56.17
634.00	21.06
634.15	21.06
634.30	14.04
634.45	58.51
634.60	74.90
634.75	21.06
634.90	117.03
635.05	72.56
635.19	7.02
635.34	67.88
635.49	44.47
635.64	117.03
635.79	44.47
635.94	0.00
636.09	0.00
636.24	0.00
636.39	25.75
636.53	138.09
636.68	11.70
636.83	14.04
636.98	11.70
637.13	14.04
637.28	65.54
637.43	72.56
637.57	30.43
637.72	4.68
637.87	84.26
638.02	65.54
638.17	112.35
638.32	51.49
638.46	0.00
638.61	44.47
638.76	58.51
638.91	28.09
639.06	28.09
639.20	0.00
639.35	88.94
639.50	67.88
639.65	74.90
639.80	51.49
639.94	16.38
640.09	21.06
640.24	0.00
640.39	39.79
640.54	11.70
640.68	65.54
640.83	4.68
640.98	28.09
641.13	16.38
641.27	21.06
641.42	30.43
641.57	53.83
641.72	58.51
641.86	0.00
642.01	46.81
642.16	14.04
642.31	53.83
642.45	0.00
642.60	35.11
642.75	58.51
642.90	21.06
643.04	58.51
643.19	0.00
643.34	42.13
643.48	39.79
643.63	72.56
643.78	60.85
643.93	35.11
644.07	65.54
644.22	37.45
644.37	30.43
644.51	9.36
644.66	0.00
644.81	0.00
644.95	42.13
645.10	0.00
645.25	0.00
645.39	21.06
645.54	0.00
645.69	23.41
645.83	21.06
645.98	0.00
646.13	0.00
646.27	4.68
646.42	9.36
646.57	25.75
646.71	28.09
646.86	21.06
647.00	18.72
647.15	42.13
647.30	9.36
647.44	0.00
647.59	21.06
647.74	67.88
647.88	16.38
648.03	91.28
648.17	60.85
648.32	18.72
648.47	56.17
648.61	37.45
648.76	11.70
648.90	37.45
649.05	14.04
649.20	58.51
649.34	53.83
649.49	39.79
649.63	0.00
649.78	0.00
649.92	14.04
650.07	32.77
650.21	4.68
650.36	0.00
650.51	70.22
650.65	0.00
650.80	44.47
650.94	25.75
651.09	91.28
651.23	112.35
651.38	53.83
651.52	25.75
651.67	67.88
651.81	9.36
651.96	18.72
652.10	16.38
652.25	81.92
652.39	16.38
652.54	0.00
652.68	4.68
652.83	14.04
652.97	0.00
653.12	21.06
653.26	0.00
653.41	30.43
653.55	58.51
653.70	0.00
653.84	0.00
653.99	0.00
654.13	21.06
654.27	49.15
654.42	16.38
654.56	56.17
654.71	16.38
654.85	23.41
655.00	0.00
655.14	44.47
655.29	44.47
655.43	0.00
655.57	51.49
655.72	16.38
655.86	0.00
656.01	0.00
656.15	9.36
656.30	4.68
656.44	72.56
656.58	42.13
656.73	11.70
656.87	49.15
657.01	21.06
657.16	7.02
657.30	16.38
657.45	79.58
657.59	91.28
657.73	0.00
657.88	63.19
658.02	67.88
658.16	14.04
658.31	16.38
658.45	102.98
658.60	21.06
658.74	51.49
658.88	30.43
659.03	84.26
659.17	60.85
659.31	32.77
659.46	28.09
659.60	65.54
659.74	35.11
659.89	81.92
660.03	7.02
660.17	46.81
660.32	32.77
660.46	39.79
660.60	0.00
660.74	23.41
660.89	7.02
661.03	0.00
661.17	18.72
661.32	0.00
661.46	74.90
661.60	42.13
661.74	51.49
661.89	9.36
662.03	70.22
662.17	16.38
662.31	51.49
662.46	110.01
662.60	14.04
662.74	77.24
662.88	0.00
663.03	63.19
663.17	30.43
663.31	72.56
663.45	9.36
663.60	32.77
663.74	77.24
663.88	25.75
664.02	58.51
664.17	37.45
664.31	65.54
664.45	46.81
664.59	98.30
664.73	110.01
664.88	16.38
665.02	49.15
665.16	0.00
665.30	14.04
665.44	0.00
665.59	72.56
665.73	39.79
665.87	21.06
666.01	0.00
666.15	88.94
666.29	4.68
666.44	16.38
666.58	39.79
666.72	23.41
666.86	0.00
667.00	28.09
667.14	21.06
667.28	70.22
667.43	37.45
667.57	0.00
667.71	23.41
667.85	30.43
667.99	2.34
668.13	0.00
668.27	98.30
668.41	0.00
668.56	65.54
668.70	18.72
668.84	0.00
668.98	4.68
669.12	58.51
669.26	21.06
669.40	25.75
669.54	28.09
669.68	0.00
669.82	84.26
669.96	84.26
670.10	14.04
670.25	37.45
670.39	0.00
670.53	56.17
670.67	56.17
670.81	91.28
670.95	39.79
671.09	65.54
671.23	14.04
671.37	0.00
671.51	0.00
671.65	16.38
671.79	0.00
671.93	39.79
672.07	0.00
672.21	0.00
672.35	0.00
672.49	65.54
672.63	81.92
672.77	0.00
672.91	11.70
673.05	0.00
673.19	25.75
673.33	117.03
673.47	18.72
673.61	35.11
673.75	18.72
673.89	37.45
674.03	18.72
674.17	18.72
674.31	58.51
674.45	0.00
674.59	28.09
674.73	77.24
674.87	51.49
675.01	0.00
675.15	9.36
675.29	58.51
675.43	102.98
675.56	4.68
675.70	0.00
675.84	35.11
675.98	0.00
676.12	0.00
676.26	0.00
676.40	42.13
676.54	91.28
676.68	117.03
676.82	18.72
676.96	72.56
677.10	67.88
677.23	37.45
677.37	42.13
677.51	0.00
677.65	35.11
677.79	44.47
677.93	49.15
678.07	67.88
678.21	39.79
678.34	51.49
678.48	58.51
678.62	60.85
678.76	51.49
678.90	63.19
679.04	39.79
679.18	79.58
679.31	35.11
679.45	16.38
679.59	124.05
679.73	88.94
679.87	0.00
680.00	0.00
680.14	18.72
680.28	0.00
680.42	81.92
680.56	110.01
680.70	0.00
680.83	72.56
680.97	46.81
681.11	42.13
681.25	35.11
681.39	44.47
681.52	37.45
681.66	42.13
681.80	25.75
681.94	2.34
682.07	21.06
682.21	0.00
682.35	0.00
682.49	58.51
682.62	49.15
682.76	18.72
682.90	30.43
683.04	30.43
683.17	102.98
683.31	51.49
683.45	30.43
683.59	21.06
683.72	0.00
683.86	14.04
684.00	0.00
684.13	0.00
684.27	121.71
684.41	46.81
684.55	67.88
684.68	58.51
684.82	58.51
684.96	67.88
685.09	11.70
685.23	0.00
685.37	56.17
685.50	60.85
685.64	84.26
685.78	0.00
685.91	16.38
686.05	39.79
686.19	131.07
686.32	14.04
686.46	30.43
686.60	30.43
686.73	18.72
686.87	0.00
687.01	0.00
687.14	28.09
687.28	86.60
687.42	16.38
687.55	81.92
687.69	81.92
687.82	60.85
687.96	56.17
688.10	21.06
688.23	77.24
688.37	37.45
688.50	35.11
688.64	16.38
688.78	0.00
688.91	0.00
689.05	25.75
689.18	105.32
689.32	4.68
689.46	44.47
689.59	81.92
689.73	21.06
689.86	21.06
690.00	25.75
690.13	0.00
690.27	0.00
690.41	23.41
690.54	39.79
690.68	84.26
690.81	28.09
690.95	0.00
691.08	79.58
691.22	30.43
691.35	0.00
691.49	4.68
691.62	72.56
691.76	30.43
691.89	21.06
692.03	0.00
692.16	72.56
692.30	147.45
692.43	37.45
692.57	28.09
692.70	44.47
692.84	14.04
692.97	7.02
693.11	9.36
693.24	58.51
693.38	32.77
693.51	30.43
693.65	39.79
693.78	9.36
693.92	49.15
694.05	42.13
694.19	0.00
694.32	0.00
694.45	79.58
694.59	21.06
694.72	23.41
694.86	23.41
694.99	105.32
695.13	46.81
695.26	0.00
695.39	56.17
695.53	0.00
695.66	18.72
695.80	51.49
695.93	16.38
696.07	84.26
696.20	0.00
696.33	63.19
696.47	0.00
696.60	9.36
696.73	4.68
696.87	46.81
697.00	23.41
697.14	18.72
697.27	0.00
697.40	44.47
697.54	42.13
697.67	70.22
697.80	67.88
697.94	25.75
698.07	0.00
698.21	0.00
698.34	93.62
698.47	46.81
698.61	91.28
698.74	14.04
698.87	70.22
699.01	32.77
699.14	0.00
699.27	65.54
699.40	9.36
699.54	39.79
699.67	0.00
699.80	93.62
699.94	58.51
700.07	0.00
700.20	49.15
700.34	46.81
700.47	32.77
700.60	49.15
700.73	77.24
700.87	60.85
701.00	23.41
701.13	51.49
701.26	30.43
701.40	0.00
701.53	9.36
701.66	37.45
701.79	81.92
701.93	35.11
702.06	21.06
702.19	28.09
702.32	0.00
702.46	28.09
702.59	0.00
702.72	42.13
702.85	53.83
702.99	0.00
703.12	30.43
703.25	51.49
703.38	58.51
703.51	0.00
703.65	0.00
703.78	0.00
703.91	25.75
704.04	18.72
704.17	86.60
704.31	0.00
704.44	0.00
704.57	39.79
704.70	25.75
704.83	0.00
704.96	9.36
705.10	105.32
705.23	67.88
>>>>>End Processed Spectral Data<<<<<
