SpectraSuite Data File
++++++++++++++++++++++++++++++++++++
Date: Fri Oct 04 12:13:29 GMT-05:00 2013
User: price-jones
Dark Spectrum Present: No
Reference Spectrum Present: No
Number of Sampled Component Spectra: 1
Spectrometers: USB2+H05261
Integration Time (usec): 10000 (USB2+H05261)
Spectra Averaged: 1 (USB2+H05261)
Boxcar Smoothing: 0 (USB2+H05261)
Correct for Electrical Dark: No (USB2+H05261)
Strobe/Lamp Enabled: No (USB2+H05261)
Correct for Detector Non-linearity: No (USB2+H05261)
Correct for Stray Light: No (USB2+H05261)
Number of Pixels in Processed Spectrum: 2048
>>>>>Begin Processed Spectral Data<<<<<
365.73	0.00
365.92	0.00
366.12	0.00
366.32	0.00
366.52	0.00
366.72	0.00
366.91	0.00
367.11	0.00
367.31	0.00
367.51	0.00
367.70	0.00
367.90	0.00
368.10	0.00
368.30	0.00
368.49	0.00
368.69	0.00
368.89	0.00
369.09	0.00
369.28	0.00
369.48	0.00
369.68	0.00
369.87	0.00
370.07	0.00
370.27	0.00
370.47	0.00
370.66	0.00
370.86	35.11
371.06	0.00
371.25	4.68
371.45	0.00
371.65	0.00
371.84	0.00
372.04	18.72
372.24	0.00
372.44	53.83
372.63	0.00
372.83	32.77
373.03	14.04
373.22	28.09
373.42	18.72
373.62	2.34
373.81	28.09
374.01	65.54
374.21	67.88
374.40	65.54
374.60	0.00
374.79	84.26
374.99	7.02
375.19	74.90
375.38	70.22
375.58	39.79
375.78	7.02
375.97	102.98
376.17	56.17
376.37	53.83
376.56	9.36
376.76	21.06
376.95	86.60
377.15	70.22
377.35	18.72
377.54	32.77
377.74	39.79
377.93	0.00
378.13	28.09
378.33	0.00
378.52	2.34
378.72	4.68
378.91	21.06
379.11	14.04
379.31	2.34
379.50	16.38
379.70	58.51
379.89	16.38
380.09	74.90
380.28	7.02
380.48	42.13
380.68	0.00
380.87	0.00
381.07	0.00
381.26	0.00
381.46	0.00
381.65	44.47
381.85	0.00
382.04	7.02
382.24	91.28
382.43	0.00
382.63	0.00
382.83	0.00
383.02	58.51
383.22	65.54
383.41	0.00
383.61	67.88
383.80	44.47
384.00	0.00
384.19	16.38
384.39	21.06
384.58	14.04
384.78	25.75
384.97	0.00
385.17	65.54
385.36	51.49
385.56	0.00
385.75	0.00
385.95	0.00
386.14	39.79
386.34	44.47
386.53	32.77
386.72	18.72
386.92	25.75
387.11	53.83
387.31	37.45
387.50	39.79
387.70	0.00
387.89	39.79
388.09	0.00
388.28	11.70
388.48	46.81
388.67	11.70
388.86	0.00
389.06	0.00
389.25	7.02
389.45	21.06
389.64	0.00
389.84	0.00
390.03	53.83
390.22	98.30
390.42	9.36
390.61	74.90
390.81	23.41
391.00	39.79
391.19	84.26
391.39	0.00
391.58	11.70
391.78	25.75
391.97	51.49
392.16	35.11
392.36	63.19
392.55	42.13
392.75	0.00
392.94	70.22
393.13	0.00
393.33	42.13
393.52	39.79
393.71	44.47
393.91	4.68
394.10	51.49
394.29	42.13
394.49	65.54
394.68	9.36
394.88	35.11
395.07	30.43
395.26	77.24
395.46	0.00
395.65	46.81
395.84	25.75
396.04	9.36
396.23	4.68
396.42	70.22
396.62	44.47
396.81	37.45
397.00	9.36
397.19	0.00
397.39	0.00
397.58	56.17
397.77	60.85
397.97	0.00
398.16	79.58
398.35	0.00
398.55	0.00
398.74	7.02
398.93	28.09
399.12	58.51
399.32	11.70
399.51	37.45
399.70	30.43
399.90	4.68
400.09	0.00
400.28	58.51
400.47	49.15
400.67	0.00
400.86	102.98
401.05	18.72
401.24	72.56
401.44	63.19
401.63	9.36
401.82	58.51
402.01	37.45
402.21	2.34
402.40	28.09
402.59	0.00
402.78	42.13
402.97	30.43
403.17	4.68
403.36	102.98
403.55	23.41
403.74	60.85
403.93	0.00
404.13	2.34
404.32	70.22
404.51	25.75
404.70	74.90
404.89	16.38
405.09	32.77
405.28	28.09
405.47	0.00
405.66	77.24
405.85	42.13
406.05	39.79
406.24	65.54
406.43	2.34
406.62	30.43
406.81	110.01
407.00	56.17
407.20	14.04
407.39	23.41
407.58	67.88
407.77	28.09
407.96	35.11
408.15	77.24
408.34	9.36
408.54	4.68
408.73	32.77
408.92	2.34
409.11	42.13
409.30	51.49
409.49	9.36
409.68	4.68
409.87	77.24
410.07	0.00
410.26	14.04
410.45	35.11
410.64	23.41
410.83	53.83
411.02	18.72
411.21	63.19
411.40	9.36
411.59	81.92
411.78	65.54
411.98	60.85
412.17	4.68
412.36	18.72
412.55	105.32
412.74	44.47
412.93	7.02
413.12	0.00
413.31	0.00
413.50	42.13
413.69	37.45
413.88	56.17
414.07	63.19
414.26	16.38
414.45	32.77
414.64	0.00
414.83	88.94
415.02	25.75
415.22	7.02
415.41	0.00
415.60	0.00
415.79	0.00
415.98	35.11
416.17	28.09
416.36	0.00
416.55	0.00
416.74	0.00
416.93	11.70
417.12	25.75
417.31	46.81
417.50	0.00
417.69	32.77
417.88	60.85
418.07	23.41
418.26	4.68
418.45	0.00
418.64	21.06
418.83	16.38
419.02	37.45
419.21	28.09
419.39	9.36
419.58	0.00
419.77	0.00
419.96	9.36
420.15	32.77
420.34	46.81
420.53	7.02
420.72	39.79
420.91	105.32
421.10	32.77
421.29	0.00
421.48	86.60
421.67	65.54
421.86	30.43
422.05	0.00
422.24	0.00
422.43	4.68
422.61	0.00
422.80	30.43
422.99	0.00
423.18	107.66
423.37	46.81
423.56	32.77
423.75	77.24
423.94	58.51
424.13	0.00
424.32	98.30
424.50	0.00
424.69	32.77
424.88	0.00
425.07	30.43
425.26	49.15
425.45	30.43
425.64	25.75
425.83	25.75
426.01	16.38
426.20	42.13
426.39	98.30
426.58	56.17
426.77	84.26
426.96	39.79
427.15	0.00
427.33	32.77
427.52	77.24
427.71	30.43
427.90	49.15
428.09	2.34
428.28	21.06
428.46	72.56
428.65	67.88
428.84	4.68
429.03	30.43
429.22	0.00
429.40	11.70
429.59	0.00
429.78	98.30
429.97	102.98
430.16	0.00
430.34	0.00
430.53	7.02
430.72	0.00
430.91	32.77
431.10	25.75
431.28	107.66
431.47	39.79
431.66	58.51
431.85	79.58
432.03	84.26
432.22	42.13
432.41	91.28
432.60	53.83
432.79	51.49
432.97	93.62
433.16	84.26
433.35	42.13
433.54	0.00
433.72	77.24
433.91	58.51
434.10	84.26
434.28	44.47
434.47	39.79
434.66	25.75
434.85	35.11
435.03	117.03
435.22	28.09
435.41	30.43
435.59	0.00
435.78	35.11
435.97	56.17
436.16	58.51
436.34	23.41
436.53	72.56
436.72	16.38
436.90	0.00
437.09	0.00
437.28	0.00
437.46	42.13
437.65	37.45
437.84	46.81
438.02	65.54
438.21	7.02
438.40	114.69
438.58	18.72
438.77	25.75
438.96	32.77
439.14	128.73
439.33	39.79
439.52	18.72
439.70	28.09
439.89	14.04
440.08	21.06
440.26	49.15
440.45	28.09
440.63	60.85
440.82	7.02
441.01	0.00
441.19	21.06
441.38	79.58
441.57	51.49
441.75	35.11
441.94	67.88
442.12	0.00
442.31	72.56
442.50	21.06
442.68	56.17
442.87	0.00
443.05	79.58
443.24	46.81
443.43	35.11
443.61	30.43
443.80	14.04
443.98	0.00
444.17	53.83
444.35	42.13
444.54	0.00
444.73	0.00
444.91	86.60
445.10	0.00
445.28	30.43
445.47	0.00
445.65	67.88
445.84	2.34
446.02	0.00
446.21	11.70
446.39	53.83
446.58	35.11
446.77	28.09
446.95	7.02
447.14	0.00
447.32	0.00
447.51	0.00
447.69	0.00
447.88	72.56
448.06	44.47
448.25	30.43
448.43	46.81
448.62	51.49
448.80	65.54
448.99	0.00
449.17	11.70
449.36	0.00
449.54	77.24
449.73	14.04
449.91	37.45
450.10	44.47
450.28	25.75
450.46	28.09
450.65	4.68
450.83	44.47
451.02	0.00
451.20	28.09
451.39	49.15
451.57	0.00
451.76	0.00
451.94	102.98
452.13	21.06
452.31	2.34
452.49	0.00
452.68	88.94
452.86	81.92
453.05	42.13
453.23	0.00
453.42	25.75
453.60	39.79
453.78	28.09
453.97	32.77
454.15	18.72
454.34	16.38
454.52	0.00
454.70	4.68
454.89	53.83
455.07	63.19
455.26	21.06
455.44	37.45
455.62	70.22
455.81	88.94
455.99	124.05
456.17	39.79
456.36	9.36
456.54	28.09
456.73	91.28
456.91	44.47
457.09	30.43
457.28	117.03
457.46	0.00
457.64	2.34
457.83	0.00
458.01	37.45
458.19	18.72
458.38	63.19
458.56	4.68
458.74	0.00
458.93	110.01
459.11	70.22
459.29	0.00
459.48	72.56
459.66	44.47
459.84	28.09
460.03	37.45
460.21	28.09
460.39	9.36
460.57	32.77
460.76	2.34
460.94	42.13
461.12	0.00
461.31	11.70
461.49	0.00
461.67	32.77
461.85	0.00
462.04	46.81
462.22	117.03
462.40	37.45
462.59	53.83
462.77	0.00
462.95	100.64
463.13	95.96
463.32	56.17
463.50	28.09
463.68	0.00
463.86	0.00
464.05	37.45
464.23	42.13
464.41	42.13
464.59	79.58
464.78	7.02
464.96	35.11
465.14	21.06
465.32	51.49
465.50	9.36
465.69	46.81
465.87	56.17
466.05	0.00
466.23	32.77
466.41	74.90
466.60	46.81
466.78	21.06
466.96	21.06
467.14	42.13
467.32	35.11
467.51	91.28
467.69	16.38
467.87	18.72
468.05	39.79
468.23	77.24
468.41	65.54
468.60	9.36
468.78	14.04
468.96	0.00
469.14	58.51
469.32	0.00
469.50	7.02
469.69	100.64
469.87	0.00
470.05	39.79
470.23	25.75
470.41	0.00
470.59	23.41
470.77	79.58
470.95	0.00
471.14	88.94
471.32	4.68
471.50	37.45
471.68	44.47
471.86	2.34
472.04	30.43
472.22	72.56
472.40	7.02
472.58	0.00
472.77	0.00
472.95	18.72
473.13	70.22
473.31	86.60
473.49	79.58
473.67	0.00
473.85	32.77
474.03	56.17
474.21	58.51
474.39	72.56
474.57	110.01
474.75	58.51
474.93	37.45
475.12	44.47
475.30	112.35
475.48	63.19
475.66	77.24
475.84	25.75
476.02	0.00
476.20	46.81
476.38	63.19
476.56	44.47
476.74	39.79
476.92	0.00
477.10	77.24
477.28	0.00
477.46	35.11
477.64	39.79
477.82	39.79
478.00	56.17
478.18	51.49
478.36	30.43
478.54	0.00
478.72	37.45
478.90	37.45
479.08	58.51
479.26	0.00
479.44	67.88
479.62	63.19
479.80	63.19
479.98	35.11
480.16	0.00
480.34	46.81
480.52	56.17
480.70	88.94
480.88	60.85
481.06	44.47
481.24	72.56
481.41	7.02
481.59	81.92
481.77	0.00
481.95	11.70
482.13	23.41
482.31	121.71
482.49	16.38
482.67	53.83
482.85	65.54
483.03	58.51
483.21	16.38
483.39	60.85
483.57	18.72
483.74	49.15
483.92	14.04
484.10	9.36
484.28	0.00
484.46	32.77
484.64	18.72
484.82	0.00
485.00	53.83
485.18	42.13
485.35	37.45
485.53	11.70
485.71	0.00
485.89	0.00
486.07	28.09
486.25	0.00
486.43	25.75
486.61	4.68
486.78	23.41
486.96	0.00
487.14	51.49
487.32	84.26
487.50	65.54
487.68	72.56
487.85	46.81
488.03	74.90
488.21	0.00
488.39	93.62
488.57	4.68
488.75	67.88
488.92	0.00
489.10	51.49
489.28	51.49
489.46	58.51
489.64	37.45
489.81	72.56
489.99	74.90
490.17	42.13
490.35	30.43
490.53	93.62
490.70	77.24
490.88	112.35
491.06	7.02
491.24	63.19
491.41	4.68
491.59	56.17
491.77	112.35
491.95	30.43
492.13	44.47
492.30	11.70
492.48	0.00
492.66	60.85
492.84	39.79
493.01	60.85
493.19	0.00
493.37	131.07
493.54	0.00
493.72	81.92
493.90	30.43
494.08	0.00
494.25	51.49
494.43	16.38
494.61	2.34
494.79	88.94
494.96	11.70
495.14	121.71
495.32	9.36
495.49	32.77
495.67	25.75
495.85	60.85
496.02	0.00
496.20	131.07
496.38	121.71
496.55	25.75
496.73	77.24
496.91	0.00
497.09	84.26
497.26	58.51
497.44	44.47
497.62	30.43
497.79	39.79
497.97	30.43
498.14	49.15
498.32	16.38
498.50	70.22
498.67	67.88
498.85	86.60
499.03	28.09
499.20	0.00
499.38	35.11
499.56	0.00
499.73	32.77
499.91	70.22
500.08	67.88
500.26	16.38
500.44	67.88
500.61	25.75
500.79	110.01
500.97	77.24
501.14	72.56
501.32	65.54
501.49	46.81
501.67	49.15
501.84	0.00
502.02	46.81
502.20	91.28
502.37	39.79
502.55	11.70
502.72	21.06
502.90	0.00
503.07	39.79
503.25	2.34
503.43	25.75
503.60	112.35
503.78	95.96
503.95	105.32
504.13	0.00
504.30	35.11
504.48	0.00
504.65	93.62
504.83	18.72
505.01	0.00
505.18	58.51
505.36	0.00
505.53	98.30
505.71	79.58
505.88	100.64
506.06	65.54
506.23	0.00
506.41	100.64
506.58	100.64
506.76	56.17
506.93	18.72
507.11	35.11
507.28	63.19
507.46	79.58
507.63	86.60
507.81	51.49
507.98	2.34
508.16	56.17
508.33	9.36
508.50	51.49
508.68	28.09
508.85	0.00
509.03	84.26
509.20	2.34
509.38	18.72
509.55	65.54
509.73	0.00
509.90	2.34
510.08	53.83
510.25	2.34
510.42	98.30
510.60	86.60
510.77	70.22
510.95	0.00
511.12	42.13
511.30	67.88
511.47	81.92
511.64	74.90
511.82	42.13
511.99	53.83
512.17	37.45
512.34	51.49
512.51	39.79
512.69	35.11
512.86	32.77
513.04	16.38
513.21	4.68
513.38	60.85
513.56	25.75
513.73	60.85
513.90	23.41
514.08	131.07
514.25	63.19
514.43	39.79
514.60	9.36
514.77	46.81
514.95	72.56
515.12	0.00
515.29	18.72
515.47	91.28
515.64	46.81
515.81	93.62
515.99	72.56
516.16	42.13
516.33	79.58
516.51	2.34
516.68	4.68
516.85	28.09
517.03	0.00
517.20	91.28
517.37	79.58
517.54	44.47
517.72	63.19
517.89	77.24
518.06	0.00
518.24	21.06
518.41	58.51
518.58	0.00
518.75	65.54
518.93	28.09
519.10	7.02
519.27	0.00
519.45	11.70
519.62	72.56
519.79	49.15
519.96	70.22
520.14	21.06
520.31	37.45
520.48	67.88
520.65	100.64
520.83	23.41
521.00	42.13
521.17	42.13
521.34	16.38
521.52	37.45
521.69	86.60
521.86	77.24
522.03	56.17
522.20	25.75
522.38	18.72
522.55	23.41
522.72	18.72
522.89	0.00
523.07	25.75
523.24	32.77
523.41	42.13
523.58	35.11
523.75	0.00
523.92	42.13
524.10	58.51
524.27	32.77
524.44	0.00
524.61	37.45
524.78	0.00
524.96	84.26
525.13	4.68
525.30	49.15
525.47	2.34
525.64	37.45
525.81	98.30
525.98	0.00
526.16	2.34
526.33	46.81
526.50	18.72
526.67	2.34
526.84	37.45
527.01	46.81
527.18	70.22
527.36	39.79
527.53	67.88
527.70	16.38
527.87	91.28
528.04	58.51
528.21	0.00
528.38	9.36
528.55	4.68
528.72	95.96
528.89	56.17
529.07	32.77
529.24	74.90
529.41	98.30
529.58	18.72
529.75	44.47
529.92	51.49
530.09	56.17
530.26	35.11
530.43	65.54
530.60	93.62
530.77	49.15
530.94	60.85
531.11	0.00
531.28	0.00
531.46	46.81
531.63	30.43
531.80	25.75
531.97	44.47
532.14	77.24
532.31	53.83
532.48	77.24
532.65	28.09
532.82	0.00
532.99	37.45
533.16	30.43
533.33	79.58
533.50	74.90
533.67	67.88
533.84	70.22
534.01	74.90
534.18	42.13
534.35	58.51
534.52	37.45
534.69	30.43
534.86	30.43
535.03	49.15
535.20	35.11
535.37	95.96
535.54	86.60
535.71	81.92
535.88	21.06
536.05	0.00
536.22	91.28
536.38	56.17
536.55	65.54
536.72	46.81
536.89	9.36
537.06	63.19
537.23	74.90
537.40	30.43
537.57	95.96
537.74	14.04
537.91	60.85
538.08	58.51
538.25	44.47
538.42	0.00
538.59	11.70
538.75	11.70
538.92	0.00
539.09	51.49
539.26	107.66
539.43	86.60
539.60	117.03
539.77	126.39
539.94	163.84
540.11	100.64
540.28	114.69
540.44	60.85
540.61	0.00
540.78	0.00
540.95	2.34
541.12	79.58
541.29	0.00
541.46	42.13
541.62	0.00
541.79	67.88
541.96	0.00
542.13	0.00
542.30	110.01
542.47	145.11
542.63	72.56
542.80	42.13
542.97	93.62
543.14	81.92
543.31	32.77
543.48	23.41
543.64	86.60
543.81	0.00
543.98	16.38
544.15	49.15
544.32	32.77
544.48	39.79
544.65	44.47
544.82	44.47
544.99	11.70
545.16	67.88
545.32	105.32
545.49	105.32
545.66	0.00
545.83	72.56
546.00	110.01
546.16	32.77
546.33	32.77
546.50	65.54
546.67	0.00
546.83	4.68
547.00	65.54
547.17	51.49
547.34	70.22
547.50	0.00
547.67	51.49
547.84	91.28
548.00	23.41
548.17	23.41
548.34	102.98
548.51	93.62
548.67	74.90
548.84	32.77
549.01	133.41
549.18	0.00
549.34	11.70
549.51	58.51
549.68	9.36
549.84	9.36
550.01	9.36
550.18	30.43
550.34	133.41
550.51	0.00
550.68	11.70
550.84	4.68
551.01	46.81
551.18	0.00
551.34	44.47
551.51	70.22
551.68	98.30
551.84	56.17
552.01	117.03
552.18	18.72
552.34	84.26
552.51	7.02
552.68	67.88
552.84	42.13
553.01	2.34
553.18	30.43
553.34	67.88
553.51	7.02
553.67	35.11
553.84	56.17
554.01	63.19
554.17	0.00
554.34	18.72
554.51	0.00
554.67	0.00
554.84	51.49
555.00	58.51
555.17	0.00
555.33	30.43
555.50	28.09
555.67	25.75
555.83	77.24
556.00	30.43
556.16	60.85
556.33	4.68
556.50	98.30
556.66	16.38
556.83	18.72
556.99	91.28
557.16	39.79
557.32	28.09
557.49	65.54
557.65	77.24
557.82	46.81
557.98	21.06
558.15	84.26
558.32	0.00
558.48	77.24
558.65	46.81
558.81	18.72
558.98	58.51
559.14	0.00
559.31	102.98
559.47	67.88
559.64	56.17
559.80	0.00
559.97	0.00
560.13	49.15
560.30	105.32
560.46	53.83
560.63	9.36
560.79	28.09
560.96	0.00
561.12	46.81
561.29	81.92
561.45	11.70
561.61	63.19
561.78	114.69
561.94	32.77
562.11	58.51
562.27	25.75
562.44	39.79
562.60	0.00
562.77	117.03
562.93	14.04
563.10	121.71
563.26	77.24
563.42	84.26
563.59	25.75
563.75	0.00
563.92	23.41
564.08	156.82
564.24	58.51
564.41	88.94
564.57	21.06
564.74	77.24
564.90	81.92
565.07	81.92
565.23	63.19
565.39	86.60
565.56	58.51
565.72	0.00
565.88	32.77
566.05	93.62
566.21	44.47
566.38	65.54
566.54	44.47
566.70	102.98
566.87	28.09
567.03	102.98
567.19	0.00
567.36	37.45
567.52	77.24
567.68	35.11
567.85	25.75
568.01	65.54
568.17	0.00
568.34	56.17
568.50	28.09
568.66	0.00
568.83	0.00
568.99	0.00
569.15	9.36
569.32	88.94
569.48	58.51
569.64	46.81
569.81	70.22
569.97	51.49
570.13	16.38
570.30	70.22
570.46	65.54
570.62	58.51
570.78	58.51
570.95	2.34
571.11	28.09
571.27	0.00
571.43	65.54
571.60	2.34
571.76	49.15
571.92	53.83
572.09	65.54
572.25	39.79
572.41	70.22
572.57	70.22
572.74	79.58
572.90	11.70
573.06	53.83
573.22	102.98
573.38	0.00
573.55	11.70
573.71	114.69
573.87	30.43
574.03	30.43
574.20	65.54
574.36	0.00
574.52	23.41
574.68	95.96
574.84	9.36
575.01	25.75
575.17	42.13
575.33	0.00
575.49	0.00
575.65	32.77
575.82	84.26
575.98	72.56
576.14	49.15
576.30	93.62
576.46	0.00
576.62	60.85
576.79	39.79
576.95	70.22
577.11	102.98
577.27	16.38
577.43	74.90
577.59	105.32
577.75	53.83
577.92	42.13
578.08	28.09
578.24	35.11
578.40	0.00
578.56	72.56
578.72	30.43
578.88	81.92
579.04	49.15
579.21	30.43
579.37	23.41
579.53	0.00
579.69	32.77
579.85	49.15
580.01	21.06
580.17	32.77
580.33	79.58
580.49	102.98
580.65	131.07
580.82	0.00
580.98	58.51
581.14	58.51
581.30	35.11
581.46	46.81
581.62	56.17
581.78	25.75
581.94	35.11
582.10	70.22
582.26	51.49
582.42	37.45
582.58	0.00
582.74	102.98
582.90	16.38
583.06	98.30
583.22	81.92
583.38	110.01
583.54	98.30
583.70	74.90
583.86	81.92
584.02	49.15
584.18	30.43
584.34	49.15
584.50	346.40
584.66	1764.76
584.82	4170.83
584.98	5579.84
585.14	4856.61
585.30	3162.06
585.46	2050.31
585.62	1139.84
585.78	575.77
585.94	248.10
586.10	74.90
586.26	88.94
586.42	53.83
586.58	42.13
586.74	74.90
586.90	63.19
587.06	60.85
587.22	72.56
587.38	46.81
587.54	110.01
587.70	257.46
587.86	465.77
588.02	397.89
588.18	269.16
588.34	198.95
588.49	133.41
588.65	70.22
588.81	18.72
588.97	65.54
589.13	23.41
589.29	114.69
589.45	9.36
589.61	16.38
589.77	39.79
589.93	58.51
590.08	81.92
590.24	86.60
590.40	65.54
590.56	84.26
590.72	53.83
590.88	77.24
591.04	44.47
591.20	98.30
591.35	81.92
591.51	0.00
591.67	70.22
591.83	49.15
591.99	112.35
592.15	0.00
592.31	86.60
592.46	9.36
592.62	51.49
592.78	58.51
592.94	65.54
593.10	18.72
593.26	58.51
593.41	0.00
593.57	154.48
593.73	42.13
593.89	245.76
594.05	547.69
594.20	744.29
594.36	648.33
594.52	493.85
594.68	344.06
594.84	201.29
594.99	112.35
595.15	42.13
595.31	18.72
595.47	74.90
595.62	0.00
595.78	30.43
595.94	7.02
596.10	102.98
596.25	58.51
596.41	105.32
596.57	23.41
596.73	95.96
596.88	81.92
597.04	44.47
597.20	166.18
597.36	201.29
597.51	175.54
597.67	117.03
597.83	32.77
597.99	93.62
598.14	0.00
598.30	0.00
598.46	28.09
598.61	37.45
598.77	4.68
598.93	86.60
599.09	63.19
599.24	58.51
599.40	21.06
599.56	74.90
599.71	126.39
599.87	25.75
600.03	51.49
600.18	18.72
600.34	0.00
600.50	51.49
600.65	65.54
600.81	110.01
600.97	21.06
601.12	53.83
601.28	11.70
601.44	86.60
601.59	58.51
601.75	32.77
601.91	28.09
602.06	44.47
602.22	74.90
602.37	145.11
602.53	208.31
602.69	252.78
602.84	198.95
603.00	124.05
603.16	72.56
603.31	121.71
603.47	105.32
603.62	60.85
603.78	63.19
603.94	49.15
604.09	0.00
604.25	107.66
604.40	51.49
604.56	35.11
604.71	84.26
604.87	0.00
605.03	7.02
605.18	46.81
605.34	30.43
605.49	51.49
605.65	0.00
605.80	16.38
605.96	9.36
606.12	100.64
606.27	16.38
606.43	67.88
606.58	18.72
606.74	60.85
606.89	367.46
607.05	524.28
607.20	638.97
607.36	505.56
607.51	346.40
607.67	234.05
607.82	177.88
607.98	119.37
608.13	51.49
608.29	7.02
608.44	72.56
608.60	67.88
608.75	65.54
608.91	100.64
609.06	550.03
609.22	891.74
609.37	1109.41
609.53	908.13
609.68	662.37
609.84	397.89
609.99	322.99
610.15	177.88
610.30	194.26
610.46	88.94
610.61	74.90
610.76	124.05
610.92	49.15
611.07	18.72
611.23	21.06
611.38	110.01
611.54	23.41
611.69	37.45
611.84	65.54
612.00	0.00
612.15	25.75
612.31	65.54
612.46	37.45
612.62	42.13
612.77	72.56
612.92	46.81
613.08	70.22
613.23	98.30
613.39	107.66
613.54	86.60
613.69	348.74
613.85	1132.82
614.00	1668.80
614.15	1659.44
614.31	1289.64
614.46	882.38
614.62	587.47
614.77	278.52
614.92	163.84
615.08	117.03
615.23	37.45
615.38	81.92
615.54	14.04
615.69	91.28
615.84	271.50
616.00	440.02
616.15	458.74
616.30	376.83
616.46	248.10
616.61	236.39
616.76	159.16
616.92	131.07
617.07	117.03
617.22	53.83
617.37	63.19
617.53	0.00
617.68	46.81
617.83	0.00
617.99	16.38
618.14	84.26
618.29	16.38
618.45	30.43
618.60	25.75
618.75	44.47
618.90	0.00
619.06	9.36
619.21	0.00
619.36	0.00
619.51	0.00
619.67	60.85
619.82	32.77
619.97	4.68
620.12	49.15
620.28	30.43
620.43	84.26
620.58	0.00
620.73	53.83
620.89	14.04
621.04	37.45
621.19	131.07
621.34	224.69
621.49	297.25
621.65	264.48
621.80	117.03
621.95	105.32
622.10	154.48
622.25	0.00
622.41	11.70
622.56	28.09
622.71	2.34
622.86	28.09
623.01	32.77
623.16	72.56
623.32	21.06
623.47	105.32
623.62	93.62
623.77	28.09
623.92	39.79
624.07	79.58
624.23	9.36
624.38	28.09
624.53	18.72
624.68	88.94
624.83	35.11
624.98	0.00
625.13	81.92
625.29	0.00
625.44	53.83
625.59	28.09
625.74	63.19
625.89	91.28
626.04	191.92
626.19	578.11
626.34	837.91
626.49	863.66
626.65	664.71
626.80	449.38
626.95	374.49
627.10	217.67
627.25	79.58
627.40	98.30
627.55	16.38
627.70	51.49
627.85	53.83
628.00	0.00
628.15	0.00
628.30	44.47
628.45	11.70
628.60	44.47
628.76	46.81
628.91	16.38
629.06	0.00
629.21	77.24
629.36	0.00
629.51	0.00
629.66	30.43
629.81	21.06
629.96	86.60
630.11	212.99
630.26	231.71
630.41	208.31
630.56	170.86
630.71	126.39
630.86	67.88
631.01	46.81
631.16	32.77
631.31	58.51
631.46	49.15
631.61	35.11
631.76	30.43
631.91	0.00
632.06	72.56
632.21	46.81
632.36	0.00
632.51	0.00
632.66	91.28
632.81	121.71
632.96	313.63
633.10	512.58
633.25	702.16
633.40	514.92
633.55	390.87
633.70	212.99
633.85	215.33
634.00	98.30
634.15	21.06
634.30	39.79
634.45	100.64
634.60	39.79
634.75	67.88
634.90	91.28
635.05	14.04
635.19	0.00
635.34	95.96
635.49	30.43
635.64	42.13
635.79	65.54
635.94	0.00
636.09	67.88
636.24	77.24
636.39	84.26
636.53	28.09
636.68	0.00
636.83	46.81
636.98	42.13
637.13	30.43
637.28	35.11
637.43	0.00
637.57	77.24
637.72	273.84
637.87	681.10
638.02	1081.33
638.17	1139.84
638.32	905.79
638.46	603.86
638.61	395.55
638.76	262.14
638.91	114.69
639.06	23.41
639.20	32.77
639.35	84.26
639.50	95.96
639.65	400.23
639.80	1174.95
639.94	1661.78
640.09	1762.42
640.24	1371.55
640.39	896.43
640.54	620.24
640.68	308.95
640.83	187.24
640.98	102.98
641.13	42.13
641.27	30.43
641.42	9.36
641.57	72.56
641.72	67.88
641.86	42.13
642.01	23.41
642.16	86.60
642.31	9.36
642.45	72.56
642.60	39.79
642.75	42.13
642.90	58.51
643.04	39.79
643.19	9.36
643.34	51.49
643.48	49.15
643.63	39.79
643.78	21.06
643.93	56.17
644.07	0.00
644.22	28.09
644.37	16.38
644.51	7.02
644.66	0.00
644.81	114.69
644.95	72.56
645.10	39.79
645.25	44.47
645.39	30.43
645.54	86.60
645.69	7.02
645.83	35.11
645.98	72.56
646.13	2.34
646.27	60.85
646.42	86.60
646.57	30.43
646.71	51.49
646.86	23.41
647.00	21.06
647.15	117.03
647.30	23.41
647.44	28.09
647.59	110.01
647.74	63.19
647.88	67.88
648.03	46.81
648.17	0.00
648.32	16.38
648.47	25.75
648.61	37.45
648.76	42.13
648.90	23.41
649.05	65.54
649.20	7.02
649.34	14.04
649.49	25.75
649.63	65.54
649.78	88.94
649.92	105.32
650.07	145.11
650.21	404.91
650.36	767.70
650.51	985.37
650.65	788.76
650.80	561.73
650.94	414.27
651.09	297.25
651.23	100.64
651.38	95.96
651.52	49.15
651.67	0.00
651.81	9.36
651.96	74.90
652.10	86.60
652.25	74.90
652.39	0.00
652.54	53.83
652.68	114.69
652.83	245.76
652.97	341.72
653.12	372.15
653.26	306.61
653.41	271.50
653.55	236.39
653.70	201.29
653.84	100.64
653.99	84.26
654.13	70.22
654.27	49.15
654.42	25.75
654.56	30.43
654.71	25.75
654.85	63.19
655.00	25.75
655.14	35.11
655.29	67.88
655.43	84.26
655.57	53.83
655.72	0.00
655.86	32.77
656.01	21.06
656.15	67.88
656.30	2.34
656.44	0.00
656.58	32.77
656.73	60.85
656.87	0.00
657.01	0.00
657.16	28.09
657.30	112.35
657.45	28.09
657.59	0.00
657.73	100.64
657.88	35.11
658.02	30.43
658.16	67.88
658.31	0.00
658.45	0.00
658.60	30.43
658.74	11.70
658.88	0.00
659.03	0.00
659.17	88.94
659.31	63.19
659.46	182.56
659.60	475.13
659.74	470.45
659.89	411.93
660.03	353.42
660.17	175.54
660.32	140.43
660.46	14.04
660.60	77.24
660.74	63.19
660.89	128.73
661.03	0.00
661.17	0.00
661.32	46.81
661.46	30.43
661.60	9.36
661.74	32.77
661.89	0.00
662.03	0.00
662.17	44.47
662.31	11.70
662.46	93.62
662.60	60.85
662.74	81.92
662.88	0.00
663.03	60.85
663.17	11.70
663.31	46.81
663.45	18.72
663.60	0.00
663.74	30.43
663.88	58.51
664.02	63.19
664.17	58.51
664.31	0.00
664.45	135.75
664.59	149.79
664.73	21.06
664.88	32.77
665.02	56.17
665.16	11.70
665.30	42.13
665.44	35.11
665.59	65.54
665.73	74.90
665.87	21.06
666.01	7.02
666.15	0.00
666.29	0.00
666.44	49.15
666.58	37.45
666.72	84.26
666.86	32.77
667.00	46.81
667.14	142.77
667.28	140.43
667.43	383.85
667.57	683.44
667.71	851.96
667.85	678.76
667.99	524.28
668.13	379.17
668.27	189.58
668.41	196.60
668.56	77.24
668.70	126.39
668.84	35.11
668.98	0.00
669.12	77.24
669.26	0.00
669.40	65.54
669.54	0.00
669.68	53.83
669.82	53.83
669.96	0.00
670.10	114.69
670.25	112.35
670.39	79.58
670.53	11.70
670.67	84.26
670.81	86.60
670.95	23.41
671.09	60.85
671.23	161.50
671.37	346.40
671.51	514.92
671.65	578.11
671.79	374.49
671.93	383.85
672.07	182.56
672.21	154.48
672.35	7.02
672.49	28.09
672.63	74.90
672.77	14.04
672.91	2.34
673.05	112.35
673.19	46.81
673.33	0.00
673.47	0.00
673.61	25.75
673.75	88.94
673.89	49.15
674.03	32.77
674.17	0.00
674.31	72.56
674.45	18.72
674.59	107.66
674.73	0.00
674.87	35.11
675.01	0.00
675.15	65.54
675.29	25.75
675.43	51.49
675.56	74.90
675.70	49.15
675.84	0.00
675.98	21.06
676.12	60.85
676.26	84.26
676.40	0.00
676.54	0.00
676.68	9.36
676.82	51.49
676.96	95.96
677.10	14.04
677.23	37.45
677.37	0.00
677.51	95.96
677.65	37.45
677.79	28.09
677.93	32.77
678.07	32.77
678.21	53.83
678.34	0.00
678.48	86.60
678.62	23.41
678.76	44.47
678.90	110.01
679.04	0.00
679.18	30.43
679.31	44.47
679.45	21.06
679.59	63.19
679.73	46.81
679.87	2.34
680.00	56.17
680.14	58.51
680.28	4.68
680.42	0.00
680.56	44.47
680.70	67.88
680.83	0.00
680.97	81.92
681.11	60.85
681.25	56.17
681.39	0.00
681.52	49.15
681.66	102.98
681.80	56.17
681.94	0.00
682.07	18.72
682.21	2.34
682.35	16.38
682.49	39.79
682.62	58.51
682.76	37.45
682.90	44.47
683.04	32.77
683.17	0.00
683.31	30.43
683.45	28.09
683.59	35.11
683.72	0.00
683.86	56.17
684.00	7.02
684.13	65.54
684.27	28.09
684.41	0.00
684.55	74.90
684.68	44.47
684.82	51.49
684.96	56.17
685.09	58.51
685.23	25.75
685.37	16.38
685.50	72.56
685.64	77.24
685.78	60.85
685.91	0.00
686.05	0.00
686.19	14.04
686.32	65.54
686.46	37.45
686.60	0.00
686.73	30.43
686.87	37.45
687.01	37.45
687.14	70.22
687.28	117.03
687.42	0.00
687.55	65.54
687.69	77.24
687.82	0.00
687.96	25.75
688.10	67.88
688.23	74.90
688.37	16.38
688.50	74.90
688.64	25.75
688.78	0.00
688.91	4.68
689.05	0.00
689.18	0.00
689.32	28.09
689.46	84.26
689.59	37.45
689.73	0.00
689.86	0.00
690.00	0.00
690.13	58.51
690.27	84.26
690.41	35.11
690.54	77.24
690.68	32.77
690.81	2.34
690.95	39.79
691.08	7.02
691.22	53.83
691.35	74.90
691.49	21.06
691.62	4.68
691.76	0.00
691.89	30.43
692.03	114.69
692.16	0.00
692.30	11.70
692.43	84.26
692.57	229.37
692.70	285.55
692.84	358.10
692.97	339.38
693.11	250.44
693.24	187.24
693.38	114.69
693.51	102.98
693.65	51.49
693.78	46.81
693.92	30.43
694.05	18.72
694.19	2.34
694.32	58.51
694.45	30.43
694.59	16.38
694.72	2.34
694.86	95.96
694.99	35.11
695.13	4.68
695.26	56.17
695.39	0.00
695.53	70.22
695.66	37.45
695.80	39.79
695.93	9.36
696.07	60.85
696.20	79.58
696.33	56.17
696.47	11.70
696.60	0.00
696.73	0.00
696.87	0.00
697.00	86.60
697.14	0.00
697.27	2.34
697.40	7.02
697.54	63.19
697.67	84.26
697.80	56.17
697.94	74.90
698.07	110.01
698.21	18.72
698.34	4.68
698.47	37.45
698.61	35.11
698.74	18.72
698.87	18.72
699.01	14.04
699.14	81.92
699.27	0.00
699.40	32.77
699.54	84.26
699.67	21.06
699.80	0.00
699.94	44.47
700.07	0.00
700.20	0.00
700.34	60.85
700.47	7.02
700.60	37.45
700.73	0.00
700.87	18.72
701.00	65.54
701.13	16.38
701.26	72.56
701.40	51.49
701.53	25.75
701.66	35.11
701.79	23.41
701.93	0.00
702.06	58.51
702.19	0.00
702.32	42.13
702.46	35.11
702.59	88.94
702.72	154.48
702.85	203.63
702.99	580.45
703.12	650.67
703.25	739.61
703.38	566.41
703.51	468.11
703.65	369.80
703.78	234.05
703.91	102.98
704.04	166.18
704.17	42.13
704.31	21.06
704.44	65.54
704.57	0.00
704.70	23.41
704.83	42.13
704.96	60.85
705.10	30.43
705.23	23.41
>>>>>End Processed Spectral Data<<<<<
