SpectraSuite Data File
++++++++++++++++++++++++++++++++++++
Date: Fri Oct 04 12:13:25 GMT-05:00 2013
User: price-jones
Dark Spectrum Present: No
Reference Spectrum Present: No
Number of Sampled Component Spectra: 1
Spectrometers: USB2+H05261
Integration Time (usec): 10000 (USB2+H05261)
Spectra Averaged: 1 (USB2+H05261)
Boxcar Smoothing: 0 (USB2+H05261)
Correct for Electrical Dark: No (USB2+H05261)
Strobe/Lamp Enabled: No (USB2+H05261)
Correct for Detector Non-linearity: No (USB2+H05261)
Correct for Stray Light: No (USB2+H05261)
Number of Pixels in Processed Spectrum: 2048
>>>>>Begin Processed Spectral Data<<<<<
365.73	0.00
365.92	0.00
366.12	0.00
366.32	0.00
366.52	0.00
366.72	0.00
366.91	0.00
367.11	0.00
367.31	0.00
367.51	0.00
367.70	0.00
367.90	0.00
368.10	0.00
368.30	0.00
368.49	0.00
368.69	0.00
368.89	0.00
369.09	0.00
369.28	0.00
369.48	0.00
369.68	0.00
369.87	0.00
370.07	0.00
370.27	0.00
370.47	0.00
370.66	0.00
370.86	0.00
371.06	0.00
371.25	0.00
371.45	53.83
371.65	0.00
371.84	0.00
372.04	0.00
372.24	60.85
372.44	0.00
372.63	23.41
372.83	67.88
373.03	88.94
373.22	37.45
373.42	0.00
373.62	0.00
373.81	16.38
374.01	51.49
374.21	0.00
374.40	65.54
374.60	18.72
374.79	44.47
374.99	42.13
375.19	37.45
375.38	18.72
375.58	0.00
375.78	79.58
375.97	65.54
376.17	53.83
376.37	0.00
376.56	42.13
376.76	100.64
376.95	44.47
377.15	81.92
377.35	28.09
377.54	28.09
377.74	4.68
377.93	7.02
378.13	32.77
378.33	46.81
378.52	18.72
378.72	30.43
378.91	0.00
379.11	4.68
379.31	0.00
379.50	56.17
379.70	0.00
379.89	28.09
380.09	37.45
380.28	0.00
380.48	0.00
380.68	0.00
380.87	4.68
381.07	25.75
381.26	0.00
381.46	0.00
381.65	28.09
381.85	0.00
382.04	0.00
382.24	32.77
382.43	32.77
382.63	28.09
382.83	0.00
383.02	11.70
383.22	9.36
383.41	0.00
383.61	0.00
383.80	39.79
384.00	30.43
384.19	74.90
384.39	0.00
384.58	32.77
384.78	0.00
384.97	16.38
385.17	0.00
385.36	16.38
385.56	16.38
385.75	42.13
385.95	37.45
386.14	35.11
386.34	44.47
386.53	51.49
386.72	81.92
386.92	23.41
387.11	23.41
387.31	21.06
387.50	30.43
387.70	2.34
387.89	0.00
388.09	4.68
388.28	88.94
388.48	7.02
388.67	53.83
388.86	0.00
389.06	28.09
389.25	30.43
389.45	16.38
389.64	44.47
389.84	49.15
390.03	51.49
390.22	0.00
390.42	58.51
390.61	23.41
390.81	11.70
391.00	25.75
391.19	0.00
391.39	4.68
391.58	37.45
391.78	9.36
391.97	0.00
392.16	25.75
392.36	28.09
392.55	16.38
392.75	0.00
392.94	0.00
393.13	21.06
393.33	37.45
393.52	0.00
393.71	25.75
393.91	0.00
394.10	0.00
394.29	14.04
394.49	35.11
394.68	46.81
394.88	51.49
395.07	11.70
395.26	0.00
395.46	0.00
395.65	93.62
395.84	21.06
396.04	74.90
396.23	0.00
396.42	4.68
396.62	0.00
396.81	7.02
397.00	2.34
397.19	46.81
397.39	28.09
397.58	18.72
397.77	35.11
397.97	51.49
398.16	81.92
398.35	21.06
398.55	44.47
398.74	25.75
398.93	0.00
399.12	49.15
399.32	65.54
399.51	65.54
399.70	30.43
399.90	0.00
400.09	51.49
400.28	37.45
400.47	23.41
400.67	28.09
400.86	67.88
401.05	0.00
401.24	14.04
401.44	7.02
401.63	0.00
401.82	53.83
402.01	49.15
402.21	51.49
402.40	0.00
402.59	0.00
402.78	0.00
402.97	21.06
403.17	0.00
403.36	0.00
403.55	46.81
403.74	32.77
403.93	0.00
404.13	112.35
404.32	44.47
404.51	0.00
404.70	0.00
404.89	28.09
405.09	28.09
405.28	9.36
405.47	84.26
405.66	2.34
405.85	53.83
406.05	2.34
406.24	2.34
406.43	53.83
406.62	44.47
406.81	49.15
407.00	7.02
407.20	2.34
407.39	60.85
407.58	0.00
407.77	53.83
407.96	60.85
408.15	51.49
408.34	51.49
408.54	0.00
408.73	0.00
408.92	0.00
409.11	39.79
409.30	72.56
409.49	28.09
409.68	0.00
409.87	0.00
410.07	0.00
410.26	21.06
410.45	25.75
410.64	7.02
410.83	51.49
411.02	7.02
411.21	60.85
411.40	37.45
411.59	53.83
411.78	30.43
411.98	72.56
412.17	56.17
412.36	30.43
412.55	63.19
412.74	30.43
412.93	51.49
413.12	65.54
413.31	65.54
413.50	0.00
413.69	21.06
413.88	72.56
414.07	32.77
414.26	7.02
414.45	32.77
414.64	0.00
414.83	9.36
415.02	14.04
415.22	37.45
415.41	46.81
415.60	56.17
415.79	7.02
415.98	2.34
416.17	56.17
416.36	44.47
416.55	84.26
416.74	25.75
416.93	84.26
417.12	0.00
417.31	23.41
417.50	0.00
417.69	21.06
417.88	2.34
418.07	91.28
418.26	14.04
418.45	0.00
418.64	11.70
418.83	0.00
419.02	72.56
419.21	65.54
419.39	0.00
419.58	39.79
419.77	30.43
419.96	11.70
420.15	44.47
420.34	0.00
420.53	9.36
420.72	30.43
420.91	32.77
421.10	46.81
421.29	0.00
421.48	37.45
421.67	70.22
421.86	60.85
422.05	0.00
422.24	18.72
422.43	0.00
422.61	46.81
422.80	56.17
422.99	0.00
423.18	9.36
423.37	11.70
423.56	44.47
423.75	32.77
423.94	53.83
424.13	49.15
424.32	0.00
424.50	0.00
424.69	7.02
424.88	58.51
425.07	14.04
425.26	51.49
425.45	21.06
425.64	16.38
425.83	0.00
426.01	65.54
426.20	16.38
426.39	56.17
426.58	0.00
426.77	28.09
426.96	30.43
427.15	46.81
427.33	0.00
427.52	0.00
427.71	44.47
427.90	42.13
428.09	14.04
428.28	0.00
428.46	56.17
428.65	2.34
428.84	53.83
429.03	7.02
429.22	46.81
429.40	35.11
429.59	51.49
429.78	0.00
429.97	16.38
430.16	0.00
430.34	14.04
430.53	0.00
430.72	0.00
430.91	42.13
431.10	9.36
431.28	0.00
431.47	56.17
431.66	70.22
431.85	105.32
432.03	44.47
432.22	42.13
432.41	0.00
432.60	131.07
432.79	11.70
432.97	60.85
433.16	84.26
433.35	0.00
433.54	72.56
433.72	21.06
433.91	100.64
434.10	4.68
434.28	70.22
434.47	4.68
434.66	16.38
434.85	30.43
435.03	9.36
435.22	65.54
435.41	42.13
435.59	0.00
435.78	67.88
435.97	28.09
436.16	0.00
436.34	0.00
436.53	0.00
436.72	0.00
436.90	56.17
437.09	49.15
437.28	0.00
437.46	81.92
437.65	114.69
437.84	30.43
438.02	88.94
438.21	44.47
438.40	63.19
438.58	39.79
438.77	88.94
438.96	0.00
439.14	58.51
439.33	16.38
439.52	30.43
439.70	28.09
439.89	32.77
440.08	0.00
440.26	67.88
440.45	72.56
440.63	7.02
440.82	14.04
441.01	63.19
441.19	0.00
441.38	37.45
441.57	0.00
441.75	25.75
441.94	0.00
442.12	60.85
442.31	77.24
442.50	51.49
442.68	81.92
442.87	37.45
443.05	51.49
443.24	86.60
443.43	42.13
443.61	0.00
443.80	25.75
443.98	70.22
444.17	7.02
444.35	56.17
444.54	63.19
444.73	56.17
444.91	2.34
445.10	28.09
445.28	0.00
445.47	49.15
445.65	23.41
445.84	11.70
446.02	67.88
446.21	77.24
446.39	51.49
446.58	56.17
446.77	70.22
446.95	51.49
447.14	100.64
447.32	9.36
447.51	25.75
447.69	65.54
447.88	114.69
448.06	23.41
448.25	2.34
448.43	11.70
448.62	98.30
448.80	37.45
448.99	0.00
449.17	28.09
449.36	0.00
449.54	9.36
449.73	0.00
449.91	4.68
450.10	35.11
450.28	102.98
450.46	0.00
450.65	46.81
450.83	42.13
451.02	0.00
451.20	25.75
451.39	0.00
451.57	35.11
451.76	46.81
451.94	28.09
452.13	4.68
452.31	102.98
452.49	16.38
452.68	49.15
452.86	46.81
453.05	112.35
453.23	14.04
453.42	0.00
453.60	23.41
453.78	42.13
453.97	0.00
454.15	84.26
454.34	79.58
454.52	7.02
454.70	28.09
454.89	7.02
455.07	21.06
455.26	44.47
455.44	56.17
455.62	53.83
455.81	121.71
455.99	42.13
456.17	0.00
456.36	32.77
456.54	2.34
456.73	56.17
456.91	25.75
457.09	72.56
457.28	74.90
457.46	63.19
457.64	70.22
457.83	4.68
458.01	46.81
458.19	0.00
458.38	0.00
458.56	74.90
458.74	0.00
458.93	23.41
459.11	0.00
459.29	0.00
459.48	53.83
459.66	23.41
459.84	0.00
460.03	86.60
460.21	11.70
460.39	0.00
460.57	77.24
460.76	28.09
460.94	21.06
461.12	37.45
461.31	0.00
461.49	25.75
461.67	58.51
461.85	70.22
462.04	46.81
462.22	98.30
462.40	23.41
462.59	21.06
462.77	91.28
462.95	28.09
463.13	67.88
463.32	37.45
463.50	74.90
463.68	37.45
463.86	51.49
464.05	0.00
464.23	91.28
464.41	16.38
464.59	35.11
464.78	88.94
464.96	72.56
465.14	2.34
465.32	18.72
465.50	0.00
465.69	0.00
465.87	2.34
466.05	16.38
466.23	86.60
466.41	88.94
466.60	37.45
466.78	2.34
466.96	0.00
467.14	0.00
467.32	16.38
467.51	0.00
467.69	49.15
467.87	60.85
468.05	7.02
468.23	70.22
468.41	16.38
468.60	88.94
468.78	0.00
468.96	67.88
469.14	35.11
469.32	44.47
469.50	53.83
469.69	46.81
469.87	0.00
470.05	0.00
470.23	4.68
470.41	42.13
470.59	0.00
470.77	79.58
470.95	0.00
471.14	49.15
471.32	65.54
471.50	49.15
471.68	77.24
471.86	7.02
472.04	23.41
472.22	44.47
472.40	49.15
472.58	56.17
472.77	0.00
472.95	0.00
473.13	95.96
473.31	110.01
473.49	81.92
473.67	72.56
473.85	11.70
474.03	58.51
474.21	56.17
474.39	0.00
474.57	0.00
474.75	72.56
474.93	49.15
475.12	25.75
475.30	86.60
475.48	25.75
475.66	60.85
475.84	2.34
476.02	35.11
476.20	25.75
476.38	72.56
476.56	0.00
476.74	2.34
476.92	25.75
477.10	67.88
477.28	140.43
477.46	37.45
477.64	79.58
477.82	0.00
478.00	84.26
478.18	0.00
478.36	67.88
478.54	53.83
478.72	23.41
478.90	18.72
479.08	14.04
479.26	32.77
479.44	88.94
479.62	2.34
479.80	30.43
479.98	58.51
480.16	7.02
480.34	0.00
480.52	21.06
480.70	21.06
480.88	0.00
481.06	0.00
481.24	0.00
481.41	49.15
481.59	21.06
481.77	30.43
481.95	72.56
482.13	72.56
482.31	67.88
482.49	0.00
482.67	11.70
482.85	51.49
483.03	56.17
483.21	0.00
483.39	77.24
483.57	7.02
483.74	35.11
483.92	0.00
484.10	0.00
484.28	58.51
484.46	21.06
484.64	81.92
484.82	0.00
485.00	28.09
485.18	84.26
485.35	72.56
485.53	14.04
485.71	65.54
485.89	25.75
486.07	0.00
486.25	67.88
486.43	35.11
486.61	0.00
486.78	0.00
486.96	105.32
487.14	0.00
487.32	39.79
487.50	0.00
487.68	18.72
487.85	21.06
488.03	58.51
488.21	0.00
488.39	98.30
488.57	67.88
488.75	53.83
488.92	0.00
489.10	102.98
489.28	65.54
489.46	63.19
489.64	84.26
489.81	128.73
489.99	0.00
490.17	35.11
490.35	44.47
490.53	23.41
490.70	58.51
490.88	0.00
491.06	37.45
491.24	7.02
491.41	91.28
491.59	37.45
491.77	7.02
491.95	60.85
492.13	0.00
492.30	28.09
492.48	30.43
492.66	56.17
492.84	23.41
493.01	93.62
493.19	7.02
493.37	77.24
493.54	95.96
493.72	58.51
493.90	58.51
494.08	91.28
494.25	100.64
494.43	9.36
494.61	16.38
494.79	18.72
494.96	46.81
495.14	86.60
495.32	42.13
495.49	21.06
495.67	46.81
495.85	37.45
496.02	0.00
496.20	4.68
496.38	0.00
496.55	35.11
496.73	72.56
496.91	25.75
497.09	0.00
497.26	30.43
497.44	23.41
497.62	35.11
497.79	32.77
497.97	88.94
498.14	51.49
498.32	56.17
498.50	0.00
498.67	91.28
498.85	0.00
499.03	9.36
499.20	91.28
499.38	7.02
499.56	58.51
499.73	0.00
499.91	102.98
500.08	72.56
500.26	0.00
500.44	21.06
500.61	49.15
500.79	32.77
500.97	0.00
501.14	9.36
501.32	28.09
501.49	58.51
501.67	42.13
501.84	65.54
502.02	49.15
502.20	86.60
502.37	4.68
502.55	51.49
502.72	0.00
502.90	14.04
503.07	0.00
503.25	93.62
503.43	9.36
503.60	0.00
503.78	7.02
503.95	21.06
504.13	77.24
504.30	9.36
504.48	65.54
504.65	56.17
504.83	0.00
505.01	65.54
505.18	39.79
505.36	25.75
505.53	0.00
505.71	39.79
505.88	9.36
506.06	84.26
506.23	72.56
506.41	74.90
506.58	2.34
506.76	60.85
506.93	102.98
507.11	39.79
507.28	51.49
507.46	0.00
507.63	0.00
507.81	32.77
507.98	21.06
508.16	42.13
508.33	70.22
508.50	44.47
508.68	72.56
508.85	30.43
509.03	77.24
509.20	67.88
509.38	39.79
509.55	0.00
509.73	56.17
509.90	39.79
510.08	53.83
510.25	58.51
510.42	9.36
510.60	65.54
510.77	100.64
510.95	49.15
511.12	42.13
511.30	67.88
511.47	51.49
511.64	100.64
511.82	102.98
511.99	39.79
512.17	44.47
512.34	95.96
512.51	53.83
512.69	0.00
512.86	56.17
513.04	79.58
513.21	7.02
513.38	60.85
513.56	30.43
513.73	86.60
513.90	0.00
514.08	23.41
514.25	11.70
514.43	105.32
514.60	65.54
514.77	0.00
514.95	60.85
515.12	39.79
515.29	74.90
515.47	67.88
515.64	51.49
515.81	32.77
515.99	60.85
516.16	46.81
516.33	56.17
516.51	67.88
516.68	14.04
516.85	60.85
517.03	65.54
517.20	72.56
517.37	25.75
517.54	79.58
517.72	86.60
517.89	58.51
518.06	63.19
518.24	51.49
518.41	81.92
518.58	18.72
518.75	51.49
518.93	79.58
519.10	49.15
519.27	67.88
519.45	0.00
519.62	0.00
519.79	30.43
519.96	60.85
520.14	70.22
520.31	112.35
520.48	18.72
520.65	42.13
520.83	56.17
521.00	58.51
521.17	37.45
521.34	42.13
521.52	0.00
521.69	16.38
521.86	37.45
522.03	0.00
522.20	56.17
522.38	7.02
522.55	0.00
522.72	0.00
522.89	0.00
523.07	63.19
523.24	56.17
523.41	21.06
523.58	67.88
523.75	37.45
523.92	9.36
524.10	49.15
524.27	65.54
524.44	63.19
524.61	81.92
524.78	49.15
524.96	100.64
525.13	42.13
525.30	119.37
525.47	95.96
525.64	0.00
525.81	56.17
525.98	39.79
526.16	51.49
526.33	0.00
526.50	23.41
526.67	81.92
526.84	91.28
527.01	133.41
527.18	86.60
527.36	14.04
527.53	0.00
527.70	42.13
527.87	28.09
528.04	0.00
528.21	16.38
528.38	72.56
528.55	60.85
528.72	105.32
528.89	65.54
529.07	49.15
529.24	72.56
529.41	14.04
529.58	21.06
529.75	18.72
529.92	86.60
530.09	11.70
530.26	30.43
530.43	42.13
530.60	44.47
530.77	0.00
530.94	51.49
531.11	32.77
531.28	0.00
531.46	107.66
531.63	14.04
531.80	0.00
531.97	37.45
532.14	39.79
532.31	23.41
532.48	67.88
532.65	72.56
532.82	93.62
532.99	0.00
533.16	0.00
533.33	0.00
533.50	46.81
533.67	67.88
533.84	37.45
534.01	91.28
534.18	81.92
534.35	30.43
534.52	67.88
534.69	4.68
534.86	84.26
535.03	86.60
535.20	9.36
535.37	2.34
535.54	35.11
535.71	39.79
535.88	37.45
536.05	32.77
536.22	32.77
536.38	18.72
536.55	0.00
536.72	9.36
536.89	86.60
537.06	81.92
537.23	72.56
537.40	11.70
537.57	88.94
537.74	37.45
537.91	72.56
538.08	0.00
538.25	25.75
538.42	44.47
538.59	65.54
538.75	37.45
538.92	58.51
539.09	0.00
539.26	49.15
539.43	46.81
539.60	42.13
539.77	65.54
539.94	124.05
540.11	51.49
540.28	18.72
540.44	0.00
540.61	14.04
540.78	28.09
540.95	0.00
541.12	25.75
541.29	44.47
541.46	79.58
541.62	32.77
541.79	11.70
541.96	28.09
542.13	117.03
542.30	51.49
542.47	0.00
542.63	30.43
542.80	49.15
542.97	0.00
543.14	56.17
543.31	65.54
543.48	0.00
543.64	63.19
543.81	21.06
543.98	0.00
544.15	131.07
544.32	30.43
544.48	23.41
544.65	67.88
544.82	32.77
544.99	0.00
545.16	63.19
545.32	72.56
545.49	14.04
545.66	30.43
545.83	58.51
546.00	93.62
546.16	72.56
546.33	14.04
546.50	126.39
546.67	46.81
546.83	14.04
547.00	65.54
547.17	42.13
547.34	44.47
547.50	0.00
547.67	25.75
547.84	11.70
548.00	65.54
548.17	74.90
548.34	0.00
548.51	51.49
548.67	23.41
548.84	18.72
549.01	46.81
549.18	16.38
549.34	91.28
549.51	4.68
549.68	18.72
549.84	70.22
550.01	7.02
550.18	67.88
550.34	46.81
550.51	70.22
550.68	28.09
550.84	2.34
551.01	39.79
551.18	44.47
551.34	28.09
551.51	84.26
551.68	79.58
551.84	25.75
552.01	51.49
552.18	0.00
552.34	14.04
552.51	21.06
552.68	11.70
552.84	0.00
553.01	21.06
553.18	72.56
553.34	107.66
553.51	107.66
553.67	18.72
553.84	0.00
554.01	60.85
554.17	44.47
554.34	30.43
554.51	79.58
554.67	77.24
554.84	56.17
555.00	88.94
555.17	4.68
555.33	14.04
555.50	9.36
555.67	81.92
555.83	37.45
556.00	161.50
556.16	56.17
556.33	0.00
556.50	0.00
556.66	42.13
556.83	35.11
556.99	0.00
557.16	44.47
557.32	32.77
557.49	37.45
557.65	0.00
557.82	0.00
557.98	0.00
558.15	23.41
558.32	11.70
558.48	39.79
558.65	0.00
558.81	28.09
558.98	2.34
559.14	35.11
559.31	56.17
559.47	51.49
559.64	60.85
559.80	46.81
559.97	25.75
560.13	95.96
560.30	0.00
560.46	0.00
560.63	32.77
560.79	4.68
560.96	0.00
561.12	49.15
561.29	18.72
561.45	105.32
561.61	67.88
561.78	100.64
561.94	100.64
562.11	14.04
562.27	135.75
562.44	14.04
562.60	91.28
562.77	23.41
562.93	70.22
563.10	0.00
563.26	0.00
563.42	105.32
563.59	35.11
563.75	53.83
563.92	77.24
564.08	18.72
564.24	23.41
564.41	53.83
564.57	2.34
564.74	25.75
564.90	44.47
565.07	23.41
565.23	0.00
565.39	0.00
565.56	58.51
565.72	32.77
565.88	32.77
566.05	0.00
566.21	72.56
566.38	0.00
566.54	74.90
566.70	49.15
566.87	30.43
567.03	60.85
567.19	98.30
567.36	18.72
567.52	32.77
567.68	0.00
567.85	0.00
568.01	70.22
568.17	32.77
568.34	72.56
568.50	53.83
568.66	60.85
568.83	42.13
568.99	0.00
569.15	65.54
569.32	72.56
569.48	112.35
569.64	30.43
569.81	2.34
569.97	81.92
570.13	0.00
570.30	11.70
570.46	32.77
570.62	51.49
570.78	0.00
570.95	0.00
571.11	9.36
571.27	60.85
571.43	28.09
571.60	28.09
571.76	49.15
571.92	32.77
572.09	60.85
572.25	39.79
572.41	77.24
572.57	84.26
572.74	7.02
572.90	56.17
573.06	63.19
573.22	39.79
573.38	32.77
573.55	105.32
573.71	88.94
573.87	93.62
574.03	25.75
574.20	25.75
574.36	0.00
574.52	16.38
574.68	74.90
574.84	7.02
575.01	51.49
575.17	67.88
575.33	35.11
575.49	35.11
575.65	67.88
575.82	51.49
575.98	37.45
576.14	18.72
576.30	0.00
576.46	11.70
576.62	46.81
576.79	0.00
576.95	9.36
577.11	37.45
577.27	63.19
577.43	14.04
577.59	2.34
577.75	0.00
577.92	28.09
578.08	16.38
578.24	58.51
578.40	25.75
578.56	18.72
578.72	42.13
578.88	28.09
579.04	28.09
579.21	42.13
579.37	23.41
579.53	18.72
579.69	86.60
579.85	23.41
580.01	35.11
580.17	39.79
580.33	35.11
580.49	42.13
580.65	7.02
580.82	16.38
580.98	0.00
581.14	91.28
581.30	100.64
581.46	44.47
581.62	84.26
581.78	63.19
581.94	58.51
582.10	18.72
582.26	0.00
582.42	49.15
582.58	0.00
582.74	65.54
582.90	25.75
583.06	4.68
583.22	46.81
583.38	21.06
583.54	0.00
583.70	53.83
583.86	0.00
584.02	0.00
584.18	30.43
584.34	0.00
584.50	42.13
584.66	9.36
584.82	0.00
584.98	0.00
585.14	28.09
585.30	35.11
585.46	100.64
585.62	18.72
585.78	11.70
585.94	28.09
586.10	25.75
586.26	107.66
586.42	74.90
586.58	14.04
586.74	16.38
586.90	56.17
587.06	98.30
587.22	18.72
587.38	102.98
587.54	37.45
587.70	0.00
587.86	53.83
588.02	65.54
588.18	0.00
588.34	77.24
588.49	42.13
588.65	110.01
588.81	49.15
588.97	72.56
589.13	0.00
589.29	98.30
589.45	9.36
589.61	25.75
589.77	11.70
589.93	28.09
590.08	128.73
590.24	91.28
590.40	21.06
590.56	39.79
590.72	49.15
590.88	30.43
591.04	0.00
591.20	4.68
591.35	14.04
591.51	9.36
591.67	37.45
591.83	79.58
591.99	56.17
592.15	0.00
592.31	21.06
592.46	23.41
592.62	79.58
592.78	58.51
592.94	23.41
593.10	9.36
593.26	35.11
593.41	51.49
593.57	9.36
593.73	135.75
593.89	63.19
594.05	14.04
594.20	42.13
594.36	67.88
594.52	70.22
594.68	23.41
594.84	23.41
594.99	56.17
595.15	0.00
595.31	98.30
595.47	30.43
595.62	42.13
595.78	70.22
595.94	0.00
596.10	25.75
596.25	56.17
596.41	0.00
596.57	60.85
596.73	86.60
596.88	16.38
597.04	16.38
597.20	30.43
597.36	63.19
597.51	30.43
597.67	25.75
597.83	16.38
597.99	65.54
598.14	46.81
598.30	51.49
598.46	14.04
598.61	18.72
598.77	4.68
598.93	0.00
599.09	11.70
599.24	0.00
599.40	18.72
599.56	25.75
599.71	4.68
599.87	0.00
600.03	51.49
600.18	4.68
600.34	0.00
600.50	4.68
600.65	49.15
600.81	65.54
600.97	49.15
601.12	72.56
601.28	70.22
601.44	0.00
601.59	56.17
601.75	16.38
601.91	56.17
602.06	32.77
602.22	0.00
602.37	9.36
602.53	44.47
602.69	0.00
602.84	32.77
603.00	67.88
603.16	9.36
603.31	42.13
603.47	14.04
603.62	70.22
603.78	44.47
603.94	39.79
604.09	72.56
604.25	23.41
604.40	25.75
604.56	88.94
604.71	46.81
604.87	49.15
605.03	28.09
605.18	98.30
605.34	84.26
605.49	37.45
605.65	49.15
605.80	25.75
605.96	0.00
606.12	72.56
606.27	110.01
606.43	70.22
606.58	44.47
606.74	86.60
606.89	74.90
607.05	46.81
607.20	9.36
607.36	23.41
607.51	25.75
607.67	32.77
607.82	65.54
607.98	93.62
608.13	159.16
608.29	98.30
608.44	72.56
608.60	81.92
608.75	135.75
608.91	51.49
609.06	35.11
609.22	49.15
609.37	42.13
609.53	30.43
609.68	44.47
609.84	49.15
609.99	23.41
610.15	25.75
610.30	112.35
610.46	58.51
610.61	0.00
610.76	23.41
610.92	53.83
611.07	35.11
611.23	53.83
611.38	67.88
611.54	0.00
611.69	30.43
611.84	28.09
612.00	79.58
612.15	37.45
612.31	49.15
612.46	0.00
612.62	0.00
612.77	65.54
612.92	53.83
613.08	39.79
613.23	39.79
613.39	117.03
613.54	60.85
613.69	18.72
613.85	0.00
614.00	35.11
614.15	4.68
614.31	9.36
614.46	51.49
614.62	11.70
614.77	121.71
614.92	0.00
615.08	124.05
615.23	23.41
615.38	23.41
615.54	35.11
615.69	32.77
615.84	53.83
616.00	0.00
616.15	32.77
616.30	11.70
616.46	0.00
616.61	79.58
616.76	11.70
616.92	0.00
617.07	23.41
617.22	51.49
617.37	30.43
617.53	18.72
617.68	7.02
617.83	14.04
617.99	58.51
618.14	30.43
618.29	53.83
618.45	0.00
618.60	2.34
618.75	7.02
618.90	0.00
619.06	39.79
619.21	0.00
619.36	0.00
619.51	0.00
619.67	44.47
619.82	46.81
619.97	44.47
620.12	42.13
620.28	154.48
620.43	81.92
620.58	16.38
620.73	0.00
620.89	9.36
621.04	14.04
621.19	0.00
621.34	21.06
621.49	18.72
621.65	0.00
621.80	0.00
621.95	32.77
622.10	23.41
622.25	44.47
622.41	42.13
622.56	44.47
622.71	0.00
622.86	0.00
623.01	56.17
623.16	28.09
623.32	70.22
623.47	58.51
623.62	77.24
623.77	14.04
623.92	37.45
624.07	11.70
624.23	67.88
624.38	2.34
624.53	0.00
624.68	30.43
624.83	53.83
624.98	72.56
625.13	4.68
625.29	58.51
625.44	0.00
625.59	30.43
625.74	4.68
625.89	88.94
626.04	112.35
626.19	4.68
626.34	56.17
626.49	37.45
626.65	60.85
626.80	32.77
626.95	42.13
627.10	0.00
627.25	30.43
627.40	53.83
627.55	39.79
627.70	72.56
627.85	14.04
628.00	0.00
628.15	70.22
628.30	95.96
628.45	67.88
628.60	63.19
628.76	0.00
628.91	65.54
629.06	23.41
629.21	0.00
629.36	23.41
629.51	72.56
629.66	77.24
629.81	0.00
629.96	110.01
630.11	72.56
630.26	0.00
630.41	18.72
630.56	23.41
630.71	0.00
630.86	32.77
631.01	42.13
631.16	37.45
631.31	86.60
631.46	77.24
631.61	28.09
631.76	23.41
631.91	81.92
632.06	0.00
632.21	53.83
632.36	77.24
632.51	23.41
632.66	72.56
632.81	49.15
632.96	2.34
633.10	44.47
633.25	70.22
633.40	81.92
633.55	0.00
633.70	16.38
633.85	11.70
634.00	67.88
634.15	30.43
634.30	0.00
634.45	30.43
634.60	42.13
634.75	0.00
634.90	30.43
635.05	23.41
635.19	86.60
635.34	74.90
635.49	35.11
635.64	128.73
635.79	23.41
635.94	133.41
636.09	58.51
636.24	74.90
636.39	25.75
636.53	0.00
636.68	4.68
636.83	32.77
636.98	18.72
637.13	39.79
637.28	86.60
637.43	51.49
637.57	0.00
637.72	56.17
637.87	81.92
638.02	77.24
638.17	74.90
638.32	0.00
638.46	79.58
638.61	74.90
638.76	77.24
638.91	0.00
639.06	44.47
639.20	0.00
639.35	0.00
639.50	28.09
639.65	30.43
639.80	44.47
639.94	32.77
640.09	84.26
640.24	63.19
640.39	0.00
640.54	14.04
640.68	51.49
640.83	63.19
640.98	77.24
641.13	16.38
641.27	49.15
641.42	79.58
641.57	14.04
641.72	51.49
641.86	112.35
642.01	58.51
642.16	0.00
642.31	42.13
642.45	0.00
642.60	49.15
642.75	23.41
642.90	84.26
643.04	11.70
643.19	16.38
643.34	46.81
643.48	0.00
643.63	0.00
643.78	72.56
643.93	7.02
644.07	58.51
644.22	18.72
644.37	65.54
644.51	84.26
644.66	0.00
644.81	51.49
644.95	51.49
645.10	72.56
645.25	60.85
645.39	51.49
645.54	32.77
645.69	0.00
645.83	114.69
645.98	0.00
646.13	18.72
646.27	11.70
646.42	28.09
646.57	44.47
646.71	4.68
646.86	53.83
647.00	28.09
647.15	7.02
647.30	23.41
647.44	95.96
647.59	53.83
647.74	25.75
647.88	124.05
648.03	46.81
648.17	25.75
648.32	58.51
648.47	56.17
648.61	9.36
648.76	86.60
648.90	0.00
649.05	51.49
649.20	0.00
649.34	18.72
649.49	32.77
649.63	37.45
649.78	39.79
649.92	0.00
650.07	91.28
650.21	35.11
650.36	7.02
650.51	35.11
650.65	65.54
650.80	93.62
650.94	39.79
651.09	18.72
651.23	98.30
651.38	117.03
651.52	0.00
651.67	49.15
651.81	2.34
651.96	0.00
652.10	4.68
652.25	2.34
652.39	49.15
652.54	67.88
652.68	46.81
652.83	46.81
652.97	25.75
653.12	126.39
653.26	88.94
653.41	51.49
653.55	42.13
653.70	95.96
653.84	28.09
653.99	0.00
654.13	42.13
654.27	30.43
654.42	0.00
654.56	35.11
654.71	79.58
654.85	60.85
655.00	84.26
655.14	9.36
655.29	18.72
655.43	39.79
655.57	28.09
655.72	91.28
655.86	0.00
656.01	70.22
656.15	49.15
656.30	70.22
656.44	25.75
656.58	51.49
656.73	70.22
656.87	28.09
657.01	21.06
657.16	25.75
657.30	124.05
657.45	98.30
657.59	74.90
657.73	86.60
657.88	53.83
658.02	16.38
658.16	84.26
658.31	49.15
658.45	70.22
658.60	0.00
658.74	79.58
658.88	44.47
659.03	28.09
659.17	0.00
659.31	37.45
659.46	0.00
659.60	0.00
659.74	0.00
659.89	46.81
660.03	2.34
660.17	11.70
660.32	16.38
660.46	65.54
660.60	0.00
660.74	16.38
660.89	51.49
661.03	0.00
661.17	46.81
661.32	81.92
661.46	11.70
661.60	25.75
661.74	28.09
661.89	51.49
662.03	0.00
662.17	23.41
662.31	53.83
662.46	0.00
662.60	0.00
662.74	23.41
662.88	72.56
663.03	53.83
663.17	2.34
663.31	0.00
663.45	21.06
663.60	49.15
663.74	63.19
663.88	18.72
664.02	0.00
664.17	0.00
664.31	0.00
664.45	35.11
664.59	77.24
664.73	0.00
664.88	28.09
665.02	21.06
665.16	0.00
665.30	0.00
665.44	39.79
665.59	0.00
665.73	0.00
665.87	102.98
666.01	11.70
666.15	79.58
666.29	0.00
666.44	53.83
666.58	16.38
666.72	79.58
666.86	37.45
667.00	0.00
667.14	9.36
667.28	58.51
667.43	28.09
667.57	56.17
667.71	0.00
667.85	23.41
667.99	133.41
668.13	100.64
668.27	60.85
668.41	0.00
668.56	2.34
668.70	0.00
668.84	0.00
668.98	42.13
669.12	58.51
669.26	35.11
669.40	32.77
669.54	107.66
669.68	56.17
669.82	0.00
669.96	30.43
670.10	39.79
670.25	0.00
670.39	28.09
670.53	39.79
670.67	25.75
670.81	42.13
670.95	7.02
671.09	18.72
671.23	46.81
671.37	77.24
671.51	2.34
671.65	72.56
671.79	0.00
671.93	0.00
672.07	77.24
672.21	35.11
672.35	81.92
672.49	35.11
672.63	56.17
672.77	51.49
672.91	44.47
673.05	58.51
673.19	39.79
673.33	0.00
673.47	0.00
673.61	49.15
673.75	35.11
673.89	0.00
674.03	70.22
674.17	0.00
674.31	60.85
674.45	49.15
674.59	74.90
674.73	46.81
674.87	65.54
675.01	42.13
675.15	28.09
675.29	79.58
675.43	0.00
675.56	0.00
675.70	23.41
675.84	21.06
675.98	32.77
676.12	67.88
676.26	56.17
676.40	0.00
676.54	0.00
676.68	58.51
676.82	42.13
676.96	37.45
677.10	39.79
677.23	2.34
677.37	63.19
677.51	44.47
677.65	7.02
677.79	77.24
677.93	0.00
678.07	95.96
678.21	39.79
678.34	0.00
678.48	70.22
678.62	51.49
678.76	7.02
678.90	42.13
679.04	58.51
679.18	2.34
679.31	0.00
679.45	30.43
679.59	32.77
679.73	49.15
679.87	21.06
680.00	14.04
680.14	42.13
680.28	23.41
680.42	51.49
680.56	4.68
680.70	25.75
680.83	65.54
680.97	65.54
681.11	51.49
681.25	11.70
681.39	70.22
681.52	11.70
681.66	21.06
681.80	14.04
681.94	53.83
682.07	46.81
682.21	60.85
682.35	58.51
682.49	23.41
682.62	28.09
682.76	56.17
682.90	46.81
683.04	51.49
683.17	9.36
683.31	2.34
683.45	46.81
683.59	0.00
683.72	16.38
683.86	32.77
684.00	25.75
684.13	70.22
684.27	0.00
684.41	74.90
684.55	7.02
684.68	0.00
684.82	28.09
684.96	0.00
685.09	4.68
685.23	18.72
685.37	9.36
685.50	84.26
685.64	25.75
685.78	32.77
685.91	0.00
686.05	49.15
686.19	44.47
686.32	9.36
686.46	0.00
686.60	0.00
686.73	0.00
686.87	42.13
687.01	9.36
687.14	32.77
687.28	84.26
687.42	131.07
687.55	0.00
687.69	35.11
687.82	79.58
687.96	30.43
688.10	16.38
688.23	117.03
688.37	0.00
688.50	37.45
688.64	121.71
688.78	0.00
688.91	4.68
689.05	0.00
689.18	0.00
689.32	11.70
689.46	37.45
689.59	30.43
689.73	0.00
689.86	0.00
690.00	7.02
690.13	0.00
690.27	44.47
690.41	30.43
690.54	37.45
690.68	9.36
690.81	114.69
690.95	0.00
691.08	79.58
691.22	42.13
691.35	88.94
691.49	39.79
691.62	23.41
691.76	42.13
691.89	14.04
692.03	0.00
692.16	37.45
692.30	9.36
692.43	0.00
692.57	0.00
692.70	35.11
692.84	42.13
692.97	44.47
693.11	37.45
693.24	32.77
693.38	0.00
693.51	81.92
693.65	25.75
693.78	46.81
693.92	0.00
694.05	11.70
694.19	42.13
694.32	44.47
694.45	9.36
694.59	35.11
694.72	67.88
694.86	0.00
694.99	0.00
695.13	4.68
695.26	77.24
695.39	28.09
695.53	37.45
695.66	88.94
695.80	0.00
695.93	37.45
696.07	39.79
696.20	72.56
696.33	28.09
696.47	53.83
696.60	67.88
696.73	21.06
696.87	0.00
697.00	44.47
697.14	30.43
697.27	28.09
697.40	14.04
697.54	0.00
697.67	30.43
697.80	126.39
697.94	21.06
698.07	14.04
698.21	42.13
698.34	110.01
698.47	46.81
698.61	0.00
698.74	18.72
698.87	0.00
699.01	23.41
699.14	70.22
699.27	18.72
699.40	100.64
699.54	0.00
699.67	53.83
699.80	16.38
699.94	14.04
700.07	49.15
700.20	51.49
700.34	53.83
700.47	39.79
700.60	42.13
700.73	67.88
700.87	100.64
701.00	2.34
701.13	32.77
701.26	65.54
701.40	49.15
701.53	0.00
701.66	30.43
701.79	93.62
701.93	4.68
702.06	11.70
702.19	74.90
702.32	44.47
702.46	35.11
702.59	0.00
702.72	23.41
702.85	32.77
702.99	28.09
703.12	39.79
703.25	23.41
703.38	56.17
703.51	46.81
703.65	11.70
703.78	35.11
703.91	67.88
704.04	88.94
704.17	42.13
704.31	0.00
704.44	0.00
704.57	42.13
704.70	4.68
704.83	58.51
704.96	53.83
705.10	0.00
705.23	14.04
>>>>>End Processed Spectral Data<<<<<
