SpectraSuite Data File
++++++++++++++++++++++++++++++++++++
Date: Fri Oct 04 12:13:30 GMT-05:00 2013
User: price-jones
Dark Spectrum Present: No
Reference Spectrum Present: No
Number of Sampled Component Spectra: 1
Spectrometers: USB2+H05261
Integration Time (usec): 10000 (USB2+H05261)
Spectra Averaged: 1 (USB2+H05261)
Boxcar Smoothing: 0 (USB2+H05261)
Correct for Electrical Dark: No (USB2+H05261)
Strobe/Lamp Enabled: No (USB2+H05261)
Correct for Detector Non-linearity: No (USB2+H05261)
Correct for Stray Light: No (USB2+H05261)
Number of Pixels in Processed Spectrum: 2048
>>>>>Begin Processed Spectral Data<<<<<
365.73	0.00
365.92	0.00
366.12	0.00
366.32	0.00
366.52	0.00
366.72	0.00
366.91	0.00
367.11	0.00
367.31	0.00
367.51	0.00
367.70	0.00
367.90	0.00
368.10	0.00
368.30	0.00
368.49	0.00
368.69	0.00
368.89	0.00
369.09	0.00
369.28	0.00
369.48	0.00
369.68	0.00
369.87	0.00
370.07	0.00
370.27	0.00
370.47	0.00
370.66	0.00
370.86	0.00
371.06	0.00
371.25	0.00
371.45	0.00
371.65	0.00
371.84	0.00
372.04	0.00
372.24	44.47
372.44	0.00
372.63	0.00
372.83	93.62
373.03	0.00
373.22	98.30
373.42	77.24
373.62	23.41
373.81	0.00
374.01	0.00
374.21	65.54
374.40	0.00
374.60	65.54
374.79	51.49
374.99	0.00
375.19	91.28
375.38	0.00
375.58	67.88
375.78	44.47
375.97	0.00
376.17	39.79
376.37	53.83
376.56	39.79
376.76	4.68
376.95	0.00
377.15	0.00
377.35	0.00
377.54	25.75
377.74	65.54
377.93	14.04
378.13	39.79
378.33	0.00
378.52	49.15
378.72	28.09
378.91	30.43
379.11	93.62
379.31	44.47
379.50	51.49
379.70	0.00
379.89	35.11
380.09	0.00
380.28	46.81
380.48	88.94
380.68	0.00
380.87	77.24
381.07	39.79
381.26	16.38
381.46	0.00
381.65	84.26
381.85	0.00
382.04	53.83
382.24	53.83
382.43	35.11
382.63	0.00
382.83	0.00
383.02	0.00
383.22	44.47
383.41	0.00
383.61	0.00
383.80	0.00
384.00	4.68
384.19	35.11
384.39	0.00
384.58	0.00
384.78	98.30
384.97	0.00
385.17	63.19
385.36	39.79
385.56	0.00
385.75	9.36
385.95	46.81
386.14	0.00
386.34	0.00
386.53	0.00
386.72	0.00
386.92	100.64
387.11	0.00
387.31	23.41
387.50	0.00
387.70	0.00
387.89	0.00
388.09	30.43
388.28	0.00
388.48	0.00
388.67	105.32
388.86	0.00
389.06	23.41
389.25	0.00
389.45	0.00
389.64	16.38
389.84	25.75
390.03	21.06
390.22	0.00
390.42	30.43
390.61	37.45
390.81	0.00
391.00	0.00
391.19	0.00
391.39	0.00
391.58	0.00
391.78	7.02
391.97	0.00
392.16	56.17
392.36	88.94
392.55	53.83
392.75	77.24
392.94	0.00
393.13	32.77
393.33	70.22
393.52	0.00
393.71	0.00
393.91	0.00
394.10	0.00
394.29	0.00
394.49	14.04
394.68	0.00
394.88	58.51
395.07	0.00
395.26	86.60
395.46	30.43
395.65	44.47
395.84	0.00
396.04	126.39
396.23	35.11
396.42	0.00
396.62	18.72
396.81	30.43
397.00	0.00
397.19	21.06
397.39	0.00
397.58	0.00
397.77	18.72
397.97	79.58
398.16	0.00
398.35	56.17
398.55	42.13
398.74	74.90
398.93	0.00
399.12	37.45
399.32	35.11
399.51	149.79
399.70	35.11
399.90	7.02
400.09	79.58
400.28	74.90
400.47	32.77
400.67	51.49
400.86	0.00
401.05	4.68
401.24	88.94
401.44	51.49
401.63	4.68
401.82	14.04
402.01	72.56
402.21	84.26
402.40	44.47
402.59	86.60
402.78	0.00
402.97	21.06
403.17	0.00
403.36	46.81
403.55	0.00
403.74	0.00
403.93	23.41
404.13	2.34
404.32	16.38
404.51	39.79
404.70	49.15
404.89	105.32
405.09	70.22
405.28	23.41
405.47	0.00
405.66	16.38
405.85	56.17
406.05	44.47
406.24	0.00
406.43	42.13
406.62	0.00
406.81	0.00
407.00	30.43
407.20	44.47
407.39	11.70
407.58	35.11
407.77	25.75
407.96	21.06
408.15	28.09
408.34	0.00
408.54	21.06
408.73	0.00
408.92	11.70
409.11	35.11
409.30	0.00
409.49	58.51
409.68	49.15
409.87	0.00
410.07	9.36
410.26	16.38
410.45	79.58
410.64	9.36
410.83	25.75
411.02	0.00
411.21	0.00
411.40	0.00
411.59	35.11
411.78	11.70
411.98	0.00
412.17	11.70
412.36	16.38
412.55	114.69
412.74	0.00
412.93	7.02
413.12	28.09
413.31	9.36
413.50	77.24
413.69	0.00
413.88	30.43
414.07	9.36
414.26	30.43
414.45	11.70
414.64	16.38
414.83	74.90
415.02	53.83
415.22	46.81
415.41	0.00
415.60	70.22
415.79	28.09
415.98	53.83
416.17	42.13
416.36	67.88
416.55	18.72
416.74	21.06
416.93	23.41
417.12	23.41
417.31	28.09
417.50	49.15
417.69	39.79
417.88	53.83
418.07	0.00
418.26	77.24
418.45	9.36
418.64	16.38
418.83	53.83
419.02	67.88
419.21	60.85
419.39	58.51
419.58	0.00
419.77	0.00
419.96	21.06
420.15	0.00
420.34	0.00
420.53	32.77
420.72	0.00
420.91	9.36
421.10	4.68
421.29	39.79
421.48	67.88
421.67	0.00
421.86	0.00
422.05	0.00
422.24	32.77
422.43	74.90
422.61	93.62
422.80	25.75
422.99	0.00
423.18	16.38
423.37	11.70
423.56	28.09
423.75	93.62
423.94	100.64
424.13	0.00
424.32	37.45
424.50	65.54
424.69	42.13
424.88	46.81
425.07	18.72
425.26	30.43
425.45	49.15
425.64	0.00
425.83	35.11
426.01	91.28
426.20	35.11
426.39	30.43
426.58	44.47
426.77	0.00
426.96	39.79
427.15	0.00
427.33	23.41
427.52	0.00
427.71	84.26
427.90	46.81
428.09	32.77
428.28	39.79
428.46	28.09
428.65	86.60
428.84	0.00
429.03	9.36
429.22	0.00
429.40	42.13
429.59	25.75
429.78	39.79
429.97	0.00
430.16	11.70
430.34	0.00
430.53	21.06
430.72	32.77
430.91	0.00
431.10	49.15
431.28	35.11
431.47	0.00
431.66	49.15
431.85	44.47
432.03	53.83
432.22	56.17
432.41	56.17
432.60	14.04
432.79	30.43
432.97	0.00
433.16	60.85
433.35	0.00
433.54	63.19
433.72	88.94
433.91	25.75
434.10	105.32
434.28	93.62
434.47	42.13
434.66	11.70
434.85	25.75
435.03	70.22
435.22	7.02
435.41	63.19
435.59	18.72
435.78	42.13
435.97	18.72
436.16	44.47
436.34	16.38
436.53	0.00
436.72	91.28
436.90	4.68
437.09	9.36
437.28	46.81
437.46	0.00
437.65	4.68
437.84	0.00
438.02	70.22
438.21	93.62
438.40	23.41
438.58	42.13
438.77	93.62
438.96	0.00
439.14	32.77
439.33	42.13
439.52	91.28
439.70	18.72
439.89	21.06
440.08	0.00
440.26	23.41
440.45	23.41
440.63	42.13
440.82	65.54
441.01	9.36
441.19	2.34
441.38	9.36
441.57	39.79
441.75	0.00
441.94	74.90
442.12	67.88
442.31	0.00
442.50	0.00
442.68	126.39
442.87	7.02
443.05	0.00
443.24	63.19
443.43	65.54
443.61	25.75
443.80	0.00
443.98	79.58
444.17	86.60
444.35	0.00
444.54	0.00
444.73	32.77
444.91	30.43
445.10	35.11
445.28	35.11
445.47	23.41
445.65	0.00
445.84	23.41
446.02	16.38
446.21	23.41
446.39	65.54
446.58	16.38
446.77	81.92
446.95	65.54
447.14	7.02
447.32	56.17
447.51	42.13
447.69	28.09
447.88	39.79
448.06	0.00
448.25	77.24
448.43	4.68
448.62	2.34
448.80	0.00
448.99	49.15
449.17	0.00
449.36	0.00
449.54	46.81
449.73	79.58
449.91	0.00
450.10	60.85
450.28	2.34
450.46	18.72
450.65	72.56
450.83	32.77
451.02	0.00
451.20	4.68
451.39	79.58
451.57	23.41
451.76	7.02
451.94	32.77
452.13	0.00
452.31	53.83
452.49	0.00
452.68	0.00
452.86	95.96
453.05	63.19
453.23	0.00
453.42	7.02
453.60	72.56
453.78	0.00
453.97	0.00
454.15	63.19
454.34	18.72
454.52	0.00
454.70	9.36
454.89	0.00
455.07	63.19
455.26	79.58
455.44	42.13
455.62	42.13
455.81	16.38
455.99	60.85
456.17	4.68
456.36	37.45
456.54	65.54
456.73	4.68
456.91	0.00
457.09	11.70
457.28	28.09
457.46	0.00
457.64	79.58
457.83	44.47
458.01	0.00
458.19	30.43
458.38	51.49
458.56	28.09
458.74	0.00
458.93	23.41
459.11	35.11
459.29	79.58
459.48	25.75
459.66	84.26
459.84	32.77
460.03	72.56
460.21	0.00
460.39	32.77
460.57	0.00
460.76	9.36
460.94	67.88
461.12	86.60
461.31	0.00
461.49	7.02
461.67	16.38
461.85	0.00
462.04	51.49
462.22	67.88
462.40	14.04
462.59	119.37
462.77	67.88
462.95	44.47
463.13	23.41
463.32	23.41
463.50	37.45
463.68	25.75
463.86	16.38
464.05	131.07
464.23	0.00
464.41	37.45
464.59	0.00
464.78	35.11
464.96	77.24
465.14	88.94
465.32	42.13
465.50	58.51
465.69	63.19
465.87	49.15
466.05	98.30
466.23	0.00
466.41	39.79
466.60	65.54
466.78	23.41
466.96	42.13
467.14	23.41
467.32	25.75
467.51	0.00
467.69	44.47
467.87	11.70
468.05	35.11
468.23	25.75
468.41	133.41
468.60	0.00
468.78	86.60
468.96	0.00
469.14	25.75
469.32	0.00
469.50	21.06
469.69	72.56
469.87	70.22
470.05	0.00
470.23	93.62
470.41	16.38
470.59	32.77
470.77	46.81
470.95	0.00
471.14	42.13
471.32	0.00
471.50	25.75
471.68	93.62
471.86	42.13
472.04	0.00
472.22	65.54
472.40	42.13
472.58	49.15
472.77	56.17
472.95	67.88
473.13	0.00
473.31	28.09
473.49	4.68
473.67	7.02
473.85	23.41
474.03	0.00
474.21	163.84
474.39	81.92
474.57	98.30
474.75	25.75
474.93	0.00
475.12	91.28
475.30	77.24
475.48	4.68
475.66	49.15
475.84	32.77
476.02	16.38
476.20	49.15
476.38	53.83
476.56	25.75
476.74	0.00
476.92	63.19
477.10	88.94
477.28	70.22
477.46	42.13
477.64	18.72
477.82	58.51
478.00	16.38
478.18	53.83
478.36	14.04
478.54	67.88
478.72	0.00
478.90	0.00
479.08	100.64
479.26	18.72
479.44	70.22
479.62	65.54
479.80	7.02
479.98	46.81
480.16	44.47
480.34	28.09
480.52	58.51
480.70	67.88
480.88	23.41
481.06	16.38
481.24	49.15
481.41	37.45
481.59	72.56
481.77	9.36
481.95	4.68
482.13	51.49
482.31	0.00
482.49	0.00
482.67	93.62
482.85	46.81
483.03	53.83
483.21	58.51
483.39	0.00
483.57	67.88
483.74	25.75
483.92	11.70
484.10	65.54
484.28	30.43
484.46	42.13
484.64	25.75
484.82	42.13
485.00	58.51
485.18	0.00
485.35	84.26
485.53	67.88
485.71	105.32
485.89	37.45
486.07	0.00
486.25	91.28
486.43	21.06
486.61	14.04
486.78	32.77
486.96	39.79
487.14	74.90
487.32	9.36
487.50	11.70
487.68	102.98
487.85	0.00
488.03	16.38
488.21	9.36
488.39	28.09
488.57	0.00
488.75	77.24
488.92	93.62
489.10	35.11
489.28	28.09
489.46	23.41
489.64	16.38
489.81	18.72
489.99	56.17
490.17	51.49
490.35	56.17
490.53	91.28
490.70	58.51
490.88	67.88
491.06	39.79
491.24	49.15
491.41	18.72
491.59	42.13
491.77	0.00
491.95	93.62
492.13	67.88
492.30	65.54
492.48	9.36
492.66	98.30
492.84	2.34
493.01	39.79
493.19	72.56
493.37	58.51
493.54	86.60
493.72	67.88
493.90	0.00
494.08	72.56
494.25	30.43
494.43	35.11
494.61	60.85
494.79	56.17
494.96	42.13
495.14	28.09
495.32	0.00
495.49	0.00
495.67	88.94
495.85	72.56
496.02	16.38
496.20	44.47
496.38	51.49
496.55	9.36
496.73	11.70
496.91	42.13
497.09	39.79
497.26	0.00
497.44	4.68
497.62	49.15
497.79	0.00
497.97	67.88
498.14	63.19
498.32	42.13
498.50	65.54
498.67	25.75
498.85	56.17
499.03	42.13
499.20	39.79
499.38	14.04
499.56	77.24
499.73	91.28
499.91	35.11
500.08	30.43
500.26	30.43
500.44	121.71
500.61	30.43
500.79	14.04
500.97	0.00
501.14	44.47
501.32	35.11
501.49	51.49
501.67	21.06
501.84	44.47
502.02	7.02
502.20	63.19
502.37	0.00
502.55	58.51
502.72	35.11
502.90	42.13
503.07	70.22
503.25	0.00
503.43	32.77
503.60	35.11
503.78	28.09
503.95	67.88
504.13	21.06
504.30	65.54
504.48	0.00
504.65	35.11
504.83	14.04
505.01	44.47
505.18	70.22
505.36	51.49
505.53	58.51
505.71	91.28
505.88	25.75
506.06	70.22
506.23	0.00
506.41	25.75
506.58	65.54
506.76	58.51
506.93	42.13
507.11	25.75
507.28	60.85
507.46	4.68
507.63	0.00
507.81	49.15
507.98	0.00
508.16	30.43
508.33	0.00
508.50	56.17
508.68	37.45
508.85	58.51
509.03	53.83
509.20	56.17
509.38	0.00
509.55	30.43
509.73	65.54
509.90	98.30
510.08	0.00
510.25	86.60
510.42	35.11
510.60	0.00
510.77	28.09
510.95	23.41
511.12	70.22
511.30	39.79
511.47	0.00
511.64	49.15
511.82	0.00
511.99	93.62
512.17	0.00
512.34	0.00
512.51	7.02
512.69	79.58
512.86	14.04
513.04	32.77
513.21	35.11
513.38	42.13
513.56	21.06
513.73	63.19
513.90	46.81
514.08	16.38
514.25	79.58
514.43	0.00
514.60	42.13
514.77	0.00
514.95	7.02
515.12	0.00
515.29	42.13
515.47	70.22
515.64	0.00
515.81	0.00
515.99	32.77
516.16	46.81
516.33	93.62
516.51	35.11
516.68	44.47
516.85	25.75
517.03	0.00
517.20	21.06
517.37	81.92
517.54	51.49
517.72	42.13
517.89	14.04
518.06	67.88
518.24	0.00
518.41	32.77
518.58	4.68
518.75	30.43
518.93	23.41
519.10	28.09
519.27	60.85
519.45	86.60
519.62	21.06
519.79	25.75
519.96	0.00
520.14	0.00
520.31	53.83
520.48	9.36
520.65	58.51
520.83	0.00
521.00	21.06
521.17	0.00
521.34	0.00
521.52	93.62
521.69	72.56
521.86	107.66
522.03	44.47
522.20	30.43
522.38	37.45
522.55	91.28
522.72	14.04
522.89	74.90
523.07	2.34
523.24	49.15
523.41	56.17
523.58	65.54
523.75	44.47
523.92	28.09
524.10	84.26
524.27	74.90
524.44	46.81
524.61	110.01
524.78	0.00
524.96	0.00
525.13	112.35
525.30	21.06
525.47	72.56
525.64	39.79
525.81	30.43
525.98	60.85
526.16	4.68
526.33	67.88
526.50	0.00
526.67	65.54
526.84	39.79
527.01	0.00
527.18	35.11
527.36	63.19
527.53	53.83
527.70	67.88
527.87	32.77
528.04	46.81
528.21	53.83
528.38	77.24
528.55	14.04
528.72	0.00
528.89	23.41
529.07	56.17
529.24	35.11
529.41	79.58
529.58	0.00
529.75	30.43
529.92	70.22
530.09	37.45
530.26	16.38
530.43	131.07
530.60	84.26
530.77	60.85
530.94	46.81
531.11	98.30
531.28	0.00
531.46	91.28
531.63	0.00
531.80	95.96
531.97	44.47
532.14	44.47
532.31	0.00
532.48	60.85
532.65	44.47
532.82	72.56
532.99	35.11
533.16	81.92
533.33	58.51
533.50	35.11
533.67	0.00
533.84	46.81
534.01	49.15
534.18	63.19
534.35	100.64
534.52	21.06
534.69	23.41
534.86	2.34
535.03	53.83
535.20	14.04
535.37	23.41
535.54	37.45
535.71	46.81
535.88	60.85
536.05	88.94
536.22	107.66
536.38	37.45
536.55	28.09
536.72	91.28
536.89	44.47
537.06	63.19
537.23	14.04
537.40	53.83
537.57	79.58
537.74	112.35
537.91	18.72
538.08	2.34
538.25	35.11
538.42	28.09
538.59	37.45
538.75	53.83
538.92	28.09
539.09	25.75
539.26	18.72
539.43	39.79
539.60	63.19
539.77	63.19
539.94	65.54
540.11	100.64
540.28	44.47
540.44	65.54
540.61	9.36
540.78	60.85
540.95	53.83
541.12	84.26
541.29	56.17
541.46	49.15
541.62	37.45
541.79	9.36
541.96	102.98
542.13	100.64
542.30	30.43
542.47	117.03
542.63	67.88
542.80	14.04
542.97	86.60
543.14	37.45
543.31	25.75
543.48	70.22
543.64	91.28
543.81	21.06
543.98	0.00
544.15	74.90
544.32	44.47
544.48	114.69
544.65	88.94
544.82	46.81
544.99	46.81
545.16	81.92
545.32	32.77
545.49	0.00
545.66	11.70
545.83	37.45
546.00	93.62
546.16	0.00
546.33	81.92
546.50	18.72
546.67	39.79
546.83	67.88
547.00	91.28
547.17	0.00
547.34	2.34
547.50	39.79
547.67	98.30
547.84	72.56
548.00	67.88
548.17	18.72
548.34	72.56
548.51	102.98
548.67	51.49
548.84	51.49
549.01	117.03
549.18	142.77
549.34	0.00
549.51	84.26
549.68	0.00
549.84	65.54
550.01	21.06
550.18	39.79
550.34	56.17
550.51	21.06
550.68	25.75
550.84	2.34
551.01	32.77
551.18	46.81
551.34	98.30
551.51	56.17
551.68	100.64
551.84	49.15
552.01	56.17
552.18	81.92
552.34	46.81
552.51	21.06
552.68	114.69
552.84	100.64
553.01	16.38
553.18	35.11
553.34	37.45
553.51	86.60
553.67	0.00
553.84	95.96
554.01	42.13
554.17	74.90
554.34	14.04
554.51	32.77
554.67	110.01
554.84	63.19
555.00	53.83
555.17	44.47
555.33	37.45
555.50	30.43
555.67	37.45
555.83	0.00
556.00	23.41
556.16	37.45
556.33	0.00
556.50	32.77
556.66	4.68
556.83	60.85
556.99	74.90
557.16	44.47
557.32	72.56
557.49	112.35
557.65	0.00
557.82	14.04
557.98	11.70
558.15	63.19
558.32	16.38
558.48	30.43
558.65	42.13
558.81	58.51
558.98	60.85
559.14	63.19
559.31	46.81
559.47	56.17
559.64	25.75
559.80	4.68
559.97	65.54
560.13	46.81
560.30	16.38
560.46	28.09
560.63	84.26
560.79	53.83
560.96	53.83
561.12	23.41
561.29	16.38
561.45	93.62
561.61	77.24
561.78	42.13
561.94	102.98
562.11	21.06
562.27	46.81
562.44	7.02
562.60	65.54
562.77	0.00
562.93	42.13
563.10	58.51
563.26	63.19
563.42	105.32
563.59	0.00
563.75	0.00
563.92	44.47
564.08	0.00
564.24	102.98
564.41	32.77
564.57	42.13
564.74	65.54
564.90	49.15
565.07	11.70
565.23	39.79
565.39	21.06
565.56	4.68
565.72	67.88
565.88	65.54
566.05	0.00
566.21	37.45
566.38	37.45
566.54	21.06
566.70	49.15
566.87	84.26
567.03	11.70
567.19	79.58
567.36	53.83
567.52	72.56
567.68	16.38
567.85	63.19
568.01	7.02
568.17	0.00
568.34	67.88
568.50	39.79
568.66	77.24
568.83	49.15
568.99	77.24
569.15	53.83
569.32	51.49
569.48	67.88
569.64	65.54
569.81	0.00
569.97	110.01
570.13	30.43
570.30	65.54
570.46	0.00
570.62	86.60
570.78	58.51
570.95	58.51
571.11	72.56
571.27	46.81
571.43	14.04
571.60	30.43
571.76	44.47
571.92	37.45
572.09	37.45
572.25	110.01
572.41	23.41
572.57	42.13
572.74	67.88
572.90	46.81
573.06	58.51
573.22	35.11
573.38	88.94
573.55	79.58
573.71	84.26
573.87	51.49
574.03	4.68
574.20	114.69
574.36	70.22
574.52	42.13
574.68	63.19
574.84	28.09
575.01	0.00
575.17	51.49
575.33	72.56
575.49	25.75
575.65	32.77
575.82	56.17
575.98	0.00
576.14	0.00
576.30	51.49
576.46	100.64
576.62	49.15
576.79	0.00
576.95	114.69
577.11	70.22
577.27	84.26
577.43	44.47
577.59	7.02
577.75	0.00
577.92	0.00
578.08	102.98
578.24	18.72
578.40	126.39
578.56	9.36
578.72	114.69
578.88	0.00
579.04	53.83
579.21	105.32
579.37	0.00
579.53	53.83
579.69	18.72
579.85	0.00
580.01	107.66
580.17	0.00
580.33	46.81
580.49	53.83
580.65	53.83
580.82	14.04
580.98	53.83
581.14	0.00
581.30	0.00
581.46	72.56
581.62	53.83
581.78	39.79
581.94	42.13
582.10	30.43
582.26	0.00
582.42	35.11
582.58	42.13
582.74	0.00
582.90	16.38
583.06	142.77
583.22	18.72
583.38	44.47
583.54	18.72
583.70	0.00
583.86	23.41
584.02	37.45
584.18	39.79
584.34	9.36
584.50	163.84
584.66	564.07
584.82	1018.13
584.98	1266.23
585.14	959.62
585.30	648.33
585.46	517.26
585.62	325.33
585.78	198.95
585.94	84.26
586.10	60.85
586.26	39.79
586.42	0.00
586.58	88.94
586.74	58.51
586.90	110.01
587.06	131.07
587.22	21.06
587.38	77.24
587.54	88.94
587.70	110.01
587.86	100.64
588.02	21.06
588.18	74.90
588.34	110.01
588.49	35.11
588.65	63.19
588.81	39.79
588.97	58.51
589.13	37.45
589.29	16.38
589.45	23.41
589.61	49.15
589.77	46.81
589.93	51.49
590.08	63.19
590.24	25.75
590.40	46.81
590.56	0.00
590.72	30.43
590.88	49.15
591.04	56.17
591.20	51.49
591.35	0.00
591.51	23.41
591.67	23.41
591.83	39.79
591.99	0.00
592.15	0.00
592.31	21.06
592.46	4.68
592.62	0.00
592.78	2.34
592.94	7.02
593.10	16.38
593.26	0.00
593.41	67.88
593.57	42.13
593.73	28.09
593.89	117.03
594.05	133.41
594.20	154.48
594.36	208.31
594.52	121.71
594.68	86.60
594.84	102.98
594.99	56.17
595.15	18.72
595.31	37.45
595.47	25.75
595.62	32.77
595.78	35.11
595.94	51.49
596.10	11.70
596.25	9.36
596.41	0.00
596.57	70.22
596.73	53.83
596.88	46.81
597.04	81.92
597.20	81.92
597.36	42.13
597.51	60.85
597.67	67.88
597.83	131.07
597.99	56.17
598.14	32.77
598.30	46.81
598.46	42.13
598.61	0.00
598.77	35.11
598.93	70.22
599.09	9.36
599.24	16.38
599.40	91.28
599.56	0.00
599.71	35.11
599.87	14.04
600.03	0.00
600.18	32.77
600.34	56.17
600.50	65.54
600.65	84.26
600.81	0.00
600.97	72.56
601.12	44.47
601.28	16.38
601.44	0.00
601.59	35.11
601.75	53.83
601.91	28.09
602.06	23.41
602.22	0.00
602.37	21.06
602.53	117.03
602.69	149.79
602.84	0.00
603.00	42.13
603.16	42.13
603.31	51.49
603.47	25.75
603.62	28.09
603.78	39.79
603.94	42.13
604.09	39.79
604.25	39.79
604.40	44.47
604.56	67.88
604.71	114.69
604.87	133.41
605.03	49.15
605.18	23.41
605.34	18.72
605.49	39.79
605.65	37.45
605.80	28.09
605.96	72.56
606.12	98.30
606.27	23.41
606.43	35.11
606.58	81.92
606.74	39.79
606.89	93.62
607.05	161.50
607.20	234.05
607.36	100.64
607.51	72.56
607.67	37.45
607.82	44.47
607.98	0.00
608.13	25.75
608.29	67.88
608.44	0.00
608.60	30.43
608.75	72.56
608.91	70.22
609.06	107.66
609.22	173.20
609.37	273.84
609.53	215.33
609.68	88.94
609.84	168.52
609.99	187.24
610.15	100.64
610.30	93.62
610.46	63.19
610.61	0.00
610.76	65.54
610.92	37.45
611.07	37.45
611.23	46.81
611.38	9.36
611.54	46.81
611.69	56.17
611.84	74.90
612.00	2.34
612.15	0.00
612.31	72.56
612.46	56.17
612.62	56.17
612.77	35.11
612.92	74.90
613.08	25.75
613.23	88.94
613.39	77.24
613.54	16.38
613.69	117.03
613.85	269.16
614.00	374.49
614.15	339.38
614.31	285.55
614.46	168.52
614.62	142.77
614.77	58.51
614.92	56.17
615.08	42.13
615.23	79.58
615.38	0.00
615.54	35.11
615.69	100.64
615.84	35.11
616.00	107.66
616.15	149.79
616.30	88.94
616.46	84.26
616.61	42.13
616.76	46.81
616.92	7.02
617.07	95.96
617.22	16.38
617.37	51.49
617.53	0.00
617.68	0.00
617.83	51.49
617.99	46.81
618.14	16.38
618.29	32.77
618.45	25.75
618.60	88.94
618.75	25.75
618.90	72.56
619.06	77.24
619.21	72.56
619.36	32.77
619.51	119.37
619.67	0.00
619.82	21.06
619.97	4.68
620.12	152.13
620.28	25.75
620.43	56.17
620.58	67.88
620.73	16.38
620.89	42.13
621.04	16.38
621.19	107.66
621.34	32.77
621.49	51.49
621.65	77.24
621.80	79.58
621.95	58.51
622.10	7.02
622.25	84.26
622.41	7.02
622.56	145.11
622.71	84.26
622.86	37.45
623.01	0.00
623.16	67.88
623.32	42.13
623.47	72.56
623.62	88.94
623.77	98.30
623.92	39.79
624.07	28.09
624.23	23.41
624.38	79.58
624.53	84.26
624.68	4.68
624.83	14.04
624.98	28.09
625.13	72.56
625.29	110.01
625.44	72.56
625.59	77.24
625.74	14.04
625.89	95.96
626.04	138.09
626.19	163.84
626.34	149.79
626.49	208.31
626.65	224.69
626.80	110.01
626.95	46.81
627.10	23.41
627.25	119.37
627.40	25.75
627.55	67.88
627.70	9.36
627.85	7.02
628.00	11.70
628.15	39.79
628.30	0.00
628.45	37.45
628.60	0.00
628.76	63.19
628.91	0.00
629.06	7.02
629.21	53.83
629.36	23.41
629.51	0.00
629.66	37.45
629.81	58.51
629.96	110.01
630.11	88.94
630.26	49.15
630.41	65.54
630.56	114.69
630.71	58.51
630.86	37.45
631.01	4.68
631.16	14.04
631.31	32.77
631.46	9.36
631.61	63.19
631.76	18.72
631.91	65.54
632.06	37.45
632.21	37.45
632.36	51.49
632.51	32.77
632.66	23.41
632.81	84.26
632.96	180.22
633.10	145.11
633.25	147.45
633.40	105.32
633.55	159.16
633.70	100.64
633.85	110.01
634.00	105.32
634.15	0.00
634.30	46.81
634.45	0.00
634.60	0.00
634.75	18.72
634.90	30.43
635.05	30.43
635.19	63.19
635.34	0.00
635.49	9.36
635.64	37.45
635.79	28.09
635.94	23.41
636.09	42.13
636.24	0.00
636.39	56.17
636.53	70.22
636.68	2.34
636.83	70.22
636.98	58.51
637.13	0.00
637.28	35.11
637.43	0.00
637.57	0.00
637.72	56.17
637.87	217.67
638.02	271.50
638.17	245.76
638.32	259.80
638.46	180.22
638.61	131.07
638.76	131.07
638.91	105.32
639.06	56.17
639.20	39.79
639.35	0.00
639.50	86.60
639.65	149.79
639.80	287.89
639.94	395.55
640.09	393.21
640.24	339.38
640.39	198.95
640.54	142.77
640.68	138.09
640.83	0.00
640.98	32.77
641.13	32.77
641.27	25.75
641.42	42.13
641.57	49.15
641.72	23.41
641.86	42.13
642.01	0.00
642.16	16.38
642.31	56.17
642.45	161.50
642.60	53.83
642.75	42.13
642.90	0.00
643.04	0.00
643.19	53.83
643.34	0.00
643.48	102.98
643.63	25.75
643.78	74.90
643.93	0.00
644.07	51.49
644.22	58.51
644.37	95.96
644.51	0.00
644.66	30.43
644.81	65.54
644.95	9.36
645.10	0.00
645.25	65.54
645.39	0.00
645.54	4.68
645.69	28.09
645.83	0.00
645.98	37.45
646.13	23.41
646.27	0.00
646.42	14.04
646.57	0.00
646.71	21.06
646.86	65.54
647.00	74.90
647.15	0.00
647.30	79.58
647.44	16.38
647.59	0.00
647.74	67.88
647.88	110.01
648.03	14.04
648.17	32.77
648.32	65.54
648.47	65.54
648.61	16.38
648.76	0.00
648.90	14.04
649.05	0.00
649.20	0.00
649.34	0.00
649.49	65.54
649.63	74.90
649.78	25.75
649.92	42.13
650.07	37.45
650.21	107.66
650.36	198.95
650.51	229.37
650.65	170.86
650.80	147.45
650.94	105.32
651.09	11.70
651.23	37.45
651.38	0.00
651.52	42.13
651.67	53.83
651.81	0.00
651.96	46.81
652.10	77.24
652.25	0.00
652.39	28.09
652.54	72.56
652.68	102.98
652.83	98.30
652.97	98.30
653.12	107.66
653.26	65.54
653.41	107.66
653.55	37.45
653.70	67.88
653.84	46.81
653.99	11.70
654.13	18.72
654.27	63.19
654.42	25.75
654.56	32.77
654.71	23.41
654.85	107.66
655.00	25.75
655.14	42.13
655.29	49.15
655.43	124.05
655.57	53.83
655.72	63.19
655.86	63.19
656.01	4.68
656.15	21.06
656.30	0.00
656.44	72.56
656.58	9.36
656.73	0.00
656.87	53.83
657.01	37.45
657.16	32.77
657.30	2.34
657.45	74.90
657.59	67.88
657.73	79.58
657.88	37.45
658.02	102.98
658.16	70.22
658.31	51.49
658.45	21.06
658.60	42.13
658.74	4.68
658.88	0.00
659.03	44.47
659.17	0.00
659.31	49.15
659.46	163.84
659.60	67.88
659.74	114.69
659.89	2.34
660.03	98.30
660.17	2.34
660.32	100.64
660.46	0.00
660.60	23.41
660.74	60.85
660.89	37.45
661.03	14.04
661.17	70.22
661.32	25.75
661.46	56.17
661.60	21.06
661.74	28.09
661.89	63.19
662.03	39.79
662.17	4.68
662.31	0.00
662.46	56.17
662.60	28.09
662.74	9.36
662.88	28.09
663.03	102.98
663.17	18.72
663.31	0.00
663.45	21.06
663.60	0.00
663.74	32.77
663.88	46.81
664.02	51.49
664.17	14.04
664.31	14.04
664.45	86.60
664.59	51.49
664.73	46.81
664.88	39.79
665.02	18.72
665.16	42.13
665.30	105.32
665.44	9.36
665.59	0.00
665.73	49.15
665.87	79.58
666.01	28.09
666.15	11.70
666.29	2.34
666.44	88.94
666.58	65.54
666.72	53.83
666.86	53.83
667.00	44.47
667.14	53.83
667.28	35.11
667.43	156.82
667.57	201.29
667.71	187.24
667.85	170.86
667.99	133.41
668.13	44.47
668.27	95.96
668.41	65.54
668.56	105.32
668.70	35.11
668.84	4.68
668.98	18.72
669.12	0.00
669.26	72.56
669.40	0.00
669.54	128.73
669.68	30.43
669.82	0.00
669.96	72.56
670.10	65.54
670.25	74.90
670.39	23.41
670.53	18.72
670.67	0.00
670.81	53.83
670.95	58.51
671.09	11.70
671.23	133.41
671.37	156.82
671.51	126.39
671.65	128.73
671.79	105.32
671.93	0.00
672.07	93.62
672.21	30.43
672.35	67.88
672.49	0.00
672.63	60.85
672.77	44.47
672.91	51.49
673.05	56.17
673.19	70.22
673.33	0.00
673.47	86.60
673.61	30.43
673.75	37.45
673.89	81.92
674.03	107.66
674.17	49.15
674.31	18.72
674.45	0.00
674.59	133.41
674.73	14.04
674.87	35.11
675.01	42.13
675.15	39.79
675.29	32.77
675.43	0.00
675.56	32.77
675.70	25.75
675.84	25.75
675.98	53.83
676.12	88.94
676.26	65.54
676.40	0.00
676.54	16.38
676.68	35.11
676.82	28.09
676.96	0.00
677.10	23.41
677.23	0.00
677.37	11.70
677.51	65.54
677.65	23.41
677.79	56.17
677.93	32.77
678.07	14.04
678.21	70.22
678.34	23.41
678.48	0.00
678.62	18.72
678.76	95.96
678.90	4.68
679.04	0.00
679.18	28.09
679.31	37.45
679.45	46.81
679.59	81.92
679.73	16.38
679.87	0.00
680.00	4.68
680.14	42.13
680.28	51.49
680.42	53.83
680.56	56.17
680.70	95.96
680.83	18.72
680.97	49.15
681.11	77.24
681.25	23.41
681.39	28.09
681.52	53.83
681.66	35.11
681.80	88.94
681.94	53.83
682.07	14.04
682.21	18.72
682.35	88.94
682.49	70.22
682.62	51.49
682.76	18.72
682.90	51.49
683.04	23.41
683.17	42.13
683.31	51.49
683.45	28.09
683.59	2.34
683.72	0.00
683.86	49.15
684.00	93.62
684.13	70.22
684.27	21.06
684.41	0.00
684.55	4.68
684.68	72.56
684.82	46.81
684.96	77.24
685.09	72.56
685.23	0.00
685.37	16.38
685.50	25.75
685.64	93.62
685.78	32.77
685.91	35.11
686.05	0.00
686.19	7.02
686.32	53.83
686.46	14.04
686.60	0.00
686.73	0.00
686.87	21.06
687.01	53.83
687.14	77.24
687.28	0.00
687.42	0.00
687.55	49.15
687.69	121.71
687.82	49.15
687.96	16.38
688.10	46.81
688.23	65.54
688.37	11.70
688.50	63.19
688.64	4.68
688.78	0.00
688.91	23.41
689.05	46.81
689.18	0.00
689.32	56.17
689.46	0.00
689.59	0.00
689.73	35.11
689.86	88.94
690.00	79.58
690.13	77.24
690.27	51.49
690.41	60.85
690.54	84.26
690.68	65.54
690.81	4.68
690.95	67.88
691.08	56.17
691.22	0.00
691.35	37.45
691.49	35.11
691.62	14.04
691.76	16.38
691.89	2.34
692.03	18.72
692.16	0.00
692.30	74.90
692.43	88.94
692.57	117.03
692.70	63.19
692.84	98.30
692.97	93.62
693.11	77.24
693.24	16.38
693.38	63.19
693.51	58.51
693.65	0.00
693.78	23.41
693.92	23.41
694.05	0.00
694.19	11.70
694.32	46.81
694.45	46.81
694.59	14.04
694.72	65.54
694.86	18.72
694.99	35.11
695.13	16.38
695.26	46.81
695.39	0.00
695.53	93.62
695.66	0.00
695.80	44.47
695.93	49.15
696.07	63.19
696.20	49.15
696.33	32.77
696.47	63.19
696.60	0.00
696.73	72.56
696.87	30.43
697.00	21.06
697.14	79.58
697.27	51.49
697.40	18.72
697.54	51.49
697.67	16.38
697.80	9.36
697.94	77.24
698.07	72.56
698.21	32.77
698.34	0.00
698.47	60.85
698.61	70.22
698.74	88.94
698.87	79.58
699.01	11.70
699.14	9.36
699.27	35.11
699.40	7.02
699.54	65.54
699.67	0.00
699.80	4.68
699.94	44.47
700.07	4.68
700.20	18.72
700.34	0.00
700.47	0.00
700.60	0.00
700.73	74.90
700.87	21.06
701.00	0.00
701.13	30.43
701.26	28.09
701.40	88.94
701.53	93.62
701.66	0.00
701.79	28.09
701.93	42.13
702.06	46.81
702.19	4.68
702.32	32.77
702.46	138.09
702.59	0.00
702.72	23.41
702.85	100.64
702.99	140.43
703.12	243.42
703.25	177.88
703.38	131.07
703.51	119.37
703.65	86.60
703.78	77.24
703.91	117.03
704.04	42.13
704.17	28.09
704.31	63.19
704.44	9.36
704.57	51.49
704.70	58.51
704.83	14.04
704.96	11.70
705.10	46.81
705.23	114.69
>>>>>End Processed Spectral Data<<<<<
