SpectraSuite Data File
++++++++++++++++++++++++++++++++++++
Date: Fri Oct 04 12:13:35 GMT-05:00 2013
User: price-jones
Dark Spectrum Present: No
Reference Spectrum Present: No
Number of Sampled Component Spectra: 1
Spectrometers: USB2+H05261
Integration Time (usec): 10000 (USB2+H05261)
Spectra Averaged: 1 (USB2+H05261)
Boxcar Smoothing: 0 (USB2+H05261)
Correct for Electrical Dark: No (USB2+H05261)
Strobe/Lamp Enabled: No (USB2+H05261)
Correct for Detector Non-linearity: No (USB2+H05261)
Correct for Stray Light: No (USB2+H05261)
Number of Pixels in Processed Spectrum: 2048
>>>>>Begin Processed Spectral Data<<<<<
365.73	0.00
365.92	0.00
366.12	0.00
366.32	0.00
366.52	0.00
366.72	0.00
366.91	0.00
367.11	0.00
367.31	0.00
367.51	0.00
367.70	0.00
367.90	0.00
368.10	0.00
368.30	0.00
368.49	0.00
368.69	0.00
368.89	0.00
369.09	0.00
369.28	0.00
369.48	0.00
369.68	0.00
369.87	0.00
370.07	0.00
370.27	0.00
370.47	0.00
370.66	0.00
370.86	0.00
371.06	0.00
371.25	0.00
371.45	0.00
371.65	0.00
371.84	0.00
372.04	0.00
372.24	4.68
372.44	18.72
372.63	39.79
372.83	9.36
373.03	0.00
373.22	37.45
373.42	0.00
373.62	67.88
373.81	11.70
374.01	4.68
374.21	0.00
374.40	9.36
374.60	21.06
374.79	32.77
374.99	0.00
375.19	70.22
375.38	32.77
375.58	35.11
375.78	0.00
375.97	88.94
376.17	11.70
376.37	35.11
376.56	0.00
376.76	0.00
376.95	56.17
377.15	0.00
377.35	32.77
377.54	18.72
377.74	67.88
377.93	39.79
378.13	60.85
378.33	2.34
378.52	21.06
378.72	46.81
378.91	67.88
379.11	4.68
379.31	23.41
379.50	30.43
379.70	11.70
379.89	0.00
380.09	32.77
380.28	39.79
380.48	0.00
380.68	25.75
380.87	0.00
381.07	86.60
381.26	23.41
381.46	0.00
381.65	0.00
381.85	0.00
382.04	0.00
382.24	0.00
382.43	25.75
382.63	11.70
382.83	2.34
383.02	0.00
383.22	7.02
383.41	60.85
383.61	35.11
383.80	25.75
384.00	0.00
384.19	0.00
384.39	0.00
384.58	44.47
384.78	14.04
384.97	0.00
385.17	16.38
385.36	42.13
385.56	0.00
385.75	102.98
385.95	0.00
386.14	25.75
386.34	0.00
386.53	18.72
386.72	70.22
386.92	30.43
387.11	11.70
387.31	46.81
387.50	7.02
387.70	72.56
387.89	39.79
388.09	49.15
388.28	23.41
388.48	35.11
388.67	0.00
388.86	67.88
389.06	0.00
389.25	0.00
389.45	0.00
389.64	67.88
389.84	44.47
390.03	37.45
390.22	42.13
390.42	0.00
390.61	0.00
390.81	56.17
391.00	0.00
391.19	2.34
391.39	72.56
391.58	58.51
391.78	49.15
391.97	65.54
392.16	0.00
392.36	60.85
392.55	21.06
392.75	70.22
392.94	65.54
393.13	0.00
393.33	0.00
393.52	0.00
393.71	0.00
393.91	93.62
394.10	44.47
394.29	30.43
394.49	28.09
394.68	63.19
394.88	14.04
395.07	32.77
395.26	21.06
395.46	60.85
395.65	42.13
395.84	42.13
396.04	79.58
396.23	44.47
396.42	0.00
396.62	53.83
396.81	70.22
397.00	46.81
397.19	39.79
397.39	0.00
397.58	4.68
397.77	0.00
397.97	21.06
398.16	49.15
398.35	51.49
398.55	53.83
398.74	16.38
398.93	37.45
399.12	0.00
399.32	0.00
399.51	0.00
399.70	49.15
399.90	0.00
400.09	39.79
400.28	77.24
400.47	79.58
400.67	11.70
400.86	0.00
401.05	0.00
401.24	14.04
401.44	91.28
401.63	39.79
401.82	70.22
402.01	39.79
402.21	51.49
402.40	21.06
402.59	63.19
402.78	60.85
402.97	0.00
403.17	35.11
403.36	147.45
403.55	25.75
403.74	65.54
403.93	79.58
404.13	81.92
404.32	70.22
404.51	77.24
404.70	0.00
404.89	67.88
405.09	9.36
405.28	102.98
405.47	23.41
405.66	49.15
405.85	23.41
406.05	0.00
406.24	16.38
406.43	67.88
406.62	86.60
406.81	30.43
407.00	102.98
407.20	0.00
407.39	56.17
407.58	23.41
407.77	7.02
407.96	21.06
408.15	0.00
408.34	0.00
408.54	0.00
408.73	67.88
408.92	28.09
409.11	16.38
409.30	0.00
409.49	0.00
409.68	77.24
409.87	0.00
410.07	44.47
410.26	86.60
410.45	11.70
410.64	14.04
410.83	4.68
411.02	2.34
411.21	7.02
411.40	0.00
411.59	7.02
411.78	46.81
411.98	65.54
412.17	28.09
412.36	95.96
412.55	105.32
412.74	14.04
412.93	114.69
413.12	79.58
413.31	58.51
413.50	16.38
413.69	72.56
413.88	37.45
414.07	32.77
414.26	60.85
414.45	0.00
414.64	42.13
414.83	0.00
415.02	0.00
415.22	79.58
415.41	105.32
415.60	37.45
415.79	0.00
415.98	42.13
416.17	32.77
416.36	44.47
416.55	32.77
416.74	32.77
416.93	23.41
417.12	46.81
417.31	72.56
417.50	49.15
417.69	65.54
417.88	0.00
418.07	0.00
418.26	53.83
418.45	63.19
418.64	23.41
418.83	49.15
419.02	30.43
419.21	51.49
419.39	161.50
419.58	25.75
419.77	60.85
419.96	14.04
420.15	23.41
420.34	51.49
420.53	44.47
420.72	86.60
420.91	77.24
421.10	37.45
421.29	81.92
421.48	30.43
421.67	11.70
421.86	49.15
422.05	0.00
422.24	53.83
422.43	39.79
422.61	0.00
422.80	32.77
422.99	9.36
423.18	42.13
423.37	0.00
423.56	21.06
423.75	56.17
423.94	16.38
424.13	67.88
424.32	67.88
424.50	49.15
424.69	74.90
424.88	131.07
425.07	0.00
425.26	32.77
425.45	112.35
425.64	9.36
425.83	46.81
426.01	37.45
426.20	91.28
426.39	49.15
426.58	140.43
426.77	4.68
426.96	74.90
427.15	11.70
427.33	18.72
427.52	4.68
427.71	42.13
427.90	84.26
428.09	93.62
428.28	16.38
428.46	56.17
428.65	60.85
428.84	44.47
429.03	0.00
429.22	0.00
429.40	30.43
429.59	51.49
429.78	42.13
429.97	42.13
430.16	23.41
430.34	0.00
430.53	7.02
430.72	84.26
430.91	32.77
431.10	72.56
431.28	0.00
431.47	37.45
431.66	42.13
431.85	100.64
432.03	0.00
432.22	0.00
432.41	0.00
432.60	32.77
432.79	67.88
432.97	56.17
433.16	7.02
433.35	81.92
433.54	11.70
433.72	0.00
433.91	56.17
434.10	49.15
434.28	53.83
434.47	4.68
434.66	49.15
434.85	63.19
435.03	25.75
435.22	42.13
435.41	44.47
435.59	16.38
435.78	0.00
435.97	23.41
436.16	88.94
436.34	28.09
436.53	4.68
436.72	77.24
436.90	81.92
437.09	14.04
437.28	0.00
437.46	79.58
437.65	67.88
437.84	67.88
438.02	0.00
438.21	4.68
438.40	28.09
438.58	53.83
438.77	23.41
438.96	77.24
439.14	100.64
439.33	30.43
439.52	18.72
439.70	21.06
439.89	126.39
440.08	88.94
440.26	58.51
440.45	21.06
440.63	18.72
440.82	60.85
441.01	72.56
441.19	56.17
441.38	65.54
441.57	37.45
441.75	93.62
441.94	56.17
442.12	91.28
442.31	72.56
442.50	11.70
442.68	114.69
442.87	88.94
443.05	39.79
443.24	51.49
443.43	65.54
443.61	131.07
443.80	74.90
443.98	7.02
444.17	28.09
444.35	79.58
444.54	49.15
444.73	86.60
444.91	11.70
445.10	110.01
445.28	51.49
445.47	11.70
445.65	58.51
445.84	70.22
446.02	63.19
446.21	0.00
446.39	0.00
446.58	79.58
446.77	32.77
446.95	42.13
447.14	88.94
447.32	11.70
447.51	102.98
447.69	30.43
447.88	4.68
448.06	84.26
448.25	0.00
448.43	88.94
448.62	32.77
448.80	7.02
448.99	39.79
449.17	72.56
449.36	67.88
449.54	42.13
449.73	70.22
449.91	105.32
450.10	72.56
450.28	28.09
450.46	81.92
450.65	9.36
450.83	16.38
451.02	21.06
451.20	88.94
451.39	86.60
451.57	25.75
451.76	102.98
451.94	79.58
452.13	65.54
452.31	102.98
452.49	42.13
452.68	0.00
452.86	44.47
453.05	79.58
453.23	49.15
453.42	77.24
453.60	0.00
453.78	119.37
453.97	117.03
454.15	23.41
454.34	100.64
454.52	67.88
454.70	53.83
454.89	4.68
455.07	77.24
455.26	32.77
455.44	56.17
455.62	9.36
455.81	53.83
455.99	72.56
456.17	37.45
456.36	35.11
456.54	49.15
456.73	30.43
456.91	51.49
457.09	65.54
457.28	53.83
457.46	49.15
457.64	7.02
457.83	81.92
458.01	2.34
458.19	0.00
458.38	37.45
458.56	81.92
458.74	81.92
458.93	49.15
459.11	70.22
459.29	9.36
459.48	16.38
459.66	84.26
459.84	131.07
460.03	56.17
460.21	128.73
460.39	67.88
460.57	0.00
460.76	84.26
460.94	84.26
461.12	56.17
461.31	44.47
461.49	95.96
461.67	79.58
461.85	56.17
462.04	60.85
462.22	124.05
462.40	121.71
462.59	42.13
462.77	91.28
462.95	65.54
463.13	79.58
463.32	88.94
463.50	70.22
463.68	32.77
463.86	53.83
464.05	4.68
464.23	21.06
464.41	114.69
464.59	88.94
464.78	60.85
464.96	39.79
465.14	11.70
465.32	30.43
465.50	28.09
465.69	0.00
465.87	72.56
466.05	53.83
466.23	0.00
466.41	49.15
466.60	98.30
466.78	91.28
466.96	86.60
467.14	86.60
467.32	63.19
467.51	58.51
467.69	30.43
467.87	79.58
468.05	16.38
468.23	93.62
468.41	56.17
468.60	86.60
468.78	119.37
468.96	0.00
469.14	28.09
469.32	21.06
469.50	58.51
469.69	42.13
469.87	18.72
470.05	35.11
470.23	81.92
470.41	0.00
470.59	18.72
470.77	44.47
470.95	21.06
471.14	0.00
471.32	93.62
471.50	88.94
471.68	32.77
471.86	91.28
472.04	100.64
472.22	91.28
472.40	21.06
472.58	0.00
472.77	124.05
472.95	16.38
473.13	91.28
473.31	88.94
473.49	32.77
473.67	56.17
473.85	58.51
474.03	67.88
474.21	100.64
474.39	124.05
474.57	112.35
474.75	77.24
474.93	18.72
475.12	84.26
475.30	7.02
475.48	65.54
475.66	56.17
475.84	14.04
476.02	30.43
476.20	86.60
476.38	51.49
476.56	67.88
476.74	0.00
476.92	86.60
477.10	42.13
477.28	70.22
477.46	0.00
477.64	32.77
477.82	23.41
478.00	42.13
478.18	37.45
478.36	91.28
478.54	86.60
478.72	37.45
478.90	60.85
479.08	81.92
479.26	81.92
479.44	58.51
479.62	56.17
479.80	60.85
479.98	98.30
480.16	105.32
480.34	77.24
480.52	98.30
480.70	67.88
480.88	32.77
481.06	2.34
481.24	51.49
481.41	42.13
481.59	107.66
481.77	72.56
481.95	14.04
482.13	77.24
482.31	77.24
482.49	53.83
482.67	70.22
482.85	114.69
483.03	42.13
483.21	60.85
483.39	91.28
483.57	46.81
483.74	114.69
483.92	88.94
484.10	32.77
484.28	79.58
484.46	60.85
484.64	46.81
484.82	56.17
485.00	49.15
485.18	42.13
485.35	46.81
485.53	37.45
485.71	65.54
485.89	44.47
486.07	49.15
486.25	42.13
486.43	102.98
486.61	121.71
486.78	49.15
486.96	110.01
487.14	51.49
487.32	56.17
487.50	70.22
487.68	44.47
487.85	117.03
488.03	74.90
488.21	51.49
488.39	100.64
488.57	0.00
488.75	117.03
488.92	39.79
489.10	77.24
489.28	74.90
489.46	70.22
489.64	37.45
489.81	110.01
489.99	30.43
490.17	60.85
490.35	84.26
490.53	84.26
490.70	0.00
490.88	63.19
491.06	70.22
491.24	63.19
491.41	79.58
491.59	70.22
491.77	67.88
491.95	30.43
492.13	133.41
492.30	28.09
492.48	67.88
492.66	39.79
492.84	44.47
493.01	2.34
493.19	28.09
493.37	86.60
493.54	84.26
493.72	133.41
493.90	49.15
494.08	0.00
494.25	100.64
494.43	67.88
494.61	128.73
494.79	86.60
494.96	77.24
495.14	86.60
495.32	100.64
495.49	131.07
495.67	110.01
495.85	39.79
496.02	53.83
496.20	93.62
496.38	98.30
496.55	126.39
496.73	84.26
496.91	161.50
497.09	84.26
497.26	88.94
497.44	119.37
497.62	114.69
497.79	67.88
497.97	133.41
498.14	98.30
498.32	49.15
498.50	86.60
498.67	88.94
498.85	74.90
499.03	60.85
499.20	86.60
499.38	25.75
499.56	133.41
499.73	84.26
499.91	88.94
500.08	39.79
500.26	147.45
500.44	95.96
500.61	117.03
500.79	49.15
500.97	53.83
501.14	107.66
501.32	23.41
501.49	107.66
501.67	81.92
501.84	30.43
502.02	67.88
502.20	44.47
502.37	16.38
502.55	84.26
502.72	60.85
502.90	117.03
503.07	63.19
503.25	67.88
503.43	110.01
503.60	11.70
503.78	58.51
503.95	88.94
504.13	79.58
504.30	117.03
504.48	124.05
504.65	107.66
504.83	70.22
505.01	74.90
505.18	105.32
505.36	81.92
505.53	81.92
505.71	102.98
505.88	74.90
506.06	67.88
506.23	107.66
506.41	126.39
506.58	21.06
506.76	67.88
506.93	51.49
507.11	74.90
507.28	35.11
507.46	110.01
507.63	102.98
507.81	37.45
507.98	16.38
508.16	60.85
508.33	112.35
508.50	44.47
508.68	88.94
508.85	32.77
509.03	63.19
509.20	102.98
509.38	58.51
509.55	72.56
509.73	112.35
509.90	51.49
510.08	25.75
510.25	21.06
510.42	114.69
510.60	44.47
510.77	72.56
510.95	81.92
511.12	147.45
511.30	32.77
511.47	95.96
511.64	72.56
511.82	53.83
511.99	53.83
512.17	88.94
512.34	56.17
512.51	102.98
512.69	77.24
512.86	49.15
513.04	60.85
513.21	72.56
513.38	154.48
513.56	25.75
513.73	79.58
513.90	35.11
514.08	95.96
514.25	88.94
514.43	39.79
514.60	32.77
514.77	98.30
514.95	67.88
515.12	35.11
515.29	142.77
515.47	70.22
515.64	112.35
515.81	110.01
515.99	131.07
516.16	84.26
516.33	51.49
516.51	86.60
516.68	74.90
516.85	46.81
517.03	81.92
517.20	32.77
517.37	9.36
517.54	32.77
517.72	11.70
517.89	84.26
518.06	86.60
518.24	100.64
518.41	63.19
518.58	77.24
518.75	32.77
518.93	100.64
519.10	105.32
519.27	53.83
519.45	70.22
519.62	138.09
519.79	44.47
519.96	84.26
520.14	100.64
520.31	58.51
520.48	65.54
520.65	42.13
520.83	119.37
521.00	67.88
521.17	102.98
521.34	81.92
521.52	133.41
521.69	142.77
521.86	72.56
522.03	93.62
522.20	81.92
522.38	51.49
522.55	93.62
522.72	49.15
522.89	32.77
523.07	28.09
523.24	93.62
523.41	114.69
523.58	117.03
523.75	46.81
523.92	88.94
524.10	74.90
524.27	140.43
524.44	105.32
524.61	79.58
524.78	91.28
524.96	39.79
525.13	35.11
525.30	91.28
525.47	51.49
525.64	81.92
525.81	107.66
525.98	77.24
526.16	74.90
526.33	51.49
526.50	88.94
526.67	91.28
526.84	18.72
527.01	98.30
527.18	42.13
527.36	119.37
527.53	126.39
527.70	105.32
527.87	88.94
528.04	53.83
528.21	46.81
528.38	110.01
528.55	107.66
528.72	156.82
528.89	149.79
529.07	131.07
529.24	70.22
529.41	84.26
529.58	133.41
529.75	93.62
529.92	37.45
530.09	51.49
530.26	105.32
530.43	140.43
530.60	25.75
530.77	67.88
530.94	156.82
531.11	112.35
531.28	56.17
531.46	100.64
531.63	63.19
531.80	152.13
531.97	56.17
532.14	105.32
532.31	100.64
532.48	149.79
532.65	124.05
532.82	30.43
532.99	23.41
533.16	70.22
533.33	91.28
533.50	107.66
533.67	105.32
533.84	84.26
534.01	88.94
534.18	58.51
534.35	133.41
534.52	81.92
534.69	81.92
534.86	0.00
535.03	88.94
535.20	49.15
535.37	91.28
535.54	79.58
535.71	95.96
535.88	142.77
536.05	28.09
536.22	91.28
536.38	81.92
536.55	84.26
536.72	117.03
536.89	161.50
537.06	44.47
537.23	0.00
537.40	95.96
537.57	58.51
537.74	121.71
537.91	154.48
538.08	18.72
538.25	147.45
538.42	98.30
538.59	58.51
538.75	32.77
538.92	67.88
539.09	44.47
539.26	102.98
539.43	119.37
539.60	88.94
539.77	46.81
539.94	74.90
540.11	105.32
540.28	56.17
540.44	91.28
540.61	100.64
540.78	84.26
540.95	128.73
541.12	128.73
541.29	51.49
541.46	0.00
541.62	49.15
541.79	107.66
541.96	23.41
542.13	81.92
542.30	81.92
542.47	98.30
542.63	124.05
542.80	100.64
542.97	81.92
543.14	72.56
543.31	72.56
543.48	74.90
543.64	102.98
543.81	95.96
543.98	88.94
544.15	42.13
544.32	86.60
544.48	74.90
544.65	93.62
544.82	32.77
544.99	32.77
545.16	93.62
545.32	42.13
545.49	81.92
545.66	88.94
545.83	42.13
546.00	0.00
546.16	149.79
546.33	100.64
546.50	124.05
546.67	117.03
546.83	51.49
547.00	117.03
547.17	119.37
547.34	93.62
547.50	7.02
547.67	39.79
547.84	121.71
548.00	133.41
548.17	46.81
548.34	138.09
548.51	49.15
548.67	112.35
548.84	67.88
549.01	154.48
549.18	93.62
549.34	0.00
549.51	28.09
549.68	49.15
549.84	84.26
550.01	65.54
550.18	175.54
550.34	63.19
550.51	77.24
550.68	74.90
550.84	23.41
551.01	102.98
551.18	56.17
551.34	0.00
551.51	42.13
551.68	74.90
551.84	126.39
552.01	65.54
552.18	149.79
552.34	25.75
552.51	145.11
552.68	63.19
552.84	86.60
553.01	156.82
553.18	126.39
553.34	156.82
553.51	124.05
553.67	86.60
553.84	133.41
554.01	60.85
554.17	25.75
554.34	98.30
554.51	86.60
554.67	86.60
554.84	93.62
555.00	100.64
555.17	58.51
555.33	67.88
555.50	46.81
555.67	67.88
555.83	7.02
556.00	37.45
556.16	49.15
556.33	70.22
556.50	60.85
556.66	67.88
556.83	14.04
556.99	77.24
557.16	154.48
557.32	14.04
557.49	88.94
557.65	67.88
557.82	72.56
557.98	84.26
558.15	67.88
558.32	110.01
558.48	74.90
558.65	72.56
558.81	58.51
558.98	67.88
559.14	74.90
559.31	72.56
559.47	63.19
559.64	147.45
559.80	49.15
559.97	100.64
560.13	30.43
560.30	79.58
560.46	98.30
560.63	147.45
560.79	16.38
560.96	30.43
561.12	105.32
561.29	107.66
561.45	81.92
561.61	79.58
561.78	65.54
561.94	102.98
562.11	74.90
562.27	0.00
562.44	149.79
562.60	154.48
562.77	46.81
562.93	32.77
563.10	63.19
563.26	14.04
563.42	135.75
563.59	110.01
563.75	60.85
563.92	138.09
564.08	93.62
564.24	93.62
564.41	35.11
564.57	88.94
564.74	67.88
564.90	102.98
565.07	119.37
565.23	105.32
565.39	58.51
565.56	84.26
565.72	51.49
565.88	60.85
566.05	2.34
566.21	86.60
566.38	74.90
566.54	79.58
566.70	100.64
566.87	14.04
567.03	98.30
567.19	32.77
567.36	46.81
567.52	30.43
567.68	58.51
567.85	56.17
568.01	2.34
568.17	46.81
568.34	39.79
568.50	117.03
568.66	112.35
568.83	107.66
568.99	100.64
569.15	95.96
569.32	7.02
569.48	86.60
569.64	4.68
569.81	0.00
569.97	42.13
570.13	74.90
570.30	42.13
570.46	135.75
570.62	77.24
570.78	145.11
570.95	11.70
571.11	44.47
571.27	46.81
571.43	0.00
571.60	14.04
571.76	84.26
571.92	93.62
572.09	28.09
572.25	126.39
572.41	65.54
572.57	95.96
572.74	56.17
572.90	107.66
573.06	107.66
573.22	140.43
573.38	53.83
573.55	91.28
573.71	46.81
573.87	67.88
574.03	58.51
574.20	16.38
574.36	138.09
574.52	74.90
574.68	102.98
574.84	114.69
575.01	84.26
575.17	60.85
575.33	39.79
575.49	138.09
575.65	42.13
575.82	53.83
575.98	7.02
576.14	138.09
576.30	95.96
576.46	88.94
576.62	72.56
576.79	95.96
576.95	30.43
577.11	74.90
577.27	102.98
577.43	72.56
577.59	84.26
577.75	51.49
577.92	84.26
578.08	98.30
578.24	51.49
578.40	67.88
578.56	119.37
578.72	95.96
578.88	88.94
579.04	131.07
579.21	117.03
579.37	70.22
579.53	49.15
579.69	93.62
579.85	100.64
580.01	110.01
580.17	70.22
580.33	4.68
580.49	86.60
580.65	131.07
580.82	23.41
580.98	112.35
581.14	163.84
581.30	67.88
581.46	74.90
581.62	138.09
581.78	142.77
581.94	124.05
582.10	142.77
582.26	70.22
582.42	147.45
582.58	28.09
582.74	0.00
582.90	93.62
583.06	11.70
583.22	86.60
583.38	79.58
583.54	21.06
583.70	77.24
583.86	77.24
584.02	53.83
584.18	58.51
584.34	77.24
584.50	60.85
584.66	138.09
584.82	93.62
584.98	53.83
585.14	95.96
585.30	91.28
585.46	9.36
585.62	49.15
585.78	23.41
585.94	135.75
586.10	102.98
586.26	72.56
586.42	35.11
586.58	138.09
586.74	42.13
586.90	58.51
587.06	63.19
587.22	114.69
587.38	72.56
587.54	32.77
587.70	81.92
587.86	67.88
588.02	100.64
588.18	35.11
588.34	60.85
588.49	16.38
588.65	28.09
588.81	56.17
588.97	0.00
589.13	37.45
589.29	70.22
589.45	49.15
589.61	88.94
589.77	117.03
589.93	112.35
590.08	88.94
590.24	14.04
590.40	11.70
590.56	53.83
590.72	60.85
590.88	63.19
591.04	77.24
591.20	110.01
591.35	166.18
591.51	145.11
591.67	58.51
591.83	56.17
591.99	58.51
592.15	74.90
592.31	121.71
592.46	67.88
592.62	72.56
592.78	93.62
592.94	37.45
593.10	98.30
593.26	18.72
593.41	18.72
593.57	30.43
593.73	35.11
593.89	53.83
594.05	39.79
594.20	0.00
594.36	79.58
594.52	121.71
594.68	46.81
594.84	105.32
594.99	65.54
595.15	72.56
595.31	60.85
595.47	0.00
595.62	93.62
595.78	114.69
595.94	86.60
596.10	32.77
596.25	100.64
596.41	100.64
596.57	0.00
596.73	42.13
596.88	46.81
597.04	119.37
597.20	79.58
597.36	88.94
597.51	42.13
597.67	72.56
597.83	0.00
597.99	81.92
598.14	102.98
598.30	95.96
598.46	91.28
598.61	25.75
598.77	0.00
598.93	49.15
599.09	53.83
599.24	58.51
599.40	53.83
599.56	49.15
599.71	91.28
599.87	0.00
600.03	37.45
600.18	42.13
600.34	95.96
600.50	35.11
600.65	46.81
600.81	72.56
600.97	37.45
601.12	32.77
601.28	91.28
601.44	0.00
601.59	56.17
601.75	84.26
601.91	95.96
602.06	63.19
602.22	70.22
602.37	95.96
602.53	91.28
602.69	84.26
602.84	11.70
603.00	0.00
603.16	74.90
603.31	84.26
603.47	9.36
603.62	81.92
603.78	56.17
603.94	72.56
604.09	14.04
604.25	84.26
604.40	84.26
604.56	32.77
604.71	77.24
604.87	0.00
605.03	44.47
605.18	154.48
605.34	56.17
605.49	39.79
605.65	88.94
605.80	58.51
605.96	42.13
606.12	93.62
606.27	23.41
606.43	88.94
606.58	131.07
606.74	112.35
606.89	60.85
607.05	105.32
607.20	74.90
607.36	56.17
607.51	156.82
607.67	107.66
607.82	51.49
607.98	107.66
608.13	0.00
608.29	51.49
608.44	53.83
608.60	51.49
608.75	70.22
608.91	60.85
609.06	58.51
609.22	23.41
609.37	88.94
609.53	51.49
609.68	70.22
609.84	39.79
609.99	74.90
610.15	46.81
610.30	53.83
610.46	23.41
610.61	79.58
610.76	70.22
610.92	72.56
611.07	46.81
611.23	126.39
611.38	72.56
611.54	91.28
611.69	74.90
611.84	102.98
612.00	91.28
612.15	88.94
612.31	30.43
612.46	39.79
612.62	142.77
612.77	9.36
612.92	65.54
613.08	60.85
613.23	72.56
613.39	28.09
613.54	100.64
613.69	30.43
613.85	42.13
614.00	53.83
614.15	49.15
614.31	51.49
614.46	60.85
614.62	56.17
614.77	79.58
614.92	58.51
615.08	0.00
615.23	95.96
615.38	51.49
615.54	23.41
615.69	0.00
615.84	2.34
616.00	79.58
616.15	46.81
616.30	100.64
616.46	138.09
616.61	67.88
616.76	44.47
616.92	60.85
617.07	77.24
617.22	37.45
617.37	53.83
617.53	145.11
617.68	84.26
617.83	126.39
617.99	30.43
618.14	42.13
618.29	95.96
618.45	42.13
618.60	16.38
618.75	81.92
618.90	58.51
619.06	110.01
619.21	117.03
619.36	128.73
619.51	63.19
619.67	138.09
619.82	114.69
619.97	114.69
620.12	117.03
620.28	30.43
620.43	102.98
620.58	93.62
620.73	46.81
620.89	60.85
621.04	88.94
621.19	39.79
621.34	18.72
621.49	67.88
621.65	53.83
621.80	117.03
621.95	86.60
622.10	35.11
622.25	32.77
622.41	110.01
622.56	44.47
622.71	53.83
622.86	23.41
623.01	145.11
623.16	0.00
623.32	56.17
623.47	173.20
623.62	95.96
623.77	35.11
623.92	95.96
624.07	131.07
624.23	18.72
624.38	65.54
624.53	77.24
624.68	44.47
624.83	117.03
624.98	65.54
625.13	110.01
625.29	9.36
625.44	140.43
625.59	42.13
625.74	9.36
625.89	84.26
626.04	60.85
626.19	121.71
626.34	112.35
626.49	56.17
626.65	39.79
626.80	46.81
626.95	95.96
627.10	56.17
627.25	100.64
627.40	70.22
627.55	114.69
627.70	105.32
627.85	35.11
628.00	79.58
628.15	70.22
628.30	117.03
628.45	11.70
628.60	35.11
628.76	16.38
628.91	28.09
629.06	74.90
629.21	93.62
629.36	30.43
629.51	60.85
629.66	114.69
629.81	70.22
629.96	9.36
630.11	58.51
630.26	86.60
630.41	37.45
630.56	0.00
630.71	60.85
630.86	23.41
631.01	65.54
631.16	23.41
631.31	74.90
631.46	44.47
631.61	56.17
631.76	126.39
631.91	65.54
632.06	60.85
632.21	147.45
632.36	0.00
632.51	28.09
632.66	100.64
632.81	37.45
632.96	84.26
633.10	0.00
633.25	138.09
633.40	124.05
633.55	23.41
633.70	23.41
633.85	63.19
634.00	4.68
634.15	95.96
634.30	77.24
634.45	37.45
634.60	18.72
634.75	72.56
634.90	79.58
635.05	7.02
635.19	112.35
635.34	46.81
635.49	44.47
635.64	0.00
635.79	102.98
635.94	30.43
636.09	77.24
636.24	35.11
636.39	58.51
636.53	77.24
636.68	102.98
636.83	110.01
636.98	44.47
637.13	35.11
637.28	42.13
637.43	32.77
637.57	91.28
637.72	58.51
637.87	100.64
638.02	140.43
638.17	23.41
638.32	86.60
638.46	84.26
638.61	65.54
638.76	128.73
638.91	9.36
639.06	93.62
639.20	0.00
639.35	18.72
639.50	18.72
639.65	79.58
639.80	49.15
639.94	93.62
640.09	88.94
640.24	53.83
640.39	11.70
640.54	60.85
640.68	28.09
640.83	60.85
640.98	28.09
641.13	11.70
641.27	63.19
641.42	53.83
641.57	100.64
641.72	30.43
641.86	42.13
642.01	32.77
642.16	42.13
642.31	32.77
642.45	32.77
642.60	98.30
642.75	25.75
642.90	25.75
643.04	58.51
643.19	93.62
643.34	91.28
643.48	0.00
643.63	42.13
643.78	79.58
643.93	30.43
644.07	0.00
644.22	63.19
644.37	51.49
644.51	25.75
644.66	79.58
644.81	93.62
644.95	16.38
645.10	0.00
645.25	39.79
645.39	14.04
645.54	79.58
645.69	37.45
645.83	0.00
645.98	79.58
646.13	44.47
646.27	56.17
646.42	0.00
646.57	51.49
646.71	39.79
646.86	37.45
647.00	86.60
647.15	56.17
647.30	42.13
647.44	91.28
647.59	79.58
647.74	0.00
647.88	51.49
648.03	70.22
648.17	67.88
648.32	107.66
648.47	98.30
648.61	49.15
648.76	37.45
648.90	119.37
649.05	32.77
649.20	16.38
649.34	53.83
649.49	0.00
649.63	46.81
649.78	46.81
649.92	98.30
650.07	63.19
650.21	100.64
650.36	51.49
650.51	0.00
650.65	53.83
650.80	46.81
650.94	67.88
651.09	18.72
651.23	72.56
651.38	21.06
651.52	58.51
651.67	81.92
651.81	72.56
651.96	39.79
652.10	70.22
652.25	14.04
652.39	67.88
652.54	51.49
652.68	16.38
652.83	88.94
652.97	56.17
653.12	110.01
653.26	51.49
653.41	42.13
653.55	28.09
653.70	60.85
653.84	44.47
653.99	35.11
654.13	16.38
654.27	58.51
654.42	53.83
654.56	79.58
654.71	0.00
654.85	49.15
655.00	81.92
655.14	32.77
655.29	60.85
655.43	88.94
655.57	39.79
655.72	4.68
655.86	23.41
656.01	42.13
656.15	49.15
656.30	23.41
656.44	42.13
656.58	28.09
656.73	70.22
656.87	35.11
657.01	70.22
657.16	72.56
657.30	0.00
657.45	70.22
657.59	37.45
657.73	100.64
657.88	60.85
658.02	63.19
658.16	110.01
658.31	88.94
658.45	0.00
658.60	0.00
658.74	86.60
658.88	21.06
659.03	42.13
659.17	56.17
659.31	58.51
659.46	32.77
659.60	14.04
659.74	0.00
659.89	32.77
660.03	105.32
660.17	0.00
660.32	100.64
660.46	60.85
660.60	58.51
660.74	46.81
660.89	74.90
661.03	70.22
661.17	0.00
661.32	119.37
661.46	30.43
661.60	0.00
661.74	74.90
661.89	35.11
662.03	0.00
662.17	30.43
662.31	107.66
662.46	0.00
662.60	32.77
662.74	98.30
662.88	110.01
663.03	49.15
663.17	35.11
663.31	35.11
663.45	63.19
663.60	51.49
663.74	60.85
663.88	39.79
664.02	14.04
664.17	23.41
664.31	37.45
664.45	100.64
664.59	98.30
664.73	0.00
664.88	91.28
665.02	21.06
665.16	49.15
665.30	30.43
665.44	107.66
665.59	21.06
665.73	23.41
665.87	100.64
666.01	28.09
666.15	14.04
666.29	18.72
666.44	14.04
666.58	0.00
666.72	88.94
666.86	51.49
667.00	93.62
667.14	7.02
667.28	32.77
667.43	60.85
667.57	28.09
667.71	35.11
667.85	32.77
667.99	0.00
668.13	23.41
668.27	72.56
668.41	117.03
668.56	42.13
668.70	91.28
668.84	51.49
668.98	77.24
669.12	0.00
669.26	44.47
669.40	102.98
669.54	72.56
669.68	60.85
669.82	63.19
669.96	4.68
670.10	7.02
670.25	35.11
670.39	79.58
670.53	58.51
670.67	9.36
670.81	56.17
670.95	42.13
671.09	77.24
671.23	0.00
671.37	42.13
671.51	16.38
671.65	0.00
671.79	23.41
671.93	25.75
672.07	11.70
672.21	93.62
672.35	60.85
672.49	91.28
672.63	28.09
672.77	51.49
672.91	88.94
673.05	9.36
673.19	46.81
673.33	4.68
673.47	30.43
673.61	23.41
673.75	91.28
673.89	25.75
674.03	51.49
674.17	77.24
674.31	39.79
674.45	0.00
674.59	65.54
674.73	32.77
674.87	84.26
675.01	56.17
675.15	4.68
675.29	79.58
675.43	37.45
675.56	67.88
675.70	74.90
675.84	28.09
675.98	65.54
676.12	37.45
676.26	88.94
676.40	93.62
676.54	67.88
676.68	2.34
676.82	37.45
676.96	112.35
677.10	39.79
677.23	60.85
677.37	32.77
677.51	14.04
677.65	79.58
677.79	25.75
677.93	0.00
678.07	46.81
678.21	44.47
678.34	16.38
678.48	63.19
678.62	65.54
678.76	0.00
678.90	14.04
679.04	35.11
679.18	0.00
679.31	23.41
679.45	32.77
679.59	63.19
679.73	28.09
679.87	65.54
680.00	100.64
680.14	49.15
680.28	70.22
680.42	72.56
680.56	30.43
680.70	0.00
680.83	49.15
680.97	72.56
681.11	14.04
681.25	39.79
681.39	32.77
681.52	51.49
681.66	56.17
681.80	131.07
681.94	0.00
682.07	35.11
682.21	91.28
682.35	63.19
682.49	46.81
682.62	81.92
682.76	110.01
682.90	60.85
683.04	0.00
683.17	0.00
683.31	81.92
683.45	63.19
683.59	0.00
683.72	110.01
683.86	30.43
684.00	79.58
684.13	32.77
684.27	84.26
684.41	72.56
684.55	58.51
684.68	79.58
684.82	42.13
684.96	35.11
685.09	35.11
685.23	0.00
685.37	30.43
685.50	65.54
685.64	25.75
685.78	88.94
685.91	79.58
686.05	42.13
686.19	49.15
686.32	16.38
686.46	102.98
686.60	0.00
686.73	77.24
686.87	23.41
687.01	112.35
687.14	9.36
687.28	37.45
687.42	88.94
687.55	0.00
687.69	35.11
687.82	39.79
687.96	65.54
688.10	51.49
688.23	79.58
688.37	65.54
688.50	124.05
688.64	0.00
688.78	16.38
688.91	70.22
689.05	23.41
689.18	49.15
689.32	49.15
689.46	37.45
689.59	65.54
689.73	9.36
689.86	14.04
690.00	16.38
690.13	23.41
690.27	88.94
690.41	46.81
690.54	56.17
690.68	0.00
690.81	0.00
690.95	0.00
691.08	16.38
691.22	67.88
691.35	0.00
691.49	30.43
691.62	11.70
691.76	0.00
691.89	14.04
692.03	14.04
692.16	7.02
692.30	37.45
692.43	0.00
692.57	93.62
692.70	18.72
692.84	35.11
692.97	58.51
693.11	46.81
693.24	0.00
693.38	46.81
693.51	88.94
693.65	4.68
693.78	86.60
693.92	79.58
694.05	84.26
694.19	0.00
694.32	42.13
694.45	74.90
694.59	65.54
694.72	81.92
694.86	51.49
694.99	65.54
695.13	63.19
695.26	37.45
695.39	9.36
695.53	49.15
695.66	32.77
695.80	21.06
695.93	70.22
696.07	0.00
696.20	91.28
696.33	74.90
696.47	44.47
696.60	53.83
696.73	0.00
696.87	2.34
697.00	37.45
697.14	60.85
697.27	60.85
697.40	65.54
697.54	30.43
697.67	37.45
697.80	105.32
697.94	51.49
698.07	0.00
698.21	0.00
698.34	23.41
698.47	21.06
698.61	46.81
698.74	0.00
698.87	4.68
699.01	128.73
699.14	100.64
699.27	46.81
699.40	0.00
699.54	9.36
699.67	74.90
699.80	0.00
699.94	46.81
700.07	51.49
700.20	53.83
700.34	0.00
700.47	2.34
700.60	4.68
700.73	42.13
700.87	72.56
701.00	95.96
701.13	51.49
701.26	28.09
701.40	0.00
701.53	16.38
701.66	105.32
701.79	11.70
701.93	70.22
702.06	11.70
702.19	21.06
702.32	56.17
702.46	14.04
702.59	72.56
702.72	46.81
702.85	86.60
702.99	39.79
703.12	32.77
703.25	56.17
703.38	28.09
703.51	128.73
703.65	42.13
703.78	56.17
703.91	67.88
704.04	0.00
704.17	44.47
704.31	4.68
704.44	11.70
704.57	4.68
704.70	67.88
704.83	0.00
704.96	56.17
705.10	18.72
705.23	0.00
>>>>>End Processed Spectral Data<<<<<
