SpectraSuite Data File
++++++++++++++++++++++++++++++++++++
Date: Fri Oct 04 12:13:41 GMT-05:00 2013
User: price-jones
Dark Spectrum Present: No
Reference Spectrum Present: No
Number of Sampled Component Spectra: 1
Spectrometers: USB2+H05261
Integration Time (usec): 10000 (USB2+H05261)
Spectra Averaged: 1 (USB2+H05261)
Boxcar Smoothing: 0 (USB2+H05261)
Correct for Electrical Dark: No (USB2+H05261)
Strobe/Lamp Enabled: No (USB2+H05261)
Correct for Detector Non-linearity: No (USB2+H05261)
Correct for Stray Light: No (USB2+H05261)
Number of Pixels in Processed Spectrum: 2048
>>>>>Begin Processed Spectral Data<<<<<
365.73	39.79
365.92	39.79
366.12	39.79
366.32	0.00
366.52	0.00
366.72	0.00
366.91	0.00
367.11	0.00
367.31	0.00
367.51	0.00
367.70	0.00
367.90	0.00
368.10	0.00
368.30	0.00
368.49	0.00
368.69	0.00
368.89	0.00
369.09	0.00
369.28	0.00
369.48	0.00
369.68	0.00
369.87	0.00
370.07	18.72
370.27	0.00
370.47	0.00
370.66	0.00
370.86	0.00
371.06	0.00
371.25	0.00
371.45	0.00
371.65	0.00
371.84	0.00
372.04	4.68
372.24	32.77
372.44	9.36
372.63	37.45
372.83	37.45
373.03	0.00
373.22	0.00
373.42	0.00
373.62	14.04
373.81	16.38
374.01	2.34
374.21	30.43
374.40	35.11
374.60	0.00
374.79	0.00
374.99	0.00
375.19	0.00
375.38	21.06
375.58	2.34
375.78	11.70
375.97	0.00
376.17	95.96
376.37	49.15
376.56	77.24
376.76	11.70
376.95	44.47
377.15	18.72
377.35	0.00
377.54	74.90
377.74	0.00
377.93	0.00
378.13	58.51
378.33	77.24
378.52	2.34
378.72	0.00
378.91	49.15
379.11	67.88
379.31	25.75
379.50	0.00
379.70	0.00
379.89	39.79
380.09	14.04
380.28	4.68
380.48	7.02
380.68	63.19
380.87	37.45
381.07	53.83
381.26	77.24
381.46	0.00
381.65	0.00
381.85	74.90
382.04	0.00
382.24	0.00
382.43	23.41
382.63	0.00
382.83	9.36
383.02	70.22
383.22	0.00
383.41	0.00
383.61	63.19
383.80	14.04
384.00	7.02
384.19	35.11
384.39	0.00
384.58	0.00
384.78	128.73
384.97	0.00
385.17	0.00
385.36	35.11
385.56	65.54
385.75	72.56
385.95	4.68
386.14	0.00
386.34	67.88
386.53	21.06
386.72	11.70
386.92	35.11
387.11	4.68
387.31	0.00
387.50	51.49
387.70	0.00
387.89	7.02
388.09	65.54
388.28	9.36
388.48	0.00
388.67	11.70
388.86	0.00
389.06	0.00
389.25	67.88
389.45	39.79
389.64	9.36
389.84	32.77
390.03	79.58
390.22	88.94
390.42	0.00
390.61	35.11
390.81	0.00
391.00	67.88
391.19	32.77
391.39	84.26
391.58	58.51
391.78	28.09
391.97	0.00
392.16	49.15
392.36	23.41
392.55	23.41
392.75	0.00
392.94	79.58
393.13	44.47
393.33	72.56
393.52	65.54
393.71	37.45
393.91	117.03
394.10	0.00
394.29	28.09
394.49	105.32
394.68	25.75
394.88	16.38
395.07	0.00
395.26	35.11
395.46	2.34
395.65	0.00
395.84	46.81
396.04	21.06
396.23	0.00
396.42	23.41
396.62	0.00
396.81	35.11
397.00	30.43
397.19	0.00
397.39	0.00
397.58	21.06
397.77	0.00
397.97	60.85
398.16	9.36
398.35	56.17
398.55	56.17
398.74	32.77
398.93	7.02
399.12	70.22
399.32	25.75
399.51	14.04
399.70	0.00
399.90	9.36
400.09	49.15
400.28	0.00
400.47	72.56
400.67	2.34
400.86	21.06
401.05	18.72
401.24	18.72
401.44	53.83
401.63	0.00
401.82	37.45
402.01	23.41
402.21	42.13
402.40	77.24
402.59	30.43
402.78	65.54
402.97	7.02
403.17	25.75
403.36	30.43
403.55	77.24
403.74	44.47
403.93	30.43
404.13	21.06
404.32	98.30
404.51	28.09
404.70	46.81
404.89	4.68
405.09	56.17
405.28	28.09
405.47	58.51
405.66	56.17
405.85	86.60
406.05	0.00
406.24	53.83
406.43	2.34
406.62	21.06
406.81	9.36
407.00	30.43
407.20	18.72
407.39	0.00
407.58	14.04
407.77	0.00
407.96	35.11
408.15	67.88
408.34	70.22
408.54	49.15
408.73	65.54
408.92	0.00
409.11	2.34
409.30	88.94
409.49	63.19
409.68	39.79
409.87	53.83
410.07	56.17
410.26	84.26
410.45	105.32
410.64	91.28
410.83	56.17
411.02	49.15
411.21	70.22
411.40	72.56
411.59	25.75
411.78	44.47
411.98	117.03
412.17	0.00
412.36	58.51
412.55	53.83
412.74	70.22
412.93	72.56
413.12	53.83
413.31	21.06
413.50	28.09
413.69	0.00
413.88	9.36
414.07	56.17
414.26	58.51
414.45	0.00
414.64	93.62
414.83	37.45
415.02	0.00
415.22	72.56
415.41	23.41
415.60	28.09
415.79	23.41
415.98	42.13
416.17	0.00
416.36	23.41
416.55	42.13
416.74	56.17
416.93	114.69
417.12	0.00
417.31	7.02
417.50	0.00
417.69	0.00
417.88	60.85
418.07	63.19
418.26	0.00
418.45	51.49
418.64	67.88
418.83	14.04
419.02	42.13
419.21	53.83
419.39	121.71
419.58	77.24
419.77	14.04
419.96	25.75
420.15	14.04
420.34	44.47
420.53	35.11
420.72	18.72
420.91	0.00
421.10	46.81
421.29	44.47
421.48	60.85
421.67	37.45
421.86	72.56
422.05	46.81
422.24	32.77
422.43	18.72
422.61	44.47
422.80	0.00
422.99	11.70
423.18	21.06
423.37	0.00
423.56	14.04
423.75	58.51
423.94	0.00
424.13	100.64
424.32	9.36
424.50	93.62
424.69	60.85
424.88	58.51
425.07	32.77
425.26	0.00
425.45	81.92
425.64	51.49
425.83	107.66
426.01	93.62
426.20	93.62
426.39	51.49
426.58	51.49
426.77	0.00
426.96	28.09
427.15	72.56
427.33	72.56
427.52	60.85
427.71	35.11
427.90	49.15
428.09	95.96
428.28	4.68
428.46	42.13
428.65	70.22
428.84	84.26
429.03	100.64
429.22	67.88
429.40	65.54
429.59	28.09
429.78	65.54
429.97	0.00
430.16	72.56
430.34	63.19
430.53	98.30
430.72	14.04
430.91	74.90
431.10	58.51
431.28	35.11
431.47	53.83
431.66	0.00
431.85	49.15
432.03	72.56
432.22	49.15
432.41	105.32
432.60	14.04
432.79	74.90
432.97	37.45
433.16	105.32
433.35	37.45
433.54	84.26
433.72	102.98
433.91	53.83
434.10	0.00
434.28	88.94
434.47	25.75
434.66	86.60
434.85	156.82
435.03	46.81
435.22	107.66
435.41	0.00
435.59	51.49
435.78	88.94
435.97	53.83
436.16	60.85
436.34	46.81
436.53	51.49
436.72	63.19
436.90	46.81
437.09	65.54
437.28	30.43
437.46	21.06
437.65	46.81
437.84	63.19
438.02	46.81
438.21	100.64
438.40	25.75
438.58	67.88
438.77	44.47
438.96	56.17
439.14	42.13
439.33	65.54
439.52	98.30
439.70	30.43
439.89	49.15
440.08	23.41
440.26	60.85
440.45	119.37
440.63	88.94
440.82	58.51
441.01	46.81
441.19	44.47
441.38	84.26
441.57	65.54
441.75	39.79
441.94	35.11
442.12	86.60
442.31	58.51
442.50	58.51
442.68	4.68
442.87	44.47
443.05	60.85
443.24	56.17
443.43	30.43
443.61	18.72
443.80	46.81
443.98	154.48
444.17	63.19
444.35	65.54
444.54	60.85
444.73	32.77
444.91	60.85
445.10	100.64
445.28	51.49
445.47	58.51
445.65	147.45
445.84	35.11
446.02	105.32
446.21	14.04
446.39	79.58
446.58	72.56
446.77	25.75
446.95	81.92
447.14	14.04
447.32	140.43
447.51	65.54
447.69	105.32
447.88	44.47
448.06	93.62
448.25	23.41
448.43	32.77
448.62	56.17
448.80	21.06
448.99	30.43
449.17	70.22
449.36	14.04
449.54	30.43
449.73	39.79
449.91	72.56
450.10	107.66
450.28	98.30
450.46	58.51
450.65	9.36
450.83	0.00
451.02	112.35
451.20	60.85
451.39	44.47
451.57	39.79
451.76	39.79
451.94	86.60
452.13	14.04
452.31	46.81
452.49	51.49
452.68	16.38
452.86	21.06
453.05	70.22
453.23	39.79
453.42	42.13
453.60	60.85
453.78	124.05
453.97	46.81
454.15	18.72
454.34	46.81
454.52	28.09
454.70	95.96
454.89	7.02
455.07	0.00
455.26	25.75
455.44	72.56
455.62	28.09
455.81	21.06
455.99	51.49
456.17	32.77
456.36	98.30
456.54	84.26
456.73	72.56
456.91	65.54
457.09	37.45
457.28	28.09
457.46	53.83
457.64	16.38
457.83	42.13
458.01	81.92
458.19	67.88
458.38	72.56
458.56	117.03
458.74	0.00
458.93	0.00
459.11	37.45
459.29	126.39
459.48	56.17
459.66	0.00
459.84	100.64
460.03	114.69
460.21	72.56
460.39	25.75
460.57	86.60
460.76	77.24
460.94	84.26
461.12	65.54
461.31	163.84
461.49	107.66
461.67	18.72
461.85	86.60
462.04	60.85
462.22	154.48
462.40	49.15
462.59	7.02
462.77	42.13
462.95	102.98
463.13	49.15
463.32	37.45
463.50	30.43
463.68	88.94
463.86	25.75
464.05	16.38
464.23	93.62
464.41	0.00
464.59	67.88
464.78	131.07
464.96	86.60
465.14	51.49
465.32	93.62
465.50	60.85
465.69	39.79
465.87	37.45
466.05	81.92
466.23	110.01
466.41	46.81
466.60	77.24
466.78	51.49
466.96	46.81
467.14	70.22
467.32	98.30
467.51	30.43
467.69	86.60
467.87	95.96
468.05	42.13
468.23	35.11
468.41	0.00
468.60	56.17
468.78	65.54
468.96	70.22
469.14	7.02
469.32	30.43
469.50	42.13
469.69	102.98
469.87	39.79
470.05	93.62
470.23	51.49
470.41	23.41
470.59	39.79
470.77	65.54
470.95	98.30
471.14	112.35
471.32	74.90
471.50	46.81
471.68	79.58
471.86	124.05
472.04	77.24
472.22	46.81
472.40	72.56
472.58	21.06
472.77	126.39
472.95	65.54
473.13	44.47
473.31	35.11
473.49	70.22
473.67	7.02
473.85	11.70
474.03	56.17
474.21	56.17
474.39	51.49
474.57	14.04
474.75	42.13
474.93	74.90
475.12	63.19
475.30	152.13
475.48	70.22
475.66	51.49
475.84	74.90
476.02	63.19
476.20	86.60
476.38	79.58
476.56	37.45
476.74	63.19
476.92	32.77
477.10	39.79
477.28	25.75
477.46	46.81
477.64	65.54
477.82	95.96
478.00	70.22
478.18	86.60
478.36	28.09
478.54	93.62
478.72	72.56
478.90	23.41
479.08	70.22
479.26	126.39
479.44	117.03
479.62	84.26
479.80	154.48
479.98	16.38
480.16	128.73
480.34	67.88
480.52	39.79
480.70	37.45
480.88	98.30
481.06	7.02
481.24	7.02
481.41	72.56
481.59	100.64
481.77	30.43
481.95	140.43
482.13	60.85
482.31	63.19
482.49	77.24
482.67	93.62
482.85	84.26
483.03	102.98
483.21	2.34
483.39	56.17
483.57	63.19
483.74	107.66
483.92	72.56
484.10	70.22
484.28	0.00
484.46	128.73
484.64	56.17
484.82	95.96
485.00	11.70
485.18	81.92
485.35	77.24
485.53	4.68
485.71	58.51
485.89	2.34
486.07	93.62
486.25	88.94
486.43	84.26
486.61	23.41
486.78	4.68
486.96	25.75
487.14	74.90
487.32	91.28
487.50	23.41
487.68	60.85
487.85	60.85
488.03	79.58
488.21	95.96
488.39	42.13
488.57	67.88
488.75	81.92
488.92	77.24
489.10	105.32
489.28	91.28
489.46	14.04
489.64	114.69
489.81	84.26
489.99	91.28
490.17	74.90
490.35	98.30
490.53	32.77
490.70	93.62
490.88	175.54
491.06	119.37
491.24	81.92
491.41	21.06
491.59	67.88
491.77	30.43
491.95	95.96
492.13	51.49
492.30	11.70
492.48	88.94
492.66	114.69
492.84	56.17
493.01	79.58
493.19	14.04
493.37	53.83
493.54	51.49
493.72	100.64
493.90	119.37
494.08	35.11
494.25	126.39
494.43	67.88
494.61	102.98
494.79	67.88
494.96	7.02
495.14	98.30
495.32	37.45
495.49	67.88
495.67	23.41
495.85	65.54
496.02	88.94
496.20	74.90
496.38	138.09
496.55	107.66
496.73	49.15
496.91	51.49
497.09	81.92
497.26	21.06
497.44	51.49
497.62	32.77
497.79	126.39
497.97	30.43
498.14	63.19
498.32	58.51
498.50	35.11
498.67	70.22
498.85	46.81
499.03	46.81
499.20	67.88
499.38	98.30
499.56	49.15
499.73	88.94
499.91	81.92
500.08	56.17
500.26	117.03
500.44	124.05
500.61	88.94
500.79	23.41
500.97	84.26
501.14	42.13
501.32	81.92
501.49	86.60
501.67	37.45
501.84	67.88
502.02	105.32
502.20	63.19
502.37	91.28
502.55	88.94
502.72	124.05
502.90	49.15
503.07	128.73
503.25	119.37
503.43	44.47
503.60	72.56
503.78	107.66
503.95	107.66
504.13	51.49
504.30	100.64
504.48	67.88
504.65	117.03
504.83	121.71
505.01	124.05
505.18	142.77
505.36	102.98
505.53	102.98
505.71	46.81
505.88	79.58
506.06	21.06
506.23	58.51
506.41	98.30
506.58	67.88
506.76	44.47
506.93	23.41
507.11	95.96
507.28	0.00
507.46	98.30
507.63	49.15
507.81	56.17
507.98	56.17
508.16	95.96
508.33	114.69
508.50	91.28
508.68	60.85
508.85	35.11
509.03	88.94
509.20	128.73
509.38	91.28
509.55	112.35
509.73	126.39
509.90	88.94
510.08	81.92
510.25	30.43
510.42	191.92
510.60	67.88
510.77	91.28
510.95	53.83
511.12	114.69
511.30	124.05
511.47	126.39
511.64	30.43
511.82	70.22
511.99	93.62
512.17	74.90
512.34	49.15
512.51	107.66
512.69	93.62
512.86	79.58
513.04	112.35
513.21	0.00
513.38	128.73
513.56	110.01
513.73	100.64
513.90	95.96
514.08	105.32
514.25	35.11
514.43	95.96
514.60	60.85
514.77	128.73
514.95	65.54
515.12	88.94
515.29	77.24
515.47	39.79
515.64	91.28
515.81	98.30
515.99	102.98
516.16	49.15
516.33	4.68
516.51	84.26
516.68	81.92
516.85	121.71
517.03	98.30
517.20	72.56
517.37	102.98
517.54	100.64
517.72	105.32
517.89	53.83
518.06	95.96
518.24	79.58
518.41	63.19
518.58	14.04
518.75	23.41
518.93	98.30
519.10	65.54
519.27	102.98
519.45	112.35
519.62	23.41
519.79	170.86
519.96	117.03
520.14	135.75
520.31	88.94
520.48	93.62
520.65	60.85
520.83	140.43
521.00	16.38
521.17	138.09
521.34	42.13
521.52	156.82
521.69	67.88
521.86	126.39
522.03	81.92
522.20	119.37
522.38	44.47
522.55	58.51
522.72	39.79
522.89	93.62
523.07	25.75
523.24	74.90
523.41	58.51
523.58	74.90
523.75	124.05
523.92	77.24
524.10	49.15
524.27	74.90
524.44	102.98
524.61	49.15
524.78	37.45
524.96	72.56
525.13	39.79
525.30	16.38
525.47	51.49
525.64	53.83
525.81	86.60
525.98	58.51
526.16	37.45
526.33	53.83
526.50	25.75
526.67	37.45
526.84	112.35
527.01	7.02
527.18	0.00
527.36	67.88
527.53	25.75
527.70	105.32
527.87	100.64
528.04	91.28
528.21	163.84
528.38	58.51
528.55	100.64
528.72	117.03
528.89	60.85
529.07	51.49
529.24	63.19
529.41	79.58
529.58	70.22
529.75	74.90
529.92	60.85
530.09	56.17
530.26	72.56
530.43	86.60
530.60	105.32
530.77	70.22
530.94	53.83
531.11	70.22
531.28	119.37
531.46	140.43
531.63	105.32
531.80	49.15
531.97	49.15
532.14	74.90
532.31	16.38
532.48	110.01
532.65	77.24
532.82	95.96
532.99	77.24
533.16	70.22
533.33	119.37
533.50	142.77
533.67	91.28
533.84	18.72
534.01	84.26
534.18	60.85
534.35	98.30
534.52	79.58
534.69	49.15
534.86	67.88
535.03	65.54
535.20	74.90
535.37	0.00
535.54	46.81
535.71	133.41
535.88	70.22
536.05	46.81
536.22	49.15
536.38	9.36
536.55	86.60
536.72	67.88
536.89	28.09
537.06	77.24
537.23	131.07
537.40	65.54
537.57	58.51
537.74	56.17
537.91	147.45
538.08	56.17
538.25	0.00
538.42	110.01
538.59	100.64
538.75	114.69
538.92	110.01
539.09	133.41
539.26	25.75
539.43	58.51
539.60	72.56
539.77	56.17
539.94	112.35
540.11	88.94
540.28	67.88
540.44	117.03
540.61	117.03
540.78	145.11
540.95	72.56
541.12	100.64
541.29	42.13
541.46	16.38
541.62	65.54
541.79	65.54
541.96	98.30
542.13	0.00
542.30	0.00
542.47	105.32
542.63	42.13
542.80	119.37
542.97	56.17
543.14	114.69
543.31	16.38
543.48	95.96
543.64	102.98
543.81	135.75
543.98	98.30
544.15	28.09
544.32	131.07
544.48	46.81
544.65	95.96
544.82	67.88
544.99	42.13
545.16	95.96
545.32	88.94
545.49	56.17
545.66	60.85
545.83	91.28
546.00	142.77
546.16	58.51
546.33	46.81
546.50	133.41
546.67	112.35
546.83	35.11
547.00	119.37
547.17	121.71
547.34	100.64
547.50	135.75
547.67	74.90
547.84	133.41
548.00	93.62
548.17	135.75
548.34	74.90
548.51	112.35
548.67	88.94
548.84	74.90
549.01	135.75
549.18	79.58
549.34	32.77
549.51	77.24
549.68	105.32
549.84	74.90
550.01	81.92
550.18	98.30
550.34	95.96
550.51	25.75
550.68	51.49
550.84	51.49
551.01	14.04
551.18	105.32
551.34	46.81
551.51	98.30
551.68	98.30
551.84	81.92
552.01	58.51
552.18	93.62
552.34	114.69
552.51	81.92
552.68	166.18
552.84	88.94
553.01	93.62
553.18	81.92
553.34	46.81
553.51	14.04
553.67	100.64
553.84	95.96
554.01	133.41
554.17	63.19
554.34	117.03
554.51	152.13
554.67	95.96
554.84	56.17
555.00	91.28
555.17	145.11
555.33	154.48
555.50	88.94
555.67	100.64
555.83	114.69
556.00	86.60
556.16	119.37
556.33	100.64
556.50	91.28
556.66	79.58
556.83	182.56
556.99	65.54
557.16	60.85
557.32	112.35
557.49	44.47
557.65	65.54
557.82	126.39
557.98	32.77
558.15	44.47
558.32	42.13
558.48	74.90
558.65	63.19
558.81	18.72
558.98	51.49
559.14	112.35
559.31	60.85
559.47	0.00
559.64	0.00
559.80	58.51
559.97	67.88
560.13	86.60
560.30	77.24
560.46	98.30
560.63	32.77
560.79	63.19
560.96	117.03
561.12	30.43
561.29	65.54
561.45	117.03
561.61	44.47
561.78	128.73
561.94	49.15
562.11	77.24
562.27	84.26
562.44	98.30
562.60	60.85
562.77	95.96
562.93	93.62
563.10	72.56
563.26	37.45
563.42	91.28
563.59	81.92
563.75	42.13
563.92	9.36
564.08	63.19
564.24	51.49
564.41	102.98
564.57	53.83
564.74	110.01
564.90	86.60
565.07	67.88
565.23	173.20
565.39	100.64
565.56	58.51
565.72	117.03
565.88	58.51
566.05	67.88
566.21	58.51
566.38	44.47
566.54	114.69
566.70	51.49
566.87	81.92
567.03	46.81
567.19	102.98
567.36	112.35
567.52	21.06
567.68	98.30
567.85	95.96
568.01	102.98
568.17	112.35
568.34	112.35
568.50	119.37
568.66	60.85
568.83	77.24
568.99	98.30
569.15	100.64
569.32	39.79
569.48	95.96
569.64	81.92
569.81	131.07
569.97	91.28
570.13	11.70
570.30	60.85
570.46	70.22
570.62	53.83
570.78	25.75
570.95	30.43
571.11	60.85
571.27	126.39
571.43	84.26
571.60	14.04
571.76	42.13
571.92	98.30
572.09	35.11
572.25	56.17
572.41	84.26
572.57	37.45
572.74	58.51
572.90	79.58
573.06	142.77
573.22	63.19
573.38	79.58
573.55	88.94
573.71	117.03
573.87	88.94
574.03	0.00
574.20	77.24
574.36	93.62
574.52	77.24
574.68	49.15
574.84	37.45
575.01	65.54
575.17	56.17
575.33	56.17
575.49	14.04
575.65	84.26
575.82	84.26
575.98	100.64
576.14	119.37
576.30	86.60
576.46	140.43
576.62	37.45
576.79	79.58
576.95	51.49
577.11	98.30
577.27	37.45
577.43	46.81
577.59	32.77
577.75	51.49
577.92	32.77
578.08	72.56
578.24	58.51
578.40	44.47
578.56	79.58
578.72	79.58
578.88	72.56
579.04	81.92
579.21	93.62
579.37	0.00
579.53	67.88
579.69	67.88
579.85	58.51
580.01	25.75
580.17	44.47
580.33	121.71
580.49	84.26
580.65	65.54
580.82	77.24
580.98	86.60
581.14	124.05
581.30	44.47
581.46	114.69
581.62	63.19
581.78	105.32
581.94	53.83
582.10	100.64
582.26	51.49
582.42	63.19
582.58	98.30
582.74	63.19
582.90	0.00
583.06	107.66
583.22	170.86
583.38	42.13
583.54	77.24
583.70	14.04
583.86	72.56
584.02	21.06
584.18	121.71
584.34	46.81
584.50	77.24
584.66	51.49
584.82	63.19
584.98	84.26
585.14	93.62
585.30	98.30
585.46	30.43
585.62	88.94
585.78	49.15
585.94	65.54
586.10	105.32
586.26	159.16
586.42	100.64
586.58	42.13
586.74	49.15
586.90	42.13
587.06	53.83
587.22	39.79
587.38	58.51
587.54	84.26
587.70	58.51
587.86	102.98
588.02	14.04
588.18	46.81
588.34	81.92
588.49	51.49
588.65	0.00
588.81	72.56
588.97	65.54
589.13	88.94
589.29	60.85
589.45	147.45
589.61	77.24
589.77	37.45
589.93	98.30
590.08	142.77
590.24	128.73
590.40	77.24
590.56	124.05
590.72	0.00
590.88	56.17
591.04	88.94
591.20	58.51
591.35	63.19
591.51	58.51
591.67	32.77
591.83	67.88
591.99	39.79
592.15	114.69
592.31	124.05
592.46	163.84
592.62	81.92
592.78	28.09
592.94	35.11
593.10	93.62
593.26	95.96
593.41	14.04
593.57	28.09
593.73	4.68
593.89	74.90
594.05	49.15
594.20	37.45
594.36	37.45
594.52	53.83
594.68	16.38
594.84	102.98
594.99	65.54
595.15	161.50
595.31	70.22
595.47	28.09
595.62	84.26
595.78	23.41
595.94	65.54
596.10	88.94
596.25	124.05
596.41	114.69
596.57	51.49
596.73	63.19
596.88	100.64
597.04	0.00
597.20	0.00
597.36	58.51
597.51	114.69
597.67	37.45
597.83	30.43
597.99	44.47
598.14	42.13
598.30	79.58
598.46	35.11
598.61	46.81
598.77	56.17
598.93	117.03
599.09	84.26
599.24	14.04
599.40	114.69
599.56	147.45
599.71	133.41
599.87	131.07
600.03	117.03
600.18	133.41
600.34	72.56
600.50	110.01
600.65	135.75
600.81	91.28
600.97	74.90
601.12	74.90
601.28	74.90
601.44	86.60
601.59	67.88
601.75	46.81
601.91	37.45
602.06	74.90
602.22	168.52
602.37	58.51
602.53	51.49
602.69	70.22
602.84	86.60
603.00	37.45
603.16	58.51
603.31	88.94
603.47	93.62
603.62	149.79
603.78	77.24
603.94	74.90
604.09	63.19
604.25	65.54
604.40	140.43
604.56	74.90
604.71	88.94
604.87	79.58
605.03	21.06
605.18	93.62
605.34	23.41
605.49	77.24
605.65	60.85
605.80	53.83
605.96	100.64
606.12	44.47
606.27	60.85
606.43	51.49
606.58	81.92
606.74	0.00
606.89	11.70
607.05	102.98
607.20	56.17
607.36	67.88
607.51	95.96
607.67	67.88
607.82	126.39
607.98	128.73
608.13	126.39
608.29	67.88
608.44	147.45
608.60	37.45
608.75	70.22
608.91	74.90
609.06	95.96
609.22	14.04
609.37	44.47
609.53	110.01
609.68	25.75
609.84	67.88
609.99	0.00
610.15	0.00
610.30	0.00
610.46	117.03
610.61	23.41
610.76	93.62
610.92	35.11
611.07	56.17
611.23	30.43
611.38	84.26
611.54	28.09
611.69	35.11
611.84	147.45
612.00	74.90
612.15	72.56
612.31	81.92
612.46	28.09
612.62	117.03
612.77	100.64
612.92	79.58
613.08	0.00
613.23	74.90
613.39	98.30
613.54	93.62
613.69	35.11
613.85	60.85
614.00	0.00
614.15	11.70
614.31	79.58
614.46	79.58
614.62	74.90
614.77	95.96
614.92	0.00
615.08	77.24
615.23	63.19
615.38	11.70
615.54	145.11
615.69	100.64
615.84	46.81
616.00	74.90
616.15	124.05
616.30	63.19
616.46	37.45
616.61	79.58
616.76	93.62
616.92	14.04
617.07	72.56
617.22	23.41
617.37	16.38
617.53	60.85
617.68	110.01
617.83	51.49
617.99	51.49
618.14	46.81
618.29	2.34
618.45	32.77
618.60	63.19
618.75	35.11
618.90	72.56
619.06	72.56
619.21	46.81
619.36	65.54
619.51	18.72
619.67	25.75
619.82	30.43
619.97	86.60
620.12	25.75
620.28	124.05
620.43	81.92
620.58	77.24
620.73	23.41
620.89	28.09
621.04	46.81
621.19	63.19
621.34	70.22
621.49	119.37
621.65	110.01
621.80	53.83
621.95	65.54
622.10	35.11
622.25	53.83
622.41	74.90
622.56	117.03
622.71	98.30
622.86	60.85
623.01	91.28
623.16	72.56
623.32	117.03
623.47	63.19
623.62	49.15
623.77	100.64
623.92	88.94
624.07	124.05
624.23	58.51
624.38	77.24
624.53	30.43
624.68	49.15
624.83	74.90
624.98	74.90
625.13	35.11
625.29	49.15
625.44	44.47
625.59	112.35
625.74	42.13
625.89	18.72
626.04	56.17
626.19	88.94
626.34	51.49
626.49	70.22
626.65	23.41
626.80	51.49
626.95	84.26
627.10	56.17
627.25	63.19
627.40	88.94
627.55	67.88
627.70	53.83
627.85	58.51
628.00	79.58
628.15	16.38
628.30	63.19
628.45	95.96
628.60	30.43
628.76	49.15
628.91	53.83
629.06	51.49
629.21	0.00
629.36	110.01
629.51	53.83
629.66	23.41
629.81	0.00
629.96	46.81
630.11	28.09
630.26	56.17
630.41	49.15
630.56	100.64
630.71	39.79
630.86	0.00
631.01	42.13
631.16	30.43
631.31	63.19
631.46	79.58
631.61	60.85
631.76	77.24
631.91	86.60
632.06	7.02
632.21	44.47
632.36	58.51
632.51	51.49
632.66	2.34
632.81	84.26
632.96	56.17
633.10	32.77
633.25	53.83
633.40	39.79
633.55	149.79
633.70	86.60
633.85	74.90
634.00	70.22
634.15	30.43
634.30	21.06
634.45	110.01
634.60	0.00
634.75	0.00
634.90	42.13
635.05	63.19
635.19	67.88
635.34	7.02
635.49	63.19
635.64	58.51
635.79	51.49
635.94	4.68
636.09	25.75
636.24	79.58
636.39	58.51
636.53	53.83
636.68	58.51
636.83	30.43
636.98	93.62
637.13	58.51
637.28	9.36
637.43	70.22
637.57	0.00
637.72	0.00
637.87	119.37
638.02	65.54
638.17	81.92
638.32	39.79
638.46	67.88
638.61	23.41
638.76	0.00
638.91	0.00
639.06	77.24
639.20	28.09
639.35	28.09
639.50	79.58
639.65	70.22
639.80	32.77
639.94	56.17
640.09	53.83
640.24	39.79
640.39	18.72
640.54	18.72
640.68	46.81
640.83	81.92
640.98	70.22
641.13	11.70
641.27	91.28
641.42	30.43
641.57	35.11
641.72	102.98
641.86	88.94
642.01	44.47
642.16	98.30
642.31	28.09
642.45	74.90
642.60	0.00
642.75	28.09
642.90	42.13
643.04	79.58
643.19	0.00
643.34	60.85
643.48	7.02
643.63	49.15
643.78	77.24
643.93	35.11
644.07	14.04
644.22	112.35
644.37	14.04
644.51	60.85
644.66	63.19
644.81	65.54
644.95	21.06
645.10	74.90
645.25	11.70
645.39	100.64
645.54	105.32
645.69	49.15
645.83	72.56
645.98	35.11
646.13	49.15
646.27	28.09
646.42	11.70
646.57	46.81
646.71	72.56
646.86	39.79
647.00	72.56
647.15	11.70
647.30	11.70
647.44	161.50
647.59	23.41
647.74	16.38
647.88	79.58
648.03	49.15
648.17	35.11
648.32	77.24
648.47	18.72
648.61	56.17
648.76	44.47
648.90	93.62
649.05	23.41
649.20	65.54
649.34	86.60
649.49	18.72
649.63	98.30
649.78	42.13
649.92	16.38
650.07	9.36
650.21	2.34
650.36	72.56
650.51	7.02
650.65	56.17
650.80	0.00
650.94	46.81
651.09	32.77
651.23	67.88
651.38	23.41
651.52	0.00
651.67	79.58
651.81	46.81
651.96	39.79
652.10	25.75
652.25	84.26
652.39	11.70
652.54	46.81
652.68	100.64
652.83	63.19
652.97	37.45
653.12	60.85
653.26	70.22
653.41	72.56
653.55	39.79
653.70	35.11
653.84	44.47
653.99	65.54
654.13	95.96
654.27	32.77
654.42	72.56
654.56	44.47
654.71	84.26
654.85	39.79
655.00	39.79
655.14	79.58
655.29	100.64
655.43	93.62
655.57	60.85
655.72	16.38
655.86	37.45
656.01	16.38
656.15	70.22
656.30	46.81
656.44	0.00
656.58	14.04
656.73	4.68
656.87	39.79
657.01	44.47
657.16	88.94
657.30	60.85
657.45	18.72
657.59	79.58
657.73	11.70
657.88	25.75
658.02	77.24
658.16	91.28
658.31	58.51
658.45	21.06
658.60	86.60
658.74	0.00
658.88	42.13
659.03	93.62
659.17	65.54
659.31	46.81
659.46	77.24
659.60	23.41
659.74	51.49
659.89	110.01
660.03	100.64
660.17	60.85
660.32	0.00
660.46	7.02
660.60	0.00
660.74	0.00
660.89	23.41
661.03	70.22
661.17	138.09
661.32	0.00
661.46	93.62
661.60	84.26
661.74	44.47
661.89	102.98
662.03	51.49
662.17	28.09
662.31	14.04
662.46	44.47
662.60	30.43
662.74	23.41
662.88	18.72
663.03	42.13
663.17	74.90
663.31	58.51
663.45	63.19
663.60	63.19
663.74	42.13
663.88	21.06
664.02	16.38
664.17	23.41
664.31	102.98
664.45	23.41
664.59	0.00
664.73	0.00
664.88	53.83
665.02	58.51
665.16	98.30
665.30	56.17
665.44	56.17
665.59	18.72
665.73	70.22
665.87	67.88
666.01	74.90
666.15	72.56
666.29	14.04
666.44	119.37
666.58	98.30
666.72	63.19
666.86	9.36
667.00	0.00
667.14	42.13
667.28	0.00
667.43	4.68
667.57	131.07
667.71	65.54
667.85	46.81
667.99	65.54
668.13	32.77
668.27	0.00
668.41	95.96
668.56	11.70
668.70	58.51
668.84	0.00
668.98	67.88
669.12	11.70
669.26	21.06
669.40	70.22
669.54	63.19
669.68	77.24
669.82	95.96
669.96	30.43
670.10	93.62
670.25	81.92
670.39	91.28
670.53	0.00
670.67	56.17
670.81	18.72
670.95	35.11
671.09	74.90
671.23	35.11
671.37	79.58
671.51	32.77
671.65	23.41
671.79	0.00
671.93	30.43
672.07	18.72
672.21	74.90
672.35	9.36
672.49	14.04
672.63	53.83
672.77	46.81
672.91	91.28
673.05	0.00
673.19	56.17
673.33	0.00
673.47	14.04
673.61	74.90
673.75	51.49
673.89	51.49
674.03	49.15
674.17	84.26
674.31	65.54
674.45	7.02
674.59	112.35
674.73	39.79
674.87	56.17
675.01	39.79
675.15	63.19
675.29	39.79
675.43	105.32
675.56	63.19
675.70	30.43
675.84	0.00
675.98	72.56
676.12	16.38
676.26	23.41
676.40	37.45
676.54	56.17
676.68	70.22
676.82	110.01
676.96	18.72
677.10	30.43
677.23	14.04
677.37	14.04
677.51	42.13
677.65	0.00
677.79	51.49
677.93	60.85
678.07	98.30
678.21	9.36
678.34	0.00
678.48	74.90
678.62	79.58
678.76	37.45
678.90	133.41
679.04	42.13
679.18	28.09
679.31	72.56
679.45	9.36
679.59	4.68
679.73	9.36
679.87	79.58
680.00	32.77
680.14	63.19
680.28	0.00
680.42	0.00
680.56	53.83
680.70	21.06
680.83	46.81
680.97	0.00
681.11	46.81
681.25	18.72
681.39	105.32
681.52	58.51
681.66	67.88
681.80	100.64
681.94	81.92
682.07	65.54
682.21	56.17
682.35	56.17
682.49	88.94
682.62	70.22
682.76	102.98
682.90	63.19
683.04	56.17
683.17	30.43
683.31	0.00
683.45	67.88
683.59	98.30
683.72	56.17
683.86	28.09
684.00	88.94
684.13	39.79
684.27	18.72
684.41	18.72
684.55	16.38
684.68	37.45
684.82	18.72
684.96	11.70
685.09	77.24
685.23	0.00
685.37	72.56
685.50	0.00
685.64	102.98
685.78	53.83
685.91	4.68
686.05	79.58
686.19	21.06
686.32	39.79
686.46	11.70
686.60	42.13
686.73	2.34
686.87	39.79
687.01	77.24
687.14	21.06
687.28	53.83
687.42	2.34
687.55	2.34
687.69	58.51
687.82	21.06
687.96	0.00
688.10	51.49
688.23	63.19
688.37	65.54
688.50	70.22
688.64	70.22
688.78	11.70
688.91	77.24
689.05	70.22
689.18	0.00
689.32	91.28
689.46	30.43
689.59	32.77
689.73	60.85
689.86	60.85
690.00	114.69
690.13	56.17
690.27	49.15
690.41	30.43
690.54	0.00
690.68	91.28
690.81	86.60
690.95	32.77
691.08	4.68
691.22	88.94
691.35	67.88
691.49	4.68
691.62	56.17
691.76	0.00
691.89	56.17
692.03	65.54
692.16	0.00
692.30	65.54
692.43	39.79
692.57	70.22
692.70	39.79
692.84	30.43
692.97	81.92
693.11	0.00
693.24	35.11
693.38	65.54
693.51	56.17
693.65	28.09
693.78	53.83
693.92	65.54
694.05	37.45
694.19	42.13
694.32	25.75
694.45	72.56
694.59	2.34
694.72	0.00
694.86	46.81
694.99	58.51
695.13	42.13
695.26	30.43
695.39	32.77
695.53	46.81
695.66	74.90
695.80	35.11
695.93	0.00
696.07	32.77
696.20	0.00
696.33	49.15
696.47	88.94
696.60	81.92
696.73	117.03
696.87	58.51
697.00	0.00
697.14	0.00
697.27	9.36
697.40	9.36
697.54	72.56
697.67	23.41
697.80	72.56
697.94	56.17
698.07	58.51
698.21	110.01
698.34	49.15
698.47	35.11
698.61	18.72
698.74	0.00
698.87	49.15
699.01	93.62
699.14	95.96
699.27	32.77
699.40	23.41
699.54	11.70
699.67	46.81
699.80	0.00
699.94	95.96
700.07	28.09
700.20	7.02
700.34	35.11
700.47	74.90
700.60	46.81
700.73	11.70
700.87	35.11
701.00	0.00
701.13	16.38
701.26	0.00
701.40	23.41
701.53	93.62
701.66	93.62
701.79	37.45
701.93	0.00
702.06	23.41
702.19	60.85
702.32	30.43
702.46	0.00
702.59	0.00
702.72	32.77
702.85	32.77
702.99	28.09
703.12	11.70
703.25	11.70
703.38	21.06
703.51	32.77
703.65	21.06
703.78	39.79
703.91	58.51
704.04	7.02
704.17	21.06
704.31	0.00
704.44	77.24
704.57	32.77
704.70	35.11
704.83	42.13
704.96	91.28
705.10	21.06
705.23	60.85
>>>>>End Processed Spectral Data<<<<<
