SpectraSuite Data File
++++++++++++++++++++++++++++++++++++
Date: Fri Oct 04 12:13:43 GMT-05:00 2013
User: price-jones
Dark Spectrum Present: No
Reference Spectrum Present: No
Number of Sampled Component Spectra: 1
Spectrometers: USB2+H05261
Integration Time (usec): 10000 (USB2+H05261)
Spectra Averaged: 1 (USB2+H05261)
Boxcar Smoothing: 0 (USB2+H05261)
Correct for Electrical Dark: No (USB2+H05261)
Strobe/Lamp Enabled: No (USB2+H05261)
Correct for Detector Non-linearity: No (USB2+H05261)
Correct for Stray Light: No (USB2+H05261)
Number of Pixels in Processed Spectrum: 2048
>>>>>Begin Processed Spectral Data<<<<<
365.73	14.04
365.92	14.04
366.12	14.04
366.32	0.00
366.52	0.00
366.72	0.00
366.91	0.00
367.11	0.00
367.31	0.00
367.51	0.00
367.70	0.00
367.90	0.00
368.10	0.00
368.30	0.00
368.49	0.00
368.69	0.00
368.89	0.00
369.09	0.00
369.28	0.00
369.48	0.00
369.68	0.00
369.87	0.00
370.07	0.00
370.27	0.00
370.47	0.00
370.66	0.00
370.86	0.00
371.06	0.00
371.25	21.06
371.45	0.00
371.65	0.00
371.84	0.00
372.04	0.00
372.24	18.72
372.44	35.11
372.63	14.04
372.83	46.81
373.03	0.00
373.22	18.72
373.42	0.00
373.62	0.00
373.81	0.00
374.01	105.32
374.21	51.49
374.40	0.00
374.60	28.09
374.79	39.79
374.99	0.00
375.19	18.72
375.38	58.51
375.58	28.09
375.78	35.11
375.97	70.22
376.17	0.00
376.37	11.70
376.56	42.13
376.76	0.00
376.95	7.02
377.15	25.75
377.35	0.00
377.54	0.00
377.74	58.51
377.93	18.72
378.13	60.85
378.33	21.06
378.52	0.00
378.72	77.24
378.91	32.77
379.11	4.68
379.31	2.34
379.50	28.09
379.70	14.04
379.89	35.11
380.09	30.43
380.28	0.00
380.48	0.00
380.68	0.00
380.87	16.38
381.07	9.36
381.26	0.00
381.46	23.41
381.65	100.64
381.85	91.28
382.04	84.26
382.24	0.00
382.43	2.34
382.63	16.38
382.83	44.47
383.02	0.00
383.22	14.04
383.41	0.00
383.61	0.00
383.80	18.72
384.00	0.00
384.19	39.79
384.39	0.00
384.58	37.45
384.78	51.49
384.97	7.02
385.17	0.00
385.36	11.70
385.56	23.41
385.75	32.77
385.95	77.24
386.14	7.02
386.34	21.06
386.53	0.00
386.72	37.45
386.92	32.77
387.11	49.15
387.31	35.11
387.50	7.02
387.70	51.49
387.89	0.00
388.09	0.00
388.28	63.19
388.48	0.00
388.67	14.04
388.86	39.79
389.06	93.62
389.25	32.77
389.45	14.04
389.64	25.75
389.84	93.62
390.03	0.00
390.22	0.00
390.42	0.00
390.61	14.04
390.81	18.72
391.00	46.81
391.19	0.00
391.39	51.49
391.58	0.00
391.78	0.00
391.97	0.00
392.16	49.15
392.36	25.75
392.55	0.00
392.75	0.00
392.94	74.90
393.13	18.72
393.33	0.00
393.52	0.00
393.71	9.36
393.91	14.04
394.10	7.02
394.29	42.13
394.49	25.75
394.68	32.77
394.88	0.00
395.07	18.72
395.26	0.00
395.46	42.13
395.65	53.83
395.84	35.11
396.04	60.85
396.23	23.41
396.42	79.58
396.62	25.75
396.81	53.83
397.00	0.00
397.19	63.19
397.39	63.19
397.58	46.81
397.77	18.72
397.97	0.00
398.16	91.28
398.35	23.41
398.55	0.00
398.74	67.88
398.93	0.00
399.12	65.54
399.32	65.54
399.51	16.38
399.70	0.00
399.90	11.70
400.09	11.70
400.28	11.70
400.47	0.00
400.67	44.47
400.86	51.49
401.05	25.75
401.24	16.38
401.44	46.81
401.63	58.51
401.82	65.54
402.01	30.43
402.21	0.00
402.40	58.51
402.59	63.19
402.78	51.49
402.97	18.72
403.17	84.26
403.36	49.15
403.55	0.00
403.74	0.00
403.93	2.34
404.13	102.98
404.32	4.68
404.51	0.00
404.70	14.04
404.89	30.43
405.09	72.56
405.28	0.00
405.47	11.70
405.66	7.02
405.85	9.36
406.05	53.83
406.24	11.70
406.43	30.43
406.62	0.00
406.81	21.06
407.00	25.75
407.20	0.00
407.39	77.24
407.58	32.77
407.77	21.06
407.96	30.43
408.15	0.00
408.34	77.24
408.54	63.19
408.73	18.72
408.92	0.00
409.11	32.77
409.30	30.43
409.49	56.17
409.68	25.75
409.87	7.02
410.07	23.41
410.26	46.81
410.45	49.15
410.64	0.00
410.83	0.00
411.02	16.38
411.21	0.00
411.40	21.06
411.59	39.79
411.78	9.36
411.98	16.38
412.17	51.49
412.36	49.15
412.55	30.43
412.74	7.02
412.93	49.15
413.12	65.54
413.31	86.60
413.50	32.77
413.69	67.88
413.88	18.72
414.07	0.00
414.26	16.38
414.45	39.79
414.64	21.06
414.83	67.88
415.02	0.00
415.22	58.51
415.41	49.15
415.60	98.30
415.79	37.45
415.98	77.24
416.17	51.49
416.36	16.38
416.55	16.38
416.74	0.00
416.93	16.38
417.12	67.88
417.31	28.09
417.50	56.17
417.69	4.68
417.88	25.75
418.07	23.41
418.26	32.77
418.45	51.49
418.64	16.38
418.83	117.03
419.02	46.81
419.21	100.64
419.39	53.83
419.58	39.79
419.77	70.22
419.96	16.38
420.15	51.49
420.34	42.13
420.53	60.85
420.72	46.81
420.91	30.43
421.10	102.98
421.29	28.09
421.48	51.49
421.67	44.47
421.86	72.56
422.05	114.69
422.24	0.00
422.43	0.00
422.61	93.62
422.80	46.81
422.99	18.72
423.18	0.00
423.37	70.22
423.56	21.06
423.75	72.56
423.94	53.83
424.13	30.43
424.32	42.13
424.50	16.38
424.69	100.64
424.88	4.68
425.07	4.68
425.26	72.56
425.45	79.58
425.64	0.00
425.83	58.51
426.01	105.32
426.20	39.79
426.39	14.04
426.58	39.79
426.77	60.85
426.96	63.19
427.15	42.13
427.33	77.24
427.52	0.00
427.71	35.11
427.90	0.00
428.09	63.19
428.28	86.60
428.46	65.54
428.65	37.45
428.84	0.00
429.03	63.19
429.22	70.22
429.40	63.19
429.59	79.58
429.78	88.94
429.97	23.41
430.16	0.00
430.34	77.24
430.53	30.43
430.72	44.47
430.91	42.13
431.10	79.58
431.28	81.92
431.47	74.90
431.66	140.43
431.85	9.36
432.03	44.47
432.22	51.49
432.41	0.00
432.60	88.94
432.79	42.13
432.97	65.54
433.16	112.35
433.35	37.45
433.54	0.00
433.72	35.11
433.91	79.58
434.10	7.02
434.28	60.85
434.47	23.41
434.66	21.06
434.85	0.00
435.03	32.77
435.22	46.81
435.41	0.00
435.59	56.17
435.78	58.51
435.97	42.13
436.16	0.00
436.34	18.72
436.53	42.13
436.72	72.56
436.90	25.75
437.09	135.75
437.28	100.64
437.46	58.51
437.65	0.00
437.84	124.05
438.02	135.75
438.21	102.98
438.40	0.00
438.58	9.36
438.77	25.75
438.96	60.85
439.14	37.45
439.33	77.24
439.52	72.56
439.70	37.45
439.89	84.26
440.08	84.26
440.26	28.09
440.45	63.19
440.63	84.26
440.82	65.54
441.01	2.34
441.19	58.51
441.38	58.51
441.57	100.64
441.75	14.04
441.94	14.04
442.12	58.51
442.31	107.66
442.50	42.13
442.68	79.58
442.87	88.94
443.05	32.77
443.24	28.09
443.43	105.32
443.61	84.26
443.80	88.94
443.98	102.98
444.17	37.45
444.35	37.45
444.54	28.09
444.73	65.54
444.91	37.45
445.10	32.77
445.28	91.28
445.47	65.54
445.65	72.56
445.84	37.45
446.02	23.41
446.21	0.00
446.39	46.81
446.58	63.19
446.77	28.09
446.95	0.00
447.14	51.49
447.32	107.66
447.51	63.19
447.69	84.26
447.88	67.88
448.06	98.30
448.25	21.06
448.43	72.56
448.62	23.41
448.80	86.60
448.99	51.49
449.17	51.49
449.36	79.58
449.54	0.00
449.73	65.54
449.91	51.49
450.10	23.41
450.28	0.00
450.46	133.41
450.65	74.90
450.83	0.00
451.02	98.30
451.20	7.02
451.39	35.11
451.57	81.92
451.76	53.83
451.94	135.75
452.13	49.15
452.31	28.09
452.49	37.45
452.68	49.15
452.86	86.60
453.05	25.75
453.23	91.28
453.42	72.56
453.60	53.83
453.78	37.45
453.97	142.77
454.15	44.47
454.34	9.36
454.52	0.00
454.70	140.43
454.89	72.56
455.07	77.24
455.26	49.15
455.44	30.43
455.62	0.00
455.81	32.77
455.99	67.88
456.17	70.22
456.36	0.00
456.54	126.39
456.73	18.72
456.91	37.45
457.09	49.15
457.28	126.39
457.46	79.58
457.64	88.94
457.83	16.38
458.01	11.70
458.19	23.41
458.38	95.96
458.56	65.54
458.74	25.75
458.93	79.58
459.11	4.68
459.29	0.00
459.48	63.19
459.66	16.38
459.84	51.49
460.03	39.79
460.21	37.45
460.39	79.58
460.57	14.04
460.76	93.62
460.94	46.81
461.12	95.96
461.31	70.22
461.49	39.79
461.67	42.13
461.85	42.13
462.04	56.17
462.22	88.94
462.40	72.56
462.59	35.11
462.77	60.85
462.95	74.90
463.13	39.79
463.32	46.81
463.50	135.75
463.68	14.04
463.86	14.04
464.05	39.79
464.23	81.92
464.41	77.24
464.59	18.72
464.78	70.22
464.96	70.22
465.14	4.68
465.32	0.00
465.50	119.37
465.69	110.01
465.87	30.43
466.05	42.13
466.23	18.72
466.41	98.30
466.60	51.49
466.78	79.58
466.96	11.70
467.14	74.90
467.32	65.54
467.51	53.83
467.69	39.79
467.87	42.13
468.05	0.00
468.23	79.58
468.41	81.92
468.60	74.90
468.78	102.98
468.96	93.62
469.14	95.96
469.32	49.15
469.50	58.51
469.69	0.00
469.87	114.69
470.05	72.56
470.23	18.72
470.41	91.28
470.59	28.09
470.77	18.72
470.95	91.28
471.14	145.11
471.32	42.13
471.50	107.66
471.68	81.92
471.86	105.32
472.04	88.94
472.22	72.56
472.40	119.37
472.58	42.13
472.77	53.83
472.95	30.43
473.13	79.58
473.31	65.54
473.49	79.58
473.67	39.79
473.85	0.00
474.03	81.92
474.21	53.83
474.39	0.00
474.57	60.85
474.75	21.06
474.93	23.41
475.12	14.04
475.30	79.58
475.48	58.51
475.66	32.77
475.84	63.19
476.02	44.47
476.20	91.28
476.38	81.92
476.56	95.96
476.74	72.56
476.92	110.01
477.10	65.54
477.28	42.13
477.46	100.64
477.64	175.54
477.82	77.24
478.00	112.35
478.18	91.28
478.36	91.28
478.54	51.49
478.72	135.75
478.90	63.19
479.08	65.54
479.26	58.51
479.44	84.26
479.62	70.22
479.80	74.90
479.98	110.01
480.16	65.54
480.34	53.83
480.52	49.15
480.70	53.83
480.88	88.94
481.06	18.72
481.24	28.09
481.41	16.38
481.59	100.64
481.77	102.98
481.95	126.39
482.13	58.51
482.31	30.43
482.49	72.56
482.67	56.17
482.85	58.51
483.03	70.22
483.21	30.43
483.39	84.26
483.57	14.04
483.74	53.83
483.92	39.79
484.10	126.39
484.28	32.77
484.46	126.39
484.64	138.09
484.82	84.26
485.00	49.15
485.18	0.00
485.35	65.54
485.53	42.13
485.71	102.98
485.89	126.39
486.07	145.11
486.25	32.77
486.43	102.98
486.61	77.24
486.78	60.85
486.96	110.01
487.14	74.90
487.32	74.90
487.50	46.81
487.68	74.90
487.85	114.69
488.03	18.72
488.21	77.24
488.39	77.24
488.57	7.02
488.75	81.92
488.92	84.26
489.10	128.73
489.28	35.11
489.46	81.92
489.64	56.17
489.81	51.49
489.99	117.03
490.17	88.94
490.35	95.96
490.53	51.49
490.70	46.81
490.88	46.81
491.06	30.43
491.24	135.75
491.41	100.64
491.59	63.19
491.77	51.49
491.95	44.47
492.13	124.05
492.30	30.43
492.48	70.22
492.66	110.01
492.84	16.38
493.01	18.72
493.19	182.56
493.37	114.69
493.54	128.73
493.72	32.77
493.90	28.09
494.08	74.90
494.25	7.02
494.43	72.56
494.61	91.28
494.79	39.79
494.96	79.58
495.14	77.24
495.32	56.17
495.49	93.62
495.67	138.09
495.85	145.11
496.02	107.66
496.20	93.62
496.38	9.36
496.55	44.47
496.73	51.49
496.91	65.54
497.09	60.85
497.26	35.11
497.44	117.03
497.62	70.22
497.79	105.32
497.97	114.69
498.14	14.04
498.32	0.00
498.50	79.58
498.67	70.22
498.85	124.05
499.03	79.58
499.20	91.28
499.38	119.37
499.56	135.75
499.73	84.26
499.91	91.28
500.08	100.64
500.26	86.60
500.44	93.62
500.61	60.85
500.79	67.88
500.97	84.26
501.14	53.83
501.32	65.54
501.49	84.26
501.67	49.15
501.84	84.26
502.02	72.56
502.20	107.66
502.37	63.19
502.55	65.54
502.72	114.69
502.90	95.96
503.07	79.58
503.25	7.02
503.43	117.03
503.60	32.77
503.78	25.75
503.95	42.13
504.13	114.69
504.30	35.11
504.48	49.15
504.65	44.47
504.83	124.05
505.01	42.13
505.18	63.19
505.36	32.77
505.53	72.56
505.71	28.09
505.88	18.72
506.06	51.49
506.23	70.22
506.41	86.60
506.58	72.56
506.76	112.35
506.93	46.81
507.11	58.51
507.28	107.66
507.46	88.94
507.63	70.22
507.81	51.49
507.98	98.30
508.16	154.48
508.33	107.66
508.50	79.58
508.68	95.96
508.85	100.64
509.03	98.30
509.20	110.01
509.38	86.60
509.55	128.73
509.73	74.90
509.90	124.05
510.08	84.26
510.25	81.92
510.42	93.62
510.60	147.45
510.77	119.37
510.95	91.28
511.12	156.82
511.30	81.92
511.47	44.47
511.64	147.45
511.82	67.88
511.99	9.36
512.17	100.64
512.34	74.90
512.51	100.64
512.69	51.49
512.86	79.58
513.04	95.96
513.21	4.68
513.38	110.01
513.56	105.32
513.73	70.22
513.90	102.98
514.08	81.92
514.25	72.56
514.43	65.54
514.60	16.38
514.77	74.90
514.95	95.96
515.12	18.72
515.29	114.69
515.47	88.94
515.64	72.56
515.81	25.75
515.99	121.71
516.16	56.17
516.33	86.60
516.51	72.56
516.68	77.24
516.85	42.13
517.03	46.81
517.20	23.41
517.37	105.32
517.54	105.32
517.72	93.62
517.89	53.83
518.06	88.94
518.24	51.49
518.41	74.90
518.58	88.94
518.75	95.96
518.93	156.82
519.10	138.09
519.27	86.60
519.45	88.94
519.62	163.84
519.79	84.26
519.96	77.24
520.14	60.85
520.31	145.11
520.48	72.56
520.65	58.51
520.83	79.58
521.00	70.22
521.17	93.62
521.34	149.79
521.52	86.60
521.69	91.28
521.86	128.73
522.03	91.28
522.20	86.60
522.38	138.09
522.55	65.54
522.72	63.19
522.89	0.00
523.07	79.58
523.24	44.47
523.41	74.90
523.58	84.26
523.75	95.96
523.92	95.96
524.10	112.35
524.27	58.51
524.44	84.26
524.61	79.58
524.78	100.64
524.96	74.90
525.13	126.39
525.30	98.30
525.47	86.60
525.64	21.06
525.81	110.01
525.98	23.41
526.16	91.28
526.33	74.90
526.50	98.30
526.67	56.17
526.84	0.00
527.01	100.64
527.18	67.88
527.36	60.85
527.53	49.15
527.70	11.70
527.87	74.90
528.04	56.17
528.21	37.45
528.38	74.90
528.55	95.96
528.72	128.73
528.89	81.92
529.07	107.66
529.24	51.49
529.41	121.71
529.58	95.96
529.75	124.05
529.92	84.26
530.09	14.04
530.26	84.26
530.43	159.16
530.60	93.62
530.77	91.28
530.94	114.69
531.11	16.38
531.28	49.15
531.46	145.11
531.63	30.43
531.80	112.35
531.97	53.83
532.14	35.11
532.31	46.81
532.48	133.41
532.65	91.28
532.82	110.01
532.99	112.35
533.16	98.30
533.33	142.77
533.50	56.17
533.67	51.49
533.84	37.45
534.01	112.35
534.18	217.67
534.35	77.24
534.52	37.45
534.69	42.13
534.86	51.49
535.03	86.60
535.20	117.03
535.37	124.05
535.54	168.52
535.71	117.03
535.88	58.51
536.05	16.38
536.22	84.26
536.38	126.39
536.55	154.48
536.72	35.11
536.89	74.90
537.06	95.96
537.23	88.94
537.40	16.38
537.57	102.98
537.74	58.51
537.91	112.35
538.08	11.70
538.25	79.58
538.42	51.49
538.59	107.66
538.75	63.19
538.92	95.96
539.09	42.13
539.26	53.83
539.43	46.81
539.60	51.49
539.77	140.43
539.94	0.00
540.11	131.07
540.28	93.62
540.44	53.83
540.61	102.98
540.78	95.96
540.95	63.19
541.12	28.09
541.29	93.62
541.46	102.98
541.62	35.11
541.79	102.98
541.96	81.92
542.13	147.45
542.30	140.43
542.47	81.92
542.63	110.01
542.80	112.35
542.97	37.45
543.14	65.54
543.31	79.58
543.48	72.56
543.64	11.70
543.81	98.30
543.98	98.30
544.15	88.94
544.32	98.30
544.48	84.26
544.65	100.64
544.82	124.05
544.99	126.39
545.16	70.22
545.32	138.09
545.49	0.00
545.66	124.05
545.83	4.68
546.00	161.50
546.16	18.72
546.33	208.31
546.50	30.43
546.67	86.60
546.83	84.26
547.00	74.90
547.17	25.75
547.34	42.13
547.50	35.11
547.67	126.39
547.84	39.79
548.00	63.19
548.17	56.17
548.34	112.35
548.51	23.41
548.67	110.01
548.84	77.24
549.01	131.07
549.18	63.19
549.34	105.32
549.51	77.24
549.68	28.09
549.84	53.83
550.01	86.60
550.18	63.19
550.34	23.41
550.51	170.86
550.68	177.88
550.84	84.26
551.01	110.01
551.18	67.88
551.34	135.75
551.51	149.79
551.68	51.49
551.84	0.00
552.01	0.00
552.18	65.54
552.34	60.85
552.51	46.81
552.68	49.15
552.84	131.07
553.01	42.13
553.18	112.35
553.34	100.64
553.51	60.85
553.67	46.81
553.84	44.47
554.01	124.05
554.17	131.07
554.34	121.71
554.51	98.30
554.67	114.69
554.84	58.51
555.00	86.60
555.17	25.75
555.33	0.00
555.50	91.28
555.67	98.30
555.83	67.88
556.00	46.81
556.16	126.39
556.33	91.28
556.50	74.90
556.66	30.43
556.83	133.41
556.99	98.30
557.16	0.00
557.32	102.98
557.49	46.81
557.65	100.64
557.82	16.38
557.98	72.56
558.15	88.94
558.32	28.09
558.48	79.58
558.65	114.69
558.81	126.39
558.98	142.77
559.14	23.41
559.31	51.49
559.47	77.24
559.64	86.60
559.80	2.34
559.97	81.92
560.13	88.94
560.30	107.66
560.46	39.79
560.63	28.09
560.79	112.35
560.96	98.30
561.12	156.82
561.29	124.05
561.45	30.43
561.61	81.92
561.78	105.32
561.94	39.79
562.11	84.26
562.27	98.30
562.44	91.28
562.60	37.45
562.77	91.28
562.93	46.81
563.10	98.30
563.26	79.58
563.42	110.01
563.59	28.09
563.75	70.22
563.92	77.24
564.08	21.06
564.24	28.09
564.41	72.56
564.57	135.75
564.74	145.11
564.90	91.28
565.07	30.43
565.23	65.54
565.39	67.88
565.56	105.32
565.72	65.54
565.88	84.26
566.05	42.13
566.21	86.60
566.38	65.54
566.54	70.22
566.70	149.79
566.87	102.98
567.03	84.26
567.19	112.35
567.36	86.60
567.52	51.49
567.68	56.17
567.85	18.72
568.01	79.58
568.17	72.56
568.34	100.64
568.50	112.35
568.66	102.98
568.83	72.56
568.99	81.92
569.15	100.64
569.32	28.09
569.48	84.26
569.64	102.98
569.81	46.81
569.97	56.17
570.13	128.73
570.30	49.15
570.46	91.28
570.62	51.49
570.78	110.01
570.95	32.77
571.11	37.45
571.27	70.22
571.43	77.24
571.60	105.32
571.76	37.45
571.92	77.24
572.09	77.24
572.25	21.06
572.41	35.11
572.57	30.43
572.74	102.98
572.90	56.17
573.06	44.47
573.22	65.54
573.38	110.01
573.55	0.00
573.71	63.19
573.87	102.98
574.03	58.51
574.20	119.37
574.36	60.85
574.52	72.56
574.68	67.88
574.84	60.85
575.01	121.71
575.17	128.73
575.33	32.77
575.49	65.54
575.65	138.09
575.82	46.81
575.98	74.90
576.14	117.03
576.30	74.90
576.46	44.47
576.62	138.09
576.79	88.94
576.95	91.28
577.11	128.73
577.27	121.71
577.43	84.26
577.59	88.94
577.75	53.83
577.92	0.00
578.08	65.54
578.24	142.77
578.40	100.64
578.56	74.90
578.72	107.66
578.88	110.01
579.04	105.32
579.21	32.77
579.37	30.43
579.53	81.92
579.69	86.60
579.85	100.64
580.01	86.60
580.17	25.75
580.33	44.47
580.49	84.26
580.65	72.56
580.82	161.50
580.98	84.26
581.14	56.17
581.30	16.38
581.46	72.56
581.62	91.28
581.78	39.79
581.94	30.43
582.10	117.03
582.26	56.17
582.42	84.26
582.58	131.07
582.74	100.64
582.90	58.51
583.06	35.11
583.22	145.11
583.38	98.30
583.54	60.85
583.70	42.13
583.86	44.47
584.02	84.26
584.18	9.36
584.34	88.94
584.50	98.30
584.66	51.49
584.82	88.94
584.98	152.13
585.14	63.19
585.30	30.43
585.46	77.24
585.62	93.62
585.78	112.35
585.94	81.92
586.10	53.83
586.26	30.43
586.42	58.51
586.58	128.73
586.74	0.00
586.90	100.64
587.06	117.03
587.22	28.09
587.38	51.49
587.54	79.58
587.70	53.83
587.86	112.35
588.02	65.54
588.18	124.05
588.34	28.09
588.49	0.00
588.65	35.11
588.81	60.85
588.97	51.49
589.13	91.28
589.29	98.30
589.45	51.49
589.61	79.58
589.77	56.17
589.93	4.68
590.08	16.38
590.24	23.41
590.40	70.22
590.56	39.79
590.72	100.64
590.88	32.77
591.04	37.45
591.20	23.41
591.35	58.51
591.51	65.54
591.67	32.77
591.83	63.19
591.99	56.17
592.15	67.88
592.31	23.41
592.46	159.16
592.62	86.60
592.78	0.00
592.94	60.85
593.10	100.64
593.26	58.51
593.41	60.85
593.57	119.37
593.73	0.00
593.89	67.88
594.05	110.01
594.20	49.15
594.36	58.51
594.52	77.24
594.68	32.77
594.84	114.69
594.99	98.30
595.15	0.00
595.31	84.26
595.47	70.22
595.62	79.58
595.78	126.39
595.94	32.77
596.10	112.35
596.25	84.26
596.41	14.04
596.57	0.00
596.73	145.11
596.88	32.77
597.04	9.36
597.20	51.49
597.36	63.19
597.51	53.83
597.67	100.64
597.83	28.09
597.99	107.66
598.14	81.92
598.30	110.01
598.46	98.30
598.61	42.13
598.77	98.30
598.93	37.45
599.09	9.36
599.24	67.88
599.40	131.07
599.56	44.47
599.71	100.64
599.87	72.56
600.03	70.22
600.18	102.98
600.34	60.85
600.50	102.98
600.65	100.64
600.81	79.58
600.97	67.88
601.12	135.75
601.28	70.22
601.44	23.41
601.59	95.96
601.75	79.58
601.91	86.60
602.06	86.60
602.22	102.98
602.37	95.96
602.53	72.56
602.69	184.90
602.84	100.64
603.00	16.38
603.16	70.22
603.31	121.71
603.47	37.45
603.62	32.77
603.78	74.90
603.94	98.30
604.09	88.94
604.25	93.62
604.40	60.85
604.56	14.04
604.71	84.26
604.87	124.05
605.03	100.64
605.18	0.00
605.34	86.60
605.49	84.26
605.65	60.85
605.80	65.54
605.96	35.11
606.12	60.85
606.27	72.56
606.43	86.60
606.58	0.00
606.74	53.83
606.89	105.32
607.05	154.48
607.20	16.38
607.36	121.71
607.51	4.68
607.67	98.30
607.82	46.81
607.98	84.26
608.13	72.56
608.29	18.72
608.44	81.92
608.60	93.62
608.75	98.30
608.91	60.85
609.06	91.28
609.22	91.28
609.37	18.72
609.53	53.83
609.68	88.94
609.84	51.49
609.99	126.39
610.15	9.36
610.30	67.88
610.46	56.17
610.61	88.94
610.76	65.54
610.92	72.56
611.07	49.15
611.23	0.00
611.38	79.58
611.54	95.96
611.69	49.15
611.84	67.88
612.00	65.54
612.15	79.58
612.31	37.45
612.46	46.81
612.62	30.43
612.77	53.83
612.92	30.43
613.08	117.03
613.23	119.37
613.39	63.19
613.54	67.88
613.69	86.60
613.85	72.56
614.00	37.45
614.15	65.54
614.31	58.51
614.46	14.04
614.62	35.11
614.77	74.90
614.92	25.75
615.08	117.03
615.23	46.81
615.38	86.60
615.54	105.32
615.69	74.90
615.84	37.45
616.00	121.71
616.15	46.81
616.30	53.83
616.46	72.56
616.61	81.92
616.76	60.85
616.92	65.54
617.07	98.30
617.22	114.69
617.37	93.62
617.53	67.88
617.68	46.81
617.83	56.17
617.99	70.22
618.14	117.03
618.29	30.43
618.45	102.98
618.60	95.96
618.75	79.58
618.90	119.37
619.06	65.54
619.21	81.92
619.36	42.13
619.51	72.56
619.67	100.64
619.82	51.49
619.97	102.98
620.12	25.75
620.28	72.56
620.43	30.43
620.58	16.38
620.73	67.88
620.89	67.88
621.04	60.85
621.19	114.69
621.34	100.64
621.49	72.56
621.65	77.24
621.80	105.32
621.95	16.38
622.10	128.73
622.25	65.54
622.41	67.88
622.56	72.56
622.71	56.17
622.86	117.03
623.01	84.26
623.16	124.05
623.32	7.02
623.47	53.83
623.62	30.43
623.77	32.77
623.92	44.47
624.07	126.39
624.23	142.77
624.38	84.26
624.53	70.22
624.68	58.51
624.83	121.71
624.98	58.51
625.13	35.11
625.29	56.17
625.44	159.16
625.59	112.35
625.74	14.04
625.89	93.62
626.04	63.19
626.19	91.28
626.34	58.51
626.49	65.54
626.65	98.30
626.80	39.79
626.95	95.96
627.10	51.49
627.25	112.35
627.40	28.09
627.55	4.68
627.70	67.88
627.85	44.47
628.00	46.81
628.15	30.43
628.30	128.73
628.45	112.35
628.60	35.11
628.76	100.64
628.91	84.26
629.06	77.24
629.21	14.04
629.36	0.00
629.51	93.62
629.66	77.24
629.81	0.00
629.96	18.72
630.11	39.79
630.26	149.79
630.41	32.77
630.56	72.56
630.71	79.58
630.86	74.90
631.01	16.38
631.16	91.28
631.31	2.34
631.46	14.04
631.61	77.24
631.76	46.81
631.91	86.60
632.06	156.82
632.21	114.69
632.36	98.30
632.51	112.35
632.66	63.19
632.81	60.85
632.96	44.47
633.10	95.96
633.25	131.07
633.40	67.88
633.55	42.13
633.70	30.43
633.85	53.83
634.00	140.43
634.15	121.71
634.30	21.06
634.45	23.41
634.60	7.02
634.75	32.77
634.90	44.47
635.05	65.54
635.19	98.30
635.34	105.32
635.49	95.96
635.64	0.00
635.79	70.22
635.94	93.62
636.09	107.66
636.24	9.36
636.39	49.15
636.53	60.85
636.68	95.96
636.83	37.45
636.98	98.30
637.13	14.04
637.28	81.92
637.43	79.58
637.57	72.56
637.72	77.24
637.87	56.17
638.02	16.38
638.17	39.79
638.32	0.00
638.46	39.79
638.61	35.11
638.76	70.22
638.91	63.19
639.06	88.94
639.20	39.79
639.35	56.17
639.50	42.13
639.65	53.83
639.80	14.04
639.94	67.88
640.09	0.00
640.24	63.19
640.39	79.58
640.54	53.83
640.68	14.04
640.83	93.62
640.98	126.39
641.13	42.13
641.27	28.09
641.42	98.30
641.57	79.58
641.72	44.47
641.86	44.47
642.01	58.51
642.16	23.41
642.31	58.51
642.45	7.02
642.60	37.45
642.75	46.81
642.90	49.15
643.04	58.51
643.19	25.75
643.34	53.83
643.48	7.02
643.63	110.01
643.78	145.11
643.93	135.75
644.07	46.81
644.22	42.13
644.37	49.15
644.51	32.77
644.66	30.43
644.81	156.82
644.95	63.19
645.10	77.24
645.25	81.92
645.39	70.22
645.54	28.09
645.69	39.79
645.83	65.54
645.98	11.70
646.13	70.22
646.27	0.00
646.42	77.24
646.57	58.51
646.71	77.24
646.86	112.35
647.00	58.51
647.15	44.47
647.30	21.06
647.44	35.11
647.59	70.22
647.74	2.34
647.88	18.72
648.03	37.45
648.17	100.64
648.32	25.75
648.47	74.90
648.61	65.54
648.76	91.28
648.90	86.60
649.05	0.00
649.20	74.90
649.34	53.83
649.49	51.49
649.63	77.24
649.78	4.68
649.92	18.72
650.07	60.85
650.21	16.38
650.36	110.01
650.51	49.15
650.65	60.85
650.80	79.58
650.94	53.83
651.09	67.88
651.23	37.45
651.38	37.45
651.52	16.38
651.67	112.35
651.81	77.24
651.96	53.83
652.10	25.75
652.25	100.64
652.39	14.04
652.54	0.00
652.68	0.00
652.83	81.92
652.97	0.00
653.12	81.92
653.26	51.49
653.41	112.35
653.55	49.15
653.70	93.62
653.84	4.68
653.99	91.28
654.13	95.96
654.27	49.15
654.42	18.72
654.56	42.13
654.71	79.58
654.85	72.56
655.00	0.00
655.14	60.85
655.29	67.88
655.43	0.00
655.57	42.13
655.72	32.77
655.86	53.83
656.01	63.19
656.15	91.28
656.30	0.00
656.44	70.22
656.58	49.15
656.73	7.02
656.87	107.66
657.01	72.56
657.16	39.79
657.30	28.09
657.45	86.60
657.59	72.56
657.73	60.85
657.88	51.49
658.02	124.05
658.16	30.43
658.31	65.54
658.45	100.64
658.60	67.88
658.74	95.96
658.88	11.70
659.03	49.15
659.17	21.06
659.31	23.41
659.46	49.15
659.60	107.66
659.74	86.60
659.89	35.11
660.03	0.00
660.17	91.28
660.32	0.00
660.46	98.30
660.60	67.88
660.74	4.68
660.89	77.24
661.03	74.90
661.17	0.00
661.32	81.92
661.46	37.45
661.60	18.72
661.74	138.09
661.89	56.17
662.03	88.94
662.17	25.75
662.31	44.47
662.46	7.02
662.60	37.45
662.74	46.81
662.88	58.51
663.03	121.71
663.17	0.00
663.31	56.17
663.45	124.05
663.60	60.85
663.74	42.13
663.88	23.41
664.02	37.45
664.17	119.37
664.31	25.75
664.45	117.03
664.59	32.77
664.73	93.62
664.88	16.38
665.02	67.88
665.16	100.64
665.30	56.17
665.44	91.28
665.59	105.32
665.73	0.00
665.87	39.79
666.01	56.17
666.15	72.56
666.29	133.41
666.44	49.15
666.58	39.79
666.72	60.85
666.86	46.81
667.00	9.36
667.14	21.06
667.28	49.15
667.43	16.38
667.57	51.49
667.71	63.19
667.85	51.49
667.99	60.85
668.13	86.60
668.27	112.35
668.41	51.49
668.56	53.83
668.70	0.00
668.84	70.22
668.98	0.00
669.12	42.13
669.26	30.43
669.40	56.17
669.54	65.54
669.68	53.83
669.82	9.36
669.96	98.30
670.10	23.41
670.25	84.26
670.39	46.81
670.53	98.30
670.67	119.37
670.81	145.11
670.95	91.28
671.09	84.26
671.23	0.00
671.37	70.22
671.51	11.70
671.65	14.04
671.79	102.98
671.93	70.22
672.07	91.28
672.21	70.22
672.35	35.11
672.49	23.41
672.63	9.36
672.77	91.28
672.91	16.38
673.05	7.02
673.19	79.58
673.33	119.37
673.47	88.94
673.61	23.41
673.75	32.77
673.89	53.83
674.03	142.77
674.17	88.94
674.31	21.06
674.45	39.79
674.59	126.39
674.73	95.96
674.87	86.60
675.01	16.38
675.15	86.60
675.29	42.13
675.43	21.06
675.56	67.88
675.70	42.13
675.84	51.49
675.98	46.81
676.12	16.38
676.26	18.72
676.40	102.98
676.54	126.39
676.68	65.54
676.82	23.41
676.96	21.06
677.10	49.15
677.23	37.45
677.37	79.58
677.51	70.22
677.65	110.01
677.79	60.85
677.93	28.09
678.07	49.15
678.21	23.41
678.34	53.83
678.48	65.54
678.62	42.13
678.76	37.45
678.90	46.81
679.04	44.47
679.18	11.70
679.31	32.77
679.45	72.56
679.59	77.24
679.73	56.17
679.87	0.00
680.00	105.32
680.14	98.30
680.28	32.77
680.42	4.68
680.56	0.00
680.70	9.36
680.83	32.77
680.97	4.68
681.11	0.00
681.25	95.96
681.39	21.06
681.52	32.77
681.66	77.24
681.80	63.19
681.94	81.92
682.07	110.01
682.21	63.19
682.35	100.64
682.49	53.83
682.62	32.77
682.76	42.13
682.90	4.68
683.04	0.00
683.17	114.69
683.31	107.66
683.45	51.49
683.59	56.17
683.72	67.88
683.86	14.04
684.00	56.17
684.13	58.51
684.27	67.88
684.41	18.72
684.55	21.06
684.68	56.17
684.82	18.72
684.96	39.79
685.09	67.88
685.23	91.28
685.37	42.13
685.50	84.26
685.64	140.43
685.78	0.00
685.91	0.00
686.05	14.04
686.19	77.24
686.32	58.51
686.46	0.00
686.60	32.77
686.73	194.26
686.87	9.36
687.01	2.34
687.14	0.00
687.28	0.00
687.42	23.41
687.55	30.43
687.69	0.00
687.82	37.45
687.96	0.00
688.10	37.45
688.23	77.24
688.37	53.83
688.50	42.13
688.64	79.58
688.78	9.36
688.91	28.09
689.05	102.98
689.18	63.19
689.32	131.07
689.46	25.75
689.59	77.24
689.73	145.11
689.86	30.43
690.00	42.13
690.13	42.13
690.27	74.90
690.41	0.00
690.54	9.36
690.68	77.24
690.81	93.62
690.95	0.00
691.08	65.54
691.22	67.88
691.35	49.15
691.49	58.51
691.62	11.70
691.76	70.22
691.89	44.47
692.03	18.72
692.16	63.19
692.30	49.15
692.43	46.81
692.57	53.83
692.70	37.45
692.84	32.77
692.97	81.92
693.11	4.68
693.24	35.11
693.38	49.15
693.51	14.04
693.65	23.41
693.78	84.26
693.92	11.70
694.05	51.49
694.19	42.13
694.32	30.43
694.45	16.38
694.59	58.51
694.72	28.09
694.86	65.54
694.99	18.72
695.13	23.41
695.26	0.00
695.39	0.00
695.53	67.88
695.66	49.15
695.80	51.49
695.93	39.79
696.07	88.94
696.20	0.00
696.33	14.04
696.47	42.13
696.60	28.09
696.73	74.90
696.87	9.36
697.00	28.09
697.14	16.38
697.27	14.04
697.40	35.11
697.54	30.43
697.67	0.00
697.80	44.47
697.94	18.72
698.07	23.41
698.21	44.47
698.34	95.96
698.47	9.36
698.61	63.19
698.74	88.94
698.87	28.09
699.01	32.77
699.14	18.72
699.27	93.62
699.40	84.26
699.54	25.75
699.67	32.77
699.80	0.00
699.94	42.13
700.07	70.22
700.20	65.54
700.34	0.00
700.47	72.56
700.60	0.00
700.73	11.70
700.87	110.01
701.00	46.81
701.13	79.58
701.26	44.47
701.40	70.22
701.53	7.02
701.66	49.15
701.79	79.58
701.93	37.45
702.06	93.62
702.19	86.60
702.32	53.83
702.46	44.47
702.59	0.00
702.72	65.54
702.85	39.79
702.99	0.00
703.12	28.09
703.25	28.09
703.38	86.60
703.51	35.11
703.65	42.13
703.78	16.38
703.91	0.00
704.04	44.47
704.17	35.11
704.31	0.00
704.44	0.00
704.57	32.77
704.70	4.68
704.83	74.90
704.96	0.00
705.10	30.43
705.23	16.38
>>>>>End Processed Spectral Data<<<<<
