SpectraSuite Data File
++++++++++++++++++++++++++++++++++++
Date: Fri Oct 04 12:13:31 GMT-05:00 2013
User: price-jones
Dark Spectrum Present: No
Reference Spectrum Present: No
Number of Sampled Component Spectra: 1
Spectrometers: USB2+H05261
Integration Time (usec): 10000 (USB2+H05261)
Spectra Averaged: 1 (USB2+H05261)
Boxcar Smoothing: 0 (USB2+H05261)
Correct for Electrical Dark: No (USB2+H05261)
Strobe/Lamp Enabled: No (USB2+H05261)
Correct for Detector Non-linearity: No (USB2+H05261)
Correct for Stray Light: No (USB2+H05261)
Number of Pixels in Processed Spectrum: 2048
>>>>>Begin Processed Spectral Data<<<<<
365.73	7.02
365.92	7.02
366.12	7.02
366.32	0.00
366.52	0.00
366.72	0.00
366.91	0.00
367.11	0.00
367.31	0.00
367.51	0.00
367.70	0.00
367.90	0.00
368.10	0.00
368.30	0.00
368.49	0.00
368.69	0.00
368.89	0.00
369.09	0.00
369.28	0.00
369.48	0.00
369.68	0.00
369.87	0.00
370.07	0.00
370.27	2.34
370.47	0.00
370.66	0.00
370.86	0.00
371.06	0.00
371.25	0.00
371.45	0.00
371.65	28.09
371.84	4.68
372.04	56.17
372.24	0.00
372.44	2.34
372.63	0.00
372.83	53.83
373.03	0.00
373.22	4.68
373.42	42.13
373.62	32.77
373.81	42.13
374.01	77.24
374.21	56.17
374.40	44.47
374.60	14.04
374.79	102.98
374.99	74.90
375.19	0.00
375.38	30.43
375.58	30.43
375.78	9.36
375.97	65.54
376.17	30.43
376.37	23.41
376.56	14.04
376.76	0.00
376.95	37.45
377.15	53.83
377.35	100.64
377.54	74.90
377.74	74.90
377.93	7.02
378.13	0.00
378.33	72.56
378.52	28.09
378.72	4.68
378.91	0.00
379.11	70.22
379.31	0.00
379.50	11.70
379.70	65.54
379.89	63.19
380.09	0.00
380.28	30.43
380.48	35.11
380.68	0.00
380.87	28.09
381.07	0.00
381.26	112.35
381.46	37.45
381.65	0.00
381.85	23.41
382.04	11.70
382.24	0.00
382.43	51.49
382.63	0.00
382.83	0.00
383.02	9.36
383.22	0.00
383.41	28.09
383.61	9.36
383.80	91.28
384.00	28.09
384.19	39.79
384.39	0.00
384.58	0.00
384.78	42.13
384.97	58.51
385.17	39.79
385.36	0.00
385.56	14.04
385.75	0.00
385.95	91.28
386.14	32.77
386.34	44.47
386.53	4.68
386.72	25.75
386.92	39.79
387.11	0.00
387.31	65.54
387.50	0.00
387.70	28.09
387.89	0.00
388.09	25.75
388.28	23.41
388.48	0.00
388.67	32.77
388.86	0.00
389.06	49.15
389.25	9.36
389.45	93.62
389.64	0.00
389.84	44.47
390.03	81.92
390.22	7.02
390.42	53.83
390.61	35.11
390.81	0.00
391.00	60.85
391.19	0.00
391.39	42.13
391.58	0.00
391.78	39.79
391.97	0.00
392.16	46.81
392.36	4.68
392.55	0.00
392.75	0.00
392.94	32.77
393.13	0.00
393.33	0.00
393.52	72.56
393.71	4.68
393.91	39.79
394.10	21.06
394.29	79.58
394.49	0.00
394.68	37.45
394.88	0.00
395.07	0.00
395.26	39.79
395.46	30.43
395.65	18.72
395.84	49.15
396.04	44.47
396.23	0.00
396.42	28.09
396.62	46.81
396.81	16.38
397.00	18.72
397.19	35.11
397.39	4.68
397.58	53.83
397.77	0.00
397.97	65.54
398.16	0.00
398.35	74.90
398.55	58.51
398.74	28.09
398.93	63.19
399.12	23.41
399.32	23.41
399.51	14.04
399.70	93.62
399.90	56.17
400.09	42.13
400.28	0.00
400.47	0.00
400.67	51.49
400.86	93.62
401.05	67.88
401.24	0.00
401.44	58.51
401.63	0.00
401.82	53.83
402.01	49.15
402.21	0.00
402.40	18.72
402.59	0.00
402.78	39.79
402.97	51.49
403.17	7.02
403.36	0.00
403.55	0.00
403.74	23.41
403.93	11.70
404.13	7.02
404.32	67.88
404.51	65.54
404.70	0.00
404.89	0.00
405.09	44.47
405.28	44.47
405.47	14.04
405.66	56.17
405.85	39.79
406.05	74.90
406.24	42.13
406.43	81.92
406.62	0.00
406.81	16.38
407.00	14.04
407.20	65.54
407.39	16.38
407.58	30.43
407.77	0.00
407.96	0.00
408.15	49.15
408.34	35.11
408.54	0.00
408.73	74.90
408.92	44.47
409.11	58.51
409.30	25.75
409.49	42.13
409.68	14.04
409.87	74.90
410.07	0.00
410.26	63.19
410.45	79.58
410.64	4.68
410.83	60.85
411.02	11.70
411.21	58.51
411.40	32.77
411.59	30.43
411.78	58.51
411.98	28.09
412.17	72.56
412.36	0.00
412.55	30.43
412.74	39.79
412.93	0.00
413.12	0.00
413.31	0.00
413.50	0.00
413.69	49.15
413.88	0.00
414.07	53.83
414.26	0.00
414.45	42.13
414.64	25.75
414.83	84.26
415.02	30.43
415.22	60.85
415.41	9.36
415.60	86.60
415.79	44.47
415.98	0.00
416.17	42.13
416.36	37.45
416.55	86.60
416.74	35.11
416.93	2.34
417.12	79.58
417.31	44.47
417.50	18.72
417.69	0.00
417.88	28.09
418.07	56.17
418.26	0.00
418.45	16.38
418.64	53.83
418.83	91.28
419.02	23.41
419.21	14.04
419.39	58.51
419.58	4.68
419.77	0.00
419.96	18.72
420.15	63.19
420.34	0.00
420.53	46.81
420.72	14.04
420.91	56.17
421.10	16.38
421.29	14.04
421.48	23.41
421.67	18.72
421.86	0.00
422.05	72.56
422.24	9.36
422.43	2.34
422.61	0.00
422.80	25.75
422.99	72.56
423.18	58.51
423.37	25.75
423.56	37.45
423.75	7.02
423.94	2.34
424.13	0.00
424.32	0.00
424.50	56.17
424.69	7.02
424.88	32.77
425.07	0.00
425.26	42.13
425.45	30.43
425.64	63.19
425.83	93.62
426.01	16.38
426.20	0.00
426.39	53.83
426.58	44.47
426.77	9.36
426.96	77.24
427.15	0.00
427.33	0.00
427.52	2.34
427.71	53.83
427.90	23.41
428.09	23.41
428.28	28.09
428.46	9.36
428.65	0.00
428.84	58.51
429.03	0.00
429.22	7.02
429.40	102.98
429.59	0.00
429.78	14.04
429.97	49.15
430.16	65.54
430.34	93.62
430.53	25.75
430.72	32.77
430.91	56.17
431.10	46.81
431.28	32.77
431.47	30.43
431.66	35.11
431.85	23.41
432.03	0.00
432.22	28.09
432.41	79.58
432.60	81.92
432.79	0.00
432.97	131.07
433.16	46.81
433.35	91.28
433.54	7.02
433.72	16.38
433.91	58.51
434.10	25.75
434.28	37.45
434.47	42.13
434.66	32.77
434.85	53.83
435.03	0.00
435.22	16.38
435.41	0.00
435.59	0.00
435.78	16.38
435.97	86.60
436.16	65.54
436.34	9.36
436.53	58.51
436.72	0.00
436.90	67.88
437.09	0.00
437.28	0.00
437.46	0.00
437.65	37.45
437.84	60.85
438.02	9.36
438.21	23.41
438.40	93.62
438.58	0.00
438.77	14.04
438.96	0.00
439.14	0.00
439.33	42.13
439.52	11.70
439.70	28.09
439.89	11.70
440.08	0.00
440.26	0.00
440.45	21.06
440.63	93.62
440.82	63.19
441.01	32.77
441.19	0.00
441.38	32.77
441.57	14.04
441.75	60.85
441.94	39.79
442.12	37.45
442.31	30.43
442.50	7.02
442.68	60.85
442.87	28.09
443.05	110.01
443.24	4.68
443.43	39.79
443.61	32.77
443.80	0.00
443.98	65.54
444.17	88.94
444.35	14.04
444.54	11.70
444.73	98.30
444.91	39.79
445.10	67.88
445.28	28.09
445.47	72.56
445.65	28.09
445.84	58.51
446.02	25.75
446.21	63.19
446.39	49.15
446.58	49.15
446.77	46.81
446.95	14.04
447.14	18.72
447.32	67.88
447.51	35.11
447.69	9.36
447.88	0.00
448.06	35.11
448.25	28.09
448.43	39.79
448.62	84.26
448.80	9.36
448.99	28.09
449.17	32.77
449.36	0.00
449.54	60.85
449.73	7.02
449.91	16.38
450.10	77.24
450.28	21.06
450.46	0.00
450.65	35.11
450.83	7.02
451.02	16.38
451.20	63.19
451.39	14.04
451.57	11.70
451.76	0.00
451.94	49.15
452.13	44.47
452.31	18.72
452.49	35.11
452.68	21.06
452.86	53.83
453.05	18.72
453.23	51.49
453.42	0.00
453.60	0.00
453.78	37.45
453.97	0.00
454.15	72.56
454.34	28.09
454.52	25.75
454.70	21.06
454.89	46.81
455.07	28.09
455.26	39.79
455.44	25.75
455.62	18.72
455.81	16.38
455.99	23.41
456.17	39.79
456.36	74.90
456.54	4.68
456.73	95.96
456.91	14.04
457.09	35.11
457.28	42.13
457.46	77.24
457.64	23.41
457.83	37.45
458.01	56.17
458.19	25.75
458.38	2.34
458.56	14.04
458.74	21.06
458.93	149.79
459.11	39.79
459.29	39.79
459.48	0.00
459.66	0.00
459.84	72.56
460.03	16.38
460.21	56.17
460.39	91.28
460.57	53.83
460.76	0.00
460.94	42.13
461.12	0.00
461.31	53.83
461.49	2.34
461.67	23.41
461.85	0.00
462.04	86.60
462.22	121.71
462.40	23.41
462.59	28.09
462.77	51.49
462.95	23.41
463.13	14.04
463.32	58.51
463.50	53.83
463.68	0.00
463.86	93.62
464.05	44.47
464.23	0.00
464.41	28.09
464.59	49.15
464.78	0.00
464.96	0.00
465.14	4.68
465.32	32.77
465.50	11.70
465.69	42.13
465.87	63.19
466.05	25.75
466.23	0.00
466.41	77.24
466.60	18.72
466.78	51.49
466.96	18.72
467.14	58.51
467.32	72.56
467.51	0.00
467.69	0.00
467.87	42.13
468.05	39.79
468.23	30.43
468.41	39.79
468.60	0.00
468.78	25.75
468.96	0.00
469.14	95.96
469.32	23.41
469.50	39.79
469.69	65.54
469.87	0.00
470.05	86.60
470.23	81.92
470.41	128.73
470.59	0.00
470.77	18.72
470.95	42.13
471.14	88.94
471.32	37.45
471.50	42.13
471.68	37.45
471.86	0.00
472.04	0.00
472.22	91.28
472.40	49.15
472.58	35.11
472.77	51.49
472.95	63.19
473.13	30.43
473.31	28.09
473.49	7.02
473.67	9.36
473.85	18.72
474.03	18.72
474.21	44.47
474.39	0.00
474.57	30.43
474.75	112.35
474.93	46.81
475.12	42.13
475.30	23.41
475.48	46.81
475.66	53.83
475.84	18.72
476.02	0.00
476.20	9.36
476.38	23.41
476.56	0.00
476.74	70.22
476.92	88.94
477.10	23.41
477.28	42.13
477.46	58.51
477.64	42.13
477.82	4.68
478.00	18.72
478.18	88.94
478.36	2.34
478.54	0.00
478.72	51.49
478.90	35.11
479.08	42.13
479.26	25.75
479.44	74.90
479.62	32.77
479.80	44.47
479.98	44.47
480.16	65.54
480.34	37.45
480.52	88.94
480.70	30.43
480.88	42.13
481.06	39.79
481.24	49.15
481.41	51.49
481.59	98.30
481.77	58.51
481.95	46.81
482.13	9.36
482.31	49.15
482.49	79.58
482.67	74.90
482.85	7.02
483.03	25.75
483.21	51.49
483.39	53.83
483.57	49.15
483.74	35.11
483.92	60.85
484.10	39.79
484.28	63.19
484.46	42.13
484.64	35.11
484.82	65.54
485.00	49.15
485.18	60.85
485.35	0.00
485.53	7.02
485.71	65.54
485.89	46.81
486.07	110.01
486.25	46.81
486.43	77.24
486.61	49.15
486.78	7.02
486.96	84.26
487.14	0.00
487.32	44.47
487.50	30.43
487.68	63.19
487.85	65.54
488.03	70.22
488.21	37.45
488.39	72.56
488.57	0.00
488.75	4.68
488.92	30.43
489.10	56.17
489.28	58.51
489.46	0.00
489.64	9.36
489.81	95.96
489.99	0.00
490.17	4.68
490.35	14.04
490.53	9.36
490.70	124.05
490.88	30.43
491.06	0.00
491.24	25.75
491.41	77.24
491.59	124.05
491.77	98.30
491.95	131.07
492.13	58.51
492.30	74.90
492.48	14.04
492.66	72.56
492.84	14.04
493.01	35.11
493.19	44.47
493.37	110.01
493.54	16.38
493.72	32.77
493.90	23.41
494.08	67.88
494.25	67.88
494.43	112.35
494.61	23.41
494.79	18.72
494.96	18.72
495.14	25.75
495.32	0.00
495.49	65.54
495.67	42.13
495.85	98.30
496.02	2.34
496.20	72.56
496.38	35.11
496.55	42.13
496.73	100.64
496.91	30.43
497.09	58.51
497.26	11.70
497.44	39.79
497.62	67.88
497.79	0.00
497.97	21.06
498.14	0.00
498.32	0.00
498.50	42.13
498.67	56.17
498.85	2.34
499.03	49.15
499.20	32.77
499.38	30.43
499.56	23.41
499.73	0.00
499.91	28.09
500.08	67.88
500.26	65.54
500.44	0.00
500.61	9.36
500.79	18.72
500.97	2.34
501.14	42.13
501.32	53.83
501.49	67.88
501.67	60.85
501.84	39.79
502.02	23.41
502.20	32.77
502.37	58.51
502.55	56.17
502.72	42.13
502.90	56.17
503.07	42.13
503.25	42.13
503.43	16.38
503.60	30.43
503.78	28.09
503.95	28.09
504.13	39.79
504.30	86.60
504.48	11.70
504.65	4.68
504.83	0.00
505.01	77.24
505.18	11.70
505.36	42.13
505.53	39.79
505.71	79.58
505.88	23.41
506.06	67.88
506.23	117.03
506.41	49.15
506.58	70.22
506.76	67.88
506.93	56.17
507.11	56.17
507.28	81.92
507.46	72.56
507.63	39.79
507.81	51.49
507.98	37.45
508.16	0.00
508.33	0.00
508.50	70.22
508.68	70.22
508.85	42.13
509.03	63.19
509.20	11.70
509.38	88.94
509.55	4.68
509.73	0.00
509.90	79.58
510.08	51.49
510.25	79.58
510.42	0.00
510.60	16.38
510.77	60.85
510.95	128.73
511.12	0.00
511.30	63.19
511.47	46.81
511.64	53.83
511.82	42.13
511.99	0.00
512.17	70.22
512.34	25.75
512.51	7.02
512.69	65.54
512.86	51.49
513.04	0.00
513.21	32.77
513.38	37.45
513.56	46.81
513.73	107.66
513.90	51.49
514.08	91.28
514.25	30.43
514.43	110.01
514.60	18.72
514.77	42.13
514.95	42.13
515.12	46.81
515.29	11.70
515.47	2.34
515.64	0.00
515.81	79.58
515.99	65.54
516.16	74.90
516.33	7.02
516.51	56.17
516.68	58.51
516.85	0.00
517.03	21.06
517.20	44.47
517.37	65.54
517.54	0.00
517.72	72.56
517.89	72.56
518.06	142.77
518.24	138.09
518.41	39.79
518.58	18.72
518.75	114.69
518.93	0.00
519.10	53.83
519.27	63.19
519.45	70.22
519.62	0.00
519.79	51.49
519.96	0.00
520.14	105.32
520.31	58.51
520.48	67.88
520.65	49.15
520.83	11.70
521.00	39.79
521.17	93.62
521.34	0.00
521.52	53.83
521.69	0.00
521.86	37.45
522.03	18.72
522.20	79.58
522.38	30.43
522.55	95.96
522.72	124.05
522.89	98.30
523.07	91.28
523.24	39.79
523.41	95.96
523.58	42.13
523.75	56.17
523.92	70.22
524.10	0.00
524.27	37.45
524.44	42.13
524.61	0.00
524.78	32.77
524.96	18.72
525.13	0.00
525.30	0.00
525.47	74.90
525.64	95.96
525.81	63.19
525.98	110.01
526.16	51.49
526.33	28.09
526.50	7.02
526.67	35.11
526.84	18.72
527.01	0.00
527.18	18.72
527.36	44.47
527.53	67.88
527.70	0.00
527.87	9.36
528.04	65.54
528.21	30.43
528.38	53.83
528.55	16.38
528.72	21.06
528.89	79.58
529.07	44.47
529.24	0.00
529.41	117.03
529.58	0.00
529.75	72.56
529.92	14.04
530.09	28.09
530.26	0.00
530.43	86.60
530.60	44.47
530.77	25.75
530.94	74.90
531.11	58.51
531.28	30.43
531.46	0.00
531.63	2.34
531.80	81.92
531.97	28.09
532.14	37.45
532.31	63.19
532.48	42.13
532.65	14.04
532.82	70.22
532.99	11.70
533.16	21.06
533.33	91.28
533.50	18.72
533.67	79.58
533.84	49.15
534.01	11.70
534.18	14.04
534.35	14.04
534.52	0.00
534.69	51.49
534.86	37.45
535.03	39.79
535.20	86.60
535.37	4.68
535.54	21.06
535.71	105.32
535.88	53.83
536.05	51.49
536.22	0.00
536.38	63.19
536.55	0.00
536.72	60.85
536.89	110.01
537.06	84.26
537.23	51.49
537.40	56.17
537.57	74.90
537.74	65.54
537.91	49.15
538.08	72.56
538.25	11.70
538.42	53.83
538.59	70.22
538.75	39.79
538.92	0.00
539.09	63.19
539.26	0.00
539.43	77.24
539.60	32.77
539.77	121.71
539.94	0.00
540.11	65.54
540.28	30.43
540.44	32.77
540.61	51.49
540.78	65.54
540.95	37.45
541.12	119.37
541.29	67.88
541.46	4.68
541.62	65.54
541.79	11.70
541.96	2.34
542.13	18.72
542.30	65.54
542.47	28.09
542.63	30.43
542.80	39.79
542.97	37.45
543.14	86.60
543.31	23.41
543.48	42.13
543.64	56.17
543.81	9.36
543.98	21.06
544.15	25.75
544.32	11.70
544.48	100.64
544.65	74.90
544.82	58.51
544.99	65.54
545.16	4.68
545.32	32.77
545.49	11.70
545.66	37.45
545.83	37.45
546.00	9.36
546.16	74.90
546.33	7.02
546.50	14.04
546.67	63.19
546.83	124.05
547.00	81.92
547.17	60.85
547.34	16.38
547.50	0.00
547.67	60.85
547.84	60.85
548.00	53.83
548.17	39.79
548.34	81.92
548.51	65.54
548.67	32.77
548.84	28.09
549.01	30.43
549.18	30.43
549.34	53.83
549.51	14.04
549.68	25.75
549.84	21.06
550.01	51.49
550.18	67.88
550.34	37.45
550.51	0.00
550.68	0.00
550.84	30.43
551.01	56.17
551.18	28.09
551.34	63.19
551.51	121.71
551.68	58.51
551.84	37.45
552.01	65.54
552.18	35.11
552.34	42.13
552.51	0.00
552.68	60.85
552.84	81.92
553.01	49.15
553.18	32.77
553.34	35.11
553.51	79.58
553.67	42.13
553.84	51.49
554.01	35.11
554.17	39.79
554.34	2.34
554.51	63.19
554.67	49.15
554.84	0.00
555.00	7.02
555.17	0.00
555.33	0.00
555.50	0.00
555.67	98.30
555.83	23.41
556.00	42.13
556.16	18.72
556.33	25.75
556.50	32.77
556.66	35.11
556.83	35.11
556.99	9.36
557.16	88.94
557.32	74.90
557.49	0.00
557.65	100.64
557.82	49.15
557.98	4.68
558.15	105.32
558.32	14.04
558.48	28.09
558.65	0.00
558.81	42.13
558.98	65.54
559.14	0.00
559.31	18.72
559.47	39.79
559.64	0.00
559.80	37.45
559.97	44.47
560.13	23.41
560.30	0.00
560.46	58.51
560.63	0.00
560.79	51.49
560.96	74.90
561.12	60.85
561.29	0.00
561.45	23.41
561.61	23.41
561.78	53.83
561.94	65.54
562.11	51.49
562.27	102.98
562.44	0.00
562.60	77.24
562.77	46.81
562.93	0.00
563.10	105.32
563.26	11.70
563.42	30.43
563.59	51.49
563.75	72.56
563.92	35.11
564.08	0.00
564.24	142.77
564.41	23.41
564.57	16.38
564.74	35.11
564.90	0.00
565.07	16.38
565.23	18.72
565.39	51.49
565.56	14.04
565.72	30.43
565.88	79.58
566.05	18.72
566.21	39.79
566.38	79.58
566.54	42.13
566.70	23.41
566.87	72.56
567.03	30.43
567.19	23.41
567.36	32.77
567.52	58.51
567.68	18.72
567.85	128.73
568.01	81.92
568.17	28.09
568.34	35.11
568.50	51.49
568.66	60.85
568.83	30.43
568.99	35.11
569.15	0.00
569.32	100.64
569.48	35.11
569.64	79.58
569.81	60.85
569.97	42.13
570.13	84.26
570.30	0.00
570.46	42.13
570.62	28.09
570.78	79.58
570.95	0.00
571.11	81.92
571.27	81.92
571.43	23.41
571.60	44.47
571.76	42.13
571.92	18.72
572.09	46.81
572.25	21.06
572.41	51.49
572.57	42.13
572.74	30.43
572.90	74.90
573.06	51.49
573.22	30.43
573.38	21.06
573.55	60.85
573.71	42.13
573.87	107.66
574.03	46.81
574.20	0.00
574.36	0.00
574.52	44.47
574.68	0.00
574.84	18.72
575.01	0.00
575.17	44.47
575.33	18.72
575.49	0.00
575.65	114.69
575.82	7.02
575.98	28.09
576.14	49.15
576.30	28.09
576.46	9.36
576.62	51.49
576.79	70.22
576.95	23.41
577.11	53.83
577.27	2.34
577.43	58.51
577.59	46.81
577.75	23.41
577.92	37.45
578.08	63.19
578.24	9.36
578.40	23.41
578.56	53.83
578.72	16.38
578.88	21.06
579.04	67.88
579.21	0.00
579.37	16.38
579.53	0.00
579.69	0.00
579.85	63.19
580.01	84.26
580.17	21.06
580.33	23.41
580.49	51.49
580.65	107.66
580.82	30.43
580.98	0.00
581.14	21.06
581.30	9.36
581.46	37.45
581.62	2.34
581.78	37.45
581.94	39.79
582.10	11.70
582.26	25.75
582.42	60.85
582.58	63.19
582.74	32.77
582.90	0.00
583.06	67.88
583.22	95.96
583.38	79.58
583.54	98.30
583.70	60.85
583.86	21.06
584.02	0.00
584.18	84.26
584.34	58.51
584.50	51.49
584.66	259.80
584.82	753.65
584.98	940.90
585.14	931.53
585.30	643.65
585.46	308.95
585.62	212.99
585.78	126.39
585.94	93.62
586.10	135.75
586.26	56.17
586.42	60.85
586.58	0.00
586.74	67.88
586.90	37.45
587.06	0.00
587.22	44.47
587.38	105.32
587.54	65.54
587.70	119.37
587.86	91.28
588.02	161.50
588.18	39.79
588.34	135.75
588.49	100.64
588.65	0.00
588.81	112.35
588.97	58.51
589.13	25.75
589.29	56.17
589.45	11.70
589.61	0.00
589.77	21.06
589.93	58.51
590.08	95.96
590.24	35.11
590.40	7.02
590.56	0.00
590.72	49.15
590.88	53.83
591.04	60.85
591.20	28.09
591.35	14.04
591.51	28.09
591.67	84.26
591.83	51.49
591.99	0.00
592.15	0.00
592.31	60.85
592.46	0.00
592.62	102.98
592.78	11.70
592.94	60.85
593.10	30.43
593.26	81.92
593.41	0.00
593.57	9.36
593.73	128.73
593.89	60.85
594.05	70.22
594.20	93.62
594.36	107.66
594.52	91.28
594.68	126.39
594.84	95.96
594.99	74.90
595.15	0.00
595.31	53.83
595.47	4.68
595.62	42.13
595.78	32.77
595.94	53.83
596.10	14.04
596.25	32.77
596.41	21.06
596.57	21.06
596.73	74.90
596.88	18.72
597.04	37.45
597.20	0.00
597.36	63.19
597.51	46.81
597.67	60.85
597.83	0.00
597.99	81.92
598.14	51.49
598.30	53.83
598.46	0.00
598.61	23.41
598.77	11.70
598.93	74.90
599.09	14.04
599.24	39.79
599.40	35.11
599.56	56.17
599.71	44.47
599.87	42.13
600.03	91.28
600.18	25.75
600.34	18.72
600.50	9.36
600.65	65.54
600.81	21.06
600.97	0.00
601.12	51.49
601.28	70.22
601.44	18.72
601.59	16.38
601.75	42.13
601.91	49.15
602.06	21.06
602.22	44.47
602.37	51.49
602.53	30.43
602.69	67.88
602.84	84.26
603.00	100.64
603.16	70.22
603.31	84.26
603.47	107.66
603.62	88.94
603.78	79.58
603.94	0.00
604.09	0.00
604.25	51.49
604.40	4.68
604.56	18.72
604.71	44.47
604.87	42.13
605.03	30.43
605.18	37.45
605.34	35.11
605.49	11.70
605.65	32.77
605.80	32.77
605.96	25.75
606.12	30.43
606.27	44.47
606.43	79.58
606.58	72.56
606.74	42.13
606.89	91.28
607.05	147.45
607.20	147.45
607.36	77.24
607.51	86.60
607.67	58.51
607.82	98.30
607.98	65.54
608.13	39.79
608.29	60.85
608.44	37.45
608.60	32.77
608.75	39.79
608.91	65.54
609.06	145.11
609.22	117.03
609.37	159.16
609.53	180.22
609.68	168.52
609.84	114.69
609.99	107.66
610.15	42.13
610.30	77.24
610.46	16.38
610.61	46.81
610.76	74.90
610.92	0.00
611.07	21.06
611.23	16.38
611.38	9.36
611.54	35.11
611.69	14.04
611.84	32.77
612.00	39.79
612.15	72.56
612.31	25.75
612.46	35.11
612.62	79.58
612.77	46.81
612.92	102.98
613.08	14.04
613.23	0.00
613.39	0.00
613.54	0.00
613.69	74.90
613.85	196.60
614.00	234.05
614.15	299.59
614.31	241.08
614.46	243.42
614.62	119.37
614.77	56.17
614.92	28.09
615.08	30.43
615.23	117.03
615.38	70.22
615.54	0.00
615.69	14.04
615.84	131.07
616.00	46.81
616.15	189.58
616.30	152.13
616.46	0.00
616.61	93.62
616.76	95.96
616.92	42.13
617.07	9.36
617.22	18.72
617.37	79.58
617.53	91.28
617.68	53.83
617.83	46.81
617.99	72.56
618.14	11.70
618.29	56.17
618.45	28.09
618.60	60.85
618.75	84.26
618.90	112.35
619.06	70.22
619.21	7.02
619.36	65.54
619.51	9.36
619.67	28.09
619.82	39.79
619.97	56.17
620.12	7.02
620.28	7.02
620.43	42.13
620.58	21.06
620.73	77.24
620.89	79.58
621.04	84.26
621.19	28.09
621.34	23.41
621.49	67.88
621.65	56.17
621.80	60.85
621.95	42.13
622.10	28.09
622.25	0.00
622.41	121.71
622.56	60.85
622.71	28.09
622.86	0.00
623.01	0.00
623.16	11.70
623.32	25.75
623.47	65.54
623.62	0.00
623.77	16.38
623.92	0.00
624.07	42.13
624.23	72.56
624.38	30.43
624.53	58.51
624.68	4.68
624.83	74.90
624.98	14.04
625.13	9.36
625.29	21.06
625.44	0.00
625.59	28.09
625.74	93.62
625.89	23.41
626.04	25.75
626.19	161.50
626.34	215.33
626.49	252.78
626.65	163.84
626.80	88.94
626.95	126.39
627.10	105.32
627.25	7.02
627.40	60.85
627.55	30.43
627.70	30.43
627.85	37.45
628.00	7.02
628.15	95.96
628.30	60.85
628.45	121.71
628.60	56.17
628.76	0.00
628.91	0.00
629.06	53.83
629.21	63.19
629.36	11.70
629.51	0.00
629.66	70.22
629.81	51.49
629.96	74.90
630.11	53.83
630.26	42.13
630.41	51.49
630.56	18.72
630.71	56.17
630.86	0.00
631.01	53.83
631.16	51.49
631.31	49.15
631.46	30.43
631.61	37.45
631.76	105.32
631.91	0.00
632.06	0.00
632.21	37.45
632.36	0.00
632.51	88.94
632.66	98.30
632.81	28.09
632.96	88.94
633.10	135.75
633.25	161.50
633.40	88.94
633.55	79.58
633.70	7.02
633.85	70.22
634.00	95.96
634.15	14.04
634.30	18.72
634.45	51.49
634.60	51.49
634.75	67.88
634.90	0.00
635.05	74.90
635.19	0.00
635.34	65.54
635.49	51.49
635.64	0.00
635.79	60.85
635.94	23.41
636.09	37.45
636.24	88.94
636.39	81.92
636.53	0.00
636.68	0.00
636.83	9.36
636.98	18.72
637.13	14.04
637.28	0.00
637.43	51.49
637.57	72.56
637.72	100.64
637.87	168.52
638.02	159.16
638.17	208.31
638.32	173.20
638.46	152.13
638.61	102.98
638.76	46.81
638.91	84.26
639.06	67.88
639.20	91.28
639.35	23.41
639.50	60.85
639.65	112.35
639.80	241.08
639.94	311.29
640.09	390.87
640.24	311.29
640.39	182.56
640.54	98.30
640.68	58.51
640.83	88.94
640.98	77.24
641.13	46.81
641.27	110.01
641.42	0.00
641.57	74.90
641.72	49.15
641.86	63.19
642.01	4.68
642.16	21.06
642.31	60.85
642.45	28.09
642.60	9.36
642.75	42.13
642.90	14.04
643.04	25.75
643.19	14.04
643.34	0.00
643.48	11.70
643.63	44.47
643.78	0.00
643.93	23.41
644.07	9.36
644.22	0.00
644.37	0.00
644.51	63.19
644.66	0.00
644.81	9.36
644.95	2.34
645.10	32.77
645.25	4.68
645.39	2.34
645.54	56.17
645.69	25.75
645.83	37.45
645.98	51.49
646.13	86.60
646.27	67.88
646.42	18.72
646.57	23.41
646.71	72.56
646.86	46.81
647.00	67.88
647.15	0.00
647.30	91.28
647.44	0.00
647.59	49.15
647.74	53.83
647.88	81.92
648.03	86.60
648.17	30.43
648.32	42.13
648.47	7.02
648.61	28.09
648.76	42.13
648.90	14.04
649.05	0.00
649.20	18.72
649.34	0.00
649.49	39.79
649.63	65.54
649.78	4.68
649.92	25.75
650.07	0.00
650.21	49.15
650.36	145.11
650.51	191.92
650.65	198.95
650.80	154.48
650.94	91.28
651.09	0.00
651.23	49.15
651.38	42.13
651.52	7.02
651.67	42.13
651.81	117.03
651.96	35.11
652.10	21.06
652.25	49.15
652.39	98.30
652.54	70.22
652.68	28.09
652.83	95.96
652.97	46.81
653.12	98.30
653.26	93.62
653.41	98.30
653.55	77.24
653.70	93.62
653.84	56.17
653.99	79.58
654.13	95.96
654.27	2.34
654.42	74.90
654.56	105.32
654.71	0.00
654.85	21.06
655.00	0.00
655.14	102.98
655.29	44.47
655.43	30.43
655.57	53.83
655.72	21.06
655.86	0.00
656.01	28.09
656.15	0.00
656.30	0.00
656.44	93.62
656.58	0.00
656.73	74.90
656.87	0.00
657.01	0.00
657.16	28.09
657.30	44.47
657.45	0.00
657.59	91.28
657.73	88.94
657.88	58.51
658.02	58.51
658.16	28.09
658.31	28.09
658.45	23.41
658.60	65.54
658.74	0.00
658.88	72.56
659.03	56.17
659.17	46.81
659.31	0.00
659.46	84.26
659.60	98.30
659.74	135.75
659.89	126.39
660.03	98.30
660.17	58.51
660.32	44.47
660.46	70.22
660.60	0.00
660.74	79.58
660.89	65.54
661.03	4.68
661.17	0.00
661.32	0.00
661.46	18.72
661.60	74.90
661.74	0.00
661.89	84.26
662.03	86.60
662.17	58.51
662.31	0.00
662.46	72.56
662.60	23.41
662.74	25.75
662.88	53.83
663.03	14.04
663.17	14.04
663.31	11.70
663.45	133.41
663.60	49.15
663.74	4.68
663.88	25.75
664.02	42.13
664.17	67.88
664.31	51.49
664.45	37.45
664.59	67.88
664.73	77.24
664.88	91.28
665.02	9.36
665.16	21.06
665.30	37.45
665.44	102.98
665.59	0.00
665.73	77.24
665.87	42.13
666.01	77.24
666.15	14.04
666.29	30.43
666.44	16.38
666.58	28.09
666.72	37.45
666.86	81.92
667.00	42.13
667.14	0.00
667.28	23.41
667.43	145.11
667.57	105.32
667.71	145.11
667.85	149.79
667.99	98.30
668.13	124.05
668.27	102.98
668.41	79.58
668.56	37.45
668.70	35.11
668.84	28.09
668.98	7.02
669.12	77.24
669.26	74.90
669.40	74.90
669.54	42.13
669.68	88.94
669.82	14.04
669.96	21.06
670.10	49.15
670.25	107.66
670.39	32.77
670.53	0.00
670.67	91.28
670.81	39.79
670.95	60.85
671.09	63.19
671.23	58.51
671.37	39.79
671.51	149.79
671.65	105.32
671.79	110.01
671.93	67.88
672.07	44.47
672.21	60.85
672.35	0.00
672.49	46.81
672.63	86.60
672.77	0.00
672.91	18.72
673.05	49.15
673.19	0.00
673.33	0.00
673.47	28.09
673.61	0.00
673.75	95.96
673.89	51.49
674.03	39.79
674.17	49.15
674.31	30.43
674.45	53.83
674.59	65.54
674.73	37.45
674.87	56.17
675.01	32.77
675.15	0.00
675.29	23.41
675.43	81.92
675.56	0.00
675.70	0.00
675.84	46.81
675.98	7.02
676.12	42.13
676.26	0.00
676.40	4.68
676.54	39.79
676.68	35.11
676.82	37.45
676.96	67.88
677.10	0.00
677.23	28.09
677.37	0.00
677.51	0.00
677.65	70.22
677.79	30.43
677.93	18.72
678.07	74.90
678.21	49.15
678.34	11.70
678.48	44.47
678.62	30.43
678.76	39.79
678.90	65.54
679.04	0.00
679.18	9.36
679.31	11.70
679.45	63.19
679.59	18.72
679.73	30.43
679.87	0.00
680.00	39.79
680.14	4.68
680.28	37.45
680.42	7.02
680.56	0.00
680.70	25.75
680.83	23.41
680.97	21.06
681.11	25.75
681.25	14.04
681.39	91.28
681.52	25.75
681.66	9.36
681.80	0.00
681.94	21.06
682.07	18.72
682.21	42.13
682.35	56.17
682.49	166.18
682.62	44.47
682.76	23.41
682.90	32.77
683.04	0.00
683.17	32.77
683.31	67.88
683.45	58.51
683.59	60.85
683.72	56.17
683.86	35.11
684.00	0.00
684.13	46.81
684.27	2.34
684.41	25.75
684.55	44.47
684.68	2.34
684.82	0.00
684.96	37.45
685.09	30.43
685.23	51.49
685.37	7.02
685.50	2.34
685.64	0.00
685.78	0.00
685.91	56.17
686.05	37.45
686.19	30.43
686.32	0.00
686.46	0.00
686.60	51.49
686.73	25.75
686.87	58.51
687.01	32.77
687.14	37.45
687.28	88.94
687.42	0.00
687.55	0.00
687.69	9.36
687.82	72.56
687.96	35.11
688.10	44.47
688.23	32.77
688.37	65.54
688.50	70.22
688.64	63.19
688.78	37.45
688.91	67.88
689.05	23.41
689.18	23.41
689.32	60.85
689.46	46.81
689.59	32.77
689.73	0.00
689.86	81.92
690.00	0.00
690.13	77.24
690.27	0.00
690.41	11.70
690.54	70.22
690.68	110.01
690.81	100.64
690.95	42.13
691.08	21.06
691.22	0.00
691.35	28.09
691.49	42.13
691.62	25.75
691.76	53.83
691.89	9.36
692.03	30.43
692.16	7.02
692.30	44.47
692.43	119.37
692.57	25.75
692.70	86.60
692.84	117.03
692.97	63.19
693.11	53.83
693.24	56.17
693.38	74.90
693.51	0.00
693.65	0.00
693.78	42.13
693.92	88.94
694.05	49.15
694.19	112.35
694.32	0.00
694.45	23.41
694.59	39.79
694.72	63.19
694.86	56.17
694.99	84.26
695.13	0.00
695.26	56.17
695.39	14.04
695.53	18.72
695.66	25.75
695.80	30.43
695.93	35.11
696.07	0.00
696.20	0.00
696.33	39.79
696.47	49.15
696.60	0.00
696.73	14.04
696.87	86.60
697.00	18.72
697.14	2.34
697.27	58.51
697.40	49.15
697.54	23.41
697.67	32.77
697.80	93.62
697.94	37.45
698.07	16.38
698.21	32.77
698.34	91.28
698.47	0.00
698.61	21.06
698.74	0.00
698.87	53.83
699.01	0.00
699.14	77.24
699.27	14.04
699.40	32.77
699.54	42.13
699.67	93.62
699.80	112.35
699.94	39.79
700.07	21.06
700.20	30.43
700.34	0.00
700.47	2.34
700.60	95.96
700.73	63.19
700.87	44.47
701.00	53.83
701.13	30.43
701.26	74.90
701.40	0.00
701.53	0.00
701.66	30.43
701.79	30.43
701.93	7.02
702.06	84.26
702.19	16.38
702.32	32.77
702.46	28.09
702.59	46.81
702.72	0.00
702.85	91.28
702.99	124.05
703.12	142.77
703.25	250.44
703.38	142.77
703.51	119.37
703.65	156.82
703.78	86.60
703.91	177.88
704.04	39.79
704.17	39.79
704.31	7.02
704.44	23.41
704.57	35.11
704.70	9.36
704.83	63.19
704.96	0.00
705.10	56.17
705.23	0.00
>>>>>End Processed Spectral Data<<<<<
