SpectraSuite Data File
++++++++++++++++++++++++++++++++++++
Date: Tue Oct 01 18:25:09 GMT-05:00 2013
User: stostad
Dark Spectrum Present: No
Reference Spectrum Present: No
Number of Sampled Component Spectra: 1
Spectrometers: USB2+H05261
Integration Time (usec): 100000 (USB2+H05261)
Spectra Averaged: 1 (USB2+H05261)
Boxcar Smoothing: 0 (USB2+H05261)
Correct for Electrical Dark: No (USB2+H05261)
Strobe/Lamp Enabled: No (USB2+H05261)
Correct for Detector Non-linearity: No (USB2+H05261)
Correct for Stray Light: No (USB2+H05261)
Number of Pixels in Processed Spectrum: 2048
>>>>>Begin Processed Spectral Data<<<<<
365.73	135.75
365.92	135.75
366.12	135.75
366.32	0.00
366.52	0.00
366.72	32.77
366.91	0.00
367.11	0.00
367.31	0.00
367.51	0.00
367.70	0.00
367.90	16.38
368.10	0.00
368.30	0.00
368.49	0.00
368.69	0.00
368.89	0.00
369.09	0.00
369.28	0.00
369.48	49.15
369.68	21.06
369.87	56.17
370.07	35.11
370.27	152.13
370.47	42.13
370.66	35.11
370.86	44.47
371.06	114.69
371.25	142.77
371.45	74.90
371.65	91.28
371.84	18.72
372.04	23.41
372.24	152.13
372.44	135.75
372.63	124.05
372.83	147.45
373.03	110.01
373.22	53.83
373.42	58.51
373.62	105.32
373.81	173.20
374.01	205.97
374.21	149.79
374.40	79.58
374.60	217.67
374.79	234.05
374.99	131.07
375.19	168.52
375.38	147.45
375.58	152.13
375.78	81.92
375.97	128.73
376.17	180.22
376.37	152.13
376.56	147.45
376.76	133.41
376.95	88.94
377.15	163.84
377.35	105.32
377.54	121.71
377.74	135.75
377.93	84.26
378.13	198.95
378.33	187.24
378.52	128.73
378.72	198.95
378.91	187.24
379.11	142.77
379.31	117.03
379.50	100.64
379.70	152.13
379.89	126.39
380.09	77.24
380.28	63.19
380.48	114.69
380.68	140.43
380.87	105.32
381.07	149.79
381.26	198.95
381.46	196.60
381.65	110.01
381.85	37.45
382.04	124.05
382.24	154.48
382.43	201.29
382.63	119.37
382.83	81.92
383.02	117.03
383.22	135.75
383.41	112.35
383.61	95.96
383.80	191.92
384.00	128.73
384.19	168.52
384.39	135.75
384.58	126.39
384.78	145.11
384.97	140.43
385.17	60.85
385.36	124.05
385.56	161.50
385.75	124.05
385.95	60.85
386.14	140.43
386.34	81.92
386.53	173.20
386.72	84.26
386.92	105.32
387.11	140.43
387.31	198.95
387.50	119.37
387.70	112.35
387.89	156.82
388.09	93.62
388.28	112.35
388.48	168.52
388.67	177.88
388.86	154.48
389.06	175.54
389.25	58.51
389.45	105.32
389.64	175.54
389.84	194.26
390.03	159.16
390.22	220.01
390.42	79.58
390.61	81.92
390.81	128.73
391.00	114.69
391.19	114.69
391.39	112.35
391.58	117.03
391.78	170.86
391.97	84.26
392.16	194.26
392.36	238.73
392.55	175.54
392.75	142.77
392.94	140.43
393.13	163.84
393.33	86.60
393.52	100.64
393.71	208.31
393.91	86.60
394.10	194.26
394.29	70.22
394.49	110.01
394.68	124.05
394.88	161.50
395.07	182.56
395.26	100.64
395.46	121.71
395.65	220.01
395.84	131.07
396.04	212.99
396.23	114.69
396.42	117.03
396.62	131.07
396.81	238.73
397.00	152.13
397.19	51.49
397.39	88.94
397.58	142.77
397.77	86.60
397.97	124.05
398.16	121.71
398.35	149.79
398.55	93.62
398.74	140.43
398.93	131.07
399.12	74.90
399.32	187.24
399.51	102.98
399.70	138.09
399.90	117.03
400.09	81.92
400.28	205.97
400.47	161.50
400.67	77.24
400.86	84.26
401.05	145.11
401.24	166.18
401.44	196.60
401.63	152.13
401.82	149.79
402.01	100.64
402.21	107.66
402.40	84.26
402.59	105.32
402.78	95.96
402.97	145.11
403.17	126.39
403.36	217.67
403.55	74.90
403.74	119.37
403.93	224.69
404.13	121.71
404.32	131.07
404.51	133.41
404.70	121.71
404.89	121.71
405.09	180.22
405.28	152.13
405.47	88.94
405.66	114.69
405.85	163.84
406.05	114.69
406.24	93.62
406.43	114.69
406.62	117.03
406.81	217.67
407.00	170.86
407.20	110.01
407.39	128.73
407.58	114.69
407.77	173.20
407.96	161.50
408.15	70.22
408.34	156.82
408.54	98.30
408.73	110.01
408.92	156.82
409.11	128.73
409.30	138.09
409.49	53.83
409.68	102.98
409.87	81.92
410.07	95.96
410.26	124.05
410.45	135.75
410.64	145.11
410.83	107.66
411.02	86.60
411.21	100.64
411.40	142.77
411.59	126.39
411.78	110.01
411.98	98.30
412.17	163.84
412.36	142.77
412.55	140.43
412.74	173.20
412.93	159.16
413.12	93.62
413.31	114.69
413.50	142.77
413.69	105.32
413.88	149.79
414.07	107.66
414.26	112.35
414.45	161.50
414.64	84.26
414.83	156.82
415.02	107.66
415.22	121.71
415.41	203.63
415.60	189.58
415.79	126.39
415.98	161.50
416.17	175.54
416.36	156.82
416.55	145.11
416.74	79.58
416.93	154.48
417.12	121.71
417.31	140.43
417.50	100.64
417.69	222.35
417.88	140.43
418.07	154.48
418.26	177.88
418.45	140.43
418.64	196.60
418.83	217.67
419.02	205.97
419.21	180.22
419.39	110.01
419.58	217.67
419.77	100.64
419.96	156.82
420.15	107.66
420.34	98.30
420.53	227.03
420.72	145.11
420.91	145.11
421.10	102.98
421.29	152.13
421.48	131.07
421.67	255.12
421.86	117.03
422.05	147.45
422.24	114.69
422.43	121.71
422.61	119.37
422.80	152.13
422.99	154.48
423.18	81.92
423.37	140.43
423.56	198.95
423.75	126.39
423.94	166.18
424.13	117.03
424.32	124.05
424.50	131.07
424.69	131.07
424.88	110.01
425.07	191.92
425.26	236.39
425.45	173.20
425.64	95.96
425.83	154.48
426.01	140.43
426.20	145.11
426.39	114.69
426.58	154.48
426.77	189.58
426.96	163.84
427.15	135.75
427.33	154.48
427.52	227.03
427.71	168.52
427.90	126.39
428.09	107.66
428.28	142.77
428.46	180.22
428.65	140.43
428.84	133.41
429.03	173.20
429.22	93.62
429.40	135.75
429.59	142.77
429.78	140.43
429.97	128.73
430.16	102.98
430.34	159.16
430.53	142.77
430.72	161.50
430.91	154.48
431.10	51.49
431.28	145.11
431.47	173.20
431.66	189.58
431.85	114.69
432.03	180.22
432.22	194.26
432.41	98.30
432.60	198.95
432.79	182.56
432.97	224.69
433.16	198.95
433.35	198.95
433.54	229.37
433.72	177.88
433.91	177.88
434.10	187.24
434.28	187.24
434.47	189.58
434.66	154.48
434.85	168.52
435.03	184.90
435.22	215.33
435.41	159.16
435.59	154.48
435.78	140.43
435.97	88.94
436.16	175.54
436.34	105.32
436.53	168.52
436.72	177.88
436.90	102.98
437.09	142.77
437.28	187.24
437.46	131.07
437.65	79.58
437.84	119.37
438.02	177.88
438.21	173.20
438.40	49.15
438.58	133.41
438.77	238.73
438.96	177.88
439.14	93.62
439.33	91.28
439.52	149.79
439.70	65.54
439.89	140.43
440.08	161.50
440.26	126.39
440.45	154.48
440.63	138.09
440.82	86.60
441.01	124.05
441.19	84.26
441.38	131.07
441.57	145.11
441.75	220.01
441.94	117.03
442.12	70.22
442.31	140.43
442.50	142.77
442.68	154.48
442.87	95.96
443.05	117.03
443.24	180.22
443.43	208.31
443.61	133.41
443.80	168.52
443.98	189.58
444.17	67.88
444.35	198.95
444.54	152.13
444.73	28.09
444.91	175.54
445.10	117.03
445.28	77.24
445.47	152.13
445.65	131.07
445.84	119.37
446.02	166.18
446.21	131.07
446.39	177.88
446.58	119.37
446.77	140.43
446.95	88.94
447.14	100.64
447.32	156.82
447.51	182.56
447.69	159.16
447.88	210.65
448.06	79.58
448.25	79.58
448.43	86.60
448.62	100.64
448.80	114.69
448.99	63.19
449.17	121.71
449.36	140.43
449.54	215.33
449.73	93.62
449.91	140.43
450.10	142.77
450.28	245.76
450.46	194.26
450.65	168.52
450.83	184.90
451.02	152.13
451.20	63.19
451.39	154.48
451.57	175.54
451.76	168.52
451.94	117.03
452.13	163.84
452.31	124.05
452.49	131.07
452.68	138.09
452.86	191.92
453.05	170.86
453.23	205.97
453.42	152.13
453.60	77.24
453.78	170.86
453.97	145.11
454.15	128.73
454.34	177.88
454.52	56.17
454.70	138.09
454.89	201.29
455.07	112.35
455.26	152.13
455.44	159.16
455.62	182.56
455.81	135.75
455.99	154.48
456.17	159.16
456.36	163.84
456.54	161.50
456.73	191.92
456.91	168.52
457.09	102.98
457.28	156.82
457.46	117.03
457.64	159.16
457.83	100.64
458.01	135.75
458.19	145.11
458.38	135.75
458.56	84.26
458.74	243.42
458.93	208.31
459.11	187.24
459.29	147.45
459.48	117.03
459.66	156.82
459.84	147.45
460.03	210.65
460.21	117.03
460.39	194.26
460.57	212.99
460.76	121.71
460.94	86.60
461.12	236.39
461.31	182.56
461.49	117.03
461.67	173.20
461.85	114.69
462.04	138.09
462.22	517.26
462.40	168.52
462.59	107.66
462.77	152.13
462.95	163.84
463.13	79.58
463.32	124.05
463.50	72.56
463.68	184.90
463.86	126.39
464.05	175.54
464.23	131.07
464.41	102.98
464.59	168.52
464.78	126.39
464.96	117.03
465.14	154.48
465.32	138.09
465.50	98.30
465.69	177.88
465.87	147.45
466.05	117.03
466.23	105.32
466.41	182.56
466.60	77.24
466.78	119.37
466.96	147.45
467.14	121.71
467.32	198.95
467.51	191.92
467.69	147.45
467.87	114.69
468.05	128.73
468.23	140.43
468.41	191.92
468.60	149.79
468.78	147.45
468.96	145.11
469.14	133.41
469.32	110.01
469.50	102.98
469.69	166.18
469.87	79.58
470.05	170.86
470.23	88.94
470.41	102.98
470.59	149.79
470.77	184.90
470.95	177.88
471.14	140.43
471.32	182.56
471.50	128.73
471.68	156.82
471.86	175.54
472.04	98.30
472.22	217.67
472.40	107.66
472.58	173.20
472.77	147.45
472.95	149.79
473.13	238.73
473.31	182.56
473.49	156.82
473.67	102.98
473.85	163.84
474.03	180.22
474.21	135.75
474.39	170.86
474.57	138.09
474.75	147.45
474.93	105.32
475.12	79.58
475.30	100.64
475.48	135.75
475.66	117.03
475.84	23.41
476.02	138.09
476.20	187.24
476.38	166.18
476.56	210.65
476.74	100.64
476.92	135.75
477.10	210.65
477.28	177.88
477.46	95.96
477.64	191.92
477.82	110.01
478.00	147.45
478.18	107.66
478.36	107.66
478.54	131.07
478.72	126.39
478.90	126.39
479.08	161.50
479.26	203.63
479.44	72.56
479.62	152.13
479.80	112.35
479.98	170.86
480.16	147.45
480.34	175.54
480.52	140.43
480.70	189.58
480.88	142.77
481.06	81.92
481.24	152.13
481.41	227.03
481.59	138.09
481.77	93.62
481.95	140.43
482.13	156.82
482.31	91.28
482.49	72.56
482.67	212.99
482.85	154.48
483.03	100.64
483.21	168.52
483.39	70.22
483.57	147.45
483.74	191.92
483.92	60.85
484.10	152.13
484.28	168.52
484.46	187.24
484.64	138.09
484.82	147.45
485.00	105.32
485.18	131.07
485.35	124.05
485.53	189.58
485.71	189.58
485.89	117.03
486.07	154.48
486.25	187.24
486.43	128.73
486.61	161.50
486.78	180.22
486.96	149.79
487.14	173.20
487.32	112.35
487.50	117.03
487.68	140.43
487.85	98.30
488.03	161.50
488.21	93.62
488.39	180.22
488.57	67.88
488.75	145.11
488.92	210.65
489.10	154.48
489.28	187.24
489.46	140.43
489.64	114.69
489.81	180.22
489.99	110.01
490.17	105.32
490.35	173.20
490.53	124.05
490.70	131.07
490.88	152.13
491.06	145.11
491.24	131.07
491.41	152.13
491.59	142.77
491.77	161.50
491.95	110.01
492.13	138.09
492.30	114.69
492.48	175.54
492.66	112.35
492.84	63.19
493.01	182.56
493.19	124.05
493.37	149.79
493.54	135.75
493.72	257.46
493.90	208.31
494.08	161.50
494.25	98.30
494.43	173.20
494.61	173.20
494.79	9.36
494.96	112.35
495.14	142.77
495.32	156.82
495.49	100.64
495.67	173.20
495.85	95.96
496.02	201.29
496.20	173.20
496.38	117.03
496.55	126.39
496.73	112.35
496.91	110.01
497.09	161.50
497.26	126.39
497.44	121.71
497.62	184.90
497.79	105.32
497.97	119.37
498.14	189.58
498.32	133.41
498.50	194.26
498.67	159.16
498.85	166.18
499.03	166.18
499.20	205.97
499.38	131.07
499.56	131.07
499.73	210.65
499.91	131.07
500.08	128.73
500.26	184.90
500.44	149.79
500.61	121.71
500.79	23.41
500.97	145.11
501.14	187.24
501.32	154.48
501.49	121.71
501.67	161.50
501.84	187.24
502.02	110.01
502.20	205.97
502.37	117.03
502.55	166.18
502.72	119.37
502.90	191.92
503.07	110.01
503.25	189.58
503.43	140.43
503.60	121.71
503.78	191.92
503.95	163.84
504.13	128.73
504.30	86.60
504.48	124.05
504.65	121.71
504.83	177.88
505.01	159.16
505.18	100.64
505.36	140.43
505.53	107.66
505.71	88.94
505.88	149.79
506.06	100.64
506.23	124.05
506.41	142.77
506.58	142.77
506.76	95.96
506.93	159.16
507.11	117.03
507.28	105.32
507.46	140.43
507.63	182.56
507.81	182.56
507.98	138.09
508.16	88.94
508.33	196.60
508.50	142.77
508.68	152.13
508.85	84.26
509.03	154.48
509.20	98.30
509.38	135.75
509.55	149.79
509.73	159.16
509.90	145.11
510.08	74.90
510.25	117.03
510.42	124.05
510.60	184.90
510.77	175.54
510.95	149.79
511.12	145.11
511.30	138.09
511.47	227.03
511.64	198.95
511.82	84.26
511.99	100.64
512.17	180.22
512.34	145.11
512.51	110.01
512.69	154.48
512.86	77.24
513.04	98.30
513.21	128.73
513.38	159.16
513.56	138.09
513.73	140.43
513.90	170.86
514.08	126.39
514.25	147.45
514.43	187.24
514.60	102.98
514.77	112.35
514.95	154.48
515.12	180.22
515.29	117.03
515.47	79.58
515.64	133.41
515.81	138.09
515.99	114.69
516.16	102.98
516.33	173.20
516.51	147.45
516.68	117.03
516.85	198.95
517.03	140.43
517.20	163.84
517.37	187.24
517.54	184.90
517.72	98.30
517.89	32.77
518.06	98.30
518.24	149.79
518.41	222.35
518.58	140.43
518.75	100.64
518.93	147.45
519.10	147.45
519.27	159.16
519.45	117.03
519.62	142.77
519.79	147.45
519.96	86.60
520.14	135.75
520.31	203.63
520.48	170.86
520.65	95.96
520.83	152.13
521.00	142.77
521.17	107.66
521.34	114.69
521.52	74.90
521.69	117.03
521.86	152.13
522.03	93.62
522.20	107.66
522.38	154.48
522.55	135.75
522.72	117.03
522.89	189.58
523.07	220.01
523.24	119.37
523.41	210.65
523.58	194.26
523.75	210.65
523.92	100.64
524.10	224.69
524.27	173.20
524.44	60.85
524.61	149.79
524.78	98.30
524.96	135.75
525.13	131.07
525.30	189.58
525.47	173.20
525.64	154.48
525.81	95.96
525.98	93.62
526.16	159.16
526.33	86.60
526.50	107.66
526.67	135.75
526.84	117.03
527.01	119.37
527.18	128.73
527.36	95.96
527.53	147.45
527.70	149.79
527.87	119.37
528.04	133.41
528.21	119.37
528.38	135.75
528.55	154.48
528.72	184.90
528.89	201.29
529.07	93.62
529.24	152.13
529.41	149.79
529.58	177.88
529.75	88.94
529.92	138.09
530.09	93.62
530.26	173.20
530.43	215.33
530.60	110.01
530.77	147.45
530.94	161.50
531.11	93.62
531.28	159.16
531.46	175.54
531.63	159.16
531.80	168.52
531.97	177.88
532.14	138.09
532.31	194.26
532.48	210.65
532.65	262.14
532.82	177.88
532.99	163.84
533.16	215.33
533.33	175.54
533.50	170.86
533.67	170.86
533.84	259.80
534.01	280.86
534.18	182.56
534.35	154.48
534.52	159.16
534.69	149.79
534.86	100.64
535.03	182.56
535.20	121.71
535.37	191.92
535.54	117.03
535.71	149.79
535.88	208.31
536.05	124.05
536.22	133.41
536.38	177.88
536.55	196.60
536.72	140.43
536.89	128.73
537.06	191.92
537.23	77.24
537.40	140.43
537.57	93.62
537.74	107.66
537.91	110.01
538.08	210.65
538.25	166.18
538.42	234.05
538.59	142.77
538.75	133.41
538.92	177.88
539.09	184.90
539.26	168.52
539.43	372.15
539.60	716.20
539.77	990.05
539.94	805.14
540.11	454.06
540.28	271.50
540.44	220.01
540.61	117.03
540.78	163.84
540.95	156.82
541.12	175.54
541.29	126.39
541.46	182.56
541.62	187.24
541.79	149.79
541.96	142.77
542.13	159.16
542.30	138.09
542.47	140.43
542.63	177.88
542.80	79.58
542.97	184.90
543.14	121.71
543.31	119.37
543.48	112.35
543.64	117.03
543.81	161.50
543.98	114.69
544.15	114.69
544.32	173.20
544.48	105.32
544.65	131.07
544.82	131.07
544.99	126.39
545.16	196.60
545.32	102.98
545.49	128.73
545.66	95.96
545.83	124.05
546.00	133.41
546.16	184.90
546.33	142.77
546.50	81.92
546.67	182.56
546.83	189.58
547.00	95.96
547.17	105.32
547.34	149.79
547.50	154.48
547.67	166.18
547.84	133.41
548.00	147.45
548.17	74.90
548.34	128.73
548.51	133.41
548.67	163.84
548.84	121.71
549.01	126.39
549.18	180.22
549.34	182.56
549.51	93.62
549.68	72.56
549.84	205.97
550.01	170.86
550.18	170.86
550.34	227.03
550.51	110.01
550.68	161.50
550.84	135.75
551.01	128.73
551.18	117.03
551.34	191.92
551.51	81.92
551.68	100.64
551.84	159.16
552.01	175.54
552.18	175.54
552.34	128.73
552.51	98.30
552.68	74.90
552.84	124.05
553.01	51.49
553.18	173.20
553.34	65.54
553.51	163.84
553.67	180.22
553.84	142.77
554.01	154.48
554.17	168.52
554.34	93.62
554.51	145.11
554.67	220.01
554.84	184.90
555.00	110.01
555.17	145.11
555.33	163.84
555.50	210.65
555.67	117.03
555.83	154.48
556.00	102.98
556.16	304.27
556.33	119.37
556.50	119.37
556.66	110.01
556.83	175.54
556.99	163.84
557.16	210.65
557.32	152.13
557.49	93.62
557.65	117.03
557.82	105.32
557.98	208.31
558.15	138.09
558.32	152.13
558.48	166.18
558.65	163.84
558.81	184.90
558.98	159.16
559.14	189.58
559.31	163.84
559.47	198.95
559.64	166.18
559.80	159.16
559.97	152.13
560.13	245.76
560.30	133.41
560.46	84.26
560.63	93.62
560.79	46.81
560.96	95.96
561.12	154.48
561.29	196.60
561.45	189.58
561.61	138.09
561.78	201.29
561.94	142.77
562.11	124.05
562.27	79.58
562.44	93.62
562.60	119.37
562.77	135.75
562.93	159.16
563.10	161.50
563.26	119.37
563.42	173.20
563.59	121.71
563.75	95.96
563.92	126.39
564.08	154.48
564.24	124.05
564.41	212.99
564.57	126.39
564.74	173.20
564.90	210.65
565.07	161.50
565.23	231.71
565.39	208.31
565.56	133.41
565.72	95.96
565.88	189.58
566.05	177.88
566.21	140.43
566.38	140.43
566.54	177.88
566.70	110.01
566.87	177.88
567.03	163.84
567.19	93.62
567.36	126.39
567.52	159.16
567.68	182.56
567.85	198.95
568.01	198.95
568.17	168.52
568.34	119.37
568.50	182.56
568.66	203.63
568.83	215.33
568.99	102.98
569.15	180.22
569.32	152.13
569.48	140.43
569.64	126.39
569.81	170.86
569.97	67.88
570.13	173.20
570.30	74.90
570.46	145.11
570.62	161.50
570.78	175.54
570.95	126.39
571.11	229.37
571.27	215.33
571.43	231.71
571.60	215.33
571.76	149.79
571.92	121.71
572.09	88.94
572.25	100.64
572.41	105.32
572.57	81.92
572.74	217.67
572.90	135.75
573.06	191.92
573.22	196.60
573.38	273.84
573.55	182.56
573.71	98.30
573.87	180.22
574.03	259.80
574.20	205.97
574.36	187.24
574.52	245.76
574.68	147.45
574.84	147.45
575.01	149.79
575.17	140.43
575.33	107.66
575.49	107.66
575.65	231.71
575.82	315.97
575.98	442.36
576.14	430.66
576.30	311.29
576.46	297.25
576.62	215.33
576.79	100.64
576.95	252.78
577.11	147.45
577.27	159.16
577.43	175.54
577.59	222.35
577.75	133.41
577.92	215.33
578.08	161.50
578.24	175.54
578.40	152.13
578.56	241.08
578.72	208.31
578.88	168.52
579.04	175.54
579.21	220.01
579.37	170.86
579.53	161.50
579.69	191.92
579.85	187.24
580.01	198.95
580.17	252.78
580.33	189.58
580.49	168.52
580.65	224.69
580.82	210.65
580.98	184.90
581.14	210.65
581.30	222.35
581.46	386.19
581.62	395.55
581.78	388.53
581.94	337.04
582.10	259.80
582.26	252.78
582.42	212.99
582.58	266.82
582.74	203.63
582.90	234.05
583.06	287.89
583.22	285.55
583.38	348.74
583.54	358.10
583.70	372.15
583.86	353.42
584.02	496.19
584.18	676.41
584.34	1198.35
584.50	8273.79
584.66	29429.90
584.82	49329.13
584.98	50471.31
585.14	32584.94
585.30	17078.89
585.46	8147.40
585.62	3274.41
585.78	1434.75
585.94	870.68
586.10	564.07
586.26	477.47
586.42	386.19
586.58	339.38
586.74	308.95
586.90	299.59
587.06	283.20
587.22	353.42
587.38	543.00
587.54	1554.12
587.70	3199.51
587.86	4028.06
588.02	2909.29
588.18	1935.62
588.34	1114.10
588.49	571.09
588.65	313.63
588.81	252.78
588.97	222.35
589.13	208.31
589.29	304.27
589.45	234.05
589.61	194.26
589.77	292.57
589.93	299.59
590.08	287.89
590.24	292.57
590.40	238.73
590.56	208.31
590.72	245.76
590.88	222.35
591.04	187.24
591.20	198.95
591.35	180.22
591.51	194.26
591.67	173.20
591.83	161.50
591.99	196.60
592.15	227.03
592.31	220.01
592.46	135.75
592.62	138.09
592.78	161.50
592.94	163.84
593.10	156.82
593.26	159.16
593.41	255.12
593.57	372.15
593.73	1350.49
593.89	3948.48
594.05	6218.80
594.20	6469.24
594.36	4353.40
594.52	2492.67
594.68	1390.28
594.84	791.10
594.99	339.38
595.15	229.37
595.31	243.42
595.47	285.55
595.62	224.69
595.78	269.16
595.94	262.14
596.10	215.33
596.25	189.58
596.41	320.65
596.57	177.88
596.73	191.92
596.88	681.10
597.04	1252.19
597.20	1666.46
597.36	1259.21
597.51	844.93
597.67	636.63
597.83	276.18
597.99	264.48
598.14	210.65
598.30	191.92
598.46	189.58
598.61	212.99
598.77	220.01
598.93	147.45
599.09	140.43
599.24	215.33
599.40	198.95
599.56	117.03
599.71	156.82
599.87	184.90
600.03	201.29
600.18	163.84
600.34	140.43
600.50	182.56
600.65	119.37
600.81	276.18
600.97	194.26
601.12	159.16
601.28	184.90
601.44	159.16
601.59	166.18
601.75	140.43
601.91	173.20
602.06	266.82
602.22	458.74
602.37	994.73
602.53	1558.80
602.69	1790.51
602.84	1320.06
603.00	779.40
603.16	521.94
603.31	379.17
603.47	287.89
603.62	124.05
603.78	168.52
603.94	152.13
604.09	210.65
604.25	161.50
604.40	133.41
604.56	166.18
604.71	175.54
604.87	161.50
605.03	184.90
605.18	163.84
605.34	227.03
605.49	187.24
605.65	220.01
605.80	187.24
605.96	161.50
606.12	241.08
606.27	250.44
606.43	299.59
606.58	557.05
606.74	1991.80
606.89	3915.72
607.05	5228.76
607.20	4273.82
607.36	2937.37
607.51	1961.37
607.67	1179.63
607.82	538.32
607.98	325.33
608.13	290.23
608.29	229.37
608.44	269.16
608.60	318.31
608.75	784.08
608.91	3286.11
609.06	6654.14
609.22	9088.30
609.37	7494.40
609.53	5132.79
609.68	3293.13
609.84	1891.15
609.99	844.93
610.15	526.62
610.30	290.23
610.46	257.46
610.61	236.39
610.76	145.11
610.92	227.03
611.07	231.71
611.23	322.99
611.38	156.82
611.54	154.48
611.69	95.96
611.84	205.97
612.00	189.58
612.15	212.99
612.31	285.55
612.46	379.17
612.62	395.55
612.77	369.80
612.92	315.97
613.08	285.55
613.23	308.95
613.39	671.73
613.54	3279.09
613.69	8851.91
613.85	13881.72
614.00	14019.81
614.15	10125.16
614.31	6438.81
614.46	3997.64
614.62	2141.59
614.77	929.19
614.92	531.30
615.08	397.89
615.23	318.31
615.38	287.89
615.54	624.92
615.69	1778.81
615.84	3344.63
616.00	3705.07
616.15	3000.57
616.30	2062.01
616.46	1320.06
616.61	732.59
616.76	414.27
616.92	311.29
617.07	234.05
617.22	231.71
617.37	205.97
617.53	191.92
617.68	159.16
617.83	135.75
617.99	245.76
618.14	283.20
618.29	180.22
618.45	156.82
618.60	126.39
618.75	152.13
618.90	140.43
619.06	138.09
619.21	220.01
619.36	227.03
619.51	208.31
619.67	210.65
619.82	72.56
619.97	236.39
620.12	205.97
620.28	205.97
620.43	159.16
620.58	166.18
620.73	231.71
620.89	458.74
621.04	999.41
621.19	1870.09
621.34	2237.55
621.49	1874.77
621.65	1404.32
621.80	933.87
621.95	589.82
622.10	397.89
622.25	259.80
622.41	191.92
622.56	159.16
622.71	198.95
622.86	220.01
623.01	159.16
623.16	208.31
623.32	154.48
623.47	203.63
623.62	145.11
623.77	205.97
623.92	224.69
624.07	149.79
624.23	156.82
624.38	212.99
624.53	145.11
624.68	159.16
624.83	180.22
624.98	250.44
625.13	201.29
625.29	264.48
625.44	224.69
625.59	264.48
625.74	491.51
625.89	1788.17
626.04	4681.07
626.19	7115.23
626.34	7140.97
626.49	5256.84
626.65	3485.06
626.80	2284.36
626.95	1224.10
627.10	641.31
627.25	402.57
627.40	273.84
627.55	182.56
627.70	252.78
627.85	205.97
628.00	177.88
628.15	133.41
628.30	177.88
628.45	168.52
628.60	250.44
628.76	168.52
628.91	224.69
629.06	189.58
629.21	145.11
629.36	234.05
629.51	170.86
629.66	435.34
629.81	1041.54
629.96	1643.06
630.11	1956.69
630.26	1666.46
630.41	1198.35
630.56	896.43
630.71	550.03
630.86	416.62
631.01	266.82
631.16	238.73
631.31	180.22
631.46	175.54
631.61	224.69
631.76	159.16
631.91	156.82
632.06	196.60
632.21	170.86
632.36	217.67
632.51	294.91
632.66	1043.88
632.81	2647.15
632.96	4273.82
633.10	4840.23
633.25	3819.75
633.40	2560.55
633.55	1767.10
633.70	1086.01
633.85	564.07
634.00	334.70
634.15	264.48
634.30	145.11
634.45	231.71
634.60	205.97
634.75	163.84
634.90	98.30
635.05	198.95
635.19	100.64
635.34	156.82
635.49	210.65
635.64	156.82
635.79	177.88
635.94	175.54
636.09	142.77
636.24	285.55
636.39	215.33
636.53	173.20
636.68	173.20
636.83	191.92
636.98	241.08
637.13	215.33
637.28	287.89
637.43	816.85
637.57	2834.39
637.72	6022.20
637.87	8699.77
638.02	8496.14
638.17	6232.85
638.32	4285.52
638.46	2712.68
638.61	1610.29
638.76	844.93
638.91	463.43
639.06	390.87
639.20	486.83
639.35	1116.44
639.50	4007.00
639.65	9057.87
639.80	13305.95
639.94	12655.28
640.09	9774.08
640.24	6455.20
640.39	4028.06
640.54	2345.22
640.68	1137.50
640.83	554.71
640.98	428.32
641.13	301.93
641.27	217.67
641.42	238.73
641.57	301.93
641.72	236.39
641.86	168.52
642.01	170.86
642.16	248.10
642.31	138.09
642.45	248.10
642.60	198.95
642.75	173.20
642.90	222.35
643.04	173.20
643.19	168.52
643.34	173.20
643.48	154.48
643.63	114.69
643.78	177.88
643.93	147.45
644.07	217.67
644.22	170.86
644.37	110.01
644.51	114.69
644.66	217.67
644.81	161.50
644.95	220.01
645.10	126.39
645.25	203.63
645.39	182.56
645.54	159.16
645.69	236.39
645.83	119.37
645.98	217.67
646.13	133.41
646.27	177.88
646.42	238.73
646.57	161.50
646.71	231.71
646.86	147.45
647.00	259.80
647.15	168.52
647.30	88.94
647.44	114.69
647.59	191.92
647.74	100.64
647.88	142.77
648.03	126.39
648.17	217.67
648.32	100.64
648.47	152.13
648.61	182.56
648.76	138.09
648.90	205.97
649.05	250.44
649.20	135.75
649.34	142.77
649.49	163.84
649.63	182.56
649.78	414.27
649.92	1678.16
650.07	4114.66
650.21	6518.39
650.36	7318.86
650.51	5650.05
650.65	3957.85
650.80	2462.24
650.94	1444.11
651.09	847.27
651.23	475.13
651.38	325.33
651.52	210.65
651.67	217.67
651.81	259.80
651.96	220.01
652.10	224.69
652.25	128.73
652.39	241.08
652.54	526.62
652.68	1373.89
652.83	2216.49
652.97	2775.88
653.12	2160.31
653.26	1650.08
653.41	1174.95
653.55	716.20
653.70	402.57
653.84	271.50
653.99	276.18
654.13	145.11
654.27	198.95
654.42	203.63
654.56	170.86
654.71	161.50
654.85	112.35
655.00	191.92
655.14	156.82
655.29	180.22
655.43	182.56
655.57	180.22
655.72	102.98
655.86	147.45
656.01	142.77
656.15	145.11
656.30	182.56
656.44	147.45
656.58	194.26
656.73	142.77
656.87	86.60
657.01	182.56
657.16	243.42
657.30	159.16
657.45	203.63
657.59	140.43
657.73	140.43
657.88	184.90
658.02	194.26
658.16	152.13
658.31	196.60
658.45	142.77
658.60	124.05
658.74	100.64
658.88	161.50
659.03	210.65
659.17	748.97
659.31	1858.39
659.46	3152.70
659.60	3791.67
659.74	3192.49
659.89	2265.64
660.03	1507.30
660.17	912.81
660.32	547.69
660.46	330.02
660.60	161.50
660.74	313.63
660.89	135.75
661.03	86.60
661.17	163.84
661.32	191.92
661.46	184.90
661.60	126.39
661.74	229.37
661.89	159.16
662.03	142.77
662.17	180.22
662.31	133.41
662.46	161.50
662.60	182.56
662.74	142.77
662.88	229.37
663.03	182.56
663.17	70.22
663.31	180.22
663.45	208.31
663.60	128.73
663.74	184.90
663.88	166.18
664.02	168.52
664.17	105.32
664.31	156.82
664.45	187.24
664.59	119.37
664.73	161.50
664.88	175.54
665.02	131.07
665.16	142.77
665.30	194.26
665.44	163.84
665.59	184.90
665.73	180.22
665.87	131.07
666.01	138.09
666.15	124.05
666.29	161.50
666.44	292.57
666.58	266.82
666.72	114.69
666.86	203.63
667.00	365.12
667.14	1472.20
667.28	3485.06
667.43	5701.54
667.57	6752.45
667.71	5364.51
667.85	3576.34
667.99	2181.38
668.13	1308.36
668.27	791.10
668.41	486.83
668.56	287.89
668.70	294.91
668.84	182.56
668.98	234.05
669.12	248.10
669.26	177.88
669.40	224.69
669.54	159.16
669.68	203.63
669.82	189.58
669.96	166.18
670.10	194.26
670.25	166.18
670.39	210.65
670.53	210.65
670.67	238.73
670.81	161.50
670.95	458.74
671.09	1371.55
671.23	2738.43
671.37	4046.79
671.51	3852.52
671.65	2928.01
671.79	1970.73
671.93	1203.04
672.07	828.55
672.21	510.24
672.35	308.95
672.49	187.24
672.63	243.42
672.77	203.63
672.91	117.03
673.05	145.11
673.19	196.60
673.33	112.35
673.47	166.18
673.61	234.05
673.75	166.18
673.89	173.20
674.03	187.24
674.17	124.05
674.31	201.29
674.45	135.75
674.59	198.95
674.73	161.50
674.87	208.31
675.01	201.29
675.15	180.22
675.29	231.71
675.43	215.33
675.56	224.69
675.70	180.22
675.84	177.88
675.98	117.03
676.12	154.48
676.26	100.64
676.40	161.50
676.54	189.58
676.68	128.73
676.82	138.09
676.96	147.45
677.10	175.54
677.23	114.69
677.37	131.07
677.51	140.43
677.65	175.54
677.79	163.84
677.93	142.77
678.07	170.86
678.21	67.88
678.34	70.22
678.48	154.48
678.62	147.45
678.76	124.05
678.90	77.24
679.04	196.60
679.18	128.73
679.31	79.58
679.45	224.69
679.59	168.52
679.73	159.16
679.87	107.66
680.00	95.96
680.14	117.03
680.28	95.96
680.42	145.11
680.56	149.79
680.70	119.37
680.83	198.95
680.97	210.65
681.11	128.73
681.25	133.41
681.39	110.01
681.52	156.82
681.66	196.60
681.80	156.82
681.94	86.60
682.07	102.98
682.21	128.73
682.35	156.82
682.49	145.11
682.62	138.09
682.76	77.24
682.90	163.84
683.04	152.13
683.17	149.79
683.31	170.86
683.45	154.48
683.59	184.90
683.72	135.75
683.86	212.99
684.00	91.28
684.13	220.01
684.27	131.07
684.41	208.31
684.55	147.45
684.68	135.75
684.82	135.75
684.96	93.62
685.09	163.84
685.23	74.90
685.37	142.77
685.50	154.48
685.64	203.63
685.78	128.73
685.91	124.05
686.05	201.29
686.19	163.84
686.32	145.11
686.46	189.58
686.60	138.09
686.73	222.35
686.87	220.01
687.01	184.90
687.14	147.45
687.28	126.39
687.42	175.54
687.55	227.03
687.69	198.95
687.82	133.41
687.96	152.13
688.10	170.86
688.23	102.98
688.37	198.95
688.50	234.05
688.64	100.64
688.78	117.03
688.91	175.54
689.05	161.50
689.18	107.66
689.32	112.35
689.46	112.35
689.59	124.05
689.73	159.16
689.86	110.01
690.00	138.09
690.13	147.45
690.27	102.98
690.41	117.03
690.54	168.52
690.68	156.82
690.81	147.45
690.95	138.09
691.08	140.43
691.22	140.43
691.35	170.86
691.49	187.24
691.62	149.79
691.76	88.94
691.89	173.20
692.03	126.39
692.16	177.88
692.30	496.19
692.43	1420.71
692.57	2284.36
692.70	2827.37
692.84	2438.84
692.97	1963.71
693.11	1376.24
693.24	992.39
693.38	620.24
693.51	547.69
693.65	365.12
693.78	212.99
693.92	177.88
694.05	304.27
694.19	114.69
694.32	138.09
694.45	152.13
694.59	131.07
694.72	198.95
694.86	201.29
694.99	119.37
695.13	156.82
695.26	70.22
695.39	149.79
695.53	210.65
695.66	142.77
695.80	170.86
695.93	205.97
696.07	208.31
696.20	339.38
696.33	315.97
696.47	227.03
696.60	299.59
696.73	236.39
696.87	248.10
697.00	271.50
697.14	140.43
697.27	121.71
697.40	227.03
697.54	145.11
697.67	135.75
697.80	177.88
697.94	117.03
698.07	95.96
698.21	147.45
698.34	72.56
698.47	135.75
698.61	133.41
698.74	110.01
698.87	114.69
699.01	175.54
699.14	170.86
699.27	133.41
699.40	227.03
699.54	159.16
699.67	135.75
699.80	121.71
699.94	147.45
700.07	72.56
700.20	112.35
700.34	152.13
700.47	175.54
700.60	131.07
700.73	126.39
700.87	154.48
701.00	91.28
701.13	173.20
701.26	194.26
701.40	170.86
701.53	142.77
701.66	175.54
701.79	187.24
701.93	203.63
702.06	330.02
702.19	283.20
702.32	308.95
702.46	318.31
702.59	596.84
702.72	1802.21
702.85	3461.65
702.99	4816.82
703.12	5331.74
703.25	4648.30
703.38	3808.05
703.51	2937.37
703.65	2097.12
703.78	1364.53
703.91	936.21
704.04	648.33
704.17	421.30
704.31	287.89
704.44	266.82
704.57	184.90
704.70	154.48
704.83	138.09
704.96	196.60
705.10	217.67
705.23	147.45
>>>>>End Processed Spectral Data<<<<<
