SpectraSuite Data File
++++++++++++++++++++++++++++++++++++
Date: Tue Oct 01 18:25:11 GMT-05:00 2013
User: stostad
Dark Spectrum Present: No
Reference Spectrum Present: No
Number of Sampled Component Spectra: 1
Spectrometers: USB2+H05261
Integration Time (usec): 100000 (USB2+H05261)
Spectra Averaged: 1 (USB2+H05261)
Boxcar Smoothing: 0 (USB2+H05261)
Correct for Electrical Dark: No (USB2+H05261)
Strobe/Lamp Enabled: No (USB2+H05261)
Correct for Detector Non-linearity: No (USB2+H05261)
Correct for Stray Light: No (USB2+H05261)
Number of Pixels in Processed Spectrum: 2048
>>>>>Begin Processed Spectral Data<<<<<
365.73	58.51
365.92	58.51
366.12	58.51
366.32	16.38
366.52	0.00
366.72	0.00
366.91	0.00
367.11	9.36
367.31	0.00
367.51	0.00
367.70	0.00
367.90	0.00
368.10	0.00
368.30	0.00
368.49	9.36
368.69	0.00
368.89	0.00
369.09	0.00
369.28	0.00
369.48	0.00
369.68	25.75
369.87	21.06
370.07	51.49
370.27	63.19
370.47	77.24
370.66	56.17
370.86	81.92
371.06	100.64
371.25	126.39
371.45	95.96
371.65	145.11
371.84	16.38
372.04	28.09
372.24	131.07
372.44	65.54
372.63	124.05
372.83	161.50
373.03	114.69
373.22	152.13
373.42	142.77
373.62	149.79
373.81	168.52
374.01	189.58
374.21	196.60
374.40	131.07
374.60	215.33
374.79	95.96
374.99	112.35
375.19	180.22
375.38	159.16
375.58	208.31
375.78	142.77
375.97	205.97
376.17	175.54
376.37	187.24
376.56	117.03
376.76	128.73
376.95	110.01
377.15	168.52
377.35	161.50
377.54	163.84
377.74	95.96
377.93	107.66
378.13	117.03
378.33	154.48
378.52	159.16
378.72	147.45
378.91	131.07
379.11	131.07
379.31	131.07
379.50	166.18
379.70	119.37
379.89	138.09
380.09	107.66
380.28	100.64
380.48	114.69
380.68	152.13
380.87	25.75
381.07	84.26
381.26	142.77
381.46	91.28
381.65	93.62
381.85	60.85
382.04	112.35
382.24	107.66
382.43	63.19
382.63	142.77
382.83	79.58
383.02	201.29
383.22	173.20
383.41	166.18
383.61	114.69
383.80	227.03
384.00	142.77
384.19	149.79
384.39	102.98
384.58	121.71
384.78	124.05
384.97	140.43
385.17	135.75
385.36	133.41
385.56	86.60
385.75	79.58
385.95	133.41
386.14	166.18
386.34	79.58
386.53	149.79
386.72	119.37
386.92	222.35
387.11	201.29
387.31	184.90
387.50	138.09
387.70	154.48
387.89	126.39
388.09	107.66
388.28	72.56
388.48	161.50
388.67	194.26
388.86	117.03
389.06	81.92
389.25	147.45
389.45	154.48
389.64	86.60
389.84	149.79
390.03	110.01
390.22	163.84
390.42	126.39
390.61	110.01
390.81	149.79
391.00	98.30
391.19	77.24
391.39	93.62
391.58	180.22
391.78	142.77
391.97	154.48
392.16	114.69
392.36	166.18
392.55	175.54
392.75	163.84
392.94	114.69
393.13	112.35
393.33	159.16
393.52	114.69
393.71	156.82
393.91	81.92
394.10	149.79
394.29	126.39
394.49	131.07
394.68	215.33
394.88	177.88
395.07	154.48
395.26	156.82
395.46	119.37
395.65	184.90
395.84	224.69
396.04	184.90
396.23	126.39
396.42	100.64
396.62	105.32
396.81	166.18
397.00	166.18
397.19	119.37
397.39	198.95
397.58	215.33
397.77	154.48
397.97	119.37
398.16	154.48
398.35	110.01
398.55	131.07
398.74	117.03
398.93	140.43
399.12	93.62
399.32	114.69
399.51	100.64
399.70	95.96
399.90	112.35
400.09	140.43
400.28	138.09
400.47	177.88
400.67	95.96
400.86	152.13
401.05	138.09
401.24	133.41
401.44	117.03
401.63	91.28
401.82	107.66
402.01	56.17
402.21	72.56
402.40	100.64
402.59	114.69
402.78	152.13
402.97	114.69
403.17	86.60
403.36	112.35
403.55	86.60
403.74	182.56
403.93	147.45
404.13	170.86
404.32	117.03
404.51	149.79
404.70	175.54
404.89	131.07
405.09	128.73
405.28	135.75
405.47	114.69
405.66	112.35
405.85	196.60
406.05	79.58
406.24	152.13
406.43	63.19
406.62	79.58
406.81	161.50
407.00	189.58
407.20	182.56
407.39	154.48
407.58	173.20
407.77	77.24
407.96	166.18
408.15	93.62
408.34	93.62
408.54	131.07
408.73	100.64
408.92	126.39
409.11	128.73
409.30	128.73
409.49	161.50
409.68	177.88
409.87	168.52
410.07	191.92
410.26	163.84
410.45	152.13
410.64	102.98
410.83	124.05
411.02	180.22
411.21	154.48
411.40	131.07
411.59	121.71
411.78	138.09
411.98	107.66
412.17	112.35
412.36	135.75
412.55	84.26
412.74	187.24
412.93	107.66
413.12	152.13
413.31	142.77
413.50	161.50
413.69	84.26
413.88	168.52
414.07	133.41
414.26	168.52
414.45	128.73
414.64	100.64
414.83	98.30
415.02	142.77
415.22	196.60
415.41	163.84
415.60	212.99
415.79	126.39
415.98	196.60
416.17	189.58
416.36	131.07
416.55	100.64
416.74	117.03
416.93	180.22
417.12	121.71
417.31	105.32
417.50	126.39
417.69	161.50
417.88	229.37
418.07	117.03
418.26	124.05
418.45	138.09
418.64	220.01
418.83	215.33
419.02	133.41
419.21	196.60
419.39	196.60
419.58	126.39
419.77	170.86
419.96	191.92
420.15	184.90
420.34	147.45
420.53	121.71
420.72	205.97
420.91	182.56
421.10	102.98
421.29	124.05
421.48	81.92
421.67	175.54
421.86	147.45
422.05	173.20
422.24	119.37
422.43	135.75
422.61	107.66
422.80	159.16
422.99	182.56
423.18	105.32
423.37	117.03
423.56	119.37
423.75	145.11
423.94	112.35
424.13	107.66
424.32	105.32
424.50	161.50
424.69	191.92
424.88	147.45
425.07	180.22
425.26	201.29
425.45	238.73
425.64	131.07
425.83	189.58
426.01	140.43
426.20	173.20
426.39	135.75
426.58	140.43
426.77	175.54
426.96	180.22
427.15	135.75
427.33	156.82
427.52	152.13
427.71	117.03
427.90	142.77
428.09	114.69
428.28	147.45
428.46	121.71
428.65	180.22
428.84	107.66
429.03	156.82
429.22	198.95
429.40	114.69
429.59	105.32
429.78	147.45
429.97	154.48
430.16	168.52
430.34	173.20
430.53	156.82
430.72	140.43
430.91	161.50
431.10	133.41
431.28	102.98
431.47	147.45
431.66	124.05
431.85	175.54
432.03	198.95
432.22	175.54
432.41	95.96
432.60	175.54
432.79	133.41
432.97	220.01
433.16	175.54
433.35	133.41
433.54	191.92
433.72	194.26
433.91	227.03
434.10	173.20
434.28	163.84
434.47	161.50
434.66	119.37
434.85	49.15
435.03	149.79
435.22	243.42
435.41	161.50
435.59	140.43
435.78	119.37
435.97	145.11
436.16	215.33
436.34	131.07
436.53	145.11
436.72	170.86
436.90	196.60
437.09	159.16
437.28	81.92
437.46	231.71
437.65	163.84
437.84	95.96
438.02	128.73
438.21	138.09
438.40	117.03
438.58	126.39
438.77	114.69
438.96	156.82
439.14	110.01
439.33	170.86
439.52	145.11
439.70	180.22
439.89	231.71
440.08	147.45
440.26	163.84
440.45	135.75
440.63	154.48
440.82	46.81
441.01	72.56
441.19	100.64
441.38	102.98
441.57	236.39
441.75	149.79
441.94	168.52
442.12	128.73
442.31	93.62
442.50	152.13
442.68	121.71
442.87	128.73
443.05	138.09
443.24	142.77
443.43	149.79
443.61	159.16
443.80	114.69
443.98	67.88
444.17	142.77
444.35	100.64
444.54	156.82
444.73	117.03
444.91	135.75
445.10	98.30
445.28	182.56
445.47	135.75
445.65	107.66
445.84	110.01
446.02	156.82
446.21	147.45
446.39	173.20
446.58	180.22
446.77	91.28
446.95	102.98
447.14	119.37
447.32	131.07
447.51	124.05
447.69	140.43
447.88	154.48
448.06	135.75
448.25	154.48
448.43	126.39
448.62	184.90
448.80	149.79
448.99	152.13
449.17	114.69
449.36	88.94
449.54	184.90
449.73	128.73
449.91	102.98
450.10	163.84
450.28	194.26
450.46	152.13
450.65	138.09
450.83	182.56
451.02	74.90
451.20	142.77
451.39	110.01
451.57	126.39
451.76	156.82
451.94	203.63
452.13	184.90
452.31	166.18
452.49	133.41
452.68	152.13
452.86	124.05
453.05	100.64
453.23	140.43
453.42	198.95
453.60	159.16
453.78	95.96
453.97	159.16
454.15	93.62
454.34	138.09
454.52	152.13
454.70	140.43
454.89	166.18
455.07	110.01
455.26	168.52
455.44	161.50
455.62	63.19
455.81	25.75
455.99	117.03
456.17	88.94
456.36	98.30
456.54	91.28
456.73	102.98
456.91	175.54
457.09	142.77
457.28	102.98
457.46	67.88
457.64	231.71
457.83	138.09
458.01	74.90
458.19	142.77
458.38	102.98
458.56	145.11
458.74	128.73
458.93	79.58
459.11	145.11
459.29	131.07
459.48	128.73
459.66	135.75
459.84	105.32
460.03	196.60
460.21	154.48
460.39	203.63
460.57	224.69
460.76	119.37
460.94	105.32
461.12	159.16
461.31	119.37
461.49	149.79
461.67	112.35
461.85	131.07
462.04	147.45
462.22	620.24
462.40	210.65
462.59	138.09
462.77	215.33
462.95	198.95
463.13	142.77
463.32	88.94
463.50	173.20
463.68	117.03
463.86	205.97
464.05	60.85
464.23	128.73
464.41	117.03
464.59	117.03
464.78	184.90
464.96	131.07
465.14	161.50
465.32	126.39
465.50	142.77
465.69	145.11
465.87	161.50
466.05	208.31
466.23	163.84
466.41	119.37
466.60	119.37
466.78	112.35
466.96	220.01
467.14	210.65
467.32	168.52
467.51	152.13
467.69	131.07
467.87	173.20
468.05	191.92
468.23	191.92
468.41	124.05
468.60	63.19
468.78	154.48
468.96	201.29
469.14	175.54
469.32	163.84
469.50	154.48
469.69	154.48
469.87	93.62
470.05	189.58
470.23	156.82
470.41	163.84
470.59	156.82
470.77	131.07
470.95	156.82
471.14	187.24
471.32	119.37
471.50	156.82
471.68	102.98
471.86	112.35
472.04	170.86
472.22	65.54
472.40	102.98
472.58	126.39
472.77	156.82
472.95	119.37
473.13	161.50
473.31	128.73
473.49	110.01
473.67	117.03
473.85	135.75
474.03	86.60
474.21	131.07
474.39	114.69
474.57	126.39
474.75	133.41
474.93	65.54
475.12	161.50
475.30	102.98
475.48	121.71
475.66	88.94
475.84	210.65
476.02	100.64
476.20	145.11
476.38	133.41
476.56	170.86
476.74	191.92
476.92	119.37
477.10	88.94
477.28	182.56
477.46	74.90
477.64	135.75
477.82	126.39
478.00	117.03
478.18	154.48
478.36	110.01
478.54	168.52
478.72	112.35
478.90	117.03
479.08	170.86
479.26	112.35
479.44	133.41
479.62	189.58
479.80	100.64
479.98	128.73
480.16	145.11
480.34	184.90
480.52	168.52
480.70	229.37
480.88	124.05
481.06	79.58
481.24	119.37
481.41	81.92
481.59	168.52
481.77	110.01
481.95	131.07
482.13	198.95
482.31	163.84
482.49	16.38
482.67	161.50
482.85	173.20
483.03	156.82
483.21	86.60
483.39	72.56
483.57	196.60
483.74	152.13
483.92	194.26
484.10	81.92
484.28	126.39
484.46	205.97
484.64	128.73
484.82	252.78
485.00	147.45
485.18	152.13
485.35	98.30
485.53	154.48
485.71	117.03
485.89	168.52
486.07	180.22
486.25	154.48
486.43	215.33
486.61	227.03
486.78	93.62
486.96	105.32
487.14	72.56
487.32	102.98
487.50	140.43
487.68	161.50
487.85	102.98
488.03	161.50
488.21	93.62
488.39	142.77
488.57	220.01
488.75	107.66
488.92	276.18
489.10	170.86
489.28	124.05
489.46	128.73
489.64	128.73
489.81	72.56
489.99	161.50
490.17	175.54
490.35	252.78
490.53	142.77
490.70	135.75
490.88	138.09
491.06	149.79
491.24	184.90
491.41	128.73
491.59	131.07
491.77	168.52
491.95	140.43
492.13	98.30
492.30	168.52
492.48	91.28
492.66	79.58
492.84	145.11
493.01	138.09
493.19	107.66
493.37	147.45
493.54	194.26
493.72	166.18
493.90	88.94
494.08	196.60
494.25	124.05
494.43	140.43
494.61	98.30
494.79	166.18
494.96	98.30
495.14	133.41
495.32	142.77
495.49	147.45
495.67	147.45
495.85	114.69
496.02	159.16
496.20	107.66
496.38	140.43
496.55	191.92
496.73	180.22
496.91	128.73
497.09	131.07
497.26	152.13
497.44	95.96
497.62	121.71
497.79	170.86
497.97	121.71
498.14	173.20
498.32	147.45
498.50	95.96
498.67	86.60
498.85	154.48
499.03	124.05
499.20	131.07
499.38	98.30
499.56	107.66
499.73	117.03
499.91	112.35
500.08	161.50
500.26	142.77
500.44	93.62
500.61	135.75
500.79	163.84
500.97	149.79
501.14	159.16
501.32	124.05
501.49	203.63
501.67	138.09
501.84	112.35
502.02	114.69
502.20	133.41
502.37	163.84
502.55	135.75
502.72	88.94
502.90	166.18
503.07	177.88
503.25	159.16
503.43	131.07
503.60	220.01
503.78	217.67
503.95	152.13
504.13	166.18
504.30	170.86
504.48	196.60
504.65	182.56
504.83	135.75
505.01	114.69
505.18	138.09
505.36	102.98
505.53	196.60
505.71	88.94
505.88	229.37
506.06	95.96
506.23	177.88
506.41	95.96
506.58	161.50
506.76	100.64
506.93	203.63
507.11	212.99
507.28	133.41
507.46	220.01
507.63	142.77
507.81	138.09
507.98	140.43
508.16	107.66
508.33	110.01
508.50	147.45
508.68	95.96
508.85	79.58
509.03	152.13
509.20	152.13
509.38	156.82
509.55	196.60
509.73	149.79
509.90	114.69
510.08	100.64
510.25	175.54
510.42	126.39
510.60	79.58
510.77	98.30
510.95	156.82
511.12	166.18
511.30	194.26
511.47	156.82
511.64	222.35
511.82	175.54
511.99	112.35
512.17	95.96
512.34	86.60
512.51	147.45
512.69	159.16
512.86	154.48
513.04	168.52
513.21	180.22
513.38	159.16
513.56	145.11
513.73	161.50
513.90	140.43
514.08	142.77
514.25	168.52
514.43	117.03
514.60	149.79
514.77	173.20
514.95	149.79
515.12	135.75
515.29	91.28
515.47	163.84
515.64	142.77
515.81	191.92
515.99	170.86
516.16	159.16
516.33	112.35
516.51	159.16
516.68	49.15
516.85	156.82
517.03	191.92
517.20	203.63
517.37	196.60
517.54	180.22
517.72	107.66
517.89	114.69
518.06	67.88
518.24	224.69
518.41	229.37
518.58	252.78
518.75	128.73
518.93	131.07
519.10	124.05
519.27	166.18
519.45	74.90
519.62	184.90
519.79	67.88
519.96	88.94
520.14	147.45
520.31	205.97
520.48	142.77
520.65	100.64
520.83	194.26
521.00	170.86
521.17	102.98
521.34	163.84
521.52	112.35
521.69	107.66
521.86	156.82
522.03	187.24
522.20	278.52
522.38	173.20
522.55	138.09
522.72	91.28
522.89	163.84
523.07	156.82
523.24	184.90
523.41	124.05
523.58	102.98
523.75	175.54
523.92	184.90
524.10	107.66
524.27	126.39
524.44	67.88
524.61	184.90
524.78	133.41
524.96	163.84
525.13	170.86
525.30	154.48
525.47	175.54
525.64	147.45
525.81	93.62
525.98	152.13
526.16	166.18
526.33	138.09
526.50	72.56
526.67	63.19
526.84	159.16
527.01	145.11
527.18	126.39
527.36	135.75
527.53	117.03
527.70	187.24
527.87	117.03
528.04	112.35
528.21	184.90
528.38	140.43
528.55	175.54
528.72	142.77
528.89	161.50
529.07	93.62
529.24	182.56
529.41	142.77
529.58	140.43
529.75	126.39
529.92	138.09
530.09	86.60
530.26	173.20
530.43	86.60
530.60	142.77
530.77	163.84
530.94	149.79
531.11	163.84
531.28	91.28
531.46	110.01
531.63	152.13
531.80	135.75
531.97	112.35
532.14	173.20
532.31	161.50
532.48	191.92
532.65	220.01
532.82	234.05
532.99	215.33
533.16	100.64
533.33	142.77
533.50	196.60
533.67	142.77
533.84	241.08
534.01	173.20
534.18	220.01
534.35	170.86
534.52	163.84
534.69	166.18
534.86	154.48
535.03	152.13
535.20	102.98
535.37	184.90
535.54	152.13
535.71	180.22
535.88	180.22
536.05	138.09
536.22	117.03
536.38	86.60
536.55	131.07
536.72	147.45
536.89	88.94
537.06	124.05
537.23	74.90
537.40	156.82
537.57	102.98
537.74	173.20
537.91	152.13
538.08	117.03
538.25	93.62
538.42	51.49
538.59	142.77
538.75	95.96
538.92	84.26
539.09	131.07
539.26	133.41
539.43	423.64
539.60	704.50
539.77	903.45
539.94	866.00
540.11	507.90
540.28	227.03
540.44	187.24
540.61	77.24
540.78	32.77
540.95	145.11
541.12	135.75
541.29	194.26
541.46	131.07
541.62	147.45
541.79	98.30
541.96	173.20
542.13	98.30
542.30	159.16
542.47	140.43
542.63	131.07
542.80	93.62
542.97	159.16
543.14	102.98
543.31	154.48
543.48	175.54
543.64	156.82
543.81	117.03
543.98	149.79
544.15	147.45
544.32	107.66
544.48	196.60
544.65	156.82
544.82	88.94
544.99	91.28
545.16	177.88
545.32	117.03
545.49	159.16
545.66	102.98
545.83	28.09
546.00	140.43
546.16	166.18
546.33	177.88
546.50	70.22
546.67	173.20
546.83	175.54
547.00	105.32
547.17	161.50
547.34	98.30
547.50	173.20
547.67	140.43
547.84	126.39
548.00	191.92
548.17	184.90
548.34	107.66
548.51	210.65
548.67	133.41
548.84	93.62
549.01	138.09
549.18	212.99
549.34	166.18
549.51	107.66
549.68	105.32
549.84	170.86
550.01	161.50
550.18	147.45
550.34	205.97
550.51	98.30
550.68	128.73
550.84	107.66
551.01	135.75
551.18	184.90
551.34	124.05
551.51	105.32
551.68	140.43
551.84	196.60
552.01	88.94
552.18	112.35
552.34	112.35
552.51	93.62
552.68	229.37
552.84	105.32
553.01	201.29
553.18	177.88
553.34	126.39
553.51	95.96
553.67	149.79
553.84	98.30
554.01	154.48
554.17	110.01
554.34	119.37
554.51	124.05
554.67	131.07
554.84	70.22
555.00	102.98
555.17	93.62
555.33	140.43
555.50	180.22
555.67	170.86
555.83	128.73
556.00	156.82
556.16	292.57
556.33	161.50
556.50	142.77
556.66	119.37
556.83	74.90
556.99	95.96
557.16	182.56
557.32	60.85
557.49	154.48
557.65	159.16
557.82	135.75
557.98	140.43
558.15	110.01
558.32	93.62
558.48	88.94
558.65	152.13
558.81	142.77
558.98	67.88
559.14	114.69
559.31	107.66
559.47	180.22
559.64	114.69
559.80	184.90
559.97	135.75
560.13	105.32
560.30	154.48
560.46	138.09
560.63	98.30
560.79	184.90
560.96	177.88
561.12	88.94
561.29	124.05
561.45	112.35
561.61	117.03
561.78	215.33
561.94	112.35
562.11	154.48
562.27	161.50
562.44	65.54
562.60	175.54
562.77	156.82
562.93	217.67
563.10	121.71
563.26	126.39
563.42	196.60
563.59	175.54
563.75	133.41
563.92	168.52
564.08	142.77
564.24	138.09
564.41	191.92
564.57	114.69
564.74	126.39
564.90	119.37
565.07	180.22
565.23	149.79
565.39	156.82
565.56	133.41
565.72	128.73
565.88	140.43
566.05	112.35
566.21	102.98
566.38	128.73
566.54	159.16
566.70	70.22
566.87	194.26
567.03	110.01
567.19	159.16
567.36	93.62
567.52	159.16
567.68	173.20
567.85	184.90
568.01	196.60
568.17	128.73
568.34	166.18
568.50	138.09
568.66	102.98
568.83	203.63
568.99	166.18
569.15	175.54
569.32	168.52
569.48	88.94
569.64	100.64
569.81	152.13
569.97	210.65
570.13	194.26
570.30	135.75
570.46	170.86
570.62	163.84
570.78	93.62
570.95	142.77
571.11	236.39
571.27	189.58
571.43	175.54
571.60	147.45
571.76	124.05
571.92	147.45
572.09	154.48
572.25	100.64
572.41	175.54
572.57	177.88
572.74	255.12
572.90	128.73
573.06	88.94
573.22	135.75
573.38	117.03
573.55	212.99
573.71	98.30
573.87	159.16
574.03	133.41
574.20	159.16
574.36	227.03
574.52	259.80
574.68	191.92
574.84	140.43
575.01	163.84
575.17	170.86
575.33	198.95
575.49	163.84
575.65	168.52
575.82	294.91
575.98	409.59
576.14	533.64
576.30	395.55
576.46	304.27
576.62	147.45
576.79	245.76
576.95	194.26
577.11	224.69
577.27	196.60
577.43	180.22
577.59	241.08
577.75	154.48
577.92	95.96
578.08	152.13
578.24	210.65
578.40	194.26
578.56	236.39
578.72	297.25
578.88	217.67
579.04	173.20
579.21	135.75
579.37	107.66
579.53	196.60
579.69	276.18
579.85	191.92
580.01	184.90
580.17	154.48
580.33	201.29
580.49	161.50
580.65	201.29
580.82	248.10
580.98	220.01
581.14	191.92
581.30	278.52
581.46	250.44
581.62	409.59
581.78	332.36
581.94	344.06
582.10	273.84
582.26	201.29
582.42	276.18
582.58	168.52
582.74	285.55
582.90	243.42
583.06	365.12
583.22	290.23
583.38	276.18
583.54	318.31
583.70	325.33
583.86	472.79
584.02	458.74
584.18	662.37
584.34	1088.35
584.50	8042.08
584.66	28559.22
584.82	48048.86
584.98	49684.89
585.14	31613.62
585.30	16592.06
585.46	8156.77
585.62	3183.13
585.78	1345.81
585.94	753.65
586.10	519.60
586.26	374.49
586.42	414.27
586.58	280.86
586.74	353.42
586.90	360.44
587.06	339.38
587.22	374.49
587.38	519.60
587.54	1439.43
587.70	3028.65
587.86	3847.84
588.02	2911.63
588.18	1757.74
588.34	1048.56
588.49	578.11
588.65	294.91
588.81	234.05
588.97	259.80
589.13	170.86
589.29	203.63
589.45	184.90
589.61	187.24
589.77	360.44
589.93	285.55
590.08	351.08
590.24	168.52
590.40	222.35
590.56	304.27
590.72	205.97
590.88	161.50
591.04	205.97
591.20	168.52
591.35	203.63
591.51	170.86
591.67	187.24
591.83	229.37
591.99	222.35
592.15	252.78
592.31	238.73
592.46	201.29
592.62	205.97
592.78	117.03
592.94	159.16
593.10	138.09
593.26	208.31
593.41	299.59
593.57	327.68
593.73	1240.48
593.89	3700.39
594.05	6162.63
594.20	6347.53
594.36	4283.18
594.52	2392.03
594.68	1439.43
594.84	643.65
594.99	358.10
595.15	241.08
595.31	168.52
595.47	236.39
595.62	227.03
595.78	283.20
595.94	201.29
596.10	255.12
596.25	203.63
596.41	102.98
596.57	227.03
596.73	287.89
596.88	685.78
597.04	1268.57
597.20	1521.35
597.36	1205.38
597.51	812.17
597.67	521.94
597.83	308.95
597.99	285.55
598.14	175.54
598.30	191.92
598.46	208.31
598.61	278.52
598.77	177.88
598.93	187.24
599.09	170.86
599.24	217.67
599.40	238.73
599.56	173.20
599.71	257.46
599.87	177.88
600.03	135.75
600.18	175.54
600.34	166.18
600.50	189.58
600.65	105.32
600.81	191.92
600.97	152.13
601.12	191.92
601.28	215.33
601.44	154.48
601.59	187.24
601.75	180.22
601.91	154.48
602.06	194.26
602.22	362.78
602.37	983.02
602.53	1514.33
602.69	1664.12
602.84	1102.39
603.00	786.42
603.16	571.09
603.31	414.27
603.47	257.46
603.62	72.56
603.78	170.86
603.94	159.16
604.09	236.39
604.25	133.41
604.40	201.29
604.56	142.77
604.71	135.75
604.87	175.54
605.03	177.88
605.18	182.56
605.34	189.58
605.49	266.82
605.65	208.31
605.80	124.05
605.96	201.29
606.12	212.99
606.27	212.99
606.43	231.71
606.58	552.37
606.74	1888.81
606.89	3782.31
607.05	5078.96
607.20	4383.82
607.36	3002.91
607.51	1853.70
607.67	1083.67
607.82	491.51
607.98	341.72
608.13	262.14
608.29	355.76
608.44	271.50
608.60	308.95
608.75	938.55
608.91	3173.77
609.06	6665.85
609.22	8634.24
609.37	7283.75
609.53	4990.02
609.68	3033.33
609.84	1708.59
609.99	1022.81
610.15	564.07
610.30	355.76
610.46	245.76
610.61	201.29
610.76	210.65
610.92	177.88
611.07	180.22
611.23	330.02
611.38	264.48
611.54	189.58
611.69	161.50
611.84	180.22
612.00	231.71
612.15	241.08
612.31	353.42
612.46	418.96
612.62	353.42
612.77	402.57
612.92	245.76
613.08	320.65
613.23	313.63
613.39	662.37
613.54	3251.00
613.69	8336.99
613.85	13390.20
614.00	13631.28
614.15	9767.06
614.31	6150.93
614.46	4002.32
614.62	2129.89
614.77	1006.43
614.92	498.53
615.08	341.72
615.23	318.31
615.38	334.70
615.54	704.50
615.69	1809.23
615.84	3035.67
616.00	3744.86
616.15	2913.97
616.30	1961.37
616.46	1397.30
616.61	823.87
616.76	510.24
616.92	283.20
617.07	168.52
617.22	180.22
617.37	124.05
617.53	191.92
617.68	147.45
617.83	117.03
617.99	243.42
618.14	227.03
618.29	166.18
618.45	67.88
618.60	177.88
618.75	117.03
618.90	135.75
619.06	149.79
619.21	166.18
619.36	194.26
619.51	278.52
619.67	133.41
619.82	159.16
619.97	159.16
620.12	159.16
620.28	196.60
620.43	191.92
620.58	205.97
620.73	191.92
620.89	435.34
621.04	1041.54
621.19	1816.26
621.34	2200.10
621.49	1764.76
621.65	1256.87
621.80	887.06
621.95	582.79
622.10	393.21
622.25	285.55
622.41	191.92
622.56	117.03
622.71	203.63
622.86	217.67
623.01	217.67
623.16	184.90
623.32	119.37
623.47	184.90
623.62	166.18
623.77	175.54
623.92	156.82
624.07	187.24
624.23	182.56
624.38	152.13
624.53	248.10
624.68	154.48
624.83	248.10
624.98	196.60
625.13	191.92
625.29	203.63
625.44	236.39
625.59	224.69
625.74	463.43
625.89	1902.86
626.04	4463.40
626.19	7176.08
626.34	6923.30
626.49	5235.78
626.65	3417.18
626.80	2267.98
626.95	1313.04
627.10	674.07
627.25	416.62
627.40	280.86
627.55	191.92
627.70	156.82
627.85	203.63
628.00	224.69
628.15	201.29
628.30	222.35
628.45	161.50
628.60	212.99
628.76	177.88
628.91	229.37
629.06	184.90
629.21	224.69
629.36	184.90
629.51	220.01
629.66	358.10
629.81	957.28
629.96	1516.67
630.11	1902.86
630.26	1570.50
630.41	1188.99
630.56	887.06
630.71	514.92
630.86	337.04
631.01	231.71
631.16	210.65
631.31	212.99
631.46	205.97
631.61	119.37
631.76	196.60
631.91	182.56
632.06	212.99
632.21	245.76
632.36	271.50
632.51	341.72
632.66	1055.58
632.81	2485.65
632.96	4264.46
633.10	4702.14
633.25	3688.68
633.40	2492.67
633.55	1755.40
633.70	1069.62
633.85	566.41
634.00	393.21
634.15	259.80
634.30	231.71
634.45	140.43
634.60	273.84
634.75	180.22
634.90	126.39
635.05	227.03
635.19	159.16
635.34	217.67
635.49	191.92
635.64	173.20
635.79	220.01
635.94	191.92
636.09	243.42
636.24	166.18
636.39	147.45
636.53	252.78
636.68	241.08
636.83	220.01
636.98	238.73
637.13	194.26
637.28	236.39
637.43	802.80
637.57	2724.38
637.72	5888.79
637.87	8498.49
638.02	8093.57
638.17	6132.20
638.32	4102.96
638.46	2729.06
638.61	1514.33
638.76	887.06
638.91	465.77
639.06	372.15
639.20	451.72
639.35	1095.37
639.50	3925.08
639.65	8690.41
639.80	13188.92
639.94	12475.06
640.09	9430.02
640.24	6305.40
640.39	4173.18
640.54	2279.68
640.68	1128.14
640.83	587.47
640.98	381.51
641.13	374.49
641.27	236.39
641.42	252.78
641.57	227.03
641.72	241.08
641.86	210.65
642.01	203.63
642.16	203.63
642.31	189.58
642.45	238.73
642.60	189.58
642.75	173.20
642.90	245.76
643.04	177.88
643.19	95.96
643.34	154.48
643.48	119.37
643.63	189.58
643.78	163.84
643.93	135.75
644.07	154.48
644.22	163.84
644.37	154.48
644.51	203.63
644.66	180.22
644.81	152.13
644.95	149.79
645.10	88.94
645.25	161.50
645.39	147.45
645.54	133.41
645.69	217.67
645.83	236.39
645.98	156.82
646.13	138.09
646.27	126.39
646.42	138.09
646.57	114.69
646.71	161.50
646.86	142.77
647.00	128.73
647.15	166.18
647.30	224.69
647.44	159.16
647.59	215.33
647.74	175.54
647.88	191.92
648.03	163.84
648.17	168.52
648.32	138.09
648.47	208.31
648.61	163.84
648.76	91.28
648.90	238.73
649.05	201.29
649.20	149.79
649.34	203.63
649.49	182.56
649.63	238.73
649.78	465.77
649.92	1710.93
650.07	4070.19
650.21	6314.77
650.36	6890.54
650.51	5404.30
650.65	3709.75
650.80	2387.35
650.94	1495.60
651.09	809.83
651.23	461.09
651.38	376.83
651.52	224.69
651.67	140.43
651.81	285.55
651.96	222.35
652.10	212.99
652.25	212.99
652.39	311.29
652.54	599.18
652.68	1296.66
652.83	2218.83
652.97	2651.83
653.12	2165.00
653.26	1460.49
653.41	1111.75
653.55	699.82
653.70	409.59
653.84	255.12
653.99	238.73
654.13	135.75
654.27	161.50
654.42	194.26
654.56	187.24
654.71	215.33
654.85	147.45
655.00	112.35
655.14	110.01
655.29	135.75
655.43	145.11
655.57	112.35
655.72	152.13
655.86	128.73
656.01	163.84
656.15	191.92
656.30	189.58
656.44	212.99
656.58	135.75
656.73	182.56
656.87	142.77
657.01	110.01
657.16	238.73
657.30	159.16
657.45	182.56
657.59	156.82
657.73	189.58
657.88	119.37
658.02	245.76
658.16	212.99
658.31	175.54
658.45	133.41
658.60	131.07
658.74	170.86
658.88	234.05
659.03	259.80
659.17	732.59
659.31	1774.13
659.46	3087.17
659.60	3749.54
659.74	3000.57
659.89	2188.40
660.03	1446.45
660.17	861.32
660.32	573.43
660.46	341.72
660.60	208.31
660.74	241.08
660.89	163.84
661.03	142.77
661.17	187.24
661.32	198.95
661.46	163.84
661.60	198.95
661.74	208.31
661.89	196.60
662.03	117.03
662.17	128.73
662.31	149.79
662.46	175.54
662.60	187.24
662.74	119.37
662.88	187.24
663.03	198.95
663.17	119.37
663.31	180.22
663.45	187.24
663.60	133.41
663.74	152.13
663.88	79.58
664.02	154.48
664.17	117.03
664.31	163.84
664.45	177.88
664.59	131.07
664.73	112.35
664.88	238.73
665.02	117.03
665.16	138.09
665.30	184.90
665.44	182.56
665.59	156.82
665.73	142.77
665.87	149.79
666.01	154.48
666.15	142.77
666.29	175.54
666.44	269.16
666.58	238.73
666.72	126.39
666.86	212.99
667.00	358.10
667.14	1329.42
667.28	3386.76
667.43	5418.34
667.57	6483.28
667.71	5146.84
667.85	3548.25
667.99	2153.29
668.13	1322.40
668.27	767.70
668.41	496.19
668.56	327.68
668.70	229.37
668.84	189.58
668.98	205.97
669.12	191.92
669.26	208.31
669.40	241.08
669.54	238.73
669.68	231.71
669.82	86.60
669.96	205.97
670.10	189.58
670.25	222.35
670.39	198.95
670.53	65.54
670.67	147.45
670.81	208.31
670.95	477.47
671.09	1350.49
671.23	2715.02
671.37	3908.69
671.51	3815.07
671.65	2995.89
671.79	1884.13
671.93	1184.31
672.07	669.39
672.21	463.43
672.35	292.57
672.49	220.01
672.63	220.01
672.77	121.71
672.91	182.56
673.05	173.20
673.19	124.05
673.33	220.01
673.47	236.39
673.61	182.56
673.75	191.92
673.89	138.09
674.03	234.05
674.17	86.60
674.31	147.45
674.45	227.03
674.59	166.18
674.73	112.35
674.87	210.65
675.01	170.86
675.15	154.48
675.29	294.91
675.43	205.97
675.56	205.97
675.70	177.88
675.84	124.05
675.98	187.24
676.12	208.31
676.26	133.41
676.40	121.71
676.54	100.64
676.68	168.52
676.82	177.88
676.96	131.07
677.10	152.13
677.23	58.51
677.37	156.82
677.51	180.22
677.65	145.11
677.79	138.09
677.93	110.01
678.07	196.60
678.21	70.22
678.34	114.69
678.48	72.56
678.62	177.88
678.76	124.05
678.90	128.73
679.04	170.86
679.18	70.22
679.31	156.82
679.45	60.85
679.59	135.75
679.73	135.75
679.87	184.90
680.00	149.79
680.14	107.66
680.28	107.66
680.42	229.37
680.56	177.88
680.70	152.13
680.83	124.05
680.97	126.39
681.11	70.22
681.25	149.79
681.39	74.90
681.52	140.43
681.66	128.73
681.80	88.94
681.94	168.52
682.07	135.75
682.21	124.05
682.35	91.28
682.49	114.69
682.62	138.09
682.76	154.48
682.90	81.92
683.04	114.69
683.17	194.26
683.31	121.71
683.45	105.32
683.59	175.54
683.72	114.69
683.86	142.77
684.00	112.35
684.13	184.90
684.27	175.54
684.41	182.56
684.55	182.56
684.68	168.52
684.82	126.39
684.96	166.18
685.09	182.56
685.23	65.54
685.37	173.20
685.50	140.43
685.64	196.60
685.78	110.01
685.91	145.11
686.05	170.86
686.19	133.41
686.32	147.45
686.46	175.54
686.60	98.30
686.73	276.18
686.87	217.67
687.01	135.75
687.14	166.18
687.28	107.66
687.42	149.79
687.55	149.79
687.69	194.26
687.82	131.07
687.96	205.97
688.10	182.56
688.23	154.48
688.37	191.92
688.50	161.50
688.64	105.32
688.78	131.07
688.91	152.13
689.05	121.71
689.18	95.96
689.32	135.75
689.46	86.60
689.59	98.30
689.73	79.58
689.86	107.66
690.00	60.85
690.13	159.16
690.27	107.66
690.41	180.22
690.54	131.07
690.68	114.69
690.81	170.86
690.95	119.37
691.08	138.09
691.22	154.48
691.35	100.64
691.49	189.58
691.62	140.43
691.76	102.98
691.89	166.18
692.03	149.79
692.16	180.22
692.30	486.83
692.43	1329.42
692.57	2207.13
692.70	2661.19
692.84	2356.92
692.97	1839.66
693.11	1343.47
693.24	1036.86
693.38	702.16
693.51	496.19
693.65	414.27
693.78	271.50
693.92	236.39
694.05	163.84
694.19	159.16
694.32	194.26
694.45	138.09
694.59	177.88
694.72	95.96
694.86	163.84
694.99	208.31
695.13	173.20
695.26	182.56
695.39	191.92
695.53	175.54
695.66	81.92
695.80	142.77
695.93	182.56
696.07	227.03
696.20	318.31
696.33	374.49
696.47	283.20
696.60	252.78
696.73	236.39
696.87	229.37
697.00	245.76
697.14	175.54
697.27	161.50
697.40	264.48
697.54	180.22
697.67	163.84
697.80	175.54
697.94	138.09
698.07	131.07
698.21	154.48
698.34	166.18
698.47	159.16
698.61	105.32
698.74	245.76
698.87	159.16
699.01	154.48
699.14	189.58
699.27	152.13
699.40	290.23
699.54	184.90
699.67	145.11
699.80	173.20
699.94	126.39
700.07	168.52
700.20	173.20
700.34	203.63
700.47	124.05
700.60	107.66
700.73	142.77
700.87	177.88
701.00	95.96
701.13	156.82
701.26	173.20
701.40	173.20
701.53	210.65
701.66	205.97
701.79	208.31
701.93	198.95
702.06	266.82
702.19	273.84
702.32	393.21
702.46	334.70
702.59	606.20
702.72	1792.85
702.85	3248.66
702.99	4709.16
703.12	5207.69
703.25	4493.83
703.38	3840.82
703.51	3028.65
703.65	2062.01
703.78	1345.81
703.91	915.15
704.04	662.37
704.17	454.06
704.31	210.65
704.44	191.92
704.57	227.03
704.70	156.82
704.83	184.90
704.96	119.37
705.10	217.67
705.23	182.56
>>>>>End Processed Spectral Data<<<<<
