SpectraSuite Data File
++++++++++++++++++++++++++++++++++++
Date: Fri Oct 04 12:13:29 GMT-05:00 2013
User: price-jones
Dark Spectrum Present: No
Reference Spectrum Present: No
Number of Sampled Component Spectra: 1
Spectrometers: USB2+H05261
Integration Time (usec): 10000 (USB2+H05261)
Spectra Averaged: 1 (USB2+H05261)
Boxcar Smoothing: 0 (USB2+H05261)
Correct for Electrical Dark: No (USB2+H05261)
Strobe/Lamp Enabled: No (USB2+H05261)
Correct for Detector Non-linearity: No (USB2+H05261)
Correct for Stray Light: No (USB2+H05261)
Number of Pixels in Processed Spectrum: 2048
>>>>>Begin Processed Spectral Data<<<<<
365.73	16.38
365.92	16.38
366.12	16.38
366.32	0.00
366.52	0.00
366.72	0.00
366.91	0.00
367.11	0.00
367.31	0.00
367.51	0.00
367.70	0.00
367.90	0.00
368.10	0.00
368.30	0.00
368.49	0.00
368.69	0.00
368.89	0.00
369.09	0.00
369.28	0.00
369.48	0.00
369.68	0.00
369.87	0.00
370.07	0.00
370.27	0.00
370.47	0.00
370.66	0.00
370.86	0.00
371.06	0.00
371.25	0.00
371.45	0.00
371.65	0.00
371.84	0.00
372.04	0.00
372.24	49.15
372.44	0.00
372.63	0.00
372.83	0.00
373.03	0.00
373.22	0.00
373.42	51.49
373.62	0.00
373.81	98.30
374.01	28.09
374.21	7.02
374.40	0.00
374.60	0.00
374.79	72.56
374.99	0.00
375.19	37.45
375.38	14.04
375.58	37.45
375.78	21.06
375.97	18.72
376.17	39.79
376.37	18.72
376.56	39.79
376.76	9.36
376.95	16.38
377.15	9.36
377.35	84.26
377.54	35.11
377.74	39.79
377.93	25.75
378.13	35.11
378.33	16.38
378.52	0.00
378.72	72.56
378.91	35.11
379.11	0.00
379.31	21.06
379.50	9.36
379.70	0.00
379.89	0.00
380.09	14.04
380.28	30.43
380.48	4.68
380.68	25.75
380.87	18.72
381.07	11.70
381.26	7.02
381.46	65.54
381.65	11.70
381.85	30.43
382.04	84.26
382.24	9.36
382.43	53.83
382.63	0.00
382.83	42.13
383.02	42.13
383.22	67.88
383.41	23.41
383.61	0.00
383.80	32.77
384.00	0.00
384.19	7.02
384.39	0.00
384.58	4.68
384.78	0.00
384.97	81.92
385.17	0.00
385.36	0.00
385.56	7.02
385.75	23.41
385.95	0.00
386.14	0.00
386.34	9.36
386.53	0.00
386.72	9.36
386.92	0.00
387.11	0.00
387.31	0.00
387.50	28.09
387.70	49.15
387.89	0.00
388.09	44.47
388.28	42.13
388.48	16.38
388.67	72.56
388.86	9.36
389.06	42.13
389.25	16.38
389.45	23.41
389.64	0.00
389.84	0.00
390.03	0.00
390.22	72.56
390.42	58.51
390.61	7.02
390.81	23.41
391.00	70.22
391.19	72.56
391.39	0.00
391.58	56.17
391.78	0.00
391.97	37.45
392.16	30.43
392.36	0.00
392.55	0.00
392.75	70.22
392.94	0.00
393.13	23.41
393.33	37.45
393.52	0.00
393.71	98.30
393.91	56.17
394.10	28.09
394.29	49.15
394.49	37.45
394.68	39.79
394.88	30.43
395.07	0.00
395.26	23.41
395.46	14.04
395.65	56.17
395.84	37.45
396.04	2.34
396.23	0.00
396.42	42.13
396.62	42.13
396.81	0.00
397.00	28.09
397.19	39.79
397.39	21.06
397.58	119.37
397.77	16.38
397.97	35.11
398.16	79.58
398.35	0.00
398.55	0.00
398.74	51.49
398.93	58.51
399.12	37.45
399.32	14.04
399.51	30.43
399.70	0.00
399.90	0.00
400.09	16.38
400.28	86.60
400.47	9.36
400.67	30.43
400.86	0.00
401.05	0.00
401.24	30.43
401.44	23.41
401.63	37.45
401.82	46.81
402.01	2.34
402.21	18.72
402.40	42.13
402.59	37.45
402.78	46.81
402.97	46.81
403.17	65.54
403.36	44.47
403.55	16.38
403.74	67.88
403.93	0.00
404.13	39.79
404.32	11.70
404.51	23.41
404.70	77.24
404.89	51.49
405.09	39.79
405.28	0.00
405.47	7.02
405.66	51.49
405.85	18.72
406.05	23.41
406.24	0.00
406.43	44.47
406.62	44.47
406.81	4.68
407.00	28.09
407.20	39.79
407.39	28.09
407.58	44.47
407.77	44.47
407.96	0.00
408.15	0.00
408.34	0.00
408.54	11.70
408.73	4.68
408.92	11.70
409.11	60.85
409.30	9.36
409.49	46.81
409.68	79.58
409.87	23.41
410.07	72.56
410.26	77.24
410.45	102.98
410.64	0.00
410.83	0.00
411.02	46.81
411.21	0.00
411.40	0.00
411.59	28.09
411.78	65.54
411.98	9.36
412.17	84.26
412.36	0.00
412.55	0.00
412.74	25.75
412.93	0.00
413.12	7.02
413.31	25.75
413.50	0.00
413.69	42.13
413.88	28.09
414.07	7.02
414.26	60.85
414.45	72.56
414.64	0.00
414.83	0.00
415.02	2.34
415.22	0.00
415.41	77.24
415.60	7.02
415.79	28.09
415.98	21.06
416.17	0.00
416.36	67.88
416.55	63.19
416.74	2.34
416.93	0.00
417.12	0.00
417.31	7.02
417.50	0.00
417.69	9.36
417.88	9.36
418.07	30.43
418.26	9.36
418.45	0.00
418.64	23.41
418.83	51.49
419.02	0.00
419.21	0.00
419.39	4.68
419.58	44.47
419.77	46.81
419.96	58.51
420.15	30.43
420.34	46.81
420.53	63.19
420.72	42.13
420.91	28.09
421.10	37.45
421.29	56.17
421.48	79.58
421.67	0.00
421.86	32.77
422.05	98.30
422.24	63.19
422.43	49.15
422.61	35.11
422.80	0.00
422.99	0.00
423.18	7.02
423.37	21.06
423.56	124.05
423.75	28.09
423.94	11.70
424.13	25.75
424.32	9.36
424.50	23.41
424.69	49.15
424.88	0.00
425.07	39.79
425.26	9.36
425.45	46.81
425.64	74.90
425.83	56.17
426.01	72.56
426.20	63.19
426.39	4.68
426.58	21.06
426.77	0.00
426.96	0.00
427.15	63.19
427.33	0.00
427.52	2.34
427.71	42.13
427.90	67.88
428.09	53.83
428.28	51.49
428.46	0.00
428.65	42.13
428.84	11.70
429.03	72.56
429.22	23.41
429.40	0.00
429.59	0.00
429.78	0.00
429.97	9.36
430.16	0.00
430.34	35.11
430.53	46.81
430.72	14.04
430.91	0.00
431.10	18.72
431.28	49.15
431.47	0.00
431.66	14.04
431.85	49.15
432.03	0.00
432.22	30.43
432.41	0.00
432.60	0.00
432.79	0.00
432.97	0.00
433.16	37.45
433.35	81.92
433.54	0.00
433.72	18.72
433.91	21.06
434.10	28.09
434.28	0.00
434.47	0.00
434.66	53.83
434.85	79.58
435.03	37.45
435.22	32.77
435.41	0.00
435.59	0.00
435.78	0.00
435.97	39.79
436.16	84.26
436.34	0.00
436.53	0.00
436.72	11.70
436.90	14.04
437.09	30.43
437.28	0.00
437.46	86.60
437.65	107.66
437.84	53.83
438.02	86.60
438.21	11.70
438.40	58.51
438.58	21.06
438.77	0.00
438.96	72.56
439.14	56.17
439.33	95.96
439.52	51.49
439.70	46.81
439.89	105.32
440.08	74.90
440.26	102.98
440.45	100.64
440.63	56.17
440.82	60.85
441.01	9.36
441.19	0.00
441.38	0.00
441.57	30.43
441.75	56.17
441.94	49.15
442.12	0.00
442.31	23.41
442.50	0.00
442.68	9.36
442.87	0.00
443.05	0.00
443.24	46.81
443.43	37.45
443.61	9.36
443.80	81.92
443.98	58.51
444.17	0.00
444.35	2.34
444.54	30.43
444.73	84.26
444.91	23.41
445.10	18.72
445.28	14.04
445.47	0.00
445.65	70.22
445.84	65.54
446.02	25.75
446.21	37.45
446.39	0.00
446.58	0.00
446.77	7.02
446.95	44.47
447.14	9.36
447.32	25.75
447.51	35.11
447.69	0.00
447.88	79.58
448.06	0.00
448.25	65.54
448.43	53.83
448.62	23.41
448.80	23.41
448.99	46.81
449.17	93.62
449.36	37.45
449.54	21.06
449.73	18.72
449.91	25.75
450.10	49.15
450.28	88.94
450.46	4.68
450.65	42.13
450.83	9.36
451.02	11.70
451.20	0.00
451.39	28.09
451.57	88.94
451.76	56.17
451.94	25.75
452.13	0.00
452.31	39.79
452.49	65.54
452.68	25.75
452.86	28.09
453.05	77.24
453.23	0.00
453.42	18.72
453.60	95.96
453.78	98.30
453.97	44.47
454.15	0.00
454.34	84.26
454.52	86.60
454.70	81.92
454.89	23.41
455.07	28.09
455.26	0.00
455.44	7.02
455.62	18.72
455.81	23.41
455.99	0.00
456.17	0.00
456.36	35.11
456.54	74.90
456.73	14.04
456.91	0.00
457.09	42.13
457.28	91.28
457.46	0.00
457.64	0.00
457.83	39.79
458.01	44.47
458.19	0.00
458.38	28.09
458.56	39.79
458.74	9.36
458.93	65.54
459.11	86.60
459.29	32.77
459.48	39.79
459.66	93.62
459.84	95.96
460.03	16.38
460.21	42.13
460.39	63.19
460.57	65.54
460.76	30.43
460.94	30.43
461.12	0.00
461.31	37.45
461.49	30.43
461.67	114.69
461.85	16.38
462.04	91.28
462.22	37.45
462.40	42.13
462.59	35.11
462.77	32.77
462.95	72.56
463.13	32.77
463.32	58.51
463.50	30.43
463.68	0.00
463.86	65.54
464.05	0.00
464.23	28.09
464.41	23.41
464.59	32.77
464.78	81.92
464.96	23.41
465.14	0.00
465.32	18.72
465.50	35.11
465.69	23.41
465.87	60.85
466.05	7.02
466.23	30.43
466.41	79.58
466.60	30.43
466.78	16.38
466.96	67.88
467.14	39.79
467.32	60.85
467.51	100.64
467.69	0.00
467.87	70.22
468.05	51.49
468.23	44.47
468.41	107.66
468.60	60.85
468.78	35.11
468.96	18.72
469.14	77.24
469.32	0.00
469.50	0.00
469.69	4.68
469.87	77.24
470.05	7.02
470.23	35.11
470.41	44.47
470.59	0.00
470.77	110.01
470.95	60.85
471.14	79.58
471.32	21.06
471.50	42.13
471.68	0.00
471.86	35.11
472.04	70.22
472.22	100.64
472.40	56.17
472.58	18.72
472.77	32.77
472.95	18.72
473.13	0.00
473.31	81.92
473.49	60.85
473.67	39.79
473.85	93.62
474.03	0.00
474.21	53.83
474.39	14.04
474.57	37.45
474.75	11.70
474.93	16.38
475.12	16.38
475.30	7.02
475.48	0.00
475.66	25.75
475.84	28.09
476.02	67.88
476.20	28.09
476.38	2.34
476.56	63.19
476.74	14.04
476.92	105.32
477.10	102.98
477.28	51.49
477.46	9.36
477.64	70.22
477.82	0.00
478.00	4.68
478.18	67.88
478.36	25.75
478.54	39.79
478.72	51.49
478.90	0.00
479.08	18.72
479.26	65.54
479.44	65.54
479.62	0.00
479.80	18.72
479.98	0.00
480.16	0.00
480.34	23.41
480.52	0.00
480.70	14.04
480.88	0.00
481.06	51.49
481.24	60.85
481.41	9.36
481.59	11.70
481.77	74.90
481.95	37.45
482.13	81.92
482.31	35.11
482.49	51.49
482.67	56.17
482.85	0.00
483.03	7.02
483.21	51.49
483.39	46.81
483.57	105.32
483.74	28.09
483.92	0.00
484.10	60.85
484.28	11.70
484.46	63.19
484.64	0.00
484.82	9.36
485.00	9.36
485.18	77.24
485.35	4.68
485.53	21.06
485.71	0.00
485.89	0.00
486.07	93.62
486.25	60.85
486.43	70.22
486.61	11.70
486.78	51.49
486.96	49.15
487.14	84.26
487.32	63.19
487.50	49.15
487.68	60.85
487.85	32.77
488.03	0.00
488.21	51.49
488.39	42.13
488.57	114.69
488.75	60.85
488.92	102.98
489.10	23.41
489.28	77.24
489.46	86.60
489.64	77.24
489.81	72.56
489.99	0.00
490.17	49.15
490.35	63.19
490.53	79.58
490.70	67.88
490.88	79.58
491.06	32.77
491.24	42.13
491.41	9.36
491.59	0.00
491.77	0.00
491.95	37.45
492.13	0.00
492.30	51.49
492.48	32.77
492.66	93.62
492.84	88.94
493.01	46.81
493.19	25.75
493.37	53.83
493.54	60.85
493.72	0.00
493.90	0.00
494.08	35.11
494.25	65.54
494.43	100.64
494.61	28.09
494.79	25.75
494.96	117.03
495.14	70.22
495.32	67.88
495.49	0.00
495.67	28.09
495.85	0.00
496.02	67.88
496.20	46.81
496.38	32.77
496.55	53.83
496.73	28.09
496.91	0.00
497.09	35.11
497.26	58.51
497.44	14.04
497.62	30.43
497.79	25.75
497.97	58.51
498.14	53.83
498.32	0.00
498.50	42.13
498.67	46.81
498.85	138.09
499.03	126.39
499.20	0.00
499.38	91.28
499.56	0.00
499.73	39.79
499.91	112.35
500.08	16.38
500.26	44.47
500.44	0.00
500.61	28.09
500.79	65.54
500.97	93.62
501.14	46.81
501.32	0.00
501.49	140.43
501.67	39.79
501.84	77.24
502.02	77.24
502.20	86.60
502.37	67.88
502.55	46.81
502.72	42.13
502.90	60.85
503.07	21.06
503.25	117.03
503.43	2.34
503.60	0.00
503.78	63.19
503.95	53.83
504.13	16.38
504.30	21.06
504.48	119.37
504.65	39.79
504.83	58.51
505.01	39.79
505.18	0.00
505.36	0.00
505.53	53.83
505.71	32.77
505.88	21.06
506.06	16.38
506.23	46.81
506.41	46.81
506.58	93.62
506.76	18.72
506.93	35.11
507.11	32.77
507.28	9.36
507.46	60.85
507.63	0.00
507.81	58.51
507.98	4.68
508.16	79.58
508.33	11.70
508.50	60.85
508.68	86.60
508.85	44.47
509.03	0.00
509.20	105.32
509.38	0.00
509.55	25.75
509.73	65.54
509.90	74.90
510.08	4.68
510.25	44.47
510.42	30.43
510.60	86.60
510.77	0.00
510.95	81.92
511.12	46.81
511.30	67.88
511.47	79.58
511.64	9.36
511.82	42.13
511.99	70.22
512.17	0.00
512.34	105.32
512.51	4.68
512.69	58.51
512.86	58.51
513.04	0.00
513.21	18.72
513.38	0.00
513.56	51.49
513.73	65.54
513.90	16.38
514.08	9.36
514.25	0.00
514.43	49.15
514.60	42.13
514.77	0.00
514.95	28.09
515.12	49.15
515.29	18.72
515.47	0.00
515.64	133.41
515.81	9.36
515.99	77.24
516.16	0.00
516.33	95.96
516.51	11.70
516.68	58.51
516.85	0.00
517.03	105.32
517.20	58.51
517.37	105.32
517.54	2.34
517.72	11.70
517.89	23.41
518.06	60.85
518.24	77.24
518.41	114.69
518.58	23.41
518.75	23.41
518.93	0.00
519.10	30.43
519.27	39.79
519.45	32.77
519.62	4.68
519.79	14.04
519.96	30.43
520.14	14.04
520.31	60.85
520.48	37.45
520.65	65.54
520.83	53.83
521.00	18.72
521.17	117.03
521.34	0.00
521.52	60.85
521.69	39.79
521.86	30.43
522.03	30.43
522.20	98.30
522.38	16.38
522.55	93.62
522.72	133.41
522.89	51.49
523.07	95.96
523.24	30.43
523.41	37.45
523.58	65.54
523.75	11.70
523.92	18.72
524.10	30.43
524.27	53.83
524.44	16.38
524.61	0.00
524.78	21.06
524.96	53.83
525.13	0.00
525.30	46.81
525.47	11.70
525.64	2.34
525.81	7.02
525.98	51.49
526.16	16.38
526.33	25.75
526.50	23.41
526.67	91.28
526.84	11.70
527.01	11.70
527.18	58.51
527.36	0.00
527.53	74.90
527.70	11.70
527.87	63.19
528.04	102.98
528.21	60.85
528.38	74.90
528.55	39.79
528.72	70.22
528.89	91.28
529.07	51.49
529.24	81.92
529.41	74.90
529.58	25.75
529.75	2.34
529.92	16.38
530.09	72.56
530.26	53.83
530.43	0.00
530.60	65.54
530.77	105.32
530.94	53.83
531.11	0.00
531.28	0.00
531.46	28.09
531.63	30.43
531.80	72.56
531.97	18.72
532.14	32.77
532.31	88.94
532.48	53.83
532.65	98.30
532.82	65.54
532.99	93.62
533.16	0.00
533.33	23.41
533.50	46.81
533.67	81.92
533.84	21.06
534.01	39.79
534.18	70.22
534.35	65.54
534.52	18.72
534.69	23.41
534.86	0.00
535.03	0.00
535.20	0.00
535.37	63.19
535.54	58.51
535.71	105.32
535.88	60.85
536.05	42.13
536.22	23.41
536.38	46.81
536.55	0.00
536.72	0.00
536.89	0.00
537.06	35.11
537.23	112.35
537.40	21.06
537.57	39.79
537.74	110.01
537.91	25.75
538.08	14.04
538.25	35.11
538.42	95.96
538.59	112.35
538.75	7.02
538.92	72.56
539.09	0.00
539.26	79.58
539.43	117.03
539.60	51.49
539.77	49.15
539.94	67.88
540.11	35.11
540.28	53.83
540.44	42.13
540.61	100.64
540.78	70.22
540.95	28.09
541.12	100.64
541.29	81.92
541.46	93.62
541.62	23.41
541.79	74.90
541.96	74.90
542.13	0.00
542.30	4.68
542.47	79.58
542.63	42.13
542.80	2.34
542.97	70.22
543.14	16.38
543.31	7.02
543.48	0.00
543.64	28.09
543.81	4.68
543.98	74.90
544.15	21.06
544.32	107.66
544.48	49.15
544.65	77.24
544.82	67.88
544.99	0.00
545.16	95.96
545.32	65.54
545.49	53.83
545.66	2.34
545.83	46.81
546.00	56.17
546.16	49.15
546.33	51.49
546.50	0.00
546.67	42.13
546.83	0.00
547.00	28.09
547.17	25.75
547.34	23.41
547.50	49.15
547.67	0.00
547.84	28.09
548.00	28.09
548.17	42.13
548.34	16.38
548.51	28.09
548.67	0.00
548.84	79.58
549.01	51.49
549.18	86.60
549.34	84.26
549.51	65.54
549.68	79.58
549.84	23.41
550.01	25.75
550.18	112.35
550.34	98.30
550.51	0.00
550.68	72.56
550.84	0.00
551.01	18.72
551.18	112.35
551.34	14.04
551.51	23.41
551.68	44.47
551.84	79.58
552.01	4.68
552.18	14.04
552.34	39.79
552.51	49.15
552.68	63.19
552.84	51.49
553.01	42.13
553.18	37.45
553.34	70.22
553.51	37.45
553.67	32.77
553.84	0.00
554.01	16.38
554.17	74.90
554.34	28.09
554.51	21.06
554.67	98.30
554.84	37.45
555.00	95.96
555.17	44.47
555.33	114.69
555.50	18.72
555.67	63.19
555.83	79.58
556.00	0.00
556.16	119.37
556.33	86.60
556.50	65.54
556.66	18.72
556.83	30.43
556.99	0.00
557.16	0.00
557.32	32.77
557.49	53.83
557.65	28.09
557.82	46.81
557.98	0.00
558.15	44.47
558.32	107.66
558.48	53.83
558.65	53.83
558.81	65.54
558.98	49.15
559.14	0.00
559.31	63.19
559.47	39.79
559.64	77.24
559.80	63.19
559.97	25.75
560.13	25.75
560.30	9.36
560.46	46.81
560.63	0.00
560.79	0.00
560.96	51.49
561.12	93.62
561.29	35.11
561.45	32.77
561.61	7.02
561.78	25.75
561.94	102.98
562.11	42.13
562.27	56.17
562.44	56.17
562.60	46.81
562.77	0.00
562.93	81.92
563.10	56.17
563.26	84.26
563.42	18.72
563.59	0.00
563.75	51.49
563.92	23.41
564.08	21.06
564.24	51.49
564.41	49.15
564.57	95.96
564.74	11.70
564.90	42.13
565.07	107.66
565.23	84.26
565.39	79.58
565.56	49.15
565.72	72.56
565.88	0.00
566.05	44.47
566.21	0.00
566.38	46.81
566.54	46.81
566.70	51.49
566.87	70.22
567.03	37.45
567.19	9.36
567.36	0.00
567.52	105.32
567.68	21.06
567.85	88.94
568.01	63.19
568.17	35.11
568.34	65.54
568.50	58.51
568.66	53.83
568.83	65.54
568.99	95.96
569.15	51.49
569.32	21.06
569.48	93.62
569.64	58.51
569.81	7.02
569.97	18.72
570.13	25.75
570.30	49.15
570.46	72.56
570.62	91.28
570.78	93.62
570.95	0.00
571.11	84.26
571.27	126.39
571.43	79.58
571.60	72.56
571.76	32.77
571.92	25.75
572.09	18.72
572.25	39.79
572.41	23.41
572.57	37.45
572.74	44.47
572.90	72.56
573.06	44.47
573.22	77.24
573.38	16.38
573.55	0.00
573.71	67.88
573.87	100.64
574.03	23.41
574.20	46.81
574.36	25.75
574.52	102.98
574.68	25.75
574.84	28.09
575.01	63.19
575.17	53.83
575.33	23.41
575.49	121.71
575.65	0.00
575.82	0.00
575.98	58.51
576.14	0.00
576.30	81.92
576.46	53.83
576.62	16.38
576.79	72.56
576.95	0.00
577.11	32.77
577.27	30.43
577.43	7.02
577.59	21.06
577.75	49.15
577.92	46.81
578.08	35.11
578.24	21.06
578.40	56.17
578.56	11.70
578.72	35.11
578.88	9.36
579.04	9.36
579.21	74.90
579.37	58.51
579.53	42.13
579.69	39.79
579.85	0.00
580.01	42.13
580.17	65.54
580.33	30.43
580.49	28.09
580.65	9.36
580.82	2.34
580.98	79.58
581.14	44.47
581.30	79.58
581.46	46.81
581.62	105.32
581.78	35.11
581.94	63.19
582.10	77.24
582.26	0.00
582.42	30.43
582.58	44.47
582.74	11.70
582.90	53.83
583.06	58.51
583.22	56.17
583.38	49.15
583.54	25.75
583.70	46.81
583.86	105.32
584.02	37.45
584.18	42.13
584.34	93.62
584.50	63.19
584.66	472.79
584.82	1238.14
584.98	1493.26
585.14	1263.89
585.30	828.55
585.46	589.82
585.62	360.44
585.78	147.45
585.94	49.15
586.10	23.41
586.26	72.56
586.42	51.49
586.58	67.88
586.74	39.79
586.90	37.45
587.06	60.85
587.22	58.51
587.38	9.36
587.54	53.83
587.70	93.62
587.86	180.22
588.02	128.73
588.18	72.56
588.34	77.24
588.49	124.05
588.65	63.19
588.81	0.00
588.97	21.06
589.13	53.83
589.29	11.70
589.45	18.72
589.61	70.22
589.77	0.00
589.93	21.06
590.08	28.09
590.24	88.94
590.40	65.54
590.56	42.13
590.72	44.47
590.88	0.00
591.04	14.04
591.20	23.41
591.35	0.00
591.51	56.17
591.67	0.00
591.83	0.00
591.99	16.38
592.15	32.77
592.31	100.64
592.46	16.38
592.62	23.41
592.78	67.88
592.94	23.41
593.10	7.02
593.26	102.98
593.41	7.02
593.57	35.11
593.73	23.41
593.89	138.09
594.05	112.35
594.20	210.65
594.36	208.31
594.52	184.90
594.68	140.43
594.84	65.54
594.99	77.24
595.15	46.81
595.31	67.88
595.47	0.00
595.62	72.56
595.78	21.06
595.94	60.85
596.10	32.77
596.25	0.00
596.41	86.60
596.57	65.54
596.73	74.90
596.88	0.00
597.04	72.56
597.20	102.98
597.36	100.64
597.51	74.90
597.67	18.72
597.83	95.96
597.99	63.19
598.14	49.15
598.30	51.49
598.46	25.75
598.61	93.62
598.77	21.06
598.93	98.30
599.09	0.00
599.24	14.04
599.40	65.54
599.56	63.19
599.71	0.00
599.87	7.02
600.03	18.72
600.18	46.81
600.34	0.00
600.50	14.04
600.65	7.02
600.81	88.94
600.97	23.41
601.12	11.70
601.28	0.00
601.44	35.11
601.59	28.09
601.75	56.17
601.91	0.00
602.06	79.58
602.22	42.13
602.37	79.58
602.53	0.00
602.69	30.43
602.84	56.17
603.00	140.43
603.16	63.19
603.31	14.04
603.47	98.30
603.62	65.54
603.78	0.00
603.94	44.47
604.09	4.68
604.25	0.00
604.40	0.00
604.56	32.77
604.71	51.49
604.87	58.51
605.03	65.54
605.18	21.06
605.34	0.00
605.49	53.83
605.65	44.47
605.80	0.00
605.96	56.17
606.12	49.15
606.27	119.37
606.43	56.17
606.58	46.81
606.74	95.96
606.89	105.32
607.05	182.56
607.20	205.97
607.36	234.05
607.51	152.13
607.67	74.90
607.82	105.32
607.98	60.85
608.13	16.38
608.29	58.51
608.44	44.47
608.60	14.04
608.75	91.28
608.91	95.96
609.06	102.98
609.22	311.29
609.37	266.82
609.53	301.93
609.68	229.37
609.84	124.05
609.99	70.22
610.15	135.75
610.30	9.36
610.46	0.00
610.61	4.68
610.76	46.81
610.92	49.15
611.07	11.70
611.23	63.19
611.38	28.09
611.54	9.36
611.69	65.54
611.84	14.04
612.00	63.19
612.15	53.83
612.31	46.81
612.46	0.00
612.62	42.13
612.77	7.02
612.92	63.19
613.08	84.26
613.23	49.15
613.39	11.70
613.54	30.43
613.69	236.39
613.85	372.15
614.00	451.72
614.15	444.70
614.31	299.59
614.46	283.20
614.62	154.48
614.77	161.50
614.92	53.83
615.08	81.92
615.23	72.56
615.38	86.60
615.54	25.75
615.69	4.68
615.84	112.35
616.00	170.86
616.15	212.99
616.30	161.50
616.46	88.94
616.61	56.17
616.76	51.49
616.92	49.15
617.07	44.47
617.22	46.81
617.37	18.72
617.53	14.04
617.68	39.79
617.83	79.58
617.99	44.47
618.14	98.30
618.29	51.49
618.45	53.83
618.60	0.00
618.75	0.00
618.90	28.09
619.06	18.72
619.21	65.54
619.36	58.51
619.51	0.00
619.67	44.47
619.82	0.00
619.97	72.56
620.12	39.79
620.28	121.71
620.43	60.85
620.58	91.28
620.73	28.09
620.89	4.68
621.04	14.04
621.19	88.94
621.34	117.03
621.49	149.79
621.65	140.43
621.80	124.05
621.95	100.64
622.10	39.79
622.25	98.30
622.41	0.00
622.56	21.06
622.71	14.04
622.86	9.36
623.01	49.15
623.16	63.19
623.32	53.83
623.47	102.98
623.62	72.56
623.77	42.13
623.92	49.15
624.07	25.75
624.23	0.00
624.38	32.77
624.53	9.36
624.68	98.30
624.83	0.00
624.98	77.24
625.13	93.62
625.29	0.00
625.44	4.68
625.59	84.26
625.74	0.00
625.89	86.60
626.04	138.09
626.19	170.86
626.34	294.91
626.49	344.06
626.65	212.99
626.80	119.37
626.95	138.09
627.10	102.98
627.25	16.38
627.40	30.43
627.55	35.11
627.70	49.15
627.85	7.02
628.00	4.68
628.15	65.54
628.30	65.54
628.45	42.13
628.60	2.34
628.76	32.77
628.91	58.51
629.06	0.00
629.21	11.70
629.36	0.00
629.51	7.02
629.66	32.77
629.81	18.72
629.96	37.45
630.11	0.00
630.26	107.66
630.41	46.81
630.56	7.02
630.71	77.24
630.86	23.41
631.01	37.45
631.16	72.56
631.31	18.72
631.46	21.06
631.61	65.54
631.76	21.06
631.91	107.66
632.06	35.11
632.21	107.66
632.36	65.54
632.51	53.83
632.66	44.47
632.81	72.56
632.96	149.79
633.10	138.09
633.25	189.58
633.40	201.29
633.55	88.94
633.70	131.07
633.85	65.54
634.00	67.88
634.15	46.81
634.30	91.28
634.45	56.17
634.60	0.00
634.75	11.70
634.90	105.32
635.05	81.92
635.19	56.17
635.34	117.03
635.49	7.02
635.64	18.72
635.79	77.24
635.94	39.79
636.09	37.45
636.24	0.00
636.39	72.56
636.53	67.88
636.68	16.38
636.83	23.41
636.98	79.58
637.13	16.38
637.28	65.54
637.43	58.51
637.57	72.56
637.72	110.01
637.87	229.37
638.02	257.46
638.17	320.65
638.32	248.10
638.46	208.31
638.61	187.24
638.76	100.64
638.91	9.36
639.06	49.15
639.20	51.49
639.35	98.30
639.50	81.92
639.65	166.18
639.80	318.31
639.94	461.09
640.09	507.90
640.24	383.85
640.39	311.29
640.54	212.99
640.68	133.41
640.83	35.11
640.98	74.90
641.13	49.15
641.27	2.34
641.42	46.81
641.57	35.11
641.72	23.41
641.86	0.00
642.01	14.04
642.16	11.70
642.31	58.51
642.45	42.13
642.60	100.64
642.75	18.72
642.90	16.38
643.04	63.19
643.19	63.19
643.34	28.09
643.48	35.11
643.63	0.00
643.78	30.43
643.93	46.81
644.07	79.58
644.22	67.88
644.37	23.41
644.51	86.60
644.66	42.13
644.81	91.28
644.95	131.07
645.10	18.72
645.25	58.51
645.39	0.00
645.54	16.38
645.69	79.58
645.83	25.75
645.98	25.75
646.13	30.43
646.27	56.17
646.42	49.15
646.57	2.34
646.71	0.00
646.86	67.88
647.00	16.38
647.15	42.13
647.30	30.43
647.44	84.26
647.59	58.51
647.74	86.60
647.88	0.00
648.03	58.51
648.17	63.19
648.32	0.00
648.47	67.88
648.61	88.94
648.76	117.03
648.90	39.79
649.05	86.60
649.20	0.00
649.34	4.68
649.49	0.00
649.63	30.43
649.78	70.22
649.92	114.69
650.07	70.22
650.21	205.97
650.36	182.56
650.51	241.08
650.65	290.23
650.80	201.29
650.94	95.96
651.09	154.48
651.23	60.85
651.38	63.19
651.52	0.00
651.67	46.81
651.81	37.45
651.96	102.98
652.10	102.98
652.25	81.92
652.39	30.43
652.54	0.00
652.68	58.51
652.83	51.49
652.97	163.84
653.12	107.66
653.26	133.41
653.41	114.69
653.55	51.49
653.70	4.68
653.84	91.28
653.99	70.22
654.13	60.85
654.27	65.54
654.42	23.41
654.56	0.00
654.71	70.22
654.85	23.41
655.00	91.28
655.14	56.17
655.29	0.00
655.43	0.00
655.57	28.09
655.72	0.00
655.86	7.02
656.01	74.90
656.15	18.72
656.30	0.00
656.44	37.45
656.58	18.72
656.73	18.72
656.87	30.43
657.01	35.11
657.16	23.41
657.30	60.85
657.45	18.72
657.59	58.51
657.73	95.96
657.88	35.11
658.02	86.60
658.16	4.68
658.31	0.00
658.45	0.00
658.60	21.06
658.74	84.26
658.88	67.88
659.03	95.96
659.17	0.00
659.31	117.03
659.46	56.17
659.60	147.45
659.74	177.88
659.89	133.41
660.03	112.35
660.17	58.51
660.32	63.19
660.46	35.11
660.60	70.22
660.74	21.06
660.89	114.69
661.03	81.92
661.17	84.26
661.32	11.70
661.46	0.00
661.60	0.00
661.74	7.02
661.89	84.26
662.03	37.45
662.17	7.02
662.31	11.70
662.46	0.00
662.60	105.32
662.74	9.36
662.88	30.43
663.03	0.00
663.17	37.45
663.31	30.43
663.45	0.00
663.60	72.56
663.74	18.72
663.88	14.04
664.02	14.04
664.17	0.00
664.31	0.00
664.45	39.79
664.59	21.06
664.73	51.49
664.88	37.45
665.02	53.83
665.16	32.77
665.30	30.43
665.44	0.00
665.59	100.64
665.73	14.04
665.87	7.02
666.01	28.09
666.15	42.13
666.29	49.15
666.44	28.09
666.58	7.02
666.72	18.72
666.86	79.58
667.00	37.45
667.14	4.68
667.28	37.45
667.43	205.97
667.57	196.60
667.71	287.89
667.85	227.03
667.99	184.90
668.13	170.86
668.27	135.75
668.41	21.06
668.56	0.00
668.70	56.17
668.84	0.00
668.98	77.24
669.12	18.72
669.26	21.06
669.40	39.79
669.54	2.34
669.68	16.38
669.82	32.77
669.96	0.00
670.10	81.92
670.25	39.79
670.39	0.00
670.53	67.88
670.67	0.00
670.81	28.09
670.95	67.88
671.09	18.72
671.23	25.75
671.37	117.03
671.51	196.60
671.65	250.44
671.79	210.65
671.93	53.83
672.07	100.64
672.21	105.32
672.35	4.68
672.49	86.60
672.63	91.28
672.77	102.98
672.91	49.15
673.05	0.00
673.19	0.00
673.33	0.00
673.47	51.49
673.61	9.36
673.75	16.38
673.89	4.68
674.03	35.11
674.17	39.79
674.31	0.00
674.45	7.02
674.59	39.79
674.73	23.41
674.87	39.79
675.01	0.00
675.15	25.75
675.29	35.11
675.43	74.90
675.56	21.06
675.70	21.06
675.84	0.00
675.98	42.13
676.12	0.00
676.26	0.00
676.40	70.22
676.54	140.43
676.68	49.15
676.82	65.54
676.96	0.00
677.10	0.00
677.23	58.51
677.37	0.00
677.51	60.85
677.65	35.11
677.79	0.00
677.93	35.11
678.07	35.11
678.21	67.88
678.34	9.36
678.48	93.62
678.62	67.88
678.76	65.54
678.90	35.11
679.04	0.00
679.18	74.90
679.31	11.70
679.45	14.04
679.59	4.68
679.73	51.49
679.87	70.22
680.00	95.96
680.14	95.96
680.28	0.00
680.42	42.13
680.56	0.00
680.70	72.56
680.83	56.17
680.97	0.00
681.11	0.00
681.25	18.72
681.39	70.22
681.52	58.51
681.66	0.00
681.80	2.34
681.94	18.72
682.07	4.68
682.21	2.34
682.35	42.13
682.49	23.41
682.62	11.70
682.76	0.00
682.90	37.45
683.04	56.17
683.17	42.13
683.31	23.41
683.45	51.49
683.59	4.68
683.72	32.77
683.86	0.00
684.00	0.00
684.13	18.72
684.27	11.70
684.41	21.06
684.55	25.75
684.68	0.00
684.82	70.22
684.96	16.38
685.09	51.49
685.23	14.04
685.37	30.43
685.50	28.09
685.64	81.92
685.78	0.00
685.91	84.26
686.05	35.11
686.19	53.83
686.32	21.06
686.46	39.79
686.60	0.00
686.73	11.70
686.87	16.38
687.01	30.43
687.14	0.00
687.28	0.00
687.42	14.04
687.55	30.43
687.69	0.00
687.82	0.00
687.96	49.15
688.10	18.72
688.23	25.75
688.37	56.17
688.50	0.00
688.64	44.47
688.78	67.88
688.91	39.79
689.05	0.00
689.18	16.38
689.32	51.49
689.46	21.06
689.59	81.92
689.73	72.56
689.86	39.79
690.00	0.00
690.13	60.85
690.27	0.00
690.41	2.34
690.54	49.15
690.68	56.17
690.81	16.38
690.95	70.22
691.08	86.60
691.22	0.00
691.35	7.02
691.49	42.13
691.62	42.13
691.76	35.11
691.89	0.00
692.03	0.00
692.16	0.00
692.30	30.43
692.43	91.28
692.57	51.49
692.70	51.49
692.84	145.11
692.97	198.95
693.11	58.51
693.24	91.28
693.38	4.68
693.51	18.72
693.65	42.13
693.78	18.72
693.92	28.09
694.05	81.92
694.19	70.22
694.32	0.00
694.45	60.85
694.59	28.09
694.72	30.43
694.86	28.09
694.99	56.17
695.13	28.09
695.26	21.06
695.39	46.81
695.53	35.11
695.66	42.13
695.80	11.70
695.93	32.77
696.07	32.77
696.20	7.02
696.33	28.09
696.47	88.94
696.60	21.06
696.73	35.11
696.87	56.17
697.00	0.00
697.14	25.75
697.27	42.13
697.40	14.04
697.54	28.09
697.67	0.00
697.80	35.11
697.94	37.45
698.07	30.43
698.21	23.41
698.34	65.54
698.47	51.49
698.61	14.04
698.74	42.13
698.87	0.00
699.01	58.51
699.14	16.38
699.27	58.51
699.40	23.41
699.54	0.00
699.67	0.00
699.80	39.79
699.94	30.43
700.07	58.51
700.20	32.77
700.34	23.41
700.47	30.43
700.60	0.00
700.73	30.43
700.87	7.02
701.00	0.00
701.13	25.75
701.26	42.13
701.40	0.00
701.53	11.70
701.66	0.00
701.79	58.51
701.93	37.45
702.06	0.00
702.19	32.77
702.32	0.00
702.46	16.38
702.59	18.72
702.72	58.51
702.85	135.75
702.99	163.84
703.12	205.97
703.25	210.65
703.38	156.82
703.51	175.54
703.65	119.37
703.78	128.73
703.91	32.77
704.04	30.43
704.17	37.45
704.31	63.19
704.44	100.64
704.57	105.32
704.70	51.49
704.83	0.00
704.96	46.81
705.10	0.00
705.23	42.13
>>>>>End Processed Spectral Data<<<<<
