SpectraSuite Data File
++++++++++++++++++++++++++++++++++++
Date: Fri Oct 04 12:13:43 GMT-05:00 2013
User: price-jones
Dark Spectrum Present: No
Reference Spectrum Present: No
Number of Sampled Component Spectra: 1
Spectrometers: USB2+H05261
Integration Time (usec): 10000 (USB2+H05261)
Spectra Averaged: 1 (USB2+H05261)
Boxcar Smoothing: 0 (USB2+H05261)
Correct for Electrical Dark: No (USB2+H05261)
Strobe/Lamp Enabled: No (USB2+H05261)
Correct for Detector Non-linearity: No (USB2+H05261)
Correct for Stray Light: No (USB2+H05261)
Number of Pixels in Processed Spectrum: 2048
>>>>>Begin Processed Spectral Data<<<<<
365.73	0.00
365.92	0.00
366.12	0.00
366.32	0.00
366.52	0.00
366.72	0.00
366.91	0.00
367.11	0.00
367.31	0.00
367.51	0.00
367.70	0.00
367.90	0.00
368.10	0.00
368.30	0.00
368.49	0.00
368.69	0.00
368.89	0.00
369.09	0.00
369.28	0.00
369.48	0.00
369.68	0.00
369.87	0.00
370.07	0.00
370.27	0.00
370.47	0.00
370.66	0.00
370.86	0.00
371.06	0.00
371.25	0.00
371.45	11.70
371.65	0.00
371.84	0.00
372.04	9.36
372.24	7.02
372.44	9.36
372.63	2.34
372.83	0.00
373.03	23.41
373.22	0.00
373.42	16.38
373.62	63.19
373.81	28.09
374.01	37.45
374.21	81.92
374.40	77.24
374.60	49.15
374.79	4.68
374.99	79.58
375.19	9.36
375.38	67.88
375.58	67.88
375.78	58.51
375.97	0.00
376.17	74.90
376.37	0.00
376.56	21.06
376.76	100.64
376.95	9.36
377.15	30.43
377.35	37.45
377.54	0.00
377.74	9.36
377.93	0.00
378.13	4.68
378.33	18.72
378.52	30.43
378.72	9.36
378.91	16.38
379.11	0.00
379.31	0.00
379.50	32.77
379.70	51.49
379.89	0.00
380.09	67.88
380.28	4.68
380.48	35.11
380.68	0.00
380.87	0.00
381.07	14.04
381.26	44.47
381.46	77.24
381.65	0.00
381.85	2.34
382.04	0.00
382.24	0.00
382.43	0.00
382.63	70.22
382.83	32.77
383.02	0.00
383.22	42.13
383.41	0.00
383.61	16.38
383.80	0.00
384.00	0.00
384.19	124.05
384.39	25.75
384.58	0.00
384.78	79.58
384.97	32.77
385.17	53.83
385.36	25.75
385.56	49.15
385.75	0.00
385.95	100.64
386.14	37.45
386.34	0.00
386.53	11.70
386.72	0.00
386.92	0.00
387.11	56.17
387.31	2.34
387.50	0.00
387.70	77.24
387.89	42.13
388.09	0.00
388.28	72.56
388.48	112.35
388.67	65.54
388.86	79.58
389.06	21.06
389.25	0.00
389.45	67.88
389.64	0.00
389.84	9.36
390.03	4.68
390.22	0.00
390.42	53.83
390.61	11.70
390.81	9.36
391.00	81.92
391.19	131.07
391.39	63.19
391.58	25.75
391.78	0.00
391.97	53.83
392.16	93.62
392.36	56.17
392.55	0.00
392.75	32.77
392.94	16.38
393.13	63.19
393.33	56.17
393.52	79.58
393.71	51.49
393.91	23.41
394.10	32.77
394.29	100.64
394.49	23.41
394.68	0.00
394.88	16.38
395.07	84.26
395.26	58.51
395.46	49.15
395.65	58.51
395.84	35.11
396.04	4.68
396.23	0.00
396.42	39.79
396.62	44.47
396.81	114.69
397.00	79.58
397.19	25.75
397.39	60.85
397.58	74.90
397.77	79.58
397.97	0.00
398.16	25.75
398.35	49.15
398.55	11.70
398.74	21.06
398.93	0.00
399.12	18.72
399.32	11.70
399.51	53.83
399.70	60.85
399.90	60.85
400.09	25.75
400.28	23.41
400.47	0.00
400.67	28.09
400.86	0.00
401.05	14.04
401.24	0.00
401.44	7.02
401.63	14.04
401.82	0.00
402.01	0.00
402.21	11.70
402.40	63.19
402.59	117.03
402.78	9.36
402.97	74.90
403.17	67.88
403.36	72.56
403.55	30.43
403.74	46.81
403.93	42.13
404.13	79.58
404.32	25.75
404.51	49.15
404.70	39.79
404.89	72.56
405.09	9.36
405.28	14.04
405.47	49.15
405.66	7.02
405.85	72.56
406.05	37.45
406.24	14.04
406.43	11.70
406.62	25.75
406.81	0.00
407.00	37.45
407.20	77.24
407.39	51.49
407.58	0.00
407.77	60.85
407.96	42.13
408.15	84.26
408.34	44.47
408.54	51.49
408.73	30.43
408.92	14.04
409.11	37.45
409.30	0.00
409.49	93.62
409.68	39.79
409.87	30.43
410.07	72.56
410.26	53.83
410.45	30.43
410.64	72.56
410.83	46.81
411.02	0.00
411.21	58.51
411.40	56.17
411.59	0.00
411.78	0.00
411.98	149.79
412.17	0.00
412.36	110.01
412.55	39.79
412.74	30.43
412.93	32.77
413.12	2.34
413.31	56.17
413.50	0.00
413.69	9.36
413.88	44.47
414.07	133.41
414.26	35.11
414.45	28.09
414.64	0.00
414.83	98.30
415.02	0.00
415.22	28.09
415.41	25.75
415.60	93.62
415.79	28.09
415.98	63.19
416.17	42.13
416.36	4.68
416.55	119.37
416.74	30.43
416.93	30.43
417.12	16.38
417.31	28.09
417.50	2.34
417.69	81.92
417.88	74.90
418.07	23.41
418.26	16.38
418.45	21.06
418.64	74.90
418.83	138.09
419.02	2.34
419.21	42.13
419.39	49.15
419.58	18.72
419.77	58.51
419.96	56.17
420.15	42.13
420.34	32.77
420.53	23.41
420.72	14.04
420.91	21.06
421.10	84.26
421.29	0.00
421.48	42.13
421.67	39.79
421.86	4.68
422.05	32.77
422.24	95.96
422.43	77.24
422.61	0.00
422.80	14.04
422.99	32.77
423.18	98.30
423.37	53.83
423.56	42.13
423.75	56.17
423.94	42.13
424.13	21.06
424.32	44.47
424.50	32.77
424.69	39.79
424.88	0.00
425.07	30.43
425.26	0.00
425.45	21.06
425.64	74.90
425.83	0.00
426.01	135.75
426.20	23.41
426.39	2.34
426.58	42.13
426.77	16.38
426.96	70.22
427.15	32.77
427.33	0.00
427.52	35.11
427.71	79.58
427.90	58.51
428.09	51.49
428.28	79.58
428.46	0.00
428.65	35.11
428.84	32.77
429.03	72.56
429.22	88.94
429.40	44.47
429.59	0.00
429.78	0.00
429.97	49.15
430.16	21.06
430.34	63.19
430.53	81.92
430.72	107.66
430.91	79.58
431.10	98.30
431.28	100.64
431.47	9.36
431.66	25.75
431.85	32.77
432.03	39.79
432.22	56.17
432.41	32.77
432.60	58.51
432.79	9.36
432.97	16.38
433.16	0.00
433.35	11.70
433.54	93.62
433.72	39.79
433.91	112.35
434.10	63.19
434.28	21.06
434.47	0.00
434.66	7.02
434.85	77.24
435.03	0.00
435.22	77.24
435.41	18.72
435.59	51.49
435.78	44.47
435.97	16.38
436.16	65.54
436.34	56.17
436.53	44.47
436.72	28.09
436.90	63.19
437.09	39.79
437.28	28.09
437.46	100.64
437.65	39.79
437.84	63.19
438.02	0.00
438.21	28.09
438.40	56.17
438.58	60.85
438.77	25.75
438.96	114.69
439.14	16.38
439.33	98.30
439.52	35.11
439.70	56.17
439.89	0.00
440.08	65.54
440.26	86.60
440.45	110.01
440.63	21.06
440.82	63.19
441.01	110.01
441.19	81.92
441.38	49.15
441.57	56.17
441.75	105.32
441.94	56.17
442.12	128.73
442.31	79.58
442.50	84.26
442.68	65.54
442.87	63.19
443.05	60.85
443.24	46.81
443.43	51.49
443.61	79.58
443.80	102.98
443.98	7.02
444.17	37.45
444.35	30.43
444.54	23.41
444.73	53.83
444.91	42.13
445.10	67.88
445.28	7.02
445.47	72.56
445.65	2.34
445.84	2.34
446.02	49.15
446.21	14.04
446.39	91.28
446.58	25.75
446.77	46.81
446.95	93.62
447.14	46.81
447.32	72.56
447.51	39.79
447.69	67.88
447.88	72.56
448.06	65.54
448.25	42.13
448.43	67.88
448.62	32.77
448.80	0.00
448.99	39.79
449.17	84.26
449.36	110.01
449.54	21.06
449.73	37.45
449.91	4.68
450.10	84.26
450.28	124.05
450.46	91.28
450.65	110.01
450.83	102.98
451.02	67.88
451.20	84.26
451.39	72.56
451.57	74.90
451.76	133.41
451.94	49.15
452.13	133.41
452.31	11.70
452.49	11.70
452.68	107.66
452.86	51.49
453.05	112.35
453.23	11.70
453.42	100.64
453.60	14.04
453.78	37.45
453.97	14.04
454.15	124.05
454.34	100.64
454.52	156.82
454.70	159.16
454.89	88.94
455.07	60.85
455.26	28.09
455.44	67.88
455.62	131.07
455.81	93.62
455.99	70.22
456.17	93.62
456.36	91.28
456.54	79.58
456.73	121.71
456.91	53.83
457.09	84.26
457.28	81.92
457.46	107.66
457.64	91.28
457.83	79.58
458.01	74.90
458.19	9.36
458.38	65.54
458.56	53.83
458.74	53.83
458.93	84.26
459.11	0.00
459.29	42.13
459.48	79.58
459.66	102.98
459.84	81.92
460.03	37.45
460.21	74.90
460.39	44.47
460.57	30.43
460.76	4.68
460.94	112.35
461.12	102.98
461.31	67.88
461.49	25.75
461.67	39.79
461.85	37.45
462.04	60.85
462.22	72.56
462.40	25.75
462.59	86.60
462.77	51.49
462.95	117.03
463.13	81.92
463.32	39.79
463.50	81.92
463.68	72.56
463.86	2.34
464.05	58.51
464.23	0.00
464.41	58.51
464.59	0.00
464.78	53.83
464.96	70.22
465.14	74.90
465.32	39.79
465.50	51.49
465.69	51.49
465.87	39.79
466.05	88.94
466.23	49.15
466.41	42.13
466.60	56.17
466.78	60.85
466.96	72.56
467.14	16.38
467.32	86.60
467.51	51.49
467.69	23.41
467.87	53.83
468.05	37.45
468.23	7.02
468.41	121.71
468.60	53.83
468.78	98.30
468.96	7.02
469.14	49.15
469.32	84.26
469.50	18.72
469.69	67.88
469.87	65.54
470.05	44.47
470.23	65.54
470.41	91.28
470.59	30.43
470.77	74.90
470.95	30.43
471.14	30.43
471.32	100.64
471.50	74.90
471.68	16.38
471.86	51.49
472.04	77.24
472.22	98.30
472.40	32.77
472.58	110.01
472.77	21.06
472.95	0.00
473.13	4.68
473.31	79.58
473.49	93.62
473.67	56.17
473.85	39.79
474.03	70.22
474.21	126.39
474.39	79.58
474.57	58.51
474.75	79.58
474.93	121.71
475.12	60.85
475.30	46.81
475.48	16.38
475.66	93.62
475.84	98.30
476.02	74.90
476.20	56.17
476.38	56.17
476.56	46.81
476.74	11.70
476.92	4.68
477.10	32.77
477.28	51.49
477.46	135.75
477.64	0.00
477.82	42.13
478.00	84.26
478.18	23.41
478.36	56.17
478.54	0.00
478.72	145.11
478.90	44.47
479.08	65.54
479.26	56.17
479.44	14.04
479.62	72.56
479.80	63.19
479.98	119.37
480.16	58.51
480.34	0.00
480.52	56.17
480.70	44.47
480.88	11.70
481.06	56.17
481.24	67.88
481.41	72.56
481.59	91.28
481.77	32.77
481.95	102.98
482.13	105.32
482.31	79.58
482.49	53.83
482.67	100.64
482.85	58.51
483.03	74.90
483.21	7.02
483.39	100.64
483.57	102.98
483.74	65.54
483.92	119.37
484.10	93.62
484.28	95.96
484.46	67.88
484.64	77.24
484.82	114.69
485.00	81.92
485.18	95.96
485.35	74.90
485.53	88.94
485.71	32.77
485.89	105.32
486.07	88.94
486.25	32.77
486.43	44.47
486.61	23.41
486.78	0.00
486.96	39.79
487.14	28.09
487.32	86.60
487.50	107.66
487.68	86.60
487.85	100.64
488.03	42.13
488.21	42.13
488.39	49.15
488.57	152.13
488.75	77.24
488.92	138.09
489.10	105.32
489.28	105.32
489.46	32.77
489.64	77.24
489.81	51.49
489.99	98.30
490.17	81.92
490.35	49.15
490.53	56.17
490.70	135.75
490.88	98.30
491.06	140.43
491.24	93.62
491.41	42.13
491.59	107.66
491.77	39.79
491.95	65.54
492.13	58.51
492.30	93.62
492.48	126.39
492.66	110.01
492.84	0.00
493.01	84.26
493.19	133.41
493.37	102.98
493.54	93.62
493.72	93.62
493.90	67.88
494.08	23.41
494.25	60.85
494.43	58.51
494.61	25.75
494.79	133.41
494.96	46.81
495.14	100.64
495.32	133.41
495.49	114.69
495.67	67.88
495.85	128.73
496.02	74.90
496.20	28.09
496.38	98.30
496.55	56.17
496.73	74.90
496.91	98.30
497.09	142.77
497.26	102.98
497.44	86.60
497.62	0.00
497.79	72.56
497.97	49.15
498.14	16.38
498.32	51.49
498.50	56.17
498.67	25.75
498.85	74.90
499.03	0.00
499.20	42.13
499.38	98.30
499.56	72.56
499.73	107.66
499.91	149.79
500.08	42.13
500.26	58.51
500.44	63.19
500.61	88.94
500.79	98.30
500.97	121.71
501.14	91.28
501.32	135.75
501.49	65.54
501.67	110.01
501.84	39.79
502.02	81.92
502.20	53.83
502.37	23.41
502.55	102.98
502.72	102.98
502.90	72.56
503.07	30.43
503.25	72.56
503.43	110.01
503.60	25.75
503.78	112.35
503.95	21.06
504.13	56.17
504.30	93.62
504.48	23.41
504.65	84.26
504.83	173.20
505.01	112.35
505.18	14.04
505.36	100.64
505.53	46.81
505.71	91.28
505.88	58.51
506.06	51.49
506.23	60.85
506.41	98.30
506.58	107.66
506.76	63.19
506.93	91.28
507.11	56.17
507.28	67.88
507.46	21.06
507.63	51.49
507.81	37.45
507.98	32.77
508.16	117.03
508.33	79.58
508.50	63.19
508.68	39.79
508.85	67.88
509.03	58.51
509.20	138.09
509.38	70.22
509.55	63.19
509.73	84.26
509.90	25.75
510.08	114.69
510.25	84.26
510.42	119.37
510.60	77.24
510.77	65.54
510.95	110.01
511.12	77.24
511.30	135.75
511.47	95.96
511.64	63.19
511.82	70.22
511.99	105.32
512.17	114.69
512.34	112.35
512.51	60.85
512.69	161.50
512.86	121.71
513.04	105.32
513.21	86.60
513.38	154.48
513.56	44.47
513.73	81.92
513.90	107.66
514.08	86.60
514.25	67.88
514.43	133.41
514.60	77.24
514.77	121.71
514.95	95.96
515.12	110.01
515.29	124.05
515.47	53.83
515.64	100.64
515.81	152.13
515.99	131.07
516.16	60.85
516.33	131.07
516.51	46.81
516.68	112.35
516.85	154.48
517.03	100.64
517.20	95.96
517.37	0.00
517.54	114.69
517.72	23.41
517.89	0.00
518.06	72.56
518.24	23.41
518.41	133.41
518.58	107.66
518.75	149.79
518.93	56.17
519.10	107.66
519.27	117.03
519.45	56.17
519.62	32.77
519.79	159.16
519.96	152.13
520.14	67.88
520.31	107.66
520.48	58.51
520.65	128.73
520.83	70.22
521.00	56.17
521.17	119.37
521.34	114.69
521.52	84.26
521.69	67.88
521.86	91.28
522.03	86.60
522.20	114.69
522.38	110.01
522.55	138.09
522.72	81.92
522.89	149.79
523.07	67.88
523.24	9.36
523.41	60.85
523.58	35.11
523.75	133.41
523.92	156.82
524.10	177.88
524.27	65.54
524.44	60.85
524.61	138.09
524.78	114.69
524.96	81.92
525.13	39.79
525.30	84.26
525.47	133.41
525.64	91.28
525.81	65.54
525.98	51.49
526.16	49.15
526.33	86.60
526.50	91.28
526.67	77.24
526.84	105.32
527.01	72.56
527.18	124.05
527.36	93.62
527.53	79.58
527.70	107.66
527.87	44.47
528.04	74.90
528.21	0.00
528.38	49.15
528.55	60.85
528.72	67.88
528.89	126.39
529.07	100.64
529.24	0.00
529.41	67.88
529.58	56.17
529.75	107.66
529.92	79.58
530.09	77.24
530.26	70.22
530.43	102.98
530.60	28.09
530.77	84.26
530.94	138.09
531.11	30.43
531.28	95.96
531.46	46.81
531.63	25.75
531.80	131.07
531.97	180.22
532.14	126.39
532.31	93.62
532.48	58.51
532.65	81.92
532.82	107.66
532.99	114.69
533.16	81.92
533.33	131.07
533.50	91.28
533.67	79.58
533.84	110.01
534.01	91.28
534.18	117.03
534.35	138.09
534.52	74.90
534.69	93.62
534.86	100.64
535.03	133.41
535.20	159.16
535.37	95.96
535.54	84.26
535.71	67.88
535.88	91.28
536.05	168.52
536.22	131.07
536.38	67.88
536.55	67.88
536.72	56.17
536.89	65.54
537.06	100.64
537.23	138.09
537.40	91.28
537.57	60.85
537.74	67.88
537.91	84.26
538.08	147.45
538.25	67.88
538.42	131.07
538.59	107.66
538.75	86.60
538.92	98.30
539.09	81.92
539.26	93.62
539.43	93.62
539.60	114.69
539.77	187.24
539.94	56.17
540.11	77.24
540.28	98.30
540.44	74.90
540.61	93.62
540.78	145.11
540.95	117.03
541.12	133.41
541.29	39.79
541.46	79.58
541.62	152.13
541.79	124.05
541.96	191.92
542.13	74.90
542.30	56.17
542.47	72.56
542.63	84.26
542.80	72.56
542.97	44.47
543.14	114.69
543.31	105.32
543.48	65.54
543.64	100.64
543.81	154.48
543.98	67.88
544.15	86.60
544.32	105.32
544.48	56.17
544.65	140.43
544.82	131.07
544.99	135.75
545.16	67.88
545.32	93.62
545.49	135.75
545.66	65.54
545.83	156.82
546.00	124.05
546.16	149.79
546.33	81.92
546.50	119.37
546.67	95.96
546.83	74.90
547.00	84.26
547.17	100.64
547.34	72.56
547.50	72.56
547.67	107.66
547.84	152.13
548.00	138.09
548.17	98.30
548.34	53.83
548.51	51.49
548.67	74.90
548.84	46.81
549.01	88.94
549.18	95.96
549.34	63.19
549.51	107.66
549.68	117.03
549.84	182.56
550.01	135.75
550.18	88.94
550.34	121.71
550.51	131.07
550.68	166.18
550.84	126.39
551.01	28.09
551.18	107.66
551.34	100.64
551.51	149.79
551.68	77.24
551.84	102.98
552.01	135.75
552.18	88.94
552.34	53.83
552.51	100.64
552.68	58.51
552.84	56.17
553.01	49.15
553.18	74.90
553.34	9.36
553.51	88.94
553.67	124.05
553.84	107.66
554.01	126.39
554.17	46.81
554.34	0.00
554.51	65.54
554.67	70.22
554.84	138.09
555.00	42.13
555.17	91.28
555.33	154.48
555.50	121.71
555.67	88.94
555.83	100.64
556.00	35.11
556.16	37.45
556.33	51.49
556.50	81.92
556.66	35.11
556.83	77.24
556.99	84.26
557.16	44.47
557.32	93.62
557.49	126.39
557.65	51.49
557.82	60.85
557.98	58.51
558.15	154.48
558.32	117.03
558.48	114.69
558.65	107.66
558.81	121.71
558.98	124.05
559.14	56.17
559.31	110.01
559.47	114.69
559.64	135.75
559.80	70.22
559.97	56.17
560.13	49.15
560.30	124.05
560.46	49.15
560.63	70.22
560.79	72.56
560.96	65.54
561.12	46.81
561.29	72.56
561.45	23.41
561.61	124.05
561.78	114.69
561.94	112.35
562.11	9.36
562.27	91.28
562.44	156.82
562.60	128.73
562.77	95.96
562.93	21.06
563.10	149.79
563.26	107.66
563.42	95.96
563.59	110.01
563.75	81.92
563.92	112.35
564.08	91.28
564.24	121.71
564.41	88.94
564.57	60.85
564.74	100.64
564.90	60.85
565.07	77.24
565.23	119.37
565.39	53.83
565.56	124.05
565.72	44.47
565.88	46.81
566.05	46.81
566.21	37.45
566.38	152.13
566.54	91.28
566.70	133.41
566.87	74.90
567.03	46.81
567.19	191.92
567.36	145.11
567.52	84.26
567.68	81.92
567.85	44.47
568.01	142.77
568.17	46.81
568.34	93.62
568.50	107.66
568.66	140.43
568.83	39.79
568.99	152.13
569.15	56.17
569.32	112.35
569.48	72.56
569.64	42.13
569.81	56.17
569.97	77.24
570.13	91.28
570.30	51.49
570.46	91.28
570.62	53.83
570.78	91.28
570.95	58.51
571.11	126.39
571.27	86.60
571.43	49.15
571.60	110.01
571.76	30.43
571.92	119.37
572.09	131.07
572.25	60.85
572.41	70.22
572.57	11.70
572.74	86.60
572.90	93.62
573.06	102.98
573.22	42.13
573.38	117.03
573.55	149.79
573.71	117.03
573.87	126.39
574.03	0.00
574.20	100.64
574.36	114.69
574.52	93.62
574.68	81.92
574.84	44.47
575.01	32.77
575.17	32.77
575.33	86.60
575.49	74.90
575.65	56.17
575.82	117.03
575.98	30.43
576.14	112.35
576.30	49.15
576.46	79.58
576.62	44.47
576.79	74.90
576.95	42.13
577.11	126.39
577.27	84.26
577.43	86.60
577.59	81.92
577.75	154.48
577.92	11.70
578.08	81.92
578.24	49.15
578.40	100.64
578.56	133.41
578.72	53.83
578.88	30.43
579.04	30.43
579.21	60.85
579.37	58.51
579.53	117.03
579.69	98.30
579.85	79.58
580.01	98.30
580.17	35.11
580.33	100.64
580.49	25.75
580.65	93.62
580.82	39.79
580.98	51.49
581.14	119.37
581.30	98.30
581.46	91.28
581.62	46.81
581.78	46.81
581.94	35.11
582.10	124.05
582.26	100.64
582.42	21.06
582.58	112.35
582.74	107.66
582.90	67.88
583.06	84.26
583.22	63.19
583.38	51.49
583.54	65.54
583.70	63.19
583.86	37.45
584.02	124.05
584.18	88.94
584.34	58.51
584.50	102.98
584.66	107.66
584.82	102.98
584.98	95.96
585.14	86.60
585.30	100.64
585.46	58.51
585.62	100.64
585.78	58.51
585.94	124.05
586.10	72.56
586.26	0.00
586.42	86.60
586.58	84.26
586.74	88.94
586.90	145.11
587.06	107.66
587.22	53.83
587.38	51.49
587.54	98.30
587.70	88.94
587.86	81.92
588.02	39.79
588.18	56.17
588.34	91.28
588.49	37.45
588.65	91.28
588.81	14.04
588.97	23.41
589.13	37.45
589.29	70.22
589.45	95.96
589.61	46.81
589.77	28.09
589.93	39.79
590.08	79.58
590.24	58.51
590.40	28.09
590.56	63.19
590.72	37.45
590.88	156.82
591.04	35.11
591.20	81.92
591.35	32.77
591.51	32.77
591.67	30.43
591.83	56.17
591.99	79.58
592.15	67.88
592.31	121.71
592.46	51.49
592.62	119.37
592.78	110.01
592.94	23.41
593.10	58.51
593.26	100.64
593.41	102.98
593.57	88.94
593.73	86.60
593.89	93.62
594.05	79.58
594.20	37.45
594.36	84.26
594.52	72.56
594.68	56.17
594.84	0.00
594.99	126.39
595.15	49.15
595.31	30.43
595.47	100.64
595.62	70.22
595.78	119.37
595.94	18.72
596.10	88.94
596.25	30.43
596.41	25.75
596.57	107.66
596.73	117.03
596.88	65.54
597.04	77.24
597.20	72.56
597.36	11.70
597.51	63.19
597.67	79.58
597.83	67.88
597.99	18.72
598.14	65.54
598.30	60.85
598.46	161.50
598.61	81.92
598.77	14.04
598.93	67.88
599.09	63.19
599.24	58.51
599.40	51.49
599.56	39.79
599.71	51.49
599.87	14.04
600.03	30.43
600.18	93.62
600.34	39.79
600.50	81.92
600.65	63.19
600.81	58.51
600.97	67.88
601.12	39.79
601.28	60.85
601.44	77.24
601.59	100.64
601.75	105.32
601.91	119.37
602.06	0.00
602.22	74.90
602.37	39.79
602.53	37.45
602.69	42.13
602.84	98.30
603.00	74.90
603.16	58.51
603.31	58.51
603.47	91.28
603.62	51.49
603.78	154.48
603.94	42.13
604.09	74.90
604.25	91.28
604.40	86.60
604.56	42.13
604.71	63.19
604.87	72.56
605.03	63.19
605.18	91.28
605.34	46.81
605.49	58.51
605.65	60.85
605.80	44.47
605.96	154.48
606.12	100.64
606.27	32.77
606.43	159.16
606.58	138.09
606.74	107.66
606.89	53.83
607.05	149.79
607.20	51.49
607.36	72.56
607.51	51.49
607.67	49.15
607.82	79.58
607.98	102.98
608.13	60.85
608.29	100.64
608.44	114.69
608.60	98.30
608.75	49.15
608.91	119.37
609.06	65.54
609.22	67.88
609.37	84.26
609.53	86.60
609.68	77.24
609.84	53.83
609.99	28.09
610.15	72.56
610.30	124.05
610.46	107.66
610.61	131.07
610.76	56.17
610.92	119.37
611.07	65.54
611.23	86.60
611.38	56.17
611.54	121.71
611.69	91.28
611.84	14.04
612.00	93.62
612.15	21.06
612.31	74.90
612.46	21.06
612.62	98.30
612.77	79.58
612.92	37.45
613.08	65.54
613.23	182.56
613.39	81.92
613.54	121.71
613.69	77.24
613.85	100.64
614.00	124.05
614.15	102.98
614.31	86.60
614.46	72.56
614.62	44.47
614.77	112.35
614.92	65.54
615.08	93.62
615.23	37.45
615.38	42.13
615.54	81.92
615.69	2.34
615.84	105.32
616.00	98.30
616.15	35.11
616.30	79.58
616.46	107.66
616.61	56.17
616.76	86.60
616.92	30.43
617.07	4.68
617.22	93.62
617.37	9.36
617.53	58.51
617.68	67.88
617.83	72.56
617.99	102.98
618.14	58.51
618.29	74.90
618.45	35.11
618.60	142.77
618.75	67.88
618.90	95.96
619.06	88.94
619.21	72.56
619.36	140.43
619.51	168.52
619.67	49.15
619.82	16.38
619.97	25.75
620.12	102.98
620.28	30.43
620.43	63.19
620.58	93.62
620.73	81.92
620.89	44.47
621.04	70.22
621.19	77.24
621.34	84.26
621.49	91.28
621.65	67.88
621.80	0.00
621.95	77.24
622.10	65.54
622.25	28.09
622.41	60.85
622.56	16.38
622.71	117.03
622.86	88.94
623.01	65.54
623.16	25.75
623.32	102.98
623.47	58.51
623.62	51.49
623.77	67.88
623.92	51.49
624.07	39.79
624.23	51.49
624.38	11.70
624.53	23.41
624.68	102.98
624.83	4.68
624.98	107.66
625.13	121.71
625.29	51.49
625.44	84.26
625.59	18.72
625.74	72.56
625.89	14.04
626.04	117.03
626.19	79.58
626.34	65.54
626.49	49.15
626.65	53.83
626.80	105.32
626.95	16.38
627.10	91.28
627.25	93.62
627.40	60.85
627.55	0.00
627.70	25.75
627.85	21.06
628.00	84.26
628.15	81.92
628.30	58.51
628.45	42.13
628.60	0.00
628.76	44.47
628.91	60.85
629.06	67.88
629.21	58.51
629.36	7.02
629.51	65.54
629.66	0.00
629.81	65.54
629.96	65.54
630.11	107.66
630.26	60.85
630.41	79.58
630.56	100.64
630.71	49.15
630.86	65.54
631.01	39.79
631.16	110.01
631.31	98.30
631.46	28.09
631.61	77.24
631.76	42.13
631.91	25.75
632.06	0.00
632.21	112.35
632.36	23.41
632.51	105.32
632.66	79.58
632.81	70.22
632.96	58.51
633.10	4.68
633.25	91.28
633.40	42.13
633.55	30.43
633.70	53.83
633.85	53.83
634.00	77.24
634.15	58.51
634.30	51.49
634.45	67.88
634.60	98.30
634.75	74.90
634.90	102.98
635.05	51.49
635.19	84.26
635.34	72.56
635.49	102.98
635.64	9.36
635.79	67.88
635.94	65.54
636.09	0.00
636.24	18.72
636.39	51.49
636.53	30.43
636.68	32.77
636.83	32.77
636.98	4.68
637.13	30.43
637.28	91.28
637.43	93.62
637.57	53.83
637.72	65.54
637.87	58.51
638.02	0.00
638.17	39.79
638.32	56.17
638.46	32.77
638.61	53.83
638.76	74.90
638.91	81.92
639.06	63.19
639.20	114.69
639.35	58.51
639.50	77.24
639.65	25.75
639.80	56.17
639.94	72.56
640.09	60.85
640.24	42.13
640.39	58.51
640.54	56.17
640.68	23.41
640.83	42.13
640.98	74.90
641.13	81.92
641.27	65.54
641.42	11.70
641.57	140.43
641.72	63.19
641.86	4.68
642.01	53.83
642.16	46.81
642.31	35.11
642.45	79.58
642.60	74.90
642.75	60.85
642.90	0.00
643.04	88.94
643.19	32.77
643.34	9.36
643.48	100.64
643.63	7.02
643.78	114.69
643.93	93.62
644.07	0.00
644.22	32.77
644.37	25.75
644.51	91.28
644.66	16.38
644.81	65.54
644.95	60.85
645.10	53.83
645.25	35.11
645.39	84.26
645.54	23.41
645.69	79.58
645.83	79.58
645.98	37.45
646.13	46.81
646.27	70.22
646.42	72.56
646.57	35.11
646.71	11.70
646.86	39.79
647.00	74.90
647.15	0.00
647.30	81.92
647.44	77.24
647.59	42.13
647.74	49.15
647.88	44.47
648.03	28.09
648.17	74.90
648.32	84.26
648.47	77.24
648.61	42.13
648.76	0.00
648.90	79.58
649.05	93.62
649.20	7.02
649.34	142.77
649.49	102.98
649.63	7.02
649.78	107.66
649.92	93.62
650.07	32.77
650.21	46.81
650.36	77.24
650.51	32.77
650.65	28.09
650.80	49.15
650.94	25.75
651.09	63.19
651.23	72.56
651.38	142.77
651.52	63.19
651.67	30.43
651.81	67.88
651.96	81.92
652.10	56.17
652.25	42.13
652.39	95.96
652.54	39.79
652.68	91.28
652.83	0.00
652.97	23.41
653.12	91.28
653.26	0.00
653.41	28.09
653.55	42.13
653.70	4.68
653.84	39.79
653.99	84.26
654.13	49.15
654.27	32.77
654.42	84.26
654.56	70.22
654.71	121.71
654.85	70.22
655.00	46.81
655.14	42.13
655.29	102.98
655.43	95.96
655.57	18.72
655.72	18.72
655.86	25.75
656.01	39.79
656.15	56.17
656.30	32.77
656.44	28.09
656.58	32.77
656.73	79.58
656.87	81.92
657.01	0.00
657.16	37.45
657.30	63.19
657.45	72.56
657.59	39.79
657.73	0.00
657.88	14.04
658.02	98.30
658.16	74.90
658.31	39.79
658.45	16.38
658.60	63.19
658.74	100.64
658.88	11.70
659.03	16.38
659.17	58.51
659.31	9.36
659.46	77.24
659.60	16.38
659.74	65.54
659.89	0.00
660.03	39.79
660.17	0.00
660.32	88.94
660.46	28.09
660.60	16.38
660.74	63.19
660.89	39.79
661.03	35.11
661.17	37.45
661.32	56.17
661.46	7.02
661.60	131.07
661.74	60.85
661.89	65.54
662.03	14.04
662.17	0.00
662.31	0.00
662.46	14.04
662.60	81.92
662.74	53.83
662.88	86.60
663.03	25.75
663.17	30.43
663.31	121.71
663.45	18.72
663.60	58.51
663.74	21.06
663.88	46.81
664.02	42.13
664.17	100.64
664.31	65.54
664.45	51.49
664.59	93.62
664.73	46.81
664.88	81.92
665.02	56.17
665.16	93.62
665.30	77.24
665.44	70.22
665.59	44.47
665.73	65.54
665.87	30.43
666.01	23.41
666.15	72.56
666.29	37.45
666.44	42.13
666.58	0.00
666.72	23.41
666.86	9.36
667.00	79.58
667.14	23.41
667.28	112.35
667.43	4.68
667.57	102.98
667.71	46.81
667.85	35.11
667.99	65.54
668.13	7.02
668.27	60.85
668.41	49.15
668.56	56.17
668.70	74.90
668.84	0.00
668.98	32.77
669.12	46.81
669.26	30.43
669.40	58.51
669.54	67.88
669.68	93.62
669.82	86.60
669.96	25.75
670.10	18.72
670.25	72.56
670.39	18.72
670.53	51.49
670.67	93.62
670.81	11.70
670.95	58.51
671.09	84.26
671.23	56.17
671.37	79.58
671.51	95.96
671.65	58.51
671.79	67.88
671.93	72.56
672.07	28.09
672.21	60.85
672.35	21.06
672.49	51.49
672.63	23.41
672.77	30.43
672.91	86.60
673.05	37.45
673.19	0.00
673.33	4.68
673.47	16.38
673.61	135.75
673.75	32.77
673.89	2.34
674.03	49.15
674.17	14.04
674.31	100.64
674.45	51.49
674.59	0.00
674.73	58.51
674.87	74.90
675.01	93.62
675.15	51.49
675.29	60.85
675.43	93.62
675.56	56.17
675.70	110.01
675.84	11.70
675.98	16.38
676.12	14.04
676.26	56.17
676.40	30.43
676.54	86.60
676.68	145.11
676.82	28.09
676.96	126.39
677.10	32.77
677.23	25.75
677.37	107.66
677.51	46.81
677.65	9.36
677.79	44.47
677.93	60.85
678.07	0.00
678.21	70.22
678.34	0.00
678.48	53.83
678.62	56.17
678.76	42.13
678.90	14.04
679.04	49.15
679.18	58.51
679.31	124.05
679.45	51.49
679.59	74.90
679.73	65.54
679.87	86.60
680.00	74.90
680.14	56.17
680.28	0.00
680.42	0.00
680.56	0.00
680.70	133.41
680.83	93.62
680.97	0.00
681.11	23.41
681.25	4.68
681.39	67.88
681.52	70.22
681.66	51.49
681.80	25.75
681.94	70.22
682.07	88.94
682.21	16.38
682.35	53.83
682.49	39.79
682.62	91.28
682.76	0.00
682.90	4.68
683.04	39.79
683.17	14.04
683.31	21.06
683.45	124.05
683.59	58.51
683.72	0.00
683.86	28.09
684.00	0.00
684.13	46.81
684.27	72.56
684.41	60.85
684.55	67.88
684.68	44.47
684.82	7.02
684.96	37.45
685.09	0.00
685.23	0.00
685.37	35.11
685.50	74.90
685.64	93.62
685.78	42.13
685.91	105.32
686.05	70.22
686.19	70.22
686.32	35.11
686.46	35.11
686.60	23.41
686.73	102.98
686.87	0.00
687.01	0.00
687.14	37.45
687.28	21.06
687.42	84.26
687.55	35.11
687.69	65.54
687.82	119.37
687.96	37.45
688.10	79.58
688.23	4.68
688.37	32.77
688.50	65.54
688.64	91.28
688.78	0.00
688.91	95.96
689.05	91.28
689.18	28.09
689.32	35.11
689.46	0.00
689.59	25.75
689.73	100.64
689.86	0.00
690.00	32.77
690.13	0.00
690.27	25.75
690.41	25.75
690.54	11.70
690.68	70.22
690.81	67.88
690.95	0.00
691.08	0.00
691.22	56.17
691.35	21.06
691.49	60.85
691.62	25.75
691.76	35.11
691.89	46.81
692.03	0.00
692.16	74.90
692.30	0.00
692.43	0.00
692.57	65.54
692.70	32.77
692.84	4.68
692.97	0.00
693.11	32.77
693.24	14.04
693.38	0.00
693.51	21.06
693.65	105.32
693.78	72.56
693.92	39.79
694.05	28.09
694.19	18.72
694.32	32.77
694.45	102.98
694.59	18.72
694.72	95.96
694.86	0.00
694.99	63.19
695.13	21.06
695.26	49.15
695.39	32.77
695.53	0.00
695.66	0.00
695.80	37.45
695.93	25.75
696.07	21.06
696.20	4.68
696.33	0.00
696.47	70.22
696.60	0.00
696.73	25.75
696.87	32.77
697.00	25.75
697.14	0.00
697.27	28.09
697.40	53.83
697.54	14.04
697.67	44.47
697.80	32.77
697.94	58.51
698.07	58.51
698.21	30.43
698.34	98.30
698.47	74.90
698.61	93.62
698.74	0.00
698.87	21.06
699.01	0.00
699.14	56.17
699.27	32.77
699.40	91.28
699.54	86.60
699.67	117.03
699.80	4.68
699.94	30.43
700.07	37.45
700.20	30.43
700.34	63.19
700.47	84.26
700.60	23.41
700.73	42.13
700.87	28.09
701.00	30.43
701.13	0.00
701.26	74.90
701.40	14.04
701.53	63.19
701.66	107.66
701.79	28.09
701.93	56.17
702.06	28.09
702.19	0.00
702.32	42.13
702.46	79.58
702.59	46.81
702.72	131.07
702.85	18.72
702.99	79.58
703.12	0.00
703.25	25.75
703.38	0.00
703.51	0.00
703.65	93.62
703.78	49.15
703.91	72.56
704.04	63.19
704.17	77.24
704.31	30.43
704.44	18.72
704.57	60.85
704.70	16.38
704.83	51.49
704.96	4.68
705.10	23.41
705.23	65.54
>>>>>End Processed Spectral Data<<<<<
