SpectraSuite Data File
++++++++++++++++++++++++++++++++++++
Date: Fri Oct 04 12:13:37 GMT-05:00 2013
User: price-jones
Dark Spectrum Present: No
Reference Spectrum Present: No
Number of Sampled Component Spectra: 1
Spectrometers: USB2+H05261
Integration Time (usec): 10000 (USB2+H05261)
Spectra Averaged: 1 (USB2+H05261)
Boxcar Smoothing: 0 (USB2+H05261)
Correct for Electrical Dark: No (USB2+H05261)
Strobe/Lamp Enabled: No (USB2+H05261)
Correct for Detector Non-linearity: No (USB2+H05261)
Correct for Stray Light: No (USB2+H05261)
Number of Pixels in Processed Spectrum: 2048
>>>>>Begin Processed Spectral Data<<<<<
365.73	95.96
365.92	95.96
366.12	95.96
366.32	0.00
366.52	0.00
366.72	0.00
366.91	0.00
367.11	0.00
367.31	0.00
367.51	0.00
367.70	0.00
367.90	0.00
368.10	0.00
368.30	0.00
368.49	0.00
368.69	0.00
368.89	0.00
369.09	0.00
369.28	0.00
369.48	0.00
369.68	0.00
369.87	0.00
370.07	0.00
370.27	0.00
370.47	0.00
370.66	0.00
370.86	28.09
371.06	0.00
371.25	9.36
371.45	0.00
371.65	0.00
371.84	0.00
372.04	0.00
372.24	53.83
372.44	0.00
372.63	28.09
372.83	4.68
373.03	60.85
373.22	0.00
373.42	16.38
373.62	18.72
373.81	30.43
374.01	72.56
374.21	37.45
374.40	0.00
374.60	46.81
374.79	58.51
374.99	37.45
375.19	0.00
375.38	93.62
375.58	25.75
375.78	44.47
375.97	21.06
376.17	0.00
376.37	23.41
376.56	4.68
376.76	51.49
376.95	56.17
377.15	16.38
377.35	0.00
377.54	42.13
377.74	18.72
377.93	18.72
378.13	0.00
378.33	49.15
378.52	58.51
378.72	44.47
378.91	9.36
379.11	0.00
379.31	0.00
379.50	7.02
379.70	65.54
379.89	56.17
380.09	0.00
380.28	35.11
380.48	4.68
380.68	0.00
380.87	2.34
381.07	0.00
381.26	0.00
381.46	53.83
381.65	0.00
381.85	14.04
382.04	21.06
382.24	51.49
382.43	32.77
382.63	0.00
382.83	0.00
383.02	23.41
383.22	0.00
383.41	65.54
383.61	46.81
383.80	0.00
384.00	0.00
384.19	95.96
384.39	35.11
384.58	18.72
384.78	28.09
384.97	0.00
385.17	0.00
385.36	37.45
385.56	2.34
385.75	46.81
385.95	0.00
386.14	0.00
386.34	0.00
386.53	37.45
386.72	0.00
386.92	42.13
387.11	58.51
387.31	46.81
387.50	35.11
387.70	44.47
387.89	14.04
388.09	86.60
388.28	28.09
388.48	0.00
388.67	58.51
388.86	25.75
389.06	39.79
389.25	30.43
389.45	51.49
389.64	35.11
389.84	0.00
390.03	0.00
390.22	51.49
390.42	0.00
390.61	9.36
390.81	23.41
391.00	2.34
391.19	42.13
391.39	16.38
391.58	0.00
391.78	23.41
391.97	35.11
392.16	70.22
392.36	86.60
392.55	23.41
392.75	42.13
392.94	0.00
393.13	0.00
393.33	0.00
393.52	0.00
393.71	0.00
393.91	14.04
394.10	25.75
394.29	44.47
394.49	16.38
394.68	39.79
394.88	39.79
395.07	0.00
395.26	30.43
395.46	37.45
395.65	2.34
395.84	46.81
396.04	14.04
396.23	53.83
396.42	16.38
396.62	0.00
396.81	0.00
397.00	0.00
397.19	0.00
397.39	121.71
397.58	44.47
397.77	53.83
397.97	0.00
398.16	65.54
398.35	4.68
398.55	0.00
398.74	0.00
398.93	32.77
399.12	70.22
399.32	0.00
399.51	0.00
399.70	53.83
399.90	0.00
400.09	56.17
400.28	58.51
400.47	44.47
400.67	42.13
400.86	56.17
401.05	28.09
401.24	39.79
401.44	58.51
401.63	126.39
401.82	23.41
402.01	117.03
402.21	11.70
402.40	0.00
402.59	53.83
402.78	16.38
402.97	0.00
403.17	21.06
403.36	25.75
403.55	119.37
403.74	72.56
403.93	35.11
404.13	0.00
404.32	0.00
404.51	11.70
404.70	0.00
404.89	32.77
405.09	23.41
405.28	112.35
405.47	0.00
405.66	16.38
405.85	21.06
406.05	32.77
406.24	46.81
406.43	49.15
406.62	23.41
406.81	14.04
407.00	30.43
407.20	84.26
407.39	30.43
407.58	51.49
407.77	0.00
407.96	28.09
408.15	16.38
408.34	0.00
408.54	0.00
408.73	0.00
408.92	105.32
409.11	60.85
409.30	39.79
409.49	49.15
409.68	14.04
409.87	37.45
410.07	7.02
410.26	0.00
410.45	102.98
410.64	56.17
410.83	93.62
411.02	84.26
411.21	72.56
411.40	2.34
411.59	0.00
411.78	30.43
411.98	0.00
412.17	53.83
412.36	65.54
412.55	9.36
412.74	37.45
412.93	11.70
413.12	91.28
413.31	37.45
413.50	81.92
413.69	11.70
413.88	0.00
414.07	44.47
414.26	14.04
414.45	0.00
414.64	0.00
414.83	42.13
415.02	74.90
415.22	63.19
415.41	9.36
415.60	60.85
415.79	88.94
415.98	37.45
416.17	49.15
416.36	0.00
416.55	72.56
416.74	0.00
416.93	32.77
417.12	102.98
417.31	84.26
417.50	49.15
417.69	88.94
417.88	67.88
418.07	72.56
418.26	18.72
418.45	0.00
418.64	88.94
418.83	46.81
419.02	49.15
419.21	51.49
419.39	32.77
419.58	77.24
419.77	77.24
419.96	117.03
420.15	79.58
420.34	37.45
420.53	51.49
420.72	53.83
420.91	42.13
421.10	142.77
421.29	58.51
421.48	93.62
421.67	37.45
421.86	63.19
422.05	2.34
422.24	49.15
422.43	39.79
422.61	0.00
422.80	65.54
422.99	42.13
423.18	44.47
423.37	88.94
423.56	21.06
423.75	39.79
423.94	39.79
424.13	14.04
424.32	0.00
424.50	0.00
424.69	58.51
424.88	14.04
425.07	53.83
425.26	65.54
425.45	53.83
425.64	0.00
425.83	51.49
426.01	121.71
426.20	25.75
426.39	100.64
426.58	30.43
426.77	74.90
426.96	35.11
427.15	67.88
427.33	0.00
427.52	93.62
427.71	93.62
427.90	16.38
428.09	28.09
428.28	0.00
428.46	0.00
428.65	35.11
428.84	28.09
429.03	51.49
429.22	21.06
429.40	0.00
429.59	30.43
429.78	100.64
429.97	46.81
430.16	25.75
430.34	23.41
430.53	56.17
430.72	0.00
430.91	25.75
431.10	7.02
431.28	35.11
431.47	67.88
431.66	0.00
431.85	102.98
432.03	88.94
432.22	67.88
432.41	72.56
432.60	35.11
432.79	105.32
432.97	65.54
433.16	56.17
433.35	58.51
433.54	95.96
433.72	65.54
433.91	56.17
434.10	63.19
434.28	60.85
434.47	23.41
434.66	21.06
434.85	84.26
435.03	23.41
435.22	7.02
435.41	65.54
435.59	18.72
435.78	0.00
435.97	28.09
436.16	110.01
436.34	42.13
436.53	42.13
436.72	18.72
436.90	14.04
437.09	11.70
437.28	74.90
437.46	32.77
437.65	28.09
437.84	60.85
438.02	58.51
438.21	51.49
438.40	44.47
438.58	28.09
438.77	88.94
438.96	60.85
439.14	35.11
439.33	2.34
439.52	35.11
439.70	46.81
439.89	95.96
440.08	100.64
440.26	63.19
440.45	0.00
440.63	70.22
440.82	84.26
441.01	0.00
441.19	0.00
441.38	0.00
441.57	42.13
441.75	39.79
441.94	86.60
442.12	86.60
442.31	21.06
442.50	53.83
442.68	107.66
442.87	93.62
443.05	0.00
443.24	28.09
443.43	77.24
443.61	9.36
443.80	53.83
443.98	72.56
444.17	51.49
444.35	133.41
444.54	91.28
444.73	53.83
444.91	30.43
445.10	72.56
445.28	0.00
445.47	4.68
445.65	28.09
445.84	112.35
446.02	65.54
446.21	65.54
446.39	0.00
446.58	37.45
446.77	67.88
446.95	53.83
447.14	30.43
447.32	25.75
447.51	56.17
447.69	74.90
447.88	32.77
448.06	0.00
448.25	42.13
448.43	95.96
448.62	46.81
448.80	77.24
448.99	30.43
449.17	46.81
449.36	39.79
449.54	131.07
449.73	23.41
449.91	77.24
450.10	51.49
450.28	93.62
450.46	37.45
450.65	88.94
450.83	88.94
451.02	88.94
451.20	72.56
451.39	91.28
451.57	67.88
451.76	60.85
451.94	60.85
452.13	110.01
452.31	58.51
452.49	0.00
452.68	56.17
452.86	14.04
453.05	30.43
453.23	11.70
453.42	44.47
453.60	28.09
453.78	58.51
453.97	0.00
454.15	0.00
454.34	0.00
454.52	56.17
454.70	56.17
454.89	35.11
455.07	4.68
455.26	42.13
455.44	39.79
455.62	56.17
455.81	117.03
455.99	60.85
456.17	95.96
456.36	0.00
456.54	39.79
456.73	74.90
456.91	72.56
457.09	72.56
457.28	30.43
457.46	86.60
457.64	93.62
457.83	84.26
458.01	23.41
458.19	30.43
458.38	74.90
458.56	30.43
458.74	30.43
458.93	0.00
459.11	23.41
459.29	49.15
459.48	98.30
459.66	0.00
459.84	0.00
460.03	51.49
460.21	110.01
460.39	2.34
460.57	91.28
460.76	79.58
460.94	84.26
461.12	14.04
461.31	4.68
461.49	49.15
461.67	49.15
461.85	25.75
462.04	14.04
462.22	117.03
462.40	46.81
462.59	95.96
462.77	28.09
462.95	21.06
463.13	121.71
463.32	74.90
463.50	63.19
463.68	30.43
463.86	30.43
464.05	93.62
464.23	140.43
464.41	16.38
464.59	0.00
464.78	18.72
464.96	23.41
465.14	91.28
465.32	28.09
465.50	32.77
465.69	81.92
465.87	70.22
466.05	14.04
466.23	0.00
466.41	72.56
466.60	65.54
466.78	88.94
466.96	100.64
467.14	21.06
467.32	46.81
467.51	0.00
467.69	51.49
467.87	88.94
468.05	16.38
468.23	77.24
468.41	56.17
468.60	74.90
468.78	56.17
468.96	51.49
469.14	93.62
469.32	46.81
469.50	25.75
469.69	119.37
469.87	74.90
470.05	51.49
470.23	63.19
470.41	84.26
470.59	65.54
470.77	11.70
470.95	9.36
471.14	175.54
471.32	65.54
471.50	74.90
471.68	56.17
471.86	0.00
472.04	49.15
472.22	0.00
472.40	30.43
472.58	0.00
472.77	21.06
472.95	51.49
473.13	44.47
473.31	98.30
473.49	67.88
473.67	0.00
473.85	100.64
474.03	72.56
474.21	58.51
474.39	88.94
474.57	42.13
474.75	93.62
474.93	117.03
475.12	32.77
475.30	35.11
475.48	79.58
475.66	30.43
475.84	102.98
476.02	32.77
476.20	74.90
476.38	72.56
476.56	63.19
476.74	4.68
476.92	39.79
477.10	133.41
477.28	14.04
477.46	72.56
477.64	30.43
477.82	0.00
478.00	44.47
478.18	95.96
478.36	23.41
478.54	39.79
478.72	65.54
478.90	95.96
479.08	58.51
479.26	32.77
479.44	4.68
479.62	77.24
479.80	18.72
479.98	39.79
480.16	74.90
480.34	37.45
480.52	84.26
480.70	11.70
480.88	63.19
481.06	46.81
481.24	91.28
481.41	49.15
481.59	60.85
481.77	72.56
481.95	51.49
482.13	0.00
482.31	18.72
482.49	70.22
482.67	63.19
482.85	70.22
483.03	67.88
483.21	86.60
483.39	28.09
483.57	28.09
483.74	0.00
483.92	0.00
484.10	56.17
484.28	84.26
484.46	49.15
484.64	35.11
484.82	44.47
485.00	112.35
485.18	84.26
485.35	114.69
485.53	77.24
485.71	98.30
485.89	42.13
486.07	16.38
486.25	63.19
486.43	95.96
486.61	84.26
486.78	98.30
486.96	91.28
487.14	74.90
487.32	30.43
487.50	0.00
487.68	95.96
487.85	107.66
488.03	145.11
488.21	79.58
488.39	67.88
488.57	44.47
488.75	4.68
488.92	84.26
489.10	72.56
489.28	93.62
489.46	63.19
489.64	140.43
489.81	35.11
489.99	11.70
490.17	0.00
490.35	91.28
490.53	74.90
490.70	46.81
490.88	95.96
491.06	35.11
491.24	81.92
491.41	72.56
491.59	77.24
491.77	46.81
491.95	18.72
492.13	53.83
492.30	114.69
492.48	100.64
492.66	51.49
492.84	81.92
493.01	100.64
493.19	107.66
493.37	67.88
493.54	86.60
493.72	72.56
493.90	114.69
494.08	100.64
494.25	42.13
494.43	84.26
494.61	28.09
494.79	173.20
494.96	102.98
495.14	86.60
495.32	53.83
495.49	58.51
495.67	53.83
495.85	23.41
496.02	110.01
496.20	124.05
496.38	86.60
496.55	93.62
496.73	117.03
496.91	105.32
497.09	79.58
497.26	70.22
497.44	65.54
497.62	77.24
497.79	86.60
497.97	79.58
498.14	98.30
498.32	37.45
498.50	46.81
498.67	102.98
498.85	77.24
499.03	53.83
499.20	46.81
499.38	60.85
499.56	72.56
499.73	91.28
499.91	70.22
500.08	126.39
500.26	60.85
500.44	49.15
500.61	23.41
500.79	79.58
500.97	16.38
501.14	84.26
501.32	72.56
501.49	147.45
501.67	74.90
501.84	35.11
502.02	44.47
502.20	46.81
502.37	30.43
502.55	91.28
502.72	168.52
502.90	51.49
503.07	39.79
503.25	131.07
503.43	131.07
503.60	149.79
503.78	23.41
503.95	102.98
504.13	72.56
504.30	44.47
504.48	81.92
504.65	42.13
504.83	93.62
505.01	74.90
505.18	35.11
505.36	142.77
505.53	77.24
505.71	93.62
505.88	42.13
506.06	133.41
506.23	53.83
506.41	46.81
506.58	74.90
506.76	65.54
506.93	79.58
507.11	2.34
507.28	9.36
507.46	63.19
507.63	56.17
507.81	63.19
507.98	105.32
508.16	110.01
508.33	84.26
508.50	84.26
508.68	110.01
508.85	65.54
509.03	56.17
509.20	107.66
509.38	77.24
509.55	67.88
509.73	95.96
509.90	140.43
510.08	91.28
510.25	107.66
510.42	44.47
510.60	119.37
510.77	138.09
510.95	138.09
511.12	117.03
511.30	49.15
511.47	72.56
511.64	95.96
511.82	56.17
511.99	91.28
512.17	65.54
512.34	49.15
512.51	77.24
512.69	60.85
512.86	49.15
513.04	77.24
513.21	93.62
513.38	159.16
513.56	107.66
513.73	107.66
513.90	133.41
514.08	117.03
514.25	124.05
514.43	84.26
514.60	152.13
514.77	112.35
514.95	51.49
515.12	28.09
515.29	60.85
515.47	95.96
515.64	128.73
515.81	42.13
515.99	175.54
516.16	126.39
516.33	110.01
516.51	166.18
516.68	117.03
516.85	93.62
517.03	30.43
517.20	74.90
517.37	100.64
517.54	72.56
517.72	102.98
517.89	70.22
518.06	91.28
518.24	67.88
518.41	0.00
518.58	93.62
518.75	79.58
518.93	42.13
519.10	51.49
519.27	32.77
519.45	39.79
519.62	131.07
519.79	100.64
519.96	131.07
520.14	32.77
520.31	91.28
520.48	39.79
520.65	117.03
520.83	110.01
521.00	67.88
521.17	39.79
521.34	119.37
521.52	86.60
521.69	86.60
521.86	65.54
522.03	46.81
522.20	32.77
522.38	140.43
522.55	16.38
522.72	58.51
522.89	77.24
523.07	100.64
523.24	91.28
523.41	98.30
523.58	56.17
523.75	53.83
523.92	72.56
524.10	60.85
524.27	51.49
524.44	124.05
524.61	128.73
524.78	58.51
524.96	93.62
525.13	14.04
525.30	133.41
525.47	67.88
525.64	42.13
525.81	14.04
525.98	117.03
526.16	102.98
526.33	63.19
526.50	74.90
526.67	114.69
526.84	67.88
527.01	60.85
527.18	9.36
527.36	110.01
527.53	91.28
527.70	112.35
527.87	84.26
528.04	56.17
528.21	95.96
528.38	163.84
528.55	56.17
528.72	126.39
528.89	0.00
529.07	84.26
529.24	67.88
529.41	49.15
529.58	98.30
529.75	105.32
529.92	67.88
530.09	121.71
530.26	98.30
530.43	0.00
530.60	44.47
530.77	93.62
530.94	30.43
531.11	70.22
531.28	0.00
531.46	110.01
531.63	100.64
531.80	88.94
531.97	42.13
532.14	53.83
532.31	77.24
532.48	53.83
532.65	67.88
532.82	16.38
532.99	117.03
533.16	30.43
533.33	84.26
533.50	91.28
533.67	11.70
533.84	25.75
534.01	77.24
534.18	102.98
534.35	42.13
534.52	88.94
534.69	16.38
534.86	159.16
535.03	60.85
535.20	98.30
535.37	88.94
535.54	102.98
535.71	102.98
535.88	110.01
536.05	142.77
536.22	126.39
536.38	124.05
536.55	84.26
536.72	126.39
536.89	154.48
537.06	102.98
537.23	102.98
537.40	42.13
537.57	117.03
537.74	84.26
537.91	30.43
538.08	14.04
538.25	72.56
538.42	180.22
538.59	121.71
538.75	131.07
538.92	79.58
539.09	112.35
539.26	79.58
539.43	81.92
539.60	74.90
539.77	86.60
539.94	95.96
540.11	79.58
540.28	121.71
540.44	163.84
540.61	72.56
540.78	0.00
540.95	35.11
541.12	77.24
541.29	49.15
541.46	74.90
541.62	60.85
541.79	88.94
541.96	44.47
542.13	74.90
542.30	44.47
542.47	105.32
542.63	117.03
542.80	91.28
542.97	51.49
543.14	49.15
543.31	126.39
543.48	128.73
543.64	77.24
543.81	88.94
543.98	98.30
544.15	121.71
544.32	86.60
544.48	72.56
544.65	93.62
544.82	63.19
544.99	93.62
545.16	74.90
545.32	102.98
545.49	77.24
545.66	114.69
545.83	58.51
546.00	30.43
546.16	9.36
546.33	51.49
546.50	72.56
546.67	70.22
546.83	46.81
547.00	91.28
547.17	74.90
547.34	60.85
547.50	65.54
547.67	58.51
547.84	81.92
548.00	107.66
548.17	119.37
548.34	37.45
548.51	105.32
548.67	58.51
548.84	107.66
549.01	65.54
549.18	110.01
549.34	107.66
549.51	124.05
549.68	156.82
549.84	114.69
550.01	74.90
550.18	81.92
550.34	25.75
550.51	56.17
550.68	67.88
550.84	140.43
551.01	91.28
551.18	86.60
551.34	46.81
551.51	51.49
551.68	30.43
551.84	95.96
552.01	95.96
552.18	91.28
552.34	53.83
552.51	56.17
552.68	32.77
552.84	91.28
553.01	135.75
553.18	133.41
553.34	77.24
553.51	4.68
553.67	4.68
553.84	119.37
554.01	117.03
554.17	112.35
554.34	126.39
554.51	79.58
554.67	25.75
554.84	84.26
555.00	42.13
555.17	133.41
555.33	39.79
555.50	114.69
555.67	70.22
555.83	72.56
556.00	60.85
556.16	88.94
556.33	79.58
556.50	86.60
556.66	39.79
556.83	110.01
556.99	124.05
557.16	135.75
557.32	102.98
557.49	100.64
557.65	145.11
557.82	42.13
557.98	39.79
558.15	121.71
558.32	154.48
558.48	65.54
558.65	81.92
558.81	51.49
558.98	35.11
559.14	46.81
559.31	100.64
559.47	0.00
559.64	46.81
559.80	91.28
559.97	16.38
560.13	39.79
560.30	14.04
560.46	91.28
560.63	49.15
560.79	46.81
560.96	100.64
561.12	114.69
561.29	98.30
561.45	88.94
561.61	135.75
561.78	51.49
561.94	67.88
562.11	119.37
562.27	88.94
562.44	84.26
562.60	63.19
562.77	95.96
562.93	16.38
563.10	39.79
563.26	51.49
563.42	44.47
563.59	0.00
563.75	65.54
563.92	67.88
564.08	112.35
564.24	81.92
564.41	42.13
564.57	159.16
564.74	65.54
564.90	88.94
565.07	135.75
565.23	65.54
565.39	60.85
565.56	91.28
565.72	18.72
565.88	37.45
566.05	114.69
566.21	100.64
566.38	53.83
566.54	35.11
566.70	110.01
566.87	124.05
567.03	86.60
567.19	156.82
567.36	131.07
567.52	128.73
567.68	147.45
567.85	70.22
568.01	145.11
568.17	95.96
568.34	110.01
568.50	119.37
568.66	126.39
568.83	51.49
568.99	67.88
569.15	32.77
569.32	42.13
569.48	16.38
569.64	35.11
569.81	0.00
569.97	74.90
570.13	88.94
570.30	53.83
570.46	56.17
570.62	23.41
570.78	35.11
570.95	95.96
571.11	16.38
571.27	154.48
571.43	58.51
571.60	67.88
571.76	58.51
571.92	124.05
572.09	79.58
572.25	102.98
572.41	60.85
572.57	42.13
572.74	95.96
572.90	88.94
573.06	124.05
573.22	74.90
573.38	30.43
573.55	110.01
573.71	184.90
573.87	11.70
574.03	126.39
574.20	30.43
574.36	77.24
574.52	0.00
574.68	84.26
574.84	117.03
575.01	23.41
575.17	46.81
575.33	32.77
575.49	58.51
575.65	28.09
575.82	32.77
575.98	65.54
576.14	11.70
576.30	77.24
576.46	65.54
576.62	88.94
576.79	39.79
576.95	56.17
577.11	81.92
577.27	60.85
577.43	53.83
577.59	39.79
577.75	88.94
577.92	128.73
578.08	9.36
578.24	74.90
578.40	86.60
578.56	49.15
578.72	67.88
578.88	23.41
579.04	121.71
579.21	25.75
579.37	110.01
579.53	16.38
579.69	102.98
579.85	72.56
580.01	72.56
580.17	32.77
580.33	70.22
580.49	46.81
580.65	49.15
580.82	102.98
580.98	128.73
581.14	145.11
581.30	42.13
581.46	67.88
581.62	58.51
581.78	86.60
581.94	84.26
582.10	74.90
582.26	11.70
582.42	53.83
582.58	77.24
582.74	95.96
582.90	39.79
583.06	0.00
583.22	60.85
583.38	21.06
583.54	105.32
583.70	67.88
583.86	42.13
584.02	98.30
584.18	42.13
584.34	93.62
584.50	81.92
584.66	53.83
584.82	0.00
584.98	58.51
585.14	65.54
585.30	67.88
585.46	112.35
585.62	53.83
585.78	18.72
585.94	128.73
586.10	44.47
586.26	14.04
586.42	81.92
586.58	49.15
586.74	67.88
586.90	53.83
587.06	84.26
587.22	35.11
587.38	142.77
587.54	131.07
587.70	46.81
587.86	4.68
588.02	65.54
588.18	91.28
588.34	100.64
588.49	30.43
588.65	60.85
588.81	7.02
588.97	25.75
589.13	119.37
589.29	88.94
589.45	35.11
589.61	70.22
589.77	2.34
589.93	107.66
590.08	102.98
590.24	51.49
590.40	58.51
590.56	51.49
590.72	56.17
590.88	9.36
591.04	16.38
591.20	11.70
591.35	70.22
591.51	140.43
591.67	32.77
591.83	74.90
591.99	60.85
592.15	88.94
592.31	124.05
592.46	86.60
592.62	9.36
592.78	49.15
592.94	93.62
593.10	93.62
593.26	63.19
593.41	100.64
593.57	49.15
593.73	53.83
593.89	58.51
594.05	112.35
594.20	65.54
594.36	4.68
594.52	77.24
594.68	49.15
594.84	67.88
594.99	42.13
595.15	98.30
595.31	84.26
595.47	72.56
595.62	112.35
595.78	124.05
595.94	91.28
596.10	79.58
596.25	93.62
596.41	95.96
596.57	81.92
596.73	65.54
596.88	147.45
597.04	39.79
597.20	72.56
597.36	121.71
597.51	133.41
597.67	95.96
597.83	23.41
597.99	28.09
598.14	37.45
598.30	95.96
598.46	44.47
598.61	88.94
598.77	63.19
598.93	42.13
599.09	70.22
599.24	117.03
599.40	84.26
599.56	95.96
599.71	84.26
599.87	72.56
600.03	81.92
600.18	86.60
600.34	81.92
600.50	91.28
600.65	70.22
600.81	42.13
600.97	114.69
601.12	2.34
601.28	112.35
601.44	28.09
601.59	91.28
601.75	95.96
601.91	67.88
602.06	114.69
602.22	93.62
602.37	42.13
602.53	0.00
602.69	4.68
602.84	72.56
603.00	88.94
603.16	81.92
603.31	58.51
603.47	114.69
603.62	65.54
603.78	72.56
603.94	110.01
604.09	135.75
604.25	117.03
604.40	21.06
604.56	100.64
604.71	112.35
604.87	121.71
605.03	86.60
605.18	91.28
605.34	86.60
605.49	60.85
605.65	102.98
605.80	77.24
605.96	0.00
606.12	51.49
606.27	88.94
606.43	81.92
606.58	0.00
606.74	60.85
606.89	49.15
607.05	46.81
607.20	102.98
607.36	58.51
607.51	42.13
607.67	30.43
607.82	65.54
607.98	37.45
608.13	30.43
608.29	4.68
608.44	72.56
608.60	42.13
608.75	53.83
608.91	23.41
609.06	30.43
609.22	51.49
609.37	93.62
609.53	56.17
609.68	37.45
609.84	110.01
609.99	4.68
610.15	77.24
610.30	65.54
610.46	86.60
610.61	25.75
610.76	126.39
610.92	51.49
611.07	86.60
611.23	44.47
611.38	18.72
611.54	44.47
611.69	81.92
611.84	142.77
612.00	147.45
612.15	65.54
612.31	25.75
612.46	98.30
612.62	65.54
612.77	74.90
612.92	159.16
613.08	56.17
613.23	30.43
613.39	0.00
613.54	2.34
613.69	30.43
613.85	60.85
614.00	65.54
614.15	98.30
614.31	18.72
614.46	0.00
614.62	42.13
614.77	56.17
614.92	67.88
615.08	105.32
615.23	42.13
615.38	79.58
615.54	42.13
615.69	70.22
615.84	28.09
616.00	42.13
616.15	98.30
616.30	102.98
616.46	53.83
616.61	77.24
616.76	28.09
616.92	42.13
617.07	91.28
617.22	44.47
617.37	51.49
617.53	70.22
617.68	35.11
617.83	77.24
617.99	70.22
618.14	135.75
618.29	86.60
618.45	30.43
618.60	100.64
618.75	110.01
618.90	74.90
619.06	14.04
619.21	67.88
619.36	72.56
619.51	70.22
619.67	60.85
619.82	37.45
619.97	95.96
620.12	28.09
620.28	63.19
620.43	93.62
620.58	98.30
620.73	91.28
620.89	25.75
621.04	39.79
621.19	65.54
621.34	126.39
621.49	2.34
621.65	100.64
621.80	53.83
621.95	81.92
622.10	56.17
622.25	30.43
622.41	84.26
622.56	46.81
622.71	28.09
622.86	124.05
623.01	77.24
623.16	110.01
623.32	119.37
623.47	102.98
623.62	46.81
623.77	88.94
623.92	21.06
624.07	0.00
624.23	37.45
624.38	79.58
624.53	112.35
624.68	140.43
624.83	86.60
624.98	28.09
625.13	93.62
625.29	72.56
625.44	119.37
625.59	77.24
625.74	30.43
625.89	32.77
626.04	42.13
626.19	0.00
626.34	35.11
626.49	58.51
626.65	95.96
626.80	74.90
626.95	140.43
627.10	28.09
627.25	28.09
627.40	63.19
627.55	56.17
627.70	86.60
627.85	51.49
628.00	16.38
628.15	74.90
628.30	58.51
628.45	142.77
628.60	37.45
628.76	119.37
628.91	91.28
629.06	100.64
629.21	16.38
629.36	30.43
629.51	107.66
629.66	28.09
629.81	86.60
629.96	77.24
630.11	72.56
630.26	56.17
630.41	86.60
630.56	23.41
630.71	63.19
630.86	11.70
631.01	28.09
631.16	79.58
631.31	16.38
631.46	81.92
631.61	60.85
631.76	124.05
631.91	49.15
632.06	84.26
632.21	11.70
632.36	77.24
632.51	65.54
632.66	30.43
632.81	0.00
632.96	0.00
633.10	70.22
633.25	42.13
633.40	16.38
633.55	42.13
633.70	84.26
633.85	58.51
634.00	100.64
634.15	11.70
634.30	32.77
634.45	112.35
634.60	28.09
634.75	25.75
634.90	56.17
635.05	51.49
635.19	77.24
635.34	145.11
635.49	114.69
635.64	86.60
635.79	110.01
635.94	56.17
636.09	70.22
636.24	46.81
636.39	18.72
636.53	72.56
636.68	60.85
636.83	93.62
636.98	86.60
637.13	49.15
637.28	0.00
637.43	72.56
637.57	44.47
637.72	14.04
637.87	46.81
638.02	95.96
638.17	100.64
638.32	23.41
638.46	30.43
638.61	21.06
638.76	114.69
638.91	39.79
639.06	25.75
639.20	88.94
639.35	58.51
639.50	72.56
639.65	9.36
639.80	95.96
639.94	91.28
640.09	112.35
640.24	0.00
640.39	32.77
640.54	79.58
640.68	37.45
640.83	128.73
640.98	32.77
641.13	16.38
641.27	65.54
641.42	58.51
641.57	124.05
641.72	93.62
641.86	37.45
642.01	25.75
642.16	60.85
642.31	67.88
642.45	128.73
642.60	121.71
642.75	23.41
642.90	67.88
643.04	42.13
643.19	49.15
643.34	49.15
643.48	51.49
643.63	39.79
643.78	67.88
643.93	79.58
644.07	58.51
644.22	72.56
644.37	70.22
644.51	18.72
644.66	0.00
644.81	60.85
644.95	63.19
645.10	84.26
645.25	63.19
645.39	35.11
645.54	51.49
645.69	110.01
645.83	93.62
645.98	0.00
646.13	63.19
646.27	65.54
646.42	28.09
646.57	21.06
646.71	126.39
646.86	9.36
647.00	88.94
647.15	0.00
647.30	37.45
647.44	25.75
647.59	58.51
647.74	42.13
647.88	53.83
648.03	72.56
648.17	91.28
648.32	14.04
648.47	0.00
648.61	121.71
648.76	0.00
648.90	11.70
649.05	44.47
649.20	42.13
649.34	35.11
649.49	28.09
649.63	18.72
649.78	30.43
649.92	74.90
650.07	0.00
650.21	16.38
650.36	18.72
650.51	32.77
650.65	23.41
650.80	93.62
650.94	23.41
651.09	4.68
651.23	86.60
651.38	37.45
651.52	74.90
651.67	74.90
651.81	35.11
651.96	124.05
652.10	2.34
652.25	0.00
652.39	39.79
652.54	79.58
652.68	46.81
652.83	88.94
652.97	53.83
653.12	65.54
653.26	77.24
653.41	100.64
653.55	53.83
653.70	0.00
653.84	0.00
653.99	46.81
654.13	11.70
654.27	32.77
654.42	16.38
654.56	0.00
654.71	51.49
654.85	46.81
655.00	102.98
655.14	49.15
655.29	49.15
655.43	39.79
655.57	30.43
655.72	37.45
655.86	56.17
656.01	0.00
656.15	58.51
656.30	18.72
656.44	65.54
656.58	117.03
656.73	107.66
656.87	65.54
657.01	70.22
657.16	0.00
657.30	46.81
657.45	42.13
657.59	14.04
657.73	30.43
657.88	35.11
658.02	74.90
658.16	51.49
658.31	37.45
658.45	37.45
658.60	72.56
658.74	72.56
658.88	58.51
659.03	121.71
659.17	32.77
659.31	63.19
659.46	46.81
659.60	79.58
659.74	58.51
659.89	107.66
660.03	53.83
660.17	9.36
660.32	16.38
660.46	16.38
660.60	65.54
660.74	63.19
660.89	58.51
661.03	60.85
661.17	81.92
661.32	86.60
661.46	35.11
661.60	79.58
661.74	7.02
661.89	49.15
662.03	46.81
662.17	63.19
662.31	84.26
662.46	39.79
662.60	14.04
662.74	35.11
662.88	37.45
663.03	51.49
663.17	7.02
663.31	88.94
663.45	77.24
663.60	46.81
663.74	42.13
663.88	49.15
664.02	37.45
664.17	0.00
664.31	0.00
664.45	60.85
664.59	0.00
664.73	23.41
664.88	72.56
665.02	32.77
665.16	56.17
665.30	110.01
665.44	112.35
665.59	81.92
665.73	0.00
665.87	9.36
666.01	93.62
666.15	84.26
666.29	44.47
666.44	49.15
666.58	70.22
666.72	39.79
666.86	28.09
667.00	32.77
667.14	93.62
667.28	70.22
667.43	58.51
667.57	128.73
667.71	63.19
667.85	79.58
667.99	16.38
668.13	23.41
668.27	42.13
668.41	37.45
668.56	124.05
668.70	133.41
668.84	0.00
668.98	58.51
669.12	32.77
669.26	63.19
669.40	23.41
669.54	72.56
669.68	110.01
669.82	107.66
669.96	110.01
670.10	191.92
670.25	72.56
670.39	49.15
670.53	30.43
670.67	88.94
670.81	110.01
670.95	18.72
671.09	39.79
671.23	51.49
671.37	81.92
671.51	0.00
671.65	98.30
671.79	42.13
671.93	49.15
672.07	142.77
672.21	0.00
672.35	65.54
672.49	88.94
672.63	18.72
672.77	53.83
672.91	0.00
673.05	84.26
673.19	0.00
673.33	65.54
673.47	86.60
673.61	0.00
673.75	63.19
673.89	46.81
674.03	86.60
674.17	28.09
674.31	11.70
674.45	98.30
674.59	133.41
674.73	23.41
674.87	23.41
675.01	46.81
675.15	32.77
675.29	23.41
675.43	44.47
675.56	74.90
675.70	35.11
675.84	0.00
675.98	65.54
676.12	67.88
676.26	86.60
676.40	86.60
676.54	95.96
676.68	74.90
676.82	102.98
676.96	93.62
677.10	42.13
677.23	35.11
677.37	23.41
677.51	0.00
677.65	60.85
677.79	35.11
677.93	37.45
678.07	95.96
678.21	21.06
678.34	21.06
678.48	74.90
678.62	77.24
678.76	63.19
678.90	0.00
679.04	16.38
679.18	30.43
679.31	0.00
679.45	0.00
679.59	0.00
679.73	11.70
679.87	124.05
680.00	4.68
680.14	88.94
680.28	91.28
680.42	37.45
680.56	28.09
680.70	98.30
680.83	30.43
680.97	21.06
681.11	67.88
681.25	7.02
681.39	65.54
681.52	35.11
681.66	133.41
681.80	0.00
681.94	7.02
682.07	42.13
682.21	9.36
682.35	28.09
682.49	0.00
682.62	84.26
682.76	14.04
682.90	32.77
683.04	46.81
683.17	56.17
683.31	11.70
683.45	25.75
683.59	100.64
683.72	2.34
683.86	46.81
684.00	0.00
684.13	56.17
684.27	105.32
684.41	14.04
684.55	30.43
684.68	72.56
684.82	0.00
684.96	51.49
685.09	30.43
685.23	60.85
685.37	67.88
685.50	79.58
685.64	105.32
685.78	28.09
685.91	72.56
686.05	37.45
686.19	46.81
686.32	0.00
686.46	46.81
686.60	0.00
686.73	0.00
686.87	0.00
687.01	37.45
687.14	63.19
687.28	28.09
687.42	91.28
687.55	23.41
687.69	4.68
687.82	4.68
687.96	49.15
688.10	51.49
688.23	91.28
688.37	14.04
688.50	28.09
688.64	21.06
688.78	35.11
688.91	91.28
689.05	74.90
689.18	2.34
689.32	86.60
689.46	51.49
689.59	0.00
689.73	0.00
689.86	39.79
690.00	25.75
690.13	42.13
690.27	56.17
690.41	11.70
690.54	9.36
690.68	0.00
690.81	39.79
690.95	21.06
691.08	0.00
691.22	121.71
691.35	79.58
691.49	0.00
691.62	32.77
691.76	32.77
691.89	32.77
692.03	18.72
692.16	42.13
692.30	100.64
692.43	0.00
692.57	0.00
692.70	39.79
692.84	49.15
692.97	18.72
693.11	53.83
693.24	21.06
693.38	100.64
693.51	42.13
693.65	37.45
693.78	98.30
693.92	131.07
694.05	18.72
694.19	9.36
694.32	86.60
694.45	42.13
694.59	77.24
694.72	0.00
694.86	72.56
694.99	35.11
695.13	35.11
695.26	63.19
695.39	67.88
695.53	49.15
695.66	0.00
695.80	81.92
695.93	42.13
696.07	0.00
696.20	58.51
696.33	79.58
696.47	0.00
696.60	25.75
696.73	28.09
696.87	67.88
697.00	84.26
697.14	14.04
697.27	16.38
697.40	44.47
697.54	21.06
697.67	14.04
697.80	0.00
697.94	65.54
698.07	67.88
698.21	0.00
698.34	7.02
698.47	0.00
698.61	42.13
698.74	9.36
698.87	28.09
699.01	0.00
699.14	32.77
699.27	39.79
699.40	44.47
699.54	16.38
699.67	0.00
699.80	81.92
699.94	28.09
700.07	51.49
700.20	53.83
700.34	0.00
700.47	58.51
700.60	56.17
700.73	0.00
700.87	58.51
701.00	39.79
701.13	0.00
701.26	35.11
701.40	117.03
701.53	58.51
701.66	49.15
701.79	0.00
701.93	0.00
702.06	56.17
702.19	30.43
702.32	72.56
702.46	0.00
702.59	0.00
702.72	21.06
702.85	77.24
702.99	32.77
703.12	18.72
703.25	30.43
703.38	67.88
703.51	35.11
703.65	0.00
703.78	0.00
703.91	25.75
704.04	84.26
704.17	23.41
704.31	0.00
704.44	9.36
704.57	0.00
704.70	23.41
704.83	16.38
704.96	53.83
705.10	39.79
705.23	28.09
>>>>>End Processed Spectral Data<<<<<
