SpectraSuite Data File
++++++++++++++++++++++++++++++++++++
Date: Fri Oct 04 12:13:31 GMT-05:00 2013
User: price-jones
Dark Spectrum Present: No
Reference Spectrum Present: No
Number of Sampled Component Spectra: 1
Spectrometers: USB2+H05261
Integration Time (usec): 10000 (USB2+H05261)
Spectra Averaged: 1 (USB2+H05261)
Boxcar Smoothing: 0 (USB2+H05261)
Correct for Electrical Dark: No (USB2+H05261)
Strobe/Lamp Enabled: No (USB2+H05261)
Correct for Detector Non-linearity: No (USB2+H05261)
Correct for Stray Light: No (USB2+H05261)
Number of Pixels in Processed Spectrum: 2048
>>>>>Begin Processed Spectral Data<<<<<
365.73	2.34
365.92	2.34
366.12	2.34
366.32	0.00
366.52	0.00
366.72	0.00
366.91	0.00
367.11	0.00
367.31	0.00
367.51	0.00
367.70	0.00
367.90	0.00
368.10	0.00
368.30	0.00
368.49	0.00
368.69	0.00
368.89	0.00
369.09	0.00
369.28	0.00
369.48	0.00
369.68	0.00
369.87	0.00
370.07	0.00
370.27	0.00
370.47	0.00
370.66	0.00
370.86	0.00
371.06	23.41
371.25	0.00
371.45	0.00
371.65	0.00
371.84	0.00
372.04	0.00
372.24	0.00
372.44	0.00
372.63	16.38
372.83	0.00
373.03	0.00
373.22	0.00
373.42	60.85
373.62	79.58
373.81	23.41
374.01	25.75
374.21	56.17
374.40	72.56
374.60	49.15
374.79	0.00
374.99	7.02
375.19	4.68
375.38	0.00
375.58	49.15
375.78	35.11
375.97	0.00
376.17	51.49
376.37	117.03
376.56	0.00
376.76	18.72
376.95	39.79
377.15	81.92
377.35	0.00
377.54	30.43
377.74	0.00
377.93	37.45
378.13	32.77
378.33	63.19
378.52	93.62
378.72	58.51
378.91	0.00
379.11	9.36
379.31	32.77
379.50	46.81
379.70	42.13
379.89	0.00
380.09	2.34
380.28	81.92
380.48	56.17
380.68	28.09
380.87	28.09
381.07	25.75
381.26	77.24
381.46	0.00
381.65	51.49
381.85	49.15
382.04	77.24
382.24	0.00
382.43	39.79
382.63	4.68
382.83	23.41
383.02	35.11
383.22	21.06
383.41	0.00
383.61	0.00
383.80	11.70
384.00	53.83
384.19	72.56
384.39	21.06
384.58	49.15
384.78	39.79
384.97	14.04
385.17	79.58
385.36	46.81
385.56	0.00
385.75	0.00
385.95	67.88
386.14	42.13
386.34	16.38
386.53	51.49
386.72	28.09
386.92	35.11
387.11	0.00
387.31	37.45
387.50	0.00
387.70	9.36
387.89	0.00
388.09	77.24
388.28	7.02
388.48	4.68
388.67	30.43
388.86	58.51
389.06	0.00
389.25	32.77
389.45	2.34
389.64	23.41
389.84	58.51
390.03	56.17
390.22	117.03
390.42	0.00
390.61	42.13
390.81	21.06
391.00	39.79
391.19	0.00
391.39	21.06
391.58	42.13
391.78	32.77
391.97	18.72
392.16	21.06
392.36	63.19
392.55	2.34
392.75	7.02
392.94	35.11
393.13	23.41
393.33	39.79
393.52	4.68
393.71	65.54
393.91	30.43
394.10	39.79
394.29	0.00
394.49	70.22
394.68	0.00
394.88	11.70
395.07	9.36
395.26	25.75
395.46	0.00
395.65	0.00
395.84	0.00
396.04	14.04
396.23	39.79
396.42	9.36
396.62	32.77
396.81	30.43
397.00	0.00
397.19	0.00
397.39	28.09
397.58	18.72
397.77	4.68
397.97	23.41
398.16	46.81
398.35	63.19
398.55	23.41
398.74	39.79
398.93	60.85
399.12	0.00
399.32	0.00
399.51	18.72
399.70	44.47
399.90	16.38
400.09	0.00
400.28	74.90
400.47	110.01
400.67	30.43
400.86	25.75
401.05	81.92
401.24	2.34
401.44	2.34
401.63	25.75
401.82	7.02
402.01	30.43
402.21	39.79
402.40	0.00
402.59	11.70
402.78	72.56
402.97	0.00
403.17	28.09
403.36	7.02
403.55	79.58
403.74	86.60
403.93	0.00
404.13	0.00
404.32	21.06
404.51	51.49
404.70	0.00
404.89	0.00
405.09	0.00
405.28	35.11
405.47	39.79
405.66	0.00
405.85	32.77
406.05	16.38
406.24	16.38
406.43	0.00
406.62	0.00
406.81	25.75
407.00	28.09
407.20	23.41
407.39	84.26
407.58	0.00
407.77	28.09
407.96	72.56
408.15	0.00
408.34	14.04
408.54	126.39
408.73	72.56
408.92	60.85
409.11	28.09
409.30	44.47
409.49	72.56
409.68	65.54
409.87	0.00
410.07	95.96
410.26	0.00
410.45	98.30
410.64	23.41
410.83	0.00
411.02	42.13
411.21	0.00
411.40	0.00
411.59	0.00
411.78	14.04
411.98	37.45
412.17	4.68
412.36	14.04
412.55	23.41
412.74	42.13
412.93	25.75
413.12	16.38
413.31	4.68
413.50	79.58
413.69	0.00
413.88	74.90
414.07	42.13
414.26	67.88
414.45	72.56
414.64	35.11
414.83	21.06
415.02	11.70
415.22	67.88
415.41	0.00
415.60	49.15
415.79	28.09
415.98	53.83
416.17	51.49
416.36	0.00
416.55	11.70
416.74	63.19
416.93	51.49
417.12	107.66
417.31	56.17
417.50	28.09
417.69	72.56
417.88	53.83
418.07	0.00
418.26	23.41
418.45	42.13
418.64	37.45
418.83	23.41
419.02	30.43
419.21	2.34
419.39	23.41
419.58	60.85
419.77	32.77
419.96	131.07
420.15	56.17
420.34	105.32
420.53	79.58
420.72	28.09
420.91	32.77
421.10	25.75
421.29	70.22
421.48	67.88
421.67	4.68
421.86	14.04
422.05	14.04
422.24	0.00
422.43	18.72
422.61	37.45
422.80	0.00
422.99	67.88
423.18	37.45
423.37	23.41
423.56	88.94
423.75	0.00
423.94	49.15
424.13	0.00
424.32	102.98
424.50	58.51
424.69	37.45
424.88	16.38
425.07	0.00
425.26	30.43
425.45	42.13
425.64	0.00
425.83	9.36
426.01	7.02
426.20	86.60
426.39	51.49
426.58	9.36
426.77	0.00
426.96	49.15
427.15	18.72
427.33	35.11
427.52	88.94
427.71	11.70
427.90	107.66
428.09	0.00
428.28	28.09
428.46	9.36
428.65	84.26
428.84	4.68
429.03	30.43
429.22	0.00
429.40	39.79
429.59	35.11
429.78	0.00
429.97	46.81
430.16	37.45
430.34	42.13
430.53	39.79
430.72	28.09
430.91	70.22
431.10	67.88
431.28	0.00
431.47	0.00
431.66	93.62
431.85	81.92
432.03	77.24
432.22	14.04
432.41	0.00
432.60	56.17
432.79	37.45
432.97	110.01
433.16	79.58
433.35	0.00
433.54	53.83
433.72	0.00
433.91	56.17
434.10	0.00
434.28	28.09
434.47	51.49
434.66	105.32
434.85	0.00
435.03	0.00
435.22	0.00
435.41	49.15
435.59	44.47
435.78	30.43
435.97	39.79
436.16	44.47
436.34	142.77
436.53	60.85
436.72	0.00
436.90	25.75
437.09	44.47
437.28	84.26
437.46	74.90
437.65	72.56
437.84	35.11
438.02	63.19
438.21	14.04
438.40	91.28
438.58	7.02
438.77	9.36
438.96	23.41
439.14	23.41
439.33	56.17
439.52	58.51
439.70	70.22
439.89	14.04
440.08	0.00
440.26	49.15
440.45	42.13
440.63	0.00
440.82	9.36
441.01	14.04
441.19	58.51
441.38	42.13
441.57	49.15
441.75	91.28
441.94	21.06
442.12	37.45
442.31	72.56
442.50	65.54
442.68	44.47
442.87	0.00
443.05	9.36
443.24	0.00
443.43	84.26
443.61	21.06
443.80	56.17
443.98	46.81
444.17	16.38
444.35	35.11
444.54	42.13
444.73	0.00
444.91	44.47
445.10	2.34
445.28	21.06
445.47	65.54
445.65	28.09
445.84	21.06
446.02	37.45
446.21	53.83
446.39	4.68
446.58	93.62
446.77	0.00
446.95	49.15
447.14	74.90
447.32	51.49
447.51	37.45
447.69	28.09
447.88	93.62
448.06	25.75
448.25	25.75
448.43	7.02
448.62	35.11
448.80	11.70
448.99	86.60
449.17	7.02
449.36	39.79
449.54	0.00
449.73	28.09
449.91	145.11
450.10	46.81
450.28	11.70
450.46	39.79
450.65	51.49
450.83	51.49
451.02	56.17
451.20	0.00
451.39	35.11
451.57	39.79
451.76	0.00
451.94	42.13
452.13	11.70
452.31	56.17
452.49	49.15
452.68	0.00
452.86	95.96
453.05	72.56
453.23	58.51
453.42	0.00
453.60	56.17
453.78	0.00
453.97	0.00
454.15	46.81
454.34	0.00
454.52	7.02
454.70	11.70
454.89	53.83
455.07	67.88
455.26	79.58
455.44	18.72
455.62	21.06
455.81	25.75
455.99	21.06
456.17	0.00
456.36	2.34
456.54	39.79
456.73	0.00
456.91	42.13
457.09	65.54
457.28	42.13
457.46	32.77
457.64	0.00
457.83	58.51
458.01	37.45
458.19	0.00
458.38	46.81
458.56	77.24
458.74	4.68
458.93	4.68
459.11	23.41
459.29	28.09
459.48	28.09
459.66	53.83
459.84	72.56
460.03	51.49
460.21	35.11
460.39	0.00
460.57	28.09
460.76	44.47
460.94	63.19
461.12	9.36
461.31	0.00
461.49	18.72
461.67	74.90
461.85	79.58
462.04	0.00
462.22	63.19
462.40	58.51
462.59	0.00
462.77	56.17
462.95	46.81
463.13	0.00
463.32	84.26
463.50	0.00
463.68	44.47
463.86	18.72
464.05	0.00
464.23	14.04
464.41	18.72
464.59	18.72
464.78	74.90
464.96	16.38
465.14	0.00
465.32	0.00
465.50	46.81
465.69	39.79
465.87	4.68
466.05	23.41
466.23	70.22
466.41	35.11
466.60	0.00
466.78	44.47
466.96	58.51
467.14	60.85
467.32	49.15
467.51	30.43
467.69	56.17
467.87	49.15
468.05	102.98
468.23	72.56
468.41	79.58
468.60	72.56
468.78	25.75
468.96	65.54
469.14	14.04
469.32	37.45
469.50	16.38
469.69	28.09
469.87	23.41
470.05	14.04
470.23	65.54
470.41	63.19
470.59	112.35
470.77	70.22
470.95	32.77
471.14	28.09
471.32	72.56
471.50	28.09
471.68	0.00
471.86	44.47
472.04	42.13
472.22	60.85
472.40	112.35
472.58	25.75
472.77	42.13
472.95	46.81
473.13	53.83
473.31	2.34
473.49	0.00
473.67	32.77
473.85	0.00
474.03	74.90
474.21	58.51
474.39	0.00
474.57	0.00
474.75	16.38
474.93	0.00
475.12	107.66
475.30	0.00
475.48	35.11
475.66	0.00
475.84	70.22
476.02	0.00
476.20	7.02
476.38	51.49
476.56	28.09
476.74	0.00
476.92	32.77
477.10	9.36
477.28	49.15
477.46	18.72
477.64	65.54
477.82	16.38
478.00	110.01
478.18	70.22
478.36	0.00
478.54	58.51
478.72	110.01
478.90	86.60
479.08	11.70
479.26	4.68
479.44	37.45
479.62	14.04
479.80	32.77
479.98	39.79
480.16	0.00
480.34	42.13
480.52	49.15
480.70	0.00
480.88	58.51
481.06	32.77
481.24	102.98
481.41	14.04
481.59	18.72
481.77	39.79
481.95	49.15
482.13	60.85
482.31	0.00
482.49	11.70
482.67	16.38
482.85	11.70
483.03	16.38
483.21	49.15
483.39	4.68
483.57	16.38
483.74	93.62
483.92	79.58
484.10	25.75
484.28	18.72
484.46	32.77
484.64	16.38
484.82	53.83
485.00	0.00
485.18	35.11
485.35	23.41
485.53	88.94
485.71	18.72
485.89	30.43
486.07	86.60
486.25	28.09
486.43	23.41
486.61	74.90
486.78	72.56
486.96	42.13
487.14	74.90
487.32	39.79
487.50	42.13
487.68	53.83
487.85	0.00
488.03	49.15
488.21	35.11
488.39	37.45
488.57	46.81
488.75	0.00
488.92	72.56
489.10	53.83
489.28	63.19
489.46	16.38
489.64	0.00
489.81	56.17
489.99	7.02
490.17	0.00
490.35	60.85
490.53	32.77
490.70	35.11
490.88	46.81
491.06	0.00
491.24	44.47
491.41	107.66
491.59	30.43
491.77	37.45
491.95	18.72
492.13	63.19
492.30	0.00
492.48	102.98
492.66	39.79
492.84	81.92
493.01	44.47
493.19	0.00
493.37	49.15
493.54	42.13
493.72	30.43
493.90	30.43
494.08	30.43
494.25	51.49
494.43	16.38
494.61	11.70
494.79	23.41
494.96	46.81
495.14	9.36
495.32	44.47
495.49	0.00
495.67	44.47
495.85	28.09
496.02	56.17
496.20	65.54
496.38	0.00
496.55	32.77
496.73	9.36
496.91	28.09
497.09	9.36
497.26	42.13
497.44	35.11
497.62	53.83
497.79	72.56
497.97	49.15
498.14	74.90
498.32	65.54
498.50	46.81
498.67	0.00
498.85	11.70
499.03	49.15
499.20	0.00
499.38	28.09
499.56	0.00
499.73	58.51
499.91	42.13
500.08	16.38
500.26	42.13
500.44	51.49
500.61	126.39
500.79	74.90
500.97	49.15
501.14	0.00
501.32	93.62
501.49	86.60
501.67	42.13
501.84	49.15
502.02	112.35
502.20	0.00
502.37	9.36
502.55	11.70
502.72	95.96
502.90	9.36
503.07	30.43
503.25	74.90
503.43	56.17
503.60	77.24
503.78	21.06
503.95	14.04
504.13	49.15
504.30	16.38
504.48	44.47
504.65	18.72
504.83	53.83
505.01	81.92
505.18	9.36
505.36	28.09
505.53	11.70
505.71	9.36
505.88	98.30
506.06	0.00
506.23	4.68
506.41	0.00
506.58	16.38
506.76	30.43
506.93	128.73
507.11	88.94
507.28	16.38
507.46	53.83
507.63	51.49
507.81	39.79
507.98	0.00
508.16	0.00
508.33	23.41
508.50	37.45
508.68	65.54
508.85	30.43
509.03	51.49
509.20	58.51
509.38	28.09
509.55	16.38
509.73	23.41
509.90	70.22
510.08	58.51
510.25	28.09
510.42	77.24
510.60	0.00
510.77	21.06
510.95	53.83
511.12	0.00
511.30	63.19
511.47	114.69
511.64	44.47
511.82	44.47
511.99	25.75
512.17	53.83
512.34	0.00
512.51	14.04
512.69	11.70
512.86	72.56
513.04	42.13
513.21	0.00
513.38	0.00
513.56	2.34
513.73	79.58
513.90	0.00
514.08	46.81
514.25	86.60
514.43	0.00
514.60	42.13
514.77	53.83
514.95	14.04
515.12	112.35
515.29	58.51
515.47	49.15
515.64	98.30
515.81	28.09
515.99	65.54
516.16	46.81
516.33	81.92
516.51	37.45
516.68	0.00
516.85	11.70
517.03	32.77
517.20	72.56
517.37	42.13
517.54	21.06
517.72	65.54
517.89	32.77
518.06	7.02
518.24	70.22
518.41	53.83
518.58	110.01
518.75	42.13
518.93	112.35
519.10	9.36
519.27	21.06
519.45	16.38
519.62	60.85
519.79	84.26
519.96	37.45
520.14	4.68
520.31	21.06
520.48	56.17
520.65	79.58
520.83	35.11
521.00	0.00
521.17	63.19
521.34	0.00
521.52	23.41
521.69	100.64
521.86	37.45
522.03	72.56
522.20	11.70
522.38	0.00
522.55	23.41
522.72	0.00
522.89	70.22
523.07	107.66
523.24	30.43
523.41	79.58
523.58	70.22
523.75	65.54
523.92	88.94
524.10	53.83
524.27	11.70
524.44	0.00
524.61	72.56
524.78	23.41
524.96	149.79
525.13	42.13
525.30	44.47
525.47	124.05
525.64	32.77
525.81	0.00
525.98	46.81
526.16	21.06
526.33	70.22
526.50	0.00
526.67	42.13
526.84	65.54
527.01	63.19
527.18	16.38
527.36	39.79
527.53	117.03
527.70	105.32
527.87	16.38
528.04	53.83
528.21	88.94
528.38	14.04
528.55	25.75
528.72	58.51
528.89	28.09
529.07	32.77
529.24	74.90
529.41	7.02
529.58	105.32
529.75	32.77
529.92	60.85
530.09	67.88
530.26	117.03
530.43	56.17
530.60	91.28
530.77	91.28
530.94	79.58
531.11	84.26
531.28	0.00
531.46	88.94
531.63	107.66
531.80	16.38
531.97	79.58
532.14	35.11
532.31	93.62
532.48	42.13
532.65	14.04
532.82	67.88
532.99	88.94
533.16	77.24
533.33	28.09
533.50	77.24
533.67	63.19
533.84	23.41
534.01	28.09
534.18	37.45
534.35	65.54
534.52	39.79
534.69	58.51
534.86	0.00
535.03	81.92
535.20	14.04
535.37	0.00
535.54	30.43
535.71	0.00
535.88	11.70
536.05	67.88
536.22	95.96
536.38	93.62
536.55	16.38
536.72	32.77
536.89	11.70
537.06	88.94
537.23	18.72
537.40	25.75
537.57	0.00
537.74	51.49
537.91	53.83
538.08	7.02
538.25	56.17
538.42	21.06
538.59	44.47
538.75	23.41
538.92	51.49
539.09	46.81
539.26	42.13
539.43	93.62
539.60	0.00
539.77	56.17
539.94	39.79
540.11	100.64
540.28	42.13
540.44	56.17
540.61	28.09
540.78	0.00
540.95	46.81
541.12	9.36
541.29	44.47
541.46	44.47
541.62	16.38
541.79	23.41
541.96	21.06
542.13	0.00
542.30	49.15
542.47	14.04
542.63	21.06
542.80	81.92
542.97	35.11
543.14	98.30
543.31	0.00
543.48	11.70
543.64	11.70
543.81	63.19
543.98	51.49
544.15	105.32
544.32	53.83
544.48	9.36
544.65	58.51
544.82	23.41
544.99	65.54
545.16	11.70
545.32	147.45
545.49	44.47
545.66	74.90
545.83	11.70
546.00	35.11
546.16	35.11
546.33	53.83
546.50	25.75
546.67	16.38
546.83	65.54
547.00	0.00
547.17	16.38
547.34	0.00
547.50	32.77
547.67	0.00
547.84	37.45
548.00	32.77
548.17	30.43
548.34	18.72
548.51	7.02
548.67	56.17
548.84	79.58
549.01	42.13
549.18	65.54
549.34	56.17
549.51	79.58
549.68	88.94
549.84	63.19
550.01	51.49
550.18	72.56
550.34	46.81
550.51	11.70
550.68	23.41
550.84	16.38
551.01	46.81
551.18	42.13
551.34	46.81
551.51	49.15
551.68	72.56
551.84	0.00
552.01	63.19
552.18	88.94
552.34	0.00
552.51	102.98
552.68	58.51
552.84	35.11
553.01	53.83
553.18	32.77
553.34	28.09
553.51	0.00
553.67	21.06
553.84	124.05
554.01	32.77
554.17	95.96
554.34	21.06
554.51	53.83
554.67	9.36
554.84	39.79
555.00	86.60
555.17	42.13
555.33	39.79
555.50	72.56
555.67	32.77
555.83	39.79
556.00	60.85
556.16	105.32
556.33	98.30
556.50	49.15
556.66	18.72
556.83	84.26
556.99	0.00
557.16	4.68
557.32	23.41
557.49	58.51
557.65	72.56
557.82	65.54
557.98	79.58
558.15	9.36
558.32	21.06
558.48	88.94
558.65	81.92
558.81	18.72
558.98	28.09
559.14	0.00
559.31	11.70
559.47	0.00
559.64	23.41
559.80	86.60
559.97	67.88
560.13	44.47
560.30	53.83
560.46	0.00
560.63	42.13
560.79	39.79
560.96	0.00
561.12	60.85
561.29	9.36
561.45	74.90
561.61	77.24
561.78	60.85
561.94	37.45
562.11	46.81
562.27	35.11
562.44	105.32
562.60	0.00
562.77	51.49
562.93	32.77
563.10	28.09
563.26	16.38
563.42	0.00
563.59	42.13
563.75	39.79
563.92	0.00
564.08	9.36
564.24	53.83
564.41	32.77
564.57	65.54
564.74	11.70
564.90	14.04
565.07	72.56
565.23	42.13
565.39	42.13
565.56	93.62
565.72	9.36
565.88	0.00
566.05	102.98
566.21	14.04
566.38	124.05
566.54	63.19
566.70	7.02
566.87	32.77
567.03	74.90
567.19	63.19
567.36	0.00
567.52	53.83
567.68	102.98
567.85	53.83
568.01	37.45
568.17	2.34
568.34	46.81
568.50	32.77
568.66	4.68
568.83	0.00
568.99	18.72
569.15	0.00
569.32	81.92
569.48	70.22
569.64	32.77
569.81	53.83
569.97	28.09
570.13	70.22
570.30	67.88
570.46	16.38
570.62	56.17
570.78	0.00
570.95	84.26
571.11	0.00
571.27	7.02
571.43	42.13
571.60	74.90
571.76	2.34
571.92	53.83
572.09	44.47
572.25	4.68
572.41	112.35
572.57	0.00
572.74	53.83
572.90	93.62
573.06	25.75
573.22	60.85
573.38	21.06
573.55	42.13
573.71	35.11
573.87	25.75
574.03	105.32
574.20	21.06
574.36	65.54
574.52	23.41
574.68	72.56
574.84	0.00
575.01	0.00
575.17	46.81
575.33	39.79
575.49	60.85
575.65	51.49
575.82	18.72
575.98	14.04
576.14	32.77
576.30	0.00
576.46	93.62
576.62	25.75
576.79	0.00
576.95	23.41
577.11	0.00
577.27	65.54
577.43	74.90
577.59	37.45
577.75	58.51
577.92	23.41
578.08	16.38
578.24	65.54
578.40	60.85
578.56	0.00
578.72	77.24
578.88	32.77
579.04	60.85
579.21	79.58
579.37	58.51
579.53	63.19
579.69	32.77
579.85	39.79
580.01	0.00
580.17	7.02
580.33	81.92
580.49	0.00
580.65	0.00
580.82	53.83
580.98	42.13
581.14	0.00
581.30	74.90
581.46	49.15
581.62	0.00
581.78	25.75
581.94	30.43
582.10	53.83
582.26	53.83
582.42	18.72
582.58	70.22
582.74	18.72
582.90	42.13
583.06	7.02
583.22	105.32
583.38	72.56
583.54	32.77
583.70	35.11
583.86	35.11
584.02	35.11
584.18	35.11
584.34	65.54
584.50	39.79
584.66	91.28
584.82	208.31
584.98	201.29
585.14	208.31
585.30	135.75
585.46	98.30
585.62	65.54
585.78	65.54
585.94	37.45
586.10	60.85
586.26	72.56
586.42	63.19
586.58	49.15
586.74	74.90
586.90	81.92
587.06	37.45
587.22	4.68
587.38	16.38
587.54	51.49
587.70	7.02
587.86	39.79
588.02	72.56
588.18	21.06
588.34	37.45
588.49	35.11
588.65	25.75
588.81	4.68
588.97	32.77
589.13	11.70
589.29	84.26
589.45	37.45
589.61	0.00
589.77	28.09
589.93	60.85
590.08	84.26
590.24	7.02
590.40	0.00
590.56	49.15
590.72	16.38
590.88	49.15
591.04	42.13
591.20	16.38
591.35	95.96
591.51	51.49
591.67	18.72
591.83	0.00
591.99	58.51
592.15	0.00
592.31	44.47
592.46	37.45
592.62	84.26
592.78	46.81
592.94	51.49
593.10	77.24
593.26	28.09
593.41	0.00
593.57	32.77
593.73	21.06
593.89	23.41
594.05	30.43
594.20	63.19
594.36	9.36
594.52	49.15
594.68	79.58
594.84	0.00
594.99	30.43
595.15	56.17
595.31	133.41
595.47	79.58
595.62	0.00
595.78	23.41
595.94	91.28
596.10	42.13
596.25	35.11
596.41	0.00
596.57	149.79
596.73	117.03
596.88	9.36
597.04	46.81
597.20	0.00
597.36	60.85
597.51	86.60
597.67	4.68
597.83	2.34
597.99	46.81
598.14	0.00
598.30	14.04
598.46	63.19
598.61	23.41
598.77	30.43
598.93	25.75
599.09	86.60
599.24	37.45
599.40	100.64
599.56	95.96
599.71	51.49
599.87	46.81
600.03	65.54
600.18	9.36
600.34	37.45
600.50	0.00
600.65	0.00
600.81	46.81
600.97	100.64
601.12	23.41
601.28	42.13
601.44	21.06
601.59	81.92
601.75	28.09
601.91	74.90
602.06	0.00
602.22	42.13
602.37	35.11
602.53	49.15
602.69	0.00
602.84	77.24
603.00	72.56
603.16	37.45
603.31	46.81
603.47	0.00
603.62	18.72
603.78	16.38
603.94	11.70
604.09	60.85
604.25	67.88
604.40	56.17
604.56	95.96
604.71	0.00
604.87	0.00
605.03	86.60
605.18	84.26
605.34	51.49
605.49	28.09
605.65	28.09
605.80	16.38
605.96	28.09
606.12	86.60
606.27	42.13
606.43	56.17
606.58	77.24
606.74	37.45
606.89	49.15
607.05	74.90
607.20	77.24
607.36	91.28
607.51	121.71
607.67	74.90
607.82	46.81
607.98	30.43
608.13	0.00
608.29	58.51
608.44	126.39
608.60	65.54
608.75	0.00
608.91	44.47
609.06	98.30
609.22	60.85
609.37	49.15
609.53	81.92
609.68	0.00
609.84	0.00
609.99	4.68
610.15	0.00
610.30	16.38
610.46	51.49
610.61	11.70
610.76	60.85
610.92	46.81
611.07	72.56
611.23	21.06
611.38	9.36
611.54	16.38
611.69	21.06
611.84	44.47
612.00	51.49
612.15	63.19
612.31	28.09
612.46	46.81
612.62	0.00
612.77	49.15
612.92	0.00
613.08	28.09
613.23	56.17
613.39	138.09
613.54	49.15
613.69	44.47
613.85	100.64
614.00	49.15
614.15	177.88
614.31	77.24
614.46	14.04
614.62	46.81
614.77	46.81
614.92	16.38
615.08	21.06
615.23	0.00
615.38	44.47
615.54	74.90
615.69	128.73
615.84	91.28
616.00	0.00
616.15	0.00
616.30	37.45
616.46	39.79
616.61	105.32
616.76	107.66
616.92	0.00
617.07	56.17
617.22	49.15
617.37	0.00
617.53	56.17
617.68	77.24
617.83	0.00
617.99	0.00
618.14	14.04
618.29	51.49
618.45	30.43
618.60	67.88
618.75	0.00
618.90	0.00
619.06	0.00
619.21	14.04
619.36	35.11
619.51	86.60
619.67	0.00
619.82	72.56
619.97	23.41
620.12	0.00
620.28	7.02
620.43	86.60
620.58	11.70
620.73	46.81
620.89	72.56
621.04	35.11
621.19	63.19
621.34	0.00
621.49	53.83
621.65	28.09
621.80	39.79
621.95	51.49
622.10	63.19
622.25	79.58
622.41	7.02
622.56	44.47
622.71	30.43
622.86	39.79
623.01	37.45
623.16	58.51
623.32	11.70
623.47	14.04
623.62	56.17
623.77	46.81
623.92	42.13
624.07	60.85
624.23	11.70
624.38	16.38
624.53	95.96
624.68	14.04
624.83	23.41
624.98	14.04
625.13	14.04
625.29	67.88
625.44	60.85
625.59	0.00
625.74	14.04
625.89	11.70
626.04	67.88
626.19	14.04
626.34	77.24
626.49	84.26
626.65	25.75
626.80	42.13
626.95	2.34
627.10	23.41
627.25	100.64
627.40	74.90
627.55	9.36
627.70	4.68
627.85	37.45
628.00	0.00
628.15	7.02
628.30	0.00
628.45	0.00
628.60	9.36
628.76	39.79
628.91	0.00
629.06	49.15
629.21	16.38
629.36	11.70
629.51	28.09
629.66	67.88
629.81	86.60
629.96	51.49
630.11	72.56
630.26	51.49
630.41	9.36
630.56	58.51
630.71	25.75
630.86	23.41
631.01	21.06
631.16	9.36
631.31	49.15
631.46	25.75
631.61	60.85
631.76	16.38
631.91	21.06
632.06	0.00
632.21	25.75
632.36	100.64
632.51	42.13
632.66	32.77
632.81	37.45
632.96	0.00
633.10	53.83
633.25	121.71
633.40	44.47
633.55	42.13
633.70	51.49
633.85	72.56
634.00	32.77
634.15	37.45
634.30	9.36
634.45	39.79
634.60	67.88
634.75	0.00
634.90	58.51
635.05	0.00
635.19	25.75
635.34	28.09
635.49	49.15
635.64	81.92
635.79	93.62
635.94	46.81
636.09	16.38
636.24	2.34
636.39	63.19
636.53	11.70
636.68	23.41
636.83	49.15
636.98	102.98
637.13	81.92
637.28	74.90
637.43	28.09
637.57	56.17
637.72	65.54
637.87	32.77
638.02	77.24
638.17	16.38
638.32	147.45
638.46	58.51
638.61	39.79
638.76	0.00
638.91	95.96
639.06	35.11
639.20	11.70
639.35	112.35
639.50	93.62
639.65	65.54
639.80	46.81
639.94	79.58
640.09	147.45
640.24	166.18
640.39	102.98
640.54	93.62
640.68	23.41
640.83	9.36
640.98	70.22
641.13	0.00
641.27	0.00
641.42	28.09
641.57	154.48
641.72	60.85
641.86	39.79
642.01	16.38
642.16	100.64
642.31	37.45
642.45	46.81
642.60	56.17
642.75	105.32
642.90	72.56
643.04	37.45
643.19	77.24
643.34	0.00
643.48	7.02
643.63	28.09
643.78	77.24
643.93	23.41
644.07	42.13
644.22	35.11
644.37	56.17
644.51	81.92
644.66	35.11
644.81	2.34
644.95	0.00
645.10	35.11
645.25	0.00
645.39	58.51
645.54	53.83
645.69	0.00
645.83	16.38
645.98	49.15
646.13	86.60
646.27	42.13
646.42	30.43
646.57	23.41
646.71	11.70
646.86	56.17
647.00	49.15
647.15	0.00
647.30	28.09
647.44	18.72
647.59	11.70
647.74	0.00
647.88	65.54
648.03	58.51
648.17	53.83
648.32	58.51
648.47	91.28
648.61	84.26
648.76	39.79
648.90	21.06
649.05	86.60
649.20	51.49
649.34	0.00
649.49	4.68
649.63	58.51
649.78	0.00
649.92	9.36
650.07	2.34
650.21	81.92
650.36	56.17
650.51	46.81
650.65	70.22
650.80	67.88
650.94	37.45
651.09	65.54
651.23	58.51
651.38	58.51
651.52	21.06
651.67	16.38
651.81	0.00
651.96	25.75
652.10	91.28
652.25	74.90
652.39	67.88
652.54	23.41
652.68	70.22
652.83	70.22
652.97	37.45
653.12	74.90
653.26	56.17
653.41	21.06
653.55	0.00
653.70	9.36
653.84	37.45
653.99	63.19
654.13	70.22
654.27	51.49
654.42	14.04
654.56	91.28
654.71	37.45
654.85	7.02
655.00	51.49
655.14	23.41
655.29	100.64
655.43	72.56
655.57	77.24
655.72	91.28
655.86	37.45
656.01	11.70
656.15	9.36
656.30	0.00
656.44	28.09
656.58	23.41
656.73	63.19
656.87	25.75
657.01	11.70
657.16	23.41
657.30	46.81
657.45	46.81
657.59	46.81
657.73	18.72
657.88	18.72
658.02	131.07
658.16	74.90
658.31	100.64
658.45	7.02
658.60	67.88
658.74	35.11
658.88	63.19
659.03	39.79
659.17	16.38
659.31	0.00
659.46	105.32
659.60	37.45
659.74	37.45
659.89	32.77
660.03	67.88
660.17	44.47
660.32	79.58
660.46	0.00
660.60	25.75
660.74	30.43
660.89	100.64
661.03	81.92
661.17	70.22
661.32	46.81
661.46	72.56
661.60	77.24
661.74	72.56
661.89	91.28
662.03	72.56
662.17	23.41
662.31	32.77
662.46	39.79
662.60	49.15
662.74	70.22
662.88	63.19
663.03	42.13
663.17	25.75
663.31	44.47
663.45	25.75
663.60	46.81
663.74	11.70
663.88	124.05
664.02	44.47
664.17	0.00
664.31	25.75
664.45	42.13
664.59	70.22
664.73	0.00
664.88	60.85
665.02	46.81
665.16	37.45
665.30	49.15
665.44	65.54
665.59	0.00
665.73	39.79
665.87	23.41
666.01	102.98
666.15	72.56
666.29	23.41
666.44	0.00
666.58	56.17
666.72	95.96
666.86	70.22
667.00	63.19
667.14	0.00
667.28	49.15
667.43	105.32
667.57	32.77
667.71	23.41
667.85	30.43
667.99	133.41
668.13	4.68
668.27	37.45
668.41	131.07
668.56	60.85
668.70	11.70
668.84	9.36
668.98	77.24
669.12	30.43
669.26	93.62
669.40	60.85
669.54	0.00
669.68	63.19
669.82	95.96
669.96	18.72
670.10	98.30
670.25	0.00
670.39	70.22
670.53	18.72
670.67	42.13
670.81	72.56
670.95	23.41
671.09	32.77
671.23	30.43
671.37	65.54
671.51	105.32
671.65	37.45
671.79	88.94
671.93	37.45
672.07	105.32
672.21	81.92
672.35	88.94
672.49	126.39
672.63	46.81
672.77	51.49
672.91	39.79
673.05	37.45
673.19	70.22
673.33	0.00
673.47	58.51
673.61	46.81
673.75	51.49
673.89	63.19
674.03	63.19
674.17	65.54
674.31	37.45
674.45	0.00
674.59	42.13
674.73	11.70
674.87	14.04
675.01	0.00
675.15	37.45
675.29	30.43
675.43	65.54
675.56	28.09
675.70	81.92
675.84	0.00
675.98	77.24
676.12	23.41
676.26	0.00
676.40	42.13
676.54	86.60
676.68	51.49
676.82	0.00
676.96	37.45
677.10	23.41
677.23	16.38
677.37	37.45
677.51	67.88
677.65	18.72
677.79	28.09
677.93	30.43
678.07	0.00
678.21	35.11
678.34	100.64
678.48	28.09
678.62	42.13
678.76	0.00
678.90	25.75
679.04	72.56
679.18	121.71
679.31	0.00
679.45	46.81
679.59	16.38
679.73	23.41
679.87	0.00
680.00	53.83
680.14	44.47
680.28	4.68
680.42	18.72
680.56	79.58
680.70	0.00
680.83	0.00
680.97	60.85
681.11	23.41
681.25	67.88
681.39	0.00
681.52	4.68
681.66	74.90
681.80	46.81
681.94	0.00
682.07	93.62
682.21	0.00
682.35	0.00
682.49	44.47
682.62	46.81
682.76	16.38
682.90	4.68
683.04	56.17
683.17	42.13
683.31	30.43
683.45	53.83
683.59	51.49
683.72	42.13
683.86	70.22
684.00	91.28
684.13	60.85
684.27	16.38
684.41	16.38
684.55	37.45
684.68	51.49
684.82	51.49
684.96	35.11
685.09	0.00
685.23	0.00
685.37	60.85
685.50	67.88
685.64	0.00
685.78	98.30
685.91	11.70
686.05	56.17
686.19	32.77
686.32	93.62
686.46	74.90
686.60	14.04
686.73	65.54
686.87	56.17
687.01	16.38
687.14	39.79
687.28	14.04
687.42	0.00
687.55	0.00
687.69	84.26
687.82	25.75
687.96	2.34
688.10	28.09
688.23	16.38
688.37	0.00
688.50	4.68
688.64	95.96
688.78	0.00
688.91	0.00
689.05	86.60
689.18	72.56
689.32	49.15
689.46	79.58
689.59	0.00
689.73	14.04
689.86	18.72
690.00	79.58
690.13	110.01
690.27	32.77
690.41	16.38
690.54	0.00
690.68	9.36
690.81	42.13
690.95	72.56
691.08	11.70
691.22	79.58
691.35	65.54
691.49	0.00
691.62	0.00
691.76	0.00
691.89	67.88
692.03	77.24
692.16	0.00
692.30	25.75
692.43	42.13
692.57	102.98
692.70	65.54
692.84	72.56
692.97	79.58
693.11	44.47
693.24	105.32
693.38	84.26
693.51	46.81
693.65	0.00
693.78	0.00
693.92	70.22
694.05	0.00
694.19	37.45
694.32	84.26
694.45	49.15
694.59	30.43
694.72	0.00
694.86	9.36
694.99	32.77
695.13	42.13
695.26	16.38
695.39	7.02
695.53	35.11
695.66	63.19
695.80	46.81
695.93	37.45
696.07	35.11
696.20	117.03
696.33	21.06
696.47	42.13
696.60	25.75
696.73	58.51
696.87	32.77
697.00	42.13
697.14	23.41
697.27	16.38
697.40	0.00
697.54	65.54
697.67	25.75
697.80	16.38
697.94	100.64
698.07	18.72
698.21	51.49
698.34	0.00
698.47	23.41
698.61	42.13
698.74	77.24
698.87	49.15
699.01	14.04
699.14	0.00
699.27	11.70
699.40	4.68
699.54	112.35
699.67	32.77
699.80	60.85
699.94	51.49
700.07	25.75
700.20	39.79
700.34	0.00
700.47	95.96
700.60	18.72
700.73	37.45
700.87	0.00
701.00	14.04
701.13	67.88
701.26	0.00
701.40	0.00
701.53	44.47
701.66	39.79
701.79	70.22
701.93	21.06
702.06	16.38
702.19	42.13
702.32	0.00
702.46	25.75
702.59	0.00
702.72	95.96
702.85	0.00
702.99	65.54
703.12	110.01
703.25	11.70
703.38	0.00
703.51	7.02
703.65	91.28
703.78	46.81
703.91	70.22
704.04	84.26
704.17	79.58
704.31	74.90
704.44	98.30
704.57	56.17
704.70	32.77
704.83	9.36
704.96	0.00
705.10	18.72
705.23	7.02
>>>>>End Processed Spectral Data<<<<<
