SpectraSuite Data File
++++++++++++++++++++++++++++++++++++
Date: Fri Oct 04 12:13:35 GMT-05:00 2013
User: price-jones
Dark Spectrum Present: No
Reference Spectrum Present: No
Number of Sampled Component Spectra: 1
Spectrometers: USB2+H05261
Integration Time (usec): 10000 (USB2+H05261)
Spectra Averaged: 1 (USB2+H05261)
Boxcar Smoothing: 0 (USB2+H05261)
Correct for Electrical Dark: No (USB2+H05261)
Strobe/Lamp Enabled: No (USB2+H05261)
Correct for Detector Non-linearity: No (USB2+H05261)
Correct for Stray Light: No (USB2+H05261)
Number of Pixels in Processed Spectrum: 2048
>>>>>Begin Processed Spectral Data<<<<<
365.73	44.47
365.92	44.47
366.12	44.47
366.32	0.00
366.52	0.00
366.72	0.00
366.91	0.00
367.11	0.00
367.31	0.00
367.51	0.00
367.70	0.00
367.90	0.00
368.10	0.00
368.30	0.00
368.49	0.00
368.69	0.00
368.89	0.00
369.09	0.00
369.28	0.00
369.48	0.00
369.68	0.00
369.87	0.00
370.07	0.00
370.27	0.00
370.47	0.00
370.66	0.00
370.86	0.00
371.06	0.00
371.25	0.00
371.45	0.00
371.65	0.00
371.84	0.00
372.04	18.72
372.24	74.90
372.44	53.83
372.63	23.41
372.83	60.85
373.03	0.00
373.22	7.02
373.42	16.38
373.62	0.00
373.81	0.00
374.01	32.77
374.21	28.09
374.40	28.09
374.60	0.00
374.79	16.38
374.99	0.00
375.19	46.81
375.38	46.81
375.58	0.00
375.78	9.36
375.97	0.00
376.17	98.30
376.37	0.00
376.56	0.00
376.76	60.85
376.95	79.58
377.15	23.41
377.35	18.72
377.54	0.00
377.74	100.64
377.93	51.49
378.13	53.83
378.33	7.02
378.52	2.34
378.72	67.88
378.91	30.43
379.11	14.04
379.31	0.00
379.50	23.41
379.70	35.11
379.89	0.00
380.09	0.00
380.28	28.09
380.48	74.90
380.68	21.06
380.87	74.90
381.07	4.68
381.26	37.45
381.46	9.36
381.65	0.00
381.85	4.68
382.04	49.15
382.24	0.00
382.43	0.00
382.63	44.47
382.83	53.83
383.02	0.00
383.22	77.24
383.41	0.00
383.61	0.00
383.80	0.00
384.00	91.28
384.19	0.00
384.39	95.96
384.58	0.00
384.78	37.45
384.97	46.81
385.17	7.02
385.36	0.00
385.56	70.22
385.75	53.83
385.95	0.00
386.14	49.15
386.34	0.00
386.53	4.68
386.72	65.54
386.92	32.77
387.11	0.00
387.31	49.15
387.50	0.00
387.70	0.00
387.89	2.34
388.09	67.88
388.28	0.00
388.48	37.45
388.67	60.85
388.86	60.85
389.06	42.13
389.25	53.83
389.45	32.77
389.64	7.02
389.84	32.77
390.03	30.43
390.22	0.00
390.42	0.00
390.61	9.36
390.81	53.83
391.00	88.94
391.19	0.00
391.39	0.00
391.58	0.00
391.78	0.00
391.97	35.11
392.16	7.02
392.36	0.00
392.55	0.00
392.75	58.51
392.94	4.68
393.13	16.38
393.33	0.00
393.52	0.00
393.71	32.77
393.91	53.83
394.10	51.49
394.29	2.34
394.49	51.49
394.68	86.60
394.88	39.79
395.07	53.83
395.26	0.00
395.46	35.11
395.65	37.45
395.84	128.73
396.04	0.00
396.23	23.41
396.42	128.73
396.62	35.11
396.81	105.32
397.00	42.13
397.19	0.00
397.39	46.81
397.58	0.00
397.77	25.75
397.97	0.00
398.16	18.72
398.35	21.06
398.55	28.09
398.74	53.83
398.93	0.00
399.12	11.70
399.32	98.30
399.51	23.41
399.70	0.00
399.90	44.47
400.09	0.00
400.28	35.11
400.47	0.00
400.67	49.15
400.86	0.00
401.05	53.83
401.24	0.00
401.44	0.00
401.63	67.88
401.82	35.11
402.01	51.49
402.21	32.77
402.40	58.51
402.59	21.06
402.78	0.00
402.97	0.00
403.17	4.68
403.36	14.04
403.55	16.38
403.74	102.98
403.93	44.47
404.13	46.81
404.32	32.77
404.51	37.45
404.70	0.00
404.89	7.02
405.09	0.00
405.28	65.54
405.47	70.22
405.66	39.79
405.85	42.13
406.05	0.00
406.24	77.24
406.43	7.02
406.62	32.77
406.81	0.00
407.00	28.09
407.20	44.47
407.39	0.00
407.58	0.00
407.77	2.34
407.96	65.54
408.15	42.13
408.34	86.60
408.54	16.38
408.73	51.49
408.92	0.00
409.11	2.34
409.30	35.11
409.49	0.00
409.68	9.36
409.87	2.34
410.07	7.02
410.26	60.85
410.45	0.00
410.64	102.98
410.83	131.07
411.02	39.79
411.21	135.75
411.40	91.28
411.59	0.00
411.78	42.13
411.98	88.94
412.17	42.13
412.36	18.72
412.55	28.09
412.74	9.36
412.93	74.90
413.12	51.49
413.31	93.62
413.50	51.49
413.69	65.54
413.88	93.62
414.07	60.85
414.26	77.24
414.45	49.15
414.64	28.09
414.83	56.17
415.02	74.90
415.22	65.54
415.41	21.06
415.60	88.94
415.79	72.56
415.98	46.81
416.17	86.60
416.36	42.13
416.55	35.11
416.74	58.51
416.93	72.56
417.12	11.70
417.31	9.36
417.50	88.94
417.69	56.17
417.88	63.19
418.07	21.06
418.26	100.64
418.45	0.00
418.64	63.19
418.83	0.00
419.02	32.77
419.21	79.58
419.39	0.00
419.58	0.00
419.77	77.24
419.96	0.00
420.15	32.77
420.34	60.85
420.53	63.19
420.72	23.41
420.91	72.56
421.10	7.02
421.29	56.17
421.48	46.81
421.67	53.83
421.86	9.36
422.05	63.19
422.24	4.68
422.43	0.00
422.61	67.88
422.80	46.81
422.99	77.24
423.18	70.22
423.37	0.00
423.56	0.00
423.75	0.00
423.94	0.00
424.13	0.00
424.32	53.83
424.50	74.90
424.69	42.13
424.88	88.94
425.07	14.04
425.26	84.26
425.45	0.00
425.64	23.41
425.83	11.70
426.01	88.94
426.20	51.49
426.39	2.34
426.58	0.00
426.77	28.09
426.96	42.13
427.15	63.19
427.33	79.58
427.52	39.79
427.71	46.81
427.90	93.62
428.09	0.00
428.28	23.41
428.46	42.13
428.65	58.51
428.84	56.17
429.03	25.75
429.22	58.51
429.40	39.79
429.59	0.00
429.78	58.51
429.97	107.66
430.16	4.68
430.34	0.00
430.53	79.58
430.72	49.15
430.91	95.96
431.10	58.51
431.28	49.15
431.47	93.62
431.66	70.22
431.85	0.00
432.03	0.00
432.22	37.45
432.41	114.69
432.60	72.56
432.79	28.09
432.97	32.77
433.16	98.30
433.35	37.45
433.54	79.58
433.72	70.22
433.91	58.51
434.10	9.36
434.28	37.45
434.47	65.54
434.66	28.09
434.85	0.00
435.03	46.81
435.22	37.45
435.41	0.00
435.59	58.51
435.78	56.17
435.97	112.35
436.16	0.00
436.34	72.56
436.53	2.34
436.72	25.75
436.90	70.22
437.09	0.00
437.28	28.09
437.46	0.00
437.65	23.41
437.84	91.28
438.02	44.47
438.21	74.90
438.40	30.43
438.58	51.49
438.77	63.19
438.96	32.77
439.14	0.00
439.33	42.13
439.52	53.83
439.70	107.66
439.89	0.00
440.08	58.51
440.26	63.19
440.45	42.13
440.63	42.13
440.82	56.17
441.01	28.09
441.19	112.35
441.38	128.73
441.57	4.68
441.75	0.00
441.94	37.45
442.12	21.06
442.31	14.04
442.50	131.07
442.68	65.54
442.87	147.45
443.05	93.62
443.24	60.85
443.43	70.22
443.61	23.41
443.80	100.64
443.98	79.58
444.17	77.24
444.35	112.35
444.54	114.69
444.73	14.04
444.91	114.69
445.10	112.35
445.28	28.09
445.47	79.58
445.65	49.15
445.84	98.30
446.02	72.56
446.21	0.00
446.39	44.47
446.58	0.00
446.77	67.88
446.95	14.04
447.14	102.98
447.32	86.60
447.51	98.30
447.69	107.66
447.88	46.81
448.06	44.47
448.25	49.15
448.43	67.88
448.62	0.00
448.80	46.81
448.99	42.13
449.17	39.79
449.36	67.88
449.54	107.66
449.73	18.72
449.91	46.81
450.10	44.47
450.28	121.71
450.46	102.98
450.65	0.00
450.83	58.51
451.02	25.75
451.20	53.83
451.39	16.38
451.57	53.83
451.76	51.49
451.94	72.56
452.13	60.85
452.31	46.81
452.49	30.43
452.68	25.75
452.86	53.83
453.05	72.56
453.23	53.83
453.42	16.38
453.60	79.58
453.78	16.38
453.97	79.58
454.15	72.56
454.34	121.71
454.52	32.77
454.70	74.90
454.89	28.09
455.07	0.00
455.26	102.98
455.44	79.58
455.62	39.79
455.81	56.17
455.99	105.32
456.17	98.30
456.36	72.56
456.54	53.83
456.73	0.00
456.91	100.64
457.09	28.09
457.28	81.92
457.46	63.19
457.64	65.54
457.83	56.17
458.01	21.06
458.19	77.24
458.38	67.88
458.56	23.41
458.74	65.54
458.93	107.66
459.11	135.75
459.29	67.88
459.48	44.47
459.66	30.43
459.84	110.01
460.03	72.56
460.21	107.66
460.39	95.96
460.57	39.79
460.76	37.45
460.94	14.04
461.12	72.56
461.31	9.36
461.49	170.86
461.67	44.47
461.85	53.83
462.04	0.00
462.22	49.15
462.40	0.00
462.59	39.79
462.77	53.83
462.95	95.96
463.13	30.43
463.32	51.49
463.50	81.92
463.68	58.51
463.86	53.83
464.05	0.00
464.23	42.13
464.41	28.09
464.59	35.11
464.78	2.34
464.96	60.85
465.14	81.92
465.32	35.11
465.50	4.68
465.69	114.69
465.87	88.94
466.05	39.79
466.23	53.83
466.41	39.79
466.60	65.54
466.78	0.00
466.96	0.00
467.14	56.17
467.32	53.83
467.51	28.09
467.69	70.22
467.87	72.56
468.05	37.45
468.23	37.45
468.41	44.47
468.60	32.77
468.78	58.51
468.96	2.34
469.14	72.56
469.32	117.03
469.50	9.36
469.69	107.66
469.87	105.32
470.05	53.83
470.23	53.83
470.41	44.47
470.59	18.72
470.77	39.79
470.95	35.11
471.14	30.43
471.32	30.43
471.50	67.88
471.68	53.83
471.86	51.49
472.04	14.04
472.22	23.41
472.40	4.68
472.58	74.90
472.77	100.64
472.95	65.54
473.13	142.77
473.31	91.28
473.49	25.75
473.67	81.92
473.85	25.75
474.03	112.35
474.21	7.02
474.39	49.15
474.57	30.43
474.75	16.38
474.93	79.58
475.12	0.00
475.30	117.03
475.48	133.41
475.66	65.54
475.84	58.51
476.02	93.62
476.20	2.34
476.38	88.94
476.56	21.06
476.74	0.00
476.92	102.98
477.10	28.09
477.28	4.68
477.46	32.77
477.64	110.01
477.82	25.75
478.00	18.72
478.18	51.49
478.36	9.36
478.54	63.19
478.72	53.83
478.90	74.90
479.08	72.56
479.26	88.94
479.44	42.13
479.62	112.35
479.80	63.19
479.98	72.56
480.16	39.79
480.34	147.45
480.52	91.28
480.70	49.15
480.88	72.56
481.06	142.77
481.24	93.62
481.41	77.24
481.59	112.35
481.77	110.01
481.95	37.45
482.13	28.09
482.31	135.75
482.49	65.54
482.67	117.03
482.85	60.85
483.03	128.73
483.21	37.45
483.39	46.81
483.57	28.09
483.74	84.26
483.92	124.05
484.10	51.49
484.28	93.62
484.46	23.41
484.64	32.77
484.82	126.39
485.00	70.22
485.18	49.15
485.35	105.32
485.53	35.11
485.71	28.09
485.89	102.98
486.07	67.88
486.25	35.11
486.43	42.13
486.61	63.19
486.78	81.92
486.96	0.00
487.14	131.07
487.32	79.58
487.50	72.56
487.68	74.90
487.85	126.39
488.03	37.45
488.21	18.72
488.39	93.62
488.57	25.75
488.75	128.73
488.92	100.64
489.10	23.41
489.28	60.85
489.46	74.90
489.64	91.28
489.81	93.62
489.99	0.00
490.17	112.35
490.35	119.37
490.53	107.66
490.70	53.83
490.88	51.49
491.06	105.32
491.24	81.92
491.41	72.56
491.59	51.49
491.77	16.38
491.95	72.56
492.13	39.79
492.30	77.24
492.48	135.75
492.66	121.71
492.84	100.64
493.01	72.56
493.19	53.83
493.37	44.47
493.54	105.32
493.72	65.54
493.90	18.72
494.08	63.19
494.25	23.41
494.43	23.41
494.61	51.49
494.79	110.01
494.96	67.88
495.14	74.90
495.32	0.00
495.49	102.98
495.67	93.62
495.85	53.83
496.02	110.01
496.20	28.09
496.38	44.47
496.55	46.81
496.73	205.97
496.91	65.54
497.09	79.58
497.26	25.75
497.44	138.09
497.62	119.37
497.79	138.09
497.97	63.19
498.14	35.11
498.32	95.96
498.50	44.47
498.67	77.24
498.85	88.94
499.03	131.07
499.20	131.07
499.38	37.45
499.56	79.58
499.73	117.03
499.91	39.79
500.08	32.77
500.26	65.54
500.44	126.39
500.61	117.03
500.79	51.49
500.97	88.94
501.14	173.20
501.32	166.18
501.49	49.15
501.67	79.58
501.84	77.24
502.02	117.03
502.20	145.11
502.37	39.79
502.55	58.51
502.72	128.73
502.90	72.56
503.07	81.92
503.25	18.72
503.43	138.09
503.60	44.47
503.78	131.07
503.95	126.39
504.13	44.47
504.30	114.69
504.48	67.88
504.65	107.66
504.83	74.90
505.01	133.41
505.18	70.22
505.36	79.58
505.53	93.62
505.71	102.98
505.88	49.15
506.06	46.81
506.23	35.11
506.41	18.72
506.58	58.51
506.76	53.83
506.93	110.01
507.11	124.05
507.28	91.28
507.46	114.69
507.63	74.90
507.81	91.28
507.98	81.92
508.16	86.60
508.33	93.62
508.50	51.49
508.68	37.45
508.85	86.60
509.03	32.77
509.20	133.41
509.38	126.39
509.55	107.66
509.73	42.13
509.90	88.94
510.08	81.92
510.25	42.13
510.42	107.66
510.60	56.17
510.77	121.71
510.95	105.32
511.12	60.85
511.30	60.85
511.47	42.13
511.64	91.28
511.82	25.75
511.99	91.28
512.17	79.58
512.34	77.24
512.51	23.41
512.69	32.77
512.86	81.92
513.04	72.56
513.21	28.09
513.38	91.28
513.56	42.13
513.73	95.96
513.90	110.01
514.08	39.79
514.25	93.62
514.43	93.62
514.60	112.35
514.77	65.54
514.95	63.19
515.12	95.96
515.29	84.26
515.47	67.88
515.64	65.54
515.81	30.43
515.99	86.60
516.16	28.09
516.33	105.32
516.51	46.81
516.68	14.04
516.85	133.41
517.03	88.94
517.20	46.81
517.37	105.32
517.54	74.90
517.72	102.98
517.89	0.00
518.06	84.26
518.24	91.28
518.41	119.37
518.58	145.11
518.75	84.26
518.93	74.90
519.10	74.90
519.27	65.54
519.45	60.85
519.62	0.00
519.79	56.17
519.96	46.81
520.14	98.30
520.31	58.51
520.48	72.56
520.65	84.26
520.83	102.98
521.00	149.79
521.17	58.51
521.34	35.11
521.52	131.07
521.69	84.26
521.86	112.35
522.03	114.69
522.20	124.05
522.38	67.88
522.55	72.56
522.72	70.22
522.89	28.09
523.07	121.71
523.24	102.98
523.41	105.32
523.58	117.03
523.75	16.38
523.92	119.37
524.10	124.05
524.27	72.56
524.44	105.32
524.61	70.22
524.78	28.09
524.96	140.43
525.13	42.13
525.30	159.16
525.47	58.51
525.64	159.16
525.81	133.41
525.98	18.72
526.16	177.88
526.33	39.79
526.50	77.24
526.67	65.54
526.84	95.96
527.01	44.47
527.18	70.22
527.36	93.62
527.53	58.51
527.70	133.41
527.87	37.45
528.04	51.49
528.21	49.15
528.38	102.98
528.55	7.02
528.72	124.05
528.89	14.04
529.07	81.92
529.24	105.32
529.41	161.50
529.58	112.35
529.75	133.41
529.92	93.62
530.09	131.07
530.26	77.24
530.43	23.41
530.60	119.37
530.77	49.15
530.94	53.83
531.11	56.17
531.28	93.62
531.46	70.22
531.63	32.77
531.80	133.41
531.97	46.81
532.14	142.77
532.31	117.03
532.48	119.37
532.65	79.58
532.82	49.15
532.99	65.54
533.16	128.73
533.33	126.39
533.50	67.88
533.67	124.05
533.84	100.64
534.01	58.51
534.18	56.17
534.35	21.06
534.52	21.06
534.69	35.11
534.86	86.60
535.03	56.17
535.20	46.81
535.37	46.81
535.54	117.03
535.71	138.09
535.88	105.32
536.05	56.17
536.22	86.60
536.38	9.36
536.55	63.19
536.72	114.69
536.89	56.17
537.06	112.35
537.23	63.19
537.40	128.73
537.57	91.28
537.74	105.32
537.91	140.43
538.08	70.22
538.25	102.98
538.42	86.60
538.59	72.56
538.75	2.34
538.92	112.35
539.09	102.98
539.26	77.24
539.43	98.30
539.60	102.98
539.77	105.32
539.94	93.62
540.11	102.98
540.28	60.85
540.44	107.66
540.61	46.81
540.78	23.41
540.95	39.79
541.12	124.05
541.29	32.77
541.46	72.56
541.62	67.88
541.79	131.07
541.96	28.09
542.13	142.77
542.30	74.90
542.47	21.06
542.63	140.43
542.80	72.56
542.97	95.96
543.14	42.13
543.31	102.98
543.48	91.28
543.64	16.38
543.81	60.85
543.98	93.62
544.15	149.79
544.32	140.43
544.48	65.54
544.65	42.13
544.82	107.66
544.99	107.66
545.16	51.49
545.32	105.32
545.49	88.94
545.66	88.94
545.83	131.07
546.00	74.90
546.16	91.28
546.33	25.75
546.50	7.02
546.67	79.58
546.83	156.82
547.00	91.28
547.17	2.34
547.34	98.30
547.50	42.13
547.67	51.49
547.84	46.81
548.00	159.16
548.17	91.28
548.34	161.50
548.51	58.51
548.67	102.98
548.84	77.24
549.01	42.13
549.18	149.79
549.34	63.19
549.51	93.62
549.68	145.11
549.84	138.09
550.01	107.66
550.18	105.32
550.34	81.92
550.51	154.48
550.68	196.60
550.84	100.64
551.01	149.79
551.18	100.64
551.34	42.13
551.51	56.17
551.68	121.71
551.84	121.71
552.01	112.35
552.18	72.56
552.34	49.15
552.51	53.83
552.68	37.45
552.84	42.13
553.01	9.36
553.18	60.85
553.34	63.19
553.51	0.00
553.67	114.69
553.84	128.73
554.01	119.37
554.17	105.32
554.34	95.96
554.51	98.30
554.67	86.60
554.84	65.54
555.00	102.98
555.17	77.24
555.33	91.28
555.50	79.58
555.67	140.43
555.83	156.82
556.00	100.64
556.16	46.81
556.33	138.09
556.50	86.60
556.66	60.85
556.83	70.22
556.99	93.62
557.16	58.51
557.32	86.60
557.49	77.24
557.65	81.92
557.82	86.60
557.98	166.18
558.15	117.03
558.32	72.56
558.48	72.56
558.65	46.81
558.81	63.19
558.98	35.11
559.14	93.62
559.31	0.00
559.47	121.71
559.64	46.81
559.80	65.54
559.97	60.85
560.13	86.60
560.30	131.07
560.46	35.11
560.63	81.92
560.79	159.16
560.96	105.32
561.12	88.94
561.29	77.24
561.45	72.56
561.61	124.05
561.78	44.47
561.94	14.04
562.11	37.45
562.27	18.72
562.44	11.70
562.60	102.98
562.77	114.69
562.93	147.45
563.10	95.96
563.26	117.03
563.42	74.90
563.59	74.90
563.75	114.69
563.92	95.96
564.08	147.45
564.24	100.64
564.41	60.85
564.57	86.60
564.74	88.94
564.90	46.81
565.07	93.62
565.23	46.81
565.39	100.64
565.56	98.30
565.72	51.49
565.88	65.54
566.05	124.05
566.21	49.15
566.38	67.88
566.54	86.60
566.70	63.19
566.87	77.24
567.03	93.62
567.19	100.64
567.36	60.85
567.52	142.77
567.68	81.92
567.85	65.54
568.01	18.72
568.17	46.81
568.34	74.90
568.50	121.71
568.66	39.79
568.83	0.00
568.99	74.90
569.15	42.13
569.32	25.75
569.48	74.90
569.64	14.04
569.81	88.94
569.97	44.47
570.13	46.81
570.30	67.88
570.46	67.88
570.62	7.02
570.78	0.00
570.95	53.83
571.11	170.86
571.27	77.24
571.43	37.45
571.60	65.54
571.76	107.66
571.92	70.22
572.09	58.51
572.25	110.01
572.41	147.45
572.57	70.22
572.74	44.47
572.90	23.41
573.06	0.00
573.22	49.15
573.38	95.96
573.55	152.13
573.71	86.60
573.87	91.28
574.03	81.92
574.20	0.00
574.36	67.88
574.52	93.62
574.68	18.72
574.84	0.00
575.01	70.22
575.17	67.88
575.33	56.17
575.49	72.56
575.65	35.11
575.82	44.47
575.98	56.17
576.14	119.37
576.30	128.73
576.46	119.37
576.62	77.24
576.79	77.24
576.95	95.96
577.11	100.64
577.27	95.96
577.43	131.07
577.59	42.13
577.75	79.58
577.92	79.58
578.08	135.75
578.24	0.00
578.40	121.71
578.56	70.22
578.72	65.54
578.88	102.98
579.04	21.06
579.21	86.60
579.37	25.75
579.53	173.20
579.69	107.66
579.85	98.30
580.01	110.01
580.17	51.49
580.33	74.90
580.49	65.54
580.65	81.92
580.82	60.85
580.98	60.85
581.14	88.94
581.30	30.43
581.46	42.13
581.62	100.64
581.78	77.24
581.94	121.71
582.10	7.02
582.26	53.83
582.42	39.79
582.58	93.62
582.74	107.66
582.90	102.98
583.06	65.54
583.22	65.54
583.38	70.22
583.54	121.71
583.70	93.62
583.86	14.04
584.02	32.77
584.18	67.88
584.34	70.22
584.50	77.24
584.66	98.30
584.82	119.37
584.98	42.13
585.14	44.47
585.30	35.11
585.46	72.56
585.62	159.16
585.78	95.96
585.94	32.77
586.10	74.90
586.26	63.19
586.42	131.07
586.58	42.13
586.74	112.35
586.90	88.94
587.06	42.13
587.22	161.50
587.38	46.81
587.54	0.00
587.70	124.05
587.86	77.24
588.02	25.75
588.18	107.66
588.34	46.81
588.49	56.17
588.65	95.96
588.81	28.09
588.97	28.09
589.13	180.22
589.29	86.60
589.45	49.15
589.61	77.24
589.77	23.41
589.93	28.09
590.08	65.54
590.24	95.96
590.40	28.09
590.56	67.88
590.72	95.96
590.88	39.79
591.04	42.13
591.20	100.64
591.35	98.30
591.51	44.47
591.67	39.79
591.83	18.72
591.99	35.11
592.15	32.77
592.31	102.98
592.46	18.72
592.62	65.54
592.78	35.11
592.94	35.11
593.10	105.32
593.26	35.11
593.41	142.77
593.57	81.92
593.73	77.24
593.89	100.64
594.05	70.22
594.20	9.36
594.36	28.09
594.52	44.47
594.68	112.35
594.84	107.66
594.99	88.94
595.15	105.32
595.31	107.66
595.47	65.54
595.62	88.94
595.78	81.92
595.94	110.01
596.10	25.75
596.25	60.85
596.41	65.54
596.57	32.77
596.73	35.11
596.88	105.32
597.04	72.56
597.20	18.72
597.36	72.56
597.51	28.09
597.67	117.03
597.83	112.35
597.99	9.36
598.14	74.90
598.30	100.64
598.46	67.88
598.61	93.62
598.77	98.30
598.93	79.58
599.09	63.19
599.24	25.75
599.40	121.71
599.56	42.13
599.71	23.41
599.87	161.50
600.03	86.60
600.18	32.77
600.34	124.05
600.50	51.49
600.65	51.49
600.81	102.98
600.97	114.69
601.12	110.01
601.28	35.11
601.44	44.47
601.59	79.58
601.75	53.83
601.91	16.38
602.06	65.54
602.22	81.92
602.37	60.85
602.53	100.64
602.69	42.13
602.84	93.62
603.00	98.30
603.16	14.04
603.31	32.77
603.47	119.37
603.62	60.85
603.78	28.09
603.94	119.37
604.09	77.24
604.25	107.66
604.40	44.47
604.56	112.35
604.71	166.18
604.87	86.60
605.03	95.96
605.18	65.54
605.34	32.77
605.49	105.32
605.65	11.70
605.80	79.58
605.96	114.69
606.12	105.32
606.27	102.98
606.43	30.43
606.58	152.13
606.74	102.98
606.89	51.49
607.05	119.37
607.20	65.54
607.36	93.62
607.51	16.38
607.67	145.11
607.82	30.43
607.98	37.45
608.13	117.03
608.29	23.41
608.44	65.54
608.60	60.85
608.75	44.47
608.91	102.98
609.06	74.90
609.22	56.17
609.37	72.56
609.53	102.98
609.68	105.32
609.84	110.01
609.99	51.49
610.15	124.05
610.30	51.49
610.46	25.75
610.61	0.00
610.76	0.00
610.92	51.49
611.07	42.13
611.23	105.32
611.38	126.39
611.54	0.00
611.69	25.75
611.84	46.81
612.00	37.45
612.15	117.03
612.31	21.06
612.46	166.18
612.62	39.79
612.77	58.51
612.92	0.00
613.08	65.54
613.23	51.49
613.39	145.11
613.54	42.13
613.69	88.94
613.85	93.62
614.00	128.73
614.15	21.06
614.31	93.62
614.46	30.43
614.62	0.00
614.77	112.35
614.92	44.47
615.08	46.81
615.23	84.26
615.38	2.34
615.54	100.64
615.69	7.02
615.84	0.00
616.00	112.35
616.15	46.81
616.30	11.70
616.46	67.88
616.61	28.09
616.76	53.83
616.92	65.54
617.07	46.81
617.22	114.69
617.37	30.43
617.53	100.64
617.68	4.68
617.83	79.58
617.99	79.58
618.14	56.17
618.29	18.72
618.45	21.06
618.60	81.92
618.75	21.06
618.90	39.79
619.06	74.90
619.21	119.37
619.36	44.47
619.51	72.56
619.67	18.72
619.82	70.22
619.97	79.58
620.12	18.72
620.28	124.05
620.43	49.15
620.58	81.92
620.73	112.35
620.89	51.49
621.04	23.41
621.19	28.09
621.34	131.07
621.49	110.01
621.65	95.96
621.80	25.75
621.95	112.35
622.10	28.09
622.25	79.58
622.41	72.56
622.56	110.01
622.71	25.75
622.86	58.51
623.01	105.32
623.16	0.00
623.32	0.00
623.47	79.58
623.62	11.70
623.77	7.02
623.92	93.62
624.07	35.11
624.23	84.26
624.38	121.71
624.53	124.05
624.68	18.72
624.83	117.03
624.98	49.15
625.13	35.11
625.29	91.28
625.44	100.64
625.59	79.58
625.74	112.35
625.89	100.64
626.04	67.88
626.19	119.37
626.34	67.88
626.49	140.43
626.65	67.88
626.80	102.98
626.95	65.54
627.10	110.01
627.25	0.00
627.40	37.45
627.55	46.81
627.70	105.32
627.85	86.60
628.00	135.75
628.15	93.62
628.30	98.30
628.45	30.43
628.60	51.49
628.76	114.69
628.91	58.51
629.06	65.54
629.21	28.09
629.36	49.15
629.51	32.77
629.66	81.92
629.81	60.85
629.96	70.22
630.11	98.30
630.26	147.45
630.41	74.90
630.56	18.72
630.71	63.19
630.86	16.38
631.01	16.38
631.16	53.83
631.31	42.13
631.46	79.58
631.61	4.68
631.76	23.41
631.91	102.98
632.06	0.00
632.21	175.54
632.36	77.24
632.51	84.26
632.66	72.56
632.81	14.04
632.96	46.81
633.10	72.56
633.25	0.00
633.40	121.71
633.55	110.01
633.70	88.94
633.85	86.60
634.00	42.13
634.15	53.83
634.30	93.62
634.45	39.79
634.60	0.00
634.75	77.24
634.90	84.26
635.05	56.17
635.19	32.77
635.34	67.88
635.49	77.24
635.64	51.49
635.79	56.17
635.94	56.17
636.09	60.85
636.24	65.54
636.39	35.11
636.53	39.79
636.68	16.38
636.83	0.00
636.98	42.13
637.13	107.66
637.28	0.00
637.43	42.13
637.57	30.43
637.72	88.94
637.87	58.51
638.02	65.54
638.17	25.75
638.32	28.09
638.46	39.79
638.61	60.85
638.76	49.15
638.91	42.13
639.06	18.72
639.20	44.47
639.35	4.68
639.50	0.00
639.65	86.60
639.80	4.68
639.94	23.41
640.09	46.81
640.24	28.09
640.39	63.19
640.54	93.62
640.68	49.15
640.83	30.43
640.98	28.09
641.13	25.75
641.27	42.13
641.42	4.68
641.57	46.81
641.72	65.54
641.86	100.64
642.01	74.90
642.16	30.43
642.31	117.03
642.45	21.06
642.60	46.81
642.75	86.60
642.90	58.51
643.04	56.17
643.19	72.56
643.34	35.11
643.48	98.30
643.63	25.75
643.78	77.24
643.93	0.00
644.07	0.00
644.22	161.50
644.37	88.94
644.51	79.58
644.66	56.17
644.81	105.32
644.95	63.19
645.10	63.19
645.25	102.98
645.39	37.45
645.54	16.38
645.69	107.66
645.83	32.77
645.98	86.60
646.13	100.64
646.27	0.00
646.42	30.43
646.57	149.79
646.71	145.11
646.86	86.60
647.00	49.15
647.15	88.94
647.30	11.70
647.44	51.49
647.59	119.37
647.74	91.28
647.88	37.45
648.03	14.04
648.17	18.72
648.32	58.51
648.47	79.58
648.61	42.13
648.76	39.79
648.90	11.70
649.05	42.13
649.20	42.13
649.34	0.00
649.49	126.39
649.63	9.36
649.78	0.00
649.92	49.15
650.07	114.69
650.21	72.56
650.36	56.17
650.51	42.13
650.65	67.88
650.80	74.90
650.94	74.90
651.09	44.47
651.23	0.00
651.38	51.49
651.52	65.54
651.67	72.56
651.81	98.30
651.96	4.68
652.10	65.54
652.25	72.56
652.39	37.45
652.54	46.81
652.68	56.17
652.83	2.34
652.97	49.15
653.12	107.66
653.26	60.85
653.41	49.15
653.55	30.43
653.70	0.00
653.84	32.77
653.99	14.04
654.13	0.00
654.27	84.26
654.42	72.56
654.56	4.68
654.71	0.00
654.85	63.19
655.00	86.60
655.14	56.17
655.29	117.03
655.43	51.49
655.57	100.64
655.72	25.75
655.86	44.47
656.01	25.75
656.15	67.88
656.30	79.58
656.44	14.04
656.58	102.98
656.73	53.83
656.87	0.00
657.01	0.00
657.16	30.43
657.30	0.00
657.45	30.43
657.59	0.00
657.73	0.00
657.88	39.79
658.02	53.83
658.16	79.58
658.31	32.77
658.45	30.43
658.60	44.47
658.74	105.32
658.88	63.19
659.03	72.56
659.17	23.41
659.31	67.88
659.46	67.88
659.60	0.00
659.74	95.96
659.89	121.71
660.03	35.11
660.17	70.22
660.32	11.70
660.46	16.38
660.60	30.43
660.74	84.26
660.89	72.56
661.03	65.54
661.17	86.60
661.32	67.88
661.46	23.41
661.60	46.81
661.74	63.19
661.89	21.06
662.03	30.43
662.17	0.00
662.31	112.35
662.46	32.77
662.60	28.09
662.74	126.39
662.88	121.71
663.03	74.90
663.17	63.19
663.31	105.32
663.45	46.81
663.60	7.02
663.74	84.26
663.88	81.92
664.02	121.71
664.17	74.90
664.31	25.75
664.45	98.30
664.59	79.58
664.73	79.58
664.88	46.81
665.02	0.00
665.16	105.32
665.30	49.15
665.44	39.79
665.59	81.92
665.73	74.90
665.87	67.88
666.01	9.36
666.15	42.13
666.29	11.70
666.44	110.01
666.58	63.19
666.72	74.90
666.86	49.15
667.00	28.09
667.14	35.11
667.28	72.56
667.43	25.75
667.57	0.00
667.71	0.00
667.85	0.00
667.99	58.51
668.13	46.81
668.27	72.56
668.41	39.79
668.56	16.38
668.70	93.62
668.84	42.13
668.98	32.77
669.12	72.56
669.26	44.47
669.40	51.49
669.54	23.41
669.68	77.24
669.82	37.45
669.96	23.41
670.10	72.56
670.25	39.79
670.39	84.26
670.53	105.32
670.67	95.96
670.81	7.02
670.95	0.00
671.09	4.68
671.23	67.88
671.37	65.54
671.51	95.96
671.65	49.15
671.79	86.60
671.93	60.85
672.07	58.51
672.21	67.88
672.35	28.09
672.49	65.54
672.63	56.17
672.77	35.11
672.91	58.51
673.05	72.56
673.19	51.49
673.33	25.75
673.47	100.64
673.61	39.79
673.75	18.72
673.89	81.92
674.03	93.62
674.17	81.92
674.31	32.77
674.45	7.02
674.59	18.72
674.73	58.51
674.87	18.72
675.01	37.45
675.15	65.54
675.29	81.92
675.43	77.24
675.56	49.15
675.70	25.75
675.84	49.15
675.98	16.38
676.12	30.43
676.26	79.58
676.40	44.47
676.54	67.88
676.68	67.88
676.82	63.19
676.96	9.36
677.10	32.77
677.23	0.00
677.37	44.47
677.51	23.41
677.65	91.28
677.79	39.79
677.93	121.71
678.07	100.64
678.21	56.17
678.34	30.43
678.48	53.83
678.62	32.77
678.76	81.92
678.90	49.15
679.04	32.77
679.18	14.04
679.31	0.00
679.45	91.28
679.59	35.11
679.73	98.30
679.87	14.04
680.00	0.00
680.14	25.75
680.28	14.04
680.42	84.26
680.56	30.43
680.70	0.00
680.83	105.32
680.97	98.30
681.11	72.56
681.25	128.73
681.39	65.54
681.52	42.13
681.66	4.68
681.80	0.00
681.94	39.79
682.07	58.51
682.21	49.15
682.35	105.32
682.49	135.75
682.62	4.68
682.76	140.43
682.90	21.06
683.04	56.17
683.17	42.13
683.31	16.38
683.45	65.54
683.59	42.13
683.72	53.83
683.86	28.09
684.00	25.75
684.13	37.45
684.27	21.06
684.41	0.00
684.55	93.62
684.68	70.22
684.82	98.30
684.96	46.81
685.09	56.17
685.23	32.77
685.37	46.81
685.50	23.41
685.64	37.45
685.78	42.13
685.91	16.38
686.05	18.72
686.19	0.00
686.32	21.06
686.46	51.49
686.60	4.68
686.73	56.17
686.87	46.81
687.01	0.00
687.14	30.43
687.28	44.47
687.42	65.54
687.55	102.98
687.69	32.77
687.82	91.28
687.96	32.77
688.10	39.79
688.23	95.96
688.37	23.41
688.50	44.47
688.64	9.36
688.78	4.68
688.91	0.00
689.05	0.00
689.18	0.00
689.32	42.13
689.46	9.36
689.59	0.00
689.73	56.17
689.86	21.06
690.00	0.00
690.13	0.00
690.27	60.85
690.41	60.85
690.54	84.26
690.68	42.13
690.81	107.66
690.95	60.85
691.08	107.66
691.22	65.54
691.35	74.90
691.49	23.41
691.62	58.51
691.76	18.72
691.89	18.72
692.03	21.06
692.16	46.81
692.30	58.51
692.43	7.02
692.57	0.00
692.70	0.00
692.84	42.13
692.97	0.00
693.11	39.79
693.24	72.56
693.38	51.49
693.51	16.38
693.65	14.04
693.78	25.75
693.92	4.68
694.05	65.54
694.19	107.66
694.32	0.00
694.45	0.00
694.59	16.38
694.72	107.66
694.86	42.13
694.99	16.38
695.13	100.64
695.26	72.56
695.39	18.72
695.53	44.47
695.66	100.64
695.80	30.43
695.93	35.11
696.07	65.54
696.20	0.00
696.33	37.45
696.47	21.06
696.60	14.04
696.73	0.00
696.87	9.36
697.00	23.41
697.14	49.15
697.27	11.70
697.40	65.54
697.54	25.75
697.67	102.98
697.80	0.00
697.94	0.00
698.07	25.75
698.21	42.13
698.34	0.00
698.47	23.41
698.61	49.15
698.74	25.75
698.87	7.02
699.01	28.09
699.14	44.47
699.27	56.17
699.40	39.79
699.54	0.00
699.67	0.00
699.80	58.51
699.94	126.39
700.07	16.38
700.20	60.85
700.34	35.11
700.47	30.43
700.60	37.45
700.73	86.60
700.87	28.09
701.00	56.17
701.13	21.06
701.26	0.00
701.40	37.45
701.53	21.06
701.66	39.79
701.79	11.70
701.93	0.00
702.06	14.04
702.19	0.00
702.32	0.00
702.46	44.47
702.59	0.00
702.72	9.36
702.85	53.83
702.99	84.26
703.12	91.28
703.25	105.32
703.38	21.06
703.51	58.51
703.65	67.88
703.78	63.19
703.91	0.00
704.04	0.00
704.17	105.32
704.31	58.51
704.44	91.28
704.57	56.17
704.70	32.77
704.83	0.00
704.96	112.35
705.10	39.79
705.23	114.69
>>>>>End Processed Spectral Data<<<<<
