SpectraSuite Data File
++++++++++++++++++++++++++++++++++++
Date: Fri Oct 04 12:13:41 GMT-05:00 2013
User: price-jones
Dark Spectrum Present: No
Reference Spectrum Present: No
Number of Sampled Component Spectra: 1
Spectrometers: USB2+H05261
Integration Time (usec): 10000 (USB2+H05261)
Spectra Averaged: 1 (USB2+H05261)
Boxcar Smoothing: 0 (USB2+H05261)
Correct for Electrical Dark: No (USB2+H05261)
Strobe/Lamp Enabled: No (USB2+H05261)
Correct for Detector Non-linearity: No (USB2+H05261)
Correct for Stray Light: No (USB2+H05261)
Number of Pixels in Processed Spectrum: 2048
>>>>>Begin Processed Spectral Data<<<<<
365.73	0.00
365.92	0.00
366.12	0.00
366.32	0.00
366.52	0.00
366.72	0.00
366.91	0.00
367.11	0.00
367.31	0.00
367.51	0.00
367.70	0.00
367.90	0.00
368.10	0.00
368.30	0.00
368.49	0.00
368.69	0.00
368.89	0.00
369.09	0.00
369.28	0.00
369.48	0.00
369.68	0.00
369.87	0.00
370.07	0.00
370.27	0.00
370.47	0.00
370.66	0.00
370.86	0.00
371.06	0.00
371.25	0.00
371.45	0.00
371.65	0.00
371.84	0.00
372.04	0.00
372.24	30.43
372.44	0.00
372.63	0.00
372.83	9.36
373.03	37.45
373.22	65.54
373.42	65.54
373.62	35.11
373.81	37.45
374.01	23.41
374.21	42.13
374.40	65.54
374.60	30.43
374.79	0.00
374.99	4.68
375.19	7.02
375.38	60.85
375.58	74.90
375.78	21.06
375.97	58.51
376.17	30.43
376.37	44.47
376.56	79.58
376.76	53.83
376.95	56.17
377.15	91.28
377.35	25.75
377.54	9.36
377.74	0.00
377.93	0.00
378.13	46.81
378.33	114.69
378.52	74.90
378.72	44.47
378.91	42.13
379.11	0.00
379.31	63.19
379.50	0.00
379.70	18.72
379.89	11.70
380.09	84.26
380.28	21.06
380.48	25.75
380.68	18.72
380.87	67.88
381.07	72.56
381.26	35.11
381.46	4.68
381.65	79.58
381.85	65.54
382.04	14.04
382.24	0.00
382.43	0.00
382.63	0.00
382.83	93.62
383.02	11.70
383.22	4.68
383.41	63.19
383.61	0.00
383.80	0.00
384.00	11.70
384.19	58.51
384.39	53.83
384.58	46.81
384.78	0.00
384.97	4.68
385.17	42.13
385.36	11.70
385.56	0.00
385.75	53.83
385.95	35.11
386.14	37.45
386.34	23.41
386.53	0.00
386.72	0.00
386.92	58.51
387.11	32.77
387.31	37.45
387.50	63.19
387.70	23.41
387.89	0.00
388.09	53.83
388.28	2.34
388.48	0.00
388.67	25.75
388.86	0.00
389.06	7.02
389.25	0.00
389.45	0.00
389.64	77.24
389.84	72.56
390.03	23.41
390.22	28.09
390.42	23.41
390.61	0.00
390.81	39.79
391.00	18.72
391.19	0.00
391.39	9.36
391.58	0.00
391.78	0.00
391.97	37.45
392.16	0.00
392.36	114.69
392.55	58.51
392.75	14.04
392.94	11.70
393.13	42.13
393.33	0.00
393.52	11.70
393.71	51.49
393.91	44.47
394.10	42.13
394.29	23.41
394.49	0.00
394.68	51.49
394.88	0.00
395.07	7.02
395.26	11.70
395.46	21.06
395.65	49.15
395.84	86.60
396.04	53.83
396.23	32.77
396.42	9.36
396.62	42.13
396.81	32.77
397.00	0.00
397.19	16.38
397.39	0.00
397.58	60.85
397.77	32.77
397.97	39.79
398.16	35.11
398.35	0.00
398.55	37.45
398.74	67.88
398.93	0.00
399.12	2.34
399.32	0.00
399.51	56.17
399.70	44.47
399.90	0.00
400.09	42.13
400.28	28.09
400.47	11.70
400.67	30.43
400.86	39.79
401.05	23.41
401.24	11.70
401.44	0.00
401.63	9.36
401.82	58.51
402.01	4.68
402.21	67.88
402.40	86.60
402.59	42.13
402.78	39.79
402.97	25.75
403.17	18.72
403.36	91.28
403.55	30.43
403.74	39.79
403.93	0.00
404.13	16.38
404.32	30.43
404.51	91.28
404.70	0.00
404.89	16.38
405.09	117.03
405.28	0.00
405.47	102.98
405.66	0.00
405.85	18.72
406.05	63.19
406.24	37.45
406.43	0.00
406.62	42.13
406.81	65.54
407.00	30.43
407.20	21.06
407.39	4.68
407.58	110.01
407.77	77.24
407.96	0.00
408.15	0.00
408.34	18.72
408.54	42.13
408.73	14.04
408.92	0.00
409.11	18.72
409.30	65.54
409.49	0.00
409.68	35.11
409.87	16.38
410.07	35.11
410.26	60.85
410.45	44.47
410.64	21.06
410.83	60.85
411.02	30.43
411.21	79.58
411.40	16.38
411.59	51.49
411.78	46.81
411.98	42.13
412.17	60.85
412.36	58.51
412.55	37.45
412.74	70.22
412.93	63.19
413.12	7.02
413.31	37.45
413.50	105.32
413.69	21.06
413.88	72.56
414.07	56.17
414.26	23.41
414.45	44.47
414.64	0.00
414.83	0.00
415.02	72.56
415.22	23.41
415.41	51.49
415.60	105.32
415.79	28.09
415.98	42.13
416.17	46.81
416.36	0.00
416.55	28.09
416.74	93.62
416.93	60.85
417.12	58.51
417.31	88.94
417.50	18.72
417.69	95.96
417.88	7.02
418.07	42.13
418.26	77.24
418.45	102.98
418.64	63.19
418.83	16.38
419.02	60.85
419.21	0.00
419.39	7.02
419.58	4.68
419.77	93.62
419.96	0.00
420.15	4.68
420.34	63.19
420.53	86.60
420.72	88.94
420.91	28.09
421.10	86.60
421.29	74.90
421.48	0.00
421.67	49.15
421.86	30.43
422.05	0.00
422.24	0.00
422.43	4.68
422.61	0.00
422.80	63.19
422.99	32.77
423.18	42.13
423.37	56.17
423.56	53.83
423.75	67.88
423.94	18.72
424.13	42.13
424.32	107.66
424.50	60.85
424.69	56.17
424.88	21.06
425.07	4.68
425.26	30.43
425.45	65.54
425.64	0.00
425.83	0.00
426.01	56.17
426.20	16.38
426.39	70.22
426.58	100.64
426.77	56.17
426.96	9.36
427.15	25.75
427.33	7.02
427.52	114.69
427.71	91.28
427.90	56.17
428.09	44.47
428.28	32.77
428.46	77.24
428.65	58.51
428.84	4.68
429.03	18.72
429.22	32.77
429.40	65.54
429.59	0.00
429.78	35.11
429.97	0.00
430.16	112.35
430.34	70.22
430.53	93.62
430.72	0.00
430.91	0.00
431.10	67.88
431.28	4.68
431.47	84.26
431.66	81.92
431.85	65.54
432.03	25.75
432.22	51.49
432.41	91.28
432.60	51.49
432.79	46.81
432.97	28.09
433.16	49.15
433.35	84.26
433.54	0.00
433.72	49.15
433.91	39.79
434.10	72.56
434.28	98.30
434.47	0.00
434.66	67.88
434.85	32.77
435.03	25.75
435.22	51.49
435.41	2.34
435.59	121.71
435.78	0.00
435.97	42.13
436.16	53.83
436.34	42.13
436.53	72.56
436.72	56.17
436.90	39.79
437.09	77.24
437.28	0.00
437.46	88.94
437.65	37.45
437.84	65.54
438.02	21.06
438.21	23.41
438.40	65.54
438.58	70.22
438.77	84.26
438.96	119.37
439.14	25.75
439.33	25.75
439.52	84.26
439.70	74.90
439.89	88.94
440.08	16.38
440.26	42.13
440.45	18.72
440.63	0.00
440.82	91.28
441.01	46.81
441.19	35.11
441.38	25.75
441.57	0.00
441.75	86.60
441.94	23.41
442.12	67.88
442.31	81.92
442.50	7.02
442.68	28.09
442.87	21.06
443.05	95.96
443.24	49.15
443.43	30.43
443.61	58.51
443.80	16.38
443.98	21.06
444.17	30.43
444.35	32.77
444.54	18.72
444.73	102.98
444.91	30.43
445.10	39.79
445.28	91.28
445.47	72.56
445.65	39.79
445.84	21.06
446.02	88.94
446.21	63.19
446.39	42.13
446.58	23.41
446.77	30.43
446.95	37.45
447.14	88.94
447.32	74.90
447.51	37.45
447.69	25.75
447.88	56.17
448.06	121.71
448.25	53.83
448.43	46.81
448.62	44.47
448.80	63.19
448.99	51.49
449.17	65.54
449.36	14.04
449.54	0.00
449.73	30.43
449.91	74.90
450.10	25.75
450.28	21.06
450.46	93.62
450.65	105.32
450.83	58.51
451.02	42.13
451.20	58.51
451.39	30.43
451.57	79.58
451.76	32.77
451.94	67.88
452.13	98.30
452.31	79.58
452.49	88.94
452.68	25.75
452.86	16.38
453.05	180.22
453.23	28.09
453.42	42.13
453.60	86.60
453.78	7.02
453.97	32.77
454.15	28.09
454.34	60.85
454.52	58.51
454.70	117.03
454.89	81.92
455.07	79.58
455.26	32.77
455.44	114.69
455.62	65.54
455.81	53.83
455.99	88.94
456.17	60.85
456.36	28.09
456.54	0.00
456.73	114.69
456.91	114.69
457.09	58.51
457.28	77.24
457.46	74.90
457.64	32.77
457.83	63.19
458.01	95.96
458.19	21.06
458.38	128.73
458.56	9.36
458.74	98.30
458.93	25.75
459.11	42.13
459.29	30.43
459.48	32.77
459.66	53.83
459.84	88.94
460.03	77.24
460.21	79.58
460.39	0.00
460.57	63.19
460.76	0.00
460.94	49.15
461.12	93.62
461.31	60.85
461.49	58.51
461.67	63.19
461.85	21.06
462.04	121.71
462.22	91.28
462.40	67.88
462.59	46.81
462.77	56.17
462.95	58.51
463.13	18.72
463.32	0.00
463.50	7.02
463.68	67.88
463.86	119.37
464.05	37.45
464.23	135.75
464.41	30.43
464.59	42.13
464.78	119.37
464.96	23.41
465.14	145.11
465.32	74.90
465.50	58.51
465.69	63.19
465.87	70.22
466.05	79.58
466.23	58.51
466.41	28.09
466.60	53.83
466.78	0.00
466.96	98.30
467.14	86.60
467.32	49.15
467.51	0.00
467.69	14.04
467.87	11.70
468.05	88.94
468.23	14.04
468.41	88.94
468.60	63.19
468.78	51.49
468.96	110.01
469.14	100.64
469.32	49.15
469.50	23.41
469.69	32.77
469.87	51.49
470.05	37.45
470.23	72.56
470.41	93.62
470.59	30.43
470.77	107.66
470.95	72.56
471.14	88.94
471.32	88.94
471.50	28.09
471.68	100.64
471.86	74.90
472.04	65.54
472.22	56.17
472.40	37.45
472.58	39.79
472.77	51.49
472.95	51.49
473.13	28.09
473.31	79.58
473.49	42.13
473.67	16.38
473.85	51.49
474.03	121.71
474.21	65.54
474.39	46.81
474.57	46.81
474.75	39.79
474.93	112.35
475.12	63.19
475.30	91.28
475.48	32.77
475.66	51.49
475.84	28.09
476.02	46.81
476.20	126.39
476.38	70.22
476.56	46.81
476.74	42.13
476.92	32.77
477.10	51.49
477.28	14.04
477.46	81.92
477.64	0.00
477.82	21.06
478.00	65.54
478.18	49.15
478.36	77.24
478.54	79.58
478.72	110.01
478.90	37.45
479.08	53.83
479.26	39.79
479.44	53.83
479.62	0.00
479.80	42.13
479.98	35.11
480.16	21.06
480.34	67.88
480.52	11.70
480.70	131.07
480.88	79.58
481.06	21.06
481.24	4.68
481.41	91.28
481.59	9.36
481.77	44.47
481.95	98.30
482.13	65.54
482.31	95.96
482.49	60.85
482.67	49.15
482.85	44.47
483.03	65.54
483.21	95.96
483.39	98.30
483.57	30.43
483.74	67.88
483.92	72.56
484.10	63.19
484.28	42.13
484.46	72.56
484.64	77.24
484.82	67.88
485.00	72.56
485.18	25.75
485.35	86.60
485.53	72.56
485.71	74.90
485.89	81.92
486.07	93.62
486.25	93.62
486.43	74.90
486.61	39.79
486.78	100.64
486.96	0.00
487.14	117.03
487.32	81.92
487.50	74.90
487.68	37.45
487.85	30.43
488.03	35.11
488.21	0.00
488.39	35.11
488.57	98.30
488.75	60.85
488.92	140.43
489.10	79.58
489.28	51.49
489.46	70.22
489.64	49.15
489.81	25.75
489.99	124.05
490.17	86.60
490.35	124.05
490.53	7.02
490.70	49.15
490.88	74.90
491.06	81.92
491.24	49.15
491.41	39.79
491.59	60.85
491.77	105.32
491.95	60.85
492.13	53.83
492.30	0.00
492.48	84.26
492.66	133.41
492.84	93.62
493.01	0.00
493.19	100.64
493.37	86.60
493.54	53.83
493.72	70.22
493.90	32.77
494.08	88.94
494.25	135.75
494.43	51.49
494.61	74.90
494.79	0.00
494.96	86.60
495.14	0.00
495.32	37.45
495.49	105.32
495.67	77.24
495.85	56.17
496.02	30.43
496.20	30.43
496.38	42.13
496.55	93.62
496.73	81.92
496.91	74.90
497.09	51.49
497.26	159.16
497.44	42.13
497.62	65.54
497.79	14.04
497.97	16.38
498.14	67.88
498.32	135.75
498.50	88.94
498.67	114.69
498.85	77.24
499.03	86.60
499.20	21.06
499.38	107.66
499.56	110.01
499.73	0.00
499.91	88.94
500.08	117.03
500.26	175.54
500.44	44.47
500.61	86.60
500.79	72.56
500.97	88.94
501.14	86.60
501.32	107.66
501.49	56.17
501.67	42.13
501.84	86.60
502.02	51.49
502.20	105.32
502.37	23.41
502.55	65.54
502.72	44.47
502.90	88.94
503.07	102.98
503.25	0.00
503.43	86.60
503.60	77.24
503.78	95.96
503.95	42.13
504.13	98.30
504.30	95.96
504.48	56.17
504.65	159.16
504.83	46.81
505.01	32.77
505.18	35.11
505.36	9.36
505.53	95.96
505.71	77.24
505.88	102.98
506.06	98.30
506.23	95.96
506.41	88.94
506.58	121.71
506.76	93.62
506.93	42.13
507.11	49.15
507.28	0.00
507.46	32.77
507.63	30.43
507.81	39.79
507.98	88.94
508.16	112.35
508.33	58.51
508.50	67.88
508.68	95.96
508.85	53.83
509.03	117.03
509.20	93.62
509.38	67.88
509.55	81.92
509.73	67.88
509.90	51.49
510.08	117.03
510.25	72.56
510.42	84.26
510.60	77.24
510.77	124.05
510.95	65.54
511.12	110.01
511.30	81.92
511.47	70.22
511.64	117.03
511.82	23.41
511.99	105.32
512.17	159.16
512.34	37.45
512.51	135.75
512.69	51.49
512.86	84.26
513.04	84.26
513.21	60.85
513.38	84.26
513.56	84.26
513.73	16.38
513.90	93.62
514.08	128.73
514.25	112.35
514.43	67.88
514.60	117.03
514.77	135.75
514.95	32.77
515.12	58.51
515.29	88.94
515.47	0.00
515.64	0.00
515.81	21.06
515.99	11.70
516.16	107.66
516.33	110.01
516.51	121.71
516.68	147.45
516.85	131.07
517.03	42.13
517.20	44.47
517.37	77.24
517.54	74.90
517.72	98.30
517.89	49.15
518.06	135.75
518.24	95.96
518.41	95.96
518.58	79.58
518.75	30.43
518.93	135.75
519.10	81.92
519.27	102.98
519.45	95.96
519.62	117.03
519.79	42.13
519.96	46.81
520.14	114.69
520.31	16.38
520.48	88.94
520.65	25.75
520.83	88.94
521.00	84.26
521.17	91.28
521.34	100.64
521.52	65.54
521.69	32.77
521.86	124.05
522.03	60.85
522.20	100.64
522.38	56.17
522.55	93.62
522.72	79.58
522.89	88.94
523.07	88.94
523.24	44.47
523.41	37.45
523.58	49.15
523.75	39.79
523.92	72.56
524.10	147.45
524.27	93.62
524.44	74.90
524.61	110.01
524.78	88.94
524.96	102.98
525.13	72.56
525.30	91.28
525.47	98.30
525.64	117.03
525.81	81.92
525.98	60.85
526.16	140.43
526.33	53.83
526.50	77.24
526.67	102.98
526.84	100.64
527.01	84.26
527.18	138.09
527.36	63.19
527.53	110.01
527.70	105.32
527.87	117.03
528.04	93.62
528.21	126.39
528.38	70.22
528.55	105.32
528.72	100.64
528.89	72.56
529.07	72.56
529.24	21.06
529.41	63.19
529.58	117.03
529.75	84.26
529.92	81.92
530.09	112.35
530.26	56.17
530.43	25.75
530.60	131.07
530.77	138.09
530.94	110.01
531.11	98.30
531.28	70.22
531.46	131.07
531.63	93.62
531.80	84.26
531.97	131.07
532.14	100.64
532.31	105.32
532.48	107.66
532.65	65.54
532.82	63.19
532.99	77.24
533.16	53.83
533.33	51.49
533.50	53.83
533.67	72.56
533.84	23.41
534.01	91.28
534.18	88.94
534.35	30.43
534.52	67.88
534.69	65.54
534.86	46.81
535.03	100.64
535.20	7.02
535.37	39.79
535.54	60.85
535.71	67.88
535.88	107.66
536.05	81.92
536.22	98.30
536.38	67.88
536.55	138.09
536.72	91.28
536.89	110.01
537.06	161.50
537.23	72.56
537.40	100.64
537.57	110.01
537.74	67.88
537.91	60.85
538.08	88.94
538.25	110.01
538.42	110.01
538.59	72.56
538.75	79.58
538.92	102.98
539.09	56.17
539.26	128.73
539.43	91.28
539.60	77.24
539.77	107.66
539.94	133.41
540.11	42.13
540.28	124.05
540.44	37.45
540.61	117.03
540.78	49.15
540.95	124.05
541.12	70.22
541.29	23.41
541.46	135.75
541.62	39.79
541.79	60.85
541.96	110.01
542.13	88.94
542.30	56.17
542.47	67.88
542.63	107.66
542.80	72.56
542.97	39.79
543.14	79.58
543.31	105.32
543.48	77.24
543.64	119.37
543.81	100.64
543.98	117.03
544.15	79.58
544.32	91.28
544.48	86.60
544.65	86.60
544.82	184.90
544.99	67.88
545.16	119.37
545.32	30.43
545.49	95.96
545.66	93.62
545.83	100.64
546.00	0.00
546.16	102.98
546.33	112.35
546.50	86.60
546.67	91.28
546.83	88.94
547.00	49.15
547.17	63.19
547.34	110.01
547.50	81.92
547.67	88.94
547.84	102.98
548.00	65.54
548.17	93.62
548.34	91.28
548.51	67.88
548.67	102.98
548.84	42.13
549.01	60.85
549.18	112.35
549.34	102.98
549.51	102.98
549.68	110.01
549.84	77.24
550.01	84.26
550.18	131.07
550.34	105.32
550.51	42.13
550.68	67.88
550.84	98.30
551.01	102.98
551.18	58.51
551.34	135.75
551.51	117.03
551.68	77.24
551.84	91.28
552.01	25.75
552.18	74.90
552.34	16.38
552.51	46.81
552.68	74.90
552.84	107.66
553.01	63.19
553.18	30.43
553.34	161.50
553.51	100.64
553.67	107.66
553.84	84.26
554.01	37.45
554.17	100.64
554.34	119.37
554.51	14.04
554.67	79.58
554.84	74.90
555.00	65.54
555.17	74.90
555.33	145.11
555.50	112.35
555.67	56.17
555.83	46.81
556.00	53.83
556.16	95.96
556.33	86.60
556.50	74.90
556.66	56.17
556.83	140.43
556.99	135.75
557.16	98.30
557.32	56.17
557.49	105.32
557.65	53.83
557.82	65.54
557.98	77.24
558.15	63.19
558.32	142.77
558.48	58.51
558.65	56.17
558.81	79.58
558.98	18.72
559.14	18.72
559.31	35.11
559.47	65.54
559.64	77.24
559.80	93.62
559.97	81.92
560.13	98.30
560.30	112.35
560.46	72.56
560.63	74.90
560.79	58.51
560.96	84.26
561.12	46.81
561.29	107.66
561.45	119.37
561.61	110.01
561.78	58.51
561.94	107.66
562.11	119.37
562.27	88.94
562.44	49.15
562.60	140.43
562.77	163.84
562.93	93.62
563.10	67.88
563.26	102.98
563.42	39.79
563.59	79.58
563.75	98.30
563.92	51.49
564.08	56.17
564.24	88.94
564.41	126.39
564.57	110.01
564.74	107.66
564.90	46.81
565.07	124.05
565.23	84.26
565.39	46.81
565.56	138.09
565.72	60.85
565.88	32.77
566.05	91.28
566.21	91.28
566.38	126.39
566.54	0.00
566.70	145.11
566.87	84.26
567.03	9.36
567.19	2.34
567.36	65.54
567.52	77.24
567.68	95.96
567.85	84.26
568.01	105.32
568.17	46.81
568.34	84.26
568.50	88.94
568.66	77.24
568.83	30.43
568.99	131.07
569.15	53.83
569.32	112.35
569.48	56.17
569.64	81.92
569.81	110.01
569.97	53.83
570.13	124.05
570.30	65.54
570.46	77.24
570.62	14.04
570.78	53.83
570.95	49.15
571.11	58.51
571.27	65.54
571.43	121.71
571.60	72.56
571.76	49.15
571.92	95.96
572.09	131.07
572.25	105.32
572.41	114.69
572.57	128.73
572.74	42.13
572.90	0.00
573.06	117.03
573.22	95.96
573.38	65.54
573.55	53.83
573.71	93.62
573.87	79.58
574.03	42.13
574.20	121.71
574.36	91.28
574.52	91.28
574.68	65.54
574.84	7.02
575.01	37.45
575.17	46.81
575.33	23.41
575.49	107.66
575.65	46.81
575.82	100.64
575.98	100.64
576.14	93.62
576.30	35.11
576.46	86.60
576.62	11.70
576.79	2.34
576.95	74.90
577.11	112.35
577.27	0.00
577.43	60.85
577.59	135.75
577.75	77.24
577.92	53.83
578.08	86.60
578.24	86.60
578.40	147.45
578.56	77.24
578.72	102.98
578.88	184.90
579.04	53.83
579.21	51.49
579.37	14.04
579.53	102.98
579.69	77.24
579.85	25.75
580.01	88.94
580.17	102.98
580.33	30.43
580.49	72.56
580.65	147.45
580.82	9.36
580.98	93.62
581.14	98.30
581.30	128.73
581.46	74.90
581.62	51.49
581.78	107.66
581.94	44.47
582.10	128.73
582.26	70.22
582.42	81.92
582.58	53.83
582.74	93.62
582.90	58.51
583.06	98.30
583.22	0.00
583.38	140.43
583.54	21.06
583.70	60.85
583.86	100.64
584.02	32.77
584.18	28.09
584.34	95.96
584.50	49.15
584.66	86.60
584.82	30.43
584.98	28.09
585.14	133.41
585.30	133.41
585.46	67.88
585.62	42.13
585.78	37.45
585.94	112.35
586.10	46.81
586.26	11.70
586.42	126.39
586.58	60.85
586.74	9.36
586.90	0.00
587.06	91.28
587.22	67.88
587.38	37.45
587.54	42.13
587.70	102.98
587.86	84.26
588.02	126.39
588.18	70.22
588.34	70.22
588.49	60.85
588.65	28.09
588.81	49.15
588.97	21.06
589.13	105.32
589.29	156.82
589.45	44.47
589.61	93.62
589.77	18.72
589.93	49.15
590.08	102.98
590.24	105.32
590.40	105.32
590.56	77.24
590.72	37.45
590.88	84.26
591.04	58.51
591.20	28.09
591.35	79.58
591.51	53.83
591.67	86.60
591.83	100.64
591.99	102.98
592.15	28.09
592.31	107.66
592.46	51.49
592.62	51.49
592.78	18.72
592.94	86.60
593.10	133.41
593.26	51.49
593.41	56.17
593.57	138.09
593.73	100.64
593.89	112.35
594.05	7.02
594.20	58.51
594.36	28.09
594.52	2.34
594.68	0.00
594.84	79.58
594.99	79.58
595.15	98.30
595.31	70.22
595.47	72.56
595.62	114.69
595.78	77.24
595.94	198.95
596.10	98.30
596.25	46.81
596.41	0.00
596.57	91.28
596.73	117.03
596.88	28.09
597.04	93.62
597.20	14.04
597.36	74.90
597.51	60.85
597.67	107.66
597.83	35.11
597.99	39.79
598.14	114.69
598.30	88.94
598.46	28.09
598.61	95.96
598.77	77.24
598.93	65.54
599.09	114.69
599.24	100.64
599.40	39.79
599.56	79.58
599.71	58.51
599.87	102.98
600.03	0.00
600.18	49.15
600.34	72.56
600.50	95.96
600.65	100.64
600.81	86.60
600.97	74.90
601.12	49.15
601.28	49.15
601.44	49.15
601.59	65.54
601.75	72.56
601.91	81.92
602.06	107.66
602.22	77.24
602.37	25.75
602.53	49.15
602.69	86.60
602.84	163.84
603.00	46.81
603.16	93.62
603.31	119.37
603.47	93.62
603.62	65.54
603.78	117.03
603.94	100.64
604.09	128.73
604.25	119.37
604.40	88.94
604.56	49.15
604.71	72.56
604.87	77.24
605.03	79.58
605.18	0.00
605.34	95.96
605.49	51.49
605.65	46.81
605.80	4.68
605.96	117.03
606.12	84.26
606.27	72.56
606.43	131.07
606.58	0.00
606.74	107.66
606.89	114.69
607.05	37.45
607.20	93.62
607.36	81.92
607.51	67.88
607.67	39.79
607.82	44.47
607.98	93.62
608.13	154.48
608.29	46.81
608.44	74.90
608.60	65.54
608.75	79.58
608.91	49.15
609.06	7.02
609.22	67.88
609.37	60.85
609.53	39.79
609.68	100.64
609.84	53.83
609.99	105.32
610.15	70.22
610.30	39.79
610.46	107.66
610.61	18.72
610.76	32.77
610.92	42.13
611.07	32.77
611.23	133.41
611.38	84.26
611.54	93.62
611.69	63.19
611.84	95.96
612.00	60.85
612.15	63.19
612.31	107.66
612.46	58.51
612.62	49.15
612.77	112.35
612.92	0.00
613.08	74.90
613.23	63.19
613.39	84.26
613.54	39.79
613.69	67.88
613.85	98.30
614.00	140.43
614.15	100.64
614.31	81.92
614.46	46.81
614.62	98.30
614.77	42.13
614.92	84.26
615.08	114.69
615.23	51.49
615.38	88.94
615.54	121.71
615.69	63.19
615.84	9.36
616.00	84.26
616.15	131.07
616.30	28.09
616.46	81.92
616.61	18.72
616.76	74.90
616.92	32.77
617.07	35.11
617.22	56.17
617.37	60.85
617.53	72.56
617.68	58.51
617.83	25.75
617.99	35.11
618.14	121.71
618.29	98.30
618.45	107.66
618.60	44.47
618.75	7.02
618.90	7.02
619.06	28.09
619.21	51.49
619.36	79.58
619.51	102.98
619.67	60.85
619.82	67.88
619.97	91.28
620.12	77.24
620.28	0.00
620.43	67.88
620.58	63.19
620.73	51.49
620.89	152.13
621.04	60.85
621.19	30.43
621.34	84.26
621.49	46.81
621.65	91.28
621.80	107.66
621.95	53.83
622.10	58.51
622.25	67.88
622.41	0.00
622.56	105.32
622.71	84.26
622.86	49.15
623.01	44.47
623.16	23.41
623.32	2.34
623.47	79.58
623.62	74.90
623.77	37.45
623.92	105.32
624.07	42.13
624.23	95.96
624.38	49.15
624.53	28.09
624.68	77.24
624.83	95.96
624.98	44.47
625.13	81.92
625.29	117.03
625.44	114.69
625.59	72.56
625.74	72.56
625.89	88.94
626.04	4.68
626.19	154.48
626.34	53.83
626.49	28.09
626.65	63.19
626.80	25.75
626.95	102.98
627.10	84.26
627.25	58.51
627.40	37.45
627.55	67.88
627.70	121.71
627.85	86.60
628.00	39.79
628.15	46.81
628.30	88.94
628.45	56.17
628.60	117.03
628.76	56.17
628.91	72.56
629.06	56.17
629.21	95.96
629.36	112.35
629.51	79.58
629.66	77.24
629.81	79.58
629.96	95.96
630.11	100.64
630.26	91.28
630.41	58.51
630.56	37.45
630.71	39.79
630.86	58.51
631.01	42.13
631.16	95.96
631.31	37.45
631.46	25.75
631.61	35.11
631.76	121.71
631.91	35.11
632.06	100.64
632.21	142.77
632.36	70.22
632.51	60.85
632.66	91.28
632.81	84.26
632.96	37.45
633.10	84.26
633.25	0.00
633.40	30.43
633.55	14.04
633.70	100.64
633.85	60.85
634.00	4.68
634.15	4.68
634.30	110.01
634.45	72.56
634.60	65.54
634.75	88.94
634.90	60.85
635.05	93.62
635.19	63.19
635.34	84.26
635.49	35.11
635.64	98.30
635.79	46.81
635.94	0.00
636.09	81.92
636.24	42.13
636.39	9.36
636.53	100.64
636.68	0.00
636.83	58.51
636.98	88.94
637.13	91.28
637.28	95.96
637.43	166.18
637.57	56.17
637.72	86.60
637.87	23.41
638.02	53.83
638.17	114.69
638.32	86.60
638.46	16.38
638.61	105.32
638.76	46.81
638.91	32.77
639.06	70.22
639.20	51.49
639.35	11.70
639.50	0.00
639.65	18.72
639.80	16.38
639.94	79.58
640.09	44.47
640.24	74.90
640.39	107.66
640.54	44.47
640.68	65.54
640.83	93.62
640.98	58.51
641.13	51.49
641.27	72.56
641.42	51.49
641.57	18.72
641.72	0.00
641.86	60.85
642.01	18.72
642.16	0.00
642.31	91.28
642.45	98.30
642.60	4.68
642.75	42.13
642.90	95.96
643.04	28.09
643.19	81.92
643.34	44.47
643.48	93.62
643.63	67.88
643.78	72.56
643.93	21.06
644.07	95.96
644.22	60.85
644.37	21.06
644.51	9.36
644.66	53.83
644.81	58.51
644.95	63.19
645.10	37.45
645.25	53.83
645.39	39.79
645.54	60.85
645.69	37.45
645.83	46.81
645.98	60.85
646.13	79.58
646.27	63.19
646.42	32.77
646.57	28.09
646.71	23.41
646.86	100.64
647.00	117.03
647.15	100.64
647.30	67.88
647.44	42.13
647.59	0.00
647.74	56.17
647.88	49.15
648.03	74.90
648.17	65.54
648.32	156.82
648.47	30.43
648.61	86.60
648.76	145.11
648.90	0.00
649.05	39.79
649.20	28.09
649.34	42.13
649.49	74.90
649.63	32.77
649.78	23.41
649.92	44.47
650.07	42.13
650.21	65.54
650.36	37.45
650.51	67.88
650.65	119.37
650.80	35.11
650.94	91.28
651.09	28.09
651.23	63.19
651.38	39.79
651.52	91.28
651.67	88.94
651.81	84.26
651.96	128.73
652.10	0.00
652.25	98.30
652.39	86.60
652.54	21.06
652.68	37.45
652.83	0.00
652.97	67.88
653.12	46.81
653.26	81.92
653.41	70.22
653.55	0.00
653.70	126.39
653.84	60.85
653.99	70.22
654.13	63.19
654.27	131.07
654.42	39.79
654.56	30.43
654.71	72.56
654.85	44.47
655.00	37.45
655.14	117.03
655.29	98.30
655.43	100.64
655.57	46.81
655.72	42.13
655.86	72.56
656.01	39.79
656.15	0.00
656.30	9.36
656.44	16.38
656.58	142.77
656.73	35.11
656.87	56.17
657.01	100.64
657.16	81.92
657.30	37.45
657.45	63.19
657.59	16.38
657.73	65.54
657.88	58.51
658.02	39.79
658.16	44.47
658.31	86.60
658.45	81.92
658.60	46.81
658.74	93.62
658.88	30.43
659.03	95.96
659.17	42.13
659.31	63.19
659.46	37.45
659.60	9.36
659.74	25.75
659.89	105.32
660.03	126.39
660.17	114.69
660.32	16.38
660.46	65.54
660.60	25.75
660.74	16.38
660.89	56.17
661.03	63.19
661.17	2.34
661.32	63.19
661.46	51.49
661.60	0.00
661.74	72.56
661.89	77.24
662.03	4.68
662.17	67.88
662.31	16.38
662.46	60.85
662.60	67.88
662.74	21.06
662.88	30.43
663.03	93.62
663.17	0.00
663.31	0.00
663.45	79.58
663.60	98.30
663.74	35.11
663.88	21.06
664.02	4.68
664.17	79.58
664.31	53.83
664.45	11.70
664.59	9.36
664.73	79.58
664.88	72.56
665.02	44.47
665.16	7.02
665.30	95.96
665.44	58.51
665.59	63.19
665.73	14.04
665.87	65.54
666.01	91.28
666.15	30.43
666.29	18.72
666.44	0.00
666.58	0.00
666.72	32.77
666.86	65.54
667.00	21.06
667.14	18.72
667.28	135.75
667.43	110.01
667.57	105.32
667.71	58.51
667.85	58.51
667.99	84.26
668.13	72.56
668.27	72.56
668.41	25.75
668.56	70.22
668.70	93.62
668.84	30.43
668.98	53.83
669.12	21.06
669.26	39.79
669.40	4.68
669.54	39.79
669.68	11.70
669.82	32.77
669.96	74.90
670.10	88.94
670.25	4.68
670.39	49.15
670.53	0.00
670.67	53.83
670.81	23.41
670.95	67.88
671.09	23.41
671.23	0.00
671.37	86.60
671.51	23.41
671.65	25.75
671.79	42.13
671.93	46.81
672.07	124.05
672.21	49.15
672.35	0.00
672.49	0.00
672.63	2.34
672.77	30.43
672.91	0.00
673.05	79.58
673.19	23.41
673.33	28.09
673.47	0.00
673.61	58.51
673.75	28.09
673.89	0.00
674.03	51.49
674.17	49.15
674.31	14.04
674.45	28.09
674.59	53.83
674.73	65.54
674.87	63.19
675.01	14.04
675.15	67.88
675.29	72.56
675.43	98.30
675.56	7.02
675.70	46.81
675.84	53.83
675.98	72.56
676.12	16.38
676.26	35.11
676.40	9.36
676.54	37.45
676.68	53.83
676.82	16.38
676.96	46.81
677.10	74.90
677.23	67.88
677.37	30.43
677.51	81.92
677.65	70.22
677.79	63.19
677.93	42.13
678.07	39.79
678.21	63.19
678.34	79.58
678.48	72.56
678.62	58.51
678.76	7.02
678.90	21.06
679.04	25.75
679.18	11.70
679.31	4.68
679.45	95.96
679.59	39.79
679.73	18.72
679.87	0.00
680.00	0.00
680.14	74.90
680.28	23.41
680.42	84.26
680.56	95.96
680.70	0.00
680.83	18.72
680.97	0.00
681.11	0.00
681.25	70.22
681.39	60.85
681.52	14.04
681.66	18.72
681.80	0.00
681.94	70.22
682.07	63.19
682.21	0.00
682.35	35.11
682.49	30.43
682.62	51.49
682.76	0.00
682.90	70.22
683.04	77.24
683.17	74.90
683.31	91.28
683.45	105.32
683.59	46.81
683.72	81.92
683.86	135.75
684.00	58.51
684.13	30.43
684.27	53.83
684.41	81.92
684.55	63.19
684.68	37.45
684.82	51.49
684.96	86.60
685.09	28.09
685.23	0.00
685.37	65.54
685.50	37.45
685.64	14.04
685.78	58.51
685.91	51.49
686.05	0.00
686.19	16.38
686.32	72.56
686.46	21.06
686.60	30.43
686.73	51.49
686.87	39.79
687.01	65.54
687.14	0.00
687.28	63.19
687.42	58.51
687.55	98.30
687.69	0.00
687.82	0.00
687.96	84.26
688.10	44.47
688.23	79.58
688.37	25.75
688.50	28.09
688.64	100.64
688.78	0.00
688.91	93.62
689.05	37.45
689.18	51.49
689.32	39.79
689.46	18.72
689.59	72.56
689.73	0.00
689.86	51.49
690.00	79.58
690.13	16.38
690.27	21.06
690.41	53.83
690.54	30.43
690.68	70.22
690.81	0.00
690.95	0.00
691.08	21.06
691.22	107.66
691.35	56.17
691.49	51.49
691.62	9.36
691.76	2.34
691.89	60.85
692.03	0.00
692.16	0.00
692.30	28.09
692.43	44.47
692.57	2.34
692.70	49.15
692.84	58.51
692.97	0.00
693.11	4.68
693.24	88.94
693.38	18.72
693.51	46.81
693.65	56.17
693.78	21.06
693.92	28.09
694.05	11.70
694.19	25.75
694.32	7.02
694.45	0.00
694.59	49.15
694.72	9.36
694.86	70.22
694.99	74.90
695.13	58.51
695.26	28.09
695.39	46.81
695.53	0.00
695.66	0.00
695.80	32.77
695.93	37.45
696.07	25.75
696.20	39.79
696.33	114.69
696.47	39.79
696.60	35.11
696.73	30.43
696.87	37.45
697.00	9.36
697.14	30.43
697.27	21.06
697.40	4.68
697.54	0.00
697.67	35.11
697.80	51.49
697.94	9.36
698.07	46.81
698.21	39.79
698.34	35.11
698.47	23.41
698.61	0.00
698.74	32.77
698.87	72.56
699.01	0.00
699.14	0.00
699.27	53.83
699.40	84.26
699.54	11.70
699.67	56.17
699.80	79.58
699.94	0.00
700.07	42.13
700.20	42.13
700.34	23.41
700.47	51.49
700.60	30.43
700.73	44.47
700.87	0.00
701.00	77.24
701.13	60.85
701.26	23.41
701.40	58.51
701.53	37.45
701.66	44.47
701.79	77.24
701.93	56.17
702.06	51.49
702.19	21.06
702.32	0.00
702.46	0.00
702.59	11.70
702.72	0.00
702.85	16.38
702.99	46.81
703.12	74.90
703.25	16.38
703.38	51.49
703.51	35.11
703.65	0.00
703.78	0.00
703.91	44.47
704.04	32.77
704.17	21.06
704.31	65.54
704.44	4.68
704.57	88.94
704.70	86.60
704.83	44.47
704.96	63.19
705.10	44.47
705.23	46.81
>>>>>End Processed Spectral Data<<<<<
