SpectraSuite Data File
++++++++++++++++++++++++++++++++++++
Date: Fri Oct 04 12:13:39 GMT-05:00 2013
User: price-jones
Dark Spectrum Present: No
Reference Spectrum Present: No
Number of Sampled Component Spectra: 1
Spectrometers: USB2+H05261
Integration Time (usec): 10000 (USB2+H05261)
Spectra Averaged: 1 (USB2+H05261)
Boxcar Smoothing: 0 (USB2+H05261)
Correct for Electrical Dark: No (USB2+H05261)
Strobe/Lamp Enabled: No (USB2+H05261)
Correct for Detector Non-linearity: No (USB2+H05261)
Correct for Stray Light: No (USB2+H05261)
Number of Pixels in Processed Spectrum: 2048
>>>>>Begin Processed Spectral Data<<<<<
365.73	39.79
365.92	39.79
366.12	39.79
366.32	0.00
366.52	0.00
366.72	0.00
366.91	0.00
367.11	0.00
367.31	0.00
367.51	0.00
367.70	0.00
367.90	0.00
368.10	0.00
368.30	0.00
368.49	0.00
368.69	0.00
368.89	0.00
369.09	0.00
369.28	0.00
369.48	0.00
369.68	0.00
369.87	0.00
370.07	0.00
370.27	0.00
370.47	0.00
370.66	0.00
370.86	0.00
371.06	0.00
371.25	4.68
371.45	23.41
371.65	0.00
371.84	0.00
372.04	21.06
372.24	0.00
372.44	0.00
372.63	58.51
372.83	0.00
373.03	35.11
373.22	56.17
373.42	0.00
373.62	0.00
373.81	88.94
374.01	28.09
374.21	77.24
374.40	53.83
374.60	0.00
374.79	58.51
374.99	25.75
375.19	18.72
375.38	42.13
375.58	0.00
375.78	35.11
375.97	86.60
376.17	28.09
376.37	4.68
376.56	0.00
376.76	0.00
376.95	65.54
377.15	58.51
377.35	0.00
377.54	39.79
377.74	30.43
377.93	7.02
378.13	0.00
378.33	81.92
378.52	18.72
378.72	23.41
378.91	21.06
379.11	0.00
379.31	14.04
379.50	37.45
379.70	0.00
379.89	72.56
380.09	32.77
380.28	0.00
380.48	18.72
380.68	16.38
380.87	7.02
381.07	77.24
381.26	37.45
381.46	30.43
381.65	58.51
381.85	32.77
382.04	63.19
382.24	65.54
382.43	60.85
382.63	0.00
382.83	14.04
383.02	56.17
383.22	0.00
383.41	2.34
383.61	18.72
383.80	23.41
384.00	9.36
384.19	32.77
384.39	0.00
384.58	28.09
384.78	14.04
384.97	79.58
385.17	39.79
385.36	67.88
385.56	39.79
385.75	0.00
385.95	0.00
386.14	30.43
386.34	37.45
386.53	58.51
386.72	0.00
386.92	70.22
387.11	114.69
387.31	4.68
387.50	0.00
387.70	14.04
387.89	0.00
388.09	42.13
388.28	23.41
388.48	35.11
388.67	58.51
388.86	79.58
389.06	88.94
389.25	53.83
389.45	93.62
389.64	35.11
389.84	9.36
390.03	0.00
390.22	32.77
390.42	0.00
390.61	51.49
390.81	46.81
391.00	0.00
391.19	42.13
391.39	37.45
391.58	35.11
391.78	39.79
391.97	35.11
392.16	16.38
392.36	37.45
392.55	0.00
392.75	11.70
392.94	9.36
393.13	91.28
393.33	0.00
393.52	44.47
393.71	0.00
393.91	7.02
394.10	0.00
394.29	0.00
394.49	0.00
394.68	0.00
394.88	14.04
395.07	0.00
395.26	28.09
395.46	53.83
395.65	65.54
395.84	53.83
396.04	0.00
396.23	0.00
396.42	0.00
396.62	23.41
396.81	63.19
397.00	0.00
397.19	0.00
397.39	56.17
397.58	117.03
397.77	93.62
397.97	23.41
398.16	25.75
398.35	23.41
398.55	18.72
398.74	42.13
398.93	18.72
399.12	58.51
399.32	49.15
399.51	0.00
399.70	95.96
399.90	18.72
400.09	56.17
400.28	79.58
400.47	0.00
400.67	32.77
400.86	58.51
401.05	35.11
401.24	0.00
401.44	58.51
401.63	2.34
401.82	58.51
402.01	42.13
402.21	98.30
402.40	23.41
402.59	4.68
402.78	63.19
402.97	30.43
403.17	11.70
403.36	16.38
403.55	23.41
403.74	18.72
403.93	86.60
404.13	0.00
404.32	51.49
404.51	0.00
404.70	35.11
404.89	25.75
405.09	25.75
405.28	51.49
405.47	23.41
405.66	0.00
405.85	35.11
406.05	42.13
406.24	0.00
406.43	0.00
406.62	42.13
406.81	77.24
407.00	16.38
407.20	0.00
407.39	0.00
407.58	11.70
407.77	67.88
407.96	117.03
408.15	53.83
408.34	11.70
408.54	9.36
408.73	56.17
408.92	0.00
409.11	46.81
409.30	53.83
409.49	79.58
409.68	25.75
409.87	21.06
410.07	39.79
410.26	0.00
410.45	0.00
410.64	42.13
410.83	63.19
411.02	88.94
411.21	0.00
411.40	4.68
411.59	16.38
411.78	0.00
411.98	39.79
412.17	42.13
412.36	0.00
412.55	30.43
412.74	84.26
412.93	30.43
413.12	28.09
413.31	37.45
413.50	0.00
413.69	39.79
413.88	0.00
414.07	91.28
414.26	88.94
414.45	102.98
414.64	23.41
414.83	72.56
415.02	74.90
415.22	105.32
415.41	21.06
415.60	30.43
415.79	0.00
415.98	0.00
416.17	56.17
416.36	2.34
416.55	51.49
416.74	4.68
416.93	88.94
417.12	16.38
417.31	0.00
417.50	49.15
417.69	18.72
417.88	0.00
418.07	65.54
418.26	39.79
418.45	91.28
418.64	67.88
418.83	35.11
419.02	128.73
419.21	53.83
419.39	65.54
419.58	28.09
419.77	56.17
419.96	86.60
420.15	65.54
420.34	0.00
420.53	39.79
420.72	74.90
420.91	63.19
421.10	77.24
421.29	0.00
421.48	14.04
421.67	23.41
421.86	63.19
422.05	63.19
422.24	77.24
422.43	114.69
422.61	7.02
422.80	53.83
422.99	44.47
423.18	7.02
423.37	42.13
423.56	30.43
423.75	74.90
423.94	60.85
424.13	35.11
424.32	32.77
424.50	72.56
424.69	37.45
424.88	0.00
425.07	9.36
425.26	42.13
425.45	58.51
425.64	0.00
425.83	14.04
426.01	58.51
426.20	51.49
426.39	0.00
426.58	49.15
426.77	0.00
426.96	37.45
427.15	0.00
427.33	53.83
427.52	53.83
427.71	74.90
427.90	39.79
428.09	0.00
428.28	0.00
428.46	105.32
428.65	14.04
428.84	102.98
429.03	77.24
429.22	51.49
429.40	56.17
429.59	81.92
429.78	0.00
429.97	95.96
430.16	79.58
430.34	65.54
430.53	9.36
430.72	23.41
430.91	88.94
431.10	0.00
431.28	81.92
431.47	21.06
431.66	102.98
431.85	35.11
432.03	60.85
432.22	42.13
432.41	44.47
432.60	0.00
432.79	39.79
432.97	32.77
433.16	39.79
433.35	161.50
433.54	51.49
433.72	42.13
433.91	35.11
434.10	30.43
434.28	70.22
434.47	74.90
434.66	77.24
434.85	117.03
435.03	53.83
435.22	170.86
435.41	86.60
435.59	93.62
435.78	23.41
435.97	28.09
436.16	88.94
436.34	65.54
436.53	102.98
436.72	67.88
436.90	39.79
437.09	16.38
437.28	35.11
437.46	60.85
437.65	44.47
437.84	28.09
438.02	30.43
438.21	88.94
438.40	86.60
438.58	51.49
438.77	79.58
438.96	0.00
439.14	39.79
439.33	86.60
439.52	51.49
439.70	84.26
439.89	65.54
440.08	93.62
440.26	39.79
440.45	67.88
440.63	49.15
440.82	53.83
441.01	56.17
441.19	56.17
441.38	4.68
441.57	91.28
441.75	58.51
441.94	65.54
442.12	30.43
442.31	77.24
442.50	60.85
442.68	53.83
442.87	11.70
443.05	79.58
443.24	28.09
443.43	74.90
443.61	67.88
443.80	14.04
443.98	56.17
444.17	74.90
444.35	58.51
444.54	0.00
444.73	56.17
444.91	98.30
445.10	65.54
445.28	102.98
445.47	0.00
445.65	86.60
445.84	77.24
446.02	91.28
446.21	18.72
446.39	37.45
446.58	142.77
446.77	28.09
446.95	18.72
447.14	0.00
447.32	58.51
447.51	79.58
447.69	84.26
447.88	86.60
448.06	0.00
448.25	56.17
448.43	121.71
448.62	0.00
448.80	42.13
448.99	79.58
449.17	98.30
449.36	0.00
449.54	21.06
449.73	2.34
449.91	79.58
450.10	42.13
450.28	77.24
450.46	2.34
450.65	44.47
450.83	107.66
451.02	37.45
451.20	23.41
451.39	49.15
451.57	0.00
451.76	35.11
451.94	70.22
452.13	0.00
452.31	86.60
452.49	79.58
452.68	46.81
452.86	67.88
453.05	37.45
453.23	102.98
453.42	86.60
453.60	126.39
453.78	21.06
453.97	86.60
454.15	32.77
454.34	46.81
454.52	21.06
454.70	39.79
454.89	51.49
455.07	51.49
455.26	30.43
455.44	110.01
455.62	77.24
455.81	124.05
455.99	23.41
456.17	11.70
456.36	74.90
456.54	9.36
456.73	18.72
456.91	95.96
457.09	56.17
457.28	39.79
457.46	0.00
457.64	25.75
457.83	110.01
458.01	30.43
458.19	35.11
458.38	67.88
458.56	58.51
458.74	60.85
458.93	44.47
459.11	25.75
459.29	70.22
459.48	98.30
459.66	53.83
459.84	95.96
460.03	9.36
460.21	21.06
460.39	0.00
460.57	42.13
460.76	37.45
460.94	39.79
461.12	63.19
461.31	86.60
461.49	0.00
461.67	18.72
461.85	81.92
462.04	124.05
462.22	88.94
462.40	18.72
462.59	21.06
462.77	53.83
462.95	170.86
463.13	70.22
463.32	105.32
463.50	46.81
463.68	35.11
463.86	63.19
464.05	168.52
464.23	49.15
464.41	46.81
464.59	86.60
464.78	124.05
464.96	30.43
465.14	0.00
465.32	49.15
465.50	60.85
465.69	77.24
465.87	102.98
466.05	0.00
466.23	100.64
466.41	42.13
466.60	0.00
466.78	11.70
466.96	39.79
467.14	110.01
467.32	58.51
467.51	126.39
467.69	42.13
467.87	39.79
468.05	79.58
468.23	74.90
468.41	58.51
468.60	56.17
468.78	84.26
468.96	65.54
469.14	49.15
469.32	102.98
469.50	81.92
469.69	11.70
469.87	32.77
470.05	44.47
470.23	51.49
470.41	100.64
470.59	70.22
470.77	11.70
470.95	70.22
471.14	32.77
471.32	67.88
471.50	51.49
471.68	51.49
471.86	46.81
472.04	44.47
472.22	81.92
472.40	84.26
472.58	140.43
472.77	126.39
472.95	79.58
473.13	39.79
473.31	84.26
473.49	72.56
473.67	67.88
473.85	46.81
474.03	93.62
474.21	93.62
474.39	35.11
474.57	58.51
474.75	28.09
474.93	95.96
475.12	49.15
475.30	70.22
475.48	7.02
475.66	16.38
475.84	42.13
476.02	77.24
476.20	44.47
476.38	67.88
476.56	79.58
476.74	67.88
476.92	91.28
477.10	79.58
477.28	112.35
477.46	49.15
477.64	30.43
477.82	72.56
478.00	145.11
478.18	32.77
478.36	44.47
478.54	105.32
478.72	21.06
478.90	49.15
479.08	56.17
479.26	88.94
479.44	25.75
479.62	60.85
479.80	49.15
479.98	49.15
480.16	53.83
480.34	121.71
480.52	44.47
480.70	23.41
480.88	105.32
481.06	93.62
481.24	65.54
481.41	49.15
481.59	91.28
481.77	93.62
481.95	25.75
482.13	37.45
482.31	23.41
482.49	7.02
482.67	138.09
482.85	86.60
483.03	60.85
483.21	51.49
483.39	102.98
483.57	53.83
483.74	152.13
483.92	39.79
484.10	91.28
484.28	98.30
484.46	102.98
484.64	51.49
484.82	53.83
485.00	39.79
485.18	25.75
485.35	44.47
485.53	9.36
485.71	51.49
485.89	23.41
486.07	74.90
486.25	37.45
486.43	53.83
486.61	42.13
486.78	60.85
486.96	44.47
487.14	9.36
487.32	56.17
487.50	2.34
487.68	65.54
487.85	74.90
488.03	53.83
488.21	77.24
488.39	98.30
488.57	16.38
488.75	37.45
488.92	65.54
489.10	102.98
489.28	58.51
489.46	88.94
489.64	77.24
489.81	14.04
489.99	105.32
490.17	25.75
490.35	0.00
490.53	124.05
490.70	84.26
490.88	67.88
491.06	37.45
491.24	65.54
491.41	63.19
491.59	100.64
491.77	126.39
491.95	63.19
492.13	56.17
492.30	18.72
492.48	25.75
492.66	142.77
492.84	112.35
493.01	30.43
493.19	138.09
493.37	173.20
493.54	110.01
493.72	121.71
493.90	72.56
494.08	70.22
494.25	154.48
494.43	51.49
494.61	0.00
494.79	84.26
494.96	25.75
495.14	117.03
495.32	74.90
495.49	9.36
495.67	37.45
495.85	128.73
496.02	84.26
496.20	0.00
496.38	51.49
496.55	107.66
496.73	63.19
496.91	67.88
497.09	37.45
497.26	110.01
497.44	84.26
497.62	121.71
497.79	88.94
497.97	138.09
498.14	63.19
498.32	42.13
498.50	88.94
498.67	60.85
498.85	126.39
499.03	138.09
499.20	63.19
499.38	2.34
499.56	39.79
499.73	119.37
499.91	74.90
500.08	95.96
500.26	11.70
500.44	30.43
500.61	112.35
500.79	95.96
500.97	138.09
501.14	63.19
501.32	67.88
501.49	65.54
501.67	147.45
501.84	156.82
502.02	39.79
502.20	60.85
502.37	0.00
502.55	156.82
502.72	77.24
502.90	0.00
503.07	121.71
503.25	37.45
503.43	65.54
503.60	74.90
503.78	166.18
503.95	21.06
504.13	18.72
504.30	65.54
504.48	114.69
504.65	81.92
504.83	110.01
505.01	42.13
505.18	102.98
505.36	133.41
505.53	91.28
505.71	133.41
505.88	102.98
506.06	121.71
506.23	100.64
506.41	49.15
506.58	86.60
506.76	102.98
506.93	74.90
507.11	93.62
507.28	79.58
507.46	74.90
507.63	79.58
507.81	58.51
507.98	88.94
508.16	84.26
508.33	114.69
508.50	91.28
508.68	35.11
508.85	84.26
509.03	9.36
509.20	100.64
509.38	72.56
509.55	74.90
509.73	44.47
509.90	32.77
510.08	84.26
510.25	60.85
510.42	131.07
510.60	135.75
510.77	117.03
510.95	138.09
511.12	70.22
511.30	100.64
511.47	126.39
511.64	93.62
511.82	95.96
511.99	88.94
512.17	98.30
512.34	58.51
512.51	100.64
512.69	84.26
512.86	30.43
513.04	9.36
513.21	79.58
513.38	93.62
513.56	159.16
513.73	86.60
513.90	119.37
514.08	37.45
514.25	72.56
514.43	88.94
514.60	42.13
514.77	0.00
514.95	51.49
515.12	70.22
515.29	28.09
515.47	142.77
515.64	72.56
515.81	152.13
515.99	121.71
516.16	46.81
516.33	138.09
516.51	149.79
516.68	105.32
516.85	84.26
517.03	0.00
517.20	37.45
517.37	67.88
517.54	135.75
517.72	49.15
517.89	112.35
518.06	126.39
518.24	95.96
518.41	9.36
518.58	93.62
518.75	145.11
518.93	14.04
519.10	110.01
519.27	21.06
519.45	58.51
519.62	86.60
519.79	105.32
519.96	81.92
520.14	53.83
520.31	63.19
520.48	117.03
520.65	93.62
520.83	65.54
521.00	23.41
521.17	84.26
521.34	110.01
521.52	152.13
521.69	86.60
521.86	107.66
522.03	56.17
522.20	88.94
522.38	121.71
522.55	44.47
522.72	25.75
522.89	140.43
523.07	112.35
523.24	74.90
523.41	93.62
523.58	72.56
523.75	58.51
523.92	72.56
524.10	114.69
524.27	95.96
524.44	140.43
524.61	51.49
524.78	91.28
524.96	112.35
525.13	105.32
525.30	32.77
525.47	156.82
525.64	140.43
525.81	67.88
525.98	88.94
526.16	166.18
526.33	30.43
526.50	49.15
526.67	119.37
526.84	37.45
527.01	74.90
527.18	77.24
527.36	42.13
527.53	133.41
527.70	107.66
527.87	32.77
528.04	72.56
528.21	149.79
528.38	93.62
528.55	72.56
528.72	88.94
528.89	126.39
529.07	39.79
529.24	88.94
529.41	44.47
529.58	117.03
529.75	98.30
529.92	114.69
530.09	49.15
530.26	140.43
530.43	84.26
530.60	91.28
530.77	37.45
530.94	184.90
531.11	74.90
531.28	74.90
531.46	98.30
531.63	133.41
531.80	100.64
531.97	53.83
532.14	77.24
532.31	0.00
532.48	86.60
532.65	4.68
532.82	39.79
532.99	107.66
533.16	58.51
533.33	67.88
533.50	145.11
533.67	79.58
533.84	79.58
534.01	112.35
534.18	128.73
534.35	63.19
534.52	107.66
534.69	84.26
534.86	79.58
535.03	98.30
535.20	72.56
535.37	138.09
535.54	138.09
535.71	84.26
535.88	42.13
536.05	86.60
536.22	70.22
536.38	44.47
536.55	95.96
536.72	86.60
536.89	58.51
537.06	77.24
537.23	100.64
537.40	91.28
537.57	161.50
537.74	93.62
537.91	88.94
538.08	88.94
538.25	102.98
538.42	67.88
538.59	135.75
538.75	46.81
538.92	18.72
539.09	53.83
539.26	100.64
539.43	11.70
539.60	56.17
539.77	135.75
539.94	81.92
540.11	77.24
540.28	60.85
540.44	91.28
540.61	93.62
540.78	135.75
540.95	142.77
541.12	72.56
541.29	117.03
541.46	110.01
541.62	98.30
541.79	42.13
541.96	37.45
542.13	112.35
542.30	65.54
542.47	161.50
542.63	147.45
542.80	37.45
542.97	67.88
543.14	72.56
543.31	95.96
543.48	98.30
543.64	88.94
543.81	81.92
543.98	11.70
544.15	93.62
544.32	91.28
544.48	67.88
544.65	152.13
544.82	67.88
544.99	98.30
545.16	100.64
545.32	79.58
545.49	119.37
545.66	46.81
545.83	86.60
546.00	74.90
546.16	95.96
546.33	121.71
546.50	121.71
546.67	56.17
546.83	93.62
547.00	95.96
547.17	107.66
547.34	60.85
547.50	91.28
547.67	107.66
547.84	58.51
548.00	79.58
548.17	114.69
548.34	77.24
548.51	100.64
548.67	112.35
548.84	133.41
549.01	138.09
549.18	23.41
549.34	53.83
549.51	65.54
549.68	121.71
549.84	70.22
550.01	51.49
550.18	74.90
550.34	95.96
550.51	74.90
550.68	112.35
550.84	102.98
551.01	107.66
551.18	140.43
551.34	98.30
551.51	117.03
551.68	74.90
551.84	42.13
552.01	98.30
552.18	138.09
552.34	60.85
552.51	72.56
552.68	147.45
552.84	16.38
553.01	145.11
553.18	79.58
553.34	91.28
553.51	0.00
553.67	91.28
553.84	100.64
554.01	79.58
554.17	74.90
554.34	65.54
554.51	91.28
554.67	72.56
554.84	51.49
555.00	11.70
555.17	81.92
555.33	79.58
555.50	88.94
555.67	98.30
555.83	84.26
556.00	21.06
556.16	126.39
556.33	67.88
556.50	166.18
556.66	67.88
556.83	4.68
556.99	14.04
557.16	70.22
557.32	58.51
557.49	121.71
557.65	114.69
557.82	67.88
557.98	56.17
558.15	163.84
558.32	79.58
558.48	84.26
558.65	107.66
558.81	102.98
558.98	11.70
559.14	28.09
559.31	112.35
559.47	44.47
559.64	42.13
559.80	98.30
559.97	102.98
560.13	70.22
560.30	37.45
560.46	102.98
560.63	67.88
560.79	102.98
560.96	145.11
561.12	110.01
561.29	114.69
561.45	18.72
561.61	79.58
561.78	77.24
561.94	44.47
562.11	81.92
562.27	49.15
562.44	145.11
562.60	84.26
562.77	79.58
562.93	72.56
563.10	93.62
563.26	39.79
563.42	4.68
563.59	84.26
563.75	98.30
563.92	21.06
564.08	72.56
564.24	93.62
564.41	74.90
564.57	74.90
564.74	84.26
564.90	93.62
565.07	95.96
565.23	74.90
565.39	51.49
565.56	67.88
565.72	51.49
565.88	37.45
566.05	25.75
566.21	102.98
566.38	53.83
566.54	95.96
566.70	16.38
566.87	100.64
567.03	51.49
567.19	60.85
567.36	86.60
567.52	63.19
567.68	67.88
567.85	86.60
568.01	32.77
568.17	63.19
568.34	30.43
568.50	25.75
568.66	51.49
568.83	72.56
568.99	86.60
569.15	77.24
569.32	65.54
569.48	74.90
569.64	53.83
569.81	84.26
569.97	9.36
570.13	67.88
570.30	119.37
570.46	65.54
570.62	42.13
570.78	105.32
570.95	49.15
571.11	93.62
571.27	93.62
571.43	112.35
571.60	56.17
571.76	72.56
571.92	72.56
572.09	86.60
572.25	72.56
572.41	11.70
572.57	67.88
572.74	60.85
572.90	49.15
573.06	117.03
573.22	91.28
573.38	86.60
573.55	58.51
573.71	30.43
573.87	58.51
574.03	67.88
574.20	74.90
574.36	100.64
574.52	91.28
574.68	14.04
574.84	58.51
575.01	4.68
575.17	14.04
575.33	102.98
575.49	93.62
575.65	72.56
575.82	42.13
575.98	79.58
576.14	105.32
576.30	126.39
576.46	58.51
576.62	49.15
576.79	37.45
576.95	60.85
577.11	86.60
577.27	81.92
577.43	79.58
577.59	46.81
577.75	67.88
577.92	112.35
578.08	28.09
578.24	131.07
578.40	46.81
578.56	145.11
578.72	121.71
578.88	49.15
579.04	37.45
579.21	35.11
579.37	84.26
579.53	25.75
579.69	112.35
579.85	91.28
580.01	126.39
580.17	32.77
580.33	67.88
580.49	105.32
580.65	60.85
580.82	145.11
580.98	88.94
581.14	110.01
581.30	49.15
581.46	154.48
581.62	53.83
581.78	119.37
581.94	30.43
582.10	93.62
582.26	56.17
582.42	58.51
582.58	95.96
582.74	72.56
582.90	0.00
583.06	112.35
583.22	56.17
583.38	49.15
583.54	58.51
583.70	81.92
583.86	14.04
584.02	65.54
584.18	81.92
584.34	42.13
584.50	98.30
584.66	102.98
584.82	58.51
584.98	131.07
585.14	35.11
585.30	81.92
585.46	124.05
585.62	110.01
585.78	140.43
585.94	88.94
586.10	107.66
586.26	147.45
586.42	63.19
586.58	7.02
586.74	105.32
586.90	37.45
587.06	51.49
587.22	51.49
587.38	79.58
587.54	88.94
587.70	21.06
587.86	100.64
588.02	23.41
588.18	35.11
588.34	67.88
588.49	117.03
588.65	79.58
588.81	77.24
588.97	49.15
589.13	67.88
589.29	107.66
589.45	119.37
589.61	0.00
589.77	124.05
589.93	16.38
590.08	74.90
590.24	124.05
590.40	86.60
590.56	72.56
590.72	112.35
590.88	88.94
591.04	72.56
591.20	93.62
591.35	28.09
591.51	0.00
591.67	121.71
591.83	86.60
591.99	30.43
592.15	77.24
592.31	42.13
592.46	53.83
592.62	35.11
592.78	46.81
592.94	145.11
593.10	0.00
593.26	44.47
593.41	46.81
593.57	51.49
593.73	0.00
593.89	56.17
594.05	72.56
594.20	124.05
594.36	119.37
594.52	102.98
594.68	133.41
594.84	86.60
594.99	65.54
595.15	67.88
595.31	65.54
595.47	72.56
595.62	93.62
595.78	60.85
595.94	100.64
596.10	44.47
596.25	23.41
596.41	0.00
596.57	121.71
596.73	126.39
596.88	32.77
597.04	51.49
597.20	49.15
597.36	110.01
597.51	81.92
597.67	79.58
597.83	95.96
597.99	39.79
598.14	93.62
598.30	46.81
598.46	65.54
598.61	77.24
598.77	58.51
598.93	70.22
599.09	117.03
599.24	30.43
599.40	88.94
599.56	67.88
599.71	147.45
599.87	72.56
600.03	63.19
600.18	49.15
600.34	161.50
600.50	32.77
600.65	67.88
600.81	51.49
600.97	60.85
601.12	79.58
601.28	93.62
601.44	74.90
601.59	77.24
601.75	32.77
601.91	60.85
602.06	88.94
602.22	51.49
602.37	91.28
602.53	93.62
602.69	84.26
602.84	35.11
603.00	49.15
603.16	100.64
603.31	88.94
603.47	51.49
603.62	23.41
603.78	18.72
603.94	70.22
604.09	0.00
604.25	4.68
604.40	138.09
604.56	53.83
604.71	39.79
604.87	124.05
605.03	44.47
605.18	23.41
605.34	131.07
605.49	46.81
605.65	44.47
605.80	51.49
605.96	140.43
606.12	70.22
606.27	67.88
606.43	7.02
606.58	135.75
606.74	98.30
606.89	100.64
607.05	25.75
607.20	119.37
607.36	88.94
607.51	98.30
607.67	112.35
607.82	60.85
607.98	117.03
608.13	74.90
608.29	51.49
608.44	110.01
608.60	23.41
608.75	79.58
608.91	72.56
609.06	37.45
609.22	39.79
609.37	126.39
609.53	46.81
609.68	93.62
609.84	107.66
609.99	72.56
610.15	49.15
610.30	42.13
610.46	70.22
610.61	95.96
610.76	128.73
610.92	30.43
611.07	44.47
611.23	91.28
611.38	93.62
611.54	18.72
611.69	37.45
611.84	30.43
612.00	72.56
612.15	42.13
612.31	37.45
612.46	60.85
612.62	88.94
612.77	110.01
612.92	131.07
613.08	16.38
613.23	37.45
613.39	84.26
613.54	37.45
613.69	98.30
613.85	23.41
614.00	121.71
614.15	42.13
614.31	74.90
614.46	0.00
614.62	84.26
614.77	49.15
614.92	58.51
615.08	135.75
615.23	121.71
615.38	49.15
615.54	124.05
615.69	81.92
615.84	102.98
616.00	53.83
616.15	18.72
616.30	0.00
616.46	110.01
616.61	37.45
616.76	81.92
616.92	88.94
617.07	100.64
617.22	49.15
617.37	49.15
617.53	95.96
617.68	46.81
617.83	100.64
617.99	110.01
618.14	51.49
618.29	60.85
618.45	72.56
618.60	110.01
618.75	107.66
618.90	0.00
619.06	88.94
619.21	105.32
619.36	102.98
619.51	42.13
619.67	51.49
619.82	74.90
619.97	88.94
620.12	72.56
620.28	114.69
620.43	63.19
620.58	60.85
620.73	107.66
620.89	81.92
621.04	77.24
621.19	53.83
621.34	23.41
621.49	30.43
621.65	81.92
621.80	58.51
621.95	11.70
622.10	95.96
622.25	56.17
622.41	9.36
622.56	32.77
622.71	14.04
622.86	65.54
623.01	7.02
623.16	72.56
623.32	53.83
623.47	42.13
623.62	46.81
623.77	58.51
623.92	110.01
624.07	93.62
624.23	42.13
624.38	65.54
624.53	100.64
624.68	16.38
624.83	37.45
624.98	79.58
625.13	37.45
625.29	32.77
625.44	18.72
625.59	30.43
625.74	110.01
625.89	0.00
626.04	51.49
626.19	70.22
626.34	25.75
626.49	93.62
626.65	58.51
626.80	14.04
626.95	16.38
627.10	114.69
627.25	107.66
627.40	11.70
627.55	35.11
627.70	32.77
627.85	95.96
628.00	88.94
628.15	16.38
628.30	23.41
628.45	102.98
628.60	0.00
628.76	93.62
628.91	49.15
629.06	53.83
629.21	53.83
629.36	30.43
629.51	95.96
629.66	114.69
629.81	74.90
629.96	84.26
630.11	65.54
630.26	112.35
630.41	42.13
630.56	44.47
630.71	70.22
630.86	100.64
631.01	74.90
631.16	67.88
631.31	107.66
631.46	77.24
631.61	126.39
631.76	138.09
631.91	60.85
632.06	25.75
632.21	53.83
632.36	28.09
632.51	65.54
632.66	86.60
632.81	0.00
632.96	2.34
633.10	39.79
633.25	46.81
633.40	56.17
633.55	84.26
633.70	9.36
633.85	72.56
634.00	67.88
634.15	0.00
634.30	79.58
634.45	70.22
634.60	23.41
634.75	77.24
634.90	131.07
635.05	63.19
635.19	37.45
635.34	0.00
635.49	88.94
635.64	67.88
635.79	65.54
635.94	30.43
636.09	58.51
636.24	93.62
636.39	56.17
636.53	0.00
636.68	100.64
636.83	46.81
636.98	117.03
637.13	58.51
637.28	9.36
637.43	44.47
637.57	42.13
637.72	21.06
637.87	58.51
638.02	4.68
638.17	51.49
638.32	49.15
638.46	65.54
638.61	51.49
638.76	32.77
638.91	67.88
639.06	117.03
639.20	95.96
639.35	58.51
639.50	95.96
639.65	110.01
639.80	28.09
639.94	21.06
640.09	56.17
640.24	102.98
640.39	112.35
640.54	53.83
640.68	93.62
640.83	70.22
640.98	7.02
641.13	93.62
641.27	51.49
641.42	39.79
641.57	0.00
641.72	84.26
641.86	16.38
642.01	14.04
642.16	98.30
642.31	49.15
642.45	81.92
642.60	35.11
642.75	67.88
642.90	53.83
643.04	56.17
643.19	105.32
643.34	53.83
643.48	74.90
643.63	44.47
643.78	11.70
643.93	51.49
644.07	56.17
644.22	133.41
644.37	37.45
644.51	74.90
644.66	23.41
644.81	74.90
644.95	102.98
645.10	84.26
645.25	86.60
645.39	30.43
645.54	65.54
645.69	21.06
645.83	46.81
645.98	74.90
646.13	44.47
646.27	63.19
646.42	58.51
646.57	102.98
646.71	49.15
646.86	44.47
647.00	63.19
647.15	42.13
647.30	58.51
647.44	0.00
647.59	119.37
647.74	117.03
647.88	142.77
648.03	0.00
648.17	58.51
648.32	11.70
648.47	14.04
648.61	124.05
648.76	0.00
648.90	63.19
649.05	42.13
649.20	67.88
649.34	74.90
649.49	93.62
649.63	77.24
649.78	39.79
649.92	86.60
650.07	58.51
650.21	72.56
650.36	56.17
650.51	74.90
650.65	65.54
650.80	28.09
650.94	60.85
651.09	28.09
651.23	0.00
651.38	28.09
651.52	37.45
651.67	98.30
651.81	65.54
651.96	112.35
652.10	2.34
652.25	0.00
652.39	49.15
652.54	28.09
652.68	23.41
652.83	28.09
652.97	72.56
653.12	9.36
653.26	56.17
653.41	49.15
653.55	44.47
653.70	46.81
653.84	42.13
653.99	0.00
654.13	51.49
654.27	51.49
654.42	74.90
654.56	51.49
654.71	117.03
654.85	60.85
655.00	67.88
655.14	95.96
655.29	100.64
655.43	14.04
655.57	86.60
655.72	53.83
655.86	93.62
656.01	58.51
656.15	86.60
656.30	37.45
656.44	14.04
656.58	35.11
656.73	4.68
656.87	18.72
657.01	72.56
657.16	91.28
657.30	25.75
657.45	37.45
657.59	53.83
657.73	37.45
657.88	95.96
658.02	58.51
658.16	53.83
658.31	72.56
658.45	60.85
658.60	60.85
658.74	124.05
658.88	72.56
659.03	28.09
659.17	72.56
659.31	56.17
659.46	98.30
659.60	53.83
659.74	44.47
659.89	67.88
660.03	107.66
660.17	7.02
660.32	0.00
660.46	16.38
660.60	60.85
660.74	21.06
660.89	58.51
661.03	44.47
661.17	0.00
661.32	51.49
661.46	93.62
661.60	28.09
661.74	74.90
661.89	0.00
662.03	60.85
662.17	16.38
662.31	37.45
662.46	14.04
662.60	16.38
662.74	60.85
662.88	63.19
663.03	65.54
663.17	4.68
663.31	53.83
663.45	28.09
663.60	72.56
663.74	95.96
663.88	56.17
664.02	21.06
664.17	95.96
664.31	49.15
664.45	25.75
664.59	49.15
664.73	42.13
664.88	9.36
665.02	51.49
665.16	21.06
665.30	49.15
665.44	46.81
665.59	95.96
665.73	23.41
665.87	79.58
666.01	63.19
666.15	25.75
666.29	35.11
666.44	30.43
666.58	25.75
666.72	53.83
666.86	0.00
667.00	14.04
667.14	119.37
667.28	30.43
667.43	0.00
667.57	63.19
667.71	49.15
667.85	51.49
667.99	0.00
668.13	37.45
668.27	72.56
668.41	53.83
668.56	49.15
668.70	86.60
668.84	32.77
668.98	58.51
669.12	51.49
669.26	42.13
669.40	110.01
669.54	88.94
669.68	42.13
669.82	21.06
669.96	46.81
670.10	117.03
670.25	65.54
670.39	49.15
670.53	42.13
670.67	77.24
670.81	53.83
670.95	98.30
671.09	135.75
671.23	4.68
671.37	67.88
671.51	30.43
671.65	0.00
671.79	28.09
671.93	60.85
672.07	72.56
672.21	112.35
672.35	30.43
672.49	46.81
672.63	0.00
672.77	0.00
672.91	124.05
673.05	65.54
673.19	9.36
673.33	11.70
673.47	74.90
673.61	72.56
673.75	79.58
673.89	51.49
674.03	49.15
674.17	0.00
674.31	35.11
674.45	0.00
674.59	77.24
674.73	86.60
674.87	0.00
675.01	84.26
675.15	84.26
675.29	63.19
675.43	84.26
675.56	112.35
675.70	0.00
675.84	51.49
675.98	4.68
676.12	39.79
676.26	0.00
676.40	0.00
676.54	88.94
676.68	18.72
676.82	105.32
676.96	23.41
677.10	65.54
677.23	44.47
677.37	35.11
677.51	91.28
677.65	0.00
677.79	9.36
677.93	74.90
678.07	14.04
678.21	51.49
678.34	105.32
678.48	81.92
678.62	91.28
678.76	49.15
678.90	105.32
679.04	77.24
679.18	91.28
679.31	51.49
679.45	4.68
679.59	72.56
679.73	28.09
679.87	60.85
680.00	107.66
680.14	28.09
680.28	93.62
680.42	117.03
680.56	51.49
680.70	91.28
680.83	7.02
680.97	51.49
681.11	28.09
681.25	74.90
681.39	74.90
681.52	51.49
681.66	0.00
681.80	84.26
681.94	88.94
682.07	35.11
682.21	32.77
682.35	4.68
682.49	0.00
682.62	35.11
682.76	42.13
682.90	53.83
683.04	30.43
683.17	51.49
683.31	16.38
683.45	37.45
683.59	23.41
683.72	32.77
683.86	60.85
684.00	53.83
684.13	91.28
684.27	18.72
684.41	77.24
684.55	2.34
684.68	53.83
684.82	9.36
684.96	21.06
685.09	18.72
685.23	28.09
685.37	14.04
685.50	67.88
685.64	65.54
685.78	32.77
685.91	72.56
686.05	74.90
686.19	79.58
686.32	16.38
686.46	46.81
686.60	16.38
686.73	44.47
686.87	28.09
687.01	67.88
687.14	23.41
687.28	42.13
687.42	25.75
687.55	84.26
687.69	56.17
687.82	39.79
687.96	79.58
688.10	98.30
688.23	58.51
688.37	102.98
688.50	51.49
688.64	46.81
688.78	107.66
688.91	21.06
689.05	58.51
689.18	72.56
689.32	56.17
689.46	28.09
689.59	46.81
689.73	91.28
689.86	70.22
690.00	0.00
690.13	65.54
690.27	86.60
690.41	23.41
690.54	0.00
690.68	88.94
690.81	16.38
690.95	4.68
691.08	74.90
691.22	102.98
691.35	91.28
691.49	117.03
691.62	37.45
691.76	0.00
691.89	72.56
692.03	32.77
692.16	126.39
692.30	100.64
692.43	35.11
692.57	49.15
692.70	14.04
692.84	39.79
692.97	30.43
693.11	0.00
693.24	37.45
693.38	74.90
693.51	0.00
693.65	100.64
693.78	86.60
693.92	32.77
694.05	86.60
694.19	49.15
694.32	65.54
694.45	42.13
694.59	49.15
694.72	56.17
694.86	25.75
694.99	79.58
695.13	28.09
695.26	65.54
695.39	49.15
695.53	39.79
695.66	58.51
695.80	25.75
695.93	0.00
696.07	51.49
696.20	28.09
696.33	88.94
696.47	70.22
696.60	58.51
696.73	16.38
696.87	131.07
697.00	0.00
697.14	35.11
697.27	2.34
697.40	114.69
697.54	51.49
697.67	49.15
697.80	30.43
697.94	81.92
698.07	42.13
698.21	37.45
698.34	70.22
698.47	18.72
698.61	25.75
698.74	88.94
698.87	42.13
699.01	100.64
699.14	39.79
699.27	16.38
699.40	56.17
699.54	51.49
699.67	14.04
699.80	51.49
699.94	18.72
700.07	79.58
700.20	138.09
700.34	0.00
700.47	0.00
700.60	39.79
700.73	25.75
700.87	72.56
701.00	44.47
701.13	44.47
701.26	117.03
701.40	51.49
701.53	51.49
701.66	67.88
701.79	67.88
701.93	28.09
702.06	63.19
702.19	0.00
702.32	0.00
702.46	35.11
702.59	16.38
702.72	0.00
702.85	21.06
702.99	46.81
703.12	9.36
703.25	37.45
703.38	0.00
703.51	0.00
703.65	42.13
703.78	51.49
703.91	0.00
704.04	49.15
704.17	60.85
704.31	0.00
704.44	0.00
704.57	51.49
704.70	79.58
704.83	0.00
704.96	0.00
705.10	14.04
705.23	74.90
>>>>>End Processed Spectral Data<<<<<
