SpectraSuite Data File
++++++++++++++++++++++++++++++++++++
Date: Fri Oct 04 12:13:37 GMT-05:00 2013
User: price-jones
Dark Spectrum Present: No
Reference Spectrum Present: No
Number of Sampled Component Spectra: 1
Spectrometers: USB2+H05261
Integration Time (usec): 10000 (USB2+H05261)
Spectra Averaged: 1 (USB2+H05261)
Boxcar Smoothing: 0 (USB2+H05261)
Correct for Electrical Dark: No (USB2+H05261)
Strobe/Lamp Enabled: No (USB2+H05261)
Correct for Detector Non-linearity: No (USB2+H05261)
Correct for Stray Light: No (USB2+H05261)
Number of Pixels in Processed Spectrum: 2048
>>>>>Begin Processed Spectral Data<<<<<
365.73	56.17
365.92	56.17
366.12	56.17
366.32	0.00
366.52	0.00
366.72	0.00
366.91	0.00
367.11	0.00
367.31	0.00
367.51	0.00
367.70	0.00
367.90	0.00
368.10	0.00
368.30	0.00
368.49	0.00
368.69	0.00
368.89	0.00
369.09	0.00
369.28	0.00
369.48	0.00
369.68	0.00
369.87	0.00
370.07	0.00
370.27	0.00
370.47	0.00
370.66	0.00
370.86	32.77
371.06	0.00
371.25	0.00
371.45	0.00
371.65	0.00
371.84	0.00
372.04	0.00
372.24	0.00
372.44	7.02
372.63	11.70
372.83	11.70
373.03	0.00
373.22	42.13
373.42	74.90
373.62	0.00
373.81	9.36
374.01	37.45
374.21	30.43
374.40	23.41
374.60	37.45
374.79	77.24
374.99	30.43
375.19	23.41
375.38	7.02
375.58	0.00
375.78	18.72
375.97	23.41
376.17	63.19
376.37	0.00
376.56	56.17
376.76	32.77
376.95	32.77
377.15	11.70
377.35	37.45
377.54	4.68
377.74	42.13
377.93	56.17
378.13	0.00
378.33	14.04
378.52	23.41
378.72	0.00
378.91	9.36
379.11	49.15
379.31	21.06
379.50	0.00
379.70	0.00
379.89	65.54
380.09	16.38
380.28	7.02
380.48	65.54
380.68	2.34
380.87	14.04
381.07	4.68
381.26	35.11
381.46	44.47
381.65	16.38
381.85	46.81
382.04	21.06
382.24	7.02
382.43	0.00
382.63	18.72
382.83	72.56
383.02	67.88
383.22	28.09
383.41	49.15
383.61	37.45
383.80	67.88
384.00	53.83
384.19	53.83
384.39	0.00
384.58	39.79
384.78	53.83
384.97	14.04
385.17	0.00
385.36	11.70
385.56	46.81
385.75	91.28
385.95	112.35
386.14	102.98
386.34	25.75
386.53	0.00
386.72	58.51
386.92	9.36
387.11	11.70
387.31	0.00
387.50	30.43
387.70	0.00
387.89	11.70
388.09	0.00
388.28	16.38
388.48	16.38
388.67	21.06
388.86	81.92
389.06	46.81
389.25	100.64
389.45	0.00
389.64	0.00
389.84	0.00
390.03	0.00
390.22	117.03
390.42	32.77
390.61	11.70
390.81	0.00
391.00	58.51
391.19	28.09
391.39	42.13
391.58	16.38
391.78	0.00
391.97	25.75
392.16	25.75
392.36	32.77
392.55	21.06
392.75	25.75
392.94	39.79
393.13	51.49
393.33	0.00
393.52	0.00
393.71	28.09
393.91	11.70
394.10	30.43
394.29	0.00
394.49	37.45
394.68	18.72
394.88	25.75
395.07	28.09
395.26	86.60
395.46	14.04
395.65	39.79
395.84	7.02
396.04	112.35
396.23	28.09
396.42	30.43
396.62	39.79
396.81	72.56
397.00	42.13
397.19	72.56
397.39	0.00
397.58	30.43
397.77	39.79
397.97	9.36
398.16	9.36
398.35	0.00
398.55	0.00
398.74	79.58
398.93	49.15
399.12	86.60
399.32	23.41
399.51	4.68
399.70	51.49
399.90	0.00
400.09	77.24
400.28	44.47
400.47	74.90
400.67	70.22
400.86	51.49
401.05	74.90
401.24	53.83
401.44	28.09
401.63	0.00
401.82	67.88
402.01	4.68
402.21	70.22
402.40	46.81
402.59	56.17
402.78	98.30
402.97	95.96
403.17	0.00
403.36	63.19
403.55	32.77
403.74	0.00
403.93	23.41
404.13	11.70
404.32	63.19
404.51	2.34
404.70	37.45
404.89	51.49
405.09	72.56
405.28	0.00
405.47	49.15
405.66	39.79
405.85	0.00
406.05	21.06
406.24	67.88
406.43	42.13
406.62	21.06
406.81	30.43
407.00	0.00
407.20	35.11
407.39	0.00
407.58	51.49
407.77	37.45
407.96	42.13
408.15	0.00
408.34	37.45
408.54	0.00
408.73	37.45
408.92	72.56
409.11	70.22
409.30	102.98
409.49	37.45
409.68	46.81
409.87	60.85
410.07	11.70
410.26	51.49
410.45	16.38
410.64	74.90
410.83	16.38
411.02	0.00
411.21	9.36
411.40	30.43
411.59	0.00
411.78	88.94
411.98	60.85
412.17	42.13
412.36	23.41
412.55	110.01
412.74	63.19
412.93	0.00
413.12	46.81
413.31	30.43
413.50	39.79
413.69	49.15
413.88	67.88
414.07	0.00
414.26	53.83
414.45	11.70
414.64	63.19
414.83	28.09
415.02	7.02
415.22	53.83
415.41	0.00
415.60	0.00
415.79	0.00
415.98	4.68
416.17	56.17
416.36	32.77
416.55	79.58
416.74	9.36
416.93	58.51
417.12	79.58
417.31	28.09
417.50	25.75
417.69	0.00
417.88	44.47
418.07	0.00
418.26	0.00
418.45	37.45
418.64	7.02
418.83	91.28
419.02	0.00
419.21	0.00
419.39	67.88
419.58	30.43
419.77	63.19
419.96	51.49
420.15	0.00
420.34	30.43
420.53	77.24
420.72	23.41
420.91	100.64
421.10	65.54
421.29	65.54
421.48	46.81
421.67	0.00
421.86	11.70
422.05	4.68
422.24	32.77
422.43	16.38
422.61	39.79
422.80	18.72
422.99	37.45
423.18	28.09
423.37	112.35
423.56	16.38
423.75	93.62
423.94	95.96
424.13	0.00
424.32	25.75
424.50	56.17
424.69	16.38
424.88	51.49
425.07	18.72
425.26	32.77
425.45	81.92
425.64	110.01
425.83	81.92
426.01	56.17
426.20	72.56
426.39	0.00
426.58	25.75
426.77	23.41
426.96	100.64
427.15	56.17
427.33	65.54
427.52	0.00
427.71	65.54
427.90	46.81
428.09	81.92
428.28	4.68
428.46	0.00
428.65	0.00
428.84	21.06
429.03	128.73
429.22	121.71
429.40	56.17
429.59	67.88
429.78	32.77
429.97	65.54
430.16	28.09
430.34	7.02
430.53	0.00
430.72	51.49
430.91	102.98
431.10	7.02
431.28	74.90
431.47	44.47
431.66	67.88
431.85	63.19
432.03	131.07
432.22	35.11
432.41	7.02
432.60	56.17
432.79	0.00
432.97	65.54
433.16	49.15
433.35	14.04
433.54	9.36
433.72	65.54
433.91	46.81
434.10	37.45
434.28	65.54
434.47	2.34
434.66	51.49
434.85	32.77
435.03	56.17
435.22	0.00
435.41	114.69
435.59	65.54
435.78	16.38
435.97	46.81
436.16	21.06
436.34	58.51
436.53	37.45
436.72	0.00
436.90	35.11
437.09	147.45
437.28	32.77
437.46	51.49
437.65	21.06
437.84	42.13
438.02	65.54
438.21	95.96
438.40	119.37
438.58	39.79
438.77	46.81
438.96	67.88
439.14	37.45
439.33	156.82
439.52	63.19
439.70	60.85
439.89	79.58
440.08	0.00
440.26	14.04
440.45	119.37
440.63	70.22
440.82	0.00
441.01	0.00
441.19	53.83
441.38	112.35
441.57	23.41
441.75	7.02
441.94	44.47
442.12	65.54
442.31	114.69
442.50	37.45
442.68	35.11
442.87	112.35
443.05	70.22
443.24	30.43
443.43	60.85
443.61	42.13
443.80	105.32
443.98	88.94
444.17	46.81
444.35	70.22
444.54	0.00
444.73	37.45
444.91	112.35
445.10	60.85
445.28	86.60
445.47	44.47
445.65	16.38
445.84	56.17
446.02	79.58
446.21	21.06
446.39	4.68
446.58	0.00
446.77	14.04
446.95	7.02
447.14	72.56
447.32	88.94
447.51	67.88
447.69	0.00
447.88	4.68
448.06	100.64
448.25	91.28
448.43	58.51
448.62	0.00
448.80	95.96
448.99	58.51
449.17	0.00
449.36	14.04
449.54	39.79
449.73	107.66
449.91	86.60
450.10	163.84
450.28	58.51
450.46	44.47
450.65	18.72
450.83	35.11
451.02	60.85
451.20	14.04
451.39	28.09
451.57	49.15
451.76	53.83
451.94	0.00
452.13	112.35
452.31	0.00
452.49	60.85
452.68	37.45
452.86	7.02
453.05	86.60
453.23	14.04
453.42	133.41
453.60	74.90
453.78	67.88
453.97	77.24
454.15	51.49
454.34	14.04
454.52	58.51
454.70	39.79
454.89	32.77
455.07	63.19
455.26	35.11
455.44	107.66
455.62	23.41
455.81	119.37
455.99	100.64
456.17	93.62
456.36	16.38
456.54	39.79
456.73	4.68
456.91	42.13
457.09	70.22
457.28	14.04
457.46	65.54
457.64	91.28
457.83	2.34
458.01	23.41
458.19	18.72
458.38	42.13
458.56	60.85
458.74	53.83
458.93	16.38
459.11	11.70
459.29	79.58
459.48	23.41
459.66	58.51
459.84	100.64
460.03	56.17
460.21	30.43
460.39	49.15
460.57	74.90
460.76	98.30
460.94	9.36
461.12	84.26
461.31	0.00
461.49	16.38
461.67	39.79
461.85	124.05
462.04	79.58
462.22	142.77
462.40	105.32
462.59	42.13
462.77	70.22
462.95	65.54
463.13	77.24
463.32	42.13
463.50	0.00
463.68	0.00
463.86	0.00
464.05	4.68
464.23	98.30
464.41	16.38
464.59	35.11
464.78	74.90
464.96	67.88
465.14	35.11
465.32	74.90
465.50	35.11
465.69	70.22
465.87	63.19
466.05	25.75
466.23	39.79
466.41	7.02
466.60	0.00
466.78	105.32
466.96	70.22
467.14	53.83
467.32	49.15
467.51	14.04
467.69	70.22
467.87	131.07
468.05	51.49
468.23	81.92
468.41	93.62
468.60	28.09
468.78	7.02
468.96	32.77
469.14	39.79
469.32	42.13
469.50	18.72
469.69	63.19
469.87	49.15
470.05	79.58
470.23	67.88
470.41	37.45
470.59	18.72
470.77	23.41
470.95	4.68
471.14	28.09
471.32	58.51
471.50	51.49
471.68	102.98
471.86	30.43
472.04	72.56
472.22	74.90
472.40	72.56
472.58	79.58
472.77	53.83
472.95	70.22
473.13	124.05
473.31	74.90
473.49	21.06
473.67	0.00
473.85	70.22
474.03	70.22
474.21	65.54
474.39	51.49
474.57	65.54
474.75	74.90
474.93	2.34
475.12	25.75
475.30	37.45
475.48	63.19
475.66	93.62
475.84	112.35
476.02	142.77
476.20	138.09
476.38	107.66
476.56	77.24
476.74	72.56
476.92	42.13
477.10	16.38
477.28	65.54
477.46	0.00
477.64	95.96
477.82	53.83
478.00	93.62
478.18	114.69
478.36	35.11
478.54	0.00
478.72	0.00
478.90	72.56
479.08	39.79
479.26	21.06
479.44	107.66
479.62	0.00
479.80	77.24
479.98	0.00
480.16	93.62
480.34	95.96
480.52	32.77
480.70	35.11
480.88	44.47
481.06	18.72
481.24	0.00
481.41	117.03
481.59	88.94
481.77	53.83
481.95	18.72
482.13	0.00
482.31	2.34
482.49	105.32
482.67	37.45
482.85	79.58
483.03	154.48
483.21	98.30
483.39	67.88
483.57	79.58
483.74	105.32
483.92	81.92
484.10	100.64
484.28	67.88
484.46	70.22
484.64	51.49
484.82	74.90
485.00	77.24
485.18	84.26
485.35	35.11
485.53	23.41
485.71	81.92
485.89	91.28
486.07	37.45
486.25	56.17
486.43	21.06
486.61	39.79
486.78	98.30
486.96	37.45
487.14	86.60
487.32	135.75
487.50	112.35
487.68	30.43
487.85	100.64
488.03	67.88
488.21	93.62
488.39	25.75
488.57	23.41
488.75	0.00
488.92	102.98
489.10	56.17
489.28	0.00
489.46	46.81
489.64	0.00
489.81	25.75
489.99	84.26
490.17	88.94
490.35	74.90
490.53	117.03
490.70	86.60
490.88	65.54
491.06	117.03
491.24	21.06
491.41	56.17
491.59	65.54
491.77	93.62
491.95	56.17
492.13	128.73
492.30	105.32
492.48	72.56
492.66	0.00
492.84	102.98
493.01	140.43
493.19	112.35
493.37	79.58
493.54	105.32
493.72	63.19
493.90	0.00
494.08	156.82
494.25	79.58
494.43	77.24
494.61	44.47
494.79	60.85
494.96	4.68
495.14	67.88
495.32	65.54
495.49	4.68
495.67	16.38
495.85	163.84
496.02	46.81
496.20	32.77
496.38	84.26
496.55	63.19
496.73	81.92
496.91	126.39
497.09	93.62
497.26	88.94
497.44	42.13
497.62	187.24
497.79	93.62
497.97	56.17
498.14	39.79
498.32	65.54
498.50	112.35
498.67	25.75
498.85	79.58
499.03	49.15
499.20	77.24
499.38	16.38
499.56	0.00
499.73	107.66
499.91	114.69
500.08	72.56
500.26	58.51
500.44	100.64
500.61	93.62
500.79	60.85
500.97	79.58
501.14	112.35
501.32	142.77
501.49	135.75
501.67	98.30
501.84	46.81
502.02	53.83
502.20	95.96
502.37	84.26
502.55	100.64
502.72	175.54
502.90	63.19
503.07	37.45
503.25	46.81
503.43	84.26
503.60	56.17
503.78	84.26
503.95	39.79
504.13	140.43
504.30	16.38
504.48	145.11
504.65	93.62
504.83	152.13
505.01	56.17
505.18	67.88
505.36	58.51
505.53	58.51
505.71	72.56
505.88	25.75
506.06	128.73
506.23	53.83
506.41	79.58
506.58	84.26
506.76	77.24
506.93	121.71
507.11	58.51
507.28	74.90
507.46	88.94
507.63	81.92
507.81	114.69
507.98	79.58
508.16	95.96
508.33	11.70
508.50	95.96
508.68	187.24
508.85	133.41
509.03	49.15
509.20	51.49
509.38	91.28
509.55	58.51
509.73	145.11
509.90	145.11
510.08	74.90
510.25	74.90
510.42	30.43
510.60	98.30
510.77	77.24
510.95	112.35
511.12	119.37
511.30	95.96
511.47	81.92
511.64	30.43
511.82	67.88
511.99	126.39
512.17	74.90
512.34	102.98
512.51	51.49
512.69	98.30
512.86	65.54
513.04	53.83
513.21	58.51
513.38	128.73
513.56	105.32
513.73	126.39
513.90	63.19
514.08	74.90
514.25	102.98
514.43	56.17
514.60	25.75
514.77	53.83
514.95	117.03
515.12	44.47
515.29	74.90
515.47	91.28
515.64	98.30
515.81	131.07
515.99	95.96
516.16	117.03
516.33	39.79
516.51	56.17
516.68	77.24
516.85	72.56
517.03	105.32
517.20	133.41
517.37	0.00
517.54	86.60
517.72	70.22
517.89	65.54
518.06	98.30
518.24	93.62
518.41	0.00
518.58	60.85
518.75	114.69
518.93	16.38
519.10	23.41
519.27	105.32
519.45	142.77
519.62	56.17
519.79	63.19
519.96	95.96
520.14	56.17
520.31	135.75
520.48	112.35
520.65	86.60
520.83	135.75
521.00	138.09
521.17	95.96
521.34	65.54
521.52	93.62
521.69	35.11
521.86	18.72
522.03	112.35
522.20	102.98
522.38	100.64
522.55	58.51
522.72	88.94
522.89	91.28
523.07	77.24
523.24	88.94
523.41	53.83
523.58	67.88
523.75	93.62
523.92	117.03
524.10	79.58
524.27	117.03
524.44	128.73
524.61	39.79
524.78	98.30
524.96	65.54
525.13	110.01
525.30	21.06
525.47	21.06
525.64	91.28
525.81	126.39
525.98	128.73
526.16	112.35
526.33	39.79
526.50	126.39
526.67	30.43
526.84	74.90
527.01	46.81
527.18	86.60
527.36	117.03
527.53	98.30
527.70	86.60
527.87	105.32
528.04	46.81
528.21	39.79
528.38	65.54
528.55	86.60
528.72	126.39
528.89	79.58
529.07	91.28
529.24	81.92
529.41	147.45
529.58	72.56
529.75	79.58
529.92	79.58
530.09	93.62
530.26	58.51
530.43	105.32
530.60	117.03
530.77	107.66
530.94	107.66
531.11	86.60
531.28	117.03
531.46	196.60
531.63	91.28
531.80	30.43
531.97	70.22
532.14	84.26
532.31	168.52
532.48	110.01
532.65	95.96
532.82	100.64
532.99	72.56
533.16	72.56
533.33	98.30
533.50	63.19
533.67	74.90
533.84	16.38
534.01	86.60
534.18	74.90
534.35	0.00
534.52	91.28
534.69	44.47
534.86	79.58
535.03	114.69
535.20	60.85
535.37	93.62
535.54	88.94
535.71	39.79
535.88	74.90
536.05	133.41
536.22	114.69
536.38	81.92
536.55	46.81
536.72	49.15
536.89	128.73
537.06	65.54
537.23	25.75
537.40	49.15
537.57	72.56
537.74	95.96
537.91	84.26
538.08	91.28
538.25	93.62
538.42	0.00
538.59	49.15
538.75	142.77
538.92	35.11
539.09	70.22
539.26	112.35
539.43	107.66
539.60	170.86
539.77	60.85
539.94	16.38
540.11	51.49
540.28	175.54
540.44	124.05
540.61	77.24
540.78	23.41
540.95	81.92
541.12	138.09
541.29	88.94
541.46	117.03
541.62	112.35
541.79	110.01
541.96	58.51
542.13	110.01
542.30	133.41
542.47	86.60
542.63	81.92
542.80	163.84
542.97	95.96
543.14	117.03
543.31	112.35
543.48	49.15
543.64	95.96
543.81	51.49
543.98	39.79
544.15	23.41
544.32	84.26
544.48	21.06
544.65	112.35
544.82	56.17
544.99	44.47
545.16	117.03
545.32	84.26
545.49	53.83
545.66	18.72
545.83	51.49
546.00	53.83
546.16	18.72
546.33	128.73
546.50	53.83
546.67	81.92
546.83	23.41
547.00	9.36
547.17	126.39
547.34	100.64
547.50	138.09
547.67	112.35
547.84	95.96
548.00	72.56
548.17	114.69
548.34	145.11
548.51	58.51
548.67	25.75
548.84	121.71
549.01	65.54
549.18	98.30
549.34	145.11
549.51	112.35
549.68	93.62
549.84	35.11
550.01	86.60
550.18	93.62
550.34	102.98
550.51	114.69
550.68	86.60
550.84	67.88
551.01	70.22
551.18	124.05
551.34	72.56
551.51	117.03
551.68	81.92
551.84	124.05
552.01	79.58
552.18	91.28
552.34	51.49
552.51	79.58
552.68	86.60
552.84	147.45
553.01	58.51
553.18	70.22
553.34	39.79
553.51	107.66
553.67	25.75
553.84	140.43
554.01	60.85
554.17	72.56
554.34	124.05
554.51	152.13
554.67	51.49
554.84	124.05
555.00	39.79
555.17	79.58
555.33	23.41
555.50	72.56
555.67	37.45
555.83	67.88
556.00	65.54
556.16	133.41
556.33	65.54
556.50	49.15
556.66	72.56
556.83	65.54
556.99	46.81
557.16	81.92
557.32	124.05
557.49	152.13
557.65	51.49
557.82	100.64
557.98	51.49
558.15	88.94
558.32	72.56
558.48	72.56
558.65	37.45
558.81	140.43
558.98	98.30
559.14	23.41
559.31	145.11
559.47	84.26
559.64	23.41
559.80	14.04
559.97	133.41
560.13	135.75
560.30	79.58
560.46	32.77
560.63	100.64
560.79	88.94
560.96	32.77
561.12	30.43
561.29	112.35
561.45	72.56
561.61	35.11
561.78	98.30
561.94	65.54
562.11	72.56
562.27	102.98
562.44	84.26
562.60	84.26
562.77	88.94
562.93	81.92
563.10	74.90
563.26	79.58
563.42	72.56
563.59	110.01
563.75	88.94
563.92	93.62
564.08	74.90
564.24	65.54
564.41	110.01
564.57	88.94
564.74	9.36
564.90	105.32
565.07	56.17
565.23	81.92
565.39	86.60
565.56	39.79
565.72	72.56
565.88	91.28
566.05	124.05
566.21	88.94
566.38	74.90
566.54	56.17
566.70	128.73
566.87	93.62
567.03	74.90
567.19	81.92
567.36	44.47
567.52	46.81
567.68	74.90
567.85	37.45
568.01	74.90
568.17	84.26
568.34	93.62
568.50	140.43
568.66	91.28
568.83	81.92
568.99	98.30
569.15	95.96
569.32	88.94
569.48	131.07
569.64	4.68
569.81	44.47
569.97	72.56
570.13	102.98
570.30	56.17
570.46	133.41
570.62	9.36
570.78	58.51
570.95	28.09
571.11	88.94
571.27	51.49
571.43	51.49
571.60	74.90
571.76	102.98
571.92	53.83
572.09	102.98
572.25	51.49
572.41	128.73
572.57	42.13
572.74	42.13
572.90	23.41
573.06	91.28
573.22	14.04
573.38	86.60
573.55	112.35
573.71	44.47
573.87	95.96
574.03	11.70
574.20	4.68
574.36	0.00
574.52	53.83
574.68	28.09
574.84	67.88
575.01	102.98
575.17	7.02
575.33	105.32
575.49	91.28
575.65	100.64
575.82	91.28
575.98	86.60
576.14	91.28
576.30	21.06
576.46	21.06
576.62	98.30
576.79	154.48
576.95	35.11
577.11	39.79
577.27	152.13
577.43	98.30
577.59	9.36
577.75	84.26
577.92	56.17
578.08	53.83
578.24	107.66
578.40	105.32
578.56	51.49
578.72	135.75
578.88	98.30
579.04	46.81
579.21	70.22
579.37	79.58
579.53	58.51
579.69	91.28
579.85	88.94
580.01	126.39
580.17	105.32
580.33	46.81
580.49	39.79
580.65	30.43
580.82	35.11
580.98	128.73
581.14	56.17
581.30	2.34
581.46	11.70
581.62	105.32
581.78	28.09
581.94	60.85
582.10	67.88
582.26	49.15
582.42	23.41
582.58	42.13
582.74	72.56
582.90	72.56
583.06	37.45
583.22	81.92
583.38	7.02
583.54	65.54
583.70	93.62
583.86	107.66
584.02	39.79
584.18	35.11
584.34	84.26
584.50	81.92
584.66	74.90
584.82	39.79
584.98	88.94
585.14	74.90
585.30	21.06
585.46	102.98
585.62	84.26
585.78	46.81
585.94	28.09
586.10	39.79
586.26	72.56
586.42	91.28
586.58	88.94
586.74	91.28
586.90	102.98
587.06	32.77
587.22	4.68
587.38	65.54
587.54	56.17
587.70	39.79
587.86	84.26
588.02	49.15
588.18	70.22
588.34	2.34
588.49	21.06
588.65	77.24
588.81	0.00
588.97	63.19
589.13	44.47
589.29	44.47
589.45	2.34
589.61	11.70
589.77	42.13
589.93	58.51
590.08	46.81
590.24	72.56
590.40	84.26
590.56	58.51
590.72	98.30
590.88	81.92
591.04	42.13
591.20	84.26
591.35	9.36
591.51	161.50
591.67	133.41
591.83	2.34
591.99	44.47
592.15	67.88
592.31	112.35
592.46	119.37
592.62	107.66
592.78	98.30
592.94	46.81
593.10	70.22
593.26	110.01
593.41	53.83
593.57	77.24
593.73	72.56
593.89	39.79
594.05	44.47
594.20	79.58
594.36	131.07
594.52	79.58
594.68	0.00
594.84	2.34
594.99	11.70
595.15	72.56
595.31	67.88
595.47	70.22
595.62	67.88
595.78	60.85
595.94	0.00
596.10	70.22
596.25	65.54
596.41	11.70
596.57	56.17
596.73	67.88
596.88	30.43
597.04	58.51
597.20	49.15
597.36	131.07
597.51	86.60
597.67	56.17
597.83	65.54
597.99	0.00
598.14	58.51
598.30	56.17
598.46	91.28
598.61	42.13
598.77	32.77
598.93	44.47
599.09	16.38
599.24	37.45
599.40	77.24
599.56	159.16
599.71	163.84
599.87	51.49
600.03	7.02
600.18	110.01
600.34	105.32
600.50	156.82
600.65	102.98
600.81	51.49
600.97	42.13
601.12	95.96
601.28	77.24
601.44	67.88
601.59	91.28
601.75	100.64
601.91	37.45
602.06	46.81
602.22	4.68
602.37	100.64
602.53	65.54
602.69	67.88
602.84	23.41
603.00	77.24
603.16	107.66
603.31	117.03
603.47	128.73
603.62	79.58
603.78	147.45
603.94	35.11
604.09	95.96
604.25	0.00
604.40	56.17
604.56	63.19
604.71	102.98
604.87	11.70
605.03	65.54
605.18	74.90
605.34	39.79
605.49	39.79
605.65	56.17
605.80	93.62
605.96	51.49
606.12	9.36
606.27	44.47
606.43	98.30
606.58	110.01
606.74	112.35
606.89	35.11
607.05	60.85
607.20	117.03
607.36	102.98
607.51	140.43
607.67	79.58
607.82	81.92
607.98	63.19
608.13	9.36
608.29	67.88
608.44	100.64
608.60	65.54
608.75	4.68
608.91	93.62
609.06	102.98
609.22	102.98
609.37	84.26
609.53	93.62
609.68	77.24
609.84	63.19
609.99	88.94
610.15	77.24
610.30	84.26
610.46	37.45
610.61	2.34
610.76	149.79
610.92	37.45
611.07	53.83
611.23	70.22
611.38	0.00
611.54	18.72
611.69	51.49
611.84	37.45
612.00	30.43
612.15	60.85
612.31	42.13
612.46	11.70
612.62	81.92
612.77	51.49
612.92	53.83
613.08	88.94
613.23	46.81
613.39	23.41
613.54	220.01
613.69	84.26
613.85	28.09
614.00	11.70
614.15	102.98
614.31	77.24
614.46	77.24
614.62	117.03
614.77	119.37
614.92	126.39
615.08	117.03
615.23	51.49
615.38	30.43
615.54	98.30
615.69	0.00
615.84	58.51
616.00	60.85
616.15	0.00
616.30	77.24
616.46	84.26
616.61	32.77
616.76	67.88
616.92	72.56
617.07	51.49
617.22	21.06
617.37	102.98
617.53	58.51
617.68	53.83
617.83	60.85
617.99	44.47
618.14	58.51
618.29	28.09
618.45	88.94
618.60	53.83
618.75	44.47
618.90	49.15
619.06	58.51
619.21	49.15
619.36	46.81
619.51	9.36
619.67	14.04
619.82	124.05
619.97	124.05
620.12	88.94
620.28	58.51
620.43	60.85
620.58	37.45
620.73	18.72
620.89	67.88
621.04	161.50
621.19	44.47
621.34	102.98
621.49	0.00
621.65	91.28
621.80	81.92
621.95	46.81
622.10	86.60
622.25	91.28
622.41	56.17
622.56	0.00
622.71	51.49
622.86	133.41
623.01	14.04
623.16	133.41
623.32	53.83
623.47	35.11
623.62	49.15
623.77	58.51
623.92	65.54
624.07	105.32
624.23	147.45
624.38	63.19
624.53	37.45
624.68	49.15
624.83	35.11
624.98	14.04
625.13	63.19
625.29	128.73
625.44	117.03
625.59	81.92
625.74	51.49
625.89	91.28
626.04	91.28
626.19	28.09
626.34	100.64
626.49	0.00
626.65	60.85
626.80	0.00
626.95	63.19
627.10	70.22
627.25	0.00
627.40	79.58
627.55	98.30
627.70	28.09
627.85	110.01
628.00	0.00
628.15	51.49
628.30	105.32
628.45	9.36
628.60	28.09
628.76	88.94
628.91	46.81
629.06	0.00
629.21	65.54
629.36	39.79
629.51	51.49
629.66	53.83
629.81	77.24
629.96	18.72
630.11	98.30
630.26	14.04
630.41	30.43
630.56	91.28
630.71	84.26
630.86	154.48
631.01	84.26
631.16	14.04
631.31	28.09
631.46	46.81
631.61	86.60
631.76	63.19
631.91	25.75
632.06	107.66
632.21	91.28
632.36	93.62
632.51	58.51
632.66	37.45
632.81	100.64
632.96	102.98
633.10	70.22
633.25	35.11
633.40	65.54
633.55	11.70
633.70	14.04
633.85	84.26
634.00	0.00
634.15	46.81
634.30	18.72
634.45	121.71
634.60	18.72
634.75	7.02
634.90	16.38
635.05	42.13
635.19	100.64
635.34	74.90
635.49	102.98
635.64	4.68
635.79	77.24
635.94	95.96
636.09	63.19
636.24	42.13
636.39	65.54
636.53	14.04
636.68	28.09
636.83	95.96
636.98	84.26
637.13	74.90
637.28	72.56
637.43	0.00
637.57	39.79
637.72	0.00
637.87	65.54
638.02	72.56
638.17	35.11
638.32	117.03
638.46	60.85
638.61	42.13
638.76	77.24
638.91	39.79
639.06	39.79
639.20	67.88
639.35	25.75
639.50	112.35
639.65	44.47
639.80	9.36
639.94	51.49
640.09	102.98
640.24	11.70
640.39	77.24
640.54	79.58
640.68	126.39
640.83	84.26
640.98	46.81
641.13	102.98
641.27	30.43
641.42	28.09
641.57	63.19
641.72	51.49
641.86	2.34
642.01	42.13
642.16	93.62
642.31	63.19
642.45	79.58
642.60	110.01
642.75	117.03
642.90	84.26
643.04	53.83
643.19	133.41
643.34	0.00
643.48	72.56
643.63	93.62
643.78	0.00
643.93	0.00
644.07	84.26
644.22	88.94
644.37	77.24
644.51	32.77
644.66	81.92
644.81	93.62
644.95	72.56
645.10	95.96
645.25	44.47
645.39	0.00
645.54	81.92
645.69	67.88
645.83	91.28
645.98	56.17
646.13	91.28
646.27	9.36
646.42	114.69
646.57	58.51
646.71	65.54
646.86	46.81
647.00	37.45
647.15	58.51
647.30	49.15
647.44	74.90
647.59	70.22
647.74	7.02
647.88	0.00
648.03	112.35
648.17	0.00
648.32	93.62
648.47	67.88
648.61	58.51
648.76	49.15
648.90	124.05
649.05	0.00
649.20	21.06
649.34	70.22
649.49	51.49
649.63	53.83
649.78	58.51
649.92	39.79
650.07	124.05
650.21	93.62
650.36	72.56
650.51	95.96
650.65	70.22
650.80	44.47
650.94	81.92
651.09	56.17
651.23	114.69
651.38	112.35
651.52	79.58
651.67	42.13
651.81	53.83
651.96	138.09
652.10	14.04
652.25	49.15
652.39	46.81
652.54	112.35
652.68	84.26
652.83	98.30
652.97	86.60
653.12	23.41
653.26	7.02
653.41	46.81
653.55	107.66
653.70	0.00
653.84	98.30
653.99	72.56
654.13	11.70
654.27	102.98
654.42	102.98
654.56	28.09
654.71	65.54
654.85	42.13
655.00	39.79
655.14	0.00
655.29	7.02
655.43	37.45
655.57	81.92
655.72	0.00
655.86	32.77
656.01	28.09
656.15	9.36
656.30	98.30
656.44	18.72
656.58	0.00
656.73	30.43
656.87	110.01
657.01	44.47
657.16	79.58
657.30	65.54
657.45	86.60
657.59	21.06
657.73	98.30
657.88	30.43
658.02	37.45
658.16	23.41
658.31	81.92
658.45	107.66
658.60	4.68
658.74	44.47
658.88	49.15
659.03	42.13
659.17	121.71
659.31	32.77
659.46	84.26
659.60	98.30
659.74	2.34
659.89	84.26
660.03	49.15
660.17	7.02
660.32	112.35
660.46	77.24
660.60	39.79
660.74	121.71
660.89	67.88
661.03	39.79
661.17	0.00
661.32	25.75
661.46	0.00
661.60	0.00
661.74	70.22
661.89	88.94
662.03	147.45
662.17	32.77
662.31	32.77
662.46	16.38
662.60	53.83
662.74	53.83
662.88	37.45
663.03	32.77
663.17	21.06
663.31	46.81
663.45	18.72
663.60	135.75
663.74	30.43
663.88	140.43
664.02	102.98
664.17	112.35
664.31	70.22
664.45	121.71
664.59	77.24
664.73	65.54
664.88	107.66
665.02	0.00
665.16	121.71
665.30	49.15
665.44	81.92
665.59	28.09
665.73	72.56
665.87	0.00
666.01	0.00
666.15	39.79
666.29	93.62
666.44	44.47
666.58	0.00
666.72	39.79
666.86	79.58
667.00	16.38
667.14	42.13
667.28	86.60
667.43	39.79
667.57	28.09
667.71	56.17
667.85	102.98
667.99	0.00
668.13	138.09
668.27	67.88
668.41	23.41
668.56	86.60
668.70	53.83
668.84	63.19
668.98	93.62
669.12	25.75
669.26	72.56
669.40	112.35
669.54	21.06
669.68	35.11
669.82	65.54
669.96	42.13
670.10	86.60
670.25	128.73
670.39	91.28
670.53	4.68
670.67	44.47
670.81	0.00
670.95	65.54
671.09	23.41
671.23	63.19
671.37	0.00
671.51	0.00
671.65	102.98
671.79	9.36
671.93	53.83
672.07	84.26
672.21	91.28
672.35	51.49
672.49	72.56
672.63	53.83
672.77	32.77
672.91	117.03
673.05	105.32
673.19	46.81
673.33	79.58
673.47	46.81
673.61	42.13
673.75	77.24
673.89	0.00
674.03	28.09
674.17	39.79
674.31	110.01
674.45	67.88
674.59	102.98
674.73	51.49
674.87	107.66
675.01	107.66
675.15	23.41
675.29	0.00
675.43	93.62
675.56	9.36
675.70	37.45
675.84	93.62
675.98	81.92
676.12	42.13
676.26	32.77
676.40	77.24
676.54	46.81
676.68	0.00
676.82	39.79
676.96	0.00
677.10	51.49
677.23	53.83
677.37	21.06
677.51	77.24
677.65	121.71
677.79	25.75
677.93	46.81
678.07	25.75
678.21	0.00
678.34	42.13
678.48	84.26
678.62	100.64
678.76	0.00
678.90	25.75
679.04	0.00
679.18	131.07
679.31	60.85
679.45	0.00
679.59	9.36
679.73	42.13
679.87	30.43
680.00	70.22
680.14	14.04
680.28	18.72
680.42	74.90
680.56	32.77
680.70	42.13
680.83	58.51
680.97	65.54
681.11	25.75
681.25	53.83
681.39	72.56
681.52	0.00
681.66	70.22
681.80	56.17
681.94	86.60
682.07	0.00
682.21	9.36
682.35	72.56
682.49	53.83
682.62	42.13
682.76	11.70
682.90	0.00
683.04	91.28
683.17	49.15
683.31	2.34
683.45	60.85
683.59	49.15
683.72	4.68
683.86	93.62
684.00	0.00
684.13	11.70
684.27	152.13
684.41	0.00
684.55	110.01
684.68	25.75
684.82	25.75
684.96	28.09
685.09	28.09
685.23	37.45
685.37	0.00
685.50	0.00
685.64	16.38
685.78	46.81
685.91	11.70
686.05	35.11
686.19	28.09
686.32	14.04
686.46	0.00
686.60	42.13
686.73	21.06
686.87	23.41
687.01	18.72
687.14	16.38
687.28	95.96
687.42	0.00
687.55	74.90
687.69	49.15
687.82	30.43
687.96	65.54
688.10	21.06
688.23	30.43
688.37	49.15
688.50	100.64
688.64	49.15
688.78	2.34
688.91	46.81
689.05	58.51
689.18	0.00
689.32	65.54
689.46	72.56
689.59	9.36
689.73	14.04
689.86	39.79
690.00	60.85
690.13	46.81
690.27	0.00
690.41	42.13
690.54	21.06
690.68	14.04
690.81	86.60
690.95	67.88
691.08	91.28
691.22	65.54
691.35	23.41
691.49	28.09
691.62	2.34
691.76	84.26
691.89	30.43
692.03	63.19
692.16	35.11
692.30	11.70
692.43	77.24
692.57	7.02
692.70	51.49
692.84	0.00
692.97	42.13
693.11	0.00
693.24	46.81
693.38	4.68
693.51	7.02
693.65	23.41
693.78	39.79
693.92	70.22
694.05	21.06
694.19	46.81
694.32	37.45
694.45	84.26
694.59	86.60
694.72	0.00
694.86	37.45
694.99	60.85
695.13	91.28
695.26	18.72
695.39	51.49
695.53	49.15
695.66	58.51
695.80	0.00
695.93	60.85
696.07	49.15
696.20	81.92
696.33	44.47
696.47	63.19
696.60	53.83
696.73	16.38
696.87	21.06
697.00	0.00
697.14	86.60
697.27	65.54
697.40	56.17
697.54	126.39
697.67	30.43
697.80	4.68
697.94	0.00
698.07	25.75
698.21	28.09
698.34	67.88
698.47	37.45
698.61	107.66
698.74	2.34
698.87	0.00
699.01	23.41
699.14	65.54
699.27	51.49
699.40	0.00
699.54	105.32
699.67	74.90
699.80	37.45
699.94	0.00
700.07	67.88
700.20	42.13
700.34	35.11
700.47	60.85
700.60	39.79
700.73	65.54
700.87	72.56
701.00	77.24
701.13	28.09
701.26	14.04
701.40	0.00
701.53	107.66
701.66	9.36
701.79	0.00
701.93	23.41
702.06	56.17
702.19	56.17
702.32	53.83
702.46	35.11
702.59	65.54
702.72	72.56
702.85	0.00
702.99	0.00
703.12	37.45
703.25	35.11
703.38	67.88
703.51	51.49
703.65	51.49
703.78	65.54
703.91	0.00
704.04	18.72
704.17	81.92
704.31	0.00
704.44	25.75
704.57	65.54
704.70	51.49
704.83	25.75
704.96	4.68
705.10	35.11
705.23	65.54
>>>>>End Processed Spectral Data<<<<<
