SpectraSuite Data File
++++++++++++++++++++++++++++++++++++
Date: Fri Oct 04 12:13:27 GMT-05:00 2013
User: price-jones
Dark Spectrum Present: No
Reference Spectrum Present: No
Number of Sampled Component Spectra: 1
Spectrometers: USB2+H05261
Integration Time (usec): 10000 (USB2+H05261)
Spectra Averaged: 1 (USB2+H05261)
Boxcar Smoothing: 0 (USB2+H05261)
Correct for Electrical Dark: No (USB2+H05261)
Strobe/Lamp Enabled: No (USB2+H05261)
Correct for Detector Non-linearity: No (USB2+H05261)
Correct for Stray Light: No (USB2+H05261)
Number of Pixels in Processed Spectrum: 2048
>>>>>Begin Processed Spectral Data<<<<<
365.73	0.00
365.92	0.00
366.12	0.00
366.32	0.00
366.52	0.00
366.72	0.00
366.91	0.00
367.11	0.00
367.31	0.00
367.51	0.00
367.70	0.00
367.90	0.00
368.10	0.00
368.30	0.00
368.49	0.00
368.69	0.00
368.89	0.00
369.09	0.00
369.28	0.00
369.48	0.00
369.68	0.00
369.87	0.00
370.07	0.00
370.27	14.04
370.47	0.00
370.66	0.00
370.86	0.00
371.06	0.00
371.25	0.00
371.45	11.70
371.65	0.00
371.84	0.00
372.04	0.00
372.24	2.34
372.44	0.00
372.63	30.43
372.83	18.72
373.03	44.47
373.22	46.81
373.42	0.00
373.62	25.75
373.81	39.79
374.01	58.51
374.21	32.77
374.40	42.13
374.60	72.56
374.79	63.19
374.99	37.45
375.19	0.00
375.38	100.64
375.58	46.81
375.78	32.77
375.97	25.75
376.17	74.90
376.37	11.70
376.56	2.34
376.76	21.06
376.95	21.06
377.15	0.00
377.35	0.00
377.54	0.00
377.74	28.09
377.93	18.72
378.13	0.00
378.33	65.54
378.52	0.00
378.72	49.15
378.91	7.02
379.11	0.00
379.31	2.34
379.50	32.77
379.70	0.00
379.89	46.81
380.09	0.00
380.28	9.36
380.48	0.00
380.68	0.00
380.87	95.96
381.07	0.00
381.26	0.00
381.46	28.09
381.65	28.09
381.85	0.00
382.04	0.00
382.24	0.00
382.43	35.11
382.63	0.00
382.83	11.70
383.02	18.72
383.22	0.00
383.41	25.75
383.61	23.41
383.80	7.02
384.00	2.34
384.19	2.34
384.39	42.13
384.58	70.22
384.78	32.77
384.97	74.90
385.17	37.45
385.36	7.02
385.56	0.00
385.75	72.56
385.95	74.90
386.14	0.00
386.34	7.02
386.53	0.00
386.72	0.00
386.92	0.00
387.11	51.49
387.31	51.49
387.50	0.00
387.70	9.36
387.89	39.79
388.09	32.77
388.28	0.00
388.48	25.75
388.67	2.34
388.86	79.58
389.06	0.00
389.25	4.68
389.45	18.72
389.64	0.00
389.84	4.68
390.03	39.79
390.22	0.00
390.42	0.00
390.61	86.60
390.81	60.85
391.00	28.09
391.19	39.79
391.39	9.36
391.58	2.34
391.78	39.79
391.97	28.09
392.16	58.51
392.36	0.00
392.55	86.60
392.75	14.04
392.94	0.00
393.13	0.00
393.33	49.15
393.52	0.00
393.71	0.00
393.91	2.34
394.10	35.11
394.29	7.02
394.49	102.98
394.68	51.49
394.88	25.75
395.07	46.81
395.26	21.06
395.46	32.77
395.65	88.94
395.84	77.24
396.04	0.00
396.23	0.00
396.42	0.00
396.62	39.79
396.81	39.79
397.00	0.00
397.19	88.94
397.39	49.15
397.58	74.90
397.77	70.22
397.97	0.00
398.16	42.13
398.35	14.04
398.55	30.43
398.74	0.00
398.93	0.00
399.12	28.09
399.32	0.00
399.51	21.06
399.70	9.36
399.90	4.68
400.09	30.43
400.28	35.11
400.47	14.04
400.67	0.00
400.86	0.00
401.05	0.00
401.24	51.49
401.44	30.43
401.63	0.00
401.82	21.06
402.01	23.41
402.21	25.75
402.40	0.00
402.59	30.43
402.78	16.38
402.97	9.36
403.17	30.43
403.36	0.00
403.55	0.00
403.74	23.41
403.93	0.00
404.13	0.00
404.32	46.81
404.51	39.79
404.70	0.00
404.89	44.47
405.09	14.04
405.28	91.28
405.47	0.00
405.66	102.98
405.85	77.24
406.05	42.13
406.24	0.00
406.43	0.00
406.62	0.00
406.81	60.85
407.00	16.38
407.20	4.68
407.39	32.77
407.58	35.11
407.77	7.02
407.96	46.81
408.15	18.72
408.34	49.15
408.54	16.38
408.73	23.41
408.92	53.83
409.11	9.36
409.30	74.90
409.49	35.11
409.68	0.00
409.87	9.36
410.07	70.22
410.26	14.04
410.45	91.28
410.64	79.58
410.83	0.00
411.02	58.51
411.21	56.17
411.40	21.06
411.59	79.58
411.78	39.79
411.98	67.88
412.17	4.68
412.36	16.38
412.55	0.00
412.74	18.72
412.93	112.35
413.12	0.00
413.31	37.45
413.50	37.45
413.69	81.92
413.88	11.70
414.07	0.00
414.26	74.90
414.45	7.02
414.64	18.72
414.83	110.01
415.02	39.79
415.22	0.00
415.41	11.70
415.60	2.34
415.79	0.00
415.98	21.06
416.17	14.04
416.36	63.19
416.55	2.34
416.74	21.06
416.93	16.38
417.12	30.43
417.31	0.00
417.50	0.00
417.69	30.43
417.88	42.13
418.07	35.11
418.26	0.00
418.45	0.00
418.64	49.15
418.83	53.83
419.02	18.72
419.21	37.45
419.39	0.00
419.58	30.43
419.77	4.68
419.96	21.06
420.15	0.00
420.34	35.11
420.53	0.00
420.72	98.30
420.91	21.06
421.10	39.79
421.29	28.09
421.48	32.77
421.67	49.15
421.86	100.64
422.05	25.75
422.24	18.72
422.43	9.36
422.61	91.28
422.80	91.28
422.99	14.04
423.18	0.00
423.37	0.00
423.56	0.00
423.75	35.11
423.94	39.79
424.13	0.00
424.32	65.54
424.50	32.77
424.69	23.41
424.88	46.81
425.07	53.83
425.26	0.00
425.45	14.04
425.64	30.43
425.83	30.43
426.01	35.11
426.20	28.09
426.39	84.26
426.58	67.88
426.77	21.06
426.96	30.43
427.15	0.00
427.33	4.68
427.52	72.56
427.71	72.56
427.90	42.13
428.09	14.04
428.28	0.00
428.46	0.00
428.65	51.49
428.84	49.15
429.03	63.19
429.22	0.00
429.40	35.11
429.59	18.72
429.78	72.56
429.97	77.24
430.16	0.00
430.34	11.70
430.53	39.79
430.72	35.11
430.91	88.94
431.10	25.75
431.28	2.34
431.47	9.36
431.66	77.24
431.85	0.00
432.03	0.00
432.22	21.06
432.41	0.00
432.60	23.41
432.79	21.06
432.97	37.45
433.16	21.06
433.35	0.00
433.54	42.13
433.72	9.36
433.91	0.00
434.10	9.36
434.28	2.34
434.47	0.00
434.66	60.85
434.85	65.54
435.03	14.04
435.22	42.13
435.41	39.79
435.59	77.24
435.78	51.49
435.97	18.72
436.16	0.00
436.34	84.26
436.53	18.72
436.72	88.94
436.90	11.70
437.09	0.00
437.28	0.00
437.46	42.13
437.65	18.72
437.84	39.79
438.02	4.68
438.21	35.11
438.40	0.00
438.58	63.19
438.77	88.94
438.96	0.00
439.14	44.47
439.33	114.69
439.52	0.00
439.70	79.58
439.89	56.17
440.08	42.13
440.26	32.77
440.45	105.32
440.63	63.19
440.82	67.88
441.01	58.51
441.19	14.04
441.38	63.19
441.57	23.41
441.75	0.00
441.94	88.94
442.12	37.45
442.31	0.00
442.50	102.98
442.68	53.83
442.87	16.38
443.05	23.41
443.24	0.00
443.43	60.85
443.61	58.51
443.80	63.19
443.98	21.06
444.17	0.00
444.35	4.68
444.54	30.43
444.73	21.06
444.91	7.02
445.10	46.81
445.28	65.54
445.47	0.00
445.65	110.01
445.84	2.34
446.02	9.36
446.21	58.51
446.39	9.36
446.58	21.06
446.77	35.11
446.95	23.41
447.14	0.00
447.32	21.06
447.51	63.19
447.69	28.09
447.88	28.09
448.06	56.17
448.25	30.43
448.43	32.77
448.62	0.00
448.80	0.00
448.99	16.38
449.17	23.41
449.36	16.38
449.54	32.77
449.73	14.04
449.91	53.83
450.10	46.81
450.28	0.00
450.46	107.66
450.65	0.00
450.83	51.49
451.02	42.13
451.20	72.56
451.39	0.00
451.57	98.30
451.76	49.15
451.94	86.60
452.13	65.54
452.31	100.64
452.49	49.15
452.68	42.13
452.86	56.17
453.05	21.06
453.23	37.45
453.42	28.09
453.60	81.92
453.78	63.19
453.97	79.58
454.15	93.62
454.34	0.00
454.52	7.02
454.70	0.00
454.89	30.43
455.07	0.00
455.26	74.90
455.44	72.56
455.62	0.00
455.81	23.41
455.99	70.22
456.17	79.58
456.36	21.06
456.54	25.75
456.73	44.47
456.91	21.06
457.09	25.75
457.28	67.88
457.46	4.68
457.64	84.26
457.83	23.41
458.01	0.00
458.19	135.75
458.38	28.09
458.56	72.56
458.74	0.00
458.93	60.85
459.11	95.96
459.29	21.06
459.48	56.17
459.66	32.77
459.84	11.70
460.03	63.19
460.21	63.19
460.39	46.81
460.57	25.75
460.76	39.79
460.94	53.83
461.12	56.17
461.31	0.00
461.49	4.68
461.67	23.41
461.85	56.17
462.04	0.00
462.22	74.90
462.40	0.00
462.59	93.62
462.77	84.26
462.95	70.22
463.13	16.38
463.32	53.83
463.50	21.06
463.68	84.26
463.86	4.68
464.05	7.02
464.23	77.24
464.41	60.85
464.59	56.17
464.78	46.81
464.96	4.68
465.14	37.45
465.32	39.79
465.50	28.09
465.69	9.36
465.87	0.00
466.05	44.47
466.23	7.02
466.41	46.81
466.60	58.51
466.78	58.51
466.96	53.83
467.14	30.43
467.32	9.36
467.51	67.88
467.69	37.45
467.87	58.51
468.05	18.72
468.23	37.45
468.41	44.47
468.60	0.00
468.78	65.54
468.96	18.72
469.14	16.38
469.32	11.70
469.50	18.72
469.69	16.38
469.87	0.00
470.05	25.75
470.23	4.68
470.41	56.17
470.59	11.70
470.77	23.41
470.95	4.68
471.14	74.90
471.32	25.75
471.50	42.13
471.68	86.60
471.86	46.81
472.04	70.22
472.22	25.75
472.40	74.90
472.58	21.06
472.77	44.47
472.95	60.85
473.13	0.00
473.31	0.00
473.49	0.00
473.67	23.41
473.85	77.24
474.03	23.41
474.21	32.77
474.39	18.72
474.57	42.13
474.75	77.24
474.93	58.51
475.12	98.30
475.30	18.72
475.48	42.13
475.66	9.36
475.84	35.11
476.02	131.07
476.20	14.04
476.38	18.72
476.56	23.41
476.74	21.06
476.92	77.24
477.10	0.00
477.28	70.22
477.46	46.81
477.64	25.75
477.82	0.00
478.00	49.15
478.18	0.00
478.36	77.24
478.54	79.58
478.72	63.19
478.90	65.54
479.08	56.17
479.26	25.75
479.44	35.11
479.62	74.90
479.80	100.64
479.98	35.11
480.16	42.13
480.34	37.45
480.52	35.11
480.70	53.83
480.88	114.69
481.06	4.68
481.24	67.88
481.41	18.72
481.59	18.72
481.77	49.15
481.95	56.17
482.13	74.90
482.31	0.00
482.49	0.00
482.67	56.17
482.85	0.00
483.03	14.04
483.21	60.85
483.39	110.01
483.57	0.00
483.74	56.17
483.92	42.13
484.10	74.90
484.28	23.41
484.46	58.51
484.64	0.00
484.82	21.06
485.00	51.49
485.18	18.72
485.35	0.00
485.53	28.09
485.71	4.68
485.89	58.51
486.07	107.66
486.25	42.13
486.43	53.83
486.61	79.58
486.78	37.45
486.96	0.00
487.14	16.38
487.32	84.26
487.50	63.19
487.68	0.00
487.85	0.00
488.03	2.34
488.21	0.00
488.39	0.00
488.57	0.00
488.75	9.36
488.92	110.01
489.10	2.34
489.28	37.45
489.46	23.41
489.64	49.15
489.81	63.19
489.99	51.49
490.17	21.06
490.35	18.72
490.53	95.96
490.70	4.68
490.88	105.32
491.06	63.19
491.24	28.09
491.41	39.79
491.59	28.09
491.77	60.85
491.95	0.00
492.13	44.47
492.30	42.13
492.48	25.75
492.66	42.13
492.84	72.56
493.01	0.00
493.19	16.38
493.37	63.19
493.54	32.77
493.72	2.34
493.90	100.64
494.08	49.15
494.25	70.22
494.43	18.72
494.61	51.49
494.79	56.17
494.96	72.56
495.14	67.88
495.32	79.58
495.49	35.11
495.67	46.81
495.85	0.00
496.02	11.70
496.20	100.64
496.38	35.11
496.55	0.00
496.73	51.49
496.91	37.45
497.09	67.88
497.26	4.68
497.44	0.00
497.62	0.00
497.79	25.75
497.97	88.94
498.14	14.04
498.32	23.41
498.50	32.77
498.67	46.81
498.85	60.85
499.03	37.45
499.20	0.00
499.38	58.51
499.56	30.43
499.73	58.51
499.91	39.79
500.08	18.72
500.26	49.15
500.44	39.79
500.61	0.00
500.79	95.96
500.97	110.01
501.14	60.85
501.32	28.09
501.49	35.11
501.67	7.02
501.84	35.11
502.02	72.56
502.20	49.15
502.37	46.81
502.55	32.77
502.72	74.90
502.90	16.38
503.07	21.06
503.25	51.49
503.43	51.49
503.60	102.98
503.78	72.56
503.95	35.11
504.13	14.04
504.30	30.43
504.48	65.54
504.65	44.47
504.83	35.11
505.01	0.00
505.18	37.45
505.36	63.19
505.53	63.19
505.71	9.36
505.88	0.00
506.06	58.51
506.23	7.02
506.41	0.00
506.58	9.36
506.76	84.26
506.93	0.00
507.11	18.72
507.28	46.81
507.46	65.54
507.63	32.77
507.81	32.77
507.98	0.00
508.16	56.17
508.33	23.41
508.50	4.68
508.68	0.00
508.85	84.26
509.03	44.47
509.20	4.68
509.38	42.13
509.55	0.00
509.73	105.32
509.90	70.22
510.08	53.83
510.25	74.90
510.42	28.09
510.60	49.15
510.77	126.39
510.95	0.00
511.12	51.49
511.30	91.28
511.47	49.15
511.64	63.19
511.82	65.54
511.99	23.41
512.17	53.83
512.34	0.00
512.51	42.13
512.69	105.32
512.86	7.02
513.04	11.70
513.21	70.22
513.38	49.15
513.56	0.00
513.73	37.45
513.90	32.77
514.08	79.58
514.25	11.70
514.43	49.15
514.60	60.85
514.77	9.36
514.95	32.77
515.12	32.77
515.29	35.11
515.47	98.30
515.64	65.54
515.81	74.90
515.99	7.02
516.16	18.72
516.33	0.00
516.51	0.00
516.68	0.00
516.85	53.83
517.03	46.81
517.20	49.15
517.37	21.06
517.54	93.62
517.72	65.54
517.89	37.45
518.06	28.09
518.24	32.77
518.41	0.00
518.58	21.06
518.75	79.58
518.93	53.83
519.10	84.26
519.27	23.41
519.45	7.02
519.62	74.90
519.79	110.01
519.96	44.47
520.14	65.54
520.31	63.19
520.48	18.72
520.65	65.54
520.83	14.04
521.00	37.45
521.17	53.83
521.34	42.13
521.52	21.06
521.69	84.26
521.86	7.02
522.03	105.32
522.20	51.49
522.38	84.26
522.55	79.58
522.72	35.11
522.89	77.24
523.07	74.90
523.24	16.38
523.41	37.45
523.58	0.00
523.75	18.72
523.92	0.00
524.10	21.06
524.27	58.51
524.44	18.72
524.61	44.47
524.78	91.28
524.96	39.79
525.13	86.60
525.30	21.06
525.47	35.11
525.64	39.79
525.81	25.75
525.98	44.47
526.16	56.17
526.33	32.77
526.50	0.00
526.67	16.38
526.84	35.11
527.01	16.38
527.18	14.04
527.36	30.43
527.53	49.15
527.70	93.62
527.87	9.36
528.04	110.01
528.21	0.00
528.38	79.58
528.55	42.13
528.72	79.58
528.89	119.37
529.07	16.38
529.24	56.17
529.41	9.36
529.58	56.17
529.75	42.13
529.92	128.73
530.09	81.92
530.26	60.85
530.43	65.54
530.60	0.00
530.77	0.00
530.94	0.00
531.11	105.32
531.28	46.81
531.46	37.45
531.63	65.54
531.80	23.41
531.97	0.00
532.14	16.38
532.31	65.54
532.48	51.49
532.65	79.58
532.82	74.90
532.99	0.00
533.16	105.32
533.33	72.56
533.50	56.17
533.67	0.00
533.84	18.72
534.01	0.00
534.18	56.17
534.35	30.43
534.52	63.19
534.69	67.88
534.86	84.26
535.03	49.15
535.20	100.64
535.37	46.81
535.54	58.51
535.71	11.70
535.88	135.75
536.05	28.09
536.22	51.49
536.38	53.83
536.55	7.02
536.72	65.54
536.89	65.54
537.06	14.04
537.23	0.00
537.40	100.64
537.57	65.54
537.74	0.00
537.91	58.51
538.08	25.75
538.25	60.85
538.42	58.51
538.59	60.85
538.75	42.13
538.92	37.45
539.09	32.77
539.26	25.75
539.43	7.02
539.60	46.81
539.77	11.70
539.94	49.15
540.11	2.34
540.28	51.49
540.44	86.60
540.61	58.51
540.78	49.15
540.95	39.79
541.12	18.72
541.29	0.00
541.46	39.79
541.62	86.60
541.79	81.92
541.96	28.09
542.13	56.17
542.30	18.72
542.47	88.94
542.63	81.92
542.80	70.22
542.97	16.38
543.14	37.45
543.31	46.81
543.48	77.24
543.64	0.00
543.81	0.00
543.98	23.41
544.15	70.22
544.32	63.19
544.48	44.47
544.65	53.83
544.82	32.77
544.99	0.00
545.16	93.62
545.32	51.49
545.49	21.06
545.66	53.83
545.83	98.30
546.00	39.79
546.16	30.43
546.33	42.13
546.50	23.41
546.67	63.19
546.83	124.05
547.00	107.66
547.17	44.47
547.34	32.77
547.50	112.35
547.67	58.51
547.84	84.26
548.00	46.81
548.17	49.15
548.34	30.43
548.51	56.17
548.67	9.36
548.84	11.70
549.01	0.00
549.18	0.00
549.34	0.00
549.51	4.68
549.68	0.00
549.84	44.47
550.01	25.75
550.18	16.38
550.34	14.04
550.51	67.88
550.68	35.11
550.84	2.34
551.01	58.51
551.18	93.62
551.34	67.88
551.51	93.62
551.68	32.77
551.84	11.70
552.01	0.00
552.18	44.47
552.34	105.32
552.51	105.32
552.68	2.34
552.84	100.64
553.01	18.72
553.18	105.32
553.34	0.00
553.51	79.58
553.67	7.02
553.84	63.19
554.01	35.11
554.17	0.00
554.34	79.58
554.51	18.72
554.67	46.81
554.84	102.98
555.00	74.90
555.17	67.88
555.33	0.00
555.50	0.00
555.67	56.17
555.83	63.19
556.00	63.19
556.16	112.35
556.33	28.09
556.50	42.13
556.66	0.00
556.83	88.94
556.99	0.00
557.16	44.47
557.32	32.77
557.49	28.09
557.65	35.11
557.82	58.51
557.98	100.64
558.15	18.72
558.32	35.11
558.48	25.75
558.65	32.77
558.81	0.00
558.98	16.38
559.14	51.49
559.31	56.17
559.47	18.72
559.64	79.58
559.80	4.68
559.97	0.00
560.13	18.72
560.30	51.49
560.46	107.66
560.63	93.62
560.79	32.77
560.96	16.38
561.12	51.49
561.29	4.68
561.45	81.92
561.61	16.38
561.78	23.41
561.94	63.19
562.11	28.09
562.27	53.83
562.44	133.41
562.60	16.38
562.77	58.51
562.93	42.13
563.10	0.00
563.26	53.83
563.42	9.36
563.59	88.94
563.75	2.34
563.92	67.88
564.08	7.02
564.24	23.41
564.41	67.88
564.57	58.51
564.74	53.83
564.90	11.70
565.07	65.54
565.23	60.85
565.39	58.51
565.56	84.26
565.72	44.47
565.88	63.19
566.05	0.00
566.21	0.00
566.38	18.72
566.54	25.75
566.70	63.19
566.87	23.41
567.03	28.09
567.19	58.51
567.36	25.75
567.52	11.70
567.68	23.41
567.85	56.17
568.01	46.81
568.17	7.02
568.34	0.00
568.50	18.72
568.66	0.00
568.83	18.72
568.99	35.11
569.15	65.54
569.32	21.06
569.48	35.11
569.64	23.41
569.81	32.77
569.97	18.72
570.13	65.54
570.30	35.11
570.46	56.17
570.62	18.72
570.78	0.00
570.95	53.83
571.11	53.83
571.27	44.47
571.43	72.56
571.60	21.06
571.76	58.51
571.92	65.54
572.09	117.03
572.25	7.02
572.41	0.00
572.57	51.49
572.74	11.70
572.90	53.83
573.06	37.45
573.22	25.75
573.38	30.43
573.55	72.56
573.71	138.09
573.87	21.06
574.03	21.06
574.20	86.60
574.36	105.32
574.52	46.81
574.68	42.13
574.84	16.38
575.01	37.45
575.17	18.72
575.33	28.09
575.49	51.49
575.65	2.34
575.82	65.54
575.98	102.98
576.14	0.00
576.30	14.04
576.46	60.85
576.62	37.45
576.79	88.94
576.95	79.58
577.11	21.06
577.27	32.77
577.43	107.66
577.59	35.11
577.75	32.77
577.92	70.22
578.08	51.49
578.24	51.49
578.40	67.88
578.56	140.43
578.72	21.06
578.88	9.36
579.04	145.11
579.21	25.75
579.37	72.56
579.53	102.98
579.69	21.06
579.85	42.13
580.01	37.45
580.17	42.13
580.33	11.70
580.49	16.38
580.65	46.81
580.82	39.79
580.98	51.49
581.14	14.04
581.30	0.00
581.46	56.17
581.62	70.22
581.78	23.41
581.94	119.37
582.10	74.90
582.26	102.98
582.42	21.06
582.58	2.34
582.74	28.09
582.90	32.77
583.06	4.68
583.22	25.75
583.38	14.04
583.54	53.83
583.70	86.60
583.86	70.22
584.02	67.88
584.18	49.15
584.34	51.49
584.50	114.69
584.66	482.15
584.82	964.30
584.98	1231.12
585.14	1071.97
585.30	814.51
585.46	498.53
585.62	241.08
585.78	121.71
585.94	65.54
586.10	65.54
586.26	25.75
586.42	84.26
586.58	0.00
586.74	107.66
586.90	56.17
587.06	28.09
587.22	42.13
587.38	58.51
587.54	58.51
587.70	126.39
587.86	114.69
588.02	163.84
588.18	154.48
588.34	133.41
588.49	0.00
588.65	0.00
588.81	42.13
588.97	0.00
589.13	39.79
589.29	60.85
589.45	4.68
589.61	0.00
589.77	63.19
589.93	0.00
590.08	0.00
590.24	9.36
590.40	32.77
590.56	53.83
590.72	28.09
590.88	79.58
591.04	32.77
591.20	51.49
591.35	79.58
591.51	16.38
591.67	65.54
591.83	102.98
591.99	30.43
592.15	72.56
592.31	58.51
592.46	0.00
592.62	42.13
592.78	7.02
592.94	9.36
593.10	46.81
593.26	2.34
593.41	4.68
593.57	86.60
593.73	77.24
593.89	95.96
594.05	124.05
594.20	152.13
594.36	210.65
594.52	81.92
594.68	32.77
594.84	53.83
594.99	53.83
595.15	124.05
595.31	81.92
595.47	0.00
595.62	25.75
595.78	0.00
595.94	28.09
596.10	91.28
596.25	42.13
596.41	35.11
596.57	58.51
596.73	39.79
596.88	11.70
597.04	21.06
597.20	138.09
597.36	102.98
597.51	88.94
597.67	39.79
597.83	51.49
597.99	7.02
598.14	18.72
598.30	0.00
598.46	30.43
598.61	11.70
598.77	60.85
598.93	65.54
599.09	11.70
599.24	0.00
599.40	28.09
599.56	14.04
599.71	0.00
599.87	72.56
600.03	9.36
600.18	25.75
600.34	60.85
600.50	58.51
600.65	0.00
600.81	11.70
600.97	49.15
601.12	42.13
601.28	81.92
601.44	65.54
601.59	56.17
601.75	51.49
601.91	74.90
602.06	23.41
602.22	44.47
602.37	0.00
602.53	60.85
602.69	95.96
602.84	133.41
603.00	100.64
603.16	49.15
603.31	21.06
603.47	14.04
603.62	30.43
603.78	32.77
603.94	51.49
604.09	0.00
604.25	117.03
604.40	51.49
604.56	63.19
604.71	37.45
604.87	51.49
605.03	23.41
605.18	46.81
605.34	37.45
605.49	53.83
605.65	0.00
605.80	14.04
605.96	0.00
606.12	42.13
606.27	39.79
606.43	0.00
606.58	95.96
606.74	2.34
606.89	23.41
607.05	98.30
607.20	121.71
607.36	121.71
607.51	51.49
607.67	110.01
607.82	42.13
607.98	51.49
608.13	35.11
608.29	39.79
608.44	65.54
608.60	77.24
608.75	53.83
608.91	60.85
609.06	117.03
609.22	248.10
609.37	229.37
609.53	236.39
609.68	180.22
609.84	184.90
609.99	88.94
610.15	84.26
610.30	4.68
610.46	56.17
610.61	70.22
610.76	39.79
610.92	49.15
611.07	100.64
611.23	0.00
611.38	49.15
611.54	21.06
611.69	121.71
611.84	107.66
612.00	21.06
612.15	0.00
612.31	44.47
612.46	30.43
612.62	42.13
612.77	56.17
612.92	0.00
613.08	11.70
613.23	51.49
613.39	58.51
613.54	51.49
613.69	191.92
613.85	287.89
614.00	393.21
614.15	400.23
614.31	285.55
614.46	163.84
614.62	147.45
614.77	152.13
614.92	60.85
615.08	21.06
615.23	42.13
615.38	51.49
615.54	0.00
615.69	35.11
615.84	25.75
616.00	112.35
616.15	88.94
616.30	114.69
616.46	79.58
616.61	42.13
616.76	16.38
616.92	86.60
617.07	58.51
617.22	30.43
617.37	63.19
617.53	18.72
617.68	11.70
617.83	0.00
617.99	30.43
618.14	21.06
618.29	84.26
618.45	0.00
618.60	65.54
618.75	84.26
618.90	86.60
619.06	56.17
619.21	23.41
619.36	63.19
619.51	56.17
619.67	58.51
619.82	63.19
619.97	42.13
620.12	32.77
620.28	28.09
620.43	28.09
620.58	51.49
620.73	112.35
620.89	32.77
621.04	42.13
621.19	51.49
621.34	53.83
621.49	170.86
621.65	74.90
621.80	70.22
621.95	0.00
622.10	46.81
622.25	0.00
622.41	39.79
622.56	67.88
622.71	86.60
622.86	60.85
623.01	32.77
623.16	18.72
623.32	0.00
623.47	98.30
623.62	7.02
623.77	23.41
623.92	65.54
624.07	35.11
624.23	42.13
624.38	95.96
624.53	42.13
624.68	14.04
624.83	81.92
624.98	74.90
625.13	65.54
625.29	60.85
625.44	0.00
625.59	28.09
625.74	21.06
625.89	63.19
626.04	16.38
626.19	238.73
626.34	269.16
626.49	229.37
626.65	79.58
626.80	131.07
626.95	124.05
627.10	60.85
627.25	74.90
627.40	53.83
627.55	32.77
627.70	0.00
627.85	37.45
628.00	72.56
628.15	44.47
628.30	63.19
628.45	32.77
628.60	28.09
628.76	0.00
628.91	100.64
629.06	35.11
629.21	16.38
629.36	0.00
629.51	39.79
629.66	74.90
629.81	65.54
629.96	74.90
630.11	124.05
630.26	51.49
630.41	140.43
630.56	23.41
630.71	11.70
630.86	79.58
631.01	2.34
631.16	56.17
631.31	51.49
631.46	72.56
631.61	25.75
631.76	11.70
631.91	4.68
632.06	72.56
632.21	4.68
632.36	2.34
632.51	53.83
632.66	67.88
632.81	72.56
632.96	114.69
633.10	140.43
633.25	149.79
633.40	173.20
633.55	74.90
633.70	35.11
633.85	18.72
634.00	117.03
634.15	91.28
634.30	77.24
634.45	42.13
634.60	37.45
634.75	7.02
634.90	23.41
635.05	0.00
635.19	49.15
635.34	135.75
635.49	28.09
635.64	131.07
635.79	28.09
635.94	37.45
636.09	51.49
636.24	0.00
636.39	65.54
636.53	46.81
636.68	0.00
636.83	37.45
636.98	84.26
637.13	0.00
637.28	0.00
637.43	14.04
637.57	58.51
637.72	114.69
637.87	168.52
638.02	273.84
638.17	182.56
638.32	187.24
638.46	119.37
638.61	98.30
638.76	58.51
638.91	23.41
639.06	63.19
639.20	100.64
639.35	56.17
639.50	77.24
639.65	194.26
639.80	299.59
639.94	395.55
640.09	400.23
640.24	311.29
640.39	194.26
640.54	203.63
640.68	107.66
640.83	58.51
640.98	95.96
641.13	133.41
641.27	9.36
641.42	0.00
641.57	14.04
641.72	51.49
641.86	28.09
642.01	37.45
642.16	14.04
642.31	53.83
642.45	28.09
642.60	0.00
642.75	51.49
642.90	9.36
643.04	60.85
643.19	51.49
643.34	42.13
643.48	0.00
643.63	65.54
643.78	58.51
643.93	30.43
644.07	67.88
644.22	119.37
644.37	11.70
644.51	35.11
644.66	72.56
644.81	0.00
644.95	67.88
645.10	9.36
645.25	60.85
645.39	63.19
645.54	112.35
645.69	21.06
645.83	0.00
645.98	18.72
646.13	53.83
646.27	21.06
646.42	0.00
646.57	0.00
646.71	28.09
646.86	37.45
647.00	30.43
647.15	0.00
647.30	0.00
647.44	14.04
647.59	42.13
647.74	86.60
647.88	56.17
648.03	65.54
648.17	18.72
648.32	67.88
648.47	28.09
648.61	2.34
648.76	14.04
648.90	0.00
649.05	65.54
649.20	42.13
649.34	0.00
649.49	39.79
649.63	56.17
649.78	14.04
649.92	16.38
650.07	37.45
650.21	175.54
650.36	168.52
650.51	224.69
650.65	241.08
650.80	173.20
650.94	191.92
651.09	77.24
651.23	91.28
651.38	42.13
651.52	44.47
651.67	74.90
651.81	67.88
651.96	21.06
652.10	67.88
652.25	60.85
652.39	138.09
652.54	0.00
652.68	37.45
652.83	72.56
652.97	72.56
653.12	110.01
653.26	128.73
653.41	7.02
653.55	88.94
653.70	86.60
653.84	23.41
653.99	32.77
654.13	30.43
654.27	46.81
654.42	56.17
654.56	0.00
654.71	30.43
654.85	4.68
655.00	70.22
655.14	4.68
655.29	23.41
655.43	21.06
655.57	21.06
655.72	88.94
655.86	30.43
656.01	21.06
656.15	28.09
656.30	105.32
656.44	0.00
656.58	0.00
656.73	2.34
656.87	32.77
657.01	51.49
657.16	95.96
657.30	39.79
657.45	53.83
657.59	0.00
657.73	0.00
657.88	0.00
658.02	0.00
658.16	4.68
658.31	0.00
658.45	74.90
658.60	67.88
658.74	23.41
658.88	0.00
659.03	28.09
659.17	16.38
659.31	35.11
659.46	35.11
659.60	121.71
659.74	205.97
659.89	142.77
660.03	119.37
660.17	67.88
660.32	81.92
660.46	39.79
660.60	0.00
660.74	110.01
660.89	30.43
661.03	49.15
661.17	84.26
661.32	110.01
661.46	23.41
661.60	32.77
661.74	58.51
661.89	16.38
662.03	32.77
662.17	11.70
662.31	44.47
662.46	44.47
662.60	28.09
662.74	9.36
662.88	117.03
663.03	30.43
663.17	58.51
663.31	28.09
663.45	28.09
663.60	37.45
663.74	56.17
663.88	0.00
664.02	30.43
664.17	37.45
664.31	0.00
664.45	4.68
664.59	53.83
664.73	0.00
664.88	35.11
665.02	0.00
665.16	30.43
665.30	14.04
665.44	0.00
665.59	0.00
665.73	0.00
665.87	0.00
666.01	56.17
666.15	18.72
666.29	35.11
666.44	0.00
666.58	23.41
666.72	30.43
666.86	65.54
667.00	49.15
667.14	32.77
667.28	133.41
667.43	110.01
667.57	229.37
667.71	140.43
667.85	147.45
667.99	161.50
668.13	110.01
668.27	93.62
668.41	23.41
668.56	58.51
668.70	7.02
668.84	53.83
668.98	42.13
669.12	51.49
669.26	9.36
669.40	117.03
669.54	93.62
669.68	0.00
669.82	51.49
669.96	0.00
670.10	14.04
670.25	30.43
670.39	28.09
670.53	0.00
670.67	7.02
670.81	49.15
670.95	32.77
671.09	39.79
671.23	49.15
671.37	107.66
671.51	149.79
671.65	126.39
671.79	121.71
671.93	81.92
672.07	110.01
672.21	65.54
672.35	42.13
672.49	21.06
672.63	51.49
672.77	95.96
672.91	23.41
673.05	32.77
673.19	11.70
673.33	58.51
673.47	23.41
673.61	121.71
673.75	56.17
673.89	18.72
674.03	60.85
674.17	0.00
674.31	77.24
674.45	79.58
674.59	21.06
674.73	0.00
674.87	0.00
675.01	4.68
675.15	0.00
675.29	37.45
675.43	117.03
675.56	32.77
675.70	0.00
675.84	21.06
675.98	91.28
676.12	44.47
676.26	35.11
676.40	0.00
676.54	28.09
676.68	4.68
676.82	0.00
676.96	63.19
677.10	0.00
677.23	23.41
677.37	63.19
677.51	51.49
677.65	42.13
677.79	0.00
677.93	25.75
678.07	56.17
678.21	74.90
678.34	49.15
678.48	9.36
678.62	0.00
678.76	53.83
678.90	63.19
679.04	30.43
679.18	60.85
679.31	0.00
679.45	35.11
679.59	7.02
679.73	42.13
679.87	9.36
680.00	60.85
680.14	4.68
680.28	77.24
680.42	35.11
680.56	74.90
680.70	0.00
680.83	0.00
680.97	58.51
681.11	77.24
681.25	42.13
681.39	0.00
681.52	25.75
681.66	28.09
681.80	37.45
681.94	7.02
682.07	77.24
682.21	14.04
682.35	56.17
682.49	42.13
682.62	74.90
682.76	51.49
682.90	0.00
683.04	0.00
683.17	37.45
683.31	135.75
683.45	0.00
683.59	0.00
683.72	21.06
683.86	0.00
684.00	39.79
684.13	58.51
684.27	0.00
684.41	58.51
684.55	30.43
684.68	9.36
684.82	11.70
684.96	0.00
685.09	72.56
685.23	42.13
685.37	21.06
685.50	0.00
685.64	51.49
685.78	0.00
685.91	0.00
686.05	49.15
686.19	46.81
686.32	30.43
686.46	88.94
686.60	0.00
686.73	0.00
686.87	39.79
687.01	37.45
687.14	30.43
687.28	37.45
687.42	28.09
687.55	28.09
687.69	14.04
687.82	0.00
687.96	28.09
688.10	11.70
688.23	4.68
688.37	4.68
688.50	9.36
688.64	119.37
688.78	2.34
688.91	56.17
689.05	18.72
689.18	21.06
689.32	0.00
689.46	0.00
689.59	9.36
689.73	42.13
689.86	98.30
690.00	67.88
690.13	39.79
690.27	49.15
690.41	4.68
690.54	98.30
690.68	0.00
690.81	0.00
690.95	91.28
691.08	39.79
691.22	2.34
691.35	72.56
691.49	51.49
691.62	0.00
691.76	23.41
691.89	0.00
692.03	0.00
692.16	0.00
692.30	49.15
692.43	67.88
692.57	72.56
692.70	95.96
692.84	65.54
692.97	112.35
693.11	60.85
693.24	72.56
693.38	63.19
693.51	67.88
693.65	72.56
693.78	21.06
693.92	28.09
694.05	39.79
694.19	63.19
694.32	84.26
694.45	70.22
694.59	60.85
694.72	23.41
694.86	7.02
694.99	70.22
695.13	0.00
695.26	28.09
695.39	95.96
695.53	39.79
695.66	4.68
695.80	53.83
695.93	37.45
696.07	86.60
696.20	0.00
696.33	131.07
696.47	42.13
696.60	0.00
696.73	25.75
696.87	23.41
697.00	14.04
697.14	11.70
697.27	7.02
697.40	70.22
697.54	25.75
697.67	44.47
697.80	46.81
697.94	23.41
698.07	124.05
698.21	42.13
698.34	63.19
698.47	84.26
698.61	91.28
698.74	18.72
698.87	63.19
699.01	0.00
699.14	46.81
699.27	79.58
699.40	65.54
699.54	0.00
699.67	9.36
699.80	46.81
699.94	0.00
700.07	100.64
700.20	0.00
700.34	0.00
700.47	88.94
700.60	65.54
700.73	9.36
700.87	58.51
701.00	30.43
701.13	16.38
701.26	42.13
701.40	0.00
701.53	9.36
701.66	2.34
701.79	37.45
701.93	0.00
702.06	49.15
702.19	21.06
702.32	7.02
702.46	0.00
702.59	42.13
702.72	70.22
702.85	70.22
702.99	63.19
703.12	121.71
703.25	149.79
703.38	173.20
703.51	112.35
703.65	81.92
703.78	23.41
703.91	0.00
704.04	28.09
704.17	88.94
704.31	44.47
704.44	21.06
704.57	2.34
704.70	9.36
704.83	25.75
704.96	4.68
705.10	42.13
705.23	28.09
>>>>>End Processed Spectral Data<<<<<
