SpectraSuite Data File
++++++++++++++++++++++++++++++++++++
Date: Fri Oct 04 12:13:38 GMT-05:00 2013
User: price-jones
Dark Spectrum Present: No
Reference Spectrum Present: No
Number of Sampled Component Spectra: 1
Spectrometers: USB2+H05261
Integration Time (usec): 10000 (USB2+H05261)
Spectra Averaged: 1 (USB2+H05261)
Boxcar Smoothing: 0 (USB2+H05261)
Correct for Electrical Dark: No (USB2+H05261)
Strobe/Lamp Enabled: No (USB2+H05261)
Correct for Detector Non-linearity: No (USB2+H05261)
Correct for Stray Light: No (USB2+H05261)
Number of Pixels in Processed Spectrum: 2048
>>>>>Begin Processed Spectral Data<<<<<
365.73	0.00
365.92	0.00
366.12	0.00
366.32	0.00
366.52	0.00
366.72	0.00
366.91	0.00
367.11	0.00
367.31	0.00
367.51	0.00
367.70	0.00
367.90	0.00
368.10	0.00
368.30	0.00
368.49	0.00
368.69	0.00
368.89	0.00
369.09	0.00
369.28	0.00
369.48	0.00
369.68	0.00
369.87	0.00
370.07	0.00
370.27	0.00
370.47	0.00
370.66	0.00
370.86	0.00
371.06	0.00
371.25	0.00
371.45	0.00
371.65	0.00
371.84	4.68
372.04	42.13
372.24	0.00
372.44	32.77
372.63	51.49
372.83	58.51
373.03	107.66
373.22	51.49
373.42	0.00
373.62	42.13
373.81	72.56
374.01	79.58
374.21	32.77
374.40	0.00
374.60	0.00
374.79	0.00
374.99	49.15
375.19	16.38
375.38	65.54
375.58	0.00
375.78	35.11
375.97	4.68
376.17	0.00
376.37	9.36
376.56	60.85
376.76	0.00
376.95	0.00
377.15	0.00
377.35	30.43
377.54	0.00
377.74	0.00
377.93	0.00
378.13	25.75
378.33	46.81
378.52	25.75
378.72	16.38
378.91	67.88
379.11	56.17
379.31	32.77
379.50	16.38
379.70	25.75
379.89	32.77
380.09	28.09
380.28	14.04
380.48	67.88
380.68	37.45
380.87	18.72
381.07	95.96
381.26	23.41
381.46	37.45
381.65	46.81
381.85	2.34
382.04	11.70
382.24	51.49
382.43	58.51
382.63	77.24
382.83	0.00
383.02	18.72
383.22	46.81
383.41	102.98
383.61	44.47
383.80	0.00
384.00	81.92
384.19	0.00
384.39	81.92
384.58	7.02
384.78	51.49
384.97	0.00
385.17	56.17
385.36	91.28
385.56	9.36
385.75	0.00
385.95	44.47
386.14	7.02
386.34	0.00
386.53	60.85
386.72	0.00
386.92	65.54
387.11	14.04
387.31	18.72
387.50	18.72
387.70	0.00
387.89	0.00
388.09	7.02
388.28	11.70
388.48	0.00
388.67	0.00
388.86	37.45
389.06	44.47
389.25	0.00
389.45	49.15
389.64	0.00
389.84	0.00
390.03	53.83
390.22	11.70
390.42	56.17
390.61	0.00
390.81	63.19
391.00	93.62
391.19	56.17
391.39	39.79
391.58	7.02
391.78	0.00
391.97	58.51
392.16	32.77
392.36	0.00
392.55	65.54
392.75	53.83
392.94	60.85
393.13	11.70
393.33	79.58
393.52	7.02
393.71	98.30
393.91	42.13
394.10	0.00
394.29	21.06
394.49	88.94
394.68	65.54
394.88	117.03
395.07	49.15
395.26	23.41
395.46	21.06
395.65	0.00
395.84	0.00
396.04	23.41
396.23	46.81
396.42	2.34
396.62	7.02
396.81	9.36
397.00	21.06
397.19	11.70
397.39	0.00
397.58	30.43
397.77	35.11
397.97	46.81
398.16	44.47
398.35	0.00
398.55	42.13
398.74	105.32
398.93	28.09
399.12	32.77
399.32	16.38
399.51	46.81
399.70	21.06
399.90	21.06
400.09	91.28
400.28	0.00
400.47	58.51
400.67	63.19
400.86	51.49
401.05	67.88
401.24	0.00
401.44	42.13
401.63	28.09
401.82	28.09
402.01	16.38
402.21	65.54
402.40	49.15
402.59	16.38
402.78	21.06
402.97	39.79
403.17	21.06
403.36	46.81
403.55	0.00
403.74	0.00
403.93	0.00
404.13	86.60
404.32	18.72
404.51	44.47
404.70	4.68
404.89	0.00
405.09	7.02
405.28	93.62
405.47	28.09
405.66	49.15
405.85	65.54
406.05	51.49
406.24	79.58
406.43	11.70
406.62	56.17
406.81	65.54
407.00	2.34
407.20	37.45
407.39	49.15
407.58	72.56
407.77	7.02
407.96	67.88
408.15	119.37
408.34	46.81
408.54	56.17
408.73	21.06
408.92	51.49
409.11	70.22
409.30	49.15
409.49	25.75
409.68	100.64
409.87	0.00
410.07	46.81
410.26	112.35
410.45	21.06
410.64	65.54
410.83	74.90
411.02	67.88
411.21	32.77
411.40	79.58
411.59	0.00
411.78	28.09
411.98	35.11
412.17	28.09
412.36	84.26
412.55	0.00
412.74	9.36
412.93	98.30
413.12	60.85
413.31	60.85
413.50	46.81
413.69	0.00
413.88	25.75
414.07	25.75
414.26	21.06
414.45	0.00
414.64	21.06
414.83	70.22
415.02	9.36
415.22	2.34
415.41	79.58
415.60	46.81
415.79	0.00
415.98	70.22
416.17	2.34
416.36	0.00
416.55	72.56
416.74	14.04
416.93	72.56
417.12	77.24
417.31	35.11
417.50	51.49
417.69	21.06
417.88	0.00
418.07	60.85
418.26	67.88
418.45	11.70
418.64	39.79
418.83	67.88
419.02	0.00
419.21	0.00
419.39	35.11
419.58	63.19
419.77	14.04
419.96	79.58
420.15	42.13
420.34	28.09
420.53	11.70
420.72	11.70
420.91	28.09
421.10	32.77
421.29	42.13
421.48	49.15
421.67	32.77
421.86	11.70
422.05	77.24
422.24	51.49
422.43	91.28
422.61	56.17
422.80	60.85
422.99	16.38
423.18	30.43
423.37	51.49
423.56	0.00
423.75	35.11
423.94	117.03
424.13	98.30
424.32	70.22
424.50	46.81
424.69	28.09
424.88	44.47
425.07	39.79
425.26	58.51
425.45	14.04
425.64	53.83
425.83	0.00
426.01	32.77
426.20	72.56
426.39	7.02
426.58	39.79
426.77	30.43
426.96	37.45
427.15	77.24
427.33	0.00
427.52	0.00
427.71	0.00
427.90	16.38
428.09	28.09
428.28	14.04
428.46	32.77
428.65	65.54
428.84	60.85
429.03	117.03
429.22	18.72
429.40	0.00
429.59	0.00
429.78	28.09
429.97	72.56
430.16	21.06
430.34	0.00
430.53	86.60
430.72	77.24
430.91	46.81
431.10	63.19
431.28	88.94
431.47	100.64
431.66	39.79
431.85	74.90
432.03	95.96
432.22	84.26
432.41	51.49
432.60	42.13
432.79	39.79
432.97	30.43
433.16	42.13
433.35	14.04
433.54	119.37
433.72	28.09
433.91	30.43
434.10	84.26
434.28	23.41
434.47	0.00
434.66	67.88
434.85	58.51
435.03	49.15
435.22	74.90
435.41	0.00
435.59	67.88
435.78	14.04
435.97	51.49
436.16	0.00
436.34	16.38
436.53	21.06
436.72	32.77
436.90	35.11
437.09	91.28
437.28	70.22
437.46	105.32
437.65	56.17
437.84	30.43
438.02	21.06
438.21	4.68
438.40	49.15
438.58	44.47
438.77	67.88
438.96	18.72
439.14	30.43
439.33	53.83
439.52	56.17
439.70	37.45
439.89	23.41
440.08	98.30
440.26	70.22
440.45	18.72
440.63	51.49
440.82	72.56
441.01	70.22
441.19	0.00
441.38	65.54
441.57	0.00
441.75	42.13
441.94	86.60
442.12	77.24
442.31	46.81
442.50	53.83
442.68	39.79
442.87	53.83
443.05	110.01
443.24	42.13
443.43	7.02
443.61	18.72
443.80	21.06
443.98	35.11
444.17	25.75
444.35	32.77
444.54	100.64
444.73	98.30
444.91	32.77
445.10	0.00
445.28	110.01
445.47	93.62
445.65	0.00
445.84	88.94
446.02	30.43
446.21	11.70
446.39	70.22
446.58	28.09
446.77	32.77
446.95	0.00
447.14	32.77
447.32	58.51
447.51	105.32
447.69	56.17
447.88	67.88
448.06	74.90
448.25	32.77
448.43	65.54
448.62	65.54
448.80	81.92
448.99	65.54
449.17	49.15
449.36	18.72
449.54	53.83
449.73	0.00
449.91	0.00
450.10	16.38
450.28	112.35
450.46	25.75
450.65	65.54
450.83	91.28
451.02	112.35
451.20	44.47
451.39	4.68
451.57	32.77
451.76	74.90
451.94	81.92
452.13	63.19
452.31	60.85
452.49	56.17
452.68	28.09
452.86	44.47
453.05	100.64
453.23	46.81
453.42	88.94
453.60	88.94
453.78	18.72
453.97	74.90
454.15	107.66
454.34	49.15
454.52	9.36
454.70	79.58
454.89	56.17
455.07	107.66
455.26	42.13
455.44	39.79
455.62	39.79
455.81	30.43
455.99	58.51
456.17	37.45
456.36	39.79
456.54	0.00
456.73	0.00
456.91	18.72
457.09	2.34
457.28	39.79
457.46	42.13
457.64	65.54
457.83	74.90
458.01	56.17
458.19	0.00
458.38	42.13
458.56	60.85
458.74	67.88
458.93	112.35
459.11	63.19
459.29	32.77
459.48	67.88
459.66	37.45
459.84	110.01
460.03	39.79
460.21	44.47
460.39	93.62
460.57	51.49
460.76	28.09
460.94	74.90
461.12	63.19
461.31	95.96
461.49	107.66
461.67	53.83
461.85	79.58
462.04	124.05
462.22	79.58
462.40	23.41
462.59	39.79
462.77	98.30
462.95	77.24
463.13	84.26
463.32	30.43
463.50	91.28
463.68	28.09
463.86	100.64
464.05	72.56
464.23	0.00
464.41	39.79
464.59	35.11
464.78	51.49
464.96	81.92
465.14	117.03
465.32	53.83
465.50	42.13
465.69	65.54
465.87	105.32
466.05	93.62
466.23	16.38
466.41	4.68
466.60	56.17
466.78	77.24
466.96	67.88
467.14	0.00
467.32	9.36
467.51	72.56
467.69	60.85
467.87	53.83
468.05	23.41
468.23	9.36
468.41	72.56
468.60	58.51
468.78	84.26
468.96	65.54
469.14	25.75
469.32	65.54
469.50	37.45
469.69	9.36
469.87	121.71
470.05	0.00
470.23	60.85
470.41	58.51
470.59	9.36
470.77	65.54
470.95	60.85
471.14	102.98
471.32	23.41
471.50	51.49
471.68	18.72
471.86	30.43
472.04	30.43
472.22	35.11
472.40	102.98
472.58	14.04
472.77	37.45
472.95	102.98
473.13	91.28
473.31	0.00
473.49	67.88
473.67	53.83
473.85	77.24
474.03	9.36
474.21	110.01
474.39	60.85
474.57	32.77
474.75	77.24
474.93	0.00
475.12	51.49
475.30	70.22
475.48	28.09
475.66	46.81
475.84	42.13
476.02	39.79
476.20	105.32
476.38	77.24
476.56	63.19
476.74	81.92
476.92	91.28
477.10	42.13
477.28	77.24
477.46	42.13
477.64	74.90
477.82	51.49
478.00	32.77
478.18	88.94
478.36	11.70
478.54	63.19
478.72	32.77
478.90	56.17
479.08	60.85
479.26	18.72
479.44	110.01
479.62	42.13
479.80	74.90
479.98	72.56
480.16	53.83
480.34	77.24
480.52	30.43
480.70	58.51
480.88	72.56
481.06	28.09
481.24	131.07
481.41	46.81
481.59	51.49
481.77	70.22
481.95	72.56
482.13	112.35
482.31	56.17
482.49	88.94
482.67	147.45
482.85	100.64
483.03	112.35
483.21	56.17
483.39	93.62
483.57	53.83
483.74	105.32
483.92	56.17
484.10	0.00
484.28	81.92
484.46	49.15
484.64	98.30
484.82	91.28
485.00	105.32
485.18	60.85
485.35	18.72
485.53	72.56
485.71	114.69
485.89	44.47
486.07	4.68
486.25	114.69
486.43	18.72
486.61	93.62
486.78	53.83
486.96	30.43
487.14	79.58
487.32	53.83
487.50	72.56
487.68	44.47
487.85	81.92
488.03	46.81
488.21	28.09
488.39	72.56
488.57	95.96
488.75	131.07
488.92	114.69
489.10	74.90
489.28	0.00
489.46	100.64
489.64	60.85
489.81	51.49
489.99	46.81
490.17	46.81
490.35	28.09
490.53	35.11
490.70	30.43
490.88	18.72
491.06	4.68
491.24	74.90
491.41	56.17
491.59	86.60
491.77	84.26
491.95	39.79
492.13	37.45
492.30	23.41
492.48	4.68
492.66	77.24
492.84	21.06
493.01	91.28
493.19	93.62
493.37	102.98
493.54	102.98
493.72	72.56
493.90	93.62
494.08	32.77
494.25	81.92
494.43	46.81
494.61	112.35
494.79	210.65
494.96	177.88
495.14	14.04
495.32	91.28
495.49	51.49
495.67	67.88
495.85	0.00
496.02	56.17
496.20	91.28
496.38	81.92
496.55	110.01
496.73	105.32
496.91	124.05
497.09	28.09
497.26	100.64
497.44	74.90
497.62	84.26
497.79	84.26
497.97	95.96
498.14	79.58
498.32	70.22
498.50	28.09
498.67	81.92
498.85	163.84
499.03	117.03
499.20	121.71
499.38	119.37
499.56	126.39
499.73	42.13
499.91	131.07
500.08	39.79
500.26	0.00
500.44	107.66
500.61	131.07
500.79	93.62
500.97	93.62
501.14	138.09
501.32	86.60
501.49	53.83
501.67	49.15
501.84	0.00
502.02	79.58
502.20	119.37
502.37	11.70
502.55	84.26
502.72	0.00
502.90	51.49
503.07	135.75
503.25	72.56
503.43	84.26
503.60	37.45
503.78	74.90
503.95	63.19
504.13	53.83
504.30	105.32
504.48	105.32
504.65	23.41
504.83	65.54
505.01	191.92
505.18	81.92
505.36	140.43
505.53	77.24
505.71	81.92
505.88	81.92
506.06	91.28
506.23	102.98
506.41	86.60
506.58	79.58
506.76	53.83
506.93	32.77
507.11	72.56
507.28	30.43
507.46	74.90
507.63	88.94
507.81	77.24
507.98	145.11
508.16	135.75
508.33	95.96
508.50	102.98
508.68	42.13
508.85	77.24
509.03	18.72
509.20	67.88
509.38	142.77
509.55	107.66
509.73	56.17
509.90	102.98
510.08	44.47
510.25	98.30
510.42	107.66
510.60	95.96
510.77	93.62
510.95	107.66
511.12	21.06
511.30	51.49
511.47	86.60
511.64	79.58
511.82	93.62
511.99	140.43
512.17	72.56
512.34	70.22
512.51	95.96
512.69	9.36
512.86	77.24
513.04	124.05
513.21	110.01
513.38	42.13
513.56	84.26
513.73	79.58
513.90	140.43
514.08	110.01
514.25	86.60
514.43	74.90
514.60	112.35
514.77	77.24
514.95	93.62
515.12	135.75
515.29	79.58
515.47	67.88
515.64	95.96
515.81	77.24
515.99	37.45
516.16	77.24
516.33	112.35
516.51	23.41
516.68	65.54
516.85	114.69
517.03	140.43
517.20	51.49
517.37	135.75
517.54	140.43
517.72	74.90
517.89	67.88
518.06	72.56
518.24	121.71
518.41	53.83
518.58	56.17
518.75	23.41
518.93	88.94
519.10	86.60
519.27	95.96
519.45	0.00
519.62	63.19
519.79	112.35
519.96	79.58
520.14	63.19
520.31	107.66
520.48	77.24
520.65	100.64
520.83	102.98
521.00	18.72
521.17	84.26
521.34	74.90
521.52	32.77
521.69	53.83
521.86	39.79
522.03	77.24
522.20	117.03
522.38	32.77
522.55	0.00
522.72	124.05
522.89	72.56
523.07	131.07
523.24	79.58
523.41	67.88
523.58	124.05
523.75	56.17
523.92	14.04
524.10	102.98
524.27	112.35
524.44	142.77
524.61	112.35
524.78	126.39
524.96	112.35
525.13	161.50
525.30	77.24
525.47	196.60
525.64	84.26
525.81	53.83
525.98	91.28
526.16	81.92
526.33	98.30
526.50	60.85
526.67	95.96
526.84	114.69
527.01	121.71
527.18	88.94
527.36	79.58
527.53	63.19
527.70	81.92
527.87	53.83
528.04	100.64
528.21	4.68
528.38	37.45
528.55	35.11
528.72	88.94
528.89	149.79
529.07	133.41
529.24	102.98
529.41	67.88
529.58	135.75
529.75	84.26
529.92	86.60
530.09	95.96
530.26	95.96
530.43	159.16
530.60	70.22
530.77	128.73
530.94	88.94
531.11	67.88
531.28	60.85
531.46	39.79
531.63	49.15
531.80	100.64
531.97	110.01
532.14	67.88
532.31	39.79
532.48	74.90
532.65	0.00
532.82	77.24
532.99	138.09
533.16	37.45
533.33	30.43
533.50	93.62
533.67	110.01
533.84	58.51
534.01	86.60
534.18	128.73
534.35	105.32
534.52	95.96
534.69	107.66
534.86	124.05
535.03	102.98
535.20	128.73
535.37	142.77
535.54	88.94
535.71	95.96
535.88	117.03
536.05	124.05
536.22	72.56
536.38	142.77
536.55	49.15
536.72	30.43
536.89	102.98
537.06	81.92
537.23	42.13
537.40	86.60
537.57	0.00
537.74	88.94
537.91	124.05
538.08	105.32
538.25	70.22
538.42	102.98
538.59	114.69
538.75	56.17
538.92	102.98
539.09	184.90
539.26	119.37
539.43	145.11
539.60	28.09
539.77	23.41
539.94	77.24
540.11	70.22
540.28	77.24
540.44	149.79
540.61	93.62
540.78	60.85
540.95	16.38
541.12	180.22
541.29	39.79
541.46	114.69
541.62	74.90
541.79	114.69
541.96	100.64
542.13	25.75
542.30	44.47
542.47	124.05
542.63	140.43
542.80	100.64
542.97	110.01
543.14	77.24
543.31	98.30
543.48	88.94
543.64	63.19
543.81	60.85
543.98	117.03
544.15	53.83
544.32	39.79
544.48	133.41
544.65	95.96
544.82	98.30
544.99	107.66
545.16	74.90
545.32	121.71
545.49	77.24
545.66	77.24
545.83	112.35
546.00	72.56
546.16	98.30
546.33	42.13
546.50	95.96
546.67	100.64
546.83	131.07
547.00	128.73
547.17	11.70
547.34	110.01
547.50	51.49
547.67	30.43
547.84	152.13
548.00	159.16
548.17	133.41
548.34	112.35
548.51	53.83
548.67	67.88
548.84	107.66
549.01	39.79
549.18	0.00
549.34	60.85
549.51	58.51
549.68	72.56
549.84	65.54
550.01	0.00
550.18	93.62
550.34	126.39
550.51	58.51
550.68	126.39
550.84	98.30
551.01	100.64
551.18	44.47
551.34	53.83
551.51	74.90
551.68	86.60
551.84	53.83
552.01	84.26
552.18	51.49
552.34	131.07
552.51	81.92
552.68	91.28
552.84	114.69
553.01	46.81
553.18	79.58
553.34	37.45
553.51	53.83
553.67	93.62
553.84	98.30
554.01	18.72
554.17	32.77
554.34	56.17
554.51	121.71
554.67	65.54
554.84	49.15
555.00	156.82
555.17	149.79
555.33	46.81
555.50	77.24
555.67	79.58
555.83	86.60
556.00	126.39
556.16	110.01
556.33	74.90
556.50	121.71
556.66	44.47
556.83	131.07
556.99	121.71
557.16	154.48
557.32	91.28
557.49	161.50
557.65	67.88
557.82	16.38
557.98	84.26
558.15	105.32
558.32	105.32
558.48	147.45
558.65	114.69
558.81	124.05
558.98	32.77
559.14	107.66
559.31	46.81
559.47	23.41
559.64	18.72
559.80	110.01
559.97	49.15
560.13	67.88
560.30	138.09
560.46	53.83
560.63	42.13
560.79	63.19
560.96	23.41
561.12	32.77
561.29	112.35
561.45	128.73
561.61	114.69
561.78	121.71
561.94	121.71
562.11	91.28
562.27	74.90
562.44	77.24
562.60	110.01
562.77	30.43
562.93	98.30
563.10	0.00
563.26	124.05
563.42	100.64
563.59	28.09
563.75	30.43
563.92	39.79
564.08	93.62
564.24	79.58
564.41	74.90
564.57	56.17
564.74	79.58
564.90	117.03
565.07	114.69
565.23	119.37
565.39	117.03
565.56	56.17
565.72	51.49
565.88	72.56
566.05	112.35
566.21	152.13
566.38	95.96
566.54	79.58
566.70	93.62
566.87	77.24
567.03	98.30
567.19	28.09
567.36	84.26
567.52	51.49
567.68	49.15
567.85	74.90
568.01	74.90
568.17	39.79
568.34	112.35
568.50	77.24
568.66	18.72
568.83	72.56
568.99	58.51
569.15	98.30
569.32	133.41
569.48	81.92
569.64	39.79
569.81	110.01
569.97	63.19
570.13	77.24
570.30	79.58
570.46	56.17
570.62	77.24
570.78	25.75
570.95	133.41
571.11	58.51
571.27	79.58
571.43	98.30
571.60	88.94
571.76	44.47
571.92	79.58
572.09	79.58
572.25	37.45
572.41	21.06
572.57	95.96
572.74	131.07
572.90	88.94
573.06	126.39
573.22	70.22
573.38	49.15
573.55	100.64
573.71	46.81
573.87	74.90
574.03	60.85
574.20	37.45
574.36	70.22
574.52	86.60
574.68	56.17
574.84	2.34
575.01	177.88
575.17	117.03
575.33	65.54
575.49	98.30
575.65	110.01
575.82	88.94
575.98	84.26
576.14	86.60
576.30	60.85
576.46	110.01
576.62	112.35
576.79	100.64
576.95	110.01
577.11	46.81
577.27	4.68
577.43	65.54
577.59	102.98
577.75	88.94
577.92	105.32
578.08	105.32
578.24	81.92
578.40	124.05
578.56	91.28
578.72	133.41
578.88	42.13
579.04	63.19
579.21	72.56
579.37	63.19
579.53	21.06
579.69	88.94
579.85	140.43
580.01	112.35
580.17	107.66
580.33	77.24
580.49	117.03
580.65	93.62
580.82	74.90
580.98	23.41
581.14	58.51
581.30	49.15
581.46	35.11
581.62	110.01
581.78	100.64
581.94	53.83
582.10	105.32
582.26	88.94
582.42	39.79
582.58	95.96
582.74	46.81
582.90	30.43
583.06	72.56
583.22	110.01
583.38	44.47
583.54	42.13
583.70	65.54
583.86	42.13
584.02	49.15
584.18	119.37
584.34	49.15
584.50	16.38
584.66	88.94
584.82	121.71
584.98	58.51
585.14	49.15
585.30	16.38
585.46	70.22
585.62	74.90
585.78	86.60
585.94	163.84
586.10	51.49
586.26	32.77
586.42	156.82
586.58	46.81
586.74	70.22
586.90	30.43
587.06	133.41
587.22	117.03
587.38	117.03
587.54	74.90
587.70	42.13
587.86	201.29
588.02	124.05
588.18	63.19
588.34	70.22
588.49	119.37
588.65	14.04
588.81	51.49
588.97	72.56
589.13	53.83
589.29	84.26
589.45	35.11
589.61	21.06
589.77	30.43
589.93	86.60
590.08	70.22
590.24	100.64
590.40	152.13
590.56	30.43
590.72	88.94
590.88	77.24
591.04	44.47
591.20	95.96
591.35	70.22
591.51	28.09
591.67	86.60
591.83	110.01
591.99	81.92
592.15	81.92
592.31	154.48
592.46	72.56
592.62	16.38
592.78	112.35
592.94	121.71
593.10	86.60
593.26	84.26
593.41	7.02
593.57	95.96
593.73	102.98
593.89	42.13
594.05	42.13
594.20	128.73
594.36	58.51
594.52	56.17
594.68	161.50
594.84	79.58
594.99	58.51
595.15	95.96
595.31	46.81
595.47	70.22
595.62	28.09
595.78	100.64
595.94	51.49
596.10	65.54
596.25	60.85
596.41	86.60
596.57	93.62
596.73	63.19
596.88	81.92
597.04	70.22
597.20	37.45
597.36	142.77
597.51	79.58
597.67	65.54
597.83	84.26
597.99	70.22
598.14	128.73
598.30	149.79
598.46	98.30
598.61	51.49
598.77	63.19
598.93	44.47
599.09	88.94
599.24	51.49
599.40	65.54
599.56	56.17
599.71	51.49
599.87	72.56
600.03	72.56
600.18	56.17
600.34	25.75
600.50	53.83
600.65	140.43
600.81	98.30
600.97	39.79
601.12	119.37
601.28	65.54
601.44	56.17
601.59	23.41
601.75	30.43
601.91	58.51
602.06	32.77
602.22	4.68
602.37	35.11
602.53	72.56
602.69	9.36
602.84	142.77
603.00	9.36
603.16	138.09
603.31	77.24
603.47	53.83
603.62	84.26
603.78	133.41
603.94	0.00
604.09	79.58
604.25	72.56
604.40	126.39
604.56	88.94
604.71	0.00
604.87	79.58
605.03	42.13
605.18	67.88
605.34	18.72
605.49	0.00
605.65	72.56
605.80	0.00
605.96	74.90
606.12	39.79
606.27	58.51
606.43	67.88
606.58	79.58
606.74	147.45
606.89	53.83
607.05	23.41
607.20	110.01
607.36	65.54
607.51	51.49
607.67	74.90
607.82	39.79
607.98	49.15
608.13	30.43
608.29	21.06
608.44	107.66
608.60	124.05
608.75	67.88
608.91	86.60
609.06	39.79
609.22	32.77
609.37	79.58
609.53	112.35
609.68	0.00
609.84	79.58
609.99	9.36
610.15	84.26
610.30	51.49
610.46	72.56
610.61	65.54
610.76	37.45
610.92	16.38
611.07	81.92
611.23	49.15
611.38	46.81
611.54	44.47
611.69	131.07
611.84	0.00
612.00	7.02
612.15	77.24
612.31	32.77
612.46	56.17
612.62	84.26
612.77	100.64
612.92	46.81
613.08	25.75
613.23	35.11
613.39	7.02
613.54	72.56
613.69	98.30
613.85	102.98
614.00	63.19
614.15	67.88
614.31	77.24
614.46	131.07
614.62	28.09
614.77	102.98
614.92	0.00
615.08	32.77
615.23	124.05
615.38	110.01
615.54	131.07
615.69	91.28
615.84	140.43
616.00	72.56
616.15	74.90
616.30	98.30
616.46	95.96
616.61	28.09
616.76	56.17
616.92	77.24
617.07	16.38
617.22	67.88
617.37	25.75
617.53	53.83
617.68	44.47
617.83	91.28
617.99	35.11
618.14	86.60
618.29	28.09
618.45	135.75
618.60	39.79
618.75	65.54
618.90	65.54
619.06	119.37
619.21	30.43
619.36	121.71
619.51	74.90
619.67	4.68
619.82	30.43
619.97	79.58
620.12	60.85
620.28	140.43
620.43	107.66
620.58	0.00
620.73	30.43
620.89	124.05
621.04	39.79
621.19	25.75
621.34	138.09
621.49	79.58
621.65	14.04
621.80	53.83
621.95	114.69
622.10	114.69
622.25	72.56
622.41	91.28
622.56	72.56
622.71	58.51
622.86	53.83
623.01	58.51
623.16	65.54
623.32	84.26
623.47	35.11
623.62	35.11
623.77	0.00
623.92	51.49
624.07	88.94
624.23	42.13
624.38	74.90
624.53	84.26
624.68	63.19
624.83	16.38
624.98	95.96
625.13	46.81
625.29	77.24
625.44	170.86
625.59	121.71
625.74	39.79
625.89	32.77
626.04	42.13
626.19	126.39
626.34	53.83
626.49	44.47
626.65	51.49
626.80	86.60
626.95	7.02
627.10	32.77
627.25	9.36
627.40	37.45
627.55	0.00
627.70	70.22
627.85	16.38
628.00	110.01
628.15	28.09
628.30	23.41
628.45	46.81
628.60	72.56
628.76	86.60
628.91	53.83
629.06	63.19
629.21	114.69
629.36	30.43
629.51	133.41
629.66	32.77
629.81	58.51
629.96	35.11
630.11	56.17
630.26	65.54
630.41	7.02
630.56	39.79
630.71	18.72
630.86	11.70
631.01	23.41
631.16	70.22
631.31	159.16
631.46	9.36
631.61	58.51
631.76	110.01
631.91	25.75
632.06	37.45
632.21	46.81
632.36	91.28
632.51	65.54
632.66	112.35
632.81	72.56
632.96	0.00
633.10	65.54
633.25	28.09
633.40	32.77
633.55	88.94
633.70	51.49
633.85	105.32
634.00	42.13
634.15	70.22
634.30	74.90
634.45	14.04
634.60	49.15
634.75	60.85
634.90	114.69
635.05	74.90
635.19	60.85
635.34	44.47
635.49	67.88
635.64	23.41
635.79	2.34
635.94	114.69
636.09	79.58
636.24	56.17
636.39	0.00
636.53	44.47
636.68	28.09
636.83	53.83
636.98	23.41
637.13	114.69
637.28	86.60
637.43	58.51
637.57	70.22
637.72	91.28
637.87	77.24
638.02	166.18
638.17	11.70
638.32	51.49
638.46	60.85
638.61	88.94
638.76	49.15
638.91	32.77
639.06	60.85
639.20	9.36
639.35	77.24
639.50	30.43
639.65	56.17
639.80	42.13
639.94	95.96
640.09	88.94
640.24	60.85
640.39	4.68
640.54	81.92
640.68	84.26
640.83	25.75
640.98	42.13
641.13	39.79
641.27	2.34
641.42	72.56
641.57	16.38
641.72	37.45
641.86	49.15
642.01	140.43
642.16	79.58
642.31	44.47
642.45	77.24
642.60	51.49
642.75	65.54
642.90	65.54
643.04	46.81
643.19	117.03
643.34	53.83
643.48	49.15
643.63	105.32
643.78	84.26
643.93	30.43
644.07	117.03
644.22	51.49
644.37	77.24
644.51	35.11
644.66	7.02
644.81	63.19
644.95	28.09
645.10	39.79
645.25	70.22
645.39	91.28
645.54	102.98
645.69	86.60
645.83	53.83
645.98	30.43
646.13	37.45
646.27	0.00
646.42	32.77
646.57	0.00
646.71	9.36
646.86	84.26
647.00	51.49
647.15	56.17
647.30	79.58
647.44	21.06
647.59	77.24
647.74	18.72
647.88	102.98
648.03	44.47
648.17	30.43
648.32	25.75
648.47	44.47
648.61	128.73
648.76	49.15
648.90	0.00
649.05	84.26
649.20	0.00
649.34	23.41
649.49	16.38
649.63	14.04
649.78	51.49
649.92	0.00
650.07	0.00
650.21	0.00
650.36	51.49
650.51	77.24
650.65	63.19
650.80	53.83
650.94	65.54
651.09	72.56
651.23	35.11
651.38	39.79
651.52	112.35
651.67	16.38
651.81	86.60
651.96	95.96
652.10	88.94
652.25	51.49
652.39	51.49
652.54	81.92
652.68	0.00
652.83	46.81
652.97	0.00
653.12	49.15
653.26	126.39
653.41	110.01
653.55	23.41
653.70	100.64
653.84	11.70
653.99	4.68
654.13	4.68
654.27	72.56
654.42	0.00
654.56	72.56
654.71	91.28
654.85	46.81
655.00	37.45
655.14	102.98
655.29	65.54
655.43	46.81
655.57	84.26
655.72	23.41
655.86	53.83
656.01	21.06
656.15	18.72
656.30	81.92
656.44	53.83
656.58	39.79
656.73	117.03
656.87	0.00
657.01	2.34
657.16	60.85
657.30	74.90
657.45	51.49
657.59	88.94
657.73	28.09
657.88	102.98
658.02	100.64
658.16	63.19
658.31	42.13
658.45	37.45
658.60	60.85
658.74	91.28
658.88	23.41
659.03	42.13
659.17	46.81
659.31	93.62
659.46	121.71
659.60	145.11
659.74	131.07
659.89	88.94
660.03	107.66
660.17	67.88
660.32	30.43
660.46	53.83
660.60	93.62
660.74	11.70
660.89	84.26
661.03	77.24
661.17	102.98
661.32	0.00
661.46	0.00
661.60	21.06
661.74	77.24
661.89	49.15
662.03	42.13
662.17	65.54
662.31	0.00
662.46	98.30
662.60	58.51
662.74	53.83
662.88	21.06
663.03	77.24
663.17	39.79
663.31	35.11
663.45	35.11
663.60	0.00
663.74	18.72
663.88	37.45
664.02	79.58
664.17	60.85
664.31	53.83
664.45	32.77
664.59	28.09
664.73	65.54
664.88	16.38
665.02	21.06
665.16	63.19
665.30	25.75
665.44	42.13
665.59	112.35
665.73	74.90
665.87	11.70
666.01	70.22
666.15	84.26
666.29	124.05
666.44	91.28
666.58	37.45
666.72	56.17
666.86	147.45
667.00	49.15
667.14	7.02
667.28	81.92
667.43	30.43
667.57	119.37
667.71	156.82
667.85	32.77
667.99	91.28
668.13	49.15
668.27	0.00
668.41	0.00
668.56	60.85
668.70	46.81
668.84	91.28
668.98	65.54
669.12	21.06
669.26	14.04
669.40	4.68
669.54	49.15
669.68	28.09
669.82	25.75
669.96	74.90
670.10	60.85
670.25	9.36
670.39	42.13
670.53	28.09
670.67	9.36
670.81	4.68
670.95	81.92
671.09	70.22
671.23	25.75
671.37	67.88
671.51	95.96
671.65	44.47
671.79	51.49
671.93	117.03
672.07	86.60
672.21	39.79
672.35	91.28
672.49	63.19
672.63	138.09
672.77	140.43
672.91	25.75
673.05	88.94
673.19	46.81
673.33	39.79
673.47	30.43
673.61	18.72
673.75	0.00
673.89	42.13
674.03	25.75
674.17	35.11
674.31	93.62
674.45	0.00
674.59	67.88
674.73	11.70
674.87	70.22
675.01	77.24
675.15	79.58
675.29	60.85
675.43	81.92
675.56	32.77
675.70	112.35
675.84	30.43
675.98	0.00
676.12	98.30
676.26	0.00
676.40	46.81
676.54	84.26
676.68	28.09
676.82	51.49
676.96	0.00
677.10	145.11
677.23	63.19
677.37	44.47
677.51	84.26
677.65	128.73
677.79	25.75
677.93	79.58
678.07	60.85
678.21	74.90
678.34	93.62
678.48	11.70
678.62	70.22
678.76	91.28
678.90	2.34
679.04	58.51
679.18	112.35
679.31	70.22
679.45	98.30
679.59	42.13
679.73	79.58
679.87	9.36
680.00	14.04
680.14	14.04
680.28	0.00
680.42	77.24
680.56	0.00
680.70	35.11
680.83	65.54
680.97	16.38
681.11	46.81
681.25	72.56
681.39	49.15
681.52	0.00
681.66	91.28
681.80	51.49
681.94	0.00
682.07	25.75
682.21	39.79
682.35	74.90
682.49	70.22
682.62	70.22
682.76	53.83
682.90	81.92
683.04	117.03
683.17	81.92
683.31	77.24
683.45	79.58
683.59	53.83
683.72	0.00
683.86	23.41
684.00	0.00
684.13	14.04
684.27	18.72
684.41	67.88
684.55	21.06
684.68	74.90
684.82	42.13
684.96	81.92
685.09	11.70
685.23	51.49
685.37	49.15
685.50	42.13
685.64	65.54
685.78	16.38
685.91	58.51
686.05	53.83
686.19	60.85
686.32	93.62
686.46	51.49
686.60	95.96
686.73	0.00
686.87	18.72
687.01	56.17
687.14	65.54
687.28	42.13
687.42	44.47
687.55	67.88
687.69	107.66
687.82	110.01
687.96	0.00
688.10	42.13
688.23	0.00
688.37	81.92
688.50	86.60
688.64	70.22
688.78	79.58
688.91	117.03
689.05	56.17
689.18	0.00
689.32	46.81
689.46	60.85
689.59	0.00
689.73	49.15
689.86	39.79
690.00	0.00
690.13	0.00
690.27	28.09
690.41	28.09
690.54	0.00
690.68	0.00
690.81	46.81
690.95	37.45
691.08	0.00
691.22	18.72
691.35	0.00
691.49	39.79
691.62	39.79
691.76	23.41
691.89	0.00
692.03	37.45
692.16	37.45
692.30	51.49
692.43	18.72
692.57	0.00
692.70	2.34
692.84	30.43
692.97	51.49
693.11	14.04
693.24	70.22
693.38	7.02
693.51	2.34
693.65	63.19
693.78	35.11
693.92	37.45
694.05	65.54
694.19	21.06
694.32	0.00
694.45	114.69
694.59	18.72
694.72	0.00
694.86	60.85
694.99	105.32
695.13	128.73
695.26	46.81
695.39	58.51
695.53	60.85
695.66	84.26
695.80	58.51
695.93	56.17
696.07	42.13
696.20	63.19
696.33	42.13
696.47	0.00
696.60	0.00
696.73	56.17
696.87	37.45
697.00	46.81
697.14	18.72
697.27	4.68
697.40	7.02
697.54	35.11
697.67	11.70
697.80	0.00
697.94	14.04
698.07	21.06
698.21	11.70
698.34	93.62
698.47	65.54
698.61	42.13
698.74	46.81
698.87	39.79
699.01	32.77
699.14	4.68
699.27	16.38
699.40	18.72
699.54	16.38
699.67	79.58
699.80	37.45
699.94	56.17
700.07	0.00
700.20	9.36
700.34	79.58
700.47	16.38
700.60	0.00
700.73	25.75
700.87	30.43
701.00	74.90
701.13	102.98
701.26	18.72
701.40	67.88
701.53	0.00
701.66	74.90
701.79	67.88
701.93	42.13
702.06	16.38
702.19	81.92
702.32	0.00
702.46	32.77
702.59	0.00
702.72	0.00
702.85	0.00
702.99	0.00
703.12	46.81
703.25	28.09
703.38	42.13
703.51	56.17
703.65	63.19
703.78	30.43
703.91	107.66
704.04	100.64
704.17	60.85
704.31	0.00
704.44	0.00
704.57	0.00
704.70	42.13
704.83	28.09
704.96	100.64
705.10	23.41
705.23	51.49
>>>>>End Processed Spectral Data<<<<<
