SpectraSuite Data File
++++++++++++++++++++++++++++++++++++
Date: Fri Oct 04 12:13:29 GMT-05:00 2013
User: price-jones
Dark Spectrum Present: No
Reference Spectrum Present: No
Number of Sampled Component Spectra: 1
Spectrometers: USB2+H05261
Integration Time (usec): 10000 (USB2+H05261)
Spectra Averaged: 1 (USB2+H05261)
Boxcar Smoothing: 0 (USB2+H05261)
Correct for Electrical Dark: No (USB2+H05261)
Strobe/Lamp Enabled: No (USB2+H05261)
Correct for Detector Non-linearity: No (USB2+H05261)
Correct for Stray Light: No (USB2+H05261)
Number of Pixels in Processed Spectrum: 2048
>>>>>Begin Processed Spectral Data<<<<<
365.73	0.00
365.92	0.00
366.12	0.00
366.32	0.00
366.52	0.00
366.72	0.00
366.91	0.00
367.11	0.00
367.31	0.00
367.51	0.00
367.70	0.00
367.90	0.00
368.10	0.00
368.30	0.00
368.49	0.00
368.69	0.00
368.89	0.00
369.09	0.00
369.28	0.00
369.48	0.00
369.68	0.00
369.87	0.00
370.07	0.00
370.27	0.00
370.47	0.00
370.66	0.00
370.86	0.00
371.06	0.00
371.25	0.00
371.45	16.38
371.65	0.00
371.84	0.00
372.04	0.00
372.24	58.51
372.44	0.00
372.63	7.02
372.83	9.36
373.03	39.79
373.22	14.04
373.42	32.77
373.62	35.11
373.81	0.00
374.01	63.19
374.21	0.00
374.40	0.00
374.60	42.13
374.79	35.11
374.99	53.83
375.19	72.56
375.38	70.22
375.58	51.49
375.78	93.62
375.97	35.11
376.17	53.83
376.37	42.13
376.56	42.13
376.76	51.49
376.95	0.00
377.15	0.00
377.35	60.85
377.54	0.00
377.74	2.34
377.93	18.72
378.13	0.00
378.33	0.00
378.52	28.09
378.72	35.11
378.91	23.41
379.11	37.45
379.31	0.00
379.50	16.38
379.70	11.70
379.89	4.68
380.09	70.22
380.28	37.45
380.48	32.77
380.68	0.00
380.87	28.09
381.07	0.00
381.26	0.00
381.46	39.79
381.65	65.54
381.85	4.68
382.04	51.49
382.24	42.13
382.43	0.00
382.63	0.00
382.83	0.00
383.02	0.00
383.22	0.00
383.41	44.47
383.61	0.00
383.80	0.00
384.00	0.00
384.19	44.47
384.39	0.00
384.58	0.00
384.78	25.75
384.97	14.04
385.17	79.58
385.36	88.94
385.56	65.54
385.75	53.83
385.95	37.45
386.14	18.72
386.34	56.17
386.53	0.00
386.72	7.02
386.92	46.81
387.11	0.00
387.31	30.43
387.50	39.79
387.70	35.11
387.89	0.00
388.09	28.09
388.28	86.60
388.48	46.81
388.67	37.45
388.86	0.00
389.06	30.43
389.25	0.00
389.45	25.75
389.64	0.00
389.84	53.83
390.03	56.17
390.22	0.00
390.42	0.00
390.61	39.79
390.81	37.45
391.00	0.00
391.19	25.75
391.39	60.85
391.58	28.09
391.78	0.00
391.97	0.00
392.16	0.00
392.36	39.79
392.55	16.38
392.75	0.00
392.94	21.06
393.13	0.00
393.33	30.43
393.52	9.36
393.71	32.77
393.91	0.00
394.10	25.75
394.29	9.36
394.49	37.45
394.68	37.45
394.88	46.81
395.07	46.81
395.26	58.51
395.46	30.43
395.65	63.19
395.84	0.00
396.04	0.00
396.23	70.22
396.42	18.72
396.62	70.22
396.81	0.00
397.00	53.83
397.19	42.13
397.39	46.81
397.58	0.00
397.77	0.00
397.97	0.00
398.16	81.92
398.35	88.94
398.55	0.00
398.74	23.41
398.93	0.00
399.12	18.72
399.32	21.06
399.51	44.47
399.70	16.38
399.90	44.47
400.09	35.11
400.28	95.96
400.47	37.45
400.67	14.04
400.86	49.15
401.05	0.00
401.24	0.00
401.44	49.15
401.63	9.36
401.82	131.07
402.01	30.43
402.21	0.00
402.40	63.19
402.59	56.17
402.78	56.17
402.97	72.56
403.17	70.22
403.36	9.36
403.55	21.06
403.74	0.00
403.93	72.56
404.13	30.43
404.32	51.49
404.51	42.13
404.70	30.43
404.89	30.43
405.09	23.41
405.28	16.38
405.47	44.47
405.66	0.00
405.85	0.00
406.05	93.62
406.24	56.17
406.43	16.38
406.62	28.09
406.81	63.19
407.00	7.02
407.20	0.00
407.39	0.00
407.58	7.02
407.77	0.00
407.96	44.47
408.15	0.00
408.34	21.06
408.54	23.41
408.73	65.54
408.92	32.77
409.11	37.45
409.30	51.49
409.49	37.45
409.68	11.70
409.87	51.49
410.07	2.34
410.26	9.36
410.45	39.79
410.64	0.00
410.83	79.58
411.02	21.06
411.21	39.79
411.40	28.09
411.59	0.00
411.78	81.92
411.98	14.04
412.17	16.38
412.36	65.54
412.55	23.41
412.74	37.45
412.93	9.36
413.12	70.22
413.31	88.94
413.50	44.47
413.69	58.51
413.88	65.54
414.07	0.00
414.26	0.00
414.45	0.00
414.64	0.00
414.83	65.54
415.02	16.38
415.22	114.69
415.41	84.26
415.60	49.15
415.79	32.77
415.98	100.64
416.17	30.43
416.36	0.00
416.55	35.11
416.74	77.24
416.93	53.83
417.12	32.77
417.31	56.17
417.50	14.04
417.69	81.92
417.88	0.00
418.07	51.49
418.26	37.45
418.45	70.22
418.64	9.36
418.83	30.43
419.02	0.00
419.21	18.72
419.39	28.09
419.58	14.04
419.77	30.43
419.96	63.19
420.15	0.00
420.34	95.96
420.53	56.17
420.72	72.56
420.91	0.00
421.10	58.51
421.29	0.00
421.48	30.43
421.67	49.15
421.86	11.70
422.05	0.00
422.24	49.15
422.43	46.81
422.61	67.88
422.80	21.06
422.99	16.38
423.18	53.83
423.37	23.41
423.56	93.62
423.75	84.26
423.94	32.77
424.13	39.79
424.32	2.34
424.50	39.79
424.69	72.56
424.88	35.11
425.07	0.00
425.26	72.56
425.45	46.81
425.64	65.54
425.83	46.81
426.01	39.79
426.20	23.41
426.39	81.92
426.58	4.68
426.77	32.77
426.96	60.85
427.15	0.00
427.33	0.00
427.52	0.00
427.71	42.13
427.90	53.83
428.09	65.54
428.28	23.41
428.46	49.15
428.65	0.00
428.84	91.28
429.03	74.90
429.22	60.85
429.40	39.79
429.59	49.15
429.78	21.06
429.97	23.41
430.16	56.17
430.34	79.58
430.53	25.75
430.72	0.00
430.91	0.00
431.10	11.70
431.28	4.68
431.47	14.04
431.66	0.00
431.85	37.45
432.03	37.45
432.22	100.64
432.41	0.00
432.60	67.88
432.79	58.51
432.97	23.41
433.16	105.32
433.35	74.90
433.54	53.83
433.72	16.38
433.91	23.41
434.10	16.38
434.28	37.45
434.47	63.19
434.66	56.17
434.85	32.77
435.03	70.22
435.22	23.41
435.41	9.36
435.59	35.11
435.78	44.47
435.97	0.00
436.16	16.38
436.34	0.00
436.53	65.54
436.72	16.38
436.90	16.38
437.09	0.00
437.28	49.15
437.46	81.92
437.65	4.68
437.84	49.15
438.02	56.17
438.21	35.11
438.40	0.00
438.58	51.49
438.77	16.38
438.96	0.00
439.14	35.11
439.33	0.00
439.52	72.56
439.70	28.09
439.89	44.47
440.08	70.22
440.26	30.43
440.45	102.98
440.63	32.77
440.82	86.60
441.01	56.17
441.19	0.00
441.38	0.00
441.57	42.13
441.75	51.49
441.94	0.00
442.12	44.47
442.31	25.75
442.50	32.77
442.68	39.79
442.87	14.04
443.05	0.00
443.24	39.79
443.43	9.36
443.61	98.30
443.80	7.02
443.98	21.06
444.17	2.34
444.35	112.35
444.54	25.75
444.73	11.70
444.91	46.81
445.10	0.00
445.28	42.13
445.47	42.13
445.65	65.54
445.84	35.11
446.02	28.09
446.21	32.77
446.39	16.38
446.58	67.88
446.77	84.26
446.95	39.79
447.14	30.43
447.32	42.13
447.51	0.00
447.69	70.22
447.88	35.11
448.06	60.85
448.25	63.19
448.43	18.72
448.62	77.24
448.80	14.04
448.99	9.36
449.17	21.06
449.36	60.85
449.54	67.88
449.73	79.58
449.91	74.90
450.10	0.00
450.28	35.11
450.46	14.04
450.65	56.17
450.83	84.26
451.02	0.00
451.20	0.00
451.39	72.56
451.57	32.77
451.76	44.47
451.94	28.09
452.13	67.88
452.31	9.36
452.49	0.00
452.68	21.06
452.86	35.11
453.05	56.17
453.23	9.36
453.42	0.00
453.60	18.72
453.78	49.15
453.97	21.06
454.15	131.07
454.34	25.75
454.52	37.45
454.70	53.83
454.89	58.51
455.07	0.00
455.26	18.72
455.44	16.38
455.62	0.00
455.81	42.13
455.99	65.54
456.17	0.00
456.36	42.13
456.54	18.72
456.73	86.60
456.91	11.70
457.09	49.15
457.28	7.02
457.46	0.00
457.64	0.00
457.83	39.79
458.01	74.90
458.19	0.00
458.38	60.85
458.56	91.28
458.74	77.24
458.93	58.51
459.11	58.51
459.29	16.38
459.48	0.00
459.66	86.60
459.84	46.81
460.03	0.00
460.21	0.00
460.39	35.11
460.57	7.02
460.76	14.04
460.94	37.45
461.12	11.70
461.31	28.09
461.49	39.79
461.67	56.17
461.85	46.81
462.04	37.45
462.22	60.85
462.40	16.38
462.59	56.17
462.77	0.00
462.95	35.11
463.13	93.62
463.32	37.45
463.50	0.00
463.68	11.70
463.86	42.13
464.05	7.02
464.23	30.43
464.41	58.51
464.59	0.00
464.78	128.73
464.96	49.15
465.14	53.83
465.32	37.45
465.50	53.83
465.69	28.09
465.87	46.81
466.05	46.81
466.23	46.81
466.41	51.49
466.60	37.45
466.78	67.88
466.96	18.72
467.14	53.83
467.32	16.38
467.51	0.00
467.69	65.54
467.87	14.04
468.05	60.85
468.23	51.49
468.41	56.17
468.60	67.88
468.78	81.92
468.96	91.28
469.14	11.70
469.32	49.15
469.50	53.83
469.69	46.81
469.87	44.47
470.05	0.00
470.23	0.00
470.41	32.77
470.59	37.45
470.77	11.70
470.95	0.00
471.14	81.92
471.32	81.92
471.50	16.38
471.68	18.72
471.86	124.05
472.04	63.19
472.22	16.38
472.40	39.79
472.58	56.17
472.77	0.00
472.95	100.64
473.13	60.85
473.31	58.51
473.49	9.36
473.67	0.00
473.85	84.26
474.03	60.85
474.21	77.24
474.39	117.03
474.57	0.00
474.75	25.75
474.93	18.72
475.12	23.41
475.30	16.38
475.48	23.41
475.66	42.13
475.84	7.02
476.02	0.00
476.20	74.90
476.38	86.60
476.56	53.83
476.74	32.77
476.92	42.13
477.10	0.00
477.28	25.75
477.46	0.00
477.64	74.90
477.82	16.38
478.00	25.75
478.18	16.38
478.36	56.17
478.54	4.68
478.72	72.56
478.90	74.90
479.08	65.54
479.26	102.98
479.44	74.90
479.62	93.62
479.80	0.00
479.98	79.58
480.16	23.41
480.34	4.68
480.52	0.00
480.70	84.26
480.88	0.00
481.06	58.51
481.24	60.85
481.41	42.13
481.59	23.41
481.77	42.13
481.95	46.81
482.13	23.41
482.31	0.00
482.49	46.81
482.67	37.45
482.85	98.30
483.03	0.00
483.21	58.51
483.39	74.90
483.57	0.00
483.74	25.75
483.92	39.79
484.10	0.00
484.28	70.22
484.46	25.75
484.64	37.45
484.82	77.24
485.00	46.81
485.18	0.00
485.35	95.96
485.53	53.83
485.71	56.17
485.89	51.49
486.07	105.32
486.25	42.13
486.43	39.79
486.61	60.85
486.78	39.79
486.96	60.85
487.14	25.75
487.32	28.09
487.50	0.00
487.68	32.77
487.85	56.17
488.03	74.90
488.21	0.00
488.39	67.88
488.57	0.00
488.75	56.17
488.92	56.17
489.10	39.79
489.28	72.56
489.46	9.36
489.64	63.19
489.81	44.47
489.99	53.83
490.17	0.00
490.35	42.13
490.53	16.38
490.70	46.81
490.88	72.56
491.06	28.09
491.24	56.17
491.41	28.09
491.59	25.75
491.77	0.00
491.95	58.51
492.13	91.28
492.30	35.11
492.48	14.04
492.66	67.88
492.84	16.38
493.01	67.88
493.19	51.49
493.37	14.04
493.54	21.06
493.72	58.51
493.90	74.90
494.08	21.06
494.25	23.41
494.43	112.35
494.61	0.00
494.79	98.30
494.96	79.58
495.14	32.77
495.32	0.00
495.49	51.49
495.67	51.49
495.85	51.49
496.02	0.00
496.20	0.00
496.38	35.11
496.55	65.54
496.73	9.36
496.91	4.68
497.09	16.38
497.26	35.11
497.44	81.92
497.62	72.56
497.79	58.51
497.97	56.17
498.14	84.26
498.32	44.47
498.50	28.09
498.67	60.85
498.85	32.77
499.03	100.64
499.20	30.43
499.38	51.49
499.56	0.00
499.73	98.30
499.91	46.81
500.08	21.06
500.26	9.36
500.44	28.09
500.61	95.96
500.79	110.01
500.97	56.17
501.14	0.00
501.32	7.02
501.49	56.17
501.67	37.45
501.84	70.22
502.02	32.77
502.20	11.70
502.37	60.85
502.55	74.90
502.72	16.38
502.90	4.68
503.07	49.15
503.25	14.04
503.43	32.77
503.60	16.38
503.78	25.75
503.95	98.30
504.13	49.15
504.30	0.00
504.48	7.02
504.65	53.83
504.83	63.19
505.01	37.45
505.18	51.49
505.36	4.68
505.53	0.00
505.71	0.00
505.88	32.77
506.06	9.36
506.23	21.06
506.41	7.02
506.58	53.83
506.76	0.00
506.93	0.00
507.11	46.81
507.28	95.96
507.46	77.24
507.63	74.90
507.81	23.41
507.98	88.94
508.16	37.45
508.33	2.34
508.50	30.43
508.68	79.58
508.85	63.19
509.03	56.17
509.20	63.19
509.38	0.00
509.55	0.00
509.73	51.49
509.90	49.15
510.08	46.81
510.25	32.77
510.42	100.64
510.60	23.41
510.77	81.92
510.95	67.88
511.12	39.79
511.30	39.79
511.47	16.38
511.64	67.88
511.82	74.90
511.99	49.15
512.17	93.62
512.34	30.43
512.51	30.43
512.69	30.43
512.86	21.06
513.04	28.09
513.21	0.00
513.38	112.35
513.56	56.17
513.73	53.83
513.90	7.02
514.08	28.09
514.25	84.26
514.43	98.30
514.60	16.38
514.77	14.04
514.95	28.09
515.12	72.56
515.29	42.13
515.47	93.62
515.64	51.49
515.81	74.90
515.99	100.64
516.16	7.02
516.33	74.90
516.51	53.83
516.68	88.94
516.85	0.00
517.03	18.72
517.20	51.49
517.37	14.04
517.54	14.04
517.72	70.22
517.89	4.68
518.06	18.72
518.24	79.58
518.41	60.85
518.58	95.96
518.75	53.83
518.93	49.15
519.10	28.09
519.27	14.04
519.45	58.51
519.62	53.83
519.79	58.51
519.96	0.00
520.14	35.11
520.31	58.51
520.48	93.62
520.65	28.09
520.83	0.00
521.00	42.13
521.17	37.45
521.34	37.45
521.52	74.90
521.69	60.85
521.86	42.13
522.03	21.06
522.20	65.54
522.38	91.28
522.55	67.88
522.72	119.37
522.89	0.00
523.07	0.00
523.24	18.72
523.41	7.02
523.58	39.79
523.75	63.19
523.92	42.13
524.10	2.34
524.27	0.00
524.44	9.36
524.61	51.49
524.78	28.09
524.96	140.43
525.13	0.00
525.30	117.03
525.47	9.36
525.64	14.04
525.81	11.70
525.98	86.60
526.16	91.28
526.33	30.43
526.50	9.36
526.67	25.75
526.84	18.72
527.01	0.00
527.18	58.51
527.36	37.45
527.53	100.64
527.70	72.56
527.87	7.02
528.04	110.01
528.21	0.00
528.38	77.24
528.55	16.38
528.72	32.77
528.89	16.38
529.07	23.41
529.24	30.43
529.41	44.47
529.58	0.00
529.75	70.22
529.92	49.15
530.09	58.51
530.26	25.75
530.43	51.49
530.60	0.00
530.77	32.77
530.94	46.81
531.11	79.58
531.28	23.41
531.46	72.56
531.63	0.00
531.80	39.79
531.97	0.00
532.14	16.38
532.31	119.37
532.48	0.00
532.65	77.24
532.82	11.70
532.99	91.28
533.16	39.79
533.33	44.47
533.50	30.43
533.67	49.15
533.84	49.15
534.01	81.92
534.18	46.81
534.35	9.36
534.52	67.88
534.69	0.00
534.86	60.85
535.03	93.62
535.20	70.22
535.37	49.15
535.54	23.41
535.71	9.36
535.88	37.45
536.05	37.45
536.22	58.51
536.38	16.38
536.55	58.51
536.72	18.72
536.89	46.81
537.06	42.13
537.23	35.11
537.40	0.00
537.57	0.00
537.74	98.30
537.91	65.54
538.08	0.00
538.25	51.49
538.42	11.70
538.59	37.45
538.75	11.70
538.92	147.45
539.09	51.49
539.26	11.70
539.43	65.54
539.60	105.32
539.77	77.24
539.94	203.63
540.11	107.66
540.28	119.37
540.44	28.09
540.61	39.79
540.78	81.92
540.95	84.26
541.12	72.56
541.29	70.22
541.46	4.68
541.62	25.75
541.79	39.79
541.96	53.83
542.13	63.19
542.30	7.02
542.47	46.81
542.63	16.38
542.80	28.09
542.97	11.70
543.14	65.54
543.31	11.70
543.48	0.00
543.64	2.34
543.81	105.32
543.98	110.01
544.15	35.11
544.32	35.11
544.48	14.04
544.65	86.60
544.82	51.49
544.99	35.11
545.16	46.81
545.32	49.15
545.49	121.71
545.66	32.77
545.83	28.09
546.00	39.79
546.16	70.22
546.33	67.88
546.50	44.47
546.67	154.48
546.83	56.17
547.00	65.54
547.17	37.45
547.34	70.22
547.50	0.00
547.67	39.79
547.84	42.13
548.00	72.56
548.17	30.43
548.34	28.09
548.51	37.45
548.67	74.90
548.84	0.00
549.01	91.28
549.18	14.04
549.34	46.81
549.51	98.30
549.68	79.58
549.84	44.47
550.01	0.00
550.18	67.88
550.34	42.13
550.51	65.54
550.68	42.13
550.84	53.83
551.01	4.68
551.18	51.49
551.34	16.38
551.51	42.13
551.68	70.22
551.84	95.96
552.01	88.94
552.18	67.88
552.34	60.85
552.51	133.41
552.68	35.11
552.84	112.35
553.01	53.83
553.18	46.81
553.34	60.85
553.51	23.41
553.67	51.49
553.84	58.51
554.01	67.88
554.17	79.58
554.34	42.13
554.51	18.72
554.67	35.11
554.84	65.54
555.00	58.51
555.17	156.82
555.33	88.94
555.50	60.85
555.67	86.60
555.83	72.56
556.00	56.17
556.16	102.98
556.33	0.00
556.50	32.77
556.66	11.70
556.83	56.17
556.99	91.28
557.16	0.00
557.32	0.00
557.49	91.28
557.65	72.56
557.82	4.68
557.98	93.62
558.15	98.30
558.32	42.13
558.48	46.81
558.65	49.15
558.81	0.00
558.98	74.90
559.14	100.64
559.31	53.83
559.47	58.51
559.64	49.15
559.80	0.00
559.97	84.26
560.13	102.98
560.30	16.38
560.46	67.88
560.63	35.11
560.79	0.00
560.96	37.45
561.12	53.83
561.29	16.38
561.45	84.26
561.61	67.88
561.78	58.51
561.94	23.41
562.11	30.43
562.27	30.43
562.44	2.34
562.60	0.00
562.77	65.54
562.93	72.56
563.10	102.98
563.26	67.88
563.42	0.00
563.59	0.00
563.75	2.34
563.92	74.90
564.08	30.43
564.24	100.64
564.41	95.96
564.57	65.54
564.74	67.88
564.90	4.68
565.07	84.26
565.23	2.34
565.39	7.02
565.56	16.38
565.72	63.19
565.88	63.19
566.05	79.58
566.21	14.04
566.38	0.00
566.54	70.22
566.70	46.81
566.87	44.47
567.03	42.13
567.19	32.77
567.36	35.11
567.52	0.00
567.68	79.58
567.85	58.51
568.01	88.94
568.17	25.75
568.34	0.00
568.50	2.34
568.66	70.22
568.83	100.64
568.99	51.49
569.15	25.75
569.32	14.04
569.48	16.38
569.64	46.81
569.81	0.00
569.97	58.51
570.13	46.81
570.30	28.09
570.46	23.41
570.62	14.04
570.78	0.00
570.95	65.54
571.11	0.00
571.27	53.83
571.43	16.38
571.60	77.24
571.76	32.77
571.92	91.28
572.09	86.60
572.25	32.77
572.41	0.00
572.57	67.88
572.74	72.56
572.90	56.17
573.06	21.06
573.22	114.69
573.38	51.49
573.55	0.00
573.71	7.02
573.87	58.51
574.03	39.79
574.20	58.51
574.36	124.05
574.52	117.03
574.68	72.56
574.84	39.79
575.01	63.19
575.17	16.38
575.33	77.24
575.49	30.43
575.65	65.54
575.82	23.41
575.98	60.85
576.14	60.85
576.30	100.64
576.46	84.26
576.62	88.94
576.79	91.28
576.95	35.11
577.11	63.19
577.27	74.90
577.43	4.68
577.59	18.72
577.75	161.50
577.92	4.68
578.08	56.17
578.24	2.34
578.40	44.47
578.56	35.11
578.72	9.36
578.88	74.90
579.04	16.38
579.21	95.96
579.37	53.83
579.53	65.54
579.69	67.88
579.85	72.56
580.01	28.09
580.17	84.26
580.33	56.17
580.49	53.83
580.65	0.00
580.82	74.90
580.98	79.58
581.14	63.19
581.30	0.00
581.46	74.90
581.62	63.19
581.78	72.56
581.94	100.64
582.10	65.54
582.26	86.60
582.42	56.17
582.58	63.19
582.74	28.09
582.90	25.75
583.06	30.43
583.22	67.88
583.38	32.77
583.54	95.96
583.70	39.79
583.86	42.13
584.02	131.07
584.18	105.32
584.34	105.32
584.50	301.93
584.66	1884.13
584.82	4631.92
584.98	6595.63
585.14	5959.00
585.30	3702.73
585.46	2296.07
585.62	1519.01
585.78	702.16
585.94	229.37
586.10	161.50
586.26	91.28
586.42	121.71
586.58	95.96
586.74	46.81
586.90	77.24
587.06	35.11
587.22	77.24
587.38	58.51
587.54	81.92
587.70	259.80
587.86	554.71
588.02	519.60
588.18	292.57
588.34	217.67
588.49	95.96
588.65	166.18
588.81	60.85
588.97	44.47
589.13	21.06
589.29	63.19
589.45	53.83
589.61	23.41
589.77	107.66
589.93	107.66
590.08	53.83
590.24	9.36
590.40	86.60
590.56	105.32
590.72	51.49
590.88	23.41
591.04	56.17
591.20	39.79
591.35	18.72
591.51	77.24
591.67	7.02
591.83	0.00
591.99	14.04
592.15	53.83
592.31	23.41
592.46	63.19
592.62	110.01
592.78	105.32
592.94	65.54
593.10	42.13
593.26	39.79
593.41	65.54
593.57	0.00
593.73	39.79
593.89	234.05
594.05	669.39
594.20	809.83
594.36	851.96
594.52	695.14
594.68	346.40
594.84	248.10
594.99	189.58
595.15	88.94
595.31	67.88
595.47	72.56
595.62	88.94
595.78	11.70
595.94	0.00
596.10	112.35
596.25	39.79
596.41	114.69
596.57	63.19
596.73	46.81
596.88	98.30
597.04	133.41
597.20	182.56
597.36	227.03
597.51	154.48
597.67	180.22
597.83	81.92
597.99	81.92
598.14	95.96
598.30	102.98
598.46	44.47
598.61	18.72
598.77	93.62
598.93	23.41
599.09	105.32
599.24	72.56
599.40	9.36
599.56	91.28
599.71	32.77
599.87	74.90
600.03	84.26
600.18	51.49
600.34	28.09
600.50	0.00
600.65	0.00
600.81	77.24
600.97	79.58
601.12	98.30
601.28	46.81
601.44	70.22
601.59	100.64
601.75	63.19
601.91	0.00
602.06	28.09
602.22	86.60
602.37	105.32
602.53	128.73
602.69	149.79
602.84	191.92
603.00	276.18
603.16	77.24
603.31	105.32
603.47	49.15
603.62	51.49
603.78	58.51
603.94	4.68
604.09	30.43
604.25	49.15
604.40	53.83
604.56	39.79
604.71	79.58
604.87	46.81
605.03	21.06
605.18	0.00
605.34	58.51
605.49	79.58
605.65	77.24
605.80	93.62
605.96	0.00
606.12	86.60
606.27	42.13
606.43	79.58
606.58	74.90
606.74	51.49
606.89	365.12
607.05	566.41
607.20	755.99
607.36	624.92
607.51	400.23
607.67	276.18
607.82	227.03
607.98	175.54
608.13	135.75
608.29	44.47
608.44	60.85
608.60	58.51
608.75	72.56
608.91	98.30
609.06	512.58
609.22	978.34
609.37	1228.78
609.53	1151.54
609.68	671.73
609.84	454.06
609.99	304.27
610.15	278.52
610.30	121.71
610.46	67.88
610.61	72.56
610.76	86.60
610.92	72.56
611.07	16.38
611.23	98.30
611.38	124.05
611.54	58.51
611.69	72.56
611.84	35.11
612.00	0.00
612.15	95.96
612.31	60.85
612.46	0.00
612.62	121.71
612.77	84.26
612.92	100.64
613.08	0.00
613.23	9.36
613.39	105.32
613.54	18.72
613.69	390.87
613.85	1177.29
614.00	1809.23
614.15	1921.58
614.31	1448.79
614.46	1029.84
614.62	643.65
614.77	395.55
614.92	201.29
615.08	95.96
615.23	46.81
615.38	0.00
615.54	18.72
615.69	124.05
615.84	266.82
616.00	486.83
616.15	547.69
616.30	402.57
616.46	358.10
616.61	234.05
616.76	212.99
616.92	110.01
617.07	35.11
617.22	67.88
617.37	56.17
617.53	32.77
617.68	0.00
617.83	32.77
617.99	56.17
618.14	7.02
618.29	88.94
618.45	0.00
618.60	39.79
618.75	67.88
618.90	25.75
619.06	11.70
619.21	88.94
619.36	39.79
619.51	16.38
619.67	39.79
619.82	0.00
619.97	14.04
620.12	25.75
620.28	58.51
620.43	42.13
620.58	74.90
620.73	16.38
620.89	163.84
621.04	53.83
621.19	98.30
621.34	259.80
621.49	315.97
621.65	294.91
621.80	196.60
621.95	117.03
622.10	124.05
622.25	70.22
622.41	86.60
622.56	60.85
622.71	88.94
622.86	16.38
623.01	0.00
623.16	23.41
623.32	53.83
623.47	138.09
623.62	46.81
623.77	49.15
623.92	16.38
624.07	77.24
624.23	60.85
624.38	58.51
624.53	35.11
624.68	46.81
624.83	86.60
624.98	35.11
625.13	128.73
625.29	128.73
625.44	0.00
625.59	42.13
625.74	67.88
625.89	70.22
626.04	306.61
626.19	613.22
626.34	929.19
626.49	1048.56
626.65	751.31
626.80	533.64
626.95	353.42
627.10	259.80
627.25	102.98
627.40	84.26
627.55	28.09
627.70	51.49
627.85	131.07
628.00	32.77
628.15	53.83
628.30	91.28
628.45	53.83
628.60	79.58
628.76	18.72
628.91	0.00
629.06	0.00
629.21	21.06
629.36	42.13
629.51	7.02
629.66	28.09
629.81	131.07
629.96	133.41
630.11	173.20
630.26	264.48
630.41	283.20
630.56	205.97
630.71	184.90
630.86	93.62
631.01	121.71
631.16	18.72
631.31	53.83
631.46	53.83
631.61	72.56
631.76	25.75
631.91	56.17
632.06	74.90
632.21	44.47
632.36	39.79
632.51	0.00
632.66	63.19
632.81	156.82
632.96	386.19
633.10	657.69
633.25	723.23
633.40	601.52
633.55	409.59
633.70	276.18
633.85	231.71
634.00	126.39
634.15	30.43
634.30	0.00
634.45	93.62
634.60	79.58
634.75	70.22
634.90	84.26
635.05	91.28
635.19	58.51
635.34	28.09
635.49	91.28
635.64	0.00
635.79	67.88
635.94	0.00
636.09	4.68
636.24	72.56
636.39	32.77
636.53	44.47
636.68	0.00
636.83	58.51
636.98	72.56
637.13	49.15
637.28	58.51
637.43	86.60
637.57	32.77
637.72	330.02
637.87	800.46
638.02	1254.53
638.17	1364.53
638.32	1097.71
638.46	746.63
638.61	521.94
638.76	325.33
638.91	81.92
639.06	100.64
639.20	51.49
639.35	81.92
639.50	121.71
639.65	465.77
639.80	1226.44
639.94	1984.77
640.09	2136.91
640.24	1570.50
640.39	1095.37
640.54	702.16
640.68	409.59
640.83	170.86
640.98	86.60
641.13	14.04
641.27	63.19
641.42	77.24
641.57	72.56
641.72	88.94
641.86	49.15
642.01	84.26
642.16	67.88
642.31	63.19
642.45	0.00
642.60	49.15
642.75	100.64
642.90	0.00
643.04	23.41
643.19	65.54
643.34	0.00
643.48	0.00
643.63	84.26
643.78	46.81
643.93	112.35
644.07	70.22
644.22	46.81
644.37	35.11
644.51	0.00
644.66	60.85
644.81	39.79
644.95	11.70
645.10	105.32
645.25	23.41
645.39	28.09
645.54	42.13
645.69	23.41
645.83	2.34
645.98	39.79
646.13	18.72
646.27	30.43
646.42	14.04
646.57	56.17
646.71	0.00
646.86	0.00
647.00	138.09
647.15	67.88
647.30	28.09
647.44	53.83
647.59	35.11
647.74	16.38
647.88	51.49
648.03	93.62
648.17	35.11
648.32	44.47
648.47	0.00
648.61	0.00
648.76	0.00
648.90	67.88
649.05	44.47
649.20	98.30
649.34	30.43
649.49	56.17
649.63	0.00
649.78	21.06
649.92	63.19
650.07	173.20
650.21	606.20
650.36	798.12
650.51	1022.81
650.65	931.53
650.80	645.99
650.94	421.30
651.09	234.05
651.23	147.45
651.38	56.17
651.52	32.77
651.67	105.32
651.81	2.34
651.96	23.41
652.10	93.62
652.25	9.36
652.39	11.70
652.54	2.34
652.68	100.64
652.83	248.10
652.97	318.31
653.12	395.55
653.26	376.83
653.41	315.97
653.55	201.29
653.70	91.28
653.84	16.38
653.99	42.13
654.13	0.00
654.27	46.81
654.42	112.35
654.56	0.00
654.71	56.17
654.85	23.41
655.00	28.09
655.14	23.41
655.29	42.13
655.43	9.36
655.57	0.00
655.72	93.62
655.86	0.00
656.01	0.00
656.15	0.00
656.30	44.47
656.44	0.00
656.58	105.32
656.73	42.13
656.87	0.00
657.01	60.85
657.16	91.28
657.30	46.81
657.45	49.15
657.59	0.00
657.73	16.38
657.88	21.06
658.02	49.15
658.16	56.17
658.31	0.00
658.45	32.77
658.60	0.00
658.74	44.47
658.88	0.00
659.03	0.00
659.17	84.26
659.31	88.94
659.46	234.05
659.60	421.30
659.74	500.87
659.89	477.47
660.03	397.89
660.17	229.37
660.32	229.37
660.46	67.88
660.60	65.54
660.74	32.77
660.89	11.70
661.03	0.00
661.17	28.09
661.32	21.06
661.46	39.79
661.60	0.00
661.74	32.77
661.89	63.19
662.03	39.79
662.17	49.15
662.31	42.13
662.46	21.06
662.60	77.24
662.74	0.00
662.88	37.45
663.03	0.00
663.17	0.00
663.31	14.04
663.45	0.00
663.60	32.77
663.74	58.51
663.88	18.72
664.02	35.11
664.17	114.69
664.31	60.85
664.45	37.45
664.59	74.90
664.73	67.88
664.88	112.35
665.02	18.72
665.16	0.00
665.30	28.09
665.44	14.04
665.59	93.62
665.73	21.06
665.87	88.94
666.01	81.92
666.15	32.77
666.29	0.00
666.44	0.00
666.58	44.47
666.72	0.00
666.86	39.79
667.00	72.56
667.14	14.04
667.28	175.54
667.43	442.36
667.57	741.95
667.71	1036.86
667.85	826.21
667.99	636.63
668.13	369.80
668.27	273.84
668.41	196.60
668.56	98.30
668.70	21.06
668.84	88.94
668.98	2.34
669.12	86.60
669.26	53.83
669.40	0.00
669.54	0.00
669.68	37.45
669.82	42.13
669.96	60.85
670.10	32.77
670.25	79.58
670.39	14.04
670.53	9.36
670.67	42.13
670.81	79.58
670.95	88.94
671.09	131.07
671.23	163.84
671.37	418.96
671.51	528.96
671.65	678.76
671.79	521.94
671.93	353.42
672.07	220.01
672.21	220.01
672.35	112.35
672.49	72.56
672.63	79.58
672.77	0.00
672.91	9.36
673.05	0.00
673.19	44.47
673.33	60.85
673.47	53.83
673.61	77.24
673.75	39.79
673.89	91.28
674.03	0.00
674.17	0.00
674.31	0.00
674.45	142.77
674.59	25.75
674.73	18.72
674.87	49.15
675.01	65.54
675.15	4.68
675.29	100.64
675.43	60.85
675.56	70.22
675.70	72.56
675.84	100.64
675.98	70.22
676.12	56.17
676.26	0.00
676.40	0.00
676.54	0.00
676.68	42.13
676.82	63.19
676.96	112.35
677.10	121.71
677.23	53.83
677.37	56.17
677.51	39.79
677.65	28.09
677.79	30.43
677.93	4.68
678.07	2.34
678.21	0.00
678.34	53.83
678.48	0.00
678.62	74.90
678.76	51.49
678.90	60.85
679.04	72.56
679.18	28.09
679.31	77.24
679.45	56.17
679.59	0.00
679.73	74.90
679.87	0.00
680.00	39.79
680.14	2.34
680.28	11.70
680.42	28.09
680.56	9.36
680.70	60.85
680.83	65.54
680.97	2.34
681.11	0.00
681.25	70.22
681.39	21.06
681.52	32.77
681.66	112.35
681.80	18.72
681.94	0.00
682.07	18.72
682.21	51.49
682.35	7.02
682.49	30.43
682.62	58.51
682.76	39.79
682.90	42.13
683.04	72.56
683.17	32.77
683.31	46.81
683.45	58.51
683.59	88.94
683.72	44.47
683.86	112.35
684.00	72.56
684.13	0.00
684.27	9.36
684.41	39.79
684.55	77.24
684.68	18.72
684.82	49.15
684.96	0.00
685.09	35.11
685.23	2.34
685.37	28.09
685.50	4.68
685.64	51.49
685.78	88.94
685.91	0.00
686.05	42.13
686.19	42.13
686.32	0.00
686.46	28.09
686.60	9.36
686.73	16.38
686.87	0.00
687.01	28.09
687.14	0.00
687.28	44.47
687.42	0.00
687.55	0.00
687.69	7.02
687.82	23.41
687.96	23.41
688.10	49.15
688.23	91.28
688.37	0.00
688.50	0.00
688.64	11.70
688.78	11.70
688.91	77.24
689.05	44.47
689.18	42.13
689.32	0.00
689.46	0.00
689.59	2.34
689.73	0.00
689.86	63.19
690.00	72.56
690.13	93.62
690.27	4.68
690.41	32.77
690.54	70.22
690.68	0.00
690.81	0.00
690.95	60.85
691.08	0.00
691.22	4.68
691.35	11.70
691.49	0.00
691.62	51.49
691.76	21.06
691.89	32.77
692.03	81.92
692.16	21.06
692.30	18.72
692.43	121.71
692.57	234.05
692.70	297.25
692.84	451.72
692.97	479.81
693.11	320.65
693.24	154.48
693.38	175.54
693.51	135.75
693.65	28.09
693.78	60.85
693.92	0.00
694.05	32.77
694.19	9.36
694.32	11.70
694.45	4.68
694.59	84.26
694.72	56.17
694.86	18.72
694.99	37.45
695.13	70.22
695.26	58.51
695.39	32.77
695.53	58.51
695.66	32.77
695.80	25.75
695.93	46.81
696.07	63.19
696.20	0.00
696.33	100.64
696.47	37.45
696.60	37.45
696.73	65.54
696.87	37.45
697.00	16.38
697.14	0.00
697.27	84.26
697.40	39.79
697.54	0.00
697.67	51.49
697.80	79.58
697.94	79.58
698.07	25.75
698.21	53.83
698.34	0.00
698.47	58.51
698.61	0.00
698.74	23.41
698.87	16.38
699.01	63.19
699.14	0.00
699.27	0.00
699.40	16.38
699.54	42.13
699.67	138.09
699.80	18.72
699.94	86.60
700.07	37.45
700.20	51.49
700.34	35.11
700.47	0.00
700.60	0.00
700.73	53.83
700.87	107.66
701.00	58.51
701.13	42.13
701.26	25.75
701.40	0.00
701.53	79.58
701.66	72.56
701.79	0.00
701.93	0.00
702.06	70.22
702.19	124.05
702.32	56.17
702.46	18.72
702.59	79.58
702.72	131.07
702.85	229.37
702.99	528.96
703.12	802.80
703.25	854.30
703.38	669.39
703.51	514.92
703.65	500.87
703.78	285.55
703.91	224.69
704.04	142.77
704.17	114.69
704.31	107.66
704.44	25.75
704.57	63.19
704.70	11.70
704.83	4.68
704.96	0.00
705.10	28.09
705.23	32.77
>>>>>End Processed Spectral Data<<<<<
