SpectraSuite Data File
++++++++++++++++++++++++++++++++++++
Date: Fri Oct 04 12:13:30 GMT-05:00 2013
User: price-jones
Dark Spectrum Present: No
Reference Spectrum Present: No
Number of Sampled Component Spectra: 1
Spectrometers: USB2+H05261
Integration Time (usec): 10000 (USB2+H05261)
Spectra Averaged: 1 (USB2+H05261)
Boxcar Smoothing: 0 (USB2+H05261)
Correct for Electrical Dark: No (USB2+H05261)
Strobe/Lamp Enabled: No (USB2+H05261)
Correct for Detector Non-linearity: No (USB2+H05261)
Correct for Stray Light: No (USB2+H05261)
Number of Pixels in Processed Spectrum: 2048
>>>>>Begin Processed Spectral Data<<<<<
365.73	28.09
365.92	28.09
366.12	28.09
366.32	0.00
366.52	0.00
366.72	0.00
366.91	0.00
367.11	0.00
367.31	0.00
367.51	0.00
367.70	0.00
367.90	0.00
368.10	0.00
368.30	0.00
368.49	0.00
368.69	0.00
368.89	0.00
369.09	0.00
369.28	0.00
369.48	0.00
369.68	0.00
369.87	0.00
370.07	0.00
370.27	0.00
370.47	0.00
370.66	0.00
370.86	0.00
371.06	0.00
371.25	0.00
371.45	0.00
371.65	0.00
371.84	0.00
372.04	14.04
372.24	0.00
372.44	67.88
372.63	0.00
372.83	0.00
373.03	28.09
373.22	0.00
373.42	49.15
373.62	32.77
373.81	81.92
374.01	11.70
374.21	58.51
374.40	63.19
374.60	16.38
374.79	0.00
374.99	51.49
375.19	0.00
375.38	91.28
375.58	44.47
375.78	53.83
375.97	110.01
376.17	72.56
376.37	32.77
376.56	9.36
376.76	60.85
376.95	0.00
377.15	72.56
377.35	63.19
377.54	56.17
377.74	7.02
377.93	93.62
378.13	42.13
378.33	0.00
378.52	4.68
378.72	0.00
378.91	23.41
379.11	0.00
379.31	0.00
379.50	0.00
379.70	0.00
379.89	0.00
380.09	0.00
380.28	18.72
380.48	39.79
380.68	35.11
380.87	14.04
381.07	0.00
381.26	0.00
381.46	2.34
381.65	0.00
381.85	0.00
382.04	95.96
382.24	7.02
382.43	0.00
382.63	0.00
382.83	0.00
383.02	16.38
383.22	39.79
383.41	0.00
383.61	0.00
383.80	28.09
384.00	23.41
384.19	51.49
384.39	0.00
384.58	23.41
384.78	23.41
384.97	53.83
385.17	0.00
385.36	44.47
385.56	44.47
385.75	25.75
385.95	58.51
386.14	0.00
386.34	0.00
386.53	0.00
386.72	0.00
386.92	81.92
387.11	74.90
387.31	67.88
387.50	0.00
387.70	56.17
387.89	72.56
388.09	30.43
388.28	4.68
388.48	46.81
388.67	77.24
388.86	32.77
389.06	51.49
389.25	2.34
389.45	16.38
389.64	21.06
389.84	7.02
390.03	42.13
390.22	0.00
390.42	56.17
390.61	11.70
390.81	0.00
391.00	30.43
391.19	37.45
391.39	0.00
391.58	65.54
391.78	65.54
391.97	9.36
392.16	0.00
392.36	119.37
392.55	39.79
392.75	16.38
392.94	39.79
393.13	110.01
393.33	67.88
393.52	0.00
393.71	0.00
393.91	0.00
394.10	25.75
394.29	95.96
394.49	28.09
394.68	0.00
394.88	88.94
395.07	0.00
395.26	21.06
395.46	72.56
395.65	0.00
395.84	0.00
396.04	42.13
396.23	44.47
396.42	44.47
396.62	28.09
396.81	46.81
397.00	74.90
397.19	30.43
397.39	65.54
397.58	35.11
397.77	0.00
397.97	32.77
398.16	46.81
398.35	14.04
398.55	42.13
398.74	37.45
398.93	14.04
399.12	4.68
399.32	0.00
399.51	0.00
399.70	46.81
399.90	67.88
400.09	51.49
400.28	53.83
400.47	18.72
400.67	0.00
400.86	70.22
401.05	56.17
401.24	0.00
401.44	28.09
401.63	28.09
401.82	25.75
402.01	11.70
402.21	42.13
402.40	14.04
402.59	84.26
402.78	14.04
402.97	2.34
403.17	30.43
403.36	0.00
403.55	16.38
403.74	30.43
403.93	0.00
404.13	46.81
404.32	0.00
404.51	0.00
404.70	0.00
404.89	23.41
405.09	2.34
405.28	28.09
405.47	42.13
405.66	0.00
405.85	2.34
406.05	0.00
406.24	35.11
406.43	16.38
406.62	42.13
406.81	0.00
407.00	65.54
407.20	11.70
407.39	51.49
407.58	11.70
407.77	16.38
407.96	65.54
408.15	2.34
408.34	86.60
408.54	25.75
408.73	91.28
408.92	42.13
409.11	0.00
409.30	46.81
409.49	37.45
409.68	30.43
409.87	0.00
410.07	30.43
410.26	16.38
410.45	28.09
410.64	32.77
410.83	0.00
411.02	0.00
411.21	18.72
411.40	46.81
411.59	0.00
411.78	14.04
411.98	42.13
412.17	53.83
412.36	37.45
412.55	0.00
412.74	51.49
412.93	39.79
413.12	124.05
413.31	112.35
413.50	25.75
413.69	0.00
413.88	28.09
414.07	0.00
414.26	107.66
414.45	67.88
414.64	9.36
414.83	60.85
415.02	32.77
415.22	44.47
415.41	0.00
415.60	56.17
415.79	21.06
415.98	56.17
416.17	32.77
416.36	14.04
416.55	49.15
416.74	81.92
416.93	39.79
417.12	18.72
417.31	30.43
417.50	0.00
417.69	46.81
417.88	0.00
418.07	35.11
418.26	35.11
418.45	25.75
418.64	56.17
418.83	74.90
419.02	25.75
419.21	72.56
419.39	9.36
419.58	124.05
419.77	39.79
419.96	117.03
420.15	0.00
420.34	58.51
420.53	0.00
420.72	11.70
420.91	51.49
421.10	100.64
421.29	0.00
421.48	4.68
421.67	49.15
421.86	14.04
422.05	35.11
422.24	7.02
422.43	84.26
422.61	0.00
422.80	0.00
422.99	46.81
423.18	107.66
423.37	0.00
423.56	0.00
423.75	93.62
423.94	25.75
424.13	67.88
424.32	21.06
424.50	72.56
424.69	0.00
424.88	18.72
425.07	46.81
425.26	58.51
425.45	16.38
425.64	35.11
425.83	35.11
426.01	9.36
426.20	42.13
426.39	46.81
426.58	105.32
426.77	39.79
426.96	65.54
427.15	32.77
427.33	86.60
427.52	77.24
427.71	93.62
427.90	42.13
428.09	28.09
428.28	49.15
428.46	42.13
428.65	0.00
428.84	0.00
429.03	42.13
429.22	65.54
429.40	32.77
429.59	37.45
429.78	51.49
429.97	0.00
430.16	93.62
430.34	77.24
430.53	63.19
430.72	28.09
430.91	46.81
431.10	23.41
431.28	30.43
431.47	77.24
431.66	133.41
431.85	46.81
432.03	72.56
432.22	37.45
432.41	63.19
432.60	37.45
432.79	53.83
432.97	42.13
433.16	58.51
433.35	56.17
433.54	35.11
433.72	14.04
433.91	37.45
434.10	58.51
434.28	0.00
434.47	0.00
434.66	65.54
434.85	4.68
435.03	11.70
435.22	23.41
435.41	0.00
435.59	30.43
435.78	9.36
435.97	60.85
436.16	77.24
436.34	32.77
436.53	49.15
436.72	18.72
436.90	9.36
437.09	0.00
437.28	28.09
437.46	49.15
437.65	32.77
437.84	0.00
438.02	46.81
438.21	56.17
438.40	42.13
438.58	18.72
438.77	53.83
438.96	53.83
439.14	0.00
439.33	100.64
439.52	35.11
439.70	84.26
439.89	77.24
440.08	35.11
440.26	0.00
440.45	49.15
440.63	21.06
440.82	72.56
441.01	56.17
441.19	18.72
441.38	42.13
441.57	0.00
441.75	25.75
441.94	0.00
442.12	56.17
442.31	138.09
442.50	56.17
442.68	58.51
442.87	60.85
443.05	53.83
443.24	25.75
443.43	51.49
443.61	11.70
443.80	112.35
443.98	35.11
444.17	46.81
444.35	18.72
444.54	0.00
444.73	88.94
444.91	21.06
445.10	0.00
445.28	28.09
445.47	63.19
445.65	37.45
445.84	0.00
446.02	63.19
446.21	51.49
446.39	56.17
446.58	18.72
446.77	79.58
446.95	28.09
447.14	63.19
447.32	60.85
447.51	4.68
447.69	51.49
447.88	53.83
448.06	0.00
448.25	21.06
448.43	28.09
448.62	7.02
448.80	2.34
448.99	11.70
449.17	28.09
449.36	30.43
449.54	72.56
449.73	0.00
449.91	30.43
450.10	56.17
450.28	16.38
450.46	0.00
450.65	32.77
450.83	46.81
451.02	60.85
451.20	11.70
451.39	44.47
451.57	0.00
451.76	0.00
451.94	0.00
452.13	70.22
452.31	7.02
452.49	16.38
452.68	0.00
452.86	0.00
453.05	0.00
453.23	9.36
453.42	42.13
453.60	14.04
453.78	21.06
453.97	0.00
454.15	95.96
454.34	32.77
454.52	37.45
454.70	9.36
454.89	145.11
455.07	4.68
455.26	70.22
455.44	39.79
455.62	25.75
455.81	56.17
455.99	0.00
456.17	35.11
456.36	9.36
456.54	7.02
456.73	9.36
456.91	14.04
457.09	9.36
457.28	46.81
457.46	30.43
457.64	60.85
457.83	0.00
458.01	77.24
458.19	0.00
458.38	39.79
458.56	35.11
458.74	56.17
458.93	53.83
459.11	51.49
459.29	91.28
459.48	0.00
459.66	0.00
459.84	44.47
460.03	44.47
460.21	39.79
460.39	49.15
460.57	0.00
460.76	0.00
460.94	51.49
461.12	25.75
461.31	0.00
461.49	4.68
461.67	49.15
461.85	0.00
462.04	46.81
462.22	128.73
462.40	46.81
462.59	44.47
462.77	32.77
462.95	23.41
463.13	4.68
463.32	0.00
463.50	56.17
463.68	56.17
463.86	46.81
464.05	74.90
464.23	72.56
464.41	49.15
464.59	56.17
464.78	7.02
464.96	0.00
465.14	42.13
465.32	18.72
465.50	32.77
465.69	18.72
465.87	30.43
466.05	0.00
466.23	2.34
466.41	30.43
466.60	37.45
466.78	4.68
466.96	4.68
467.14	86.60
467.32	39.79
467.51	49.15
467.69	30.43
467.87	0.00
468.05	25.75
468.23	0.00
468.41	44.47
468.60	37.45
468.78	77.24
468.96	23.41
469.14	0.00
469.32	58.51
469.50	0.00
469.69	51.49
469.87	14.04
470.05	4.68
470.23	14.04
470.41	0.00
470.59	0.00
470.77	14.04
470.95	35.11
471.14	0.00
471.32	51.49
471.50	35.11
471.68	0.00
471.86	44.47
472.04	18.72
472.22	0.00
472.40	156.82
472.58	0.00
472.77	86.60
472.95	42.13
473.13	4.68
473.31	70.22
473.49	0.00
473.67	51.49
473.85	53.83
474.03	32.77
474.21	74.90
474.39	32.77
474.57	98.30
474.75	42.13
474.93	51.49
475.12	0.00
475.30	44.47
475.48	30.43
475.66	60.85
475.84	0.00
476.02	0.00
476.20	39.79
476.38	16.38
476.56	0.00
476.74	49.15
476.92	77.24
477.10	58.51
477.28	11.70
477.46	18.72
477.64	77.24
477.82	2.34
478.00	37.45
478.18	39.79
478.36	0.00
478.54	21.06
478.72	58.51
478.90	0.00
479.08	74.90
479.26	0.00
479.44	79.58
479.62	32.77
479.80	72.56
479.98	53.83
480.16	0.00
480.34	23.41
480.52	72.56
480.70	51.49
480.88	0.00
481.06	72.56
481.24	11.70
481.41	49.15
481.59	0.00
481.77	114.69
481.95	110.01
482.13	35.11
482.31	30.43
482.49	74.90
482.67	4.68
482.85	0.00
483.03	28.09
483.21	14.04
483.39	42.13
483.57	42.13
483.74	30.43
483.92	21.06
484.10	9.36
484.28	37.45
484.46	9.36
484.64	2.34
484.82	9.36
485.00	18.72
485.18	18.72
485.35	11.70
485.53	0.00
485.71	4.68
485.89	21.06
486.07	23.41
486.25	86.60
486.43	37.45
486.61	14.04
486.78	9.36
486.96	39.79
487.14	4.68
487.32	49.15
487.50	93.62
487.68	84.26
487.85	77.24
488.03	84.26
488.21	37.45
488.39	98.30
488.57	58.51
488.75	44.47
488.92	56.17
489.10	74.90
489.28	56.17
489.46	21.06
489.64	9.36
489.81	37.45
489.99	60.85
490.17	91.28
490.35	21.06
490.53	86.60
490.70	49.15
490.88	18.72
491.06	42.13
491.24	42.13
491.41	49.15
491.59	95.96
491.77	30.43
491.95	28.09
492.13	9.36
492.30	56.17
492.48	77.24
492.66	53.83
492.84	60.85
493.01	44.47
493.19	88.94
493.37	4.68
493.54	63.19
493.72	28.09
493.90	46.81
494.08	4.68
494.25	53.83
494.43	2.34
494.61	46.81
494.79	46.81
494.96	37.45
495.14	18.72
495.32	16.38
495.49	88.94
495.67	23.41
495.85	37.45
496.02	39.79
496.20	11.70
496.38	32.77
496.55	25.75
496.73	133.41
496.91	65.54
497.09	0.00
497.26	0.00
497.44	4.68
497.62	67.88
497.79	30.43
497.97	60.85
498.14	60.85
498.32	37.45
498.50	30.43
498.67	65.54
498.85	39.79
499.03	86.60
499.20	65.54
499.38	18.72
499.56	81.92
499.73	49.15
499.91	4.68
500.08	0.00
500.26	39.79
500.44	0.00
500.61	77.24
500.79	93.62
500.97	128.73
501.14	25.75
501.32	21.06
501.49	0.00
501.67	65.54
501.84	39.79
502.02	65.54
502.20	42.13
502.37	2.34
502.55	7.02
502.72	25.75
502.90	49.15
503.07	128.73
503.25	30.43
503.43	0.00
503.60	2.34
503.78	112.35
503.95	105.32
504.13	0.00
504.30	49.15
504.48	14.04
504.65	42.13
504.83	56.17
505.01	77.24
505.18	21.06
505.36	0.00
505.53	46.81
505.71	18.72
505.88	16.38
506.06	0.00
506.23	23.41
506.41	35.11
506.58	79.58
506.76	39.79
506.93	79.58
507.11	58.51
507.28	0.00
507.46	88.94
507.63	51.49
507.81	65.54
507.98	49.15
508.16	88.94
508.33	46.81
508.50	56.17
508.68	81.92
508.85	28.09
509.03	86.60
509.20	46.81
509.38	7.02
509.55	0.00
509.73	65.54
509.90	60.85
510.08	72.56
510.25	121.71
510.42	102.98
510.60	93.62
510.77	46.81
510.95	56.17
511.12	23.41
511.30	42.13
511.47	79.58
511.64	56.17
511.82	91.28
511.99	46.81
512.17	23.41
512.34	42.13
512.51	25.75
512.69	0.00
512.86	37.45
513.04	65.54
513.21	0.00
513.38	65.54
513.56	0.00
513.73	0.00
513.90	51.49
514.08	72.56
514.25	0.00
514.43	0.00
514.60	4.68
514.77	46.81
514.95	53.83
515.12	91.28
515.29	70.22
515.47	53.83
515.64	4.68
515.81	86.60
515.99	25.75
516.16	49.15
516.33	58.51
516.51	21.06
516.68	14.04
516.85	46.81
517.03	0.00
517.20	0.00
517.37	16.38
517.54	77.24
517.72	14.04
517.89	98.30
518.06	56.17
518.24	67.88
518.41	0.00
518.58	35.11
518.75	37.45
518.93	21.06
519.10	100.64
519.27	88.94
519.45	84.26
519.62	4.68
519.79	56.17
519.96	11.70
520.14	30.43
520.31	88.94
520.48	119.37
520.65	74.90
520.83	32.77
521.00	72.56
521.17	0.00
521.34	58.51
521.52	70.22
521.69	30.43
521.86	2.34
522.03	0.00
522.20	28.09
522.38	60.85
522.55	35.11
522.72	110.01
522.89	32.77
523.07	0.00
523.24	65.54
523.41	0.00
523.58	4.68
523.75	0.00
523.92	53.83
524.10	56.17
524.27	42.13
524.44	35.11
524.61	77.24
524.78	58.51
524.96	23.41
525.13	88.94
525.30	63.19
525.47	14.04
525.64	81.92
525.81	51.49
525.98	0.00
526.16	0.00
526.33	77.24
526.50	46.81
526.67	42.13
526.84	37.45
527.01	0.00
527.18	133.41
527.36	84.26
527.53	30.43
527.70	88.94
527.87	21.06
528.04	53.83
528.21	105.32
528.38	28.09
528.55	56.17
528.72	46.81
528.89	30.43
529.07	0.00
529.24	49.15
529.41	51.49
529.58	16.38
529.75	58.51
529.92	65.54
530.09	0.00
530.26	60.85
530.43	21.06
530.60	58.51
530.77	56.17
530.94	0.00
531.11	46.81
531.28	51.49
531.46	0.00
531.63	30.43
531.80	70.22
531.97	25.75
532.14	9.36
532.31	67.88
532.48	60.85
532.65	42.13
532.82	70.22
532.99	0.00
533.16	0.00
533.33	53.83
533.50	25.75
533.67	44.47
533.84	0.00
534.01	14.04
534.18	39.79
534.35	39.79
534.52	65.54
534.69	114.69
534.86	35.11
535.03	65.54
535.20	110.01
535.37	0.00
535.54	0.00
535.71	49.15
535.88	37.45
536.05	25.75
536.22	16.38
536.38	9.36
536.55	16.38
536.72	37.45
536.89	25.75
537.06	0.00
537.23	84.26
537.40	77.24
537.57	49.15
537.74	39.79
537.91	0.00
538.08	25.75
538.25	18.72
538.42	28.09
538.59	44.47
538.75	9.36
538.92	0.00
539.09	23.41
539.26	7.02
539.43	74.90
539.60	51.49
539.77	42.13
539.94	44.47
540.11	135.75
540.28	70.22
540.44	124.05
540.61	18.72
540.78	77.24
540.95	14.04
541.12	46.81
541.29	28.09
541.46	9.36
541.62	0.00
541.79	28.09
541.96	2.34
542.13	18.72
542.30	53.83
542.47	60.85
542.63	86.60
542.80	14.04
542.97	18.72
543.14	110.01
543.31	7.02
543.48	0.00
543.64	102.98
543.81	74.90
543.98	79.58
544.15	110.01
544.32	60.85
544.48	30.43
544.65	30.43
544.82	51.49
544.99	14.04
545.16	21.06
545.32	23.41
545.49	14.04
545.66	0.00
545.83	42.13
546.00	58.51
546.16	0.00
546.33	107.66
546.50	32.77
546.67	46.81
546.83	77.24
547.00	21.06
547.17	49.15
547.34	32.77
547.50	88.94
547.67	37.45
547.84	84.26
548.00	79.58
548.17	112.35
548.34	72.56
548.51	0.00
548.67	0.00
548.84	79.58
549.01	39.79
549.18	51.49
549.34	39.79
549.51	16.38
549.68	23.41
549.84	65.54
550.01	46.81
550.18	72.56
550.34	32.77
550.51	0.00
550.68	42.13
550.84	67.88
551.01	72.56
551.18	74.90
551.34	30.43
551.51	88.94
551.68	21.06
551.84	32.77
552.01	7.02
552.18	21.06
552.34	25.75
552.51	81.92
552.68	0.00
552.84	51.49
553.01	124.05
553.18	18.72
553.34	37.45
553.51	23.41
553.67	18.72
553.84	0.00
554.01	51.49
554.17	79.58
554.34	49.15
554.51	56.17
554.67	0.00
554.84	114.69
555.00	21.06
555.17	79.58
555.33	0.00
555.50	14.04
555.67	42.13
555.83	63.19
556.00	44.47
556.16	86.60
556.33	102.98
556.50	23.41
556.66	16.38
556.83	56.17
556.99	35.11
557.16	42.13
557.32	30.43
557.49	56.17
557.65	11.70
557.82	51.49
557.98	39.79
558.15	25.75
558.32	44.47
558.48	0.00
558.65	21.06
558.81	91.28
558.98	77.24
559.14	58.51
559.31	23.41
559.47	93.62
559.64	25.75
559.80	25.75
559.97	84.26
560.13	77.24
560.30	32.77
560.46	32.77
560.63	58.51
560.79	49.15
560.96	49.15
561.12	46.81
561.29	119.37
561.45	140.43
561.61	58.51
561.78	35.11
561.94	112.35
562.11	11.70
562.27	63.19
562.44	35.11
562.60	44.47
562.77	65.54
562.93	65.54
563.10	56.17
563.26	14.04
563.42	16.38
563.59	63.19
563.75	0.00
563.92	23.41
564.08	0.00
564.24	58.51
564.41	63.19
564.57	4.68
564.74	53.83
564.90	25.75
565.07	95.96
565.23	28.09
565.39	102.98
565.56	37.45
565.72	37.45
565.88	11.70
566.05	39.79
566.21	0.00
566.38	4.68
566.54	0.00
566.70	53.83
566.87	42.13
567.03	18.72
567.19	2.34
567.36	46.81
567.52	79.58
567.68	65.54
567.85	77.24
568.01	49.15
568.17	51.49
568.34	49.15
568.50	81.92
568.66	28.09
568.83	79.58
568.99	77.24
569.15	9.36
569.32	67.88
569.48	0.00
569.64	21.06
569.81	58.51
569.97	49.15
570.13	65.54
570.30	72.56
570.46	88.94
570.62	46.81
570.78	39.79
570.95	37.45
571.11	65.54
571.27	107.66
571.43	53.83
571.60	39.79
571.76	25.75
571.92	79.58
572.09	25.75
572.25	0.00
572.41	0.00
572.57	11.70
572.74	51.49
572.90	0.00
573.06	88.94
573.22	70.22
573.38	32.77
573.55	84.26
573.71	77.24
573.87	23.41
574.03	42.13
574.20	60.85
574.36	0.00
574.52	84.26
574.68	0.00
574.84	0.00
575.01	7.02
575.17	39.79
575.33	44.47
575.49	35.11
575.65	7.02
575.82	18.72
575.98	35.11
576.14	35.11
576.30	0.00
576.46	39.79
576.62	53.83
576.79	0.00
576.95	72.56
577.11	7.02
577.27	56.17
577.43	0.00
577.59	14.04
577.75	63.19
577.92	23.41
578.08	30.43
578.24	51.49
578.40	110.01
578.56	18.72
578.72	112.35
578.88	42.13
579.04	46.81
579.21	46.81
579.37	0.00
579.53	0.00
579.69	4.68
579.85	72.56
580.01	39.79
580.17	102.98
580.33	42.13
580.49	16.38
580.65	0.00
580.82	0.00
580.98	16.38
581.14	42.13
581.30	35.11
581.46	16.38
581.62	0.00
581.78	39.79
581.94	56.17
582.10	72.56
582.26	9.36
582.42	58.51
582.58	11.70
582.74	81.92
582.90	107.66
583.06	86.60
583.22	58.51
583.38	53.83
583.54	88.94
583.70	88.94
583.86	25.75
584.02	28.09
584.18	0.00
584.34	0.00
584.50	37.45
584.66	196.60
584.82	617.90
584.98	809.83
585.14	720.88
585.30	491.51
585.46	271.50
585.62	229.37
585.78	114.69
585.94	46.81
586.10	0.00
586.26	65.54
586.42	35.11
586.58	63.19
586.74	63.19
586.90	42.13
587.06	84.26
587.22	21.06
587.38	0.00
587.54	23.41
587.70	51.49
587.86	142.77
588.02	72.56
588.18	9.36
588.34	95.96
588.49	44.47
588.65	44.47
588.81	84.26
588.97	0.00
589.13	0.00
589.29	18.72
589.45	0.00
589.61	86.60
589.77	0.00
589.93	88.94
590.08	18.72
590.24	39.79
590.40	2.34
590.56	0.00
590.72	0.00
590.88	37.45
591.04	35.11
591.20	51.49
591.35	51.49
591.51	42.13
591.67	2.34
591.83	23.41
591.99	46.81
592.15	16.38
592.31	56.17
592.46	25.75
592.62	30.43
592.78	0.00
592.94	42.13
593.10	0.00
593.26	42.13
593.41	91.28
593.57	21.06
593.73	0.00
593.89	102.98
594.05	114.69
594.20	112.35
594.36	46.81
594.52	128.73
594.68	81.92
594.84	84.26
594.99	72.56
595.15	44.47
595.31	84.26
595.47	93.62
595.62	95.96
595.78	79.58
595.94	42.13
596.10	0.00
596.25	28.09
596.41	7.02
596.57	14.04
596.73	42.13
596.88	86.60
597.04	56.17
597.20	77.24
597.36	32.77
597.51	63.19
597.67	58.51
597.83	0.00
597.99	37.45
598.14	56.17
598.30	98.30
598.46	72.56
598.61	51.49
598.77	49.15
598.93	9.36
599.09	7.02
599.24	42.13
599.40	77.24
599.56	70.22
599.71	21.06
599.87	11.70
600.03	60.85
600.18	0.00
600.34	63.19
600.50	46.81
600.65	9.36
600.81	23.41
600.97	0.00
601.12	39.79
601.28	16.38
601.44	44.47
601.59	28.09
601.75	70.22
601.91	0.00
602.06	81.92
602.22	25.75
602.37	0.00
602.53	53.83
602.69	0.00
602.84	74.90
603.00	53.83
603.16	81.92
603.31	98.30
603.47	65.54
603.62	21.06
603.78	14.04
603.94	65.54
604.09	28.09
604.25	0.00
604.40	9.36
604.56	0.00
604.71	32.77
604.87	23.41
605.03	84.26
605.18	42.13
605.34	25.75
605.49	16.38
605.65	53.83
605.80	42.13
605.96	0.00
606.12	86.60
606.27	16.38
606.43	0.00
606.58	21.06
606.74	14.04
606.89	37.45
607.05	117.03
607.20	142.77
607.36	114.69
607.51	98.30
607.67	86.60
607.82	56.17
607.98	9.36
608.13	14.04
608.29	53.83
608.44	70.22
608.60	16.38
608.75	30.43
608.91	23.41
609.06	145.11
609.22	159.16
609.37	201.29
609.53	173.20
609.68	114.69
609.84	88.94
609.99	53.83
610.15	114.69
610.30	74.90
610.46	49.15
610.61	77.24
610.76	88.94
610.92	70.22
611.07	93.62
611.23	35.11
611.38	81.92
611.54	4.68
611.69	23.41
611.84	23.41
612.00	16.38
612.15	28.09
612.31	53.83
612.46	16.38
612.62	46.81
612.77	49.15
612.92	93.62
613.08	140.43
613.23	28.09
613.39	105.32
613.54	32.77
613.69	88.94
613.85	159.16
614.00	245.76
614.15	234.05
614.31	175.54
614.46	131.07
614.62	79.58
614.77	30.43
614.92	0.00
615.08	42.13
615.23	2.34
615.38	0.00
615.54	0.00
615.69	102.98
615.84	58.51
616.00	84.26
616.15	56.17
616.30	44.47
616.46	30.43
616.61	63.19
616.76	49.15
616.92	37.45
617.07	25.75
617.22	58.51
617.37	0.00
617.53	7.02
617.68	44.47
617.83	65.54
617.99	65.54
618.14	77.24
618.29	16.38
618.45	74.90
618.60	93.62
618.75	0.00
618.90	44.47
619.06	60.85
619.21	9.36
619.36	51.49
619.51	28.09
619.67	44.47
619.82	2.34
619.97	0.00
620.12	70.22
620.28	14.04
620.43	70.22
620.58	112.35
620.73	147.45
620.89	0.00
621.04	25.75
621.19	60.85
621.34	56.17
621.49	60.85
621.65	67.88
621.80	98.30
621.95	11.70
622.10	121.71
622.25	86.60
622.41	63.19
622.56	35.11
622.71	32.77
622.86	0.00
623.01	42.13
623.16	46.81
623.32	72.56
623.47	30.43
623.62	100.64
623.77	7.02
623.92	91.28
624.07	16.38
624.23	18.72
624.38	0.00
624.53	114.69
624.68	67.88
624.83	11.70
624.98	46.81
625.13	0.00
625.29	9.36
625.44	39.79
625.59	0.00
625.74	65.54
625.89	25.75
626.04	56.17
626.19	133.41
626.34	224.69
626.49	140.43
626.65	95.96
626.80	37.45
626.95	107.66
627.10	46.81
627.25	117.03
627.40	35.11
627.55	39.79
627.70	117.03
627.85	25.75
628.00	88.94
628.15	124.05
628.30	11.70
628.45	0.00
628.60	0.00
628.76	46.81
628.91	4.68
629.06	74.90
629.21	9.36
629.36	2.34
629.51	60.85
629.66	37.45
629.81	0.00
629.96	63.19
630.11	53.83
630.26	84.26
630.41	140.43
630.56	60.85
630.71	93.62
630.86	81.92
631.01	16.38
631.16	65.54
631.31	138.09
631.46	67.88
631.61	32.77
631.76	4.68
631.91	77.24
632.06	46.81
632.21	46.81
632.36	23.41
632.51	7.02
632.66	84.26
632.81	86.60
632.96	0.00
633.10	100.64
633.25	117.03
633.40	86.60
633.55	28.09
633.70	35.11
633.85	49.15
634.00	46.81
634.15	65.54
634.30	44.47
634.45	0.00
634.60	49.15
634.75	46.81
634.90	0.00
635.05	2.34
635.19	0.00
635.34	74.90
635.49	42.13
635.64	25.75
635.79	0.00
635.94	39.79
636.09	100.64
636.24	77.24
636.39	37.45
636.53	0.00
636.68	0.00
636.83	37.45
636.98	0.00
637.13	42.13
637.28	0.00
637.43	18.72
637.57	16.38
637.72	86.60
637.87	53.83
638.02	161.50
638.17	128.73
638.32	142.77
638.46	105.32
638.61	63.19
638.76	117.03
638.91	79.58
639.06	23.41
639.20	72.56
639.35	28.09
639.50	51.49
639.65	86.60
639.80	201.29
639.94	255.12
640.09	283.20
640.24	217.67
640.39	215.33
640.54	93.62
640.68	79.58
640.83	0.00
640.98	25.75
641.13	44.47
641.27	44.47
641.42	7.02
641.57	77.24
641.72	53.83
641.86	67.88
642.01	77.24
642.16	49.15
642.31	30.43
642.45	35.11
642.60	14.04
642.75	0.00
642.90	67.88
643.04	0.00
643.19	25.75
643.34	2.34
643.48	32.77
643.63	63.19
643.78	56.17
643.93	105.32
644.07	18.72
644.22	49.15
644.37	35.11
644.51	0.00
644.66	84.26
644.81	25.75
644.95	79.58
645.10	18.72
645.25	30.43
645.39	18.72
645.54	58.51
645.69	39.79
645.83	0.00
645.98	25.75
646.13	0.00
646.27	0.00
646.42	9.36
646.57	7.02
646.71	91.28
646.86	35.11
647.00	70.22
647.15	46.81
647.30	72.56
647.44	44.47
647.59	14.04
647.74	49.15
647.88	46.81
648.03	28.09
648.17	32.77
648.32	23.41
648.47	35.11
648.61	28.09
648.76	74.90
648.90	11.70
649.05	0.00
649.20	60.85
649.34	79.58
649.49	32.77
649.63	63.19
649.78	2.34
649.92	37.45
650.07	91.28
650.21	98.30
650.36	166.18
650.51	124.05
650.65	124.05
650.80	88.94
650.94	46.81
651.09	35.11
651.23	0.00
651.38	53.83
651.52	67.88
651.67	86.60
651.81	0.00
651.96	0.00
652.10	2.34
652.25	0.00
652.39	4.68
652.54	7.02
652.68	16.38
652.83	14.04
652.97	0.00
653.12	91.28
653.26	60.85
653.41	86.60
653.55	63.19
653.70	42.13
653.84	112.35
653.99	14.04
654.13	0.00
654.27	58.51
654.42	0.00
654.56	25.75
654.71	67.88
654.85	51.49
655.00	51.49
655.14	30.43
655.29	28.09
655.43	51.49
655.57	25.75
655.72	63.19
655.86	30.43
656.01	32.77
656.15	23.41
656.30	0.00
656.44	0.00
656.58	39.79
656.73	32.77
656.87	32.77
657.01	0.00
657.16	28.09
657.30	79.58
657.45	11.70
657.59	67.88
657.73	25.75
657.88	32.77
658.02	93.62
658.16	46.81
658.31	35.11
658.45	21.06
658.60	0.00
658.74	79.58
658.88	32.77
659.03	42.13
659.17	0.00
659.31	0.00
659.46	28.09
659.60	65.54
659.74	102.98
659.89	81.92
660.03	51.49
660.17	79.58
660.32	65.54
660.46	56.17
660.60	0.00
660.74	0.00
660.89	53.83
661.03	81.92
661.17	60.85
661.32	49.15
661.46	93.62
661.60	4.68
661.74	0.00
661.89	77.24
662.03	0.00
662.17	70.22
662.31	0.00
662.46	0.00
662.60	0.00
662.74	124.05
662.88	39.79
663.03	0.00
663.17	0.00
663.31	11.70
663.45	9.36
663.60	0.00
663.74	58.51
663.88	74.90
664.02	0.00
664.17	39.79
664.31	0.00
664.45	60.85
664.59	67.88
664.73	0.00
664.88	77.24
665.02	44.47
665.16	0.00
665.30	46.81
665.44	72.56
665.59	72.56
665.73	4.68
665.87	2.34
666.01	0.00
666.15	46.81
666.29	107.66
666.44	65.54
666.58	0.00
666.72	35.11
666.86	0.00
667.00	0.00
667.14	14.04
667.28	51.49
667.43	95.96
667.57	128.73
667.71	119.37
667.85	145.11
667.99	84.26
668.13	105.32
668.27	74.90
668.41	11.70
668.56	28.09
668.70	46.81
668.84	39.79
668.98	51.49
669.12	16.38
669.26	53.83
669.40	0.00
669.54	51.49
669.68	32.77
669.82	42.13
669.96	72.56
670.10	35.11
670.25	53.83
670.39	18.72
670.53	14.04
670.67	16.38
670.81	65.54
670.95	0.00
671.09	35.11
671.23	18.72
671.37	88.94
671.51	112.35
671.65	154.48
671.79	74.90
671.93	126.39
672.07	49.15
672.21	30.43
672.35	39.79
672.49	53.83
672.63	4.68
672.77	42.13
672.91	91.28
673.05	35.11
673.19	11.70
673.33	44.47
673.47	63.19
673.61	91.28
673.75	51.49
673.89	58.51
674.03	23.41
674.17	65.54
674.31	30.43
674.45	42.13
674.59	7.02
674.73	86.60
674.87	21.06
675.01	18.72
675.15	4.68
675.29	37.45
675.43	0.00
675.56	70.22
675.70	0.00
675.84	56.17
675.98	28.09
676.12	28.09
676.26	21.06
676.40	35.11
676.54	30.43
676.68	35.11
676.82	0.00
676.96	42.13
677.10	0.00
677.23	23.41
677.37	0.00
677.51	51.49
677.65	56.17
677.79	63.19
677.93	0.00
678.07	32.77
678.21	37.45
678.34	0.00
678.48	0.00
678.62	91.28
678.76	0.00
678.90	42.13
679.04	77.24
679.18	0.00
679.31	67.88
679.45	53.83
679.59	35.11
679.73	16.38
679.87	46.81
680.00	4.68
680.14	25.75
680.28	72.56
680.42	46.81
680.56	0.00
680.70	0.00
680.83	18.72
680.97	95.96
681.11	72.56
681.25	56.17
681.39	63.19
681.52	98.30
681.66	44.47
681.80	0.00
681.94	0.00
682.07	0.00
682.21	9.36
682.35	2.34
682.49	44.47
682.62	9.36
682.76	112.35
682.90	23.41
683.04	67.88
683.17	39.79
683.31	63.19
683.45	51.49
683.59	0.00
683.72	0.00
683.86	25.75
684.00	74.90
684.13	39.79
684.27	63.19
684.41	37.45
684.55	72.56
684.68	37.45
684.82	51.49
684.96	0.00
685.09	46.81
685.23	91.28
685.37	21.06
685.50	32.77
685.64	42.13
685.78	30.43
685.91	11.70
686.05	44.47
686.19	53.83
686.32	2.34
686.46	9.36
686.60	0.00
686.73	46.81
686.87	42.13
687.01	63.19
687.14	0.00
687.28	0.00
687.42	0.00
687.55	4.68
687.69	16.38
687.82	9.36
687.96	77.24
688.10	0.00
688.23	11.70
688.37	37.45
688.50	37.45
688.64	56.17
688.78	32.77
688.91	63.19
689.05	30.43
689.18	58.51
689.32	37.45
689.46	0.00
689.59	88.94
689.73	56.17
689.86	0.00
690.00	4.68
690.13	32.77
690.27	93.62
690.41	30.43
690.54	70.22
690.68	2.34
690.81	28.09
690.95	65.54
691.08	16.38
691.22	39.79
691.35	0.00
691.49	0.00
691.62	25.75
691.76	0.00
691.89	28.09
692.03	65.54
692.16	70.22
692.30	0.00
692.43	7.02
692.57	35.11
692.70	70.22
692.84	23.41
692.97	0.00
693.11	11.70
693.24	56.17
693.38	114.69
693.51	37.45
693.65	72.56
693.78	30.43
693.92	32.77
694.05	58.51
694.19	39.79
694.32	37.45
694.45	46.81
694.59	53.83
694.72	9.36
694.86	86.60
694.99	0.00
695.13	0.00
695.26	32.77
695.39	0.00
695.53	0.00
695.66	51.49
695.80	28.09
695.93	25.75
696.07	21.06
696.20	21.06
696.33	49.15
696.47	46.81
696.60	44.47
696.73	72.56
696.87	46.81
697.00	60.85
697.14	0.00
697.27	51.49
697.40	2.34
697.54	0.00
697.67	53.83
697.80	39.79
697.94	74.90
698.07	35.11
698.21	23.41
698.34	49.15
698.47	39.79
698.61	0.00
698.74	0.00
698.87	65.54
699.01	53.83
699.14	14.04
699.27	42.13
699.40	49.15
699.54	44.47
699.67	16.38
699.80	18.72
699.94	0.00
700.07	42.13
700.20	81.92
700.34	7.02
700.47	32.77
700.60	65.54
700.73	14.04
700.87	67.88
701.00	58.51
701.13	18.72
701.26	18.72
701.40	37.45
701.53	56.17
701.66	81.92
701.79	18.72
701.93	25.75
702.06	14.04
702.19	70.22
702.32	32.77
702.46	0.00
702.59	16.38
702.72	0.00
702.85	32.77
702.99	18.72
703.12	142.77
703.25	133.41
703.38	114.69
703.51	107.66
703.65	74.90
703.78	0.00
703.91	67.88
704.04	32.77
704.17	32.77
704.31	0.00
704.44	7.02
704.57	49.15
704.70	51.49
704.83	72.56
704.96	14.04
705.10	9.36
705.23	35.11
>>>>>End Processed Spectral Data<<<<<
