SpectraSuite Data File
++++++++++++++++++++++++++++++++++++
Date: Fri Oct 04 12:13:27 GMT-05:00 2013
User: price-jones
Dark Spectrum Present: No
Reference Spectrum Present: No
Number of Sampled Component Spectra: 1
Spectrometers: USB2+H05261
Integration Time (usec): 10000 (USB2+H05261)
Spectra Averaged: 1 (USB2+H05261)
Boxcar Smoothing: 0 (USB2+H05261)
Correct for Electrical Dark: No (USB2+H05261)
Strobe/Lamp Enabled: No (USB2+H05261)
Correct for Detector Non-linearity: No (USB2+H05261)
Correct for Stray Light: No (USB2+H05261)
Number of Pixels in Processed Spectrum: 2048
>>>>>Begin Processed Spectral Data<<<<<
365.73	0.00
365.92	0.00
366.12	0.00
366.32	0.00
366.52	0.00
366.72	0.00
366.91	0.00
367.11	0.00
367.31	0.00
367.51	0.00
367.70	0.00
367.90	0.00
368.10	0.00
368.30	0.00
368.49	0.00
368.69	0.00
368.89	0.00
369.09	0.00
369.28	0.00
369.48	0.00
369.68	0.00
369.87	0.00
370.07	0.00
370.27	0.00
370.47	0.00
370.66	0.00
370.86	0.00
371.06	0.00
371.25	0.00
371.45	0.00
371.65	0.00
371.84	35.11
372.04	0.00
372.24	16.38
372.44	0.00
372.63	32.77
372.83	58.51
373.03	0.00
373.22	0.00
373.42	0.00
373.62	51.49
373.81	4.68
374.01	63.19
374.21	65.54
374.40	84.26
374.60	53.83
374.79	46.81
374.99	0.00
375.19	35.11
375.38	4.68
375.58	32.77
375.78	65.54
375.97	7.02
376.17	32.77
376.37	37.45
376.56	0.00
376.76	2.34
376.95	0.00
377.15	23.41
377.35	18.72
377.54	95.96
377.74	0.00
377.93	49.15
378.13	93.62
378.33	16.38
378.52	42.13
378.72	9.36
378.91	53.83
379.11	39.79
379.31	14.04
379.50	9.36
379.70	0.00
379.89	0.00
380.09	18.72
380.28	0.00
380.48	65.54
380.68	70.22
380.87	11.70
381.07	0.00
381.26	4.68
381.46	0.00
381.65	32.77
381.85	21.06
382.04	14.04
382.24	51.49
382.43	35.11
382.63	0.00
382.83	7.02
383.02	0.00
383.22	0.00
383.41	58.51
383.61	44.47
383.80	2.34
384.00	67.88
384.19	0.00
384.39	16.38
384.58	79.58
384.78	21.06
384.97	0.00
385.17	70.22
385.36	0.00
385.56	0.00
385.75	46.81
385.95	46.81
386.14	98.30
386.34	44.47
386.53	0.00
386.72	0.00
386.92	0.00
387.11	23.41
387.31	58.51
387.50	9.36
387.70	0.00
387.89	32.77
388.09	56.17
388.28	0.00
388.48	11.70
388.67	0.00
388.86	84.26
389.06	58.51
389.25	0.00
389.45	9.36
389.64	0.00
389.84	0.00
390.03	0.00
390.22	25.75
390.42	23.41
390.61	79.58
390.81	102.98
391.00	14.04
391.19	51.49
391.39	0.00
391.58	0.00
391.78	21.06
391.97	53.83
392.16	7.02
392.36	32.77
392.55	32.77
392.75	21.06
392.94	56.17
393.13	51.49
393.33	2.34
393.52	0.00
393.71	30.43
393.91	30.43
394.10	0.00
394.29	60.85
394.49	67.88
394.68	63.19
394.88	58.51
395.07	0.00
395.26	0.00
395.46	23.41
395.65	11.70
395.84	4.68
396.04	0.00
396.23	18.72
396.42	2.34
396.62	0.00
396.81	91.28
397.00	72.56
397.19	98.30
397.39	0.00
397.58	32.77
397.77	0.00
397.97	4.68
398.16	25.75
398.35	9.36
398.55	0.00
398.74	44.47
398.93	2.34
399.12	0.00
399.32	28.09
399.51	0.00
399.70	0.00
399.90	0.00
400.09	37.45
400.28	0.00
400.47	0.00
400.67	0.00
400.86	0.00
401.05	14.04
401.24	0.00
401.44	72.56
401.63	58.51
401.82	0.00
402.01	30.43
402.21	70.22
402.40	0.00
402.59	0.00
402.78	23.41
402.97	0.00
403.17	0.00
403.36	81.92
403.55	2.34
403.74	7.02
403.93	81.92
404.13	79.58
404.32	46.81
404.51	0.00
404.70	56.17
404.89	18.72
405.09	23.41
405.28	0.00
405.47	18.72
405.66	30.43
405.85	18.72
406.05	0.00
406.24	63.19
406.43	0.00
406.62	0.00
406.81	0.00
407.00	49.15
407.20	35.11
407.39	0.00
407.58	21.06
407.77	42.13
407.96	2.34
408.15	56.17
408.34	39.79
408.54	63.19
408.73	0.00
408.92	30.43
409.11	28.09
409.30	46.81
409.49	63.19
409.68	18.72
409.87	42.13
410.07	88.94
410.26	0.00
410.45	25.75
410.64	0.00
410.83	0.00
411.02	14.04
411.21	74.90
411.40	30.43
411.59	32.77
411.78	100.64
411.98	79.58
412.17	77.24
412.36	84.26
412.55	4.68
412.74	7.02
412.93	2.34
413.12	32.77
413.31	79.58
413.50	60.85
413.69	0.00
413.88	7.02
414.07	14.04
414.26	91.28
414.45	28.09
414.64	9.36
414.83	18.72
415.02	35.11
415.22	0.00
415.41	0.00
415.60	30.43
415.79	79.58
415.98	0.00
416.17	37.45
416.36	39.79
416.55	0.00
416.74	74.90
416.93	49.15
417.12	42.13
417.31	9.36
417.50	46.81
417.69	28.09
417.88	0.00
418.07	72.56
418.26	44.47
418.45	18.72
418.64	30.43
418.83	56.17
419.02	72.56
419.21	63.19
419.39	0.00
419.58	35.11
419.77	42.13
419.96	37.45
420.15	0.00
420.34	0.00
420.53	56.17
420.72	42.13
420.91	0.00
421.10	0.00
421.29	35.11
421.48	2.34
421.67	42.13
421.86	70.22
422.05	9.36
422.24	32.77
422.43	30.43
422.61	65.54
422.80	0.00
422.99	0.00
423.18	25.75
423.37	37.45
423.56	0.00
423.75	39.79
423.94	11.70
424.13	0.00
424.32	46.81
424.50	70.22
424.69	56.17
424.88	74.90
425.07	42.13
425.26	0.00
425.45	18.72
425.64	0.00
425.83	100.64
426.01	30.43
426.20	18.72
426.39	56.17
426.58	51.49
426.77	16.38
426.96	56.17
427.15	39.79
427.33	65.54
427.52	133.41
427.71	51.49
427.90	44.47
428.09	2.34
428.28	16.38
428.46	7.02
428.65	7.02
428.84	77.24
429.03	14.04
429.22	42.13
429.40	49.15
429.59	35.11
429.78	42.13
429.97	21.06
430.16	65.54
430.34	51.49
430.53	32.77
430.72	0.00
430.91	46.81
431.10	35.11
431.28	35.11
431.47	51.49
431.66	37.45
431.85	74.90
432.03	21.06
432.22	49.15
432.41	35.11
432.60	16.38
432.79	95.96
432.97	44.47
433.16	110.01
433.35	0.00
433.54	35.11
433.72	42.13
433.91	98.30
434.10	84.26
434.28	18.72
434.47	32.77
434.66	28.09
434.85	21.06
435.03	60.85
435.22	46.81
435.41	0.00
435.59	14.04
435.78	0.00
435.97	21.06
436.16	28.09
436.34	32.77
436.53	14.04
436.72	72.56
436.90	25.75
437.09	49.15
437.28	9.36
437.46	25.75
437.65	0.00
437.84	18.72
438.02	56.17
438.21	65.54
438.40	51.49
438.58	70.22
438.77	18.72
438.96	18.72
439.14	25.75
439.33	100.64
439.52	25.75
439.70	28.09
439.89	72.56
440.08	32.77
440.26	79.58
440.45	65.54
440.63	46.81
440.82	77.24
441.01	74.90
441.19	28.09
441.38	32.77
441.57	25.75
441.75	51.49
441.94	0.00
442.12	0.00
442.31	7.02
442.50	7.02
442.68	39.79
442.87	42.13
443.05	46.81
443.24	67.88
443.43	0.00
443.61	79.58
443.80	4.68
443.98	0.00
444.17	0.00
444.35	44.47
444.54	37.45
444.73	32.77
444.91	42.13
445.10	42.13
445.28	44.47
445.47	60.85
445.65	25.75
445.84	4.68
446.02	0.00
446.21	0.00
446.39	58.51
446.58	30.43
446.77	0.00
446.95	0.00
447.14	2.34
447.32	0.00
447.51	32.77
447.69	9.36
447.88	30.43
448.06	2.34
448.25	18.72
448.43	14.04
448.62	77.24
448.80	7.02
448.99	39.79
449.17	0.00
449.36	44.47
449.54	74.90
449.73	9.36
449.91	39.79
450.10	60.85
450.28	30.43
450.46	32.77
450.65	32.77
450.83	42.13
451.02	0.00
451.20	0.00
451.39	7.02
451.57	44.47
451.76	32.77
451.94	39.79
452.13	56.17
452.31	0.00
452.49	4.68
452.68	28.09
452.86	30.43
453.05	35.11
453.23	93.62
453.42	0.00
453.60	70.22
453.78	58.51
453.97	0.00
454.15	49.15
454.34	23.41
454.52	70.22
454.70	58.51
454.89	60.85
455.07	23.41
455.26	21.06
455.44	25.75
455.62	0.00
455.81	53.83
455.99	21.06
456.17	25.75
456.36	135.75
456.54	0.00
456.73	67.88
456.91	0.00
457.09	0.00
457.28	35.11
457.46	35.11
457.64	44.47
457.83	60.85
458.01	46.81
458.19	23.41
458.38	49.15
458.56	14.04
458.74	105.32
458.93	4.68
459.11	60.85
459.29	37.45
459.48	7.02
459.66	77.24
459.84	72.56
460.03	16.38
460.21	18.72
460.39	56.17
460.57	51.49
460.76	105.32
460.94	30.43
461.12	84.26
461.31	4.68
461.49	23.41
461.67	81.92
461.85	14.04
462.04	0.00
462.22	135.75
462.40	42.13
462.59	110.01
462.77	44.47
462.95	70.22
463.13	37.45
463.32	21.06
463.50	0.00
463.68	0.00
463.86	0.00
464.05	0.00
464.23	4.68
464.41	65.54
464.59	11.70
464.78	0.00
464.96	65.54
465.14	88.94
465.32	46.81
465.50	35.11
465.69	35.11
465.87	28.09
466.05	37.45
466.23	7.02
466.41	32.77
466.60	65.54
466.78	81.92
466.96	32.77
467.14	9.36
467.32	44.47
467.51	77.24
467.69	0.00
467.87	23.41
468.05	30.43
468.23	23.41
468.41	25.75
468.60	11.70
468.78	58.51
468.96	4.68
469.14	65.54
469.32	0.00
469.50	49.15
469.69	105.32
469.87	35.11
470.05	37.45
470.23	0.00
470.41	72.56
470.59	44.47
470.77	0.00
470.95	16.38
471.14	9.36
471.32	28.09
471.50	18.72
471.68	0.00
471.86	49.15
472.04	7.02
472.22	0.00
472.40	81.92
472.58	11.70
472.77	18.72
472.95	7.02
473.13	14.04
473.31	60.85
473.49	0.00
473.67	44.47
473.85	46.81
474.03	46.81
474.21	23.41
474.39	25.75
474.57	35.11
474.75	11.70
474.93	44.47
475.12	32.77
475.30	25.75
475.48	88.94
475.66	46.81
475.84	0.00
476.02	91.28
476.20	105.32
476.38	39.79
476.56	72.56
476.74	2.34
476.92	9.36
477.10	32.77
477.28	18.72
477.46	65.54
477.64	0.00
477.82	58.51
478.00	23.41
478.18	0.00
478.36	14.04
478.54	32.77
478.72	72.56
478.90	81.92
479.08	7.02
479.26	32.77
479.44	37.45
479.62	0.00
479.80	0.00
479.98	28.09
480.16	9.36
480.34	72.56
480.52	0.00
480.70	30.43
480.88	65.54
481.06	0.00
481.24	39.79
481.41	0.00
481.59	42.13
481.77	21.06
481.95	77.24
482.13	37.45
482.31	21.06
482.49	65.54
482.67	70.22
482.85	53.83
483.03	0.00
483.21	4.68
483.39	56.17
483.57	67.88
483.74	74.90
483.92	86.60
484.10	16.38
484.28	79.58
484.46	65.54
484.64	25.75
484.82	0.00
485.00	44.47
485.18	102.98
485.35	0.00
485.53	84.26
485.71	91.28
485.89	44.47
486.07	28.09
486.25	0.00
486.43	56.17
486.61	95.96
486.78	2.34
486.96	37.45
487.14	79.58
487.32	2.34
487.50	25.75
487.68	11.70
487.85	0.00
488.03	0.00
488.21	25.75
488.39	0.00
488.57	32.77
488.75	84.26
488.92	100.64
489.10	74.90
489.28	112.35
489.46	32.77
489.64	51.49
489.81	42.13
489.99	37.45
490.17	18.72
490.35	84.26
490.53	35.11
490.70	53.83
490.88	11.70
491.06	11.70
491.24	0.00
491.41	0.00
491.59	65.54
491.77	147.45
491.95	0.00
492.13	93.62
492.30	84.26
492.48	28.09
492.66	56.17
492.84	25.75
493.01	63.19
493.19	14.04
493.37	0.00
493.54	46.81
493.72	9.36
493.90	88.94
494.08	58.51
494.25	9.36
494.43	0.00
494.61	37.45
494.79	18.72
494.96	25.75
495.14	16.38
495.32	0.00
495.49	35.11
495.67	21.06
495.85	37.45
496.02	67.88
496.20	35.11
496.38	0.00
496.55	7.02
496.73	81.92
496.91	0.00
497.09	72.56
497.26	0.00
497.44	0.00
497.62	56.17
497.79	67.88
497.97	53.83
498.14	58.51
498.32	2.34
498.50	88.94
498.67	11.70
498.85	0.00
499.03	88.94
499.20	9.36
499.38	84.26
499.56	65.54
499.73	16.38
499.91	46.81
500.08	0.00
500.26	53.83
500.44	49.15
500.61	49.15
500.79	60.85
500.97	18.72
501.14	23.41
501.32	4.68
501.49	67.88
501.67	0.00
501.84	11.70
502.02	0.00
502.20	35.11
502.37	25.75
502.55	37.45
502.72	72.56
502.90	58.51
503.07	0.00
503.25	0.00
503.43	63.19
503.60	72.56
503.78	65.54
503.95	42.13
504.13	23.41
504.30	112.35
504.48	84.26
504.65	63.19
504.83	63.19
505.01	77.24
505.18	53.83
505.36	2.34
505.53	0.00
505.71	102.98
505.88	2.34
506.06	25.75
506.23	0.00
506.41	0.00
506.58	14.04
506.76	30.43
506.93	32.77
507.11	67.88
507.28	93.62
507.46	56.17
507.63	46.81
507.81	0.00
507.98	25.75
508.16	42.13
508.33	53.83
508.50	0.00
508.68	7.02
508.85	0.00
509.03	56.17
509.20	25.75
509.38	35.11
509.55	35.11
509.73	39.79
509.90	30.43
510.08	37.45
510.25	0.00
510.42	74.90
510.60	65.54
510.77	18.72
510.95	53.83
511.12	63.19
511.30	51.49
511.47	91.28
511.64	58.51
511.82	4.68
511.99	21.06
512.17	39.79
512.34	0.00
512.51	0.00
512.69	60.85
512.86	14.04
513.04	2.34
513.21	18.72
513.38	46.81
513.56	30.43
513.73	37.45
513.90	28.09
514.08	39.79
514.25	35.11
514.43	0.00
514.60	79.58
514.77	77.24
514.95	0.00
515.12	60.85
515.29	65.54
515.47	0.00
515.64	51.49
515.81	37.45
515.99	16.38
516.16	86.60
516.33	98.30
516.51	0.00
516.68	35.11
516.85	0.00
517.03	49.15
517.20	51.49
517.37	18.72
517.54	67.88
517.72	58.51
517.89	39.79
518.06	35.11
518.24	53.83
518.41	173.20
518.58	98.30
518.75	86.60
518.93	95.96
519.10	28.09
519.27	0.00
519.45	72.56
519.62	0.00
519.79	0.00
519.96	70.22
520.14	46.81
520.31	93.62
520.48	65.54
520.65	42.13
520.83	18.72
521.00	9.36
521.17	0.00
521.34	124.05
521.52	32.77
521.69	86.60
521.86	11.70
522.03	112.35
522.20	25.75
522.38	128.73
522.55	0.00
522.72	93.62
522.89	65.54
523.07	102.98
523.24	4.68
523.41	60.85
523.58	0.00
523.75	11.70
523.92	25.75
524.10	0.00
524.27	39.79
524.44	110.01
524.61	0.00
524.78	28.09
524.96	51.49
525.13	28.09
525.30	42.13
525.47	51.49
525.64	63.19
525.81	46.81
525.98	74.90
526.16	44.47
526.33	18.72
526.50	0.00
526.67	28.09
526.84	14.04
527.01	65.54
527.18	0.00
527.36	0.00
527.53	16.38
527.70	77.24
527.87	49.15
528.04	37.45
528.21	0.00
528.38	0.00
528.55	28.09
528.72	32.77
528.89	46.81
529.07	44.47
529.24	2.34
529.41	46.81
529.58	72.56
529.75	0.00
529.92	16.38
530.09	18.72
530.26	7.02
530.43	39.79
530.60	84.26
530.77	0.00
530.94	93.62
531.11	37.45
531.28	0.00
531.46	18.72
531.63	32.77
531.80	88.94
531.97	86.60
532.14	39.79
532.31	28.09
532.48	32.77
532.65	88.94
532.82	0.00
532.99	14.04
533.16	84.26
533.33	53.83
533.50	0.00
533.67	60.85
533.84	2.34
534.01	7.02
534.18	0.00
534.35	46.81
534.52	77.24
534.69	84.26
534.86	60.85
535.03	100.64
535.20	93.62
535.37	18.72
535.54	0.00
535.71	46.81
535.88	110.01
536.05	44.47
536.22	42.13
536.38	98.30
536.55	23.41
536.72	135.75
536.89	44.47
537.06	42.13
537.23	65.54
537.40	0.00
537.57	16.38
537.74	21.06
537.91	0.00
538.08	0.00
538.25	32.77
538.42	42.13
538.59	30.43
538.75	51.49
538.92	51.49
539.09	0.00
539.26	72.56
539.43	100.64
539.60	44.47
539.77	102.98
539.94	105.32
540.11	0.00
540.28	51.49
540.44	105.32
540.61	2.34
540.78	81.92
540.95	65.54
541.12	14.04
541.29	63.19
541.46	49.15
541.62	9.36
541.79	42.13
541.96	23.41
542.13	53.83
542.30	72.56
542.47	74.90
542.63	84.26
542.80	0.00
542.97	28.09
543.14	86.60
543.31	51.49
543.48	35.11
543.64	91.28
543.81	46.81
543.98	98.30
544.15	65.54
544.32	105.32
544.48	42.13
544.65	23.41
544.82	65.54
544.99	18.72
545.16	79.58
545.32	0.00
545.49	46.81
545.66	35.11
545.83	0.00
546.00	105.32
546.16	0.00
546.33	72.56
546.50	30.43
546.67	0.00
546.83	28.09
547.00	0.00
547.17	72.56
547.34	0.00
547.50	74.90
547.67	21.06
547.84	0.00
548.00	65.54
548.17	37.45
548.34	86.60
548.51	25.75
548.67	35.11
548.84	44.47
549.01	135.75
549.18	95.96
549.34	46.81
549.51	25.75
549.68	0.00
549.84	39.79
550.01	0.00
550.18	42.13
550.34	65.54
550.51	56.17
550.68	124.05
550.84	114.69
551.01	58.51
551.18	77.24
551.34	25.75
551.51	70.22
551.68	49.15
551.84	105.32
552.01	23.41
552.18	0.00
552.34	18.72
552.51	0.00
552.68	0.00
552.84	39.79
553.01	63.19
553.18	0.00
553.34	21.06
553.51	70.22
553.67	42.13
553.84	77.24
554.01	18.72
554.17	37.45
554.34	0.00
554.51	77.24
554.67	102.98
554.84	39.79
555.00	86.60
555.17	49.15
555.33	121.71
555.50	0.00
555.67	21.06
555.83	0.00
556.00	0.00
556.16	70.22
556.33	51.49
556.50	16.38
556.66	11.70
556.83	74.90
556.99	11.70
557.16	14.04
557.32	67.88
557.49	77.24
557.65	93.62
557.82	21.06
557.98	0.00
558.15	2.34
558.32	49.15
558.48	79.58
558.65	4.68
558.81	30.43
558.98	0.00
559.14	0.00
559.31	0.00
559.47	39.79
559.64	39.79
559.80	32.77
559.97	56.17
560.13	46.81
560.30	53.83
560.46	56.17
560.63	0.00
560.79	81.92
560.96	65.54
561.12	37.45
561.29	9.36
561.45	32.77
561.61	39.79
561.78	81.92
561.94	35.11
562.11	49.15
562.27	0.00
562.44	46.81
562.60	74.90
562.77	53.83
562.93	4.68
563.10	0.00
563.26	74.90
563.42	70.22
563.59	42.13
563.75	56.17
563.92	30.43
564.08	51.49
564.24	67.88
564.41	23.41
564.57	42.13
564.74	14.04
564.90	0.00
565.07	107.66
565.23	126.39
565.39	18.72
565.56	63.19
565.72	4.68
565.88	0.00
566.05	107.66
566.21	35.11
566.38	51.49
566.54	79.58
566.70	0.00
566.87	56.17
567.03	51.49
567.19	67.88
567.36	70.22
567.52	42.13
567.68	25.75
567.85	70.22
568.01	28.09
568.17	53.83
568.34	39.79
568.50	70.22
568.66	100.64
568.83	32.77
568.99	51.49
569.15	72.56
569.32	60.85
569.48	95.96
569.64	102.98
569.81	60.85
569.97	110.01
570.13	72.56
570.30	0.00
570.46	37.45
570.62	39.79
570.78	81.92
570.95	0.00
571.11	0.00
571.27	32.77
571.43	51.49
571.60	35.11
571.76	0.00
571.92	23.41
572.09	65.54
572.25	88.94
572.41	49.15
572.57	11.70
572.74	49.15
572.90	23.41
573.06	86.60
573.22	91.28
573.38	42.13
573.55	81.92
573.71	0.00
573.87	18.72
574.03	79.58
574.20	60.85
574.36	70.22
574.52	65.54
574.68	56.17
574.84	0.00
575.01	0.00
575.17	44.47
575.33	95.96
575.49	11.70
575.65	35.11
575.82	16.38
575.98	21.06
576.14	42.13
576.30	37.45
576.46	98.30
576.62	65.54
576.79	44.47
576.95	0.00
577.11	30.43
577.27	124.05
577.43	23.41
577.59	46.81
577.75	2.34
577.92	107.66
578.08	65.54
578.24	28.09
578.40	58.51
578.56	86.60
578.72	81.92
578.88	25.75
579.04	25.75
579.21	37.45
579.37	0.00
579.53	0.00
579.69	88.94
579.85	77.24
580.01	0.00
580.17	23.41
580.33	28.09
580.49	70.22
580.65	67.88
580.82	0.00
580.98	30.43
581.14	16.38
581.30	0.00
581.46	65.54
581.62	25.75
581.78	42.13
581.94	131.07
582.10	65.54
582.26	21.06
582.42	114.69
582.58	53.83
582.74	39.79
582.90	32.77
583.06	49.15
583.22	49.15
583.38	93.62
583.54	72.56
583.70	23.41
583.86	25.75
584.02	105.32
584.18	51.49
584.34	44.47
584.50	166.18
584.66	1160.91
584.82	2485.65
584.98	3262.71
585.14	2764.17
585.30	1849.02
585.46	1153.88
585.62	685.78
585.78	290.23
585.94	215.33
586.10	51.49
586.26	173.20
586.42	93.62
586.58	35.11
586.74	84.26
586.90	72.56
587.06	70.22
587.22	58.51
587.38	56.17
587.54	84.26
587.70	201.29
587.86	278.52
588.02	313.63
588.18	140.43
588.34	86.60
588.49	196.60
588.65	159.16
588.81	25.75
588.97	110.01
589.13	81.92
589.29	58.51
589.45	16.38
589.61	4.68
589.77	63.19
589.93	46.81
590.08	70.22
590.24	42.13
590.40	72.56
590.56	21.06
590.72	0.00
590.88	18.72
591.04	67.88
591.20	16.38
591.35	18.72
591.51	102.98
591.67	42.13
591.83	86.60
591.99	11.70
592.15	95.96
592.31	35.11
592.46	28.09
592.62	51.49
592.78	46.81
592.94	51.49
593.10	44.47
593.26	53.83
593.41	25.75
593.57	60.85
593.73	53.83
593.89	149.79
594.05	400.23
594.20	435.34
594.36	423.64
594.52	236.39
594.68	220.01
594.84	121.71
594.99	60.85
595.15	56.17
595.31	65.54
595.47	79.58
595.62	42.13
595.78	0.00
595.94	140.43
596.10	0.00
596.25	2.34
596.41	0.00
596.57	60.85
596.73	74.90
596.88	18.72
597.04	114.69
597.20	88.94
597.36	42.13
597.51	93.62
597.67	32.77
597.83	42.13
597.99	30.43
598.14	79.58
598.30	49.15
598.46	30.43
598.61	44.47
598.77	65.54
598.93	28.09
599.09	0.00
599.24	39.79
599.40	86.60
599.56	2.34
599.71	67.88
599.87	65.54
600.03	74.90
600.18	21.06
600.34	0.00
600.50	74.90
600.65	65.54
600.81	46.81
600.97	46.81
601.12	65.54
601.28	0.00
601.44	53.83
601.59	81.92
601.75	53.83
601.91	14.04
602.06	0.00
602.22	70.22
602.37	93.62
602.53	49.15
602.69	121.71
602.84	177.88
603.00	107.66
603.16	100.64
603.31	95.96
603.47	32.77
603.62	105.32
603.78	30.43
603.94	95.96
604.09	39.79
604.25	42.13
604.40	56.17
604.56	63.19
604.71	11.70
604.87	53.83
605.03	18.72
605.18	121.71
605.34	70.22
605.49	0.00
605.65	30.43
605.80	4.68
605.96	0.00
606.12	0.00
606.27	32.77
606.43	49.15
606.58	0.00
606.74	42.13
606.89	184.90
607.05	344.06
607.20	463.43
607.36	327.68
607.51	177.88
607.67	168.52
607.82	124.05
607.98	133.41
608.13	84.26
608.29	35.11
608.44	46.81
608.60	65.54
608.75	58.51
608.91	37.45
609.06	283.20
609.22	582.79
609.37	667.05
609.53	561.73
609.68	416.62
609.84	313.63
609.99	128.73
610.15	131.07
610.30	16.38
610.46	56.17
610.61	51.49
610.76	133.41
610.92	58.51
611.07	105.32
611.23	77.24
611.38	30.43
611.54	93.62
611.69	16.38
611.84	100.64
612.00	56.17
612.15	56.17
612.31	72.56
612.46	65.54
612.62	46.81
612.77	74.90
612.92	11.70
613.08	65.54
613.23	46.81
613.39	98.30
613.54	128.73
613.69	339.38
613.85	741.95
614.00	945.58
614.15	1018.13
614.31	662.37
614.46	519.60
614.62	402.57
614.77	208.31
614.92	77.24
615.08	102.98
615.23	56.17
615.38	46.81
615.54	81.92
615.69	74.90
615.84	163.84
616.00	217.67
616.15	257.46
616.30	189.58
616.46	187.24
616.61	121.71
616.76	81.92
616.92	95.96
617.07	49.15
617.22	18.72
617.37	25.75
617.53	18.72
617.68	0.00
617.83	0.00
617.99	53.83
618.14	0.00
618.29	7.02
618.45	49.15
618.60	70.22
618.75	42.13
618.90	0.00
619.06	46.81
619.21	46.81
619.36	46.81
619.51	35.11
619.67	16.38
619.82	53.83
619.97	39.79
620.12	37.45
620.28	93.62
620.43	49.15
620.58	70.22
620.73	88.94
620.89	9.36
621.04	79.58
621.19	105.32
621.34	236.39
621.49	180.22
621.65	131.07
621.80	117.03
621.95	28.09
622.10	72.56
622.25	14.04
622.41	42.13
622.56	46.81
622.71	42.13
622.86	98.30
623.01	0.00
623.16	74.90
623.32	67.88
623.47	70.22
623.62	51.49
623.77	63.19
623.92	86.60
624.07	23.41
624.23	53.83
624.38	60.85
624.53	133.41
624.68	63.19
624.83	37.45
624.98	37.45
625.13	91.28
625.29	77.24
625.44	42.13
625.59	81.92
625.74	49.15
625.89	86.60
626.04	210.65
626.19	339.38
626.34	451.72
626.49	568.75
626.65	416.62
626.80	306.61
626.95	287.89
627.10	93.62
627.25	49.15
627.40	74.90
627.55	46.81
627.70	131.07
627.85	44.47
628.00	0.00
628.15	0.00
628.30	0.00
628.45	18.72
628.60	63.19
628.76	0.00
628.91	14.04
629.06	9.36
629.21	39.79
629.36	56.17
629.51	56.17
629.66	7.02
629.81	30.43
629.96	128.73
630.11	182.56
630.26	168.52
630.41	107.66
630.56	124.05
630.71	51.49
630.86	39.79
631.01	53.83
631.16	25.75
631.31	51.49
631.46	84.26
631.61	0.00
631.76	65.54
631.91	4.68
632.06	0.00
632.21	131.07
632.36	0.00
632.51	63.19
632.66	37.45
632.81	131.07
632.96	142.77
633.10	351.08
633.25	369.80
633.40	285.55
633.55	198.95
633.70	88.94
633.85	168.52
634.00	114.69
634.15	4.68
634.30	0.00
634.45	81.92
634.60	46.81
634.75	37.45
634.90	0.00
635.05	0.00
635.19	53.83
635.34	11.70
635.49	32.77
635.64	56.17
635.79	0.00
635.94	42.13
636.09	93.62
636.24	0.00
636.39	95.96
636.53	0.00
636.68	58.51
636.83	0.00
636.98	28.09
637.13	44.47
637.28	0.00
637.43	46.81
637.57	102.98
637.72	198.95
637.87	458.74
638.02	645.99
638.17	671.73
638.32	475.13
638.46	421.30
638.61	255.12
638.76	133.41
638.91	60.85
639.06	60.85
639.20	56.17
639.35	51.49
639.50	84.26
639.65	344.06
639.80	667.05
639.94	1013.45
640.09	1067.28
640.24	807.48
640.39	617.90
640.54	379.17
640.68	189.58
640.83	81.92
640.98	105.32
641.13	44.47
641.27	77.24
641.42	51.49
641.57	107.66
641.72	51.49
641.86	58.51
642.01	79.58
642.16	0.00
642.31	0.00
642.45	7.02
642.60	84.26
642.75	70.22
642.90	81.92
643.04	60.85
643.19	0.00
643.34	51.49
643.48	44.47
643.63	49.15
643.78	2.34
643.93	18.72
644.07	30.43
644.22	0.00
644.37	56.17
644.51	56.17
644.66	126.39
644.81	32.77
644.95	4.68
645.10	74.90
645.25	39.79
645.39	39.79
645.54	84.26
645.69	56.17
645.83	28.09
645.98	67.88
646.13	70.22
646.27	0.00
646.42	67.88
646.57	81.92
646.71	0.00
646.86	56.17
647.00	16.38
647.15	60.85
647.30	0.00
647.44	23.41
647.59	72.56
647.74	63.19
647.88	0.00
648.03	65.54
648.17	30.43
648.32	18.72
648.47	51.49
648.61	42.13
648.76	28.09
648.90	39.79
649.05	14.04
649.20	51.49
649.34	0.00
649.49	58.51
649.63	46.81
649.78	0.00
649.92	39.79
650.07	88.94
650.21	313.63
650.36	526.62
650.51	580.45
650.65	418.96
650.80	287.89
650.94	215.33
651.09	79.58
651.23	147.45
651.38	88.94
651.52	30.43
651.67	32.77
651.81	70.22
651.96	0.00
652.10	72.56
652.25	53.83
652.39	0.00
652.54	74.90
652.68	77.24
652.83	86.60
652.97	117.03
653.12	248.10
653.26	278.52
653.41	205.97
653.55	93.62
653.70	154.48
653.84	0.00
653.99	86.60
654.13	77.24
654.27	30.43
654.42	0.00
654.56	18.72
654.71	0.00
654.85	0.00
655.00	81.92
655.14	77.24
655.29	53.83
655.43	124.05
655.57	9.36
655.72	35.11
655.86	65.54
656.01	72.56
656.15	35.11
656.30	32.77
656.44	0.00
656.58	39.79
656.73	67.88
656.87	0.00
657.01	2.34
657.16	14.04
657.30	77.24
657.45	67.88
657.59	9.36
657.73	49.15
657.88	63.19
658.02	18.72
658.16	86.60
658.31	79.58
658.45	14.04
658.60	88.94
658.74	102.98
658.88	30.43
659.03	0.00
659.17	28.09
659.31	23.41
659.46	142.77
659.60	257.46
659.74	278.52
659.89	245.76
660.03	161.50
660.17	142.77
660.32	117.03
660.46	56.17
660.60	86.60
660.74	39.79
660.89	44.47
661.03	9.36
661.17	63.19
661.32	4.68
661.46	11.70
661.60	0.00
661.74	25.75
661.89	35.11
662.03	95.96
662.17	107.66
662.31	32.77
662.46	23.41
662.60	0.00
662.74	70.22
662.88	9.36
663.03	51.49
663.17	30.43
663.31	56.17
663.45	39.79
663.60	51.49
663.74	42.13
663.88	95.96
664.02	28.09
664.17	2.34
664.31	0.00
664.45	67.88
664.59	140.43
664.73	25.75
664.88	0.00
665.02	0.00
665.16	56.17
665.30	18.72
665.44	0.00
665.59	79.58
665.73	35.11
665.87	0.00
666.01	42.13
666.15	70.22
666.29	49.15
666.44	18.72
666.58	84.26
666.72	67.88
666.86	11.70
667.00	23.41
667.14	67.88
667.28	131.07
667.43	252.78
667.57	346.40
667.71	421.30
667.85	416.62
667.99	252.78
668.13	180.22
668.27	93.62
668.41	110.01
668.56	84.26
668.70	39.79
668.84	84.26
668.98	110.01
669.12	81.92
669.26	0.00
669.40	53.83
669.54	16.38
669.68	79.58
669.82	65.54
669.96	91.28
670.10	18.72
670.25	42.13
670.39	65.54
670.53	88.94
670.67	42.13
670.81	86.60
670.95	0.00
671.09	30.43
671.23	95.96
671.37	245.76
671.51	320.65
671.65	407.25
671.79	304.27
671.93	175.54
672.07	56.17
672.21	67.88
672.35	102.98
672.49	53.83
672.63	21.06
672.77	2.34
672.91	42.13
673.05	7.02
673.19	2.34
673.33	25.75
673.47	72.56
673.61	98.30
673.75	4.68
673.89	79.58
674.03	79.58
674.17	0.00
674.31	74.90
674.45	51.49
674.59	110.01
674.73	32.77
674.87	30.43
675.01	93.62
675.15	60.85
675.29	4.68
675.43	102.98
675.56	7.02
675.70	0.00
675.84	91.28
675.98	42.13
676.12	37.45
676.26	25.75
676.40	0.00
676.54	9.36
676.68	72.56
676.82	21.06
676.96	16.38
677.10	37.45
677.23	91.28
677.37	7.02
677.51	18.72
677.65	0.00
677.79	14.04
677.93	0.00
678.07	42.13
678.21	11.70
678.34	14.04
678.48	28.09
678.62	58.51
678.76	35.11
678.90	30.43
679.04	0.00
679.18	0.00
679.31	21.06
679.45	0.00
679.59	95.96
679.73	84.26
679.87	77.24
680.00	0.00
680.14	11.70
680.28	67.88
680.42	51.49
680.56	23.41
680.70	72.56
680.83	56.17
680.97	91.28
681.11	39.79
681.25	84.26
681.39	37.45
681.52	9.36
681.66	0.00
681.80	0.00
681.94	46.81
682.07	53.83
682.21	46.81
682.35	0.00
682.49	32.77
682.62	0.00
682.76	28.09
682.90	30.43
683.04	30.43
683.17	16.38
683.31	0.00
683.45	23.41
683.59	23.41
683.72	86.60
683.86	98.30
684.00	35.11
684.13	37.45
684.27	46.81
684.41	0.00
684.55	0.00
684.68	30.43
684.82	16.38
684.96	18.72
685.09	0.00
685.23	39.79
685.37	0.00
685.50	49.15
685.64	28.09
685.78	93.62
685.91	0.00
686.05	9.36
686.19	60.85
686.32	11.70
686.46	51.49
686.60	37.45
686.73	46.81
686.87	53.83
687.01	0.00
687.14	11.70
687.28	32.77
687.42	65.54
687.55	74.90
687.69	51.49
687.82	65.54
687.96	11.70
688.10	53.83
688.23	51.49
688.37	14.04
688.50	0.00
688.64	58.51
688.78	72.56
688.91	14.04
689.05	42.13
689.18	32.77
689.32	42.13
689.46	0.00
689.59	72.56
689.73	63.19
689.86	56.17
690.00	0.00
690.13	63.19
690.27	44.47
690.41	7.02
690.54	0.00
690.68	21.06
690.81	74.90
690.95	18.72
691.08	23.41
691.22	11.70
691.35	0.00
691.49	79.58
691.62	37.45
691.76	102.98
691.89	37.45
692.03	0.00
692.16	0.00
692.30	0.00
692.43	39.79
692.57	86.60
692.70	168.52
692.84	234.05
692.97	163.84
693.11	168.52
693.24	138.09
693.38	102.98
693.51	93.62
693.65	0.00
693.78	28.09
693.92	39.79
694.05	28.09
694.19	42.13
694.32	44.47
694.45	0.00
694.59	32.77
694.72	51.49
694.86	4.68
694.99	0.00
695.13	44.47
695.26	0.00
695.39	14.04
695.53	0.00
695.66	65.54
695.80	88.94
695.93	53.83
696.07	42.13
696.20	11.70
696.33	25.75
696.47	14.04
696.60	65.54
696.73	25.75
696.87	0.00
697.00	28.09
697.14	7.02
697.27	0.00
697.40	9.36
697.54	4.68
697.67	11.70
697.80	0.00
697.94	124.05
698.07	135.75
698.21	9.36
698.34	107.66
698.47	0.00
698.61	35.11
698.74	0.00
698.87	77.24
699.01	0.00
699.14	4.68
699.27	0.00
699.40	74.90
699.54	102.98
699.67	56.17
699.80	58.51
699.94	30.43
700.07	81.92
700.20	81.92
700.34	58.51
700.47	0.00
700.60	28.09
700.73	0.00
700.87	18.72
701.00	65.54
701.13	2.34
701.26	65.54
701.40	124.05
701.53	0.00
701.66	46.81
701.79	60.85
701.93	18.72
702.06	0.00
702.19	35.11
702.32	72.56
702.46	70.22
702.59	53.83
702.72	67.88
702.85	189.58
702.99	271.50
703.12	358.10
703.25	416.62
703.38	409.59
703.51	322.99
703.65	149.79
703.78	63.19
703.91	32.77
704.04	56.17
704.17	117.03
704.31	39.79
704.44	79.58
704.57	44.47
704.70	16.38
704.83	98.30
704.96	88.94
705.10	51.49
705.23	0.00
>>>>>End Processed Spectral Data<<<<<
