SpectraSuite Data File
++++++++++++++++++++++++++++++++++++
Date: Fri Oct 04 12:13:44 GMT-05:00 2013
User: price-jones
Dark Spectrum Present: No
Reference Spectrum Present: No
Number of Sampled Component Spectra: 1
Spectrometers: USB2+H05261
Integration Time (usec): 10000 (USB2+H05261)
Spectra Averaged: 1 (USB2+H05261)
Boxcar Smoothing: 0 (USB2+H05261)
Correct for Electrical Dark: No (USB2+H05261)
Strobe/Lamp Enabled: No (USB2+H05261)
Correct for Detector Non-linearity: No (USB2+H05261)
Correct for Stray Light: No (USB2+H05261)
Number of Pixels in Processed Spectrum: 2048
>>>>>Begin Processed Spectral Data<<<<<
365.73	74.90
365.92	74.90
366.12	74.90
366.32	0.00
366.52	0.00
366.72	0.00
366.91	0.00
367.11	0.00
367.31	0.00
367.51	0.00
367.70	0.00
367.90	0.00
368.10	0.00
368.30	0.00
368.49	0.00
368.69	0.00
368.89	0.00
369.09	0.00
369.28	0.00
369.48	0.00
369.68	0.00
369.87	0.00
370.07	0.00
370.27	0.00
370.47	0.00
370.66	0.00
370.86	23.41
371.06	0.00
371.25	4.68
371.45	0.00
371.65	9.36
371.84	44.47
372.04	28.09
372.24	35.11
372.44	51.49
372.63	0.00
372.83	11.70
373.03	4.68
373.22	0.00
373.42	28.09
373.62	79.58
373.81	49.15
374.01	0.00
374.21	70.22
374.40	0.00
374.60	28.09
374.79	14.04
374.99	65.54
375.19	79.58
375.38	102.98
375.58	72.56
375.78	2.34
375.97	35.11
376.17	37.45
376.37	65.54
376.56	84.26
376.76	0.00
376.95	51.49
377.15	21.06
377.35	53.83
377.54	70.22
377.74	39.79
377.93	28.09
378.13	2.34
378.33	63.19
378.52	63.19
378.72	67.88
378.91	0.00
379.11	28.09
379.31	28.09
379.50	46.81
379.70	0.00
379.89	88.94
380.09	93.62
380.28	39.79
380.48	63.19
380.68	35.11
380.87	51.49
381.07	11.70
381.26	70.22
381.46	51.49
381.65	63.19
381.85	21.06
382.04	11.70
382.24	25.75
382.43	42.13
382.63	14.04
382.83	35.11
383.02	81.92
383.22	11.70
383.41	4.68
383.61	60.85
383.80	0.00
384.00	77.24
384.19	35.11
384.39	56.17
384.58	0.00
384.78	42.13
384.97	63.19
385.17	91.28
385.36	25.75
385.56	67.88
385.75	2.34
385.95	16.38
386.14	11.70
386.34	79.58
386.53	0.00
386.72	81.92
386.92	0.00
387.11	0.00
387.31	70.22
387.50	42.13
387.70	14.04
387.89	37.45
388.09	0.00
388.28	0.00
388.48	30.43
388.67	98.30
388.86	0.00
389.06	37.45
389.25	86.60
389.45	131.07
389.64	56.17
389.84	0.00
390.03	72.56
390.22	51.49
390.42	49.15
390.61	65.54
390.81	9.36
391.00	0.00
391.19	0.00
391.39	0.00
391.58	0.00
391.78	32.77
391.97	67.88
392.16	21.06
392.36	0.00
392.55	42.13
392.75	74.90
392.94	18.72
393.13	72.56
393.33	70.22
393.52	35.11
393.71	0.00
393.91	56.17
394.10	35.11
394.29	42.13
394.49	70.22
394.68	51.49
394.88	30.43
395.07	0.00
395.26	4.68
395.46	0.00
395.65	28.09
395.84	0.00
396.04	32.77
396.23	53.83
396.42	46.81
396.62	56.17
396.81	28.09
397.00	23.41
397.19	37.45
397.39	7.02
397.58	88.94
397.77	124.05
397.97	65.54
398.16	72.56
398.35	39.79
398.55	0.00
398.74	0.00
398.93	23.41
399.12	21.06
399.32	39.79
399.51	67.88
399.70	49.15
399.90	21.06
400.09	28.09
400.28	51.49
400.47	0.00
400.67	46.81
400.86	0.00
401.05	67.88
401.24	0.00
401.44	53.83
401.63	72.56
401.82	0.00
402.01	79.58
402.21	79.58
402.40	14.04
402.59	14.04
402.78	0.00
402.97	77.24
403.17	28.09
403.36	46.81
403.55	39.79
403.74	0.00
403.93	0.00
404.13	28.09
404.32	51.49
404.51	93.62
404.70	91.28
404.89	0.00
405.09	21.06
405.28	84.26
405.47	35.11
405.66	18.72
405.85	25.75
406.05	49.15
406.24	77.24
406.43	35.11
406.62	25.75
406.81	49.15
407.00	67.88
407.20	86.60
407.39	39.79
407.58	0.00
407.77	79.58
407.96	51.49
408.15	86.60
408.34	39.79
408.54	0.00
408.73	44.47
408.92	16.38
409.11	0.00
409.30	105.32
409.49	0.00
409.68	67.88
409.87	11.70
410.07	53.83
410.26	18.72
410.45	11.70
410.64	88.94
410.83	70.22
411.02	44.47
411.21	110.01
411.40	86.60
411.59	93.62
411.78	4.68
411.98	72.56
412.17	56.17
412.36	23.41
412.55	112.35
412.74	65.54
412.93	58.51
413.12	42.13
413.31	51.49
413.50	70.22
413.69	105.32
413.88	140.43
414.07	42.13
414.26	28.09
414.45	86.60
414.64	84.26
414.83	100.64
415.02	28.09
415.22	102.98
415.41	124.05
415.60	14.04
415.79	18.72
415.98	98.30
416.17	39.79
416.36	9.36
416.55	65.54
416.74	46.81
416.93	35.11
417.12	23.41
417.31	23.41
417.50	98.30
417.69	37.45
417.88	0.00
418.07	77.24
418.26	23.41
418.45	9.36
418.64	51.49
418.83	65.54
419.02	60.85
419.21	84.26
419.39	65.54
419.58	72.56
419.77	65.54
419.96	11.70
420.15	53.83
420.34	70.22
420.53	11.70
420.72	16.38
420.91	9.36
421.10	35.11
421.29	0.00
421.48	67.88
421.67	63.19
421.86	56.17
422.05	25.75
422.24	21.06
422.43	0.00
422.61	74.90
422.80	7.02
422.99	65.54
423.18	46.81
423.37	95.96
423.56	23.41
423.75	18.72
423.94	63.19
424.13	30.43
424.32	44.47
424.50	11.70
424.69	88.94
424.88	79.58
425.07	74.90
425.26	23.41
425.45	30.43
425.64	42.13
425.83	28.09
426.01	16.38
426.20	107.66
426.39	86.60
426.58	32.77
426.77	35.11
426.96	16.38
427.15	72.56
427.33	37.45
427.52	56.17
427.71	42.13
427.90	44.47
428.09	37.45
428.28	77.24
428.46	72.56
428.65	0.00
428.84	63.19
429.03	4.68
429.22	44.47
429.40	49.15
429.59	51.49
429.78	58.51
429.97	30.43
430.16	77.24
430.34	72.56
430.53	79.58
430.72	28.09
430.91	0.00
431.10	32.77
431.28	53.83
431.47	0.00
431.66	37.45
431.85	14.04
432.03	42.13
432.22	23.41
432.41	79.58
432.60	0.00
432.79	67.88
432.97	91.28
433.16	67.88
433.35	110.01
433.54	42.13
433.72	95.96
433.91	79.58
434.10	46.81
434.28	16.38
434.47	35.11
434.66	32.77
434.85	44.47
435.03	42.13
435.22	79.58
435.41	53.83
435.59	4.68
435.78	42.13
435.97	53.83
436.16	0.00
436.34	110.01
436.53	21.06
436.72	79.58
436.90	149.79
437.09	23.41
437.28	84.26
437.46	86.60
437.65	119.37
437.84	70.22
438.02	51.49
438.21	0.00
438.40	67.88
438.58	4.68
438.77	0.00
438.96	65.54
439.14	51.49
439.33	60.85
439.52	77.24
439.70	70.22
439.89	67.88
440.08	30.43
440.26	37.45
440.45	98.30
440.63	88.94
440.82	84.26
441.01	14.04
441.19	63.19
441.38	37.45
441.57	95.96
441.75	46.81
441.94	84.26
442.12	63.19
442.31	44.47
442.50	30.43
442.68	46.81
442.87	91.28
443.05	67.88
443.24	74.90
443.43	16.38
443.61	4.68
443.80	65.54
443.98	74.90
444.17	46.81
444.35	67.88
444.54	88.94
444.73	39.79
444.91	93.62
445.10	60.85
445.28	91.28
445.47	102.98
445.65	79.58
445.84	42.13
446.02	79.58
446.21	93.62
446.39	86.60
446.58	114.69
446.77	110.01
446.95	37.45
447.14	65.54
447.32	107.66
447.51	63.19
447.69	84.26
447.88	58.51
448.06	65.54
448.25	79.58
448.43	56.17
448.62	23.41
448.80	42.13
448.99	30.43
449.17	72.56
449.36	51.49
449.54	65.54
449.73	119.37
449.91	2.34
450.10	110.01
450.28	14.04
450.46	154.48
450.65	37.45
450.83	44.47
451.02	65.54
451.20	49.15
451.39	37.45
451.57	2.34
451.76	65.54
451.94	77.24
452.13	0.00
452.31	56.17
452.49	88.94
452.68	86.60
452.86	81.92
453.05	0.00
453.23	107.66
453.42	91.28
453.60	102.98
453.78	0.00
453.97	93.62
454.15	0.00
454.34	60.85
454.52	51.49
454.70	11.70
454.89	21.06
455.07	70.22
455.26	28.09
455.44	70.22
455.62	93.62
455.81	117.03
455.99	56.17
456.17	67.88
456.36	79.58
456.54	65.54
456.73	4.68
456.91	60.85
457.09	56.17
457.28	58.51
457.46	18.72
457.64	30.43
457.83	74.90
458.01	88.94
458.19	14.04
458.38	79.58
458.56	23.41
458.74	81.92
458.93	119.37
459.11	44.47
459.29	114.69
459.48	4.68
459.66	58.51
459.84	79.58
460.03	63.19
460.21	11.70
460.39	88.94
460.57	84.26
460.76	35.11
460.94	60.85
461.12	149.79
461.31	126.39
461.49	0.00
461.67	126.39
461.85	77.24
462.04	91.28
462.22	126.39
462.40	30.43
462.59	88.94
462.77	14.04
462.95	91.28
463.13	95.96
463.32	9.36
463.50	32.77
463.68	79.58
463.86	119.37
464.05	53.83
464.23	86.60
464.41	42.13
464.59	88.94
464.78	119.37
464.96	60.85
465.14	60.85
465.32	11.70
465.50	16.38
465.69	74.90
465.87	46.81
466.05	49.15
466.23	37.45
466.41	51.49
466.60	42.13
466.78	105.32
466.96	117.03
467.14	0.00
467.32	112.35
467.51	63.19
467.69	112.35
467.87	60.85
468.05	74.90
468.23	145.11
468.41	79.58
468.60	51.49
468.78	100.64
468.96	72.56
469.14	42.13
469.32	32.77
469.50	74.90
469.69	93.62
469.87	112.35
470.05	28.09
470.23	93.62
470.41	49.15
470.59	81.92
470.77	88.94
470.95	128.73
471.14	46.81
471.32	37.45
471.50	53.83
471.68	37.45
471.86	0.00
472.04	42.13
472.22	18.72
472.40	107.66
472.58	70.22
472.77	7.02
472.95	105.32
473.13	131.07
473.31	152.13
473.49	77.24
473.67	25.75
473.85	154.48
474.03	42.13
474.21	72.56
474.39	53.83
474.57	53.83
474.75	49.15
474.93	32.77
475.12	88.94
475.30	21.06
475.48	0.00
475.66	39.79
475.84	74.90
476.02	42.13
476.20	21.06
476.38	102.98
476.56	98.30
476.74	77.24
476.92	60.85
477.10	105.32
477.28	53.83
477.46	145.11
477.64	110.01
477.82	74.90
478.00	0.00
478.18	63.19
478.36	91.28
478.54	88.94
478.72	79.58
478.90	138.09
479.08	51.49
479.26	79.58
479.44	100.64
479.62	30.43
479.80	63.19
479.98	18.72
480.16	67.88
480.34	98.30
480.52	72.56
480.70	53.83
480.88	0.00
481.06	98.30
481.24	72.56
481.41	114.69
481.59	91.28
481.77	166.18
481.95	35.11
482.13	102.98
482.31	119.37
482.49	86.60
482.67	63.19
482.85	51.49
483.03	39.79
483.21	25.75
483.39	42.13
483.57	131.07
483.74	105.32
483.92	121.71
484.10	107.66
484.28	42.13
484.46	102.98
484.64	53.83
484.82	93.62
485.00	42.13
485.18	98.30
485.35	39.79
485.53	23.41
485.71	63.19
485.89	79.58
486.07	46.81
486.25	135.75
486.43	88.94
486.61	91.28
486.78	16.38
486.96	58.51
487.14	102.98
487.32	140.43
487.50	32.77
487.68	88.94
487.85	0.00
488.03	100.64
488.21	114.69
488.39	91.28
488.57	72.56
488.75	86.60
488.92	159.16
489.10	121.71
489.28	93.62
489.46	114.69
489.64	58.51
489.81	72.56
489.99	63.19
490.17	112.35
490.35	84.26
490.53	58.51
490.70	67.88
490.88	81.92
491.06	88.94
491.24	60.85
491.41	102.98
491.59	114.69
491.77	119.37
491.95	51.49
492.13	100.64
492.30	112.35
492.48	70.22
492.66	88.94
492.84	138.09
493.01	56.17
493.19	25.75
493.37	60.85
493.54	37.45
493.72	81.92
493.90	86.60
494.08	74.90
494.25	81.92
494.43	46.81
494.61	105.32
494.79	18.72
494.96	51.49
495.14	145.11
495.32	93.62
495.49	81.92
495.67	28.09
495.85	53.83
496.02	30.43
496.20	105.32
496.38	138.09
496.55	133.41
496.73	149.79
496.91	102.98
497.09	81.92
497.26	39.79
497.44	77.24
497.62	102.98
497.79	39.79
497.97	121.71
498.14	46.81
498.32	112.35
498.50	124.05
498.67	0.00
498.85	138.09
499.03	149.79
499.20	117.03
499.38	168.52
499.56	98.30
499.73	100.64
499.91	51.49
500.08	98.30
500.26	168.52
500.44	147.45
500.61	117.03
500.79	88.94
500.97	88.94
501.14	112.35
501.32	42.13
501.49	110.01
501.67	114.69
501.84	100.64
502.02	46.81
502.20	63.19
502.37	46.81
502.55	119.37
502.72	79.58
502.90	49.15
503.07	95.96
503.25	124.05
503.43	100.64
503.60	56.17
503.78	60.85
503.95	91.28
504.13	88.94
504.30	16.38
504.48	117.03
504.65	138.09
504.83	72.56
505.01	119.37
505.18	102.98
505.36	191.92
505.53	124.05
505.71	102.98
505.88	140.43
506.06	163.84
506.23	152.13
506.41	154.48
506.58	32.77
506.76	25.75
506.93	147.45
507.11	56.17
507.28	0.00
507.46	131.07
507.63	147.45
507.81	91.28
507.98	79.58
508.16	28.09
508.33	95.96
508.50	98.30
508.68	93.62
508.85	56.17
509.03	131.07
509.20	49.15
509.38	95.96
509.55	100.64
509.73	63.19
509.90	51.49
510.08	95.96
510.25	91.28
510.42	84.26
510.60	88.94
510.77	156.82
510.95	86.60
511.12	46.81
511.30	93.62
511.47	131.07
511.64	70.22
511.82	102.98
511.99	102.98
512.17	63.19
512.34	51.49
512.51	117.03
512.69	93.62
512.86	121.71
513.04	102.98
513.21	77.24
513.38	98.30
513.56	77.24
513.73	56.17
513.90	102.98
514.08	124.05
514.25	107.66
514.43	81.92
514.60	112.35
514.77	79.58
514.95	2.34
515.12	88.94
515.29	149.79
515.47	156.82
515.64	133.41
515.81	128.73
515.99	128.73
516.16	84.26
516.33	79.58
516.51	93.62
516.68	119.37
516.85	121.71
517.03	21.06
517.20	58.51
517.37	107.66
517.54	74.90
517.72	63.19
517.89	107.66
518.06	84.26
518.24	16.38
518.41	159.16
518.58	91.28
518.75	93.62
518.93	168.52
519.10	126.39
519.27	100.64
519.45	159.16
519.62	102.98
519.79	98.30
519.96	135.75
520.14	63.19
520.31	98.30
520.48	86.60
520.65	131.07
520.83	60.85
521.00	100.64
521.17	175.54
521.34	91.28
521.52	91.28
521.69	53.83
521.86	81.92
522.03	84.26
522.20	156.82
522.38	67.88
522.55	102.98
522.72	105.32
522.89	86.60
523.07	95.96
523.24	58.51
523.41	105.32
523.58	81.92
523.75	88.94
523.92	126.39
524.10	88.94
524.27	79.58
524.44	117.03
524.61	95.96
524.78	100.64
524.96	135.75
525.13	138.09
525.30	140.43
525.47	110.01
525.64	77.24
525.81	2.34
525.98	156.82
526.16	138.09
526.33	159.16
526.50	131.07
526.67	168.52
526.84	79.58
527.01	98.30
527.18	70.22
527.36	84.26
527.53	156.82
527.70	51.49
527.87	128.73
528.04	86.60
528.21	93.62
528.38	105.32
528.55	72.56
528.72	133.41
528.89	128.73
529.07	102.98
529.24	121.71
529.41	131.07
529.58	72.56
529.75	42.13
529.92	131.07
530.09	39.79
530.26	98.30
530.43	107.66
530.60	77.24
530.77	93.62
530.94	135.75
531.11	124.05
531.28	107.66
531.46	93.62
531.63	140.43
531.80	88.94
531.97	140.43
532.14	121.71
532.31	42.13
532.48	100.64
532.65	21.06
532.82	42.13
532.99	112.35
533.16	32.77
533.33	105.32
533.50	198.95
533.67	98.30
533.84	77.24
534.01	124.05
534.18	46.81
534.35	88.94
534.52	124.05
534.69	93.62
534.86	63.19
535.03	147.45
535.20	30.43
535.37	98.30
535.54	67.88
535.71	107.66
535.88	114.69
536.05	51.49
536.22	128.73
536.38	105.32
536.55	79.58
536.72	119.37
536.89	60.85
537.06	51.49
537.23	110.01
537.40	100.64
537.57	114.69
537.74	72.56
537.91	70.22
538.08	140.43
538.25	81.92
538.42	39.79
538.59	124.05
538.75	140.43
538.92	119.37
539.09	72.56
539.26	140.43
539.43	74.90
539.60	114.69
539.77	135.75
539.94	88.94
540.11	63.19
540.28	93.62
540.44	98.30
540.61	42.13
540.78	95.96
540.95	63.19
541.12	100.64
541.29	100.64
541.46	56.17
541.62	149.79
541.79	135.75
541.96	140.43
542.13	95.96
542.30	154.48
542.47	112.35
542.63	72.56
542.80	138.09
542.97	114.69
543.14	72.56
543.31	133.41
543.48	107.66
543.64	84.26
543.81	114.69
543.98	74.90
544.15	84.26
544.32	98.30
544.48	37.45
544.65	133.41
544.82	119.37
544.99	145.11
545.16	79.58
545.32	135.75
545.49	117.03
545.66	93.62
545.83	105.32
546.00	67.88
546.16	102.98
546.33	121.71
546.50	39.79
546.67	147.45
546.83	117.03
547.00	119.37
547.17	95.96
547.34	105.32
547.50	30.43
547.67	46.81
547.84	102.98
548.00	91.28
548.17	140.43
548.34	121.71
548.51	81.92
548.67	161.50
548.84	98.30
549.01	95.96
549.18	110.01
549.34	126.39
549.51	168.52
549.68	51.49
549.84	135.75
550.01	18.72
550.18	100.64
550.34	58.51
550.51	128.73
550.68	79.58
550.84	84.26
551.01	147.45
551.18	53.83
551.34	119.37
551.51	114.69
551.68	72.56
551.84	93.62
552.01	142.77
552.18	145.11
552.34	138.09
552.51	138.09
552.68	112.35
552.84	114.69
553.01	102.98
553.18	107.66
553.34	70.22
553.51	112.35
553.67	110.01
553.84	77.24
554.01	117.03
554.17	124.05
554.34	65.54
554.51	138.09
554.67	25.75
554.84	114.69
555.00	126.39
555.17	79.58
555.33	42.13
555.50	0.00
555.67	114.69
555.83	67.88
556.00	100.64
556.16	95.96
556.33	46.81
556.50	98.30
556.66	121.71
556.83	74.90
556.99	114.69
557.16	60.85
557.32	135.75
557.49	110.01
557.65	72.56
557.82	79.58
557.98	93.62
558.15	84.26
558.32	173.20
558.48	124.05
558.65	170.86
558.81	124.05
558.98	124.05
559.14	124.05
559.31	84.26
559.47	121.71
559.64	60.85
559.80	37.45
559.97	149.79
560.13	72.56
560.30	114.69
560.46	112.35
560.63	180.22
560.79	117.03
560.96	112.35
561.12	163.84
561.29	147.45
561.45	32.77
561.61	140.43
561.78	140.43
561.94	98.30
562.11	147.45
562.27	88.94
562.44	135.75
562.60	124.05
562.77	100.64
562.93	191.92
563.10	121.71
563.26	77.24
563.42	140.43
563.59	100.64
563.75	86.60
563.92	107.66
564.08	114.69
564.24	105.32
564.41	49.15
564.57	98.30
564.74	107.66
564.90	32.77
565.07	145.11
565.23	74.90
565.39	37.45
565.56	25.75
565.72	79.58
565.88	133.41
566.05	49.15
566.21	25.75
566.38	32.77
566.54	88.94
566.70	63.19
566.87	28.09
567.03	53.83
567.19	142.77
567.36	102.98
567.52	117.03
567.68	131.07
567.85	93.62
568.01	65.54
568.17	93.62
568.34	37.45
568.50	60.85
568.66	74.90
568.83	32.77
568.99	93.62
569.15	147.45
569.32	14.04
569.48	138.09
569.64	74.90
569.81	93.62
569.97	49.15
570.13	60.85
570.30	60.85
570.46	107.66
570.62	58.51
570.78	142.77
570.95	53.83
571.11	74.90
571.27	81.92
571.43	95.96
571.60	53.83
571.76	67.88
571.92	44.47
572.09	107.66
572.25	88.94
572.41	142.77
572.57	67.88
572.74	84.26
572.90	100.64
573.06	67.88
573.22	25.75
573.38	131.07
573.55	173.20
573.71	81.92
573.87	79.58
574.03	173.20
574.20	142.77
574.36	79.58
574.52	77.24
574.68	51.49
574.84	51.49
575.01	100.64
575.17	35.11
575.33	152.13
575.49	170.86
575.65	39.79
575.82	121.71
575.98	91.28
576.14	177.88
576.30	77.24
576.46	72.56
576.62	156.82
576.79	51.49
576.95	88.94
577.11	46.81
577.27	25.75
577.43	112.35
577.59	88.94
577.75	46.81
577.92	93.62
578.08	67.88
578.24	119.37
578.40	58.51
578.56	18.72
578.72	114.69
578.88	84.26
579.04	105.32
579.21	74.90
579.37	107.66
579.53	112.35
579.69	152.13
579.85	86.60
580.01	112.35
580.17	98.30
580.33	124.05
580.49	91.28
580.65	112.35
580.82	7.02
580.98	102.98
581.14	63.19
581.30	53.83
581.46	46.81
581.62	112.35
581.78	21.06
581.94	56.17
582.10	149.79
582.26	65.54
582.42	65.54
582.58	86.60
582.74	126.39
582.90	74.90
583.06	117.03
583.22	93.62
583.38	128.73
583.54	67.88
583.70	63.19
583.86	70.22
584.02	93.62
584.18	191.92
584.34	86.60
584.50	79.58
584.66	102.98
584.82	51.49
584.98	46.81
585.14	30.43
585.30	53.83
585.46	42.13
585.62	53.83
585.78	112.35
585.94	74.90
586.10	117.03
586.26	126.39
586.42	98.30
586.58	119.37
586.74	67.88
586.90	2.34
587.06	91.28
587.22	84.26
587.38	42.13
587.54	30.43
587.70	86.60
587.86	42.13
588.02	42.13
588.18	112.35
588.34	95.96
588.49	56.17
588.65	42.13
588.81	30.43
588.97	98.30
589.13	105.32
589.29	159.16
589.45	79.58
589.61	93.62
589.77	88.94
589.93	67.88
590.08	140.43
590.24	114.69
590.40	67.88
590.56	131.07
590.72	79.58
590.88	84.26
591.04	91.28
591.20	93.62
591.35	58.51
591.51	51.49
591.67	70.22
591.83	37.45
591.99	37.45
592.15	53.83
592.31	126.39
592.46	70.22
592.62	147.45
592.78	95.96
592.94	60.85
593.10	100.64
593.26	88.94
593.41	100.64
593.57	91.28
593.73	84.26
593.89	124.05
594.05	77.24
594.20	67.88
594.36	42.13
594.52	126.39
594.68	142.77
594.84	49.15
594.99	28.09
595.15	84.26
595.31	110.01
595.47	105.32
595.62	102.98
595.78	4.68
595.94	84.26
596.10	98.30
596.25	53.83
596.41	65.54
596.57	79.58
596.73	60.85
596.88	119.37
597.04	18.72
597.20	74.90
597.36	70.22
597.51	0.00
597.67	133.41
597.83	42.13
597.99	145.11
598.14	81.92
598.30	126.39
598.46	65.54
598.61	95.96
598.77	18.72
598.93	51.49
599.09	72.56
599.24	79.58
599.40	72.56
599.56	105.32
599.71	159.16
599.87	128.73
600.03	133.41
600.18	65.54
600.34	86.60
600.50	119.37
600.65	112.35
600.81	30.43
600.97	138.09
601.12	72.56
601.28	98.30
601.44	28.09
601.59	95.96
601.75	67.88
601.91	74.90
602.06	79.58
602.22	161.50
602.37	18.72
602.53	88.94
602.69	152.13
602.84	72.56
603.00	79.58
603.16	117.03
603.31	126.39
603.47	79.58
603.62	124.05
603.78	53.83
603.94	131.07
604.09	105.32
604.25	79.58
604.40	81.92
604.56	95.96
604.71	25.75
604.87	14.04
605.03	84.26
605.18	84.26
605.34	81.92
605.49	63.19
605.65	81.92
605.80	42.13
605.96	95.96
606.12	112.35
606.27	77.24
606.43	86.60
606.58	84.26
606.74	46.81
606.89	65.54
607.05	18.72
607.20	93.62
607.36	56.17
607.51	39.79
607.67	67.88
607.82	95.96
607.98	77.24
608.13	102.98
608.29	70.22
608.44	37.45
608.60	79.58
608.75	11.70
608.91	107.66
609.06	105.32
609.22	72.56
609.37	105.32
609.53	88.94
609.68	37.45
609.84	0.00
609.99	65.54
610.15	124.05
610.30	95.96
610.46	126.39
610.61	77.24
610.76	84.26
610.92	74.90
611.07	81.92
611.23	140.43
611.38	72.56
611.54	81.92
611.69	107.66
611.84	67.88
612.00	58.51
612.15	95.96
612.31	51.49
612.46	0.00
612.62	56.17
612.77	4.68
612.92	44.47
613.08	28.09
613.23	9.36
613.39	51.49
613.54	107.66
613.69	58.51
613.85	72.56
614.00	39.79
614.15	119.37
614.31	9.36
614.46	128.73
614.62	77.24
614.77	79.58
614.92	0.00
615.08	60.85
615.23	86.60
615.38	70.22
615.54	56.17
615.69	49.15
615.84	25.75
616.00	51.49
616.15	70.22
616.30	0.00
616.46	49.15
616.61	72.56
616.76	56.17
616.92	72.56
617.07	60.85
617.22	74.90
617.37	98.30
617.53	121.71
617.68	93.62
617.83	91.28
617.99	98.30
618.14	49.15
618.29	86.60
618.45	51.49
618.60	93.62
618.75	95.96
618.90	100.64
619.06	72.56
619.21	79.58
619.36	102.98
619.51	95.96
619.67	100.64
619.82	98.30
619.97	77.24
620.12	49.15
620.28	46.81
620.43	135.75
620.58	72.56
620.73	81.92
620.89	135.75
621.04	51.49
621.19	25.75
621.34	91.28
621.49	18.72
621.65	53.83
621.80	91.28
621.95	0.00
622.10	100.64
622.25	56.17
622.41	81.92
622.56	56.17
622.71	88.94
622.86	119.37
623.01	88.94
623.16	126.39
623.32	18.72
623.47	51.49
623.62	42.13
623.77	63.19
623.92	46.81
624.07	39.79
624.23	72.56
624.38	126.39
624.53	30.43
624.68	88.94
624.83	72.56
624.98	44.47
625.13	11.70
625.29	58.51
625.44	0.00
625.59	95.96
625.74	21.06
625.89	74.90
626.04	60.85
626.19	88.94
626.34	53.83
626.49	18.72
626.65	23.41
626.80	93.62
626.95	74.90
627.10	23.41
627.25	84.26
627.40	74.90
627.55	91.28
627.70	74.90
627.85	37.45
628.00	79.58
628.15	67.88
628.30	63.19
628.45	91.28
628.60	86.60
628.76	112.35
628.91	84.26
629.06	0.00
629.21	84.26
629.36	49.15
629.51	105.32
629.66	35.11
629.81	84.26
629.96	112.35
630.11	44.47
630.26	63.19
630.41	79.58
630.56	72.56
630.71	56.17
630.86	67.88
631.01	128.73
631.16	37.45
631.31	56.17
631.46	56.17
631.61	58.51
631.76	112.35
631.91	81.92
632.06	30.43
632.21	35.11
632.36	88.94
632.51	105.32
632.66	107.66
632.81	86.60
632.96	0.00
633.10	46.81
633.25	56.17
633.40	119.37
633.55	4.68
633.70	126.39
633.85	74.90
634.00	16.38
634.15	21.06
634.30	107.66
634.45	30.43
634.60	30.43
634.75	42.13
634.90	95.96
635.05	46.81
635.19	65.54
635.34	21.06
635.49	65.54
635.64	70.22
635.79	35.11
635.94	7.02
636.09	79.58
636.24	77.24
636.39	65.54
636.53	46.81
636.68	51.49
636.83	60.85
636.98	4.68
637.13	77.24
637.28	32.77
637.43	74.90
637.57	95.96
637.72	93.62
637.87	79.58
638.02	74.90
638.17	110.01
638.32	23.41
638.46	152.13
638.61	142.77
638.76	53.83
638.91	63.19
639.06	28.09
639.20	84.26
639.35	79.58
639.50	51.49
639.65	32.77
639.80	86.60
639.94	56.17
640.09	81.92
640.24	21.06
640.39	98.30
640.54	37.45
640.68	63.19
640.83	63.19
640.98	105.32
641.13	58.51
641.27	56.17
641.42	88.94
641.57	95.96
641.72	49.15
641.86	110.01
642.01	60.85
642.16	0.00
642.31	95.96
642.45	81.92
642.60	88.94
642.75	110.01
642.90	60.85
643.04	39.79
643.19	77.24
643.34	81.92
643.48	30.43
643.63	74.90
643.78	35.11
643.93	0.00
644.07	42.13
644.22	0.00
644.37	63.19
644.51	93.62
644.66	86.60
644.81	65.54
644.95	51.49
645.10	102.98
645.25	67.88
645.39	110.01
645.54	131.07
645.69	74.90
645.83	79.58
645.98	35.11
646.13	70.22
646.27	23.41
646.42	56.17
646.57	79.58
646.71	21.06
646.86	58.51
647.00	0.00
647.15	53.83
647.30	74.90
647.44	102.98
647.59	105.32
647.74	9.36
647.88	74.90
648.03	131.07
648.17	65.54
648.32	67.88
648.47	49.15
648.61	110.01
648.76	23.41
648.90	65.54
649.05	30.43
649.20	72.56
649.34	0.00
649.49	72.56
649.63	7.02
649.78	70.22
649.92	44.47
650.07	58.51
650.21	0.00
650.36	0.00
650.51	77.24
650.65	39.79
650.80	72.56
650.94	18.72
651.09	14.04
651.23	86.60
651.38	2.34
651.52	35.11
651.67	42.13
651.81	72.56
651.96	32.77
652.10	74.90
652.25	65.54
652.39	110.01
652.54	51.49
652.68	4.68
652.83	9.36
652.97	35.11
653.12	110.01
653.26	14.04
653.41	63.19
653.55	30.43
653.70	72.56
653.84	77.24
653.99	70.22
654.13	51.49
654.27	98.30
654.42	63.19
654.56	0.00
654.71	49.15
654.85	77.24
655.00	49.15
655.14	21.06
655.29	0.00
655.43	30.43
655.57	37.45
655.72	0.00
655.86	102.98
656.01	56.17
656.15	107.66
656.30	56.17
656.44	39.79
656.58	79.58
656.73	0.00
656.87	77.24
657.01	93.62
657.16	105.32
657.30	35.11
657.45	4.68
657.59	67.88
657.73	84.26
657.88	49.15
658.02	14.04
658.16	70.22
658.31	107.66
658.45	86.60
658.60	53.83
658.74	53.83
658.88	91.28
659.03	9.36
659.17	91.28
659.31	60.85
659.46	67.88
659.60	100.64
659.74	70.22
659.89	65.54
660.03	77.24
660.17	42.13
660.32	86.60
660.46	81.92
660.60	0.00
660.74	35.11
660.89	65.54
661.03	39.79
661.17	56.17
661.32	74.90
661.46	74.90
661.60	0.00
661.74	44.47
661.89	93.62
662.03	74.90
662.17	28.09
662.31	72.56
662.46	58.51
662.60	51.49
662.74	65.54
662.88	11.70
663.03	0.00
663.17	49.15
663.31	74.90
663.45	67.88
663.60	0.00
663.74	0.00
663.88	56.17
664.02	35.11
664.17	0.00
664.31	11.70
664.45	88.94
664.59	37.45
664.73	4.68
664.88	0.00
665.02	58.51
665.16	37.45
665.30	58.51
665.44	74.90
665.59	0.00
665.73	39.79
665.87	21.06
666.01	30.43
666.15	74.90
666.29	131.07
666.44	86.60
666.58	60.85
666.72	182.56
666.86	51.49
667.00	42.13
667.14	58.51
667.28	46.81
667.43	110.01
667.57	67.88
667.71	37.45
667.85	18.72
667.99	16.38
668.13	77.24
668.27	70.22
668.41	77.24
668.56	56.17
668.70	28.09
668.84	23.41
668.98	32.77
669.12	58.51
669.26	51.49
669.40	84.26
669.54	88.94
669.68	18.72
669.82	14.04
669.96	21.06
670.10	70.22
670.25	49.15
670.39	0.00
670.53	58.51
670.67	79.58
670.81	81.92
670.95	72.56
671.09	70.22
671.23	93.62
671.37	74.90
671.51	53.83
671.65	56.17
671.79	42.13
671.93	58.51
672.07	117.03
672.21	60.85
672.35	72.56
672.49	0.00
672.63	7.02
672.77	60.85
672.91	39.79
673.05	98.30
673.19	30.43
673.33	79.58
673.47	77.24
673.61	46.81
673.75	0.00
673.89	98.30
674.03	84.26
674.17	60.85
674.31	0.00
674.45	4.68
674.59	25.75
674.73	74.90
674.87	4.68
675.01	18.72
675.15	63.19
675.29	39.79
675.43	105.32
675.56	0.00
675.70	42.13
675.84	67.88
675.98	60.85
676.12	23.41
676.26	102.98
676.40	39.79
676.54	4.68
676.68	67.88
676.82	42.13
676.96	46.81
677.10	65.54
677.23	42.13
677.37	58.51
677.51	70.22
677.65	100.64
677.79	4.68
677.93	23.41
678.07	14.04
678.21	51.49
678.34	44.47
678.48	0.00
678.62	63.19
678.76	72.56
678.90	65.54
679.04	23.41
679.18	0.00
679.31	0.00
679.45	49.15
679.59	84.26
679.73	21.06
679.87	79.58
680.00	4.68
680.14	79.58
680.28	25.75
680.42	39.79
680.56	0.00
680.70	0.00
680.83	9.36
680.97	58.51
681.11	58.51
681.25	44.47
681.39	105.32
681.52	58.51
681.66	135.75
681.80	72.56
681.94	56.17
682.07	60.85
682.21	110.01
682.35	126.39
682.49	100.64
682.62	88.94
682.76	114.69
682.90	39.79
683.04	74.90
683.17	77.24
683.31	126.39
683.45	0.00
683.59	14.04
683.72	14.04
683.86	53.83
684.00	67.88
684.13	46.81
684.27	60.85
684.41	63.19
684.55	60.85
684.68	0.00
684.82	32.77
684.96	35.11
685.09	37.45
685.23	23.41
685.37	4.68
685.50	0.00
685.64	105.32
685.78	72.56
685.91	23.41
686.05	18.72
686.19	67.88
686.32	60.85
686.46	65.54
686.60	74.90
686.73	56.17
686.87	39.79
687.01	23.41
687.14	79.58
687.28	56.17
687.42	0.00
687.55	77.24
687.69	58.51
687.82	67.88
687.96	53.83
688.10	51.49
688.23	77.24
688.37	11.70
688.50	25.75
688.64	51.49
688.78	23.41
688.91	2.34
689.05	63.19
689.18	49.15
689.32	79.58
689.46	18.72
689.59	72.56
689.73	0.00
689.86	21.06
690.00	28.09
690.13	0.00
690.27	0.00
690.41	35.11
690.54	49.15
690.68	98.30
690.81	0.00
690.95	105.32
691.08	11.70
691.22	16.38
691.35	32.77
691.49	65.54
691.62	51.49
691.76	30.43
691.89	0.00
692.03	21.06
692.16	67.88
692.30	30.43
692.43	18.72
692.57	18.72
692.70	77.24
692.84	86.60
692.97	23.41
693.11	51.49
693.24	67.88
693.38	102.98
693.51	0.00
693.65	0.00
693.78	63.19
693.92	37.45
694.05	74.90
694.19	32.77
694.32	72.56
694.45	23.41
694.59	23.41
694.72	0.00
694.86	124.05
694.99	7.02
695.13	9.36
695.26	44.47
695.39	23.41
695.53	44.47
695.66	51.49
695.80	72.56
695.93	105.32
696.07	77.24
696.20	39.79
696.33	81.92
696.47	35.11
696.60	67.88
696.73	51.49
696.87	77.24
697.00	37.45
697.14	25.75
697.27	58.51
697.40	58.51
697.54	60.85
697.67	58.51
697.80	37.45
697.94	56.17
698.07	42.13
698.21	0.00
698.34	0.00
698.47	9.36
698.61	44.47
698.74	74.90
698.87	86.60
699.01	46.81
699.14	23.41
699.27	0.00
699.40	21.06
699.54	0.00
699.67	23.41
699.80	0.00
699.94	65.54
700.07	32.77
700.20	49.15
700.34	16.38
700.47	0.00
700.60	37.45
700.73	30.43
700.87	86.60
701.00	35.11
701.13	35.11
701.26	77.24
701.40	95.96
701.53	74.90
701.66	14.04
701.79	4.68
701.93	105.32
702.06	0.00
702.19	63.19
702.32	0.00
702.46	11.70
702.59	58.51
702.72	163.84
702.85	21.06
702.99	0.00
703.12	21.06
703.25	49.15
703.38	58.51
703.51	58.51
703.65	11.70
703.78	88.94
703.91	0.00
704.04	2.34
704.17	18.72
704.31	67.88
704.44	67.88
704.57	28.09
704.70	0.00
704.83	44.47
704.96	14.04
705.10	51.49
705.23	44.47
>>>>>End Processed Spectral Data<<<<<
