SpectraSuite Data File
++++++++++++++++++++++++++++++++++++
Date: Fri Oct 04 12:13:37 GMT-05:00 2013
User: price-jones
Dark Spectrum Present: No
Reference Spectrum Present: No
Number of Sampled Component Spectra: 1
Spectrometers: USB2+H05261
Integration Time (usec): 10000 (USB2+H05261)
Spectra Averaged: 1 (USB2+H05261)
Boxcar Smoothing: 0 (USB2+H05261)
Correct for Electrical Dark: No (USB2+H05261)
Strobe/Lamp Enabled: No (USB2+H05261)
Correct for Detector Non-linearity: No (USB2+H05261)
Correct for Stray Light: No (USB2+H05261)
Number of Pixels in Processed Spectrum: 2048
>>>>>Begin Processed Spectral Data<<<<<
365.73	16.38
365.92	16.38
366.12	16.38
366.32	0.00
366.52	0.00
366.72	0.00
366.91	0.00
367.11	0.00
367.31	0.00
367.51	0.00
367.70	0.00
367.90	0.00
368.10	0.00
368.30	0.00
368.49	0.00
368.69	0.00
368.89	0.00
369.09	0.00
369.28	0.00
369.48	0.00
369.68	0.00
369.87	0.00
370.07	0.00
370.27	0.00
370.47	0.00
370.66	0.00
370.86	0.00
371.06	0.00
371.25	0.00
371.45	25.75
371.65	0.00
371.84	0.00
372.04	0.00
372.24	0.00
372.44	9.36
372.63	0.00
372.83	39.79
373.03	0.00
373.22	23.41
373.42	42.13
373.62	14.04
373.81	0.00
374.01	0.00
374.21	46.81
374.40	86.60
374.60	39.79
374.79	0.00
374.99	9.36
375.19	16.38
375.38	105.32
375.58	79.58
375.78	32.77
375.97	0.00
376.17	0.00
376.37	7.02
376.56	28.09
376.76	23.41
376.95	65.54
377.15	30.43
377.35	9.36
377.54	30.43
377.74	58.51
377.93	67.88
378.13	11.70
378.33	23.41
378.52	18.72
378.72	65.54
378.91	0.00
379.11	51.49
379.31	0.00
379.50	51.49
379.70	25.75
379.89	21.06
380.09	0.00
380.28	51.49
380.48	28.09
380.68	7.02
380.87	56.17
381.07	56.17
381.26	0.00
381.46	18.72
381.65	56.17
381.85	7.02
382.04	4.68
382.24	0.00
382.43	0.00
382.63	0.00
382.83	30.43
383.02	46.81
383.22	16.38
383.41	98.30
383.61	23.41
383.80	25.75
384.00	16.38
384.19	14.04
384.39	28.09
384.58	0.00
384.78	112.35
384.97	0.00
385.17	56.17
385.36	53.83
385.56	7.02
385.75	88.94
385.95	58.51
386.14	16.38
386.34	14.04
386.53	4.68
386.72	30.43
386.92	0.00
387.11	0.00
387.31	9.36
387.50	16.38
387.70	0.00
387.89	0.00
388.09	28.09
388.28	23.41
388.48	0.00
388.67	70.22
388.86	28.09
389.06	0.00
389.25	23.41
389.45	21.06
389.64	0.00
389.84	0.00
390.03	23.41
390.22	46.81
390.42	42.13
390.61	42.13
390.81	0.00
391.00	37.45
391.19	4.68
391.39	21.06
391.58	42.13
391.78	23.41
391.97	60.85
392.16	32.77
392.36	56.17
392.55	0.00
392.75	65.54
392.94	0.00
393.13	30.43
393.33	21.06
393.52	65.54
393.71	84.26
393.91	49.15
394.10	18.72
394.29	23.41
394.49	2.34
394.68	0.00
394.88	65.54
395.07	0.00
395.26	0.00
395.46	0.00
395.65	0.00
395.84	0.00
396.04	86.60
396.23	25.75
396.42	0.00
396.62	79.58
396.81	0.00
397.00	0.00
397.19	0.00
397.39	42.13
397.58	0.00
397.77	0.00
397.97	7.02
398.16	53.83
398.35	14.04
398.55	44.47
398.74	49.15
398.93	9.36
399.12	0.00
399.32	0.00
399.51	79.58
399.70	98.30
399.90	56.17
400.09	0.00
400.28	60.85
400.47	49.15
400.67	0.00
400.86	46.81
401.05	0.00
401.24	30.43
401.44	46.81
401.63	74.90
401.82	79.58
402.01	100.64
402.21	18.72
402.40	74.90
402.59	4.68
402.78	11.70
402.97	7.02
403.17	37.45
403.36	32.77
403.55	60.85
403.74	74.90
403.93	42.13
404.13	44.47
404.32	56.17
404.51	28.09
404.70	0.00
404.89	49.15
405.09	44.47
405.28	51.49
405.47	70.22
405.66	0.00
405.85	98.30
406.05	91.28
406.24	46.81
406.43	42.13
406.62	84.26
406.81	11.70
407.00	18.72
407.20	0.00
407.39	21.06
407.58	23.41
407.77	37.45
407.96	37.45
408.15	63.19
408.34	32.77
408.54	23.41
408.73	42.13
408.92	2.34
409.11	0.00
409.30	0.00
409.49	23.41
409.68	58.51
409.87	0.00
410.07	53.83
410.26	93.62
410.45	70.22
410.64	23.41
410.83	28.09
411.02	58.51
411.21	32.77
411.40	70.22
411.59	32.77
411.78	0.00
411.98	21.06
412.17	35.11
412.36	32.77
412.55	0.00
412.74	0.00
412.93	9.36
413.12	65.54
413.31	51.49
413.50	14.04
413.69	98.30
413.88	72.56
414.07	98.30
414.26	39.79
414.45	28.09
414.64	58.51
414.83	9.36
415.02	0.00
415.22	46.81
415.41	42.13
415.60	11.70
415.79	49.15
415.98	60.85
416.17	32.77
416.36	39.79
416.55	16.38
416.74	28.09
416.93	0.00
417.12	0.00
417.31	53.83
417.50	88.94
417.69	0.00
417.88	25.75
418.07	28.09
418.26	0.00
418.45	58.51
418.64	32.77
418.83	86.60
419.02	88.94
419.21	0.00
419.39	0.00
419.58	0.00
419.77	42.13
419.96	56.17
420.15	65.54
420.34	49.15
420.53	28.09
420.72	30.43
420.91	84.26
421.10	35.11
421.29	65.54
421.48	60.85
421.67	0.00
421.86	58.51
422.05	0.00
422.24	88.94
422.43	28.09
422.61	51.49
422.80	25.75
422.99	49.15
423.18	114.69
423.37	11.70
423.56	32.77
423.75	14.04
423.94	18.72
424.13	102.98
424.32	93.62
424.50	65.54
424.69	63.19
424.88	14.04
425.07	9.36
425.26	25.75
425.45	65.54
425.64	16.38
425.83	16.38
426.01	81.92
426.20	44.47
426.39	0.00
426.58	0.00
426.77	0.00
426.96	46.81
427.15	0.00
427.33	46.81
427.52	30.43
427.71	37.45
427.90	32.77
428.09	21.06
428.28	0.00
428.46	51.49
428.65	60.85
428.84	23.41
429.03	53.83
429.22	74.90
429.40	0.00
429.59	25.75
429.78	44.47
429.97	53.83
430.16	25.75
430.34	0.00
430.53	0.00
430.72	25.75
430.91	49.15
431.10	18.72
431.28	25.75
431.47	28.09
431.66	119.37
431.85	37.45
432.03	25.75
432.22	86.60
432.41	46.81
432.60	25.75
432.79	60.85
432.97	39.79
433.16	63.19
433.35	0.00
433.54	42.13
433.72	98.30
433.91	86.60
434.10	49.15
434.28	63.19
434.47	32.77
434.66	49.15
434.85	74.90
435.03	37.45
435.22	42.13
435.41	74.90
435.59	88.94
435.78	49.15
435.97	67.88
436.16	21.06
436.34	70.22
436.53	70.22
436.72	119.37
436.90	88.94
437.09	93.62
437.28	25.75
437.46	77.24
437.65	28.09
437.84	7.02
438.02	102.98
438.21	51.49
438.40	0.00
438.58	0.00
438.77	18.72
438.96	11.70
439.14	60.85
439.33	49.15
439.52	100.64
439.70	37.45
439.89	77.24
440.08	49.15
440.26	95.96
440.45	23.41
440.63	63.19
440.82	4.68
441.01	9.36
441.19	46.81
441.38	79.58
441.57	119.37
441.75	39.79
441.94	44.47
442.12	56.17
442.31	77.24
442.50	42.13
442.68	18.72
442.87	49.15
443.05	14.04
443.24	84.26
443.43	67.88
443.61	77.24
443.80	11.70
443.98	67.88
444.17	7.02
444.35	81.92
444.54	39.79
444.73	9.36
444.91	46.81
445.10	37.45
445.28	72.56
445.47	9.36
445.65	102.98
445.84	0.00
446.02	0.00
446.21	0.00
446.39	0.00
446.58	67.88
446.77	53.83
446.95	39.79
447.14	79.58
447.32	93.62
447.51	86.60
447.69	60.85
447.88	77.24
448.06	81.92
448.25	35.11
448.43	114.69
448.62	60.85
448.80	7.02
448.99	112.35
449.17	16.38
449.36	77.24
449.54	21.06
449.73	53.83
449.91	79.58
450.10	74.90
450.28	42.13
450.46	0.00
450.65	51.49
450.83	53.83
451.02	0.00
451.20	28.09
451.39	58.51
451.57	79.58
451.76	84.26
451.94	72.56
452.13	37.45
452.31	0.00
452.49	30.43
452.68	39.79
452.86	65.54
453.05	32.77
453.23	21.06
453.42	84.26
453.60	65.54
453.78	49.15
453.97	65.54
454.15	32.77
454.34	102.98
454.52	2.34
454.70	9.36
454.89	88.94
455.07	21.06
455.26	39.79
455.44	0.00
455.62	21.06
455.81	51.49
455.99	23.41
456.17	11.70
456.36	77.24
456.54	42.13
456.73	37.45
456.91	72.56
457.09	25.75
457.28	72.56
457.46	49.15
457.64	110.01
457.83	16.38
458.01	18.72
458.19	11.70
458.38	21.06
458.56	32.77
458.74	79.58
458.93	147.45
459.11	51.49
459.29	35.11
459.48	124.05
459.66	93.62
459.84	21.06
460.03	42.13
460.21	0.00
460.39	16.38
460.57	84.26
460.76	44.47
460.94	67.88
461.12	49.15
461.31	58.51
461.49	21.06
461.67	39.79
461.85	14.04
462.04	65.54
462.22	156.82
462.40	65.54
462.59	7.02
462.77	25.75
462.95	149.79
463.13	39.79
463.32	39.79
463.50	60.85
463.68	25.75
463.86	44.47
464.05	28.09
464.23	39.79
464.41	86.60
464.59	81.92
464.78	77.24
464.96	4.68
465.14	65.54
465.32	23.41
465.50	142.77
465.69	49.15
465.87	37.45
466.05	18.72
466.23	91.28
466.41	14.04
466.60	49.15
466.78	74.90
466.96	32.77
467.14	56.17
467.32	0.00
467.51	51.49
467.69	7.02
467.87	114.69
468.05	60.85
468.23	39.79
468.41	86.60
468.60	11.70
468.78	2.34
468.96	56.17
469.14	49.15
469.32	58.51
469.50	14.04
469.69	37.45
469.87	112.35
470.05	0.00
470.23	56.17
470.41	25.75
470.59	25.75
470.77	35.11
470.95	67.88
471.14	107.66
471.32	14.04
471.50	18.72
471.68	86.60
471.86	84.26
472.04	95.96
472.22	95.96
472.40	49.15
472.58	53.83
472.77	0.00
472.95	0.00
473.13	100.64
473.31	91.28
473.49	100.64
473.67	49.15
473.85	44.47
474.03	2.34
474.21	126.39
474.39	23.41
474.57	91.28
474.75	32.77
474.93	60.85
475.12	128.73
475.30	16.38
475.48	28.09
475.66	39.79
475.84	9.36
476.02	84.26
476.20	0.00
476.38	21.06
476.56	58.51
476.74	67.88
476.92	98.30
477.10	25.75
477.28	56.17
477.46	74.90
477.64	166.18
477.82	11.70
478.00	58.51
478.18	86.60
478.36	65.54
478.54	0.00
478.72	60.85
478.90	110.01
479.08	28.09
479.26	58.51
479.44	147.45
479.62	28.09
479.80	79.58
479.98	102.98
480.16	152.13
480.34	81.92
480.52	93.62
480.70	14.04
480.88	53.83
481.06	88.94
481.24	56.17
481.41	28.09
481.59	72.56
481.77	39.79
481.95	0.00
482.13	56.17
482.31	44.47
482.49	84.26
482.67	53.83
482.85	98.30
483.03	93.62
483.21	46.81
483.39	63.19
483.57	49.15
483.74	23.41
483.92	32.77
484.10	86.60
484.28	107.66
484.46	93.62
484.64	49.15
484.82	49.15
485.00	32.77
485.18	39.79
485.35	0.00
485.53	105.32
485.71	39.79
485.89	93.62
486.07	63.19
486.25	46.81
486.43	72.56
486.61	63.19
486.78	117.03
486.96	140.43
487.14	67.88
487.32	79.58
487.50	39.79
487.68	46.81
487.85	32.77
488.03	60.85
488.21	93.62
488.39	58.51
488.57	79.58
488.75	84.26
488.92	126.39
489.10	49.15
489.28	18.72
489.46	60.85
489.64	98.30
489.81	84.26
489.99	21.06
490.17	44.47
490.35	107.66
490.53	86.60
490.70	53.83
490.88	60.85
491.06	51.49
491.24	102.98
491.41	37.45
491.59	79.58
491.77	79.58
491.95	65.54
492.13	60.85
492.30	51.49
492.48	16.38
492.66	56.17
492.84	44.47
493.01	138.09
493.19	98.30
493.37	72.56
493.54	93.62
493.72	102.98
493.90	18.72
494.08	102.98
494.25	72.56
494.43	35.11
494.61	18.72
494.79	60.85
494.96	147.45
495.14	77.24
495.32	102.98
495.49	79.58
495.67	95.96
495.85	53.83
496.02	81.92
496.20	58.51
496.38	23.41
496.55	23.41
496.73	95.96
496.91	35.11
497.09	142.77
497.26	42.13
497.44	93.62
497.62	102.98
497.79	30.43
497.97	147.45
498.14	86.60
498.32	56.17
498.50	147.45
498.67	70.22
498.85	112.35
499.03	30.43
499.20	72.56
499.38	28.09
499.56	79.58
499.73	60.85
499.91	9.36
500.08	107.66
500.26	60.85
500.44	74.90
500.61	133.41
500.79	95.96
500.97	77.24
501.14	110.01
501.32	53.83
501.49	74.90
501.67	81.92
501.84	81.92
502.02	42.13
502.20	67.88
502.37	60.85
502.55	49.15
502.72	105.32
502.90	70.22
503.07	105.32
503.25	114.69
503.43	105.32
503.60	107.66
503.78	95.96
503.95	117.03
504.13	32.77
504.30	81.92
504.48	105.32
504.65	49.15
504.83	170.86
505.01	112.35
505.18	121.71
505.36	93.62
505.53	84.26
505.71	74.90
505.88	81.92
506.06	49.15
506.23	42.13
506.41	37.45
506.58	131.07
506.76	7.02
506.93	105.32
507.11	100.64
507.28	63.19
507.46	63.19
507.63	42.13
507.81	60.85
507.98	72.56
508.16	4.68
508.33	107.66
508.50	63.19
508.68	149.79
508.85	98.30
509.03	95.96
509.20	79.58
509.38	81.92
509.55	51.49
509.73	70.22
509.90	105.32
510.08	77.24
510.25	102.98
510.42	112.35
510.60	72.56
510.77	128.73
510.95	32.77
511.12	77.24
511.30	46.81
511.47	56.17
511.64	4.68
511.82	28.09
511.99	18.72
512.17	67.88
512.34	77.24
512.51	77.24
512.69	74.90
512.86	0.00
513.04	86.60
513.21	102.98
513.38	131.07
513.56	100.64
513.73	35.11
513.90	128.73
514.08	114.69
514.25	110.01
514.43	72.56
514.60	60.85
514.77	77.24
514.95	138.09
515.12	74.90
515.29	102.98
515.47	0.00
515.64	37.45
515.81	65.54
515.99	112.35
516.16	72.56
516.33	147.45
516.51	93.62
516.68	42.13
516.85	81.92
517.03	93.62
517.20	32.77
517.37	63.19
517.54	79.58
517.72	18.72
517.89	37.45
518.06	44.47
518.24	117.03
518.41	124.05
518.58	100.64
518.75	138.09
518.93	49.15
519.10	25.75
519.27	84.26
519.45	93.62
519.62	86.60
519.79	56.17
519.96	23.41
520.14	135.75
520.31	135.75
520.48	140.43
520.65	46.81
520.83	107.66
521.00	93.62
521.17	102.98
521.34	112.35
521.52	147.45
521.69	95.96
521.86	65.54
522.03	72.56
522.20	25.75
522.38	32.77
522.55	154.48
522.72	74.90
522.89	77.24
523.07	86.60
523.24	110.01
523.41	88.94
523.58	25.75
523.75	88.94
523.92	119.37
524.10	93.62
524.27	35.11
524.44	0.00
524.61	58.51
524.78	46.81
524.96	131.07
525.13	182.56
525.30	88.94
525.47	46.81
525.64	98.30
525.81	100.64
525.98	56.17
526.16	72.56
526.33	86.60
526.50	138.09
526.67	42.13
526.84	128.73
527.01	32.77
527.18	107.66
527.36	93.62
527.53	88.94
527.70	72.56
527.87	107.66
528.04	23.41
528.21	142.77
528.38	88.94
528.55	131.07
528.72	187.24
528.89	77.24
529.07	102.98
529.24	42.13
529.41	88.94
529.58	56.17
529.75	65.54
529.92	126.39
530.09	93.62
530.26	110.01
530.43	42.13
530.60	117.03
530.77	107.66
530.94	37.45
531.11	112.35
531.28	70.22
531.46	138.09
531.63	105.32
531.80	98.30
531.97	81.92
532.14	102.98
532.31	119.37
532.48	117.03
532.65	53.83
532.82	105.32
532.99	72.56
533.16	156.82
533.33	0.00
533.50	74.90
533.67	86.60
533.84	56.17
534.01	93.62
534.18	60.85
534.35	84.26
534.52	49.15
534.69	107.66
534.86	121.71
535.03	16.38
535.20	135.75
535.37	105.32
535.54	131.07
535.71	93.62
535.88	100.64
536.05	107.66
536.22	88.94
536.38	88.94
536.55	102.98
536.72	107.66
536.89	84.26
537.06	7.02
537.23	95.96
537.40	119.37
537.57	23.41
537.74	124.05
537.91	95.96
538.08	72.56
538.25	112.35
538.42	56.17
538.59	63.19
538.75	74.90
538.92	56.17
539.09	88.94
539.26	35.11
539.43	56.17
539.60	114.69
539.77	119.37
539.94	156.82
540.11	98.30
540.28	70.22
540.44	124.05
540.61	46.81
540.78	42.13
540.95	56.17
541.12	65.54
541.29	121.71
541.46	49.15
541.62	7.02
541.79	124.05
541.96	65.54
542.13	117.03
542.30	58.51
542.47	117.03
542.63	51.49
542.80	2.34
542.97	84.26
543.14	88.94
543.31	131.07
543.48	145.11
543.64	63.19
543.81	93.62
543.98	119.37
544.15	56.17
544.32	163.84
544.48	70.22
544.65	117.03
544.82	53.83
544.99	42.13
545.16	100.64
545.32	65.54
545.49	93.62
545.66	88.94
545.83	72.56
546.00	81.92
546.16	159.16
546.33	51.49
546.50	70.22
546.67	112.35
546.83	18.72
547.00	84.26
547.17	70.22
547.34	131.07
547.50	84.26
547.67	37.45
547.84	14.04
548.00	98.30
548.17	51.49
548.34	110.01
548.51	70.22
548.67	100.64
548.84	67.88
549.01	23.41
549.18	49.15
549.34	121.71
549.51	88.94
549.68	81.92
549.84	46.81
550.01	102.98
550.18	95.96
550.34	135.75
550.51	35.11
550.68	140.43
550.84	147.45
551.01	56.17
551.18	88.94
551.34	100.64
551.51	95.96
551.68	32.77
551.84	39.79
552.01	88.94
552.18	42.13
552.34	56.17
552.51	28.09
552.68	98.30
552.84	110.01
553.01	166.18
553.18	121.71
553.34	56.17
553.51	119.37
553.67	145.11
553.84	86.60
554.01	79.58
554.17	91.28
554.34	51.49
554.51	149.79
554.67	58.51
554.84	140.43
555.00	58.51
555.17	91.28
555.33	163.84
555.50	32.77
555.67	102.98
555.83	119.37
556.00	39.79
556.16	81.92
556.33	77.24
556.50	100.64
556.66	42.13
556.83	65.54
556.99	131.07
557.16	131.07
557.32	105.32
557.49	112.35
557.65	128.73
557.82	110.01
557.98	65.54
558.15	110.01
558.32	79.58
558.48	56.17
558.65	42.13
558.81	39.79
558.98	37.45
559.14	70.22
559.31	72.56
559.47	49.15
559.64	0.00
559.80	105.32
559.97	53.83
560.13	86.60
560.30	67.88
560.46	117.03
560.63	46.81
560.79	180.22
560.96	102.98
561.12	58.51
561.29	102.98
561.45	100.64
561.61	81.92
561.78	117.03
561.94	110.01
562.11	21.06
562.27	32.77
562.44	86.60
562.60	88.94
562.77	95.96
562.93	56.17
563.10	88.94
563.26	58.51
563.42	77.24
563.59	65.54
563.75	84.26
563.92	107.66
564.08	86.60
564.24	70.22
564.41	74.90
564.57	88.94
564.74	107.66
564.90	30.43
565.07	74.90
565.23	117.03
565.39	117.03
565.56	93.62
565.72	72.56
565.88	119.37
566.05	25.75
566.21	37.45
566.38	14.04
566.54	35.11
566.70	98.30
566.87	56.17
567.03	30.43
567.19	79.58
567.36	102.98
567.52	56.17
567.68	70.22
567.85	84.26
568.01	114.69
568.17	107.66
568.34	65.54
568.50	98.30
568.66	74.90
568.83	65.54
568.99	42.13
569.15	135.75
569.32	91.28
569.48	58.51
569.64	70.22
569.81	9.36
569.97	0.00
570.13	67.88
570.30	133.41
570.46	58.51
570.62	63.19
570.78	131.07
570.95	95.96
571.11	72.56
571.27	77.24
571.43	102.98
571.60	119.37
571.76	117.03
571.92	72.56
572.09	93.62
572.25	140.43
572.41	23.41
572.57	44.47
572.74	63.19
572.90	37.45
573.06	93.62
573.22	79.58
573.38	35.11
573.55	105.32
573.71	117.03
573.87	0.00
574.03	60.85
574.20	58.51
574.36	110.01
574.52	39.79
574.68	91.28
574.84	74.90
575.01	107.66
575.17	81.92
575.33	63.19
575.49	93.62
575.65	79.58
575.82	107.66
575.98	86.60
576.14	126.39
576.30	86.60
576.46	124.05
576.62	126.39
576.79	149.79
576.95	51.49
577.11	72.56
577.27	2.34
577.43	126.39
577.59	154.48
577.75	81.92
577.92	133.41
578.08	74.90
578.24	126.39
578.40	0.00
578.56	105.32
578.72	25.75
578.88	30.43
579.04	60.85
579.21	81.92
579.37	88.94
579.53	37.45
579.69	65.54
579.85	44.47
580.01	112.35
580.17	72.56
580.33	63.19
580.49	21.06
580.65	138.09
580.82	79.58
580.98	53.83
581.14	84.26
581.30	98.30
581.46	100.64
581.62	84.26
581.78	88.94
581.94	67.88
582.10	95.96
582.26	95.96
582.42	72.56
582.58	44.47
582.74	81.92
582.90	58.51
583.06	65.54
583.22	135.75
583.38	74.90
583.54	46.81
583.70	49.15
583.86	79.58
584.02	63.19
584.18	91.28
584.34	32.77
584.50	86.60
584.66	98.30
584.82	74.90
584.98	23.41
585.14	138.09
585.30	163.84
585.46	93.62
585.62	88.94
585.78	51.49
585.94	102.98
586.10	72.56
586.26	114.69
586.42	28.09
586.58	60.85
586.74	51.49
586.90	117.03
587.06	18.72
587.22	77.24
587.38	93.62
587.54	100.64
587.70	65.54
587.86	133.41
588.02	79.58
588.18	67.88
588.34	63.19
588.49	81.92
588.65	65.54
588.81	11.70
588.97	32.77
589.13	58.51
589.29	53.83
589.45	74.90
589.61	30.43
589.77	86.60
589.93	42.13
590.08	32.77
590.24	39.79
590.40	77.24
590.56	46.81
590.72	39.79
590.88	86.60
591.04	53.83
591.20	46.81
591.35	86.60
591.51	84.26
591.67	35.11
591.83	53.83
591.99	121.71
592.15	53.83
592.31	88.94
592.46	2.34
592.62	100.64
592.78	110.01
592.94	84.26
593.10	152.13
593.26	77.24
593.41	79.58
593.57	25.75
593.73	63.19
593.89	67.88
594.05	102.98
594.20	63.19
594.36	21.06
594.52	93.62
594.68	105.32
594.84	135.75
594.99	121.71
595.15	37.45
595.31	86.60
595.47	72.56
595.62	30.43
595.78	79.58
595.94	42.13
596.10	37.45
596.25	32.77
596.41	79.58
596.57	0.00
596.73	107.66
596.88	145.11
597.04	65.54
597.20	42.13
597.36	46.81
597.51	88.94
597.67	110.01
597.83	39.79
597.99	72.56
598.14	51.49
598.30	74.90
598.46	65.54
598.61	70.22
598.77	42.13
598.93	18.72
599.09	0.00
599.24	25.75
599.40	0.00
599.56	51.49
599.71	42.13
599.87	30.43
600.03	44.47
600.18	63.19
600.34	67.88
600.50	30.43
600.65	46.81
600.81	63.19
600.97	72.56
601.12	86.60
601.28	107.66
601.44	84.26
601.59	91.28
601.75	28.09
601.91	32.77
602.06	145.11
602.22	110.01
602.37	124.05
602.53	67.88
602.69	9.36
602.84	79.58
603.00	140.43
603.16	56.17
603.31	77.24
603.47	44.47
603.62	110.01
603.78	46.81
603.94	135.75
604.09	107.66
604.25	25.75
604.40	70.22
604.56	35.11
604.71	53.83
604.87	67.88
605.03	117.03
605.18	74.90
605.34	166.18
605.49	74.90
605.65	42.13
605.80	65.54
605.96	11.70
606.12	100.64
606.27	121.71
606.43	49.15
606.58	51.49
606.74	93.62
606.89	126.39
607.05	58.51
607.20	77.24
607.36	117.03
607.51	7.02
607.67	46.81
607.82	30.43
607.98	37.45
608.13	84.26
608.29	11.70
608.44	86.60
608.60	58.51
608.75	53.83
608.91	30.43
609.06	154.48
609.22	166.18
609.37	84.26
609.53	58.51
609.68	105.32
609.84	65.54
609.99	100.64
610.15	0.00
610.30	0.00
610.46	56.17
610.61	58.51
610.76	126.39
610.92	112.35
611.07	67.88
611.23	95.96
611.38	142.77
611.54	37.45
611.69	58.51
611.84	0.00
612.00	35.11
612.15	84.26
612.31	42.13
612.46	107.66
612.62	112.35
612.77	86.60
612.92	102.98
613.08	23.41
613.23	74.90
613.39	0.00
613.54	70.22
613.69	63.19
613.85	0.00
614.00	46.81
614.15	58.51
614.31	37.45
614.46	46.81
614.62	60.85
614.77	84.26
614.92	100.64
615.08	72.56
615.23	81.92
615.38	9.36
615.54	32.77
615.69	86.60
615.84	49.15
616.00	74.90
616.15	30.43
616.30	30.43
616.46	49.15
616.61	14.04
616.76	88.94
616.92	51.49
617.07	46.81
617.22	56.17
617.37	100.64
617.53	58.51
617.68	9.36
617.83	4.68
617.99	135.75
618.14	72.56
618.29	30.43
618.45	0.00
618.60	39.79
618.75	102.98
618.90	98.30
619.06	25.75
619.21	53.83
619.36	77.24
619.51	105.32
619.67	9.36
619.82	0.00
619.97	105.32
620.12	117.03
620.28	77.24
620.43	67.88
620.58	81.92
620.73	30.43
620.89	53.83
621.04	42.13
621.19	42.13
621.34	77.24
621.49	72.56
621.65	30.43
621.80	18.72
621.95	95.96
622.10	88.94
622.25	37.45
622.41	42.13
622.56	105.32
622.71	35.11
622.86	81.92
623.01	67.88
623.16	105.32
623.32	138.09
623.47	39.79
623.62	79.58
623.77	65.54
623.92	32.77
624.07	46.81
624.23	74.90
624.38	93.62
624.53	84.26
624.68	30.43
624.83	67.88
624.98	124.05
625.13	63.19
625.29	25.75
625.44	117.03
625.59	74.90
625.74	67.88
625.89	77.24
626.04	0.00
626.19	70.22
626.34	147.45
626.49	159.16
626.65	56.17
626.80	84.26
626.95	72.56
627.10	23.41
627.25	0.00
627.40	63.19
627.55	135.75
627.70	95.96
627.85	53.83
628.00	79.58
628.15	42.13
628.30	46.81
628.45	88.94
628.60	35.11
628.76	51.49
628.91	93.62
629.06	95.96
629.21	0.00
629.36	35.11
629.51	28.09
629.66	46.81
629.81	25.75
629.96	56.17
630.11	58.51
630.26	25.75
630.41	0.00
630.56	37.45
630.71	37.45
630.86	49.15
631.01	18.72
631.16	102.98
631.31	72.56
631.46	119.37
631.61	23.41
631.76	60.85
631.91	70.22
632.06	0.00
632.21	107.66
632.36	23.41
632.51	49.15
632.66	35.11
632.81	77.24
632.96	60.85
633.10	30.43
633.25	84.26
633.40	63.19
633.55	32.77
633.70	21.06
633.85	65.54
634.00	21.06
634.15	51.49
634.30	74.90
634.45	88.94
634.60	56.17
634.75	21.06
634.90	72.56
635.05	4.68
635.19	37.45
635.34	81.92
635.49	79.58
635.64	91.28
635.79	30.43
635.94	105.32
636.09	128.73
636.24	56.17
636.39	32.77
636.53	91.28
636.68	72.56
636.83	42.13
636.98	79.58
637.13	51.49
637.28	67.88
637.43	84.26
637.57	72.56
637.72	42.13
637.87	11.70
638.02	65.54
638.17	128.73
638.32	84.26
638.46	30.43
638.61	39.79
638.76	121.71
638.91	72.56
639.06	74.90
639.20	25.75
639.35	42.13
639.50	0.00
639.65	88.94
639.80	67.88
639.94	0.00
640.09	18.72
640.24	0.00
640.39	91.28
640.54	28.09
640.68	2.34
640.83	56.17
640.98	44.47
641.13	44.47
641.27	4.68
641.42	112.35
641.57	86.60
641.72	51.49
641.86	42.13
642.01	9.36
642.16	72.56
642.31	56.17
642.45	60.85
642.60	112.35
642.75	0.00
642.90	21.06
643.04	35.11
643.19	30.43
643.34	65.54
643.48	0.00
643.63	44.47
643.78	32.77
643.93	65.54
644.07	0.00
644.22	49.15
644.37	28.09
644.51	25.75
644.66	79.58
644.81	70.22
644.95	51.49
645.10	30.43
645.25	0.00
645.39	44.47
645.54	0.00
645.69	16.38
645.83	39.79
645.98	56.17
646.13	14.04
646.27	39.79
646.42	114.69
646.57	65.54
646.71	18.72
646.86	46.81
647.00	70.22
647.15	30.43
647.30	0.00
647.44	79.58
647.59	67.88
647.74	30.43
647.88	23.41
648.03	21.06
648.17	98.30
648.32	0.00
648.47	77.24
648.61	72.56
648.76	128.73
648.90	44.47
649.05	9.36
649.20	60.85
649.34	67.88
649.49	58.51
649.63	74.90
649.78	39.79
649.92	79.58
650.07	79.58
650.21	56.17
650.36	21.06
650.51	117.03
650.65	58.51
650.80	72.56
650.94	21.06
651.09	63.19
651.23	42.13
651.38	51.49
651.52	42.13
651.67	23.41
651.81	0.00
651.96	49.15
652.10	7.02
652.25	58.51
652.39	152.13
652.54	110.01
652.68	53.83
652.83	77.24
652.97	51.49
653.12	105.32
653.26	4.68
653.41	35.11
653.55	58.51
653.70	74.90
653.84	37.45
653.99	49.15
654.13	42.13
654.27	0.00
654.42	16.38
654.56	79.58
654.71	37.45
654.85	98.30
655.00	4.68
655.14	91.28
655.29	58.51
655.43	65.54
655.57	86.60
655.72	25.75
655.86	0.00
656.01	4.68
656.15	51.49
656.30	67.88
656.44	32.77
656.58	74.90
656.73	60.85
656.87	21.06
657.01	14.04
657.16	81.92
657.30	42.13
657.45	16.38
657.59	37.45
657.73	42.13
657.88	11.70
658.02	35.11
658.16	0.00
658.31	81.92
658.45	4.68
658.60	21.06
658.74	39.79
658.88	0.00
659.03	30.43
659.17	98.30
659.31	42.13
659.46	67.88
659.60	63.19
659.74	35.11
659.89	28.09
660.03	84.26
660.17	60.85
660.32	98.30
660.46	51.49
660.60	42.13
660.74	102.98
660.89	91.28
661.03	114.69
661.17	70.22
661.32	16.38
661.46	84.26
661.60	56.17
661.74	2.34
661.89	161.50
662.03	88.94
662.17	0.00
662.31	28.09
662.46	42.13
662.60	28.09
662.74	65.54
662.88	65.54
663.03	30.43
663.17	124.05
663.31	0.00
663.45	58.51
663.60	28.09
663.74	0.00
663.88	102.98
664.02	0.00
664.17	72.56
664.31	32.77
664.45	4.68
664.59	46.81
664.73	0.00
664.88	93.62
665.02	28.09
665.16	67.88
665.30	42.13
665.44	39.79
665.59	32.77
665.73	105.32
665.87	74.90
666.01	65.54
666.15	0.00
666.29	25.75
666.44	74.90
666.58	23.41
666.72	51.49
666.86	0.00
667.00	138.09
667.14	7.02
667.28	70.22
667.43	81.92
667.57	18.72
667.71	39.79
667.85	51.49
667.99	86.60
668.13	21.06
668.27	58.51
668.41	65.54
668.56	77.24
668.70	81.92
668.84	46.81
668.98	77.24
669.12	65.54
669.26	21.06
669.40	81.92
669.54	32.77
669.68	46.81
669.82	14.04
669.96	0.00
670.10	49.15
670.25	7.02
670.39	53.83
670.53	7.02
670.67	32.77
670.81	42.13
670.95	0.00
671.09	56.17
671.23	9.36
671.37	39.79
671.51	0.00
671.65	70.22
671.79	117.03
671.93	65.54
672.07	32.77
672.21	114.69
672.35	32.77
672.49	77.24
672.63	79.58
672.77	16.38
672.91	23.41
673.05	2.34
673.19	128.73
673.33	93.62
673.47	51.49
673.61	0.00
673.75	105.32
673.89	95.96
674.03	28.09
674.17	58.51
674.31	91.28
674.45	46.81
674.59	44.47
674.73	42.13
674.87	30.43
675.01	58.51
675.15	72.56
675.29	35.11
675.43	98.30
675.56	37.45
675.70	0.00
675.84	0.00
675.98	72.56
676.12	32.77
676.26	18.72
676.40	4.68
676.54	37.45
676.68	65.54
676.82	14.04
676.96	79.58
677.10	35.11
677.23	4.68
677.37	49.15
677.51	0.00
677.65	42.13
677.79	14.04
677.93	42.13
678.07	9.36
678.21	88.94
678.34	28.09
678.48	53.83
678.62	18.72
678.76	65.54
678.90	25.75
679.04	0.00
679.18	46.81
679.31	95.96
679.45	53.83
679.59	25.75
679.73	30.43
679.87	21.06
680.00	91.28
680.14	14.04
680.28	49.15
680.42	79.58
680.56	23.41
680.70	39.79
680.83	30.43
680.97	105.32
681.11	35.11
681.25	63.19
681.39	0.00
681.52	77.24
681.66	39.79
681.80	7.02
681.94	72.56
682.07	42.13
682.21	28.09
682.35	58.51
682.49	74.90
682.62	58.51
682.76	56.17
682.90	60.85
683.04	86.60
683.17	2.34
683.31	67.88
683.45	49.15
683.59	4.68
683.72	53.83
683.86	44.47
684.00	37.45
684.13	25.75
684.27	98.30
684.41	58.51
684.55	88.94
684.68	91.28
684.82	0.00
684.96	0.00
685.09	18.72
685.23	4.68
685.37	60.85
685.50	74.90
685.64	30.43
685.78	53.83
685.91	60.85
686.05	65.54
686.19	0.00
686.32	21.06
686.46	0.00
686.60	39.79
686.73	0.00
686.87	49.15
687.01	49.15
687.14	16.38
687.28	11.70
687.42	4.68
687.55	0.00
687.69	53.83
687.82	16.38
687.96	70.22
688.10	49.15
688.23	58.51
688.37	0.00
688.50	86.60
688.64	0.00
688.78	79.58
688.91	18.72
689.05	14.04
689.18	51.49
689.32	44.47
689.46	74.90
689.59	81.92
689.73	63.19
689.86	42.13
690.00	46.81
690.13	93.62
690.27	0.00
690.41	7.02
690.54	46.81
690.68	30.43
690.81	44.47
690.95	18.72
691.08	23.41
691.22	14.04
691.35	74.90
691.49	72.56
691.62	56.17
691.76	35.11
691.89	60.85
692.03	95.96
692.16	23.41
692.30	23.41
692.43	42.13
692.57	0.00
692.70	16.38
692.84	88.94
692.97	0.00
693.11	0.00
693.24	23.41
693.38	35.11
693.51	42.13
693.65	53.83
693.78	32.77
693.92	25.75
694.05	51.49
694.19	9.36
694.32	28.09
694.45	0.00
694.59	11.70
694.72	35.11
694.86	28.09
694.99	32.77
695.13	44.47
695.26	39.79
695.39	42.13
695.53	79.58
695.66	95.96
695.80	67.88
695.93	0.00
696.07	84.26
696.20	42.13
696.33	65.54
696.47	65.54
696.60	77.24
696.73	11.70
696.87	51.49
697.00	18.72
697.14	30.43
697.27	25.75
697.40	0.00
697.54	32.77
697.67	0.00
697.80	35.11
697.94	86.60
698.07	46.81
698.21	2.34
698.34	0.00
698.47	44.47
698.61	2.34
698.74	32.77
698.87	91.28
699.01	0.00
699.14	39.79
699.27	67.88
699.40	74.90
699.54	0.00
699.67	18.72
699.80	32.77
699.94	0.00
700.07	0.00
700.20	63.19
700.34	21.06
700.47	0.00
700.60	0.00
700.73	7.02
700.87	51.49
701.00	28.09
701.13	81.92
701.26	0.00
701.40	39.79
701.53	81.92
701.66	126.39
701.79	16.38
701.93	67.88
702.06	37.45
702.19	44.47
702.32	58.51
702.46	0.00
702.59	0.00
702.72	14.04
702.85	21.06
702.99	4.68
703.12	60.85
703.25	39.79
703.38	37.45
703.51	131.07
703.65	60.85
703.78	65.54
703.91	58.51
704.04	23.41
704.17	0.00
704.31	51.49
704.44	77.24
704.57	67.88
704.70	37.45
704.83	0.00
704.96	88.94
705.10	77.24
705.23	70.22
>>>>>End Processed Spectral Data<<<<<
