SpectraSuite Data File
++++++++++++++++++++++++++++++++++++
Date: Fri Oct 04 12:13:38 GMT-05:00 2013
User: price-jones
Dark Spectrum Present: No
Reference Spectrum Present: No
Number of Sampled Component Spectra: 1
Spectrometers: USB2+H05261
Integration Time (usec): 10000 (USB2+H05261)
Spectra Averaged: 1 (USB2+H05261)
Boxcar Smoothing: 0 (USB2+H05261)
Correct for Electrical Dark: No (USB2+H05261)
Strobe/Lamp Enabled: No (USB2+H05261)
Correct for Detector Non-linearity: No (USB2+H05261)
Correct for Stray Light: No (USB2+H05261)
Number of Pixels in Processed Spectrum: 2048
>>>>>Begin Processed Spectral Data<<<<<
365.73	11.70
365.92	11.70
366.12	11.70
366.32	0.00
366.52	0.00
366.72	0.00
366.91	0.00
367.11	0.00
367.31	0.00
367.51	0.00
367.70	0.00
367.90	0.00
368.10	0.00
368.30	0.00
368.49	0.00
368.69	0.00
368.89	0.00
369.09	0.00
369.28	0.00
369.48	0.00
369.68	0.00
369.87	0.00
370.07	0.00
370.27	0.00
370.47	0.00
370.66	0.00
370.86	0.00
371.06	0.00
371.25	0.00
371.45	23.41
371.65	7.02
371.84	4.68
372.04	37.45
372.24	37.45
372.44	0.00
372.63	0.00
372.83	46.81
373.03	46.81
373.22	37.45
373.42	86.60
373.62	0.00
373.81	37.45
374.01	32.77
374.21	91.28
374.40	16.38
374.60	39.79
374.79	42.13
374.99	0.00
375.19	0.00
375.38	21.06
375.58	32.77
375.78	56.17
375.97	39.79
376.17	18.72
376.37	28.09
376.56	0.00
376.76	0.00
376.95	0.00
377.15	0.00
377.35	16.38
377.54	35.11
377.74	21.06
377.93	56.17
378.13	30.43
378.33	42.13
378.52	44.47
378.72	28.09
378.91	16.38
379.11	14.04
379.31	39.79
379.50	4.68
379.70	49.15
379.89	32.77
380.09	0.00
380.28	7.02
380.48	51.49
380.68	44.47
380.87	63.19
381.07	65.54
381.26	21.06
381.46	9.36
381.65	28.09
381.85	0.00
382.04	23.41
382.24	0.00
382.43	9.36
382.63	0.00
382.83	70.22
383.02	46.81
383.22	21.06
383.41	0.00
383.61	0.00
383.80	63.19
384.00	0.00
384.19	51.49
384.39	11.70
384.58	9.36
384.78	14.04
384.97	49.15
385.17	84.26
385.36	49.15
385.56	42.13
385.75	51.49
385.95	42.13
386.14	18.72
386.34	0.00
386.53	0.00
386.72	23.41
386.92	37.45
387.11	21.06
387.31	0.00
387.50	32.77
387.70	0.00
387.89	67.88
388.09	0.00
388.28	9.36
388.48	0.00
388.67	0.00
388.86	65.54
389.06	37.45
389.25	16.38
389.45	86.60
389.64	14.04
389.84	9.36
390.03	0.00
390.22	0.00
390.42	23.41
390.61	42.13
390.81	11.70
391.00	42.13
391.19	0.00
391.39	30.43
391.58	28.09
391.78	16.38
391.97	0.00
392.16	0.00
392.36	32.77
392.55	0.00
392.75	32.77
392.94	0.00
393.13	16.38
393.33	44.47
393.52	49.15
393.71	18.72
393.91	44.47
394.10	70.22
394.29	0.00
394.49	65.54
394.68	39.79
394.88	53.83
395.07	7.02
395.26	0.00
395.46	0.00
395.65	46.81
395.84	39.79
396.04	112.35
396.23	23.41
396.42	0.00
396.62	30.43
396.81	102.98
397.00	60.85
397.19	4.68
397.39	121.71
397.58	56.17
397.77	32.77
397.97	77.24
398.16	70.22
398.35	88.94
398.55	60.85
398.74	28.09
398.93	21.06
399.12	0.00
399.32	46.81
399.51	46.81
399.70	7.02
399.90	30.43
400.09	4.68
400.28	28.09
400.47	0.00
400.67	16.38
400.86	18.72
401.05	46.81
401.24	7.02
401.44	35.11
401.63	0.00
401.82	35.11
402.01	0.00
402.21	25.75
402.40	72.56
402.59	63.19
402.78	100.64
402.97	37.45
403.17	2.34
403.36	0.00
403.55	0.00
403.74	67.88
403.93	67.88
404.13	32.77
404.32	0.00
404.51	84.26
404.70	0.00
404.89	67.88
405.09	0.00
405.28	28.09
405.47	44.47
405.66	56.17
405.85	37.45
406.05	35.11
406.24	18.72
406.43	53.83
406.62	21.06
406.81	28.09
407.00	2.34
407.20	0.00
407.39	0.00
407.58	81.92
407.77	28.09
407.96	18.72
408.15	4.68
408.34	42.13
408.54	30.43
408.73	28.09
408.92	107.66
409.11	46.81
409.30	166.18
409.49	56.17
409.68	56.17
409.87	32.77
410.07	35.11
410.26	0.00
410.45	18.72
410.64	51.49
410.83	86.60
411.02	0.00
411.21	39.79
411.40	0.00
411.59	7.02
411.78	11.70
411.98	0.00
412.17	56.17
412.36	0.00
412.55	60.85
412.74	30.43
412.93	21.06
413.12	77.24
413.31	21.06
413.50	18.72
413.69	51.49
413.88	28.09
414.07	56.17
414.26	46.81
414.45	23.41
414.64	14.04
414.83	42.13
415.02	0.00
415.22	0.00
415.41	102.98
415.60	84.26
415.79	93.62
415.98	32.77
416.17	18.72
416.36	21.06
416.55	72.56
416.74	100.64
416.93	18.72
417.12	79.58
417.31	0.00
417.50	18.72
417.69	4.68
417.88	39.79
418.07	37.45
418.26	0.00
418.45	35.11
418.64	67.88
418.83	0.00
419.02	42.13
419.21	21.06
419.39	88.94
419.58	72.56
419.77	37.45
419.96	18.72
420.15	37.45
420.34	0.00
420.53	53.83
420.72	44.47
420.91	0.00
421.10	21.06
421.29	63.19
421.48	37.45
421.67	79.58
421.86	63.19
422.05	28.09
422.24	70.22
422.43	9.36
422.61	60.85
422.80	37.45
422.99	0.00
423.18	37.45
423.37	65.54
423.56	0.00
423.75	35.11
423.94	32.77
424.13	67.88
424.32	67.88
424.50	37.45
424.69	81.92
424.88	39.79
425.07	65.54
425.26	16.38
425.45	21.06
425.64	32.77
425.83	16.38
426.01	0.00
426.20	18.72
426.39	77.24
426.58	0.00
426.77	49.15
426.96	81.92
427.15	58.51
427.33	0.00
427.52	112.35
427.71	46.81
427.90	9.36
428.09	16.38
428.28	0.00
428.46	16.38
428.65	91.28
428.84	67.88
429.03	70.22
429.22	63.19
429.40	56.17
429.59	86.60
429.78	58.51
429.97	7.02
430.16	39.79
430.34	93.62
430.53	86.60
430.72	39.79
430.91	4.68
431.10	32.77
431.28	0.00
431.47	70.22
431.66	117.03
431.85	114.69
432.03	56.17
432.22	74.90
432.41	51.49
432.60	63.19
432.79	77.24
432.97	53.83
433.16	49.15
433.35	14.04
433.54	53.83
433.72	28.09
433.91	18.72
434.10	102.98
434.28	56.17
434.47	58.51
434.66	67.88
434.85	49.15
435.03	30.43
435.22	23.41
435.41	42.13
435.59	51.49
435.78	53.83
435.97	11.70
436.16	88.94
436.34	81.92
436.53	56.17
436.72	39.79
436.90	11.70
437.09	0.00
437.28	32.77
437.46	0.00
437.65	37.45
437.84	60.85
438.02	39.79
438.21	49.15
438.40	107.66
438.58	67.88
438.77	4.68
438.96	28.09
439.14	7.02
439.33	51.49
439.52	67.88
439.70	0.00
439.89	0.00
440.08	0.00
440.26	124.05
440.45	65.54
440.63	86.60
440.82	72.56
441.01	91.28
441.19	7.02
441.38	63.19
441.57	65.54
441.75	0.00
441.94	63.19
442.12	107.66
442.31	49.15
442.50	46.81
442.68	67.88
442.87	84.26
443.05	53.83
443.24	124.05
443.43	86.60
443.61	44.47
443.80	21.06
443.98	21.06
444.17	91.28
444.35	2.34
444.54	46.81
444.73	110.01
444.91	88.94
445.10	35.11
445.28	70.22
445.47	74.90
445.65	53.83
445.84	53.83
446.02	0.00
446.21	67.88
446.39	88.94
446.58	58.51
446.77	23.41
446.95	95.96
447.14	100.64
447.32	32.77
447.51	21.06
447.69	58.51
447.88	65.54
448.06	39.79
448.25	4.68
448.43	112.35
448.62	74.90
448.80	42.13
448.99	39.79
449.17	49.15
449.36	126.39
449.54	42.13
449.73	46.81
449.91	42.13
450.10	44.47
450.28	77.24
450.46	32.77
450.65	72.56
450.83	39.79
451.02	37.45
451.20	42.13
451.39	88.94
451.57	0.00
451.76	112.35
451.94	72.56
452.13	63.19
452.31	0.00
452.49	25.75
452.68	46.81
452.86	32.77
453.05	159.16
453.23	23.41
453.42	2.34
453.60	74.90
453.78	44.47
453.97	25.75
454.15	37.45
454.34	51.49
454.52	81.92
454.70	25.75
454.89	65.54
455.07	79.58
455.26	35.11
455.44	35.11
455.62	21.06
455.81	74.90
455.99	100.64
456.17	39.79
456.36	72.56
456.54	39.79
456.73	35.11
456.91	51.49
457.09	72.56
457.28	39.79
457.46	65.54
457.64	7.02
457.83	35.11
458.01	74.90
458.19	86.60
458.38	60.85
458.56	14.04
458.74	0.00
458.93	65.54
459.11	60.85
459.29	18.72
459.48	135.75
459.66	74.90
459.84	126.39
460.03	84.26
460.21	53.83
460.39	49.15
460.57	14.04
460.76	49.15
460.94	60.85
461.12	65.54
461.31	72.56
461.49	51.49
461.67	60.85
461.85	110.01
462.04	65.54
462.22	149.79
462.40	25.75
462.59	46.81
462.77	23.41
462.95	79.58
463.13	133.41
463.32	49.15
463.50	79.58
463.68	46.81
463.86	72.56
464.05	74.90
464.23	56.17
464.41	44.47
464.59	35.11
464.78	117.03
464.96	126.39
465.14	65.54
465.32	63.19
465.50	107.66
465.69	114.69
465.87	74.90
466.05	58.51
466.23	0.00
466.41	7.02
466.60	63.19
466.78	51.49
466.96	53.83
467.14	102.98
467.32	65.54
467.51	16.38
467.69	56.17
467.87	81.92
468.05	67.88
468.23	0.00
468.41	60.85
468.60	37.45
468.78	0.00
468.96	0.00
469.14	60.85
469.32	37.45
469.50	63.19
469.69	51.49
469.87	14.04
470.05	9.36
470.23	21.06
470.41	23.41
470.59	25.75
470.77	60.85
470.95	0.00
471.14	88.94
471.32	117.03
471.50	46.81
471.68	53.83
471.86	14.04
472.04	49.15
472.22	37.45
472.40	93.62
472.58	39.79
472.77	60.85
472.95	65.54
473.13	74.90
473.31	51.49
473.49	70.22
473.67	79.58
473.85	67.88
474.03	18.72
474.21	100.64
474.39	95.96
474.57	53.83
474.75	98.30
474.93	79.58
475.12	56.17
475.30	79.58
475.48	102.98
475.66	72.56
475.84	14.04
476.02	14.04
476.20	124.05
476.38	4.68
476.56	7.02
476.74	51.49
476.92	42.13
477.10	67.88
477.28	58.51
477.46	30.43
477.64	102.98
477.82	9.36
478.00	65.54
478.18	107.66
478.36	58.51
478.54	63.19
478.72	60.85
478.90	63.19
479.08	28.09
479.26	74.90
479.44	110.01
479.62	93.62
479.80	88.94
479.98	9.36
480.16	39.79
480.34	0.00
480.52	46.81
480.70	58.51
480.88	117.03
481.06	35.11
481.24	35.11
481.41	16.38
481.59	70.22
481.77	16.38
481.95	49.15
482.13	77.24
482.31	126.39
482.49	37.45
482.67	39.79
482.85	39.79
483.03	49.15
483.21	88.94
483.39	32.77
483.57	84.26
483.74	117.03
483.92	51.49
484.10	37.45
484.28	28.09
484.46	32.77
484.64	44.47
484.82	63.19
485.00	42.13
485.18	39.79
485.35	72.56
485.53	35.11
485.71	7.02
485.89	35.11
486.07	84.26
486.25	114.69
486.43	67.88
486.61	84.26
486.78	72.56
486.96	119.37
487.14	81.92
487.32	95.96
487.50	49.15
487.68	93.62
487.85	70.22
488.03	110.01
488.21	67.88
488.39	88.94
488.57	74.90
488.75	72.56
488.92	51.49
489.10	42.13
489.28	93.62
489.46	145.11
489.64	51.49
489.81	102.98
489.99	102.98
490.17	28.09
490.35	9.36
490.53	42.13
490.70	72.56
490.88	74.90
491.06	7.02
491.24	70.22
491.41	198.95
491.59	32.77
491.77	37.45
491.95	16.38
492.13	44.47
492.30	117.03
492.48	32.77
492.66	77.24
492.84	100.64
493.01	42.13
493.19	124.05
493.37	86.60
493.54	77.24
493.72	58.51
493.90	67.88
494.08	133.41
494.25	79.58
494.43	70.22
494.61	42.13
494.79	0.00
494.96	32.77
495.14	67.88
495.32	39.79
495.49	100.64
495.67	70.22
495.85	70.22
496.02	37.45
496.20	84.26
496.38	0.00
496.55	170.86
496.73	88.94
496.91	114.69
497.09	84.26
497.26	63.19
497.44	70.22
497.62	88.94
497.79	65.54
497.97	149.79
498.14	72.56
498.32	107.66
498.50	65.54
498.67	147.45
498.85	114.69
499.03	60.85
499.20	70.22
499.38	42.13
499.56	119.37
499.73	110.01
499.91	112.35
500.08	77.24
500.26	56.17
500.44	25.75
500.61	79.58
500.79	124.05
500.97	63.19
501.14	51.49
501.32	88.94
501.49	98.30
501.67	98.30
501.84	88.94
502.02	105.32
502.20	53.83
502.37	102.98
502.55	60.85
502.72	93.62
502.90	93.62
503.07	107.66
503.25	93.62
503.43	74.90
503.60	81.92
503.78	95.96
503.95	0.00
504.13	46.81
504.30	18.72
504.48	42.13
504.65	72.56
504.83	70.22
505.01	138.09
505.18	105.32
505.36	126.39
505.53	51.49
505.71	124.05
505.88	93.62
506.06	98.30
506.23	93.62
506.41	58.51
506.58	102.98
506.76	14.04
506.93	91.28
507.11	42.13
507.28	60.85
507.46	58.51
507.63	173.20
507.81	110.01
507.98	65.54
508.16	49.15
508.33	28.09
508.50	39.79
508.68	30.43
508.85	124.05
509.03	86.60
509.20	49.15
509.38	49.15
509.55	77.24
509.73	112.35
509.90	63.19
510.08	44.47
510.25	49.15
510.42	39.79
510.60	0.00
510.77	98.30
510.95	28.09
511.12	182.56
511.30	79.58
511.47	72.56
511.64	28.09
511.82	39.79
511.99	105.32
512.17	117.03
512.34	81.92
512.51	49.15
512.69	25.75
512.86	35.11
513.04	65.54
513.21	30.43
513.38	67.88
513.56	16.38
513.73	72.56
513.90	86.60
514.08	46.81
514.25	142.77
514.43	39.79
514.60	30.43
514.77	9.36
514.95	63.19
515.12	74.90
515.29	25.75
515.47	177.88
515.64	121.71
515.81	63.19
515.99	70.22
516.16	0.00
516.33	74.90
516.51	35.11
516.68	67.88
516.85	88.94
517.03	131.07
517.20	53.83
517.37	114.69
517.54	81.92
517.72	102.98
517.89	88.94
518.06	86.60
518.24	117.03
518.41	70.22
518.58	126.39
518.75	46.81
518.93	32.77
519.10	9.36
519.27	117.03
519.45	46.81
519.62	95.96
519.79	128.73
519.96	21.06
520.14	37.45
520.31	112.35
520.48	51.49
520.65	23.41
520.83	18.72
521.00	112.35
521.17	39.79
521.34	84.26
521.52	112.35
521.69	39.79
521.86	63.19
522.03	138.09
522.20	121.71
522.38	156.82
522.55	133.41
522.72	93.62
522.89	81.92
523.07	107.66
523.24	49.15
523.41	65.54
523.58	191.92
523.75	95.96
523.92	133.41
524.10	0.00
524.27	58.51
524.44	30.43
524.61	107.66
524.78	60.85
524.96	72.56
525.13	4.68
525.30	140.43
525.47	142.77
525.64	100.64
525.81	117.03
525.98	51.49
526.16	30.43
526.33	98.30
526.50	95.96
526.67	112.35
526.84	84.26
527.01	114.69
527.18	91.28
527.36	138.09
527.53	4.68
527.70	133.41
527.87	51.49
528.04	79.58
528.21	121.71
528.38	91.28
528.55	60.85
528.72	93.62
528.89	124.05
529.07	70.22
529.24	56.17
529.41	138.09
529.58	100.64
529.75	161.50
529.92	105.32
530.09	77.24
530.26	72.56
530.43	124.05
530.60	77.24
530.77	107.66
530.94	18.72
531.11	51.49
531.28	53.83
531.46	98.30
531.63	65.54
531.80	0.00
531.97	49.15
532.14	84.26
532.31	60.85
532.48	81.92
532.65	25.75
532.82	126.39
532.99	93.62
533.16	95.96
533.33	119.37
533.50	46.81
533.67	128.73
533.84	168.52
534.01	25.75
534.18	131.07
534.35	28.09
534.52	105.32
534.69	149.79
534.86	88.94
535.03	74.90
535.20	126.39
535.37	124.05
535.54	105.32
535.71	147.45
535.88	102.98
536.05	74.90
536.22	154.48
536.38	124.05
536.55	67.88
536.72	28.09
536.89	67.88
537.06	46.81
537.23	91.28
537.40	128.73
537.57	81.92
537.74	67.88
537.91	100.64
538.08	149.79
538.25	98.30
538.42	142.77
538.59	102.98
538.75	105.32
538.92	114.69
539.09	140.43
539.26	53.83
539.43	102.98
539.60	30.43
539.77	70.22
539.94	84.26
540.11	135.75
540.28	105.32
540.44	88.94
540.61	86.60
540.78	39.79
540.95	79.58
541.12	74.90
541.29	77.24
541.46	58.51
541.62	88.94
541.79	42.13
541.96	63.19
542.13	98.30
542.30	32.77
542.47	81.92
542.63	117.03
542.80	133.41
542.97	142.77
543.14	95.96
543.31	32.77
543.48	121.71
543.64	65.54
543.81	56.17
543.98	65.54
544.15	32.77
544.32	102.98
544.48	14.04
544.65	72.56
544.82	98.30
544.99	0.00
545.16	102.98
545.32	95.96
545.49	58.51
545.66	140.43
545.83	58.51
546.00	32.77
546.16	65.54
546.33	74.90
546.50	121.71
546.67	117.03
546.83	81.92
547.00	121.71
547.17	145.11
547.34	44.47
547.50	77.24
547.67	107.66
547.84	149.79
548.00	2.34
548.17	56.17
548.34	0.00
548.51	95.96
548.67	128.73
548.84	49.15
549.01	110.01
549.18	60.85
549.34	152.13
549.51	65.54
549.68	51.49
549.84	112.35
550.01	91.28
550.18	117.03
550.34	117.03
550.51	102.98
550.68	126.39
550.84	72.56
551.01	51.49
551.18	81.92
551.34	107.66
551.51	121.71
551.68	114.69
551.84	84.26
552.01	93.62
552.18	95.96
552.34	86.60
552.51	142.77
552.68	88.94
552.84	102.98
553.01	107.66
553.18	77.24
553.34	98.30
553.51	79.58
553.67	110.01
553.84	79.58
554.01	79.58
554.17	70.22
554.34	93.62
554.51	107.66
554.67	58.51
554.84	37.45
555.00	72.56
555.17	95.96
555.33	95.96
555.50	86.60
555.67	74.90
555.83	49.15
556.00	60.85
556.16	63.19
556.33	88.94
556.50	70.22
556.66	95.96
556.83	42.13
556.99	77.24
557.16	107.66
557.32	93.62
557.49	72.56
557.65	117.03
557.82	37.45
557.98	100.64
558.15	49.15
558.32	110.01
558.48	4.68
558.65	117.03
558.81	117.03
558.98	72.56
559.14	124.05
559.31	84.26
559.47	81.92
559.64	9.36
559.80	2.34
559.97	142.77
560.13	56.17
560.30	79.58
560.46	81.92
560.63	60.85
560.79	93.62
560.96	58.51
561.12	86.60
561.29	107.66
561.45	133.41
561.61	37.45
561.78	79.58
561.94	95.96
562.11	124.05
562.27	63.19
562.44	110.01
562.60	107.66
562.77	88.94
562.93	37.45
563.10	91.28
563.26	140.43
563.42	58.51
563.59	114.69
563.75	4.68
563.92	86.60
564.08	119.37
564.24	42.13
564.41	147.45
564.57	65.54
564.74	117.03
564.90	154.48
565.07	121.71
565.23	74.90
565.39	135.75
565.56	102.98
565.72	149.79
565.88	11.70
566.05	84.26
566.21	14.04
566.38	11.70
566.54	37.45
566.70	67.88
566.87	53.83
567.03	23.41
567.19	58.51
567.36	58.51
567.52	107.66
567.68	114.69
567.85	7.02
568.01	86.60
568.17	107.66
568.34	28.09
568.50	23.41
568.66	145.11
568.83	145.11
568.99	56.17
569.15	114.69
569.32	117.03
569.48	77.24
569.64	77.24
569.81	100.64
569.97	4.68
570.13	39.79
570.30	37.45
570.46	98.30
570.62	67.88
570.78	0.00
570.95	131.07
571.11	88.94
571.27	37.45
571.43	88.94
571.60	93.62
571.76	9.36
571.92	35.11
572.09	91.28
572.25	79.58
572.41	91.28
572.57	70.22
572.74	81.92
572.90	74.90
573.06	117.03
573.22	79.58
573.38	93.62
573.55	63.19
573.71	117.03
573.87	88.94
574.03	88.94
574.20	72.56
574.36	51.49
574.52	46.81
574.68	72.56
574.84	53.83
575.01	37.45
575.17	84.26
575.33	74.90
575.49	74.90
575.65	65.54
575.82	142.77
575.98	74.90
576.14	117.03
576.30	79.58
576.46	0.00
576.62	140.43
576.79	56.17
576.95	56.17
577.11	4.68
577.27	16.38
577.43	105.32
577.59	0.00
577.75	37.45
577.92	42.13
578.08	88.94
578.24	93.62
578.40	46.81
578.56	56.17
578.72	46.81
578.88	72.56
579.04	100.64
579.21	81.92
579.37	70.22
579.53	84.26
579.69	93.62
579.85	114.69
580.01	67.88
580.17	32.77
580.33	74.90
580.49	46.81
580.65	91.28
580.82	88.94
580.98	131.07
581.14	11.70
581.30	60.85
581.46	119.37
581.62	98.30
581.78	138.09
581.94	67.88
582.10	72.56
582.26	39.79
582.42	14.04
582.58	95.96
582.74	51.49
582.90	63.19
583.06	145.11
583.22	114.69
583.38	32.77
583.54	112.35
583.70	72.56
583.86	86.60
584.02	107.66
584.18	117.03
584.34	93.62
584.50	112.35
584.66	161.50
584.82	67.88
584.98	70.22
585.14	46.81
585.30	166.18
585.46	131.07
585.62	88.94
585.78	88.94
585.94	44.47
586.10	124.05
586.26	86.60
586.42	74.90
586.58	79.58
586.74	133.41
586.90	16.38
587.06	102.98
587.22	121.71
587.38	21.06
587.54	58.51
587.70	21.06
587.86	72.56
588.02	23.41
588.18	32.77
588.34	72.56
588.49	44.47
588.65	51.49
588.81	53.83
588.97	25.75
589.13	46.81
589.29	149.79
589.45	67.88
589.61	102.98
589.77	65.54
589.93	121.71
590.08	53.83
590.24	117.03
590.40	124.05
590.56	63.19
590.72	86.60
590.88	131.07
591.04	37.45
591.20	74.90
591.35	16.38
591.51	74.90
591.67	74.90
591.83	95.96
591.99	117.03
592.15	79.58
592.31	117.03
592.46	163.84
592.62	138.09
592.78	0.00
592.94	9.36
593.10	102.98
593.26	32.77
593.41	28.09
593.57	28.09
593.73	53.83
593.89	79.58
594.05	91.28
594.20	51.49
594.36	72.56
594.52	23.41
594.68	72.56
594.84	102.98
594.99	124.05
595.15	28.09
595.31	126.39
595.47	121.71
595.62	49.15
595.78	140.43
595.94	93.62
596.10	70.22
596.25	0.00
596.41	102.98
596.57	98.30
596.73	102.98
596.88	44.47
597.04	119.37
597.20	18.72
597.36	74.90
597.51	14.04
597.67	79.58
597.83	32.77
597.99	25.75
598.14	42.13
598.30	4.68
598.46	0.00
598.61	95.96
598.77	42.13
598.93	79.58
599.09	21.06
599.24	49.15
599.40	147.45
599.56	70.22
599.71	0.00
599.87	60.85
600.03	91.28
600.18	84.26
600.34	79.58
600.50	93.62
600.65	58.51
600.81	49.15
600.97	79.58
601.12	93.62
601.28	114.69
601.44	18.72
601.59	23.41
601.75	44.47
601.91	117.03
602.06	56.17
602.22	72.56
602.37	117.03
602.53	67.88
602.69	95.96
602.84	88.94
603.00	49.15
603.16	30.43
603.31	93.62
603.47	156.82
603.62	88.94
603.78	63.19
603.94	110.01
604.09	88.94
604.25	51.49
604.40	88.94
604.56	42.13
604.71	44.47
604.87	18.72
605.03	91.28
605.18	53.83
605.34	44.47
605.49	49.15
605.65	93.62
605.80	93.62
605.96	114.69
606.12	0.00
606.27	60.85
606.43	0.00
606.58	140.43
606.74	53.83
606.89	65.54
607.05	30.43
607.20	51.49
607.36	65.54
607.51	70.22
607.67	60.85
607.82	126.39
607.98	42.13
608.13	63.19
608.29	53.83
608.44	84.26
608.60	102.98
608.75	88.94
608.91	98.30
609.06	98.30
609.22	95.96
609.37	32.77
609.53	46.81
609.68	2.34
609.84	65.54
609.99	46.81
610.15	46.81
610.30	58.51
610.46	86.60
610.61	95.96
610.76	131.07
610.92	102.98
611.07	35.11
611.23	63.19
611.38	77.24
611.54	16.38
611.69	39.79
611.84	84.26
612.00	93.62
612.15	74.90
612.31	60.85
612.46	49.15
612.62	63.19
612.77	114.69
612.92	42.13
613.08	67.88
613.23	7.02
613.39	9.36
613.54	107.66
613.69	49.15
613.85	56.17
614.00	86.60
614.15	140.43
614.31	77.24
614.46	72.56
614.62	0.00
614.77	16.38
614.92	107.66
615.08	117.03
615.23	91.28
615.38	65.54
615.54	23.41
615.69	149.79
615.84	93.62
616.00	131.07
616.15	98.30
616.30	56.17
616.46	37.45
616.61	86.60
616.76	16.38
616.92	39.79
617.07	107.66
617.22	56.17
617.37	65.54
617.53	124.05
617.68	98.30
617.83	16.38
617.99	124.05
618.14	42.13
618.29	114.69
618.45	114.69
618.60	112.35
618.75	107.66
618.90	124.05
619.06	72.56
619.21	135.75
619.36	49.15
619.51	107.66
619.67	49.15
619.82	21.06
619.97	60.85
620.12	112.35
620.28	110.01
620.43	60.85
620.58	58.51
620.73	142.77
620.89	95.96
621.04	0.00
621.19	51.49
621.34	67.88
621.49	107.66
621.65	112.35
621.80	93.62
621.95	84.26
622.10	95.96
622.25	46.81
622.41	91.28
622.56	81.92
622.71	88.94
622.86	81.92
623.01	30.43
623.16	63.19
623.32	67.88
623.47	65.54
623.62	51.49
623.77	86.60
623.92	25.75
624.07	44.47
624.23	56.17
624.38	114.69
624.53	51.49
624.68	4.68
624.83	93.62
624.98	63.19
625.13	58.51
625.29	9.36
625.44	35.11
625.59	0.00
625.74	79.58
625.89	121.71
626.04	11.70
626.19	51.49
626.34	60.85
626.49	23.41
626.65	140.43
626.80	74.90
626.95	28.09
627.10	7.02
627.25	53.83
627.40	39.79
627.55	70.22
627.70	88.94
627.85	49.15
628.00	88.94
628.15	105.32
628.30	79.58
628.45	51.49
628.60	105.32
628.76	77.24
628.91	30.43
629.06	30.43
629.21	53.83
629.36	56.17
629.51	63.19
629.66	28.09
629.81	67.88
629.96	56.17
630.11	46.81
630.26	51.49
630.41	95.96
630.56	60.85
630.71	102.98
630.86	56.17
631.01	74.90
631.16	95.96
631.31	46.81
631.46	25.75
631.61	0.00
631.76	37.45
631.91	56.17
632.06	70.22
632.21	30.43
632.36	63.19
632.51	77.24
632.66	110.01
632.81	32.77
632.96	88.94
633.10	42.13
633.25	49.15
633.40	60.85
633.55	0.00
633.70	79.58
633.85	0.00
634.00	49.15
634.15	30.43
634.30	60.85
634.45	149.79
634.60	11.70
634.75	42.13
634.90	60.85
635.05	0.00
635.19	16.38
635.34	16.38
635.49	53.83
635.64	37.45
635.79	72.56
635.94	65.54
636.09	25.75
636.24	81.92
636.39	58.51
636.53	107.66
636.68	117.03
636.83	56.17
636.98	21.06
637.13	81.92
637.28	30.43
637.43	44.47
637.57	124.05
637.72	51.49
637.87	86.60
638.02	37.45
638.17	42.13
638.32	23.41
638.46	107.66
638.61	93.62
638.76	95.96
638.91	98.30
639.06	65.54
639.20	86.60
639.35	98.30
639.50	23.41
639.65	18.72
639.80	93.62
639.94	42.13
640.09	63.19
640.24	51.49
640.39	7.02
640.54	86.60
640.68	114.69
640.83	28.09
640.98	58.51
641.13	35.11
641.27	18.72
641.42	70.22
641.57	88.94
641.72	44.47
641.86	0.00
642.01	58.51
642.16	37.45
642.31	63.19
642.45	102.98
642.60	72.56
642.75	44.47
642.90	23.41
643.04	93.62
643.19	42.13
643.34	56.17
643.48	53.83
643.63	23.41
643.78	84.26
643.93	32.77
644.07	2.34
644.22	0.00
644.37	53.83
644.51	72.56
644.66	42.13
644.81	100.64
644.95	161.50
645.10	58.51
645.25	117.03
645.39	7.02
645.54	124.05
645.69	37.45
645.83	58.51
645.98	114.69
646.13	70.22
646.27	72.56
646.42	4.68
646.57	81.92
646.71	72.56
646.86	79.58
647.00	32.77
647.15	84.26
647.30	39.79
647.44	51.49
647.59	0.00
647.74	42.13
647.88	91.28
648.03	93.62
648.17	105.32
648.32	32.77
648.47	138.09
648.61	79.58
648.76	21.06
648.90	98.30
649.05	51.49
649.20	32.77
649.34	42.13
649.49	25.75
649.63	88.94
649.78	53.83
649.92	46.81
650.07	44.47
650.21	7.02
650.36	67.88
650.51	88.94
650.65	37.45
650.80	32.77
650.94	37.45
651.09	49.15
651.23	98.30
651.38	140.43
651.52	23.41
651.67	44.47
651.81	70.22
651.96	28.09
652.10	88.94
652.25	63.19
652.39	9.36
652.54	23.41
652.68	65.54
652.83	39.79
652.97	11.70
653.12	98.30
653.26	56.17
653.41	42.13
653.55	63.19
653.70	35.11
653.84	124.05
653.99	58.51
654.13	84.26
654.27	93.62
654.42	91.28
654.56	81.92
654.71	39.79
654.85	9.36
655.00	138.09
655.14	77.24
655.29	56.17
655.43	18.72
655.57	58.51
655.72	0.00
655.86	42.13
656.01	0.00
656.15	56.17
656.30	18.72
656.44	46.81
656.58	39.79
656.73	28.09
656.87	44.47
657.01	65.54
657.16	53.83
657.30	46.81
657.45	14.04
657.59	119.37
657.73	53.83
657.88	93.62
658.02	23.41
658.16	49.15
658.31	30.43
658.45	67.88
658.60	124.05
658.74	56.17
658.88	131.07
659.03	23.41
659.17	77.24
659.31	67.88
659.46	60.85
659.60	28.09
659.74	74.90
659.89	72.56
660.03	42.13
660.17	21.06
660.32	58.51
660.46	0.00
660.60	4.68
660.74	65.54
660.89	110.01
661.03	0.00
661.17	39.79
661.32	0.00
661.46	0.00
661.60	21.06
661.74	16.38
661.89	44.47
662.03	0.00
662.17	65.54
662.31	35.11
662.46	74.90
662.60	39.79
662.74	74.90
662.88	0.00
663.03	51.49
663.17	16.38
663.31	81.92
663.45	95.96
663.60	37.45
663.74	46.81
663.88	44.47
664.02	28.09
664.17	88.94
664.31	37.45
664.45	44.47
664.59	58.51
664.73	49.15
664.88	0.00
665.02	98.30
665.16	63.19
665.30	81.92
665.44	11.70
665.59	67.88
665.73	60.85
665.87	117.03
666.01	28.09
666.15	110.01
666.29	65.54
666.44	84.26
666.58	84.26
666.72	42.13
666.86	86.60
667.00	56.17
667.14	14.04
667.28	18.72
667.43	46.81
667.57	84.26
667.71	46.81
667.85	53.83
667.99	142.77
668.13	39.79
668.27	84.26
668.41	91.28
668.56	107.66
668.70	88.94
668.84	51.49
668.98	46.81
669.12	105.32
669.26	84.26
669.40	79.58
669.54	30.43
669.68	56.17
669.82	42.13
669.96	53.83
670.10	81.92
670.25	93.62
670.39	28.09
670.53	88.94
670.67	0.00
670.81	60.85
670.95	51.49
671.09	37.45
671.23	79.58
671.37	23.41
671.51	79.58
671.65	21.06
671.79	72.56
671.93	0.00
672.07	77.24
672.21	39.79
672.35	0.00
672.49	32.77
672.63	2.34
672.77	51.49
672.91	56.17
673.05	30.43
673.19	51.49
673.33	53.83
673.47	28.09
673.61	0.00
673.75	32.77
673.89	0.00
674.03	86.60
674.17	0.00
674.31	37.45
674.45	95.96
674.59	63.19
674.73	60.85
674.87	25.75
675.01	16.38
675.15	58.51
675.29	56.17
675.43	30.43
675.56	18.72
675.70	7.02
675.84	9.36
675.98	58.51
676.12	30.43
676.26	51.49
676.40	117.03
676.54	0.00
676.68	105.32
676.82	37.45
676.96	25.75
677.10	0.00
677.23	4.68
677.37	86.60
677.51	32.77
677.65	49.15
677.79	51.49
677.93	74.90
678.07	49.15
678.21	35.11
678.34	65.54
678.48	70.22
678.62	42.13
678.76	0.00
678.90	86.60
679.04	49.15
679.18	51.49
679.31	39.79
679.45	53.83
679.59	30.43
679.73	28.09
679.87	0.00
680.00	117.03
680.14	65.54
680.28	117.03
680.42	51.49
680.56	114.69
680.70	84.26
680.83	0.00
680.97	0.00
681.11	51.49
681.25	11.70
681.39	65.54
681.52	2.34
681.66	51.49
681.80	25.75
681.94	7.02
682.07	30.43
682.21	32.77
682.35	37.45
682.49	88.94
682.62	42.13
682.76	77.24
682.90	0.00
683.04	63.19
683.17	14.04
683.31	18.72
683.45	28.09
683.59	105.32
683.72	77.24
683.86	60.85
684.00	35.11
684.13	79.58
684.27	0.00
684.41	16.38
684.55	56.17
684.68	25.75
684.82	0.00
684.96	49.15
685.09	70.22
685.23	42.13
685.37	16.38
685.50	51.49
685.64	23.41
685.78	7.02
685.91	170.86
686.05	30.43
686.19	44.47
686.32	0.00
686.46	42.13
686.60	46.81
686.73	14.04
686.87	65.54
687.01	23.41
687.14	49.15
687.28	32.77
687.42	37.45
687.55	23.41
687.69	49.15
687.82	11.70
687.96	0.00
688.10	30.43
688.23	30.43
688.37	70.22
688.50	44.47
688.64	25.75
688.78	46.81
688.91	0.00
689.05	58.51
689.18	49.15
689.32	0.00
689.46	11.70
689.59	70.22
689.73	77.24
689.86	18.72
690.00	18.72
690.13	102.98
690.27	117.03
690.41	98.30
690.54	114.69
690.68	0.00
690.81	0.00
690.95	86.60
691.08	37.45
691.22	39.79
691.35	7.02
691.49	18.72
691.62	58.51
691.76	0.00
691.89	0.00
692.03	53.83
692.16	79.58
692.30	65.54
692.43	42.13
692.57	107.66
692.70	65.54
692.84	81.92
692.97	30.43
693.11	14.04
693.24	0.00
693.38	51.49
693.51	28.09
693.65	16.38
693.78	35.11
693.92	28.09
694.05	7.02
694.19	74.90
694.32	39.79
694.45	0.00
694.59	4.68
694.72	114.69
694.86	84.26
694.99	65.54
695.13	67.88
695.26	4.68
695.39	58.51
695.53	18.72
695.66	72.56
695.80	0.00
695.93	65.54
696.07	4.68
696.20	28.09
696.33	105.32
696.47	49.15
696.60	72.56
696.73	9.36
696.87	0.00
697.00	79.58
697.14	0.00
697.27	2.34
697.40	37.45
697.54	65.54
697.67	25.75
697.80	88.94
697.94	46.81
698.07	93.62
698.21	51.49
698.34	63.19
698.47	65.54
698.61	0.00
698.74	39.79
698.87	0.00
699.01	95.96
699.14	95.96
699.27	51.49
699.40	63.19
699.54	2.34
699.67	46.81
699.80	0.00
699.94	37.45
700.07	25.75
700.20	84.26
700.34	56.17
700.47	46.81
700.60	16.38
700.73	25.75
700.87	7.02
701.00	65.54
701.13	70.22
701.26	56.17
701.40	0.00
701.53	28.09
701.66	70.22
701.79	105.32
701.93	37.45
702.06	18.72
702.19	39.79
702.32	70.22
702.46	37.45
702.59	72.56
702.72	107.66
702.85	0.00
702.99	0.00
703.12	65.54
703.25	30.43
703.38	32.77
703.51	58.51
703.65	44.47
703.78	102.98
703.91	65.54
704.04	28.09
704.17	114.69
704.31	30.43
704.44	100.64
704.57	23.41
704.70	23.41
704.83	51.49
704.96	56.17
705.10	42.13
705.23	88.94
>>>>>End Processed Spectral Data<<<<<
