SpectraSuite Data File
++++++++++++++++++++++++++++++++++++
Date: Fri Oct 04 12:13:44 GMT-05:00 2013
User: price-jones
Dark Spectrum Present: No
Reference Spectrum Present: No
Number of Sampled Component Spectra: 1
Spectrometers: USB2+H05261
Integration Time (usec): 10000 (USB2+H05261)
Spectra Averaged: 1 (USB2+H05261)
Boxcar Smoothing: 0 (USB2+H05261)
Correct for Electrical Dark: No (USB2+H05261)
Strobe/Lamp Enabled: No (USB2+H05261)
Correct for Detector Non-linearity: No (USB2+H05261)
Correct for Stray Light: No (USB2+H05261)
Number of Pixels in Processed Spectrum: 2048
>>>>>Begin Processed Spectral Data<<<<<
365.73	0.00
365.92	0.00
366.12	0.00
366.32	0.00
366.52	0.00
366.72	0.00
366.91	0.00
367.11	0.00
367.31	0.00
367.51	0.00
367.70	0.00
367.90	0.00
368.10	0.00
368.30	0.00
368.49	0.00
368.69	0.00
368.89	0.00
369.09	0.00
369.28	0.00
369.48	0.00
369.68	0.00
369.87	0.00
370.07	0.00
370.27	0.00
370.47	0.00
370.66	0.00
370.86	0.00
371.06	39.79
371.25	0.00
371.45	0.00
371.65	0.00
371.84	2.34
372.04	0.00
372.24	0.00
372.44	72.56
372.63	0.00
372.83	93.62
373.03	14.04
373.22	9.36
373.42	30.43
373.62	16.38
373.81	9.36
374.01	93.62
374.21	2.34
374.40	0.00
374.60	49.15
374.79	0.00
374.99	84.26
375.19	39.79
375.38	0.00
375.58	72.56
375.78	0.00
375.97	79.58
376.17	58.51
376.37	105.32
376.56	46.81
376.76	65.54
376.95	58.51
377.15	60.85
377.35	21.06
377.54	25.75
377.74	60.85
377.93	0.00
378.13	0.00
378.33	0.00
378.52	37.45
378.72	42.13
378.91	0.00
379.11	51.49
379.31	44.47
379.50	49.15
379.70	2.34
379.89	88.94
380.09	35.11
380.28	23.41
380.48	0.00
380.68	49.15
380.87	51.49
381.07	86.60
381.26	0.00
381.46	0.00
381.65	46.81
381.85	30.43
382.04	25.75
382.24	0.00
382.43	39.79
382.63	53.83
382.83	9.36
383.02	23.41
383.22	0.00
383.41	0.00
383.61	0.00
383.80	4.68
384.00	0.00
384.19	0.00
384.39	37.45
384.58	65.54
384.78	9.36
384.97	46.81
385.17	42.13
385.36	0.00
385.56	70.22
385.75	72.56
385.95	105.32
386.14	65.54
386.34	63.19
386.53	11.70
386.72	0.00
386.92	2.34
387.11	0.00
387.31	16.38
387.50	0.00
387.70	2.34
387.89	0.00
388.09	16.38
388.28	21.06
388.48	65.54
388.67	9.36
388.86	2.34
389.06	11.70
389.25	0.00
389.45	4.68
389.64	105.32
389.84	0.00
390.03	74.90
390.22	32.77
390.42	44.47
390.61	58.51
390.81	14.04
391.00	65.54
391.19	7.02
391.39	77.24
391.58	9.36
391.78	16.38
391.97	39.79
392.16	49.15
392.36	0.00
392.55	18.72
392.75	0.00
392.94	77.24
393.13	25.75
393.33	93.62
393.52	14.04
393.71	65.54
393.91	63.19
394.10	35.11
394.29	105.32
394.49	37.45
394.68	23.41
394.88	23.41
395.07	46.81
395.26	32.77
395.46	84.26
395.65	0.00
395.84	0.00
396.04	37.45
396.23	4.68
396.42	0.00
396.62	56.17
396.81	4.68
397.00	72.56
397.19	67.88
397.39	91.28
397.58	28.09
397.77	0.00
397.97	0.00
398.16	53.83
398.35	21.06
398.55	0.00
398.74	112.35
398.93	114.69
399.12	2.34
399.32	74.90
399.51	58.51
399.70	35.11
399.90	32.77
400.09	32.77
400.28	37.45
400.47	39.79
400.67	79.58
400.86	21.06
401.05	46.81
401.24	14.04
401.44	0.00
401.63	65.54
401.82	37.45
402.01	18.72
402.21	51.49
402.40	35.11
402.59	0.00
402.78	35.11
402.97	0.00
403.17	37.45
403.36	0.00
403.55	58.51
403.74	51.49
403.93	0.00
404.13	0.00
404.32	16.38
404.51	14.04
404.70	35.11
404.89	77.24
405.09	93.62
405.28	18.72
405.47	128.73
405.66	88.94
405.85	60.85
406.05	65.54
406.24	32.77
406.43	42.13
406.62	58.51
406.81	9.36
407.00	37.45
407.20	7.02
407.39	46.81
407.58	0.00
407.77	42.13
407.96	53.83
408.15	37.45
408.34	9.36
408.54	21.06
408.73	23.41
408.92	21.06
409.11	0.00
409.30	0.00
409.49	0.00
409.68	42.13
409.87	0.00
410.07	0.00
410.26	51.49
410.45	72.56
410.64	81.92
410.83	11.70
411.02	0.00
411.21	2.34
411.40	21.06
411.59	9.36
411.78	18.72
411.98	56.17
412.17	25.75
412.36	79.58
412.55	28.09
412.74	0.00
412.93	67.88
413.12	0.00
413.31	88.94
413.50	0.00
413.69	0.00
413.88	67.88
414.07	30.43
414.26	35.11
414.45	58.51
414.64	56.17
414.83	60.85
415.02	72.56
415.22	25.75
415.41	0.00
415.60	53.83
415.79	30.43
415.98	77.24
416.17	86.60
416.36	23.41
416.55	32.77
416.74	88.94
416.93	2.34
417.12	0.00
417.31	37.45
417.50	37.45
417.69	81.92
417.88	58.51
418.07	56.17
418.26	11.70
418.45	44.47
418.64	30.43
418.83	0.00
419.02	77.24
419.21	9.36
419.39	98.30
419.58	51.49
419.77	60.85
419.96	56.17
420.15	37.45
420.34	63.19
420.53	0.00
420.72	39.79
420.91	0.00
421.10	79.58
421.29	4.68
421.48	16.38
421.67	67.88
421.86	32.77
422.05	74.90
422.24	91.28
422.43	18.72
422.61	95.96
422.80	39.79
422.99	63.19
423.18	77.24
423.37	112.35
423.56	60.85
423.75	74.90
423.94	46.81
424.13	23.41
424.32	60.85
424.50	0.00
424.69	42.13
424.88	98.30
425.07	65.54
425.26	23.41
425.45	25.75
425.64	30.43
425.83	53.83
426.01	4.68
426.20	0.00
426.39	32.77
426.58	63.19
426.77	30.43
426.96	74.90
427.15	102.98
427.33	0.00
427.52	49.15
427.71	49.15
427.90	0.00
428.09	0.00
428.28	58.51
428.46	2.34
428.65	25.75
428.84	46.81
429.03	49.15
429.22	112.35
429.40	102.98
429.59	7.02
429.78	91.28
429.97	32.77
430.16	4.68
430.34	32.77
430.53	25.75
430.72	11.70
430.91	18.72
431.10	74.90
431.28	91.28
431.47	0.00
431.66	131.07
431.85	135.75
432.03	16.38
432.22	32.77
432.41	39.79
432.60	0.00
432.79	21.06
432.97	25.75
433.16	51.49
433.35	2.34
433.54	77.24
433.72	88.94
433.91	53.83
434.10	23.41
434.28	86.60
434.47	72.56
434.66	114.69
434.85	23.41
435.03	60.85
435.22	70.22
435.41	53.83
435.59	14.04
435.78	21.06
435.97	9.36
436.16	88.94
436.34	18.72
436.53	32.77
436.72	44.47
436.90	37.45
437.09	4.68
437.28	93.62
437.46	35.11
437.65	0.00
437.84	51.49
438.02	128.73
438.21	58.51
438.40	14.04
438.58	4.68
438.77	0.00
438.96	42.13
439.14	67.88
439.33	67.88
439.52	0.00
439.70	39.79
439.89	39.79
440.08	4.68
440.26	70.22
440.45	56.17
440.63	44.47
440.82	30.43
441.01	0.00
441.19	35.11
441.38	0.00
441.57	16.38
441.75	95.96
441.94	37.45
442.12	95.96
442.31	65.54
442.50	67.88
442.68	131.07
442.87	46.81
443.05	65.54
443.24	0.00
443.43	77.24
443.61	32.77
443.80	0.00
443.98	0.00
444.17	102.98
444.35	46.81
444.54	0.00
444.73	0.00
444.91	37.45
445.10	70.22
445.28	14.04
445.47	46.81
445.65	39.79
445.84	2.34
446.02	63.19
446.21	56.17
446.39	95.96
446.58	0.00
446.77	81.92
446.95	70.22
447.14	32.77
447.32	0.00
447.51	44.47
447.69	58.51
447.88	44.47
448.06	77.24
448.25	77.24
448.43	117.03
448.62	16.38
448.80	65.54
448.99	23.41
449.17	42.13
449.36	37.45
449.54	18.72
449.73	30.43
449.91	51.49
450.10	86.60
450.28	65.54
450.46	60.85
450.65	0.00
450.83	60.85
451.02	16.38
451.20	21.06
451.39	44.47
451.57	9.36
451.76	25.75
451.94	0.00
452.13	7.02
452.31	72.56
452.49	60.85
452.68	63.19
452.86	32.77
453.05	11.70
453.23	70.22
453.42	60.85
453.60	63.19
453.78	16.38
453.97	37.45
454.15	46.81
454.34	25.75
454.52	77.24
454.70	65.54
454.89	58.51
455.07	51.49
455.26	18.72
455.44	51.49
455.62	28.09
455.81	37.45
455.99	32.77
456.17	46.81
456.36	11.70
456.54	102.98
456.73	46.81
456.91	25.75
457.09	21.06
457.28	44.47
457.46	32.77
457.64	51.49
457.83	77.24
458.01	11.70
458.19	79.58
458.38	39.79
458.56	102.98
458.74	2.34
458.93	100.64
459.11	67.88
459.29	67.88
459.48	2.34
459.66	53.83
459.84	49.15
460.03	84.26
460.21	44.47
460.39	35.11
460.57	67.88
460.76	28.09
460.94	114.69
461.12	25.75
461.31	114.69
461.49	42.13
461.67	67.88
461.85	105.32
462.04	102.98
462.22	163.84
462.40	117.03
462.59	77.24
462.77	56.17
462.95	35.11
463.13	46.81
463.32	74.90
463.50	16.38
463.68	63.19
463.86	119.37
464.05	35.11
464.23	14.04
464.41	70.22
464.59	0.00
464.78	51.49
464.96	159.16
465.14	95.96
465.32	44.47
465.50	23.41
465.69	7.02
465.87	79.58
466.05	56.17
466.23	21.06
466.41	60.85
466.60	70.22
466.78	70.22
466.96	21.06
467.14	0.00
467.32	53.83
467.51	117.03
467.69	16.38
467.87	0.00
468.05	72.56
468.23	56.17
468.41	65.54
468.60	84.26
468.78	0.00
468.96	37.45
469.14	46.81
469.32	14.04
469.50	105.32
469.69	56.17
469.87	21.06
470.05	67.88
470.23	53.83
470.41	91.28
470.59	11.70
470.77	32.77
470.95	14.04
471.14	81.92
471.32	0.00
471.50	0.00
471.68	35.11
471.86	28.09
472.04	117.03
472.22	0.00
472.40	79.58
472.58	32.77
472.77	0.00
472.95	60.85
473.13	67.88
473.31	70.22
473.49	46.81
473.67	25.75
473.85	46.81
474.03	16.38
474.21	0.00
474.39	16.38
474.57	53.83
474.75	4.68
474.93	77.24
475.12	35.11
475.30	117.03
475.48	18.72
475.66	2.34
475.84	14.04
476.02	63.19
476.20	63.19
476.38	70.22
476.56	51.49
476.74	60.85
476.92	95.96
477.10	0.00
477.28	7.02
477.46	100.64
477.64	51.49
477.82	46.81
478.00	53.83
478.18	25.75
478.36	16.38
478.54	9.36
478.72	4.68
478.90	58.51
479.08	84.26
479.26	18.72
479.44	135.75
479.62	18.72
479.80	0.00
479.98	28.09
480.16	0.00
480.34	2.34
480.52	9.36
480.70	16.38
480.88	56.17
481.06	51.49
481.24	23.41
481.41	56.17
481.59	98.30
481.77	140.43
481.95	63.19
482.13	60.85
482.31	63.19
482.49	70.22
482.67	32.77
482.85	142.77
483.03	46.81
483.21	0.00
483.39	30.43
483.57	145.11
483.74	77.24
483.92	16.38
484.10	44.47
484.28	23.41
484.46	51.49
484.64	56.17
484.82	72.56
485.00	4.68
485.18	4.68
485.35	72.56
485.53	105.32
485.71	18.72
485.89	9.36
486.07	51.49
486.25	53.83
486.43	53.83
486.61	39.79
486.78	56.17
486.96	16.38
487.14	72.56
487.32	135.75
487.50	88.94
487.68	86.60
487.85	121.71
488.03	79.58
488.21	51.49
488.39	30.43
488.57	51.49
488.75	100.64
488.92	84.26
489.10	117.03
489.28	63.19
489.46	74.90
489.64	37.45
489.81	53.83
489.99	138.09
490.17	0.00
490.35	9.36
490.53	124.05
490.70	0.00
490.88	77.24
491.06	74.90
491.24	84.26
491.41	93.62
491.59	105.32
491.77	28.09
491.95	93.62
492.13	88.94
492.30	53.83
492.48	21.06
492.66	0.00
492.84	30.43
493.01	119.37
493.19	72.56
493.37	44.47
493.54	88.94
493.72	91.28
493.90	0.00
494.08	7.02
494.25	63.19
494.43	70.22
494.61	95.96
494.79	77.24
494.96	117.03
495.14	14.04
495.32	93.62
495.49	65.54
495.67	30.43
495.85	49.15
496.02	56.17
496.20	95.96
496.38	0.00
496.55	93.62
496.73	182.56
496.91	74.90
497.09	102.98
497.26	39.79
497.44	138.09
497.62	102.98
497.79	77.24
497.97	105.32
498.14	32.77
498.32	128.73
498.50	91.28
498.67	126.39
498.85	21.06
499.03	67.88
499.20	0.00
499.38	67.88
499.56	51.49
499.73	39.79
499.91	32.77
500.08	142.77
500.26	46.81
500.44	77.24
500.61	77.24
500.79	72.56
500.97	44.47
501.14	100.64
501.32	72.56
501.49	53.83
501.67	9.36
501.84	30.43
502.02	138.09
502.20	91.28
502.37	0.00
502.55	18.72
502.72	58.51
502.90	53.83
503.07	110.01
503.25	88.94
503.43	35.11
503.60	0.00
503.78	102.98
503.95	110.01
504.13	95.96
504.30	39.79
504.48	37.45
504.65	7.02
504.83	65.54
505.01	98.30
505.18	110.01
505.36	0.00
505.53	49.15
505.71	39.79
505.88	65.54
506.06	14.04
506.23	32.77
506.41	107.66
506.58	58.51
506.76	9.36
506.93	95.96
507.11	79.58
507.28	4.68
507.46	46.81
507.63	105.32
507.81	42.13
507.98	93.62
508.16	51.49
508.33	21.06
508.50	67.88
508.68	49.15
508.85	98.30
509.03	30.43
509.20	23.41
509.38	0.00
509.55	58.51
509.73	60.85
509.90	44.47
510.08	72.56
510.25	37.45
510.42	70.22
510.60	51.49
510.77	49.15
510.95	53.83
511.12	77.24
511.30	74.90
511.47	74.90
511.64	107.66
511.82	105.32
511.99	65.54
512.17	79.58
512.34	124.05
512.51	37.45
512.69	74.90
512.86	121.71
513.04	84.26
513.21	4.68
513.38	138.09
513.56	65.54
513.73	77.24
513.90	119.37
514.08	98.30
514.25	58.51
514.43	124.05
514.60	119.37
514.77	49.15
514.95	51.49
515.12	46.81
515.29	23.41
515.47	35.11
515.64	42.13
515.81	0.00
515.99	51.49
516.16	79.58
516.33	86.60
516.51	100.64
516.68	117.03
516.85	9.36
517.03	88.94
517.20	58.51
517.37	107.66
517.54	86.60
517.72	49.15
517.89	88.94
518.06	93.62
518.24	23.41
518.41	79.58
518.58	121.71
518.75	77.24
518.93	205.97
519.10	44.47
519.27	138.09
519.45	65.54
519.62	63.19
519.79	32.77
519.96	114.69
520.14	149.79
520.31	100.64
520.48	46.81
520.65	51.49
520.83	84.26
521.00	77.24
521.17	93.62
521.34	37.45
521.52	60.85
521.69	140.43
521.86	67.88
522.03	131.07
522.20	0.00
522.38	0.00
522.55	49.15
522.72	58.51
522.89	74.90
523.07	95.96
523.24	58.51
523.41	30.43
523.58	119.37
523.75	56.17
523.92	7.02
524.10	72.56
524.27	63.19
524.44	28.09
524.61	4.68
524.78	23.41
524.96	77.24
525.13	37.45
525.30	37.45
525.47	37.45
525.64	119.37
525.81	67.88
525.98	91.28
526.16	53.83
526.33	25.75
526.50	46.81
526.67	95.96
526.84	0.00
527.01	58.51
527.18	84.26
527.36	95.96
527.53	88.94
527.70	32.77
527.87	49.15
528.04	7.02
528.21	79.58
528.38	107.66
528.55	142.77
528.72	95.96
528.89	154.48
529.07	60.85
529.24	72.56
529.41	100.64
529.58	112.35
529.75	100.64
529.92	147.45
530.09	65.54
530.26	95.96
530.43	74.90
530.60	128.73
530.77	81.92
530.94	58.51
531.11	86.60
531.28	100.64
531.46	124.05
531.63	138.09
531.80	100.64
531.97	60.85
532.14	100.64
532.31	53.83
532.48	58.51
532.65	46.81
532.82	42.13
532.99	58.51
533.16	142.77
533.33	42.13
533.50	44.47
533.67	49.15
533.84	91.28
534.01	63.19
534.18	98.30
534.35	32.77
534.52	39.79
534.69	81.92
534.86	9.36
535.03	124.05
535.20	128.73
535.37	81.92
535.54	46.81
535.71	121.71
535.88	60.85
536.05	14.04
536.22	126.39
536.38	2.34
536.55	86.60
536.72	79.58
536.89	77.24
537.06	60.85
537.23	114.69
537.40	0.00
537.57	107.66
537.74	77.24
537.91	56.17
538.08	128.73
538.25	65.54
538.42	88.94
538.59	156.82
538.75	56.17
538.92	25.75
539.09	46.81
539.26	105.32
539.43	159.16
539.60	100.64
539.77	39.79
539.94	84.26
540.11	53.83
540.28	44.47
540.44	42.13
540.61	58.51
540.78	35.11
540.95	117.03
541.12	70.22
541.29	58.51
541.46	46.81
541.62	14.04
541.79	84.26
541.96	107.66
542.13	70.22
542.30	126.39
542.47	112.35
542.63	138.09
542.80	63.19
542.97	58.51
543.14	84.26
543.31	65.54
543.48	49.15
543.64	95.96
543.81	60.85
543.98	138.09
544.15	84.26
544.32	28.09
544.48	88.94
544.65	100.64
544.82	84.26
544.99	105.32
545.16	0.00
545.32	7.02
545.49	51.49
545.66	11.70
545.83	32.77
546.00	81.92
546.16	18.72
546.33	23.41
546.50	39.79
546.67	58.51
546.83	14.04
547.00	67.88
547.17	42.13
547.34	79.58
547.50	152.13
547.67	37.45
547.84	18.72
548.00	53.83
548.17	100.64
548.34	16.38
548.51	63.19
548.67	44.47
548.84	79.58
549.01	84.26
549.18	81.92
549.34	58.51
549.51	70.22
549.68	112.35
549.84	0.00
550.01	51.49
550.18	98.30
550.34	93.62
550.51	112.35
550.68	100.64
550.84	74.90
551.01	133.41
551.18	72.56
551.34	32.77
551.51	100.64
551.68	84.26
551.84	16.38
552.01	0.00
552.18	72.56
552.34	53.83
552.51	74.90
552.68	42.13
552.84	81.92
553.01	37.45
553.18	0.00
553.34	79.58
553.51	56.17
553.67	42.13
553.84	44.47
554.01	142.77
554.17	58.51
554.34	70.22
554.51	44.47
554.67	63.19
554.84	65.54
555.00	51.49
555.17	110.01
555.33	135.75
555.50	67.88
555.67	88.94
555.83	77.24
556.00	49.15
556.16	88.94
556.33	63.19
556.50	79.58
556.66	32.77
556.83	53.83
556.99	84.26
557.16	56.17
557.32	44.47
557.49	30.43
557.65	107.66
557.82	65.54
557.98	79.58
558.15	35.11
558.32	91.28
558.48	56.17
558.65	67.88
558.81	93.62
558.98	79.58
559.14	42.13
559.31	44.47
559.47	77.24
559.64	74.90
559.80	67.88
559.97	58.51
560.13	63.19
560.30	42.13
560.46	72.56
560.63	0.00
560.79	28.09
560.96	124.05
561.12	7.02
561.29	28.09
561.45	81.92
561.61	53.83
561.78	67.88
561.94	72.56
562.11	98.30
562.27	42.13
562.44	72.56
562.60	67.88
562.77	98.30
562.93	44.47
563.10	107.66
563.26	60.85
563.42	98.30
563.59	32.77
563.75	37.45
563.92	37.45
564.08	81.92
564.24	88.94
564.41	79.58
564.57	30.43
564.74	88.94
564.90	60.85
565.07	53.83
565.23	44.47
565.39	114.69
565.56	58.51
565.72	16.38
565.88	14.04
566.05	72.56
566.21	65.54
566.38	14.04
566.54	121.71
566.70	110.01
566.87	72.56
567.03	56.17
567.19	65.54
567.36	81.92
567.52	70.22
567.68	28.09
567.85	128.73
568.01	70.22
568.17	140.43
568.34	98.30
568.50	81.92
568.66	49.15
568.83	21.06
568.99	42.13
569.15	0.00
569.32	88.94
569.48	63.19
569.64	58.51
569.81	98.30
569.97	23.41
570.13	112.35
570.30	46.81
570.46	9.36
570.62	2.34
570.78	105.32
570.95	135.75
571.11	102.98
571.27	95.96
571.43	79.58
571.60	63.19
571.76	46.81
571.92	30.43
572.09	0.00
572.25	95.96
572.41	110.01
572.57	86.60
572.74	18.72
572.90	102.98
573.06	142.77
573.22	53.83
573.38	84.26
573.55	95.96
573.71	86.60
573.87	30.43
574.03	112.35
574.20	46.81
574.36	32.77
574.52	53.83
574.68	42.13
574.84	77.24
575.01	16.38
575.17	119.37
575.33	102.98
575.49	49.15
575.65	105.32
575.82	42.13
575.98	65.54
576.14	23.41
576.30	0.00
576.46	86.60
576.62	32.77
576.79	72.56
576.95	79.58
577.11	84.26
577.27	0.00
577.43	21.06
577.59	79.58
577.75	81.92
577.92	21.06
578.08	56.17
578.24	9.36
578.40	60.85
578.56	77.24
578.72	0.00
578.88	67.88
579.04	79.58
579.21	51.49
579.37	60.85
579.53	133.41
579.69	77.24
579.85	121.71
580.01	39.79
580.17	0.00
580.33	67.88
580.49	42.13
580.65	72.56
580.82	93.62
580.98	100.64
581.14	0.00
581.30	95.96
581.46	105.32
581.62	102.98
581.78	16.38
581.94	79.58
582.10	86.60
582.26	42.13
582.42	60.85
582.58	60.85
582.74	98.30
582.90	72.56
583.06	156.82
583.22	46.81
583.38	81.92
583.54	88.94
583.70	93.62
583.86	98.30
584.02	86.60
584.18	93.62
584.34	112.35
584.50	7.02
584.66	14.04
584.82	58.51
584.98	39.79
585.14	60.85
585.30	42.13
585.46	30.43
585.62	91.28
585.78	30.43
585.94	74.90
586.10	37.45
586.26	0.00
586.42	81.92
586.58	105.32
586.74	70.22
586.90	30.43
587.06	37.45
587.22	32.77
587.38	65.54
587.54	60.85
587.70	79.58
587.86	35.11
588.02	56.17
588.18	32.77
588.34	0.00
588.49	74.90
588.65	142.77
588.81	119.37
588.97	86.60
589.13	0.00
589.29	16.38
589.45	91.28
589.61	51.49
589.77	0.00
589.93	81.92
590.08	51.49
590.24	67.88
590.40	46.81
590.56	100.64
590.72	49.15
590.88	42.13
591.04	42.13
591.20	58.51
591.35	53.83
591.51	117.03
591.67	25.75
591.83	95.96
591.99	23.41
592.15	131.07
592.31	105.32
592.46	133.41
592.62	0.00
592.78	74.90
592.94	102.98
593.10	65.54
593.26	86.60
593.41	88.94
593.57	30.43
593.73	53.83
593.89	81.92
594.05	35.11
594.20	102.98
594.36	88.94
594.52	72.56
594.68	58.51
594.84	53.83
594.99	58.51
595.15	21.06
595.31	86.60
595.47	84.26
595.62	58.51
595.78	79.58
595.94	7.02
596.10	72.56
596.25	93.62
596.41	4.68
596.57	93.62
596.73	37.45
596.88	35.11
597.04	49.15
597.20	88.94
597.36	35.11
597.51	25.75
597.67	93.62
597.83	124.05
597.99	46.81
598.14	21.06
598.30	119.37
598.46	37.45
598.61	0.00
598.77	63.19
598.93	60.85
599.09	110.01
599.24	119.37
599.40	46.81
599.56	65.54
599.71	0.00
599.87	21.06
600.03	32.77
600.18	77.24
600.34	21.06
600.50	35.11
600.65	65.54
600.81	67.88
600.97	32.77
601.12	145.11
601.28	32.77
601.44	70.22
601.59	60.85
601.75	53.83
601.91	65.54
602.06	58.51
602.22	51.49
602.37	32.77
602.53	60.85
602.69	25.75
602.84	51.49
603.00	91.28
603.16	100.64
603.31	21.06
603.47	72.56
603.62	72.56
603.78	0.00
603.94	88.94
604.09	93.62
604.25	0.00
604.40	72.56
604.56	81.92
604.71	81.92
604.87	7.02
605.03	77.24
605.18	37.45
605.34	81.92
605.49	121.71
605.65	39.79
605.80	42.13
605.96	0.00
606.12	25.75
606.27	23.41
606.43	72.56
606.58	100.64
606.74	98.30
606.89	46.81
607.05	51.49
607.20	39.79
607.36	98.30
607.51	49.15
607.67	65.54
607.82	86.60
607.98	79.58
608.13	70.22
608.29	23.41
608.44	39.79
608.60	37.45
608.75	135.75
608.91	28.09
609.06	4.68
609.22	60.85
609.37	9.36
609.53	86.60
609.68	72.56
609.84	0.00
609.99	35.11
610.15	105.32
610.30	2.34
610.46	77.24
610.61	21.06
610.76	88.94
610.92	25.75
611.07	70.22
611.23	72.56
611.38	72.56
611.54	42.13
611.69	14.04
611.84	93.62
612.00	21.06
612.15	0.00
612.31	91.28
612.46	35.11
612.62	0.00
612.77	35.11
612.92	32.77
613.08	79.58
613.23	58.51
613.39	11.70
613.54	124.05
613.69	114.69
613.85	74.90
614.00	0.00
614.15	65.54
614.31	0.00
614.46	28.09
614.62	23.41
614.77	35.11
614.92	18.72
615.08	44.47
615.23	4.68
615.38	53.83
615.54	53.83
615.69	100.64
615.84	49.15
616.00	11.70
616.15	81.92
616.30	95.96
616.46	0.00
616.61	79.58
616.76	0.00
616.92	2.34
617.07	0.00
617.22	0.00
617.37	16.38
617.53	30.43
617.68	49.15
617.83	86.60
617.99	23.41
618.14	2.34
618.29	42.13
618.45	72.56
618.60	0.00
618.75	0.00
618.90	4.68
619.06	63.19
619.21	28.09
619.36	117.03
619.51	88.94
619.67	77.24
619.82	0.00
619.97	58.51
620.12	23.41
620.28	84.26
620.43	95.96
620.58	60.85
620.73	39.79
620.89	0.00
621.04	67.88
621.19	77.24
621.34	77.24
621.49	30.43
621.65	0.00
621.80	2.34
621.95	46.81
622.10	14.04
622.25	72.56
622.41	81.92
622.56	49.15
622.71	49.15
622.86	70.22
623.01	110.01
623.16	70.22
623.32	0.00
623.47	53.83
623.62	7.02
623.77	65.54
623.92	58.51
624.07	0.00
624.23	32.77
624.38	135.75
624.53	21.06
624.68	39.79
624.83	21.06
624.98	86.60
625.13	42.13
625.29	72.56
625.44	42.13
625.59	63.19
625.74	39.79
625.89	18.72
626.04	77.24
626.19	7.02
626.34	28.09
626.49	53.83
626.65	42.13
626.80	56.17
626.95	0.00
627.10	81.92
627.25	0.00
627.40	49.15
627.55	58.51
627.70	105.32
627.85	63.19
628.00	11.70
628.15	49.15
628.30	30.43
628.45	105.32
628.60	18.72
628.76	67.88
628.91	91.28
629.06	0.00
629.21	2.34
629.36	60.85
629.51	70.22
629.66	49.15
629.81	0.00
629.96	9.36
630.11	86.60
630.26	93.62
630.41	7.02
630.56	0.00
630.71	0.00
630.86	35.11
631.01	51.49
631.16	84.26
631.31	16.38
631.46	70.22
631.61	25.75
631.76	44.47
631.91	86.60
632.06	81.92
632.21	21.06
632.36	21.06
632.51	46.81
632.66	86.60
632.81	39.79
632.96	0.00
633.10	74.90
633.25	0.00
633.40	84.26
633.55	18.72
633.70	0.00
633.85	32.77
634.00	0.00
634.15	100.64
634.30	9.36
634.45	0.00
634.60	77.24
634.75	70.22
634.90	39.79
635.05	70.22
635.19	28.09
635.34	102.98
635.49	86.60
635.64	11.70
635.79	63.19
635.94	46.81
636.09	74.90
636.24	0.00
636.39	74.90
636.53	18.72
636.68	37.45
636.83	53.83
636.98	0.00
637.13	0.00
637.28	0.00
637.43	72.56
637.57	37.45
637.72	117.03
637.87	46.81
638.02	67.88
638.17	67.88
638.32	84.26
638.46	25.75
638.61	70.22
638.76	32.77
638.91	16.38
639.06	0.00
639.20	81.92
639.35	37.45
639.50	95.96
639.65	0.00
639.80	88.94
639.94	58.51
640.09	53.83
640.24	60.85
640.39	128.73
640.54	65.54
640.68	44.47
640.83	133.41
640.98	0.00
641.13	0.00
641.27	86.60
641.42	11.70
641.57	35.11
641.72	53.83
641.86	7.02
642.01	140.43
642.16	0.00
642.31	35.11
642.45	35.11
642.60	67.88
642.75	0.00
642.90	23.41
643.04	53.83
643.19	65.54
643.34	51.49
643.48	16.38
643.63	70.22
643.78	28.09
643.93	117.03
644.07	95.96
644.22	65.54
644.37	23.41
644.51	14.04
644.66	37.45
644.81	60.85
644.95	67.88
645.10	70.22
645.25	65.54
645.39	18.72
645.54	30.43
645.69	63.19
645.83	0.00
645.98	51.49
646.13	7.02
646.27	102.98
646.42	18.72
646.57	58.51
646.71	18.72
646.86	11.70
647.00	51.49
647.15	42.13
647.30	49.15
647.44	0.00
647.59	2.34
647.74	81.92
647.88	56.17
648.03	23.41
648.17	117.03
648.32	51.49
648.47	0.00
648.61	35.11
648.76	88.94
648.90	79.58
649.05	0.00
649.20	35.11
649.34	37.45
649.49	42.13
649.63	53.83
649.78	25.75
649.92	0.00
650.07	0.00
650.21	46.81
650.36	37.45
650.51	21.06
650.65	93.62
650.80	60.85
650.94	0.00
651.09	63.19
651.23	11.70
651.38	65.54
651.52	70.22
651.67	100.64
651.81	105.32
651.96	46.81
652.10	39.79
652.25	114.69
652.39	81.92
652.54	110.01
652.68	72.56
652.83	100.64
652.97	42.13
653.12	105.32
653.26	0.00
653.41	46.81
653.55	102.98
653.70	56.17
653.84	74.90
653.99	51.49
654.13	21.06
654.27	93.62
654.42	49.15
654.56	23.41
654.71	58.51
654.85	65.54
655.00	81.92
655.14	72.56
655.29	67.88
655.43	77.24
655.57	84.26
655.72	21.06
655.86	35.11
656.01	56.17
656.15	126.39
656.30	42.13
656.44	0.00
656.58	117.03
656.73	91.28
656.87	70.22
657.01	23.41
657.16	46.81
657.30	21.06
657.45	56.17
657.59	86.60
657.73	46.81
657.88	23.41
658.02	14.04
658.16	44.47
658.31	0.00
658.45	35.11
658.60	93.62
658.74	65.54
658.88	58.51
659.03	70.22
659.17	91.28
659.31	105.32
659.46	32.77
659.60	70.22
659.74	79.58
659.89	77.24
660.03	95.96
660.17	79.58
660.32	0.00
660.46	37.45
660.60	65.54
660.74	28.09
660.89	60.85
661.03	14.04
661.17	53.83
661.32	0.00
661.46	37.45
661.60	49.15
661.74	110.01
661.89	35.11
662.03	18.72
662.17	105.32
662.31	65.54
662.46	11.70
662.60	72.56
662.74	70.22
662.88	14.04
663.03	107.66
663.17	37.45
663.31	53.83
663.45	14.04
663.60	49.15
663.74	0.00
663.88	65.54
664.02	21.06
664.17	79.58
664.31	67.88
664.45	70.22
664.59	42.13
664.73	65.54
664.88	30.43
665.02	42.13
665.16	32.77
665.30	7.02
665.44	102.98
665.59	70.22
665.73	25.75
665.87	0.00
666.01	4.68
666.15	14.04
666.29	0.00
666.44	126.39
666.58	110.01
666.72	0.00
666.86	60.85
667.00	28.09
667.14	44.47
667.28	70.22
667.43	77.24
667.57	11.70
667.71	7.02
667.85	51.49
667.99	37.45
668.13	7.02
668.27	14.04
668.41	0.00
668.56	25.75
668.70	46.81
668.84	16.38
668.98	65.54
669.12	107.66
669.26	0.00
669.40	0.00
669.54	114.69
669.68	25.75
669.82	35.11
669.96	42.13
670.10	0.00
670.25	18.72
670.39	58.51
670.53	23.41
670.67	37.45
670.81	32.77
670.95	28.09
671.09	28.09
671.23	35.11
671.37	0.00
671.51	58.51
671.65	0.00
671.79	21.06
671.93	25.75
672.07	18.72
672.21	11.70
672.35	11.70
672.49	4.68
672.63	35.11
672.77	30.43
672.91	51.49
673.05	81.92
673.19	49.15
673.33	23.41
673.47	93.62
673.61	35.11
673.75	91.28
673.89	86.60
674.03	16.38
674.17	21.06
674.31	60.85
674.45	67.88
674.59	28.09
674.73	35.11
674.87	119.37
675.01	32.77
675.15	117.03
675.29	44.47
675.43	14.04
675.56	77.24
675.70	16.38
675.84	25.75
675.98	72.56
676.12	39.79
676.26	0.00
676.40	121.71
676.54	46.81
676.68	44.47
676.82	81.92
676.96	63.19
677.10	37.45
677.23	16.38
677.37	0.00
677.51	30.43
677.65	44.47
677.79	30.43
677.93	46.81
678.07	0.00
678.21	112.35
678.34	46.81
678.48	46.81
678.62	60.85
678.76	0.00
678.90	65.54
679.04	67.88
679.18	44.47
679.31	14.04
679.45	65.54
679.59	98.30
679.73	21.06
679.87	72.56
680.00	7.02
680.14	100.64
680.28	56.17
680.42	58.51
680.56	147.45
680.70	70.22
680.83	30.43
680.97	79.58
681.11	81.92
681.25	25.75
681.39	39.79
681.52	42.13
681.66	86.60
681.80	0.00
681.94	7.02
682.07	95.96
682.21	86.60
682.35	91.28
682.49	35.11
682.62	88.94
682.76	11.70
682.90	21.06
683.04	88.94
683.17	14.04
683.31	37.45
683.45	0.00
683.59	18.72
683.72	53.83
683.86	51.49
684.00	30.43
684.13	67.88
684.27	77.24
684.41	11.70
684.55	35.11
684.68	39.79
684.82	37.45
684.96	63.19
685.09	42.13
685.23	35.11
685.37	37.45
685.50	93.62
685.64	0.00
685.78	72.56
685.91	0.00
686.05	56.17
686.19	23.41
686.32	0.00
686.46	81.92
686.60	42.13
686.73	0.00
686.87	7.02
687.01	51.49
687.14	30.43
687.28	2.34
687.42	53.83
687.55	9.36
687.69	77.24
687.82	0.00
687.96	79.58
688.10	39.79
688.23	53.83
688.37	30.43
688.50	21.06
688.64	0.00
688.78	46.81
688.91	37.45
689.05	32.77
689.18	35.11
689.32	25.75
689.46	70.22
689.59	11.70
689.73	56.17
689.86	23.41
690.00	79.58
690.13	86.60
690.27	28.09
690.41	32.77
690.54	39.79
690.68	42.13
690.81	42.13
690.95	86.60
691.08	32.77
691.22	0.00
691.35	30.43
691.49	0.00
691.62	44.47
691.76	93.62
691.89	32.77
692.03	25.75
692.16	84.26
692.30	37.45
692.43	0.00
692.57	81.92
692.70	58.51
692.84	44.47
692.97	0.00
693.11	63.19
693.24	65.54
693.38	35.11
693.51	9.36
693.65	0.00
693.78	0.00
693.92	100.64
694.05	58.51
694.19	28.09
694.32	0.00
694.45	58.51
694.59	16.38
694.72	44.47
694.86	60.85
694.99	42.13
695.13	0.00
695.26	9.36
695.39	0.00
695.53	28.09
695.66	51.49
695.80	74.90
695.93	65.54
696.07	46.81
696.20	0.00
696.33	16.38
696.47	65.54
696.60	42.13
696.73	53.83
696.87	58.51
697.00	42.13
697.14	46.81
697.27	74.90
697.40	0.00
697.54	0.00
697.67	9.36
697.80	53.83
697.94	28.09
698.07	65.54
698.21	67.88
698.34	56.17
698.47	0.00
698.61	49.15
698.74	28.09
698.87	0.00
699.01	72.56
699.14	39.79
699.27	0.00
699.40	4.68
699.54	60.85
699.67	0.00
699.80	30.43
699.94	23.41
700.07	30.43
700.20	81.92
700.34	37.45
700.47	18.72
700.60	9.36
700.73	0.00
700.87	0.00
701.00	56.17
701.13	81.92
701.26	0.00
701.40	49.15
701.53	65.54
701.66	56.17
701.79	0.00
701.93	32.77
702.06	65.54
702.19	30.43
702.32	74.90
702.46	0.00
702.59	25.75
702.72	0.00
702.85	23.41
702.99	56.17
703.12	14.04
703.25	56.17
703.38	9.36
703.51	0.00
703.65	30.43
703.78	0.00
703.91	58.51
704.04	95.96
704.17	49.15
704.31	2.34
704.44	9.36
704.57	9.36
704.70	53.83
704.83	32.77
704.96	72.56
705.10	42.13
705.23	51.49
>>>>>End Processed Spectral Data<<<<<
