SpectraSuite Data File
++++++++++++++++++++++++++++++++++++
Date: Fri Oct 04 12:13:30 GMT-05:00 2013
User: price-jones
Dark Spectrum Present: No
Reference Spectrum Present: No
Number of Sampled Component Spectra: 1
Spectrometers: USB2+H05261
Integration Time (usec): 10000 (USB2+H05261)
Spectra Averaged: 1 (USB2+H05261)
Boxcar Smoothing: 0 (USB2+H05261)
Correct for Electrical Dark: No (USB2+H05261)
Strobe/Lamp Enabled: No (USB2+H05261)
Correct for Detector Non-linearity: No (USB2+H05261)
Correct for Stray Light: No (USB2+H05261)
Number of Pixels in Processed Spectrum: 2048
>>>>>Begin Processed Spectral Data<<<<<
365.73	4.68
365.92	4.68
366.12	4.68
366.32	0.00
366.52	0.00
366.72	0.00
366.91	0.00
367.11	0.00
367.31	0.00
367.51	0.00
367.70	0.00
367.90	0.00
368.10	0.00
368.30	0.00
368.49	0.00
368.69	0.00
368.89	0.00
369.09	0.00
369.28	0.00
369.48	0.00
369.68	0.00
369.87	0.00
370.07	0.00
370.27	0.00
370.47	0.00
370.66	0.00
370.86	0.00
371.06	0.00
371.25	2.34
371.45	0.00
371.65	0.00
371.84	0.00
372.04	0.00
372.24	0.00
372.44	35.11
372.63	0.00
372.83	16.38
373.03	42.13
373.22	18.72
373.42	0.00
373.62	14.04
373.81	2.34
374.01	14.04
374.21	51.49
374.40	56.17
374.60	0.00
374.79	0.00
374.99	63.19
375.19	0.00
375.38	0.00
375.58	0.00
375.78	77.24
375.97	112.35
376.17	58.51
376.37	0.00
376.56	39.79
376.76	2.34
376.95	0.00
377.15	46.81
377.35	63.19
377.54	0.00
377.74	72.56
377.93	32.77
378.13	0.00
378.33	32.77
378.52	56.17
378.72	4.68
378.91	30.43
379.11	30.43
379.31	23.41
379.50	30.43
379.70	0.00
379.89	0.00
380.09	60.85
380.28	0.00
380.48	0.00
380.68	0.00
380.87	46.81
381.07	32.77
381.26	53.83
381.46	4.68
381.65	0.00
381.85	0.00
382.04	0.00
382.24	88.94
382.43	0.00
382.63	39.79
382.83	0.00
383.02	0.00
383.22	56.17
383.41	21.06
383.61	30.43
383.80	32.77
384.00	0.00
384.19	21.06
384.39	70.22
384.58	0.00
384.78	56.17
384.97	14.04
385.17	0.00
385.36	0.00
385.56	0.00
385.75	18.72
385.95	32.77
386.14	42.13
386.34	0.00
386.53	0.00
386.72	0.00
386.92	0.00
387.11	18.72
387.31	0.00
387.50	0.00
387.70	0.00
387.89	35.11
388.09	42.13
388.28	51.49
388.48	35.11
388.67	23.41
388.86	14.04
389.06	23.41
389.25	0.00
389.45	56.17
389.64	28.09
389.84	51.49
390.03	67.88
390.22	0.00
390.42	37.45
390.61	65.54
390.81	93.62
391.00	4.68
391.19	30.43
391.39	23.41
391.58	28.09
391.78	0.00
391.97	0.00
392.16	2.34
392.36	0.00
392.55	72.56
392.75	28.09
392.94	44.47
393.13	0.00
393.33	0.00
393.52	14.04
393.71	9.36
393.91	4.68
394.10	30.43
394.29	0.00
394.49	44.47
394.68	14.04
394.88	35.11
395.07	35.11
395.26	0.00
395.46	0.00
395.65	9.36
395.84	32.77
396.04	30.43
396.23	2.34
396.42	28.09
396.62	0.00
396.81	0.00
397.00	9.36
397.19	18.72
397.39	30.43
397.58	0.00
397.77	0.00
397.97	18.72
398.16	11.70
398.35	60.85
398.55	14.04
398.74	35.11
398.93	4.68
399.12	51.49
399.32	14.04
399.51	0.00
399.70	0.00
399.90	23.41
400.09	11.70
400.28	16.38
400.47	2.34
400.67	98.30
400.86	0.00
401.05	72.56
401.24	53.83
401.44	23.41
401.63	4.68
401.82	0.00
402.01	28.09
402.21	86.60
402.40	28.09
402.59	21.06
402.78	0.00
402.97	84.26
403.17	95.96
403.36	49.15
403.55	42.13
403.74	32.77
403.93	0.00
404.13	63.19
404.32	51.49
404.51	39.79
404.70	37.45
404.89	14.04
405.09	18.72
405.28	11.70
405.47	0.00
405.66	18.72
405.85	4.68
406.05	42.13
406.24	0.00
406.43	56.17
406.62	23.41
406.81	25.75
407.00	30.43
407.20	4.68
407.39	42.13
407.58	0.00
407.77	58.51
407.96	25.75
408.15	7.02
408.34	44.47
408.54	0.00
408.73	9.36
408.92	51.49
409.11	16.38
409.30	63.19
409.49	0.00
409.68	56.17
409.87	7.02
410.07	9.36
410.26	2.34
410.45	2.34
410.64	21.06
410.83	79.58
411.02	65.54
411.21	30.43
411.40	37.45
411.59	21.06
411.78	14.04
411.98	23.41
412.17	88.94
412.36	0.00
412.55	37.45
412.74	30.43
412.93	0.00
413.12	30.43
413.31	14.04
413.50	35.11
413.69	30.43
413.88	9.36
414.07	14.04
414.26	25.75
414.45	46.81
414.64	28.09
414.83	7.02
415.02	91.28
415.22	81.92
415.41	49.15
415.60	102.98
415.79	0.00
415.98	0.00
416.17	28.09
416.36	60.85
416.55	102.98
416.74	74.90
416.93	32.77
417.12	32.77
417.31	23.41
417.50	77.24
417.69	11.70
417.88	0.00
418.07	84.26
418.26	46.81
418.45	14.04
418.64	4.68
418.83	0.00
419.02	0.00
419.21	9.36
419.39	11.70
419.58	53.83
419.77	25.75
419.96	42.13
420.15	4.68
420.34	51.49
420.53	77.24
420.72	0.00
420.91	0.00
421.10	114.69
421.29	16.38
421.48	35.11
421.67	7.02
421.86	23.41
422.05	91.28
422.24	77.24
422.43	0.00
422.61	30.43
422.80	39.79
422.99	9.36
423.18	0.00
423.37	32.77
423.56	0.00
423.75	84.26
423.94	25.75
424.13	14.04
424.32	30.43
424.50	42.13
424.69	42.13
424.88	11.70
425.07	39.79
425.26	32.77
425.45	11.70
425.64	0.00
425.83	42.13
426.01	42.13
426.20	25.75
426.39	28.09
426.58	107.66
426.77	51.49
426.96	42.13
427.15	11.70
427.33	4.68
427.52	4.68
427.71	30.43
427.90	0.00
428.09	7.02
428.28	44.47
428.46	4.68
428.65	56.17
428.84	9.36
429.03	4.68
429.22	58.51
429.40	23.41
429.59	4.68
429.78	46.81
429.97	28.09
430.16	32.77
430.34	0.00
430.53	0.00
430.72	58.51
430.91	39.79
431.10	25.75
431.28	0.00
431.47	0.00
431.66	25.75
431.85	0.00
432.03	74.90
432.22	84.26
432.41	42.13
432.60	63.19
432.79	0.00
432.97	9.36
433.16	95.96
433.35	0.00
433.54	56.17
433.72	91.28
433.91	21.06
434.10	53.83
434.28	107.66
434.47	81.92
434.66	23.41
434.85	0.00
435.03	30.43
435.22	46.81
435.41	81.92
435.59	70.22
435.78	23.41
435.97	81.92
436.16	16.38
436.34	70.22
436.53	79.58
436.72	65.54
436.90	4.68
437.09	67.88
437.28	39.79
437.46	114.69
437.65	49.15
437.84	32.77
438.02	28.09
438.21	51.49
438.40	28.09
438.58	35.11
438.77	14.04
438.96	63.19
439.14	44.47
439.33	39.79
439.52	121.71
439.70	67.88
439.89	4.68
440.08	51.49
440.26	4.68
440.45	7.02
440.63	60.85
440.82	39.79
441.01	0.00
441.19	14.04
441.38	35.11
441.57	21.06
441.75	23.41
441.94	0.00
442.12	37.45
442.31	14.04
442.50	51.49
442.68	42.13
442.87	35.11
443.05	28.09
443.24	25.75
443.43	0.00
443.61	0.00
443.80	18.72
443.98	56.17
444.17	39.79
444.35	58.51
444.54	46.81
444.73	16.38
444.91	9.36
445.10	0.00
445.28	0.00
445.47	4.68
445.65	14.04
445.84	44.47
446.02	23.41
446.21	9.36
446.39	0.00
446.58	21.06
446.77	81.92
446.95	0.00
447.14	18.72
447.32	16.38
447.51	23.41
447.69	21.06
447.88	0.00
448.06	117.03
448.25	39.79
448.43	0.00
448.62	0.00
448.80	0.00
448.99	65.54
449.17	0.00
449.36	0.00
449.54	16.38
449.73	56.17
449.91	0.00
450.10	4.68
450.28	93.62
450.46	37.45
450.65	53.83
450.83	53.83
451.02	0.00
451.20	79.58
451.39	11.70
451.57	0.00
451.76	7.02
451.94	44.47
452.13	51.49
452.31	28.09
452.49	63.19
452.68	63.19
452.86	84.26
453.05	21.06
453.23	18.72
453.42	67.88
453.60	60.85
453.78	56.17
453.97	0.00
454.15	42.13
454.34	28.09
454.52	14.04
454.70	35.11
454.89	21.06
455.07	23.41
455.26	7.02
455.44	65.54
455.62	0.00
455.81	0.00
455.99	2.34
456.17	0.00
456.36	42.13
456.54	70.22
456.73	42.13
456.91	37.45
457.09	88.94
457.28	9.36
457.46	16.38
457.64	81.92
457.83	53.83
458.01	14.04
458.19	79.58
458.38	14.04
458.56	84.26
458.74	49.15
458.93	53.83
459.11	7.02
459.29	21.06
459.48	63.19
459.66	14.04
459.84	60.85
460.03	39.79
460.21	42.13
460.39	21.06
460.57	70.22
460.76	119.37
460.94	56.17
461.12	30.43
461.31	0.00
461.49	0.00
461.67	56.17
461.85	100.64
462.04	21.06
462.22	37.45
462.40	53.83
462.59	0.00
462.77	0.00
462.95	44.47
463.13	88.94
463.32	0.00
463.50	0.00
463.68	18.72
463.86	70.22
464.05	18.72
464.23	56.17
464.41	53.83
464.59	98.30
464.78	0.00
464.96	49.15
465.14	98.30
465.32	21.06
465.50	81.92
465.69	35.11
465.87	7.02
466.05	35.11
466.23	53.83
466.41	35.11
466.60	67.88
466.78	0.00
466.96	25.75
467.14	32.77
467.32	25.75
467.51	7.02
467.69	25.75
467.87	25.75
468.05	0.00
468.23	53.83
468.41	0.00
468.60	0.00
468.78	58.51
468.96	0.00
469.14	7.02
469.32	37.45
469.50	56.17
469.69	56.17
469.87	30.43
470.05	95.96
470.23	46.81
470.41	11.70
470.59	0.00
470.77	84.26
470.95	9.36
471.14	42.13
471.32	60.85
471.50	42.13
471.68	25.75
471.86	9.36
472.04	30.43
472.22	35.11
472.40	67.88
472.58	0.00
472.77	44.47
472.95	60.85
473.13	58.51
473.31	11.70
473.49	74.90
473.67	44.47
473.85	30.43
474.03	63.19
474.21	72.56
474.39	25.75
474.57	49.15
474.75	70.22
474.93	23.41
475.12	0.00
475.30	9.36
475.48	9.36
475.66	79.58
475.84	51.49
476.02	91.28
476.20	67.88
476.38	0.00
476.56	53.83
476.74	9.36
476.92	0.00
477.10	35.11
477.28	70.22
477.46	21.06
477.64	21.06
477.82	30.43
478.00	39.79
478.18	11.70
478.36	4.68
478.54	35.11
478.72	44.47
478.90	0.00
479.08	7.02
479.26	77.24
479.44	35.11
479.62	39.79
479.80	0.00
479.98	51.49
480.16	102.98
480.34	0.00
480.52	46.81
480.70	25.75
480.88	49.15
481.06	56.17
481.24	49.15
481.41	0.00
481.59	21.06
481.77	0.00
481.95	56.17
482.13	37.45
482.31	72.56
482.49	0.00
482.67	60.85
482.85	2.34
483.03	42.13
483.21	86.60
483.39	42.13
483.57	77.24
483.74	0.00
483.92	0.00
484.10	32.77
484.28	23.41
484.46	51.49
484.64	0.00
484.82	30.43
485.00	21.06
485.18	2.34
485.35	39.79
485.53	81.92
485.71	39.79
485.89	9.36
486.07	51.49
486.25	30.43
486.43	74.90
486.61	4.68
486.78	23.41
486.96	98.30
487.14	51.49
487.32	98.30
487.50	56.17
487.68	39.79
487.85	72.56
488.03	60.85
488.21	32.77
488.39	49.15
488.57	0.00
488.75	56.17
488.92	65.54
489.10	102.98
489.28	35.11
489.46	37.45
489.64	65.54
489.81	0.00
489.99	72.56
490.17	42.13
490.35	0.00
490.53	0.00
490.70	65.54
490.88	77.24
491.06	0.00
491.24	0.00
491.41	84.26
491.59	0.00
491.77	46.81
491.95	9.36
492.13	4.68
492.30	39.79
492.48	25.75
492.66	72.56
492.84	67.88
493.01	16.38
493.19	14.04
493.37	9.36
493.54	70.22
493.72	0.00
493.90	93.62
494.08	32.77
494.25	51.49
494.43	0.00
494.61	11.70
494.79	23.41
494.96	23.41
495.14	21.06
495.32	51.49
495.49	74.90
495.67	16.38
495.85	74.90
496.02	70.22
496.20	0.00
496.38	0.00
496.55	65.54
496.73	23.41
496.91	79.58
497.09	60.85
497.26	95.96
497.44	49.15
497.62	128.73
497.79	0.00
497.97	154.48
498.14	93.62
498.32	9.36
498.50	35.11
498.67	28.09
498.85	37.45
499.03	74.90
499.20	28.09
499.38	63.19
499.56	0.00
499.73	23.41
499.91	0.00
500.08	0.00
500.26	37.45
500.44	35.11
500.61	39.79
500.79	37.45
500.97	16.38
501.14	32.77
501.32	107.66
501.49	102.98
501.67	49.15
501.84	21.06
502.02	16.38
502.20	72.56
502.37	100.64
502.55	9.36
502.72	65.54
502.90	21.06
503.07	42.13
503.25	77.24
503.43	16.38
503.60	16.38
503.78	88.94
503.95	60.85
504.13	9.36
504.30	51.49
504.48	53.83
504.65	74.90
504.83	112.35
505.01	72.56
505.18	67.88
505.36	18.72
505.53	58.51
505.71	91.28
505.88	58.51
506.06	53.83
506.23	58.51
506.41	93.62
506.58	49.15
506.76	0.00
506.93	28.09
507.11	0.00
507.28	56.17
507.46	42.13
507.63	0.00
507.81	37.45
507.98	39.79
508.16	14.04
508.33	110.01
508.50	42.13
508.68	56.17
508.85	11.70
509.03	0.00
509.20	39.79
509.38	16.38
509.55	79.58
509.73	30.43
509.90	56.17
510.08	37.45
510.25	56.17
510.42	0.00
510.60	0.00
510.77	37.45
510.95	105.32
511.12	35.11
511.30	0.00
511.47	74.90
511.64	126.39
511.82	28.09
511.99	7.02
512.17	39.79
512.34	65.54
512.51	0.00
512.69	0.00
512.86	39.79
513.04	9.36
513.21	126.39
513.38	63.19
513.56	32.77
513.73	37.45
513.90	117.03
514.08	0.00
514.25	32.77
514.43	11.70
514.60	23.41
514.77	35.11
514.95	91.28
515.12	46.81
515.29	60.85
515.47	93.62
515.64	25.75
515.81	16.38
515.99	32.77
516.16	28.09
516.33	46.81
516.51	32.77
516.68	49.15
516.85	67.88
517.03	53.83
517.20	91.28
517.37	84.26
517.54	51.49
517.72	67.88
517.89	23.41
518.06	74.90
518.24	0.00
518.41	4.68
518.58	107.66
518.75	0.00
518.93	51.49
519.10	105.32
519.27	0.00
519.45	44.47
519.62	35.11
519.79	0.00
519.96	0.00
520.14	46.81
520.31	42.13
520.48	14.04
520.65	28.09
520.83	25.75
521.00	0.00
521.17	117.03
521.34	42.13
521.52	21.06
521.69	56.17
521.86	37.45
522.03	9.36
522.20	25.75
522.38	65.54
522.55	14.04
522.72	65.54
522.89	49.15
523.07	35.11
523.24	14.04
523.41	72.56
523.58	102.98
523.75	39.79
523.92	91.28
524.10	51.49
524.27	42.13
524.44	58.51
524.61	37.45
524.78	0.00
524.96	25.75
525.13	65.54
525.30	39.79
525.47	51.49
525.64	91.28
525.81	42.13
525.98	124.05
526.16	14.04
526.33	14.04
526.50	23.41
526.67	25.75
526.84	0.00
527.01	86.60
527.18	58.51
527.36	11.70
527.53	53.83
527.70	60.85
527.87	49.15
528.04	60.85
528.21	9.36
528.38	35.11
528.55	91.28
528.72	65.54
528.89	0.00
529.07	39.79
529.24	21.06
529.41	114.69
529.58	65.54
529.75	35.11
529.92	60.85
530.09	72.56
530.26	77.24
530.43	53.83
530.60	53.83
530.77	35.11
530.94	51.49
531.11	21.06
531.28	0.00
531.46	9.36
531.63	44.47
531.80	32.77
531.97	60.85
532.14	0.00
532.31	53.83
532.48	44.47
532.65	93.62
532.82	18.72
532.99	18.72
533.16	56.17
533.33	124.05
533.50	0.00
533.67	56.17
533.84	23.41
534.01	30.43
534.18	16.38
534.35	65.54
534.52	70.22
534.69	46.81
534.86	21.06
535.03	25.75
535.20	30.43
535.37	16.38
535.54	51.49
535.71	67.88
535.88	95.96
536.05	39.79
536.22	35.11
536.38	39.79
536.55	42.13
536.72	72.56
536.89	11.70
537.06	9.36
537.23	53.83
537.40	65.54
537.57	11.70
537.74	53.83
537.91	35.11
538.08	9.36
538.25	25.75
538.42	25.75
538.59	9.36
538.75	60.85
538.92	14.04
539.09	39.79
539.26	18.72
539.43	37.45
539.60	77.24
539.77	88.94
539.94	152.13
540.11	72.56
540.28	93.62
540.44	67.88
540.61	28.09
540.78	23.41
540.95	60.85
541.12	46.81
541.29	0.00
541.46	25.75
541.62	51.49
541.79	126.39
541.96	63.19
542.13	0.00
542.30	60.85
542.47	46.81
542.63	18.72
542.80	72.56
542.97	0.00
543.14	16.38
543.31	28.09
543.48	56.17
543.64	0.00
543.81	102.98
543.98	58.51
544.15	7.02
544.32	102.98
544.48	53.83
544.65	49.15
544.82	58.51
544.99	91.28
545.16	67.88
545.32	0.00
545.49	0.00
545.66	42.13
545.83	91.28
546.00	70.22
546.16	11.70
546.33	95.96
546.50	60.85
546.67	9.36
546.83	11.70
547.00	49.15
547.17	42.13
547.34	0.00
547.50	32.77
547.67	11.70
547.84	74.90
548.00	110.01
548.17	11.70
548.34	35.11
548.51	51.49
548.67	21.06
548.84	0.00
549.01	79.58
549.18	0.00
549.34	51.49
549.51	21.06
549.68	0.00
549.84	110.01
550.01	39.79
550.18	18.72
550.34	84.26
550.51	23.41
550.68	84.26
550.84	37.45
551.01	46.81
551.18	46.81
551.34	56.17
551.51	0.00
551.68	114.69
551.84	2.34
552.01	95.96
552.18	9.36
552.34	30.43
552.51	63.19
552.68	14.04
552.84	0.00
553.01	0.00
553.18	9.36
553.34	16.38
553.51	0.00
553.67	58.51
553.84	77.24
554.01	42.13
554.17	0.00
554.34	42.13
554.51	44.47
554.67	0.00
554.84	65.54
555.00	81.92
555.17	72.56
555.33	0.00
555.50	28.09
555.67	63.19
555.83	42.13
556.00	107.66
556.16	77.24
556.33	65.54
556.50	49.15
556.66	23.41
556.83	32.77
556.99	32.77
557.16	93.62
557.32	46.81
557.49	65.54
557.65	105.32
557.82	0.00
557.98	25.75
558.15	37.45
558.32	0.00
558.48	119.37
558.65	58.51
558.81	77.24
558.98	9.36
559.14	0.00
559.31	0.00
559.47	72.56
559.64	0.00
559.80	21.06
559.97	44.47
560.13	16.38
560.30	0.00
560.46	44.47
560.63	72.56
560.79	84.26
560.96	46.81
561.12	23.41
561.29	0.00
561.45	23.41
561.61	0.00
561.78	77.24
561.94	2.34
562.11	65.54
562.27	84.26
562.44	0.00
562.60	0.00
562.77	65.54
562.93	35.11
563.10	7.02
563.26	74.90
563.42	74.90
563.59	0.00
563.75	53.83
563.92	58.51
564.08	0.00
564.24	58.51
564.41	30.43
564.57	0.00
564.74	7.02
564.90	21.06
565.07	14.04
565.23	53.83
565.39	25.75
565.56	84.26
565.72	65.54
565.88	44.47
566.05	42.13
566.21	65.54
566.38	0.00
566.54	23.41
566.70	0.00
566.87	0.00
567.03	0.00
567.19	25.75
567.36	56.17
567.52	21.06
567.68	30.43
567.85	25.75
568.01	0.00
568.17	105.32
568.34	46.81
568.50	46.81
568.66	11.70
568.83	56.17
568.99	65.54
569.15	9.36
569.32	9.36
569.48	81.92
569.64	60.85
569.81	21.06
569.97	30.43
570.13	100.64
570.30	163.84
570.46	56.17
570.62	14.04
570.78	35.11
570.95	14.04
571.11	93.62
571.27	91.28
571.43	84.26
571.60	4.68
571.76	0.00
571.92	0.00
572.09	58.51
572.25	81.92
572.41	0.00
572.57	0.00
572.74	21.06
572.90	16.38
573.06	0.00
573.22	0.00
573.38	84.26
573.55	77.24
573.71	0.00
573.87	74.90
574.03	105.32
574.20	60.85
574.36	28.09
574.52	0.00
574.68	67.88
574.84	0.00
575.01	42.13
575.17	23.41
575.33	0.00
575.49	18.72
575.65	65.54
575.82	67.88
575.98	88.94
576.14	79.58
576.30	65.54
576.46	14.04
576.62	28.09
576.79	95.96
576.95	67.88
577.11	0.00
577.27	30.43
577.43	58.51
577.59	37.45
577.75	91.28
577.92	65.54
578.08	35.11
578.24	0.00
578.40	0.00
578.56	79.58
578.72	21.06
578.88	79.58
579.04	42.13
579.21	117.03
579.37	7.02
579.53	30.43
579.69	0.00
579.85	53.83
580.01	81.92
580.17	81.92
580.33	39.79
580.49	46.81
580.65	7.02
580.82	9.36
580.98	46.81
581.14	42.13
581.30	30.43
581.46	119.37
581.62	107.66
581.78	32.77
581.94	91.28
582.10	25.75
582.26	21.06
582.42	32.77
582.58	74.90
582.74	72.56
582.90	39.79
583.06	88.94
583.22	102.98
583.38	44.47
583.54	105.32
583.70	30.43
583.86	135.75
584.02	49.15
584.18	86.60
584.34	100.64
584.50	203.63
584.66	1004.09
584.82	2267.98
584.98	3169.09
585.14	2822.69
585.30	1790.51
585.46	1125.80
585.62	674.07
585.78	351.08
585.94	156.82
586.10	84.26
586.26	84.26
586.42	84.26
586.58	49.15
586.74	58.51
586.90	2.34
587.06	46.81
587.22	112.35
587.38	67.88
587.54	49.15
587.70	145.11
587.86	297.25
588.02	259.80
588.18	182.56
588.34	149.79
588.49	91.28
588.65	65.54
588.81	117.03
588.97	79.58
589.13	53.83
589.29	37.45
589.45	77.24
589.61	39.79
589.77	56.17
589.93	11.70
590.08	39.79
590.24	72.56
590.40	18.72
590.56	0.00
590.72	28.09
590.88	53.83
591.04	49.15
591.20	16.38
591.35	37.45
591.51	0.00
591.67	0.00
591.83	16.38
591.99	72.56
592.15	51.49
592.31	49.15
592.46	11.70
592.62	0.00
592.78	25.75
592.94	0.00
593.10	25.75
593.26	46.81
593.41	51.49
593.57	81.92
593.73	46.81
593.89	79.58
594.05	299.59
594.20	458.74
594.36	451.72
594.52	294.91
594.68	166.18
594.84	138.09
594.99	156.82
595.15	65.54
595.31	2.34
595.47	4.68
595.62	74.90
595.78	51.49
595.94	14.04
596.10	58.51
596.25	60.85
596.41	65.54
596.57	51.49
596.73	51.49
596.88	65.54
597.04	98.30
597.20	124.05
597.36	156.82
597.51	142.77
597.67	117.03
597.83	93.62
597.99	56.17
598.14	124.05
598.30	58.51
598.46	9.36
598.61	14.04
598.77	21.06
598.93	39.79
599.09	70.22
599.24	11.70
599.40	4.68
599.56	2.34
599.71	32.77
599.87	16.38
600.03	42.13
600.18	88.94
600.34	39.79
600.50	23.41
600.65	0.00
600.81	35.11
600.97	16.38
601.12	51.49
601.28	72.56
601.44	0.00
601.59	107.66
601.75	25.75
601.91	7.02
602.06	72.56
602.22	63.19
602.37	107.66
602.53	81.92
602.69	91.28
602.84	91.28
603.00	128.73
603.16	72.56
603.31	79.58
603.47	25.75
603.62	93.62
603.78	79.58
603.94	0.00
604.09	32.77
604.25	49.15
604.40	53.83
604.56	4.68
604.71	60.85
604.87	147.45
605.03	0.00
605.18	63.19
605.34	65.54
605.49	91.28
605.65	32.77
605.80	30.43
605.96	65.54
606.12	56.17
606.27	0.00
606.43	35.11
606.58	121.71
606.74	77.24
606.89	215.33
607.05	301.93
607.20	348.74
607.36	337.04
607.51	180.22
607.67	187.24
607.82	124.05
607.98	131.07
608.13	91.28
608.29	65.54
608.44	86.60
608.60	35.11
608.75	51.49
608.91	112.35
609.06	294.91
609.22	521.94
609.37	678.76
609.53	552.37
609.68	383.85
609.84	257.46
609.99	224.69
610.15	74.90
610.30	70.22
610.46	65.54
610.61	46.81
610.76	42.13
610.92	95.96
611.07	86.60
611.23	70.22
611.38	42.13
611.54	79.58
611.69	112.35
611.84	65.54
612.00	72.56
612.15	25.75
612.31	11.70
612.46	49.15
612.62	46.81
612.77	44.47
612.92	63.19
613.08	0.00
613.23	128.73
613.39	72.56
613.54	53.83
613.69	257.46
613.85	606.20
614.00	936.21
614.15	966.64
614.31	650.67
614.46	510.24
614.62	348.74
614.77	140.43
614.92	84.26
615.08	72.56
615.23	51.49
615.38	72.56
615.54	53.83
615.69	37.45
615.84	220.01
616.00	220.01
616.15	278.52
616.30	264.48
616.46	231.71
616.61	140.43
616.76	107.66
616.92	9.36
617.07	39.79
617.22	53.83
617.37	84.26
617.53	44.47
617.68	35.11
617.83	0.00
617.99	39.79
618.14	67.88
618.29	91.28
618.45	18.72
618.60	156.82
618.75	74.90
618.90	72.56
619.06	58.51
619.21	117.03
619.36	0.00
619.51	16.38
619.67	44.47
619.82	46.81
619.97	91.28
620.12	37.45
620.28	58.51
620.43	23.41
620.58	35.11
620.73	4.68
620.89	46.81
621.04	74.90
621.19	152.13
621.34	191.92
621.49	187.24
621.65	184.90
621.80	163.84
621.95	18.72
622.10	44.47
622.25	156.82
622.41	72.56
622.56	74.90
622.71	23.41
622.86	14.04
623.01	56.17
623.16	23.41
623.32	35.11
623.47	23.41
623.62	14.04
623.77	37.45
623.92	0.00
624.07	42.13
624.23	81.92
624.38	79.58
624.53	0.00
624.68	58.51
624.83	30.43
624.98	16.38
625.13	51.49
625.29	4.68
625.44	91.28
625.59	65.54
625.74	53.83
625.89	72.56
626.04	201.29
626.19	299.59
626.34	512.58
626.49	603.86
626.65	360.44
626.80	259.80
626.95	210.65
627.10	114.69
627.25	119.37
627.40	56.17
627.55	18.72
627.70	23.41
627.85	0.00
628.00	128.73
628.15	37.45
628.30	42.13
628.45	65.54
628.60	72.56
628.76	18.72
628.91	18.72
629.06	0.00
629.21	95.96
629.36	0.00
629.51	30.43
629.66	4.68
629.81	60.85
629.96	84.26
630.11	140.43
630.26	107.66
630.41	156.82
630.56	63.19
630.71	102.98
630.86	65.54
631.01	23.41
631.16	44.47
631.31	42.13
631.46	67.88
631.61	95.96
631.76	9.36
631.91	65.54
632.06	86.60
632.21	86.60
632.36	42.13
632.51	11.70
632.66	60.85
632.81	79.58
632.96	229.37
633.10	379.17
633.25	353.42
633.40	269.16
633.55	210.65
633.70	102.98
633.85	93.62
634.00	145.11
634.15	0.00
634.30	39.79
634.45	0.00
634.60	16.38
634.75	86.60
634.90	70.22
635.05	11.70
635.19	0.00
635.34	32.77
635.49	60.85
635.64	67.88
635.79	37.45
635.94	30.43
636.09	70.22
636.24	44.47
636.39	93.62
636.53	32.77
636.68	105.32
636.83	46.81
636.98	126.39
637.13	102.98
637.28	65.54
637.43	102.98
637.57	79.58
637.72	161.50
637.87	418.96
638.02	582.79
638.17	624.92
638.32	470.45
638.46	313.63
638.61	170.86
638.76	175.54
638.91	102.98
639.06	25.75
639.20	60.85
639.35	88.94
639.50	175.54
639.65	212.99
639.80	617.90
639.94	933.87
640.09	1039.20
640.24	851.96
640.39	510.24
640.54	330.02
640.68	257.46
640.83	67.88
640.98	86.60
641.13	70.22
641.27	28.09
641.42	79.58
641.57	74.90
641.72	7.02
641.86	81.92
642.01	23.41
642.16	0.00
642.31	53.83
642.45	0.00
642.60	23.41
642.75	39.79
642.90	0.00
643.04	114.69
643.19	107.66
643.34	79.58
643.48	114.69
643.63	81.92
643.78	42.13
643.93	114.69
644.07	56.17
644.22	9.36
644.37	25.75
644.51	81.92
644.66	114.69
644.81	119.37
644.95	168.52
645.10	39.79
645.25	28.09
645.39	0.00
645.54	0.00
645.69	56.17
645.83	37.45
645.98	67.88
646.13	84.26
646.27	49.15
646.42	21.06
646.57	67.88
646.71	0.00
646.86	0.00
647.00	0.00
647.15	60.85
647.30	53.83
647.44	53.83
647.59	42.13
647.74	0.00
647.88	110.01
648.03	58.51
648.17	46.81
648.32	53.83
648.47	58.51
648.61	49.15
648.76	35.11
648.90	44.47
649.05	51.49
649.20	0.00
649.34	65.54
649.49	110.01
649.63	77.24
649.78	7.02
649.92	39.79
650.07	138.09
650.21	168.52
650.36	449.38
650.51	456.40
650.65	465.77
650.80	327.68
650.94	234.05
651.09	98.30
651.23	93.62
651.38	56.17
651.52	60.85
651.67	65.54
651.81	42.13
651.96	67.88
652.10	0.00
652.25	0.00
652.39	35.11
652.54	32.77
652.68	0.00
652.83	11.70
652.97	187.24
653.12	250.44
653.26	259.80
653.41	156.82
653.55	107.66
653.70	25.75
653.84	11.70
653.99	72.56
654.13	4.68
654.27	74.90
654.42	11.70
654.56	65.54
654.71	49.15
654.85	0.00
655.00	46.81
655.14	0.00
655.29	32.77
655.43	11.70
655.57	0.00
655.72	77.24
655.86	81.92
656.01	2.34
656.15	2.34
656.30	42.13
656.44	23.41
656.58	7.02
656.73	63.19
656.87	11.70
657.01	105.32
657.16	77.24
657.30	32.77
657.45	42.13
657.59	39.79
657.73	0.00
657.88	35.11
658.02	30.43
658.16	0.00
658.31	46.81
658.45	42.13
658.60	77.24
658.74	72.56
658.88	98.30
659.03	84.26
659.17	30.43
659.31	84.26
659.46	149.79
659.60	208.31
659.74	222.35
659.89	271.50
660.03	161.50
660.17	107.66
660.32	86.60
660.46	14.04
660.60	42.13
660.74	72.56
660.89	0.00
661.03	0.00
661.17	4.68
661.32	23.41
661.46	102.98
661.60	102.98
661.74	51.49
661.89	100.64
662.03	0.00
662.17	44.47
662.31	11.70
662.46	35.11
662.60	56.17
662.74	67.88
662.88	39.79
663.03	39.79
663.17	114.69
663.31	77.24
663.45	98.30
663.60	0.00
663.74	46.81
663.88	0.00
664.02	25.75
664.17	30.43
664.31	32.77
664.45	11.70
664.59	2.34
664.73	16.38
664.88	42.13
665.02	4.68
665.16	65.54
665.30	49.15
665.44	2.34
665.59	9.36
665.73	14.04
665.87	32.77
666.01	44.47
666.15	88.94
666.29	30.43
666.44	53.83
666.58	79.58
666.72	46.81
666.86	51.49
667.00	58.51
667.14	65.54
667.28	107.66
667.43	182.56
667.57	400.23
667.71	386.19
667.85	313.63
667.99	348.74
668.13	220.01
668.27	163.84
668.41	159.16
668.56	93.62
668.70	72.56
668.84	0.00
668.98	44.47
669.12	0.00
669.26	0.00
669.40	14.04
669.54	4.68
669.68	49.15
669.82	56.17
669.96	14.04
670.10	42.13
670.25	0.00
670.39	23.41
670.53	11.70
670.67	30.43
670.81	72.56
670.95	42.13
671.09	4.68
671.23	140.43
671.37	276.18
671.51	236.39
671.65	266.82
671.79	255.12
671.93	166.18
672.07	86.60
672.21	35.11
672.35	39.79
672.49	23.41
672.63	32.77
672.77	53.83
672.91	0.00
673.05	21.06
673.19	63.19
673.33	56.17
673.47	0.00
673.61	42.13
673.75	0.00
673.89	0.00
674.03	44.47
674.17	30.43
674.31	110.01
674.45	58.51
674.59	88.94
674.73	56.17
674.87	14.04
675.01	39.79
675.15	18.72
675.29	46.81
675.43	11.70
675.56	65.54
675.70	60.85
675.84	46.81
675.98	0.00
676.12	77.24
676.26	9.36
676.40	91.28
676.54	0.00
676.68	56.17
676.82	0.00
676.96	88.94
677.10	7.02
677.23	70.22
677.37	74.90
677.51	0.00
677.65	98.30
677.79	51.49
677.93	39.79
678.07	11.70
678.21	44.47
678.34	32.77
678.48	131.07
678.62	4.68
678.76	0.00
678.90	30.43
679.04	44.47
679.18	0.00
679.31	0.00
679.45	28.09
679.59	32.77
679.73	0.00
679.87	21.06
680.00	42.13
680.14	58.51
680.28	30.43
680.42	9.36
680.56	51.49
680.70	58.51
680.83	0.00
680.97	49.15
681.11	39.79
681.25	74.90
681.39	79.58
681.52	58.51
681.66	0.00
681.80	32.77
681.94	0.00
682.07	70.22
682.21	56.17
682.35	0.00
682.49	37.45
682.62	7.02
682.76	35.11
682.90	25.75
683.04	0.00
683.17	28.09
683.31	21.06
683.45	44.47
683.59	35.11
683.72	0.00
683.86	39.79
684.00	0.00
684.13	2.34
684.27	0.00
684.41	46.81
684.55	0.00
684.68	56.17
684.82	0.00
684.96	56.17
685.09	37.45
685.23	9.36
685.37	0.00
685.50	0.00
685.64	67.88
685.78	72.56
685.91	70.22
686.05	72.56
686.19	58.51
686.32	30.43
686.46	84.26
686.60	0.00
686.73	39.79
686.87	77.24
687.01	67.88
687.14	0.00
687.28	35.11
687.42	51.49
687.55	21.06
687.69	0.00
687.82	58.51
687.96	53.83
688.10	88.94
688.23	58.51
688.37	14.04
688.50	25.75
688.64	126.39
688.78	21.06
688.91	42.13
689.05	42.13
689.18	18.72
689.32	65.54
689.46	60.85
689.59	107.66
689.73	18.72
689.86	11.70
690.00	46.81
690.13	0.00
690.27	35.11
690.41	35.11
690.54	0.00
690.68	56.17
690.81	23.41
690.95	63.19
691.08	11.70
691.22	0.00
691.35	67.88
691.49	110.01
691.62	16.38
691.76	105.32
691.89	86.60
692.03	53.83
692.16	74.90
692.30	30.43
692.43	88.94
692.57	173.20
692.70	184.90
692.84	259.80
692.97	231.71
693.11	138.09
693.24	81.92
693.38	16.38
693.51	152.13
693.65	72.56
693.78	30.43
693.92	53.83
694.05	74.90
694.19	14.04
694.32	49.15
694.45	16.38
694.59	42.13
694.72	46.81
694.86	14.04
694.99	30.43
695.13	42.13
695.26	67.88
695.39	39.79
695.53	42.13
695.66	42.13
695.80	18.72
695.93	14.04
696.07	9.36
696.20	0.00
696.33	21.06
696.47	63.19
696.60	32.77
696.73	32.77
696.87	14.04
697.00	67.88
697.14	0.00
697.27	32.77
697.40	39.79
697.54	28.09
697.67	102.98
697.80	23.41
697.94	35.11
698.07	16.38
698.21	88.94
698.34	39.79
698.47	35.11
698.61	53.83
698.74	0.00
698.87	37.45
699.01	11.70
699.14	18.72
699.27	70.22
699.40	28.09
699.54	28.09
699.67	0.00
699.80	37.45
699.94	0.00
700.07	0.00
700.20	0.00
700.34	0.00
700.47	67.88
700.60	70.22
700.73	23.41
700.87	21.06
701.00	37.45
701.13	46.81
701.26	28.09
701.40	0.00
701.53	4.68
701.66	0.00
701.79	42.13
701.93	37.45
702.06	65.54
702.19	25.75
702.32	39.79
702.46	28.09
702.59	44.47
702.72	102.98
702.85	149.79
702.99	325.33
703.12	376.83
703.25	376.83
703.38	390.87
703.51	294.91
703.65	203.63
703.78	187.24
703.91	142.77
704.04	30.43
704.17	28.09
704.31	60.85
704.44	53.83
704.57	0.00
704.70	46.81
704.83	60.85
704.96	72.56
705.10	28.09
705.23	4.68
>>>>>End Processed Spectral Data<<<<<
