SpectraSuite Data File
++++++++++++++++++++++++++++++++++++
Date: Fri Oct 04 12:13:36 GMT-05:00 2013
User: price-jones
Dark Spectrum Present: No
Reference Spectrum Present: No
Number of Sampled Component Spectra: 1
Spectrometers: USB2+H05261
Integration Time (usec): 10000 (USB2+H05261)
Spectra Averaged: 1 (USB2+H05261)
Boxcar Smoothing: 0 (USB2+H05261)
Correct for Electrical Dark: No (USB2+H05261)
Strobe/Lamp Enabled: No (USB2+H05261)
Correct for Detector Non-linearity: No (USB2+H05261)
Correct for Stray Light: No (USB2+H05261)
Number of Pixels in Processed Spectrum: 2048
>>>>>Begin Processed Spectral Data<<<<<
365.73	0.00
365.92	0.00
366.12	0.00
366.32	0.00
366.52	0.00
366.72	0.00
366.91	0.00
367.11	0.00
367.31	0.00
367.51	0.00
367.70	0.00
367.90	0.00
368.10	0.00
368.30	0.00
368.49	0.00
368.69	0.00
368.89	0.00
369.09	0.00
369.28	0.00
369.48	0.00
369.68	0.00
369.87	0.00
370.07	0.00
370.27	0.00
370.47	0.00
370.66	0.00
370.86	0.00
371.06	21.06
371.25	0.00
371.45	0.00
371.65	39.79
371.84	44.47
372.04	0.00
372.24	49.15
372.44	0.00
372.63	53.83
372.83	0.00
373.03	0.00
373.22	39.79
373.42	14.04
373.62	46.81
373.81	84.26
374.01	56.17
374.21	0.00
374.40	63.19
374.60	142.77
374.79	51.49
374.99	65.54
375.19	0.00
375.38	23.41
375.58	46.81
375.78	0.00
375.97	7.02
376.17	60.85
376.37	0.00
376.56	23.41
376.76	0.00
376.95	21.06
377.15	0.00
377.35	37.45
377.54	18.72
377.74	0.00
377.93	21.06
378.13	28.09
378.33	67.88
378.52	0.00
378.72	0.00
378.91	16.38
379.11	0.00
379.31	2.34
379.50	67.88
379.70	0.00
379.89	0.00
380.09	4.68
380.28	0.00
380.48	65.54
380.68	0.00
380.87	14.04
381.07	72.56
381.26	93.62
381.46	60.85
381.65	46.81
381.85	14.04
382.04	0.00
382.24	14.04
382.43	32.77
382.63	51.49
382.83	14.04
383.02	28.09
383.22	0.00
383.41	21.06
383.61	9.36
383.80	72.56
384.00	0.00
384.19	37.45
384.39	2.34
384.58	0.00
384.78	18.72
384.97	0.00
385.17	0.00
385.36	0.00
385.56	9.36
385.75	42.13
385.95	67.88
386.14	49.15
386.34	0.00
386.53	30.43
386.72	9.36
386.92	58.51
387.11	51.49
387.31	0.00
387.50	0.00
387.70	35.11
387.89	0.00
388.09	0.00
388.28	79.58
388.48	0.00
388.67	79.58
388.86	14.04
389.06	56.17
389.25	16.38
389.45	18.72
389.64	0.00
389.84	65.54
390.03	11.70
390.22	7.02
390.42	77.24
390.61	9.36
390.81	25.75
391.00	51.49
391.19	0.00
391.39	56.17
391.58	7.02
391.78	46.81
391.97	0.00
392.16	37.45
392.36	65.54
392.55	70.22
392.75	0.00
392.94	32.77
393.13	49.15
393.33	7.02
393.52	11.70
393.71	35.11
393.91	18.72
394.10	58.51
394.29	42.13
394.49	25.75
394.68	21.06
394.88	42.13
395.07	28.09
395.26	9.36
395.46	53.83
395.65	4.68
395.84	35.11
396.04	37.45
396.23	16.38
396.42	121.71
396.62	77.24
396.81	11.70
397.00	39.79
397.19	51.49
397.39	11.70
397.58	16.38
397.77	77.24
397.97	0.00
398.16	32.77
398.35	7.02
398.55	11.70
398.74	93.62
398.93	30.43
399.12	67.88
399.32	74.90
399.51	35.11
399.70	23.41
399.90	25.75
400.09	0.00
400.28	0.00
400.47	32.77
400.67	84.26
400.86	0.00
401.05	86.60
401.24	79.58
401.44	44.47
401.63	30.43
401.82	58.51
402.01	49.15
402.21	74.90
402.40	49.15
402.59	39.79
402.78	14.04
402.97	100.64
403.17	53.83
403.36	39.79
403.55	91.28
403.74	39.79
403.93	0.00
404.13	42.13
404.32	65.54
404.51	44.47
404.70	58.51
404.89	60.85
405.09	100.64
405.28	25.75
405.47	35.11
405.66	0.00
405.85	70.22
406.05	0.00
406.24	16.38
406.43	74.90
406.62	58.51
406.81	0.00
407.00	21.06
407.20	21.06
407.39	42.13
407.58	16.38
407.77	56.17
407.96	58.51
408.15	35.11
408.34	91.28
408.54	0.00
408.73	16.38
408.92	18.72
409.11	58.51
409.30	7.02
409.49	9.36
409.68	0.00
409.87	37.45
410.07	28.09
410.26	2.34
410.45	0.00
410.64	30.43
410.83	0.00
411.02	30.43
411.21	21.06
411.40	86.60
411.59	65.54
411.78	37.45
411.98	74.90
412.17	72.56
412.36	11.70
412.55	4.68
412.74	0.00
412.93	91.28
413.12	88.94
413.31	37.45
413.50	28.09
413.69	88.94
413.88	37.45
414.07	79.58
414.26	93.62
414.45	0.00
414.64	25.75
414.83	51.49
415.02	25.75
415.22	42.13
415.41	39.79
415.60	0.00
415.79	30.43
415.98	23.41
416.17	23.41
416.36	0.00
416.55	0.00
416.74	56.17
416.93	39.79
417.12	0.00
417.31	49.15
417.50	0.00
417.69	56.17
417.88	46.81
418.07	86.60
418.26	46.81
418.45	0.00
418.64	95.96
418.83	65.54
419.02	79.58
419.21	30.43
419.39	84.26
419.58	25.75
419.77	9.36
419.96	32.77
420.15	98.30
420.34	60.85
420.53	39.79
420.72	58.51
420.91	39.79
421.10	37.45
421.29	51.49
421.48	56.17
421.67	98.30
421.86	72.56
422.05	35.11
422.24	25.75
422.43	30.43
422.61	53.83
422.80	63.19
422.99	2.34
423.18	0.00
423.37	0.00
423.56	28.09
423.75	39.79
423.94	51.49
424.13	44.47
424.32	81.92
424.50	0.00
424.69	88.94
424.88	79.58
425.07	98.30
425.26	28.09
425.45	51.49
425.64	18.72
425.83	0.00
426.01	0.00
426.20	46.81
426.39	95.96
426.58	72.56
426.77	58.51
426.96	63.19
427.15	35.11
427.33	46.81
427.52	2.34
427.71	23.41
427.90	65.54
428.09	53.83
428.28	42.13
428.46	23.41
428.65	67.88
428.84	98.30
429.03	65.54
429.22	37.45
429.40	35.11
429.59	23.41
429.78	72.56
429.97	49.15
430.16	112.35
430.34	0.00
430.53	0.00
430.72	30.43
430.91	79.58
431.10	28.09
431.28	0.00
431.47	56.17
431.66	37.45
431.85	65.54
432.03	65.54
432.22	114.69
432.41	81.92
432.60	18.72
432.79	56.17
432.97	124.05
433.16	72.56
433.35	74.90
433.54	9.36
433.72	0.00
433.91	14.04
434.10	0.00
434.28	93.62
434.47	79.58
434.66	44.47
434.85	25.75
435.03	11.70
435.22	51.49
435.41	28.09
435.59	4.68
435.78	67.88
435.97	88.94
436.16	63.19
436.34	70.22
436.53	67.88
436.72	51.49
436.90	46.81
437.09	16.38
437.28	37.45
437.46	0.00
437.65	14.04
437.84	79.58
438.02	46.81
438.21	23.41
438.40	67.88
438.58	7.02
438.77	42.13
438.96	9.36
439.14	67.88
439.33	28.09
439.52	30.43
439.70	67.88
439.89	42.13
440.08	28.09
440.26	51.49
440.45	51.49
440.63	58.51
440.82	131.07
441.01	0.00
441.19	32.77
441.38	16.38
441.57	28.09
441.75	11.70
441.94	25.75
442.12	51.49
442.31	32.77
442.50	37.45
442.68	142.77
442.87	0.00
443.05	105.32
443.24	98.30
443.43	42.13
443.61	67.88
443.80	95.96
443.98	16.38
444.17	67.88
444.35	0.00
444.54	14.04
444.73	16.38
444.91	67.88
445.10	110.01
445.28	84.26
445.47	135.75
445.65	0.00
445.84	0.00
446.02	95.96
446.21	95.96
446.39	72.56
446.58	53.83
446.77	37.45
446.95	44.47
447.14	77.24
447.32	56.17
447.51	49.15
447.69	128.73
447.88	114.69
448.06	70.22
448.25	56.17
448.43	70.22
448.62	37.45
448.80	81.92
448.99	63.19
449.17	53.83
449.36	0.00
449.54	81.92
449.73	35.11
449.91	81.92
450.10	23.41
450.28	25.75
450.46	63.19
450.65	88.94
450.83	9.36
451.02	30.43
451.20	91.28
451.39	0.00
451.57	49.15
451.76	49.15
451.94	9.36
452.13	42.13
452.31	56.17
452.49	79.58
452.68	49.15
452.86	44.47
453.05	84.26
453.23	46.81
453.42	98.30
453.60	67.88
453.78	102.98
453.97	58.51
454.15	53.83
454.34	37.45
454.52	32.77
454.70	46.81
454.89	51.49
455.07	72.56
455.26	23.41
455.44	21.06
455.62	65.54
455.81	67.88
455.99	86.60
456.17	35.11
456.36	133.41
456.54	65.54
456.73	0.00
456.91	42.13
457.09	51.49
457.28	35.11
457.46	60.85
457.64	0.00
457.83	56.17
458.01	7.02
458.19	81.92
458.38	39.79
458.56	86.60
458.74	72.56
458.93	58.51
459.11	51.49
459.29	79.58
459.48	86.60
459.66	42.13
459.84	51.49
460.03	30.43
460.21	88.94
460.39	93.62
460.57	72.56
460.76	35.11
460.94	63.19
461.12	74.90
461.31	105.32
461.49	105.32
461.67	21.06
461.85	107.66
462.04	21.06
462.22	53.83
462.40	100.64
462.59	135.75
462.77	63.19
462.95	0.00
463.13	0.00
463.32	28.09
463.50	60.85
463.68	35.11
463.86	84.26
464.05	25.75
464.23	23.41
464.41	0.00
464.59	100.64
464.78	77.24
464.96	7.02
465.14	84.26
465.32	72.56
465.50	42.13
465.69	23.41
465.87	77.24
466.05	63.19
466.23	32.77
466.41	42.13
466.60	84.26
466.78	51.49
466.96	46.81
467.14	35.11
467.32	63.19
467.51	0.00
467.69	119.37
467.87	49.15
468.05	91.28
468.23	14.04
468.41	51.49
468.60	56.17
468.78	102.98
468.96	67.88
469.14	14.04
469.32	53.83
469.50	7.02
469.69	0.00
469.87	53.83
470.05	42.13
470.23	16.38
470.41	53.83
470.59	42.13
470.77	110.01
470.95	140.43
471.14	84.26
471.32	9.36
471.50	112.35
471.68	145.11
471.86	2.34
472.04	46.81
472.22	140.43
472.40	46.81
472.58	51.49
472.77	65.54
472.95	51.49
473.13	49.15
473.31	58.51
473.49	0.00
473.67	81.92
473.85	77.24
474.03	21.06
474.21	58.51
474.39	74.90
474.57	72.56
474.75	58.51
474.93	79.58
475.12	0.00
475.30	4.68
475.48	2.34
475.66	63.19
475.84	60.85
476.02	117.03
476.20	128.73
476.38	100.64
476.56	105.32
476.74	60.85
476.92	44.47
477.10	86.60
477.28	84.26
477.46	37.45
477.64	117.03
477.82	100.64
478.00	0.00
478.18	46.81
478.36	32.77
478.54	53.83
478.72	30.43
478.90	126.39
479.08	46.81
479.26	21.06
479.44	60.85
479.62	93.62
479.80	35.11
479.98	72.56
480.16	37.45
480.34	77.24
480.52	46.81
480.70	21.06
480.88	56.17
481.06	25.75
481.24	49.15
481.41	65.54
481.59	107.66
481.77	58.51
481.95	93.62
482.13	35.11
482.31	70.22
482.49	37.45
482.67	46.81
482.85	95.96
483.03	95.96
483.21	53.83
483.39	79.58
483.57	93.62
483.74	102.98
483.92	84.26
484.10	135.75
484.28	28.09
484.46	81.92
484.64	21.06
484.82	95.96
485.00	84.26
485.18	67.88
485.35	44.47
485.53	112.35
485.71	32.77
485.89	98.30
486.07	0.00
486.25	105.32
486.43	67.88
486.61	107.66
486.78	0.00
486.96	42.13
487.14	23.41
487.32	30.43
487.50	51.49
487.68	84.26
487.85	72.56
488.03	107.66
488.21	39.79
488.39	77.24
488.57	0.00
488.75	107.66
488.92	133.41
489.10	102.98
489.28	60.85
489.46	79.58
489.64	117.03
489.81	63.19
489.99	14.04
490.17	72.56
490.35	124.05
490.53	81.92
490.70	58.51
490.88	86.60
491.06	56.17
491.24	35.11
491.41	51.49
491.59	72.56
491.77	35.11
491.95	65.54
492.13	114.69
492.30	138.09
492.48	49.15
492.66	0.00
492.84	0.00
493.01	149.79
493.19	56.17
493.37	77.24
493.54	58.51
493.72	77.24
493.90	117.03
494.08	145.11
494.25	9.36
494.43	95.96
494.61	42.13
494.79	88.94
494.96	114.69
495.14	95.96
495.32	98.30
495.49	49.15
495.67	91.28
495.85	112.35
496.02	107.66
496.20	21.06
496.38	46.81
496.55	81.92
496.73	79.58
496.91	102.98
497.09	37.45
497.26	77.24
497.44	131.07
497.62	56.17
497.79	46.81
497.97	39.79
498.14	67.88
498.32	114.69
498.50	93.62
498.67	25.75
498.85	70.22
499.03	58.51
499.20	32.77
499.38	107.66
499.56	37.45
499.73	95.96
499.91	107.66
500.08	140.43
500.26	49.15
500.44	88.94
500.61	70.22
500.79	77.24
500.97	88.94
501.14	0.00
501.32	81.92
501.49	110.01
501.67	86.60
501.84	81.92
502.02	77.24
502.20	63.19
502.37	58.51
502.55	110.01
502.72	53.83
502.90	93.62
503.07	63.19
503.25	102.98
503.43	51.49
503.60	81.92
503.78	112.35
503.95	100.64
504.13	102.98
504.30	121.71
504.48	112.35
504.65	35.11
504.83	37.45
505.01	84.26
505.18	81.92
505.36	84.26
505.53	49.15
505.71	18.72
505.88	81.92
506.06	93.62
506.23	35.11
506.41	0.00
506.58	152.13
506.76	11.70
506.93	110.01
507.11	72.56
507.28	121.71
507.46	117.03
507.63	98.30
507.81	42.13
507.98	86.60
508.16	60.85
508.33	91.28
508.50	79.58
508.68	135.75
508.85	98.30
509.03	88.94
509.20	91.28
509.38	112.35
509.55	60.85
509.73	110.01
509.90	42.13
510.08	56.17
510.25	86.60
510.42	81.92
510.60	67.88
510.77	126.39
510.95	56.17
511.12	100.64
511.30	16.38
511.47	56.17
511.64	86.60
511.82	117.03
511.99	117.03
512.17	70.22
512.34	39.79
512.51	58.51
512.69	65.54
512.86	86.60
513.04	39.79
513.21	81.92
513.38	37.45
513.56	102.98
513.73	95.96
513.90	105.32
514.08	140.43
514.25	65.54
514.43	72.56
514.60	74.90
514.77	100.64
514.95	72.56
515.12	65.54
515.29	114.69
515.47	32.77
515.64	77.24
515.81	39.79
515.99	23.41
516.16	95.96
516.33	30.43
516.51	0.00
516.68	84.26
516.85	16.38
517.03	88.94
517.20	37.45
517.37	63.19
517.54	49.15
517.72	81.92
517.89	67.88
518.06	32.77
518.24	84.26
518.41	88.94
518.58	102.98
518.75	42.13
518.93	110.01
519.10	91.28
519.27	128.73
519.45	93.62
519.62	124.05
519.79	124.05
519.96	102.98
520.14	88.94
520.31	102.98
520.48	77.24
520.65	100.64
520.83	56.17
521.00	110.01
521.17	131.07
521.34	117.03
521.52	95.96
521.69	84.26
521.86	72.56
522.03	149.79
522.20	95.96
522.38	112.35
522.55	67.88
522.72	63.19
522.89	39.79
523.07	126.39
523.24	95.96
523.41	110.01
523.58	79.58
523.75	72.56
523.92	44.47
524.10	53.83
524.27	79.58
524.44	81.92
524.61	131.07
524.78	77.24
524.96	95.96
525.13	28.09
525.30	142.77
525.47	105.32
525.64	86.60
525.81	32.77
525.98	70.22
526.16	53.83
526.33	126.39
526.50	63.19
526.67	46.81
526.84	56.17
527.01	84.26
527.18	0.00
527.36	95.96
527.53	39.79
527.70	35.11
527.87	100.64
528.04	37.45
528.21	18.72
528.38	102.98
528.55	88.94
528.72	79.58
528.89	79.58
529.07	46.81
529.24	133.41
529.41	53.83
529.58	100.64
529.75	117.03
529.92	124.05
530.09	28.09
530.26	65.54
530.43	93.62
530.60	133.41
530.77	23.41
530.94	112.35
531.11	65.54
531.28	70.22
531.46	70.22
531.63	145.11
531.80	37.45
531.97	98.30
532.14	88.94
532.31	60.85
532.48	30.43
532.65	72.56
532.82	117.03
532.99	86.60
533.16	102.98
533.33	91.28
533.50	81.92
533.67	67.88
533.84	126.39
534.01	105.32
534.18	98.30
534.35	126.39
534.52	107.66
534.69	23.41
534.86	79.58
535.03	81.92
535.20	88.94
535.37	170.86
535.54	86.60
535.71	86.60
535.88	119.37
536.05	53.83
536.22	53.83
536.38	65.54
536.55	110.01
536.72	91.28
536.89	88.94
537.06	74.90
537.23	79.58
537.40	79.58
537.57	110.01
537.74	107.66
537.91	77.24
538.08	39.79
538.25	95.96
538.42	84.26
538.59	65.54
538.75	105.32
538.92	63.19
539.09	51.49
539.26	0.00
539.43	44.47
539.60	88.94
539.77	72.56
539.94	58.51
540.11	93.62
540.28	105.32
540.44	67.88
540.61	88.94
540.78	53.83
540.95	42.13
541.12	77.24
541.29	42.13
541.46	70.22
541.62	65.54
541.79	133.41
541.96	60.85
542.13	105.32
542.30	112.35
542.47	25.75
542.63	79.58
542.80	98.30
542.97	117.03
543.14	126.39
543.31	128.73
543.48	37.45
543.64	105.32
543.81	95.96
543.98	86.60
544.15	25.75
544.32	142.77
544.48	67.88
544.65	95.96
544.82	79.58
544.99	81.92
545.16	77.24
545.32	105.32
545.49	0.00
545.66	102.98
545.83	175.54
546.00	28.09
546.16	46.81
546.33	23.41
546.50	201.29
546.67	44.47
546.83	161.50
547.00	93.62
547.17	138.09
547.34	72.56
547.50	77.24
547.67	53.83
547.84	72.56
548.00	98.30
548.17	35.11
548.34	65.54
548.51	112.35
548.67	37.45
548.84	95.96
549.01	72.56
549.18	91.28
549.34	163.84
549.51	100.64
549.68	81.92
549.84	105.32
550.01	67.88
550.18	67.88
550.34	95.96
550.51	72.56
550.68	126.39
550.84	77.24
551.01	175.54
551.18	35.11
551.34	25.75
551.51	114.69
551.68	56.17
551.84	39.79
552.01	110.01
552.18	100.64
552.34	58.51
552.51	81.92
552.68	100.64
552.84	44.47
553.01	67.88
553.18	63.19
553.34	51.49
553.51	105.32
553.67	51.49
553.84	110.01
554.01	63.19
554.17	91.28
554.34	126.39
554.51	100.64
554.67	133.41
554.84	63.19
555.00	121.71
555.17	100.64
555.33	72.56
555.50	63.19
555.67	56.17
555.83	53.83
556.00	72.56
556.16	180.22
556.33	121.71
556.50	145.11
556.66	56.17
556.83	53.83
556.99	39.79
557.16	112.35
557.32	98.30
557.49	14.04
557.65	2.34
557.82	51.49
557.98	39.79
558.15	102.98
558.32	84.26
558.48	74.90
558.65	32.77
558.81	119.37
558.98	67.88
559.14	91.28
559.31	100.64
559.47	100.64
559.64	88.94
559.80	18.72
559.97	30.43
560.13	65.54
560.30	84.26
560.46	49.15
560.63	25.75
560.79	138.09
560.96	117.03
561.12	161.50
561.29	105.32
561.45	67.88
561.61	107.66
561.78	102.98
561.94	140.43
562.11	98.30
562.27	102.98
562.44	154.48
562.60	119.37
562.77	77.24
562.93	93.62
563.10	175.54
563.26	91.28
563.42	102.98
563.59	93.62
563.75	105.32
563.92	37.45
564.08	70.22
564.24	84.26
564.41	112.35
564.57	114.69
564.74	53.83
564.90	107.66
565.07	88.94
565.23	88.94
565.39	44.47
565.56	77.24
565.72	114.69
565.88	117.03
566.05	81.92
566.21	154.48
566.38	46.81
566.54	60.85
566.70	119.37
566.87	77.24
567.03	79.58
567.19	81.92
567.36	81.92
567.52	56.17
567.68	110.01
567.85	60.85
568.01	72.56
568.17	37.45
568.34	56.17
568.50	11.70
568.66	81.92
568.83	63.19
568.99	86.60
569.15	86.60
569.32	88.94
569.48	114.69
569.64	56.17
569.81	91.28
569.97	46.81
570.13	51.49
570.30	0.00
570.46	81.92
570.62	46.81
570.78	140.43
570.95	58.51
571.11	102.98
571.27	28.09
571.43	77.24
571.60	63.19
571.76	56.17
571.92	53.83
572.09	42.13
572.25	81.92
572.41	49.15
572.57	32.77
572.74	138.09
572.90	145.11
573.06	56.17
573.22	95.96
573.38	35.11
573.55	91.28
573.71	72.56
573.87	28.09
574.03	84.26
574.20	124.05
574.36	93.62
574.52	81.92
574.68	4.68
574.84	0.00
575.01	32.77
575.17	67.88
575.33	100.64
575.49	58.51
575.65	60.85
575.82	46.81
575.98	46.81
576.14	110.01
576.30	35.11
576.46	67.88
576.62	37.45
576.79	105.32
576.95	18.72
577.11	121.71
577.27	37.45
577.43	16.38
577.59	100.64
577.75	98.30
577.92	37.45
578.08	39.79
578.24	91.28
578.40	53.83
578.56	28.09
578.72	107.66
578.88	84.26
579.04	65.54
579.21	93.62
579.37	84.26
579.53	126.39
579.69	110.01
579.85	102.98
580.01	86.60
580.17	37.45
580.33	56.17
580.49	56.17
580.65	74.90
580.82	9.36
580.98	117.03
581.14	0.00
581.30	119.37
581.46	14.04
581.62	119.37
581.78	86.60
581.94	126.39
582.10	56.17
582.26	51.49
582.42	60.85
582.58	58.51
582.74	39.79
582.90	84.26
583.06	140.43
583.22	32.77
583.38	42.13
583.54	53.83
583.70	86.60
583.86	100.64
584.02	114.69
584.18	93.62
584.34	79.58
584.50	88.94
584.66	58.51
584.82	74.90
584.98	98.30
585.14	11.70
585.30	138.09
585.46	152.13
585.62	107.66
585.78	81.92
585.94	42.13
586.10	56.17
586.26	91.28
586.42	114.69
586.58	119.37
586.74	91.28
586.90	77.24
587.06	23.41
587.22	0.00
587.38	105.32
587.54	72.56
587.70	65.54
587.86	74.90
588.02	60.85
588.18	60.85
588.34	23.41
588.49	9.36
588.65	126.39
588.81	88.94
588.97	63.19
589.13	49.15
589.29	77.24
589.45	44.47
589.61	37.45
589.77	9.36
589.93	138.09
590.08	53.83
590.24	95.96
590.40	67.88
590.56	98.30
590.72	77.24
590.88	18.72
591.04	39.79
591.20	49.15
591.35	98.30
591.51	156.82
591.67	53.83
591.83	91.28
591.99	63.19
592.15	72.56
592.31	53.83
592.46	84.26
592.62	77.24
592.78	39.79
592.94	32.77
593.10	25.75
593.26	81.92
593.41	35.11
593.57	72.56
593.73	23.41
593.89	0.00
594.05	70.22
594.20	32.77
594.36	39.79
594.52	65.54
594.68	81.92
594.84	84.26
594.99	53.83
595.15	126.39
595.31	46.81
595.47	107.66
595.62	100.64
595.78	140.43
595.94	168.52
596.10	77.24
596.25	39.79
596.41	77.24
596.57	102.98
596.73	35.11
596.88	11.70
597.04	58.51
597.20	56.17
597.36	126.39
597.51	98.30
597.67	91.28
597.83	84.26
597.99	105.32
598.14	32.77
598.30	81.92
598.46	74.90
598.61	126.39
598.77	60.85
598.93	14.04
599.09	60.85
599.24	49.15
599.40	74.90
599.56	21.06
599.71	84.26
599.87	42.13
600.03	124.05
600.18	145.11
600.34	39.79
600.50	49.15
600.65	133.41
600.81	67.88
600.97	121.71
601.12	51.49
601.28	81.92
601.44	86.60
601.59	65.54
601.75	81.92
601.91	81.92
602.06	114.69
602.22	56.17
602.37	65.54
602.53	37.45
602.69	14.04
602.84	0.00
603.00	16.38
603.16	102.98
603.31	145.11
603.47	100.64
603.62	28.09
603.78	105.32
603.94	84.26
604.09	86.60
604.25	23.41
604.40	56.17
604.56	53.83
604.71	105.32
604.87	9.36
605.03	49.15
605.18	9.36
605.34	56.17
605.49	4.68
605.65	35.11
605.80	21.06
605.96	30.43
606.12	42.13
606.27	53.83
606.43	51.49
606.58	138.09
606.74	39.79
606.89	135.75
607.05	72.56
607.20	18.72
607.36	93.62
607.51	46.81
607.67	56.17
607.82	65.54
607.98	23.41
608.13	30.43
608.29	93.62
608.44	42.13
608.60	124.05
608.75	79.58
608.91	44.47
609.06	21.06
609.22	42.13
609.37	79.58
609.53	98.30
609.68	35.11
609.84	46.81
609.99	9.36
610.15	44.47
610.30	67.88
610.46	37.45
610.61	70.22
610.76	39.79
610.92	98.30
611.07	77.24
611.23	42.13
611.38	95.96
611.54	32.77
611.69	88.94
611.84	98.30
612.00	18.72
612.15	74.90
612.31	0.00
612.46	93.62
612.62	70.22
612.77	74.90
612.92	74.90
613.08	32.77
613.23	98.30
613.39	88.94
613.54	65.54
613.69	0.00
613.85	32.77
614.00	117.03
614.15	98.30
614.31	49.15
614.46	18.72
614.62	42.13
614.77	16.38
614.92	81.92
615.08	23.41
615.23	140.43
615.38	81.92
615.54	131.07
615.69	124.05
615.84	35.11
616.00	110.01
616.15	88.94
616.30	51.49
616.46	49.15
616.61	70.22
616.76	37.45
616.92	168.52
617.07	28.09
617.22	117.03
617.37	79.58
617.53	74.90
617.68	133.41
617.83	100.64
617.99	18.72
618.14	35.11
618.29	93.62
618.45	124.05
618.60	25.75
618.75	100.64
618.90	77.24
619.06	37.45
619.21	44.47
619.36	81.92
619.51	95.96
619.67	95.96
619.82	107.66
619.97	81.92
620.12	46.81
620.28	77.24
620.43	142.77
620.58	60.85
620.73	39.79
620.89	105.32
621.04	86.60
621.19	0.00
621.34	60.85
621.49	49.15
621.65	44.47
621.80	25.75
621.95	23.41
622.10	63.19
622.25	102.98
622.41	18.72
622.56	56.17
622.71	49.15
622.86	44.47
623.01	58.51
623.16	42.13
623.32	58.51
623.47	70.22
623.62	46.81
623.77	39.79
623.92	84.26
624.07	18.72
624.23	23.41
624.38	16.38
624.53	14.04
624.68	65.54
624.83	0.00
624.98	70.22
625.13	25.75
625.29	32.77
625.44	9.36
625.59	0.00
625.74	110.01
625.89	56.17
626.04	0.00
626.19	79.58
626.34	0.00
626.49	32.77
626.65	56.17
626.80	121.71
626.95	0.00
627.10	18.72
627.25	16.38
627.40	0.00
627.55	0.00
627.70	16.38
627.85	112.35
628.00	95.96
628.15	88.94
628.30	23.41
628.45	79.58
628.60	63.19
628.76	98.30
628.91	11.70
629.06	93.62
629.21	77.24
629.36	7.02
629.51	39.79
629.66	79.58
629.81	0.00
629.96	0.00
630.11	65.54
630.26	95.96
630.41	0.00
630.56	84.26
630.71	0.00
630.86	74.90
631.01	91.28
631.16	56.17
631.31	88.94
631.46	70.22
631.61	70.22
631.76	74.90
631.91	56.17
632.06	65.54
632.21	0.00
632.36	100.64
632.51	49.15
632.66	65.54
632.81	163.84
632.96	0.00
633.10	35.11
633.25	65.54
633.40	86.60
633.55	53.83
633.70	58.51
633.85	14.04
634.00	77.24
634.15	32.77
634.30	93.62
634.45	30.43
634.60	0.00
634.75	46.81
634.90	117.03
635.05	0.00
635.19	100.64
635.34	152.13
635.49	44.47
635.64	42.13
635.79	63.19
635.94	63.19
636.09	51.49
636.24	88.94
636.39	42.13
636.53	72.56
636.68	95.96
636.83	72.56
636.98	88.94
637.13	65.54
637.28	46.81
637.43	105.32
637.57	74.90
637.72	60.85
637.87	46.81
638.02	53.83
638.17	42.13
638.32	124.05
638.46	56.17
638.61	21.06
638.76	124.05
638.91	39.79
639.06	93.62
639.20	88.94
639.35	114.69
639.50	30.43
639.65	60.85
639.80	58.51
639.94	39.79
640.09	21.06
640.24	53.83
640.39	105.32
640.54	67.88
640.68	23.41
640.83	58.51
640.98	14.04
641.13	0.00
641.27	53.83
641.42	23.41
641.57	60.85
641.72	58.51
641.86	81.92
642.01	32.77
642.16	74.90
642.31	58.51
642.45	133.41
642.60	25.75
642.75	0.00
642.90	93.62
643.04	49.15
643.19	46.81
643.34	51.49
643.48	21.06
643.63	95.96
643.78	65.54
643.93	107.66
644.07	88.94
644.22	53.83
644.37	25.75
644.51	16.38
644.66	63.19
644.81	11.70
644.95	14.04
645.10	51.49
645.25	37.45
645.39	44.47
645.54	44.47
645.69	4.68
645.83	18.72
645.98	28.09
646.13	70.22
646.27	58.51
646.42	126.39
646.57	28.09
646.71	18.72
646.86	51.49
647.00	46.81
647.15	28.09
647.30	0.00
647.44	63.19
647.59	70.22
647.74	91.28
647.88	84.26
648.03	81.92
648.17	91.28
648.32	42.13
648.47	72.56
648.61	0.00
648.76	9.36
648.90	30.43
649.05	56.17
649.20	119.37
649.34	0.00
649.49	0.00
649.63	72.56
649.78	0.00
649.92	2.34
650.07	25.75
650.21	42.13
650.36	28.09
650.51	0.00
650.65	56.17
650.80	142.77
650.94	77.24
651.09	53.83
651.23	16.38
651.38	42.13
651.52	39.79
651.67	39.79
651.81	44.47
651.96	74.90
652.10	16.38
652.25	53.83
652.39	0.00
652.54	0.00
652.68	9.36
652.83	77.24
652.97	114.69
653.12	135.75
653.26	126.39
653.41	58.51
653.55	56.17
653.70	35.11
653.84	49.15
653.99	21.06
654.13	7.02
654.27	86.60
654.42	49.15
654.56	60.85
654.71	0.00
654.85	42.13
655.00	65.54
655.14	98.30
655.29	46.81
655.43	46.81
655.57	51.49
655.72	21.06
655.86	0.00
656.01	0.00
656.15	35.11
656.30	32.77
656.44	28.09
656.58	117.03
656.73	135.75
656.87	49.15
657.01	0.00
657.16	2.34
657.30	105.32
657.45	49.15
657.59	107.66
657.73	63.19
657.88	53.83
658.02	49.15
658.16	63.19
658.31	0.00
658.45	67.88
658.60	58.51
658.74	77.24
658.88	60.85
659.03	53.83
659.17	9.36
659.31	0.00
659.46	23.41
659.60	9.36
659.74	49.15
659.89	46.81
660.03	21.06
660.17	79.58
660.32	124.05
660.46	9.36
660.60	11.70
660.74	53.83
660.89	95.96
661.03	58.51
661.17	49.15
661.32	51.49
661.46	25.75
661.60	0.00
661.74	107.66
661.89	65.54
662.03	25.75
662.17	18.72
662.31	7.02
662.46	32.77
662.60	65.54
662.74	21.06
662.88	30.43
663.03	70.22
663.17	81.92
663.31	70.22
663.45	67.88
663.60	35.11
663.74	42.13
663.88	98.30
664.02	28.09
664.17	14.04
664.31	56.17
664.45	35.11
664.59	0.00
664.73	9.36
664.88	74.90
665.02	35.11
665.16	93.62
665.30	14.04
665.44	77.24
665.59	11.70
665.73	37.45
665.87	95.96
666.01	58.51
666.15	49.15
666.29	37.45
666.44	86.60
666.58	0.00
666.72	39.79
666.86	84.26
667.00	56.17
667.14	72.56
667.28	98.30
667.43	86.60
667.57	74.90
667.71	0.00
667.85	35.11
667.99	7.02
668.13	74.90
668.27	21.06
668.41	77.24
668.56	42.13
668.70	7.02
668.84	67.88
668.98	95.96
669.12	161.50
669.26	0.00
669.40	147.45
669.54	0.00
669.68	0.00
669.82	0.00
669.96	58.51
670.10	42.13
670.25	32.77
670.39	112.35
670.53	74.90
670.67	39.79
670.81	28.09
670.95	65.54
671.09	0.00
671.23	21.06
671.37	77.24
671.51	135.75
671.65	60.85
671.79	37.45
671.93	28.09
672.07	105.32
672.21	58.51
672.35	44.47
672.49	67.88
672.63	105.32
672.77	126.39
672.91	0.00
673.05	93.62
673.19	107.66
673.33	65.54
673.47	119.37
673.61	117.03
673.75	98.30
673.89	42.13
674.03	0.00
674.17	32.77
674.31	53.83
674.45	44.47
674.59	0.00
674.73	79.58
674.87	63.19
675.01	11.70
675.15	51.49
675.29	30.43
675.43	30.43
675.56	0.00
675.70	0.00
675.84	0.00
675.98	110.01
676.12	51.49
676.26	39.79
676.40	4.68
676.54	37.45
676.68	51.49
676.82	70.22
676.96	86.60
677.10	25.75
677.23	0.00
677.37	39.79
677.51	35.11
677.65	65.54
677.79	39.79
677.93	35.11
678.07	56.17
678.21	58.51
678.34	46.81
678.48	46.81
678.62	58.51
678.76	4.68
678.90	4.68
679.04	37.45
679.18	35.11
679.31	32.77
679.45	0.00
679.59	70.22
679.73	60.85
679.87	56.17
680.00	0.00
680.14	0.00
680.28	84.26
680.42	32.77
680.56	0.00
680.70	16.38
680.83	16.38
680.97	72.56
681.11	0.00
681.25	32.77
681.39	93.62
681.52	72.56
681.66	42.13
681.80	16.38
681.94	53.83
682.07	28.09
682.21	67.88
682.35	46.81
682.49	49.15
682.62	37.45
682.76	77.24
682.90	14.04
683.04	65.54
683.17	56.17
683.31	18.72
683.45	9.36
683.59	25.75
683.72	63.19
683.86	0.00
684.00	32.77
684.13	86.60
684.27	28.09
684.41	140.43
684.55	46.81
684.68	18.72
684.82	0.00
684.96	9.36
685.09	18.72
685.23	49.15
685.37	0.00
685.50	4.68
685.64	149.79
685.78	53.83
685.91	86.60
686.05	21.06
686.19	49.15
686.32	11.70
686.46	23.41
686.60	23.41
686.73	39.79
686.87	0.00
687.01	21.06
687.14	0.00
687.28	93.62
687.42	53.83
687.55	58.51
687.69	28.09
687.82	4.68
687.96	51.49
688.10	65.54
688.23	46.81
688.37	88.94
688.50	79.58
688.64	42.13
688.78	98.30
688.91	30.43
689.05	32.77
689.18	53.83
689.32	58.51
689.46	98.30
689.59	70.22
689.73	16.38
689.86	0.00
690.00	58.51
690.13	49.15
690.27	25.75
690.41	70.22
690.54	51.49
690.68	37.45
690.81	32.77
690.95	0.00
691.08	60.85
691.22	28.09
691.35	23.41
691.49	32.77
691.62	18.72
691.76	16.38
691.89	23.41
692.03	51.49
692.16	74.90
692.30	16.38
692.43	0.00
692.57	18.72
692.70	11.70
692.84	39.79
692.97	74.90
693.11	117.03
693.24	35.11
693.38	72.56
693.51	18.72
693.65	0.00
693.78	39.79
693.92	32.77
694.05	14.04
694.19	0.00
694.32	91.28
694.45	0.00
694.59	72.56
694.72	0.00
694.86	60.85
694.99	35.11
695.13	23.41
695.26	42.13
695.39	30.43
695.53	60.85
695.66	100.64
695.80	4.68
695.93	95.96
696.07	77.24
696.20	25.75
696.33	56.17
696.47	56.17
696.60	0.00
696.73	44.47
696.87	44.47
697.00	65.54
697.14	74.90
697.27	35.11
697.40	86.60
697.54	110.01
697.67	46.81
697.80	53.83
697.94	30.43
698.07	70.22
698.21	72.56
698.34	84.26
698.47	39.79
698.61	95.96
698.74	21.06
698.87	0.00
699.01	70.22
699.14	56.17
699.27	16.38
699.40	42.13
699.54	74.90
699.67	74.90
699.80	2.34
699.94	21.06
700.07	56.17
700.20	46.81
700.34	25.75
700.47	51.49
700.60	81.92
700.73	0.00
700.87	67.88
701.00	4.68
701.13	0.00
701.26	30.43
701.40	30.43
701.53	23.41
701.66	35.11
701.79	25.75
701.93	51.49
702.06	42.13
702.19	77.24
702.32	58.51
702.46	0.00
702.59	46.81
702.72	74.90
702.85	58.51
702.99	42.13
703.12	53.83
703.25	74.90
703.38	37.45
703.51	58.51
703.65	0.00
703.78	60.85
703.91	114.69
704.04	7.02
704.17	25.75
704.31	63.19
704.44	65.54
704.57	14.04
704.70	63.19
704.83	56.17
704.96	0.00
705.10	114.69
705.23	32.77
>>>>>End Processed Spectral Data<<<<<
