SpectraSuite Data File
++++++++++++++++++++++++++++++++++++
Date: Fri Oct 04 12:13:42 GMT-05:00 2013
User: price-jones
Dark Spectrum Present: No
Reference Spectrum Present: No
Number of Sampled Component Spectra: 1
Spectrometers: USB2+H05261
Integration Time (usec): 10000 (USB2+H05261)
Spectra Averaged: 1 (USB2+H05261)
Boxcar Smoothing: 0 (USB2+H05261)
Correct for Electrical Dark: No (USB2+H05261)
Strobe/Lamp Enabled: No (USB2+H05261)
Correct for Detector Non-linearity: No (USB2+H05261)
Correct for Stray Light: No (USB2+H05261)
Number of Pixels in Processed Spectrum: 2048
>>>>>Begin Processed Spectral Data<<<<<
365.73	0.00
365.92	0.00
366.12	0.00
366.32	0.00
366.52	0.00
366.72	0.00
366.91	0.00
367.11	0.00
367.31	0.00
367.51	0.00
367.70	0.00
367.90	0.00
368.10	0.00
368.30	0.00
368.49	0.00
368.69	0.00
368.89	0.00
369.09	0.00
369.28	0.00
369.48	0.00
369.68	0.00
369.87	0.00
370.07	0.00
370.27	0.00
370.47	0.00
370.66	0.00
370.86	0.00
371.06	0.00
371.25	0.00
371.45	0.00
371.65	0.00
371.84	0.00
372.04	0.00
372.24	0.00
372.44	21.06
372.63	0.00
372.83	79.58
373.03	0.00
373.22	2.34
373.42	53.83
373.62	14.04
373.81	58.51
374.01	60.85
374.21	0.00
374.40	72.56
374.60	0.00
374.79	51.49
374.99	91.28
375.19	107.66
375.38	23.41
375.58	28.09
375.78	16.38
375.97	91.28
376.17	81.92
376.37	51.49
376.56	74.90
376.76	0.00
376.95	0.00
377.15	39.79
377.35	23.41
377.54	70.22
377.74	51.49
377.93	18.72
378.13	42.13
378.33	56.17
378.52	0.00
378.72	28.09
378.91	0.00
379.11	25.75
379.31	7.02
379.50	0.00
379.70	58.51
379.89	14.04
380.09	81.92
380.28	9.36
380.48	7.02
380.68	0.00
380.87	0.00
381.07	23.41
381.26	0.00
381.46	0.00
381.65	53.83
381.85	4.68
382.04	49.15
382.24	51.49
382.43	0.00
382.63	56.17
382.83	18.72
383.02	0.00
383.22	67.88
383.41	65.54
383.61	63.19
383.80	37.45
384.00	18.72
384.19	21.06
384.39	58.51
384.58	30.43
384.78	58.51
384.97	0.00
385.17	0.00
385.36	44.47
385.56	0.00
385.75	72.56
385.95	30.43
386.14	4.68
386.34	0.00
386.53	63.19
386.72	67.88
386.92	72.56
387.11	23.41
387.31	81.92
387.50	35.11
387.70	30.43
387.89	9.36
388.09	37.45
388.28	16.38
388.48	0.00
388.67	79.58
388.86	0.00
389.06	4.68
389.25	7.02
389.45	49.15
389.64	63.19
389.84	58.51
390.03	0.00
390.22	11.70
390.42	4.68
390.61	16.38
390.81	0.00
391.00	18.72
391.19	9.36
391.39	4.68
391.58	2.34
391.78	0.00
391.97	7.02
392.16	79.58
392.36	84.26
392.55	65.54
392.75	58.51
392.94	7.02
393.13	65.54
393.33	30.43
393.52	72.56
393.71	72.56
393.91	30.43
394.10	0.00
394.29	58.51
394.49	23.41
394.68	30.43
394.88	53.83
395.07	60.85
395.26	42.13
395.46	0.00
395.65	23.41
395.84	0.00
396.04	35.11
396.23	0.00
396.42	51.49
396.62	44.47
396.81	63.19
397.00	0.00
397.19	70.22
397.39	72.56
397.58	14.04
397.77	23.41
397.97	77.24
398.16	105.32
398.35	7.02
398.55	72.56
398.74	28.09
398.93	72.56
399.12	32.77
399.32	72.56
399.51	42.13
399.70	16.38
399.90	14.04
400.09	39.79
400.28	58.51
400.47	16.38
400.67	9.36
400.86	51.49
401.05	0.00
401.24	0.00
401.44	0.00
401.63	0.00
401.82	39.79
402.01	60.85
402.21	18.72
402.40	53.83
402.59	37.45
402.78	16.38
402.97	0.00
403.17	7.02
403.36	32.77
403.55	37.45
403.74	42.13
403.93	30.43
404.13	53.83
404.32	0.00
404.51	56.17
404.70	74.90
404.89	58.51
405.09	0.00
405.28	42.13
405.47	56.17
405.66	0.00
405.85	39.79
406.05	28.09
406.24	56.17
406.43	0.00
406.62	16.38
406.81	65.54
407.00	63.19
407.20	93.62
407.39	9.36
407.58	0.00
407.77	72.56
407.96	72.56
408.15	67.88
408.34	0.00
408.54	53.83
408.73	37.45
408.92	77.24
409.11	28.09
409.30	0.00
409.49	14.04
409.68	46.81
409.87	28.09
410.07	56.17
410.26	21.06
410.45	70.22
410.64	56.17
410.83	9.36
411.02	65.54
411.21	72.56
411.40	4.68
411.59	67.88
411.78	0.00
411.98	119.37
412.17	51.49
412.36	53.83
412.55	84.26
412.74	60.85
412.93	74.90
413.12	58.51
413.31	42.13
413.50	70.22
413.69	28.09
413.88	84.26
414.07	49.15
414.26	37.45
414.45	0.00
414.64	37.45
414.83	65.54
415.02	0.00
415.22	42.13
415.41	30.43
415.60	74.90
415.79	74.90
415.98	35.11
416.17	37.45
416.36	58.51
416.55	11.70
416.74	23.41
416.93	98.30
417.12	32.77
417.31	51.49
417.50	9.36
417.69	11.70
417.88	51.49
418.07	51.49
418.26	74.90
418.45	110.01
418.64	88.94
418.83	44.47
419.02	30.43
419.21	91.28
419.39	58.51
419.58	51.49
419.77	65.54
419.96	77.24
420.15	65.54
420.34	93.62
420.53	135.75
420.72	70.22
420.91	0.00
421.10	49.15
421.29	39.79
421.48	37.45
421.67	23.41
421.86	0.00
422.05	46.81
422.24	86.60
422.43	63.19
422.61	37.45
422.80	0.00
422.99	0.00
423.18	18.72
423.37	0.00
423.56	35.11
423.75	42.13
423.94	72.56
424.13	81.92
424.32	30.43
424.50	51.49
424.69	0.00
424.88	0.00
425.07	0.00
425.26	42.13
425.45	60.85
425.64	72.56
425.83	32.77
426.01	81.92
426.20	0.00
426.39	0.00
426.58	58.51
426.77	98.30
426.96	0.00
427.15	58.51
427.33	95.96
427.52	30.43
427.71	86.60
427.90	11.70
428.09	114.69
428.28	44.47
428.46	53.83
428.65	4.68
428.84	39.79
429.03	44.47
429.22	74.90
429.40	37.45
429.59	105.32
429.78	84.26
429.97	42.13
430.16	16.38
430.34	117.03
430.53	14.04
430.72	37.45
430.91	16.38
431.10	70.22
431.28	65.54
431.47	35.11
431.66	30.43
431.85	149.79
432.03	0.00
432.22	49.15
432.41	58.51
432.60	79.58
432.79	0.00
432.97	56.17
433.16	0.00
433.35	0.00
433.54	53.83
433.72	37.45
433.91	16.38
434.10	37.45
434.28	58.51
434.47	0.00
434.66	23.41
434.85	21.06
435.03	107.66
435.22	23.41
435.41	30.43
435.59	46.81
435.78	42.13
435.97	95.96
436.16	0.00
436.34	56.17
436.53	100.64
436.72	56.17
436.90	86.60
437.09	51.49
437.28	44.47
437.46	95.96
437.65	60.85
437.84	107.66
438.02	14.04
438.21	88.94
438.40	53.83
438.58	18.72
438.77	74.90
438.96	32.77
439.14	53.83
439.33	65.54
439.52	51.49
439.70	32.77
439.89	84.26
440.08	28.09
440.26	67.88
440.45	70.22
440.63	42.13
440.82	105.32
441.01	0.00
441.19	74.90
441.38	60.85
441.57	84.26
441.75	35.11
441.94	39.79
442.12	25.75
442.31	81.92
442.50	81.92
442.68	58.51
442.87	128.73
443.05	0.00
443.24	23.41
443.43	70.22
443.61	72.56
443.80	117.03
443.98	65.54
444.17	18.72
444.35	72.56
444.54	18.72
444.73	44.47
444.91	51.49
445.10	58.51
445.28	39.79
445.47	56.17
445.65	58.51
445.84	60.85
446.02	16.38
446.21	63.19
446.39	32.77
446.58	49.15
446.77	35.11
446.95	58.51
447.14	0.00
447.32	56.17
447.51	21.06
447.69	65.54
447.88	23.41
448.06	46.81
448.25	46.81
448.43	7.02
448.62	114.69
448.80	30.43
448.99	39.79
449.17	112.35
449.36	25.75
449.54	11.70
449.73	126.39
449.91	95.96
450.10	77.24
450.28	51.49
450.46	91.28
450.65	84.26
450.83	0.00
451.02	128.73
451.20	67.88
451.39	42.13
451.57	72.56
451.76	72.56
451.94	58.51
452.13	138.09
452.31	93.62
452.49	39.79
452.68	77.24
452.86	42.13
453.05	72.56
453.23	42.13
453.42	58.51
453.60	81.92
453.78	16.38
453.97	60.85
454.15	91.28
454.34	0.00
454.52	49.15
454.70	100.64
454.89	23.41
455.07	53.83
455.26	133.41
455.44	70.22
455.62	124.05
455.81	51.49
455.99	128.73
456.17	53.83
456.36	39.79
456.54	51.49
456.73	56.17
456.91	58.51
457.09	4.68
457.28	21.06
457.46	49.15
457.64	126.39
457.83	49.15
458.01	51.49
458.19	60.85
458.38	100.64
458.56	138.09
458.74	84.26
458.93	39.79
459.11	39.79
459.29	4.68
459.48	44.47
459.66	65.54
459.84	51.49
460.03	79.58
460.21	70.22
460.39	37.45
460.57	98.30
460.76	100.64
460.94	46.81
461.12	72.56
461.31	11.70
461.49	44.47
461.67	65.54
461.85	114.69
462.04	44.47
462.22	105.32
462.40	84.26
462.59	44.47
462.77	25.75
462.95	16.38
463.13	32.77
463.32	65.54
463.50	67.88
463.68	65.54
463.86	51.49
464.05	0.00
464.23	0.00
464.41	67.88
464.59	23.41
464.78	0.00
464.96	28.09
465.14	39.79
465.32	7.02
465.50	35.11
465.69	46.81
465.87	9.36
466.05	0.00
466.23	23.41
466.41	102.98
466.60	4.68
466.78	74.90
466.96	91.28
467.14	77.24
467.32	84.26
467.51	84.26
467.69	28.09
467.87	91.28
468.05	112.35
468.23	0.00
468.41	112.35
468.60	70.22
468.78	121.71
468.96	72.56
469.14	65.54
469.32	21.06
469.50	21.06
469.69	74.90
469.87	72.56
470.05	67.88
470.23	121.71
470.41	81.92
470.59	35.11
470.77	67.88
470.95	46.81
471.14	81.92
471.32	18.72
471.50	81.92
471.68	39.79
471.86	0.00
472.04	0.00
472.22	67.88
472.40	21.06
472.58	72.56
472.77	105.32
472.95	56.17
473.13	100.64
473.31	58.51
473.49	114.69
473.67	77.24
473.85	58.51
474.03	124.05
474.21	16.38
474.39	74.90
474.57	93.62
474.75	74.90
474.93	46.81
475.12	28.09
475.30	49.15
475.48	56.17
475.66	65.54
475.84	67.88
476.02	88.94
476.20	37.45
476.38	18.72
476.56	39.79
476.74	0.00
476.92	79.58
477.10	30.43
477.28	53.83
477.46	60.85
477.64	67.88
477.82	23.41
478.00	42.13
478.18	152.13
478.36	58.51
478.54	51.49
478.72	77.24
478.90	93.62
479.08	53.83
479.26	65.54
479.44	86.60
479.62	72.56
479.80	42.13
479.98	65.54
480.16	56.17
480.34	0.00
480.52	84.26
480.70	86.60
480.88	65.54
481.06	88.94
481.24	67.88
481.41	9.36
481.59	42.13
481.77	81.92
481.95	37.45
482.13	28.09
482.31	114.69
482.49	32.77
482.67	117.03
482.85	72.56
483.03	86.60
483.21	98.30
483.39	42.13
483.57	72.56
483.74	44.47
483.92	77.24
484.10	25.75
484.28	46.81
484.46	131.07
484.64	23.41
484.82	72.56
485.00	25.75
485.18	0.00
485.35	9.36
485.53	138.09
485.71	74.90
485.89	30.43
486.07	74.90
486.25	56.17
486.43	0.00
486.61	53.83
486.78	117.03
486.96	100.64
487.14	4.68
487.32	42.13
487.50	107.66
487.68	95.96
487.85	0.00
488.03	142.77
488.21	117.03
488.39	79.58
488.57	56.17
488.75	70.22
488.92	105.32
489.10	117.03
489.28	65.54
489.46	149.79
489.64	95.96
489.81	124.05
489.99	93.62
490.17	117.03
490.35	81.92
490.53	67.88
490.70	81.92
490.88	28.09
491.06	107.66
491.24	23.41
491.41	53.83
491.59	58.51
491.77	21.06
491.95	81.92
492.13	21.06
492.30	44.47
492.48	70.22
492.66	70.22
492.84	4.68
493.01	67.88
493.19	114.69
493.37	110.01
493.54	0.00
493.72	105.32
493.90	42.13
494.08	98.30
494.25	93.62
494.43	81.92
494.61	93.62
494.79	114.69
494.96	105.32
495.14	0.00
495.32	67.88
495.49	81.92
495.67	128.73
495.85	14.04
496.02	46.81
496.20	98.30
496.38	88.94
496.55	16.38
496.73	39.79
496.91	112.35
497.09	2.34
497.26	58.51
497.44	138.09
497.62	67.88
497.79	35.11
497.97	110.01
498.14	81.92
498.32	107.66
498.50	21.06
498.67	95.96
498.85	35.11
499.03	102.98
499.20	95.96
499.38	16.38
499.56	72.56
499.73	196.60
499.91	70.22
500.08	77.24
500.26	102.98
500.44	0.00
500.61	58.51
500.79	51.49
500.97	35.11
501.14	67.88
501.32	60.85
501.49	84.26
501.67	117.03
501.84	79.58
502.02	100.64
502.20	114.69
502.37	91.28
502.55	91.28
502.72	58.51
502.90	42.13
503.07	93.62
503.25	91.28
503.43	70.22
503.60	58.51
503.78	63.19
503.95	84.26
504.13	21.06
504.30	159.16
504.48	114.69
504.65	65.54
504.83	58.51
505.01	95.96
505.18	86.60
505.36	16.38
505.53	107.66
505.71	79.58
505.88	63.19
506.06	25.75
506.23	91.28
506.41	37.45
506.58	56.17
506.76	102.98
506.93	72.56
507.11	124.05
507.28	51.49
507.46	98.30
507.63	58.51
507.81	128.73
507.98	0.00
508.16	79.58
508.33	114.69
508.50	124.05
508.68	0.00
508.85	53.83
509.03	79.58
509.20	88.94
509.38	117.03
509.55	98.30
509.73	86.60
509.90	100.64
510.08	102.98
510.25	149.79
510.42	84.26
510.60	98.30
510.77	44.47
510.95	79.58
511.12	77.24
511.30	91.28
511.47	60.85
511.64	93.62
511.82	114.69
511.99	65.54
512.17	121.71
512.34	67.88
512.51	91.28
512.69	65.54
512.86	84.26
513.04	126.39
513.21	93.62
513.38	77.24
513.56	58.51
513.73	105.32
513.90	49.15
514.08	72.56
514.25	63.19
514.43	65.54
514.60	72.56
514.77	51.49
514.95	88.94
515.12	51.49
515.29	86.60
515.47	32.77
515.64	65.54
515.81	124.05
515.99	14.04
516.16	0.00
516.33	135.75
516.51	102.98
516.68	105.32
516.85	63.19
517.03	67.88
517.20	51.49
517.37	70.22
517.54	98.30
517.72	152.13
517.89	60.85
518.06	77.24
518.24	60.85
518.41	117.03
518.58	110.01
518.75	128.73
518.93	46.81
519.10	74.90
519.27	60.85
519.45	53.83
519.62	142.77
519.79	49.15
519.96	39.79
520.14	93.62
520.31	100.64
520.48	91.28
520.65	49.15
520.83	70.22
521.00	35.11
521.17	25.75
521.34	81.92
521.52	128.73
521.69	70.22
521.86	74.90
522.03	74.90
522.20	91.28
522.38	131.07
522.55	91.28
522.72	93.62
522.89	163.84
523.07	74.90
523.24	65.54
523.41	70.22
523.58	102.98
523.75	56.17
523.92	23.41
524.10	135.75
524.27	112.35
524.44	102.98
524.61	88.94
524.78	51.49
524.96	142.77
525.13	91.28
525.30	81.92
525.47	142.77
525.64	91.28
525.81	121.71
525.98	117.03
526.16	30.43
526.33	105.32
526.50	154.48
526.67	142.77
526.84	93.62
527.01	58.51
527.18	86.60
527.36	110.01
527.53	63.19
527.70	98.30
527.87	86.60
528.04	102.98
528.21	65.54
528.38	37.45
528.55	86.60
528.72	180.22
528.89	161.50
529.07	67.88
529.24	100.64
529.41	84.26
529.58	49.15
529.75	79.58
529.92	131.07
530.09	86.60
530.26	110.01
530.43	72.56
530.60	63.19
530.77	110.01
530.94	110.01
531.11	119.37
531.28	124.05
531.46	98.30
531.63	28.09
531.80	93.62
531.97	98.30
532.14	70.22
532.31	49.15
532.48	112.35
532.65	0.00
532.82	177.88
532.99	91.28
533.16	23.41
533.33	110.01
533.50	147.45
533.67	60.85
533.84	30.43
534.01	95.96
534.18	77.24
534.35	93.62
534.52	114.69
534.69	60.85
534.86	65.54
535.03	105.32
535.20	74.90
535.37	84.26
535.54	58.51
535.71	81.92
535.88	56.17
536.05	70.22
536.22	67.88
536.38	95.96
536.55	60.85
536.72	121.71
536.89	74.90
537.06	37.45
537.23	67.88
537.40	107.66
537.57	102.98
537.74	79.58
537.91	84.26
538.08	149.79
538.25	124.05
538.42	98.30
538.59	30.43
538.75	93.62
538.92	7.02
539.09	112.35
539.26	138.09
539.43	37.45
539.60	58.51
539.77	79.58
539.94	53.83
540.11	110.01
540.28	124.05
540.44	112.35
540.61	79.58
540.78	100.64
540.95	91.28
541.12	70.22
541.29	86.60
541.46	131.07
541.62	35.11
541.79	67.88
541.96	44.47
542.13	51.49
542.30	72.56
542.47	63.19
542.63	93.62
542.80	84.26
542.97	77.24
543.14	124.05
543.31	84.26
543.48	32.77
543.64	72.56
543.81	100.64
543.98	126.39
544.15	95.96
544.32	102.98
544.48	77.24
544.65	37.45
544.82	81.92
544.99	159.16
545.16	93.62
545.32	14.04
545.49	67.88
545.66	91.28
545.83	112.35
546.00	77.24
546.16	51.49
546.33	60.85
546.50	67.88
546.67	88.94
546.83	119.37
547.00	72.56
547.17	51.49
547.34	51.49
547.50	98.30
547.67	100.64
547.84	110.01
548.00	117.03
548.17	105.32
548.34	114.69
548.51	79.58
548.67	105.32
548.84	128.73
549.01	72.56
549.18	21.06
549.34	63.19
549.51	95.96
549.68	102.98
549.84	131.07
550.01	117.03
550.18	142.77
550.34	77.24
550.51	91.28
550.68	135.75
550.84	2.34
551.01	93.62
551.18	102.98
551.34	77.24
551.51	142.77
551.68	119.37
551.84	110.01
552.01	53.83
552.18	128.73
552.34	79.58
552.51	53.83
552.68	161.50
552.84	65.54
553.01	88.94
553.18	161.50
553.34	56.17
553.51	65.54
553.67	126.39
553.84	65.54
554.01	110.01
554.17	91.28
554.34	60.85
554.51	81.92
554.67	126.39
554.84	142.77
555.00	95.96
555.17	51.49
555.33	39.79
555.50	126.39
555.67	49.15
555.83	63.19
556.00	53.83
556.16	145.11
556.33	102.98
556.50	72.56
556.66	159.16
556.83	37.45
556.99	0.00
557.16	107.66
557.32	60.85
557.49	0.00
557.65	74.90
557.82	42.13
557.98	152.13
558.15	105.32
558.32	44.47
558.48	105.32
558.65	131.07
558.81	110.01
558.98	117.03
559.14	86.60
559.31	126.39
559.47	39.79
559.64	98.30
559.80	14.04
559.97	95.96
560.13	21.06
560.30	133.41
560.46	93.62
560.63	56.17
560.79	74.90
560.96	86.60
561.12	44.47
561.29	117.03
561.45	74.90
561.61	44.47
561.78	60.85
561.94	88.94
562.11	81.92
562.27	53.83
562.44	86.60
562.60	51.49
562.77	77.24
562.93	154.48
563.10	88.94
563.26	46.81
563.42	77.24
563.59	142.77
563.75	105.32
563.92	110.01
564.08	42.13
564.24	140.43
564.41	88.94
564.57	126.39
564.74	42.13
564.90	114.69
565.07	93.62
565.23	140.43
565.39	79.58
565.56	56.17
565.72	128.73
565.88	84.26
566.05	46.81
566.21	63.19
566.38	4.68
566.54	124.05
566.70	60.85
566.87	39.79
567.03	9.36
567.19	114.69
567.36	100.64
567.52	126.39
567.68	53.83
567.85	88.94
568.01	37.45
568.17	53.83
568.34	91.28
568.50	147.45
568.66	84.26
568.83	95.96
568.99	63.19
569.15	91.28
569.32	133.41
569.48	88.94
569.64	81.92
569.81	105.32
569.97	46.81
570.13	95.96
570.30	112.35
570.46	77.24
570.62	79.58
570.78	124.05
570.95	60.85
571.11	156.82
571.27	32.77
571.43	100.64
571.60	88.94
571.76	100.64
571.92	49.15
572.09	42.13
572.25	60.85
572.41	124.05
572.57	0.00
572.74	72.56
572.90	51.49
573.06	149.79
573.22	70.22
573.38	126.39
573.55	93.62
573.71	51.49
573.87	58.51
574.03	2.34
574.20	140.43
574.36	74.90
574.52	70.22
574.68	67.88
574.84	56.17
575.01	117.03
575.17	0.00
575.33	65.54
575.49	119.37
575.65	128.73
575.82	58.51
575.98	110.01
576.14	58.51
576.30	79.58
576.46	107.66
576.62	53.83
576.79	37.45
576.95	126.39
577.11	154.48
577.27	58.51
577.43	138.09
577.59	56.17
577.75	100.64
577.92	98.30
578.08	98.30
578.24	133.41
578.40	81.92
578.56	88.94
578.72	98.30
578.88	58.51
579.04	88.94
579.21	98.30
579.37	95.96
579.53	84.26
579.69	112.35
579.85	25.75
580.01	67.88
580.17	60.85
580.33	67.88
580.49	95.96
580.65	67.88
580.82	100.64
580.98	44.47
581.14	133.41
581.30	77.24
581.46	70.22
581.62	100.64
581.78	91.28
581.94	60.85
582.10	79.58
582.26	63.19
582.42	63.19
582.58	63.19
582.74	84.26
582.90	88.94
583.06	112.35
583.22	51.49
583.38	37.45
583.54	53.83
583.70	25.75
583.86	93.62
584.02	51.49
584.18	121.71
584.34	65.54
584.50	60.85
584.66	107.66
584.82	95.96
584.98	39.79
585.14	14.04
585.30	2.34
585.46	84.26
585.62	72.56
585.78	107.66
585.94	126.39
586.10	39.79
586.26	79.58
586.42	23.41
586.58	35.11
586.74	53.83
586.90	72.56
587.06	74.90
587.22	91.28
587.38	117.03
587.54	39.79
587.70	119.37
587.86	128.73
588.02	124.05
588.18	84.26
588.34	63.19
588.49	67.88
588.65	93.62
588.81	72.56
588.97	107.66
589.13	60.85
589.29	63.19
589.45	60.85
589.61	70.22
589.77	32.77
589.93	28.09
590.08	126.39
590.24	0.00
590.40	0.00
590.56	70.22
590.72	67.88
590.88	30.43
591.04	21.06
591.20	140.43
591.35	56.17
591.51	79.58
591.67	84.26
591.83	53.83
591.99	79.58
592.15	77.24
592.31	95.96
592.46	110.01
592.62	152.13
592.78	70.22
592.94	56.17
593.10	84.26
593.26	35.11
593.41	133.41
593.57	65.54
593.73	70.22
593.89	100.64
594.05	74.90
594.20	49.15
594.36	107.66
594.52	128.73
594.68	49.15
594.84	93.62
594.99	70.22
595.15	91.28
595.31	91.28
595.47	84.26
595.62	42.13
595.78	46.81
595.94	77.24
596.10	58.51
596.25	49.15
596.41	79.58
596.57	58.51
596.73	110.01
596.88	28.09
597.04	65.54
597.20	135.75
597.36	7.02
597.51	102.98
597.67	49.15
597.83	131.07
597.99	56.17
598.14	102.98
598.30	49.15
598.46	53.83
598.61	95.96
598.77	88.94
598.93	65.54
599.09	65.54
599.24	147.45
599.40	88.94
599.56	128.73
599.71	67.88
599.87	58.51
600.03	98.30
600.18	91.28
600.34	58.51
600.50	91.28
600.65	110.01
600.81	81.92
600.97	133.41
601.12	86.60
601.28	81.92
601.44	91.28
601.59	46.81
601.75	84.26
601.91	124.05
602.06	53.83
602.22	46.81
602.37	58.51
602.53	58.51
602.69	0.00
602.84	140.43
603.00	72.56
603.16	58.51
603.31	107.66
603.47	107.66
603.62	37.45
603.78	91.28
603.94	79.58
604.09	84.26
604.25	25.75
604.40	119.37
604.56	56.17
604.71	88.94
604.87	121.71
605.03	112.35
605.18	53.83
605.34	65.54
605.49	60.85
605.65	105.32
605.80	0.00
605.96	67.88
606.12	60.85
606.27	128.73
606.43	74.90
606.58	91.28
606.74	0.00
606.89	119.37
607.05	81.92
607.20	23.41
607.36	84.26
607.51	112.35
607.67	117.03
607.82	49.15
607.98	58.51
608.13	100.64
608.29	72.56
608.44	86.60
608.60	58.51
608.75	77.24
608.91	0.00
609.06	74.90
609.22	91.28
609.37	107.66
609.53	88.94
609.68	88.94
609.84	93.62
609.99	149.79
610.15	100.64
610.30	65.54
610.46	32.77
610.61	42.13
610.76	56.17
610.92	86.60
611.07	98.30
611.23	72.56
611.38	112.35
611.54	107.66
611.69	46.81
611.84	88.94
612.00	0.00
612.15	39.79
612.31	107.66
612.46	100.64
612.62	100.64
612.77	91.28
612.92	39.79
613.08	84.26
613.23	21.06
613.39	56.17
613.54	88.94
613.69	77.24
613.85	58.51
614.00	102.98
614.15	93.62
614.31	119.37
614.46	114.69
614.62	84.26
614.77	70.22
614.92	117.03
615.08	0.00
615.23	67.88
615.38	72.56
615.54	81.92
615.69	131.07
615.84	70.22
616.00	91.28
616.15	0.00
616.30	18.72
616.46	142.77
616.61	74.90
616.76	112.35
616.92	0.00
617.07	56.17
617.22	65.54
617.37	107.66
617.53	53.83
617.68	51.49
617.83	37.45
617.99	65.54
618.14	32.77
618.29	60.85
618.45	53.83
618.60	117.03
618.75	98.30
618.90	30.43
619.06	16.38
619.21	105.32
619.36	86.60
619.51	79.58
619.67	44.47
619.82	81.92
619.97	117.03
620.12	126.39
620.28	133.41
620.43	145.11
620.58	93.62
620.73	35.11
620.89	51.49
621.04	74.90
621.19	138.09
621.34	86.60
621.49	126.39
621.65	49.15
621.80	77.24
621.95	79.58
622.10	67.88
622.25	58.51
622.41	58.51
622.56	91.28
622.71	105.32
622.86	63.19
623.01	53.83
623.16	77.24
623.32	23.41
623.47	74.90
623.62	0.00
623.77	65.54
623.92	39.79
624.07	58.51
624.23	65.54
624.38	44.47
624.53	51.49
624.68	39.79
624.83	30.43
624.98	100.64
625.13	51.49
625.29	28.09
625.44	88.94
625.59	67.88
625.74	53.83
625.89	9.36
626.04	84.26
626.19	16.38
626.34	46.81
626.49	0.00
626.65	23.41
626.80	131.07
626.95	86.60
627.10	58.51
627.25	72.56
627.40	65.54
627.55	51.49
627.70	88.94
627.85	53.83
628.00	51.49
628.15	81.92
628.30	16.38
628.45	0.00
628.60	98.30
628.76	60.85
628.91	58.51
629.06	23.41
629.21	25.75
629.36	23.41
629.51	121.71
629.66	32.77
629.81	56.17
629.96	65.54
630.11	35.11
630.26	74.90
630.41	0.00
630.56	0.00
630.71	112.35
630.86	56.17
631.01	14.04
631.16	95.96
631.31	35.11
631.46	21.06
631.61	30.43
631.76	79.58
631.91	63.19
632.06	46.81
632.21	60.85
632.36	9.36
632.51	74.90
632.66	70.22
632.81	63.19
632.96	56.17
633.10	126.39
633.25	65.54
633.40	114.69
633.55	44.47
633.70	128.73
633.85	25.75
634.00	9.36
634.15	51.49
634.30	39.79
634.45	53.83
634.60	35.11
634.75	53.83
634.90	35.11
635.05	49.15
635.19	65.54
635.34	117.03
635.49	84.26
635.64	88.94
635.79	114.69
635.94	7.02
636.09	86.60
636.24	98.30
636.39	86.60
636.53	70.22
636.68	30.43
636.83	81.92
636.98	51.49
637.13	133.41
637.28	28.09
637.43	86.60
637.57	39.79
637.72	46.81
637.87	67.88
638.02	51.49
638.17	72.56
638.32	60.85
638.46	37.45
638.61	58.51
638.76	53.83
638.91	159.16
639.06	77.24
639.20	56.17
639.35	79.58
639.50	0.00
639.65	32.77
639.80	42.13
639.94	51.49
640.09	110.01
640.24	98.30
640.39	0.00
640.54	44.47
640.68	86.60
640.83	51.49
640.98	56.17
641.13	44.47
641.27	37.45
641.42	42.13
641.57	81.92
641.72	56.17
641.86	70.22
642.01	23.41
642.16	0.00
642.31	124.05
642.45	117.03
642.60	114.69
642.75	0.00
642.90	114.69
643.04	63.19
643.19	0.00
643.34	60.85
643.48	53.83
643.63	77.24
643.78	58.51
643.93	77.24
644.07	159.16
644.22	79.58
644.37	0.00
644.51	93.62
644.66	70.22
644.81	14.04
644.95	32.77
645.10	79.58
645.25	42.13
645.39	14.04
645.54	81.92
645.69	0.00
645.83	0.00
645.98	79.58
646.13	95.96
646.27	72.56
646.42	72.56
646.57	42.13
646.71	100.64
646.86	126.39
647.00	28.09
647.15	14.04
647.30	70.22
647.44	72.56
647.59	49.15
647.74	91.28
647.88	32.77
648.03	53.83
648.17	135.75
648.32	102.98
648.47	126.39
648.61	133.41
648.76	63.19
648.90	114.69
649.05	49.15
649.20	18.72
649.34	0.00
649.49	86.60
649.63	0.00
649.78	124.05
649.92	0.00
650.07	18.72
650.21	0.00
650.36	65.54
650.51	16.38
650.65	2.34
650.80	112.35
650.94	51.49
651.09	23.41
651.23	25.75
651.38	7.02
651.52	49.15
651.67	32.77
651.81	105.32
651.96	117.03
652.10	88.94
652.25	102.98
652.39	51.49
652.54	84.26
652.68	9.36
652.83	98.30
652.97	98.30
653.12	46.81
653.26	25.75
653.41	39.79
653.55	63.19
653.70	65.54
653.84	30.43
653.99	9.36
654.13	42.13
654.27	77.24
654.42	37.45
654.56	203.63
654.71	107.66
654.85	21.06
655.00	42.13
655.14	72.56
655.29	37.45
655.43	100.64
655.57	77.24
655.72	14.04
655.86	0.00
656.01	25.75
656.15	60.85
656.30	25.75
656.44	16.38
656.58	28.09
656.73	39.79
656.87	100.64
657.01	46.81
657.16	60.85
657.30	4.68
657.45	42.13
657.59	39.79
657.73	0.00
657.88	77.24
658.02	58.51
658.16	39.79
658.31	63.19
658.45	56.17
658.60	67.88
658.74	0.00
658.88	51.49
659.03	79.58
659.17	30.43
659.31	14.04
659.46	110.01
659.60	79.58
659.74	46.81
659.89	39.79
660.03	46.81
660.17	81.92
660.32	11.70
660.46	84.26
660.60	56.17
660.74	42.13
660.89	11.70
661.03	67.88
661.17	79.58
661.32	110.01
661.46	0.00
661.60	49.15
661.74	18.72
661.89	35.11
662.03	119.37
662.17	32.77
662.31	11.70
662.46	23.41
662.60	35.11
662.74	14.04
662.88	46.81
663.03	65.54
663.17	30.43
663.31	25.75
663.45	39.79
663.60	58.51
663.74	100.64
663.88	42.13
664.02	58.51
664.17	37.45
664.31	37.45
664.45	67.88
664.59	49.15
664.73	67.88
664.88	21.06
665.02	63.19
665.16	46.81
665.30	16.38
665.44	51.49
665.59	67.88
665.73	28.09
665.87	107.66
666.01	30.43
666.15	72.56
666.29	56.17
666.44	117.03
666.58	112.35
666.72	25.75
666.86	32.77
667.00	25.75
667.14	0.00
667.28	63.19
667.43	77.24
667.57	30.43
667.71	51.49
667.85	53.83
667.99	53.83
668.13	84.26
668.27	63.19
668.41	23.41
668.56	74.90
668.70	110.01
668.84	70.22
668.98	112.35
669.12	79.58
669.26	4.68
669.40	49.15
669.54	25.75
669.68	72.56
669.82	49.15
669.96	23.41
670.10	112.35
670.25	77.24
670.39	32.77
670.53	23.41
670.67	14.04
670.81	35.11
670.95	53.83
671.09	14.04
671.23	84.26
671.37	81.92
671.51	102.98
671.65	81.92
671.79	42.13
671.93	56.17
672.07	14.04
672.21	60.85
672.35	49.15
672.49	86.60
672.63	58.51
672.77	152.13
672.91	21.06
673.05	30.43
673.19	28.09
673.33	70.22
673.47	42.13
673.61	51.49
673.75	25.75
673.89	46.81
674.03	0.00
674.17	0.00
674.31	42.13
674.45	9.36
674.59	44.47
674.73	65.54
674.87	23.41
675.01	0.00
675.15	21.06
675.29	88.94
675.43	88.94
675.56	142.77
675.70	14.04
675.84	93.62
675.98	16.38
676.12	51.49
676.26	93.62
676.40	37.45
676.54	39.79
676.68	58.51
676.82	16.38
676.96	77.24
677.10	28.09
677.23	21.06
677.37	60.85
677.51	18.72
677.65	72.56
677.79	63.19
677.93	25.75
678.07	81.92
678.21	114.69
678.34	39.79
678.48	51.49
678.62	30.43
678.76	121.71
678.90	18.72
679.04	60.85
679.18	0.00
679.31	0.00
679.45	53.83
679.59	53.83
679.73	37.45
679.87	44.47
680.00	39.79
680.14	44.47
680.28	58.51
680.42	126.39
680.56	4.68
680.70	60.85
680.83	35.11
680.97	63.19
681.11	95.96
681.25	35.11
681.39	35.11
681.52	86.60
681.66	100.64
681.80	39.79
681.94	0.00
682.07	21.06
682.21	0.00
682.35	72.56
682.49	58.51
682.62	28.09
682.76	23.41
682.90	18.72
683.04	65.54
683.17	49.15
683.31	39.79
683.45	98.30
683.59	110.01
683.72	95.96
683.86	16.38
684.00	70.22
684.13	28.09
684.27	0.00
684.41	0.00
684.55	35.11
684.68	117.03
684.82	0.00
684.96	0.00
685.09	46.81
685.23	32.77
685.37	11.70
685.50	65.54
685.64	168.52
685.78	30.43
685.91	28.09
686.05	107.66
686.19	23.41
686.32	53.83
686.46	9.36
686.60	28.09
686.73	4.68
686.87	86.60
687.01	65.54
687.14	67.88
687.28	25.75
687.42	88.94
687.55	93.62
687.69	37.45
687.82	53.83
687.96	42.13
688.10	86.60
688.23	67.88
688.37	140.43
688.50	7.02
688.64	4.68
688.78	32.77
688.91	0.00
689.05	7.02
689.18	88.94
689.32	46.81
689.46	74.90
689.59	51.49
689.73	65.54
689.86	67.88
690.00	42.13
690.13	11.70
690.27	42.13
690.41	46.81
690.54	32.77
690.68	67.88
690.81	95.96
690.95	9.36
691.08	18.72
691.22	0.00
691.35	112.35
691.49	98.30
691.62	53.83
691.76	30.43
691.89	4.68
692.03	23.41
692.16	23.41
692.30	11.70
692.43	0.00
692.57	100.64
692.70	70.22
692.84	79.58
692.97	77.24
693.11	0.00
693.24	56.17
693.38	63.19
693.51	46.81
693.65	28.09
693.78	0.00
693.92	91.28
694.05	60.85
694.19	46.81
694.32	81.92
694.45	32.77
694.59	14.04
694.72	39.79
694.86	2.34
694.99	25.75
695.13	58.51
695.26	23.41
695.39	30.43
695.53	18.72
695.66	7.02
695.80	25.75
695.93	63.19
696.07	60.85
696.20	56.17
696.33	0.00
696.47	4.68
696.60	0.00
696.73	126.39
696.87	65.54
697.00	28.09
697.14	121.71
697.27	93.62
697.40	65.54
697.54	30.43
697.67	46.81
697.80	53.83
697.94	14.04
698.07	93.62
698.21	11.70
698.34	65.54
698.47	65.54
698.61	51.49
698.74	44.47
698.87	35.11
699.01	39.79
699.14	53.83
699.27	0.00
699.40	72.56
699.54	0.00
699.67	74.90
699.80	56.17
699.94	23.41
700.07	0.00
700.20	28.09
700.34	138.09
700.47	77.24
700.60	2.34
700.73	70.22
700.87	30.43
701.00	77.24
701.13	44.47
701.26	91.28
701.40	30.43
701.53	74.90
701.66	9.36
701.79	0.00
701.93	32.77
702.06	44.47
702.19	23.41
702.32	30.43
702.46	56.17
702.59	42.13
702.72	102.98
702.85	32.77
702.99	11.70
703.12	65.54
703.25	63.19
703.38	49.15
703.51	79.58
703.65	67.88
703.78	32.77
703.91	42.13
704.04	67.88
704.17	37.45
704.31	39.79
704.44	18.72
704.57	0.00
704.70	60.85
704.83	119.37
704.96	0.00
705.10	49.15
705.23	51.49
>>>>>End Processed Spectral Data<<<<<
