SpectraSuite Data File
++++++++++++++++++++++++++++++++++++
Date: Fri Oct 04 12:13:37 GMT-05:00 2013
User: price-jones
Dark Spectrum Present: No
Reference Spectrum Present: No
Number of Sampled Component Spectra: 1
Spectrometers: USB2+H05261
Integration Time (usec): 10000 (USB2+H05261)
Spectra Averaged: 1 (USB2+H05261)
Boxcar Smoothing: 0 (USB2+H05261)
Correct for Electrical Dark: No (USB2+H05261)
Strobe/Lamp Enabled: No (USB2+H05261)
Correct for Detector Non-linearity: No (USB2+H05261)
Correct for Stray Light: No (USB2+H05261)
Number of Pixels in Processed Spectrum: 2048
>>>>>Begin Processed Spectral Data<<<<<
365.73	25.75
365.92	25.75
366.12	25.75
366.32	0.00
366.52	0.00
366.72	0.00
366.91	0.00
367.11	0.00
367.31	0.00
367.51	0.00
367.70	0.00
367.90	0.00
368.10	0.00
368.30	0.00
368.49	0.00
368.69	0.00
368.89	0.00
369.09	0.00
369.28	0.00
369.48	0.00
369.68	0.00
369.87	0.00
370.07	0.00
370.27	0.00
370.47	0.00
370.66	0.00
370.86	0.00
371.06	21.06
371.25	0.00
371.45	0.00
371.65	0.00
371.84	0.00
372.04	0.00
372.24	0.00
372.44	0.00
372.63	0.00
372.83	0.00
373.03	46.81
373.22	14.04
373.42	0.00
373.62	2.34
373.81	37.45
374.01	51.49
374.21	37.45
374.40	65.54
374.60	53.83
374.79	51.49
374.99	14.04
375.19	0.00
375.38	93.62
375.58	51.49
375.78	39.79
375.97	58.51
376.17	16.38
376.37	46.81
376.56	0.00
376.76	72.56
376.95	32.77
377.15	0.00
377.35	4.68
377.54	65.54
377.74	28.09
377.93	46.81
378.13	18.72
378.33	16.38
378.52	65.54
378.72	0.00
378.91	7.02
379.11	49.15
379.31	46.81
379.50	21.06
379.70	0.00
379.89	0.00
380.09	0.00
380.28	25.75
380.48	21.06
380.68	44.47
380.87	51.49
381.07	0.00
381.26	0.00
381.46	0.00
381.65	39.79
381.85	16.38
382.04	60.85
382.24	39.79
382.43	16.38
382.63	0.00
382.83	18.72
383.02	0.00
383.22	32.77
383.41	30.43
383.61	0.00
383.80	0.00
384.00	23.41
384.19	98.30
384.39	28.09
384.58	53.83
384.78	32.77
384.97	56.17
385.17	42.13
385.36	72.56
385.56	11.70
385.75	21.06
385.95	32.77
386.14	28.09
386.34	9.36
386.53	0.00
386.72	30.43
386.92	2.34
387.11	44.47
387.31	23.41
387.50	0.00
387.70	4.68
387.89	93.62
388.09	39.79
388.28	7.02
388.48	0.00
388.67	14.04
388.86	0.00
389.06	0.00
389.25	25.75
389.45	7.02
389.64	42.13
389.84	0.00
390.03	35.11
390.22	23.41
390.42	18.72
390.61	81.92
390.81	77.24
391.00	0.00
391.19	4.68
391.39	0.00
391.58	37.45
391.78	0.00
391.97	0.00
392.16	23.41
392.36	0.00
392.55	0.00
392.75	0.00
392.94	21.06
393.13	0.00
393.33	0.00
393.52	53.83
393.71	95.96
393.91	37.45
394.10	14.04
394.29	2.34
394.49	67.88
394.68	49.15
394.88	58.51
395.07	0.00
395.26	0.00
395.46	35.11
395.65	65.54
395.84	0.00
396.04	37.45
396.23	42.13
396.42	72.56
396.62	63.19
396.81	0.00
397.00	32.77
397.19	18.72
397.39	86.60
397.58	53.83
397.77	25.75
397.97	18.72
398.16	0.00
398.35	95.96
398.55	74.90
398.74	140.43
398.93	67.88
399.12	30.43
399.32	112.35
399.51	70.22
399.70	86.60
399.90	23.41
400.09	14.04
400.28	39.79
400.47	53.83
400.67	44.47
400.86	2.34
401.05	37.45
401.24	0.00
401.44	56.17
401.63	23.41
401.82	18.72
402.01	14.04
402.21	72.56
402.40	74.90
402.59	53.83
402.78	14.04
402.97	0.00
403.17	74.90
403.36	23.41
403.55	56.17
403.74	72.56
403.93	35.11
404.13	72.56
404.32	21.06
404.51	0.00
404.70	81.92
404.89	84.26
405.09	72.56
405.28	11.70
405.47	11.70
405.66	77.24
405.85	16.38
406.05	0.00
406.24	117.03
406.43	0.00
406.62	14.04
406.81	32.77
407.00	81.92
407.20	37.45
407.39	95.96
407.58	23.41
407.77	65.54
407.96	35.11
408.15	56.17
408.34	39.79
408.54	42.13
408.73	0.00
408.92	4.68
409.11	4.68
409.30	77.24
409.49	30.43
409.68	25.75
409.87	7.02
410.07	28.09
410.26	58.51
410.45	0.00
410.64	37.45
410.83	84.26
411.02	30.43
411.21	39.79
411.40	58.51
411.59	0.00
411.78	63.19
411.98	105.32
412.17	0.00
412.36	9.36
412.55	53.83
412.74	72.56
412.93	16.38
413.12	2.34
413.31	18.72
413.50	53.83
413.69	46.81
413.88	63.19
414.07	39.79
414.26	0.00
414.45	4.68
414.64	42.13
414.83	23.41
415.02	7.02
415.22	119.37
415.41	0.00
415.60	11.70
415.79	16.38
415.98	16.38
416.17	37.45
416.36	16.38
416.55	79.58
416.74	58.51
416.93	7.02
417.12	88.94
417.31	28.09
417.50	39.79
417.69	21.06
417.88	18.72
418.07	51.49
418.26	25.75
418.45	58.51
418.64	25.75
418.83	11.70
419.02	23.41
419.21	39.79
419.39	0.00
419.58	16.38
419.77	0.00
419.96	86.60
420.15	72.56
420.34	16.38
420.53	65.54
420.72	44.47
420.91	79.58
421.10	98.30
421.29	74.90
421.48	121.71
421.67	16.38
421.86	2.34
422.05	77.24
422.24	0.00
422.43	11.70
422.61	67.88
422.80	98.30
422.99	32.77
423.18	30.43
423.37	42.13
423.56	37.45
423.75	11.70
423.94	35.11
424.13	58.51
424.32	0.00
424.50	58.51
424.69	42.13
424.88	91.28
425.07	9.36
425.26	74.90
425.45	74.90
425.64	74.90
425.83	0.00
426.01	42.13
426.20	42.13
426.39	56.17
426.58	65.54
426.77	23.41
426.96	81.92
427.15	42.13
427.33	56.17
427.52	93.62
427.71	128.73
427.90	72.56
428.09	46.81
428.28	84.26
428.46	39.79
428.65	49.15
428.84	0.00
429.03	74.90
429.22	44.47
429.40	7.02
429.59	16.38
429.78	0.00
429.97	63.19
430.16	16.38
430.34	0.00
430.53	28.09
430.72	72.56
430.91	44.47
431.10	67.88
431.28	77.24
431.47	53.83
431.66	25.75
431.85	16.38
432.03	72.56
432.22	51.49
432.41	16.38
432.60	9.36
432.79	91.28
432.97	42.13
433.16	110.01
433.35	39.79
433.54	63.19
433.72	35.11
433.91	25.75
434.10	51.49
434.28	39.79
434.47	28.09
434.66	100.64
434.85	95.96
435.03	35.11
435.22	44.47
435.41	91.28
435.59	110.01
435.78	91.28
435.97	0.00
436.16	72.56
436.34	60.85
436.53	11.70
436.72	4.68
436.90	0.00
437.09	98.30
437.28	0.00
437.46	135.75
437.65	0.00
437.84	25.75
438.02	0.00
438.21	102.98
438.40	98.30
438.58	53.83
438.77	44.47
438.96	35.11
439.14	35.11
439.33	42.13
439.52	42.13
439.70	65.54
439.89	114.69
440.08	0.00
440.26	18.72
440.45	0.00
440.63	2.34
440.82	7.02
441.01	42.13
441.19	42.13
441.38	60.85
441.57	32.77
441.75	72.56
441.94	110.01
442.12	79.58
442.31	28.09
442.50	74.90
442.68	7.02
442.87	93.62
443.05	0.00
443.24	117.03
443.43	46.81
443.61	72.56
443.80	63.19
443.98	46.81
444.17	35.11
444.35	44.47
444.54	14.04
444.73	28.09
444.91	70.22
445.10	65.54
445.28	58.51
445.47	53.83
445.65	112.35
445.84	37.45
446.02	37.45
446.21	11.70
446.39	23.41
446.58	0.00
446.77	74.90
446.95	7.02
447.14	21.06
447.32	44.47
447.51	0.00
447.69	28.09
447.88	35.11
448.06	37.45
448.25	81.92
448.43	86.60
448.62	0.00
448.80	42.13
448.99	51.49
449.17	32.77
449.36	86.60
449.54	49.15
449.73	124.05
449.91	53.83
450.10	121.71
450.28	51.49
450.46	39.79
450.65	133.41
450.83	70.22
451.02	88.94
451.20	21.06
451.39	46.81
451.57	77.24
451.76	84.26
451.94	28.09
452.13	53.83
452.31	9.36
452.49	51.49
452.68	37.45
452.86	30.43
453.05	28.09
453.23	0.00
453.42	74.90
453.60	0.00
453.78	74.90
453.97	51.49
454.15	44.47
454.34	70.22
454.52	72.56
454.70	105.32
454.89	53.83
455.07	46.81
455.26	51.49
455.44	93.62
455.62	30.43
455.81	37.45
455.99	60.85
456.17	7.02
456.36	86.60
456.54	0.00
456.73	110.01
456.91	70.22
457.09	32.77
457.28	16.38
457.46	44.47
457.64	84.26
457.83	93.62
458.01	93.62
458.19	28.09
458.38	28.09
458.56	77.24
458.74	0.00
458.93	88.94
459.11	74.90
459.29	7.02
459.48	51.49
459.66	32.77
459.84	65.54
460.03	42.13
460.21	37.45
460.39	56.17
460.57	4.68
460.76	70.22
460.94	30.43
461.12	42.13
461.31	79.58
461.49	25.75
461.67	25.75
461.85	117.03
462.04	84.26
462.22	201.29
462.40	18.72
462.59	44.47
462.77	124.05
462.95	105.32
463.13	58.51
463.32	7.02
463.50	0.00
463.68	67.88
463.86	51.49
464.05	72.56
464.23	16.38
464.41	91.28
464.59	39.79
464.78	9.36
464.96	88.94
465.14	51.49
465.32	84.26
465.50	72.56
465.69	72.56
465.87	11.70
466.05	0.00
466.23	46.81
466.41	0.00
466.60	23.41
466.78	124.05
466.96	98.30
467.14	91.28
467.32	28.09
467.51	11.70
467.69	133.41
467.87	102.98
468.05	30.43
468.23	124.05
468.41	63.19
468.60	2.34
468.78	65.54
468.96	70.22
469.14	51.49
469.32	0.00
469.50	0.00
469.69	7.02
469.87	70.22
470.05	63.19
470.23	35.11
470.41	46.81
470.59	25.75
470.77	100.64
470.95	30.43
471.14	65.54
471.32	67.88
471.50	79.58
471.68	67.88
471.86	51.49
472.04	91.28
472.22	72.56
472.40	49.15
472.58	14.04
472.77	14.04
472.95	4.68
473.13	7.02
473.31	39.79
473.49	42.13
473.67	74.90
473.85	88.94
474.03	140.43
474.21	88.94
474.39	140.43
474.57	91.28
474.75	77.24
474.93	0.00
475.12	49.15
475.30	77.24
475.48	0.00
475.66	72.56
475.84	102.98
476.02	9.36
476.20	42.13
476.38	23.41
476.56	126.39
476.74	42.13
476.92	60.85
477.10	102.98
477.28	4.68
477.46	140.43
477.64	95.96
477.82	70.22
478.00	67.88
478.18	60.85
478.36	23.41
478.54	35.11
478.72	58.51
478.90	49.15
479.08	79.58
479.26	72.56
479.44	9.36
479.62	77.24
479.80	110.01
479.98	86.60
480.16	18.72
480.34	102.98
480.52	53.83
480.70	117.03
480.88	105.32
481.06	93.62
481.24	42.13
481.41	35.11
481.59	88.94
481.77	37.45
481.95	70.22
482.13	93.62
482.31	42.13
482.49	63.19
482.67	37.45
482.85	63.19
483.03	49.15
483.21	60.85
483.39	56.17
483.57	28.09
483.74	65.54
483.92	37.45
484.10	37.45
484.28	79.58
484.46	133.41
484.64	119.37
484.82	84.26
485.00	14.04
485.18	58.51
485.35	140.43
485.53	25.75
485.71	74.90
485.89	42.13
486.07	9.36
486.25	84.26
486.43	58.51
486.61	131.07
486.78	81.92
486.96	88.94
487.14	35.11
487.32	74.90
487.50	81.92
487.68	70.22
487.85	56.17
488.03	23.41
488.21	124.05
488.39	42.13
488.57	110.01
488.75	35.11
488.92	88.94
489.10	56.17
489.28	110.01
489.46	105.32
489.64	60.85
489.81	42.13
489.99	56.17
490.17	107.66
490.35	79.58
490.53	95.96
490.70	63.19
490.88	63.19
491.06	72.56
491.24	53.83
491.41	16.38
491.59	65.54
491.77	44.47
491.95	25.75
492.13	65.54
492.30	100.64
492.48	84.26
492.66	124.05
492.84	105.32
493.01	91.28
493.19	102.98
493.37	105.32
493.54	39.79
493.72	124.05
493.90	28.09
494.08	65.54
494.25	74.90
494.43	88.94
494.61	79.58
494.79	79.58
494.96	163.84
495.14	107.66
495.32	128.73
495.49	21.06
495.67	42.13
495.85	11.70
496.02	32.77
496.20	32.77
496.38	84.26
496.55	28.09
496.73	102.98
496.91	140.43
497.09	121.71
497.26	163.84
497.44	135.75
497.62	35.11
497.79	21.06
497.97	74.90
498.14	42.13
498.32	58.51
498.50	28.09
498.67	65.54
498.85	44.47
499.03	51.49
499.20	44.47
499.38	95.96
499.56	128.73
499.73	32.77
499.91	102.98
500.08	25.75
500.26	77.24
500.44	58.51
500.61	93.62
500.79	67.88
500.97	70.22
501.14	77.24
501.32	53.83
501.49	72.56
501.67	100.64
501.84	30.43
502.02	42.13
502.20	128.73
502.37	91.28
502.55	114.69
502.72	133.41
502.90	117.03
503.07	128.73
503.25	95.96
503.43	70.22
503.60	102.98
503.78	86.60
503.95	95.96
504.13	37.45
504.30	102.98
504.48	25.75
504.65	102.98
504.83	60.85
505.01	177.88
505.18	46.81
505.36	74.90
505.53	77.24
505.71	70.22
505.88	86.60
506.06	37.45
506.23	147.45
506.41	65.54
506.58	65.54
506.76	23.41
506.93	81.92
507.11	138.09
507.28	44.47
507.46	65.54
507.63	21.06
507.81	102.98
507.98	98.30
508.16	79.58
508.33	72.56
508.50	84.26
508.68	88.94
508.85	28.09
509.03	0.00
509.20	46.81
509.38	67.88
509.55	88.94
509.73	67.88
509.90	70.22
510.08	140.43
510.25	77.24
510.42	98.30
510.60	72.56
510.77	88.94
510.95	49.15
511.12	0.00
511.30	51.49
511.47	60.85
511.64	88.94
511.82	84.26
511.99	44.47
512.17	67.88
512.34	117.03
512.51	86.60
512.69	117.03
512.86	56.17
513.04	142.77
513.21	159.16
513.38	145.11
513.56	81.92
513.73	88.94
513.90	49.15
514.08	25.75
514.25	65.54
514.43	107.66
514.60	124.05
514.77	18.72
514.95	138.09
515.12	39.79
515.29	145.11
515.47	35.11
515.64	16.38
515.81	18.72
515.99	95.96
516.16	42.13
516.33	58.51
516.51	95.96
516.68	49.15
516.85	44.47
517.03	49.15
517.20	16.38
517.37	102.98
517.54	121.71
517.72	88.94
517.89	53.83
518.06	46.81
518.24	67.88
518.41	98.30
518.58	46.81
518.75	107.66
518.93	133.41
519.10	39.79
519.27	30.43
519.45	81.92
519.62	86.60
519.79	65.54
519.96	72.56
520.14	95.96
520.31	77.24
520.48	100.64
520.65	117.03
520.83	131.07
521.00	128.73
521.17	91.28
521.34	119.37
521.52	100.64
521.69	121.71
521.86	119.37
522.03	53.83
522.20	117.03
522.38	60.85
522.55	84.26
522.72	86.60
522.89	58.51
523.07	147.45
523.24	58.51
523.41	110.01
523.58	44.47
523.75	152.13
523.92	95.96
524.10	49.15
524.27	93.62
524.44	16.38
524.61	70.22
524.78	86.60
524.96	93.62
525.13	105.32
525.30	4.68
525.47	93.62
525.64	84.26
525.81	124.05
525.98	124.05
526.16	133.41
526.33	49.15
526.50	114.69
526.67	60.85
526.84	53.83
527.01	86.60
527.18	37.45
527.36	28.09
527.53	100.64
527.70	124.05
527.87	93.62
528.04	77.24
528.21	63.19
528.38	112.35
528.55	51.49
528.72	74.90
528.89	98.30
529.07	117.03
529.24	53.83
529.41	112.35
529.58	112.35
529.75	32.77
529.92	126.39
530.09	72.56
530.26	105.32
530.43	79.58
530.60	107.66
530.77	91.28
530.94	35.11
531.11	65.54
531.28	74.90
531.46	79.58
531.63	102.98
531.80	93.62
531.97	56.17
532.14	37.45
532.31	58.51
532.48	58.51
532.65	0.00
532.82	51.49
532.99	63.19
533.16	84.26
533.33	102.98
533.50	124.05
533.67	72.56
533.84	21.06
534.01	128.73
534.18	112.35
534.35	140.43
534.52	65.54
534.69	105.32
534.86	133.41
535.03	49.15
535.20	110.01
535.37	30.43
535.54	217.67
535.71	28.09
535.88	67.88
536.05	49.15
536.22	67.88
536.38	126.39
536.55	88.94
536.72	65.54
536.89	128.73
537.06	53.83
537.23	84.26
537.40	128.73
537.57	18.72
537.74	91.28
537.91	138.09
538.08	114.69
538.25	7.02
538.42	46.81
538.59	60.85
538.75	53.83
538.92	124.05
539.09	93.62
539.26	98.30
539.43	46.81
539.60	112.35
539.77	86.60
539.94	39.79
540.11	0.00
540.28	79.58
540.44	77.24
540.61	133.41
540.78	42.13
540.95	105.32
541.12	107.66
541.29	100.64
541.46	46.81
541.62	100.64
541.79	46.81
541.96	170.86
542.13	124.05
542.30	140.43
542.47	77.24
542.63	81.92
542.80	102.98
542.97	91.28
543.14	65.54
543.31	70.22
543.48	128.73
543.64	93.62
543.81	112.35
543.98	84.26
544.15	46.81
544.32	133.41
544.48	91.28
544.65	81.92
544.82	74.90
544.99	74.90
545.16	23.41
545.32	95.96
545.49	119.37
545.66	107.66
545.83	46.81
546.00	117.03
546.16	128.73
546.33	102.98
546.50	42.13
546.67	81.92
546.83	88.94
547.00	74.90
547.17	58.51
547.34	9.36
547.50	95.96
547.67	14.04
547.84	56.17
548.00	44.47
548.17	107.66
548.34	154.48
548.51	35.11
548.67	110.01
548.84	72.56
549.01	72.56
549.18	154.48
549.34	63.19
549.51	102.98
549.68	53.83
549.84	46.81
550.01	107.66
550.18	100.64
550.34	72.56
550.51	126.39
550.68	117.03
550.84	98.30
551.01	154.48
551.18	142.77
551.34	65.54
551.51	105.32
551.68	56.17
551.84	117.03
552.01	133.41
552.18	42.13
552.34	102.98
552.51	145.11
552.68	60.85
552.84	25.75
553.01	72.56
553.18	112.35
553.34	107.66
553.51	105.32
553.67	72.56
553.84	100.64
554.01	79.58
554.17	74.90
554.34	49.15
554.51	56.17
554.67	81.92
554.84	156.82
555.00	81.92
555.17	65.54
555.33	70.22
555.50	112.35
555.67	156.82
555.83	121.71
556.00	74.90
556.16	142.77
556.33	102.98
556.50	114.69
556.66	98.30
556.83	79.58
556.99	112.35
557.16	98.30
557.32	91.28
557.49	124.05
557.65	105.32
557.82	51.49
557.98	119.37
558.15	107.66
558.32	53.83
558.48	107.66
558.65	74.90
558.81	58.51
558.98	81.92
559.14	35.11
559.31	63.19
559.47	74.90
559.64	93.62
559.80	30.43
559.97	14.04
560.13	56.17
560.30	0.00
560.46	98.30
560.63	44.47
560.79	93.62
560.96	23.41
561.12	77.24
561.29	60.85
561.45	95.96
561.61	74.90
561.78	42.13
561.94	42.13
562.11	60.85
562.27	74.90
562.44	32.77
562.60	138.09
562.77	65.54
562.93	140.43
563.10	79.58
563.26	124.05
563.42	44.47
563.59	74.90
563.75	102.98
563.92	124.05
564.08	114.69
564.24	72.56
564.41	70.22
564.57	124.05
564.74	117.03
564.90	60.85
565.07	88.94
565.23	86.60
565.39	84.26
565.56	126.39
565.72	91.28
565.88	84.26
566.05	119.37
566.21	84.26
566.38	105.32
566.54	46.81
566.70	67.88
566.87	107.66
567.03	42.13
567.19	77.24
567.36	91.28
567.52	63.19
567.68	65.54
567.85	74.90
568.01	112.35
568.17	72.56
568.34	23.41
568.50	51.49
568.66	91.28
568.83	114.69
568.99	60.85
569.15	149.79
569.32	4.68
569.48	58.51
569.64	44.47
569.81	93.62
569.97	72.56
570.13	56.17
570.30	102.98
570.46	18.72
570.62	135.75
570.78	32.77
570.95	46.81
571.11	149.79
571.27	16.38
571.43	81.92
571.60	91.28
571.76	91.28
571.92	100.64
572.09	117.03
572.25	58.51
572.41	46.81
572.57	21.06
572.74	9.36
572.90	37.45
573.06	32.77
573.22	88.94
573.38	121.71
573.55	81.92
573.71	42.13
573.87	65.54
574.03	81.92
574.20	72.56
574.36	91.28
574.52	95.96
574.68	91.28
574.84	67.88
575.01	81.92
575.17	56.17
575.33	121.71
575.49	28.09
575.65	65.54
575.82	88.94
575.98	30.43
576.14	117.03
576.30	79.58
576.46	70.22
576.62	93.62
576.79	84.26
576.95	117.03
577.11	51.49
577.27	84.26
577.43	77.24
577.59	65.54
577.75	81.92
577.92	28.09
578.08	156.82
578.24	23.41
578.40	86.60
578.56	72.56
578.72	105.32
578.88	42.13
579.04	42.13
579.21	77.24
579.37	105.32
579.53	74.90
579.69	77.24
579.85	35.11
580.01	86.60
580.17	51.49
580.33	81.92
580.49	58.51
580.65	95.96
580.82	110.01
580.98	74.90
581.14	30.43
581.30	49.15
581.46	131.07
581.62	124.05
581.78	117.03
581.94	100.64
582.10	135.75
582.26	117.03
582.42	124.05
582.58	110.01
582.74	84.26
582.90	58.51
583.06	11.70
583.22	42.13
583.38	105.32
583.54	95.96
583.70	86.60
583.86	93.62
584.02	107.66
584.18	81.92
584.34	65.54
584.50	39.79
584.66	95.96
584.82	91.28
584.98	166.18
585.14	88.94
585.30	100.64
585.46	65.54
585.62	98.30
585.78	56.17
585.94	86.60
586.10	107.66
586.26	95.96
586.42	95.96
586.58	0.00
586.74	58.51
586.90	72.56
587.06	124.05
587.22	91.28
587.38	72.56
587.54	81.92
587.70	107.66
587.86	56.17
588.02	18.72
588.18	72.56
588.34	16.38
588.49	107.66
588.65	37.45
588.81	72.56
588.97	67.88
589.13	0.00
589.29	25.75
589.45	91.28
589.61	133.41
589.77	81.92
589.93	152.13
590.08	100.64
590.24	44.47
590.40	110.01
590.56	100.64
590.72	30.43
590.88	65.54
591.04	95.96
591.20	95.96
591.35	117.03
591.51	37.45
591.67	147.45
591.83	149.79
591.99	72.56
592.15	161.50
592.31	58.51
592.46	42.13
592.62	65.54
592.78	72.56
592.94	42.13
593.10	32.77
593.26	46.81
593.41	91.28
593.57	0.00
593.73	56.17
593.89	58.51
594.05	51.49
594.20	16.38
594.36	114.69
594.52	0.00
594.68	67.88
594.84	117.03
594.99	117.03
595.15	93.62
595.31	79.58
595.47	53.83
595.62	23.41
595.78	14.04
595.94	0.00
596.10	39.79
596.25	114.69
596.41	84.26
596.57	100.64
596.73	126.39
596.88	93.62
597.04	37.45
597.20	95.96
597.36	119.37
597.51	25.75
597.67	28.09
597.83	44.47
597.99	60.85
598.14	95.96
598.30	114.69
598.46	77.24
598.61	110.01
598.77	77.24
598.93	70.22
599.09	32.77
599.24	77.24
599.40	124.05
599.56	32.77
599.71	28.09
599.87	107.66
600.03	114.69
600.18	84.26
600.34	56.17
600.50	46.81
600.65	39.79
600.81	60.85
600.97	0.00
601.12	93.62
601.28	21.06
601.44	25.75
601.59	65.54
601.75	9.36
601.91	88.94
602.06	84.26
602.22	18.72
602.37	72.56
602.53	56.17
602.69	0.00
602.84	88.94
603.00	0.00
603.16	53.83
603.31	39.79
603.47	63.19
603.62	18.72
603.78	142.77
603.94	67.88
604.09	56.17
604.25	58.51
604.40	42.13
604.56	114.69
604.71	126.39
604.87	93.62
605.03	28.09
605.18	70.22
605.34	65.54
605.49	124.05
605.65	67.88
605.80	74.90
605.96	11.70
606.12	0.00
606.27	77.24
606.43	30.43
606.58	67.88
606.74	60.85
606.89	67.88
607.05	63.19
607.20	95.96
607.36	44.47
607.51	56.17
607.67	56.17
607.82	119.37
607.98	21.06
608.13	30.43
608.29	102.98
608.44	91.28
608.60	95.96
608.75	86.60
608.91	49.15
609.06	42.13
609.22	53.83
609.37	42.13
609.53	102.98
609.68	74.90
609.84	77.24
609.99	81.92
610.15	79.58
610.30	65.54
610.46	93.62
610.61	91.28
610.76	60.85
610.92	131.07
611.07	35.11
611.23	37.45
611.38	124.05
611.54	112.35
611.69	0.00
611.84	0.00
612.00	42.13
612.15	58.51
612.31	70.22
612.46	53.83
612.62	135.75
612.77	74.90
612.92	119.37
613.08	65.54
613.23	37.45
613.39	4.68
613.54	49.15
613.69	37.45
613.85	72.56
614.00	98.30
614.15	9.36
614.31	0.00
614.46	46.81
614.62	72.56
614.77	37.45
614.92	42.13
615.08	81.92
615.23	77.24
615.38	84.26
615.54	91.28
615.69	81.92
615.84	44.47
616.00	28.09
616.15	58.51
616.30	81.92
616.46	88.94
616.61	42.13
616.76	98.30
616.92	42.13
617.07	60.85
617.22	74.90
617.37	93.62
617.53	28.09
617.68	65.54
617.83	0.00
617.99	65.54
618.14	0.00
618.29	51.49
618.45	60.85
618.60	117.03
618.75	102.98
618.90	65.54
619.06	53.83
619.21	77.24
619.36	77.24
619.51	25.75
619.67	81.92
619.82	7.02
619.97	46.81
620.12	91.28
620.28	98.30
620.43	0.00
620.58	74.90
620.73	74.90
620.89	110.01
621.04	84.26
621.19	28.09
621.34	49.15
621.49	114.69
621.65	63.19
621.80	81.92
621.95	107.66
622.10	39.79
622.25	72.56
622.41	112.35
622.56	100.64
622.71	58.51
622.86	37.45
623.01	131.07
623.16	46.81
623.32	32.77
623.47	32.77
623.62	135.75
623.77	102.98
623.92	51.49
624.07	0.00
624.23	21.06
624.38	49.15
624.53	44.47
624.68	0.00
624.83	74.90
624.98	0.00
625.13	25.75
625.29	49.15
625.44	77.24
625.59	88.94
625.74	84.26
625.89	56.17
626.04	67.88
626.19	30.43
626.34	35.11
626.49	14.04
626.65	9.36
626.80	0.00
626.95	77.24
627.10	74.90
627.25	49.15
627.40	16.38
627.55	102.98
627.70	58.51
627.85	49.15
628.00	42.13
628.15	35.11
628.30	63.19
628.45	74.90
628.60	53.83
628.76	67.88
628.91	46.81
629.06	121.71
629.21	37.45
629.36	74.90
629.51	63.19
629.66	4.68
629.81	74.90
629.96	93.62
630.11	60.85
630.26	42.13
630.41	63.19
630.56	70.22
630.71	49.15
630.86	0.00
631.01	16.38
631.16	107.66
631.31	58.51
631.46	30.43
631.61	117.03
631.76	93.62
631.91	65.54
632.06	42.13
632.21	100.64
632.36	0.00
632.51	65.54
632.66	49.15
632.81	9.36
632.96	67.88
633.10	60.85
633.25	98.30
633.40	65.54
633.55	11.70
633.70	77.24
633.85	63.19
634.00	88.94
634.15	112.35
634.30	51.49
634.45	28.09
634.60	84.26
634.75	63.19
634.90	16.38
635.05	49.15
635.19	161.50
635.34	60.85
635.49	74.90
635.64	72.56
635.79	159.16
635.94	60.85
636.09	42.13
636.24	0.00
636.39	32.77
636.53	72.56
636.68	95.96
636.83	44.47
636.98	37.45
637.13	28.09
637.28	84.26
637.43	56.17
637.57	0.00
637.72	95.96
637.87	91.28
638.02	46.81
638.17	70.22
638.32	42.13
638.46	86.60
638.61	72.56
638.76	39.79
638.91	67.88
639.06	102.98
639.20	23.41
639.35	63.19
639.50	58.51
639.65	0.00
639.80	16.38
639.94	84.26
640.09	37.45
640.24	105.32
640.39	81.92
640.54	63.19
640.68	79.58
640.83	18.72
640.98	21.06
641.13	133.41
641.27	93.62
641.42	79.58
641.57	18.72
641.72	60.85
641.86	35.11
642.01	0.00
642.16	0.00
642.31	58.51
642.45	2.34
642.60	63.19
642.75	46.81
642.90	4.68
643.04	0.00
643.19	35.11
643.34	79.58
643.48	110.01
643.63	42.13
643.78	18.72
643.93	84.26
644.07	128.73
644.22	37.45
644.37	77.24
644.51	107.66
644.66	32.77
644.81	119.37
644.95	58.51
645.10	88.94
645.25	135.75
645.39	0.00
645.54	65.54
645.69	124.05
645.83	56.17
645.98	32.77
646.13	0.00
646.27	53.83
646.42	0.00
646.57	49.15
646.71	21.06
646.86	21.06
647.00	117.03
647.15	28.09
647.30	65.54
647.44	0.00
647.59	58.51
647.74	37.45
647.88	44.47
648.03	53.83
648.17	46.81
648.32	49.15
648.47	49.15
648.61	11.70
648.76	72.56
648.90	37.45
649.05	110.01
649.20	72.56
649.34	30.43
649.49	44.47
649.63	93.62
649.78	58.51
649.92	51.49
650.07	2.34
650.21	11.70
650.36	0.00
650.51	4.68
650.65	114.69
650.80	23.41
650.94	60.85
651.09	98.30
651.23	88.94
651.38	135.75
651.52	11.70
651.67	131.07
651.81	60.85
651.96	124.05
652.10	14.04
652.25	2.34
652.39	18.72
652.54	39.79
652.68	67.88
652.83	0.00
652.97	91.28
653.12	46.81
653.26	37.45
653.41	88.94
653.55	98.30
653.70	49.15
653.84	28.09
653.99	4.68
654.13	35.11
654.27	9.36
654.42	39.79
654.56	23.41
654.71	107.66
654.85	42.13
655.00	39.79
655.14	60.85
655.29	65.54
655.43	46.81
655.57	77.24
655.72	32.77
655.86	51.49
656.01	2.34
656.15	9.36
656.30	51.49
656.44	0.00
656.58	60.85
656.73	18.72
656.87	0.00
657.01	35.11
657.16	39.79
657.30	56.17
657.45	65.54
657.59	51.49
657.73	56.17
657.88	84.26
658.02	44.47
658.16	49.15
658.31	39.79
658.45	56.17
658.60	63.19
658.74	65.54
658.88	56.17
659.03	2.34
659.17	67.88
659.31	44.47
659.46	81.92
659.60	2.34
659.74	18.72
659.89	30.43
660.03	65.54
660.17	140.43
660.32	86.60
660.46	86.60
660.60	35.11
660.74	42.13
660.89	0.00
661.03	9.36
661.17	117.03
661.32	42.13
661.46	4.68
661.60	117.03
661.74	86.60
661.89	32.77
662.03	98.30
662.17	93.62
662.31	28.09
662.46	70.22
662.60	4.68
662.74	56.17
662.88	21.06
663.03	28.09
663.17	28.09
663.31	49.15
663.45	11.70
663.60	63.19
663.74	72.56
663.88	70.22
664.02	4.68
664.17	32.77
664.31	0.00
664.45	37.45
664.59	51.49
664.73	86.60
664.88	23.41
665.02	65.54
665.16	77.24
665.30	37.45
665.44	18.72
665.59	51.49
665.73	14.04
665.87	84.26
666.01	32.77
666.15	88.94
666.29	67.88
666.44	67.88
666.58	46.81
666.72	11.70
666.86	46.81
667.00	46.81
667.14	37.45
667.28	56.17
667.43	58.51
667.57	14.04
667.71	138.09
667.85	49.15
667.99	102.98
668.13	42.13
668.27	70.22
668.41	0.00
668.56	14.04
668.70	30.43
668.84	11.70
668.98	18.72
669.12	23.41
669.26	60.85
669.40	35.11
669.54	70.22
669.68	49.15
669.82	30.43
669.96	56.17
670.10	100.64
670.25	37.45
670.39	79.58
670.53	65.54
670.67	140.43
670.81	72.56
670.95	0.00
671.09	30.43
671.23	46.81
671.37	60.85
671.51	0.00
671.65	7.02
671.79	4.68
671.93	95.96
672.07	110.01
672.21	30.43
672.35	0.00
672.49	56.17
672.63	32.77
672.77	49.15
672.91	56.17
673.05	42.13
673.19	60.85
673.33	46.81
673.47	21.06
673.61	51.49
673.75	21.06
673.89	51.49
674.03	0.00
674.17	56.17
674.31	81.92
674.45	25.75
674.59	107.66
674.73	70.22
674.87	72.56
675.01	44.47
675.15	145.11
675.29	88.94
675.43	46.81
675.56	74.90
675.70	56.17
675.84	46.81
675.98	65.54
676.12	98.30
676.26	44.47
676.40	58.51
676.54	72.56
676.68	53.83
676.82	42.13
676.96	35.11
677.10	74.90
677.23	77.24
677.37	0.00
677.51	35.11
677.65	65.54
677.79	32.77
677.93	65.54
678.07	23.41
678.21	0.00
678.34	25.75
678.48	4.68
678.62	56.17
678.76	0.00
678.90	86.60
679.04	42.13
679.18	58.51
679.31	88.94
679.45	0.00
679.59	0.00
679.73	79.58
679.87	117.03
680.00	0.00
680.14	60.85
680.28	18.72
680.42	4.68
680.56	107.66
680.70	91.28
680.83	37.45
680.97	30.43
681.11	0.00
681.25	0.00
681.39	0.00
681.52	42.13
681.66	63.19
681.80	98.30
681.94	107.66
682.07	35.11
682.21	35.11
682.35	53.83
682.49	0.00
682.62	37.45
682.76	72.56
682.90	79.58
683.04	65.54
683.17	0.00
683.31	25.75
683.45	53.83
683.59	37.45
683.72	0.00
683.86	65.54
684.00	51.49
684.13	117.03
684.27	37.45
684.41	0.00
684.55	56.17
684.68	77.24
684.82	44.47
684.96	72.56
685.09	79.58
685.23	28.09
685.37	58.51
685.50	0.00
685.64	35.11
685.78	18.72
685.91	21.06
686.05	35.11
686.19	23.41
686.32	67.88
686.46	39.79
686.60	77.24
686.73	65.54
686.87	4.68
687.01	35.11
687.14	16.38
687.28	21.06
687.42	0.00
687.55	11.70
687.69	4.68
687.82	37.45
687.96	95.96
688.10	30.43
688.23	60.85
688.37	121.71
688.50	44.47
688.64	56.17
688.78	18.72
688.91	49.15
689.05	0.00
689.18	37.45
689.32	18.72
689.46	70.22
689.59	0.00
689.73	93.62
689.86	37.45
690.00	0.00
690.13	44.47
690.27	53.83
690.41	18.72
690.54	0.00
690.68	9.36
690.81	16.38
690.95	51.49
691.08	58.51
691.22	77.24
691.35	35.11
691.49	63.19
691.62	86.60
691.76	51.49
691.89	0.00
692.03	9.36
692.16	0.00
692.30	39.79
692.43	42.13
692.57	14.04
692.70	0.00
692.84	72.56
692.97	74.90
693.11	95.96
693.24	0.00
693.38	60.85
693.51	2.34
693.65	65.54
693.78	0.00
693.92	35.11
694.05	58.51
694.19	46.81
694.32	0.00
694.45	39.79
694.59	30.43
694.72	16.38
694.86	44.47
694.99	91.28
695.13	49.15
695.26	35.11
695.39	44.47
695.53	35.11
695.66	32.77
695.80	11.70
695.93	46.81
696.07	79.58
696.20	0.00
696.33	18.72
696.47	35.11
696.60	30.43
696.73	21.06
696.87	46.81
697.00	32.77
697.14	74.90
697.27	28.09
697.40	110.01
697.54	42.13
697.67	0.00
697.80	0.00
697.94	18.72
698.07	28.09
698.21	14.04
698.34	72.56
698.47	58.51
698.61	0.00
698.74	86.60
698.87	32.77
699.01	117.03
699.14	91.28
699.27	100.64
699.40	77.24
699.54	63.19
699.67	35.11
699.80	0.00
699.94	11.70
700.07	30.43
700.20	88.94
700.34	79.58
700.47	0.00
700.60	25.75
700.73	91.28
700.87	16.38
701.00	30.43
701.13	0.00
701.26	18.72
701.40	35.11
701.53	49.15
701.66	49.15
701.79	0.00
701.93	0.00
702.06	28.09
702.19	9.36
702.32	98.30
702.46	7.02
702.59	102.98
702.72	63.19
702.85	0.00
702.99	9.36
703.12	39.79
703.25	51.49
703.38	91.28
703.51	81.92
703.65	25.75
703.78	9.36
703.91	32.77
704.04	18.72
704.17	14.04
704.31	49.15
704.44	25.75
704.57	0.00
704.70	2.34
704.83	32.77
704.96	91.28
705.10	28.09
705.23	0.00
>>>>>End Processed Spectral Data<<<<<
