SpectraSuite Data File
++++++++++++++++++++++++++++++++++++
Date: Fri Oct 04 12:13:43 GMT-05:00 2013
User: price-jones
Dark Spectrum Present: No
Reference Spectrum Present: No
Number of Sampled Component Spectra: 1
Spectrometers: USB2+H05261
Integration Time (usec): 10000 (USB2+H05261)
Spectra Averaged: 1 (USB2+H05261)
Boxcar Smoothing: 0 (USB2+H05261)
Correct for Electrical Dark: No (USB2+H05261)
Strobe/Lamp Enabled: No (USB2+H05261)
Correct for Detector Non-linearity: No (USB2+H05261)
Correct for Stray Light: No (USB2+H05261)
Number of Pixels in Processed Spectrum: 2048
>>>>>Begin Processed Spectral Data<<<<<
365.73	4.68
365.92	4.68
366.12	4.68
366.32	0.00
366.52	0.00
366.72	0.00
366.91	0.00
367.11	0.00
367.31	0.00
367.51	0.00
367.70	0.00
367.90	0.00
368.10	0.00
368.30	0.00
368.49	0.00
368.69	0.00
368.89	0.00
369.09	0.00
369.28	0.00
369.48	0.00
369.68	0.00
369.87	0.00
370.07	0.00
370.27	0.00
370.47	0.00
370.66	0.00
370.86	0.00
371.06	0.00
371.25	9.36
371.45	0.00
371.65	0.00
371.84	16.38
372.04	0.00
372.24	39.79
372.44	0.00
372.63	60.85
372.83	42.13
373.03	0.00
373.22	0.00
373.42	7.02
373.62	4.68
373.81	0.00
374.01	0.00
374.21	30.43
374.40	14.04
374.60	0.00
374.79	42.13
374.99	0.00
375.19	18.72
375.38	51.49
375.58	16.38
375.78	21.06
375.97	11.70
376.17	21.06
376.37	49.15
376.56	0.00
376.76	0.00
376.95	0.00
377.15	32.77
377.35	16.38
377.54	65.54
377.74	32.77
377.93	58.51
378.13	0.00
378.33	72.56
378.52	58.51
378.72	9.36
378.91	56.17
379.11	16.38
379.31	0.00
379.50	18.72
379.70	4.68
379.89	2.34
380.09	0.00
380.28	98.30
380.48	37.45
380.68	0.00
380.87	49.15
381.07	0.00
381.26	16.38
381.46	46.81
381.65	51.49
381.85	30.43
382.04	23.41
382.24	16.38
382.43	0.00
382.63	21.06
382.83	0.00
383.02	23.41
383.22	39.79
383.41	0.00
383.61	28.09
383.80	0.00
384.00	7.02
384.19	0.00
384.39	42.13
384.58	4.68
384.78	65.54
384.97	0.00
385.17	0.00
385.36	28.09
385.56	28.09
385.75	0.00
385.95	0.00
386.14	53.83
386.34	67.88
386.53	0.00
386.72	35.11
386.92	39.79
387.11	44.47
387.31	0.00
387.50	9.36
387.70	42.13
387.89	0.00
388.09	0.00
388.28	2.34
388.48	0.00
388.67	74.90
388.86	23.41
389.06	0.00
389.25	86.60
389.45	39.79
389.64	18.72
389.84	35.11
390.03	72.56
390.22	65.54
390.42	91.28
390.61	9.36
390.81	9.36
391.00	53.83
391.19	0.00
391.39	23.41
391.58	9.36
391.78	16.38
391.97	0.00
392.16	16.38
392.36	18.72
392.55	4.68
392.75	9.36
392.94	2.34
393.13	0.00
393.33	0.00
393.52	114.69
393.71	16.38
393.91	14.04
394.10	49.15
394.29	46.81
394.49	51.49
394.68	51.49
394.88	56.17
395.07	67.88
395.26	9.36
395.46	44.47
395.65	67.88
395.84	84.26
396.04	131.07
396.23	63.19
396.42	0.00
396.62	0.00
396.81	25.75
397.00	53.83
397.19	65.54
397.39	0.00
397.58	0.00
397.77	0.00
397.97	0.00
398.16	63.19
398.35	88.94
398.55	63.19
398.74	32.77
398.93	21.06
399.12	0.00
399.32	2.34
399.51	35.11
399.70	65.54
399.90	0.00
400.09	35.11
400.28	0.00
400.47	77.24
400.67	30.43
400.86	0.00
401.05	53.83
401.24	65.54
401.44	105.32
401.63	0.00
401.82	81.92
402.01	65.54
402.21	21.06
402.40	37.45
402.59	0.00
402.78	9.36
402.97	39.79
403.17	0.00
403.36	56.17
403.55	9.36
403.74	81.92
403.93	9.36
404.13	0.00
404.32	18.72
404.51	21.06
404.70	32.77
404.89	105.32
405.09	14.04
405.28	114.69
405.47	4.68
405.66	30.43
405.85	0.00
406.05	37.45
406.24	70.22
406.43	98.30
406.62	7.02
406.81	14.04
407.00	79.58
407.20	70.22
407.39	49.15
407.58	0.00
407.77	39.79
407.96	7.02
408.15	49.15
408.34	49.15
408.54	0.00
408.73	67.88
408.92	25.75
409.11	72.56
409.30	0.00
409.49	84.26
409.68	7.02
409.87	0.00
410.07	37.45
410.26	14.04
410.45	4.68
410.64	44.47
410.83	14.04
411.02	58.51
411.21	105.32
411.40	67.88
411.59	0.00
411.78	46.81
411.98	0.00
412.17	74.90
412.36	86.60
412.55	28.09
412.74	117.03
412.93	9.36
413.12	23.41
413.31	37.45
413.50	44.47
413.69	86.60
413.88	58.51
414.07	18.72
414.26	51.49
414.45	35.11
414.64	9.36
414.83	0.00
415.02	18.72
415.22	44.47
415.41	0.00
415.60	67.88
415.79	67.88
415.98	30.43
416.17	0.00
416.36	2.34
416.55	16.38
416.74	0.00
416.93	49.15
417.12	0.00
417.31	14.04
417.50	53.83
417.69	49.15
417.88	65.54
418.07	98.30
418.26	30.43
418.45	37.45
418.64	7.02
418.83	25.75
419.02	88.94
419.21	28.09
419.39	60.85
419.58	25.75
419.77	67.88
419.96	21.06
420.15	46.81
420.34	25.75
420.53	49.15
420.72	93.62
420.91	21.06
421.10	0.00
421.29	42.13
421.48	14.04
421.67	51.49
421.86	72.56
422.05	79.58
422.24	65.54
422.43	0.00
422.61	23.41
422.80	56.17
422.99	7.02
423.18	0.00
423.37	88.94
423.56	28.09
423.75	117.03
423.94	84.26
424.13	63.19
424.32	84.26
424.50	42.13
424.69	72.56
424.88	39.79
425.07	0.00
425.26	30.43
425.45	9.36
425.64	30.43
425.83	102.98
426.01	56.17
426.20	131.07
426.39	0.00
426.58	30.43
426.77	39.79
426.96	0.00
427.15	0.00
427.33	11.70
427.52	49.15
427.71	35.11
427.90	91.28
428.09	16.38
428.28	23.41
428.46	44.47
428.65	42.13
428.84	42.13
429.03	46.81
429.22	88.94
429.40	88.94
429.59	18.72
429.78	51.49
429.97	77.24
430.16	44.47
430.34	0.00
430.53	11.70
430.72	56.17
430.91	58.51
431.10	51.49
431.28	28.09
431.47	74.90
431.66	100.64
431.85	63.19
432.03	70.22
432.22	58.51
432.41	11.70
432.60	37.45
432.79	119.37
432.97	0.00
433.16	4.68
433.35	49.15
433.54	0.00
433.72	58.51
433.91	51.49
434.10	7.02
434.28	42.13
434.47	56.17
434.66	42.13
434.85	110.01
435.03	18.72
435.22	23.41
435.41	25.75
435.59	0.00
435.78	0.00
435.97	49.15
436.16	0.00
436.34	72.56
436.53	23.41
436.72	37.45
436.90	23.41
437.09	0.00
437.28	4.68
437.46	7.02
437.65	56.17
437.84	65.54
438.02	32.77
438.21	0.00
438.40	114.69
438.58	7.02
438.77	53.83
438.96	35.11
439.14	16.38
439.33	9.36
439.52	100.64
439.70	28.09
439.89	25.75
440.08	23.41
440.26	18.72
440.45	44.47
440.63	0.00
440.82	0.00
441.01	63.19
441.19	53.83
441.38	51.49
441.57	67.88
441.75	121.71
441.94	67.88
442.12	77.24
442.31	86.60
442.50	35.11
442.68	79.58
442.87	60.85
443.05	81.92
443.24	0.00
443.43	56.17
443.61	44.47
443.80	79.58
443.98	74.90
444.17	42.13
444.35	67.88
444.54	42.13
444.73	84.26
444.91	98.30
445.10	70.22
445.28	25.75
445.47	9.36
445.65	21.06
445.84	32.77
446.02	39.79
446.21	72.56
446.39	39.79
446.58	79.58
446.77	63.19
446.95	74.90
447.14	70.22
447.32	98.30
447.51	32.77
447.69	39.79
447.88	42.13
448.06	30.43
448.25	91.28
448.43	44.47
448.62	135.75
448.80	42.13
448.99	35.11
449.17	67.88
449.36	128.73
449.54	53.83
449.73	49.15
449.91	53.83
450.10	79.58
450.28	0.00
450.46	91.28
450.65	65.54
450.83	58.51
451.02	60.85
451.20	30.43
451.39	98.30
451.57	81.92
451.76	49.15
451.94	25.75
452.13	39.79
452.31	39.79
452.49	14.04
452.68	63.19
452.86	56.17
453.05	79.58
453.23	84.26
453.42	72.56
453.60	39.79
453.78	60.85
453.97	65.54
454.15	11.70
454.34	14.04
454.52	0.00
454.70	91.28
454.89	60.85
455.07	11.70
455.26	51.49
455.44	0.00
455.62	63.19
455.81	65.54
455.99	46.81
456.17	51.49
456.36	56.17
456.54	28.09
456.73	39.79
456.91	25.75
457.09	0.00
457.28	42.13
457.46	58.51
457.64	42.13
457.83	11.70
458.01	32.77
458.19	70.22
458.38	100.64
458.56	18.72
458.74	30.43
458.93	77.24
459.11	51.49
459.29	81.92
459.48	110.01
459.66	91.28
459.84	0.00
460.03	74.90
460.21	0.00
460.39	0.00
460.57	23.41
460.76	53.83
460.94	11.70
461.12	49.15
461.31	11.70
461.49	30.43
461.67	23.41
461.85	0.00
462.04	4.68
462.22	114.69
462.40	110.01
462.59	44.47
462.77	9.36
462.95	70.22
463.13	81.92
463.32	25.75
463.50	107.66
463.68	53.83
463.86	67.88
464.05	0.00
464.23	46.81
464.41	49.15
464.59	11.70
464.78	49.15
464.96	51.49
465.14	56.17
465.32	81.92
465.50	65.54
465.69	74.90
465.87	16.38
466.05	0.00
466.23	84.26
466.41	21.06
466.60	95.96
466.78	53.83
466.96	37.45
467.14	25.75
467.32	51.49
467.51	0.00
467.69	18.72
467.87	28.09
468.05	35.11
468.23	14.04
468.41	126.39
468.60	42.13
468.78	70.22
468.96	39.79
469.14	39.79
469.32	86.60
469.50	72.56
469.69	39.79
469.87	39.79
470.05	44.47
470.23	44.47
470.41	58.51
470.59	37.45
470.77	84.26
470.95	32.77
471.14	44.47
471.32	46.81
471.50	30.43
471.68	131.07
471.86	81.92
472.04	23.41
472.22	63.19
472.40	56.17
472.58	56.17
472.77	42.13
472.95	0.00
473.13	114.69
473.31	16.38
473.49	44.47
473.67	95.96
473.85	77.24
474.03	0.00
474.21	72.56
474.39	65.54
474.57	49.15
474.75	100.64
474.93	44.47
475.12	23.41
475.30	0.00
475.48	112.35
475.66	65.54
475.84	46.81
476.02	58.51
476.20	105.32
476.38	7.02
476.56	105.32
476.74	14.04
476.92	28.09
477.10	58.51
477.28	81.92
477.46	77.24
477.64	21.06
477.82	93.62
478.00	11.70
478.18	107.66
478.36	110.01
478.54	70.22
478.72	74.90
478.90	0.00
479.08	100.64
479.26	35.11
479.44	11.70
479.62	60.85
479.80	102.98
479.98	39.79
480.16	93.62
480.34	25.75
480.52	32.77
480.70	56.17
480.88	44.47
481.06	0.00
481.24	46.81
481.41	60.85
481.59	72.56
481.77	39.79
481.95	0.00
482.13	32.77
482.31	63.19
482.49	37.45
482.67	0.00
482.85	105.32
483.03	95.96
483.21	112.35
483.39	4.68
483.57	0.00
483.74	60.85
483.92	112.35
484.10	58.51
484.28	95.96
484.46	84.26
484.64	84.26
484.82	79.58
485.00	91.28
485.18	37.45
485.35	86.60
485.53	110.01
485.71	84.26
485.89	21.06
486.07	0.00
486.25	102.98
486.43	21.06
486.61	79.58
486.78	95.96
486.96	70.22
487.14	25.75
487.32	81.92
487.50	37.45
487.68	93.62
487.85	63.19
488.03	88.94
488.21	74.90
488.39	60.85
488.57	112.35
488.75	77.24
488.92	37.45
489.10	65.54
489.28	46.81
489.46	56.17
489.64	60.85
489.81	86.60
489.99	23.41
490.17	44.47
490.35	77.24
490.53	107.66
490.70	44.47
490.88	81.92
491.06	65.54
491.24	100.64
491.41	67.88
491.59	70.22
491.77	117.03
491.95	58.51
492.13	21.06
492.30	81.92
492.48	133.41
492.66	37.45
492.84	53.83
493.01	37.45
493.19	88.94
493.37	159.16
493.54	25.75
493.72	95.96
493.90	128.73
494.08	0.00
494.25	107.66
494.43	30.43
494.61	107.66
494.79	133.41
494.96	114.69
495.14	72.56
495.32	100.64
495.49	70.22
495.67	145.11
495.85	81.92
496.02	128.73
496.20	114.69
496.38	2.34
496.55	35.11
496.73	72.56
496.91	58.51
497.09	149.79
497.26	37.45
497.44	77.24
497.62	117.03
497.79	65.54
497.97	60.85
498.14	63.19
498.32	23.41
498.50	86.60
498.67	119.37
498.85	72.56
499.03	124.05
499.20	72.56
499.38	81.92
499.56	88.94
499.73	51.49
499.91	102.98
500.08	53.83
500.26	119.37
500.44	79.58
500.61	154.48
500.79	102.98
500.97	117.03
501.14	145.11
501.32	63.19
501.49	58.51
501.67	81.92
501.84	105.32
502.02	28.09
502.20	58.51
502.37	117.03
502.55	58.51
502.72	131.07
502.90	110.01
503.07	95.96
503.25	65.54
503.43	56.17
503.60	74.90
503.78	53.83
503.95	51.49
504.13	37.45
504.30	95.96
504.48	93.62
504.65	60.85
504.83	63.19
505.01	70.22
505.18	39.79
505.36	131.07
505.53	100.64
505.71	100.64
505.88	79.58
506.06	74.90
506.23	74.90
506.41	53.83
506.58	126.39
506.76	98.30
506.93	154.48
507.11	70.22
507.28	72.56
507.46	128.73
507.63	84.26
507.81	60.85
507.98	140.43
508.16	58.51
508.33	91.28
508.50	98.30
508.68	30.43
508.85	102.98
509.03	39.79
509.20	49.15
509.38	56.17
509.55	77.24
509.73	72.56
509.90	51.49
510.08	112.35
510.25	51.49
510.42	79.58
510.60	35.11
510.77	117.03
510.95	98.30
511.12	77.24
511.30	53.83
511.47	79.58
511.64	60.85
511.82	77.24
511.99	14.04
512.17	98.30
512.34	131.07
512.51	124.05
512.69	107.66
512.86	86.60
513.04	86.60
513.21	112.35
513.38	84.26
513.56	49.15
513.73	95.96
513.90	56.17
514.08	91.28
514.25	91.28
514.43	70.22
514.60	11.70
514.77	72.56
514.95	81.92
515.12	39.79
515.29	91.28
515.47	25.75
515.64	58.51
515.81	46.81
515.99	100.64
516.16	21.06
516.33	60.85
516.51	60.85
516.68	86.60
516.85	98.30
517.03	46.81
517.20	58.51
517.37	152.13
517.54	51.49
517.72	32.77
517.89	56.17
518.06	81.92
518.24	156.82
518.41	86.60
518.58	63.19
518.75	49.15
518.93	81.92
519.10	133.41
519.27	124.05
519.45	119.37
519.62	74.90
519.79	102.98
519.96	81.92
520.14	102.98
520.31	53.83
520.48	37.45
520.65	42.13
520.83	88.94
521.00	58.51
521.17	23.41
521.34	53.83
521.52	105.32
521.69	117.03
521.86	9.36
522.03	37.45
522.20	28.09
522.38	84.26
522.55	0.00
522.72	105.32
522.89	25.75
523.07	119.37
523.24	121.71
523.41	105.32
523.58	77.24
523.75	93.62
523.92	86.60
524.10	93.62
524.27	14.04
524.44	74.90
524.61	100.64
524.78	86.60
524.96	138.09
525.13	110.01
525.30	79.58
525.47	93.62
525.64	191.92
525.81	156.82
525.98	180.22
526.16	0.00
526.33	63.19
526.50	7.02
526.67	105.32
526.84	98.30
527.01	84.26
527.18	65.54
527.36	11.70
527.53	74.90
527.70	65.54
527.87	77.24
528.04	72.56
528.21	32.77
528.38	95.96
528.55	58.51
528.72	152.13
528.89	91.28
529.07	124.05
529.24	86.60
529.41	128.73
529.58	77.24
529.75	32.77
529.92	60.85
530.09	98.30
530.26	107.66
530.43	79.58
530.60	93.62
530.77	86.60
530.94	70.22
531.11	119.37
531.28	88.94
531.46	86.60
531.63	81.92
531.80	56.17
531.97	156.82
532.14	114.69
532.31	84.26
532.48	37.45
532.65	110.01
532.82	79.58
532.99	88.94
533.16	63.19
533.33	117.03
533.50	51.49
533.67	44.47
533.84	37.45
534.01	110.01
534.18	79.58
534.35	18.72
534.52	81.92
534.69	44.47
534.86	100.64
535.03	133.41
535.20	154.48
535.37	112.35
535.54	42.13
535.71	126.39
535.88	128.73
536.05	91.28
536.22	86.60
536.38	65.54
536.55	142.77
536.72	114.69
536.89	93.62
537.06	56.17
537.23	110.01
537.40	21.06
537.57	84.26
537.74	65.54
537.91	60.85
538.08	133.41
538.25	102.98
538.42	95.96
538.59	126.39
538.75	74.90
538.92	37.45
539.09	39.79
539.26	81.92
539.43	117.03
539.60	44.47
539.77	128.73
539.94	88.94
540.11	110.01
540.28	88.94
540.44	58.51
540.61	77.24
540.78	93.62
540.95	147.45
541.12	72.56
541.29	25.75
541.46	105.32
541.62	81.92
541.79	93.62
541.96	51.49
542.13	161.50
542.30	131.07
542.47	140.43
542.63	112.35
542.80	140.43
542.97	112.35
543.14	58.51
543.31	53.83
543.48	124.05
543.64	140.43
543.81	42.13
543.98	100.64
544.15	154.48
544.32	88.94
544.48	86.60
544.65	70.22
544.82	49.15
544.99	46.81
545.16	88.94
545.32	72.56
545.49	163.84
545.66	58.51
545.83	51.49
546.00	46.81
546.16	0.00
546.33	67.88
546.50	72.56
546.67	88.94
546.83	53.83
547.00	88.94
547.17	95.96
547.34	21.06
547.50	84.26
547.67	42.13
547.84	14.04
548.00	65.54
548.17	93.62
548.34	49.15
548.51	88.94
548.67	67.88
548.84	81.92
549.01	67.88
549.18	44.47
549.34	81.92
549.51	81.92
549.68	32.77
549.84	46.81
550.01	79.58
550.18	74.90
550.34	86.60
550.51	77.24
550.68	124.05
550.84	133.41
551.01	88.94
551.18	98.30
551.34	72.56
551.51	91.28
551.68	93.62
551.84	70.22
552.01	44.47
552.18	131.07
552.34	170.86
552.51	53.83
552.68	37.45
552.84	93.62
553.01	95.96
553.18	102.98
553.34	51.49
553.51	32.77
553.67	39.79
553.84	56.17
554.01	98.30
554.17	84.26
554.34	81.92
554.51	7.02
554.67	44.47
554.84	95.96
555.00	131.07
555.17	100.64
555.33	42.13
555.50	39.79
555.67	100.64
555.83	23.41
556.00	93.62
556.16	102.98
556.33	49.15
556.50	53.83
556.66	49.15
556.83	114.69
556.99	102.98
557.16	98.30
557.32	81.92
557.49	28.09
557.65	95.96
557.82	93.62
557.98	88.94
558.15	114.69
558.32	107.66
558.48	56.17
558.65	91.28
558.81	56.17
558.98	100.64
559.14	140.43
559.31	51.49
559.47	98.30
559.64	86.60
559.80	56.17
559.97	81.92
560.13	70.22
560.30	46.81
560.46	37.45
560.63	112.35
560.79	70.22
560.96	65.54
561.12	81.92
561.29	140.43
561.45	131.07
561.61	63.19
561.78	74.90
561.94	65.54
562.11	112.35
562.27	182.56
562.44	37.45
562.60	53.83
562.77	135.75
562.93	56.17
563.10	88.94
563.26	67.88
563.42	81.92
563.59	88.94
563.75	95.96
563.92	60.85
564.08	95.96
564.24	124.05
564.41	133.41
564.57	124.05
564.74	58.51
564.90	39.79
565.07	119.37
565.23	91.28
565.39	58.51
565.56	121.71
565.72	98.30
565.88	72.56
566.05	86.60
566.21	100.64
566.38	37.45
566.54	100.64
566.70	65.54
566.87	84.26
567.03	49.15
567.19	39.79
567.36	74.90
567.52	16.38
567.68	84.26
567.85	37.45
568.01	70.22
568.17	72.56
568.34	173.20
568.50	37.45
568.66	51.49
568.83	86.60
568.99	77.24
569.15	107.66
569.32	21.06
569.48	135.75
569.64	9.36
569.81	117.03
569.97	11.70
570.13	44.47
570.30	18.72
570.46	95.96
570.62	67.88
570.78	98.30
570.95	126.39
571.11	105.32
571.27	67.88
571.43	35.11
571.60	102.98
571.76	63.19
571.92	25.75
572.09	128.73
572.25	60.85
572.41	23.41
572.57	0.00
572.74	138.09
572.90	14.04
573.06	11.70
573.22	58.51
573.38	65.54
573.55	72.56
573.71	95.96
573.87	56.17
574.03	21.06
574.20	39.79
574.36	25.75
574.52	14.04
574.68	86.60
574.84	124.05
575.01	44.47
575.17	63.19
575.33	67.88
575.49	37.45
575.65	93.62
575.82	86.60
575.98	39.79
576.14	105.32
576.30	154.48
576.46	65.54
576.62	14.04
576.79	58.51
576.95	168.52
577.11	110.01
577.27	51.49
577.43	81.92
577.59	105.32
577.75	107.66
577.92	65.54
578.08	56.17
578.24	49.15
578.40	81.92
578.56	107.66
578.72	70.22
578.88	65.54
579.04	53.83
579.21	79.58
579.37	180.22
579.53	53.83
579.69	56.17
579.85	102.98
580.01	63.19
580.17	42.13
580.33	60.85
580.49	91.28
580.65	84.26
580.82	56.17
580.98	11.70
581.14	18.72
581.30	72.56
581.46	119.37
581.62	37.45
581.78	100.64
581.94	81.92
582.10	117.03
582.26	100.64
582.42	121.71
582.58	98.30
582.74	138.09
582.90	124.05
583.06	100.64
583.22	114.69
583.38	128.73
583.54	42.13
583.70	0.00
583.86	102.98
584.02	37.45
584.18	70.22
584.34	142.77
584.50	37.45
584.66	58.51
584.82	44.47
584.98	100.64
585.14	58.51
585.30	79.58
585.46	42.13
585.62	70.22
585.78	67.88
585.94	107.66
586.10	49.15
586.26	105.32
586.42	65.54
586.58	35.11
586.74	77.24
586.90	110.01
587.06	86.60
587.22	25.75
587.38	53.83
587.54	107.66
587.70	65.54
587.86	98.30
588.02	65.54
588.18	65.54
588.34	91.28
588.49	0.00
588.65	86.60
588.81	9.36
588.97	2.34
589.13	70.22
589.29	46.81
589.45	91.28
589.61	100.64
589.77	79.58
589.93	4.68
590.08	58.51
590.24	107.66
590.40	147.45
590.56	140.43
590.72	0.00
590.88	142.77
591.04	67.88
591.20	46.81
591.35	163.84
591.51	88.94
591.67	49.15
591.83	14.04
591.99	60.85
592.15	28.09
592.31	63.19
592.46	138.09
592.62	30.43
592.78	37.45
592.94	11.70
593.10	95.96
593.26	53.83
593.41	49.15
593.57	121.71
593.73	184.90
593.89	77.24
594.05	28.09
594.20	65.54
594.36	72.56
594.52	93.62
594.68	60.85
594.84	11.70
594.99	42.13
595.15	93.62
595.31	124.05
595.47	77.24
595.62	72.56
595.78	128.73
595.94	74.90
596.10	53.83
596.25	63.19
596.41	105.32
596.57	58.51
596.73	93.62
596.88	39.79
597.04	93.62
597.20	18.72
597.36	49.15
597.51	74.90
597.67	60.85
597.83	46.81
597.99	131.07
598.14	114.69
598.30	86.60
598.46	110.01
598.61	56.17
598.77	67.88
598.93	140.43
599.09	84.26
599.24	49.15
599.40	56.17
599.56	28.09
599.71	56.17
599.87	81.92
600.03	67.88
600.18	44.47
600.34	88.94
600.50	14.04
600.65	49.15
600.81	84.26
600.97	7.02
601.12	91.28
601.28	93.62
601.44	70.22
601.59	28.09
601.75	159.16
601.91	74.90
602.06	65.54
602.22	77.24
602.37	35.11
602.53	51.49
602.69	131.07
602.84	84.26
603.00	0.00
603.16	79.58
603.31	60.85
603.47	79.58
603.62	79.58
603.78	110.01
603.94	42.13
604.09	32.77
604.25	112.35
604.40	53.83
604.56	9.36
604.71	44.47
604.87	117.03
605.03	42.13
605.18	154.48
605.34	98.30
605.49	39.79
605.65	46.81
605.80	0.00
605.96	114.69
606.12	63.19
606.27	81.92
606.43	77.24
606.58	128.73
606.74	98.30
606.89	117.03
607.05	149.79
607.20	67.88
607.36	0.00
607.51	77.24
607.67	74.90
607.82	37.45
607.98	84.26
608.13	102.98
608.29	77.24
608.44	60.85
608.60	72.56
608.75	114.69
608.91	135.75
609.06	79.58
609.22	60.85
609.37	42.13
609.53	42.13
609.68	60.85
609.84	84.26
609.99	46.81
610.15	32.77
610.30	110.01
610.46	65.54
610.61	18.72
610.76	91.28
610.92	65.54
611.07	39.79
611.23	121.71
611.38	42.13
611.54	79.58
611.69	72.56
611.84	63.19
612.00	0.00
612.15	46.81
612.31	9.36
612.46	88.94
612.62	30.43
612.77	70.22
612.92	46.81
613.08	77.24
613.23	77.24
613.39	170.86
613.54	56.17
613.69	65.54
613.85	121.71
614.00	91.28
614.15	0.00
614.31	0.00
614.46	98.30
614.62	53.83
614.77	117.03
614.92	32.77
615.08	93.62
615.23	18.72
615.38	72.56
615.54	77.24
615.69	74.90
615.84	98.30
616.00	16.38
616.15	110.01
616.30	60.85
616.46	79.58
616.61	102.98
616.76	95.96
616.92	100.64
617.07	72.56
617.22	0.00
617.37	126.39
617.53	0.00
617.68	39.79
617.83	98.30
617.99	105.32
618.14	117.03
618.29	46.81
618.45	88.94
618.60	100.64
618.75	56.17
618.90	53.83
619.06	35.11
619.21	102.98
619.36	30.43
619.51	117.03
619.67	39.79
619.82	77.24
619.97	28.09
620.12	18.72
620.28	100.64
620.43	105.32
620.58	77.24
620.73	0.00
620.89	110.01
621.04	114.69
621.19	74.90
621.34	21.06
621.49	93.62
621.65	39.79
621.80	65.54
621.95	145.11
622.10	65.54
622.25	53.83
622.41	67.88
622.56	86.60
622.71	93.62
622.86	53.83
623.01	84.26
623.16	0.00
623.32	30.43
623.47	30.43
623.62	46.81
623.77	74.90
623.92	79.58
624.07	105.32
624.23	98.30
624.38	0.00
624.53	49.15
624.68	32.77
624.83	23.41
624.98	0.00
625.13	37.45
625.29	91.28
625.44	72.56
625.59	25.75
625.74	58.51
625.89	79.58
626.04	138.09
626.19	25.75
626.34	126.39
626.49	93.62
626.65	95.96
626.80	46.81
626.95	53.83
627.10	28.09
627.25	84.26
627.40	117.03
627.55	65.54
627.70	53.83
627.85	95.96
628.00	98.30
628.15	121.71
628.30	147.45
628.45	42.13
628.60	84.26
628.76	156.82
628.91	98.30
629.06	65.54
629.21	0.00
629.36	2.34
629.51	51.49
629.66	0.00
629.81	107.66
629.96	60.85
630.11	42.13
630.26	51.49
630.41	42.13
630.56	145.11
630.71	81.92
630.86	21.06
631.01	46.81
631.16	0.00
631.31	30.43
631.46	37.45
631.61	67.88
631.76	32.77
631.91	86.60
632.06	4.68
632.21	79.58
632.36	60.85
632.51	70.22
632.66	21.06
632.81	28.09
632.96	46.81
633.10	0.00
633.25	107.66
633.40	25.75
633.55	98.30
633.70	81.92
633.85	58.51
634.00	65.54
634.15	0.00
634.30	100.64
634.45	65.54
634.60	49.15
634.75	70.22
634.90	63.19
635.05	145.11
635.19	112.35
635.34	30.43
635.49	0.00
635.64	79.58
635.79	4.68
635.94	42.13
636.09	58.51
636.24	58.51
636.39	53.83
636.53	58.51
636.68	110.01
636.83	23.41
636.98	119.37
637.13	102.98
637.28	65.54
637.43	0.00
637.57	107.66
637.72	63.19
637.87	18.72
638.02	11.70
638.17	18.72
638.32	149.79
638.46	84.26
638.61	53.83
638.76	56.17
638.91	70.22
639.06	70.22
639.20	79.58
639.35	102.98
639.50	63.19
639.65	51.49
639.80	70.22
639.94	46.81
640.09	18.72
640.24	46.81
640.39	81.92
640.54	42.13
640.68	51.49
640.83	53.83
640.98	88.94
641.13	63.19
641.27	9.36
641.42	37.45
641.57	39.79
641.72	23.41
641.86	18.72
642.01	86.60
642.16	65.54
642.31	16.38
642.45	74.90
642.60	37.45
642.75	42.13
642.90	93.62
643.04	21.06
643.19	18.72
643.34	105.32
643.48	86.60
643.63	86.60
643.78	145.11
643.93	53.83
644.07	53.83
644.22	67.88
644.37	79.58
644.51	112.35
644.66	0.00
644.81	28.09
644.95	28.09
645.10	37.45
645.25	35.11
645.39	79.58
645.54	65.54
645.69	65.54
645.83	63.19
645.98	42.13
646.13	121.71
646.27	51.49
646.42	100.64
646.57	53.83
646.71	145.11
646.86	42.13
647.00	30.43
647.15	84.26
647.30	32.77
647.44	51.49
647.59	72.56
647.74	100.64
647.88	77.24
648.03	65.54
648.17	60.85
648.32	0.00
648.47	9.36
648.61	49.15
648.76	37.45
648.90	11.70
649.05	11.70
649.20	51.49
649.34	100.64
649.49	51.49
649.63	37.45
649.78	95.96
649.92	79.58
650.07	72.56
650.21	32.77
650.36	32.77
650.51	23.41
650.65	147.45
650.80	37.45
650.94	42.13
651.09	67.88
651.23	2.34
651.38	100.64
651.52	46.81
651.67	28.09
651.81	51.49
651.96	105.32
652.10	7.02
652.25	145.11
652.39	88.94
652.54	0.00
652.68	91.28
652.83	42.13
652.97	79.58
653.12	81.92
653.26	67.88
653.41	49.15
653.55	0.00
653.70	0.00
653.84	4.68
653.99	23.41
654.13	70.22
654.27	21.06
654.42	16.38
654.56	0.00
654.71	58.51
654.85	53.83
655.00	37.45
655.14	21.06
655.29	53.83
655.43	140.43
655.57	119.37
655.72	74.90
655.86	14.04
656.01	0.00
656.15	23.41
656.30	42.13
656.44	32.77
656.58	53.83
656.73	35.11
656.87	58.51
657.01	72.56
657.16	114.69
657.30	14.04
657.45	23.41
657.59	46.81
657.73	0.00
657.88	65.54
658.02	70.22
658.16	23.41
658.31	88.94
658.45	25.75
658.60	0.00
658.74	114.69
658.88	30.43
659.03	0.00
659.17	63.19
659.31	28.09
659.46	21.06
659.60	91.28
659.74	63.19
659.89	35.11
660.03	44.47
660.17	93.62
660.32	81.92
660.46	63.19
660.60	72.56
660.74	65.54
660.89	42.13
661.03	77.24
661.17	91.28
661.32	9.36
661.46	81.92
661.60	72.56
661.74	93.62
661.89	124.05
662.03	79.58
662.17	88.94
662.31	56.17
662.46	88.94
662.60	112.35
662.74	0.00
662.88	84.26
663.03	23.41
663.17	81.92
663.31	95.96
663.45	67.88
663.60	37.45
663.74	86.60
663.88	35.11
664.02	30.43
664.17	0.00
664.31	37.45
664.45	51.49
664.59	56.17
664.73	74.90
664.88	58.51
665.02	37.45
665.16	0.00
665.30	42.13
665.44	74.90
665.59	32.77
665.73	51.49
665.87	74.90
666.01	70.22
666.15	100.64
666.29	124.05
666.44	7.02
666.58	63.19
666.72	16.38
666.86	74.90
667.00	14.04
667.14	39.79
667.28	58.51
667.43	105.32
667.57	30.43
667.71	39.79
667.85	110.01
667.99	81.92
668.13	88.94
668.27	0.00
668.41	70.22
668.56	88.94
668.70	147.45
668.84	63.19
668.98	44.47
669.12	0.00
669.26	98.30
669.40	21.06
669.54	53.83
669.68	32.77
669.82	93.62
669.96	102.98
670.10	98.30
670.25	91.28
670.39	21.06
670.53	58.51
670.67	39.79
670.81	35.11
670.95	79.58
671.09	0.00
671.23	140.43
671.37	65.54
671.51	16.38
671.65	79.58
671.79	88.94
671.93	25.75
672.07	9.36
672.21	53.83
672.35	37.45
672.49	35.11
672.63	77.24
672.77	25.75
672.91	23.41
673.05	60.85
673.19	0.00
673.33	72.56
673.47	0.00
673.61	63.19
673.75	11.70
673.89	46.81
674.03	0.00
674.17	0.00
674.31	67.88
674.45	14.04
674.59	84.26
674.73	67.88
674.87	14.04
675.01	65.54
675.15	98.30
675.29	91.28
675.43	18.72
675.56	0.00
675.70	91.28
675.84	14.04
675.98	74.90
676.12	88.94
676.26	77.24
676.40	32.77
676.54	11.70
676.68	9.36
676.82	56.17
676.96	58.51
677.10	9.36
677.23	18.72
677.37	124.05
677.51	14.04
677.65	14.04
677.79	0.00
677.93	0.00
678.07	72.56
678.21	56.17
678.34	16.38
678.48	0.00
678.62	0.00
678.76	63.19
678.90	46.81
679.04	65.54
679.18	79.58
679.31	0.00
679.45	9.36
679.59	37.45
679.73	37.45
679.87	58.51
680.00	84.26
680.14	42.13
680.28	9.36
680.42	14.04
680.56	79.58
680.70	105.32
680.83	60.85
680.97	46.81
681.11	9.36
681.25	67.88
681.39	0.00
681.52	77.24
681.66	72.56
681.80	9.36
681.94	72.56
682.07	7.02
682.21	56.17
682.35	60.85
682.49	53.83
682.62	79.58
682.76	58.51
682.90	4.68
683.04	39.79
683.17	0.00
683.31	58.51
683.45	107.66
683.59	21.06
683.72	65.54
683.86	11.70
684.00	42.13
684.13	56.17
684.27	74.90
684.41	30.43
684.55	0.00
684.68	0.00
684.82	37.45
684.96	30.43
685.09	81.92
685.23	49.15
685.37	93.62
685.50	32.77
685.64	39.79
685.78	0.00
685.91	14.04
686.05	72.56
686.19	95.96
686.32	60.85
686.46	2.34
686.60	11.70
686.73	60.85
686.87	67.88
687.01	77.24
687.14	28.09
687.28	0.00
687.42	0.00
687.55	81.92
687.69	60.85
687.82	56.17
687.96	81.92
688.10	65.54
688.23	28.09
688.37	14.04
688.50	0.00
688.64	18.72
688.78	11.70
688.91	42.13
689.05	44.47
689.18	16.38
689.32	93.62
689.46	88.94
689.59	0.00
689.73	16.38
689.86	30.43
690.00	72.56
690.13	14.04
690.27	46.81
690.41	53.83
690.54	72.56
690.68	23.41
690.81	35.11
690.95	74.90
691.08	21.06
691.22	46.81
691.35	25.75
691.49	4.68
691.62	9.36
691.76	32.77
691.89	49.15
692.03	65.54
692.16	30.43
692.30	56.17
692.43	46.81
692.57	79.58
692.70	25.75
692.84	0.00
692.97	49.15
693.11	44.47
693.24	0.00
693.38	21.06
693.51	51.49
693.65	63.19
693.78	0.00
693.92	2.34
694.05	7.02
694.19	67.88
694.32	63.19
694.45	0.00
694.59	16.38
694.72	14.04
694.86	35.11
694.99	86.60
695.13	112.35
695.26	58.51
695.39	0.00
695.53	0.00
695.66	23.41
695.80	0.00
695.93	9.36
696.07	0.00
696.20	16.38
696.33	42.13
696.47	98.30
696.60	0.00
696.73	0.00
696.87	37.45
697.00	16.38
697.14	56.17
697.27	49.15
697.40	79.58
697.54	23.41
697.67	21.06
697.80	58.51
697.94	77.24
698.07	0.00
698.21	0.00
698.34	37.45
698.47	0.00
698.61	49.15
698.74	49.15
698.87	2.34
699.01	37.45
699.14	30.43
699.27	58.51
699.40	35.11
699.54	4.68
699.67	0.00
699.80	21.06
699.94	70.22
700.07	42.13
700.20	16.38
700.34	25.75
700.47	23.41
700.60	37.45
700.73	28.09
700.87	0.00
701.00	32.77
701.13	25.75
701.26	14.04
701.40	84.26
701.53	9.36
701.66	67.88
701.79	7.02
701.93	2.34
702.06	58.51
702.19	53.83
702.32	46.81
702.46	0.00
702.59	81.92
702.72	0.00
702.85	32.77
702.99	0.00
703.12	56.17
703.25	25.75
703.38	9.36
703.51	30.43
703.65	0.00
703.78	0.00
703.91	0.00
704.04	98.30
704.17	23.41
704.31	0.00
704.44	63.19
704.57	4.68
704.70	2.34
704.83	98.30
704.96	0.00
705.10	0.00
705.23	86.60
>>>>>End Processed Spectral Data<<<<<
