SpectraSuite Data File
++++++++++++++++++++++++++++++++++++
Date: Fri Oct 04 12:13:30 GMT-05:00 2013
User: price-jones
Dark Spectrum Present: No
Reference Spectrum Present: No
Number of Sampled Component Spectra: 1
Spectrometers: USB2+H05261
Integration Time (usec): 10000 (USB2+H05261)
Spectra Averaged: 1 (USB2+H05261)
Boxcar Smoothing: 0 (USB2+H05261)
Correct for Electrical Dark: No (USB2+H05261)
Strobe/Lamp Enabled: No (USB2+H05261)
Correct for Detector Non-linearity: No (USB2+H05261)
Correct for Stray Light: No (USB2+H05261)
Number of Pixels in Processed Spectrum: 2048
>>>>>Begin Processed Spectral Data<<<<<
365.73	0.00
365.92	0.00
366.12	0.00
366.32	0.00
366.52	0.00
366.72	0.00
366.91	0.00
367.11	0.00
367.31	0.00
367.51	0.00
367.70	0.00
367.90	0.00
368.10	0.00
368.30	0.00
368.49	0.00
368.69	0.00
368.89	0.00
369.09	0.00
369.28	0.00
369.48	0.00
369.68	0.00
369.87	0.00
370.07	0.00
370.27	0.00
370.47	0.00
370.66	0.00
370.86	0.00
371.06	0.00
371.25	42.13
371.45	4.68
371.65	0.00
371.84	0.00
372.04	0.00
372.24	30.43
372.44	0.00
372.63	18.72
372.83	0.00
373.03	7.02
373.22	39.79
373.42	0.00
373.62	49.15
373.81	0.00
374.01	18.72
374.21	65.54
374.40	84.26
374.60	23.41
374.79	112.35
374.99	2.34
375.19	37.45
375.38	102.98
375.58	18.72
375.78	42.13
375.97	0.00
376.17	56.17
376.37	23.41
376.56	16.38
376.76	11.70
376.95	25.75
377.15	7.02
377.35	0.00
377.54	0.00
377.74	4.68
377.93	0.00
378.13	79.58
378.33	58.51
378.52	42.13
378.72	0.00
378.91	35.11
379.11	0.00
379.31	44.47
379.50	51.49
379.70	30.43
379.89	11.70
380.09	0.00
380.28	11.70
380.48	79.58
380.68	0.00
380.87	95.96
381.07	0.00
381.26	7.02
381.46	49.15
381.65	16.38
381.85	0.00
382.04	0.00
382.24	105.32
382.43	72.56
382.63	46.81
382.83	18.72
383.02	79.58
383.22	0.00
383.41	0.00
383.61	0.00
383.80	53.83
384.00	35.11
384.19	23.41
384.39	7.02
384.58	0.00
384.78	0.00
384.97	35.11
385.17	0.00
385.36	0.00
385.56	14.04
385.75	9.36
385.95	39.79
386.14	9.36
386.34	16.38
386.53	14.04
386.72	74.90
386.92	0.00
387.11	18.72
387.31	14.04
387.50	30.43
387.70	30.43
387.89	28.09
388.09	0.00
388.28	0.00
388.48	60.85
388.67	65.54
388.86	56.17
389.06	16.38
389.25	16.38
389.45	0.00
389.64	28.09
389.84	49.15
390.03	39.79
390.22	0.00
390.42	0.00
390.61	32.77
390.81	0.00
391.00	0.00
391.19	39.79
391.39	35.11
391.58	32.77
391.78	9.36
391.97	18.72
392.16	39.79
392.36	0.00
392.55	0.00
392.75	21.06
392.94	25.75
393.13	53.83
393.33	0.00
393.52	0.00
393.71	67.88
393.91	23.41
394.10	37.45
394.29	0.00
394.49	14.04
394.68	11.70
394.88	0.00
395.07	37.45
395.26	0.00
395.46	42.13
395.65	4.68
395.84	7.02
396.04	0.00
396.23	11.70
396.42	70.22
396.62	23.41
396.81	39.79
397.00	4.68
397.19	77.24
397.39	37.45
397.58	23.41
397.77	21.06
397.97	30.43
398.16	35.11
398.35	25.75
398.55	49.15
398.74	0.00
398.93	25.75
399.12	0.00
399.32	14.04
399.51	25.75
399.70	0.00
399.90	63.19
400.09	21.06
400.28	42.13
400.47	25.75
400.67	25.75
400.86	0.00
401.05	67.88
401.24	7.02
401.44	16.38
401.63	35.11
401.82	37.45
402.01	4.68
402.21	35.11
402.40	0.00
402.59	28.09
402.78	42.13
402.97	58.51
403.17	72.56
403.36	9.36
403.55	0.00
403.74	86.60
403.93	14.04
404.13	58.51
404.32	65.54
404.51	0.00
404.70	0.00
404.89	0.00
405.09	39.79
405.28	25.75
405.47	51.49
405.66	91.28
405.85	98.30
406.05	11.70
406.24	0.00
406.43	0.00
406.62	9.36
406.81	11.70
407.00	0.00
407.20	35.11
407.39	63.19
407.58	11.70
407.77	11.70
407.96	0.00
408.15	58.51
408.34	0.00
408.54	14.04
408.73	0.00
408.92	81.92
409.11	35.11
409.30	37.45
409.49	44.47
409.68	0.00
409.87	16.38
410.07	11.70
410.26	0.00
410.45	56.17
410.64	70.22
410.83	0.00
411.02	58.51
411.21	0.00
411.40	63.19
411.59	18.72
411.78	42.13
411.98	98.30
412.17	14.04
412.36	32.77
412.55	4.68
412.74	86.60
412.93	0.00
413.12	51.49
413.31	0.00
413.50	21.06
413.69	2.34
413.88	18.72
414.07	0.00
414.26	30.43
414.45	16.38
414.64	102.98
414.83	114.69
415.02	100.64
415.22	0.00
415.41	0.00
415.60	0.00
415.79	65.54
415.98	42.13
416.17	105.32
416.36	42.13
416.55	0.00
416.74	63.19
416.93	65.54
417.12	42.13
417.31	30.43
417.50	0.00
417.69	18.72
417.88	7.02
418.07	37.45
418.26	0.00
418.45	4.68
418.64	25.75
418.83	53.83
419.02	35.11
419.21	46.81
419.39	77.24
419.58	51.49
419.77	42.13
419.96	37.45
420.15	63.19
420.34	21.06
420.53	0.00
420.72	14.04
420.91	25.75
421.10	0.00
421.29	0.00
421.48	14.04
421.67	60.85
421.86	37.45
422.05	49.15
422.24	32.77
422.43	9.36
422.61	7.02
422.80	11.70
422.99	11.70
423.18	0.00
423.37	91.28
423.56	23.41
423.75	18.72
423.94	88.94
424.13	0.00
424.32	23.41
424.50	0.00
424.69	65.54
424.88	21.06
425.07	42.13
425.26	35.11
425.45	4.68
425.64	30.43
425.83	0.00
426.01	63.19
426.20	74.90
426.39	53.83
426.58	44.47
426.77	7.02
426.96	0.00
427.15	0.00
427.33	0.00
427.52	0.00
427.71	21.06
427.90	21.06
428.09	21.06
428.28	0.00
428.46	0.00
428.65	60.85
428.84	0.00
429.03	18.72
429.22	4.68
429.40	84.26
429.59	16.38
429.78	46.81
429.97	84.26
430.16	72.56
430.34	25.75
430.53	0.00
430.72	7.02
430.91	2.34
431.10	4.68
431.28	25.75
431.47	58.51
431.66	60.85
431.85	49.15
432.03	0.00
432.22	14.04
432.41	28.09
432.60	102.98
432.79	2.34
432.97	44.47
433.16	58.51
433.35	2.34
433.54	28.09
433.72	100.64
433.91	0.00
434.10	51.49
434.28	35.11
434.47	0.00
434.66	30.43
434.85	2.34
435.03	58.51
435.22	7.02
435.41	49.15
435.59	23.41
435.78	32.77
435.97	58.51
436.16	88.94
436.34	67.88
436.53	35.11
436.72	30.43
436.90	35.11
437.09	23.41
437.28	0.00
437.46	79.58
437.65	46.81
437.84	0.00
438.02	11.70
438.21	58.51
438.40	21.06
438.58	81.92
438.77	58.51
438.96	65.54
439.14	0.00
439.33	56.17
439.52	79.58
439.70	28.09
439.89	0.00
440.08	0.00
440.26	0.00
440.45	81.92
440.63	63.19
440.82	21.06
441.01	0.00
441.19	46.81
441.38	0.00
441.57	46.81
441.75	0.00
441.94	42.13
442.12	53.83
442.31	11.70
442.50	14.04
442.68	4.68
442.87	0.00
443.05	14.04
443.24	14.04
443.43	9.36
443.61	102.98
443.80	0.00
443.98	70.22
444.17	30.43
444.35	0.00
444.54	18.72
444.73	46.81
444.91	9.36
445.10	39.79
445.28	0.00
445.47	0.00
445.65	9.36
445.84	25.75
446.02	60.85
446.21	95.96
446.39	0.00
446.58	42.13
446.77	0.00
446.95	63.19
447.14	58.51
447.32	35.11
447.51	77.24
447.69	65.54
447.88	35.11
448.06	60.85
448.25	0.00
448.43	0.00
448.62	0.00
448.80	72.56
448.99	42.13
449.17	14.04
449.36	0.00
449.54	14.04
449.73	0.00
449.91	74.90
450.10	53.83
450.28	11.70
450.46	53.83
450.65	21.06
450.83	37.45
451.02	110.01
451.20	35.11
451.39	0.00
451.57	126.39
451.76	28.09
451.94	7.02
452.13	53.83
452.31	32.77
452.49	35.11
452.68	86.60
452.86	58.51
453.05	14.04
453.23	0.00
453.42	49.15
453.60	72.56
453.78	21.06
453.97	16.38
454.15	49.15
454.34	0.00
454.52	35.11
454.70	16.38
454.89	16.38
455.07	0.00
455.26	18.72
455.44	25.75
455.62	39.79
455.81	58.51
455.99	51.49
456.17	0.00
456.36	0.00
456.54	9.36
456.73	44.47
456.91	32.77
457.09	0.00
457.28	0.00
457.46	37.45
457.64	95.96
457.83	0.00
458.01	35.11
458.19	14.04
458.38	0.00
458.56	32.77
458.74	46.81
458.93	35.11
459.11	58.51
459.29	23.41
459.48	65.54
459.66	16.38
459.84	42.13
460.03	25.75
460.21	4.68
460.39	63.19
460.57	4.68
460.76	46.81
460.94	60.85
461.12	9.36
461.31	56.17
461.49	25.75
461.67	4.68
461.85	51.49
462.04	93.62
462.22	84.26
462.40	51.49
462.59	0.00
462.77	0.00
462.95	0.00
463.13	35.11
463.32	32.77
463.50	4.68
463.68	65.54
463.86	60.85
464.05	93.62
464.23	84.26
464.41	79.58
464.59	0.00
464.78	25.75
464.96	44.47
465.14	81.92
465.32	30.43
465.50	84.26
465.69	138.09
465.87	0.00
466.05	21.06
466.23	112.35
466.41	0.00
466.60	9.36
466.78	9.36
466.96	44.47
467.14	32.77
467.32	25.75
467.51	79.58
467.69	23.41
467.87	7.02
468.05	0.00
468.23	93.62
468.41	63.19
468.60	44.47
468.78	114.69
468.96	28.09
469.14	70.22
469.32	23.41
469.50	0.00
469.69	39.79
469.87	2.34
470.05	23.41
470.23	0.00
470.41	32.77
470.59	65.54
470.77	63.19
470.95	0.00
471.14	60.85
471.32	23.41
471.50	46.81
471.68	58.51
471.86	25.75
472.04	18.72
472.22	51.49
472.40	0.00
472.58	37.45
472.77	63.19
472.95	14.04
473.13	30.43
473.31	102.98
473.49	53.83
473.67	4.68
473.85	0.00
474.03	63.19
474.21	65.54
474.39	9.36
474.57	117.03
474.75	53.83
474.93	0.00
475.12	30.43
475.30	0.00
475.48	42.13
475.66	0.00
475.84	11.70
476.02	0.00
476.20	51.49
476.38	67.88
476.56	44.47
476.74	74.90
476.92	42.13
477.10	11.70
477.28	0.00
477.46	67.88
477.64	35.11
477.82	32.77
478.00	51.49
478.18	0.00
478.36	0.00
478.54	0.00
478.72	0.00
478.90	37.45
479.08	0.00
479.26	25.75
479.44	51.49
479.62	39.79
479.80	23.41
479.98	102.98
480.16	74.90
480.34	14.04
480.52	0.00
480.70	0.00
480.88	63.19
481.06	25.75
481.24	65.54
481.41	53.83
481.59	60.85
481.77	102.98
481.95	63.19
482.13	46.81
482.31	56.17
482.49	60.85
482.67	86.60
482.85	0.00
483.03	74.90
483.21	91.28
483.39	25.75
483.57	0.00
483.74	0.00
483.92	37.45
484.10	74.90
484.28	112.35
484.46	42.13
484.64	0.00
484.82	70.22
485.00	37.45
485.18	4.68
485.35	74.90
485.53	70.22
485.71	2.34
485.89	79.58
486.07	23.41
486.25	28.09
486.43	21.06
486.61	14.04
486.78	0.00
486.96	53.83
487.14	0.00
487.32	0.00
487.50	79.58
487.68	0.00
487.85	86.60
488.03	4.68
488.21	4.68
488.39	56.17
488.57	0.00
488.75	0.00
488.92	56.17
489.10	70.22
489.28	86.60
489.46	0.00
489.64	114.69
489.81	32.77
489.99	30.43
490.17	0.00
490.35	58.51
490.53	58.51
490.70	11.70
490.88	56.17
491.06	11.70
491.24	51.49
491.41	79.58
491.59	0.00
491.77	35.11
491.95	98.30
492.13	28.09
492.30	35.11
492.48	14.04
492.66	79.58
492.84	0.00
493.01	28.09
493.19	18.72
493.37	14.04
493.54	107.66
493.72	9.36
493.90	42.13
494.08	70.22
494.25	18.72
494.43	30.43
494.61	44.47
494.79	84.26
494.96	0.00
495.14	0.00
495.32	21.06
495.49	72.56
495.67	14.04
495.85	18.72
496.02	39.79
496.20	25.75
496.38	58.51
496.55	49.15
496.73	44.47
496.91	28.09
497.09	53.83
497.26	0.00
497.44	28.09
497.62	42.13
497.79	51.49
497.97	77.24
498.14	28.09
498.32	53.83
498.50	72.56
498.67	32.77
498.85	65.54
499.03	0.00
499.20	60.85
499.38	42.13
499.56	0.00
499.73	16.38
499.91	0.00
500.08	114.69
500.26	0.00
500.44	21.06
500.61	142.77
500.79	84.26
500.97	53.83
501.14	7.02
501.32	74.90
501.49	14.04
501.67	0.00
501.84	0.00
502.02	49.15
502.20	60.85
502.37	74.90
502.55	18.72
502.72	18.72
502.90	44.47
503.07	0.00
503.25	30.43
503.43	0.00
503.60	9.36
503.78	42.13
503.95	11.70
504.13	67.88
504.30	28.09
504.48	0.00
504.65	0.00
504.83	0.00
505.01	0.00
505.18	77.24
505.36	0.00
505.53	44.47
505.71	67.88
505.88	63.19
506.06	35.11
506.23	0.00
506.41	77.24
506.58	51.49
506.76	44.47
506.93	0.00
507.11	7.02
507.28	30.43
507.46	88.94
507.63	39.79
507.81	53.83
507.98	49.15
508.16	9.36
508.33	16.38
508.50	2.34
508.68	53.83
508.85	21.06
509.03	32.77
509.20	23.41
509.38	67.88
509.55	46.81
509.73	28.09
509.90	60.85
510.08	9.36
510.25	65.54
510.42	67.88
510.60	0.00
510.77	44.47
510.95	30.43
511.12	56.17
511.30	56.17
511.47	81.92
511.64	32.77
511.82	0.00
511.99	7.02
512.17	0.00
512.34	30.43
512.51	21.06
512.69	46.81
512.86	105.32
513.04	9.36
513.21	53.83
513.38	14.04
513.56	0.00
513.73	14.04
513.90	9.36
514.08	98.30
514.25	37.45
514.43	21.06
514.60	25.75
514.77	46.81
514.95	32.77
515.12	81.92
515.29	51.49
515.47	30.43
515.64	84.26
515.81	58.51
515.99	7.02
516.16	0.00
516.33	21.06
516.51	23.41
516.68	128.73
516.85	0.00
517.03	119.37
517.20	119.37
517.37	23.41
517.54	0.00
517.72	0.00
517.89	0.00
518.06	16.38
518.24	60.85
518.41	102.98
518.58	138.09
518.75	0.00
518.93	21.06
519.10	53.83
519.27	0.00
519.45	14.04
519.62	39.79
519.79	0.00
519.96	0.00
520.14	16.38
520.31	16.38
520.48	35.11
520.65	37.45
520.83	51.49
521.00	7.02
521.17	53.83
521.34	25.75
521.52	39.79
521.69	9.36
521.86	4.68
522.03	23.41
522.20	102.98
522.38	21.06
522.55	86.60
522.72	42.13
522.89	86.60
523.07	2.34
523.24	25.75
523.41	74.90
523.58	37.45
523.75	51.49
523.92	67.88
524.10	32.77
524.27	81.92
524.44	14.04
524.61	9.36
524.78	0.00
524.96	25.75
525.13	42.13
525.30	93.62
525.47	11.70
525.64	60.85
525.81	49.15
525.98	65.54
526.16	35.11
526.33	58.51
526.50	46.81
526.67	32.77
526.84	91.28
527.01	18.72
527.18	0.00
527.36	37.45
527.53	28.09
527.70	93.62
527.87	63.19
528.04	46.81
528.21	63.19
528.38	0.00
528.55	65.54
528.72	124.05
528.89	30.43
529.07	39.79
529.24	32.77
529.41	4.68
529.58	67.88
529.75	21.06
529.92	74.90
530.09	30.43
530.26	42.13
530.43	63.19
530.60	32.77
530.77	53.83
530.94	23.41
531.11	53.83
531.28	23.41
531.46	32.77
531.63	37.45
531.80	46.81
531.97	56.17
532.14	79.58
532.31	70.22
532.48	28.09
532.65	46.81
532.82	46.81
532.99	53.83
533.16	25.75
533.33	28.09
533.50	42.13
533.67	86.60
533.84	56.17
534.01	65.54
534.18	39.79
534.35	72.56
534.52	32.77
534.69	81.92
534.86	0.00
535.03	18.72
535.20	28.09
535.37	21.06
535.54	77.24
535.71	72.56
535.88	0.00
536.05	49.15
536.22	107.66
536.38	0.00
536.55	60.85
536.72	42.13
536.89	91.28
537.06	18.72
537.23	110.01
537.40	100.64
537.57	16.38
537.74	60.85
537.91	30.43
538.08	81.92
538.25	44.47
538.42	46.81
538.59	63.19
538.75	7.02
538.92	25.75
539.09	25.75
539.26	37.45
539.43	58.51
539.60	65.54
539.77	49.15
539.94	84.26
540.11	93.62
540.28	126.39
540.44	84.26
540.61	88.94
540.78	32.77
540.95	0.00
541.12	7.02
541.29	49.15
541.46	28.09
541.62	32.77
541.79	49.15
541.96	81.92
542.13	30.43
542.30	0.00
542.47	28.09
542.63	35.11
542.80	0.00
542.97	0.00
543.14	74.90
543.31	60.85
543.48	86.60
543.64	11.70
543.81	58.51
543.98	51.49
544.15	4.68
544.32	0.00
544.48	18.72
544.65	23.41
544.82	0.00
544.99	4.68
545.16	0.00
545.32	37.45
545.49	44.47
545.66	11.70
545.83	53.83
546.00	25.75
546.16	11.70
546.33	42.13
546.50	46.81
546.67	77.24
546.83	58.51
547.00	46.81
547.17	77.24
547.34	102.98
547.50	72.56
547.67	51.49
547.84	28.09
548.00	18.72
548.17	49.15
548.34	0.00
548.51	91.28
548.67	91.28
548.84	67.88
549.01	42.13
549.18	23.41
549.34	67.88
549.51	32.77
549.68	32.77
549.84	65.54
550.01	51.49
550.18	58.51
550.34	23.41
550.51	70.22
550.68	37.45
550.84	0.00
551.01	28.09
551.18	4.68
551.34	4.68
551.51	63.19
551.68	46.81
551.84	70.22
552.01	0.00
552.18	65.54
552.34	0.00
552.51	119.37
552.68	21.06
552.84	4.68
553.01	39.79
553.18	14.04
553.34	65.54
553.51	77.24
553.67	67.88
553.84	30.43
554.01	35.11
554.17	0.00
554.34	37.45
554.51	16.38
554.67	0.00
554.84	56.17
555.00	63.19
555.17	51.49
555.33	67.88
555.50	0.00
555.67	35.11
555.83	58.51
556.00	70.22
556.16	0.00
556.33	53.83
556.50	49.15
556.66	0.00
556.83	11.70
556.99	32.77
557.16	46.81
557.32	9.36
557.49	102.98
557.65	70.22
557.82	42.13
557.98	49.15
558.15	46.81
558.32	58.51
558.48	0.00
558.65	44.47
558.81	60.85
558.98	11.70
559.14	0.00
559.31	42.13
559.47	60.85
559.64	35.11
559.80	0.00
559.97	2.34
560.13	49.15
560.30	7.02
560.46	39.79
560.63	14.04
560.79	49.15
560.96	60.85
561.12	21.06
561.29	65.54
561.45	21.06
561.61	49.15
561.78	9.36
561.94	0.00
562.11	32.77
562.27	58.51
562.44	70.22
562.60	65.54
562.77	23.41
562.93	0.00
563.10	21.06
563.26	30.43
563.42	51.49
563.59	0.00
563.75	14.04
563.92	93.62
564.08	79.58
564.24	51.49
564.41	0.00
564.57	9.36
564.74	11.70
564.90	32.77
565.07	70.22
565.23	0.00
565.39	53.83
565.56	39.79
565.72	32.77
565.88	18.72
566.05	39.79
566.21	44.47
566.38	37.45
566.54	77.24
566.70	32.77
566.87	70.22
567.03	84.26
567.19	79.58
567.36	0.00
567.52	105.32
567.68	14.04
567.85	60.85
568.01	21.06
568.17	39.79
568.34	0.00
568.50	49.15
568.66	67.88
568.83	0.00
568.99	32.77
569.15	128.73
569.32	11.70
569.48	39.79
569.64	0.00
569.81	51.49
569.97	81.92
570.13	67.88
570.30	0.00
570.46	14.04
570.62	63.19
570.78	18.72
570.95	18.72
571.11	56.17
571.27	0.00
571.43	35.11
571.60	88.94
571.76	0.00
571.92	23.41
572.09	0.00
572.25	35.11
572.41	84.26
572.57	81.92
572.74	63.19
572.90	107.66
573.06	51.49
573.22	32.77
573.38	0.00
573.55	42.13
573.71	0.00
573.87	72.56
574.03	77.24
574.20	32.77
574.36	53.83
574.52	112.35
574.68	67.88
574.84	60.85
575.01	86.60
575.17	53.83
575.33	35.11
575.49	23.41
575.65	0.00
575.82	37.45
575.98	56.17
576.14	46.81
576.30	110.01
576.46	32.77
576.62	60.85
576.79	23.41
576.95	49.15
577.11	0.00
577.27	28.09
577.43	25.75
577.59	18.72
577.75	35.11
577.92	23.41
578.08	65.54
578.24	112.35
578.40	65.54
578.56	79.58
578.72	0.00
578.88	23.41
579.04	18.72
579.21	42.13
579.37	84.26
579.53	25.75
579.69	7.02
579.85	119.37
580.01	32.77
580.17	0.00
580.33	0.00
580.49	70.22
580.65	0.00
580.82	37.45
580.98	21.06
581.14	42.13
581.30	21.06
581.46	37.45
581.62	88.94
581.78	21.06
581.94	65.54
582.10	72.56
582.26	25.75
582.42	11.70
582.58	58.51
582.74	32.77
582.90	23.41
583.06	42.13
583.22	39.79
583.38	0.00
583.54	74.90
583.70	105.32
583.86	0.00
584.02	65.54
584.18	30.43
584.34	100.64
584.50	86.60
584.66	428.32
584.82	875.36
584.98	1313.04
585.14	1231.12
585.30	795.78
585.46	440.02
585.62	313.63
585.78	241.08
585.94	65.54
586.10	95.96
586.26	28.09
586.42	42.13
586.58	100.64
586.74	49.15
586.90	53.83
587.06	14.04
587.22	0.00
587.38	11.70
587.54	0.00
587.70	39.79
587.86	86.60
588.02	128.73
588.18	65.54
588.34	18.72
588.49	0.00
588.65	53.83
588.81	51.49
588.97	56.17
589.13	74.90
589.29	70.22
589.45	39.79
589.61	21.06
589.77	98.30
589.93	53.83
590.08	170.86
590.24	35.11
590.40	30.43
590.56	37.45
590.72	32.77
590.88	60.85
591.04	42.13
591.20	0.00
591.35	107.66
591.51	44.47
591.67	72.56
591.83	65.54
591.99	0.00
592.15	21.06
592.31	18.72
592.46	49.15
592.62	4.68
592.78	16.38
592.94	46.81
593.10	84.26
593.26	23.41
593.41	30.43
593.57	79.58
593.73	88.94
593.89	112.35
594.05	145.11
594.20	182.56
594.36	161.50
594.52	147.45
594.68	135.75
594.84	128.73
594.99	88.94
595.15	42.13
595.31	117.03
595.47	65.54
595.62	35.11
595.78	70.22
595.94	30.43
596.10	65.54
596.25	53.83
596.41	0.00
596.57	0.00
596.73	63.19
596.88	9.36
597.04	25.75
597.20	18.72
597.36	72.56
597.51	81.92
597.67	30.43
597.83	49.15
597.99	77.24
598.14	30.43
598.30	37.45
598.46	67.88
598.61	42.13
598.77	42.13
598.93	9.36
599.09	16.38
599.24	0.00
599.40	95.96
599.56	46.81
599.71	28.09
599.87	39.79
600.03	51.49
600.18	51.49
600.34	133.41
600.50	46.81
600.65	0.00
600.81	0.00
600.97	124.05
601.12	21.06
601.28	0.00
601.44	39.79
601.59	9.36
601.75	25.75
601.91	30.43
602.06	0.00
602.22	28.09
602.37	30.43
602.53	91.28
602.69	126.39
602.84	112.35
603.00	84.26
603.16	67.88
603.31	88.94
603.47	7.02
603.62	0.00
603.78	42.13
603.94	14.04
604.09	84.26
604.25	32.77
604.40	107.66
604.56	72.56
604.71	53.83
604.87	21.06
605.03	100.64
605.18	79.58
605.34	30.43
605.49	32.77
605.65	9.36
605.80	70.22
605.96	44.47
606.12	9.36
606.27	98.30
606.43	65.54
606.58	37.45
606.74	58.51
606.89	114.69
607.05	124.05
607.20	173.20
607.36	152.13
607.51	182.56
607.67	84.26
607.82	74.90
607.98	110.01
608.13	30.43
608.29	30.43
608.44	53.83
608.60	0.00
608.75	65.54
608.91	53.83
609.06	126.39
609.22	285.55
609.37	341.72
609.53	220.01
609.68	212.99
609.84	107.66
609.99	128.73
610.15	39.79
610.30	72.56
610.46	11.70
610.61	58.51
610.76	53.83
610.92	93.62
611.07	42.13
611.23	42.13
611.38	9.36
611.54	0.00
611.69	4.68
611.84	49.15
612.00	72.56
612.15	35.11
612.31	35.11
612.46	7.02
612.62	28.09
612.77	100.64
612.92	133.41
613.08	81.92
613.23	65.54
613.39	4.68
613.54	91.28
613.69	88.94
613.85	248.10
614.00	332.36
614.15	395.55
614.31	341.72
614.46	259.80
614.62	135.75
614.77	159.16
614.92	88.94
615.08	70.22
615.23	58.51
615.38	65.54
615.54	42.13
615.69	86.60
615.84	30.43
616.00	133.41
616.15	102.98
616.30	156.82
616.46	81.92
616.61	119.37
616.76	114.69
616.92	44.47
617.07	72.56
617.22	72.56
617.37	25.75
617.53	0.00
617.68	16.38
617.83	114.69
617.99	14.04
618.14	44.47
618.29	32.77
618.45	56.17
618.60	0.00
618.75	16.38
618.90	65.54
619.06	11.70
619.21	23.41
619.36	93.62
619.51	63.19
619.67	70.22
619.82	30.43
619.97	65.54
620.12	44.47
620.28	16.38
620.43	0.00
620.58	0.00
620.73	42.13
620.89	37.45
621.04	21.06
621.19	30.43
621.34	77.24
621.49	60.85
621.65	35.11
621.80	102.98
621.95	39.79
622.10	46.81
622.25	23.41
622.41	46.81
622.56	91.28
622.71	11.70
622.86	14.04
623.01	70.22
623.16	65.54
623.32	32.77
623.47	30.43
623.62	51.49
623.77	0.00
623.92	100.64
624.07	32.77
624.23	11.70
624.38	56.17
624.53	25.75
624.68	28.09
624.83	21.06
624.98	77.24
625.13	7.02
625.29	49.15
625.44	72.56
625.59	42.13
625.74	0.00
625.89	74.90
626.04	88.94
626.19	180.22
626.34	210.65
626.49	276.18
626.65	205.97
626.80	72.56
626.95	86.60
627.10	58.51
627.25	81.92
627.40	21.06
627.55	0.00
627.70	51.49
627.85	65.54
628.00	93.62
628.15	25.75
628.30	60.85
628.45	110.01
628.60	0.00
628.76	70.22
628.91	0.00
629.06	4.68
629.21	11.70
629.36	51.49
629.51	100.64
629.66	44.47
629.81	18.72
629.96	67.88
630.11	119.37
630.26	117.03
630.41	105.32
630.56	63.19
630.71	21.06
630.86	133.41
631.01	7.02
631.16	44.47
631.31	84.26
631.46	0.00
631.61	2.34
631.76	98.30
631.91	2.34
632.06	35.11
632.21	28.09
632.36	0.00
632.51	60.85
632.66	28.09
632.81	72.56
632.96	84.26
633.10	81.92
633.25	180.22
633.40	133.41
633.55	86.60
633.70	65.54
633.85	2.34
634.00	21.06
634.15	9.36
634.30	0.00
634.45	0.00
634.60	0.00
634.75	0.00
634.90	81.92
635.05	42.13
635.19	2.34
635.34	63.19
635.49	46.81
635.64	0.00
635.79	30.43
635.94	9.36
636.09	14.04
636.24	11.70
636.39	77.24
636.53	32.77
636.68	46.81
636.83	46.81
636.98	44.47
637.13	35.11
637.28	58.51
637.43	46.81
637.57	0.00
637.72	79.58
637.87	203.63
638.02	266.82
638.17	292.57
638.32	156.82
638.46	166.18
638.61	224.69
638.76	95.96
638.91	49.15
639.06	128.73
639.20	9.36
639.35	0.00
639.50	53.83
639.65	102.98
639.80	252.78
639.94	442.36
640.09	470.45
640.24	367.46
640.39	290.23
640.54	114.69
640.68	79.58
640.83	131.07
640.98	74.90
641.13	0.00
641.27	81.92
641.42	67.88
641.57	0.00
641.72	14.04
641.86	39.79
642.01	51.49
642.16	63.19
642.31	65.54
642.45	74.90
642.60	4.68
642.75	16.38
642.90	32.77
643.04	56.17
643.19	18.72
643.34	25.75
643.48	44.47
643.63	14.04
643.78	46.81
643.93	49.15
644.07	0.00
644.22	32.77
644.37	51.49
644.51	60.85
644.66	98.30
644.81	28.09
644.95	9.36
645.10	79.58
645.25	4.68
645.39	0.00
645.54	0.00
645.69	21.06
645.83	86.60
645.98	81.92
646.13	0.00
646.27	0.00
646.42	9.36
646.57	0.00
646.71	0.00
646.86	28.09
647.00	14.04
647.15	28.09
647.30	0.00
647.44	39.79
647.59	16.38
647.74	16.38
647.88	0.00
648.03	46.81
648.17	4.68
648.32	2.34
648.47	49.15
648.61	53.83
648.76	0.00
648.90	51.49
649.05	2.34
649.20	56.17
649.34	7.02
649.49	18.72
649.63	0.00
649.78	37.45
649.92	0.00
650.07	46.81
650.21	124.05
650.36	224.69
650.51	177.88
650.65	220.01
650.80	138.09
650.94	46.81
651.09	63.19
651.23	126.39
651.38	114.69
651.52	35.11
651.67	74.90
651.81	23.41
651.96	53.83
652.10	28.09
652.25	4.68
652.39	14.04
652.54	63.19
652.68	84.26
652.83	9.36
652.97	149.79
653.12	170.86
653.26	102.98
653.41	107.66
653.55	23.41
653.70	42.13
653.84	11.70
653.99	28.09
654.13	39.79
654.27	2.34
654.42	79.58
654.56	46.81
654.71	72.56
654.85	63.19
655.00	93.62
655.14	2.34
655.29	88.94
655.43	37.45
655.57	0.00
655.72	0.00
655.86	42.13
656.01	25.75
656.15	77.24
656.30	58.51
656.44	7.02
656.58	23.41
656.73	28.09
656.87	0.00
657.01	21.06
657.16	81.92
657.30	30.43
657.45	9.36
657.59	39.79
657.73	4.68
657.88	100.64
658.02	39.79
658.16	53.83
658.31	102.98
658.45	16.38
658.60	4.68
658.74	72.56
658.88	0.00
659.03	28.09
659.17	32.77
659.31	0.00
659.46	105.32
659.60	135.75
659.74	112.35
659.89	140.43
660.03	95.96
660.17	119.37
660.32	70.22
660.46	30.43
660.60	63.19
660.74	21.06
660.89	67.88
661.03	95.96
661.17	0.00
661.32	42.13
661.46	37.45
661.60	51.49
661.74	0.00
661.89	58.51
662.03	88.94
662.17	11.70
662.31	0.00
662.46	21.06
662.60	39.79
662.74	110.01
662.88	28.09
663.03	9.36
663.17	11.70
663.31	0.00
663.45	28.09
663.60	81.92
663.74	44.47
663.88	0.00
664.02	65.54
664.17	30.43
664.31	53.83
664.45	58.51
664.59	25.75
664.73	0.00
664.88	0.00
665.02	4.68
665.16	35.11
665.30	2.34
665.44	25.75
665.59	128.73
665.73	9.36
665.87	37.45
666.01	25.75
666.15	60.85
666.29	9.36
666.44	112.35
666.58	107.66
666.72	60.85
666.86	37.45
667.00	0.00
667.14	37.45
667.28	14.04
667.43	51.49
667.57	182.56
667.71	255.12
667.85	250.44
667.99	126.39
668.13	102.98
668.27	91.28
668.41	112.35
668.56	74.90
668.70	0.00
668.84	35.11
668.98	11.70
669.12	30.43
669.26	51.49
669.40	37.45
669.54	46.81
669.68	58.51
669.82	32.77
669.96	23.41
670.10	14.04
670.25	0.00
670.39	53.83
670.53	25.75
670.67	7.02
670.81	49.15
670.95	9.36
671.09	39.79
671.23	14.04
671.37	98.30
671.51	124.05
671.65	149.79
671.79	56.17
671.93	128.73
672.07	58.51
672.21	16.38
672.35	23.41
672.49	67.88
672.63	32.77
672.77	0.00
672.91	63.19
673.05	18.72
673.19	23.41
673.33	0.00
673.47	23.41
673.61	25.75
673.75	0.00
673.89	11.70
674.03	88.94
674.17	0.00
674.31	65.54
674.45	0.00
674.59	0.00
674.73	9.36
674.87	0.00
675.01	23.41
675.15	67.88
675.29	53.83
675.43	7.02
675.56	23.41
675.70	88.94
675.84	23.41
675.98	0.00
676.12	35.11
676.26	11.70
676.40	60.85
676.54	51.49
676.68	0.00
676.82	0.00
676.96	72.56
677.10	74.90
677.23	0.00
677.37	32.77
677.51	28.09
677.65	0.00
677.79	0.00
677.93	86.60
678.07	4.68
678.21	0.00
678.34	42.13
678.48	32.77
678.62	28.09
678.76	9.36
678.90	44.47
679.04	37.45
679.18	0.00
679.31	49.15
679.45	21.06
679.59	0.00
679.73	79.58
679.87	35.11
680.00	2.34
680.14	32.77
680.28	81.92
680.42	0.00
680.56	14.04
680.70	30.43
680.83	0.00
680.97	0.00
681.11	32.77
681.25	35.11
681.39	0.00
681.52	14.04
681.66	35.11
681.80	67.88
681.94	102.98
682.07	67.88
682.21	58.51
682.35	42.13
682.49	0.00
682.62	2.34
682.76	23.41
682.90	44.47
683.04	4.68
683.17	60.85
683.31	4.68
683.45	0.00
683.59	23.41
683.72	28.09
683.86	35.11
684.00	60.85
684.13	86.60
684.27	30.43
684.41	35.11
684.55	37.45
684.68	0.00
684.82	79.58
684.96	0.00
685.09	0.00
685.23	112.35
685.37	46.81
685.50	4.68
685.64	9.36
685.78	0.00
685.91	28.09
686.05	21.06
686.19	70.22
686.32	0.00
686.46	30.43
686.60	112.35
686.73	4.68
686.87	14.04
687.01	2.34
687.14	49.15
687.28	35.11
687.42	58.51
687.55	35.11
687.69	56.17
687.82	11.70
687.96	18.72
688.10	0.00
688.23	0.00
688.37	21.06
688.50	51.49
688.64	35.11
688.78	11.70
688.91	81.92
689.05	51.49
689.18	0.00
689.32	0.00
689.46	0.00
689.59	58.51
689.73	91.28
689.86	18.72
690.00	39.79
690.13	25.75
690.27	4.68
690.41	79.58
690.54	2.34
690.68	32.77
690.81	0.00
690.95	72.56
691.08	0.00
691.22	30.43
691.35	0.00
691.49	65.54
691.62	56.17
691.76	0.00
691.89	58.51
692.03	0.00
692.16	77.24
692.30	18.72
692.43	32.77
692.57	18.72
692.70	133.41
692.84	184.90
692.97	138.09
693.11	159.16
693.24	51.49
693.38	4.68
693.51	0.00
693.65	0.00
693.78	16.38
693.92	16.38
694.05	32.77
694.19	39.79
694.32	0.00
694.45	11.70
694.59	21.06
694.72	4.68
694.86	42.13
694.99	0.00
695.13	35.11
695.26	44.47
695.39	0.00
695.53	70.22
695.66	74.90
695.80	30.43
695.93	0.00
696.07	79.58
696.20	35.11
696.33	14.04
696.47	46.81
696.60	44.47
696.73	23.41
696.87	0.00
697.00	0.00
697.14	35.11
697.27	0.00
697.40	56.17
697.54	53.83
697.67	84.26
697.80	23.41
697.94	9.36
698.07	16.38
698.21	58.51
698.34	98.30
698.47	0.00
698.61	121.71
698.74	0.00
698.87	32.77
699.01	58.51
699.14	7.02
699.27	42.13
699.40	23.41
699.54	23.41
699.67	39.79
699.80	35.11
699.94	28.09
700.07	25.75
700.20	0.00
700.34	46.81
700.47	14.04
700.60	44.47
700.73	0.00
700.87	35.11
701.00	46.81
701.13	0.00
701.26	0.00
701.40	74.90
701.53	49.15
701.66	65.54
701.79	0.00
701.93	30.43
702.06	42.13
702.19	58.51
702.32	14.04
702.46	32.77
702.59	28.09
702.72	0.00
702.85	86.60
702.99	135.75
703.12	149.79
703.25	189.58
703.38	131.07
703.51	117.03
703.65	65.54
703.78	81.92
703.91	60.85
704.04	49.15
704.17	0.00
704.31	0.00
704.44	21.06
704.57	7.02
704.70	30.43
704.83	0.00
704.96	4.68
705.10	0.00
705.23	63.19
>>>>>End Processed Spectral Data<<<<<
