SpectraSuite Data File
++++++++++++++++++++++++++++++++++++
Date: Fri Oct 04 12:13:38 GMT-05:00 2013
User: price-jones
Dark Spectrum Present: No
Reference Spectrum Present: No
Number of Sampled Component Spectra: 1
Spectrometers: USB2+H05261
Integration Time (usec): 10000 (USB2+H05261)
Spectra Averaged: 1 (USB2+H05261)
Boxcar Smoothing: 0 (USB2+H05261)
Correct for Electrical Dark: No (USB2+H05261)
Strobe/Lamp Enabled: No (USB2+H05261)
Correct for Detector Non-linearity: No (USB2+H05261)
Correct for Stray Light: No (USB2+H05261)
Number of Pixels in Processed Spectrum: 2048
>>>>>Begin Processed Spectral Data<<<<<
365.73	0.00
365.92	0.00
366.12	0.00
366.32	0.00
366.52	0.00
366.72	0.00
366.91	0.00
367.11	0.00
367.31	0.00
367.51	0.00
367.70	0.00
367.90	0.00
368.10	0.00
368.30	0.00
368.49	0.00
368.69	0.00
368.89	0.00
369.09	0.00
369.28	0.00
369.48	0.00
369.68	0.00
369.87	0.00
370.07	0.00
370.27	0.00
370.47	0.00
370.66	0.00
370.86	0.00
371.06	0.00
371.25	0.00
371.45	0.00
371.65	0.00
371.84	25.75
372.04	14.04
372.24	0.00
372.44	0.00
372.63	65.54
372.83	16.38
373.03	42.13
373.22	28.09
373.42	60.85
373.62	2.34
373.81	84.26
374.01	67.88
374.21	42.13
374.40	56.17
374.60	4.68
374.79	30.43
374.99	0.00
375.19	100.64
375.38	23.41
375.58	79.58
375.78	9.36
375.97	0.00
376.17	4.68
376.37	30.43
376.56	49.15
376.76	0.00
376.95	4.68
377.15	74.90
377.35	44.47
377.54	102.98
377.74	56.17
377.93	14.04
378.13	2.34
378.33	4.68
378.52	51.49
378.72	42.13
378.91	21.06
379.11	53.83
379.31	0.00
379.50	35.11
379.70	0.00
379.89	0.00
380.09	25.75
380.28	16.38
380.48	25.75
380.68	63.19
380.87	0.00
381.07	58.51
381.26	0.00
381.46	110.01
381.65	2.34
381.85	11.70
382.04	70.22
382.24	46.81
382.43	2.34
382.63	21.06
382.83	35.11
383.02	46.81
383.22	11.70
383.41	0.00
383.61	16.38
383.80	46.81
384.00	14.04
384.19	0.00
384.39	11.70
384.58	0.00
384.78	14.04
384.97	77.24
385.17	39.79
385.36	2.34
385.56	18.72
385.75	0.00
385.95	98.30
386.14	51.49
386.34	7.02
386.53	0.00
386.72	0.00
386.92	11.70
387.11	0.00
387.31	0.00
387.50	72.56
387.70	79.58
387.89	0.00
388.09	9.36
388.28	0.00
388.48	18.72
388.67	0.00
388.86	0.00
389.06	35.11
389.25	0.00
389.45	37.45
389.64	0.00
389.84	0.00
390.03	23.41
390.22	25.75
390.42	0.00
390.61	28.09
390.81	0.00
391.00	0.00
391.19	32.77
391.39	44.47
391.58	53.83
391.78	0.00
391.97	14.04
392.16	39.79
392.36	32.77
392.55	32.77
392.75	67.88
392.94	93.62
393.13	0.00
393.33	7.02
393.52	0.00
393.71	0.00
393.91	65.54
394.10	30.43
394.29	0.00
394.49	0.00
394.68	28.09
394.88	18.72
395.07	0.00
395.26	4.68
395.46	14.04
395.65	0.00
395.84	30.43
396.04	0.00
396.23	0.00
396.42	21.06
396.62	7.02
396.81	30.43
397.00	18.72
397.19	0.00
397.39	0.00
397.58	63.19
397.77	35.11
397.97	16.38
398.16	81.92
398.35	70.22
398.55	21.06
398.74	0.00
398.93	9.36
399.12	0.00
399.32	0.00
399.51	32.77
399.70	44.47
399.90	9.36
400.09	74.90
400.28	131.07
400.47	58.51
400.67	30.43
400.86	0.00
401.05	21.06
401.24	0.00
401.44	39.79
401.63	0.00
401.82	32.77
402.01	53.83
402.21	79.58
402.40	79.58
402.59	32.77
402.78	35.11
402.97	53.83
403.17	0.00
403.36	53.83
403.55	56.17
403.74	74.90
403.93	9.36
404.13	65.54
404.32	70.22
404.51	0.00
404.70	0.00
404.89	18.72
405.09	18.72
405.28	79.58
405.47	9.36
405.66	0.00
405.85	93.62
406.05	74.90
406.24	0.00
406.43	44.47
406.62	63.19
406.81	39.79
407.00	0.00
407.20	49.15
407.39	16.38
407.58	51.49
407.77	16.38
407.96	16.38
408.15	0.00
408.34	91.28
408.54	28.09
408.73	0.00
408.92	37.45
409.11	0.00
409.30	93.62
409.49	46.81
409.68	2.34
409.87	16.38
410.07	2.34
410.26	0.00
410.45	65.54
410.64	23.41
410.83	49.15
411.02	0.00
411.21	18.72
411.40	0.00
411.59	0.00
411.78	72.56
411.98	84.26
412.17	91.28
412.36	72.56
412.55	63.19
412.74	72.56
412.93	44.47
413.12	30.43
413.31	72.56
413.50	21.06
413.69	56.17
413.88	0.00
414.07	25.75
414.26	4.68
414.45	42.13
414.64	46.81
414.83	7.02
415.02	21.06
415.22	60.85
415.41	18.72
415.60	30.43
415.79	21.06
415.98	58.51
416.17	81.92
416.36	51.49
416.55	70.22
416.74	0.00
416.93	46.81
417.12	9.36
417.31	37.45
417.50	77.24
417.69	46.81
417.88	4.68
418.07	37.45
418.26	23.41
418.45	65.54
418.64	14.04
418.83	25.75
419.02	37.45
419.21	88.94
419.39	18.72
419.58	39.79
419.77	39.79
419.96	74.90
420.15	32.77
420.34	51.49
420.53	0.00
420.72	37.45
420.91	11.70
421.10	4.68
421.29	81.92
421.48	30.43
421.67	77.24
421.86	18.72
422.05	46.81
422.24	11.70
422.43	42.13
422.61	95.96
422.80	0.00
422.99	67.88
423.18	93.62
423.37	39.79
423.56	112.35
423.75	4.68
423.94	112.35
424.13	32.77
424.32	46.81
424.50	44.47
424.69	86.60
424.88	95.96
425.07	30.43
425.26	42.13
425.45	0.00
425.64	72.56
425.83	7.02
426.01	37.45
426.20	53.83
426.39	35.11
426.58	44.47
426.77	18.72
426.96	0.00
427.15	51.49
427.33	46.81
427.52	0.00
427.71	58.51
427.90	39.79
428.09	39.79
428.28	77.24
428.46	46.81
428.65	107.66
428.84	0.00
429.03	21.06
429.22	74.90
429.40	0.00
429.59	77.24
429.78	0.00
429.97	67.88
430.16	65.54
430.34	88.94
430.53	0.00
430.72	39.79
430.91	58.51
431.10	39.79
431.28	30.43
431.47	72.56
431.66	49.15
431.85	46.81
432.03	25.75
432.22	49.15
432.41	58.51
432.60	51.49
432.79	2.34
432.97	79.58
433.16	49.15
433.35	0.00
433.54	60.85
433.72	0.00
433.91	30.43
434.10	4.68
434.28	53.83
434.47	14.04
434.66	77.24
434.85	0.00
435.03	51.49
435.22	102.98
435.41	16.38
435.59	44.47
435.78	23.41
435.97	0.00
436.16	88.94
436.34	14.04
436.53	30.43
436.72	63.19
436.90	2.34
437.09	74.90
437.28	14.04
437.46	44.47
437.65	65.54
437.84	18.72
438.02	84.26
438.21	60.85
438.40	28.09
438.58	0.00
438.77	93.62
438.96	56.17
439.14	32.77
439.33	91.28
439.52	0.00
439.70	60.85
439.89	56.17
440.08	72.56
440.26	9.36
440.45	77.24
440.63	56.17
440.82	37.45
441.01	4.68
441.19	98.30
441.38	105.32
441.57	119.37
441.75	72.56
441.94	42.13
442.12	124.05
442.31	65.54
442.50	102.98
442.68	114.69
442.87	65.54
443.05	81.92
443.24	39.79
443.43	70.22
443.61	70.22
443.80	72.56
443.98	23.41
444.17	49.15
444.35	46.81
444.54	74.90
444.73	91.28
444.91	39.79
445.10	46.81
445.28	93.62
445.47	11.70
445.65	16.38
445.84	79.58
446.02	21.06
446.21	56.17
446.39	32.77
446.58	95.96
446.77	77.24
446.95	138.09
447.14	58.51
447.32	0.00
447.51	49.15
447.69	39.79
447.88	51.49
448.06	121.71
448.25	70.22
448.43	49.15
448.62	84.26
448.80	9.36
448.99	65.54
449.17	39.79
449.36	51.49
449.54	42.13
449.73	18.72
449.91	39.79
450.10	128.73
450.28	4.68
450.46	30.43
450.65	65.54
450.83	39.79
451.02	11.70
451.20	79.58
451.39	42.13
451.57	37.45
451.76	95.96
451.94	124.05
452.13	23.41
452.31	63.19
452.49	72.56
452.68	49.15
452.86	51.49
453.05	9.36
453.23	42.13
453.42	35.11
453.60	70.22
453.78	91.28
453.97	128.73
454.15	51.49
454.34	154.48
454.52	35.11
454.70	86.60
454.89	70.22
455.07	93.62
455.26	18.72
455.44	28.09
455.62	32.77
455.81	112.35
455.99	77.24
456.17	74.90
456.36	95.96
456.54	67.88
456.73	32.77
456.91	72.56
457.09	9.36
457.28	70.22
457.46	58.51
457.64	72.56
457.83	42.13
458.01	7.02
458.19	67.88
458.38	91.28
458.56	23.41
458.74	65.54
458.93	7.02
459.11	56.17
459.29	30.43
459.48	79.58
459.66	46.81
459.84	121.71
460.03	84.26
460.21	112.35
460.39	67.88
460.57	35.11
460.76	49.15
460.94	100.64
461.12	135.75
461.31	117.03
461.49	44.47
461.67	30.43
461.85	42.13
462.04	84.26
462.22	121.71
462.40	4.68
462.59	0.00
462.77	0.00
462.95	23.41
463.13	74.90
463.32	91.28
463.50	74.90
463.68	21.06
463.86	28.09
464.05	74.90
464.23	39.79
464.41	119.37
464.59	107.66
464.78	102.98
464.96	110.01
465.14	74.90
465.32	58.51
465.50	100.64
465.69	110.01
465.87	18.72
466.05	2.34
466.23	67.88
466.41	9.36
466.60	53.83
466.78	77.24
466.96	65.54
467.14	53.83
467.32	11.70
467.51	28.09
467.69	35.11
467.87	0.00
468.05	93.62
468.23	98.30
468.41	140.43
468.60	63.19
468.78	124.05
468.96	23.41
469.14	58.51
469.32	65.54
469.50	9.36
469.69	84.26
469.87	51.49
470.05	42.13
470.23	65.54
470.41	121.71
470.59	0.00
470.77	21.06
470.95	58.51
471.14	42.13
471.32	42.13
471.50	23.41
471.68	53.83
471.86	149.79
472.04	93.62
472.22	72.56
472.40	86.60
472.58	30.43
472.77	56.17
472.95	84.26
473.13	91.28
473.31	161.50
473.49	0.00
473.67	46.81
473.85	46.81
474.03	7.02
474.21	70.22
474.39	74.90
474.57	133.41
474.75	18.72
474.93	81.92
475.12	53.83
475.30	53.83
475.48	95.96
475.66	37.45
475.84	58.51
476.02	58.51
476.20	44.47
476.38	88.94
476.56	51.49
476.74	35.11
476.92	0.00
477.10	51.49
477.28	60.85
477.46	63.19
477.64	98.30
477.82	32.77
478.00	67.88
478.18	46.81
478.36	131.07
478.54	23.41
478.72	44.47
478.90	81.92
479.08	58.51
479.26	149.79
479.44	81.92
479.62	35.11
479.80	28.09
479.98	70.22
480.16	56.17
480.34	114.69
480.52	210.65
480.70	79.58
480.88	88.94
481.06	77.24
481.24	58.51
481.41	53.83
481.59	70.22
481.77	70.22
481.95	42.13
482.13	98.30
482.31	100.64
482.49	44.47
482.67	72.56
482.85	56.17
483.03	0.00
483.21	84.26
483.39	16.38
483.57	25.75
483.74	107.66
483.92	35.11
484.10	28.09
484.28	86.60
484.46	93.62
484.64	51.49
484.82	25.75
485.00	77.24
485.18	135.75
485.35	9.36
485.53	44.47
485.71	37.45
485.89	124.05
486.07	95.96
486.25	58.51
486.43	16.38
486.61	60.85
486.78	37.45
486.96	39.79
487.14	51.49
487.32	72.56
487.50	39.79
487.68	88.94
487.85	60.85
488.03	53.83
488.21	56.17
488.39	86.60
488.57	46.81
488.75	23.41
488.92	128.73
489.10	63.19
489.28	74.90
489.46	102.98
489.64	79.58
489.81	86.60
489.99	72.56
490.17	112.35
490.35	60.85
490.53	77.24
490.70	58.51
490.88	102.98
491.06	72.56
491.24	107.66
491.41	98.30
491.59	49.15
491.77	23.41
491.95	16.38
492.13	98.30
492.30	91.28
492.48	49.15
492.66	135.75
492.84	84.26
493.01	56.17
493.19	58.51
493.37	205.97
493.54	79.58
493.72	58.51
493.90	18.72
494.08	35.11
494.25	0.00
494.43	133.41
494.61	67.88
494.79	0.00
494.96	0.00
495.14	65.54
495.32	53.83
495.49	51.49
495.67	44.47
495.85	91.28
496.02	84.26
496.20	53.83
496.38	77.24
496.55	86.60
496.73	91.28
496.91	25.75
497.09	72.56
497.26	110.01
497.44	18.72
497.62	35.11
497.79	88.94
497.97	93.62
498.14	72.56
498.32	67.88
498.50	58.51
498.67	86.60
498.85	49.15
499.03	102.98
499.20	58.51
499.38	37.45
499.56	58.51
499.73	124.05
499.91	88.94
500.08	65.54
500.26	81.92
500.44	0.00
500.61	65.54
500.79	56.17
500.97	46.81
501.14	84.26
501.32	56.17
501.49	32.77
501.67	117.03
501.84	7.02
502.02	11.70
502.20	107.66
502.37	112.35
502.55	53.83
502.72	70.22
502.90	32.77
503.07	159.16
503.25	124.05
503.43	58.51
503.60	135.75
503.78	72.56
503.95	67.88
504.13	81.92
504.30	72.56
504.48	98.30
504.65	42.13
504.83	77.24
505.01	37.45
505.18	131.07
505.36	37.45
505.53	114.69
505.71	63.19
505.88	112.35
506.06	93.62
506.23	81.92
506.41	9.36
506.58	142.77
506.76	95.96
506.93	72.56
507.11	112.35
507.28	58.51
507.46	21.06
507.63	140.43
507.81	79.58
507.98	159.16
508.16	60.85
508.33	91.28
508.50	105.32
508.68	72.56
508.85	117.03
509.03	102.98
509.20	60.85
509.38	39.79
509.55	53.83
509.73	74.90
509.90	112.35
510.08	88.94
510.25	0.00
510.42	124.05
510.60	93.62
510.77	170.86
510.95	135.75
511.12	147.45
511.30	98.30
511.47	95.96
511.64	21.06
511.82	49.15
511.99	70.22
512.17	60.85
512.34	128.73
512.51	67.88
512.69	88.94
512.86	35.11
513.04	35.11
513.21	95.96
513.38	128.73
513.56	60.85
513.73	91.28
513.90	93.62
514.08	32.77
514.25	102.98
514.43	39.79
514.60	16.38
514.77	121.71
514.95	49.15
515.12	77.24
515.29	44.47
515.47	23.41
515.64	60.85
515.81	114.69
515.99	88.94
516.16	84.26
516.33	46.81
516.51	58.51
516.68	51.49
516.85	88.94
517.03	67.88
517.20	65.54
517.37	149.79
517.54	93.62
517.72	77.24
517.89	63.19
518.06	21.06
518.24	91.28
518.41	100.64
518.58	149.79
518.75	63.19
518.93	70.22
519.10	77.24
519.27	56.17
519.45	32.77
519.62	86.60
519.79	112.35
519.96	49.15
520.14	42.13
520.31	67.88
520.48	81.92
520.65	53.83
520.83	56.17
521.00	100.64
521.17	126.39
521.34	4.68
521.52	93.62
521.69	65.54
521.86	79.58
522.03	44.47
522.20	0.00
522.38	56.17
522.55	81.92
522.72	91.28
522.89	107.66
523.07	95.96
523.24	63.19
523.41	84.26
523.58	46.81
523.75	154.48
523.92	65.54
524.10	32.77
524.27	60.85
524.44	91.28
524.61	70.22
524.78	56.17
524.96	72.56
525.13	11.70
525.30	63.19
525.47	70.22
525.64	51.49
525.81	112.35
525.98	46.81
526.16	58.51
526.33	18.72
526.50	88.94
526.67	32.77
526.84	0.00
527.01	98.30
527.18	107.66
527.36	51.49
527.53	95.96
527.70	128.73
527.87	72.56
528.04	81.92
528.21	119.37
528.38	58.51
528.55	46.81
528.72	98.30
528.89	124.05
529.07	56.17
529.24	49.15
529.41	84.26
529.58	119.37
529.75	135.75
529.92	105.32
530.09	81.92
530.26	147.45
530.43	51.49
530.60	70.22
530.77	56.17
530.94	77.24
531.11	51.49
531.28	14.04
531.46	86.60
531.63	86.60
531.80	72.56
531.97	72.56
532.14	60.85
532.31	25.75
532.48	77.24
532.65	91.28
532.82	58.51
532.99	86.60
533.16	145.11
533.33	46.81
533.50	93.62
533.67	121.71
533.84	42.13
534.01	117.03
534.18	79.58
534.35	102.98
534.52	93.62
534.69	70.22
534.86	0.00
535.03	11.70
535.20	128.73
535.37	86.60
535.54	100.64
535.71	56.17
535.88	25.75
536.05	145.11
536.22	39.79
536.38	18.72
536.55	21.06
536.72	81.92
536.89	93.62
537.06	124.05
537.23	35.11
537.40	88.94
537.57	81.92
537.74	70.22
537.91	56.17
538.08	77.24
538.25	70.22
538.42	114.69
538.59	100.64
538.75	39.79
538.92	117.03
539.09	56.17
539.26	49.15
539.43	81.92
539.60	49.15
539.77	77.24
539.94	4.68
540.11	84.26
540.28	77.24
540.44	81.92
540.61	138.09
540.78	131.07
540.95	119.37
541.12	30.43
541.29	112.35
541.46	56.17
541.62	135.75
541.79	121.71
541.96	95.96
542.13	86.60
542.30	67.88
542.47	138.09
542.63	81.92
542.80	42.13
542.97	91.28
543.14	154.48
543.31	77.24
543.48	93.62
543.64	102.98
543.81	95.96
543.98	102.98
544.15	74.90
544.32	72.56
544.48	145.11
544.65	67.88
544.82	60.85
544.99	37.45
545.16	51.49
545.32	93.62
545.49	51.49
545.66	102.98
545.83	133.41
546.00	100.64
546.16	74.90
546.33	14.04
546.50	110.01
546.67	86.60
546.83	35.11
547.00	135.75
547.17	128.73
547.34	49.15
547.50	28.09
547.67	84.26
547.84	95.96
548.00	63.19
548.17	149.79
548.34	121.71
548.51	23.41
548.67	112.35
548.84	102.98
549.01	14.04
549.18	60.85
549.34	58.51
549.51	112.35
549.68	98.30
549.84	102.98
550.01	51.49
550.18	98.30
550.34	39.79
550.51	63.19
550.68	91.28
550.84	81.92
551.01	84.26
551.18	100.64
551.34	177.88
551.51	126.39
551.68	93.62
551.84	32.77
552.01	0.00
552.18	91.28
552.34	56.17
552.51	112.35
552.68	168.52
552.84	145.11
553.01	49.15
553.18	128.73
553.34	51.49
553.51	124.05
553.67	70.22
553.84	91.28
554.01	145.11
554.17	100.64
554.34	102.98
554.51	126.39
554.67	93.62
554.84	140.43
555.00	49.15
555.17	67.88
555.33	77.24
555.50	100.64
555.67	147.45
555.83	49.15
556.00	46.81
556.16	135.75
556.33	110.01
556.50	88.94
556.66	117.03
556.83	18.72
556.99	60.85
557.16	117.03
557.32	51.49
557.49	28.09
557.65	39.79
557.82	65.54
557.98	65.54
558.15	56.17
558.32	79.58
558.48	77.24
558.65	39.79
558.81	23.41
558.98	81.92
559.14	14.04
559.31	77.24
559.47	131.07
559.64	70.22
559.80	95.96
559.97	21.06
560.13	112.35
560.30	93.62
560.46	49.15
560.63	65.54
560.79	32.77
560.96	105.32
561.12	119.37
561.29	145.11
561.45	0.00
561.61	74.90
561.78	124.05
561.94	67.88
562.11	35.11
562.27	145.11
562.44	53.83
562.60	105.32
562.77	44.47
562.93	119.37
563.10	23.41
563.26	98.30
563.42	58.51
563.59	37.45
563.75	110.01
563.92	60.85
564.08	23.41
564.24	79.58
564.41	84.26
564.57	91.28
564.74	28.09
564.90	91.28
565.07	81.92
565.23	84.26
565.39	112.35
565.56	60.85
565.72	95.96
565.88	49.15
566.05	74.90
566.21	95.96
566.38	58.51
566.54	79.58
566.70	88.94
566.87	105.32
567.03	117.03
567.19	74.90
567.36	72.56
567.52	135.75
567.68	91.28
567.85	95.96
568.01	98.30
568.17	107.66
568.34	88.94
568.50	74.90
568.66	79.58
568.83	84.26
568.99	102.98
569.15	51.49
569.32	37.45
569.48	133.41
569.64	88.94
569.81	35.11
569.97	49.15
570.13	100.64
570.30	126.39
570.46	98.30
570.62	133.41
570.78	7.02
570.95	86.60
571.11	168.52
571.27	63.19
571.43	58.51
571.60	159.16
571.76	70.22
571.92	110.01
572.09	53.83
572.25	46.81
572.41	152.13
572.57	154.48
572.74	18.72
572.90	81.92
573.06	37.45
573.22	60.85
573.38	79.58
573.55	100.64
573.71	44.47
573.87	142.77
574.03	44.47
574.20	35.11
574.36	65.54
574.52	149.79
574.68	105.32
574.84	93.62
575.01	86.60
575.17	60.85
575.33	91.28
575.49	11.70
575.65	25.75
575.82	81.92
575.98	72.56
576.14	77.24
576.30	58.51
576.46	9.36
576.62	88.94
576.79	91.28
576.95	135.75
577.11	112.35
577.27	74.90
577.43	77.24
577.59	35.11
577.75	98.30
577.92	42.13
578.08	70.22
578.24	133.41
578.40	53.83
578.56	107.66
578.72	100.64
578.88	119.37
579.04	18.72
579.21	77.24
579.37	39.79
579.53	70.22
579.69	35.11
579.85	28.09
580.01	28.09
580.17	30.43
580.33	107.66
580.49	84.26
580.65	93.62
580.82	21.06
580.98	119.37
581.14	102.98
581.30	60.85
581.46	56.17
581.62	23.41
581.78	23.41
581.94	95.96
582.10	112.35
582.26	105.32
582.42	112.35
582.58	72.56
582.74	18.72
582.90	84.26
583.06	25.75
583.22	21.06
583.38	98.30
583.54	100.64
583.70	135.75
583.86	53.83
584.02	81.92
584.18	67.88
584.34	37.45
584.50	51.49
584.66	110.01
584.82	35.11
584.98	79.58
585.14	49.15
585.30	63.19
585.46	95.96
585.62	105.32
585.78	0.00
585.94	110.01
586.10	67.88
586.26	42.13
586.42	9.36
586.58	91.28
586.74	74.90
586.90	30.43
587.06	39.79
587.22	37.45
587.38	72.56
587.54	0.00
587.70	184.90
587.86	81.92
588.02	0.00
588.18	7.02
588.34	107.66
588.49	51.49
588.65	98.30
588.81	42.13
588.97	37.45
589.13	18.72
589.29	0.00
589.45	11.70
589.61	0.00
589.77	77.24
589.93	142.77
590.08	56.17
590.24	84.26
590.40	98.30
590.56	95.96
590.72	121.71
590.88	39.79
591.04	21.06
591.20	88.94
591.35	39.79
591.51	9.36
591.67	53.83
591.83	72.56
591.99	86.60
592.15	77.24
592.31	0.00
592.46	98.30
592.62	65.54
592.78	86.60
592.94	46.81
593.10	23.41
593.26	58.51
593.41	72.56
593.57	128.73
593.73	84.26
593.89	74.90
594.05	46.81
594.20	67.88
594.36	102.98
594.52	65.54
594.68	95.96
594.84	117.03
594.99	88.94
595.15	84.26
595.31	7.02
595.47	67.88
595.62	28.09
595.78	32.77
595.94	21.06
596.10	39.79
596.25	0.00
596.41	112.35
596.57	44.47
596.73	32.77
596.88	91.28
597.04	79.58
597.20	16.38
597.36	77.24
597.51	91.28
597.67	77.24
597.83	67.88
597.99	63.19
598.14	95.96
598.30	126.39
598.46	93.62
598.61	63.19
598.77	88.94
598.93	121.71
599.09	88.94
599.24	79.58
599.40	39.79
599.56	56.17
599.71	110.01
599.87	84.26
600.03	42.13
600.18	79.58
600.34	107.66
600.50	9.36
600.65	35.11
600.81	128.73
600.97	37.45
601.12	60.85
601.28	72.56
601.44	93.62
601.59	112.35
601.75	46.81
601.91	114.69
602.06	79.58
602.22	11.70
602.37	70.22
602.53	84.26
602.69	72.56
602.84	88.94
603.00	28.09
603.16	95.96
603.31	72.56
603.47	114.69
603.62	0.00
603.78	21.06
603.94	0.00
604.09	163.84
604.25	63.19
604.40	156.82
604.56	51.49
604.71	0.00
604.87	72.56
605.03	93.62
605.18	30.43
605.34	56.17
605.49	46.81
605.65	163.84
605.80	142.77
605.96	37.45
606.12	112.35
606.27	74.90
606.43	152.13
606.58	51.49
606.74	74.90
606.89	135.75
607.05	46.81
607.20	0.00
607.36	30.43
607.51	84.26
607.67	51.49
607.82	70.22
607.98	126.39
608.13	102.98
608.29	65.54
608.44	77.24
608.60	7.02
608.75	65.54
608.91	72.56
609.06	95.96
609.22	46.81
609.37	63.19
609.53	51.49
609.68	49.15
609.84	86.60
609.99	119.37
610.15	9.36
610.30	7.02
610.46	70.22
610.61	56.17
610.76	88.94
610.92	91.28
611.07	46.81
611.23	44.47
611.38	133.41
611.54	37.45
611.69	49.15
611.84	91.28
612.00	56.17
612.15	58.51
612.31	18.72
612.46	0.00
612.62	53.83
612.77	28.09
612.92	72.56
613.08	46.81
613.23	72.56
613.39	72.56
613.54	105.32
613.69	95.96
613.85	112.35
614.00	30.43
614.15	0.00
614.31	100.64
614.46	105.32
614.62	51.49
614.77	93.62
614.92	121.71
615.08	145.11
615.23	30.43
615.38	51.49
615.54	32.77
615.69	119.37
615.84	32.77
616.00	105.32
616.15	102.98
616.30	56.17
616.46	46.81
616.61	72.56
616.76	84.26
616.92	79.58
617.07	93.62
617.22	95.96
617.37	49.15
617.53	35.11
617.68	67.88
617.83	102.98
617.99	42.13
618.14	91.28
618.29	0.00
618.45	23.41
618.60	88.94
618.75	46.81
618.90	74.90
619.06	60.85
619.21	72.56
619.36	32.77
619.51	42.13
619.67	42.13
619.82	0.00
619.97	102.98
620.12	0.00
620.28	79.58
620.43	93.62
620.58	56.17
620.73	42.13
620.89	79.58
621.04	117.03
621.19	44.47
621.34	63.19
621.49	39.79
621.65	30.43
621.80	35.11
621.95	0.00
622.10	21.06
622.25	25.75
622.41	37.45
622.56	72.56
622.71	30.43
622.86	74.90
623.01	60.85
623.16	91.28
623.32	98.30
623.47	105.32
623.62	25.75
623.77	58.51
623.92	95.96
624.07	65.54
624.23	0.00
624.38	102.98
624.53	53.83
624.68	56.17
624.83	79.58
624.98	72.56
625.13	44.47
625.29	23.41
625.44	72.56
625.59	0.00
625.74	81.92
625.89	0.00
626.04	2.34
626.19	0.00
626.34	0.00
626.49	107.66
626.65	23.41
626.80	72.56
626.95	14.04
627.10	49.15
627.25	51.49
627.40	72.56
627.55	4.68
627.70	77.24
627.85	21.06
628.00	79.58
628.15	102.98
628.30	70.22
628.45	79.58
628.60	51.49
628.76	114.69
628.91	28.09
629.06	84.26
629.21	117.03
629.36	79.58
629.51	88.94
629.66	67.88
629.81	74.90
629.96	4.68
630.11	88.94
630.26	14.04
630.41	95.96
630.56	16.38
630.71	100.64
630.86	30.43
631.01	93.62
631.16	32.77
631.31	53.83
631.46	95.96
631.61	46.81
631.76	67.88
631.91	60.85
632.06	79.58
632.21	46.81
632.36	95.96
632.51	105.32
632.66	58.51
632.81	93.62
632.96	28.09
633.10	60.85
633.25	46.81
633.40	44.47
633.55	81.92
633.70	88.94
633.85	77.24
634.00	91.28
634.15	65.54
634.30	39.79
634.45	0.00
634.60	84.26
634.75	56.17
634.90	65.54
635.05	63.19
635.19	88.94
635.34	77.24
635.49	42.13
635.64	16.38
635.79	25.75
635.94	0.00
636.09	11.70
636.24	49.15
636.39	44.47
636.53	30.43
636.68	65.54
636.83	65.54
636.98	58.51
637.13	42.13
637.28	56.17
637.43	58.51
637.57	107.66
637.72	0.00
637.87	60.85
638.02	81.92
638.17	88.94
638.32	121.71
638.46	37.45
638.61	44.47
638.76	0.00
638.91	51.49
639.06	72.56
639.20	23.41
639.35	77.24
639.50	30.43
639.65	79.58
639.80	91.28
639.94	11.70
640.09	35.11
640.24	77.24
640.39	37.45
640.54	11.70
640.68	102.98
640.83	74.90
640.98	39.79
641.13	63.19
641.27	0.00
641.42	39.79
641.57	32.77
641.72	32.77
641.86	60.85
642.01	21.06
642.16	23.41
642.31	58.51
642.45	56.17
642.60	28.09
642.75	117.03
642.90	100.64
643.04	102.98
643.19	56.17
643.34	37.45
643.48	107.66
643.63	67.88
643.78	102.98
643.93	124.05
644.07	65.54
644.22	84.26
644.37	112.35
644.51	51.49
644.66	88.94
644.81	112.35
644.95	133.41
645.10	42.13
645.25	30.43
645.39	49.15
645.54	58.51
645.69	56.17
645.83	70.22
645.98	105.32
646.13	30.43
646.27	79.58
646.42	114.69
646.57	0.00
646.71	77.24
646.86	84.26
647.00	53.83
647.15	65.54
647.30	49.15
647.44	77.24
647.59	11.70
647.74	37.45
647.88	18.72
648.03	72.56
648.17	93.62
648.32	67.88
648.47	81.92
648.61	46.81
648.76	4.68
648.90	0.00
649.05	86.60
649.20	0.00
649.34	98.30
649.49	44.47
649.63	114.69
649.78	51.49
649.92	63.19
650.07	65.54
650.21	117.03
650.36	53.83
650.51	42.13
650.65	0.00
650.80	60.85
650.94	79.58
651.09	21.06
651.23	53.83
651.38	23.41
651.52	2.34
651.67	91.28
651.81	124.05
651.96	91.28
652.10	0.00
652.25	74.90
652.39	65.54
652.54	67.88
652.68	88.94
652.83	25.75
652.97	102.98
653.12	0.00
653.26	88.94
653.41	84.26
653.55	18.72
653.70	93.62
653.84	32.77
653.99	23.41
654.13	42.13
654.27	28.09
654.42	121.71
654.56	110.01
654.71	44.47
654.85	102.98
655.00	56.17
655.14	11.70
655.29	0.00
655.43	65.54
655.57	53.83
655.72	51.49
655.86	11.70
656.01	88.94
656.15	72.56
656.30	67.88
656.44	51.49
656.58	35.11
656.73	37.45
656.87	51.49
657.01	32.77
657.16	0.00
657.30	102.98
657.45	4.68
657.59	98.30
657.73	70.22
657.88	18.72
658.02	65.54
658.16	63.19
658.31	9.36
658.45	79.58
658.60	93.62
658.74	56.17
658.88	98.30
659.03	60.85
659.17	30.43
659.31	81.92
659.46	4.68
659.60	114.69
659.74	126.39
659.89	70.22
660.03	79.58
660.17	100.64
660.32	32.77
660.46	58.51
660.60	35.11
660.74	53.83
660.89	37.45
661.03	9.36
661.17	147.45
661.32	95.96
661.46	88.94
661.60	72.56
661.74	98.30
661.89	74.90
662.03	21.06
662.17	0.00
662.31	86.60
662.46	84.26
662.60	84.26
662.74	0.00
662.88	88.94
663.03	0.00
663.17	100.64
663.31	42.13
663.45	37.45
663.60	30.43
663.74	107.66
663.88	16.38
664.02	42.13
664.17	39.79
664.31	21.06
664.45	44.47
664.59	51.49
664.73	98.30
664.88	21.06
665.02	56.17
665.16	46.81
665.30	88.94
665.44	58.51
665.59	53.83
665.73	9.36
665.87	93.62
666.01	0.00
666.15	81.92
666.29	105.32
666.44	79.58
666.58	77.24
666.72	21.06
666.86	65.54
667.00	124.05
667.14	53.83
667.28	32.77
667.43	74.90
667.57	81.92
667.71	35.11
667.85	39.79
667.99	23.41
668.13	77.24
668.27	131.07
668.41	86.60
668.56	51.49
668.70	74.90
668.84	16.38
668.98	56.17
669.12	72.56
669.26	14.04
669.40	4.68
669.54	84.26
669.68	58.51
669.82	67.88
669.96	23.41
670.10	7.02
670.25	51.49
670.39	74.90
670.53	25.75
670.67	0.00
670.81	74.90
670.95	105.32
671.09	0.00
671.23	28.09
671.37	56.17
671.51	9.36
671.65	65.54
671.79	107.66
671.93	21.06
672.07	14.04
672.21	2.34
672.35	79.58
672.49	0.00
672.63	14.04
672.77	98.30
672.91	58.51
673.05	88.94
673.19	28.09
673.33	14.04
673.47	23.41
673.61	49.15
673.75	0.00
673.89	67.88
674.03	39.79
674.17	100.64
674.31	77.24
674.45	7.02
674.59	7.02
674.73	0.00
674.87	23.41
675.01	56.17
675.15	0.00
675.29	16.38
675.43	37.45
675.56	42.13
675.70	21.06
675.84	84.26
675.98	65.54
676.12	30.43
676.26	39.79
676.40	88.94
676.54	117.03
676.68	63.19
676.82	70.22
676.96	51.49
677.10	49.15
677.23	28.09
677.37	25.75
677.51	0.00
677.65	77.24
677.79	51.49
677.93	65.54
678.07	25.75
678.21	18.72
678.34	0.00
678.48	79.58
678.62	18.72
678.76	84.26
678.90	0.00
679.04	102.98
679.18	49.15
679.31	0.00
679.45	135.75
679.59	30.43
679.73	0.00
679.87	21.06
680.00	46.81
680.14	28.09
680.28	30.43
680.42	117.03
680.56	44.47
680.70	79.58
680.83	0.00
680.97	37.45
681.11	30.43
681.25	0.00
681.39	0.00
681.52	49.15
681.66	23.41
681.80	9.36
681.94	46.81
682.07	60.85
682.21	0.00
682.35	39.79
682.49	28.09
682.62	46.81
682.76	0.00
682.90	58.51
683.04	77.24
683.17	63.19
683.31	88.94
683.45	0.00
683.59	42.13
683.72	65.54
683.86	51.49
684.00	63.19
684.13	18.72
684.27	58.51
684.41	0.00
684.55	70.22
684.68	35.11
684.82	56.17
684.96	21.06
685.09	30.43
685.23	81.92
685.37	60.85
685.50	0.00
685.64	0.00
685.78	51.49
685.91	28.09
686.05	98.30
686.19	128.73
686.32	23.41
686.46	30.43
686.60	53.83
686.73	93.62
686.87	32.77
687.01	18.72
687.14	53.83
687.28	0.00
687.42	0.00
687.55	67.88
687.69	100.64
687.82	72.56
687.96	14.04
688.10	102.98
688.23	65.54
688.37	91.28
688.50	56.17
688.64	39.79
688.78	4.68
688.91	56.17
689.05	42.13
689.18	0.00
689.32	114.69
689.46	60.85
689.59	4.68
689.73	77.24
689.86	39.79
690.00	84.26
690.13	63.19
690.27	0.00
690.41	63.19
690.54	67.88
690.68	84.26
690.81	35.11
690.95	42.13
691.08	9.36
691.22	51.49
691.35	11.70
691.49	46.81
691.62	39.79
691.76	112.35
691.89	0.00
692.03	84.26
692.16	16.38
692.30	0.00
692.43	51.49
692.57	58.51
692.70	0.00
692.84	42.13
692.97	2.34
693.11	51.49
693.24	60.85
693.38	0.00
693.51	58.51
693.65	0.00
693.78	79.58
693.92	42.13
694.05	32.77
694.19	53.83
694.32	7.02
694.45	105.32
694.59	70.22
694.72	35.11
694.86	0.00
694.99	16.38
695.13	107.66
695.26	39.79
695.39	14.04
695.53	16.38
695.66	16.38
695.80	105.32
695.93	0.00
696.07	42.13
696.20	14.04
696.33	70.22
696.47	56.17
696.60	21.06
696.73	0.00
696.87	42.13
697.00	0.00
697.14	39.79
697.27	74.90
697.40	74.90
697.54	88.94
697.67	58.51
697.80	49.15
697.94	84.26
698.07	35.11
698.21	74.90
698.34	21.06
698.47	0.00
698.61	37.45
698.74	0.00
698.87	14.04
699.01	0.00
699.14	56.17
699.27	53.83
699.40	9.36
699.54	39.79
699.67	18.72
699.80	18.72
699.94	53.83
700.07	21.06
700.20	79.58
700.34	56.17
700.47	7.02
700.60	56.17
700.73	28.09
700.87	46.81
701.00	53.83
701.13	0.00
701.26	14.04
701.40	39.79
701.53	91.28
701.66	0.00
701.79	18.72
701.93	0.00
702.06	63.19
702.19	11.70
702.32	11.70
702.46	79.58
702.59	42.13
702.72	0.00
702.85	70.22
702.99	0.00
703.12	65.54
703.25	4.68
703.38	70.22
703.51	35.11
703.65	21.06
703.78	0.00
703.91	67.88
704.04	16.38
704.17	25.75
704.31	56.17
704.44	4.68
704.57	9.36
704.70	110.01
704.83	56.17
704.96	81.92
705.10	42.13
705.23	0.00
>>>>>End Processed Spectral Data<<<<<
