SpectraSuite Data File
++++++++++++++++++++++++++++++++++++
Date: Fri Oct 04 12:13:29 GMT-05:00 2013
User: price-jones
Dark Spectrum Present: No
Reference Spectrum Present: No
Number of Sampled Component Spectra: 1
Spectrometers: USB2+H05261
Integration Time (usec): 10000 (USB2+H05261)
Spectra Averaged: 1 (USB2+H05261)
Boxcar Smoothing: 0 (USB2+H05261)
Correct for Electrical Dark: No (USB2+H05261)
Strobe/Lamp Enabled: No (USB2+H05261)
Correct for Detector Non-linearity: No (USB2+H05261)
Correct for Stray Light: No (USB2+H05261)
Number of Pixels in Processed Spectrum: 2048
>>>>>Begin Processed Spectral Data<<<<<
365.73	0.00
365.92	0.00
366.12	0.00
366.32	0.00
366.52	0.00
366.72	0.00
366.91	0.00
367.11	0.00
367.31	0.00
367.51	0.00
367.70	0.00
367.90	0.00
368.10	0.00
368.30	0.00
368.49	0.00
368.69	0.00
368.89	0.00
369.09	0.00
369.28	0.00
369.48	0.00
369.68	0.00
369.87	0.00
370.07	0.00
370.27	0.00
370.47	0.00
370.66	0.00
370.86	0.00
371.06	0.00
371.25	0.00
371.45	0.00
371.65	9.36
371.84	0.00
372.04	0.00
372.24	0.00
372.44	0.00
372.63	0.00
372.83	91.28
373.03	18.72
373.22	0.00
373.42	18.72
373.62	35.11
373.81	9.36
374.01	0.00
374.21	49.15
374.40	44.47
374.60	65.54
374.79	25.75
374.99	56.17
375.19	88.94
375.38	102.98
375.58	0.00
375.78	65.54
375.97	65.54
376.17	53.83
376.37	14.04
376.56	4.68
376.76	0.00
376.95	18.72
377.15	7.02
377.35	0.00
377.54	16.38
377.74	44.47
377.93	28.09
378.13	42.13
378.33	70.22
378.52	58.51
378.72	0.00
378.91	9.36
379.11	0.00
379.31	21.06
379.50	9.36
379.70	70.22
379.89	60.85
380.09	91.28
380.28	37.45
380.48	0.00
380.68	0.00
380.87	67.88
381.07	0.00
381.26	11.70
381.46	18.72
381.65	23.41
381.85	9.36
382.04	0.00
382.24	0.00
382.43	58.51
382.63	0.00
382.83	72.56
383.02	0.00
383.22	7.02
383.41	35.11
383.61	18.72
383.80	0.00
384.00	0.00
384.19	67.88
384.39	0.00
384.58	30.43
384.78	79.58
384.97	28.09
385.17	0.00
385.36	32.77
385.56	18.72
385.75	14.04
385.95	56.17
386.14	35.11
386.34	0.00
386.53	42.13
386.72	44.47
386.92	14.04
387.11	37.45
387.31	0.00
387.50	32.77
387.70	23.41
387.89	16.38
388.09	35.11
388.28	58.51
388.48	25.75
388.67	9.36
388.86	42.13
389.06	25.75
389.25	51.49
389.45	0.00
389.64	56.17
389.84	0.00
390.03	0.00
390.22	51.49
390.42	9.36
390.61	35.11
390.81	65.54
391.00	30.43
391.19	44.47
391.39	0.00
391.58	14.04
391.78	14.04
391.97	0.00
392.16	0.00
392.36	0.00
392.55	11.70
392.75	0.00
392.94	100.64
393.13	42.13
393.33	0.00
393.52	18.72
393.71	0.00
393.91	60.85
394.10	9.36
394.29	67.88
394.49	0.00
394.68	63.19
394.88	42.13
395.07	7.02
395.26	0.00
395.46	25.75
395.65	63.19
395.84	28.09
396.04	2.34
396.23	14.04
396.42	0.00
396.62	0.00
396.81	46.81
397.00	7.02
397.19	4.68
397.39	140.43
397.58	0.00
397.77	42.13
397.97	0.00
398.16	0.00
398.35	0.00
398.55	16.38
398.74	51.49
398.93	7.02
399.12	0.00
399.32	32.77
399.51	77.24
399.70	46.81
399.90	74.90
400.09	0.00
400.28	58.51
400.47	0.00
400.67	51.49
400.86	42.13
401.05	51.49
401.24	9.36
401.44	70.22
401.63	63.19
401.82	95.96
402.01	4.68
402.21	0.00
402.40	0.00
402.59	23.41
402.78	14.04
402.97	21.06
403.17	0.00
403.36	25.75
403.55	0.00
403.74	16.38
403.93	7.02
404.13	18.72
404.32	21.06
404.51	7.02
404.70	98.30
404.89	58.51
405.09	0.00
405.28	49.15
405.47	72.56
405.66	25.75
405.85	79.58
406.05	51.49
406.24	4.68
406.43	81.92
406.62	0.00
406.81	0.00
407.00	42.13
407.20	0.00
407.39	51.49
407.58	49.15
407.77	30.43
407.96	79.58
408.15	2.34
408.34	23.41
408.54	0.00
408.73	0.00
408.92	23.41
409.11	21.06
409.30	30.43
409.49	0.00
409.68	18.72
409.87	39.79
410.07	39.79
410.26	0.00
410.45	88.94
410.64	44.47
410.83	79.58
411.02	18.72
411.21	0.00
411.40	4.68
411.59	16.38
411.78	4.68
411.98	0.00
412.17	49.15
412.36	74.90
412.55	39.79
412.74	18.72
412.93	0.00
413.12	67.88
413.31	65.54
413.50	4.68
413.69	16.38
413.88	0.00
414.07	9.36
414.26	0.00
414.45	98.30
414.64	42.13
414.83	112.35
415.02	49.15
415.22	117.03
415.41	7.02
415.60	11.70
415.79	46.81
415.98	0.00
416.17	11.70
416.36	65.54
416.55	91.28
416.74	23.41
416.93	35.11
417.12	79.58
417.31	105.32
417.50	32.77
417.69	23.41
417.88	23.41
418.07	67.88
418.26	2.34
418.45	42.13
418.64	25.75
418.83	135.75
419.02	77.24
419.21	0.00
419.39	0.00
419.58	0.00
419.77	84.26
419.96	79.58
420.15	2.34
420.34	23.41
420.53	0.00
420.72	0.00
420.91	2.34
421.10	18.72
421.29	44.47
421.48	21.06
421.67	0.00
421.86	0.00
422.05	16.38
422.24	46.81
422.43	63.19
422.61	0.00
422.80	21.06
422.99	11.70
423.18	2.34
423.37	37.45
423.56	49.15
423.75	2.34
423.94	60.85
424.13	56.17
424.32	4.68
424.50	44.47
424.69	9.36
424.88	84.26
425.07	0.00
425.26	65.54
425.45	124.05
425.64	14.04
425.83	28.09
426.01	0.00
426.20	35.11
426.39	14.04
426.58	56.17
426.77	81.92
426.96	56.17
427.15	0.00
427.33	44.47
427.52	58.51
427.71	0.00
427.90	4.68
428.09	42.13
428.28	0.00
428.46	63.19
428.65	42.13
428.84	23.41
429.03	46.81
429.22	70.22
429.40	53.83
429.59	14.04
429.78	79.58
429.97	37.45
430.16	18.72
430.34	39.79
430.53	56.17
430.72	18.72
430.91	53.83
431.10	0.00
431.28	0.00
431.47	63.19
431.66	18.72
431.85	0.00
432.03	0.00
432.22	0.00
432.41	0.00
432.60	11.70
432.79	100.64
432.97	63.19
433.16	72.56
433.35	51.49
433.54	77.24
433.72	79.58
433.91	67.88
434.10	16.38
434.28	37.45
434.47	37.45
434.66	42.13
434.85	56.17
435.03	100.64
435.22	32.77
435.41	0.00
435.59	0.00
435.78	11.70
435.97	21.06
436.16	0.00
436.34	0.00
436.53	86.60
436.72	0.00
436.90	60.85
437.09	72.56
437.28	2.34
437.46	44.47
437.65	0.00
437.84	0.00
438.02	107.66
438.21	32.77
438.40	23.41
438.58	14.04
438.77	0.00
438.96	25.75
439.14	23.41
439.33	53.83
439.52	18.72
439.70	28.09
439.89	0.00
440.08	0.00
440.26	86.60
440.45	72.56
440.63	46.81
440.82	35.11
441.01	39.79
441.19	56.17
441.38	44.47
441.57	9.36
441.75	49.15
441.94	74.90
442.12	39.79
442.31	0.00
442.50	0.00
442.68	35.11
442.87	0.00
443.05	107.66
443.24	7.02
443.43	4.68
443.61	42.13
443.80	28.09
443.98	0.00
444.17	7.02
444.35	0.00
444.54	37.45
444.73	0.00
444.91	37.45
445.10	0.00
445.28	86.60
445.47	28.09
445.65	142.77
445.84	0.00
446.02	49.15
446.21	2.34
446.39	30.43
446.58	2.34
446.77	0.00
446.95	16.38
447.14	0.00
447.32	9.36
447.51	0.00
447.69	4.68
447.88	0.00
448.06	2.34
448.25	46.81
448.43	44.47
448.62	0.00
448.80	79.58
448.99	0.00
449.17	21.06
449.36	70.22
449.54	63.19
449.73	9.36
449.91	0.00
450.10	0.00
450.28	0.00
450.46	32.77
450.65	42.13
450.83	77.24
451.02	7.02
451.20	0.00
451.39	0.00
451.57	0.00
451.76	30.43
451.94	2.34
452.13	98.30
452.31	56.17
452.49	30.43
452.68	65.54
452.86	63.19
453.05	35.11
453.23	53.83
453.42	14.04
453.60	16.38
453.78	14.04
453.97	46.81
454.15	0.00
454.34	91.28
454.52	32.77
454.70	0.00
454.89	74.90
455.07	9.36
455.26	0.00
455.44	0.00
455.62	0.00
455.81	74.90
455.99	18.72
456.17	23.41
456.36	67.88
456.54	42.13
456.73	114.69
456.91	46.81
457.09	0.00
457.28	32.77
457.46	7.02
457.64	7.02
457.83	107.66
458.01	0.00
458.19	18.72
458.38	21.06
458.56	23.41
458.74	53.83
458.93	84.26
459.11	21.06
459.29	32.77
459.48	42.13
459.66	0.00
459.84	23.41
460.03	72.56
460.21	2.34
460.39	63.19
460.57	58.51
460.76	0.00
460.94	0.00
461.12	117.03
461.31	25.75
461.49	28.09
461.67	23.41
461.85	37.45
462.04	77.24
462.22	49.15
462.40	63.19
462.59	0.00
462.77	7.02
462.95	23.41
463.13	11.70
463.32	35.11
463.50	7.02
463.68	30.43
463.86	0.00
464.05	23.41
464.23	84.26
464.41	4.68
464.59	44.47
464.78	0.00
464.96	30.43
465.14	91.28
465.32	49.15
465.50	49.15
465.69	105.32
465.87	25.75
466.05	74.90
466.23	0.00
466.41	14.04
466.60	37.45
466.78	2.34
466.96	37.45
467.14	23.41
467.32	0.00
467.51	9.36
467.69	0.00
467.87	77.24
468.05	2.34
468.23	0.00
468.41	51.49
468.60	30.43
468.78	0.00
468.96	88.94
469.14	30.43
469.32	7.02
469.50	0.00
469.69	14.04
469.87	0.00
470.05	51.49
470.23	0.00
470.41	93.62
470.59	65.54
470.77	74.90
470.95	51.49
471.14	0.00
471.32	7.02
471.50	0.00
471.68	39.79
471.86	0.00
472.04	11.70
472.22	23.41
472.40	79.58
472.58	93.62
472.77	39.79
472.95	30.43
473.13	18.72
473.31	21.06
473.49	79.58
473.67	7.02
473.85	95.96
474.03	0.00
474.21	35.11
474.39	39.79
474.57	65.54
474.75	70.22
474.93	21.06
475.12	42.13
475.30	86.60
475.48	60.85
475.66	49.15
475.84	30.43
476.02	25.75
476.20	25.75
476.38	0.00
476.56	88.94
476.74	112.35
476.92	16.38
477.10	0.00
477.28	0.00
477.46	49.15
477.64	18.72
477.82	119.37
478.00	23.41
478.18	131.07
478.36	18.72
478.54	11.70
478.72	65.54
478.90	67.88
479.08	0.00
479.26	95.96
479.44	77.24
479.62	42.13
479.80	53.83
479.98	35.11
480.16	60.85
480.34	56.17
480.52	49.15
480.70	28.09
480.88	67.88
481.06	7.02
481.24	0.00
481.41	35.11
481.59	0.00
481.77	49.15
481.95	56.17
482.13	42.13
482.31	2.34
482.49	70.22
482.67	18.72
482.85	39.79
483.03	95.96
483.21	56.17
483.39	95.96
483.57	72.56
483.74	9.36
483.92	0.00
484.10	23.41
484.28	51.49
484.46	25.75
484.64	0.00
484.82	70.22
485.00	42.13
485.18	65.54
485.35	58.51
485.53	63.19
485.71	4.68
485.89	30.43
486.07	0.00
486.25	0.00
486.43	81.92
486.61	35.11
486.78	74.90
486.96	51.49
487.14	51.49
487.32	0.00
487.50	39.79
487.68	110.01
487.85	51.49
488.03	18.72
488.21	16.38
488.39	25.75
488.57	74.90
488.75	46.81
488.92	39.79
489.10	58.51
489.28	18.72
489.46	49.15
489.64	42.13
489.81	25.75
489.99	63.19
490.17	79.58
490.35	56.17
490.53	16.38
490.70	53.83
490.88	56.17
491.06	65.54
491.24	18.72
491.41	0.00
491.59	23.41
491.77	32.77
491.95	0.00
492.13	28.09
492.30	46.81
492.48	0.00
492.66	0.00
492.84	23.41
493.01	23.41
493.19	65.54
493.37	0.00
493.54	53.83
493.72	44.47
493.90	72.56
494.08	42.13
494.25	58.51
494.43	0.00
494.61	21.06
494.79	30.43
494.96	11.70
495.14	81.92
495.32	51.49
495.49	9.36
495.67	74.90
495.85	81.92
496.02	42.13
496.20	0.00
496.38	110.01
496.55	14.04
496.73	4.68
496.91	56.17
497.09	0.00
497.26	25.75
497.44	44.47
497.62	0.00
497.79	72.56
497.97	21.06
498.14	0.00
498.32	30.43
498.50	42.13
498.67	0.00
498.85	9.36
499.03	37.45
499.20	56.17
499.38	88.94
499.56	0.00
499.73	14.04
499.91	42.13
500.08	44.47
500.26	72.56
500.44	98.30
500.61	65.54
500.79	0.00
500.97	0.00
501.14	79.58
501.32	32.77
501.49	93.62
501.67	79.58
501.84	67.88
502.02	4.68
502.20	53.83
502.37	37.45
502.55	67.88
502.72	7.02
502.90	81.92
503.07	25.75
503.25	67.88
503.43	28.09
503.60	0.00
503.78	46.81
503.95	18.72
504.13	25.75
504.30	0.00
504.48	37.45
504.65	35.11
504.83	60.85
505.01	7.02
505.18	58.51
505.36	0.00
505.53	14.04
505.71	114.69
505.88	67.88
506.06	53.83
506.23	4.68
506.41	100.64
506.58	42.13
506.76	44.47
506.93	60.85
507.11	30.43
507.28	49.15
507.46	9.36
507.63	14.04
507.81	81.92
507.98	49.15
508.16	58.51
508.33	86.60
508.50	46.81
508.68	63.19
508.85	0.00
509.03	0.00
509.20	14.04
509.38	0.00
509.55	30.43
509.73	81.92
509.90	30.43
510.08	126.39
510.25	42.13
510.42	30.43
510.60	39.79
510.77	51.49
510.95	4.68
511.12	65.54
511.30	25.75
511.47	42.13
511.64	37.45
511.82	70.22
511.99	14.04
512.17	4.68
512.34	84.26
512.51	72.56
512.69	0.00
512.86	77.24
513.04	56.17
513.21	18.72
513.38	79.58
513.56	81.92
513.73	56.17
513.90	32.77
514.08	51.49
514.25	28.09
514.43	84.26
514.60	14.04
514.77	32.77
514.95	86.60
515.12	39.79
515.29	14.04
515.47	44.47
515.64	81.92
515.81	4.68
515.99	84.26
516.16	58.51
516.33	2.34
516.51	88.94
516.68	72.56
516.85	65.54
517.03	42.13
517.20	37.45
517.37	25.75
517.54	32.77
517.72	51.49
517.89	18.72
518.06	32.77
518.24	65.54
518.41	0.00
518.58	117.03
518.75	9.36
518.93	28.09
519.10	72.56
519.27	42.13
519.45	46.81
519.62	28.09
519.79	30.43
519.96	18.72
520.14	65.54
520.31	25.75
520.48	84.26
520.65	25.75
520.83	114.69
521.00	63.19
521.17	70.22
521.34	11.70
521.52	9.36
521.69	51.49
521.86	21.06
522.03	35.11
522.20	44.47
522.38	72.56
522.55	37.45
522.72	0.00
522.89	14.04
523.07	39.79
523.24	2.34
523.41	58.51
523.58	16.38
523.75	0.00
523.92	51.49
524.10	2.34
524.27	0.00
524.44	14.04
524.61	98.30
524.78	0.00
524.96	81.92
525.13	25.75
525.30	60.85
525.47	51.49
525.64	84.26
525.81	0.00
525.98	32.77
526.16	110.01
526.33	72.56
526.50	7.02
526.67	51.49
526.84	18.72
527.01	58.51
527.18	51.49
527.36	9.36
527.53	63.19
527.70	65.54
527.87	16.38
528.04	70.22
528.21	23.41
528.38	74.90
528.55	23.41
528.72	107.66
528.89	42.13
529.07	0.00
529.24	44.47
529.41	63.19
529.58	32.77
529.75	16.38
529.92	39.79
530.09	0.00
530.26	79.58
530.43	16.38
530.60	23.41
530.77	14.04
530.94	86.60
531.11	65.54
531.28	51.49
531.46	44.47
531.63	56.17
531.80	72.56
531.97	0.00
532.14	42.13
532.31	4.68
532.48	72.56
532.65	70.22
532.82	28.09
532.99	56.17
533.16	77.24
533.33	11.70
533.50	23.41
533.67	56.17
533.84	173.20
534.01	112.35
534.18	67.88
534.35	98.30
534.52	77.24
534.69	93.62
534.86	0.00
535.03	60.85
535.20	65.54
535.37	4.68
535.54	53.83
535.71	0.00
535.88	67.88
536.05	0.00
536.22	44.47
536.38	70.22
536.55	32.77
536.72	49.15
536.89	11.70
537.06	0.00
537.23	60.85
537.40	0.00
537.57	53.83
537.74	0.00
537.91	42.13
538.08	91.28
538.25	51.49
538.42	49.15
538.59	56.17
538.75	18.72
538.92	58.51
539.09	21.06
539.26	0.00
539.43	32.77
539.60	28.09
539.77	140.43
539.94	114.69
540.11	140.43
540.28	72.56
540.44	67.88
540.61	25.75
540.78	0.00
540.95	11.70
541.12	0.00
541.29	0.00
541.46	4.68
541.62	32.77
541.79	74.90
541.96	0.00
542.13	67.88
542.30	32.77
542.47	58.51
542.63	0.00
542.80	124.05
542.97	23.41
543.14	9.36
543.31	70.22
543.48	0.00
543.64	81.92
543.81	9.36
543.98	51.49
544.15	32.77
544.32	23.41
544.48	0.00
544.65	0.00
544.82	46.81
544.99	51.49
545.16	9.36
545.32	18.72
545.49	88.94
545.66	30.43
545.83	35.11
546.00	58.51
546.16	86.60
546.33	39.79
546.50	30.43
546.67	4.68
546.83	0.00
547.00	4.68
547.17	63.19
547.34	14.04
547.50	77.24
547.67	107.66
547.84	74.90
548.00	105.32
548.17	53.83
548.34	35.11
548.51	72.56
548.67	0.00
548.84	0.00
549.01	0.00
549.18	0.00
549.34	95.96
549.51	4.68
549.68	77.24
549.84	42.13
550.01	53.83
550.18	46.81
550.34	18.72
550.51	44.47
550.68	14.04
550.84	56.17
551.01	93.62
551.18	30.43
551.34	86.60
551.51	0.00
551.68	14.04
551.84	2.34
552.01	18.72
552.18	28.09
552.34	30.43
552.51	0.00
552.68	63.19
552.84	28.09
553.01	32.77
553.18	30.43
553.34	0.00
553.51	0.00
553.67	70.22
553.84	32.77
554.01	4.68
554.17	63.19
554.34	23.41
554.51	49.15
554.67	39.79
554.84	81.92
555.00	37.45
555.17	81.92
555.33	70.22
555.50	60.85
555.67	93.62
555.83	21.06
556.00	37.45
556.16	51.49
556.33	63.19
556.50	39.79
556.66	7.02
556.83	35.11
556.99	42.13
557.16	0.00
557.32	79.58
557.49	21.06
557.65	51.49
557.82	86.60
557.98	7.02
558.15	72.56
558.32	28.09
558.48	81.92
558.65	60.85
558.81	11.70
558.98	28.09
559.14	21.06
559.31	30.43
559.47	81.92
559.64	67.88
559.80	7.02
559.97	23.41
560.13	74.90
560.30	63.19
560.46	70.22
560.63	53.83
560.79	0.00
560.96	44.47
561.12	25.75
561.29	51.49
561.45	67.88
561.61	98.30
561.78	0.00
561.94	0.00
562.11	49.15
562.27	18.72
562.44	39.79
562.60	79.58
562.77	58.51
562.93	0.00
563.10	9.36
563.26	0.00
563.42	79.58
563.59	0.00
563.75	72.56
563.92	23.41
564.08	25.75
564.24	60.85
564.41	35.11
564.57	28.09
564.74	63.19
564.90	56.17
565.07	100.64
565.23	51.49
565.39	23.41
565.56	100.64
565.72	86.60
565.88	39.79
566.05	0.00
566.21	4.68
566.38	56.17
566.54	86.60
566.70	58.51
566.87	39.79
567.03	37.45
567.19	77.24
567.36	58.51
567.52	74.90
567.68	25.75
567.85	21.06
568.01	16.38
568.17	81.92
568.34	58.51
568.50	16.38
568.66	49.15
568.83	23.41
568.99	46.81
569.15	105.32
569.32	63.19
569.48	65.54
569.64	23.41
569.81	44.47
569.97	84.26
570.13	37.45
570.30	70.22
570.46	72.56
570.62	65.54
570.78	72.56
570.95	0.00
571.11	16.38
571.27	28.09
571.43	37.45
571.60	0.00
571.76	23.41
571.92	93.62
572.09	30.43
572.25	16.38
572.41	84.26
572.57	0.00
572.74	0.00
572.90	84.26
573.06	35.11
573.22	9.36
573.38	2.34
573.55	63.19
573.71	0.00
573.87	119.37
574.03	93.62
574.20	21.06
574.36	4.68
574.52	49.15
574.68	16.38
574.84	11.70
575.01	39.79
575.17	84.26
575.33	25.75
575.49	86.60
575.65	0.00
575.82	7.02
575.98	18.72
576.14	81.92
576.30	95.96
576.46	91.28
576.62	25.75
576.79	51.49
576.95	56.17
577.11	110.01
577.27	98.30
577.43	7.02
577.59	30.43
577.75	21.06
577.92	21.06
578.08	49.15
578.24	56.17
578.40	60.85
578.56	93.62
578.72	30.43
578.88	18.72
579.04	74.90
579.21	77.24
579.37	67.88
579.53	4.68
579.69	63.19
579.85	79.58
580.01	16.38
580.17	65.54
580.33	60.85
580.49	81.92
580.65	81.92
580.82	39.79
580.98	81.92
581.14	107.66
581.30	51.49
581.46	65.54
581.62	67.88
581.78	0.00
581.94	49.15
582.10	98.30
582.26	67.88
582.42	100.64
582.58	44.47
582.74	37.45
582.90	32.77
583.06	21.06
583.22	44.47
583.38	126.39
583.54	37.45
583.70	74.90
583.86	63.19
584.02	79.58
584.18	98.30
584.34	175.54
584.50	355.76
584.66	2125.21
584.82	4802.78
584.98	6155.61
585.14	5270.89
585.30	3361.01
585.46	2040.95
585.62	1306.02
585.78	627.26
585.94	243.42
586.10	147.45
586.26	110.01
586.42	37.45
586.58	63.19
586.74	67.88
586.90	51.49
587.06	81.92
587.22	107.66
587.38	56.17
587.54	100.64
587.70	255.12
587.86	437.68
588.02	449.38
588.18	283.20
588.34	236.39
588.49	126.39
588.65	152.13
588.81	124.05
588.97	58.51
589.13	35.11
589.29	0.00
589.45	25.75
589.61	35.11
589.77	88.94
589.93	93.62
590.08	110.01
590.24	53.83
590.40	65.54
590.56	35.11
590.72	9.36
590.88	46.81
591.04	175.54
591.20	37.45
591.35	65.54
591.51	74.90
591.67	9.36
591.83	70.22
591.99	37.45
592.15	81.92
592.31	0.00
592.46	14.04
592.62	37.45
592.78	56.17
592.94	77.24
593.10	0.00
593.26	91.28
593.41	37.45
593.57	131.07
593.73	119.37
593.89	306.61
594.05	631.94
594.20	723.23
594.36	725.57
594.52	582.79
594.68	348.74
594.84	231.71
594.99	133.41
595.15	74.90
595.31	0.00
595.47	0.00
595.62	0.00
595.78	0.00
595.94	79.58
596.10	39.79
596.25	77.24
596.41	84.26
596.57	51.49
596.73	53.83
596.88	149.79
597.04	154.48
597.20	196.60
597.36	168.52
597.51	166.18
597.67	154.48
597.83	72.56
597.99	65.54
598.14	14.04
598.30	11.70
598.46	53.83
598.61	0.00
598.77	32.77
598.93	72.56
599.09	53.83
599.24	7.02
599.40	67.88
599.56	86.60
599.71	46.81
599.87	32.77
600.03	30.43
600.18	84.26
600.34	49.15
600.50	0.00
600.65	44.47
600.81	44.47
600.97	25.75
601.12	0.00
601.28	0.00
601.44	7.02
601.59	0.00
601.75	98.30
601.91	2.34
602.06	110.01
602.22	107.66
602.37	56.17
602.53	95.96
602.69	238.73
602.84	271.50
603.00	217.67
603.16	74.90
603.31	114.69
603.47	0.00
603.62	42.13
603.78	0.00
603.94	93.62
604.09	51.49
604.25	95.96
604.40	0.00
604.56	39.79
604.71	60.85
604.87	119.37
605.03	49.15
605.18	53.83
605.34	60.85
605.49	126.39
605.65	65.54
605.80	81.92
605.96	42.13
606.12	51.49
606.27	46.81
606.43	63.19
606.58	4.68
606.74	100.64
606.89	360.44
607.05	594.50
607.20	755.99
607.36	486.83
607.51	383.85
607.67	325.33
607.82	170.86
607.98	110.01
608.13	102.98
608.29	91.28
608.44	70.22
608.60	88.94
608.75	79.58
608.91	182.56
609.06	594.50
609.22	1008.77
609.37	1149.20
609.53	915.15
609.68	723.23
609.84	440.02
609.99	273.84
610.15	175.54
610.30	102.98
610.46	91.28
610.61	39.79
610.76	37.45
610.92	44.47
611.07	14.04
611.23	44.47
611.38	35.11
611.54	56.17
611.69	23.41
611.84	37.45
612.00	131.07
612.15	107.66
612.31	44.47
612.46	65.54
612.62	112.35
612.77	91.28
612.92	39.79
613.08	77.24
613.23	46.81
613.39	93.62
613.54	70.22
613.69	468.11
613.85	1348.15
614.00	1739.02
614.15	1675.82
614.31	1306.02
614.46	856.64
614.62	592.16
614.77	322.99
614.92	187.24
615.08	100.64
615.23	46.81
615.38	0.00
615.54	100.64
615.69	107.66
615.84	220.01
616.00	461.09
616.15	512.58
616.30	444.70
616.46	381.51
616.61	184.90
616.76	147.45
616.92	42.13
617.07	53.83
617.22	149.79
617.37	56.17
617.53	14.04
617.68	95.96
617.83	0.00
617.99	0.00
618.14	112.35
618.29	7.02
618.45	51.49
618.60	0.00
618.75	0.00
618.90	21.06
619.06	58.51
619.21	0.00
619.36	56.17
619.51	60.85
619.67	67.88
619.82	79.58
619.97	0.00
620.12	42.13
620.28	37.45
620.43	35.11
620.58	0.00
620.73	25.75
620.89	28.09
621.04	147.45
621.19	119.37
621.34	259.80
621.49	332.36
621.65	294.91
621.80	201.29
621.95	163.84
622.10	105.32
622.25	44.47
622.41	91.28
622.56	91.28
622.71	14.04
622.86	18.72
623.01	11.70
623.16	0.00
623.32	44.47
623.47	81.92
623.62	70.22
623.77	0.00
623.92	0.00
624.07	4.68
624.23	35.11
624.38	0.00
624.53	63.19
624.68	112.35
624.83	23.41
624.98	72.56
625.13	56.17
625.29	77.24
625.44	0.00
625.59	35.11
625.74	112.35
625.89	49.15
626.04	273.84
626.19	615.56
626.34	870.68
626.49	931.53
626.65	744.29
626.80	491.51
626.95	315.97
627.10	201.29
627.25	138.09
627.40	105.32
627.55	105.32
627.70	14.04
627.85	51.49
628.00	46.81
628.15	63.19
628.30	56.17
628.45	2.34
628.60	74.90
628.76	42.13
628.91	63.19
629.06	51.49
629.21	42.13
629.36	70.22
629.51	56.17
629.66	39.79
629.81	117.03
629.96	187.24
630.11	222.35
630.26	315.97
630.41	173.20
630.56	191.92
630.71	140.43
630.86	93.62
631.01	14.04
631.16	56.17
631.31	0.00
631.46	23.41
631.61	112.35
631.76	16.38
631.91	46.81
632.06	30.43
632.21	39.79
632.36	53.83
632.51	88.94
632.66	117.03
632.81	142.77
632.96	318.31
633.10	514.92
633.25	624.92
633.40	571.09
633.55	421.30
633.70	259.80
633.85	196.60
634.00	91.28
634.15	79.58
634.30	81.92
634.45	49.15
634.60	39.79
634.75	81.92
634.90	70.22
635.05	67.88
635.19	81.92
635.34	74.90
635.49	72.56
635.64	110.01
635.79	79.58
635.94	42.13
636.09	81.92
636.24	93.62
636.39	42.13
636.53	30.43
636.68	114.69
636.83	88.94
636.98	0.00
637.13	119.37
637.28	37.45
637.43	91.28
637.57	102.98
637.72	353.42
637.87	802.80
638.02	1135.16
638.17	1249.85
638.32	968.98
638.46	582.79
638.61	571.09
638.76	241.08
638.91	128.73
639.06	63.19
639.20	95.96
639.35	51.49
639.50	177.88
639.65	566.41
639.80	1219.42
639.94	1767.10
640.09	1881.79
640.24	1387.94
640.39	978.34
640.54	634.29
640.68	351.08
640.83	170.86
640.98	114.69
641.13	56.17
641.27	39.79
641.42	44.47
641.57	39.79
641.72	42.13
641.86	9.36
642.01	39.79
642.16	35.11
642.31	81.92
642.45	70.22
642.60	30.43
642.75	2.34
642.90	9.36
643.04	117.03
643.19	18.72
643.34	79.58
643.48	18.72
643.63	25.75
643.78	102.98
643.93	7.02
644.07	39.79
644.22	9.36
644.37	70.22
644.51	0.00
644.66	0.00
644.81	39.79
644.95	63.19
645.10	63.19
645.25	77.24
645.39	51.49
645.54	0.00
645.69	21.06
645.83	30.43
645.98	140.43
646.13	0.00
646.27	32.77
646.42	18.72
646.57	32.77
646.71	2.34
646.86	21.06
647.00	42.13
647.15	42.13
647.30	0.00
647.44	21.06
647.59	14.04
647.74	81.92
647.88	67.88
648.03	79.58
648.17	37.45
648.32	81.92
648.47	63.19
648.61	79.58
648.76	46.81
648.90	16.38
649.05	0.00
649.20	9.36
649.34	0.00
649.49	9.36
649.63	58.51
649.78	51.49
649.92	2.34
650.07	269.16
650.21	571.09
650.36	854.30
650.51	870.68
650.65	823.87
650.80	519.60
650.94	362.78
651.09	215.33
651.23	110.01
651.38	117.03
651.52	46.81
651.67	58.51
651.81	37.45
651.96	25.75
652.10	72.56
652.25	28.09
652.39	46.81
652.54	46.81
652.68	35.11
652.83	182.56
652.97	283.20
653.12	320.65
653.26	339.38
653.41	198.95
653.55	166.18
653.70	79.58
653.84	42.13
653.99	74.90
654.13	93.62
654.27	35.11
654.42	11.70
654.56	74.90
654.71	95.96
654.85	32.77
655.00	0.00
655.14	39.79
655.29	18.72
655.43	28.09
655.57	0.00
655.72	32.77
655.86	25.75
656.01	0.00
656.15	93.62
656.30	126.39
656.44	0.00
656.58	30.43
656.73	60.85
656.87	16.38
657.01	46.81
657.16	58.51
657.30	25.75
657.45	46.81
657.59	42.13
657.73	32.77
657.88	56.17
658.02	0.00
658.16	37.45
658.31	72.56
658.45	70.22
658.60	7.02
658.74	9.36
658.88	84.26
659.03	37.45
659.17	49.15
659.31	138.09
659.46	306.61
659.60	454.06
659.74	554.71
659.89	414.27
660.03	304.27
660.17	156.82
660.32	154.48
660.46	128.73
660.60	51.49
660.74	28.09
660.89	0.00
661.03	93.62
661.17	65.54
661.32	53.83
661.46	7.02
661.60	58.51
661.74	49.15
661.89	79.58
662.03	98.30
662.17	18.72
662.31	0.00
662.46	42.13
662.60	0.00
662.74	105.32
662.88	0.00
663.03	67.88
663.17	53.83
663.31	30.43
663.45	9.36
663.60	0.00
663.74	0.00
663.88	32.77
664.02	51.49
664.17	56.17
664.31	65.54
664.45	105.32
664.59	35.11
664.73	58.51
664.88	23.41
665.02	51.49
665.16	63.19
665.30	0.00
665.44	35.11
665.59	79.58
665.73	0.00
665.87	25.75
666.01	0.00
666.15	35.11
666.29	42.13
666.44	81.92
666.58	51.49
666.72	72.56
666.86	88.94
667.00	49.15
667.14	88.94
667.28	156.82
667.43	496.19
667.57	725.57
667.71	816.85
667.85	774.72
667.99	557.05
668.13	400.23
668.27	224.69
668.41	163.84
668.56	100.64
668.70	102.98
668.84	121.71
668.98	9.36
669.12	79.58
669.26	0.00
669.40	39.79
669.54	58.51
669.68	4.68
669.82	0.00
669.96	81.92
670.10	0.00
670.25	44.47
670.39	9.36
670.53	4.68
670.67	102.98
670.81	63.19
670.95	9.36
671.09	63.19
671.23	220.01
671.37	397.89
671.51	458.74
671.65	575.77
671.79	374.49
671.93	273.84
672.07	138.09
672.21	152.13
672.35	119.37
672.49	51.49
672.63	65.54
672.77	72.56
672.91	21.06
673.05	37.45
673.19	21.06
673.33	2.34
673.47	0.00
673.61	72.56
673.75	11.70
673.89	65.54
674.03	112.35
674.17	84.26
674.31	42.13
674.45	4.68
674.59	0.00
674.73	0.00
674.87	42.13
675.01	23.41
675.15	58.51
675.29	77.24
675.43	0.00
675.56	39.79
675.70	11.70
675.84	9.36
675.98	51.49
676.12	21.06
676.26	74.90
676.40	14.04
676.54	23.41
676.68	37.45
676.82	21.06
676.96	77.24
677.10	56.17
677.23	72.56
677.37	0.00
677.51	58.51
677.65	77.24
677.79	21.06
677.93	58.51
678.07	2.34
678.21	51.49
678.34	42.13
678.48	0.00
678.62	0.00
678.76	0.00
678.90	56.17
679.04	9.36
679.18	56.17
679.31	110.01
679.45	77.24
679.59	25.75
679.73	91.28
679.87	81.92
680.00	0.00
680.14	53.83
680.28	35.11
680.42	60.85
680.56	70.22
680.70	93.62
680.83	0.00
680.97	0.00
681.11	0.00
681.25	32.77
681.39	46.81
681.52	44.47
681.66	58.51
681.80	74.90
681.94	0.00
682.07	0.00
682.21	25.75
682.35	0.00
682.49	23.41
682.62	4.68
682.76	100.64
682.90	0.00
683.04	11.70
683.17	0.00
683.31	53.83
683.45	0.00
683.59	21.06
683.72	91.28
683.86	23.41
684.00	0.00
684.13	21.06
684.27	30.43
684.41	35.11
684.55	77.24
684.68	74.90
684.82	58.51
684.96	0.00
685.09	0.00
685.23	0.00
685.37	0.00
685.50	107.66
685.64	53.83
685.78	30.43
685.91	53.83
686.05	72.56
686.19	23.41
686.32	0.00
686.46	16.38
686.60	11.70
686.73	18.72
686.87	23.41
687.01	0.00
687.14	53.83
687.28	28.09
687.42	39.79
687.55	7.02
687.69	23.41
687.82	0.00
687.96	44.47
688.10	32.77
688.23	0.00
688.37	2.34
688.50	11.70
688.64	0.00
688.78	74.90
688.91	18.72
689.05	25.75
689.18	18.72
689.32	7.02
689.46	0.00
689.59	14.04
689.73	49.15
689.86	11.70
690.00	60.85
690.13	0.00
690.27	2.34
690.41	72.56
690.54	21.06
690.68	60.85
690.81	32.77
690.95	95.96
691.08	0.00
691.22	35.11
691.35	11.70
691.49	21.06
691.62	49.15
691.76	39.79
691.89	60.85
692.03	11.70
692.16	30.43
692.30	32.77
692.43	0.00
692.57	145.11
692.70	351.08
692.84	386.19
692.97	383.85
693.11	283.20
693.24	203.63
693.38	177.88
693.51	166.18
693.65	18.72
693.78	114.69
693.92	84.26
694.05	67.88
694.19	39.79
694.32	16.38
694.45	51.49
694.59	0.00
694.72	11.70
694.86	39.79
694.99	0.00
695.13	72.56
695.26	14.04
695.39	0.00
695.53	46.81
695.66	23.41
695.80	39.79
695.93	49.15
696.07	30.43
696.20	74.90
696.33	46.81
696.47	0.00
696.60	28.09
696.73	4.68
696.87	37.45
697.00	95.96
697.14	18.72
697.27	37.45
697.40	56.17
697.54	81.92
697.67	91.28
697.80	0.00
697.94	93.62
698.07	72.56
698.21	39.79
698.34	9.36
698.47	44.47
698.61	44.47
698.74	77.24
698.87	25.75
699.01	30.43
699.14	56.17
699.27	65.54
699.40	16.38
699.54	84.26
699.67	100.64
699.80	16.38
699.94	11.70
700.07	28.09
700.20	4.68
700.34	23.41
700.47	53.83
700.60	0.00
700.73	0.00
700.87	30.43
701.00	28.09
701.13	18.72
701.26	84.26
701.40	60.85
701.53	0.00
701.66	32.77
701.79	91.28
701.93	53.83
702.06	39.79
702.19	98.30
702.32	2.34
702.46	119.37
702.59	112.35
702.72	133.41
702.85	278.52
702.99	606.20
703.12	753.65
703.25	676.41
703.38	608.54
703.51	512.58
703.65	360.44
703.78	306.61
703.91	187.24
704.04	84.26
704.17	86.60
704.31	42.13
704.44	53.83
704.57	16.38
704.70	28.09
704.83	42.13
704.96	4.68
705.10	84.26
705.23	145.11
>>>>>End Processed Spectral Data<<<<<
