SpectraSuite Data File
++++++++++++++++++++++++++++++++++++
Date: Fri Oct 04 12:13:26 GMT-05:00 2013
User: price-jones
Dark Spectrum Present: No
Reference Spectrum Present: No
Number of Sampled Component Spectra: 1
Spectrometers: USB2+H05261
Integration Time (usec): 10000 (USB2+H05261)
Spectra Averaged: 1 (USB2+H05261)
Boxcar Smoothing: 0 (USB2+H05261)
Correct for Electrical Dark: No (USB2+H05261)
Strobe/Lamp Enabled: No (USB2+H05261)
Correct for Detector Non-linearity: No (USB2+H05261)
Correct for Stray Light: No (USB2+H05261)
Number of Pixels in Processed Spectrum: 2048
>>>>>Begin Processed Spectral Data<<<<<
365.73	0.00
365.92	0.00
366.12	0.00
366.32	0.00
366.52	0.00
366.72	0.00
366.91	0.00
367.11	0.00
367.31	0.00
367.51	0.00
367.70	0.00
367.90	0.00
368.10	0.00
368.30	0.00
368.49	0.00
368.69	0.00
368.89	0.00
369.09	0.00
369.28	0.00
369.48	0.00
369.68	0.00
369.87	0.00
370.07	0.00
370.27	0.00
370.47	0.00
370.66	0.00
370.86	28.09
371.06	14.04
371.25	0.00
371.45	0.00
371.65	0.00
371.84	0.00
372.04	9.36
372.24	0.00
372.44	0.00
372.63	46.81
372.83	28.09
373.03	46.81
373.22	25.75
373.42	79.58
373.62	2.34
373.81	9.36
374.01	0.00
374.21	49.15
374.40	65.54
374.60	28.09
374.79	0.00
374.99	9.36
375.19	4.68
375.38	30.43
375.58	112.35
375.78	119.37
375.97	65.54
376.17	58.51
376.37	72.56
376.56	102.98
376.76	30.43
376.95	35.11
377.15	0.00
377.35	39.79
377.54	65.54
377.74	51.49
377.93	0.00
378.13	23.41
378.33	30.43
378.52	9.36
378.72	0.00
378.91	0.00
379.11	0.00
379.31	21.06
379.50	18.72
379.70	2.34
379.89	9.36
380.09	84.26
380.28	0.00
380.48	0.00
380.68	0.00
380.87	46.81
381.07	2.34
381.26	0.00
381.46	0.00
381.65	21.06
381.85	30.43
382.04	65.54
382.24	16.38
382.43	28.09
382.63	32.77
382.83	0.00
383.02	49.15
383.22	28.09
383.41	0.00
383.61	4.68
383.80	0.00
384.00	25.75
384.19	7.02
384.39	46.81
384.58	74.90
384.78	0.00
384.97	0.00
385.17	42.13
385.36	0.00
385.56	0.00
385.75	58.51
385.95	0.00
386.14	0.00
386.34	4.68
386.53	0.00
386.72	16.38
386.92	28.09
387.11	0.00
387.31	53.83
387.50	0.00
387.70	37.45
387.89	0.00
388.09	0.00
388.28	44.47
388.48	0.00
388.67	51.49
388.86	2.34
389.06	23.41
389.25	28.09
389.45	93.62
389.64	28.09
389.84	0.00
390.03	91.28
390.22	51.49
390.42	2.34
390.61	91.28
390.81	44.47
391.00	49.15
391.19	46.81
391.39	30.43
391.58	53.83
391.78	56.17
391.97	0.00
392.16	11.70
392.36	42.13
392.55	53.83
392.75	39.79
392.94	56.17
393.13	44.47
393.33	0.00
393.52	9.36
393.71	0.00
393.91	30.43
394.10	35.11
394.29	0.00
394.49	0.00
394.68	23.41
394.88	30.43
395.07	70.22
395.26	121.71
395.46	11.70
395.65	67.88
395.84	18.72
396.04	28.09
396.23	46.81
396.42	53.83
396.62	0.00
396.81	30.43
397.00	81.92
397.19	0.00
397.39	7.02
397.58	35.11
397.77	35.11
397.97	9.36
398.16	44.47
398.35	0.00
398.55	70.22
398.74	102.98
398.93	93.62
399.12	9.36
399.32	0.00
399.51	65.54
399.70	0.00
399.90	0.00
400.09	39.79
400.28	0.00
400.47	7.02
400.67	56.17
400.86	4.68
401.05	72.56
401.24	0.00
401.44	39.79
401.63	46.81
401.82	37.45
402.01	32.77
402.21	30.43
402.40	11.70
402.59	49.15
402.78	77.24
402.97	42.13
403.17	0.00
403.36	0.00
403.55	0.00
403.74	0.00
403.93	25.75
404.13	30.43
404.32	0.00
404.51	28.09
404.70	4.68
404.89	32.77
405.09	2.34
405.28	79.58
405.47	56.17
405.66	16.38
405.85	32.77
406.05	0.00
406.24	0.00
406.43	0.00
406.62	0.00
406.81	44.47
407.00	44.47
407.20	58.51
407.39	0.00
407.58	37.45
407.77	0.00
407.96	0.00
408.15	16.38
408.34	14.04
408.54	63.19
408.73	39.79
408.92	7.02
409.11	18.72
409.30	39.79
409.49	11.70
409.68	0.00
409.87	28.09
410.07	28.09
410.26	100.64
410.45	102.98
410.64	0.00
410.83	0.00
411.02	53.83
411.21	0.00
411.40	16.38
411.59	63.19
411.78	21.06
411.98	21.06
412.17	11.70
412.36	16.38
412.55	56.17
412.74	49.15
412.93	37.45
413.12	23.41
413.31	28.09
413.50	16.38
413.69	0.00
413.88	4.68
414.07	0.00
414.26	44.47
414.45	49.15
414.64	30.43
414.83	56.17
415.02	11.70
415.22	56.17
415.41	28.09
415.60	79.58
415.79	9.36
415.98	81.92
416.17	18.72
416.36	53.83
416.55	18.72
416.74	63.19
416.93	0.00
417.12	0.00
417.31	4.68
417.50	65.54
417.69	46.81
417.88	49.15
418.07	56.17
418.26	23.41
418.45	37.45
418.64	0.00
418.83	25.75
419.02	63.19
419.21	77.24
419.39	49.15
419.58	74.90
419.77	21.06
419.96	49.15
420.15	0.00
420.34	51.49
420.53	28.09
420.72	0.00
420.91	16.38
421.10	14.04
421.29	4.68
421.48	23.41
421.67	25.75
421.86	77.24
422.05	44.47
422.24	21.06
422.43	0.00
422.61	0.00
422.80	67.88
422.99	46.81
423.18	11.70
423.37	37.45
423.56	37.45
423.75	39.79
423.94	0.00
424.13	25.75
424.32	63.19
424.50	23.41
424.69	23.41
424.88	18.72
425.07	0.00
425.26	0.00
425.45	0.00
425.64	16.38
425.83	30.43
426.01	14.04
426.20	42.13
426.39	30.43
426.58	2.34
426.77	25.75
426.96	0.00
427.15	18.72
427.33	28.09
427.52	16.38
427.71	56.17
427.90	14.04
428.09	49.15
428.28	81.92
428.46	42.13
428.65	86.60
428.84	21.06
429.03	84.26
429.22	23.41
429.40	14.04
429.59	42.13
429.78	60.85
429.97	4.68
430.16	0.00
430.34	21.06
430.53	49.15
430.72	7.02
430.91	0.00
431.10	84.26
431.28	46.81
431.47	0.00
431.66	4.68
431.85	0.00
432.03	11.70
432.22	53.83
432.41	32.77
432.60	16.38
432.79	0.00
432.97	0.00
433.16	23.41
433.35	72.56
433.54	67.88
433.72	32.77
433.91	93.62
434.10	30.43
434.28	0.00
434.47	25.75
434.66	35.11
434.85	4.68
435.03	65.54
435.22	21.06
435.41	0.00
435.59	49.15
435.78	16.38
435.97	37.45
436.16	58.51
436.34	21.06
436.53	0.00
436.72	28.09
436.90	60.85
437.09	32.77
437.28	51.49
437.46	30.43
437.65	46.81
437.84	7.02
438.02	44.47
438.21	42.13
438.40	70.22
438.58	32.77
438.77	23.41
438.96	86.60
439.14	2.34
439.33	0.00
439.52	16.38
439.70	16.38
439.89	56.17
440.08	0.00
440.26	65.54
440.45	49.15
440.63	58.51
440.82	0.00
441.01	63.19
441.19	25.75
441.38	21.06
441.57	30.43
441.75	11.70
441.94	4.68
442.12	72.56
442.31	117.03
442.50	0.00
442.68	14.04
442.87	4.68
443.05	11.70
443.24	72.56
443.43	44.47
443.61	56.17
443.80	74.90
443.98	11.70
444.17	72.56
444.35	11.70
444.54	60.85
444.73	79.58
444.91	58.51
445.10	0.00
445.28	88.94
445.47	51.49
445.65	28.09
445.84	0.00
446.02	11.70
446.21	91.28
446.39	63.19
446.58	30.43
446.77	35.11
446.95	9.36
447.14	74.90
447.32	18.72
447.51	0.00
447.69	11.70
447.88	53.83
448.06	124.05
448.25	0.00
448.43	0.00
448.62	74.90
448.80	9.36
448.99	0.00
449.17	4.68
449.36	77.24
449.54	63.19
449.73	0.00
449.91	0.00
450.10	25.75
450.28	28.09
450.46	0.00
450.65	30.43
450.83	11.70
451.02	53.83
451.20	39.79
451.39	11.70
451.57	0.00
451.76	0.00
451.94	70.22
452.13	79.58
452.31	46.81
452.49	51.49
452.68	44.47
452.86	0.00
453.05	0.00
453.23	0.00
453.42	25.75
453.60	25.75
453.78	32.77
453.97	0.00
454.15	0.00
454.34	18.72
454.52	70.22
454.70	0.00
454.89	49.15
455.07	51.49
455.26	105.32
455.44	37.45
455.62	51.49
455.81	46.81
455.99	0.00
456.17	81.92
456.36	32.77
456.54	9.36
456.73	11.70
456.91	25.75
457.09	51.49
457.28	0.00
457.46	42.13
457.64	25.75
457.83	37.45
458.01	131.07
458.19	51.49
458.38	42.13
458.56	9.36
458.74	4.68
458.93	84.26
459.11	56.17
459.29	81.92
459.48	0.00
459.66	0.00
459.84	42.13
460.03	58.51
460.21	39.79
460.39	126.39
460.57	32.77
460.76	35.11
460.94	14.04
461.12	11.70
461.31	30.43
461.49	0.00
461.67	46.81
461.85	79.58
462.04	49.15
462.22	86.60
462.40	0.00
462.59	0.00
462.77	70.22
462.95	39.79
463.13	86.60
463.32	30.43
463.50	35.11
463.68	42.13
463.86	86.60
464.05	67.88
464.23	37.45
464.41	42.13
464.59	0.00
464.78	28.09
464.96	0.00
465.14	16.38
465.32	9.36
465.50	91.28
465.69	23.41
465.87	0.00
466.05	49.15
466.23	65.54
466.41	14.04
466.60	11.70
466.78	60.85
466.96	14.04
467.14	0.00
467.32	18.72
467.51	124.05
467.69	102.98
467.87	88.94
468.05	44.47
468.23	74.90
468.41	81.92
468.60	28.09
468.78	95.96
468.96	35.11
469.14	0.00
469.32	9.36
469.50	2.34
469.69	23.41
469.87	53.83
470.05	81.92
470.23	121.71
470.41	42.13
470.59	39.79
470.77	60.85
470.95	79.58
471.14	58.51
471.32	0.00
471.50	14.04
471.68	16.38
471.86	60.85
472.04	74.90
472.22	0.00
472.40	0.00
472.58	44.47
472.77	65.54
472.95	23.41
473.13	0.00
473.31	42.13
473.49	18.72
473.67	37.45
473.85	63.19
474.03	95.96
474.21	49.15
474.39	67.88
474.57	70.22
474.75	23.41
474.93	18.72
475.12	88.94
475.30	28.09
475.48	65.54
475.66	14.04
475.84	0.00
476.02	53.83
476.20	35.11
476.38	0.00
476.56	46.81
476.74	81.92
476.92	110.01
477.10	56.17
477.28	28.09
477.46	7.02
477.64	0.00
477.82	14.04
478.00	95.96
478.18	4.68
478.36	37.45
478.54	23.41
478.72	39.79
478.90	102.98
479.08	37.45
479.26	9.36
479.44	84.26
479.62	7.02
479.80	37.45
479.98	46.81
480.16	30.43
480.34	32.77
480.52	21.06
480.70	0.00
480.88	28.09
481.06	114.69
481.24	77.24
481.41	140.43
481.59	18.72
481.77	16.38
481.95	53.83
482.13	0.00
482.31	79.58
482.49	72.56
482.67	14.04
482.85	35.11
483.03	0.00
483.21	65.54
483.39	37.45
483.57	9.36
483.74	9.36
483.92	25.75
484.10	11.70
484.28	0.00
484.46	91.28
484.64	23.41
484.82	53.83
485.00	16.38
485.18	56.17
485.35	7.02
485.53	14.04
485.71	105.32
485.89	102.98
486.07	21.06
486.25	42.13
486.43	53.83
486.61	42.13
486.78	21.06
486.96	14.04
487.14	2.34
487.32	0.00
487.50	65.54
487.68	49.15
487.85	0.00
488.03	60.85
488.21	9.36
488.39	0.00
488.57	121.71
488.75	56.17
488.92	30.43
489.10	30.43
489.28	53.83
489.46	77.24
489.64	0.00
489.81	0.00
489.99	18.72
490.17	0.00
490.35	65.54
490.53	49.15
490.70	46.81
490.88	35.11
491.06	23.41
491.24	28.09
491.41	0.00
491.59	0.00
491.77	100.64
491.95	0.00
492.13	0.00
492.30	46.81
492.48	49.15
492.66	21.06
492.84	23.41
493.01	0.00
493.19	0.00
493.37	86.60
493.54	9.36
493.72	49.15
493.90	49.15
494.08	53.83
494.25	9.36
494.43	0.00
494.61	35.11
494.79	0.00
494.96	44.47
495.14	56.17
495.32	9.36
495.49	0.00
495.67	74.90
495.85	88.94
496.02	0.00
496.20	65.54
496.38	39.79
496.55	39.79
496.73	16.38
496.91	128.73
497.09	0.00
497.26	35.11
497.44	46.81
497.62	53.83
497.79	74.90
497.97	4.68
498.14	39.79
498.32	2.34
498.50	0.00
498.67	21.06
498.85	79.58
499.03	16.38
499.20	88.94
499.38	65.54
499.56	39.79
499.73	60.85
499.91	18.72
500.08	70.22
500.26	30.43
500.44	88.94
500.61	32.77
500.79	53.83
500.97	28.09
501.14	0.00
501.32	37.45
501.49	37.45
501.67	46.81
501.84	7.02
502.02	0.00
502.20	28.09
502.37	84.26
502.55	44.47
502.72	74.90
502.90	37.45
503.07	0.00
503.25	0.00
503.43	25.75
503.60	37.45
503.78	114.69
503.95	42.13
504.13	91.28
504.30	28.09
504.48	91.28
504.65	28.09
504.83	16.38
505.01	4.68
505.18	0.00
505.36	105.32
505.53	0.00
505.71	28.09
505.88	0.00
506.06	9.36
506.23	30.43
506.41	23.41
506.58	49.15
506.76	65.54
506.93	44.47
507.11	14.04
507.28	53.83
507.46	0.00
507.63	7.02
507.81	0.00
507.98	30.43
508.16	0.00
508.33	93.62
508.50	53.83
508.68	18.72
508.85	63.19
509.03	49.15
509.20	49.15
509.38	37.45
509.55	98.30
509.73	35.11
509.90	117.03
510.08	84.26
510.25	9.36
510.42	7.02
510.60	18.72
510.77	79.58
510.95	63.19
511.12	72.56
511.30	46.81
511.47	98.30
511.64	65.54
511.82	44.47
511.99	65.54
512.17	4.68
512.34	0.00
512.51	28.09
512.69	46.81
512.86	9.36
513.04	2.34
513.21	72.56
513.38	51.49
513.56	72.56
513.73	0.00
513.90	0.00
514.08	14.04
514.25	23.41
514.43	0.00
514.60	4.68
514.77	0.00
514.95	79.58
515.12	46.81
515.29	74.90
515.47	7.02
515.64	0.00
515.81	88.94
515.99	32.77
516.16	65.54
516.33	58.51
516.51	102.98
516.68	65.54
516.85	0.00
517.03	70.22
517.20	56.17
517.37	28.09
517.54	44.47
517.72	0.00
517.89	28.09
518.06	49.15
518.24	18.72
518.41	105.32
518.58	60.85
518.75	77.24
518.93	112.35
519.10	60.85
519.27	135.75
519.45	9.36
519.62	28.09
519.79	37.45
519.96	42.13
520.14	93.62
520.31	30.43
520.48	23.41
520.65	0.00
520.83	0.00
521.00	105.32
521.17	135.75
521.34	44.47
521.52	4.68
521.69	58.51
521.86	51.49
522.03	70.22
522.20	16.38
522.38	44.47
522.55	0.00
522.72	86.60
522.89	32.77
523.07	25.75
523.24	102.98
523.41	119.37
523.58	0.00
523.75	86.60
523.92	77.24
524.10	63.19
524.27	84.26
524.44	98.30
524.61	44.47
524.78	39.79
524.96	23.41
525.13	0.00
525.30	35.11
525.47	44.47
525.64	23.41
525.81	112.35
525.98	65.54
526.16	60.85
526.33	65.54
526.50	30.43
526.67	67.88
526.84	51.49
527.01	119.37
527.18	58.51
527.36	65.54
527.53	11.70
527.70	16.38
527.87	0.00
528.04	44.47
528.21	32.77
528.38	25.75
528.55	23.41
528.72	18.72
528.89	9.36
529.07	37.45
529.24	32.77
529.41	39.79
529.58	0.00
529.75	9.36
529.92	0.00
530.09	0.00
530.26	53.83
530.43	16.38
530.60	65.54
530.77	28.09
530.94	119.37
531.11	67.88
531.28	4.68
531.46	46.81
531.63	49.15
531.80	49.15
531.97	0.00
532.14	39.79
532.31	23.41
532.48	42.13
532.65	9.36
532.82	53.83
532.99	23.41
533.16	0.00
533.33	58.51
533.50	65.54
533.67	46.81
533.84	58.51
534.01	14.04
534.18	30.43
534.35	35.11
534.52	42.13
534.69	51.49
534.86	30.43
535.03	65.54
535.20	63.19
535.37	11.70
535.54	9.36
535.71	16.38
535.88	0.00
536.05	58.51
536.22	44.47
536.38	35.11
536.55	28.09
536.72	126.39
536.89	0.00
537.06	72.56
537.23	39.79
537.40	70.22
537.57	37.45
537.74	25.75
537.91	11.70
538.08	42.13
538.25	60.85
538.42	72.56
538.59	35.11
538.75	72.56
538.92	0.00
539.09	14.04
539.26	0.00
539.43	18.72
539.60	14.04
539.77	4.68
539.94	0.00
540.11	46.81
540.28	51.49
540.44	21.06
540.61	21.06
540.78	30.43
540.95	46.81
541.12	74.90
541.29	0.00
541.46	86.60
541.62	102.98
541.79	0.00
541.96	84.26
542.13	49.15
542.30	30.43
542.47	93.62
542.63	0.00
542.80	105.32
542.97	37.45
543.14	46.81
543.31	21.06
543.48	21.06
543.64	0.00
543.81	49.15
543.98	32.77
544.15	16.38
544.32	65.54
544.48	0.00
544.65	32.77
544.82	28.09
544.99	124.05
545.16	58.51
545.32	77.24
545.49	28.09
545.66	0.00
545.83	35.11
546.00	7.02
546.16	72.56
546.33	49.15
546.50	53.83
546.67	72.56
546.83	16.38
547.00	51.49
547.17	0.00
547.34	91.28
547.50	51.49
547.67	14.04
547.84	18.72
548.00	0.00
548.17	0.00
548.34	16.38
548.51	84.26
548.67	11.70
548.84	65.54
549.01	0.00
549.18	42.13
549.34	46.81
549.51	37.45
549.68	124.05
549.84	93.62
550.01	49.15
550.18	60.85
550.34	42.13
550.51	53.83
550.68	72.56
550.84	53.83
551.01	44.47
551.18	0.00
551.34	0.00
551.51	58.51
551.68	98.30
551.84	37.45
552.01	0.00
552.18	35.11
552.34	32.77
552.51	86.60
552.68	30.43
552.84	0.00
553.01	60.85
553.18	0.00
553.34	14.04
553.51	86.60
553.67	30.43
553.84	2.34
554.01	56.17
554.17	35.11
554.34	0.00
554.51	0.00
554.67	58.51
554.84	0.00
555.00	63.19
555.17	51.49
555.33	110.01
555.50	67.88
555.67	112.35
555.83	100.64
556.00	95.96
556.16	72.56
556.33	35.11
556.50	0.00
556.66	60.85
556.83	102.98
556.99	39.79
557.16	46.81
557.32	44.47
557.49	124.05
557.65	16.38
557.82	58.51
557.98	18.72
558.15	67.88
558.32	149.79
558.48	65.54
558.65	18.72
558.81	56.17
558.98	44.47
559.14	56.17
559.31	21.06
559.47	56.17
559.64	16.38
559.80	16.38
559.97	81.92
560.13	63.19
560.30	14.04
560.46	14.04
560.63	65.54
560.79	46.81
560.96	30.43
561.12	46.81
561.29	16.38
561.45	35.11
561.61	46.81
561.78	79.58
561.94	46.81
562.11	58.51
562.27	63.19
562.44	65.54
562.60	23.41
562.77	42.13
562.93	114.69
563.10	91.28
563.26	39.79
563.42	60.85
563.59	0.00
563.75	46.81
563.92	0.00
564.08	14.04
564.24	32.77
564.41	88.94
564.57	21.06
564.74	11.70
564.90	0.00
565.07	56.17
565.23	110.01
565.39	72.56
565.56	51.49
565.72	0.00
565.88	70.22
566.05	65.54
566.21	35.11
566.38	4.68
566.54	30.43
566.70	53.83
566.87	11.70
567.03	49.15
567.19	14.04
567.36	53.83
567.52	4.68
567.68	84.26
567.85	32.77
568.01	0.00
568.17	30.43
568.34	21.06
568.50	42.13
568.66	0.00
568.83	60.85
568.99	86.60
569.15	46.81
569.32	0.00
569.48	77.24
569.64	25.75
569.81	39.79
569.97	9.36
570.13	60.85
570.30	107.66
570.46	0.00
570.62	4.68
570.78	67.88
570.95	30.43
571.11	37.45
571.27	35.11
571.43	39.79
571.60	74.90
571.76	88.94
571.92	72.56
572.09	37.45
572.25	70.22
572.41	30.43
572.57	84.26
572.74	18.72
572.90	39.79
573.06	0.00
573.22	46.81
573.38	4.68
573.55	51.49
573.71	11.70
573.87	39.79
574.03	88.94
574.20	0.00
574.36	2.34
574.52	9.36
574.68	30.43
574.84	84.26
575.01	21.06
575.17	128.73
575.33	0.00
575.49	7.02
575.65	0.00
575.82	39.79
575.98	25.75
576.14	77.24
576.30	84.26
576.46	21.06
576.62	37.45
576.79	72.56
576.95	74.90
577.11	58.51
577.27	0.00
577.43	32.77
577.59	42.13
577.75	0.00
577.92	46.81
578.08	84.26
578.24	65.54
578.40	30.43
578.56	65.54
578.72	74.90
578.88	58.51
579.04	30.43
579.21	0.00
579.37	28.09
579.53	58.51
579.69	28.09
579.85	35.11
580.01	53.83
580.17	49.15
580.33	53.83
580.49	88.94
580.65	42.13
580.82	4.68
580.98	86.60
581.14	58.51
581.30	16.38
581.46	74.90
581.62	53.83
581.78	42.13
581.94	32.77
582.10	30.43
582.26	16.38
582.42	0.00
582.58	49.15
582.74	53.83
582.90	0.00
583.06	7.02
583.22	42.13
583.38	98.30
583.54	63.19
583.70	105.32
583.86	56.17
584.02	11.70
584.18	37.45
584.34	9.36
584.50	0.00
584.66	184.90
584.82	140.43
584.98	138.09
585.14	98.30
585.30	107.66
585.46	91.28
585.62	23.41
585.78	86.60
585.94	30.43
586.10	4.68
586.26	9.36
586.42	0.00
586.58	11.70
586.74	21.06
586.90	35.11
587.06	18.72
587.22	21.06
587.38	81.92
587.54	21.06
587.70	110.01
587.86	81.92
588.02	98.30
588.18	0.00
588.34	79.58
588.49	0.00
588.65	42.13
588.81	4.68
588.97	16.38
589.13	9.36
589.29	14.04
589.45	14.04
589.61	53.83
589.77	65.54
589.93	16.38
590.08	32.77
590.24	0.00
590.40	49.15
590.56	39.79
590.72	28.09
590.88	23.41
591.04	79.58
591.20	25.75
591.35	51.49
591.51	93.62
591.67	39.79
591.83	9.36
591.99	23.41
592.15	30.43
592.31	100.64
592.46	46.81
592.62	0.00
592.78	23.41
592.94	60.85
593.10	56.17
593.26	88.94
593.41	0.00
593.57	84.26
593.73	2.34
593.89	58.51
594.05	84.26
594.20	0.00
594.36	0.00
594.52	65.54
594.68	58.51
594.84	58.51
594.99	53.83
595.15	0.00
595.31	46.81
595.47	4.68
595.62	42.13
595.78	39.79
595.94	74.90
596.10	35.11
596.25	39.79
596.41	0.00
596.57	93.62
596.73	74.90
596.88	70.22
597.04	102.98
597.20	74.90
597.36	11.70
597.51	58.51
597.67	58.51
597.83	28.09
597.99	11.70
598.14	0.00
598.30	44.47
598.46	67.88
598.61	0.00
598.77	16.38
598.93	65.54
599.09	117.03
599.24	58.51
599.40	28.09
599.56	49.15
599.71	81.92
599.87	0.00
600.03	0.00
600.18	37.45
600.34	37.45
600.50	72.56
600.65	4.68
600.81	0.00
600.97	7.02
601.12	16.38
601.28	32.77
601.44	42.13
601.59	0.00
601.75	65.54
601.91	25.75
602.06	37.45
602.22	63.19
602.37	56.17
602.53	37.45
602.69	11.70
602.84	32.77
603.00	74.90
603.16	32.77
603.31	35.11
603.47	49.15
603.62	77.24
603.78	49.15
603.94	39.79
604.09	63.19
604.25	25.75
604.40	25.75
604.56	67.88
604.71	25.75
604.87	18.72
605.03	42.13
605.18	16.38
605.34	49.15
605.49	23.41
605.65	39.79
605.80	30.43
605.96	70.22
606.12	42.13
606.27	37.45
606.43	0.00
606.58	0.00
606.74	4.68
606.89	0.00
607.05	51.49
607.20	0.00
607.36	14.04
607.51	53.83
607.67	58.51
607.82	39.79
607.98	44.47
608.13	63.19
608.29	30.43
608.44	0.00
608.60	67.88
608.75	16.38
608.91	65.54
609.06	11.70
609.22	126.39
609.37	30.43
609.53	28.09
609.68	86.60
609.84	51.49
609.99	9.36
610.15	56.17
610.30	28.09
610.46	30.43
610.61	49.15
610.76	58.51
610.92	56.17
611.07	53.83
611.23	65.54
611.38	25.75
611.54	21.06
611.69	0.00
611.84	0.00
612.00	74.90
612.15	14.04
612.31	0.00
612.46	0.00
612.62	49.15
612.77	35.11
612.92	65.54
613.08	98.30
613.23	4.68
613.39	11.70
613.54	16.38
613.69	23.41
613.85	77.24
614.00	133.41
614.15	21.06
614.31	53.83
614.46	28.09
614.62	21.06
614.77	107.66
614.92	0.00
615.08	32.77
615.23	16.38
615.38	72.56
615.54	84.26
615.69	16.38
615.84	25.75
616.00	4.68
616.15	77.24
616.30	11.70
616.46	72.56
616.61	74.90
616.76	0.00
616.92	14.04
617.07	30.43
617.22	39.79
617.37	32.77
617.53	32.77
617.68	23.41
617.83	7.02
617.99	58.51
618.14	95.96
618.29	9.36
618.45	93.62
618.60	32.77
618.75	25.75
618.90	37.45
619.06	11.70
619.21	28.09
619.36	72.56
619.51	18.72
619.67	28.09
619.82	39.79
619.97	42.13
620.12	77.24
620.28	67.88
620.43	91.28
620.58	4.68
620.73	37.45
620.89	79.58
621.04	77.24
621.19	0.00
621.34	60.85
621.49	14.04
621.65	74.90
621.80	21.06
621.95	0.00
622.10	32.77
622.25	2.34
622.41	0.00
622.56	23.41
622.71	58.51
622.86	11.70
623.01	0.00
623.16	0.00
623.32	51.49
623.47	0.00
623.62	28.09
623.77	0.00
623.92	63.19
624.07	86.60
624.23	39.79
624.38	72.56
624.53	72.56
624.68	0.00
624.83	102.98
624.98	23.41
625.13	11.70
625.29	4.68
625.44	0.00
625.59	79.58
625.74	53.83
625.89	30.43
626.04	58.51
626.19	53.83
626.34	16.38
626.49	0.00
626.65	46.81
626.80	0.00
626.95	18.72
627.10	84.26
627.25	37.45
627.40	25.75
627.55	49.15
627.70	4.68
627.85	88.94
628.00	72.56
628.15	46.81
628.30	46.81
628.45	11.70
628.60	30.43
628.76	0.00
628.91	65.54
629.06	28.09
629.21	70.22
629.36	74.90
629.51	23.41
629.66	16.38
629.81	39.79
629.96	88.94
630.11	30.43
630.26	60.85
630.41	7.02
630.56	37.45
630.71	16.38
630.86	39.79
631.01	0.00
631.16	0.00
631.31	0.00
631.46	39.79
631.61	9.36
631.76	39.79
631.91	65.54
632.06	7.02
632.21	37.45
632.36	2.34
632.51	9.36
632.66	0.00
632.81	58.51
632.96	60.85
633.10	42.13
633.25	56.17
633.40	81.92
633.55	4.68
633.70	0.00
633.85	0.00
634.00	23.41
634.15	51.49
634.30	9.36
634.45	32.77
634.60	0.00
634.75	16.38
634.90	0.00
635.05	58.51
635.19	0.00
635.34	67.88
635.49	114.69
635.64	88.94
635.79	46.81
635.94	18.72
636.09	7.02
636.24	35.11
636.39	56.17
636.53	51.49
636.68	14.04
636.83	86.60
636.98	0.00
637.13	49.15
637.28	0.00
637.43	18.72
637.57	46.81
637.72	44.47
637.87	60.85
638.02	4.68
638.17	81.92
638.32	39.79
638.46	42.13
638.61	30.43
638.76	39.79
638.91	0.00
639.06	42.13
639.20	72.56
639.35	53.83
639.50	79.58
639.65	46.81
639.80	7.02
639.94	63.19
640.09	100.64
640.24	30.43
640.39	2.34
640.54	2.34
640.68	98.30
640.83	112.35
640.98	42.13
641.13	102.98
641.27	32.77
641.42	44.47
641.57	39.79
641.72	14.04
641.86	0.00
642.01	35.11
642.16	60.85
642.31	30.43
642.45	30.43
642.60	0.00
642.75	42.13
642.90	42.13
643.04	51.49
643.19	25.75
643.34	93.62
643.48	4.68
643.63	2.34
643.78	11.70
643.93	21.06
644.07	18.72
644.22	23.41
644.37	35.11
644.51	0.00
644.66	42.13
644.81	4.68
644.95	86.60
645.10	0.00
645.25	28.09
645.39	11.70
645.54	0.00
645.69	2.34
645.83	56.17
645.98	7.02
646.13	35.11
646.27	58.51
646.42	14.04
646.57	0.00
646.71	4.68
646.86	9.36
647.00	46.81
647.15	0.00
647.30	39.79
647.44	0.00
647.59	42.13
647.74	46.81
647.88	74.90
648.03	42.13
648.17	0.00
648.32	72.56
648.47	28.09
648.61	16.38
648.76	28.09
648.90	0.00
649.05	25.75
649.20	14.04
649.34	44.47
649.49	0.00
649.63	49.15
649.78	72.56
649.92	93.62
650.07	0.00
650.21	25.75
650.36	37.45
650.51	84.26
650.65	110.01
650.80	117.03
650.94	0.00
651.09	72.56
651.23	0.00
651.38	28.09
651.52	23.41
651.67	42.13
651.81	35.11
651.96	88.94
652.10	49.15
652.25	107.66
652.39	7.02
652.54	0.00
652.68	28.09
652.83	53.83
652.97	16.38
653.12	58.51
653.26	0.00
653.41	88.94
653.55	23.41
653.70	51.49
653.84	42.13
653.99	77.24
654.13	7.02
654.27	49.15
654.42	7.02
654.56	18.72
654.71	28.09
654.85	0.00
655.00	4.68
655.14	81.92
655.29	0.00
655.43	11.70
655.57	0.00
655.72	21.06
655.86	18.72
656.01	51.49
656.15	56.17
656.30	25.75
656.44	51.49
656.58	21.06
656.73	0.00
656.87	11.70
657.01	4.68
657.16	84.26
657.30	0.00
657.45	4.68
657.59	56.17
657.73	21.06
657.88	46.81
658.02	35.11
658.16	72.56
658.31	25.75
658.45	37.45
658.60	0.00
658.74	23.41
658.88	14.04
659.03	93.62
659.17	49.15
659.31	0.00
659.46	44.47
659.60	32.77
659.74	49.15
659.89	0.00
660.03	0.00
660.17	56.17
660.32	67.88
660.46	0.00
660.60	39.79
660.74	0.00
660.89	14.04
661.03	0.00
661.17	0.00
661.32	2.34
661.46	142.77
661.60	0.00
661.74	74.90
661.89	72.56
662.03	42.13
662.17	0.00
662.31	7.02
662.46	23.41
662.60	72.56
662.74	95.96
662.88	72.56
663.03	107.66
663.17	105.32
663.31	30.43
663.45	39.79
663.60	88.94
663.74	23.41
663.88	37.45
664.02	0.00
664.17	0.00
664.31	9.36
664.45	0.00
664.59	28.09
664.73	37.45
664.88	0.00
665.02	56.17
665.16	0.00
665.30	0.00
665.44	46.81
665.59	58.51
665.73	51.49
665.87	119.37
666.01	102.98
666.15	46.81
666.29	46.81
666.44	53.83
666.58	44.47
666.72	32.77
666.86	58.51
667.00	0.00
667.14	56.17
667.28	30.43
667.43	0.00
667.57	70.22
667.71	56.17
667.85	35.11
667.99	39.79
668.13	100.64
668.27	77.24
668.41	30.43
668.56	21.06
668.70	0.00
668.84	58.51
668.98	88.94
669.12	65.54
669.26	30.43
669.40	42.13
669.54	9.36
669.68	30.43
669.82	46.81
669.96	11.70
670.10	0.00
670.25	56.17
670.39	53.83
670.53	60.85
670.67	28.09
670.81	16.38
670.95	25.75
671.09	102.98
671.23	0.00
671.37	32.77
671.51	81.92
671.65	107.66
671.79	14.04
671.93	23.41
672.07	53.83
672.21	21.06
672.35	4.68
672.49	14.04
672.63	16.38
672.77	53.83
672.91	0.00
673.05	51.49
673.19	0.00
673.33	46.81
673.47	42.13
673.61	9.36
673.75	11.70
673.89	23.41
674.03	65.54
674.17	0.00
674.31	37.45
674.45	60.85
674.59	0.00
674.73	0.00
674.87	56.17
675.01	39.79
675.15	18.72
675.29	32.77
675.43	35.11
675.56	117.03
675.70	39.79
675.84	39.79
675.98	23.41
676.12	91.28
676.26	49.15
676.40	37.45
676.54	35.11
676.68	18.72
676.82	107.66
676.96	53.83
677.10	0.00
677.23	0.00
677.37	60.85
677.51	30.43
677.65	0.00
677.79	14.04
677.93	114.69
678.07	30.43
678.21	0.00
678.34	0.00
678.48	7.02
678.62	100.64
678.76	93.62
678.90	81.92
679.04	0.00
679.18	42.13
679.31	0.00
679.45	25.75
679.59	25.75
679.73	25.75
679.87	74.90
680.00	81.92
680.14	14.04
680.28	79.58
680.42	58.51
680.56	21.06
680.70	9.36
680.83	2.34
680.97	65.54
681.11	25.75
681.25	91.28
681.39	74.90
681.52	21.06
681.66	21.06
681.80	100.64
681.94	63.19
682.07	0.00
682.21	79.58
682.35	51.49
682.49	70.22
682.62	51.49
682.76	32.77
682.90	30.43
683.04	0.00
683.17	46.81
683.31	91.28
683.45	11.70
683.59	0.00
683.72	32.77
683.86	21.06
684.00	0.00
684.13	0.00
684.27	37.45
684.41	11.70
684.55	0.00
684.68	0.00
684.82	0.00
684.96	2.34
685.09	46.81
685.23	63.19
685.37	0.00
685.50	0.00
685.64	4.68
685.78	42.13
685.91	18.72
686.05	37.45
686.19	51.49
686.32	0.00
686.46	51.49
686.60	4.68
686.73	100.64
686.87	42.13
687.01	4.68
687.14	35.11
687.28	81.92
687.42	11.70
687.55	30.43
687.69	98.30
687.82	53.83
687.96	53.83
688.10	39.79
688.23	0.00
688.37	21.06
688.50	25.75
688.64	49.15
688.78	7.02
688.91	0.00
689.05	32.77
689.18	4.68
689.32	70.22
689.46	58.51
689.59	70.22
689.73	0.00
689.86	0.00
690.00	0.00
690.13	30.43
690.27	16.38
690.41	9.36
690.54	56.17
690.68	46.81
690.81	67.88
690.95	51.49
691.08	32.77
691.22	0.00
691.35	0.00
691.49	98.30
691.62	84.26
691.76	42.13
691.89	9.36
692.03	56.17
692.16	0.00
692.30	39.79
692.43	11.70
692.57	56.17
692.70	56.17
692.84	53.83
692.97	53.83
693.11	46.81
693.24	32.77
693.38	18.72
693.51	149.79
693.65	9.36
693.78	84.26
693.92	0.00
694.05	7.02
694.19	7.02
694.32	60.85
694.45	0.00
694.59	14.04
694.72	35.11
694.86	63.19
694.99	65.54
695.13	65.54
695.26	35.11
695.39	32.77
695.53	9.36
695.66	74.90
695.80	0.00
695.93	72.56
696.07	23.41
696.20	0.00
696.33	35.11
696.47	72.56
696.60	7.02
696.73	0.00
696.87	46.81
697.00	79.58
697.14	0.00
697.27	0.00
697.40	9.36
697.54	65.54
697.67	39.79
697.80	23.41
697.94	86.60
698.07	37.45
698.21	16.38
698.34	0.00
698.47	131.07
698.61	0.00
698.74	30.43
698.87	21.06
699.01	21.06
699.14	58.51
699.27	37.45
699.40	2.34
699.54	0.00
699.67	49.15
699.80	9.36
699.94	46.81
700.07	63.19
700.20	0.00
700.34	0.00
700.47	14.04
700.60	0.00
700.73	42.13
700.87	0.00
701.00	0.00
701.13	53.83
701.26	0.00
701.40	30.43
701.53	42.13
701.66	0.00
701.79	0.00
701.93	39.79
702.06	49.15
702.19	28.09
702.32	28.09
702.46	39.79
702.59	0.00
702.72	28.09
702.85	0.00
702.99	11.70
703.12	25.75
703.25	154.48
703.38	81.92
703.51	32.77
703.65	56.17
703.78	88.94
703.91	86.60
704.04	0.00
704.17	0.00
704.31	107.66
704.44	70.22
704.57	138.09
704.70	21.06
704.83	16.38
704.96	9.36
705.10	0.00
705.23	95.96
>>>>>End Processed Spectral Data<<<<<
