SpectraSuite Data File
++++++++++++++++++++++++++++++++++++
Date: Fri Oct 04 12:13:45 GMT-05:00 2013
User: price-jones
Dark Spectrum Present: No
Reference Spectrum Present: No
Number of Sampled Component Spectra: 1
Spectrometers: USB2+H05261
Integration Time (usec): 10000 (USB2+H05261)
Spectra Averaged: 1 (USB2+H05261)
Boxcar Smoothing: 0 (USB2+H05261)
Correct for Electrical Dark: No (USB2+H05261)
Strobe/Lamp Enabled: No (USB2+H05261)
Correct for Detector Non-linearity: No (USB2+H05261)
Correct for Stray Light: No (USB2+H05261)
Number of Pixels in Processed Spectrum: 2048
>>>>>Begin Processed Spectral Data<<<<<
365.73	79.58
365.92	79.58
366.12	79.58
366.32	0.00
366.52	0.00
366.72	0.00
366.91	0.00
367.11	0.00
367.31	0.00
367.51	0.00
367.70	0.00
367.90	0.00
368.10	0.00
368.30	0.00
368.49	0.00
368.69	0.00
368.89	0.00
369.09	0.00
369.28	0.00
369.48	0.00
369.68	0.00
369.87	0.00
370.07	0.00
370.27	0.00
370.47	0.00
370.66	0.00
370.86	0.00
371.06	0.00
371.25	0.00
371.45	0.00
371.65	0.00
371.84	46.81
372.04	0.00
372.24	0.00
372.44	42.13
372.63	0.00
372.83	72.56
373.03	9.36
373.22	0.00
373.42	9.36
373.62	32.77
373.81	0.00
374.01	16.38
374.21	107.66
374.40	9.36
374.60	60.85
374.79	18.72
374.99	63.19
375.19	0.00
375.38	60.85
375.58	0.00
375.78	88.94
375.97	7.02
376.17	102.98
376.37	32.77
376.56	42.13
376.76	46.81
376.95	32.77
377.15	0.00
377.35	30.43
377.54	0.00
377.74	4.68
377.93	16.38
378.13	98.30
378.33	21.06
378.52	21.06
378.72	0.00
378.91	0.00
379.11	88.94
379.31	42.13
379.50	39.79
379.70	0.00
379.89	0.00
380.09	0.00
380.28	46.81
380.48	0.00
380.68	0.00
380.87	28.09
381.07	44.47
381.26	23.41
381.46	35.11
381.65	21.06
381.85	84.26
382.04	28.09
382.24	44.47
382.43	39.79
382.63	7.02
382.83	9.36
383.02	0.00
383.22	16.38
383.41	0.00
383.61	0.00
383.80	32.77
384.00	2.34
384.19	11.70
384.39	107.66
384.58	65.54
384.78	35.11
384.97	0.00
385.17	37.45
385.36	0.00
385.56	53.83
385.75	9.36
385.95	18.72
386.14	37.45
386.34	0.00
386.53	0.00
386.72	4.68
386.92	2.34
387.11	79.58
387.31	30.43
387.50	18.72
387.70	121.71
387.89	11.70
388.09	35.11
388.28	0.00
388.48	42.13
388.67	60.85
388.86	0.00
389.06	4.68
389.25	21.06
389.45	37.45
389.64	18.72
389.84	18.72
390.03	32.77
390.22	18.72
390.42	11.70
390.61	28.09
390.81	0.00
391.00	44.47
391.19	0.00
391.39	0.00
391.58	63.19
391.78	0.00
391.97	0.00
392.16	46.81
392.36	30.43
392.55	28.09
392.75	4.68
392.94	16.38
393.13	77.24
393.33	23.41
393.52	58.51
393.71	32.77
393.91	28.09
394.10	30.43
394.29	0.00
394.49	0.00
394.68	53.83
394.88	53.83
395.07	70.22
395.26	37.45
395.46	0.00
395.65	65.54
395.84	51.49
396.04	35.11
396.23	0.00
396.42	18.72
396.62	70.22
396.81	0.00
397.00	23.41
397.19	105.32
397.39	0.00
397.58	16.38
397.77	56.17
397.97	23.41
398.16	18.72
398.35	0.00
398.55	88.94
398.74	0.00
398.93	9.36
399.12	0.00
399.32	53.83
399.51	2.34
399.70	0.00
399.90	21.06
400.09	0.00
400.28	72.56
400.47	67.88
400.67	2.34
400.86	30.43
401.05	58.51
401.24	65.54
401.44	0.00
401.63	9.36
401.82	42.13
402.01	32.77
402.21	0.00
402.40	21.06
402.59	0.00
402.78	0.00
402.97	46.81
403.17	39.79
403.36	58.51
403.55	23.41
403.74	2.34
403.93	44.47
404.13	42.13
404.32	28.09
404.51	21.06
404.70	28.09
404.89	25.75
405.09	91.28
405.28	63.19
405.47	23.41
405.66	16.38
405.85	25.75
406.05	0.00
406.24	18.72
406.43	58.51
406.62	30.43
406.81	72.56
407.00	53.83
407.20	25.75
407.39	39.79
407.58	25.75
407.77	18.72
407.96	23.41
408.15	16.38
408.34	25.75
408.54	0.00
408.73	23.41
408.92	9.36
409.11	49.15
409.30	91.28
409.49	32.77
409.68	58.51
409.87	14.04
410.07	46.81
410.26	35.11
410.45	0.00
410.64	56.17
410.83	37.45
411.02	2.34
411.21	56.17
411.40	2.34
411.59	65.54
411.78	11.70
411.98	0.00
412.17	16.38
412.36	65.54
412.55	11.70
412.74	58.51
412.93	0.00
413.12	56.17
413.31	72.56
413.50	112.35
413.69	53.83
413.88	14.04
414.07	0.00
414.26	0.00
414.45	0.00
414.64	56.17
414.83	44.47
415.02	44.47
415.22	46.81
415.41	49.15
415.60	37.45
415.79	25.75
415.98	105.32
416.17	51.49
416.36	0.00
416.55	2.34
416.74	49.15
416.93	77.24
417.12	21.06
417.31	58.51
417.50	21.06
417.69	0.00
417.88	58.51
418.07	35.11
418.26	30.43
418.45	25.75
418.64	53.83
418.83	42.13
419.02	37.45
419.21	95.96
419.39	72.56
419.58	60.85
419.77	46.81
419.96	0.00
420.15	0.00
420.34	0.00
420.53	0.00
420.72	35.11
420.91	0.00
421.10	18.72
421.29	9.36
421.48	0.00
421.67	0.00
421.86	25.75
422.05	16.38
422.24	0.00
422.43	21.06
422.61	0.00
422.80	0.00
422.99	46.81
423.18	30.43
423.37	44.47
423.56	58.51
423.75	37.45
423.94	37.45
424.13	0.00
424.32	93.62
424.50	21.06
424.69	16.38
424.88	44.47
425.07	25.75
425.26	16.38
425.45	0.00
425.64	16.38
425.83	91.28
426.01	21.06
426.20	72.56
426.39	72.56
426.58	0.00
426.77	0.00
426.96	32.77
427.15	18.72
427.33	105.32
427.52	11.70
427.71	35.11
427.90	11.70
428.09	35.11
428.28	28.09
428.46	72.56
428.65	124.05
428.84	0.00
429.03	23.41
429.22	35.11
429.40	0.00
429.59	18.72
429.78	21.06
429.97	0.00
430.16	0.00
430.34	53.83
430.53	21.06
430.72	0.00
430.91	9.36
431.10	0.00
431.28	21.06
431.47	0.00
431.66	117.03
431.85	23.41
432.03	49.15
432.22	58.51
432.41	0.00
432.60	53.83
432.79	0.00
432.97	0.00
433.16	110.01
433.35	0.00
433.54	9.36
433.72	23.41
433.91	77.24
434.10	46.81
434.28	28.09
434.47	81.92
434.66	42.13
434.85	46.81
435.03	58.51
435.22	0.00
435.41	23.41
435.59	67.88
435.78	46.81
435.97	0.00
436.16	0.00
436.34	77.24
436.53	107.66
436.72	77.24
436.90	0.00
437.09	25.75
437.28	23.41
437.46	0.00
437.65	16.38
437.84	25.75
438.02	32.77
438.21	42.13
438.40	0.00
438.58	0.00
438.77	102.98
438.96	53.83
439.14	0.00
439.33	7.02
439.52	0.00
439.70	77.24
439.89	35.11
440.08	39.79
440.26	79.58
440.45	25.75
440.63	42.13
440.82	0.00
441.01	60.85
441.19	30.43
441.38	23.41
441.57	107.66
441.75	42.13
441.94	7.02
442.12	4.68
442.31	56.17
442.50	74.90
442.68	46.81
442.87	79.58
443.05	39.79
443.24	70.22
443.43	77.24
443.61	63.19
443.80	37.45
443.98	30.43
444.17	72.56
444.35	88.94
444.54	65.54
444.73	32.77
444.91	32.77
445.10	42.13
445.28	0.00
445.47	42.13
445.65	58.51
445.84	49.15
446.02	28.09
446.21	28.09
446.39	0.00
446.58	4.68
446.77	42.13
446.95	39.79
447.14	58.51
447.32	16.38
447.51	18.72
447.69	46.81
447.88	39.79
448.06	65.54
448.25	28.09
448.43	14.04
448.62	7.02
448.80	11.70
448.99	0.00
449.17	88.94
449.36	60.85
449.54	14.04
449.73	0.00
449.91	0.00
450.10	18.72
450.28	0.00
450.46	67.88
450.65	74.90
450.83	65.54
451.02	74.90
451.20	14.04
451.39	0.00
451.57	84.26
451.76	53.83
451.94	51.49
452.13	30.43
452.31	32.77
452.49	77.24
452.68	0.00
452.86	44.47
453.05	60.85
453.23	58.51
453.42	53.83
453.60	11.70
453.78	0.00
453.97	91.28
454.15	42.13
454.34	102.98
454.52	39.79
454.70	2.34
454.89	0.00
455.07	35.11
455.26	56.17
455.44	49.15
455.62	42.13
455.81	0.00
455.99	84.26
456.17	42.13
456.36	0.00
456.54	18.72
456.73	32.77
456.91	18.72
457.09	74.90
457.28	42.13
457.46	0.00
457.64	39.79
457.83	49.15
458.01	46.81
458.19	28.09
458.38	51.49
458.56	35.11
458.74	28.09
458.93	30.43
459.11	42.13
459.29	46.81
459.48	60.85
459.66	67.88
459.84	42.13
460.03	9.36
460.21	56.17
460.39	23.41
460.57	74.90
460.76	93.62
460.94	88.94
461.12	77.24
461.31	0.00
461.49	0.00
461.67	44.47
461.85	0.00
462.04	72.56
462.22	110.01
462.40	49.15
462.59	37.45
462.77	39.79
462.95	74.90
463.13	28.09
463.32	4.68
463.50	49.15
463.68	0.00
463.86	0.00
464.05	25.75
464.23	44.47
464.41	0.00
464.59	44.47
464.78	60.85
464.96	126.39
465.14	74.90
465.32	86.60
465.50	65.54
465.69	65.54
465.87	91.28
466.05	49.15
466.23	37.45
466.41	44.47
466.60	16.38
466.78	46.81
466.96	53.83
467.14	70.22
467.32	46.81
467.51	4.68
467.69	4.68
467.87	65.54
468.05	79.58
468.23	11.70
468.41	51.49
468.60	39.79
468.78	0.00
468.96	35.11
469.14	67.88
469.32	46.81
469.50	35.11
469.69	67.88
469.87	0.00
470.05	0.00
470.23	56.17
470.41	49.15
470.59	11.70
470.77	46.81
470.95	28.09
471.14	49.15
471.32	35.11
471.50	84.26
471.68	0.00
471.86	119.37
472.04	91.28
472.22	0.00
472.40	88.94
472.58	0.00
472.77	44.47
472.95	30.43
473.13	0.00
473.31	60.85
473.49	0.00
473.67	32.77
473.85	14.04
474.03	35.11
474.21	86.60
474.39	42.13
474.57	39.79
474.75	18.72
474.93	39.79
475.12	79.58
475.30	74.90
475.48	42.13
475.66	16.38
475.84	58.51
476.02	18.72
476.20	56.17
476.38	32.77
476.56	14.04
476.74	32.77
476.92	60.85
477.10	42.13
477.28	65.54
477.46	18.72
477.64	11.70
477.82	95.96
478.00	44.47
478.18	79.58
478.36	21.06
478.54	23.41
478.72	56.17
478.90	32.77
479.08	25.75
479.26	65.54
479.44	0.00
479.62	28.09
479.80	70.22
479.98	23.41
480.16	37.45
480.34	65.54
480.52	0.00
480.70	53.83
480.88	51.49
481.06	42.13
481.24	14.04
481.41	53.83
481.59	114.69
481.77	51.49
481.95	9.36
482.13	42.13
482.31	72.56
482.49	0.00
482.67	0.00
482.85	37.45
483.03	56.17
483.21	7.02
483.39	35.11
483.57	14.04
483.74	39.79
483.92	32.77
484.10	21.06
484.28	107.66
484.46	0.00
484.64	44.47
484.82	53.83
485.00	18.72
485.18	53.83
485.35	7.02
485.53	77.24
485.71	72.56
485.89	25.75
486.07	0.00
486.25	0.00
486.43	9.36
486.61	70.22
486.78	53.83
486.96	44.47
487.14	0.00
487.32	46.81
487.50	107.66
487.68	23.41
487.85	9.36
488.03	63.19
488.21	2.34
488.39	35.11
488.57	67.88
488.75	88.94
488.92	74.90
489.10	0.00
489.28	51.49
489.46	16.38
489.64	18.72
489.81	81.92
489.99	51.49
490.17	93.62
490.35	107.66
490.53	0.00
490.70	65.54
490.88	0.00
491.06	39.79
491.24	37.45
491.41	11.70
491.59	30.43
491.77	44.47
491.95	25.75
492.13	4.68
492.30	46.81
492.48	46.81
492.66	60.85
492.84	14.04
493.01	28.09
493.19	77.24
493.37	98.30
493.54	84.26
493.72	30.43
493.90	11.70
494.08	32.77
494.25	0.00
494.43	2.34
494.61	49.15
494.79	84.26
494.96	74.90
495.14	44.47
495.32	84.26
495.49	56.17
495.67	70.22
495.85	84.26
496.02	2.34
496.20	42.13
496.38	86.60
496.55	30.43
496.73	0.00
496.91	0.00
497.09	42.13
497.26	11.70
497.44	0.00
497.62	81.92
497.79	21.06
497.97	81.92
498.14	46.81
498.32	9.36
498.50	67.88
498.67	51.49
498.85	84.26
499.03	9.36
499.20	77.24
499.38	56.17
499.56	0.00
499.73	63.19
499.91	0.00
500.08	51.49
500.26	112.35
500.44	44.47
500.61	23.41
500.79	107.66
500.97	14.04
501.14	51.49
501.32	7.02
501.49	65.54
501.67	30.43
501.84	51.49
502.02	56.17
502.20	23.41
502.37	44.47
502.55	21.06
502.72	110.01
502.90	32.77
503.07	56.17
503.25	53.83
503.43	56.17
503.60	30.43
503.78	58.51
503.95	60.85
504.13	67.88
504.30	44.47
504.48	79.58
504.65	25.75
504.83	42.13
505.01	0.00
505.18	21.06
505.36	0.00
505.53	16.38
505.71	95.96
505.88	79.58
506.06	0.00
506.23	46.81
506.41	72.56
506.58	93.62
506.76	21.06
506.93	46.81
507.11	53.83
507.28	39.79
507.46	18.72
507.63	60.85
507.81	51.49
507.98	37.45
508.16	119.37
508.33	42.13
508.50	58.51
508.68	30.43
508.85	18.72
509.03	0.00
509.20	11.70
509.38	0.00
509.55	46.81
509.73	46.81
509.90	35.11
510.08	0.00
510.25	42.13
510.42	42.13
510.60	65.54
510.77	70.22
510.95	0.00
511.12	74.90
511.30	23.41
511.47	32.77
511.64	14.04
511.82	0.00
511.99	25.75
512.17	32.77
512.34	16.38
512.51	14.04
512.69	0.00
512.86	42.13
513.04	77.24
513.21	51.49
513.38	58.51
513.56	0.00
513.73	79.58
513.90	81.92
514.08	91.28
514.25	63.19
514.43	9.36
514.60	11.70
514.77	0.00
514.95	0.00
515.12	0.00
515.29	95.96
515.47	84.26
515.64	7.02
515.81	91.28
515.99	95.96
516.16	39.79
516.33	187.24
516.51	51.49
516.68	37.45
516.85	49.15
517.03	11.70
517.20	18.72
517.37	9.36
517.54	25.75
517.72	86.60
517.89	23.41
518.06	9.36
518.24	53.83
518.41	88.94
518.58	58.51
518.75	86.60
518.93	21.06
519.10	46.81
519.27	88.94
519.45	18.72
519.62	0.00
519.79	11.70
519.96	42.13
520.14	74.90
520.31	0.00
520.48	0.00
520.65	53.83
520.83	100.64
521.00	65.54
521.17	42.13
521.34	65.54
521.52	0.00
521.69	25.75
521.86	42.13
522.03	133.41
522.20	0.00
522.38	72.56
522.55	7.02
522.72	107.66
522.89	25.75
523.07	65.54
523.24	18.72
523.41	51.49
523.58	70.22
523.75	39.79
523.92	67.88
524.10	0.00
524.27	28.09
524.44	126.39
524.61	14.04
524.78	70.22
524.96	72.56
525.13	32.77
525.30	11.70
525.47	16.38
525.64	58.51
525.81	86.60
525.98	11.70
526.16	39.79
526.33	0.00
526.50	14.04
526.67	25.75
526.84	84.26
527.01	58.51
527.18	65.54
527.36	46.81
527.53	0.00
527.70	18.72
527.87	49.15
528.04	65.54
528.21	72.56
528.38	44.47
528.55	91.28
528.72	0.00
528.89	65.54
529.07	32.77
529.24	58.51
529.41	51.49
529.58	86.60
529.75	93.62
529.92	30.43
530.09	7.02
530.26	4.68
530.43	28.09
530.60	35.11
530.77	46.81
530.94	21.06
531.11	79.58
531.28	35.11
531.46	77.24
531.63	77.24
531.80	11.70
531.97	60.85
532.14	79.58
532.31	39.79
532.48	44.47
532.65	77.24
532.82	39.79
532.99	2.34
533.16	70.22
533.33	121.71
533.50	32.77
533.67	32.77
533.84	72.56
534.01	44.47
534.18	70.22
534.35	39.79
534.52	74.90
534.69	18.72
534.86	88.94
535.03	39.79
535.20	44.47
535.37	9.36
535.54	32.77
535.71	91.28
535.88	65.54
536.05	28.09
536.22	74.90
536.38	11.70
536.55	65.54
536.72	18.72
536.89	25.75
537.06	2.34
537.23	128.73
537.40	18.72
537.57	74.90
537.74	46.81
537.91	0.00
538.08	30.43
538.25	60.85
538.42	35.11
538.59	51.49
538.75	84.26
538.92	0.00
539.09	39.79
539.26	126.39
539.43	70.22
539.60	7.02
539.77	0.00
539.94	77.24
540.11	60.85
540.28	0.00
540.44	42.13
540.61	44.47
540.78	0.00
540.95	42.13
541.12	51.49
541.29	0.00
541.46	72.56
541.62	39.79
541.79	4.68
541.96	79.58
542.13	77.24
542.30	100.64
542.47	56.17
542.63	93.62
542.80	7.02
542.97	0.00
543.14	63.19
543.31	121.71
543.48	74.90
543.64	102.98
543.81	32.77
543.98	56.17
544.15	58.51
544.32	11.70
544.48	30.43
544.65	30.43
544.82	18.72
544.99	21.06
545.16	67.88
545.32	46.81
545.49	91.28
545.66	0.00
545.83	46.81
546.00	65.54
546.16	126.39
546.33	4.68
546.50	51.49
546.67	18.72
546.83	67.88
547.00	91.28
547.17	14.04
547.34	0.00
547.50	51.49
547.67	30.43
547.84	53.83
548.00	0.00
548.17	25.75
548.34	28.09
548.51	32.77
548.67	7.02
548.84	84.26
549.01	30.43
549.18	32.77
549.34	74.90
549.51	4.68
549.68	30.43
549.84	51.49
550.01	56.17
550.18	30.43
550.34	56.17
550.51	23.41
550.68	0.00
550.84	72.56
551.01	124.05
551.18	0.00
551.34	51.49
551.51	60.85
551.68	30.43
551.84	105.32
552.01	46.81
552.18	46.81
552.34	0.00
552.51	0.00
552.68	72.56
552.84	11.70
553.01	35.11
553.18	98.30
553.34	65.54
553.51	23.41
553.67	77.24
553.84	2.34
554.01	23.41
554.17	65.54
554.34	0.00
554.51	0.00
554.67	0.00
554.84	58.51
555.00	46.81
555.17	25.75
555.33	91.28
555.50	51.49
555.67	95.96
555.83	0.00
556.00	14.04
556.16	35.11
556.33	70.22
556.50	53.83
556.66	42.13
556.83	4.68
556.99	79.58
557.16	159.16
557.32	49.15
557.49	0.00
557.65	105.32
557.82	37.45
557.98	0.00
558.15	0.00
558.32	14.04
558.48	0.00
558.65	0.00
558.81	0.00
558.98	84.26
559.14	58.51
559.31	18.72
559.47	23.41
559.64	39.79
559.80	49.15
559.97	65.54
560.13	95.96
560.30	72.56
560.46	18.72
560.63	49.15
560.79	0.00
560.96	18.72
561.12	30.43
561.29	58.51
561.45	0.00
561.61	0.00
561.78	100.64
561.94	0.00
562.11	0.00
562.27	37.45
562.44	32.77
562.60	0.00
562.77	39.79
562.93	51.49
563.10	91.28
563.26	0.00
563.42	18.72
563.59	37.45
563.75	35.11
563.92	49.15
564.08	0.00
564.24	51.49
564.41	60.85
564.57	72.56
564.74	79.58
564.90	14.04
565.07	35.11
565.23	79.58
565.39	9.36
565.56	0.00
565.72	11.70
565.88	72.56
566.05	63.19
566.21	60.85
566.38	2.34
566.54	44.47
566.70	51.49
566.87	56.17
567.03	30.43
567.19	23.41
567.36	0.00
567.52	128.73
567.68	107.66
567.85	21.06
568.01	44.47
568.17	91.28
568.34	86.60
568.50	30.43
568.66	49.15
568.83	51.49
568.99	67.88
569.15	53.83
569.32	93.62
569.48	0.00
569.64	46.81
569.81	0.00
569.97	51.49
570.13	2.34
570.30	0.00
570.46	16.38
570.62	0.00
570.78	67.88
570.95	39.79
571.11	23.41
571.27	65.54
571.43	91.28
571.60	117.03
571.76	25.75
571.92	7.02
572.09	0.00
572.25	42.13
572.41	0.00
572.57	21.06
572.74	119.37
572.90	60.85
573.06	0.00
573.22	124.05
573.38	110.01
573.55	11.70
573.71	95.96
573.87	9.36
574.03	9.36
574.20	0.00
574.36	0.00
574.52	0.00
574.68	23.41
574.84	135.75
575.01	102.98
575.17	0.00
575.33	67.88
575.49	91.28
575.65	18.72
575.82	0.00
575.98	110.01
576.14	70.22
576.30	65.54
576.46	84.26
576.62	49.15
576.79	110.01
576.95	58.51
577.11	32.77
577.27	49.15
577.43	42.13
577.59	37.45
577.75	30.43
577.92	32.77
578.08	4.68
578.24	60.85
578.40	37.45
578.56	98.30
578.72	74.90
578.88	63.19
579.04	0.00
579.21	72.56
579.37	121.71
579.53	119.37
579.69	51.49
579.85	51.49
580.01	42.13
580.17	0.00
580.33	58.51
580.49	65.54
580.65	51.49
580.82	70.22
580.98	25.75
581.14	44.47
581.30	84.26
581.46	72.56
581.62	44.47
581.78	95.96
581.94	72.56
582.10	58.51
582.26	107.66
582.42	0.00
582.58	53.83
582.74	72.56
582.90	30.43
583.06	25.75
583.22	72.56
583.38	63.19
583.54	56.17
583.70	95.96
583.86	0.00
584.02	11.70
584.18	60.85
584.34	91.28
584.50	42.13
584.66	37.45
584.82	25.75
584.98	35.11
585.14	112.35
585.30	21.06
585.46	0.00
585.62	0.00
585.78	7.02
585.94	86.60
586.10	72.56
586.26	0.00
586.42	4.68
586.58	107.66
586.74	0.00
586.90	28.09
587.06	42.13
587.22	0.00
587.38	32.77
587.54	11.70
587.70	49.15
587.86	86.60
588.02	0.00
588.18	42.13
588.34	84.26
588.49	16.38
588.65	0.00
588.81	21.06
588.97	51.49
589.13	42.13
589.29	51.49
589.45	58.51
589.61	86.60
589.77	0.00
589.93	0.00
590.08	51.49
590.24	25.75
590.40	0.00
590.56	9.36
590.72	0.00
590.88	23.41
591.04	32.77
591.20	21.06
591.35	79.58
591.51	0.00
591.67	35.11
591.83	2.34
591.99	74.90
592.15	79.58
592.31	0.00
592.46	49.15
592.62	58.51
592.78	70.22
592.94	28.09
593.10	74.90
593.26	42.13
593.41	86.60
593.57	39.79
593.73	14.04
593.89	65.54
594.05	51.49
594.20	84.26
594.36	46.81
594.52	14.04
594.68	11.70
594.84	23.41
594.99	37.45
595.15	23.41
595.31	14.04
595.47	44.47
595.62	77.24
595.78	46.81
595.94	91.28
596.10	2.34
596.25	95.96
596.41	53.83
596.57	37.45
596.73	0.00
596.88	0.00
597.04	9.36
597.20	7.02
597.36	63.19
597.51	102.98
597.67	30.43
597.83	16.38
597.99	105.32
598.14	11.70
598.30	37.45
598.46	7.02
598.61	4.68
598.77	95.96
598.93	53.83
599.09	0.00
599.24	0.00
599.40	79.58
599.56	58.51
599.71	77.24
599.87	49.15
600.03	0.00
600.18	51.49
600.34	58.51
600.50	42.13
600.65	0.00
600.81	105.32
600.97	21.06
601.12	0.00
601.28	81.92
601.44	131.07
601.59	42.13
601.75	44.47
601.91	46.81
602.06	63.19
602.22	14.04
602.37	63.19
602.53	18.72
602.69	63.19
602.84	0.00
603.00	100.64
603.16	44.47
603.31	0.00
603.47	49.15
603.62	0.00
603.78	77.24
603.94	70.22
604.09	35.11
604.25	72.56
604.40	0.00
604.56	60.85
604.71	23.41
604.87	35.11
605.03	0.00
605.18	72.56
605.34	107.66
605.49	14.04
605.65	28.09
605.80	7.02
605.96	42.13
606.12	63.19
606.27	44.47
606.43	39.79
606.58	30.43
606.74	7.02
606.89	44.47
607.05	42.13
607.20	95.96
607.36	21.06
607.51	0.00
607.67	72.56
607.82	0.00
607.98	25.75
608.13	0.00
608.29	23.41
608.44	4.68
608.60	21.06
608.75	0.00
608.91	11.70
609.06	56.17
609.22	32.77
609.37	0.00
609.53	25.75
609.68	58.51
609.84	49.15
609.99	56.17
610.15	46.81
610.30	56.17
610.46	0.00
610.61	37.45
610.76	0.00
610.92	98.30
611.07	121.71
611.23	53.83
611.38	51.49
611.54	63.19
611.69	37.45
611.84	37.45
612.00	119.37
612.15	81.92
612.31	0.00
612.46	42.13
612.62	0.00
612.77	79.58
612.92	4.68
613.08	16.38
613.23	11.70
613.39	42.13
613.54	42.13
613.69	35.11
613.85	0.00
614.00	39.79
614.15	60.85
614.31	44.47
614.46	32.77
614.62	112.35
614.77	14.04
614.92	7.02
615.08	0.00
615.23	67.88
615.38	79.58
615.54	63.19
615.69	28.09
615.84	0.00
616.00	65.54
616.15	65.54
616.30	21.06
616.46	0.00
616.61	2.34
616.76	74.90
616.92	72.56
617.07	0.00
617.22	44.47
617.37	98.30
617.53	23.41
617.68	16.38
617.83	18.72
617.99	0.00
618.14	51.49
618.29	58.51
618.45	84.26
618.60	44.47
618.75	28.09
618.90	56.17
619.06	131.07
619.21	32.77
619.36	72.56
619.51	46.81
619.67	42.13
619.82	42.13
619.97	44.47
620.12	9.36
620.28	46.81
620.43	39.79
620.58	49.15
620.73	0.00
620.89	21.06
621.04	140.43
621.19	0.00
621.34	0.00
621.49	70.22
621.65	46.81
621.80	46.81
621.95	53.83
622.10	79.58
622.25	18.72
622.41	0.00
622.56	74.90
622.71	28.09
622.86	84.26
623.01	28.09
623.16	37.45
623.32	4.68
623.47	0.00
623.62	0.00
623.77	86.60
623.92	63.19
624.07	4.68
624.23	81.92
624.38	58.51
624.53	0.00
624.68	119.37
624.83	67.88
624.98	46.81
625.13	88.94
625.29	60.85
625.44	60.85
625.59	49.15
625.74	25.75
625.89	42.13
626.04	117.03
626.19	37.45
626.34	56.17
626.49	0.00
626.65	32.77
626.80	0.00
626.95	4.68
627.10	77.24
627.25	0.00
627.40	37.45
627.55	23.41
627.70	70.22
627.85	67.88
628.00	49.15
628.15	21.06
628.30	35.11
628.45	7.02
628.60	0.00
628.76	0.00
628.91	65.54
629.06	28.09
629.21	49.15
629.36	56.17
629.51	0.00
629.66	37.45
629.81	58.51
629.96	30.43
630.11	32.77
630.26	51.49
630.41	88.94
630.56	23.41
630.71	25.75
630.86	2.34
631.01	117.03
631.16	9.36
631.31	11.70
631.46	107.66
631.61	0.00
631.76	30.43
631.91	4.68
632.06	30.43
632.21	28.09
632.36	9.36
632.51	0.00
632.66	58.51
632.81	0.00
632.96	51.49
633.10	21.06
633.25	95.96
633.40	53.83
633.55	60.85
633.70	91.28
633.85	107.66
634.00	11.70
634.15	46.81
634.30	32.77
634.45	70.22
634.60	4.68
634.75	44.47
634.90	46.81
635.05	60.85
635.19	79.58
635.34	16.38
635.49	60.85
635.64	56.17
635.79	42.13
635.94	77.24
636.09	58.51
636.24	35.11
636.39	30.43
636.53	46.81
636.68	140.43
636.83	44.47
636.98	2.34
637.13	23.41
637.28	0.00
637.43	58.51
637.57	51.49
637.72	37.45
637.87	74.90
638.02	72.56
638.17	42.13
638.32	23.41
638.46	21.06
638.61	65.54
638.76	63.19
638.91	18.72
639.06	18.72
639.20	86.60
639.35	18.72
639.50	35.11
639.65	0.00
639.80	84.26
639.94	95.96
640.09	60.85
640.24	51.49
640.39	0.00
640.54	25.75
640.68	46.81
640.83	16.38
640.98	7.02
641.13	32.77
641.27	51.49
641.42	63.19
641.57	42.13
641.72	51.49
641.86	46.81
642.01	37.45
642.16	79.58
642.31	32.77
642.45	35.11
642.60	0.00
642.75	2.34
642.90	11.70
643.04	51.49
643.19	7.02
643.34	67.88
643.48	93.62
643.63	39.79
643.78	2.34
643.93	0.00
644.07	58.51
644.22	18.72
644.37	25.75
644.51	51.49
644.66	39.79
644.81	25.75
644.95	0.00
645.10	30.43
645.25	81.92
645.39	0.00
645.54	74.90
645.69	74.90
645.83	0.00
645.98	70.22
646.13	0.00
646.27	51.49
646.42	0.00
646.57	28.09
646.71	56.17
646.86	0.00
647.00	49.15
647.15	65.54
647.30	95.96
647.44	28.09
647.59	51.49
647.74	0.00
647.88	0.00
648.03	56.17
648.17	7.02
648.32	21.06
648.47	77.24
648.61	112.35
648.76	4.68
648.90	44.47
649.05	39.79
649.20	91.28
649.34	42.13
649.49	35.11
649.63	37.45
649.78	67.88
649.92	39.79
650.07	0.00
650.21	35.11
650.36	4.68
650.51	0.00
650.65	44.47
650.80	77.24
650.94	46.81
651.09	0.00
651.23	72.56
651.38	28.09
651.52	53.83
651.67	0.00
651.81	32.77
651.96	67.88
652.10	60.85
652.25	16.38
652.39	35.11
652.54	9.36
652.68	93.62
652.83	32.77
652.97	86.60
653.12	39.79
653.26	18.72
653.41	32.77
653.55	4.68
653.70	28.09
653.84	14.04
653.99	58.51
654.13	0.00
654.27	23.41
654.42	98.30
654.56	7.02
654.71	81.92
654.85	0.00
655.00	74.90
655.14	0.00
655.29	0.00
655.43	42.13
655.57	37.45
655.72	39.79
655.86	53.83
656.01	42.13
656.15	16.38
656.30	30.43
656.44	0.00
656.58	14.04
656.73	42.13
656.87	51.49
657.01	0.00
657.16	77.24
657.30	49.15
657.45	9.36
657.59	53.83
657.73	21.06
657.88	7.02
658.02	7.02
658.16	60.85
658.31	14.04
658.45	11.70
658.60	56.17
658.74	0.00
658.88	58.51
659.03	9.36
659.17	32.77
659.31	0.00
659.46	0.00
659.60	14.04
659.74	9.36
659.89	51.49
660.03	21.06
660.17	25.75
660.32	0.00
660.46	0.00
660.60	79.58
660.74	42.13
660.89	126.39
661.03	58.51
661.17	60.85
661.32	0.00
661.46	84.26
661.60	65.54
661.74	37.45
661.89	37.45
662.03	49.15
662.17	25.75
662.31	0.00
662.46	30.43
662.60	72.56
662.74	51.49
662.88	67.88
663.03	21.06
663.17	79.58
663.31	21.06
663.45	23.41
663.60	63.19
663.74	23.41
663.88	107.66
664.02	46.81
664.17	21.06
664.31	53.83
664.45	77.24
664.59	84.26
664.73	51.49
664.88	0.00
665.02	42.13
665.16	117.03
665.30	74.90
665.44	105.32
665.59	60.85
665.73	58.51
665.87	7.02
666.01	49.15
666.15	0.00
666.29	53.83
666.44	72.56
666.58	74.90
666.72	28.09
666.86	63.19
667.00	14.04
667.14	25.75
667.28	21.06
667.43	0.00
667.57	0.00
667.71	0.00
667.85	51.49
667.99	49.15
668.13	60.85
668.27	7.02
668.41	21.06
668.56	9.36
668.70	25.75
668.84	88.94
668.98	32.77
669.12	0.00
669.26	18.72
669.40	7.02
669.54	0.00
669.68	16.38
669.82	79.58
669.96	63.19
670.10	25.75
670.25	42.13
670.39	14.04
670.53	0.00
670.67	25.75
670.81	32.77
670.95	28.09
671.09	65.54
671.23	46.81
671.37	0.00
671.51	49.15
671.65	25.75
671.79	74.90
671.93	67.88
672.07	44.47
672.21	91.28
672.35	88.94
672.49	0.00
672.63	0.00
672.77	2.34
672.91	39.79
673.05	0.00
673.19	0.00
673.33	72.56
673.47	23.41
673.61	65.54
673.75	51.49
673.89	88.94
674.03	72.56
674.17	49.15
674.31	53.83
674.45	58.51
674.59	102.98
674.73	53.83
674.87	25.75
675.01	25.75
675.15	16.38
675.29	16.38
675.43	102.98
675.56	107.66
675.70	0.00
675.84	0.00
675.98	72.56
676.12	32.77
676.26	25.75
676.40	32.77
676.54	84.26
676.68	70.22
676.82	37.45
676.96	63.19
677.10	39.79
677.23	25.75
677.37	0.00
677.51	35.11
677.65	91.28
677.79	67.88
677.93	37.45
678.07	72.56
678.21	16.38
678.34	46.81
678.48	42.13
678.62	28.09
678.76	0.00
678.90	0.00
679.04	0.00
679.18	30.43
679.31	0.00
679.45	51.49
679.59	42.13
679.73	0.00
679.87	46.81
680.00	16.38
680.14	21.06
680.28	51.49
680.42	46.81
680.56	0.00
680.70	39.79
680.83	46.81
680.97	112.35
681.11	67.88
681.25	11.70
681.39	128.73
681.52	0.00
681.66	95.96
681.80	11.70
681.94	7.02
682.07	21.06
682.21	21.06
682.35	21.06
682.49	58.51
682.62	95.96
682.76	18.72
682.90	0.00
683.04	0.00
683.17	105.32
683.31	0.00
683.45	46.81
683.59	37.45
683.72	35.11
683.86	86.60
684.00	58.51
684.13	53.83
684.27	16.38
684.41	70.22
684.55	39.79
684.68	35.11
684.82	11.70
684.96	21.06
685.09	56.17
685.23	79.58
685.37	21.06
685.50	39.79
685.64	102.98
685.78	81.92
685.91	37.45
686.05	0.00
686.19	0.00
686.32	4.68
686.46	91.28
686.60	72.56
686.73	77.24
686.87	84.26
687.01	81.92
687.14	44.47
687.28	0.00
687.42	2.34
687.55	9.36
687.69	39.79
687.82	21.06
687.96	42.13
688.10	95.96
688.23	37.45
688.37	100.64
688.50	67.88
688.64	16.38
688.78	0.00
688.91	46.81
689.05	56.17
689.18	63.19
689.32	30.43
689.46	14.04
689.59	2.34
689.73	4.68
689.86	0.00
690.00	2.34
690.13	25.75
690.27	86.60
690.41	23.41
690.54	79.58
690.68	28.09
690.81	2.34
690.95	0.00
691.08	0.00
691.22	72.56
691.35	42.13
691.49	74.90
691.62	14.04
691.76	0.00
691.89	18.72
692.03	23.41
692.16	49.15
692.30	0.00
692.43	30.43
692.57	63.19
692.70	74.90
692.84	51.49
692.97	4.68
693.11	95.96
693.24	88.94
693.38	0.00
693.51	0.00
693.65	0.00
693.78	0.00
693.92	0.00
694.05	51.49
694.19	21.06
694.32	32.77
694.45	46.81
694.59	79.58
694.72	110.01
694.86	0.00
694.99	53.83
695.13	51.49
695.26	58.51
695.39	35.11
695.53	63.19
695.66	46.81
695.80	86.60
695.93	72.56
696.07	0.00
696.20	58.51
696.33	32.77
696.47	30.43
696.60	0.00
696.73	0.00
696.87	0.00
697.00	133.41
697.14	42.13
697.27	4.68
697.40	79.58
697.54	93.62
697.67	58.51
697.80	100.64
697.94	79.58
698.07	28.09
698.21	39.79
698.34	74.90
698.47	79.58
698.61	9.36
698.74	63.19
698.87	37.45
699.01	39.79
699.14	16.38
699.27	93.62
699.40	70.22
699.54	23.41
699.67	28.09
699.80	9.36
699.94	4.68
700.07	84.26
700.20	46.81
700.34	16.38
700.47	2.34
700.60	110.01
700.73	49.15
700.87	49.15
701.00	25.75
701.13	39.79
701.26	0.00
701.40	42.13
701.53	23.41
701.66	56.17
701.79	84.26
701.93	9.36
702.06	18.72
702.19	79.58
702.32	0.00
702.46	2.34
702.59	0.00
702.72	98.30
702.85	4.68
702.99	60.85
703.12	23.41
703.25	28.09
703.38	18.72
703.51	0.00
703.65	0.00
703.78	0.00
703.91	91.28
704.04	53.83
704.17	28.09
704.31	0.00
704.44	0.00
704.57	58.51
704.70	0.00
704.83	42.13
704.96	21.06
705.10	25.75
705.23	60.85
>>>>>End Processed Spectral Data<<<<<
