SpectraSuite Data File
++++++++++++++++++++++++++++++++++++
Date: Fri Oct 04 12:13:44 GMT-05:00 2013
User: price-jones
Dark Spectrum Present: No
Reference Spectrum Present: No
Number of Sampled Component Spectra: 1
Spectrometers: USB2+H05261
Integration Time (usec): 10000 (USB2+H05261)
Spectra Averaged: 1 (USB2+H05261)
Boxcar Smoothing: 0 (USB2+H05261)
Correct for Electrical Dark: No (USB2+H05261)
Strobe/Lamp Enabled: No (USB2+H05261)
Correct for Detector Non-linearity: No (USB2+H05261)
Correct for Stray Light: No (USB2+H05261)
Number of Pixels in Processed Spectrum: 2048
>>>>>Begin Processed Spectral Data<<<<<
365.73	0.00
365.92	0.00
366.12	0.00
366.32	0.00
366.52	0.00
366.72	0.00
366.91	0.00
367.11	0.00
367.31	0.00
367.51	0.00
367.70	0.00
367.90	0.00
368.10	0.00
368.30	0.00
368.49	0.00
368.69	0.00
368.89	0.00
369.09	0.00
369.28	0.00
369.48	0.00
369.68	0.00
369.87	0.00
370.07	0.00
370.27	0.00
370.47	0.00
370.66	0.00
370.86	0.00
371.06	0.00
371.25	37.45
371.45	0.00
371.65	0.00
371.84	0.00
372.04	0.00
372.24	25.75
372.44	28.09
372.63	37.45
372.83	81.92
373.03	9.36
373.22	98.30
373.42	53.83
373.62	30.43
373.81	21.06
374.01	95.96
374.21	65.54
374.40	37.45
374.60	72.56
374.79	93.62
374.99	79.58
375.19	53.83
375.38	46.81
375.58	56.17
375.78	49.15
375.97	30.43
376.17	42.13
376.37	23.41
376.56	14.04
376.76	16.38
376.95	70.22
377.15	0.00
377.35	30.43
377.54	9.36
377.74	4.68
377.93	0.00
378.13	7.02
378.33	0.00
378.52	46.81
378.72	16.38
378.91	30.43
379.11	2.34
379.31	32.77
379.50	88.94
379.70	0.00
379.89	4.68
380.09	4.68
380.28	37.45
380.48	35.11
380.68	18.72
380.87	4.68
381.07	39.79
381.26	21.06
381.46	42.13
381.65	21.06
381.85	51.49
382.04	32.77
382.24	93.62
382.43	14.04
382.63	0.00
382.83	0.00
383.02	49.15
383.22	0.00
383.41	16.38
383.61	53.83
383.80	37.45
384.00	18.72
384.19	2.34
384.39	0.00
384.58	35.11
384.78	16.38
384.97	0.00
385.17	46.81
385.36	4.68
385.56	32.77
385.75	11.70
385.95	0.00
386.14	0.00
386.34	56.17
386.53	0.00
386.72	72.56
386.92	25.75
387.11	18.72
387.31	42.13
387.50	0.00
387.70	0.00
387.89	0.00
388.09	0.00
388.28	39.79
388.48	4.68
388.67	9.36
388.86	7.02
389.06	0.00
389.25	0.00
389.45	44.47
389.64	0.00
389.84	0.00
390.03	18.72
390.22	16.38
390.42	4.68
390.61	0.00
390.81	37.45
391.00	14.04
391.19	65.54
391.39	4.68
391.58	49.15
391.78	44.47
391.97	0.00
392.16	93.62
392.36	0.00
392.55	14.04
392.75	91.28
392.94	51.49
393.13	0.00
393.33	16.38
393.52	2.34
393.71	60.85
393.91	0.00
394.10	98.30
394.29	14.04
394.49	32.77
394.68	7.02
394.88	46.81
395.07	46.81
395.26	18.72
395.46	98.30
395.65	79.58
395.84	86.60
396.04	0.00
396.23	32.77
396.42	37.45
396.62	30.43
396.81	9.36
397.00	35.11
397.19	51.49
397.39	0.00
397.58	0.00
397.77	46.81
397.97	11.70
398.16	37.45
398.35	0.00
398.55	81.92
398.74	16.38
398.93	67.88
399.12	25.75
399.32	25.75
399.51	7.02
399.70	0.00
399.90	0.00
400.09	30.43
400.28	7.02
400.47	65.54
400.67	58.51
400.86	0.00
401.05	9.36
401.24	35.11
401.44	63.19
401.63	0.00
401.82	0.00
402.01	65.54
402.21	0.00
402.40	0.00
402.59	65.54
402.78	102.98
402.97	25.75
403.17	95.96
403.36	77.24
403.55	0.00
403.74	65.54
403.93	35.11
404.13	49.15
404.32	18.72
404.51	2.34
404.70	88.94
404.89	9.36
405.09	46.81
405.28	67.88
405.47	56.17
405.66	65.54
405.85	9.36
406.05	74.90
406.24	4.68
406.43	35.11
406.62	98.30
406.81	14.04
407.00	56.17
407.20	51.49
407.39	23.41
407.58	16.38
407.77	0.00
407.96	65.54
408.15	0.00
408.34	4.68
408.54	14.04
408.73	37.45
408.92	93.62
409.11	91.28
409.30	7.02
409.49	49.15
409.68	56.17
409.87	18.72
410.07	58.51
410.26	49.15
410.45	11.70
410.64	39.79
410.83	51.49
411.02	0.00
411.21	32.77
411.40	46.81
411.59	0.00
411.78	70.22
411.98	49.15
412.17	2.34
412.36	30.43
412.55	0.00
412.74	4.68
412.93	21.06
413.12	58.51
413.31	44.47
413.50	37.45
413.69	30.43
413.88	46.81
414.07	46.81
414.26	37.45
414.45	11.70
414.64	98.30
414.83	0.00
415.02	0.00
415.22	14.04
415.41	93.62
415.60	72.56
415.79	35.11
415.98	39.79
416.17	11.70
416.36	39.79
416.55	0.00
416.74	91.28
416.93	49.15
417.12	9.36
417.31	0.00
417.50	91.28
417.69	56.17
417.88	58.51
418.07	88.94
418.26	39.79
418.45	0.00
418.64	84.26
418.83	88.94
419.02	0.00
419.21	60.85
419.39	42.13
419.58	9.36
419.77	86.60
419.96	0.00
420.15	9.36
420.34	0.00
420.53	9.36
420.72	28.09
420.91	0.00
421.10	56.17
421.29	7.02
421.48	23.41
421.67	39.79
421.86	98.30
422.05	28.09
422.24	60.85
422.43	25.75
422.61	0.00
422.80	0.00
422.99	21.06
423.18	0.00
423.37	53.83
423.56	28.09
423.75	0.00
423.94	32.77
424.13	0.00
424.32	39.79
424.50	49.15
424.69	88.94
424.88	37.45
425.07	0.00
425.26	0.00
425.45	42.13
425.64	32.77
425.83	9.36
426.01	30.43
426.20	37.45
426.39	9.36
426.58	44.47
426.77	35.11
426.96	4.68
427.15	72.56
427.33	77.24
427.52	86.60
427.71	0.00
427.90	131.07
428.09	53.83
428.28	56.17
428.46	102.98
428.65	37.45
428.84	0.00
429.03	0.00
429.22	0.00
429.40	63.19
429.59	32.77
429.78	35.11
429.97	9.36
430.16	0.00
430.34	18.72
430.53	18.72
430.72	0.00
430.91	18.72
431.10	0.00
431.28	7.02
431.47	74.90
431.66	65.54
431.85	91.28
432.03	0.00
432.22	0.00
432.41	9.36
432.60	67.88
432.79	60.85
432.97	58.51
433.16	58.51
433.35	4.68
433.54	42.13
433.72	32.77
433.91	0.00
434.10	0.00
434.28	35.11
434.47	0.00
434.66	9.36
434.85	56.17
435.03	98.30
435.22	0.00
435.41	98.30
435.59	0.00
435.78	56.17
435.97	72.56
436.16	23.41
436.34	2.34
436.53	72.56
436.72	63.19
436.90	11.70
437.09	0.00
437.28	35.11
437.46	53.83
437.65	74.90
437.84	25.75
438.02	49.15
438.21	32.77
438.40	0.00
438.58	21.06
438.77	25.75
438.96	0.00
439.14	70.22
439.33	60.85
439.52	56.17
439.70	11.70
439.89	0.00
440.08	58.51
440.26	46.81
440.45	72.56
440.63	49.15
440.82	0.00
441.01	11.70
441.19	0.00
441.38	46.81
441.57	0.00
441.75	63.19
441.94	35.11
442.12	2.34
442.31	91.28
442.50	14.04
442.68	72.56
442.87	65.54
443.05	37.45
443.24	0.00
443.43	0.00
443.61	2.34
443.80	58.51
443.98	30.43
444.17	21.06
444.35	28.09
444.54	21.06
444.73	65.54
444.91	102.98
445.10	35.11
445.28	72.56
445.47	32.77
445.65	72.56
445.84	7.02
446.02	46.81
446.21	49.15
446.39	58.51
446.58	23.41
446.77	102.98
446.95	32.77
447.14	30.43
447.32	60.85
447.51	44.47
447.69	84.26
447.88	74.90
448.06	51.49
448.25	0.00
448.43	16.38
448.62	60.85
448.80	16.38
448.99	46.81
449.17	30.43
449.36	0.00
449.54	35.11
449.73	23.41
449.91	0.00
450.10	25.75
450.28	60.85
450.46	35.11
450.65	72.56
450.83	0.00
451.02	72.56
451.20	0.00
451.39	32.77
451.57	0.00
451.76	58.51
451.94	72.56
452.13	0.00
452.31	14.04
452.49	0.00
452.68	16.38
452.86	77.24
453.05	51.49
453.23	0.00
453.42	0.00
453.60	32.77
453.78	11.70
453.97	70.22
454.15	30.43
454.34	0.00
454.52	0.00
454.70	7.02
454.89	0.00
455.07	58.51
455.26	49.15
455.44	11.70
455.62	74.90
455.81	39.79
455.99	21.06
456.17	46.81
456.36	23.41
456.54	0.00
456.73	58.51
456.91	102.98
457.09	11.70
457.28	72.56
457.46	70.22
457.64	105.32
457.83	28.09
458.01	44.47
458.19	70.22
458.38	35.11
458.56	18.72
458.74	28.09
458.93	65.54
459.11	42.13
459.29	70.22
459.48	0.00
459.66	79.58
459.84	58.51
460.03	74.90
460.21	28.09
460.39	0.00
460.57	0.00
460.76	58.51
460.94	56.17
461.12	49.15
461.31	0.00
461.49	56.17
461.67	16.38
461.85	58.51
462.04	35.11
462.22	72.56
462.40	0.00
462.59	95.96
462.77	60.85
462.95	53.83
463.13	77.24
463.32	65.54
463.50	58.51
463.68	32.77
463.86	58.51
464.05	84.26
464.23	44.47
464.41	70.22
464.59	46.81
464.78	67.88
464.96	28.09
465.14	49.15
465.32	74.90
465.50	88.94
465.69	32.77
465.87	42.13
466.05	39.79
466.23	84.26
466.41	28.09
466.60	21.06
466.78	35.11
466.96	44.47
467.14	51.49
467.32	37.45
467.51	37.45
467.69	37.45
467.87	84.26
468.05	2.34
468.23	39.79
468.41	77.24
468.60	32.77
468.78	51.49
468.96	84.26
469.14	37.45
469.32	58.51
469.50	0.00
469.69	9.36
469.87	42.13
470.05	32.77
470.23	35.11
470.41	0.00
470.59	25.75
470.77	56.17
470.95	42.13
471.14	65.54
471.32	0.00
471.50	42.13
471.68	49.15
471.86	0.00
472.04	0.00
472.22	0.00
472.40	4.68
472.58	14.04
472.77	49.15
472.95	0.00
473.13	0.00
473.31	60.85
473.49	46.81
473.67	56.17
473.85	16.38
474.03	18.72
474.21	35.11
474.39	23.41
474.57	4.68
474.75	16.38
474.93	60.85
475.12	18.72
475.30	14.04
475.48	28.09
475.66	30.43
475.84	77.24
476.02	51.49
476.20	35.11
476.38	0.00
476.56	56.17
476.74	74.90
476.92	35.11
477.10	56.17
477.28	18.72
477.46	35.11
477.64	98.30
477.82	39.79
478.00	65.54
478.18	51.49
478.36	91.28
478.54	84.26
478.72	35.11
478.90	14.04
479.08	53.83
479.26	11.70
479.44	67.88
479.62	0.00
479.80	28.09
479.98	21.06
480.16	51.49
480.34	72.56
480.52	16.38
480.70	51.49
480.88	49.15
481.06	46.81
481.24	63.19
481.41	37.45
481.59	56.17
481.77	18.72
481.95	14.04
482.13	25.75
482.31	4.68
482.49	0.00
482.67	21.06
482.85	84.26
483.03	21.06
483.21	0.00
483.39	0.00
483.57	2.34
483.74	42.13
483.92	105.32
484.10	9.36
484.28	2.34
484.46	88.94
484.64	21.06
484.82	46.81
485.00	35.11
485.18	46.81
485.35	67.88
485.53	0.00
485.71	16.38
485.89	63.19
486.07	110.01
486.25	100.64
486.43	32.77
486.61	56.17
486.78	35.11
486.96	49.15
487.14	67.88
487.32	49.15
487.50	28.09
487.68	65.54
487.85	0.00
488.03	11.70
488.21	4.68
488.39	11.70
488.57	42.13
488.75	53.83
488.92	70.22
489.10	0.00
489.28	95.96
489.46	18.72
489.64	81.92
489.81	53.83
489.99	60.85
490.17	0.00
490.35	152.13
490.53	63.19
490.70	81.92
490.88	72.56
491.06	4.68
491.24	42.13
491.41	0.00
491.59	0.00
491.77	37.45
491.95	2.34
492.13	79.58
492.30	65.54
492.48	100.64
492.66	53.83
492.84	25.75
493.01	7.02
493.19	70.22
493.37	23.41
493.54	53.83
493.72	51.49
493.90	44.47
494.08	138.09
494.25	39.79
494.43	95.96
494.61	81.92
494.79	39.79
494.96	0.00
495.14	21.06
495.32	81.92
495.49	58.51
495.67	56.17
495.85	0.00
496.02	51.49
496.20	58.51
496.38	67.88
496.55	46.81
496.73	28.09
496.91	51.49
497.09	23.41
497.26	84.26
497.44	67.88
497.62	67.88
497.79	0.00
497.97	140.43
498.14	88.94
498.32	23.41
498.50	51.49
498.67	91.28
498.85	18.72
499.03	93.62
499.20	0.00
499.38	0.00
499.56	107.66
499.73	65.54
499.91	35.11
500.08	23.41
500.26	0.00
500.44	81.92
500.61	4.68
500.79	0.00
500.97	23.41
501.14	107.66
501.32	0.00
501.49	121.71
501.67	46.81
501.84	9.36
502.02	81.92
502.20	79.58
502.37	58.51
502.55	72.56
502.72	77.24
502.90	79.58
503.07	86.60
503.25	0.00
503.43	72.56
503.60	51.49
503.78	53.83
503.95	102.98
504.13	67.88
504.30	37.45
504.48	28.09
504.65	67.88
504.83	95.96
505.01	56.17
505.18	147.45
505.36	74.90
505.53	0.00
505.71	0.00
505.88	98.30
506.06	9.36
506.23	58.51
506.41	67.88
506.58	0.00
506.76	37.45
506.93	25.75
507.11	9.36
507.28	65.54
507.46	79.58
507.63	42.13
507.81	67.88
507.98	0.00
508.16	119.37
508.33	0.00
508.50	4.68
508.68	32.77
508.85	124.05
509.03	60.85
509.20	0.00
509.38	37.45
509.55	86.60
509.73	25.75
509.90	4.68
510.08	84.26
510.25	42.13
510.42	32.77
510.60	4.68
510.77	46.81
510.95	53.83
511.12	0.00
511.30	63.19
511.47	56.17
511.64	28.09
511.82	65.54
511.99	23.41
512.17	51.49
512.34	32.77
512.51	86.60
512.69	9.36
512.86	44.47
513.04	35.11
513.21	72.56
513.38	88.94
513.56	46.81
513.73	32.77
513.90	67.88
514.08	60.85
514.25	37.45
514.43	77.24
514.60	53.83
514.77	39.79
514.95	126.39
515.12	23.41
515.29	58.51
515.47	0.00
515.64	0.00
515.81	70.22
515.99	18.72
516.16	28.09
516.33	117.03
516.51	65.54
516.68	37.45
516.85	35.11
517.03	25.75
517.20	133.41
517.37	63.19
517.54	56.17
517.72	46.81
517.89	56.17
518.06	0.00
518.24	114.69
518.41	60.85
518.58	56.17
518.75	70.22
518.93	14.04
519.10	51.49
519.27	0.00
519.45	131.07
519.62	121.71
519.79	58.51
519.96	70.22
520.14	79.58
520.31	84.26
520.48	65.54
520.65	77.24
520.83	14.04
521.00	4.68
521.17	91.28
521.34	81.92
521.52	30.43
521.69	0.00
521.86	67.88
522.03	46.81
522.20	67.88
522.38	0.00
522.55	117.03
522.72	117.03
522.89	84.26
523.07	119.37
523.24	28.09
523.41	60.85
523.58	49.15
523.75	28.09
523.92	86.60
524.10	63.19
524.27	53.83
524.44	28.09
524.61	84.26
524.78	18.72
524.96	23.41
525.13	63.19
525.30	51.49
525.47	44.47
525.64	39.79
525.81	0.00
525.98	35.11
526.16	16.38
526.33	49.15
526.50	46.81
526.67	65.54
526.84	0.00
527.01	37.45
527.18	81.92
527.36	81.92
527.53	56.17
527.70	70.22
527.87	0.00
528.04	88.94
528.21	14.04
528.38	21.06
528.55	95.96
528.72	0.00
528.89	9.36
529.07	60.85
529.24	67.88
529.41	107.66
529.58	51.49
529.75	56.17
529.92	93.62
530.09	60.85
530.26	70.22
530.43	110.01
530.60	65.54
530.77	84.26
530.94	35.11
531.11	23.41
531.28	49.15
531.46	84.26
531.63	9.36
531.80	4.68
531.97	100.64
532.14	42.13
532.31	44.47
532.48	49.15
532.65	56.17
532.82	81.92
532.99	37.45
533.16	121.71
533.33	65.54
533.50	84.26
533.67	98.30
533.84	67.88
534.01	88.94
534.18	91.28
534.35	107.66
534.52	49.15
534.69	0.00
534.86	102.98
535.03	0.00
535.20	32.77
535.37	7.02
535.54	72.56
535.71	81.92
535.88	4.68
536.05	77.24
536.22	35.11
536.38	44.47
536.55	100.64
536.72	0.00
536.89	49.15
537.06	23.41
537.23	0.00
537.40	60.85
537.57	14.04
537.74	117.03
537.91	0.00
538.08	98.30
538.25	49.15
538.42	39.79
538.59	98.30
538.75	32.77
538.92	74.90
539.09	63.19
539.26	56.17
539.43	81.92
539.60	67.88
539.77	58.51
539.94	56.17
540.11	67.88
540.28	49.15
540.44	65.54
540.61	53.83
540.78	0.00
540.95	53.83
541.12	11.70
541.29	67.88
541.46	0.00
541.62	25.75
541.79	65.54
541.96	11.70
542.13	0.00
542.30	21.06
542.47	131.07
542.63	70.22
542.80	95.96
542.97	21.06
543.14	0.00
543.31	46.81
543.48	7.02
543.64	14.04
543.81	88.94
543.98	42.13
544.15	79.58
544.32	7.02
544.48	0.00
544.65	88.94
544.82	18.72
544.99	77.24
545.16	18.72
545.32	102.98
545.49	39.79
545.66	44.47
545.83	107.66
546.00	58.51
546.16	77.24
546.33	2.34
546.50	112.35
546.67	72.56
546.83	84.26
547.00	58.51
547.17	91.28
547.34	44.47
547.50	18.72
547.67	98.30
547.84	0.00
548.00	2.34
548.17	105.32
548.34	65.54
548.51	65.54
548.67	91.28
548.84	56.17
549.01	35.11
549.18	72.56
549.34	70.22
549.51	72.56
549.68	39.79
549.84	35.11
550.01	119.37
550.18	32.77
550.34	84.26
550.51	91.28
550.68	74.90
550.84	100.64
551.01	86.60
551.18	0.00
551.34	63.19
551.51	0.00
551.68	51.49
551.84	105.32
552.01	67.88
552.18	65.54
552.34	0.00
552.51	95.96
552.68	53.83
552.84	18.72
553.01	32.77
553.18	25.75
553.34	32.77
553.51	53.83
553.67	49.15
553.84	30.43
554.01	37.45
554.17	86.60
554.34	49.15
554.51	98.30
554.67	81.92
554.84	102.98
555.00	121.71
555.17	49.15
555.33	56.17
555.50	44.47
555.67	35.11
555.83	65.54
556.00	138.09
556.16	70.22
556.33	0.00
556.50	0.00
556.66	0.00
556.83	84.26
556.99	110.01
557.16	0.00
557.32	77.24
557.49	18.72
557.65	21.06
557.82	65.54
557.98	0.00
558.15	107.66
558.32	86.60
558.48	70.22
558.65	65.54
558.81	9.36
558.98	81.92
559.14	42.13
559.31	39.79
559.47	58.51
559.64	56.17
559.80	81.92
559.97	0.00
560.13	100.64
560.30	81.92
560.46	28.09
560.63	44.47
560.79	70.22
560.96	72.56
561.12	46.81
561.29	0.00
561.45	18.72
561.61	0.00
561.78	39.79
561.94	79.58
562.11	28.09
562.27	74.90
562.44	110.01
562.60	44.47
562.77	37.45
562.93	88.94
563.10	102.98
563.26	67.88
563.42	51.49
563.59	0.00
563.75	46.81
563.92	0.00
564.08	35.11
564.24	21.06
564.41	21.06
564.57	74.90
564.74	23.41
564.90	79.58
565.07	4.68
565.23	93.62
565.39	30.43
565.56	44.47
565.72	49.15
565.88	0.00
566.05	42.13
566.21	21.06
566.38	65.54
566.54	16.38
566.70	70.22
566.87	112.35
567.03	18.72
567.19	74.90
567.36	46.81
567.52	93.62
567.68	93.62
567.85	67.88
568.01	44.47
568.17	0.00
568.34	79.58
568.50	39.79
568.66	77.24
568.83	37.45
568.99	0.00
569.15	35.11
569.32	107.66
569.48	0.00
569.64	25.75
569.81	23.41
569.97	60.85
570.13	81.92
570.30	18.72
570.46	88.94
570.62	58.51
570.78	102.98
570.95	0.00
571.11	30.43
571.27	135.75
571.43	14.04
571.60	119.37
571.76	0.00
571.92	107.66
572.09	56.17
572.25	88.94
572.41	46.81
572.57	25.75
572.74	67.88
572.90	21.06
573.06	72.56
573.22	23.41
573.38	93.62
573.55	49.15
573.71	0.00
573.87	4.68
574.03	46.81
574.20	9.36
574.36	28.09
574.52	46.81
574.68	112.35
574.84	49.15
575.01	98.30
575.17	70.22
575.33	42.13
575.49	107.66
575.65	0.00
575.82	49.15
575.98	21.06
576.14	37.45
576.30	7.02
576.46	23.41
576.62	58.51
576.79	9.36
576.95	0.00
577.11	0.00
577.27	70.22
577.43	23.41
577.59	79.58
577.75	65.54
577.92	91.28
578.08	49.15
578.24	79.58
578.40	63.19
578.56	42.13
578.72	11.70
578.88	0.00
579.04	100.64
579.21	28.09
579.37	23.41
579.53	93.62
579.69	39.79
579.85	49.15
580.01	128.73
580.17	72.56
580.33	53.83
580.49	58.51
580.65	72.56
580.82	77.24
580.98	88.94
581.14	14.04
581.30	72.56
581.46	0.00
581.62	32.77
581.78	32.77
581.94	79.58
582.10	39.79
582.26	58.51
582.42	30.43
582.58	49.15
582.74	42.13
582.90	35.11
583.06	105.32
583.22	28.09
583.38	25.75
583.54	53.83
583.70	86.60
583.86	35.11
584.02	65.54
584.18	53.83
584.34	128.73
584.50	124.05
584.66	60.85
584.82	0.00
584.98	56.17
585.14	88.94
585.30	0.00
585.46	56.17
585.62	37.45
585.78	84.26
585.94	49.15
586.10	105.32
586.26	88.94
586.42	117.03
586.58	0.00
586.74	63.19
586.90	46.81
587.06	81.92
587.22	14.04
587.38	100.64
587.54	23.41
587.70	112.35
587.86	95.96
588.02	72.56
588.18	46.81
588.34	39.79
588.49	65.54
588.65	35.11
588.81	23.41
588.97	0.00
589.13	102.98
589.29	0.00
589.45	77.24
589.61	84.26
589.77	49.15
589.93	30.43
590.08	63.19
590.24	2.34
590.40	9.36
590.56	58.51
590.72	0.00
590.88	32.77
591.04	46.81
591.20	18.72
591.35	21.06
591.51	39.79
591.67	21.06
591.83	121.71
591.99	0.00
592.15	0.00
592.31	0.00
592.46	39.79
592.62	7.02
592.78	63.19
592.94	42.13
593.10	42.13
593.26	25.75
593.41	23.41
593.57	25.75
593.73	0.00
593.89	58.51
594.05	56.17
594.20	107.66
594.36	91.28
594.52	35.11
594.68	56.17
594.84	35.11
594.99	0.00
595.15	37.45
595.31	16.38
595.47	30.43
595.62	18.72
595.78	72.56
595.94	0.00
596.10	53.83
596.25	28.09
596.41	49.15
596.57	35.11
596.73	58.51
596.88	105.32
597.04	42.13
597.20	84.26
597.36	18.72
597.51	21.06
597.67	42.13
597.83	88.94
597.99	81.92
598.14	35.11
598.30	0.00
598.46	67.88
598.61	84.26
598.77	39.79
598.93	42.13
599.09	63.19
599.24	9.36
599.40	46.81
599.56	23.41
599.71	91.28
599.87	51.49
600.03	4.68
600.18	60.85
600.34	16.38
600.50	9.36
600.65	16.38
600.81	37.45
600.97	4.68
601.12	114.69
601.28	72.56
601.44	88.94
601.59	39.79
601.75	37.45
601.91	67.88
602.06	14.04
602.22	128.73
602.37	74.90
602.53	28.09
602.69	21.06
602.84	0.00
603.00	44.47
603.16	25.75
603.31	39.79
603.47	37.45
603.62	16.38
603.78	0.00
603.94	88.94
604.09	51.49
604.25	67.88
604.40	0.00
604.56	98.30
604.71	4.68
604.87	56.17
605.03	39.79
605.18	18.72
605.34	95.96
605.49	14.04
605.65	49.15
605.80	98.30
605.96	72.56
606.12	30.43
606.27	86.60
606.43	77.24
606.58	63.19
606.74	32.77
606.89	28.09
607.05	39.79
607.20	30.43
607.36	65.54
607.51	63.19
607.67	98.30
607.82	102.98
607.98	37.45
608.13	102.98
608.29	100.64
608.44	49.15
608.60	79.58
608.75	16.38
608.91	49.15
609.06	11.70
609.22	46.81
609.37	9.36
609.53	16.38
609.68	74.90
609.84	72.56
609.99	117.03
610.15	7.02
610.30	37.45
610.46	0.00
610.61	42.13
610.76	23.41
610.92	39.79
611.07	81.92
611.23	0.00
611.38	74.90
611.54	30.43
611.69	0.00
611.84	65.54
612.00	65.54
612.15	0.00
612.31	9.36
612.46	37.45
612.62	51.49
612.77	74.90
612.92	65.54
613.08	67.88
613.23	7.02
613.39	28.09
613.54	32.77
613.69	0.00
613.85	0.00
614.00	18.72
614.15	4.68
614.31	112.35
614.46	67.88
614.62	4.68
614.77	0.00
614.92	21.06
615.08	35.11
615.23	70.22
615.38	81.92
615.54	49.15
615.69	84.26
615.84	63.19
616.00	105.32
616.15	77.24
616.30	28.09
616.46	44.47
616.61	14.04
616.76	67.88
616.92	56.17
617.07	21.06
617.22	35.11
617.37	63.19
617.53	23.41
617.68	77.24
617.83	88.94
617.99	81.92
618.14	74.90
618.29	0.00
618.45	0.00
618.60	77.24
618.75	25.75
618.90	74.90
619.06	135.75
619.21	35.11
619.36	44.47
619.51	28.09
619.67	9.36
619.82	18.72
619.97	46.81
620.12	91.28
620.28	28.09
620.43	0.00
620.58	0.00
620.73	37.45
620.89	14.04
621.04	0.00
621.19	0.00
621.34	84.26
621.49	32.77
621.65	37.45
621.80	60.85
621.95	42.13
622.10	32.77
622.25	0.00
622.41	35.11
622.56	63.19
622.71	44.47
622.86	18.72
623.01	100.64
623.16	11.70
623.32	49.15
623.47	9.36
623.62	79.58
623.77	42.13
623.92	93.62
624.07	65.54
624.23	53.83
624.38	14.04
624.53	65.54
624.68	21.06
624.83	0.00
624.98	25.75
625.13	0.00
625.29	21.06
625.44	56.17
625.59	60.85
625.74	37.45
625.89	39.79
626.04	42.13
626.19	98.30
626.34	60.85
626.49	35.11
626.65	65.54
626.80	65.54
626.95	0.00
627.10	35.11
627.25	32.77
627.40	2.34
627.55	14.04
627.70	56.17
627.85	0.00
628.00	0.00
628.15	65.54
628.30	25.75
628.45	65.54
628.60	28.09
628.76	84.26
628.91	25.75
629.06	18.72
629.21	51.49
629.36	42.13
629.51	4.68
629.66	14.04
629.81	32.77
629.96	65.54
630.11	84.26
630.26	16.38
630.41	39.79
630.56	65.54
630.71	79.58
630.86	98.30
631.01	100.64
631.16	131.07
631.31	51.49
631.46	79.58
631.61	42.13
631.76	32.77
631.91	74.90
632.06	88.94
632.21	110.01
632.36	35.11
632.51	14.04
632.66	128.73
632.81	25.75
632.96	63.19
633.10	14.04
633.25	63.19
633.40	16.38
633.55	131.07
633.70	0.00
633.85	53.83
634.00	65.54
634.15	53.83
634.30	46.81
634.45	84.26
634.60	0.00
634.75	18.72
634.90	16.38
635.05	39.79
635.19	16.38
635.34	53.83
635.49	42.13
635.64	0.00
635.79	37.45
635.94	49.15
636.09	67.88
636.24	25.75
636.39	11.70
636.53	86.60
636.68	63.19
636.83	70.22
636.98	16.38
637.13	14.04
637.28	67.88
637.43	44.47
637.57	102.98
637.72	128.73
637.87	56.17
638.02	105.32
638.17	9.36
638.32	65.54
638.46	37.45
638.61	32.77
638.76	74.90
638.91	56.17
639.06	70.22
639.20	84.26
639.35	46.81
639.50	0.00
639.65	25.75
639.80	0.00
639.94	35.11
640.09	51.49
640.24	53.83
640.39	49.15
640.54	121.71
640.68	0.00
640.83	110.01
640.98	0.00
641.13	18.72
641.27	0.00
641.42	53.83
641.57	72.56
641.72	21.06
641.86	16.38
642.01	23.41
642.16	25.75
642.31	35.11
642.45	88.94
642.60	11.70
642.75	53.83
642.90	95.96
643.04	67.88
643.19	4.68
643.34	81.92
643.48	0.00
643.63	72.56
643.78	18.72
643.93	0.00
644.07	11.70
644.22	16.38
644.37	4.68
644.51	65.54
644.66	58.51
644.81	0.00
644.95	25.75
645.10	0.00
645.25	0.00
645.39	42.13
645.54	25.75
645.69	0.00
645.83	42.13
645.98	46.81
646.13	46.81
646.27	32.77
646.42	35.11
646.57	30.43
646.71	0.00
646.86	0.00
647.00	23.41
647.15	46.81
647.30	0.00
647.44	35.11
647.59	65.54
647.74	25.75
647.88	14.04
648.03	88.94
648.17	18.72
648.32	65.54
648.47	53.83
648.61	16.38
648.76	49.15
648.90	53.83
649.05	0.00
649.20	37.45
649.34	84.26
649.49	39.79
649.63	58.51
649.78	42.13
649.92	14.04
650.07	53.83
650.21	60.85
650.36	88.94
650.51	98.30
650.65	44.47
650.80	0.00
650.94	30.43
651.09	58.51
651.23	58.51
651.38	56.17
651.52	70.22
651.67	63.19
651.81	72.56
651.96	32.77
652.10	56.17
652.25	0.00
652.39	35.11
652.54	60.85
652.68	124.05
652.83	72.56
652.97	0.00
653.12	28.09
653.26	16.38
653.41	42.13
653.55	0.00
653.70	58.51
653.84	86.60
653.99	56.17
654.13	53.83
654.27	32.77
654.42	49.15
654.56	37.45
654.71	30.43
654.85	0.00
655.00	16.38
655.14	32.77
655.29	0.00
655.43	0.00
655.57	28.09
655.72	49.15
655.86	44.47
656.01	86.60
656.15	14.04
656.30	63.19
656.44	2.34
656.58	77.24
656.73	0.00
656.87	0.00
657.01	81.92
657.16	53.83
657.30	72.56
657.45	21.06
657.59	63.19
657.73	0.00
657.88	105.32
658.02	18.72
658.16	9.36
658.31	16.38
658.45	9.36
658.60	2.34
658.74	30.43
658.88	35.11
659.03	77.24
659.17	16.38
659.31	0.00
659.46	28.09
659.60	0.00
659.74	0.00
659.89	49.15
660.03	86.60
660.17	49.15
660.32	77.24
660.46	70.22
660.60	0.00
660.74	4.68
660.89	49.15
661.03	30.43
661.17	14.04
661.32	44.47
661.46	49.15
661.60	7.02
661.74	53.83
661.89	18.72
662.03	44.47
662.17	70.22
662.31	98.30
662.46	53.83
662.60	4.68
662.74	0.00
662.88	42.13
663.03	0.00
663.17	56.17
663.31	72.56
663.45	0.00
663.60	67.88
663.74	72.56
663.88	11.70
664.02	65.54
664.17	67.88
664.31	77.24
664.45	25.75
664.59	0.00
664.73	51.49
664.88	42.13
665.02	0.00
665.16	98.30
665.30	14.04
665.44	65.54
665.59	60.85
665.73	119.37
665.87	81.92
666.01	35.11
666.15	0.00
666.29	58.51
666.44	7.02
666.58	53.83
666.72	88.94
666.86	70.22
667.00	18.72
667.14	37.45
667.28	37.45
667.43	7.02
667.57	42.13
667.71	0.00
667.85	63.19
667.99	86.60
668.13	63.19
668.27	0.00
668.41	102.98
668.56	79.58
668.70	51.49
668.84	51.49
668.98	21.06
669.12	18.72
669.26	0.00
669.40	51.49
669.54	88.94
669.68	25.75
669.82	98.30
669.96	46.81
670.10	107.66
670.25	63.19
670.39	88.94
670.53	56.17
670.67	0.00
670.81	0.00
670.95	11.70
671.09	56.17
671.23	0.00
671.37	28.09
671.51	0.00
671.65	42.13
671.79	79.58
671.93	11.70
672.07	84.26
672.21	18.72
672.35	39.79
672.49	0.00
672.63	72.56
672.77	42.13
672.91	37.45
673.05	79.58
673.19	81.92
673.33	74.90
673.47	0.00
673.61	49.15
673.75	28.09
673.89	77.24
674.03	60.85
674.17	4.68
674.31	14.04
674.45	107.66
674.59	18.72
674.73	84.26
674.87	44.47
675.01	7.02
675.15	56.17
675.29	67.88
675.43	25.75
675.56	16.38
675.70	67.88
675.84	0.00
675.98	49.15
676.12	63.19
676.26	163.84
676.40	18.72
676.54	0.00
676.68	0.00
676.82	32.77
676.96	44.47
677.10	72.56
677.23	53.83
677.37	65.54
677.51	56.17
677.65	65.54
677.79	9.36
677.93	0.00
678.07	46.81
678.21	84.26
678.34	9.36
678.48	18.72
678.62	2.34
678.76	4.68
678.90	42.13
679.04	11.70
679.18	44.47
679.31	16.38
679.45	0.00
679.59	53.83
679.73	65.54
679.87	84.26
680.00	28.09
680.14	0.00
680.28	0.00
680.42	79.58
680.56	88.94
680.70	9.36
680.83	35.11
680.97	30.43
681.11	72.56
681.25	0.00
681.39	37.45
681.52	39.79
681.66	7.02
681.80	53.83
681.94	28.09
682.07	42.13
682.21	0.00
682.35	7.02
682.49	4.68
682.62	32.77
682.76	14.04
682.90	23.41
683.04	63.19
683.17	9.36
683.31	49.15
683.45	58.51
683.59	39.79
683.72	51.49
683.86	119.37
684.00	58.51
684.13	63.19
684.27	18.72
684.41	0.00
684.55	70.22
684.68	37.45
684.82	58.51
684.96	14.04
685.09	0.00
685.23	39.79
685.37	42.13
685.50	30.43
685.64	60.85
685.78	0.00
685.91	53.83
686.05	74.90
686.19	9.36
686.32	25.75
686.46	77.24
686.60	16.38
686.73	30.43
686.87	23.41
687.01	37.45
687.14	21.06
687.28	28.09
687.42	0.00
687.55	18.72
687.69	67.88
687.82	63.19
687.96	0.00
688.10	0.00
688.23	51.49
688.37	18.72
688.50	11.70
688.64	91.28
688.78	88.94
688.91	135.75
689.05	23.41
689.18	39.79
689.32	0.00
689.46	18.72
689.59	0.00
689.73	46.81
689.86	86.60
690.00	30.43
690.13	14.04
690.27	0.00
690.41	98.30
690.54	74.90
690.68	72.56
690.81	11.70
690.95	0.00
691.08	14.04
691.22	39.79
691.35	0.00
691.49	0.00
691.62	49.15
691.76	32.77
691.89	0.00
692.03	63.19
692.16	79.58
692.30	0.00
692.43	0.00
692.57	25.75
692.70	39.79
692.84	28.09
692.97	0.00
693.11	0.00
693.24	49.15
693.38	49.15
693.51	70.22
693.65	16.38
693.78	16.38
693.92	18.72
694.05	42.13
694.19	60.85
694.32	32.77
694.45	0.00
694.59	58.51
694.72	49.15
694.86	0.00
694.99	30.43
695.13	56.17
695.26	21.06
695.39	11.70
695.53	0.00
695.66	88.94
695.80	105.32
695.93	51.49
696.07	0.00
696.20	0.00
696.33	0.00
696.47	0.00
696.60	21.06
696.73	49.15
696.87	0.00
697.00	42.13
697.14	60.85
697.27	49.15
697.40	30.43
697.54	32.77
697.67	126.39
697.80	49.15
697.94	81.92
698.07	56.17
698.21	0.00
698.34	0.00
698.47	14.04
698.61	21.06
698.74	0.00
698.87	30.43
699.01	0.00
699.14	28.09
699.27	4.68
699.40	88.94
699.54	9.36
699.67	9.36
699.80	28.09
699.94	65.54
700.07	0.00
700.20	121.71
700.34	23.41
700.47	44.47
700.60	119.37
700.73	0.00
700.87	14.04
701.00	7.02
701.13	49.15
701.26	65.54
701.40	25.75
701.53	25.75
701.66	0.00
701.79	0.00
701.93	63.19
702.06	37.45
702.19	49.15
702.32	77.24
702.46	56.17
702.59	37.45
702.72	11.70
702.85	16.38
702.99	35.11
703.12	0.00
703.25	60.85
703.38	91.28
703.51	0.00
703.65	7.02
703.78	0.00
703.91	18.72
704.04	56.17
704.17	74.90
704.31	0.00
704.44	110.01
704.57	32.77
704.70	0.00
704.83	9.36
704.96	74.90
705.10	84.26
705.23	77.24
>>>>>End Processed Spectral Data<<<<<
