SpectraSuite Data File
++++++++++++++++++++++++++++++++++++
Date: Fri Oct 04 12:13:38 GMT-05:00 2013
User: price-jones
Dark Spectrum Present: No
Reference Spectrum Present: No
Number of Sampled Component Spectra: 1
Spectrometers: USB2+H05261
Integration Time (usec): 10000 (USB2+H05261)
Spectra Averaged: 1 (USB2+H05261)
Boxcar Smoothing: 0 (USB2+H05261)
Correct for Electrical Dark: No (USB2+H05261)
Strobe/Lamp Enabled: No (USB2+H05261)
Correct for Detector Non-linearity: No (USB2+H05261)
Correct for Stray Light: No (USB2+H05261)
Number of Pixels in Processed Spectrum: 2048
>>>>>Begin Processed Spectral Data<<<<<
365.73	0.00
365.92	0.00
366.12	0.00
366.32	0.00
366.52	0.00
366.72	0.00
366.91	0.00
367.11	0.00
367.31	0.00
367.51	0.00
367.70	0.00
367.90	0.00
368.10	0.00
368.30	0.00
368.49	0.00
368.69	0.00
368.89	0.00
369.09	0.00
369.28	0.00
369.48	0.00
369.68	0.00
369.87	0.00
370.07	0.00
370.27	0.00
370.47	0.00
370.66	0.00
370.86	42.13
371.06	0.00
371.25	0.00
371.45	0.00
371.65	4.68
371.84	30.43
372.04	18.72
372.24	60.85
372.44	0.00
372.63	9.36
372.83	0.00
373.03	56.17
373.22	9.36
373.42	21.06
373.62	98.30
373.81	21.06
374.01	42.13
374.21	23.41
374.40	37.45
374.60	51.49
374.79	98.30
374.99	72.56
375.19	58.51
375.38	42.13
375.58	21.06
375.78	60.85
375.97	0.00
376.17	23.41
376.37	98.30
376.56	105.32
376.76	7.02
376.95	11.70
377.15	14.04
377.35	16.38
377.54	21.06
377.74	32.77
377.93	16.38
378.13	86.60
378.33	0.00
378.52	0.00
378.72	16.38
378.91	7.02
379.11	32.77
379.31	23.41
379.50	0.00
379.70	58.51
379.89	21.06
380.09	95.96
380.28	0.00
380.48	0.00
380.68	0.00
380.87	14.04
381.07	72.56
381.26	56.17
381.46	39.79
381.65	0.00
381.85	32.77
382.04	23.41
382.24	0.00
382.43	60.85
382.63	23.41
382.83	49.15
383.02	0.00
383.22	14.04
383.41	21.06
383.61	46.81
383.80	9.36
384.00	18.72
384.19	23.41
384.39	25.75
384.58	58.51
384.78	0.00
384.97	11.70
385.17	35.11
385.36	2.34
385.56	28.09
385.75	18.72
385.95	53.83
386.14	72.56
386.34	0.00
386.53	0.00
386.72	16.38
386.92	74.90
387.11	74.90
387.31	46.81
387.50	28.09
387.70	86.60
387.89	49.15
388.09	77.24
388.28	0.00
388.48	0.00
388.67	0.00
388.86	35.11
389.06	70.22
389.25	7.02
389.45	35.11
389.64	81.92
389.84	98.30
390.03	11.70
390.22	53.83
390.42	37.45
390.61	4.68
390.81	18.72
391.00	14.04
391.19	0.00
391.39	14.04
391.58	11.70
391.78	49.15
391.97	53.83
392.16	11.70
392.36	35.11
392.55	7.02
392.75	51.49
392.94	0.00
393.13	0.00
393.33	74.90
393.52	4.68
393.71	32.77
393.91	0.00
394.10	63.19
394.29	46.81
394.49	21.06
394.68	72.56
394.88	32.77
395.07	25.75
395.26	0.00
395.46	0.00
395.65	0.00
395.84	0.00
396.04	0.00
396.23	18.72
396.42	0.00
396.62	14.04
396.81	18.72
397.00	11.70
397.19	0.00
397.39	51.49
397.58	39.79
397.77	2.34
397.97	18.72
398.16	2.34
398.35	63.19
398.55	28.09
398.74	51.49
398.93	65.54
399.12	14.04
399.32	0.00
399.51	30.43
399.70	35.11
399.90	18.72
400.09	7.02
400.28	28.09
400.47	56.17
400.67	37.45
400.86	32.77
401.05	32.77
401.24	28.09
401.44	21.06
401.63	28.09
401.82	39.79
402.01	42.13
402.21	2.34
402.40	60.85
402.59	7.02
402.78	14.04
402.97	30.43
403.17	30.43
403.36	60.85
403.55	95.96
403.74	11.70
403.93	0.00
404.13	32.77
404.32	0.00
404.51	0.00
404.70	39.79
404.89	39.79
405.09	67.88
405.28	95.96
405.47	0.00
405.66	126.39
405.85	67.88
406.05	16.38
406.24	0.00
406.43	42.13
406.62	42.13
406.81	117.03
407.00	53.83
407.20	95.96
407.39	67.88
407.58	60.85
407.77	51.49
407.96	88.94
408.15	0.00
408.34	11.70
408.54	70.22
408.73	65.54
408.92	25.75
409.11	49.15
409.30	65.54
409.49	2.34
409.68	81.92
409.87	28.09
410.07	70.22
410.26	117.03
410.45	0.00
410.64	63.19
410.83	30.43
411.02	70.22
411.21	14.04
411.40	44.47
411.59	63.19
411.78	0.00
411.98	42.13
412.17	77.24
412.36	74.90
412.55	42.13
412.74	86.60
412.93	86.60
413.12	79.58
413.31	4.68
413.50	25.75
413.69	77.24
413.88	0.00
414.07	23.41
414.26	11.70
414.45	60.85
414.64	49.15
414.83	77.24
415.02	49.15
415.22	117.03
415.41	98.30
415.60	79.58
415.79	63.19
415.98	93.62
416.17	28.09
416.36	37.45
416.55	117.03
416.74	95.96
416.93	46.81
417.12	84.26
417.31	51.49
417.50	53.83
417.69	114.69
417.88	11.70
418.07	46.81
418.26	25.75
418.45	81.92
418.64	84.26
418.83	23.41
419.02	72.56
419.21	58.51
419.39	21.06
419.58	81.92
419.77	21.06
419.96	39.79
420.15	25.75
420.34	95.96
420.53	112.35
420.72	25.75
420.91	37.45
421.10	7.02
421.29	28.09
421.48	56.17
421.67	0.00
421.86	70.22
422.05	46.81
422.24	0.00
422.43	56.17
422.61	60.85
422.80	44.47
422.99	16.38
423.18	0.00
423.37	0.00
423.56	39.79
423.75	28.09
423.94	60.85
424.13	0.00
424.32	30.43
424.50	39.79
424.69	65.54
424.88	93.62
425.07	0.00
425.26	32.77
425.45	0.00
425.64	65.54
425.83	16.38
426.01	100.64
426.20	32.77
426.39	0.00
426.58	79.58
426.77	70.22
426.96	0.00
427.15	16.38
427.33	56.17
427.52	2.34
427.71	72.56
427.90	11.70
428.09	42.13
428.28	166.18
428.46	0.00
428.65	23.41
428.84	0.00
429.03	7.02
429.22	30.43
429.40	37.45
429.59	0.00
429.78	0.00
429.97	37.45
430.16	56.17
430.34	14.04
430.53	14.04
430.72	88.94
430.91	14.04
431.10	0.00
431.28	100.64
431.47	60.85
431.66	16.38
431.85	21.06
432.03	25.75
432.22	23.41
432.41	42.13
432.60	9.36
432.79	46.81
432.97	25.75
433.16	4.68
433.35	63.19
433.54	25.75
433.72	4.68
433.91	9.36
434.10	72.56
434.28	0.00
434.47	58.51
434.66	7.02
434.85	72.56
435.03	46.81
435.22	42.13
435.41	0.00
435.59	79.58
435.78	32.77
435.97	72.56
436.16	65.54
436.34	32.77
436.53	49.15
436.72	56.17
436.90	7.02
437.09	74.90
437.28	46.81
437.46	53.83
437.65	98.30
437.84	28.09
438.02	4.68
438.21	30.43
438.40	2.34
438.58	131.07
438.77	49.15
438.96	35.11
439.14	70.22
439.33	74.90
439.52	16.38
439.70	63.19
439.89	63.19
440.08	30.43
440.26	53.83
440.45	79.58
440.63	60.85
440.82	98.30
441.01	84.26
441.19	0.00
441.38	0.00
441.57	30.43
441.75	28.09
441.94	28.09
442.12	30.43
442.31	21.06
442.50	72.56
442.68	23.41
442.87	0.00
443.05	60.85
443.24	53.83
443.43	91.28
443.61	0.00
443.80	18.72
443.98	86.60
444.17	77.24
444.35	44.47
444.54	53.83
444.73	98.30
444.91	18.72
445.10	100.64
445.28	14.04
445.47	16.38
445.65	4.68
445.84	30.43
446.02	32.77
446.21	30.43
446.39	9.36
446.58	58.51
446.77	0.00
446.95	0.00
447.14	42.13
447.32	60.85
447.51	37.45
447.69	79.58
447.88	53.83
448.06	70.22
448.25	63.19
448.43	107.66
448.62	32.77
448.80	23.41
448.99	16.38
449.17	77.24
449.36	0.00
449.54	124.05
449.73	46.81
449.91	4.68
450.10	23.41
450.28	11.70
450.46	18.72
450.65	105.32
450.83	28.09
451.02	39.79
451.20	25.75
451.39	65.54
451.57	25.75
451.76	117.03
451.94	39.79
452.13	53.83
452.31	58.51
452.49	32.77
452.68	32.77
452.86	30.43
453.05	32.77
453.23	86.60
453.42	28.09
453.60	65.54
453.78	117.03
453.97	14.04
454.15	72.56
454.34	42.13
454.52	91.28
454.70	0.00
454.89	32.77
455.07	49.15
455.26	74.90
455.44	42.13
455.62	2.34
455.81	37.45
455.99	0.00
456.17	30.43
456.36	30.43
456.54	98.30
456.73	0.00
456.91	35.11
457.09	84.26
457.28	0.00
457.46	63.19
457.64	128.73
457.83	46.81
458.01	0.00
458.19	0.00
458.38	32.77
458.56	100.64
458.74	32.77
458.93	23.41
459.11	44.47
459.29	46.81
459.48	91.28
459.66	37.45
459.84	11.70
460.03	32.77
460.21	56.17
460.39	0.00
460.57	56.17
460.76	51.49
460.94	32.77
461.12	114.69
461.31	131.07
461.49	124.05
461.67	58.51
461.85	25.75
462.04	91.28
462.22	168.52
462.40	2.34
462.59	72.56
462.77	70.22
462.95	72.56
463.13	79.58
463.32	93.62
463.50	18.72
463.68	102.98
463.86	46.81
464.05	91.28
464.23	147.45
464.41	58.51
464.59	60.85
464.78	79.58
464.96	72.56
465.14	79.58
465.32	42.13
465.50	18.72
465.69	56.17
465.87	42.13
466.05	91.28
466.23	9.36
466.41	77.24
466.60	4.68
466.78	58.51
466.96	63.19
467.14	53.83
467.32	23.41
467.51	84.26
467.69	102.98
467.87	32.77
468.05	65.54
468.23	51.49
468.41	79.58
468.60	65.54
468.78	35.11
468.96	35.11
469.14	53.83
469.32	0.00
469.50	0.00
469.69	121.71
469.87	140.43
470.05	28.09
470.23	18.72
470.41	70.22
470.59	35.11
470.77	93.62
470.95	30.43
471.14	16.38
471.32	14.04
471.50	77.24
471.68	51.49
471.86	46.81
472.04	0.00
472.22	25.75
472.40	0.00
472.58	18.72
472.77	74.90
472.95	25.75
473.13	91.28
473.31	21.06
473.49	51.49
473.67	60.85
473.85	100.64
474.03	95.96
474.21	102.98
474.39	25.75
474.57	21.06
474.75	74.90
474.93	86.60
475.12	16.38
475.30	42.13
475.48	0.00
475.66	0.00
475.84	81.92
476.02	37.45
476.20	44.47
476.38	77.24
476.56	133.41
476.74	30.43
476.92	67.88
477.10	35.11
477.28	39.79
477.46	56.17
477.64	0.00
477.82	44.47
478.00	23.41
478.18	56.17
478.36	63.19
478.54	86.60
478.72	0.00
478.90	0.00
479.08	35.11
479.26	56.17
479.44	37.45
479.62	65.54
479.80	133.41
479.98	42.13
480.16	56.17
480.34	93.62
480.52	0.00
480.70	74.90
480.88	91.28
481.06	46.81
481.24	140.43
481.41	0.00
481.59	0.00
481.77	93.62
481.95	67.88
482.13	4.68
482.31	53.83
482.49	25.75
482.67	77.24
482.85	81.92
483.03	142.77
483.21	128.73
483.39	53.83
483.57	100.64
483.74	79.58
483.92	84.26
484.10	4.68
484.28	142.77
484.46	65.54
484.64	28.09
484.82	0.00
485.00	28.09
485.18	28.09
485.35	70.22
485.53	49.15
485.71	56.17
485.89	0.00
486.07	53.83
486.25	86.60
486.43	28.09
486.61	46.81
486.78	16.38
486.96	51.49
487.14	30.43
487.32	65.54
487.50	56.17
487.68	65.54
487.85	74.90
488.03	67.88
488.21	65.54
488.39	81.92
488.57	63.19
488.75	124.05
488.92	149.79
489.10	121.71
489.28	70.22
489.46	91.28
489.64	102.98
489.81	74.90
489.99	67.88
490.17	152.13
490.35	100.64
490.53	67.88
490.70	74.90
490.88	161.50
491.06	16.38
491.24	74.90
491.41	53.83
491.59	77.24
491.77	65.54
491.95	37.45
492.13	65.54
492.30	84.26
492.48	79.58
492.66	65.54
492.84	84.26
493.01	72.56
493.19	58.51
493.37	18.72
493.54	86.60
493.72	140.43
493.90	42.13
494.08	42.13
494.25	131.07
494.43	147.45
494.61	65.54
494.79	124.05
494.96	93.62
495.14	81.92
495.32	105.32
495.49	7.02
495.67	30.43
495.85	131.07
496.02	98.30
496.20	81.92
496.38	44.47
496.55	100.64
496.73	74.90
496.91	58.51
497.09	46.81
497.26	142.77
497.44	107.66
497.62	84.26
497.79	44.47
497.97	32.77
498.14	0.00
498.32	81.92
498.50	46.81
498.67	37.45
498.85	23.41
499.03	81.92
499.20	93.62
499.38	100.64
499.56	131.07
499.73	105.32
499.91	98.30
500.08	72.56
500.26	98.30
500.44	126.39
500.61	131.07
500.79	42.13
500.97	63.19
501.14	65.54
501.32	16.38
501.49	128.73
501.67	77.24
501.84	14.04
502.02	23.41
502.20	67.88
502.37	135.75
502.55	152.13
502.72	56.17
502.90	79.58
503.07	72.56
503.25	93.62
503.43	138.09
503.60	28.09
503.78	105.32
503.95	42.13
504.13	72.56
504.30	21.06
504.48	53.83
504.65	168.52
504.83	95.96
505.01	102.98
505.18	44.47
505.36	72.56
505.53	121.71
505.71	53.83
505.88	84.26
506.06	58.51
506.23	98.30
506.41	102.98
506.58	53.83
506.76	117.03
506.93	35.11
507.11	77.24
507.28	86.60
507.46	44.47
507.63	100.64
507.81	91.28
507.98	98.30
508.16	32.77
508.33	72.56
508.50	145.11
508.68	30.43
508.85	46.81
509.03	81.92
509.20	196.60
509.38	72.56
509.55	114.69
509.73	138.09
509.90	138.09
510.08	93.62
510.25	56.17
510.42	53.83
510.60	37.45
510.77	21.06
510.95	70.22
511.12	58.51
511.30	53.83
511.47	124.05
511.64	65.54
511.82	79.58
511.99	49.15
512.17	32.77
512.34	42.13
512.51	77.24
512.69	46.81
512.86	93.62
513.04	100.64
513.21	102.98
513.38	65.54
513.56	114.69
513.73	100.64
513.90	49.15
514.08	112.35
514.25	35.11
514.43	105.32
514.60	46.81
514.77	60.85
514.95	63.19
515.12	149.79
515.29	79.58
515.47	98.30
515.64	126.39
515.81	93.62
515.99	53.83
516.16	46.81
516.33	142.77
516.51	128.73
516.68	49.15
516.85	46.81
517.03	77.24
517.20	58.51
517.37	16.38
517.54	147.45
517.72	126.39
517.89	70.22
518.06	53.83
518.24	191.92
518.41	25.75
518.58	88.94
518.75	42.13
518.93	4.68
519.10	145.11
519.27	65.54
519.45	163.84
519.62	91.28
519.79	39.79
519.96	126.39
520.14	65.54
520.31	60.85
520.48	100.64
520.65	60.85
520.83	65.54
521.00	37.45
521.17	84.26
521.34	107.66
521.52	112.35
521.69	102.98
521.86	98.30
522.03	42.13
522.20	53.83
522.38	58.51
522.55	37.45
522.72	65.54
522.89	138.09
523.07	79.58
523.24	140.43
523.41	72.56
523.58	84.26
523.75	30.43
523.92	95.96
524.10	81.92
524.27	0.00
524.44	74.90
524.61	79.58
524.78	110.01
524.96	58.51
525.13	56.17
525.30	67.88
525.47	63.19
525.64	49.15
525.81	119.37
525.98	100.64
526.16	84.26
526.33	18.72
526.50	23.41
526.67	51.49
526.84	128.73
527.01	93.62
527.18	32.77
527.36	161.50
527.53	70.22
527.70	98.30
527.87	53.83
528.04	114.69
528.21	28.09
528.38	93.62
528.55	117.03
528.72	112.35
528.89	63.19
529.07	100.64
529.24	142.77
529.41	56.17
529.58	95.96
529.75	7.02
529.92	79.58
530.09	81.92
530.26	65.54
530.43	124.05
530.60	168.52
530.77	128.73
530.94	145.11
531.11	135.75
531.28	110.01
531.46	100.64
531.63	131.07
531.80	161.50
531.97	112.35
532.14	95.96
532.31	135.75
532.48	88.94
532.65	32.77
532.82	140.43
532.99	105.32
533.16	53.83
533.33	44.47
533.50	42.13
533.67	86.60
533.84	44.47
534.01	124.05
534.18	56.17
534.35	86.60
534.52	72.56
534.69	74.90
534.86	145.11
535.03	70.22
535.20	25.75
535.37	145.11
535.54	25.75
535.71	53.83
535.88	91.28
536.05	51.49
536.22	56.17
536.38	56.17
536.55	95.96
536.72	79.58
536.89	98.30
537.06	77.24
537.23	88.94
537.40	70.22
537.57	135.75
537.74	126.39
537.91	163.84
538.08	107.66
538.25	58.51
538.42	84.26
538.59	53.83
538.75	60.85
538.92	110.01
539.09	152.13
539.26	74.90
539.43	98.30
539.60	84.26
539.77	86.60
539.94	145.11
540.11	102.98
540.28	60.85
540.44	49.15
540.61	16.38
540.78	117.03
540.95	81.92
541.12	98.30
541.29	4.68
541.46	91.28
541.62	30.43
541.79	93.62
541.96	25.75
542.13	84.26
542.30	105.32
542.47	60.85
542.63	60.85
542.80	81.92
542.97	39.79
543.14	117.03
543.31	95.96
543.48	46.81
543.64	74.90
543.81	77.24
543.98	91.28
544.15	49.15
544.32	28.09
544.48	42.13
544.65	126.39
544.82	112.35
544.99	63.19
545.16	23.41
545.32	91.28
545.49	114.69
545.66	140.43
545.83	60.85
546.00	107.66
546.16	110.01
546.33	79.58
546.50	126.39
546.67	72.56
546.83	53.83
547.00	110.01
547.17	23.41
547.34	63.19
547.50	117.03
547.67	105.32
547.84	117.03
548.00	105.32
548.17	53.83
548.34	70.22
548.51	67.88
548.67	133.41
548.84	56.17
549.01	95.96
549.18	37.45
549.34	98.30
549.51	42.13
549.68	91.28
549.84	32.77
550.01	18.72
550.18	74.90
550.34	60.85
550.51	138.09
550.68	105.32
550.84	46.81
551.01	128.73
551.18	74.90
551.34	42.13
551.51	60.85
551.68	70.22
551.84	49.15
552.01	93.62
552.18	131.07
552.34	77.24
552.51	72.56
552.68	58.51
552.84	77.24
553.01	149.79
553.18	102.98
553.34	147.45
553.51	4.68
553.67	114.69
553.84	215.33
554.01	142.77
554.17	32.77
554.34	93.62
554.51	119.37
554.67	42.13
554.84	67.88
555.00	163.84
555.17	21.06
555.33	121.71
555.50	91.28
555.67	32.77
555.83	16.38
556.00	25.75
556.16	67.88
556.33	100.64
556.50	140.43
556.66	117.03
556.83	84.26
556.99	119.37
557.16	60.85
557.32	105.32
557.49	95.96
557.65	124.05
557.82	32.77
557.98	95.96
558.15	119.37
558.32	110.01
558.48	65.54
558.65	119.37
558.81	131.07
558.98	70.22
559.14	58.51
559.31	86.60
559.47	63.19
559.64	60.85
559.80	70.22
559.97	74.90
560.13	98.30
560.30	112.35
560.46	154.48
560.63	196.60
560.79	65.54
560.96	79.58
561.12	42.13
561.29	121.71
561.45	98.30
561.61	84.26
561.78	84.26
561.94	98.30
562.11	49.15
562.27	100.64
562.44	95.96
562.60	79.58
562.77	60.85
562.93	49.15
563.10	173.20
563.26	44.47
563.42	81.92
563.59	166.18
563.75	124.05
563.92	72.56
564.08	149.79
564.24	14.04
564.41	138.09
564.57	124.05
564.74	95.96
564.90	65.54
565.07	60.85
565.23	9.36
565.39	131.07
565.56	84.26
565.72	46.81
565.88	35.11
566.05	63.19
566.21	67.88
566.38	98.30
566.54	112.35
566.70	93.62
566.87	53.83
567.03	91.28
567.19	119.37
567.36	114.69
567.52	142.77
567.68	119.37
567.85	70.22
568.01	0.00
568.17	81.92
568.34	156.82
568.50	140.43
568.66	98.30
568.83	11.70
568.99	56.17
569.15	63.19
569.32	21.06
569.48	60.85
569.64	4.68
569.81	84.26
569.97	107.66
570.13	100.64
570.30	32.77
570.46	88.94
570.62	117.03
570.78	56.17
570.95	133.41
571.11	14.04
571.27	74.90
571.43	42.13
571.60	81.92
571.76	51.49
571.92	88.94
572.09	18.72
572.25	86.60
572.41	44.47
572.57	126.39
572.74	58.51
572.90	56.17
573.06	107.66
573.22	95.96
573.38	84.26
573.55	7.02
573.71	37.45
573.87	28.09
574.03	140.43
574.20	56.17
574.36	84.26
574.52	135.75
574.68	60.85
574.84	124.05
575.01	72.56
575.17	81.92
575.33	149.79
575.49	77.24
575.65	58.51
575.82	42.13
575.98	77.24
576.14	39.79
576.30	86.60
576.46	105.32
576.62	100.64
576.79	102.98
576.95	149.79
577.11	98.30
577.27	102.98
577.43	70.22
577.59	56.17
577.75	154.48
577.92	53.83
578.08	95.96
578.24	72.56
578.40	70.22
578.56	67.88
578.72	74.90
578.88	25.75
579.04	4.68
579.21	79.58
579.37	145.11
579.53	79.58
579.69	135.75
579.85	14.04
580.01	124.05
580.17	51.49
580.33	51.49
580.49	0.00
580.65	72.56
580.82	0.00
580.98	107.66
581.14	119.37
581.30	145.11
581.46	77.24
581.62	86.60
581.78	58.51
581.94	46.81
582.10	114.69
582.26	86.60
582.42	88.94
582.58	112.35
582.74	9.36
582.90	98.30
583.06	121.71
583.22	79.58
583.38	42.13
583.54	4.68
583.70	152.13
583.86	95.96
584.02	98.30
584.18	63.19
584.34	63.19
584.50	79.58
584.66	21.06
584.82	67.88
584.98	81.92
585.14	131.07
585.30	56.17
585.46	93.62
585.62	112.35
585.78	28.09
585.94	98.30
586.10	32.77
586.26	91.28
586.42	49.15
586.58	112.35
586.74	110.01
586.90	39.79
587.06	37.45
587.22	46.81
587.38	11.70
587.54	70.22
587.70	65.54
587.86	79.58
588.02	44.47
588.18	93.62
588.34	105.32
588.49	53.83
588.65	42.13
588.81	86.60
588.97	51.49
589.13	56.17
589.29	49.15
589.45	74.90
589.61	98.30
589.77	2.34
589.93	35.11
590.08	35.11
590.24	0.00
590.40	86.60
590.56	53.83
590.72	70.22
590.88	91.28
591.04	25.75
591.20	60.85
591.35	102.98
591.51	21.06
591.67	16.38
591.83	107.66
591.99	112.35
592.15	49.15
592.31	21.06
592.46	14.04
592.62	51.49
592.78	102.98
592.94	77.24
593.10	11.70
593.26	128.73
593.41	72.56
593.57	60.85
593.73	65.54
593.89	56.17
594.05	70.22
594.20	9.36
594.36	86.60
594.52	44.47
594.68	128.73
594.84	79.58
594.99	184.90
595.15	102.98
595.31	124.05
595.47	67.88
595.62	35.11
595.78	67.88
595.94	128.73
596.10	74.90
596.25	145.11
596.41	117.03
596.57	95.96
596.73	72.56
596.88	88.94
597.04	0.00
597.20	44.47
597.36	67.88
597.51	60.85
597.67	105.32
597.83	72.56
597.99	21.06
598.14	2.34
598.30	119.37
598.46	81.92
598.61	0.00
598.77	0.00
598.93	28.09
599.09	23.41
599.24	53.83
599.40	58.51
599.56	51.49
599.71	60.85
599.87	126.39
600.03	86.60
600.18	102.98
600.34	49.15
600.50	81.92
600.65	154.48
600.81	58.51
600.97	91.28
601.12	93.62
601.28	100.64
601.44	81.92
601.59	86.60
601.75	84.26
601.91	81.92
602.06	72.56
602.22	86.60
602.37	39.79
602.53	32.77
602.69	42.13
602.84	126.39
603.00	72.56
603.16	100.64
603.31	79.58
603.47	72.56
603.62	35.11
603.78	65.54
603.94	86.60
604.09	0.00
604.25	28.09
604.40	98.30
604.56	128.73
604.71	140.43
604.87	67.88
605.03	88.94
605.18	58.51
605.34	74.90
605.49	65.54
605.65	107.66
605.80	107.66
605.96	110.01
606.12	93.62
606.27	91.28
606.43	60.85
606.58	56.17
606.74	46.81
606.89	42.13
607.05	110.01
607.20	37.45
607.36	30.43
607.51	49.15
607.67	81.92
607.82	30.43
607.98	102.98
608.13	84.26
608.29	88.94
608.44	7.02
608.60	28.09
608.75	0.00
608.91	4.68
609.06	56.17
609.22	86.60
609.37	77.24
609.53	51.49
609.68	37.45
609.84	25.75
609.99	25.75
610.15	114.69
610.30	79.58
610.46	114.69
610.61	81.92
610.76	58.51
610.92	131.07
611.07	25.75
611.23	84.26
611.38	112.35
611.54	74.90
611.69	18.72
611.84	110.01
612.00	39.79
612.15	65.54
612.31	67.88
612.46	187.24
612.62	131.07
612.77	91.28
612.92	95.96
613.08	37.45
613.23	42.13
613.39	60.85
613.54	91.28
613.69	37.45
613.85	60.85
614.00	182.56
614.15	128.73
614.31	49.15
614.46	79.58
614.62	37.45
614.77	107.66
614.92	126.39
615.08	46.81
615.23	72.56
615.38	21.06
615.54	44.47
615.69	117.03
615.84	133.41
616.00	53.83
616.15	72.56
616.30	95.96
616.46	86.60
616.61	0.00
616.76	49.15
616.92	42.13
617.07	39.79
617.22	117.03
617.37	72.56
617.53	39.79
617.68	91.28
617.83	60.85
617.99	49.15
618.14	60.85
618.29	105.32
618.45	77.24
618.60	39.79
618.75	51.49
618.90	49.15
619.06	58.51
619.21	84.26
619.36	98.30
619.51	86.60
619.67	46.81
619.82	121.71
619.97	25.75
620.12	56.17
620.28	110.01
620.43	18.72
620.58	142.77
620.73	79.58
620.89	32.77
621.04	84.26
621.19	65.54
621.34	51.49
621.49	65.54
621.65	0.00
621.80	65.54
621.95	63.19
622.10	117.03
622.25	72.56
622.41	65.54
622.56	67.88
622.71	102.98
622.86	63.19
623.01	70.22
623.16	56.17
623.32	105.32
623.47	58.51
623.62	77.24
623.77	56.17
623.92	58.51
624.07	110.01
624.23	110.01
624.38	140.43
624.53	0.00
624.68	58.51
624.83	30.43
624.98	98.30
625.13	93.62
625.29	44.47
625.44	149.79
625.59	67.88
625.74	46.81
625.89	35.11
626.04	70.22
626.19	42.13
626.34	91.28
626.49	2.34
626.65	0.00
626.80	53.83
626.95	2.34
627.10	35.11
627.25	102.98
627.40	91.28
627.55	67.88
627.70	4.68
627.85	0.00
628.00	86.60
628.15	88.94
628.30	46.81
628.45	0.00
628.60	28.09
628.76	102.98
628.91	70.22
629.06	25.75
629.21	60.85
629.36	135.75
629.51	65.54
629.66	63.19
629.81	121.71
629.96	42.13
630.11	21.06
630.26	67.88
630.41	58.51
630.56	58.51
630.71	46.81
630.86	23.41
631.01	28.09
631.16	44.47
631.31	72.56
631.46	44.47
631.61	46.81
631.76	79.58
631.91	0.00
632.06	14.04
632.21	102.98
632.36	65.54
632.51	65.54
632.66	42.13
632.81	30.43
632.96	138.09
633.10	126.39
633.25	21.06
633.40	0.00
633.55	28.09
633.70	25.75
633.85	170.86
634.00	60.85
634.15	0.00
634.30	37.45
634.45	42.13
634.60	35.11
634.75	51.49
634.90	70.22
635.05	105.32
635.19	28.09
635.34	53.83
635.49	39.79
635.64	51.49
635.79	23.41
635.94	53.83
636.09	88.94
636.24	39.79
636.39	0.00
636.53	49.15
636.68	28.09
636.83	77.24
636.98	74.90
637.13	0.00
637.28	0.00
637.43	102.98
637.57	65.54
637.72	56.17
637.87	49.15
638.02	159.16
638.17	105.32
638.32	25.75
638.46	25.75
638.61	65.54
638.76	91.28
638.91	117.03
639.06	18.72
639.20	81.92
639.35	53.83
639.50	110.01
639.65	11.70
639.80	60.85
639.94	53.83
640.09	23.41
640.24	42.13
640.39	91.28
640.54	107.66
640.68	0.00
640.83	65.54
640.98	30.43
641.13	51.49
641.27	74.90
641.42	154.48
641.57	30.43
641.72	86.60
641.86	98.30
642.01	86.60
642.16	39.79
642.31	63.19
642.45	25.75
642.60	53.83
642.75	65.54
642.90	72.56
643.04	112.35
643.19	102.98
643.34	42.13
643.48	56.17
643.63	79.58
643.78	110.01
643.93	65.54
644.07	25.75
644.22	93.62
644.37	32.77
644.51	56.17
644.66	58.51
644.81	63.19
644.95	102.98
645.10	72.56
645.25	98.30
645.39	42.13
645.54	23.41
645.69	42.13
645.83	67.88
645.98	79.58
646.13	91.28
646.27	37.45
646.42	102.98
646.57	63.19
646.71	74.90
646.86	60.85
647.00	56.17
647.15	145.11
647.30	9.36
647.44	100.64
647.59	84.26
647.74	105.32
647.88	58.51
648.03	70.22
648.17	0.00
648.32	79.58
648.47	42.13
648.61	46.81
648.76	42.13
648.90	84.26
649.05	0.00
649.20	67.88
649.34	63.19
649.49	110.01
649.63	35.11
649.78	98.30
649.92	88.94
650.07	67.88
650.21	14.04
650.36	30.43
650.51	100.64
650.65	39.79
650.80	65.54
650.94	67.88
651.09	63.19
651.23	124.05
651.38	39.79
651.52	21.06
651.67	107.66
651.81	67.88
651.96	67.88
652.10	0.00
652.25	88.94
652.39	23.41
652.54	16.38
652.68	39.79
652.83	77.24
652.97	60.85
653.12	81.92
653.26	23.41
653.41	32.77
653.55	46.81
653.70	140.43
653.84	63.19
653.99	56.17
654.13	0.00
654.27	77.24
654.42	42.13
654.56	63.19
654.71	35.11
654.85	49.15
655.00	44.47
655.14	37.45
655.29	121.71
655.43	4.68
655.57	0.00
655.72	25.75
655.86	32.77
656.01	0.00
656.15	4.68
656.30	114.69
656.44	93.62
656.58	51.49
656.73	28.09
656.87	0.00
657.01	0.00
657.16	77.24
657.30	25.75
657.45	35.11
657.59	56.17
657.73	16.38
657.88	102.98
658.02	138.09
658.16	121.71
658.31	39.79
658.45	56.17
658.60	107.66
658.74	117.03
658.88	44.47
659.03	11.70
659.17	46.81
659.31	30.43
659.46	93.62
659.60	60.85
659.74	114.69
659.89	79.58
660.03	81.92
660.17	14.04
660.32	77.24
660.46	23.41
660.60	0.00
660.74	37.45
660.89	51.49
661.03	77.24
661.17	86.60
661.32	67.88
661.46	77.24
661.60	79.58
661.74	21.06
661.89	39.79
662.03	93.62
662.17	28.09
662.31	44.47
662.46	53.83
662.60	81.92
662.74	86.60
662.88	7.02
663.03	0.00
663.17	30.43
663.31	49.15
663.45	23.41
663.60	126.39
663.74	81.92
663.88	102.98
664.02	107.66
664.17	93.62
664.31	86.60
664.45	63.19
664.59	16.38
664.73	95.96
664.88	42.13
665.02	105.32
665.16	53.83
665.30	91.28
665.44	49.15
665.59	84.26
665.73	63.19
665.87	91.28
666.01	32.77
666.15	128.73
666.29	39.79
666.44	35.11
666.58	4.68
666.72	0.00
666.86	63.19
667.00	81.92
667.14	0.00
667.28	63.19
667.43	117.03
667.57	42.13
667.71	21.06
667.85	60.85
667.99	53.83
668.13	119.37
668.27	74.90
668.41	30.43
668.56	67.88
668.70	49.15
668.84	30.43
668.98	58.51
669.12	77.24
669.26	49.15
669.40	28.09
669.54	32.77
669.68	79.58
669.82	42.13
669.96	51.49
670.10	51.49
670.25	154.48
670.39	44.47
670.53	30.43
670.67	30.43
670.81	30.43
670.95	142.77
671.09	0.00
671.23	46.81
671.37	51.49
671.51	72.56
671.65	0.00
671.79	0.00
671.93	44.47
672.07	58.51
672.21	49.15
672.35	28.09
672.49	58.51
672.63	11.70
672.77	98.30
672.91	0.00
673.05	23.41
673.19	32.77
673.33	56.17
673.47	63.19
673.61	42.13
673.75	14.04
673.89	60.85
674.03	0.00
674.17	74.90
674.31	77.24
674.45	7.02
674.59	100.64
674.73	18.72
674.87	63.19
675.01	4.68
675.15	14.04
675.29	65.54
675.43	86.60
675.56	124.05
675.70	28.09
675.84	16.38
675.98	58.51
676.12	4.68
676.26	35.11
676.40	0.00
676.54	23.41
676.68	39.79
676.82	42.13
676.96	0.00
677.10	18.72
677.23	74.90
677.37	28.09
677.51	86.60
677.65	53.83
677.79	0.00
677.93	0.00
678.07	42.13
678.21	37.45
678.34	102.98
678.48	86.60
678.62	124.05
678.76	79.58
678.90	74.90
679.04	28.09
679.18	30.43
679.31	86.60
679.45	117.03
679.59	74.90
679.73	72.56
679.87	95.96
680.00	93.62
680.14	0.00
680.28	0.00
680.42	30.43
680.56	30.43
680.70	140.43
680.83	0.00
680.97	21.06
681.11	14.04
681.25	44.47
681.39	88.94
681.52	0.00
681.66	56.17
681.80	65.54
681.94	58.51
682.07	86.60
682.21	93.62
682.35	0.00
682.49	0.00
682.62	74.90
682.76	77.24
682.90	98.30
683.04	107.66
683.17	39.79
683.31	74.90
683.45	39.79
683.59	51.49
683.72	49.15
683.86	51.49
684.00	53.83
684.13	84.26
684.27	11.70
684.41	70.22
684.55	0.00
684.68	74.90
684.82	53.83
684.96	0.00
685.09	0.00
685.23	23.41
685.37	63.19
685.50	67.88
685.64	23.41
685.78	0.00
685.91	0.00
686.05	56.17
686.19	84.26
686.32	0.00
686.46	0.00
686.60	0.00
686.73	37.45
686.87	51.49
687.01	81.92
687.14	53.83
687.28	72.56
687.42	79.58
687.55	60.85
687.69	70.22
687.82	51.49
687.96	0.00
688.10	60.85
688.23	18.72
688.37	0.00
688.50	100.64
688.64	0.00
688.78	49.15
688.91	58.51
689.05	53.83
689.18	77.24
689.32	58.51
689.46	4.68
689.59	25.75
689.73	65.54
689.86	0.00
690.00	30.43
690.13	25.75
690.27	32.77
690.41	124.05
690.54	14.04
690.68	53.83
690.81	49.15
690.95	7.02
691.08	100.64
691.22	23.41
691.35	23.41
691.49	117.03
691.62	93.62
691.76	18.72
691.89	0.00
692.03	23.41
692.16	72.56
692.30	23.41
692.43	14.04
692.57	44.47
692.70	21.06
692.84	53.83
692.97	49.15
693.11	9.36
693.24	53.83
693.38	74.90
693.51	65.54
693.65	32.77
693.78	93.62
693.92	37.45
694.05	72.56
694.19	0.00
694.32	11.70
694.45	98.30
694.59	16.38
694.72	28.09
694.86	4.68
694.99	0.00
695.13	84.26
695.26	51.49
695.39	46.81
695.53	72.56
695.66	0.00
695.80	0.00
695.93	0.00
696.07	18.72
696.20	0.00
696.33	35.11
696.47	9.36
696.60	9.36
696.73	60.85
696.87	58.51
697.00	114.69
697.14	46.81
697.27	60.85
697.40	42.13
697.54	0.00
697.67	32.77
697.80	60.85
697.94	11.70
698.07	39.79
698.21	35.11
698.34	28.09
698.47	35.11
698.61	30.43
698.74	84.26
698.87	58.51
699.01	18.72
699.14	86.60
699.27	74.90
699.40	46.81
699.54	32.77
699.67	58.51
699.80	72.56
699.94	0.00
700.07	74.90
700.20	77.24
700.34	74.90
700.47	72.56
700.60	74.90
700.73	37.45
700.87	23.41
701.00	18.72
701.13	51.49
701.26	0.00
701.40	39.79
701.53	32.77
701.66	28.09
701.79	25.75
701.93	4.68
702.06	65.54
702.19	46.81
702.32	70.22
702.46	56.17
702.59	100.64
702.72	58.51
702.85	23.41
702.99	21.06
703.12	25.75
703.25	42.13
703.38	11.70
703.51	21.06
703.65	25.75
703.78	46.81
703.91	0.00
704.04	14.04
704.17	35.11
704.31	21.06
704.44	114.69
704.57	2.34
704.70	93.62
704.83	60.85
704.96	42.13
705.10	7.02
705.23	9.36
>>>>>End Processed Spectral Data<<<<<
