SpectraSuite Data File
++++++++++++++++++++++++++++++++++++
Date: Fri Oct 04 12:13:25 GMT-05:00 2013
User: price-jones
Dark Spectrum Present: No
Reference Spectrum Present: No
Number of Sampled Component Spectra: 1
Spectrometers: USB2+H05261
Integration Time (usec): 10000 (USB2+H05261)
Spectra Averaged: 1 (USB2+H05261)
Boxcar Smoothing: 0 (USB2+H05261)
Correct for Electrical Dark: No (USB2+H05261)
Strobe/Lamp Enabled: No (USB2+H05261)
Correct for Detector Non-linearity: No (USB2+H05261)
Correct for Stray Light: No (USB2+H05261)
Number of Pixels in Processed Spectrum: 2048
>>>>>Begin Processed Spectral Data<<<<<
365.73	25.75
365.92	25.75
366.12	25.75
366.32	0.00
366.52	0.00
366.72	0.00
366.91	0.00
367.11	0.00
367.31	0.00
367.51	0.00
367.70	0.00
367.90	0.00
368.10	0.00
368.30	0.00
368.49	0.00
368.69	0.00
368.89	0.00
369.09	0.00
369.28	0.00
369.48	0.00
369.68	0.00
369.87	0.00
370.07	0.00
370.27	0.00
370.47	0.00
370.66	0.00
370.86	0.00
371.06	21.06
371.25	0.00
371.45	4.68
371.65	0.00
371.84	0.00
372.04	0.00
372.24	51.49
372.44	0.00
372.63	70.22
372.83	11.70
373.03	0.00
373.22	39.79
373.42	0.00
373.62	0.00
373.81	0.00
374.01	0.00
374.21	49.15
374.40	46.81
374.60	30.43
374.79	25.75
374.99	30.43
375.19	7.02
375.38	100.64
375.58	14.04
375.78	0.00
375.97	74.90
376.17	0.00
376.37	60.85
376.56	65.54
376.76	0.00
376.95	51.49
377.15	21.06
377.35	21.06
377.54	35.11
377.74	0.00
377.93	28.09
378.13	0.00
378.33	51.49
378.52	53.83
378.72	58.51
378.91	56.17
379.11	14.04
379.31	2.34
379.50	79.58
379.70	0.00
379.89	21.06
380.09	0.00
380.28	28.09
380.48	0.00
380.68	4.68
380.87	49.15
381.07	84.26
381.26	37.45
381.46	7.02
381.65	0.00
381.85	42.13
382.04	30.43
382.24	42.13
382.43	0.00
382.63	37.45
382.83	37.45
383.02	14.04
383.22	0.00
383.41	14.04
383.61	93.62
383.80	7.02
384.00	0.00
384.19	30.43
384.39	46.81
384.58	0.00
384.78	0.00
384.97	0.00
385.17	16.38
385.36	42.13
385.56	98.30
385.75	42.13
385.95	0.00
386.14	30.43
386.34	7.02
386.53	32.77
386.72	7.02
386.92	37.45
387.11	58.51
387.31	9.36
387.50	0.00
387.70	30.43
387.89	25.75
388.09	0.00
388.28	23.41
388.48	91.28
388.67	0.00
388.86	0.00
389.06	18.72
389.25	46.81
389.45	65.54
389.64	53.83
389.84	46.81
390.03	32.77
390.22	0.00
390.42	0.00
390.61	0.00
390.81	4.68
391.00	0.00
391.19	35.11
391.39	0.00
391.58	46.81
391.78	39.79
391.97	9.36
392.16	7.02
392.36	51.49
392.55	93.62
392.75	63.19
392.94	0.00
393.13	35.11
393.33	49.15
393.52	21.06
393.71	30.43
393.91	25.75
394.10	16.38
394.29	0.00
394.49	4.68
394.68	11.70
394.88	63.19
395.07	18.72
395.26	0.00
395.46	0.00
395.65	16.38
395.84	0.00
396.04	79.58
396.23	46.81
396.42	44.47
396.62	88.94
396.81	58.51
397.00	0.00
397.19	86.60
397.39	0.00
397.58	21.06
397.77	21.06
397.97	0.00
398.16	0.00
398.35	16.38
398.55	35.11
398.74	0.00
398.93	42.13
399.12	23.41
399.32	37.45
399.51	56.17
399.70	2.34
399.90	51.49
400.09	21.06
400.28	63.19
400.47	79.58
400.67	11.70
400.86	25.75
401.05	58.51
401.24	63.19
401.44	67.88
401.63	93.62
401.82	0.00
402.01	9.36
402.21	0.00
402.40	2.34
402.59	0.00
402.78	25.75
402.97	63.19
403.17	16.38
403.36	65.54
403.55	28.09
403.74	0.00
403.93	0.00
404.13	135.75
404.32	131.07
404.51	0.00
404.70	0.00
404.89	0.00
405.09	4.68
405.28	0.00
405.47	0.00
405.66	9.36
405.85	0.00
406.05	16.38
406.24	49.15
406.43	37.45
406.62	0.00
406.81	18.72
407.00	0.00
407.20	53.83
407.39	21.06
407.58	25.75
407.77	0.00
407.96	84.26
408.15	28.09
408.34	0.00
408.54	46.81
408.73	0.00
408.92	44.47
409.11	23.41
409.30	56.17
409.49	14.04
409.68	18.72
409.87	63.19
410.07	28.09
410.26	79.58
410.45	18.72
410.64	60.85
410.83	32.77
411.02	11.70
411.21	9.36
411.40	77.24
411.59	0.00
411.78	21.06
411.98	0.00
412.17	102.98
412.36	51.49
412.55	65.54
412.74	77.24
412.93	49.15
413.12	9.36
413.31	67.88
413.50	14.04
413.69	14.04
413.88	0.00
414.07	79.58
414.26	11.70
414.45	53.83
414.64	49.15
414.83	21.06
415.02	131.07
415.22	35.11
415.41	56.17
415.60	131.07
415.79	30.43
415.98	0.00
416.17	7.02
416.36	0.00
416.55	0.00
416.74	37.45
416.93	65.54
417.12	72.56
417.31	2.34
417.50	0.00
417.69	16.38
417.88	35.11
418.07	0.00
418.26	4.68
418.45	37.45
418.64	67.88
418.83	70.22
419.02	100.64
419.21	9.36
419.39	30.43
419.58	0.00
419.77	72.56
419.96	30.43
420.15	7.02
420.34	63.19
420.53	9.36
420.72	16.38
420.91	14.04
421.10	51.49
421.29	0.00
421.48	0.00
421.67	58.51
421.86	67.88
422.05	0.00
422.24	4.68
422.43	46.81
422.61	49.15
422.80	44.47
422.99	58.51
423.18	0.00
423.37	0.00
423.56	0.00
423.75	37.45
423.94	14.04
424.13	53.83
424.32	16.38
424.50	35.11
424.69	42.13
424.88	51.49
425.07	11.70
425.26	11.70
425.45	88.94
425.64	42.13
425.83	0.00
426.01	11.70
426.20	37.45
426.39	35.11
426.58	0.00
426.77	56.17
426.96	14.04
427.15	42.13
427.33	0.00
427.52	0.00
427.71	0.00
427.90	0.00
428.09	7.02
428.28	81.92
428.46	16.38
428.65	0.00
428.84	18.72
429.03	46.81
429.22	18.72
429.40	25.75
429.59	63.19
429.78	65.54
429.97	119.37
430.16	0.00
430.34	65.54
430.53	63.19
430.72	49.15
430.91	28.09
431.10	0.00
431.28	0.00
431.47	23.41
431.66	14.04
431.85	37.45
432.03	39.79
432.22	77.24
432.41	9.36
432.60	56.17
432.79	35.11
432.97	32.77
433.16	0.00
433.35	11.70
433.54	7.02
433.72	4.68
433.91	0.00
434.10	49.15
434.28	63.19
434.47	35.11
434.66	4.68
434.85	0.00
435.03	58.51
435.22	35.11
435.41	16.38
435.59	42.13
435.78	65.54
435.97	30.43
436.16	28.09
436.34	25.75
436.53	88.94
436.72	0.00
436.90	0.00
437.09	11.70
437.28	0.00
437.46	39.79
437.65	39.79
437.84	72.56
438.02	30.43
438.21	100.64
438.40	0.00
438.58	16.38
438.77	0.00
438.96	105.32
439.14	4.68
439.33	18.72
439.52	0.00
439.70	37.45
439.89	18.72
440.08	102.98
440.26	74.90
440.45	23.41
440.63	74.90
440.82	77.24
441.01	117.03
441.19	7.02
441.38	67.88
441.57	84.26
441.75	81.92
441.94	49.15
442.12	56.17
442.31	2.34
442.50	0.00
442.68	32.77
442.87	46.81
443.05	35.11
443.24	9.36
443.43	7.02
443.61	37.45
443.80	35.11
443.98	4.68
444.17	39.79
444.35	37.45
444.54	0.00
444.73	65.54
444.91	65.54
445.10	42.13
445.28	30.43
445.47	42.13
445.65	107.66
445.84	0.00
446.02	46.81
446.21	100.64
446.39	95.96
446.58	7.02
446.77	100.64
446.95	58.51
447.14	25.75
447.32	2.34
447.51	53.83
447.69	2.34
447.88	32.77
448.06	42.13
448.25	32.77
448.43	60.85
448.62	0.00
448.80	51.49
448.99	0.00
449.17	4.68
449.36	98.30
449.54	46.81
449.73	9.36
449.91	7.02
450.10	14.04
450.28	112.35
450.46	0.00
450.65	0.00
450.83	14.04
451.02	0.00
451.20	84.26
451.39	25.75
451.57	30.43
451.76	28.09
451.94	0.00
452.13	37.45
452.31	9.36
452.49	42.13
452.68	70.22
452.86	16.38
453.05	60.85
453.23	16.38
453.42	86.60
453.60	107.66
453.78	79.58
453.97	42.13
454.15	23.41
454.34	32.77
454.52	32.77
454.70	0.00
454.89	35.11
455.07	88.94
455.26	107.66
455.44	7.02
455.62	0.00
455.81	7.02
455.99	11.70
456.17	0.00
456.36	14.04
456.54	14.04
456.73	0.00
456.91	14.04
457.09	42.13
457.28	0.00
457.46	16.38
457.64	56.17
457.83	37.45
458.01	0.00
458.19	11.70
458.38	49.15
458.56	102.98
458.74	70.22
458.93	35.11
459.11	67.88
459.29	93.62
459.48	51.49
459.66	70.22
459.84	4.68
460.03	44.47
460.21	58.51
460.39	56.17
460.57	0.00
460.76	21.06
460.94	7.02
461.12	16.38
461.31	72.56
461.49	42.13
461.67	70.22
461.85	0.00
462.04	0.00
462.22	88.94
462.40	9.36
462.59	102.98
462.77	7.02
462.95	0.00
463.13	21.06
463.32	23.41
463.50	0.00
463.68	53.83
463.86	30.43
464.05	7.02
464.23	35.11
464.41	32.77
464.59	16.38
464.78	42.13
464.96	2.34
465.14	58.51
465.32	46.81
465.50	0.00
465.69	58.51
465.87	79.58
466.05	72.56
466.23	63.19
466.41	21.06
466.60	30.43
466.78	44.47
466.96	53.83
467.14	0.00
467.32	0.00
467.51	72.56
467.69	72.56
467.87	56.17
468.05	2.34
468.23	16.38
468.41	56.17
468.60	0.00
468.78	21.06
468.96	44.47
469.14	100.64
469.32	18.72
469.50	67.88
469.69	0.00
469.87	58.51
470.05	81.92
470.23	28.09
470.41	7.02
470.59	42.13
470.77	86.60
470.95	0.00
471.14	42.13
471.32	0.00
471.50	39.79
471.68	117.03
471.86	21.06
472.04	65.54
472.22	39.79
472.40	11.70
472.58	18.72
472.77	16.38
472.95	53.83
473.13	14.04
473.31	0.00
473.49	0.00
473.67	16.38
473.85	21.06
474.03	4.68
474.21	0.00
474.39	0.00
474.57	81.92
474.75	21.06
474.93	0.00
475.12	21.06
475.30	23.41
475.48	30.43
475.66	30.43
475.84	2.34
476.02	100.64
476.20	53.83
476.38	0.00
476.56	74.90
476.74	39.79
476.92	0.00
477.10	32.77
477.28	4.68
477.46	77.24
477.64	86.60
477.82	0.00
478.00	0.00
478.18	4.68
478.36	79.58
478.54	72.56
478.72	30.43
478.90	16.38
479.08	95.96
479.26	0.00
479.44	95.96
479.62	44.47
479.80	0.00
479.98	21.06
480.16	18.72
480.34	9.36
480.52	42.13
480.70	28.09
480.88	0.00
481.06	28.09
481.24	86.60
481.41	35.11
481.59	51.49
481.77	56.17
481.95	0.00
482.13	0.00
482.31	88.94
482.49	98.30
482.67	0.00
482.85	2.34
483.03	95.96
483.21	110.01
483.39	0.00
483.57	32.77
483.74	35.11
483.92	25.75
484.10	53.83
484.28	0.00
484.46	0.00
484.64	21.06
484.82	11.70
485.00	60.85
485.18	46.81
485.35	35.11
485.53	70.22
485.71	51.49
485.89	70.22
486.07	7.02
486.25	21.06
486.43	0.00
486.61	110.01
486.78	0.00
486.96	16.38
487.14	32.77
487.32	16.38
487.50	16.38
487.68	0.00
487.85	0.00
488.03	91.28
488.21	35.11
488.39	35.11
488.57	0.00
488.75	11.70
488.92	72.56
489.10	60.85
489.28	21.06
489.46	91.28
489.64	0.00
489.81	25.75
489.99	93.62
490.17	102.98
490.35	9.36
490.53	0.00
490.70	23.41
490.88	35.11
491.06	4.68
491.24	35.11
491.41	39.79
491.59	0.00
491.77	11.70
491.95	91.28
492.13	70.22
492.30	77.24
492.48	7.02
492.66	0.00
492.84	81.92
493.01	35.11
493.19	91.28
493.37	77.24
493.54	9.36
493.72	23.41
493.90	140.43
494.08	0.00
494.25	53.83
494.43	0.00
494.61	0.00
494.79	74.90
494.96	0.00
495.14	0.00
495.32	0.00
495.49	16.38
495.67	67.88
495.85	4.68
496.02	53.83
496.20	0.00
496.38	35.11
496.55	37.45
496.73	95.96
496.91	70.22
497.09	14.04
497.26	4.68
497.44	42.13
497.62	65.54
497.79	28.09
497.97	0.00
498.14	0.00
498.32	65.54
498.50	126.39
498.67	44.47
498.85	72.56
499.03	84.26
499.20	0.00
499.38	35.11
499.56	79.58
499.73	42.13
499.91	11.70
500.08	117.03
500.26	0.00
500.44	42.13
500.61	28.09
500.79	0.00
500.97	58.51
501.14	84.26
501.32	9.36
501.49	77.24
501.67	65.54
501.84	25.75
502.02	21.06
502.20	7.02
502.37	16.38
502.55	51.49
502.72	0.00
502.90	58.51
503.07	28.09
503.25	67.88
503.43	93.62
503.60	0.00
503.78	25.75
503.95	77.24
504.13	0.00
504.30	9.36
504.48	14.04
504.65	39.79
504.83	0.00
505.01	65.54
505.18	58.51
505.36	49.15
505.53	37.45
505.71	74.90
505.88	23.41
506.06	56.17
506.23	11.70
506.41	18.72
506.58	25.75
506.76	4.68
506.93	21.06
507.11	53.83
507.28	0.00
507.46	72.56
507.63	70.22
507.81	30.43
507.98	56.17
508.16	23.41
508.33	74.90
508.50	30.43
508.68	30.43
508.85	0.00
509.03	16.38
509.20	70.22
509.38	0.00
509.55	35.11
509.73	18.72
509.90	4.68
510.08	49.15
510.25	56.17
510.42	21.06
510.60	7.02
510.77	95.96
510.95	74.90
511.12	11.70
511.30	16.38
511.47	11.70
511.64	86.60
511.82	0.00
511.99	110.01
512.17	30.43
512.34	51.49
512.51	37.45
512.69	21.06
512.86	42.13
513.04	93.62
513.21	18.72
513.38	0.00
513.56	51.49
513.73	32.77
513.90	18.72
514.08	60.85
514.25	56.17
514.43	58.51
514.60	28.09
514.77	67.88
514.95	30.43
515.12	21.06
515.29	60.85
515.47	28.09
515.64	60.85
515.81	0.00
515.99	21.06
516.16	21.06
516.33	18.72
516.51	0.00
516.68	11.70
516.85	42.13
517.03	77.24
517.20	30.43
517.37	0.00
517.54	0.00
517.72	25.75
517.89	58.51
518.06	30.43
518.24	16.38
518.41	79.58
518.58	37.45
518.75	4.68
518.93	91.28
519.10	88.94
519.27	102.98
519.45	100.64
519.62	53.83
519.79	0.00
519.96	35.11
520.14	77.24
520.31	56.17
520.48	42.13
520.65	119.37
520.83	16.38
521.00	93.62
521.17	4.68
521.34	14.04
521.52	25.75
521.69	7.02
521.86	18.72
522.03	18.72
522.20	72.56
522.38	60.85
522.55	37.45
522.72	30.43
522.89	28.09
523.07	84.26
523.24	0.00
523.41	56.17
523.58	67.88
523.75	11.70
523.92	14.04
524.10	2.34
524.27	74.90
524.44	4.68
524.61	32.77
524.78	21.06
524.96	0.00
525.13	37.45
525.30	37.45
525.47	35.11
525.64	25.75
525.81	79.58
525.98	77.24
526.16	42.13
526.33	35.11
526.50	14.04
526.67	2.34
526.84	67.88
527.01	70.22
527.18	95.96
527.36	0.00
527.53	46.81
527.70	0.00
527.87	67.88
528.04	0.00
528.21	102.98
528.38	39.79
528.55	72.56
528.72	18.72
528.89	93.62
529.07	46.81
529.24	86.60
529.41	58.51
529.58	25.75
529.75	4.68
529.92	46.81
530.09	4.68
530.26	53.83
530.43	0.00
530.60	49.15
530.77	93.62
530.94	0.00
531.11	16.38
531.28	9.36
531.46	53.83
531.63	91.28
531.80	77.24
531.97	51.49
532.14	70.22
532.31	0.00
532.48	42.13
532.65	105.32
532.82	35.11
532.99	44.47
533.16	16.38
533.33	51.49
533.50	14.04
533.67	65.54
533.84	21.06
534.01	49.15
534.18	37.45
534.35	102.98
534.52	0.00
534.69	51.49
534.86	0.00
535.03	0.00
535.20	105.32
535.37	84.26
535.54	93.62
535.71	0.00
535.88	58.51
536.05	25.75
536.22	25.75
536.38	95.96
536.55	30.43
536.72	65.54
536.89	0.00
537.06	67.88
537.23	98.30
537.40	72.56
537.57	9.36
537.74	67.88
537.91	93.62
538.08	39.79
538.25	9.36
538.42	2.34
538.59	77.24
538.75	11.70
538.92	0.00
539.09	28.09
539.26	37.45
539.43	53.83
539.60	72.56
539.77	58.51
539.94	39.79
540.11	25.75
540.28	60.85
540.44	25.75
540.61	51.49
540.78	0.00
540.95	53.83
541.12	65.54
541.29	0.00
541.46	0.00
541.62	79.58
541.79	18.72
541.96	0.00
542.13	53.83
542.30	35.11
542.47	32.77
542.63	63.19
542.80	58.51
542.97	9.36
543.14	72.56
543.31	30.43
543.48	107.66
543.64	42.13
543.81	7.02
543.98	11.70
544.15	91.28
544.32	126.39
544.48	63.19
544.65	25.75
544.82	51.49
544.99	88.94
545.16	23.41
545.32	0.00
545.49	60.85
545.66	49.15
545.83	37.45
546.00	51.49
546.16	11.70
546.33	81.92
546.50	53.83
546.67	0.00
546.83	51.49
547.00	49.15
547.17	0.00
547.34	81.92
547.50	91.28
547.67	124.05
547.84	35.11
548.00	0.00
548.17	0.00
548.34	0.00
548.51	42.13
548.67	53.83
548.84	46.81
549.01	67.88
549.18	84.26
549.34	67.88
549.51	74.90
549.68	0.00
549.84	2.34
550.01	21.06
550.18	138.09
550.34	25.75
550.51	0.00
550.68	7.02
550.84	21.06
551.01	70.22
551.18	4.68
551.34	124.05
551.51	53.83
551.68	63.19
551.84	37.45
552.01	77.24
552.18	32.77
552.34	56.17
552.51	49.15
552.68	53.83
552.84	70.22
553.01	30.43
553.18	79.58
553.34	37.45
553.51	0.00
553.67	49.15
553.84	21.06
554.01	84.26
554.17	46.81
554.34	0.00
554.51	21.06
554.67	37.45
554.84	93.62
555.00	56.17
555.17	119.37
555.33	63.19
555.50	23.41
555.67	0.00
555.83	25.75
556.00	100.64
556.16	60.85
556.33	42.13
556.50	0.00
556.66	88.94
556.83	117.03
556.99	9.36
557.16	18.72
557.32	28.09
557.49	53.83
557.65	32.77
557.82	46.81
557.98	4.68
558.15	0.00
558.32	35.11
558.48	63.19
558.65	25.75
558.81	42.13
558.98	28.09
559.14	0.00
559.31	28.09
559.47	42.13
559.64	30.43
559.80	4.68
559.97	58.51
560.13	67.88
560.30	77.24
560.46	56.17
560.63	65.54
560.79	63.19
560.96	16.38
561.12	0.00
561.29	37.45
561.45	7.02
561.61	0.00
561.78	86.60
561.94	93.62
562.11	23.41
562.27	60.85
562.44	0.00
562.60	0.00
562.77	105.32
562.93	42.13
563.10	14.04
563.26	56.17
563.42	0.00
563.59	51.49
563.75	67.88
563.92	14.04
564.08	44.47
564.24	0.00
564.41	14.04
564.57	7.02
564.74	77.24
564.90	0.00
565.07	81.92
565.23	100.64
565.39	46.81
565.56	46.81
565.72	37.45
565.88	65.54
566.05	63.19
566.21	51.49
566.38	4.68
566.54	56.17
566.70	7.02
566.87	0.00
567.03	67.88
567.19	23.41
567.36	0.00
567.52	81.92
567.68	0.00
567.85	53.83
568.01	16.38
568.17	0.00
568.34	44.47
568.50	4.68
568.66	0.00
568.83	30.43
568.99	21.06
569.15	28.09
569.32	0.00
569.48	23.41
569.64	100.64
569.81	74.90
569.97	53.83
570.13	44.47
570.30	102.98
570.46	37.45
570.62	98.30
570.78	18.72
570.95	37.45
571.11	65.54
571.27	16.38
571.43	51.49
571.60	11.70
571.76	0.00
571.92	39.79
572.09	65.54
572.25	25.75
572.41	51.49
572.57	35.11
572.74	70.22
572.90	35.11
573.06	42.13
573.22	0.00
573.38	28.09
573.55	65.54
573.71	0.00
573.87	72.56
574.03	4.68
574.20	0.00
574.36	25.75
574.52	37.45
574.68	46.81
574.84	35.11
575.01	65.54
575.17	18.72
575.33	21.06
575.49	58.51
575.65	35.11
575.82	9.36
575.98	72.56
576.14	42.13
576.30	18.72
576.46	0.00
576.62	0.00
576.79	35.11
576.95	58.51
577.11	67.88
577.27	39.79
577.43	21.06
577.59	0.00
577.75	74.90
577.92	121.71
578.08	65.54
578.24	23.41
578.40	0.00
578.56	88.94
578.72	2.34
578.88	65.54
579.04	0.00
579.21	23.41
579.37	30.43
579.53	74.90
579.69	35.11
579.85	23.41
580.01	51.49
580.17	93.62
580.33	32.77
580.49	93.62
580.65	37.45
580.82	0.00
580.98	0.00
581.14	9.36
581.30	21.06
581.46	30.43
581.62	77.24
581.78	0.00
581.94	77.24
582.10	0.00
582.26	7.02
582.42	67.88
582.58	49.15
582.74	88.94
582.90	70.22
583.06	35.11
583.22	0.00
583.38	60.85
583.54	28.09
583.70	42.13
583.86	105.32
584.02	32.77
584.18	25.75
584.34	35.11
584.50	60.85
584.66	98.30
584.82	56.17
584.98	53.83
585.14	23.41
585.30	0.00
585.46	4.68
585.62	0.00
585.78	51.49
585.94	93.62
586.10	0.00
586.26	58.51
586.42	72.56
586.58	79.58
586.74	23.41
586.90	51.49
587.06	60.85
587.22	37.45
587.38	0.00
587.54	2.34
587.70	0.00
587.86	46.81
588.02	28.09
588.18	4.68
588.34	21.06
588.49	0.00
588.65	95.96
588.81	56.17
588.97	42.13
589.13	4.68
589.29	30.43
589.45	110.01
589.61	49.15
589.77	84.26
589.93	0.00
590.08	56.17
590.24	49.15
590.40	53.83
590.56	23.41
590.72	91.28
590.88	25.75
591.04	7.02
591.20	18.72
591.35	0.00
591.51	67.88
591.67	81.92
591.83	0.00
591.99	74.90
592.15	35.11
592.31	39.79
592.46	0.00
592.62	65.54
592.78	70.22
592.94	23.41
593.10	0.00
593.26	35.11
593.41	0.00
593.57	25.75
593.73	58.51
593.89	81.92
594.05	0.00
594.20	74.90
594.36	84.26
594.52	0.00
594.68	0.00
594.84	0.00
594.99	35.11
595.15	42.13
595.31	2.34
595.47	0.00
595.62	63.19
595.78	30.43
595.94	35.11
596.10	0.00
596.25	0.00
596.41	98.30
596.57	88.94
596.73	58.51
596.88	32.77
597.04	107.66
597.20	81.92
597.36	0.00
597.51	56.17
597.67	16.38
597.83	32.77
597.99	16.38
598.14	0.00
598.30	4.68
598.46	0.00
598.61	32.77
598.77	72.56
598.93	70.22
599.09	0.00
599.24	16.38
599.40	79.58
599.56	0.00
599.71	9.36
599.87	0.00
600.03	42.13
600.18	100.64
600.34	70.22
600.50	30.43
600.65	14.04
600.81	49.15
600.97	4.68
601.12	81.92
601.28	91.28
601.44	79.58
601.59	70.22
601.75	46.81
601.91	77.24
602.06	0.00
602.22	77.24
602.37	65.54
602.53	95.96
602.69	21.06
602.84	21.06
603.00	84.26
603.16	72.56
603.31	32.77
603.47	74.90
603.62	14.04
603.78	0.00
603.94	14.04
604.09	32.77
604.25	18.72
604.40	0.00
604.56	77.24
604.71	14.04
604.87	42.13
605.03	16.38
605.18	77.24
605.34	53.83
605.49	81.92
605.65	46.81
605.80	23.41
605.96	107.66
606.12	65.54
606.27	60.85
606.43	0.00
606.58	51.49
606.74	9.36
606.89	28.09
607.05	30.43
607.20	25.75
607.36	30.43
607.51	30.43
607.67	65.54
607.82	51.49
607.98	72.56
608.13	0.00
608.29	23.41
608.44	98.30
608.60	79.58
608.75	63.19
608.91	0.00
609.06	72.56
609.22	0.00
609.37	23.41
609.53	23.41
609.68	84.26
609.84	39.79
609.99	53.83
610.15	30.43
610.30	88.94
610.46	4.68
610.61	0.00
610.76	65.54
610.92	16.38
611.07	0.00
611.23	0.00
611.38	44.47
611.54	23.41
611.69	4.68
611.84	74.90
612.00	0.00
612.15	0.00
612.31	49.15
612.46	0.00
612.62	9.36
612.77	16.38
612.92	14.04
613.08	39.79
613.23	110.01
613.39	110.01
613.54	7.02
613.69	0.00
613.85	39.79
614.00	0.00
614.15	11.70
614.31	18.72
614.46	14.04
614.62	4.68
614.77	65.54
614.92	0.00
615.08	67.88
615.23	16.38
615.38	21.06
615.54	18.72
615.69	32.77
615.84	37.45
616.00	37.45
616.15	0.00
616.30	0.00
616.46	21.06
616.61	63.19
616.76	46.81
616.92	18.72
617.07	30.43
617.22	16.38
617.37	49.15
617.53	60.85
617.68	11.70
617.83	39.79
617.99	30.43
618.14	37.45
618.29	140.43
618.45	4.68
618.60	25.75
618.75	18.72
618.90	42.13
619.06	44.47
619.21	60.85
619.36	56.17
619.51	0.00
619.67	65.54
619.82	60.85
619.97	88.94
620.12	0.00
620.28	25.75
620.43	133.41
620.58	39.79
620.73	49.15
620.89	0.00
621.04	0.00
621.19	25.75
621.34	56.17
621.49	28.09
621.65	0.00
621.80	14.04
621.95	18.72
622.10	0.00
622.25	9.36
622.41	23.41
622.56	35.11
622.71	60.85
622.86	28.09
623.01	25.75
623.16	32.77
623.32	0.00
623.47	63.19
623.62	81.92
623.77	37.45
623.92	25.75
624.07	28.09
624.23	58.51
624.38	0.00
624.53	102.98
624.68	72.56
624.83	21.06
624.98	30.43
625.13	11.70
625.29	53.83
625.44	7.02
625.59	0.00
625.74	77.24
625.89	65.54
626.04	37.45
626.19	0.00
626.34	7.02
626.49	74.90
626.65	67.88
626.80	91.28
626.95	0.00
627.10	70.22
627.25	44.47
627.40	14.04
627.55	95.96
627.70	98.30
627.85	56.17
628.00	70.22
628.15	42.13
628.30	0.00
628.45	0.00
628.60	21.06
628.76	0.00
628.91	46.81
629.06	0.00
629.21	91.28
629.36	11.70
629.51	46.81
629.66	0.00
629.81	14.04
629.96	60.85
630.11	28.09
630.26	37.45
630.41	28.09
630.56	58.51
630.71	42.13
630.86	0.00
631.01	21.06
631.16	11.70
631.31	0.00
631.46	28.09
631.61	56.17
631.76	28.09
631.91	32.77
632.06	72.56
632.21	114.69
632.36	65.54
632.51	16.38
632.66	23.41
632.81	0.00
632.96	32.77
633.10	100.64
633.25	21.06
633.40	49.15
633.55	18.72
633.70	0.00
633.85	21.06
634.00	37.45
634.15	0.00
634.30	39.79
634.45	0.00
634.60	25.75
634.75	2.34
634.90	0.00
635.05	46.81
635.19	44.47
635.34	72.56
635.49	35.11
635.64	35.11
635.79	0.00
635.94	21.06
636.09	18.72
636.24	63.19
636.39	60.85
636.53	53.83
636.68	14.04
636.83	30.43
636.98	67.88
637.13	21.06
637.28	42.13
637.43	81.92
637.57	126.39
637.72	128.73
637.87	21.06
638.02	53.83
638.17	39.79
638.32	39.79
638.46	39.79
638.61	79.58
638.76	44.47
638.91	67.88
639.06	25.75
639.20	49.15
639.35	9.36
639.50	0.00
639.65	39.79
639.80	0.00
639.94	4.68
640.09	0.00
640.24	65.54
640.39	0.00
640.54	77.24
640.68	7.02
640.83	16.38
640.98	58.51
641.13	2.34
641.27	28.09
641.42	0.00
641.57	56.17
641.72	42.13
641.86	53.83
642.01	21.06
642.16	42.13
642.31	51.49
642.45	32.77
642.60	44.47
642.75	0.00
642.90	58.51
643.04	58.51
643.19	0.00
643.34	0.00
643.48	0.00
643.63	56.17
643.78	21.06
643.93	65.54
644.07	21.06
644.22	14.04
644.37	0.00
644.51	16.38
644.66	140.43
644.81	0.00
644.95	14.04
645.10	105.32
645.25	35.11
645.39	2.34
645.54	58.51
645.69	58.51
645.83	37.45
645.98	91.28
646.13	0.00
646.27	39.79
646.42	124.05
646.57	67.88
646.71	25.75
646.86	0.00
647.00	49.15
647.15	35.11
647.30	49.15
647.44	49.15
647.59	117.03
647.74	16.38
647.88	35.11
648.03	0.00
648.17	9.36
648.32	11.70
648.47	53.83
648.61	65.54
648.76	42.13
648.90	51.49
649.05	32.77
649.20	18.72
649.34	95.96
649.49	25.75
649.63	39.79
649.78	2.34
649.92	56.17
650.07	0.00
650.21	23.41
650.36	53.83
650.51	14.04
650.65	14.04
650.80	14.04
650.94	107.66
651.09	53.83
651.23	0.00
651.38	0.00
651.52	42.13
651.67	65.54
651.81	25.75
651.96	46.81
652.10	28.09
652.25	9.36
652.39	0.00
652.54	32.77
652.68	0.00
652.83	11.70
652.97	21.06
653.12	0.00
653.26	28.09
653.41	0.00
653.55	25.75
653.70	0.00
653.84	35.11
653.99	84.26
654.13	105.32
654.27	67.88
654.42	88.94
654.56	63.19
654.71	9.36
654.85	18.72
655.00	4.68
655.14	23.41
655.29	0.00
655.43	30.43
655.57	0.00
655.72	49.15
655.86	49.15
656.01	14.04
656.15	0.00
656.30	0.00
656.44	28.09
656.58	16.38
656.73	2.34
656.87	25.75
657.01	42.13
657.16	0.00
657.30	0.00
657.45	0.00
657.59	11.70
657.73	49.15
657.88	107.66
658.02	16.38
658.16	23.41
658.31	0.00
658.45	18.72
658.60	0.00
658.74	28.09
658.88	51.49
659.03	28.09
659.17	16.38
659.31	93.62
659.46	28.09
659.60	77.24
659.74	105.32
659.89	32.77
660.03	21.06
660.17	46.81
660.32	28.09
660.46	14.04
660.60	74.90
660.74	39.79
660.89	93.62
661.03	70.22
661.17	9.36
661.32	46.81
661.46	63.19
661.60	0.00
661.74	51.49
661.89	53.83
662.03	39.79
662.17	49.15
662.31	93.62
662.46	60.85
662.60	0.00
662.74	0.00
662.88	0.00
663.03	28.09
663.17	7.02
663.31	67.88
663.45	18.72
663.60	37.45
663.74	18.72
663.88	0.00
664.02	32.77
664.17	44.47
664.31	74.90
664.45	81.92
664.59	102.98
664.73	63.19
664.88	63.19
665.02	0.00
665.16	65.54
665.30	51.49
665.44	18.72
665.59	49.15
665.73	117.03
665.87	44.47
666.01	53.83
666.15	95.96
666.29	35.11
666.44	112.35
666.58	65.54
666.72	79.58
666.86	37.45
667.00	16.38
667.14	30.43
667.28	0.00
667.43	30.43
667.57	84.26
667.71	42.13
667.85	4.68
667.99	30.43
668.13	154.48
668.27	11.70
668.41	56.17
668.56	70.22
668.70	135.75
668.84	105.32
668.98	58.51
669.12	18.72
669.26	0.00
669.40	21.06
669.54	0.00
669.68	35.11
669.82	0.00
669.96	0.00
670.10	0.00
670.25	0.00
670.39	44.47
670.53	79.58
670.67	49.15
670.81	30.43
670.95	49.15
671.09	0.00
671.23	28.09
671.37	0.00
671.51	25.75
671.65	84.26
671.79	114.69
671.93	14.04
672.07	23.41
672.21	88.94
672.35	0.00
672.49	0.00
672.63	58.51
672.77	21.06
672.91	70.22
673.05	4.68
673.19	2.34
673.33	0.00
673.47	18.72
673.61	44.47
673.75	11.70
673.89	9.36
674.03	0.00
674.17	32.77
674.31	44.47
674.45	35.11
674.59	11.70
674.73	0.00
674.87	30.43
675.01	72.56
675.15	51.49
675.29	74.90
675.43	42.13
675.56	39.79
675.70	51.49
675.84	18.72
675.98	35.11
676.12	23.41
676.26	58.51
676.40	53.83
676.54	0.00
676.68	39.79
676.82	18.72
676.96	51.49
677.10	0.00
677.23	28.09
677.37	65.54
677.51	0.00
677.65	4.68
677.79	152.13
677.93	65.54
678.07	51.49
678.21	63.19
678.34	0.00
678.48	0.00
678.62	23.41
678.76	0.00
678.90	60.85
679.04	30.43
679.18	18.72
679.31	7.02
679.45	18.72
679.59	72.56
679.73	9.36
679.87	44.47
680.00	0.00
680.14	44.47
680.28	0.00
680.42	0.00
680.56	53.83
680.70	65.54
680.83	14.04
680.97	25.75
681.11	49.15
681.25	77.24
681.39	70.22
681.52	65.54
681.66	42.13
681.80	21.06
681.94	7.02
682.07	32.77
682.21	0.00
682.35	25.75
682.49	35.11
682.62	95.96
682.76	53.83
682.90	21.06
683.04	0.00
683.17	0.00
683.31	0.00
683.45	25.75
683.59	25.75
683.72	70.22
683.86	93.62
684.00	37.45
684.13	32.77
684.27	16.38
684.41	9.36
684.55	49.15
684.68	0.00
684.82	79.58
684.96	30.43
685.09	37.45
685.23	32.77
685.37	86.60
685.50	0.00
685.64	72.56
685.78	0.00
685.91	74.90
686.05	0.00
686.19	37.45
686.32	9.36
686.46	0.00
686.60	42.13
686.73	0.00
686.87	25.75
687.01	0.00
687.14	25.75
687.28	25.75
687.42	21.06
687.55	60.85
687.69	35.11
687.82	39.79
687.96	81.92
688.10	77.24
688.23	11.70
688.37	98.30
688.50	25.75
688.64	77.24
688.78	30.43
688.91	46.81
689.05	21.06
689.18	37.45
689.32	35.11
689.46	14.04
689.59	53.83
689.73	49.15
689.86	16.38
690.00	0.00
690.13	0.00
690.27	98.30
690.41	4.68
690.54	0.00
690.68	72.56
690.81	0.00
690.95	124.05
691.08	30.43
691.22	0.00
691.35	0.00
691.49	16.38
691.62	14.04
691.76	0.00
691.89	60.85
692.03	84.26
692.16	18.72
692.30	0.00
692.43	30.43
692.57	30.43
692.70	0.00
692.84	28.09
692.97	11.70
693.11	7.02
693.24	70.22
693.38	46.81
693.51	51.49
693.65	95.96
693.78	0.00
693.92	53.83
694.05	42.13
694.19	67.88
694.32	18.72
694.45	0.00
694.59	53.83
694.72	53.83
694.86	65.54
694.99	37.45
695.13	70.22
695.26	49.15
695.39	58.51
695.53	32.77
695.66	72.56
695.80	7.02
695.93	23.41
696.07	14.04
696.20	18.72
696.33	0.00
696.47	32.77
696.60	30.43
696.73	56.17
696.87	2.34
697.00	74.90
697.14	16.38
697.27	49.15
697.40	93.62
697.54	81.92
697.67	35.11
697.80	114.69
697.94	65.54
698.07	14.04
698.21	2.34
698.34	7.02
698.47	0.00
698.61	67.88
698.74	0.00
698.87	49.15
699.01	18.72
699.14	0.00
699.27	4.68
699.40	65.54
699.54	44.47
699.67	0.00
699.80	0.00
699.94	67.88
700.07	9.36
700.20	42.13
700.34	9.36
700.47	18.72
700.60	0.00
700.73	35.11
700.87	37.45
701.00	11.70
701.13	0.00
701.26	4.68
701.40	0.00
701.53	0.00
701.66	35.11
701.79	65.54
701.93	2.34
702.06	37.45
702.19	32.77
702.32	0.00
702.46	42.13
702.59	0.00
702.72	32.77
702.85	39.79
702.99	128.73
703.12	39.79
703.25	39.79
703.38	37.45
703.51	49.15
703.65	2.34
703.78	0.00
703.91	0.00
704.04	0.00
704.17	37.45
704.31	0.00
704.44	7.02
704.57	0.00
704.70	37.45
704.83	0.00
704.96	7.02
705.10	0.00
705.23	0.00
>>>>>End Processed Spectral Data<<<<<
