SpectraSuite Data File
++++++++++++++++++++++++++++++++++++
Date: Fri Oct 04 12:13:41 GMT-05:00 2013
User: price-jones
Dark Spectrum Present: No
Reference Spectrum Present: No
Number of Sampled Component Spectra: 1
Spectrometers: USB2+H05261
Integration Time (usec): 10000 (USB2+H05261)
Spectra Averaged: 1 (USB2+H05261)
Boxcar Smoothing: 0 (USB2+H05261)
Correct for Electrical Dark: No (USB2+H05261)
Strobe/Lamp Enabled: No (USB2+H05261)
Correct for Detector Non-linearity: No (USB2+H05261)
Correct for Stray Light: No (USB2+H05261)
Number of Pixels in Processed Spectrum: 2048
>>>>>Begin Processed Spectral Data<<<<<
365.73	30.43
365.92	30.43
366.12	30.43
366.32	0.00
366.52	0.00
366.72	0.00
366.91	0.00
367.11	0.00
367.31	0.00
367.51	0.00
367.70	0.00
367.90	0.00
368.10	0.00
368.30	0.00
368.49	0.00
368.69	0.00
368.89	0.00
369.09	0.00
369.28	0.00
369.48	0.00
369.68	0.00
369.87	0.00
370.07	0.00
370.27	0.00
370.47	0.00
370.66	0.00
370.86	0.00
371.06	0.00
371.25	0.00
371.45	0.00
371.65	7.02
371.84	0.00
372.04	0.00
372.24	0.00
372.44	18.72
372.63	0.00
372.83	79.58
373.03	86.60
373.22	30.43
373.42	14.04
373.62	0.00
373.81	16.38
374.01	60.85
374.21	72.56
374.40	117.03
374.60	35.11
374.79	56.17
374.99	65.54
375.19	9.36
375.38	51.49
375.58	39.79
375.78	7.02
375.97	102.98
376.17	58.51
376.37	65.54
376.56	72.56
376.76	91.28
376.95	0.00
377.15	39.79
377.35	0.00
377.54	74.90
377.74	49.15
377.93	4.68
378.13	25.75
378.33	14.04
378.52	32.77
378.72	0.00
378.91	7.02
379.11	0.00
379.31	0.00
379.50	51.49
379.70	28.09
379.89	0.00
380.09	32.77
380.28	65.54
380.48	9.36
380.68	14.04
380.87	14.04
381.07	0.00
381.26	0.00
381.46	16.38
381.65	0.00
381.85	39.79
382.04	30.43
382.24	0.00
382.43	49.15
382.63	23.41
382.83	7.02
383.02	37.45
383.22	46.81
383.41	37.45
383.61	42.13
383.80	16.38
384.00	35.11
384.19	60.85
384.39	39.79
384.58	0.00
384.78	0.00
384.97	18.72
385.17	51.49
385.36	23.41
385.56	21.06
385.75	65.54
385.95	63.19
386.14	0.00
386.34	14.04
386.53	0.00
386.72	39.79
386.92	32.77
387.11	0.00
387.31	0.00
387.50	0.00
387.70	32.77
387.89	58.51
388.09	18.72
388.28	28.09
388.48	91.28
388.67	53.83
388.86	81.92
389.06	39.79
389.25	84.26
389.45	0.00
389.64	28.09
389.84	0.00
390.03	4.68
390.22	30.43
390.42	0.00
390.61	91.28
390.81	0.00
391.00	32.77
391.19	58.51
391.39	63.19
391.58	67.88
391.78	67.88
391.97	0.00
392.16	39.79
392.36	42.13
392.55	21.06
392.75	4.68
392.94	91.28
393.13	0.00
393.33	18.72
393.52	84.26
393.71	86.60
393.91	63.19
394.10	28.09
394.29	25.75
394.49	91.28
394.68	63.19
394.88	0.00
395.07	60.85
395.26	65.54
395.46	51.49
395.65	53.83
395.84	0.00
396.04	49.15
396.23	30.43
396.42	0.00
396.62	51.49
396.81	0.00
397.00	37.45
397.19	42.13
397.39	114.69
397.58	86.60
397.77	25.75
397.97	11.70
398.16	81.92
398.35	28.09
398.55	32.77
398.74	0.00
398.93	23.41
399.12	25.75
399.32	0.00
399.51	58.51
399.70	58.51
399.90	39.79
400.09	67.88
400.28	77.24
400.47	23.41
400.67	0.00
400.86	81.92
401.05	4.68
401.24	81.92
401.44	0.00
401.63	58.51
401.82	0.00
402.01	11.70
402.21	16.38
402.40	30.43
402.59	18.72
402.78	16.38
402.97	0.00
403.17	11.70
403.36	0.00
403.55	30.43
403.74	18.72
403.93	18.72
404.13	0.00
404.32	133.41
404.51	35.11
404.70	0.00
404.89	81.92
405.09	46.81
405.28	32.77
405.47	32.77
405.66	0.00
405.85	0.00
406.05	18.72
406.24	30.43
406.43	4.68
406.62	32.77
406.81	0.00
407.00	46.81
407.20	77.24
407.39	131.07
407.58	14.04
407.77	72.56
407.96	79.58
408.15	39.79
408.34	0.00
408.54	32.77
408.73	39.79
408.92	0.00
409.11	39.79
409.30	18.72
409.49	0.00
409.68	2.34
409.87	0.00
410.07	44.47
410.26	60.85
410.45	42.13
410.64	30.43
410.83	0.00
411.02	56.17
411.21	65.54
411.40	32.77
411.59	72.56
411.78	7.02
411.98	42.13
412.17	7.02
412.36	56.17
412.55	105.32
412.74	16.38
412.93	37.45
413.12	53.83
413.31	28.09
413.50	7.02
413.69	58.51
413.88	95.96
414.07	88.94
414.26	105.32
414.45	35.11
414.64	0.00
414.83	30.43
415.02	60.85
415.22	46.81
415.41	16.38
415.60	65.54
415.79	102.98
415.98	81.92
416.17	105.32
416.36	60.85
416.55	70.22
416.74	28.09
416.93	0.00
417.12	16.38
417.31	53.83
417.50	2.34
417.69	0.00
417.88	72.56
418.07	28.09
418.26	88.94
418.45	23.41
418.64	23.41
418.83	18.72
419.02	84.26
419.21	67.88
419.39	23.41
419.58	65.54
419.77	74.90
419.96	102.98
420.15	107.66
420.34	42.13
420.53	72.56
420.72	25.75
420.91	14.04
421.10	0.00
421.29	0.00
421.48	23.41
421.67	16.38
421.86	25.75
422.05	21.06
422.24	51.49
422.43	65.54
422.61	67.88
422.80	58.51
422.99	60.85
423.18	42.13
423.37	30.43
423.56	42.13
423.75	46.81
423.94	44.47
424.13	93.62
424.32	37.45
424.50	58.51
424.69	18.72
424.88	74.90
425.07	0.00
425.26	51.49
425.45	21.06
425.64	72.56
425.83	51.49
426.01	23.41
426.20	46.81
426.39	14.04
426.58	9.36
426.77	4.68
426.96	37.45
427.15	72.56
427.33	0.00
427.52	100.64
427.71	9.36
427.90	49.15
428.09	4.68
428.28	46.81
428.46	11.70
428.65	7.02
428.84	0.00
429.03	53.83
429.22	72.56
429.40	79.58
429.59	72.56
429.78	44.47
429.97	18.72
430.16	0.00
430.34	0.00
430.53	2.34
430.72	56.17
430.91	95.96
431.10	58.51
431.28	42.13
431.47	44.47
431.66	74.90
431.85	0.00
432.03	30.43
432.22	84.26
432.41	145.11
432.60	74.90
432.79	0.00
432.97	0.00
433.16	18.72
433.35	37.45
433.54	84.26
433.72	11.70
433.91	65.54
434.10	0.00
434.28	53.83
434.47	28.09
434.66	88.94
434.85	18.72
435.03	32.77
435.22	14.04
435.41	37.45
435.59	60.85
435.78	81.92
435.97	131.07
436.16	23.41
436.34	114.69
436.53	60.85
436.72	7.02
436.90	37.45
437.09	110.01
437.28	37.45
437.46	58.51
437.65	77.24
437.84	9.36
438.02	56.17
438.21	124.05
438.40	9.36
438.58	4.68
438.77	30.43
438.96	16.38
439.14	110.01
439.33	9.36
439.52	65.54
439.70	32.77
439.89	56.17
440.08	0.00
440.26	0.00
440.45	51.49
440.63	112.35
440.82	44.47
441.01	35.11
441.19	51.49
441.38	11.70
441.57	65.54
441.75	39.79
441.94	67.88
442.12	37.45
442.31	70.22
442.50	53.83
442.68	37.45
442.87	86.60
443.05	49.15
443.24	51.49
443.43	93.62
443.61	42.13
443.80	39.79
443.98	51.49
444.17	21.06
444.35	74.90
444.54	53.83
444.73	51.49
444.91	60.85
445.10	11.70
445.28	32.77
445.47	126.39
445.65	0.00
445.84	11.70
446.02	58.51
446.21	44.47
446.39	0.00
446.58	30.43
446.77	42.13
446.95	110.01
447.14	107.66
447.32	0.00
447.51	18.72
447.69	49.15
447.88	84.26
448.06	100.64
448.25	28.09
448.43	81.92
448.62	4.68
448.80	110.01
448.99	110.01
449.17	86.60
449.36	37.45
449.54	21.06
449.73	0.00
449.91	81.92
450.10	21.06
450.28	93.62
450.46	84.26
450.65	140.43
450.83	35.11
451.02	9.36
451.20	7.02
451.39	81.92
451.57	72.56
451.76	86.60
451.94	121.71
452.13	39.79
452.31	138.09
452.49	56.17
452.68	95.96
452.86	63.19
453.05	0.00
453.23	39.79
453.42	18.72
453.60	110.01
453.78	30.43
453.97	23.41
454.15	44.47
454.34	9.36
454.52	77.24
454.70	53.83
454.89	60.85
455.07	74.90
455.26	21.06
455.44	79.58
455.62	107.66
455.81	117.03
455.99	58.51
456.17	65.54
456.36	77.24
456.54	0.00
456.73	39.79
456.91	74.90
457.09	117.03
457.28	72.56
457.46	32.77
457.64	88.94
457.83	135.75
458.01	95.96
458.19	65.54
458.38	121.71
458.56	124.05
458.74	14.04
458.93	51.49
459.11	72.56
459.29	53.83
459.48	70.22
459.66	28.09
459.84	91.28
460.03	145.11
460.21	77.24
460.39	131.07
460.57	102.98
460.76	42.13
460.94	51.49
461.12	81.92
461.31	58.51
461.49	86.60
461.67	37.45
461.85	46.81
462.04	74.90
462.22	81.92
462.40	53.83
462.59	72.56
462.77	14.04
462.95	60.85
463.13	67.88
463.32	21.06
463.50	42.13
463.68	79.58
463.86	42.13
464.05	63.19
464.23	37.45
464.41	65.54
464.59	44.47
464.78	46.81
464.96	77.24
465.14	16.38
465.32	9.36
465.50	72.56
465.69	79.58
465.87	37.45
466.05	121.71
466.23	65.54
466.41	7.02
466.60	35.11
466.78	98.30
466.96	77.24
467.14	18.72
467.32	65.54
467.51	16.38
467.69	51.49
467.87	7.02
468.05	91.28
468.23	42.13
468.41	77.24
468.60	72.56
468.78	86.60
468.96	93.62
469.14	32.77
469.32	74.90
469.50	51.49
469.69	107.66
469.87	74.90
470.05	42.13
470.23	37.45
470.41	25.75
470.59	105.32
470.77	107.66
470.95	46.81
471.14	72.56
471.32	124.05
471.50	74.90
471.68	70.22
471.86	67.88
472.04	18.72
472.22	42.13
472.40	93.62
472.58	37.45
472.77	14.04
472.95	32.77
473.13	105.32
473.31	93.62
473.49	23.41
473.67	67.88
473.85	16.38
474.03	79.58
474.21	70.22
474.39	37.45
474.57	88.94
474.75	21.06
474.93	42.13
475.12	51.49
475.30	84.26
475.48	0.00
475.66	0.00
475.84	81.92
476.02	44.47
476.20	119.37
476.38	84.26
476.56	91.28
476.74	70.22
476.92	9.36
477.10	95.96
477.28	28.09
477.46	128.73
477.64	0.00
477.82	65.54
478.00	18.72
478.18	60.85
478.36	28.09
478.54	81.92
478.72	65.54
478.90	51.49
479.08	42.13
479.26	53.83
479.44	32.77
479.62	11.70
479.80	51.49
479.98	18.72
480.16	7.02
480.34	81.92
480.52	95.96
480.70	67.88
480.88	32.77
481.06	95.96
481.24	42.13
481.41	56.17
481.59	100.64
481.77	44.47
481.95	110.01
482.13	46.81
482.31	32.77
482.49	77.24
482.67	100.64
482.85	14.04
483.03	0.00
483.21	84.26
483.39	124.05
483.57	51.49
483.74	53.83
483.92	77.24
484.10	0.00
484.28	133.41
484.46	159.16
484.64	11.70
484.82	25.75
485.00	14.04
485.18	93.62
485.35	25.75
485.53	53.83
485.71	30.43
485.89	0.00
486.07	39.79
486.25	18.72
486.43	77.24
486.61	117.03
486.78	91.28
486.96	30.43
487.14	39.79
487.32	88.94
487.50	105.32
487.68	63.19
487.85	135.75
488.03	91.28
488.21	81.92
488.39	0.00
488.57	49.15
488.75	44.47
488.92	91.28
489.10	124.05
489.28	93.62
489.46	140.43
489.64	32.77
489.81	0.00
489.99	42.13
490.17	67.88
490.35	138.09
490.53	44.47
490.70	53.83
490.88	100.64
491.06	46.81
491.24	81.92
491.41	67.88
491.59	95.96
491.77	16.38
491.95	37.45
492.13	88.94
492.30	51.49
492.48	51.49
492.66	30.43
492.84	166.18
493.01	95.96
493.19	18.72
493.37	32.77
493.54	128.73
493.72	110.01
493.90	77.24
494.08	16.38
494.25	65.54
494.43	105.32
494.61	37.45
494.79	63.19
494.96	88.94
495.14	32.77
495.32	79.58
495.49	74.90
495.67	65.54
495.85	42.13
496.02	93.62
496.20	46.81
496.38	35.11
496.55	88.94
496.73	84.26
496.91	79.58
497.09	81.92
497.26	81.92
497.44	63.19
497.62	2.34
497.79	91.28
497.97	77.24
498.14	72.56
498.32	30.43
498.50	16.38
498.67	21.06
498.85	72.56
499.03	126.39
499.20	11.70
499.38	37.45
499.56	44.47
499.73	107.66
499.91	42.13
500.08	56.17
500.26	77.24
500.44	65.54
500.61	0.00
500.79	107.66
500.97	84.26
501.14	49.15
501.32	86.60
501.49	88.94
501.67	93.62
501.84	35.11
502.02	58.51
502.20	46.81
502.37	58.51
502.55	14.04
502.72	93.62
502.90	74.90
503.07	95.96
503.25	91.28
503.43	60.85
503.60	98.30
503.78	119.37
503.95	168.52
504.13	23.41
504.30	93.62
504.48	91.28
504.65	131.07
504.83	65.54
505.01	95.96
505.18	74.90
505.36	93.62
505.53	65.54
505.71	56.17
505.88	114.69
506.06	86.60
506.23	110.01
506.41	91.28
506.58	86.60
506.76	159.16
506.93	95.96
507.11	98.30
507.28	138.09
507.46	37.45
507.63	67.88
507.81	72.56
507.98	53.83
508.16	42.13
508.33	93.62
508.50	112.35
508.68	65.54
508.85	56.17
509.03	149.79
509.20	18.72
509.38	53.83
509.55	112.35
509.73	145.11
509.90	35.11
510.08	98.30
510.25	79.58
510.42	58.51
510.60	72.56
510.77	74.90
510.95	105.32
511.12	14.04
511.30	140.43
511.47	142.77
511.64	51.49
511.82	37.45
511.99	23.41
512.17	58.51
512.34	81.92
512.51	65.54
512.69	49.15
512.86	56.17
513.04	49.15
513.21	53.83
513.38	100.64
513.56	107.66
513.73	84.26
513.90	30.43
514.08	32.77
514.25	16.38
514.43	81.92
514.60	133.41
514.77	93.62
514.95	46.81
515.12	72.56
515.29	91.28
515.47	119.37
515.64	37.45
515.81	56.17
515.99	77.24
516.16	86.60
516.33	86.60
516.51	121.71
516.68	49.15
516.85	112.35
517.03	16.38
517.20	110.01
517.37	138.09
517.54	138.09
517.72	72.56
517.89	7.02
518.06	105.32
518.24	63.19
518.41	70.22
518.58	72.56
518.75	110.01
518.93	72.56
519.10	63.19
519.27	51.49
519.45	131.07
519.62	142.77
519.79	74.90
519.96	102.98
520.14	110.01
520.31	88.94
520.48	86.60
520.65	100.64
520.83	70.22
521.00	32.77
521.17	142.77
521.34	117.03
521.52	102.98
521.69	91.28
521.86	53.83
522.03	49.15
522.20	79.58
522.38	117.03
522.55	117.03
522.72	51.49
522.89	0.00
523.07	65.54
523.24	42.13
523.41	126.39
523.58	98.30
523.75	0.00
523.92	30.43
524.10	138.09
524.27	93.62
524.44	147.45
524.61	152.13
524.78	142.77
524.96	60.85
525.13	93.62
525.30	128.73
525.47	74.90
525.64	138.09
525.81	53.83
525.98	119.37
526.16	102.98
526.33	147.45
526.50	98.30
526.67	79.58
526.84	28.09
527.01	100.64
527.18	81.92
527.36	0.00
527.53	126.39
527.70	149.79
527.87	63.19
528.04	77.24
528.21	72.56
528.38	65.54
528.55	95.96
528.72	49.15
528.89	58.51
529.07	135.75
529.24	49.15
529.41	119.37
529.58	93.62
529.75	175.54
529.92	110.01
530.09	65.54
530.26	42.13
530.43	95.96
530.60	98.30
530.77	72.56
530.94	46.81
531.11	105.32
531.28	56.17
531.46	121.71
531.63	105.32
531.80	133.41
531.97	84.26
532.14	56.17
532.31	117.03
532.48	63.19
532.65	114.69
532.82	60.85
532.99	107.66
533.16	91.28
533.33	77.24
533.50	42.13
533.67	124.05
533.84	88.94
534.01	23.41
534.18	107.66
534.35	51.49
534.52	67.88
534.69	140.43
534.86	51.49
535.03	30.43
535.20	93.62
535.37	56.17
535.54	74.90
535.71	72.56
535.88	173.20
536.05	81.92
536.22	149.79
536.38	117.03
536.55	95.96
536.72	128.73
536.89	65.54
537.06	49.15
537.23	56.17
537.40	81.92
537.57	126.39
537.74	102.98
537.91	42.13
538.08	49.15
538.25	142.77
538.42	100.64
538.59	21.06
538.75	81.92
538.92	79.58
539.09	95.96
539.26	56.17
539.43	79.58
539.60	147.45
539.77	114.69
539.94	14.04
540.11	70.22
540.28	126.39
540.44	107.66
540.61	93.62
540.78	44.47
540.95	81.92
541.12	35.11
541.29	79.58
541.46	77.24
541.62	88.94
541.79	46.81
541.96	0.00
542.13	65.54
542.30	39.79
542.47	42.13
542.63	60.85
542.80	42.13
542.97	91.28
543.14	70.22
543.31	133.41
543.48	49.15
543.64	98.30
543.81	65.54
543.98	53.83
544.15	63.19
544.32	163.84
544.48	88.94
544.65	91.28
544.82	107.66
544.99	30.43
545.16	126.39
545.32	126.39
545.49	74.90
545.66	102.98
545.83	86.60
546.00	159.16
546.16	30.43
546.33	28.09
546.50	86.60
546.67	102.98
546.83	77.24
547.00	56.17
547.17	86.60
547.34	35.11
547.50	84.26
547.67	147.45
547.84	25.75
548.00	91.28
548.17	65.54
548.34	121.71
548.51	102.98
548.67	93.62
548.84	121.71
549.01	25.75
549.18	98.30
549.34	110.01
549.51	100.64
549.68	100.64
549.84	102.98
550.01	58.51
550.18	95.96
550.34	32.77
550.51	119.37
550.68	105.32
550.84	39.79
551.01	79.58
551.18	119.37
551.34	156.82
551.51	53.83
551.68	119.37
551.84	72.56
552.01	51.49
552.18	79.58
552.34	159.16
552.51	60.85
552.68	72.56
552.84	56.17
553.01	46.81
553.18	105.32
553.34	93.62
553.51	74.90
553.67	25.75
553.84	98.30
554.01	56.17
554.17	140.43
554.34	9.36
554.51	138.09
554.67	117.03
554.84	30.43
555.00	124.05
555.17	126.39
555.33	102.98
555.50	149.79
555.67	58.51
555.83	126.39
556.00	98.30
556.16	121.71
556.33	81.92
556.50	67.88
556.66	138.09
556.83	37.45
556.99	117.03
557.16	100.64
557.32	39.79
557.49	93.62
557.65	110.01
557.82	100.64
557.98	77.24
558.15	159.16
558.32	86.60
558.48	46.81
558.65	23.41
558.81	107.66
558.98	65.54
559.14	114.69
559.31	84.26
559.47	100.64
559.64	107.66
559.80	91.28
559.97	67.88
560.13	56.17
560.30	37.45
560.46	79.58
560.63	74.90
560.79	88.94
560.96	21.06
561.12	126.39
561.29	93.62
561.45	119.37
561.61	105.32
561.78	32.77
561.94	67.88
562.11	100.64
562.27	18.72
562.44	14.04
562.60	58.51
562.77	135.75
562.93	49.15
563.10	88.94
563.26	145.11
563.42	44.47
563.59	25.75
563.75	67.88
563.92	100.64
564.08	114.69
564.24	145.11
564.41	126.39
564.57	9.36
564.74	53.83
564.90	58.51
565.07	117.03
565.23	46.81
565.39	91.28
565.56	95.96
565.72	112.35
565.88	77.24
566.05	0.00
566.21	46.81
566.38	112.35
566.54	35.11
566.70	56.17
566.87	91.28
567.03	37.45
567.19	102.98
567.36	72.56
567.52	98.30
567.68	16.38
567.85	67.88
568.01	140.43
568.17	81.92
568.34	67.88
568.50	138.09
568.66	16.38
568.83	159.16
568.99	46.81
569.15	105.32
569.32	86.60
569.48	67.88
569.64	138.09
569.81	70.22
569.97	32.77
570.13	67.88
570.30	100.64
570.46	53.83
570.62	133.41
570.78	72.56
570.95	126.39
571.11	74.90
571.27	58.51
571.43	72.56
571.60	72.56
571.76	100.64
571.92	53.83
572.09	16.38
572.25	86.60
572.41	21.06
572.57	67.88
572.74	110.01
572.90	42.13
573.06	102.98
573.22	110.01
573.38	131.07
573.55	177.88
573.71	79.58
573.87	152.13
574.03	91.28
574.20	49.15
574.36	51.49
574.52	67.88
574.68	91.28
574.84	102.98
575.01	46.81
575.17	74.90
575.33	102.98
575.49	114.69
575.65	102.98
575.82	98.30
575.98	42.13
576.14	46.81
576.30	105.32
576.46	70.22
576.62	140.43
576.79	124.05
576.95	152.13
577.11	110.01
577.27	63.19
577.43	63.19
577.59	91.28
577.75	63.19
577.92	77.24
578.08	95.96
578.24	98.30
578.40	37.45
578.56	112.35
578.72	79.58
578.88	100.64
579.04	126.39
579.21	100.64
579.37	93.62
579.53	84.26
579.69	114.69
579.85	51.49
580.01	112.35
580.17	93.62
580.33	18.72
580.49	98.30
580.65	60.85
580.82	63.19
580.98	84.26
581.14	21.06
581.30	46.81
581.46	93.62
581.62	124.05
581.78	133.41
581.94	110.01
582.10	32.77
582.26	110.01
582.42	53.83
582.58	88.94
582.74	65.54
582.90	117.03
583.06	39.79
583.22	121.71
583.38	28.09
583.54	0.00
583.70	16.38
583.86	95.96
584.02	46.81
584.18	93.62
584.34	110.01
584.50	112.35
584.66	86.60
584.82	138.09
584.98	7.02
585.14	107.66
585.30	49.15
585.46	121.71
585.62	63.19
585.78	79.58
585.94	4.68
586.10	67.88
586.26	107.66
586.42	119.37
586.58	77.24
586.74	102.98
586.90	74.90
587.06	88.94
587.22	49.15
587.38	46.81
587.54	77.24
587.70	100.64
587.86	105.32
588.02	79.58
588.18	84.26
588.34	0.00
588.49	0.00
588.65	117.03
588.81	46.81
588.97	0.00
589.13	117.03
589.29	84.26
589.45	95.96
589.61	46.81
589.77	0.00
589.93	65.54
590.08	79.58
590.24	56.17
590.40	74.90
590.56	84.26
590.72	114.69
590.88	67.88
591.04	74.90
591.20	93.62
591.35	91.28
591.51	51.49
591.67	46.81
591.83	2.34
591.99	46.81
592.15	79.58
592.31	65.54
592.46	77.24
592.62	74.90
592.78	32.77
592.94	46.81
593.10	28.09
593.26	163.84
593.41	135.75
593.57	77.24
593.73	51.49
593.89	93.62
594.05	102.98
594.20	102.98
594.36	126.39
594.52	100.64
594.68	102.98
594.84	81.92
594.99	72.56
595.15	95.96
595.31	100.64
595.47	49.15
595.62	74.90
595.78	91.28
595.94	81.92
596.10	74.90
596.25	74.90
596.41	65.54
596.57	128.73
596.73	93.62
596.88	131.07
597.04	70.22
597.20	28.09
597.36	102.98
597.51	100.64
597.67	86.60
597.83	21.06
597.99	39.79
598.14	53.83
598.30	42.13
598.46	18.72
598.61	53.83
598.77	74.90
598.93	84.26
599.09	84.26
599.24	110.01
599.40	135.75
599.56	102.98
599.71	114.69
599.87	65.54
600.03	79.58
600.18	63.19
600.34	51.49
600.50	9.36
600.65	30.43
600.81	58.51
600.97	42.13
601.12	112.35
601.28	95.96
601.44	37.45
601.59	138.09
601.75	58.51
601.91	72.56
602.06	95.96
602.22	128.73
602.37	23.41
602.53	56.17
602.69	114.69
602.84	74.90
603.00	30.43
603.16	63.19
603.31	37.45
603.47	145.11
603.62	81.92
603.78	46.81
603.94	86.60
604.09	79.58
604.25	72.56
604.40	56.17
604.56	77.24
604.71	72.56
604.87	7.02
605.03	102.98
605.18	53.83
605.34	21.06
605.49	70.22
605.65	81.92
605.80	77.24
605.96	72.56
606.12	140.43
606.27	95.96
606.43	95.96
606.58	121.71
606.74	16.38
606.89	53.83
607.05	46.81
607.20	51.49
607.36	28.09
607.51	112.35
607.67	74.90
607.82	110.01
607.98	105.32
608.13	30.43
608.29	77.24
608.44	86.60
608.60	60.85
608.75	30.43
608.91	72.56
609.06	42.13
609.22	102.98
609.37	44.47
609.53	56.17
609.68	0.00
609.84	39.79
609.99	35.11
610.15	156.82
610.30	84.26
610.46	91.28
610.61	23.41
610.76	67.88
610.92	58.51
611.07	60.85
611.23	51.49
611.38	81.92
611.54	65.54
611.69	110.01
611.84	23.41
612.00	74.90
612.15	117.03
612.31	51.49
612.46	107.66
612.62	86.60
612.77	93.62
612.92	107.66
613.08	110.01
613.23	107.66
613.39	63.19
613.54	0.00
613.69	23.41
613.85	145.11
614.00	149.79
614.15	56.17
614.31	60.85
614.46	67.88
614.62	112.35
614.77	46.81
614.92	138.09
615.08	117.03
615.23	60.85
615.38	14.04
615.54	49.15
615.69	21.06
615.84	53.83
616.00	0.00
616.15	42.13
616.30	98.30
616.46	114.69
616.61	11.70
616.76	60.85
616.92	42.13
617.07	72.56
617.22	135.75
617.37	28.09
617.53	25.75
617.68	39.79
617.83	60.85
617.99	84.26
618.14	98.30
618.29	112.35
618.45	35.11
618.60	30.43
618.75	163.84
618.90	42.13
619.06	152.13
619.21	32.77
619.36	86.60
619.51	37.45
619.67	51.49
619.82	53.83
619.97	84.26
620.12	88.94
620.28	51.49
620.43	14.04
620.58	119.37
620.73	107.66
620.89	102.98
621.04	21.06
621.19	102.98
621.34	70.22
621.49	77.24
621.65	9.36
621.80	53.83
621.95	39.79
622.10	0.00
622.25	44.47
622.41	49.15
622.56	37.45
622.71	44.47
622.86	0.00
623.01	110.01
623.16	49.15
623.32	84.26
623.47	72.56
623.62	107.66
623.77	112.35
623.92	42.13
624.07	72.56
624.23	42.13
624.38	81.92
624.53	0.00
624.68	46.81
624.83	58.51
624.98	49.15
625.13	100.64
625.29	56.17
625.44	18.72
625.59	77.24
625.74	42.13
625.89	72.56
626.04	98.30
626.19	67.88
626.34	44.47
626.49	100.64
626.65	77.24
626.80	81.92
626.95	16.38
627.10	74.90
627.25	128.73
627.40	18.72
627.55	39.79
627.70	135.75
627.85	56.17
628.00	110.01
628.15	91.28
628.30	63.19
628.45	114.69
628.60	65.54
628.76	56.17
628.91	121.71
629.06	93.62
629.21	95.96
629.36	42.13
629.51	0.00
629.66	126.39
629.81	51.49
629.96	46.81
630.11	30.43
630.26	112.35
630.41	30.43
630.56	28.09
630.71	39.79
630.86	98.30
631.01	60.85
631.16	32.77
631.31	86.60
631.46	56.17
631.61	51.49
631.76	79.58
631.91	30.43
632.06	32.77
632.21	74.90
632.36	77.24
632.51	25.75
632.66	25.75
632.81	4.68
632.96	46.81
633.10	98.30
633.25	86.60
633.40	39.79
633.55	23.41
633.70	11.70
633.85	84.26
634.00	60.85
634.15	100.64
634.30	0.00
634.45	11.70
634.60	9.36
634.75	51.49
634.90	9.36
635.05	98.30
635.19	93.62
635.34	65.54
635.49	49.15
635.64	65.54
635.79	28.09
635.94	14.04
636.09	25.75
636.24	72.56
636.39	102.98
636.53	65.54
636.68	88.94
636.83	46.81
636.98	42.13
637.13	42.13
637.28	77.24
637.43	135.75
637.57	72.56
637.72	84.26
637.87	30.43
638.02	65.54
638.17	9.36
638.32	0.00
638.46	95.96
638.61	84.26
638.76	77.24
638.91	7.02
639.06	37.45
639.20	98.30
639.35	114.69
639.50	81.92
639.65	60.85
639.80	7.02
639.94	46.81
640.09	7.02
640.24	53.83
640.39	72.56
640.54	86.60
640.68	56.17
640.83	88.94
640.98	74.90
641.13	135.75
641.27	51.49
641.42	79.58
641.57	4.68
641.72	16.38
641.86	110.01
642.01	25.75
642.16	67.88
642.31	53.83
642.45	138.09
642.60	102.98
642.75	0.00
642.90	63.19
643.04	163.84
643.19	91.28
643.34	44.47
643.48	0.00
643.63	77.24
643.78	70.22
643.93	93.62
644.07	53.83
644.22	67.88
644.37	65.54
644.51	25.75
644.66	49.15
644.81	21.06
644.95	95.96
645.10	72.56
645.25	32.77
645.39	58.51
645.54	79.58
645.69	182.56
645.83	105.32
645.98	112.35
646.13	18.72
646.27	79.58
646.42	58.51
646.57	42.13
646.71	126.39
646.86	28.09
647.00	74.90
647.15	81.92
647.30	0.00
647.44	53.83
647.59	56.17
647.74	4.68
647.88	51.49
648.03	84.26
648.17	140.43
648.32	102.98
648.47	53.83
648.61	112.35
648.76	18.72
648.90	56.17
649.05	21.06
649.20	51.49
649.34	63.19
649.49	0.00
649.63	21.06
649.78	46.81
649.92	16.38
650.07	4.68
650.21	95.96
650.36	35.11
650.51	67.88
650.65	95.96
650.80	65.54
650.94	65.54
651.09	65.54
651.23	32.77
651.38	39.79
651.52	65.54
651.67	53.83
651.81	53.83
651.96	32.77
652.10	44.47
652.25	35.11
652.39	30.43
652.54	60.85
652.68	16.38
652.83	91.28
652.97	0.00
653.12	117.03
653.26	102.98
653.41	63.19
653.55	79.58
653.70	100.64
653.84	119.37
653.99	72.56
654.13	21.06
654.27	60.85
654.42	91.28
654.56	21.06
654.71	18.72
654.85	72.56
655.00	65.54
655.14	56.17
655.29	107.66
655.43	37.45
655.57	39.79
655.72	4.68
655.86	23.41
656.01	39.79
656.15	65.54
656.30	0.00
656.44	58.51
656.58	37.45
656.73	0.00
656.87	42.13
657.01	11.70
657.16	46.81
657.30	67.88
657.45	0.00
657.59	42.13
657.73	0.00
657.88	81.92
658.02	44.47
658.16	9.36
658.31	16.38
658.45	51.49
658.60	53.83
658.74	0.00
658.88	65.54
659.03	51.49
659.17	135.75
659.31	95.96
659.46	42.13
659.60	56.17
659.74	18.72
659.89	67.88
660.03	58.51
660.17	18.72
660.32	79.58
660.46	39.79
660.60	23.41
660.74	135.75
660.89	4.68
661.03	77.24
661.17	51.49
661.32	60.85
661.46	46.81
661.60	35.11
661.74	49.15
661.89	74.90
662.03	35.11
662.17	74.90
662.31	28.09
662.46	74.90
662.60	56.17
662.74	107.66
662.88	79.58
663.03	53.83
663.17	63.19
663.31	25.75
663.45	88.94
663.60	35.11
663.74	58.51
663.88	86.60
664.02	0.00
664.17	0.00
664.31	46.81
664.45	88.94
664.59	53.83
664.73	25.75
664.88	37.45
665.02	11.70
665.16	39.79
665.30	49.15
665.44	65.54
665.59	37.45
665.73	86.60
665.87	110.01
666.01	81.92
666.15	60.85
666.29	4.68
666.44	42.13
666.58	102.98
666.72	70.22
666.86	67.88
667.00	23.41
667.14	32.77
667.28	4.68
667.43	88.94
667.57	44.47
667.71	93.62
667.85	51.49
667.99	81.92
668.13	88.94
668.27	79.58
668.41	28.09
668.56	126.39
668.70	18.72
668.84	32.77
668.98	65.54
669.12	9.36
669.26	53.83
669.40	105.32
669.54	91.28
669.68	65.54
669.82	7.02
669.96	63.19
670.10	39.79
670.25	18.72
670.39	53.83
670.53	86.60
670.67	32.77
670.81	37.45
670.95	86.60
671.09	74.90
671.23	95.96
671.37	100.64
671.51	56.17
671.65	60.85
671.79	110.01
671.93	2.34
672.07	0.00
672.21	53.83
672.35	42.13
672.49	119.37
672.63	84.26
672.77	0.00
672.91	72.56
673.05	53.83
673.19	51.49
673.33	0.00
673.47	53.83
673.61	0.00
673.75	23.41
673.89	32.77
674.03	25.75
674.17	0.00
674.31	39.79
674.45	30.43
674.59	44.47
674.73	39.79
674.87	70.22
675.01	0.00
675.15	63.19
675.29	51.49
675.43	44.47
675.56	88.94
675.70	7.02
675.84	46.81
675.98	65.54
676.12	0.00
676.26	72.56
676.40	49.15
676.54	46.81
676.68	9.36
676.82	0.00
676.96	72.56
677.10	53.83
677.23	95.96
677.37	98.30
677.51	53.83
677.65	0.00
677.79	88.94
677.93	70.22
678.07	74.90
678.21	18.72
678.34	37.45
678.48	30.43
678.62	0.00
678.76	100.64
678.90	35.11
679.04	117.03
679.18	81.92
679.31	7.02
679.45	18.72
679.59	0.00
679.73	21.06
679.87	67.88
680.00	70.22
680.14	65.54
680.28	44.47
680.42	79.58
680.56	107.66
680.70	63.19
680.83	0.00
680.97	21.06
681.11	0.00
681.25	32.77
681.39	4.68
681.52	30.43
681.66	79.58
681.80	46.81
681.94	30.43
682.07	86.60
682.21	56.17
682.35	46.81
682.49	44.47
682.62	117.03
682.76	0.00
682.90	28.09
683.04	35.11
683.17	79.58
683.31	95.96
683.45	51.49
683.59	84.26
683.72	128.73
683.86	88.94
684.00	46.81
684.13	0.00
684.27	77.24
684.41	65.54
684.55	42.13
684.68	44.47
684.82	35.11
684.96	0.00
685.09	72.56
685.23	84.26
685.37	0.00
685.50	42.13
685.64	39.79
685.78	86.60
685.91	119.37
686.05	0.00
686.19	49.15
686.32	0.00
686.46	44.47
686.60	16.38
686.73	46.81
686.87	30.43
687.01	51.49
687.14	32.77
687.28	58.51
687.42	39.79
687.55	44.47
687.69	100.64
687.82	53.83
687.96	42.13
688.10	18.72
688.23	23.41
688.37	77.24
688.50	9.36
688.64	65.54
688.78	86.60
688.91	44.47
689.05	60.85
689.18	46.81
689.32	0.00
689.46	98.30
689.59	14.04
689.73	0.00
689.86	81.92
690.00	93.62
690.13	4.68
690.27	0.00
690.41	7.02
690.54	49.15
690.68	81.92
690.81	93.62
690.95	32.77
691.08	23.41
691.22	7.02
691.35	42.13
691.49	18.72
691.62	9.36
691.76	51.49
691.89	49.15
692.03	44.47
692.16	0.00
692.30	21.06
692.43	91.28
692.57	49.15
692.70	107.66
692.84	39.79
692.97	0.00
693.11	18.72
693.24	72.56
693.38	23.41
693.51	14.04
693.65	9.36
693.78	0.00
693.92	63.19
694.05	42.13
694.19	0.00
694.32	28.09
694.45	14.04
694.59	44.47
694.72	60.85
694.86	28.09
694.99	60.85
695.13	0.00
695.26	0.00
695.39	72.56
695.53	84.26
695.66	91.28
695.80	4.68
695.93	37.45
696.07	0.00
696.20	0.00
696.33	49.15
696.47	0.00
696.60	86.60
696.73	117.03
696.87	18.72
697.00	2.34
697.14	65.54
697.27	0.00
697.40	11.70
697.54	37.45
697.67	35.11
697.80	49.15
697.94	49.15
698.07	0.00
698.21	86.60
698.34	60.85
698.47	107.66
698.61	100.64
698.74	42.13
698.87	49.15
699.01	0.00
699.14	30.43
699.27	35.11
699.40	112.35
699.54	44.47
699.67	0.00
699.80	39.79
699.94	49.15
700.07	0.00
700.20	35.11
700.34	53.83
700.47	23.41
700.60	32.77
700.73	0.00
700.87	14.04
701.00	0.00
701.13	65.54
701.26	21.06
701.40	77.24
701.53	53.83
701.66	0.00
701.79	18.72
701.93	0.00
702.06	16.38
702.19	37.45
702.32	28.09
702.46	65.54
702.59	4.68
702.72	56.17
702.85	51.49
702.99	105.32
703.12	44.47
703.25	95.96
703.38	21.06
703.51	46.81
703.65	42.13
703.78	2.34
703.91	56.17
704.04	23.41
704.17	30.43
704.31	39.79
704.44	93.62
704.57	44.47
704.70	37.45
704.83	35.11
704.96	18.72
705.10	0.00
705.23	37.45
>>>>>End Processed Spectral Data<<<<<
