SpectraSuite Data File
++++++++++++++++++++++++++++++++++++
Date: Fri Oct 04 12:13:40 GMT-05:00 2013
User: price-jones
Dark Spectrum Present: No
Reference Spectrum Present: No
Number of Sampled Component Spectra: 1
Spectrometers: USB2+H05261
Integration Time (usec): 10000 (USB2+H05261)
Spectra Averaged: 1 (USB2+H05261)
Boxcar Smoothing: 0 (USB2+H05261)
Correct for Electrical Dark: No (USB2+H05261)
Strobe/Lamp Enabled: No (USB2+H05261)
Correct for Detector Non-linearity: No (USB2+H05261)
Correct for Stray Light: No (USB2+H05261)
Number of Pixels in Processed Spectrum: 2048
>>>>>Begin Processed Spectral Data<<<<<
365.73	9.36
365.92	9.36
366.12	9.36
366.32	0.00
366.52	0.00
366.72	0.00
366.91	0.00
367.11	0.00
367.31	0.00
367.51	0.00
367.70	0.00
367.90	0.00
368.10	0.00
368.30	0.00
368.49	0.00
368.69	0.00
368.89	0.00
369.09	0.00
369.28	0.00
369.48	0.00
369.68	0.00
369.87	0.00
370.07	0.00
370.27	0.00
370.47	0.00
370.66	0.00
370.86	0.00
371.06	0.00
371.25	18.72
371.45	0.00
371.65	0.00
371.84	0.00
372.04	28.09
372.24	0.00
372.44	4.68
372.63	11.70
372.83	0.00
373.03	4.68
373.22	32.77
373.42	42.13
373.62	0.00
373.81	25.75
374.01	4.68
374.21	56.17
374.40	21.06
374.60	42.13
374.79	32.77
374.99	51.49
375.19	84.26
375.38	37.45
375.58	21.06
375.78	14.04
375.97	0.00
376.17	95.96
376.37	0.00
376.56	28.09
376.76	44.47
376.95	98.30
377.15	4.68
377.35	42.13
377.54	11.70
377.74	35.11
377.93	0.00
378.13	4.68
378.33	63.19
378.52	25.75
378.72	21.06
378.91	39.79
379.11	35.11
379.31	42.13
379.50	14.04
379.70	4.68
379.89	0.00
380.09	79.58
380.28	58.51
380.48	28.09
380.68	21.06
380.87	0.00
381.07	23.41
381.26	86.60
381.46	39.79
381.65	11.70
381.85	16.38
382.04	0.00
382.24	11.70
382.43	35.11
382.63	42.13
382.83	49.15
383.02	14.04
383.22	14.04
383.41	11.70
383.61	0.00
383.80	0.00
384.00	0.00
384.19	14.04
384.39	0.00
384.58	0.00
384.78	23.41
384.97	30.43
385.17	32.77
385.36	0.00
385.56	0.00
385.75	21.06
385.95	37.45
386.14	9.36
386.34	35.11
386.53	35.11
386.72	25.75
386.92	21.06
387.11	9.36
387.31	14.04
387.50	0.00
387.70	32.77
387.89	4.68
388.09	25.75
388.28	4.68
388.48	44.47
388.67	0.00
388.86	0.00
389.06	0.00
389.25	0.00
389.45	14.04
389.64	53.83
389.84	0.00
390.03	39.79
390.22	0.00
390.42	21.06
390.61	70.22
390.81	18.72
391.00	14.04
391.19	91.28
391.39	0.00
391.58	0.00
391.78	105.32
391.97	0.00
392.16	39.79
392.36	39.79
392.55	0.00
392.75	9.36
392.94	9.36
393.13	56.17
393.33	0.00
393.52	35.11
393.71	49.15
393.91	16.38
394.10	11.70
394.29	63.19
394.49	0.00
394.68	14.04
394.88	37.45
395.07	30.43
395.26	42.13
395.46	16.38
395.65	30.43
395.84	37.45
396.04	58.51
396.23	0.00
396.42	23.41
396.62	42.13
396.81	42.13
397.00	0.00
397.19	95.96
397.39	7.02
397.58	21.06
397.77	21.06
397.97	42.13
398.16	0.00
398.35	53.83
398.55	49.15
398.74	0.00
398.93	44.47
399.12	37.45
399.32	0.00
399.51	35.11
399.70	4.68
399.90	63.19
400.09	21.06
400.28	28.09
400.47	0.00
400.67	14.04
400.86	60.85
401.05	65.54
401.24	86.60
401.44	67.88
401.63	44.47
401.82	72.56
402.01	30.43
402.21	14.04
402.40	0.00
402.59	81.92
402.78	95.96
402.97	0.00
403.17	16.38
403.36	88.94
403.55	0.00
403.74	72.56
403.93	0.00
404.13	0.00
404.32	2.34
404.51	14.04
404.70	42.13
404.89	11.70
405.09	16.38
405.28	0.00
405.47	23.41
405.66	46.81
405.85	23.41
406.05	77.24
406.24	0.00
406.43	88.94
406.62	0.00
406.81	11.70
407.00	42.13
407.20	30.43
407.39	44.47
407.58	65.54
407.77	23.41
407.96	67.88
408.15	60.85
408.34	42.13
408.54	14.04
408.73	37.45
408.92	18.72
409.11	46.81
409.30	39.79
409.49	7.02
409.68	65.54
409.87	39.79
410.07	39.79
410.26	0.00
410.45	79.58
410.64	7.02
410.83	2.34
411.02	51.49
411.21	53.83
411.40	77.24
411.59	65.54
411.78	0.00
411.98	102.98
412.17	65.54
412.36	100.64
412.55	18.72
412.74	23.41
412.93	65.54
413.12	77.24
413.31	63.19
413.50	0.00
413.69	100.64
413.88	60.85
414.07	49.15
414.26	16.38
414.45	32.77
414.64	30.43
414.83	16.38
415.02	25.75
415.22	37.45
415.41	93.62
415.60	0.00
415.79	51.49
415.98	53.83
416.17	0.00
416.36	11.70
416.55	67.88
416.74	44.47
416.93	0.00
417.12	9.36
417.31	11.70
417.50	0.00
417.69	72.56
417.88	95.96
418.07	16.38
418.26	0.00
418.45	0.00
418.64	70.22
418.83	49.15
419.02	60.85
419.21	133.41
419.39	0.00
419.58	46.81
419.77	56.17
419.96	86.60
420.15	107.66
420.34	44.47
420.53	44.47
420.72	42.13
420.91	63.19
421.10	46.81
421.29	72.56
421.48	98.30
421.67	84.26
421.86	21.06
422.05	28.09
422.24	56.17
422.43	28.09
422.61	91.28
422.80	65.54
422.99	0.00
423.18	0.00
423.37	63.19
423.56	18.72
423.75	2.34
423.94	88.94
424.13	79.58
424.32	39.79
424.50	44.47
424.69	0.00
424.88	2.34
425.07	28.09
425.26	79.58
425.45	4.68
425.64	4.68
425.83	56.17
426.01	0.00
426.20	11.70
426.39	49.15
426.58	23.41
426.77	35.11
426.96	23.41
427.15	53.83
427.33	18.72
427.52	23.41
427.71	51.49
427.90	44.47
428.09	42.13
428.28	77.24
428.46	23.41
428.65	117.03
428.84	37.45
429.03	0.00
429.22	0.00
429.40	0.00
429.59	60.85
429.78	0.00
429.97	4.68
430.16	23.41
430.34	79.58
430.53	42.13
430.72	44.47
430.91	56.17
431.10	30.43
431.28	0.00
431.47	70.22
431.66	72.56
431.85	79.58
432.03	30.43
432.22	84.26
432.41	84.26
432.60	30.43
432.79	23.41
432.97	25.75
433.16	58.51
433.35	63.19
433.54	25.75
433.72	84.26
433.91	7.02
434.10	42.13
434.28	60.85
434.47	145.11
434.66	51.49
434.85	51.49
435.03	49.15
435.22	63.19
435.41	35.11
435.59	67.88
435.78	58.51
435.97	21.06
436.16	46.81
436.34	35.11
436.53	0.00
436.72	7.02
436.90	23.41
437.09	119.37
437.28	58.51
437.46	65.54
437.65	39.79
437.84	51.49
438.02	84.26
438.21	9.36
438.40	25.75
438.58	142.77
438.77	18.72
438.96	58.51
439.14	9.36
439.33	74.90
439.52	81.92
439.70	70.22
439.89	21.06
440.08	18.72
440.26	135.75
440.45	72.56
440.63	119.37
440.82	93.62
441.01	25.75
441.19	0.00
441.38	56.17
441.57	100.64
441.75	35.11
441.94	56.17
442.12	51.49
442.31	11.70
442.50	74.90
442.68	23.41
442.87	58.51
443.05	0.00
443.24	25.75
443.43	42.13
443.61	46.81
443.80	77.24
443.98	35.11
444.17	100.64
444.35	102.98
444.54	140.43
444.73	49.15
444.91	0.00
445.10	70.22
445.28	60.85
445.47	0.00
445.65	81.92
445.84	39.79
446.02	11.70
446.21	63.19
446.39	65.54
446.58	4.68
446.77	9.36
446.95	37.45
447.14	63.19
447.32	67.88
447.51	56.17
447.69	42.13
447.88	112.35
448.06	0.00
448.25	25.75
448.43	81.92
448.62	28.09
448.80	28.09
448.99	84.26
449.17	110.01
449.36	46.81
449.54	23.41
449.73	58.51
449.91	44.47
450.10	70.22
450.28	91.28
450.46	0.00
450.65	49.15
450.83	25.75
451.02	93.62
451.20	93.62
451.39	0.00
451.57	46.81
451.76	37.45
451.94	14.04
452.13	166.18
452.31	53.83
452.49	51.49
452.68	114.69
452.86	51.49
453.05	95.96
453.23	88.94
453.42	56.17
453.60	70.22
453.78	42.13
453.97	9.36
454.15	35.11
454.34	117.03
454.52	39.79
454.70	58.51
454.89	0.00
455.07	77.24
455.26	77.24
455.44	67.88
455.62	53.83
455.81	18.72
455.99	46.81
456.17	79.58
456.36	0.00
456.54	37.45
456.73	93.62
456.91	44.47
457.09	65.54
457.28	46.81
457.46	77.24
457.64	25.75
457.83	135.75
458.01	72.56
458.19	35.11
458.38	16.38
458.56	37.45
458.74	4.68
458.93	0.00
459.11	16.38
459.29	49.15
459.48	74.90
459.66	56.17
459.84	14.04
460.03	74.90
460.21	37.45
460.39	72.56
460.57	44.47
460.76	112.35
460.94	121.71
461.12	117.03
461.31	67.88
461.49	79.58
461.67	51.49
461.85	135.75
462.04	56.17
462.22	86.60
462.40	112.35
462.59	147.45
462.77	58.51
462.95	65.54
463.13	79.58
463.32	67.88
463.50	72.56
463.68	81.92
463.86	60.85
464.05	18.72
464.23	32.77
464.41	84.26
464.59	51.49
464.78	77.24
464.96	21.06
465.14	100.64
465.32	32.77
465.50	16.38
465.69	51.49
465.87	72.56
466.05	21.06
466.23	72.56
466.41	0.00
466.60	30.43
466.78	18.72
466.96	53.83
467.14	30.43
467.32	23.41
467.51	65.54
467.69	51.49
467.87	25.75
468.05	7.02
468.23	0.00
468.41	84.26
468.60	56.17
468.78	91.28
468.96	79.58
469.14	2.34
469.32	63.19
469.50	44.47
469.69	9.36
469.87	21.06
470.05	11.70
470.23	79.58
470.41	53.83
470.59	60.85
470.77	28.09
470.95	18.72
471.14	88.94
471.32	67.88
471.50	56.17
471.68	35.11
471.86	32.77
472.04	37.45
472.22	28.09
472.40	0.00
472.58	44.47
472.77	124.05
472.95	72.56
473.13	84.26
473.31	49.15
473.49	44.47
473.67	46.81
473.85	70.22
474.03	14.04
474.21	56.17
474.39	154.48
474.57	81.92
474.75	25.75
474.93	46.81
475.12	4.68
475.30	91.28
475.48	95.96
475.66	67.88
475.84	117.03
476.02	53.83
476.20	0.00
476.38	93.62
476.56	100.64
476.74	51.49
476.92	46.81
477.10	21.06
477.28	14.04
477.46	11.70
477.64	138.09
477.82	14.04
478.00	0.00
478.18	81.92
478.36	58.51
478.54	7.02
478.72	16.38
478.90	100.64
479.08	11.70
479.26	86.60
479.44	30.43
479.62	88.94
479.80	14.04
479.98	35.11
480.16	56.17
480.34	100.64
480.52	53.83
480.70	30.43
480.88	32.77
481.06	74.90
481.24	53.83
481.41	142.77
481.59	30.43
481.77	79.58
481.95	39.79
482.13	21.06
482.31	100.64
482.49	63.19
482.67	35.11
482.85	56.17
483.03	60.85
483.21	46.81
483.39	0.00
483.57	86.60
483.74	39.79
483.92	35.11
484.10	49.15
484.28	72.56
484.46	42.13
484.64	39.79
484.82	140.43
485.00	105.32
485.18	51.49
485.35	93.62
485.53	60.85
485.71	37.45
485.89	44.47
486.07	77.24
486.25	102.98
486.43	60.85
486.61	58.51
486.78	100.64
486.96	91.28
487.14	77.24
487.32	93.62
487.50	88.94
487.68	39.79
487.85	58.51
488.03	79.58
488.21	70.22
488.39	0.00
488.57	49.15
488.75	107.66
488.92	65.54
489.10	72.56
489.28	91.28
489.46	65.54
489.64	7.02
489.81	105.32
489.99	60.85
490.17	2.34
490.35	37.45
490.53	0.00
490.70	135.75
490.88	32.77
491.06	74.90
491.24	16.38
491.41	21.06
491.59	42.13
491.77	67.88
491.95	49.15
492.13	84.26
492.30	67.88
492.48	100.64
492.66	93.62
492.84	140.43
493.01	79.58
493.19	23.41
493.37	63.19
493.54	88.94
493.72	114.69
493.90	77.24
494.08	44.47
494.25	102.98
494.43	119.37
494.61	102.98
494.79	110.01
494.96	32.77
495.14	79.58
495.32	42.13
495.49	14.04
495.67	86.60
495.85	81.92
496.02	23.41
496.20	0.00
496.38	102.98
496.55	81.92
496.73	102.98
496.91	81.92
497.09	0.00
497.26	67.88
497.44	32.77
497.62	84.26
497.79	98.30
497.97	14.04
498.14	105.32
498.32	128.73
498.50	65.54
498.67	86.60
498.85	88.94
499.03	88.94
499.20	46.81
499.38	72.56
499.56	126.39
499.73	60.85
499.91	56.17
500.08	79.58
500.26	18.72
500.44	93.62
500.61	95.96
500.79	51.49
500.97	84.26
501.14	147.45
501.32	67.88
501.49	39.79
501.67	0.00
501.84	119.37
502.02	86.60
502.20	9.36
502.37	53.83
502.55	30.43
502.72	81.92
502.90	56.17
503.07	156.82
503.25	91.28
503.43	53.83
503.60	35.11
503.78	88.94
503.95	63.19
504.13	79.58
504.30	58.51
504.48	147.45
504.65	67.88
504.83	58.51
505.01	114.69
505.18	49.15
505.36	74.90
505.53	67.88
505.71	86.60
505.88	117.03
506.06	86.60
506.23	0.00
506.41	119.37
506.58	117.03
506.76	0.00
506.93	39.79
507.11	44.47
507.28	72.56
507.46	74.90
507.63	51.49
507.81	84.26
507.98	58.51
508.16	86.60
508.33	42.13
508.50	67.88
508.68	51.49
508.85	9.36
509.03	91.28
509.20	156.82
509.38	131.07
509.55	84.26
509.73	79.58
509.90	32.77
510.08	91.28
510.25	39.79
510.42	112.35
510.60	67.88
510.77	16.38
510.95	86.60
511.12	74.90
511.30	119.37
511.47	84.26
511.64	65.54
511.82	77.24
511.99	72.56
512.17	124.05
512.34	65.54
512.51	88.94
512.69	79.58
512.86	95.96
513.04	37.45
513.21	124.05
513.38	93.62
513.56	131.07
513.73	77.24
513.90	88.94
514.08	114.69
514.25	140.43
514.43	14.04
514.60	117.03
514.77	72.56
514.95	14.04
515.12	84.26
515.29	18.72
515.47	91.28
515.64	86.60
515.81	49.15
515.99	95.96
516.16	46.81
516.33	131.07
516.51	149.79
516.68	95.96
516.85	74.90
517.03	79.58
517.20	93.62
517.37	79.58
517.54	81.92
517.72	60.85
517.89	102.98
518.06	140.43
518.24	67.88
518.41	145.11
518.58	65.54
518.75	170.86
518.93	93.62
519.10	42.13
519.27	117.03
519.45	88.94
519.62	58.51
519.79	30.43
519.96	79.58
520.14	65.54
520.31	126.39
520.48	91.28
520.65	65.54
520.83	67.88
521.00	117.03
521.17	65.54
521.34	86.60
521.52	142.77
521.69	91.28
521.86	67.88
522.03	30.43
522.20	100.64
522.38	30.43
522.55	44.47
522.72	37.45
522.89	16.38
523.07	81.92
523.24	23.41
523.41	100.64
523.58	65.54
523.75	65.54
523.92	88.94
524.10	100.64
524.27	65.54
524.44	95.96
524.61	35.11
524.78	88.94
524.96	56.17
525.13	117.03
525.30	65.54
525.47	63.19
525.64	63.19
525.81	138.09
525.98	91.28
526.16	65.54
526.33	84.26
526.50	107.66
526.67	77.24
526.84	56.17
527.01	60.85
527.18	95.96
527.36	86.60
527.53	114.69
527.70	44.47
527.87	67.88
528.04	60.85
528.21	105.32
528.38	105.32
528.55	124.05
528.72	77.24
528.89	107.66
529.07	124.05
529.24	93.62
529.41	74.90
529.58	102.98
529.75	63.19
529.92	16.38
530.09	91.28
530.26	60.85
530.43	81.92
530.60	102.98
530.77	72.56
530.94	23.41
531.11	131.07
531.28	60.85
531.46	77.24
531.63	30.43
531.80	74.90
531.97	126.39
532.14	42.13
532.31	156.82
532.48	25.75
532.65	65.54
532.82	114.69
532.99	81.92
533.16	60.85
533.33	42.13
533.50	95.96
533.67	117.03
533.84	86.60
534.01	74.90
534.18	72.56
534.35	81.92
534.52	131.07
534.69	79.58
534.86	67.88
535.03	63.19
535.20	49.15
535.37	77.24
535.54	112.35
535.71	126.39
535.88	56.17
536.05	114.69
536.22	49.15
536.38	70.22
536.55	128.73
536.72	88.94
536.89	53.83
537.06	145.11
537.23	124.05
537.40	110.01
537.57	107.66
537.74	112.35
537.91	39.79
538.08	49.15
538.25	72.56
538.42	21.06
538.59	102.98
538.75	77.24
538.92	28.09
539.09	74.90
539.26	84.26
539.43	81.92
539.60	53.83
539.77	65.54
539.94	81.92
540.11	77.24
540.28	93.62
540.44	131.07
540.61	126.39
540.78	46.81
540.95	60.85
541.12	65.54
541.29	60.85
541.46	93.62
541.62	21.06
541.79	100.64
541.96	51.49
542.13	77.24
542.30	112.35
542.47	105.32
542.63	53.83
542.80	14.04
542.97	18.72
543.14	102.98
543.31	145.11
543.48	81.92
543.64	63.19
543.81	126.39
543.98	161.50
544.15	37.45
544.32	119.37
544.48	138.09
544.65	110.01
544.82	93.62
544.99	21.06
545.16	105.32
545.32	65.54
545.49	86.60
545.66	105.32
545.83	74.90
546.00	105.32
546.16	112.35
546.33	86.60
546.50	51.49
546.67	84.26
546.83	60.85
547.00	86.60
547.17	131.07
547.34	32.77
547.50	88.94
547.67	86.60
547.84	91.28
548.00	37.45
548.17	79.58
548.34	35.11
548.51	110.01
548.67	145.11
548.84	93.62
549.01	161.50
549.18	74.90
549.34	70.22
549.51	131.07
549.68	81.92
549.84	18.72
550.01	65.54
550.18	117.03
550.34	77.24
550.51	135.75
550.68	65.54
550.84	30.43
551.01	88.94
551.18	91.28
551.34	77.24
551.51	65.54
551.68	81.92
551.84	110.01
552.01	100.64
552.18	112.35
552.34	187.24
552.51	93.62
552.68	142.77
552.84	105.32
553.01	88.94
553.18	49.15
553.34	100.64
553.51	81.92
553.67	14.04
553.84	65.54
554.01	112.35
554.17	23.41
554.34	124.05
554.51	44.47
554.67	102.98
554.84	145.11
555.00	114.69
555.17	135.75
555.33	81.92
555.50	140.43
555.67	60.85
555.83	147.45
556.00	98.30
556.16	28.09
556.33	112.35
556.50	53.83
556.66	86.60
556.83	9.36
556.99	88.94
557.16	112.35
557.32	72.56
557.49	93.62
557.65	84.26
557.82	60.85
557.98	77.24
558.15	119.37
558.32	74.90
558.48	84.26
558.65	72.56
558.81	138.09
558.98	91.28
559.14	128.73
559.31	28.09
559.47	14.04
559.64	95.96
559.80	110.01
559.97	114.69
560.13	58.51
560.30	79.58
560.46	0.00
560.63	65.54
560.79	30.43
560.96	100.64
561.12	46.81
561.29	105.32
561.45	18.72
561.61	16.38
561.78	98.30
561.94	49.15
562.11	79.58
562.27	79.58
562.44	98.30
562.60	46.81
562.77	32.77
562.93	131.07
563.10	30.43
563.26	21.06
563.42	11.70
563.59	91.28
563.75	0.00
563.92	91.28
564.08	44.47
564.24	100.64
564.41	88.94
564.57	42.13
564.74	70.22
564.90	170.86
565.07	119.37
565.23	18.72
565.39	77.24
565.56	35.11
565.72	72.56
565.88	35.11
566.05	42.13
566.21	35.11
566.38	72.56
566.54	88.94
566.70	39.79
566.87	102.98
567.03	79.58
567.19	58.51
567.36	126.39
567.52	56.17
567.68	0.00
567.85	16.38
568.01	2.34
568.17	28.09
568.34	121.71
568.50	138.09
568.66	86.60
568.83	105.32
568.99	84.26
569.15	91.28
569.32	35.11
569.48	100.64
569.64	140.43
569.81	110.01
569.97	79.58
570.13	74.90
570.30	2.34
570.46	131.07
570.62	91.28
570.78	135.75
570.95	145.11
571.11	56.17
571.27	81.92
571.43	114.69
571.60	49.15
571.76	42.13
571.92	25.75
572.09	112.35
572.25	126.39
572.41	67.88
572.57	18.72
572.74	147.45
572.90	46.81
573.06	142.77
573.22	53.83
573.38	100.64
573.55	53.83
573.71	79.58
573.87	70.22
574.03	58.51
574.20	84.26
574.36	65.54
574.52	21.06
574.68	2.34
574.84	93.62
575.01	93.62
575.17	100.64
575.33	102.98
575.49	110.01
575.65	72.56
575.82	88.94
575.98	100.64
576.14	86.60
576.30	0.00
576.46	32.77
576.62	44.47
576.79	72.56
576.95	126.39
577.11	53.83
577.27	79.58
577.43	117.03
577.59	63.19
577.75	88.94
577.92	53.83
578.08	51.49
578.24	9.36
578.40	126.39
578.56	84.26
578.72	142.77
578.88	81.92
579.04	95.96
579.21	100.64
579.37	74.90
579.53	86.60
579.69	110.01
579.85	124.05
580.01	93.62
580.17	77.24
580.33	105.32
580.49	138.09
580.65	98.30
580.82	53.83
580.98	105.32
581.14	60.85
581.30	88.94
581.46	81.92
581.62	30.43
581.78	107.66
581.94	81.92
582.10	60.85
582.26	58.51
582.42	32.77
582.58	60.85
582.74	119.37
582.90	0.00
583.06	140.43
583.22	135.75
583.38	107.66
583.54	63.19
583.70	21.06
583.86	56.17
584.02	51.49
584.18	23.41
584.34	105.32
584.50	51.49
584.66	100.64
584.82	49.15
584.98	67.88
585.14	86.60
585.30	131.07
585.46	117.03
585.62	30.43
585.78	0.00
585.94	110.01
586.10	58.51
586.26	131.07
586.42	84.26
586.58	23.41
586.74	25.75
586.90	100.64
587.06	58.51
587.22	100.64
587.38	140.43
587.54	63.19
587.70	30.43
587.86	84.26
588.02	91.28
588.18	74.90
588.34	140.43
588.49	60.85
588.65	98.30
588.81	70.22
588.97	121.71
589.13	91.28
589.29	0.00
589.45	72.56
589.61	37.45
589.77	77.24
589.93	79.58
590.08	72.56
590.24	32.77
590.40	88.94
590.56	18.72
590.72	63.19
590.88	4.68
591.04	77.24
591.20	18.72
591.35	95.96
591.51	0.00
591.67	126.39
591.83	77.24
591.99	91.28
592.15	56.17
592.31	79.58
592.46	56.17
592.62	74.90
592.78	0.00
592.94	91.28
593.10	170.86
593.26	107.66
593.41	74.90
593.57	60.85
593.73	119.37
593.89	102.98
594.05	93.62
594.20	67.88
594.36	79.58
594.52	0.00
594.68	49.15
594.84	72.56
594.99	35.11
595.15	110.01
595.31	46.81
595.47	44.47
595.62	154.48
595.78	63.19
595.94	32.77
596.10	63.19
596.25	93.62
596.41	35.11
596.57	98.30
596.73	135.75
596.88	81.92
597.04	39.79
597.20	16.38
597.36	88.94
597.51	51.49
597.67	70.22
597.83	0.00
597.99	121.71
598.14	110.01
598.30	42.13
598.46	25.75
598.61	25.75
598.77	14.04
598.93	95.96
599.09	74.90
599.24	11.70
599.40	105.32
599.56	51.49
599.71	95.96
599.87	51.49
600.03	98.30
600.18	0.00
600.34	30.43
600.50	58.51
600.65	46.81
600.81	32.77
600.97	77.24
601.12	11.70
601.28	81.92
601.44	77.24
601.59	0.00
601.75	9.36
601.91	74.90
602.06	77.24
602.22	93.62
602.37	135.75
602.53	44.47
602.69	56.17
602.84	95.96
603.00	112.35
603.16	58.51
603.31	74.90
603.47	65.54
603.62	32.77
603.78	84.26
603.94	4.68
604.09	0.00
604.25	102.98
604.40	30.43
604.56	91.28
604.71	105.32
604.87	74.90
605.03	67.88
605.18	74.90
605.34	70.22
605.49	51.49
605.65	70.22
605.80	32.77
605.96	67.88
606.12	25.75
606.27	91.28
606.43	79.58
606.58	110.01
606.74	102.98
606.89	35.11
607.05	51.49
607.20	100.64
607.36	86.60
607.51	46.81
607.67	42.13
607.82	81.92
607.98	35.11
608.13	84.26
608.29	81.92
608.44	91.28
608.60	23.41
608.75	37.45
608.91	81.92
609.06	63.19
609.22	102.98
609.37	72.56
609.53	56.17
609.68	72.56
609.84	77.24
609.99	138.09
610.15	58.51
610.30	100.64
610.46	58.51
610.61	58.51
610.76	49.15
610.92	51.49
611.07	60.85
611.23	84.26
611.38	46.81
611.54	74.90
611.69	81.92
611.84	81.92
612.00	25.75
612.15	91.28
612.31	95.96
612.46	46.81
612.62	124.05
612.77	173.20
612.92	0.00
613.08	140.43
613.23	79.58
613.39	95.96
613.54	63.19
613.69	51.49
613.85	28.09
614.00	74.90
614.15	107.66
614.31	42.13
614.46	84.26
614.62	44.47
614.77	95.96
614.92	110.01
615.08	70.22
615.23	107.66
615.38	28.09
615.54	98.30
615.69	46.81
615.84	58.51
616.00	67.88
616.15	23.41
616.30	140.43
616.46	72.56
616.61	102.98
616.76	0.00
616.92	72.56
617.07	9.36
617.22	67.88
617.37	65.54
617.53	67.88
617.68	95.96
617.83	95.96
617.99	56.17
618.14	25.75
618.29	58.51
618.45	110.01
618.60	56.17
618.75	46.81
618.90	119.37
619.06	37.45
619.21	7.02
619.36	58.51
619.51	100.64
619.67	88.94
619.82	121.71
619.97	105.32
620.12	112.35
620.28	95.96
620.43	70.22
620.58	23.41
620.73	25.75
620.89	39.79
621.04	18.72
621.19	56.17
621.34	95.96
621.49	18.72
621.65	21.06
621.80	91.28
621.95	95.96
622.10	107.66
622.25	28.09
622.41	25.75
622.56	44.47
622.71	25.75
622.86	67.88
623.01	65.54
623.16	51.49
623.32	95.96
623.47	0.00
623.62	21.06
623.77	0.00
623.92	58.51
624.07	77.24
624.23	49.15
624.38	72.56
624.53	60.85
624.68	98.30
624.83	49.15
624.98	74.90
625.13	42.13
625.29	23.41
625.44	35.11
625.59	86.60
625.74	18.72
625.89	88.94
626.04	67.88
626.19	46.81
626.34	0.00
626.49	86.60
626.65	86.60
626.80	88.94
626.95	98.30
627.10	35.11
627.25	44.47
627.40	58.51
627.55	86.60
627.70	30.43
627.85	16.38
628.00	98.30
628.15	44.47
628.30	9.36
628.45	84.26
628.60	70.22
628.76	86.60
628.91	70.22
629.06	35.11
629.21	126.39
629.36	28.09
629.51	65.54
629.66	18.72
629.81	35.11
629.96	79.58
630.11	149.79
630.26	77.24
630.41	72.56
630.56	70.22
630.71	11.70
630.86	124.05
631.01	53.83
631.16	30.43
631.31	23.41
631.46	110.01
631.61	60.85
631.76	46.81
631.91	0.00
632.06	93.62
632.21	93.62
632.36	25.75
632.51	53.83
632.66	84.26
632.81	9.36
632.96	74.90
633.10	117.03
633.25	56.17
633.40	21.06
633.55	91.28
633.70	65.54
633.85	102.98
634.00	23.41
634.15	25.75
634.30	0.00
634.45	65.54
634.60	0.00
634.75	74.90
634.90	98.30
635.05	9.36
635.19	53.83
635.34	95.96
635.49	72.56
635.64	67.88
635.79	42.13
635.94	84.26
636.09	79.58
636.24	81.92
636.39	44.47
636.53	124.05
636.68	93.62
636.83	0.00
636.98	39.79
637.13	0.00
637.28	135.75
637.43	156.82
637.57	0.00
637.72	46.81
637.87	65.54
638.02	84.26
638.17	53.83
638.32	70.22
638.46	25.75
638.61	60.85
638.76	16.38
638.91	16.38
639.06	65.54
639.20	67.88
639.35	60.85
639.50	63.19
639.65	100.64
639.80	81.92
639.94	0.00
640.09	114.69
640.24	72.56
640.39	65.54
640.54	72.56
640.68	35.11
640.83	98.30
640.98	42.13
641.13	77.24
641.27	70.22
641.42	65.54
641.57	58.51
641.72	21.06
641.86	79.58
642.01	60.85
642.16	30.43
642.31	53.83
642.45	145.11
642.60	128.73
642.75	79.58
642.90	100.64
643.04	35.11
643.19	0.00
643.34	72.56
643.48	0.00
643.63	65.54
643.78	46.81
643.93	37.45
644.07	35.11
644.22	65.54
644.37	100.64
644.51	74.90
644.66	81.92
644.81	37.45
644.95	42.13
645.10	49.15
645.25	98.30
645.39	44.47
645.54	46.81
645.69	88.94
645.83	58.51
645.98	60.85
646.13	114.69
646.27	86.60
646.42	102.98
646.57	93.62
646.71	91.28
646.86	39.79
647.00	0.00
647.15	28.09
647.30	163.84
647.44	0.00
647.59	51.49
647.74	70.22
647.88	0.00
648.03	177.88
648.17	18.72
648.32	0.00
648.47	32.77
648.61	49.15
648.76	100.64
648.90	126.39
649.05	25.75
649.20	30.43
649.34	84.26
649.49	67.88
649.63	60.85
649.78	18.72
649.92	112.35
650.07	56.17
650.21	121.71
650.36	91.28
650.51	49.15
650.65	25.75
650.80	18.72
650.94	0.00
651.09	46.81
651.23	21.06
651.38	65.54
651.52	51.49
651.67	14.04
651.81	72.56
651.96	121.71
652.10	32.77
652.25	79.58
652.39	84.26
652.54	28.09
652.68	23.41
652.83	91.28
652.97	77.24
653.12	28.09
653.26	37.45
653.41	9.36
653.55	46.81
653.70	23.41
653.84	60.85
653.99	25.75
654.13	65.54
654.27	49.15
654.42	23.41
654.56	4.68
654.71	128.73
654.85	28.09
655.00	39.79
655.14	18.72
655.29	35.11
655.43	18.72
655.57	70.22
655.72	21.06
655.86	49.15
656.01	0.00
656.15	30.43
656.30	79.58
656.44	91.28
656.58	25.75
656.73	44.47
656.87	30.43
657.01	9.36
657.16	46.81
657.30	11.70
657.45	86.60
657.59	114.69
657.73	28.09
657.88	63.19
658.02	107.66
658.16	32.77
658.31	37.45
658.45	91.28
658.60	77.24
658.74	138.09
658.88	93.62
659.03	16.38
659.17	86.60
659.31	65.54
659.46	51.49
659.60	110.01
659.74	53.83
659.89	46.81
660.03	81.92
660.17	74.90
660.32	128.73
660.46	95.96
660.60	81.92
660.74	88.94
660.89	77.24
661.03	74.90
661.17	28.09
661.32	21.06
661.46	7.02
661.60	51.49
661.74	67.88
661.89	100.64
662.03	58.51
662.17	25.75
662.31	86.60
662.46	56.17
662.60	93.62
662.74	72.56
662.88	56.17
663.03	72.56
663.17	30.43
663.31	67.88
663.45	74.90
663.60	14.04
663.74	58.51
663.88	49.15
664.02	30.43
664.17	93.62
664.31	49.15
664.45	0.00
664.59	100.64
664.73	58.51
664.88	0.00
665.02	56.17
665.16	51.49
665.30	77.24
665.44	93.62
665.59	56.17
665.73	100.64
665.87	67.88
666.01	16.38
666.15	32.77
666.29	0.00
666.44	30.43
666.58	88.94
666.72	0.00
666.86	79.58
667.00	53.83
667.14	0.00
667.28	39.79
667.43	18.72
667.57	98.30
667.71	74.90
667.85	91.28
667.99	112.35
668.13	86.60
668.27	42.13
668.41	70.22
668.56	63.19
668.70	86.60
668.84	0.00
668.98	72.56
669.12	46.81
669.26	84.26
669.40	74.90
669.54	21.06
669.68	25.75
669.82	58.51
669.96	53.83
670.10	32.77
670.25	70.22
670.39	0.00
670.53	32.77
670.67	42.13
670.81	11.70
670.95	74.90
671.09	28.09
671.23	117.03
671.37	84.26
671.51	51.49
671.65	16.38
671.79	67.88
671.93	56.17
672.07	72.56
672.21	95.96
672.35	37.45
672.49	93.62
672.63	46.81
672.77	117.03
672.91	25.75
673.05	37.45
673.19	0.00
673.33	37.45
673.47	30.43
673.61	42.13
673.75	86.60
673.89	140.43
674.03	14.04
674.17	74.90
674.31	42.13
674.45	124.05
674.59	44.47
674.73	102.98
674.87	14.04
675.01	18.72
675.15	39.79
675.29	7.02
675.43	42.13
675.56	112.35
675.70	14.04
675.84	88.94
675.98	74.90
676.12	72.56
676.26	72.56
676.40	51.49
676.54	42.13
676.68	9.36
676.82	58.51
676.96	77.24
677.10	91.28
677.23	70.22
677.37	63.19
677.51	42.13
677.65	95.96
677.79	58.51
677.93	56.17
678.07	0.00
678.21	21.06
678.34	51.49
678.48	32.77
678.62	81.92
678.76	58.51
678.90	86.60
679.04	102.98
679.18	53.83
679.31	74.90
679.45	0.00
679.59	30.43
679.73	9.36
679.87	23.41
680.00	88.94
680.14	9.36
680.28	67.88
680.42	9.36
680.56	53.83
680.70	98.30
680.83	86.60
680.97	39.79
681.11	65.54
681.25	84.26
681.39	35.11
681.52	30.43
681.66	44.47
681.80	14.04
681.94	46.81
682.07	25.75
682.21	32.77
682.35	18.72
682.49	74.90
682.62	0.00
682.76	11.70
682.90	16.38
683.04	70.22
683.17	140.43
683.31	18.72
683.45	18.72
683.59	51.49
683.72	102.98
683.86	28.09
684.00	117.03
684.13	74.90
684.27	95.96
684.41	35.11
684.55	25.75
684.68	58.51
684.82	35.11
684.96	32.77
685.09	23.41
685.23	53.83
685.37	30.43
685.50	74.90
685.64	11.70
685.78	77.24
685.91	44.47
686.05	58.51
686.19	93.62
686.32	51.49
686.46	14.04
686.60	56.17
686.73	110.01
686.87	42.13
687.01	0.00
687.14	0.00
687.28	88.94
687.42	65.54
687.55	30.43
687.69	42.13
687.82	35.11
687.96	23.41
688.10	49.15
688.23	16.38
688.37	23.41
688.50	70.22
688.64	0.00
688.78	28.09
688.91	0.00
689.05	16.38
689.18	0.00
689.32	0.00
689.46	49.15
689.59	51.49
689.73	11.70
689.86	42.13
690.00	124.05
690.13	77.24
690.27	100.64
690.41	18.72
690.54	81.92
690.68	49.15
690.81	44.47
690.95	0.00
691.08	63.19
691.22	58.51
691.35	37.45
691.49	72.56
691.62	0.00
691.76	23.41
691.89	51.49
692.03	88.94
692.16	16.38
692.30	63.19
692.43	0.00
692.57	98.30
692.70	0.00
692.84	79.58
692.97	77.24
693.11	39.79
693.24	9.36
693.38	112.35
693.51	30.43
693.65	67.88
693.78	53.83
693.92	9.36
694.05	25.75
694.19	110.01
694.32	18.72
694.45	0.00
694.59	51.49
694.72	112.35
694.86	39.79
694.99	72.56
695.13	0.00
695.26	0.00
695.39	28.09
695.53	81.92
695.66	14.04
695.80	58.51
695.93	49.15
696.07	65.54
696.20	0.00
696.33	4.68
696.47	21.06
696.60	53.83
696.73	49.15
696.87	9.36
697.00	46.81
697.14	65.54
697.27	9.36
697.40	65.54
697.54	44.47
697.67	23.41
697.80	65.54
697.94	72.56
698.07	25.75
698.21	0.00
698.34	11.70
698.47	16.38
698.61	67.88
698.74	0.00
698.87	11.70
699.01	65.54
699.14	51.49
699.27	102.98
699.40	81.92
699.54	23.41
699.67	72.56
699.80	72.56
699.94	63.19
700.07	105.32
700.20	51.49
700.34	67.88
700.47	35.11
700.60	14.04
700.73	102.98
700.87	0.00
701.00	32.77
701.13	30.43
701.26	2.34
701.40	0.00
701.53	51.49
701.66	23.41
701.79	42.13
701.93	46.81
702.06	0.00
702.19	11.70
702.32	0.00
702.46	37.45
702.59	0.00
702.72	4.68
702.85	79.58
702.99	2.34
703.12	0.00
703.25	23.41
703.38	9.36
703.51	28.09
703.65	67.88
703.78	0.00
703.91	51.49
704.04	2.34
704.17	0.00
704.31	7.02
704.44	65.54
704.57	53.83
704.70	0.00
704.83	49.15
704.96	0.00
705.10	56.17
705.23	72.56
>>>>>End Processed Spectral Data<<<<<
