SpectraSuite Data File
++++++++++++++++++++++++++++++++++++
Date: Fri Oct 04 12:13:27 GMT-05:00 2013
User: price-jones
Dark Spectrum Present: No
Reference Spectrum Present: No
Number of Sampled Component Spectra: 1
Spectrometers: USB2+H05261
Integration Time (usec): 10000 (USB2+H05261)
Spectra Averaged: 1 (USB2+H05261)
Boxcar Smoothing: 0 (USB2+H05261)
Correct for Electrical Dark: No (USB2+H05261)
Strobe/Lamp Enabled: No (USB2+H05261)
Correct for Detector Non-linearity: No (USB2+H05261)
Correct for Stray Light: No (USB2+H05261)
Number of Pixels in Processed Spectrum: 2048
>>>>>Begin Processed Spectral Data<<<<<
365.73	58.51
365.92	58.51
366.12	58.51
366.32	0.00
366.52	0.00
366.72	0.00
366.91	0.00
367.11	0.00
367.31	0.00
367.51	0.00
367.70	0.00
367.90	0.00
368.10	0.00
368.30	0.00
368.49	0.00
368.69	0.00
368.89	0.00
369.09	0.00
369.28	0.00
369.48	0.00
369.68	0.00
369.87	0.00
370.07	0.00
370.27	0.00
370.47	0.00
370.66	0.00
370.86	0.00
371.06	0.00
371.25	0.00
371.45	0.00
371.65	14.04
371.84	39.79
372.04	14.04
372.24	0.00
372.44	21.06
372.63	0.00
372.83	11.70
373.03	16.38
373.22	35.11
373.42	39.79
373.62	63.19
373.81	56.17
374.01	39.79
374.21	63.19
374.40	7.02
374.60	0.00
374.79	16.38
374.99	0.00
375.19	56.17
375.38	70.22
375.58	0.00
375.78	46.81
375.97	14.04
376.17	42.13
376.37	0.00
376.56	23.41
376.76	30.43
376.95	35.11
377.15	86.60
377.35	39.79
377.54	46.81
377.74	30.43
377.93	30.43
378.13	21.06
378.33	0.00
378.52	0.00
378.72	18.72
378.91	105.32
379.11	37.45
379.31	16.38
379.50	18.72
379.70	14.04
379.89	0.00
380.09	0.00
380.28	23.41
380.48	0.00
380.68	4.68
380.87	0.00
381.07	2.34
381.26	0.00
381.46	35.11
381.65	53.83
381.85	46.81
382.04	11.70
382.24	23.41
382.43	88.94
382.63	0.00
382.83	0.00
383.02	58.51
383.22	51.49
383.41	21.06
383.61	0.00
383.80	37.45
384.00	49.15
384.19	70.22
384.39	44.47
384.58	0.00
384.78	46.81
384.97	30.43
385.17	0.00
385.36	0.00
385.56	0.00
385.75	0.00
385.95	25.75
386.14	49.15
386.34	7.02
386.53	18.72
386.72	49.15
386.92	74.90
387.11	0.00
387.31	2.34
387.50	30.43
387.70	0.00
387.89	84.26
388.09	11.70
388.28	56.17
388.48	60.85
388.67	44.47
388.86	11.70
389.06	7.02
389.25	11.70
389.45	0.00
389.64	49.15
389.84	67.88
390.03	142.77
390.22	63.19
390.42	117.03
390.61	18.72
390.81	0.00
391.00	9.36
391.19	128.73
391.39	16.38
391.58	0.00
391.78	37.45
391.97	67.88
392.16	84.26
392.36	25.75
392.55	0.00
392.75	0.00
392.94	0.00
393.13	46.81
393.33	0.00
393.52	37.45
393.71	4.68
393.91	35.11
394.10	4.68
394.29	18.72
394.49	0.00
394.68	0.00
394.88	81.92
395.07	0.00
395.26	14.04
395.46	0.00
395.65	0.00
395.84	4.68
396.04	79.58
396.23	25.75
396.42	37.45
396.62	2.34
396.81	44.47
397.00	25.75
397.19	4.68
397.39	100.64
397.58	0.00
397.77	9.36
397.97	0.00
398.16	9.36
398.35	0.00
398.55	0.00
398.74	11.70
398.93	0.00
399.12	0.00
399.32	81.92
399.51	9.36
399.70	74.90
399.90	0.00
400.09	23.41
400.28	105.32
400.47	58.51
400.67	37.45
400.86	42.13
401.05	18.72
401.24	0.00
401.44	39.79
401.63	16.38
401.82	0.00
402.01	0.00
402.21	51.49
402.40	79.58
402.59	9.36
402.78	0.00
402.97	0.00
403.17	18.72
403.36	28.09
403.55	0.00
403.74	70.22
403.93	58.51
404.13	39.79
404.32	56.17
404.51	42.13
404.70	49.15
404.89	53.83
405.09	46.81
405.28	0.00
405.47	0.00
405.66	21.06
405.85	23.41
406.05	65.54
406.24	58.51
406.43	0.00
406.62	0.00
406.81	60.85
407.00	119.37
407.20	21.06
407.39	60.85
407.58	25.75
407.77	70.22
407.96	14.04
408.15	0.00
408.34	11.70
408.54	23.41
408.73	25.75
408.92	0.00
409.11	46.81
409.30	0.00
409.49	37.45
409.68	91.28
409.87	67.88
410.07	72.56
410.26	58.51
410.45	0.00
410.64	0.00
410.83	0.00
411.02	67.88
411.21	32.77
411.40	0.00
411.59	98.30
411.78	4.68
411.98	9.36
412.17	72.56
412.36	58.51
412.55	0.00
412.74	7.02
412.93	18.72
413.12	0.00
413.31	46.81
413.50	42.13
413.69	0.00
413.88	16.38
414.07	18.72
414.26	28.09
414.45	0.00
414.64	0.00
414.83	39.79
415.02	0.00
415.22	0.00
415.41	0.00
415.60	7.02
415.79	37.45
415.98	2.34
416.17	37.45
416.36	72.56
416.55	0.00
416.74	42.13
416.93	58.51
417.12	42.13
417.31	0.00
417.50	21.06
417.69	0.00
417.88	7.02
418.07	28.09
418.26	0.00
418.45	23.41
418.64	18.72
418.83	42.13
419.02	21.06
419.21	9.36
419.39	9.36
419.58	9.36
419.77	32.77
419.96	0.00
420.15	28.09
420.34	35.11
420.53	32.77
420.72	0.00
420.91	35.11
421.10	46.81
421.29	25.75
421.48	14.04
421.67	7.02
421.86	18.72
422.05	32.77
422.24	63.19
422.43	14.04
422.61	2.34
422.80	14.04
422.99	2.34
423.18	42.13
423.37	84.26
423.56	25.75
423.75	67.88
423.94	49.15
424.13	67.88
424.32	11.70
424.50	35.11
424.69	133.41
424.88	39.79
425.07	58.51
425.26	49.15
425.45	0.00
425.64	35.11
425.83	35.11
426.01	42.13
426.20	4.68
426.39	46.81
426.58	0.00
426.77	0.00
426.96	0.00
427.15	49.15
427.33	0.00
427.52	39.79
427.71	2.34
427.90	35.11
428.09	21.06
428.28	18.72
428.46	0.00
428.65	0.00
428.84	44.47
429.03	0.00
429.22	4.68
429.40	0.00
429.59	35.11
429.78	67.88
429.97	0.00
430.16	53.83
430.34	58.51
430.53	0.00
430.72	49.15
430.91	0.00
431.10	21.06
431.28	88.94
431.47	2.34
431.66	77.24
431.85	56.17
432.03	11.70
432.22	0.00
432.41	2.34
432.60	2.34
432.79	98.30
432.97	72.56
433.16	0.00
433.35	44.47
433.54	0.00
433.72	46.81
433.91	16.38
434.10	0.00
434.28	23.41
434.47	49.15
434.66	2.34
434.85	0.00
435.03	30.43
435.22	44.47
435.41	56.17
435.59	37.45
435.78	32.77
435.97	7.02
436.16	23.41
436.34	30.43
436.53	2.34
436.72	37.45
436.90	65.54
437.09	35.11
437.28	110.01
437.46	46.81
437.65	72.56
437.84	42.13
438.02	32.77
438.21	44.47
438.40	28.09
438.58	21.06
438.77	70.22
438.96	60.85
439.14	4.68
439.33	0.00
439.52	4.68
439.70	14.04
439.89	23.41
440.08	58.51
440.26	0.00
440.45	42.13
440.63	65.54
440.82	60.85
441.01	77.24
441.19	0.00
441.38	0.00
441.57	70.22
441.75	79.58
441.94	93.62
442.12	0.00
442.31	39.79
442.50	0.00
442.68	79.58
442.87	67.88
443.05	39.79
443.24	46.81
443.43	70.22
443.61	60.85
443.80	98.30
443.98	25.75
444.17	23.41
444.35	0.00
444.54	18.72
444.73	14.04
444.91	0.00
445.10	0.00
445.28	0.00
445.47	9.36
445.65	25.75
445.84	11.70
446.02	28.09
446.21	7.02
446.39	56.17
446.58	60.85
446.77	0.00
446.95	16.38
447.14	21.06
447.32	35.11
447.51	0.00
447.69	0.00
447.88	9.36
448.06	44.47
448.25	77.24
448.43	9.36
448.62	25.75
448.80	95.96
448.99	86.60
449.17	100.64
449.36	35.11
449.54	44.47
449.73	14.04
449.91	0.00
450.10	39.79
450.28	18.72
450.46	79.58
450.65	0.00
450.83	0.00
451.02	16.38
451.20	77.24
451.39	37.45
451.57	23.41
451.76	0.00
451.94	72.56
452.13	32.77
452.31	79.58
452.49	25.75
452.68	11.70
452.86	18.72
453.05	0.00
453.23	65.54
453.42	0.00
453.60	4.68
453.78	30.43
453.97	37.45
454.15	16.38
454.34	65.54
454.52	0.00
454.70	44.47
454.89	0.00
455.07	30.43
455.26	25.75
455.44	0.00
455.62	86.60
455.81	51.49
455.99	74.90
456.17	16.38
456.36	65.54
456.54	0.00
456.73	46.81
456.91	0.00
457.09	42.13
457.28	37.45
457.46	0.00
457.64	32.77
457.83	42.13
458.01	28.09
458.19	0.00
458.38	51.49
458.56	86.60
458.74	63.19
458.93	37.45
459.11	37.45
459.29	77.24
459.48	37.45
459.66	21.06
459.84	0.00
460.03	32.77
460.21	0.00
460.39	4.68
460.57	2.34
460.76	74.90
460.94	77.24
461.12	16.38
461.31	39.79
461.49	49.15
461.67	65.54
461.85	21.06
462.04	44.47
462.22	131.07
462.40	49.15
462.59	35.11
462.77	25.75
462.95	0.00
463.13	70.22
463.32	56.17
463.50	14.04
463.68	37.45
463.86	30.43
464.05	25.75
464.23	0.00
464.41	0.00
464.59	0.00
464.78	0.00
464.96	79.58
465.14	0.00
465.32	37.45
465.50	121.71
465.69	11.70
465.87	2.34
466.05	28.09
466.23	0.00
466.41	7.02
466.60	0.00
466.78	9.36
466.96	53.83
467.14	28.09
467.32	25.75
467.51	37.45
467.69	70.22
467.87	60.85
468.05	53.83
468.23	100.64
468.41	42.13
468.60	84.26
468.78	0.00
468.96	0.00
469.14	67.88
469.32	32.77
469.50	28.09
469.69	49.15
469.87	14.04
470.05	11.70
470.23	58.51
470.41	81.92
470.59	84.26
470.77	46.81
470.95	46.81
471.14	30.43
471.32	65.54
471.50	49.15
471.68	46.81
471.86	39.79
472.04	39.79
472.22	140.43
472.40	25.75
472.58	0.00
472.77	0.00
472.95	65.54
473.13	58.51
473.31	46.81
473.49	32.77
473.67	30.43
473.85	44.47
474.03	79.58
474.21	56.17
474.39	37.45
474.57	56.17
474.75	63.19
474.93	28.09
475.12	58.51
475.30	32.77
475.48	117.03
475.66	63.19
475.84	105.32
476.02	67.88
476.20	0.00
476.38	56.17
476.56	44.47
476.74	124.05
476.92	18.72
477.10	32.77
477.28	70.22
477.46	63.19
477.64	0.00
477.82	14.04
478.00	25.75
478.18	14.04
478.36	0.00
478.54	119.37
478.72	79.58
478.90	60.85
479.08	67.88
479.26	0.00
479.44	53.83
479.62	0.00
479.80	4.68
479.98	67.88
480.16	0.00
480.34	37.45
480.52	56.17
480.70	91.28
480.88	44.47
481.06	4.68
481.24	0.00
481.41	30.43
481.59	100.64
481.77	84.26
481.95	110.01
482.13	46.81
482.31	0.00
482.49	53.83
482.67	81.92
482.85	9.36
483.03	0.00
483.21	56.17
483.39	44.47
483.57	37.45
483.74	16.38
483.92	0.00
484.10	72.56
484.28	30.43
484.46	105.32
484.64	35.11
484.82	63.19
485.00	72.56
485.18	0.00
485.35	32.77
485.53	67.88
485.71	100.64
485.89	30.43
486.07	25.75
486.25	30.43
486.43	11.70
486.61	11.70
486.78	46.81
486.96	112.35
487.14	67.88
487.32	79.58
487.50	21.06
487.68	95.96
487.85	65.54
488.03	0.00
488.21	4.68
488.39	51.49
488.57	37.45
488.75	28.09
488.92	88.94
489.10	77.24
489.28	0.00
489.46	84.26
489.64	65.54
489.81	0.00
489.99	23.41
490.17	0.00
490.35	0.00
490.53	16.38
490.70	35.11
490.88	0.00
491.06	74.90
491.24	88.94
491.41	16.38
491.59	110.01
491.77	0.00
491.95	37.45
492.13	21.06
492.30	46.81
492.48	14.04
492.66	67.88
492.84	42.13
493.01	56.17
493.19	67.88
493.37	0.00
493.54	23.41
493.72	18.72
493.90	49.15
494.08	4.68
494.25	0.00
494.43	44.47
494.61	49.15
494.79	86.60
494.96	7.02
495.14	25.75
495.32	35.11
495.49	32.77
495.67	9.36
495.85	131.07
496.02	72.56
496.20	0.00
496.38	56.17
496.55	0.00
496.73	74.90
496.91	53.83
497.09	53.83
497.26	9.36
497.44	0.00
497.62	42.13
497.79	95.96
497.97	46.81
498.14	53.83
498.32	18.72
498.50	49.15
498.67	0.00
498.85	133.41
499.03	49.15
499.20	74.90
499.38	35.11
499.56	72.56
499.73	37.45
499.91	79.58
500.08	25.75
500.26	65.54
500.44	9.36
500.61	9.36
500.79	84.26
500.97	84.26
501.14	70.22
501.32	95.96
501.49	81.92
501.67	18.72
501.84	39.79
502.02	32.77
502.20	32.77
502.37	35.11
502.55	117.03
502.72	14.04
502.90	74.90
503.07	72.56
503.25	9.36
503.43	0.00
503.60	0.00
503.78	32.77
503.95	28.09
504.13	0.00
504.30	81.92
504.48	98.30
504.65	30.43
504.83	30.43
505.01	117.03
505.18	14.04
505.36	65.54
505.53	37.45
505.71	14.04
505.88	35.11
506.06	16.38
506.23	51.49
506.41	7.02
506.58	18.72
506.76	25.75
506.93	46.81
507.11	42.13
507.28	53.83
507.46	18.72
507.63	11.70
507.81	0.00
507.98	56.17
508.16	51.49
508.33	63.19
508.50	102.98
508.68	32.77
508.85	72.56
509.03	53.83
509.20	28.09
509.38	65.54
509.55	21.06
509.73	70.22
509.90	2.34
510.08	74.90
510.25	30.43
510.42	53.83
510.60	84.26
510.77	117.03
510.95	49.15
511.12	86.60
511.30	23.41
511.47	95.96
511.64	74.90
511.82	0.00
511.99	49.15
512.17	0.00
512.34	70.22
512.51	42.13
512.69	58.51
512.86	51.49
513.04	77.24
513.21	70.22
513.38	105.32
513.56	44.47
513.73	7.02
513.90	11.70
514.08	77.24
514.25	16.38
514.43	9.36
514.60	11.70
514.77	88.94
514.95	70.22
515.12	0.00
515.29	16.38
515.47	28.09
515.64	42.13
515.81	70.22
515.99	49.15
516.16	51.49
516.33	23.41
516.51	0.00
516.68	70.22
516.85	128.73
517.03	93.62
517.20	32.77
517.37	74.90
517.54	23.41
517.72	42.13
517.89	51.49
518.06	46.81
518.24	11.70
518.41	9.36
518.58	79.58
518.75	44.47
518.93	58.51
519.10	32.77
519.27	11.70
519.45	100.64
519.62	16.38
519.79	63.19
519.96	21.06
520.14	25.75
520.31	112.35
520.48	39.79
520.65	84.26
520.83	4.68
521.00	49.15
521.17	23.41
521.34	98.30
521.52	46.81
521.69	0.00
521.86	0.00
522.03	51.49
522.20	0.00
522.38	23.41
522.55	53.83
522.72	51.49
522.89	7.02
523.07	84.26
523.24	81.92
523.41	0.00
523.58	63.19
523.75	42.13
523.92	102.98
524.10	63.19
524.27	49.15
524.44	53.83
524.61	72.56
524.78	39.79
524.96	70.22
525.13	100.64
525.30	93.62
525.47	49.15
525.64	44.47
525.81	23.41
525.98	2.34
526.16	23.41
526.33	21.06
526.50	37.45
526.67	0.00
526.84	49.15
527.01	0.00
527.18	53.83
527.36	58.51
527.53	9.36
527.70	53.83
527.87	0.00
528.04	0.00
528.21	0.00
528.38	60.85
528.55	0.00
528.72	35.11
528.89	46.81
529.07	63.19
529.24	65.54
529.41	88.94
529.58	53.83
529.75	25.75
529.92	21.06
530.09	32.77
530.26	114.69
530.43	35.11
530.60	9.36
530.77	28.09
530.94	110.01
531.11	23.41
531.28	51.49
531.46	0.00
531.63	21.06
531.80	39.79
531.97	18.72
532.14	42.13
532.31	23.41
532.48	84.26
532.65	72.56
532.82	88.94
532.99	32.77
533.16	4.68
533.33	72.56
533.50	65.54
533.67	95.96
533.84	84.26
534.01	35.11
534.18	88.94
534.35	25.75
534.52	46.81
534.69	28.09
534.86	4.68
535.03	72.56
535.20	0.00
535.37	110.01
535.54	46.81
535.71	79.58
535.88	56.17
536.05	42.13
536.22	51.49
536.38	86.60
536.55	0.00
536.72	58.51
536.89	91.28
537.06	0.00
537.23	81.92
537.40	93.62
537.57	44.47
537.74	14.04
537.91	0.00
538.08	37.45
538.25	0.00
538.42	0.00
538.59	56.17
538.75	56.17
538.92	74.90
539.09	39.79
539.26	93.62
539.43	39.79
539.60	170.86
539.77	145.11
539.94	180.22
540.11	198.95
540.28	79.58
540.44	63.19
540.61	51.49
540.78	93.62
540.95	51.49
541.12	30.43
541.29	60.85
541.46	95.96
541.62	16.38
541.79	23.41
541.96	0.00
542.13	56.17
542.30	11.70
542.47	46.81
542.63	28.09
542.80	18.72
542.97	23.41
543.14	21.06
543.31	0.00
543.48	0.00
543.64	79.58
543.81	0.00
543.98	86.60
544.15	93.62
544.32	107.66
544.48	98.30
544.65	0.00
544.82	0.00
544.99	58.51
545.16	53.83
545.32	88.94
545.49	7.02
545.66	21.06
545.83	39.79
546.00	119.37
546.16	18.72
546.33	67.88
546.50	72.56
546.67	84.26
546.83	65.54
547.00	23.41
547.17	91.28
547.34	30.43
547.50	46.81
547.67	0.00
547.84	51.49
548.00	37.45
548.17	32.77
548.34	23.41
548.51	39.79
548.67	25.75
548.84	9.36
549.01	21.06
549.18	100.64
549.34	16.38
549.51	16.38
549.68	7.02
549.84	21.06
550.01	32.77
550.18	28.09
550.34	77.24
550.51	11.70
550.68	4.68
550.84	0.00
551.01	35.11
551.18	23.41
551.34	28.09
551.51	39.79
551.68	14.04
551.84	46.81
552.01	60.85
552.18	0.00
552.34	9.36
552.51	28.09
552.68	102.98
552.84	102.98
553.01	44.47
553.18	98.30
553.34	88.94
553.51	56.17
553.67	42.13
553.84	14.04
554.01	18.72
554.17	9.36
554.34	4.68
554.51	0.00
554.67	88.94
554.84	51.49
555.00	9.36
555.17	77.24
555.33	112.35
555.50	42.13
555.67	49.15
555.83	70.22
556.00	0.00
556.16	4.68
556.33	51.49
556.50	58.51
556.66	28.09
556.83	58.51
556.99	39.79
557.16	119.37
557.32	42.13
557.49	49.15
557.65	67.88
557.82	0.00
557.98	25.75
558.15	0.00
558.32	60.85
558.48	65.54
558.65	63.19
558.81	25.75
558.98	72.56
559.14	28.09
559.31	39.79
559.47	88.94
559.64	32.77
559.80	60.85
559.97	81.92
560.13	53.83
560.30	0.00
560.46	16.38
560.63	56.17
560.79	46.81
560.96	51.49
561.12	32.77
561.29	25.75
561.45	84.26
561.61	16.38
561.78	23.41
561.94	0.00
562.11	4.68
562.27	0.00
562.44	7.02
562.60	56.17
562.77	21.06
562.93	84.26
563.10	79.58
563.26	63.19
563.42	51.49
563.59	81.92
563.75	28.09
563.92	0.00
564.08	9.36
564.24	98.30
564.41	18.72
564.57	74.90
564.74	30.43
564.90	107.66
565.07	35.11
565.23	37.45
565.39	0.00
565.56	53.83
565.72	105.32
565.88	84.26
566.05	93.62
566.21	133.41
566.38	53.83
566.54	60.85
566.70	30.43
566.87	51.49
567.03	93.62
567.19	53.83
567.36	21.06
567.52	72.56
567.68	91.28
567.85	79.58
568.01	0.00
568.17	0.00
568.34	161.50
568.50	21.06
568.66	102.98
568.83	72.56
568.99	30.43
569.15	4.68
569.32	56.17
569.48	51.49
569.64	0.00
569.81	46.81
569.97	74.90
570.13	56.17
570.30	37.45
570.46	44.47
570.62	88.94
570.78	16.38
570.95	72.56
571.11	58.51
571.27	51.49
571.43	49.15
571.60	70.22
571.76	91.28
571.92	0.00
572.09	23.41
572.25	88.94
572.41	70.22
572.57	37.45
572.74	51.49
572.90	28.09
573.06	30.43
573.22	0.00
573.38	46.81
573.55	72.56
573.71	44.47
573.87	53.83
574.03	46.81
574.20	11.70
574.36	67.88
574.52	60.85
574.68	77.24
574.84	53.83
575.01	63.19
575.17	60.85
575.33	42.13
575.49	86.60
575.65	11.70
575.82	72.56
575.98	156.82
576.14	166.18
576.30	93.62
576.46	72.56
576.62	0.00
576.79	63.19
576.95	37.45
577.11	39.79
577.27	0.00
577.43	84.26
577.59	39.79
577.75	72.56
577.92	77.24
578.08	37.45
578.24	114.69
578.40	42.13
578.56	63.19
578.72	67.88
578.88	0.00
579.04	35.11
579.21	114.69
579.37	58.51
579.53	21.06
579.69	42.13
579.85	72.56
580.01	60.85
580.17	60.85
580.33	65.54
580.49	84.26
580.65	74.90
580.82	74.90
580.98	46.81
581.14	98.30
581.30	51.49
581.46	60.85
581.62	110.01
581.78	39.79
581.94	93.62
582.10	65.54
582.26	16.38
582.42	114.69
582.58	51.49
582.74	30.43
582.90	77.24
583.06	70.22
583.22	58.51
583.38	91.28
583.54	140.43
583.70	58.51
583.86	133.41
584.02	88.94
584.18	98.30
584.34	93.62
584.50	414.27
584.66	2160.31
584.82	5474.51
584.98	8133.36
585.14	6977.14
585.30	4514.89
585.46	2719.70
585.62	1720.29
585.78	821.53
585.94	313.63
586.10	142.77
586.26	119.37
586.42	67.88
586.58	86.60
586.74	100.64
586.90	67.88
587.06	11.70
587.22	53.83
587.38	79.58
587.54	126.39
587.70	369.80
587.86	594.50
588.02	624.92
588.18	493.85
588.34	367.46
588.49	215.33
588.65	133.41
588.81	65.54
588.97	77.24
589.13	98.30
589.29	70.22
589.45	58.51
589.61	23.41
589.77	28.09
589.93	60.85
590.08	56.17
590.24	32.77
590.40	156.82
590.56	102.98
590.72	51.49
590.88	56.17
591.04	51.49
591.20	100.64
591.35	49.15
591.51	84.26
591.67	51.49
591.83	128.73
591.99	0.00
592.15	140.43
592.31	72.56
592.46	0.00
592.62	23.41
592.78	2.34
592.94	49.15
593.10	74.90
593.26	72.56
593.41	67.88
593.57	65.54
593.73	117.03
593.89	355.76
594.05	781.74
594.20	1015.79
594.36	959.62
594.52	613.22
594.68	428.32
594.84	318.31
594.99	161.50
595.15	77.24
595.31	23.41
595.47	93.62
595.62	98.30
595.78	112.35
595.94	42.13
596.10	98.30
596.25	117.03
596.41	44.47
596.57	35.11
596.73	49.15
596.88	105.32
597.04	191.92
597.20	245.76
597.36	273.84
597.51	250.44
597.67	145.11
597.83	133.41
597.99	119.37
598.14	56.17
598.30	74.90
598.46	23.41
598.61	9.36
598.77	74.90
598.93	63.19
599.09	65.54
599.24	2.34
599.40	51.49
599.56	21.06
599.71	4.68
599.87	32.77
600.03	0.00
600.18	0.00
600.34	42.13
600.50	30.43
600.65	37.45
600.81	74.90
600.97	23.41
601.12	107.66
601.28	74.90
601.44	84.26
601.59	60.85
601.75	18.72
601.91	30.43
602.06	67.88
602.22	37.45
602.37	133.41
602.53	220.01
602.69	285.55
602.84	322.99
603.00	189.58
603.16	86.60
603.31	77.24
603.47	74.90
603.62	0.00
603.78	32.77
603.94	112.35
604.09	21.06
604.25	74.90
604.40	23.41
604.56	49.15
604.71	39.79
604.87	49.15
605.03	0.00
605.18	44.47
605.34	77.24
605.49	39.79
605.65	51.49
605.80	49.15
605.96	0.00
606.12	51.49
606.27	0.00
606.43	35.11
606.58	42.13
606.74	56.17
606.89	430.66
607.05	725.57
607.20	919.83
607.36	791.10
607.51	486.83
607.67	372.15
607.82	259.80
607.98	114.69
608.13	112.35
608.29	70.22
608.44	49.15
608.60	56.17
608.75	95.96
608.91	107.66
609.06	531.30
609.22	1081.33
609.37	1591.56
609.53	1423.05
609.68	877.70
609.84	557.05
609.99	428.32
610.15	245.76
610.30	131.07
610.46	147.45
610.61	53.83
610.76	72.56
610.92	117.03
611.07	25.75
611.23	53.83
611.38	30.43
611.54	44.47
611.69	51.49
611.84	110.01
612.00	63.19
612.15	46.81
612.31	145.11
612.46	102.98
612.62	117.03
612.77	88.94
612.92	107.66
613.08	67.88
613.23	79.58
613.39	46.81
613.54	121.71
613.69	564.07
613.85	1371.55
614.00	2118.18
614.15	2232.87
614.31	1755.40
614.46	1093.03
614.62	784.08
614.77	402.57
614.92	327.68
615.08	81.92
615.23	110.01
615.38	35.11
615.54	56.17
615.69	175.54
615.84	264.48
616.00	510.24
616.15	622.58
616.30	519.60
616.46	334.70
616.61	220.01
616.76	180.22
616.92	79.58
617.07	70.22
617.22	140.43
617.37	0.00
617.53	28.09
617.68	32.77
617.83	147.45
617.99	67.88
618.14	107.66
618.29	60.85
618.45	65.54
618.60	44.47
618.75	39.79
618.90	21.06
619.06	32.77
619.21	51.49
619.36	9.36
619.51	35.11
619.67	0.00
619.82	28.09
619.97	25.75
620.12	37.45
620.28	46.81
620.43	32.77
620.58	110.01
620.73	81.92
620.89	32.77
621.04	58.51
621.19	119.37
621.34	344.06
621.49	395.55
621.65	320.65
621.80	262.14
621.95	166.18
622.10	170.86
622.25	14.04
622.41	46.81
622.56	91.28
622.71	65.54
622.86	74.90
623.01	81.92
623.16	56.17
623.32	35.11
623.47	35.11
623.62	0.00
623.77	53.83
623.92	37.45
624.07	0.00
624.23	23.41
624.38	44.47
624.53	4.68
624.68	30.43
624.83	21.06
624.98	67.88
625.13	42.13
625.29	49.15
625.44	121.71
625.59	84.26
625.74	77.24
625.89	110.01
626.04	245.76
626.19	655.35
626.34	1088.35
626.49	1277.93
626.65	947.92
626.80	690.46
626.95	418.96
627.10	304.27
627.25	56.17
627.40	138.09
627.55	74.90
627.70	37.45
627.85	0.00
628.00	0.00
628.15	65.54
628.30	25.75
628.45	30.43
628.60	70.22
628.76	32.77
628.91	102.98
629.06	21.06
629.21	44.47
629.36	37.45
629.51	28.09
629.66	35.11
629.81	119.37
629.96	180.22
630.11	283.20
630.26	360.44
630.41	369.80
630.56	154.48
630.71	140.43
630.86	91.28
631.01	124.05
631.16	79.58
631.31	98.30
631.46	126.39
631.61	25.75
631.76	39.79
631.91	32.77
632.06	49.15
632.21	0.00
632.36	95.96
632.51	140.43
632.66	60.85
632.81	86.60
632.96	327.68
633.10	695.14
633.25	861.32
633.40	716.20
633.55	507.90
633.70	430.66
633.85	194.26
634.00	93.62
634.15	70.22
634.30	98.30
634.45	28.09
634.60	23.41
634.75	46.81
634.90	35.11
635.05	53.83
635.19	21.06
635.34	81.92
635.49	18.72
635.64	35.11
635.79	18.72
635.94	72.56
636.09	42.13
636.24	70.22
636.39	65.54
636.53	51.49
636.68	117.03
636.83	0.00
636.98	16.38
637.13	25.75
637.28	95.96
637.43	56.17
637.57	23.41
637.72	365.12
637.87	863.66
638.02	1474.54
638.17	1554.12
638.32	1284.95
638.46	821.53
638.61	521.94
638.76	322.99
638.91	170.86
639.06	102.98
639.20	95.96
639.35	67.88
639.50	149.79
639.65	620.24
639.80	1488.58
639.94	2279.68
640.09	2654.17
640.24	1898.17
640.39	1270.91
640.54	887.06
640.68	561.73
640.83	257.46
640.98	135.75
641.13	117.03
641.27	35.11
641.42	95.96
641.57	133.41
641.72	0.00
641.86	0.00
642.01	74.90
642.16	72.56
642.31	9.36
642.45	42.13
642.60	42.13
642.75	23.41
642.90	88.94
643.04	14.04
643.19	37.45
643.34	63.19
643.48	65.54
643.63	35.11
643.78	14.04
643.93	63.19
644.07	131.07
644.22	44.47
644.37	0.00
644.51	98.30
644.66	28.09
644.81	0.00
644.95	58.51
645.10	0.00
645.25	25.75
645.39	84.26
645.54	0.00
645.69	23.41
645.83	37.45
645.98	28.09
646.13	0.00
646.27	16.38
646.42	4.68
646.57	35.11
646.71	84.26
646.86	0.00
647.00	46.81
647.15	2.34
647.30	49.15
647.44	0.00
647.59	91.28
647.74	65.54
647.88	23.41
648.03	0.00
648.17	77.24
648.32	0.00
648.47	42.13
648.61	63.19
648.76	9.36
648.90	42.13
649.05	65.54
649.20	98.30
649.34	16.38
649.49	30.43
649.63	95.96
649.78	107.66
649.92	21.06
650.07	215.33
650.21	620.24
650.36	1090.69
650.51	1277.93
650.65	1102.39
650.80	777.06
650.94	533.64
651.09	339.38
651.23	154.48
651.38	35.11
651.52	77.24
651.67	23.41
651.81	0.00
651.96	30.43
652.10	58.51
652.25	91.28
652.39	42.13
652.54	93.62
652.68	88.94
652.83	159.16
652.97	423.64
653.12	575.77
653.26	423.64
653.41	313.63
653.55	222.35
653.70	187.24
653.84	107.66
653.99	65.54
654.13	32.77
654.27	0.00
654.42	53.83
654.56	119.37
654.71	74.90
654.85	42.13
655.00	49.15
655.14	23.41
655.29	25.75
655.43	0.00
655.57	9.36
655.72	53.83
655.86	56.17
656.01	11.70
656.15	9.36
656.30	39.79
656.44	81.92
656.58	25.75
656.73	39.79
656.87	0.00
657.01	35.11
657.16	124.05
657.30	4.68
657.45	65.54
657.59	0.00
657.73	46.81
657.88	11.70
658.02	16.38
658.16	0.00
658.31	35.11
658.45	53.83
658.60	39.79
658.74	58.51
658.88	21.06
659.03	0.00
659.17	0.00
659.31	58.51
659.46	301.93
659.60	505.56
659.74	716.20
659.89	582.79
660.03	433.00
660.17	250.44
660.32	222.35
660.46	140.43
660.60	32.77
660.74	18.72
660.89	0.00
661.03	4.68
661.17	25.75
661.32	16.38
661.46	30.43
661.60	49.15
661.74	21.06
661.89	25.75
662.03	93.62
662.17	72.56
662.31	30.43
662.46	32.77
662.60	16.38
662.74	4.68
662.88	84.26
663.03	16.38
663.17	35.11
663.31	30.43
663.45	105.32
663.60	77.24
663.74	0.00
663.88	49.15
664.02	100.64
664.17	0.00
664.31	16.38
664.45	51.49
664.59	32.77
664.73	0.00
664.88	46.81
665.02	0.00
665.16	74.90
665.30	131.07
665.44	21.06
665.59	58.51
665.73	11.70
665.87	18.72
666.01	49.15
666.15	42.13
666.29	0.00
666.44	21.06
666.58	49.15
666.72	30.43
666.86	7.02
667.00	49.15
667.14	28.09
667.28	210.65
667.43	512.58
667.57	943.24
667.71	1013.45
667.85	976.00
667.99	772.38
668.13	475.13
668.27	229.37
668.41	163.84
668.56	114.69
668.70	93.62
668.84	70.22
668.98	126.39
669.12	60.85
669.26	0.00
669.40	63.19
669.54	93.62
669.68	70.22
669.82	72.56
669.96	72.56
670.10	23.41
670.25	16.38
670.39	14.04
670.53	39.79
670.67	2.34
670.81	70.22
670.95	67.88
671.09	44.47
671.23	198.95
671.37	496.19
671.51	648.33
671.65	699.82
671.79	587.47
671.93	351.08
672.07	264.48
672.21	149.79
672.35	121.71
672.49	65.54
672.63	60.85
672.77	37.45
672.91	21.06
673.05	30.43
673.19	88.94
673.33	65.54
673.47	72.56
673.61	60.85
673.75	28.09
673.89	112.35
674.03	67.88
674.17	35.11
674.31	46.81
674.45	39.79
674.59	11.70
674.73	0.00
674.87	88.94
675.01	28.09
675.15	11.70
675.29	0.00
675.43	21.06
675.56	0.00
675.70	46.81
675.84	28.09
675.98	100.64
676.12	81.92
676.26	23.41
676.40	16.38
676.54	0.00
676.68	21.06
676.82	4.68
676.96	25.75
677.10	11.70
677.23	14.04
677.37	0.00
677.51	21.06
677.65	0.00
677.79	7.02
677.93	18.72
678.07	58.51
678.21	32.77
678.34	63.19
678.48	56.17
678.62	14.04
678.76	9.36
678.90	28.09
679.04	30.43
679.18	51.49
679.31	0.00
679.45	9.36
679.59	32.77
679.73	70.22
679.87	0.00
680.00	7.02
680.14	102.98
680.28	0.00
680.42	79.58
680.56	70.22
680.70	25.75
680.83	32.77
680.97	0.00
681.11	0.00
681.25	93.62
681.39	124.05
681.52	16.38
681.66	0.00
681.80	60.85
681.94	46.81
682.07	51.49
682.21	11.70
682.35	11.70
682.49	4.68
682.62	98.30
682.76	32.77
682.90	23.41
683.04	0.00
683.17	0.00
683.31	28.09
683.45	44.47
683.59	0.00
683.72	30.43
683.86	58.51
684.00	44.47
684.13	79.58
684.27	16.38
684.41	72.56
684.55	0.00
684.68	0.00
684.82	91.28
684.96	0.00
685.09	0.00
685.23	11.70
685.37	0.00
685.50	35.11
685.64	0.00
685.78	0.00
685.91	16.38
686.05	70.22
686.19	0.00
686.32	114.69
686.46	72.56
686.60	35.11
686.73	65.54
686.87	100.64
687.01	9.36
687.14	18.72
687.28	56.17
687.42	0.00
687.55	11.70
687.69	44.47
687.82	0.00
687.96	14.04
688.10	39.79
688.23	23.41
688.37	30.43
688.50	28.09
688.64	28.09
688.78	49.15
688.91	9.36
689.05	37.45
689.18	23.41
689.32	53.83
689.46	9.36
689.59	2.34
689.73	74.90
689.86	0.00
690.00	60.85
690.13	102.98
690.27	63.19
690.41	18.72
690.54	95.96
690.68	56.17
690.81	25.75
690.95	49.15
691.08	9.36
691.22	88.94
691.35	51.49
691.49	65.54
691.62	0.00
691.76	0.00
691.89	44.47
692.03	32.77
692.16	39.79
692.30	0.00
692.43	114.69
692.57	210.65
692.70	376.83
692.84	517.26
692.97	456.40
693.11	341.72
693.24	238.73
693.38	161.50
693.51	100.64
693.65	58.51
693.78	30.43
693.92	65.54
694.05	21.06
694.19	0.00
694.32	21.06
694.45	35.11
694.59	0.00
694.72	39.79
694.86	39.79
694.99	49.15
695.13	91.28
695.26	49.15
695.39	74.90
695.53	9.36
695.66	56.17
695.80	0.00
695.93	14.04
696.07	42.13
696.20	44.47
696.33	88.94
696.47	128.73
696.60	28.09
696.73	56.17
696.87	56.17
697.00	63.19
697.14	46.81
697.27	49.15
697.40	67.88
697.54	42.13
697.67	51.49
697.80	44.47
697.94	39.79
698.07	11.70
698.21	23.41
698.34	25.75
698.47	11.70
698.61	32.77
698.74	14.04
698.87	37.45
699.01	42.13
699.14	77.24
699.27	74.90
699.40	39.79
699.54	65.54
699.67	0.00
699.80	0.00
699.94	21.06
700.07	16.38
700.20	46.81
700.34	7.02
700.47	37.45
700.60	107.66
700.73	51.49
700.87	32.77
701.00	42.13
701.13	28.09
701.26	67.88
701.40	88.94
701.53	51.49
701.66	0.00
701.79	58.51
701.93	100.64
702.06	86.60
702.19	79.58
702.32	58.51
702.46	53.83
702.59	60.85
702.72	56.17
702.85	304.27
702.99	638.97
703.12	943.24
703.25	945.58
703.38	798.12
703.51	547.69
703.65	465.77
703.78	325.33
703.91	203.63
704.04	198.95
704.17	88.94
704.31	142.77
704.44	16.38
704.57	100.64
704.70	86.60
704.83	51.49
704.96	70.22
705.10	30.43
705.23	84.26
>>>>>End Processed Spectral Data<<<<<
