SpectraSuite Data File
++++++++++++++++++++++++++++++++++++
Date: Fri Oct 04 12:13:31 GMT-05:00 2013
User: price-jones
Dark Spectrum Present: No
Reference Spectrum Present: No
Number of Sampled Component Spectra: 1
Spectrometers: USB2+H05261
Integration Time (usec): 10000 (USB2+H05261)
Spectra Averaged: 1 (USB2+H05261)
Boxcar Smoothing: 0 (USB2+H05261)
Correct for Electrical Dark: No (USB2+H05261)
Strobe/Lamp Enabled: No (USB2+H05261)
Correct for Detector Non-linearity: No (USB2+H05261)
Correct for Stray Light: No (USB2+H05261)
Number of Pixels in Processed Spectrum: 2048
>>>>>Begin Processed Spectral Data<<<<<
365.73	37.45
365.92	37.45
366.12	37.45
366.32	0.00
366.52	0.00
366.72	0.00
366.91	0.00
367.11	0.00
367.31	0.00
367.51	0.00
367.70	0.00
367.90	0.00
368.10	0.00
368.30	0.00
368.49	0.00
368.69	0.00
368.89	0.00
369.09	0.00
369.28	0.00
369.48	0.00
369.68	0.00
369.87	0.00
370.07	0.00
370.27	0.00
370.47	0.00
370.66	0.00
370.86	0.00
371.06	0.00
371.25	0.00
371.45	16.38
371.65	0.00
371.84	37.45
372.04	0.00
372.24	0.00
372.44	60.85
372.63	2.34
372.83	0.00
373.03	56.17
373.22	0.00
373.42	28.09
373.62	42.13
373.81	0.00
374.01	74.90
374.21	4.68
374.40	0.00
374.60	14.04
374.79	25.75
374.99	58.51
375.19	58.51
375.38	51.49
375.58	72.56
375.78	39.79
375.97	63.19
376.17	79.58
376.37	46.81
376.56	84.26
376.76	7.02
376.95	0.00
377.15	0.00
377.35	0.00
377.54	23.41
377.74	0.00
377.93	49.15
378.13	0.00
378.33	58.51
378.52	35.11
378.72	9.36
378.91	2.34
379.11	32.77
379.31	0.00
379.50	9.36
379.70	0.00
379.89	0.00
380.09	14.04
380.28	23.41
380.48	14.04
380.68	18.72
380.87	0.00
381.07	0.00
381.26	53.83
381.46	9.36
381.65	35.11
381.85	0.00
382.04	42.13
382.24	0.00
382.43	98.30
382.63	0.00
382.83	0.00
383.02	28.09
383.22	4.68
383.41	0.00
383.61	0.00
383.80	35.11
384.00	16.38
384.19	25.75
384.39	0.00
384.58	72.56
384.78	67.88
384.97	37.45
385.17	0.00
385.36	42.13
385.56	86.60
385.75	0.00
385.95	30.43
386.14	0.00
386.34	11.70
386.53	9.36
386.72	0.00
386.92	42.13
387.11	14.04
387.31	35.11
387.50	39.79
387.70	86.60
387.89	16.38
388.09	25.75
388.28	7.02
388.48	79.58
388.67	21.06
388.86	0.00
389.06	0.00
389.25	72.56
389.45	65.54
389.64	14.04
389.84	37.45
390.03	65.54
390.22	56.17
390.42	0.00
390.61	58.51
390.81	21.06
391.00	0.00
391.19	60.85
391.39	46.81
391.58	46.81
391.78	0.00
391.97	0.00
392.16	9.36
392.36	35.11
392.55	35.11
392.75	65.54
392.94	21.06
393.13	37.45
393.33	56.17
393.52	60.85
393.71	105.32
393.91	14.04
394.10	25.75
394.29	28.09
394.49	0.00
394.68	0.00
394.88	0.00
395.07	0.00
395.26	18.72
395.46	0.00
395.65	21.06
395.84	23.41
396.04	39.79
396.23	56.17
396.42	46.81
396.62	49.15
396.81	32.77
397.00	7.02
397.19	0.00
397.39	70.22
397.58	56.17
397.77	32.77
397.97	16.38
398.16	51.49
398.35	25.75
398.55	72.56
398.74	0.00
398.93	25.75
399.12	0.00
399.32	16.38
399.51	0.00
399.70	9.36
399.90	9.36
400.09	77.24
400.28	21.06
400.47	51.49
400.67	102.98
400.86	18.72
401.05	32.77
401.24	9.36
401.44	0.00
401.63	0.00
401.82	18.72
402.01	21.06
402.21	86.60
402.40	37.45
402.59	16.38
402.78	81.92
402.97	28.09
403.17	44.47
403.36	0.00
403.55	23.41
403.74	46.81
403.93	9.36
404.13	18.72
404.32	14.04
404.51	4.68
404.70	53.83
404.89	0.00
405.09	63.19
405.28	58.51
405.47	14.04
405.66	53.83
405.85	84.26
406.05	39.79
406.24	16.38
406.43	0.00
406.62	44.47
406.81	63.19
407.00	124.05
407.20	0.00
407.39	0.00
407.58	28.09
407.77	21.06
407.96	0.00
408.15	0.00
408.34	72.56
408.54	32.77
408.73	14.04
408.92	58.51
409.11	4.68
409.30	18.72
409.49	79.58
409.68	11.70
409.87	7.02
410.07	25.75
410.26	56.17
410.45	93.62
410.64	28.09
410.83	39.79
411.02	23.41
411.21	39.79
411.40	60.85
411.59	46.81
411.78	51.49
411.98	18.72
412.17	16.38
412.36	0.00
412.55	25.75
412.74	11.70
412.93	30.43
413.12	0.00
413.31	72.56
413.50	25.75
413.69	0.00
413.88	11.70
414.07	46.81
414.26	74.90
414.45	60.85
414.64	25.75
414.83	37.45
415.02	91.28
415.22	23.41
415.41	2.34
415.60	0.00
415.79	7.02
415.98	42.13
416.17	70.22
416.36	0.00
416.55	0.00
416.74	0.00
416.93	58.51
417.12	14.04
417.31	4.68
417.50	0.00
417.69	0.00
417.88	49.15
418.07	58.51
418.26	9.36
418.45	70.22
418.64	88.94
418.83	77.24
419.02	21.06
419.21	0.00
419.39	72.56
419.58	121.71
419.77	98.30
419.96	51.49
420.15	53.83
420.34	0.00
420.53	53.83
420.72	37.45
420.91	98.30
421.10	72.56
421.29	65.54
421.48	0.00
421.67	72.56
421.86	42.13
422.05	67.88
422.24	25.75
422.43	0.00
422.61	37.45
422.80	0.00
422.99	81.92
423.18	49.15
423.37	65.54
423.56	63.19
423.75	42.13
423.94	2.34
424.13	18.72
424.32	21.06
424.50	56.17
424.69	9.36
424.88	2.34
425.07	9.36
425.26	35.11
425.45	49.15
425.64	46.81
425.83	35.11
426.01	28.09
426.20	72.56
426.39	11.70
426.58	77.24
426.77	32.77
426.96	124.05
427.15	56.17
427.33	14.04
427.52	53.83
427.71	4.68
427.90	60.85
428.09	18.72
428.28	46.81
428.46	58.51
428.65	30.43
428.84	42.13
429.03	77.24
429.22	0.00
429.40	14.04
429.59	42.13
429.78	18.72
429.97	16.38
430.16	7.02
430.34	28.09
430.53	84.26
430.72	0.00
430.91	46.81
431.10	25.75
431.28	25.75
431.47	42.13
431.66	7.02
431.85	9.36
432.03	16.38
432.22	39.79
432.41	70.22
432.60	65.54
432.79	86.60
432.97	63.19
433.16	28.09
433.35	0.00
433.54	32.77
433.72	53.83
433.91	60.85
434.10	46.81
434.28	21.06
434.47	32.77
434.66	0.00
434.85	39.79
435.03	58.51
435.22	51.49
435.41	42.13
435.59	51.49
435.78	11.70
435.97	79.58
436.16	51.49
436.34	18.72
436.53	95.96
436.72	30.43
436.90	14.04
437.09	56.17
437.28	100.64
437.46	95.96
437.65	88.94
437.84	88.94
438.02	2.34
438.21	14.04
438.40	7.02
438.58	39.79
438.77	51.49
438.96	11.70
439.14	37.45
439.33	70.22
439.52	7.02
439.70	65.54
439.89	0.00
440.08	46.81
440.26	53.83
440.45	84.26
440.63	30.43
440.82	2.34
441.01	9.36
441.19	0.00
441.38	18.72
441.57	42.13
441.75	18.72
441.94	0.00
442.12	0.00
442.31	58.51
442.50	7.02
442.68	23.41
442.87	0.00
443.05	9.36
443.24	51.49
443.43	0.00
443.61	35.11
443.80	44.47
443.98	77.24
444.17	23.41
444.35	28.09
444.54	56.17
444.73	28.09
444.91	42.13
445.10	0.00
445.28	9.36
445.47	81.92
445.65	128.73
445.84	60.85
446.02	23.41
446.21	42.13
446.39	0.00
446.58	32.77
446.77	86.60
446.95	49.15
447.14	145.11
447.32	0.00
447.51	0.00
447.69	81.92
447.88	70.22
448.06	35.11
448.25	107.66
448.43	0.00
448.62	0.00
448.80	35.11
448.99	84.26
449.17	51.49
449.36	0.00
449.54	58.51
449.73	9.36
449.91	28.09
450.10	70.22
450.28	100.64
450.46	18.72
450.65	23.41
450.83	30.43
451.02	58.51
451.20	0.00
451.39	0.00
451.57	44.47
451.76	11.70
451.94	102.98
452.13	56.17
452.31	25.75
452.49	86.60
452.68	4.68
452.86	0.00
453.05	0.00
453.23	51.49
453.42	81.92
453.60	30.43
453.78	51.49
453.97	0.00
454.15	77.24
454.34	74.90
454.52	2.34
454.70	44.47
454.89	93.62
455.07	88.94
455.26	35.11
455.44	65.54
455.62	42.13
455.81	21.06
455.99	58.51
456.17	28.09
456.36	0.00
456.54	18.72
456.73	77.24
456.91	16.38
457.09	32.77
457.28	16.38
457.46	0.00
457.64	21.06
457.83	0.00
458.01	28.09
458.19	74.90
458.38	56.17
458.56	72.56
458.74	0.00
458.93	0.00
459.11	0.00
459.29	37.45
459.48	51.49
459.66	4.68
459.84	0.00
460.03	63.19
460.21	77.24
460.39	14.04
460.57	18.72
460.76	56.17
460.94	0.00
461.12	86.60
461.31	63.19
461.49	0.00
461.67	74.90
461.85	28.09
462.04	25.75
462.22	30.43
462.40	67.88
462.59	21.06
462.77	0.00
462.95	0.00
463.13	23.41
463.32	44.47
463.50	60.85
463.68	0.00
463.86	70.22
464.05	2.34
464.23	18.72
464.41	0.00
464.59	88.94
464.78	105.32
464.96	67.88
465.14	70.22
465.32	32.77
465.50	28.09
465.69	32.77
465.87	28.09
466.05	37.45
466.23	44.47
466.41	56.17
466.60	56.17
466.78	9.36
466.96	72.56
467.14	0.00
467.32	53.83
467.51	28.09
467.69	72.56
467.87	0.00
468.05	21.06
468.23	79.58
468.41	53.83
468.60	28.09
468.78	72.56
468.96	9.36
469.14	84.26
469.32	72.56
469.50	25.75
469.69	51.49
469.87	9.36
470.05	0.00
470.23	28.09
470.41	21.06
470.59	42.13
470.77	51.49
470.95	77.24
471.14	60.85
471.32	42.13
471.50	0.00
471.68	44.47
471.86	98.30
472.04	42.13
472.22	67.88
472.40	53.83
472.58	65.54
472.77	7.02
472.95	0.00
473.13	7.02
473.31	105.32
473.49	42.13
473.67	72.56
473.85	9.36
474.03	0.00
474.21	0.00
474.39	49.15
474.57	70.22
474.75	63.19
474.93	14.04
475.12	21.06
475.30	79.58
475.48	23.41
475.66	32.77
475.84	32.77
476.02	25.75
476.20	21.06
476.38	39.79
476.56	23.41
476.74	35.11
476.92	88.94
477.10	102.98
477.28	77.24
477.46	65.54
477.64	16.38
477.82	63.19
478.00	79.58
478.18	18.72
478.36	53.83
478.54	46.81
478.72	91.28
478.90	44.47
479.08	37.45
479.26	46.81
479.44	0.00
479.62	128.73
479.80	53.83
479.98	0.00
480.16	102.98
480.34	0.00
480.52	119.37
480.70	93.62
480.88	0.00
481.06	30.43
481.24	30.43
481.41	37.45
481.59	0.00
481.77	51.49
481.95	0.00
482.13	28.09
482.31	9.36
482.49	53.83
482.67	0.00
482.85	4.68
483.03	9.36
483.21	53.83
483.39	35.11
483.57	18.72
483.74	70.22
483.92	0.00
484.10	84.26
484.28	88.94
484.46	67.88
484.64	46.81
484.82	0.00
485.00	25.75
485.18	44.47
485.35	4.68
485.53	0.00
485.71	14.04
485.89	112.35
486.07	35.11
486.25	44.47
486.43	0.00
486.61	53.83
486.78	0.00
486.96	23.41
487.14	0.00
487.32	35.11
487.50	25.75
487.68	58.51
487.85	42.13
488.03	0.00
488.21	86.60
488.39	53.83
488.57	49.15
488.75	0.00
488.92	67.88
489.10	107.66
489.28	0.00
489.46	0.00
489.64	0.00
489.81	0.00
489.99	81.92
490.17	28.09
490.35	30.43
490.53	0.00
490.70	46.81
490.88	84.26
491.06	9.36
491.24	18.72
491.41	30.43
491.59	2.34
491.77	79.58
491.95	25.75
492.13	14.04
492.30	4.68
492.48	0.00
492.66	44.47
492.84	102.98
493.01	56.17
493.19	51.49
493.37	72.56
493.54	35.11
493.72	32.77
493.90	49.15
494.08	88.94
494.25	65.54
494.43	0.00
494.61	21.06
494.79	58.51
494.96	74.90
495.14	70.22
495.32	0.00
495.49	16.38
495.67	74.90
495.85	0.00
496.02	79.58
496.20	93.62
496.38	37.45
496.55	18.72
496.73	37.45
496.91	16.38
497.09	58.51
497.26	46.81
497.44	39.79
497.62	102.98
497.79	65.54
497.97	9.36
498.14	4.68
498.32	58.51
498.50	56.17
498.67	21.06
498.85	16.38
499.03	37.45
499.20	21.06
499.38	105.32
499.56	0.00
499.73	58.51
499.91	49.15
500.08	0.00
500.26	28.09
500.44	114.69
500.61	0.00
500.79	0.00
500.97	0.00
501.14	46.81
501.32	86.60
501.49	23.41
501.67	107.66
501.84	114.69
502.02	93.62
502.20	46.81
502.37	0.00
502.55	135.75
502.72	93.62
502.90	25.75
503.07	46.81
503.25	65.54
503.43	32.77
503.60	81.92
503.78	84.26
503.95	0.00
504.13	0.00
504.30	2.34
504.48	70.22
504.65	14.04
504.83	88.94
505.01	0.00
505.18	67.88
505.36	23.41
505.53	0.00
505.71	18.72
505.88	37.45
506.06	147.45
506.23	107.66
506.41	98.30
506.58	18.72
506.76	32.77
506.93	60.85
507.11	23.41
507.28	49.15
507.46	21.06
507.63	65.54
507.81	4.68
507.98	67.88
508.16	39.79
508.33	145.11
508.50	63.19
508.68	60.85
508.85	21.06
509.03	25.75
509.20	0.00
509.38	25.75
509.55	44.47
509.73	74.90
509.90	53.83
510.08	25.75
510.25	105.32
510.42	72.56
510.60	63.19
510.77	53.83
510.95	51.49
511.12	56.17
511.30	35.11
511.47	98.30
511.64	0.00
511.82	28.09
511.99	44.47
512.17	28.09
512.34	72.56
512.51	28.09
512.69	44.47
512.86	86.60
513.04	0.00
513.21	28.09
513.38	28.09
513.56	56.17
513.73	23.41
513.90	4.68
514.08	44.47
514.25	9.36
514.43	56.17
514.60	74.90
514.77	105.32
514.95	51.49
515.12	0.00
515.29	51.49
515.47	32.77
515.64	91.28
515.81	56.17
515.99	42.13
516.16	0.00
516.33	0.00
516.51	30.43
516.68	21.06
516.85	67.88
517.03	7.02
517.20	81.92
517.37	0.00
517.54	93.62
517.72	121.71
517.89	7.02
518.06	0.00
518.24	114.69
518.41	0.00
518.58	7.02
518.75	21.06
518.93	70.22
519.10	0.00
519.27	51.49
519.45	39.79
519.62	63.19
519.79	44.47
519.96	9.36
520.14	7.02
520.31	105.32
520.48	35.11
520.65	0.00
520.83	0.00
521.00	18.72
521.17	0.00
521.34	49.15
521.52	86.60
521.69	72.56
521.86	56.17
522.03	28.09
522.20	105.32
522.38	81.92
522.55	7.02
522.72	110.01
522.89	2.34
523.07	110.01
523.24	77.24
523.41	70.22
523.58	98.30
523.75	77.24
523.92	46.81
524.10	23.41
524.27	56.17
524.44	81.92
524.61	39.79
524.78	60.85
524.96	77.24
525.13	14.04
525.30	49.15
525.47	32.77
525.64	102.98
525.81	84.26
525.98	46.81
526.16	51.49
526.33	63.19
526.50	0.00
526.67	25.75
526.84	23.41
527.01	77.24
527.18	30.43
527.36	0.00
527.53	11.70
527.70	32.77
527.87	0.00
528.04	98.30
528.21	0.00
528.38	46.81
528.55	28.09
528.72	0.00
528.89	25.75
529.07	7.02
529.24	0.00
529.41	88.94
529.58	84.26
529.75	65.54
529.92	95.96
530.09	30.43
530.26	128.73
530.43	63.19
530.60	0.00
530.77	32.77
530.94	21.06
531.11	2.34
531.28	2.34
531.46	28.09
531.63	0.00
531.80	53.83
531.97	63.19
532.14	100.64
532.31	35.11
532.48	37.45
532.65	35.11
532.82	2.34
532.99	35.11
533.16	25.75
533.33	84.26
533.50	0.00
533.67	114.69
533.84	70.22
534.01	74.90
534.18	18.72
534.35	11.70
534.52	65.54
534.69	18.72
534.86	35.11
535.03	18.72
535.20	70.22
535.37	32.77
535.54	84.26
535.71	42.13
535.88	0.00
536.05	0.00
536.22	32.77
536.38	44.47
536.55	0.00
536.72	98.30
536.89	32.77
537.06	32.77
537.23	56.17
537.40	63.19
537.57	23.41
537.74	30.43
537.91	60.85
538.08	14.04
538.25	58.51
538.42	16.38
538.59	0.00
538.75	70.22
538.92	23.41
539.09	56.17
539.26	0.00
539.43	39.79
539.60	25.75
539.77	39.79
539.94	95.96
540.11	60.85
540.28	70.22
540.44	18.72
540.61	25.75
540.78	42.13
540.95	16.38
541.12	21.06
541.29	28.09
541.46	46.81
541.62	37.45
541.79	25.75
541.96	0.00
542.13	65.54
542.30	58.51
542.47	16.38
542.63	9.36
542.80	88.94
542.97	37.45
543.14	46.81
543.31	0.00
543.48	11.70
543.64	0.00
543.81	53.83
543.98	39.79
544.15	56.17
544.32	53.83
544.48	23.41
544.65	9.36
544.82	86.60
544.99	23.41
545.16	58.51
545.32	65.54
545.49	77.24
545.66	28.09
545.83	25.75
546.00	23.41
546.16	114.69
546.33	91.28
546.50	63.19
546.67	60.85
546.83	72.56
547.00	16.38
547.17	28.09
547.34	0.00
547.50	70.22
547.67	0.00
547.84	2.34
548.00	124.05
548.17	28.09
548.34	0.00
548.51	51.49
548.67	56.17
548.84	79.58
549.01	30.43
549.18	72.56
549.34	32.77
549.51	0.00
549.68	37.45
549.84	63.19
550.01	46.81
550.18	58.51
550.34	72.56
550.51	28.09
550.68	67.88
550.84	0.00
551.01	51.49
551.18	119.37
551.34	53.83
551.51	46.81
551.68	0.00
551.84	0.00
552.01	9.36
552.18	0.00
552.34	74.90
552.51	51.49
552.68	0.00
552.84	14.04
553.01	51.49
553.18	42.13
553.34	23.41
553.51	0.00
553.67	49.15
553.84	67.88
554.01	25.75
554.17	21.06
554.34	49.15
554.51	53.83
554.67	28.09
554.84	2.34
555.00	14.04
555.17	16.38
555.33	0.00
555.50	0.00
555.67	28.09
555.83	32.77
556.00	4.68
556.16	98.30
556.33	32.77
556.50	105.32
556.66	25.75
556.83	39.79
556.99	56.17
557.16	100.64
557.32	51.49
557.49	56.17
557.65	11.70
557.82	42.13
557.98	51.49
558.15	65.54
558.32	0.00
558.48	110.01
558.65	119.37
558.81	81.92
558.98	28.09
559.14	37.45
559.31	37.45
559.47	74.90
559.64	81.92
559.80	32.77
559.97	4.68
560.13	46.81
560.30	25.75
560.46	67.88
560.63	93.62
560.79	32.77
560.96	91.28
561.12	149.79
561.29	30.43
561.45	2.34
561.61	60.85
561.78	152.13
561.94	9.36
562.11	51.49
562.27	44.47
562.44	35.11
562.60	77.24
562.77	60.85
562.93	16.38
563.10	0.00
563.26	0.00
563.42	0.00
563.59	0.00
563.75	37.45
563.92	23.41
564.08	49.15
564.24	14.04
564.41	95.96
564.57	79.58
564.74	42.13
564.90	49.15
565.07	79.58
565.23	0.00
565.39	44.47
565.56	0.00
565.72	39.79
565.88	102.98
566.05	25.75
566.21	16.38
566.38	53.83
566.54	28.09
566.70	16.38
566.87	37.45
567.03	88.94
567.19	14.04
567.36	9.36
567.52	56.17
567.68	42.13
567.85	53.83
568.01	28.09
568.17	49.15
568.34	11.70
568.50	74.90
568.66	7.02
568.83	84.26
568.99	86.60
569.15	51.49
569.32	58.51
569.48	65.54
569.64	25.75
569.81	46.81
569.97	77.24
570.13	72.56
570.30	4.68
570.46	46.81
570.62	23.41
570.78	77.24
570.95	98.30
571.11	72.56
571.27	84.26
571.43	2.34
571.60	70.22
571.76	86.60
571.92	88.94
572.09	32.77
572.25	42.13
572.41	56.17
572.57	37.45
572.74	11.70
572.90	14.04
573.06	51.49
573.22	0.00
573.38	32.77
573.55	84.26
573.71	65.54
573.87	44.47
574.03	70.22
574.20	30.43
574.36	84.26
574.52	28.09
574.68	88.94
574.84	58.51
575.01	0.00
575.17	39.79
575.33	67.88
575.49	44.47
575.65	16.38
575.82	46.81
575.98	67.88
576.14	100.64
576.30	58.51
576.46	0.00
576.62	0.00
576.79	46.81
576.95	74.90
577.11	30.43
577.27	84.26
577.43	0.00
577.59	49.15
577.75	79.58
577.92	60.85
578.08	30.43
578.24	14.04
578.40	53.83
578.56	16.38
578.72	154.48
578.88	65.54
579.04	74.90
579.21	63.19
579.37	21.06
579.53	65.54
579.69	0.00
579.85	21.06
580.01	0.00
580.17	77.24
580.33	91.28
580.49	91.28
580.65	39.79
580.82	74.90
580.98	126.39
581.14	110.01
581.30	0.00
581.46	79.58
581.62	0.00
581.78	0.00
581.94	39.79
582.10	0.00
582.26	25.75
582.42	63.19
582.58	110.01
582.74	72.56
582.90	23.41
583.06	67.88
583.22	95.96
583.38	74.90
583.54	23.41
583.70	16.38
583.86	56.17
584.02	58.51
584.18	67.88
584.34	91.28
584.50	56.17
584.66	365.12
584.82	823.87
584.98	1121.12
585.14	1046.22
585.30	716.20
585.46	430.66
585.62	278.52
585.78	142.77
585.94	112.35
586.10	91.28
586.26	37.45
586.42	58.51
586.58	37.45
586.74	98.30
586.90	70.22
587.06	0.00
587.22	93.62
587.38	88.94
587.54	128.73
587.70	102.98
587.86	39.79
588.02	53.83
588.18	28.09
588.34	58.51
588.49	49.15
588.65	18.72
588.81	0.00
588.97	23.41
589.13	49.15
589.29	53.83
589.45	35.11
589.61	11.70
589.77	44.47
589.93	56.17
590.08	14.04
590.24	49.15
590.40	46.81
590.56	16.38
590.72	37.45
590.88	28.09
591.04	138.09
591.20	67.88
591.35	0.00
591.51	72.56
591.67	49.15
591.83	44.47
591.99	67.88
592.15	60.85
592.31	53.83
592.46	25.75
592.62	107.66
592.78	0.00
592.94	30.43
593.10	37.45
593.26	84.26
593.41	65.54
593.57	86.60
593.73	35.11
593.89	53.83
594.05	110.01
594.20	170.86
594.36	205.97
594.52	128.73
594.68	107.66
594.84	114.69
594.99	18.72
595.15	25.75
595.31	70.22
595.47	56.17
595.62	46.81
595.78	0.00
595.94	49.15
596.10	21.06
596.25	58.51
596.41	58.51
596.57	121.71
596.73	51.49
596.88	60.85
597.04	63.19
597.20	0.00
597.36	49.15
597.51	102.98
597.67	119.37
597.83	0.00
597.99	23.41
598.14	44.47
598.30	84.26
598.46	0.00
598.61	81.92
598.77	56.17
598.93	74.90
599.09	84.26
599.24	86.60
599.40	49.15
599.56	46.81
599.71	70.22
599.87	32.77
600.03	0.00
600.18	37.45
600.34	32.77
600.50	30.43
600.65	25.75
600.81	60.85
600.97	58.51
601.12	30.43
601.28	65.54
601.44	0.00
601.59	72.56
601.75	16.38
601.91	100.64
602.06	30.43
602.22	0.00
602.37	51.49
602.53	98.30
602.69	65.54
602.84	107.66
603.00	77.24
603.16	53.83
603.31	0.00
603.47	91.28
603.62	7.02
603.78	32.77
603.94	58.51
604.09	37.45
604.25	0.00
604.40	81.92
604.56	0.00
604.71	0.00
604.87	44.47
605.03	35.11
605.18	18.72
605.34	0.00
605.49	44.47
605.65	77.24
605.80	0.00
605.96	70.22
606.12	161.50
606.27	0.00
606.43	4.68
606.58	51.49
606.74	135.75
606.89	77.24
607.05	135.75
607.20	198.95
607.36	159.16
607.51	98.30
607.67	63.19
607.82	88.94
607.98	74.90
608.13	0.00
608.29	0.00
608.44	28.09
608.60	46.81
608.75	51.49
608.91	88.94
609.06	145.11
609.22	222.35
609.37	269.16
609.53	308.95
609.68	161.50
609.84	128.73
609.99	110.01
610.15	102.98
610.30	11.70
610.46	81.92
610.61	49.15
610.76	0.00
610.92	46.81
611.07	81.92
611.23	74.90
611.38	0.00
611.54	30.43
611.69	70.22
611.84	93.62
612.00	28.09
612.15	44.47
612.31	37.45
612.46	0.00
612.62	44.47
612.77	53.83
612.92	44.47
613.08	77.24
613.23	25.75
613.39	79.58
613.54	95.96
613.69	39.79
613.85	168.52
614.00	255.12
614.15	332.36
614.31	311.29
614.46	168.52
614.62	166.18
614.77	121.71
614.92	37.45
615.08	4.68
615.23	67.88
615.38	2.34
615.54	0.00
615.69	112.35
615.84	142.77
616.00	117.03
616.15	135.75
616.30	142.77
616.46	65.54
616.61	79.58
616.76	30.43
616.92	74.90
617.07	0.00
617.22	0.00
617.37	77.24
617.53	79.58
617.68	35.11
617.83	4.68
617.99	72.56
618.14	72.56
618.29	74.90
618.45	72.56
618.60	51.49
618.75	88.94
618.90	77.24
619.06	46.81
619.21	58.51
619.36	49.15
619.51	0.00
619.67	53.83
619.82	25.75
619.97	23.41
620.12	2.34
620.28	23.41
620.43	53.83
620.58	0.00
620.73	112.35
620.89	53.83
621.04	2.34
621.19	149.79
621.34	93.62
621.49	91.28
621.65	91.28
621.80	72.56
621.95	37.45
622.10	44.47
622.25	56.17
622.41	46.81
622.56	131.07
622.71	28.09
622.86	28.09
623.01	39.79
623.16	32.77
623.32	0.00
623.47	88.94
623.62	0.00
623.77	30.43
623.92	88.94
624.07	25.75
624.23	44.47
624.38	4.68
624.53	0.00
624.68	0.00
624.83	63.19
624.98	35.11
625.13	0.00
625.29	102.98
625.44	79.58
625.59	0.00
625.74	39.79
625.89	30.43
626.04	86.60
626.19	67.88
626.34	126.39
626.49	215.33
626.65	180.22
626.80	117.03
626.95	133.41
627.10	84.26
627.25	58.51
627.40	0.00
627.55	60.85
627.70	60.85
627.85	37.45
628.00	0.00
628.15	51.49
628.30	0.00
628.45	46.81
628.60	0.00
628.76	30.43
628.91	0.00
629.06	37.45
629.21	39.79
629.36	0.00
629.51	60.85
629.66	28.09
629.81	18.72
629.96	86.60
630.11	163.84
630.26	86.60
630.41	14.04
630.56	112.35
630.71	14.04
630.86	93.62
631.01	42.13
631.16	0.00
631.31	93.62
631.46	53.83
631.61	0.00
631.76	58.51
631.91	11.70
632.06	110.01
632.21	28.09
632.36	37.45
632.51	44.47
632.66	0.00
632.81	70.22
632.96	110.01
633.10	117.03
633.25	161.50
633.40	124.05
633.55	124.05
633.70	42.13
633.85	58.51
634.00	35.11
634.15	60.85
634.30	14.04
634.45	18.72
634.60	0.00
634.75	30.43
634.90	0.00
635.05	63.19
635.19	7.02
635.34	74.90
635.49	49.15
635.64	58.51
635.79	65.54
635.94	18.72
636.09	7.02
636.24	88.94
636.39	72.56
636.53	28.09
636.68	88.94
636.83	35.11
636.98	0.00
637.13	0.00
637.28	0.00
637.43	128.73
637.57	65.54
637.72	63.19
637.87	117.03
638.02	245.76
638.17	222.35
638.32	215.33
638.46	210.65
638.61	147.45
638.76	105.32
638.91	72.56
639.06	0.00
639.20	0.00
639.35	32.77
639.50	65.54
639.65	95.96
639.80	313.63
639.94	353.42
640.09	404.91
640.24	351.08
640.39	311.29
640.54	138.09
640.68	147.45
640.83	16.38
640.98	105.32
641.13	0.00
641.27	0.00
641.42	65.54
641.57	49.15
641.72	81.92
641.86	18.72
642.01	14.04
642.16	0.00
642.31	51.49
642.45	77.24
642.60	58.51
642.75	0.00
642.90	18.72
643.04	9.36
643.19	0.00
643.34	77.24
643.48	35.11
643.63	42.13
643.78	53.83
643.93	100.64
644.07	0.00
644.22	63.19
644.37	0.00
644.51	79.58
644.66	9.36
644.81	16.38
644.95	0.00
645.10	42.13
645.25	0.00
645.39	4.68
645.54	67.88
645.69	7.02
645.83	0.00
645.98	2.34
646.13	0.00
646.27	72.56
646.42	30.43
646.57	28.09
646.71	28.09
646.86	25.75
647.00	51.49
647.15	53.83
647.30	0.00
647.44	42.13
647.59	60.85
647.74	112.35
647.88	18.72
648.03	14.04
648.17	32.77
648.32	63.19
648.47	0.00
648.61	23.41
648.76	0.00
648.90	63.19
649.05	0.00
649.20	0.00
649.34	42.13
649.49	9.36
649.63	46.81
649.78	7.02
649.92	0.00
650.07	16.38
650.21	86.60
650.36	166.18
650.51	175.54
650.65	229.37
650.80	229.37
650.94	44.47
651.09	110.01
651.23	102.98
651.38	23.41
651.52	0.00
651.67	60.85
651.81	39.79
651.96	0.00
652.10	0.00
652.25	14.04
652.39	37.45
652.54	53.83
652.68	30.43
652.83	44.47
652.97	91.28
653.12	159.16
653.26	39.79
653.41	102.98
653.55	56.17
653.70	58.51
653.84	51.49
653.99	42.13
654.13	42.13
654.27	0.00
654.42	0.00
654.56	0.00
654.71	0.00
654.85	0.00
655.00	0.00
655.14	91.28
655.29	0.00
655.43	30.43
655.57	81.92
655.72	0.00
655.86	4.68
656.01	0.00
656.15	30.43
656.30	0.00
656.44	58.51
656.58	163.84
656.73	23.41
656.87	23.41
657.01	53.83
657.16	63.19
657.30	98.30
657.45	44.47
657.59	102.98
657.73	0.00
657.88	81.92
658.02	11.70
658.16	0.00
658.31	0.00
658.45	110.01
658.60	65.54
658.74	91.28
658.88	30.43
659.03	0.00
659.17	18.72
659.31	21.06
659.46	77.24
659.60	142.77
659.74	88.94
659.89	95.96
660.03	114.69
660.17	56.17
660.32	74.90
660.46	32.77
660.60	16.38
660.74	65.54
660.89	44.47
661.03	121.71
661.17	9.36
661.32	18.72
661.46	0.00
661.60	0.00
661.74	7.02
661.89	46.81
662.03	23.41
662.17	0.00
662.31	0.00
662.46	67.88
662.60	0.00
662.74	42.13
662.88	49.15
663.03	63.19
663.17	0.00
663.31	70.22
663.45	0.00
663.60	86.60
663.74	4.68
663.88	37.45
664.02	56.17
664.17	46.81
664.31	44.47
664.45	18.72
664.59	23.41
664.73	37.45
664.88	32.77
665.02	25.75
665.16	14.04
665.30	49.15
665.44	28.09
665.59	18.72
665.73	0.00
665.87	18.72
666.01	53.83
666.15	49.15
666.29	49.15
666.44	32.77
666.58	53.83
666.72	37.45
666.86	44.47
667.00	110.01
667.14	65.54
667.28	56.17
667.43	37.45
667.57	110.01
667.71	156.82
667.85	126.39
667.99	133.41
668.13	74.90
668.27	72.56
668.41	88.94
668.56	79.58
668.70	0.00
668.84	56.17
668.98	37.45
669.12	56.17
669.26	7.02
669.40	65.54
669.54	39.79
669.68	117.03
669.82	98.30
669.96	23.41
670.10	0.00
670.25	0.00
670.39	14.04
670.53	4.68
670.67	74.90
670.81	23.41
670.95	2.34
671.09	51.49
671.23	44.47
671.37	51.49
671.51	126.39
671.65	102.98
671.79	152.13
671.93	65.54
672.07	86.60
672.21	72.56
672.35	23.41
672.49	0.00
672.63	79.58
672.77	72.56
672.91	25.75
673.05	46.81
673.19	91.28
673.33	0.00
673.47	49.15
673.61	18.72
673.75	42.13
673.89	14.04
674.03	58.51
674.17	91.28
674.31	42.13
674.45	7.02
674.59	2.34
674.73	0.00
674.87	23.41
675.01	25.75
675.15	21.06
675.29	70.22
675.43	77.24
675.56	70.22
675.70	84.26
675.84	11.70
675.98	30.43
676.12	9.36
676.26	39.79
676.40	18.72
676.54	39.79
676.68	18.72
676.82	0.00
676.96	42.13
677.10	9.36
677.23	0.00
677.37	0.00
677.51	0.00
677.65	93.62
677.79	30.43
677.93	70.22
678.07	51.49
678.21	74.90
678.34	88.94
678.48	81.92
678.62	0.00
678.76	42.13
678.90	44.47
679.04	32.77
679.18	9.36
679.31	39.79
679.45	18.72
679.59	18.72
679.73	0.00
679.87	32.77
680.00	0.00
680.14	51.49
680.28	56.17
680.42	25.75
680.56	35.11
680.70	18.72
680.83	0.00
680.97	44.47
681.11	25.75
681.25	93.62
681.39	70.22
681.52	51.49
681.66	4.68
681.80	18.72
681.94	0.00
682.07	16.38
682.21	159.16
682.35	35.11
682.49	0.00
682.62	46.81
682.76	0.00
682.90	16.38
683.04	28.09
683.17	0.00
683.31	0.00
683.45	9.36
683.59	30.43
683.72	49.15
683.86	0.00
684.00	2.34
684.13	30.43
684.27	56.17
684.41	0.00
684.55	53.83
684.68	14.04
684.82	91.28
684.96	23.41
685.09	49.15
685.23	14.04
685.37	39.79
685.50	0.00
685.64	0.00
685.78	0.00
685.91	23.41
686.05	63.19
686.19	81.92
686.32	42.13
686.46	4.68
686.60	0.00
686.73	9.36
686.87	2.34
687.01	0.00
687.14	0.00
687.28	37.45
687.42	58.51
687.55	30.43
687.69	60.85
687.82	44.47
687.96	14.04
688.10	0.00
688.23	81.92
688.37	112.35
688.50	142.77
688.64	65.54
688.78	72.56
688.91	42.13
689.05	72.56
689.18	46.81
689.32	4.68
689.46	16.38
689.59	72.56
689.73	0.00
689.86	28.09
690.00	9.36
690.13	0.00
690.27	0.00
690.41	28.09
690.54	21.06
690.68	126.39
690.81	67.88
690.95	72.56
691.08	88.94
691.22	56.17
691.35	0.00
691.49	102.98
691.62	9.36
691.76	28.09
691.89	0.00
692.03	35.11
692.16	63.19
692.30	0.00
692.43	0.00
692.57	98.30
692.70	95.96
692.84	81.92
692.97	117.03
693.11	63.19
693.24	42.13
693.38	25.75
693.51	16.38
693.65	0.00
693.78	53.83
693.92	67.88
694.05	65.54
694.19	37.45
694.32	14.04
694.45	88.94
694.59	79.58
694.72	28.09
694.86	0.00
694.99	65.54
695.13	0.00
695.26	0.00
695.39	32.77
695.53	0.00
695.66	18.72
695.80	53.83
695.93	2.34
696.07	0.00
696.20	39.79
696.33	0.00
696.47	23.41
696.60	100.64
696.73	112.35
696.87	7.02
697.00	42.13
697.14	156.82
697.27	56.17
697.40	44.47
697.54	30.43
697.67	37.45
697.80	0.00
697.94	0.00
698.07	117.03
698.21	30.43
698.34	51.49
698.47	74.90
698.61	11.70
698.74	35.11
698.87	23.41
699.01	56.17
699.14	14.04
699.27	7.02
699.40	91.28
699.54	0.00
699.67	70.22
699.80	0.00
699.94	30.43
700.07	0.00
700.20	16.38
700.34	0.00
700.47	0.00
700.60	44.47
700.73	117.03
700.87	72.56
701.00	0.00
701.13	46.81
701.26	0.00
701.40	0.00
701.53	25.75
701.66	49.15
701.79	4.68
701.93	93.62
702.06	0.00
702.19	0.00
702.32	23.41
702.46	84.26
702.59	0.00
702.72	49.15
702.85	121.71
702.99	91.28
703.12	128.73
703.25	95.96
703.38	147.45
703.51	84.26
703.65	133.41
703.78	51.49
703.91	102.98
704.04	25.75
704.17	0.00
704.31	14.04
704.44	18.72
704.57	28.09
704.70	72.56
704.83	21.06
704.96	28.09
705.10	21.06
705.23	53.83
>>>>>End Processed Spectral Data<<<<<
