SpectraSuite Data File
++++++++++++++++++++++++++++++++++++
Date: Fri Oct 04 12:13:30 GMT-05:00 2013
User: price-jones
Dark Spectrum Present: No
Reference Spectrum Present: No
Number of Sampled Component Spectra: 1
Spectrometers: USB2+H05261
Integration Time (usec): 10000 (USB2+H05261)
Spectra Averaged: 1 (USB2+H05261)
Boxcar Smoothing: 0 (USB2+H05261)
Correct for Electrical Dark: No (USB2+H05261)
Strobe/Lamp Enabled: No (USB2+H05261)
Correct for Detector Non-linearity: No (USB2+H05261)
Correct for Stray Light: No (USB2+H05261)
Number of Pixels in Processed Spectrum: 2048
>>>>>Begin Processed Spectral Data<<<<<
365.73	0.00
365.92	0.00
366.12	0.00
366.32	0.00
366.52	0.00
366.72	0.00
366.91	0.00
367.11	0.00
367.31	0.00
367.51	0.00
367.70	0.00
367.90	0.00
368.10	0.00
368.30	0.00
368.49	0.00
368.69	0.00
368.89	0.00
369.09	0.00
369.28	0.00
369.48	0.00
369.68	0.00
369.87	0.00
370.07	0.00
370.27	0.00
370.47	0.00
370.66	0.00
370.86	18.72
371.06	9.36
371.25	0.00
371.45	0.00
371.65	0.00
371.84	35.11
372.04	0.00
372.24	74.90
372.44	30.43
372.63	51.49
372.83	4.68
373.03	65.54
373.22	2.34
373.42	18.72
373.62	0.00
373.81	14.04
374.01	60.85
374.21	2.34
374.40	44.47
374.60	37.45
374.79	0.00
374.99	84.26
375.19	0.00
375.38	0.00
375.58	0.00
375.78	102.98
375.97	18.72
376.17	0.00
376.37	95.96
376.56	126.39
376.76	28.09
376.95	0.00
377.15	65.54
377.35	51.49
377.54	0.00
377.74	0.00
377.93	0.00
378.13	2.34
378.33	32.77
378.52	67.88
378.72	35.11
378.91	0.00
379.11	0.00
379.31	0.00
379.50	32.77
379.70	32.77
379.89	58.51
380.09	0.00
380.28	2.34
380.48	51.49
380.68	112.35
380.87	18.72
381.07	42.13
381.26	23.41
381.46	79.58
381.65	42.13
381.85	0.00
382.04	32.77
382.24	0.00
382.43	23.41
382.63	0.00
382.83	77.24
383.02	0.00
383.22	25.75
383.41	53.83
383.61	35.11
383.80	81.92
384.00	67.88
384.19	0.00
384.39	30.43
384.58	65.54
384.78	0.00
384.97	9.36
385.17	4.68
385.36	100.64
385.56	0.00
385.75	67.88
385.95	4.68
386.14	0.00
386.34	25.75
386.53	53.83
386.72	35.11
386.92	58.51
387.11	35.11
387.31	4.68
387.50	32.77
387.70	0.00
387.89	74.90
388.09	25.75
388.28	32.77
388.48	72.56
388.67	11.70
388.86	0.00
389.06	4.68
389.25	11.70
389.45	77.24
389.64	25.75
389.84	46.81
390.03	0.00
390.22	0.00
390.42	21.06
390.61	0.00
390.81	51.49
391.00	0.00
391.19	46.81
391.39	65.54
391.58	30.43
391.78	51.49
391.97	2.34
392.16	0.00
392.36	0.00
392.55	121.71
392.75	37.45
392.94	39.79
393.13	7.02
393.33	0.00
393.52	65.54
393.71	18.72
393.91	0.00
394.10	9.36
394.29	0.00
394.49	9.36
394.68	21.06
394.88	0.00
395.07	4.68
395.26	84.26
395.46	0.00
395.65	51.49
395.84	63.19
396.04	9.36
396.23	70.22
396.42	44.47
396.62	4.68
396.81	11.70
397.00	0.00
397.19	0.00
397.39	30.43
397.58	0.00
397.77	67.88
397.97	0.00
398.16	0.00
398.35	9.36
398.55	0.00
398.74	32.77
398.93	21.06
399.12	0.00
399.32	11.70
399.51	58.51
399.70	0.00
399.90	105.32
400.09	9.36
400.28	0.00
400.47	4.68
400.67	56.17
400.86	0.00
401.05	21.06
401.24	21.06
401.44	0.00
401.63	0.00
401.82	0.00
402.01	37.45
402.21	18.72
402.40	56.17
402.59	58.51
402.78	49.15
402.97	21.06
403.17	39.79
403.36	0.00
403.55	42.13
403.74	0.00
403.93	0.00
404.13	28.09
404.32	25.75
404.51	2.34
404.70	2.34
404.89	14.04
405.09	105.32
405.28	28.09
405.47	4.68
405.66	18.72
405.85	2.34
406.05	0.00
406.24	4.68
406.43	49.15
406.62	9.36
406.81	39.79
407.00	0.00
407.20	46.81
407.39	0.00
407.58	49.15
407.77	0.00
407.96	39.79
408.15	0.00
408.34	23.41
408.54	4.68
408.73	2.34
408.92	49.15
409.11	58.51
409.30	86.60
409.49	39.79
409.68	107.66
409.87	0.00
410.07	35.11
410.26	0.00
410.45	11.70
410.64	11.70
410.83	86.60
411.02	0.00
411.21	7.02
411.40	39.79
411.59	74.90
411.78	74.90
411.98	42.13
412.17	0.00
412.36	51.49
412.55	42.13
412.74	44.47
412.93	44.47
413.12	30.43
413.31	16.38
413.50	32.77
413.69	65.54
413.88	18.72
414.07	0.00
414.26	28.09
414.45	0.00
414.64	56.17
414.83	37.45
415.02	84.26
415.22	60.85
415.41	39.79
415.60	2.34
415.79	2.34
415.98	0.00
416.17	100.64
416.36	35.11
416.55	0.00
416.74	0.00
416.93	39.79
417.12	70.22
417.31	18.72
417.50	105.32
417.69	60.85
417.88	65.54
418.07	2.34
418.26	0.00
418.45	79.58
418.64	14.04
418.83	32.77
419.02	72.56
419.21	18.72
419.39	0.00
419.58	0.00
419.77	58.51
419.96	58.51
420.15	74.90
420.34	30.43
420.53	53.83
420.72	63.19
420.91	0.00
421.10	35.11
421.29	53.83
421.48	0.00
421.67	0.00
421.86	7.02
422.05	0.00
422.24	49.15
422.43	14.04
422.61	39.79
422.80	39.79
422.99	0.00
423.18	42.13
423.37	32.77
423.56	37.45
423.75	102.98
423.94	58.51
424.13	39.79
424.32	0.00
424.50	0.00
424.69	0.00
424.88	28.09
425.07	49.15
425.26	0.00
425.45	67.88
425.64	0.00
425.83	0.00
426.01	30.43
426.20	0.00
426.39	0.00
426.58	56.17
426.77	0.00
426.96	18.72
427.15	51.49
427.33	53.83
427.52	58.51
427.71	112.35
427.90	23.41
428.09	30.43
428.28	25.75
428.46	0.00
428.65	0.00
428.84	0.00
429.03	28.09
429.22	14.04
429.40	0.00
429.59	0.00
429.78	35.11
429.97	0.00
430.16	4.68
430.34	91.28
430.53	21.06
430.72	0.00
430.91	0.00
431.10	37.45
431.28	18.72
431.47	4.68
431.66	11.70
431.85	0.00
432.03	84.26
432.22	39.79
432.41	0.00
432.60	30.43
432.79	16.38
432.97	117.03
433.16	58.51
433.35	74.90
433.54	107.66
433.72	14.04
433.91	30.43
434.10	16.38
434.28	46.81
434.47	39.79
434.66	107.66
434.85	84.26
435.03	25.75
435.22	42.13
435.41	42.13
435.59	0.00
435.78	0.00
435.97	63.19
436.16	0.00
436.34	53.83
436.53	37.45
436.72	0.00
436.90	67.88
437.09	107.66
437.28	30.43
437.46	37.45
437.65	28.09
437.84	53.83
438.02	23.41
438.21	53.83
438.40	42.13
438.58	14.04
438.77	44.47
438.96	84.26
439.14	21.06
439.33	72.56
439.52	28.09
439.70	21.06
439.89	70.22
440.08	35.11
440.26	16.38
440.45	42.13
440.63	51.49
440.82	30.43
441.01	0.00
441.19	0.00
441.38	0.00
441.57	0.00
441.75	18.72
441.94	86.60
442.12	2.34
442.31	91.28
442.50	14.04
442.68	117.03
442.87	0.00
443.05	0.00
443.24	18.72
443.43	7.02
443.61	39.79
443.80	74.90
443.98	88.94
444.17	39.79
444.35	18.72
444.54	23.41
444.73	0.00
444.91	53.83
445.10	30.43
445.28	0.00
445.47	18.72
445.65	16.38
445.84	23.41
446.02	56.17
446.21	63.19
446.39	53.83
446.58	81.92
446.77	0.00
446.95	0.00
447.14	30.43
447.32	0.00
447.51	70.22
447.69	0.00
447.88	0.00
448.06	16.38
448.25	0.00
448.43	25.75
448.62	53.83
448.80	25.75
448.99	28.09
449.17	56.17
449.36	14.04
449.54	18.72
449.73	14.04
449.91	0.00
450.10	32.77
450.28	28.09
450.46	28.09
450.65	46.81
450.83	51.49
451.02	53.83
451.20	18.72
451.39	35.11
451.57	0.00
451.76	28.09
451.94	44.47
452.13	7.02
452.31	93.62
452.49	23.41
452.68	88.94
452.86	39.79
453.05	0.00
453.23	42.13
453.42	0.00
453.60	51.49
453.78	74.90
453.97	11.70
454.15	39.79
454.34	65.54
454.52	23.41
454.70	126.39
454.89	53.83
455.07	4.68
455.26	67.88
455.44	131.07
455.62	65.54
455.81	84.26
455.99	56.17
456.17	11.70
456.36	67.88
456.54	84.26
456.73	2.34
456.91	25.75
457.09	42.13
457.28	32.77
457.46	39.79
457.64	86.60
457.83	2.34
458.01	0.00
458.19	72.56
458.38	51.49
458.56	49.15
458.74	35.11
458.93	9.36
459.11	84.26
459.29	18.72
459.48	60.85
459.66	0.00
459.84	39.79
460.03	28.09
460.21	0.00
460.39	0.00
460.57	88.94
460.76	28.09
460.94	44.47
461.12	105.32
461.31	105.32
461.49	58.51
461.67	21.06
461.85	49.15
462.04	11.70
462.22	77.24
462.40	70.22
462.59	39.79
462.77	0.00
462.95	18.72
463.13	102.98
463.32	11.70
463.50	100.64
463.68	86.60
463.86	4.68
464.05	0.00
464.23	81.92
464.41	0.00
464.59	46.81
464.78	37.45
464.96	49.15
465.14	100.64
465.32	49.15
465.50	0.00
465.69	44.47
465.87	0.00
466.05	37.45
466.23	46.81
466.41	51.49
466.60	25.75
466.78	16.38
466.96	21.06
467.14	0.00
467.32	0.00
467.51	84.26
467.69	63.19
467.87	56.17
468.05	0.00
468.23	0.00
468.41	0.00
468.60	0.00
468.78	16.38
468.96	21.06
469.14	70.22
469.32	28.09
469.50	7.02
469.69	14.04
469.87	21.06
470.05	37.45
470.23	14.04
470.41	86.60
470.59	37.45
470.77	58.51
470.95	63.19
471.14	14.04
471.32	21.06
471.50	37.45
471.68	0.00
471.86	0.00
472.04	46.81
472.22	49.15
472.40	0.00
472.58	95.96
472.77	0.00
472.95	32.77
473.13	70.22
473.31	56.17
473.49	16.38
473.67	21.06
473.85	35.11
474.03	42.13
474.21	77.24
474.39	56.17
474.57	39.79
474.75	2.34
474.93	0.00
475.12	14.04
475.30	112.35
475.48	37.45
475.66	81.92
475.84	79.58
476.02	25.75
476.20	53.83
476.38	91.28
476.56	70.22
476.74	14.04
476.92	49.15
477.10	16.38
477.28	9.36
477.46	77.24
477.64	93.62
477.82	81.92
478.00	30.43
478.18	18.72
478.36	56.17
478.54	14.04
478.72	98.30
478.90	0.00
479.08	0.00
479.26	0.00
479.44	42.13
479.62	25.75
479.80	77.24
479.98	37.45
480.16	35.11
480.34	110.01
480.52	30.43
480.70	110.01
480.88	30.43
481.06	14.04
481.24	65.54
481.41	30.43
481.59	0.00
481.77	2.34
481.95	0.00
482.13	49.15
482.31	35.11
482.49	23.41
482.67	98.30
482.85	42.13
483.03	32.77
483.21	51.49
483.39	42.13
483.57	46.81
483.74	0.00
483.92	0.00
484.10	23.41
484.28	0.00
484.46	86.60
484.64	0.00
484.82	58.51
485.00	58.51
485.18	0.00
485.35	86.60
485.53	14.04
485.71	4.68
485.89	23.41
486.07	32.77
486.25	51.49
486.43	91.28
486.61	14.04
486.78	42.13
486.96	74.90
487.14	81.92
487.32	44.47
487.50	51.49
487.68	133.41
487.85	0.00
488.03	84.26
488.21	56.17
488.39	42.13
488.57	23.41
488.75	37.45
488.92	77.24
489.10	32.77
489.28	28.09
489.46	32.77
489.64	77.24
489.81	35.11
489.99	56.17
490.17	56.17
490.35	32.77
490.53	25.75
490.70	63.19
490.88	79.58
491.06	105.32
491.24	84.26
491.41	14.04
491.59	67.88
491.77	49.15
491.95	72.56
492.13	11.70
492.30	11.70
492.48	112.35
492.66	105.32
492.84	72.56
493.01	4.68
493.19	25.75
493.37	86.60
493.54	72.56
493.72	53.83
493.90	39.79
494.08	32.77
494.25	18.72
494.43	21.06
494.61	49.15
494.79	0.00
494.96	74.90
495.14	46.81
495.32	0.00
495.49	49.15
495.67	74.90
495.85	32.77
496.02	16.38
496.20	0.00
496.38	49.15
496.55	0.00
496.73	21.06
496.91	0.00
497.09	16.38
497.26	35.11
497.44	46.81
497.62	67.88
497.79	0.00
497.97	32.77
498.14	0.00
498.32	25.75
498.50	63.19
498.67	25.75
498.85	51.49
499.03	77.24
499.20	84.26
499.38	42.13
499.56	0.00
499.73	0.00
499.91	77.24
500.08	0.00
500.26	56.17
500.44	32.77
500.61	0.00
500.79	39.79
500.97	0.00
501.14	7.02
501.32	23.41
501.49	84.26
501.67	60.85
501.84	56.17
502.02	112.35
502.20	70.22
502.37	60.85
502.55	58.51
502.72	32.77
502.90	0.00
503.07	37.45
503.25	28.09
503.43	37.45
503.60	70.22
503.78	39.79
503.95	37.45
504.13	23.41
504.30	74.90
504.48	7.02
504.65	51.49
504.83	7.02
505.01	86.60
505.18	46.81
505.36	42.13
505.53	95.96
505.71	81.92
505.88	56.17
506.06	46.81
506.23	0.00
506.41	30.43
506.58	0.00
506.76	53.83
506.93	0.00
507.11	28.09
507.28	30.43
507.46	58.51
507.63	14.04
507.81	72.56
507.98	72.56
508.16	37.45
508.33	56.17
508.50	93.62
508.68	44.47
508.85	35.11
509.03	44.47
509.20	0.00
509.38	25.75
509.55	35.11
509.73	0.00
509.90	16.38
510.08	93.62
510.25	21.06
510.42	32.77
510.60	65.54
510.77	152.13
510.95	25.75
511.12	18.72
511.30	35.11
511.47	39.79
511.64	0.00
511.82	49.15
511.99	9.36
512.17	28.09
512.34	23.41
512.51	14.04
512.69	58.51
512.86	79.58
513.04	63.19
513.21	46.81
513.38	9.36
513.56	49.15
513.73	56.17
513.90	0.00
514.08	14.04
514.25	28.09
514.43	0.00
514.60	58.51
514.77	0.00
514.95	35.11
515.12	46.81
515.29	58.51
515.47	37.45
515.64	51.49
515.81	131.07
515.99	32.77
516.16	81.92
516.33	0.00
516.51	63.19
516.68	53.83
516.85	37.45
517.03	79.58
517.20	0.00
517.37	28.09
517.54	88.94
517.72	95.96
517.89	23.41
518.06	30.43
518.24	58.51
518.41	35.11
518.58	0.00
518.75	42.13
518.93	18.72
519.10	0.00
519.27	0.00
519.45	25.75
519.62	56.17
519.79	0.00
519.96	77.24
520.14	56.17
520.31	67.88
520.48	112.35
520.65	0.00
520.83	51.49
521.00	37.45
521.17	21.06
521.34	16.38
521.52	56.17
521.69	11.70
521.86	37.45
522.03	74.90
522.20	32.77
522.38	0.00
522.55	77.24
522.72	49.15
522.89	35.11
523.07	93.62
523.24	35.11
523.41	72.56
523.58	81.92
523.75	42.13
523.92	56.17
524.10	65.54
524.27	72.56
524.44	0.00
524.61	67.88
524.78	65.54
524.96	58.51
525.13	37.45
525.30	35.11
525.47	81.92
525.64	46.81
525.81	21.06
525.98	65.54
526.16	0.00
526.33	0.00
526.50	0.00
526.67	58.51
526.84	18.72
527.01	42.13
527.18	23.41
527.36	35.11
527.53	84.26
527.70	23.41
527.87	4.68
528.04	79.58
528.21	16.38
528.38	0.00
528.55	42.13
528.72	77.24
528.89	53.83
529.07	37.45
529.24	56.17
529.41	25.75
529.58	56.17
529.75	35.11
529.92	58.51
530.09	53.83
530.26	28.09
530.43	32.77
530.60	0.00
530.77	28.09
530.94	11.70
531.11	0.00
531.28	9.36
531.46	0.00
531.63	128.73
531.80	18.72
531.97	60.85
532.14	44.47
532.31	18.72
532.48	42.13
532.65	28.09
532.82	35.11
532.99	37.45
533.16	18.72
533.33	100.64
533.50	49.15
533.67	42.13
533.84	11.70
534.01	7.02
534.18	51.49
534.35	86.60
534.52	98.30
534.69	72.56
534.86	81.92
535.03	51.49
535.20	23.41
535.37	0.00
535.54	30.43
535.71	0.00
535.88	60.85
536.05	28.09
536.22	70.22
536.38	58.51
536.55	0.00
536.72	74.90
536.89	37.45
537.06	93.62
537.23	112.35
537.40	11.70
537.57	0.00
537.74	16.38
537.91	60.85
538.08	9.36
538.25	60.85
538.42	46.81
538.59	0.00
538.75	70.22
538.92	37.45
539.09	30.43
539.26	30.43
539.43	72.56
539.60	117.03
539.77	117.03
539.94	86.60
540.11	56.17
540.28	42.13
540.44	53.83
540.61	60.85
540.78	11.70
540.95	53.83
541.12	4.68
541.29	0.00
541.46	4.68
541.62	63.19
541.79	32.77
541.96	46.81
542.13	65.54
542.30	32.77
542.47	72.56
542.63	0.00
542.80	25.75
542.97	0.00
543.14	14.04
543.31	0.00
543.48	42.13
543.64	16.38
543.81	44.47
543.98	18.72
544.15	14.04
544.32	35.11
544.48	81.92
544.65	72.56
544.82	65.54
544.99	72.56
545.16	37.45
545.32	84.26
545.49	46.81
545.66	74.90
545.83	0.00
546.00	74.90
546.16	112.35
546.33	39.79
546.50	107.66
546.67	74.90
546.83	32.77
547.00	0.00
547.17	70.22
547.34	65.54
547.50	0.00
547.67	42.13
547.84	56.17
548.00	16.38
548.17	0.00
548.34	37.45
548.51	58.51
548.67	56.17
548.84	0.00
549.01	35.11
549.18	51.49
549.34	18.72
549.51	56.17
549.68	7.02
549.84	70.22
550.01	9.36
550.18	135.75
550.34	67.88
550.51	0.00
550.68	18.72
550.84	18.72
551.01	0.00
551.18	51.49
551.34	65.54
551.51	23.41
551.68	7.02
551.84	70.22
552.01	11.70
552.18	30.43
552.34	14.04
552.51	88.94
552.68	28.09
552.84	49.15
553.01	28.09
553.18	74.90
553.34	0.00
553.51	11.70
553.67	7.02
553.84	93.62
554.01	46.81
554.17	7.02
554.34	11.70
554.51	44.47
554.67	28.09
554.84	32.77
555.00	74.90
555.17	39.79
555.33	81.92
555.50	0.00
555.67	39.79
555.83	0.00
556.00	18.72
556.16	39.79
556.33	28.09
556.50	14.04
556.66	23.41
556.83	0.00
556.99	74.90
557.16	35.11
557.32	14.04
557.49	88.94
557.65	28.09
557.82	72.56
557.98	0.00
558.15	84.26
558.32	23.41
558.48	72.56
558.65	107.66
558.81	67.88
558.98	25.75
559.14	79.58
559.31	23.41
559.47	42.13
559.64	60.85
559.80	0.00
559.97	44.47
560.13	42.13
560.30	32.77
560.46	0.00
560.63	65.54
560.79	18.72
560.96	63.19
561.12	70.22
561.29	16.38
561.45	28.09
561.61	67.88
561.78	14.04
561.94	67.88
562.11	9.36
562.27	58.51
562.44	25.75
562.60	16.38
562.77	28.09
562.93	60.85
563.10	63.19
563.26	0.00
563.42	119.37
563.59	0.00
563.75	86.60
563.92	0.00
564.08	0.00
564.24	77.24
564.41	107.66
564.57	49.15
564.74	42.13
564.90	67.88
565.07	14.04
565.23	100.64
565.39	32.77
565.56	35.11
565.72	91.28
565.88	84.26
566.05	56.17
566.21	30.43
566.38	16.38
566.54	23.41
566.70	39.79
566.87	131.07
567.03	56.17
567.19	67.88
567.36	16.38
567.52	39.79
567.68	28.09
567.85	23.41
568.01	37.45
568.17	23.41
568.34	119.37
568.50	81.92
568.66	102.98
568.83	49.15
568.99	49.15
569.15	100.64
569.32	0.00
569.48	0.00
569.64	28.09
569.81	0.00
569.97	44.47
570.13	42.13
570.30	0.00
570.46	21.06
570.62	42.13
570.78	16.38
570.95	4.68
571.11	98.30
571.27	0.00
571.43	39.79
571.60	32.77
571.76	86.60
571.92	35.11
572.09	32.77
572.25	95.96
572.41	32.77
572.57	49.15
572.74	65.54
572.90	9.36
573.06	79.58
573.22	39.79
573.38	46.81
573.55	32.77
573.71	4.68
573.87	16.38
574.03	60.85
574.20	0.00
574.36	42.13
574.52	25.75
574.68	93.62
574.84	35.11
575.01	16.38
575.17	30.43
575.33	51.49
575.49	60.85
575.65	16.38
575.82	65.54
575.98	53.83
576.14	0.00
576.30	67.88
576.46	23.41
576.62	67.88
576.79	0.00
576.95	65.54
577.11	72.56
577.27	93.62
577.43	65.54
577.59	39.79
577.75	42.13
577.92	46.81
578.08	86.60
578.24	67.88
578.40	98.30
578.56	88.94
578.72	72.56
578.88	0.00
579.04	0.00
579.21	28.09
579.37	60.85
579.53	63.19
579.69	35.11
579.85	7.02
580.01	58.51
580.17	0.00
580.33	60.85
580.49	65.54
580.65	37.45
580.82	11.70
580.98	65.54
581.14	88.94
581.30	49.15
581.46	35.11
581.62	65.54
581.78	77.24
581.94	14.04
582.10	30.43
582.26	9.36
582.42	35.11
582.58	74.90
582.74	42.13
582.90	91.28
583.06	35.11
583.22	74.90
583.38	63.19
583.54	53.83
583.70	63.19
583.86	49.15
584.02	37.45
584.18	77.24
584.34	79.58
584.50	114.69
584.66	802.80
584.82	1881.79
584.98	2380.32
585.14	1982.43
585.30	1383.26
585.46	786.42
585.62	531.30
585.78	227.03
585.94	105.32
586.10	93.62
586.26	53.83
586.42	102.98
586.58	65.54
586.74	77.24
586.90	67.88
587.06	18.72
587.22	51.49
587.38	105.32
587.54	51.49
587.70	79.58
587.86	182.56
588.02	156.82
588.18	149.79
588.34	128.73
588.49	44.47
588.65	0.00
588.81	0.00
588.97	98.30
589.13	30.43
589.29	23.41
589.45	77.24
589.61	30.43
589.77	7.02
589.93	25.75
590.08	51.49
590.24	46.81
590.40	72.56
590.56	30.43
590.72	84.26
590.88	11.70
591.04	63.19
591.20	0.00
591.35	51.49
591.51	110.01
591.67	0.00
591.83	11.70
591.99	84.26
592.15	74.90
592.31	53.83
592.46	25.75
592.62	21.06
592.78	0.00
592.94	0.00
593.10	32.77
593.26	39.79
593.41	37.45
593.57	35.11
593.73	79.58
593.89	159.16
594.05	294.91
594.20	372.15
594.36	348.74
594.52	262.14
594.68	205.97
594.84	72.56
594.99	107.66
595.15	28.09
595.31	107.66
595.47	0.00
595.62	0.00
595.78	4.68
595.94	51.49
596.10	53.83
596.25	0.00
596.41	2.34
596.57	63.19
596.73	0.00
596.88	70.22
597.04	98.30
597.20	142.77
597.36	187.24
597.51	117.03
597.67	46.81
597.83	63.19
597.99	128.73
598.14	46.81
598.30	30.43
598.46	39.79
598.61	67.88
598.77	56.17
598.93	37.45
599.09	88.94
599.24	56.17
599.40	39.79
599.56	14.04
599.71	77.24
599.87	16.38
600.03	18.72
600.18	21.06
600.34	0.00
600.50	0.00
600.65	100.64
600.81	23.41
600.97	60.85
601.12	28.09
601.28	0.00
601.44	51.49
601.59	30.43
601.75	7.02
601.91	74.90
602.06	74.90
602.22	37.45
602.37	79.58
602.53	135.75
602.69	105.32
602.84	126.39
603.00	35.11
603.16	30.43
603.31	145.11
603.47	110.01
603.62	16.38
603.78	9.36
603.94	77.24
604.09	39.79
604.25	42.13
604.40	65.54
604.56	44.47
604.71	81.92
604.87	81.92
605.03	14.04
605.18	0.00
605.34	0.00
605.49	65.54
605.65	91.28
605.80	56.17
605.96	72.56
606.12	51.49
606.27	0.00
606.43	9.36
606.58	56.17
606.74	86.60
606.89	203.63
607.05	177.88
607.20	262.14
607.36	271.50
607.51	182.56
607.67	187.24
607.82	156.82
607.98	88.94
608.13	58.51
608.29	0.00
608.44	53.83
608.60	51.49
608.75	0.00
608.91	77.24
609.06	276.18
609.22	376.83
609.37	433.00
609.53	416.62
609.68	287.89
609.84	222.35
609.99	152.13
610.15	140.43
610.30	28.09
610.46	72.56
610.61	86.60
610.76	42.13
610.92	30.43
611.07	14.04
611.23	65.54
611.38	53.83
611.54	28.09
611.69	16.38
611.84	58.51
612.00	46.81
612.15	7.02
612.31	30.43
612.46	60.85
612.62	95.96
612.77	0.00
612.92	51.49
613.08	74.90
613.23	23.41
613.39	110.01
613.54	98.30
613.69	227.03
613.85	526.62
614.00	631.94
614.15	758.33
614.31	554.71
614.46	325.33
614.62	287.89
614.77	156.82
614.92	133.41
615.08	18.72
615.23	102.98
615.38	7.02
615.54	16.38
615.69	44.47
615.84	93.62
616.00	173.20
616.15	194.26
616.30	220.01
616.46	138.09
616.61	128.73
616.76	107.66
616.92	133.41
617.07	91.28
617.22	63.19
617.37	32.77
617.53	32.77
617.68	35.11
617.83	21.06
617.99	98.30
618.14	98.30
618.29	0.00
618.45	0.00
618.60	30.43
618.75	28.09
618.90	0.00
619.06	0.00
619.21	0.00
619.36	42.13
619.51	65.54
619.67	28.09
619.82	21.06
619.97	0.00
620.12	53.83
620.28	14.04
620.43	4.68
620.58	77.24
620.73	18.72
620.89	0.00
621.04	18.72
621.19	110.01
621.34	166.18
621.49	114.69
621.65	110.01
621.80	119.37
621.95	28.09
622.10	44.47
622.25	58.51
622.41	81.92
622.56	100.64
622.71	0.00
622.86	0.00
623.01	39.79
623.16	39.79
623.32	44.47
623.47	72.56
623.62	102.98
623.77	77.24
623.92	67.88
624.07	49.15
624.23	21.06
624.38	46.81
624.53	93.62
624.68	0.00
624.83	30.43
624.98	49.15
625.13	77.24
625.29	44.47
625.44	63.19
625.59	7.02
625.74	79.58
625.89	72.56
626.04	51.49
626.19	262.14
626.34	397.89
626.49	285.55
626.65	344.06
626.80	257.46
626.95	81.92
627.10	53.83
627.25	11.70
627.40	37.45
627.55	0.00
627.70	77.24
627.85	0.00
628.00	0.00
628.15	42.13
628.30	0.00
628.45	4.68
628.60	0.00
628.76	7.02
628.91	32.77
629.06	32.77
629.21	37.45
629.36	18.72
629.51	0.00
629.66	37.45
629.81	35.11
629.96	86.60
630.11	102.98
630.26	128.73
630.41	95.96
630.56	95.96
630.71	42.13
630.86	142.77
631.01	25.75
631.16	49.15
631.31	0.00
631.46	28.09
631.61	21.06
631.76	0.00
631.91	0.00
632.06	53.83
632.21	79.58
632.36	0.00
632.51	60.85
632.66	51.49
632.81	74.90
632.96	191.92
633.10	250.44
633.25	304.27
633.40	264.48
633.55	147.45
633.70	149.79
633.85	60.85
634.00	42.13
634.15	35.11
634.30	70.22
634.45	23.41
634.60	74.90
634.75	37.45
634.90	72.56
635.05	14.04
635.19	58.51
635.34	56.17
635.49	23.41
635.64	93.62
635.79	35.11
635.94	112.35
636.09	56.17
636.24	0.00
636.39	74.90
636.53	84.26
636.68	42.13
636.83	4.68
636.98	72.56
637.13	49.15
637.28	72.56
637.43	35.11
637.57	37.45
637.72	149.79
637.87	351.08
638.02	472.79
638.17	521.94
638.32	348.74
638.46	271.50
638.61	196.60
638.76	112.35
638.91	95.96
639.06	79.58
639.20	58.51
639.35	39.79
639.50	0.00
639.65	278.52
639.80	514.92
639.94	746.63
640.09	795.78
640.24	557.05
640.39	332.36
640.54	318.31
640.68	220.01
640.83	93.62
640.98	28.09
641.13	0.00
641.27	65.54
641.42	77.24
641.57	84.26
641.72	37.45
641.86	23.41
642.01	79.58
642.16	95.96
642.31	39.79
642.45	0.00
642.60	37.45
642.75	77.24
642.90	93.62
643.04	93.62
643.19	35.11
643.34	21.06
643.48	14.04
643.63	42.13
643.78	53.83
643.93	37.45
644.07	14.04
644.22	11.70
644.37	11.70
644.51	37.45
644.66	35.11
644.81	72.56
644.95	16.38
645.10	86.60
645.25	0.00
645.39	72.56
645.54	11.70
645.69	88.94
645.83	28.09
645.98	23.41
646.13	23.41
646.27	30.43
646.42	56.17
646.57	46.81
646.71	11.70
646.86	46.81
647.00	18.72
647.15	21.06
647.30	14.04
647.44	0.00
647.59	88.94
647.74	60.85
647.88	37.45
648.03	65.54
648.17	30.43
648.32	77.24
648.47	18.72
648.61	0.00
648.76	7.02
648.90	51.49
649.05	23.41
649.20	53.83
649.34	2.34
649.49	77.24
649.63	84.26
649.78	86.60
649.92	81.92
650.07	84.26
650.21	159.16
650.36	395.55
650.51	395.55
650.65	297.25
650.80	273.84
650.94	156.82
651.09	177.88
651.23	58.51
651.38	95.96
651.52	32.77
651.67	25.75
651.81	65.54
651.96	25.75
652.10	35.11
652.25	53.83
652.39	2.34
652.54	0.00
652.68	0.00
652.83	79.58
652.97	224.69
653.12	212.99
653.26	152.13
653.41	140.43
653.55	93.62
653.70	74.90
653.84	70.22
653.99	42.13
654.13	65.54
654.27	4.68
654.42	0.00
654.56	18.72
654.71	114.69
654.85	93.62
655.00	30.43
655.14	21.06
655.29	25.75
655.43	51.49
655.57	30.43
655.72	53.83
655.86	56.17
656.01	11.70
656.15	114.69
656.30	51.49
656.44	65.54
656.58	39.79
656.73	0.00
656.87	81.92
657.01	51.49
657.16	35.11
657.30	79.58
657.45	0.00
657.59	11.70
657.73	107.66
657.88	28.09
658.02	72.56
658.16	39.79
658.31	93.62
658.45	74.90
658.60	0.00
658.74	39.79
658.88	65.54
659.03	9.36
659.17	35.11
659.31	7.02
659.46	194.26
659.60	194.26
659.74	250.44
659.89	215.33
660.03	124.05
660.17	126.39
660.32	102.98
660.46	39.79
660.60	60.85
660.74	0.00
660.89	35.11
661.03	81.92
661.17	60.85
661.32	72.56
661.46	0.00
661.60	124.05
661.74	46.81
661.89	14.04
662.03	28.09
662.17	0.00
662.31	60.85
662.46	112.35
662.60	0.00
662.74	0.00
662.88	0.00
663.03	65.54
663.17	72.56
663.31	0.00
663.45	0.00
663.60	51.49
663.74	86.60
663.88	60.85
664.02	58.51
664.17	53.83
664.31	0.00
664.45	117.03
664.59	93.62
664.73	102.98
664.88	32.77
665.02	81.92
665.16	23.41
665.30	37.45
665.44	23.41
665.59	53.83
665.73	60.85
665.87	0.00
666.01	74.90
666.15	16.38
666.29	18.72
666.44	98.30
666.58	67.88
666.72	128.73
666.86	32.77
667.00	28.09
667.14	16.38
667.28	110.01
667.43	201.29
667.57	355.76
667.71	330.02
667.85	325.33
667.99	245.76
668.13	126.39
668.27	112.35
668.41	44.47
668.56	0.00
668.70	18.72
668.84	23.41
668.98	28.09
669.12	56.17
669.26	51.49
669.40	63.19
669.54	28.09
669.68	21.06
669.82	30.43
669.96	74.90
670.10	39.79
670.25	79.58
670.39	32.77
670.53	0.00
670.67	0.00
670.81	91.28
670.95	65.54
671.09	39.79
671.23	28.09
671.37	70.22
671.51	234.05
671.65	156.82
671.79	245.76
671.93	149.79
672.07	126.39
672.21	56.17
672.35	44.47
672.49	16.38
672.63	86.60
672.77	53.83
672.91	25.75
673.05	11.70
673.19	100.64
673.33	63.19
673.47	16.38
673.61	102.98
673.75	60.85
673.89	25.75
674.03	32.77
674.17	16.38
674.31	4.68
674.45	51.49
674.59	58.51
674.73	21.06
674.87	30.43
675.01	60.85
675.15	28.09
675.29	56.17
675.43	16.38
675.56	58.51
675.70	28.09
675.84	0.00
675.98	37.45
676.12	37.45
676.26	32.77
676.40	65.54
676.54	21.06
676.68	28.09
676.82	56.17
676.96	0.00
677.10	0.00
677.23	14.04
677.37	42.13
677.51	46.81
677.65	42.13
677.79	0.00
677.93	70.22
678.07	51.49
678.21	0.00
678.34	65.54
678.48	51.49
678.62	51.49
678.76	84.26
678.90	37.45
679.04	46.81
679.18	4.68
679.31	0.00
679.45	117.03
679.59	67.88
679.73	23.41
679.87	0.00
680.00	42.13
680.14	46.81
680.28	93.62
680.42	79.58
680.56	35.11
680.70	9.36
680.83	100.64
680.97	28.09
681.11	37.45
681.25	63.19
681.39	25.75
681.52	46.81
681.66	39.79
681.80	98.30
681.94	35.11
682.07	46.81
682.21	30.43
682.35	11.70
682.49	49.15
682.62	0.00
682.76	46.81
682.90	0.00
683.04	14.04
683.17	9.36
683.31	18.72
683.45	0.00
683.59	42.13
683.72	46.81
683.86	88.94
684.00	70.22
684.13	30.43
684.27	65.54
684.41	0.00
684.55	46.81
684.68	44.47
684.82	21.06
684.96	0.00
685.09	95.96
685.23	7.02
685.37	0.00
685.50	86.60
685.64	14.04
685.78	0.00
685.91	56.17
686.05	65.54
686.19	49.15
686.32	88.94
686.46	0.00
686.60	7.02
686.73	110.01
686.87	44.47
687.01	25.75
687.14	0.00
687.28	0.00
687.42	35.11
687.55	0.00
687.69	14.04
687.82	23.41
687.96	46.81
688.10	77.24
688.23	0.00
688.37	0.00
688.50	0.00
688.64	0.00
688.78	49.15
688.91	63.19
689.05	0.00
689.18	67.88
689.32	32.77
689.46	37.45
689.59	25.75
689.73	39.79
689.86	0.00
690.00	23.41
690.13	37.45
690.27	63.19
690.41	4.68
690.54	0.00
690.68	0.00
690.81	53.83
690.95	21.06
691.08	0.00
691.22	0.00
691.35	100.64
691.49	93.62
691.62	49.15
691.76	32.77
691.89	46.81
692.03	0.00
692.16	86.60
692.30	86.60
692.43	9.36
692.57	145.11
692.70	117.03
692.84	229.37
692.97	156.82
693.11	138.09
693.24	81.92
693.38	30.43
693.51	53.83
693.65	51.49
693.78	49.15
693.92	25.75
694.05	51.49
694.19	28.09
694.32	21.06
694.45	9.36
694.59	152.13
694.72	0.00
694.86	32.77
694.99	35.11
695.13	58.51
695.26	44.47
695.39	23.41
695.53	0.00
695.66	14.04
695.80	51.49
695.93	28.09
696.07	39.79
696.20	2.34
696.33	23.41
696.47	23.41
696.60	11.70
696.73	32.77
696.87	4.68
697.00	9.36
697.14	95.96
697.27	72.56
697.40	53.83
697.54	28.09
697.67	0.00
697.80	0.00
697.94	42.13
698.07	37.45
698.21	32.77
698.34	16.38
698.47	93.62
698.61	0.00
698.74	11.70
698.87	0.00
699.01	84.26
699.14	0.00
699.27	77.24
699.40	0.00
699.54	72.56
699.67	51.49
699.80	117.03
699.94	46.81
700.07	0.00
700.20	32.77
700.34	0.00
700.47	21.06
700.60	77.24
700.73	0.00
700.87	39.79
701.00	60.85
701.13	25.75
701.26	79.58
701.40	30.43
701.53	18.72
701.66	0.00
701.79	56.17
701.93	9.36
702.06	46.81
702.19	46.81
702.32	51.49
702.46	25.75
702.59	53.83
702.72	63.19
702.85	138.09
702.99	229.37
703.12	217.67
703.25	301.93
703.38	266.82
703.51	255.12
703.65	194.26
703.78	102.98
703.91	77.24
704.04	105.32
704.17	39.79
704.31	126.39
704.44	0.00
704.57	56.17
704.70	0.00
704.83	4.68
704.96	0.00
705.10	88.94
705.23	18.72
>>>>>End Processed Spectral Data<<<<<
