SpectraSuite Data File
++++++++++++++++++++++++++++++++++++
Date: Fri Oct 04 12:13:25 GMT-05:00 2013
User: price-jones
Dark Spectrum Present: No
Reference Spectrum Present: No
Number of Sampled Component Spectra: 1
Spectrometers: USB2+H05261
Integration Time (usec): 10000 (USB2+H05261)
Spectra Averaged: 1 (USB2+H05261)
Boxcar Smoothing: 0 (USB2+H05261)
Correct for Electrical Dark: No (USB2+H05261)
Strobe/Lamp Enabled: No (USB2+H05261)
Correct for Detector Non-linearity: No (USB2+H05261)
Correct for Stray Light: No (USB2+H05261)
Number of Pixels in Processed Spectrum: 2048
>>>>>Begin Processed Spectral Data<<<<<
365.73	0.00
365.92	0.00
366.12	0.00
366.32	0.00
366.52	0.00
366.72	0.00
366.91	0.00
367.11	0.00
367.31	0.00
367.51	0.00
367.70	0.00
367.90	0.00
368.10	0.00
368.30	0.00
368.49	0.00
368.69	0.00
368.89	0.00
369.09	0.00
369.28	0.00
369.48	0.00
369.68	0.00
369.87	0.00
370.07	0.00
370.27	0.00
370.47	0.00
370.66	0.00
370.86	0.00
371.06	0.00
371.25	0.00
371.45	0.00
371.65	0.00
371.84	0.00
372.04	44.47
372.24	11.70
372.44	2.34
372.63	23.41
372.83	14.04
373.03	0.00
373.22	63.19
373.42	49.15
373.62	65.54
373.81	42.13
374.01	23.41
374.21	0.00
374.40	7.02
374.60	51.49
374.79	58.51
374.99	0.00
375.19	53.83
375.38	58.51
375.58	16.38
375.78	42.13
375.97	11.70
376.17	88.94
376.37	0.00
376.56	21.06
376.76	63.19
376.95	2.34
377.15	14.04
377.35	79.58
377.54	14.04
377.74	28.09
377.93	14.04
378.13	14.04
378.33	39.79
378.52	18.72
378.72	0.00
378.91	65.54
379.11	0.00
379.31	0.00
379.50	42.13
379.70	16.38
379.89	0.00
380.09	7.02
380.28	0.00
380.48	2.34
380.68	25.75
380.87	2.34
381.07	0.00
381.26	16.38
381.46	0.00
381.65	0.00
381.85	0.00
382.04	0.00
382.24	81.92
382.43	0.00
382.63	86.60
382.83	7.02
383.02	14.04
383.22	56.17
383.41	23.41
383.61	30.43
383.80	60.85
384.00	44.47
384.19	9.36
384.39	7.02
384.58	14.04
384.78	0.00
384.97	42.13
385.17	16.38
385.36	30.43
385.56	0.00
385.75	0.00
385.95	0.00
386.14	2.34
386.34	25.75
386.53	37.45
386.72	4.68
386.92	91.28
387.11	0.00
387.31	23.41
387.50	4.68
387.70	0.00
387.89	0.00
388.09	0.00
388.28	0.00
388.48	18.72
388.67	30.43
388.86	0.00
389.06	0.00
389.25	28.09
389.45	0.00
389.64	0.00
389.84	0.00
390.03	0.00
390.22	102.98
390.42	0.00
390.61	44.47
390.81	16.38
391.00	0.00
391.19	4.68
391.39	25.75
391.58	37.45
391.78	0.00
391.97	4.68
392.16	42.13
392.36	14.04
392.55	9.36
392.75	35.11
392.94	14.04
393.13	60.85
393.33	11.70
393.52	51.49
393.71	93.62
393.91	0.00
394.10	65.54
394.29	44.47
394.49	93.62
394.68	21.06
394.88	60.85
395.07	14.04
395.26	74.90
395.46	23.41
395.65	0.00
395.84	25.75
396.04	0.00
396.23	0.00
396.42	105.32
396.62	0.00
396.81	21.06
397.00	30.43
397.19	25.75
397.39	0.00
397.58	0.00
397.77	0.00
397.97	46.81
398.16	11.70
398.35	21.06
398.55	28.09
398.74	0.00
398.93	0.00
399.12	0.00
399.32	63.19
399.51	9.36
399.70	16.38
399.90	60.85
400.09	74.90
400.28	51.49
400.47	0.00
400.67	30.43
400.86	81.92
401.05	16.38
401.24	18.72
401.44	16.38
401.63	0.00
401.82	14.04
402.01	67.88
402.21	100.64
402.40	51.49
402.59	0.00
402.78	4.68
402.97	0.00
403.17	35.11
403.36	44.47
403.55	42.13
403.74	23.41
403.93	25.75
404.13	117.03
404.32	23.41
404.51	0.00
404.70	0.00
404.89	67.88
405.09	74.90
405.28	0.00
405.47	44.47
405.66	0.00
405.85	4.68
406.05	72.56
406.24	46.81
406.43	11.70
406.62	42.13
406.81	58.51
407.00	9.36
407.20	7.02
407.39	56.17
407.58	56.17
407.77	0.00
407.96	93.62
408.15	0.00
408.34	2.34
408.54	58.51
408.73	51.49
408.92	46.81
409.11	0.00
409.30	46.81
409.49	4.68
409.68	4.68
409.87	18.72
410.07	53.83
410.26	37.45
410.45	58.51
410.64	91.28
410.83	9.36
411.02	9.36
411.21	0.00
411.40	28.09
411.59	7.02
411.78	44.47
411.98	9.36
412.17	51.49
412.36	32.77
412.55	14.04
412.74	11.70
412.93	0.00
413.12	16.38
413.31	107.66
413.50	0.00
413.69	14.04
413.88	7.02
414.07	0.00
414.26	0.00
414.45	0.00
414.64	0.00
414.83	32.77
415.02	11.70
415.22	58.51
415.41	0.00
415.60	16.38
415.79	63.19
415.98	79.58
416.17	46.81
416.36	7.02
416.55	0.00
416.74	18.72
416.93	28.09
417.12	35.11
417.31	93.62
417.50	81.92
417.69	9.36
417.88	42.13
418.07	11.70
418.26	0.00
418.45	28.09
418.64	51.49
418.83	0.00
419.02	0.00
419.21	25.75
419.39	65.54
419.58	11.70
419.77	25.75
419.96	46.81
420.15	46.81
420.34	110.01
420.53	63.19
420.72	0.00
420.91	42.13
421.10	0.00
421.29	0.00
421.48	46.81
421.67	77.24
421.86	88.94
422.05	105.32
422.24	32.77
422.43	2.34
422.61	18.72
422.80	81.92
422.99	58.51
423.18	0.00
423.37	0.00
423.56	0.00
423.75	0.00
423.94	74.90
424.13	49.15
424.32	95.96
424.50	23.41
424.69	46.81
424.88	46.81
425.07	35.11
425.26	35.11
425.45	35.11
425.64	23.41
425.83	91.28
426.01	112.35
426.20	0.00
426.39	28.09
426.58	28.09
426.77	0.00
426.96	42.13
427.15	60.85
427.33	49.15
427.52	0.00
427.71	105.32
427.90	16.38
428.09	72.56
428.28	21.06
428.46	25.75
428.65	11.70
428.84	0.00
429.03	58.51
429.22	0.00
429.40	58.51
429.59	0.00
429.78	56.17
429.97	46.81
430.16	0.00
430.34	65.54
430.53	102.98
430.72	91.28
430.91	53.83
431.10	67.88
431.28	0.00
431.47	30.43
431.66	32.77
431.85	46.81
432.03	79.58
432.22	70.22
432.41	0.00
432.60	67.88
432.79	0.00
432.97	0.00
433.16	0.00
433.35	46.81
433.54	21.06
433.72	100.64
433.91	110.01
434.10	0.00
434.28	58.51
434.47	2.34
434.66	56.17
434.85	0.00
435.03	4.68
435.22	2.34
435.41	35.11
435.59	77.24
435.78	0.00
435.97	58.51
436.16	4.68
436.34	23.41
436.53	88.94
436.72	0.00
436.90	16.38
437.09	49.15
437.28	70.22
437.46	42.13
437.65	53.83
437.84	4.68
438.02	39.79
438.21	23.41
438.40	0.00
438.58	32.77
438.77	0.00
438.96	63.19
439.14	9.36
439.33	0.00
439.52	0.00
439.70	0.00
439.89	7.02
440.08	25.75
440.26	0.00
440.45	51.49
440.63	110.01
440.82	14.04
441.01	2.34
441.19	4.68
441.38	4.68
441.57	0.00
441.75	84.26
441.94	63.19
442.12	0.00
442.31	42.13
442.50	58.51
442.68	79.58
442.87	39.79
443.05	49.15
443.24	21.06
443.43	39.79
443.61	28.09
443.80	21.06
443.98	67.88
444.17	0.00
444.35	51.49
444.54	44.47
444.73	0.00
444.91	23.41
445.10	0.00
445.28	4.68
445.47	86.60
445.65	0.00
445.84	9.36
446.02	44.47
446.21	23.41
446.39	30.43
446.58	0.00
446.77	56.17
446.95	35.11
447.14	0.00
447.32	63.19
447.51	25.75
447.69	51.49
447.88	2.34
448.06	51.49
448.25	53.83
448.43	16.38
448.62	0.00
448.80	9.36
448.99	0.00
449.17	51.49
449.36	0.00
449.54	0.00
449.73	77.24
449.91	37.45
450.10	16.38
450.28	35.11
450.46	7.02
450.65	0.00
450.83	46.81
451.02	28.09
451.20	9.36
451.39	0.00
451.57	72.56
451.76	23.41
451.94	11.70
452.13	51.49
452.31	79.58
452.49	30.43
452.68	18.72
452.86	30.43
453.05	14.04
453.23	21.06
453.42	30.43
453.60	11.70
453.78	0.00
453.97	0.00
454.15	14.04
454.34	39.79
454.52	4.68
454.70	58.51
454.89	51.49
455.07	77.24
455.26	0.00
455.44	16.38
455.62	88.94
455.81	11.70
455.99	30.43
456.17	14.04
456.36	49.15
456.54	21.06
456.73	0.00
456.91	18.72
457.09	58.51
457.28	0.00
457.46	46.81
457.64	11.70
457.83	9.36
458.01	35.11
458.19	117.03
458.38	0.00
458.56	0.00
458.74	93.62
458.93	4.68
459.11	72.56
459.29	88.94
459.48	18.72
459.66	4.68
459.84	11.70
460.03	74.90
460.21	51.49
460.39	25.75
460.57	16.38
460.76	60.85
460.94	72.56
461.12	81.92
461.31	44.47
461.49	0.00
461.67	56.17
461.85	28.09
462.04	9.36
462.22	100.64
462.40	65.54
462.59	2.34
462.77	72.56
462.95	60.85
463.13	0.00
463.32	51.49
463.50	51.49
463.68	0.00
463.86	60.85
464.05	21.06
464.23	42.13
464.41	74.90
464.59	74.90
464.78	95.96
464.96	30.43
465.14	81.92
465.32	21.06
465.50	18.72
465.69	0.00
465.87	35.11
466.05	28.09
466.23	28.09
466.41	0.00
466.60	32.77
466.78	56.17
466.96	7.02
467.14	56.17
467.32	88.94
467.51	16.38
467.69	51.49
467.87	74.90
468.05	79.58
468.23	37.45
468.41	16.38
468.60	37.45
468.78	56.17
468.96	58.51
469.14	23.41
469.32	0.00
469.50	65.54
469.69	37.45
469.87	32.77
470.05	0.00
470.23	0.00
470.41	9.36
470.59	86.60
470.77	7.02
470.95	42.13
471.14	42.13
471.32	0.00
471.50	42.13
471.68	0.00
471.86	23.41
472.04	18.72
472.22	84.26
472.40	0.00
472.58	14.04
472.77	81.92
472.95	32.77
473.13	49.15
473.31	51.49
473.49	70.22
473.67	0.00
473.85	0.00
474.03	79.58
474.21	28.09
474.39	79.58
474.57	7.02
474.75	11.70
474.93	39.79
475.12	53.83
475.30	67.88
475.48	7.02
475.66	16.38
475.84	30.43
476.02	95.96
476.20	32.77
476.38	25.75
476.56	16.38
476.74	0.00
476.92	21.06
477.10	58.51
477.28	42.13
477.46	14.04
477.64	56.17
477.82	25.75
478.00	18.72
478.18	51.49
478.36	67.88
478.54	72.56
478.72	65.54
478.90	11.70
479.08	110.01
479.26	7.02
479.44	9.36
479.62	25.75
479.80	44.47
479.98	0.00
480.16	23.41
480.34	32.77
480.52	67.88
480.70	88.94
480.88	16.38
481.06	28.09
481.24	74.90
481.41	100.64
481.59	60.85
481.77	0.00
481.95	18.72
482.13	91.28
482.31	14.04
482.49	37.45
482.67	0.00
482.85	58.51
483.03	53.83
483.21	28.09
483.39	9.36
483.57	91.28
483.74	21.06
483.92	35.11
484.10	23.41
484.28	21.06
484.46	21.06
484.64	74.90
484.82	42.13
485.00	51.49
485.18	0.00
485.35	37.45
485.53	0.00
485.71	0.00
485.89	18.72
486.07	37.45
486.25	7.02
486.43	42.13
486.61	65.54
486.78	21.06
486.96	25.75
487.14	84.26
487.32	70.22
487.50	0.00
487.68	56.17
487.85	51.49
488.03	46.81
488.21	56.17
488.39	72.56
488.57	25.75
488.75	0.00
488.92	60.85
489.10	32.77
489.28	112.35
489.46	56.17
489.64	0.00
489.81	9.36
489.99	93.62
490.17	53.83
490.35	0.00
490.53	0.00
490.70	0.00
490.88	9.36
491.06	14.04
491.24	32.77
491.41	0.00
491.59	11.70
491.77	18.72
491.95	51.49
492.13	0.00
492.30	65.54
492.48	14.04
492.66	77.24
492.84	42.13
493.01	16.38
493.19	53.83
493.37	0.00
493.54	67.88
493.72	84.26
493.90	84.26
494.08	53.83
494.25	28.09
494.43	65.54
494.61	95.96
494.79	16.38
494.96	4.68
495.14	35.11
495.32	98.30
495.49	2.34
495.67	0.00
495.85	42.13
496.02	86.60
496.20	35.11
496.38	9.36
496.55	25.75
496.73	0.00
496.91	79.58
497.09	14.04
497.26	56.17
497.44	53.83
497.62	18.72
497.79	77.24
497.97	51.49
498.14	7.02
498.32	9.36
498.50	58.51
498.67	100.64
498.85	0.00
499.03	11.70
499.20	84.26
499.38	21.06
499.56	67.88
499.73	138.09
499.91	88.94
500.08	32.77
500.26	32.77
500.44	28.09
500.61	107.66
500.79	42.13
500.97	51.49
501.14	37.45
501.32	0.00
501.49	53.83
501.67	53.83
501.84	42.13
502.02	56.17
502.20	86.60
502.37	0.00
502.55	35.11
502.72	88.94
502.90	21.06
503.07	51.49
503.25	32.77
503.43	18.72
503.60	65.54
503.78	23.41
503.95	30.43
504.13	37.45
504.30	74.90
504.48	60.85
504.65	72.56
504.83	42.13
505.01	0.00
505.18	63.19
505.36	86.60
505.53	63.19
505.71	0.00
505.88	7.02
506.06	0.00
506.23	32.77
506.41	9.36
506.58	4.68
506.76	32.77
506.93	56.17
507.11	18.72
507.28	2.34
507.46	0.00
507.63	51.49
507.81	51.49
507.98	49.15
508.16	95.96
508.33	37.45
508.50	7.02
508.68	70.22
508.85	84.26
509.03	16.38
509.20	37.45
509.38	60.85
509.55	124.05
509.73	21.06
509.90	23.41
510.08	102.98
510.25	105.32
510.42	81.92
510.60	7.02
510.77	0.00
510.95	110.01
511.12	49.15
511.30	49.15
511.47	56.17
511.64	0.00
511.82	42.13
511.99	93.62
512.17	21.06
512.34	72.56
512.51	86.60
512.69	0.00
512.86	0.00
513.04	32.77
513.21	25.75
513.38	65.54
513.56	81.92
513.73	74.90
513.90	72.56
514.08	84.26
514.25	35.11
514.43	0.00
514.60	39.79
514.77	56.17
514.95	11.70
515.12	32.77
515.29	63.19
515.47	58.51
515.64	86.60
515.81	18.72
515.99	7.02
516.16	25.75
516.33	60.85
516.51	30.43
516.68	60.85
516.85	35.11
517.03	74.90
517.20	30.43
517.37	28.09
517.54	126.39
517.72	37.45
517.89	0.00
518.06	0.00
518.24	72.56
518.41	16.38
518.58	91.28
518.75	67.88
518.93	16.38
519.10	42.13
519.27	25.75
519.45	0.00
519.62	0.00
519.79	53.83
519.96	70.22
520.14	49.15
520.31	100.64
520.48	100.64
520.65	16.38
520.83	72.56
521.00	0.00
521.17	30.43
521.34	46.81
521.52	46.81
521.69	67.88
521.86	65.54
522.03	65.54
522.20	37.45
522.38	7.02
522.55	60.85
522.72	39.79
522.89	28.09
523.07	95.96
523.24	70.22
523.41	46.81
523.58	23.41
523.75	58.51
523.92	2.34
524.10	58.51
524.27	46.81
524.44	42.13
524.61	0.00
524.78	18.72
524.96	72.56
525.13	0.00
525.30	72.56
525.47	35.11
525.64	9.36
525.81	67.88
525.98	81.92
526.16	81.92
526.33	110.01
526.50	67.88
526.67	28.09
526.84	56.17
527.01	51.49
527.18	60.85
527.36	0.00
527.53	0.00
527.70	58.51
527.87	7.02
528.04	46.81
528.21	63.19
528.38	0.00
528.55	74.90
528.72	149.79
528.89	58.51
529.07	0.00
529.24	63.19
529.41	4.68
529.58	35.11
529.75	28.09
529.92	28.09
530.09	46.81
530.26	14.04
530.43	84.26
530.60	67.88
530.77	7.02
530.94	35.11
531.11	70.22
531.28	79.58
531.46	35.11
531.63	21.06
531.80	105.32
531.97	77.24
532.14	46.81
532.31	18.72
532.48	25.75
532.65	23.41
532.82	16.38
532.99	44.47
533.16	60.85
533.33	0.00
533.50	107.66
533.67	0.00
533.84	74.90
534.01	25.75
534.18	21.06
534.35	63.19
534.52	37.45
534.69	32.77
534.86	126.39
535.03	58.51
535.20	39.79
535.37	7.02
535.54	39.79
535.71	0.00
535.88	147.45
536.05	0.00
536.22	39.79
536.38	14.04
536.55	9.36
536.72	51.49
536.89	11.70
537.06	67.88
537.23	93.62
537.40	56.17
537.57	77.24
537.74	58.51
537.91	42.13
538.08	0.00
538.25	0.00
538.42	51.49
538.59	67.88
538.75	16.38
538.92	65.54
539.09	23.41
539.26	30.43
539.43	21.06
539.60	46.81
539.77	23.41
539.94	0.00
540.11	0.00
540.28	84.26
540.44	93.62
540.61	67.88
540.78	42.13
540.95	58.51
541.12	35.11
541.29	63.19
541.46	2.34
541.62	102.98
541.79	14.04
541.96	49.15
542.13	9.36
542.30	4.68
542.47	53.83
542.63	28.09
542.80	74.90
542.97	60.85
543.14	58.51
543.31	0.00
543.48	65.54
543.64	49.15
543.81	58.51
543.98	60.85
544.15	4.68
544.32	72.56
544.48	60.85
544.65	91.28
544.82	46.81
544.99	112.35
545.16	0.00
545.32	49.15
545.49	81.92
545.66	39.79
545.83	0.00
546.00	28.09
546.16	39.79
546.33	14.04
546.50	0.00
546.67	35.11
546.83	32.77
547.00	79.58
547.17	65.54
547.34	65.54
547.50	11.70
547.67	0.00
547.84	0.00
548.00	46.81
548.17	119.37
548.34	77.24
548.51	18.72
548.67	2.34
548.84	0.00
549.01	88.94
549.18	49.15
549.34	16.38
549.51	0.00
549.68	0.00
549.84	7.02
550.01	53.83
550.18	0.00
550.34	0.00
550.51	28.09
550.68	112.35
550.84	25.75
551.01	2.34
551.18	0.00
551.34	65.54
551.51	81.92
551.68	44.47
551.84	11.70
552.01	67.88
552.18	0.00
552.34	18.72
552.51	51.49
552.68	42.13
552.84	30.43
553.01	39.79
553.18	65.54
553.34	14.04
553.51	72.56
553.67	2.34
553.84	98.30
554.01	58.51
554.17	77.24
554.34	58.51
554.51	0.00
554.67	42.13
554.84	0.00
555.00	2.34
555.17	0.00
555.33	7.02
555.50	79.58
555.67	65.54
555.83	0.00
556.00	86.60
556.16	79.58
556.33	88.94
556.50	135.75
556.66	133.41
556.83	28.09
556.99	67.88
557.16	30.43
557.32	18.72
557.49	58.51
557.65	23.41
557.82	100.64
557.98	0.00
558.15	0.00
558.32	93.62
558.48	25.75
558.65	86.60
558.81	51.49
558.98	100.64
559.14	32.77
559.31	35.11
559.47	0.00
559.64	0.00
559.80	25.75
559.97	18.72
560.13	51.49
560.30	70.22
560.46	77.24
560.63	53.83
560.79	9.36
560.96	0.00
561.12	30.43
561.29	2.34
561.45	53.83
561.61	35.11
561.78	44.47
561.94	56.17
562.11	63.19
562.27	2.34
562.44	42.13
562.60	0.00
562.77	14.04
562.93	65.54
563.10	56.17
563.26	65.54
563.42	0.00
563.59	39.79
563.75	0.00
563.92	25.75
564.08	51.49
564.24	86.60
564.41	39.79
564.57	32.77
564.74	67.88
564.90	28.09
565.07	93.62
565.23	16.38
565.39	35.11
565.56	0.00
565.72	0.00
565.88	112.35
566.05	30.43
566.21	25.75
566.38	30.43
566.54	44.47
566.70	7.02
566.87	18.72
567.03	0.00
567.19	72.56
567.36	44.47
567.52	0.00
567.68	0.00
567.85	112.35
568.01	23.41
568.17	63.19
568.34	86.60
568.50	46.81
568.66	2.34
568.83	18.72
568.99	70.22
569.15	42.13
569.32	79.58
569.48	0.00
569.64	39.79
569.81	0.00
569.97	18.72
570.13	30.43
570.30	121.71
570.46	77.24
570.62	37.45
570.78	70.22
570.95	84.26
571.11	0.00
571.27	88.94
571.43	60.85
571.60	21.06
571.76	58.51
571.92	37.45
572.09	0.00
572.25	2.34
572.41	32.77
572.57	65.54
572.74	16.38
572.90	0.00
573.06	77.24
573.22	70.22
573.38	58.51
573.55	98.30
573.71	16.38
573.87	32.77
574.03	49.15
574.20	51.49
574.36	2.34
574.52	25.75
574.68	67.88
574.84	18.72
575.01	28.09
575.17	35.11
575.33	72.56
575.49	72.56
575.65	0.00
575.82	37.45
575.98	117.03
576.14	53.83
576.30	65.54
576.46	79.58
576.62	105.32
576.79	16.38
576.95	140.43
577.11	74.90
577.27	35.11
577.43	7.02
577.59	18.72
577.75	42.13
577.92	49.15
578.08	93.62
578.24	0.00
578.40	81.92
578.56	32.77
578.72	0.00
578.88	98.30
579.04	39.79
579.21	35.11
579.37	53.83
579.53	0.00
579.69	23.41
579.85	67.88
580.01	60.85
580.17	72.56
580.33	88.94
580.49	49.15
580.65	67.88
580.82	98.30
580.98	0.00
581.14	0.00
581.30	11.70
581.46	32.77
581.62	81.92
581.78	7.02
581.94	0.00
582.10	35.11
582.26	60.85
582.42	35.11
582.58	88.94
582.74	0.00
582.90	72.56
583.06	63.19
583.22	16.38
583.38	105.32
583.54	58.51
583.70	70.22
583.86	7.02
584.02	23.41
584.18	11.70
584.34	0.00
584.50	63.19
584.66	67.88
584.82	46.81
584.98	32.77
585.14	32.77
585.30	7.02
585.46	30.43
585.62	0.00
585.78	4.68
585.94	91.28
586.10	63.19
586.26	42.13
586.42	0.00
586.58	21.06
586.74	11.70
586.90	11.70
587.06	0.00
587.22	28.09
587.38	49.15
587.54	37.45
587.70	60.85
587.86	58.51
588.02	30.43
588.18	0.00
588.34	0.00
588.49	51.49
588.65	0.00
588.81	53.83
588.97	0.00
589.13	14.04
589.29	4.68
589.45	56.17
589.61	58.51
589.77	7.02
589.93	16.38
590.08	35.11
590.24	21.06
590.40	7.02
590.56	23.41
590.72	102.98
590.88	46.81
591.04	67.88
591.20	0.00
591.35	72.56
591.51	51.49
591.67	0.00
591.83	0.00
591.99	81.92
592.15	28.09
592.31	63.19
592.46	51.49
592.62	0.00
592.78	49.15
592.94	39.79
593.10	4.68
593.26	21.06
593.41	79.58
593.57	60.85
593.73	88.94
593.89	7.02
594.05	25.75
594.20	84.26
594.36	32.77
594.52	60.85
594.68	37.45
594.84	0.00
594.99	44.47
595.15	18.72
595.31	7.02
595.47	58.51
595.62	0.00
595.78	60.85
595.94	0.00
596.10	35.11
596.25	44.47
596.41	51.49
596.57	42.13
596.73	32.77
596.88	44.47
597.04	23.41
597.20	86.60
597.36	14.04
597.51	39.79
597.67	42.13
597.83	70.22
597.99	30.43
598.14	0.00
598.30	0.00
598.46	37.45
598.61	72.56
598.77	32.77
598.93	63.19
599.09	53.83
599.24	53.83
599.40	72.56
599.56	9.36
599.71	49.15
599.87	79.58
600.03	9.36
600.18	30.43
600.34	21.06
600.50	25.75
600.65	25.75
600.81	0.00
600.97	30.43
601.12	21.06
601.28	21.06
601.44	0.00
601.59	49.15
601.75	46.81
601.91	16.38
602.06	0.00
602.22	63.19
602.37	70.22
602.53	0.00
602.69	30.43
602.84	63.19
603.00	0.00
603.16	23.41
603.31	81.92
603.47	35.11
603.62	51.49
603.78	98.30
603.94	0.00
604.09	16.38
604.25	49.15
604.40	51.49
604.56	0.00
604.71	39.79
604.87	53.83
605.03	58.51
605.18	74.90
605.34	16.38
605.49	46.81
605.65	70.22
605.80	44.47
605.96	9.36
606.12	2.34
606.27	107.66
606.43	105.32
606.58	0.00
606.74	70.22
606.89	25.75
607.05	42.13
607.20	7.02
607.36	58.51
607.51	0.00
607.67	0.00
607.82	0.00
607.98	14.04
608.13	32.77
608.29	0.00
608.44	28.09
608.60	0.00
608.75	53.83
608.91	77.24
609.06	60.85
609.22	154.48
609.37	30.43
609.53	51.49
609.68	35.11
609.84	11.70
609.99	0.00
610.15	0.00
610.30	95.96
610.46	135.75
610.61	79.58
610.76	28.09
610.92	30.43
611.07	11.70
611.23	11.70
611.38	30.43
611.54	53.83
611.69	21.06
611.84	21.06
612.00	0.00
612.15	74.90
612.31	65.54
612.46	100.64
612.62	60.85
612.77	21.06
612.92	0.00
613.08	56.17
613.23	49.15
613.39	74.90
613.54	42.13
613.69	58.51
613.85	0.00
614.00	56.17
614.15	46.81
614.31	11.70
614.46	74.90
614.62	21.06
614.77	30.43
614.92	37.45
615.08	42.13
615.23	67.88
615.38	70.22
615.54	37.45
615.69	0.00
615.84	42.13
616.00	28.09
616.15	63.19
616.30	35.11
616.46	67.88
616.61	63.19
616.76	18.72
616.92	72.56
617.07	49.15
617.22	25.75
617.37	65.54
617.53	39.79
617.68	110.01
617.83	42.13
617.99	21.06
618.14	105.32
618.29	95.96
618.45	67.88
618.60	58.51
618.75	53.83
618.90	18.72
619.06	102.98
619.21	21.06
619.36	28.09
619.51	14.04
619.67	0.00
619.82	37.45
619.97	63.19
620.12	44.47
620.28	91.28
620.43	46.81
620.58	91.28
620.73	0.00
620.89	51.49
621.04	23.41
621.19	32.77
621.34	37.45
621.49	84.26
621.65	42.13
621.80	30.43
621.95	0.00
622.10	18.72
622.25	0.00
622.41	0.00
622.56	30.43
622.71	74.90
622.86	46.81
623.01	23.41
623.16	60.85
623.32	46.81
623.47	74.90
623.62	105.32
623.77	16.38
623.92	9.36
624.07	18.72
624.23	30.43
624.38	11.70
624.53	0.00
624.68	44.47
624.83	0.00
624.98	18.72
625.13	70.22
625.29	37.45
625.44	58.51
625.59	0.00
625.74	18.72
625.89	0.00
626.04	7.02
626.19	46.81
626.34	91.28
626.49	14.04
626.65	28.09
626.80	0.00
626.95	35.11
627.10	56.17
627.25	0.00
627.40	42.13
627.55	46.81
627.70	0.00
627.85	0.00
628.00	9.36
628.15	14.04
628.30	23.41
628.45	0.00
628.60	65.54
628.76	53.83
628.91	0.00
629.06	32.77
629.21	21.06
629.36	35.11
629.51	42.13
629.66	46.81
629.81	2.34
629.96	0.00
630.11	63.19
630.26	88.94
630.41	65.54
630.56	46.81
630.71	37.45
630.86	18.72
631.01	0.00
631.16	56.17
631.31	0.00
631.46	46.81
631.61	9.36
631.76	0.00
631.91	0.00
632.06	98.30
632.21	23.41
632.36	0.00
632.51	53.83
632.66	70.22
632.81	35.11
632.96	42.13
633.10	0.00
633.25	51.49
633.40	60.85
633.55	53.83
633.70	44.47
633.85	56.17
634.00	51.49
634.15	46.81
634.30	44.47
634.45	102.98
634.60	35.11
634.75	32.77
634.90	84.26
635.05	46.81
635.19	0.00
635.34	4.68
635.49	53.83
635.64	46.81
635.79	0.00
635.94	0.00
636.09	0.00
636.24	11.70
636.39	21.06
636.53	0.00
636.68	95.96
636.83	117.03
636.98	0.00
637.13	74.90
637.28	0.00
637.43	46.81
637.57	49.15
637.72	30.43
637.87	32.77
638.02	35.11
638.17	25.75
638.32	9.36
638.46	23.41
638.61	7.02
638.76	0.00
638.91	21.06
639.06	72.56
639.20	0.00
639.35	67.88
639.50	32.77
639.65	102.98
639.80	60.85
639.94	102.98
640.09	74.90
640.24	0.00
640.39	37.45
640.54	91.28
640.68	39.79
640.83	0.00
640.98	25.75
641.13	23.41
641.27	102.98
641.42	23.41
641.57	0.00
641.72	14.04
641.86	0.00
642.01	0.00
642.16	70.22
642.31	0.00
642.45	0.00
642.60	0.00
642.75	58.51
642.90	72.56
643.04	21.06
643.19	49.15
643.34	46.81
643.48	81.92
643.63	53.83
643.78	18.72
643.93	53.83
644.07	0.00
644.22	18.72
644.37	46.81
644.51	88.94
644.66	0.00
644.81	49.15
644.95	74.90
645.10	63.19
645.25	0.00
645.39	21.06
645.54	0.00
645.69	0.00
645.83	4.68
645.98	0.00
646.13	39.79
646.27	51.49
646.42	53.83
646.57	42.13
646.71	102.98
646.86	51.49
647.00	21.06
647.15	7.02
647.30	74.90
647.44	42.13
647.59	14.04
647.74	44.47
647.88	56.17
648.03	0.00
648.17	0.00
648.32	56.17
648.47	44.47
648.61	0.00
648.76	30.43
648.90	0.00
649.05	0.00
649.20	37.45
649.34	0.00
649.49	11.70
649.63	42.13
649.78	35.11
649.92	91.28
650.07	0.00
650.21	16.38
650.36	0.00
650.51	49.15
650.65	0.00
650.80	23.41
650.94	0.00
651.09	121.71
651.23	105.32
651.38	63.19
651.52	0.00
651.67	39.79
651.81	23.41
651.96	4.68
652.10	0.00
652.25	56.17
652.39	0.00
652.54	49.15
652.68	44.47
652.83	46.81
652.97	53.83
653.12	0.00
653.26	100.64
653.41	14.04
653.55	23.41
653.70	42.13
653.84	93.62
653.99	0.00
654.13	77.24
654.27	21.06
654.42	37.45
654.56	30.43
654.71	58.51
654.85	67.88
655.00	46.81
655.14	18.72
655.29	0.00
655.43	65.54
655.57	0.00
655.72	70.22
655.86	44.47
656.01	18.72
656.15	63.19
656.30	65.54
656.44	0.00
656.58	32.77
656.73	46.81
656.87	35.11
657.01	37.45
657.16	95.96
657.30	2.34
657.45	51.49
657.59	44.47
657.73	11.70
657.88	30.43
658.02	0.00
658.16	49.15
658.31	0.00
658.45	0.00
658.60	0.00
658.74	67.88
658.88	53.83
659.03	18.72
659.17	2.34
659.31	49.15
659.46	0.00
659.60	84.26
659.74	107.66
659.89	51.49
660.03	4.68
660.17	56.17
660.32	72.56
660.46	0.00
660.60	63.19
660.74	98.30
660.89	138.09
661.03	86.60
661.17	81.92
661.32	63.19
661.46	25.75
661.60	42.13
661.74	0.00
661.89	65.54
662.03	84.26
662.17	14.04
662.31	14.04
662.46	16.38
662.60	46.81
662.74	63.19
662.88	0.00
663.03	0.00
663.17	23.41
663.31	9.36
663.45	0.00
663.60	4.68
663.74	39.79
663.88	28.09
664.02	11.70
664.17	58.51
664.31	107.66
664.45	16.38
664.59	88.94
664.73	35.11
664.88	105.32
665.02	30.43
665.16	37.45
665.30	35.11
665.44	32.77
665.59	39.79
665.73	28.09
665.87	4.68
666.01	0.00
666.15	25.75
666.29	42.13
666.44	0.00
666.58	14.04
666.72	44.47
666.86	21.06
667.00	30.43
667.14	74.90
667.28	53.83
667.43	21.06
667.57	2.34
667.71	67.88
667.85	0.00
667.99	74.90
668.13	49.15
668.27	16.38
668.41	4.68
668.56	0.00
668.70	2.34
668.84	0.00
668.98	0.00
669.12	32.77
669.26	0.00
669.40	35.11
669.54	49.15
669.68	30.43
669.82	30.43
669.96	18.72
670.10	39.79
670.25	37.45
670.39	53.83
670.53	0.00
670.67	42.13
670.81	93.62
670.95	42.13
671.09	7.02
671.23	7.02
671.37	0.00
671.51	102.98
671.65	42.13
671.79	86.60
671.93	0.00
672.07	14.04
672.21	77.24
672.35	77.24
672.49	74.90
672.63	70.22
672.77	60.85
672.91	0.00
673.05	39.79
673.19	16.38
673.33	46.81
673.47	28.09
673.61	39.79
673.75	7.02
673.89	18.72
674.03	67.88
674.17	0.00
674.31	23.41
674.45	11.70
674.59	4.68
674.73	0.00
674.87	58.51
675.01	39.79
675.15	53.83
675.29	9.36
675.43	28.09
675.56	60.85
675.70	56.17
675.84	60.85
675.98	32.77
676.12	88.94
676.26	14.04
676.40	77.24
676.54	0.00
676.68	32.77
676.82	93.62
676.96	28.09
677.10	81.92
677.23	93.62
677.37	16.38
677.51	39.79
677.65	60.85
677.79	11.70
677.93	46.81
678.07	0.00
678.21	58.51
678.34	4.68
678.48	91.28
678.62	35.11
678.76	60.85
678.90	7.02
679.04	72.56
679.18	53.83
679.31	84.26
679.45	21.06
679.59	72.56
679.73	0.00
679.87	25.75
680.00	0.00
680.14	0.00
680.28	0.00
680.42	67.88
680.56	37.45
680.70	44.47
680.83	14.04
680.97	0.00
681.11	30.43
681.25	84.26
681.39	30.43
681.52	46.81
681.66	4.68
681.80	14.04
681.94	14.04
682.07	77.24
682.21	86.60
682.35	53.83
682.49	0.00
682.62	58.51
682.76	39.79
682.90	0.00
683.04	14.04
683.17	42.13
683.31	0.00
683.45	86.60
683.59	67.88
683.72	58.51
683.86	2.34
684.00	81.92
684.13	25.75
684.27	53.83
684.41	9.36
684.55	0.00
684.68	46.81
684.82	0.00
684.96	0.00
685.09	58.51
685.23	0.00
685.37	25.75
685.50	0.00
685.64	25.75
685.78	56.17
685.91	2.34
686.05	4.68
686.19	23.41
686.32	60.85
686.46	4.68
686.60	0.00
686.73	37.45
686.87	0.00
687.01	18.72
687.14	49.15
687.28	0.00
687.42	39.79
687.55	16.38
687.69	18.72
687.82	4.68
687.96	7.02
688.10	30.43
688.23	58.51
688.37	0.00
688.50	14.04
688.64	86.60
688.78	42.13
688.91	0.00
689.05	30.43
689.18	44.47
689.32	0.00
689.46	51.49
689.59	46.81
689.73	56.17
689.86	7.02
690.00	46.81
690.13	35.11
690.27	58.51
690.41	18.72
690.54	79.58
690.68	9.36
690.81	0.00
690.95	0.00
691.08	0.00
691.22	0.00
691.35	107.66
691.49	32.77
691.62	28.09
691.76	37.45
691.89	0.00
692.03	93.62
692.16	72.56
692.30	30.43
692.43	110.01
692.57	0.00
692.70	0.00
692.84	112.35
692.97	23.41
693.11	0.00
693.24	131.07
693.38	0.00
693.51	0.00
693.65	46.81
693.78	18.72
693.92	0.00
694.05	84.26
694.19	0.00
694.32	0.00
694.45	77.24
694.59	4.68
694.72	23.41
694.86	21.06
694.99	14.04
695.13	0.00
695.26	65.54
695.39	11.70
695.53	67.88
695.66	7.02
695.80	0.00
695.93	0.00
696.07	102.98
696.20	37.45
696.33	18.72
696.47	86.60
696.60	93.62
696.73	49.15
696.87	56.17
697.00	0.00
697.14	4.68
697.27	39.79
697.40	14.04
697.54	98.30
697.67	0.00
697.80	25.75
697.94	0.00
698.07	2.34
698.21	81.92
698.34	0.00
698.47	0.00
698.61	42.13
698.74	0.00
698.87	16.38
699.01	0.00
699.14	58.51
699.27	2.34
699.40	39.79
699.54	0.00
699.67	42.13
699.80	49.15
699.94	0.00
700.07	0.00
700.20	65.54
700.34	32.77
700.47	39.79
700.60	23.41
700.73	86.60
700.87	91.28
701.00	0.00
701.13	14.04
701.26	0.00
701.40	37.45
701.53	16.38
701.66	77.24
701.79	121.71
701.93	25.75
702.06	37.45
702.19	28.09
702.32	7.02
702.46	14.04
702.59	74.90
702.72	23.41
702.85	44.47
702.99	0.00
703.12	37.45
703.25	14.04
703.38	39.79
703.51	14.04
703.65	100.64
703.78	0.00
703.91	53.83
704.04	51.49
704.17	0.00
704.31	0.00
704.44	4.68
704.57	0.00
704.70	23.41
704.83	32.77
704.96	0.00
705.10	9.36
705.23	63.19
>>>>>End Processed Spectral Data<<<<<
