SpectraSuite Data File
++++++++++++++++++++++++++++++++++++
Date: Fri Oct 04 12:13:35 GMT-05:00 2013
User: price-jones
Dark Spectrum Present: No
Reference Spectrum Present: No
Number of Sampled Component Spectra: 1
Spectrometers: USB2+H05261
Integration Time (usec): 10000 (USB2+H05261)
Spectra Averaged: 1 (USB2+H05261)
Boxcar Smoothing: 0 (USB2+H05261)
Correct for Electrical Dark: No (USB2+H05261)
Strobe/Lamp Enabled: No (USB2+H05261)
Correct for Detector Non-linearity: No (USB2+H05261)
Correct for Stray Light: No (USB2+H05261)
Number of Pixels in Processed Spectrum: 2048
>>>>>Begin Processed Spectral Data<<<<<
365.73	4.68
365.92	4.68
366.12	4.68
366.32	0.00
366.52	0.00
366.72	0.00
366.91	0.00
367.11	0.00
367.31	0.00
367.51	0.00
367.70	0.00
367.90	0.00
368.10	0.00
368.30	0.00
368.49	0.00
368.69	0.00
368.89	0.00
369.09	0.00
369.28	0.00
369.48	0.00
369.68	0.00
369.87	0.00
370.07	0.00
370.27	0.00
370.47	0.00
370.66	0.00
370.86	0.00
371.06	0.00
371.25	0.00
371.45	0.00
371.65	0.00
371.84	18.72
372.04	0.00
372.24	0.00
372.44	0.00
372.63	0.00
372.83	23.41
373.03	4.68
373.22	67.88
373.42	0.00
373.62	39.79
373.81	0.00
374.01	42.13
374.21	11.70
374.40	0.00
374.60	58.51
374.79	67.88
374.99	46.81
375.19	7.02
375.38	44.47
375.58	46.81
375.78	100.64
375.97	84.26
376.17	14.04
376.37	0.00
376.56	0.00
376.76	14.04
376.95	0.00
377.15	28.09
377.35	14.04
377.54	0.00
377.74	32.77
377.93	25.75
378.13	63.19
378.33	35.11
378.52	0.00
378.72	11.70
378.91	95.96
379.11	0.00
379.31	0.00
379.50	7.02
379.70	0.00
379.89	23.41
380.09	0.00
380.28	42.13
380.48	0.00
380.68	39.79
380.87	23.41
381.07	9.36
381.26	65.54
381.46	32.77
381.65	67.88
381.85	30.43
382.04	60.85
382.24	46.81
382.43	0.00
382.63	0.00
382.83	53.83
383.02	0.00
383.22	25.75
383.41	18.72
383.61	0.00
383.80	35.11
384.00	0.00
384.19	14.04
384.39	9.36
384.58	0.00
384.78	49.15
384.97	0.00
385.17	21.06
385.36	49.15
385.56	0.00
385.75	60.85
385.95	11.70
386.14	86.60
386.34	0.00
386.53	0.00
386.72	58.51
386.92	0.00
387.11	0.00
387.31	0.00
387.50	0.00
387.70	49.15
387.89	32.77
388.09	46.81
388.28	74.90
388.48	18.72
388.67	9.36
388.86	74.90
389.06	39.79
389.25	70.22
389.45	4.68
389.64	114.69
389.84	14.04
390.03	11.70
390.22	23.41
390.42	0.00
390.61	0.00
390.81	0.00
391.00	23.41
391.19	35.11
391.39	21.06
391.58	37.45
391.78	86.60
391.97	51.49
392.16	67.88
392.36	0.00
392.55	56.17
392.75	0.00
392.94	53.83
393.13	23.41
393.33	0.00
393.52	30.43
393.71	0.00
393.91	0.00
394.10	39.79
394.29	0.00
394.49	18.72
394.68	46.81
394.88	16.38
395.07	2.34
395.26	39.79
395.46	65.54
395.65	119.37
395.84	0.00
396.04	0.00
396.23	35.11
396.42	39.79
396.62	0.00
396.81	42.13
397.00	23.41
397.19	16.38
397.39	21.06
397.58	2.34
397.77	4.68
397.97	42.13
398.16	84.26
398.35	0.00
398.55	86.60
398.74	32.77
398.93	28.09
399.12	44.47
399.32	51.49
399.51	42.13
399.70	28.09
399.90	42.13
400.09	46.81
400.28	30.43
400.47	67.88
400.67	65.54
400.86	46.81
401.05	39.79
401.24	70.22
401.44	51.49
401.63	0.00
401.82	0.00
402.01	67.88
402.21	39.79
402.40	0.00
402.59	39.79
402.78	46.81
402.97	0.00
403.17	35.11
403.36	23.41
403.55	56.17
403.74	0.00
403.93	81.92
404.13	0.00
404.32	70.22
404.51	0.00
404.70	124.05
404.89	0.00
405.09	51.49
405.28	2.34
405.47	0.00
405.66	79.58
405.85	30.43
406.05	25.75
406.24	67.88
406.43	16.38
406.62	0.00
406.81	39.79
407.00	4.68
407.20	0.00
407.39	4.68
407.58	74.90
407.77	11.70
407.96	37.45
408.15	91.28
408.34	37.45
408.54	42.13
408.73	49.15
408.92	25.75
409.11	35.11
409.30	98.30
409.49	32.77
409.68	0.00
409.87	32.77
410.07	51.49
410.26	30.43
410.45	70.22
410.64	7.02
410.83	46.81
411.02	84.26
411.21	11.70
411.40	56.17
411.59	0.00
411.78	0.00
411.98	16.38
412.17	110.01
412.36	9.36
412.55	4.68
412.74	25.75
412.93	35.11
413.12	60.85
413.31	58.51
413.50	110.01
413.69	53.83
413.88	95.96
414.07	53.83
414.26	44.47
414.45	60.85
414.64	44.47
414.83	44.47
415.02	53.83
415.22	67.88
415.41	9.36
415.60	9.36
415.79	93.62
415.98	58.51
416.17	30.43
416.36	32.77
416.55	25.75
416.74	37.45
416.93	39.79
417.12	37.45
417.31	74.90
417.50	63.19
417.69	42.13
417.88	51.49
418.07	23.41
418.26	86.60
418.45	72.56
418.64	49.15
418.83	51.49
419.02	32.77
419.21	0.00
419.39	51.49
419.58	16.38
419.77	11.70
419.96	93.62
420.15	0.00
420.34	93.62
420.53	60.85
420.72	79.58
420.91	37.45
421.10	11.70
421.29	140.43
421.48	98.30
421.67	32.77
421.86	0.00
422.05	49.15
422.24	7.02
422.43	18.72
422.61	0.00
422.80	65.54
422.99	67.88
423.18	23.41
423.37	18.72
423.56	95.96
423.75	30.43
423.94	110.01
424.13	93.62
424.32	49.15
424.50	95.96
424.69	53.83
424.88	67.88
425.07	39.79
425.26	0.00
425.45	23.41
425.64	0.00
425.83	0.00
426.01	0.00
426.20	49.15
426.39	58.51
426.58	46.81
426.77	37.45
426.96	42.13
427.15	44.47
427.33	0.00
427.52	0.00
427.71	42.13
427.90	60.85
428.09	32.77
428.28	56.17
428.46	7.02
428.65	46.81
428.84	81.92
429.03	51.49
429.22	37.45
429.40	70.22
429.59	67.88
429.78	23.41
429.97	39.79
430.16	23.41
430.34	70.22
430.53	49.15
430.72	72.56
430.91	21.06
431.10	58.51
431.28	79.58
431.47	23.41
431.66	30.43
431.85	95.96
432.03	95.96
432.22	39.79
432.41	65.54
432.60	32.77
432.79	7.02
432.97	0.00
433.16	0.00
433.35	72.56
433.54	44.47
433.72	126.39
433.91	65.54
434.10	46.81
434.28	0.00
434.47	37.45
434.66	0.00
434.85	63.19
435.03	95.96
435.22	51.49
435.41	74.90
435.59	135.75
435.78	128.73
435.97	4.68
436.16	65.54
436.34	81.92
436.53	58.51
436.72	28.09
436.90	100.64
437.09	0.00
437.28	18.72
437.46	53.83
437.65	23.41
437.84	79.58
438.02	53.83
438.21	30.43
438.40	95.96
438.58	46.81
438.77	18.72
438.96	81.92
439.14	58.51
439.33	72.56
439.52	32.77
439.70	32.77
439.89	0.00
440.08	53.83
440.26	42.13
440.45	35.11
440.63	21.06
440.82	14.04
441.01	72.56
441.19	84.26
441.38	72.56
441.57	0.00
441.75	121.71
441.94	126.39
442.12	32.77
442.31	74.90
442.50	30.43
442.68	23.41
442.87	65.54
443.05	42.13
443.24	7.02
443.43	65.54
443.61	67.88
443.80	0.00
443.98	70.22
444.17	39.79
444.35	0.00
444.54	46.81
444.73	126.39
444.91	18.72
445.10	65.54
445.28	42.13
445.47	65.54
445.65	7.02
445.84	56.17
446.02	18.72
446.21	107.66
446.39	95.96
446.58	77.24
446.77	0.00
446.95	42.13
447.14	46.81
447.32	58.51
447.51	44.47
447.69	65.54
447.88	65.54
448.06	39.79
448.25	32.77
448.43	81.92
448.62	60.85
448.80	51.49
448.99	39.79
449.17	168.52
449.36	72.56
449.54	65.54
449.73	65.54
449.91	28.09
450.10	88.94
450.28	131.07
450.46	84.26
450.65	88.94
450.83	49.15
451.02	37.45
451.20	70.22
451.39	16.38
451.57	37.45
451.76	0.00
451.94	67.88
452.13	100.64
452.31	112.35
452.49	0.00
452.68	56.17
452.86	21.06
453.05	53.83
453.23	37.45
453.42	95.96
453.60	84.26
453.78	11.70
453.97	84.26
454.15	74.90
454.34	37.45
454.52	23.41
454.70	86.60
454.89	0.00
455.07	39.79
455.26	0.00
455.44	23.41
455.62	28.09
455.81	51.49
455.99	35.11
456.17	35.11
456.36	37.45
456.54	67.88
456.73	60.85
456.91	60.85
457.09	65.54
457.28	51.49
457.46	100.64
457.64	30.43
457.83	49.15
458.01	39.79
458.19	16.38
458.38	121.71
458.56	18.72
458.74	14.04
458.93	39.79
459.11	70.22
459.29	28.09
459.48	107.66
459.66	53.83
459.84	0.00
460.03	37.45
460.21	67.88
460.39	51.49
460.57	53.83
460.76	2.34
460.94	32.77
461.12	35.11
461.31	23.41
461.49	112.35
461.67	84.26
461.85	72.56
462.04	105.32
462.22	112.35
462.40	53.83
462.59	112.35
462.77	95.96
462.95	56.17
463.13	67.88
463.32	88.94
463.50	16.38
463.68	142.77
463.86	77.24
464.05	58.51
464.23	28.09
464.41	81.92
464.59	53.83
464.78	35.11
464.96	91.28
465.14	100.64
465.32	30.43
465.50	65.54
465.69	63.19
465.87	53.83
466.05	63.19
466.23	58.51
466.41	0.00
466.60	65.54
466.78	51.49
466.96	67.88
467.14	65.54
467.32	32.77
467.51	67.88
467.69	112.35
467.87	25.75
468.05	39.79
468.23	28.09
468.41	58.51
468.60	58.51
468.78	124.05
468.96	86.60
469.14	70.22
469.32	32.77
469.50	60.85
469.69	14.04
469.87	9.36
470.05	110.01
470.23	81.92
470.41	51.49
470.59	56.17
470.77	46.81
470.95	14.04
471.14	37.45
471.32	60.85
471.50	39.79
471.68	46.81
471.86	81.92
472.04	21.06
472.22	70.22
472.40	105.32
472.58	49.15
472.77	9.36
472.95	53.83
473.13	51.49
473.31	0.00
473.49	49.15
473.67	16.38
473.85	0.00
474.03	0.00
474.21	102.98
474.39	65.54
474.57	63.19
474.75	9.36
474.93	14.04
475.12	53.83
475.30	63.19
475.48	2.34
475.66	16.38
475.84	56.17
476.02	46.81
476.20	79.58
476.38	88.94
476.56	84.26
476.74	105.32
476.92	70.22
477.10	37.45
477.28	42.13
477.46	145.11
477.64	84.26
477.82	35.11
478.00	46.81
478.18	4.68
478.36	67.88
478.54	30.43
478.72	11.70
478.90	79.58
479.08	44.47
479.26	88.94
479.44	30.43
479.62	14.04
479.80	95.96
479.98	42.13
480.16	4.68
480.34	95.96
480.52	51.49
480.70	53.83
480.88	110.01
481.06	152.13
481.24	49.15
481.41	44.47
481.59	0.00
481.77	91.28
481.95	100.64
482.13	28.09
482.31	74.90
482.49	37.45
482.67	32.77
482.85	0.00
483.03	65.54
483.21	0.00
483.39	72.56
483.57	25.75
483.74	65.54
483.92	187.24
484.10	11.70
484.28	51.49
484.46	32.77
484.64	74.90
484.82	63.19
485.00	77.24
485.18	53.83
485.35	65.54
485.53	46.81
485.71	25.75
485.89	67.88
486.07	93.62
486.25	63.19
486.43	72.56
486.61	86.60
486.78	93.62
486.96	0.00
487.14	56.17
487.32	81.92
487.50	77.24
487.68	79.58
487.85	58.51
488.03	135.75
488.21	112.35
488.39	46.81
488.57	65.54
488.75	44.47
488.92	37.45
489.10	74.90
489.28	44.47
489.46	91.28
489.64	51.49
489.81	65.54
489.99	84.26
490.17	56.17
490.35	86.60
490.53	49.15
490.70	63.19
490.88	86.60
491.06	60.85
491.24	42.13
491.41	0.00
491.59	44.47
491.77	51.49
491.95	70.22
492.13	14.04
492.30	124.05
492.48	98.30
492.66	0.00
492.84	53.83
493.01	105.32
493.19	170.86
493.37	112.35
493.54	77.24
493.72	63.19
493.90	72.56
494.08	72.56
494.25	77.24
494.43	60.85
494.61	86.60
494.79	84.26
494.96	65.54
495.14	65.54
495.32	84.26
495.49	58.51
495.67	49.15
495.85	72.56
496.02	51.49
496.20	142.77
496.38	0.00
496.55	121.71
496.73	88.94
496.91	77.24
497.09	117.03
497.26	44.47
497.44	156.82
497.62	88.94
497.79	145.11
497.97	53.83
498.14	63.19
498.32	46.81
498.50	177.88
498.67	119.37
498.85	25.75
499.03	88.94
499.20	77.24
499.38	65.54
499.56	93.62
499.73	30.43
499.91	11.70
500.08	133.41
500.26	81.92
500.44	70.22
500.61	95.96
500.79	100.64
500.97	16.38
501.14	51.49
501.32	39.79
501.49	65.54
501.67	100.64
501.84	49.15
502.02	51.49
502.20	72.56
502.37	98.30
502.55	65.54
502.72	117.03
502.90	49.15
503.07	32.77
503.25	70.22
503.43	44.47
503.60	39.79
503.78	117.03
503.95	95.96
504.13	86.60
504.30	46.81
504.48	149.79
504.65	18.72
504.83	133.41
505.01	44.47
505.18	44.47
505.36	53.83
505.53	53.83
505.71	60.85
505.88	28.09
506.06	70.22
506.23	107.66
506.41	126.39
506.58	168.52
506.76	86.60
506.93	135.75
507.11	91.28
507.28	30.43
507.46	81.92
507.63	58.51
507.81	35.11
507.98	65.54
508.16	74.90
508.33	37.45
508.50	86.60
508.68	117.03
508.85	114.69
509.03	56.17
509.20	63.19
509.38	23.41
509.55	65.54
509.73	107.66
509.90	79.58
510.08	25.75
510.25	102.98
510.42	210.65
510.60	128.73
510.77	51.49
510.95	37.45
511.12	119.37
511.30	117.03
511.47	25.75
511.64	93.62
511.82	63.19
511.99	102.98
512.17	138.09
512.34	18.72
512.51	42.13
512.69	63.19
512.86	39.79
513.04	135.75
513.21	140.43
513.38	77.24
513.56	173.20
513.73	112.35
513.90	60.85
514.08	0.00
514.25	30.43
514.43	135.75
514.60	4.68
514.77	11.70
514.95	95.96
515.12	95.96
515.29	95.96
515.47	131.07
515.64	81.92
515.81	88.94
515.99	56.17
516.16	53.83
516.33	117.03
516.51	117.03
516.68	124.05
516.85	72.56
517.03	32.77
517.20	98.30
517.37	135.75
517.54	49.15
517.72	100.64
517.89	86.60
518.06	112.35
518.24	98.30
518.41	154.48
518.58	163.84
518.75	74.90
518.93	44.47
519.10	77.24
519.27	63.19
519.45	95.96
519.62	98.30
519.79	84.26
519.96	42.13
520.14	51.49
520.31	147.45
520.48	65.54
520.65	77.24
520.83	149.79
521.00	133.41
521.17	121.71
521.34	65.54
521.52	95.96
521.69	95.96
521.86	86.60
522.03	65.54
522.20	126.39
522.38	112.35
522.55	121.71
522.72	39.79
522.89	84.26
523.07	42.13
523.24	114.69
523.41	100.64
523.58	168.52
523.75	95.96
523.92	65.54
524.10	133.41
524.27	84.26
524.44	25.75
524.61	105.32
524.78	95.96
524.96	84.26
525.13	119.37
525.30	16.38
525.47	14.04
525.64	67.88
525.81	140.43
525.98	88.94
526.16	51.49
526.33	84.26
526.50	91.28
526.67	95.96
526.84	93.62
527.01	74.90
527.18	51.49
527.36	79.58
527.53	0.00
527.70	117.03
527.87	110.01
528.04	88.94
528.21	4.68
528.38	70.22
528.55	110.01
528.72	32.77
528.89	98.30
529.07	67.88
529.24	67.88
529.41	112.35
529.58	74.90
529.75	114.69
529.92	119.37
530.09	135.75
530.26	117.03
530.43	91.28
530.60	72.56
530.77	135.75
530.94	72.56
531.11	88.94
531.28	65.54
531.46	93.62
531.63	135.75
531.80	39.79
531.97	105.32
532.14	86.60
532.31	51.49
532.48	105.32
532.65	58.51
532.82	95.96
532.99	149.79
533.16	37.45
533.33	114.69
533.50	117.03
533.67	51.49
533.84	88.94
534.01	117.03
534.18	105.32
534.35	128.73
534.52	107.66
534.69	21.06
534.86	0.00
535.03	67.88
535.20	126.39
535.37	112.35
535.54	84.26
535.71	65.54
535.88	79.58
536.05	67.88
536.22	86.60
536.38	39.79
536.55	49.15
536.72	110.01
536.89	79.58
537.06	112.35
537.23	105.32
537.40	128.73
537.57	63.19
537.74	86.60
537.91	84.26
538.08	84.26
538.25	117.03
538.42	72.56
538.59	105.32
538.75	0.00
538.92	4.68
539.09	30.43
539.26	67.88
539.43	100.64
539.60	42.13
539.77	84.26
539.94	170.86
540.11	79.58
540.28	105.32
540.44	117.03
540.61	114.69
540.78	46.81
540.95	74.90
541.12	72.56
541.29	56.17
541.46	114.69
541.62	149.79
541.79	72.56
541.96	105.32
542.13	28.09
542.30	74.90
542.47	67.88
542.63	56.17
542.80	117.03
542.97	100.64
543.14	88.94
543.31	81.92
543.48	58.51
543.64	140.43
543.81	58.51
543.98	37.45
544.15	16.38
544.32	51.49
544.48	56.17
544.65	35.11
544.82	112.35
544.99	65.54
545.16	67.88
545.32	37.45
545.49	135.75
545.66	140.43
545.83	117.03
546.00	0.00
546.16	70.22
546.33	124.05
546.50	30.43
546.67	74.90
546.83	63.19
547.00	93.62
547.17	60.85
547.34	79.58
547.50	119.37
547.67	84.26
547.84	140.43
548.00	74.90
548.17	63.19
548.34	65.54
548.51	140.43
548.67	35.11
548.84	65.54
549.01	37.45
549.18	74.90
549.34	14.04
549.51	74.90
549.68	102.98
549.84	84.26
550.01	51.49
550.18	98.30
550.34	56.17
550.51	117.03
550.68	72.56
550.84	117.03
551.01	77.24
551.18	30.43
551.34	32.77
551.51	7.02
551.68	84.26
551.84	49.15
552.01	56.17
552.18	30.43
552.34	63.19
552.51	72.56
552.68	74.90
552.84	72.56
553.01	163.84
553.18	81.92
553.34	86.60
553.51	147.45
553.67	86.60
553.84	25.75
554.01	107.66
554.17	67.88
554.34	107.66
554.51	51.49
554.67	0.00
554.84	67.88
555.00	95.96
555.17	49.15
555.33	84.26
555.50	86.60
555.67	91.28
555.83	18.72
556.00	77.24
556.16	25.75
556.33	140.43
556.50	65.54
556.66	72.56
556.83	131.07
556.99	72.56
557.16	88.94
557.32	30.43
557.49	74.90
557.65	102.98
557.82	65.54
557.98	74.90
558.15	39.79
558.32	44.47
558.48	91.28
558.65	60.85
558.81	0.00
558.98	86.60
559.14	65.54
559.31	44.47
559.47	81.92
559.64	32.77
559.80	70.22
559.97	117.03
560.13	37.45
560.30	9.36
560.46	88.94
560.63	72.56
560.79	91.28
560.96	119.37
561.12	28.09
561.29	37.45
561.45	91.28
561.61	95.96
561.78	100.64
561.94	79.58
562.11	77.24
562.27	95.96
562.44	58.51
562.60	110.01
562.77	39.79
562.93	42.13
563.10	121.71
563.26	107.66
563.42	105.32
563.59	28.09
563.75	88.94
563.92	126.39
564.08	81.92
564.24	74.90
564.41	105.32
564.57	110.01
564.74	100.64
564.90	0.00
565.07	84.26
565.23	46.81
565.39	42.13
565.56	100.64
565.72	117.03
565.88	84.26
566.05	88.94
566.21	56.17
566.38	23.41
566.54	67.88
566.70	65.54
566.87	102.98
567.03	95.96
567.19	58.51
567.36	70.22
567.52	110.01
567.68	77.24
567.85	105.32
568.01	65.54
568.17	84.26
568.34	93.62
568.50	79.58
568.66	79.58
568.83	140.43
568.99	58.51
569.15	114.69
569.32	91.28
569.48	81.92
569.64	70.22
569.81	32.77
569.97	93.62
570.13	46.81
570.30	58.51
570.46	67.88
570.62	35.11
570.78	88.94
570.95	107.66
571.11	53.83
571.27	58.51
571.43	72.56
571.60	93.62
571.76	86.60
571.92	51.49
572.09	72.56
572.25	107.66
572.41	126.39
572.57	72.56
572.74	98.30
572.90	187.24
573.06	84.26
573.22	107.66
573.38	88.94
573.55	114.69
573.71	107.66
573.87	84.26
574.03	112.35
574.20	42.13
574.36	0.00
574.52	77.24
574.68	110.01
574.84	91.28
575.01	124.05
575.17	63.19
575.33	16.38
575.49	67.88
575.65	18.72
575.82	65.54
575.98	28.09
576.14	124.05
576.30	100.64
576.46	100.64
576.62	81.92
576.79	35.11
576.95	100.64
577.11	51.49
577.27	56.17
577.43	46.81
577.59	98.30
577.75	28.09
577.92	60.85
578.08	119.37
578.24	49.15
578.40	149.79
578.56	58.51
578.72	91.28
578.88	11.70
579.04	72.56
579.21	93.62
579.37	86.60
579.53	7.02
579.69	112.35
579.85	86.60
580.01	74.90
580.17	60.85
580.33	23.41
580.49	72.56
580.65	126.39
580.82	95.96
580.98	67.88
581.14	81.92
581.30	119.37
581.46	105.32
581.62	156.82
581.78	95.96
581.94	110.01
582.10	88.94
582.26	44.47
582.42	88.94
582.58	58.51
582.74	74.90
582.90	112.35
583.06	93.62
583.22	18.72
583.38	65.54
583.54	95.96
583.70	49.15
583.86	81.92
584.02	126.39
584.18	100.64
584.34	77.24
584.50	63.19
584.66	84.26
584.82	86.60
584.98	28.09
585.14	105.32
585.30	126.39
585.46	53.83
585.62	4.68
585.78	74.90
585.94	32.77
586.10	135.75
586.26	98.30
586.42	56.17
586.58	81.92
586.74	30.43
586.90	42.13
587.06	147.45
587.22	42.13
587.38	58.51
587.54	74.90
587.70	21.06
587.86	23.41
588.02	112.35
588.18	46.81
588.34	67.88
588.49	102.98
588.65	95.96
588.81	58.51
588.97	60.85
589.13	124.05
589.29	21.06
589.45	86.60
589.61	77.24
589.77	0.00
589.93	77.24
590.08	107.66
590.24	16.38
590.40	49.15
590.56	21.06
590.72	93.62
590.88	77.24
591.04	112.35
591.20	35.11
591.35	39.79
591.51	39.79
591.67	105.32
591.83	149.79
591.99	65.54
592.15	0.00
592.31	49.15
592.46	147.45
592.62	77.24
592.78	119.37
592.94	14.04
593.10	56.17
593.26	53.83
593.41	67.88
593.57	110.01
593.73	184.90
593.89	88.94
594.05	14.04
594.20	16.38
594.36	70.22
594.52	37.45
594.68	67.88
594.84	25.75
594.99	81.92
595.15	67.88
595.31	140.43
595.47	63.19
595.62	58.51
595.78	98.30
595.94	44.47
596.10	107.66
596.25	81.92
596.41	72.56
596.57	114.69
596.73	35.11
596.88	98.30
597.04	95.96
597.20	91.28
597.36	77.24
597.51	4.68
597.67	74.90
597.83	98.30
597.99	100.64
598.14	91.28
598.30	93.62
598.46	0.00
598.61	91.28
598.77	23.41
598.93	28.09
599.09	63.19
599.24	35.11
599.40	154.48
599.56	49.15
599.71	42.13
599.87	0.00
600.03	28.09
600.18	39.79
600.34	51.49
600.50	77.24
600.65	0.00
600.81	112.35
600.97	60.85
601.12	23.41
601.28	37.45
601.44	95.96
601.59	53.83
601.75	65.54
601.91	16.38
602.06	77.24
602.22	74.90
602.37	84.26
602.53	56.17
602.69	102.98
602.84	0.00
603.00	70.22
603.16	37.45
603.31	112.35
603.47	42.13
603.62	126.39
603.78	58.51
603.94	121.71
604.09	88.94
604.25	39.79
604.40	140.43
604.56	65.54
604.71	114.69
604.87	39.79
605.03	65.54
605.18	102.98
605.34	161.50
605.49	63.19
605.65	100.64
605.80	74.90
605.96	100.64
606.12	53.83
606.27	107.66
606.43	114.69
606.58	49.15
606.74	93.62
606.89	74.90
607.05	79.58
607.20	58.51
607.36	0.00
607.51	67.88
607.67	182.56
607.82	42.13
607.98	107.66
608.13	60.85
608.29	32.77
608.44	119.37
608.60	121.71
608.75	72.56
608.91	100.64
609.06	84.26
609.22	49.15
609.37	63.19
609.53	65.54
609.68	77.24
609.84	74.90
609.99	30.43
610.15	67.88
610.30	86.60
610.46	100.64
610.61	53.83
610.76	23.41
610.92	95.96
611.07	100.64
611.23	51.49
611.38	98.30
611.54	23.41
611.69	46.81
611.84	105.32
612.00	95.96
612.15	28.09
612.31	67.88
612.46	124.05
612.62	63.19
612.77	63.19
612.92	117.03
613.08	65.54
613.23	95.96
613.39	88.94
613.54	86.60
613.69	32.77
613.85	44.47
614.00	42.13
614.15	49.15
614.31	32.77
614.46	53.83
614.62	72.56
614.77	102.98
614.92	67.88
615.08	175.54
615.23	46.81
615.38	42.13
615.54	72.56
615.69	149.79
615.84	49.15
616.00	88.94
616.15	74.90
616.30	72.56
616.46	21.06
616.61	98.30
616.76	100.64
616.92	95.96
617.07	30.43
617.22	35.11
617.37	93.62
617.53	93.62
617.68	79.58
617.83	100.64
617.99	138.09
618.14	79.58
618.29	79.58
618.45	0.00
618.60	56.17
618.75	46.81
618.90	0.00
619.06	124.05
619.21	88.94
619.36	105.32
619.51	98.30
619.67	95.96
619.82	100.64
619.97	63.19
620.12	119.37
620.28	32.77
620.43	51.49
620.58	0.00
620.73	0.00
620.89	14.04
621.04	2.34
621.19	142.77
621.34	56.17
621.49	67.88
621.65	93.62
621.80	56.17
621.95	91.28
622.10	23.41
622.25	53.83
622.41	100.64
622.56	49.15
622.71	58.51
622.86	9.36
623.01	51.49
623.16	114.69
623.32	84.26
623.47	2.34
623.62	53.83
623.77	79.58
623.92	60.85
624.07	49.15
624.23	70.22
624.38	16.38
624.53	46.81
624.68	105.32
624.83	51.49
624.98	84.26
625.13	60.85
625.29	51.49
625.44	67.88
625.59	72.56
625.74	72.56
625.89	53.83
626.04	117.03
626.19	74.90
626.34	56.17
626.49	79.58
626.65	60.85
626.80	51.49
626.95	49.15
627.10	88.94
627.25	117.03
627.40	51.49
627.55	60.85
627.70	63.19
627.85	65.54
628.00	98.30
628.15	91.28
628.30	128.73
628.45	0.00
628.60	28.09
628.76	81.92
628.91	67.88
629.06	67.88
629.21	65.54
629.36	79.58
629.51	65.54
629.66	49.15
629.81	53.83
629.96	14.04
630.11	49.15
630.26	37.45
630.41	70.22
630.56	93.62
630.71	42.13
630.86	63.19
631.01	65.54
631.16	32.77
631.31	56.17
631.46	14.04
631.61	63.19
631.76	58.51
631.91	98.30
632.06	84.26
632.21	0.00
632.36	0.00
632.51	105.32
632.66	21.06
632.81	126.39
632.96	145.11
633.10	93.62
633.25	67.88
633.40	95.96
633.55	11.70
633.70	0.00
633.85	81.92
634.00	63.19
634.15	0.00
634.30	77.24
634.45	84.26
634.60	53.83
634.75	74.90
634.90	67.88
635.05	67.88
635.19	32.77
635.34	81.92
635.49	0.00
635.64	0.00
635.79	79.58
635.94	56.17
636.09	67.88
636.24	70.22
636.39	72.56
636.53	110.01
636.68	56.17
636.83	37.45
636.98	142.77
637.13	53.83
637.28	126.39
637.43	37.45
637.57	28.09
637.72	4.68
637.87	4.68
638.02	51.49
638.17	49.15
638.32	77.24
638.46	105.32
638.61	110.01
638.76	14.04
638.91	65.54
639.06	18.72
639.20	79.58
639.35	9.36
639.50	0.00
639.65	65.54
639.80	51.49
639.94	21.06
640.09	126.39
640.24	30.43
640.39	58.51
640.54	154.48
640.68	28.09
640.83	65.54
640.98	37.45
641.13	67.88
641.27	65.54
641.42	98.30
641.57	98.30
641.72	63.19
641.86	98.30
642.01	91.28
642.16	81.92
642.31	49.15
642.45	0.00
642.60	63.19
642.75	0.00
642.90	110.01
643.04	105.32
643.19	0.00
643.34	95.96
643.48	79.58
643.63	74.90
643.78	46.81
643.93	67.88
644.07	81.92
644.22	37.45
644.37	0.00
644.51	28.09
644.66	0.00
644.81	84.26
644.95	11.70
645.10	67.88
645.25	110.01
645.39	88.94
645.54	0.00
645.69	107.66
645.83	105.32
645.98	126.39
646.13	63.19
646.27	30.43
646.42	39.79
646.57	49.15
646.71	0.00
646.86	79.58
647.00	95.96
647.15	117.03
647.30	98.30
647.44	0.00
647.59	39.79
647.74	51.49
647.88	88.94
648.03	86.60
648.17	25.75
648.32	42.13
648.47	81.92
648.61	11.70
648.76	56.17
648.90	72.56
649.05	39.79
649.20	65.54
649.34	21.06
649.49	7.02
649.63	0.00
649.78	91.28
649.92	49.15
650.07	2.34
650.21	102.98
650.36	11.70
650.51	51.49
650.65	60.85
650.80	0.00
650.94	84.26
651.09	107.66
651.23	39.79
651.38	112.35
651.52	60.85
651.67	16.38
651.81	0.00
651.96	77.24
652.10	100.64
652.25	53.83
652.39	14.04
652.54	77.24
652.68	161.50
652.83	74.90
652.97	35.11
653.12	65.54
653.26	72.56
653.41	49.15
653.55	28.09
653.70	21.06
653.84	86.60
653.99	46.81
654.13	65.54
654.27	14.04
654.42	46.81
654.56	93.62
654.71	72.56
654.85	18.72
655.00	32.77
655.14	63.19
655.29	51.49
655.43	0.00
655.57	100.64
655.72	63.19
655.86	0.00
656.01	60.85
656.15	49.15
656.30	42.13
656.44	21.06
656.58	63.19
656.73	18.72
656.87	67.88
657.01	102.98
657.16	86.60
657.30	95.96
657.45	58.51
657.59	7.02
657.73	93.62
657.88	77.24
658.02	21.06
658.16	9.36
658.31	63.19
658.45	105.32
658.60	7.02
658.74	51.49
658.88	114.69
659.03	95.96
659.17	74.90
659.31	72.56
659.46	51.49
659.60	49.15
659.74	7.02
659.89	133.41
660.03	77.24
660.17	53.83
660.32	51.49
660.46	21.06
660.60	7.02
660.74	67.88
660.89	4.68
661.03	0.00
661.17	16.38
661.32	100.64
661.46	105.32
661.60	0.00
661.74	84.26
661.89	18.72
662.03	79.58
662.17	18.72
662.31	63.19
662.46	7.02
662.60	70.22
662.74	58.51
662.88	86.60
663.03	4.68
663.17	37.45
663.31	0.00
663.45	16.38
663.60	81.92
663.74	46.81
663.88	16.38
664.02	72.56
664.17	7.02
664.31	51.49
664.45	126.39
664.59	95.96
664.73	56.17
664.88	2.34
665.02	53.83
665.16	37.45
665.30	117.03
665.44	95.96
665.59	58.51
665.73	100.64
665.87	0.00
666.01	0.00
666.15	37.45
666.29	23.41
666.44	0.00
666.58	63.19
666.72	42.13
666.86	32.77
667.00	102.98
667.14	56.17
667.28	0.00
667.43	9.36
667.57	30.43
667.71	32.77
667.85	0.00
667.99	0.00
668.13	21.06
668.27	72.56
668.41	37.45
668.56	49.15
668.70	32.77
668.84	72.56
668.98	23.41
669.12	16.38
669.26	35.11
669.40	14.04
669.54	58.51
669.68	74.90
669.82	60.85
669.96	0.00
670.10	58.51
670.25	9.36
670.39	30.43
670.53	70.22
670.67	117.03
670.81	42.13
670.95	72.56
671.09	21.06
671.23	91.28
671.37	42.13
671.51	0.00
671.65	60.85
671.79	46.81
671.93	63.19
672.07	51.49
672.21	124.05
672.35	131.07
672.49	100.64
672.63	88.94
672.77	44.47
672.91	51.49
673.05	28.09
673.19	30.43
673.33	72.56
673.47	28.09
673.61	11.70
673.75	42.13
673.89	84.26
674.03	114.69
674.17	30.43
674.31	56.17
674.45	56.17
674.59	44.47
674.73	0.00
674.87	42.13
675.01	37.45
675.15	4.68
675.29	49.15
675.43	30.43
675.56	28.09
675.70	37.45
675.84	100.64
675.98	53.83
676.12	35.11
676.26	79.58
676.40	7.02
676.54	53.83
676.68	28.09
676.82	49.15
676.96	49.15
677.10	86.60
677.23	95.96
677.37	110.01
677.51	51.49
677.65	77.24
677.79	67.88
677.93	32.77
678.07	18.72
678.21	51.49
678.34	58.51
678.48	44.47
678.62	79.58
678.76	70.22
678.90	39.79
679.04	0.00
679.18	9.36
679.31	44.47
679.45	53.83
679.59	79.58
679.73	21.06
679.87	63.19
680.00	16.38
680.14	102.98
680.28	4.68
680.42	23.41
680.56	51.49
680.70	39.79
680.83	18.72
680.97	49.15
681.11	79.58
681.25	42.13
681.39	67.88
681.52	35.11
681.66	79.58
681.80	56.17
681.94	81.92
682.07	65.54
682.21	0.00
682.35	93.62
682.49	70.22
682.62	37.45
682.76	11.70
682.90	9.36
683.04	37.45
683.17	9.36
683.31	46.81
683.45	60.85
683.59	46.81
683.72	56.17
683.86	25.75
684.00	70.22
684.13	63.19
684.27	42.13
684.41	28.09
684.55	0.00
684.68	0.00
684.82	74.90
684.96	0.00
685.09	7.02
685.23	81.92
685.37	60.85
685.50	88.94
685.64	114.69
685.78	25.75
685.91	53.83
686.05	72.56
686.19	58.51
686.32	21.06
686.46	30.43
686.60	21.06
686.73	44.47
686.87	67.88
687.01	37.45
687.14	0.00
687.28	0.00
687.42	7.02
687.55	51.49
687.69	65.54
687.82	53.83
687.96	28.09
688.10	32.77
688.23	84.26
688.37	51.49
688.50	28.09
688.64	93.62
688.78	46.81
688.91	95.96
689.05	98.30
689.18	51.49
689.32	98.30
689.46	102.98
689.59	60.85
689.73	0.00
689.86	16.38
690.00	21.06
690.13	25.75
690.27	21.06
690.41	0.00
690.54	37.45
690.68	70.22
690.81	25.75
690.95	0.00
691.08	28.09
691.22	65.54
691.35	51.49
691.49	79.58
691.62	23.41
691.76	32.77
691.89	0.00
692.03	32.77
692.16	4.68
692.30	60.85
692.43	37.45
692.57	56.17
692.70	14.04
692.84	58.51
692.97	81.92
693.11	9.36
693.24	37.45
693.38	30.43
693.51	0.00
693.65	44.47
693.78	35.11
693.92	23.41
694.05	0.00
694.19	30.43
694.32	72.56
694.45	4.68
694.59	53.83
694.72	70.22
694.86	46.81
694.99	0.00
695.13	58.51
695.26	25.75
695.39	7.02
695.53	93.62
695.66	46.81
695.80	95.96
695.93	0.00
696.07	60.85
696.20	35.11
696.33	46.81
696.47	11.70
696.60	28.09
696.73	21.06
696.87	49.15
697.00	18.72
697.14	35.11
697.27	67.88
697.40	9.36
697.54	58.51
697.67	23.41
697.80	44.47
697.94	30.43
698.07	28.09
698.21	32.77
698.34	23.41
698.47	4.68
698.61	0.00
698.74	91.28
698.87	30.43
699.01	0.00
699.14	11.70
699.27	51.49
699.40	56.17
699.54	7.02
699.67	88.94
699.80	0.00
699.94	14.04
700.07	39.79
700.20	0.00
700.34	0.00
700.47	70.22
700.60	91.28
700.73	46.81
700.87	32.77
701.00	21.06
701.13	42.13
701.26	0.00
701.40	0.00
701.53	46.81
701.66	42.13
701.79	18.72
701.93	98.30
702.06	74.90
702.19	42.13
702.32	74.90
702.46	35.11
702.59	0.00
702.72	21.06
702.85	16.38
702.99	46.81
703.12	14.04
703.25	56.17
703.38	79.58
703.51	16.38
703.65	0.00
703.78	42.13
703.91	91.28
704.04	100.64
704.17	23.41
704.31	93.62
704.44	0.00
704.57	0.00
704.70	25.75
704.83	0.00
704.96	32.77
705.10	67.88
705.23	58.51
>>>>>End Processed Spectral Data<<<<<
