SpectraSuite Data File
++++++++++++++++++++++++++++++++++++
Date: Fri Oct 04 12:13:36 GMT-05:00 2013
User: price-jones
Dark Spectrum Present: No
Reference Spectrum Present: No
Number of Sampled Component Spectra: 1
Spectrometers: USB2+H05261
Integration Time (usec): 10000 (USB2+H05261)
Spectra Averaged: 1 (USB2+H05261)
Boxcar Smoothing: 0 (USB2+H05261)
Correct for Electrical Dark: No (USB2+H05261)
Strobe/Lamp Enabled: No (USB2+H05261)
Correct for Detector Non-linearity: No (USB2+H05261)
Correct for Stray Light: No (USB2+H05261)
Number of Pixels in Processed Spectrum: 2048
>>>>>Begin Processed Spectral Data<<<<<
365.73	32.77
365.92	32.77
366.12	32.77
366.32	0.00
366.52	0.00
366.72	0.00
366.91	0.00
367.11	0.00
367.31	0.00
367.51	0.00
367.70	0.00
367.90	0.00
368.10	0.00
368.30	0.00
368.49	0.00
368.69	0.00
368.89	0.00
369.09	0.00
369.28	0.00
369.48	0.00
369.68	0.00
369.87	0.00
370.07	0.00
370.27	0.00
370.47	0.00
370.66	0.00
370.86	0.00
371.06	0.00
371.25	0.00
371.45	0.00
371.65	0.00
371.84	0.00
372.04	0.00
372.24	0.00
372.44	30.43
372.63	32.77
372.83	53.83
373.03	0.00
373.22	51.49
373.42	25.75
373.62	0.00
373.81	65.54
374.01	86.60
374.21	0.00
374.40	0.00
374.60	7.02
374.79	0.00
374.99	51.49
375.19	0.00
375.38	44.47
375.58	0.00
375.78	0.00
375.97	16.38
376.17	37.45
376.37	49.15
376.56	91.28
376.76	49.15
376.95	2.34
377.15	32.77
377.35	18.72
377.54	7.02
377.74	44.47
377.93	21.06
378.13	23.41
378.33	60.85
378.52	0.00
378.72	39.79
378.91	56.17
379.11	72.56
379.31	0.00
379.50	11.70
379.70	0.00
379.89	30.43
380.09	0.00
380.28	7.02
380.48	0.00
380.68	0.00
380.87	28.09
381.07	18.72
381.26	4.68
381.46	0.00
381.65	9.36
381.85	0.00
382.04	21.06
382.24	37.45
382.43	7.02
382.63	0.00
382.83	42.13
383.02	4.68
383.22	0.00
383.41	11.70
383.61	60.85
383.80	9.36
384.00	0.00
384.19	0.00
384.39	14.04
384.58	18.72
384.78	35.11
384.97	16.38
385.17	11.70
385.36	0.00
385.56	0.00
385.75	4.68
385.95	28.09
386.14	39.79
386.34	21.06
386.53	105.32
386.72	53.83
386.92	70.22
387.11	2.34
387.31	84.26
387.50	44.47
387.70	21.06
387.89	0.00
388.09	42.13
388.28	11.70
388.48	18.72
388.67	30.43
388.86	32.77
389.06	0.00
389.25	39.79
389.45	18.72
389.64	37.45
389.84	18.72
390.03	63.19
390.22	86.60
390.42	56.17
390.61	0.00
390.81	21.06
391.00	35.11
391.19	35.11
391.39	30.43
391.58	0.00
391.78	18.72
391.97	0.00
392.16	35.11
392.36	42.13
392.55	28.09
392.75	56.17
392.94	30.43
393.13	9.36
393.33	11.70
393.52	49.15
393.71	44.47
393.91	28.09
394.10	2.34
394.29	9.36
394.49	0.00
394.68	0.00
394.88	79.58
395.07	0.00
395.26	23.41
395.46	32.77
395.65	21.06
395.84	25.75
396.04	60.85
396.23	0.00
396.42	56.17
396.62	7.02
396.81	28.09
397.00	7.02
397.19	44.47
397.39	39.79
397.58	72.56
397.77	39.79
397.97	21.06
398.16	7.02
398.35	46.81
398.55	39.79
398.74	77.24
398.93	72.56
399.12	0.00
399.32	49.15
399.51	39.79
399.70	124.05
399.90	37.45
400.09	110.01
400.28	46.81
400.47	114.69
400.67	46.81
400.86	95.96
401.05	51.49
401.24	0.00
401.44	67.88
401.63	63.19
401.82	37.45
402.01	14.04
402.21	25.75
402.40	9.36
402.59	23.41
402.78	18.72
402.97	23.41
403.17	42.13
403.36	60.85
403.55	53.83
403.74	28.09
403.93	4.68
404.13	9.36
404.32	35.11
404.51	0.00
404.70	2.34
404.89	44.47
405.09	74.90
405.28	11.70
405.47	0.00
405.66	44.47
405.85	18.72
406.05	21.06
406.24	81.92
406.43	0.00
406.62	0.00
406.81	32.77
407.00	32.77
407.20	37.45
407.39	28.09
407.58	0.00
407.77	35.11
407.96	46.81
408.15	56.17
408.34	35.11
408.54	23.41
408.73	4.68
408.92	42.13
409.11	0.00
409.30	0.00
409.49	56.17
409.68	39.79
409.87	72.56
410.07	51.49
410.26	32.77
410.45	35.11
410.64	30.43
410.83	23.41
411.02	7.02
411.21	0.00
411.40	16.38
411.59	0.00
411.78	0.00
411.98	0.00
412.17	0.00
412.36	98.30
412.55	56.17
412.74	11.70
412.93	44.47
413.12	51.49
413.31	44.47
413.50	23.41
413.69	53.83
413.88	21.06
414.07	0.00
414.26	14.04
414.45	0.00
414.64	65.54
414.83	16.38
415.02	84.26
415.22	0.00
415.41	0.00
415.60	77.24
415.79	39.79
415.98	30.43
416.17	0.00
416.36	65.54
416.55	105.32
416.74	138.09
416.93	107.66
417.12	0.00
417.31	0.00
417.50	9.36
417.69	58.51
417.88	32.77
418.07	51.49
418.26	11.70
418.45	0.00
418.64	39.79
418.83	53.83
419.02	0.00
419.21	102.98
419.39	35.11
419.58	72.56
419.77	81.92
419.96	58.51
420.15	11.70
420.34	142.77
420.53	91.28
420.72	0.00
420.91	81.92
421.10	77.24
421.29	77.24
421.48	23.41
421.67	25.75
421.86	30.43
422.05	0.00
422.24	0.00
422.43	67.88
422.61	65.54
422.80	65.54
422.99	37.45
423.18	0.00
423.37	4.68
423.56	42.13
423.75	0.00
423.94	0.00
424.13	0.00
424.32	2.34
424.50	86.60
424.69	46.81
424.88	63.19
425.07	0.00
425.26	46.81
425.45	91.28
425.64	11.70
425.83	72.56
426.01	4.68
426.20	35.11
426.39	30.43
426.58	79.58
426.77	70.22
426.96	93.62
427.15	18.72
427.33	2.34
427.52	42.13
427.71	74.90
427.90	7.02
428.09	25.75
428.28	58.51
428.46	9.36
428.65	72.56
428.84	0.00
429.03	51.49
429.22	84.26
429.40	25.75
429.59	21.06
429.78	72.56
429.97	51.49
430.16	93.62
430.34	58.51
430.53	16.38
430.72	7.02
430.91	0.00
431.10	11.70
431.28	21.06
431.47	39.79
431.66	0.00
431.85	79.58
432.03	2.34
432.22	88.94
432.41	72.56
432.60	30.43
432.79	72.56
432.97	105.32
433.16	58.51
433.35	42.13
433.54	14.04
433.72	0.00
433.91	28.09
434.10	63.19
434.28	44.47
434.47	0.00
434.66	23.41
434.85	53.83
435.03	37.45
435.22	53.83
435.41	39.79
435.59	30.43
435.78	2.34
435.97	35.11
436.16	65.54
436.34	46.81
436.53	53.83
436.72	35.11
436.90	28.09
437.09	70.22
437.28	102.98
437.46	0.00
437.65	42.13
437.84	30.43
438.02	72.56
438.21	77.24
438.40	53.83
438.58	35.11
438.77	60.85
438.96	16.38
439.14	93.62
439.33	56.17
439.52	32.77
439.70	124.05
439.89	4.68
440.08	16.38
440.26	0.00
440.45	77.24
440.63	105.32
440.82	145.11
441.01	35.11
441.19	77.24
441.38	35.11
441.57	67.88
441.75	67.88
441.94	30.43
442.12	79.58
442.31	21.06
442.50	58.51
442.68	81.92
442.87	84.26
443.05	105.32
443.24	25.75
443.43	70.22
443.61	98.30
443.80	46.81
443.98	105.32
444.17	58.51
444.35	93.62
444.54	72.56
444.73	0.00
444.91	86.60
445.10	9.36
445.28	49.15
445.47	25.75
445.65	0.00
445.84	56.17
446.02	2.34
446.21	42.13
446.39	93.62
446.58	46.81
446.77	51.49
446.95	44.47
447.14	79.58
447.32	42.13
447.51	58.51
447.69	79.58
447.88	114.69
448.06	67.88
448.25	70.22
448.43	49.15
448.62	51.49
448.80	100.64
448.99	142.77
449.17	0.00
449.36	0.00
449.54	114.69
449.73	102.98
449.91	56.17
450.10	9.36
450.28	28.09
450.46	63.19
450.65	117.03
450.83	63.19
451.02	98.30
451.20	42.13
451.39	79.58
451.57	138.09
451.76	112.35
451.94	21.06
452.13	21.06
452.31	51.49
452.49	44.47
452.68	100.64
452.86	74.90
453.05	149.79
453.23	86.60
453.42	0.00
453.60	117.03
453.78	0.00
453.97	42.13
454.15	63.19
454.34	65.54
454.52	28.09
454.70	105.32
454.89	46.81
455.07	67.88
455.26	0.00
455.44	44.47
455.62	102.98
455.81	77.24
455.99	79.58
456.17	49.15
456.36	77.24
456.54	93.62
456.73	147.45
456.91	0.00
457.09	28.09
457.28	4.68
457.46	84.26
457.64	60.85
457.83	9.36
458.01	46.81
458.19	32.77
458.38	51.49
458.56	119.37
458.74	35.11
458.93	72.56
459.11	74.90
459.29	77.24
459.48	95.96
459.66	88.94
459.84	70.22
460.03	135.75
460.21	110.01
460.39	74.90
460.57	91.28
460.76	56.17
460.94	95.96
461.12	56.17
461.31	112.35
461.49	72.56
461.67	0.00
461.85	46.81
462.04	58.51
462.22	21.06
462.40	107.66
462.59	21.06
462.77	0.00
462.95	9.36
463.13	67.88
463.32	0.00
463.50	35.11
463.68	60.85
463.86	30.43
464.05	100.64
464.23	74.90
464.41	30.43
464.59	56.17
464.78	93.62
464.96	126.39
465.14	74.90
465.32	18.72
465.50	51.49
465.69	56.17
465.87	112.35
466.05	119.37
466.23	84.26
466.41	79.58
466.60	77.24
466.78	18.72
466.96	100.64
467.14	65.54
467.32	37.45
467.51	72.56
467.69	88.94
467.87	46.81
468.05	58.51
468.23	16.38
468.41	86.60
468.60	42.13
468.78	56.17
468.96	58.51
469.14	32.77
469.32	44.47
469.50	44.47
469.69	44.47
469.87	88.94
470.05	91.28
470.23	93.62
470.41	56.17
470.59	16.38
470.77	35.11
470.95	67.88
471.14	60.85
471.32	72.56
471.50	51.49
471.68	84.26
471.86	156.82
472.04	46.81
472.22	0.00
472.40	0.00
472.58	117.03
472.77	0.00
472.95	44.47
473.13	65.54
473.31	51.49
473.49	49.15
473.67	53.83
473.85	53.83
474.03	86.60
474.21	81.92
474.39	37.45
474.57	21.06
474.75	44.47
474.93	110.01
475.12	58.51
475.30	63.19
475.48	49.15
475.66	81.92
475.84	32.77
476.02	95.96
476.20	4.68
476.38	72.56
476.56	100.64
476.74	21.06
476.92	9.36
477.10	9.36
477.28	124.05
477.46	100.64
477.64	51.49
477.82	42.13
478.00	44.47
478.18	100.64
478.36	60.85
478.54	4.68
478.72	2.34
478.90	84.26
479.08	74.90
479.26	131.07
479.44	100.64
479.62	44.47
479.80	60.85
479.98	18.72
480.16	88.94
480.34	56.17
480.52	0.00
480.70	56.17
480.88	60.85
481.06	91.28
481.24	14.04
481.41	63.19
481.59	0.00
481.77	79.58
481.95	42.13
482.13	86.60
482.31	53.83
482.49	72.56
482.67	70.22
482.85	60.85
483.03	56.17
483.21	67.88
483.39	51.49
483.57	58.51
483.74	93.62
483.92	112.35
484.10	49.15
484.28	79.58
484.46	93.62
484.64	114.69
484.82	77.24
485.00	28.09
485.18	46.81
485.35	84.26
485.53	56.17
485.71	18.72
485.89	49.15
486.07	58.51
486.25	44.47
486.43	16.38
486.61	84.26
486.78	102.98
486.96	44.47
487.14	49.15
487.32	70.22
487.50	105.32
487.68	145.11
487.85	23.41
488.03	46.81
488.21	58.51
488.39	63.19
488.57	81.92
488.75	37.45
488.92	117.03
489.10	93.62
489.28	98.30
489.46	81.92
489.64	81.92
489.81	74.90
489.99	84.26
490.17	105.32
490.35	67.88
490.53	58.51
490.70	32.77
490.88	23.41
491.06	65.54
491.24	117.03
491.41	65.54
491.59	28.09
491.77	21.06
491.95	84.26
492.13	72.56
492.30	93.62
492.48	58.51
492.66	98.30
492.84	140.43
493.01	86.60
493.19	88.94
493.37	60.85
493.54	100.64
493.72	58.51
493.90	21.06
494.08	32.77
494.25	110.01
494.43	74.90
494.61	88.94
494.79	121.71
494.96	16.38
495.14	67.88
495.32	84.26
495.49	58.51
495.67	145.11
495.85	49.15
496.02	46.81
496.20	58.51
496.38	114.69
496.55	81.92
496.73	32.77
496.91	72.56
497.09	112.35
497.26	35.11
497.44	37.45
497.62	84.26
497.79	91.28
497.97	46.81
498.14	56.17
498.32	100.64
498.50	42.13
498.67	4.68
498.85	30.43
499.03	98.30
499.20	79.58
499.38	32.77
499.56	46.81
499.73	93.62
499.91	25.75
500.08	70.22
500.26	46.81
500.44	42.13
500.61	58.51
500.79	72.56
500.97	16.38
501.14	46.81
501.32	86.60
501.49	67.88
501.67	119.37
501.84	88.94
502.02	105.32
502.20	53.83
502.37	84.26
502.55	23.41
502.72	60.85
502.90	23.41
503.07	72.56
503.25	86.60
503.43	147.45
503.60	67.88
503.78	184.90
503.95	114.69
504.13	72.56
504.30	63.19
504.48	88.94
504.65	88.94
504.83	74.90
505.01	74.90
505.18	44.47
505.36	77.24
505.53	86.60
505.71	145.11
505.88	95.96
506.06	25.75
506.23	42.13
506.41	46.81
506.58	63.19
506.76	98.30
506.93	114.69
507.11	140.43
507.28	128.73
507.46	79.58
507.63	110.01
507.81	93.62
507.98	65.54
508.16	51.49
508.33	32.77
508.50	42.13
508.68	79.58
508.85	42.13
509.03	131.07
509.20	117.03
509.38	145.11
509.55	60.85
509.73	18.72
509.90	32.77
510.08	42.13
510.25	100.64
510.42	53.83
510.60	51.49
510.77	135.75
510.95	39.79
511.12	63.19
511.30	30.43
511.47	100.64
511.64	98.30
511.82	81.92
511.99	81.92
512.17	16.38
512.34	102.98
512.51	58.51
512.69	0.00
512.86	131.07
513.04	25.75
513.21	107.66
513.38	93.62
513.56	117.03
513.73	79.58
513.90	84.26
514.08	46.81
514.25	39.79
514.43	117.03
514.60	102.98
514.77	110.01
514.95	74.90
515.12	65.54
515.29	102.98
515.47	72.56
515.64	107.66
515.81	81.92
515.99	91.28
516.16	91.28
516.33	49.15
516.51	65.54
516.68	110.01
516.85	7.02
517.03	86.60
517.20	86.60
517.37	126.39
517.54	35.11
517.72	67.88
517.89	37.45
518.06	46.81
518.24	56.17
518.41	0.00
518.58	65.54
518.75	67.88
518.93	112.35
519.10	84.26
519.27	58.51
519.45	133.41
519.62	126.39
519.79	114.69
519.96	102.98
520.14	110.01
520.31	70.22
520.48	112.35
520.65	84.26
520.83	77.24
521.00	124.05
521.17	100.64
521.34	124.05
521.52	98.30
521.69	86.60
521.86	28.09
522.03	77.24
522.20	72.56
522.38	81.92
522.55	86.60
522.72	46.81
522.89	121.71
523.07	70.22
523.24	49.15
523.41	117.03
523.58	70.22
523.75	93.62
523.92	140.43
524.10	49.15
524.27	16.38
524.44	140.43
524.61	159.16
524.78	39.79
524.96	77.24
525.13	4.68
525.30	138.09
525.47	74.90
525.64	105.32
525.81	126.39
525.98	98.30
526.16	70.22
526.33	107.66
526.50	44.47
526.67	102.98
526.84	63.19
527.01	46.81
527.18	105.32
527.36	35.11
527.53	93.62
527.70	145.11
527.87	72.56
528.04	42.13
528.21	30.43
528.38	49.15
528.55	114.69
528.72	189.58
528.89	77.24
529.07	65.54
529.24	159.16
529.41	147.45
529.58	112.35
529.75	53.83
529.92	98.30
530.09	39.79
530.26	14.04
530.43	44.47
530.60	70.22
530.77	98.30
530.94	131.07
531.11	98.30
531.28	74.90
531.46	110.01
531.63	93.62
531.80	112.35
531.97	46.81
532.14	149.79
532.31	138.09
532.48	51.49
532.65	79.58
532.82	51.49
532.99	77.24
533.16	65.54
533.33	86.60
533.50	84.26
533.67	133.41
533.84	180.22
534.01	67.88
534.18	105.32
534.35	135.75
534.52	93.62
534.69	88.94
534.86	114.69
535.03	30.43
535.20	91.28
535.37	128.73
535.54	105.32
535.71	79.58
535.88	112.35
536.05	100.64
536.22	140.43
536.38	91.28
536.55	81.92
536.72	72.56
536.89	114.69
537.06	65.54
537.23	70.22
537.40	74.90
537.57	46.81
537.74	102.98
537.91	63.19
538.08	35.11
538.25	72.56
538.42	65.54
538.59	44.47
538.75	91.28
538.92	140.43
539.09	112.35
539.26	175.54
539.43	79.58
539.60	91.28
539.77	53.83
539.94	105.32
540.11	117.03
540.28	30.43
540.44	65.54
540.61	46.81
540.78	67.88
540.95	114.69
541.12	128.73
541.29	124.05
541.46	0.00
541.62	51.49
541.79	145.11
541.96	138.09
542.13	117.03
542.30	133.41
542.47	121.71
542.63	168.52
542.80	124.05
542.97	37.45
543.14	112.35
543.31	152.13
543.48	110.01
543.64	135.75
543.81	93.62
543.98	0.00
544.15	46.81
544.32	74.90
544.48	58.51
544.65	4.68
544.82	112.35
544.99	46.81
545.16	74.90
545.32	70.22
545.49	56.17
545.66	42.13
545.83	133.41
546.00	72.56
546.16	74.90
546.33	114.69
546.50	37.45
546.67	95.96
546.83	67.88
547.00	112.35
547.17	79.58
547.34	77.24
547.50	58.51
547.67	56.17
547.84	51.49
548.00	84.26
548.17	156.82
548.34	30.43
548.51	32.77
548.67	93.62
548.84	112.35
549.01	77.24
549.18	72.56
549.34	56.17
549.51	58.51
549.68	128.73
549.84	42.13
550.01	110.01
550.18	168.52
550.34	102.98
550.51	105.32
550.68	77.24
550.84	74.90
551.01	74.90
551.18	0.00
551.34	2.34
551.51	98.30
551.68	79.58
551.84	67.88
552.01	112.35
552.18	105.32
552.34	102.98
552.51	124.05
552.68	147.45
552.84	124.05
553.01	49.15
553.18	67.88
553.34	128.73
553.51	91.28
553.67	63.19
553.84	56.17
554.01	93.62
554.17	177.88
554.34	84.26
554.51	117.03
554.67	0.00
554.84	95.96
555.00	131.07
555.17	138.09
555.33	37.45
555.50	138.09
555.67	177.88
555.83	161.50
556.00	42.13
556.16	42.13
556.33	60.85
556.50	88.94
556.66	60.85
556.83	142.77
556.99	37.45
557.16	77.24
557.32	140.43
557.49	100.64
557.65	107.66
557.82	107.66
557.98	21.06
558.15	93.62
558.32	44.47
558.48	91.28
558.65	58.51
558.81	77.24
558.98	58.51
559.14	60.85
559.31	60.85
559.47	107.66
559.64	107.66
559.80	105.32
559.97	88.94
560.13	74.90
560.30	0.00
560.46	63.19
560.63	159.16
560.79	124.05
560.96	102.98
561.12	58.51
561.29	67.88
561.45	79.58
561.61	100.64
561.78	124.05
561.94	65.54
562.11	0.00
562.27	98.30
562.44	124.05
562.60	110.01
562.77	70.22
562.93	168.52
563.10	67.88
563.26	79.58
563.42	124.05
563.59	79.58
563.75	119.37
563.92	91.28
564.08	23.41
564.24	110.01
564.41	79.58
564.57	145.11
564.74	98.30
564.90	98.30
565.07	65.54
565.23	100.64
565.39	88.94
565.56	93.62
565.72	46.81
565.88	63.19
566.05	0.00
566.21	102.98
566.38	32.77
566.54	72.56
566.70	88.94
566.87	56.17
567.03	86.60
567.19	126.39
567.36	88.94
567.52	91.28
567.68	95.96
567.85	25.75
568.01	35.11
568.17	98.30
568.34	93.62
568.50	65.54
568.66	84.26
568.83	77.24
568.99	51.49
569.15	88.94
569.32	60.85
569.48	88.94
569.64	117.03
569.81	67.88
569.97	84.26
570.13	67.88
570.30	18.72
570.46	46.81
570.62	114.69
570.78	117.03
570.95	58.51
571.11	114.69
571.27	91.28
571.43	95.96
571.60	140.43
571.76	65.54
571.92	60.85
572.09	100.64
572.25	53.83
572.41	124.05
572.57	102.98
572.74	0.00
572.90	105.32
573.06	77.24
573.22	56.17
573.38	91.28
573.55	107.66
573.71	72.56
573.87	100.64
574.03	0.00
574.20	60.85
574.36	117.03
574.52	51.49
574.68	91.28
574.84	60.85
575.01	112.35
575.17	72.56
575.33	60.85
575.49	79.58
575.65	88.94
575.82	86.60
575.98	18.72
576.14	42.13
576.30	65.54
576.46	98.30
576.62	133.41
576.79	44.47
576.95	60.85
577.11	65.54
577.27	42.13
577.43	77.24
577.59	135.75
577.75	91.28
577.92	42.13
578.08	74.90
578.24	107.66
578.40	58.51
578.56	95.96
578.72	95.96
578.88	53.83
579.04	177.88
579.21	42.13
579.37	0.00
579.53	81.92
579.69	70.22
579.85	23.41
580.01	98.30
580.17	32.77
580.33	56.17
580.49	49.15
580.65	72.56
580.82	30.43
580.98	100.64
581.14	86.60
581.30	42.13
581.46	4.68
581.62	79.58
581.78	86.60
581.94	0.00
582.10	4.68
582.26	74.90
582.42	74.90
582.58	114.69
582.74	105.32
582.90	70.22
583.06	131.07
583.22	9.36
583.38	72.56
583.54	32.77
583.70	49.15
583.86	84.26
584.02	81.92
584.18	77.24
584.34	46.81
584.50	72.56
584.66	100.64
584.82	133.41
584.98	107.66
585.14	117.03
585.30	60.85
585.46	70.22
585.62	51.49
585.78	11.70
585.94	161.50
586.10	124.05
586.26	72.56
586.42	77.24
586.58	39.79
586.74	124.05
586.90	53.83
587.06	51.49
587.22	77.24
587.38	77.24
587.54	63.19
587.70	63.19
587.86	114.69
588.02	156.82
588.18	93.62
588.34	102.98
588.49	65.54
588.65	42.13
588.81	65.54
588.97	46.81
589.13	30.43
589.29	39.79
589.45	9.36
589.61	32.77
589.77	4.68
589.93	81.92
590.08	107.66
590.24	117.03
590.40	63.19
590.56	56.17
590.72	44.47
590.88	110.01
591.04	39.79
591.20	67.88
591.35	140.43
591.51	95.96
591.67	84.26
591.83	114.69
591.99	58.51
592.15	53.83
592.31	142.77
592.46	98.30
592.62	93.62
592.78	91.28
592.94	77.24
593.10	0.00
593.26	58.51
593.41	56.17
593.57	53.83
593.73	4.68
593.89	21.06
594.05	95.96
594.20	35.11
594.36	51.49
594.52	58.51
594.68	65.54
594.84	135.75
594.99	51.49
595.15	112.35
595.31	49.15
595.47	60.85
595.62	77.24
595.78	77.24
595.94	79.58
596.10	81.92
596.25	91.28
596.41	39.79
596.57	88.94
596.73	88.94
596.88	210.65
597.04	53.83
597.20	42.13
597.36	81.92
597.51	119.37
597.67	77.24
597.83	51.49
597.99	88.94
598.14	140.43
598.30	72.56
598.46	93.62
598.61	72.56
598.77	135.75
598.93	44.47
599.09	84.26
599.24	0.00
599.40	121.71
599.56	32.77
599.71	74.90
599.87	18.72
600.03	65.54
600.18	4.68
600.34	0.00
600.50	58.51
600.65	44.47
600.81	51.49
600.97	67.88
601.12	28.09
601.28	49.15
601.44	63.19
601.59	46.81
601.75	2.34
601.91	0.00
602.06	121.71
602.22	74.90
602.37	67.88
602.53	140.43
602.69	119.37
602.84	18.72
603.00	23.41
603.16	95.96
603.31	70.22
603.47	67.88
603.62	81.92
603.78	67.88
603.94	77.24
604.09	140.43
604.25	117.03
604.40	28.09
604.56	53.83
604.71	39.79
604.87	119.37
605.03	175.54
605.18	49.15
605.34	51.49
605.49	28.09
605.65	88.94
605.80	0.00
605.96	79.58
606.12	84.26
606.27	70.22
606.43	39.79
606.58	58.51
606.74	124.05
606.89	63.19
607.05	49.15
607.20	98.30
607.36	93.62
607.51	138.09
607.67	95.96
607.82	95.96
607.98	72.56
608.13	128.73
608.29	112.35
608.44	60.85
608.60	63.19
608.75	18.72
608.91	131.07
609.06	65.54
609.22	46.81
609.37	100.64
609.53	81.92
609.68	140.43
609.84	128.73
609.99	37.45
610.15	18.72
610.30	23.41
610.46	32.77
610.61	51.49
610.76	49.15
610.92	98.30
611.07	124.05
611.23	81.92
611.38	2.34
611.54	14.04
611.69	95.96
611.84	53.83
612.00	51.49
612.15	70.22
612.31	86.60
612.46	70.22
612.62	112.35
612.77	84.26
612.92	67.88
613.08	112.35
613.23	107.66
613.39	91.28
613.54	114.69
613.69	77.24
613.85	133.41
614.00	74.90
614.15	53.83
614.31	14.04
614.46	0.00
614.62	16.38
614.77	81.92
614.92	16.38
615.08	25.75
615.23	88.94
615.38	53.83
615.54	74.90
615.69	95.96
615.84	124.05
616.00	95.96
616.15	14.04
616.30	102.98
616.46	35.11
616.61	53.83
616.76	70.22
616.92	112.35
617.07	81.92
617.22	60.85
617.37	16.38
617.53	119.37
617.68	60.85
617.83	58.51
617.99	21.06
618.14	46.81
618.29	114.69
618.45	14.04
618.60	67.88
618.75	77.24
618.90	63.19
619.06	25.75
619.21	72.56
619.36	154.48
619.51	79.58
619.67	9.36
619.82	110.01
619.97	91.28
620.12	93.62
620.28	135.75
620.43	98.30
620.58	147.45
620.73	147.45
620.89	77.24
621.04	21.06
621.19	30.43
621.34	51.49
621.49	49.15
621.65	60.85
621.80	0.00
621.95	37.45
622.10	32.77
622.25	23.41
622.41	67.88
622.56	79.58
622.71	77.24
622.86	39.79
623.01	4.68
623.16	126.39
623.32	88.94
623.47	44.47
623.62	58.51
623.77	93.62
623.92	9.36
624.07	16.38
624.23	133.41
624.38	110.01
624.53	105.32
624.68	30.43
624.83	63.19
624.98	74.90
625.13	23.41
625.29	18.72
625.44	11.70
625.59	81.92
625.74	42.13
625.89	84.26
626.04	77.24
626.19	100.64
626.34	30.43
626.49	84.26
626.65	65.54
626.80	91.28
626.95	84.26
627.10	42.13
627.25	0.00
627.40	135.75
627.55	39.79
627.70	91.28
627.85	16.38
628.00	11.70
628.15	81.92
628.30	70.22
628.45	65.54
628.60	44.47
628.76	105.32
628.91	14.04
629.06	110.01
629.21	72.56
629.36	58.51
629.51	63.19
629.66	25.75
629.81	63.19
629.96	49.15
630.11	42.13
630.26	126.39
630.41	138.09
630.56	49.15
630.71	60.85
630.86	58.51
631.01	23.41
631.16	0.00
631.31	77.24
631.46	23.41
631.61	49.15
631.76	79.58
631.91	65.54
632.06	51.49
632.21	18.72
632.36	67.88
632.51	121.71
632.66	16.38
632.81	0.00
632.96	67.88
633.10	72.56
633.25	49.15
633.40	0.00
633.55	133.41
633.70	49.15
633.85	117.03
634.00	63.19
634.15	70.22
634.30	88.94
634.45	53.83
634.60	58.51
634.75	145.11
634.90	44.47
635.05	37.45
635.19	9.36
635.34	51.49
635.49	98.30
635.64	21.06
635.79	60.85
635.94	53.83
636.09	74.90
636.24	16.38
636.39	0.00
636.53	56.17
636.68	74.90
636.83	60.85
636.98	159.16
637.13	46.81
637.28	46.81
637.43	110.01
637.57	100.64
637.72	0.00
637.87	53.83
638.02	79.58
638.17	95.96
638.32	37.45
638.46	25.75
638.61	14.04
638.76	84.26
638.91	93.62
639.06	37.45
639.20	88.94
639.35	67.88
639.50	0.00
639.65	74.90
639.80	88.94
639.94	70.22
640.09	74.90
640.24	112.35
640.39	60.85
640.54	42.13
640.68	84.26
640.83	39.79
640.98	35.11
641.13	44.47
641.27	63.19
641.42	0.00
641.57	152.13
641.72	63.19
641.86	46.81
642.01	114.69
642.16	51.49
642.31	58.51
642.45	110.01
642.60	107.66
642.75	28.09
642.90	98.30
643.04	0.00
643.19	67.88
643.34	100.64
643.48	124.05
643.63	4.68
643.78	100.64
643.93	39.79
644.07	98.30
644.22	70.22
644.37	142.77
644.51	51.49
644.66	70.22
644.81	67.88
644.95	65.54
645.10	49.15
645.25	70.22
645.39	44.47
645.54	81.92
645.69	74.90
645.83	32.77
645.98	42.13
646.13	65.54
646.27	67.88
646.42	35.11
646.57	67.88
646.71	46.81
646.86	0.00
647.00	14.04
647.15	63.19
647.30	49.15
647.44	9.36
647.59	0.00
647.74	84.26
647.88	18.72
648.03	0.00
648.17	98.30
648.32	53.83
648.47	16.38
648.61	67.88
648.76	72.56
648.90	25.75
649.05	0.00
649.20	42.13
649.34	21.06
649.49	56.17
649.63	58.51
649.78	16.38
649.92	30.43
650.07	35.11
650.21	30.43
650.36	51.49
650.51	128.73
650.65	128.73
650.80	88.94
650.94	25.75
651.09	60.85
651.23	42.13
651.38	70.22
651.52	16.38
651.67	28.09
651.81	112.35
651.96	49.15
652.10	23.41
652.25	56.17
652.39	77.24
652.54	70.22
652.68	0.00
652.83	121.71
652.97	49.15
653.12	65.54
653.26	126.39
653.41	30.43
653.55	77.24
653.70	0.00
653.84	53.83
653.99	44.47
654.13	23.41
654.27	21.06
654.42	37.45
654.56	51.49
654.71	114.69
654.85	30.43
655.00	49.15
655.14	84.26
655.29	131.07
655.43	18.72
655.57	9.36
655.72	0.00
655.86	67.88
656.01	9.36
656.15	46.81
656.30	70.22
656.44	9.36
656.58	65.54
656.73	63.19
656.87	51.49
657.01	58.51
657.16	60.85
657.30	81.92
657.45	0.00
657.59	72.56
657.73	0.00
657.88	0.00
658.02	105.32
658.16	51.49
658.31	0.00
658.45	70.22
658.60	16.38
658.74	42.13
658.88	30.43
659.03	9.36
659.17	51.49
659.31	28.09
659.46	88.94
659.60	23.41
659.74	21.06
659.89	63.19
660.03	67.88
660.17	77.24
660.32	67.88
660.46	56.17
660.60	124.05
660.74	0.00
660.89	35.11
661.03	107.66
661.17	0.00
661.32	95.96
661.46	9.36
661.60	23.41
661.74	110.01
661.89	88.94
662.03	0.00
662.17	23.41
662.31	9.36
662.46	110.01
662.60	0.00
662.74	25.75
662.88	95.96
663.03	42.13
663.17	98.30
663.31	105.32
663.45	60.85
663.60	4.68
663.74	77.24
663.88	9.36
664.02	51.49
664.17	28.09
664.31	105.32
664.45	9.36
664.59	79.58
664.73	18.72
664.88	35.11
665.02	58.51
665.16	74.90
665.30	91.28
665.44	53.83
665.59	51.49
665.73	39.79
665.87	86.60
666.01	0.00
666.15	0.00
666.29	63.19
666.44	58.51
666.58	117.03
666.72	86.60
666.86	84.26
667.00	102.98
667.14	133.41
667.28	86.60
667.43	9.36
667.57	88.94
667.71	65.54
667.85	79.58
667.99	126.39
668.13	156.82
668.27	44.47
668.41	39.79
668.56	18.72
668.70	70.22
668.84	28.09
668.98	30.43
669.12	42.13
669.26	42.13
669.40	121.71
669.54	23.41
669.68	112.35
669.82	107.66
669.96	65.54
670.10	77.24
670.25	0.00
670.39	25.75
670.53	23.41
670.67	42.13
670.81	133.41
670.95	84.26
671.09	23.41
671.23	88.94
671.37	91.28
671.51	49.15
671.65	16.38
671.79	0.00
671.93	58.51
672.07	79.58
672.21	60.85
672.35	84.26
672.49	53.83
672.63	70.22
672.77	112.35
672.91	28.09
673.05	102.98
673.19	49.15
673.33	102.98
673.47	65.54
673.61	23.41
673.75	42.13
673.89	9.36
674.03	7.02
674.17	65.54
674.31	37.45
674.45	0.00
674.59	7.02
674.73	105.32
674.87	37.45
675.01	63.19
675.15	0.00
675.29	16.38
675.43	30.43
675.56	46.81
675.70	63.19
675.84	79.58
675.98	100.64
676.12	81.92
676.26	0.00
676.40	0.00
676.54	72.56
676.68	100.64
676.82	53.83
676.96	4.68
677.10	2.34
677.23	7.02
677.37	60.85
677.51	65.54
677.65	51.49
677.79	30.43
677.93	56.17
678.07	0.00
678.21	53.83
678.34	72.56
678.48	51.49
678.62	58.51
678.76	7.02
678.90	77.24
679.04	51.49
679.18	0.00
679.31	0.00
679.45	16.38
679.59	0.00
679.73	35.11
679.87	58.51
680.00	0.00
680.14	16.38
680.28	72.56
680.42	25.75
680.56	18.72
680.70	77.24
680.83	28.09
680.97	39.79
681.11	74.90
681.25	67.88
681.39	58.51
681.52	28.09
681.66	44.47
681.80	65.54
681.94	51.49
682.07	49.15
682.21	28.09
682.35	70.22
682.49	65.54
682.62	98.30
682.76	60.85
682.90	42.13
683.04	42.13
683.17	14.04
683.31	0.00
683.45	142.77
683.59	0.00
683.72	0.00
683.86	0.00
684.00	53.83
684.13	67.88
684.27	4.68
684.41	49.15
684.55	23.41
684.68	9.36
684.82	60.85
684.96	42.13
685.09	28.09
685.23	23.41
685.37	28.09
685.50	0.00
685.64	67.88
685.78	28.09
685.91	102.98
686.05	37.45
686.19	0.00
686.32	88.94
686.46	102.98
686.60	16.38
686.73	74.90
686.87	49.15
687.01	72.56
687.14	49.15
687.28	35.11
687.42	23.41
687.55	0.00
687.69	0.00
687.82	32.77
687.96	67.88
688.10	140.43
688.23	18.72
688.37	28.09
688.50	11.70
688.64	70.22
688.78	58.51
688.91	32.77
689.05	7.02
689.18	18.72
689.32	112.35
689.46	25.75
689.59	133.41
689.73	49.15
689.86	72.56
690.00	84.26
690.13	0.00
690.27	60.85
690.41	56.17
690.54	74.90
690.68	37.45
690.81	0.00
690.95	0.00
691.08	39.79
691.22	56.17
691.35	0.00
691.49	28.09
691.62	53.83
691.76	18.72
691.89	16.38
692.03	63.19
692.16	35.11
692.30	44.47
692.43	37.45
692.57	84.26
692.70	18.72
692.84	14.04
692.97	21.06
693.11	7.02
693.24	70.22
693.38	0.00
693.51	0.00
693.65	4.68
693.78	32.77
693.92	56.17
694.05	70.22
694.19	42.13
694.32	2.34
694.45	77.24
694.59	110.01
694.72	114.69
694.86	37.45
694.99	4.68
695.13	7.02
695.26	46.81
695.39	37.45
695.53	46.81
695.66	42.13
695.80	42.13
695.93	0.00
696.07	0.00
696.20	79.58
696.33	56.17
696.47	0.00
696.60	0.00
696.73	0.00
696.87	53.83
697.00	18.72
697.14	32.77
697.27	51.49
697.40	23.41
697.54	53.83
697.67	37.45
697.80	46.81
697.94	39.79
698.07	91.28
698.21	49.15
698.34	0.00
698.47	37.45
698.61	7.02
698.74	21.06
698.87	58.51
699.01	77.24
699.14	23.41
699.27	18.72
699.40	56.17
699.54	21.06
699.67	16.38
699.80	0.00
699.94	39.79
700.07	63.19
700.20	0.00
700.34	7.02
700.47	63.19
700.60	49.15
700.73	28.09
700.87	60.85
701.00	7.02
701.13	39.79
701.26	65.54
701.40	65.54
701.53	0.00
701.66	91.28
701.79	60.85
701.93	58.51
702.06	77.24
702.19	0.00
702.32	53.83
702.46	138.09
702.59	32.77
702.72	49.15
702.85	39.79
702.99	0.00
703.12	67.88
703.25	51.49
703.38	49.15
703.51	77.24
703.65	149.79
703.78	18.72
703.91	0.00
704.04	0.00
704.17	84.26
704.31	46.81
704.44	39.79
704.57	32.77
704.70	0.00
704.83	42.13
704.96	30.43
705.10	49.15
705.23	119.37
>>>>>End Processed Spectral Data<<<<<
