SpectraSuite Data File
++++++++++++++++++++++++++++++++++++
Date: Fri Oct 04 12:13:41 GMT-05:00 2013
User: price-jones
Dark Spectrum Present: No
Reference Spectrum Present: No
Number of Sampled Component Spectra: 1
Spectrometers: USB2+H05261
Integration Time (usec): 10000 (USB2+H05261)
Spectra Averaged: 1 (USB2+H05261)
Boxcar Smoothing: 0 (USB2+H05261)
Correct for Electrical Dark: No (USB2+H05261)
Strobe/Lamp Enabled: No (USB2+H05261)
Correct for Detector Non-linearity: No (USB2+H05261)
Correct for Stray Light: No (USB2+H05261)
Number of Pixels in Processed Spectrum: 2048
>>>>>Begin Processed Spectral Data<<<<<
365.73	0.00
365.92	0.00
366.12	0.00
366.32	0.00
366.52	0.00
366.72	0.00
366.91	0.00
367.11	0.00
367.31	0.00
367.51	0.00
367.70	0.00
367.90	0.00
368.10	0.00
368.30	0.00
368.49	0.00
368.69	0.00
368.89	0.00
369.09	0.00
369.28	0.00
369.48	0.00
369.68	0.00
369.87	0.00
370.07	0.00
370.27	0.00
370.47	0.00
370.66	0.00
370.86	0.00
371.06	0.00
371.25	0.00
371.45	4.68
371.65	0.00
371.84	0.00
372.04	0.00
372.24	0.00
372.44	0.00
372.63	0.00
372.83	21.06
373.03	18.72
373.22	88.94
373.42	2.34
373.62	32.77
373.81	28.09
374.01	11.70
374.21	23.41
374.40	65.54
374.60	21.06
374.79	14.04
374.99	58.51
375.19	70.22
375.38	72.56
375.58	0.00
375.78	39.79
375.97	0.00
376.17	0.00
376.37	25.75
376.56	93.62
376.76	58.51
376.95	25.75
377.15	0.00
377.35	14.04
377.54	4.68
377.74	58.51
377.93	7.02
378.13	0.00
378.33	74.90
378.52	23.41
378.72	0.00
378.91	30.43
379.11	25.75
379.31	110.01
379.50	14.04
379.70	0.00
379.89	16.38
380.09	70.22
380.28	58.51
380.48	28.09
380.68	0.00
380.87	7.02
381.07	0.00
381.26	0.00
381.46	0.00
381.65	0.00
381.85	95.96
382.04	0.00
382.24	0.00
382.43	0.00
382.63	0.00
382.83	79.58
383.02	18.72
383.22	4.68
383.41	0.00
383.61	2.34
383.80	32.77
384.00	28.09
384.19	42.13
384.39	51.49
384.58	67.88
384.78	0.00
384.97	56.17
385.17	30.43
385.36	0.00
385.56	23.41
385.75	32.77
385.95	16.38
386.14	0.00
386.34	2.34
386.53	35.11
386.72	51.49
386.92	7.02
387.11	0.00
387.31	63.19
387.50	35.11
387.70	25.75
387.89	30.43
388.09	0.00
388.28	0.00
388.48	51.49
388.67	46.81
388.86	11.70
389.06	37.45
389.25	39.79
389.45	63.19
389.64	11.70
389.84	51.49
390.03	18.72
390.22	53.83
390.42	49.15
390.61	18.72
390.81	37.45
391.00	42.13
391.19	23.41
391.39	7.02
391.58	23.41
391.78	81.92
391.97	0.00
392.16	14.04
392.36	0.00
392.55	0.00
392.75	0.00
392.94	32.77
393.13	39.79
393.33	28.09
393.52	42.13
393.71	0.00
393.91	58.51
394.10	2.34
394.29	23.41
394.49	0.00
394.68	28.09
394.88	100.64
395.07	49.15
395.26	14.04
395.46	0.00
395.65	32.77
395.84	74.90
396.04	21.06
396.23	11.70
396.42	65.54
396.62	84.26
396.81	58.51
397.00	0.00
397.19	9.36
397.39	39.79
397.58	23.41
397.77	44.47
397.97	84.26
398.16	65.54
398.35	21.06
398.55	18.72
398.74	37.45
398.93	0.00
399.12	95.96
399.32	35.11
399.51	16.38
399.70	7.02
399.90	0.00
400.09	18.72
400.28	42.13
400.47	72.56
400.67	74.90
400.86	39.79
401.05	18.72
401.24	117.03
401.44	32.77
401.63	56.17
401.82	51.49
402.01	58.51
402.21	18.72
402.40	0.00
402.59	0.00
402.78	2.34
402.97	0.00
403.17	56.17
403.36	42.13
403.55	30.43
403.74	0.00
403.93	4.68
404.13	23.41
404.32	46.81
404.51	60.85
404.70	0.00
404.89	63.19
405.09	18.72
405.28	67.88
405.47	39.79
405.66	77.24
405.85	53.83
406.05	37.45
406.24	16.38
406.43	0.00
406.62	32.77
406.81	37.45
407.00	77.24
407.20	0.00
407.39	79.58
407.58	14.04
407.77	18.72
407.96	67.88
408.15	39.79
408.34	0.00
408.54	7.02
408.73	49.15
408.92	65.54
409.11	0.00
409.30	44.47
409.49	84.26
409.68	16.38
409.87	63.19
410.07	67.88
410.26	2.34
410.45	56.17
410.64	51.49
410.83	0.00
411.02	37.45
411.21	51.49
411.40	77.24
411.59	21.06
411.78	42.13
411.98	25.75
412.17	0.00
412.36	23.41
412.55	72.56
412.74	32.77
412.93	35.11
413.12	60.85
413.31	63.19
413.50	0.00
413.69	0.00
413.88	84.26
414.07	18.72
414.26	0.00
414.45	114.69
414.64	30.43
414.83	4.68
415.02	93.62
415.22	28.09
415.41	105.32
415.60	9.36
415.79	70.22
415.98	63.19
416.17	107.66
416.36	4.68
416.55	0.00
416.74	23.41
416.93	0.00
417.12	30.43
417.31	28.09
417.50	0.00
417.69	25.75
417.88	58.51
418.07	105.32
418.26	37.45
418.45	65.54
418.64	60.85
418.83	93.62
419.02	119.37
419.21	88.94
419.39	14.04
419.58	60.85
419.77	67.88
419.96	70.22
420.15	42.13
420.34	49.15
420.53	0.00
420.72	0.00
420.91	25.75
421.10	7.02
421.29	0.00
421.48	74.90
421.67	28.09
421.86	28.09
422.05	9.36
422.24	18.72
422.43	65.54
422.61	30.43
422.80	4.68
422.99	28.09
423.18	105.32
423.37	35.11
423.56	56.17
423.75	56.17
423.94	39.79
424.13	72.56
424.32	0.00
424.50	53.83
424.69	98.30
424.88	9.36
425.07	0.00
425.26	88.94
425.45	9.36
425.64	56.17
425.83	4.68
426.01	0.00
426.20	70.22
426.39	117.03
426.58	49.15
426.77	0.00
426.96	18.72
427.15	56.17
427.33	86.60
427.52	14.04
427.71	14.04
427.90	51.49
428.09	32.77
428.28	44.47
428.46	51.49
428.65	93.62
428.84	86.60
429.03	117.03
429.22	28.09
429.40	0.00
429.59	0.00
429.78	39.79
429.97	25.75
430.16	4.68
430.34	39.79
430.53	23.41
430.72	65.54
430.91	42.13
431.10	0.00
431.28	56.17
431.47	25.75
431.66	0.00
431.85	84.26
432.03	56.17
432.22	32.77
432.41	70.22
432.60	58.51
432.79	30.43
432.97	0.00
433.16	95.96
433.35	42.13
433.54	56.17
433.72	105.32
433.91	42.13
434.10	72.56
434.28	21.06
434.47	67.88
434.66	46.81
434.85	28.09
435.03	28.09
435.22	63.19
435.41	28.09
435.59	58.51
435.78	58.51
435.97	35.11
436.16	53.83
436.34	56.17
436.53	37.45
436.72	77.24
436.90	21.06
437.09	79.58
437.28	4.68
437.46	30.43
437.65	0.00
437.84	60.85
438.02	2.34
438.21	2.34
438.40	11.70
438.58	0.00
438.77	9.36
438.96	56.17
439.14	0.00
439.33	16.38
439.52	53.83
439.70	91.28
439.89	63.19
440.08	60.85
440.26	30.43
440.45	67.88
440.63	18.72
440.82	49.15
441.01	53.83
441.19	46.81
441.38	46.81
441.57	16.38
441.75	32.77
441.94	65.54
442.12	93.62
442.31	53.83
442.50	102.98
442.68	63.19
442.87	35.11
443.05	18.72
443.24	86.60
443.43	0.00
443.61	74.90
443.80	72.56
443.98	60.85
444.17	79.58
444.35	81.92
444.54	91.28
444.73	37.45
444.91	105.32
445.10	79.58
445.28	37.45
445.47	46.81
445.65	84.26
445.84	86.60
446.02	53.83
446.21	9.36
446.39	58.51
446.58	105.32
446.77	28.09
446.95	16.38
447.14	44.47
447.32	65.54
447.51	102.98
447.69	18.72
447.88	2.34
448.06	0.00
448.25	114.69
448.43	35.11
448.62	0.00
448.80	35.11
448.99	112.35
449.17	58.51
449.36	18.72
449.54	65.54
449.73	58.51
449.91	37.45
450.10	67.88
450.28	56.17
450.46	79.58
450.65	30.43
450.83	81.92
451.02	0.00
451.20	60.85
451.39	53.83
451.57	51.49
451.76	28.09
451.94	67.88
452.13	0.00
452.31	23.41
452.49	51.49
452.68	39.79
452.86	32.77
453.05	74.90
453.23	60.85
453.42	107.66
453.60	49.15
453.78	35.11
453.97	16.38
454.15	4.68
454.34	53.83
454.52	0.00
454.70	117.03
454.89	84.26
455.07	65.54
455.26	70.22
455.44	46.81
455.62	23.41
455.81	37.45
455.99	56.17
456.17	11.70
456.36	25.75
456.54	21.06
456.73	79.58
456.91	21.06
457.09	72.56
457.28	72.56
457.46	65.54
457.64	119.37
457.83	65.54
458.01	25.75
458.19	81.92
458.38	102.98
458.56	14.04
458.74	37.45
458.93	63.19
459.11	25.75
459.29	98.30
459.48	84.26
459.66	0.00
459.84	4.68
460.03	58.51
460.21	58.51
460.39	79.58
460.57	0.00
460.76	2.34
460.94	14.04
461.12	114.69
461.31	32.77
461.49	100.64
461.67	86.60
461.85	79.58
462.04	49.15
462.22	60.85
462.40	107.66
462.59	107.66
462.77	105.32
462.95	114.69
463.13	44.47
463.32	0.00
463.50	93.62
463.68	58.51
463.86	7.02
464.05	117.03
464.23	11.70
464.41	117.03
464.59	112.35
464.78	28.09
464.96	39.79
465.14	114.69
465.32	112.35
465.50	119.37
465.69	63.19
465.87	28.09
466.05	105.32
466.23	67.88
466.41	60.85
466.60	21.06
466.78	11.70
466.96	112.35
467.14	56.17
467.32	88.94
467.51	7.02
467.69	81.92
467.87	77.24
468.05	0.00
468.23	60.85
468.41	95.96
468.60	46.81
468.78	58.51
468.96	159.16
469.14	74.90
469.32	49.15
469.50	65.54
469.69	23.41
469.87	23.41
470.05	91.28
470.23	35.11
470.41	49.15
470.59	18.72
470.77	42.13
470.95	84.26
471.14	72.56
471.32	100.64
471.50	49.15
471.68	0.00
471.86	100.64
472.04	14.04
472.22	81.92
472.40	25.75
472.58	39.79
472.77	60.85
472.95	63.19
473.13	11.70
473.31	95.96
473.49	58.51
473.67	35.11
473.85	39.79
474.03	21.06
474.21	9.36
474.39	42.13
474.57	46.81
474.75	46.81
474.93	14.04
475.12	58.51
475.30	42.13
475.48	79.58
475.66	39.79
475.84	65.54
476.02	70.22
476.20	49.15
476.38	53.83
476.56	77.24
476.74	79.58
476.92	84.26
477.10	0.00
477.28	163.84
477.46	37.45
477.64	44.47
477.82	14.04
478.00	28.09
478.18	51.49
478.36	25.75
478.54	46.81
478.72	84.26
478.90	53.83
479.08	60.85
479.26	49.15
479.44	74.90
479.62	98.30
479.80	46.81
479.98	37.45
480.16	37.45
480.34	117.03
480.52	14.04
480.70	91.28
480.88	133.41
481.06	100.64
481.24	126.39
481.41	51.49
481.59	56.17
481.77	65.54
481.95	72.56
482.13	16.38
482.31	110.01
482.49	138.09
482.67	58.51
482.85	35.11
483.03	56.17
483.21	0.00
483.39	86.60
483.57	7.02
483.74	0.00
483.92	23.41
484.10	58.51
484.28	32.77
484.46	46.81
484.64	0.00
484.82	72.56
485.00	84.26
485.18	117.03
485.35	0.00
485.53	30.43
485.71	7.02
485.89	30.43
486.07	81.92
486.25	28.09
486.43	93.62
486.61	44.47
486.78	88.94
486.96	107.66
487.14	110.01
487.32	145.11
487.50	58.51
487.68	25.75
487.85	100.64
488.03	28.09
488.21	91.28
488.39	112.35
488.57	86.60
488.75	70.22
488.92	39.79
489.10	84.26
489.28	126.39
489.46	60.85
489.64	0.00
489.81	63.19
489.99	65.54
490.17	72.56
490.35	110.01
490.53	117.03
490.70	91.28
490.88	65.54
491.06	84.26
491.24	93.62
491.41	11.70
491.59	98.30
491.77	65.54
491.95	60.85
492.13	105.32
492.30	81.92
492.48	135.75
492.66	60.85
492.84	105.32
493.01	37.45
493.19	140.43
493.37	81.92
493.54	67.88
493.72	58.51
493.90	44.47
494.08	16.38
494.25	88.94
494.43	119.37
494.61	98.30
494.79	44.47
494.96	56.17
495.14	21.06
495.32	32.77
495.49	58.51
495.67	65.54
495.85	86.60
496.02	63.19
496.20	58.51
496.38	86.60
496.55	37.45
496.73	100.64
496.91	126.39
497.09	112.35
497.26	100.64
497.44	77.24
497.62	72.56
497.79	11.70
497.97	102.98
498.14	91.28
498.32	135.75
498.50	117.03
498.67	135.75
498.85	77.24
499.03	14.04
499.20	105.32
499.38	51.49
499.56	70.22
499.73	77.24
499.91	32.77
500.08	70.22
500.26	72.56
500.44	23.41
500.61	72.56
500.79	74.90
500.97	63.19
501.14	35.11
501.32	135.75
501.49	81.92
501.67	58.51
501.84	32.77
502.02	100.64
502.20	65.54
502.37	119.37
502.55	170.86
502.72	70.22
502.90	42.13
503.07	91.28
503.25	72.56
503.43	42.13
503.60	79.58
503.78	95.96
503.95	25.75
504.13	37.45
504.30	60.85
504.48	133.41
504.65	49.15
504.83	98.30
505.01	140.43
505.18	84.26
505.36	84.26
505.53	154.48
505.71	84.26
505.88	126.39
506.06	72.56
506.23	131.07
506.41	86.60
506.58	67.88
506.76	67.88
506.93	77.24
507.11	95.96
507.28	67.88
507.46	102.98
507.63	58.51
507.81	121.71
507.98	7.02
508.16	88.94
508.33	121.71
508.50	42.13
508.68	70.22
508.85	88.94
509.03	63.19
509.20	53.83
509.38	28.09
509.55	117.03
509.73	119.37
509.90	25.75
510.08	88.94
510.25	84.26
510.42	65.54
510.60	107.66
510.77	93.62
510.95	44.47
511.12	114.69
511.30	63.19
511.47	86.60
511.64	16.38
511.82	91.28
511.99	77.24
512.17	114.69
512.34	37.45
512.51	42.13
512.69	49.15
512.86	56.17
513.04	46.81
513.21	56.17
513.38	88.94
513.56	74.90
513.73	77.24
513.90	74.90
514.08	152.13
514.25	67.88
514.43	112.35
514.60	138.09
514.77	14.04
514.95	135.75
515.12	63.19
515.29	93.62
515.47	74.90
515.64	131.07
515.81	95.96
515.99	163.84
516.16	72.56
516.33	46.81
516.51	63.19
516.68	28.09
516.85	65.54
517.03	135.75
517.20	88.94
517.37	60.85
517.54	88.94
517.72	51.49
517.89	105.32
518.06	60.85
518.24	91.28
518.41	91.28
518.58	79.58
518.75	95.96
518.93	25.75
519.10	100.64
519.27	84.26
519.45	112.35
519.62	133.41
519.79	86.60
519.96	138.09
520.14	86.60
520.31	102.98
520.48	65.54
520.65	37.45
520.83	95.96
521.00	121.71
521.17	105.32
521.34	23.41
521.52	105.32
521.69	128.73
521.86	74.90
522.03	159.16
522.20	107.66
522.38	23.41
522.55	142.77
522.72	93.62
522.89	98.30
523.07	131.07
523.24	65.54
523.41	180.22
523.58	145.11
523.75	51.49
523.92	74.90
524.10	124.05
524.27	84.26
524.44	84.26
524.61	58.51
524.78	46.81
524.96	74.90
525.13	100.64
525.30	81.92
525.47	112.35
525.64	110.01
525.81	42.13
525.98	63.19
526.16	131.07
526.33	51.49
526.50	51.49
526.67	44.47
526.84	14.04
527.01	93.62
527.18	93.62
527.36	67.88
527.53	133.41
527.70	77.24
527.87	102.98
528.04	88.94
528.21	39.79
528.38	51.49
528.55	72.56
528.72	63.19
528.89	74.90
529.07	114.69
529.24	86.60
529.41	93.62
529.58	112.35
529.75	126.39
529.92	98.30
530.09	112.35
530.26	65.54
530.43	81.92
530.60	110.01
530.77	56.17
530.94	23.41
531.11	63.19
531.28	63.19
531.46	81.92
531.63	79.58
531.80	110.01
531.97	112.35
532.14	0.00
532.31	70.22
532.48	107.66
532.65	42.13
532.82	65.54
532.99	58.51
533.16	133.41
533.33	95.96
533.50	46.81
533.67	107.66
533.84	93.62
534.01	121.71
534.18	105.32
534.35	135.75
534.52	102.98
534.69	117.03
534.86	142.77
535.03	121.71
535.20	42.13
535.37	98.30
535.54	58.51
535.71	53.83
535.88	107.66
536.05	142.77
536.22	86.60
536.38	126.39
536.55	131.07
536.72	56.17
536.89	56.17
537.06	88.94
537.23	42.13
537.40	88.94
537.57	138.09
537.74	74.90
537.91	161.50
538.08	102.98
538.25	37.45
538.42	131.07
538.59	0.00
538.75	110.01
538.92	70.22
539.09	91.28
539.26	93.62
539.43	67.88
539.60	70.22
539.77	79.58
539.94	70.22
540.11	0.00
540.28	37.45
540.44	70.22
540.61	39.79
540.78	67.88
540.95	0.00
541.12	140.43
541.29	93.62
541.46	138.09
541.62	72.56
541.79	77.24
541.96	114.69
542.13	39.79
542.30	135.75
542.47	86.60
542.63	133.41
542.80	30.43
542.97	133.41
543.14	112.35
543.31	107.66
543.48	100.64
543.64	128.73
543.81	135.75
543.98	88.94
544.15	102.98
544.32	91.28
544.48	42.13
544.65	102.98
544.82	58.51
544.99	100.64
545.16	117.03
545.32	58.51
545.49	93.62
545.66	30.43
545.83	131.07
546.00	72.56
546.16	30.43
546.33	152.13
546.50	86.60
546.67	105.32
546.83	112.35
547.00	81.92
547.17	0.00
547.34	88.94
547.50	124.05
547.67	98.30
547.84	39.79
548.00	67.88
548.17	30.43
548.34	84.26
548.51	88.94
548.67	86.60
548.84	107.66
549.01	121.71
549.18	77.24
549.34	100.64
549.51	112.35
549.68	142.77
549.84	107.66
550.01	28.09
550.18	67.88
550.34	170.86
550.51	88.94
550.68	93.62
550.84	21.06
551.01	35.11
551.18	121.71
551.34	56.17
551.51	60.85
551.68	42.13
551.84	117.03
552.01	2.34
552.18	18.72
552.34	93.62
552.51	86.60
552.68	140.43
552.84	100.64
553.01	88.94
553.18	98.30
553.34	88.94
553.51	140.43
553.67	81.92
553.84	110.01
554.01	114.69
554.17	39.79
554.34	117.03
554.51	84.26
554.67	114.69
554.84	86.60
555.00	107.66
555.17	86.60
555.33	93.62
555.50	107.66
555.67	60.85
555.83	63.19
556.00	9.36
556.16	114.69
556.33	91.28
556.50	67.88
556.66	60.85
556.83	56.17
556.99	72.56
557.16	152.13
557.32	53.83
557.49	60.85
557.65	88.94
557.82	21.06
557.98	100.64
558.15	7.02
558.32	30.43
558.48	60.85
558.65	63.19
558.81	154.48
558.98	93.62
559.14	60.85
559.31	42.13
559.47	49.15
559.64	81.92
559.80	56.17
559.97	117.03
560.13	72.56
560.30	0.00
560.46	95.96
560.63	114.69
560.79	112.35
560.96	70.22
561.12	117.03
561.29	100.64
561.45	74.90
561.61	138.09
561.78	32.77
561.94	166.18
562.11	91.28
562.27	126.39
562.44	56.17
562.60	142.77
562.77	72.56
562.93	114.69
563.10	53.83
563.26	42.13
563.42	138.09
563.59	67.88
563.75	86.60
563.92	140.43
564.08	32.77
564.24	74.90
564.41	105.32
564.57	117.03
564.74	49.15
564.90	53.83
565.07	86.60
565.23	91.28
565.39	100.64
565.56	112.35
565.72	112.35
565.88	121.71
566.05	84.26
566.21	119.37
566.38	126.39
566.54	25.75
566.70	140.43
566.87	124.05
567.03	119.37
567.19	133.41
567.36	21.06
567.52	77.24
567.68	0.00
567.85	84.26
568.01	93.62
568.17	112.35
568.34	102.98
568.50	154.48
568.66	58.51
568.83	77.24
568.99	49.15
569.15	98.30
569.32	58.51
569.48	46.81
569.64	42.13
569.81	110.01
569.97	110.01
570.13	145.11
570.30	86.60
570.46	135.75
570.62	98.30
570.78	145.11
570.95	131.07
571.11	105.32
571.27	56.17
571.43	74.90
571.60	77.24
571.76	63.19
571.92	39.79
572.09	93.62
572.25	37.45
572.41	58.51
572.57	100.64
572.74	2.34
572.90	18.72
573.06	65.54
573.22	39.79
573.38	93.62
573.55	72.56
573.71	23.41
573.87	93.62
574.03	88.94
574.20	70.22
574.36	37.45
574.52	88.94
574.68	72.56
574.84	60.85
575.01	84.26
575.17	93.62
575.33	18.72
575.49	86.60
575.65	135.75
575.82	81.92
575.98	37.45
576.14	95.96
576.30	159.16
576.46	107.66
576.62	0.00
576.79	39.79
576.95	51.49
577.11	84.26
577.27	30.43
577.43	65.54
577.59	156.82
577.75	91.28
577.92	39.79
578.08	72.56
578.24	14.04
578.40	56.17
578.56	67.88
578.72	37.45
578.88	98.30
579.04	63.19
579.21	0.00
579.37	91.28
579.53	65.54
579.69	105.32
579.85	93.62
580.01	67.88
580.17	93.62
580.33	51.49
580.49	84.26
580.65	107.66
580.82	88.94
580.98	60.85
581.14	72.56
581.30	102.98
581.46	86.60
581.62	18.72
581.78	67.88
581.94	102.98
582.10	67.88
582.26	67.88
582.42	56.17
582.58	135.75
582.74	42.13
582.90	102.98
583.06	53.83
583.22	67.88
583.38	70.22
583.54	84.26
583.70	79.58
583.86	147.45
584.02	21.06
584.18	114.69
584.34	93.62
584.50	32.77
584.66	46.81
584.82	16.38
584.98	79.58
585.14	60.85
585.30	23.41
585.46	65.54
585.62	124.05
585.78	14.04
585.94	37.45
586.10	30.43
586.26	21.06
586.42	117.03
586.58	23.41
586.74	70.22
586.90	98.30
587.06	121.71
587.22	49.15
587.38	95.96
587.54	81.92
587.70	131.07
587.86	2.34
588.02	39.79
588.18	74.90
588.34	84.26
588.49	58.51
588.65	98.30
588.81	39.79
588.97	95.96
589.13	39.79
589.29	2.34
589.45	0.00
589.61	42.13
589.77	86.60
589.93	53.83
590.08	65.54
590.24	102.98
590.40	135.75
590.56	72.56
590.72	56.17
590.88	49.15
591.04	72.56
591.20	74.90
591.35	84.26
591.51	56.17
591.67	4.68
591.83	42.13
591.99	56.17
592.15	11.70
592.31	121.71
592.46	74.90
592.62	46.81
592.78	58.51
592.94	114.69
593.10	21.06
593.26	37.45
593.41	74.90
593.57	126.39
593.73	4.68
593.89	107.66
594.05	58.51
594.20	60.85
594.36	102.98
594.52	35.11
594.68	21.06
594.84	0.00
594.99	16.38
595.15	60.85
595.31	21.06
595.47	70.22
595.62	95.96
595.78	35.11
595.94	53.83
596.10	79.58
596.25	81.92
596.41	81.92
596.57	16.38
596.73	60.85
596.88	58.51
597.04	16.38
597.20	117.03
597.36	100.64
597.51	56.17
597.67	11.70
597.83	60.85
597.99	121.71
598.14	84.26
598.30	88.94
598.46	28.09
598.61	65.54
598.77	0.00
598.93	46.81
599.09	98.30
599.24	86.60
599.40	100.64
599.56	110.01
599.71	117.03
599.87	102.98
600.03	0.00
600.18	49.15
600.34	30.43
600.50	98.30
600.65	102.98
600.81	56.17
600.97	63.19
601.12	9.36
601.28	88.94
601.44	49.15
601.59	49.15
601.75	35.11
601.91	95.96
602.06	4.68
602.22	119.37
602.37	107.66
602.53	44.47
602.69	79.58
602.84	51.49
603.00	117.03
603.16	70.22
603.31	42.13
603.47	93.62
603.62	9.36
603.78	91.28
603.94	79.58
604.09	14.04
604.25	60.85
604.40	58.51
604.56	53.83
604.71	156.82
604.87	79.58
605.03	102.98
605.18	84.26
605.34	0.00
605.49	74.90
605.65	49.15
605.80	72.56
605.96	37.45
606.12	84.26
606.27	72.56
606.43	81.92
606.58	93.62
606.74	102.98
606.89	56.17
607.05	23.41
607.20	117.03
607.36	32.77
607.51	0.00
607.67	79.58
607.82	25.75
607.98	145.11
608.13	77.24
608.29	114.69
608.44	37.45
608.60	49.15
608.75	65.54
608.91	114.69
609.06	60.85
609.22	58.51
609.37	70.22
609.53	79.58
609.68	121.71
609.84	114.69
609.99	110.01
610.15	16.38
610.30	0.00
610.46	100.64
610.61	161.50
610.76	46.81
610.92	42.13
611.07	110.01
611.23	44.47
611.38	84.26
611.54	112.35
611.69	84.26
611.84	42.13
612.00	60.85
612.15	63.19
612.31	46.81
612.46	117.03
612.62	0.00
612.77	39.79
612.92	58.51
613.08	46.81
613.23	124.05
613.39	67.88
613.54	39.79
613.69	63.19
613.85	100.64
614.00	72.56
614.15	74.90
614.31	42.13
614.46	102.98
614.62	105.32
614.77	0.00
614.92	67.88
615.08	67.88
615.23	93.62
615.38	70.22
615.54	79.58
615.69	0.00
615.84	63.19
616.00	56.17
616.15	112.35
616.30	81.92
616.46	46.81
616.61	2.34
616.76	77.24
616.92	119.37
617.07	79.58
617.22	84.26
617.37	88.94
617.53	72.56
617.68	56.17
617.83	70.22
617.99	72.56
618.14	72.56
618.29	49.15
618.45	39.79
618.60	46.81
618.75	84.26
618.90	42.13
619.06	44.47
619.21	7.02
619.36	42.13
619.51	25.75
619.67	42.13
619.82	67.88
619.97	67.88
620.12	93.62
620.28	74.90
620.43	51.49
620.58	79.58
620.73	70.22
620.89	77.24
621.04	44.47
621.19	0.00
621.34	105.32
621.49	67.88
621.65	91.28
621.80	98.30
621.95	51.49
622.10	58.51
622.25	152.13
622.41	147.45
622.56	88.94
622.71	42.13
622.86	77.24
623.01	11.70
623.16	114.69
623.32	23.41
623.47	51.49
623.62	18.72
623.77	16.38
623.92	0.00
624.07	25.75
624.23	37.45
624.38	67.88
624.53	63.19
624.68	21.06
624.83	0.00
624.98	98.30
625.13	35.11
625.29	0.00
625.44	28.09
625.59	105.32
625.74	58.51
625.89	93.62
626.04	102.98
626.19	107.66
626.34	28.09
626.49	39.79
626.65	74.90
626.80	37.45
626.95	23.41
627.10	67.88
627.25	18.72
627.40	81.92
627.55	9.36
627.70	70.22
627.85	0.00
628.00	79.58
628.15	70.22
628.30	86.60
628.45	0.00
628.60	7.02
628.76	107.66
628.91	114.69
629.06	53.83
629.21	77.24
629.36	84.26
629.51	25.75
629.66	42.13
629.81	32.77
629.96	35.11
630.11	102.98
630.26	100.64
630.41	51.49
630.56	30.43
630.71	53.83
630.86	86.60
631.01	11.70
631.16	16.38
631.31	42.13
631.46	23.41
631.61	58.51
631.76	65.54
631.91	77.24
632.06	56.17
632.21	44.47
632.36	46.81
632.51	110.01
632.66	67.88
632.81	119.37
632.96	77.24
633.10	84.26
633.25	53.83
633.40	4.68
633.55	0.00
633.70	74.90
633.85	79.58
634.00	23.41
634.15	72.56
634.30	42.13
634.45	51.49
634.60	23.41
634.75	114.69
634.90	95.96
635.05	79.58
635.19	79.58
635.34	14.04
635.49	65.54
635.64	9.36
635.79	39.79
635.94	46.81
636.09	131.07
636.24	4.68
636.39	53.83
636.53	0.00
636.68	102.98
636.83	42.13
636.98	93.62
637.13	30.43
637.28	138.09
637.43	42.13
637.57	11.70
637.72	23.41
637.87	81.92
638.02	0.00
638.17	70.22
638.32	51.49
638.46	138.09
638.61	32.77
638.76	79.58
638.91	86.60
639.06	21.06
639.20	70.22
639.35	56.17
639.50	46.81
639.65	25.75
639.80	112.35
639.94	114.69
640.09	60.85
640.24	67.88
640.39	42.13
640.54	86.60
640.68	39.79
640.83	60.85
640.98	131.07
641.13	49.15
641.27	112.35
641.42	77.24
641.57	65.54
641.72	46.81
641.86	32.77
642.01	84.26
642.16	110.01
642.31	67.88
642.45	53.83
642.60	35.11
642.75	11.70
642.90	51.49
643.04	53.83
643.19	56.17
643.34	49.15
643.48	60.85
643.63	110.01
643.78	32.77
643.93	56.17
644.07	70.22
644.22	37.45
644.37	107.66
644.51	63.19
644.66	58.51
644.81	81.92
644.95	25.75
645.10	60.85
645.25	67.88
645.39	51.49
645.54	63.19
645.69	72.56
645.83	0.00
645.98	135.75
646.13	53.83
646.27	0.00
646.42	7.02
646.57	30.43
646.71	117.03
646.86	135.75
647.00	112.35
647.15	95.96
647.30	60.85
647.44	7.02
647.59	63.19
647.74	32.77
647.88	119.37
648.03	74.90
648.17	51.49
648.32	60.85
648.47	72.56
648.61	35.11
648.76	42.13
648.90	56.17
649.05	86.60
649.20	88.94
649.34	46.81
649.49	0.00
649.63	88.94
649.78	37.45
649.92	44.47
650.07	49.15
650.21	135.75
650.36	37.45
650.51	65.54
650.65	56.17
650.80	77.24
650.94	37.45
651.09	32.77
651.23	28.09
651.38	23.41
651.52	16.38
651.67	0.00
651.81	0.00
651.96	51.49
652.10	53.83
652.25	65.54
652.39	56.17
652.54	72.56
652.68	107.66
652.83	93.62
652.97	95.96
653.12	112.35
653.26	25.75
653.41	46.81
653.55	11.70
653.70	131.07
653.84	79.58
653.99	117.03
654.13	39.79
654.27	79.58
654.42	56.17
654.56	79.58
654.71	93.62
654.85	67.88
655.00	84.26
655.14	65.54
655.29	0.00
655.43	58.51
655.57	105.32
655.72	42.13
655.86	28.09
656.01	44.47
656.15	28.09
656.30	60.85
656.44	9.36
656.58	0.00
656.73	32.77
656.87	0.00
657.01	32.77
657.16	32.77
657.30	7.02
657.45	74.90
657.59	30.43
657.73	49.15
657.88	42.13
658.02	0.00
658.16	25.75
658.31	91.28
658.45	7.02
658.60	72.56
658.74	35.11
658.88	72.56
659.03	11.70
659.17	25.75
659.31	72.56
659.46	81.92
659.60	18.72
659.74	100.64
659.89	23.41
660.03	56.17
660.17	102.98
660.32	56.17
660.46	65.54
660.60	37.45
660.74	39.79
660.89	58.51
661.03	79.58
661.17	84.26
661.32	91.28
661.46	0.00
661.60	0.00
661.74	63.19
661.89	142.77
662.03	39.79
662.17	117.03
662.31	63.19
662.46	51.49
662.60	56.17
662.74	0.00
662.88	4.68
663.03	117.03
663.17	81.92
663.31	58.51
663.45	16.38
663.60	51.49
663.74	107.66
663.88	65.54
664.02	37.45
664.17	105.32
664.31	65.54
664.45	39.79
664.59	49.15
664.73	70.22
664.88	72.56
665.02	44.47
665.16	4.68
665.30	46.81
665.44	25.75
665.59	42.13
665.73	4.68
665.87	65.54
666.01	56.17
666.15	168.52
666.29	105.32
666.44	53.83
666.58	91.28
666.72	51.49
666.86	25.75
667.00	28.09
667.14	49.15
667.28	60.85
667.43	46.81
667.57	74.90
667.71	117.03
667.85	30.43
667.99	77.24
668.13	107.66
668.27	58.51
668.41	11.70
668.56	72.56
668.70	60.85
668.84	28.09
668.98	0.00
669.12	74.90
669.26	0.00
669.40	23.41
669.54	56.17
669.68	102.98
669.82	53.83
669.96	0.00
670.10	11.70
670.25	2.34
670.39	77.24
670.53	51.49
670.67	86.60
670.81	32.77
670.95	77.24
671.09	84.26
671.23	88.94
671.37	2.34
671.51	14.04
671.65	95.96
671.79	77.24
671.93	18.72
672.07	0.00
672.21	28.09
672.35	18.72
672.49	79.58
672.63	44.47
672.77	9.36
672.91	28.09
673.05	60.85
673.19	23.41
673.33	91.28
673.47	91.28
673.61	4.68
673.75	11.70
673.89	84.26
674.03	70.22
674.17	25.75
674.31	23.41
674.45	91.28
674.59	70.22
674.73	65.54
674.87	84.26
675.01	72.56
675.15	53.83
675.29	42.13
675.43	86.60
675.56	65.54
675.70	35.11
675.84	0.00
675.98	37.45
676.12	63.19
676.26	35.11
676.40	105.32
676.54	86.60
676.68	58.51
676.82	32.77
676.96	56.17
677.10	107.66
677.23	72.56
677.37	98.30
677.51	112.35
677.65	56.17
677.79	56.17
677.93	91.28
678.07	7.02
678.21	9.36
678.34	14.04
678.48	23.41
678.62	28.09
678.76	23.41
678.90	0.00
679.04	30.43
679.18	56.17
679.31	16.38
679.45	105.32
679.59	39.79
679.73	0.00
679.87	14.04
680.00	53.83
680.14	53.83
680.28	14.04
680.42	16.38
680.56	0.00
680.70	56.17
680.83	93.62
680.97	58.51
681.11	37.45
681.25	91.28
681.39	93.62
681.52	91.28
681.66	51.49
681.80	0.00
681.94	0.00
682.07	102.98
682.21	46.81
682.35	93.62
682.49	11.70
682.62	23.41
682.76	77.24
682.90	81.92
683.04	65.54
683.17	102.98
683.31	93.62
683.45	9.36
683.59	0.00
683.72	117.03
683.86	93.62
684.00	28.09
684.13	0.00
684.27	0.00
684.41	0.00
684.55	42.13
684.68	84.26
684.82	39.79
684.96	63.19
685.09	28.09
685.23	23.41
685.37	51.49
685.50	63.19
685.64	70.22
685.78	63.19
685.91	30.43
686.05	18.72
686.19	56.17
686.32	23.41
686.46	63.19
686.60	128.73
686.73	14.04
686.87	49.15
687.01	4.68
687.14	16.38
687.28	91.28
687.42	21.06
687.55	35.11
687.69	0.00
687.82	0.00
687.96	30.43
688.10	46.81
688.23	37.45
688.37	30.43
688.50	35.11
688.64	14.04
688.78	16.38
688.91	100.64
689.05	23.41
689.18	0.00
689.32	86.60
689.46	30.43
689.59	0.00
689.73	70.22
689.86	4.68
690.00	74.90
690.13	88.94
690.27	0.00
690.41	56.17
690.54	51.49
690.68	42.13
690.81	63.19
690.95	25.75
691.08	74.90
691.22	93.62
691.35	44.47
691.49	67.88
691.62	56.17
691.76	91.28
691.89	49.15
692.03	32.77
692.16	0.00
692.30	30.43
692.43	0.00
692.57	0.00
692.70	67.88
692.84	11.70
692.97	39.79
693.11	2.34
693.24	28.09
693.38	28.09
693.51	35.11
693.65	0.00
693.78	25.75
693.92	39.79
694.05	18.72
694.19	18.72
694.32	0.00
694.45	39.79
694.59	14.04
694.72	0.00
694.86	0.00
694.99	53.83
695.13	2.34
695.26	63.19
695.39	56.17
695.53	25.75
695.66	70.22
695.80	65.54
695.93	60.85
696.07	2.34
696.20	0.00
696.33	25.75
696.47	63.19
696.60	32.77
696.73	16.38
696.87	81.92
697.00	0.00
697.14	0.00
697.27	135.75
697.40	72.56
697.54	0.00
697.67	51.49
697.80	2.34
697.94	70.22
698.07	86.60
698.21	39.79
698.34	58.51
698.47	86.60
698.61	56.17
698.74	56.17
698.87	32.77
699.01	32.77
699.14	79.58
699.27	65.54
699.40	72.56
699.54	46.81
699.67	2.34
699.80	42.13
699.94	46.81
700.07	9.36
700.20	0.00
700.34	30.43
700.47	4.68
700.60	70.22
700.73	23.41
700.87	11.70
701.00	35.11
701.13	44.47
701.26	63.19
701.40	37.45
701.53	0.00
701.66	81.92
701.79	25.75
701.93	11.70
702.06	79.58
702.19	0.00
702.32	95.96
702.46	51.49
702.59	42.13
702.72	91.28
702.85	70.22
702.99	105.32
703.12	23.41
703.25	56.17
703.38	14.04
703.51	67.88
703.65	0.00
703.78	0.00
703.91	58.51
704.04	46.81
704.17	0.00
704.31	60.85
704.44	25.75
704.57	35.11
704.70	42.13
704.83	39.79
704.96	51.49
705.10	88.94
705.23	84.26
>>>>>End Processed Spectral Data<<<<<
