SpectraSuite Data File
++++++++++++++++++++++++++++++++++++
Date: Tue Oct 01 18:25:12 GMT-05:00 2013
User: stostad
Dark Spectrum Present: No
Reference Spectrum Present: No
Number of Sampled Component Spectra: 1
Spectrometers: USB2+H05261
Integration Time (usec): 100000 (USB2+H05261)
Spectra Averaged: 1 (USB2+H05261)
Boxcar Smoothing: 0 (USB2+H05261)
Correct for Electrical Dark: No (USB2+H05261)
Strobe/Lamp Enabled: No (USB2+H05261)
Correct for Detector Non-linearity: No (USB2+H05261)
Correct for Stray Light: No (USB2+H05261)
Number of Pixels in Processed Spectrum: 2048
>>>>>Begin Processed Spectral Data<<<<<
365.73	65.54
365.92	65.54
366.12	65.54
366.32	0.00
366.52	0.00
366.72	0.00
366.91	0.00
367.11	37.45
367.31	0.00
367.51	0.00
367.70	0.00
367.90	0.00
368.10	0.00
368.30	0.00
368.49	0.00
368.69	53.83
368.89	2.34
369.09	0.00
369.28	51.49
369.48	0.00
369.68	23.41
369.87	9.36
370.07	14.04
370.27	11.70
370.47	79.58
370.66	32.77
370.86	37.45
371.06	117.03
371.25	159.16
371.45	18.72
371.65	70.22
371.84	88.94
372.04	86.60
372.24	84.26
372.44	70.22
372.63	163.84
372.83	184.90
373.03	112.35
373.22	124.05
373.42	126.39
373.62	79.58
373.81	102.98
374.01	166.18
374.21	81.92
374.40	198.95
374.60	222.35
374.79	133.41
374.99	131.07
375.19	156.82
375.38	86.60
375.58	112.35
375.78	142.77
375.97	124.05
376.17	163.84
376.37	98.30
376.56	81.92
376.76	133.41
376.95	163.84
377.15	138.09
377.35	119.37
377.54	145.11
377.74	98.30
377.93	161.50
378.13	126.39
378.33	198.95
378.52	110.01
378.72	173.20
378.91	205.97
379.11	142.77
379.31	173.20
379.50	161.50
379.70	88.94
379.89	147.45
380.09	147.45
380.28	67.88
380.48	107.66
380.68	95.96
380.87	84.26
381.07	142.77
381.26	159.16
381.46	65.54
381.65	161.50
381.85	114.69
382.04	135.75
382.24	100.64
382.43	145.11
382.63	100.64
382.83	154.48
383.02	196.60
383.22	175.54
383.41	86.60
383.61	145.11
383.80	70.22
384.00	156.82
384.19	163.84
384.39	88.94
384.58	145.11
384.78	154.48
384.97	229.37
385.17	72.56
385.36	112.35
385.56	170.86
385.75	2.34
385.95	84.26
386.14	117.03
386.34	93.62
386.53	95.96
386.72	128.73
386.92	147.45
387.11	163.84
387.31	128.73
387.50	74.90
387.70	84.26
387.89	145.11
388.09	149.79
388.28	147.45
388.48	110.01
388.67	191.92
388.86	138.09
389.06	191.92
389.25	133.41
389.45	53.83
389.64	159.16
389.84	121.71
390.03	187.24
390.22	121.71
390.42	79.58
390.61	121.71
390.81	77.24
391.00	177.88
391.19	163.84
391.39	95.96
391.58	149.79
391.78	194.26
391.97	58.51
392.16	145.11
392.36	135.75
392.55	220.01
392.75	86.60
392.94	102.98
393.13	133.41
393.33	74.90
393.52	175.54
393.71	154.48
393.91	159.16
394.10	147.45
394.29	175.54
394.49	152.13
394.68	170.86
394.88	74.90
395.07	100.64
395.26	175.54
395.46	131.07
395.65	114.69
395.84	152.13
396.04	203.63
396.23	135.75
396.42	180.22
396.62	154.48
396.81	149.79
397.00	149.79
397.19	117.03
397.39	88.94
397.58	156.82
397.77	147.45
397.97	91.28
398.16	107.66
398.35	128.73
398.55	152.13
398.74	102.98
398.93	166.18
399.12	177.88
399.32	170.86
399.51	79.58
399.70	133.41
399.90	187.24
400.09	105.32
400.28	217.67
400.47	105.32
400.67	149.79
400.86	102.98
401.05	187.24
401.24	212.99
401.44	180.22
401.63	117.03
401.82	152.13
402.01	131.07
402.21	152.13
402.40	86.60
402.59	166.18
402.78	140.43
402.97	212.99
403.17	128.73
403.36	84.26
403.55	149.79
403.74	152.13
403.93	121.71
404.13	187.24
404.32	131.07
404.51	117.03
404.70	126.39
404.89	95.96
405.09	149.79
405.28	93.62
405.47	98.30
405.66	140.43
405.85	117.03
406.05	119.37
406.24	138.09
406.43	189.58
406.62	93.62
406.81	203.63
407.00	180.22
407.20	168.52
407.39	117.03
407.58	100.64
407.77	156.82
407.96	142.77
408.15	168.52
408.34	147.45
408.54	81.92
408.73	107.66
408.92	107.66
409.11	182.56
409.30	163.84
409.49	182.56
409.68	74.90
409.87	131.07
410.07	70.22
410.26	131.07
410.45	145.11
410.64	100.64
410.83	175.54
411.02	124.05
411.21	184.90
411.40	135.75
411.59	107.66
411.78	79.58
411.98	98.30
412.17	114.69
412.36	93.62
412.55	163.84
412.74	145.11
412.93	156.82
413.12	138.09
413.31	161.50
413.50	177.88
413.69	44.47
413.88	93.62
414.07	191.92
414.26	173.20
414.45	152.13
414.64	177.88
414.83	79.58
415.02	102.98
415.22	177.88
415.41	201.29
415.60	91.28
415.79	149.79
415.98	149.79
416.17	105.32
416.36	154.48
416.55	77.24
416.74	133.41
416.93	264.48
417.12	88.94
417.31	149.79
417.50	145.11
417.69	184.90
417.88	189.58
418.07	142.77
418.26	131.07
418.45	128.73
418.64	194.26
418.83	210.65
419.02	133.41
419.21	187.24
419.39	180.22
419.58	131.07
419.77	163.84
419.96	205.97
420.15	128.73
420.34	147.45
420.53	60.85
420.72	107.66
420.91	133.41
421.10	145.11
421.29	135.75
421.48	117.03
421.67	131.07
421.86	107.66
422.05	128.73
422.24	95.96
422.43	170.86
422.61	112.35
422.80	72.56
422.99	121.71
423.18	74.90
423.37	138.09
423.56	86.60
423.75	154.48
423.94	77.24
424.13	86.60
424.32	168.52
424.50	161.50
424.69	189.58
424.88	88.94
425.07	114.69
425.26	191.92
425.45	168.52
425.64	191.92
425.83	236.39
426.01	238.73
426.20	163.84
426.39	159.16
426.58	126.39
426.77	142.77
426.96	196.60
427.15	135.75
427.33	117.03
427.52	145.11
427.71	145.11
427.90	133.41
428.09	196.60
428.28	102.98
428.46	100.64
428.65	168.52
428.84	112.35
429.03	117.03
429.22	98.30
429.40	142.77
429.59	189.58
429.78	161.50
429.97	140.43
430.16	100.64
430.34	173.20
430.53	138.09
430.72	112.35
430.91	191.92
431.10	205.97
431.28	196.60
431.47	156.82
431.66	187.24
431.85	128.73
432.03	217.67
432.22	208.31
432.41	187.24
432.60	140.43
432.79	194.26
432.97	194.26
433.16	266.82
433.35	110.01
433.54	112.35
433.72	159.16
433.91	77.24
434.10	145.11
434.28	128.73
434.47	147.45
434.66	222.35
434.85	208.31
435.03	189.58
435.22	231.71
435.41	121.71
435.59	79.58
435.78	114.69
435.97	112.35
436.16	173.20
436.34	166.18
436.53	77.24
436.72	205.97
436.90	229.37
437.09	114.69
437.28	93.62
437.46	91.28
437.65	114.69
437.84	102.98
438.02	147.45
438.21	184.90
438.40	110.01
438.58	95.96
438.77	168.52
438.96	145.11
439.14	163.84
439.33	142.77
439.52	191.92
439.70	126.39
439.89	147.45
440.08	126.39
440.26	159.16
440.45	182.56
440.63	159.16
440.82	149.79
441.01	140.43
441.19	180.22
441.38	135.75
441.57	124.05
441.75	154.48
441.94	191.92
442.12	91.28
442.31	105.32
442.50	102.98
442.68	91.28
442.87	105.32
443.05	170.86
443.24	124.05
443.43	184.90
443.61	194.26
443.80	63.19
443.98	88.94
444.17	133.41
444.35	156.82
444.54	145.11
444.73	117.03
444.91	147.45
445.10	74.90
445.28	58.51
445.47	110.01
445.65	140.43
445.84	67.88
446.02	145.11
446.21	72.56
446.39	168.52
446.58	140.43
446.77	121.71
446.95	163.84
447.14	177.88
447.32	170.86
447.51	133.41
447.69	53.83
447.88	79.58
448.06	156.82
448.25	112.35
448.43	128.73
448.62	119.37
448.80	236.39
448.99	95.96
449.17	140.43
449.36	159.16
449.54	175.54
449.73	168.52
449.91	147.45
450.10	102.98
450.28	184.90
450.46	205.97
450.65	163.84
450.83	147.45
451.02	177.88
451.20	184.90
451.39	184.90
451.57	126.39
451.76	131.07
451.94	77.24
452.13	152.13
452.31	65.54
452.49	184.90
452.68	93.62
452.86	126.39
453.05	196.60
453.23	168.52
453.42	168.52
453.60	117.03
453.78	110.01
453.97	177.88
454.15	58.51
454.34	84.26
454.52	152.13
454.70	135.75
454.89	145.11
455.07	177.88
455.26	117.03
455.44	95.96
455.62	159.16
455.81	255.12
455.99	163.84
456.17	208.31
456.36	145.11
456.54	205.97
456.73	117.03
456.91	105.32
457.09	147.45
457.28	131.07
457.46	166.18
457.64	107.66
457.83	145.11
458.01	98.30
458.19	168.52
458.38	133.41
458.56	201.29
458.74	142.77
458.93	70.22
459.11	142.77
459.29	49.15
459.48	147.45
459.66	191.92
459.84	156.82
460.03	191.92
460.21	189.58
460.39	107.66
460.57	212.99
460.76	170.86
460.94	105.32
461.12	142.77
461.31	173.20
461.49	142.77
461.67	177.88
461.85	149.79
462.04	152.13
462.22	547.69
462.40	149.79
462.59	222.35
462.77	147.45
462.95	147.45
463.13	121.71
463.32	156.82
463.50	126.39
463.68	117.03
463.86	234.05
464.05	124.05
464.23	175.54
464.41	135.75
464.59	72.56
464.78	170.86
464.96	175.54
465.14	163.84
465.32	124.05
465.50	168.52
465.69	175.54
465.87	156.82
466.05	128.73
466.23	84.26
466.41	154.48
466.60	182.56
466.78	138.09
466.96	117.03
467.14	142.77
467.32	191.92
467.51	74.90
467.69	194.26
467.87	229.37
468.05	149.79
468.23	217.67
468.41	152.13
468.60	114.69
468.78	163.84
468.96	149.79
469.14	107.66
469.32	133.41
469.50	112.35
469.69	140.43
469.87	105.32
470.05	140.43
470.23	53.83
470.41	131.07
470.59	95.96
470.77	126.39
470.95	138.09
471.14	135.75
471.32	198.95
471.50	222.35
471.68	133.41
471.86	156.82
472.04	147.45
472.22	98.30
472.40	126.39
472.58	159.16
472.77	131.07
472.95	135.75
473.13	152.13
473.31	170.86
473.49	166.18
473.67	170.86
473.85	63.19
474.03	156.82
474.21	91.28
474.39	117.03
474.57	196.60
474.75	107.66
474.93	114.69
475.12	100.64
475.30	117.03
475.48	140.43
475.66	133.41
475.84	203.63
476.02	133.41
476.20	124.05
476.38	126.39
476.56	250.44
476.74	149.79
476.92	112.35
477.10	191.92
477.28	133.41
477.46	156.82
477.64	166.18
477.82	156.82
478.00	175.54
478.18	145.11
478.36	117.03
478.54	149.79
478.72	91.28
478.90	84.26
479.08	102.98
479.26	170.86
479.44	149.79
479.62	135.75
479.80	145.11
479.98	121.71
480.16	112.35
480.34	163.84
480.52	173.20
480.70	147.45
480.88	128.73
481.06	91.28
481.24	128.73
481.41	95.96
481.59	170.86
481.77	121.71
481.95	175.54
482.13	140.43
482.31	152.13
482.49	105.32
482.67	173.20
482.85	117.03
483.03	135.75
483.21	105.32
483.39	152.13
483.57	177.88
483.74	259.80
483.92	156.82
484.10	173.20
484.28	159.16
484.46	227.03
484.64	175.54
484.82	173.20
485.00	154.48
485.18	110.01
485.35	86.60
485.53	39.79
485.71	145.11
485.89	124.05
486.07	177.88
486.25	205.97
486.43	168.52
486.61	194.26
486.78	135.75
486.96	152.13
487.14	191.92
487.32	147.45
487.50	37.45
487.68	203.63
487.85	114.69
488.03	126.39
488.21	140.43
488.39	187.24
488.57	142.77
488.75	133.41
488.92	194.26
489.10	117.03
489.28	128.73
489.46	84.26
489.64	147.45
489.81	102.98
489.99	154.48
490.17	114.69
490.35	236.39
490.53	156.82
490.70	138.09
490.88	154.48
491.06	88.94
491.24	161.50
491.41	189.58
491.59	189.58
491.77	159.16
491.95	128.73
492.13	154.48
492.30	138.09
492.48	133.41
492.66	112.35
492.84	128.73
493.01	138.09
493.19	133.41
493.37	217.67
493.54	163.84
493.72	152.13
493.90	194.26
494.08	184.90
494.25	138.09
494.43	126.39
494.61	110.01
494.79	147.45
494.96	67.88
495.14	166.18
495.32	231.71
495.49	84.26
495.67	79.58
495.85	114.69
496.02	110.01
496.20	163.84
496.38	173.20
496.55	135.75
496.73	140.43
496.91	67.88
497.09	145.11
497.26	168.52
497.44	131.07
497.62	131.07
497.79	149.79
497.97	128.73
498.14	184.90
498.32	177.88
498.50	196.60
498.67	131.07
498.85	131.07
499.03	63.19
499.20	105.32
499.38	180.22
499.56	98.30
499.73	182.56
499.91	170.86
500.08	210.65
500.26	133.41
500.44	163.84
500.61	79.58
500.79	117.03
500.97	149.79
501.14	163.84
501.32	145.11
501.49	166.18
501.67	49.15
501.84	152.13
502.02	100.64
502.20	166.18
502.37	131.07
502.55	126.39
502.72	131.07
502.90	201.29
503.07	149.79
503.25	198.95
503.43	84.26
503.60	163.84
503.78	189.58
503.95	170.86
504.13	126.39
504.30	131.07
504.48	182.56
504.65	177.88
504.83	142.77
505.01	163.84
505.18	168.52
505.36	126.39
505.53	88.94
505.71	117.03
505.88	220.01
506.06	161.50
506.23	117.03
506.41	107.66
506.58	119.37
506.76	145.11
506.93	88.94
507.11	131.07
507.28	124.05
507.46	102.98
507.63	124.05
507.81	156.82
507.98	126.39
508.16	102.98
508.33	166.18
508.50	93.62
508.68	128.73
508.85	140.43
509.03	140.43
509.20	117.03
509.38	177.88
509.55	187.24
509.73	163.84
509.90	107.66
510.08	159.16
510.25	105.32
510.42	114.69
510.60	133.41
510.77	250.44
510.95	208.31
511.12	140.43
511.30	227.03
511.47	194.26
511.64	245.76
511.82	70.22
511.99	184.90
512.17	91.28
512.34	114.69
512.51	138.09
512.69	180.22
512.86	201.29
513.04	135.75
513.21	112.35
513.38	100.64
513.56	166.18
513.73	149.79
513.90	131.07
514.08	147.45
514.25	142.77
514.43	77.24
514.60	58.51
514.77	208.31
514.95	182.56
515.12	128.73
515.29	105.32
515.47	124.05
515.64	91.28
515.81	173.20
515.99	170.86
516.16	100.64
516.33	145.11
516.51	102.98
516.68	159.16
516.85	102.98
517.03	163.84
517.20	210.65
517.37	133.41
517.54	128.73
517.72	140.43
517.89	72.56
518.06	131.07
518.24	222.35
518.41	234.05
518.58	170.86
518.75	149.79
518.93	212.99
519.10	182.56
519.27	107.66
519.45	119.37
519.62	173.20
519.79	121.71
519.96	124.05
520.14	187.24
520.31	198.95
520.48	138.09
520.65	184.90
520.83	163.84
521.00	222.35
521.17	105.32
521.34	187.24
521.52	74.90
521.69	93.62
521.86	173.20
522.03	173.20
522.20	262.14
522.38	159.16
522.55	161.50
522.72	84.26
522.89	168.52
523.07	138.09
523.24	159.16
523.41	170.86
523.58	117.03
523.75	138.09
523.92	105.32
524.10	168.52
524.27	102.98
524.44	133.41
524.61	156.82
524.78	79.58
524.96	187.24
525.13	147.45
525.30	145.11
525.47	117.03
525.64	168.52
525.81	163.84
525.98	121.71
526.16	147.45
526.33	173.20
526.50	131.07
526.67	93.62
526.84	102.98
527.01	107.66
527.18	145.11
527.36	147.45
527.53	177.88
527.70	163.84
527.87	145.11
528.04	269.16
528.21	100.64
528.38	180.22
528.55	208.31
528.72	154.48
528.89	163.84
529.07	114.69
529.24	149.79
529.41	159.16
529.58	168.52
529.75	191.92
529.92	222.35
530.09	152.13
530.26	98.30
530.43	124.05
530.60	149.79
530.77	145.11
530.94	131.07
531.11	173.20
531.28	110.01
531.46	105.32
531.63	119.37
531.80	175.54
531.97	98.30
532.14	159.16
532.31	65.54
532.48	170.86
532.65	238.73
532.82	208.31
532.99	187.24
533.16	98.30
533.33	191.92
533.50	145.11
533.67	196.60
533.84	243.42
534.01	173.20
534.18	145.11
534.35	198.95
534.52	117.03
534.69	184.90
534.86	163.84
535.03	131.07
535.20	53.83
535.37	131.07
535.54	147.45
535.71	135.75
535.88	168.52
536.05	175.54
536.22	114.69
536.38	131.07
536.55	126.39
536.72	124.05
536.89	128.73
537.06	140.43
537.23	119.37
537.40	173.20
537.57	107.66
537.74	88.94
537.91	159.16
538.08	175.54
538.25	175.54
538.42	126.39
538.59	161.50
538.75	208.31
538.92	177.88
539.09	177.88
539.26	112.35
539.43	470.45
539.60	662.37
539.77	954.94
539.94	828.55
540.11	397.89
540.28	264.48
540.44	205.97
540.61	201.29
540.78	126.39
540.95	121.71
541.12	163.84
541.29	117.03
541.46	196.60
541.62	208.31
541.79	161.50
541.96	126.39
542.13	147.45
542.30	124.05
542.47	189.58
542.63	138.09
542.80	168.52
542.97	131.07
543.14	163.84
543.31	121.71
543.48	86.60
543.64	208.31
543.81	194.26
543.98	131.07
544.15	133.41
544.32	175.54
544.48	93.62
544.65	173.20
544.82	177.88
544.99	128.73
545.16	191.92
545.32	110.01
545.49	182.56
545.66	145.11
545.83	189.58
546.00	154.48
546.16	131.07
546.33	152.13
546.50	168.52
546.67	184.90
546.83	156.82
547.00	88.94
547.17	110.01
547.34	140.43
547.50	212.99
547.67	156.82
547.84	133.41
548.00	149.79
548.17	177.88
548.34	133.41
548.51	166.18
548.67	159.16
548.84	65.54
549.01	180.22
549.18	145.11
549.34	166.18
549.51	84.26
549.68	124.05
549.84	107.66
550.01	187.24
550.18	196.60
550.34	292.57
550.51	128.73
550.68	161.50
550.84	112.35
551.01	182.56
551.18	180.22
551.34	133.41
551.51	79.58
551.68	196.60
551.84	170.86
552.01	105.32
552.18	159.16
552.34	224.69
552.51	131.07
552.68	194.26
552.84	88.94
553.01	161.50
553.18	117.03
553.34	156.82
553.51	114.69
553.67	189.58
553.84	212.99
554.01	131.07
554.17	170.86
554.34	145.11
554.51	145.11
554.67	128.73
554.84	198.95
555.00	117.03
555.17	175.54
555.33	135.75
555.50	177.88
555.67	131.07
555.83	161.50
556.00	198.95
556.16	294.91
556.33	227.03
556.50	147.45
556.66	126.39
556.83	107.66
556.99	166.18
557.16	110.01
557.32	72.56
557.49	177.88
557.65	117.03
557.82	74.90
557.98	177.88
558.15	119.37
558.32	142.77
558.48	140.43
558.65	161.50
558.81	156.82
558.98	42.13
559.14	175.54
559.31	163.84
559.47	215.33
559.64	51.49
559.80	154.48
559.97	126.39
560.13	208.31
560.30	93.62
560.46	105.32
560.63	112.35
560.79	114.69
560.96	105.32
561.12	182.56
561.29	170.86
561.45	135.75
561.61	154.48
561.78	187.24
561.94	112.35
562.11	110.01
562.27	138.09
562.44	152.13
562.60	215.33
562.77	154.48
562.93	212.99
563.10	124.05
563.26	135.75
563.42	201.29
563.59	170.86
563.75	138.09
563.92	166.18
564.08	124.05
564.24	201.29
564.41	175.54
564.57	91.28
564.74	65.54
564.90	170.86
565.07	189.58
565.23	252.78
565.39	147.45
565.56	159.16
565.72	147.45
565.88	112.35
566.05	227.03
566.21	88.94
566.38	110.01
566.54	166.18
566.70	88.94
566.87	121.71
567.03	91.28
567.19	163.84
567.36	131.07
567.52	180.22
567.68	145.11
567.85	208.31
568.01	196.60
568.17	166.18
568.34	184.90
568.50	227.03
568.66	177.88
568.83	201.29
568.99	149.79
569.15	168.52
569.32	138.09
569.48	156.82
569.64	140.43
569.81	133.41
569.97	205.97
570.13	175.54
570.30	147.45
570.46	110.01
570.62	126.39
570.78	170.86
570.95	142.77
571.11	147.45
571.27	229.37
571.43	152.13
571.60	191.92
571.76	149.79
571.92	154.48
572.09	149.79
572.25	133.41
572.41	145.11
572.57	173.20
572.74	217.67
572.90	175.54
573.06	142.77
573.22	119.37
573.38	156.82
573.55	152.13
573.71	266.82
573.87	159.16
574.03	159.16
574.20	187.24
574.36	266.82
574.52	229.37
574.68	191.92
574.84	184.90
575.01	161.50
575.17	156.82
575.33	154.48
575.49	173.20
575.65	203.63
575.82	250.44
575.98	402.57
576.14	496.19
576.30	442.36
576.46	290.23
576.62	194.26
576.79	196.60
576.95	145.11
577.11	147.45
577.27	166.18
577.43	217.67
577.59	215.33
577.75	194.26
577.92	133.41
578.08	131.07
578.24	121.71
578.40	184.90
578.56	196.60
578.72	227.03
578.88	212.99
579.04	147.45
579.21	208.31
579.37	175.54
579.53	159.16
579.69	170.86
579.85	196.60
580.01	182.56
580.17	119.37
580.33	198.95
580.49	227.03
580.65	173.20
580.82	189.58
580.98	124.05
581.14	201.29
581.30	287.89
581.46	304.27
581.62	374.49
581.78	327.68
581.94	365.12
582.10	201.29
582.26	224.69
582.42	259.80
582.58	245.76
582.74	308.95
582.90	255.12
583.06	234.05
583.22	245.76
583.38	311.29
583.54	341.72
583.70	411.93
583.86	395.55
584.02	472.79
584.18	781.74
584.34	1210.06
584.50	8594.45
584.66	29446.28
584.82	49055.29
584.98	50129.59
585.14	32252.58
585.30	16940.80
585.46	8262.09
585.62	3225.26
585.78	1430.07
585.94	821.53
586.10	561.73
586.26	442.36
586.42	456.40
586.58	332.36
586.74	308.95
586.90	330.02
587.06	264.48
587.22	285.55
587.38	535.98
587.54	1645.40
587.70	3066.10
587.86	4018.70
588.02	3028.65
588.18	1839.66
588.34	1097.71
588.49	582.79
588.65	358.10
588.81	208.31
588.97	147.45
589.13	262.14
589.29	234.05
589.45	238.73
589.61	273.84
589.77	320.65
589.93	269.16
590.08	212.99
590.24	313.63
590.40	215.33
590.56	205.97
590.72	182.56
590.88	184.90
591.04	224.69
591.20	210.65
591.35	189.58
591.51	203.63
591.67	236.39
591.83	198.95
591.99	255.12
592.15	224.69
592.31	269.16
592.46	220.01
592.62	191.92
592.78	215.33
592.94	166.18
593.10	250.44
593.26	205.97
593.41	294.91
593.57	353.42
593.73	1270.91
593.89	3707.41
594.05	6459.88
594.20	6377.96
594.36	4360.42
594.52	2413.09
594.68	1406.66
594.84	704.50
594.99	374.49
595.15	360.44
595.31	236.39
595.47	276.18
595.62	177.88
595.78	177.88
595.94	320.65
596.10	283.20
596.25	234.05
596.41	266.82
596.57	161.50
596.73	311.29
596.88	727.91
597.04	1254.53
597.20	1474.54
597.36	1231.12
597.51	812.17
597.67	533.64
597.83	346.40
597.99	241.08
598.14	234.05
598.30	243.42
598.46	266.82
598.61	234.05
598.77	201.29
598.93	182.56
599.09	205.97
599.24	177.88
599.40	198.95
599.56	196.60
599.71	98.30
599.87	229.37
600.03	133.41
600.18	177.88
600.34	100.64
600.50	142.77
600.65	173.20
600.81	159.16
600.97	154.48
601.12	170.86
601.28	220.01
601.44	210.65
601.59	142.77
601.75	201.29
601.91	154.48
602.06	248.10
602.22	528.96
602.37	1034.52
602.53	1540.07
602.69	1682.85
602.84	1228.78
603.00	854.30
603.16	587.47
603.31	381.51
603.47	287.89
603.62	128.73
603.78	220.01
603.94	203.63
604.09	264.48
604.25	161.50
604.40	177.88
604.56	222.35
604.71	152.13
604.87	147.45
605.03	184.90
605.18	210.65
605.34	187.24
605.49	212.99
605.65	177.88
605.80	241.08
605.96	194.26
606.12	271.50
606.27	257.46
606.43	203.63
606.58	533.64
606.74	1860.73
606.89	4004.66
607.05	5268.55
607.20	4531.28
607.36	3012.27
607.51	2012.86
607.67	1057.92
607.82	510.24
607.98	421.30
608.13	255.12
608.29	205.97
608.44	271.50
608.60	297.25
608.75	973.66
608.91	3351.65
609.06	6827.34
609.22	9104.68
609.37	7742.49
609.53	5116.41
609.68	3248.66
609.84	1921.58
609.99	898.77
610.15	491.51
610.30	332.36
610.46	259.80
610.61	217.67
610.76	121.71
610.92	252.78
611.07	177.88
611.23	266.82
611.38	205.97
611.54	205.97
611.69	182.56
611.84	149.79
612.00	271.50
612.15	287.89
612.31	372.15
612.46	404.91
612.62	304.27
612.77	348.74
612.92	325.33
613.08	301.93
613.23	360.44
613.39	678.76
613.54	3342.28
613.69	8657.64
613.85	13554.04
614.00	14008.11
614.15	10052.60
614.31	6443.49
614.46	4002.32
614.62	2101.80
614.77	1034.52
614.92	454.06
615.08	313.63
615.23	325.33
615.38	292.57
615.54	615.56
615.69	1865.41
615.84	3281.43
616.00	3819.75
616.15	2970.14
616.30	2108.82
616.46	1371.55
616.61	870.68
616.76	472.79
616.92	304.27
617.07	196.60
617.22	243.42
617.37	166.18
617.53	224.69
617.68	248.10
617.83	203.63
617.99	194.26
618.14	168.52
618.29	191.92
618.45	145.11
618.60	95.96
618.75	166.18
618.90	131.07
619.06	135.75
619.21	201.29
619.36	156.82
619.51	102.98
619.67	184.90
619.82	210.65
619.97	135.75
620.12	208.31
620.28	180.22
620.43	133.41
620.58	222.35
620.73	201.29
620.89	362.78
621.04	1015.79
621.19	1858.39
621.34	2286.70
621.49	1842.00
621.65	1334.11
621.80	915.15
621.95	594.50
622.10	346.40
622.25	173.20
622.41	163.84
622.56	152.13
622.71	205.97
622.86	231.71
623.01	194.26
623.16	257.46
623.32	248.10
623.47	159.16
623.62	154.48
623.77	161.50
623.92	189.58
624.07	191.92
624.23	212.99
624.38	152.13
624.53	238.73
624.68	257.46
624.83	215.33
624.98	196.60
625.13	149.79
625.29	182.56
625.44	117.03
625.59	184.90
625.74	451.72
625.89	1963.71
626.04	4664.69
626.19	7199.49
626.34	7169.06
626.49	5338.76
626.65	3454.63
626.80	2157.97
626.95	1331.76
627.10	669.39
627.25	341.72
627.40	259.80
627.55	203.63
627.70	170.86
627.85	257.46
628.00	166.18
628.15	138.09
628.30	212.99
628.45	201.29
628.60	142.77
628.76	119.37
628.91	124.05
629.06	177.88
629.21	145.11
629.36	147.45
629.51	212.99
629.66	414.27
629.81	950.26
629.96	1645.40
630.11	1902.86
630.26	1631.35
630.41	1184.31
630.56	798.12
630.71	552.37
630.86	306.61
631.01	257.46
631.16	173.20
631.31	196.60
631.46	175.54
631.61	212.99
631.76	224.69
631.91	149.79
632.06	170.86
632.21	276.18
632.36	304.27
632.51	276.18
632.66	1025.15
632.81	2612.04
632.96	4358.08
633.10	4786.40
633.25	3789.33
633.40	2537.14
633.55	1902.86
633.70	1111.75
633.85	617.90
634.00	308.95
634.15	210.65
634.30	243.42
634.45	208.31
634.60	252.78
634.75	189.58
634.90	177.88
635.05	191.92
635.19	194.26
635.34	177.88
635.49	182.56
635.64	110.01
635.79	147.45
635.94	252.78
636.09	159.16
636.24	201.29
636.39	241.08
636.53	184.90
636.68	212.99
636.83	175.54
636.98	189.58
637.13	252.78
637.28	276.18
637.43	788.76
637.57	2888.22
637.72	6085.39
637.87	8865.95
638.02	8269.11
638.17	6078.37
638.32	4353.40
638.46	2796.94
638.61	1741.36
638.76	837.91
638.91	566.41
639.06	428.32
639.20	465.77
639.35	1034.52
639.50	4201.26
639.65	9165.54
639.80	13504.89
639.94	13085.94
640.09	9715.56
640.24	6696.27
640.39	4353.40
640.54	2368.62
640.68	1109.41
640.83	617.90
640.98	447.04
641.13	217.67
641.27	140.43
641.42	234.05
641.57	292.57
641.72	189.58
641.86	133.41
642.01	133.41
642.16	238.73
642.31	121.71
642.45	201.29
642.60	166.18
642.75	156.82
642.90	138.09
643.04	177.88
643.19	147.45
643.34	194.26
643.48	210.65
643.63	140.43
643.78	182.56
643.93	283.20
644.07	177.88
644.22	229.37
644.37	180.22
644.51	170.86
644.66	119.37
644.81	189.58
644.95	170.86
645.10	133.41
645.25	117.03
645.39	205.97
645.54	208.31
645.69	241.08
645.83	145.11
645.98	205.97
646.13	126.39
646.27	201.29
646.42	222.35
646.57	145.11
646.71	152.13
646.86	175.54
647.00	189.58
647.15	194.26
647.30	149.79
647.44	187.24
647.59	128.73
647.74	208.31
647.88	121.71
648.03	126.39
648.17	156.82
648.32	154.48
648.47	140.43
648.61	156.82
648.76	107.66
648.90	196.60
649.05	88.94
649.20	224.69
649.34	264.48
649.49	236.39
649.63	280.86
649.78	435.34
649.92	1706.25
650.07	4060.83
650.21	6361.58
650.36	7253.32
650.51	5509.62
650.65	3805.71
650.80	2434.16
650.94	1406.66
651.09	868.34
651.23	425.98
651.38	327.68
651.52	203.63
651.67	173.20
651.81	229.37
651.96	168.52
652.10	243.42
652.25	201.29
652.39	318.31
652.54	521.94
652.68	1362.19
652.83	2303.09
652.97	2731.41
653.12	2251.60
653.26	1511.99
653.41	1090.69
653.55	695.14
653.70	475.13
653.84	252.78
653.99	276.18
654.13	156.82
654.27	257.46
654.42	175.54
654.56	236.39
654.71	182.56
654.85	198.95
655.00	180.22
655.14	124.05
655.29	147.45
655.43	210.65
655.57	161.50
655.72	161.50
655.86	128.73
656.01	196.60
656.15	121.71
656.30	182.56
656.44	147.45
656.58	105.32
656.73	187.24
656.87	149.79
657.01	220.01
657.16	175.54
657.30	215.33
657.45	205.97
657.59	138.09
657.73	114.69
657.88	147.45
658.02	107.66
658.16	152.13
658.31	93.62
658.45	149.79
658.60	191.92
658.74	180.22
658.88	166.18
659.03	208.31
659.17	681.10
659.31	1963.71
659.46	3300.16
659.60	3887.63
659.74	2953.76
659.89	2256.28
660.03	1596.25
660.17	943.24
660.32	496.19
660.46	346.40
660.60	287.89
660.74	236.39
660.89	149.79
661.03	161.50
661.17	135.75
661.32	154.48
661.46	170.86
661.60	154.48
661.74	107.66
661.89	142.77
662.03	175.54
662.17	163.84
662.31	189.58
662.46	91.28
662.60	156.82
662.74	152.13
662.88	168.52
663.03	168.52
663.17	114.69
663.31	201.29
663.45	131.07
663.60	100.64
663.74	77.24
663.88	112.35
664.02	159.16
664.17	187.24
664.31	131.07
664.45	126.39
664.59	212.99
664.73	212.99
664.88	159.16
665.02	147.45
665.16	175.54
665.30	149.79
665.44	187.24
665.59	161.50
665.73	119.37
665.87	135.75
666.01	212.99
666.15	140.43
666.29	191.92
666.44	189.58
666.58	194.26
666.72	184.90
666.86	276.18
667.00	423.64
667.14	1472.20
667.28	3585.70
667.43	5767.08
667.57	6668.19
667.71	5291.95
667.85	3700.39
667.99	2317.13
668.13	1268.57
668.27	695.14
668.41	454.06
668.56	355.76
668.70	306.61
668.84	229.37
668.98	212.99
669.12	173.20
669.26	163.84
669.40	177.88
669.54	177.88
669.68	208.31
669.82	131.07
669.96	154.48
670.10	180.22
670.25	135.75
670.39	149.79
670.53	163.84
670.67	248.10
670.81	248.10
670.95	475.13
671.09	1376.24
671.23	2829.71
671.37	4060.83
671.51	4011.68
671.65	3096.53
671.79	1909.88
671.93	1048.56
672.07	741.95
672.21	404.91
672.35	348.74
672.49	173.20
672.63	154.48
672.77	187.24
672.91	128.73
673.05	170.86
673.19	224.69
673.33	102.98
673.47	273.84
673.61	152.13
673.75	180.22
673.89	149.79
674.03	194.26
674.17	105.32
674.31	163.84
674.45	198.95
674.59	170.86
674.73	152.13
674.87	168.52
675.01	243.42
675.15	205.97
675.29	189.58
675.43	161.50
675.56	95.96
675.70	124.05
675.84	131.07
675.98	173.20
676.12	166.18
676.26	145.11
676.40	93.62
676.54	145.11
676.68	121.71
676.82	119.37
676.96	81.92
677.10	224.69
677.23	241.08
677.37	140.43
677.51	140.43
677.65	135.75
677.79	163.84
677.93	140.43
678.07	170.86
678.21	187.24
678.34	100.64
678.48	112.35
678.62	152.13
678.76	84.26
678.90	88.94
679.04	142.77
679.18	114.69
679.31	142.77
679.45	117.03
679.59	175.54
679.73	159.16
679.87	175.54
680.00	175.54
680.14	159.16
680.28	121.71
680.42	128.73
680.56	168.52
680.70	88.94
680.83	173.20
680.97	138.09
681.11	117.03
681.25	173.20
681.39	145.11
681.52	138.09
681.66	177.88
681.80	182.56
681.94	107.66
682.07	138.09
682.21	72.56
682.35	184.90
682.49	91.28
682.62	124.05
682.76	88.94
682.90	138.09
683.04	74.90
683.17	147.45
683.31	161.50
683.45	163.84
683.59	208.31
683.72	191.92
683.86	128.73
684.00	128.73
684.13	182.56
684.27	182.56
684.41	114.69
684.55	159.16
684.68	175.54
684.82	124.05
684.96	142.77
685.09	159.16
685.23	175.54
685.37	88.94
685.50	102.98
685.64	107.66
685.78	112.35
685.91	166.18
686.05	114.69
686.19	98.30
686.32	154.48
686.46	161.50
686.60	170.86
686.73	271.50
686.87	217.67
687.01	194.26
687.14	163.84
687.28	159.16
687.42	86.60
687.55	79.58
687.69	180.22
687.82	117.03
687.96	117.03
688.10	152.13
688.23	161.50
688.37	161.50
688.50	124.05
688.64	166.18
688.78	149.79
688.91	138.09
689.05	126.39
689.18	154.48
689.32	161.50
689.46	124.05
689.59	170.86
689.73	180.22
689.86	102.98
690.00	208.31
690.13	163.84
690.27	180.22
690.41	98.30
690.54	173.20
690.68	86.60
690.81	140.43
690.95	91.28
691.08	168.52
691.22	177.88
691.35	98.30
691.49	173.20
691.62	154.48
691.76	163.84
691.89	63.19
692.03	124.05
692.16	224.69
692.30	545.34
692.43	1352.83
692.57	2340.54
692.70	2743.11
692.84	2427.14
692.97	1895.83
693.11	1409.00
693.24	1015.79
693.38	613.22
693.51	500.87
693.65	397.89
693.78	290.23
693.92	168.52
694.05	196.60
694.19	133.41
694.32	278.52
694.45	133.41
694.59	70.22
694.72	156.82
694.86	175.54
694.99	156.82
695.13	88.94
695.26	149.79
695.39	175.54
695.53	149.79
695.66	147.45
695.80	182.56
695.93	177.88
696.07	210.65
696.20	313.63
696.33	360.44
696.47	306.61
696.60	287.89
696.73	257.46
696.87	166.18
697.00	231.71
697.14	203.63
697.27	128.73
697.40	236.39
697.54	114.69
697.67	154.48
697.80	194.26
697.94	121.71
698.07	208.31
698.21	138.09
698.34	189.58
698.47	168.52
698.61	163.84
698.74	182.56
698.87	175.54
699.01	124.05
699.14	180.22
699.27	191.92
699.40	262.14
699.54	110.01
699.67	133.41
699.80	163.84
699.94	142.77
700.07	166.18
700.20	163.84
700.34	86.60
700.47	159.16
700.60	131.07
700.73	95.96
700.87	208.31
701.00	128.73
701.13	198.95
701.26	180.22
701.40	180.22
701.53	91.28
701.66	114.69
701.79	212.99
701.93	170.86
702.06	348.74
702.19	271.50
702.32	365.12
702.46	360.44
702.59	657.69
702.72	1699.23
702.85	3414.84
702.99	4791.08
703.12	5406.64
703.25	4507.87
703.38	3709.75
703.51	2949.08
703.65	2139.25
703.78	1404.32
703.91	903.45
704.04	629.60
704.17	337.04
704.31	269.16
704.44	201.29
704.57	245.76
704.70	175.54
704.83	182.56
704.96	135.75
705.10	271.50
705.23	236.39
>>>>>End Processed Spectral Data<<<<<
