SpectraSuite Data File
++++++++++++++++++++++++++++++++++++
Date: Fri Oct 04 12:13:36 GMT-05:00 2013
User: price-jones
Dark Spectrum Present: No
Reference Spectrum Present: No
Number of Sampled Component Spectra: 1
Spectrometers: USB2+H05261
Integration Time (usec): 10000 (USB2+H05261)
Spectra Averaged: 1 (USB2+H05261)
Boxcar Smoothing: 0 (USB2+H05261)
Correct for Electrical Dark: No (USB2+H05261)
Strobe/Lamp Enabled: No (USB2+H05261)
Correct for Detector Non-linearity: No (USB2+H05261)
Correct for Stray Light: No (USB2+H05261)
Number of Pixels in Processed Spectrum: 2048
>>>>>Begin Processed Spectral Data<<<<<
365.73	16.38
365.92	16.38
366.12	16.38
366.32	0.00
366.52	0.00
366.72	0.00
366.91	0.00
367.11	0.00
367.31	0.00
367.51	0.00
367.70	0.00
367.90	0.00
368.10	0.00
368.30	0.00
368.49	0.00
368.69	0.00
368.89	0.00
369.09	0.00
369.28	0.00
369.48	0.00
369.68	0.00
369.87	0.00
370.07	0.00
370.27	18.72
370.47	0.00
370.66	0.00
370.86	0.00
371.06	0.00
371.25	0.00
371.45	11.70
371.65	9.36
371.84	0.00
372.04	37.45
372.24	0.00
372.44	58.51
372.63	0.00
372.83	0.00
373.03	14.04
373.22	53.83
373.42	21.06
373.62	32.77
373.81	0.00
374.01	86.60
374.21	28.09
374.40	30.43
374.60	93.62
374.79	0.00
374.99	51.49
375.19	37.45
375.38	25.75
375.58	35.11
375.78	32.77
375.97	51.49
376.17	0.00
376.37	14.04
376.56	16.38
376.76	35.11
376.95	63.19
377.15	11.70
377.35	46.81
377.54	32.77
377.74	9.36
377.93	0.00
378.13	51.49
378.33	0.00
378.52	11.70
378.72	91.28
378.91	39.79
379.11	25.75
379.31	81.92
379.50	14.04
379.70	0.00
379.89	0.00
380.09	9.36
380.28	0.00
380.48	0.00
380.68	56.17
380.87	74.90
381.07	14.04
381.26	0.00
381.46	16.38
381.65	49.15
381.85	65.54
382.04	51.49
382.24	49.15
382.43	37.45
382.63	16.38
382.83	53.83
383.02	0.00
383.22	49.15
383.41	11.70
383.61	18.72
383.80	0.00
384.00	37.45
384.19	28.09
384.39	4.68
384.58	98.30
384.78	9.36
384.97	14.04
385.17	32.77
385.36	0.00
385.56	7.02
385.75	0.00
385.95	0.00
386.14	0.00
386.34	0.00
386.53	70.22
386.72	18.72
386.92	0.00
387.11	65.54
387.31	14.04
387.50	91.28
387.70	0.00
387.89	14.04
388.09	0.00
388.28	25.75
388.48	0.00
388.67	0.00
388.86	63.19
389.06	7.02
389.25	4.68
389.45	18.72
389.64	30.43
389.84	0.00
390.03	0.00
390.22	23.41
390.42	0.00
390.61	51.49
390.81	60.85
391.00	28.09
391.19	35.11
391.39	0.00
391.58	11.70
391.78	37.45
391.97	32.77
392.16	0.00
392.36	0.00
392.55	110.01
392.75	0.00
392.94	0.00
393.13	53.83
393.33	23.41
393.52	0.00
393.71	0.00
393.91	21.06
394.10	65.54
394.29	25.75
394.49	18.72
394.68	0.00
394.88	16.38
395.07	0.00
395.26	16.38
395.46	2.34
395.65	49.15
395.84	56.17
396.04	72.56
396.23	39.79
396.42	51.49
396.62	0.00
396.81	0.00
397.00	110.01
397.19	0.00
397.39	0.00
397.58	72.56
397.77	114.69
397.97	32.77
398.16	37.45
398.35	23.41
398.55	0.00
398.74	0.00
398.93	63.19
399.12	30.43
399.32	21.06
399.51	18.72
399.70	102.98
399.90	93.62
400.09	42.13
400.28	2.34
400.47	0.00
400.67	70.22
400.86	32.77
401.05	86.60
401.24	46.81
401.44	65.54
401.63	56.17
401.82	53.83
402.01	18.72
402.21	30.43
402.40	70.22
402.59	11.70
402.78	67.88
402.97	14.04
403.17	37.45
403.36	23.41
403.55	4.68
403.74	100.64
403.93	25.75
404.13	32.77
404.32	42.13
404.51	37.45
404.70	0.00
404.89	53.83
405.09	65.54
405.28	88.94
405.47	35.11
405.66	39.79
405.85	39.79
406.05	0.00
406.24	46.81
406.43	0.00
406.62	14.04
406.81	39.79
407.00	35.11
407.20	93.62
407.39	9.36
407.58	21.06
407.77	0.00
407.96	86.60
408.15	49.15
408.34	88.94
408.54	79.58
408.73	0.00
408.92	23.41
409.11	21.06
409.30	0.00
409.49	23.41
409.68	0.00
409.87	21.06
410.07	51.49
410.26	49.15
410.45	67.88
410.64	0.00
410.83	0.00
411.02	86.60
411.21	46.81
411.40	53.83
411.59	70.22
411.78	58.51
411.98	107.66
412.17	42.13
412.36	16.38
412.55	70.22
412.74	49.15
412.93	58.51
413.12	72.56
413.31	37.45
413.50	46.81
413.69	70.22
413.88	114.69
414.07	35.11
414.26	9.36
414.45	32.77
414.64	74.90
414.83	0.00
415.02	0.00
415.22	49.15
415.41	79.58
415.60	56.17
415.79	25.75
415.98	42.13
416.17	9.36
416.36	32.77
416.55	14.04
416.74	70.22
416.93	46.81
417.12	4.68
417.31	107.66
417.50	67.88
417.69	0.00
417.88	58.51
418.07	9.36
418.26	49.15
418.45	25.75
418.64	60.85
418.83	28.09
419.02	32.77
419.21	28.09
419.39	51.49
419.58	0.00
419.77	14.04
419.96	23.41
420.15	25.75
420.34	88.94
420.53	30.43
420.72	60.85
420.91	56.17
421.10	0.00
421.29	23.41
421.48	72.56
421.67	0.00
421.86	60.85
422.05	56.17
422.24	70.22
422.43	0.00
422.61	72.56
422.80	42.13
422.99	16.38
423.18	124.05
423.37	46.81
423.56	32.77
423.75	23.41
423.94	37.45
424.13	93.62
424.32	98.30
424.50	105.32
424.69	67.88
424.88	0.00
425.07	18.72
425.26	44.47
425.45	9.36
425.64	79.58
425.83	72.56
426.01	42.13
426.20	131.07
426.39	44.47
426.58	84.26
426.77	70.22
426.96	23.41
427.15	37.45
427.33	53.83
427.52	93.62
427.71	93.62
427.90	16.38
428.09	51.49
428.28	30.43
428.46	56.17
428.65	11.70
428.84	67.88
429.03	91.28
429.22	70.22
429.40	35.11
429.59	32.77
429.78	0.00
429.97	37.45
430.16	58.51
430.34	100.64
430.53	37.45
430.72	21.06
430.91	131.07
431.10	28.09
431.28	79.58
431.47	65.54
431.66	84.26
431.85	42.13
432.03	74.90
432.22	56.17
432.41	70.22
432.60	77.24
432.79	88.94
432.97	11.70
433.16	53.83
433.35	16.38
433.54	0.00
433.72	44.47
433.91	30.43
434.10	110.01
434.28	44.47
434.47	14.04
434.66	0.00
434.85	65.54
435.03	35.11
435.22	0.00
435.41	58.51
435.59	51.49
435.78	51.49
435.97	30.43
436.16	32.77
436.34	88.94
436.53	67.88
436.72	112.35
436.90	84.26
437.09	95.96
437.28	35.11
437.46	32.77
437.65	42.13
437.84	0.00
438.02	44.47
438.21	56.17
438.40	81.92
438.58	0.00
438.77	4.68
438.96	37.45
439.14	74.90
439.33	4.68
439.52	0.00
439.70	53.83
439.89	39.79
440.08	65.54
440.26	42.13
440.45	44.47
440.63	46.81
440.82	60.85
441.01	37.45
441.19	100.64
441.38	105.32
441.57	53.83
441.75	67.88
441.94	11.70
442.12	121.71
442.31	35.11
442.50	42.13
442.68	77.24
442.87	79.58
443.05	81.92
443.24	44.47
443.43	11.70
443.61	119.37
443.80	39.79
443.98	14.04
444.17	4.68
444.35	119.37
444.54	18.72
444.73	42.13
444.91	102.98
445.10	0.00
445.28	11.70
445.47	65.54
445.65	74.90
445.84	30.43
446.02	44.47
446.21	9.36
446.39	117.03
446.58	46.81
446.77	32.77
446.95	46.81
447.14	77.24
447.32	60.85
447.51	46.81
447.69	16.38
447.88	119.37
448.06	67.88
448.25	67.88
448.43	91.28
448.62	0.00
448.80	49.15
448.99	110.01
449.17	98.30
449.36	60.85
449.54	77.24
449.73	46.81
449.91	84.26
450.10	72.56
450.28	91.28
450.46	53.83
450.65	39.79
450.83	110.01
451.02	100.64
451.20	95.96
451.39	35.11
451.57	0.00
451.76	53.83
451.94	21.06
452.13	7.02
452.31	42.13
452.49	4.68
452.68	65.54
452.86	117.03
453.05	9.36
453.23	51.49
453.42	0.00
453.60	74.90
453.78	46.81
453.97	25.75
454.15	93.62
454.34	0.00
454.52	25.75
454.70	98.30
454.89	0.00
455.07	28.09
455.26	46.81
455.44	88.94
455.62	95.96
455.81	74.90
455.99	39.79
456.17	35.11
456.36	63.19
456.54	0.00
456.73	0.00
456.91	110.01
457.09	77.24
457.28	91.28
457.46	72.56
457.64	23.41
457.83	18.72
458.01	63.19
458.19	2.34
458.38	42.13
458.56	79.58
458.74	95.96
458.93	72.56
459.11	30.43
459.29	32.77
459.48	63.19
459.66	126.39
459.84	39.79
460.03	135.75
460.21	86.60
460.39	53.83
460.57	18.72
460.76	28.09
460.94	79.58
461.12	124.05
461.31	81.92
461.49	110.01
461.67	42.13
461.85	58.51
462.04	7.02
462.22	70.22
462.40	60.85
462.59	128.73
462.77	77.24
462.95	110.01
463.13	30.43
463.32	77.24
463.50	42.13
463.68	58.51
463.86	91.28
464.05	67.88
464.23	140.43
464.41	39.79
464.59	44.47
464.78	9.36
464.96	18.72
465.14	67.88
465.32	16.38
465.50	46.81
465.69	121.71
465.87	4.68
466.05	77.24
466.23	23.41
466.41	2.34
466.60	51.49
466.78	4.68
466.96	135.75
467.14	86.60
467.32	46.81
467.51	79.58
467.69	58.51
467.87	119.37
468.05	25.75
468.23	28.09
468.41	84.26
468.60	37.45
468.78	51.49
468.96	81.92
469.14	14.04
469.32	70.22
469.50	56.17
469.69	119.37
469.87	65.54
470.05	0.00
470.23	21.06
470.41	102.98
470.59	58.51
470.77	0.00
470.95	21.06
471.14	138.09
471.32	0.00
471.50	60.85
471.68	74.90
471.86	88.94
472.04	63.19
472.22	77.24
472.40	86.60
472.58	51.49
472.77	42.13
472.95	23.41
473.13	84.26
473.31	60.85
473.49	77.24
473.67	56.17
473.85	11.70
474.03	58.51
474.21	74.90
474.39	93.62
474.57	4.68
474.75	42.13
474.93	67.88
475.12	44.47
475.30	79.58
475.48	0.00
475.66	0.00
475.84	23.41
476.02	107.66
476.20	121.71
476.38	18.72
476.56	25.75
476.74	81.92
476.92	88.94
477.10	79.58
477.28	110.01
477.46	25.75
477.64	49.15
477.82	77.24
478.00	53.83
478.18	77.24
478.36	98.30
478.54	58.51
478.72	67.88
478.90	70.22
479.08	21.06
479.26	32.77
479.44	84.26
479.62	58.51
479.80	117.03
479.98	0.00
480.16	142.77
480.34	74.90
480.52	84.26
480.70	14.04
480.88	35.11
481.06	88.94
481.24	114.69
481.41	46.81
481.59	53.83
481.77	21.06
481.95	124.05
482.13	119.37
482.31	98.30
482.49	110.01
482.67	25.75
482.85	114.69
483.03	53.83
483.21	91.28
483.39	37.45
483.57	86.60
483.74	51.49
483.92	21.06
484.10	39.79
484.28	74.90
484.46	56.17
484.64	16.38
484.82	91.28
485.00	60.85
485.18	107.66
485.35	39.79
485.53	53.83
485.71	81.92
485.89	42.13
486.07	140.43
486.25	79.58
486.43	0.00
486.61	65.54
486.78	95.96
486.96	16.38
487.14	23.41
487.32	93.62
487.50	56.17
487.68	44.47
487.85	63.19
488.03	81.92
488.21	67.88
488.39	77.24
488.57	119.37
488.75	152.13
488.92	91.28
489.10	63.19
489.28	65.54
489.46	67.88
489.64	100.64
489.81	56.17
489.99	49.15
490.17	93.62
490.35	60.85
490.53	133.41
490.70	114.69
490.88	37.45
491.06	60.85
491.24	84.26
491.41	39.79
491.59	187.24
491.77	112.35
491.95	91.28
492.13	98.30
492.30	32.77
492.48	81.92
492.66	117.03
492.84	65.54
493.01	86.60
493.19	72.56
493.37	102.98
493.54	37.45
493.72	81.92
493.90	44.47
494.08	126.39
494.25	53.83
494.43	102.98
494.61	18.72
494.79	7.02
494.96	91.28
495.14	46.81
495.32	67.88
495.49	91.28
495.67	81.92
495.85	23.41
496.02	112.35
496.20	63.19
496.38	60.85
496.55	81.92
496.73	107.66
496.91	110.01
497.09	100.64
497.26	93.62
497.44	95.96
497.62	63.19
497.79	100.64
497.97	117.03
498.14	86.60
498.32	105.32
498.50	131.07
498.67	95.96
498.85	60.85
499.03	105.32
499.20	88.94
499.38	81.92
499.56	149.79
499.73	84.26
499.91	140.43
500.08	77.24
500.26	86.60
500.44	88.94
500.61	77.24
500.79	53.83
500.97	95.96
501.14	58.51
501.32	51.49
501.49	0.00
501.67	91.28
501.84	93.62
502.02	86.60
502.20	14.04
502.37	100.64
502.55	88.94
502.72	32.77
502.90	138.09
503.07	110.01
503.25	72.56
503.43	102.98
503.60	44.47
503.78	98.30
503.95	65.54
504.13	37.45
504.30	65.54
504.48	58.51
504.65	133.41
504.83	81.92
505.01	58.51
505.18	49.15
505.36	63.19
505.53	98.30
505.71	107.66
505.88	39.79
506.06	44.47
506.23	91.28
506.41	128.73
506.58	112.35
506.76	44.47
506.93	110.01
507.11	79.58
507.28	107.66
507.46	88.94
507.63	4.68
507.81	112.35
507.98	119.37
508.16	65.54
508.33	49.15
508.50	142.77
508.68	86.60
508.85	100.64
509.03	128.73
509.20	93.62
509.38	67.88
509.55	105.32
509.73	30.43
509.90	30.43
510.08	100.64
510.25	74.90
510.42	100.64
510.60	0.00
510.77	121.71
510.95	84.26
511.12	56.17
511.30	21.06
511.47	49.15
511.64	60.85
511.82	21.06
511.99	70.22
512.17	65.54
512.34	91.28
512.51	131.07
512.69	56.17
512.86	81.92
513.04	110.01
513.21	147.45
513.38	170.86
513.56	88.94
513.73	72.56
513.90	30.43
514.08	114.69
514.25	74.90
514.43	79.58
514.60	149.79
514.77	49.15
514.95	74.90
515.12	0.00
515.29	107.66
515.47	65.54
515.64	67.88
515.81	138.09
515.99	86.60
516.16	117.03
516.33	114.69
516.51	114.69
516.68	44.47
516.85	88.94
517.03	30.43
517.20	88.94
517.37	95.96
517.54	124.05
517.72	184.90
517.89	84.26
518.06	21.06
518.24	14.04
518.41	72.56
518.58	56.17
518.75	35.11
518.93	67.88
519.10	23.41
519.27	77.24
519.45	102.98
519.62	124.05
519.79	42.13
519.96	102.98
520.14	98.30
520.31	86.60
520.48	79.58
520.65	100.64
520.83	114.69
521.00	95.96
521.17	121.71
521.34	28.09
521.52	161.50
521.69	112.35
521.86	30.43
522.03	46.81
522.20	84.26
522.38	51.49
522.55	110.01
522.72	63.19
522.89	149.79
523.07	28.09
523.24	72.56
523.41	72.56
523.58	58.51
523.75	56.17
523.92	9.36
524.10	91.28
524.27	119.37
524.44	117.03
524.61	119.37
524.78	107.66
524.96	53.83
525.13	117.03
525.30	79.58
525.47	138.09
525.64	79.58
525.81	77.24
525.98	88.94
526.16	110.01
526.33	91.28
526.50	72.56
526.67	86.60
526.84	63.19
527.01	112.35
527.18	91.28
527.36	63.19
527.53	65.54
527.70	98.30
527.87	128.73
528.04	187.24
528.21	7.02
528.38	58.51
528.55	49.15
528.72	51.49
528.89	53.83
529.07	72.56
529.24	131.07
529.41	65.54
529.58	35.11
529.75	11.70
529.92	56.17
530.09	107.66
530.26	135.75
530.43	124.05
530.60	0.00
530.77	121.71
530.94	131.07
531.11	65.54
531.28	58.51
531.46	30.43
531.63	11.70
531.80	86.60
531.97	135.75
532.14	117.03
532.31	65.54
532.48	65.54
532.65	25.75
532.82	121.71
532.99	74.90
533.16	14.04
533.33	42.13
533.50	131.07
533.67	74.90
533.84	138.09
534.01	60.85
534.18	44.47
534.35	74.90
534.52	91.28
534.69	156.82
534.86	93.62
535.03	114.69
535.20	102.98
535.37	114.69
535.54	98.30
535.71	154.48
535.88	177.88
536.05	177.88
536.22	72.56
536.38	84.26
536.55	56.17
536.72	105.32
536.89	70.22
537.06	110.01
537.23	39.79
537.40	91.28
537.57	119.37
537.74	124.05
537.91	107.66
538.08	149.79
538.25	138.09
538.42	98.30
538.59	67.88
538.75	175.54
538.92	79.58
539.09	81.92
539.26	67.88
539.43	72.56
539.60	93.62
539.77	128.73
539.94	112.35
540.11	91.28
540.28	119.37
540.44	107.66
540.61	79.58
540.78	105.32
540.95	107.66
541.12	16.38
541.29	100.64
541.46	102.98
541.62	86.60
541.79	28.09
541.96	98.30
542.13	74.90
542.30	58.51
542.47	135.75
542.63	84.26
542.80	72.56
542.97	112.35
543.14	79.58
543.31	77.24
543.48	84.26
543.64	32.77
543.81	98.30
543.98	93.62
544.15	112.35
544.32	107.66
544.48	14.04
544.65	74.90
544.82	21.06
544.99	32.77
545.16	133.41
545.32	9.36
545.49	124.05
545.66	112.35
545.83	7.02
546.00	84.26
546.16	81.92
546.33	67.88
546.50	117.03
546.67	58.51
546.83	70.22
547.00	117.03
547.17	23.41
547.34	63.19
547.50	110.01
547.67	86.60
547.84	53.83
548.00	14.04
548.17	7.02
548.34	63.19
548.51	0.00
548.67	88.94
548.84	93.62
549.01	53.83
549.18	60.85
549.34	121.71
549.51	25.75
549.68	14.04
549.84	86.60
550.01	98.30
550.18	35.11
550.34	72.56
550.51	74.90
550.68	149.79
550.84	124.05
551.01	58.51
551.18	128.73
551.34	117.03
551.51	121.71
551.68	124.05
551.84	147.45
552.01	77.24
552.18	184.90
552.34	37.45
552.51	60.85
552.68	46.81
552.84	63.19
553.01	56.17
553.18	56.17
553.34	107.66
553.51	88.94
553.67	159.16
553.84	72.56
554.01	88.94
554.17	95.96
554.34	49.15
554.51	93.62
554.67	53.83
554.84	112.35
555.00	145.11
555.17	25.75
555.33	60.85
555.50	56.17
555.67	142.77
555.83	46.81
556.00	67.88
556.16	105.32
556.33	84.26
556.50	140.43
556.66	30.43
556.83	88.94
556.99	100.64
557.16	84.26
557.32	56.17
557.49	110.01
557.65	154.48
557.82	49.15
557.98	79.58
558.15	105.32
558.32	100.64
558.48	42.13
558.65	9.36
558.81	21.06
558.98	126.39
559.14	131.07
559.31	196.60
559.47	44.47
559.64	119.37
559.80	67.88
559.97	105.32
560.13	9.36
560.30	81.92
560.46	44.47
560.63	72.56
560.79	112.35
560.96	95.96
561.12	56.17
561.29	154.48
561.45	140.43
561.61	88.94
561.78	67.88
561.94	91.28
562.11	93.62
562.27	65.54
562.44	124.05
562.60	49.15
562.77	95.96
562.93	23.41
563.10	77.24
563.26	56.17
563.42	110.01
563.59	67.88
563.75	77.24
563.92	105.32
564.08	138.09
564.24	63.19
564.41	138.09
564.57	114.69
564.74	77.24
564.90	16.38
565.07	37.45
565.23	93.62
565.39	39.79
565.56	44.47
565.72	135.75
565.88	51.49
566.05	44.47
566.21	86.60
566.38	0.00
566.54	63.19
566.70	25.75
566.87	77.24
567.03	70.22
567.19	37.45
567.36	42.13
567.52	51.49
567.68	117.03
567.85	30.43
568.01	42.13
568.17	0.00
568.34	37.45
568.50	114.69
568.66	37.45
568.83	98.30
568.99	91.28
569.15	63.19
569.32	42.13
569.48	51.49
569.64	35.11
569.81	105.32
569.97	110.01
570.13	124.05
570.30	95.96
570.46	102.98
570.62	32.77
570.78	79.58
570.95	65.54
571.11	65.54
571.27	81.92
571.43	58.51
571.60	79.58
571.76	124.05
571.92	180.22
572.09	60.85
572.25	102.98
572.41	70.22
572.57	42.13
572.74	81.92
572.90	149.79
573.06	0.00
573.22	124.05
573.38	74.90
573.55	95.96
573.71	95.96
573.87	79.58
574.03	91.28
574.20	0.00
574.36	63.19
574.52	88.94
574.68	63.19
574.84	88.94
575.01	147.45
575.17	11.70
575.33	0.00
575.49	81.92
575.65	112.35
575.82	102.98
575.98	98.30
576.14	60.85
576.30	70.22
576.46	170.86
576.62	117.03
576.79	102.98
576.95	79.58
577.11	14.04
577.27	67.88
577.43	187.24
577.59	72.56
577.75	117.03
577.92	30.43
578.08	65.54
578.24	105.32
578.40	145.11
578.56	84.26
578.72	46.81
578.88	124.05
579.04	70.22
579.21	37.45
579.37	88.94
579.53	105.32
579.69	4.68
579.85	119.37
580.01	21.06
580.17	56.17
580.33	35.11
580.49	44.47
580.65	51.49
580.82	58.51
580.98	114.69
581.14	67.88
581.30	105.32
581.46	81.92
581.62	60.85
581.78	65.54
581.94	30.43
582.10	105.32
582.26	107.66
582.42	37.45
582.58	79.58
582.74	35.11
582.90	128.73
583.06	154.48
583.22	56.17
583.38	51.49
583.54	133.41
583.70	88.94
583.86	72.56
584.02	51.49
584.18	128.73
584.34	56.17
584.50	117.03
584.66	63.19
584.82	98.30
584.98	37.45
585.14	37.45
585.30	128.73
585.46	0.00
585.62	79.58
585.78	70.22
585.94	81.92
586.10	126.39
586.26	81.92
586.42	58.51
586.58	51.49
586.74	0.00
586.90	0.00
587.06	77.24
587.22	88.94
587.38	21.06
587.54	91.28
587.70	25.75
587.86	121.71
588.02	32.77
588.18	72.56
588.34	91.28
588.49	58.51
588.65	67.88
588.81	56.17
588.97	32.77
589.13	74.90
589.29	77.24
589.45	79.58
589.61	63.19
589.77	98.30
589.93	21.06
590.08	39.79
590.24	32.77
590.40	25.75
590.56	77.24
590.72	56.17
590.88	70.22
591.04	44.47
591.20	0.00
591.35	63.19
591.51	21.06
591.67	100.64
591.83	79.58
591.99	102.98
592.15	53.83
592.31	70.22
592.46	72.56
592.62	105.32
592.78	102.98
592.94	95.96
593.10	58.51
593.26	117.03
593.41	74.90
593.57	119.37
593.73	74.90
593.89	107.66
594.05	95.96
594.20	56.17
594.36	84.26
594.52	46.81
594.68	51.49
594.84	88.94
594.99	91.28
595.15	112.35
595.31	81.92
595.47	9.36
595.62	128.73
595.78	88.94
595.94	91.28
596.10	49.15
596.25	32.77
596.41	107.66
596.57	11.70
596.73	88.94
596.88	39.79
597.04	16.38
597.20	184.90
597.36	79.58
597.51	81.92
597.67	74.90
597.83	84.26
597.99	102.98
598.14	86.60
598.30	121.71
598.46	91.28
598.61	138.09
598.77	88.94
598.93	46.81
599.09	93.62
599.24	100.64
599.40	131.07
599.56	58.51
599.71	102.98
599.87	56.17
600.03	138.09
600.18	63.19
600.34	93.62
600.50	88.94
600.65	98.30
600.81	67.88
600.97	37.45
601.12	121.71
601.28	114.69
601.44	28.09
601.59	74.90
601.75	65.54
601.91	65.54
602.06	56.17
602.22	95.96
602.37	81.92
602.53	67.88
602.69	72.56
602.84	0.00
603.00	105.32
603.16	86.60
603.31	72.56
603.47	84.26
603.62	49.15
603.78	58.51
603.94	91.28
604.09	95.96
604.25	84.26
604.40	42.13
604.56	49.15
604.71	0.00
604.87	70.22
605.03	14.04
605.18	58.51
605.34	133.41
605.49	124.05
605.65	65.54
605.80	7.02
605.96	49.15
606.12	86.60
606.27	14.04
606.43	98.30
606.58	81.92
606.74	79.58
606.89	0.00
607.05	56.17
607.20	147.45
607.36	0.00
607.51	70.22
607.67	44.47
607.82	79.58
607.98	39.79
608.13	105.32
608.29	58.51
608.44	135.75
608.60	67.88
608.75	133.41
608.91	107.66
609.06	161.50
609.22	42.13
609.37	39.79
609.53	67.88
609.68	100.64
609.84	114.69
609.99	58.51
610.15	74.90
610.30	70.22
610.46	58.51
610.61	88.94
610.76	119.37
610.92	42.13
611.07	60.85
611.23	18.72
611.38	56.17
611.54	95.96
611.69	93.62
611.84	28.09
612.00	81.92
612.15	112.35
612.31	77.24
612.46	124.05
612.62	63.19
612.77	79.58
612.92	63.19
613.08	121.71
613.23	11.70
613.39	79.58
613.54	58.51
613.69	65.54
613.85	140.43
614.00	84.26
614.15	110.01
614.31	4.68
614.46	88.94
614.62	16.38
614.77	25.75
614.92	102.98
615.08	102.98
615.23	100.64
615.38	28.09
615.54	11.70
615.69	105.32
615.84	149.79
616.00	74.90
616.15	63.19
616.30	46.81
616.46	9.36
616.61	79.58
616.76	70.22
616.92	67.88
617.07	95.96
617.22	107.66
617.37	63.19
617.53	35.11
617.68	18.72
617.83	25.75
617.99	58.51
618.14	100.64
618.29	98.30
618.45	23.41
618.60	39.79
618.75	0.00
618.90	42.13
619.06	51.49
619.21	159.16
619.36	110.01
619.51	28.09
619.67	67.88
619.82	72.56
619.97	30.43
620.12	81.92
620.28	44.47
620.43	112.35
620.58	95.96
620.73	95.96
620.89	32.77
621.04	18.72
621.19	49.15
621.34	102.98
621.49	4.68
621.65	44.47
621.80	56.17
621.95	30.43
622.10	44.47
622.25	39.79
622.41	70.22
622.56	77.24
622.71	37.45
622.86	16.38
623.01	51.49
623.16	0.00
623.32	91.28
623.47	60.85
623.62	4.68
623.77	98.30
623.92	86.60
624.07	56.17
624.23	86.60
624.38	72.56
624.53	72.56
624.68	91.28
624.83	60.85
624.98	42.13
625.13	11.70
625.29	107.66
625.44	16.38
625.59	51.49
625.74	126.39
625.89	49.15
626.04	56.17
626.19	67.88
626.34	37.45
626.49	60.85
626.65	37.45
626.80	156.82
626.95	93.62
627.10	32.77
627.25	81.92
627.40	35.11
627.55	51.49
627.70	84.26
627.85	39.79
628.00	0.00
628.15	21.06
628.30	60.85
628.45	77.24
628.60	72.56
628.76	86.60
628.91	53.83
629.06	79.58
629.21	91.28
629.36	65.54
629.51	39.79
629.66	65.54
629.81	44.47
629.96	133.41
630.11	32.77
630.26	77.24
630.41	88.94
630.56	79.58
630.71	46.81
630.86	65.54
631.01	112.35
631.16	65.54
631.31	65.54
631.46	53.83
631.61	49.15
631.76	142.77
631.91	63.19
632.06	79.58
632.21	0.00
632.36	60.85
632.51	77.24
632.66	79.58
632.81	0.00
632.96	95.96
633.10	53.83
633.25	9.36
633.40	168.52
633.55	35.11
633.70	102.98
633.85	46.81
634.00	51.49
634.15	58.51
634.30	32.77
634.45	37.45
634.60	30.43
634.75	86.60
634.90	16.38
635.05	98.30
635.19	0.00
635.34	46.81
635.49	60.85
635.64	32.77
635.79	110.01
635.94	74.90
636.09	114.69
636.24	53.83
636.39	60.85
636.53	30.43
636.68	112.35
636.83	0.00
636.98	30.43
637.13	112.35
637.28	72.56
637.43	51.49
637.57	180.22
637.72	88.94
637.87	11.70
638.02	60.85
638.17	35.11
638.32	0.00
638.46	32.77
638.61	98.30
638.76	53.83
638.91	60.85
639.06	88.94
639.20	35.11
639.35	65.54
639.50	84.26
639.65	49.15
639.80	105.32
639.94	46.81
640.09	0.00
640.24	100.64
640.39	72.56
640.54	46.81
640.68	42.13
640.83	65.54
640.98	42.13
641.13	42.13
641.27	0.00
641.42	77.24
641.57	46.81
641.72	18.72
641.86	102.98
642.01	18.72
642.16	51.49
642.31	72.56
642.45	58.51
642.60	60.85
642.75	70.22
642.90	105.32
643.04	35.11
643.19	44.47
643.34	63.19
643.48	74.90
643.63	0.00
643.78	16.38
643.93	105.32
644.07	67.88
644.22	60.85
644.37	9.36
644.51	0.00
644.66	53.83
644.81	67.88
644.95	35.11
645.10	51.49
645.25	107.66
645.39	25.75
645.54	107.66
645.69	56.17
645.83	44.47
645.98	135.75
646.13	49.15
646.27	9.36
646.42	77.24
646.57	117.03
646.71	37.45
646.86	53.83
647.00	7.02
647.15	58.51
647.30	86.60
647.44	51.49
647.59	0.00
647.74	121.71
647.88	42.13
648.03	0.00
648.17	35.11
648.32	72.56
648.47	30.43
648.61	42.13
648.76	0.00
648.90	49.15
649.05	56.17
649.20	77.24
649.34	58.51
649.49	51.49
649.63	77.24
649.78	21.06
649.92	21.06
650.07	102.98
650.21	18.72
650.36	56.17
650.51	100.64
650.65	46.81
650.80	51.49
650.94	67.88
651.09	18.72
651.23	32.77
651.38	56.17
651.52	42.13
651.67	67.88
651.81	28.09
651.96	32.77
652.10	32.77
652.25	9.36
652.39	46.81
652.54	81.92
652.68	110.01
652.83	74.90
652.97	65.54
653.12	65.54
653.26	42.13
653.41	58.51
653.55	81.92
653.70	72.56
653.84	35.11
653.99	35.11
654.13	51.49
654.27	84.26
654.42	128.73
654.56	107.66
654.71	0.00
654.85	16.38
655.00	51.49
655.14	44.47
655.29	42.13
655.43	72.56
655.57	95.96
655.72	81.92
655.86	53.83
656.01	25.75
656.15	72.56
656.30	21.06
656.44	28.09
656.58	0.00
656.73	79.58
656.87	14.04
657.01	58.51
657.16	79.58
657.30	65.54
657.45	58.51
657.59	154.48
657.73	0.00
657.88	65.54
658.02	18.72
658.16	32.77
658.31	70.22
658.45	102.98
658.60	79.58
658.74	79.58
658.88	42.13
659.03	67.88
659.17	25.75
659.31	21.06
659.46	112.35
659.60	49.15
659.74	60.85
659.89	28.09
660.03	84.26
660.17	0.00
660.32	28.09
660.46	65.54
660.60	70.22
660.74	49.15
660.89	49.15
661.03	4.68
661.17	84.26
661.32	44.47
661.46	88.94
661.60	102.98
661.74	124.05
661.89	0.00
662.03	72.56
662.17	25.75
662.31	32.77
662.46	32.77
662.60	70.22
662.74	42.13
662.88	86.60
663.03	37.45
663.17	63.19
663.31	35.11
663.45	18.72
663.60	56.17
663.74	21.06
663.88	65.54
664.02	117.03
664.17	60.85
664.31	51.49
664.45	35.11
664.59	32.77
664.73	23.41
664.88	0.00
665.02	133.41
665.16	51.49
665.30	25.75
665.44	0.00
665.59	42.13
665.73	28.09
665.87	42.13
666.01	16.38
666.15	58.51
666.29	65.54
666.44	9.36
666.58	16.38
666.72	42.13
666.86	7.02
667.00	44.47
667.14	70.22
667.28	67.88
667.43	23.41
667.57	35.11
667.71	126.39
667.85	30.43
667.99	70.22
668.13	23.41
668.27	105.32
668.41	102.98
668.56	72.56
668.70	105.32
668.84	32.77
668.98	79.58
669.12	88.94
669.26	46.81
669.40	56.17
669.54	63.19
669.68	70.22
669.82	25.75
669.96	30.43
670.10	88.94
670.25	56.17
670.39	74.90
670.53	28.09
670.67	58.51
670.81	53.83
670.95	35.11
671.09	0.00
671.23	0.00
671.37	72.56
671.51	88.94
671.65	86.60
671.79	9.36
671.93	11.70
672.07	58.51
672.21	65.54
672.35	65.54
672.49	58.51
672.63	63.19
672.77	84.26
672.91	30.43
673.05	93.62
673.19	95.96
673.33	70.22
673.47	60.85
673.61	7.02
673.75	110.01
673.89	25.75
674.03	58.51
674.17	32.77
674.31	58.51
674.45	0.00
674.59	30.43
674.73	46.81
674.87	88.94
675.01	81.92
675.15	0.00
675.29	35.11
675.43	35.11
675.56	44.47
675.70	30.43
675.84	0.00
675.98	81.92
676.12	0.00
676.26	72.56
676.40	42.13
676.54	46.81
676.68	0.00
676.82	16.38
676.96	49.15
677.10	56.17
677.23	0.00
677.37	53.83
677.51	0.00
677.65	4.68
677.79	152.13
677.93	4.68
678.07	63.19
678.21	72.56
678.34	100.64
678.48	49.15
678.62	42.13
678.76	39.79
678.90	60.85
679.04	72.56
679.18	14.04
679.31	2.34
679.45	14.04
679.59	91.28
679.73	23.41
679.87	0.00
680.00	16.38
680.14	0.00
680.28	42.13
680.42	46.81
680.56	63.19
680.70	95.96
680.83	49.15
680.97	63.19
681.11	37.45
681.25	98.30
681.39	42.13
681.52	63.19
681.66	93.62
681.80	70.22
681.94	49.15
682.07	70.22
682.21	65.54
682.35	39.79
682.49	70.22
682.62	51.49
682.76	0.00
682.90	18.72
683.04	0.00
683.17	100.64
683.31	35.11
683.45	18.72
683.59	25.75
683.72	0.00
683.86	35.11
684.00	25.75
684.13	65.54
684.27	74.90
684.41	65.54
684.55	60.85
684.68	77.24
684.82	7.02
684.96	86.60
685.09	51.49
685.23	0.00
685.37	0.00
685.50	42.13
685.64	44.47
685.78	9.36
685.91	102.98
686.05	70.22
686.19	0.00
686.32	102.98
686.46	35.11
686.60	0.00
686.73	0.00
686.87	79.58
687.01	16.38
687.14	18.72
687.28	56.17
687.42	77.24
687.55	32.77
687.69	0.00
687.82	46.81
687.96	81.92
688.10	77.24
688.23	51.49
688.37	63.19
688.50	37.45
688.64	49.15
688.78	2.34
688.91	0.00
689.05	0.00
689.18	21.06
689.32	0.00
689.46	18.72
689.59	25.75
689.73	39.79
689.86	77.24
690.00	2.34
690.13	46.81
690.27	0.00
690.41	138.09
690.54	70.22
690.68	35.11
690.81	0.00
690.95	81.92
691.08	30.43
691.22	0.00
691.35	60.85
691.49	77.24
691.62	0.00
691.76	37.45
691.89	56.17
692.03	60.85
692.16	77.24
692.30	0.00
692.43	21.06
692.57	42.13
692.70	9.36
692.84	65.54
692.97	44.47
693.11	46.81
693.24	56.17
693.38	84.26
693.51	49.15
693.65	0.00
693.78	0.00
693.92	32.77
694.05	37.45
694.19	21.06
694.32	100.64
694.45	42.13
694.59	53.83
694.72	74.90
694.86	30.43
694.99	56.17
695.13	2.34
695.26	42.13
695.39	58.51
695.53	65.54
695.66	67.88
695.80	44.47
695.93	37.45
696.07	9.36
696.20	70.22
696.33	58.51
696.47	65.54
696.60	56.17
696.73	72.56
696.87	4.68
697.00	37.45
697.14	4.68
697.27	133.41
697.40	84.26
697.54	65.54
697.67	23.41
697.80	21.06
697.94	67.88
698.07	86.60
698.21	60.85
698.34	35.11
698.47	9.36
698.61	58.51
698.74	0.00
698.87	58.51
699.01	0.00
699.14	30.43
699.27	0.00
699.40	0.00
699.54	11.70
699.67	86.60
699.80	14.04
699.94	49.15
700.07	32.77
700.20	0.00
700.34	32.77
700.47	77.24
700.60	25.75
700.73	58.51
700.87	95.96
701.00	110.01
701.13	35.11
701.26	14.04
701.40	7.02
701.53	14.04
701.66	0.00
701.79	23.41
701.93	18.72
702.06	63.19
702.19	9.36
702.32	74.90
702.46	60.85
702.59	0.00
702.72	11.70
702.85	30.43
702.99	37.45
703.12	44.47
703.25	95.96
703.38	44.47
703.51	28.09
703.65	42.13
703.78	30.43
703.91	0.00
704.04	46.81
704.17	86.60
704.31	39.79
704.44	14.04
704.57	42.13
704.70	65.54
704.83	56.17
704.96	30.43
705.10	14.04
705.23	0.00
>>>>>End Processed Spectral Data<<<<<
