SpectraSuite Data File
++++++++++++++++++++++++++++++++++++
Date: Fri Oct 04 12:13:45 GMT-05:00 2013
User: price-jones
Dark Spectrum Present: No
Reference Spectrum Present: No
Number of Sampled Component Spectra: 1
Spectrometers: USB2+H05261
Integration Time (usec): 10000 (USB2+H05261)
Spectra Averaged: 1 (USB2+H05261)
Boxcar Smoothing: 0 (USB2+H05261)
Correct for Electrical Dark: No (USB2+H05261)
Strobe/Lamp Enabled: No (USB2+H05261)
Correct for Detector Non-linearity: No (USB2+H05261)
Correct for Stray Light: No (USB2+H05261)
Number of Pixels in Processed Spectrum: 2048
>>>>>Begin Processed Spectral Data<<<<<
365.73	65.54
365.92	65.54
366.12	65.54
366.32	0.00
366.52	0.00
366.72	0.00
366.91	0.00
367.11	0.00
367.31	0.00
367.51	0.00
367.70	0.00
367.90	0.00
368.10	0.00
368.30	0.00
368.49	0.00
368.69	0.00
368.89	0.00
369.09	0.00
369.28	0.00
369.48	0.00
369.68	0.00
369.87	0.00
370.07	0.00
370.27	0.00
370.47	0.00
370.66	0.00
370.86	0.00
371.06	0.00
371.25	9.36
371.45	0.00
371.65	0.00
371.84	14.04
372.04	21.06
372.24	9.36
372.44	0.00
372.63	88.94
372.83	28.09
373.03	0.00
373.22	14.04
373.42	46.81
373.62	65.54
373.81	0.00
374.01	21.06
374.21	4.68
374.40	53.83
374.60	86.60
374.79	42.13
374.99	0.00
375.19	9.36
375.38	0.00
375.58	0.00
375.78	56.17
375.97	42.13
376.17	18.72
376.37	93.62
376.56	0.00
376.76	14.04
376.95	44.47
377.15	72.56
377.35	16.38
377.54	44.47
377.74	51.49
377.93	0.00
378.13	39.79
378.33	60.85
378.52	21.06
378.72	0.00
378.91	0.00
379.11	0.00
379.31	0.00
379.50	70.22
379.70	11.70
379.89	0.00
380.09	37.45
380.28	28.09
380.48	2.34
380.68	107.66
380.87	0.00
381.07	0.00
381.26	16.38
381.46	0.00
381.65	70.22
381.85	0.00
382.04	0.00
382.24	2.34
382.43	44.47
382.63	30.43
382.83	14.04
383.02	0.00
383.22	0.00
383.41	0.00
383.61	14.04
383.80	32.77
384.00	0.00
384.19	60.85
384.39	21.06
384.58	11.70
384.78	0.00
384.97	0.00
385.17	0.00
385.36	0.00
385.56	93.62
385.75	0.00
385.95	65.54
386.14	4.68
386.34	16.38
386.53	23.41
386.72	39.79
386.92	25.75
387.11	79.58
387.31	32.77
387.50	0.00
387.70	9.36
387.89	0.00
388.09	0.00
388.28	2.34
388.48	46.81
388.67	0.00
388.86	0.00
389.06	14.04
389.25	70.22
389.45	0.00
389.64	0.00
389.84	0.00
390.03	30.43
390.22	0.00
390.42	0.00
390.61	2.34
390.81	0.00
391.00	0.00
391.19	0.00
391.39	0.00
391.58	0.00
391.78	18.72
391.97	114.69
392.16	11.70
392.36	0.00
392.55	0.00
392.75	28.09
392.94	7.02
393.13	0.00
393.33	37.45
393.52	11.70
393.71	25.75
393.91	39.79
394.10	32.77
394.29	51.49
394.49	49.15
394.68	51.49
394.88	63.19
395.07	2.34
395.26	21.06
395.46	74.90
395.65	63.19
395.84	14.04
396.04	0.00
396.23	0.00
396.42	84.26
396.62	0.00
396.81	25.75
397.00	7.02
397.19	14.04
397.39	70.22
397.58	39.79
397.77	18.72
397.97	65.54
398.16	0.00
398.35	0.00
398.55	67.88
398.74	37.45
398.93	28.09
399.12	0.00
399.32	35.11
399.51	0.00
399.70	49.15
399.90	70.22
400.09	81.92
400.28	39.79
400.47	39.79
400.67	77.24
400.86	44.47
401.05	67.88
401.24	72.56
401.44	37.45
401.63	18.72
401.82	25.75
402.01	39.79
402.21	81.92
402.40	51.49
402.59	16.38
402.78	65.54
402.97	0.00
403.17	0.00
403.36	25.75
403.55	37.45
403.74	0.00
403.93	0.00
404.13	18.72
404.32	63.19
404.51	56.17
404.70	0.00
404.89	67.88
405.09	46.81
405.28	7.02
405.47	42.13
405.66	74.90
405.85	0.00
406.05	14.04
406.24	9.36
406.43	30.43
406.62	32.77
406.81	0.00
407.00	0.00
407.20	7.02
407.39	4.68
407.58	79.58
407.77	32.77
407.96	0.00
408.15	4.68
408.34	0.00
408.54	63.19
408.73	44.47
408.92	0.00
409.11	25.75
409.30	60.85
409.49	7.02
409.68	91.28
409.87	0.00
410.07	35.11
410.26	0.00
410.45	37.45
410.64	42.13
410.83	51.49
411.02	0.00
411.21	25.75
411.40	0.00
411.59	56.17
411.78	0.00
411.98	23.41
412.17	11.70
412.36	46.81
412.55	32.77
412.74	53.83
412.93	9.36
413.12	56.17
413.31	32.77
413.50	51.49
413.69	28.09
413.88	0.00
414.07	21.06
414.26	0.00
414.45	16.38
414.64	0.00
414.83	72.56
415.02	51.49
415.22	39.79
415.41	25.75
415.60	2.34
415.79	35.11
415.98	126.39
416.17	72.56
416.36	4.68
416.55	102.98
416.74	25.75
416.93	0.00
417.12	21.06
417.31	98.30
417.50	93.62
417.69	0.00
417.88	102.98
418.07	11.70
418.26	0.00
418.45	0.00
418.64	37.45
418.83	4.68
419.02	0.00
419.21	70.22
419.39	25.75
419.58	0.00
419.77	21.06
419.96	25.75
420.15	0.00
420.34	53.83
420.53	65.54
420.72	35.11
420.91	65.54
421.10	63.19
421.29	18.72
421.48	23.41
421.67	23.41
421.86	46.81
422.05	39.79
422.24	0.00
422.43	58.51
422.61	14.04
422.80	18.72
422.99	18.72
423.18	37.45
423.37	42.13
423.56	65.54
423.75	16.38
423.94	65.54
424.13	42.13
424.32	4.68
424.50	9.36
424.69	63.19
424.88	16.38
425.07	56.17
425.26	0.00
425.45	60.85
425.64	0.00
425.83	28.09
426.01	25.75
426.20	0.00
426.39	0.00
426.58	42.13
426.77	2.34
426.96	0.00
427.15	51.49
427.33	0.00
427.52	58.51
427.71	142.77
427.90	56.17
428.09	9.36
428.28	30.43
428.46	60.85
428.65	44.47
428.84	63.19
429.03	21.06
429.22	74.90
429.40	60.85
429.59	149.79
429.78	14.04
429.97	0.00
430.16	16.38
430.34	102.98
430.53	46.81
430.72	30.43
430.91	128.73
431.10	4.68
431.28	0.00
431.47	119.37
431.66	39.79
431.85	70.22
432.03	25.75
432.22	14.04
432.41	0.00
432.60	44.47
432.79	21.06
432.97	63.19
433.16	56.17
433.35	0.00
433.54	7.02
433.72	42.13
433.91	77.24
434.10	7.02
434.28	0.00
434.47	37.45
434.66	23.41
434.85	11.70
435.03	4.68
435.22	30.43
435.41	25.75
435.59	74.90
435.78	0.00
435.97	0.00
436.16	91.28
436.34	86.60
436.53	70.22
436.72	0.00
436.90	28.09
437.09	60.85
437.28	49.15
437.46	30.43
437.65	63.19
437.84	81.92
438.02	35.11
438.21	128.73
438.40	51.49
438.58	0.00
438.77	65.54
438.96	58.51
439.14	30.43
439.33	74.90
439.52	65.54
439.70	44.47
439.89	35.11
440.08	16.38
440.26	9.36
440.45	49.15
440.63	0.00
440.82	93.62
441.01	23.41
441.19	0.00
441.38	7.02
441.57	0.00
441.75	56.17
441.94	25.75
442.12	56.17
442.31	79.58
442.50	23.41
442.68	37.45
442.87	77.24
443.05	11.70
443.24	51.49
443.43	49.15
443.61	21.06
443.80	0.00
443.98	72.56
444.17	0.00
444.35	86.60
444.54	140.43
444.73	49.15
444.91	23.41
445.10	30.43
445.28	42.13
445.47	0.00
445.65	30.43
445.84	0.00
446.02	74.90
446.21	51.49
446.39	72.56
446.58	77.24
446.77	49.15
446.95	25.75
447.14	51.49
447.32	44.47
447.51	49.15
447.69	30.43
447.88	7.02
448.06	30.43
448.25	21.06
448.43	60.85
448.62	70.22
448.80	60.85
448.99	9.36
449.17	77.24
449.36	23.41
449.54	0.00
449.73	44.47
449.91	70.22
450.10	93.62
450.28	81.92
450.46	14.04
450.65	95.96
450.83	0.00
451.02	88.94
451.20	23.41
451.39	32.77
451.57	9.36
451.76	42.13
451.94	25.75
452.13	30.43
452.31	0.00
452.49	0.00
452.68	70.22
452.86	0.00
453.05	42.13
453.23	0.00
453.42	32.77
453.60	67.88
453.78	18.72
453.97	44.47
454.15	65.54
454.34	44.47
454.52	35.11
454.70	0.00
454.89	79.58
455.07	79.58
455.26	32.77
455.44	119.37
455.62	74.90
455.81	58.51
455.99	39.79
456.17	37.45
456.36	0.00
456.54	37.45
456.73	53.83
456.91	102.98
457.09	81.92
457.28	18.72
457.46	0.00
457.64	60.85
457.83	46.81
458.01	84.26
458.19	72.56
458.38	56.17
458.56	79.58
458.74	44.47
458.93	0.00
459.11	86.60
459.29	28.09
459.48	63.19
459.66	77.24
459.84	0.00
460.03	44.47
460.21	0.00
460.39	72.56
460.57	60.85
460.76	74.90
460.94	63.19
461.12	39.79
461.31	74.90
461.49	98.30
461.67	30.43
461.85	175.54
462.04	28.09
462.22	44.47
462.40	35.11
462.59	44.47
462.77	0.00
462.95	70.22
463.13	7.02
463.32	58.51
463.50	28.09
463.68	11.70
463.86	21.06
464.05	16.38
464.23	81.92
464.41	91.28
464.59	70.22
464.78	0.00
464.96	2.34
465.14	25.75
465.32	42.13
465.50	77.24
465.69	42.13
465.87	23.41
466.05	18.72
466.23	9.36
466.41	0.00
466.60	121.71
466.78	21.06
466.96	107.66
467.14	79.58
467.32	16.38
467.51	49.15
467.69	25.75
467.87	11.70
468.05	7.02
468.23	9.36
468.41	0.00
468.60	0.00
468.78	25.75
468.96	9.36
469.14	79.58
469.32	51.49
469.50	102.98
469.69	35.11
469.87	25.75
470.05	65.54
470.23	16.38
470.41	98.30
470.59	0.00
470.77	0.00
470.95	88.94
471.14	46.81
471.32	72.56
471.50	46.81
471.68	72.56
471.86	46.81
472.04	77.24
472.22	0.00
472.40	0.00
472.58	0.00
472.77	9.36
472.95	53.83
473.13	81.92
473.31	95.96
473.49	0.00
473.67	35.11
473.85	0.00
474.03	7.02
474.21	28.09
474.39	91.28
474.57	25.75
474.75	0.00
474.93	0.00
475.12	49.15
475.30	51.49
475.48	46.81
475.66	14.04
475.84	30.43
476.02	49.15
476.20	84.26
476.38	126.39
476.56	70.22
476.74	18.72
476.92	51.49
477.10	56.17
477.28	51.49
477.46	81.92
477.64	124.05
477.82	2.34
478.00	21.06
478.18	16.38
478.36	0.00
478.54	56.17
478.72	30.43
478.90	37.45
479.08	7.02
479.26	23.41
479.44	42.13
479.62	81.92
479.80	37.45
479.98	16.38
480.16	72.56
480.34	18.72
480.52	28.09
480.70	72.56
480.88	18.72
481.06	35.11
481.24	18.72
481.41	86.60
481.59	42.13
481.77	32.77
481.95	100.64
482.13	7.02
482.31	23.41
482.49	49.15
482.67	0.00
482.85	0.00
483.03	0.00
483.21	18.72
483.39	86.60
483.57	0.00
483.74	35.11
483.92	42.13
484.10	35.11
484.28	28.09
484.46	35.11
484.64	0.00
484.82	44.47
485.00	63.19
485.18	67.88
485.35	37.45
485.53	0.00
485.71	51.49
485.89	44.47
486.07	39.79
486.25	84.26
486.43	49.15
486.61	72.56
486.78	46.81
486.96	42.13
487.14	88.94
487.32	51.49
487.50	110.01
487.68	63.19
487.85	91.28
488.03	28.09
488.21	0.00
488.39	107.66
488.57	46.81
488.75	32.77
488.92	77.24
489.10	58.51
489.28	86.60
489.46	58.51
489.64	14.04
489.81	42.13
489.99	77.24
490.17	28.09
490.35	107.66
490.53	0.00
490.70	30.43
490.88	18.72
491.06	21.06
491.24	60.85
491.41	23.41
491.59	0.00
491.77	11.70
491.95	35.11
492.13	37.45
492.30	74.90
492.48	14.04
492.66	32.77
492.84	14.04
493.01	72.56
493.19	56.17
493.37	37.45
493.54	4.68
493.72	39.79
493.90	11.70
494.08	56.17
494.25	79.58
494.43	21.06
494.61	51.49
494.79	72.56
494.96	32.77
495.14	4.68
495.32	18.72
495.49	21.06
495.67	100.64
495.85	79.58
496.02	72.56
496.20	39.79
496.38	0.00
496.55	37.45
496.73	37.45
496.91	37.45
497.09	7.02
497.26	58.51
497.44	18.72
497.62	0.00
497.79	2.34
497.97	70.22
498.14	46.81
498.32	28.09
498.50	0.00
498.67	91.28
498.85	53.83
499.03	114.69
499.20	100.64
499.38	42.13
499.56	28.09
499.73	23.41
499.91	77.24
500.08	42.13
500.26	77.24
500.44	53.83
500.61	28.09
500.79	53.83
500.97	37.45
501.14	72.56
501.32	86.60
501.49	30.43
501.67	30.43
501.84	49.15
502.02	35.11
502.20	100.64
502.37	67.88
502.55	74.90
502.72	25.75
502.90	44.47
503.07	49.15
503.25	14.04
503.43	35.11
503.60	42.13
503.78	110.01
503.95	128.73
504.13	16.38
504.30	107.66
504.48	25.75
504.65	39.79
504.83	46.81
505.01	74.90
505.18	23.41
505.36	63.19
505.53	119.37
505.71	79.58
505.88	105.32
506.06	93.62
506.23	39.79
506.41	102.98
506.58	81.92
506.76	84.26
506.93	46.81
507.11	21.06
507.28	79.58
507.46	39.79
507.63	72.56
507.81	0.00
507.98	37.45
508.16	67.88
508.33	84.26
508.50	49.15
508.68	11.70
508.85	72.56
509.03	23.41
509.20	88.94
509.38	72.56
509.55	35.11
509.73	131.07
509.90	63.19
510.08	11.70
510.25	88.94
510.42	23.41
510.60	42.13
510.77	25.75
510.95	7.02
511.12	42.13
511.30	39.79
511.47	30.43
511.64	100.64
511.82	0.00
511.99	0.00
512.17	0.00
512.34	74.90
512.51	18.72
512.69	0.00
512.86	23.41
513.04	0.00
513.21	67.88
513.38	81.92
513.56	110.01
513.73	121.71
513.90	0.00
514.08	0.00
514.25	65.54
514.43	35.11
514.60	56.17
514.77	79.58
514.95	51.49
515.12	100.64
515.29	84.26
515.47	4.68
515.64	35.11
515.81	39.79
515.99	53.83
516.16	4.68
516.33	49.15
516.51	81.92
516.68	56.17
516.85	72.56
517.03	4.68
517.20	138.09
517.37	84.26
517.54	4.68
517.72	42.13
517.89	0.00
518.06	28.09
518.24	0.00
518.41	42.13
518.58	35.11
518.75	37.45
518.93	25.75
519.10	28.09
519.27	95.96
519.45	42.13
519.62	63.19
519.79	25.75
519.96	53.83
520.14	11.70
520.31	128.73
520.48	53.83
520.65	0.00
520.83	98.30
521.00	79.58
521.17	84.26
521.34	58.51
521.52	53.83
521.69	100.64
521.86	37.45
522.03	98.30
522.20	86.60
522.38	79.58
522.55	77.24
522.72	56.17
522.89	72.56
523.07	58.51
523.24	9.36
523.41	91.28
523.58	25.75
523.75	4.68
523.92	44.47
524.10	58.51
524.27	30.43
524.44	18.72
524.61	11.70
524.78	18.72
524.96	102.98
525.13	0.00
525.30	63.19
525.47	84.26
525.64	56.17
525.81	0.00
525.98	112.35
526.16	0.00
526.33	16.38
526.50	70.22
526.67	37.45
526.84	0.00
527.01	0.00
527.18	35.11
527.36	46.81
527.53	4.68
527.70	67.88
527.87	79.58
528.04	53.83
528.21	86.60
528.38	37.45
528.55	0.00
528.72	46.81
528.89	0.00
529.07	51.49
529.24	63.19
529.41	67.88
529.58	11.70
529.75	0.00
529.92	74.90
530.09	42.13
530.26	72.56
530.43	140.43
530.60	32.77
530.77	35.11
530.94	77.24
531.11	79.58
531.28	56.17
531.46	100.64
531.63	32.77
531.80	32.77
531.97	60.85
532.14	67.88
532.31	81.92
532.48	77.24
532.65	44.47
532.82	81.92
532.99	0.00
533.16	16.38
533.33	161.50
533.50	72.56
533.67	56.17
533.84	28.09
534.01	9.36
534.18	110.01
534.35	53.83
534.52	46.81
534.69	102.98
534.86	63.19
535.03	0.00
535.20	58.51
535.37	88.94
535.54	37.45
535.71	25.75
535.88	0.00
536.05	46.81
536.22	18.72
536.38	42.13
536.55	60.85
536.72	56.17
536.89	0.00
537.06	23.41
537.23	70.22
537.40	58.51
537.57	39.79
537.74	2.34
537.91	51.49
538.08	63.19
538.25	30.43
538.42	117.03
538.59	60.85
538.75	7.02
538.92	25.75
539.09	28.09
539.26	37.45
539.43	98.30
539.60	46.81
539.77	0.00
539.94	46.81
540.11	18.72
540.28	37.45
540.44	35.11
540.61	98.30
540.78	88.94
540.95	32.77
541.12	11.70
541.29	70.22
541.46	84.26
541.62	51.49
541.79	37.45
541.96	18.72
542.13	37.45
542.30	0.00
542.47	7.02
542.63	65.54
542.80	32.77
542.97	21.06
543.14	53.83
543.31	107.66
543.48	4.68
543.64	44.47
543.81	2.34
543.98	84.26
544.15	7.02
544.32	98.30
544.48	53.83
544.65	21.06
544.82	79.58
544.99	25.75
545.16	86.60
545.32	44.47
545.49	0.00
545.66	58.51
545.83	11.70
546.00	30.43
546.16	35.11
546.33	105.32
546.50	77.24
546.67	95.96
546.83	21.06
547.00	72.56
547.17	67.88
547.34	81.92
547.50	0.00
547.67	100.64
547.84	0.00
548.00	63.19
548.17	16.38
548.34	86.60
548.51	25.75
548.67	86.60
548.84	77.24
549.01	93.62
549.18	58.51
549.34	63.19
549.51	81.92
549.68	42.13
549.84	77.24
550.01	28.09
550.18	21.06
550.34	53.83
550.51	53.83
550.68	46.81
550.84	53.83
551.01	95.96
551.18	56.17
551.34	91.28
551.51	25.75
551.68	102.98
551.84	35.11
552.01	56.17
552.18	30.43
552.34	74.90
552.51	77.24
552.68	81.92
552.84	18.72
553.01	0.00
553.18	84.26
553.34	14.04
553.51	79.58
553.67	67.88
553.84	65.54
554.01	39.79
554.17	65.54
554.34	28.09
554.51	35.11
554.67	67.88
554.84	58.51
555.00	37.45
555.17	84.26
555.33	28.09
555.50	93.62
555.67	67.88
555.83	44.47
556.00	37.45
556.16	53.83
556.33	88.94
556.50	88.94
556.66	74.90
556.83	39.79
556.99	39.79
557.16	46.81
557.32	0.00
557.49	14.04
557.65	42.13
557.82	81.92
557.98	58.51
558.15	0.00
558.32	0.00
558.48	51.49
558.65	44.47
558.81	79.58
558.98	81.92
559.14	88.94
559.31	0.00
559.47	84.26
559.64	35.11
559.80	32.77
559.97	159.16
560.13	9.36
560.30	114.69
560.46	84.26
560.63	72.56
560.79	110.01
560.96	53.83
561.12	126.39
561.29	49.15
561.45	67.88
561.61	49.15
561.78	14.04
561.94	30.43
562.11	124.05
562.27	53.83
562.44	14.04
562.60	72.56
562.77	21.06
562.93	7.02
563.10	46.81
563.26	9.36
563.42	0.00
563.59	131.07
563.75	58.51
563.92	0.00
564.08	110.01
564.24	46.81
564.41	28.09
564.57	42.13
564.74	74.90
564.90	58.51
565.07	46.81
565.23	35.11
565.39	67.88
565.56	84.26
565.72	21.06
565.88	44.47
566.05	4.68
566.21	9.36
566.38	0.00
566.54	105.32
566.70	95.96
566.87	39.79
567.03	0.00
567.19	32.77
567.36	58.51
567.52	14.04
567.68	86.60
567.85	7.02
568.01	32.77
568.17	30.43
568.34	91.28
568.50	88.94
568.66	28.09
568.83	63.19
568.99	49.15
569.15	74.90
569.32	25.75
569.48	58.51
569.64	42.13
569.81	14.04
569.97	58.51
570.13	51.49
570.30	14.04
570.46	46.81
570.62	84.26
570.78	100.64
570.95	30.43
571.11	74.90
571.27	110.01
571.43	98.30
571.60	46.81
571.76	84.26
571.92	100.64
572.09	16.38
572.25	11.70
572.41	0.00
572.57	60.85
572.74	63.19
572.90	16.38
573.06	35.11
573.22	84.26
573.38	28.09
573.55	0.00
573.71	91.28
573.87	51.49
574.03	51.49
574.20	0.00
574.36	42.13
574.52	79.58
574.68	124.05
574.84	135.75
575.01	63.19
575.17	56.17
575.33	56.17
575.49	58.51
575.65	37.45
575.82	39.79
575.98	79.58
576.14	86.60
576.30	49.15
576.46	9.36
576.62	0.00
576.79	56.17
576.95	107.66
577.11	39.79
577.27	51.49
577.43	46.81
577.59	98.30
577.75	14.04
577.92	39.79
578.08	37.45
578.24	25.75
578.40	117.03
578.56	42.13
578.72	81.92
578.88	56.17
579.04	42.13
579.21	0.00
579.37	32.77
579.53	11.70
579.69	0.00
579.85	0.00
580.01	37.45
580.17	107.66
580.33	58.51
580.49	30.43
580.65	0.00
580.82	28.09
580.98	53.83
581.14	110.01
581.30	46.81
581.46	79.58
581.62	0.00
581.78	53.83
581.94	0.00
582.10	32.77
582.26	56.17
582.42	72.56
582.58	93.62
582.74	23.41
582.90	67.88
583.06	56.17
583.22	0.00
583.38	0.00
583.54	23.41
583.70	4.68
583.86	11.70
584.02	93.62
584.18	23.41
584.34	0.00
584.50	7.02
584.66	32.77
584.82	39.79
584.98	86.60
585.14	121.71
585.30	0.00
585.46	70.22
585.62	39.79
585.78	0.00
585.94	107.66
586.10	35.11
586.26	35.11
586.42	23.41
586.58	67.88
586.74	93.62
586.90	0.00
587.06	37.45
587.22	32.77
587.38	46.81
587.54	86.60
587.70	23.41
587.86	16.38
588.02	16.38
588.18	2.34
588.34	42.13
588.49	81.92
588.65	44.47
588.81	23.41
588.97	0.00
589.13	46.81
589.29	63.19
589.45	23.41
589.61	18.72
589.77	7.02
589.93	0.00
590.08	81.92
590.24	16.38
590.40	37.45
590.56	49.15
590.72	70.22
590.88	0.00
591.04	28.09
591.20	23.41
591.35	16.38
591.51	42.13
591.67	16.38
591.83	105.32
591.99	9.36
592.15	25.75
592.31	4.68
592.46	67.88
592.62	60.85
592.78	98.30
592.94	86.60
593.10	154.48
593.26	37.45
593.41	77.24
593.57	42.13
593.73	51.49
593.89	117.03
594.05	32.77
594.20	32.77
594.36	0.00
594.52	102.98
594.68	46.81
594.84	9.36
594.99	32.77
595.15	72.56
595.31	81.92
595.47	117.03
595.62	25.75
595.78	107.66
595.94	0.00
596.10	79.58
596.25	35.11
596.41	86.60
596.57	114.69
596.73	65.54
596.88	25.75
597.04	23.41
597.20	91.28
597.36	74.90
597.51	32.77
597.67	49.15
597.83	51.49
597.99	0.00
598.14	79.58
598.30	11.70
598.46	0.00
598.61	35.11
598.77	138.09
598.93	28.09
599.09	0.00
599.24	35.11
599.40	51.49
599.56	44.47
599.71	39.79
599.87	0.00
600.03	30.43
600.18	49.15
600.34	23.41
600.50	0.00
600.65	67.88
600.81	98.30
600.97	39.79
601.12	0.00
601.28	0.00
601.44	0.00
601.59	18.72
601.75	21.06
601.91	58.51
602.06	37.45
602.22	58.51
602.37	98.30
602.53	51.49
602.69	32.77
602.84	60.85
603.00	0.00
603.16	79.58
603.31	60.85
603.47	0.00
603.62	0.00
603.78	98.30
603.94	88.94
604.09	53.83
604.25	30.43
604.40	56.17
604.56	46.81
604.71	65.54
604.87	21.06
605.03	56.17
605.18	60.85
605.34	105.32
605.49	21.06
605.65	60.85
605.80	28.09
605.96	117.03
606.12	11.70
606.27	4.68
606.43	35.11
606.58	39.79
606.74	28.09
606.89	86.60
607.05	21.06
607.20	0.00
607.36	93.62
607.51	0.00
607.67	63.19
607.82	79.58
607.98	84.26
608.13	58.51
608.29	65.54
608.44	107.66
608.60	30.43
608.75	53.83
608.91	0.00
609.06	28.09
609.22	21.06
609.37	53.83
609.53	0.00
609.68	56.17
609.84	37.45
609.99	11.70
610.15	63.19
610.30	56.17
610.46	44.47
610.61	0.00
610.76	46.81
610.92	21.06
611.07	53.83
611.23	74.90
611.38	110.01
611.54	0.00
611.69	0.00
611.84	70.22
612.00	9.36
612.15	93.62
612.31	18.72
612.46	0.00
612.62	21.06
612.77	46.81
612.92	37.45
613.08	58.51
613.23	58.51
613.39	46.81
613.54	56.17
613.69	65.54
613.85	21.06
614.00	53.83
614.15	9.36
614.31	67.88
614.46	30.43
614.62	49.15
614.77	0.00
614.92	11.70
615.08	32.77
615.23	84.26
615.38	53.83
615.54	21.06
615.69	95.96
615.84	86.60
616.00	37.45
616.15	72.56
616.30	37.45
616.46	126.39
616.61	0.00
616.76	18.72
616.92	60.85
617.07	23.41
617.22	32.77
617.37	35.11
617.53	93.62
617.68	46.81
617.83	81.92
617.99	70.22
618.14	58.51
618.29	58.51
618.45	110.01
618.60	58.51
618.75	117.03
618.90	86.60
619.06	14.04
619.21	42.13
619.36	63.19
619.51	88.94
619.67	77.24
619.82	37.45
619.97	51.49
620.12	9.36
620.28	30.43
620.43	102.98
620.58	107.66
620.73	72.56
620.89	14.04
621.04	58.51
621.19	39.79
621.34	0.00
621.49	67.88
621.65	46.81
621.80	32.77
621.95	16.38
622.10	39.79
622.25	74.90
622.41	4.68
622.56	35.11
622.71	14.04
622.86	28.09
623.01	84.26
623.16	156.82
623.32	4.68
623.47	30.43
623.62	0.00
623.77	16.38
623.92	9.36
624.07	70.22
624.23	119.37
624.38	0.00
624.53	91.28
624.68	51.49
624.83	11.70
624.98	60.85
625.13	44.47
625.29	39.79
625.44	0.00
625.59	0.00
625.74	107.66
625.89	21.06
626.04	14.04
626.19	93.62
626.34	4.68
626.49	58.51
626.65	21.06
626.80	30.43
626.95	86.60
627.10	16.38
627.25	42.13
627.40	0.00
627.55	56.17
627.70	35.11
627.85	121.71
628.00	60.85
628.15	44.47
628.30	32.77
628.45	4.68
628.60	25.75
628.76	49.15
628.91	35.11
629.06	7.02
629.21	67.88
629.36	42.13
629.51	79.58
629.66	14.04
629.81	135.75
629.96	0.00
630.11	102.98
630.26	18.72
630.41	42.13
630.56	39.79
630.71	35.11
630.86	72.56
631.01	0.00
631.16	7.02
631.31	42.13
631.46	63.19
631.61	77.24
631.76	74.90
631.91	0.00
632.06	51.49
632.21	9.36
632.36	0.00
632.51	49.15
632.66	46.81
632.81	60.85
632.96	4.68
633.10	79.58
633.25	42.13
633.40	4.68
633.55	42.13
633.70	65.54
633.85	63.19
634.00	39.79
634.15	7.02
634.30	81.92
634.45	35.11
634.60	0.00
634.75	49.15
634.90	9.36
635.05	53.83
635.19	39.79
635.34	51.49
635.49	56.17
635.64	11.70
635.79	7.02
635.94	42.13
636.09	60.85
636.24	51.49
636.39	0.00
636.53	39.79
636.68	46.81
636.83	51.49
636.98	0.00
637.13	32.77
637.28	49.15
637.43	23.41
637.57	51.49
637.72	44.47
637.87	0.00
638.02	74.90
638.17	0.00
638.32	81.92
638.46	11.70
638.61	21.06
638.76	30.43
638.91	58.51
639.06	91.28
639.20	9.36
639.35	107.66
639.50	49.15
639.65	79.58
639.80	35.11
639.94	0.00
640.09	65.54
640.24	60.85
640.39	35.11
640.54	0.00
640.68	7.02
640.83	0.00
640.98	72.56
641.13	0.00
641.27	14.04
641.42	88.94
641.57	14.04
641.72	2.34
641.86	21.06
642.01	49.15
642.16	30.43
642.31	18.72
642.45	51.49
642.60	25.75
642.75	18.72
642.90	131.07
643.04	72.56
643.19	77.24
643.34	0.00
643.48	93.62
643.63	21.06
643.78	100.64
643.93	46.81
644.07	28.09
644.22	16.38
644.37	65.54
644.51	11.70
644.66	63.19
644.81	32.77
644.95	18.72
645.10	0.00
645.25	56.17
645.39	42.13
645.54	93.62
645.69	70.22
645.83	63.19
645.98	98.30
646.13	65.54
646.27	11.70
646.42	9.36
646.57	77.24
646.71	11.70
646.86	0.00
647.00	0.00
647.15	39.79
647.30	18.72
647.44	11.70
647.59	42.13
647.74	0.00
647.88	37.45
648.03	4.68
648.17	21.06
648.32	67.88
648.47	72.56
648.61	30.43
648.76	39.79
648.90	72.56
649.05	72.56
649.20	0.00
649.34	30.43
649.49	35.11
649.63	84.26
649.78	39.79
649.92	53.83
650.07	70.22
650.21	67.88
650.36	81.92
650.51	0.00
650.65	4.68
650.80	135.75
650.94	81.92
651.09	28.09
651.23	84.26
651.38	11.70
651.52	7.02
651.67	46.81
651.81	49.15
651.96	126.39
652.10	4.68
652.25	56.17
652.39	18.72
652.54	14.04
652.68	0.00
652.83	42.13
652.97	2.34
653.12	37.45
653.26	56.17
653.41	0.00
653.55	0.00
653.70	23.41
653.84	91.28
653.99	72.56
654.13	56.17
654.27	81.92
654.42	102.98
654.56	46.81
654.71	93.62
654.85	0.00
655.00	32.77
655.14	28.09
655.29	58.51
655.43	28.09
655.57	112.35
655.72	11.70
655.86	28.09
656.01	18.72
656.15	117.03
656.30	25.75
656.44	0.00
656.58	0.00
656.73	11.70
656.87	30.43
657.01	0.00
657.16	77.24
657.30	28.09
657.45	0.00
657.59	56.17
657.73	16.38
657.88	32.77
658.02	32.77
658.16	0.00
658.31	100.64
658.45	51.49
658.60	4.68
658.74	49.15
658.88	0.00
659.03	28.09
659.17	65.54
659.31	58.51
659.46	93.62
659.60	39.79
659.74	35.11
659.89	84.26
660.03	107.66
660.17	39.79
660.32	35.11
660.46	9.36
660.60	65.54
660.74	25.75
660.89	126.39
661.03	72.56
661.17	14.04
661.32	72.56
661.46	30.43
661.60	30.43
661.74	49.15
661.89	37.45
662.03	81.92
662.17	93.62
662.31	117.03
662.46	25.75
662.60	2.34
662.74	14.04
662.88	28.09
663.03	74.90
663.17	16.38
663.31	86.60
663.45	77.24
663.60	42.13
663.74	67.88
663.88	60.85
664.02	46.81
664.17	46.81
664.31	0.00
664.45	16.38
664.59	65.54
664.73	37.45
664.88	42.13
665.02	23.41
665.16	39.79
665.30	79.58
665.44	51.49
665.59	32.77
665.73	0.00
665.87	49.15
666.01	63.19
666.15	84.26
666.29	49.15
666.44	28.09
666.58	142.77
666.72	56.17
666.86	77.24
667.00	28.09
667.14	14.04
667.28	0.00
667.43	100.64
667.57	16.38
667.71	14.04
667.85	53.83
667.99	42.13
668.13	0.00
668.27	0.00
668.41	58.51
668.56	28.09
668.70	0.00
668.84	2.34
668.98	74.90
669.12	35.11
669.26	0.00
669.40	23.41
669.54	25.75
669.68	72.56
669.82	37.45
669.96	42.13
670.10	18.72
670.25	49.15
670.39	9.36
670.53	42.13
670.67	60.85
670.81	0.00
670.95	37.45
671.09	117.03
671.23	46.81
671.37	16.38
671.51	37.45
671.65	79.58
671.79	70.22
671.93	74.90
672.07	0.00
672.21	56.17
672.35	14.04
672.49	88.94
672.63	21.06
672.77	4.68
672.91	98.30
673.05	35.11
673.19	25.75
673.33	63.19
673.47	121.71
673.61	18.72
673.75	60.85
673.89	28.09
674.03	18.72
674.17	0.00
674.31	56.17
674.45	74.90
674.59	23.41
674.73	32.77
674.87	81.92
675.01	0.00
675.15	84.26
675.29	65.54
675.43	4.68
675.56	0.00
675.70	0.00
675.84	39.79
675.98	56.17
676.12	7.02
676.26	56.17
676.40	37.45
676.54	60.85
676.68	74.90
676.82	60.85
676.96	0.00
677.10	23.41
677.23	0.00
677.37	4.68
677.51	9.36
677.65	11.70
677.79	44.47
677.93	84.26
678.07	0.00
678.21	0.00
678.34	4.68
678.48	0.00
678.62	51.49
678.76	39.79
678.90	2.34
679.04	35.11
679.18	0.00
679.31	16.38
679.45	9.36
679.59	18.72
679.73	56.17
679.87	0.00
680.00	28.09
680.14	32.77
680.28	25.75
680.42	30.43
680.56	9.36
680.70	0.00
680.83	117.03
680.97	58.51
681.11	100.64
681.25	51.49
681.39	9.36
681.52	0.00
681.66	88.94
681.80	14.04
681.94	63.19
682.07	0.00
682.21	114.69
682.35	60.85
682.49	138.09
682.62	72.56
682.76	25.75
682.90	65.54
683.04	46.81
683.17	46.81
683.31	44.47
683.45	74.90
683.59	28.09
683.72	7.02
683.86	37.45
684.00	53.83
684.13	112.35
684.27	0.00
684.41	32.77
684.55	35.11
684.68	53.83
684.82	30.43
684.96	0.00
685.09	98.30
685.23	44.47
685.37	30.43
685.50	4.68
685.64	0.00
685.78	35.11
685.91	18.72
686.05	95.96
686.19	37.45
686.32	60.85
686.46	0.00
686.60	44.47
686.73	0.00
686.87	86.60
687.01	77.24
687.14	42.13
687.28	67.88
687.42	42.13
687.55	18.72
687.69	0.00
687.82	53.83
687.96	53.83
688.10	77.24
688.23	7.02
688.37	0.00
688.50	95.96
688.64	53.83
688.78	56.17
688.91	79.58
689.05	0.00
689.18	35.11
689.32	74.90
689.46	46.81
689.59	93.62
689.73	18.72
689.86	51.49
690.00	4.68
690.13	35.11
690.27	51.49
690.41	0.00
690.54	0.00
690.68	0.00
690.81	49.15
690.95	28.09
691.08	65.54
691.22	28.09
691.35	51.49
691.49	100.64
691.62	65.54
691.76	32.77
691.89	18.72
692.03	70.22
692.16	32.77
692.30	49.15
692.43	0.00
692.57	100.64
692.70	35.11
692.84	49.15
692.97	102.98
693.11	28.09
693.24	51.49
693.38	37.45
693.51	28.09
693.65	28.09
693.78	51.49
693.92	14.04
694.05	49.15
694.19	25.75
694.32	35.11
694.45	21.06
694.59	65.54
694.72	28.09
694.86	21.06
694.99	28.09
695.13	16.38
695.26	16.38
695.39	11.70
695.53	0.00
695.66	46.81
695.80	0.00
695.93	58.51
696.07	0.00
696.20	81.92
696.33	49.15
696.47	0.00
696.60	39.79
696.73	0.00
696.87	56.17
697.00	42.13
697.14	0.00
697.27	77.24
697.40	9.36
697.54	35.11
697.67	53.83
697.80	21.06
697.94	37.45
698.07	53.83
698.21	18.72
698.34	74.90
698.47	30.43
698.61	23.41
698.74	0.00
698.87	95.96
699.01	60.85
699.14	0.00
699.27	0.00
699.40	9.36
699.54	0.00
699.67	37.45
699.80	16.38
699.94	9.36
700.07	11.70
700.20	0.00
700.34	14.04
700.47	25.75
700.60	86.60
700.73	91.28
700.87	81.92
701.00	51.49
701.13	0.00
701.26	42.13
701.40	32.77
701.53	0.00
701.66	21.06
701.79	35.11
701.93	58.51
702.06	107.66
702.19	2.34
702.32	18.72
702.46	74.90
702.59	51.49
702.72	16.38
702.85	81.92
702.99	11.70
703.12	11.70
703.25	37.45
703.38	58.51
703.51	44.47
703.65	42.13
703.78	42.13
703.91	42.13
704.04	25.75
704.17	37.45
704.31	51.49
704.44	51.49
704.57	32.77
704.70	42.13
704.83	0.00
704.96	0.00
705.10	32.77
705.23	0.00
>>>>>End Processed Spectral Data<<<<<
