SpectraSuite Data File
++++++++++++++++++++++++++++++++++++
Date: Fri Oct 04 12:13:41 GMT-05:00 2013
User: price-jones
Dark Spectrum Present: No
Reference Spectrum Present: No
Number of Sampled Component Spectra: 1
Spectrometers: USB2+H05261
Integration Time (usec): 10000 (USB2+H05261)
Spectra Averaged: 1 (USB2+H05261)
Boxcar Smoothing: 0 (USB2+H05261)
Correct for Electrical Dark: No (USB2+H05261)
Strobe/Lamp Enabled: No (USB2+H05261)
Correct for Detector Non-linearity: No (USB2+H05261)
Correct for Stray Light: No (USB2+H05261)
Number of Pixels in Processed Spectrum: 2048
>>>>>Begin Processed Spectral Data<<<<<
365.73	0.00
365.92	0.00
366.12	0.00
366.32	0.00
366.52	0.00
366.72	0.00
366.91	0.00
367.11	0.00
367.31	0.00
367.51	0.00
367.70	0.00
367.90	0.00
368.10	0.00
368.30	0.00
368.49	0.00
368.69	0.00
368.89	0.00
369.09	0.00
369.28	0.00
369.48	0.00
369.68	0.00
369.87	0.00
370.07	0.00
370.27	0.00
370.47	0.00
370.66	0.00
370.86	0.00
371.06	0.00
371.25	0.00
371.45	9.36
371.65	0.00
371.84	0.00
372.04	0.00
372.24	0.00
372.44	0.00
372.63	51.49
372.83	102.98
373.03	32.77
373.22	65.54
373.42	25.75
373.62	0.00
373.81	11.70
374.01	58.51
374.21	60.85
374.40	35.11
374.60	28.09
374.79	0.00
374.99	74.90
375.19	14.04
375.38	0.00
375.58	86.60
375.78	39.79
375.97	0.00
376.17	77.24
376.37	63.19
376.56	0.00
376.76	11.70
376.95	18.72
377.15	14.04
377.35	11.70
377.54	9.36
377.74	44.47
377.93	0.00
378.13	53.83
378.33	39.79
378.52	0.00
378.72	14.04
378.91	32.77
379.11	28.09
379.31	0.00
379.50	30.43
379.70	51.49
379.89	63.19
380.09	18.72
380.28	0.00
380.48	0.00
380.68	0.00
380.87	32.77
381.07	46.81
381.26	30.43
381.46	0.00
381.65	35.11
381.85	0.00
382.04	0.00
382.24	0.00
382.43	32.77
382.63	72.56
382.83	37.45
383.02	14.04
383.22	72.56
383.41	0.00
383.61	0.00
383.80	0.00
384.00	0.00
384.19	30.43
384.39	121.71
384.58	51.49
384.78	35.11
384.97	39.79
385.17	35.11
385.36	0.00
385.56	28.09
385.75	0.00
385.95	0.00
386.14	0.00
386.34	0.00
386.53	18.72
386.72	60.85
386.92	9.36
387.11	35.11
387.31	9.36
387.50	14.04
387.70	21.06
387.89	14.04
388.09	0.00
388.28	30.43
388.48	14.04
388.67	74.90
388.86	46.81
389.06	0.00
389.25	39.79
389.45	0.00
389.64	37.45
389.84	11.70
390.03	44.47
390.22	53.83
390.42	63.19
390.61	25.75
390.81	0.00
391.00	0.00
391.19	77.24
391.39	42.13
391.58	114.69
391.78	9.36
391.97	18.72
392.16	0.00
392.36	67.88
392.55	21.06
392.75	63.19
392.94	0.00
393.13	112.35
393.33	18.72
393.52	77.24
393.71	28.09
393.91	35.11
394.10	46.81
394.29	93.62
394.49	0.00
394.68	49.15
394.88	84.26
395.07	42.13
395.26	16.38
395.46	95.96
395.65	0.00
395.84	9.36
396.04	72.56
396.23	28.09
396.42	56.17
396.62	2.34
396.81	9.36
397.00	51.49
397.19	49.15
397.39	53.83
397.58	42.13
397.77	39.79
397.97	28.09
398.16	28.09
398.35	37.45
398.55	16.38
398.74	77.24
398.93	93.62
399.12	39.79
399.32	0.00
399.51	4.68
399.70	0.00
399.90	49.15
400.09	65.54
400.28	0.00
400.47	16.38
400.67	28.09
400.86	25.75
401.05	0.00
401.24	32.77
401.44	49.15
401.63	0.00
401.82	77.24
402.01	21.06
402.21	0.00
402.40	0.00
402.59	21.06
402.78	0.00
402.97	0.00
403.17	44.47
403.36	79.58
403.55	0.00
403.74	32.77
403.93	18.72
404.13	44.47
404.32	65.54
404.51	11.70
404.70	0.00
404.89	42.13
405.09	84.26
405.28	58.51
405.47	100.64
405.66	58.51
405.85	95.96
406.05	56.17
406.24	30.43
406.43	39.79
406.62	0.00
406.81	37.45
407.00	0.00
407.20	72.56
407.39	42.13
407.58	70.22
407.77	105.32
407.96	42.13
408.15	77.24
408.34	65.54
408.54	39.79
408.73	58.51
408.92	21.06
409.11	0.00
409.30	37.45
409.49	56.17
409.68	7.02
409.87	42.13
410.07	98.30
410.26	49.15
410.45	14.04
410.64	77.24
410.83	63.19
411.02	16.38
411.21	4.68
411.40	77.24
411.59	0.00
411.78	21.06
411.98	58.51
412.17	4.68
412.36	0.00
412.55	35.11
412.74	25.75
412.93	4.68
413.12	0.00
413.31	0.00
413.50	30.43
413.69	60.85
413.88	107.66
414.07	0.00
414.26	32.77
414.45	35.11
414.64	14.04
414.83	7.02
415.02	7.02
415.22	56.17
415.41	0.00
415.60	23.41
415.79	102.98
415.98	39.79
416.17	56.17
416.36	18.72
416.55	53.83
416.74	86.60
416.93	39.79
417.12	35.11
417.31	67.88
417.50	2.34
417.69	72.56
417.88	9.36
418.07	88.94
418.26	21.06
418.45	72.56
418.64	102.98
418.83	23.41
419.02	39.79
419.21	28.09
419.39	53.83
419.58	51.49
419.77	28.09
419.96	16.38
420.15	93.62
420.34	18.72
420.53	14.04
420.72	21.06
420.91	35.11
421.10	100.64
421.29	56.17
421.48	88.94
421.67	42.13
421.86	30.43
422.05	46.81
422.24	28.09
422.43	65.54
422.61	32.77
422.80	131.07
422.99	9.36
423.18	0.00
423.37	51.49
423.56	0.00
423.75	86.60
423.94	2.34
424.13	0.00
424.32	14.04
424.50	60.85
424.69	0.00
424.88	7.02
425.07	81.92
425.26	88.94
425.45	16.38
425.64	105.32
425.83	100.64
426.01	0.00
426.20	44.47
426.39	16.38
426.58	110.01
426.77	44.47
426.96	32.77
427.15	95.96
427.33	32.77
427.52	35.11
427.71	56.17
427.90	95.96
428.09	0.00
428.28	21.06
428.46	102.98
428.65	35.11
428.84	112.35
429.03	0.00
429.22	28.09
429.40	14.04
429.59	67.88
429.78	37.45
429.97	70.22
430.16	112.35
430.34	37.45
430.53	28.09
430.72	0.00
430.91	21.06
431.10	0.00
431.28	56.17
431.47	44.47
431.66	0.00
431.85	42.13
432.03	0.00
432.22	86.60
432.41	72.56
432.60	93.62
432.79	84.26
432.97	30.43
433.16	30.43
433.35	23.41
433.54	25.75
433.72	72.56
433.91	58.51
434.10	46.81
434.28	67.88
434.47	0.00
434.66	107.66
434.85	30.43
435.03	70.22
435.22	49.15
435.41	49.15
435.59	44.47
435.78	28.09
435.97	65.54
436.16	93.62
436.34	16.38
436.53	65.54
436.72	49.15
436.90	65.54
437.09	79.58
437.28	100.64
437.46	53.83
437.65	51.49
437.84	114.69
438.02	49.15
438.21	44.47
438.40	74.90
438.58	25.75
438.77	49.15
438.96	72.56
439.14	39.79
439.33	72.56
439.52	56.17
439.70	42.13
439.89	14.04
440.08	53.83
440.26	107.66
440.45	37.45
440.63	63.19
440.82	23.41
441.01	91.28
441.19	9.36
441.38	60.85
441.57	53.83
441.75	44.47
441.94	32.77
442.12	30.43
442.31	67.88
442.50	0.00
442.68	44.47
442.87	84.26
443.05	25.75
443.24	60.85
443.43	58.51
443.61	124.05
443.80	86.60
443.98	117.03
444.17	65.54
444.35	44.47
444.54	67.88
444.73	23.41
444.91	49.15
445.10	56.17
445.28	72.56
445.47	0.00
445.65	18.72
445.84	79.58
446.02	53.83
446.21	119.37
446.39	0.00
446.58	91.28
446.77	56.17
446.95	77.24
447.14	18.72
447.32	39.79
447.51	63.19
447.69	105.32
447.88	0.00
448.06	79.58
448.25	93.62
448.43	51.49
448.62	37.45
448.80	70.22
448.99	42.13
449.17	16.38
449.36	70.22
449.54	30.43
449.73	60.85
449.91	7.02
450.10	72.56
450.28	65.54
450.46	18.72
450.65	18.72
450.83	0.00
451.02	25.75
451.20	56.17
451.39	81.92
451.57	2.34
451.76	65.54
451.94	39.79
452.13	81.92
452.31	49.15
452.49	21.06
452.68	53.83
452.86	81.92
453.05	44.47
453.23	51.49
453.42	37.45
453.60	0.00
453.78	0.00
453.97	0.00
454.15	0.00
454.34	0.00
454.52	70.22
454.70	0.00
454.89	56.17
455.07	58.51
455.26	74.90
455.44	0.00
455.62	79.58
455.81	39.79
455.99	42.13
456.17	60.85
456.36	0.00
456.54	18.72
456.73	30.43
456.91	74.90
457.09	58.51
457.28	100.64
457.46	70.22
457.64	53.83
457.83	7.02
458.01	42.13
458.19	95.96
458.38	102.98
458.56	74.90
458.74	28.09
458.93	2.34
459.11	93.62
459.29	21.06
459.48	11.70
459.66	56.17
459.84	49.15
460.03	67.88
460.21	18.72
460.39	70.22
460.57	53.83
460.76	84.26
460.94	51.49
461.12	46.81
461.31	18.72
461.49	79.58
461.67	42.13
461.85	30.43
462.04	63.19
462.22	119.37
462.40	65.54
462.59	65.54
462.77	56.17
462.95	63.19
463.13	30.43
463.32	98.30
463.50	100.64
463.68	37.45
463.86	30.43
464.05	74.90
464.23	72.56
464.41	60.85
464.59	70.22
464.78	23.41
464.96	107.66
465.14	86.60
465.32	63.19
465.50	0.00
465.69	72.56
465.87	46.81
466.05	86.60
466.23	49.15
466.41	56.17
466.60	95.96
466.78	70.22
466.96	67.88
467.14	60.85
467.32	32.77
467.51	88.94
467.69	70.22
467.87	46.81
468.05	105.32
468.23	138.09
468.41	100.64
468.60	0.00
468.78	46.81
468.96	42.13
469.14	51.49
469.32	23.41
469.50	23.41
469.69	51.49
469.87	16.38
470.05	49.15
470.23	56.17
470.41	65.54
470.59	4.68
470.77	23.41
470.95	30.43
471.14	44.47
471.32	51.49
471.50	74.90
471.68	28.09
471.86	72.56
472.04	81.92
472.22	37.45
472.40	102.98
472.58	65.54
472.77	72.56
472.95	7.02
473.13	138.09
473.31	140.43
473.49	79.58
473.67	81.92
473.85	16.38
474.03	23.41
474.21	60.85
474.39	35.11
474.57	63.19
474.75	102.98
474.93	77.24
475.12	49.15
475.30	65.54
475.48	21.06
475.66	0.00
475.84	67.88
476.02	60.85
476.20	86.60
476.38	67.88
476.56	138.09
476.74	91.28
476.92	110.01
477.10	81.92
477.28	53.83
477.46	37.45
477.64	39.79
477.82	39.79
478.00	0.00
478.18	105.32
478.36	88.94
478.54	91.28
478.72	21.06
478.90	0.00
479.08	72.56
479.26	53.83
479.44	51.49
479.62	70.22
479.80	88.94
479.98	81.92
480.16	16.38
480.34	112.35
480.52	21.06
480.70	72.56
480.88	84.26
481.06	67.88
481.24	81.92
481.41	70.22
481.59	67.88
481.77	93.62
481.95	91.28
482.13	128.73
482.31	133.41
482.49	72.56
482.67	95.96
482.85	110.01
483.03	37.45
483.21	88.94
483.39	18.72
483.57	25.75
483.74	63.19
483.92	9.36
484.10	0.00
484.28	35.11
484.46	77.24
484.64	93.62
484.82	74.90
485.00	98.30
485.18	51.49
485.35	74.90
485.53	35.11
485.71	124.05
485.89	46.81
486.07	105.32
486.25	100.64
486.43	60.85
486.61	81.92
486.78	84.26
486.96	58.51
487.14	46.81
487.32	65.54
487.50	4.68
487.68	67.88
487.85	81.92
488.03	107.66
488.21	74.90
488.39	44.47
488.57	56.17
488.75	56.17
488.92	234.05
489.10	119.37
489.28	86.60
489.46	65.54
489.64	110.01
489.81	98.30
489.99	49.15
490.17	25.75
490.35	72.56
490.53	60.85
490.70	93.62
490.88	70.22
491.06	56.17
491.24	30.43
491.41	65.54
491.59	112.35
491.77	39.79
491.95	18.72
492.13	49.15
492.30	84.26
492.48	105.32
492.66	114.69
492.84	95.96
493.01	9.36
493.19	131.07
493.37	72.56
493.54	18.72
493.72	117.03
493.90	72.56
494.08	72.56
494.25	121.71
494.43	65.54
494.61	79.58
494.79	0.00
494.96	37.45
495.14	79.58
495.32	56.17
495.49	93.62
495.67	39.79
495.85	53.83
496.02	65.54
496.20	84.26
496.38	74.90
496.55	51.49
496.73	79.58
496.91	117.03
497.09	21.06
497.26	63.19
497.44	51.49
497.62	95.96
497.79	0.00
497.97	56.17
498.14	98.30
498.32	56.17
498.50	74.90
498.67	98.30
498.85	93.62
499.03	100.64
499.20	131.07
499.38	42.13
499.56	117.03
499.73	35.11
499.91	100.64
500.08	44.47
500.26	159.16
500.44	67.88
500.61	107.66
500.79	18.72
500.97	128.73
501.14	63.19
501.32	77.24
501.49	124.05
501.67	70.22
501.84	65.54
502.02	53.83
502.20	100.64
502.37	86.60
502.55	112.35
502.72	91.28
502.90	91.28
503.07	84.26
503.25	100.64
503.43	46.81
503.60	152.13
503.78	46.81
503.95	28.09
504.13	58.51
504.30	60.85
504.48	72.56
504.65	79.58
504.83	114.69
505.01	91.28
505.18	107.66
505.36	114.69
505.53	60.85
505.71	105.32
505.88	53.83
506.06	60.85
506.23	58.51
506.41	79.58
506.58	121.71
506.76	28.09
506.93	25.75
507.11	44.47
507.28	60.85
507.46	44.47
507.63	84.26
507.81	154.48
507.98	117.03
508.16	0.00
508.33	86.60
508.50	58.51
508.68	95.96
508.85	30.43
509.03	53.83
509.20	79.58
509.38	28.09
509.55	37.45
509.73	70.22
509.90	65.54
510.08	63.19
510.25	28.09
510.42	105.32
510.60	138.09
510.77	86.60
510.95	135.75
511.12	65.54
511.30	114.69
511.47	77.24
511.64	107.66
511.82	102.98
511.99	112.35
512.17	67.88
512.34	63.19
512.51	0.00
512.69	65.54
512.86	42.13
513.04	84.26
513.21	74.90
513.38	114.69
513.56	95.96
513.73	105.32
513.90	208.31
514.08	79.58
514.25	74.90
514.43	107.66
514.60	46.81
514.77	70.22
514.95	42.13
515.12	32.77
515.29	81.92
515.47	67.88
515.64	138.09
515.81	39.79
515.99	28.09
516.16	140.43
516.33	25.75
516.51	0.00
516.68	124.05
516.85	39.79
517.03	91.28
517.20	124.05
517.37	107.66
517.54	121.71
517.72	37.45
517.89	18.72
518.06	37.45
518.24	74.90
518.41	119.37
518.58	0.00
518.75	84.26
518.93	138.09
519.10	46.81
519.27	56.17
519.45	58.51
519.62	91.28
519.79	74.90
519.96	39.79
520.14	105.32
520.31	65.54
520.48	81.92
520.65	65.54
520.83	121.71
521.00	105.32
521.17	100.64
521.34	110.01
521.52	60.85
521.69	86.60
521.86	53.83
522.03	72.56
522.20	77.24
522.38	149.79
522.55	46.81
522.72	56.17
522.89	128.73
523.07	72.56
523.24	28.09
523.41	100.64
523.58	72.56
523.75	70.22
523.92	93.62
524.10	107.66
524.27	72.56
524.44	91.28
524.61	119.37
524.78	67.88
524.96	58.51
525.13	79.58
525.30	114.69
525.47	107.66
525.64	88.94
525.81	25.75
525.98	98.30
526.16	102.98
526.33	32.77
526.50	72.56
526.67	77.24
526.84	88.94
527.01	112.35
527.18	65.54
527.36	28.09
527.53	88.94
527.70	72.56
527.87	119.37
528.04	110.01
528.21	72.56
528.38	72.56
528.55	58.51
528.72	135.75
528.89	105.32
529.07	70.22
529.24	86.60
529.41	133.41
529.58	67.88
529.75	42.13
529.92	32.77
530.09	25.75
530.26	23.41
530.43	81.92
530.60	84.26
530.77	170.86
530.94	37.45
531.11	81.92
531.28	95.96
531.46	58.51
531.63	58.51
531.80	124.05
531.97	95.96
532.14	100.64
532.31	131.07
532.48	67.88
532.65	84.26
532.82	63.19
532.99	93.62
533.16	142.77
533.33	46.81
533.50	79.58
533.67	86.60
533.84	149.79
534.01	93.62
534.18	105.32
534.35	84.26
534.52	135.75
534.69	147.45
534.86	65.54
535.03	131.07
535.20	88.94
535.37	91.28
535.54	149.79
535.71	46.81
535.88	65.54
536.05	93.62
536.22	63.19
536.38	114.69
536.55	128.73
536.72	170.86
536.89	79.58
537.06	88.94
537.23	65.54
537.40	2.34
537.57	72.56
537.74	44.47
537.91	105.32
538.08	154.48
538.25	88.94
538.42	30.43
538.59	177.88
538.75	72.56
538.92	107.66
539.09	28.09
539.26	65.54
539.43	91.28
539.60	86.60
539.77	105.32
539.94	49.15
540.11	67.88
540.28	53.83
540.44	95.96
540.61	65.54
540.78	42.13
540.95	91.28
541.12	84.26
541.29	39.79
541.46	128.73
541.62	32.77
541.79	98.30
541.96	86.60
542.13	72.56
542.30	88.94
542.47	105.32
542.63	84.26
542.80	49.15
542.97	142.77
543.14	60.85
543.31	114.69
543.48	95.96
543.64	107.66
543.81	138.09
543.98	28.09
544.15	46.81
544.32	56.17
544.48	121.71
544.65	117.03
544.82	88.94
544.99	77.24
545.16	79.58
545.32	32.77
545.49	131.07
545.66	100.64
545.83	133.41
546.00	119.37
546.16	18.72
546.33	9.36
546.50	9.36
546.67	74.90
546.83	124.05
547.00	95.96
547.17	74.90
547.34	81.92
547.50	35.11
547.67	121.71
547.84	63.19
548.00	60.85
548.17	4.68
548.34	156.82
548.51	124.05
548.67	86.60
548.84	44.47
549.01	107.66
549.18	98.30
549.34	72.56
549.51	100.64
549.68	105.32
549.84	53.83
550.01	142.77
550.18	65.54
550.34	63.19
550.51	39.79
550.68	159.16
550.84	110.01
551.01	51.49
551.18	91.28
551.34	112.35
551.51	126.39
551.68	72.56
551.84	102.98
552.01	100.64
552.18	35.11
552.34	81.92
552.51	138.09
552.68	88.94
552.84	56.17
553.01	98.30
553.18	7.02
553.34	98.30
553.51	74.90
553.67	4.68
553.84	102.98
554.01	70.22
554.17	77.24
554.34	159.16
554.51	86.60
554.67	93.62
554.84	30.43
555.00	74.90
555.17	67.88
555.33	53.83
555.50	46.81
555.67	11.70
555.83	98.30
556.00	84.26
556.16	142.77
556.33	30.43
556.50	60.85
556.66	79.58
556.83	84.26
556.99	65.54
557.16	51.49
557.32	74.90
557.49	114.69
557.65	98.30
557.82	32.77
557.98	140.43
558.15	152.13
558.32	88.94
558.48	23.41
558.65	93.62
558.81	124.05
558.98	131.07
559.14	128.73
559.31	72.56
559.47	131.07
559.64	147.45
559.80	133.41
559.97	81.92
560.13	107.66
560.30	107.66
560.46	56.17
560.63	142.77
560.79	23.41
560.96	9.36
561.12	58.51
561.29	74.90
561.45	77.24
561.61	119.37
561.78	105.32
561.94	152.13
562.11	11.70
562.27	30.43
562.44	86.60
562.60	95.96
562.77	107.66
562.93	53.83
563.10	119.37
563.26	32.77
563.42	42.13
563.59	42.13
563.75	65.54
563.92	102.98
564.08	84.26
564.24	79.58
564.41	58.51
564.57	119.37
564.74	91.28
564.90	177.88
565.07	30.43
565.23	84.26
565.39	128.73
565.56	0.00
565.72	21.06
565.88	121.71
566.05	107.66
566.21	7.02
566.38	42.13
566.54	84.26
566.70	77.24
566.87	58.51
567.03	93.62
567.19	95.96
567.36	105.32
567.52	117.03
567.68	124.05
567.85	107.66
568.01	44.47
568.17	105.32
568.34	11.70
568.50	53.83
568.66	107.66
568.83	60.85
568.99	39.79
569.15	156.82
569.32	173.20
569.48	28.09
569.64	88.94
569.81	86.60
569.97	44.47
570.13	63.19
570.30	32.77
570.46	86.60
570.62	95.96
570.78	67.88
570.95	131.07
571.11	58.51
571.27	79.58
571.43	25.75
571.60	67.88
571.76	65.54
571.92	56.17
572.09	98.30
572.25	168.52
572.41	65.54
572.57	79.58
572.74	77.24
572.90	77.24
573.06	119.37
573.22	119.37
573.38	77.24
573.55	14.04
573.71	93.62
573.87	25.75
574.03	79.58
574.20	131.07
574.36	81.92
574.52	30.43
574.68	114.69
574.84	0.00
575.01	37.45
575.17	95.96
575.33	67.88
575.49	102.98
575.65	138.09
575.82	51.49
575.98	133.41
576.14	51.49
576.30	65.54
576.46	49.15
576.62	25.75
576.79	0.00
576.95	77.24
577.11	88.94
577.27	93.62
577.43	53.83
577.59	49.15
577.75	44.47
577.92	86.60
578.08	77.24
578.24	95.96
578.40	21.06
578.56	93.62
578.72	159.16
578.88	53.83
579.04	49.15
579.21	72.56
579.37	105.32
579.53	95.96
579.69	112.35
579.85	53.83
580.01	44.47
580.17	72.56
580.33	88.94
580.49	114.69
580.65	105.32
580.82	65.54
580.98	65.54
581.14	49.15
581.30	88.94
581.46	58.51
581.62	110.01
581.78	110.01
581.94	72.56
582.10	138.09
582.26	51.49
582.42	46.81
582.58	46.81
582.74	126.39
582.90	138.09
583.06	72.56
583.22	79.58
583.38	58.51
583.54	51.49
583.70	88.94
583.86	74.90
584.02	16.38
584.18	72.56
584.34	0.00
584.50	105.32
584.66	77.24
584.82	77.24
584.98	102.98
585.14	51.49
585.30	72.56
585.46	65.54
585.62	119.37
585.78	72.56
585.94	86.60
586.10	23.41
586.26	4.68
586.42	135.75
586.58	67.88
586.74	91.28
586.90	145.11
587.06	65.54
587.22	70.22
587.38	67.88
587.54	100.64
587.70	84.26
587.86	63.19
588.02	149.79
588.18	51.49
588.34	18.72
588.49	79.58
588.65	44.47
588.81	0.00
588.97	58.51
589.13	18.72
589.29	30.43
589.45	39.79
589.61	105.32
589.77	42.13
589.93	100.64
590.08	60.85
590.24	121.71
590.40	32.77
590.56	49.15
590.72	77.24
590.88	86.60
591.04	124.05
591.20	14.04
591.35	65.54
591.51	126.39
591.67	110.01
591.83	67.88
591.99	58.51
592.15	74.90
592.31	39.79
592.46	110.01
592.62	121.71
592.78	149.79
592.94	91.28
593.10	86.60
593.26	152.13
593.41	67.88
593.57	79.58
593.73	81.92
593.89	112.35
594.05	107.66
594.20	81.92
594.36	84.26
594.52	49.15
594.68	42.13
594.84	56.17
594.99	100.64
595.15	74.90
595.31	161.50
595.47	72.56
595.62	74.90
595.78	63.19
595.94	98.30
596.10	93.62
596.25	88.94
596.41	63.19
596.57	72.56
596.73	138.09
596.88	65.54
597.04	56.17
597.20	30.43
597.36	93.62
597.51	91.28
597.67	100.64
597.83	114.69
597.99	49.15
598.14	119.37
598.30	30.43
598.46	53.83
598.61	14.04
598.77	56.17
598.93	44.47
599.09	21.06
599.24	147.45
599.40	138.09
599.56	84.26
599.71	95.96
599.87	42.13
600.03	86.60
600.18	72.56
600.34	63.19
600.50	60.85
600.65	58.51
600.81	100.64
600.97	72.56
601.12	37.45
601.28	32.77
601.44	74.90
601.59	79.58
601.75	70.22
601.91	77.24
602.06	81.92
602.22	51.49
602.37	32.77
602.53	23.41
602.69	30.43
602.84	79.58
603.00	152.13
603.16	107.66
603.31	14.04
603.47	81.92
603.62	30.43
603.78	28.09
603.94	49.15
604.09	28.09
604.25	98.30
604.40	72.56
604.56	9.36
604.71	81.92
604.87	4.68
605.03	4.68
605.18	135.75
605.34	91.28
605.49	79.58
605.65	42.13
605.80	0.00
605.96	84.26
606.12	81.92
606.27	117.03
606.43	102.98
606.58	114.69
606.74	28.09
606.89	70.22
607.05	93.62
607.20	119.37
607.36	53.83
607.51	79.58
607.67	93.62
607.82	105.32
607.98	79.58
608.13	49.15
608.29	46.81
608.44	39.79
608.60	131.07
608.75	81.92
608.91	114.69
609.06	88.94
609.22	14.04
609.37	100.64
609.53	51.49
609.68	98.30
609.84	128.73
609.99	42.13
610.15	105.32
610.30	53.83
610.46	28.09
610.61	44.47
610.76	0.00
610.92	91.28
611.07	98.30
611.23	67.88
611.38	93.62
611.54	77.24
611.69	74.90
611.84	63.19
612.00	42.13
612.15	2.34
612.31	102.98
612.46	56.17
612.62	133.41
612.77	133.41
612.92	44.47
613.08	100.64
613.23	72.56
613.39	49.15
613.54	93.62
613.69	0.00
613.85	100.64
614.00	0.00
614.15	65.54
614.31	114.69
614.46	102.98
614.62	14.04
614.77	77.24
614.92	79.58
615.08	77.24
615.23	84.26
615.38	79.58
615.54	70.22
615.69	95.96
615.84	23.41
616.00	74.90
616.15	0.00
616.30	93.62
616.46	79.58
616.61	30.43
616.76	56.17
616.92	0.00
617.07	117.03
617.22	74.90
617.37	65.54
617.53	51.49
617.68	0.00
617.83	100.64
617.99	86.60
618.14	51.49
618.29	0.00
618.45	112.35
618.60	105.32
618.75	119.37
618.90	117.03
619.06	74.90
619.21	67.88
619.36	72.56
619.51	16.38
619.67	46.81
619.82	131.07
619.97	46.81
620.12	110.01
620.28	30.43
620.43	32.77
620.58	74.90
620.73	81.92
620.89	140.43
621.04	46.81
621.19	91.28
621.34	4.68
621.49	91.28
621.65	37.45
621.80	91.28
621.95	0.00
622.10	77.24
622.25	39.79
622.41	105.32
622.56	23.41
622.71	79.58
622.86	39.79
623.01	79.58
623.16	51.49
623.32	44.47
623.47	60.85
623.62	112.35
623.77	100.64
623.92	114.69
624.07	49.15
624.23	72.56
624.38	121.71
624.53	119.37
624.68	58.51
624.83	72.56
624.98	56.17
625.13	142.77
625.29	46.81
625.44	93.62
625.59	102.98
625.74	77.24
625.89	49.15
626.04	63.19
626.19	86.60
626.34	25.75
626.49	25.75
626.65	16.38
626.80	21.06
626.95	0.00
627.10	70.22
627.25	16.38
627.40	0.00
627.55	72.56
627.70	32.77
627.85	60.85
628.00	46.81
628.15	133.41
628.30	51.49
628.45	91.28
628.60	23.41
628.76	63.19
628.91	93.62
629.06	95.96
629.21	0.00
629.36	46.81
629.51	102.98
629.66	95.96
629.81	42.13
629.96	88.94
630.11	86.60
630.26	32.77
630.41	23.41
630.56	58.51
630.71	37.45
630.86	32.77
631.01	18.72
631.16	16.38
631.31	100.64
631.46	60.85
631.61	95.96
631.76	58.51
631.91	77.24
632.06	35.11
632.21	63.19
632.36	28.09
632.51	100.64
632.66	74.90
632.81	86.60
632.96	84.26
633.10	79.58
633.25	135.75
633.40	46.81
633.55	105.32
633.70	77.24
633.85	93.62
634.00	93.62
634.15	65.54
634.30	14.04
634.45	44.47
634.60	77.24
634.75	35.11
634.90	2.34
635.05	159.16
635.19	65.54
635.34	65.54
635.49	128.73
635.64	30.43
635.79	21.06
635.94	124.05
636.09	49.15
636.24	14.04
636.39	25.75
636.53	72.56
636.68	46.81
636.83	49.15
636.98	56.17
637.13	102.98
637.28	28.09
637.43	93.62
637.57	51.49
637.72	131.07
637.87	63.19
638.02	51.49
638.17	77.24
638.32	88.94
638.46	60.85
638.61	67.88
638.76	46.81
638.91	51.49
639.06	14.04
639.20	74.90
639.35	100.64
639.50	135.75
639.65	32.77
639.80	35.11
639.94	56.17
640.09	100.64
640.24	18.72
640.39	0.00
640.54	56.17
640.68	88.94
640.83	110.01
640.98	32.77
641.13	0.00
641.27	70.22
641.42	88.94
641.57	51.49
641.72	98.30
641.86	28.09
642.01	135.75
642.16	28.09
642.31	138.09
642.45	63.19
642.60	91.28
642.75	84.26
642.90	0.00
643.04	28.09
643.19	42.13
643.34	63.19
643.48	46.81
643.63	23.41
643.78	105.32
643.93	102.98
644.07	28.09
644.22	93.62
644.37	74.90
644.51	51.49
644.66	23.41
644.81	65.54
644.95	65.54
645.10	84.26
645.25	49.15
645.39	56.17
645.54	32.77
645.69	121.71
645.83	0.00
645.98	0.00
646.13	74.90
646.27	49.15
646.42	63.19
646.57	72.56
646.71	18.72
646.86	51.49
647.00	79.58
647.15	30.43
647.30	32.77
647.44	53.83
647.59	28.09
647.74	2.34
647.88	60.85
648.03	37.45
648.17	32.77
648.32	37.45
648.47	74.90
648.61	93.62
648.76	53.83
648.90	51.49
649.05	58.51
649.20	102.98
649.34	16.38
649.49	0.00
649.63	93.62
649.78	107.66
649.92	56.17
650.07	49.15
650.21	88.94
650.36	11.70
650.51	30.43
650.65	88.94
650.80	114.69
650.94	42.13
651.09	0.00
651.23	0.00
651.38	51.49
651.52	77.24
651.67	23.41
651.81	121.71
651.96	100.64
652.10	49.15
652.25	72.56
652.39	114.69
652.54	42.13
652.68	46.81
652.83	58.51
652.97	91.28
653.12	0.00
653.26	79.58
653.41	81.92
653.55	46.81
653.70	58.51
653.84	39.79
653.99	46.81
654.13	37.45
654.27	60.85
654.42	67.88
654.56	93.62
654.71	53.83
654.85	18.72
655.00	35.11
655.14	84.26
655.29	49.15
655.43	53.83
655.57	46.81
655.72	131.07
655.86	7.02
656.01	30.43
656.15	60.85
656.30	53.83
656.44	51.49
656.58	131.07
656.73	4.68
656.87	7.02
657.01	128.73
657.16	53.83
657.30	102.98
657.45	7.02
657.59	88.94
657.73	114.69
657.88	37.45
658.02	124.05
658.16	16.38
658.31	39.79
658.45	70.22
658.60	95.96
658.74	60.85
658.88	35.11
659.03	16.38
659.17	112.35
659.31	70.22
659.46	7.02
659.60	58.51
659.74	53.83
659.89	79.58
660.03	37.45
660.17	93.62
660.32	44.47
660.46	42.13
660.60	0.00
660.74	28.09
660.89	91.28
661.03	44.47
661.17	88.94
661.32	67.88
661.46	60.85
661.60	67.88
661.74	65.54
661.89	91.28
662.03	44.47
662.17	7.02
662.31	117.03
662.46	0.00
662.60	0.00
662.74	42.13
662.88	56.17
663.03	98.30
663.17	21.06
663.31	0.00
663.45	39.79
663.60	11.70
663.74	44.47
663.88	63.19
664.02	56.17
664.17	63.19
664.31	14.04
664.45	126.39
664.59	16.38
664.73	63.19
664.88	67.88
665.02	30.43
665.16	51.49
665.30	81.92
665.44	23.41
665.59	58.51
665.73	18.72
665.87	114.69
666.01	79.58
666.15	28.09
666.29	77.24
666.44	91.28
666.58	30.43
666.72	70.22
666.86	72.56
667.00	2.34
667.14	65.54
667.28	81.92
667.43	65.54
667.57	102.98
667.71	0.00
667.85	0.00
667.99	0.00
668.13	84.26
668.27	39.79
668.41	98.30
668.56	58.51
668.70	81.92
668.84	72.56
668.98	51.49
669.12	121.71
669.26	63.19
669.40	128.73
669.54	0.00
669.68	119.37
669.82	53.83
669.96	102.98
670.10	21.06
670.25	11.70
670.39	77.24
670.53	0.00
670.67	93.62
670.81	32.77
670.95	0.00
671.09	18.72
671.23	95.96
671.37	44.47
671.51	28.09
671.65	53.83
671.79	60.85
671.93	30.43
672.07	72.56
672.21	9.36
672.35	58.51
672.49	51.49
672.63	46.81
672.77	0.00
672.91	0.00
673.05	32.77
673.19	30.43
673.33	44.47
673.47	102.98
673.61	58.51
673.75	98.30
673.89	53.83
674.03	25.75
674.17	74.90
674.31	60.85
674.45	95.96
674.59	18.72
674.73	72.56
674.87	88.94
675.01	63.19
675.15	49.15
675.29	30.43
675.43	77.24
675.56	46.81
675.70	58.51
675.84	74.90
675.98	51.49
676.12	67.88
676.26	49.15
676.40	72.56
676.54	70.22
676.68	46.81
676.82	16.38
676.96	63.19
677.10	0.00
677.23	0.00
677.37	4.68
677.51	0.00
677.65	37.45
677.79	32.77
677.93	49.15
678.07	79.58
678.21	0.00
678.34	81.92
678.48	51.49
678.62	21.06
678.76	58.51
678.90	58.51
679.04	88.94
679.18	51.49
679.31	70.22
679.45	32.77
679.59	95.96
679.73	42.13
679.87	49.15
680.00	67.88
680.14	112.35
680.28	51.49
680.42	74.90
680.56	79.58
680.70	107.66
680.83	77.24
680.97	23.41
681.11	42.13
681.25	72.56
681.39	105.32
681.52	0.00
681.66	42.13
681.80	18.72
681.94	18.72
682.07	0.00
682.21	42.13
682.35	23.41
682.49	44.47
682.62	100.64
682.76	56.17
682.90	53.83
683.04	0.00
683.17	86.60
683.31	32.77
683.45	39.79
683.59	25.75
683.72	53.83
683.86	0.00
684.00	107.66
684.13	67.88
684.27	77.24
684.41	44.47
684.55	56.17
684.68	44.47
684.82	25.75
684.96	74.90
685.09	32.77
685.23	49.15
685.37	4.68
685.50	46.81
685.64	35.11
685.78	100.64
685.91	30.43
686.05	51.49
686.19	42.13
686.32	95.96
686.46	51.49
686.60	0.00
686.73	39.79
686.87	102.98
687.01	25.75
687.14	0.00
687.28	114.69
687.42	42.13
687.55	0.00
687.69	86.60
687.82	35.11
687.96	37.45
688.10	70.22
688.23	105.32
688.37	63.19
688.50	11.70
688.64	51.49
688.78	44.47
688.91	37.45
689.05	86.60
689.18	72.56
689.32	56.17
689.46	0.00
689.59	0.00
689.73	56.17
689.86	25.75
690.00	14.04
690.13	77.24
690.27	0.00
690.41	0.00
690.54	58.51
690.68	112.35
690.81	53.83
690.95	25.75
691.08	65.54
691.22	23.41
691.35	32.77
691.49	93.62
691.62	72.56
691.76	65.54
691.89	37.45
692.03	51.49
692.16	21.06
692.30	56.17
692.43	44.47
692.57	0.00
692.70	0.00
692.84	70.22
692.97	0.00
693.11	65.54
693.24	35.11
693.38	51.49
693.51	42.13
693.65	9.36
693.78	93.62
693.92	35.11
694.05	28.09
694.19	7.02
694.32	18.72
694.45	32.77
694.59	35.11
694.72	93.62
694.86	100.64
694.99	14.04
695.13	11.70
695.26	0.00
695.39	63.19
695.53	35.11
695.66	23.41
695.80	0.00
695.93	0.00
696.07	28.09
696.20	51.49
696.33	35.11
696.47	37.45
696.60	56.17
696.73	0.00
696.87	0.00
697.00	79.58
697.14	39.79
697.27	30.43
697.40	65.54
697.54	28.09
697.67	42.13
697.80	44.47
697.94	0.00
698.07	107.66
698.21	79.58
698.34	32.77
698.47	4.68
698.61	37.45
698.74	67.88
698.87	74.90
699.01	30.43
699.14	0.00
699.27	0.00
699.40	32.77
699.54	0.00
699.67	39.79
699.80	107.66
699.94	51.49
700.07	53.83
700.20	0.00
700.34	28.09
700.47	0.00
700.60	0.00
700.73	53.83
700.87	2.34
701.00	63.19
701.13	0.00
701.26	0.00
701.40	0.00
701.53	23.41
701.66	25.75
701.79	37.45
701.93	72.56
702.06	70.22
702.19	72.56
702.32	0.00
702.46	0.00
702.59	25.75
702.72	63.19
702.85	11.70
702.99	11.70
703.12	0.00
703.25	51.49
703.38	53.83
703.51	77.24
703.65	9.36
703.78	44.47
703.91	35.11
704.04	0.00
704.17	39.79
704.31	14.04
704.44	88.94
704.57	0.00
704.70	0.00
704.83	42.13
704.96	72.56
705.10	0.00
705.23	37.45
>>>>>End Processed Spectral Data<<<<<
