SpectraSuite Data File
++++++++++++++++++++++++++++++++++++
Date: Fri Oct 04 12:13:37 GMT-05:00 2013
User: price-jones
Dark Spectrum Present: No
Reference Spectrum Present: No
Number of Sampled Component Spectra: 1
Spectrometers: USB2+H05261
Integration Time (usec): 10000 (USB2+H05261)
Spectra Averaged: 1 (USB2+H05261)
Boxcar Smoothing: 0 (USB2+H05261)
Correct for Electrical Dark: No (USB2+H05261)
Strobe/Lamp Enabled: No (USB2+H05261)
Correct for Detector Non-linearity: No (USB2+H05261)
Correct for Stray Light: No (USB2+H05261)
Number of Pixels in Processed Spectrum: 2048
>>>>>Begin Processed Spectral Data<<<<<
365.73	2.34
365.92	2.34
366.12	2.34
366.32	0.00
366.52	0.00
366.72	0.00
366.91	0.00
367.11	0.00
367.31	0.00
367.51	0.00
367.70	0.00
367.90	0.00
368.10	0.00
368.30	0.00
368.49	0.00
368.69	0.00
368.89	0.00
369.09	0.00
369.28	0.00
369.48	0.00
369.68	0.00
369.87	0.00
370.07	0.00
370.27	0.00
370.47	0.00
370.66	0.00
370.86	0.00
371.06	11.70
371.25	0.00
371.45	0.00
371.65	0.00
371.84	0.00
372.04	0.00
372.24	0.00
372.44	0.00
372.63	14.04
372.83	11.70
373.03	0.00
373.22	23.41
373.42	21.06
373.62	7.02
373.81	70.22
374.01	0.00
374.21	0.00
374.40	42.13
374.60	9.36
374.79	0.00
374.99	30.43
375.19	44.47
375.38	25.75
375.58	72.56
375.78	7.02
375.97	91.28
376.17	18.72
376.37	0.00
376.56	56.17
376.76	42.13
376.95	37.45
377.15	11.70
377.35	2.34
377.54	14.04
377.74	81.92
377.93	0.00
378.13	77.24
378.33	53.83
378.52	39.79
378.72	2.34
378.91	32.77
379.11	51.49
379.31	84.26
379.50	32.77
379.70	30.43
379.89	25.75
380.09	30.43
380.28	114.69
380.48	93.62
380.68	23.41
380.87	32.77
381.07	0.00
381.26	4.68
381.46	0.00
381.65	0.00
381.85	0.00
382.04	44.47
382.24	0.00
382.43	30.43
382.63	21.06
382.83	18.72
383.02	0.00
383.22	0.00
383.41	60.85
383.61	63.19
383.80	49.15
384.00	0.00
384.19	30.43
384.39	25.75
384.58	0.00
384.78	0.00
384.97	9.36
385.17	0.00
385.36	0.00
385.56	21.06
385.75	14.04
385.95	14.04
386.14	0.00
386.34	0.00
386.53	39.79
386.72	0.00
386.92	30.43
387.11	0.00
387.31	84.26
387.50	18.72
387.70	0.00
387.89	93.62
388.09	0.00
388.28	28.09
388.48	46.81
388.67	65.54
388.86	30.43
389.06	0.00
389.25	60.85
389.45	28.09
389.64	37.45
389.84	0.00
390.03	35.11
390.22	58.51
390.42	0.00
390.61	65.54
390.81	9.36
391.00	67.88
391.19	98.30
391.39	42.13
391.58	60.85
391.78	23.41
391.97	11.70
392.16	0.00
392.36	70.22
392.55	37.45
392.75	25.75
392.94	51.49
393.13	0.00
393.33	25.75
393.52	2.34
393.71	72.56
393.91	0.00
394.10	0.00
394.29	11.70
394.49	56.17
394.68	0.00
394.88	77.24
395.07	28.09
395.26	112.35
395.46	74.90
395.65	30.43
395.84	49.15
396.04	0.00
396.23	58.51
396.42	0.00
396.62	25.75
396.81	21.06
397.00	21.06
397.19	7.02
397.39	49.15
397.58	28.09
397.77	74.90
397.97	44.47
398.16	21.06
398.35	56.17
398.55	18.72
398.74	4.68
398.93	16.38
399.12	30.43
399.32	9.36
399.51	21.06
399.70	21.06
399.90	0.00
400.09	49.15
400.28	74.90
400.47	0.00
400.67	25.75
400.86	9.36
401.05	0.00
401.24	21.06
401.44	74.90
401.63	53.83
401.82	79.58
402.01	77.24
402.21	0.00
402.40	25.75
402.59	70.22
402.78	65.54
402.97	70.22
403.17	25.75
403.36	44.47
403.55	23.41
403.74	0.00
403.93	37.45
404.13	60.85
404.32	74.90
404.51	7.02
404.70	46.81
404.89	46.81
405.09	63.19
405.28	88.94
405.47	63.19
405.66	70.22
405.85	60.85
406.05	49.15
406.24	77.24
406.43	0.00
406.62	30.43
406.81	0.00
407.00	0.00
407.20	88.94
407.39	37.45
407.58	65.54
407.77	9.36
407.96	156.82
408.15	35.11
408.34	70.22
408.54	0.00
408.73	46.81
408.92	77.24
409.11	65.54
409.30	46.81
409.49	18.72
409.68	32.77
409.87	0.00
410.07	32.77
410.26	11.70
410.45	21.06
410.64	7.02
410.83	110.01
411.02	88.94
411.21	67.88
411.40	37.45
411.59	32.77
411.78	0.00
411.98	30.43
412.17	49.15
412.36	102.98
412.55	32.77
412.74	107.66
412.93	11.70
413.12	0.00
413.31	88.94
413.50	0.00
413.69	72.56
413.88	0.00
414.07	35.11
414.26	39.79
414.45	23.41
414.64	86.60
414.83	32.77
415.02	56.17
415.22	65.54
415.41	18.72
415.60	25.75
415.79	21.06
415.98	0.00
416.17	72.56
416.36	39.79
416.55	49.15
416.74	16.38
416.93	58.51
417.12	74.90
417.31	88.94
417.50	0.00
417.69	0.00
417.88	0.00
418.07	28.09
418.26	7.02
418.45	51.49
418.64	70.22
418.83	102.98
419.02	56.17
419.21	0.00
419.39	23.41
419.58	65.54
419.77	44.47
419.96	4.68
420.15	56.17
420.34	49.15
420.53	53.83
420.72	63.19
420.91	102.98
421.10	0.00
421.29	72.56
421.48	51.49
421.67	88.94
421.86	0.00
422.05	32.77
422.24	0.00
422.43	4.68
422.61	0.00
422.80	0.00
422.99	65.54
423.18	30.43
423.37	65.54
423.56	79.58
423.75	100.64
423.94	58.51
424.13	42.13
424.32	74.90
424.50	65.54
424.69	0.00
424.88	35.11
425.07	128.73
425.26	70.22
425.45	0.00
425.64	60.85
425.83	7.02
426.01	67.88
426.20	105.32
426.39	42.13
426.58	23.41
426.77	93.62
426.96	70.22
427.15	9.36
427.33	28.09
427.52	39.79
427.71	65.54
427.90	30.43
428.09	2.34
428.28	51.49
428.46	21.06
428.65	77.24
428.84	23.41
429.03	84.26
429.22	91.28
429.40	79.58
429.59	0.00
429.78	77.24
429.97	74.90
430.16	14.04
430.34	18.72
430.53	30.43
430.72	0.00
430.91	18.72
431.10	7.02
431.28	4.68
431.47	46.81
431.66	88.94
431.85	79.58
432.03	0.00
432.22	49.15
432.41	4.68
432.60	51.49
432.79	23.41
432.97	49.15
433.16	32.77
433.35	42.13
433.54	49.15
433.72	49.15
433.91	110.01
434.10	67.88
434.28	95.96
434.47	95.96
434.66	37.45
434.85	72.56
435.03	77.24
435.22	46.81
435.41	65.54
435.59	53.83
435.78	56.17
435.97	98.30
436.16	23.41
436.34	9.36
436.53	23.41
436.72	56.17
436.90	126.39
437.09	18.72
437.28	42.13
437.46	70.22
437.65	39.79
437.84	67.88
438.02	65.54
438.21	51.49
438.40	2.34
438.58	72.56
438.77	72.56
438.96	88.94
439.14	28.09
439.33	58.51
439.52	35.11
439.70	86.60
439.89	65.54
440.08	77.24
440.26	7.02
440.45	39.79
440.63	32.77
440.82	88.94
441.01	60.85
441.19	102.98
441.38	0.00
441.57	0.00
441.75	72.56
441.94	65.54
442.12	32.77
442.31	67.88
442.50	51.49
442.68	119.37
442.87	79.58
443.05	49.15
443.24	110.01
443.43	21.06
443.61	84.26
443.80	0.00
443.98	84.26
444.17	53.83
444.35	42.13
444.54	74.90
444.73	2.34
444.91	53.83
445.10	74.90
445.28	46.81
445.47	35.11
445.65	60.85
445.84	39.79
446.02	37.45
446.21	63.19
446.39	42.13
446.58	93.62
446.77	98.30
446.95	44.47
447.14	37.45
447.32	65.54
447.51	105.32
447.69	107.66
447.88	53.83
448.06	77.24
448.25	95.96
448.43	0.00
448.62	11.70
448.80	0.00
448.99	91.28
449.17	0.00
449.36	114.69
449.54	9.36
449.73	67.88
449.91	72.56
450.10	95.96
450.28	35.11
450.46	53.83
450.65	11.70
450.83	95.96
451.02	0.00
451.20	46.81
451.39	23.41
451.57	110.01
451.76	88.94
451.94	0.00
452.13	60.85
452.31	70.22
452.49	112.35
452.68	4.68
452.86	70.22
453.05	0.00
453.23	60.85
453.42	46.81
453.60	23.41
453.78	11.70
453.97	91.28
454.15	56.17
454.34	30.43
454.52	0.00
454.70	0.00
454.89	2.34
455.07	77.24
455.26	100.64
455.44	58.51
455.62	98.30
455.81	84.26
455.99	21.06
456.17	30.43
456.36	0.00
456.54	67.88
456.73	49.15
456.91	102.98
457.09	42.13
457.28	0.00
457.46	74.90
457.64	51.49
457.83	46.81
458.01	0.00
458.19	84.26
458.38	86.60
458.56	74.90
458.74	77.24
458.93	91.28
459.11	49.15
459.29	56.17
459.48	79.58
459.66	4.68
459.84	18.72
460.03	91.28
460.21	93.62
460.39	0.00
460.57	81.92
460.76	77.24
460.94	74.90
461.12	0.00
461.31	60.85
461.49	49.15
461.67	0.00
461.85	23.41
462.04	72.56
462.22	112.35
462.40	9.36
462.59	25.75
462.77	9.36
462.95	56.17
463.13	67.88
463.32	88.94
463.50	156.82
463.68	0.00
463.86	39.79
464.05	102.98
464.23	142.77
464.41	105.32
464.59	4.68
464.78	0.00
464.96	72.56
465.14	0.00
465.32	51.49
465.50	56.17
465.69	30.43
465.87	95.96
466.05	86.60
466.23	51.49
466.41	42.13
466.60	2.34
466.78	102.98
466.96	88.94
467.14	37.45
467.32	98.30
467.51	37.45
467.69	79.58
467.87	46.81
468.05	42.13
468.23	147.45
468.41	32.77
468.60	37.45
468.78	37.45
468.96	107.66
469.14	135.75
469.32	42.13
469.50	93.62
469.69	93.62
469.87	161.50
470.05	7.02
470.23	14.04
470.41	91.28
470.59	16.38
470.77	16.38
470.95	86.60
471.14	65.54
471.32	32.77
471.50	28.09
471.68	65.54
471.86	95.96
472.04	16.38
472.22	18.72
472.40	30.43
472.58	53.83
472.77	51.49
472.95	98.30
473.13	84.26
473.31	107.66
473.49	56.17
473.67	56.17
473.85	0.00
474.03	46.81
474.21	2.34
474.39	107.66
474.57	77.24
474.75	93.62
474.93	60.85
475.12	56.17
475.30	0.00
475.48	42.13
475.66	63.19
475.84	0.00
476.02	28.09
476.20	79.58
476.38	0.00
476.56	39.79
476.74	91.28
476.92	58.51
477.10	35.11
477.28	74.90
477.46	138.09
477.64	56.17
477.82	25.75
478.00	0.00
478.18	46.81
478.36	42.13
478.54	126.39
478.72	77.24
478.90	11.70
479.08	131.07
479.26	46.81
479.44	63.19
479.62	107.66
479.80	70.22
479.98	25.75
480.16	58.51
480.34	124.05
480.52	72.56
480.70	112.35
480.88	35.11
481.06	0.00
481.24	126.39
481.41	49.15
481.59	53.83
481.77	72.56
481.95	95.96
482.13	72.56
482.31	21.06
482.49	88.94
482.67	60.85
482.85	95.96
483.03	149.79
483.21	95.96
483.39	102.98
483.57	93.62
483.74	42.13
483.92	77.24
484.10	42.13
484.28	72.56
484.46	81.92
484.64	2.34
484.82	72.56
485.00	11.70
485.18	42.13
485.35	77.24
485.53	84.26
485.71	124.05
485.89	0.00
486.07	65.54
486.25	60.85
486.43	79.58
486.61	4.68
486.78	37.45
486.96	70.22
487.14	72.56
487.32	56.17
487.50	100.64
487.68	65.54
487.85	60.85
488.03	0.00
488.21	23.41
488.39	91.28
488.57	0.00
488.75	79.58
488.92	133.41
489.10	93.62
489.28	56.17
489.46	35.11
489.64	65.54
489.81	16.38
489.99	77.24
490.17	37.45
490.35	63.19
490.53	39.79
490.70	42.13
490.88	23.41
491.06	112.35
491.24	74.90
491.41	81.92
491.59	60.85
491.77	114.69
491.95	72.56
492.13	35.11
492.30	65.54
492.48	58.51
492.66	72.56
492.84	81.92
493.01	53.83
493.19	42.13
493.37	42.13
493.54	124.05
493.72	70.22
493.90	53.83
494.08	14.04
494.25	110.01
494.43	95.96
494.61	93.62
494.79	70.22
494.96	21.06
495.14	56.17
495.32	23.41
495.49	77.24
495.67	133.41
495.85	16.38
496.02	100.64
496.20	77.24
496.38	112.35
496.55	30.43
496.73	81.92
496.91	86.60
497.09	79.58
497.26	110.01
497.44	102.98
497.62	79.58
497.79	7.02
497.97	56.17
498.14	154.48
498.32	53.83
498.50	32.77
498.67	145.11
498.85	86.60
499.03	110.01
499.20	128.73
499.38	140.43
499.56	79.58
499.73	46.81
499.91	93.62
500.08	117.03
500.26	32.77
500.44	70.22
500.61	84.26
500.79	117.03
500.97	53.83
501.14	140.43
501.32	105.32
501.49	74.90
501.67	25.75
501.84	84.26
502.02	67.88
502.20	128.73
502.37	93.62
502.55	46.81
502.72	0.00
502.90	121.71
503.07	84.26
503.25	39.79
503.43	67.88
503.60	93.62
503.78	93.62
503.95	60.85
504.13	9.36
504.30	100.64
504.48	121.71
504.65	117.03
504.83	58.51
505.01	102.98
505.18	39.79
505.36	98.30
505.53	74.90
505.71	74.90
505.88	77.24
506.06	88.94
506.23	72.56
506.41	133.41
506.58	70.22
506.76	88.94
506.93	86.60
507.11	65.54
507.28	32.77
507.46	98.30
507.63	18.72
507.81	93.62
507.98	42.13
508.16	42.13
508.33	119.37
508.50	138.09
508.68	74.90
508.85	95.96
509.03	63.19
509.20	37.45
509.38	35.11
509.55	65.54
509.73	30.43
509.90	0.00
510.08	114.69
510.25	49.15
510.42	128.73
510.60	60.85
510.77	77.24
510.95	60.85
511.12	91.28
511.30	110.01
511.47	88.94
511.64	39.79
511.82	84.26
511.99	152.13
512.17	65.54
512.34	72.56
512.51	30.43
512.69	44.47
512.86	77.24
513.04	114.69
513.21	58.51
513.38	37.45
513.56	79.58
513.73	81.92
513.90	49.15
514.08	121.71
514.25	44.47
514.43	46.81
514.60	81.92
514.77	107.66
514.95	79.58
515.12	102.98
515.29	72.56
515.47	51.49
515.64	114.69
515.81	117.03
515.99	140.43
516.16	63.19
516.33	53.83
516.51	133.41
516.68	32.77
516.85	81.92
517.03	77.24
517.20	119.37
517.37	63.19
517.54	112.35
517.72	72.56
517.89	37.45
518.06	133.41
518.24	0.00
518.41	121.71
518.58	81.92
518.75	58.51
518.93	39.79
519.10	98.30
519.27	81.92
519.45	91.28
519.62	63.19
519.79	46.81
519.96	152.13
520.14	63.19
520.31	102.98
520.48	79.58
520.65	72.56
520.83	21.06
521.00	9.36
521.17	16.38
521.34	32.77
521.52	67.88
521.69	53.83
521.86	88.94
522.03	46.81
522.20	72.56
522.38	60.85
522.55	37.45
522.72	152.13
522.89	35.11
523.07	77.24
523.24	65.54
523.41	63.19
523.58	63.19
523.75	84.26
523.92	53.83
524.10	91.28
524.27	114.69
524.44	95.96
524.61	84.26
524.78	98.30
524.96	86.60
525.13	77.24
525.30	117.03
525.47	70.22
525.64	53.83
525.81	98.30
525.98	0.00
526.16	21.06
526.33	100.64
526.50	102.98
526.67	11.70
526.84	98.30
527.01	110.01
527.18	65.54
527.36	65.54
527.53	91.28
527.70	44.47
527.87	133.41
528.04	65.54
528.21	88.94
528.38	133.41
528.55	79.58
528.72	70.22
528.89	42.13
529.07	63.19
529.24	220.01
529.41	67.88
529.58	28.09
529.75	72.56
529.92	81.92
530.09	88.94
530.26	100.64
530.43	56.17
530.60	72.56
530.77	72.56
530.94	74.90
531.11	100.64
531.28	126.39
531.46	135.75
531.63	93.62
531.80	77.24
531.97	100.64
532.14	0.00
532.31	95.96
532.48	14.04
532.65	86.60
532.82	79.58
532.99	112.35
533.16	60.85
533.33	138.09
533.50	72.56
533.67	140.43
533.84	72.56
534.01	105.32
534.18	46.81
534.35	112.35
534.52	63.19
534.69	95.96
534.86	107.66
535.03	86.60
535.20	107.66
535.37	79.58
535.54	91.28
535.71	138.09
535.88	70.22
536.05	140.43
536.22	168.52
536.38	35.11
536.55	126.39
536.72	70.22
536.89	110.01
537.06	56.17
537.23	86.60
537.40	154.48
537.57	84.26
537.74	112.35
537.91	79.58
538.08	35.11
538.25	44.47
538.42	107.66
538.59	30.43
538.75	93.62
538.92	175.54
539.09	39.79
539.26	46.81
539.43	95.96
539.60	44.47
539.77	18.72
539.94	102.98
540.11	32.77
540.28	105.32
540.44	35.11
540.61	65.54
540.78	105.32
540.95	46.81
541.12	84.26
541.29	72.56
541.46	114.69
541.62	95.96
541.79	0.00
541.96	102.98
542.13	42.13
542.30	0.00
542.47	107.66
542.63	88.94
542.80	107.66
542.97	56.17
543.14	88.94
543.31	100.64
543.48	0.00
543.64	65.54
543.81	126.39
543.98	91.28
544.15	70.22
544.32	135.75
544.48	93.62
544.65	60.85
544.82	100.64
544.99	70.22
545.16	163.84
545.32	124.05
545.49	74.90
545.66	84.26
545.83	140.43
546.00	140.43
546.16	56.17
546.33	117.03
546.50	156.82
546.67	67.88
546.83	74.90
547.00	9.36
547.17	70.22
547.34	72.56
547.50	112.35
547.67	161.50
547.84	124.05
548.00	56.17
548.17	53.83
548.34	121.71
548.51	35.11
548.67	65.54
548.84	128.73
549.01	91.28
549.18	70.22
549.34	114.69
549.51	2.34
549.68	88.94
549.84	9.36
550.01	110.01
550.18	11.70
550.34	51.49
550.51	102.98
550.68	37.45
550.84	126.39
551.01	49.15
551.18	81.92
551.34	58.51
551.51	147.45
551.68	161.50
551.84	77.24
552.01	98.30
552.18	102.98
552.34	152.13
552.51	18.72
552.68	72.56
552.84	49.15
553.01	16.38
553.18	135.75
553.34	177.88
553.51	42.13
553.67	102.98
553.84	166.18
554.01	21.06
554.17	117.03
554.34	86.60
554.51	21.06
554.67	56.17
554.84	161.50
555.00	88.94
555.17	84.26
555.33	79.58
555.50	98.30
555.67	44.47
555.83	93.62
556.00	126.39
556.16	86.60
556.33	100.64
556.50	124.05
556.66	79.58
556.83	84.26
556.99	98.30
557.16	88.94
557.32	74.90
557.49	39.79
557.65	135.75
557.82	110.01
557.98	51.49
558.15	72.56
558.32	100.64
558.48	86.60
558.65	67.88
558.81	194.26
558.98	16.38
559.14	74.90
559.31	35.11
559.47	30.43
559.64	91.28
559.80	21.06
559.97	9.36
560.13	35.11
560.30	93.62
560.46	105.32
560.63	53.83
560.79	102.98
560.96	126.39
561.12	95.96
561.29	39.79
561.45	110.01
561.61	140.43
561.78	81.92
561.94	126.39
562.11	72.56
562.27	56.17
562.44	112.35
562.60	135.75
562.77	135.75
562.93	102.98
563.10	110.01
563.26	42.13
563.42	107.66
563.59	147.45
563.75	138.09
563.92	135.75
564.08	93.62
564.24	37.45
564.41	86.60
564.57	35.11
564.74	23.41
564.90	79.58
565.07	42.13
565.23	88.94
565.39	65.54
565.56	95.96
565.72	63.19
565.88	58.51
566.05	77.24
566.21	58.51
566.38	91.28
566.54	35.11
566.70	67.88
566.87	72.56
567.03	91.28
567.19	100.64
567.36	84.26
567.52	147.45
567.68	86.60
567.85	67.88
568.01	37.45
568.17	44.47
568.34	135.75
568.50	65.54
568.66	70.22
568.83	58.51
568.99	25.75
569.15	95.96
569.32	46.81
569.48	49.15
569.64	49.15
569.81	56.17
569.97	81.92
570.13	65.54
570.30	42.13
570.46	49.15
570.62	86.60
570.78	98.30
570.95	77.24
571.11	79.58
571.27	95.96
571.43	4.68
571.60	0.00
571.76	131.07
571.92	74.90
572.09	39.79
572.25	70.22
572.41	65.54
572.57	25.75
572.74	114.69
572.90	86.60
573.06	7.02
573.22	142.77
573.38	42.13
573.55	53.83
573.71	28.09
573.87	30.43
574.03	65.54
574.20	72.56
574.36	49.15
574.52	67.88
574.68	23.41
574.84	135.75
575.01	100.64
575.17	95.96
575.33	77.24
575.49	25.75
575.65	74.90
575.82	30.43
575.98	102.98
576.14	145.11
576.30	51.49
576.46	9.36
576.62	60.85
576.79	91.28
576.95	95.96
577.11	114.69
577.27	81.92
577.43	56.17
577.59	140.43
577.75	28.09
577.92	88.94
578.08	46.81
578.24	72.56
578.40	53.83
578.56	79.58
578.72	88.94
578.88	86.60
579.04	46.81
579.21	30.43
579.37	67.88
579.53	65.54
579.69	18.72
579.85	56.17
580.01	42.13
580.17	39.79
580.33	14.04
580.49	11.70
580.65	77.24
580.82	100.64
580.98	46.81
581.14	74.90
581.30	100.64
581.46	112.35
581.62	11.70
581.78	30.43
581.94	39.79
582.10	100.64
582.26	74.90
582.42	72.56
582.58	74.90
582.74	37.45
582.90	88.94
583.06	107.66
583.22	32.77
583.38	86.60
583.54	70.22
583.70	121.71
583.86	46.81
584.02	46.81
584.18	128.73
584.34	110.01
584.50	105.32
584.66	46.81
584.82	74.90
584.98	107.66
585.14	58.51
585.30	98.30
585.46	93.62
585.62	65.54
585.78	32.77
585.94	114.69
586.10	72.56
586.26	70.22
586.42	70.22
586.58	7.02
586.74	95.96
586.90	30.43
587.06	72.56
587.22	58.51
587.38	105.32
587.54	56.17
587.70	102.98
587.86	98.30
588.02	161.50
588.18	56.17
588.34	114.69
588.49	107.66
588.65	2.34
588.81	32.77
588.97	112.35
589.13	72.56
589.29	14.04
589.45	16.38
589.61	70.22
589.77	65.54
589.93	51.49
590.08	79.58
590.24	84.26
590.40	65.54
590.56	102.98
590.72	70.22
590.88	46.81
591.04	39.79
591.20	72.56
591.35	4.68
591.51	63.19
591.67	93.62
591.83	63.19
591.99	88.94
592.15	63.19
592.31	2.34
592.46	77.24
592.62	35.11
592.78	56.17
592.94	65.54
593.10	72.56
593.26	65.54
593.41	9.36
593.57	4.68
593.73	25.75
593.89	79.58
594.05	42.13
594.20	95.96
594.36	35.11
594.52	30.43
594.68	21.06
594.84	18.72
594.99	79.58
595.15	86.60
595.31	95.96
595.47	28.09
595.62	93.62
595.78	81.92
595.94	86.60
596.10	72.56
596.25	102.98
596.41	51.49
596.57	110.01
596.73	72.56
596.88	110.01
597.04	65.54
597.20	72.56
597.36	98.30
597.51	11.70
597.67	147.45
597.83	51.49
597.99	124.05
598.14	140.43
598.30	79.58
598.46	77.24
598.61	53.83
598.77	49.15
598.93	44.47
599.09	0.00
599.24	37.45
599.40	102.98
599.56	119.37
599.71	110.01
599.87	39.79
600.03	168.52
600.18	35.11
600.34	147.45
600.50	42.13
600.65	79.58
600.81	70.22
600.97	88.94
601.12	98.30
601.28	126.39
601.44	163.84
601.59	110.01
601.75	46.81
601.91	53.83
602.06	86.60
602.22	60.85
602.37	51.49
602.53	65.54
602.69	166.18
602.84	63.19
603.00	91.28
603.16	53.83
603.31	37.45
603.47	81.92
603.62	37.45
603.78	70.22
603.94	79.58
604.09	138.09
604.25	81.92
604.40	95.96
604.56	56.17
604.71	63.19
604.87	32.77
605.03	100.64
605.18	28.09
605.34	114.69
605.49	53.83
605.65	88.94
605.80	70.22
605.96	74.90
606.12	107.66
606.27	72.56
606.43	124.05
606.58	56.17
606.74	16.38
606.89	86.60
607.05	37.45
607.20	67.88
607.36	51.49
607.51	81.92
607.67	39.79
607.82	84.26
607.98	16.38
608.13	63.19
608.29	0.00
608.44	93.62
608.60	60.85
608.75	67.88
608.91	114.69
609.06	42.13
609.22	98.30
609.37	135.75
609.53	74.90
609.68	124.05
609.84	42.13
609.99	98.30
610.15	23.41
610.30	77.24
610.46	126.39
610.61	140.43
610.76	70.22
610.92	21.06
611.07	67.88
611.23	49.15
611.38	51.49
611.54	79.58
611.69	107.66
611.84	124.05
612.00	98.30
612.15	53.83
612.31	72.56
612.46	63.19
612.62	28.09
612.77	30.43
612.92	79.58
613.08	81.92
613.23	14.04
613.39	72.56
613.54	25.75
613.69	42.13
613.85	39.79
614.00	112.35
614.15	95.96
614.31	63.19
614.46	77.24
614.62	63.19
614.77	58.51
614.92	70.22
615.08	35.11
615.23	95.96
615.38	35.11
615.54	37.45
615.69	11.70
615.84	107.66
616.00	67.88
616.15	95.96
616.30	21.06
616.46	60.85
616.61	79.58
616.76	91.28
616.92	74.90
617.07	77.24
617.22	49.15
617.37	28.09
617.53	37.45
617.68	30.43
617.83	110.01
617.99	77.24
618.14	70.22
618.29	102.98
618.45	39.79
618.60	67.88
618.75	65.54
618.90	107.66
619.06	79.58
619.21	46.81
619.36	65.54
619.51	49.15
619.67	60.85
619.82	21.06
619.97	49.15
620.12	30.43
620.28	56.17
620.43	88.94
620.58	70.22
620.73	0.00
620.89	112.35
621.04	107.66
621.19	91.28
621.34	53.83
621.49	72.56
621.65	67.88
621.80	53.83
621.95	30.43
622.10	79.58
622.25	11.70
622.41	39.79
622.56	81.92
622.71	72.56
622.86	117.03
623.01	65.54
623.16	114.69
623.32	23.41
623.47	21.06
623.62	119.37
623.77	42.13
623.92	44.47
624.07	67.88
624.23	44.47
624.38	35.11
624.53	58.51
624.68	65.54
624.83	133.41
624.98	74.90
625.13	84.26
625.29	18.72
625.44	79.58
625.59	16.38
625.74	25.75
625.89	110.01
626.04	93.62
626.19	119.37
626.34	42.13
626.49	56.17
626.65	102.98
626.80	58.51
626.95	46.81
627.10	86.60
627.25	67.88
627.40	81.92
627.55	77.24
627.70	79.58
627.85	56.17
628.00	32.77
628.15	88.94
628.30	32.77
628.45	67.88
628.60	91.28
628.76	81.92
628.91	91.28
629.06	102.98
629.21	124.05
629.36	18.72
629.51	63.19
629.66	67.88
629.81	88.94
629.96	72.56
630.11	117.03
630.26	44.47
630.41	53.83
630.56	67.88
630.71	46.81
630.86	14.04
631.01	51.49
631.16	77.24
631.31	35.11
631.46	67.88
631.61	95.96
631.76	9.36
631.91	25.75
632.06	67.88
632.21	107.66
632.36	133.41
632.51	67.88
632.66	79.58
632.81	0.00
632.96	56.17
633.10	128.73
633.25	0.00
633.40	2.34
633.55	56.17
633.70	100.64
633.85	0.00
634.00	25.75
634.15	110.01
634.30	67.88
634.45	70.22
634.60	32.77
634.75	21.06
634.90	74.90
635.05	138.09
635.19	102.98
635.34	2.34
635.49	58.51
635.64	0.00
635.79	4.68
635.94	79.58
636.09	32.77
636.24	32.77
636.39	60.85
636.53	84.26
636.68	30.43
636.83	72.56
636.98	42.13
637.13	51.49
637.28	42.13
637.43	86.60
637.57	84.26
637.72	91.28
637.87	114.69
638.02	86.60
638.17	35.11
638.32	0.00
638.46	67.88
638.61	91.28
638.76	44.47
638.91	56.17
639.06	100.64
639.20	72.56
639.35	72.56
639.50	28.09
639.65	23.41
639.80	93.62
639.94	56.17
640.09	124.05
640.24	0.00
640.39	91.28
640.54	44.47
640.68	98.30
640.83	56.17
640.98	30.43
641.13	60.85
641.27	23.41
641.42	81.92
641.57	44.47
641.72	58.51
641.86	32.77
642.01	42.13
642.16	46.81
642.31	16.38
642.45	126.39
642.60	63.19
642.75	107.66
642.90	11.70
643.04	44.47
643.19	51.49
643.34	49.15
643.48	39.79
643.63	51.49
643.78	49.15
643.93	110.01
644.07	74.90
644.22	95.96
644.37	60.85
644.51	112.35
644.66	60.85
644.81	0.00
644.95	32.77
645.10	32.77
645.25	28.09
645.39	102.98
645.54	16.38
645.69	72.56
645.83	58.51
645.98	51.49
646.13	88.94
646.27	32.77
646.42	51.49
646.57	51.49
646.71	74.90
646.86	46.81
647.00	58.51
647.15	58.51
647.30	84.26
647.44	72.56
647.59	112.35
647.74	53.83
647.88	56.17
648.03	100.64
648.17	16.38
648.32	81.92
648.47	11.70
648.61	0.00
648.76	32.77
648.90	0.00
649.05	70.22
649.20	44.47
649.34	91.28
649.49	58.51
649.63	44.47
649.78	93.62
649.92	65.54
650.07	72.56
650.21	51.49
650.36	51.49
650.51	11.70
650.65	72.56
650.80	56.17
650.94	46.81
651.09	0.00
651.23	100.64
651.38	39.79
651.52	51.49
651.67	35.11
651.81	63.19
651.96	16.38
652.10	74.90
652.25	7.02
652.39	16.38
652.54	44.47
652.68	4.68
652.83	63.19
652.97	58.51
653.12	95.96
653.26	67.88
653.41	65.54
653.55	84.26
653.70	63.19
653.84	79.58
653.99	46.81
654.13	79.58
654.27	18.72
654.42	0.00
654.56	63.19
654.71	35.11
654.85	74.90
655.00	56.17
655.14	65.54
655.29	81.92
655.43	42.13
655.57	46.81
655.72	67.88
655.86	18.72
656.01	77.24
656.15	102.98
656.30	84.26
656.44	32.77
656.58	49.15
656.73	58.51
656.87	0.00
657.01	35.11
657.16	107.66
657.30	42.13
657.45	72.56
657.59	7.02
657.73	39.79
657.88	84.26
658.02	84.26
658.16	25.75
658.31	16.38
658.45	79.58
658.60	42.13
658.74	81.92
658.88	70.22
659.03	56.17
659.17	117.03
659.31	58.51
659.46	16.38
659.60	0.00
659.74	74.90
659.89	74.90
660.03	37.45
660.17	133.41
660.32	95.96
660.46	21.06
660.60	0.00
660.74	84.26
660.89	39.79
661.03	42.13
661.17	58.51
661.32	70.22
661.46	53.83
661.60	72.56
661.74	11.70
661.89	21.06
662.03	84.26
662.17	51.49
662.31	117.03
662.46	60.85
662.60	102.98
662.74	105.32
662.88	81.92
663.03	81.92
663.17	0.00
663.31	86.60
663.45	23.41
663.60	67.88
663.74	72.56
663.88	18.72
664.02	44.47
664.17	84.26
664.31	70.22
664.45	114.69
664.59	81.92
664.73	42.13
664.88	95.96
665.02	56.17
665.16	53.83
665.30	72.56
665.44	88.94
665.59	63.19
665.73	98.30
665.87	21.06
666.01	86.60
666.15	0.00
666.29	70.22
666.44	56.17
666.58	100.64
666.72	35.11
666.86	25.75
667.00	102.98
667.14	112.35
667.28	81.92
667.43	74.90
667.57	86.60
667.71	126.39
667.85	91.28
667.99	77.24
668.13	25.75
668.27	23.41
668.41	0.00
668.56	2.34
668.70	42.13
668.84	46.81
668.98	11.70
669.12	56.17
669.26	88.94
669.40	74.90
669.54	105.32
669.68	131.07
669.82	37.45
669.96	21.06
670.10	21.06
670.25	44.47
670.39	81.92
670.53	28.09
670.67	56.17
670.81	60.85
670.95	51.49
671.09	114.69
671.23	60.85
671.37	100.64
671.51	25.75
671.65	88.94
671.79	126.39
671.93	105.32
672.07	63.19
672.21	128.73
672.35	86.60
672.49	74.90
672.63	32.77
672.77	53.83
672.91	86.60
673.05	81.92
673.19	42.13
673.33	81.92
673.47	98.30
673.61	14.04
673.75	102.98
673.89	77.24
674.03	44.47
674.17	126.39
674.31	25.75
674.45	46.81
674.59	114.69
674.73	4.68
674.87	84.26
675.01	149.79
675.15	84.26
675.29	56.17
675.43	95.96
675.56	21.06
675.70	37.45
675.84	42.13
675.98	95.96
676.12	65.54
676.26	0.00
676.40	51.49
676.54	21.06
676.68	63.19
676.82	39.79
676.96	65.54
677.10	91.28
677.23	0.00
677.37	0.00
677.51	37.45
677.65	7.02
677.79	49.15
677.93	0.00
678.07	2.34
678.21	42.13
678.34	63.19
678.48	42.13
678.62	9.36
678.76	86.60
678.90	81.92
679.04	42.13
679.18	2.34
679.31	91.28
679.45	88.94
679.59	7.02
679.73	21.06
679.87	39.79
680.00	28.09
680.14	0.00
680.28	0.00
680.42	0.00
680.56	86.60
680.70	2.34
680.83	56.17
680.97	63.19
681.11	0.00
681.25	84.26
681.39	98.30
681.52	44.47
681.66	117.03
681.80	0.00
681.94	39.79
682.07	91.28
682.21	44.47
682.35	7.02
682.49	14.04
682.62	14.04
682.76	18.72
682.90	72.56
683.04	25.75
683.17	42.13
683.31	11.70
683.45	9.36
683.59	91.28
683.72	56.17
683.86	60.85
684.00	67.88
684.13	28.09
684.27	23.41
684.41	102.98
684.55	88.94
684.68	18.72
684.82	18.72
684.96	39.79
685.09	39.79
685.23	72.56
685.37	35.11
685.50	63.19
685.64	121.71
685.78	74.90
685.91	93.62
686.05	37.45
686.19	84.26
686.32	58.51
686.46	84.26
686.60	0.00
686.73	58.51
686.87	0.00
687.01	32.77
687.14	51.49
687.28	46.81
687.42	67.88
687.55	23.41
687.69	91.28
687.82	2.34
687.96	0.00
688.10	79.58
688.23	98.30
688.37	0.00
688.50	46.81
688.64	142.77
688.78	100.64
688.91	102.98
689.05	72.56
689.18	7.02
689.32	58.51
689.46	21.06
689.59	86.60
689.73	65.54
689.86	25.75
690.00	138.09
690.13	70.22
690.27	135.75
690.41	30.43
690.54	30.43
690.68	49.15
690.81	18.72
690.95	0.00
691.08	70.22
691.22	91.28
691.35	60.85
691.49	154.48
691.62	105.32
691.76	65.54
691.89	18.72
692.03	0.00
692.16	81.92
692.30	53.83
692.43	58.51
692.57	98.30
692.70	65.54
692.84	32.77
692.97	163.84
693.11	28.09
693.24	0.00
693.38	14.04
693.51	46.81
693.65	100.64
693.78	117.03
693.92	23.41
694.05	44.47
694.19	53.83
694.32	30.43
694.45	25.75
694.59	79.58
694.72	49.15
694.86	11.70
694.99	37.45
695.13	35.11
695.26	86.60
695.39	25.75
695.53	56.17
695.66	46.81
695.80	35.11
695.93	16.38
696.07	4.68
696.20	0.00
696.33	35.11
696.47	74.90
696.60	16.38
696.73	42.13
696.87	65.54
697.00	65.54
697.14	18.72
697.27	0.00
697.40	53.83
697.54	95.96
697.67	0.00
697.80	0.00
697.94	84.26
698.07	28.09
698.21	0.00
698.34	65.54
698.47	28.09
698.61	86.60
698.74	86.60
698.87	72.56
699.01	32.77
699.14	77.24
699.27	0.00
699.40	84.26
699.54	37.45
699.67	46.81
699.80	42.13
699.94	7.02
700.07	39.79
700.20	35.11
700.34	0.00
700.47	46.81
700.60	0.00
700.73	28.09
700.87	105.32
701.00	65.54
701.13	7.02
701.26	18.72
701.40	46.81
701.53	11.70
701.66	39.79
701.79	53.83
701.93	28.09
702.06	11.70
702.19	7.02
702.32	0.00
702.46	14.04
702.59	46.81
702.72	37.45
702.85	42.13
702.99	53.83
703.12	2.34
703.25	37.45
703.38	65.54
703.51	32.77
703.65	114.69
703.78	42.13
703.91	117.03
704.04	44.47
704.17	67.88
704.31	18.72
704.44	70.22
704.57	46.81
704.70	100.64
704.83	0.00
704.96	117.03
705.10	11.70
705.23	79.58
>>>>>End Processed Spectral Data<<<<<
