SpectraSuite Data File
++++++++++++++++++++++++++++++++++++
Date: Fri Oct 04 12:13:30 GMT-05:00 2013
User: price-jones
Dark Spectrum Present: No
Reference Spectrum Present: No
Number of Sampled Component Spectra: 1
Spectrometers: USB2+H05261
Integration Time (usec): 10000 (USB2+H05261)
Spectra Averaged: 1 (USB2+H05261)
Boxcar Smoothing: 0 (USB2+H05261)
Correct for Electrical Dark: No (USB2+H05261)
Strobe/Lamp Enabled: No (USB2+H05261)
Correct for Detector Non-linearity: No (USB2+H05261)
Correct for Stray Light: No (USB2+H05261)
Number of Pixels in Processed Spectrum: 2048
>>>>>Begin Processed Spectral Data<<<<<
365.73	0.00
365.92	0.00
366.12	0.00
366.32	0.00
366.52	0.00
366.72	0.00
366.91	0.00
367.11	0.00
367.31	0.00
367.51	0.00
367.70	0.00
367.90	0.00
368.10	0.00
368.30	0.00
368.49	0.00
368.69	0.00
368.89	0.00
369.09	0.00
369.28	0.00
369.48	0.00
369.68	0.00
369.87	0.00
370.07	0.00
370.27	0.00
370.47	0.00
370.66	0.00
370.86	0.00
371.06	0.00
371.25	0.00
371.45	0.00
371.65	0.00
371.84	9.36
372.04	0.00
372.24	4.68
372.44	93.62
372.63	32.77
372.83	23.41
373.03	72.56
373.22	0.00
373.42	65.54
373.62	4.68
373.81	32.77
374.01	0.00
374.21	84.26
374.40	14.04
374.60	30.43
374.79	72.56
374.99	0.00
375.19	4.68
375.38	30.43
375.58	30.43
375.78	46.81
375.97	35.11
376.17	67.88
376.37	39.79
376.56	30.43
376.76	28.09
376.95	0.00
377.15	14.04
377.35	121.71
377.54	49.15
377.74	77.24
377.93	2.34
378.13	18.72
378.33	84.26
378.52	0.00
378.72	70.22
378.91	72.56
379.11	0.00
379.31	51.49
379.50	119.37
379.70	0.00
379.89	49.15
380.09	46.81
380.28	23.41
380.48	23.41
380.68	11.70
380.87	0.00
381.07	0.00
381.26	7.02
381.46	23.41
381.65	0.00
381.85	0.00
382.04	4.68
382.24	70.22
382.43	70.22
382.63	79.58
382.83	30.43
383.02	25.75
383.22	0.00
383.41	79.58
383.61	16.38
383.80	44.47
384.00	0.00
384.19	56.17
384.39	0.00
384.58	4.68
384.78	67.88
384.97	16.38
385.17	0.00
385.36	42.13
385.56	65.54
385.75	93.62
385.95	28.09
386.14	11.70
386.34	18.72
386.53	0.00
386.72	9.36
386.92	77.24
387.11	42.13
387.31	51.49
387.50	0.00
387.70	0.00
387.89	0.00
388.09	0.00
388.28	0.00
388.48	14.04
388.67	0.00
388.86	4.68
389.06	0.00
389.25	77.24
389.45	67.88
389.64	14.04
389.84	18.72
390.03	0.00
390.22	46.81
390.42	0.00
390.61	0.00
390.81	46.81
391.00	81.92
391.19	65.54
391.39	39.79
391.58	0.00
391.78	0.00
391.97	39.79
392.16	30.43
392.36	23.41
392.55	11.70
392.75	0.00
392.94	2.34
393.13	49.15
393.33	32.77
393.52	0.00
393.71	74.90
393.91	16.38
394.10	16.38
394.29	0.00
394.49	18.72
394.68	0.00
394.88	0.00
395.07	49.15
395.26	0.00
395.46	30.43
395.65	23.41
395.84	30.43
396.04	0.00
396.23	39.79
396.42	0.00
396.62	72.56
396.81	46.81
397.00	42.13
397.19	65.54
397.39	0.00
397.58	0.00
397.77	25.75
397.97	35.11
398.16	0.00
398.35	32.77
398.55	63.19
398.74	46.81
398.93	25.75
399.12	9.36
399.32	110.01
399.51	102.98
399.70	70.22
399.90	0.00
400.09	0.00
400.28	0.00
400.47	72.56
400.67	35.11
400.86	30.43
401.05	23.41
401.24	0.00
401.44	102.98
401.63	16.38
401.82	58.51
402.01	0.00
402.21	23.41
402.40	0.00
402.59	16.38
402.78	56.17
402.97	58.51
403.17	28.09
403.36	0.00
403.55	77.24
403.74	39.79
403.93	18.72
404.13	7.02
404.32	0.00
404.51	28.09
404.70	0.00
404.89	70.22
405.09	30.43
405.28	39.79
405.47	60.85
405.66	37.45
405.85	14.04
406.05	56.17
406.24	9.36
406.43	0.00
406.62	0.00
406.81	74.90
407.00	0.00
407.20	16.38
407.39	60.85
407.58	32.77
407.77	0.00
407.96	70.22
408.15	37.45
408.34	58.51
408.54	0.00
408.73	117.03
408.92	86.60
409.11	74.90
409.30	28.09
409.49	4.68
409.68	42.13
409.87	81.92
410.07	51.49
410.26	42.13
410.45	56.17
410.64	0.00
410.83	0.00
411.02	0.00
411.21	65.54
411.40	0.00
411.59	30.43
411.78	25.75
411.98	0.00
412.17	63.19
412.36	0.00
412.55	44.47
412.74	42.13
412.93	39.79
413.12	44.47
413.31	14.04
413.50	18.72
413.69	21.06
413.88	23.41
414.07	0.00
414.26	58.51
414.45	14.04
414.64	0.00
414.83	149.79
415.02	65.54
415.22	0.00
415.41	86.60
415.60	77.24
415.79	70.22
415.98	35.11
416.17	39.79
416.36	21.06
416.55	7.02
416.74	0.00
416.93	16.38
417.12	28.09
417.31	58.51
417.50	32.77
417.69	77.24
417.88	35.11
418.07	86.60
418.26	14.04
418.45	28.09
418.64	65.54
418.83	70.22
419.02	65.54
419.21	9.36
419.39	60.85
419.58	42.13
419.77	49.15
419.96	0.00
420.15	14.04
420.34	51.49
420.53	58.51
420.72	16.38
420.91	56.17
421.10	46.81
421.29	44.47
421.48	21.06
421.67	72.56
421.86	0.00
422.05	67.88
422.24	0.00
422.43	0.00
422.61	25.75
422.80	79.58
422.99	0.00
423.18	42.13
423.37	0.00
423.56	77.24
423.75	0.00
423.94	70.22
424.13	0.00
424.32	67.88
424.50	39.79
424.69	84.26
424.88	14.04
425.07	0.00
425.26	7.02
425.45	18.72
425.64	11.70
425.83	0.00
426.01	32.77
426.20	0.00
426.39	0.00
426.58	72.56
426.77	7.02
426.96	98.30
427.15	51.49
427.33	81.92
427.52	84.26
427.71	42.13
427.90	0.00
428.09	7.02
428.28	0.00
428.46	65.54
428.65	51.49
428.84	2.34
429.03	30.43
429.22	0.00
429.40	0.00
429.59	0.00
429.78	70.22
429.97	0.00
430.16	18.72
430.34	0.00
430.53	0.00
430.72	0.00
430.91	28.09
431.10	21.06
431.28	28.09
431.47	74.90
431.66	58.51
431.85	53.83
432.03	39.79
432.22	42.13
432.41	0.00
432.60	35.11
432.79	58.51
432.97	102.98
433.16	0.00
433.35	37.45
433.54	72.56
433.72	30.43
433.91	21.06
434.10	0.00
434.28	60.85
434.47	39.79
434.66	35.11
434.85	21.06
435.03	0.00
435.22	88.94
435.41	63.19
435.59	65.54
435.78	35.11
435.97	51.49
436.16	98.30
436.34	25.75
436.53	0.00
436.72	0.00
436.90	0.00
437.09	72.56
437.28	7.02
437.46	51.49
437.65	0.00
437.84	2.34
438.02	0.00
438.21	42.13
438.40	35.11
438.58	60.85
438.77	28.09
438.96	0.00
439.14	70.22
439.33	84.26
439.52	21.06
439.70	2.34
439.89	9.36
440.08	0.00
440.26	110.01
440.45	84.26
440.63	53.83
440.82	0.00
441.01	18.72
441.19	51.49
441.38	121.71
441.57	56.17
441.75	0.00
441.94	49.15
442.12	0.00
442.31	42.13
442.50	0.00
442.68	7.02
442.87	79.58
443.05	28.09
443.24	100.64
443.43	51.49
443.61	79.58
443.80	0.00
443.98	16.38
444.17	9.36
444.35	0.00
444.54	4.68
444.73	42.13
444.91	7.02
445.10	81.92
445.28	0.00
445.47	7.02
445.65	11.70
445.84	14.04
446.02	16.38
446.21	23.41
446.39	49.15
446.58	2.34
446.77	51.49
446.95	0.00
447.14	56.17
447.32	39.79
447.51	16.38
447.69	70.22
447.88	16.38
448.06	67.88
448.25	42.13
448.43	18.72
448.62	0.00
448.80	79.58
448.99	46.81
449.17	30.43
449.36	0.00
449.54	60.85
449.73	4.68
449.91	56.17
450.10	72.56
450.28	117.03
450.46	21.06
450.65	44.47
450.83	77.24
451.02	58.51
451.20	0.00
451.39	88.94
451.57	25.75
451.76	0.00
451.94	93.62
452.13	28.09
452.31	58.51
452.49	65.54
452.68	0.00
452.86	35.11
453.05	2.34
453.23	23.41
453.42	0.00
453.60	14.04
453.78	28.09
453.97	70.22
454.15	18.72
454.34	2.34
454.52	0.00
454.70	18.72
454.89	0.00
455.07	60.85
455.26	28.09
455.44	74.90
455.62	23.41
455.81	77.24
455.99	32.77
456.17	0.00
456.36	18.72
456.54	37.45
456.73	0.00
456.91	21.06
457.09	65.54
457.28	98.30
457.46	0.00
457.64	23.41
457.83	21.06
458.01	2.34
458.19	60.85
458.38	4.68
458.56	70.22
458.74	23.41
458.93	4.68
459.11	63.19
459.29	28.09
459.48	0.00
459.66	49.15
459.84	0.00
460.03	100.64
460.21	39.79
460.39	84.26
460.57	46.81
460.76	28.09
460.94	28.09
461.12	51.49
461.31	7.02
461.49	0.00
461.67	35.11
461.85	58.51
462.04	63.19
462.22	63.19
462.40	0.00
462.59	9.36
462.77	35.11
462.95	105.32
463.13	72.56
463.32	142.77
463.50	18.72
463.68	9.36
463.86	42.13
464.05	28.09
464.23	14.04
464.41	30.43
464.59	84.26
464.78	14.04
464.96	81.92
465.14	30.43
465.32	0.00
465.50	53.83
465.69	14.04
465.87	18.72
466.05	0.00
466.23	7.02
466.41	46.81
466.60	0.00
466.78	37.45
466.96	102.98
467.14	70.22
467.32	32.77
467.51	98.30
467.69	79.58
467.87	58.51
468.05	23.41
468.23	9.36
468.41	91.28
468.60	81.92
468.78	23.41
468.96	21.06
469.14	14.04
469.32	72.56
469.50	0.00
469.69	32.77
469.87	2.34
470.05	35.11
470.23	105.32
470.41	23.41
470.59	37.45
470.77	14.04
470.95	0.00
471.14	7.02
471.32	4.68
471.50	91.28
471.68	16.38
471.86	18.72
472.04	35.11
472.22	65.54
472.40	58.51
472.58	58.51
472.77	51.49
472.95	9.36
473.13	39.79
473.31	0.00
473.49	49.15
473.67	60.85
473.85	0.00
474.03	0.00
474.21	32.77
474.39	77.24
474.57	0.00
474.75	0.00
474.93	21.06
475.12	18.72
475.30	11.70
475.48	63.19
475.66	28.09
475.84	0.00
476.02	0.00
476.20	30.43
476.38	0.00
476.56	74.90
476.74	72.56
476.92	119.37
477.10	81.92
477.28	44.47
477.46	58.51
477.64	110.01
477.82	44.47
478.00	49.15
478.18	2.34
478.36	4.68
478.54	7.02
478.72	0.00
478.90	88.94
479.08	67.88
479.26	0.00
479.44	0.00
479.62	4.68
479.80	0.00
479.98	23.41
480.16	7.02
480.34	53.83
480.52	77.24
480.70	77.24
480.88	0.00
481.06	28.09
481.24	16.38
481.41	91.28
481.59	9.36
481.77	23.41
481.95	53.83
482.13	0.00
482.31	121.71
482.49	70.22
482.67	0.00
482.85	16.38
483.03	4.68
483.21	28.09
483.39	32.77
483.57	84.26
483.74	51.49
483.92	67.88
484.10	4.68
484.28	35.11
484.46	0.00
484.64	0.00
484.82	72.56
485.00	72.56
485.18	37.45
485.35	42.13
485.53	21.06
485.71	18.72
485.89	0.00
486.07	49.15
486.25	39.79
486.43	0.00
486.61	44.47
486.78	25.75
486.96	88.94
487.14	18.72
487.32	30.43
487.50	0.00
487.68	56.17
487.85	58.51
488.03	53.83
488.21	56.17
488.39	49.15
488.57	84.26
488.75	0.00
488.92	49.15
489.10	91.28
489.28	49.15
489.46	0.00
489.64	46.81
489.81	14.04
489.99	95.96
490.17	0.00
490.35	81.92
490.53	56.17
490.70	63.19
490.88	7.02
491.06	0.00
491.24	39.79
491.41	0.00
491.59	74.90
491.77	98.30
491.95	7.02
492.13	18.72
492.30	18.72
492.48	21.06
492.66	0.00
492.84	0.00
493.01	86.60
493.19	18.72
493.37	14.04
493.54	0.00
493.72	65.54
493.90	14.04
494.08	16.38
494.25	23.41
494.43	49.15
494.61	28.09
494.79	28.09
494.96	53.83
495.14	72.56
495.32	30.43
495.49	16.38
495.67	56.17
495.85	11.70
496.02	63.19
496.20	46.81
496.38	37.45
496.55	0.00
496.73	37.45
496.91	32.77
497.09	86.60
497.26	30.43
497.44	32.77
497.62	58.51
497.79	51.49
497.97	0.00
498.14	0.00
498.32	81.92
498.50	65.54
498.67	77.24
498.85	30.43
499.03	74.90
499.20	21.06
499.38	35.11
499.56	28.09
499.73	72.56
499.91	0.00
500.08	0.00
500.26	126.39
500.44	79.58
500.61	39.79
500.79	23.41
500.97	46.81
501.14	60.85
501.32	74.90
501.49	18.72
501.67	79.58
501.84	46.81
502.02	18.72
502.20	46.81
502.37	0.00
502.55	114.69
502.72	70.22
502.90	16.38
503.07	23.41
503.25	2.34
503.43	39.79
503.60	0.00
503.78	32.77
503.95	60.85
504.13	46.81
504.30	81.92
504.48	0.00
504.65	39.79
504.83	86.60
505.01	18.72
505.18	30.43
505.36	25.75
505.53	42.13
505.71	49.15
505.88	46.81
506.06	79.58
506.23	65.54
506.41	79.58
506.58	28.09
506.76	35.11
506.93	16.38
507.11	42.13
507.28	0.00
507.46	0.00
507.63	0.00
507.81	74.90
507.98	49.15
508.16	63.19
508.33	65.54
508.50	32.77
508.68	77.24
508.85	0.00
509.03	11.70
509.20	32.77
509.38	74.90
509.55	14.04
509.73	88.94
509.90	21.06
510.08	9.36
510.25	49.15
510.42	4.68
510.60	74.90
510.77	46.81
510.95	102.98
511.12	67.88
511.30	35.11
511.47	102.98
511.64	39.79
511.82	51.49
511.99	37.45
512.17	65.54
512.34	72.56
512.51	91.28
512.69	98.30
512.86	37.45
513.04	42.13
513.21	35.11
513.38	51.49
513.56	0.00
513.73	74.90
513.90	23.41
514.08	21.06
514.25	42.13
514.43	93.62
514.60	65.54
514.77	0.00
514.95	42.13
515.12	0.00
515.29	23.41
515.47	53.83
515.64	14.04
515.81	60.85
515.99	58.51
516.16	119.37
516.33	0.00
516.51	23.41
516.68	74.90
516.85	46.81
517.03	23.41
517.20	2.34
517.37	0.00
517.54	32.77
517.72	0.00
517.89	0.00
518.06	44.47
518.24	58.51
518.41	63.19
518.58	86.60
518.75	16.38
518.93	70.22
519.10	0.00
519.27	77.24
519.45	79.58
519.62	84.26
519.79	46.81
519.96	79.58
520.14	25.75
520.31	0.00
520.48	2.34
520.65	32.77
520.83	79.58
521.00	25.75
521.17	4.68
521.34	25.75
521.52	44.47
521.69	0.00
521.86	37.45
522.03	51.49
522.20	88.94
522.38	0.00
522.55	0.00
522.72	56.17
522.89	105.32
523.07	30.43
523.24	79.58
523.41	18.72
523.58	53.83
523.75	56.17
523.92	102.98
524.10	0.00
524.27	72.56
524.44	9.36
524.61	0.00
524.78	84.26
524.96	58.51
525.13	72.56
525.30	67.88
525.47	16.38
525.64	0.00
525.81	28.09
525.98	63.19
526.16	46.81
526.33	79.58
526.50	37.45
526.67	51.49
526.84	35.11
527.01	0.00
527.18	0.00
527.36	74.90
527.53	121.71
527.70	16.38
527.87	35.11
528.04	60.85
528.21	56.17
528.38	16.38
528.55	0.00
528.72	74.90
528.89	53.83
529.07	60.85
529.24	131.07
529.41	16.38
529.58	0.00
529.75	0.00
529.92	7.02
530.09	0.00
530.26	72.56
530.43	77.24
530.60	32.77
530.77	91.28
530.94	4.68
531.11	9.36
531.28	42.13
531.46	0.00
531.63	23.41
531.80	49.15
531.97	51.49
532.14	25.75
532.31	58.51
532.48	4.68
532.65	72.56
532.82	63.19
532.99	30.43
533.16	70.22
533.33	70.22
533.50	25.75
533.67	0.00
533.84	37.45
534.01	0.00
534.18	0.00
534.35	51.49
534.52	53.83
534.69	0.00
534.86	58.51
535.03	37.45
535.20	0.00
535.37	49.15
535.54	88.94
535.71	39.79
535.88	35.11
536.05	35.11
536.22	77.24
536.38	4.68
536.55	42.13
536.72	30.43
536.89	81.92
537.06	42.13
537.23	39.79
537.40	0.00
537.57	32.77
537.74	44.47
537.91	63.19
538.08	72.56
538.25	25.75
538.42	72.56
538.59	100.64
538.75	28.09
538.92	0.00
539.09	91.28
539.26	46.81
539.43	35.11
539.60	65.54
539.77	51.49
539.94	86.60
540.11	53.83
540.28	117.03
540.44	49.15
540.61	28.09
540.78	4.68
540.95	11.70
541.12	46.81
541.29	16.38
541.46	0.00
541.62	18.72
541.79	100.64
541.96	67.88
542.13	0.00
542.30	23.41
542.47	110.01
542.63	86.60
542.80	42.13
542.97	72.56
543.14	56.17
543.31	0.00
543.48	95.96
543.64	32.77
543.81	16.38
543.98	102.98
544.15	28.09
544.32	39.79
544.48	0.00
544.65	60.85
544.82	0.00
544.99	65.54
545.16	23.41
545.32	81.92
545.49	58.51
545.66	0.00
545.83	30.43
546.00	14.04
546.16	0.00
546.33	110.01
546.50	35.11
546.67	58.51
546.83	79.58
547.00	4.68
547.17	0.00
547.34	9.36
547.50	65.54
547.67	35.11
547.84	112.35
548.00	65.54
548.17	9.36
548.34	72.56
548.51	51.49
548.67	44.47
548.84	67.88
549.01	131.07
549.18	81.92
549.34	39.79
549.51	84.26
549.68	72.56
549.84	11.70
550.01	21.06
550.18	0.00
550.34	124.05
550.51	21.06
550.68	42.13
550.84	70.22
551.01	60.85
551.18	72.56
551.34	44.47
551.51	60.85
551.68	46.81
551.84	32.77
552.01	56.17
552.18	21.06
552.34	70.22
552.51	67.88
552.68	42.13
552.84	56.17
553.01	112.35
553.18	21.06
553.34	9.36
553.51	49.15
553.67	7.02
553.84	16.38
554.01	42.13
554.17	0.00
554.34	88.94
554.51	88.94
554.67	67.88
554.84	23.41
555.00	14.04
555.17	107.66
555.33	30.43
555.50	65.54
555.67	42.13
555.83	30.43
556.00	63.19
556.16	0.00
556.33	37.45
556.50	0.00
556.66	63.19
556.83	42.13
556.99	32.77
557.16	58.51
557.32	0.00
557.49	105.32
557.65	49.15
557.82	105.32
557.98	37.45
558.15	0.00
558.32	53.83
558.48	0.00
558.65	23.41
558.81	65.54
558.98	30.43
559.14	0.00
559.31	74.90
559.47	77.24
559.64	60.85
559.80	0.00
559.97	37.45
560.13	0.00
560.30	0.00
560.46	0.00
560.63	72.56
560.79	51.49
560.96	21.06
561.12	53.83
561.29	2.34
561.45	2.34
561.61	65.54
561.78	98.30
561.94	46.81
562.11	35.11
562.27	37.45
562.44	0.00
562.60	14.04
562.77	110.01
562.93	42.13
563.10	23.41
563.26	11.70
563.42	14.04
563.59	23.41
563.75	35.11
563.92	0.00
564.08	30.43
564.24	74.90
564.41	0.00
564.57	0.00
564.74	60.85
564.90	72.56
565.07	72.56
565.23	25.75
565.39	21.06
565.56	72.56
565.72	25.75
565.88	0.00
566.05	105.32
566.21	0.00
566.38	0.00
566.54	98.30
566.70	135.75
566.87	30.43
567.03	42.13
567.19	70.22
567.36	32.77
567.52	46.81
567.68	49.15
567.85	37.45
568.01	28.09
568.17	56.17
568.34	11.70
568.50	28.09
568.66	16.38
568.83	60.85
568.99	23.41
569.15	28.09
569.32	77.24
569.48	30.43
569.64	0.00
569.81	44.47
569.97	0.00
570.13	37.45
570.30	60.85
570.46	102.98
570.62	124.05
570.78	81.92
570.95	37.45
571.11	53.83
571.27	21.06
571.43	56.17
571.60	67.88
571.76	0.00
571.92	0.00
572.09	23.41
572.25	7.02
572.41	21.06
572.57	0.00
572.74	65.54
572.90	49.15
573.06	91.28
573.22	23.41
573.38	35.11
573.55	42.13
573.71	4.68
573.87	79.58
574.03	51.49
574.20	37.45
574.36	88.94
574.52	11.70
574.68	121.71
574.84	79.58
575.01	30.43
575.17	60.85
575.33	128.73
575.49	67.88
575.65	65.54
575.82	37.45
575.98	23.41
576.14	0.00
576.30	35.11
576.46	42.13
576.62	9.36
576.79	23.41
576.95	65.54
577.11	44.47
577.27	0.00
577.43	16.38
577.59	72.56
577.75	14.04
577.92	14.04
578.08	0.00
578.24	42.13
578.40	46.81
578.56	21.06
578.72	37.45
578.88	46.81
579.04	67.88
579.21	65.54
579.37	74.90
579.53	21.06
579.69	23.41
579.85	67.88
580.01	65.54
580.17	18.72
580.33	14.04
580.49	4.68
580.65	79.58
580.82	72.56
580.98	14.04
581.14	95.96
581.30	91.28
581.46	23.41
581.62	0.00
581.78	39.79
581.94	16.38
582.10	53.83
582.26	39.79
582.42	44.47
582.58	32.77
582.74	46.81
582.90	51.49
583.06	72.56
583.22	56.17
583.38	91.28
583.54	37.45
583.70	0.00
583.86	0.00
584.02	84.26
584.18	74.90
584.34	46.81
584.50	63.19
584.66	540.66
584.82	1128.14
584.98	1348.15
585.14	1191.33
585.30	793.44
585.46	503.22
585.62	238.73
585.78	208.31
585.94	79.58
586.10	77.24
586.26	32.77
586.42	0.00
586.58	0.00
586.74	42.13
586.90	30.43
587.06	53.83
587.22	30.43
587.38	30.43
587.54	84.26
587.70	102.98
587.86	124.05
588.02	98.30
588.18	110.01
588.34	112.35
588.49	60.85
588.65	100.64
588.81	49.15
588.97	84.26
589.13	28.09
589.29	72.56
589.45	44.47
589.61	72.56
589.77	23.41
589.93	84.26
590.08	72.56
590.24	39.79
590.40	39.79
590.56	28.09
590.72	0.00
590.88	74.90
591.04	39.79
591.20	9.36
591.35	44.47
591.51	16.38
591.67	51.49
591.83	0.00
591.99	56.17
592.15	88.94
592.31	60.85
592.46	2.34
592.62	65.54
592.78	44.47
592.94	56.17
593.10	65.54
593.26	60.85
593.41	0.00
593.57	9.36
593.73	42.13
593.89	107.66
594.05	229.37
594.20	222.35
594.36	182.56
594.52	189.58
594.68	145.11
594.84	63.19
594.99	86.60
595.15	65.54
595.31	30.43
595.47	0.00
595.62	30.43
595.78	58.51
595.94	9.36
596.10	0.00
596.25	91.28
596.41	114.69
596.57	18.72
596.73	79.58
596.88	112.35
597.04	95.96
597.20	84.26
597.36	84.26
597.51	126.39
597.67	51.49
597.83	0.00
597.99	98.30
598.14	49.15
598.30	0.00
598.46	32.77
598.61	4.68
598.77	28.09
598.93	72.56
599.09	0.00
599.24	70.22
599.40	0.00
599.56	0.00
599.71	0.00
599.87	56.17
600.03	91.28
600.18	110.01
600.34	63.19
600.50	70.22
600.65	2.34
600.81	51.49
600.97	14.04
601.12	0.00
601.28	51.49
601.44	0.00
601.59	56.17
601.75	65.54
601.91	21.06
602.06	58.51
602.22	7.02
602.37	49.15
602.53	95.96
602.69	84.26
602.84	44.47
603.00	88.94
603.16	79.58
603.31	53.83
603.47	67.88
603.62	0.00
603.78	11.70
603.94	9.36
604.09	25.75
604.25	56.17
604.40	37.45
604.56	0.00
604.71	0.00
604.87	86.60
605.03	0.00
605.18	84.26
605.34	32.77
605.49	81.92
605.65	0.00
605.80	14.04
605.96	0.00
606.12	0.00
606.27	32.77
606.43	23.41
606.58	39.79
606.74	28.09
606.89	163.84
607.05	114.69
607.20	224.69
607.36	112.35
607.51	107.66
607.67	65.54
607.82	49.15
607.98	49.15
608.13	25.75
608.29	14.04
608.44	7.02
608.60	32.77
608.75	63.19
608.91	67.88
609.06	105.32
609.22	248.10
609.37	210.65
609.53	229.37
609.68	187.24
609.84	128.73
609.99	23.41
610.15	84.26
610.30	14.04
610.46	91.28
610.61	138.09
610.76	0.00
610.92	51.49
611.07	81.92
611.23	0.00
611.38	74.90
611.54	4.68
611.69	49.15
611.84	102.98
612.00	11.70
612.15	14.04
612.31	21.06
612.46	0.00
612.62	46.81
612.77	67.88
612.92	2.34
613.08	42.13
613.23	35.11
613.39	0.00
613.54	18.72
613.69	191.92
613.85	287.89
614.00	381.51
614.15	444.70
614.31	266.82
614.46	191.92
614.62	177.88
614.77	93.62
614.92	74.90
615.08	95.96
615.23	37.45
615.38	56.17
615.54	56.17
615.69	49.15
615.84	25.75
616.00	119.37
616.15	161.50
616.30	184.90
616.46	81.92
616.61	105.32
616.76	88.94
616.92	42.13
617.07	30.43
617.22	11.70
617.37	0.00
617.53	63.19
617.68	91.28
617.83	32.77
617.99	32.77
618.14	14.04
618.29	9.36
618.45	2.34
618.60	0.00
618.75	91.28
618.90	0.00
619.06	44.47
619.21	70.22
619.36	88.94
619.51	46.81
619.67	9.36
619.82	93.62
619.97	30.43
620.12	51.49
620.28	11.70
620.43	0.00
620.58	51.49
620.73	28.09
620.89	35.11
621.04	63.19
621.19	74.90
621.34	53.83
621.49	56.17
621.65	67.88
621.80	63.19
621.95	114.69
622.10	32.77
622.25	28.09
622.41	51.49
622.56	42.13
622.71	79.58
622.86	14.04
623.01	81.92
623.16	46.81
623.32	0.00
623.47	2.34
623.62	0.00
623.77	0.00
623.92	30.43
624.07	14.04
624.23	119.37
624.38	44.47
624.53	0.00
624.68	35.11
624.83	25.75
624.98	37.45
625.13	23.41
625.29	42.13
625.44	124.05
625.59	9.36
625.74	74.90
625.89	100.64
626.04	102.98
626.19	161.50
626.34	166.18
626.49	191.92
626.65	203.63
626.80	91.28
626.95	9.36
627.10	112.35
627.25	100.64
627.40	60.85
627.55	0.00
627.70	51.49
627.85	0.00
628.00	7.02
628.15	0.00
628.30	77.24
628.45	28.09
628.60	60.85
628.76	39.79
628.91	84.26
629.06	0.00
629.21	70.22
629.36	30.43
629.51	86.60
629.66	91.28
629.81	23.41
629.96	16.38
630.11	93.62
630.26	79.58
630.41	42.13
630.56	53.83
630.71	63.19
630.86	63.19
631.01	53.83
631.16	49.15
631.31	46.81
631.46	77.24
631.61	56.17
631.76	0.00
631.91	77.24
632.06	93.62
632.21	25.75
632.36	53.83
632.51	16.38
632.66	23.41
632.81	65.54
632.96	177.88
633.10	105.32
633.25	177.88
633.40	168.52
633.55	105.32
633.70	56.17
633.85	56.17
634.00	67.88
634.15	35.11
634.30	0.00
634.45	53.83
634.60	51.49
634.75	44.47
634.90	35.11
635.05	49.15
635.19	7.02
635.34	0.00
635.49	65.54
635.64	131.07
635.79	67.88
635.94	18.72
636.09	0.00
636.24	0.00
636.39	0.00
636.53	81.92
636.68	0.00
636.83	0.00
636.98	131.07
637.13	44.47
637.28	28.09
637.43	2.34
637.57	16.38
637.72	156.82
637.87	161.50
638.02	276.18
638.17	259.80
638.32	229.37
638.46	149.79
638.61	35.11
638.76	126.39
638.91	110.01
639.06	42.13
639.20	147.45
639.35	25.75
639.50	53.83
639.65	212.99
639.80	315.97
639.94	423.64
640.09	339.38
640.24	339.38
640.39	264.48
640.54	159.16
640.68	119.37
640.83	56.17
640.98	44.47
641.13	35.11
641.27	18.72
641.42	0.00
641.57	110.01
641.72	37.45
641.86	74.90
642.01	0.00
642.16	46.81
642.31	37.45
642.45	44.47
642.60	88.94
642.75	18.72
642.90	0.00
643.04	37.45
643.19	0.00
643.34	95.96
643.48	65.54
643.63	23.41
643.78	65.54
643.93	91.28
644.07	131.07
644.22	30.43
644.37	49.15
644.51	72.56
644.66	70.22
644.81	0.00
644.95	60.85
645.10	2.34
645.25	0.00
645.39	4.68
645.54	65.54
645.69	9.36
645.83	28.09
645.98	42.13
646.13	53.83
646.27	0.00
646.42	28.09
646.57	58.51
646.71	39.79
646.86	0.00
647.00	95.96
647.15	72.56
647.30	119.37
647.44	49.15
647.59	35.11
647.74	65.54
647.88	30.43
648.03	95.96
648.17	79.58
648.32	77.24
648.47	53.83
648.61	18.72
648.76	21.06
648.90	21.06
649.05	58.51
649.20	0.00
649.34	0.00
649.49	128.73
649.63	9.36
649.78	0.00
649.92	32.77
650.07	72.56
650.21	184.90
650.36	212.99
650.51	234.05
650.65	212.99
650.80	184.90
650.94	154.48
651.09	131.07
651.23	35.11
651.38	63.19
651.52	0.00
651.67	51.49
651.81	0.00
651.96	74.90
652.10	32.77
652.25	0.00
652.39	32.77
652.54	0.00
652.68	7.02
652.83	93.62
652.97	79.58
653.12	177.88
653.26	156.82
653.41	81.92
653.55	39.79
653.70	63.19
653.84	77.24
653.99	51.49
654.13	23.41
654.27	42.13
654.42	0.00
654.56	16.38
654.71	51.49
654.85	16.38
655.00	37.45
655.14	0.00
655.29	72.56
655.43	23.41
655.57	53.83
655.72	35.11
655.86	0.00
656.01	79.58
656.15	114.69
656.30	70.22
656.44	77.24
656.58	105.32
656.73	44.47
656.87	42.13
657.01	140.43
657.16	0.00
657.30	74.90
657.45	30.43
657.59	65.54
657.73	49.15
657.88	131.07
658.02	9.36
658.16	81.92
658.31	79.58
658.45	42.13
658.60	0.00
658.74	0.00
658.88	32.77
659.03	79.58
659.17	9.36
659.31	67.88
659.46	102.98
659.60	135.75
659.74	138.09
659.89	110.01
660.03	102.98
660.17	67.88
660.32	18.72
660.46	60.85
660.60	0.00
660.74	14.04
660.89	2.34
661.03	79.58
661.17	56.17
661.32	98.30
661.46	0.00
661.60	14.04
661.74	0.00
661.89	7.02
662.03	49.15
662.17	53.83
662.31	77.24
662.46	0.00
662.60	60.85
662.74	4.68
662.88	72.56
663.03	21.06
663.17	28.09
663.31	16.38
663.45	77.24
663.60	21.06
663.74	44.47
663.88	0.00
664.02	0.00
664.17	11.70
664.31	65.54
664.45	0.00
664.59	30.43
664.73	74.90
664.88	42.13
665.02	32.77
665.16	44.47
665.30	11.70
665.44	30.43
665.59	0.00
665.73	58.51
665.87	32.77
666.01	37.45
666.15	98.30
666.29	91.28
666.44	49.15
666.58	37.45
666.72	0.00
666.86	128.73
667.00	58.51
667.14	142.77
667.28	98.30
667.43	180.22
667.57	208.31
667.71	201.29
667.85	140.43
667.99	95.96
668.13	65.54
668.27	133.41
668.41	30.43
668.56	72.56
668.70	0.00
668.84	86.60
668.98	18.72
669.12	11.70
669.26	32.77
669.40	16.38
669.54	39.79
669.68	18.72
669.82	2.34
669.96	18.72
670.10	56.17
670.25	72.56
670.39	4.68
670.53	46.81
670.67	49.15
670.81	30.43
670.95	37.45
671.09	63.19
671.23	86.60
671.37	114.69
671.51	135.75
671.65	140.43
671.79	168.52
671.93	72.56
672.07	65.54
672.21	86.60
672.35	0.00
672.49	42.13
672.63	23.41
672.77	25.75
672.91	0.00
673.05	35.11
673.19	16.38
673.33	42.13
673.47	25.75
673.61	25.75
673.75	0.00
673.89	35.11
674.03	32.77
674.17	14.04
674.31	30.43
674.45	28.09
674.59	44.47
674.73	0.00
674.87	23.41
675.01	18.72
675.15	91.28
675.29	0.00
675.43	18.72
675.56	7.02
675.70	0.00
675.84	72.56
675.98	51.49
676.12	32.77
676.26	0.00
676.40	23.41
676.54	63.19
676.68	0.00
676.82	0.00
676.96	63.19
677.10	56.17
677.23	21.06
677.37	32.77
677.51	58.51
677.65	0.00
677.79	37.45
677.93	32.77
678.07	16.38
678.21	9.36
678.34	11.70
678.48	30.43
678.62	0.00
678.76	0.00
678.90	60.85
679.04	110.01
679.18	53.83
679.31	110.01
679.45	0.00
679.59	23.41
679.73	46.81
679.87	11.70
680.00	49.15
680.14	30.43
680.28	0.00
680.42	25.75
680.56	25.75
680.70	0.00
680.83	37.45
680.97	53.83
681.11	65.54
681.25	9.36
681.39	9.36
681.52	65.54
681.66	16.38
681.80	0.00
681.94	30.43
682.07	70.22
682.21	0.00
682.35	23.41
682.49	58.51
682.62	4.68
682.76	18.72
682.90	79.58
683.04	23.41
683.17	0.00
683.31	46.81
683.45	0.00
683.59	91.28
683.72	0.00
683.86	0.00
684.00	0.00
684.13	0.00
684.27	30.43
684.41	35.11
684.55	65.54
684.68	30.43
684.82	105.32
684.96	149.79
685.09	81.92
685.23	9.36
685.37	0.00
685.50	70.22
685.64	0.00
685.78	63.19
685.91	32.77
686.05	70.22
686.19	0.00
686.32	37.45
686.46	114.69
686.60	0.00
686.73	23.41
686.87	60.85
687.01	25.75
687.14	0.00
687.28	0.00
687.42	0.00
687.55	72.56
687.69	0.00
687.82	16.38
687.96	60.85
688.10	117.03
688.23	77.24
688.37	0.00
688.50	23.41
688.64	18.72
688.78	18.72
688.91	53.83
689.05	105.32
689.18	93.62
689.32	21.06
689.46	67.88
689.59	56.17
689.73	74.90
689.86	21.06
690.00	30.43
690.13	0.00
690.27	21.06
690.41	60.85
690.54	18.72
690.68	56.17
690.81	28.09
690.95	7.02
691.08	0.00
691.22	23.41
691.35	81.92
691.49	21.06
691.62	56.17
691.76	0.00
691.89	46.81
692.03	9.36
692.16	39.79
692.30	51.49
692.43	0.00
692.57	114.69
692.70	100.64
692.84	131.07
692.97	58.51
693.11	56.17
693.24	102.98
693.38	95.96
693.51	14.04
693.65	93.62
693.78	0.00
693.92	0.00
694.05	0.00
694.19	0.00
694.32	9.36
694.45	18.72
694.59	46.81
694.72	25.75
694.86	39.79
694.99	84.26
695.13	23.41
695.26	0.00
695.39	88.94
695.53	4.68
695.66	79.58
695.80	0.00
695.93	0.00
696.07	11.70
696.20	9.36
696.33	51.49
696.47	65.54
696.60	18.72
696.73	60.85
696.87	23.41
697.00	23.41
697.14	46.81
697.27	44.47
697.40	107.66
697.54	58.51
697.67	0.00
697.80	44.47
697.94	51.49
698.07	81.92
698.21	88.94
698.34	58.51
698.47	0.00
698.61	21.06
698.74	7.02
698.87	2.34
699.01	49.15
699.14	7.02
699.27	0.00
699.40	60.85
699.54	32.77
699.67	112.35
699.80	7.02
699.94	9.36
700.07	16.38
700.20	46.81
700.34	28.09
700.47	28.09
700.60	0.00
700.73	0.00
700.87	60.85
701.00	25.75
701.13	16.38
701.26	37.45
701.40	30.43
701.53	21.06
701.66	0.00
701.79	44.47
701.93	0.00
702.06	7.02
702.19	16.38
702.32	79.58
702.46	58.51
702.59	30.43
702.72	81.92
702.85	138.09
702.99	121.71
703.12	203.63
703.25	107.66
703.38	224.69
703.51	119.37
703.65	70.22
703.78	86.60
703.91	84.26
704.04	25.75
704.17	56.17
704.31	93.62
704.44	0.00
704.57	42.13
704.70	0.00
704.83	93.62
704.96	37.45
705.10	37.45
705.23	0.00
>>>>>End Processed Spectral Data<<<<<
