SpectraSuite Data File
++++++++++++++++++++++++++++++++++++
Date: Fri Oct 04 12:13:32 GMT-05:00 2013
User: price-jones
Dark Spectrum Present: No
Reference Spectrum Present: No
Number of Sampled Component Spectra: 1
Spectrometers: USB2+H05261
Integration Time (usec): 10000 (USB2+H05261)
Spectra Averaged: 1 (USB2+H05261)
Boxcar Smoothing: 0 (USB2+H05261)
Correct for Electrical Dark: No (USB2+H05261)
Strobe/Lamp Enabled: No (USB2+H05261)
Correct for Detector Non-linearity: No (USB2+H05261)
Correct for Stray Light: No (USB2+H05261)
Number of Pixels in Processed Spectrum: 2048
>>>>>Begin Processed Spectral Data<<<<<
365.73	0.00
365.92	0.00
366.12	0.00
366.32	0.00
366.52	0.00
366.72	0.00
366.91	0.00
367.11	0.00
367.31	0.00
367.51	0.00
367.70	0.00
367.90	0.00
368.10	0.00
368.30	0.00
368.49	0.00
368.69	0.00
368.89	0.00
369.09	0.00
369.28	0.00
369.48	0.00
369.68	0.00
369.87	0.00
370.07	0.00
370.27	0.00
370.47	0.00
370.66	0.00
370.86	0.00
371.06	0.00
371.25	0.00
371.45	0.00
371.65	0.00
371.84	4.68
372.04	0.00
372.24	0.00
372.44	9.36
372.63	14.04
372.83	88.94
373.03	0.00
373.22	39.79
373.42	0.00
373.62	0.00
373.81	7.02
374.01	35.11
374.21	30.43
374.40	44.47
374.60	16.38
374.79	28.09
374.99	0.00
375.19	35.11
375.38	51.49
375.58	60.85
375.78	0.00
375.97	42.13
376.17	23.41
376.37	42.13
376.56	0.00
376.76	28.09
376.95	2.34
377.15	51.49
377.35	42.13
377.54	44.47
377.74	23.41
377.93	53.83
378.13	0.00
378.33	65.54
378.52	0.00
378.72	70.22
378.91	0.00
379.11	4.68
379.31	30.43
379.50	0.00
379.70	9.36
379.89	42.13
380.09	28.09
380.28	9.36
380.48	60.85
380.68	30.43
380.87	65.54
381.07	18.72
381.26	0.00
381.46	56.17
381.65	0.00
381.85	0.00
382.04	0.00
382.24	0.00
382.43	0.00
382.63	9.36
382.83	14.04
383.02	32.77
383.22	0.00
383.41	14.04
383.61	0.00
383.80	2.34
384.00	110.01
384.19	25.75
384.39	56.17
384.58	37.45
384.78	0.00
384.97	44.47
385.17	4.68
385.36	0.00
385.56	28.09
385.75	0.00
385.95	30.43
386.14	79.58
386.34	0.00
386.53	44.47
386.72	63.19
386.92	0.00
387.11	56.17
387.31	18.72
387.50	0.00
387.70	32.77
387.89	4.68
388.09	0.00
388.28	86.60
388.48	7.02
388.67	7.02
388.86	0.00
389.06	0.00
389.25	11.70
389.45	51.49
389.64	42.13
389.84	0.00
390.03	53.83
390.22	16.38
390.42	23.41
390.61	0.00
390.81	0.00
391.00	4.68
391.19	0.00
391.39	4.68
391.58	0.00
391.78	11.70
391.97	7.02
392.16	46.81
392.36	0.00
392.55	30.43
392.75	0.00
392.94	23.41
393.13	0.00
393.33	28.09
393.52	56.17
393.71	30.43
393.91	14.04
394.10	65.54
394.29	4.68
394.49	56.17
394.68	74.90
394.88	0.00
395.07	44.47
395.26	77.24
395.46	88.94
395.65	0.00
395.84	65.54
396.04	0.00
396.23	0.00
396.42	0.00
396.62	39.79
396.81	0.00
397.00	35.11
397.19	0.00
397.39	49.15
397.58	2.34
397.77	0.00
397.97	0.00
398.16	0.00
398.35	18.72
398.55	0.00
398.74	46.81
398.93	51.49
399.12	0.00
399.32	11.70
399.51	28.09
399.70	0.00
399.90	0.00
400.09	42.13
400.28	11.70
400.47	25.75
400.67	0.00
400.86	46.81
401.05	100.64
401.24	0.00
401.44	42.13
401.63	67.88
401.82	21.06
402.01	102.98
402.21	65.54
402.40	28.09
402.59	9.36
402.78	72.56
402.97	51.49
403.17	16.38
403.36	35.11
403.55	70.22
403.74	0.00
403.93	42.13
404.13	28.09
404.32	42.13
404.51	46.81
404.70	131.07
404.89	0.00
405.09	28.09
405.28	46.81
405.47	0.00
405.66	23.41
405.85	42.13
406.05	74.90
406.24	4.68
406.43	49.15
406.62	25.75
406.81	0.00
407.00	72.56
407.20	60.85
407.39	4.68
407.58	11.70
407.77	16.38
407.96	23.41
408.15	70.22
408.34	42.13
408.54	0.00
408.73	21.06
408.92	0.00
409.11	44.47
409.30	0.00
409.49	2.34
409.68	65.54
409.87	14.04
410.07	14.04
410.26	21.06
410.45	4.68
410.64	0.00
410.83	0.00
411.02	63.19
411.21	110.01
411.40	30.43
411.59	65.54
411.78	9.36
411.98	25.75
412.17	0.00
412.36	0.00
412.55	51.49
412.74	0.00
412.93	0.00
413.12	44.47
413.31	70.22
413.50	0.00
413.69	105.32
413.88	72.56
414.07	7.02
414.26	0.00
414.45	0.00
414.64	0.00
414.83	0.00
415.02	14.04
415.22	0.00
415.41	21.06
415.60	53.83
415.79	0.00
415.98	0.00
416.17	0.00
416.36	86.60
416.55	105.32
416.74	23.41
416.93	7.02
417.12	39.79
417.31	9.36
417.50	16.38
417.69	28.09
417.88	42.13
418.07	0.00
418.26	2.34
418.45	56.17
418.64	39.79
418.83	81.92
419.02	39.79
419.21	28.09
419.39	32.77
419.58	58.51
419.77	42.13
419.96	4.68
420.15	39.79
420.34	32.77
420.53	0.00
420.72	18.72
420.91	63.19
421.10	0.00
421.29	0.00
421.48	0.00
421.67	70.22
421.86	51.49
422.05	74.90
422.24	70.22
422.43	35.11
422.61	9.36
422.80	42.13
422.99	7.02
423.18	88.94
423.37	93.62
423.56	46.81
423.75	0.00
423.94	21.06
424.13	65.54
424.32	51.49
424.50	2.34
424.69	25.75
424.88	39.79
425.07	44.47
425.26	0.00
425.45	25.75
425.64	18.72
425.83	56.17
426.01	79.58
426.20	30.43
426.39	56.17
426.58	2.34
426.77	0.00
426.96	0.00
427.15	4.68
427.33	25.75
427.52	91.28
427.71	0.00
427.90	98.30
428.09	14.04
428.28	14.04
428.46	46.81
428.65	14.04
428.84	63.19
429.03	0.00
429.22	32.77
429.40	18.72
429.59	58.51
429.78	35.11
429.97	32.77
430.16	21.06
430.34	0.00
430.53	0.00
430.72	9.36
430.91	28.09
431.10	23.41
431.28	44.47
431.47	11.70
431.66	16.38
431.85	0.00
432.03	28.09
432.22	32.77
432.41	56.17
432.60	0.00
432.79	0.00
432.97	46.81
433.16	0.00
433.35	0.00
433.54	0.00
433.72	60.85
433.91	16.38
434.10	14.04
434.28	42.13
434.47	21.06
434.66	37.45
434.85	63.19
435.03	56.17
435.22	81.92
435.41	86.60
435.59	81.92
435.78	0.00
435.97	58.51
436.16	70.22
436.34	23.41
436.53	30.43
436.72	9.36
436.90	25.75
437.09	2.34
437.28	0.00
437.46	49.15
437.65	58.51
437.84	0.00
438.02	2.34
438.21	21.06
438.40	102.98
438.58	49.15
438.77	70.22
438.96	0.00
439.14	0.00
439.33	0.00
439.52	0.00
439.70	0.00
439.89	7.02
440.08	4.68
440.26	23.41
440.45	51.49
440.63	0.00
440.82	0.00
441.01	39.79
441.19	56.17
441.38	63.19
441.57	7.02
441.75	39.79
441.94	16.38
442.12	0.00
442.31	0.00
442.50	28.09
442.68	0.00
442.87	72.56
443.05	0.00
443.24	0.00
443.43	0.00
443.61	35.11
443.80	91.28
443.98	51.49
444.17	44.47
444.35	56.17
444.54	81.92
444.73	4.68
444.91	2.34
445.10	23.41
445.28	25.75
445.47	0.00
445.65	39.79
445.84	53.83
446.02	49.15
446.21	49.15
446.39	53.83
446.58	4.68
446.77	65.54
446.95	53.83
447.14	0.00
447.32	0.00
447.51	0.00
447.69	30.43
447.88	49.15
448.06	65.54
448.25	0.00
448.43	14.04
448.62	23.41
448.80	53.83
448.99	23.41
449.17	65.54
449.36	46.81
449.54	51.49
449.73	9.36
449.91	88.94
450.10	23.41
450.28	28.09
450.46	0.00
450.65	79.58
450.83	46.81
451.02	51.49
451.20	49.15
451.39	35.11
451.57	49.15
451.76	25.75
451.94	28.09
452.13	95.96
452.31	53.83
452.49	21.06
452.68	32.77
452.86	4.68
453.05	21.06
453.23	32.77
453.42	51.49
453.60	91.28
453.78	0.00
453.97	28.09
454.15	46.81
454.34	42.13
454.52	91.28
454.70	60.85
454.89	56.17
455.07	117.03
455.26	88.94
455.44	7.02
455.62	0.00
455.81	0.00
455.99	23.41
456.17	0.00
456.36	70.22
456.54	30.43
456.73	0.00
456.91	0.00
457.09	0.00
457.28	25.75
457.46	30.43
457.64	86.60
457.83	110.01
458.01	49.15
458.19	72.56
458.38	25.75
458.56	79.58
458.74	23.41
458.93	23.41
459.11	67.88
459.29	39.79
459.48	11.70
459.66	65.54
459.84	0.00
460.03	30.43
460.21	98.30
460.39	63.19
460.57	56.17
460.76	39.79
460.94	60.85
461.12	14.04
461.31	0.00
461.49	42.13
461.67	16.38
461.85	86.60
462.04	114.69
462.22	0.00
462.40	30.43
462.59	65.54
462.77	63.19
462.95	9.36
463.13	0.00
463.32	25.75
463.50	18.72
463.68	56.17
463.86	0.00
464.05	53.83
464.23	63.19
464.41	30.43
464.59	0.00
464.78	9.36
464.96	11.70
465.14	0.00
465.32	53.83
465.50	37.45
465.69	0.00
465.87	49.15
466.05	32.77
466.23	0.00
466.41	67.88
466.60	74.90
466.78	63.19
466.96	30.43
467.14	44.47
467.32	21.06
467.51	42.13
467.69	9.36
467.87	49.15
468.05	58.51
468.23	44.47
468.41	58.51
468.60	65.54
468.78	0.00
468.96	4.68
469.14	0.00
469.32	0.00
469.50	37.45
469.69	70.22
469.87	74.90
470.05	56.17
470.23	37.45
470.41	112.35
470.59	53.83
470.77	70.22
470.95	2.34
471.14	37.45
471.32	53.83
471.50	51.49
471.68	95.96
471.86	65.54
472.04	28.09
472.22	56.17
472.40	84.26
472.58	58.51
472.77	58.51
472.95	0.00
473.13	63.19
473.31	37.45
473.49	58.51
473.67	56.17
473.85	0.00
474.03	77.24
474.21	124.05
474.39	74.90
474.57	21.06
474.75	28.09
474.93	9.36
475.12	65.54
475.30	58.51
475.48	16.38
475.66	0.00
475.84	7.02
476.02	49.15
476.20	0.00
476.38	39.79
476.56	100.64
476.74	51.49
476.92	67.88
477.10	25.75
477.28	98.30
477.46	7.02
477.64	100.64
477.82	49.15
478.00	0.00
478.18	9.36
478.36	51.49
478.54	9.36
478.72	58.51
478.90	72.56
479.08	37.45
479.26	63.19
479.44	79.58
479.62	18.72
479.80	0.00
479.98	51.49
480.16	98.30
480.34	21.06
480.52	35.11
480.70	0.00
480.88	30.43
481.06	63.19
481.24	70.22
481.41	30.43
481.59	95.96
481.77	77.24
481.95	53.83
482.13	23.41
482.31	100.64
482.49	79.58
482.67	49.15
482.85	7.02
483.03	79.58
483.21	105.32
483.39	9.36
483.57	37.45
483.74	30.43
483.92	23.41
484.10	74.90
484.28	131.07
484.46	14.04
484.64	102.98
484.82	51.49
485.00	114.69
485.18	79.58
485.35	4.68
485.53	7.02
485.71	0.00
485.89	58.51
486.07	18.72
486.25	88.94
486.43	44.47
486.61	72.56
486.78	9.36
486.96	0.00
487.14	4.68
487.32	63.19
487.50	21.06
487.68	81.92
487.85	39.79
488.03	100.64
488.21	67.88
488.39	0.00
488.57	42.13
488.75	28.09
488.92	63.19
489.10	0.00
489.28	58.51
489.46	9.36
489.64	9.36
489.81	51.49
489.99	74.90
490.17	16.38
490.35	60.85
490.53	53.83
490.70	0.00
490.88	0.00
491.06	0.00
491.24	49.15
491.41	117.03
491.59	67.88
491.77	98.30
491.95	128.73
492.13	30.43
492.30	37.45
492.48	39.79
492.66	63.19
492.84	0.00
493.01	42.13
493.19	0.00
493.37	63.19
493.54	112.35
493.72	88.94
493.90	72.56
494.08	86.60
494.25	117.03
494.43	67.88
494.61	91.28
494.79	46.81
494.96	65.54
495.14	70.22
495.32	25.75
495.49	14.04
495.67	49.15
495.85	32.77
496.02	65.54
496.20	0.00
496.38	44.47
496.55	91.28
496.73	81.92
496.91	65.54
497.09	4.68
497.26	25.75
497.44	42.13
497.62	32.77
497.79	0.00
497.97	72.56
498.14	46.81
498.32	42.13
498.50	58.51
498.67	35.11
498.85	135.75
499.03	37.45
499.20	63.19
499.38	39.79
499.56	49.15
499.73	35.11
499.91	11.70
500.08	77.24
500.26	91.28
500.44	39.79
500.61	63.19
500.79	4.68
500.97	28.09
501.14	124.05
501.32	81.92
501.49	58.51
501.67	23.41
501.84	37.45
502.02	14.04
502.20	84.26
502.37	37.45
502.55	46.81
502.72	58.51
502.90	100.64
503.07	166.18
503.25	37.45
503.43	14.04
503.60	11.70
503.78	0.00
503.95	25.75
504.13	21.06
504.30	0.00
504.48	102.98
504.65	0.00
504.83	25.75
505.01	25.75
505.18	7.02
505.36	7.02
505.53	42.13
505.71	11.70
505.88	30.43
506.06	121.71
506.23	28.09
506.41	46.81
506.58	49.15
506.76	67.88
506.93	37.45
507.11	65.54
507.28	9.36
507.46	25.75
507.63	42.13
507.81	93.62
507.98	37.45
508.16	51.49
508.33	4.68
508.50	79.58
508.68	70.22
508.85	67.88
509.03	42.13
509.20	21.06
509.38	121.71
509.55	7.02
509.73	58.51
509.90	28.09
510.08	28.09
510.25	16.38
510.42	91.28
510.60	37.45
510.77	9.36
510.95	44.47
511.12	23.41
511.30	74.90
511.47	2.34
511.64	4.68
511.82	51.49
511.99	79.58
512.17	56.17
512.34	11.70
512.51	37.45
512.69	14.04
512.86	56.17
513.04	100.64
513.21	81.92
513.38	46.81
513.56	42.13
513.73	119.37
513.90	72.56
514.08	28.09
514.25	105.32
514.43	44.47
514.60	81.92
514.77	11.70
514.95	28.09
515.12	65.54
515.29	53.83
515.47	30.43
515.64	21.06
515.81	102.98
515.99	93.62
516.16	0.00
516.33	79.58
516.51	117.03
516.68	74.90
516.85	18.72
517.03	7.02
517.20	30.43
517.37	58.51
517.54	91.28
517.72	56.17
517.89	35.11
518.06	30.43
518.24	86.60
518.41	16.38
518.58	117.03
518.75	49.15
518.93	25.75
519.10	35.11
519.27	9.36
519.45	49.15
519.62	11.70
519.79	98.30
519.96	42.13
520.14	53.83
520.31	56.17
520.48	56.17
520.65	35.11
520.83	23.41
521.00	44.47
521.17	67.88
521.34	58.51
521.52	49.15
521.69	56.17
521.86	39.79
522.03	51.49
522.20	56.17
522.38	53.83
522.55	9.36
522.72	35.11
522.89	93.62
523.07	0.00
523.24	0.00
523.41	0.00
523.58	44.47
523.75	42.13
523.92	65.54
524.10	51.49
524.27	81.92
524.44	102.98
524.61	95.96
524.78	70.22
524.96	0.00
525.13	0.00
525.30	51.49
525.47	63.19
525.64	65.54
525.81	84.26
525.98	30.43
526.16	0.00
526.33	9.36
526.50	37.45
526.67	30.43
526.84	23.41
527.01	44.47
527.18	0.00
527.36	84.26
527.53	67.88
527.70	53.83
527.87	84.26
528.04	65.54
528.21	0.00
528.38	18.72
528.55	88.94
528.72	0.00
528.89	21.06
529.07	39.79
529.24	2.34
529.41	14.04
529.58	9.36
529.75	9.36
529.92	63.19
530.09	86.60
530.26	84.26
530.43	100.64
530.60	25.75
530.77	72.56
530.94	84.26
531.11	95.96
531.28	95.96
531.46	81.92
531.63	60.85
531.80	51.49
531.97	79.58
532.14	77.24
532.31	0.00
532.48	30.43
532.65	37.45
532.82	60.85
532.99	51.49
533.16	152.13
533.33	0.00
533.50	72.56
533.67	21.06
533.84	81.92
534.01	121.71
534.18	37.45
534.35	25.75
534.52	16.38
534.69	11.70
534.86	25.75
535.03	58.51
535.20	105.32
535.37	37.45
535.54	32.77
535.71	37.45
535.88	49.15
536.05	91.28
536.22	18.72
536.38	93.62
536.55	42.13
536.72	70.22
536.89	93.62
537.06	81.92
537.23	58.51
537.40	84.26
537.57	0.00
537.74	51.49
537.91	74.90
538.08	37.45
538.25	51.49
538.42	81.92
538.59	14.04
538.75	81.92
538.92	28.09
539.09	0.00
539.26	11.70
539.43	79.58
539.60	84.26
539.77	16.38
539.94	67.88
540.11	28.09
540.28	42.13
540.44	95.96
540.61	0.00
540.78	53.83
540.95	60.85
541.12	51.49
541.29	11.70
541.46	84.26
541.62	44.47
541.79	4.68
541.96	25.75
542.13	32.77
542.30	0.00
542.47	67.88
542.63	0.00
542.80	35.11
542.97	42.13
543.14	25.75
543.31	0.00
543.48	86.60
543.64	65.54
543.81	16.38
543.98	124.05
544.15	0.00
544.32	30.43
544.48	0.00
544.65	42.13
544.82	100.64
544.99	112.35
545.16	53.83
545.32	21.06
545.49	9.36
545.66	56.17
545.83	91.28
546.00	0.00
546.16	16.38
546.33	58.51
546.50	63.19
546.67	51.49
546.83	74.90
547.00	0.00
547.17	0.00
547.34	35.11
547.50	114.69
547.67	9.36
547.84	58.51
548.00	98.30
548.17	0.00
548.34	23.41
548.51	0.00
548.67	53.83
548.84	28.09
549.01	95.96
549.18	32.77
549.34	9.36
549.51	11.70
549.68	77.24
549.84	35.11
550.01	77.24
550.18	86.60
550.34	53.83
550.51	58.51
550.68	18.72
550.84	25.75
551.01	72.56
551.18	16.38
551.34	42.13
551.51	35.11
551.68	93.62
551.84	74.90
552.01	0.00
552.18	23.41
552.34	0.00
552.51	74.90
552.68	81.92
552.84	0.00
553.01	70.22
553.18	18.72
553.34	81.92
553.51	84.26
553.67	79.58
553.84	0.00
554.01	30.43
554.17	0.00
554.34	67.88
554.51	81.92
554.67	100.64
554.84	7.02
555.00	95.96
555.17	53.83
555.33	84.26
555.50	32.77
555.67	107.66
555.83	53.83
556.00	18.72
556.16	79.58
556.33	35.11
556.50	65.54
556.66	0.00
556.83	28.09
556.99	35.11
557.16	0.00
557.32	79.58
557.49	9.36
557.65	51.49
557.82	0.00
557.98	51.49
558.15	0.00
558.32	79.58
558.48	7.02
558.65	84.26
558.81	84.26
558.98	70.22
559.14	42.13
559.31	0.00
559.47	30.43
559.64	0.00
559.80	0.00
559.97	11.70
560.13	56.17
560.30	14.04
560.46	42.13
560.63	60.85
560.79	65.54
560.96	58.51
561.12	51.49
561.29	53.83
561.45	44.47
561.61	91.28
561.78	53.83
561.94	30.43
562.11	60.85
562.27	100.64
562.44	77.24
562.60	35.11
562.77	60.85
562.93	51.49
563.10	37.45
563.26	28.09
563.42	44.47
563.59	30.43
563.75	35.11
563.92	37.45
564.08	28.09
564.24	49.15
564.41	114.69
564.57	63.19
564.74	93.62
564.90	110.01
565.07	81.92
565.23	0.00
565.39	39.79
565.56	88.94
565.72	98.30
565.88	79.58
566.05	37.45
566.21	110.01
566.38	60.85
566.54	37.45
566.70	65.54
566.87	142.77
567.03	23.41
567.19	21.06
567.36	30.43
567.52	0.00
567.68	0.00
567.85	39.79
568.01	30.43
568.17	110.01
568.34	18.72
568.50	0.00
568.66	49.15
568.83	102.98
568.99	58.51
569.15	21.06
569.32	25.75
569.48	32.77
569.64	63.19
569.81	81.92
569.97	70.22
570.13	32.77
570.30	42.13
570.46	7.02
570.62	0.00
570.78	35.11
570.95	53.83
571.11	105.32
571.27	149.79
571.43	16.38
571.60	0.00
571.76	32.77
571.92	0.00
572.09	18.72
572.25	84.26
572.41	60.85
572.57	28.09
572.74	11.70
572.90	23.41
573.06	70.22
573.22	88.94
573.38	49.15
573.55	0.00
573.71	28.09
573.87	46.81
574.03	30.43
574.20	77.24
574.36	14.04
574.52	4.68
574.68	91.28
574.84	14.04
575.01	67.88
575.17	105.32
575.33	14.04
575.49	18.72
575.65	79.58
575.82	21.06
575.98	30.43
576.14	32.77
576.30	14.04
576.46	23.41
576.62	65.54
576.79	4.68
576.95	88.94
577.11	58.51
577.27	39.79
577.43	107.66
577.59	131.07
577.75	0.00
577.92	35.11
578.08	28.09
578.24	60.85
578.40	39.79
578.56	102.98
578.72	102.98
578.88	81.92
579.04	70.22
579.21	11.70
579.37	9.36
579.53	98.30
579.69	42.13
579.85	14.04
580.01	93.62
580.17	9.36
580.33	0.00
580.49	9.36
580.65	79.58
580.82	25.75
580.98	65.54
581.14	126.39
581.30	39.79
581.46	67.88
581.62	112.35
581.78	28.09
581.94	30.43
582.10	9.36
582.26	28.09
582.42	84.26
582.58	0.00
582.74	0.00
582.90	51.49
583.06	9.36
583.22	37.45
583.38	79.58
583.54	0.00
583.70	44.47
583.86	30.43
584.02	72.56
584.18	0.00
584.34	23.41
584.50	23.41
584.66	7.02
584.82	65.54
584.98	14.04
585.14	16.38
585.30	23.41
585.46	30.43
585.62	0.00
585.78	39.79
585.94	53.83
586.10	30.43
586.26	63.19
586.42	65.54
586.58	7.02
586.74	4.68
586.90	44.47
587.06	4.68
587.22	63.19
587.38	30.43
587.54	56.17
587.70	51.49
587.86	53.83
588.02	0.00
588.18	9.36
588.34	60.85
588.49	65.54
588.65	49.15
588.81	28.09
588.97	63.19
589.13	112.35
589.29	16.38
589.45	0.00
589.61	23.41
589.77	67.88
589.93	67.88
590.08	56.17
590.24	65.54
590.40	32.77
590.56	0.00
590.72	44.47
590.88	39.79
591.04	39.79
591.20	42.13
591.35	0.00
591.51	65.54
591.67	35.11
591.83	65.54
591.99	49.15
592.15	23.41
592.31	51.49
592.46	11.70
592.62	39.79
592.78	77.24
592.94	44.47
593.10	9.36
593.26	11.70
593.41	23.41
593.57	98.30
593.73	81.92
593.89	0.00
594.05	2.34
594.20	21.06
594.36	0.00
594.52	0.00
594.68	42.13
594.84	9.36
594.99	114.69
595.15	4.68
595.31	88.94
595.47	65.54
595.62	44.47
595.78	0.00
595.94	2.34
596.10	102.98
596.25	0.00
596.41	60.85
596.57	0.00
596.73	2.34
596.88	67.88
597.04	79.58
597.20	88.94
597.36	77.24
597.51	74.90
597.67	46.81
597.83	30.43
597.99	0.00
598.14	21.06
598.30	46.81
598.46	4.68
598.61	37.45
598.77	0.00
598.93	18.72
599.09	74.90
599.24	39.79
599.40	23.41
599.56	0.00
599.71	77.24
599.87	42.13
600.03	35.11
600.18	117.03
600.34	133.41
600.50	0.00
600.65	56.17
600.81	30.43
600.97	88.94
601.12	110.01
601.28	70.22
601.44	67.88
601.59	0.00
601.75	77.24
601.91	0.00
602.06	14.04
602.22	53.83
602.37	72.56
602.53	30.43
602.69	51.49
602.84	98.30
603.00	65.54
603.16	0.00
603.31	25.75
603.47	67.88
603.62	25.75
603.78	70.22
603.94	16.38
604.09	25.75
604.25	79.58
604.40	79.58
604.56	9.36
604.71	56.17
604.87	0.00
605.03	28.09
605.18	42.13
605.34	67.88
605.49	35.11
605.65	58.51
605.80	32.77
605.96	46.81
606.12	53.83
606.27	102.98
606.43	21.06
606.58	60.85
606.74	44.47
606.89	25.75
607.05	28.09
607.20	56.17
607.36	86.60
607.51	0.00
607.67	30.43
607.82	60.85
607.98	49.15
608.13	46.81
608.29	95.96
608.44	32.77
608.60	86.60
608.75	0.00
608.91	0.00
609.06	28.09
609.22	74.90
609.37	63.19
609.53	72.56
609.68	63.19
609.84	28.09
609.99	21.06
610.15	67.88
610.30	77.24
610.46	79.58
610.61	42.13
610.76	35.11
610.92	44.47
611.07	84.26
611.23	42.13
611.38	100.64
611.54	58.51
611.69	16.38
611.84	105.32
612.00	7.02
612.15	110.01
612.31	44.47
612.46	91.28
612.62	81.92
612.77	16.38
612.92	74.90
613.08	25.75
613.23	42.13
613.39	81.92
613.54	60.85
613.69	63.19
613.85	46.81
614.00	42.13
614.15	145.11
614.31	49.15
614.46	23.41
614.62	51.49
614.77	28.09
614.92	30.43
615.08	67.88
615.23	39.79
615.38	0.00
615.54	37.45
615.69	70.22
615.84	0.00
616.00	0.00
616.15	56.17
616.30	65.54
616.46	0.00
616.61	0.00
616.76	49.15
616.92	9.36
617.07	46.81
617.22	79.58
617.37	42.13
617.53	0.00
617.68	88.94
617.83	0.00
617.99	46.81
618.14	18.72
618.29	16.38
618.45	0.00
618.60	32.77
618.75	0.00
618.90	67.88
619.06	28.09
619.21	93.62
619.36	49.15
619.51	79.58
619.67	35.11
619.82	42.13
619.97	4.68
620.12	30.43
620.28	21.06
620.43	44.47
620.58	65.54
620.73	0.00
620.89	32.77
621.04	0.00
621.19	100.64
621.34	0.00
621.49	72.56
621.65	7.02
621.80	21.06
621.95	91.28
622.10	56.17
622.25	9.36
622.41	23.41
622.56	37.45
622.71	42.13
622.86	44.47
623.01	72.56
623.16	51.49
623.32	51.49
623.47	56.17
623.62	28.09
623.77	23.41
623.92	28.09
624.07	65.54
624.23	25.75
624.38	16.38
624.53	88.94
624.68	84.26
624.83	53.83
624.98	107.66
625.13	37.45
625.29	39.79
625.44	35.11
625.59	58.51
625.74	44.47
625.89	79.58
626.04	51.49
626.19	86.60
626.34	37.45
626.49	42.13
626.65	51.49
626.80	32.77
626.95	32.77
627.10	11.70
627.25	67.88
627.40	7.02
627.55	67.88
627.70	51.49
627.85	0.00
628.00	74.90
628.15	46.81
628.30	9.36
628.45	51.49
628.60	81.92
628.76	58.51
628.91	44.47
629.06	9.36
629.21	23.41
629.36	39.79
629.51	4.68
629.66	58.51
629.81	4.68
629.96	23.41
630.11	0.00
630.26	28.09
630.41	0.00
630.56	0.00
630.71	18.72
630.86	28.09
631.01	0.00
631.16	49.15
631.31	81.92
631.46	74.90
631.61	30.43
631.76	124.05
631.91	77.24
632.06	72.56
632.21	18.72
632.36	25.75
632.51	32.77
632.66	126.39
632.81	74.90
632.96	16.38
633.10	30.43
633.25	14.04
633.40	42.13
633.55	84.26
633.70	18.72
633.85	25.75
634.00	58.51
634.15	2.34
634.30	56.17
634.45	0.00
634.60	0.00
634.75	49.15
634.90	39.79
635.05	0.00
635.19	63.19
635.34	107.66
635.49	93.62
635.64	88.94
635.79	65.54
635.94	23.41
636.09	93.62
636.24	2.34
636.39	63.19
636.53	18.72
636.68	7.02
636.83	0.00
636.98	0.00
637.13	35.11
637.28	16.38
637.43	110.01
637.57	0.00
637.72	102.98
637.87	93.62
638.02	7.02
638.17	86.60
638.32	60.85
638.46	39.79
638.61	11.70
638.76	2.34
638.91	70.22
639.06	60.85
639.20	0.00
639.35	56.17
639.50	0.00
639.65	42.13
639.80	49.15
639.94	154.48
640.09	77.24
640.24	0.00
640.39	0.00
640.54	53.83
640.68	51.49
640.83	81.92
640.98	65.54
641.13	79.58
641.27	51.49
641.42	32.77
641.57	95.96
641.72	72.56
641.86	23.41
642.01	110.01
642.16	9.36
642.31	0.00
642.45	0.00
642.60	21.06
642.75	2.34
642.90	88.94
643.04	110.01
643.19	28.09
643.34	72.56
643.48	32.77
643.63	74.90
643.78	65.54
643.93	60.85
644.07	0.00
644.22	39.79
644.37	56.17
644.51	67.88
644.66	16.38
644.81	28.09
644.95	46.81
645.10	0.00
645.25	58.51
645.39	39.79
645.54	28.09
645.69	81.92
645.83	65.54
645.98	30.43
646.13	11.70
646.27	46.81
646.42	72.56
646.57	72.56
646.71	11.70
646.86	56.17
647.00	0.00
647.15	98.30
647.30	63.19
647.44	14.04
647.59	81.92
647.74	35.11
647.88	0.00
648.03	44.47
648.17	60.85
648.32	0.00
648.47	28.09
648.61	65.54
648.76	88.94
648.90	28.09
649.05	56.17
649.20	37.45
649.34	35.11
649.49	49.15
649.63	30.43
649.78	53.83
649.92	35.11
650.07	42.13
650.21	46.81
650.36	16.38
650.51	60.85
650.65	14.04
650.80	58.51
650.94	72.56
651.09	60.85
651.23	49.15
651.38	42.13
651.52	77.24
651.67	58.51
651.81	23.41
651.96	84.26
652.10	60.85
652.25	0.00
652.39	4.68
652.54	0.00
652.68	42.13
652.83	21.06
652.97	23.41
653.12	18.72
653.26	65.54
653.41	81.92
653.55	32.77
653.70	65.54
653.84	44.47
653.99	98.30
654.13	0.00
654.27	105.32
654.42	11.70
654.56	0.00
654.71	60.85
654.85	0.00
655.00	9.36
655.14	25.75
655.29	16.38
655.43	0.00
655.57	67.88
655.72	44.47
655.86	100.64
656.01	72.56
656.15	44.47
656.30	2.34
656.44	0.00
656.58	58.51
656.73	67.88
656.87	56.17
657.01	28.09
657.16	37.45
657.30	56.17
657.45	11.70
657.59	0.00
657.73	60.85
657.88	39.79
658.02	49.15
658.16	21.06
658.31	30.43
658.45	42.13
658.60	32.77
658.74	37.45
658.88	28.09
659.03	46.81
659.17	72.56
659.31	84.26
659.46	0.00
659.60	42.13
659.74	0.00
659.89	32.77
660.03	30.43
660.17	117.03
660.32	42.13
660.46	60.85
660.60	21.06
660.74	0.00
660.89	21.06
661.03	67.88
661.17	21.06
661.32	21.06
661.46	0.00
661.60	81.92
661.74	18.72
661.89	53.83
662.03	51.49
662.17	46.81
662.31	0.00
662.46	74.90
662.60	44.47
662.74	58.51
662.88	0.00
663.03	105.32
663.17	79.58
663.31	23.41
663.45	23.41
663.60	44.47
663.74	79.58
663.88	72.56
664.02	67.88
664.17	25.75
664.31	58.51
664.45	44.47
664.59	53.83
664.73	2.34
664.88	21.06
665.02	7.02
665.16	21.06
665.30	70.22
665.44	46.81
665.59	63.19
665.73	81.92
665.87	44.47
666.01	9.36
666.15	4.68
666.29	88.94
666.44	63.19
666.58	49.15
666.72	0.00
666.86	49.15
667.00	70.22
667.14	74.90
667.28	44.47
667.43	0.00
667.57	14.04
667.71	51.49
667.85	88.94
667.99	0.00
668.13	7.02
668.27	44.47
668.41	124.05
668.56	18.72
668.70	42.13
668.84	88.94
668.98	46.81
669.12	74.90
669.26	32.77
669.40	39.79
669.54	21.06
669.68	28.09
669.82	58.51
669.96	25.75
670.10	46.81
670.25	72.56
670.39	44.47
670.53	93.62
670.67	0.00
670.81	0.00
670.95	0.00
671.09	7.02
671.23	65.54
671.37	0.00
671.51	16.38
671.65	0.00
671.79	14.04
671.93	25.75
672.07	58.51
672.21	53.83
672.35	9.36
672.49	21.06
672.63	14.04
672.77	32.77
672.91	147.45
673.05	18.72
673.19	25.75
673.33	35.11
673.47	0.00
673.61	28.09
673.75	0.00
673.89	46.81
674.03	35.11
674.17	79.58
674.31	32.77
674.45	110.01
674.59	72.56
674.73	28.09
674.87	2.34
675.01	37.45
675.15	81.92
675.29	25.75
675.43	0.00
675.56	7.02
675.70	14.04
675.84	30.43
675.98	35.11
676.12	25.75
676.26	37.45
676.40	70.22
676.54	30.43
676.68	2.34
676.82	35.11
676.96	42.13
677.10	35.11
677.23	25.75
677.37	18.72
677.51	32.77
677.65	32.77
677.79	63.19
677.93	74.90
678.07	93.62
678.21	77.24
678.34	53.83
678.48	16.38
678.62	53.83
678.76	37.45
678.90	0.00
679.04	2.34
679.18	7.02
679.31	30.43
679.45	67.88
679.59	0.00
679.73	65.54
679.87	56.17
680.00	56.17
680.14	0.00
680.28	23.41
680.42	0.00
680.56	74.90
680.70	56.17
680.83	7.02
680.97	84.26
681.11	49.15
681.25	14.04
681.39	30.43
681.52	4.68
681.66	0.00
681.80	2.34
681.94	14.04
682.07	56.17
682.21	21.06
682.35	37.45
682.49	0.00
682.62	35.11
682.76	63.19
682.90	21.06
683.04	9.36
683.17	25.75
683.31	32.77
683.45	84.26
683.59	30.43
683.72	0.00
683.86	30.43
684.00	0.00
684.13	0.00
684.27	88.94
684.41	88.94
684.55	0.00
684.68	88.94
684.82	65.54
684.96	56.17
685.09	7.02
685.23	0.00
685.37	30.43
685.50	0.00
685.64	0.00
685.78	16.38
685.91	30.43
686.05	28.09
686.19	72.56
686.32	35.11
686.46	79.58
686.60	0.00
686.73	25.75
686.87	23.41
687.01	2.34
687.14	0.00
687.28	133.41
687.42	0.00
687.55	67.88
687.69	49.15
687.82	25.75
687.96	4.68
688.10	21.06
688.23	0.00
688.37	23.41
688.50	53.83
688.64	0.00
688.78	86.60
688.91	39.79
689.05	21.06
689.18	46.81
689.32	0.00
689.46	0.00
689.59	42.13
689.73	0.00
689.86	0.00
690.00	0.00
690.13	58.51
690.27	0.00
690.41	23.41
690.54	70.22
690.68	53.83
690.81	0.00
690.95	0.00
691.08	0.00
691.22	7.02
691.35	42.13
691.49	105.32
691.62	30.43
691.76	0.00
691.89	74.90
692.03	49.15
692.16	11.70
692.30	7.02
692.43	0.00
692.57	16.38
692.70	0.00
692.84	0.00
692.97	21.06
693.11	30.43
693.24	88.94
693.38	30.43
693.51	79.58
693.65	32.77
693.78	58.51
693.92	9.36
694.05	100.64
694.19	2.34
694.32	98.30
694.45	58.51
694.59	81.92
694.72	0.00
694.86	51.49
694.99	44.47
695.13	112.35
695.26	0.00
695.39	70.22
695.53	28.09
695.66	0.00
695.80	70.22
695.93	0.00
696.07	46.81
696.20	0.00
696.33	23.41
696.47	23.41
696.60	42.13
696.73	25.75
696.87	56.17
697.00	23.41
697.14	9.36
697.27	35.11
697.40	4.68
697.54	2.34
697.67	32.77
697.80	21.06
697.94	9.36
698.07	56.17
698.21	70.22
698.34	30.43
698.47	35.11
698.61	0.00
698.74	30.43
698.87	86.60
699.01	18.72
699.14	0.00
699.27	0.00
699.40	51.49
699.54	23.41
699.67	14.04
699.80	77.24
699.94	39.79
700.07	32.77
700.20	0.00
700.34	51.49
700.47	28.09
700.60	56.17
700.73	32.77
700.87	44.47
701.00	23.41
701.13	11.70
701.26	16.38
701.40	56.17
701.53	0.00
701.66	65.54
701.79	39.79
701.93	9.36
702.06	0.00
702.19	16.38
702.32	74.90
702.46	63.19
702.59	4.68
702.72	44.47
702.85	0.00
702.99	42.13
703.12	39.79
703.25	70.22
703.38	88.94
703.51	0.00
703.65	14.04
703.78	0.00
703.91	42.13
704.04	49.15
704.17	0.00
704.31	0.00
704.44	0.00
704.57	0.00
704.70	0.00
704.83	28.09
704.96	4.68
705.10	35.11
705.23	0.00
>>>>>End Processed Spectral Data<<<<<
