SpectraSuite Data File
++++++++++++++++++++++++++++++++++++
Date: Fri Oct 04 12:13:41 GMT-05:00 2013
User: price-jones
Dark Spectrum Present: No
Reference Spectrum Present: No
Number of Sampled Component Spectra: 1
Spectrometers: USB2+H05261
Integration Time (usec): 10000 (USB2+H05261)
Spectra Averaged: 1 (USB2+H05261)
Boxcar Smoothing: 0 (USB2+H05261)
Correct for Electrical Dark: No (USB2+H05261)
Strobe/Lamp Enabled: No (USB2+H05261)
Correct for Detector Non-linearity: No (USB2+H05261)
Correct for Stray Light: No (USB2+H05261)
Number of Pixels in Processed Spectrum: 2048
>>>>>Begin Processed Spectral Data<<<<<
365.73	0.00
365.92	0.00
366.12	0.00
366.32	0.00
366.52	0.00
366.72	0.00
366.91	0.00
367.11	0.00
367.31	0.00
367.51	0.00
367.70	0.00
367.90	0.00
368.10	0.00
368.30	0.00
368.49	0.00
368.69	0.00
368.89	0.00
369.09	0.00
369.28	0.00
369.48	0.00
369.68	0.00
369.87	0.00
370.07	0.00
370.27	0.00
370.47	0.00
370.66	0.00
370.86	0.00
371.06	0.00
371.25	0.00
371.45	0.00
371.65	0.00
371.84	0.00
372.04	0.00
372.24	30.43
372.44	11.70
372.63	0.00
372.83	35.11
373.03	46.81
373.22	88.94
373.42	4.68
373.62	0.00
373.81	0.00
374.01	49.15
374.21	67.88
374.40	49.15
374.60	46.81
374.79	16.38
374.99	63.19
375.19	0.00
375.38	39.79
375.58	4.68
375.78	30.43
375.97	0.00
376.17	46.81
376.37	42.13
376.56	0.00
376.76	25.75
376.95	37.45
377.15	28.09
377.35	60.85
377.54	28.09
377.74	4.68
377.93	30.43
378.13	77.24
378.33	37.45
378.52	18.72
378.72	9.36
378.91	16.38
379.11	0.00
379.31	74.90
379.50	18.72
379.70	58.51
379.89	0.00
380.09	21.06
380.28	0.00
380.48	0.00
380.68	72.56
380.87	16.38
381.07	0.00
381.26	60.85
381.46	30.43
381.65	32.77
381.85	0.00
382.04	53.83
382.24	9.36
382.43	9.36
382.63	0.00
382.83	0.00
383.02	11.70
383.22	74.90
383.41	0.00
383.61	0.00
383.80	86.60
384.00	63.19
384.19	53.83
384.39	25.75
384.58	14.04
384.78	4.68
384.97	0.00
385.17	44.47
385.36	2.34
385.56	42.13
385.75	0.00
385.95	49.15
386.14	46.81
386.34	16.38
386.53	77.24
386.72	0.00
386.92	11.70
387.11	63.19
387.31	58.51
387.50	39.79
387.70	0.00
387.89	21.06
388.09	44.47
388.28	0.00
388.48	77.24
388.67	0.00
388.86	65.54
389.06	16.38
389.25	74.90
389.45	0.00
389.64	65.54
389.84	9.36
390.03	37.45
390.22	53.83
390.42	53.83
390.61	7.02
390.81	0.00
391.00	32.77
391.19	81.92
391.39	0.00
391.58	0.00
391.78	2.34
391.97	0.00
392.16	0.00
392.36	14.04
392.55	0.00
392.75	11.70
392.94	0.00
393.13	81.92
393.33	23.41
393.52	46.81
393.71	42.13
393.91	39.79
394.10	53.83
394.29	100.64
394.49	51.49
394.68	32.77
394.88	11.70
395.07	28.09
395.26	46.81
395.46	39.79
395.65	77.24
395.84	16.38
396.04	9.36
396.23	35.11
396.42	0.00
396.62	42.13
396.81	0.00
397.00	60.85
397.19	39.79
397.39	28.09
397.58	60.85
397.77	72.56
397.97	126.39
398.16	67.88
398.35	88.94
398.55	53.83
398.74	46.81
398.93	25.75
399.12	2.34
399.32	11.70
399.51	51.49
399.70	46.81
399.90	63.19
400.09	16.38
400.28	28.09
400.47	67.88
400.67	81.92
400.86	84.26
401.05	0.00
401.24	14.04
401.44	72.56
401.63	25.75
401.82	39.79
402.01	37.45
402.21	46.81
402.40	0.00
402.59	37.45
402.78	126.39
402.97	0.00
403.17	4.68
403.36	25.75
403.55	77.24
403.74	53.83
403.93	58.51
404.13	28.09
404.32	9.36
404.51	88.94
404.70	18.72
404.89	0.00
405.09	58.51
405.28	23.41
405.47	46.81
405.66	0.00
405.85	30.43
406.05	9.36
406.24	51.49
406.43	37.45
406.62	16.38
406.81	70.22
407.00	7.02
407.20	91.28
407.39	0.00
407.58	0.00
407.77	23.41
407.96	18.72
408.15	72.56
408.34	60.85
408.54	0.00
408.73	9.36
408.92	60.85
409.11	0.00
409.30	0.00
409.49	107.66
409.68	0.00
409.87	126.39
410.07	0.00
410.26	53.83
410.45	51.49
410.64	46.81
410.83	60.85
411.02	9.36
411.21	28.09
411.40	72.56
411.59	51.49
411.78	39.79
411.98	56.17
412.17	0.00
412.36	81.92
412.55	74.90
412.74	46.81
412.93	11.70
413.12	39.79
413.31	4.68
413.50	14.04
413.69	21.06
413.88	46.81
414.07	0.00
414.26	88.94
414.45	77.24
414.64	14.04
414.83	32.77
415.02	32.77
415.22	37.45
415.41	72.56
415.60	28.09
415.79	133.41
415.98	95.96
416.17	18.72
416.36	100.64
416.55	0.00
416.74	23.41
416.93	102.98
417.12	86.60
417.31	46.81
417.50	86.60
417.69	51.49
417.88	0.00
418.07	0.00
418.26	65.54
418.45	42.13
418.64	72.56
418.83	79.58
419.02	98.30
419.21	18.72
419.39	70.22
419.58	18.72
419.77	18.72
419.96	63.19
420.15	0.00
420.34	0.00
420.53	84.26
420.72	79.58
420.91	70.22
421.10	35.11
421.29	30.43
421.48	44.47
421.67	23.41
421.86	65.54
422.05	70.22
422.24	42.13
422.43	63.19
422.61	53.83
422.80	4.68
422.99	28.09
423.18	65.54
423.37	107.66
423.56	32.77
423.75	79.58
423.94	84.26
424.13	77.24
424.32	35.11
424.50	39.79
424.69	0.00
424.88	37.45
425.07	53.83
425.26	30.43
425.45	77.24
425.64	35.11
425.83	9.36
426.01	35.11
426.20	49.15
426.39	46.81
426.58	21.06
426.77	63.19
426.96	9.36
427.15	60.85
427.33	46.81
427.52	46.81
427.71	46.81
427.90	46.81
428.09	0.00
428.28	0.00
428.46	0.00
428.65	46.81
428.84	51.49
429.03	88.94
429.22	74.90
429.40	0.00
429.59	37.45
429.78	72.56
429.97	58.51
430.16	84.26
430.34	70.22
430.53	60.85
430.72	58.51
430.91	95.96
431.10	56.17
431.28	88.94
431.47	88.94
431.66	84.26
431.85	95.96
432.03	93.62
432.22	14.04
432.41	107.66
432.60	16.38
432.79	0.00
432.97	53.83
433.16	65.54
433.35	74.90
433.54	105.32
433.72	107.66
433.91	107.66
434.10	0.00
434.28	84.26
434.47	35.11
434.66	72.56
434.85	30.43
435.03	81.92
435.22	23.41
435.41	84.26
435.59	30.43
435.78	16.38
435.97	16.38
436.16	112.35
436.34	124.05
436.53	51.49
436.72	25.75
436.90	93.62
437.09	28.09
437.28	74.90
437.46	56.17
437.65	39.79
437.84	88.94
438.02	44.47
438.21	21.06
438.40	88.94
438.58	74.90
438.77	81.92
438.96	42.13
439.14	135.75
439.33	102.98
439.52	72.56
439.70	74.90
439.89	72.56
440.08	65.54
440.26	74.90
440.45	0.00
440.63	93.62
440.82	0.00
441.01	53.83
441.19	39.79
441.38	51.49
441.57	53.83
441.75	65.54
441.94	28.09
442.12	81.92
442.31	95.96
442.50	49.15
442.68	23.41
442.87	95.96
443.05	0.00
443.24	9.36
443.43	138.09
443.61	49.15
443.80	65.54
443.98	30.43
444.17	72.56
444.35	51.49
444.54	23.41
444.73	77.24
444.91	42.13
445.10	51.49
445.28	112.35
445.47	135.75
445.65	65.54
445.84	0.00
446.02	9.36
446.21	23.41
446.39	49.15
446.58	32.77
446.77	35.11
446.95	42.13
447.14	11.70
447.32	67.88
447.51	46.81
447.69	39.79
447.88	0.00
448.06	105.32
448.25	65.54
448.43	56.17
448.62	44.47
448.80	49.15
448.99	51.49
449.17	65.54
449.36	9.36
449.54	60.85
449.73	30.43
449.91	32.77
450.10	84.26
450.28	74.90
450.46	79.58
450.65	0.00
450.83	60.85
451.02	37.45
451.20	28.09
451.39	74.90
451.57	30.43
451.76	98.30
451.94	42.13
452.13	46.81
452.31	46.81
452.49	65.54
452.68	95.96
452.86	42.13
453.05	18.72
453.23	18.72
453.42	74.90
453.60	49.15
453.78	21.06
453.97	58.51
454.15	32.77
454.34	91.28
454.52	0.00
454.70	110.01
454.89	21.06
455.07	65.54
455.26	77.24
455.44	46.81
455.62	25.75
455.81	135.75
455.99	37.45
456.17	39.79
456.36	23.41
456.54	14.04
456.73	30.43
456.91	28.09
457.09	37.45
457.28	88.94
457.46	114.69
457.64	39.79
457.83	56.17
458.01	14.04
458.19	72.56
458.38	39.79
458.56	105.32
458.74	39.79
458.93	11.70
459.11	18.72
459.29	46.81
459.48	98.30
459.66	67.88
459.84	105.32
460.03	133.41
460.21	95.96
460.39	84.26
460.57	16.38
460.76	67.88
460.94	98.30
461.12	11.70
461.31	9.36
461.49	74.90
461.67	42.13
461.85	49.15
462.04	70.22
462.22	58.51
462.40	56.17
462.59	0.00
462.77	21.06
462.95	58.51
463.13	35.11
463.32	77.24
463.50	44.47
463.68	98.30
463.86	16.38
464.05	18.72
464.23	74.90
464.41	44.47
464.59	39.79
464.78	60.85
464.96	58.51
465.14	63.19
465.32	16.38
465.50	28.09
465.69	25.75
465.87	46.81
466.05	2.34
466.23	117.03
466.41	65.54
466.60	77.24
466.78	30.43
466.96	18.72
467.14	30.43
467.32	51.49
467.51	60.85
467.69	110.01
467.87	63.19
468.05	30.43
468.23	30.43
468.41	7.02
468.60	42.13
468.78	77.24
468.96	9.36
469.14	84.26
469.32	42.13
469.50	95.96
469.69	53.83
469.87	65.54
470.05	32.77
470.23	35.11
470.41	30.43
470.59	51.49
470.77	86.60
470.95	102.98
471.14	142.77
471.32	49.15
471.50	53.83
471.68	98.30
471.86	58.51
472.04	100.64
472.22	46.81
472.40	30.43
472.58	58.51
472.77	28.09
472.95	65.54
473.13	35.11
473.31	100.64
473.49	0.00
473.67	88.94
473.85	107.66
474.03	23.41
474.21	65.54
474.39	21.06
474.57	23.41
474.75	37.45
474.93	77.24
475.12	91.28
475.30	49.15
475.48	23.41
475.66	0.00
475.84	44.47
476.02	93.62
476.20	9.36
476.38	0.00
476.56	65.54
476.74	9.36
476.92	18.72
477.10	98.30
477.28	44.47
477.46	70.22
477.64	63.19
477.82	51.49
478.00	56.17
478.18	37.45
478.36	63.19
478.54	0.00
478.72	60.85
478.90	72.56
479.08	46.81
479.26	51.49
479.44	60.85
479.62	39.79
479.80	53.83
479.98	88.94
480.16	30.43
480.34	49.15
480.52	35.11
480.70	44.47
480.88	98.30
481.06	21.06
481.24	65.54
481.41	88.94
481.59	30.43
481.77	23.41
481.95	70.22
482.13	84.26
482.31	0.00
482.49	133.41
482.67	112.35
482.85	84.26
483.03	18.72
483.21	56.17
483.39	107.66
483.57	72.56
483.74	53.83
483.92	46.81
484.10	42.13
484.28	65.54
484.46	49.15
484.64	63.19
484.82	74.90
485.00	140.43
485.18	128.73
485.35	102.98
485.53	72.56
485.71	72.56
485.89	72.56
486.07	128.73
486.25	88.94
486.43	107.66
486.61	42.13
486.78	117.03
486.96	21.06
487.14	107.66
487.32	65.54
487.50	84.26
487.68	32.77
487.85	79.58
488.03	86.60
488.21	42.13
488.39	42.13
488.57	142.77
488.75	63.19
488.92	100.64
489.10	67.88
489.28	135.75
489.46	128.73
489.64	67.88
489.81	67.88
489.99	42.13
490.17	21.06
490.35	51.49
490.53	119.37
490.70	63.19
490.88	63.19
491.06	86.60
491.24	147.45
491.41	86.60
491.59	25.75
491.77	0.00
491.95	37.45
492.13	100.64
492.30	98.30
492.48	18.72
492.66	63.19
492.84	91.28
493.01	79.58
493.19	72.56
493.37	142.77
493.54	102.98
493.72	44.47
493.90	35.11
494.08	35.11
494.25	107.66
494.43	88.94
494.61	91.28
494.79	77.24
494.96	37.45
495.14	65.54
495.32	140.43
495.49	95.96
495.67	63.19
495.85	7.02
496.02	42.13
496.20	114.69
496.38	107.66
496.55	142.77
496.73	152.13
496.91	86.60
497.09	49.15
497.26	102.98
497.44	81.92
497.62	65.54
497.79	46.81
497.97	100.64
498.14	42.13
498.32	84.26
498.50	93.62
498.67	49.15
498.85	79.58
499.03	91.28
499.20	67.88
499.38	60.85
499.56	77.24
499.73	70.22
499.91	70.22
500.08	67.88
500.26	105.32
500.44	84.26
500.61	23.41
500.79	88.94
500.97	58.51
501.14	102.98
501.32	124.05
501.49	79.58
501.67	65.54
501.84	65.54
502.02	72.56
502.20	88.94
502.37	84.26
502.55	98.30
502.72	107.66
502.90	70.22
503.07	56.17
503.25	44.47
503.43	28.09
503.60	58.51
503.78	63.19
503.95	84.26
504.13	93.62
504.30	177.88
504.48	147.45
504.65	35.11
504.83	49.15
505.01	91.28
505.18	65.54
505.36	53.83
505.53	63.19
505.71	32.77
505.88	114.69
506.06	46.81
506.23	126.39
506.41	84.26
506.58	84.26
506.76	4.68
506.93	93.62
507.11	110.01
507.28	0.00
507.46	110.01
507.63	56.17
507.81	175.54
507.98	88.94
508.16	25.75
508.33	98.30
508.50	60.85
508.68	84.26
508.85	117.03
509.03	138.09
509.20	42.13
509.38	23.41
509.55	70.22
509.73	60.85
509.90	93.62
510.08	98.30
510.25	95.96
510.42	84.26
510.60	42.13
510.77	100.64
510.95	102.98
511.12	159.16
511.30	72.56
511.47	0.00
511.64	72.56
511.82	70.22
511.99	70.22
512.17	65.54
512.34	81.92
512.51	98.30
512.69	88.94
512.86	14.04
513.04	88.94
513.21	49.15
513.38	37.45
513.56	72.56
513.73	124.05
513.90	42.13
514.08	105.32
514.25	72.56
514.43	159.16
514.60	93.62
514.77	100.64
514.95	9.36
515.12	93.62
515.29	72.56
515.47	95.96
515.64	93.62
515.81	126.39
515.99	35.11
516.16	11.70
516.33	49.15
516.51	37.45
516.68	79.58
516.85	93.62
517.03	51.49
517.20	44.47
517.37	63.19
517.54	46.81
517.72	60.85
517.89	81.92
518.06	0.00
518.24	63.19
518.41	51.49
518.58	81.92
518.75	65.54
518.93	93.62
519.10	119.37
519.27	63.19
519.45	65.54
519.62	114.69
519.79	60.85
519.96	56.17
520.14	72.56
520.31	9.36
520.48	112.35
520.65	46.81
520.83	133.41
521.00	105.32
521.17	79.58
521.34	105.32
521.52	37.45
521.69	84.26
521.86	81.92
522.03	84.26
522.20	88.94
522.38	65.54
522.55	79.58
522.72	140.43
522.89	93.62
523.07	39.79
523.24	74.90
523.41	131.07
523.58	124.05
523.75	46.81
523.92	131.07
524.10	84.26
524.27	133.41
524.44	49.15
524.61	142.77
524.78	110.01
524.96	77.24
525.13	56.17
525.30	93.62
525.47	93.62
525.64	49.15
525.81	121.71
525.98	107.66
526.16	32.77
526.33	53.83
526.50	121.71
526.67	72.56
526.84	131.07
527.01	145.11
527.18	53.83
527.36	100.64
527.53	86.60
527.70	56.17
527.87	121.71
528.04	203.63
528.21	93.62
528.38	93.62
528.55	60.85
528.72	112.35
528.89	44.47
529.07	93.62
529.24	51.49
529.41	77.24
529.58	49.15
529.75	53.83
529.92	107.66
530.09	67.88
530.26	149.79
530.43	100.64
530.60	98.30
530.77	4.68
530.94	133.41
531.11	95.96
531.28	44.47
531.46	102.98
531.63	2.34
531.80	72.56
531.97	124.05
532.14	121.71
532.31	65.54
532.48	39.79
532.65	0.00
532.82	51.49
532.99	133.41
533.16	112.35
533.33	131.07
533.50	84.26
533.67	93.62
533.84	28.09
534.01	138.09
534.18	117.03
534.35	119.37
534.52	126.39
534.69	81.92
534.86	77.24
535.03	91.28
535.20	114.69
535.37	65.54
535.54	51.49
535.71	154.48
535.88	77.24
536.05	102.98
536.22	65.54
536.38	114.69
536.55	74.90
536.72	70.22
536.89	30.43
537.06	21.06
537.23	161.50
537.40	84.26
537.57	117.03
537.74	100.64
537.91	77.24
538.08	74.90
538.25	46.81
538.42	67.88
538.59	102.98
538.75	28.09
538.92	145.11
539.09	65.54
539.26	77.24
539.43	128.73
539.60	72.56
539.77	74.90
539.94	70.22
540.11	86.60
540.28	95.96
540.44	102.98
540.61	35.11
540.78	72.56
540.95	51.49
541.12	77.24
541.29	84.26
541.46	95.96
541.62	107.66
541.79	117.03
541.96	98.30
542.13	91.28
542.30	117.03
542.47	74.90
542.63	42.13
542.80	93.62
542.97	131.07
543.14	81.92
543.31	0.00
543.48	84.26
543.64	126.39
543.81	95.96
543.98	91.28
544.15	51.49
544.32	100.64
544.48	142.77
544.65	105.32
544.82	102.98
544.99	77.24
545.16	79.58
545.32	51.49
545.49	128.73
545.66	60.85
545.83	53.83
546.00	74.90
546.16	110.01
546.33	100.64
546.50	126.39
546.67	95.96
546.83	28.09
547.00	0.00
547.17	77.24
547.34	86.60
547.50	84.26
547.67	44.47
547.84	95.96
548.00	39.79
548.17	42.13
548.34	0.00
548.51	131.07
548.67	114.69
548.84	149.79
549.01	105.32
549.18	21.06
549.34	81.92
549.51	86.60
549.68	72.56
549.84	149.79
550.01	51.49
550.18	32.77
550.34	65.54
550.51	44.47
550.68	102.98
550.84	168.52
551.01	98.30
551.18	51.49
551.34	53.83
551.51	74.90
551.68	105.32
551.84	65.54
552.01	74.90
552.18	98.30
552.34	81.92
552.51	110.01
552.68	86.60
552.84	60.85
553.01	81.92
553.18	98.30
553.34	72.56
553.51	93.62
553.67	74.90
553.84	100.64
554.01	112.35
554.17	107.66
554.34	91.28
554.51	79.58
554.67	110.01
554.84	23.41
555.00	121.71
555.17	121.71
555.33	88.94
555.50	32.77
555.67	72.56
555.83	152.13
556.00	156.82
556.16	86.60
556.33	53.83
556.50	25.75
556.66	112.35
556.83	53.83
556.99	44.47
557.16	74.90
557.32	56.17
557.49	154.48
557.65	25.75
557.82	65.54
557.98	44.47
558.15	88.94
558.32	56.17
558.48	65.54
558.65	30.43
558.81	88.94
558.98	105.32
559.14	133.41
559.31	72.56
559.47	79.58
559.64	72.56
559.80	74.90
559.97	53.83
560.13	79.58
560.30	67.88
560.46	70.22
560.63	65.54
560.79	126.39
560.96	163.84
561.12	114.69
561.29	72.56
561.45	70.22
561.61	161.50
561.78	138.09
561.94	81.92
562.11	105.32
562.27	86.60
562.44	86.60
562.60	110.01
562.77	51.49
562.93	30.43
563.10	100.64
563.26	84.26
563.42	72.56
563.59	53.83
563.75	86.60
563.92	72.56
564.08	102.98
564.24	67.88
564.41	91.28
564.57	65.54
564.74	107.66
564.90	95.96
565.07	23.41
565.23	9.36
565.39	72.56
565.56	7.02
565.72	86.60
565.88	81.92
566.05	86.60
566.21	86.60
566.38	70.22
566.54	163.84
566.70	79.58
566.87	91.28
567.03	21.06
567.19	138.09
567.36	114.69
567.52	119.37
567.68	98.30
567.85	72.56
568.01	35.11
568.17	46.81
568.34	32.77
568.50	95.96
568.66	138.09
568.83	84.26
568.99	67.88
569.15	35.11
569.32	95.96
569.48	30.43
569.64	70.22
569.81	60.85
569.97	81.92
570.13	95.96
570.30	58.51
570.46	25.75
570.62	133.41
570.78	0.00
570.95	30.43
571.11	49.15
571.27	102.98
571.43	63.19
571.60	98.30
571.76	145.11
571.92	145.11
572.09	23.41
572.25	100.64
572.41	74.90
572.57	102.98
572.74	23.41
572.90	53.83
573.06	63.19
573.22	112.35
573.38	95.96
573.55	147.45
573.71	60.85
573.87	74.90
574.03	124.05
574.20	84.26
574.36	100.64
574.52	63.19
574.68	98.30
574.84	23.41
575.01	98.30
575.17	110.01
575.33	131.07
575.49	67.88
575.65	9.36
575.82	58.51
575.98	138.09
576.14	102.98
576.30	86.60
576.46	32.77
576.62	28.09
576.79	95.96
576.95	60.85
577.11	145.11
577.27	32.77
577.43	63.19
577.59	56.17
577.75	56.17
577.92	70.22
578.08	39.79
578.24	7.02
578.40	58.51
578.56	37.45
578.72	91.28
578.88	77.24
579.04	95.96
579.21	135.75
579.37	56.17
579.53	131.07
579.69	35.11
579.85	56.17
580.01	86.60
580.17	56.17
580.33	49.15
580.49	117.03
580.65	191.92
580.82	95.96
580.98	21.06
581.14	25.75
581.30	88.94
581.46	112.35
581.62	77.24
581.78	102.98
581.94	0.00
582.10	142.77
582.26	58.51
582.42	67.88
582.58	65.54
582.74	65.54
582.90	117.03
583.06	21.06
583.22	32.77
583.38	56.17
583.54	112.35
583.70	77.24
583.86	32.77
584.02	44.47
584.18	128.73
584.34	114.69
584.50	91.28
584.66	79.58
584.82	102.98
584.98	74.90
585.14	77.24
585.30	46.81
585.46	39.79
585.62	93.62
585.78	133.41
585.94	30.43
586.10	56.17
586.26	0.00
586.42	98.30
586.58	60.85
586.74	86.60
586.90	98.30
587.06	49.15
587.22	67.88
587.38	79.58
587.54	107.66
587.70	114.69
587.86	63.19
588.02	105.32
588.18	105.32
588.34	70.22
588.49	79.58
588.65	63.19
588.81	81.92
588.97	42.13
589.13	210.65
589.29	121.71
589.45	35.11
589.61	49.15
589.77	84.26
589.93	35.11
590.08	95.96
590.24	67.88
590.40	88.94
590.56	74.90
590.72	88.94
590.88	35.11
591.04	70.22
591.20	142.77
591.35	63.19
591.51	95.96
591.67	56.17
591.83	16.38
591.99	81.92
592.15	46.81
592.31	84.26
592.46	4.68
592.62	58.51
592.78	114.69
592.94	28.09
593.10	88.94
593.26	56.17
593.41	124.05
593.57	126.39
593.73	74.90
593.89	91.28
594.05	112.35
594.20	74.90
594.36	88.94
594.52	39.79
594.68	0.00
594.84	93.62
594.99	100.64
595.15	70.22
595.31	93.62
595.47	53.83
595.62	102.98
595.78	74.90
595.94	84.26
596.10	74.90
596.25	93.62
596.41	51.49
596.57	126.39
596.73	88.94
596.88	112.35
597.04	58.51
597.20	56.17
597.36	9.36
597.51	126.39
597.67	114.69
597.83	35.11
597.99	39.79
598.14	21.06
598.30	156.82
598.46	156.82
598.61	86.60
598.77	119.37
598.93	42.13
599.09	117.03
599.24	88.94
599.40	91.28
599.56	79.58
599.71	30.43
599.87	86.60
600.03	138.09
600.18	9.36
600.34	11.70
600.50	42.13
600.65	65.54
600.81	107.66
600.97	35.11
601.12	77.24
601.28	100.64
601.44	79.58
601.59	131.07
601.75	30.43
601.91	2.34
602.06	63.19
602.22	72.56
602.37	53.83
602.53	95.96
602.69	84.26
602.84	88.94
603.00	119.37
603.16	35.11
603.31	95.96
603.47	44.47
603.62	124.05
603.78	93.62
603.94	84.26
604.09	100.64
604.25	9.36
604.40	60.85
604.56	100.64
604.71	79.58
604.87	91.28
605.03	100.64
605.18	84.26
605.34	107.66
605.49	56.17
605.65	49.15
605.80	88.94
605.96	56.17
606.12	46.81
606.27	14.04
606.43	35.11
606.58	173.20
606.74	49.15
606.89	46.81
607.05	18.72
607.20	81.92
607.36	124.05
607.51	93.62
607.67	56.17
607.82	25.75
607.98	74.90
608.13	14.04
608.29	18.72
608.44	0.00
608.60	37.45
608.75	51.49
608.91	107.66
609.06	21.06
609.22	128.73
609.37	74.90
609.53	44.47
609.68	110.01
609.84	74.90
609.99	51.49
610.15	53.83
610.30	93.62
610.46	88.94
610.61	84.26
610.76	140.43
610.92	77.24
611.07	58.51
611.23	117.03
611.38	67.88
611.54	107.66
611.69	81.92
611.84	37.45
612.00	105.32
612.15	23.41
612.31	86.60
612.46	49.15
612.62	65.54
612.77	28.09
612.92	25.75
613.08	0.00
613.23	63.19
613.39	86.60
613.54	81.92
613.69	131.07
613.85	105.32
614.00	46.81
614.15	42.13
614.31	28.09
614.46	88.94
614.62	51.49
614.77	0.00
614.92	156.82
615.08	0.00
615.23	91.28
615.38	56.17
615.54	18.72
615.69	84.26
615.84	49.15
616.00	105.32
616.15	131.07
616.30	53.83
616.46	0.00
616.61	91.28
616.76	95.96
616.92	65.54
617.07	128.73
617.22	86.60
617.37	70.22
617.53	51.49
617.68	93.62
617.83	81.92
617.99	46.81
618.14	93.62
618.29	60.85
618.45	42.13
618.60	105.32
618.75	110.01
618.90	11.70
619.06	0.00
619.21	112.35
619.36	138.09
619.51	7.02
619.67	37.45
619.82	44.47
619.97	102.98
620.12	121.71
620.28	95.96
620.43	65.54
620.58	58.51
620.73	44.47
620.89	51.49
621.04	107.66
621.19	77.24
621.34	30.43
621.49	28.09
621.65	28.09
621.80	0.00
621.95	7.02
622.10	79.58
622.25	16.38
622.41	74.90
622.56	86.60
622.71	25.75
622.86	102.98
623.01	124.05
623.16	32.77
623.32	11.70
623.47	100.64
623.62	93.62
623.77	49.15
623.92	49.15
624.07	124.05
624.23	32.77
624.38	58.51
624.53	39.79
624.68	63.19
624.83	72.56
624.98	91.28
625.13	14.04
625.29	74.90
625.44	67.88
625.59	32.77
625.74	84.26
625.89	14.04
626.04	72.56
626.19	60.85
626.34	0.00
626.49	63.19
626.65	4.68
626.80	30.43
626.95	9.36
627.10	49.15
627.25	81.92
627.40	138.09
627.55	86.60
627.70	16.38
627.85	37.45
628.00	37.45
628.15	30.43
628.30	112.35
628.45	49.15
628.60	100.64
628.76	7.02
628.91	53.83
629.06	18.72
629.21	51.49
629.36	51.49
629.51	30.43
629.66	74.90
629.81	11.70
629.96	44.47
630.11	14.04
630.26	32.77
630.41	0.00
630.56	42.13
630.71	91.28
630.86	79.58
631.01	53.83
631.16	149.79
631.31	18.72
631.46	58.51
631.61	11.70
631.76	42.13
631.91	98.30
632.06	53.83
632.21	67.88
632.36	32.77
632.51	9.36
632.66	60.85
632.81	124.05
632.96	56.17
633.10	70.22
633.25	60.85
633.40	128.73
633.55	42.13
633.70	84.26
633.85	28.09
634.00	84.26
634.15	72.56
634.30	84.26
634.45	114.69
634.60	81.92
634.75	49.15
634.90	4.68
635.05	63.19
635.19	70.22
635.34	0.00
635.49	60.85
635.64	74.90
635.79	79.58
635.94	0.00
636.09	30.43
636.24	135.75
636.39	58.51
636.53	88.94
636.68	0.00
636.83	23.41
636.98	35.11
637.13	74.90
637.28	28.09
637.43	63.19
637.57	70.22
637.72	14.04
637.87	42.13
638.02	128.73
638.17	58.51
638.32	70.22
638.46	114.69
638.61	11.70
638.76	67.88
638.91	114.69
639.06	88.94
639.20	72.56
639.35	30.43
639.50	37.45
639.65	84.26
639.80	91.28
639.94	91.28
640.09	49.15
640.24	4.68
640.39	32.77
640.54	91.28
640.68	46.81
640.83	39.79
640.98	65.54
641.13	79.58
641.27	84.26
641.42	11.70
641.57	0.00
641.72	79.58
641.86	93.62
642.01	46.81
642.16	98.30
642.31	42.13
642.45	30.43
642.60	16.38
642.75	56.17
642.90	18.72
643.04	56.17
643.19	44.47
643.34	88.94
643.48	95.96
643.63	79.58
643.78	84.26
643.93	135.75
644.07	53.83
644.22	35.11
644.37	98.30
644.51	58.51
644.66	79.58
644.81	119.37
644.95	102.98
645.10	81.92
645.25	86.60
645.39	77.24
645.54	105.32
645.69	21.06
645.83	102.98
645.98	44.47
646.13	7.02
646.27	14.04
646.42	0.00
646.57	88.94
646.71	49.15
646.86	98.30
647.00	51.49
647.15	70.22
647.30	39.79
647.44	79.58
647.59	11.70
647.74	86.60
647.88	56.17
648.03	77.24
648.17	49.15
648.32	32.77
648.47	56.17
648.61	86.60
648.76	107.66
648.90	100.64
649.05	53.83
649.20	0.00
649.34	35.11
649.49	105.32
649.63	60.85
649.78	91.28
649.92	77.24
650.07	93.62
650.21	53.83
650.36	88.94
650.51	110.01
650.65	86.60
650.80	86.60
650.94	37.45
651.09	42.13
651.23	70.22
651.38	0.00
651.52	65.54
651.67	79.58
651.81	67.88
651.96	93.62
652.10	39.79
652.25	58.51
652.39	9.36
652.54	56.17
652.68	51.49
652.83	63.19
652.97	81.92
653.12	56.17
653.26	117.03
653.41	35.11
653.55	28.09
653.70	7.02
653.84	56.17
653.99	35.11
654.13	0.00
654.27	32.77
654.42	9.36
654.56	91.28
654.71	58.51
654.85	81.92
655.00	46.81
655.14	70.22
655.29	30.43
655.43	51.49
655.57	16.38
655.72	93.62
655.86	4.68
656.01	11.70
656.15	98.30
656.30	70.22
656.44	49.15
656.58	0.00
656.73	58.51
656.87	9.36
657.01	32.77
657.16	44.47
657.30	86.60
657.45	42.13
657.59	53.83
657.73	30.43
657.88	44.47
658.02	0.00
658.16	105.32
658.31	65.54
658.45	117.03
658.60	60.85
658.74	79.58
658.88	65.54
659.03	60.85
659.17	70.22
659.31	23.41
659.46	65.54
659.60	0.00
659.74	0.00
659.89	21.06
660.03	30.43
660.17	51.49
660.32	81.92
660.46	81.92
660.60	60.85
660.74	145.11
660.89	88.94
661.03	67.88
661.17	18.72
661.32	70.22
661.46	63.19
661.60	58.51
661.74	18.72
661.89	65.54
662.03	84.26
662.17	70.22
662.31	95.96
662.46	110.01
662.60	74.90
662.74	49.15
662.88	56.17
663.03	2.34
663.17	63.19
663.31	60.85
663.45	0.00
663.60	11.70
663.74	42.13
663.88	65.54
664.02	58.51
664.17	86.60
664.31	105.32
664.45	58.51
664.59	93.62
664.73	0.00
664.88	39.79
665.02	2.34
665.16	32.77
665.30	77.24
665.44	7.02
665.59	84.26
665.73	84.26
665.87	25.75
666.01	53.83
666.15	67.88
666.29	44.47
666.44	42.13
666.58	91.28
666.72	105.32
666.86	93.62
667.00	32.77
667.14	79.58
667.28	28.09
667.43	77.24
667.57	0.00
667.71	53.83
667.85	7.02
667.99	65.54
668.13	49.15
668.27	11.70
668.41	11.70
668.56	56.17
668.70	30.43
668.84	39.79
668.98	79.58
669.12	93.62
669.26	91.28
669.40	56.17
669.54	56.17
669.68	74.90
669.82	63.19
669.96	32.77
670.10	39.79
670.25	88.94
670.39	4.68
670.53	124.05
670.67	93.62
670.81	86.60
670.95	23.41
671.09	58.51
671.23	30.43
671.37	37.45
671.51	25.75
671.65	81.92
671.79	88.94
671.93	152.13
672.07	86.60
672.21	65.54
672.35	86.60
672.49	32.77
672.63	86.60
672.77	81.92
672.91	60.85
673.05	14.04
673.19	0.00
673.33	65.54
673.47	100.64
673.61	30.43
673.75	124.05
673.89	77.24
674.03	117.03
674.17	91.28
674.31	0.00
674.45	51.49
674.59	58.51
674.73	0.00
674.87	126.39
675.01	131.07
675.15	77.24
675.29	16.38
675.43	16.38
675.56	44.47
675.70	0.00
675.84	77.24
675.98	51.49
676.12	37.45
676.26	58.51
676.40	25.75
676.54	121.71
676.68	25.75
676.82	25.75
676.96	60.85
677.10	0.00
677.23	63.19
677.37	67.88
677.51	37.45
677.65	42.13
677.79	67.88
677.93	39.79
678.07	28.09
678.21	56.17
678.34	42.13
678.48	60.85
678.62	84.26
678.76	11.70
678.90	32.77
679.04	0.00
679.18	32.77
679.31	44.47
679.45	32.77
679.59	9.36
679.73	53.83
679.87	86.60
680.00	67.88
680.14	63.19
680.28	32.77
680.42	56.17
680.56	35.11
680.70	25.75
680.83	67.88
680.97	11.70
681.11	35.11
681.25	145.11
681.39	88.94
681.52	91.28
681.66	4.68
681.80	93.62
681.94	0.00
682.07	63.19
682.21	37.45
682.35	0.00
682.49	58.51
682.62	9.36
682.76	37.45
682.90	49.15
683.04	21.06
683.17	63.19
683.31	0.00
683.45	23.41
683.59	65.54
683.72	91.28
683.86	93.62
684.00	65.54
684.13	28.09
684.27	86.60
684.41	42.13
684.55	107.66
684.68	70.22
684.82	121.71
684.96	107.66
685.09	65.54
685.23	79.58
685.37	60.85
685.50	65.54
685.64	56.17
685.78	37.45
685.91	42.13
686.05	4.68
686.19	11.70
686.32	42.13
686.46	117.03
686.60	44.47
686.73	0.00
686.87	0.00
687.01	14.04
687.14	0.00
687.28	124.05
687.42	39.79
687.55	46.81
687.69	23.41
687.82	0.00
687.96	25.75
688.10	72.56
688.23	88.94
688.37	30.43
688.50	70.22
688.64	25.75
688.78	49.15
688.91	107.66
689.05	63.19
689.18	0.00
689.32	28.09
689.46	0.00
689.59	44.47
689.73	56.17
689.86	67.88
690.00	46.81
690.13	0.00
690.27	35.11
690.41	110.01
690.54	110.01
690.68	18.72
690.81	0.00
690.95	23.41
691.08	88.94
691.22	70.22
691.35	23.41
691.49	121.71
691.62	37.45
691.76	18.72
691.89	42.13
692.03	42.13
692.16	58.51
692.30	18.72
692.43	84.26
692.57	46.81
692.70	21.06
692.84	70.22
692.97	65.54
693.11	7.02
693.24	60.85
693.38	39.79
693.51	72.56
693.65	100.64
693.78	112.35
693.92	0.00
694.05	79.58
694.19	16.38
694.32	0.00
694.45	65.54
694.59	0.00
694.72	67.88
694.86	60.85
694.99	67.88
695.13	88.94
695.26	56.17
695.39	60.85
695.53	53.83
695.66	18.72
695.80	49.15
695.93	0.00
696.07	42.13
696.20	4.68
696.33	81.92
696.47	39.79
696.60	72.56
696.73	0.00
696.87	0.00
697.00	117.03
697.14	16.38
697.27	60.85
697.40	32.77
697.54	0.00
697.67	84.26
697.80	14.04
697.94	14.04
698.07	0.00
698.21	0.00
698.34	44.47
698.47	74.90
698.61	7.02
698.74	88.94
698.87	0.00
699.01	0.00
699.14	81.92
699.27	60.85
699.40	18.72
699.54	58.51
699.67	0.00
699.80	4.68
699.94	30.43
700.07	74.90
700.20	0.00
700.34	51.49
700.47	42.13
700.60	28.09
700.73	11.70
700.87	0.00
701.00	0.00
701.13	86.60
701.26	21.06
701.40	42.13
701.53	60.85
701.66	44.47
701.79	65.54
701.93	0.00
702.06	53.83
702.19	0.00
702.32	58.51
702.46	18.72
702.59	37.45
702.72	37.45
702.85	7.02
702.99	0.00
703.12	18.72
703.25	58.51
703.38	0.00
703.51	25.75
703.65	53.83
703.78	56.17
703.91	102.98
704.04	4.68
704.17	44.47
704.31	51.49
704.44	25.75
704.57	37.45
704.70	32.77
704.83	32.77
704.96	67.88
705.10	0.00
705.23	18.72
>>>>>End Processed Spectral Data<<<<<
