SpectraSuite Data File
++++++++++++++++++++++++++++++++++++
Date: Fri Oct 04 12:13:42 GMT-05:00 2013
User: price-jones
Dark Spectrum Present: No
Reference Spectrum Present: No
Number of Sampled Component Spectra: 1
Spectrometers: USB2+H05261
Integration Time (usec): 10000 (USB2+H05261)
Spectra Averaged: 1 (USB2+H05261)
Boxcar Smoothing: 0 (USB2+H05261)
Correct for Electrical Dark: No (USB2+H05261)
Strobe/Lamp Enabled: No (USB2+H05261)
Correct for Detector Non-linearity: No (USB2+H05261)
Correct for Stray Light: No (USB2+H05261)
Number of Pixels in Processed Spectrum: 2048
>>>>>Begin Processed Spectral Data<<<<<
365.73	0.00
365.92	0.00
366.12	0.00
366.32	0.00
366.52	0.00
366.72	0.00
366.91	0.00
367.11	0.00
367.31	0.00
367.51	0.00
367.70	0.00
367.90	0.00
368.10	0.00
368.30	0.00
368.49	0.00
368.69	0.00
368.89	0.00
369.09	0.00
369.28	0.00
369.48	0.00
369.68	0.00
369.87	0.00
370.07	0.00
370.27	0.00
370.47	0.00
370.66	0.00
370.86	0.00
371.06	0.00
371.25	21.06
371.45	0.00
371.65	0.00
371.84	0.00
372.04	0.00
372.24	7.02
372.44	25.75
372.63	21.06
372.83	56.17
373.03	0.00
373.22	60.85
373.42	35.11
373.62	23.41
373.81	9.36
374.01	0.00
374.21	0.00
374.40	0.00
374.60	63.19
374.79	0.00
374.99	0.00
375.19	53.83
375.38	37.45
375.58	84.26
375.78	23.41
375.97	126.39
376.17	53.83
376.37	110.01
376.56	28.09
376.76	91.28
376.95	121.71
377.15	58.51
377.35	0.00
377.54	37.45
377.74	0.00
377.93	79.58
378.13	32.77
378.33	16.38
378.52	56.17
378.72	77.24
378.91	51.49
379.11	81.92
379.31	30.43
379.50	79.58
379.70	114.69
379.89	2.34
380.09	0.00
380.28	0.00
380.48	0.00
380.68	35.11
380.87	16.38
381.07	0.00
381.26	60.85
381.46	16.38
381.65	21.06
381.85	0.00
382.04	9.36
382.24	51.49
382.43	44.47
382.63	9.36
382.83	0.00
383.02	140.43
383.22	0.00
383.41	25.75
383.61	14.04
383.80	51.49
384.00	16.38
384.19	65.54
384.39	18.72
384.58	0.00
384.78	35.11
384.97	0.00
385.17	2.34
385.36	79.58
385.56	14.04
385.75	37.45
385.95	0.00
386.14	42.13
386.34	74.90
386.53	67.88
386.72	84.26
386.92	0.00
387.11	112.35
387.31	86.60
387.50	0.00
387.70	16.38
387.89	0.00
388.09	9.36
388.28	0.00
388.48	0.00
388.67	0.00
388.86	133.41
389.06	114.69
389.25	23.41
389.45	51.49
389.64	72.56
389.84	74.90
390.03	35.11
390.22	16.38
390.42	32.77
390.61	18.72
390.81	0.00
391.00	0.00
391.19	98.30
391.39	14.04
391.58	58.51
391.78	0.00
391.97	0.00
392.16	79.58
392.36	14.04
392.55	23.41
392.75	44.47
392.94	79.58
393.13	37.45
393.33	0.00
393.52	0.00
393.71	0.00
393.91	32.77
394.10	51.49
394.29	0.00
394.49	4.68
394.68	44.47
394.88	105.32
395.07	18.72
395.26	0.00
395.46	25.75
395.65	91.28
395.84	88.94
396.04	100.64
396.23	39.79
396.42	0.00
396.62	35.11
396.81	81.92
397.00	67.88
397.19	53.83
397.39	46.81
397.58	93.62
397.77	0.00
397.97	0.00
398.16	18.72
398.35	107.66
398.55	23.41
398.74	39.79
398.93	42.13
399.12	25.75
399.32	0.00
399.51	56.17
399.70	0.00
399.90	37.45
400.09	0.00
400.28	2.34
400.47	39.79
400.67	63.19
400.86	0.00
401.05	0.00
401.24	32.77
401.44	4.68
401.63	53.83
401.82	11.70
402.01	58.51
402.21	98.30
402.40	60.85
402.59	0.00
402.78	11.70
402.97	44.47
403.17	42.13
403.36	0.00
403.55	9.36
403.74	35.11
403.93	37.45
404.13	42.13
404.32	2.34
404.51	4.68
404.70	60.85
404.89	0.00
405.09	35.11
405.28	58.51
405.47	60.85
405.66	21.06
405.85	30.43
406.05	93.62
406.24	84.26
406.43	0.00
406.62	0.00
406.81	49.15
407.00	32.77
407.20	7.02
407.39	0.00
407.58	0.00
407.77	51.49
407.96	23.41
408.15	30.43
408.34	0.00
408.54	49.15
408.73	39.79
408.92	88.94
409.11	25.75
409.30	60.85
409.49	9.36
409.68	35.11
409.87	23.41
410.07	51.49
410.26	0.00
410.45	2.34
410.64	32.77
410.83	53.83
411.02	39.79
411.21	14.04
411.40	86.60
411.59	98.30
411.78	67.88
411.98	28.09
412.17	21.06
412.36	67.88
412.55	37.45
412.74	102.98
412.93	35.11
413.12	37.45
413.31	44.47
413.50	0.00
413.69	0.00
413.88	0.00
414.07	51.49
414.26	37.45
414.45	70.22
414.64	2.34
414.83	42.13
415.02	16.38
415.22	67.88
415.41	0.00
415.60	9.36
415.79	42.13
415.98	9.36
416.17	39.79
416.36	51.49
416.55	58.51
416.74	9.36
416.93	95.96
417.12	91.28
417.31	35.11
417.50	65.54
417.69	53.83
417.88	14.04
418.07	91.28
418.26	67.88
418.45	0.00
418.64	74.90
418.83	4.68
419.02	25.75
419.21	0.00
419.39	30.43
419.58	21.06
419.77	11.70
419.96	100.64
420.15	84.26
420.34	32.77
420.53	88.94
420.72	46.81
420.91	74.90
421.10	119.37
421.29	21.06
421.48	49.15
421.67	112.35
421.86	70.22
422.05	46.81
422.24	23.41
422.43	4.68
422.61	0.00
422.80	65.54
422.99	30.43
423.18	30.43
423.37	72.56
423.56	119.37
423.75	39.79
423.94	84.26
424.13	72.56
424.32	53.83
424.50	16.38
424.69	44.47
424.88	37.45
425.07	86.60
425.26	46.81
425.45	49.15
425.64	0.00
425.83	11.70
426.01	44.47
426.20	72.56
426.39	65.54
426.58	14.04
426.77	91.28
426.96	149.79
427.15	0.00
427.33	21.06
427.52	7.02
427.71	152.13
427.90	86.60
428.09	0.00
428.28	46.81
428.46	0.00
428.65	49.15
428.84	2.34
429.03	95.96
429.22	74.90
429.40	11.70
429.59	105.32
429.78	16.38
429.97	7.02
430.16	84.26
430.34	49.15
430.53	0.00
430.72	60.85
430.91	0.00
431.10	9.36
431.28	16.38
431.47	56.17
431.66	74.90
431.85	18.72
432.03	93.62
432.22	79.58
432.41	95.96
432.60	88.94
432.79	74.90
432.97	65.54
433.16	51.49
433.35	42.13
433.54	46.81
433.72	70.22
433.91	0.00
434.10	46.81
434.28	37.45
434.47	51.49
434.66	67.88
434.85	2.34
435.03	49.15
435.22	46.81
435.41	0.00
435.59	79.58
435.78	0.00
435.97	7.02
436.16	25.75
436.34	21.06
436.53	70.22
436.72	84.26
436.90	65.54
437.09	121.71
437.28	0.00
437.46	25.75
437.65	23.41
437.84	72.56
438.02	60.85
438.21	102.98
438.40	28.09
438.58	0.00
438.77	102.98
438.96	32.77
439.14	0.00
439.33	112.35
439.52	21.06
439.70	117.03
439.89	53.83
440.08	16.38
440.26	67.88
440.45	81.92
440.63	9.36
440.82	86.60
441.01	53.83
441.19	58.51
441.38	56.17
441.57	46.81
441.75	95.96
441.94	44.47
442.12	0.00
442.31	84.26
442.50	16.38
442.68	7.02
442.87	88.94
443.05	51.49
443.24	23.41
443.43	56.17
443.61	35.11
443.80	44.47
443.98	4.68
444.17	77.24
444.35	35.11
444.54	21.06
444.73	77.24
444.91	37.45
445.10	49.15
445.28	86.60
445.47	0.00
445.65	16.38
445.84	121.71
446.02	128.73
446.21	102.98
446.39	60.85
446.58	14.04
446.77	14.04
446.95	72.56
447.14	124.05
447.32	95.96
447.51	58.51
447.69	21.06
447.88	145.11
448.06	42.13
448.25	93.62
448.43	91.28
448.62	58.51
448.80	0.00
448.99	0.00
449.17	16.38
449.36	4.68
449.54	114.69
449.73	81.92
449.91	0.00
450.10	42.13
450.28	7.02
450.46	53.83
450.65	98.30
450.83	53.83
451.02	46.81
451.20	2.34
451.39	0.00
451.57	30.43
451.76	0.00
451.94	84.26
452.13	28.09
452.31	30.43
452.49	11.70
452.68	84.26
452.86	39.79
453.05	39.79
453.23	63.19
453.42	53.83
453.60	0.00
453.78	49.15
453.97	30.43
454.15	37.45
454.34	81.92
454.52	119.37
454.70	110.01
454.89	149.79
455.07	25.75
455.26	37.45
455.44	145.11
455.62	58.51
455.81	51.49
455.99	0.00
456.17	23.41
456.36	0.00
456.54	79.58
456.73	74.90
456.91	63.19
457.09	93.62
457.28	0.00
457.46	0.00
457.64	124.05
457.83	28.09
458.01	58.51
458.19	44.47
458.38	0.00
458.56	72.56
458.74	58.51
458.93	0.00
459.11	72.56
459.29	147.45
459.48	133.41
459.66	46.81
459.84	42.13
460.03	72.56
460.21	49.15
460.39	91.28
460.57	0.00
460.76	98.30
460.94	65.54
461.12	30.43
461.31	53.83
461.49	0.00
461.67	98.30
461.85	65.54
462.04	56.17
462.22	37.45
462.40	46.81
462.59	91.28
462.77	53.83
462.95	2.34
463.13	140.43
463.32	11.70
463.50	37.45
463.68	28.09
463.86	88.94
464.05	46.81
464.23	0.00
464.41	0.00
464.59	98.30
464.78	102.98
464.96	4.68
465.14	58.51
465.32	35.11
465.50	9.36
465.69	63.19
465.87	140.43
466.05	46.81
466.23	46.81
466.41	39.79
466.60	65.54
466.78	30.43
466.96	65.54
467.14	0.00
467.32	86.60
467.51	60.85
467.69	72.56
467.87	95.96
468.05	0.00
468.23	77.24
468.41	42.13
468.60	30.43
468.78	65.54
468.96	77.24
469.14	145.11
469.32	39.79
469.50	28.09
469.69	114.69
469.87	37.45
470.05	37.45
470.23	98.30
470.41	91.28
470.59	0.00
470.77	98.30
470.95	63.19
471.14	81.92
471.32	42.13
471.50	98.30
471.68	32.77
471.86	60.85
472.04	35.11
472.22	51.49
472.40	53.83
472.58	60.85
472.77	56.17
472.95	91.28
473.13	79.58
473.31	4.68
473.49	37.45
473.67	124.05
473.85	58.51
474.03	0.00
474.21	49.15
474.39	46.81
474.57	21.06
474.75	25.75
474.93	63.19
475.12	0.00
475.30	105.32
475.48	63.19
475.66	65.54
475.84	53.83
476.02	72.56
476.20	23.41
476.38	105.32
476.56	93.62
476.74	91.28
476.92	42.13
477.10	7.02
477.28	60.85
477.46	67.88
477.64	0.00
477.82	56.17
478.00	102.98
478.18	9.36
478.36	16.38
478.54	86.60
478.72	51.49
478.90	56.17
479.08	46.81
479.26	65.54
479.44	60.85
479.62	60.85
479.80	42.13
479.98	23.41
480.16	117.03
480.34	42.13
480.52	91.28
480.70	65.54
480.88	32.77
481.06	72.56
481.24	18.72
481.41	42.13
481.59	44.47
481.77	60.85
481.95	63.19
482.13	65.54
482.31	112.35
482.49	51.49
482.67	35.11
482.85	70.22
483.03	65.54
483.21	74.90
483.39	88.94
483.57	70.22
483.74	81.92
483.92	77.24
484.10	79.58
484.28	63.19
484.46	67.88
484.64	93.62
484.82	65.54
485.00	63.19
485.18	102.98
485.35	72.56
485.53	65.54
485.71	63.19
485.89	79.58
486.07	51.49
486.25	53.83
486.43	67.88
486.61	63.19
486.78	63.19
486.96	65.54
487.14	23.41
487.32	32.77
487.50	93.62
487.68	100.64
487.85	51.49
488.03	95.96
488.21	98.30
488.39	65.54
488.57	67.88
488.75	51.49
488.92	126.39
489.10	102.98
489.28	91.28
489.46	100.64
489.64	7.02
489.81	0.00
489.99	21.06
490.17	14.04
490.35	88.94
490.53	25.75
490.70	60.85
490.88	74.90
491.06	67.88
491.24	42.13
491.41	79.58
491.59	56.17
491.77	86.60
491.95	21.06
492.13	16.38
492.30	65.54
492.48	91.28
492.66	84.26
492.84	135.75
493.01	32.77
493.19	0.00
493.37	23.41
493.54	58.51
493.72	56.17
493.90	124.05
494.08	65.54
494.25	79.58
494.43	91.28
494.61	135.75
494.79	79.58
494.96	105.32
495.14	70.22
495.32	28.09
495.49	98.30
495.67	110.01
495.85	0.00
496.02	16.38
496.20	74.90
496.38	42.13
496.55	81.92
496.73	51.49
496.91	100.64
497.09	7.02
497.26	93.62
497.44	88.94
497.62	42.13
497.79	46.81
497.97	124.05
498.14	112.35
498.32	95.96
498.50	110.01
498.67	56.17
498.85	107.66
499.03	117.03
499.20	112.35
499.38	110.01
499.56	86.60
499.73	117.03
499.91	81.92
500.08	98.30
500.26	121.71
500.44	140.43
500.61	46.81
500.79	126.39
500.97	138.09
501.14	79.58
501.32	107.66
501.49	67.88
501.67	84.26
501.84	173.20
502.02	60.85
502.20	58.51
502.37	86.60
502.55	56.17
502.72	131.07
502.90	91.28
503.07	93.62
503.25	37.45
503.43	124.05
503.60	145.11
503.78	112.35
503.95	49.15
504.13	114.69
504.30	102.98
504.48	56.17
504.65	110.01
504.83	84.26
505.01	30.43
505.18	126.39
505.36	91.28
505.53	166.18
505.71	53.83
505.88	107.66
506.06	175.54
506.23	49.15
506.41	42.13
506.58	67.88
506.76	63.19
506.93	95.96
507.11	79.58
507.28	95.96
507.46	161.50
507.63	81.92
507.81	166.18
507.98	156.82
508.16	138.09
508.33	100.64
508.50	100.64
508.68	133.41
508.85	46.81
509.03	98.30
509.20	140.43
509.38	119.37
509.55	93.62
509.73	70.22
509.90	37.45
510.08	110.01
510.25	49.15
510.42	28.09
510.60	39.79
510.77	44.47
510.95	100.64
511.12	84.26
511.30	93.62
511.47	170.86
511.64	67.88
511.82	145.11
511.99	102.98
512.17	149.79
512.34	152.13
512.51	166.18
512.69	72.56
512.86	112.35
513.04	70.22
513.21	93.62
513.38	105.32
513.56	86.60
513.73	4.68
513.90	60.85
514.08	102.98
514.25	84.26
514.43	46.81
514.60	53.83
514.77	77.24
514.95	142.77
515.12	86.60
515.29	60.85
515.47	46.81
515.64	138.09
515.81	53.83
515.99	117.03
516.16	49.15
516.33	145.11
516.51	105.32
516.68	72.56
516.85	72.56
517.03	140.43
517.20	25.75
517.37	16.38
517.54	86.60
517.72	131.07
517.89	126.39
518.06	77.24
518.24	100.64
518.41	133.41
518.58	100.64
518.75	84.26
518.93	77.24
519.10	46.81
519.27	107.66
519.45	79.58
519.62	124.05
519.79	46.81
519.96	102.98
520.14	16.38
520.31	51.49
520.48	100.64
520.65	67.88
520.83	93.62
521.00	105.32
521.17	72.56
521.34	63.19
521.52	133.41
521.69	53.83
521.86	79.58
522.03	98.30
522.20	88.94
522.38	63.19
522.55	14.04
522.72	102.98
522.89	72.56
523.07	119.37
523.24	126.39
523.41	60.85
523.58	124.05
523.75	44.47
523.92	88.94
524.10	95.96
524.27	133.41
524.44	81.92
524.61	70.22
524.78	72.56
524.96	88.94
525.13	100.64
525.30	98.30
525.47	84.26
525.64	88.94
525.81	91.28
525.98	63.19
526.16	131.07
526.33	133.41
526.50	72.56
526.67	93.62
526.84	86.60
527.01	42.13
527.18	112.35
527.36	65.54
527.53	53.83
527.70	86.60
527.87	126.39
528.04	81.92
528.21	77.24
528.38	63.19
528.55	163.84
528.72	56.17
528.89	77.24
529.07	63.19
529.24	98.30
529.41	102.98
529.58	67.88
529.75	74.90
529.92	95.96
530.09	91.28
530.26	81.92
530.43	126.39
530.60	74.90
530.77	203.63
530.94	18.72
531.11	70.22
531.28	77.24
531.46	79.58
531.63	65.54
531.80	35.11
531.97	63.19
532.14	124.05
532.31	56.17
532.48	28.09
532.65	121.71
532.82	51.49
532.99	180.22
533.16	102.98
533.33	107.66
533.50	112.35
533.67	152.13
533.84	58.51
534.01	95.96
534.18	93.62
534.35	117.03
534.52	88.94
534.69	145.11
534.86	51.49
535.03	91.28
535.20	51.49
535.37	133.41
535.54	65.54
535.71	51.49
535.88	44.47
536.05	46.81
536.22	107.66
536.38	32.77
536.55	84.26
536.72	138.09
536.89	65.54
537.06	70.22
537.23	156.82
537.40	37.45
537.57	147.45
537.74	0.00
537.91	81.92
538.08	117.03
538.25	72.56
538.42	70.22
538.59	53.83
538.75	46.81
538.92	77.24
539.09	135.75
539.26	86.60
539.43	107.66
539.60	86.60
539.77	126.39
539.94	0.00
540.11	67.88
540.28	86.60
540.44	121.71
540.61	112.35
540.78	124.05
540.95	145.11
541.12	58.51
541.29	142.77
541.46	56.17
541.62	93.62
541.79	58.51
541.96	105.32
542.13	105.32
542.30	95.96
542.47	95.96
542.63	102.98
542.80	88.94
542.97	100.64
543.14	126.39
543.31	79.58
543.48	128.73
543.64	110.01
543.81	58.51
543.98	102.98
544.15	159.16
544.32	46.81
544.48	16.38
544.65	128.73
544.82	42.13
544.99	81.92
545.16	32.77
545.32	124.05
545.49	105.32
545.66	37.45
545.83	72.56
546.00	86.60
546.16	79.58
546.33	156.82
546.50	119.37
546.67	42.13
546.83	88.94
547.00	159.16
547.17	126.39
547.34	145.11
547.50	88.94
547.67	18.72
547.84	63.19
548.00	65.54
548.17	100.64
548.34	51.49
548.51	119.37
548.67	133.41
548.84	117.03
549.01	16.38
549.18	121.71
549.34	70.22
549.51	16.38
549.68	105.32
549.84	102.98
550.01	44.47
550.18	86.60
550.34	21.06
550.51	131.07
550.68	145.11
550.84	44.47
551.01	93.62
551.18	9.36
551.34	70.22
551.51	60.85
551.68	110.01
551.84	131.07
552.01	147.45
552.18	88.94
552.34	86.60
552.51	81.92
552.68	180.22
552.84	23.41
553.01	131.07
553.18	152.13
553.34	100.64
553.51	121.71
553.67	95.96
553.84	93.62
554.01	70.22
554.17	95.96
554.34	98.30
554.51	14.04
554.67	95.96
554.84	117.03
555.00	46.81
555.17	126.39
555.33	114.69
555.50	28.09
555.67	95.96
555.83	100.64
556.00	110.01
556.16	133.41
556.33	91.28
556.50	79.58
556.66	72.56
556.83	25.75
556.99	63.19
557.16	81.92
557.32	107.66
557.49	32.77
557.65	86.60
557.82	77.24
557.98	74.90
558.15	51.49
558.32	98.30
558.48	105.32
558.65	63.19
558.81	39.79
558.98	105.32
559.14	60.85
559.31	42.13
559.47	110.01
559.64	28.09
559.80	39.79
559.97	70.22
560.13	77.24
560.30	42.13
560.46	81.92
560.63	102.98
560.79	112.35
560.96	21.06
561.12	58.51
561.29	154.48
561.45	84.26
561.61	124.05
561.78	147.45
561.94	28.09
562.11	110.01
562.27	88.94
562.44	72.56
562.60	81.92
562.77	91.28
562.93	93.62
563.10	70.22
563.26	49.15
563.42	91.28
563.59	77.24
563.75	91.28
563.92	77.24
564.08	49.15
564.24	28.09
564.41	114.69
564.57	93.62
564.74	72.56
564.90	84.26
565.07	124.05
565.23	2.34
565.39	147.45
565.56	110.01
565.72	95.96
565.88	161.50
566.05	91.28
566.21	138.09
566.38	100.64
566.54	81.92
566.70	51.49
566.87	2.34
567.03	159.16
567.19	117.03
567.36	37.45
567.52	35.11
567.68	100.64
567.85	145.11
568.01	74.90
568.17	0.00
568.34	133.41
568.50	119.37
568.66	18.72
568.83	58.51
568.99	105.32
569.15	60.85
569.32	39.79
569.48	91.28
569.64	81.92
569.81	88.94
569.97	119.37
570.13	86.60
570.30	67.88
570.46	95.96
570.62	79.58
570.78	46.81
570.95	100.64
571.11	63.19
571.27	98.30
571.43	37.45
571.60	81.92
571.76	107.66
571.92	30.43
572.09	0.00
572.25	25.75
572.41	159.16
572.57	121.71
572.74	128.73
572.90	84.26
573.06	105.32
573.22	58.51
573.38	112.35
573.55	102.98
573.71	126.39
573.87	110.01
574.03	79.58
574.20	79.58
574.36	98.30
574.52	93.62
574.68	28.09
574.84	77.24
575.01	72.56
575.17	86.60
575.33	180.22
575.49	98.30
575.65	93.62
575.82	77.24
575.98	119.37
576.14	42.13
576.30	119.37
576.46	95.96
576.62	79.58
576.79	152.13
576.95	187.24
577.11	44.47
577.27	51.49
577.43	77.24
577.59	51.49
577.75	63.19
577.92	35.11
578.08	72.56
578.24	70.22
578.40	60.85
578.56	84.26
578.72	70.22
578.88	84.26
579.04	0.00
579.21	138.09
579.37	124.05
579.53	30.43
579.69	102.98
579.85	46.81
580.01	60.85
580.17	84.26
580.33	42.13
580.49	53.83
580.65	86.60
580.82	9.36
580.98	140.43
581.14	117.03
581.30	77.24
581.46	49.15
581.62	79.58
581.78	49.15
581.94	110.01
582.10	88.94
582.26	7.02
582.42	121.71
582.58	105.32
582.74	72.56
582.90	88.94
583.06	95.96
583.22	65.54
583.38	79.58
583.54	67.88
583.70	51.49
583.86	100.64
584.02	84.26
584.18	39.79
584.34	46.81
584.50	84.26
584.66	63.19
584.82	70.22
584.98	81.92
585.14	138.09
585.30	46.81
585.46	35.11
585.62	98.30
585.78	32.77
585.94	63.19
586.10	98.30
586.26	86.60
586.42	51.49
586.58	37.45
586.74	86.60
586.90	149.79
587.06	53.83
587.22	128.73
587.38	72.56
587.54	42.13
587.70	102.98
587.86	102.98
588.02	53.83
588.18	98.30
588.34	42.13
588.49	23.41
588.65	105.32
588.81	112.35
588.97	32.77
589.13	105.32
589.29	28.09
589.45	56.17
589.61	35.11
589.77	44.47
589.93	14.04
590.08	53.83
590.24	23.41
590.40	81.92
590.56	119.37
590.72	161.50
590.88	81.92
591.04	16.38
591.20	46.81
591.35	98.30
591.51	124.05
591.67	65.54
591.83	58.51
591.99	58.51
592.15	63.19
592.31	49.15
592.46	88.94
592.62	65.54
592.78	86.60
592.94	30.43
593.10	58.51
593.26	58.51
593.41	7.02
593.57	11.70
593.73	60.85
593.89	49.15
594.05	49.15
594.20	56.17
594.36	100.64
594.52	42.13
594.68	138.09
594.84	95.96
594.99	63.19
595.15	88.94
595.31	117.03
595.47	145.11
595.62	46.81
595.78	105.32
595.94	0.00
596.10	37.45
596.25	63.19
596.41	95.96
596.57	98.30
596.73	91.28
596.88	93.62
597.04	30.43
597.20	84.26
597.36	102.98
597.51	119.37
597.67	112.35
597.83	135.75
597.99	105.32
598.14	72.56
598.30	67.88
598.46	49.15
598.61	72.56
598.77	9.36
598.93	77.24
599.09	16.38
599.24	81.92
599.40	119.37
599.56	37.45
599.71	88.94
599.87	93.62
600.03	95.96
600.18	95.96
600.34	23.41
600.50	53.83
600.65	65.54
600.81	28.09
600.97	42.13
601.12	65.54
601.28	51.49
601.44	86.60
601.59	105.32
601.75	72.56
601.91	58.51
602.06	98.30
602.22	67.88
602.37	81.92
602.53	98.30
602.69	25.75
602.84	79.58
603.00	79.58
603.16	98.30
603.31	98.30
603.47	124.05
603.62	93.62
603.78	121.71
603.94	131.07
604.09	86.60
604.25	77.24
604.40	95.96
604.56	32.77
604.71	42.13
604.87	126.39
605.03	100.64
605.18	93.62
605.34	93.62
605.49	23.41
605.65	95.96
605.80	53.83
605.96	65.54
606.12	74.90
606.27	42.13
606.43	91.28
606.58	58.51
606.74	23.41
606.89	114.69
607.05	133.41
607.20	112.35
607.36	79.58
607.51	117.03
607.67	84.26
607.82	102.98
607.98	51.49
608.13	63.19
608.29	81.92
608.44	37.45
608.60	58.51
608.75	93.62
608.91	51.49
609.06	46.81
609.22	79.58
609.37	65.54
609.53	88.94
609.68	0.00
609.84	70.22
609.99	84.26
610.15	58.51
610.30	93.62
610.46	91.28
610.61	0.00
610.76	93.62
610.92	112.35
611.07	56.17
611.23	91.28
611.38	37.45
611.54	107.66
611.69	84.26
611.84	9.36
612.00	79.58
612.15	46.81
612.31	79.58
612.46	74.90
612.62	70.22
612.77	77.24
612.92	72.56
613.08	28.09
613.23	65.54
613.39	102.98
613.54	46.81
613.69	56.17
613.85	37.45
614.00	21.06
614.15	65.54
614.31	42.13
614.46	79.58
614.62	2.34
614.77	177.88
614.92	112.35
615.08	42.13
615.23	58.51
615.38	65.54
615.54	79.58
615.69	102.98
615.84	4.68
616.00	25.75
616.15	25.75
616.30	72.56
616.46	0.00
616.61	63.19
616.76	81.92
616.92	84.26
617.07	49.15
617.22	93.62
617.37	56.17
617.53	25.75
617.68	46.81
617.83	35.11
617.99	65.54
618.14	49.15
618.29	56.17
618.45	51.49
618.60	39.79
618.75	32.77
618.90	28.09
619.06	35.11
619.21	88.94
619.36	23.41
619.51	86.60
619.67	60.85
619.82	98.30
619.97	9.36
620.12	88.94
620.28	117.03
620.43	60.85
620.58	95.96
620.73	67.88
620.89	102.98
621.04	91.28
621.19	107.66
621.34	124.05
621.49	112.35
621.65	63.19
621.80	93.62
621.95	102.98
622.10	114.69
622.25	156.82
622.41	67.88
622.56	114.69
622.71	93.62
622.86	98.30
623.01	107.66
623.16	81.92
623.32	0.00
623.47	4.68
623.62	30.43
623.77	39.79
623.92	67.88
624.07	28.09
624.23	42.13
624.38	42.13
624.53	88.94
624.68	37.45
624.83	107.66
624.98	60.85
625.13	35.11
625.29	63.19
625.44	60.85
625.59	4.68
625.74	77.24
625.89	147.45
626.04	110.01
626.19	44.47
626.34	74.90
626.49	133.41
626.65	70.22
626.80	121.71
626.95	102.98
627.10	32.77
627.25	65.54
627.40	86.60
627.55	131.07
627.70	39.79
627.85	35.11
628.00	72.56
628.15	63.19
628.30	72.56
628.45	65.54
628.60	42.13
628.76	37.45
628.91	0.00
629.06	30.43
629.21	25.75
629.36	0.00
629.51	95.96
629.66	81.92
629.81	51.49
629.96	28.09
630.11	30.43
630.26	58.51
630.41	72.56
630.56	0.00
630.71	0.00
630.86	35.11
631.01	67.88
631.16	154.48
631.31	93.62
631.46	35.11
631.61	72.56
631.76	102.98
631.91	79.58
632.06	112.35
632.21	114.69
632.36	77.24
632.51	28.09
632.66	11.70
632.81	7.02
632.96	21.06
633.10	0.00
633.25	77.24
633.40	135.75
633.55	121.71
633.70	119.37
633.85	16.38
634.00	37.45
634.15	46.81
634.30	28.09
634.45	121.71
634.60	0.00
634.75	30.43
634.90	88.94
635.05	25.75
635.19	28.09
635.34	86.60
635.49	37.45
635.64	18.72
635.79	60.85
635.94	114.69
636.09	107.66
636.24	102.98
636.39	0.00
636.53	32.77
636.68	86.60
636.83	0.00
636.98	58.51
637.13	39.79
637.28	86.60
637.43	35.11
637.57	30.43
637.72	79.58
637.87	37.45
638.02	65.54
638.17	44.47
638.32	70.22
638.46	58.51
638.61	70.22
638.76	44.47
638.91	16.38
639.06	49.15
639.20	44.47
639.35	126.39
639.50	91.28
639.65	93.62
639.80	77.24
639.94	86.60
640.09	42.13
640.24	0.00
640.39	53.83
640.54	39.79
640.68	105.32
640.83	35.11
640.98	28.09
641.13	74.90
641.27	4.68
641.42	16.38
641.57	28.09
641.72	39.79
641.86	110.01
642.01	110.01
642.16	65.54
642.31	102.98
642.45	39.79
642.60	32.77
642.75	65.54
642.90	95.96
643.04	21.06
643.19	32.77
643.34	9.36
643.48	63.19
643.63	72.56
643.78	77.24
643.93	18.72
644.07	30.43
644.22	70.22
644.37	58.51
644.51	23.41
644.66	23.41
644.81	91.28
644.95	42.13
645.10	35.11
645.25	37.45
645.39	114.69
645.54	102.98
645.69	11.70
645.83	21.06
645.98	60.85
646.13	79.58
646.27	81.92
646.42	42.13
646.57	79.58
646.71	60.85
646.86	51.49
647.00	44.47
647.15	0.00
647.30	30.43
647.44	72.56
647.59	28.09
647.74	114.69
647.88	46.81
648.03	142.77
648.17	42.13
648.32	25.75
648.47	131.07
648.61	70.22
648.76	7.02
648.90	49.15
649.05	77.24
649.20	63.19
649.34	84.26
649.49	46.81
649.63	14.04
649.78	49.15
649.92	70.22
650.07	154.48
650.21	63.19
650.36	4.68
650.51	4.68
650.65	58.51
650.80	53.83
650.94	58.51
651.09	107.66
651.23	44.47
651.38	126.39
651.52	65.54
651.67	49.15
651.81	121.71
651.96	14.04
652.10	0.00
652.25	56.17
652.39	98.30
652.54	79.58
652.68	79.58
652.83	0.00
652.97	65.54
653.12	53.83
653.26	30.43
653.41	32.77
653.55	124.05
653.70	0.00
653.84	16.38
653.99	74.90
654.13	72.56
654.27	9.36
654.42	56.17
654.56	102.98
654.71	21.06
654.85	11.70
655.00	65.54
655.14	18.72
655.29	16.38
655.43	77.24
655.57	81.92
655.72	28.09
655.86	42.13
656.01	18.72
656.15	14.04
656.30	37.45
656.44	67.88
656.58	37.45
656.73	39.79
656.87	44.47
657.01	51.49
657.16	51.49
657.30	53.83
657.45	46.81
657.59	51.49
657.73	63.19
657.88	84.26
658.02	72.56
658.16	28.09
658.31	49.15
658.45	35.11
658.60	58.51
658.74	53.83
658.88	100.64
659.03	32.77
659.17	18.72
659.31	93.62
659.46	58.51
659.60	53.83
659.74	98.30
659.89	37.45
660.03	67.88
660.17	91.28
660.32	44.47
660.46	49.15
660.60	18.72
660.74	114.69
660.89	67.88
661.03	72.56
661.17	100.64
661.32	23.41
661.46	28.09
661.60	81.92
661.74	117.03
661.89	95.96
662.03	0.00
662.17	88.94
662.31	21.06
662.46	110.01
662.60	58.51
662.74	56.17
662.88	110.01
663.03	0.00
663.17	9.36
663.31	86.60
663.45	91.28
663.60	53.83
663.74	170.86
663.88	23.41
664.02	32.77
664.17	21.06
664.31	72.56
664.45	42.13
664.59	84.26
664.73	154.48
664.88	70.22
665.02	72.56
665.16	51.49
665.30	56.17
665.44	51.49
665.59	39.79
665.73	65.54
665.87	49.15
666.01	93.62
666.15	42.13
666.29	46.81
666.44	28.09
666.58	25.75
666.72	16.38
666.86	86.60
667.00	93.62
667.14	14.04
667.28	72.56
667.43	67.88
667.57	65.54
667.71	67.88
667.85	81.92
667.99	70.22
668.13	4.68
668.27	65.54
668.41	0.00
668.56	70.22
668.70	2.34
668.84	25.75
668.98	128.73
669.12	95.96
669.26	46.81
669.40	81.92
669.54	63.19
669.68	56.17
669.82	28.09
669.96	100.64
670.10	0.00
670.25	93.62
670.39	60.85
670.53	77.24
670.67	93.62
670.81	102.98
670.95	11.70
671.09	58.51
671.23	72.56
671.37	0.00
671.51	4.68
671.65	121.71
671.79	39.79
671.93	60.85
672.07	35.11
672.21	0.00
672.35	70.22
672.49	70.22
672.63	18.72
672.77	28.09
672.91	42.13
673.05	23.41
673.19	60.85
673.33	49.15
673.47	46.81
673.61	32.77
673.75	0.00
673.89	72.56
674.03	117.03
674.17	0.00
674.31	9.36
674.45	2.34
674.59	0.00
674.73	100.64
674.87	63.19
675.01	74.90
675.15	16.38
675.29	7.02
675.43	28.09
675.56	77.24
675.70	25.75
675.84	79.58
675.98	0.00
676.12	0.00
676.26	49.15
676.40	70.22
676.54	32.77
676.68	0.00
676.82	95.96
676.96	72.56
677.10	23.41
677.23	86.60
677.37	95.96
677.51	35.11
677.65	21.06
677.79	28.09
677.93	0.00
678.07	0.00
678.21	49.15
678.34	53.83
678.48	65.54
678.62	25.75
678.76	16.38
678.90	14.04
679.04	60.85
679.18	0.00
679.31	46.81
679.45	14.04
679.59	4.68
679.73	44.47
679.87	0.00
680.00	32.77
680.14	9.36
680.28	105.32
680.42	0.00
680.56	51.49
680.70	23.41
680.83	67.88
680.97	84.26
681.11	74.90
681.25	23.41
681.39	4.68
681.52	32.77
681.66	70.22
681.80	49.15
681.94	32.77
682.07	14.04
682.21	86.60
682.35	35.11
682.49	88.94
682.62	70.22
682.76	39.79
682.90	56.17
683.04	0.00
683.17	25.75
683.31	49.15
683.45	79.58
683.59	42.13
683.72	46.81
683.86	4.68
684.00	58.51
684.13	56.17
684.27	79.58
684.41	56.17
684.55	79.58
684.68	7.02
684.82	70.22
684.96	16.38
685.09	63.19
685.23	44.47
685.37	98.30
685.50	77.24
685.64	11.70
685.78	37.45
685.91	0.00
686.05	49.15
686.19	86.60
686.32	39.79
686.46	44.47
686.60	16.38
686.73	16.38
686.87	107.66
687.01	49.15
687.14	107.66
687.28	60.85
687.42	30.43
687.55	2.34
687.69	79.58
687.82	84.26
687.96	67.88
688.10	77.24
688.23	56.17
688.37	0.00
688.50	0.00
688.64	21.06
688.78	70.22
688.91	65.54
689.05	30.43
689.18	46.81
689.32	35.11
689.46	63.19
689.59	25.75
689.73	37.45
689.86	56.17
690.00	63.19
690.13	0.00
690.27	0.00
690.41	74.90
690.54	58.51
690.68	23.41
690.81	44.47
690.95	67.88
691.08	49.15
691.22	51.49
691.35	60.85
691.49	107.66
691.62	44.47
691.76	79.58
691.89	44.47
692.03	9.36
692.16	32.77
692.30	4.68
692.43	21.06
692.57	51.49
692.70	117.03
692.84	0.00
692.97	28.09
693.11	0.00
693.24	44.47
693.38	53.83
693.51	60.85
693.65	42.13
693.78	49.15
693.92	63.19
694.05	32.77
694.19	39.79
694.32	0.00
694.45	67.88
694.59	49.15
694.72	79.58
694.86	0.00
694.99	0.00
695.13	86.60
695.26	49.15
695.39	18.72
695.53	23.41
695.66	81.92
695.80	51.49
695.93	0.00
696.07	65.54
696.20	28.09
696.33	105.32
696.47	11.70
696.60	9.36
696.73	63.19
696.87	46.81
697.00	42.13
697.14	74.90
697.27	7.02
697.40	46.81
697.54	2.34
697.67	32.77
697.80	35.11
697.94	39.79
698.07	35.11
698.21	21.06
698.34	44.47
698.47	37.45
698.61	28.09
698.74	112.35
698.87	74.90
699.01	93.62
699.14	53.83
699.27	21.06
699.40	0.00
699.54	2.34
699.67	117.03
699.80	0.00
699.94	23.41
700.07	60.85
700.20	51.49
700.34	77.24
700.47	21.06
700.60	93.62
700.73	65.54
700.87	23.41
701.00	86.60
701.13	51.49
701.26	138.09
701.40	51.49
701.53	65.54
701.66	18.72
701.79	56.17
701.93	93.62
702.06	0.00
702.19	4.68
702.32	44.47
702.46	58.51
702.59	28.09
702.72	0.00
702.85	23.41
702.99	49.15
703.12	0.00
703.25	2.34
703.38	0.00
703.51	0.00
703.65	53.83
703.78	14.04
703.91	53.83
704.04	63.19
704.17	46.81
704.31	53.83
704.44	0.00
704.57	65.54
704.70	133.41
704.83	37.45
704.96	107.66
705.10	51.49
705.23	0.00
>>>>>End Processed Spectral Data<<<<<
