SpectraSuite Data File
++++++++++++++++++++++++++++++++++++
Date: Fri Oct 04 12:13:45 GMT-05:00 2013
User: price-jones
Dark Spectrum Present: No
Reference Spectrum Present: No
Number of Sampled Component Spectra: 1
Spectrometers: USB2+H05261
Integration Time (usec): 10000 (USB2+H05261)
Spectra Averaged: 1 (USB2+H05261)
Boxcar Smoothing: 0 (USB2+H05261)
Correct for Electrical Dark: No (USB2+H05261)
Strobe/Lamp Enabled: No (USB2+H05261)
Correct for Detector Non-linearity: No (USB2+H05261)
Correct for Stray Light: No (USB2+H05261)
Number of Pixels in Processed Spectrum: 2048
>>>>>Begin Processed Spectral Data<<<<<
365.73	63.19
365.92	63.19
366.12	63.19
366.32	0.00
366.52	0.00
366.72	0.00
366.91	0.00
367.11	0.00
367.31	0.00
367.51	0.00
367.70	0.00
367.90	0.00
368.10	0.00
368.30	0.00
368.49	0.00
368.69	0.00
368.89	0.00
369.09	0.00
369.28	0.00
369.48	0.00
369.68	0.00
369.87	0.00
370.07	0.00
370.27	2.34
370.47	0.00
370.66	0.00
370.86	0.00
371.06	0.00
371.25	0.00
371.45	0.00
371.65	0.00
371.84	0.00
372.04	77.24
372.24	0.00
372.44	0.00
372.63	0.00
372.83	18.72
373.03	9.36
373.22	4.68
373.42	0.00
373.62	0.00
373.81	7.02
374.01	0.00
374.21	56.17
374.40	14.04
374.60	65.54
374.79	18.72
374.99	0.00
375.19	46.81
375.38	56.17
375.58	84.26
375.78	0.00
375.97	28.09
376.17	58.51
376.37	49.15
376.56	42.13
376.76	14.04
376.95	65.54
377.15	30.43
377.35	0.00
377.54	4.68
377.74	0.00
377.93	28.09
378.13	42.13
378.33	67.88
378.52	60.85
378.72	133.41
378.91	60.85
379.11	0.00
379.31	0.00
379.50	0.00
379.70	23.41
379.89	30.43
380.09	4.68
380.28	0.00
380.48	0.00
380.68	21.06
380.87	0.00
381.07	0.00
381.26	102.98
381.46	35.11
381.65	53.83
381.85	18.72
382.04	0.00
382.24	0.00
382.43	9.36
382.63	25.75
382.83	46.81
383.02	23.41
383.22	32.77
383.41	23.41
383.61	32.77
383.80	0.00
384.00	100.64
384.19	77.24
384.39	14.04
384.58	0.00
384.78	9.36
384.97	11.70
385.17	0.00
385.36	23.41
385.56	18.72
385.75	0.00
385.95	93.62
386.14	0.00
386.34	84.26
386.53	4.68
386.72	39.79
386.92	0.00
387.11	70.22
387.31	35.11
387.50	100.64
387.70	44.47
387.89	37.45
388.09	51.49
388.28	0.00
388.48	9.36
388.67	2.34
388.86	58.51
389.06	30.43
389.25	49.15
389.45	53.83
389.64	16.38
389.84	21.06
390.03	7.02
390.22	42.13
390.42	0.00
390.61	35.11
390.81	0.00
391.00	32.77
391.19	0.00
391.39	25.75
391.58	7.02
391.78	58.51
391.97	67.88
392.16	51.49
392.36	81.92
392.55	28.09
392.75	0.00
392.94	30.43
393.13	0.00
393.33	0.00
393.52	72.56
393.71	0.00
393.91	0.00
394.10	67.88
394.29	0.00
394.49	2.34
394.68	25.75
394.88	0.00
395.07	23.41
395.26	53.83
395.46	63.19
395.65	49.15
395.84	84.26
396.04	30.43
396.23	30.43
396.42	79.58
396.62	0.00
396.81	0.00
397.00	7.02
397.19	0.00
397.39	0.00
397.58	58.51
397.77	9.36
397.97	0.00
398.16	53.83
398.35	39.79
398.55	51.49
398.74	81.92
398.93	16.38
399.12	32.77
399.32	0.00
399.51	30.43
399.70	67.88
399.90	18.72
400.09	0.00
400.28	0.00
400.47	0.00
400.67	23.41
400.86	0.00
401.05	77.24
401.24	4.68
401.44	37.45
401.63	46.81
401.82	18.72
402.01	58.51
402.21	23.41
402.40	32.77
402.59	9.36
402.78	2.34
402.97	56.17
403.17	107.66
403.36	4.68
403.55	0.00
403.74	0.00
403.93	51.49
404.13	65.54
404.32	44.47
404.51	72.56
404.70	56.17
404.89	53.83
405.09	7.02
405.28	51.49
405.47	16.38
405.66	9.36
405.85	7.02
406.05	0.00
406.24	49.15
406.43	88.94
406.62	58.51
406.81	23.41
407.00	58.51
407.20	86.60
407.39	2.34
407.58	0.00
407.77	11.70
407.96	25.75
408.15	63.19
408.34	23.41
408.54	0.00
408.73	0.00
408.92	2.34
409.11	28.09
409.30	7.02
409.49	32.77
409.68	56.17
409.87	21.06
410.07	39.79
410.26	53.83
410.45	63.19
410.64	51.49
410.83	81.92
411.02	39.79
411.21	7.02
411.40	67.88
411.59	51.49
411.78	60.85
411.98	46.81
412.17	46.81
412.36	84.26
412.55	0.00
412.74	53.83
412.93	67.88
413.12	93.62
413.31	81.92
413.50	14.04
413.69	11.70
413.88	0.00
414.07	16.38
414.26	14.04
414.45	58.51
414.64	35.11
414.83	67.88
415.02	32.77
415.22	79.58
415.41	42.13
415.60	79.58
415.79	0.00
415.98	42.13
416.17	72.56
416.36	25.75
416.55	93.62
416.74	60.85
416.93	95.96
417.12	2.34
417.31	56.17
417.50	37.45
417.69	32.77
417.88	60.85
418.07	18.72
418.26	0.00
418.45	79.58
418.64	28.09
418.83	9.36
419.02	0.00
419.21	18.72
419.39	0.00
419.58	0.00
419.77	51.49
419.96	30.43
420.15	11.70
420.34	91.28
420.53	23.41
420.72	11.70
420.91	65.54
421.10	9.36
421.29	18.72
421.48	4.68
421.67	9.36
421.86	46.81
422.05	37.45
422.24	16.38
422.43	0.00
422.61	23.41
422.80	124.05
422.99	91.28
423.18	0.00
423.37	23.41
423.56	72.56
423.75	63.19
423.94	79.58
424.13	11.70
424.32	42.13
424.50	56.17
424.69	16.38
424.88	0.00
425.07	81.92
425.26	70.22
425.45	88.94
425.64	11.70
425.83	44.47
426.01	0.00
426.20	39.79
426.39	0.00
426.58	0.00
426.77	42.13
426.96	16.38
427.15	53.83
427.33	121.71
427.52	107.66
427.71	51.49
427.90	42.13
428.09	58.51
428.28	23.41
428.46	100.64
428.65	67.88
428.84	67.88
429.03	0.00
429.22	63.19
429.40	39.79
429.59	30.43
429.78	77.24
429.97	67.88
430.16	58.51
430.34	39.79
430.53	58.51
430.72	53.83
430.91	63.19
431.10	2.34
431.28	23.41
431.47	49.15
431.66	51.49
431.85	63.19
432.03	2.34
432.22	65.54
432.41	2.34
432.60	0.00
432.79	18.72
432.97	0.00
433.16	23.41
433.35	0.00
433.54	7.02
433.72	30.43
433.91	30.43
434.10	16.38
434.28	14.04
434.47	23.41
434.66	53.83
434.85	56.17
435.03	56.17
435.22	67.88
435.41	0.00
435.59	0.00
435.78	114.69
435.97	53.83
436.16	18.72
436.34	14.04
436.53	0.00
436.72	88.94
436.90	117.03
437.09	0.00
437.28	60.85
437.46	0.00
437.65	7.02
437.84	65.54
438.02	63.19
438.21	2.34
438.40	79.58
438.58	49.15
438.77	23.41
438.96	30.43
439.14	74.90
439.33	14.04
439.52	58.51
439.70	7.02
439.89	32.77
440.08	23.41
440.26	74.90
440.45	63.19
440.63	72.56
440.82	70.22
441.01	18.72
441.19	30.43
441.38	11.70
441.57	79.58
441.75	30.43
441.94	39.79
442.12	58.51
442.31	21.06
442.50	44.47
442.68	0.00
442.87	77.24
443.05	49.15
443.24	25.75
443.43	51.49
443.61	93.62
443.80	114.69
443.98	46.81
444.17	133.41
444.35	98.30
444.54	18.72
444.73	0.00
444.91	2.34
445.10	51.49
445.28	2.34
445.47	77.24
445.65	0.00
445.84	21.06
446.02	35.11
446.21	14.04
446.39	7.02
446.58	77.24
446.77	9.36
446.95	95.96
447.14	46.81
447.32	23.41
447.51	72.56
447.69	49.15
447.88	56.17
448.06	11.70
448.25	53.83
448.43	77.24
448.62	30.43
448.80	14.04
448.99	9.36
449.17	0.00
449.36	35.11
449.54	14.04
449.73	23.41
449.91	72.56
450.10	7.02
450.28	58.51
450.46	0.00
450.65	37.45
450.83	112.35
451.02	53.83
451.20	86.60
451.39	46.81
451.57	44.47
451.76	9.36
451.94	0.00
452.13	58.51
452.31	0.00
452.49	79.58
452.68	7.02
452.86	58.51
453.05	21.06
453.23	53.83
453.42	32.77
453.60	14.04
453.78	28.09
453.97	4.68
454.15	0.00
454.34	0.00
454.52	63.19
454.70	79.58
454.89	44.47
455.07	86.60
455.26	0.00
455.44	37.45
455.62	28.09
455.81	39.79
455.99	0.00
456.17	44.47
456.36	98.30
456.54	53.83
456.73	58.51
456.91	9.36
457.09	72.56
457.28	0.00
457.46	21.06
457.64	11.70
457.83	0.00
458.01	51.49
458.19	65.54
458.38	9.36
458.56	37.45
458.74	16.38
458.93	0.00
459.11	35.11
459.29	0.00
459.48	60.85
459.66	37.45
459.84	37.45
460.03	44.47
460.21	86.60
460.39	65.54
460.57	49.15
460.76	58.51
460.94	93.62
461.12	72.56
461.31	18.72
461.49	0.00
461.67	0.00
461.85	39.79
462.04	0.00
462.22	138.09
462.40	39.79
462.59	37.45
462.77	79.58
462.95	81.92
463.13	46.81
463.32	0.00
463.50	65.54
463.68	72.56
463.86	11.70
464.05	25.75
464.23	0.00
464.41	30.43
464.59	93.62
464.78	11.70
464.96	65.54
465.14	0.00
465.32	58.51
465.50	95.96
465.69	0.00
465.87	88.94
466.05	0.00
466.23	46.81
466.41	72.56
466.60	30.43
466.78	44.47
466.96	42.13
467.14	74.90
467.32	126.39
467.51	9.36
467.69	37.45
467.87	32.77
468.05	126.39
468.23	63.19
468.41	25.75
468.60	0.00
468.78	0.00
468.96	35.11
469.14	44.47
469.32	67.88
469.50	32.77
469.69	25.75
469.87	0.00
470.05	11.70
470.23	0.00
470.41	56.17
470.59	46.81
470.77	93.62
470.95	60.85
471.14	28.09
471.32	0.00
471.50	51.49
471.68	16.38
471.86	21.06
472.04	42.13
472.22	0.00
472.40	100.64
472.58	37.45
472.77	53.83
472.95	63.19
473.13	46.81
473.31	53.83
473.49	37.45
473.67	0.00
473.85	23.41
474.03	14.04
474.21	42.13
474.39	74.90
474.57	60.85
474.75	84.26
474.93	30.43
475.12	42.13
475.30	44.47
475.48	67.88
475.66	37.45
475.84	105.32
476.02	51.49
476.20	23.41
476.38	46.81
476.56	0.00
476.74	0.00
476.92	28.09
477.10	9.36
477.28	7.02
477.46	32.77
477.64	32.77
477.82	25.75
478.00	51.49
478.18	51.49
478.36	11.70
478.54	56.17
478.72	14.04
478.90	65.54
479.08	21.06
479.26	0.00
479.44	0.00
479.62	67.88
479.80	49.15
479.98	42.13
480.16	9.36
480.34	32.77
480.52	67.88
480.70	60.85
480.88	67.88
481.06	4.68
481.24	0.00
481.41	0.00
481.59	42.13
481.77	16.38
481.95	67.88
482.13	4.68
482.31	86.60
482.49	44.47
482.67	32.77
482.85	0.00
483.03	46.81
483.21	79.58
483.39	86.60
483.57	0.00
483.74	32.77
483.92	23.41
484.10	0.00
484.28	119.37
484.46	0.00
484.64	37.45
484.82	74.90
485.00	86.60
485.18	67.88
485.35	58.51
485.53	51.49
485.71	0.00
485.89	56.17
486.07	4.68
486.25	60.85
486.43	42.13
486.61	77.24
486.78	39.79
486.96	9.36
487.14	37.45
487.32	46.81
487.50	58.51
487.68	0.00
487.85	0.00
488.03	53.83
488.21	32.77
488.39	23.41
488.57	37.45
488.75	107.66
488.92	95.96
489.10	46.81
489.28	72.56
489.46	0.00
489.64	0.00
489.81	93.62
489.99	63.19
490.17	37.45
490.35	37.45
490.53	56.17
490.70	35.11
490.88	37.45
491.06	79.58
491.24	67.88
491.41	56.17
491.59	79.58
491.77	72.56
491.95	32.77
492.13	72.56
492.30	119.37
492.48	42.13
492.66	16.38
492.84	4.68
493.01	35.11
493.19	53.83
493.37	91.28
493.54	110.01
493.72	23.41
493.90	0.00
494.08	25.75
494.25	4.68
494.43	100.64
494.61	30.43
494.79	79.58
494.96	35.11
495.14	37.45
495.32	63.19
495.49	53.83
495.67	91.28
495.85	46.81
496.02	74.90
496.20	49.15
496.38	51.49
496.55	30.43
496.73	84.26
496.91	18.72
497.09	4.68
497.26	65.54
497.44	70.22
497.62	11.70
497.79	28.09
497.97	46.81
498.14	95.96
498.32	9.36
498.50	0.00
498.67	98.30
498.85	60.85
499.03	16.38
499.20	84.26
499.38	4.68
499.56	107.66
499.73	23.41
499.91	51.49
500.08	105.32
500.26	0.00
500.44	16.38
500.61	30.43
500.79	25.75
500.97	42.13
501.14	16.38
501.32	28.09
501.49	58.51
501.67	86.60
501.84	49.15
502.02	35.11
502.20	56.17
502.37	7.02
502.55	4.68
502.72	21.06
502.90	28.09
503.07	49.15
503.25	63.19
503.43	0.00
503.60	16.38
503.78	0.00
503.95	51.49
504.13	4.68
504.30	0.00
504.48	60.85
504.65	67.88
504.83	53.83
505.01	0.00
505.18	63.19
505.36	67.88
505.53	0.00
505.71	21.06
505.88	42.13
506.06	37.45
506.23	56.17
506.41	30.43
506.58	16.38
506.76	93.62
506.93	98.30
507.11	32.77
507.28	18.72
507.46	86.60
507.63	9.36
507.81	42.13
507.98	63.19
508.16	0.00
508.33	14.04
508.50	154.48
508.68	79.58
508.85	95.96
509.03	74.90
509.20	119.37
509.38	39.79
509.55	72.56
509.73	65.54
509.90	51.49
510.08	18.72
510.25	98.30
510.42	37.45
510.60	65.54
510.77	88.94
510.95	44.47
511.12	88.94
511.30	81.92
511.47	74.90
511.64	93.62
511.82	100.64
511.99	42.13
512.17	0.00
512.34	79.58
512.51	91.28
512.69	81.92
512.86	93.62
513.04	84.26
513.21	37.45
513.38	49.15
513.56	0.00
513.73	91.28
513.90	46.81
514.08	37.45
514.25	21.06
514.43	49.15
514.60	9.36
514.77	35.11
514.95	72.56
515.12	30.43
515.29	28.09
515.47	74.90
515.64	86.60
515.81	35.11
515.99	133.41
516.16	51.49
516.33	44.47
516.51	39.79
516.68	37.45
516.85	0.00
517.03	35.11
517.20	53.83
517.37	0.00
517.54	14.04
517.72	28.09
517.89	42.13
518.06	0.00
518.24	39.79
518.41	93.62
518.58	42.13
518.75	37.45
518.93	0.00
519.10	16.38
519.27	70.22
519.45	49.15
519.62	32.77
519.79	63.19
519.96	51.49
520.14	25.75
520.31	51.49
520.48	25.75
520.65	0.00
520.83	65.54
521.00	9.36
521.17	0.00
521.34	67.88
521.52	42.13
521.69	74.90
521.86	93.62
522.03	110.01
522.20	18.72
522.38	74.90
522.55	56.17
522.72	0.00
522.89	49.15
523.07	16.38
523.24	18.72
523.41	28.09
523.58	74.90
523.75	88.94
523.92	93.62
524.10	53.83
524.27	0.00
524.44	0.00
524.61	53.83
524.78	18.72
524.96	32.77
525.13	0.00
525.30	149.79
525.47	25.75
525.64	39.79
525.81	18.72
525.98	98.30
526.16	53.83
526.33	77.24
526.50	56.17
526.67	67.88
526.84	67.88
527.01	0.00
527.18	44.47
527.36	63.19
527.53	107.66
527.70	79.58
527.87	60.85
528.04	79.58
528.21	107.66
528.38	53.83
528.55	44.47
528.72	107.66
528.89	32.77
529.07	42.13
529.24	4.68
529.41	117.03
529.58	107.66
529.75	112.35
529.92	93.62
530.09	0.00
530.26	65.54
530.43	51.49
530.60	30.43
530.77	16.38
530.94	79.58
531.11	51.49
531.28	0.00
531.46	88.94
531.63	0.00
531.80	58.51
531.97	39.79
532.14	100.64
532.31	77.24
532.48	81.92
532.65	60.85
532.82	46.81
532.99	58.51
533.16	63.19
533.33	77.24
533.50	0.00
533.67	25.75
533.84	56.17
534.01	18.72
534.18	32.77
534.35	0.00
534.52	53.83
534.69	51.49
534.86	28.09
535.03	51.49
535.20	51.49
535.37	53.83
535.54	23.41
535.71	95.96
535.88	65.54
536.05	16.38
536.22	65.54
536.38	74.90
536.55	105.32
536.72	46.81
536.89	35.11
537.06	88.94
537.23	9.36
537.40	63.19
537.57	37.45
537.74	16.38
537.91	37.45
538.08	74.90
538.25	72.56
538.42	16.38
538.59	16.38
538.75	14.04
538.92	42.13
539.09	84.26
539.26	121.71
539.43	107.66
539.60	42.13
539.77	42.13
539.94	23.41
540.11	28.09
540.28	91.28
540.44	30.43
540.61	100.64
540.78	44.47
540.95	70.22
541.12	91.28
541.29	135.75
541.46	67.88
541.62	39.79
541.79	74.90
541.96	23.41
542.13	0.00
542.30	60.85
542.47	0.00
542.63	14.04
542.80	37.45
542.97	46.81
543.14	51.49
543.31	42.13
543.48	112.35
543.64	95.96
543.81	30.43
543.98	44.47
544.15	32.77
544.32	81.92
544.48	49.15
544.65	58.51
544.82	18.72
544.99	100.64
545.16	0.00
545.32	56.17
545.49	95.96
545.66	81.92
545.83	112.35
546.00	110.01
546.16	58.51
546.33	107.66
546.50	79.58
546.67	0.00
546.83	16.38
547.00	49.15
547.17	88.94
547.34	98.30
547.50	39.79
547.67	0.00
547.84	56.17
548.00	37.45
548.17	14.04
548.34	28.09
548.51	23.41
548.67	100.64
548.84	51.49
549.01	51.49
549.18	28.09
549.34	16.38
549.51	23.41
549.68	16.38
549.84	39.79
550.01	56.17
550.18	74.90
550.34	72.56
550.51	35.11
550.68	25.75
550.84	21.06
551.01	74.90
551.18	100.64
551.34	21.06
551.51	60.85
551.68	53.83
551.84	0.00
552.01	28.09
552.18	74.90
552.34	49.15
552.51	23.41
552.68	7.02
552.84	37.45
553.01	70.22
553.18	81.92
553.34	44.47
553.51	21.06
553.67	37.45
553.84	65.54
554.01	110.01
554.17	4.68
554.34	42.13
554.51	42.13
554.67	124.05
554.84	63.19
555.00	88.94
555.17	58.51
555.33	21.06
555.50	39.79
555.67	119.37
555.83	95.96
556.00	126.39
556.16	95.96
556.33	72.56
556.50	0.00
556.66	67.88
556.83	91.28
556.99	46.81
557.16	49.15
557.32	93.62
557.49	11.70
557.65	28.09
557.82	30.43
557.98	49.15
558.15	51.49
558.32	21.06
558.48	14.04
558.65	63.19
558.81	32.77
558.98	30.43
559.14	51.49
559.31	35.11
559.47	30.43
559.64	39.79
559.80	124.05
559.97	117.03
560.13	79.58
560.30	35.11
560.46	25.75
560.63	30.43
560.79	60.85
560.96	138.09
561.12	0.00
561.29	67.88
561.45	98.30
561.61	88.94
561.78	63.19
561.94	86.60
562.11	88.94
562.27	60.85
562.44	18.72
562.60	32.77
562.77	18.72
562.93	58.51
563.10	81.92
563.26	0.00
563.42	42.13
563.59	70.22
563.75	84.26
563.92	63.19
564.08	18.72
564.24	95.96
564.41	32.77
564.57	39.79
564.74	65.54
564.90	9.36
565.07	30.43
565.23	32.77
565.39	16.38
565.56	51.49
565.72	88.94
565.88	46.81
566.05	4.68
566.21	77.24
566.38	58.51
566.54	140.43
566.70	128.73
566.87	65.54
567.03	30.43
567.19	25.75
567.36	42.13
567.52	65.54
567.68	0.00
567.85	93.62
568.01	65.54
568.17	49.15
568.34	114.69
568.50	53.83
568.66	37.45
568.83	53.83
568.99	65.54
569.15	0.00
569.32	30.43
569.48	37.45
569.64	28.09
569.81	44.47
569.97	35.11
570.13	39.79
570.30	30.43
570.46	67.88
570.62	60.85
570.78	35.11
570.95	49.15
571.11	0.00
571.27	84.26
571.43	0.00
571.60	25.75
571.76	79.58
571.92	72.56
572.09	39.79
572.25	39.79
572.41	58.51
572.57	0.00
572.74	105.32
572.90	128.73
573.06	56.17
573.22	49.15
573.38	65.54
573.55	77.24
573.71	77.24
573.87	16.38
574.03	67.88
574.20	0.00
574.36	0.00
574.52	74.90
574.68	25.75
574.84	72.56
575.01	79.58
575.17	0.00
575.33	39.79
575.49	37.45
575.65	39.79
575.82	77.24
575.98	37.45
576.14	51.49
576.30	77.24
576.46	23.41
576.62	42.13
576.79	25.75
576.95	114.69
577.11	100.64
577.27	0.00
577.43	93.62
577.59	91.28
577.75	7.02
577.92	58.51
578.08	98.30
578.24	84.26
578.40	72.56
578.56	49.15
578.72	51.49
578.88	37.45
579.04	44.47
579.21	58.51
579.37	74.90
579.53	0.00
579.69	14.04
579.85	35.11
580.01	56.17
580.17	0.00
580.33	49.15
580.49	91.28
580.65	25.75
580.82	51.49
580.98	32.77
581.14	42.13
581.30	39.79
581.46	145.11
581.62	28.09
581.78	67.88
581.94	60.85
582.10	95.96
582.26	81.92
582.42	42.13
582.58	11.70
582.74	0.00
582.90	112.35
583.06	32.77
583.22	0.00
583.38	49.15
583.54	44.47
583.70	63.19
583.86	42.13
584.02	9.36
584.18	65.54
584.34	102.98
584.50	25.75
584.66	16.38
584.82	67.88
584.98	2.34
585.14	105.32
585.30	95.96
585.46	0.00
585.62	9.36
585.78	56.17
585.94	53.83
586.10	117.03
586.26	49.15
586.42	53.83
586.58	117.03
586.74	93.62
586.90	77.24
587.06	79.58
587.22	35.11
587.38	51.49
587.54	0.00
587.70	44.47
587.86	102.98
588.02	0.00
588.18	65.54
588.34	23.41
588.49	7.02
588.65	28.09
588.81	49.15
588.97	44.47
589.13	25.75
589.29	51.49
589.45	107.66
589.61	102.98
589.77	11.70
589.93	0.00
590.08	84.26
590.24	74.90
590.40	70.22
590.56	86.60
590.72	42.13
590.88	14.04
591.04	140.43
591.20	84.26
591.35	7.02
591.51	44.47
591.67	60.85
591.83	0.00
591.99	81.92
592.15	25.75
592.31	86.60
592.46	18.72
592.62	9.36
592.78	0.00
592.94	84.26
593.10	37.45
593.26	23.41
593.41	93.62
593.57	67.88
593.73	70.22
593.89	9.36
594.05	107.66
594.20	100.64
594.36	44.47
594.52	0.00
594.68	58.51
594.84	32.77
594.99	0.00
595.15	93.62
595.31	30.43
595.47	0.00
595.62	39.79
595.78	100.64
595.94	58.51
596.10	70.22
596.25	56.17
596.41	4.68
596.57	44.47
596.73	77.24
596.88	72.56
597.04	0.00
597.20	4.68
597.36	93.62
597.51	49.15
597.67	35.11
597.83	0.00
597.99	23.41
598.14	0.00
598.30	18.72
598.46	60.85
598.61	74.90
598.77	11.70
598.93	77.24
599.09	35.11
599.24	0.00
599.40	65.54
599.56	39.79
599.71	23.41
599.87	79.58
600.03	0.00
600.18	81.92
600.34	35.11
600.50	4.68
600.65	63.19
600.81	102.98
600.97	32.77
601.12	51.49
601.28	51.49
601.44	30.43
601.59	63.19
601.75	86.60
601.91	72.56
602.06	91.28
602.22	110.01
602.37	2.34
602.53	84.26
602.69	25.75
602.84	32.77
603.00	16.38
603.16	49.15
603.31	28.09
603.47	30.43
603.62	49.15
603.78	39.79
603.94	42.13
604.09	37.45
604.25	9.36
604.40	0.00
604.56	58.51
604.71	72.56
604.87	11.70
605.03	7.02
605.18	28.09
605.34	14.04
605.49	84.26
605.65	74.90
605.80	79.58
605.96	53.83
606.12	23.41
606.27	60.85
606.43	44.47
606.58	30.43
606.74	102.98
606.89	42.13
607.05	42.13
607.20	25.75
607.36	37.45
607.51	93.62
607.67	107.66
607.82	44.47
607.98	0.00
608.13	0.00
608.29	35.11
608.44	98.30
608.60	23.41
608.75	23.41
608.91	49.15
609.06	79.58
609.22	65.54
609.37	58.51
609.53	105.32
609.68	60.85
609.84	0.00
609.99	39.79
610.15	21.06
610.30	65.54
610.46	46.81
610.61	72.56
610.76	0.00
610.92	100.64
611.07	42.13
611.23	23.41
611.38	77.24
611.54	49.15
611.69	58.51
611.84	53.83
612.00	0.00
612.15	37.45
612.31	93.62
612.46	30.43
612.62	51.49
612.77	67.88
612.92	16.38
613.08	23.41
613.23	100.64
613.39	18.72
613.54	4.68
613.69	30.43
613.85	0.00
614.00	0.00
614.15	28.09
614.31	56.17
614.46	0.00
614.62	70.22
614.77	25.75
614.92	11.70
615.08	110.01
615.23	56.17
615.38	0.00
615.54	23.41
615.69	0.00
615.84	0.00
616.00	56.17
616.15	30.43
616.30	30.43
616.46	49.15
616.61	9.36
616.76	32.77
616.92	0.00
617.07	60.85
617.22	79.58
617.37	77.24
617.53	67.88
617.68	65.54
617.83	4.68
617.99	0.00
618.14	0.00
618.29	28.09
618.45	25.75
618.60	30.43
618.75	60.85
618.90	112.35
619.06	51.49
619.21	30.43
619.36	49.15
619.51	102.98
619.67	72.56
619.82	44.47
619.97	23.41
620.12	11.70
620.28	65.54
620.43	74.90
620.58	42.13
620.73	51.49
620.89	81.92
621.04	21.06
621.19	0.00
621.34	30.43
621.49	88.94
621.65	63.19
621.80	23.41
621.95	67.88
622.10	21.06
622.25	72.56
622.41	44.47
622.56	39.79
622.71	25.75
622.86	39.79
623.01	11.70
623.16	2.34
623.32	14.04
623.47	11.70
623.62	63.19
623.77	9.36
623.92	0.00
624.07	46.81
624.23	53.83
624.38	18.72
624.53	88.94
624.68	7.02
624.83	0.00
624.98	46.81
625.13	0.00
625.29	51.49
625.44	32.77
625.59	0.00
625.74	4.68
625.89	39.79
626.04	81.92
626.19	74.90
626.34	4.68
626.49	58.51
626.65	56.17
626.80	28.09
626.95	9.36
627.10	95.96
627.25	37.45
627.40	84.26
627.55	58.51
627.70	0.00
627.85	23.41
628.00	49.15
628.15	25.75
628.30	42.13
628.45	79.58
628.60	23.41
628.76	25.75
628.91	28.09
629.06	39.79
629.21	7.02
629.36	44.47
629.51	0.00
629.66	4.68
629.81	0.00
629.96	84.26
630.11	35.11
630.26	37.45
630.41	0.00
630.56	0.00
630.71	46.81
630.86	46.81
631.01	32.77
631.16	35.11
631.31	65.54
631.46	0.00
631.61	56.17
631.76	53.83
631.91	46.81
632.06	81.92
632.21	37.45
632.36	102.98
632.51	35.11
632.66	49.15
632.81	46.81
632.96	30.43
633.10	56.17
633.25	42.13
633.40	35.11
633.55	14.04
633.70	37.45
633.85	35.11
634.00	28.09
634.15	35.11
634.30	86.60
634.45	46.81
634.60	63.19
634.75	35.11
634.90	0.00
635.05	23.41
635.19	0.00
635.34	42.13
635.49	42.13
635.64	51.49
635.79	88.94
635.94	100.64
636.09	23.41
636.24	32.77
636.39	100.64
636.53	77.24
636.68	63.19
636.83	49.15
636.98	21.06
637.13	37.45
637.28	0.00
637.43	18.72
637.57	25.75
637.72	42.13
637.87	25.75
638.02	14.04
638.17	23.41
638.32	74.90
638.46	0.00
638.61	53.83
638.76	18.72
638.91	65.54
639.06	39.79
639.20	44.47
639.35	63.19
639.50	28.09
639.65	0.00
639.80	88.94
639.94	42.13
640.09	53.83
640.24	51.49
640.39	0.00
640.54	32.77
640.68	44.47
640.83	53.83
640.98	56.17
641.13	46.81
641.27	72.56
641.42	65.54
641.57	39.79
641.72	0.00
641.86	49.15
642.01	51.49
642.16	58.51
642.31	44.47
642.45	9.36
642.60	65.54
642.75	95.96
642.90	107.66
643.04	39.79
643.19	0.00
643.34	56.17
643.48	4.68
643.63	63.19
643.78	93.62
643.93	0.00
644.07	88.94
644.22	91.28
644.37	67.88
644.51	60.85
644.66	65.54
644.81	0.00
644.95	56.17
645.10	60.85
645.25	39.79
645.39	58.51
645.54	23.41
645.69	0.00
645.83	65.54
645.98	0.00
646.13	42.13
646.27	14.04
646.42	0.00
646.57	53.83
646.71	42.13
646.86	51.49
647.00	42.13
647.15	49.15
647.30	117.03
647.44	9.36
647.59	0.00
647.74	0.00
647.88	72.56
648.03	39.79
648.17	23.41
648.32	37.45
648.47	35.11
648.61	39.79
648.76	53.83
648.90	81.92
649.05	2.34
649.20	23.41
649.34	0.00
649.49	18.72
649.63	4.68
649.78	60.85
649.92	88.94
650.07	0.00
650.21	39.79
650.36	79.58
650.51	98.30
650.65	86.60
650.80	60.85
650.94	56.17
651.09	51.49
651.23	51.49
651.38	56.17
651.52	42.13
651.67	32.77
651.81	72.56
651.96	51.49
652.10	67.88
652.25	72.56
652.39	110.01
652.54	58.51
652.68	0.00
652.83	18.72
652.97	56.17
653.12	49.15
653.26	49.15
653.41	11.70
653.55	42.13
653.70	28.09
653.84	14.04
653.99	0.00
654.13	44.47
654.27	0.00
654.42	0.00
654.56	67.88
654.71	42.13
654.85	0.00
655.00	28.09
655.14	44.47
655.29	35.11
655.43	56.17
655.57	44.47
655.72	0.00
655.86	0.00
656.01	0.00
656.15	100.64
656.30	84.26
656.44	23.41
656.58	119.37
656.73	0.00
656.87	18.72
657.01	42.13
657.16	93.62
657.30	51.49
657.45	4.68
657.59	30.43
657.73	14.04
657.88	79.58
658.02	74.90
658.16	67.88
658.31	44.47
658.45	70.22
658.60	0.00
658.74	11.70
658.88	14.04
659.03	86.60
659.17	0.00
659.31	11.70
659.46	37.45
659.60	14.04
659.74	35.11
659.89	0.00
660.03	0.00
660.17	35.11
660.32	18.72
660.46	32.77
660.60	0.00
660.74	63.19
660.89	37.45
661.03	46.81
661.17	28.09
661.32	35.11
661.46	95.96
661.60	149.79
661.74	14.04
661.89	2.34
662.03	28.09
662.17	35.11
662.31	39.79
662.46	67.88
662.60	0.00
662.74	44.47
662.88	32.77
663.03	102.98
663.17	37.45
663.31	70.22
663.45	84.26
663.60	63.19
663.74	107.66
663.88	23.41
664.02	4.68
664.17	18.72
664.31	79.58
664.45	42.13
664.59	0.00
664.73	42.13
664.88	18.72
665.02	23.41
665.16	9.36
665.30	23.41
665.44	35.11
665.59	30.43
665.73	44.47
665.87	65.54
666.01	0.00
666.15	0.00
666.29	30.43
666.44	2.34
666.58	42.13
666.72	28.09
666.86	0.00
667.00	56.17
667.14	0.00
667.28	105.32
667.43	63.19
667.57	81.92
667.71	28.09
667.85	0.00
667.99	35.11
668.13	25.75
668.27	16.38
668.41	58.51
668.56	25.75
668.70	77.24
668.84	0.00
668.98	58.51
669.12	44.47
669.26	77.24
669.40	60.85
669.54	2.34
669.68	28.09
669.82	30.43
669.96	67.88
670.10	32.77
670.25	0.00
670.39	35.11
670.53	91.28
670.67	0.00
670.81	74.90
670.95	0.00
671.09	49.15
671.23	37.45
671.37	0.00
671.51	0.00
671.65	0.00
671.79	16.38
671.93	49.15
672.07	107.66
672.21	16.38
672.35	74.90
672.49	0.00
672.63	72.56
672.77	0.00
672.91	112.35
673.05	23.41
673.19	0.00
673.33	72.56
673.47	91.28
673.61	53.83
673.75	42.13
673.89	72.56
674.03	30.43
674.17	39.79
674.31	30.43
674.45	0.00
674.59	42.13
674.73	25.75
674.87	39.79
675.01	35.11
675.15	14.04
675.29	86.60
675.43	42.13
675.56	37.45
675.70	77.24
675.84	93.62
675.98	0.00
676.12	14.04
676.26	0.00
676.40	72.56
676.54	0.00
676.68	72.56
676.82	72.56
676.96	121.71
677.10	18.72
677.23	2.34
677.37	11.70
677.51	70.22
677.65	0.00
677.79	0.00
677.93	56.17
678.07	37.45
678.21	25.75
678.34	0.00
678.48	21.06
678.62	16.38
678.76	70.22
678.90	0.00
679.04	35.11
679.18	14.04
679.31	58.51
679.45	7.02
679.59	4.68
679.73	63.19
679.87	32.77
680.00	0.00
680.14	46.81
680.28	0.00
680.42	0.00
680.56	0.00
680.70	58.51
680.83	58.51
680.97	16.38
681.11	32.77
681.25	0.00
681.39	46.81
681.52	102.98
681.66	58.51
681.80	0.00
681.94	35.11
682.07	0.00
682.21	51.49
682.35	35.11
682.49	81.92
682.62	0.00
682.76	0.00
682.90	60.85
683.04	81.92
683.17	28.09
683.31	30.43
683.45	51.49
683.59	58.51
683.72	7.02
683.86	0.00
684.00	18.72
684.13	0.00
684.27	44.47
684.41	84.26
684.55	0.00
684.68	7.02
684.82	63.19
684.96	65.54
685.09	0.00
685.23	67.88
685.37	119.37
685.50	7.02
685.64	2.34
685.78	23.41
685.91	4.68
686.05	0.00
686.19	72.56
686.32	11.70
686.46	56.17
686.60	0.00
686.73	39.79
686.87	37.45
687.01	77.24
687.14	93.62
687.28	0.00
687.42	14.04
687.55	2.34
687.69	35.11
687.82	2.34
687.96	35.11
688.10	114.69
688.23	0.00
688.37	72.56
688.50	60.85
688.64	53.83
688.78	28.09
688.91	44.47
689.05	53.83
689.18	21.06
689.32	0.00
689.46	107.66
689.59	0.00
689.73	28.09
689.86	11.70
690.00	35.11
690.13	67.88
690.27	93.62
690.41	0.00
690.54	9.36
690.68	2.34
690.81	51.49
690.95	0.00
691.08	0.00
691.22	14.04
691.35	11.70
691.49	0.00
691.62	35.11
691.76	53.83
691.89	0.00
692.03	93.62
692.16	32.77
692.30	44.47
692.43	53.83
692.57	74.90
692.70	28.09
692.84	77.24
692.97	72.56
693.11	18.72
693.24	0.00
693.38	51.49
693.51	18.72
693.65	14.04
693.78	39.79
693.92	102.98
694.05	28.09
694.19	21.06
694.32	18.72
694.45	60.85
694.59	9.36
694.72	63.19
694.86	0.00
694.99	35.11
695.13	58.51
695.26	0.00
695.39	74.90
695.53	0.00
695.66	4.68
695.80	23.41
695.93	67.88
696.07	4.68
696.20	0.00
696.33	56.17
696.47	2.34
696.60	77.24
696.73	65.54
696.87	23.41
697.00	91.28
697.14	60.85
697.27	28.09
697.40	0.00
697.54	4.68
697.67	14.04
697.80	63.19
697.94	0.00
698.07	58.51
698.21	70.22
698.34	0.00
698.47	74.90
698.61	60.85
698.74	25.75
698.87	11.70
699.01	25.75
699.14	4.68
699.27	35.11
699.40	46.81
699.54	23.41
699.67	39.79
699.80	42.13
699.94	0.00
700.07	30.43
700.20	25.75
700.34	65.54
700.47	49.15
700.60	67.88
700.73	16.38
700.87	18.72
701.00	0.00
701.13	37.45
701.26	25.75
701.40	0.00
701.53	135.75
701.66	42.13
701.79	0.00
701.93	42.13
702.06	51.49
702.19	49.15
702.32	74.90
702.46	35.11
702.59	0.00
702.72	21.06
702.85	0.00
702.99	0.00
703.12	56.17
703.25	30.43
703.38	23.41
703.51	9.36
703.65	42.13
703.78	32.77
703.91	42.13
704.04	88.94
704.17	4.68
704.31	46.81
704.44	110.01
704.57	0.00
704.70	0.00
704.83	28.09
704.96	0.00
705.10	58.51
705.23	0.00
>>>>>End Processed Spectral Data<<<<<
