SpectraSuite Data File
++++++++++++++++++++++++++++++++++++
Date: Tue Oct 01 18:25:11 GMT-05:00 2013
User: stostad
Dark Spectrum Present: No
Reference Spectrum Present: No
Number of Sampled Component Spectra: 1
Spectrometers: USB2+H05261
Integration Time (usec): 100000 (USB2+H05261)
Spectra Averaged: 1 (USB2+H05261)
Boxcar Smoothing: 0 (USB2+H05261)
Correct for Electrical Dark: No (USB2+H05261)
Strobe/Lamp Enabled: No (USB2+H05261)
Correct for Detector Non-linearity: No (USB2+H05261)
Correct for Stray Light: No (USB2+H05261)
Number of Pixels in Processed Spectrum: 2048
>>>>>Begin Processed Spectral Data<<<<<
365.73	60.85
365.92	60.85
366.12	60.85
366.32	0.00
366.52	0.00
366.72	7.02
366.91	2.34
367.11	0.00
367.31	0.00
367.51	28.09
367.70	0.00
367.90	4.68
368.10	0.00
368.30	0.00
368.49	0.00
368.69	0.00
368.89	0.00
369.09	0.00
369.28	32.77
369.48	0.00
369.68	0.00
369.87	0.00
370.07	0.00
370.27	65.54
370.47	72.56
370.66	86.60
370.86	70.22
371.06	70.22
371.25	79.58
371.45	30.43
371.65	203.63
371.84	51.49
372.04	72.56
372.24	138.09
372.44	105.32
372.63	105.32
372.83	124.05
373.03	187.24
373.22	81.92
373.42	126.39
373.62	140.43
373.81	128.73
374.01	147.45
374.21	156.82
374.40	117.03
374.60	236.39
374.79	124.05
374.99	156.82
375.19	98.30
375.38	145.11
375.58	145.11
375.78	159.16
375.97	159.16
376.17	145.11
376.37	163.84
376.56	205.97
376.76	161.50
376.95	117.03
377.15	142.77
377.35	128.73
377.54	138.09
377.74	84.26
377.93	70.22
378.13	170.86
378.33	149.79
378.52	154.48
378.72	166.18
378.91	212.99
379.11	117.03
379.31	107.66
379.50	56.17
379.70	84.26
379.89	114.69
380.09	119.37
380.28	140.43
380.48	154.48
380.68	65.54
380.87	112.35
381.07	110.01
381.26	135.75
381.46	124.05
381.65	147.45
381.85	110.01
382.04	117.03
382.24	135.75
382.43	196.60
382.63	46.81
382.83	93.62
383.02	180.22
383.22	166.18
383.41	140.43
383.61	102.98
383.80	133.41
384.00	63.19
384.19	138.09
384.39	163.84
384.58	159.16
384.78	201.29
384.97	205.97
385.17	51.49
385.36	93.62
385.56	135.75
385.75	117.03
385.95	124.05
386.14	145.11
386.34	98.30
386.53	156.82
386.72	161.50
386.92	161.50
387.11	149.79
387.31	105.32
387.50	53.83
387.70	107.66
387.89	168.52
388.09	161.50
388.28	86.60
388.48	138.09
388.67	124.05
388.86	234.05
389.06	121.71
389.25	135.75
389.45	81.92
389.64	88.94
389.84	170.86
390.03	152.13
390.22	107.66
390.42	114.69
390.61	126.39
390.81	147.45
391.00	131.07
391.19	154.48
391.39	133.41
391.58	173.20
391.78	149.79
391.97	145.11
392.16	95.96
392.36	180.22
392.55	149.79
392.75	168.52
392.94	110.01
393.13	145.11
393.33	91.28
393.52	140.43
393.71	161.50
393.91	131.07
394.10	135.75
394.29	173.20
394.49	180.22
394.68	128.73
394.88	205.97
395.07	168.52
395.26	86.60
395.46	107.66
395.65	147.45
395.84	161.50
396.04	175.54
396.23	95.96
396.42	77.24
396.62	114.69
396.81	114.69
397.00	107.66
397.19	72.56
397.39	72.56
397.58	133.41
397.77	175.54
397.97	194.26
398.16	102.98
398.35	88.94
398.55	60.85
398.74	110.01
398.93	145.11
399.12	56.17
399.32	133.41
399.51	77.24
399.70	84.26
399.90	133.41
400.09	121.71
400.28	196.60
400.47	126.39
400.67	145.11
400.86	166.18
401.05	149.79
401.24	205.97
401.44	159.16
401.63	180.22
401.82	126.39
402.01	145.11
402.21	98.30
402.40	93.62
402.59	63.19
402.78	79.58
402.97	142.77
403.17	168.52
403.36	227.03
403.55	70.22
403.74	222.35
403.93	229.37
404.13	168.52
404.32	114.69
404.51	93.62
404.70	168.52
404.89	121.71
405.09	227.03
405.28	93.62
405.47	110.01
405.66	145.11
405.85	173.20
406.05	145.11
406.24	147.45
406.43	105.32
406.62	131.07
406.81	177.88
407.00	117.03
407.20	100.64
407.39	93.62
407.58	156.82
407.77	53.83
407.96	152.13
408.15	191.92
408.34	53.83
408.54	145.11
408.73	114.69
408.92	133.41
409.11	126.39
409.30	182.56
409.49	135.75
409.68	79.58
409.87	189.58
410.07	72.56
410.26	154.48
410.45	140.43
410.64	95.96
410.83	91.28
411.02	128.73
411.21	180.22
411.40	86.60
411.59	189.58
411.78	189.58
411.98	191.92
412.17	72.56
412.36	114.69
412.55	124.05
412.74	126.39
412.93	156.82
413.12	128.73
413.31	175.54
413.50	149.79
413.69	241.08
413.88	170.86
414.07	79.58
414.26	79.58
414.45	117.03
414.64	135.75
414.83	198.95
415.02	142.77
415.22	163.84
415.41	140.43
415.60	159.16
415.79	182.56
415.98	208.31
416.17	117.03
416.36	145.11
416.55	170.86
416.74	196.60
416.93	159.16
417.12	161.50
417.31	72.56
417.50	95.96
417.69	266.82
417.88	159.16
418.07	177.88
418.26	74.90
418.45	102.98
418.64	210.65
418.83	222.35
419.02	142.77
419.21	138.09
419.39	180.22
419.58	166.18
419.77	152.13
419.96	182.56
420.15	175.54
420.34	51.49
420.53	152.13
420.72	119.37
420.91	168.52
421.10	142.77
421.29	138.09
421.48	142.77
421.67	180.22
421.86	142.77
422.05	98.30
422.24	187.24
422.43	51.49
422.61	72.56
422.80	147.45
422.99	91.28
423.18	168.52
423.37	182.56
423.56	161.50
423.75	194.26
423.94	135.75
424.13	124.05
424.32	182.56
424.50	159.16
424.69	182.56
424.88	154.48
425.07	105.32
425.26	205.97
425.45	220.01
425.64	238.73
425.83	166.18
426.01	191.92
426.20	114.69
426.39	128.73
426.58	81.92
426.77	140.43
426.96	145.11
427.15	161.50
427.33	149.79
427.52	163.84
427.71	110.01
427.90	131.07
428.09	191.92
428.28	93.62
428.46	112.35
428.65	140.43
428.84	100.64
429.03	163.84
429.22	149.79
429.40	88.94
429.59	145.11
429.78	142.77
429.97	156.82
430.16	159.16
430.34	107.66
430.53	100.64
430.72	42.13
430.91	175.54
431.10	126.39
431.28	180.22
431.47	149.79
431.66	149.79
431.85	138.09
432.03	140.43
432.22	243.42
432.41	131.07
432.60	184.90
432.79	208.31
432.97	177.88
433.16	161.50
433.35	102.98
433.54	126.39
433.72	154.48
433.91	142.77
434.10	182.56
434.28	112.35
434.47	177.88
434.66	189.58
434.85	70.22
435.03	63.19
435.22	173.20
435.41	110.01
435.59	107.66
435.78	98.30
435.97	126.39
436.16	114.69
436.34	119.37
436.53	156.82
436.72	135.75
436.90	154.48
437.09	117.03
437.28	152.13
437.46	74.90
437.65	187.24
437.84	175.54
438.02	182.56
438.21	201.29
438.40	102.98
438.58	117.03
438.77	177.88
438.96	152.13
439.14	187.24
439.33	147.45
439.52	159.16
439.70	131.07
439.89	126.39
440.08	110.01
440.26	107.66
440.45	264.48
440.63	142.77
440.82	142.77
441.01	131.07
441.19	175.54
441.38	138.09
441.57	170.86
441.75	131.07
441.94	142.77
442.12	93.62
442.31	168.52
442.50	124.05
442.68	168.52
442.87	194.26
443.05	159.16
443.24	98.30
443.43	114.69
443.61	149.79
443.80	112.35
443.98	105.32
444.17	91.28
444.35	117.03
444.54	119.37
444.73	93.62
444.91	100.64
445.10	110.01
445.28	133.41
445.47	102.98
445.65	159.16
445.84	112.35
446.02	105.32
446.21	112.35
446.39	58.51
446.58	166.18
446.77	88.94
446.95	131.07
447.14	65.54
447.32	203.63
447.51	170.86
447.69	187.24
447.88	124.05
448.06	198.95
448.25	133.41
448.43	177.88
448.62	147.45
448.80	142.77
448.99	189.58
449.17	88.94
449.36	51.49
449.54	105.32
449.73	95.96
449.91	194.26
450.10	112.35
450.28	121.71
450.46	201.29
450.65	187.24
450.83	187.24
451.02	110.01
451.20	93.62
451.39	114.69
451.57	131.07
451.76	124.05
451.94	201.29
452.13	191.92
452.31	128.73
452.49	119.37
452.68	173.20
452.86	138.09
453.05	191.92
453.23	112.35
453.42	107.66
453.60	159.16
453.78	84.26
453.97	124.05
454.15	145.11
454.34	102.98
454.52	138.09
454.70	187.24
454.89	180.22
455.07	159.16
455.26	182.56
455.44	149.79
455.62	142.77
455.81	161.50
455.99	145.11
456.17	126.39
456.36	102.98
456.54	114.69
456.73	110.01
456.91	110.01
457.09	121.71
457.28	168.52
457.46	163.84
457.64	189.58
457.83	166.18
458.01	140.43
458.19	166.18
458.38	93.62
458.56	121.71
458.74	133.41
458.93	98.30
459.11	182.56
459.29	100.64
459.48	142.77
459.66	194.26
459.84	60.85
460.03	196.60
460.21	140.43
460.39	128.73
460.57	159.16
460.76	159.16
460.94	124.05
461.12	154.48
461.31	215.33
461.49	175.54
461.67	79.58
461.85	126.39
462.04	184.90
462.22	550.03
462.40	135.75
462.59	156.82
462.77	147.45
462.95	163.84
463.13	142.77
463.32	88.94
463.50	112.35
463.68	156.82
463.86	149.79
464.05	131.07
464.23	173.20
464.41	121.71
464.59	147.45
464.78	177.88
464.96	126.39
465.14	102.98
465.32	42.13
465.50	135.75
465.69	46.81
465.87	149.79
466.05	124.05
466.23	161.50
466.41	154.48
466.60	114.69
466.78	135.75
466.96	229.37
467.14	138.09
467.32	177.88
467.51	203.63
467.69	147.45
467.87	131.07
468.05	177.88
468.23	107.66
468.41	131.07
468.60	126.39
468.78	107.66
468.96	128.73
469.14	138.09
469.32	138.09
469.50	84.26
469.69	93.62
469.87	91.28
470.05	224.69
470.23	88.94
470.41	168.52
470.59	98.30
470.77	173.20
470.95	142.77
471.14	140.43
471.32	77.24
471.50	210.65
471.68	93.62
471.86	95.96
472.04	107.66
472.22	224.69
472.40	131.07
472.58	119.37
472.77	91.28
472.95	196.60
473.13	198.95
473.31	201.29
473.49	126.39
473.67	117.03
473.85	65.54
474.03	166.18
474.21	93.62
474.39	212.99
474.57	182.56
474.75	161.50
474.93	149.79
475.12	102.98
475.30	117.03
475.48	91.28
475.66	159.16
475.84	107.66
476.02	117.03
476.20	175.54
476.38	189.58
476.56	257.46
476.74	105.32
476.92	81.92
477.10	112.35
477.28	170.86
477.46	175.54
477.64	222.35
477.82	107.66
478.00	63.19
478.18	173.20
478.36	117.03
478.54	32.77
478.72	187.24
478.90	184.90
479.08	95.96
479.26	128.73
479.44	166.18
479.62	121.71
479.80	84.26
479.98	142.77
480.16	100.64
480.34	126.39
480.52	138.09
480.70	203.63
480.88	154.48
481.06	152.13
481.24	145.11
481.41	140.43
481.59	91.28
481.77	126.39
481.95	182.56
482.13	168.52
482.31	152.13
482.49	110.01
482.67	105.32
482.85	138.09
483.03	128.73
483.21	156.82
483.39	93.62
483.57	86.60
483.74	142.77
483.92	114.69
484.10	133.41
484.28	128.73
484.46	142.77
484.64	117.03
484.82	187.24
485.00	175.54
485.18	133.41
485.35	166.18
485.53	154.48
485.71	208.31
485.89	105.32
486.07	145.11
486.25	191.92
486.43	227.03
486.61	217.67
486.78	128.73
486.96	175.54
487.14	121.71
487.32	170.86
487.50	159.16
487.68	135.75
487.85	175.54
488.03	119.37
488.21	180.22
488.39	81.92
488.57	168.52
488.75	95.96
488.92	294.91
489.10	170.86
489.28	215.33
489.46	168.52
489.64	86.60
489.81	72.56
489.99	95.96
490.17	72.56
490.35	201.29
490.53	189.58
490.70	84.26
490.88	88.94
491.06	79.58
491.24	131.07
491.41	154.48
491.59	133.41
491.77	135.75
491.95	117.03
492.13	135.75
492.30	138.09
492.48	140.43
492.66	128.73
492.84	145.11
493.01	152.13
493.19	100.64
493.37	152.13
493.54	128.73
493.72	152.13
493.90	140.43
494.08	149.79
494.25	166.18
494.43	142.77
494.61	121.71
494.79	126.39
494.96	135.75
495.14	166.18
495.32	147.45
495.49	131.07
495.67	114.69
495.85	95.96
496.02	135.75
496.20	184.90
496.38	147.45
496.55	156.82
496.73	135.75
496.91	163.84
497.09	191.92
497.26	170.86
497.44	154.48
497.62	124.05
497.79	170.86
497.97	163.84
498.14	35.11
498.32	159.16
498.50	140.43
498.67	147.45
498.85	140.43
499.03	133.41
499.20	142.77
499.38	147.45
499.56	133.41
499.73	149.79
499.91	234.05
500.08	189.58
500.26	124.05
500.44	72.56
500.61	117.03
500.79	222.35
500.97	110.01
501.14	177.88
501.32	175.54
501.49	140.43
501.67	131.07
501.84	135.75
502.02	149.79
502.20	145.11
502.37	163.84
502.55	112.35
502.72	105.32
502.90	145.11
503.07	159.16
503.25	142.77
503.43	119.37
503.60	84.26
503.78	142.77
503.95	138.09
504.13	65.54
504.30	138.09
504.48	119.37
504.65	177.88
504.83	189.58
505.01	124.05
505.18	114.69
505.36	177.88
505.53	147.45
505.71	95.96
505.88	133.41
506.06	224.69
506.23	138.09
506.41	91.28
506.58	138.09
506.76	161.50
506.93	119.37
507.11	222.35
507.28	135.75
507.46	88.94
507.63	182.56
507.81	203.63
507.98	135.75
508.16	187.24
508.33	175.54
508.50	145.11
508.68	182.56
508.85	175.54
509.03	161.50
509.20	191.92
509.38	156.82
509.55	114.69
509.73	201.29
509.90	161.50
510.08	138.09
510.25	145.11
510.42	114.69
510.60	182.56
510.77	128.73
510.95	72.56
511.12	159.16
511.30	145.11
511.47	102.98
511.64	187.24
511.82	168.52
511.99	198.95
512.17	131.07
512.34	156.82
512.51	135.75
512.69	105.32
512.86	117.03
513.04	74.90
513.21	161.50
513.38	126.39
513.56	110.01
513.73	138.09
513.90	112.35
514.08	126.39
514.25	131.07
514.43	147.45
514.60	86.60
514.77	135.75
514.95	102.98
515.12	98.30
515.29	161.50
515.47	81.92
515.64	114.69
515.81	135.75
515.99	142.77
516.16	152.13
516.33	168.52
516.51	138.09
516.68	166.18
516.85	184.90
517.03	131.07
517.20	168.52
517.37	147.45
517.54	191.92
517.72	140.43
517.89	133.41
518.06	124.05
518.24	248.10
518.41	98.30
518.58	142.77
518.75	128.73
518.93	224.69
519.10	159.16
519.27	156.82
519.45	131.07
519.62	124.05
519.79	194.26
519.96	194.26
520.14	201.29
520.31	177.88
520.48	161.50
520.65	117.03
520.83	91.28
521.00	140.43
521.17	173.20
521.34	102.98
521.52	67.88
521.69	173.20
521.86	95.96
522.03	196.60
522.20	220.01
522.38	180.22
522.55	35.11
522.72	53.83
522.89	182.56
523.07	184.90
523.24	110.01
523.41	145.11
523.58	119.37
523.75	140.43
523.92	110.01
524.10	81.92
524.27	159.16
524.44	91.28
524.61	142.77
524.78	121.71
524.96	154.48
525.13	93.62
525.30	131.07
525.47	28.09
525.64	135.75
525.81	128.73
525.98	163.84
526.16	121.71
526.33	159.16
526.50	145.11
526.67	173.20
526.84	102.98
527.01	152.13
527.18	135.75
527.36	142.77
527.53	107.66
527.70	194.26
527.87	112.35
528.04	205.97
528.21	67.88
528.38	117.03
528.55	126.39
528.72	236.39
528.89	154.48
529.07	112.35
529.24	189.58
529.41	147.45
529.58	182.56
529.75	86.60
529.92	189.58
530.09	229.37
530.26	42.13
530.43	182.56
530.60	86.60
530.77	217.67
530.94	100.64
531.11	98.30
531.28	135.75
531.46	74.90
531.63	110.01
531.80	126.39
531.97	98.30
532.14	145.11
532.31	147.45
532.48	278.52
532.65	189.58
532.82	250.44
532.99	177.88
533.16	182.56
533.33	135.75
533.50	170.86
533.67	133.41
533.84	287.89
534.01	252.78
534.18	166.18
534.35	147.45
534.52	187.24
534.69	184.90
534.86	182.56
535.03	107.66
535.20	128.73
535.37	121.71
535.54	159.16
535.71	91.28
535.88	175.54
536.05	105.32
536.22	159.16
536.38	110.01
536.55	79.58
536.72	133.41
536.89	79.58
537.06	126.39
537.23	117.03
537.40	159.16
537.57	126.39
537.74	58.51
537.91	224.69
538.08	161.50
538.25	154.48
538.42	117.03
538.59	156.82
538.75	152.13
538.92	184.90
539.09	222.35
539.26	166.18
539.43	367.46
539.60	664.71
539.77	936.21
539.94	809.83
540.11	423.64
540.28	273.84
540.44	294.91
540.61	58.51
540.78	124.05
540.95	110.01
541.12	138.09
541.29	145.11
541.46	196.60
541.62	112.35
541.79	145.11
541.96	117.03
542.13	212.99
542.30	128.73
542.47	128.73
542.63	126.39
542.80	208.31
542.97	145.11
543.14	79.58
543.31	170.86
543.48	107.66
543.64	131.07
543.81	58.51
543.98	154.48
544.15	95.96
544.32	191.92
544.48	175.54
544.65	147.45
544.82	161.50
544.99	152.13
545.16	163.84
545.32	93.62
545.49	105.32
545.66	126.39
545.83	84.26
546.00	168.52
546.16	102.98
546.33	175.54
546.50	140.43
546.67	140.43
546.83	184.90
547.00	175.54
547.17	177.88
547.34	145.11
547.50	126.39
547.67	227.03
547.84	119.37
548.00	191.92
548.17	152.13
548.34	177.88
548.51	114.69
548.67	117.03
548.84	138.09
549.01	173.20
549.18	166.18
549.34	135.75
549.51	161.50
549.68	149.79
549.84	138.09
550.01	168.52
550.18	194.26
550.34	140.43
550.51	100.64
550.68	74.90
550.84	126.39
551.01	159.16
551.18	187.24
551.34	86.60
551.51	170.86
551.68	102.98
551.84	159.16
552.01	173.20
552.18	114.69
552.34	154.48
552.51	51.49
552.68	161.50
552.84	98.30
553.01	152.13
553.18	131.07
553.34	161.50
553.51	166.18
553.67	114.69
553.84	205.97
554.01	126.39
554.17	191.92
554.34	147.45
554.51	191.92
554.67	224.69
554.84	187.24
555.00	168.52
555.17	114.69
555.33	119.37
555.50	93.62
555.67	168.52
555.83	121.71
556.00	191.92
556.16	351.08
556.33	138.09
556.50	156.82
556.66	131.07
556.83	114.69
556.99	152.13
557.16	138.09
557.32	168.52
557.49	112.35
557.65	131.07
557.82	121.71
557.98	145.11
558.15	119.37
558.32	126.39
558.48	154.48
558.65	93.62
558.81	161.50
558.98	149.79
559.14	149.79
559.31	30.43
559.47	140.43
559.64	126.39
559.80	173.20
559.97	140.43
560.13	205.97
560.30	140.43
560.46	105.32
560.63	191.92
560.79	124.05
560.96	138.09
561.12	163.84
561.29	131.07
561.45	149.79
561.61	194.26
561.78	264.48
561.94	184.90
562.11	128.73
562.27	135.75
562.44	147.45
562.60	147.45
562.77	37.45
562.93	224.69
563.10	145.11
563.26	149.79
563.42	182.56
563.59	201.29
563.75	152.13
563.92	194.26
564.08	159.16
564.24	63.19
564.41	187.24
564.57	166.18
564.74	110.01
564.90	161.50
565.07	184.90
565.23	257.46
565.39	166.18
565.56	138.09
565.72	114.69
565.88	156.82
566.05	173.20
566.21	133.41
566.38	112.35
566.54	131.07
566.70	152.13
566.87	107.66
567.03	105.32
567.19	88.94
567.36	159.16
567.52	102.98
567.68	161.50
567.85	180.22
568.01	140.43
568.17	74.90
568.34	168.52
568.50	198.95
568.66	135.75
568.83	236.39
568.99	177.88
569.15	166.18
569.32	117.03
569.48	154.48
569.64	117.03
569.81	147.45
569.97	156.82
570.13	170.86
570.30	140.43
570.46	142.77
570.62	114.69
570.78	142.77
570.95	154.48
571.11	196.60
571.27	177.88
571.43	196.60
571.60	159.16
571.76	166.18
571.92	198.95
572.09	203.63
572.25	175.54
572.41	112.35
572.57	105.32
572.74	168.52
572.90	131.07
573.06	201.29
573.22	203.63
573.38	126.39
573.55	110.01
573.71	163.84
573.87	145.11
574.03	126.39
574.20	168.52
574.36	194.26
574.52	259.80
574.68	208.31
574.84	173.20
575.01	210.65
575.17	154.48
575.33	154.48
575.49	170.86
575.65	203.63
575.82	236.39
575.98	311.29
576.14	470.45
576.30	341.72
576.46	315.97
576.62	217.67
576.79	149.79
576.95	159.16
577.11	140.43
577.27	117.03
577.43	177.88
577.59	182.56
577.75	177.88
577.92	163.84
578.08	102.98
578.24	154.48
578.40	163.84
578.56	161.50
578.72	196.60
578.88	201.29
579.04	205.97
579.21	210.65
579.37	163.84
579.53	110.01
579.69	234.05
579.85	203.63
580.01	234.05
580.17	224.69
580.33	234.05
580.49	262.14
580.65	255.12
580.82	208.31
580.98	203.63
581.14	102.98
581.30	255.12
581.46	285.55
581.62	315.97
581.78	402.57
581.94	351.08
582.10	241.08
582.26	196.60
582.42	271.50
582.58	250.44
582.74	299.59
582.90	203.63
583.06	241.08
583.22	290.23
583.38	290.23
583.54	299.59
583.70	404.91
583.86	423.64
584.02	425.98
584.18	620.24
584.34	1104.73
584.50	8070.17
584.66	28009.19
584.82	47178.18
584.98	48889.11
585.14	30504.20
585.30	16355.66
585.46	7967.18
585.62	3166.74
585.78	1441.77
585.94	830.89
586.10	557.05
586.26	526.62
586.42	425.98
586.58	372.15
586.74	325.33
586.90	315.97
587.06	280.86
587.22	339.38
587.38	526.62
587.54	1565.82
587.70	3105.89
587.86	3838.48
588.02	2904.60
588.18	1645.40
588.34	964.30
588.49	559.39
588.65	313.63
588.81	269.16
588.97	222.35
589.13	180.22
589.29	196.60
589.45	252.78
589.61	271.50
589.77	301.93
589.93	360.44
590.08	304.27
590.24	217.67
590.40	245.76
590.56	273.84
590.72	203.63
590.88	189.58
591.04	257.46
591.20	198.95
591.35	243.42
591.51	121.71
591.67	156.82
591.83	149.79
591.99	166.18
592.15	243.42
592.31	189.58
592.46	180.22
592.62	133.41
592.78	147.45
592.94	163.84
593.10	245.76
593.26	161.50
593.41	229.37
593.57	397.89
593.73	1338.79
593.89	3595.06
594.05	6092.41
594.20	6242.21
594.36	4142.75
594.52	2492.67
594.68	1376.24
594.84	636.63
594.99	381.51
595.15	227.03
595.31	248.10
595.47	222.35
595.62	205.97
595.78	189.58
595.94	131.07
596.10	276.18
596.25	264.48
596.41	215.33
596.57	231.71
596.73	313.63
596.88	690.46
597.04	1317.72
597.20	1528.37
597.36	1231.12
597.51	765.36
597.67	564.07
597.83	346.40
597.99	278.52
598.14	255.12
598.30	264.48
598.46	168.52
598.61	156.82
598.77	86.60
598.93	191.92
599.09	121.71
599.24	154.48
599.40	215.33
599.56	170.86
599.71	170.86
599.87	117.03
600.03	166.18
600.18	163.84
600.34	121.71
600.50	163.84
600.65	119.37
600.81	208.31
600.97	117.03
601.12	133.41
601.28	196.60
601.44	196.60
601.59	161.50
601.75	128.73
601.91	154.48
602.06	168.52
602.22	416.62
602.37	814.51
602.53	1446.45
602.69	1621.99
602.84	1224.10
603.00	763.01
603.16	601.52
603.31	294.91
603.47	208.31
603.62	182.56
603.78	212.99
603.94	212.99
604.09	163.84
604.25	234.05
604.40	203.63
604.56	133.41
604.71	100.64
604.87	149.79
605.03	208.31
605.18	201.29
605.34	189.58
605.49	163.84
605.65	189.58
605.80	105.32
605.96	121.71
606.12	159.16
606.27	234.05
606.43	285.55
606.58	538.32
606.74	1977.75
606.89	3702.73
607.05	5181.95
607.20	4236.37
607.36	2860.13
607.51	1760.08
607.67	1109.41
607.82	568.75
607.98	332.36
608.13	257.46
608.29	280.86
608.44	252.78
608.60	271.50
608.75	779.40
608.91	3129.30
609.06	6541.80
609.22	8915.10
609.37	7470.99
609.53	5050.88
609.68	3023.97
609.84	1846.68
609.99	943.24
610.15	489.17
610.30	337.04
610.46	292.57
610.61	182.56
610.76	196.60
610.92	222.35
611.07	184.90
611.23	257.46
611.38	248.10
611.54	147.45
611.69	138.09
611.84	184.90
612.00	208.31
612.15	269.16
612.31	376.83
612.46	433.00
612.62	311.29
612.77	292.57
612.92	311.29
613.08	285.55
613.23	365.12
613.39	660.03
613.54	3124.62
613.69	8294.86
613.85	13378.50
614.00	13301.26
614.15	9582.15
614.31	5989.43
614.46	3817.41
614.62	1905.20
614.77	933.87
614.92	521.94
615.08	339.38
615.23	374.49
615.38	381.51
615.54	695.14
615.69	1736.68
615.84	3122.27
616.00	3712.09
616.15	2932.69
616.30	2045.63
616.46	1387.94
616.61	786.42
616.76	486.83
616.92	341.72
617.07	278.52
617.22	212.99
617.37	224.69
617.53	191.92
617.68	163.84
617.83	189.58
617.99	236.39
618.14	210.65
618.29	177.88
618.45	201.29
618.60	241.08
618.75	217.67
618.90	119.37
619.06	182.56
619.21	189.58
619.36	196.60
619.51	105.32
619.67	140.43
619.82	147.45
619.97	198.95
620.12	189.58
620.28	133.41
620.43	100.64
620.58	238.73
620.73	234.05
620.89	440.02
621.04	896.43
621.19	1839.66
621.34	2200.10
621.49	1844.34
621.65	1273.25
621.80	929.19
621.95	575.77
622.10	400.23
622.25	222.35
622.41	168.52
622.56	166.18
622.71	208.31
622.86	163.84
623.01	189.58
623.16	201.29
623.32	124.05
623.47	194.26
623.62	147.45
623.77	187.24
623.92	184.90
624.07	175.54
624.23	191.92
624.38	210.65
624.53	182.56
624.68	100.64
624.83	234.05
624.98	194.26
625.13	196.60
625.29	198.95
625.44	229.37
625.59	222.35
625.74	517.26
625.89	1839.66
626.04	4353.40
626.19	6806.28
626.34	6956.07
626.49	5088.32
626.65	3372.71
626.80	2260.96
626.95	1196.01
627.10	657.69
627.25	318.31
627.40	285.55
627.55	283.20
627.70	173.20
627.85	231.71
628.00	175.54
628.15	156.82
628.30	159.16
628.45	217.67
628.60	156.82
628.76	234.05
628.91	170.86
629.06	283.20
629.21	212.99
629.36	205.97
629.51	140.43
629.66	437.68
629.81	819.19
629.96	1607.95
630.11	1919.24
630.26	1483.90
630.41	1039.20
630.56	774.72
630.71	557.05
630.86	430.66
631.01	210.65
631.16	269.16
631.31	182.56
631.46	159.16
631.61	175.54
631.76	177.88
631.91	217.67
632.06	205.97
632.21	196.60
632.36	215.33
632.51	285.55
632.66	1036.86
632.81	2459.90
632.96	4248.07
633.10	4617.88
633.25	3749.54
633.40	2473.95
633.55	1713.27
633.70	1086.01
633.85	603.86
634.00	271.50
634.15	248.10
634.30	205.97
634.45	236.39
634.60	189.58
634.75	152.13
634.90	189.58
635.05	201.29
635.19	210.65
635.34	212.99
635.49	194.26
635.64	177.88
635.79	145.11
635.94	180.22
636.09	166.18
636.24	220.01
636.39	191.92
636.53	184.90
636.68	222.35
636.83	133.41
636.98	194.26
637.13	194.26
637.28	262.14
637.43	716.20
637.57	2750.13
637.72	5757.72
637.87	8730.20
638.02	8109.96
638.17	6050.28
638.32	4168.49
638.46	2708.00
638.61	1556.46
638.76	854.30
638.91	423.64
639.06	318.31
639.20	428.32
639.35	990.05
639.50	3836.14
639.65	8463.38
639.80	12751.24
639.94	12421.22
640.09	9387.89
640.24	6174.33
640.39	4072.53
640.54	2319.47
640.68	1193.67
640.83	613.22
640.98	355.76
641.13	212.99
641.27	252.78
641.42	245.76
641.57	227.03
641.72	222.35
641.86	173.20
642.01	184.90
642.16	255.12
642.31	208.31
642.45	212.99
642.60	205.97
642.75	173.20
642.90	257.46
643.04	159.16
643.19	74.90
643.34	170.86
643.48	140.43
643.63	184.90
643.78	243.42
643.93	198.95
644.07	149.79
644.22	215.33
644.37	156.82
644.51	184.90
644.66	175.54
644.81	74.90
644.95	175.54
645.10	170.86
645.25	138.09
645.39	203.63
645.54	145.11
645.69	184.90
645.83	100.64
645.98	156.82
646.13	135.75
646.27	163.84
646.42	100.64
646.57	161.50
646.71	180.22
646.86	170.86
647.00	117.03
647.15	210.65
647.30	222.35
647.44	161.50
647.59	131.07
647.74	191.92
647.88	231.71
648.03	70.22
648.17	208.31
648.32	126.39
648.47	191.92
648.61	133.41
648.76	102.98
648.90	98.30
649.05	191.92
649.20	220.01
649.34	203.63
649.49	220.01
649.63	224.69
649.78	414.27
649.92	1734.34
650.07	4004.66
650.21	6272.64
650.36	6829.68
650.51	5336.42
650.65	3651.24
650.80	2279.68
650.94	1451.13
651.09	819.19
651.23	444.70
651.38	351.08
651.52	241.08
651.67	259.80
651.81	215.33
651.96	238.73
652.10	257.46
652.25	203.63
652.39	196.60
652.54	552.37
652.68	1315.38
652.83	2190.74
652.97	2658.85
653.12	2080.74
653.26	1427.73
653.41	1015.79
653.55	655.35
653.70	390.87
653.84	278.52
653.99	229.37
654.13	110.01
654.27	107.66
654.42	198.95
654.56	198.95
654.71	142.77
654.85	147.45
655.00	110.01
655.14	201.29
655.29	121.71
655.43	187.24
655.57	201.29
655.72	100.64
655.86	217.67
656.01	177.88
656.15	205.97
656.30	208.31
656.44	156.82
656.58	173.20
656.73	121.71
656.87	224.69
657.01	182.56
657.16	212.99
657.30	154.48
657.45	198.95
657.59	159.16
657.73	201.29
657.88	131.07
658.02	231.71
658.16	126.39
658.31	175.54
658.45	196.60
658.60	182.56
658.74	138.09
658.88	205.97
659.03	241.08
659.17	676.41
659.31	1863.07
659.46	3049.72
659.60	3637.19
659.74	3070.78
659.89	2111.16
660.03	1406.66
660.17	891.74
660.32	582.79
660.46	252.78
660.60	236.39
660.74	191.92
660.89	248.10
661.03	177.88
661.17	180.22
661.32	182.56
661.46	156.82
661.60	189.58
661.74	189.58
661.89	147.45
662.03	121.71
662.17	145.11
662.31	138.09
662.46	250.44
662.60	159.16
662.74	117.03
662.88	205.97
663.03	203.63
663.17	105.32
663.31	163.84
663.45	131.07
663.60	142.77
663.74	180.22
663.88	138.09
664.02	205.97
664.17	147.45
664.31	70.22
664.45	184.90
664.59	147.45
664.73	107.66
664.88	147.45
665.02	196.60
665.16	121.71
665.30	170.86
665.44	161.50
665.59	189.58
665.73	182.56
665.87	194.26
666.01	135.75
666.15	100.64
666.29	93.62
666.44	215.33
666.58	238.73
666.72	138.09
666.86	205.97
667.00	365.12
667.14	1306.02
667.28	3300.16
667.43	5511.96
667.57	6382.64
667.71	5144.50
667.85	3571.66
667.99	2106.48
668.13	1270.91
668.27	753.65
668.41	479.81
668.56	355.76
668.70	283.20
668.84	231.71
668.98	201.29
669.12	131.07
669.26	152.13
669.40	255.12
669.54	173.20
669.68	222.35
669.82	177.88
669.96	154.48
670.10	203.63
670.25	198.95
670.39	196.60
670.53	194.26
670.67	131.07
670.81	245.76
670.95	393.21
671.09	1306.02
671.23	2635.44
671.37	3693.37
671.51	3627.83
671.65	2827.37
671.79	1774.13
671.93	1048.56
672.07	727.91
672.21	447.04
672.35	280.86
672.49	187.24
672.63	222.35
672.77	252.78
672.91	138.09
673.05	140.43
673.19	152.13
673.33	107.66
673.47	217.67
673.61	166.18
673.75	114.69
673.89	121.71
674.03	159.16
674.17	189.58
674.31	159.16
674.45	138.09
674.59	205.97
674.73	170.86
674.87	222.35
675.01	177.88
675.15	196.60
675.29	177.88
675.43	234.05
675.56	238.73
675.70	189.58
675.84	149.79
675.98	175.54
676.12	114.69
676.26	79.58
676.40	161.50
676.54	147.45
676.68	196.60
676.82	220.01
676.96	177.88
677.10	133.41
677.23	124.05
677.37	49.15
677.51	114.69
677.65	231.71
677.79	135.75
677.93	117.03
678.07	173.20
678.21	107.66
678.34	138.09
678.48	60.85
678.62	124.05
678.76	140.43
678.90	159.16
679.04	135.75
679.18	124.05
679.31	126.39
679.45	166.18
679.59	175.54
679.73	159.16
679.87	112.35
680.00	166.18
680.14	133.41
680.28	163.84
680.42	100.64
680.56	124.05
680.70	156.82
680.83	142.77
680.97	133.41
681.11	110.01
681.25	166.18
681.39	173.20
681.52	126.39
681.66	163.84
681.80	175.54
681.94	114.69
682.07	128.73
682.21	191.92
682.35	133.41
682.49	91.28
682.62	159.16
682.76	105.32
682.90	170.86
683.04	187.24
683.17	110.01
683.31	110.01
683.45	187.24
683.59	203.63
683.72	140.43
683.86	142.77
684.00	191.92
684.13	95.96
684.27	203.63
684.41	126.39
684.55	131.07
684.68	189.58
684.82	81.92
684.96	84.26
685.09	142.77
685.23	131.07
685.37	114.69
685.50	175.54
685.64	168.52
685.78	147.45
685.91	187.24
686.05	159.16
686.19	95.96
686.32	187.24
686.46	149.79
686.60	156.82
686.73	264.48
686.87	266.82
687.01	177.88
687.14	198.95
687.28	98.30
687.42	191.92
687.55	60.85
687.69	189.58
687.82	124.05
687.96	112.35
688.10	133.41
688.23	110.01
688.37	180.22
688.50	198.95
688.64	142.77
688.78	119.37
688.91	79.58
689.05	121.71
689.18	84.26
689.32	110.01
689.46	187.24
689.59	154.48
689.73	159.16
689.86	220.01
690.00	208.31
690.13	170.86
690.27	140.43
690.41	180.22
690.54	212.99
690.68	95.96
690.81	182.56
690.95	180.22
691.08	126.39
691.22	180.22
691.35	112.35
691.49	124.05
691.62	95.96
691.76	133.41
691.89	138.09
692.03	166.18
692.16	220.01
692.30	528.96
692.43	1259.21
692.57	2087.76
692.70	2754.81
692.84	2427.14
692.97	1834.98
693.11	1320.06
693.24	1018.13
693.38	671.73
693.51	454.06
693.65	358.10
693.78	271.50
693.92	229.37
694.05	241.08
694.19	173.20
694.32	194.26
694.45	177.88
694.59	107.66
694.72	145.11
694.86	161.50
694.99	147.45
695.13	140.43
695.26	163.84
695.39	159.16
695.53	198.95
695.66	196.60
695.80	124.05
695.93	252.78
696.07	271.50
696.20	360.44
696.33	395.55
696.47	330.02
696.60	322.99
696.73	250.44
696.87	177.88
697.00	196.60
697.14	149.79
697.27	198.95
697.40	163.84
697.54	93.62
697.67	166.18
697.80	177.88
697.94	198.95
698.07	112.35
698.21	135.75
698.34	236.39
698.47	159.16
698.61	154.48
698.74	121.71
698.87	222.35
699.01	170.86
699.14	145.11
699.27	142.77
699.40	229.37
699.54	44.47
699.67	124.05
699.80	170.86
699.94	156.82
700.07	168.52
700.20	119.37
700.34	77.24
700.47	107.66
700.60	128.73
700.73	231.71
700.87	182.56
701.00	217.67
701.13	147.45
701.26	156.82
701.40	147.45
701.53	229.37
701.66	163.84
701.79	142.77
701.93	210.65
702.06	311.29
702.19	304.27
702.32	327.68
702.46	308.95
702.59	669.39
702.72	1727.32
702.85	3187.81
702.99	4620.22
703.12	5174.92
703.25	4318.29
703.38	3695.71
703.51	2937.37
703.65	2108.82
703.78	1385.60
703.91	837.91
704.04	561.73
704.17	411.93
704.31	259.80
704.44	245.76
704.57	182.56
704.70	149.79
704.83	212.99
704.96	189.58
705.10	189.58
705.23	98.30
>>>>>End Processed Spectral Data<<<<<
