SpectraSuite Data File
++++++++++++++++++++++++++++++++++++
Date: Fri Oct 04 12:13:24 GMT-05:00 2013
User: price-jones
Dark Spectrum Present: No
Reference Spectrum Present: No
Number of Sampled Component Spectra: 1
Spectrometers: USB2+H05261
Integration Time (usec): 10000 (USB2+H05261)
Spectra Averaged: 1 (USB2+H05261)
Boxcar Smoothing: 0 (USB2+H05261)
Correct for Electrical Dark: No (USB2+H05261)
Strobe/Lamp Enabled: No (USB2+H05261)
Correct for Detector Non-linearity: No (USB2+H05261)
Correct for Stray Light: No (USB2+H05261)
Number of Pixels in Processed Spectrum: 2048
>>>>>Begin Processed Spectral Data<<<<<
365.73	58.51
365.92	58.51
366.12	58.51
366.32	0.00
366.52	0.00
366.72	0.00
366.91	0.00
367.11	0.00
367.31	0.00
367.51	0.00
367.70	0.00
367.90	0.00
368.10	0.00
368.30	0.00
368.49	0.00
368.69	0.00
368.89	0.00
369.09	0.00
369.28	0.00
369.48	0.00
369.68	0.00
369.87	0.00
370.07	0.00
370.27	0.00
370.47	0.00
370.66	0.00
370.86	0.00
371.06	0.00
371.25	0.00
371.45	0.00
371.65	0.00
371.84	0.00
372.04	28.09
372.24	0.00
372.44	18.72
372.63	14.04
372.83	37.45
373.03	23.41
373.22	37.45
373.42	32.77
373.62	11.70
373.81	39.79
374.01	0.00
374.21	91.28
374.40	28.09
374.60	0.00
374.79	42.13
374.99	23.41
375.19	18.72
375.38	58.51
375.58	4.68
375.78	74.90
375.97	51.49
376.17	58.51
376.37	16.38
376.56	32.77
376.76	16.38
376.95	32.77
377.15	51.49
377.35	28.09
377.54	4.68
377.74	25.75
377.93	46.81
378.13	0.00
378.33	0.00
378.52	72.56
378.72	0.00
378.91	56.17
379.11	107.66
379.31	49.15
379.50	42.13
379.70	0.00
379.89	0.00
380.09	37.45
380.28	35.11
380.48	0.00
380.68	0.00
380.87	0.00
381.07	0.00
381.26	32.77
381.46	21.06
381.65	0.00
381.85	53.83
382.04	30.43
382.24	0.00
382.43	44.47
382.63	88.94
382.83	84.26
383.02	28.09
383.22	4.68
383.41	53.83
383.61	0.00
383.80	25.75
384.00	32.77
384.19	0.00
384.39	42.13
384.58	18.72
384.78	0.00
384.97	0.00
385.17	28.09
385.36	49.15
385.56	81.92
385.75	0.00
385.95	18.72
386.14	72.56
386.34	0.00
386.53	39.79
386.72	70.22
386.92	39.79
387.11	14.04
387.31	25.75
387.50	23.41
387.70	60.85
387.89	0.00
388.09	9.36
388.28	2.34
388.48	25.75
388.67	30.43
388.86	23.41
389.06	0.00
389.25	56.17
389.45	0.00
389.64	0.00
389.84	11.70
390.03	86.60
390.22	42.13
390.42	4.68
390.61	44.47
390.81	53.83
391.00	0.00
391.19	51.49
391.39	0.00
391.58	42.13
391.78	65.54
391.97	72.56
392.16	23.41
392.36	28.09
392.55	0.00
392.75	0.00
392.94	23.41
393.13	16.38
393.33	56.17
393.52	58.51
393.71	21.06
393.91	0.00
394.10	32.77
394.29	0.00
394.49	105.32
394.68	23.41
394.88	77.24
395.07	35.11
395.26	0.00
395.46	32.77
395.65	39.79
395.84	4.68
396.04	49.15
396.23	30.43
396.42	0.00
396.62	25.75
396.81	0.00
397.00	100.64
397.19	70.22
397.39	9.36
397.58	49.15
397.77	14.04
397.97	4.68
398.16	49.15
398.35	30.43
398.55	0.00
398.74	49.15
398.93	0.00
399.12	2.34
399.32	32.77
399.51	79.58
399.70	11.70
399.90	63.19
400.09	2.34
400.28	25.75
400.47	65.54
400.67	0.00
400.86	0.00
401.05	25.75
401.24	0.00
401.44	37.45
401.63	4.68
401.82	23.41
402.01	30.43
402.21	77.24
402.40	23.41
402.59	4.68
402.78	51.49
402.97	0.00
403.17	46.81
403.36	0.00
403.55	32.77
403.74	0.00
403.93	0.00
404.13	0.00
404.32	21.06
404.51	0.00
404.70	72.56
404.89	28.09
405.09	4.68
405.28	21.06
405.47	0.00
405.66	39.79
405.85	44.47
406.05	70.22
406.24	16.38
406.43	0.00
406.62	0.00
406.81	0.00
407.00	102.98
407.20	60.85
407.39	0.00
407.58	18.72
407.77	0.00
407.96	23.41
408.15	35.11
408.34	0.00
408.54	0.00
408.73	0.00
408.92	51.49
409.11	16.38
409.30	11.70
409.49	70.22
409.68	63.19
409.87	93.62
410.07	0.00
410.26	46.81
410.45	0.00
410.64	0.00
410.83	58.51
411.02	35.11
411.21	4.68
411.40	72.56
411.59	37.45
411.78	7.02
411.98	7.02
412.17	0.00
412.36	46.81
412.55	58.51
412.74	35.11
412.93	25.75
413.12	16.38
413.31	60.85
413.50	16.38
413.69	21.06
413.88	46.81
414.07	35.11
414.26	11.70
414.45	60.85
414.64	74.90
414.83	51.49
415.02	98.30
415.22	72.56
415.41	0.00
415.60	21.06
415.79	2.34
415.98	28.09
416.17	63.19
416.36	16.38
416.55	0.00
416.74	91.28
416.93	58.51
417.12	42.13
417.31	0.00
417.50	4.68
417.69	0.00
417.88	9.36
418.07	23.41
418.26	25.75
418.45	11.70
418.64	18.72
418.83	72.56
419.02	60.85
419.21	42.13
419.39	51.49
419.58	74.90
419.77	32.77
419.96	105.32
420.15	98.30
420.34	74.90
420.53	16.38
420.72	0.00
420.91	51.49
421.10	102.98
421.29	56.17
421.48	0.00
421.67	18.72
421.86	23.41
422.05	88.94
422.24	0.00
422.43	0.00
422.61	0.00
422.80	7.02
422.99	42.13
423.18	21.06
423.37	81.92
423.56	35.11
423.75	67.88
423.94	11.70
424.13	37.45
424.32	28.09
424.50	44.47
424.69	0.00
424.88	0.00
425.07	39.79
425.26	7.02
425.45	0.00
425.64	0.00
425.83	0.00
426.01	21.06
426.20	0.00
426.39	21.06
426.58	58.51
426.77	0.00
426.96	16.38
427.15	37.45
427.33	4.68
427.52	4.68
427.71	21.06
427.90	39.79
428.09	0.00
428.28	9.36
428.46	91.28
428.65	11.70
428.84	0.00
429.03	2.34
429.22	77.24
429.40	25.75
429.59	0.00
429.78	56.17
429.97	67.88
430.16	0.00
430.34	4.68
430.53	16.38
430.72	11.70
430.91	65.54
431.10	91.28
431.28	79.58
431.47	0.00
431.66	39.79
431.85	30.43
432.03	42.13
432.22	32.77
432.41	14.04
432.60	21.06
432.79	51.49
432.97	0.00
433.16	53.83
433.35	0.00
433.54	0.00
433.72	35.11
433.91	49.15
434.10	49.15
434.28	117.03
434.47	63.19
434.66	25.75
434.85	0.00
435.03	44.47
435.22	0.00
435.41	0.00
435.59	0.00
435.78	2.34
435.97	0.00
436.16	2.34
436.34	0.00
436.53	0.00
436.72	49.15
436.90	0.00
437.09	0.00
437.28	23.41
437.46	0.00
437.65	4.68
437.84	7.02
438.02	23.41
438.21	44.47
438.40	60.85
438.58	53.83
438.77	37.45
438.96	37.45
439.14	0.00
439.33	60.85
439.52	42.13
439.70	91.28
439.89	0.00
440.08	21.06
440.26	32.77
440.45	81.92
440.63	28.09
440.82	63.19
441.01	0.00
441.19	37.45
441.38	28.09
441.57	86.60
441.75	25.75
441.94	0.00
442.12	37.45
442.31	58.51
442.50	53.83
442.68	67.88
442.87	2.34
443.05	14.04
443.24	58.51
443.43	51.49
443.61	0.00
443.80	53.83
443.98	0.00
444.17	53.83
444.35	23.41
444.54	28.09
444.73	35.11
444.91	72.56
445.10	18.72
445.28	32.77
445.47	74.90
445.65	128.73
445.84	56.17
446.02	0.00
446.21	84.26
446.39	25.75
446.58	0.00
446.77	0.00
446.95	39.79
447.14	67.88
447.32	77.24
447.51	18.72
447.69	0.00
447.88	9.36
448.06	0.00
448.25	0.00
448.43	37.45
448.62	25.75
448.80	25.75
448.99	35.11
449.17	32.77
449.36	14.04
449.54	67.88
449.73	93.62
449.91	0.00
450.10	0.00
450.28	44.47
450.46	0.00
450.65	72.56
450.83	2.34
451.02	0.00
451.20	0.00
451.39	25.75
451.57	63.19
451.76	46.81
451.94	0.00
452.13	84.26
452.31	16.38
452.49	0.00
452.68	74.90
452.86	0.00
453.05	63.19
453.23	58.51
453.42	21.06
453.60	0.00
453.78	91.28
453.97	16.38
454.15	14.04
454.34	35.11
454.52	81.92
454.70	44.47
454.89	7.02
455.07	32.77
455.26	14.04
455.44	0.00
455.62	56.17
455.81	114.69
455.99	46.81
456.17	14.04
456.36	72.56
456.54	67.88
456.73	9.36
456.91	39.79
457.09	9.36
457.28	114.69
457.46	9.36
457.64	25.75
457.83	0.00
458.01	35.11
458.19	63.19
458.38	0.00
458.56	42.13
458.74	58.51
458.93	32.77
459.11	23.41
459.29	11.70
459.48	32.77
459.66	46.81
459.84	56.17
460.03	42.13
460.21	9.36
460.39	74.90
460.57	42.13
460.76	9.36
460.94	30.43
461.12	0.00
461.31	117.03
461.49	74.90
461.67	44.47
461.85	44.47
462.04	84.26
462.22	117.03
462.40	14.04
462.59	0.00
462.77	35.11
462.95	32.77
463.13	23.41
463.32	72.56
463.50	23.41
463.68	37.45
463.86	4.68
464.05	0.00
464.23	7.02
464.41	86.60
464.59	77.24
464.78	42.13
464.96	0.00
465.14	46.81
465.32	0.00
465.50	23.41
465.69	67.88
465.87	0.00
466.05	30.43
466.23	0.00
466.41	81.92
466.60	35.11
466.78	95.96
466.96	18.72
467.14	56.17
467.32	28.09
467.51	18.72
467.69	86.60
467.87	84.26
468.05	63.19
468.23	0.00
468.41	56.17
468.60	23.41
468.78	56.17
468.96	25.75
469.14	79.58
469.32	16.38
469.50	9.36
469.69	23.41
469.87	0.00
470.05	121.71
470.23	28.09
470.41	98.30
470.59	25.75
470.77	44.47
470.95	81.92
471.14	0.00
471.32	37.45
471.50	9.36
471.68	0.00
471.86	39.79
472.04	79.58
472.22	14.04
472.40	39.79
472.58	0.00
472.77	14.04
472.95	86.60
473.13	0.00
473.31	74.90
473.49	56.17
473.67	0.00
473.85	21.06
474.03	30.43
474.21	51.49
474.39	32.77
474.57	0.00
474.75	53.83
474.93	0.00
475.12	11.70
475.30	4.68
475.48	32.77
475.66	7.02
475.84	35.11
476.02	0.00
476.20	11.70
476.38	16.38
476.56	4.68
476.74	0.00
476.92	81.92
477.10	53.83
477.28	14.04
477.46	0.00
477.64	0.00
477.82	28.09
478.00	16.38
478.18	42.13
478.36	0.00
478.54	65.54
478.72	18.72
478.90	56.17
479.08	0.00
479.26	4.68
479.44	23.41
479.62	0.00
479.80	21.06
479.98	51.49
480.16	0.00
480.34	44.47
480.52	49.15
480.70	21.06
480.88	74.90
481.06	86.60
481.24	4.68
481.41	0.00
481.59	35.11
481.77	42.13
481.95	74.90
482.13	49.15
482.31	65.54
482.49	46.81
482.67	0.00
482.85	30.43
483.03	30.43
483.21	4.68
483.39	88.94
483.57	30.43
483.74	18.72
483.92	49.15
484.10	46.81
484.28	110.01
484.46	100.64
484.64	51.49
484.82	51.49
485.00	56.17
485.18	60.85
485.35	25.75
485.53	60.85
485.71	0.00
485.89	128.73
486.07	16.38
486.25	30.43
486.43	84.26
486.61	21.06
486.78	28.09
486.96	9.36
487.14	49.15
487.32	56.17
487.50	46.81
487.68	0.00
487.85	0.00
488.03	30.43
488.21	70.22
488.39	60.85
488.57	0.00
488.75	39.79
488.92	37.45
489.10	53.83
489.28	60.85
489.46	35.11
489.64	35.11
489.81	84.26
489.99	30.43
490.17	51.49
490.35	67.88
490.53	88.94
490.70	0.00
490.88	63.19
491.06	23.41
491.24	51.49
491.41	39.79
491.59	53.83
491.77	32.77
491.95	65.54
492.13	49.15
492.30	70.22
492.48	32.77
492.66	77.24
492.84	58.51
493.01	23.41
493.19	53.83
493.37	35.11
493.54	35.11
493.72	37.45
493.90	0.00
494.08	32.77
494.25	67.88
494.43	63.19
494.61	42.13
494.79	0.00
494.96	35.11
495.14	32.77
495.32	14.04
495.49	60.85
495.67	91.28
495.85	35.11
496.02	23.41
496.20	35.11
496.38	11.70
496.55	49.15
496.73	0.00
496.91	23.41
497.09	46.81
497.26	124.05
497.44	100.64
497.62	56.17
497.79	0.00
497.97	16.38
498.14	37.45
498.32	28.09
498.50	23.41
498.67	21.06
498.85	63.19
499.03	18.72
499.20	51.49
499.38	72.56
499.56	0.00
499.73	32.77
499.91	28.09
500.08	0.00
500.26	25.75
500.44	49.15
500.61	46.81
500.79	53.83
500.97	9.36
501.14	0.00
501.32	53.83
501.49	79.58
501.67	0.00
501.84	95.96
502.02	91.28
502.20	81.92
502.37	49.15
502.55	70.22
502.72	65.54
502.90	67.88
503.07	32.77
503.25	51.49
503.43	105.32
503.60	9.36
503.78	14.04
503.95	0.00
504.13	53.83
504.30	0.00
504.48	23.41
504.65	21.06
504.83	74.90
505.01	74.90
505.18	0.00
505.36	25.75
505.53	30.43
505.71	39.79
505.88	35.11
506.06	70.22
506.23	117.03
506.41	2.34
506.58	81.92
506.76	65.54
506.93	67.88
507.11	32.77
507.28	25.75
507.46	2.34
507.63	32.77
507.81	0.00
507.98	124.05
508.16	42.13
508.33	117.03
508.50	53.83
508.68	60.85
508.85	37.45
509.03	42.13
509.20	93.62
509.38	0.00
509.55	25.75
509.73	56.17
509.90	42.13
510.08	49.15
510.25	70.22
510.42	46.81
510.60	30.43
510.77	42.13
510.95	112.35
511.12	60.85
511.30	11.70
511.47	23.41
511.64	46.81
511.82	154.48
511.99	11.70
512.17	7.02
512.34	72.56
512.51	32.77
512.69	9.36
512.86	67.88
513.04	60.85
513.21	58.51
513.38	32.77
513.56	110.01
513.73	63.19
513.90	58.51
514.08	84.26
514.25	65.54
514.43	60.85
514.60	28.09
514.77	9.36
514.95	14.04
515.12	42.13
515.29	21.06
515.47	14.04
515.64	37.45
515.81	42.13
515.99	102.98
516.16	37.45
516.33	0.00
516.51	39.79
516.68	7.02
516.85	42.13
517.03	42.13
517.20	4.68
517.37	7.02
517.54	53.83
517.72	37.45
517.89	88.94
518.06	88.94
518.24	58.51
518.41	77.24
518.58	84.26
518.75	25.75
518.93	14.04
519.10	39.79
519.27	131.07
519.45	67.88
519.62	86.60
519.79	25.75
519.96	67.88
520.14	9.36
520.31	0.00
520.48	42.13
520.65	14.04
520.83	91.28
521.00	84.26
521.17	4.68
521.34	60.85
521.52	44.47
521.69	25.75
521.86	107.66
522.03	53.83
522.20	16.38
522.38	67.88
522.55	35.11
522.72	46.81
522.89	74.90
523.07	11.70
523.24	79.58
523.41	0.00
523.58	88.94
523.75	7.02
523.92	7.02
524.10	51.49
524.27	58.51
524.44	112.35
524.61	58.51
524.78	30.43
524.96	0.00
525.13	39.79
525.30	53.83
525.47	49.15
525.64	63.19
525.81	114.69
525.98	63.19
526.16	53.83
526.33	53.83
526.50	63.19
526.67	67.88
526.84	63.19
527.01	25.75
527.18	37.45
527.36	65.54
527.53	79.58
527.70	91.28
527.87	23.41
528.04	56.17
528.21	77.24
528.38	0.00
528.55	21.06
528.72	128.73
528.89	105.32
529.07	117.03
529.24	37.45
529.41	0.00
529.58	72.56
529.75	35.11
529.92	100.64
530.09	23.41
530.26	37.45
530.43	23.41
530.60	95.96
530.77	100.64
530.94	93.62
531.11	58.51
531.28	74.90
531.46	11.70
531.63	25.75
531.80	51.49
531.97	0.00
532.14	72.56
532.31	28.09
532.48	16.38
532.65	25.75
532.82	25.75
532.99	51.49
533.16	79.58
533.33	42.13
533.50	4.68
533.67	49.15
533.84	53.83
534.01	0.00
534.18	77.24
534.35	58.51
534.52	0.00
534.69	16.38
534.86	121.71
535.03	44.47
535.20	81.92
535.37	18.72
535.54	39.79
535.71	51.49
535.88	37.45
536.05	63.19
536.22	28.09
536.38	65.54
536.55	49.15
536.72	23.41
536.89	35.11
537.06	7.02
537.23	46.81
537.40	2.34
537.57	98.30
537.74	30.43
537.91	114.69
538.08	32.77
538.25	72.56
538.42	35.11
538.59	30.43
538.75	7.02
538.92	105.32
539.09	16.38
539.26	16.38
539.43	39.79
539.60	30.43
539.77	72.56
539.94	14.04
540.11	42.13
540.28	25.75
540.44	53.83
540.61	35.11
540.78	100.64
540.95	46.81
541.12	49.15
541.29	35.11
541.46	0.00
541.62	86.60
541.79	44.47
541.96	93.62
542.13	18.72
542.30	51.49
542.47	63.19
542.63	30.43
542.80	58.51
542.97	51.49
543.14	60.85
543.31	70.22
543.48	60.85
543.64	16.38
543.81	49.15
543.98	63.19
544.15	67.88
544.32	35.11
544.48	23.41
544.65	0.00
544.82	18.72
544.99	0.00
545.16	67.88
545.32	42.13
545.49	133.41
545.66	49.15
545.83	30.43
546.00	88.94
546.16	49.15
546.33	0.00
546.50	74.90
546.67	46.81
546.83	0.00
547.00	39.79
547.17	14.04
547.34	4.68
547.50	37.45
547.67	79.58
547.84	39.79
548.00	72.56
548.17	0.00
548.34	18.72
548.51	74.90
548.67	25.75
548.84	21.06
549.01	53.83
549.18	9.36
549.34	0.00
549.51	14.04
549.68	102.98
549.84	2.34
550.01	37.45
550.18	117.03
550.34	0.00
550.51	56.17
550.68	53.83
550.84	100.64
551.01	0.00
551.18	44.47
551.34	9.36
551.51	28.09
551.68	107.66
551.84	35.11
552.01	79.58
552.18	72.56
552.34	0.00
552.51	53.83
552.68	44.47
552.84	95.96
553.01	0.00
553.18	4.68
553.34	9.36
553.51	56.17
553.67	44.47
553.84	21.06
554.01	0.00
554.17	0.00
554.34	35.11
554.51	21.06
554.67	88.94
554.84	39.79
555.00	60.85
555.17	9.36
555.33	0.00
555.50	18.72
555.67	11.70
555.83	88.94
556.00	7.02
556.16	72.56
556.33	0.00
556.50	14.04
556.66	100.64
556.83	79.58
556.99	79.58
557.16	9.36
557.32	95.96
557.49	37.45
557.65	30.43
557.82	25.75
557.98	67.88
558.15	72.56
558.32	107.66
558.48	32.77
558.65	28.09
558.81	107.66
558.98	0.00
559.14	35.11
559.31	81.92
559.47	28.09
559.64	37.45
559.80	7.02
559.97	46.81
560.13	37.45
560.30	91.28
560.46	72.56
560.63	0.00
560.79	0.00
560.96	102.98
561.12	81.92
561.29	53.83
561.45	25.75
561.61	53.83
561.78	32.77
561.94	56.17
562.11	7.02
562.27	39.79
562.44	0.00
562.60	0.00
562.77	79.58
562.93	86.60
563.10	0.00
563.26	18.72
563.42	119.37
563.59	21.06
563.75	102.98
563.92	46.81
564.08	70.22
564.24	0.00
564.41	9.36
564.57	53.83
564.74	0.00
564.90	102.98
565.07	11.70
565.23	35.11
565.39	21.06
565.56	58.51
565.72	65.54
565.88	88.94
566.05	88.94
566.21	18.72
566.38	84.26
566.54	81.92
566.70	0.00
566.87	18.72
567.03	67.88
567.19	63.19
567.36	88.94
567.52	117.03
567.68	77.24
567.85	81.92
568.01	95.96
568.17	14.04
568.34	0.00
568.50	84.26
568.66	32.77
568.83	0.00
568.99	11.70
569.15	35.11
569.32	56.17
569.48	0.00
569.64	49.15
569.81	93.62
569.97	107.66
570.13	46.81
570.30	28.09
570.46	60.85
570.62	28.09
570.78	51.49
570.95	21.06
571.11	51.49
571.27	9.36
571.43	35.11
571.60	86.60
571.76	74.90
571.92	18.72
572.09	0.00
572.25	25.75
572.41	58.51
572.57	44.47
572.74	42.13
572.90	0.00
573.06	11.70
573.22	25.75
573.38	70.22
573.55	21.06
573.71	117.03
573.87	67.88
574.03	25.75
574.20	0.00
574.36	0.00
574.52	0.00
574.68	0.00
574.84	28.09
575.01	0.00
575.17	46.81
575.33	46.81
575.49	32.77
575.65	44.47
575.82	18.72
575.98	91.28
576.14	28.09
576.30	0.00
576.46	0.00
576.62	60.85
576.79	49.15
576.95	58.51
577.11	74.90
577.27	7.02
577.43	16.38
577.59	35.11
577.75	21.06
577.92	0.00
578.08	25.75
578.24	67.88
578.40	53.83
578.56	37.45
578.72	39.79
578.88	18.72
579.04	63.19
579.21	11.70
579.37	46.81
579.53	0.00
579.69	91.28
579.85	11.70
580.01	67.88
580.17	14.04
580.33	70.22
580.49	0.00
580.65	65.54
580.82	21.06
580.98	9.36
581.14	67.88
581.30	51.49
581.46	0.00
581.62	70.22
581.78	23.41
581.94	46.81
582.10	21.06
582.26	21.06
582.42	9.36
582.58	32.77
582.74	32.77
582.90	0.00
583.06	110.01
583.22	49.15
583.38	21.06
583.54	84.26
583.70	23.41
583.86	72.56
584.02	21.06
584.18	0.00
584.34	79.58
584.50	65.54
584.66	0.00
584.82	42.13
584.98	0.00
585.14	0.00
585.30	0.00
585.46	37.45
585.62	0.00
585.78	79.58
585.94	14.04
586.10	110.01
586.26	56.17
586.42	60.85
586.58	65.54
586.74	42.13
586.90	37.45
587.06	74.90
587.22	0.00
587.38	32.77
587.54	65.54
587.70	58.51
587.86	49.15
588.02	42.13
588.18	14.04
588.34	65.54
588.49	23.41
588.65	67.88
588.81	0.00
588.97	53.83
589.13	2.34
589.29	53.83
589.45	0.00
589.61	56.17
589.77	0.00
589.93	51.49
590.08	44.47
590.24	14.04
590.40	67.88
590.56	86.60
590.72	51.49
590.88	0.00
591.04	4.68
591.20	35.11
591.35	4.68
591.51	2.34
591.67	60.85
591.83	100.64
591.99	67.88
592.15	63.19
592.31	7.02
592.46	9.36
592.62	100.64
592.78	0.00
592.94	81.92
593.10	98.30
593.26	23.41
593.41	98.30
593.57	18.72
593.73	32.77
593.89	0.00
594.05	0.00
594.20	18.72
594.36	67.88
594.52	79.58
594.68	107.66
594.84	53.83
594.99	72.56
595.15	79.58
595.31	53.83
595.47	102.98
595.62	18.72
595.78	81.92
595.94	88.94
596.10	39.79
596.25	23.41
596.41	0.00
596.57	46.81
596.73	77.24
596.88	67.88
597.04	74.90
597.20	23.41
597.36	44.47
597.51	21.06
597.67	72.56
597.83	86.60
597.99	0.00
598.14	63.19
598.30	35.11
598.46	42.13
598.61	35.11
598.77	39.79
598.93	0.00
599.09	11.70
599.24	7.02
599.40	60.85
599.56	93.62
599.71	4.68
599.87	74.90
600.03	42.13
600.18	100.64
600.34	44.47
600.50	51.49
600.65	51.49
600.81	9.36
600.97	46.81
601.12	28.09
601.28	91.28
601.44	0.00
601.59	58.51
601.75	49.15
601.91	0.00
602.06	0.00
602.22	51.49
602.37	0.00
602.53	60.85
602.69	46.81
602.84	9.36
603.00	11.70
603.16	88.94
603.31	37.45
603.47	4.68
603.62	30.43
603.78	11.70
603.94	23.41
604.09	49.15
604.25	2.34
604.40	91.28
604.56	46.81
604.71	35.11
604.87	0.00
605.03	39.79
605.18	65.54
605.34	49.15
605.49	0.00
605.65	0.00
605.80	51.49
605.96	46.81
606.12	23.41
606.27	65.54
606.43	30.43
606.58	51.49
606.74	37.45
606.89	117.03
607.05	74.90
607.20	11.70
607.36	79.58
607.51	32.77
607.67	53.83
607.82	49.15
607.98	28.09
608.13	100.64
608.29	39.79
608.44	102.98
608.60	60.85
608.75	44.47
608.91	53.83
609.06	58.51
609.22	32.77
609.37	32.77
609.53	58.51
609.68	21.06
609.84	0.00
609.99	0.00
610.15	65.54
610.30	74.90
610.46	21.06
610.61	67.88
610.76	56.17
610.92	32.77
611.07	9.36
611.23	60.85
611.38	11.70
611.54	11.70
611.69	0.00
611.84	77.24
612.00	77.24
612.15	119.37
612.31	63.19
612.46	21.06
612.62	11.70
612.77	32.77
612.92	37.45
613.08	11.70
613.23	44.47
613.39	60.85
613.54	0.00
613.69	9.36
613.85	30.43
614.00	9.36
614.15	102.98
614.31	21.06
614.46	46.81
614.62	0.00
614.77	65.54
614.92	30.43
615.08	86.60
615.23	37.45
615.38	102.98
615.54	9.36
615.69	42.13
615.84	0.00
616.00	14.04
616.15	70.22
616.30	23.41
616.46	28.09
616.61	49.15
616.76	32.77
616.92	58.51
617.07	9.36
617.22	44.47
617.37	0.00
617.53	74.90
617.68	30.43
617.83	53.83
617.99	84.26
618.14	63.19
618.29	93.62
618.45	114.69
618.60	60.85
618.75	51.49
618.90	18.72
619.06	0.00
619.21	114.69
619.36	65.54
619.51	147.45
619.67	51.49
619.82	21.06
619.97	11.70
620.12	79.58
620.28	63.19
620.43	30.43
620.58	88.94
620.73	65.54
620.89	56.17
621.04	46.81
621.19	28.09
621.34	51.49
621.49	25.75
621.65	39.79
621.80	0.00
621.95	39.79
622.10	0.00
622.25	126.39
622.41	74.90
622.56	88.94
622.71	65.54
622.86	0.00
623.01	14.04
623.16	86.60
623.32	42.13
623.47	16.38
623.62	65.54
623.77	32.77
623.92	0.00
624.07	72.56
624.23	93.62
624.38	53.83
624.53	117.03
624.68	42.13
624.83	0.00
624.98	4.68
625.13	44.47
625.29	0.00
625.44	51.49
625.59	0.00
625.74	0.00
625.89	0.00
626.04	79.58
626.19	44.47
626.34	65.54
626.49	0.00
626.65	70.22
626.80	70.22
626.95	0.00
627.10	60.85
627.25	81.92
627.40	21.06
627.55	28.09
627.70	28.09
627.85	72.56
628.00	63.19
628.15	81.92
628.30	25.75
628.45	100.64
628.60	65.54
628.76	119.37
628.91	58.51
629.06	30.43
629.21	30.43
629.36	37.45
629.51	112.35
629.66	18.72
629.81	37.45
629.96	7.02
630.11	65.54
630.26	72.56
630.41	65.54
630.56	7.02
630.71	7.02
630.86	67.88
631.01	0.00
631.16	42.13
631.31	39.79
631.46	11.70
631.61	30.43
631.76	49.15
631.91	110.01
632.06	39.79
632.21	42.13
632.36	0.00
632.51	28.09
632.66	46.81
632.81	70.22
632.96	25.75
633.10	60.85
633.25	81.92
633.40	0.00
633.55	86.60
633.70	16.38
633.85	65.54
634.00	0.00
634.15	21.06
634.30	91.28
634.45	49.15
634.60	86.60
634.75	58.51
634.90	0.00
635.05	18.72
635.19	42.13
635.34	0.00
635.49	9.36
635.64	0.00
635.79	18.72
635.94	42.13
636.09	67.88
636.24	46.81
636.39	86.60
636.53	49.15
636.68	18.72
636.83	0.00
636.98	74.90
637.13	35.11
637.28	67.88
637.43	138.09
637.57	53.83
637.72	0.00
637.87	49.15
638.02	49.15
638.17	0.00
638.32	23.41
638.46	60.85
638.61	84.26
638.76	0.00
638.91	84.26
639.06	0.00
639.20	91.28
639.35	131.07
639.50	39.79
639.65	4.68
639.80	63.19
639.94	88.94
640.09	23.41
640.24	0.00
640.39	35.11
640.54	37.45
640.68	18.72
640.83	21.06
640.98	0.00
641.13	42.13
641.27	0.00
641.42	0.00
641.57	18.72
641.72	0.00
641.86	0.00
642.01	7.02
642.16	32.77
642.31	0.00
642.45	51.49
642.60	44.47
642.75	65.54
642.90	0.00
643.04	37.45
643.19	0.00
643.34	58.51
643.48	86.60
643.63	63.19
643.78	93.62
643.93	14.04
644.07	30.43
644.22	98.30
644.37	7.02
644.51	0.00
644.66	23.41
644.81	46.81
644.95	63.19
645.10	21.06
645.25	72.56
645.39	16.38
645.54	63.19
645.69	0.00
645.83	30.43
645.98	46.81
646.13	53.83
646.27	84.26
646.42	16.38
646.57	14.04
646.71	98.30
646.86	32.77
647.00	72.56
647.15	63.19
647.30	11.70
647.44	39.79
647.59	42.13
647.74	37.45
647.88	42.13
648.03	95.96
648.17	25.75
648.32	0.00
648.47	42.13
648.61	51.49
648.76	49.15
648.90	4.68
649.05	0.00
649.20	14.04
649.34	0.00
649.49	14.04
649.63	44.47
649.78	0.00
649.92	63.19
650.07	16.38
650.21	4.68
650.36	7.02
650.51	0.00
650.65	70.22
650.80	0.00
650.94	0.00
651.09	51.49
651.23	46.81
651.38	4.68
651.52	140.43
651.67	0.00
651.81	32.77
651.96	49.15
652.10	2.34
652.25	0.00
652.39	49.15
652.54	0.00
652.68	0.00
652.83	28.09
652.97	60.85
653.12	65.54
653.26	7.02
653.41	23.41
653.55	0.00
653.70	32.77
653.84	60.85
653.99	88.94
654.13	117.03
654.27	49.15
654.42	51.49
654.56	60.85
654.71	0.00
654.85	70.22
655.00	0.00
655.14	46.81
655.29	49.15
655.43	95.96
655.57	42.13
655.72	30.43
655.86	65.54
656.01	67.88
656.15	131.07
656.30	4.68
656.44	14.04
656.58	37.45
656.73	25.75
656.87	14.04
657.01	23.41
657.16	28.09
657.30	79.58
657.45	28.09
657.59	107.66
657.73	67.88
657.88	49.15
658.02	16.38
658.16	32.77
658.31	53.83
658.45	49.15
658.60	0.00
658.74	0.00
658.88	0.00
659.03	32.77
659.17	0.00
659.31	56.17
659.46	0.00
659.60	0.00
659.74	0.00
659.89	28.09
660.03	67.88
660.17	0.00
660.32	32.77
660.46	0.00
660.60	32.77
660.74	0.00
660.89	9.36
661.03	25.75
661.17	65.54
661.32	30.43
661.46	70.22
661.60	53.83
661.74	70.22
661.89	46.81
662.03	0.00
662.17	51.49
662.31	32.77
662.46	65.54
662.60	18.72
662.74	0.00
662.88	35.11
663.03	49.15
663.17	56.17
663.31	84.26
663.45	25.75
663.60	4.68
663.74	23.41
663.88	28.09
664.02	11.70
664.17	18.72
664.31	18.72
664.45	70.22
664.59	0.00
664.73	0.00
664.88	37.45
665.02	0.00
665.16	0.00
665.30	4.68
665.44	4.68
665.59	0.00
665.73	21.06
665.87	49.15
666.01	0.00
666.15	51.49
666.29	9.36
666.44	28.09
666.58	18.72
666.72	51.49
666.86	28.09
667.00	63.19
667.14	60.85
667.28	9.36
667.43	11.70
667.57	0.00
667.71	74.90
667.85	81.92
667.99	32.77
668.13	63.19
668.27	7.02
668.41	88.94
668.56	0.00
668.70	56.17
668.84	32.77
668.98	51.49
669.12	0.00
669.26	14.04
669.40	37.45
669.54	112.35
669.68	23.41
669.82	16.38
669.96	0.00
670.10	7.02
670.25	35.11
670.39	72.56
670.53	0.00
670.67	0.00
670.81	51.49
670.95	100.64
671.09	44.47
671.23	72.56
671.37	74.90
671.51	32.77
671.65	88.94
671.79	65.54
671.93	42.13
672.07	28.09
672.21	65.54
672.35	0.00
672.49	37.45
672.63	23.41
672.77	2.34
672.91	49.15
673.05	0.00
673.19	0.00
673.33	0.00
673.47	42.13
673.61	60.85
673.75	70.22
673.89	86.60
674.03	18.72
674.17	0.00
674.31	46.81
674.45	37.45
674.59	35.11
674.73	49.15
674.87	44.47
675.01	51.49
675.15	30.43
675.29	74.90
675.43	28.09
675.56	0.00
675.70	7.02
675.84	0.00
675.98	51.49
676.12	79.58
676.26	49.15
676.40	70.22
676.54	14.04
676.68	7.02
676.82	74.90
676.96	42.13
677.10	0.00
677.23	91.28
677.37	14.04
677.51	0.00
677.65	21.06
677.79	30.43
677.93	60.85
678.07	21.06
678.21	25.75
678.34	32.77
678.48	16.38
678.62	0.00
678.76	0.00
678.90	86.60
679.04	72.56
679.18	56.17
679.31	72.56
679.45	72.56
679.59	16.38
679.73	53.83
679.87	37.45
680.00	46.81
680.14	4.68
680.28	39.79
680.42	0.00
680.56	7.02
680.70	86.60
680.83	65.54
680.97	60.85
681.11	79.58
681.25	72.56
681.39	0.00
681.52	67.88
681.66	49.15
681.80	9.36
681.94	32.77
682.07	91.28
682.21	65.54
682.35	28.09
682.49	74.90
682.62	49.15
682.76	58.51
682.90	25.75
683.04	46.81
683.17	0.00
683.31	0.00
683.45	7.02
683.59	65.54
683.72	0.00
683.86	21.06
684.00	91.28
684.13	70.22
684.27	0.00
684.41	72.56
684.55	0.00
684.68	53.83
684.82	25.75
684.96	28.09
685.09	23.41
685.23	23.41
685.37	0.00
685.50	11.70
685.64	0.00
685.78	72.56
685.91	16.38
686.05	0.00
686.19	18.72
686.32	23.41
686.46	28.09
686.60	79.58
686.73	0.00
686.87	37.45
687.01	58.51
687.14	37.45
687.28	25.75
687.42	23.41
687.55	28.09
687.69	2.34
687.82	0.00
687.96	0.00
688.10	0.00
688.23	37.45
688.37	0.00
688.50	0.00
688.64	58.51
688.78	28.09
688.91	63.19
689.05	32.77
689.18	0.00
689.32	60.85
689.46	25.75
689.59	42.13
689.73	30.43
689.86	42.13
690.00	56.17
690.13	28.09
690.27	0.00
690.41	0.00
690.54	56.17
690.68	58.51
690.81	16.38
690.95	88.94
691.08	2.34
691.22	4.68
691.35	67.88
691.49	25.75
691.62	46.81
691.76	105.32
691.89	21.06
692.03	35.11
692.16	46.81
692.30	0.00
692.43	18.72
692.57	0.00
692.70	51.49
692.84	4.68
692.97	28.09
693.11	0.00
693.24	9.36
693.38	65.54
693.51	0.00
693.65	86.60
693.78	49.15
693.92	77.24
694.05	60.85
694.19	39.79
694.32	4.68
694.45	4.68
694.59	86.60
694.72	51.49
694.86	81.92
694.99	23.41
695.13	84.26
695.26	28.09
695.39	63.19
695.53	4.68
695.66	0.00
695.80	32.77
695.93	63.19
696.07	35.11
696.20	30.43
696.33	21.06
696.47	35.11
696.60	53.83
696.73	46.81
696.87	79.58
697.00	0.00
697.14	0.00
697.27	53.83
697.40	70.22
697.54	37.45
697.67	14.04
697.80	0.00
697.94	0.00
698.07	70.22
698.21	60.85
698.34	67.88
698.47	0.00
698.61	84.26
698.74	46.81
698.87	2.34
699.01	30.43
699.14	30.43
699.27	0.00
699.40	39.79
699.54	9.36
699.67	2.34
699.80	37.45
699.94	0.00
700.07	11.70
700.20	44.47
700.34	30.43
700.47	44.47
700.60	63.19
700.73	0.00
700.87	0.00
701.00	53.83
701.13	0.00
701.26	25.75
701.40	0.00
701.53	81.92
701.66	23.41
701.79	37.45
701.93	39.79
702.06	46.81
702.19	28.09
702.32	16.38
702.46	0.00
702.59	0.00
702.72	4.68
702.85	74.90
702.99	58.51
703.12	65.54
703.25	14.04
703.38	114.69
703.51	42.13
703.65	32.77
703.78	39.79
703.91	88.94
704.04	46.81
704.17	63.19
704.31	91.28
704.44	0.00
704.57	4.68
704.70	51.49
704.83	42.13
704.96	86.60
705.10	28.09
705.23	37.45
>>>>>End Processed Spectral Data<<<<<
