SpectraSuite Data File
++++++++++++++++++++++++++++++++++++
Date: Fri Oct 04 12:13:25 GMT-05:00 2013
User: price-jones
Dark Spectrum Present: No
Reference Spectrum Present: No
Number of Sampled Component Spectra: 1
Spectrometers: USB2+H05261
Integration Time (usec): 10000 (USB2+H05261)
Spectra Averaged: 1 (USB2+H05261)
Boxcar Smoothing: 0 (USB2+H05261)
Correct for Electrical Dark: No (USB2+H05261)
Strobe/Lamp Enabled: No (USB2+H05261)
Correct for Detector Non-linearity: No (USB2+H05261)
Correct for Stray Light: No (USB2+H05261)
Number of Pixels in Processed Spectrum: 2048
>>>>>Begin Processed Spectral Data<<<<<
365.73	11.70
365.92	11.70
366.12	11.70
366.32	0.00
366.52	0.00
366.72	0.00
366.91	0.00
367.11	0.00
367.31	0.00
367.51	0.00
367.70	0.00
367.90	0.00
368.10	0.00
368.30	0.00
368.49	0.00
368.69	0.00
368.89	0.00
369.09	0.00
369.28	0.00
369.48	0.00
369.68	0.00
369.87	0.00
370.07	0.00
370.27	0.00
370.47	0.00
370.66	0.00
370.86	0.00
371.06	0.00
371.25	32.77
371.45	0.00
371.65	0.00
371.84	0.00
372.04	0.00
372.24	0.00
372.44	0.00
372.63	0.00
372.83	39.79
373.03	0.00
373.22	0.00
373.42	4.68
373.62	18.72
373.81	0.00
374.01	56.17
374.21	65.54
374.40	79.58
374.60	35.11
374.79	79.58
374.99	14.04
375.19	23.41
375.38	14.04
375.58	44.47
375.78	51.49
375.97	51.49
376.17	14.04
376.37	16.38
376.56	63.19
376.76	46.81
376.95	4.68
377.15	30.43
377.35	49.15
377.54	121.71
377.74	32.77
377.93	16.38
378.13	35.11
378.33	4.68
378.52	30.43
378.72	14.04
378.91	0.00
379.11	0.00
379.31	42.13
379.50	21.06
379.70	16.38
379.89	16.38
380.09	44.47
380.28	0.00
380.48	37.45
380.68	4.68
380.87	74.90
381.07	79.58
381.26	0.00
381.46	0.00
381.65	35.11
381.85	0.00
382.04	32.77
382.24	0.00
382.43	0.00
382.63	0.00
382.83	0.00
383.02	0.00
383.22	21.06
383.41	72.56
383.61	93.62
383.80	0.00
384.00	0.00
384.19	2.34
384.39	49.15
384.58	42.13
384.78	67.88
384.97	39.79
385.17	16.38
385.36	7.02
385.56	0.00
385.75	67.88
385.95	14.04
386.14	0.00
386.34	0.00
386.53	32.77
386.72	9.36
386.92	7.02
387.11	0.00
387.31	0.00
387.50	0.00
387.70	0.00
387.89	21.06
388.09	39.79
388.28	49.15
388.48	0.00
388.67	0.00
388.86	11.70
389.06	0.00
389.25	0.00
389.45	2.34
389.64	7.02
389.84	23.41
390.03	0.00
390.22	0.00
390.42	0.00
390.61	42.13
390.81	23.41
391.00	0.00
391.19	0.00
391.39	56.17
391.58	25.75
391.78	0.00
391.97	0.00
392.16	11.70
392.36	28.09
392.55	2.34
392.75	4.68
392.94	0.00
393.13	21.06
393.33	0.00
393.52	14.04
393.71	35.11
393.91	16.38
394.10	44.47
394.29	0.00
394.49	44.47
394.68	23.41
394.88	0.00
395.07	0.00
395.26	18.72
395.46	65.54
395.65	42.13
395.84	0.00
396.04	9.36
396.23	25.75
396.42	35.11
396.62	0.00
396.81	35.11
397.00	46.81
397.19	28.09
397.39	30.43
397.58	0.00
397.77	0.00
397.97	7.02
398.16	30.43
398.35	0.00
398.55	49.15
398.74	63.19
398.93	18.72
399.12	0.00
399.32	0.00
399.51	18.72
399.70	77.24
399.90	84.26
400.09	0.00
400.28	0.00
400.47	51.49
400.67	14.04
400.86	67.88
401.05	51.49
401.24	32.77
401.44	35.11
401.63	63.19
401.82	46.81
402.01	32.77
402.21	0.00
402.40	30.43
402.59	35.11
402.78	14.04
402.97	28.09
403.17	0.00
403.36	58.51
403.55	35.11
403.74	21.06
403.93	23.41
404.13	81.92
404.32	0.00
404.51	60.85
404.70	58.51
404.89	0.00
405.09	0.00
405.28	53.83
405.47	0.00
405.66	23.41
405.85	21.06
406.05	0.00
406.24	30.43
406.43	30.43
406.62	35.11
406.81	0.00
407.00	39.79
407.20	0.00
407.39	25.75
407.58	49.15
407.77	46.81
407.96	32.77
408.15	0.00
408.34	0.00
408.54	0.00
408.73	60.85
408.92	21.06
409.11	98.30
409.30	105.32
409.49	67.88
409.68	74.90
409.87	58.51
410.07	42.13
410.26	84.26
410.45	0.00
410.64	16.38
410.83	0.00
411.02	0.00
411.21	42.13
411.40	0.00
411.59	44.47
411.78	2.34
411.98	0.00
412.17	0.00
412.36	53.83
412.55	25.75
412.74	0.00
412.93	0.00
413.12	0.00
413.31	0.00
413.50	0.00
413.69	0.00
413.88	0.00
414.07	11.70
414.26	0.00
414.45	23.41
414.64	7.02
414.83	67.88
415.02	65.54
415.22	25.75
415.41	72.56
415.60	67.88
415.79	46.81
415.98	44.47
416.17	0.00
416.36	72.56
416.55	25.75
416.74	84.26
416.93	0.00
417.12	25.75
417.31	28.09
417.50	9.36
417.69	70.22
417.88	0.00
418.07	11.70
418.26	23.41
418.45	56.17
418.64	4.68
418.83	14.04
419.02	49.15
419.21	91.28
419.39	72.56
419.58	11.70
419.77	14.04
419.96	9.36
420.15	32.77
420.34	60.85
420.53	14.04
420.72	32.77
420.91	63.19
421.10	0.00
421.29	0.00
421.48	46.81
421.67	0.00
421.86	77.24
422.05	0.00
422.24	0.00
422.43	0.00
422.61	0.00
422.80	49.15
422.99	37.45
423.18	0.00
423.37	0.00
423.56	30.43
423.75	0.00
423.94	46.81
424.13	30.43
424.32	30.43
424.50	37.45
424.69	65.54
424.88	0.00
425.07	0.00
425.26	11.70
425.45	7.02
425.64	18.72
425.83	53.83
426.01	42.13
426.20	0.00
426.39	30.43
426.58	11.70
426.77	65.54
426.96	74.90
427.15	4.68
427.33	0.00
427.52	37.45
427.71	0.00
427.90	14.04
428.09	0.00
428.28	37.45
428.46	30.43
428.65	86.60
428.84	0.00
429.03	91.28
429.22	56.17
429.40	67.88
429.59	25.75
429.78	35.11
429.97	0.00
430.16	86.60
430.34	25.75
430.53	25.75
430.72	0.00
430.91	44.47
431.10	70.22
431.28	93.62
431.47	53.83
431.66	32.77
431.85	7.02
432.03	56.17
432.22	0.00
432.41	4.68
432.60	0.00
432.79	30.43
432.97	81.92
433.16	28.09
433.35	32.77
433.54	91.28
433.72	35.11
433.91	37.45
434.10	65.54
434.28	51.49
434.47	0.00
434.66	65.54
434.85	0.00
435.03	100.64
435.22	44.47
435.41	74.90
435.59	14.04
435.78	32.77
435.97	0.00
436.16	60.85
436.34	21.06
436.53	11.70
436.72	0.00
436.90	2.34
437.09	81.92
437.28	46.81
437.46	91.28
437.65	58.51
437.84	0.00
438.02	74.90
438.21	93.62
438.40	7.02
438.58	11.70
438.77	53.83
438.96	18.72
439.14	32.77
439.33	0.00
439.52	0.00
439.70	0.00
439.89	56.17
440.08	18.72
440.26	60.85
440.45	0.00
440.63	16.38
440.82	0.00
441.01	21.06
441.19	25.75
441.38	39.79
441.57	14.04
441.75	25.75
441.94	30.43
442.12	51.49
442.31	4.68
442.50	0.00
442.68	4.68
442.87	0.00
443.05	0.00
443.24	0.00
443.43	4.68
443.61	63.19
443.80	4.68
443.98	77.24
444.17	0.00
444.35	7.02
444.54	2.34
444.73	77.24
444.91	42.13
445.10	46.81
445.28	11.70
445.47	0.00
445.65	23.41
445.84	117.03
446.02	0.00
446.21	25.75
446.39	0.00
446.58	56.17
446.77	28.09
446.95	58.51
447.14	11.70
447.32	121.71
447.51	23.41
447.69	0.00
447.88	18.72
448.06	0.00
448.25	14.04
448.43	86.60
448.62	46.81
448.80	56.17
448.99	42.13
449.17	23.41
449.36	84.26
449.54	9.36
449.73	32.77
449.91	0.00
450.10	32.77
450.28	51.49
450.46	21.06
450.65	25.75
450.83	16.38
451.02	30.43
451.20	88.94
451.39	81.92
451.57	25.75
451.76	81.92
451.94	0.00
452.13	46.81
452.31	60.85
452.49	21.06
452.68	42.13
452.86	98.30
453.05	18.72
453.23	53.83
453.42	0.00
453.60	28.09
453.78	42.13
453.97	7.02
454.15	65.54
454.34	0.00
454.52	32.77
454.70	35.11
454.89	81.92
455.07	21.06
455.26	49.15
455.44	14.04
455.62	23.41
455.81	0.00
455.99	37.45
456.17	16.38
456.36	72.56
456.54	39.79
456.73	37.45
456.91	37.45
457.09	63.19
457.28	14.04
457.46	0.00
457.64	100.64
457.83	25.75
458.01	18.72
458.19	7.02
458.38	16.38
458.56	7.02
458.74	16.38
458.93	124.05
459.11	4.68
459.29	21.06
459.48	0.00
459.66	79.58
459.84	11.70
460.03	51.49
460.21	0.00
460.39	25.75
460.57	51.49
460.76	37.45
460.94	79.58
461.12	14.04
461.31	21.06
461.49	77.24
461.67	51.49
461.85	32.77
462.04	0.00
462.22	23.41
462.40	53.83
462.59	28.09
462.77	0.00
462.95	25.75
463.13	0.00
463.32	16.38
463.50	2.34
463.68	67.88
463.86	86.60
464.05	72.56
464.23	30.43
464.41	67.88
464.59	25.75
464.78	51.49
464.96	18.72
465.14	53.83
465.32	98.30
465.50	84.26
465.69	100.64
465.87	56.17
466.05	0.00
466.23	74.90
466.41	25.75
466.60	0.00
466.78	42.13
466.96	30.43
467.14	51.49
467.32	16.38
467.51	46.81
467.69	60.85
467.87	44.47
468.05	0.00
468.23	70.22
468.41	32.77
468.60	32.77
468.78	16.38
468.96	74.90
469.14	39.79
469.32	28.09
469.50	107.66
469.69	114.69
469.87	11.70
470.05	51.49
470.23	21.06
470.41	28.09
470.59	9.36
470.77	0.00
470.95	9.36
471.14	25.75
471.32	39.79
471.50	105.32
471.68	23.41
471.86	65.54
472.04	0.00
472.22	0.00
472.40	35.11
472.58	77.24
472.77	121.71
472.95	44.47
473.13	30.43
473.31	0.00
473.49	67.88
473.67	0.00
473.85	49.15
474.03	2.34
474.21	0.00
474.39	14.04
474.57	60.85
474.75	35.11
474.93	4.68
475.12	14.04
475.30	39.79
475.48	46.81
475.66	86.60
475.84	37.45
476.02	46.81
476.20	21.06
476.38	32.77
476.56	149.79
476.74	63.19
476.92	0.00
477.10	9.36
477.28	4.68
477.46	11.70
477.64	11.70
477.82	42.13
478.00	0.00
478.18	7.02
478.36	53.83
478.54	28.09
478.72	0.00
478.90	0.00
479.08	53.83
479.26	37.45
479.44	56.17
479.62	28.09
479.80	72.56
479.98	63.19
480.16	14.04
480.34	0.00
480.52	37.45
480.70	49.15
480.88	23.41
481.06	79.58
481.24	58.51
481.41	0.00
481.59	25.75
481.77	100.64
481.95	0.00
482.13	25.75
482.31	32.77
482.49	0.00
482.67	56.17
482.85	46.81
483.03	60.85
483.21	79.58
483.39	0.00
483.57	0.00
483.74	25.75
483.92	58.51
484.10	46.81
484.28	18.72
484.46	0.00
484.64	0.00
484.82	0.00
485.00	65.54
485.18	42.13
485.35	32.77
485.53	0.00
485.71	25.75
485.89	105.32
486.07	2.34
486.25	86.60
486.43	46.81
486.61	44.47
486.78	28.09
486.96	23.41
487.14	16.38
487.32	0.00
487.50	51.49
487.68	46.81
487.85	42.13
488.03	0.00
488.21	42.13
488.39	81.92
488.57	28.09
488.75	65.54
488.92	112.35
489.10	46.81
489.28	0.00
489.46	53.83
489.64	4.68
489.81	37.45
489.99	49.15
490.17	65.54
490.35	84.26
490.53	58.51
490.70	9.36
490.88	23.41
491.06	11.70
491.24	18.72
491.41	98.30
491.59	21.06
491.77	44.47
491.95	53.83
492.13	0.00
492.30	42.13
492.48	46.81
492.66	21.06
492.84	11.70
493.01	77.24
493.19	23.41
493.37	32.77
493.54	86.60
493.72	65.54
493.90	39.79
494.08	25.75
494.25	42.13
494.43	0.00
494.61	14.04
494.79	0.00
494.96	51.49
495.14	53.83
495.32	67.88
495.49	74.90
495.67	0.00
495.85	60.85
496.02	49.15
496.20	49.15
496.38	32.77
496.55	77.24
496.73	105.32
496.91	0.00
497.09	0.00
497.26	58.51
497.44	25.75
497.62	14.04
497.79	105.32
497.97	49.15
498.14	32.77
498.32	35.11
498.50	79.58
498.67	4.68
498.85	0.00
499.03	65.54
499.20	46.81
499.38	14.04
499.56	42.13
499.73	56.17
499.91	65.54
500.08	58.51
500.26	72.56
500.44	14.04
500.61	0.00
500.79	51.49
500.97	102.98
501.14	65.54
501.32	65.54
501.49	30.43
501.67	65.54
501.84	16.38
502.02	16.38
502.20	0.00
502.37	74.90
502.55	121.71
502.72	18.72
502.90	44.47
503.07	0.00
503.25	67.88
503.43	32.77
503.60	67.88
503.78	56.17
503.95	39.79
504.13	63.19
504.30	42.13
504.48	42.13
504.65	0.00
504.83	16.38
505.01	74.90
505.18	60.85
505.36	0.00
505.53	0.00
505.71	0.00
505.88	2.34
506.06	42.13
506.23	14.04
506.41	9.36
506.58	0.00
506.76	91.28
506.93	30.43
507.11	21.06
507.28	95.96
507.46	56.17
507.63	39.79
507.81	32.77
507.98	16.38
508.16	18.72
508.33	49.15
508.50	0.00
508.68	37.45
508.85	49.15
509.03	37.45
509.20	72.56
509.38	16.38
509.55	44.47
509.73	0.00
509.90	39.79
510.08	39.79
510.25	7.02
510.42	2.34
510.60	9.36
510.77	46.81
510.95	44.47
511.12	117.03
511.30	23.41
511.47	67.88
511.64	72.56
511.82	58.51
511.99	0.00
512.17	95.96
512.34	16.38
512.51	84.26
512.69	77.24
512.86	49.15
513.04	9.36
513.21	0.00
513.38	28.09
513.56	0.00
513.73	79.58
513.90	37.45
514.08	58.51
514.25	51.49
514.43	91.28
514.60	0.00
514.77	28.09
514.95	30.43
515.12	11.70
515.29	86.60
515.47	32.77
515.64	56.17
515.81	53.83
515.99	42.13
516.16	32.77
516.33	0.00
516.51	72.56
516.68	51.49
516.85	51.49
517.03	16.38
517.20	25.75
517.37	37.45
517.54	42.13
517.72	65.54
517.89	93.62
518.06	39.79
518.24	53.83
518.41	56.17
518.58	65.54
518.75	56.17
518.93	65.54
519.10	0.00
519.27	77.24
519.45	39.79
519.62	37.45
519.79	49.15
519.96	32.77
520.14	114.69
520.31	21.06
520.48	65.54
520.65	60.85
520.83	56.17
521.00	49.15
521.17	46.81
521.34	0.00
521.52	58.51
521.69	93.62
521.86	86.60
522.03	39.79
522.20	39.79
522.38	74.90
522.55	0.00
522.72	23.41
522.89	79.58
523.07	28.09
523.24	0.00
523.41	51.49
523.58	49.15
523.75	60.85
523.92	44.47
524.10	0.00
524.27	49.15
524.44	0.00
524.61	72.56
524.78	84.26
524.96	72.56
525.13	58.51
525.30	7.02
525.47	0.00
525.64	0.00
525.81	88.94
525.98	102.98
526.16	35.11
526.33	0.00
526.50	67.88
526.67	2.34
526.84	72.56
527.01	28.09
527.18	0.00
527.36	21.06
527.53	0.00
527.70	14.04
527.87	107.66
528.04	63.19
528.21	49.15
528.38	0.00
528.55	0.00
528.72	37.45
528.89	4.68
529.07	56.17
529.24	39.79
529.41	30.43
529.58	56.17
529.75	56.17
529.92	44.47
530.09	37.45
530.26	21.06
530.43	35.11
530.60	25.75
530.77	0.00
530.94	23.41
531.11	37.45
531.28	72.56
531.46	74.90
531.63	88.94
531.80	35.11
531.97	70.22
532.14	18.72
532.31	58.51
532.48	44.47
532.65	91.28
532.82	0.00
532.99	56.17
533.16	39.79
533.33	100.64
533.50	49.15
533.67	4.68
533.84	0.00
534.01	58.51
534.18	58.51
534.35	0.00
534.52	23.41
534.69	60.85
534.86	16.38
535.03	11.70
535.20	0.00
535.37	0.00
535.54	86.60
535.71	37.45
535.88	117.03
536.05	110.01
536.22	86.60
536.38	30.43
536.55	60.85
536.72	39.79
536.89	81.92
537.06	84.26
537.23	0.00
537.40	84.26
537.57	28.09
537.74	39.79
537.91	70.22
538.08	28.09
538.25	18.72
538.42	30.43
538.59	107.66
538.75	58.51
538.92	74.90
539.09	51.49
539.26	53.83
539.43	63.19
539.60	28.09
539.77	51.49
539.94	28.09
540.11	63.19
540.28	23.41
540.44	30.43
540.61	25.75
540.78	0.00
540.95	128.73
541.12	46.81
541.29	102.98
541.46	46.81
541.62	28.09
541.79	86.60
541.96	16.38
542.13	18.72
542.30	0.00
542.47	0.00
542.63	7.02
542.80	7.02
542.97	56.17
543.14	49.15
543.31	46.81
543.48	2.34
543.64	30.43
543.81	42.13
543.98	37.45
544.15	0.00
544.32	0.00
544.48	46.81
544.65	37.45
544.82	21.06
544.99	23.41
545.16	28.09
545.32	14.04
545.49	84.26
545.66	63.19
545.83	46.81
546.00	91.28
546.16	2.34
546.33	74.90
546.50	70.22
546.67	28.09
546.83	84.26
547.00	37.45
547.17	112.35
547.34	4.68
547.50	0.00
547.67	9.36
547.84	0.00
548.00	81.92
548.17	67.88
548.34	39.79
548.51	49.15
548.67	23.41
548.84	53.83
549.01	70.22
549.18	32.77
549.34	98.30
549.51	46.81
549.68	131.07
549.84	81.92
550.01	42.13
550.18	30.43
550.34	98.30
550.51	77.24
550.68	39.79
550.84	86.60
551.01	42.13
551.18	81.92
551.34	74.90
551.51	84.26
551.68	28.09
551.84	133.41
552.01	35.11
552.18	16.38
552.34	25.75
552.51	39.79
552.68	0.00
552.84	30.43
553.01	30.43
553.18	53.83
553.34	37.45
553.51	0.00
553.67	110.01
553.84	77.24
554.01	11.70
554.17	95.96
554.34	65.54
554.51	60.85
554.67	63.19
554.84	25.75
555.00	11.70
555.17	42.13
555.33	51.49
555.50	67.88
555.67	21.06
555.83	30.43
556.00	81.92
556.16	147.45
556.33	37.45
556.50	23.41
556.66	0.00
556.83	0.00
556.99	91.28
557.16	70.22
557.32	35.11
557.49	7.02
557.65	46.81
557.82	53.83
557.98	67.88
558.15	81.92
558.32	16.38
558.48	102.98
558.65	72.56
558.81	58.51
558.98	91.28
559.14	49.15
559.31	58.51
559.47	58.51
559.64	79.58
559.80	14.04
559.97	2.34
560.13	70.22
560.30	0.00
560.46	79.58
560.63	0.00
560.79	77.24
560.96	72.56
561.12	11.70
561.29	65.54
561.45	9.36
561.61	44.47
561.78	23.41
561.94	119.37
562.11	63.19
562.27	0.00
562.44	42.13
562.60	70.22
562.77	30.43
562.93	4.68
563.10	35.11
563.26	121.71
563.42	28.09
563.59	23.41
563.75	18.72
563.92	16.38
564.08	117.03
564.24	18.72
564.41	9.36
564.57	74.90
564.74	100.64
564.90	32.77
565.07	42.13
565.23	14.04
565.39	0.00
565.56	49.15
565.72	67.88
565.88	58.51
566.05	28.09
566.21	30.43
566.38	102.98
566.54	28.09
566.70	37.45
566.87	16.38
567.03	9.36
567.19	4.68
567.36	0.00
567.52	9.36
567.68	63.19
567.85	30.43
568.01	21.06
568.17	37.45
568.34	51.49
568.50	0.00
568.66	70.22
568.83	67.88
568.99	0.00
569.15	53.83
569.32	58.51
569.48	0.00
569.64	35.11
569.81	86.60
569.97	74.90
570.13	0.00
570.30	14.04
570.46	65.54
570.62	9.36
570.78	35.11
570.95	58.51
571.11	110.01
571.27	37.45
571.43	44.47
571.60	60.85
571.76	65.54
571.92	14.04
572.09	79.58
572.25	46.81
572.41	53.83
572.57	14.04
572.74	60.85
572.90	98.30
573.06	67.88
573.22	53.83
573.38	56.17
573.55	105.32
573.71	30.43
573.87	81.92
574.03	0.00
574.20	16.38
574.36	58.51
574.52	18.72
574.68	18.72
574.84	0.00
575.01	39.79
575.17	67.88
575.33	46.81
575.49	0.00
575.65	77.24
575.82	37.45
575.98	35.11
576.14	0.00
576.30	2.34
576.46	72.56
576.62	7.02
576.79	30.43
576.95	46.81
577.11	14.04
577.27	21.06
577.43	91.28
577.59	4.68
577.75	0.00
577.92	35.11
578.08	98.30
578.24	77.24
578.40	46.81
578.56	21.06
578.72	84.26
578.88	9.36
579.04	21.06
579.21	7.02
579.37	39.79
579.53	44.47
579.69	60.85
579.85	119.37
580.01	93.62
580.17	81.92
580.33	128.73
580.49	63.19
580.65	51.49
580.82	0.00
580.98	32.77
581.14	63.19
581.30	86.60
581.46	70.22
581.62	56.17
581.78	11.70
581.94	44.47
582.10	53.83
582.26	9.36
582.42	2.34
582.58	23.41
582.74	11.70
582.90	44.47
583.06	63.19
583.22	58.51
583.38	88.94
583.54	14.04
583.70	84.26
583.86	46.81
584.02	0.00
584.18	51.49
584.34	126.39
584.50	110.01
584.66	0.00
584.82	35.11
584.98	0.00
585.14	23.41
585.30	7.02
585.46	25.75
585.62	65.54
585.78	21.06
585.94	105.32
586.10	74.90
586.26	46.81
586.42	0.00
586.58	65.54
586.74	46.81
586.90	79.58
587.06	23.41
587.22	44.47
587.38	39.79
587.54	51.49
587.70	30.43
587.86	42.13
588.02	16.38
588.18	107.66
588.34	0.00
588.49	46.81
588.65	49.15
588.81	42.13
588.97	65.54
589.13	18.72
589.29	0.00
589.45	0.00
589.61	0.00
589.77	0.00
589.93	0.00
590.08	21.06
590.24	49.15
590.40	0.00
590.56	23.41
590.72	65.54
590.88	4.68
591.04	2.34
591.20	65.54
591.35	0.00
591.51	4.68
591.67	95.96
591.83	11.70
591.99	39.79
592.15	63.19
592.31	11.70
592.46	67.88
592.62	93.62
592.78	32.77
592.94	72.56
593.10	51.49
593.26	0.00
593.41	0.00
593.57	14.04
593.73	63.19
593.89	4.68
594.05	72.56
594.20	81.92
594.36	60.85
594.52	72.56
594.68	74.90
594.84	63.19
594.99	0.00
595.15	9.36
595.31	9.36
595.47	58.51
595.62	74.90
595.78	0.00
595.94	56.17
596.10	65.54
596.25	18.72
596.41	0.00
596.57	58.51
596.73	30.43
596.88	100.64
597.04	46.81
597.20	42.13
597.36	49.15
597.51	37.45
597.67	0.00
597.83	30.43
597.99	74.90
598.14	91.28
598.30	128.73
598.46	70.22
598.61	86.60
598.77	0.00
598.93	39.79
599.09	60.85
599.24	63.19
599.40	91.28
599.56	58.51
599.71	51.49
599.87	0.00
600.03	0.00
600.18	28.09
600.34	37.45
600.50	51.49
600.65	63.19
600.81	100.64
600.97	7.02
601.12	121.71
601.28	4.68
601.44	35.11
601.59	100.64
601.75	77.24
601.91	0.00
602.06	37.45
602.22	0.00
602.37	0.00
602.53	35.11
602.69	42.13
602.84	23.41
603.00	16.38
603.16	11.70
603.31	4.68
603.47	51.49
603.62	25.75
603.78	46.81
603.94	30.43
604.09	14.04
604.25	37.45
604.40	7.02
604.56	60.85
604.71	28.09
604.87	0.00
605.03	0.00
605.18	23.41
605.34	14.04
605.49	53.83
605.65	53.83
605.80	0.00
605.96	0.00
606.12	142.77
606.27	35.11
606.43	32.77
606.58	67.88
606.74	7.02
606.89	28.09
607.05	0.00
607.20	37.45
607.36	37.45
607.51	30.43
607.67	14.04
607.82	23.41
607.98	138.09
608.13	0.00
608.29	86.60
608.44	7.02
608.60	4.68
608.75	0.00
608.91	37.45
609.06	77.24
609.22	0.00
609.37	23.41
609.53	65.54
609.68	4.68
609.84	58.51
609.99	77.24
610.15	18.72
610.30	84.26
610.46	42.13
610.61	98.30
610.76	65.54
610.92	126.39
611.07	0.00
611.23	65.54
611.38	30.43
611.54	0.00
611.69	14.04
611.84	56.17
612.00	81.92
612.15	44.47
612.31	18.72
612.46	65.54
612.62	98.30
612.77	46.81
612.92	0.00
613.08	70.22
613.23	46.81
613.39	63.19
613.54	11.70
613.69	70.22
613.85	9.36
614.00	60.85
614.15	72.56
614.31	2.34
614.46	21.06
614.62	35.11
614.77	18.72
614.92	11.70
615.08	37.45
615.23	39.79
615.38	124.05
615.54	14.04
615.69	0.00
615.84	35.11
616.00	56.17
616.15	51.49
616.30	86.60
616.46	0.00
616.61	42.13
616.76	14.04
616.92	46.81
617.07	16.38
617.22	79.58
617.37	44.47
617.53	25.75
617.68	32.77
617.83	0.00
617.99	42.13
618.14	49.15
618.29	81.92
618.45	88.94
618.60	28.09
618.75	9.36
618.90	0.00
619.06	9.36
619.21	39.79
619.36	77.24
619.51	44.47
619.67	0.00
619.82	86.60
619.97	16.38
620.12	56.17
620.28	84.26
620.43	37.45
620.58	39.79
620.73	72.56
620.89	67.88
621.04	11.70
621.19	86.60
621.34	18.72
621.49	30.43
621.65	72.56
621.80	77.24
621.95	35.11
622.10	0.00
622.25	14.04
622.41	60.85
622.56	70.22
622.71	86.60
622.86	0.00
623.01	4.68
623.16	0.00
623.32	112.35
623.47	65.54
623.62	53.83
623.77	16.38
623.92	67.88
624.07	42.13
624.23	95.96
624.38	65.54
624.53	60.85
624.68	0.00
624.83	0.00
624.98	0.00
625.13	32.77
625.29	25.75
625.44	0.00
625.59	65.54
625.74	2.34
625.89	16.38
626.04	77.24
626.19	21.06
626.34	86.60
626.49	100.64
626.65	86.60
626.80	58.51
626.95	119.37
627.10	18.72
627.25	110.01
627.40	60.85
627.55	23.41
627.70	37.45
627.85	42.13
628.00	2.34
628.15	0.00
628.30	11.70
628.45	53.83
628.60	42.13
628.76	67.88
628.91	95.96
629.06	25.75
629.21	2.34
629.36	86.60
629.51	16.38
629.66	28.09
629.81	77.24
629.96	2.34
630.11	58.51
630.26	32.77
630.41	0.00
630.56	0.00
630.71	98.30
630.86	4.68
631.01	42.13
631.16	37.45
631.31	0.00
631.46	4.68
631.61	77.24
631.76	49.15
631.91	49.15
632.06	28.09
632.21	16.38
632.36	93.62
632.51	11.70
632.66	0.00
632.81	84.26
632.96	35.11
633.10	170.86
633.25	77.24
633.40	11.70
633.55	0.00
633.70	110.01
633.85	98.30
634.00	4.68
634.15	100.64
634.30	79.58
634.45	58.51
634.60	0.00
634.75	0.00
634.90	39.79
635.05	84.26
635.19	93.62
635.34	37.45
635.49	60.85
635.64	0.00
635.79	56.17
635.94	65.54
636.09	44.47
636.24	65.54
636.39	0.00
636.53	91.28
636.68	30.43
636.83	2.34
636.98	77.24
637.13	49.15
637.28	65.54
637.43	0.00
637.57	0.00
637.72	46.81
637.87	28.09
638.02	0.00
638.17	74.90
638.32	74.90
638.46	51.49
638.61	21.06
638.76	14.04
638.91	7.02
639.06	58.51
639.20	67.88
639.35	11.70
639.50	98.30
639.65	0.00
639.80	0.00
639.94	7.02
640.09	30.43
640.24	46.81
640.39	124.05
640.54	72.56
640.68	84.26
640.83	63.19
640.98	0.00
641.13	0.00
641.27	0.00
641.42	39.79
641.57	60.85
641.72	0.00
641.86	2.34
642.01	37.45
642.16	28.09
642.31	2.34
642.45	18.72
642.60	35.11
642.75	72.56
642.90	0.00
643.04	16.38
643.19	0.00
643.34	0.00
643.48	44.47
643.63	67.88
643.78	70.22
643.93	32.77
644.07	44.47
644.22	0.00
644.37	18.72
644.51	98.30
644.66	0.00
644.81	65.54
644.95	2.34
645.10	42.13
645.25	25.75
645.39	21.06
645.54	11.70
645.69	65.54
645.83	46.81
645.98	35.11
646.13	30.43
646.27	56.17
646.42	0.00
646.57	53.83
646.71	49.15
646.86	124.05
647.00	9.36
647.15	21.06
647.30	0.00
647.44	42.13
647.59	7.02
647.74	53.83
647.88	86.60
648.03	142.77
648.17	51.49
648.32	0.00
648.47	49.15
648.61	63.19
648.76	0.00
648.90	107.66
649.05	0.00
649.20	51.49
649.34	53.83
649.49	35.11
649.63	65.54
649.78	25.75
649.92	23.41
650.07	102.98
650.21	28.09
650.36	49.15
650.51	30.43
650.65	70.22
650.80	16.38
650.94	18.72
651.09	35.11
651.23	51.49
651.38	28.09
651.52	23.41
651.67	7.02
651.81	86.60
651.96	77.24
652.10	88.94
652.25	56.17
652.39	37.45
652.54	11.70
652.68	0.00
652.83	4.68
652.97	23.41
653.12	65.54
653.26	11.70
653.41	11.70
653.55	9.36
653.70	16.38
653.84	0.00
653.99	0.00
654.13	14.04
654.27	9.36
654.42	44.47
654.56	63.19
654.71	0.00
654.85	2.34
655.00	124.05
655.14	72.56
655.29	46.81
655.43	93.62
655.57	0.00
655.72	56.17
655.86	35.11
656.01	51.49
656.15	77.24
656.30	88.94
656.44	37.45
656.58	58.51
656.73	32.77
656.87	32.77
657.01	23.41
657.16	58.51
657.30	35.11
657.45	39.79
657.59	0.00
657.73	51.49
657.88	14.04
658.02	135.75
658.16	0.00
658.31	7.02
658.45	58.51
658.60	46.81
658.74	58.51
658.88	53.83
659.03	46.81
659.17	18.72
659.31	4.68
659.46	0.00
659.60	65.54
659.74	84.26
659.89	9.36
660.03	60.85
660.17	51.49
660.32	39.79
660.46	98.30
660.60	21.06
660.74	117.03
660.89	51.49
661.03	135.75
661.17	9.36
661.32	0.00
661.46	21.06
661.60	30.43
661.74	30.43
661.89	39.79
662.03	67.88
662.17	49.15
662.31	23.41
662.46	39.79
662.60	23.41
662.74	21.06
662.88	37.45
663.03	2.34
663.17	46.81
663.31	23.41
663.45	49.15
663.60	51.49
663.74	0.00
663.88	42.13
664.02	11.70
664.17	0.00
664.31	60.85
664.45	79.58
664.59	11.70
664.73	42.13
664.88	32.77
665.02	0.00
665.16	86.60
665.30	67.88
665.44	23.41
665.59	28.09
665.73	53.83
665.87	58.51
666.01	65.54
666.15	2.34
666.29	84.26
666.44	56.17
666.58	25.75
666.72	65.54
666.86	0.00
667.00	37.45
667.14	51.49
667.28	0.00
667.43	70.22
667.57	86.60
667.71	91.28
667.85	58.51
667.99	63.19
668.13	21.06
668.27	56.17
668.41	30.43
668.56	11.70
668.70	28.09
668.84	70.22
668.98	60.85
669.12	9.36
669.26	67.88
669.40	32.77
669.54	30.43
669.68	18.72
669.82	35.11
669.96	21.06
670.10	2.34
670.25	7.02
670.39	28.09
670.53	93.62
670.67	110.01
670.81	0.00
670.95	93.62
671.09	0.00
671.23	0.00
671.37	11.70
671.51	0.00
671.65	32.77
671.79	2.34
671.93	32.77
672.07	9.36
672.21	0.00
672.35	25.75
672.49	37.45
672.63	95.96
672.77	9.36
672.91	23.41
673.05	58.51
673.19	14.04
673.33	21.06
673.47	86.60
673.61	0.00
673.75	0.00
673.89	65.54
674.03	39.79
674.17	21.06
674.31	18.72
674.45	0.00
674.59	0.00
674.73	18.72
674.87	21.06
675.01	0.00
675.15	95.96
675.29	84.26
675.43	0.00
675.56	11.70
675.70	9.36
675.84	35.11
675.98	58.51
676.12	74.90
676.26	23.41
676.40	16.38
676.54	0.00
676.68	74.90
676.82	30.43
676.96	53.83
677.10	28.09
677.23	46.81
677.37	4.68
677.51	18.72
677.65	67.88
677.79	42.13
677.93	154.48
678.07	23.41
678.21	60.85
678.34	56.17
678.48	23.41
678.62	44.47
678.76	0.00
678.90	37.45
679.04	0.00
679.18	93.62
679.31	28.09
679.45	46.81
679.59	0.00
679.73	25.75
679.87	53.83
680.00	21.06
680.14	91.28
680.28	9.36
680.42	23.41
680.56	0.00
680.70	37.45
680.83	0.00
680.97	0.00
681.11	25.75
681.25	91.28
681.39	65.54
681.52	30.43
681.66	77.24
681.80	0.00
681.94	0.00
682.07	0.00
682.21	32.77
682.35	0.00
682.49	9.36
682.62	91.28
682.76	42.13
682.90	35.11
683.04	56.17
683.17	91.28
683.31	60.85
683.45	32.77
683.59	56.17
683.72	28.09
683.86	32.77
684.00	7.02
684.13	28.09
684.27	35.11
684.41	0.00
684.55	131.07
684.68	4.68
684.82	28.09
684.96	11.70
685.09	63.19
685.23	0.00
685.37	0.00
685.50	11.70
685.64	81.92
685.78	53.83
685.91	0.00
686.05	84.26
686.19	28.09
686.32	117.03
686.46	0.00
686.60	0.00
686.73	58.51
686.87	0.00
687.01	0.00
687.14	63.19
687.28	2.34
687.42	7.02
687.55	65.54
687.69	56.17
687.82	23.41
687.96	72.56
688.10	42.13
688.23	23.41
688.37	30.43
688.50	30.43
688.64	56.17
688.78	44.47
688.91	0.00
689.05	0.00
689.18	0.00
689.32	4.68
689.46	0.00
689.59	91.28
689.73	0.00
689.86	91.28
690.00	11.70
690.13	77.24
690.27	32.77
690.41	110.01
690.54	110.01
690.68	7.02
690.81	9.36
690.95	30.43
691.08	42.13
691.22	42.13
691.35	58.51
691.49	28.09
691.62	35.11
691.76	49.15
691.89	81.92
692.03	28.09
692.16	16.38
692.30	51.49
692.43	18.72
692.57	32.77
692.70	32.77
692.84	0.00
692.97	21.06
693.11	63.19
693.24	44.47
693.38	126.39
693.51	42.13
693.65	107.66
693.78	21.06
693.92	37.45
694.05	9.36
694.19	0.00
694.32	67.88
694.45	28.09
694.59	16.38
694.72	21.06
694.86	23.41
694.99	2.34
695.13	0.00
695.26	32.77
695.39	49.15
695.53	51.49
695.66	23.41
695.80	67.88
695.93	18.72
696.07	44.47
696.20	7.02
696.33	0.00
696.47	14.04
696.60	93.62
696.73	0.00
696.87	9.36
697.00	56.17
697.14	0.00
697.27	49.15
697.40	56.17
697.54	72.56
697.67	0.00
697.80	2.34
697.94	32.77
698.07	0.00
698.21	23.41
698.34	35.11
698.47	0.00
698.61	0.00
698.74	117.03
698.87	51.49
699.01	0.00
699.14	25.75
699.27	28.09
699.40	39.79
699.54	114.69
699.67	4.68
699.80	30.43
699.94	39.79
700.07	58.51
700.20	11.70
700.34	0.00
700.47	60.85
700.60	11.70
700.73	42.13
700.87	49.15
701.00	25.75
701.13	0.00
701.26	65.54
701.40	63.19
701.53	110.01
701.66	0.00
701.79	0.00
701.93	49.15
702.06	107.66
702.19	25.75
702.32	25.75
702.46	23.41
702.59	70.22
702.72	23.41
702.85	0.00
702.99	0.00
703.12	51.49
703.25	7.02
703.38	32.77
703.51	21.06
703.65	81.92
703.78	0.00
703.91	84.26
704.04	72.56
704.17	0.00
704.31	65.54
704.44	0.00
704.57	35.11
704.70	51.49
704.83	72.56
704.96	11.70
705.10	0.00
705.23	25.75
>>>>>End Processed Spectral Data<<<<<
