SpectraSuite Data File
++++++++++++++++++++++++++++++++++++
Date: Fri Oct 04 12:13:33 GMT-05:00 2013
User: price-jones
Dark Spectrum Present: No
Reference Spectrum Present: No
Number of Sampled Component Spectra: 1
Spectrometers: USB2+H05261
Integration Time (usec): 10000 (USB2+H05261)
Spectra Averaged: 1 (USB2+H05261)
Boxcar Smoothing: 0 (USB2+H05261)
Correct for Electrical Dark: No (USB2+H05261)
Strobe/Lamp Enabled: No (USB2+H05261)
Correct for Detector Non-linearity: No (USB2+H05261)
Correct for Stray Light: No (USB2+H05261)
Number of Pixels in Processed Spectrum: 2048
>>>>>Begin Processed Spectral Data<<<<<
365.73	91.28
365.92	91.28
366.12	91.28
366.32	0.00
366.52	0.00
366.72	0.00
366.91	0.00
367.11	0.00
367.31	0.00
367.51	0.00
367.70	0.00
367.90	0.00
368.10	0.00
368.30	0.00
368.49	0.00
368.69	0.00
368.89	0.00
369.09	0.00
369.28	0.00
369.48	0.00
369.68	0.00
369.87	0.00
370.07	0.00
370.27	0.00
370.47	0.00
370.66	0.00
370.86	0.00
371.06	14.04
371.25	0.00
371.45	9.36
371.65	28.09
371.84	0.00
372.04	0.00
372.24	14.04
372.44	58.51
372.63	4.68
372.83	23.41
373.03	72.56
373.22	21.06
373.42	0.00
373.62	18.72
373.81	67.88
374.01	124.05
374.21	102.98
374.40	98.30
374.60	25.75
374.79	42.13
374.99	44.47
375.19	18.72
375.38	58.51
375.58	21.06
375.78	42.13
375.97	56.17
376.17	60.85
376.37	72.56
376.56	25.75
376.76	0.00
376.95	9.36
377.15	67.88
377.35	18.72
377.54	0.00
377.74	0.00
377.93	16.38
378.13	79.58
378.33	30.43
378.52	39.79
378.72	53.83
378.91	95.96
379.11	51.49
379.31	49.15
379.50	60.85
379.70	11.70
379.89	42.13
380.09	37.45
380.28	0.00
380.48	110.01
380.68	0.00
380.87	46.81
381.07	37.45
381.26	0.00
381.46	37.45
381.65	0.00
381.85	0.00
382.04	0.00
382.24	35.11
382.43	21.06
382.63	21.06
382.83	49.15
383.02	4.68
383.22	51.49
383.41	49.15
383.61	0.00
383.80	0.00
384.00	56.17
384.19	23.41
384.39	63.19
384.58	2.34
384.78	128.73
384.97	79.58
385.17	42.13
385.36	0.00
385.56	0.00
385.75	4.68
385.95	30.43
386.14	0.00
386.34	0.00
386.53	56.17
386.72	7.02
386.92	0.00
387.11	23.41
387.31	0.00
387.50	0.00
387.70	53.83
387.89	28.09
388.09	60.85
388.28	25.75
388.48	14.04
388.67	0.00
388.86	21.06
389.06	53.83
389.25	0.00
389.45	11.70
389.64	25.75
389.84	53.83
390.03	81.92
390.22	18.72
390.42	25.75
390.61	0.00
390.81	11.70
391.00	53.83
391.19	0.00
391.39	7.02
391.58	16.38
391.78	0.00
391.97	44.47
392.16	0.00
392.36	79.58
392.55	0.00
392.75	21.06
392.94	72.56
393.13	0.00
393.33	0.00
393.52	0.00
393.71	0.00
393.91	37.45
394.10	70.22
394.29	0.00
394.49	42.13
394.68	32.77
394.88	37.45
395.07	0.00
395.26	25.75
395.46	67.88
395.65	74.90
395.84	46.81
396.04	84.26
396.23	46.81
396.42	0.00
396.62	49.15
396.81	63.19
397.00	72.56
397.19	18.72
397.39	77.24
397.58	2.34
397.77	0.00
397.97	28.09
398.16	14.04
398.35	28.09
398.55	0.00
398.74	42.13
398.93	51.49
399.12	21.06
399.32	23.41
399.51	30.43
399.70	46.81
399.90	60.85
400.09	46.81
400.28	30.43
400.47	0.00
400.67	28.09
400.86	46.81
401.05	18.72
401.24	100.64
401.44	28.09
401.63	23.41
401.82	39.79
402.01	21.06
402.21	28.09
402.40	51.49
402.59	7.02
402.78	28.09
402.97	0.00
403.17	35.11
403.36	14.04
403.55	2.34
403.74	0.00
403.93	14.04
404.13	0.00
404.32	0.00
404.51	0.00
404.70	37.45
404.89	9.36
405.09	0.00
405.28	32.77
405.47	46.81
405.66	84.26
405.85	42.13
406.05	56.17
406.24	0.00
406.43	86.60
406.62	0.00
406.81	2.34
407.00	46.81
407.20	23.41
407.39	0.00
407.58	4.68
407.77	42.13
407.96	0.00
408.15	107.66
408.34	4.68
408.54	14.04
408.73	0.00
408.92	35.11
409.11	7.02
409.30	0.00
409.49	42.13
409.68	0.00
409.87	11.70
410.07	0.00
410.26	46.81
410.45	60.85
410.64	44.47
410.83	42.13
411.02	0.00
411.21	9.36
411.40	9.36
411.59	14.04
411.78	0.00
411.98	32.77
412.17	7.02
412.36	37.45
412.55	51.49
412.74	9.36
412.93	0.00
413.12	23.41
413.31	0.00
413.50	35.11
413.69	30.43
413.88	88.94
414.07	0.00
414.26	14.04
414.45	44.47
414.64	0.00
414.83	84.26
415.02	14.04
415.22	0.00
415.41	23.41
415.60	37.45
415.79	0.00
415.98	79.58
416.17	95.96
416.36	44.47
416.55	30.43
416.74	42.13
416.93	11.70
417.12	0.00
417.31	0.00
417.50	0.00
417.69	0.00
417.88	53.83
418.07	81.92
418.26	72.56
418.45	35.11
418.64	28.09
418.83	81.92
419.02	0.00
419.21	16.38
419.39	4.68
419.58	95.96
419.77	18.72
419.96	9.36
420.15	0.00
420.34	0.00
420.53	9.36
420.72	18.72
420.91	0.00
421.10	0.00
421.29	46.81
421.48	81.92
421.67	32.77
421.86	14.04
422.05	2.34
422.24	23.41
422.43	42.13
422.61	0.00
422.80	0.00
422.99	0.00
423.18	32.77
423.37	23.41
423.56	9.36
423.75	16.38
423.94	32.77
424.13	30.43
424.32	79.58
424.50	49.15
424.69	114.69
424.88	42.13
425.07	39.79
425.26	0.00
425.45	88.94
425.64	4.68
425.83	0.00
426.01	0.00
426.20	0.00
426.39	0.00
426.58	18.72
426.77	37.45
426.96	23.41
427.15	98.30
427.33	49.15
427.52	114.69
427.71	9.36
427.90	0.00
428.09	0.00
428.28	49.15
428.46	63.19
428.65	0.00
428.84	25.75
429.03	14.04
429.22	9.36
429.40	46.81
429.59	51.49
429.78	32.77
429.97	51.49
430.16	72.56
430.34	35.11
430.53	21.06
430.72	70.22
430.91	39.79
431.10	0.00
431.28	16.38
431.47	44.47
431.66	42.13
431.85	21.06
432.03	79.58
432.22	16.38
432.41	72.56
432.60	16.38
432.79	0.00
432.97	11.70
433.16	35.11
433.35	7.02
433.54	14.04
433.72	44.47
433.91	95.96
434.10	25.75
434.28	7.02
434.47	4.68
434.66	9.36
434.85	49.15
435.03	0.00
435.22	72.56
435.41	0.00
435.59	28.09
435.78	23.41
435.97	0.00
436.16	0.00
436.34	0.00
436.53	95.96
436.72	88.94
436.90	28.09
437.09	72.56
437.28	58.51
437.46	9.36
437.65	11.70
437.84	53.83
438.02	60.85
438.21	21.06
438.40	65.54
438.58	84.26
438.77	14.04
438.96	16.38
439.14	0.00
439.33	114.69
439.52	0.00
439.70	0.00
439.89	0.00
440.08	28.09
440.26	25.75
440.45	77.24
440.63	74.90
440.82	84.26
441.01	18.72
441.19	25.75
441.38	30.43
441.57	30.43
441.75	9.36
441.94	0.00
442.12	42.13
442.31	0.00
442.50	16.38
442.68	7.02
442.87	4.68
443.05	67.88
443.24	0.00
443.43	28.09
443.61	9.36
443.80	30.43
443.98	30.43
444.17	25.75
444.35	23.41
444.54	53.83
444.73	51.49
444.91	0.00
445.10	30.43
445.28	30.43
445.47	16.38
445.65	0.00
445.84	58.51
446.02	0.00
446.21	25.75
446.39	28.09
446.58	74.90
446.77	32.77
446.95	0.00
447.14	49.15
447.32	88.94
447.51	7.02
447.69	0.00
447.88	14.04
448.06	98.30
448.25	35.11
448.43	25.75
448.62	67.88
448.80	53.83
448.99	18.72
449.17	51.49
449.36	53.83
449.54	49.15
449.73	14.04
449.91	28.09
450.10	60.85
450.28	42.13
450.46	39.79
450.65	0.00
450.83	21.06
451.02	35.11
451.20	25.75
451.39	58.51
451.57	11.70
451.76	4.68
451.94	11.70
452.13	42.13
452.31	77.24
452.49	53.83
452.68	18.72
452.86	7.02
453.05	0.00
453.23	23.41
453.42	9.36
453.60	0.00
453.78	30.43
453.97	18.72
454.15	18.72
454.34	102.98
454.52	37.45
454.70	4.68
454.89	77.24
455.07	84.26
455.26	35.11
455.44	0.00
455.62	0.00
455.81	0.00
455.99	46.81
456.17	51.49
456.36	23.41
456.54	0.00
456.73	70.22
456.91	72.56
457.09	37.45
457.28	63.19
457.46	0.00
457.64	16.38
457.83	30.43
458.01	42.13
458.19	4.68
458.38	0.00
458.56	42.13
458.74	65.54
458.93	0.00
459.11	7.02
459.29	46.81
459.48	77.24
459.66	9.36
459.84	37.45
460.03	0.00
460.21	14.04
460.39	0.00
460.57	35.11
460.76	14.04
460.94	60.85
461.12	44.47
461.31	0.00
461.49	21.06
461.67	7.02
461.85	18.72
462.04	23.41
462.22	56.17
462.40	39.79
462.59	14.04
462.77	2.34
462.95	39.79
463.13	0.00
463.32	79.58
463.50	4.68
463.68	7.02
463.86	51.49
464.05	0.00
464.23	37.45
464.41	58.51
464.59	46.81
464.78	2.34
464.96	0.00
465.14	63.19
465.32	4.68
465.50	51.49
465.69	0.00
465.87	0.00
466.05	86.60
466.23	4.68
466.41	0.00
466.60	0.00
466.78	44.47
466.96	16.38
467.14	63.19
467.32	121.71
467.51	39.79
467.69	0.00
467.87	100.64
468.05	63.19
468.23	0.00
468.41	0.00
468.60	7.02
468.78	74.90
468.96	0.00
469.14	25.75
469.32	14.04
469.50	37.45
469.69	21.06
469.87	9.36
470.05	39.79
470.23	100.64
470.41	98.30
470.59	0.00
470.77	16.38
470.95	4.68
471.14	95.96
471.32	35.11
471.50	0.00
471.68	74.90
471.86	72.56
472.04	28.09
472.22	32.77
472.40	0.00
472.58	51.49
472.77	0.00
472.95	9.36
473.13	77.24
473.31	49.15
473.49	84.26
473.67	32.77
473.85	0.00
474.03	60.85
474.21	25.75
474.39	84.26
474.57	79.58
474.75	37.45
474.93	39.79
475.12	98.30
475.30	65.54
475.48	74.90
475.66	7.02
475.84	86.60
476.02	117.03
476.20	74.90
476.38	35.11
476.56	79.58
476.74	2.34
476.92	51.49
477.10	53.83
477.28	79.58
477.46	4.68
477.64	72.56
477.82	0.00
478.00	53.83
478.18	23.41
478.36	25.75
478.54	86.60
478.72	72.56
478.90	30.43
479.08	44.47
479.26	72.56
479.44	0.00
479.62	0.00
479.80	0.00
479.98	0.00
480.16	56.17
480.34	65.54
480.52	46.81
480.70	77.24
480.88	18.72
481.06	7.02
481.24	0.00
481.41	77.24
481.59	49.15
481.77	32.77
481.95	72.56
482.13	72.56
482.31	2.34
482.49	81.92
482.67	0.00
482.85	0.00
483.03	28.09
483.21	0.00
483.39	16.38
483.57	0.00
483.74	74.90
483.92	56.17
484.10	65.54
484.28	44.47
484.46	112.35
484.64	63.19
484.82	49.15
485.00	67.88
485.18	32.77
485.35	67.88
485.53	30.43
485.71	4.68
485.89	4.68
486.07	0.00
486.25	11.70
486.43	0.00
486.61	0.00
486.78	25.75
486.96	7.02
487.14	9.36
487.32	9.36
487.50	49.15
487.68	56.17
487.85	39.79
488.03	49.15
488.21	65.54
488.39	56.17
488.57	72.56
488.75	53.83
488.92	65.54
489.10	30.43
489.28	56.17
489.46	30.43
489.64	25.75
489.81	37.45
489.99	37.45
490.17	0.00
490.35	72.56
490.53	14.04
490.70	0.00
490.88	2.34
491.06	9.36
491.24	0.00
491.41	2.34
491.59	91.28
491.77	53.83
491.95	0.00
492.13	32.77
492.30	30.43
492.48	25.75
492.66	135.75
492.84	74.90
493.01	53.83
493.19	28.09
493.37	65.54
493.54	39.79
493.72	81.92
493.90	58.51
494.08	53.83
494.25	49.15
494.43	0.00
494.61	53.83
494.79	11.70
494.96	91.28
495.14	28.09
495.32	25.75
495.49	30.43
495.67	56.17
495.85	0.00
496.02	72.56
496.20	32.77
496.38	67.88
496.55	112.35
496.73	121.71
496.91	25.75
497.09	14.04
497.26	18.72
497.44	35.11
497.62	67.88
497.79	53.83
497.97	79.58
498.14	49.15
498.32	0.00
498.50	0.00
498.67	0.00
498.85	28.09
499.03	9.36
499.20	42.13
499.38	42.13
499.56	28.09
499.73	70.22
499.91	9.36
500.08	84.26
500.26	30.43
500.44	44.47
500.61	0.00
500.79	0.00
500.97	107.66
501.14	51.49
501.32	37.45
501.49	14.04
501.67	60.85
501.84	2.34
502.02	42.13
502.20	51.49
502.37	77.24
502.55	14.04
502.72	21.06
502.90	28.09
503.07	100.64
503.25	95.96
503.43	28.09
503.60	105.32
503.78	84.26
503.95	65.54
504.13	67.88
504.30	63.19
504.48	77.24
504.65	44.47
504.83	37.45
505.01	23.41
505.18	42.13
505.36	0.00
505.53	42.13
505.71	72.56
505.88	0.00
506.06	126.39
506.23	0.00
506.41	70.22
506.58	65.54
506.76	117.03
506.93	65.54
507.11	9.36
507.28	58.51
507.46	72.56
507.63	60.85
507.81	58.51
507.98	37.45
508.16	105.32
508.33	77.24
508.50	70.22
508.68	121.71
508.85	2.34
509.03	0.00
509.20	72.56
509.38	74.90
509.55	23.41
509.73	4.68
509.90	25.75
510.08	77.24
510.25	23.41
510.42	91.28
510.60	4.68
510.77	53.83
510.95	0.00
511.12	0.00
511.30	42.13
511.47	0.00
511.64	51.49
511.82	51.49
511.99	42.13
512.17	37.45
512.34	32.77
512.51	42.13
512.69	44.47
512.86	35.11
513.04	0.00
513.21	0.00
513.38	0.00
513.56	30.43
513.73	46.81
513.90	74.90
514.08	0.00
514.25	51.49
514.43	49.15
514.60	46.81
514.77	56.17
514.95	79.58
515.12	0.00
515.29	79.58
515.47	16.38
515.64	84.26
515.81	67.88
515.99	65.54
516.16	63.19
516.33	49.15
516.51	14.04
516.68	138.09
516.85	0.00
517.03	100.64
517.20	23.41
517.37	65.54
517.54	67.88
517.72	0.00
517.89	16.38
518.06	2.34
518.24	18.72
518.41	74.90
518.58	63.19
518.75	0.00
518.93	9.36
519.10	25.75
519.27	0.00
519.45	51.49
519.62	58.51
519.79	42.13
519.96	0.00
520.14	4.68
520.31	11.70
520.48	7.02
520.65	28.09
520.83	53.83
521.00	18.72
521.17	25.75
521.34	58.51
521.52	14.04
521.69	11.70
521.86	58.51
522.03	63.19
522.20	18.72
522.38	32.77
522.55	121.71
522.72	39.79
522.89	60.85
523.07	14.04
523.24	0.00
523.41	35.11
523.58	39.79
523.75	42.13
523.92	74.90
524.10	0.00
524.27	7.02
524.44	30.43
524.61	18.72
524.78	119.37
524.96	65.54
525.13	28.09
525.30	14.04
525.47	65.54
525.64	84.26
525.81	21.06
525.98	37.45
526.16	70.22
526.33	102.98
526.50	95.96
526.67	0.00
526.84	37.45
527.01	2.34
527.18	49.15
527.36	79.58
527.53	42.13
527.70	30.43
527.87	72.56
528.04	84.26
528.21	79.58
528.38	72.56
528.55	58.51
528.72	117.03
528.89	72.56
529.07	32.77
529.24	25.75
529.41	23.41
529.58	35.11
529.75	37.45
529.92	18.72
530.09	39.79
530.26	74.90
530.43	56.17
530.60	49.15
530.77	65.54
530.94	0.00
531.11	0.00
531.28	4.68
531.46	11.70
531.63	95.96
531.80	74.90
531.97	30.43
532.14	0.00
532.31	79.58
532.48	0.00
532.65	16.38
532.82	18.72
532.99	74.90
533.16	0.00
533.33	4.68
533.50	0.00
533.67	74.90
533.84	46.81
534.01	53.83
534.18	0.00
534.35	16.38
534.52	4.68
534.69	95.96
534.86	2.34
535.03	44.47
535.20	51.49
535.37	63.19
535.54	35.11
535.71	91.28
535.88	84.26
536.05	39.79
536.22	35.11
536.38	0.00
536.55	46.81
536.72	84.26
536.89	51.49
537.06	86.60
537.23	46.81
537.40	32.77
537.57	70.22
537.74	0.00
537.91	0.00
538.08	21.06
538.25	0.00
538.42	0.00
538.59	49.15
538.75	114.69
538.92	0.00
539.09	0.00
539.26	0.00
539.43	23.41
539.60	84.26
539.77	105.32
539.94	23.41
540.11	60.85
540.28	0.00
540.44	28.09
540.61	65.54
540.78	56.17
540.95	0.00
541.12	46.81
541.29	0.00
541.46	53.83
541.62	7.02
541.79	0.00
541.96	30.43
542.13	63.19
542.30	72.56
542.47	65.54
542.63	88.94
542.80	58.51
542.97	128.73
543.14	9.36
543.31	70.22
543.48	0.00
543.64	35.11
543.81	18.72
543.98	53.83
544.15	51.49
544.32	35.11
544.48	65.54
544.65	58.51
544.82	93.62
544.99	79.58
545.16	0.00
545.32	67.88
545.49	7.02
545.66	46.81
545.83	39.79
546.00	0.00
546.16	77.24
546.33	18.72
546.50	18.72
546.67	23.41
546.83	58.51
547.00	93.62
547.17	91.28
547.34	46.81
547.50	30.43
547.67	39.79
547.84	14.04
548.00	53.83
548.17	7.02
548.34	112.35
548.51	42.13
548.67	145.11
548.84	28.09
549.01	72.56
549.18	35.11
549.34	0.00
549.51	7.02
549.68	107.66
549.84	46.81
550.01	28.09
550.18	91.28
550.34	70.22
550.51	16.38
550.68	4.68
550.84	42.13
551.01	51.49
551.18	53.83
551.34	53.83
551.51	11.70
551.68	81.92
551.84	91.28
552.01	0.00
552.18	88.94
552.34	7.02
552.51	49.15
552.68	124.05
552.84	2.34
553.01	2.34
553.18	95.96
553.34	44.47
553.51	32.77
553.67	0.00
553.84	42.13
554.01	58.51
554.17	91.28
554.34	67.88
554.51	95.96
554.67	32.77
554.84	91.28
555.00	102.98
555.17	0.00
555.33	0.00
555.50	0.00
555.67	95.96
555.83	60.85
556.00	2.34
556.16	7.02
556.33	58.51
556.50	51.49
556.66	81.92
556.83	133.41
556.99	0.00
557.16	105.32
557.32	60.85
557.49	49.15
557.65	63.19
557.82	39.79
557.98	18.72
558.15	9.36
558.32	117.03
558.48	70.22
558.65	51.49
558.81	23.41
558.98	74.90
559.14	18.72
559.31	25.75
559.47	11.70
559.64	30.43
559.80	166.18
559.97	60.85
560.13	39.79
560.30	42.13
560.46	0.00
560.63	7.02
560.79	74.90
560.96	112.35
561.12	16.38
561.29	49.15
561.45	0.00
561.61	0.00
561.78	70.22
561.94	67.88
562.11	0.00
562.27	21.06
562.44	86.60
562.60	53.83
562.77	7.02
562.93	0.00
563.10	46.81
563.26	102.98
563.42	72.56
563.59	84.26
563.75	46.81
563.92	60.85
564.08	84.26
564.24	44.47
564.41	79.58
564.57	0.00
564.74	56.17
564.90	37.45
565.07	56.17
565.23	0.00
565.39	46.81
565.56	0.00
565.72	63.19
565.88	35.11
566.05	16.38
566.21	11.70
566.38	84.26
566.54	77.24
566.70	119.37
566.87	133.41
567.03	98.30
567.19	0.00
567.36	42.13
567.52	86.60
567.68	65.54
567.85	72.56
568.01	72.56
568.17	100.64
568.34	88.94
568.50	53.83
568.66	42.13
568.83	70.22
568.99	0.00
569.15	0.00
569.32	14.04
569.48	18.72
569.64	39.79
569.81	25.75
569.97	60.85
570.13	102.98
570.30	0.00
570.46	42.13
570.62	21.06
570.78	74.90
570.95	30.43
571.11	4.68
571.27	74.90
571.43	18.72
571.60	39.79
571.76	53.83
571.92	11.70
572.09	112.35
572.25	16.38
572.41	91.28
572.57	142.77
572.74	51.49
572.90	84.26
573.06	107.66
573.22	0.00
573.38	32.77
573.55	70.22
573.71	100.64
573.87	9.36
574.03	25.75
574.20	0.00
574.36	0.00
574.52	9.36
574.68	81.92
574.84	32.77
575.01	51.49
575.17	42.13
575.33	53.83
575.49	4.68
575.65	74.90
575.82	88.94
575.98	44.47
576.14	86.60
576.30	0.00
576.46	46.81
576.62	46.81
576.79	11.70
576.95	56.17
577.11	4.68
577.27	4.68
577.43	0.00
577.59	49.15
577.75	23.41
577.92	39.79
578.08	53.83
578.24	0.00
578.40	56.17
578.56	0.00
578.72	11.70
578.88	67.88
579.04	30.43
579.21	9.36
579.37	35.11
579.53	39.79
579.69	23.41
579.85	0.00
580.01	49.15
580.17	119.37
580.33	0.00
580.49	4.68
580.65	105.32
580.82	0.00
580.98	16.38
581.14	44.47
581.30	35.11
581.46	63.19
581.62	79.58
581.78	46.81
581.94	18.72
582.10	53.83
582.26	39.79
582.42	35.11
582.58	0.00
582.74	0.00
582.90	0.00
583.06	23.41
583.22	81.92
583.38	16.38
583.54	39.79
583.70	95.96
583.86	0.00
584.02	0.00
584.18	11.70
584.34	35.11
584.50	21.06
584.66	14.04
584.82	49.15
584.98	0.00
585.14	93.62
585.30	42.13
585.46	32.77
585.62	53.83
585.78	112.35
585.94	32.77
586.10	100.64
586.26	39.79
586.42	21.06
586.58	4.68
586.74	28.09
586.90	0.00
587.06	63.19
587.22	28.09
587.38	7.02
587.54	32.77
587.70	9.36
587.86	0.00
588.02	23.41
588.18	46.81
588.34	2.34
588.49	46.81
588.65	0.00
588.81	14.04
588.97	0.00
589.13	44.47
589.29	0.00
589.45	2.34
589.61	46.81
589.77	0.00
589.93	0.00
590.08	51.49
590.24	25.75
590.40	0.00
590.56	58.51
590.72	9.36
590.88	0.00
591.04	11.70
591.20	11.70
591.35	37.45
591.51	0.00
591.67	21.06
591.83	56.17
591.99	42.13
592.15	0.00
592.31	58.51
592.46	42.13
592.62	14.04
592.78	67.88
592.94	72.56
593.10	14.04
593.26	0.00
593.41	65.54
593.57	58.51
593.73	77.24
593.89	9.36
594.05	56.17
594.20	60.85
594.36	7.02
594.52	7.02
594.68	79.58
594.84	28.09
594.99	28.09
595.15	65.54
595.31	44.47
595.47	28.09
595.62	18.72
595.78	105.32
595.94	44.47
596.10	35.11
596.25	117.03
596.41	32.77
596.57	37.45
596.73	0.00
596.88	86.60
597.04	42.13
597.20	70.22
597.36	86.60
597.51	0.00
597.67	7.02
597.83	63.19
597.99	114.69
598.14	2.34
598.30	88.94
598.46	16.38
598.61	56.17
598.77	79.58
598.93	81.92
599.09	7.02
599.24	91.28
599.40	35.11
599.56	4.68
599.71	44.47
599.87	0.00
600.03	0.00
600.18	23.41
600.34	46.81
600.50	30.43
600.65	2.34
600.81	7.02
600.97	114.69
601.12	28.09
601.28	14.04
601.44	49.15
601.59	88.94
601.75	35.11
601.91	25.75
602.06	56.17
602.22	4.68
602.37	88.94
602.53	35.11
602.69	72.56
602.84	32.77
603.00	98.30
603.16	37.45
603.31	42.13
603.47	37.45
603.62	86.60
603.78	49.15
603.94	0.00
604.09	53.83
604.25	44.47
604.40	0.00
604.56	23.41
604.71	25.75
604.87	7.02
605.03	88.94
605.18	70.22
605.34	0.00
605.49	16.38
605.65	58.51
605.80	30.43
605.96	25.75
606.12	25.75
606.27	51.49
606.43	30.43
606.58	105.32
606.74	0.00
606.89	102.98
607.05	58.51
607.20	0.00
607.36	25.75
607.51	28.09
607.67	42.13
607.82	77.24
607.98	58.51
608.13	37.45
608.29	35.11
608.44	9.36
608.60	91.28
608.75	30.43
608.91	0.00
609.06	93.62
609.22	53.83
609.37	0.00
609.53	49.15
609.68	0.00
609.84	35.11
609.99	102.98
610.15	46.81
610.30	51.49
610.46	77.24
610.61	107.66
610.76	9.36
610.92	32.77
611.07	88.94
611.23	60.85
611.38	114.69
611.54	60.85
611.69	91.28
611.84	0.00
612.00	44.47
612.15	0.00
612.31	14.04
612.46	0.00
612.62	16.38
612.77	4.68
612.92	42.13
613.08	65.54
613.23	60.85
613.39	126.39
613.54	51.49
613.69	84.26
613.85	39.79
614.00	0.00
614.15	42.13
614.31	35.11
614.46	21.06
614.62	35.11
614.77	0.00
614.92	0.00
615.08	72.56
615.23	39.79
615.38	25.75
615.54	2.34
615.69	28.09
615.84	0.00
616.00	2.34
616.15	56.17
616.30	0.00
616.46	0.00
616.61	72.56
616.76	65.54
616.92	4.68
617.07	42.13
617.22	0.00
617.37	77.24
617.53	44.47
617.68	63.19
617.83	0.00
617.99	16.38
618.14	0.00
618.29	77.24
618.45	53.83
618.60	74.90
618.75	63.19
618.90	53.83
619.06	49.15
619.21	9.36
619.36	42.13
619.51	30.43
619.67	88.94
619.82	42.13
619.97	32.77
620.12	74.90
620.28	72.56
620.43	70.22
620.58	0.00
620.73	14.04
620.89	11.70
621.04	0.00
621.19	81.92
621.34	112.35
621.49	4.68
621.65	53.83
621.80	0.00
621.95	79.58
622.10	4.68
622.25	30.43
622.41	65.54
622.56	138.09
622.71	65.54
622.86	32.77
623.01	58.51
623.16	79.58
623.32	49.15
623.47	21.06
623.62	7.02
623.77	70.22
623.92	18.72
624.07	53.83
624.23	44.47
624.38	0.00
624.53	98.30
624.68	9.36
624.83	16.38
624.98	42.13
625.13	0.00
625.29	32.77
625.44	2.34
625.59	23.41
625.74	81.92
625.89	46.81
626.04	0.00
626.19	9.36
626.34	32.77
626.49	72.56
626.65	32.77
626.80	88.94
626.95	11.70
627.10	0.00
627.25	30.43
627.40	23.41
627.55	42.13
627.70	51.49
627.85	0.00
628.00	72.56
628.15	7.02
628.30	49.15
628.45	2.34
628.60	23.41
628.76	0.00
628.91	79.58
629.06	30.43
629.21	37.45
629.36	114.69
629.51	0.00
629.66	60.85
629.81	11.70
629.96	9.36
630.11	0.00
630.26	0.00
630.41	0.00
630.56	39.79
630.71	0.00
630.86	58.51
631.01	105.32
631.16	49.15
631.31	18.72
631.46	91.28
631.61	58.51
631.76	53.83
631.91	0.00
632.06	11.70
632.21	0.00
632.36	0.00
632.51	25.75
632.66	46.81
632.81	58.51
632.96	79.58
633.10	39.79
633.25	70.22
633.40	28.09
633.55	70.22
633.70	37.45
633.85	25.75
634.00	67.88
634.15	23.41
634.30	37.45
634.45	79.58
634.60	2.34
634.75	65.54
634.90	93.62
635.05	42.13
635.19	28.09
635.34	58.51
635.49	0.00
635.64	67.88
635.79	51.49
635.94	72.56
636.09	32.77
636.24	49.15
636.39	53.83
636.53	72.56
636.68	23.41
636.83	21.06
636.98	37.45
637.13	0.00
637.28	18.72
637.43	37.45
637.57	0.00
637.72	23.41
637.87	14.04
638.02	35.11
638.17	0.00
638.32	39.79
638.46	0.00
638.61	14.04
638.76	51.49
638.91	74.90
639.06	23.41
639.20	0.00
639.35	100.64
639.50	91.28
639.65	70.22
639.80	60.85
639.94	46.81
640.09	100.64
640.24	25.75
640.39	18.72
640.54	0.00
640.68	18.72
640.83	67.88
640.98	72.56
641.13	44.47
641.27	11.70
641.42	0.00
641.57	81.92
641.72	84.26
641.86	7.02
642.01	58.51
642.16	35.11
642.31	121.71
642.45	14.04
642.60	23.41
642.75	93.62
642.90	72.56
643.04	53.83
643.19	91.28
643.34	86.60
643.48	11.70
643.63	23.41
643.78	67.88
643.93	35.11
644.07	42.13
644.22	56.17
644.37	18.72
644.51	0.00
644.66	28.09
644.81	16.38
644.95	16.38
645.10	0.00
645.25	32.77
645.39	74.90
645.54	18.72
645.69	51.49
645.83	53.83
645.98	72.56
646.13	81.92
646.27	65.54
646.42	88.94
646.57	53.83
646.71	21.06
646.86	9.36
647.00	65.54
647.15	4.68
647.30	32.77
647.44	93.62
647.59	65.54
647.74	35.11
647.88	37.45
648.03	25.75
648.17	32.77
648.32	21.06
648.47	70.22
648.61	42.13
648.76	51.49
648.90	0.00
649.05	77.24
649.20	93.62
649.34	60.85
649.49	107.66
649.63	14.04
649.78	65.54
649.92	4.68
650.07	39.79
650.21	0.00
650.36	84.26
650.51	49.15
650.65	81.92
650.80	72.56
650.94	39.79
651.09	56.17
651.23	49.15
651.38	21.06
651.52	84.26
651.67	4.68
651.81	81.92
651.96	35.11
652.10	0.00
652.25	74.90
652.39	0.00
652.54	46.81
652.68	16.38
652.83	0.00
652.97	16.38
653.12	42.13
653.26	14.04
653.41	9.36
653.55	2.34
653.70	0.00
653.84	117.03
653.99	42.13
654.13	65.54
654.27	0.00
654.42	21.06
654.56	28.09
654.71	56.17
654.85	35.11
655.00	25.75
655.14	0.00
655.29	37.45
655.43	39.79
655.57	7.02
655.72	25.75
655.86	0.00
656.01	4.68
656.15	0.00
656.30	42.13
656.44	53.83
656.58	60.85
656.73	32.77
656.87	95.96
657.01	63.19
657.16	49.15
657.30	91.28
657.45	65.54
657.59	0.00
657.73	0.00
657.88	21.06
658.02	95.96
658.16	51.49
658.31	28.09
658.45	98.30
658.60	44.47
658.74	0.00
658.88	0.00
659.03	42.13
659.17	9.36
659.31	37.45
659.46	152.13
659.60	124.05
659.74	18.72
659.89	21.06
660.03	91.28
660.17	107.66
660.32	9.36
660.46	51.49
660.60	46.81
660.74	30.43
660.89	56.17
661.03	67.88
661.17	32.77
661.32	81.92
661.46	65.54
661.60	37.45
661.74	0.00
661.89	0.00
662.03	58.51
662.17	18.72
662.31	63.19
662.46	70.22
662.60	23.41
662.74	9.36
662.88	0.00
663.03	32.77
663.17	65.54
663.31	44.47
663.45	16.38
663.60	0.00
663.74	0.00
663.88	0.00
664.02	100.64
664.17	35.11
664.31	0.00
664.45	23.41
664.59	86.60
664.73	53.83
664.88	0.00
665.02	65.54
665.16	107.66
665.30	0.00
665.44	42.13
665.59	21.06
665.73	107.66
665.87	72.56
666.01	65.54
666.15	35.11
666.29	9.36
666.44	0.00
666.58	0.00
666.72	58.51
666.86	16.38
667.00	25.75
667.14	14.04
667.28	53.83
667.43	51.49
667.57	42.13
667.71	58.51
667.85	44.47
667.99	65.54
668.13	0.00
668.27	0.00
668.41	51.49
668.56	0.00
668.70	11.70
668.84	23.41
668.98	86.60
669.12	30.43
669.26	63.19
669.40	11.70
669.54	35.11
669.68	53.83
669.82	28.09
669.96	46.81
670.10	2.34
670.25	32.77
670.39	81.92
670.53	0.00
670.67	46.81
670.81	0.00
670.95	60.85
671.09	32.77
671.23	0.00
671.37	9.36
671.51	58.51
671.65	93.62
671.79	16.38
671.93	14.04
672.07	42.13
672.21	72.56
672.35	4.68
672.49	23.41
672.63	9.36
672.77	74.90
672.91	39.79
673.05	77.24
673.19	0.00
673.33	0.00
673.47	46.81
673.61	11.70
673.75	14.04
673.89	0.00
674.03	49.15
674.17	46.81
674.31	0.00
674.45	49.15
674.59	18.72
674.73	32.77
674.87	9.36
675.01	0.00
675.15	18.72
675.29	4.68
675.43	0.00
675.56	32.77
675.70	70.22
675.84	28.09
675.98	30.43
676.12	0.00
676.26	0.00
676.40	23.41
676.54	0.00
676.68	98.30
676.82	11.70
676.96	0.00
677.10	56.17
677.23	46.81
677.37	18.72
677.51	70.22
677.65	58.51
677.79	70.22
677.93	32.77
678.07	70.22
678.21	35.11
678.34	58.51
678.48	77.24
678.62	88.94
678.76	14.04
678.90	70.22
679.04	79.58
679.18	16.38
679.31	0.00
679.45	67.88
679.59	0.00
679.73	21.06
679.87	23.41
680.00	0.00
680.14	4.68
680.28	9.36
680.42	0.00
680.56	79.58
680.70	30.43
680.83	0.00
680.97	4.68
681.11	0.00
681.25	30.43
681.39	46.81
681.52	0.00
681.66	79.58
681.80	72.56
681.94	49.15
682.07	0.00
682.21	11.70
682.35	0.00
682.49	37.45
682.62	0.00
682.76	56.17
682.90	56.17
683.04	7.02
683.17	74.90
683.31	9.36
683.45	9.36
683.59	0.00
683.72	0.00
683.86	0.00
684.00	79.58
684.13	0.00
684.27	105.32
684.41	30.43
684.55	4.68
684.68	49.15
684.82	28.09
684.96	0.00
685.09	53.83
685.23	51.49
685.37	16.38
685.50	56.17
685.64	102.98
685.78	0.00
685.91	37.45
686.05	37.45
686.19	0.00
686.32	51.49
686.46	0.00
686.60	0.00
686.73	32.77
686.87	0.00
687.01	98.30
687.14	65.54
687.28	32.77
687.42	16.38
687.55	25.75
687.69	51.49
687.82	32.77
687.96	56.17
688.10	32.77
688.23	7.02
688.37	42.13
688.50	72.56
688.64	56.17
688.78	0.00
688.91	4.68
689.05	16.38
689.18	42.13
689.32	2.34
689.46	72.56
689.59	95.96
689.73	0.00
689.86	0.00
690.00	30.43
690.13	0.00
690.27	4.68
690.41	14.04
690.54	23.41
690.68	51.49
690.81	81.92
690.95	42.13
691.08	9.36
691.22	46.81
691.35	88.94
691.49	28.09
691.62	0.00
691.76	49.15
691.89	95.96
692.03	0.00
692.16	2.34
692.30	102.98
692.43	21.06
692.57	95.96
692.70	35.11
692.84	14.04
692.97	9.36
693.11	0.00
693.24	21.06
693.38	0.00
693.51	0.00
693.65	11.70
693.78	0.00
693.92	0.00
694.05	44.47
694.19	18.72
694.32	53.83
694.45	0.00
694.59	46.81
694.72	11.70
694.86	23.41
694.99	81.92
695.13	35.11
695.26	11.70
695.39	16.38
695.53	28.09
695.66	51.49
695.80	0.00
695.93	49.15
696.07	30.43
696.20	9.36
696.33	42.13
696.47	0.00
696.60	18.72
696.73	49.15
696.87	7.02
697.00	175.54
697.14	81.92
697.27	37.45
697.40	11.70
697.54	16.38
697.67	32.77
697.80	60.85
697.94	0.00
698.07	0.00
698.21	51.49
698.34	18.72
698.47	0.00
698.61	112.35
698.74	79.58
698.87	7.02
699.01	0.00
699.14	65.54
699.27	51.49
699.40	30.43
699.54	88.94
699.67	0.00
699.80	25.75
699.94	35.11
700.07	0.00
700.20	81.92
700.34	32.77
700.47	0.00
700.60	0.00
700.73	30.43
700.87	30.43
701.00	0.00
701.13	60.85
701.26	35.11
701.40	0.00
701.53	58.51
701.66	16.38
701.79	67.88
701.93	0.00
702.06	30.43
702.19	18.72
702.32	49.15
702.46	21.06
702.59	56.17
702.72	46.81
702.85	9.36
702.99	28.09
703.12	30.43
703.25	35.11
703.38	0.00
703.51	42.13
703.65	32.77
703.78	49.15
703.91	16.38
704.04	98.30
704.17	0.00
704.31	81.92
704.44	0.00
704.57	0.00
704.70	77.24
704.83	0.00
704.96	74.90
705.10	88.94
705.23	0.00
>>>>>End Processed Spectral Data<<<<<
