SpectraSuite Data File
++++++++++++++++++++++++++++++++++++
Date: Fri Oct 04 12:13:29 GMT-05:00 2013
User: price-jones
Dark Spectrum Present: No
Reference Spectrum Present: No
Number of Sampled Component Spectra: 1
Spectrometers: USB2+H05261
Integration Time (usec): 10000 (USB2+H05261)
Spectra Averaged: 1 (USB2+H05261)
Boxcar Smoothing: 0 (USB2+H05261)
Correct for Electrical Dark: No (USB2+H05261)
Strobe/Lamp Enabled: No (USB2+H05261)
Correct for Detector Non-linearity: No (USB2+H05261)
Correct for Stray Light: No (USB2+H05261)
Number of Pixels in Processed Spectrum: 2048
>>>>>Begin Processed Spectral Data<<<<<
365.73	14.04
365.92	14.04
366.12	14.04
366.32	0.00
366.52	0.00
366.72	0.00
366.91	0.00
367.11	0.00
367.31	0.00
367.51	0.00
367.70	0.00
367.90	0.00
368.10	0.00
368.30	0.00
368.49	0.00
368.69	0.00
368.89	0.00
369.09	0.00
369.28	0.00
369.48	0.00
369.68	0.00
369.87	0.00
370.07	0.00
370.27	0.00
370.47	0.00
370.66	0.00
370.86	0.00
371.06	0.00
371.25	37.45
371.45	0.00
371.65	0.00
371.84	0.00
372.04	65.54
372.24	0.00
372.44	0.00
372.63	37.45
372.83	0.00
373.03	0.00
373.22	35.11
373.42	46.81
373.62	0.00
373.81	7.02
374.01	28.09
374.21	102.98
374.40	0.00
374.60	30.43
374.79	23.41
374.99	2.34
375.19	63.19
375.38	14.04
375.58	4.68
375.78	86.60
375.97	9.36
376.17	21.06
376.37	53.83
376.56	91.28
376.76	0.00
376.95	0.00
377.15	2.34
377.35	18.72
377.54	65.54
377.74	67.88
377.93	23.41
378.13	44.47
378.33	46.81
378.52	32.77
378.72	0.00
378.91	51.49
379.11	9.36
379.31	0.00
379.50	0.00
379.70	0.00
379.89	0.00
380.09	25.75
380.28	32.77
380.48	42.13
380.68	11.70
380.87	121.71
381.07	4.68
381.26	70.22
381.46	23.41
381.65	0.00
381.85	77.24
382.04	0.00
382.24	14.04
382.43	32.77
382.63	65.54
382.83	18.72
383.02	28.09
383.22	79.58
383.41	35.11
383.61	0.00
383.80	39.79
384.00	0.00
384.19	0.00
384.39	65.54
384.58	0.00
384.78	49.15
384.97	117.03
385.17	25.75
385.36	0.00
385.56	0.00
385.75	32.77
385.95	53.83
386.14	28.09
386.34	74.90
386.53	11.70
386.72	21.06
386.92	58.51
387.11	25.75
387.31	77.24
387.50	0.00
387.70	0.00
387.89	60.85
388.09	42.13
388.28	37.45
388.48	42.13
388.67	35.11
388.86	63.19
389.06	95.96
389.25	42.13
389.45	23.41
389.64	23.41
389.84	11.70
390.03	35.11
390.22	23.41
390.42	126.39
390.61	14.04
390.81	35.11
391.00	4.68
391.19	0.00
391.39	105.32
391.58	0.00
391.78	14.04
391.97	51.49
392.16	65.54
392.36	4.68
392.55	70.22
392.75	51.49
392.94	37.45
393.13	0.00
393.33	18.72
393.52	0.00
393.71	0.00
393.91	0.00
394.10	93.62
394.29	0.00
394.49	30.43
394.68	0.00
394.88	0.00
395.07	35.11
395.26	44.47
395.46	56.17
395.65	0.00
395.84	60.85
396.04	112.35
396.23	42.13
396.42	46.81
396.62	0.00
396.81	81.92
397.00	58.51
397.19	0.00
397.39	107.66
397.58	0.00
397.77	44.47
397.97	58.51
398.16	46.81
398.35	0.00
398.55	0.00
398.74	49.15
398.93	46.81
399.12	39.79
399.32	0.00
399.51	0.00
399.70	37.45
399.90	79.58
400.09	2.34
400.28	56.17
400.47	39.79
400.67	7.02
400.86	16.38
401.05	0.00
401.24	42.13
401.44	23.41
401.63	0.00
401.82	23.41
402.01	7.02
402.21	0.00
402.40	98.30
402.59	21.06
402.78	0.00
402.97	95.96
403.17	0.00
403.36	0.00
403.55	42.13
403.74	0.00
403.93	0.00
404.13	32.77
404.32	35.11
404.51	0.00
404.70	32.77
404.89	25.75
405.09	21.06
405.28	63.19
405.47	4.68
405.66	60.85
405.85	0.00
406.05	0.00
406.24	18.72
406.43	9.36
406.62	0.00
406.81	42.13
407.00	16.38
407.20	0.00
407.39	0.00
407.58	39.79
407.77	35.11
407.96	0.00
408.15	18.72
408.34	18.72
408.54	56.17
408.73	14.04
408.92	37.45
409.11	0.00
409.30	0.00
409.49	35.11
409.68	74.90
409.87	7.02
410.07	65.54
410.26	74.90
410.45	30.43
410.64	18.72
410.83	0.00
411.02	58.51
411.21	91.28
411.40	42.13
411.59	49.15
411.78	58.51
411.98	39.79
412.17	18.72
412.36	0.00
412.55	42.13
412.74	0.00
412.93	0.00
413.12	32.77
413.31	23.41
413.50	4.68
413.69	9.36
413.88	51.49
414.07	37.45
414.26	100.64
414.45	25.75
414.64	63.19
414.83	7.02
415.02	0.00
415.22	4.68
415.41	51.49
415.60	65.54
415.79	79.58
415.98	0.00
416.17	65.54
416.36	7.02
416.55	53.83
416.74	44.47
416.93	0.00
417.12	74.90
417.31	0.00
417.50	58.51
417.69	53.83
417.88	4.68
418.07	58.51
418.26	58.51
418.45	79.58
418.64	0.00
418.83	39.79
419.02	100.64
419.21	0.00
419.39	28.09
419.58	30.43
419.77	0.00
419.96	39.79
420.15	4.68
420.34	49.15
420.53	0.00
420.72	107.66
420.91	81.92
421.10	107.66
421.29	79.58
421.48	23.41
421.67	67.88
421.86	11.70
422.05	63.19
422.24	23.41
422.43	14.04
422.61	0.00
422.80	49.15
422.99	2.34
423.18	14.04
423.37	107.66
423.56	9.36
423.75	14.04
423.94	21.06
424.13	16.38
424.32	0.00
424.50	60.85
424.69	98.30
424.88	0.00
425.07	102.98
425.26	46.81
425.45	70.22
425.64	39.79
425.83	9.36
426.01	63.19
426.20	67.88
426.39	46.81
426.58	0.00
426.77	0.00
426.96	4.68
427.15	9.36
427.33	39.79
427.52	0.00
427.71	11.70
427.90	42.13
428.09	0.00
428.28	18.72
428.46	11.70
428.65	46.81
428.84	37.45
429.03	30.43
429.22	65.54
429.40	23.41
429.59	32.77
429.78	63.19
429.97	95.96
430.16	0.00
430.34	0.00
430.53	86.60
430.72	93.62
430.91	0.00
431.10	35.11
431.28	30.43
431.47	93.62
431.66	14.04
431.85	39.79
432.03	70.22
432.22	0.00
432.41	32.77
432.60	44.47
432.79	23.41
432.97	65.54
433.16	23.41
433.35	70.22
433.54	0.00
433.72	23.41
433.91	0.00
434.10	65.54
434.28	11.70
434.47	0.00
434.66	0.00
434.85	46.81
435.03	42.13
435.22	46.81
435.41	21.06
435.59	35.11
435.78	18.72
435.97	9.36
436.16	0.00
436.34	4.68
436.53	0.00
436.72	37.45
436.90	124.05
437.09	0.00
437.28	44.47
437.46	16.38
437.65	63.19
437.84	77.24
438.02	60.85
438.21	16.38
438.40	16.38
438.58	0.00
438.77	11.70
438.96	0.00
439.14	63.19
439.33	32.77
439.52	46.81
439.70	28.09
439.89	25.75
440.08	44.47
440.26	56.17
440.45	32.77
440.63	63.19
440.82	42.13
441.01	9.36
441.19	86.60
441.38	0.00
441.57	11.70
441.75	0.00
441.94	28.09
442.12	51.49
442.31	9.36
442.50	0.00
442.68	77.24
442.87	28.09
443.05	112.35
443.24	32.77
443.43	28.09
443.61	35.11
443.80	18.72
443.98	46.81
444.17	70.22
444.35	18.72
444.54	21.06
444.73	32.77
444.91	98.30
445.10	0.00
445.28	9.36
445.47	0.00
445.65	28.09
445.84	14.04
446.02	39.79
446.21	42.13
446.39	88.94
446.58	51.49
446.77	0.00
446.95	0.00
447.14	0.00
447.32	42.13
447.51	86.60
447.69	35.11
447.88	79.58
448.06	102.98
448.25	11.70
448.43	39.79
448.62	4.68
448.80	30.43
448.99	70.22
449.17	74.90
449.36	65.54
449.54	58.51
449.73	2.34
449.91	28.09
450.10	49.15
450.28	37.45
450.46	21.06
450.65	63.19
450.83	35.11
451.02	14.04
451.20	18.72
451.39	67.88
451.57	35.11
451.76	16.38
451.94	63.19
452.13	16.38
452.31	56.17
452.49	60.85
452.68	0.00
452.86	0.00
453.05	79.58
453.23	51.49
453.42	23.41
453.60	37.45
453.78	9.36
453.97	16.38
454.15	21.06
454.34	0.00
454.52	0.00
454.70	25.75
454.89	18.72
455.07	0.00
455.26	0.00
455.44	0.00
455.62	56.17
455.81	7.02
455.99	49.15
456.17	72.56
456.36	0.00
456.54	107.66
456.73	44.47
456.91	21.06
457.09	0.00
457.28	35.11
457.46	88.94
457.64	14.04
457.83	60.85
458.01	0.00
458.19	0.00
458.38	0.00
458.56	44.47
458.74	0.00
458.93	21.06
459.11	23.41
459.29	93.62
459.48	67.88
459.66	21.06
459.84	70.22
460.03	18.72
460.21	0.00
460.39	70.22
460.57	37.45
460.76	0.00
460.94	37.45
461.12	30.43
461.31	28.09
461.49	44.47
461.67	77.24
461.85	4.68
462.04	67.88
462.22	39.79
462.40	72.56
462.59	21.06
462.77	53.83
462.95	14.04
463.13	70.22
463.32	53.83
463.50	46.81
463.68	110.01
463.86	91.28
464.05	51.49
464.23	0.00
464.41	74.90
464.59	56.17
464.78	53.83
464.96	95.96
465.14	9.36
465.32	95.96
465.50	42.13
465.69	56.17
465.87	0.00
466.05	11.70
466.23	58.51
466.41	0.00
466.60	0.00
466.78	7.02
466.96	53.83
467.14	67.88
467.32	16.38
467.51	0.00
467.69	30.43
467.87	21.06
468.05	79.58
468.23	58.51
468.41	39.79
468.60	74.90
468.78	35.11
468.96	79.58
469.14	44.47
469.32	28.09
469.50	0.00
469.69	4.68
469.87	72.56
470.05	9.36
470.23	46.81
470.41	14.04
470.59	44.47
470.77	23.41
470.95	72.56
471.14	67.88
471.32	30.43
471.50	49.15
471.68	86.60
471.86	56.17
472.04	21.06
472.22	25.75
472.40	49.15
472.58	60.85
472.77	58.51
472.95	4.68
473.13	0.00
473.31	25.75
473.49	16.38
473.67	37.45
473.85	35.11
474.03	35.11
474.21	0.00
474.39	0.00
474.57	63.19
474.75	37.45
474.93	51.49
475.12	7.02
475.30	67.88
475.48	74.90
475.66	81.92
475.84	37.45
476.02	65.54
476.20	21.06
476.38	0.00
476.56	9.36
476.74	28.09
476.92	0.00
477.10	70.22
477.28	16.38
477.46	16.38
477.64	74.90
477.82	81.92
478.00	16.38
478.18	0.00
478.36	23.41
478.54	14.04
478.72	0.00
478.90	46.81
479.08	21.06
479.26	21.06
479.44	4.68
479.62	56.17
479.80	105.32
479.98	37.45
480.16	49.15
480.34	67.88
480.52	28.09
480.70	0.00
480.88	2.34
481.06	65.54
481.24	16.38
481.41	63.19
481.59	42.13
481.77	42.13
481.95	70.22
482.13	7.02
482.31	7.02
482.49	88.94
482.67	0.00
482.85	7.02
483.03	18.72
483.21	46.81
483.39	28.09
483.57	74.90
483.74	25.75
483.92	0.00
484.10	37.45
484.28	39.79
484.46	93.62
484.64	7.02
484.82	49.15
485.00	95.96
485.18	88.94
485.35	39.79
485.53	7.02
485.71	51.49
485.89	67.88
486.07	100.64
486.25	32.77
486.43	70.22
486.61	28.09
486.78	30.43
486.96	46.81
487.14	44.47
487.32	0.00
487.50	32.77
487.68	35.11
487.85	35.11
488.03	7.02
488.21	39.79
488.39	32.77
488.57	86.60
488.75	58.51
488.92	133.41
489.10	58.51
489.28	100.64
489.46	39.79
489.64	14.04
489.81	18.72
489.99	74.90
490.17	126.39
490.35	4.68
490.53	32.77
490.70	44.47
490.88	51.49
491.06	23.41
491.24	16.38
491.41	42.13
491.59	102.98
491.77	46.81
491.95	30.43
492.13	51.49
492.30	77.24
492.48	0.00
492.66	46.81
492.84	39.79
493.01	37.45
493.19	51.49
493.37	102.98
493.54	86.60
493.72	18.72
493.90	0.00
494.08	86.60
494.25	0.00
494.43	0.00
494.61	58.51
494.79	60.85
494.96	16.38
495.14	0.00
495.32	93.62
495.49	98.30
495.67	23.41
495.85	7.02
496.02	0.00
496.20	35.11
496.38	21.06
496.55	7.02
496.73	39.79
496.91	60.85
497.09	0.00
497.26	67.88
497.44	30.43
497.62	110.01
497.79	65.54
497.97	0.00
498.14	70.22
498.32	39.79
498.50	4.68
498.67	35.11
498.85	72.56
499.03	0.00
499.20	23.41
499.38	18.72
499.56	0.00
499.73	51.49
499.91	37.45
500.08	77.24
500.26	72.56
500.44	53.83
500.61	28.09
500.79	44.47
500.97	110.01
501.14	67.88
501.32	70.22
501.49	56.17
501.67	32.77
501.84	49.15
502.02	42.13
502.20	112.35
502.37	23.41
502.55	30.43
502.72	81.92
502.90	105.32
503.07	91.28
503.25	72.56
503.43	58.51
503.60	0.00
503.78	77.24
503.95	56.17
504.13	70.22
504.30	32.77
504.48	107.66
504.65	37.45
504.83	58.51
505.01	0.00
505.18	81.92
505.36	91.28
505.53	21.06
505.71	91.28
505.88	95.96
506.06	67.88
506.23	42.13
506.41	32.77
506.58	44.47
506.76	67.88
506.93	112.35
507.11	0.00
507.28	84.26
507.46	77.24
507.63	58.51
507.81	51.49
507.98	79.58
508.16	95.96
508.33	93.62
508.50	7.02
508.68	56.17
508.85	72.56
509.03	23.41
509.20	46.81
509.38	105.32
509.55	21.06
509.73	0.00
509.90	37.45
510.08	72.56
510.25	37.45
510.42	32.77
510.60	51.49
510.77	18.72
510.95	16.38
511.12	53.83
511.30	35.11
511.47	30.43
511.64	84.26
511.82	11.70
511.99	7.02
512.17	124.05
512.34	51.49
512.51	23.41
512.69	9.36
512.86	37.45
513.04	65.54
513.21	60.85
513.38	28.09
513.56	74.90
513.73	4.68
513.90	35.11
514.08	63.19
514.25	9.36
514.43	0.00
514.60	81.92
514.77	67.88
514.95	14.04
515.12	39.79
515.29	65.54
515.47	77.24
515.64	0.00
515.81	53.83
515.99	63.19
516.16	126.39
516.33	65.54
516.51	84.26
516.68	81.92
516.85	39.79
517.03	14.04
517.20	60.85
517.37	39.79
517.54	9.36
517.72	88.94
517.89	0.00
518.06	0.00
518.24	63.19
518.41	102.98
518.58	51.49
518.75	0.00
518.93	18.72
519.10	91.28
519.27	46.81
519.45	77.24
519.62	126.39
519.79	32.77
519.96	46.81
520.14	18.72
520.31	11.70
520.48	91.28
520.65	0.00
520.83	72.56
521.00	58.51
521.17	14.04
521.34	14.04
521.52	100.64
521.69	21.06
521.86	51.49
522.03	18.72
522.20	0.00
522.38	0.00
522.55	35.11
522.72	42.13
522.89	46.81
523.07	14.04
523.24	16.38
523.41	25.75
523.58	88.94
523.75	35.11
523.92	79.58
524.10	0.00
524.27	51.49
524.44	65.54
524.61	58.51
524.78	0.00
524.96	0.00
525.13	28.09
525.30	0.00
525.47	70.22
525.64	0.00
525.81	25.75
525.98	86.60
526.16	0.00
526.33	39.79
526.50	0.00
526.67	51.49
526.84	0.00
527.01	0.00
527.18	0.00
527.36	86.60
527.53	21.06
527.70	60.85
527.87	51.49
528.04	30.43
528.21	0.00
528.38	51.49
528.55	42.13
528.72	0.00
528.89	56.17
529.07	102.98
529.24	56.17
529.41	98.30
529.58	44.47
529.75	35.11
529.92	16.38
530.09	30.43
530.26	84.26
530.43	53.83
530.60	65.54
530.77	51.49
530.94	28.09
531.11	0.00
531.28	93.62
531.46	16.38
531.63	30.43
531.80	44.47
531.97	37.45
532.14	44.47
532.31	32.77
532.48	0.00
532.65	91.28
532.82	63.19
532.99	91.28
533.16	49.15
533.33	44.47
533.50	25.75
533.67	112.35
533.84	77.24
534.01	51.49
534.18	14.04
534.35	35.11
534.52	21.06
534.69	121.71
534.86	9.36
535.03	88.94
535.20	11.70
535.37	35.11
535.54	60.85
535.71	60.85
535.88	9.36
536.05	0.00
536.22	128.73
536.38	2.34
536.55	37.45
536.72	0.00
536.89	0.00
537.06	30.43
537.23	0.00
537.40	53.83
537.57	25.75
537.74	56.17
537.91	65.54
538.08	11.70
538.25	7.02
538.42	74.90
538.59	11.70
538.75	0.00
538.92	86.60
539.09	0.00
539.26	53.83
539.43	49.15
539.60	18.72
539.77	72.56
539.94	32.77
540.11	14.04
540.28	21.06
540.44	53.83
540.61	72.56
540.78	58.51
540.95	84.26
541.12	107.66
541.29	112.35
541.46	93.62
541.62	0.00
541.79	149.79
541.96	114.69
542.13	16.38
542.30	44.47
542.47	51.49
542.63	14.04
542.80	21.06
542.97	14.04
543.14	0.00
543.31	51.49
543.48	39.79
543.64	81.92
543.81	46.81
543.98	58.51
544.15	65.54
544.32	0.00
544.48	0.00
544.65	23.41
544.82	21.06
544.99	53.83
545.16	84.26
545.32	0.00
545.49	56.17
545.66	53.83
545.83	0.00
546.00	0.00
546.16	14.04
546.33	7.02
546.50	16.38
546.67	39.79
546.83	42.13
547.00	28.09
547.17	58.51
547.34	28.09
547.50	53.83
547.67	58.51
547.84	60.85
548.00	46.81
548.17	14.04
548.34	16.38
548.51	0.00
548.67	0.00
548.84	14.04
549.01	53.83
549.18	72.56
549.34	60.85
549.51	88.94
549.68	124.05
549.84	0.00
550.01	0.00
550.18	35.11
550.34	25.75
550.51	28.09
550.68	147.45
550.84	0.00
551.01	37.45
551.18	81.92
551.34	49.15
551.51	32.77
551.68	49.15
551.84	30.43
552.01	35.11
552.18	67.88
552.34	98.30
552.51	105.32
552.68	2.34
552.84	30.43
553.01	126.39
553.18	42.13
553.34	133.41
553.51	124.05
553.67	28.09
553.84	0.00
554.01	46.81
554.17	0.00
554.34	49.15
554.51	74.90
554.67	84.26
554.84	51.49
555.00	32.77
555.17	60.85
555.33	37.45
555.50	84.26
555.67	4.68
555.83	0.00
556.00	37.45
556.16	124.05
556.33	124.05
556.50	0.00
556.66	81.92
556.83	0.00
556.99	16.38
557.16	35.11
557.32	16.38
557.49	65.54
557.65	23.41
557.82	51.49
557.98	44.47
558.15	70.22
558.32	0.00
558.48	0.00
558.65	18.72
558.81	0.00
558.98	70.22
559.14	56.17
559.31	11.70
559.47	0.00
559.64	35.11
559.80	58.51
559.97	23.41
560.13	0.00
560.30	138.09
560.46	37.45
560.63	0.00
560.79	4.68
560.96	58.51
561.12	0.00
561.29	91.28
561.45	70.22
561.61	14.04
561.78	67.88
561.94	16.38
562.11	93.62
562.27	23.41
562.44	30.43
562.60	119.37
562.77	81.92
562.93	56.17
563.10	32.77
563.26	77.24
563.42	0.00
563.59	37.45
563.75	39.79
563.92	51.49
564.08	70.22
564.24	65.54
564.41	23.41
564.57	0.00
564.74	39.79
564.90	32.77
565.07	112.35
565.23	72.56
565.39	49.15
565.56	91.28
565.72	0.00
565.88	7.02
566.05	88.94
566.21	70.22
566.38	58.51
566.54	88.94
566.70	49.15
566.87	30.43
567.03	0.00
567.19	79.58
567.36	49.15
567.52	49.15
567.68	112.35
567.85	11.70
568.01	11.70
568.17	14.04
568.34	0.00
568.50	42.13
568.66	46.81
568.83	30.43
568.99	14.04
569.15	88.94
569.32	133.41
569.48	23.41
569.64	14.04
569.81	16.38
569.97	0.00
570.13	86.60
570.30	39.79
570.46	30.43
570.62	46.81
570.78	25.75
570.95	30.43
571.11	21.06
571.27	9.36
571.43	0.00
571.60	56.17
571.76	46.81
571.92	30.43
572.09	25.75
572.25	9.36
572.41	23.41
572.57	67.88
572.74	32.77
572.90	58.51
573.06	88.94
573.22	32.77
573.38	32.77
573.55	39.79
573.71	21.06
573.87	65.54
574.03	28.09
574.20	145.11
574.36	63.19
574.52	16.38
574.68	39.79
574.84	0.00
575.01	74.90
575.17	70.22
575.33	72.56
575.49	46.81
575.65	95.96
575.82	28.09
575.98	79.58
576.14	49.15
576.30	112.35
576.46	100.64
576.62	51.49
576.79	37.45
576.95	25.75
577.11	0.00
577.27	39.79
577.43	74.90
577.59	56.17
577.75	0.00
577.92	58.51
578.08	0.00
578.24	0.00
578.40	0.00
578.56	46.81
578.72	35.11
578.88	0.00
579.04	44.47
579.21	0.00
579.37	46.81
579.53	11.70
579.69	65.54
579.85	46.81
580.01	23.41
580.17	4.68
580.33	56.17
580.49	2.34
580.65	7.02
580.82	37.45
580.98	74.90
581.14	86.60
581.30	56.17
581.46	42.13
581.62	46.81
581.78	86.60
581.94	0.00
582.10	46.81
582.26	0.00
582.42	65.54
582.58	63.19
582.74	102.98
582.90	74.90
583.06	67.88
583.22	72.56
583.38	0.00
583.54	0.00
583.70	9.36
583.86	0.00
584.02	35.11
584.18	70.22
584.34	161.50
584.50	74.90
584.66	851.96
584.82	1589.22
584.98	2127.55
585.14	1816.26
585.30	1172.61
585.46	807.48
585.62	517.26
585.78	259.80
585.94	91.28
586.10	95.96
586.26	79.58
586.42	119.37
586.58	23.41
586.74	102.98
586.90	4.68
587.06	77.24
587.22	67.88
587.38	74.90
587.54	84.26
587.70	138.09
587.86	217.67
588.02	201.29
588.18	154.48
588.34	173.20
588.49	37.45
588.65	46.81
588.81	28.09
588.97	9.36
589.13	0.00
589.29	86.60
589.45	121.71
589.61	53.83
589.77	2.34
589.93	0.00
590.08	32.77
590.24	0.00
590.40	56.17
590.56	4.68
590.72	86.60
590.88	93.62
591.04	14.04
591.20	152.13
591.35	44.47
591.51	37.45
591.67	65.54
591.83	93.62
591.99	56.17
592.15	35.11
592.31	86.60
592.46	11.70
592.62	65.54
592.78	98.30
592.94	0.00
593.10	18.72
593.26	39.79
593.41	81.92
593.57	44.47
593.73	51.49
593.89	145.11
594.05	189.58
594.20	273.84
594.36	304.27
594.52	191.92
594.68	140.43
594.84	98.30
594.99	77.24
595.15	4.68
595.31	72.56
595.47	16.38
595.62	70.22
595.78	28.09
595.94	72.56
596.10	21.06
596.25	0.00
596.41	58.51
596.57	28.09
596.73	37.45
596.88	88.94
597.04	147.45
597.20	119.37
597.36	131.07
597.51	77.24
597.67	16.38
597.83	107.66
597.99	79.58
598.14	58.51
598.30	114.69
598.46	42.13
598.61	95.96
598.77	67.88
598.93	49.15
599.09	9.36
599.24	0.00
599.40	72.56
599.56	0.00
599.71	58.51
599.87	58.51
600.03	0.00
600.18	0.00
600.34	49.15
600.50	56.17
600.65	93.62
600.81	70.22
600.97	32.77
601.12	42.13
601.28	88.94
601.44	53.83
601.59	32.77
601.75	25.75
601.91	0.00
602.06	39.79
602.22	58.51
602.37	58.51
602.53	86.60
602.69	84.26
602.84	93.62
603.00	93.62
603.16	65.54
603.31	128.73
603.47	107.66
603.62	70.22
603.78	37.45
603.94	51.49
604.09	72.56
604.25	16.38
604.40	121.71
604.56	98.30
604.71	81.92
604.87	58.51
605.03	44.47
605.18	53.83
605.34	63.19
605.49	2.34
605.65	9.36
605.80	49.15
605.96	39.79
606.12	30.43
606.27	46.81
606.43	14.04
606.58	65.54
606.74	117.03
606.89	154.48
607.05	238.73
607.20	259.80
607.36	222.35
607.51	159.16
607.67	95.96
607.82	44.47
607.98	39.79
608.13	67.88
608.29	65.54
608.44	105.32
608.60	95.96
608.75	39.79
608.91	121.71
609.06	236.39
609.22	407.25
609.37	440.02
609.53	416.62
609.68	245.76
609.84	212.99
609.99	135.75
610.15	105.32
610.30	18.72
610.46	84.26
610.61	79.58
610.76	0.00
610.92	88.94
611.07	95.96
611.23	51.49
611.38	53.83
611.54	107.66
611.69	28.09
611.84	0.00
612.00	67.88
612.15	70.22
612.31	9.36
612.46	95.96
612.62	0.00
612.77	0.00
612.92	70.22
613.08	0.00
613.23	0.00
613.39	42.13
613.54	93.62
613.69	203.63
613.85	435.34
614.00	648.33
614.15	620.24
614.31	475.13
614.46	337.04
614.62	283.20
614.77	149.79
614.92	4.68
615.08	74.90
615.23	35.11
615.38	42.13
615.54	70.22
615.69	32.77
615.84	170.86
616.00	58.51
616.15	196.60
616.30	205.97
616.46	56.17
616.61	56.17
616.76	0.00
616.92	58.51
617.07	51.49
617.22	46.81
617.37	60.85
617.53	30.43
617.68	11.70
617.83	56.17
617.99	44.47
618.14	74.90
618.29	35.11
618.45	53.83
618.60	51.49
618.75	65.54
618.90	44.47
619.06	0.00
619.21	98.30
619.36	44.47
619.51	0.00
619.67	25.75
619.82	14.04
619.97	44.47
620.12	0.00
620.28	0.00
620.43	35.11
620.58	16.38
620.73	58.51
620.89	32.77
621.04	65.54
621.19	77.24
621.34	149.79
621.49	133.41
621.65	91.28
621.80	74.90
621.95	25.75
622.10	46.81
622.25	4.68
622.41	0.00
622.56	0.00
622.71	0.00
622.86	58.51
623.01	53.83
623.16	74.90
623.32	28.09
623.47	46.81
623.62	79.58
623.77	51.49
623.92	42.13
624.07	58.51
624.23	105.32
624.38	2.34
624.53	35.11
624.68	56.17
624.83	16.38
624.98	44.47
625.13	0.00
625.29	16.38
625.44	30.43
625.59	100.64
625.74	16.38
625.89	16.38
626.04	102.98
626.19	191.92
626.34	367.46
626.49	376.83
626.65	250.44
626.80	140.43
626.95	77.24
627.10	93.62
627.25	49.15
627.40	23.41
627.55	16.38
627.70	65.54
627.85	21.06
628.00	0.00
628.15	7.02
628.30	9.36
628.45	63.19
628.60	37.45
628.76	39.79
628.91	95.96
629.06	32.77
629.21	0.00
629.36	0.00
629.51	30.43
629.66	63.19
629.81	18.72
629.96	81.92
630.11	107.66
630.26	86.60
630.41	161.50
630.56	112.35
630.71	140.43
630.86	53.83
631.01	44.47
631.16	39.79
631.31	70.22
631.46	0.00
631.61	9.36
631.76	23.41
631.91	21.06
632.06	100.64
632.21	60.85
632.36	0.00
632.51	0.00
632.66	46.81
632.81	37.45
632.96	114.69
633.10	180.22
633.25	299.59
633.40	294.91
633.55	182.56
633.70	140.43
633.85	102.98
634.00	37.45
634.15	30.43
634.30	0.00
634.45	60.85
634.60	30.43
634.75	14.04
634.90	74.90
635.05	72.56
635.19	28.09
635.34	37.45
635.49	81.92
635.64	0.00
635.79	32.77
635.94	0.00
636.09	39.79
636.24	53.83
636.39	28.09
636.53	0.00
636.68	67.88
636.83	67.88
636.98	0.00
637.13	16.38
637.28	46.81
637.43	21.06
637.57	58.51
637.72	138.09
637.87	304.27
638.02	414.27
638.17	454.06
638.32	381.51
638.46	308.95
638.61	152.13
638.76	194.26
638.91	142.77
639.06	77.24
639.20	42.13
639.35	133.41
639.50	46.81
639.65	227.03
639.80	493.85
639.94	634.29
640.09	699.82
640.24	517.26
640.39	402.57
640.54	311.29
640.68	114.69
640.83	114.69
640.98	32.77
641.13	72.56
641.27	84.26
641.42	4.68
641.57	37.45
641.72	23.41
641.86	21.06
642.01	56.17
642.16	56.17
642.31	60.85
642.45	58.51
642.60	18.72
642.75	0.00
642.90	30.43
643.04	9.36
643.19	56.17
643.34	117.03
643.48	86.60
643.63	0.00
643.78	11.70
643.93	0.00
644.07	35.11
644.22	44.47
644.37	16.38
644.51	67.88
644.66	28.09
644.81	86.60
644.95	9.36
645.10	44.47
645.25	46.81
645.39	0.00
645.54	0.00
645.69	44.47
645.83	74.90
645.98	42.13
646.13	25.75
646.27	35.11
646.42	46.81
646.57	51.49
646.71	138.09
646.86	23.41
647.00	32.77
647.15	28.09
647.30	0.00
647.44	74.90
647.59	0.00
647.74	18.72
647.88	81.92
648.03	128.73
648.17	0.00
648.32	63.19
648.47	51.49
648.61	67.88
648.76	42.13
648.90	126.39
649.05	98.30
649.20	114.69
649.34	0.00
649.49	0.00
649.63	42.13
649.78	0.00
649.92	46.81
650.07	77.24
650.21	217.67
650.36	341.72
650.51	402.57
650.65	320.65
650.80	259.80
650.94	191.92
651.09	119.37
651.23	28.09
651.38	53.83
651.52	86.60
651.67	0.00
651.81	51.49
651.96	28.09
652.10	60.85
652.25	0.00
652.39	58.51
652.54	126.39
652.68	44.47
652.83	65.54
652.97	74.90
653.12	168.52
653.26	131.07
653.41	65.54
653.55	56.17
653.70	79.58
653.84	49.15
653.99	0.00
654.13	30.43
654.27	23.41
654.42	91.28
654.56	37.45
654.71	65.54
654.85	2.34
655.00	51.49
655.14	65.54
655.29	2.34
655.43	81.92
655.57	39.79
655.72	102.98
655.86	84.26
656.01	0.00
656.15	46.81
656.30	67.88
656.44	53.83
656.58	32.77
656.73	53.83
656.87	4.68
657.01	18.72
657.16	28.09
657.30	0.00
657.45	42.13
657.59	11.70
657.73	65.54
657.88	9.36
658.02	30.43
658.16	0.00
658.31	60.85
658.45	0.00
658.60	18.72
658.74	0.00
658.88	11.70
659.03	28.09
659.17	74.90
659.31	63.19
659.46	170.86
659.60	231.71
659.74	189.58
659.89	98.30
660.03	168.52
660.17	35.11
660.32	39.79
660.46	23.41
660.60	135.75
660.74	79.58
660.89	95.96
661.03	4.68
661.17	72.56
661.32	44.47
661.46	0.00
661.60	4.68
661.74	65.54
661.89	91.28
662.03	21.06
662.17	0.00
662.31	110.01
662.46	88.94
662.60	46.81
662.74	0.00
662.88	39.79
663.03	72.56
663.17	32.77
663.31	0.00
663.45	4.68
663.60	32.77
663.74	0.00
663.88	63.19
664.02	14.04
664.17	58.51
664.31	91.28
664.45	7.02
664.59	30.43
664.73	28.09
664.88	53.83
665.02	117.03
665.16	21.06
665.30	49.15
665.44	49.15
665.59	18.72
665.73	51.49
665.87	14.04
666.01	46.81
666.15	53.83
666.29	16.38
666.44	11.70
666.58	0.00
666.72	102.98
666.86	35.11
667.00	53.83
667.14	93.62
667.28	39.79
667.43	147.45
667.57	278.52
667.71	332.36
667.85	325.33
667.99	180.22
668.13	224.69
668.27	154.48
668.41	65.54
668.56	117.03
668.70	124.05
668.84	58.51
668.98	0.00
669.12	11.70
669.26	67.88
669.40	74.90
669.54	49.15
669.68	9.36
669.82	2.34
669.96	72.56
670.10	18.72
670.25	7.02
670.39	39.79
670.53	0.00
670.67	98.30
670.81	63.19
670.95	18.72
671.09	0.00
671.23	88.94
671.37	140.43
671.51	168.52
671.65	187.24
671.79	156.82
671.93	131.07
672.07	58.51
672.21	100.64
672.35	2.34
672.49	58.51
672.63	21.06
672.77	53.83
672.91	4.68
673.05	39.79
673.19	0.00
673.33	42.13
673.47	14.04
673.61	0.00
673.75	14.04
673.89	30.43
674.03	46.81
674.17	14.04
674.31	0.00
674.45	0.00
674.59	18.72
674.73	0.00
674.87	74.90
675.01	32.77
675.15	9.36
675.29	16.38
675.43	14.04
675.56	56.17
675.70	53.83
675.84	28.09
675.98	42.13
676.12	37.45
676.26	18.72
676.40	56.17
676.54	0.00
676.68	0.00
676.82	9.36
676.96	56.17
677.10	14.04
677.23	16.38
677.37	14.04
677.51	30.43
677.65	14.04
677.79	28.09
677.93	46.81
678.07	28.09
678.21	93.62
678.34	32.77
678.48	0.00
678.62	4.68
678.76	25.75
678.90	98.30
679.04	4.68
679.18	0.00
679.31	25.75
679.45	0.00
679.59	88.94
679.73	46.81
679.87	25.75
680.00	145.11
680.14	23.41
680.28	0.00
680.42	0.00
680.56	28.09
680.70	49.15
680.83	44.47
680.97	35.11
681.11	51.49
681.25	23.41
681.39	58.51
681.52	39.79
681.66	58.51
681.80	0.00
681.94	0.00
682.07	23.41
682.21	7.02
682.35	0.00
682.49	11.70
682.62	35.11
682.76	42.13
682.90	56.17
683.04	7.02
683.17	35.11
683.31	32.77
683.45	60.85
683.59	2.34
683.72	0.00
683.86	49.15
684.00	7.02
684.13	88.94
684.27	58.51
684.41	0.00
684.55	21.06
684.68	23.41
684.82	9.36
684.96	32.77
685.09	28.09
685.23	0.00
685.37	86.60
685.50	0.00
685.64	21.06
685.78	46.81
685.91	9.36
686.05	81.92
686.19	63.19
686.32	0.00
686.46	0.00
686.60	56.17
686.73	0.00
686.87	63.19
687.01	32.77
687.14	86.60
687.28	0.00
687.42	84.26
687.55	119.37
687.69	25.75
687.82	14.04
687.96	0.00
688.10	58.51
688.23	25.75
688.37	0.00
688.50	39.79
688.64	16.38
688.78	60.85
688.91	46.81
689.05	0.00
689.18	0.00
689.32	37.45
689.46	79.58
689.59	25.75
689.73	37.45
689.86	77.24
690.00	0.00
690.13	60.85
690.27	0.00
690.41	0.00
690.54	77.24
690.68	0.00
690.81	39.79
690.95	0.00
691.08	88.94
691.22	25.75
691.35	91.28
691.49	77.24
691.62	0.00
691.76	0.00
691.89	7.02
692.03	16.38
692.16	0.00
692.30	0.00
692.43	44.47
692.57	58.51
692.70	91.28
692.84	161.50
692.97	138.09
693.11	124.05
693.24	79.58
693.38	100.64
693.51	25.75
693.65	37.45
693.78	37.45
693.92	88.94
694.05	63.19
694.19	0.00
694.32	0.00
694.45	51.49
694.59	58.51
694.72	79.58
694.86	107.66
694.99	23.41
695.13	0.00
695.26	7.02
695.39	42.13
695.53	25.75
695.66	67.88
695.80	32.77
695.93	0.00
696.07	49.15
696.20	46.81
696.33	11.70
696.47	51.49
696.60	63.19
696.73	72.56
696.87	18.72
697.00	51.49
697.14	88.94
697.27	107.66
697.40	53.83
697.54	39.79
697.67	0.00
697.80	2.34
697.94	65.54
698.07	9.36
698.21	35.11
698.34	11.70
698.47	0.00
698.61	88.94
698.74	53.83
698.87	11.70
699.01	95.96
699.14	49.15
699.27	49.15
699.40	4.68
699.54	0.00
699.67	0.00
699.80	7.02
699.94	0.00
700.07	11.70
700.20	51.49
700.34	39.79
700.47	28.09
700.60	74.90
700.73	32.77
700.87	0.00
701.00	23.41
701.13	44.47
701.26	65.54
701.40	53.83
701.53	70.22
701.66	51.49
701.79	0.00
701.93	72.56
702.06	0.00
702.19	86.60
702.32	28.09
702.46	0.00
702.59	102.98
702.72	107.66
702.85	124.05
702.99	159.16
703.12	241.08
703.25	278.52
703.38	152.13
703.51	229.37
703.65	152.13
703.78	93.62
703.91	88.94
704.04	56.17
704.17	39.79
704.31	35.11
704.44	58.51
704.57	0.00
704.70	49.15
704.83	72.56
704.96	0.00
705.10	88.94
705.23	0.00
>>>>>End Processed Spectral Data<<<<<
