SpectraSuite Data File
++++++++++++++++++++++++++++++++++++
Date: Fri Oct 04 12:13:24 GMT-05:00 2013
User: price-jones
Dark Spectrum Present: No
Reference Spectrum Present: No
Number of Sampled Component Spectra: 1
Spectrometers: USB2+H05261
Integration Time (usec): 10000 (USB2+H05261)
Spectra Averaged: 1 (USB2+H05261)
Boxcar Smoothing: 0 (USB2+H05261)
Correct for Electrical Dark: No (USB2+H05261)
Strobe/Lamp Enabled: No (USB2+H05261)
Correct for Detector Non-linearity: No (USB2+H05261)
Correct for Stray Light: No (USB2+H05261)
Number of Pixels in Processed Spectrum: 2048
>>>>>Begin Processed Spectral Data<<<<<
365.73	35.11
365.92	35.11
366.12	35.11
366.32	0.00
366.52	0.00
366.72	0.00
366.91	0.00
367.11	0.00
367.31	0.00
367.51	0.00
367.70	0.00
367.90	0.00
368.10	0.00
368.30	0.00
368.49	0.00
368.69	0.00
368.89	0.00
369.09	0.00
369.28	0.00
369.48	0.00
369.68	0.00
369.87	0.00
370.07	0.00
370.27	0.00
370.47	0.00
370.66	0.00
370.86	0.00
371.06	0.00
371.25	0.00
371.45	18.72
371.65	28.09
371.84	0.00
372.04	0.00
372.24	0.00
372.44	0.00
372.63	28.09
372.83	0.00
373.03	84.26
373.22	14.04
373.42	30.43
373.62	9.36
373.81	72.56
374.01	11.70
374.21	74.90
374.40	18.72
374.60	28.09
374.79	63.19
374.99	0.00
375.19	58.51
375.38	37.45
375.58	21.06
375.78	25.75
375.97	44.47
376.17	11.70
376.37	39.79
376.56	46.81
376.76	0.00
376.95	39.79
377.15	32.77
377.35	74.90
377.54	14.04
377.74	0.00
377.93	32.77
378.13	23.41
378.33	93.62
378.52	84.26
378.72	16.38
378.91	58.51
379.11	0.00
379.31	0.00
379.50	42.13
379.70	0.00
379.89	46.81
380.09	44.47
380.28	0.00
380.48	0.00
380.68	0.00
380.87	0.00
381.07	0.00
381.26	95.96
381.46	63.19
381.65	0.00
381.85	23.41
382.04	0.00
382.24	49.15
382.43	35.11
382.63	0.00
382.83	32.77
383.02	0.00
383.22	18.72
383.41	0.00
383.61	0.00
383.80	0.00
384.00	32.77
384.19	25.75
384.39	2.34
384.58	58.51
384.78	16.38
384.97	42.13
385.17	46.81
385.36	9.36
385.56	32.77
385.75	51.49
385.95	74.90
386.14	39.79
386.34	0.00
386.53	0.00
386.72	14.04
386.92	0.00
387.11	32.77
387.31	0.00
387.50	49.15
387.70	0.00
387.89	60.85
388.09	0.00
388.28	11.70
388.48	0.00
388.67	9.36
388.86	110.01
389.06	0.00
389.25	4.68
389.45	0.00
389.64	0.00
389.84	0.00
390.03	25.75
390.22	0.00
390.42	37.45
390.61	9.36
390.81	0.00
391.00	0.00
391.19	14.04
391.39	28.09
391.58	0.00
391.78	25.75
391.97	0.00
392.16	0.00
392.36	0.00
392.55	100.64
392.75	65.54
392.94	0.00
393.13	18.72
393.33	28.09
393.52	0.00
393.71	0.00
393.91	0.00
394.10	0.00
394.29	74.90
394.49	42.13
394.68	105.32
394.88	114.69
395.07	32.77
395.26	18.72
395.46	0.00
395.65	11.70
395.84	0.00
396.04	79.58
396.23	16.38
396.42	49.15
396.62	9.36
396.81	14.04
397.00	11.70
397.19	30.43
397.39	14.04
397.58	23.41
397.77	18.72
397.97	30.43
398.16	0.00
398.35	51.49
398.55	91.28
398.74	0.00
398.93	37.45
399.12	53.83
399.32	32.77
399.51	0.00
399.70	81.92
399.90	37.45
400.09	4.68
400.28	53.83
400.47	0.00
400.67	46.81
400.86	0.00
401.05	25.75
401.24	14.04
401.44	77.24
401.63	67.88
401.82	65.54
402.01	0.00
402.21	39.79
402.40	49.15
402.59	0.00
402.78	7.02
402.97	0.00
403.17	91.28
403.36	49.15
403.55	21.06
403.74	0.00
403.93	0.00
404.13	25.75
404.32	4.68
404.51	0.00
404.70	49.15
404.89	16.38
405.09	14.04
405.28	56.17
405.47	18.72
405.66	56.17
405.85	84.26
406.05	74.90
406.24	39.79
406.43	53.83
406.62	30.43
406.81	23.41
407.00	79.58
407.20	42.13
407.39	53.83
407.58	140.43
407.77	4.68
407.96	74.90
408.15	23.41
408.34	0.00
408.54	0.00
408.73	65.54
408.92	21.06
409.11	0.00
409.30	7.02
409.49	60.85
409.68	72.56
409.87	53.83
410.07	37.45
410.26	0.00
410.45	63.19
410.64	7.02
410.83	0.00
411.02	63.19
411.21	37.45
411.40	16.38
411.59	4.68
411.78	7.02
411.98	81.92
412.17	0.00
412.36	0.00
412.55	21.06
412.74	0.00
412.93	4.68
413.12	49.15
413.31	32.77
413.50	39.79
413.69	37.45
413.88	98.30
414.07	35.11
414.26	2.34
414.45	79.58
414.64	65.54
414.83	140.43
415.02	2.34
415.22	51.49
415.41	18.72
415.60	0.00
415.79	0.00
415.98	0.00
416.17	0.00
416.36	70.22
416.55	18.72
416.74	86.60
416.93	21.06
417.12	16.38
417.31	51.49
417.50	0.00
417.69	0.00
417.88	58.51
418.07	14.04
418.26	60.85
418.45	28.09
418.64	16.38
418.83	30.43
419.02	16.38
419.21	79.58
419.39	32.77
419.58	53.83
419.77	28.09
419.96	37.45
420.15	0.00
420.34	28.09
420.53	21.06
420.72	0.00
420.91	4.68
421.10	32.77
421.29	42.13
421.48	0.00
421.67	42.13
421.86	49.15
422.05	0.00
422.24	53.83
422.43	2.34
422.61	28.09
422.80	0.00
422.99	0.00
423.18	18.72
423.37	0.00
423.56	0.00
423.75	0.00
423.94	102.98
424.13	18.72
424.32	0.00
424.50	16.38
424.69	79.58
424.88	56.17
425.07	88.94
425.26	49.15
425.45	39.79
425.64	7.02
425.83	35.11
426.01	60.85
426.20	0.00
426.39	0.00
426.58	0.00
426.77	0.00
426.96	58.51
427.15	14.04
427.33	9.36
427.52	0.00
427.71	2.34
427.90	11.70
428.09	60.85
428.28	39.79
428.46	0.00
428.65	25.75
428.84	102.98
429.03	2.34
429.22	112.35
429.40	0.00
429.59	0.00
429.78	30.43
429.97	107.66
430.16	44.47
430.34	32.77
430.53	79.58
430.72	37.45
430.91	25.75
431.10	39.79
431.28	88.94
431.47	0.00
431.66	18.72
431.85	0.00
432.03	35.11
432.22	0.00
432.41	16.38
432.60	81.92
432.79	0.00
432.97	70.22
433.16	4.68
433.35	46.81
433.54	56.17
433.72	0.00
433.91	0.00
434.10	0.00
434.28	72.56
434.47	65.54
434.66	7.02
434.85	0.00
435.03	0.00
435.22	95.96
435.41	0.00
435.59	4.68
435.78	7.02
435.97	28.09
436.16	7.02
436.34	23.41
436.53	0.00
436.72	42.13
436.90	2.34
437.09	0.00
437.28	11.70
437.46	11.70
437.65	60.85
437.84	0.00
438.02	44.47
438.21	0.00
438.40	51.49
438.58	95.96
438.77	23.41
438.96	32.77
439.14	4.68
439.33	9.36
439.52	2.34
439.70	51.49
439.89	0.00
440.08	25.75
440.26	102.98
440.45	28.09
440.63	65.54
440.82	51.49
441.01	0.00
441.19	32.77
441.38	4.68
441.57	37.45
441.75	72.56
441.94	11.70
442.12	0.00
442.31	4.68
442.50	18.72
442.68	7.02
442.87	18.72
443.05	21.06
443.24	0.00
443.43	0.00
443.61	0.00
443.80	72.56
443.98	79.58
444.17	35.11
444.35	91.28
444.54	0.00
444.73	74.90
444.91	46.81
445.10	4.68
445.28	35.11
445.47	79.58
445.65	133.41
445.84	35.11
446.02	42.13
446.21	35.11
446.39	30.43
446.58	7.02
446.77	32.77
446.95	0.00
447.14	0.00
447.32	79.58
447.51	67.88
447.69	65.54
447.88	53.83
448.06	9.36
448.25	18.72
448.43	51.49
448.62	37.45
448.80	51.49
448.99	11.70
449.17	0.00
449.36	11.70
449.54	9.36
449.73	65.54
449.91	79.58
450.10	0.00
450.28	11.70
450.46	23.41
450.65	74.90
450.83	93.62
451.02	86.60
451.20	28.09
451.39	65.54
451.57	77.24
451.76	65.54
451.94	9.36
452.13	0.00
452.31	37.45
452.49	11.70
452.68	0.00
452.86	0.00
453.05	23.41
453.23	37.45
453.42	42.13
453.60	63.19
453.78	28.09
453.97	42.13
454.15	4.68
454.34	81.92
454.52	63.19
454.70	35.11
454.89	28.09
455.07	0.00
455.26	18.72
455.44	63.19
455.62	25.75
455.81	72.56
455.99	14.04
456.17	74.90
456.36	11.70
456.54	79.58
456.73	46.81
456.91	21.06
457.09	14.04
457.28	0.00
457.46	81.92
457.64	63.19
457.83	21.06
458.01	0.00
458.19	23.41
458.38	28.09
458.56	42.13
458.74	7.02
458.93	46.81
459.11	58.51
459.29	86.60
459.48	0.00
459.66	0.00
459.84	0.00
460.03	28.09
460.21	39.79
460.39	0.00
460.57	51.49
460.76	37.45
460.94	9.36
461.12	91.28
461.31	21.06
461.49	42.13
461.67	37.45
461.85	77.24
462.04	0.00
462.22	60.85
462.40	88.94
462.59	28.09
462.77	23.41
462.95	23.41
463.13	28.09
463.32	9.36
463.50	4.68
463.68	18.72
463.86	2.34
464.05	0.00
464.23	86.60
464.41	16.38
464.59	53.83
464.78	0.00
464.96	84.26
465.14	42.13
465.32	42.13
465.50	0.00
465.69	79.58
465.87	25.75
466.05	110.01
466.23	81.92
466.41	46.81
466.60	44.47
466.78	58.51
466.96	25.75
467.14	14.04
467.32	100.64
467.51	105.32
467.69	46.81
467.87	0.00
468.05	0.00
468.23	0.00
468.41	56.17
468.60	72.56
468.78	51.49
468.96	39.79
469.14	145.11
469.32	39.79
469.50	30.43
469.69	93.62
469.87	60.85
470.05	44.47
470.23	21.06
470.41	72.56
470.59	32.77
470.77	4.68
470.95	32.77
471.14	0.00
471.32	39.79
471.50	51.49
471.68	16.38
471.86	21.06
472.04	28.09
472.22	74.90
472.40	56.17
472.58	7.02
472.77	77.24
472.95	14.04
473.13	74.90
473.31	32.77
473.49	0.00
473.67	53.83
473.85	79.58
474.03	14.04
474.21	0.00
474.39	93.62
474.57	30.43
474.75	39.79
474.93	4.68
475.12	35.11
475.30	0.00
475.48	32.77
475.66	39.79
475.84	98.30
476.02	88.94
476.20	0.00
476.38	0.00
476.56	37.45
476.74	0.00
476.92	0.00
477.10	60.85
477.28	7.02
477.46	51.49
477.64	21.06
477.82	131.07
478.00	46.81
478.18	0.00
478.36	42.13
478.54	67.88
478.72	39.79
478.90	0.00
479.08	2.34
479.26	2.34
479.44	67.88
479.62	51.49
479.80	51.49
479.98	0.00
480.16	4.68
480.34	65.54
480.52	67.88
480.70	102.98
480.88	107.66
481.06	0.00
481.24	23.41
481.41	63.19
481.59	28.09
481.77	0.00
481.95	16.38
482.13	56.17
482.31	67.88
482.49	51.49
482.67	30.43
482.85	0.00
483.03	56.17
483.21	35.11
483.39	0.00
483.57	51.49
483.74	53.83
483.92	2.34
484.10	53.83
484.28	25.75
484.46	0.00
484.64	7.02
484.82	86.60
485.00	44.47
485.18	16.38
485.35	0.00
485.53	105.32
485.71	79.58
485.89	0.00
486.07	35.11
486.25	49.15
486.43	51.49
486.61	88.94
486.78	23.41
486.96	35.11
487.14	81.92
487.32	25.75
487.50	14.04
487.68	65.54
487.85	18.72
488.03	88.94
488.21	60.85
488.39	79.58
488.57	23.41
488.75	0.00
488.92	60.85
489.10	0.00
489.28	0.00
489.46	42.13
489.64	0.00
489.81	16.38
489.99	18.72
490.17	11.70
490.35	93.62
490.53	0.00
490.70	88.94
490.88	142.77
491.06	0.00
491.24	37.45
491.41	39.79
491.59	16.38
491.77	0.00
491.95	30.43
492.13	0.00
492.30	23.41
492.48	0.00
492.66	74.90
492.84	25.75
493.01	93.62
493.19	32.77
493.37	49.15
493.54	18.72
493.72	28.09
493.90	4.68
494.08	67.88
494.25	23.41
494.43	23.41
494.61	11.70
494.79	110.01
494.96	2.34
495.14	30.43
495.32	49.15
495.49	100.64
495.67	46.81
495.85	39.79
496.02	95.96
496.20	28.09
496.38	56.17
496.55	32.77
496.73	100.64
496.91	32.77
497.09	67.88
497.26	0.00
497.44	35.11
497.62	30.43
497.79	49.15
497.97	9.36
498.14	98.30
498.32	0.00
498.50	39.79
498.67	32.77
498.85	2.34
499.03	14.04
499.20	46.81
499.38	65.54
499.56	46.81
499.73	0.00
499.91	30.43
500.08	35.11
500.26	140.43
500.44	79.58
500.61	4.68
500.79	67.88
500.97	44.47
501.14	51.49
501.32	51.49
501.49	39.79
501.67	44.47
501.84	84.26
502.02	86.60
502.20	53.83
502.37	56.17
502.55	70.22
502.72	18.72
502.90	30.43
503.07	35.11
503.25	11.70
503.43	0.00
503.60	16.38
503.78	35.11
503.95	91.28
504.13	9.36
504.30	0.00
504.48	0.00
504.65	0.00
504.83	51.49
505.01	37.45
505.18	0.00
505.36	7.02
505.53	58.51
505.71	72.56
505.88	37.45
506.06	42.13
506.23	37.45
506.41	102.98
506.58	30.43
506.76	37.45
506.93	88.94
507.11	49.15
507.28	0.00
507.46	44.47
507.63	49.15
507.81	4.68
507.98	49.15
508.16	42.13
508.33	70.22
508.50	0.00
508.68	0.00
508.85	0.00
509.03	44.47
509.20	32.77
509.38	46.81
509.55	93.62
509.73	9.36
509.90	37.45
510.08	53.83
510.25	46.81
510.42	32.77
510.60	56.17
510.77	23.41
510.95	39.79
511.12	0.00
511.30	63.19
511.47	23.41
511.64	77.24
511.82	23.41
511.99	16.38
512.17	25.75
512.34	53.83
512.51	84.26
512.69	39.79
512.86	65.54
513.04	21.06
513.21	2.34
513.38	0.00
513.56	56.17
513.73	14.04
513.90	35.11
514.08	21.06
514.25	32.77
514.43	32.77
514.60	70.22
514.77	18.72
514.95	95.96
515.12	114.69
515.29	0.00
515.47	79.58
515.64	37.45
515.81	86.60
515.99	0.00
516.16	7.02
516.33	60.85
516.51	56.17
516.68	0.00
516.85	0.00
517.03	149.79
517.20	11.70
517.37	35.11
517.54	65.54
517.72	44.47
517.89	67.88
518.06	60.85
518.24	39.79
518.41	67.88
518.58	95.96
518.75	0.00
518.93	107.66
519.10	51.49
519.27	88.94
519.45	74.90
519.62	67.88
519.79	37.45
519.96	23.41
520.14	93.62
520.31	18.72
520.48	37.45
520.65	42.13
520.83	25.75
521.00	0.00
521.17	74.90
521.34	30.43
521.52	0.00
521.69	72.56
521.86	4.68
522.03	63.19
522.20	25.75
522.38	0.00
522.55	100.64
522.72	0.00
522.89	7.02
523.07	46.81
523.24	49.15
523.41	21.06
523.58	84.26
523.75	0.00
523.92	44.47
524.10	70.22
524.27	30.43
524.44	49.15
524.61	49.15
524.78	37.45
524.96	60.85
525.13	0.00
525.30	84.26
525.47	60.85
525.64	7.02
525.81	0.00
525.98	60.85
526.16	42.13
526.33	53.83
526.50	0.00
526.67	37.45
526.84	70.22
527.01	0.00
527.18	79.58
527.36	21.06
527.53	35.11
527.70	65.54
527.87	28.09
528.04	14.04
528.21	56.17
528.38	0.00
528.55	0.00
528.72	67.88
528.89	149.79
529.07	152.13
529.24	98.30
529.41	100.64
529.58	65.54
529.75	86.60
529.92	14.04
530.09	98.30
530.26	28.09
530.43	124.05
530.60	121.71
530.77	37.45
530.94	0.00
531.11	21.06
531.28	14.04
531.46	49.15
531.63	79.58
531.80	28.09
531.97	84.26
532.14	56.17
532.31	58.51
532.48	25.75
532.65	60.85
532.82	65.54
532.99	56.17
533.16	53.83
533.33	37.45
533.50	70.22
533.67	14.04
533.84	58.51
534.01	53.83
534.18	32.77
534.35	60.85
534.52	32.77
534.69	39.79
534.86	23.41
535.03	46.81
535.20	21.06
535.37	21.06
535.54	16.38
535.71	72.56
535.88	0.00
536.05	42.13
536.22	138.09
536.38	0.00
536.55	11.70
536.72	39.79
536.89	46.81
537.06	67.88
537.23	42.13
537.40	56.17
537.57	0.00
537.74	25.75
537.91	91.28
538.08	18.72
538.25	14.04
538.42	37.45
538.59	39.79
538.75	0.00
538.92	53.83
539.09	65.54
539.26	84.26
539.43	63.19
539.60	0.00
539.77	98.30
539.94	42.13
540.11	0.00
540.28	114.69
540.44	81.92
540.61	35.11
540.78	25.75
540.95	53.83
541.12	0.00
541.29	21.06
541.46	74.90
541.62	98.30
541.79	0.00
541.96	65.54
542.13	25.75
542.30	37.45
542.47	0.00
542.63	0.00
542.80	49.15
542.97	14.04
543.14	0.00
543.31	60.85
543.48	86.60
543.64	46.81
543.81	49.15
543.98	35.11
544.15	0.00
544.32	21.06
544.48	7.02
544.65	42.13
544.82	81.92
544.99	56.17
545.16	0.00
545.32	0.00
545.49	86.60
545.66	53.83
545.83	51.49
546.00	0.00
546.16	0.00
546.33	0.00
546.50	65.54
546.67	91.28
546.83	23.41
547.00	86.60
547.17	79.58
547.34	84.26
547.50	105.32
547.67	0.00
547.84	63.19
548.00	67.88
548.17	11.70
548.34	67.88
548.51	4.68
548.67	14.04
548.84	0.00
549.01	72.56
549.18	49.15
549.34	39.79
549.51	0.00
549.68	39.79
549.84	67.88
550.01	56.17
550.18	56.17
550.34	18.72
550.51	77.24
550.68	46.81
550.84	0.00
551.01	60.85
551.18	32.77
551.34	35.11
551.51	39.79
551.68	56.17
551.84	65.54
552.01	30.43
552.18	58.51
552.34	0.00
552.51	39.79
552.68	37.45
552.84	0.00
553.01	11.70
553.18	11.70
553.34	30.43
553.51	98.30
553.67	56.17
553.84	25.75
554.01	4.68
554.17	42.13
554.34	21.06
554.51	58.51
554.67	23.41
554.84	100.64
555.00	93.62
555.17	39.79
555.33	84.26
555.50	138.09
555.67	18.72
555.83	7.02
556.00	30.43
556.16	32.77
556.33	0.00
556.50	28.09
556.66	67.88
556.83	4.68
556.99	102.98
557.16	63.19
557.32	4.68
557.49	14.04
557.65	0.00
557.82	42.13
557.98	93.62
558.15	53.83
558.32	4.68
558.48	42.13
558.65	124.05
558.81	77.24
558.98	51.49
559.14	30.43
559.31	42.13
559.47	2.34
559.64	72.56
559.80	18.72
559.97	77.24
560.13	32.77
560.30	72.56
560.46	0.00
560.63	35.11
560.79	42.13
560.96	91.28
561.12	9.36
561.29	84.26
561.45	51.49
561.61	70.22
561.78	51.49
561.94	67.88
562.11	77.24
562.27	72.56
562.44	30.43
562.60	77.24
562.77	67.88
562.93	51.49
563.10	114.69
563.26	70.22
563.42	56.17
563.59	0.00
563.75	25.75
563.92	81.92
564.08	42.13
564.24	7.02
564.41	72.56
564.57	25.75
564.74	79.58
564.90	91.28
565.07	84.26
565.23	23.41
565.39	37.45
565.56	84.26
565.72	65.54
565.88	14.04
566.05	28.09
566.21	49.15
566.38	37.45
566.54	53.83
566.70	77.24
566.87	63.19
567.03	7.02
567.19	56.17
567.36	60.85
567.52	46.81
567.68	0.00
567.85	37.45
568.01	93.62
568.17	124.05
568.34	49.15
568.50	117.03
568.66	23.41
568.83	23.41
568.99	63.19
569.15	107.66
569.32	53.83
569.48	58.51
569.64	74.90
569.81	56.17
569.97	16.38
570.13	65.54
570.30	53.83
570.46	37.45
570.62	7.02
570.78	0.00
570.95	0.00
571.11	44.47
571.27	44.47
571.43	140.43
571.60	114.69
571.76	21.06
571.92	88.94
572.09	0.00
572.25	70.22
572.41	21.06
572.57	79.58
572.74	14.04
572.90	72.56
573.06	0.00
573.22	72.56
573.38	37.45
573.55	51.49
573.71	14.04
573.87	98.30
574.03	0.00
574.20	28.09
574.36	79.58
574.52	131.07
574.68	14.04
574.84	25.75
575.01	35.11
575.17	128.73
575.33	67.88
575.49	23.41
575.65	46.81
575.82	72.56
575.98	95.96
576.14	77.24
576.30	0.00
576.46	72.56
576.62	46.81
576.79	53.83
576.95	18.72
577.11	28.09
577.27	18.72
577.43	51.49
577.59	53.83
577.75	16.38
577.92	14.04
578.08	7.02
578.24	16.38
578.40	46.81
578.56	0.00
578.72	56.17
578.88	72.56
579.04	44.47
579.21	56.17
579.37	77.24
579.53	67.88
579.69	81.92
579.85	49.15
580.01	58.51
580.17	23.41
580.33	100.64
580.49	9.36
580.65	102.98
580.82	81.92
580.98	107.66
581.14	46.81
581.30	44.47
581.46	0.00
581.62	70.22
581.78	46.81
581.94	9.36
582.10	135.75
582.26	70.22
582.42	86.60
582.58	60.85
582.74	0.00
582.90	9.36
583.06	39.79
583.22	18.72
583.38	2.34
583.54	46.81
583.70	63.19
583.86	138.09
584.02	60.85
584.18	42.13
584.34	53.83
584.50	56.17
584.66	65.54
584.82	88.94
584.98	4.68
585.14	0.00
585.30	32.77
585.46	39.79
585.62	2.34
585.78	44.47
585.94	74.90
586.10	35.11
586.26	53.83
586.42	117.03
586.58	60.85
586.74	32.77
586.90	39.79
587.06	32.77
587.22	0.00
587.38	0.00
587.54	44.47
587.70	70.22
587.86	49.15
588.02	2.34
588.18	56.17
588.34	49.15
588.49	81.92
588.65	60.85
588.81	60.85
588.97	7.02
589.13	39.79
589.29	21.06
589.45	32.77
589.61	49.15
589.77	37.45
589.93	32.77
590.08	0.00
590.24	9.36
590.40	9.36
590.56	9.36
590.72	37.45
590.88	110.01
591.04	100.64
591.20	0.00
591.35	51.49
591.51	46.81
591.67	0.00
591.83	56.17
591.99	18.72
592.15	0.00
592.31	77.24
592.46	58.51
592.62	42.13
592.78	70.22
592.94	46.81
593.10	28.09
593.26	0.00
593.41	4.68
593.57	0.00
593.73	74.90
593.89	14.04
594.05	0.00
594.20	145.11
594.36	74.90
594.52	2.34
594.68	86.60
594.84	100.64
594.99	110.01
595.15	110.01
595.31	42.13
595.47	35.11
595.62	81.92
595.78	25.75
595.94	28.09
596.10	18.72
596.25	42.13
596.41	56.17
596.57	23.41
596.73	74.90
596.88	84.26
597.04	53.83
597.20	0.00
597.36	51.49
597.51	23.41
597.67	88.94
597.83	28.09
597.99	56.17
598.14	21.06
598.30	65.54
598.46	23.41
598.61	37.45
598.77	4.68
598.93	30.43
599.09	35.11
599.24	145.11
599.40	35.11
599.56	2.34
599.71	110.01
599.87	21.06
600.03	42.13
600.18	95.96
600.34	70.22
600.50	58.51
600.65	30.43
600.81	0.00
600.97	32.77
601.12	2.34
601.28	14.04
601.44	70.22
601.59	56.17
601.75	51.49
601.91	56.17
602.06	81.92
602.22	98.30
602.37	32.77
602.53	0.00
602.69	4.68
602.84	28.09
603.00	51.49
603.16	70.22
603.31	121.71
603.47	49.15
603.62	25.75
603.78	37.45
603.94	28.09
604.09	0.00
604.25	21.06
604.40	39.79
604.56	46.81
604.71	35.11
604.87	51.49
605.03	21.06
605.18	42.13
605.34	9.36
605.49	21.06
605.65	28.09
605.80	39.79
605.96	86.60
606.12	30.43
606.27	18.72
606.43	131.07
606.58	74.90
606.74	9.36
606.89	51.49
607.05	37.45
607.20	44.47
607.36	0.00
607.51	4.68
607.67	0.00
607.82	25.75
607.98	9.36
608.13	16.38
608.29	0.00
608.44	93.62
608.60	30.43
608.75	93.62
608.91	93.62
609.06	63.19
609.22	0.00
609.37	42.13
609.53	28.09
609.68	7.02
609.84	67.88
609.99	16.38
610.15	0.00
610.30	70.22
610.46	70.22
610.61	39.79
610.76	23.41
610.92	81.92
611.07	4.68
611.23	9.36
611.38	39.79
611.54	35.11
611.69	37.45
611.84	70.22
612.00	53.83
612.15	25.75
612.31	4.68
612.46	0.00
612.62	37.45
612.77	70.22
612.92	9.36
613.08	18.72
613.23	39.79
613.39	79.58
613.54	77.24
613.69	0.00
613.85	77.24
614.00	14.04
614.15	39.79
614.31	51.49
614.46	95.96
614.62	53.83
614.77	58.51
614.92	16.38
615.08	81.92
615.23	0.00
615.38	117.03
615.54	30.43
615.69	0.00
615.84	70.22
616.00	88.94
616.15	11.70
616.30	65.54
616.46	44.47
616.61	119.37
616.76	51.49
616.92	37.45
617.07	60.85
617.22	46.81
617.37	35.11
617.53	131.07
617.68	58.51
617.83	126.39
617.99	35.11
618.14	93.62
618.29	28.09
618.45	53.83
618.60	53.83
618.75	44.47
618.90	0.00
619.06	0.00
619.21	67.88
619.36	32.77
619.51	32.77
619.67	16.38
619.82	95.96
619.97	93.62
620.12	119.37
620.28	39.79
620.43	56.17
620.58	25.75
620.73	0.00
620.89	37.45
621.04	100.64
621.19	18.72
621.34	23.41
621.49	53.83
621.65	46.81
621.80	0.00
621.95	51.49
622.10	53.83
622.25	0.00
622.41	0.00
622.56	81.92
622.71	7.02
622.86	0.00
623.01	32.77
623.16	65.54
623.32	23.41
623.47	81.92
623.62	63.19
623.77	32.77
623.92	23.41
624.07	37.45
624.23	56.17
624.38	35.11
624.53	51.49
624.68	0.00
624.83	16.38
624.98	51.49
625.13	56.17
625.29	84.26
625.44	18.72
625.59	4.68
625.74	0.00
625.89	28.09
626.04	0.00
626.19	65.54
626.34	110.01
626.49	0.00
626.65	107.66
626.80	0.00
626.95	18.72
627.10	18.72
627.25	0.00
627.40	37.45
627.55	46.81
627.70	74.90
627.85	60.85
628.00	88.94
628.15	107.66
628.30	84.26
628.45	65.54
628.60	25.75
628.76	0.00
628.91	2.34
629.06	35.11
629.21	74.90
629.36	46.81
629.51	30.43
629.66	21.06
629.81	74.90
629.96	2.34
630.11	0.00
630.26	56.17
630.41	63.19
630.56	18.72
630.71	0.00
630.86	56.17
631.01	74.90
631.16	74.90
631.31	51.49
631.46	0.00
631.61	25.75
631.76	0.00
631.91	44.47
632.06	0.00
632.21	32.77
632.36	25.75
632.51	51.49
632.66	37.45
632.81	9.36
632.96	60.85
633.10	25.75
633.25	51.49
633.40	25.75
633.55	49.15
633.70	0.00
633.85	56.17
634.00	67.88
634.15	0.00
634.30	25.75
634.45	32.77
634.60	28.09
634.75	0.00
634.90	42.13
635.05	117.03
635.19	28.09
635.34	70.22
635.49	67.88
635.64	72.56
635.79	42.13
635.94	39.79
636.09	65.54
636.24	63.19
636.39	51.49
636.53	81.92
636.68	0.00
636.83	0.00
636.98	11.70
637.13	30.43
637.28	23.41
637.43	84.26
637.57	0.00
637.72	86.60
637.87	46.81
638.02	51.49
638.17	42.13
638.32	95.96
638.46	14.04
638.61	49.15
638.76	42.13
638.91	86.60
639.06	30.43
639.20	0.00
639.35	56.17
639.50	74.90
639.65	72.56
639.80	23.41
639.94	60.85
640.09	25.75
640.24	0.00
640.39	0.00
640.54	72.56
640.68	4.68
640.83	32.77
640.98	35.11
641.13	51.49
641.27	4.68
641.42	30.43
641.57	124.05
641.72	58.51
641.86	0.00
642.01	32.77
642.16	0.00
642.31	4.68
642.45	37.45
642.60	65.54
642.75	28.09
642.90	46.81
643.04	25.75
643.19	39.79
643.34	0.00
643.48	86.60
643.63	95.96
643.78	114.69
643.93	74.90
644.07	81.92
644.22	98.30
644.37	70.22
644.51	74.90
644.66	0.00
644.81	0.00
644.95	67.88
645.10	72.56
645.25	9.36
645.39	46.81
645.54	30.43
645.69	42.13
645.83	84.26
645.98	74.90
646.13	42.13
646.27	102.98
646.42	0.00
646.57	28.09
646.71	0.00
646.86	72.56
647.00	53.83
647.15	46.81
647.30	88.94
647.44	110.01
647.59	58.51
647.74	28.09
647.88	32.77
648.03	58.51
648.17	60.85
648.32	44.47
648.47	0.00
648.61	21.06
648.76	70.22
648.90	74.90
649.05	67.88
649.20	30.43
649.34	7.02
649.49	110.01
649.63	28.09
649.78	21.06
649.92	42.13
650.07	86.60
650.21	58.51
650.36	0.00
650.51	72.56
650.65	0.00
650.80	28.09
650.94	28.09
651.09	0.00
651.23	28.09
651.38	0.00
651.52	81.92
651.67	56.17
651.81	58.51
651.96	32.77
652.10	32.77
652.25	72.56
652.39	95.96
652.54	98.30
652.68	37.45
652.83	21.06
652.97	44.47
653.12	107.66
653.26	81.92
653.41	11.70
653.55	0.00
653.70	7.02
653.84	67.88
653.99	0.00
654.13	56.17
654.27	9.36
654.42	4.68
654.56	18.72
654.71	51.49
654.85	11.70
655.00	30.43
655.14	70.22
655.29	119.37
655.43	21.06
655.57	28.09
655.72	67.88
655.86	0.00
656.01	11.70
656.15	98.30
656.30	46.81
656.44	124.05
656.58	0.00
656.73	67.88
656.87	39.79
657.01	67.88
657.16	46.81
657.30	49.15
657.45	56.17
657.59	0.00
657.73	4.68
657.88	0.00
658.02	35.11
658.16	0.00
658.31	0.00
658.45	23.41
658.60	0.00
658.74	0.00
658.88	56.17
659.03	25.75
659.17	32.77
659.31	30.43
659.46	53.83
659.60	35.11
659.74	37.45
659.89	0.00
660.03	0.00
660.17	53.83
660.32	0.00
660.46	21.06
660.60	9.36
660.74	32.77
660.89	2.34
661.03	0.00
661.17	0.00
661.32	37.45
661.46	65.54
661.60	32.77
661.74	0.00
661.89	53.83
662.03	65.54
662.17	23.41
662.31	28.09
662.46	23.41
662.60	21.06
662.74	0.00
662.88	91.28
663.03	0.00
663.17	39.79
663.31	0.00
663.45	30.43
663.60	91.28
663.74	30.43
663.88	9.36
664.02	65.54
664.17	60.85
664.31	60.85
664.45	53.83
664.59	51.49
664.73	67.88
664.88	79.58
665.02	93.62
665.16	21.06
665.30	32.77
665.44	11.70
665.59	70.22
665.73	51.49
665.87	0.00
666.01	67.88
666.15	95.96
666.29	128.73
666.44	121.71
666.58	49.15
666.72	0.00
666.86	37.45
667.00	7.02
667.14	23.41
667.28	35.11
667.43	91.28
667.57	0.00
667.71	16.38
667.85	0.00
667.99	0.00
668.13	0.00
668.27	39.79
668.41	63.19
668.56	0.00
668.70	28.09
668.84	74.90
668.98	23.41
669.12	35.11
669.26	0.00
669.40	0.00
669.54	100.64
669.68	49.15
669.82	30.43
669.96	0.00
670.10	11.70
670.25	16.38
670.39	93.62
670.53	84.26
670.67	140.43
670.81	65.54
670.95	46.81
671.09	18.72
671.23	0.00
671.37	0.00
671.51	72.56
671.65	65.54
671.79	30.43
671.93	0.00
672.07	63.19
672.21	0.00
672.35	21.06
672.49	16.38
672.63	49.15
672.77	0.00
672.91	51.49
673.05	25.75
673.19	74.90
673.33	44.47
673.47	84.26
673.61	37.45
673.75	21.06
673.89	11.70
674.03	25.75
674.17	0.00
674.31	102.98
674.45	49.15
674.59	56.17
674.73	35.11
674.87	7.02
675.01	67.88
675.15	114.69
675.29	39.79
675.43	58.51
675.56	25.75
675.70	23.41
675.84	0.00
675.98	37.45
676.12	2.34
676.26	44.47
676.40	39.79
676.54	102.98
676.68	58.51
676.82	67.88
676.96	49.15
677.10	30.43
677.23	70.22
677.37	0.00
677.51	9.36
677.65	93.62
677.79	86.60
677.93	11.70
678.07	0.00
678.21	0.00
678.34	23.41
678.48	30.43
678.62	46.81
678.76	0.00
678.90	25.75
679.04	28.09
679.18	21.06
679.31	0.00
679.45	70.22
679.59	0.00
679.73	39.79
679.87	25.75
680.00	63.19
680.14	21.06
680.28	0.00
680.42	74.90
680.56	30.43
680.70	0.00
680.83	72.56
680.97	39.79
681.11	98.30
681.25	65.54
681.39	67.88
681.52	0.00
681.66	0.00
681.80	102.98
681.94	0.00
682.07	65.54
682.21	46.81
682.35	35.11
682.49	0.00
682.62	0.00
682.76	51.49
682.90	44.47
683.04	74.90
683.17	42.13
683.31	42.13
683.45	14.04
683.59	0.00
683.72	32.77
683.86	51.49
684.00	0.00
684.13	2.34
684.27	4.68
684.41	11.70
684.55	28.09
684.68	32.77
684.82	37.45
684.96	0.00
685.09	4.68
685.23	56.17
685.37	0.00
685.50	2.34
685.64	23.41
685.78	9.36
685.91	35.11
686.05	44.47
686.19	72.56
686.32	28.09
686.46	53.83
686.60	30.43
686.73	44.47
686.87	46.81
687.01	79.58
687.14	2.34
687.28	0.00
687.42	35.11
687.55	56.17
687.69	25.75
687.82	39.79
687.96	63.19
688.10	9.36
688.23	2.34
688.37	7.02
688.50	35.11
688.64	46.81
688.78	0.00
688.91	28.09
689.05	58.51
689.18	39.79
689.32	37.45
689.46	70.22
689.59	51.49
689.73	46.81
689.86	51.49
690.00	56.17
690.13	0.00
690.27	0.00
690.41	46.81
690.54	4.68
690.68	16.38
690.81	16.38
690.95	11.70
691.08	0.00
691.22	65.54
691.35	0.00
691.49	0.00
691.62	28.09
691.76	21.06
691.89	0.00
692.03	0.00
692.16	46.81
692.30	14.04
692.43	67.88
692.57	30.43
692.70	84.26
692.84	16.38
692.97	65.54
693.11	28.09
693.24	0.00
693.38	4.68
693.51	0.00
693.65	0.00
693.78	32.77
693.92	0.00
694.05	21.06
694.19	2.34
694.32	46.81
694.45	46.81
694.59	39.79
694.72	102.98
694.86	35.11
694.99	39.79
695.13	58.51
695.26	56.17
695.39	72.56
695.53	16.38
695.66	23.41
695.80	72.56
695.93	23.41
696.07	2.34
696.20	42.13
696.33	70.22
696.47	23.41
696.60	56.17
696.73	93.62
696.87	2.34
697.00	18.72
697.14	25.75
697.27	0.00
697.40	67.88
697.54	56.17
697.67	60.85
697.80	18.72
697.94	44.47
698.07	0.00
698.21	14.04
698.34	42.13
698.47	2.34
698.61	0.00
698.74	39.79
698.87	0.00
699.01	0.00
699.14	32.77
699.27	0.00
699.40	32.77
699.54	100.64
699.67	0.00
699.80	16.38
699.94	14.04
700.07	16.38
700.20	0.00
700.34	4.68
700.47	23.41
700.60	51.49
700.73	25.75
700.87	58.51
701.00	0.00
701.13	72.56
701.26	0.00
701.40	65.54
701.53	21.06
701.66	9.36
701.79	91.28
701.93	35.11
702.06	14.04
702.19	14.04
702.32	0.00
702.46	0.00
702.59	49.15
702.72	77.24
702.85	14.04
702.99	0.00
703.12	0.00
703.25	0.00
703.38	0.00
703.51	0.00
703.65	100.64
703.78	32.77
703.91	58.51
704.04	16.38
704.17	0.00
704.31	14.04
704.44	7.02
704.57	35.11
704.70	60.85
704.83	39.79
704.96	32.77
705.10	25.75
705.23	65.54
>>>>>End Processed Spectral Data<<<<<
