SpectraSuite Data File
++++++++++++++++++++++++++++++++++++
Date: Fri Oct 04 12:13:26 GMT-05:00 2013
User: price-jones
Dark Spectrum Present: No
Reference Spectrum Present: No
Number of Sampled Component Spectra: 1
Spectrometers: USB2+H05261
Integration Time (usec): 10000 (USB2+H05261)
Spectra Averaged: 1 (USB2+H05261)
Boxcar Smoothing: 0 (USB2+H05261)
Correct for Electrical Dark: No (USB2+H05261)
Strobe/Lamp Enabled: No (USB2+H05261)
Correct for Detector Non-linearity: No (USB2+H05261)
Correct for Stray Light: No (USB2+H05261)
Number of Pixels in Processed Spectrum: 2048
>>>>>Begin Processed Spectral Data<<<<<
365.73	46.81
365.92	46.81
366.12	46.81
366.32	0.00
366.52	0.00
366.72	0.00
366.91	0.00
367.11	0.00
367.31	0.00
367.51	0.00
367.70	0.00
367.90	0.00
368.10	0.00
368.30	0.00
368.49	0.00
368.69	0.00
368.89	0.00
369.09	0.00
369.28	0.00
369.48	0.00
369.68	0.00
369.87	0.00
370.07	0.00
370.27	0.00
370.47	0.00
370.66	0.00
370.86	0.00
371.06	0.00
371.25	0.00
371.45	0.00
371.65	16.38
371.84	25.75
372.04	0.00
372.24	25.75
372.44	0.00
372.63	0.00
372.83	0.00
373.03	65.54
373.22	51.49
373.42	51.49
373.62	25.75
373.81	65.54
374.01	0.00
374.21	100.64
374.40	39.79
374.60	0.00
374.79	91.28
374.99	63.19
375.19	44.47
375.38	93.62
375.58	53.83
375.78	86.60
375.97	0.00
376.17	35.11
376.37	65.54
376.56	79.58
376.76	23.41
376.95	0.00
377.15	18.72
377.35	63.19
377.54	37.45
377.74	63.19
377.93	51.49
378.13	84.26
378.33	49.15
378.52	9.36
378.72	9.36
378.91	0.00
379.11	0.00
379.31	49.15
379.50	65.54
379.70	42.13
379.89	0.00
380.09	37.45
380.28	18.72
380.48	65.54
380.68	35.11
380.87	23.41
381.07	0.00
381.26	51.49
381.46	0.00
381.65	107.66
381.85	100.64
382.04	11.70
382.24	2.34
382.43	0.00
382.63	21.06
382.83	37.45
383.02	0.00
383.22	21.06
383.41	35.11
383.61	70.22
383.80	32.77
384.00	16.38
384.19	0.00
384.39	0.00
384.58	0.00
384.78	0.00
384.97	74.90
385.17	0.00
385.36	28.09
385.56	0.00
385.75	44.47
385.95	67.88
386.14	14.04
386.34	0.00
386.53	0.00
386.72	4.68
386.92	91.28
387.11	0.00
387.31	0.00
387.50	0.00
387.70	0.00
387.89	21.06
388.09	23.41
388.28	21.06
388.48	44.47
388.67	37.45
388.86	49.15
389.06	39.79
389.25	37.45
389.45	46.81
389.64	53.83
389.84	46.81
390.03	0.00
390.22	0.00
390.42	42.13
390.61	18.72
390.81	74.90
391.00	18.72
391.19	44.47
391.39	0.00
391.58	18.72
391.78	39.79
391.97	42.13
392.16	102.98
392.36	44.47
392.55	11.70
392.75	18.72
392.94	0.00
393.13	21.06
393.33	0.00
393.52	14.04
393.71	11.70
393.91	23.41
394.10	21.06
394.29	0.00
394.49	11.70
394.68	56.17
394.88	18.72
395.07	0.00
395.26	79.58
395.46	32.77
395.65	30.43
395.84	30.43
396.04	56.17
396.23	2.34
396.42	0.00
396.62	79.58
396.81	74.90
397.00	32.77
397.19	0.00
397.39	0.00
397.58	44.47
397.77	23.41
397.97	88.94
398.16	21.06
398.35	0.00
398.55	39.79
398.74	2.34
398.93	25.75
399.12	0.00
399.32	51.49
399.51	21.06
399.70	30.43
399.90	0.00
400.09	0.00
400.28	14.04
400.47	0.00
400.67	16.38
400.86	0.00
401.05	37.45
401.24	77.24
401.44	0.00
401.63	0.00
401.82	0.00
402.01	0.00
402.21	16.38
402.40	60.85
402.59	25.75
402.78	9.36
402.97	7.02
403.17	0.00
403.36	16.38
403.55	58.51
403.74	81.92
403.93	9.36
404.13	32.77
404.32	4.68
404.51	46.81
404.70	0.00
404.89	112.35
405.09	65.54
405.28	2.34
405.47	23.41
405.66	0.00
405.85	58.51
406.05	9.36
406.24	21.06
406.43	30.43
406.62	23.41
406.81	4.68
407.00	16.38
407.20	4.68
407.39	51.49
407.58	81.92
407.77	25.75
407.96	0.00
408.15	42.13
408.34	39.79
408.54	18.72
408.73	37.45
408.92	42.13
409.11	16.38
409.30	11.70
409.49	102.98
409.68	105.32
409.87	65.54
410.07	14.04
410.26	11.70
410.45	51.49
410.64	0.00
410.83	0.00
411.02	0.00
411.21	7.02
411.40	9.36
411.59	70.22
411.78	37.45
411.98	23.41
412.17	0.00
412.36	0.00
412.55	23.41
412.74	11.70
412.93	0.00
413.12	100.64
413.31	53.83
413.50	58.51
413.69	86.60
413.88	0.00
414.07	88.94
414.26	49.15
414.45	0.00
414.64	11.70
414.83	35.11
415.02	81.92
415.22	84.26
415.41	7.02
415.60	37.45
415.79	0.00
415.98	42.13
416.17	63.19
416.36	21.06
416.55	51.49
416.74	32.77
416.93	21.06
417.12	42.13
417.31	95.96
417.50	18.72
417.69	35.11
417.88	0.00
418.07	0.00
418.26	9.36
418.45	0.00
418.64	39.79
418.83	2.34
419.02	0.00
419.21	9.36
419.39	0.00
419.58	23.41
419.77	51.49
419.96	65.54
420.15	42.13
420.34	63.19
420.53	79.58
420.72	0.00
420.91	32.77
421.10	0.00
421.29	79.58
421.48	79.58
421.67	37.45
421.86	53.83
422.05	74.90
422.24	44.47
422.43	37.45
422.61	42.13
422.80	4.68
422.99	42.13
423.18	60.85
423.37	4.68
423.56	0.00
423.75	46.81
423.94	21.06
424.13	9.36
424.32	18.72
424.50	91.28
424.69	63.19
424.88	30.43
425.07	98.30
425.26	28.09
425.45	39.79
425.64	0.00
425.83	14.04
426.01	18.72
426.20	46.81
426.39	7.02
426.58	0.00
426.77	32.77
426.96	49.15
427.15	14.04
427.33	60.85
427.52	0.00
427.71	49.15
427.90	9.36
428.09	14.04
428.28	30.43
428.46	18.72
428.65	79.58
428.84	91.28
429.03	58.51
429.22	37.45
429.40	0.00
429.59	53.83
429.78	39.79
429.97	0.00
430.16	9.36
430.34	70.22
430.53	30.43
430.72	56.17
430.91	100.64
431.10	58.51
431.28	74.90
431.47	102.98
431.66	16.38
431.85	0.00
432.03	0.00
432.22	63.19
432.41	21.06
432.60	18.72
432.79	51.49
432.97	72.56
433.16	42.13
433.35	14.04
433.54	91.28
433.72	60.85
433.91	0.00
434.10	14.04
434.28	86.60
434.47	25.75
434.66	60.85
434.85	0.00
435.03	46.81
435.22	44.47
435.41	53.83
435.59	37.45
435.78	42.13
435.97	28.09
436.16	21.06
436.34	98.30
436.53	18.72
436.72	114.69
436.90	46.81
437.09	53.83
437.28	46.81
437.46	30.43
437.65	0.00
437.84	14.04
438.02	84.26
438.21	0.00
438.40	9.36
438.58	23.41
438.77	35.11
438.96	21.06
439.14	0.00
439.33	32.77
439.52	86.60
439.70	56.17
439.89	72.56
440.08	21.06
440.26	53.83
440.45	81.92
440.63	0.00
440.82	25.75
441.01	81.92
441.19	0.00
441.38	51.49
441.57	49.15
441.75	84.26
441.94	18.72
442.12	46.81
442.31	16.38
442.50	0.00
442.68	21.06
442.87	72.56
443.05	2.34
443.24	67.88
443.43	0.00
443.61	14.04
443.80	0.00
443.98	63.19
444.17	18.72
444.35	0.00
444.54	46.81
444.73	39.79
444.91	81.92
445.10	32.77
445.28	63.19
445.47	23.41
445.65	42.13
445.84	0.00
446.02	37.45
446.21	72.56
446.39	0.00
446.58	70.22
446.77	14.04
446.95	21.06
447.14	35.11
447.32	0.00
447.51	0.00
447.69	25.75
447.88	18.72
448.06	49.15
448.25	9.36
448.43	32.77
448.62	46.81
448.80	53.83
448.99	98.30
449.17	51.49
449.36	11.70
449.54	23.41
449.73	70.22
449.91	11.70
450.10	46.81
450.28	135.75
450.46	35.11
450.65	102.98
450.83	58.51
451.02	4.68
451.20	0.00
451.39	63.19
451.57	95.96
451.76	53.83
451.94	16.38
452.13	51.49
452.31	77.24
452.49	0.00
452.68	49.15
452.86	0.00
453.05	35.11
453.23	23.41
453.42	72.56
453.60	0.00
453.78	58.51
453.97	7.02
454.15	9.36
454.34	11.70
454.52	28.09
454.70	25.75
454.89	9.36
455.07	7.02
455.26	42.13
455.44	70.22
455.62	0.00
455.81	0.00
455.99	72.56
456.17	0.00
456.36	72.56
456.54	0.00
456.73	0.00
456.91	0.00
457.09	0.00
457.28	0.00
457.46	72.56
457.64	49.15
457.83	0.00
458.01	81.92
458.19	88.94
458.38	72.56
458.56	74.90
458.74	117.03
458.93	67.88
459.11	30.43
459.29	98.30
459.48	2.34
459.66	107.66
459.84	0.00
460.03	0.00
460.21	56.17
460.39	117.03
460.57	49.15
460.76	91.28
460.94	63.19
461.12	0.00
461.31	72.56
461.49	18.72
461.67	11.70
461.85	0.00
462.04	77.24
462.22	145.11
462.40	60.85
462.59	74.90
462.77	60.85
462.95	32.77
463.13	84.26
463.32	18.72
463.50	46.81
463.68	93.62
463.86	84.26
464.05	46.81
464.23	58.51
464.41	0.00
464.59	0.00
464.78	0.00
464.96	21.06
465.14	21.06
465.32	0.00
465.50	79.58
465.69	0.00
465.87	39.79
466.05	18.72
466.23	56.17
466.41	32.77
466.60	0.00
466.78	84.26
466.96	4.68
467.14	37.45
467.32	0.00
467.51	0.00
467.69	49.15
467.87	0.00
468.05	65.54
468.23	0.00
468.41	67.88
468.60	39.79
468.78	35.11
468.96	16.38
469.14	11.70
469.32	77.24
469.50	0.00
469.69	32.77
469.87	49.15
470.05	35.11
470.23	0.00
470.41	70.22
470.59	0.00
470.77	81.92
470.95	42.13
471.14	81.92
471.32	49.15
471.50	23.41
471.68	37.45
471.86	63.19
472.04	86.60
472.22	32.77
472.40	9.36
472.58	35.11
472.77	0.00
472.95	18.72
473.13	9.36
473.31	60.85
473.49	51.49
473.67	39.79
473.85	37.45
474.03	51.49
474.21	16.38
474.39	0.00
474.57	25.75
474.75	18.72
474.93	70.22
475.12	7.02
475.30	56.17
475.48	25.75
475.66	39.79
475.84	65.54
476.02	14.04
476.20	18.72
476.38	0.00
476.56	16.38
476.74	0.00
476.92	18.72
477.10	0.00
477.28	46.81
477.46	63.19
477.64	95.96
477.82	63.19
478.00	65.54
478.18	67.88
478.36	49.15
478.54	0.00
478.72	0.00
478.90	56.17
479.08	0.00
479.26	60.85
479.44	0.00
479.62	0.00
479.80	11.70
479.98	46.81
480.16	0.00
480.34	81.92
480.52	44.47
480.70	18.72
480.88	23.41
481.06	46.81
481.24	42.13
481.41	95.96
481.59	37.45
481.77	32.77
481.95	58.51
482.13	32.77
482.31	23.41
482.49	35.11
482.67	93.62
482.85	49.15
483.03	49.15
483.21	0.00
483.39	21.06
483.57	51.49
483.74	93.62
483.92	105.32
484.10	107.66
484.28	44.47
484.46	74.90
484.64	39.79
484.82	28.09
485.00	49.15
485.18	42.13
485.35	60.85
485.53	53.83
485.71	42.13
485.89	74.90
486.07	37.45
486.25	70.22
486.43	65.54
486.61	46.81
486.78	49.15
486.96	58.51
487.14	0.00
487.32	4.68
487.50	44.47
487.68	0.00
487.85	23.41
488.03	30.43
488.21	0.00
488.39	4.68
488.57	58.51
488.75	91.28
488.92	44.47
489.10	72.56
489.28	9.36
489.46	0.00
489.64	81.92
489.81	65.54
489.99	49.15
490.17	32.77
490.35	112.35
490.53	46.81
490.70	51.49
490.88	0.00
491.06	16.38
491.24	0.00
491.41	28.09
491.59	65.54
491.77	18.72
491.95	18.72
492.13	0.00
492.30	53.83
492.48	39.79
492.66	0.00
492.84	51.49
493.01	77.24
493.19	126.39
493.37	39.79
493.54	0.00
493.72	2.34
493.90	53.83
494.08	23.41
494.25	7.02
494.43	135.75
494.61	25.75
494.79	67.88
494.96	58.51
495.14	42.13
495.32	25.75
495.49	25.75
495.67	0.00
495.85	72.56
496.02	77.24
496.20	0.00
496.38	86.60
496.55	46.81
496.73	11.70
496.91	60.85
497.09	0.00
497.26	28.09
497.44	72.56
497.62	0.00
497.79	39.79
497.97	112.35
498.14	0.00
498.32	0.00
498.50	35.11
498.67	0.00
498.85	70.22
499.03	56.17
499.20	21.06
499.38	28.09
499.56	0.00
499.73	32.77
499.91	0.00
500.08	28.09
500.26	72.56
500.44	16.38
500.61	46.81
500.79	70.22
500.97	100.64
501.14	0.00
501.32	25.75
501.49	88.94
501.67	84.26
501.84	4.68
502.02	14.04
502.20	28.09
502.37	0.00
502.55	74.90
502.72	135.75
502.90	72.56
503.07	53.83
503.25	0.00
503.43	0.00
503.60	2.34
503.78	53.83
503.95	0.00
504.13	14.04
504.30	56.17
504.48	9.36
504.65	79.58
504.83	0.00
505.01	72.56
505.18	51.49
505.36	119.37
505.53	67.88
505.71	35.11
505.88	16.38
506.06	7.02
506.23	0.00
506.41	0.00
506.58	51.49
506.76	25.75
506.93	0.00
507.11	56.17
507.28	0.00
507.46	14.04
507.63	11.70
507.81	0.00
507.98	93.62
508.16	39.79
508.33	0.00
508.50	77.24
508.68	23.41
508.85	0.00
509.03	7.02
509.20	58.51
509.38	11.70
509.55	4.68
509.73	81.92
509.90	0.00
510.08	0.00
510.25	35.11
510.42	58.51
510.60	74.90
510.77	32.77
510.95	51.49
511.12	79.58
511.30	70.22
511.47	126.39
511.64	32.77
511.82	14.04
511.99	30.43
512.17	9.36
512.34	0.00
512.51	74.90
512.69	25.75
512.86	7.02
513.04	51.49
513.21	0.00
513.38	79.58
513.56	53.83
513.73	53.83
513.90	98.30
514.08	0.00
514.25	102.98
514.43	0.00
514.60	7.02
514.77	72.56
514.95	131.07
515.12	4.68
515.29	72.56
515.47	25.75
515.64	9.36
515.81	16.38
515.99	60.85
516.16	16.38
516.33	0.00
516.51	16.38
516.68	58.51
516.85	44.47
517.03	84.26
517.20	23.41
517.37	23.41
517.54	77.24
517.72	67.88
517.89	0.00
518.06	25.75
518.24	74.90
518.41	0.00
518.58	14.04
518.75	77.24
518.93	51.49
519.10	70.22
519.27	79.58
519.45	9.36
519.62	0.00
519.79	35.11
519.96	32.77
520.14	0.00
520.31	0.00
520.48	16.38
520.65	7.02
520.83	65.54
521.00	56.17
521.17	2.34
521.34	42.13
521.52	35.11
521.69	63.19
521.86	49.15
522.03	28.09
522.20	30.43
522.38	86.60
522.55	11.70
522.72	4.68
522.89	14.04
523.07	37.45
523.24	42.13
523.41	65.54
523.58	0.00
523.75	117.03
523.92	0.00
524.10	58.51
524.27	53.83
524.44	30.43
524.61	21.06
524.78	100.64
524.96	0.00
525.13	21.06
525.30	60.85
525.47	84.26
525.64	30.43
525.81	42.13
525.98	18.72
526.16	14.04
526.33	74.90
526.50	79.58
526.67	84.26
526.84	35.11
527.01	4.68
527.18	93.62
527.36	11.70
527.53	14.04
527.70	67.88
527.87	53.83
528.04	25.75
528.21	119.37
528.38	37.45
528.55	0.00
528.72	18.72
528.89	56.17
529.07	49.15
529.24	0.00
529.41	21.06
529.58	51.49
529.75	42.13
529.92	11.70
530.09	4.68
530.26	46.81
530.43	60.85
530.60	88.94
530.77	35.11
530.94	79.58
531.11	46.81
531.28	2.34
531.46	0.00
531.63	25.75
531.80	0.00
531.97	0.00
532.14	53.83
532.31	72.56
532.48	42.13
532.65	42.13
532.82	67.88
532.99	35.11
533.16	35.11
533.33	0.00
533.50	74.90
533.67	88.94
533.84	100.64
534.01	60.85
534.18	84.26
534.35	4.68
534.52	60.85
534.69	100.64
534.86	88.94
535.03	84.26
535.20	0.00
535.37	105.32
535.54	35.11
535.71	0.00
535.88	0.00
536.05	21.06
536.22	51.49
536.38	58.51
536.55	133.41
536.72	0.00
536.89	65.54
537.06	107.66
537.23	21.06
537.40	16.38
537.57	39.79
537.74	16.38
537.91	37.45
538.08	42.13
538.25	2.34
538.42	16.38
538.59	93.62
538.75	77.24
538.92	65.54
539.09	86.60
539.26	32.77
539.43	84.26
539.60	42.13
539.77	67.88
539.94	79.58
540.11	152.13
540.28	39.79
540.44	67.88
540.61	42.13
540.78	60.85
540.95	18.72
541.12	16.38
541.29	4.68
541.46	131.07
541.62	7.02
541.79	30.43
541.96	95.96
542.13	0.00
542.30	42.13
542.47	11.70
542.63	0.00
542.80	0.00
542.97	9.36
543.14	0.00
543.31	0.00
543.48	58.51
543.64	11.70
543.81	86.60
543.98	81.92
544.15	51.49
544.32	42.13
544.48	93.62
544.65	0.00
544.82	0.00
544.99	0.00
545.16	18.72
545.32	30.43
545.49	14.04
545.66	42.13
545.83	182.56
546.00	44.47
546.16	0.00
546.33	0.00
546.50	37.45
546.67	67.88
546.83	70.22
547.00	124.05
547.17	100.64
547.34	58.51
547.50	98.30
547.67	44.47
547.84	0.00
548.00	60.85
548.17	0.00
548.34	0.00
548.51	65.54
548.67	70.22
548.84	0.00
549.01	60.85
549.18	2.34
549.34	23.41
549.51	37.45
549.68	46.81
549.84	60.85
550.01	2.34
550.18	0.00
550.34	46.81
550.51	117.03
550.68	11.70
550.84	88.94
551.01	39.79
551.18	0.00
551.34	42.13
551.51	7.02
551.68	7.02
551.84	77.24
552.01	18.72
552.18	70.22
552.34	25.75
552.51	0.00
552.68	56.17
552.84	72.56
553.01	56.17
553.18	107.66
553.34	74.90
553.51	72.56
553.67	35.11
553.84	60.85
554.01	42.13
554.17	32.77
554.34	51.49
554.51	86.60
554.67	21.06
554.84	4.68
555.00	84.26
555.17	74.90
555.33	16.38
555.50	39.79
555.67	25.75
555.83	25.75
556.00	46.81
556.16	44.47
556.33	28.09
556.50	39.79
556.66	74.90
556.83	0.00
556.99	112.35
557.16	93.62
557.32	37.45
557.49	81.92
557.65	0.00
557.82	51.49
557.98	0.00
558.15	81.92
558.32	37.45
558.48	35.11
558.65	56.17
558.81	37.45
558.98	0.00
559.14	63.19
559.31	0.00
559.47	21.06
559.64	56.17
559.80	93.62
559.97	88.94
560.13	0.00
560.30	39.79
560.46	42.13
560.63	56.17
560.79	42.13
560.96	11.70
561.12	72.56
561.29	0.00
561.45	117.03
561.61	119.37
561.78	102.98
561.94	77.24
562.11	53.83
562.27	0.00
562.44	110.01
562.60	25.75
562.77	77.24
562.93	32.77
563.10	88.94
563.26	42.13
563.42	21.06
563.59	35.11
563.75	70.22
563.92	53.83
564.08	53.83
564.24	39.79
564.41	0.00
564.57	28.09
564.74	131.07
564.90	49.15
565.07	0.00
565.23	88.94
565.39	98.30
565.56	9.36
565.72	35.11
565.88	0.00
566.05	0.00
566.21	39.79
566.38	30.43
566.54	49.15
566.70	14.04
566.87	65.54
567.03	46.81
567.19	11.70
567.36	42.13
567.52	51.49
567.68	49.15
567.85	32.77
568.01	35.11
568.17	42.13
568.34	77.24
568.50	98.30
568.66	51.49
568.83	23.41
568.99	11.70
569.15	86.60
569.32	46.81
569.48	74.90
569.64	37.45
569.81	11.70
569.97	56.17
570.13	37.45
570.30	4.68
570.46	16.38
570.62	42.13
570.78	32.77
570.95	16.38
571.11	60.85
571.27	4.68
571.43	42.13
571.60	37.45
571.76	4.68
571.92	35.11
572.09	39.79
572.25	60.85
572.41	91.28
572.57	65.54
572.74	9.36
572.90	49.15
573.06	2.34
573.22	0.00
573.38	49.15
573.55	0.00
573.71	0.00
573.87	56.17
574.03	63.19
574.20	0.00
574.36	124.05
574.52	49.15
574.68	91.28
574.84	11.70
575.01	58.51
575.17	42.13
575.33	28.09
575.49	51.49
575.65	39.79
575.82	30.43
575.98	65.54
576.14	86.60
576.30	81.92
576.46	51.49
576.62	58.51
576.79	0.00
576.95	60.85
577.11	51.49
577.27	49.15
577.43	67.88
577.59	30.43
577.75	42.13
577.92	74.90
578.08	70.22
578.24	74.90
578.40	51.49
578.56	79.58
578.72	105.32
578.88	0.00
579.04	100.64
579.21	60.85
579.37	51.49
579.53	37.45
579.69	23.41
579.85	39.79
580.01	67.88
580.17	102.98
580.33	37.45
580.49	93.62
580.65	2.34
580.82	51.49
580.98	56.17
581.14	9.36
581.30	14.04
581.46	105.32
581.62	4.68
581.78	11.70
581.94	102.98
582.10	39.79
582.26	74.90
582.42	44.47
582.58	86.60
582.74	25.75
582.90	4.68
583.06	58.51
583.22	77.24
583.38	0.00
583.54	32.77
583.70	93.62
583.86	70.22
584.02	81.92
584.18	81.92
584.34	58.51
584.50	154.48
584.66	1100.05
584.82	2368.62
584.98	3159.72
585.14	2953.76
585.30	1860.73
585.46	1097.71
585.62	746.63
585.78	318.31
585.94	140.43
586.10	53.83
586.26	51.49
586.42	65.54
586.58	72.56
586.74	140.43
586.90	23.41
587.06	65.54
587.22	86.60
587.38	21.06
587.54	105.32
587.70	191.92
587.86	250.44
588.02	250.44
588.18	215.33
588.34	175.54
588.49	210.65
588.65	86.60
588.81	74.90
588.97	39.79
589.13	91.28
589.29	56.17
589.45	21.06
589.61	0.00
589.77	53.83
589.93	39.79
590.08	23.41
590.24	112.35
590.40	117.03
590.56	0.00
590.72	95.96
590.88	35.11
591.04	18.72
591.20	23.41
591.35	0.00
591.51	18.72
591.67	37.45
591.83	0.00
591.99	25.75
592.15	39.79
592.31	51.49
592.46	0.00
592.62	28.09
592.78	44.47
592.94	37.45
593.10	0.00
593.26	79.58
593.41	0.00
593.57	0.00
593.73	0.00
593.89	138.09
594.05	348.74
594.20	442.36
594.36	430.66
594.52	318.31
594.68	187.24
594.84	149.79
594.99	32.77
595.15	25.75
595.31	124.05
595.47	23.41
595.62	9.36
595.78	53.83
595.94	28.09
596.10	107.66
596.25	39.79
596.41	49.15
596.57	56.17
596.73	44.47
596.88	37.45
597.04	119.37
597.20	74.90
597.36	147.45
597.51	95.96
597.67	65.54
597.83	77.24
597.99	56.17
598.14	0.00
598.30	67.88
598.46	23.41
598.61	0.00
598.77	95.96
598.93	9.36
599.09	25.75
599.24	35.11
599.40	74.90
599.56	51.49
599.71	49.15
599.87	35.11
600.03	56.17
600.18	4.68
600.34	0.00
600.50	67.88
600.65	60.85
600.81	16.38
600.97	88.94
601.12	23.41
601.28	107.66
601.44	60.85
601.59	0.00
601.75	23.41
601.91	88.94
602.06	32.77
602.22	0.00
602.37	60.85
602.53	128.73
602.69	112.35
602.84	126.39
603.00	149.79
603.16	30.43
603.31	95.96
603.47	16.38
603.62	9.36
603.78	65.54
603.94	53.83
604.09	107.66
604.25	51.49
604.40	58.51
604.56	70.22
604.71	46.81
604.87	28.09
605.03	0.00
605.18	105.32
605.34	0.00
605.49	25.75
605.65	0.00
605.80	70.22
605.96	145.11
606.12	46.81
606.27	58.51
606.43	25.75
606.58	28.09
606.74	56.17
606.89	245.76
607.05	358.10
607.20	341.72
607.36	341.72
607.51	248.10
607.67	142.77
607.82	121.71
607.98	86.60
608.13	77.24
608.29	84.26
608.44	46.81
608.60	72.56
608.75	49.15
608.91	100.64
609.06	222.35
609.22	622.58
609.37	641.31
609.53	512.58
609.68	430.66
609.84	241.08
609.99	220.01
610.15	124.05
610.30	51.49
610.46	70.22
610.61	28.09
610.76	18.72
610.92	7.02
611.07	49.15
611.23	44.47
611.38	60.85
611.54	46.81
611.69	25.75
611.84	58.51
612.00	58.51
612.15	56.17
612.31	81.92
612.46	74.90
612.62	91.28
612.77	56.17
612.92	56.17
613.08	46.81
613.23	67.88
613.39	126.39
613.54	46.81
613.69	280.86
613.85	699.82
614.00	964.30
614.15	1050.90
614.31	650.67
614.46	491.51
614.62	238.73
614.77	259.80
614.92	98.30
615.08	70.22
615.23	35.11
615.38	9.36
615.54	42.13
615.69	67.88
615.84	182.56
616.00	215.33
616.15	266.82
616.30	248.10
616.46	189.58
616.61	77.24
616.76	88.94
616.92	0.00
617.07	147.45
617.22	37.45
617.37	11.70
617.53	21.06
617.68	95.96
617.83	25.75
617.99	49.15
618.14	91.28
618.29	0.00
618.45	30.43
618.60	18.72
618.75	74.90
618.90	77.24
619.06	65.54
619.21	4.68
619.36	56.17
619.51	65.54
619.67	21.06
619.82	11.70
619.97	95.96
620.12	67.88
620.28	0.00
620.43	9.36
620.58	86.60
620.73	91.28
620.89	37.45
621.04	30.43
621.19	91.28
621.34	149.79
621.49	159.16
621.65	177.88
621.80	119.37
621.95	105.32
622.10	14.04
622.25	0.00
622.41	70.22
622.56	0.00
622.71	91.28
622.86	30.43
623.01	25.75
623.16	56.17
623.32	16.38
623.47	51.49
623.62	28.09
623.77	9.36
623.92	32.77
624.07	0.00
624.23	56.17
624.38	46.81
624.53	35.11
624.68	0.00
624.83	0.00
624.98	25.75
625.13	16.38
625.29	23.41
625.44	30.43
625.59	42.13
625.74	4.68
625.89	2.34
626.04	126.39
626.19	348.74
626.34	538.32
626.49	573.43
626.65	390.87
626.80	322.99
626.95	182.56
627.10	159.16
627.25	23.41
627.40	14.04
627.55	2.34
627.70	18.72
627.85	18.72
628.00	49.15
628.15	11.70
628.30	0.00
628.45	81.92
628.60	53.83
628.76	117.03
628.91	30.43
629.06	56.17
629.21	44.47
629.36	44.47
629.51	23.41
629.66	39.79
629.81	21.06
629.96	98.30
630.11	131.07
630.26	163.84
630.41	159.16
630.56	112.35
630.71	0.00
630.86	102.98
631.01	37.45
631.16	79.58
631.31	53.83
631.46	56.17
631.61	0.00
631.76	18.72
631.91	18.72
632.06	0.00
632.21	65.54
632.36	9.36
632.51	0.00
632.66	14.04
632.81	56.17
632.96	175.54
633.10	306.61
633.25	337.04
633.40	238.73
633.55	229.37
633.70	145.11
633.85	121.71
634.00	51.49
634.15	63.19
634.30	110.01
634.45	79.58
634.60	105.32
634.75	95.96
634.90	0.00
635.05	9.36
635.19	7.02
635.34	0.00
635.49	0.00
635.64	0.00
635.79	79.58
635.94	30.43
636.09	79.58
636.24	39.79
636.39	51.49
636.53	105.32
636.68	0.00
636.83	93.62
636.98	0.00
637.13	56.17
637.28	30.43
637.43	91.28
637.57	23.41
637.72	198.95
637.87	383.85
638.02	650.67
638.17	664.71
638.32	468.11
638.46	372.15
638.61	205.97
638.76	159.16
638.91	81.92
639.06	0.00
639.20	42.13
639.35	65.54
639.50	39.79
639.65	297.25
639.80	664.71
639.94	847.27
640.09	957.28
640.24	788.76
640.39	486.83
640.54	402.57
640.68	201.29
640.83	124.05
640.98	74.90
641.13	63.19
641.27	21.06
641.42	49.15
641.57	105.32
641.72	58.51
641.86	18.72
642.01	42.13
642.16	0.00
642.31	42.13
642.45	0.00
642.60	70.22
642.75	4.68
642.90	93.62
643.04	65.54
643.19	77.24
643.34	37.45
643.48	0.00
643.63	0.00
643.78	58.51
643.93	9.36
644.07	0.00
644.22	65.54
644.37	0.00
644.51	70.22
644.66	53.83
644.81	42.13
644.95	51.49
645.10	60.85
645.25	56.17
645.39	35.11
645.54	0.00
645.69	4.68
645.83	63.19
645.98	46.81
646.13	4.68
646.27	21.06
646.42	32.77
646.57	0.00
646.71	60.85
646.86	0.00
647.00	110.01
647.15	86.60
647.30	51.49
647.44	28.09
647.59	60.85
647.74	23.41
647.88	44.47
648.03	95.96
648.17	0.00
648.32	0.00
648.47	18.72
648.61	86.60
648.76	74.90
648.90	0.00
649.05	25.75
649.20	0.00
649.34	37.45
649.49	0.00
649.63	28.09
649.78	21.06
649.92	39.79
650.07	72.56
650.21	332.36
650.36	435.34
650.51	489.17
650.65	547.69
650.80	358.10
650.94	210.65
651.09	145.11
651.23	46.81
651.38	79.58
651.52	58.51
651.67	16.38
651.81	0.00
651.96	44.47
652.10	9.36
652.25	51.49
652.39	16.38
652.54	7.02
652.68	58.51
652.83	42.13
652.97	168.52
653.12	210.65
653.26	180.22
653.41	142.77
653.55	119.37
653.70	107.66
653.84	58.51
653.99	44.47
654.13	81.92
654.27	70.22
654.42	53.83
654.56	0.00
654.71	84.26
654.85	74.90
655.00	18.72
655.14	51.49
655.29	0.00
655.43	63.19
655.57	35.11
655.72	0.00
655.86	91.28
656.01	39.79
656.15	88.94
656.30	35.11
656.44	14.04
656.58	7.02
656.73	49.15
656.87	72.56
657.01	51.49
657.16	28.09
657.30	138.09
657.45	21.06
657.59	35.11
657.73	49.15
657.88	14.04
658.02	0.00
658.16	0.00
658.31	0.00
658.45	0.00
658.60	0.00
658.74	65.54
658.88	25.75
659.03	21.06
659.17	58.51
659.31	0.00
659.46	159.16
659.60	257.46
659.74	238.73
659.89	217.67
660.03	189.58
660.17	184.90
660.32	51.49
660.46	49.15
660.60	39.79
660.74	0.00
660.89	7.02
661.03	63.19
661.17	9.36
661.32	112.35
661.46	56.17
661.60	46.81
661.74	56.17
661.89	56.17
662.03	14.04
662.17	4.68
662.31	58.51
662.46	0.00
662.60	60.85
662.74	46.81
662.88	84.26
663.03	77.24
663.17	0.00
663.31	58.51
663.45	79.58
663.60	9.36
663.74	60.85
663.88	16.38
664.02	30.43
664.17	21.06
664.31	25.75
664.45	42.13
664.59	65.54
664.73	25.75
664.88	58.51
665.02	16.38
665.16	9.36
665.30	0.00
665.44	0.00
665.59	21.06
665.73	63.19
665.87	70.22
666.01	56.17
666.15	56.17
666.29	65.54
666.44	0.00
666.58	0.00
666.72	58.51
666.86	14.04
667.00	28.09
667.14	112.35
667.28	124.05
667.43	215.33
667.57	454.06
667.71	496.19
667.85	358.10
667.99	264.48
668.13	196.60
668.27	147.45
668.41	93.62
668.56	100.64
668.70	23.41
668.84	23.41
668.98	56.17
669.12	74.90
669.26	0.00
669.40	9.36
669.54	74.90
669.68	23.41
669.82	70.22
669.96	32.77
670.10	25.75
670.25	51.49
670.39	0.00
670.53	42.13
670.67	14.04
670.81	65.54
670.95	70.22
671.09	39.79
671.23	138.09
671.37	215.33
671.51	313.63
671.65	332.36
671.79	297.25
671.93	191.92
672.07	145.11
672.21	86.60
672.35	70.22
672.49	79.58
672.63	58.51
672.77	58.51
672.91	32.77
673.05	91.28
673.19	44.47
673.33	65.54
673.47	53.83
673.61	30.43
673.75	21.06
673.89	28.09
674.03	0.00
674.17	18.72
674.31	0.00
674.45	28.09
674.59	105.32
674.73	63.19
674.87	0.00
675.01	56.17
675.15	42.13
675.29	16.38
675.43	28.09
675.56	51.49
675.70	7.02
675.84	77.24
675.98	0.00
676.12	0.00
676.26	0.00
676.40	21.06
676.54	112.35
676.68	53.83
676.82	39.79
676.96	63.19
677.10	79.58
677.23	86.60
677.37	18.72
677.51	0.00
677.65	88.94
677.79	11.70
677.93	0.00
678.07	72.56
678.21	0.00
678.34	11.70
678.48	14.04
678.62	30.43
678.76	0.00
678.90	2.34
679.04	0.00
679.18	91.28
679.31	0.00
679.45	9.36
679.59	49.15
679.73	30.43
679.87	67.88
680.00	2.34
680.14	23.41
680.28	74.90
680.42	72.56
680.56	72.56
680.70	0.00
680.83	0.00
680.97	18.72
681.11	21.06
681.25	110.01
681.39	0.00
681.52	60.85
681.66	67.88
681.80	7.02
681.94	49.15
682.07	16.38
682.21	28.09
682.35	53.83
682.49	9.36
682.62	88.94
682.76	79.58
682.90	77.24
683.04	58.51
683.17	7.02
683.31	60.85
683.45	63.19
683.59	63.19
683.72	32.77
683.86	30.43
684.00	147.45
684.13	77.24
684.27	39.79
684.41	4.68
684.55	44.47
684.68	25.75
684.82	35.11
684.96	21.06
685.09	25.75
685.23	35.11
685.37	70.22
685.50	84.26
685.64	0.00
685.78	0.00
685.91	63.19
686.05	23.41
686.19	53.83
686.32	0.00
686.46	56.17
686.60	56.17
686.73	25.75
686.87	58.51
687.01	39.79
687.14	67.88
687.28	9.36
687.42	86.60
687.55	0.00
687.69	25.75
687.82	105.32
687.96	0.00
688.10	0.00
688.23	37.45
688.37	9.36
688.50	14.04
688.64	86.60
688.78	58.51
688.91	25.75
689.05	21.06
689.18	107.66
689.32	35.11
689.46	7.02
689.59	51.49
689.73	11.70
689.86	28.09
690.00	0.00
690.13	9.36
690.27	0.00
690.41	53.83
690.54	0.00
690.68	42.13
690.81	0.00
690.95	65.54
691.08	79.58
691.22	56.17
691.35	63.19
691.49	14.04
691.62	23.41
691.76	25.75
691.89	56.17
692.03	74.90
692.16	49.15
692.30	60.85
692.43	60.85
692.57	149.79
692.70	161.50
692.84	177.88
692.97	217.67
693.11	135.75
693.24	117.03
693.38	51.49
693.51	107.66
693.65	0.00
693.78	60.85
693.92	49.15
694.05	74.90
694.19	0.00
694.32	60.85
694.45	25.75
694.59	7.02
694.72	39.79
694.86	25.75
694.99	0.00
695.13	72.56
695.26	35.11
695.39	0.00
695.53	32.77
695.66	60.85
695.80	0.00
695.93	114.69
696.07	0.00
696.20	28.09
696.33	77.24
696.47	58.51
696.60	0.00
696.73	77.24
696.87	23.41
697.00	56.17
697.14	21.06
697.27	37.45
697.40	14.04
697.54	0.00
697.67	21.06
697.80	37.45
697.94	51.49
698.07	39.79
698.21	25.75
698.34	30.43
698.47	21.06
698.61	18.72
698.74	74.90
698.87	7.02
699.01	4.68
699.14	70.22
699.27	58.51
699.40	67.88
699.54	0.00
699.67	100.64
699.80	56.17
699.94	0.00
700.07	0.00
700.20	4.68
700.34	72.56
700.47	4.68
700.60	28.09
700.73	14.04
700.87	51.49
701.00	42.13
701.13	35.11
701.26	18.72
701.40	25.75
701.53	23.41
701.66	37.45
701.79	30.43
701.93	2.34
702.06	67.88
702.19	65.54
702.32	65.54
702.46	51.49
702.59	7.02
702.72	88.94
702.85	182.56
702.99	301.93
703.12	351.08
703.25	416.62
703.38	435.34
703.51	269.16
703.65	203.63
703.78	184.90
703.91	173.20
704.04	81.92
704.17	72.56
704.31	128.73
704.44	81.92
704.57	0.00
704.70	46.81
704.83	77.24
704.96	32.77
705.10	35.11
705.23	93.62
>>>>>End Processed Spectral Data<<<<<
