SpectraSuite Data File
++++++++++++++++++++++++++++++++++++
Date: Fri Oct 04 12:13:34 GMT-05:00 2013
User: price-jones
Dark Spectrum Present: No
Reference Spectrum Present: No
Number of Sampled Component Spectra: 1
Spectrometers: USB2+H05261
Integration Time (usec): 10000 (USB2+H05261)
Spectra Averaged: 1 (USB2+H05261)
Boxcar Smoothing: 0 (USB2+H05261)
Correct for Electrical Dark: No (USB2+H05261)
Strobe/Lamp Enabled: No (USB2+H05261)
Correct for Detector Non-linearity: No (USB2+H05261)
Correct for Stray Light: No (USB2+H05261)
Number of Pixels in Processed Spectrum: 2048
>>>>>Begin Processed Spectral Data<<<<<
365.73	39.79
365.92	39.79
366.12	39.79
366.32	0.00
366.52	0.00
366.72	0.00
366.91	0.00
367.11	0.00
367.31	0.00
367.51	0.00
367.70	0.00
367.90	0.00
368.10	0.00
368.30	0.00
368.49	0.00
368.69	0.00
368.89	0.00
369.09	0.00
369.28	0.00
369.48	0.00
369.68	0.00
369.87	0.00
370.07	0.00
370.27	0.00
370.47	0.00
370.66	0.00
370.86	0.00
371.06	4.68
371.25	0.00
371.45	0.00
371.65	0.00
371.84	0.00
372.04	0.00
372.24	58.51
372.44	0.00
372.63	0.00
372.83	18.72
373.03	0.00
373.22	0.00
373.42	23.41
373.62	9.36
373.81	0.00
374.01	18.72
374.21	21.06
374.40	131.07
374.60	65.54
374.79	46.81
374.99	2.34
375.19	98.30
375.38	53.83
375.58	53.83
375.78	0.00
375.97	44.47
376.17	110.01
376.37	72.56
376.56	16.38
376.76	0.00
376.95	0.00
377.15	28.09
377.35	4.68
377.54	93.62
377.74	0.00
377.93	65.54
378.13	72.56
378.33	14.04
378.52	79.58
378.72	0.00
378.91	70.22
379.11	0.00
379.31	30.43
379.50	46.81
379.70	42.13
379.89	4.68
380.09	18.72
380.28	23.41
380.48	16.38
380.68	0.00
380.87	0.00
381.07	93.62
381.26	23.41
381.46	72.56
381.65	60.85
381.85	58.51
382.04	11.70
382.24	4.68
382.43	25.75
382.63	91.28
382.83	0.00
383.02	72.56
383.22	25.75
383.41	0.00
383.61	0.00
383.80	16.38
384.00	53.83
384.19	84.26
384.39	65.54
384.58	65.54
384.78	0.00
384.97	105.32
385.17	4.68
385.36	23.41
385.56	0.00
385.75	58.51
385.95	0.00
386.14	0.00
386.34	4.68
386.53	0.00
386.72	25.75
386.92	0.00
387.11	0.00
387.31	14.04
387.50	11.70
387.70	0.00
387.89	35.11
388.09	21.06
388.28	7.02
388.48	32.77
388.67	16.38
388.86	35.11
389.06	35.11
389.25	37.45
389.45	9.36
389.64	0.00
389.84	18.72
390.03	35.11
390.22	0.00
390.42	49.15
390.61	4.68
390.81	0.00
391.00	18.72
391.19	86.60
391.39	32.77
391.58	39.79
391.78	79.58
391.97	16.38
392.16	74.90
392.36	102.98
392.55	42.13
392.75	0.00
392.94	46.81
393.13	72.56
393.33	7.02
393.52	60.85
393.71	35.11
393.91	14.04
394.10	32.77
394.29	67.88
394.49	63.19
394.68	21.06
394.88	11.70
395.07	53.83
395.26	0.00
395.46	0.00
395.65	107.66
395.84	28.09
396.04	0.00
396.23	16.38
396.42	11.70
396.62	0.00
396.81	21.06
397.00	23.41
397.19	32.77
397.39	56.17
397.58	91.28
397.77	63.19
397.97	11.70
398.16	0.00
398.35	88.94
398.55	7.02
398.74	53.83
398.93	32.77
399.12	25.75
399.32	9.36
399.51	67.88
399.70	25.75
399.90	46.81
400.09	56.17
400.28	0.00
400.47	0.00
400.67	60.85
400.86	49.15
401.05	0.00
401.24	0.00
401.44	0.00
401.63	0.00
401.82	0.00
402.01	37.45
402.21	2.34
402.40	23.41
402.59	65.54
402.78	7.02
402.97	11.70
403.17	0.00
403.36	0.00
403.55	7.02
403.74	77.24
403.93	65.54
404.13	39.79
404.32	0.00
404.51	44.47
404.70	46.81
404.89	16.38
405.09	81.92
405.28	74.90
405.47	2.34
405.66	0.00
405.85	30.43
406.05	70.22
406.24	7.02
406.43	30.43
406.62	9.36
406.81	81.92
407.00	53.83
407.20	21.06
407.39	63.19
407.58	9.36
407.77	21.06
407.96	21.06
408.15	72.56
408.34	100.64
408.54	11.70
408.73	0.00
408.92	28.09
409.11	7.02
409.30	0.00
409.49	16.38
409.68	21.06
409.87	0.00
410.07	39.79
410.26	81.92
410.45	56.17
410.64	60.85
410.83	72.56
411.02	91.28
411.21	65.54
411.40	0.00
411.59	56.17
411.78	53.83
411.98	65.54
412.17	32.77
412.36	37.45
412.55	18.72
412.74	37.45
412.93	58.51
413.12	42.13
413.31	39.79
413.50	72.56
413.69	49.15
413.88	21.06
414.07	30.43
414.26	42.13
414.45	84.26
414.64	56.17
414.83	25.75
415.02	0.00
415.22	44.47
415.41	60.85
415.60	0.00
415.79	84.26
415.98	74.90
416.17	60.85
416.36	51.49
416.55	42.13
416.74	77.24
416.93	46.81
417.12	39.79
417.31	35.11
417.50	14.04
417.69	9.36
417.88	42.13
418.07	25.75
418.26	0.00
418.45	0.00
418.64	65.54
418.83	0.00
419.02	35.11
419.21	58.51
419.39	147.45
419.58	49.15
419.77	105.32
419.96	30.43
420.15	39.79
420.34	86.60
420.53	72.56
420.72	42.13
420.91	81.92
421.10	0.00
421.29	79.58
421.48	11.70
421.67	60.85
421.86	0.00
422.05	53.83
422.24	25.75
422.43	51.49
422.61	0.00
422.80	42.13
422.99	9.36
423.18	35.11
423.37	28.09
423.56	28.09
423.75	91.28
423.94	46.81
424.13	25.75
424.32	42.13
424.50	18.72
424.69	60.85
424.88	0.00
425.07	39.79
425.26	14.04
425.45	0.00
425.64	2.34
425.83	0.00
426.01	53.83
426.20	81.92
426.39	25.75
426.58	37.45
426.77	23.41
426.96	30.43
427.15	56.17
427.33	110.01
427.52	9.36
427.71	56.17
427.90	25.75
428.09	9.36
428.28	0.00
428.46	0.00
428.65	18.72
428.84	65.54
429.03	63.19
429.22	42.13
429.40	16.38
429.59	21.06
429.78	39.79
429.97	67.88
430.16	46.81
430.34	49.15
430.53	72.56
430.72	42.13
430.91	14.04
431.10	23.41
431.28	2.34
431.47	37.45
431.66	131.07
431.85	42.13
432.03	79.58
432.22	74.90
432.41	42.13
432.60	86.60
432.79	51.49
432.97	74.90
433.16	51.49
433.35	28.09
433.54	42.13
433.72	11.70
433.91	14.04
434.10	35.11
434.28	42.13
434.47	60.85
434.66	9.36
434.85	16.38
435.03	70.22
435.22	42.13
435.41	58.51
435.59	72.56
435.78	39.79
435.97	133.41
436.16	32.77
436.34	44.47
436.53	32.77
436.72	9.36
436.90	112.35
437.09	58.51
437.28	110.01
437.46	9.36
437.65	35.11
437.84	84.26
438.02	49.15
438.21	77.24
438.40	23.41
438.58	11.70
438.77	39.79
438.96	70.22
439.14	23.41
439.33	124.05
439.52	0.00
439.70	58.51
439.89	63.19
440.08	58.51
440.26	51.49
440.45	39.79
440.63	93.62
440.82	126.39
441.01	95.96
441.19	21.06
441.38	63.19
441.57	51.49
441.75	65.54
441.94	7.02
442.12	67.88
442.31	0.00
442.50	42.13
442.68	0.00
442.87	35.11
443.05	102.98
443.24	84.26
443.43	67.88
443.61	46.81
443.80	107.66
443.98	0.00
444.17	58.51
444.35	70.22
444.54	65.54
444.73	39.79
444.91	25.75
445.10	74.90
445.28	46.81
445.47	23.41
445.65	39.79
445.84	149.79
446.02	39.79
446.21	28.09
446.39	46.81
446.58	42.13
446.77	110.01
446.95	42.13
447.14	93.62
447.32	51.49
447.51	32.77
447.69	84.26
447.88	86.60
448.06	77.24
448.25	74.90
448.43	51.49
448.62	67.88
448.80	51.49
448.99	60.85
449.17	37.45
449.36	39.79
449.54	77.24
449.73	107.66
449.91	112.35
450.10	11.70
450.28	51.49
450.46	0.00
450.65	74.90
450.83	114.69
451.02	53.83
451.20	119.37
451.39	23.41
451.57	4.68
451.76	37.45
451.94	4.68
452.13	11.70
452.31	42.13
452.49	28.09
452.68	84.26
452.86	110.01
453.05	159.16
453.23	98.30
453.42	58.51
453.60	81.92
453.78	37.45
453.97	25.75
454.15	58.51
454.34	60.85
454.52	53.83
454.70	42.13
454.89	58.51
455.07	2.34
455.26	30.43
455.44	74.90
455.62	39.79
455.81	16.38
455.99	37.45
456.17	32.77
456.36	9.36
456.54	74.90
456.73	81.92
456.91	65.54
457.09	72.56
457.28	35.11
457.46	114.69
457.64	16.38
457.83	95.96
458.01	88.94
458.19	35.11
458.38	21.06
458.56	86.60
458.74	42.13
458.93	70.22
459.11	28.09
459.29	37.45
459.48	2.34
459.66	53.83
459.84	23.41
460.03	67.88
460.21	7.02
460.39	67.88
460.57	23.41
460.76	0.00
460.94	44.47
461.12	72.56
461.31	0.00
461.49	51.49
461.67	0.00
461.85	70.22
462.04	32.77
462.22	32.77
462.40	91.28
462.59	51.49
462.77	30.43
462.95	28.09
463.13	23.41
463.32	28.09
463.50	28.09
463.68	0.00
463.86	77.24
464.05	0.00
464.23	39.79
464.41	42.13
464.59	37.45
464.78	128.73
464.96	0.00
465.14	39.79
465.32	58.51
465.50	72.56
465.69	110.01
465.87	51.49
466.05	39.79
466.23	0.00
466.41	0.00
466.60	30.43
466.78	32.77
466.96	86.60
467.14	9.36
467.32	74.90
467.51	131.07
467.69	44.47
467.87	0.00
468.05	114.69
468.23	0.00
468.41	11.70
468.60	0.00
468.78	74.90
468.96	72.56
469.14	23.41
469.32	81.92
469.50	67.88
469.69	65.54
469.87	28.09
470.05	42.13
470.23	88.94
470.41	128.73
470.59	2.34
470.77	60.85
470.95	28.09
471.14	93.62
471.32	74.90
471.50	16.38
471.68	30.43
471.86	72.56
472.04	32.77
472.22	74.90
472.40	28.09
472.58	37.45
472.77	7.02
472.95	7.02
473.13	51.49
473.31	0.00
473.49	14.04
473.67	72.56
473.85	11.70
474.03	93.62
474.21	84.26
474.39	112.35
474.57	67.88
474.75	0.00
474.93	39.79
475.12	25.75
475.30	21.06
475.48	74.90
475.66	112.35
475.84	51.49
476.02	74.90
476.20	16.38
476.38	39.79
476.56	81.92
476.74	93.62
476.92	42.13
477.10	30.43
477.28	23.41
477.46	98.30
477.64	121.71
477.82	51.49
478.00	58.51
478.18	56.17
478.36	79.58
478.54	149.79
478.72	67.88
478.90	81.92
479.08	42.13
479.26	56.17
479.44	49.15
479.62	32.77
479.80	39.79
479.98	42.13
480.16	107.66
480.34	84.26
480.52	53.83
480.70	42.13
480.88	77.24
481.06	88.94
481.24	98.30
481.41	30.43
481.59	42.13
481.77	74.90
481.95	25.75
482.13	112.35
482.31	49.15
482.49	149.79
482.67	14.04
482.85	25.75
483.03	14.04
483.21	14.04
483.39	58.51
483.57	46.81
483.74	102.98
483.92	100.64
484.10	30.43
484.28	105.32
484.46	32.77
484.64	11.70
484.82	51.49
485.00	7.02
485.18	100.64
485.35	18.72
485.53	0.00
485.71	44.47
485.89	77.24
486.07	21.06
486.25	30.43
486.43	138.09
486.61	131.07
486.78	107.66
486.96	56.17
487.14	35.11
487.32	98.30
487.50	70.22
487.68	0.00
487.85	28.09
488.03	84.26
488.21	63.19
488.39	18.72
488.57	30.43
488.75	84.26
488.92	152.13
489.10	133.41
489.28	14.04
489.46	28.09
489.64	4.68
489.81	84.26
489.99	98.30
490.17	2.34
490.35	86.60
490.53	121.71
490.70	2.34
490.88	16.38
491.06	105.32
491.24	93.62
491.41	70.22
491.59	2.34
491.77	60.85
491.95	84.26
492.13	23.41
492.30	112.35
492.48	46.81
492.66	121.71
492.84	11.70
493.01	32.77
493.19	100.64
493.37	42.13
493.54	53.83
493.72	35.11
493.90	107.66
494.08	60.85
494.25	77.24
494.43	58.51
494.61	16.38
494.79	49.15
494.96	0.00
495.14	25.75
495.32	74.90
495.49	25.75
495.67	91.28
495.85	0.00
496.02	65.54
496.20	49.15
496.38	93.62
496.55	56.17
496.73	53.83
496.91	72.56
497.09	81.92
497.26	88.94
497.44	107.66
497.62	95.96
497.79	30.43
497.97	0.00
498.14	0.00
498.32	74.90
498.50	88.94
498.67	63.19
498.85	107.66
499.03	84.26
499.20	21.06
499.38	81.92
499.56	154.48
499.73	163.84
499.91	91.28
500.08	145.11
500.26	42.13
500.44	112.35
500.61	112.35
500.79	58.51
500.97	72.56
501.14	93.62
501.32	110.01
501.49	70.22
501.67	110.01
501.84	98.30
502.02	79.58
502.20	154.48
502.37	117.03
502.55	107.66
502.72	117.03
502.90	79.58
503.07	7.02
503.25	72.56
503.43	81.92
503.60	81.92
503.78	105.32
503.95	51.49
504.13	84.26
504.30	131.07
504.48	98.30
504.65	117.03
504.83	86.60
505.01	133.41
505.18	100.64
505.36	42.13
505.53	107.66
505.71	60.85
505.88	58.51
506.06	98.30
506.23	67.88
506.41	23.41
506.58	58.51
506.76	72.56
506.93	105.32
507.11	126.39
507.28	81.92
507.46	39.79
507.63	79.58
507.81	121.71
507.98	77.24
508.16	42.13
508.33	95.96
508.50	91.28
508.68	124.05
508.85	100.64
509.03	81.92
509.20	112.35
509.38	67.88
509.55	84.26
509.73	37.45
509.90	46.81
510.08	131.07
510.25	100.64
510.42	105.32
510.60	133.41
510.77	93.62
510.95	131.07
511.12	77.24
511.30	30.43
511.47	51.49
511.64	77.24
511.82	67.88
511.99	67.88
512.17	91.28
512.34	98.30
512.51	53.83
512.69	79.58
512.86	58.51
513.04	110.01
513.21	72.56
513.38	53.83
513.56	56.17
513.73	100.64
513.90	37.45
514.08	112.35
514.25	117.03
514.43	102.98
514.60	81.92
514.77	105.32
514.95	49.15
515.12	77.24
515.29	95.96
515.47	49.15
515.64	42.13
515.81	56.17
515.99	84.26
516.16	121.71
516.33	102.98
516.51	49.15
516.68	93.62
516.85	100.64
517.03	16.38
517.20	77.24
517.37	161.50
517.54	105.32
517.72	147.45
517.89	114.69
518.06	51.49
518.24	63.19
518.41	100.64
518.58	63.19
518.75	4.68
518.93	42.13
519.10	128.73
519.27	79.58
519.45	95.96
519.62	88.94
519.79	105.32
519.96	110.01
520.14	65.54
520.31	86.60
520.48	112.35
520.65	60.85
520.83	72.56
521.00	72.56
521.17	86.60
521.34	35.11
521.52	131.07
521.69	95.96
521.86	142.77
522.03	72.56
522.20	126.39
522.38	86.60
522.55	44.47
522.72	126.39
522.89	117.03
523.07	86.60
523.24	131.07
523.41	79.58
523.58	32.77
523.75	93.62
523.92	161.50
524.10	95.96
524.27	72.56
524.44	107.66
524.61	37.45
524.78	100.64
524.96	98.30
525.13	37.45
525.30	77.24
525.47	140.43
525.64	58.51
525.81	79.58
525.98	72.56
526.16	128.73
526.33	70.22
526.50	98.30
526.67	81.92
526.84	70.22
527.01	184.90
527.18	77.24
527.36	44.47
527.53	121.71
527.70	49.15
527.87	60.85
528.04	166.18
528.21	49.15
528.38	126.39
528.55	81.92
528.72	105.32
528.89	44.47
529.07	67.88
529.24	79.58
529.41	168.52
529.58	98.30
529.75	121.71
529.92	117.03
530.09	56.17
530.26	93.62
530.43	51.49
530.60	70.22
530.77	91.28
530.94	119.37
531.11	102.98
531.28	65.54
531.46	88.94
531.63	70.22
531.80	11.70
531.97	32.77
532.14	86.60
532.31	70.22
532.48	70.22
532.65	91.28
532.82	25.75
532.99	126.39
533.16	84.26
533.33	77.24
533.50	86.60
533.67	77.24
533.84	63.19
534.01	149.79
534.18	74.90
534.35	51.49
534.52	86.60
534.69	95.96
534.86	133.41
535.03	9.36
535.20	152.13
535.37	105.32
535.54	131.07
535.71	56.17
535.88	138.09
536.05	112.35
536.22	39.79
536.38	58.51
536.55	77.24
536.72	51.49
536.89	163.84
537.06	91.28
537.23	100.64
537.40	74.90
537.57	81.92
537.74	107.66
537.91	67.88
538.08	14.04
538.25	74.90
538.42	16.38
538.59	72.56
538.75	107.66
538.92	117.03
539.09	100.64
539.26	131.07
539.43	53.83
539.60	0.00
539.77	28.09
539.94	88.94
540.11	119.37
540.28	79.58
540.44	51.49
540.61	53.83
540.78	149.79
540.95	105.32
541.12	86.60
541.29	100.64
541.46	95.96
541.62	53.83
541.79	133.41
541.96	112.35
542.13	65.54
542.30	0.00
542.47	88.94
542.63	28.09
542.80	72.56
542.97	4.68
543.14	163.84
543.31	39.79
543.48	74.90
543.64	135.75
543.81	138.09
543.98	133.41
544.15	70.22
544.32	0.00
544.48	86.60
544.65	107.66
544.82	159.16
544.99	112.35
545.16	88.94
545.32	119.37
545.49	145.11
545.66	100.64
545.83	98.30
546.00	91.28
546.16	42.13
546.33	18.72
546.50	0.00
546.67	173.20
546.83	53.83
547.00	35.11
547.17	105.32
547.34	30.43
547.50	44.47
547.67	79.58
547.84	77.24
548.00	63.19
548.17	88.94
548.34	105.32
548.51	39.79
548.67	67.88
548.84	46.81
549.01	58.51
549.18	79.58
549.34	105.32
549.51	60.85
549.68	91.28
549.84	84.26
550.01	81.92
550.18	81.92
550.34	149.79
550.51	58.51
550.68	70.22
550.84	100.64
551.01	70.22
551.18	53.83
551.34	152.13
551.51	56.17
551.68	91.28
551.84	159.16
552.01	67.88
552.18	42.13
552.34	114.69
552.51	110.01
552.68	95.96
552.84	95.96
553.01	70.22
553.18	51.49
553.34	131.07
553.51	91.28
553.67	32.77
553.84	88.94
554.01	77.24
554.17	67.88
554.34	98.30
554.51	77.24
554.67	86.60
554.84	114.69
555.00	93.62
555.17	100.64
555.33	67.88
555.50	35.11
555.67	117.03
555.83	72.56
556.00	112.35
556.16	121.71
556.33	86.60
556.50	114.69
556.66	84.26
556.83	16.38
556.99	86.60
557.16	95.96
557.32	93.62
557.49	30.43
557.65	46.81
557.82	95.96
557.98	60.85
558.15	117.03
558.32	124.05
558.48	65.54
558.65	91.28
558.81	142.77
558.98	63.19
559.14	156.82
559.31	63.19
559.47	4.68
559.64	100.64
559.80	119.37
559.97	51.49
560.13	14.04
560.30	79.58
560.46	107.66
560.63	107.66
560.79	70.22
560.96	91.28
561.12	91.28
561.29	114.69
561.45	112.35
561.61	124.05
561.78	126.39
561.94	128.73
562.11	84.26
562.27	121.71
562.44	39.79
562.60	56.17
562.77	86.60
562.93	105.32
563.10	21.06
563.26	58.51
563.42	72.56
563.59	91.28
563.75	79.58
563.92	77.24
564.08	51.49
564.24	18.72
564.41	46.81
564.57	53.83
564.74	67.88
564.90	51.49
565.07	67.88
565.23	110.01
565.39	93.62
565.56	7.02
565.72	86.60
565.88	53.83
566.05	131.07
566.21	46.81
566.38	114.69
566.54	107.66
566.70	49.15
566.87	86.60
567.03	124.05
567.19	98.30
567.36	49.15
567.52	67.88
567.68	138.09
567.85	145.11
568.01	70.22
568.17	100.64
568.34	84.26
568.50	39.79
568.66	93.62
568.83	91.28
568.99	93.62
569.15	72.56
569.32	110.01
569.48	79.58
569.64	21.06
569.81	91.28
569.97	107.66
570.13	119.37
570.30	35.11
570.46	35.11
570.62	145.11
570.78	100.64
570.95	107.66
571.11	112.35
571.27	63.19
571.43	51.49
571.60	30.43
571.76	63.19
571.92	67.88
572.09	121.71
572.25	124.05
572.41	42.13
572.57	28.09
572.74	0.00
572.90	107.66
573.06	133.41
573.22	63.19
573.38	53.83
573.55	93.62
573.71	84.26
573.87	135.75
574.03	126.39
574.20	56.17
574.36	42.13
574.52	46.81
574.68	35.11
574.84	86.60
575.01	81.92
575.17	63.19
575.33	100.64
575.49	88.94
575.65	88.94
575.82	23.41
575.98	49.15
576.14	44.47
576.30	32.77
576.46	112.35
576.62	67.88
576.79	84.26
576.95	16.38
577.11	124.05
577.27	0.00
577.43	79.58
577.59	81.92
577.75	44.47
577.92	131.07
578.08	86.60
578.24	28.09
578.40	65.54
578.56	77.24
578.72	72.56
578.88	42.13
579.04	91.28
579.21	44.47
579.37	98.30
579.53	77.24
579.69	74.90
579.85	74.90
580.01	28.09
580.17	63.19
580.33	53.83
580.49	49.15
580.65	138.09
580.82	0.00
580.98	56.17
581.14	105.32
581.30	56.17
581.46	4.68
581.62	133.41
581.78	102.98
581.94	18.72
582.10	128.73
582.26	86.60
582.42	121.71
582.58	77.24
582.74	107.66
582.90	65.54
583.06	30.43
583.22	91.28
583.38	100.64
583.54	91.28
583.70	126.39
583.86	110.01
584.02	159.16
584.18	56.17
584.34	46.81
584.50	77.24
584.66	67.88
584.82	44.47
584.98	65.54
585.14	42.13
585.30	105.32
585.46	88.94
585.62	37.45
585.78	91.28
585.94	42.13
586.10	117.03
586.26	74.90
586.42	67.88
586.58	11.70
586.74	105.32
586.90	21.06
587.06	0.00
587.22	84.26
587.38	30.43
587.54	53.83
587.70	32.77
587.86	67.88
588.02	65.54
588.18	147.45
588.34	37.45
588.49	72.56
588.65	74.90
588.81	79.58
588.97	88.94
589.13	16.38
589.29	56.17
589.45	4.68
589.61	53.83
589.77	44.47
589.93	79.58
590.08	70.22
590.24	67.88
590.40	112.35
590.56	74.90
590.72	49.15
590.88	30.43
591.04	98.30
591.20	37.45
591.35	84.26
591.51	51.49
591.67	147.45
591.83	152.13
591.99	93.62
592.15	37.45
592.31	163.84
592.46	105.32
592.62	63.19
592.78	86.60
592.94	131.07
593.10	60.85
593.26	74.90
593.41	2.34
593.57	44.47
593.73	30.43
593.89	145.11
594.05	42.13
594.20	49.15
594.36	65.54
594.52	86.60
594.68	60.85
594.84	77.24
594.99	105.32
595.15	30.43
595.31	42.13
595.47	42.13
595.62	79.58
595.78	74.90
595.94	42.13
596.10	60.85
596.25	63.19
596.41	42.13
596.57	0.00
596.73	166.18
596.88	81.92
597.04	133.41
597.20	81.92
597.36	74.90
597.51	100.64
597.67	44.47
597.83	42.13
597.99	21.06
598.14	60.85
598.30	88.94
598.46	51.49
598.61	58.51
598.77	42.13
598.93	117.03
599.09	35.11
599.24	0.00
599.40	35.11
599.56	77.24
599.71	112.35
599.87	93.62
600.03	112.35
600.18	95.96
600.34	60.85
600.50	51.49
600.65	58.51
600.81	74.90
600.97	88.94
601.12	110.01
601.28	93.62
601.44	86.60
601.59	133.41
601.75	112.35
601.91	84.26
602.06	81.92
602.22	70.22
602.37	117.03
602.53	35.11
602.69	72.56
602.84	110.01
603.00	9.36
603.16	91.28
603.31	39.79
603.47	81.92
603.62	30.43
603.78	28.09
603.94	60.85
604.09	2.34
604.25	42.13
604.40	56.17
604.56	0.00
604.71	37.45
604.87	58.51
605.03	0.00
605.18	114.69
605.34	35.11
605.49	63.19
605.65	30.43
605.80	60.85
605.96	0.00
606.12	37.45
606.27	79.58
606.43	142.77
606.58	110.01
606.74	168.52
606.89	60.85
607.05	98.30
607.20	9.36
607.36	42.13
607.51	39.79
607.67	63.19
607.82	39.79
607.98	117.03
608.13	37.45
608.29	140.43
608.44	117.03
608.60	124.05
608.75	4.68
608.91	81.92
609.06	93.62
609.22	60.85
609.37	42.13
609.53	4.68
609.68	16.38
609.84	49.15
609.99	44.47
610.15	79.58
610.30	56.17
610.46	0.00
610.61	95.96
610.76	84.26
610.92	88.94
611.07	107.66
611.23	131.07
611.38	95.96
611.54	102.98
611.69	65.54
611.84	18.72
612.00	51.49
612.15	35.11
612.31	138.09
612.46	86.60
612.62	53.83
612.77	112.35
612.92	51.49
613.08	67.88
613.23	7.02
613.39	28.09
613.54	107.66
613.69	28.09
613.85	28.09
614.00	28.09
614.15	74.90
614.31	51.49
614.46	93.62
614.62	81.92
614.77	16.38
614.92	42.13
615.08	46.81
615.23	32.77
615.38	60.85
615.54	60.85
615.69	77.24
615.84	51.49
616.00	105.32
616.15	107.66
616.30	81.92
616.46	32.77
616.61	9.36
616.76	44.47
616.92	58.51
617.07	60.85
617.22	74.90
617.37	84.26
617.53	37.45
617.68	84.26
617.83	100.64
617.99	74.90
618.14	93.62
618.29	138.09
618.45	110.01
618.60	88.94
618.75	91.28
618.90	102.98
619.06	44.47
619.21	119.37
619.36	81.92
619.51	65.54
619.67	46.81
619.82	63.19
619.97	0.00
620.12	114.69
620.28	72.56
620.43	23.41
620.58	67.88
620.73	72.56
620.89	133.41
621.04	51.49
621.19	77.24
621.34	95.96
621.49	135.75
621.65	21.06
621.80	93.62
621.95	18.72
622.10	86.60
622.25	58.51
622.41	77.24
622.56	7.02
622.71	72.56
622.86	91.28
623.01	105.32
623.16	25.75
623.32	58.51
623.47	11.70
623.62	49.15
623.77	79.58
623.92	49.15
624.07	14.04
624.23	98.30
624.38	42.13
624.53	30.43
624.68	23.41
624.83	56.17
624.98	37.45
625.13	7.02
625.29	21.06
625.44	81.92
625.59	37.45
625.74	4.68
625.89	28.09
626.04	91.28
626.19	88.94
626.34	100.64
626.49	30.43
626.65	46.81
626.80	60.85
626.95	93.62
627.10	35.11
627.25	37.45
627.40	53.83
627.55	112.35
627.70	32.77
627.85	56.17
628.00	112.35
628.15	37.45
628.30	46.81
628.45	37.45
628.60	51.49
628.76	114.69
628.91	0.00
629.06	7.02
629.21	0.00
629.36	67.88
629.51	77.24
629.66	67.88
629.81	84.26
629.96	14.04
630.11	95.96
630.26	88.94
630.41	42.13
630.56	28.09
630.71	0.00
630.86	86.60
631.01	98.30
631.16	44.47
631.31	79.58
631.46	42.13
631.61	67.88
631.76	35.11
631.91	112.35
632.06	63.19
632.21	58.51
632.36	105.32
632.51	4.68
632.66	49.15
632.81	65.54
632.96	28.09
633.10	100.64
633.25	79.58
633.40	93.62
633.55	117.03
633.70	56.17
633.85	70.22
634.00	14.04
634.15	35.11
634.30	60.85
634.45	91.28
634.60	67.88
634.75	84.26
634.90	44.47
635.05	70.22
635.19	86.60
635.34	74.90
635.49	86.60
635.64	72.56
635.79	79.58
635.94	58.51
636.09	79.58
636.24	0.00
636.39	18.72
636.53	98.30
636.68	112.35
636.83	126.39
636.98	0.00
637.13	67.88
637.28	58.51
637.43	56.17
637.57	95.96
637.72	21.06
637.87	133.41
638.02	7.02
638.17	49.15
638.32	56.17
638.46	46.81
638.61	100.64
638.76	30.43
638.91	51.49
639.06	0.00
639.20	46.81
639.35	159.16
639.50	25.75
639.65	0.00
639.80	65.54
639.94	0.00
640.09	131.07
640.24	91.28
640.39	23.41
640.54	93.62
640.68	46.81
640.83	88.94
640.98	72.56
641.13	121.71
641.27	121.71
641.42	56.17
641.57	77.24
641.72	2.34
641.86	42.13
642.01	100.64
642.16	14.04
642.31	77.24
642.45	23.41
642.60	56.17
642.75	88.94
642.90	16.38
643.04	74.90
643.19	30.43
643.34	102.98
643.48	18.72
643.63	86.60
643.78	67.88
643.93	95.96
644.07	65.54
644.22	49.15
644.37	42.13
644.51	39.79
644.66	32.77
644.81	44.47
644.95	98.30
645.10	93.62
645.25	16.38
645.39	0.00
645.54	51.49
645.69	42.13
645.83	0.00
645.98	84.26
646.13	0.00
646.27	81.92
646.42	65.54
646.57	56.17
646.71	23.41
646.86	9.36
647.00	28.09
647.15	35.11
647.30	84.26
647.44	72.56
647.59	51.49
647.74	117.03
647.88	21.06
648.03	65.54
648.17	23.41
648.32	58.51
648.47	30.43
648.61	51.49
648.76	95.96
648.90	58.51
649.05	0.00
649.20	84.26
649.34	79.58
649.49	79.58
649.63	72.56
649.78	39.79
649.92	114.69
650.07	56.17
650.21	77.24
650.36	86.60
650.51	72.56
650.65	98.30
650.80	88.94
650.94	79.58
651.09	133.41
651.23	32.77
651.38	14.04
651.52	63.19
651.67	0.00
651.81	95.96
651.96	49.15
652.10	53.83
652.25	98.30
652.39	49.15
652.54	98.30
652.68	0.00
652.83	23.41
652.97	11.70
653.12	4.68
653.26	60.85
653.41	70.22
653.55	0.00
653.70	79.58
653.84	21.06
653.99	112.35
654.13	95.96
654.27	84.26
654.42	81.92
654.56	49.15
654.71	9.36
654.85	93.62
655.00	28.09
655.14	0.00
655.29	0.00
655.43	67.88
655.57	58.51
655.72	35.11
655.86	30.43
656.01	0.00
656.15	4.68
656.30	53.83
656.44	16.38
656.58	25.75
656.73	25.75
656.87	51.49
657.01	60.85
657.16	110.01
657.30	2.34
657.45	58.51
657.59	37.45
657.73	100.64
657.88	95.96
658.02	65.54
658.16	152.13
658.31	39.79
658.45	95.96
658.60	4.68
658.74	0.00
658.88	91.28
659.03	32.77
659.17	46.81
659.31	56.17
659.46	37.45
659.60	93.62
659.74	77.24
659.89	25.75
660.03	35.11
660.17	18.72
660.32	42.13
660.46	105.32
660.60	140.43
660.74	140.43
660.89	16.38
661.03	86.60
661.17	112.35
661.32	65.54
661.46	2.34
661.60	11.70
661.74	63.19
661.89	28.09
662.03	149.79
662.17	37.45
662.31	79.58
662.46	74.90
662.60	112.35
662.74	114.69
662.88	53.83
663.03	84.26
663.17	32.77
663.31	72.56
663.45	105.32
663.60	32.77
663.74	0.00
663.88	9.36
664.02	4.68
664.17	60.85
664.31	88.94
664.45	51.49
664.59	9.36
664.73	53.83
664.88	42.13
665.02	53.83
665.16	30.43
665.30	79.58
665.44	49.15
665.59	53.83
665.73	70.22
665.87	21.06
666.01	32.77
666.15	30.43
666.29	67.88
666.44	44.47
666.58	37.45
666.72	0.00
666.86	60.85
667.00	0.00
667.14	49.15
667.28	2.34
667.43	16.38
667.57	102.98
667.71	56.17
667.85	67.88
667.99	91.28
668.13	46.81
668.27	0.00
668.41	65.54
668.56	100.64
668.70	49.15
668.84	105.32
668.98	18.72
669.12	16.38
669.26	18.72
669.40	88.94
669.54	23.41
669.68	100.64
669.82	0.00
669.96	77.24
670.10	42.13
670.25	81.92
670.39	53.83
670.53	79.58
670.67	70.22
670.81	42.13
670.95	0.00
671.09	53.83
671.23	60.85
671.37	53.83
671.51	11.70
671.65	74.90
671.79	9.36
671.93	0.00
672.07	37.45
672.21	95.96
672.35	63.19
672.49	9.36
672.63	88.94
672.77	58.51
672.91	39.79
673.05	35.11
673.19	95.96
673.33	0.00
673.47	49.15
673.61	53.83
673.75	44.47
673.89	25.75
674.03	25.75
674.17	70.22
674.31	28.09
674.45	35.11
674.59	84.26
674.73	77.24
674.87	93.62
675.01	58.51
675.15	9.36
675.29	84.26
675.43	35.11
675.56	70.22
675.70	70.22
675.84	11.70
675.98	4.68
676.12	95.96
676.26	37.45
676.40	0.00
676.54	91.28
676.68	42.13
676.82	35.11
676.96	28.09
677.10	37.45
677.23	0.00
677.37	42.13
677.51	28.09
677.65	91.28
677.79	114.69
677.93	84.26
678.07	16.38
678.21	0.00
678.34	7.02
678.48	72.56
678.62	0.00
678.76	142.77
678.90	39.79
679.04	0.00
679.18	37.45
679.31	18.72
679.45	84.26
679.59	60.85
679.73	58.51
679.87	49.15
680.00	131.07
680.14	11.70
680.28	35.11
680.42	58.51
680.56	67.88
680.70	16.38
680.83	32.77
680.97	23.41
681.11	39.79
681.25	42.13
681.39	58.51
681.52	37.45
681.66	51.49
681.80	0.00
681.94	11.70
682.07	46.81
682.21	46.81
682.35	72.56
682.49	0.00
682.62	39.79
682.76	0.00
682.90	56.17
683.04	0.00
683.17	0.00
683.31	88.94
683.45	79.58
683.59	28.09
683.72	42.13
683.86	74.90
684.00	121.71
684.13	11.70
684.27	0.00
684.41	42.13
684.55	0.00
684.68	53.83
684.82	0.00
684.96	32.77
685.09	39.79
685.23	72.56
685.37	4.68
685.50	70.22
685.64	21.06
685.78	21.06
685.91	72.56
686.05	32.77
686.19	21.06
686.32	60.85
686.46	49.15
686.60	35.11
686.73	0.00
686.87	74.90
687.01	0.00
687.14	0.00
687.28	9.36
687.42	28.09
687.55	81.92
687.69	65.54
687.82	0.00
687.96	98.30
688.10	42.13
688.23	49.15
688.37	30.43
688.50	35.11
688.64	44.47
688.78	44.47
688.91	21.06
689.05	46.81
689.18	74.90
689.32	9.36
689.46	11.70
689.59	32.77
689.73	65.54
689.86	77.24
690.00	51.49
690.13	56.17
690.27	23.41
690.41	23.41
690.54	25.75
690.68	28.09
690.81	142.77
690.95	93.62
691.08	56.17
691.22	25.75
691.35	11.70
691.49	18.72
691.62	0.00
691.76	93.62
691.89	0.00
692.03	25.75
692.16	60.85
692.30	39.79
692.43	4.68
692.57	2.34
692.70	88.94
692.84	0.00
692.97	42.13
693.11	11.70
693.24	30.43
693.38	51.49
693.51	51.49
693.65	0.00
693.78	0.00
693.92	53.83
694.05	65.54
694.19	21.06
694.32	4.68
694.45	4.68
694.59	56.17
694.72	84.26
694.86	56.17
694.99	0.00
695.13	110.01
695.26	49.15
695.39	63.19
695.53	39.79
695.66	86.60
695.80	58.51
695.93	124.05
696.07	138.09
696.20	23.41
696.33	81.92
696.47	86.60
696.60	98.30
696.73	16.38
696.87	88.94
697.00	16.38
697.14	0.00
697.27	25.75
697.40	72.56
697.54	0.00
697.67	28.09
697.80	28.09
697.94	0.00
698.07	0.00
698.21	4.68
698.34	53.83
698.47	51.49
698.61	0.00
698.74	11.70
698.87	23.41
699.01	44.47
699.14	65.54
699.27	0.00
699.40	23.41
699.54	0.00
699.67	51.49
699.80	37.45
699.94	2.34
700.07	30.43
700.20	11.70
700.34	107.66
700.47	2.34
700.60	2.34
700.73	37.45
700.87	32.77
701.00	30.43
701.13	51.49
701.26	23.41
701.40	49.15
701.53	9.36
701.66	63.19
701.79	49.15
701.93	84.26
702.06	112.35
702.19	0.00
702.32	56.17
702.46	91.28
702.59	21.06
702.72	30.43
702.85	39.79
702.99	77.24
703.12	4.68
703.25	46.81
703.38	18.72
703.51	70.22
703.65	77.24
703.78	60.85
703.91	37.45
704.04	72.56
704.17	23.41
704.31	77.24
704.44	93.62
704.57	49.15
704.70	7.02
704.83	70.22
704.96	0.00
705.10	28.09
705.23	37.45
>>>>>End Processed Spectral Data<<<<<
