SpectraSuite Data File
++++++++++++++++++++++++++++++++++++
Date: Fri Oct 04 12:13:31 GMT-05:00 2013
User: price-jones
Dark Spectrum Present: No
Reference Spectrum Present: No
Number of Sampled Component Spectra: 1
Spectrometers: USB2+H05261
Integration Time (usec): 10000 (USB2+H05261)
Spectra Averaged: 1 (USB2+H05261)
Boxcar Smoothing: 0 (USB2+H05261)
Correct for Electrical Dark: No (USB2+H05261)
Strobe/Lamp Enabled: No (USB2+H05261)
Correct for Detector Non-linearity: No (USB2+H05261)
Correct for Stray Light: No (USB2+H05261)
Number of Pixels in Processed Spectrum: 2048
>>>>>Begin Processed Spectral Data<<<<<
365.73	0.00
365.92	0.00
366.12	0.00
366.32	0.00
366.52	0.00
366.72	0.00
366.91	0.00
367.11	0.00
367.31	0.00
367.51	0.00
367.70	0.00
367.90	0.00
368.10	0.00
368.30	0.00
368.49	0.00
368.69	0.00
368.89	0.00
369.09	0.00
369.28	0.00
369.48	0.00
369.68	0.00
369.87	0.00
370.07	0.00
370.27	0.00
370.47	0.00
370.66	0.00
370.86	0.00
371.06	0.00
371.25	18.72
371.45	0.00
371.65	0.00
371.84	0.00
372.04	0.00
372.24	0.00
372.44	42.13
372.63	0.00
372.83	0.00
373.03	42.13
373.22	18.72
373.42	46.81
373.62	30.43
373.81	7.02
374.01	49.15
374.21	51.49
374.40	65.54
374.60	14.04
374.79	51.49
374.99	67.88
375.19	63.19
375.38	37.45
375.58	14.04
375.78	79.58
375.97	25.75
376.17	72.56
376.37	28.09
376.56	30.43
376.76	16.38
376.95	0.00
377.15	0.00
377.35	91.28
377.54	53.83
377.74	25.75
377.93	37.45
378.13	114.69
378.33	23.41
378.52	0.00
378.72	35.11
378.91	14.04
379.11	67.88
379.31	11.70
379.50	16.38
379.70	67.88
379.89	32.77
380.09	0.00
380.28	49.15
380.48	32.77
380.68	18.72
380.87	0.00
381.07	0.00
381.26	46.81
381.46	0.00
381.65	0.00
381.85	14.04
382.04	0.00
382.24	42.13
382.43	0.00
382.63	0.00
382.83	16.38
383.02	23.41
383.22	39.79
383.41	32.77
383.61	0.00
383.80	0.00
384.00	72.56
384.19	0.00
384.39	18.72
384.58	16.38
384.78	88.94
384.97	0.00
385.17	18.72
385.36	77.24
385.56	14.04
385.75	53.83
385.95	37.45
386.14	58.51
386.34	72.56
386.53	30.43
386.72	0.00
386.92	0.00
387.11	0.00
387.31	74.90
387.50	30.43
387.70	35.11
387.89	23.41
388.09	0.00
388.28	51.49
388.48	7.02
388.67	32.77
388.86	0.00
389.06	14.04
389.25	32.77
389.45	60.85
389.64	30.43
389.84	0.00
390.03	42.13
390.22	58.51
390.42	0.00
390.61	0.00
390.81	30.43
391.00	0.00
391.19	0.00
391.39	0.00
391.58	0.00
391.78	16.38
391.97	46.81
392.16	44.47
392.36	11.70
392.55	0.00
392.75	39.79
392.94	7.02
393.13	58.51
393.33	77.24
393.52	28.09
393.71	63.19
393.91	44.47
394.10	0.00
394.29	21.06
394.49	46.81
394.68	0.00
394.88	0.00
395.07	7.02
395.26	67.88
395.46	0.00
395.65	46.81
395.84	0.00
396.04	37.45
396.23	18.72
396.42	23.41
396.62	16.38
396.81	9.36
397.00	56.17
397.19	67.88
397.39	60.85
397.58	16.38
397.77	51.49
397.97	2.34
398.16	0.00
398.35	21.06
398.55	32.77
398.74	0.00
398.93	25.75
399.12	7.02
399.32	58.51
399.51	81.92
399.70	70.22
399.90	60.85
400.09	23.41
400.28	42.13
400.47	32.77
400.67	0.00
400.86	77.24
401.05	32.77
401.24	16.38
401.44	63.19
401.63	63.19
401.82	42.13
402.01	65.54
402.21	77.24
402.40	4.68
402.59	0.00
402.78	7.02
402.97	86.60
403.17	37.45
403.36	60.85
403.55	72.56
403.74	35.11
403.93	51.49
404.13	95.96
404.32	0.00
404.51	44.47
404.70	74.90
404.89	23.41
405.09	4.68
405.28	30.43
405.47	72.56
405.66	0.00
405.85	32.77
406.05	91.28
406.24	133.41
406.43	18.72
406.62	79.58
406.81	0.00
407.00	0.00
407.20	44.47
407.39	0.00
407.58	35.11
407.77	53.83
407.96	35.11
408.15	32.77
408.34	32.77
408.54	58.51
408.73	16.38
408.92	70.22
409.11	53.83
409.30	9.36
409.49	0.00
409.68	51.49
409.87	65.54
410.07	18.72
410.26	53.83
410.45	4.68
410.64	9.36
410.83	0.00
411.02	102.98
411.21	53.83
411.40	2.34
411.59	65.54
411.78	72.56
411.98	42.13
412.17	14.04
412.36	49.15
412.55	0.00
412.74	53.83
412.93	0.00
413.12	14.04
413.31	0.00
413.50	56.17
413.69	0.00
413.88	0.00
414.07	0.00
414.26	18.72
414.45	56.17
414.64	4.68
414.83	0.00
415.02	49.15
415.22	25.75
415.41	32.77
415.60	32.77
415.79	44.47
415.98	46.81
416.17	37.45
416.36	16.38
416.55	46.81
416.74	21.06
416.93	53.83
417.12	21.06
417.31	0.00
417.50	28.09
417.69	53.83
417.88	84.26
418.07	0.00
418.26	18.72
418.45	4.68
418.64	23.41
418.83	0.00
419.02	98.30
419.21	51.49
419.39	53.83
419.58	0.00
419.77	18.72
419.96	9.36
420.15	7.02
420.34	16.38
420.53	30.43
420.72	16.38
420.91	39.79
421.10	77.24
421.29	63.19
421.48	30.43
421.67	32.77
421.86	4.68
422.05	37.45
422.24	77.24
422.43	30.43
422.61	60.85
422.80	0.00
422.99	46.81
423.18	23.41
423.37	0.00
423.56	7.02
423.75	84.26
423.94	56.17
424.13	30.43
424.32	21.06
424.50	37.45
424.69	46.81
424.88	4.68
425.07	56.17
425.26	37.45
425.45	42.13
425.64	25.75
425.83	84.26
426.01	30.43
426.20	0.00
426.39	28.09
426.58	11.70
426.77	46.81
426.96	102.98
427.15	23.41
427.33	67.88
427.52	30.43
427.71	0.00
427.90	35.11
428.09	70.22
428.28	25.75
428.46	65.54
428.65	0.00
428.84	35.11
429.03	49.15
429.22	0.00
429.40	84.26
429.59	18.72
429.78	16.38
429.97	0.00
430.16	91.28
430.34	14.04
430.53	0.00
430.72	0.00
430.91	0.00
431.10	0.00
431.28	70.22
431.47	7.02
431.66	44.47
431.85	32.77
432.03	42.13
432.22	16.38
432.41	0.00
432.60	114.69
432.79	42.13
432.97	32.77
433.16	0.00
433.35	88.94
433.54	65.54
433.72	30.43
433.91	49.15
434.10	14.04
434.28	21.06
434.47	32.77
434.66	0.00
434.85	9.36
435.03	46.81
435.22	35.11
435.41	74.90
435.59	72.56
435.78	56.17
435.97	30.43
436.16	0.00
436.34	9.36
436.53	30.43
436.72	79.58
436.90	51.49
437.09	67.88
437.28	30.43
437.46	16.38
437.65	18.72
437.84	77.24
438.02	117.03
438.21	25.75
438.40	25.75
438.58	18.72
438.77	0.00
438.96	14.04
439.14	16.38
439.33	0.00
439.52	21.06
439.70	16.38
439.89	0.00
440.08	79.58
440.26	79.58
440.45	25.75
440.63	0.00
440.82	32.77
441.01	63.19
441.19	11.70
441.38	11.70
441.57	25.75
441.75	63.19
441.94	77.24
442.12	30.43
442.31	4.68
442.50	44.47
442.68	39.79
442.87	0.00
443.05	44.47
443.24	91.28
443.43	49.15
443.61	60.85
443.80	58.51
443.98	72.56
444.17	0.00
444.35	32.77
444.54	58.51
444.73	0.00
444.91	65.54
445.10	0.00
445.28	23.41
445.47	42.13
445.65	28.09
445.84	56.17
446.02	35.11
446.21	30.43
446.39	4.68
446.58	72.56
446.77	0.00
446.95	0.00
447.14	88.94
447.32	49.15
447.51	21.06
447.69	95.96
447.88	46.81
448.06	107.66
448.25	84.26
448.43	44.47
448.62	37.45
448.80	53.83
448.99	63.19
449.17	91.28
449.36	60.85
449.54	18.72
449.73	25.75
449.91	46.81
450.10	0.00
450.28	7.02
450.46	95.96
450.65	44.47
450.83	37.45
451.02	0.00
451.20	18.72
451.39	0.00
451.57	0.00
451.76	112.35
451.94	23.41
452.13	46.81
452.31	56.17
452.49	0.00
452.68	30.43
452.86	44.47
453.05	11.70
453.23	2.34
453.42	81.92
453.60	25.75
453.78	37.45
453.97	63.19
454.15	70.22
454.34	49.15
454.52	56.17
454.70	0.00
454.89	74.90
455.07	56.17
455.26	63.19
455.44	86.60
455.62	60.85
455.81	0.00
455.99	49.15
456.17	56.17
456.36	28.09
456.54	58.51
456.73	58.51
456.91	0.00
457.09	32.77
457.28	4.68
457.46	44.47
457.64	60.85
457.83	11.70
458.01	0.00
458.19	44.47
458.38	37.45
458.56	0.00
458.74	0.00
458.93	44.47
459.11	16.38
459.29	42.13
459.48	11.70
459.66	0.00
459.84	14.04
460.03	72.56
460.21	0.00
460.39	16.38
460.57	32.77
460.76	79.58
460.94	102.98
461.12	0.00
461.31	42.13
461.49	46.81
461.67	23.41
461.85	56.17
462.04	67.88
462.22	114.69
462.40	67.88
462.59	35.11
462.77	21.06
462.95	11.70
463.13	39.79
463.32	49.15
463.50	44.47
463.68	4.68
463.86	28.09
464.05	25.75
464.23	0.00
464.41	63.19
464.59	72.56
464.78	0.00
464.96	53.83
465.14	39.79
465.32	30.43
465.50	84.26
465.69	51.49
465.87	32.77
466.05	56.17
466.23	93.62
466.41	9.36
466.60	39.79
466.78	4.68
466.96	0.00
467.14	93.62
467.32	14.04
467.51	44.47
467.69	28.09
467.87	0.00
468.05	0.00
468.23	112.35
468.41	56.17
468.60	0.00
468.78	14.04
468.96	51.49
469.14	37.45
469.32	23.41
469.50	63.19
469.69	105.32
469.87	28.09
470.05	37.45
470.23	21.06
470.41	0.00
470.59	46.81
470.77	70.22
470.95	100.64
471.14	51.49
471.32	39.79
471.50	23.41
471.68	60.85
471.86	86.60
472.04	0.00
472.22	39.79
472.40	46.81
472.58	9.36
472.77	39.79
472.95	44.47
473.13	0.00
473.31	39.79
473.49	51.49
473.67	2.34
473.85	21.06
474.03	0.00
474.21	58.51
474.39	18.72
474.57	77.24
474.75	46.81
474.93	114.69
475.12	0.00
475.30	0.00
475.48	91.28
475.66	21.06
475.84	0.00
476.02	84.26
476.20	35.11
476.38	28.09
476.56	0.00
476.74	44.47
476.92	60.85
477.10	0.00
477.28	11.70
477.46	49.15
477.64	79.58
477.82	7.02
478.00	25.75
478.18	0.00
478.36	32.77
478.54	86.60
478.72	39.79
478.90	37.45
479.08	72.56
479.26	56.17
479.44	53.83
479.62	51.49
479.80	114.69
479.98	46.81
480.16	65.54
480.34	35.11
480.52	77.24
480.70	53.83
480.88	0.00
481.06	4.68
481.24	32.77
481.41	88.94
481.59	53.83
481.77	2.34
481.95	70.22
482.13	81.92
482.31	51.49
482.49	30.43
482.67	84.26
482.85	84.26
483.03	67.88
483.21	53.83
483.39	63.19
483.57	133.41
483.74	42.13
483.92	0.00
484.10	60.85
484.28	117.03
484.46	58.51
484.64	49.15
484.82	11.70
485.00	0.00
485.18	37.45
485.35	0.00
485.53	37.45
485.71	23.41
485.89	0.00
486.07	0.00
486.25	79.58
486.43	63.19
486.61	42.13
486.78	37.45
486.96	77.24
487.14	23.41
487.32	74.90
487.50	0.00
487.68	16.38
487.85	51.49
488.03	28.09
488.21	131.07
488.39	44.47
488.57	72.56
488.75	39.79
488.92	42.13
489.10	95.96
489.28	51.49
489.46	117.03
489.64	65.54
489.81	16.38
489.99	0.00
490.17	46.81
490.35	79.58
490.53	16.38
490.70	65.54
490.88	0.00
491.06	67.88
491.24	49.15
491.41	39.79
491.59	9.36
491.77	0.00
491.95	56.17
492.13	58.51
492.30	74.90
492.48	74.90
492.66	70.22
492.84	72.56
493.01	16.38
493.19	32.77
493.37	0.00
493.54	58.51
493.72	74.90
493.90	0.00
494.08	49.15
494.25	23.41
494.43	63.19
494.61	84.26
494.79	84.26
494.96	0.00
495.14	35.11
495.32	23.41
495.49	72.56
495.67	88.94
495.85	53.83
496.02	21.06
496.20	42.13
496.38	0.00
496.55	37.45
496.73	23.41
496.91	0.00
497.09	35.11
497.26	60.85
497.44	88.94
497.62	65.54
497.79	9.36
497.97	65.54
498.14	0.00
498.32	39.79
498.50	86.60
498.67	93.62
498.85	4.68
499.03	53.83
499.20	0.00
499.38	65.54
499.56	44.47
499.73	35.11
499.91	60.85
500.08	4.68
500.26	0.00
500.44	70.22
500.61	18.72
500.79	0.00
500.97	0.00
501.14	77.24
501.32	4.68
501.49	0.00
501.67	0.00
501.84	28.09
502.02	49.15
502.20	23.41
502.37	14.04
502.55	9.36
502.72	0.00
502.90	0.00
503.07	128.73
503.25	0.00
503.43	46.81
503.60	37.45
503.78	58.51
503.95	74.90
504.13	0.00
504.30	110.01
504.48	74.90
504.65	74.90
504.83	28.09
505.01	32.77
505.18	63.19
505.36	42.13
505.53	2.34
505.71	49.15
505.88	51.49
506.06	0.00
506.23	46.81
506.41	39.79
506.58	44.47
506.76	67.88
506.93	70.22
507.11	46.81
507.28	39.79
507.46	2.34
507.63	65.54
507.81	51.49
507.98	21.06
508.16	49.15
508.33	37.45
508.50	0.00
508.68	0.00
508.85	102.98
509.03	42.13
509.20	79.58
509.38	0.00
509.55	53.83
509.73	2.34
509.90	79.58
510.08	0.00
510.25	53.83
510.42	18.72
510.60	35.11
510.77	21.06
510.95	63.19
511.12	117.03
511.30	18.72
511.47	30.43
511.64	0.00
511.82	84.26
511.99	44.47
512.17	49.15
512.34	0.00
512.51	25.75
512.69	86.60
512.86	65.54
513.04	32.77
513.21	25.75
513.38	7.02
513.56	37.45
513.73	23.41
513.90	21.06
514.08	32.77
514.25	25.75
514.43	0.00
514.60	0.00
514.77	0.00
514.95	18.72
515.12	21.06
515.29	16.38
515.47	67.88
515.64	44.47
515.81	25.75
515.99	0.00
516.16	74.90
516.33	14.04
516.51	56.17
516.68	98.30
516.85	0.00
517.03	51.49
517.20	28.09
517.37	37.45
517.54	86.60
517.72	21.06
517.89	91.28
518.06	74.90
518.24	35.11
518.41	14.04
518.58	7.02
518.75	9.36
518.93	46.81
519.10	70.22
519.27	23.41
519.45	72.56
519.62	9.36
519.79	23.41
519.96	42.13
520.14	42.13
520.31	0.00
520.48	0.00
520.65	28.09
520.83	7.02
521.00	46.81
521.17	86.60
521.34	91.28
521.52	74.90
521.69	35.11
521.86	44.47
522.03	18.72
522.20	46.81
522.38	11.70
522.55	39.79
522.72	39.79
522.89	49.15
523.07	21.06
523.24	49.15
523.41	46.81
523.58	7.02
523.75	74.90
523.92	88.94
524.10	11.70
524.27	44.47
524.44	63.19
524.61	21.06
524.78	58.51
524.96	58.51
525.13	4.68
525.30	28.09
525.47	42.13
525.64	81.92
525.81	98.30
525.98	25.75
526.16	0.00
526.33	32.77
526.50	23.41
526.67	156.82
526.84	51.49
527.01	51.49
527.18	32.77
527.36	138.09
527.53	70.22
527.70	9.36
527.87	63.19
528.04	9.36
528.21	23.41
528.38	72.56
528.55	0.00
528.72	0.00
528.89	0.00
529.07	23.41
529.24	63.19
529.41	16.38
529.58	70.22
529.75	11.70
529.92	39.79
530.09	0.00
530.26	79.58
530.43	4.68
530.60	53.83
530.77	74.90
530.94	32.77
531.11	0.00
531.28	16.38
531.46	0.00
531.63	53.83
531.80	44.47
531.97	32.77
532.14	0.00
532.31	63.19
532.48	53.83
532.65	14.04
532.82	32.77
532.99	35.11
533.16	35.11
533.33	84.26
533.50	91.28
533.67	23.41
533.84	21.06
534.01	2.34
534.18	84.26
534.35	67.88
534.52	51.49
534.69	102.98
534.86	30.43
535.03	32.77
535.20	51.49
535.37	0.00
535.54	44.47
535.71	100.64
535.88	81.92
536.05	42.13
536.22	58.51
536.38	42.13
536.55	102.98
536.72	4.68
536.89	23.41
537.06	0.00
537.23	21.06
537.40	49.15
537.57	42.13
537.74	30.43
537.91	18.72
538.08	7.02
538.25	35.11
538.42	18.72
538.59	74.90
538.75	37.45
538.92	53.83
539.09	58.51
539.26	42.13
539.43	128.73
539.60	60.85
539.77	84.26
539.94	107.66
540.11	0.00
540.28	39.79
540.44	46.81
540.61	121.71
540.78	72.56
540.95	58.51
541.12	49.15
541.29	42.13
541.46	32.77
541.62	88.94
541.79	53.83
541.96	28.09
542.13	0.00
542.30	42.13
542.47	112.35
542.63	51.49
542.80	0.00
542.97	4.68
543.14	119.37
543.31	23.41
543.48	25.75
543.64	21.06
543.81	49.15
543.98	60.85
544.15	67.88
544.32	35.11
544.48	28.09
544.65	114.69
544.82	53.83
544.99	93.62
545.16	35.11
545.32	93.62
545.49	42.13
545.66	46.81
545.83	0.00
546.00	37.45
546.16	65.54
546.33	93.62
546.50	9.36
546.67	0.00
546.83	30.43
547.00	32.77
547.17	4.68
547.34	74.90
547.50	30.43
547.67	53.83
547.84	35.11
548.00	77.24
548.17	16.38
548.34	49.15
548.51	56.17
548.67	28.09
548.84	32.77
549.01	74.90
549.18	0.00
549.34	56.17
549.51	44.47
549.68	0.00
549.84	18.72
550.01	0.00
550.18	16.38
550.34	60.85
550.51	88.94
550.68	74.90
550.84	23.41
551.01	42.13
551.18	72.56
551.34	16.38
551.51	70.22
551.68	51.49
551.84	32.77
552.01	46.81
552.18	81.92
552.34	112.35
552.51	0.00
552.68	84.26
552.84	9.36
553.01	42.13
553.18	23.41
553.34	84.26
553.51	84.26
553.67	56.17
553.84	88.94
554.01	39.79
554.17	100.64
554.34	53.83
554.51	74.90
554.67	18.72
554.84	14.04
555.00	23.41
555.17	0.00
555.33	60.85
555.50	0.00
555.67	70.22
555.83	23.41
556.00	46.81
556.16	133.41
556.33	110.01
556.50	39.79
556.66	28.09
556.83	39.79
556.99	86.60
557.16	74.90
557.32	0.00
557.49	21.06
557.65	72.56
557.82	0.00
557.98	65.54
558.15	35.11
558.32	86.60
558.48	0.00
558.65	79.58
558.81	25.75
558.98	21.06
559.14	9.36
559.31	18.72
559.47	18.72
559.64	114.69
559.80	11.70
559.97	16.38
560.13	42.13
560.30	7.02
560.46	60.85
560.63	11.70
560.79	44.47
560.96	16.38
561.12	65.54
561.29	16.38
561.45	9.36
561.61	42.13
561.78	65.54
561.94	14.04
562.11	56.17
562.27	37.45
562.44	46.81
562.60	60.85
562.77	65.54
562.93	46.81
563.10	49.15
563.26	67.88
563.42	9.36
563.59	58.51
563.75	42.13
563.92	56.17
564.08	0.00
564.24	35.11
564.41	72.56
564.57	28.09
564.74	18.72
564.90	32.77
565.07	0.00
565.23	42.13
565.39	37.45
565.56	14.04
565.72	79.58
565.88	9.36
566.05	93.62
566.21	49.15
566.38	88.94
566.54	23.41
566.70	39.79
566.87	44.47
567.03	67.88
567.19	63.19
567.36	0.00
567.52	0.00
567.68	0.00
567.85	37.45
568.01	84.26
568.17	77.24
568.34	72.56
568.50	0.00
568.66	11.70
568.83	182.56
568.99	77.24
569.15	42.13
569.32	95.96
569.48	95.96
569.64	58.51
569.81	60.85
569.97	53.83
570.13	63.19
570.30	126.39
570.46	0.00
570.62	44.47
570.78	32.77
570.95	0.00
571.11	0.00
571.27	44.47
571.43	84.26
571.60	4.68
571.76	0.00
571.92	14.04
572.09	0.00
572.25	51.49
572.41	53.83
572.57	39.79
572.74	21.06
572.90	124.05
573.06	51.49
573.22	112.35
573.38	86.60
573.55	44.47
573.71	7.02
573.87	63.19
574.03	35.11
574.20	110.01
574.36	25.75
574.52	65.54
574.68	86.60
574.84	7.02
575.01	21.06
575.17	0.00
575.33	0.00
575.49	86.60
575.65	37.45
575.82	32.77
575.98	156.82
576.14	35.11
576.30	32.77
576.46	91.28
576.62	32.77
576.79	100.64
576.95	79.58
577.11	53.83
577.27	39.79
577.43	30.43
577.59	0.00
577.75	51.49
577.92	44.47
578.08	77.24
578.24	35.11
578.40	72.56
578.56	56.17
578.72	53.83
578.88	18.72
579.04	53.83
579.21	77.24
579.37	7.02
579.53	95.96
579.69	30.43
579.85	95.96
580.01	56.17
580.17	58.51
580.33	100.64
580.49	18.72
580.65	51.49
580.82	0.00
580.98	0.00
581.14	53.83
581.30	30.43
581.46	107.66
581.62	51.49
581.78	56.17
581.94	65.54
582.10	0.00
582.26	58.51
582.42	56.17
582.58	79.58
582.74	81.92
582.90	110.01
583.06	117.03
583.22	53.83
583.38	72.56
583.54	0.00
583.70	16.38
583.86	138.09
584.02	35.11
584.18	119.37
584.34	65.54
584.50	184.90
584.66	905.79
584.82	2289.04
584.98	3002.91
585.14	2745.45
585.30	1795.19
585.46	1078.99
585.62	685.78
585.78	301.93
585.94	182.56
586.10	72.56
586.26	0.00
586.42	37.45
586.58	42.13
586.74	56.17
586.90	86.60
587.06	32.77
587.22	77.24
587.38	23.41
587.54	124.05
587.70	126.39
587.86	344.06
588.02	273.84
588.18	224.69
588.34	215.33
588.49	25.75
588.65	107.66
588.81	28.09
588.97	0.00
589.13	93.62
589.29	91.28
589.45	152.13
589.61	110.01
589.77	67.88
589.93	39.79
590.08	42.13
590.24	51.49
590.40	23.41
590.56	84.26
590.72	131.07
590.88	138.09
591.04	53.83
591.20	49.15
591.35	39.79
591.51	53.83
591.67	7.02
591.83	21.06
591.99	77.24
592.15	0.00
592.31	49.15
592.46	49.15
592.62	67.88
592.78	21.06
592.94	70.22
593.10	32.77
593.26	0.00
593.41	21.06
593.57	23.41
593.73	4.68
593.89	149.79
594.05	315.97
594.20	470.45
594.36	362.78
594.52	330.02
594.68	217.67
594.84	142.77
594.99	58.51
595.15	93.62
595.31	0.00
595.47	9.36
595.62	65.54
595.78	46.81
595.94	77.24
596.10	0.00
596.25	70.22
596.41	51.49
596.57	0.00
596.73	91.28
596.88	46.81
597.04	93.62
597.20	177.88
597.36	147.45
597.51	133.41
597.67	110.01
597.83	51.49
597.99	25.75
598.14	63.19
598.30	39.79
598.46	2.34
598.61	18.72
598.77	42.13
598.93	84.26
599.09	79.58
599.24	49.15
599.40	28.09
599.56	14.04
599.71	49.15
599.87	63.19
600.03	4.68
600.18	28.09
600.34	46.81
600.50	0.00
600.65	44.47
600.81	0.00
600.97	74.90
601.12	25.75
601.28	28.09
601.44	32.77
601.59	25.75
601.75	77.24
601.91	100.64
602.06	95.96
602.22	16.38
602.37	18.72
602.53	32.77
602.69	58.51
602.84	147.45
603.00	117.03
603.16	93.62
603.31	67.88
603.47	46.81
603.62	49.15
603.78	42.13
603.94	25.75
604.09	0.00
604.25	0.00
604.40	121.71
604.56	0.00
604.71	32.77
604.87	35.11
605.03	0.00
605.18	72.56
605.34	77.24
605.49	14.04
605.65	53.83
605.80	7.02
605.96	70.22
606.12	65.54
606.27	56.17
606.43	9.36
606.58	7.02
606.74	67.88
606.89	205.97
607.05	243.42
607.20	348.74
607.36	327.68
607.51	161.50
607.67	145.11
607.82	93.62
607.98	102.98
608.13	100.64
608.29	79.58
608.44	74.90
608.60	25.75
608.75	32.77
608.91	149.79
609.06	198.95
609.22	503.22
609.37	592.16
609.53	468.11
609.68	435.34
609.84	346.40
609.99	156.82
610.15	88.94
610.30	72.56
610.46	138.09
610.61	35.11
610.76	60.85
610.92	51.49
611.07	56.17
611.23	98.30
611.38	46.81
611.54	105.32
611.69	81.92
611.84	16.38
612.00	0.00
612.15	95.96
612.31	77.24
612.46	140.43
612.62	28.09
612.77	39.79
612.92	74.90
613.08	119.37
613.23	79.58
613.39	72.56
613.54	63.19
613.69	297.25
613.85	526.62
614.00	816.85
614.15	945.58
614.31	603.86
614.46	465.77
614.62	276.18
614.77	196.60
614.92	149.79
615.08	56.17
615.23	9.36
615.38	100.64
615.54	81.92
615.69	93.62
615.84	168.52
616.00	250.44
616.15	245.76
616.30	290.23
616.46	177.88
616.61	135.75
616.76	133.41
616.92	67.88
617.07	32.77
617.22	28.09
617.37	16.38
617.53	37.45
617.68	32.77
617.83	49.15
617.99	72.56
618.14	0.00
618.29	14.04
618.45	72.56
618.60	58.51
618.75	67.88
618.90	58.51
619.06	0.00
619.21	140.43
619.36	18.72
619.51	102.98
619.67	74.90
619.82	79.58
619.97	65.54
620.12	7.02
620.28	0.00
620.43	140.43
620.58	16.38
620.73	30.43
620.89	42.13
621.04	91.28
621.19	145.11
621.34	147.45
621.49	234.05
621.65	121.71
621.80	140.43
621.95	23.41
622.10	72.56
622.25	79.58
622.41	37.45
622.56	23.41
622.71	0.00
622.86	2.34
623.01	42.13
623.16	9.36
623.32	105.32
623.47	53.83
623.62	18.72
623.77	44.47
623.92	2.34
624.07	9.36
624.23	18.72
624.38	0.00
624.53	42.13
624.68	35.11
624.83	72.56
624.98	70.22
625.13	42.13
625.29	0.00
625.44	91.28
625.59	93.62
625.74	49.15
625.89	88.94
626.04	114.69
626.19	320.65
626.34	496.19
626.49	554.71
626.65	435.34
626.80	339.38
626.95	227.03
627.10	67.88
627.25	37.45
627.40	91.28
627.55	39.79
627.70	0.00
627.85	2.34
628.00	32.77
628.15	37.45
628.30	18.72
628.45	46.81
628.60	0.00
628.76	42.13
628.91	86.60
629.06	56.17
629.21	9.36
629.36	70.22
629.51	0.00
629.66	0.00
629.81	0.00
629.96	60.85
630.11	98.30
630.26	149.79
630.41	74.90
630.56	168.52
630.71	42.13
630.86	72.56
631.01	95.96
631.16	25.75
631.31	0.00
631.46	49.15
631.61	79.58
631.76	81.92
631.91	58.51
632.06	0.00
632.21	84.26
632.36	98.30
632.51	58.51
632.66	23.41
632.81	63.19
632.96	175.54
633.10	287.89
633.25	400.23
633.40	269.16
633.55	203.63
633.70	142.77
633.85	74.90
634.00	114.69
634.15	74.90
634.30	58.51
634.45	49.15
634.60	35.11
634.75	25.75
634.90	53.83
635.05	51.49
635.19	86.60
635.34	72.56
635.49	4.68
635.64	60.85
635.79	30.43
635.94	56.17
636.09	65.54
636.24	56.17
636.39	39.79
636.53	49.15
636.68	18.72
636.83	21.06
636.98	65.54
637.13	0.00
637.28	77.24
637.43	81.92
637.57	58.51
637.72	252.78
637.87	416.62
638.02	561.73
638.17	624.92
638.32	449.38
638.46	327.68
638.61	229.37
638.76	191.92
638.91	152.13
639.06	117.03
639.20	35.11
639.35	58.51
639.50	88.94
639.65	161.50
639.80	573.43
639.94	887.06
640.09	952.60
640.24	697.48
640.39	491.51
640.54	271.50
640.68	252.78
640.83	147.45
640.98	42.13
641.13	84.26
641.27	88.94
641.42	25.75
641.57	44.47
641.72	35.11
641.86	42.13
642.01	56.17
642.16	0.00
642.31	67.88
642.45	2.34
642.60	37.45
642.75	0.00
642.90	110.01
643.04	70.22
643.19	65.54
643.34	28.09
643.48	93.62
643.63	0.00
643.78	7.02
643.93	60.85
644.07	79.58
644.22	0.00
644.37	58.51
644.51	93.62
644.66	81.92
644.81	37.45
644.95	49.15
645.10	28.09
645.25	72.56
645.39	51.49
645.54	49.15
645.69	84.26
645.83	0.00
645.98	53.83
646.13	53.83
646.27	86.60
646.42	32.77
646.57	51.49
646.71	42.13
646.86	42.13
647.00	2.34
647.15	77.24
647.30	35.11
647.44	56.17
647.59	51.49
647.74	32.77
647.88	0.00
648.03	0.00
648.17	0.00
648.32	37.45
648.47	28.09
648.61	0.00
648.76	23.41
648.90	21.06
649.05	18.72
649.20	35.11
649.34	9.36
649.49	37.45
649.63	23.41
649.78	107.66
649.92	126.39
650.07	49.15
650.21	292.57
650.36	451.72
650.51	479.81
650.65	559.39
650.80	292.57
650.94	229.37
651.09	217.67
651.23	140.43
651.38	102.98
651.52	98.30
651.67	74.90
651.81	117.03
651.96	11.70
652.10	0.00
652.25	51.49
652.39	74.90
652.54	42.13
652.68	107.66
652.83	138.09
652.97	234.05
653.12	177.88
653.26	236.39
653.41	180.22
653.55	91.28
653.70	126.39
653.84	70.22
653.99	30.43
654.13	0.00
654.27	39.79
654.42	21.06
654.56	30.43
654.71	91.28
654.85	4.68
655.00	0.00
655.14	0.00
655.29	102.98
655.43	0.00
655.57	44.47
655.72	23.41
655.86	74.90
656.01	0.00
656.15	11.70
656.30	25.75
656.44	0.00
656.58	77.24
656.73	88.94
656.87	21.06
657.01	58.51
657.16	70.22
657.30	23.41
657.45	84.26
657.59	77.24
657.73	23.41
657.88	58.51
658.02	0.00
658.16	56.17
658.31	25.75
658.45	0.00
658.60	39.79
658.74	23.41
658.88	23.41
659.03	30.43
659.17	39.79
659.31	49.15
659.46	224.69
659.60	224.69
659.74	234.05
659.89	301.93
660.03	184.90
660.17	135.75
660.32	63.19
660.46	124.05
660.60	93.62
660.74	81.92
660.89	91.28
661.03	0.00
661.17	21.06
661.32	88.94
661.46	2.34
661.60	23.41
661.74	84.26
661.89	14.04
662.03	23.41
662.17	0.00
662.31	51.49
662.46	74.90
662.60	11.70
662.74	28.09
662.88	30.43
663.03	14.04
663.17	28.09
663.31	84.26
663.45	32.77
663.60	0.00
663.74	14.04
663.88	67.88
664.02	42.13
664.17	0.00
664.31	56.17
664.45	84.26
664.59	53.83
664.73	7.02
664.88	56.17
665.02	32.77
665.16	0.00
665.30	44.47
665.44	51.49
665.59	0.00
665.73	67.88
665.87	65.54
666.01	0.00
666.15	28.09
666.29	0.00
666.44	35.11
666.58	72.56
666.72	30.43
666.86	42.13
667.00	0.00
667.14	79.58
667.28	100.64
667.43	248.10
667.57	346.40
667.71	489.17
667.85	400.23
667.99	344.06
668.13	175.54
668.27	77.24
668.41	81.92
668.56	131.07
668.70	131.07
668.84	16.38
668.98	37.45
669.12	30.43
669.26	9.36
669.40	86.60
669.54	0.00
669.68	21.06
669.82	35.11
669.96	58.51
670.10	0.00
670.25	35.11
670.39	23.41
670.53	77.24
670.67	67.88
670.81	119.37
670.95	131.07
671.09	23.41
671.23	152.13
671.37	208.31
671.51	259.80
671.65	358.10
671.79	234.05
671.93	220.01
672.07	147.45
672.21	7.02
672.35	88.94
672.49	23.41
672.63	0.00
672.77	0.00
672.91	91.28
673.05	9.36
673.19	9.36
673.33	9.36
673.47	58.51
673.61	51.49
673.75	112.35
673.89	44.47
674.03	72.56
674.17	28.09
674.31	35.11
674.45	53.83
674.59	16.38
674.73	51.49
674.87	86.60
675.01	112.35
675.15	126.39
675.29	0.00
675.43	46.81
675.56	65.54
675.70	114.69
675.84	88.94
675.98	58.51
676.12	124.05
676.26	37.45
676.40	131.07
676.54	25.75
676.68	72.56
676.82	30.43
676.96	39.79
677.10	51.49
677.23	65.54
677.37	98.30
677.51	86.60
677.65	0.00
677.79	23.41
677.93	53.83
678.07	18.72
678.21	23.41
678.34	46.81
678.48	0.00
678.62	14.04
678.76	0.00
678.90	98.30
679.04	42.13
679.18	42.13
679.31	53.83
679.45	4.68
679.59	2.34
679.73	14.04
679.87	0.00
680.00	35.11
680.14	35.11
680.28	74.90
680.42	4.68
680.56	28.09
680.70	79.58
680.83	23.41
680.97	23.41
681.11	18.72
681.25	0.00
681.39	63.19
681.52	0.00
681.66	126.39
681.80	81.92
681.94	11.70
682.07	56.17
682.21	105.32
682.35	32.77
682.49	128.73
682.62	39.79
682.76	14.04
682.90	7.02
683.04	0.00
683.17	63.19
683.31	0.00
683.45	32.77
683.59	21.06
683.72	21.06
683.86	30.43
684.00	42.13
684.13	58.51
684.27	88.94
684.41	28.09
684.55	35.11
684.68	81.92
684.82	23.41
684.96	0.00
685.09	21.06
685.23	30.43
685.37	16.38
685.50	32.77
685.64	37.45
685.78	110.01
685.91	79.58
686.05	0.00
686.19	35.11
686.32	28.09
686.46	30.43
686.60	49.15
686.73	0.00
686.87	4.68
687.01	37.45
687.14	72.56
687.28	16.38
687.42	53.83
687.55	30.43
687.69	81.92
687.82	46.81
687.96	0.00
688.10	51.49
688.23	46.81
688.37	60.85
688.50	60.85
688.64	30.43
688.78	72.56
688.91	0.00
689.05	56.17
689.18	37.45
689.32	35.11
689.46	63.19
689.59	30.43
689.73	0.00
689.86	0.00
690.00	16.38
690.13	28.09
690.27	2.34
690.41	63.19
690.54	81.92
690.68	56.17
690.81	67.88
690.95	60.85
691.08	58.51
691.22	63.19
691.35	58.51
691.49	18.72
691.62	98.30
691.76	0.00
691.89	23.41
692.03	81.92
692.16	0.00
692.30	95.96
692.43	53.83
692.57	142.77
692.70	163.84
692.84	147.45
692.97	145.11
693.11	154.48
693.24	107.66
693.38	79.58
693.51	32.77
693.65	51.49
693.78	37.45
693.92	67.88
694.05	60.85
694.19	0.00
694.32	51.49
694.45	18.72
694.59	0.00
694.72	60.85
694.86	11.70
694.99	18.72
695.13	0.00
695.26	67.88
695.39	16.38
695.53	77.24
695.66	77.24
695.80	37.45
695.93	81.92
696.07	37.45
696.20	65.54
696.33	30.43
696.47	53.83
696.60	63.19
696.73	58.51
696.87	23.41
697.00	16.38
697.14	37.45
697.27	37.45
697.40	88.94
697.54	14.04
697.67	0.00
697.80	84.26
697.94	51.49
698.07	51.49
698.21	0.00
698.34	0.00
698.47	0.00
698.61	0.00
698.74	46.81
698.87	0.00
699.01	39.79
699.14	84.26
699.27	65.54
699.40	77.24
699.54	79.58
699.67	4.68
699.80	98.30
699.94	14.04
700.07	0.00
700.20	74.90
700.34	72.56
700.47	0.00
700.60	0.00
700.73	0.00
700.87	53.83
701.00	21.06
701.13	49.15
701.26	56.17
701.40	110.01
701.53	67.88
701.66	110.01
701.79	77.24
701.93	88.94
702.06	63.19
702.19	67.88
702.32	30.43
702.46	16.38
702.59	32.77
702.72	65.54
702.85	140.43
702.99	259.80
703.12	353.42
703.25	341.72
703.38	351.08
703.51	294.91
703.65	161.50
703.78	154.48
703.91	173.20
704.04	86.60
704.17	93.62
704.31	58.51
704.44	23.41
704.57	51.49
704.70	39.79
704.83	65.54
704.96	9.36
705.10	81.92
705.23	0.00
>>>>>End Processed Spectral Data<<<<<
