SpectraSuite Data File
++++++++++++++++++++++++++++++++++++
Date: Fri Oct 04 12:13:43 GMT-05:00 2013
User: price-jones
Dark Spectrum Present: No
Reference Spectrum Present: No
Number of Sampled Component Spectra: 1
Spectrometers: USB2+H05261
Integration Time (usec): 10000 (USB2+H05261)
Spectra Averaged: 1 (USB2+H05261)
Boxcar Smoothing: 0 (USB2+H05261)
Correct for Electrical Dark: No (USB2+H05261)
Strobe/Lamp Enabled: No (USB2+H05261)
Correct for Detector Non-linearity: No (USB2+H05261)
Correct for Stray Light: No (USB2+H05261)
Number of Pixels in Processed Spectrum: 2048
>>>>>Begin Processed Spectral Data<<<<<
365.73	9.36
365.92	9.36
366.12	9.36
366.32	0.00
366.52	0.00
366.72	0.00
366.91	0.00
367.11	0.00
367.31	0.00
367.51	0.00
367.70	0.00
367.90	0.00
368.10	0.00
368.30	0.00
368.49	0.00
368.69	0.00
368.89	0.00
369.09	0.00
369.28	0.00
369.48	0.00
369.68	0.00
369.87	0.00
370.07	0.00
370.27	0.00
370.47	0.00
370.66	0.00
370.86	0.00
371.06	0.00
371.25	0.00
371.45	0.00
371.65	0.00
371.84	0.00
372.04	0.00
372.24	0.00
372.44	4.68
372.63	28.09
372.83	37.45
373.03	56.17
373.22	58.51
373.42	25.75
373.62	44.47
373.81	39.79
374.01	0.00
374.21	0.00
374.40	0.00
374.60	88.94
374.79	67.88
374.99	67.88
375.19	0.00
375.38	56.17
375.58	11.70
375.78	72.56
375.97	0.00
376.17	0.00
376.37	14.04
376.56	102.98
376.76	0.00
376.95	30.43
377.15	58.51
377.35	32.77
377.54	37.45
377.74	0.00
377.93	39.79
378.13	7.02
378.33	58.51
378.52	18.72
378.72	81.92
378.91	42.13
379.11	14.04
379.31	18.72
379.50	95.96
379.70	88.94
379.89	32.77
380.09	46.81
380.28	25.75
380.48	44.47
380.68	86.60
380.87	0.00
381.07	14.04
381.26	37.45
381.46	18.72
381.65	53.83
381.85	0.00
382.04	37.45
382.24	32.77
382.43	0.00
382.63	25.75
382.83	11.70
383.02	11.70
383.22	79.58
383.41	25.75
383.61	58.51
383.80	60.85
384.00	28.09
384.19	0.00
384.39	0.00
384.58	0.00
384.78	60.85
384.97	0.00
385.17	51.49
385.36	77.24
385.56	30.43
385.75	0.00
385.95	23.41
386.14	81.92
386.34	30.43
386.53	0.00
386.72	30.43
386.92	70.22
387.11	44.47
387.31	0.00
387.50	72.56
387.70	72.56
387.89	2.34
388.09	0.00
388.28	37.45
388.48	11.70
388.67	2.34
388.86	53.83
389.06	4.68
389.25	9.36
389.45	14.04
389.64	4.68
389.84	0.00
390.03	0.00
390.22	14.04
390.42	25.75
390.61	35.11
390.81	21.06
391.00	21.06
391.19	53.83
391.39	21.06
391.58	35.11
391.78	93.62
391.97	14.04
392.16	37.45
392.36	0.00
392.55	18.72
392.75	46.81
392.94	53.83
393.13	77.24
393.33	4.68
393.52	0.00
393.71	35.11
393.91	2.34
394.10	0.00
394.29	65.54
394.49	0.00
394.68	0.00
394.88	25.75
395.07	51.49
395.26	60.85
395.46	46.81
395.65	4.68
395.84	21.06
396.04	39.79
396.23	25.75
396.42	23.41
396.62	14.04
396.81	72.56
397.00	46.81
397.19	56.17
397.39	39.79
397.58	30.43
397.77	0.00
397.97	49.15
398.16	2.34
398.35	35.11
398.55	135.75
398.74	88.94
398.93	93.62
399.12	18.72
399.32	35.11
399.51	58.51
399.70	70.22
399.90	16.38
400.09	37.45
400.28	0.00
400.47	44.47
400.67	18.72
400.86	0.00
401.05	25.75
401.24	0.00
401.44	56.17
401.63	35.11
401.82	32.77
402.01	28.09
402.21	56.17
402.40	51.49
402.59	28.09
402.78	56.17
402.97	28.09
403.17	53.83
403.36	25.75
403.55	16.38
403.74	32.77
403.93	67.88
404.13	42.13
404.32	0.00
404.51	0.00
404.70	0.00
404.89	7.02
405.09	0.00
405.28	0.00
405.47	0.00
405.66	9.36
405.85	46.81
406.05	0.00
406.24	9.36
406.43	9.36
406.62	9.36
406.81	30.43
407.00	30.43
407.20	46.81
407.39	9.36
407.58	0.00
407.77	0.00
407.96	0.00
408.15	105.32
408.34	84.26
408.54	60.85
408.73	0.00
408.92	0.00
409.11	58.51
409.30	51.49
409.49	0.00
409.68	28.09
409.87	98.30
410.07	0.00
410.26	9.36
410.45	9.36
410.64	16.38
410.83	44.47
411.02	0.00
411.21	37.45
411.40	39.79
411.59	72.56
411.78	88.94
411.98	65.54
412.17	77.24
412.36	18.72
412.55	58.51
412.74	88.94
412.93	56.17
413.12	35.11
413.31	51.49
413.50	18.72
413.69	42.13
413.88	0.00
414.07	7.02
414.26	0.00
414.45	0.00
414.64	0.00
414.83	77.24
415.02	60.85
415.22	11.70
415.41	77.24
415.60	9.36
415.79	39.79
415.98	49.15
416.17	98.30
416.36	35.11
416.55	67.88
416.74	21.06
416.93	14.04
417.12	0.00
417.31	51.49
417.50	0.00
417.69	30.43
417.88	35.11
418.07	21.06
418.26	0.00
418.45	58.51
418.64	28.09
418.83	25.75
419.02	2.34
419.21	42.13
419.39	9.36
419.58	4.68
419.77	49.15
419.96	4.68
420.15	23.41
420.34	16.38
420.53	37.45
420.72	7.02
420.91	18.72
421.10	42.13
421.29	88.94
421.48	49.15
421.67	46.81
421.86	11.70
422.05	7.02
422.24	88.94
422.43	23.41
422.61	58.51
422.80	0.00
422.99	67.88
423.18	37.45
423.37	81.92
423.56	42.13
423.75	0.00
423.94	30.43
424.13	51.49
424.32	0.00
424.50	63.19
424.69	18.72
424.88	49.15
425.07	51.49
425.26	98.30
425.45	16.38
425.64	35.11
425.83	0.00
426.01	32.77
426.20	11.70
426.39	88.94
426.58	114.69
426.77	46.81
426.96	0.00
427.15	49.15
427.33	44.47
427.52	0.00
427.71	11.70
427.90	79.58
428.09	0.00
428.28	32.77
428.46	30.43
428.65	9.36
428.84	53.83
429.03	56.17
429.22	11.70
429.40	35.11
429.59	133.41
429.78	23.41
429.97	42.13
430.16	0.00
430.34	18.72
430.53	0.00
430.72	81.92
430.91	63.19
431.10	18.72
431.28	81.92
431.47	49.15
431.66	58.51
431.85	39.79
432.03	30.43
432.22	25.75
432.41	18.72
432.60	93.62
432.79	23.41
432.97	93.62
433.16	70.22
433.35	4.68
433.54	25.75
433.72	49.15
433.91	16.38
434.10	39.79
434.28	84.26
434.47	39.79
434.66	81.92
434.85	72.56
435.03	21.06
435.22	56.17
435.41	112.35
435.59	0.00
435.78	49.15
435.97	95.96
436.16	21.06
436.34	35.11
436.53	46.81
436.72	0.00
436.90	46.81
437.09	16.38
437.28	11.70
437.46	23.41
437.65	0.00
437.84	23.41
438.02	51.49
438.21	53.83
438.40	105.32
438.58	23.41
438.77	39.79
438.96	72.56
439.14	11.70
439.33	0.00
439.52	0.00
439.70	0.00
439.89	74.90
440.08	0.00
440.26	11.70
440.45	77.24
440.63	0.00
440.82	4.68
441.01	0.00
441.19	88.94
441.38	95.96
441.57	70.22
441.75	0.00
441.94	4.68
442.12	4.68
442.31	30.43
442.50	0.00
442.68	39.79
442.87	86.60
443.05	25.75
443.24	105.32
443.43	100.64
443.61	21.06
443.80	51.49
443.98	88.94
444.17	4.68
444.35	23.41
444.54	70.22
444.73	32.77
444.91	105.32
445.10	23.41
445.28	0.00
445.47	102.98
445.65	105.32
445.84	9.36
446.02	65.54
446.21	28.09
446.39	53.83
446.58	67.88
446.77	16.38
446.95	63.19
447.14	14.04
447.32	14.04
447.51	0.00
447.69	14.04
447.88	60.85
448.06	30.43
448.25	63.19
448.43	0.00
448.62	0.00
448.80	18.72
448.99	37.45
449.17	28.09
449.36	72.56
449.54	21.06
449.73	58.51
449.91	100.64
450.10	93.62
450.28	2.34
450.46	42.13
450.65	0.00
450.83	7.02
451.02	65.54
451.20	56.17
451.39	37.45
451.57	9.36
451.76	7.02
451.94	65.54
452.13	63.19
452.31	4.68
452.49	46.81
452.68	79.58
452.86	60.85
453.05	84.26
453.23	21.06
453.42	9.36
453.60	23.41
453.78	30.43
453.97	42.13
454.15	21.06
454.34	37.45
454.52	86.60
454.70	14.04
454.89	23.41
455.07	58.51
455.26	79.58
455.44	30.43
455.62	11.70
455.81	49.15
455.99	44.47
456.17	32.77
456.36	65.54
456.54	18.72
456.73	79.58
456.91	32.77
457.09	128.73
457.28	30.43
457.46	25.75
457.64	18.72
457.83	67.88
458.01	0.00
458.19	88.94
458.38	60.85
458.56	0.00
458.74	39.79
458.93	51.49
459.11	46.81
459.29	79.58
459.48	67.88
459.66	18.72
459.84	18.72
460.03	81.92
460.21	70.22
460.39	49.15
460.57	32.77
460.76	46.81
460.94	25.75
461.12	18.72
461.31	25.75
461.49	39.79
461.67	46.81
461.85	100.64
462.04	98.30
462.22	152.13
462.40	81.92
462.59	7.02
462.77	37.45
462.95	14.04
463.13	0.00
463.32	18.72
463.50	46.81
463.68	53.83
463.86	39.79
464.05	25.75
464.23	49.15
464.41	23.41
464.59	133.41
464.78	16.38
464.96	77.24
465.14	58.51
465.32	98.30
465.50	81.92
465.69	37.45
465.87	0.00
466.05	30.43
466.23	58.51
466.41	53.83
466.60	21.06
466.78	35.11
466.96	23.41
467.14	9.36
467.32	32.77
467.51	42.13
467.69	98.30
467.87	70.22
468.05	60.85
468.23	23.41
468.41	81.92
468.60	63.19
468.78	18.72
468.96	9.36
469.14	4.68
469.32	60.85
469.50	56.17
469.69	67.88
469.87	16.38
470.05	84.26
470.23	21.06
470.41	35.11
470.59	0.00
470.77	133.41
470.95	121.71
471.14	39.79
471.32	7.02
471.50	72.56
471.68	14.04
471.86	28.09
472.04	35.11
472.22	95.96
472.40	49.15
472.58	23.41
472.77	72.56
472.95	63.19
473.13	70.22
473.31	72.56
473.49	18.72
473.67	4.68
473.85	44.47
474.03	81.92
474.21	65.54
474.39	74.90
474.57	49.15
474.75	14.04
474.93	0.00
475.12	0.00
475.30	51.49
475.48	63.19
475.66	102.98
475.84	131.07
476.02	60.85
476.20	11.70
476.38	2.34
476.56	16.38
476.74	51.49
476.92	23.41
477.10	0.00
477.28	72.56
477.46	0.00
477.64	53.83
477.82	53.83
478.00	65.54
478.18	30.43
478.36	79.58
478.54	0.00
478.72	30.43
478.90	18.72
479.08	32.77
479.26	105.32
479.44	25.75
479.62	0.00
479.80	70.22
479.98	49.15
480.16	49.15
480.34	39.79
480.52	39.79
480.70	7.02
480.88	95.96
481.06	0.00
481.24	0.00
481.41	2.34
481.59	23.41
481.77	21.06
481.95	28.09
482.13	42.13
482.31	72.56
482.49	51.49
482.67	18.72
482.85	133.41
483.03	74.90
483.21	0.00
483.39	88.94
483.57	60.85
483.74	18.72
483.92	84.26
484.10	51.49
484.28	49.15
484.46	16.38
484.64	100.64
484.82	56.17
485.00	14.04
485.18	21.06
485.35	65.54
485.53	39.79
485.71	18.72
485.89	37.45
486.07	119.37
486.25	95.96
486.43	21.06
486.61	25.75
486.78	0.00
486.96	14.04
487.14	77.24
487.32	110.01
487.50	30.43
487.68	74.90
487.85	0.00
488.03	58.51
488.21	65.54
488.39	58.51
488.57	100.64
488.75	23.41
488.92	14.04
489.10	39.79
489.28	51.49
489.46	42.13
489.64	0.00
489.81	53.83
489.99	49.15
490.17	25.75
490.35	72.56
490.53	39.79
490.70	114.69
490.88	35.11
491.06	4.68
491.24	21.06
491.41	152.13
491.59	56.17
491.77	46.81
491.95	72.56
492.13	79.58
492.30	11.70
492.48	114.69
492.66	110.01
492.84	42.13
493.01	46.81
493.19	44.47
493.37	63.19
493.54	88.94
493.72	77.24
493.90	51.49
494.08	102.98
494.25	9.36
494.43	21.06
494.61	42.13
494.79	46.81
494.96	0.00
495.14	0.00
495.32	102.98
495.49	86.60
495.67	39.79
495.85	77.24
496.02	35.11
496.20	4.68
496.38	79.58
496.55	37.45
496.73	4.68
496.91	0.00
497.09	100.64
497.26	11.70
497.44	18.72
497.62	49.15
497.79	25.75
497.97	0.00
498.14	65.54
498.32	105.32
498.50	21.06
498.67	93.62
498.85	32.77
499.03	0.00
499.20	114.69
499.38	79.58
499.56	14.04
499.73	74.90
499.91	65.54
500.08	42.13
500.26	102.98
500.44	25.75
500.61	93.62
500.79	30.43
500.97	119.37
501.14	70.22
501.32	133.41
501.49	93.62
501.67	51.49
501.84	42.13
502.02	16.38
502.20	39.79
502.37	70.22
502.55	14.04
502.72	112.35
502.90	25.75
503.07	0.00
503.25	84.26
503.43	51.49
503.60	107.66
503.78	95.96
503.95	9.36
504.13	105.32
504.30	84.26
504.48	51.49
504.65	74.90
504.83	58.51
505.01	42.13
505.18	58.51
505.36	0.00
505.53	93.62
505.71	81.92
505.88	49.15
506.06	117.03
506.23	117.03
506.41	28.09
506.58	46.81
506.76	18.72
506.93	44.47
507.11	67.88
507.28	98.30
507.46	140.43
507.63	124.05
507.81	84.26
507.98	25.75
508.16	70.22
508.33	70.22
508.50	35.11
508.68	4.68
508.85	16.38
509.03	37.45
509.20	84.26
509.38	65.54
509.55	39.79
509.73	65.54
509.90	37.45
510.08	0.00
510.25	67.88
510.42	110.01
510.60	39.79
510.77	14.04
510.95	58.51
511.12	133.41
511.30	21.06
511.47	44.47
511.64	53.83
511.82	44.47
511.99	77.24
512.17	0.00
512.34	79.58
512.51	44.47
512.69	77.24
512.86	21.06
513.04	46.81
513.21	46.81
513.38	42.13
513.56	30.43
513.73	18.72
513.90	18.72
514.08	72.56
514.25	32.77
514.43	110.01
514.60	107.66
514.77	9.36
514.95	25.75
515.12	77.24
515.29	98.30
515.47	93.62
515.64	0.00
515.81	0.00
515.99	0.00
516.16	51.49
516.33	16.38
516.51	74.90
516.68	60.85
516.85	60.85
517.03	51.49
517.20	84.26
517.37	44.47
517.54	72.56
517.72	95.96
517.89	149.79
518.06	56.17
518.24	63.19
518.41	93.62
518.58	35.11
518.75	72.56
518.93	39.79
519.10	102.98
519.27	0.00
519.45	102.98
519.62	112.35
519.79	86.60
519.96	72.56
520.14	2.34
520.31	11.70
520.48	93.62
520.65	110.01
520.83	77.24
521.00	18.72
521.17	91.28
521.34	163.84
521.52	67.88
521.69	74.90
521.86	30.43
522.03	0.00
522.20	100.64
522.38	44.47
522.55	46.81
522.72	70.22
522.89	58.51
523.07	0.00
523.24	79.58
523.41	44.47
523.58	28.09
523.75	58.51
523.92	28.09
524.10	56.17
524.27	100.64
524.44	21.06
524.61	37.45
524.78	79.58
524.96	7.02
525.13	70.22
525.30	0.00
525.47	84.26
525.64	18.72
525.81	67.88
525.98	37.45
526.16	74.90
526.33	67.88
526.50	105.32
526.67	28.09
526.84	77.24
527.01	39.79
527.18	124.05
527.36	44.47
527.53	25.75
527.70	63.19
527.87	84.26
528.04	60.85
528.21	42.13
528.38	77.24
528.55	37.45
528.72	0.00
528.89	81.92
529.07	60.85
529.24	65.54
529.41	67.88
529.58	0.00
529.75	70.22
529.92	58.51
530.09	32.77
530.26	0.00
530.43	74.90
530.60	0.00
530.77	0.00
530.94	32.77
531.11	74.90
531.28	21.06
531.46	63.19
531.63	95.96
531.80	65.54
531.97	16.38
532.14	58.51
532.31	74.90
532.48	79.58
532.65	128.73
532.82	39.79
532.99	42.13
533.16	14.04
533.33	46.81
533.50	9.36
533.67	60.85
533.84	72.56
534.01	72.56
534.18	46.81
534.35	2.34
534.52	84.26
534.69	53.83
534.86	60.85
535.03	77.24
535.20	65.54
535.37	72.56
535.54	32.77
535.71	49.15
535.88	107.66
536.05	72.56
536.22	53.83
536.38	93.62
536.55	93.62
536.72	77.24
536.89	79.58
537.06	65.54
537.23	11.70
537.40	18.72
537.57	67.88
537.74	124.05
537.91	65.54
538.08	135.75
538.25	51.49
538.42	46.81
538.59	102.98
538.75	110.01
538.92	37.45
539.09	25.75
539.26	30.43
539.43	72.56
539.60	53.83
539.77	51.49
539.94	4.68
540.11	4.68
540.28	117.03
540.44	110.01
540.61	86.60
540.78	37.45
540.95	114.69
541.12	63.19
541.29	2.34
541.46	60.85
541.62	112.35
541.79	30.43
541.96	154.48
542.13	32.77
542.30	42.13
542.47	72.56
542.63	44.47
542.80	23.41
542.97	51.49
543.14	25.75
543.31	28.09
543.48	49.15
543.64	28.09
543.81	58.51
543.98	2.34
544.15	25.75
544.32	46.81
544.48	65.54
544.65	0.00
544.82	16.38
544.99	49.15
545.16	67.88
545.32	56.17
545.49	21.06
545.66	84.26
545.83	44.47
546.00	51.49
546.16	44.47
546.33	110.01
546.50	107.66
546.67	121.71
546.83	9.36
547.00	60.85
547.17	21.06
547.34	51.49
547.50	37.45
547.67	79.58
547.84	65.54
548.00	9.36
548.17	0.00
548.34	74.90
548.51	14.04
548.67	81.92
548.84	110.01
549.01	51.49
549.18	51.49
549.34	46.81
549.51	105.32
549.68	11.70
549.84	53.83
550.01	128.73
550.18	145.11
550.34	0.00
550.51	86.60
550.68	60.85
550.84	77.24
551.01	0.00
551.18	28.09
551.34	11.70
551.51	49.15
551.68	0.00
551.84	131.07
552.01	58.51
552.18	60.85
552.34	112.35
552.51	70.22
552.68	63.19
552.84	84.26
553.01	138.09
553.18	44.47
553.34	32.77
553.51	30.43
553.67	28.09
553.84	84.26
554.01	21.06
554.17	2.34
554.34	58.51
554.51	79.58
554.67	131.07
554.84	25.75
555.00	110.01
555.17	93.62
555.33	42.13
555.50	100.64
555.67	79.58
555.83	102.98
556.00	74.90
556.16	49.15
556.33	44.47
556.50	86.60
556.66	95.96
556.83	23.41
556.99	51.49
557.16	58.51
557.32	21.06
557.49	79.58
557.65	107.66
557.82	121.71
557.98	0.00
558.15	25.75
558.32	49.15
558.48	21.06
558.65	105.32
558.81	0.00
558.98	74.90
559.14	7.02
559.31	79.58
559.47	67.88
559.64	32.77
559.80	35.11
559.97	42.13
560.13	86.60
560.30	60.85
560.46	53.83
560.63	35.11
560.79	25.75
560.96	49.15
561.12	7.02
561.29	49.15
561.45	81.92
561.61	37.45
561.78	49.15
561.94	51.49
562.11	18.72
562.27	46.81
562.44	30.43
562.60	58.51
562.77	37.45
562.93	79.58
563.10	98.30
563.26	18.72
563.42	84.26
563.59	88.94
563.75	49.15
563.92	35.11
564.08	81.92
564.24	49.15
564.41	32.77
564.57	39.79
564.74	25.75
564.90	0.00
565.07	88.94
565.23	42.13
565.39	126.39
565.56	0.00
565.72	0.00
565.88	105.32
566.05	21.06
566.21	107.66
566.38	21.06
566.54	0.00
566.70	18.72
566.87	60.85
567.03	25.75
567.19	18.72
567.36	28.09
567.52	91.28
567.68	14.04
567.85	91.28
568.01	7.02
568.17	0.00
568.34	32.77
568.50	142.77
568.66	0.00
568.83	51.49
568.99	72.56
569.15	28.09
569.32	0.00
569.48	0.00
569.64	0.00
569.81	37.45
569.97	63.19
570.13	119.37
570.30	0.00
570.46	0.00
570.62	0.00
570.78	28.09
570.95	95.96
571.11	100.64
571.27	67.88
571.43	105.32
571.60	70.22
571.76	46.81
571.92	0.00
572.09	44.47
572.25	28.09
572.41	70.22
572.57	81.92
572.74	77.24
572.90	88.94
573.06	88.94
573.22	14.04
573.38	0.00
573.55	35.11
573.71	95.96
573.87	58.51
574.03	32.77
574.20	112.35
574.36	42.13
574.52	65.54
574.68	28.09
574.84	44.47
575.01	58.51
575.17	11.70
575.33	70.22
575.49	11.70
575.65	86.60
575.82	63.19
575.98	51.49
576.14	4.68
576.30	42.13
576.46	9.36
576.62	100.64
576.79	23.41
576.95	72.56
577.11	44.47
577.27	14.04
577.43	0.00
577.59	86.60
577.75	35.11
577.92	91.28
578.08	21.06
578.24	58.51
578.40	63.19
578.56	39.79
578.72	67.88
578.88	0.00
579.04	44.47
579.21	14.04
579.37	46.81
579.53	7.02
579.69	44.47
579.85	11.70
580.01	102.98
580.17	81.92
580.33	91.28
580.49	37.45
580.65	37.45
580.82	74.90
580.98	39.79
581.14	112.35
581.30	93.62
581.46	42.13
581.62	98.30
581.78	74.90
581.94	72.56
582.10	44.47
582.26	112.35
582.42	124.05
582.58	28.09
582.74	0.00
582.90	21.06
583.06	23.41
583.22	28.09
583.38	42.13
583.54	86.60
583.70	35.11
583.86	81.92
584.02	0.00
584.18	25.75
584.34	46.81
584.50	74.90
584.66	44.47
584.82	53.83
584.98	32.77
585.14	86.60
585.30	39.79
585.46	0.00
585.62	9.36
585.78	53.83
585.94	60.85
586.10	0.00
586.26	65.54
586.42	58.51
586.58	53.83
586.74	124.05
586.90	88.94
587.06	35.11
587.22	58.51
587.38	72.56
587.54	37.45
587.70	67.88
587.86	30.43
588.02	58.51
588.18	35.11
588.34	58.51
588.49	35.11
588.65	65.54
588.81	28.09
588.97	86.60
589.13	112.35
589.29	79.58
589.45	56.17
589.61	53.83
589.77	49.15
589.93	11.70
590.08	86.60
590.24	58.51
590.40	53.83
590.56	0.00
590.72	32.77
590.88	23.41
591.04	23.41
591.20	9.36
591.35	32.77
591.51	72.56
591.67	102.98
591.83	65.54
591.99	67.88
592.15	79.58
592.31	21.06
592.46	74.90
592.62	86.60
592.78	67.88
592.94	67.88
593.10	51.49
593.26	81.92
593.41	42.13
593.57	0.00
593.73	0.00
593.89	67.88
594.05	53.83
594.20	18.72
594.36	72.56
594.52	105.32
594.68	42.13
594.84	44.47
594.99	56.17
595.15	30.43
595.31	46.81
595.47	37.45
595.62	4.68
595.78	60.85
595.94	25.75
596.10	18.72
596.25	67.88
596.41	11.70
596.57	49.15
596.73	81.92
596.88	39.79
597.04	16.38
597.20	18.72
597.36	0.00
597.51	23.41
597.67	86.60
597.83	88.94
597.99	46.81
598.14	84.26
598.30	91.28
598.46	0.00
598.61	74.90
598.77	0.00
598.93	46.81
599.09	91.28
599.24	32.77
599.40	46.81
599.56	126.39
599.71	81.92
599.87	49.15
600.03	28.09
600.18	95.96
600.34	112.35
600.50	23.41
600.65	79.58
600.81	23.41
600.97	81.92
601.12	0.00
601.28	7.02
601.44	105.32
601.59	9.36
601.75	0.00
601.91	74.90
602.06	81.92
602.22	23.41
602.37	42.13
602.53	11.70
602.69	70.22
602.84	93.62
603.00	95.96
603.16	39.79
603.31	81.92
603.47	9.36
603.62	60.85
603.78	77.24
603.94	7.02
604.09	39.79
604.25	88.94
604.40	49.15
604.56	0.00
604.71	51.49
604.87	46.81
605.03	4.68
605.18	2.34
605.34	46.81
605.49	0.00
605.65	42.13
605.80	65.54
605.96	37.45
606.12	67.88
606.27	21.06
606.43	30.43
606.58	37.45
606.74	21.06
606.89	37.45
607.05	81.92
607.20	42.13
607.36	18.72
607.51	65.54
607.67	35.11
607.82	30.43
607.98	51.49
608.13	81.92
608.29	0.00
608.44	7.02
608.60	37.45
608.75	2.34
608.91	37.45
609.06	100.64
609.22	60.85
609.37	7.02
609.53	0.00
609.68	30.43
609.84	42.13
609.99	63.19
610.15	37.45
610.30	81.92
610.46	159.16
610.61	0.00
610.76	32.77
610.92	2.34
611.07	70.22
611.23	70.22
611.38	117.03
611.54	37.45
611.69	107.66
611.84	18.72
612.00	44.47
612.15	30.43
612.31	105.32
612.46	7.02
612.62	14.04
612.77	86.60
612.92	60.85
613.08	60.85
613.23	56.17
613.39	49.15
613.54	63.19
613.69	79.58
613.85	39.79
614.00	117.03
614.15	79.58
614.31	51.49
614.46	126.39
614.62	49.15
614.77	0.00
614.92	79.58
615.08	4.68
615.23	39.79
615.38	65.54
615.54	84.26
615.69	46.81
615.84	84.26
616.00	28.09
616.15	42.13
616.30	28.09
616.46	44.47
616.61	11.70
616.76	7.02
616.92	65.54
617.07	105.32
617.22	30.43
617.37	100.64
617.53	9.36
617.68	95.96
617.83	37.45
617.99	25.75
618.14	93.62
618.29	46.81
618.45	37.45
618.60	16.38
618.75	9.36
618.90	81.92
619.06	18.72
619.21	60.85
619.36	32.77
619.51	72.56
619.67	37.45
619.82	30.43
619.97	44.47
620.12	28.09
620.28	0.00
620.43	46.81
620.58	0.00
620.73	0.00
620.89	53.83
621.04	63.19
621.19	14.04
621.34	60.85
621.49	30.43
621.65	102.98
621.80	81.92
621.95	0.00
622.10	21.06
622.25	95.96
622.41	49.15
622.56	0.00
622.71	65.54
622.86	0.00
623.01	30.43
623.16	32.77
623.32	21.06
623.47	25.75
623.62	86.60
623.77	18.72
623.92	72.56
624.07	0.00
624.23	0.00
624.38	14.04
624.53	21.06
624.68	119.37
624.83	0.00
624.98	70.22
625.13	86.60
625.29	74.90
625.44	2.34
625.59	63.19
625.74	49.15
625.89	4.68
626.04	70.22
626.19	30.43
626.34	25.75
626.49	63.19
626.65	4.68
626.80	51.49
626.95	60.85
627.10	81.92
627.25	35.11
627.40	60.85
627.55	23.41
627.70	95.96
627.85	11.70
628.00	42.13
628.15	18.72
628.30	53.83
628.45	70.22
628.60	53.83
628.76	23.41
628.91	49.15
629.06	56.17
629.21	9.36
629.36	0.00
629.51	0.00
629.66	60.85
629.81	11.70
629.96	91.28
630.11	77.24
630.26	23.41
630.41	37.45
630.56	30.43
630.71	35.11
630.86	0.00
631.01	0.00
631.16	18.72
631.31	2.34
631.46	142.77
631.61	16.38
631.76	0.00
631.91	16.38
632.06	0.00
632.21	81.92
632.36	72.56
632.51	37.45
632.66	23.41
632.81	2.34
632.96	126.39
633.10	126.39
633.25	37.45
633.40	32.77
633.55	84.26
633.70	70.22
633.85	53.83
634.00	70.22
634.15	86.60
634.30	14.04
634.45	0.00
634.60	0.00
634.75	0.00
634.90	138.09
635.05	88.94
635.19	21.06
635.34	46.81
635.49	39.79
635.64	0.00
635.79	49.15
635.94	58.51
636.09	63.19
636.24	42.13
636.39	51.49
636.53	0.00
636.68	42.13
636.83	74.90
636.98	14.04
637.13	32.77
637.28	88.94
637.43	65.54
637.57	37.45
637.72	53.83
637.87	32.77
638.02	0.00
638.17	11.70
638.32	74.90
638.46	35.11
638.61	56.17
638.76	25.75
638.91	32.77
639.06	7.02
639.20	63.19
639.35	0.00
639.50	44.47
639.65	42.13
639.80	65.54
639.94	0.00
640.09	56.17
640.24	35.11
640.39	23.41
640.54	53.83
640.68	0.00
640.83	51.49
640.98	37.45
641.13	32.77
641.27	110.01
641.42	0.00
641.57	67.88
641.72	39.79
641.86	39.79
642.01	4.68
642.16	2.34
642.31	79.58
642.45	7.02
642.60	44.47
642.75	11.70
642.90	18.72
643.04	9.36
643.19	42.13
643.34	42.13
643.48	37.45
643.63	9.36
643.78	28.09
643.93	9.36
644.07	53.83
644.22	51.49
644.37	25.75
644.51	0.00
644.66	18.72
644.81	46.81
644.95	30.43
645.10	46.81
645.25	58.51
645.39	0.00
645.54	25.75
645.69	14.04
645.83	0.00
645.98	65.54
646.13	42.13
646.27	21.06
646.42	79.58
646.57	14.04
646.71	86.60
646.86	18.72
647.00	70.22
647.15	42.13
647.30	0.00
647.44	102.98
647.59	67.88
647.74	18.72
647.88	0.00
648.03	0.00
648.17	51.49
648.32	18.72
648.47	14.04
648.61	0.00
648.76	37.45
648.90	21.06
649.05	95.96
649.20	124.05
649.34	77.24
649.49	0.00
649.63	14.04
649.78	46.81
649.92	100.64
650.07	133.41
650.21	60.85
650.36	37.45
650.51	42.13
650.65	110.01
650.80	0.00
650.94	37.45
651.09	74.90
651.23	30.43
651.38	28.09
651.52	51.49
651.67	72.56
651.81	51.49
651.96	7.02
652.10	0.00
652.25	81.92
652.39	126.39
652.54	49.15
652.68	117.03
652.83	37.45
652.97	0.00
653.12	7.02
653.26	0.00
653.41	18.72
653.55	105.32
653.70	49.15
653.84	0.00
653.99	9.36
654.13	0.00
654.27	30.43
654.42	0.00
654.56	46.81
654.71	14.04
654.85	0.00
655.00	67.88
655.14	37.45
655.29	65.54
655.43	0.00
655.57	16.38
655.72	0.00
655.86	100.64
656.01	74.90
656.15	102.98
656.30	9.36
656.44	60.85
656.58	0.00
656.73	35.11
656.87	28.09
657.01	65.54
657.16	11.70
657.30	74.90
657.45	46.81
657.59	56.17
657.73	0.00
657.88	30.43
658.02	35.11
658.16	37.45
658.31	86.60
658.45	70.22
658.60	42.13
658.74	51.49
658.88	46.81
659.03	56.17
659.17	58.51
659.31	21.06
659.46	100.64
659.60	56.17
659.74	7.02
659.89	0.00
660.03	0.00
660.17	37.45
660.32	0.00
660.46	14.04
660.60	21.06
660.74	63.19
660.89	23.41
661.03	91.28
661.17	44.47
661.32	32.77
661.46	93.62
661.60	32.77
661.74	42.13
661.89	51.49
662.03	7.02
662.17	49.15
662.31	93.62
662.46	72.56
662.60	14.04
662.74	49.15
662.88	70.22
663.03	30.43
663.17	0.00
663.31	30.43
663.45	65.54
663.60	77.24
663.74	32.77
663.88	0.00
664.02	0.00
664.17	93.62
664.31	0.00
664.45	46.81
664.59	74.90
664.73	35.11
664.88	107.66
665.02	0.00
665.16	7.02
665.30	0.00
665.44	0.00
665.59	42.13
665.73	56.17
665.87	56.17
666.01	7.02
666.15	88.94
666.29	11.70
666.44	0.00
666.58	35.11
666.72	53.83
666.86	46.81
667.00	32.77
667.14	63.19
667.28	39.79
667.43	0.00
667.57	51.49
667.71	11.70
667.85	0.00
667.99	67.88
668.13	58.51
668.27	86.60
668.41	72.56
668.56	23.41
668.70	65.54
668.84	0.00
668.98	0.00
669.12	0.00
669.26	58.51
669.40	4.68
669.54	56.17
669.68	28.09
669.82	53.83
669.96	81.92
670.10	49.15
670.25	37.45
670.39	0.00
670.53	4.68
670.67	70.22
670.81	0.00
670.95	105.32
671.09	65.54
671.23	39.79
671.37	28.09
671.51	98.30
671.65	95.96
671.79	0.00
671.93	23.41
672.07	7.02
672.21	32.77
672.35	2.34
672.49	42.13
672.63	98.30
672.77	7.02
672.91	81.92
673.05	112.35
673.19	51.49
673.33	16.38
673.47	46.81
673.61	53.83
673.75	11.70
673.89	81.92
674.03	30.43
674.17	0.00
674.31	11.70
674.45	39.79
674.59	42.13
674.73	65.54
674.87	0.00
675.01	65.54
675.15	7.02
675.29	39.79
675.43	0.00
675.56	102.98
675.70	25.75
675.84	42.13
675.98	2.34
676.12	84.26
676.26	56.17
676.40	81.92
676.54	2.34
676.68	18.72
676.82	18.72
676.96	44.47
677.10	74.90
677.23	86.60
677.37	46.81
677.51	42.13
677.65	0.00
677.79	0.00
677.93	93.62
678.07	58.51
678.21	16.38
678.34	44.47
678.48	25.75
678.62	88.94
678.76	0.00
678.90	28.09
679.04	0.00
679.18	9.36
679.31	53.83
679.45	72.56
679.59	56.17
679.73	18.72
679.87	0.00
680.00	39.79
680.14	0.00
680.28	46.81
680.42	16.38
680.56	18.72
680.70	65.54
680.83	35.11
680.97	0.00
681.11	91.28
681.25	49.15
681.39	32.77
681.52	67.88
681.66	63.19
681.80	28.09
681.94	44.47
682.07	32.77
682.21	0.00
682.35	46.81
682.49	28.09
682.62	39.79
682.76	72.56
682.90	58.51
683.04	25.75
683.17	91.28
683.31	44.47
683.45	49.15
683.59	53.83
683.72	0.00
683.86	21.06
684.00	42.13
684.13	67.88
684.27	119.37
684.41	0.00
684.55	32.77
684.68	42.13
684.82	135.75
684.96	21.06
685.09	23.41
685.23	49.15
685.37	46.81
685.50	11.70
685.64	63.19
685.78	16.38
685.91	23.41
686.05	7.02
686.19	74.90
686.32	0.00
686.46	44.47
686.60	0.00
686.73	86.60
686.87	11.70
687.01	0.00
687.14	0.00
687.28	7.02
687.42	25.75
687.55	56.17
687.69	63.19
687.82	14.04
687.96	25.75
688.10	0.00
688.23	39.79
688.37	51.49
688.50	67.88
688.64	100.64
688.78	32.77
688.91	77.24
689.05	32.77
689.18	32.77
689.32	79.58
689.46	56.17
689.59	30.43
689.73	0.00
689.86	0.00
690.00	0.00
690.13	70.22
690.27	32.77
690.41	37.45
690.54	95.96
690.68	35.11
690.81	30.43
690.95	53.83
691.08	51.49
691.22	0.00
691.35	39.79
691.49	0.00
691.62	16.38
691.76	91.28
691.89	4.68
692.03	39.79
692.16	23.41
692.30	58.51
692.43	0.00
692.57	9.36
692.70	4.68
692.84	0.00
692.97	16.38
693.11	4.68
693.24	14.04
693.38	37.45
693.51	23.41
693.65	30.43
693.78	21.06
693.92	42.13
694.05	23.41
694.19	16.38
694.32	91.28
694.45	35.11
694.59	23.41
694.72	0.00
694.86	65.54
694.99	88.94
695.13	0.00
695.26	0.00
695.39	58.51
695.53	7.02
695.66	32.77
695.80	7.02
695.93	0.00
696.07	0.00
696.20	0.00
696.33	58.51
696.47	56.17
696.60	16.38
696.73	63.19
696.87	0.00
697.00	58.51
697.14	42.13
697.27	11.70
697.40	86.60
697.54	58.51
697.67	39.79
697.80	53.83
697.94	58.51
698.07	30.43
698.21	67.88
698.34	0.00
698.47	11.70
698.61	4.68
698.74	46.81
698.87	70.22
699.01	28.09
699.14	14.04
699.27	0.00
699.40	49.15
699.54	0.00
699.67	9.36
699.80	0.00
699.94	28.09
700.07	72.56
700.20	35.11
700.34	28.09
700.47	88.94
700.60	0.00
700.73	70.22
700.87	21.06
701.00	49.15
701.13	0.00
701.26	42.13
701.40	32.77
701.53	65.54
701.66	18.72
701.79	7.02
701.93	18.72
702.06	56.17
702.19	0.00
702.32	0.00
702.46	39.79
702.59	32.77
702.72	0.00
702.85	0.00
702.99	51.49
703.12	14.04
703.25	0.00
703.38	0.00
703.51	32.77
703.65	21.06
703.78	7.02
703.91	49.15
704.04	32.77
704.17	84.26
704.31	88.94
704.44	35.11
704.57	0.00
704.70	51.49
704.83	81.92
704.96	23.41
705.10	9.36
705.23	30.43
>>>>>End Processed Spectral Data<<<<<
