SpectraSuite Data File
++++++++++++++++++++++++++++++++++++
Date: Fri Oct 04 12:13:33 GMT-05:00 2013
User: price-jones
Dark Spectrum Present: No
Reference Spectrum Present: No
Number of Sampled Component Spectra: 1
Spectrometers: USB2+H05261
Integration Time (usec): 10000 (USB2+H05261)
Spectra Averaged: 1 (USB2+H05261)
Boxcar Smoothing: 0 (USB2+H05261)
Correct for Electrical Dark: No (USB2+H05261)
Strobe/Lamp Enabled: No (USB2+H05261)
Correct for Detector Non-linearity: No (USB2+H05261)
Correct for Stray Light: No (USB2+H05261)
Number of Pixels in Processed Spectrum: 2048
>>>>>Begin Processed Spectral Data<<<<<
365.73	30.43
365.92	30.43
366.12	30.43
366.32	0.00
366.52	0.00
366.72	0.00
366.91	0.00
367.11	0.00
367.31	0.00
367.51	0.00
367.70	0.00
367.90	0.00
368.10	0.00
368.30	0.00
368.49	0.00
368.69	0.00
368.89	0.00
369.09	0.00
369.28	0.00
369.48	0.00
369.68	0.00
369.87	0.00
370.07	0.00
370.27	0.00
370.47	0.00
370.66	0.00
370.86	0.00
371.06	0.00
371.25	0.00
371.45	0.00
371.65	0.00
371.84	0.00
372.04	0.00
372.24	0.00
372.44	51.49
372.63	0.00
372.83	21.06
373.03	35.11
373.22	0.00
373.42	35.11
373.62	51.49
373.81	70.22
374.01	35.11
374.21	0.00
374.40	0.00
374.60	7.02
374.79	42.13
374.99	56.17
375.19	44.47
375.38	14.04
375.58	53.83
375.78	0.00
375.97	23.41
376.17	4.68
376.37	0.00
376.56	32.77
376.76	70.22
376.95	32.77
377.15	46.81
377.35	0.00
377.54	16.38
377.74	0.00
377.93	58.51
378.13	37.45
378.33	0.00
378.52	9.36
378.72	35.11
378.91	60.85
379.11	14.04
379.31	0.00
379.50	91.28
379.70	58.51
379.89	44.47
380.09	4.68
380.28	84.26
380.48	67.88
380.68	37.45
380.87	0.00
381.07	21.06
381.26	86.60
381.46	0.00
381.65	0.00
381.85	23.41
382.04	11.70
382.24	72.56
382.43	23.41
382.63	0.00
382.83	23.41
383.02	77.24
383.22	0.00
383.41	107.66
383.61	18.72
383.80	0.00
384.00	46.81
384.19	42.13
384.39	9.36
384.58	0.00
384.78	18.72
384.97	0.00
385.17	0.00
385.36	0.00
385.56	39.79
385.75	0.00
385.95	9.36
386.14	0.00
386.34	23.41
386.53	42.13
386.72	74.90
386.92	117.03
387.11	0.00
387.31	4.68
387.50	39.79
387.70	0.00
387.89	0.00
388.09	58.51
388.28	18.72
388.48	0.00
388.67	18.72
388.86	0.00
389.06	0.00
389.25	9.36
389.45	14.04
389.64	0.00
389.84	28.09
390.03	56.17
390.22	9.36
390.42	30.43
390.61	0.00
390.81	0.00
391.00	39.79
391.19	0.00
391.39	21.06
391.58	0.00
391.78	0.00
391.97	0.00
392.16	0.00
392.36	126.39
392.55	0.00
392.75	46.81
392.94	0.00
393.13	18.72
393.33	0.00
393.52	72.56
393.71	46.81
393.91	23.41
394.10	88.94
394.29	65.54
394.49	0.00
394.68	74.90
394.88	0.00
395.07	14.04
395.26	0.00
395.46	53.83
395.65	16.38
395.84	0.00
396.04	65.54
396.23	0.00
396.42	16.38
396.62	18.72
396.81	0.00
397.00	18.72
397.19	86.60
397.39	0.00
397.58	37.45
397.77	0.00
397.97	39.79
398.16	0.00
398.35	91.28
398.55	0.00
398.74	0.00
398.93	7.02
399.12	46.81
399.32	25.75
399.51	9.36
399.70	2.34
399.90	0.00
400.09	63.19
400.28	46.81
400.47	23.41
400.67	7.02
400.86	28.09
401.05	72.56
401.24	35.11
401.44	0.00
401.63	21.06
401.82	35.11
402.01	53.83
402.21	28.09
402.40	39.79
402.59	18.72
402.78	30.43
402.97	0.00
403.17	7.02
403.36	21.06
403.55	30.43
403.74	0.00
403.93	0.00
404.13	0.00
404.32	28.09
404.51	16.38
404.70	18.72
404.89	30.43
405.09	56.17
405.28	46.81
405.47	60.85
405.66	0.00
405.85	72.56
406.05	18.72
406.24	28.09
406.43	0.00
406.62	56.17
406.81	0.00
407.00	88.94
407.20	56.17
407.39	2.34
407.58	0.00
407.77	91.28
407.96	0.00
408.15	0.00
408.34	4.68
408.54	70.22
408.73	63.19
408.92	44.47
409.11	0.00
409.30	28.09
409.49	14.04
409.68	51.49
409.87	0.00
410.07	39.79
410.26	37.45
410.45	0.00
410.64	0.00
410.83	0.00
411.02	0.00
411.21	42.13
411.40	0.00
411.59	0.00
411.78	77.24
411.98	39.79
412.17	79.58
412.36	65.54
412.55	0.00
412.74	49.15
412.93	102.98
413.12	67.88
413.31	46.81
413.50	37.45
413.69	0.00
413.88	0.00
414.07	0.00
414.26	23.41
414.45	65.54
414.64	23.41
414.83	23.41
415.02	51.49
415.22	53.83
415.41	30.43
415.60	0.00
415.79	14.04
415.98	79.58
416.17	4.68
416.36	0.00
416.55	39.79
416.74	84.26
416.93	23.41
417.12	2.34
417.31	77.24
417.50	72.56
417.69	0.00
417.88	2.34
418.07	9.36
418.26	49.15
418.45	7.02
418.64	42.13
418.83	49.15
419.02	37.45
419.21	37.45
419.39	21.06
419.58	46.81
419.77	9.36
419.96	72.56
420.15	0.00
420.34	65.54
420.53	46.81
420.72	30.43
420.91	51.49
421.10	0.00
421.29	81.92
421.48	39.79
421.67	44.47
421.86	23.41
422.05	7.02
422.24	9.36
422.43	74.90
422.61	21.06
422.80	72.56
422.99	72.56
423.18	0.00
423.37	63.19
423.56	0.00
423.75	138.09
423.94	30.43
424.13	0.00
424.32	81.92
424.50	65.54
424.69	0.00
424.88	18.72
425.07	32.77
425.26	39.79
425.45	79.58
425.64	65.54
425.83	28.09
426.01	49.15
426.20	9.36
426.39	32.77
426.58	16.38
426.77	11.70
426.96	0.00
427.15	81.92
427.33	7.02
427.52	51.49
427.71	0.00
427.90	46.81
428.09	74.90
428.28	56.17
428.46	39.79
428.65	23.41
428.84	0.00
429.03	4.68
429.22	74.90
429.40	16.38
429.59	39.79
429.78	0.00
429.97	0.00
430.16	4.68
430.34	79.58
430.53	16.38
430.72	0.00
430.91	16.38
431.10	107.66
431.28	9.36
431.47	79.58
431.66	30.43
431.85	11.70
432.03	91.28
432.22	58.51
432.41	58.51
432.60	0.00
432.79	0.00
432.97	67.88
433.16	0.00
433.35	0.00
433.54	51.49
433.72	65.54
433.91	18.72
434.10	0.00
434.28	30.43
434.47	56.17
434.66	58.51
434.85	51.49
435.03	32.77
435.22	49.15
435.41	25.75
435.59	67.88
435.78	53.83
435.97	37.45
436.16	11.70
436.34	81.92
436.53	28.09
436.72	51.49
436.90	46.81
437.09	49.15
437.28	32.77
437.46	35.11
437.65	16.38
437.84	0.00
438.02	4.68
438.21	65.54
438.40	77.24
438.58	11.70
438.77	18.72
438.96	0.00
439.14	53.83
439.33	9.36
439.52	60.85
439.70	11.70
439.89	0.00
440.08	65.54
440.26	18.72
440.45	4.68
440.63	0.00
440.82	39.79
441.01	44.47
441.19	9.36
441.38	0.00
441.57	7.02
441.75	42.13
441.94	88.94
442.12	16.38
442.31	0.00
442.50	18.72
442.68	0.00
442.87	0.00
443.05	39.79
443.24	53.83
443.43	32.77
443.61	74.90
443.80	14.04
443.98	11.70
444.17	42.13
444.35	93.62
444.54	42.13
444.73	0.00
444.91	0.00
445.10	42.13
445.28	9.36
445.47	0.00
445.65	28.09
445.84	4.68
446.02	121.71
446.21	56.17
446.39	58.51
446.58	0.00
446.77	86.60
446.95	70.22
447.14	35.11
447.32	0.00
447.51	14.04
447.69	30.43
447.88	46.81
448.06	0.00
448.25	0.00
448.43	25.75
448.62	95.96
448.80	16.38
448.99	0.00
449.17	7.02
449.36	0.00
449.54	28.09
449.73	102.98
449.91	56.17
450.10	11.70
450.28	63.19
450.46	72.56
450.65	0.00
450.83	53.83
451.02	88.94
451.20	0.00
451.39	58.51
451.57	14.04
451.76	28.09
451.94	37.45
452.13	51.49
452.31	65.54
452.49	0.00
452.68	0.00
452.86	0.00
453.05	0.00
453.23	0.00
453.42	4.68
453.60	39.79
453.78	0.00
453.97	0.00
454.15	63.19
454.34	9.36
454.52	0.00
454.70	49.15
454.89	49.15
455.07	42.13
455.26	18.72
455.44	44.47
455.62	81.92
455.81	32.77
455.99	0.00
456.17	32.77
456.36	0.00
456.54	9.36
456.73	65.54
456.91	53.83
457.09	2.34
457.28	72.56
457.46	0.00
457.64	46.81
457.83	39.79
458.01	121.71
458.19	30.43
458.38	11.70
458.56	86.60
458.74	49.15
458.93	0.00
459.11	100.64
459.29	30.43
459.48	84.26
459.66	93.62
459.84	84.26
460.03	51.49
460.21	2.34
460.39	32.77
460.57	74.90
460.76	35.11
460.94	49.15
461.12	9.36
461.31	16.38
461.49	0.00
461.67	67.88
461.85	39.79
462.04	100.64
462.22	100.64
462.40	30.43
462.59	9.36
462.77	56.17
462.95	35.11
463.13	88.94
463.32	18.72
463.50	70.22
463.68	58.51
463.86	39.79
464.05	0.00
464.23	60.85
464.41	65.54
464.59	7.02
464.78	18.72
464.96	0.00
465.14	46.81
465.32	2.34
465.50	49.15
465.69	28.09
465.87	74.90
466.05	65.54
466.23	46.81
466.41	51.49
466.60	2.34
466.78	42.13
466.96	0.00
467.14	14.04
467.32	70.22
467.51	42.13
467.69	39.79
467.87	86.60
468.05	35.11
468.23	9.36
468.41	30.43
468.60	46.81
468.78	0.00
468.96	56.17
469.14	30.43
469.32	21.06
469.50	23.41
469.69	81.92
469.87	0.00
470.05	0.00
470.23	0.00
470.41	53.83
470.59	14.04
470.77	0.00
470.95	58.51
471.14	46.81
471.32	0.00
471.50	21.06
471.68	49.15
471.86	46.81
472.04	56.17
472.22	30.43
472.40	9.36
472.58	16.38
472.77	2.34
472.95	53.83
473.13	126.39
473.31	30.43
473.49	39.79
473.67	23.41
473.85	74.90
474.03	21.06
474.21	42.13
474.39	25.75
474.57	77.24
474.75	88.94
474.93	37.45
475.12	14.04
475.30	9.36
475.48	39.79
475.66	49.15
475.84	77.24
476.02	58.51
476.20	60.85
476.38	23.41
476.56	65.54
476.74	88.94
476.92	0.00
477.10	42.13
477.28	58.51
477.46	86.60
477.64	117.03
477.82	105.32
478.00	117.03
478.18	60.85
478.36	53.83
478.54	0.00
478.72	84.26
478.90	14.04
479.08	65.54
479.26	79.58
479.44	0.00
479.62	0.00
479.80	37.45
479.98	93.62
480.16	95.96
480.34	32.77
480.52	30.43
480.70	74.90
480.88	32.77
481.06	74.90
481.24	0.00
481.41	0.00
481.59	30.43
481.77	18.72
481.95	0.00
482.13	30.43
482.31	0.00
482.49	32.77
482.67	25.75
482.85	18.72
483.03	37.45
483.21	81.92
483.39	32.77
483.57	28.09
483.74	35.11
483.92	72.56
484.10	70.22
484.28	0.00
484.46	77.24
484.64	0.00
484.82	70.22
485.00	0.00
485.18	11.70
485.35	30.43
485.53	0.00
485.71	51.49
485.89	0.00
486.07	46.81
486.25	25.75
486.43	14.04
486.61	72.56
486.78	0.00
486.96	23.41
487.14	100.64
487.32	46.81
487.50	51.49
487.68	95.96
487.85	53.83
488.03	0.00
488.21	37.45
488.39	9.36
488.57	35.11
488.75	9.36
488.92	72.56
489.10	21.06
489.28	28.09
489.46	4.68
489.64	74.90
489.81	51.49
489.99	18.72
490.17	58.51
490.35	70.22
490.53	0.00
490.70	42.13
490.88	25.75
491.06	60.85
491.24	0.00
491.41	44.47
491.59	60.85
491.77	0.00
491.95	49.15
492.13	88.94
492.30	23.41
492.48	56.17
492.66	30.43
492.84	67.88
493.01	63.19
493.19	32.77
493.37	74.90
493.54	91.28
493.72	88.94
493.90	42.13
494.08	77.24
494.25	0.00
494.43	53.83
494.61	0.00
494.79	28.09
494.96	65.54
495.14	102.98
495.32	25.75
495.49	72.56
495.67	25.75
495.85	49.15
496.02	51.49
496.20	60.85
496.38	98.30
496.55	95.96
496.73	39.79
496.91	51.49
497.09	18.72
497.26	42.13
497.44	74.90
497.62	58.51
497.79	42.13
497.97	63.19
498.14	60.85
498.32	65.54
498.50	21.06
498.67	56.17
498.85	23.41
499.03	0.00
499.20	91.28
499.38	11.70
499.56	79.58
499.73	0.00
499.91	9.36
500.08	79.58
500.26	74.90
500.44	30.43
500.61	100.64
500.79	0.00
500.97	42.13
501.14	93.62
501.32	28.09
501.49	39.79
501.67	86.60
501.84	53.83
502.02	0.00
502.20	18.72
502.37	49.15
502.55	28.09
502.72	58.51
502.90	88.94
503.07	46.81
503.25	23.41
503.43	44.47
503.60	42.13
503.78	39.79
503.95	35.11
504.13	37.45
504.30	81.92
504.48	0.00
504.65	35.11
504.83	23.41
505.01	58.51
505.18	58.51
505.36	49.15
505.53	42.13
505.71	46.81
505.88	25.75
506.06	16.38
506.23	49.15
506.41	0.00
506.58	4.68
506.76	0.00
506.93	44.47
507.11	102.98
507.28	60.85
507.46	11.70
507.63	37.45
507.81	23.41
507.98	79.58
508.16	4.68
508.33	93.62
508.50	25.75
508.68	44.47
508.85	53.83
509.03	37.45
509.20	16.38
509.38	42.13
509.55	117.03
509.73	28.09
509.90	67.88
510.08	88.94
510.25	63.19
510.42	14.04
510.60	28.09
510.77	63.19
510.95	86.60
511.12	98.30
511.30	37.45
511.47	70.22
511.64	46.81
511.82	28.09
511.99	14.04
512.17	4.68
512.34	0.00
512.51	91.28
512.69	44.47
512.86	79.58
513.04	65.54
513.21	14.04
513.38	44.47
513.56	51.49
513.73	25.75
513.90	4.68
514.08	51.49
514.25	28.09
514.43	35.11
514.60	93.62
514.77	0.00
514.95	79.58
515.12	49.15
515.29	0.00
515.47	0.00
515.64	18.72
515.81	0.00
515.99	91.28
516.16	35.11
516.33	4.68
516.51	39.79
516.68	56.17
516.85	42.13
517.03	32.77
517.20	16.38
517.37	67.88
517.54	42.13
517.72	49.15
517.89	14.04
518.06	16.38
518.24	102.98
518.41	32.77
518.58	53.83
518.75	30.43
518.93	4.68
519.10	51.49
519.27	0.00
519.45	0.00
519.62	11.70
519.79	72.56
519.96	16.38
520.14	28.09
520.31	16.38
520.48	63.19
520.65	23.41
520.83	28.09
521.00	32.77
521.17	53.83
521.34	37.45
521.52	63.19
521.69	86.60
521.86	91.28
522.03	91.28
522.20	63.19
522.38	37.45
522.55	18.72
522.72	49.15
522.89	58.51
523.07	42.13
523.24	39.79
523.41	56.17
523.58	63.19
523.75	63.19
523.92	0.00
524.10	18.72
524.27	28.09
524.44	28.09
524.61	58.51
524.78	58.51
524.96	51.49
525.13	18.72
525.30	37.45
525.47	0.00
525.64	4.68
525.81	114.69
525.98	16.38
526.16	56.17
526.33	7.02
526.50	46.81
526.67	81.92
526.84	16.38
527.01	84.26
527.18	25.75
527.36	28.09
527.53	28.09
527.70	0.00
527.87	28.09
528.04	63.19
528.21	46.81
528.38	84.26
528.55	0.00
528.72	32.77
528.89	63.19
529.07	53.83
529.24	42.13
529.41	0.00
529.58	0.00
529.75	74.90
529.92	0.00
530.09	14.04
530.26	60.85
530.43	23.41
530.60	39.79
530.77	28.09
530.94	84.26
531.11	42.13
531.28	2.34
531.46	18.72
531.63	28.09
531.80	0.00
531.97	32.77
532.14	42.13
532.31	23.41
532.48	65.54
532.65	16.38
532.82	177.88
532.99	0.00
533.16	42.13
533.33	77.24
533.50	86.60
533.67	37.45
533.84	60.85
534.01	0.00
534.18	49.15
534.35	56.17
534.52	51.49
534.69	46.81
534.86	4.68
535.03	14.04
535.20	42.13
535.37	42.13
535.54	4.68
535.71	93.62
535.88	18.72
536.05	23.41
536.22	21.06
536.38	0.00
536.55	0.00
536.72	65.54
536.89	28.09
537.06	81.92
537.23	86.60
537.40	7.02
537.57	0.00
537.74	14.04
537.91	16.38
538.08	35.11
538.25	93.62
538.42	60.85
538.59	63.19
538.75	7.02
538.92	39.79
539.09	65.54
539.26	0.00
539.43	102.98
539.60	0.00
539.77	0.00
539.94	56.17
540.11	42.13
540.28	72.56
540.44	4.68
540.61	0.00
540.78	126.39
540.95	25.75
541.12	46.81
541.29	2.34
541.46	53.83
541.62	37.45
541.79	67.88
541.96	2.34
542.13	16.38
542.30	56.17
542.47	95.96
542.63	88.94
542.80	0.00
542.97	60.85
543.14	2.34
543.31	46.81
543.48	77.24
543.64	37.45
543.81	25.75
543.98	110.01
544.15	0.00
544.32	49.15
544.48	102.98
544.65	49.15
544.82	65.54
544.99	88.94
545.16	60.85
545.32	25.75
545.49	0.00
545.66	79.58
545.83	18.72
546.00	70.22
546.16	32.77
546.33	77.24
546.50	86.60
546.67	18.72
546.83	63.19
547.00	93.62
547.17	7.02
547.34	49.15
547.50	79.58
547.67	51.49
547.84	58.51
548.00	105.32
548.17	44.47
548.34	0.00
548.51	49.15
548.67	72.56
548.84	56.17
549.01	25.75
549.18	11.70
549.34	56.17
549.51	86.60
549.68	88.94
549.84	72.56
550.01	79.58
550.18	0.00
550.34	53.83
550.51	74.90
550.68	70.22
550.84	77.24
551.01	84.26
551.18	21.06
551.34	4.68
551.51	131.07
551.68	84.26
551.84	49.15
552.01	28.09
552.18	30.43
552.34	65.54
552.51	60.85
552.68	23.41
552.84	65.54
553.01	79.58
553.18	28.09
553.34	88.94
553.51	0.00
553.67	32.77
553.84	58.51
554.01	0.00
554.17	65.54
554.34	0.00
554.51	35.11
554.67	0.00
554.84	0.00
555.00	65.54
555.17	63.19
555.33	56.17
555.50	70.22
555.67	60.85
555.83	44.47
556.00	30.43
556.16	60.85
556.33	28.09
556.50	30.43
556.66	79.58
556.83	53.83
556.99	65.54
557.16	65.54
557.32	30.43
557.49	77.24
557.65	0.00
557.82	32.77
557.98	70.22
558.15	4.68
558.32	86.60
558.48	35.11
558.65	28.09
558.81	35.11
558.98	86.60
559.14	28.09
559.31	30.43
559.47	51.49
559.64	25.75
559.80	9.36
559.97	46.81
560.13	28.09
560.30	21.06
560.46	0.00
560.63	84.26
560.79	72.56
560.96	95.96
561.12	145.11
561.29	93.62
561.45	42.13
561.61	18.72
561.78	11.70
561.94	4.68
562.11	4.68
562.27	65.54
562.44	42.13
562.60	86.60
562.77	21.06
562.93	65.54
563.10	74.90
563.26	11.70
563.42	21.06
563.59	0.00
563.75	98.30
563.92	23.41
564.08	35.11
564.24	30.43
564.41	51.49
564.57	0.00
564.74	63.19
564.90	70.22
565.07	37.45
565.23	30.43
565.39	37.45
565.56	105.32
565.72	2.34
565.88	30.43
566.05	32.77
566.21	30.43
566.38	4.68
566.54	112.35
566.70	32.77
566.87	35.11
567.03	112.35
567.19	63.19
567.36	35.11
567.52	100.64
567.68	49.15
567.85	79.58
568.01	65.54
568.17	84.26
568.34	70.22
568.50	25.75
568.66	107.66
568.83	35.11
568.99	70.22
569.15	2.34
569.32	37.45
569.48	72.56
569.64	49.15
569.81	18.72
569.97	49.15
570.13	77.24
570.30	35.11
570.46	23.41
570.62	65.54
570.78	0.00
570.95	49.15
571.11	0.00
571.27	0.00
571.43	28.09
571.60	23.41
571.76	67.88
571.92	0.00
572.09	72.56
572.25	32.77
572.41	9.36
572.57	65.54
572.74	30.43
572.90	67.88
573.06	79.58
573.22	42.13
573.38	2.34
573.55	49.15
573.71	0.00
573.87	37.45
574.03	35.11
574.20	49.15
574.36	58.51
574.52	86.60
574.68	2.34
574.84	16.38
575.01	23.41
575.17	39.79
575.33	0.00
575.49	70.22
575.65	46.81
575.82	16.38
575.98	0.00
576.14	102.98
576.30	25.75
576.46	9.36
576.62	35.11
576.79	58.51
576.95	30.43
577.11	42.13
577.27	65.54
577.43	42.13
577.59	81.92
577.75	42.13
577.92	35.11
578.08	9.36
578.24	18.72
578.40	56.17
578.56	65.54
578.72	49.15
578.88	46.81
579.04	81.92
579.21	60.85
579.37	16.38
579.53	21.06
579.69	81.92
579.85	0.00
580.01	21.06
580.17	35.11
580.33	9.36
580.49	42.13
580.65	49.15
580.82	16.38
580.98	0.00
581.14	95.96
581.30	18.72
581.46	105.32
581.62	135.75
581.78	39.79
581.94	86.60
582.10	51.49
582.26	65.54
582.42	0.00
582.58	56.17
582.74	32.77
582.90	23.41
583.06	53.83
583.22	60.85
583.38	88.94
583.54	46.81
583.70	28.09
583.86	35.11
584.02	28.09
584.18	7.02
584.34	58.51
584.50	114.69
584.66	70.22
584.82	46.81
584.98	56.17
585.14	25.75
585.30	14.04
585.46	39.79
585.62	44.47
585.78	93.62
585.94	53.83
586.10	58.51
586.26	37.45
586.42	58.51
586.58	79.58
586.74	51.49
586.90	105.32
587.06	42.13
587.22	9.36
587.38	84.26
587.54	79.58
587.70	2.34
587.86	46.81
588.02	25.75
588.18	0.00
588.34	37.45
588.49	2.34
588.65	30.43
588.81	18.72
588.97	30.43
589.13	39.79
589.29	77.24
589.45	93.62
589.61	49.15
589.77	117.03
589.93	16.38
590.08	63.19
590.24	65.54
590.40	67.88
590.56	65.54
590.72	35.11
590.88	14.04
591.04	51.49
591.20	63.19
591.35	16.38
591.51	46.81
591.67	42.13
591.83	46.81
591.99	91.28
592.15	23.41
592.31	2.34
592.46	32.77
592.62	28.09
592.78	37.45
592.94	44.47
593.10	21.06
593.26	49.15
593.41	23.41
593.57	25.75
593.73	39.79
593.89	56.17
594.05	51.49
594.20	58.51
594.36	56.17
594.52	2.34
594.68	44.47
594.84	49.15
594.99	23.41
595.15	60.85
595.31	60.85
595.47	30.43
595.62	46.81
595.78	23.41
595.94	44.47
596.10	37.45
596.25	18.72
596.41	35.11
596.57	4.68
596.73	0.00
596.88	0.00
597.04	0.00
597.20	25.75
597.36	14.04
597.51	63.19
597.67	44.47
597.83	58.51
597.99	0.00
598.14	9.36
598.30	9.36
598.46	72.56
598.61	58.51
598.77	88.94
598.93	23.41
599.09	65.54
599.24	56.17
599.40	74.90
599.56	23.41
599.71	0.00
599.87	86.60
600.03	18.72
600.18	28.09
600.34	42.13
600.50	58.51
600.65	23.41
600.81	30.43
600.97	0.00
601.12	37.45
601.28	72.56
601.44	39.79
601.59	46.81
601.75	32.77
601.91	86.60
602.06	0.00
602.22	23.41
602.37	37.45
602.53	16.38
602.69	58.51
602.84	142.77
603.00	65.54
603.16	44.47
603.31	0.00
603.47	0.00
603.62	35.11
603.78	88.94
603.94	46.81
604.09	93.62
604.25	74.90
604.40	25.75
604.56	0.00
604.71	25.75
604.87	0.00
605.03	53.83
605.18	30.43
605.34	0.00
605.49	0.00
605.65	32.77
605.80	28.09
605.96	4.68
606.12	56.17
606.27	0.00
606.43	77.24
606.58	0.00
606.74	0.00
606.89	9.36
607.05	30.43
607.20	25.75
607.36	63.19
607.51	56.17
607.67	63.19
607.82	4.68
607.98	58.51
608.13	67.88
608.29	9.36
608.44	86.60
608.60	46.81
608.75	72.56
608.91	42.13
609.06	21.06
609.22	58.51
609.37	53.83
609.53	32.77
609.68	58.51
609.84	37.45
609.99	49.15
610.15	46.81
610.30	100.64
610.46	74.90
610.61	63.19
610.76	30.43
610.92	49.15
611.07	35.11
611.23	81.92
611.38	44.47
611.54	0.00
611.69	100.64
611.84	56.17
612.00	42.13
612.15	35.11
612.31	39.79
612.46	44.47
612.62	63.19
612.77	79.58
612.92	49.15
613.08	56.17
613.23	67.88
613.39	49.15
613.54	35.11
613.69	0.00
613.85	63.19
614.00	2.34
614.15	51.49
614.31	110.01
614.46	42.13
614.62	18.72
614.77	9.36
614.92	46.81
615.08	49.15
615.23	0.00
615.38	70.22
615.54	44.47
615.69	49.15
615.84	35.11
616.00	63.19
616.15	7.02
616.30	30.43
616.46	14.04
616.61	86.60
616.76	0.00
616.92	16.38
617.07	11.70
617.22	37.45
617.37	16.38
617.53	74.90
617.68	77.24
617.83	0.00
617.99	0.00
618.14	72.56
618.29	0.00
618.45	0.00
618.60	39.79
618.75	0.00
618.90	74.90
619.06	0.00
619.21	37.45
619.36	23.41
619.51	77.24
619.67	35.11
619.82	0.00
619.97	81.92
620.12	28.09
620.28	56.17
620.43	49.15
620.58	0.00
620.73	0.00
620.89	65.54
621.04	98.30
621.19	44.47
621.34	100.64
621.49	65.54
621.65	42.13
621.80	84.26
621.95	0.00
622.10	32.77
622.25	4.68
622.41	58.51
622.56	14.04
622.71	18.72
622.86	74.90
623.01	0.00
623.16	84.26
623.32	25.75
623.47	51.49
623.62	30.43
623.77	42.13
623.92	0.00
624.07	0.00
624.23	16.38
624.38	28.09
624.53	4.68
624.68	18.72
624.83	46.81
624.98	56.17
625.13	42.13
625.29	25.75
625.44	49.15
625.59	42.13
625.74	81.92
625.89	39.79
626.04	77.24
626.19	18.72
626.34	0.00
626.49	4.68
626.65	0.00
626.80	28.09
626.95	46.81
627.10	49.15
627.25	28.09
627.40	16.38
627.55	79.58
627.70	53.83
627.85	79.58
628.00	0.00
628.15	72.56
628.30	81.92
628.45	23.41
628.60	95.96
628.76	0.00
628.91	37.45
629.06	35.11
629.21	25.75
629.36	0.00
629.51	53.83
629.66	98.30
629.81	11.70
629.96	30.43
630.11	44.47
630.26	32.77
630.41	30.43
630.56	77.24
630.71	53.83
630.86	0.00
631.01	23.41
631.16	63.19
631.31	98.30
631.46	102.98
631.61	51.49
631.76	53.83
631.91	102.98
632.06	16.38
632.21	21.06
632.36	14.04
632.51	30.43
632.66	25.75
632.81	35.11
632.96	18.72
633.10	65.54
633.25	0.00
633.40	0.00
633.55	23.41
633.70	21.06
633.85	0.00
634.00	0.00
634.15	25.75
634.30	37.45
634.45	18.72
634.60	77.24
634.75	42.13
634.90	2.34
635.05	74.90
635.19	28.09
635.34	0.00
635.49	0.00
635.64	21.06
635.79	67.88
635.94	32.77
636.09	0.00
636.24	60.85
636.39	81.92
636.53	70.22
636.68	14.04
636.83	79.58
636.98	0.00
637.13	0.00
637.28	67.88
637.43	11.70
637.57	0.00
637.72	7.02
637.87	98.30
638.02	25.75
638.17	44.47
638.32	49.15
638.46	9.36
638.61	21.06
638.76	0.00
638.91	44.47
639.06	44.47
639.20	0.00
639.35	49.15
639.50	63.19
639.65	74.90
639.80	14.04
639.94	79.58
640.09	0.00
640.24	23.41
640.39	32.77
640.54	42.13
640.68	42.13
640.83	0.00
640.98	35.11
641.13	42.13
641.27	46.81
641.42	0.00
641.57	60.85
641.72	2.34
641.86	86.60
642.01	63.19
642.16	128.73
642.31	28.09
642.45	9.36
642.60	81.92
642.75	23.41
642.90	72.56
643.04	77.24
643.19	58.51
643.34	63.19
643.48	0.00
643.63	39.79
643.78	44.47
643.93	0.00
644.07	56.17
644.22	56.17
644.37	16.38
644.51	28.09
644.66	49.15
644.81	0.00
644.95	67.88
645.10	65.54
645.25	51.49
645.39	14.04
645.54	32.77
645.69	70.22
645.83	35.11
645.98	39.79
646.13	65.54
646.27	60.85
646.42	14.04
646.57	0.00
646.71	42.13
646.86	46.81
647.00	86.60
647.15	77.24
647.30	14.04
647.44	56.17
647.59	0.00
647.74	32.77
647.88	81.92
648.03	16.38
648.17	4.68
648.32	0.00
648.47	0.00
648.61	74.90
648.76	21.06
648.90	63.19
649.05	21.06
649.20	51.49
649.34	39.79
649.49	18.72
649.63	35.11
649.78	72.56
649.92	0.00
650.07	0.00
650.21	100.64
650.36	91.28
650.51	77.24
650.65	32.77
650.80	16.38
650.94	39.79
651.09	0.00
651.23	56.17
651.38	0.00
651.52	42.13
651.67	9.36
651.81	51.49
651.96	60.85
652.10	32.77
652.25	7.02
652.39	77.24
652.54	51.49
652.68	0.00
652.83	126.39
652.97	107.66
653.12	0.00
653.26	72.56
653.41	39.79
653.55	72.56
653.70	0.00
653.84	0.00
653.99	0.00
654.13	0.00
654.27	25.75
654.42	53.83
654.56	56.17
654.71	14.04
654.85	16.38
655.00	56.17
655.14	58.51
655.29	9.36
655.43	0.00
655.57	93.62
655.72	0.00
655.86	63.19
656.01	0.00
656.15	21.06
656.30	58.51
656.44	119.37
656.58	7.02
656.73	42.13
656.87	86.60
657.01	21.06
657.16	11.70
657.30	65.54
657.45	53.83
657.59	105.32
657.73	11.70
657.88	53.83
658.02	74.90
658.16	44.47
658.31	63.19
658.45	9.36
658.60	0.00
658.74	18.72
658.88	44.47
659.03	44.47
659.17	37.45
659.31	72.56
659.46	7.02
659.60	39.79
659.74	133.41
659.89	0.00
660.03	39.79
660.17	49.15
660.32	67.88
660.46	0.00
660.60	4.68
660.74	102.98
660.89	0.00
661.03	18.72
661.17	88.94
661.32	79.58
661.46	51.49
661.60	28.09
661.74	28.09
661.89	49.15
662.03	46.81
662.17	18.72
662.31	42.13
662.46	0.00
662.60	23.41
662.74	11.70
662.88	67.88
663.03	72.56
663.17	21.06
663.31	0.00
663.45	23.41
663.60	0.00
663.74	51.49
663.88	2.34
664.02	35.11
664.17	0.00
664.31	42.13
664.45	7.02
664.59	117.03
664.73	21.06
664.88	0.00
665.02	0.00
665.16	100.64
665.30	0.00
665.44	32.77
665.59	117.03
665.73	16.38
665.87	0.00
666.01	14.04
666.15	32.77
666.29	74.90
666.44	67.88
666.58	79.58
666.72	60.85
666.86	25.75
667.00	53.83
667.14	37.45
667.28	100.64
667.43	63.19
667.57	0.00
667.71	30.43
667.85	4.68
667.99	18.72
668.13	0.00
668.27	0.00
668.41	77.24
668.56	39.79
668.70	25.75
668.84	37.45
668.98	35.11
669.12	23.41
669.26	56.17
669.40	58.51
669.54	100.64
669.68	18.72
669.82	0.00
669.96	42.13
670.10	49.15
670.25	56.17
670.39	2.34
670.53	0.00
670.67	84.26
670.81	23.41
670.95	35.11
671.09	46.81
671.23	11.70
671.37	81.92
671.51	53.83
671.65	84.26
671.79	32.77
671.93	86.60
672.07	49.15
672.21	32.77
672.35	0.00
672.49	0.00
672.63	42.13
672.77	79.58
672.91	0.00
673.05	0.00
673.19	88.94
673.33	42.13
673.47	11.70
673.61	30.43
673.75	25.75
673.89	0.00
674.03	37.45
674.17	42.13
674.31	11.70
674.45	37.45
674.59	42.13
674.73	23.41
674.87	58.51
675.01	84.26
675.15	0.00
675.29	16.38
675.43	81.92
675.56	42.13
675.70	25.75
675.84	51.49
675.98	0.00
676.12	63.19
676.26	23.41
676.40	23.41
676.54	0.00
676.68	4.68
676.82	18.72
676.96	28.09
677.10	37.45
677.23	0.00
677.37	32.77
677.51	28.09
677.65	70.22
677.79	0.00
677.93	32.77
678.07	39.79
678.21	84.26
678.34	58.51
678.48	39.79
678.62	70.22
678.76	74.90
678.90	25.75
679.04	53.83
679.18	0.00
679.31	79.58
679.45	58.51
679.59	30.43
679.73	46.81
679.87	32.77
680.00	0.00
680.14	0.00
680.28	0.00
680.42	0.00
680.56	42.13
680.70	0.00
680.83	21.06
680.97	11.70
681.11	23.41
681.25	2.34
681.39	86.60
681.52	60.85
681.66	65.54
681.80	49.15
681.94	9.36
682.07	16.38
682.21	95.96
682.35	35.11
682.49	63.19
682.62	7.02
682.76	14.04
682.90	23.41
683.04	117.03
683.17	18.72
683.31	84.26
683.45	0.00
683.59	53.83
683.72	28.09
683.86	2.34
684.00	79.58
684.13	0.00
684.27	79.58
684.41	91.28
684.55	25.75
684.68	0.00
684.82	4.68
684.96	46.81
685.09	28.09
685.23	46.81
685.37	28.09
685.50	28.09
685.64	0.00
685.78	0.00
685.91	0.00
686.05	56.17
686.19	0.00
686.32	7.02
686.46	46.81
686.60	9.36
686.73	63.19
686.87	67.88
687.01	60.85
687.14	0.00
687.28	39.79
687.42	14.04
687.55	30.43
687.69	30.43
687.82	25.75
687.96	0.00
688.10	4.68
688.23	0.00
688.37	11.70
688.50	0.00
688.64	77.24
688.78	18.72
688.91	0.00
689.05	147.45
689.18	0.00
689.32	0.00
689.46	77.24
689.59	25.75
689.73	56.17
689.86	42.13
690.00	65.54
690.13	39.79
690.27	25.75
690.41	23.41
690.54	53.83
690.68	0.00
690.81	53.83
690.95	32.77
691.08	0.00
691.22	42.13
691.35	46.81
691.49	65.54
691.62	37.45
691.76	39.79
691.89	7.02
692.03	0.00
692.16	0.00
692.30	4.68
692.43	0.00
692.57	72.56
692.70	60.85
692.84	49.15
692.97	58.51
693.11	53.83
693.24	105.32
693.38	81.92
693.51	0.00
693.65	4.68
693.78	30.43
693.92	44.47
694.05	63.19
694.19	9.36
694.32	60.85
694.45	58.51
694.59	9.36
694.72	30.43
694.86	49.15
694.99	2.34
695.13	21.06
695.26	46.81
695.39	0.00
695.53	32.77
695.66	16.38
695.80	60.85
695.93	0.00
696.07	4.68
696.20	67.88
696.33	7.02
696.47	0.00
696.60	70.22
696.73	79.58
696.87	0.00
697.00	67.88
697.14	23.41
697.27	53.83
697.40	7.02
697.54	46.81
697.67	49.15
697.80	25.75
697.94	0.00
698.07	35.11
698.21	14.04
698.34	9.36
698.47	65.54
698.61	21.06
698.74	37.45
698.87	0.00
699.01	28.09
699.14	84.26
699.27	0.00
699.40	35.11
699.54	0.00
699.67	44.47
699.80	28.09
699.94	30.43
700.07	51.49
700.20	84.26
700.34	84.26
700.47	2.34
700.60	42.13
700.73	37.45
700.87	18.72
701.00	0.00
701.13	2.34
701.26	72.56
701.40	7.02
701.53	35.11
701.66	16.38
701.79	46.81
701.93	56.17
702.06	81.92
702.19	16.38
702.32	16.38
702.46	51.49
702.59	39.79
702.72	86.60
702.85	7.02
702.99	98.30
703.12	112.35
703.25	74.90
703.38	18.72
703.51	74.90
703.65	107.66
703.78	2.34
703.91	23.41
704.04	46.81
704.17	81.92
704.31	35.11
704.44	56.17
704.57	53.83
704.70	21.06
704.83	35.11
704.96	74.90
705.10	70.22
705.23	14.04
>>>>>End Processed Spectral Data<<<<<
