SpectraSuite Data File
++++++++++++++++++++++++++++++++++++
Date: Fri Oct 04 12:13:31 GMT-05:00 2013
User: price-jones
Dark Spectrum Present: No
Reference Spectrum Present: No
Number of Sampled Component Spectra: 1
Spectrometers: USB2+H05261
Integration Time (usec): 10000 (USB2+H05261)
Spectra Averaged: 1 (USB2+H05261)
Boxcar Smoothing: 0 (USB2+H05261)
Correct for Electrical Dark: No (USB2+H05261)
Strobe/Lamp Enabled: No (USB2+H05261)
Correct for Detector Non-linearity: No (USB2+H05261)
Correct for Stray Light: No (USB2+H05261)
Number of Pixels in Processed Spectrum: 2048
>>>>>Begin Processed Spectral Data<<<<<
365.73	0.00
365.92	0.00
366.12	0.00
366.32	0.00
366.52	0.00
366.72	0.00
366.91	0.00
367.11	0.00
367.31	0.00
367.51	0.00
367.70	0.00
367.90	0.00
368.10	0.00
368.30	0.00
368.49	0.00
368.69	0.00
368.89	0.00
369.09	0.00
369.28	0.00
369.48	0.00
369.68	0.00
369.87	0.00
370.07	0.00
370.27	0.00
370.47	0.00
370.66	0.00
370.86	0.00
371.06	0.00
371.25	0.00
371.45	0.00
371.65	23.41
371.84	0.00
372.04	0.00
372.24	0.00
372.44	0.00
372.63	0.00
372.83	0.00
373.03	0.00
373.22	37.45
373.42	0.00
373.62	88.94
373.81	21.06
374.01	51.49
374.21	95.96
374.40	32.77
374.60	49.15
374.79	18.72
374.99	30.43
375.19	28.09
375.38	65.54
375.58	60.85
375.78	46.81
375.97	51.49
376.17	42.13
376.37	30.43
376.56	86.60
376.76	44.47
376.95	28.09
377.15	42.13
377.35	9.36
377.54	0.00
377.74	44.47
377.93	0.00
378.13	0.00
378.33	0.00
378.52	0.00
378.72	0.00
378.91	124.05
379.11	21.06
379.31	0.00
379.50	0.00
379.70	63.19
379.89	32.77
380.09	0.00
380.28	88.94
380.48	18.72
380.68	0.00
380.87	18.72
381.07	0.00
381.26	21.06
381.46	0.00
381.65	0.00
381.85	0.00
382.04	9.36
382.24	0.00
382.43	4.68
382.63	32.77
382.83	30.43
383.02	0.00
383.22	37.45
383.41	44.47
383.61	35.11
383.80	0.00
384.00	0.00
384.19	0.00
384.39	2.34
384.58	4.68
384.78	37.45
384.97	28.09
385.17	0.00
385.36	23.41
385.56	72.56
385.75	49.15
385.95	4.68
386.14	0.00
386.34	0.00
386.53	58.51
386.72	0.00
386.92	9.36
387.11	65.54
387.31	23.41
387.50	11.70
387.70	46.81
387.89	16.38
388.09	53.83
388.28	7.02
388.48	14.04
388.67	0.00
388.86	0.00
389.06	0.00
389.25	28.09
389.45	98.30
389.64	0.00
389.84	60.85
390.03	0.00
390.22	21.06
390.42	23.41
390.61	11.70
390.81	4.68
391.00	0.00
391.19	21.06
391.39	4.68
391.58	58.51
391.78	30.43
391.97	63.19
392.16	0.00
392.36	11.70
392.55	28.09
392.75	105.32
392.94	42.13
393.13	30.43
393.33	65.54
393.52	25.75
393.71	39.79
393.91	0.00
394.10	42.13
394.29	16.38
394.49	9.36
394.68	0.00
394.88	0.00
395.07	0.00
395.26	28.09
395.46	0.00
395.65	0.00
395.84	25.75
396.04	0.00
396.23	28.09
396.42	65.54
396.62	21.06
396.81	21.06
397.00	37.45
397.19	35.11
397.39	16.38
397.58	44.47
397.77	18.72
397.97	77.24
398.16	32.77
398.35	35.11
398.55	63.19
398.74	2.34
398.93	46.81
399.12	56.17
399.32	37.45
399.51	65.54
399.70	95.96
399.90	18.72
400.09	58.51
400.28	86.60
400.47	30.43
400.67	14.04
400.86	0.00
401.05	4.68
401.24	0.00
401.44	35.11
401.63	39.79
401.82	0.00
402.01	105.32
402.21	42.13
402.40	72.56
402.59	53.83
402.78	46.81
402.97	39.79
403.17	0.00
403.36	39.79
403.55	18.72
403.74	49.15
403.93	23.41
404.13	42.13
404.32	0.00
404.51	0.00
404.70	58.51
404.89	145.11
405.09	70.22
405.28	84.26
405.47	0.00
405.66	74.90
405.85	14.04
406.05	77.24
406.24	98.30
406.43	16.38
406.62	14.04
406.81	46.81
407.00	0.00
407.20	37.45
407.39	60.85
407.58	0.00
407.77	51.49
407.96	11.70
408.15	51.49
408.34	30.43
408.54	70.22
408.73	14.04
408.92	0.00
409.11	7.02
409.30	37.45
409.49	91.28
409.68	23.41
409.87	63.19
410.07	25.75
410.26	0.00
410.45	0.00
410.64	35.11
410.83	46.81
411.02	4.68
411.21	30.43
411.40	0.00
411.59	30.43
411.78	42.13
411.98	0.00
412.17	0.00
412.36	14.04
412.55	44.47
412.74	60.85
412.93	84.26
413.12	16.38
413.31	0.00
413.50	21.06
413.69	35.11
413.88	35.11
414.07	14.04
414.26	39.79
414.45	9.36
414.64	21.06
414.83	58.51
415.02	4.68
415.22	46.81
415.41	46.81
415.60	14.04
415.79	0.00
415.98	37.45
416.17	0.00
416.36	84.26
416.55	28.09
416.74	56.17
416.93	21.06
417.12	56.17
417.31	63.19
417.50	16.38
417.69	0.00
417.88	25.75
418.07	0.00
418.26	39.79
418.45	51.49
418.64	67.88
418.83	0.00
419.02	0.00
419.21	53.83
419.39	51.49
419.58	25.75
419.77	28.09
419.96	0.00
420.15	0.00
420.34	21.06
420.53	49.15
420.72	37.45
420.91	0.00
421.10	4.68
421.29	53.83
421.48	51.49
421.67	30.43
421.86	70.22
422.05	11.70
422.24	46.81
422.43	0.00
422.61	44.47
422.80	11.70
422.99	18.72
423.18	56.17
423.37	30.43
423.56	0.00
423.75	0.00
423.94	21.06
424.13	44.47
424.32	0.00
424.50	0.00
424.69	49.15
424.88	91.28
425.07	39.79
425.26	53.83
425.45	56.17
425.64	35.11
425.83	0.00
426.01	32.77
426.20	0.00
426.39	42.13
426.58	35.11
426.77	0.00
426.96	25.75
427.15	60.85
427.33	11.70
427.52	35.11
427.71	56.17
427.90	0.00
428.09	18.72
428.28	102.98
428.46	79.58
428.65	25.75
428.84	18.72
429.03	0.00
429.22	39.79
429.40	35.11
429.59	114.69
429.78	37.45
429.97	79.58
430.16	0.00
430.34	32.77
430.53	84.26
430.72	0.00
430.91	35.11
431.10	42.13
431.28	60.85
431.47	77.24
431.66	102.98
431.85	30.43
432.03	49.15
432.22	79.58
432.41	0.00
432.60	56.17
432.79	42.13
432.97	58.51
433.16	58.51
433.35	51.49
433.54	63.19
433.72	56.17
433.91	16.38
434.10	42.13
434.28	44.47
434.47	37.45
434.66	49.15
434.85	70.22
435.03	25.75
435.22	35.11
435.41	46.81
435.59	0.00
435.78	79.58
435.97	0.00
436.16	0.00
436.34	2.34
436.53	30.43
436.72	42.13
436.90	65.54
437.09	23.41
437.28	56.17
437.46	25.75
437.65	4.68
437.84	11.70
438.02	7.02
438.21	37.45
438.40	28.09
438.58	0.00
438.77	0.00
438.96	91.28
439.14	0.00
439.33	42.13
439.52	0.00
439.70	16.38
439.89	21.06
440.08	39.79
440.26	93.62
440.45	72.56
440.63	42.13
440.82	56.17
441.01	72.56
441.19	51.49
441.38	70.22
441.57	21.06
441.75	70.22
441.94	42.13
442.12	21.06
442.31	0.00
442.50	37.45
442.68	44.47
442.87	0.00
443.05	51.49
443.24	14.04
443.43	0.00
443.61	0.00
443.80	9.36
443.98	11.70
444.17	65.54
444.35	0.00
444.54	56.17
444.73	18.72
444.91	7.02
445.10	21.06
445.28	23.41
445.47	65.54
445.65	72.56
445.84	91.28
446.02	0.00
446.21	46.81
446.39	35.11
446.58	44.47
446.77	37.45
446.95	0.00
447.14	23.41
447.32	0.00
447.51	0.00
447.69	42.13
447.88	63.19
448.06	63.19
448.25	0.00
448.43	21.06
448.62	79.58
448.80	37.45
448.99	60.85
449.17	58.51
449.36	0.00
449.54	16.38
449.73	0.00
449.91	86.60
450.10	30.43
450.28	49.15
450.46	53.83
450.65	72.56
450.83	25.75
451.02	18.72
451.20	70.22
451.39	39.79
451.57	0.00
451.76	0.00
451.94	39.79
452.13	88.94
452.31	84.26
452.49	23.41
452.68	32.77
452.86	28.09
453.05	14.04
453.23	0.00
453.42	56.17
453.60	49.15
453.78	35.11
453.97	0.00
454.15	0.00
454.34	37.45
454.52	46.81
454.70	56.17
454.89	49.15
455.07	0.00
455.26	42.13
455.44	4.68
455.62	0.00
455.81	63.19
455.99	28.09
456.17	28.09
456.36	110.01
456.54	0.00
456.73	0.00
456.91	18.72
457.09	86.60
457.28	67.88
457.46	60.85
457.64	46.81
457.83	23.41
458.01	30.43
458.19	60.85
458.38	0.00
458.56	39.79
458.74	0.00
458.93	21.06
459.11	0.00
459.29	0.00
459.48	0.00
459.66	0.00
459.84	42.13
460.03	72.56
460.21	23.41
460.39	14.04
460.57	51.49
460.76	42.13
460.94	16.38
461.12	60.85
461.31	32.77
461.49	70.22
461.67	67.88
461.85	86.60
462.04	7.02
462.22	128.73
462.40	25.75
462.59	77.24
462.77	88.94
462.95	51.49
463.13	16.38
463.32	105.32
463.50	9.36
463.68	0.00
463.86	42.13
464.05	21.06
464.23	30.43
464.41	49.15
464.59	58.51
464.78	58.51
464.96	0.00
465.14	65.54
465.32	0.00
465.50	0.00
465.69	63.19
465.87	23.41
466.05	0.00
466.23	11.70
466.41	7.02
466.60	65.54
466.78	56.17
466.96	88.94
467.14	0.00
467.32	35.11
467.51	0.00
467.69	9.36
467.87	79.58
468.05	35.11
468.23	70.22
468.41	0.00
468.60	49.15
468.78	42.13
468.96	67.88
469.14	63.19
469.32	42.13
469.50	14.04
469.69	2.34
469.87	0.00
470.05	2.34
470.23	53.83
470.41	39.79
470.59	16.38
470.77	70.22
470.95	95.96
471.14	30.43
471.32	65.54
471.50	84.26
471.68	56.17
471.86	84.26
472.04	11.70
472.22	2.34
472.40	74.90
472.58	77.24
472.77	30.43
472.95	0.00
473.13	0.00
473.31	77.24
473.49	56.17
473.67	30.43
473.85	53.83
474.03	25.75
474.21	0.00
474.39	117.03
474.57	16.38
474.75	0.00
474.93	60.85
475.12	91.28
475.30	16.38
475.48	0.00
475.66	4.68
475.84	14.04
476.02	28.09
476.20	16.38
476.38	16.38
476.56	4.68
476.74	46.81
476.92	67.88
477.10	51.49
477.28	70.22
477.46	63.19
477.64	93.62
477.82	4.68
478.00	53.83
478.18	32.77
478.36	51.49
478.54	23.41
478.72	0.00
478.90	4.68
479.08	46.81
479.26	119.37
479.44	23.41
479.62	16.38
479.80	4.68
479.98	42.13
480.16	39.79
480.34	70.22
480.52	63.19
480.70	72.56
480.88	25.75
481.06	74.90
481.24	9.36
481.41	37.45
481.59	14.04
481.77	67.88
481.95	0.00
482.13	0.00
482.31	53.83
482.49	2.34
482.67	74.90
482.85	53.83
483.03	7.02
483.21	51.49
483.39	53.83
483.57	35.11
483.74	74.90
483.92	0.00
484.10	11.70
484.28	67.88
484.46	95.96
484.64	88.94
484.82	42.13
485.00	107.66
485.18	67.88
485.35	2.34
485.53	0.00
485.71	63.19
485.89	44.47
486.07	39.79
486.25	28.09
486.43	2.34
486.61	60.85
486.78	32.77
486.96	0.00
487.14	2.34
487.32	25.75
487.50	53.83
487.68	18.72
487.85	46.81
488.03	42.13
488.21	23.41
488.39	32.77
488.57	72.56
488.75	53.83
488.92	32.77
489.10	0.00
489.28	53.83
489.46	56.17
489.64	119.37
489.81	70.22
489.99	7.02
490.17	0.00
490.35	35.11
490.53	37.45
490.70	0.00
490.88	7.02
491.06	32.77
491.24	2.34
491.41	35.11
491.59	86.60
491.77	32.77
491.95	14.04
492.13	0.00
492.30	14.04
492.48	32.77
492.66	0.00
492.84	0.00
493.01	46.81
493.19	0.00
493.37	70.22
493.54	37.45
493.72	32.77
493.90	9.36
494.08	28.09
494.25	56.17
494.43	88.94
494.61	49.15
494.79	49.15
494.96	67.88
495.14	0.00
495.32	7.02
495.49	0.00
495.67	39.79
495.85	46.81
496.02	56.17
496.20	51.49
496.38	53.83
496.55	44.47
496.73	79.58
496.91	0.00
497.09	58.51
497.26	28.09
497.44	60.85
497.62	58.51
497.79	51.49
497.97	14.04
498.14	0.00
498.32	0.00
498.50	32.77
498.67	63.19
498.85	0.00
499.03	2.34
499.20	0.00
499.38	35.11
499.56	0.00
499.73	114.69
499.91	37.45
500.08	0.00
500.26	28.09
500.44	0.00
500.61	70.22
500.79	95.96
500.97	131.07
501.14	0.00
501.32	35.11
501.49	0.00
501.67	46.81
501.84	81.92
502.02	49.15
502.20	84.26
502.37	37.45
502.55	51.49
502.72	37.45
502.90	11.70
503.07	58.51
503.25	37.45
503.43	42.13
503.60	74.90
503.78	18.72
503.95	9.36
504.13	74.90
504.30	0.00
504.48	0.00
504.65	124.05
504.83	25.75
505.01	30.43
505.18	67.88
505.36	84.26
505.53	46.81
505.71	119.37
505.88	0.00
506.06	98.30
506.23	112.35
506.41	39.79
506.58	21.06
506.76	42.13
506.93	0.00
507.11	32.77
507.28	30.43
507.46	42.13
507.63	91.28
507.81	84.26
507.98	11.70
508.16	63.19
508.33	65.54
508.50	86.60
508.68	35.11
508.85	0.00
509.03	81.92
509.20	9.36
509.38	81.92
509.55	53.83
509.73	0.00
509.90	32.77
510.08	9.36
510.25	23.41
510.42	4.68
510.60	44.47
510.77	11.70
510.95	53.83
511.12	74.90
511.30	16.38
511.47	65.54
511.64	46.81
511.82	18.72
511.99	65.54
512.17	88.94
512.34	67.88
512.51	110.01
512.69	23.41
512.86	0.00
513.04	18.72
513.21	32.77
513.38	16.38
513.56	30.43
513.73	56.17
513.90	56.17
514.08	0.00
514.25	9.36
514.43	32.77
514.60	35.11
514.77	9.36
514.95	0.00
515.12	23.41
515.29	70.22
515.47	28.09
515.64	79.58
515.81	0.00
515.99	86.60
516.16	0.00
516.33	7.02
516.51	2.34
516.68	0.00
516.85	7.02
517.03	0.00
517.20	0.00
517.37	18.72
517.54	0.00
517.72	0.00
517.89	91.28
518.06	18.72
518.24	63.19
518.41	74.90
518.58	100.64
518.75	0.00
518.93	9.36
519.10	37.45
519.27	14.04
519.45	58.51
519.62	0.00
519.79	42.13
519.96	95.96
520.14	46.81
520.31	30.43
520.48	4.68
520.65	0.00
520.83	21.06
521.00	74.90
521.17	58.51
521.34	0.00
521.52	44.47
521.69	63.19
521.86	72.56
522.03	65.54
522.20	51.49
522.38	63.19
522.55	32.77
522.72	65.54
522.89	16.38
523.07	56.17
523.24	35.11
523.41	84.26
523.58	25.75
523.75	77.24
523.92	16.38
524.10	93.62
524.27	35.11
524.44	0.00
524.61	56.17
524.78	74.90
524.96	67.88
525.13	91.28
525.30	65.54
525.47	91.28
525.64	30.43
525.81	35.11
525.98	67.88
526.16	21.06
526.33	44.47
526.50	16.38
526.67	37.45
526.84	49.15
527.01	37.45
527.18	65.54
527.36	42.13
527.53	7.02
527.70	58.51
527.87	0.00
528.04	49.15
528.21	44.47
528.38	114.69
528.55	72.56
528.72	32.77
528.89	0.00
529.07	2.34
529.24	93.62
529.41	44.47
529.58	28.09
529.75	46.81
529.92	32.77
530.09	0.00
530.26	86.60
530.43	2.34
530.60	25.75
530.77	67.88
530.94	72.56
531.11	18.72
531.28	0.00
531.46	37.45
531.63	86.60
531.80	0.00
531.97	44.47
532.14	0.00
532.31	56.17
532.48	102.98
532.65	0.00
532.82	28.09
532.99	53.83
533.16	11.70
533.33	35.11
533.50	74.90
533.67	18.72
533.84	91.28
534.01	79.58
534.18	70.22
534.35	56.17
534.52	28.09
534.69	81.92
534.86	79.58
535.03	7.02
535.20	25.75
535.37	30.43
535.54	46.81
535.71	95.96
535.88	74.90
536.05	60.85
536.22	25.75
536.38	67.88
536.55	0.00
536.72	81.92
536.89	0.00
537.06	112.35
537.23	23.41
537.40	16.38
537.57	7.02
537.74	0.00
537.91	14.04
538.08	0.00
538.25	25.75
538.42	0.00
538.59	51.49
538.75	0.00
538.92	0.00
539.09	9.36
539.26	56.17
539.43	74.90
539.60	145.11
539.77	126.39
539.94	154.48
540.11	210.65
540.28	110.01
540.44	30.43
540.61	42.13
540.78	98.30
540.95	32.77
541.12	98.30
541.29	51.49
541.46	23.41
541.62	44.47
541.79	110.01
541.96	49.15
542.13	67.88
542.30	70.22
542.47	67.88
542.63	56.17
542.80	46.81
542.97	93.62
543.14	112.35
543.31	11.70
543.48	7.02
543.64	23.41
543.81	35.11
543.98	14.04
544.15	74.90
544.32	51.49
544.48	44.47
544.65	53.83
544.82	0.00
544.99	58.51
545.16	46.81
545.32	51.49
545.49	70.22
545.66	25.75
545.83	53.83
546.00	93.62
546.16	21.06
546.33	18.72
546.50	0.00
546.67	16.38
546.83	2.34
547.00	51.49
547.17	0.00
547.34	51.49
547.50	56.17
547.67	32.77
547.84	53.83
548.00	25.75
548.17	93.62
548.34	37.45
548.51	51.49
548.67	65.54
548.84	74.90
549.01	91.28
549.18	86.60
549.34	0.00
549.51	7.02
549.68	84.26
549.84	86.60
550.01	32.77
550.18	102.98
550.34	112.35
550.51	23.41
550.68	23.41
550.84	51.49
551.01	4.68
551.18	21.06
551.34	0.00
551.51	9.36
551.68	84.26
551.84	16.38
552.01	53.83
552.18	72.56
552.34	63.19
552.51	0.00
552.68	53.83
552.84	9.36
553.01	42.13
553.18	0.00
553.34	25.75
553.51	86.60
553.67	18.72
553.84	2.34
554.01	42.13
554.17	0.00
554.34	0.00
554.51	88.94
554.67	65.54
554.84	49.15
555.00	14.04
555.17	30.43
555.33	56.17
555.50	51.49
555.67	65.54
555.83	110.01
556.00	60.85
556.16	9.36
556.33	37.45
556.50	102.98
556.66	102.98
556.83	60.85
556.99	58.51
557.16	126.39
557.32	53.83
557.49	0.00
557.65	81.92
557.82	49.15
557.98	112.35
558.15	56.17
558.32	95.96
558.48	7.02
558.65	0.00
558.81	84.26
558.98	70.22
559.14	46.81
559.31	0.00
559.47	49.15
559.64	84.26
559.80	2.34
559.97	84.26
560.13	95.96
560.30	28.09
560.46	0.00
560.63	49.15
560.79	42.13
560.96	0.00
561.12	23.41
561.29	32.77
561.45	58.51
561.61	37.45
561.78	56.17
561.94	25.75
562.11	16.38
562.27	51.49
562.44	30.43
562.60	25.75
562.77	32.77
562.93	23.41
563.10	2.34
563.26	95.96
563.42	95.96
563.59	0.00
563.75	0.00
563.92	9.36
564.08	28.09
564.24	16.38
564.41	67.88
564.57	51.49
564.74	30.43
564.90	2.34
565.07	0.00
565.23	28.09
565.39	0.00
565.56	14.04
565.72	51.49
565.88	65.54
566.05	46.81
566.21	28.09
566.38	25.75
566.54	63.19
566.70	11.70
566.87	39.79
567.03	72.56
567.19	67.88
567.36	37.45
567.52	91.28
567.68	16.38
567.85	105.32
568.01	56.17
568.17	4.68
568.34	65.54
568.50	23.41
568.66	79.58
568.83	91.28
568.99	67.88
569.15	51.49
569.32	60.85
569.48	58.51
569.64	0.00
569.81	0.00
569.97	39.79
570.13	18.72
570.30	58.51
570.46	53.83
570.62	79.58
570.78	91.28
570.95	37.45
571.11	65.54
571.27	128.73
571.43	9.36
571.60	28.09
571.76	49.15
571.92	14.04
572.09	86.60
572.25	53.83
572.41	37.45
572.57	0.00
572.74	28.09
572.90	49.15
573.06	60.85
573.22	58.51
573.38	74.90
573.55	4.68
573.71	46.81
573.87	67.88
574.03	65.54
574.20	23.41
574.36	142.77
574.52	18.72
574.68	16.38
574.84	110.01
575.01	56.17
575.17	72.56
575.33	0.00
575.49	74.90
575.65	51.49
575.82	11.70
575.98	114.69
576.14	114.69
576.30	119.37
576.46	79.58
576.62	95.96
576.79	37.45
576.95	95.96
577.11	21.06
577.27	51.49
577.43	0.00
577.59	18.72
577.75	32.77
577.92	0.00
578.08	2.34
578.24	11.70
578.40	93.62
578.56	79.58
578.72	14.04
578.88	51.49
579.04	93.62
579.21	9.36
579.37	72.56
579.53	81.92
579.69	25.75
579.85	0.00
580.01	93.62
580.17	23.41
580.33	9.36
580.49	23.41
580.65	11.70
580.82	4.68
580.98	105.32
581.14	60.85
581.30	58.51
581.46	88.94
581.62	149.79
581.78	88.94
581.94	91.28
582.10	56.17
582.26	28.09
582.42	65.54
582.58	63.19
582.74	37.45
582.90	74.90
583.06	0.00
583.22	4.68
583.38	53.83
583.54	30.43
583.70	152.13
583.86	39.79
584.02	44.47
584.18	72.56
584.34	208.31
584.50	353.42
584.66	2291.38
584.82	5778.78
584.98	9132.77
585.14	8362.73
585.30	5217.05
585.46	3033.33
585.62	1856.04
585.78	950.26
585.94	341.72
586.10	184.90
586.26	135.75
586.42	112.35
586.58	91.28
586.74	79.58
586.90	95.96
587.06	42.13
587.22	79.58
587.38	18.72
587.54	156.82
587.70	360.44
587.86	653.01
588.02	709.18
588.18	514.92
588.34	327.68
588.49	168.52
588.65	170.86
588.81	84.26
588.97	42.13
589.13	0.00
589.29	0.00
589.45	81.92
589.61	44.47
589.77	79.58
589.93	32.77
590.08	79.58
590.24	65.54
590.40	53.83
590.56	81.92
590.72	93.62
590.88	23.41
591.04	42.13
591.20	46.81
591.35	16.38
591.51	42.13
591.67	0.00
591.83	2.34
591.99	84.26
592.15	49.15
592.31	74.90
592.46	88.94
592.62	102.98
592.78	14.04
592.94	56.17
593.10	0.00
593.26	30.43
593.41	44.47
593.57	0.00
593.73	112.35
593.89	301.93
594.05	730.25
594.20	1174.95
594.36	1245.16
594.52	711.52
594.68	468.11
594.84	243.42
594.99	222.35
595.15	95.96
595.31	67.88
595.47	0.00
595.62	23.41
595.78	16.38
595.94	56.17
596.10	49.15
596.25	39.79
596.41	107.66
596.57	7.02
596.73	21.06
596.88	51.49
597.04	175.54
597.20	315.97
597.36	313.63
597.51	337.04
597.67	133.41
597.83	100.64
597.99	58.51
598.14	65.54
598.30	79.58
598.46	72.56
598.61	72.56
598.77	51.49
598.93	9.36
599.09	53.83
599.24	67.88
599.40	32.77
599.56	37.45
599.71	56.17
599.87	37.45
600.03	0.00
600.18	32.77
600.34	35.11
600.50	0.00
600.65	98.30
600.81	39.79
600.97	30.43
601.12	107.66
601.28	0.00
601.44	39.79
601.59	53.83
601.75	0.00
601.91	18.72
602.06	21.06
602.22	49.15
602.37	93.62
602.53	189.58
602.69	320.65
602.84	320.65
603.00	266.82
603.16	135.75
603.31	107.66
603.47	79.58
603.62	70.22
603.78	44.47
603.94	86.60
604.09	23.41
604.25	72.56
604.40	56.17
604.56	0.00
604.71	95.96
604.87	93.62
605.03	0.00
605.18	56.17
605.34	0.00
605.49	0.00
605.65	0.00
605.80	51.49
605.96	58.51
606.12	65.54
606.27	49.15
606.43	9.36
606.58	53.83
606.74	210.65
606.89	447.04
607.05	737.27
607.20	990.05
607.36	936.21
607.51	550.03
607.67	416.62
607.82	271.50
607.98	175.54
608.13	49.15
608.29	56.17
608.44	67.88
608.60	16.38
608.75	110.01
608.91	133.41
609.06	547.69
609.22	1158.57
609.37	1675.82
609.53	1593.90
609.68	1013.45
609.84	613.22
609.99	444.70
610.15	203.63
610.30	105.32
610.46	128.73
610.61	72.56
610.76	100.64
610.92	72.56
611.07	9.36
611.23	51.49
611.38	49.15
611.54	32.77
611.69	18.72
611.84	56.17
612.00	88.94
612.15	65.54
612.31	51.49
612.46	67.88
612.62	88.94
612.77	135.75
612.92	84.26
613.08	95.96
613.23	21.06
613.39	74.90
613.54	124.05
613.69	531.30
613.85	1589.22
614.00	2656.51
614.15	2789.92
614.31	2043.29
614.46	1338.79
614.62	842.59
614.77	475.13
614.92	250.44
615.08	145.11
615.23	142.77
615.38	37.45
615.54	107.66
615.69	147.45
615.84	339.38
616.00	620.24
616.15	856.64
616.30	608.54
616.46	477.47
616.61	262.14
616.76	255.12
616.92	91.28
617.07	7.02
617.22	128.73
617.37	49.15
617.53	84.26
617.68	42.13
617.83	0.00
617.99	102.98
618.14	100.64
618.29	11.70
618.45	35.11
618.60	74.90
618.75	16.38
618.90	70.22
619.06	145.11
619.21	42.13
619.36	0.00
619.51	74.90
619.67	39.79
619.82	105.32
619.97	42.13
620.12	0.00
620.28	49.15
620.43	60.85
620.58	70.22
620.73	0.00
620.89	9.36
621.04	23.41
621.19	208.31
621.34	280.86
621.49	461.09
621.65	440.02
621.80	269.16
621.95	257.46
622.10	156.82
622.25	74.90
622.41	63.19
622.56	25.75
622.71	37.45
622.86	44.47
623.01	2.34
623.16	44.47
623.32	46.81
623.47	74.90
623.62	11.70
623.77	32.77
623.92	63.19
624.07	74.90
624.23	74.90
624.38	74.90
624.53	39.79
624.68	49.15
624.83	60.85
624.98	95.96
625.13	39.79
625.29	14.04
625.44	159.16
625.59	21.06
625.74	11.70
625.89	154.48
626.04	322.99
626.19	695.14
626.34	1242.82
626.49	1493.26
626.65	1137.50
626.80	748.97
626.95	444.70
627.10	381.51
627.25	180.22
627.40	65.54
627.55	0.00
627.70	21.06
627.85	2.34
628.00	0.00
628.15	70.22
628.30	86.60
628.45	114.69
628.60	100.64
628.76	28.09
628.91	56.17
629.06	86.60
629.21	44.47
629.36	30.43
629.51	49.15
629.66	100.64
629.81	152.13
629.96	142.77
630.11	238.73
630.26	360.44
630.41	315.97
630.56	262.14
630.71	184.90
630.86	110.01
631.01	112.35
631.16	84.26
631.31	93.62
631.46	110.01
631.61	65.54
631.76	0.00
631.91	112.35
632.06	14.04
632.21	51.49
632.36	56.17
632.51	0.00
632.66	91.28
632.81	177.88
632.96	402.57
633.10	774.72
633.25	1048.56
633.40	828.55
633.55	528.96
633.70	346.40
633.85	234.05
634.00	154.48
634.15	105.32
634.30	37.45
634.45	56.17
634.60	35.11
634.75	0.00
634.90	114.69
635.05	44.47
635.19	100.64
635.34	0.00
635.49	21.06
635.64	110.01
635.79	53.83
635.94	25.75
636.09	0.00
636.24	114.69
636.39	23.41
636.53	81.92
636.68	23.41
636.83	14.04
636.98	44.47
637.13	51.49
637.28	65.54
637.43	72.56
637.57	84.26
637.72	322.99
637.87	1057.92
638.02	1603.27
638.17	1870.09
638.32	1401.98
638.46	929.19
638.61	573.43
638.76	383.85
638.91	262.14
639.06	163.84
639.20	131.07
639.35	88.94
639.50	145.11
639.65	592.16
639.80	1511.99
639.94	2544.16
640.09	2906.95
640.24	2232.87
640.39	1493.26
640.54	990.05
640.68	594.50
640.83	315.97
640.98	177.88
641.13	56.17
641.27	95.96
641.42	91.28
641.57	107.66
641.72	53.83
641.86	65.54
642.01	112.35
642.16	53.83
642.31	56.17
642.45	147.45
642.60	37.45
642.75	131.07
642.90	56.17
643.04	0.00
643.19	53.83
643.34	124.05
643.48	93.62
643.63	11.70
643.78	84.26
643.93	32.77
644.07	56.17
644.22	84.26
644.37	63.19
644.51	77.24
644.66	0.00
644.81	51.49
644.95	93.62
645.10	30.43
645.25	21.06
645.39	72.56
645.54	9.36
645.69	42.13
645.83	11.70
645.98	77.24
646.13	51.49
646.27	0.00
646.42	72.56
646.57	60.85
646.71	0.00
646.86	28.09
647.00	0.00
647.15	42.13
647.30	84.26
647.44	67.88
647.59	21.06
647.74	0.00
647.88	79.58
648.03	81.92
648.17	51.49
648.32	72.56
648.47	70.22
648.61	2.34
648.76	16.38
648.90	16.38
649.05	4.68
649.20	35.11
649.34	11.70
649.49	84.26
649.63	93.62
649.78	84.26
649.92	46.81
650.07	184.90
650.21	587.47
650.36	1060.26
650.51	1399.64
650.65	1310.70
650.80	905.79
650.94	603.86
651.09	407.25
651.23	142.77
651.38	88.94
651.52	42.13
651.67	65.54
651.81	49.15
651.96	0.00
652.10	49.15
652.25	7.02
652.39	0.00
652.54	21.06
652.68	86.60
652.83	285.55
652.97	437.68
653.12	505.56
653.26	568.75
653.41	376.83
653.55	269.16
653.70	182.56
653.84	98.30
653.99	44.47
654.13	105.32
654.27	37.45
654.42	84.26
654.56	95.96
654.71	81.92
654.85	44.47
655.00	25.75
655.14	56.17
655.29	65.54
655.43	53.83
655.57	0.00
655.72	60.85
655.86	60.85
656.01	32.77
656.15	0.00
656.30	0.00
656.44	77.24
656.58	21.06
656.73	14.04
656.87	44.47
657.01	49.15
657.16	23.41
657.30	4.68
657.45	119.37
657.59	35.11
657.73	18.72
657.88	63.19
658.02	0.00
658.16	44.47
658.31	105.32
658.45	23.41
658.60	23.41
658.74	77.24
658.88	58.51
659.03	0.00
659.17	128.73
659.31	201.29
659.46	308.95
659.60	519.60
659.74	748.97
659.89	641.31
660.03	456.40
660.17	320.65
660.32	229.37
660.46	126.39
660.60	74.90
660.74	110.01
660.89	72.56
661.03	60.85
661.17	0.00
661.32	16.38
661.46	44.47
661.60	42.13
661.74	18.72
661.89	0.00
662.03	23.41
662.17	58.51
662.31	70.22
662.46	46.81
662.60	30.43
662.74	37.45
662.88	39.79
663.03	74.90
663.17	51.49
663.31	0.00
663.45	51.49
663.60	72.56
663.74	72.56
663.88	51.49
664.02	35.11
664.17	9.36
664.31	42.13
664.45	67.88
664.59	14.04
664.73	39.79
664.88	0.00
665.02	28.09
665.16	58.51
665.30	18.72
665.44	0.00
665.59	91.28
665.73	44.47
665.87	0.00
666.01	35.11
666.15	37.45
666.29	84.26
666.44	23.41
666.58	67.88
666.72	81.92
666.86	0.00
667.00	0.00
667.14	70.22
667.28	205.97
667.43	531.30
667.57	966.64
667.71	1343.47
667.85	1137.50
667.99	847.27
668.13	535.98
668.27	301.93
668.41	212.99
668.56	135.75
668.70	0.00
668.84	65.54
668.98	23.41
669.12	42.13
669.26	110.01
669.40	67.88
669.54	72.56
669.68	49.15
669.82	58.51
669.96	32.77
670.10	67.88
670.25	84.26
670.39	14.04
670.53	39.79
670.67	30.43
670.81	81.92
670.95	28.09
671.09	35.11
671.23	196.60
671.37	486.83
671.51	777.06
671.65	800.46
671.79	627.26
671.93	526.62
672.07	243.42
672.21	245.76
672.35	128.73
672.49	0.00
672.63	95.96
672.77	88.94
672.91	9.36
673.05	70.22
673.19	39.79
673.33	0.00
673.47	35.11
673.61	0.00
673.75	39.79
673.89	65.54
674.03	18.72
674.17	23.41
674.31	30.43
674.45	0.00
674.59	9.36
674.73	0.00
674.87	95.96
675.01	35.11
675.15	65.54
675.29	84.26
675.43	23.41
675.56	56.17
675.70	2.34
675.84	0.00
675.98	72.56
676.12	4.68
676.26	0.00
676.40	51.49
676.54	35.11
676.68	2.34
676.82	0.00
676.96	0.00
677.10	58.51
677.23	21.06
677.37	60.85
677.51	7.02
677.65	51.49
677.79	35.11
677.93	21.06
678.07	28.09
678.21	65.54
678.34	84.26
678.48	32.77
678.62	0.00
678.76	35.11
678.90	14.04
679.04	46.81
679.18	60.85
679.31	11.70
679.45	42.13
679.59	0.00
679.73	0.00
679.87	100.64
680.00	37.45
680.14	11.70
680.28	112.35
680.42	9.36
680.56	25.75
680.70	67.88
680.83	63.19
680.97	28.09
681.11	39.79
681.25	9.36
681.39	4.68
681.52	0.00
681.66	30.43
681.80	0.00
681.94	35.11
682.07	37.45
682.21	51.49
682.35	46.81
682.49	88.94
682.62	51.49
682.76	56.17
682.90	70.22
683.04	32.77
683.17	77.24
683.31	46.81
683.45	81.92
683.59	30.43
683.72	9.36
683.86	98.30
684.00	0.00
684.13	21.06
684.27	23.41
684.41	70.22
684.55	28.09
684.68	9.36
684.82	51.49
684.96	37.45
685.09	0.00
685.23	44.47
685.37	7.02
685.50	67.88
685.64	2.34
685.78	4.68
685.91	9.36
686.05	70.22
686.19	23.41
686.32	18.72
686.46	16.38
686.60	37.45
686.73	74.90
686.87	74.90
687.01	53.83
687.14	74.90
687.28	74.90
687.42	14.04
687.55	65.54
687.69	46.81
687.82	39.79
687.96	14.04
688.10	60.85
688.23	49.15
688.37	102.98
688.50	0.00
688.64	0.00
688.78	30.43
688.91	32.77
689.05	2.34
689.18	11.70
689.32	0.00
689.46	65.54
689.59	60.85
689.73	42.13
689.86	112.35
690.00	0.00
690.13	46.81
690.27	0.00
690.41	81.92
690.54	23.41
690.68	121.71
690.81	51.49
690.95	58.51
691.08	79.58
691.22	79.58
691.35	0.00
691.49	9.36
691.62	44.47
691.76	11.70
691.89	21.06
692.03	0.00
692.16	39.79
692.30	37.45
692.43	126.39
692.57	252.78
692.70	456.40
692.84	531.30
692.97	585.13
693.11	379.17
693.24	304.27
693.38	227.03
693.51	126.39
693.65	98.30
693.78	18.72
693.92	65.54
694.05	39.79
694.19	30.43
694.32	35.11
694.45	93.62
694.59	107.66
694.72	9.36
694.86	14.04
694.99	25.75
695.13	0.00
695.26	49.15
695.39	37.45
695.53	0.00
695.66	74.90
695.80	18.72
695.93	30.43
696.07	56.17
696.20	32.77
696.33	88.94
696.47	60.85
696.60	131.07
696.73	49.15
696.87	70.22
697.00	46.81
697.14	53.83
697.27	42.13
697.40	88.94
697.54	60.85
697.67	16.38
697.80	100.64
697.94	39.79
698.07	16.38
698.21	65.54
698.34	18.72
698.47	0.00
698.61	56.17
698.74	25.75
698.87	0.00
699.01	0.00
699.14	0.00
699.27	16.38
699.40	39.79
699.54	49.15
699.67	32.77
699.80	56.17
699.94	0.00
700.07	0.00
700.20	46.81
700.34	18.72
700.47	14.04
700.60	7.02
700.73	98.30
700.87	35.11
701.00	14.04
701.13	0.00
701.26	88.94
701.40	39.79
701.53	51.49
701.66	0.00
701.79	37.45
701.93	35.11
702.06	39.79
702.19	0.00
702.32	107.66
702.46	128.73
702.59	98.30
702.72	175.54
702.85	273.84
702.99	660.03
703.12	985.37
703.25	1156.22
703.38	1022.81
703.51	786.42
703.65	645.99
703.78	463.43
703.91	320.65
704.04	236.39
704.17	114.69
704.31	25.75
704.44	63.19
704.57	93.62
704.70	14.04
704.83	60.85
704.96	18.72
705.10	0.00
705.23	0.00
>>>>>End Processed Spectral Data<<<<<
