SpectraSuite Data File
++++++++++++++++++++++++++++++++++++
Date: Fri Oct 04 12:13:35 GMT-05:00 2013
User: price-jones
Dark Spectrum Present: No
Reference Spectrum Present: No
Number of Sampled Component Spectra: 1
Spectrometers: USB2+H05261
Integration Time (usec): 10000 (USB2+H05261)
Spectra Averaged: 1 (USB2+H05261)
Boxcar Smoothing: 0 (USB2+H05261)
Correct for Electrical Dark: No (USB2+H05261)
Strobe/Lamp Enabled: No (USB2+H05261)
Correct for Detector Non-linearity: No (USB2+H05261)
Correct for Stray Light: No (USB2+H05261)
Number of Pixels in Processed Spectrum: 2048
>>>>>Begin Processed Spectral Data<<<<<
365.73	32.77
365.92	32.77
366.12	32.77
366.32	0.00
366.52	0.00
366.72	0.00
366.91	0.00
367.11	0.00
367.31	0.00
367.51	0.00
367.70	0.00
367.90	0.00
368.10	0.00
368.30	0.00
368.49	0.00
368.69	0.00
368.89	0.00
369.09	0.00
369.28	0.00
369.48	0.00
369.68	0.00
369.87	0.00
370.07	0.00
370.27	0.00
370.47	9.36
370.66	0.00
370.86	0.00
371.06	0.00
371.25	0.00
371.45	0.00
371.65	0.00
371.84	0.00
372.04	0.00
372.24	30.43
372.44	16.38
372.63	58.51
372.83	42.13
373.03	21.06
373.22	30.43
373.42	53.83
373.62	0.00
373.81	74.90
374.01	44.47
374.21	121.71
374.40	37.45
374.60	42.13
374.79	2.34
374.99	114.69
375.19	0.00
375.38	23.41
375.58	49.15
375.78	39.79
375.97	51.49
376.17	107.66
376.37	18.72
376.56	74.90
376.76	79.58
376.95	53.83
377.15	93.62
377.35	35.11
377.54	63.19
377.74	0.00
377.93	44.47
378.13	86.60
378.33	25.75
378.52	53.83
378.72	93.62
378.91	28.09
379.11	0.00
379.31	0.00
379.50	51.49
379.70	49.15
379.89	0.00
380.09	23.41
380.28	28.09
380.48	72.56
380.68	72.56
380.87	44.47
381.07	37.45
381.26	32.77
381.46	121.71
381.65	25.75
381.85	28.09
382.04	25.75
382.24	9.36
382.43	42.13
382.63	46.81
382.83	14.04
383.02	18.72
383.22	30.43
383.41	0.00
383.61	4.68
383.80	4.68
384.00	0.00
384.19	0.00
384.39	51.49
384.58	39.79
384.78	0.00
384.97	14.04
385.17	0.00
385.36	0.00
385.56	0.00
385.75	77.24
385.95	91.28
386.14	28.09
386.34	23.41
386.53	21.06
386.72	14.04
386.92	16.38
387.11	100.64
387.31	58.51
387.50	11.70
387.70	4.68
387.89	0.00
388.09	58.51
388.28	42.13
388.48	7.02
388.67	46.81
388.86	51.49
389.06	53.83
389.25	72.56
389.45	58.51
389.64	25.75
389.84	60.85
390.03	86.60
390.22	79.58
390.42	42.13
390.61	0.00
390.81	65.54
391.00	42.13
391.19	0.00
391.39	32.77
391.58	9.36
391.78	23.41
391.97	102.98
392.16	51.49
392.36	65.54
392.55	65.54
392.75	28.09
392.94	30.43
393.13	39.79
393.33	35.11
393.52	60.85
393.71	0.00
393.91	35.11
394.10	0.00
394.29	4.68
394.49	35.11
394.68	0.00
394.88	0.00
395.07	30.43
395.26	28.09
395.46	79.58
395.65	53.83
395.84	11.70
396.04	39.79
396.23	0.00
396.42	58.51
396.62	79.58
396.81	91.28
397.00	44.47
397.19	9.36
397.39	65.54
397.58	44.47
397.77	0.00
397.97	0.00
398.16	42.13
398.35	0.00
398.55	77.24
398.74	0.00
398.93	32.77
399.12	44.47
399.32	49.15
399.51	25.75
399.70	9.36
399.90	46.81
400.09	44.47
400.28	28.09
400.47	30.43
400.67	117.03
400.86	21.06
401.05	42.13
401.24	65.54
401.44	0.00
401.63	14.04
401.82	58.51
402.01	23.41
402.21	4.68
402.40	0.00
402.59	7.02
402.78	14.04
402.97	37.45
403.17	0.00
403.36	44.47
403.55	16.38
403.74	0.00
403.93	14.04
404.13	23.41
404.32	0.00
404.51	39.79
404.70	95.96
404.89	114.69
405.09	0.00
405.28	84.26
405.47	72.56
405.66	74.90
405.85	7.02
406.05	2.34
406.24	28.09
406.43	44.47
406.62	56.17
406.81	46.81
407.00	25.75
407.20	16.38
407.39	0.00
407.58	11.70
407.77	0.00
407.96	42.13
408.15	2.34
408.34	28.09
408.54	18.72
408.73	0.00
408.92	44.47
409.11	44.47
409.30	9.36
409.49	0.00
409.68	0.00
409.87	9.36
410.07	46.81
410.26	16.38
410.45	95.96
410.64	49.15
410.83	0.00
411.02	25.75
411.21	58.51
411.40	44.47
411.59	114.69
411.78	67.88
411.98	91.28
412.17	112.35
412.36	72.56
412.55	42.13
412.74	39.79
412.93	70.22
413.12	39.79
413.31	91.28
413.50	51.49
413.69	42.13
413.88	58.51
414.07	58.51
414.26	0.00
414.45	60.85
414.64	53.83
414.83	30.43
415.02	63.19
415.22	18.72
415.41	2.34
415.60	105.32
415.79	18.72
415.98	84.26
416.17	77.24
416.36	42.13
416.55	77.24
416.74	23.41
416.93	16.38
417.12	23.41
417.31	58.51
417.50	23.41
417.69	23.41
417.88	107.66
418.07	58.51
418.26	0.00
418.45	114.69
418.64	28.09
418.83	110.01
419.02	58.51
419.21	4.68
419.39	107.66
419.58	46.81
419.77	37.45
419.96	42.13
420.15	100.64
420.34	0.00
420.53	30.43
420.72	42.13
420.91	60.85
421.10	2.34
421.29	102.98
421.48	67.88
421.67	4.68
421.86	11.70
422.05	46.81
422.24	18.72
422.43	60.85
422.61	32.77
422.80	0.00
422.99	28.09
423.18	67.88
423.37	30.43
423.56	49.15
423.75	30.43
423.94	7.02
424.13	63.19
424.32	0.00
424.50	70.22
424.69	0.00
424.88	0.00
425.07	42.13
425.26	0.00
425.45	88.94
425.64	91.28
425.83	18.72
426.01	79.58
426.20	105.32
426.39	67.88
426.58	16.38
426.77	44.47
426.96	70.22
427.15	53.83
427.33	81.92
427.52	60.85
427.71	49.15
427.90	53.83
428.09	0.00
428.28	23.41
428.46	18.72
428.65	23.41
428.84	93.62
429.03	65.54
429.22	9.36
429.40	79.58
429.59	0.00
429.78	0.00
429.97	44.47
430.16	32.77
430.34	84.26
430.53	65.54
430.72	25.75
430.91	7.02
431.10	25.75
431.28	0.00
431.47	44.47
431.66	28.09
431.85	14.04
432.03	51.49
432.22	18.72
432.41	51.49
432.60	18.72
432.79	0.00
432.97	53.83
433.16	0.00
433.35	70.22
433.54	0.00
433.72	81.92
433.91	46.81
434.10	35.11
434.28	74.90
434.47	9.36
434.66	0.00
434.85	49.15
435.03	91.28
435.22	25.75
435.41	72.56
435.59	56.17
435.78	18.72
435.97	117.03
436.16	65.54
436.34	7.02
436.53	7.02
436.72	30.43
436.90	79.58
437.09	56.17
437.28	44.47
437.46	39.79
437.65	44.47
437.84	74.90
438.02	42.13
438.21	98.30
438.40	16.38
438.58	56.17
438.77	51.49
438.96	35.11
439.14	102.98
439.33	0.00
439.52	44.47
439.70	84.26
439.89	117.03
440.08	2.34
440.26	23.41
440.45	39.79
440.63	93.62
440.82	46.81
441.01	72.56
441.19	18.72
441.38	58.51
441.57	147.45
441.75	79.58
441.94	126.39
442.12	81.92
442.31	16.38
442.50	142.77
442.68	49.15
442.87	2.34
443.05	88.94
443.24	60.85
443.43	28.09
443.61	16.38
443.80	32.77
443.98	0.00
444.17	35.11
444.35	63.19
444.54	42.13
444.73	65.54
444.91	86.60
445.10	79.58
445.28	23.41
445.47	77.24
445.65	25.75
445.84	93.62
446.02	2.34
446.21	53.83
446.39	28.09
446.58	25.75
446.77	25.75
446.95	77.24
447.14	81.92
447.32	0.00
447.51	0.00
447.69	42.13
447.88	107.66
448.06	79.58
448.25	56.17
448.43	49.15
448.62	77.24
448.80	28.09
448.99	28.09
449.17	60.85
449.36	2.34
449.54	81.92
449.73	100.64
449.91	84.26
450.10	53.83
450.28	37.45
450.46	63.19
450.65	60.85
450.83	105.32
451.02	16.38
451.20	121.71
451.39	46.81
451.57	35.11
451.76	21.06
451.94	79.58
452.13	67.88
452.31	110.01
452.49	21.06
452.68	84.26
452.86	46.81
453.05	93.62
453.23	9.36
453.42	67.88
453.60	16.38
453.78	70.22
453.97	67.88
454.15	65.54
454.34	84.26
454.52	74.90
454.70	72.56
454.89	81.92
455.07	0.00
455.26	21.06
455.44	0.00
455.62	7.02
455.81	79.58
455.99	91.28
456.17	105.32
456.36	56.17
456.54	56.17
456.73	58.51
456.91	88.94
457.09	58.51
457.28	74.90
457.46	28.09
457.64	0.00
457.83	46.81
458.01	49.15
458.19	81.92
458.38	16.38
458.56	79.58
458.74	32.77
458.93	32.77
459.11	67.88
459.29	39.79
459.48	18.72
459.66	21.06
459.84	49.15
460.03	84.26
460.21	0.00
460.39	21.06
460.57	49.15
460.76	30.43
460.94	44.47
461.12	72.56
461.31	81.92
461.49	18.72
461.67	35.11
461.85	32.77
462.04	53.83
462.22	77.24
462.40	0.00
462.59	81.92
462.77	39.79
462.95	44.47
463.13	0.00
463.32	98.30
463.50	0.00
463.68	4.68
463.86	14.04
464.05	0.00
464.23	18.72
464.41	35.11
464.59	11.70
464.78	23.41
464.96	39.79
465.14	49.15
465.32	77.24
465.50	88.94
465.69	46.81
465.87	107.66
466.05	16.38
466.23	70.22
466.41	0.00
466.60	0.00
466.78	93.62
466.96	67.88
467.14	0.00
467.32	37.45
467.51	32.77
467.69	77.24
467.87	28.09
468.05	124.05
468.23	46.81
468.41	53.83
468.60	65.54
468.78	28.09
468.96	25.75
469.14	72.56
469.32	107.66
469.50	77.24
469.69	2.34
469.87	51.49
470.05	98.30
470.23	63.19
470.41	9.36
470.59	46.81
470.77	16.38
470.95	42.13
471.14	107.66
471.32	53.83
471.50	56.17
471.68	46.81
471.86	112.35
472.04	0.00
472.22	91.28
472.40	28.09
472.58	93.62
472.77	21.06
472.95	49.15
473.13	163.84
473.31	72.56
473.49	107.66
473.67	77.24
473.85	56.17
474.03	65.54
474.21	112.35
474.39	56.17
474.57	67.88
474.75	86.60
474.93	51.49
475.12	107.66
475.30	28.09
475.48	23.41
475.66	65.54
475.84	0.00
476.02	117.03
476.20	131.07
476.38	84.26
476.56	11.70
476.74	37.45
476.92	14.04
477.10	25.75
477.28	37.45
477.46	37.45
477.64	44.47
477.82	0.00
478.00	58.51
478.18	88.94
478.36	42.13
478.54	70.22
478.72	53.83
478.90	23.41
479.08	98.30
479.26	14.04
479.44	110.01
479.62	138.09
479.80	0.00
479.98	91.28
480.16	49.15
480.34	81.92
480.52	149.79
480.70	60.85
480.88	86.60
481.06	102.98
481.24	51.49
481.41	35.11
481.59	46.81
481.77	65.54
481.95	23.41
482.13	65.54
482.31	81.92
482.49	32.77
482.67	44.47
482.85	156.82
483.03	93.62
483.21	95.96
483.39	56.17
483.57	81.92
483.74	16.38
483.92	105.32
484.10	81.92
484.28	110.01
484.46	63.19
484.64	91.28
484.82	84.26
485.00	70.22
485.18	100.64
485.35	88.94
485.53	37.45
485.71	72.56
485.89	9.36
486.07	70.22
486.25	70.22
486.43	112.35
486.61	121.71
486.78	42.13
486.96	102.98
487.14	60.85
487.32	98.30
487.50	102.98
487.68	102.98
487.85	65.54
488.03	145.11
488.21	0.00
488.39	37.45
488.57	124.05
488.75	21.06
488.92	140.43
489.10	138.09
489.28	114.69
489.46	142.77
489.64	28.09
489.81	44.47
489.99	102.98
490.17	81.92
490.35	84.26
490.53	4.68
490.70	58.51
490.88	32.77
491.06	100.64
491.24	51.49
491.41	30.43
491.59	28.09
491.77	74.90
491.95	58.51
492.13	65.54
492.30	42.13
492.48	107.66
492.66	86.60
492.84	102.98
493.01	2.34
493.19	58.51
493.37	49.15
493.54	51.49
493.72	72.56
493.90	4.68
494.08	46.81
494.25	35.11
494.43	7.02
494.61	124.05
494.79	60.85
494.96	65.54
495.14	81.92
495.32	58.51
495.49	81.92
495.67	70.22
495.85	81.92
496.02	53.83
496.20	84.26
496.38	25.75
496.55	42.13
496.73	100.64
496.91	126.39
497.09	105.32
497.26	21.06
497.44	72.56
497.62	79.58
497.79	79.58
497.97	79.58
498.14	107.66
498.32	114.69
498.50	58.51
498.67	88.94
498.85	124.05
499.03	37.45
499.20	88.94
499.38	46.81
499.56	32.77
499.73	53.83
499.91	72.56
500.08	93.62
500.26	149.79
500.44	67.88
500.61	44.47
500.79	107.66
500.97	58.51
501.14	86.60
501.32	112.35
501.49	77.24
501.67	60.85
501.84	49.15
502.02	0.00
502.20	112.35
502.37	56.17
502.55	70.22
502.72	102.98
502.90	25.75
503.07	119.37
503.25	135.75
503.43	56.17
503.60	84.26
503.78	126.39
503.95	65.54
504.13	107.66
504.30	56.17
504.48	0.00
504.65	72.56
504.83	51.49
505.01	84.26
505.18	121.71
505.36	42.13
505.53	42.13
505.71	79.58
505.88	37.45
506.06	4.68
506.23	74.90
506.41	126.39
506.58	86.60
506.76	107.66
506.93	44.47
507.11	112.35
507.28	44.47
507.46	65.54
507.63	74.90
507.81	88.94
507.98	79.58
508.16	58.51
508.33	60.85
508.50	117.03
508.68	42.13
508.85	110.01
509.03	86.60
509.20	79.58
509.38	30.43
509.55	0.00
509.73	84.26
509.90	84.26
510.08	46.81
510.25	65.54
510.42	23.41
510.60	138.09
510.77	74.90
510.95	93.62
511.12	91.28
511.30	70.22
511.47	117.03
511.64	81.92
511.82	60.85
511.99	0.00
512.17	112.35
512.34	119.37
512.51	65.54
512.69	114.69
512.86	79.58
513.04	86.60
513.21	112.35
513.38	112.35
513.56	42.13
513.73	88.94
513.90	65.54
514.08	44.47
514.25	53.83
514.43	95.96
514.60	14.04
514.77	46.81
514.95	102.98
515.12	0.00
515.29	42.13
515.47	119.37
515.64	117.03
515.81	67.88
515.99	114.69
516.16	81.92
516.33	67.88
516.51	95.96
516.68	44.47
516.85	93.62
517.03	107.66
517.20	105.32
517.37	131.07
517.54	2.34
517.72	152.13
517.89	67.88
518.06	128.73
518.24	65.54
518.41	58.51
518.58	91.28
518.75	35.11
518.93	53.83
519.10	56.17
519.27	107.66
519.45	32.77
519.62	117.03
519.79	79.58
519.96	84.26
520.14	0.00
520.31	46.81
520.48	140.43
520.65	77.24
520.83	95.96
521.00	95.96
521.17	112.35
521.34	91.28
521.52	121.71
521.69	93.62
521.86	70.22
522.03	70.22
522.20	112.35
522.38	63.19
522.55	60.85
522.72	65.54
522.89	119.37
523.07	138.09
523.24	70.22
523.41	86.60
523.58	88.94
523.75	86.60
523.92	119.37
524.10	149.79
524.27	79.58
524.44	79.58
524.61	100.64
524.78	79.58
524.96	67.88
525.13	72.56
525.30	77.24
525.47	98.30
525.64	46.81
525.81	95.96
525.98	112.35
526.16	86.60
526.33	21.06
526.50	65.54
526.67	133.41
526.84	72.56
527.01	81.92
527.18	70.22
527.36	58.51
527.53	42.13
527.70	81.92
527.87	147.45
528.04	79.58
528.21	84.26
528.38	107.66
528.55	72.56
528.72	142.77
528.89	128.73
529.07	81.92
529.24	56.17
529.41	4.68
529.58	56.17
529.75	79.58
529.92	0.00
530.09	107.66
530.26	74.90
530.43	98.30
530.60	18.72
530.77	114.69
530.94	175.54
531.11	88.94
531.28	56.17
531.46	124.05
531.63	67.88
531.80	84.26
531.97	105.32
532.14	124.05
532.31	32.77
532.48	168.52
532.65	126.39
532.82	51.49
532.99	67.88
533.16	49.15
533.33	133.41
533.50	107.66
533.67	65.54
533.84	119.37
534.01	56.17
534.18	21.06
534.35	30.43
534.52	72.56
534.69	95.96
534.86	56.17
535.03	110.01
535.20	49.15
535.37	119.37
535.54	98.30
535.71	112.35
535.88	86.60
536.05	135.75
536.22	147.45
536.38	117.03
536.55	63.19
536.72	88.94
536.89	70.22
537.06	35.11
537.23	65.54
537.40	25.75
537.57	93.62
537.74	135.75
537.91	84.26
538.08	67.88
538.25	70.22
538.42	16.38
538.59	112.35
538.75	44.47
538.92	65.54
539.09	51.49
539.26	133.41
539.43	46.81
539.60	152.13
539.77	37.45
539.94	74.90
540.11	21.06
540.28	100.64
540.44	39.79
540.61	128.73
540.78	53.83
540.95	84.26
541.12	70.22
541.29	79.58
541.46	63.19
541.62	84.26
541.79	147.45
541.96	0.00
542.13	119.37
542.30	67.88
542.47	121.71
542.63	93.62
542.80	105.32
542.97	77.24
543.14	88.94
543.31	100.64
543.48	63.19
543.64	84.26
543.81	93.62
543.98	105.32
544.15	110.01
544.32	42.13
544.48	121.71
544.65	168.52
544.82	35.11
544.99	102.98
545.16	53.83
545.32	86.60
545.49	74.90
545.66	39.79
545.83	177.88
546.00	86.60
546.16	42.13
546.33	46.81
546.50	88.94
546.67	100.64
546.83	107.66
547.00	53.83
547.17	37.45
547.34	21.06
547.50	105.32
547.67	35.11
547.84	28.09
548.00	147.45
548.17	107.66
548.34	81.92
548.51	117.03
548.67	86.60
548.84	63.19
549.01	91.28
549.18	112.35
549.34	110.01
549.51	105.32
549.68	117.03
549.84	74.90
550.01	121.71
550.18	119.37
550.34	95.96
550.51	25.75
550.68	126.39
550.84	60.85
551.01	110.01
551.18	95.96
551.34	60.85
551.51	93.62
551.68	67.88
551.84	84.26
552.01	98.30
552.18	60.85
552.34	131.07
552.51	117.03
552.68	110.01
552.84	138.09
553.01	91.28
553.18	25.75
553.34	16.38
553.51	91.28
553.67	37.45
553.84	42.13
554.01	42.13
554.17	74.90
554.34	170.86
554.51	110.01
554.67	30.43
554.84	39.79
555.00	46.81
555.17	84.26
555.33	117.03
555.50	72.56
555.67	79.58
555.83	60.85
556.00	51.49
556.16	147.45
556.33	84.26
556.50	112.35
556.66	93.62
556.83	53.83
556.99	63.19
557.16	30.43
557.32	72.56
557.49	100.64
557.65	133.41
557.82	39.79
557.98	152.13
558.15	18.72
558.32	79.58
558.48	189.58
558.65	63.19
558.81	86.60
558.98	91.28
559.14	91.28
559.31	140.43
559.47	138.09
559.64	117.03
559.80	49.15
559.97	44.47
560.13	44.47
560.30	79.58
560.46	11.70
560.63	65.54
560.79	35.11
560.96	79.58
561.12	105.32
561.29	70.22
561.45	56.17
561.61	95.96
561.78	175.54
561.94	98.30
562.11	105.32
562.27	11.70
562.44	65.54
562.60	65.54
562.77	81.92
562.93	74.90
563.10	49.15
563.26	42.13
563.42	86.60
563.59	81.92
563.75	93.62
563.92	107.66
564.08	44.47
564.24	58.51
564.41	58.51
564.57	28.09
564.74	35.11
564.90	49.15
565.07	107.66
565.23	147.45
565.39	70.22
565.56	95.96
565.72	112.35
565.88	102.98
566.05	51.49
566.21	88.94
566.38	110.01
566.54	117.03
566.70	112.35
566.87	32.77
567.03	70.22
567.19	88.94
567.36	100.64
567.52	51.49
567.68	72.56
567.85	79.58
568.01	60.85
568.17	53.83
568.34	63.19
568.50	74.90
568.66	93.62
568.83	79.58
568.99	77.24
569.15	88.94
569.32	53.83
569.48	86.60
569.64	37.45
569.81	65.54
569.97	112.35
570.13	60.85
570.30	112.35
570.46	74.90
570.62	133.41
570.78	14.04
570.95	37.45
571.11	98.30
571.27	32.77
571.43	53.83
571.60	112.35
571.76	70.22
571.92	70.22
572.09	142.77
572.25	74.90
572.41	77.24
572.57	0.00
572.74	121.71
572.90	93.62
573.06	67.88
573.22	28.09
573.38	77.24
573.55	88.94
573.71	9.36
573.87	93.62
574.03	53.83
574.20	121.71
574.36	128.73
574.52	46.81
574.68	30.43
574.84	117.03
575.01	70.22
575.17	37.45
575.33	67.88
575.49	121.71
575.65	88.94
575.82	84.26
575.98	46.81
576.14	18.72
576.30	30.43
576.46	86.60
576.62	60.85
576.79	81.92
576.95	91.28
577.11	124.05
577.27	86.60
577.43	147.45
577.59	133.41
577.75	32.77
577.92	81.92
578.08	100.64
578.24	100.64
578.40	65.54
578.56	77.24
578.72	28.09
578.88	46.81
579.04	0.00
579.21	67.88
579.37	81.92
579.53	21.06
579.69	117.03
579.85	35.11
580.01	2.34
580.17	63.19
580.33	51.49
580.49	107.66
580.65	67.88
580.82	95.96
580.98	46.81
581.14	77.24
581.30	72.56
581.46	56.17
581.62	9.36
581.78	30.43
581.94	119.37
582.10	105.32
582.26	44.47
582.42	0.00
582.58	58.51
582.74	21.06
582.90	114.69
583.06	42.13
583.22	42.13
583.38	114.69
583.54	70.22
583.70	49.15
583.86	28.09
584.02	56.17
584.18	56.17
584.34	95.96
584.50	135.75
584.66	98.30
584.82	65.54
584.98	88.94
585.14	0.00
585.30	42.13
585.46	184.90
585.62	37.45
585.78	58.51
585.94	107.66
586.10	37.45
586.26	56.17
586.42	49.15
586.58	140.43
586.74	86.60
586.90	67.88
587.06	28.09
587.22	16.38
587.38	84.26
587.54	9.36
587.70	58.51
587.86	23.41
588.02	30.43
588.18	42.13
588.34	58.51
588.49	58.51
588.65	95.96
588.81	79.58
588.97	51.49
589.13	86.60
589.29	4.68
589.45	65.54
589.61	67.88
589.77	23.41
589.93	39.79
590.08	44.47
590.24	117.03
590.40	16.38
590.56	88.94
590.72	51.49
590.88	67.88
591.04	119.37
591.20	60.85
591.35	58.51
591.51	119.37
591.67	114.69
591.83	124.05
591.99	65.54
592.15	86.60
592.31	51.49
592.46	79.58
592.62	44.47
592.78	72.56
592.94	58.51
593.10	142.77
593.26	23.41
593.41	70.22
593.57	11.70
593.73	63.19
593.89	117.03
594.05	67.88
594.20	63.19
594.36	56.17
594.52	4.68
594.68	58.51
594.84	56.17
594.99	46.81
595.15	105.32
595.31	30.43
595.47	14.04
595.62	18.72
595.78	67.88
595.94	100.64
596.10	117.03
596.25	77.24
596.41	114.69
596.57	79.58
596.73	58.51
596.88	140.43
597.04	44.47
597.20	100.64
597.36	11.70
597.51	95.96
597.67	0.00
597.83	0.00
597.99	72.56
598.14	121.71
598.30	86.60
598.46	81.92
598.61	70.22
598.77	131.07
598.93	98.30
599.09	72.56
599.24	74.90
599.40	93.62
599.56	72.56
599.71	49.15
599.87	79.58
600.03	67.88
600.18	79.58
600.34	126.39
600.50	28.09
600.65	114.69
600.81	117.03
600.97	72.56
601.12	107.66
601.28	79.58
601.44	23.41
601.59	37.45
601.75	121.71
601.91	58.51
602.06	105.32
602.22	46.81
602.37	39.79
602.53	88.94
602.69	58.51
602.84	49.15
603.00	95.96
603.16	91.28
603.31	51.49
603.47	42.13
603.62	35.11
603.78	131.07
603.94	168.52
604.09	154.48
604.25	25.75
604.40	74.90
604.56	49.15
604.71	35.11
604.87	121.71
605.03	63.19
605.18	18.72
605.34	105.32
605.49	58.51
605.65	84.26
605.80	91.28
605.96	105.32
606.12	79.58
606.27	37.45
606.43	9.36
606.58	91.28
606.74	7.02
606.89	46.81
607.05	119.37
607.20	117.03
607.36	74.90
607.51	70.22
607.67	9.36
607.82	105.32
607.98	93.62
608.13	77.24
608.29	0.00
608.44	49.15
608.60	81.92
608.75	86.60
608.91	93.62
609.06	46.81
609.22	81.92
609.37	86.60
609.53	63.19
609.68	102.98
609.84	70.22
609.99	58.51
610.15	112.35
610.30	77.24
610.46	98.30
610.61	32.77
610.76	56.17
610.92	93.62
611.07	86.60
611.23	102.98
611.38	56.17
611.54	65.54
611.69	140.43
611.84	0.00
612.00	138.09
612.15	42.13
612.31	91.28
612.46	51.49
612.62	63.19
612.77	58.51
612.92	44.47
613.08	74.90
613.23	77.24
613.39	100.64
613.54	67.88
613.69	46.81
613.85	56.17
614.00	30.43
614.15	70.22
614.31	79.58
614.46	65.54
614.62	32.77
614.77	88.94
614.92	117.03
615.08	63.19
615.23	9.36
615.38	4.68
615.54	35.11
615.69	56.17
615.84	25.75
616.00	11.70
616.15	107.66
616.30	42.13
616.46	142.77
616.61	88.94
616.76	30.43
616.92	44.47
617.07	70.22
617.22	114.69
617.37	102.98
617.53	91.28
617.68	140.43
617.83	65.54
617.99	23.41
618.14	100.64
618.29	60.85
618.45	39.79
618.60	88.94
618.75	70.22
618.90	91.28
619.06	46.81
619.21	74.90
619.36	32.77
619.51	11.70
619.67	60.85
619.82	32.77
619.97	93.62
620.12	25.75
620.28	98.30
620.43	72.56
620.58	110.01
620.73	81.92
620.89	74.90
621.04	128.73
621.19	98.30
621.34	95.96
621.49	56.17
621.65	112.35
621.80	70.22
621.95	70.22
622.10	51.49
622.25	58.51
622.41	107.66
622.56	112.35
622.71	30.43
622.86	147.45
623.01	56.17
623.16	42.13
623.32	0.00
623.47	39.79
623.62	42.13
623.77	11.70
623.92	77.24
624.07	95.96
624.23	79.58
624.38	121.71
624.53	53.83
624.68	86.60
624.83	14.04
624.98	135.75
625.13	117.03
625.29	67.88
625.44	25.75
625.59	60.85
625.74	56.17
625.89	65.54
626.04	16.38
626.19	67.88
626.34	0.00
626.49	58.51
626.65	42.13
626.80	35.11
626.95	93.62
627.10	44.47
627.25	72.56
627.40	11.70
627.55	91.28
627.70	2.34
627.85	126.39
628.00	4.68
628.15	44.47
628.30	46.81
628.45	60.85
628.60	63.19
628.76	16.38
628.91	65.54
629.06	44.47
629.21	81.92
629.36	114.69
629.51	49.15
629.66	23.41
629.81	81.92
629.96	0.00
630.11	65.54
630.26	74.90
630.41	39.79
630.56	98.30
630.71	30.43
630.86	0.00
631.01	9.36
631.16	0.00
631.31	79.58
631.46	0.00
631.61	42.13
631.76	102.98
631.91	28.09
632.06	46.81
632.21	32.77
632.36	44.47
632.51	37.45
632.66	51.49
632.81	60.85
632.96	81.92
633.10	28.09
633.25	93.62
633.40	107.66
633.55	58.51
633.70	4.68
633.85	63.19
634.00	46.81
634.15	93.62
634.30	63.19
634.45	0.00
634.60	18.72
634.75	28.09
634.90	84.26
635.05	53.83
635.19	74.90
635.34	72.56
635.49	9.36
635.64	84.26
635.79	126.39
635.94	105.32
636.09	126.39
636.24	161.50
636.39	98.30
636.53	91.28
636.68	102.98
636.83	121.71
636.98	21.06
637.13	0.00
637.28	189.58
637.43	86.60
637.57	0.00
637.72	65.54
637.87	28.09
638.02	0.00
638.17	140.43
638.32	0.00
638.46	18.72
638.61	119.37
638.76	105.32
638.91	88.94
639.06	72.56
639.20	65.54
639.35	131.07
639.50	81.92
639.65	37.45
639.80	79.58
639.94	7.02
640.09	23.41
640.24	128.73
640.39	77.24
640.54	67.88
640.68	86.60
640.83	53.83
640.98	70.22
641.13	25.75
641.27	110.01
641.42	42.13
641.57	74.90
641.72	98.30
641.86	81.92
642.01	51.49
642.16	107.66
642.31	0.00
642.45	44.47
642.60	60.85
642.75	110.01
642.90	0.00
643.04	11.70
643.19	30.43
643.34	46.81
643.48	9.36
643.63	81.92
643.78	28.09
643.93	93.62
644.07	42.13
644.22	30.43
644.37	88.94
644.51	79.58
644.66	63.19
644.81	14.04
644.95	30.43
645.10	51.49
645.25	58.51
645.39	65.54
645.54	112.35
645.69	121.71
645.83	32.77
645.98	58.51
646.13	23.41
646.27	9.36
646.42	7.02
646.57	60.85
646.71	51.49
646.86	28.09
647.00	16.38
647.15	65.54
647.30	4.68
647.44	0.00
647.59	110.01
647.74	67.88
647.88	67.88
648.03	46.81
648.17	60.85
648.32	46.81
648.47	25.75
648.61	112.35
648.76	95.96
648.90	4.68
649.05	9.36
649.20	100.64
649.34	65.54
649.49	72.56
649.63	11.70
649.78	53.83
649.92	65.54
650.07	28.09
650.21	105.32
650.36	84.26
650.51	84.26
650.65	51.49
650.80	37.45
650.94	39.79
651.09	35.11
651.23	37.45
651.38	28.09
651.52	49.15
651.67	0.00
651.81	49.15
651.96	102.98
652.10	67.88
652.25	49.15
652.39	110.01
652.54	30.43
652.68	67.88
652.83	30.43
652.97	56.17
653.12	44.47
653.26	65.54
653.41	4.68
653.55	7.02
653.70	56.17
653.84	0.00
653.99	0.00
654.13	46.81
654.27	7.02
654.42	58.51
654.56	0.00
654.71	86.60
654.85	23.41
655.00	67.88
655.14	67.88
655.29	0.00
655.43	21.06
655.57	65.54
655.72	0.00
655.86	21.06
656.01	46.81
656.15	0.00
656.30	16.38
656.44	70.22
656.58	63.19
656.73	60.85
656.87	18.72
657.01	7.02
657.16	32.77
657.30	0.00
657.45	53.83
657.59	32.77
657.73	51.49
657.88	32.77
658.02	70.22
658.16	81.92
658.31	21.06
658.45	60.85
658.60	49.15
658.74	42.13
658.88	114.69
659.03	72.56
659.17	72.56
659.31	0.00
659.46	30.43
659.60	11.70
659.74	44.47
659.89	63.19
660.03	16.38
660.17	138.09
660.32	88.94
660.46	98.30
660.60	21.06
660.74	107.66
660.89	28.09
661.03	35.11
661.17	81.92
661.32	49.15
661.46	28.09
661.60	0.00
661.74	0.00
661.89	25.75
662.03	44.47
662.17	9.36
662.31	39.79
662.46	56.17
662.60	74.90
662.74	84.26
662.88	88.94
663.03	51.49
663.17	67.88
663.31	30.43
663.45	65.54
663.60	53.83
663.74	58.51
663.88	46.81
664.02	63.19
664.17	86.60
664.31	70.22
664.45	35.11
664.59	88.94
664.73	30.43
664.88	28.09
665.02	16.38
665.16	60.85
665.30	0.00
665.44	53.83
665.59	9.36
665.73	0.00
665.87	2.34
666.01	107.66
666.15	46.81
666.29	0.00
666.44	72.56
666.58	0.00
666.72	95.96
666.86	95.96
667.00	77.24
667.14	4.68
667.28	74.90
667.43	60.85
667.57	100.64
667.71	77.24
667.85	56.17
667.99	60.85
668.13	23.41
668.27	51.49
668.41	79.58
668.56	49.15
668.70	39.79
668.84	0.00
668.98	0.00
669.12	0.00
669.26	56.17
669.40	44.47
669.54	44.47
669.68	77.24
669.82	46.81
669.96	0.00
670.10	39.79
670.25	25.75
670.39	28.09
670.53	117.03
670.67	32.77
670.81	51.49
670.95	32.77
671.09	60.85
671.23	65.54
671.37	42.13
671.51	28.09
671.65	84.26
671.79	35.11
671.93	14.04
672.07	39.79
672.21	0.00
672.35	81.92
672.49	93.62
672.63	44.47
672.77	44.47
672.91	44.47
673.05	67.88
673.19	70.22
673.33	65.54
673.47	56.17
673.61	39.79
673.75	7.02
673.89	7.02
674.03	65.54
674.17	25.75
674.31	67.88
674.45	39.79
674.59	74.90
674.73	21.06
674.87	70.22
675.01	86.60
675.15	65.54
675.29	11.70
675.43	23.41
675.56	9.36
675.70	2.34
675.84	30.43
675.98	44.47
676.12	21.06
676.26	0.00
676.40	60.85
676.54	67.88
676.68	70.22
676.82	18.72
676.96	72.56
677.10	105.32
677.23	0.00
677.37	0.00
677.51	79.58
677.65	60.85
677.79	67.88
677.93	79.58
678.07	93.62
678.21	0.00
678.34	11.70
678.48	37.45
678.62	65.54
678.76	46.81
678.90	49.15
679.04	23.41
679.18	65.54
679.31	93.62
679.45	0.00
679.59	0.00
679.73	28.09
679.87	88.94
680.00	0.00
680.14	21.06
680.28	7.02
680.42	65.54
680.56	18.72
680.70	119.37
680.83	84.26
680.97	107.66
681.11	0.00
681.25	32.77
681.39	28.09
681.52	0.00
681.66	7.02
681.80	46.81
681.94	72.56
682.07	44.47
682.21	65.54
682.35	0.00
682.49	39.79
682.62	44.47
682.76	28.09
682.90	107.66
683.04	65.54
683.17	0.00
683.31	11.70
683.45	28.09
683.59	14.04
683.72	32.77
683.86	60.85
684.00	49.15
684.13	11.70
684.27	56.17
684.41	0.00
684.55	100.64
684.68	16.38
684.82	16.38
684.96	44.47
685.09	56.17
685.23	46.81
685.37	46.81
685.50	63.19
685.64	114.69
685.78	25.75
685.91	18.72
686.05	0.00
686.19	32.77
686.32	23.41
686.46	86.60
686.60	0.00
686.73	53.83
686.87	37.45
687.01	23.41
687.14	14.04
687.28	2.34
687.42	16.38
687.55	23.41
687.69	72.56
687.82	0.00
687.96	0.00
688.10	79.58
688.23	91.28
688.37	60.85
688.50	0.00
688.64	84.26
688.78	37.45
688.91	114.69
689.05	44.47
689.18	2.34
689.32	77.24
689.46	84.26
689.59	166.18
689.73	56.17
689.86	30.43
690.00	63.19
690.13	0.00
690.27	0.00
690.41	63.19
690.54	0.00
690.68	39.79
690.81	0.00
690.95	60.85
691.08	11.70
691.22	67.88
691.35	91.28
691.49	42.13
691.62	39.79
691.76	14.04
691.89	110.01
692.03	28.09
692.16	39.79
692.30	60.85
692.43	44.47
692.57	30.43
692.70	35.11
692.84	4.68
692.97	14.04
693.11	16.38
693.24	39.79
693.38	81.92
693.51	30.43
693.65	56.17
693.78	21.06
693.92	0.00
694.05	7.02
694.19	44.47
694.32	18.72
694.45	0.00
694.59	51.49
694.72	91.28
694.86	18.72
694.99	42.13
695.13	0.00
695.26	65.54
695.39	0.00
695.53	128.73
695.66	0.00
695.80	14.04
695.93	25.75
696.07	0.00
696.20	9.36
696.33	25.75
696.47	0.00
696.60	70.22
696.73	39.79
696.87	63.19
697.00	84.26
697.14	81.92
697.27	0.00
697.40	4.68
697.54	51.49
697.67	25.75
697.80	0.00
697.94	72.56
698.07	49.15
698.21	74.90
698.34	9.36
698.47	46.81
698.61	72.56
698.74	21.06
698.87	37.45
699.01	88.94
699.14	35.11
699.27	0.00
699.40	58.51
699.54	74.90
699.67	63.19
699.80	23.41
699.94	98.30
700.07	74.90
700.20	14.04
700.34	65.54
700.47	18.72
700.60	37.45
700.73	28.09
700.87	51.49
701.00	74.90
701.13	0.00
701.26	0.00
701.40	23.41
701.53	0.00
701.66	0.00
701.79	67.88
701.93	44.47
702.06	65.54
702.19	11.70
702.32	7.02
702.46	25.75
702.59	0.00
702.72	49.15
702.85	42.13
702.99	25.75
703.12	51.49
703.25	0.00
703.38	0.00
703.51	100.64
703.65	16.38
703.78	51.49
703.91	51.49
704.04	0.00
704.17	91.28
704.31	0.00
704.44	18.72
704.57	4.68
704.70	28.09
704.83	0.00
704.96	25.75
705.10	0.00
705.23	30.43
>>>>>End Processed Spectral Data<<<<<
