SpectraSuite Data File
++++++++++++++++++++++++++++++++++++
Date: Tue Oct 01 18:25:11 GMT-05:00 2013
User: stostad
Dark Spectrum Present: No
Reference Spectrum Present: No
Number of Sampled Component Spectra: 1
Spectrometers: USB2+H05261
Integration Time (usec): 100000 (USB2+H05261)
Spectra Averaged: 1 (USB2+H05261)
Boxcar Smoothing: 0 (USB2+H05261)
Correct for Electrical Dark: No (USB2+H05261)
Strobe/Lamp Enabled: No (USB2+H05261)
Correct for Detector Non-linearity: No (USB2+H05261)
Correct for Stray Light: No (USB2+H05261)
Number of Pixels in Processed Spectrum: 2048
>>>>>Begin Processed Spectral Data<<<<<
365.73	0.00
365.92	0.00
366.12	0.00
366.32	2.34
366.52	0.00
366.72	60.85
366.91	0.00
367.11	0.00
367.31	0.00
367.51	0.00
367.70	0.00
367.90	0.00
368.10	0.00
368.30	0.00
368.49	0.00
368.69	0.00
368.89	0.00
369.09	0.00
369.28	0.00
369.48	0.00
369.68	105.32
369.87	23.41
370.07	0.00
370.27	77.24
370.47	37.45
370.66	23.41
370.86	95.96
371.06	114.69
371.25	86.60
371.45	84.26
371.65	126.39
371.84	133.41
372.04	128.73
372.24	70.22
372.44	84.26
372.63	88.94
372.83	177.88
373.03	107.66
373.22	74.90
373.42	205.97
373.62	187.24
373.81	156.82
374.01	140.43
374.21	159.16
374.40	170.86
374.60	201.29
374.79	147.45
374.99	168.52
375.19	198.95
375.38	168.52
375.58	138.09
375.78	229.37
375.97	175.54
376.17	187.24
376.37	119.37
376.56	145.11
376.76	72.56
376.95	149.79
377.15	145.11
377.35	100.64
377.54	126.39
377.74	121.71
377.93	131.07
378.13	135.75
378.33	156.82
378.52	124.05
378.72	170.86
378.91	133.41
379.11	159.16
379.31	142.77
379.50	102.98
379.70	198.95
379.89	182.56
380.09	126.39
380.28	203.63
380.48	140.43
380.68	117.03
380.87	77.24
381.07	100.64
381.26	208.31
381.46	58.51
381.65	175.54
381.85	170.86
382.04	138.09
382.24	145.11
382.43	124.05
382.63	124.05
382.83	166.18
383.02	142.77
383.22	98.30
383.41	91.28
383.61	117.03
383.80	194.26
384.00	138.09
384.19	74.90
384.39	126.39
384.58	180.22
384.78	170.86
384.97	180.22
385.17	124.05
385.36	133.41
385.56	145.11
385.75	168.52
385.95	147.45
386.14	88.94
386.34	112.35
386.53	114.69
386.72	49.15
386.92	117.03
387.11	110.01
387.31	126.39
387.50	133.41
387.70	110.01
387.89	88.94
388.09	154.48
388.28	177.88
388.48	74.90
388.67	135.75
388.86	161.50
389.06	72.56
389.25	175.54
389.45	154.48
389.64	154.48
389.84	168.52
390.03	107.66
390.22	201.29
390.42	140.43
390.61	182.56
390.81	224.69
391.00	163.84
391.19	105.32
391.39	142.77
391.58	145.11
391.78	135.75
391.97	135.75
392.16	133.41
392.36	210.65
392.55	110.01
392.75	210.65
392.94	91.28
393.13	198.95
393.33	44.47
393.52	152.13
393.71	81.92
393.91	154.48
394.10	119.37
394.29	152.13
394.49	110.01
394.68	156.82
394.88	91.28
395.07	161.50
395.26	23.41
395.46	145.11
395.65	138.09
395.84	88.94
396.04	191.92
396.23	124.05
396.42	135.75
396.62	114.69
396.81	203.63
397.00	166.18
397.19	88.94
397.39	236.39
397.58	177.88
397.77	142.77
397.97	98.30
398.16	119.37
398.35	107.66
398.55	105.32
398.74	88.94
398.93	142.77
399.12	86.60
399.32	133.41
399.51	145.11
399.70	86.60
399.90	126.39
400.09	133.41
400.28	152.13
400.47	107.66
400.67	163.84
400.86	102.98
401.05	107.66
401.24	152.13
401.44	81.92
401.63	163.84
401.82	84.26
402.01	100.64
402.21	72.56
402.40	105.32
402.59	93.62
402.78	112.35
402.97	133.41
403.17	131.07
403.36	100.64
403.55	189.58
403.74	168.52
403.93	191.92
404.13	234.05
404.32	177.88
404.51	117.03
404.70	46.81
404.89	91.28
405.09	168.52
405.28	140.43
405.47	131.07
405.66	170.86
405.85	114.69
406.05	81.92
406.24	147.45
406.43	112.35
406.62	163.84
406.81	231.71
407.00	133.41
407.20	98.30
407.39	140.43
407.58	98.30
407.77	166.18
407.96	194.26
408.15	124.05
408.34	194.26
408.54	173.20
408.73	100.64
408.92	77.24
409.11	124.05
409.30	131.07
409.49	107.66
409.68	84.26
409.87	142.77
410.07	84.26
410.26	117.03
410.45	102.98
410.64	135.75
410.83	154.48
411.02	201.29
411.21	194.26
411.40	140.43
411.59	100.64
411.78	25.75
411.98	110.01
412.17	110.01
412.36	51.49
412.55	81.92
412.74	191.92
412.93	231.71
413.12	131.07
413.31	147.45
413.50	102.98
413.69	72.56
413.88	175.54
414.07	177.88
414.26	65.54
414.45	98.30
414.64	145.11
414.83	114.69
415.02	196.60
415.22	177.88
415.41	196.60
415.60	149.79
415.79	147.45
415.98	95.96
416.17	126.39
416.36	74.90
416.55	112.35
416.74	102.98
416.93	138.09
417.12	117.03
417.31	149.79
417.50	46.81
417.69	156.82
417.88	117.03
418.07	110.01
418.26	182.56
418.45	177.88
418.64	320.65
418.83	177.88
419.02	184.90
419.21	88.94
419.39	135.75
419.58	208.31
419.77	196.60
419.96	161.50
420.15	107.66
420.34	72.56
420.53	124.05
420.72	128.73
420.91	175.54
421.10	119.37
421.29	98.30
421.48	187.24
421.67	177.88
421.86	140.43
422.05	177.88
422.24	140.43
422.43	187.24
422.61	145.11
422.80	114.69
422.99	147.45
423.18	91.28
423.37	191.92
423.56	126.39
423.75	93.62
423.94	67.88
424.13	166.18
424.32	145.11
424.50	135.75
424.69	184.90
424.88	107.66
425.07	175.54
425.26	161.50
425.45	149.79
425.64	262.14
425.83	201.29
426.01	241.08
426.20	114.69
426.39	140.43
426.58	168.52
426.77	86.60
426.96	112.35
427.15	147.45
427.33	124.05
427.52	124.05
427.71	65.54
427.90	177.88
428.09	161.50
428.28	128.73
428.46	133.41
428.65	121.71
428.84	142.77
429.03	168.52
429.22	194.26
429.40	117.03
429.59	100.64
429.78	173.20
429.97	93.62
430.16	173.20
430.34	142.77
430.53	133.41
430.72	135.75
430.91	117.03
431.10	173.20
431.28	196.60
431.47	156.82
431.66	170.86
431.85	39.79
432.03	140.43
432.22	280.86
432.41	135.75
432.60	124.05
432.79	154.48
432.97	257.46
433.16	238.73
433.35	198.95
433.54	180.22
433.72	180.22
433.91	180.22
434.10	121.71
434.28	140.43
434.47	156.82
434.66	133.41
434.85	145.11
435.03	140.43
435.22	145.11
435.41	227.03
435.59	217.67
435.78	114.69
435.97	105.32
436.16	163.84
436.34	149.79
436.53	128.73
436.72	112.35
436.90	86.60
437.09	173.20
437.28	140.43
437.46	86.60
437.65	173.20
437.84	100.64
438.02	168.52
438.21	189.58
438.40	140.43
438.58	67.88
438.77	168.52
438.96	126.39
439.14	156.82
439.33	112.35
439.52	147.45
439.70	126.39
439.89	184.90
440.08	121.71
440.26	117.03
440.45	142.77
440.63	119.37
440.82	56.17
441.01	65.54
441.19	70.22
441.38	131.07
441.57	91.28
441.75	163.84
441.94	170.86
442.12	131.07
442.31	161.50
442.50	161.50
442.68	107.66
442.87	145.11
443.05	161.50
443.24	154.48
443.43	149.79
443.61	161.50
443.80	112.35
443.98	163.84
444.17	124.05
444.35	149.79
444.54	140.43
444.73	147.45
444.91	121.71
445.10	163.84
445.28	112.35
445.47	58.51
445.65	161.50
445.84	126.39
446.02	175.54
446.21	95.96
446.39	102.98
446.58	166.18
446.77	184.90
446.95	30.43
447.14	98.30
447.32	173.20
447.51	70.22
447.69	187.24
447.88	180.22
448.06	184.90
448.25	135.75
448.43	166.18
448.62	128.73
448.80	156.82
448.99	161.50
449.17	126.39
449.36	147.45
449.54	133.41
449.73	142.77
449.91	147.45
450.10	147.45
450.28	250.44
450.46	175.54
450.65	121.71
450.83	170.86
451.02	182.56
451.20	177.88
451.39	51.49
451.57	175.54
451.76	98.30
451.94	145.11
452.13	100.64
452.31	208.31
452.49	72.56
452.68	173.20
452.86	93.62
453.05	194.26
453.23	102.98
453.42	135.75
453.60	112.35
453.78	142.77
453.97	201.29
454.15	138.09
454.34	110.01
454.52	156.82
454.70	196.60
454.89	184.90
455.07	149.79
455.26	135.75
455.44	112.35
455.62	121.71
455.81	156.82
455.99	117.03
456.17	180.22
456.36	93.62
456.54	119.37
456.73	95.96
456.91	102.98
457.09	131.07
457.28	173.20
457.46	112.35
457.64	93.62
457.83	88.94
458.01	156.82
458.19	131.07
458.38	91.28
458.56	138.09
458.74	88.94
458.93	98.30
459.11	114.69
459.29	105.32
459.48	112.35
459.66	208.31
459.84	203.63
460.03	170.86
460.21	161.50
460.39	187.24
460.57	184.90
460.76	222.35
460.94	168.52
461.12	180.22
461.31	241.08
461.49	140.43
461.67	173.20
461.85	91.28
462.04	138.09
462.22	543.00
462.40	133.41
462.59	234.05
462.77	51.49
462.95	135.75
463.13	161.50
463.32	138.09
463.50	205.97
463.68	224.69
463.86	212.99
464.05	91.28
464.23	142.77
464.41	112.35
464.59	175.54
464.78	168.52
464.96	72.56
465.14	149.79
465.32	56.17
465.50	86.60
465.69	133.41
465.87	81.92
466.05	187.24
466.23	102.98
466.41	102.98
466.60	112.35
466.78	212.99
466.96	175.54
467.14	154.48
467.32	100.64
467.51	88.94
467.69	173.20
467.87	203.63
468.05	203.63
468.23	128.73
468.41	177.88
468.60	117.03
468.78	107.66
468.96	191.92
469.14	112.35
469.32	126.39
469.50	145.11
469.69	152.13
469.87	170.86
470.05	84.26
470.23	194.26
470.41	138.09
470.59	112.35
470.77	191.92
470.95	112.35
471.14	194.26
471.32	184.90
471.50	182.56
471.68	140.43
471.86	203.63
472.04	84.26
472.22	170.86
472.40	84.26
472.58	81.92
472.77	107.66
472.95	208.31
473.13	241.08
473.31	173.20
473.49	138.09
473.67	166.18
473.85	154.48
474.03	168.52
474.21	133.41
474.39	187.24
474.57	168.52
474.75	166.18
474.93	84.26
475.12	100.64
475.30	196.60
475.48	138.09
475.66	168.52
475.84	184.90
476.02	135.75
476.20	191.92
476.38	163.84
476.56	205.97
476.74	149.79
476.92	117.03
477.10	161.50
477.28	170.86
477.46	35.11
477.64	142.77
477.82	198.95
478.00	79.58
478.18	60.85
478.36	102.98
478.54	187.24
478.72	112.35
478.90	114.69
479.08	93.62
479.26	121.71
479.44	142.77
479.62	114.69
479.80	121.71
479.98	107.66
480.16	77.24
480.34	138.09
480.52	140.43
480.70	191.92
480.88	102.98
481.06	0.00
481.24	175.54
481.41	107.66
481.59	140.43
481.77	77.24
481.95	128.73
482.13	210.65
482.31	203.63
482.49	138.09
482.67	114.69
482.85	187.24
483.03	98.30
483.21	121.71
483.39	77.24
483.57	149.79
483.74	198.95
483.92	79.58
484.10	138.09
484.28	161.50
484.46	147.45
484.64	152.13
484.82	119.37
485.00	163.84
485.18	119.37
485.35	98.30
485.53	140.43
485.71	187.24
485.89	72.56
486.07	145.11
486.25	184.90
486.43	196.60
486.61	100.64
486.78	110.01
486.96	119.37
487.14	124.05
487.32	110.01
487.50	107.66
487.68	133.41
487.85	161.50
488.03	147.45
488.21	170.86
488.39	91.28
488.57	154.48
488.75	58.51
488.92	259.80
489.10	161.50
489.28	205.97
489.46	124.05
489.64	175.54
489.81	128.73
489.99	149.79
490.17	128.73
490.35	196.60
490.53	159.16
490.70	77.24
490.88	128.73
491.06	110.01
491.24	102.98
491.41	203.63
491.59	201.29
491.77	170.86
491.95	93.62
492.13	189.58
492.30	180.22
492.48	152.13
492.66	166.18
492.84	81.92
493.01	154.48
493.19	152.13
493.37	175.54
493.54	170.86
493.72	138.09
493.90	98.30
494.08	210.65
494.25	114.69
494.43	140.43
494.61	91.28
494.79	149.79
494.96	112.35
495.14	124.05
495.32	142.77
495.49	154.48
495.67	117.03
495.85	131.07
496.02	187.24
496.20	180.22
496.38	184.90
496.55	131.07
496.73	124.05
496.91	145.11
497.09	140.43
497.26	138.09
497.44	84.26
497.62	133.41
497.79	159.16
497.97	161.50
498.14	149.79
498.32	131.07
498.50	117.03
498.67	161.50
498.85	81.92
499.03	100.64
499.20	63.19
499.38	112.35
499.56	177.88
499.73	105.32
499.91	105.32
500.08	100.64
500.26	163.84
500.44	121.71
500.61	196.60
500.79	147.45
500.97	168.52
501.14	196.60
501.32	205.97
501.49	217.67
501.67	180.22
501.84	161.50
502.02	161.50
502.20	191.92
502.37	147.45
502.55	46.81
502.72	119.37
502.90	70.22
503.07	159.16
503.25	166.18
503.43	154.48
503.60	140.43
503.78	147.45
503.95	79.58
504.13	112.35
504.30	79.58
504.48	191.92
504.65	126.39
504.83	166.18
505.01	117.03
505.18	156.82
505.36	177.88
505.53	189.58
505.71	140.43
505.88	182.56
506.06	100.64
506.23	145.11
506.41	93.62
506.58	138.09
506.76	184.90
506.93	114.69
507.11	163.84
507.28	77.24
507.46	114.69
507.63	105.32
507.81	149.79
507.98	110.01
508.16	117.03
508.33	175.54
508.50	98.30
508.68	142.77
508.85	133.41
509.03	112.35
509.20	39.79
509.38	124.05
509.55	163.84
509.73	138.09
509.90	231.71
510.08	177.88
510.25	135.75
510.42	102.98
510.60	133.41
510.77	145.11
510.95	145.11
511.12	166.18
511.30	154.48
511.47	135.75
511.64	145.11
511.82	159.16
511.99	126.39
512.17	191.92
512.34	149.79
512.51	112.35
512.69	170.86
512.86	119.37
513.04	163.84
513.21	149.79
513.38	131.07
513.56	147.45
513.73	161.50
513.90	147.45
514.08	161.50
514.25	100.64
514.43	84.26
514.60	161.50
514.77	126.39
514.95	168.52
515.12	133.41
515.29	110.01
515.47	86.60
515.64	74.90
515.81	100.64
515.99	142.77
516.16	173.20
516.33	217.67
516.51	119.37
516.68	128.73
516.85	102.98
517.03	208.31
517.20	203.63
517.37	149.79
517.54	220.01
517.72	145.11
517.89	37.45
518.06	23.41
518.24	205.97
518.41	189.58
518.58	168.52
518.75	145.11
518.93	173.20
519.10	180.22
519.27	86.60
519.45	110.01
519.62	119.37
519.79	234.05
519.96	156.82
520.14	170.86
520.31	184.90
520.48	184.90
520.65	67.88
520.83	133.41
521.00	168.52
521.17	121.71
521.34	112.35
521.52	168.52
521.69	133.41
521.86	117.03
522.03	93.62
522.20	203.63
522.38	156.82
522.55	147.45
522.72	159.16
522.89	191.92
523.07	133.41
523.24	182.56
523.41	170.86
523.58	142.77
523.75	140.43
523.92	91.28
524.10	117.03
524.27	168.52
524.44	124.05
524.61	138.09
524.78	72.56
524.96	163.84
525.13	166.18
525.30	110.01
525.47	159.16
525.64	124.05
525.81	147.45
525.98	88.94
526.16	187.24
526.33	110.01
526.50	124.05
526.67	102.98
526.84	138.09
527.01	177.88
527.18	184.90
527.36	149.79
527.53	65.54
527.70	210.65
527.87	159.16
528.04	154.48
528.21	140.43
528.38	182.56
528.55	140.43
528.72	124.05
528.89	217.67
529.07	173.20
529.24	84.26
529.41	210.65
529.58	173.20
529.75	93.62
529.92	128.73
530.09	259.80
530.26	187.24
530.43	166.18
530.60	131.07
530.77	107.66
530.94	203.63
531.11	198.95
531.28	152.13
531.46	212.99
531.63	175.54
531.80	135.75
531.97	121.71
532.14	142.77
532.31	168.52
532.48	182.56
532.65	161.50
532.82	180.22
532.99	168.52
533.16	180.22
533.33	126.39
533.50	220.01
533.67	266.82
533.84	231.71
534.01	264.48
534.18	203.63
534.35	180.22
534.52	117.03
534.69	91.28
534.86	168.52
535.03	149.79
535.20	88.94
535.37	166.18
535.54	128.73
535.71	98.30
535.88	135.75
536.05	100.64
536.22	161.50
536.38	205.97
536.55	175.54
536.72	145.11
536.89	163.84
537.06	161.50
537.23	58.51
537.40	166.18
537.57	110.01
537.74	126.39
537.91	112.35
538.08	142.77
538.25	152.13
538.42	119.37
538.59	135.75
538.75	159.16
538.92	189.58
539.09	180.22
539.26	201.29
539.43	402.57
539.60	718.54
539.77	968.98
539.94	725.57
540.11	435.34
540.28	299.59
540.44	140.43
540.61	175.54
540.78	145.11
540.95	95.96
541.12	191.92
541.29	95.96
541.46	236.39
541.62	128.73
541.79	63.19
541.96	74.90
542.13	149.79
542.30	110.01
542.47	161.50
542.63	117.03
542.80	98.30
542.97	133.41
543.14	191.92
543.31	117.03
543.48	131.07
543.64	110.01
543.81	159.16
543.98	161.50
544.15	107.66
544.32	135.75
544.48	98.30
544.65	175.54
544.82	84.26
544.99	135.75
545.16	163.84
545.32	138.09
545.49	140.43
545.66	98.30
545.83	81.92
546.00	128.73
546.16	105.32
546.33	135.75
546.50	154.48
546.67	142.77
546.83	210.65
547.00	187.24
547.17	145.11
547.34	93.62
547.50	222.35
547.67	175.54
547.84	79.58
548.00	105.32
548.17	159.16
548.34	168.52
548.51	201.29
548.67	156.82
548.84	196.60
549.01	145.11
549.18	152.13
549.34	35.11
549.51	131.07
549.68	224.69
549.84	152.13
550.01	140.43
550.18	241.08
550.34	170.86
550.51	147.45
550.68	231.71
550.84	133.41
551.01	126.39
551.18	156.82
551.34	81.92
551.51	60.85
551.68	149.79
551.84	159.16
552.01	147.45
552.18	105.32
552.34	53.83
552.51	149.79
552.68	145.11
552.84	194.26
553.01	91.28
553.18	152.13
553.34	217.67
553.51	14.04
553.67	142.77
553.84	126.39
554.01	145.11
554.17	93.62
554.34	124.05
554.51	173.20
554.67	149.79
554.84	194.26
555.00	121.71
555.17	67.88
555.33	173.20
555.50	117.03
555.67	107.66
555.83	114.69
556.00	142.77
556.16	278.52
556.33	173.20
556.50	210.65
556.66	44.47
556.83	140.43
556.99	152.13
557.16	177.88
557.32	191.92
557.49	105.32
557.65	159.16
557.82	147.45
557.98	175.54
558.15	107.66
558.32	229.37
558.48	100.64
558.65	159.16
558.81	126.39
558.98	173.20
559.14	117.03
559.31	147.45
559.47	196.60
559.64	138.09
559.80	215.33
559.97	126.39
560.13	119.37
560.30	166.18
560.46	126.39
560.63	135.75
560.79	102.98
560.96	107.66
561.12	119.37
561.29	149.79
561.45	163.84
561.61	131.07
561.78	194.26
561.94	159.16
562.11	163.84
562.27	86.60
562.44	124.05
562.60	131.07
562.77	161.50
562.93	154.48
563.10	191.92
563.26	119.37
563.42	205.97
563.59	117.03
563.75	53.83
563.92	114.69
564.08	74.90
564.24	138.09
564.41	210.65
564.57	196.60
564.74	138.09
564.90	149.79
565.07	163.84
565.23	114.69
565.39	173.20
565.56	205.97
565.72	163.84
565.88	166.18
566.05	114.69
566.21	131.07
566.38	119.37
566.54	159.16
566.70	140.43
566.87	138.09
567.03	208.31
567.19	145.11
567.36	168.52
567.52	98.30
567.68	107.66
567.85	198.95
568.01	126.39
568.17	133.41
568.34	135.75
568.50	189.58
568.66	98.30
568.83	177.88
568.99	128.73
569.15	191.92
569.32	121.71
569.48	149.79
569.64	145.11
569.81	98.30
569.97	72.56
570.13	154.48
570.30	105.32
570.46	187.24
570.62	95.96
570.78	147.45
570.95	149.79
571.11	100.64
571.27	168.52
571.43	156.82
571.60	243.42
571.76	156.82
571.92	194.26
572.09	173.20
572.25	102.98
572.41	133.41
572.57	100.64
572.74	152.13
572.90	86.60
573.06	105.32
573.22	161.50
573.38	133.41
573.55	170.86
573.71	173.20
573.87	205.97
574.03	159.16
574.20	184.90
574.36	217.67
574.52	201.29
574.68	227.03
574.84	257.46
575.01	194.26
575.17	208.31
575.33	194.26
575.49	133.41
575.65	252.78
575.82	238.73
575.98	425.98
576.14	479.81
576.30	372.15
576.46	222.35
576.62	180.22
576.79	208.31
576.95	205.97
577.11	126.39
577.27	145.11
577.43	175.54
577.59	159.16
577.75	196.60
577.92	159.16
578.08	110.01
578.24	152.13
578.40	173.20
578.56	168.52
578.72	161.50
578.88	121.71
579.04	152.13
579.21	159.16
579.37	217.67
579.53	88.94
579.69	182.56
579.85	102.98
580.01	252.78
580.17	243.42
580.33	198.95
580.49	203.63
580.65	203.63
580.82	205.97
580.98	243.42
581.14	180.22
581.30	259.80
581.46	280.86
581.62	315.97
581.78	400.23
581.94	351.08
582.10	229.37
582.26	236.39
582.42	177.88
582.58	205.97
582.74	238.73
582.90	203.63
583.06	304.27
583.22	294.91
583.38	259.80
583.54	292.57
583.70	409.59
583.86	367.46
584.02	468.11
584.18	683.44
584.34	1121.12
584.50	7843.14
584.66	27438.10
584.82	46494.74
584.98	48580.16
585.14	30345.05
585.30	16196.51
585.46	7735.47
585.62	3028.65
585.78	1380.92
585.94	777.06
586.10	477.47
586.26	491.51
586.42	374.49
586.58	423.64
586.74	327.68
586.90	318.31
587.06	327.68
587.22	273.84
587.38	395.55
587.54	1411.34
587.70	2928.01
587.86	3616.13
588.02	2822.69
588.18	1645.40
588.34	954.94
588.49	500.87
588.65	362.78
588.81	250.44
588.97	248.10
589.13	191.92
589.29	191.92
589.45	201.29
589.61	245.76
589.77	266.82
589.93	351.08
590.08	215.33
590.24	203.63
590.40	236.39
590.56	234.05
590.72	222.35
590.88	177.88
591.04	196.60
591.20	198.95
591.35	215.33
591.51	170.86
591.67	147.45
591.83	191.92
591.99	224.69
592.15	194.26
592.31	184.90
592.46	117.03
592.62	140.43
592.78	189.58
592.94	212.99
593.10	189.58
593.26	205.97
593.41	238.73
593.57	212.99
593.73	1273.25
593.89	3569.32
594.05	5874.74
594.20	6132.20
594.36	4060.83
594.52	2363.94
594.68	1275.59
594.84	631.94
594.99	367.46
595.15	276.18
595.31	180.22
595.47	217.67
595.62	117.03
595.78	149.79
595.94	177.88
596.10	243.42
596.25	147.45
596.41	170.86
596.57	196.60
596.73	222.35
596.88	601.52
597.04	1207.72
597.20	1521.35
597.36	1191.33
597.51	833.23
597.67	543.00
597.83	402.57
597.99	212.99
598.14	208.31
598.30	194.26
598.46	224.69
598.61	290.23
598.77	255.12
598.93	142.77
599.09	161.50
599.24	252.78
599.40	222.35
599.56	154.48
599.71	222.35
599.87	161.50
600.03	177.88
600.18	135.75
600.34	189.58
600.50	95.96
600.65	95.96
600.81	135.75
600.97	124.05
601.12	191.92
601.28	138.09
601.44	163.84
601.59	217.67
601.75	110.01
601.91	131.07
602.06	142.77
602.22	414.27
602.37	952.60
602.53	1467.52
602.69	1621.99
602.84	1109.41
603.00	793.44
603.16	564.07
603.31	360.44
603.47	262.14
603.62	79.58
603.78	140.43
603.94	198.95
604.09	121.71
604.25	124.05
604.40	170.86
604.56	154.48
604.71	145.11
604.87	138.09
605.03	156.82
605.18	119.37
605.34	154.48
605.49	194.26
605.65	168.52
605.80	201.29
605.96	215.33
606.12	278.52
606.27	208.31
606.43	250.44
606.58	545.34
606.74	1708.59
606.89	3641.87
607.05	5060.24
607.20	3981.25
607.36	2743.11
607.51	1680.50
607.67	1130.48
607.82	617.90
607.98	348.74
608.13	234.05
608.29	201.29
608.44	297.25
608.60	292.57
608.75	760.67
608.91	3005.25
609.06	6387.32
609.22	8545.30
609.37	7077.78
609.53	4952.57
609.68	3096.53
609.84	1720.29
609.99	858.98
610.15	479.81
610.30	287.89
610.46	266.82
610.61	191.92
610.76	236.39
610.92	203.63
611.07	252.78
611.23	236.39
611.38	264.48
611.54	191.92
611.69	173.20
611.84	149.79
612.00	189.58
612.15	227.03
612.31	313.63
612.46	395.55
612.62	353.42
612.77	358.10
612.92	292.57
613.08	400.23
613.23	348.74
613.39	610.88
613.54	3150.36
613.69	8060.80
613.85	13069.55
614.00	13081.25
614.15	9446.40
614.31	5914.53
614.46	3709.75
614.62	1956.69
614.77	957.28
614.92	535.98
615.08	430.66
615.23	332.36
615.38	264.48
615.54	629.60
615.69	1783.49
615.84	2988.86
616.00	3742.52
616.15	2822.69
616.30	1891.15
616.46	1231.12
616.61	763.01
616.76	416.62
616.92	252.78
617.07	191.92
617.22	182.56
617.37	212.99
617.53	161.50
617.68	191.92
617.83	180.22
617.99	241.08
618.14	238.73
618.29	196.60
618.45	238.73
618.60	152.13
618.75	114.69
618.90	161.50
619.06	133.41
619.21	175.54
619.36	245.76
619.51	156.82
619.67	145.11
619.82	72.56
619.97	222.35
620.12	208.31
620.28	175.54
620.43	147.45
620.58	212.99
620.73	196.60
620.89	386.19
621.04	933.87
621.19	1736.68
621.34	2059.67
621.49	1778.81
621.65	1273.25
621.80	870.68
621.95	519.60
622.10	390.87
622.25	184.90
622.41	201.29
622.56	177.88
622.71	184.90
622.86	194.26
623.01	194.26
623.16	236.39
623.32	184.90
623.47	203.63
623.62	149.79
623.77	131.07
623.92	170.86
624.07	145.11
624.23	105.32
624.38	177.88
624.53	210.65
624.68	154.48
624.83	252.78
624.98	210.65
625.13	184.90
625.29	220.01
625.44	203.63
625.59	238.73
625.74	510.24
625.89	1732.00
626.04	4107.64
626.19	6583.93
626.34	6579.25
626.49	5041.51
626.65	3213.56
626.80	2167.34
626.95	1240.48
627.10	634.29
627.25	397.89
627.40	234.05
627.55	173.20
627.70	177.88
627.85	210.65
628.00	177.88
628.15	126.39
628.30	156.82
628.45	95.96
628.60	177.88
628.76	159.16
628.91	168.52
629.06	194.26
629.21	168.52
629.36	163.84
629.51	229.37
629.66	311.29
629.81	917.49
629.96	1476.88
630.11	1881.79
630.26	1577.52
630.41	1060.26
630.56	725.57
630.71	510.24
630.86	318.31
631.01	224.69
631.16	152.13
631.31	269.16
631.46	217.67
631.61	224.69
631.76	184.90
631.91	86.60
632.06	273.84
632.21	194.26
632.36	163.84
632.51	365.12
632.66	968.98
632.81	2310.11
632.96	4140.41
633.10	4479.79
633.25	3646.55
633.40	2445.86
633.55	1603.27
633.70	1093.03
633.85	564.07
634.00	346.40
634.15	212.99
634.30	227.03
634.45	210.65
634.60	156.82
634.75	198.95
634.90	102.98
635.05	166.18
635.19	161.50
635.34	156.82
635.49	182.56
635.64	166.18
635.79	128.73
635.94	147.45
636.09	191.92
636.24	210.65
636.39	238.73
636.53	194.26
636.68	98.30
636.83	231.71
636.98	220.01
637.13	224.69
637.28	341.72
637.43	739.61
637.57	2651.83
637.72	5448.77
637.87	8428.27
638.02	7936.76
638.17	6043.26
638.32	4039.76
638.46	2665.87
638.61	1549.43
638.76	774.72
638.91	365.12
639.06	273.84
639.20	388.53
639.35	898.77
639.50	3843.16
639.65	8088.89
639.80	12463.35
639.94	12257.39
640.09	8978.30
640.24	6076.03
640.39	3887.63
640.54	2249.25
640.68	1090.69
640.83	479.81
640.98	395.55
641.13	271.50
641.27	290.23
641.42	156.82
641.57	236.39
641.72	229.37
641.86	222.35
642.01	128.73
642.16	227.03
642.31	170.86
642.45	198.95
642.60	215.33
642.75	173.20
642.90	180.22
643.04	133.41
643.19	236.39
643.34	126.39
643.48	196.60
643.63	105.32
643.78	229.37
643.93	187.24
644.07	138.09
644.22	187.24
644.37	133.41
644.51	220.01
644.66	163.84
644.81	184.90
644.95	194.26
645.10	147.45
645.25	203.63
645.39	138.09
645.54	107.66
645.69	294.91
645.83	194.26
645.98	224.69
646.13	231.71
646.27	191.92
646.42	156.82
646.57	187.24
646.71	149.79
646.86	147.45
647.00	166.18
647.15	227.03
647.30	121.71
647.44	236.39
647.59	149.79
647.74	124.05
647.88	168.52
648.03	124.05
648.17	217.67
648.32	142.77
648.47	159.16
648.61	173.20
648.76	194.26
648.90	194.26
649.05	229.37
649.20	189.58
649.34	198.95
649.49	182.56
649.63	224.69
649.78	409.59
649.92	1565.82
650.07	3866.56
650.21	6087.73
650.36	6609.67
650.51	5172.58
650.65	3566.98
650.80	2307.77
650.94	1406.66
651.09	751.31
651.23	463.43
651.38	308.95
651.52	224.69
651.67	180.22
651.81	215.33
651.96	217.67
652.10	210.65
652.25	196.60
652.39	238.73
652.54	451.72
652.68	1313.04
652.83	2104.14
652.97	2621.40
653.12	2188.40
653.26	1582.20
653.41	1074.31
653.55	746.63
653.70	341.72
653.84	255.12
653.99	191.92
654.13	159.16
654.27	201.29
654.42	152.13
654.56	114.69
654.71	95.96
654.85	212.99
655.00	98.30
655.14	131.07
655.29	110.01
655.43	126.39
655.57	152.13
655.72	135.75
655.86	107.66
656.01	187.24
656.15	138.09
656.30	163.84
656.44	170.86
656.58	98.30
656.73	114.69
656.87	131.07
657.01	177.88
657.16	175.54
657.30	117.03
657.45	269.16
657.59	161.50
657.73	168.52
657.88	184.90
658.02	142.77
658.16	166.18
658.31	196.60
658.45	152.13
658.60	180.22
658.74	142.77
658.88	133.41
659.03	337.04
659.17	653.01
659.31	1816.26
659.46	2892.90
659.60	3578.68
659.74	2967.80
659.89	2036.27
660.03	1432.41
660.17	856.64
660.32	507.90
660.46	369.80
660.60	301.93
660.74	212.99
660.89	124.05
661.03	163.84
661.17	180.22
661.32	205.97
661.46	142.77
661.60	147.45
661.74	107.66
661.89	264.48
662.03	124.05
662.17	154.48
662.31	84.26
662.46	159.16
662.60	142.77
662.74	173.20
662.88	238.73
663.03	191.92
663.17	140.43
663.31	168.52
663.45	212.99
663.60	147.45
663.74	147.45
663.88	168.52
664.02	175.54
664.17	88.94
664.31	131.07
664.45	161.50
664.59	159.16
664.73	100.64
664.88	159.16
665.02	154.48
665.16	184.90
665.30	175.54
665.44	191.92
665.59	182.56
665.73	161.50
665.87	229.37
666.01	184.90
666.15	131.07
666.29	142.77
666.44	187.24
666.58	210.65
666.72	187.24
666.86	273.84
667.00	322.99
667.14	1404.32
667.28	3222.92
667.43	5408.98
667.57	6300.72
667.71	4821.50
667.85	3461.65
667.99	2120.53
668.13	1315.38
668.27	793.44
668.41	479.81
668.56	276.18
668.70	297.25
668.84	107.66
668.98	248.10
669.12	124.05
669.26	166.18
669.40	255.12
669.54	215.33
669.68	182.56
669.82	128.73
669.96	159.16
670.10	147.45
670.25	133.41
670.39	252.78
670.53	149.79
670.67	194.26
670.81	98.30
670.95	519.60
671.09	1259.21
671.23	2492.67
671.37	3651.24
671.51	3536.55
671.65	2757.15
671.79	1715.61
671.93	1083.67
672.07	648.33
672.21	383.85
672.35	217.67
672.49	210.65
672.63	262.14
672.77	212.99
672.91	156.82
673.05	217.67
673.19	241.08
673.33	161.50
673.47	205.97
673.61	119.37
673.75	147.45
673.89	112.35
674.03	147.45
674.17	145.11
674.31	234.05
674.45	110.01
674.59	212.99
674.73	196.60
674.87	243.42
675.01	238.73
675.15	187.24
675.29	180.22
675.43	187.24
675.56	154.48
675.70	212.99
675.84	163.84
675.98	105.32
676.12	135.75
676.26	128.73
676.40	124.05
676.54	205.97
676.68	229.37
676.82	156.82
676.96	100.64
677.10	170.86
677.23	138.09
677.37	135.75
677.51	173.20
677.65	210.65
677.79	166.18
677.93	149.79
678.07	149.79
678.21	133.41
678.34	117.03
678.48	51.49
678.62	121.71
678.76	138.09
678.90	189.58
679.04	119.37
679.18	126.39
679.31	98.30
679.45	119.37
679.59	208.31
679.73	147.45
679.87	210.65
680.00	163.84
680.14	149.79
680.28	175.54
680.42	110.01
680.56	170.86
680.70	105.32
680.83	98.30
680.97	194.26
681.11	156.82
681.25	177.88
681.39	191.92
681.52	191.92
681.66	170.86
681.80	175.54
681.94	154.48
682.07	154.48
682.21	210.65
682.35	180.22
682.49	163.84
682.62	140.43
682.76	140.43
682.90	140.43
683.04	77.24
683.17	184.90
683.31	154.48
683.45	175.54
683.59	184.90
683.72	173.20
683.86	177.88
684.00	124.05
684.13	170.86
684.27	138.09
684.41	142.77
684.55	95.96
684.68	37.45
684.82	102.98
684.96	126.39
685.09	196.60
685.23	145.11
685.37	159.16
685.50	189.58
685.64	159.16
685.78	56.17
685.91	177.88
686.05	147.45
686.19	147.45
686.32	117.03
686.46	170.86
686.60	112.35
686.73	191.92
686.87	154.48
687.01	140.43
687.14	161.50
687.28	102.98
687.42	114.69
687.55	152.13
687.69	187.24
687.82	173.20
687.96	194.26
688.10	138.09
688.23	156.82
688.37	147.45
688.50	210.65
688.64	180.22
688.78	124.05
688.91	175.54
689.05	98.30
689.18	105.32
689.32	124.05
689.46	191.92
689.59	112.35
689.73	128.73
689.86	51.49
690.00	142.77
690.13	95.96
690.27	145.11
690.41	128.73
690.54	170.86
690.68	121.71
690.81	168.52
690.95	133.41
691.08	93.62
691.22	175.54
691.35	159.16
691.49	149.79
691.62	131.07
691.76	114.69
691.89	131.07
692.03	117.03
692.16	208.31
692.30	451.72
692.43	1275.59
692.57	2115.84
692.70	2567.57
692.84	2354.58
692.97	1811.57
693.11	1397.30
693.24	936.21
693.38	622.58
693.51	465.77
693.65	322.99
693.78	332.36
693.92	201.29
694.05	222.35
694.19	126.39
694.32	149.79
694.45	201.29
694.59	154.48
694.72	114.69
694.86	154.48
694.99	173.20
695.13	102.98
695.26	121.71
695.39	168.52
695.53	180.22
695.66	145.11
695.80	201.29
695.93	215.33
696.07	283.20
696.20	327.68
696.33	376.83
696.47	320.65
696.60	280.86
696.73	257.46
696.87	203.63
697.00	243.42
697.14	210.65
697.27	212.99
697.40	173.20
697.54	166.18
697.67	117.03
697.80	79.58
697.94	156.82
698.07	210.65
698.21	145.11
698.34	222.35
698.47	161.50
698.61	156.82
698.74	163.84
698.87	205.97
699.01	142.77
699.14	161.50
699.27	147.45
699.40	222.35
699.54	182.56
699.67	140.43
699.80	95.96
699.94	102.98
700.07	152.13
700.20	182.56
700.34	84.26
700.47	159.16
700.60	191.92
700.73	117.03
700.87	257.46
701.00	140.43
701.13	138.09
701.26	184.90
701.40	147.45
701.53	142.77
701.66	114.69
701.79	142.77
701.93	227.03
702.06	252.78
702.19	299.59
702.32	266.82
702.46	355.76
702.59	650.67
702.72	1652.42
702.85	3063.76
702.99	4484.47
703.12	4898.74
703.25	4362.76
703.38	3662.94
703.51	2902.26
703.65	2069.03
703.78	1320.06
703.91	858.98
704.04	617.90
704.17	407.25
704.31	322.99
704.44	220.01
704.57	126.39
704.70	229.37
704.83	187.24
704.96	191.92
705.10	135.75
705.23	180.22
>>>>>End Processed Spectral Data<<<<<
