SpectraSuite Data File
++++++++++++++++++++++++++++++++++++
Date: Fri Oct 04 12:13:31 GMT-05:00 2013
User: price-jones
Dark Spectrum Present: No
Reference Spectrum Present: No
Number of Sampled Component Spectra: 1
Spectrometers: USB2+H05261
Integration Time (usec): 10000 (USB2+H05261)
Spectra Averaged: 1 (USB2+H05261)
Boxcar Smoothing: 0 (USB2+H05261)
Correct for Electrical Dark: No (USB2+H05261)
Strobe/Lamp Enabled: No (USB2+H05261)
Correct for Detector Non-linearity: No (USB2+H05261)
Correct for Stray Light: No (USB2+H05261)
Number of Pixels in Processed Spectrum: 2048
>>>>>Begin Processed Spectral Data<<<<<
365.73	35.11
365.92	35.11
366.12	35.11
366.32	0.00
366.52	0.00
366.72	0.00
366.91	0.00
367.11	0.00
367.31	0.00
367.51	0.00
367.70	0.00
367.90	0.00
368.10	0.00
368.30	0.00
368.49	0.00
368.69	0.00
368.89	0.00
369.09	0.00
369.28	0.00
369.48	0.00
369.68	0.00
369.87	0.00
370.07	0.00
370.27	0.00
370.47	0.00
370.66	0.00
370.86	0.00
371.06	0.00
371.25	0.00
371.45	0.00
371.65	7.02
371.84	0.00
372.04	0.00
372.24	56.17
372.44	7.02
372.63	67.88
372.83	37.45
373.03	74.90
373.22	46.81
373.42	79.58
373.62	0.00
373.81	0.00
374.01	32.77
374.21	121.71
374.40	32.77
374.60	0.00
374.79	9.36
374.99	0.00
375.19	25.75
375.38	72.56
375.58	0.00
375.78	79.58
375.97	39.79
376.17	0.00
376.37	0.00
376.56	58.51
376.76	107.66
376.95	4.68
377.15	93.62
377.35	0.00
377.54	2.34
377.74	14.04
377.93	51.49
378.13	46.81
378.33	81.92
378.52	23.41
378.72	98.30
378.91	0.00
379.11	7.02
379.31	74.90
379.50	2.34
379.70	0.00
379.89	0.00
380.09	18.72
380.28	0.00
380.48	32.77
380.68	117.03
380.87	51.49
381.07	60.85
381.26	42.13
381.46	39.79
381.65	0.00
381.85	0.00
382.04	0.00
382.24	14.04
382.43	39.79
382.63	18.72
382.83	7.02
383.02	0.00
383.22	32.77
383.41	25.75
383.61	16.38
383.80	0.00
384.00	9.36
384.19	11.70
384.39	0.00
384.58	79.58
384.78	0.00
384.97	9.36
385.17	70.22
385.36	67.88
385.56	16.38
385.75	21.06
385.95	53.83
386.14	65.54
386.34	21.06
386.53	4.68
386.72	14.04
386.92	56.17
387.11	0.00
387.31	42.13
387.50	30.43
387.70	9.36
387.89	53.83
388.09	46.81
388.28	16.38
388.48	0.00
388.67	0.00
388.86	0.00
389.06	0.00
389.25	4.68
389.45	70.22
389.64	0.00
389.84	32.77
390.03	35.11
390.22	72.56
390.42	58.51
390.61	70.22
390.81	32.77
391.00	0.00
391.19	67.88
391.39	25.75
391.58	35.11
391.78	0.00
391.97	44.47
392.16	105.32
392.36	0.00
392.55	11.70
392.75	0.00
392.94	25.75
393.13	0.00
393.33	63.19
393.52	28.09
393.71	0.00
393.91	42.13
394.10	56.17
394.29	30.43
394.49	0.00
394.68	30.43
394.88	14.04
395.07	35.11
395.26	44.47
395.46	88.94
395.65	44.47
395.84	53.83
396.04	44.47
396.23	58.51
396.42	9.36
396.62	14.04
396.81	0.00
397.00	0.00
397.19	0.00
397.39	0.00
397.58	65.54
397.77	0.00
397.97	21.06
398.16	46.81
398.35	28.09
398.55	0.00
398.74	35.11
398.93	14.04
399.12	0.00
399.32	37.45
399.51	81.92
399.70	0.00
399.90	0.00
400.09	25.75
400.28	46.81
400.47	46.81
400.67	0.00
400.86	72.56
401.05	0.00
401.24	63.19
401.44	25.75
401.63	79.58
401.82	0.00
402.01	53.83
402.21	0.00
402.40	58.51
402.59	0.00
402.78	42.13
402.97	37.45
403.17	0.00
403.36	77.24
403.55	117.03
403.74	88.94
403.93	4.68
404.13	32.77
404.32	28.09
404.51	0.00
404.70	16.38
404.89	0.00
405.09	4.68
405.28	74.90
405.47	28.09
405.66	84.26
405.85	0.00
406.05	0.00
406.24	0.00
406.43	4.68
406.62	0.00
406.81	0.00
407.00	35.11
407.20	86.60
407.39	77.24
407.58	110.01
407.77	0.00
407.96	37.45
408.15	4.68
408.34	0.00
408.54	9.36
408.73	77.24
408.92	46.81
409.11	74.90
409.30	44.47
409.49	11.70
409.68	0.00
409.87	0.00
410.07	0.00
410.26	0.00
410.45	0.00
410.64	28.09
410.83	0.00
411.02	28.09
411.21	0.00
411.40	63.19
411.59	28.09
411.78	0.00
411.98	25.75
412.17	84.26
412.36	9.36
412.55	30.43
412.74	70.22
412.93	58.51
413.12	7.02
413.31	21.06
413.50	77.24
413.69	95.96
413.88	18.72
414.07	7.02
414.26	0.00
414.45	0.00
414.64	0.00
414.83	0.00
415.02	35.11
415.22	0.00
415.41	37.45
415.60	0.00
415.79	21.06
415.98	7.02
416.17	0.00
416.36	39.79
416.55	14.04
416.74	0.00
416.93	51.49
417.12	0.00
417.31	37.45
417.50	46.81
417.69	16.38
417.88	28.09
418.07	65.54
418.26	7.02
418.45	65.54
418.64	60.85
418.83	21.06
419.02	18.72
419.21	0.00
419.39	0.00
419.58	81.92
419.77	7.02
419.96	9.36
420.15	0.00
420.34	21.06
420.53	37.45
420.72	65.54
420.91	0.00
421.10	39.79
421.29	44.47
421.48	28.09
421.67	0.00
421.86	119.37
422.05	32.77
422.24	86.60
422.43	60.85
422.61	93.62
422.80	67.88
422.99	102.98
423.18	63.19
423.37	32.77
423.56	21.06
423.75	58.51
423.94	65.54
424.13	42.13
424.32	2.34
424.50	28.09
424.69	37.45
424.88	88.94
425.07	0.00
425.26	74.90
425.45	0.00
425.64	0.00
425.83	81.92
426.01	0.00
426.20	35.11
426.39	30.43
426.58	0.00
426.77	67.88
426.96	25.75
427.15	7.02
427.33	0.00
427.52	18.72
427.71	30.43
427.90	46.81
428.09	91.28
428.28	56.17
428.46	56.17
428.65	37.45
428.84	4.68
429.03	18.72
429.22	44.47
429.40	30.43
429.59	0.00
429.78	0.00
429.97	0.00
430.16	46.81
430.34	0.00
430.53	35.11
430.72	35.11
430.91	35.11
431.10	16.38
431.28	44.47
431.47	4.68
431.66	0.00
431.85	0.00
432.03	49.15
432.22	0.00
432.41	0.00
432.60	28.09
432.79	0.00
432.97	49.15
433.16	42.13
433.35	98.30
433.54	56.17
433.72	28.09
433.91	72.56
434.10	84.26
434.28	67.88
434.47	32.77
434.66	51.49
434.85	25.75
435.03	30.43
435.22	28.09
435.41	4.68
435.59	93.62
435.78	11.70
435.97	18.72
436.16	51.49
436.34	37.45
436.53	11.70
436.72	9.36
436.90	49.15
437.09	56.17
437.28	44.47
437.46	37.45
437.65	102.98
437.84	39.79
438.02	42.13
438.21	79.58
438.40	107.66
438.58	114.69
438.77	67.88
438.96	79.58
439.14	37.45
439.33	42.13
439.52	23.41
439.70	44.47
439.89	77.24
440.08	9.36
440.26	9.36
440.45	72.56
440.63	23.41
440.82	112.35
441.01	88.94
441.19	0.00
441.38	0.00
441.57	25.75
441.75	11.70
441.94	0.00
442.12	51.49
442.31	37.45
442.50	16.38
442.68	46.81
442.87	77.24
443.05	0.00
443.24	58.51
443.43	11.70
443.61	67.88
443.80	74.90
443.98	77.24
444.17	25.75
444.35	70.22
444.54	70.22
444.73	14.04
444.91	60.85
445.10	77.24
445.28	131.07
445.47	46.81
445.65	9.36
445.84	16.38
446.02	70.22
446.21	0.00
446.39	0.00
446.58	14.04
446.77	112.35
446.95	14.04
447.14	11.70
447.32	102.98
447.51	9.36
447.69	16.38
447.88	35.11
448.06	53.83
448.25	28.09
448.43	9.36
448.62	0.00
448.80	21.06
448.99	28.09
449.17	0.00
449.36	0.00
449.54	16.38
449.73	23.41
449.91	4.68
450.10	23.41
450.28	51.49
450.46	140.43
450.65	37.45
450.83	32.77
451.02	0.00
451.20	39.79
451.39	23.41
451.57	32.77
451.76	30.43
451.94	46.81
452.13	39.79
452.31	7.02
452.49	37.45
452.68	58.51
452.86	44.47
453.05	51.49
453.23	74.90
453.42	25.75
453.60	16.38
453.78	0.00
453.97	60.85
454.15	30.43
454.34	0.00
454.52	88.94
454.70	98.30
454.89	0.00
455.07	56.17
455.26	0.00
455.44	46.81
455.62	77.24
455.81	2.34
455.99	0.00
456.17	67.88
456.36	51.49
456.54	42.13
456.73	0.00
456.91	56.17
457.09	46.81
457.28	21.06
457.46	70.22
457.64	70.22
457.83	44.47
458.01	51.49
458.19	0.00
458.38	9.36
458.56	117.03
458.74	44.47
458.93	60.85
459.11	23.41
459.29	58.51
459.48	39.79
459.66	42.13
459.84	0.00
460.03	39.79
460.21	81.92
460.39	56.17
460.57	0.00
460.76	16.38
460.94	2.34
461.12	79.58
461.31	58.51
461.49	44.47
461.67	53.83
461.85	0.00
462.04	49.15
462.22	77.24
462.40	11.70
462.59	77.24
462.77	23.41
462.95	46.81
463.13	46.81
463.32	0.00
463.50	0.00
463.68	30.43
463.86	4.68
464.05	58.51
464.23	42.13
464.41	11.70
464.59	21.06
464.78	42.13
464.96	53.83
465.14	30.43
465.32	32.77
465.50	70.22
465.69	32.77
465.87	30.43
466.05	91.28
466.23	42.13
466.41	9.36
466.60	11.70
466.78	0.00
466.96	23.41
467.14	0.00
467.32	25.75
467.51	23.41
467.69	21.06
467.87	9.36
468.05	91.28
468.23	42.13
468.41	46.81
468.60	0.00
468.78	0.00
468.96	81.92
469.14	79.58
469.32	39.79
469.50	88.94
469.69	4.68
469.87	44.47
470.05	53.83
470.23	72.56
470.41	14.04
470.59	102.98
470.77	60.85
470.95	28.09
471.14	0.00
471.32	0.00
471.50	0.00
471.68	53.83
471.86	0.00
472.04	28.09
472.22	21.06
472.40	46.81
472.58	28.09
472.77	4.68
472.95	0.00
473.13	51.49
473.31	74.90
473.49	74.90
473.67	16.38
473.85	49.15
474.03	35.11
474.21	0.00
474.39	0.00
474.57	18.72
474.75	0.00
474.93	35.11
475.12	46.81
475.30	63.19
475.48	39.79
475.66	58.51
475.84	21.06
476.02	35.11
476.20	67.88
476.38	74.90
476.56	39.79
476.74	9.36
476.92	60.85
477.10	79.58
477.28	0.00
477.46	42.13
477.64	23.41
477.82	0.00
478.00	9.36
478.18	14.04
478.36	65.54
478.54	39.79
478.72	30.43
478.90	25.75
479.08	32.77
479.26	0.00
479.44	16.38
479.62	9.36
479.80	56.17
479.98	25.75
480.16	0.00
480.34	46.81
480.52	30.43
480.70	37.45
480.88	95.96
481.06	51.49
481.24	77.24
481.41	4.68
481.59	32.77
481.77	53.83
481.95	11.70
482.13	51.49
482.31	32.77
482.49	79.58
482.67	18.72
482.85	23.41
483.03	0.00
483.21	14.04
483.39	63.19
483.57	58.51
483.74	0.00
483.92	63.19
484.10	95.96
484.28	23.41
484.46	25.75
484.64	74.90
484.82	65.54
485.00	39.79
485.18	70.22
485.35	14.04
485.53	70.22
485.71	42.13
485.89	21.06
486.07	0.00
486.25	32.77
486.43	39.79
486.61	77.24
486.78	0.00
486.96	53.83
487.14	0.00
487.32	18.72
487.50	58.51
487.68	0.00
487.85	21.06
488.03	11.70
488.21	25.75
488.39	28.09
488.57	23.41
488.75	91.28
488.92	63.19
489.10	30.43
489.28	49.15
489.46	84.26
489.64	23.41
489.81	39.79
489.99	21.06
490.17	30.43
490.35	74.90
490.53	0.00
490.70	42.13
490.88	74.90
491.06	39.79
491.24	46.81
491.41	60.85
491.59	0.00
491.77	0.00
491.95	79.58
492.13	42.13
492.30	35.11
492.48	72.56
492.66	21.06
492.84	39.79
493.01	0.00
493.19	2.34
493.37	100.64
493.54	67.88
493.72	4.68
493.90	79.58
494.08	93.62
494.25	102.98
494.43	60.85
494.61	63.19
494.79	51.49
494.96	42.13
495.14	84.26
495.32	32.77
495.49	74.90
495.67	63.19
495.85	25.75
496.02	49.15
496.20	79.58
496.38	14.04
496.55	32.77
496.73	18.72
496.91	7.02
497.09	44.47
497.26	0.00
497.44	0.00
497.62	23.41
497.79	53.83
497.97	0.00
498.14	32.77
498.32	16.38
498.50	63.19
498.67	84.26
498.85	18.72
499.03	0.00
499.20	2.34
499.38	79.58
499.56	77.24
499.73	35.11
499.91	58.51
500.08	35.11
500.26	21.06
500.44	67.88
500.61	70.22
500.79	16.38
500.97	56.17
501.14	81.92
501.32	25.75
501.49	14.04
501.67	35.11
501.84	114.69
502.02	30.43
502.20	0.00
502.37	0.00
502.55	4.68
502.72	65.54
502.90	28.09
503.07	46.81
503.25	32.77
503.43	0.00
503.60	0.00
503.78	4.68
503.95	93.62
504.13	102.98
504.30	0.00
504.48	72.56
504.65	74.90
504.83	30.43
505.01	53.83
505.18	53.83
505.36	79.58
505.53	60.85
505.71	23.41
505.88	65.54
506.06	11.70
506.23	126.39
506.41	93.62
506.58	60.85
506.76	56.17
506.93	35.11
507.11	4.68
507.28	21.06
507.46	28.09
507.63	4.68
507.81	0.00
507.98	35.11
508.16	30.43
508.33	65.54
508.50	37.45
508.68	44.47
508.85	21.06
509.03	0.00
509.20	30.43
509.38	42.13
509.55	0.00
509.73	2.34
509.90	0.00
510.08	9.36
510.25	16.38
510.42	81.92
510.60	39.79
510.77	60.85
510.95	21.06
511.12	0.00
511.30	79.58
511.47	60.85
511.64	30.43
511.82	0.00
511.99	49.15
512.17	0.00
512.34	70.22
512.51	72.56
512.69	56.17
512.86	11.70
513.04	42.13
513.21	70.22
513.38	39.79
513.56	14.04
513.73	14.04
513.90	100.64
514.08	35.11
514.25	0.00
514.43	0.00
514.60	14.04
514.77	21.06
514.95	16.38
515.12	74.90
515.29	63.19
515.47	79.58
515.64	56.17
515.81	30.43
515.99	58.51
516.16	32.77
516.33	30.43
516.51	74.90
516.68	14.04
516.85	37.45
517.03	70.22
517.20	39.79
517.37	63.19
517.54	39.79
517.72	4.68
517.89	0.00
518.06	25.75
518.24	58.51
518.41	28.09
518.58	7.02
518.75	9.36
518.93	91.28
519.10	16.38
519.27	67.88
519.45	32.77
519.62	2.34
519.79	98.30
519.96	0.00
520.14	35.11
520.31	42.13
520.48	37.45
520.65	84.26
520.83	16.38
521.00	21.06
521.17	25.75
521.34	21.06
521.52	65.54
521.69	51.49
521.86	42.13
522.03	67.88
522.20	159.16
522.38	56.17
522.55	2.34
522.72	0.00
522.89	16.38
523.07	14.04
523.24	105.32
523.41	46.81
523.58	0.00
523.75	11.70
523.92	53.83
524.10	32.77
524.27	60.85
524.44	79.58
524.61	23.41
524.78	65.54
524.96	35.11
525.13	131.07
525.30	70.22
525.47	77.24
525.64	25.75
525.81	70.22
525.98	91.28
526.16	56.17
526.33	0.00
526.50	0.00
526.67	25.75
526.84	44.47
527.01	51.49
527.18	93.62
527.36	0.00
527.53	14.04
527.70	32.77
527.87	11.70
528.04	0.00
528.21	32.77
528.38	77.24
528.55	49.15
528.72	0.00
528.89	2.34
529.07	23.41
529.24	105.32
529.41	77.24
529.58	0.00
529.75	81.92
529.92	72.56
530.09	121.71
530.26	28.09
530.43	2.34
530.60	63.19
530.77	0.00
530.94	21.06
531.11	0.00
531.28	65.54
531.46	18.72
531.63	28.09
531.80	63.19
531.97	14.04
532.14	46.81
532.31	23.41
532.48	0.00
532.65	79.58
532.82	23.41
532.99	67.88
533.16	98.30
533.33	88.94
533.50	0.00
533.67	53.83
533.84	0.00
534.01	93.62
534.18	70.22
534.35	37.45
534.52	105.32
534.69	18.72
534.86	11.70
535.03	11.70
535.20	39.79
535.37	0.00
535.54	56.17
535.71	53.83
535.88	51.49
536.05	25.75
536.22	14.04
536.38	107.66
536.55	0.00
536.72	0.00
536.89	32.77
537.06	70.22
537.23	60.85
537.40	32.77
537.57	70.22
537.74	86.60
537.91	65.54
538.08	44.47
538.25	56.17
538.42	18.72
538.59	39.79
538.75	42.13
538.92	81.92
539.09	39.79
539.26	63.19
539.43	53.83
539.60	86.60
539.77	189.58
539.94	81.92
540.11	88.94
540.28	74.90
540.44	77.24
540.61	67.88
540.78	70.22
540.95	56.17
541.12	53.83
541.29	0.00
541.46	0.00
541.62	32.77
541.79	0.00
541.96	65.54
542.13	46.81
542.30	0.00
542.47	95.96
542.63	91.28
542.80	119.37
542.97	102.98
543.14	23.41
543.31	30.43
543.48	42.13
543.64	86.60
543.81	2.34
543.98	18.72
544.15	23.41
544.32	0.00
544.48	23.41
544.65	0.00
544.82	42.13
544.99	21.06
545.16	32.77
545.32	49.15
545.49	4.68
545.66	0.00
545.83	35.11
546.00	35.11
546.16	131.07
546.33	46.81
546.50	7.02
546.67	67.88
546.83	16.38
547.00	0.00
547.17	30.43
547.34	30.43
547.50	67.88
547.67	49.15
547.84	110.01
548.00	65.54
548.17	0.00
548.34	28.09
548.51	72.56
548.67	67.88
548.84	51.49
549.01	63.19
549.18	2.34
549.34	35.11
549.51	65.54
549.68	95.96
549.84	46.81
550.01	18.72
550.18	37.45
550.34	0.00
550.51	0.00
550.68	119.37
550.84	119.37
551.01	56.17
551.18	0.00
551.34	30.43
551.51	98.30
551.68	46.81
551.84	0.00
552.01	77.24
552.18	42.13
552.34	63.19
552.51	93.62
552.68	37.45
552.84	21.06
553.01	28.09
553.18	79.58
553.34	35.11
553.51	16.38
553.67	51.49
553.84	51.49
554.01	46.81
554.17	7.02
554.34	0.00
554.51	0.00
554.67	70.22
554.84	42.13
555.00	39.79
555.17	60.85
555.33	65.54
555.50	32.77
555.67	56.17
555.83	131.07
556.00	9.36
556.16	42.13
556.33	53.83
556.50	0.00
556.66	23.41
556.83	28.09
556.99	0.00
557.16	35.11
557.32	0.00
557.49	65.54
557.65	56.17
557.82	39.79
557.98	65.54
558.15	21.06
558.32	124.05
558.48	46.81
558.65	74.90
558.81	65.54
558.98	56.17
559.14	18.72
559.31	72.56
559.47	18.72
559.64	16.38
559.80	4.68
559.97	49.15
560.13	60.85
560.30	37.45
560.46	58.51
560.63	28.09
560.79	79.58
560.96	58.51
561.12	0.00
561.29	25.75
561.45	9.36
561.61	32.77
561.78	95.96
561.94	63.19
562.11	42.13
562.27	74.90
562.44	18.72
562.60	18.72
562.77	53.83
562.93	46.81
563.10	42.13
563.26	4.68
563.42	0.00
563.59	51.49
563.75	88.94
563.92	14.04
564.08	11.70
564.24	42.13
564.41	124.05
564.57	14.04
564.74	16.38
564.90	9.36
565.07	32.77
565.23	14.04
565.39	58.51
565.56	37.45
565.72	0.00
565.88	0.00
566.05	35.11
566.21	0.00
566.38	18.72
566.54	44.47
566.70	9.36
566.87	14.04
567.03	14.04
567.19	0.00
567.36	60.85
567.52	84.26
567.68	49.15
567.85	100.64
568.01	124.05
568.17	23.41
568.34	86.60
568.50	37.45
568.66	18.72
568.83	0.00
568.99	0.00
569.15	91.28
569.32	42.13
569.48	98.30
569.64	32.77
569.81	4.68
569.97	119.37
570.13	7.02
570.30	35.11
570.46	60.85
570.62	131.07
570.78	77.24
570.95	77.24
571.11	60.85
571.27	0.00
571.43	58.51
571.60	65.54
571.76	95.96
571.92	98.30
572.09	67.88
572.25	51.49
572.41	25.75
572.57	79.58
572.74	30.43
572.90	105.32
573.06	65.54
573.22	53.83
573.38	2.34
573.55	133.41
573.71	65.54
573.87	4.68
574.03	42.13
574.20	63.19
574.36	16.38
574.52	77.24
574.68	49.15
574.84	0.00
575.01	25.75
575.17	100.64
575.33	37.45
575.49	70.22
575.65	30.43
575.82	100.64
575.98	107.66
576.14	53.83
576.30	65.54
576.46	56.17
576.62	135.75
576.79	51.49
576.95	32.77
577.11	102.98
577.27	95.96
577.43	56.17
577.59	39.79
577.75	77.24
577.92	0.00
578.08	25.75
578.24	58.51
578.40	60.85
578.56	0.00
578.72	72.56
578.88	58.51
579.04	110.01
579.21	0.00
579.37	49.15
579.53	28.09
579.69	18.72
579.85	42.13
580.01	72.56
580.17	37.45
580.33	49.15
580.49	91.28
580.65	39.79
580.82	67.88
580.98	39.79
581.14	91.28
581.30	51.49
581.46	4.68
581.62	84.26
581.78	67.88
581.94	77.24
582.10	4.68
582.26	72.56
582.42	126.39
582.58	44.47
582.74	88.94
582.90	0.00
583.06	14.04
583.22	51.49
583.38	131.07
583.54	23.41
583.70	67.88
583.86	117.03
584.02	131.07
584.18	105.32
584.34	107.66
584.50	348.74
584.66	1898.17
584.82	4545.32
584.98	5909.85
585.14	4919.81
585.30	3206.53
585.46	2031.58
585.62	1301.34
585.78	582.79
585.94	337.04
586.10	114.69
586.26	124.05
586.42	152.13
586.58	121.71
586.74	117.03
586.90	84.26
587.06	107.66
587.22	77.24
587.38	74.90
587.54	175.54
587.70	273.84
587.86	379.17
588.02	416.62
588.18	320.65
588.34	234.05
588.49	152.13
588.65	32.77
588.81	0.00
588.97	0.00
589.13	35.11
589.29	21.06
589.45	98.30
589.61	42.13
589.77	0.00
589.93	4.68
590.08	37.45
590.24	11.70
590.40	9.36
590.56	70.22
590.72	14.04
590.88	30.43
591.04	9.36
591.20	53.83
591.35	0.00
591.51	51.49
591.67	74.90
591.83	56.17
591.99	56.17
592.15	86.60
592.31	39.79
592.46	58.51
592.62	56.17
592.78	70.22
592.94	49.15
593.10	95.96
593.26	9.36
593.41	91.28
593.57	7.02
593.73	110.01
593.89	255.12
594.05	613.22
594.20	847.27
594.36	751.31
594.52	451.72
594.68	341.72
594.84	217.67
594.99	184.90
595.15	168.52
595.31	30.43
595.47	42.13
595.62	35.11
595.78	0.00
595.94	58.51
596.10	25.75
596.25	44.47
596.41	70.22
596.57	98.30
596.73	35.11
596.88	81.92
597.04	208.31
597.20	236.39
597.36	191.92
597.51	203.63
597.67	194.26
597.83	102.98
597.99	98.30
598.14	56.17
598.30	53.83
598.46	93.62
598.61	63.19
598.77	49.15
598.93	0.00
599.09	39.79
599.24	25.75
599.40	16.38
599.56	37.45
599.71	46.81
599.87	72.56
600.03	56.17
600.18	18.72
600.34	72.56
600.50	49.15
600.65	37.45
600.81	49.15
600.97	0.00
601.12	0.00
601.28	0.00
601.44	72.56
601.59	88.94
601.75	60.85
601.91	88.94
602.06	16.38
602.22	65.54
602.37	154.48
602.53	189.58
602.69	217.67
602.84	227.03
603.00	184.90
603.16	135.75
603.31	133.41
603.47	49.15
603.62	14.04
603.78	58.51
603.94	70.22
604.09	0.00
604.25	70.22
604.40	7.02
604.56	77.24
604.71	60.85
604.87	39.79
605.03	133.41
605.18	93.62
605.34	0.00
605.49	0.00
605.65	51.49
605.80	91.28
605.96	4.68
606.12	49.15
606.27	30.43
606.43	37.45
606.58	117.03
606.74	95.96
606.89	393.21
607.05	622.58
607.20	706.84
607.36	610.88
607.51	409.59
607.67	344.06
607.82	133.41
607.98	142.77
608.13	63.19
608.29	58.51
608.44	60.85
608.60	25.75
608.75	102.98
608.91	133.41
609.06	458.74
609.22	952.60
609.37	1086.01
609.53	959.62
609.68	664.71
609.84	503.22
609.99	290.23
610.15	166.18
610.30	95.96
610.46	72.56
610.61	49.15
610.76	138.09
610.92	35.11
611.07	0.00
611.23	28.09
611.38	67.88
611.54	56.17
611.69	72.56
611.84	70.22
612.00	25.75
612.15	65.54
612.31	4.68
612.46	60.85
612.62	42.13
612.77	117.03
612.92	84.26
613.08	149.79
613.23	133.41
613.39	42.13
613.54	107.66
613.69	461.09
613.85	1177.29
614.00	1715.61
614.15	1668.80
614.31	1266.23
614.46	784.08
614.62	645.99
614.77	315.97
614.92	142.77
615.08	107.66
615.23	88.94
615.38	93.62
615.54	0.00
615.69	161.50
615.84	294.91
616.00	454.06
616.15	447.04
616.30	360.44
616.46	252.78
616.61	210.65
616.76	131.07
616.92	95.96
617.07	56.17
617.22	91.28
617.37	77.24
617.53	91.28
617.68	0.00
617.83	102.98
617.99	14.04
618.14	18.72
618.29	2.34
618.45	58.51
618.60	56.17
618.75	9.36
618.90	39.79
619.06	42.13
619.21	79.58
619.36	60.85
619.51	81.92
619.67	0.00
619.82	0.00
619.97	74.90
620.12	49.15
620.28	39.79
620.43	0.00
620.58	60.85
620.73	60.85
620.89	23.41
621.04	88.94
621.19	128.73
621.34	271.50
621.49	273.84
621.65	194.26
621.80	285.55
621.95	138.09
622.10	170.86
622.25	91.28
622.41	37.45
622.56	105.32
622.71	105.32
622.86	0.00
623.01	23.41
623.16	4.68
623.32	32.77
623.47	28.09
623.62	67.88
623.77	112.35
623.92	91.28
624.07	16.38
624.23	53.83
624.38	11.70
624.53	32.77
624.68	42.13
624.83	91.28
624.98	0.00
625.13	102.98
625.29	0.00
625.44	70.22
625.59	60.85
625.74	65.54
625.89	63.19
626.04	236.39
626.19	550.03
626.34	908.13
626.49	919.83
626.65	676.41
626.80	552.37
626.95	411.93
627.10	205.97
627.25	114.69
627.40	42.13
627.55	23.41
627.70	11.70
627.85	42.13
628.00	51.49
628.15	70.22
628.30	0.00
628.45	9.36
628.60	49.15
628.76	98.30
628.91	88.94
629.06	44.47
629.21	0.00
629.36	72.56
629.51	53.83
629.66	74.90
629.81	46.81
629.96	212.99
630.11	236.39
630.26	196.60
630.41	203.63
630.56	184.90
630.71	126.39
630.86	98.30
631.01	72.56
631.16	44.47
631.31	56.17
631.46	37.45
631.61	35.11
631.76	44.47
631.91	11.70
632.06	14.04
632.21	93.62
632.36	0.00
632.51	138.09
632.66	67.88
632.81	121.71
632.96	355.76
633.10	650.67
633.25	648.33
633.40	535.98
633.55	341.72
633.70	273.84
633.85	152.13
634.00	124.05
634.15	95.96
634.30	93.62
634.45	37.45
634.60	51.49
634.75	39.79
634.90	79.58
635.05	53.83
635.19	44.47
635.34	35.11
635.49	42.13
635.64	4.68
635.79	23.41
635.94	37.45
636.09	51.49
636.24	14.04
636.39	67.88
636.53	0.00
636.68	39.79
636.83	21.06
636.98	91.28
637.13	37.45
637.28	114.69
637.43	100.64
637.57	65.54
637.72	341.72
637.87	807.48
638.02	1008.77
638.17	1081.33
638.32	826.21
638.46	557.05
638.61	372.15
638.76	290.23
638.91	180.22
639.06	135.75
639.20	100.64
639.35	95.96
639.50	93.62
639.65	500.87
639.80	1188.99
639.94	1612.63
640.09	1771.79
640.24	1411.34
640.39	1006.43
640.54	622.58
640.68	383.85
640.83	224.69
640.98	161.50
641.13	102.98
641.27	58.51
641.42	93.62
641.57	4.68
641.72	44.47
641.86	98.30
642.01	70.22
642.16	0.00
642.31	65.54
642.45	133.41
642.60	11.70
642.75	35.11
642.90	77.24
643.04	23.41
643.19	35.11
643.34	56.17
643.48	102.98
643.63	23.41
643.78	63.19
643.93	91.28
644.07	60.85
644.22	84.26
644.37	56.17
644.51	56.17
644.66	67.88
644.81	51.49
644.95	60.85
645.10	0.00
645.25	58.51
645.39	14.04
645.54	30.43
645.69	21.06
645.83	37.45
645.98	7.02
646.13	30.43
646.27	56.17
646.42	39.79
646.57	0.00
646.71	93.62
646.86	65.54
647.00	37.45
647.15	37.45
647.30	53.83
647.44	28.09
647.59	0.00
647.74	14.04
647.88	0.00
648.03	63.19
648.17	86.60
648.32	7.02
648.47	93.62
648.61	28.09
648.76	70.22
648.90	25.75
649.05	42.13
649.20	56.17
649.34	7.02
649.49	16.38
649.63	79.58
649.78	2.34
649.92	37.45
650.07	147.45
650.21	514.92
650.36	912.81
650.51	947.92
650.65	800.46
650.80	559.39
650.94	386.19
651.09	283.20
651.23	168.52
651.38	51.49
651.52	121.71
651.67	9.36
651.81	0.00
651.96	79.58
652.10	117.03
652.25	0.00
652.39	51.49
652.54	49.15
652.68	72.56
652.83	142.77
652.97	330.02
653.12	315.97
653.26	252.78
653.41	224.69
653.55	175.54
653.70	124.05
653.84	65.54
653.99	46.81
654.13	77.24
654.27	28.09
654.42	49.15
654.56	84.26
654.71	95.96
654.85	0.00
655.00	7.02
655.14	25.75
655.29	25.75
655.43	14.04
655.57	63.19
655.72	105.32
655.86	110.01
656.01	14.04
656.15	93.62
656.30	28.09
656.44	30.43
656.58	56.17
656.73	0.00
656.87	16.38
657.01	56.17
657.16	14.04
657.30	121.71
657.45	14.04
657.59	79.58
657.73	51.49
657.88	72.56
658.02	37.45
658.16	18.72
658.31	0.00
658.45	11.70
658.60	58.51
658.74	49.15
658.88	0.00
659.03	0.00
659.17	39.79
659.31	93.62
659.46	248.10
659.60	388.53
659.74	521.94
659.89	489.17
660.03	369.80
660.17	264.48
660.32	231.71
660.46	37.45
660.60	37.45
660.74	16.38
660.89	0.00
661.03	2.34
661.17	84.26
661.32	98.30
661.46	44.47
661.60	53.83
661.74	30.43
661.89	14.04
662.03	60.85
662.17	39.79
662.31	81.92
662.46	42.13
662.60	7.02
662.74	44.47
662.88	28.09
663.03	95.96
663.17	25.75
663.31	72.56
663.45	44.47
663.60	18.72
663.74	9.36
663.88	21.06
664.02	56.17
664.17	51.49
664.31	39.79
664.45	9.36
664.59	70.22
664.73	58.51
664.88	60.85
665.02	9.36
665.16	70.22
665.30	16.38
665.44	95.96
665.59	56.17
665.73	44.47
665.87	79.58
666.01	30.43
666.15	84.26
666.29	65.54
666.44	25.75
666.58	65.54
666.72	51.49
666.86	42.13
667.00	32.77
667.14	74.90
667.28	187.24
667.43	491.51
667.57	737.27
667.71	779.40
667.85	802.80
667.99	524.28
668.13	278.52
668.27	222.35
668.41	114.69
668.56	44.47
668.70	65.54
668.84	95.96
668.98	0.00
669.12	0.00
669.26	4.68
669.40	18.72
669.54	32.77
669.68	39.79
669.82	0.00
669.96	23.41
670.10	42.13
670.25	42.13
670.39	58.51
670.53	0.00
670.67	39.79
670.81	25.75
670.95	67.88
671.09	51.49
671.23	163.84
671.37	353.42
671.51	489.17
671.65	521.94
671.79	440.02
671.93	337.04
672.07	278.52
672.21	67.88
672.35	131.07
672.49	23.41
672.63	0.00
672.77	42.13
672.91	46.81
673.05	30.43
673.19	37.45
673.33	65.54
673.47	4.68
673.61	7.02
673.75	81.92
673.89	42.13
674.03	60.85
674.17	46.81
674.31	93.62
674.45	14.04
674.59	30.43
674.73	32.77
674.87	37.45
675.01	63.19
675.15	67.88
675.29	124.05
675.43	39.79
675.56	9.36
675.70	30.43
675.84	11.70
675.98	25.75
676.12	77.24
676.26	128.73
676.40	119.37
676.54	67.88
676.68	67.88
676.82	16.38
676.96	0.00
677.10	9.36
677.23	0.00
677.37	44.47
677.51	14.04
677.65	0.00
677.79	25.75
677.93	21.06
678.07	42.13
678.21	105.32
678.34	107.66
678.48	35.11
678.62	74.90
678.76	74.90
678.90	0.00
679.04	28.09
679.18	51.49
679.31	117.03
679.45	39.79
679.59	88.94
679.73	21.06
679.87	21.06
680.00	7.02
680.14	37.45
680.28	60.85
680.42	7.02
680.56	58.51
680.70	77.24
680.83	67.88
680.97	0.00
681.11	67.88
681.25	42.13
681.39	65.54
681.52	30.43
681.66	0.00
681.80	28.09
681.94	46.81
682.07	18.72
682.21	0.00
682.35	0.00
682.49	0.00
682.62	70.22
682.76	114.69
682.90	81.92
683.04	37.45
683.17	65.54
683.31	0.00
683.45	4.68
683.59	23.41
683.72	77.24
683.86	11.70
684.00	16.38
684.13	72.56
684.27	4.68
684.41	65.54
684.55	35.11
684.68	0.00
684.82	72.56
684.96	25.75
685.09	74.90
685.23	56.17
685.37	0.00
685.50	49.15
685.64	74.90
685.78	51.49
685.91	0.00
686.05	0.00
686.19	77.24
686.32	74.90
686.46	56.17
686.60	51.49
686.73	37.45
686.87	0.00
687.01	16.38
687.14	4.68
687.28	60.85
687.42	46.81
687.55	9.36
687.69	42.13
687.82	0.00
687.96	0.00
688.10	49.15
688.23	14.04
688.37	0.00
688.50	21.06
688.64	25.75
688.78	0.00
688.91	11.70
689.05	58.51
689.18	42.13
689.32	4.68
689.46	0.00
689.59	114.69
689.73	51.49
689.86	0.00
690.00	7.02
690.13	0.00
690.27	86.60
690.41	0.00
690.54	0.00
690.68	21.06
690.81	93.62
690.95	70.22
691.08	4.68
691.22	28.09
691.35	7.02
691.49	32.77
691.62	35.11
691.76	112.35
691.89	56.17
692.03	23.41
692.16	11.70
692.30	65.54
692.43	51.49
692.57	191.92
692.70	351.08
692.84	493.85
692.97	386.19
693.11	255.12
693.24	180.22
693.38	203.63
693.51	114.69
693.65	79.58
693.78	79.58
693.92	32.77
694.05	44.47
694.19	2.34
694.32	0.00
694.45	4.68
694.59	46.81
694.72	70.22
694.86	16.38
694.99	81.92
695.13	30.43
695.26	56.17
695.39	53.83
695.53	110.01
695.66	51.49
695.80	51.49
695.93	23.41
696.07	9.36
696.20	11.70
696.33	35.11
696.47	51.49
696.60	46.81
696.73	67.88
696.87	88.94
697.00	28.09
697.14	23.41
697.27	0.00
697.40	32.77
697.54	79.58
697.67	0.00
697.80	72.56
697.94	0.00
698.07	0.00
698.21	0.00
698.34	0.00
698.47	0.00
698.61	49.15
698.74	35.11
698.87	37.45
699.01	23.41
699.14	67.88
699.27	0.00
699.40	88.94
699.54	63.19
699.67	37.45
699.80	14.04
699.94	23.41
700.07	18.72
700.20	32.77
700.34	18.72
700.47	44.47
700.60	2.34
700.73	0.00
700.87	28.09
701.00	56.17
701.13	14.04
701.26	102.98
701.40	107.66
701.53	32.77
701.66	70.22
701.79	53.83
701.93	60.85
702.06	72.56
702.19	84.26
702.32	60.85
702.46	0.00
702.59	51.49
702.72	98.30
702.85	294.91
702.99	531.30
703.12	636.63
703.25	723.23
703.38	601.52
703.51	456.40
703.65	355.76
703.78	229.37
703.91	170.86
704.04	152.13
704.17	107.66
704.31	140.43
704.44	16.38
704.57	84.26
704.70	88.94
704.83	39.79
704.96	32.77
705.10	7.02
705.23	56.17
>>>>>End Processed Spectral Data<<<<<
