SpectraSuite Data File
++++++++++++++++++++++++++++++++++++
Date: Fri Oct 04 12:13:36 GMT-05:00 2013
User: price-jones
Dark Spectrum Present: No
Reference Spectrum Present: No
Number of Sampled Component Spectra: 1
Spectrometers: USB2+H05261
Integration Time (usec): 10000 (USB2+H05261)
Spectra Averaged: 1 (USB2+H05261)
Boxcar Smoothing: 0 (USB2+H05261)
Correct for Electrical Dark: No (USB2+H05261)
Strobe/Lamp Enabled: No (USB2+H05261)
Correct for Detector Non-linearity: No (USB2+H05261)
Correct for Stray Light: No (USB2+H05261)
Number of Pixels in Processed Spectrum: 2048
>>>>>Begin Processed Spectral Data<<<<<
365.73	0.00
365.92	0.00
366.12	0.00
366.32	0.00
366.52	0.00
366.72	0.00
366.91	0.00
367.11	0.00
367.31	0.00
367.51	0.00
367.70	0.00
367.90	0.00
368.10	0.00
368.30	0.00
368.49	0.00
368.69	0.00
368.89	0.00
369.09	0.00
369.28	0.00
369.48	0.00
369.68	0.00
369.87	0.00
370.07	0.00
370.27	0.00
370.47	0.00
370.66	0.00
370.86	0.00
371.06	0.00
371.25	79.58
371.45	0.00
371.65	0.00
371.84	14.04
372.04	0.00
372.24	25.75
372.44	14.04
372.63	35.11
372.83	39.79
373.03	0.00
373.22	0.00
373.42	0.00
373.62	28.09
373.81	2.34
374.01	25.75
374.21	21.06
374.40	0.00
374.60	44.47
374.79	7.02
374.99	63.19
375.19	67.88
375.38	42.13
375.58	28.09
375.78	21.06
375.97	46.81
376.17	46.81
376.37	95.96
376.56	23.41
376.76	18.72
376.95	11.70
377.15	79.58
377.35	35.11
377.54	58.51
377.74	44.47
377.93	0.00
378.13	53.83
378.33	11.70
378.52	35.11
378.72	4.68
378.91	28.09
379.11	56.17
379.31	58.51
379.50	91.28
379.70	56.17
379.89	9.36
380.09	14.04
380.28	0.00
380.48	21.06
380.68	0.00
380.87	4.68
381.07	53.83
381.26	28.09
381.46	56.17
381.65	4.68
381.85	0.00
382.04	7.02
382.24	16.38
382.43	0.00
382.63	0.00
382.83	42.13
383.02	35.11
383.22	0.00
383.41	9.36
383.61	77.24
383.80	18.72
384.00	23.41
384.19	4.68
384.39	65.54
384.58	0.00
384.78	0.00
384.97	9.36
385.17	25.75
385.36	0.00
385.56	0.00
385.75	58.51
385.95	21.06
386.14	7.02
386.34	0.00
386.53	35.11
386.72	70.22
386.92	58.51
387.11	7.02
387.31	0.00
387.50	0.00
387.70	49.15
387.89	30.43
388.09	0.00
388.28	0.00
388.48	42.13
388.67	37.45
388.86	46.81
389.06	46.81
389.25	42.13
389.45	11.70
389.64	0.00
389.84	37.45
390.03	0.00
390.22	21.06
390.42	42.13
390.61	21.06
390.81	4.68
391.00	0.00
391.19	9.36
391.39	0.00
391.58	30.43
391.78	88.94
391.97	88.94
392.16	0.00
392.36	88.94
392.55	102.98
392.75	0.00
392.94	0.00
393.13	0.00
393.33	0.00
393.52	16.38
393.71	11.70
393.91	0.00
394.10	93.62
394.29	28.09
394.49	74.90
394.68	37.45
394.88	18.72
395.07	0.00
395.26	63.19
395.46	30.43
395.65	42.13
395.84	23.41
396.04	25.75
396.23	0.00
396.42	60.85
396.62	110.01
396.81	30.43
397.00	0.00
397.19	0.00
397.39	39.79
397.58	14.04
397.77	46.81
397.97	14.04
398.16	35.11
398.35	14.04
398.55	0.00
398.74	44.47
398.93	11.70
399.12	0.00
399.32	0.00
399.51	51.49
399.70	30.43
399.90	4.68
400.09	23.41
400.28	25.75
400.47	25.75
400.67	9.36
400.86	58.51
401.05	44.47
401.24	44.47
401.44	14.04
401.63	39.79
401.82	7.02
402.01	11.70
402.21	11.70
402.40	0.00
402.59	23.41
402.78	0.00
402.97	32.77
403.17	0.00
403.36	72.56
403.55	37.45
403.74	9.36
403.93	37.45
404.13	2.34
404.32	32.77
404.51	9.36
404.70	51.49
404.89	21.06
405.09	70.22
405.28	30.43
405.47	2.34
405.66	7.02
405.85	51.49
406.05	32.77
406.24	32.77
406.43	72.56
406.62	28.09
406.81	95.96
407.00	72.56
407.20	42.13
407.39	51.49
407.58	16.38
407.77	16.38
407.96	53.83
408.15	60.85
408.34	70.22
408.54	0.00
408.73	23.41
408.92	102.98
409.11	25.75
409.30	86.60
409.49	70.22
409.68	105.32
409.87	72.56
410.07	53.83
410.26	0.00
410.45	2.34
410.64	72.56
410.83	0.00
411.02	30.43
411.21	70.22
411.40	0.00
411.59	63.19
411.78	32.77
411.98	0.00
412.17	23.41
412.36	95.96
412.55	51.49
412.74	37.45
412.93	84.26
413.12	42.13
413.31	56.17
413.50	7.02
413.69	0.00
413.88	7.02
414.07	28.09
414.26	18.72
414.45	0.00
414.64	60.85
414.83	0.00
415.02	4.68
415.22	79.58
415.41	23.41
415.60	70.22
415.79	63.19
415.98	49.15
416.17	30.43
416.36	67.88
416.55	11.70
416.74	42.13
416.93	51.49
417.12	56.17
417.31	60.85
417.50	7.02
417.69	86.60
417.88	35.11
418.07	11.70
418.26	56.17
418.45	53.83
418.64	0.00
418.83	37.45
419.02	11.70
419.21	72.56
419.39	51.49
419.58	28.09
419.77	67.88
419.96	72.56
420.15	37.45
420.34	77.24
420.53	102.98
420.72	58.51
420.91	23.41
421.10	56.17
421.29	88.94
421.48	32.77
421.67	53.83
421.86	46.81
422.05	91.28
422.24	4.68
422.43	98.30
422.61	98.30
422.80	16.38
422.99	0.00
423.18	14.04
423.37	70.22
423.56	16.38
423.75	25.75
423.94	23.41
424.13	37.45
424.32	30.43
424.50	53.83
424.69	58.51
424.88	23.41
425.07	23.41
425.26	7.02
425.45	0.00
425.64	16.38
425.83	74.90
426.01	25.75
426.20	30.43
426.39	0.00
426.58	37.45
426.77	56.17
426.96	53.83
427.15	30.43
427.33	91.28
427.52	42.13
427.71	53.83
427.90	0.00
428.09	14.04
428.28	81.92
428.46	0.00
428.65	0.00
428.84	112.35
429.03	4.68
429.22	35.11
429.40	37.45
429.59	70.22
429.78	84.26
429.97	95.96
430.16	18.72
430.34	112.35
430.53	49.15
430.72	65.54
430.91	65.54
431.10	70.22
431.28	70.22
431.47	63.19
431.66	74.90
431.85	14.04
432.03	49.15
432.22	42.13
432.41	95.96
432.60	16.38
432.79	58.51
432.97	42.13
433.16	16.38
433.35	77.24
433.54	107.66
433.72	11.70
433.91	32.77
434.10	98.30
434.28	126.39
434.47	0.00
434.66	79.58
434.85	0.00
435.03	60.85
435.22	21.06
435.41	65.54
435.59	105.32
435.78	21.06
435.97	2.34
436.16	60.85
436.34	0.00
436.53	51.49
436.72	0.00
436.90	4.68
437.09	0.00
437.28	23.41
437.46	100.64
437.65	72.56
437.84	86.60
438.02	23.41
438.21	135.75
438.40	28.09
438.58	63.19
438.77	51.49
438.96	18.72
439.14	16.38
439.33	65.54
439.52	21.06
439.70	121.71
439.89	35.11
440.08	42.13
440.26	63.19
440.45	81.92
440.63	53.83
440.82	74.90
441.01	65.54
441.19	0.00
441.38	46.81
441.57	72.56
441.75	18.72
441.94	28.09
442.12	2.34
442.31	49.15
442.50	81.92
442.68	84.26
442.87	135.75
443.05	14.04
443.24	56.17
443.43	4.68
443.61	145.11
443.80	110.01
443.98	23.41
444.17	23.41
444.35	32.77
444.54	44.47
444.73	30.43
444.91	67.88
445.10	39.79
445.28	7.02
445.47	32.77
445.65	58.51
445.84	74.90
446.02	51.49
446.21	51.49
446.39	25.75
446.58	0.00
446.77	16.38
446.95	16.38
447.14	49.15
447.32	0.00
447.51	74.90
447.69	2.34
447.88	16.38
448.06	18.72
448.25	0.00
448.43	46.81
448.62	60.85
448.80	74.90
448.99	98.30
449.17	84.26
449.36	63.19
449.54	53.83
449.73	56.17
449.91	37.45
450.10	23.41
450.28	112.35
450.46	131.07
450.65	18.72
450.83	16.38
451.02	14.04
451.20	4.68
451.39	32.77
451.57	4.68
451.76	25.75
451.94	28.09
452.13	86.60
452.31	14.04
452.49	60.85
452.68	65.54
452.86	51.49
453.05	0.00
453.23	4.68
453.42	0.00
453.60	124.05
453.78	39.79
453.97	42.13
454.15	9.36
454.34	67.88
454.52	7.02
454.70	72.56
454.89	74.90
455.07	25.75
455.26	98.30
455.44	0.00
455.62	63.19
455.81	112.35
455.99	91.28
456.17	86.60
456.36	79.58
456.54	95.96
456.73	42.13
456.91	0.00
457.09	42.13
457.28	84.26
457.46	60.85
457.64	42.13
457.83	74.90
458.01	110.01
458.19	67.88
458.38	53.83
458.56	0.00
458.74	4.68
458.93	79.58
459.11	63.19
459.29	51.49
459.48	32.77
459.66	28.09
459.84	23.41
460.03	63.19
460.21	35.11
460.39	63.19
460.57	0.00
460.76	88.94
460.94	77.24
461.12	77.24
461.31	25.75
461.49	60.85
461.67	46.81
461.85	0.00
462.04	11.70
462.22	58.51
462.40	32.77
462.59	88.94
462.77	35.11
462.95	60.85
463.13	28.09
463.32	67.88
463.50	65.54
463.68	2.34
463.86	65.54
464.05	53.83
464.23	0.00
464.41	70.22
464.59	67.88
464.78	58.51
464.96	79.58
465.14	0.00
465.32	0.00
465.50	37.45
465.69	93.62
465.87	58.51
466.05	35.11
466.23	72.56
466.41	58.51
466.60	39.79
466.78	0.00
466.96	37.45
467.14	56.17
467.32	32.77
467.51	65.54
467.69	63.19
467.87	84.26
468.05	100.64
468.23	74.90
468.41	11.70
468.60	84.26
468.78	65.54
468.96	35.11
469.14	124.05
469.32	18.72
469.50	42.13
469.69	88.94
469.87	60.85
470.05	84.26
470.23	37.45
470.41	84.26
470.59	25.75
470.77	77.24
470.95	145.11
471.14	67.88
471.32	67.88
471.50	51.49
471.68	67.88
471.86	28.09
472.04	42.13
472.22	79.58
472.40	145.11
472.58	21.06
472.77	0.00
472.95	0.00
473.13	60.85
473.31	28.09
473.49	56.17
473.67	32.77
473.85	102.98
474.03	60.85
474.21	0.00
474.39	138.09
474.57	63.19
474.75	91.28
474.93	74.90
475.12	18.72
475.30	84.26
475.48	67.88
475.66	72.56
475.84	2.34
476.02	32.77
476.20	28.09
476.38	95.96
476.56	77.24
476.74	56.17
476.92	51.49
477.10	44.47
477.28	32.77
477.46	102.98
477.64	53.83
477.82	74.90
478.00	93.62
478.18	107.66
478.36	86.60
478.54	65.54
478.72	2.34
478.90	88.94
479.08	112.35
479.26	72.56
479.44	46.81
479.62	93.62
479.80	70.22
479.98	32.77
480.16	16.38
480.34	72.56
480.52	74.90
480.70	35.11
480.88	14.04
481.06	30.43
481.24	95.96
481.41	7.02
481.59	0.00
481.77	74.90
481.95	56.17
482.13	100.64
482.31	60.85
482.49	37.45
482.67	77.24
482.85	51.49
483.03	110.01
483.21	56.17
483.39	88.94
483.57	145.11
483.74	91.28
483.92	79.58
484.10	72.56
484.28	60.85
484.46	56.17
484.64	49.15
484.82	60.85
485.00	91.28
485.18	0.00
485.35	35.11
485.53	56.17
485.71	110.01
485.89	84.26
486.07	16.38
486.25	86.60
486.43	58.51
486.61	74.90
486.78	65.54
486.96	39.79
487.14	0.00
487.32	44.47
487.50	67.88
487.68	114.69
487.85	93.62
488.03	119.37
488.21	58.51
488.39	95.96
488.57	58.51
488.75	60.85
488.92	93.62
489.10	77.24
489.28	0.00
489.46	44.47
489.64	84.26
489.81	32.77
489.99	37.45
490.17	30.43
490.35	53.83
490.53	114.69
490.70	93.62
490.88	28.09
491.06	88.94
491.24	0.00
491.41	53.83
491.59	107.66
491.77	88.94
491.95	86.60
492.13	131.07
492.30	21.06
492.48	74.90
492.66	110.01
492.84	44.47
493.01	58.51
493.19	117.03
493.37	7.02
493.54	112.35
493.72	93.62
493.90	161.50
494.08	84.26
494.25	91.28
494.43	81.92
494.61	110.01
494.79	77.24
494.96	23.41
495.14	84.26
495.32	74.90
495.49	81.92
495.67	95.96
495.85	2.34
496.02	81.92
496.20	100.64
496.38	121.71
496.55	156.82
496.73	74.90
496.91	30.43
497.09	58.51
497.26	91.28
497.44	110.01
497.62	100.64
497.79	93.62
497.97	67.88
498.14	35.11
498.32	49.15
498.50	51.49
498.67	98.30
498.85	63.19
499.03	42.13
499.20	166.18
499.38	102.98
499.56	74.90
499.73	77.24
499.91	44.47
500.08	110.01
500.26	84.26
500.44	44.47
500.61	46.81
500.79	42.13
500.97	124.05
501.14	112.35
501.32	63.19
501.49	77.24
501.67	25.75
501.84	60.85
502.02	65.54
502.20	51.49
502.37	149.79
502.55	77.24
502.72	65.54
502.90	32.77
503.07	86.60
503.25	95.96
503.43	95.96
503.60	58.51
503.78	79.58
503.95	42.13
504.13	84.26
504.30	60.85
504.48	0.00
504.65	98.30
504.83	53.83
505.01	86.60
505.18	84.26
505.36	46.81
505.53	16.38
505.71	70.22
505.88	56.17
506.06	63.19
506.23	39.79
506.41	72.56
506.58	11.70
506.76	140.43
506.93	56.17
507.11	79.58
507.28	119.37
507.46	86.60
507.63	84.26
507.81	67.88
507.98	72.56
508.16	117.03
508.33	14.04
508.50	44.47
508.68	140.43
508.85	114.69
509.03	88.94
509.20	93.62
509.38	93.62
509.55	67.88
509.73	91.28
509.90	28.09
510.08	98.30
510.25	44.47
510.42	51.49
510.60	49.15
510.77	56.17
510.95	0.00
511.12	0.00
511.30	28.09
511.47	105.32
511.64	70.22
511.82	79.58
511.99	35.11
512.17	0.00
512.34	170.86
512.51	110.01
512.69	39.79
512.86	107.66
513.04	88.94
513.21	53.83
513.38	44.47
513.56	58.51
513.73	67.88
513.90	117.03
514.08	4.68
514.25	119.37
514.43	95.96
514.60	119.37
514.77	154.48
514.95	70.22
515.12	119.37
515.29	86.60
515.47	77.24
515.64	56.17
515.81	23.41
515.99	112.35
516.16	95.96
516.33	74.90
516.51	72.56
516.68	63.19
516.85	32.77
517.03	91.28
517.20	110.01
517.37	84.26
517.54	110.01
517.72	105.32
517.89	58.51
518.06	30.43
518.24	81.92
518.41	72.56
518.58	152.13
518.75	138.09
518.93	65.54
519.10	0.00
519.27	180.22
519.45	88.94
519.62	74.90
519.79	79.58
519.96	114.69
520.14	152.13
520.31	86.60
520.48	133.41
520.65	133.41
520.83	142.77
521.00	72.56
521.17	35.11
521.34	32.77
521.52	77.24
521.69	93.62
521.86	23.41
522.03	84.26
522.20	93.62
522.38	16.38
522.55	60.85
522.72	35.11
522.89	56.17
523.07	56.17
523.24	147.45
523.41	88.94
523.58	11.70
523.75	53.83
523.92	46.81
524.10	72.56
524.27	112.35
524.44	107.66
524.61	84.26
524.78	84.26
524.96	138.09
525.13	81.92
525.30	72.56
525.47	98.30
525.64	100.64
525.81	110.01
525.98	128.73
526.16	100.64
526.33	81.92
526.50	74.90
526.67	112.35
526.84	102.98
527.01	42.13
527.18	86.60
527.36	70.22
527.53	67.88
527.70	30.43
527.87	46.81
528.04	86.60
528.21	112.35
528.38	110.01
528.55	77.24
528.72	79.58
528.89	53.83
529.07	100.64
529.24	112.35
529.41	121.71
529.58	70.22
529.75	0.00
529.92	107.66
530.09	107.66
530.26	70.22
530.43	126.39
530.60	37.45
530.77	72.56
530.94	91.28
531.11	112.35
531.28	105.32
531.46	72.56
531.63	79.58
531.80	67.88
531.97	65.54
532.14	77.24
532.31	102.98
532.48	51.49
532.65	152.13
532.82	121.71
532.99	91.28
533.16	56.17
533.33	42.13
533.50	98.30
533.67	49.15
533.84	119.37
534.01	102.98
534.18	102.98
534.35	42.13
534.52	112.35
534.69	86.60
534.86	163.84
535.03	53.83
535.20	46.81
535.37	39.79
535.54	121.71
535.71	74.90
535.88	86.60
536.05	91.28
536.22	35.11
536.38	56.17
536.55	112.35
536.72	49.15
536.89	95.96
537.06	16.38
537.23	53.83
537.40	84.26
537.57	163.84
537.74	86.60
537.91	170.86
538.08	88.94
538.25	53.83
538.42	145.11
538.59	32.77
538.75	56.17
538.92	51.49
539.09	67.88
539.26	114.69
539.43	72.56
539.60	133.41
539.77	105.32
539.94	91.28
540.11	16.38
540.28	100.64
540.44	88.94
540.61	93.62
540.78	53.83
540.95	51.49
541.12	93.62
541.29	44.47
541.46	39.79
541.62	86.60
541.79	100.64
541.96	105.32
542.13	81.92
542.30	133.41
542.47	42.13
542.63	11.70
542.80	7.02
542.97	60.85
543.14	79.58
543.31	72.56
543.48	98.30
543.64	74.90
543.81	32.77
543.98	58.51
544.15	163.84
544.32	18.72
544.48	91.28
544.65	28.09
544.82	91.28
544.99	74.90
545.16	70.22
545.32	117.03
545.49	100.64
545.66	42.13
545.83	95.96
546.00	91.28
546.16	84.26
546.33	58.51
546.50	35.11
546.67	119.37
546.83	138.09
547.00	145.11
547.17	0.00
547.34	91.28
547.50	133.41
547.67	86.60
547.84	25.75
548.00	86.60
548.17	25.75
548.34	102.98
548.51	88.94
548.67	107.66
548.84	105.32
549.01	124.05
549.18	79.58
549.34	95.96
549.51	58.51
549.68	42.13
549.84	72.56
550.01	53.83
550.18	95.96
550.34	117.03
550.51	102.98
550.68	112.35
550.84	70.22
551.01	105.32
551.18	70.22
551.34	42.13
551.51	81.92
551.68	74.90
551.84	44.47
552.01	42.13
552.18	56.17
552.34	102.98
552.51	119.37
552.68	107.66
552.84	81.92
553.01	88.94
553.18	100.64
553.34	39.79
553.51	88.94
553.67	65.54
553.84	51.49
554.01	124.05
554.17	84.26
554.34	46.81
554.51	93.62
554.67	121.71
554.84	67.88
555.00	44.47
555.17	35.11
555.33	138.09
555.50	131.07
555.67	84.26
555.83	124.05
556.00	112.35
556.16	84.26
556.33	65.54
556.50	128.73
556.66	58.51
556.83	156.82
556.99	105.32
557.16	152.13
557.32	42.13
557.49	100.64
557.65	93.62
557.82	81.92
557.98	98.30
558.15	14.04
558.32	65.54
558.48	63.19
558.65	107.66
558.81	93.62
558.98	65.54
559.14	65.54
559.31	77.24
559.47	95.96
559.64	114.69
559.80	86.60
559.97	72.56
560.13	44.47
560.30	65.54
560.46	138.09
560.63	70.22
560.79	88.94
560.96	18.72
561.12	84.26
561.29	60.85
561.45	102.98
561.61	21.06
561.78	37.45
561.94	77.24
562.11	114.69
562.27	56.17
562.44	42.13
562.60	65.54
562.77	74.90
562.93	126.39
563.10	105.32
563.26	37.45
563.42	44.47
563.59	60.85
563.75	63.19
563.92	126.39
564.08	128.73
564.24	100.64
564.41	77.24
564.57	119.37
564.74	126.39
564.90	37.45
565.07	65.54
565.23	56.17
565.39	72.56
565.56	60.85
565.72	105.32
565.88	114.69
566.05	86.60
566.21	56.17
566.38	112.35
566.54	0.00
566.70	84.26
566.87	37.45
567.03	128.73
567.19	147.45
567.36	86.60
567.52	135.75
567.68	86.60
567.85	72.56
568.01	51.49
568.17	74.90
568.34	98.30
568.50	21.06
568.66	49.15
568.83	102.98
568.99	110.01
569.15	100.64
569.32	91.28
569.48	140.43
569.64	102.98
569.81	77.24
569.97	93.62
570.13	44.47
570.30	161.50
570.46	88.94
570.62	46.81
570.78	67.88
570.95	28.09
571.11	32.77
571.27	114.69
571.43	51.49
571.60	152.13
571.76	112.35
571.92	18.72
572.09	102.98
572.25	60.85
572.41	77.24
572.57	21.06
572.74	100.64
572.90	107.66
573.06	98.30
573.22	79.58
573.38	44.47
573.55	0.00
573.71	35.11
573.87	117.03
574.03	63.19
574.20	88.94
574.36	37.45
574.52	32.77
574.68	56.17
574.84	42.13
575.01	100.64
575.17	30.43
575.33	25.75
575.49	105.32
575.65	35.11
575.82	53.83
575.98	79.58
576.14	32.77
576.30	56.17
576.46	0.00
576.62	107.66
576.79	142.77
576.95	95.96
577.11	117.03
577.27	72.56
577.43	84.26
577.59	77.24
577.75	56.17
577.92	102.98
578.08	65.54
578.24	93.62
578.40	9.36
578.56	77.24
578.72	42.13
578.88	79.58
579.04	23.41
579.21	70.22
579.37	63.19
579.53	102.98
579.69	126.39
579.85	114.69
580.01	88.94
580.17	11.70
580.33	74.90
580.49	67.88
580.65	77.24
580.82	177.88
580.98	72.56
581.14	72.56
581.30	102.98
581.46	88.94
581.62	114.69
581.78	0.00
581.94	28.09
582.10	56.17
582.26	49.15
582.42	77.24
582.58	149.79
582.74	105.32
582.90	14.04
583.06	39.79
583.22	93.62
583.38	51.49
583.54	49.15
583.70	65.54
583.86	44.47
584.02	93.62
584.18	30.43
584.34	60.85
584.50	114.69
584.66	67.88
584.82	110.01
584.98	46.81
585.14	58.51
585.30	7.02
585.46	37.45
585.62	84.26
585.78	44.47
585.94	53.83
586.10	0.00
586.26	74.90
586.42	107.66
586.58	117.03
586.74	72.56
586.90	65.54
587.06	161.50
587.22	84.26
587.38	81.92
587.54	23.41
587.70	121.71
587.86	110.01
588.02	58.51
588.18	4.68
588.34	60.85
588.49	67.88
588.65	51.49
588.81	63.19
588.97	70.22
589.13	63.19
589.29	16.38
589.45	11.70
589.61	117.03
589.77	44.47
589.93	74.90
590.08	4.68
590.24	58.51
590.40	46.81
590.56	49.15
590.72	131.07
590.88	58.51
591.04	65.54
591.20	14.04
591.35	105.32
591.51	39.79
591.67	60.85
591.83	58.51
591.99	51.49
592.15	14.04
592.31	25.75
592.46	102.98
592.62	0.00
592.78	88.94
592.94	35.11
593.10	72.56
593.26	79.58
593.41	42.13
593.57	74.90
593.73	35.11
593.89	140.43
594.05	79.58
594.20	14.04
594.36	65.54
594.52	44.47
594.68	163.84
594.84	98.30
594.99	63.19
595.15	30.43
595.31	49.15
595.47	88.94
595.62	166.18
595.78	156.82
595.94	46.81
596.10	0.00
596.25	161.50
596.41	105.32
596.57	77.24
596.73	65.54
596.88	2.34
597.04	32.77
597.20	95.96
597.36	88.94
597.51	63.19
597.67	35.11
597.83	72.56
597.99	58.51
598.14	98.30
598.30	140.43
598.46	86.60
598.61	0.00
598.77	117.03
598.93	44.47
599.09	25.75
599.24	72.56
599.40	28.09
599.56	56.17
599.71	100.64
599.87	23.41
600.03	88.94
600.18	98.30
600.34	112.35
600.50	56.17
600.65	30.43
600.81	74.90
600.97	7.02
601.12	49.15
601.28	102.98
601.44	46.81
601.59	21.06
601.75	117.03
601.91	112.35
602.06	84.26
602.22	23.41
602.37	91.28
602.53	25.75
602.69	44.47
602.84	119.37
603.00	63.19
603.16	145.11
603.31	138.09
603.47	37.45
603.62	77.24
603.78	65.54
603.94	124.05
604.09	88.94
604.25	51.49
604.40	65.54
604.56	93.62
604.71	28.09
604.87	25.75
605.03	93.62
605.18	28.09
605.34	32.77
605.49	79.58
605.65	142.77
605.80	0.00
605.96	79.58
606.12	117.03
606.27	95.96
606.43	63.19
606.58	49.15
606.74	25.75
606.89	23.41
607.05	49.15
607.20	0.00
607.36	84.26
607.51	56.17
607.67	51.49
607.82	44.47
607.98	56.17
608.13	70.22
608.29	81.92
608.44	95.96
608.60	86.60
608.75	32.77
608.91	39.79
609.06	79.58
609.22	175.54
609.37	0.00
609.53	56.17
609.68	156.82
609.84	72.56
609.99	28.09
610.15	30.43
610.30	42.13
610.46	53.83
610.61	46.81
610.76	128.73
610.92	93.62
611.07	72.56
611.23	98.30
611.38	93.62
611.54	51.49
611.69	88.94
611.84	56.17
612.00	53.83
612.15	131.07
612.31	18.72
612.46	35.11
612.62	147.45
612.77	74.90
612.92	86.60
613.08	42.13
613.23	44.47
613.39	102.98
613.54	9.36
613.69	32.77
613.85	98.30
614.00	67.88
614.15	86.60
614.31	86.60
614.46	56.17
614.62	35.11
614.77	65.54
614.92	112.35
615.08	18.72
615.23	95.96
615.38	16.38
615.54	95.96
615.69	51.49
615.84	77.24
616.00	88.94
616.15	37.45
616.30	46.81
616.46	88.94
616.61	77.24
616.76	9.36
616.92	53.83
617.07	67.88
617.22	32.77
617.37	119.37
617.53	53.83
617.68	21.06
617.83	16.38
617.99	119.37
618.14	0.00
618.29	67.88
618.45	56.17
618.60	102.98
618.75	140.43
618.90	37.45
619.06	84.26
619.21	25.75
619.36	124.05
619.51	72.56
619.67	65.54
619.82	28.09
619.97	86.60
620.12	105.32
620.28	30.43
620.43	23.41
620.58	18.72
620.73	32.77
620.89	81.92
621.04	56.17
621.19	4.68
621.34	28.09
621.49	100.64
621.65	86.60
621.80	93.62
621.95	77.24
622.10	74.90
622.25	49.15
622.41	35.11
622.56	117.03
622.71	21.06
622.86	25.75
623.01	128.73
623.16	37.45
623.32	67.88
623.47	102.98
623.62	18.72
623.77	95.96
623.92	100.64
624.07	112.35
624.23	114.69
624.38	44.47
624.53	0.00
624.68	0.00
624.83	84.26
624.98	28.09
625.13	42.13
625.29	30.43
625.44	46.81
625.59	44.47
625.74	88.94
625.89	32.77
626.04	56.17
626.19	77.24
626.34	70.22
626.49	91.28
626.65	67.88
626.80	28.09
626.95	2.34
627.10	9.36
627.25	30.43
627.40	25.75
627.55	46.81
627.70	63.19
627.85	0.00
628.00	65.54
628.15	32.77
628.30	51.49
628.45	49.15
628.60	93.62
628.76	32.77
628.91	72.56
629.06	88.94
629.21	42.13
629.36	98.30
629.51	194.26
629.66	58.51
629.81	49.15
629.96	44.47
630.11	35.11
630.26	67.88
630.41	16.38
630.56	63.19
630.71	93.62
630.86	121.71
631.01	81.92
631.16	79.58
631.31	0.00
631.46	35.11
631.61	95.96
631.76	49.15
631.91	117.03
632.06	28.09
632.21	49.15
632.36	131.07
632.51	0.00
632.66	88.94
632.81	60.85
632.96	63.19
633.10	11.70
633.25	53.83
633.40	30.43
633.55	18.72
633.70	93.62
633.85	11.70
634.00	28.09
634.15	9.36
634.30	56.17
634.45	0.00
634.60	30.43
634.75	65.54
634.90	121.71
635.05	81.92
635.19	49.15
635.34	67.88
635.49	49.15
635.64	70.22
635.79	65.54
635.94	67.88
636.09	23.41
636.24	63.19
636.39	79.58
636.53	56.17
636.68	102.98
636.83	74.90
636.98	81.92
637.13	0.00
637.28	79.58
637.43	95.96
637.57	135.75
637.72	70.22
637.87	53.83
638.02	0.00
638.17	105.32
638.32	142.77
638.46	63.19
638.61	70.22
638.76	65.54
638.91	95.96
639.06	81.92
639.20	60.85
639.35	60.85
639.50	84.26
639.65	93.62
639.80	51.49
639.94	4.68
640.09	51.49
640.24	35.11
640.39	110.01
640.54	60.85
640.68	23.41
640.83	37.45
640.98	65.54
641.13	119.37
641.27	16.38
641.42	28.09
641.57	30.43
641.72	32.77
641.86	63.19
642.01	70.22
642.16	170.86
642.31	81.92
642.45	79.58
642.60	65.54
642.75	4.68
642.90	51.49
643.04	53.83
643.19	0.00
643.34	107.66
643.48	49.15
643.63	110.01
643.78	91.28
643.93	44.47
644.07	58.51
644.22	65.54
644.37	117.03
644.51	128.73
644.66	28.09
644.81	51.49
644.95	11.70
645.10	14.04
645.25	93.62
645.39	63.19
645.54	117.03
645.69	14.04
645.83	56.17
645.98	63.19
646.13	44.47
646.27	46.81
646.42	74.90
646.57	51.49
646.71	42.13
646.86	56.17
647.00	91.28
647.15	100.64
647.30	74.90
647.44	0.00
647.59	16.38
647.74	138.09
647.88	30.43
648.03	56.17
648.17	95.96
648.32	100.64
648.47	65.54
648.61	107.66
648.76	21.06
648.90	86.60
649.05	0.00
649.20	18.72
649.34	58.51
649.49	53.83
649.63	37.45
649.78	88.94
649.92	44.47
650.07	37.45
650.21	72.56
650.36	49.15
650.51	37.45
650.65	14.04
650.80	0.00
650.94	16.38
651.09	131.07
651.23	42.13
651.38	16.38
651.52	23.41
651.67	77.24
651.81	0.00
651.96	95.96
652.10	0.00
652.25	65.54
652.39	32.77
652.54	79.58
652.68	105.32
652.83	65.54
652.97	46.81
653.12	65.54
653.26	44.47
653.41	16.38
653.55	30.43
653.70	11.70
653.84	14.04
653.99	35.11
654.13	135.75
654.27	63.19
654.42	42.13
654.56	81.92
654.71	0.00
654.85	0.00
655.00	21.06
655.14	44.47
655.29	112.35
655.43	67.88
655.57	18.72
655.72	65.54
655.86	49.15
656.01	60.85
656.15	21.06
656.30	25.75
656.44	37.45
656.58	93.62
656.73	11.70
656.87	63.19
657.01	14.04
657.16	7.02
657.30	105.32
657.45	58.51
657.59	63.19
657.73	46.81
657.88	100.64
658.02	63.19
658.16	32.77
658.31	42.13
658.45	86.60
658.60	105.32
658.74	72.56
658.88	39.79
659.03	67.88
659.17	60.85
659.31	46.81
659.46	4.68
659.60	51.49
659.74	88.94
659.89	35.11
660.03	11.70
660.17	9.36
660.32	0.00
660.46	51.49
660.60	39.79
660.74	0.00
660.89	56.17
661.03	63.19
661.17	168.52
661.32	72.56
661.46	51.49
661.60	30.43
661.74	81.92
661.89	37.45
662.03	9.36
662.17	2.34
662.31	44.47
662.46	44.47
662.60	21.06
662.74	9.36
662.88	65.54
663.03	0.00
663.17	0.00
663.31	28.09
663.45	70.22
663.60	58.51
663.74	60.85
663.88	49.15
664.02	44.47
664.17	95.96
664.31	0.00
664.45	112.35
664.59	0.00
664.73	95.96
664.88	21.06
665.02	56.17
665.16	0.00
665.30	28.09
665.44	28.09
665.59	91.28
665.73	51.49
665.87	44.47
666.01	0.00
666.15	53.83
666.29	65.54
666.44	60.85
666.58	0.00
666.72	42.13
666.86	0.00
667.00	44.47
667.14	9.36
667.28	107.66
667.43	91.28
667.57	121.71
667.71	60.85
667.85	46.81
667.99	46.81
668.13	23.41
668.27	72.56
668.41	95.96
668.56	2.34
668.70	21.06
668.84	4.68
668.98	32.77
669.12	16.38
669.26	53.83
669.40	56.17
669.54	16.38
669.68	95.96
669.82	37.45
669.96	16.38
670.10	105.32
670.25	63.19
670.39	4.68
670.53	28.09
670.67	51.49
670.81	72.56
670.95	72.56
671.09	18.72
671.23	32.77
671.37	0.00
671.51	67.88
671.65	86.60
671.79	37.45
671.93	86.60
672.07	117.03
672.21	46.81
672.35	35.11
672.49	67.88
672.63	16.38
672.77	110.01
672.91	46.81
673.05	58.51
673.19	102.98
673.33	0.00
673.47	46.81
673.61	53.83
673.75	56.17
673.89	2.34
674.03	46.81
674.17	39.79
674.31	32.77
674.45	100.64
674.59	117.03
674.73	79.58
674.87	51.49
675.01	28.09
675.15	28.09
675.29	77.24
675.43	16.38
675.56	51.49
675.70	93.62
675.84	112.35
675.98	53.83
676.12	42.13
676.26	53.83
676.40	60.85
676.54	25.75
676.68	9.36
676.82	0.00
676.96	28.09
677.10	65.54
677.23	39.79
677.37	14.04
677.51	63.19
677.65	65.54
677.79	77.24
677.93	93.62
678.07	37.45
678.21	51.49
678.34	28.09
678.48	28.09
678.62	46.81
678.76	49.15
678.90	28.09
679.04	81.92
679.18	14.04
679.31	72.56
679.45	95.96
679.59	44.47
679.73	65.54
679.87	46.81
680.00	107.66
680.14	0.00
680.28	46.81
680.42	112.35
680.56	4.68
680.70	93.62
680.83	88.94
680.97	0.00
681.11	63.19
681.25	35.11
681.39	25.75
681.52	72.56
681.66	63.19
681.80	93.62
681.94	0.00
682.07	32.77
682.21	98.30
682.35	0.00
682.49	30.43
682.62	53.83
682.76	0.00
682.90	70.22
683.04	37.45
683.17	51.49
683.31	88.94
683.45	58.51
683.59	56.17
683.72	23.41
683.86	0.00
684.00	105.32
684.13	25.75
684.27	86.60
684.41	81.92
684.55	46.81
684.68	25.75
684.82	46.81
684.96	0.00
685.09	23.41
685.23	0.00
685.37	60.85
685.50	100.64
685.64	42.13
685.78	0.00
685.91	128.73
686.05	23.41
686.19	32.77
686.32	16.38
686.46	81.92
686.60	70.22
686.73	58.51
686.87	70.22
687.01	9.36
687.14	91.28
687.28	58.51
687.42	21.06
687.55	0.00
687.69	18.72
687.82	18.72
687.96	63.19
688.10	37.45
688.23	95.96
688.37	107.66
688.50	0.00
688.64	95.96
688.78	14.04
688.91	21.06
689.05	35.11
689.18	35.11
689.32	72.56
689.46	16.38
689.59	0.00
689.73	39.79
689.86	30.43
690.00	4.68
690.13	35.11
690.27	65.54
690.41	37.45
690.54	86.60
690.68	32.77
690.81	58.51
690.95	16.38
691.08	37.45
691.22	14.04
691.35	0.00
691.49	63.19
691.62	42.13
691.76	74.90
691.89	7.02
692.03	105.32
692.16	32.77
692.30	32.77
692.43	58.51
692.57	53.83
692.70	63.19
692.84	0.00
692.97	11.70
693.11	14.04
693.24	60.85
693.38	98.30
693.51	0.00
693.65	105.32
693.78	65.54
693.92	42.13
694.05	0.00
694.19	42.13
694.32	81.92
694.45	37.45
694.59	51.49
694.72	51.49
694.86	88.94
694.99	42.13
695.13	28.09
695.26	63.19
695.39	74.90
695.53	32.77
695.66	11.70
695.80	4.68
695.93	53.83
696.07	4.68
696.20	39.79
696.33	42.13
696.47	28.09
696.60	65.54
696.73	23.41
696.87	32.77
697.00	51.49
697.14	0.00
697.27	0.00
697.40	39.79
697.54	30.43
697.67	100.64
697.80	53.83
697.94	7.02
698.07	79.58
698.21	25.75
698.34	0.00
698.47	28.09
698.61	72.56
698.74	0.00
698.87	42.13
699.01	23.41
699.14	0.00
699.27	35.11
699.40	79.58
699.54	79.58
699.67	0.00
699.80	56.17
699.94	7.02
700.07	35.11
700.20	7.02
700.34	79.58
700.47	30.43
700.60	65.54
700.73	16.38
700.87	0.00
701.00	18.72
701.13	21.06
701.26	63.19
701.40	79.58
701.53	42.13
701.66	70.22
701.79	9.36
701.93	39.79
702.06	0.00
702.19	72.56
702.32	56.17
702.46	0.00
702.59	56.17
702.72	0.00
702.85	37.45
702.99	42.13
703.12	53.83
703.25	0.00
703.38	74.90
703.51	28.09
703.65	11.70
703.78	51.49
703.91	44.47
704.04	30.43
704.17	7.02
704.31	0.00
704.44	23.41
704.57	63.19
704.70	63.19
704.83	77.24
704.96	53.83
705.10	32.77
705.23	0.00
>>>>>End Processed Spectral Data<<<<<
