SpectraSuite Data File
++++++++++++++++++++++++++++++++++++
Date: Fri Oct 04 12:13:30 GMT-05:00 2013
User: price-jones
Dark Spectrum Present: No
Reference Spectrum Present: No
Number of Sampled Component Spectra: 1
Spectrometers: USB2+H05261
Integration Time (usec): 10000 (USB2+H05261)
Spectra Averaged: 1 (USB2+H05261)
Boxcar Smoothing: 0 (USB2+H05261)
Correct for Electrical Dark: No (USB2+H05261)
Strobe/Lamp Enabled: No (USB2+H05261)
Correct for Detector Non-linearity: No (USB2+H05261)
Correct for Stray Light: No (USB2+H05261)
Number of Pixels in Processed Spectrum: 2048
>>>>>Begin Processed Spectral Data<<<<<
365.73	0.00
365.92	0.00
366.12	0.00
366.32	0.00
366.52	0.00
366.72	0.00
366.91	0.00
367.11	0.00
367.31	0.00
367.51	0.00
367.70	0.00
367.90	0.00
368.10	0.00
368.30	0.00
368.49	0.00
368.69	0.00
368.89	0.00
369.09	0.00
369.28	0.00
369.48	0.00
369.68	0.00
369.87	0.00
370.07	0.00
370.27	0.00
370.47	0.00
370.66	0.00
370.86	0.00
371.06	35.11
371.25	0.00
371.45	44.47
371.65	0.00
371.84	0.00
372.04	0.00
372.24	0.00
372.44	0.00
372.63	0.00
372.83	0.00
373.03	70.22
373.22	23.41
373.42	88.94
373.62	119.37
373.81	37.45
374.01	86.60
374.21	0.00
374.40	39.79
374.60	77.24
374.79	32.77
374.99	21.06
375.19	91.28
375.38	11.70
375.58	49.15
375.78	11.70
375.97	7.02
376.17	21.06
376.37	28.09
376.56	9.36
376.76	0.00
376.95	16.38
377.15	70.22
377.35	14.04
377.54	21.06
377.74	0.00
377.93	72.56
378.13	0.00
378.33	67.88
378.52	0.00
378.72	46.81
378.91	23.41
379.11	0.00
379.31	9.36
379.50	28.09
379.70	63.19
379.89	30.43
380.09	25.75
380.28	39.79
380.48	0.00
380.68	4.68
380.87	0.00
381.07	70.22
381.26	2.34
381.46	11.70
381.65	0.00
381.85	32.77
382.04	0.00
382.24	72.56
382.43	0.00
382.63	0.00
382.83	39.79
383.02	21.06
383.22	25.75
383.41	21.06
383.61	11.70
383.80	0.00
384.00	32.77
384.19	4.68
384.39	0.00
384.58	0.00
384.78	37.45
384.97	0.00
385.17	4.68
385.36	18.72
385.56	44.47
385.75	0.00
385.95	0.00
386.14	0.00
386.34	51.49
386.53	4.68
386.72	44.47
386.92	21.06
387.11	67.88
387.31	0.00
387.50	49.15
387.70	23.41
387.89	79.58
388.09	0.00
388.28	65.54
388.48	0.00
388.67	53.83
388.86	44.47
389.06	9.36
389.25	7.02
389.45	0.00
389.64	18.72
389.84	28.09
390.03	0.00
390.22	60.85
390.42	65.54
390.61	81.92
390.81	30.43
391.00	53.83
391.19	0.00
391.39	32.77
391.58	46.81
391.78	60.85
391.97	35.11
392.16	81.92
392.36	81.92
392.55	28.09
392.75	0.00
392.94	14.04
393.13	0.00
393.33	32.77
393.52	0.00
393.71	18.72
393.91	7.02
394.10	44.47
394.29	18.72
394.49	60.85
394.68	51.49
394.88	77.24
395.07	16.38
395.26	25.75
395.46	30.43
395.65	0.00
395.84	0.00
396.04	58.51
396.23	23.41
396.42	46.81
396.62	11.70
396.81	84.26
397.00	42.13
397.19	23.41
397.39	16.38
397.58	53.83
397.77	2.34
397.97	0.00
398.16	0.00
398.35	0.00
398.55	11.70
398.74	56.17
398.93	35.11
399.12	0.00
399.32	77.24
399.51	46.81
399.70	0.00
399.90	23.41
400.09	77.24
400.28	18.72
400.47	67.88
400.67	30.43
400.86	21.06
401.05	44.47
401.24	51.49
401.44	0.00
401.63	32.77
401.82	16.38
402.01	14.04
402.21	32.77
402.40	35.11
402.59	23.41
402.78	4.68
402.97	0.00
403.17	58.51
403.36	0.00
403.55	0.00
403.74	42.13
403.93	0.00
404.13	37.45
404.32	44.47
404.51	0.00
404.70	131.07
404.89	0.00
405.09	14.04
405.28	0.00
405.47	4.68
405.66	0.00
405.85	91.28
406.05	4.68
406.24	11.70
406.43	65.54
406.62	23.41
406.81	37.45
407.00	16.38
407.20	63.19
407.39	37.45
407.58	0.00
407.77	60.85
407.96	32.77
408.15	0.00
408.34	51.49
408.54	0.00
408.73	28.09
408.92	39.79
409.11	0.00
409.30	35.11
409.49	67.88
409.68	0.00
409.87	0.00
410.07	18.72
410.26	4.68
410.45	0.00
410.64	86.60
410.83	32.77
411.02	0.00
411.21	21.06
411.40	0.00
411.59	42.13
411.78	2.34
411.98	56.17
412.17	39.79
412.36	2.34
412.55	9.36
412.74	39.79
412.93	46.81
413.12	11.70
413.31	56.17
413.50	9.36
413.69	44.47
413.88	63.19
414.07	32.77
414.26	72.56
414.45	77.24
414.64	4.68
414.83	39.79
415.02	2.34
415.22	72.56
415.41	37.45
415.60	72.56
415.79	11.70
415.98	14.04
416.17	53.83
416.36	9.36
416.55	21.06
416.74	30.43
416.93	25.75
417.12	0.00
417.31	9.36
417.50	0.00
417.69	11.70
417.88	51.49
418.07	117.03
418.26	4.68
418.45	18.72
418.64	46.81
418.83	0.00
419.02	67.88
419.21	9.36
419.39	0.00
419.58	35.11
419.77	46.81
419.96	23.41
420.15	93.62
420.34	23.41
420.53	35.11
420.72	77.24
420.91	16.38
421.10	4.68
421.29	72.56
421.48	11.70
421.67	4.68
421.86	21.06
422.05	46.81
422.24	100.64
422.43	72.56
422.61	37.45
422.80	98.30
422.99	42.13
423.18	60.85
423.37	9.36
423.56	0.00
423.75	95.96
423.94	74.90
424.13	30.43
424.32	102.98
424.50	0.00
424.69	0.00
424.88	53.83
425.07	28.09
425.26	0.00
425.45	58.51
425.64	7.02
425.83	28.09
426.01	0.00
426.20	63.19
426.39	0.00
426.58	49.15
426.77	37.45
426.96	0.00
427.15	67.88
427.33	7.02
427.52	0.00
427.71	25.75
427.90	65.54
428.09	126.39
428.28	0.00
428.46	0.00
428.65	32.77
428.84	0.00
429.03	46.81
429.22	25.75
429.40	32.77
429.59	49.15
429.78	32.77
429.97	28.09
430.16	25.75
430.34	49.15
430.53	16.38
430.72	4.68
430.91	2.34
431.10	49.15
431.28	53.83
431.47	63.19
431.66	42.13
431.85	0.00
432.03	0.00
432.22	0.00
432.41	0.00
432.60	114.69
432.79	9.36
432.97	0.00
433.16	0.00
433.35	2.34
433.54	0.00
433.72	72.56
433.91	39.79
434.10	84.26
434.28	77.24
434.47	11.70
434.66	39.79
434.85	0.00
435.03	25.75
435.22	100.64
435.41	81.92
435.59	28.09
435.78	14.04
435.97	46.81
436.16	100.64
436.34	0.00
436.53	28.09
436.72	28.09
436.90	0.00
437.09	0.00
437.28	11.70
437.46	32.77
437.65	88.94
437.84	53.83
438.02	25.75
438.21	11.70
438.40	25.75
438.58	53.83
438.77	30.43
438.96	4.68
439.14	63.19
439.33	23.41
439.52	0.00
439.70	0.00
439.89	117.03
440.08	42.13
440.26	16.38
440.45	98.30
440.63	0.00
440.82	67.88
441.01	46.81
441.19	51.49
441.38	7.02
441.57	30.43
441.75	39.79
441.94	7.02
442.12	56.17
442.31	105.32
442.50	65.54
442.68	23.41
442.87	51.49
443.05	0.00
443.24	46.81
443.43	56.17
443.61	14.04
443.80	7.02
443.98	0.00
444.17	56.17
444.35	81.92
444.54	37.45
444.73	30.43
444.91	70.22
445.10	4.68
445.28	0.00
445.47	28.09
445.65	14.04
445.84	25.75
446.02	56.17
446.21	23.41
446.39	67.88
446.58	37.45
446.77	58.51
446.95	11.70
447.14	51.49
447.32	39.79
447.51	16.38
447.69	25.75
447.88	2.34
448.06	110.01
448.25	0.00
448.43	0.00
448.62	0.00
448.80	77.24
448.99	14.04
449.17	18.72
449.36	9.36
449.54	65.54
449.73	11.70
449.91	77.24
450.10	37.45
450.28	95.96
450.46	91.28
450.65	32.77
450.83	46.81
451.02	35.11
451.20	0.00
451.39	0.00
451.57	67.88
451.76	21.06
451.94	23.41
452.13	44.47
452.31	49.15
452.49	23.41
452.68	18.72
452.86	128.73
453.05	98.30
453.23	21.06
453.42	0.00
453.60	67.88
453.78	44.47
453.97	58.51
454.15	0.00
454.34	100.64
454.52	51.49
454.70	30.43
454.89	49.15
455.07	0.00
455.26	0.00
455.44	30.43
455.62	74.90
455.81	0.00
455.99	11.70
456.17	30.43
456.36	35.11
456.54	30.43
456.73	58.51
456.91	91.28
457.09	72.56
457.28	58.51
457.46	11.70
457.64	100.64
457.83	21.06
458.01	0.00
458.19	25.75
458.38	53.83
458.56	37.45
458.74	35.11
458.93	0.00
459.11	44.47
459.29	107.66
459.48	37.45
459.66	32.77
459.84	86.60
460.03	107.66
460.21	58.51
460.39	72.56
460.57	0.00
460.76	46.81
460.94	88.94
461.12	63.19
461.31	46.81
461.49	32.77
461.67	18.72
461.85	0.00
462.04	0.00
462.22	128.73
462.40	51.49
462.59	7.02
462.77	42.13
462.95	86.60
463.13	32.77
463.32	11.70
463.50	46.81
463.68	37.45
463.86	4.68
464.05	46.81
464.23	37.45
464.41	21.06
464.59	11.70
464.78	14.04
464.96	56.17
465.14	18.72
465.32	74.90
465.50	21.06
465.69	42.13
465.87	23.41
466.05	42.13
466.23	30.43
466.41	39.79
466.60	58.51
466.78	70.22
466.96	23.41
467.14	18.72
467.32	4.68
467.51	0.00
467.69	0.00
467.87	14.04
468.05	67.88
468.23	0.00
468.41	23.41
468.60	65.54
468.78	77.24
468.96	49.15
469.14	30.43
469.32	30.43
469.50	28.09
469.69	2.34
469.87	0.00
470.05	46.81
470.23	35.11
470.41	0.00
470.59	9.36
470.77	0.00
470.95	7.02
471.14	44.47
471.32	81.92
471.50	25.75
471.68	28.09
471.86	9.36
472.04	28.09
472.22	11.70
472.40	0.00
472.58	0.00
472.77	35.11
472.95	65.54
473.13	81.92
473.31	100.64
473.49	23.41
473.67	46.81
473.85	63.19
474.03	9.36
474.21	88.94
474.39	0.00
474.57	70.22
474.75	39.79
474.93	51.49
475.12	0.00
475.30	42.13
475.48	37.45
475.66	14.04
475.84	14.04
476.02	67.88
476.20	46.81
476.38	56.17
476.56	37.45
476.74	105.32
476.92	16.38
477.10	25.75
477.28	0.00
477.46	14.04
477.64	119.37
477.82	100.64
478.00	49.15
478.18	58.51
478.36	32.77
478.54	21.06
478.72	16.38
478.90	102.98
479.08	65.54
479.26	14.04
479.44	14.04
479.62	44.47
479.80	25.75
479.98	25.75
480.16	86.60
480.34	67.88
480.52	0.00
480.70	16.38
480.88	0.00
481.06	0.00
481.24	2.34
481.41	0.00
481.59	128.73
481.77	28.09
481.95	58.51
482.13	70.22
482.31	0.00
482.49	37.45
482.67	0.00
482.85	0.00
483.03	53.83
483.21	0.00
483.39	44.47
483.57	21.06
483.74	4.68
483.92	117.03
484.10	0.00
484.28	46.81
484.46	0.00
484.64	81.92
484.82	44.47
485.00	53.83
485.18	39.79
485.35	7.02
485.53	25.75
485.71	35.11
485.89	91.28
486.07	4.68
486.25	28.09
486.43	86.60
486.61	23.41
486.78	0.00
486.96	0.00
487.14	46.81
487.32	0.00
487.50	11.70
487.68	44.47
487.85	60.85
488.03	49.15
488.21	51.49
488.39	81.92
488.57	4.68
488.75	0.00
488.92	44.47
489.10	42.13
489.28	14.04
489.46	105.32
489.64	95.96
489.81	49.15
489.99	21.06
490.17	0.00
490.35	93.62
490.53	44.47
490.70	72.56
490.88	70.22
491.06	11.70
491.24	135.75
491.41	11.70
491.59	37.45
491.77	51.49
491.95	81.92
492.13	0.00
492.30	58.51
492.48	16.38
492.66	46.81
492.84	0.00
493.01	0.00
493.19	77.24
493.37	0.00
493.54	88.94
493.72	74.90
493.90	72.56
494.08	95.96
494.25	53.83
494.43	0.00
494.61	51.49
494.79	30.43
494.96	37.45
495.14	25.75
495.32	32.77
495.49	46.81
495.67	65.54
495.85	63.19
496.02	0.00
496.20	0.00
496.38	30.43
496.55	18.72
496.73	91.28
496.91	65.54
497.09	2.34
497.26	51.49
497.44	84.26
497.62	4.68
497.79	72.56
497.97	53.83
498.14	44.47
498.32	46.81
498.50	63.19
498.67	65.54
498.85	72.56
499.03	98.30
499.20	121.71
499.38	2.34
499.56	84.26
499.73	35.11
499.91	0.00
500.08	49.15
500.26	81.92
500.44	56.17
500.61	0.00
500.79	21.06
500.97	100.64
501.14	79.58
501.32	25.75
501.49	25.75
501.67	28.09
501.84	0.00
502.02	44.47
502.20	65.54
502.37	91.28
502.55	95.96
502.72	56.17
502.90	49.15
503.07	39.79
503.25	77.24
503.43	11.70
503.60	39.79
503.78	0.00
503.95	51.49
504.13	0.00
504.30	35.11
504.48	74.90
504.65	56.17
504.83	42.13
505.01	18.72
505.18	0.00
505.36	32.77
505.53	58.51
505.71	30.43
505.88	98.30
506.06	25.75
506.23	107.66
506.41	18.72
506.58	18.72
506.76	0.00
506.93	0.00
507.11	18.72
507.28	65.54
507.46	9.36
507.63	39.79
507.81	77.24
507.98	46.81
508.16	7.02
508.33	53.83
508.50	37.45
508.68	51.49
508.85	39.79
509.03	53.83
509.20	0.00
509.38	37.45
509.55	37.45
509.73	37.45
509.90	53.83
510.08	65.54
510.25	7.02
510.42	46.81
510.60	81.92
510.77	18.72
510.95	121.71
511.12	63.19
511.30	42.13
511.47	86.60
511.64	72.56
511.82	2.34
511.99	100.64
512.17	16.38
512.34	32.77
512.51	65.54
512.69	49.15
512.86	32.77
513.04	11.70
513.21	63.19
513.38	42.13
513.56	65.54
513.73	63.19
513.90	51.49
514.08	18.72
514.25	18.72
514.43	0.00
514.60	44.47
514.77	81.92
514.95	37.45
515.12	11.70
515.29	58.51
515.47	4.68
515.64	124.05
515.81	25.75
515.99	74.90
516.16	0.00
516.33	28.09
516.51	37.45
516.68	30.43
516.85	74.90
517.03	23.41
517.20	0.00
517.37	81.92
517.54	2.34
517.72	18.72
517.89	77.24
518.06	18.72
518.24	0.00
518.41	86.60
518.58	65.54
518.75	0.00
518.93	39.79
519.10	0.00
519.27	49.15
519.45	21.06
519.62	67.88
519.79	32.77
519.96	42.13
520.14	28.09
520.31	32.77
520.48	25.75
520.65	46.81
520.83	63.19
521.00	4.68
521.17	0.00
521.34	16.38
521.52	7.02
521.69	44.47
521.86	98.30
522.03	25.75
522.20	102.98
522.38	16.38
522.55	14.04
522.72	74.90
522.89	28.09
523.07	46.81
523.24	119.37
523.41	79.58
523.58	53.83
523.75	37.45
523.92	39.79
524.10	42.13
524.27	39.79
524.44	32.77
524.61	119.37
524.78	37.45
524.96	4.68
525.13	46.81
525.30	30.43
525.47	44.47
525.64	9.36
525.81	32.77
525.98	46.81
526.16	0.00
526.33	14.04
526.50	39.79
526.67	14.04
526.84	39.79
527.01	0.00
527.18	11.70
527.36	37.45
527.53	44.47
527.70	28.09
527.87	56.17
528.04	0.00
528.21	42.13
528.38	23.41
528.55	102.98
528.72	77.24
528.89	30.43
529.07	86.60
529.24	28.09
529.41	37.45
529.58	25.75
529.75	65.54
529.92	23.41
530.09	72.56
530.26	0.00
530.43	0.00
530.60	14.04
530.77	77.24
530.94	51.49
531.11	0.00
531.28	28.09
531.46	42.13
531.63	42.13
531.80	65.54
531.97	14.04
532.14	42.13
532.31	11.70
532.48	42.13
532.65	49.15
532.82	159.16
532.99	56.17
533.16	44.47
533.33	11.70
533.50	35.11
533.67	0.00
533.84	0.00
534.01	51.49
534.18	53.83
534.35	21.06
534.52	18.72
534.69	14.04
534.86	58.51
535.03	107.66
535.20	35.11
535.37	70.22
535.54	46.81
535.71	0.00
535.88	53.83
536.05	0.00
536.22	4.68
536.38	56.17
536.55	32.77
536.72	0.00
536.89	51.49
537.06	44.47
537.23	14.04
537.40	4.68
537.57	28.09
537.74	53.83
537.91	91.28
538.08	7.02
538.25	0.00
538.42	0.00
538.59	91.28
538.75	49.15
538.92	39.79
539.09	81.92
539.26	28.09
539.43	77.24
539.60	95.96
539.77	42.13
539.94	67.88
540.11	93.62
540.28	70.22
540.44	16.38
540.61	18.72
540.78	91.28
540.95	84.26
541.12	93.62
541.29	98.30
541.46	0.00
541.62	56.17
541.79	72.56
541.96	35.11
542.13	110.01
542.30	42.13
542.47	70.22
542.63	21.06
542.80	93.62
542.97	95.96
543.14	16.38
543.31	0.00
543.48	60.85
543.64	88.94
543.81	32.77
543.98	21.06
544.15	44.47
544.32	72.56
544.48	72.56
544.65	25.75
544.82	88.94
544.99	49.15
545.16	32.77
545.32	70.22
545.49	30.43
545.66	0.00
545.83	0.00
546.00	60.85
546.16	77.24
546.33	154.48
546.50	114.69
546.67	77.24
546.83	98.30
547.00	25.75
547.17	60.85
547.34	81.92
547.50	16.38
547.67	32.77
547.84	53.83
548.00	72.56
548.17	21.06
548.34	46.81
548.51	60.85
548.67	21.06
548.84	0.00
549.01	37.45
549.18	84.26
549.34	60.85
549.51	18.72
549.68	84.26
549.84	131.07
550.01	32.77
550.18	105.32
550.34	16.38
550.51	110.01
550.68	30.43
550.84	65.54
551.01	0.00
551.18	152.13
551.34	72.56
551.51	81.92
551.68	42.13
551.84	2.34
552.01	46.81
552.18	23.41
552.34	114.69
552.51	37.45
552.68	72.56
552.84	77.24
553.01	133.41
553.18	65.54
553.34	93.62
553.51	39.79
553.67	86.60
553.84	98.30
554.01	0.00
554.17	0.00
554.34	2.34
554.51	25.75
554.67	30.43
554.84	81.92
555.00	60.85
555.17	44.47
555.33	39.79
555.50	102.98
555.67	84.26
555.83	63.19
556.00	86.60
556.16	74.90
556.33	0.00
556.50	84.26
556.66	58.51
556.83	46.81
556.99	107.66
557.16	32.77
557.32	44.47
557.49	7.02
557.65	81.92
557.82	65.54
557.98	79.58
558.15	11.70
558.32	14.04
558.48	93.62
558.65	98.30
558.81	9.36
558.98	0.00
559.14	56.17
559.31	53.83
559.47	53.83
559.64	77.24
559.80	23.41
559.97	32.77
560.13	56.17
560.30	35.11
560.46	46.81
560.63	11.70
560.79	11.70
560.96	16.38
561.12	42.13
561.29	35.11
561.45	0.00
561.61	39.79
561.78	46.81
561.94	32.77
562.11	81.92
562.27	7.02
562.44	16.38
562.60	100.64
562.77	93.62
562.93	86.60
563.10	9.36
563.26	58.51
563.42	56.17
563.59	44.47
563.75	56.17
563.92	0.00
564.08	74.90
564.24	39.79
564.41	21.06
564.57	37.45
564.74	46.81
564.90	77.24
565.07	2.34
565.23	74.90
565.39	70.22
565.56	23.41
565.72	56.17
565.88	65.54
566.05	30.43
566.21	60.85
566.38	79.58
566.54	0.00
566.70	0.00
566.87	32.77
567.03	18.72
567.19	42.13
567.36	0.00
567.52	9.36
567.68	11.70
567.85	2.34
568.01	30.43
568.17	107.66
568.34	32.77
568.50	39.79
568.66	39.79
568.83	56.17
568.99	4.68
569.15	77.24
569.32	16.38
569.48	21.06
569.64	53.83
569.81	0.00
569.97	100.64
570.13	25.75
570.30	0.00
570.46	100.64
570.62	30.43
570.78	25.75
570.95	7.02
571.11	65.54
571.27	86.60
571.43	77.24
571.60	39.79
571.76	37.45
571.92	0.00
572.09	0.00
572.25	63.19
572.41	65.54
572.57	72.56
572.74	46.81
572.90	0.00
573.06	0.00
573.22	65.54
573.38	107.66
573.55	145.11
573.71	0.00
573.87	14.04
574.03	95.96
574.20	23.41
574.36	53.83
574.52	70.22
574.68	119.37
574.84	56.17
575.01	0.00
575.17	81.92
575.33	37.45
575.49	39.79
575.65	46.81
575.82	63.19
575.98	0.00
576.14	30.43
576.30	56.17
576.46	7.02
576.62	7.02
576.79	7.02
576.95	107.66
577.11	25.75
577.27	32.77
577.43	0.00
577.59	39.79
577.75	63.19
577.92	84.26
578.08	44.47
578.24	49.15
578.40	44.47
578.56	79.58
578.72	81.92
578.88	60.85
579.04	0.00
579.21	30.43
579.37	114.69
579.53	37.45
579.69	49.15
579.85	32.77
580.01	0.00
580.17	7.02
580.33	37.45
580.49	7.02
580.65	0.00
580.82	30.43
580.98	51.49
581.14	60.85
581.30	0.00
581.46	9.36
581.62	51.49
581.78	25.75
581.94	53.83
582.10	14.04
582.26	35.11
582.42	42.13
582.58	95.96
582.74	42.13
582.90	98.30
583.06	91.28
583.22	44.47
583.38	7.02
583.54	88.94
583.70	16.38
583.86	72.56
584.02	100.64
584.18	138.09
584.34	63.19
584.50	236.39
584.66	861.32
584.82	1743.70
584.98	2317.13
585.14	2022.22
585.30	1313.04
585.46	880.04
585.62	575.77
585.78	283.20
585.94	163.84
586.10	18.72
586.26	60.85
586.42	133.41
586.58	63.19
586.74	39.79
586.90	0.00
587.06	39.79
587.22	49.15
587.38	67.88
587.54	0.00
587.70	173.20
587.86	184.90
588.02	208.31
588.18	198.95
588.34	110.01
588.49	117.03
588.65	53.83
588.81	58.51
588.97	0.00
589.13	0.00
589.29	74.90
589.45	65.54
589.61	112.35
589.77	30.43
589.93	16.38
590.08	9.36
590.24	67.88
590.40	9.36
590.56	100.64
590.72	25.75
590.88	35.11
591.04	0.00
591.20	39.79
591.35	107.66
591.51	70.22
591.67	25.75
591.83	14.04
591.99	32.77
592.15	51.49
592.31	28.09
592.46	0.00
592.62	7.02
592.78	44.47
592.94	35.11
593.10	53.83
593.26	30.43
593.41	0.00
593.57	35.11
593.73	100.64
593.89	86.60
594.05	262.14
594.20	332.36
594.36	273.84
594.52	198.95
594.68	194.26
594.84	152.13
594.99	67.88
595.15	44.47
595.31	18.72
595.47	67.88
595.62	79.58
595.78	51.49
595.94	74.90
596.10	25.75
596.25	58.51
596.41	86.60
596.57	65.54
596.73	65.54
596.88	77.24
597.04	98.30
597.20	145.11
597.36	77.24
597.51	93.62
597.67	84.26
597.83	23.41
597.99	23.41
598.14	0.00
598.30	37.45
598.46	0.00
598.61	0.00
598.77	46.81
598.93	84.26
599.09	72.56
599.24	0.00
599.40	14.04
599.56	44.47
599.71	74.90
599.87	0.00
600.03	0.00
600.18	18.72
600.34	18.72
600.50	7.02
600.65	46.81
600.81	0.00
600.97	65.54
601.12	93.62
601.28	11.70
601.44	9.36
601.59	32.77
601.75	42.13
601.91	2.34
602.06	23.41
602.22	81.92
602.37	77.24
602.53	72.56
602.69	58.51
602.84	102.98
603.00	114.69
603.16	63.19
603.31	49.15
603.47	72.56
603.62	35.11
603.78	32.77
603.94	0.00
604.09	60.85
604.25	0.00
604.40	86.60
604.56	51.49
604.71	9.36
604.87	60.85
605.03	14.04
605.18	44.47
605.34	14.04
605.49	67.88
605.65	114.69
605.80	67.88
605.96	46.81
606.12	72.56
606.27	21.06
606.43	0.00
606.58	74.90
606.74	79.58
606.89	173.20
607.05	238.73
607.20	311.29
607.36	243.42
607.51	180.22
607.67	119.37
607.82	93.62
607.98	187.24
608.13	2.34
608.29	105.32
608.44	0.00
608.60	14.04
608.75	0.00
608.91	79.58
609.06	170.86
609.22	362.78
609.37	512.58
609.53	367.46
609.68	280.86
609.84	264.48
609.99	86.60
610.15	86.60
610.30	39.79
610.46	79.58
610.61	35.11
610.76	56.17
610.92	25.75
611.07	81.92
611.23	56.17
611.38	102.98
611.54	14.04
611.69	133.41
611.84	44.47
612.00	21.06
612.15	16.38
612.31	126.39
612.46	70.22
612.62	0.00
612.77	49.15
612.92	46.81
613.08	16.38
613.23	0.00
613.39	30.43
613.54	74.90
613.69	205.97
613.85	472.79
614.00	653.01
614.15	706.84
614.31	517.26
614.46	346.40
614.62	191.92
614.77	88.94
614.92	154.48
615.08	124.05
615.23	74.90
615.38	67.88
615.54	28.09
615.69	81.92
615.84	70.22
616.00	196.60
616.15	205.97
616.30	152.13
616.46	248.10
616.61	53.83
616.76	44.47
616.92	49.15
617.07	65.54
617.22	156.82
617.37	46.81
617.53	0.00
617.68	30.43
617.83	79.58
617.99	110.01
618.14	28.09
618.29	14.04
618.45	49.15
618.60	28.09
618.75	0.00
618.90	39.79
619.06	7.02
619.21	0.00
619.36	0.00
619.51	56.17
619.67	77.24
619.82	70.22
619.97	46.81
620.12	21.06
620.28	18.72
620.43	0.00
620.58	0.00
620.73	0.00
620.89	0.00
621.04	93.62
621.19	42.13
621.34	98.30
621.49	140.43
621.65	117.03
621.80	117.03
621.95	138.09
622.10	110.01
622.25	25.75
622.41	2.34
622.56	14.04
622.71	44.47
622.86	11.70
623.01	65.54
623.16	0.00
623.32	49.15
623.47	4.68
623.62	107.66
623.77	23.41
623.92	53.83
624.07	67.88
624.23	88.94
624.38	0.00
624.53	74.90
624.68	0.00
624.83	60.85
624.98	102.98
625.13	23.41
625.29	100.64
625.44	0.00
625.59	51.49
625.74	79.58
625.89	84.26
626.04	138.09
626.19	362.78
626.34	376.83
626.49	428.32
626.65	264.48
626.80	248.10
626.95	175.54
627.10	147.45
627.25	44.47
627.40	70.22
627.55	18.72
627.70	21.06
627.85	23.41
628.00	44.47
628.15	0.00
628.30	53.83
628.45	39.79
628.60	77.24
628.76	74.90
628.91	49.15
629.06	0.00
629.21	49.15
629.36	91.28
629.51	9.36
629.66	93.62
629.81	25.75
629.96	44.47
630.11	81.92
630.26	135.75
630.41	117.03
630.56	119.37
630.71	32.77
630.86	56.17
631.01	91.28
631.16	9.36
631.31	4.68
631.46	32.77
631.61	49.15
631.76	42.13
631.91	77.24
632.06	60.85
632.21	4.68
632.36	74.90
632.51	77.24
632.66	67.88
632.81	84.26
632.96	168.52
633.10	241.08
633.25	287.89
633.40	262.14
633.55	128.73
633.70	44.47
633.85	77.24
634.00	67.88
634.15	67.88
634.30	63.19
634.45	11.70
634.60	51.49
634.75	0.00
634.90	91.28
635.05	95.96
635.19	79.58
635.34	67.88
635.49	28.09
635.64	18.72
635.79	93.62
635.94	23.41
636.09	58.51
636.24	53.83
636.39	46.81
636.53	21.06
636.68	0.00
636.83	117.03
636.98	0.00
637.13	7.02
637.28	0.00
637.43	112.35
637.57	56.17
637.72	74.90
637.87	248.10
638.02	395.55
638.17	477.47
638.32	360.44
638.46	301.93
638.61	201.29
638.76	121.71
638.91	117.03
639.06	0.00
639.20	42.13
639.35	67.88
639.50	58.51
639.65	236.39
639.80	475.13
639.94	699.82
640.09	744.29
640.24	620.24
640.39	449.38
640.54	313.63
640.68	241.08
640.83	133.41
640.98	58.51
641.13	0.00
641.27	0.00
641.42	53.83
641.57	37.45
641.72	0.00
641.86	30.43
642.01	53.83
642.16	60.85
642.31	4.68
642.45	14.04
642.60	42.13
642.75	9.36
642.90	16.38
643.04	81.92
643.19	117.03
643.34	21.06
643.48	44.47
643.63	86.60
643.78	21.06
643.93	11.70
644.07	79.58
644.22	0.00
644.37	74.90
644.51	23.41
644.66	63.19
644.81	74.90
644.95	0.00
645.10	67.88
645.25	25.75
645.39	42.13
645.54	86.60
645.69	70.22
645.83	79.58
645.98	49.15
646.13	44.47
646.27	0.00
646.42	60.85
646.57	0.00
646.71	0.00
646.86	72.56
647.00	23.41
647.15	0.00
647.30	72.56
647.44	0.00
647.59	42.13
647.74	86.60
647.88	81.92
648.03	56.17
648.17	60.85
648.32	37.45
648.47	72.56
648.61	51.49
648.76	72.56
648.90	2.34
649.05	16.38
649.20	0.00
649.34	35.11
649.49	0.00
649.63	35.11
649.78	7.02
649.92	72.56
650.07	110.01
650.21	248.10
650.36	313.63
650.51	423.64
650.65	313.63
650.80	299.59
650.94	177.88
651.09	140.43
651.23	77.24
651.38	49.15
651.52	21.06
651.67	114.69
651.81	37.45
651.96	32.77
652.10	91.28
652.25	42.13
652.39	49.15
652.54	67.88
652.68	77.24
652.83	91.28
652.97	74.90
653.12	154.48
653.26	147.45
653.41	70.22
653.55	168.52
653.70	81.92
653.84	51.49
653.99	28.09
654.13	86.60
654.27	0.00
654.42	0.00
654.56	58.51
654.71	72.56
654.85	25.75
655.00	44.47
655.14	37.45
655.29	30.43
655.43	35.11
655.57	74.90
655.72	21.06
655.86	37.45
656.01	30.43
656.15	46.81
656.30	58.51
656.44	0.00
656.58	0.00
656.73	4.68
656.87	117.03
657.01	63.19
657.16	39.79
657.30	28.09
657.45	0.00
657.59	23.41
657.73	79.58
657.88	16.38
658.02	79.58
658.16	63.19
658.31	9.36
658.45	4.68
658.60	2.34
658.74	44.47
658.88	63.19
659.03	84.26
659.17	30.43
659.31	81.92
659.46	149.79
659.60	163.84
659.74	273.84
659.89	154.48
660.03	121.71
660.17	131.07
660.32	86.60
660.46	107.66
660.60	86.60
660.74	0.00
660.89	0.00
661.03	63.19
661.17	0.00
661.32	98.30
661.46	46.81
661.60	0.00
661.74	11.70
661.89	93.62
662.03	32.77
662.17	74.90
662.31	14.04
662.46	7.02
662.60	7.02
662.74	37.45
662.88	18.72
663.03	42.13
663.17	14.04
663.31	11.70
663.45	14.04
663.60	53.83
663.74	7.02
663.88	0.00
664.02	14.04
664.17	0.00
664.31	67.88
664.45	0.00
664.59	39.79
664.73	2.34
664.88	0.00
665.02	0.00
665.16	28.09
665.30	4.68
665.44	100.64
665.59	4.68
665.73	81.92
665.87	105.32
666.01	2.34
666.15	37.45
666.29	56.17
666.44	42.13
666.58	110.01
666.72	0.00
666.86	86.60
667.00	46.81
667.14	53.83
667.28	138.09
667.43	159.16
667.57	194.26
667.71	325.33
667.85	351.08
667.99	259.80
668.13	56.17
668.27	107.66
668.41	95.96
668.56	81.92
668.70	39.79
668.84	133.41
668.98	16.38
669.12	37.45
669.26	4.68
669.40	72.56
669.54	0.00
669.68	60.85
669.82	0.00
669.96	0.00
670.10	53.83
670.25	0.00
670.39	18.72
670.53	98.30
670.67	21.06
670.81	56.17
670.95	4.68
671.09	72.56
671.23	95.96
671.37	133.41
671.51	152.13
671.65	266.82
671.79	224.69
671.93	229.37
672.07	105.32
672.21	142.77
672.35	79.58
672.49	63.19
672.63	35.11
672.77	28.09
672.91	46.81
673.05	0.00
673.19	46.81
673.33	53.83
673.47	95.96
673.61	63.19
673.75	63.19
673.89	79.58
674.03	42.13
674.17	16.38
674.31	60.85
674.45	0.00
674.59	0.00
674.73	95.96
674.87	32.77
675.01	9.36
675.15	9.36
675.29	4.68
675.43	18.72
675.56	7.02
675.70	112.35
675.84	25.75
675.98	18.72
676.12	60.85
676.26	56.17
676.40	63.19
676.54	35.11
676.68	0.00
676.82	79.58
676.96	9.36
677.10	25.75
677.23	98.30
677.37	4.68
677.51	72.56
677.65	60.85
677.79	65.54
677.93	0.00
678.07	72.56
678.21	32.77
678.34	0.00
678.48	30.43
678.62	9.36
678.76	0.00
678.90	9.36
679.04	63.19
679.18	11.70
679.31	0.00
679.45	0.00
679.59	7.02
679.73	44.47
679.87	39.79
680.00	0.00
680.14	39.79
680.28	25.75
680.42	0.00
680.56	11.70
680.70	0.00
680.83	0.00
680.97	16.38
681.11	25.75
681.25	23.41
681.39	42.13
681.52	0.00
681.66	2.34
681.80	46.81
681.94	23.41
682.07	53.83
682.21	11.70
682.35	18.72
682.49	46.81
682.62	81.92
682.76	53.83
682.90	67.88
683.04	39.79
683.17	21.06
683.31	32.77
683.45	25.75
683.59	63.19
683.72	9.36
683.86	91.28
684.00	7.02
684.13	58.51
684.27	65.54
684.41	0.00
684.55	18.72
684.68	37.45
684.82	0.00
684.96	16.38
685.09	0.00
685.23	46.81
685.37	0.00
685.50	49.15
685.64	91.28
685.78	42.13
685.91	56.17
686.05	46.81
686.19	0.00
686.32	37.45
686.46	51.49
686.60	18.72
686.73	0.00
686.87	60.85
687.01	0.00
687.14	21.06
687.28	0.00
687.42	60.85
687.55	81.92
687.69	65.54
687.82	9.36
687.96	42.13
688.10	21.06
688.23	39.79
688.37	7.02
688.50	0.00
688.64	51.49
688.78	74.90
688.91	37.45
689.05	28.09
689.18	2.34
689.32	0.00
689.46	0.00
689.59	37.45
689.73	37.45
689.86	44.47
690.00	30.43
690.13	46.81
690.27	49.15
690.41	23.41
690.54	37.45
690.68	84.26
690.81	39.79
690.95	70.22
691.08	91.28
691.22	79.58
691.35	56.17
691.49	0.00
691.62	0.00
691.76	0.00
691.89	67.88
692.03	30.43
692.16	30.43
692.30	56.17
692.43	114.69
692.57	100.64
692.70	177.88
692.84	149.79
692.97	259.80
693.11	124.05
693.24	93.62
693.38	100.64
693.51	46.81
693.65	21.06
693.78	95.96
693.92	0.00
694.05	79.58
694.19	65.54
694.32	42.13
694.45	42.13
694.59	2.34
694.72	7.02
694.86	21.06
694.99	0.00
695.13	0.00
695.26	32.77
695.39	39.79
695.53	0.00
695.66	81.92
695.80	49.15
695.93	0.00
696.07	65.54
696.20	0.00
696.33	28.09
696.47	32.77
696.60	37.45
696.73	46.81
696.87	16.38
697.00	79.58
697.14	86.60
697.27	63.19
697.40	16.38
697.54	88.94
697.67	14.04
697.80	11.70
697.94	49.15
698.07	65.54
698.21	0.00
698.34	0.00
698.47	70.22
698.61	46.81
698.74	37.45
698.87	39.79
699.01	9.36
699.14	9.36
699.27	37.45
699.40	11.70
699.54	49.15
699.67	114.69
699.80	14.04
699.94	67.88
700.07	9.36
700.20	0.00
700.34	98.30
700.47	25.75
700.60	91.28
700.73	11.70
700.87	30.43
701.00	77.24
701.13	0.00
701.26	0.00
701.40	0.00
701.53	0.00
701.66	51.49
701.79	0.00
701.93	4.68
702.06	16.38
702.19	0.00
702.32	28.09
702.46	0.00
702.59	86.60
702.72	23.41
702.85	161.50
702.99	205.97
703.12	259.80
703.25	262.14
703.38	241.08
703.51	212.99
703.65	194.26
703.78	131.07
703.91	51.49
704.04	114.69
704.17	14.04
704.31	18.72
704.44	44.47
704.57	51.49
704.70	95.96
704.83	21.06
704.96	46.81
705.10	30.43
705.23	49.15
>>>>>End Processed Spectral Data<<<<<
