SpectraSuite Data File
++++++++++++++++++++++++++++++++++++
Date: Fri Oct 04 12:13:34 GMT-05:00 2013
User: price-jones
Dark Spectrum Present: No
Reference Spectrum Present: No
Number of Sampled Component Spectra: 1
Spectrometers: USB2+H05261
Integration Time (usec): 10000 (USB2+H05261)
Spectra Averaged: 1 (USB2+H05261)
Boxcar Smoothing: 0 (USB2+H05261)
Correct for Electrical Dark: No (USB2+H05261)
Strobe/Lamp Enabled: No (USB2+H05261)
Correct for Detector Non-linearity: No (USB2+H05261)
Correct for Stray Light: No (USB2+H05261)
Number of Pixels in Processed Spectrum: 2048
>>>>>Begin Processed Spectral Data<<<<<
365.73	0.00
365.92	0.00
366.12	0.00
366.32	0.00
366.52	0.00
366.72	0.00
366.91	0.00
367.11	0.00
367.31	0.00
367.51	0.00
367.70	0.00
367.90	0.00
368.10	0.00
368.30	0.00
368.49	0.00
368.69	0.00
368.89	0.00
369.09	0.00
369.28	0.00
369.48	0.00
369.68	0.00
369.87	0.00
370.07	0.00
370.27	0.00
370.47	0.00
370.66	0.00
370.86	0.00
371.06	0.00
371.25	2.34
371.45	0.00
371.65	79.58
371.84	0.00
372.04	37.45
372.24	0.00
372.44	77.24
372.63	14.04
372.83	30.43
373.03	14.04
373.22	0.00
373.42	18.72
373.62	70.22
373.81	79.58
374.01	56.17
374.21	102.98
374.40	4.68
374.60	2.34
374.79	30.43
374.99	0.00
375.19	0.00
375.38	77.24
375.58	56.17
375.78	18.72
375.97	67.88
376.17	70.22
376.37	9.36
376.56	28.09
376.76	30.43
376.95	65.54
377.15	28.09
377.35	37.45
377.54	23.41
377.74	0.00
377.93	14.04
378.13	37.45
378.33	0.00
378.52	0.00
378.72	32.77
378.91	56.17
379.11	32.77
379.31	84.26
379.50	0.00
379.70	28.09
379.89	0.00
380.09	42.13
380.28	0.00
380.48	14.04
380.68	4.68
380.87	35.11
381.07	0.00
381.26	46.81
381.46	32.77
381.65	0.00
381.85	0.00
382.04	35.11
382.24	4.68
382.43	105.32
382.63	67.88
382.83	0.00
383.02	74.90
383.22	11.70
383.41	21.06
383.61	30.43
383.80	81.92
384.00	9.36
384.19	28.09
384.39	67.88
384.58	0.00
384.78	2.34
384.97	112.35
385.17	28.09
385.36	49.15
385.56	0.00
385.75	0.00
385.95	0.00
386.14	0.00
386.34	79.58
386.53	28.09
386.72	25.75
386.92	2.34
387.11	46.81
387.31	46.81
387.50	32.77
387.70	0.00
387.89	60.85
388.09	0.00
388.28	0.00
388.48	4.68
388.67	65.54
388.86	35.11
389.06	114.69
389.25	11.70
389.45	32.77
389.64	32.77
389.84	81.92
390.03	4.68
390.22	51.49
390.42	0.00
390.61	46.81
390.81	25.75
391.00	35.11
391.19	21.06
391.39	18.72
391.58	7.02
391.78	39.79
391.97	28.09
392.16	28.09
392.36	4.68
392.55	0.00
392.75	0.00
392.94	49.15
393.13	11.70
393.33	28.09
393.52	39.79
393.71	63.19
393.91	79.58
394.10	37.45
394.29	46.81
394.49	0.00
394.68	65.54
394.88	0.00
395.07	23.41
395.26	7.02
395.46	63.19
395.65	88.94
395.84	0.00
396.04	0.00
396.23	42.13
396.42	30.43
396.62	0.00
396.81	53.83
397.00	81.92
397.19	0.00
397.39	0.00
397.58	25.75
397.77	0.00
397.97	9.36
398.16	2.34
398.35	21.06
398.55	0.00
398.74	0.00
398.93	0.00
399.12	23.41
399.32	35.11
399.51	0.00
399.70	0.00
399.90	14.04
400.09	39.79
400.28	93.62
400.47	44.47
400.67	65.54
400.86	14.04
401.05	2.34
401.24	44.47
401.44	72.56
401.63	56.17
401.82	79.58
402.01	32.77
402.21	49.15
402.40	7.02
402.59	37.45
402.78	11.70
402.97	23.41
403.17	0.00
403.36	0.00
403.55	110.01
403.74	0.00
403.93	51.49
404.13	53.83
404.32	0.00
404.51	30.43
404.70	77.24
404.89	0.00
405.09	21.06
405.28	0.00
405.47	0.00
405.66	0.00
405.85	0.00
406.05	74.90
406.24	4.68
406.43	86.60
406.62	0.00
406.81	86.60
407.00	4.68
407.20	51.49
407.39	44.47
407.58	7.02
407.77	79.58
407.96	44.47
408.15	117.03
408.34	32.77
408.54	51.49
408.73	32.77
408.92	25.75
409.11	39.79
409.30	117.03
409.49	16.38
409.68	63.19
409.87	14.04
410.07	42.13
410.26	46.81
410.45	44.47
410.64	65.54
410.83	28.09
411.02	79.58
411.21	79.58
411.40	11.70
411.59	77.24
411.78	0.00
411.98	0.00
412.17	49.15
412.36	4.68
412.55	46.81
412.74	9.36
412.93	112.35
413.12	81.92
413.31	0.00
413.50	28.09
413.69	28.09
413.88	70.22
414.07	23.41
414.26	21.06
414.45	0.00
414.64	4.68
414.83	0.00
415.02	37.45
415.22	11.70
415.41	25.75
415.60	49.15
415.79	21.06
415.98	4.68
416.17	56.17
416.36	63.19
416.55	67.88
416.74	60.85
416.93	32.77
417.12	28.09
417.31	67.88
417.50	72.56
417.69	44.47
417.88	7.02
418.07	42.13
418.26	23.41
418.45	86.60
418.64	63.19
418.83	16.38
419.02	60.85
419.21	72.56
419.39	21.06
419.58	32.77
419.77	81.92
419.96	11.70
420.15	11.70
420.34	30.43
420.53	58.51
420.72	35.11
420.91	72.56
421.10	9.36
421.29	0.00
421.48	63.19
421.67	0.00
421.86	42.13
422.05	35.11
422.24	65.54
422.43	0.00
422.61	98.30
422.80	53.83
422.99	37.45
423.18	32.77
423.37	56.17
423.56	0.00
423.75	32.77
423.94	18.72
424.13	14.04
424.32	39.79
424.50	63.19
424.69	51.49
424.88	37.45
425.07	60.85
425.26	93.62
425.45	88.94
425.64	44.47
425.83	51.49
426.01	49.15
426.20	58.51
426.39	84.26
426.58	14.04
426.77	46.81
426.96	28.09
427.15	81.92
427.33	65.54
427.52	2.34
427.71	0.00
427.90	39.79
428.09	91.28
428.28	51.49
428.46	131.07
428.65	77.24
428.84	0.00
429.03	35.11
429.22	58.51
429.40	11.70
429.59	2.34
429.78	11.70
429.97	70.22
430.16	0.00
430.34	70.22
430.53	0.00
430.72	0.00
430.91	16.38
431.10	21.06
431.28	0.00
431.47	0.00
431.66	77.24
431.85	14.04
432.03	60.85
432.22	51.49
432.41	65.54
432.60	63.19
432.79	56.17
432.97	154.48
433.16	65.54
433.35	58.51
433.54	32.77
433.72	0.00
433.91	44.47
434.10	11.70
434.28	4.68
434.47	39.79
434.66	4.68
434.85	30.43
435.03	0.00
435.22	138.09
435.41	60.85
435.59	37.45
435.78	30.43
435.97	0.00
436.16	0.00
436.34	0.00
436.53	30.43
436.72	121.71
436.90	37.45
437.09	21.06
437.28	30.43
437.46	25.75
437.65	35.11
437.84	0.00
438.02	0.00
438.21	23.41
438.40	67.88
438.58	39.79
438.77	74.90
438.96	60.85
439.14	79.58
439.33	70.22
439.52	63.19
439.70	60.85
439.89	79.58
440.08	49.15
440.26	95.96
440.45	42.13
440.63	86.60
440.82	70.22
441.01	58.51
441.19	9.36
441.38	63.19
441.57	74.90
441.75	51.49
441.94	100.64
442.12	63.19
442.31	46.81
442.50	88.94
442.68	0.00
442.87	0.00
443.05	72.56
443.24	25.75
443.43	53.83
443.61	46.81
443.80	56.17
443.98	39.79
444.17	32.77
444.35	102.98
444.54	32.77
444.73	35.11
444.91	74.90
445.10	2.34
445.28	0.00
445.47	9.36
445.65	0.00
445.84	100.64
446.02	0.00
446.21	107.66
446.39	0.00
446.58	60.85
446.77	28.09
446.95	63.19
447.14	18.72
447.32	117.03
447.51	84.26
447.69	44.47
447.88	23.41
448.06	74.90
448.25	98.30
448.43	67.88
448.62	53.83
448.80	128.73
448.99	0.00
449.17	49.15
449.36	2.34
449.54	88.94
449.73	98.30
449.91	21.06
450.10	88.94
450.28	37.45
450.46	84.26
450.65	60.85
450.83	44.47
451.02	28.09
451.20	93.62
451.39	86.60
451.57	74.90
451.76	44.47
451.94	60.85
452.13	11.70
452.31	53.83
452.49	0.00
452.68	23.41
452.86	0.00
453.05	23.41
453.23	131.07
453.42	91.28
453.60	117.03
453.78	9.36
453.97	16.38
454.15	35.11
454.34	23.41
454.52	0.00
454.70	79.58
454.89	105.32
455.07	0.00
455.26	0.00
455.44	4.68
455.62	32.77
455.81	28.09
455.99	37.45
456.17	100.64
456.36	0.00
456.54	91.28
456.73	30.43
456.91	0.00
457.09	58.51
457.28	37.45
457.46	81.92
457.64	77.24
457.83	142.77
458.01	44.47
458.19	72.56
458.38	74.90
458.56	35.11
458.74	7.02
458.93	74.90
459.11	30.43
459.29	77.24
459.48	91.28
459.66	110.01
459.84	7.02
460.03	42.13
460.21	65.54
460.39	42.13
460.57	25.75
460.76	98.30
460.94	70.22
461.12	70.22
461.31	25.75
461.49	65.54
461.67	18.72
461.85	0.00
462.04	16.38
462.22	81.92
462.40	79.58
462.59	133.41
462.77	39.79
462.95	79.58
463.13	56.17
463.32	84.26
463.50	84.26
463.68	107.66
463.86	23.41
464.05	0.00
464.23	93.62
464.41	79.58
464.59	74.90
464.78	0.00
464.96	4.68
465.14	84.26
465.32	56.17
465.50	30.43
465.69	46.81
465.87	39.79
466.05	32.77
466.23	44.47
466.41	0.00
466.60	32.77
466.78	0.00
466.96	124.05
467.14	46.81
467.32	128.73
467.51	98.30
467.69	56.17
467.87	102.98
468.05	32.77
468.23	0.00
468.41	58.51
468.60	16.38
468.78	53.83
468.96	46.81
469.14	28.09
469.32	126.39
469.50	56.17
469.69	72.56
469.87	88.94
470.05	60.85
470.23	79.58
470.41	0.00
470.59	39.79
470.77	84.26
470.95	53.83
471.14	60.85
471.32	121.71
471.50	63.19
471.68	91.28
471.86	86.60
472.04	112.35
472.22	77.24
472.40	65.54
472.58	65.54
472.77	28.09
472.95	72.56
473.13	51.49
473.31	46.81
473.49	39.79
473.67	42.13
473.85	42.13
474.03	0.00
474.21	86.60
474.39	77.24
474.57	0.00
474.75	32.77
474.93	4.68
475.12	77.24
475.30	51.49
475.48	105.32
475.66	107.66
475.84	70.22
476.02	0.00
476.20	28.09
476.38	25.75
476.56	42.13
476.74	79.58
476.92	46.81
477.10	65.54
477.28	72.56
477.46	91.28
477.64	70.22
477.82	51.49
478.00	53.83
478.18	14.04
478.36	30.43
478.54	35.11
478.72	81.92
478.90	0.00
479.08	114.69
479.26	49.15
479.44	107.66
479.62	21.06
479.80	23.41
479.98	35.11
480.16	58.51
480.34	46.81
480.52	107.66
480.70	88.94
480.88	30.43
481.06	81.92
481.24	72.56
481.41	102.98
481.59	81.92
481.77	74.90
481.95	49.15
482.13	117.03
482.31	53.83
482.49	81.92
482.67	70.22
482.85	56.17
483.03	21.06
483.21	49.15
483.39	25.75
483.57	112.35
483.74	21.06
483.92	60.85
484.10	77.24
484.28	112.35
484.46	86.60
484.64	42.13
484.82	49.15
485.00	21.06
485.18	0.00
485.35	39.79
485.53	65.54
485.71	32.77
485.89	81.92
486.07	4.68
486.25	105.32
486.43	51.49
486.61	126.39
486.78	51.49
486.96	14.04
487.14	0.00
487.32	39.79
487.50	14.04
487.68	46.81
487.85	63.19
488.03	142.77
488.21	91.28
488.39	124.05
488.57	53.83
488.75	53.83
488.92	117.03
489.10	105.32
489.28	32.77
489.46	67.88
489.64	93.62
489.81	53.83
489.99	49.15
490.17	63.19
490.35	107.66
490.53	25.75
490.70	145.11
490.88	63.19
491.06	14.04
491.24	86.60
491.41	105.32
491.59	58.51
491.77	9.36
491.95	77.24
492.13	42.13
492.30	100.64
492.48	81.92
492.66	39.79
492.84	56.17
493.01	32.77
493.19	49.15
493.37	88.94
493.54	128.73
493.72	81.92
493.90	74.90
494.08	72.56
494.25	49.15
494.43	112.35
494.61	152.13
494.79	56.17
494.96	49.15
495.14	53.83
495.32	105.32
495.49	25.75
495.67	70.22
495.85	25.75
496.02	77.24
496.20	60.85
496.38	86.60
496.55	51.49
496.73	9.36
496.91	119.37
497.09	63.19
497.26	60.85
497.44	91.28
497.62	131.07
497.79	39.79
497.97	32.77
498.14	30.43
498.32	93.62
498.50	14.04
498.67	102.98
498.85	58.51
499.03	84.26
499.20	32.77
499.38	60.85
499.56	110.01
499.73	95.96
499.91	60.85
500.08	98.30
500.26	56.17
500.44	30.43
500.61	21.06
500.79	93.62
500.97	88.94
501.14	133.41
501.32	140.43
501.49	77.24
501.67	49.15
501.84	25.75
502.02	128.73
502.20	124.05
502.37	42.13
502.55	124.05
502.72	110.01
502.90	86.60
503.07	67.88
503.25	79.58
503.43	9.36
503.60	81.92
503.78	114.69
503.95	119.37
504.13	81.92
504.30	63.19
504.48	21.06
504.65	98.30
504.83	107.66
505.01	100.64
505.18	74.90
505.36	86.60
505.53	35.11
505.71	65.54
505.88	58.51
506.06	105.32
506.23	84.26
506.41	84.26
506.58	81.92
506.76	81.92
506.93	72.56
507.11	93.62
507.28	88.94
507.46	74.90
507.63	112.35
507.81	98.30
507.98	42.13
508.16	91.28
508.33	70.22
508.50	117.03
508.68	0.00
508.85	114.69
509.03	21.06
509.20	67.88
509.38	70.22
509.55	21.06
509.73	93.62
509.90	70.22
510.08	140.43
510.25	93.62
510.42	58.51
510.60	140.43
510.77	126.39
510.95	95.96
511.12	74.90
511.30	21.06
511.47	142.77
511.64	60.85
511.82	100.64
511.99	35.11
512.17	32.77
512.34	46.81
512.51	107.66
512.69	0.00
512.86	74.90
513.04	56.17
513.21	72.56
513.38	70.22
513.56	189.58
513.73	65.54
513.90	58.51
514.08	65.54
514.25	93.62
514.43	121.71
514.60	67.88
514.77	53.83
514.95	86.60
515.12	39.79
515.29	74.90
515.47	149.79
515.64	145.11
515.81	117.03
515.99	138.09
516.16	93.62
516.33	58.51
516.51	51.49
516.68	72.56
516.85	91.28
517.03	149.79
517.20	58.51
517.37	93.62
517.54	102.98
517.72	114.69
517.89	93.62
518.06	77.24
518.24	84.26
518.41	79.58
518.58	42.13
518.75	81.92
518.93	133.41
519.10	72.56
519.27	70.22
519.45	102.98
519.62	154.48
519.79	72.56
519.96	28.09
520.14	51.49
520.31	42.13
520.48	145.11
520.65	107.66
520.83	135.75
521.00	91.28
521.17	135.75
521.34	39.79
521.52	100.64
521.69	42.13
521.86	119.37
522.03	77.24
522.20	42.13
522.38	138.09
522.55	65.54
522.72	133.41
522.89	112.35
523.07	119.37
523.24	39.79
523.41	77.24
523.58	131.07
523.75	102.98
523.92	112.35
524.10	93.62
524.27	46.81
524.44	91.28
524.61	63.19
524.78	112.35
524.96	107.66
525.13	30.43
525.30	126.39
525.47	105.32
525.64	30.43
525.81	126.39
525.98	147.45
526.16	23.41
526.33	9.36
526.50	93.62
526.67	0.00
526.84	98.30
527.01	65.54
527.18	98.30
527.36	105.32
527.53	67.88
527.70	93.62
527.87	154.48
528.04	77.24
528.21	84.26
528.38	81.92
528.55	77.24
528.72	95.96
528.89	63.19
529.07	72.56
529.24	65.54
529.41	161.50
529.58	95.96
529.75	112.35
529.92	124.05
530.09	74.90
530.26	58.51
530.43	105.32
530.60	74.90
530.77	51.49
530.94	112.35
531.11	105.32
531.28	56.17
531.46	142.77
531.63	124.05
531.80	163.84
531.97	30.43
532.14	72.56
532.31	56.17
532.48	56.17
532.65	32.77
532.82	35.11
532.99	163.84
533.16	93.62
533.33	88.94
533.50	100.64
533.67	56.17
533.84	124.05
534.01	98.30
534.18	67.88
534.35	98.30
534.52	98.30
534.69	65.54
534.86	7.02
535.03	0.00
535.20	79.58
535.37	107.66
535.54	98.30
535.71	159.16
535.88	128.73
536.05	105.32
536.22	107.66
536.38	102.98
536.55	95.96
536.72	49.15
536.89	2.34
537.06	152.13
537.23	79.58
537.40	58.51
537.57	112.35
537.74	163.84
537.91	67.88
538.08	112.35
538.25	128.73
538.42	84.26
538.59	58.51
538.75	131.07
538.92	49.15
539.09	56.17
539.26	56.17
539.43	30.43
539.60	161.50
539.77	63.19
539.94	77.24
540.11	60.85
540.28	70.22
540.44	79.58
540.61	112.35
540.78	4.68
540.95	81.92
541.12	100.64
541.29	81.92
541.46	117.03
541.62	107.66
541.79	65.54
541.96	84.26
542.13	93.62
542.30	49.15
542.47	28.09
542.63	126.39
542.80	11.70
542.97	81.92
543.14	145.11
543.31	95.96
543.48	86.60
543.64	79.58
543.81	79.58
543.98	121.71
544.15	88.94
544.32	107.66
544.48	32.77
544.65	72.56
544.82	42.13
544.99	112.35
545.16	49.15
545.32	79.58
545.49	79.58
545.66	84.26
545.83	65.54
546.00	37.45
546.16	142.77
546.33	126.39
546.50	117.03
546.67	117.03
546.83	72.56
547.00	91.28
547.17	77.24
547.34	135.75
547.50	74.90
547.67	67.88
547.84	131.07
548.00	56.17
548.17	93.62
548.34	56.17
548.51	98.30
548.67	131.07
548.84	60.85
549.01	79.58
549.18	58.51
549.34	124.05
549.51	100.64
549.68	124.05
549.84	91.28
550.01	65.54
550.18	102.98
550.34	93.62
550.51	51.49
550.68	91.28
550.84	98.30
551.01	77.24
551.18	102.98
551.34	81.92
551.51	79.58
551.68	121.71
551.84	100.64
552.01	56.17
552.18	79.58
552.34	84.26
552.51	86.60
552.68	81.92
552.84	114.69
553.01	159.16
553.18	149.79
553.34	44.47
553.51	11.70
553.67	86.60
553.84	133.41
554.01	105.32
554.17	117.03
554.34	84.26
554.51	91.28
554.67	86.60
554.84	77.24
555.00	77.24
555.17	84.26
555.33	60.85
555.50	23.41
555.67	23.41
555.83	117.03
556.00	0.00
556.16	102.98
556.33	117.03
556.50	105.32
556.66	77.24
556.83	58.51
556.99	77.24
557.16	72.56
557.32	49.15
557.49	100.64
557.65	58.51
557.82	25.75
557.98	7.02
558.15	79.58
558.32	86.60
558.48	46.81
558.65	79.58
558.81	53.83
558.98	21.06
559.14	11.70
559.31	93.62
559.47	44.47
559.64	42.13
559.80	102.98
559.97	93.62
560.13	79.58
560.30	100.64
560.46	131.07
560.63	114.69
560.79	100.64
560.96	140.43
561.12	124.05
561.29	44.47
561.45	4.68
561.61	117.03
561.78	140.43
561.94	79.58
562.11	147.45
562.27	51.49
562.44	42.13
562.60	91.28
562.77	72.56
562.93	60.85
563.10	58.51
563.26	46.81
563.42	37.45
563.59	79.58
563.75	53.83
563.92	88.94
564.08	93.62
564.24	107.66
564.41	79.58
564.57	91.28
564.74	112.35
564.90	72.56
565.07	128.73
565.23	107.66
565.39	72.56
565.56	70.22
565.72	166.18
565.88	65.54
566.05	25.75
566.21	114.69
566.38	58.51
566.54	156.82
566.70	0.00
566.87	0.00
567.03	88.94
567.19	124.05
567.36	147.45
567.52	56.17
567.68	21.06
567.85	65.54
568.01	30.43
568.17	149.79
568.34	42.13
568.50	53.83
568.66	93.62
568.83	42.13
568.99	70.22
569.15	21.06
569.32	30.43
569.48	88.94
569.64	46.81
569.81	91.28
569.97	56.17
570.13	42.13
570.30	65.54
570.46	107.66
570.62	0.00
570.78	81.92
570.95	60.85
571.11	131.07
571.27	37.45
571.43	138.09
571.60	67.88
571.76	93.62
571.92	77.24
572.09	124.05
572.25	102.98
572.41	56.17
572.57	30.43
572.74	35.11
572.90	42.13
573.06	42.13
573.22	74.90
573.38	117.03
573.55	114.69
573.71	145.11
573.87	128.73
574.03	81.92
574.20	77.24
574.36	86.60
574.52	72.56
574.68	114.69
574.84	63.19
575.01	65.54
575.17	70.22
575.33	98.30
575.49	84.26
575.65	28.09
575.82	58.51
575.98	84.26
576.14	44.47
576.30	102.98
576.46	53.83
576.62	42.13
576.79	77.24
576.95	102.98
577.11	117.03
577.27	30.43
577.43	42.13
577.59	142.77
577.75	67.88
577.92	11.70
578.08	60.85
578.24	25.75
578.40	86.60
578.56	9.36
578.72	39.79
578.88	0.00
579.04	11.70
579.21	63.19
579.37	44.47
579.53	107.66
579.69	23.41
579.85	119.37
580.01	42.13
580.17	100.64
580.33	84.26
580.49	46.81
580.65	7.02
580.82	98.30
580.98	56.17
581.14	28.09
581.30	25.75
581.46	95.96
581.62	63.19
581.78	74.90
581.94	105.32
582.10	60.85
582.26	23.41
582.42	65.54
582.58	72.56
582.74	112.35
582.90	121.71
583.06	88.94
583.22	88.94
583.38	37.45
583.54	74.90
583.70	105.32
583.86	65.54
584.02	67.88
584.18	70.22
584.34	77.24
584.50	88.94
584.66	46.81
584.82	86.60
584.98	100.64
585.14	107.66
585.30	49.15
585.46	53.83
585.62	53.83
585.78	63.19
585.94	0.00
586.10	0.00
586.26	42.13
586.42	84.26
586.58	86.60
586.74	91.28
586.90	86.60
587.06	91.28
587.22	93.62
587.38	79.58
587.54	142.77
587.70	91.28
587.86	21.06
588.02	58.51
588.18	2.34
588.34	91.28
588.49	14.04
588.65	93.62
588.81	112.35
588.97	0.00
589.13	105.32
589.29	95.96
589.45	0.00
589.61	72.56
589.77	42.13
589.93	91.28
590.08	49.15
590.24	42.13
590.40	98.30
590.56	117.03
590.72	60.85
590.88	21.06
591.04	72.56
591.20	133.41
591.35	42.13
591.51	124.05
591.67	28.09
591.83	60.85
591.99	39.79
592.15	67.88
592.31	81.92
592.46	128.73
592.62	142.77
592.78	44.47
592.94	72.56
593.10	77.24
593.26	100.64
593.41	79.58
593.57	44.47
593.73	128.73
593.89	42.13
594.05	65.54
594.20	46.81
594.36	49.15
594.52	105.32
594.68	44.47
594.84	84.26
594.99	35.11
595.15	70.22
595.31	88.94
595.47	72.56
595.62	74.90
595.78	72.56
595.94	98.30
596.10	39.79
596.25	46.81
596.41	81.92
596.57	93.62
596.73	46.81
596.88	84.26
597.04	16.38
597.20	53.83
597.36	117.03
597.51	98.30
597.67	42.13
597.83	21.06
597.99	49.15
598.14	72.56
598.30	46.81
598.46	65.54
598.61	58.51
598.77	56.17
598.93	88.94
599.09	53.83
599.24	4.68
599.40	28.09
599.56	77.24
599.71	119.37
599.87	18.72
600.03	4.68
600.18	53.83
600.34	95.96
600.50	114.69
600.65	117.03
600.81	79.58
600.97	65.54
601.12	86.60
601.28	21.06
601.44	74.90
601.59	30.43
601.75	58.51
601.91	81.92
602.06	67.88
602.22	53.83
602.37	65.54
602.53	44.47
602.69	81.92
602.84	53.83
603.00	44.47
603.16	74.90
603.31	84.26
603.47	28.09
603.62	88.94
603.78	114.69
603.94	46.81
604.09	7.02
604.25	93.62
604.40	142.77
604.56	121.71
604.71	70.22
604.87	138.09
605.03	105.32
605.18	70.22
605.34	74.90
605.49	14.04
605.65	39.79
605.80	65.54
605.96	128.73
606.12	58.51
606.27	98.30
606.43	14.04
606.58	42.13
606.74	147.45
606.89	77.24
607.05	91.28
607.20	100.64
607.36	60.85
607.51	37.45
607.67	4.68
607.82	23.41
607.98	74.90
608.13	74.90
608.29	37.45
608.44	44.47
608.60	88.94
608.75	35.11
608.91	56.17
609.06	161.50
609.22	39.79
609.37	81.92
609.53	105.32
609.68	128.73
609.84	95.96
609.99	107.66
610.15	88.94
610.30	149.79
610.46	86.60
610.61	72.56
610.76	58.51
610.92	72.56
611.07	88.94
611.23	107.66
611.38	117.03
611.54	25.75
611.69	112.35
611.84	93.62
612.00	65.54
612.15	44.47
612.31	58.51
612.46	0.00
612.62	11.70
612.77	32.77
612.92	21.06
613.08	35.11
613.23	105.32
613.39	49.15
613.54	74.90
613.69	25.75
613.85	98.30
614.00	112.35
614.15	60.85
614.31	72.56
614.46	0.00
614.62	39.79
614.77	58.51
614.92	86.60
615.08	42.13
615.23	42.13
615.38	67.88
615.54	16.38
615.69	53.83
615.84	39.79
616.00	93.62
616.15	72.56
616.30	49.15
616.46	4.68
616.61	21.06
616.76	133.41
616.92	119.37
617.07	49.15
617.22	79.58
617.37	88.94
617.53	60.85
617.68	72.56
617.83	49.15
617.99	0.00
618.14	49.15
618.29	105.32
618.45	56.17
618.60	65.54
618.75	65.54
618.90	18.72
619.06	0.00
619.21	25.75
619.36	102.98
619.51	72.56
619.67	28.09
619.82	23.41
619.97	42.13
620.12	70.22
620.28	79.58
620.43	18.72
620.58	37.45
620.73	56.17
620.89	107.66
621.04	86.60
621.19	112.35
621.34	21.06
621.49	42.13
621.65	65.54
621.80	74.90
621.95	70.22
622.10	49.15
622.25	14.04
622.41	79.58
622.56	93.62
622.71	49.15
622.86	65.54
623.01	60.85
623.16	72.56
623.32	60.85
623.47	16.38
623.62	63.19
623.77	39.79
623.92	25.75
624.07	67.88
624.23	88.94
624.38	46.81
624.53	86.60
624.68	88.94
624.83	86.60
624.98	117.03
625.13	21.06
625.29	79.58
625.44	32.77
625.59	44.47
625.74	42.13
625.89	58.51
626.04	53.83
626.19	44.47
626.34	63.19
626.49	63.19
626.65	110.01
626.80	100.64
626.95	9.36
627.10	37.45
627.25	60.85
627.40	49.15
627.55	70.22
627.70	79.58
627.85	58.51
628.00	67.88
628.15	102.98
628.30	58.51
628.45	0.00
628.60	91.28
628.76	51.49
628.91	9.36
629.06	14.04
629.21	88.94
629.36	51.49
629.51	18.72
629.66	42.13
629.81	2.34
629.96	91.28
630.11	117.03
630.26	84.26
630.41	60.85
630.56	63.19
630.71	60.85
630.86	117.03
631.01	93.62
631.16	65.54
631.31	53.83
631.46	0.00
631.61	37.45
631.76	84.26
631.91	72.56
632.06	0.00
632.21	46.81
632.36	30.43
632.51	32.77
632.66	81.92
632.81	107.66
632.96	18.72
633.10	2.34
633.25	86.60
633.40	58.51
633.55	56.17
633.70	79.58
633.85	35.11
634.00	0.00
634.15	65.54
634.30	46.81
634.45	32.77
634.60	124.05
634.75	0.00
634.90	14.04
635.05	91.28
635.19	32.77
635.34	88.94
635.49	58.51
635.64	70.22
635.79	46.81
635.94	88.94
636.09	0.00
636.24	161.50
636.39	21.06
636.53	37.45
636.68	7.02
636.83	32.77
636.98	11.70
637.13	65.54
637.28	95.96
637.43	102.98
637.57	42.13
637.72	39.79
637.87	86.60
638.02	100.64
638.17	25.75
638.32	30.43
638.46	23.41
638.61	107.66
638.76	4.68
638.91	81.92
639.06	46.81
639.20	86.60
639.35	70.22
639.50	25.75
639.65	25.75
639.80	37.45
639.94	145.11
640.09	105.32
640.24	39.79
640.39	9.36
640.54	21.06
640.68	51.49
640.83	63.19
640.98	84.26
641.13	72.56
641.27	86.60
641.42	84.26
641.57	91.28
641.72	86.60
641.86	138.09
642.01	37.45
642.16	7.02
642.31	46.81
642.45	81.92
642.60	79.58
642.75	0.00
642.90	35.11
643.04	63.19
643.19	44.47
643.34	0.00
643.48	39.79
643.63	49.15
643.78	46.81
643.93	58.51
644.07	60.85
644.22	28.09
644.37	67.88
644.51	4.68
644.66	63.19
644.81	49.15
644.95	35.11
645.10	35.11
645.25	32.77
645.39	23.41
645.54	79.58
645.69	67.88
645.83	131.07
645.98	4.68
646.13	60.85
646.27	60.85
646.42	16.38
646.57	81.92
646.71	46.81
646.86	102.98
647.00	0.00
647.15	49.15
647.30	32.77
647.44	4.68
647.59	32.77
647.74	9.36
647.88	9.36
648.03	98.30
648.17	2.34
648.32	0.00
648.47	60.85
648.61	49.15
648.76	0.00
648.90	46.81
649.05	0.00
649.20	56.17
649.34	0.00
649.49	30.43
649.63	46.81
649.78	25.75
649.92	44.47
650.07	39.79
650.21	63.19
650.36	79.58
650.51	16.38
650.65	86.60
650.80	37.45
650.94	70.22
651.09	67.88
651.23	88.94
651.38	23.41
651.52	0.00
651.67	77.24
651.81	93.62
651.96	25.75
652.10	58.51
652.25	42.13
652.39	23.41
652.54	49.15
652.68	79.58
652.83	131.07
652.97	0.00
653.12	91.28
653.26	0.00
653.41	86.60
653.55	58.51
653.70	81.92
653.84	56.17
653.99	23.41
654.13	0.00
654.27	49.15
654.42	84.26
654.56	0.00
654.71	11.70
654.85	0.00
655.00	30.43
655.14	0.00
655.29	58.51
655.43	63.19
655.57	86.60
655.72	0.00
655.86	39.79
656.01	107.66
656.15	39.79
656.30	35.11
656.44	11.70
656.58	16.38
656.73	25.75
656.87	14.04
657.01	23.41
657.16	18.72
657.30	53.83
657.45	42.13
657.59	28.09
657.73	0.00
657.88	58.51
658.02	28.09
658.16	37.45
658.31	63.19
658.45	98.30
658.60	0.00
658.74	140.43
658.88	65.54
659.03	86.60
659.17	91.28
659.31	35.11
659.46	51.49
659.60	60.85
659.74	49.15
659.89	91.28
660.03	79.58
660.17	30.43
660.32	30.43
660.46	53.83
660.60	14.04
660.74	67.88
660.89	37.45
661.03	86.60
661.17	67.88
661.32	18.72
661.46	65.54
661.60	53.83
661.74	86.60
661.89	63.19
662.03	63.19
662.17	49.15
662.31	23.41
662.46	49.15
662.60	74.90
662.74	30.43
662.88	58.51
663.03	58.51
663.17	35.11
663.31	81.92
663.45	81.92
663.60	84.26
663.74	39.79
663.88	4.68
664.02	0.00
664.17	51.49
664.31	105.32
664.45	86.60
664.59	93.62
664.73	46.81
664.88	53.83
665.02	84.26
665.16	79.58
665.30	60.85
665.44	70.22
665.59	49.15
665.73	79.58
665.87	21.06
666.01	79.58
666.15	11.70
666.29	46.81
666.44	42.13
666.58	102.98
666.72	46.81
666.86	16.38
667.00	28.09
667.14	39.79
667.28	107.66
667.43	28.09
667.57	49.15
667.71	21.06
667.85	114.69
667.99	28.09
668.13	28.09
668.27	44.47
668.41	25.75
668.56	32.77
668.70	102.98
668.84	30.43
668.98	114.69
669.12	53.83
669.26	93.62
669.40	44.47
669.54	42.13
669.68	88.94
669.82	100.64
669.96	32.77
670.10	70.22
670.25	30.43
670.39	51.49
670.53	32.77
670.67	0.00
670.81	18.72
670.95	0.00
671.09	0.00
671.23	32.77
671.37	58.51
671.51	114.69
671.65	53.83
671.79	67.88
671.93	39.79
672.07	91.28
672.21	46.81
672.35	28.09
672.49	65.54
672.63	16.38
672.77	119.37
672.91	0.00
673.05	42.13
673.19	58.51
673.33	11.70
673.47	0.00
673.61	42.13
673.75	72.56
673.89	11.70
674.03	81.92
674.17	77.24
674.31	128.73
674.45	18.72
674.59	126.39
674.73	53.83
674.87	91.28
675.01	105.32
675.15	28.09
675.29	30.43
675.43	74.90
675.56	42.13
675.70	119.37
675.84	42.13
675.98	32.77
676.12	65.54
676.26	18.72
676.40	0.00
676.54	0.00
676.68	91.28
676.82	35.11
676.96	74.90
677.10	16.38
677.23	74.90
677.37	0.00
677.51	25.75
677.65	51.49
677.79	25.75
677.93	7.02
678.07	0.00
678.21	44.47
678.34	16.38
678.48	21.06
678.62	79.58
678.76	81.92
678.90	49.15
679.04	135.75
679.18	37.45
679.31	117.03
679.45	18.72
679.59	72.56
679.73	21.06
679.87	58.51
680.00	14.04
680.14	32.77
680.28	42.13
680.42	65.54
680.56	44.47
680.70	142.77
680.83	25.75
680.97	28.09
681.11	51.49
681.25	0.00
681.39	107.66
681.52	124.05
681.66	49.15
681.80	30.43
681.94	84.26
682.07	21.06
682.21	25.75
682.35	60.85
682.49	0.00
682.62	58.51
682.76	0.00
682.90	23.41
683.04	95.96
683.17	65.54
683.31	39.79
683.45	51.49
683.59	79.58
683.72	72.56
683.86	14.04
684.00	28.09
684.13	84.26
684.27	53.83
684.41	58.51
684.55	77.24
684.68	74.90
684.82	0.00
684.96	70.22
685.09	42.13
685.23	25.75
685.37	23.41
685.50	49.15
685.64	0.00
685.78	30.43
685.91	0.00
686.05	119.37
686.19	81.92
686.32	63.19
686.46	0.00
686.60	65.54
686.73	28.09
686.87	11.70
687.01	42.13
687.14	70.22
687.28	30.43
687.42	11.70
687.55	37.45
687.69	44.47
687.82	37.45
687.96	46.81
688.10	0.00
688.23	11.70
688.37	7.02
688.50	51.49
688.64	21.06
688.78	0.00
688.91	2.34
689.05	37.45
689.18	42.13
689.32	63.19
689.46	23.41
689.59	14.04
689.73	32.77
689.86	28.09
690.00	77.24
690.13	0.00
690.27	14.04
690.41	25.75
690.54	60.85
690.68	23.41
690.81	60.85
690.95	79.58
691.08	46.81
691.22	46.81
691.35	79.58
691.49	42.13
691.62	60.85
691.76	58.51
691.89	0.00
692.03	74.90
692.16	72.56
692.30	4.68
692.43	39.79
692.57	21.06
692.70	131.07
692.84	14.04
692.97	98.30
693.11	95.96
693.24	35.11
693.38	86.60
693.51	0.00
693.65	0.00
693.78	21.06
693.92	67.88
694.05	7.02
694.19	28.09
694.32	35.11
694.45	124.05
694.59	0.00
694.72	91.28
694.86	67.88
694.99	44.47
695.13	65.54
695.26	0.00
695.39	46.81
695.53	81.92
695.66	35.11
695.80	98.30
695.93	21.06
696.07	98.30
696.20	63.19
696.33	107.66
696.47	42.13
696.60	9.36
696.73	102.98
696.87	35.11
697.00	128.73
697.14	25.75
697.27	25.75
697.40	46.81
697.54	91.28
697.67	39.79
697.80	32.77
697.94	51.49
698.07	23.41
698.21	91.28
698.34	23.41
698.47	2.34
698.61	70.22
698.74	74.90
698.87	16.38
699.01	51.49
699.14	77.24
699.27	0.00
699.40	98.30
699.54	79.58
699.67	56.17
699.80	37.45
699.94	77.24
700.07	53.83
700.20	28.09
700.34	28.09
700.47	25.75
700.60	0.00
700.73	0.00
700.87	70.22
701.00	30.43
701.13	30.43
701.26	30.43
701.40	0.00
701.53	11.70
701.66	0.00
701.79	39.79
701.93	0.00
702.06	16.38
702.19	72.56
702.32	49.15
702.46	49.15
702.59	37.45
702.72	51.49
702.85	0.00
702.99	0.00
703.12	77.24
703.25	18.72
703.38	0.00
703.51	0.00
703.65	23.41
703.78	72.56
703.91	9.36
704.04	14.04
704.17	77.24
704.31	32.77
704.44	46.81
704.57	0.00
704.70	72.56
704.83	46.81
704.96	58.51
705.10	53.83
705.23	2.34
>>>>>End Processed Spectral Data<<<<<
