SpectraSuite Data File
++++++++++++++++++++++++++++++++++++
Date: Fri Oct 04 12:13:33 GMT-05:00 2013
User: price-jones
Dark Spectrum Present: No
Reference Spectrum Present: No
Number of Sampled Component Spectra: 1
Spectrometers: USB2+H05261
Integration Time (usec): 10000 (USB2+H05261)
Spectra Averaged: 1 (USB2+H05261)
Boxcar Smoothing: 0 (USB2+H05261)
Correct for Electrical Dark: No (USB2+H05261)
Strobe/Lamp Enabled: No (USB2+H05261)
Correct for Detector Non-linearity: No (USB2+H05261)
Correct for Stray Light: No (USB2+H05261)
Number of Pixels in Processed Spectrum: 2048
>>>>>Begin Processed Spectral Data<<<<<
365.73	7.02
365.92	7.02
366.12	7.02
366.32	0.00
366.52	0.00
366.72	0.00
366.91	0.00
367.11	0.00
367.31	0.00
367.51	0.00
367.70	0.00
367.90	0.00
368.10	0.00
368.30	0.00
368.49	0.00
368.69	0.00
368.89	0.00
369.09	0.00
369.28	0.00
369.48	0.00
369.68	0.00
369.87	0.00
370.07	0.00
370.27	0.00
370.47	0.00
370.66	0.00
370.86	0.00
371.06	0.00
371.25	9.36
371.45	0.00
371.65	18.72
371.84	0.00
372.04	0.00
372.24	25.75
372.44	46.81
372.63	4.68
372.83	0.00
373.03	0.00
373.22	37.45
373.42	42.13
373.62	0.00
373.81	7.02
374.01	84.26
374.21	16.38
374.40	0.00
374.60	37.45
374.79	0.00
374.99	110.01
375.19	74.90
375.38	16.38
375.58	0.00
375.78	0.00
375.97	63.19
376.17	91.28
376.37	0.00
376.56	51.49
376.76	11.70
376.95	58.51
377.15	28.09
377.35	65.54
377.54	0.00
377.74	0.00
377.93	51.49
378.13	0.00
378.33	23.41
378.52	25.75
378.72	0.00
378.91	16.38
379.11	0.00
379.31	7.02
379.50	30.43
379.70	39.79
379.89	42.13
380.09	0.00
380.28	18.72
380.48	60.85
380.68	4.68
380.87	37.45
381.07	32.77
381.26	18.72
381.46	28.09
381.65	84.26
381.85	56.17
382.04	44.47
382.24	32.77
382.43	0.00
382.63	51.49
382.83	60.85
383.02	0.00
383.22	32.77
383.41	9.36
383.61	0.00
383.80	49.15
384.00	25.75
384.19	0.00
384.39	0.00
384.58	14.04
384.78	0.00
384.97	16.38
385.17	86.60
385.36	0.00
385.56	46.81
385.75	37.45
385.95	0.00
386.14	0.00
386.34	98.30
386.53	53.83
386.72	49.15
386.92	0.00
387.11	30.43
387.31	0.00
387.50	65.54
387.70	0.00
387.89	25.75
388.09	18.72
388.28	4.68
388.48	0.00
388.67	77.24
388.86	0.00
389.06	0.00
389.25	0.00
389.45	28.09
389.64	14.04
389.84	63.19
390.03	4.68
390.22	0.00
390.42	4.68
390.61	0.00
390.81	2.34
391.00	49.15
391.19	70.22
391.39	0.00
391.58	0.00
391.78	0.00
391.97	0.00
392.16	0.00
392.36	0.00
392.55	60.85
392.75	58.51
392.94	42.13
393.13	21.06
393.33	42.13
393.52	0.00
393.71	53.83
393.91	0.00
394.10	0.00
394.29	14.04
394.49	18.72
394.68	67.88
394.88	14.04
395.07	91.28
395.26	49.15
395.46	51.49
395.65	77.24
395.84	46.81
396.04	9.36
396.23	60.85
396.42	67.88
396.62	39.79
396.81	49.15
397.00	65.54
397.19	0.00
397.39	81.92
397.58	42.13
397.77	0.00
397.97	28.09
398.16	0.00
398.35	0.00
398.55	21.06
398.74	2.34
398.93	18.72
399.12	7.02
399.32	9.36
399.51	58.51
399.70	23.41
399.90	46.81
400.09	74.90
400.28	44.47
400.47	18.72
400.67	0.00
400.86	16.38
401.05	0.00
401.24	0.00
401.44	98.30
401.63	0.00
401.82	0.00
402.01	56.17
402.21	42.13
402.40	65.54
402.59	60.85
402.78	58.51
402.97	11.70
403.17	51.49
403.36	0.00
403.55	0.00
403.74	0.00
403.93	46.81
404.13	32.77
404.32	7.02
404.51	44.47
404.70	112.35
404.89	46.81
405.09	84.26
405.28	0.00
405.47	0.00
405.66	65.54
405.85	21.06
406.05	0.00
406.24	28.09
406.43	0.00
406.62	63.19
406.81	65.54
407.00	11.70
407.20	46.81
407.39	91.28
407.58	56.17
407.77	0.00
407.96	0.00
408.15	0.00
408.34	49.15
408.54	0.00
408.73	56.17
408.92	9.36
409.11	16.38
409.30	72.56
409.49	49.15
409.68	18.72
409.87	60.85
410.07	16.38
410.26	39.79
410.45	30.43
410.64	42.13
410.83	58.51
411.02	32.77
411.21	0.00
411.40	21.06
411.59	11.70
411.78	0.00
411.98	16.38
412.17	74.90
412.36	56.17
412.55	0.00
412.74	74.90
412.93	44.47
413.12	42.13
413.31	35.11
413.50	23.41
413.69	0.00
413.88	42.13
414.07	67.88
414.26	44.47
414.45	86.60
414.64	93.62
414.83	23.41
415.02	30.43
415.22	79.58
415.41	49.15
415.60	30.43
415.79	0.00
415.98	70.22
416.17	49.15
416.36	65.54
416.55	0.00
416.74	51.49
416.93	0.00
417.12	35.11
417.31	56.17
417.50	0.00
417.69	77.24
417.88	0.00
418.07	53.83
418.26	7.02
418.45	119.37
418.64	18.72
418.83	2.34
419.02	0.00
419.21	51.49
419.39	77.24
419.58	0.00
419.77	0.00
419.96	11.70
420.15	86.60
420.34	65.54
420.53	0.00
420.72	18.72
420.91	0.00
421.10	39.79
421.29	32.77
421.48	58.51
421.67	44.47
421.86	49.15
422.05	110.01
422.24	56.17
422.43	51.49
422.61	23.41
422.80	53.83
422.99	53.83
423.18	0.00
423.37	0.00
423.56	74.90
423.75	70.22
423.94	46.81
424.13	46.81
424.32	63.19
424.50	0.00
424.69	0.00
424.88	42.13
425.07	0.00
425.26	58.51
425.45	0.00
425.64	32.77
425.83	65.54
426.01	18.72
426.20	37.45
426.39	7.02
426.58	49.15
426.77	21.06
426.96	86.60
427.15	105.32
427.33	49.15
427.52	42.13
427.71	44.47
427.90	37.45
428.09	0.00
428.28	0.00
428.46	37.45
428.65	42.13
428.84	21.06
429.03	51.49
429.22	91.28
429.40	53.83
429.59	93.62
429.78	51.49
429.97	18.72
430.16	0.00
430.34	39.79
430.53	60.85
430.72	51.49
430.91	18.72
431.10	0.00
431.28	67.88
431.47	28.09
431.66	63.19
431.85	79.58
432.03	51.49
432.22	44.47
432.41	81.92
432.60	32.77
432.79	84.26
432.97	11.70
433.16	37.45
433.35	18.72
433.54	0.00
433.72	65.54
433.91	46.81
434.10	0.00
434.28	0.00
434.47	0.00
434.66	65.54
434.85	102.98
435.03	0.00
435.22	60.85
435.41	14.04
435.59	117.03
435.78	0.00
435.97	0.00
436.16	11.70
436.34	21.06
436.53	91.28
436.72	25.75
436.90	58.51
437.09	65.54
437.28	42.13
437.46	23.41
437.65	42.13
437.84	0.00
438.02	0.00
438.21	67.88
438.40	16.38
438.58	0.00
438.77	2.34
438.96	51.49
439.14	30.43
439.33	0.00
439.52	37.45
439.70	67.88
439.89	28.09
440.08	51.49
440.26	35.11
440.45	30.43
440.63	42.13
440.82	65.54
441.01	49.15
441.19	18.72
441.38	51.49
441.57	63.19
441.75	0.00
441.94	88.94
442.12	28.09
442.31	74.90
442.50	16.38
442.68	102.98
442.87	65.54
443.05	107.66
443.24	56.17
443.43	0.00
443.61	112.35
443.80	0.00
443.98	0.00
444.17	11.70
444.35	77.24
444.54	44.47
444.73	86.60
444.91	39.79
445.10	0.00
445.28	28.09
445.47	39.79
445.65	53.83
445.84	28.09
446.02	102.98
446.21	28.09
446.39	14.04
446.58	53.83
446.77	0.00
446.95	7.02
447.14	30.43
447.32	65.54
447.51	14.04
447.69	30.43
447.88	70.22
448.06	35.11
448.25	60.85
448.43	46.81
448.62	56.17
448.80	2.34
448.99	0.00
449.17	0.00
449.36	0.00
449.54	28.09
449.73	21.06
449.91	72.56
450.10	7.02
450.28	95.96
450.46	56.17
450.65	77.24
450.83	0.00
451.02	0.00
451.20	58.51
451.39	0.00
451.57	44.47
451.76	18.72
451.94	46.81
452.13	4.68
452.31	37.45
452.49	7.02
452.68	51.49
452.86	91.28
453.05	9.36
453.23	88.94
453.42	28.09
453.60	2.34
453.78	107.66
453.97	56.17
454.15	32.77
454.34	0.00
454.52	77.24
454.70	7.02
454.89	39.79
455.07	0.00
455.26	88.94
455.44	53.83
455.62	25.75
455.81	49.15
455.99	16.38
456.17	60.85
456.36	51.49
456.54	7.02
456.73	37.45
456.91	0.00
457.09	91.28
457.28	28.09
457.46	105.32
457.64	53.83
457.83	60.85
458.01	39.79
458.19	23.41
458.38	35.11
458.56	44.47
458.74	88.94
458.93	46.81
459.11	77.24
459.29	32.77
459.48	79.58
459.66	18.72
459.84	58.51
460.03	25.75
460.21	7.02
460.39	28.09
460.57	91.28
460.76	56.17
460.94	0.00
461.12	63.19
461.31	21.06
461.49	11.70
461.67	30.43
461.85	60.85
462.04	25.75
462.22	121.71
462.40	86.60
462.59	70.22
462.77	79.58
462.95	70.22
463.13	14.04
463.32	4.68
463.50	112.35
463.68	35.11
463.86	0.00
464.05	88.94
464.23	21.06
464.41	44.47
464.59	77.24
464.78	117.03
464.96	0.00
465.14	39.79
465.32	53.83
465.50	72.56
465.69	4.68
465.87	140.43
466.05	0.00
466.23	0.00
466.41	93.62
466.60	51.49
466.78	70.22
466.96	7.02
467.14	56.17
467.32	0.00
467.51	0.00
467.69	28.09
467.87	126.39
468.05	79.58
468.23	67.88
468.41	18.72
468.60	25.75
468.78	0.00
468.96	37.45
469.14	37.45
469.32	63.19
469.50	21.06
469.69	98.30
469.87	49.15
470.05	70.22
470.23	51.49
470.41	0.00
470.59	124.05
470.77	74.90
470.95	51.49
471.14	67.88
471.32	18.72
471.50	0.00
471.68	0.00
471.86	16.38
472.04	72.56
472.22	0.00
472.40	0.00
472.58	25.75
472.77	53.83
472.95	79.58
473.13	63.19
473.31	11.70
473.49	0.00
473.67	119.37
473.85	18.72
474.03	0.00
474.21	84.26
474.39	46.81
474.57	107.66
474.75	30.43
474.93	14.04
475.12	44.47
475.30	70.22
475.48	4.68
475.66	30.43
475.84	42.13
476.02	14.04
476.20	16.38
476.38	0.00
476.56	0.00
476.74	77.24
476.92	53.83
477.10	46.81
477.28	11.70
477.46	0.00
477.64	21.06
477.82	84.26
478.00	28.09
478.18	58.51
478.36	91.28
478.54	28.09
478.72	4.68
478.90	18.72
479.08	23.41
479.26	30.43
479.44	30.43
479.62	42.13
479.80	49.15
479.98	0.00
480.16	147.45
480.34	79.58
480.52	30.43
480.70	0.00
480.88	51.49
481.06	63.19
481.24	30.43
481.41	0.00
481.59	51.49
481.77	72.56
481.95	14.04
482.13	98.30
482.31	98.30
482.49	86.60
482.67	25.75
482.85	79.58
483.03	63.19
483.21	79.58
483.39	72.56
483.57	53.83
483.74	86.60
483.92	0.00
484.10	0.00
484.28	42.13
484.46	72.56
484.64	95.96
484.82	2.34
485.00	42.13
485.18	9.36
485.35	53.83
485.53	4.68
485.71	39.79
485.89	35.11
486.07	11.70
486.25	46.81
486.43	77.24
486.61	53.83
486.78	98.30
486.96	23.41
487.14	2.34
487.32	7.02
487.50	21.06
487.68	58.51
487.85	28.09
488.03	35.11
488.21	107.66
488.39	110.01
488.57	49.15
488.75	79.58
488.92	16.38
489.10	16.38
489.28	102.98
489.46	91.28
489.64	0.00
489.81	65.54
489.99	65.54
490.17	65.54
490.35	25.75
490.53	0.00
490.70	0.00
490.88	42.13
491.06	21.06
491.24	70.22
491.41	51.49
491.59	37.45
491.77	107.66
491.95	7.02
492.13	32.77
492.30	95.96
492.48	81.92
492.66	77.24
492.84	7.02
493.01	53.83
493.19	51.49
493.37	63.19
493.54	67.88
493.72	126.39
493.90	53.83
494.08	0.00
494.25	0.00
494.43	9.36
494.61	11.70
494.79	25.75
494.96	23.41
495.14	32.77
495.32	7.02
495.49	51.49
495.67	65.54
495.85	77.24
496.02	74.90
496.20	81.92
496.38	70.22
496.55	14.04
496.73	105.32
496.91	0.00
497.09	100.64
497.26	37.45
497.44	32.77
497.62	9.36
497.79	95.96
497.97	56.17
498.14	79.58
498.32	63.19
498.50	18.72
498.67	0.00
498.85	9.36
499.03	4.68
499.20	49.15
499.38	98.30
499.56	124.05
499.73	51.49
499.91	2.34
500.08	77.24
500.26	46.81
500.44	28.09
500.61	114.69
500.79	9.36
500.97	72.56
501.14	65.54
501.32	98.30
501.49	107.66
501.67	51.49
501.84	51.49
502.02	77.24
502.20	16.38
502.37	58.51
502.55	0.00
502.72	79.58
502.90	4.68
503.07	7.02
503.25	114.69
503.43	4.68
503.60	60.85
503.78	28.09
503.95	84.26
504.13	58.51
504.30	14.04
504.48	11.70
504.65	56.17
504.83	21.06
505.01	49.15
505.18	0.00
505.36	86.60
505.53	42.13
505.71	23.41
505.88	112.35
506.06	35.11
506.23	58.51
506.41	86.60
506.58	39.79
506.76	74.90
506.93	14.04
507.11	105.32
507.28	65.54
507.46	46.81
507.63	88.94
507.81	42.13
507.98	63.19
508.16	86.60
508.33	53.83
508.50	77.24
508.68	56.17
508.85	2.34
509.03	110.01
509.20	51.49
509.38	140.43
509.55	84.26
509.73	37.45
509.90	37.45
510.08	138.09
510.25	110.01
510.42	170.86
510.60	60.85
510.77	67.88
510.95	32.77
511.12	98.30
511.30	44.47
511.47	77.24
511.64	21.06
511.82	28.09
511.99	81.92
512.17	107.66
512.34	98.30
512.51	0.00
512.69	114.69
512.86	112.35
513.04	32.77
513.21	30.43
513.38	49.15
513.56	72.56
513.73	7.02
513.90	2.34
514.08	65.54
514.25	37.45
514.43	23.41
514.60	11.70
514.77	32.77
514.95	60.85
515.12	63.19
515.29	35.11
515.47	124.05
515.64	18.72
515.81	107.66
515.99	18.72
516.16	0.00
516.33	67.88
516.51	67.88
516.68	44.47
516.85	32.77
517.03	91.28
517.20	39.79
517.37	28.09
517.54	14.04
517.72	105.32
517.89	37.45
518.06	72.56
518.24	42.13
518.41	60.85
518.58	100.64
518.75	35.11
518.93	0.00
519.10	98.30
519.27	42.13
519.45	7.02
519.62	81.92
519.79	63.19
519.96	88.94
520.14	0.00
520.31	4.68
520.48	70.22
520.65	65.54
520.83	4.68
521.00	93.62
521.17	21.06
521.34	32.77
521.52	79.58
521.69	28.09
521.86	65.54
522.03	46.81
522.20	42.13
522.38	21.06
522.55	46.81
522.72	21.06
522.89	46.81
523.07	14.04
523.24	156.82
523.41	77.24
523.58	23.41
523.75	25.75
523.92	74.90
524.10	72.56
524.27	46.81
524.44	49.15
524.61	35.11
524.78	67.88
524.96	117.03
525.13	0.00
525.30	65.54
525.47	79.58
525.64	91.28
525.81	53.83
525.98	0.00
526.16	23.41
526.33	63.19
526.50	53.83
526.67	46.81
526.84	30.43
527.01	23.41
527.18	81.92
527.36	39.79
527.53	88.94
527.70	39.79
527.87	46.81
528.04	60.85
528.21	53.83
528.38	46.81
528.55	0.00
528.72	79.58
528.89	102.98
529.07	9.36
529.24	21.06
529.41	49.15
529.58	21.06
529.75	74.90
529.92	0.00
530.09	23.41
530.26	58.51
530.43	72.56
530.60	37.45
530.77	0.00
530.94	39.79
531.11	30.43
531.28	56.17
531.46	44.47
531.63	32.77
531.80	70.22
531.97	72.56
532.14	0.00
532.31	0.00
532.48	0.00
532.65	14.04
532.82	37.45
532.99	77.24
533.16	74.90
533.33	79.58
533.50	77.24
533.67	49.15
533.84	63.19
534.01	72.56
534.18	37.45
534.35	72.56
534.52	42.13
534.69	79.58
534.86	0.00
535.03	42.13
535.20	79.58
535.37	65.54
535.54	77.24
535.71	18.72
535.88	37.45
536.05	49.15
536.22	53.83
536.38	117.03
536.55	0.00
536.72	91.28
536.89	21.06
537.06	46.81
537.23	70.22
537.40	81.92
537.57	95.96
537.74	0.00
537.91	60.85
538.08	44.47
538.25	60.85
538.42	0.00
538.59	60.85
538.75	58.51
538.92	18.72
539.09	63.19
539.26	67.88
539.43	7.02
539.60	56.17
539.77	0.00
539.94	95.96
540.11	30.43
540.28	32.77
540.44	0.00
540.61	4.68
540.78	110.01
540.95	93.62
541.12	23.41
541.29	51.49
541.46	88.94
541.62	35.11
541.79	46.81
541.96	25.75
542.13	95.96
542.30	0.00
542.47	81.92
542.63	88.94
542.80	77.24
542.97	46.81
543.14	107.66
543.31	44.47
543.48	70.22
543.64	0.00
543.81	63.19
543.98	42.13
544.15	46.81
544.32	32.77
544.48	16.38
544.65	39.79
544.82	46.81
544.99	105.32
545.16	67.88
545.32	56.17
545.49	46.81
545.66	65.54
545.83	35.11
546.00	0.00
546.16	18.72
546.33	63.19
546.50	4.68
546.67	60.85
546.83	93.62
547.00	46.81
547.17	42.13
547.34	0.00
547.50	58.51
547.67	65.54
547.84	58.51
548.00	44.47
548.17	49.15
548.34	35.11
548.51	156.82
548.67	49.15
548.84	56.17
549.01	65.54
549.18	18.72
549.34	74.90
549.51	67.88
549.68	4.68
549.84	60.85
550.01	0.00
550.18	0.00
550.34	18.72
550.51	60.85
550.68	95.96
550.84	77.24
551.01	67.88
551.18	105.32
551.34	14.04
551.51	70.22
551.68	88.94
551.84	72.56
552.01	0.00
552.18	2.34
552.34	32.77
552.51	70.22
552.68	93.62
552.84	95.96
553.01	79.58
553.18	4.68
553.34	79.58
553.51	49.15
553.67	23.41
553.84	37.45
554.01	4.68
554.17	67.88
554.34	46.81
554.51	100.64
554.67	131.07
554.84	81.92
555.00	14.04
555.17	63.19
555.33	11.70
555.50	65.54
555.67	7.02
555.83	0.00
556.00	56.17
556.16	114.69
556.33	39.79
556.50	46.81
556.66	112.35
556.83	84.26
556.99	11.70
557.16	72.56
557.32	142.77
557.49	81.92
557.65	152.13
557.82	7.02
557.98	84.26
558.15	117.03
558.32	2.34
558.48	0.00
558.65	37.45
558.81	35.11
558.98	37.45
559.14	65.54
559.31	44.47
559.47	53.83
559.64	11.70
559.80	39.79
559.97	77.24
560.13	58.51
560.30	49.15
560.46	32.77
560.63	32.77
560.79	56.17
560.96	0.00
561.12	30.43
561.29	105.32
561.45	107.66
561.61	58.51
561.78	100.64
561.94	21.06
562.11	81.92
562.27	70.22
562.44	86.60
562.60	16.38
562.77	74.90
562.93	39.79
563.10	74.90
563.26	11.70
563.42	117.03
563.59	67.88
563.75	23.41
563.92	63.19
564.08	88.94
564.24	74.90
564.41	53.83
564.57	4.68
564.74	63.19
564.90	32.77
565.07	81.92
565.23	79.58
565.39	28.09
565.56	4.68
565.72	91.28
565.88	0.00
566.05	46.81
566.21	70.22
566.38	39.79
566.54	32.77
566.70	58.51
566.87	124.05
567.03	28.09
567.19	2.34
567.36	60.85
567.52	7.02
567.68	65.54
567.85	42.13
568.01	14.04
568.17	58.51
568.34	44.47
568.50	30.43
568.66	100.64
568.83	86.60
568.99	28.09
569.15	58.51
569.32	44.47
569.48	28.09
569.64	39.79
569.81	56.17
569.97	79.58
570.13	0.00
570.30	95.96
570.46	49.15
570.62	0.00
570.78	42.13
570.95	58.51
571.11	21.06
571.27	0.00
571.43	81.92
571.60	65.54
571.76	42.13
571.92	35.11
572.09	46.81
572.25	4.68
572.41	23.41
572.57	79.58
572.74	67.88
572.90	60.85
573.06	65.54
573.22	56.17
573.38	16.38
573.55	112.35
573.71	0.00
573.87	0.00
574.03	39.79
574.20	37.45
574.36	9.36
574.52	0.00
574.68	53.83
574.84	100.64
575.01	25.75
575.17	72.56
575.33	32.77
575.49	37.45
575.65	44.47
575.82	77.24
575.98	7.02
576.14	88.94
576.30	25.75
576.46	14.04
576.62	0.00
576.79	9.36
576.95	14.04
577.11	4.68
577.27	81.92
577.43	32.77
577.59	35.11
577.75	32.77
577.92	35.11
578.08	25.75
578.24	0.00
578.40	124.05
578.56	91.28
578.72	51.49
578.88	44.47
579.04	7.02
579.21	0.00
579.37	100.64
579.53	0.00
579.69	74.90
579.85	65.54
580.01	51.49
580.17	67.88
580.33	67.88
580.49	53.83
580.65	25.75
580.82	39.79
580.98	11.70
581.14	28.09
581.30	60.85
581.46	44.47
581.62	46.81
581.78	32.77
581.94	9.36
582.10	93.62
582.26	117.03
582.42	93.62
582.58	0.00
582.74	46.81
582.90	2.34
583.06	67.88
583.22	37.45
583.38	63.19
583.54	2.34
583.70	105.32
583.86	81.92
584.02	74.90
584.18	16.38
584.34	32.77
584.50	63.19
584.66	114.69
584.82	56.17
584.98	49.15
585.14	74.90
585.30	46.81
585.46	93.62
585.62	56.17
585.78	63.19
585.94	23.41
586.10	42.13
586.26	63.19
586.42	35.11
586.58	142.77
586.74	42.13
586.90	0.00
587.06	119.37
587.22	53.83
587.38	95.96
587.54	79.58
587.70	58.51
587.86	53.83
588.02	58.51
588.18	65.54
588.34	63.19
588.49	18.72
588.65	0.00
588.81	18.72
588.97	67.88
589.13	30.43
589.29	28.09
589.45	46.81
589.61	32.77
589.77	77.24
589.93	117.03
590.08	95.96
590.24	49.15
590.40	0.00
590.56	25.75
590.72	14.04
590.88	0.00
591.04	16.38
591.20	0.00
591.35	16.38
591.51	67.88
591.67	84.26
591.83	37.45
591.99	56.17
592.15	74.90
592.31	23.41
592.46	53.83
592.62	46.81
592.78	35.11
592.94	46.81
593.10	30.43
593.26	18.72
593.41	0.00
593.57	18.72
593.73	9.36
593.89	11.70
594.05	0.00
594.20	93.62
594.36	67.88
594.52	42.13
594.68	23.41
594.84	70.22
594.99	0.00
595.15	53.83
595.31	25.75
595.47	49.15
595.62	93.62
595.78	21.06
595.94	0.00
596.10	30.43
596.25	32.77
596.41	46.81
596.57	32.77
596.73	77.24
596.88	133.41
597.04	112.35
597.20	25.75
597.36	77.24
597.51	51.49
597.67	49.15
597.83	0.00
597.99	23.41
598.14	35.11
598.30	91.28
598.46	60.85
598.61	21.06
598.77	63.19
598.93	37.45
599.09	0.00
599.24	79.58
599.40	53.83
599.56	39.79
599.71	0.00
599.87	30.43
600.03	95.96
600.18	0.00
600.34	39.79
600.50	23.41
600.65	30.43
600.81	30.43
600.97	49.15
601.12	98.30
601.28	81.92
601.44	16.38
601.59	42.13
601.75	44.47
601.91	35.11
602.06	105.32
602.22	60.85
602.37	39.79
602.53	67.88
602.69	142.77
602.84	79.58
603.00	28.09
603.16	79.58
603.31	56.17
603.47	49.15
603.62	0.00
603.78	46.81
603.94	23.41
604.09	81.92
604.25	63.19
604.40	77.24
604.56	0.00
604.71	9.36
604.87	74.90
605.03	70.22
605.18	0.00
605.34	65.54
605.49	81.92
605.65	74.90
605.80	0.00
605.96	28.09
606.12	37.45
606.27	58.51
606.43	51.49
606.58	39.79
606.74	0.00
606.89	102.98
607.05	32.77
607.20	37.45
607.36	2.34
607.51	60.85
607.67	18.72
607.82	67.88
607.98	81.92
608.13	53.83
608.29	91.28
608.44	58.51
608.60	23.41
608.75	0.00
608.91	72.56
609.06	102.98
609.22	14.04
609.37	39.79
609.53	70.22
609.68	149.79
609.84	21.06
609.99	74.90
610.15	32.77
610.30	30.43
610.46	46.81
610.61	70.22
610.76	16.38
610.92	60.85
611.07	28.09
611.23	95.96
611.38	39.79
611.54	56.17
611.69	21.06
611.84	25.75
612.00	67.88
612.15	0.00
612.31	42.13
612.46	37.45
612.62	42.13
612.77	42.13
612.92	74.90
613.08	110.01
613.23	105.32
613.39	28.09
613.54	0.00
613.69	98.30
613.85	88.94
614.00	46.81
614.15	72.56
614.31	51.49
614.46	117.03
614.62	133.41
614.77	84.26
614.92	102.98
615.08	86.60
615.23	44.47
615.38	49.15
615.54	4.68
615.69	67.88
615.84	7.02
616.00	46.81
616.15	30.43
616.30	100.64
616.46	28.09
616.61	145.11
616.76	81.92
616.92	44.47
617.07	42.13
617.22	16.38
617.37	56.17
617.53	18.72
617.68	67.88
617.83	81.92
617.99	84.26
618.14	70.22
618.29	46.81
618.45	44.47
618.60	39.79
618.75	32.77
618.90	28.09
619.06	49.15
619.21	7.02
619.36	16.38
619.51	100.64
619.67	72.56
619.82	70.22
619.97	18.72
620.12	70.22
620.28	51.49
620.43	53.83
620.58	58.51
620.73	28.09
620.89	39.79
621.04	58.51
621.19	65.54
621.34	2.34
621.49	0.00
621.65	37.45
621.80	7.02
621.95	105.32
622.10	72.56
622.25	58.51
622.41	84.26
622.56	60.85
622.71	74.90
622.86	7.02
623.01	46.81
623.16	44.47
623.32	56.17
623.47	51.49
623.62	114.69
623.77	98.30
623.92	74.90
624.07	21.06
624.23	74.90
624.38	51.49
624.53	121.71
624.68	9.36
624.83	35.11
624.98	51.49
625.13	0.00
625.29	32.77
625.44	0.00
625.59	126.39
625.74	42.13
625.89	74.90
626.04	44.47
626.19	0.00
626.34	42.13
626.49	25.75
626.65	86.60
626.80	58.51
626.95	72.56
627.10	42.13
627.25	86.60
627.40	86.60
627.55	21.06
627.70	18.72
627.85	0.00
628.00	0.00
628.15	107.66
628.30	105.32
628.45	0.00
628.60	51.49
628.76	65.54
628.91	93.62
629.06	0.00
629.21	0.00
629.36	44.47
629.51	105.32
629.66	63.19
629.81	63.19
629.96	11.70
630.11	39.79
630.26	140.43
630.41	39.79
630.56	39.79
630.71	0.00
630.86	86.60
631.01	114.69
631.16	65.54
631.31	46.81
631.46	65.54
631.61	67.88
631.76	18.72
631.91	30.43
632.06	56.17
632.21	105.32
632.36	53.83
632.51	37.45
632.66	84.26
632.81	0.00
632.96	21.06
633.10	16.38
633.25	65.54
633.40	133.41
633.55	42.13
633.70	16.38
633.85	72.56
634.00	16.38
634.15	11.70
634.30	93.62
634.45	0.00
634.60	35.11
634.75	95.96
634.90	23.41
635.05	77.24
635.19	0.00
635.34	14.04
635.49	39.79
635.64	114.69
635.79	81.92
635.94	0.00
636.09	79.58
636.24	70.22
636.39	23.41
636.53	95.96
636.68	16.38
636.83	117.03
636.98	21.06
637.13	0.00
637.28	84.26
637.43	37.45
637.57	23.41
637.72	11.70
637.87	102.98
638.02	51.49
638.17	98.30
638.32	79.58
638.46	74.90
638.61	30.43
638.76	65.54
638.91	7.02
639.06	119.37
639.20	131.07
639.35	35.11
639.50	30.43
639.65	16.38
639.80	0.00
639.94	23.41
640.09	16.38
640.24	126.39
640.39	42.13
640.54	18.72
640.68	0.00
640.83	0.00
640.98	46.81
641.13	88.94
641.27	23.41
641.42	67.88
641.57	51.49
641.72	16.38
641.86	0.00
642.01	0.00
642.16	0.00
642.31	0.00
642.45	51.49
642.60	0.00
642.75	11.70
642.90	42.13
643.04	58.51
643.19	70.22
643.34	56.17
643.48	42.13
643.63	60.85
643.78	37.45
643.93	46.81
644.07	9.36
644.22	0.00
644.37	0.00
644.51	0.00
644.66	51.49
644.81	25.75
644.95	53.83
645.10	25.75
645.25	74.90
645.39	11.70
645.54	42.13
645.69	110.01
645.83	77.24
645.98	91.28
646.13	74.90
646.27	39.79
646.42	72.56
646.57	53.83
646.71	95.96
646.86	128.73
647.00	79.58
647.15	39.79
647.30	9.36
647.44	88.94
647.59	77.24
647.74	102.98
647.88	25.75
648.03	16.38
648.17	49.15
648.32	35.11
648.47	77.24
648.61	21.06
648.76	14.04
648.90	28.09
649.05	30.43
649.20	18.72
649.34	0.00
649.49	25.75
649.63	81.92
649.78	7.02
649.92	32.77
650.07	131.07
650.21	39.79
650.36	0.00
650.51	16.38
650.65	51.49
650.80	105.32
650.94	0.00
651.09	77.24
651.23	67.88
651.38	42.13
651.52	37.45
651.67	35.11
651.81	0.00
651.96	46.81
652.10	72.56
652.25	126.39
652.39	39.79
652.54	32.77
652.68	74.90
652.83	81.92
652.97	35.11
653.12	72.56
653.26	46.81
653.41	9.36
653.55	0.00
653.70	42.13
653.84	11.70
653.99	63.19
654.13	28.09
654.27	25.75
654.42	65.54
654.56	39.79
654.71	100.64
654.85	81.92
655.00	30.43
655.14	25.75
655.29	74.90
655.43	51.49
655.57	0.00
655.72	0.00
655.86	0.00
656.01	0.00
656.15	95.96
656.30	65.54
656.44	72.56
656.58	70.22
656.73	81.92
656.87	0.00
657.01	49.15
657.16	65.54
657.30	0.00
657.45	95.96
657.59	16.38
657.73	30.43
657.88	14.04
658.02	46.81
658.16	18.72
658.31	9.36
658.45	53.83
658.60	25.75
658.74	131.07
658.88	28.09
659.03	88.94
659.17	9.36
659.31	49.15
659.46	32.77
659.60	11.70
659.74	21.06
659.89	49.15
660.03	74.90
660.17	102.98
660.32	95.96
660.46	14.04
660.60	74.90
660.74	11.70
660.89	0.00
661.03	9.36
661.17	53.83
661.32	60.85
661.46	60.85
661.60	56.17
661.74	46.81
661.89	44.47
662.03	102.98
662.17	53.83
662.31	67.88
662.46	51.49
662.60	28.09
662.74	60.85
662.88	105.32
663.03	72.56
663.17	74.90
663.31	105.32
663.45	51.49
663.60	23.41
663.74	53.83
663.88	102.98
664.02	9.36
664.17	91.28
664.31	49.15
664.45	91.28
664.59	58.51
664.73	11.70
664.88	18.72
665.02	56.17
665.16	49.15
665.30	42.13
665.44	49.15
665.59	84.26
665.73	16.38
665.87	46.81
666.01	14.04
666.15	0.00
666.29	42.13
666.44	74.90
666.58	25.75
666.72	0.00
666.86	0.00
667.00	35.11
667.14	124.05
667.28	72.56
667.43	0.00
667.57	93.62
667.71	0.00
667.85	46.81
667.99	16.38
668.13	77.24
668.27	28.09
668.41	93.62
668.56	11.70
668.70	60.85
668.84	56.17
668.98	112.35
669.12	86.60
669.26	0.00
669.40	39.79
669.54	46.81
669.68	58.51
669.82	65.54
669.96	44.47
670.10	77.24
670.25	37.45
670.39	0.00
670.53	0.00
670.67	44.47
670.81	77.24
670.95	25.75
671.09	4.68
671.23	95.96
671.37	37.45
671.51	51.49
671.65	49.15
671.79	42.13
671.93	72.56
672.07	67.88
672.21	121.71
672.35	30.43
672.49	51.49
672.63	70.22
672.77	0.00
672.91	49.15
673.05	0.00
673.19	79.58
673.33	23.41
673.47	28.09
673.61	0.00
673.75	53.83
673.89	58.51
674.03	0.00
674.17	32.77
674.31	18.72
674.45	44.47
674.59	0.00
674.73	21.06
674.87	0.00
675.01	0.00
675.15	25.75
675.29	25.75
675.43	32.77
675.56	53.83
675.70	18.72
675.84	2.34
675.98	0.00
676.12	35.11
676.26	58.51
676.40	93.62
676.54	2.34
676.68	23.41
676.82	107.66
676.96	0.00
677.10	58.51
677.23	11.70
677.37	14.04
677.51	16.38
677.65	63.19
677.79	42.13
677.93	32.77
678.07	42.13
678.21	23.41
678.34	0.00
678.48	79.58
678.62	0.00
678.76	11.70
678.90	14.04
679.04	42.13
679.18	14.04
679.31	72.56
679.45	44.47
679.59	72.56
679.73	0.00
679.87	51.49
680.00	0.00
680.14	42.13
680.28	63.19
680.42	65.54
680.56	91.28
680.70	30.43
680.83	67.88
680.97	0.00
681.11	56.17
681.25	37.45
681.39	74.90
681.52	58.51
681.66	53.83
681.80	44.47
681.94	72.56
682.07	0.00
682.21	93.62
682.35	0.00
682.49	21.06
682.62	49.15
682.76	37.45
682.90	53.83
683.04	70.22
683.17	98.30
683.31	0.00
683.45	35.11
683.59	0.00
683.72	0.00
683.86	0.00
684.00	0.00
684.13	56.17
684.27	53.83
684.41	77.24
684.55	9.36
684.68	79.58
684.82	65.54
684.96	0.00
685.09	84.26
685.23	28.09
685.37	56.17
685.50	0.00
685.64	102.98
685.78	56.17
685.91	119.37
686.05	14.04
686.19	46.81
686.32	51.49
686.46	28.09
686.60	23.41
686.73	46.81
686.87	11.70
687.01	7.02
687.14	11.70
687.28	21.06
687.42	67.88
687.55	51.49
687.69	51.49
687.82	56.17
687.96	4.68
688.10	79.58
688.23	117.03
688.37	25.75
688.50	98.30
688.64	0.00
688.78	53.83
688.91	74.90
689.05	126.39
689.18	37.45
689.32	35.11
689.46	16.38
689.59	58.51
689.73	0.00
689.86	51.49
690.00	91.28
690.13	77.24
690.27	74.90
690.41	4.68
690.54	25.75
690.68	35.11
690.81	0.00
690.95	0.00
691.08	72.56
691.22	25.75
691.35	63.19
691.49	18.72
691.62	28.09
691.76	0.00
691.89	23.41
692.03	2.34
692.16	93.62
692.30	56.17
692.43	42.13
692.57	100.64
692.70	72.56
692.84	98.30
692.97	0.00
693.11	0.00
693.24	21.06
693.38	88.94
693.51	30.43
693.65	0.00
693.78	0.00
693.92	0.00
694.05	53.83
694.19	21.06
694.32	70.22
694.45	0.00
694.59	0.00
694.72	0.00
694.86	25.75
694.99	39.79
695.13	51.49
695.26	49.15
695.39	70.22
695.53	60.85
695.66	0.00
695.80	81.92
695.93	18.72
696.07	0.00
696.20	53.83
696.33	30.43
696.47	49.15
696.60	0.00
696.73	51.49
696.87	28.09
697.00	0.00
697.14	16.38
697.27	0.00
697.40	91.28
697.54	37.45
697.67	63.19
697.80	56.17
697.94	72.56
698.07	18.72
698.21	77.24
698.34	77.24
698.47	0.00
698.61	72.56
698.74	0.00
698.87	9.36
699.01	14.04
699.14	0.00
699.27	91.28
699.40	21.06
699.54	0.00
699.67	35.11
699.80	25.75
699.94	42.13
700.07	88.94
700.20	53.83
700.34	21.06
700.47	74.90
700.60	58.51
700.73	0.00
700.87	21.06
701.00	30.43
701.13	0.00
701.26	32.77
701.40	72.56
701.53	11.70
701.66	16.38
701.79	102.98
701.93	65.54
702.06	44.47
702.19	11.70
702.32	35.11
702.46	0.00
702.59	42.13
702.72	102.98
702.85	42.13
702.99	0.00
703.12	0.00
703.25	28.09
703.38	4.68
703.51	23.41
703.65	25.75
703.78	0.00
703.91	14.04
704.04	23.41
704.17	0.00
704.31	44.47
704.44	49.15
704.57	77.24
704.70	95.96
704.83	14.04
704.96	0.00
705.10	42.13
705.23	0.00
>>>>>End Processed Spectral Data<<<<<
