SpectraSuite Data File
++++++++++++++++++++++++++++++++++++
Date: Fri Oct 04 12:13:29 GMT-05:00 2013
User: price-jones
Dark Spectrum Present: No
Reference Spectrum Present: No
Number of Sampled Component Spectra: 1
Spectrometers: USB2+H05261
Integration Time (usec): 10000 (USB2+H05261)
Spectra Averaged: 1 (USB2+H05261)
Boxcar Smoothing: 0 (USB2+H05261)
Correct for Electrical Dark: No (USB2+H05261)
Strobe/Lamp Enabled: No (USB2+H05261)
Correct for Detector Non-linearity: No (USB2+H05261)
Correct for Stray Light: No (USB2+H05261)
Number of Pixels in Processed Spectrum: 2048
>>>>>Begin Processed Spectral Data<<<<<
365.73	0.00
365.92	0.00
366.12	0.00
366.32	0.00
366.52	0.00
366.72	0.00
366.91	0.00
367.11	0.00
367.31	0.00
367.51	0.00
367.70	0.00
367.90	0.00
368.10	0.00
368.30	0.00
368.49	0.00
368.69	0.00
368.89	0.00
369.09	0.00
369.28	0.00
369.48	0.00
369.68	0.00
369.87	0.00
370.07	0.00
370.27	0.00
370.47	0.00
370.66	0.00
370.86	0.00
371.06	0.00
371.25	0.00
371.45	0.00
371.65	0.00
371.84	0.00
372.04	0.00
372.24	79.58
372.44	9.36
372.63	0.00
372.83	14.04
373.03	79.58
373.22	0.00
373.42	58.51
373.62	9.36
373.81	67.88
374.01	81.92
374.21	18.72
374.40	37.45
374.60	105.32
374.79	30.43
374.99	16.38
375.19	53.83
375.38	21.06
375.58	4.68
375.78	39.79
375.97	117.03
376.17	9.36
376.37	49.15
376.56	70.22
376.76	51.49
376.95	0.00
377.15	0.00
377.35	0.00
377.54	28.09
377.74	0.00
377.93	63.19
378.13	25.75
378.33	0.00
378.52	0.00
378.72	0.00
378.91	0.00
379.11	51.49
379.31	0.00
379.50	32.77
379.70	2.34
379.89	0.00
380.09	14.04
380.28	18.72
380.48	0.00
380.68	0.00
380.87	0.00
381.07	0.00
381.26	30.43
381.46	7.02
381.65	30.43
381.85	0.00
382.04	14.04
382.24	84.26
382.43	23.41
382.63	25.75
382.83	25.75
383.02	0.00
383.22	4.68
383.41	88.94
383.61	9.36
383.80	0.00
384.00	18.72
384.19	14.04
384.39	0.00
384.58	0.00
384.78	44.47
384.97	21.06
385.17	56.17
385.36	21.06
385.56	9.36
385.75	2.34
385.95	0.00
386.14	0.00
386.34	21.06
386.53	23.41
386.72	72.56
386.92	37.45
387.11	16.38
387.31	25.75
387.50	44.47
387.70	21.06
387.89	30.43
388.09	0.00
388.28	65.54
388.48	0.00
388.67	42.13
388.86	25.75
389.06	58.51
389.25	0.00
389.45	35.11
389.64	2.34
389.84	0.00
390.03	58.51
390.22	58.51
390.42	0.00
390.61	56.17
390.81	67.88
391.00	35.11
391.19	14.04
391.39	18.72
391.58	4.68
391.78	21.06
391.97	0.00
392.16	25.75
392.36	9.36
392.55	9.36
392.75	4.68
392.94	0.00
393.13	4.68
393.33	0.00
393.52	30.43
393.71	9.36
393.91	56.17
394.10	0.00
394.29	0.00
394.49	0.00
394.68	25.75
394.88	105.32
395.07	0.00
395.26	0.00
395.46	11.70
395.65	0.00
395.84	0.00
396.04	30.43
396.23	0.00
396.42	70.22
396.62	23.41
396.81	70.22
397.00	7.02
397.19	32.77
397.39	14.04
397.58	119.37
397.77	53.83
397.97	16.38
398.16	23.41
398.35	44.47
398.55	63.19
398.74	93.62
398.93	0.00
399.12	70.22
399.32	21.06
399.51	46.81
399.70	11.70
399.90	49.15
400.09	44.47
400.28	0.00
400.47	72.56
400.67	0.00
400.86	2.34
401.05	7.02
401.24	4.68
401.44	35.11
401.63	77.24
401.82	0.00
402.01	11.70
402.21	0.00
402.40	0.00
402.59	4.68
402.78	0.00
402.97	46.81
403.17	42.13
403.36	56.17
403.55	63.19
403.74	53.83
403.93	0.00
404.13	7.02
404.32	74.90
404.51	44.47
404.70	98.30
404.89	53.83
405.09	30.43
405.28	21.06
405.47	53.83
405.66	11.70
405.85	58.51
406.05	63.19
406.24	49.15
406.43	9.36
406.62	0.00
406.81	37.45
407.00	46.81
407.20	0.00
407.39	0.00
407.58	35.11
407.77	30.43
407.96	0.00
408.15	28.09
408.34	65.54
408.54	60.85
408.73	79.58
408.92	74.90
409.11	37.45
409.30	4.68
409.49	46.81
409.68	11.70
409.87	4.68
410.07	0.00
410.26	51.49
410.45	0.00
410.64	18.72
410.83	0.00
411.02	0.00
411.21	14.04
411.40	0.00
411.59	42.13
411.78	56.17
411.98	0.00
412.17	58.51
412.36	0.00
412.55	0.00
412.74	0.00
412.93	67.88
413.12	70.22
413.31	16.38
413.50	35.11
413.69	42.13
413.88	0.00
414.07	39.79
414.26	25.75
414.45	14.04
414.64	39.79
414.83	30.43
415.02	39.79
415.22	0.00
415.41	46.81
415.60	63.19
415.79	30.43
415.98	63.19
416.17	74.90
416.36	23.41
416.55	44.47
416.74	53.83
416.93	105.32
417.12	35.11
417.31	28.09
417.50	65.54
417.69	25.75
417.88	46.81
418.07	35.11
418.26	60.85
418.45	0.00
418.64	0.00
418.83	100.64
419.02	14.04
419.21	0.00
419.39	110.01
419.58	18.72
419.77	0.00
419.96	0.00
420.15	79.58
420.34	65.54
420.53	16.38
420.72	39.79
420.91	86.60
421.10	110.01
421.29	32.77
421.48	9.36
421.67	0.00
421.86	25.75
422.05	14.04
422.24	35.11
422.43	35.11
422.61	44.47
422.80	9.36
422.99	4.68
423.18	42.13
423.37	39.79
423.56	42.13
423.75	51.49
423.94	7.02
424.13	88.94
424.32	114.69
424.50	67.88
424.69	25.75
424.88	14.04
425.07	88.94
425.26	51.49
425.45	18.72
425.64	9.36
425.83	28.09
426.01	0.00
426.20	0.00
426.39	74.90
426.58	46.81
426.77	39.79
426.96	49.15
427.15	0.00
427.33	0.00
427.52	21.06
427.71	0.00
427.90	32.77
428.09	70.22
428.28	46.81
428.46	58.51
428.65	23.41
428.84	0.00
429.03	72.56
429.22	0.00
429.40	21.06
429.59	44.47
429.78	18.72
429.97	91.28
430.16	25.75
430.34	84.26
430.53	42.13
430.72	23.41
430.91	23.41
431.10	23.41
431.28	105.32
431.47	72.56
431.66	23.41
431.85	0.00
432.03	9.36
432.22	0.00
432.41	77.24
432.60	23.41
432.79	79.58
432.97	51.49
433.16	72.56
433.35	0.00
433.54	56.17
433.72	18.72
433.91	60.85
434.10	58.51
434.28	0.00
434.47	86.60
434.66	44.47
434.85	39.79
435.03	0.00
435.22	18.72
435.41	70.22
435.59	4.68
435.78	0.00
435.97	60.85
436.16	2.34
436.34	58.51
436.53	16.38
436.72	0.00
436.90	23.41
437.09	39.79
437.28	30.43
437.46	0.00
437.65	23.41
437.84	0.00
438.02	0.00
438.21	0.00
438.40	65.54
438.58	58.51
438.77	0.00
438.96	86.60
439.14	39.79
439.33	16.38
439.52	25.75
439.70	16.38
439.89	46.81
440.08	30.43
440.26	56.17
440.45	0.00
440.63	67.88
440.82	65.54
441.01	4.68
441.19	63.19
441.38	0.00
441.57	4.68
441.75	0.00
441.94	79.58
442.12	25.75
442.31	21.06
442.50	44.47
442.68	46.81
442.87	18.72
443.05	14.04
443.24	0.00
443.43	18.72
443.61	25.75
443.80	18.72
443.98	25.75
444.17	0.00
444.35	79.58
444.54	53.83
444.73	46.81
444.91	30.43
445.10	25.75
445.28	23.41
445.47	11.70
445.65	25.75
445.84	25.75
446.02	16.38
446.21	0.00
446.39	0.00
446.58	28.09
446.77	0.00
446.95	46.81
447.14	0.00
447.32	18.72
447.51	11.70
447.69	49.15
447.88	88.94
448.06	37.45
448.25	14.04
448.43	32.77
448.62	0.00
448.80	18.72
448.99	42.13
449.17	58.51
449.36	16.38
449.54	42.13
449.73	0.00
449.91	39.79
450.10	84.26
450.28	46.81
450.46	63.19
450.65	16.38
450.83	35.11
451.02	30.43
451.20	11.70
451.39	25.75
451.57	0.00
451.76	25.75
451.94	28.09
452.13	4.68
452.31	14.04
452.49	91.28
452.68	42.13
452.86	35.11
453.05	72.56
453.23	95.96
453.42	9.36
453.60	0.00
453.78	0.00
453.97	0.00
454.15	0.00
454.34	32.77
454.52	2.34
454.70	86.60
454.89	32.77
455.07	14.04
455.26	65.54
455.44	128.73
455.62	0.00
455.81	0.00
455.99	91.28
456.17	79.58
456.36	77.24
456.54	100.64
456.73	18.72
456.91	42.13
457.09	28.09
457.28	0.00
457.46	72.56
457.64	2.34
457.83	18.72
458.01	0.00
458.19	84.26
458.38	35.11
458.56	30.43
458.74	65.54
458.93	0.00
459.11	60.85
459.29	4.68
459.48	53.83
459.66	60.85
459.84	23.41
460.03	25.75
460.21	42.13
460.39	46.81
460.57	35.11
460.76	46.81
460.94	0.00
461.12	30.43
461.31	77.24
461.49	121.71
461.67	18.72
461.85	56.17
462.04	46.81
462.22	88.94
462.40	39.79
462.59	32.77
462.77	14.04
462.95	81.92
463.13	28.09
463.32	70.22
463.50	37.45
463.68	35.11
463.86	4.68
464.05	77.24
464.23	14.04
464.41	63.19
464.59	14.04
464.78	16.38
464.96	84.26
465.14	65.54
465.32	32.77
465.50	65.54
465.69	25.75
465.87	60.85
466.05	37.45
466.23	0.00
466.41	0.00
466.60	79.58
466.78	114.69
466.96	74.90
467.14	65.54
467.32	35.11
467.51	63.19
467.69	0.00
467.87	23.41
468.05	25.75
468.23	35.11
468.41	37.45
468.60	51.49
468.78	0.00
468.96	0.00
469.14	18.72
469.32	0.00
469.50	0.00
469.69	49.15
469.87	35.11
470.05	0.00
470.23	49.15
470.41	11.70
470.59	28.09
470.77	56.17
470.95	11.70
471.14	0.00
471.32	28.09
471.50	35.11
471.68	58.51
471.86	35.11
472.04	23.41
472.22	39.79
472.40	91.28
472.58	0.00
472.77	37.45
472.95	0.00
473.13	44.47
473.31	91.28
473.49	2.34
473.67	51.49
473.85	81.92
474.03	58.51
474.21	23.41
474.39	14.04
474.57	44.47
474.75	16.38
474.93	30.43
475.12	0.00
475.30	4.68
475.48	42.13
475.66	65.54
475.84	51.49
476.02	0.00
476.20	0.00
476.38	14.04
476.56	25.75
476.74	25.75
476.92	81.92
477.10	79.58
477.28	39.79
477.46	0.00
477.64	0.00
477.82	44.47
478.00	32.77
478.18	42.13
478.36	58.51
478.54	0.00
478.72	0.00
478.90	16.38
479.08	37.45
479.26	16.38
479.44	23.41
479.62	39.79
479.80	18.72
479.98	63.19
480.16	32.77
480.34	21.06
480.52	56.17
480.70	32.77
480.88	14.04
481.06	51.49
481.24	2.34
481.41	0.00
481.59	58.51
481.77	51.49
481.95	30.43
482.13	9.36
482.31	7.02
482.49	0.00
482.67	39.79
482.85	95.96
483.03	86.60
483.21	0.00
483.39	11.70
483.57	0.00
483.74	51.49
483.92	7.02
484.10	70.22
484.28	16.38
484.46	67.88
484.64	0.00
484.82	88.94
485.00	4.68
485.18	81.92
485.35	56.17
485.53	0.00
485.71	0.00
485.89	0.00
486.07	51.49
486.25	53.83
486.43	11.70
486.61	67.88
486.78	46.81
486.96	56.17
487.14	58.51
487.32	65.54
487.50	46.81
487.68	79.58
487.85	86.60
488.03	74.90
488.21	30.43
488.39	0.00
488.57	0.00
488.75	74.90
488.92	74.90
489.10	30.43
489.28	32.77
489.46	0.00
489.64	65.54
489.81	32.77
489.99	37.45
490.17	67.88
490.35	95.96
490.53	74.90
490.70	49.15
490.88	46.81
491.06	77.24
491.24	117.03
491.41	67.88
491.59	46.81
491.77	4.68
491.95	0.00
492.13	25.75
492.30	35.11
492.48	23.41
492.66	35.11
492.84	18.72
493.01	21.06
493.19	51.49
493.37	23.41
493.54	46.81
493.72	58.51
493.90	18.72
494.08	0.00
494.25	65.54
494.43	91.28
494.61	63.19
494.79	9.36
494.96	39.79
495.14	60.85
495.32	51.49
495.49	72.56
495.67	37.45
495.85	53.83
496.02	56.17
496.20	28.09
496.38	23.41
496.55	37.45
496.73	35.11
496.91	100.64
497.09	35.11
497.26	18.72
497.44	58.51
497.62	14.04
497.79	67.88
497.97	79.58
498.14	30.43
498.32	0.00
498.50	25.75
498.67	60.85
498.85	51.49
499.03	21.06
499.20	67.88
499.38	98.30
499.56	140.43
499.73	28.09
499.91	16.38
500.08	56.17
500.26	93.62
500.44	11.70
500.61	37.45
500.79	14.04
500.97	0.00
501.14	35.11
501.32	95.96
501.49	63.19
501.67	32.77
501.84	46.81
502.02	0.00
502.20	65.54
502.37	42.13
502.55	42.13
502.72	58.51
502.90	70.22
503.07	46.81
503.25	14.04
503.43	49.15
503.60	88.94
503.78	88.94
503.95	70.22
504.13	32.77
504.30	39.79
504.48	51.49
504.65	77.24
504.83	133.41
505.01	65.54
505.18	91.28
505.36	65.54
505.53	28.09
505.71	86.60
505.88	25.75
506.06	35.11
506.23	0.00
506.41	39.79
506.58	7.02
506.76	7.02
506.93	25.75
507.11	39.79
507.28	23.41
507.46	42.13
507.63	18.72
507.81	49.15
507.98	42.13
508.16	58.51
508.33	0.00
508.50	30.43
508.68	86.60
508.85	49.15
509.03	0.00
509.20	65.54
509.38	7.02
509.55	102.98
509.73	46.81
509.90	46.81
510.08	30.43
510.25	58.51
510.42	23.41
510.60	77.24
510.77	72.56
510.95	51.49
511.12	135.75
511.30	79.58
511.47	14.04
511.64	51.49
511.82	28.09
511.99	95.96
512.17	56.17
512.34	30.43
512.51	16.38
512.69	49.15
512.86	56.17
513.04	0.00
513.21	56.17
513.38	51.49
513.56	21.06
513.73	126.39
513.90	23.41
514.08	14.04
514.25	67.88
514.43	72.56
514.60	39.79
514.77	30.43
514.95	0.00
515.12	25.75
515.29	65.54
515.47	56.17
515.64	0.00
515.81	37.45
515.99	9.36
516.16	42.13
516.33	39.79
516.51	9.36
516.68	72.56
516.85	72.56
517.03	0.00
517.20	81.92
517.37	37.45
517.54	44.47
517.72	42.13
517.89	51.49
518.06	11.70
518.24	42.13
518.41	0.00
518.58	58.51
518.75	25.75
518.93	35.11
519.10	60.85
519.27	37.45
519.45	21.06
519.62	18.72
519.79	63.19
519.96	0.00
520.14	18.72
520.31	39.79
520.48	30.43
520.65	0.00
520.83	88.94
521.00	58.51
521.17	35.11
521.34	0.00
521.52	67.88
521.69	42.13
521.86	49.15
522.03	4.68
522.20	28.09
522.38	77.24
522.55	53.83
522.72	0.00
522.89	4.68
523.07	23.41
523.24	0.00
523.41	0.00
523.58	65.54
523.75	126.39
523.92	0.00
524.10	2.34
524.27	25.75
524.44	49.15
524.61	42.13
524.78	56.17
524.96	44.47
525.13	84.26
525.30	65.54
525.47	9.36
525.64	63.19
525.81	16.38
525.98	46.81
526.16	70.22
526.33	79.58
526.50	0.00
526.67	0.00
526.84	23.41
527.01	0.00
527.18	77.24
527.36	56.17
527.53	0.00
527.70	0.00
527.87	14.04
528.04	46.81
528.21	67.88
528.38	56.17
528.55	53.83
528.72	4.68
528.89	98.30
529.07	49.15
529.24	37.45
529.41	63.19
529.58	0.00
529.75	42.13
529.92	28.09
530.09	42.13
530.26	35.11
530.43	9.36
530.60	0.00
530.77	88.94
530.94	44.47
531.11	44.47
531.28	0.00
531.46	2.34
531.63	0.00
531.80	28.09
531.97	72.56
532.14	74.90
532.31	44.47
532.48	124.05
532.65	79.58
532.82	119.37
532.99	39.79
533.16	51.49
533.33	53.83
533.50	58.51
533.67	44.47
533.84	42.13
534.01	72.56
534.18	56.17
534.35	74.90
534.52	79.58
534.69	4.68
534.86	23.41
535.03	121.71
535.20	60.85
535.37	72.56
535.54	46.81
535.71	110.01
535.88	51.49
536.05	63.19
536.22	110.01
536.38	88.94
536.55	28.09
536.72	28.09
536.89	0.00
537.06	21.06
537.23	72.56
537.40	0.00
537.57	28.09
537.74	25.75
537.91	91.28
538.08	63.19
538.25	11.70
538.42	37.45
538.59	60.85
538.75	63.19
538.92	0.00
539.09	44.47
539.26	21.06
539.43	100.64
539.60	51.49
539.77	7.02
539.94	63.19
540.11	0.00
540.28	81.92
540.44	110.01
540.61	74.90
540.78	51.49
540.95	0.00
541.12	56.17
541.29	70.22
541.46	11.70
541.62	65.54
541.79	0.00
541.96	39.79
542.13	105.32
542.30	9.36
542.47	0.00
542.63	105.32
542.80	23.41
542.97	37.45
543.14	107.66
543.31	98.30
543.48	42.13
543.64	11.70
543.81	18.72
543.98	16.38
544.15	86.60
544.32	14.04
544.48	39.79
544.65	0.00
544.82	102.98
544.99	65.54
545.16	0.00
545.32	37.45
545.49	74.90
545.66	58.51
545.83	23.41
546.00	21.06
546.16	56.17
546.33	37.45
546.50	11.70
546.67	70.22
546.83	74.90
547.00	44.47
547.17	42.13
547.34	67.88
547.50	70.22
547.67	21.06
547.84	18.72
548.00	7.02
548.17	14.04
548.34	11.70
548.51	0.00
548.67	23.41
548.84	42.13
549.01	60.85
549.18	46.81
549.34	0.00
549.51	21.06
549.68	44.47
549.84	63.19
550.01	51.49
550.18	0.00
550.34	49.15
550.51	110.01
550.68	102.98
550.84	32.77
551.01	65.54
551.18	114.69
551.34	72.56
551.51	46.81
551.68	0.00
551.84	49.15
552.01	0.00
552.18	11.70
552.34	28.09
552.51	70.22
552.68	35.11
552.84	102.98
553.01	44.47
553.18	44.47
553.34	84.26
553.51	9.36
553.67	23.41
553.84	0.00
554.01	42.13
554.17	2.34
554.34	25.75
554.51	0.00
554.67	25.75
554.84	49.15
555.00	35.11
555.17	0.00
555.33	18.72
555.50	25.75
555.67	0.00
555.83	16.38
556.00	28.09
556.16	42.13
556.33	102.98
556.50	7.02
556.66	42.13
556.83	11.70
556.99	67.88
557.16	63.19
557.32	4.68
557.49	60.85
557.65	37.45
557.82	0.00
557.98	121.71
558.15	28.09
558.32	60.85
558.48	25.75
558.65	9.36
558.81	98.30
558.98	0.00
559.14	60.85
559.31	0.00
559.47	37.45
559.64	44.47
559.80	44.47
559.97	18.72
560.13	39.79
560.30	0.00
560.46	16.38
560.63	42.13
560.79	51.49
560.96	0.00
561.12	32.77
561.29	58.51
561.45	0.00
561.61	39.79
561.78	11.70
561.94	9.36
562.11	9.36
562.27	72.56
562.44	51.49
562.60	30.43
562.77	88.94
562.93	79.58
563.10	84.26
563.26	9.36
563.42	30.43
563.59	4.68
563.75	91.28
563.92	70.22
564.08	23.41
564.24	44.47
564.41	98.30
564.57	42.13
564.74	0.00
564.90	0.00
565.07	56.17
565.23	42.13
565.39	105.32
565.56	58.51
565.72	126.39
565.88	72.56
566.05	0.00
566.21	2.34
566.38	110.01
566.54	58.51
566.70	42.13
566.87	0.00
567.03	53.83
567.19	51.49
567.36	86.60
567.52	16.38
567.68	4.68
567.85	23.41
568.01	0.00
568.17	14.04
568.34	49.15
568.50	18.72
568.66	28.09
568.83	56.17
568.99	93.62
569.15	42.13
569.32	0.00
569.48	23.41
569.64	18.72
569.81	0.00
569.97	58.51
570.13	4.68
570.30	4.68
570.46	11.70
570.62	74.90
570.78	58.51
570.95	21.06
571.11	32.77
571.27	53.83
571.43	114.69
571.60	63.19
571.76	53.83
571.92	46.81
572.09	67.88
572.25	0.00
572.41	30.43
572.57	0.00
572.74	63.19
572.90	58.51
573.06	79.58
573.22	0.00
573.38	67.88
573.55	60.85
573.71	0.00
573.87	0.00
574.03	0.00
574.20	28.09
574.36	0.00
574.52	25.75
574.68	21.06
574.84	63.19
575.01	67.88
575.17	32.77
575.33	0.00
575.49	44.47
575.65	23.41
575.82	42.13
575.98	63.19
576.14	74.90
576.30	23.41
576.46	0.00
576.62	84.26
576.79	32.77
576.95	51.49
577.11	67.88
577.27	44.47
577.43	4.68
577.59	60.85
577.75	65.54
577.92	67.88
578.08	51.49
578.24	14.04
578.40	4.68
578.56	7.02
578.72	23.41
578.88	0.00
579.04	28.09
579.21	39.79
579.37	25.75
579.53	70.22
579.69	74.90
579.85	35.11
580.01	39.79
580.17	60.85
580.33	37.45
580.49	16.38
580.65	35.11
580.82	18.72
580.98	0.00
581.14	0.00
581.30	44.47
581.46	119.37
581.62	51.49
581.78	72.56
581.94	37.45
582.10	46.81
582.26	42.13
582.42	28.09
582.58	2.34
582.74	4.68
582.90	7.02
583.06	67.88
583.22	72.56
583.38	44.47
583.54	30.43
583.70	72.56
583.86	46.81
584.02	0.00
584.18	14.04
584.34	30.43
584.50	138.09
584.66	299.59
584.82	671.73
584.98	933.87
585.14	732.59
585.30	477.47
585.46	278.52
585.62	215.33
585.78	161.50
585.94	23.41
586.10	0.00
586.26	77.24
586.42	18.72
586.58	0.00
586.74	9.36
586.90	100.64
587.06	91.28
587.22	51.49
587.38	110.01
587.54	51.49
587.70	86.60
587.86	100.64
588.02	100.64
588.18	72.56
588.34	77.24
588.49	0.00
588.65	25.75
588.81	28.09
588.97	25.75
589.13	0.00
589.29	70.22
589.45	16.38
589.61	79.58
589.77	72.56
589.93	65.54
590.08	74.90
590.24	49.15
590.40	14.04
590.56	32.77
590.72	70.22
590.88	44.47
591.04	7.02
591.20	81.92
591.35	93.62
591.51	88.94
591.67	46.81
591.83	14.04
591.99	32.77
592.15	21.06
592.31	51.49
592.46	60.85
592.62	23.41
592.78	0.00
592.94	14.04
593.10	84.26
593.26	46.81
593.41	18.72
593.57	49.15
593.73	95.96
593.89	65.54
594.05	86.60
594.20	187.24
594.36	156.82
594.52	100.64
594.68	135.75
594.84	98.30
594.99	70.22
595.15	49.15
595.31	16.38
595.47	67.88
595.62	79.58
595.78	51.49
595.94	58.51
596.10	67.88
596.25	9.36
596.41	65.54
596.57	32.77
596.73	51.49
596.88	74.90
597.04	30.43
597.20	49.15
597.36	128.73
597.51	56.17
597.67	60.85
597.83	0.00
597.99	23.41
598.14	0.00
598.30	93.62
598.46	21.06
598.61	14.04
598.77	65.54
598.93	81.92
599.09	9.36
599.24	58.51
599.40	63.19
599.56	2.34
599.71	4.68
599.87	49.15
600.03	32.77
600.18	72.56
600.34	102.98
600.50	16.38
600.65	11.70
600.81	35.11
600.97	14.04
601.12	56.17
601.28	0.00
601.44	121.71
601.59	32.77
601.75	16.38
601.91	18.72
602.06	42.13
602.22	37.45
602.37	44.47
602.53	42.13
602.69	98.30
602.84	60.85
603.00	21.06
603.16	9.36
603.31	44.47
603.47	93.62
603.62	0.00
603.78	121.71
603.94	58.51
604.09	79.58
604.25	39.79
604.40	7.02
604.56	16.38
604.71	86.60
604.87	0.00
605.03	9.36
605.18	42.13
605.34	53.83
605.49	0.00
605.65	0.00
605.80	105.32
605.96	0.00
606.12	35.11
606.27	53.83
606.43	18.72
606.58	23.41
606.74	53.83
606.89	98.30
607.05	88.94
607.20	100.64
607.36	124.05
607.51	25.75
607.67	77.24
607.82	86.60
607.98	100.64
608.13	4.68
608.29	53.83
608.44	51.49
608.60	0.00
608.75	0.00
608.91	25.75
609.06	58.51
609.22	177.88
609.37	91.28
609.53	168.52
609.68	126.39
609.84	105.32
609.99	119.37
610.15	88.94
610.30	98.30
610.46	21.06
610.61	14.04
610.76	79.58
610.92	21.06
611.07	16.38
611.23	9.36
611.38	11.70
611.54	49.15
611.69	44.47
611.84	105.32
612.00	72.56
612.15	9.36
612.31	91.28
612.46	42.13
612.62	46.81
612.77	63.19
612.92	63.19
613.08	0.00
613.23	44.47
613.39	2.34
613.54	42.13
613.69	131.07
613.85	177.88
614.00	301.93
614.15	334.70
614.31	220.01
614.46	166.18
614.62	93.62
614.77	93.62
614.92	67.88
615.08	79.58
615.23	4.68
615.38	51.49
615.54	84.26
615.69	91.28
615.84	28.09
616.00	72.56
616.15	135.75
616.30	49.15
616.46	84.26
616.61	119.37
616.76	42.13
616.92	28.09
617.07	2.34
617.22	51.49
617.37	100.64
617.53	32.77
617.68	79.58
617.83	93.62
617.99	9.36
618.14	14.04
618.29	0.00
618.45	53.83
618.60	60.85
618.75	0.00
618.90	0.00
619.06	37.45
619.21	65.54
619.36	135.75
619.51	46.81
619.67	21.06
619.82	32.77
619.97	16.38
620.12	95.96
620.28	14.04
620.43	0.00
620.58	44.47
620.73	35.11
620.89	28.09
621.04	0.00
621.19	4.68
621.34	70.22
621.49	46.81
621.65	84.26
621.80	23.41
621.95	133.41
622.10	58.51
622.25	60.85
622.41	49.15
622.56	11.70
622.71	9.36
622.86	0.00
623.01	9.36
623.16	44.47
623.32	23.41
623.47	37.45
623.62	30.43
623.77	42.13
623.92	16.38
624.07	18.72
624.23	0.00
624.38	35.11
624.53	81.92
624.68	7.02
624.83	70.22
624.98	70.22
625.13	56.17
625.29	79.58
625.44	72.56
625.59	23.41
625.74	65.54
625.89	44.47
626.04	58.51
626.19	203.63
626.34	84.26
626.49	229.37
626.65	159.16
626.80	140.43
626.95	81.92
627.10	46.81
627.25	0.00
627.40	35.11
627.55	44.47
627.70	67.88
627.85	39.79
628.00	44.47
628.15	46.81
628.30	4.68
628.45	0.00
628.60	2.34
628.76	0.00
628.91	93.62
629.06	11.70
629.21	35.11
629.36	9.36
629.51	56.17
629.66	37.45
629.81	84.26
629.96	65.54
630.11	65.54
630.26	117.03
630.41	35.11
630.56	72.56
630.71	42.13
630.86	88.94
631.01	49.15
631.16	77.24
631.31	102.98
631.46	51.49
631.61	42.13
631.76	2.34
631.91	37.45
632.06	39.79
632.21	30.43
632.36	0.00
632.51	0.00
632.66	58.51
632.81	14.04
632.96	93.62
633.10	135.75
633.25	119.37
633.40	126.39
633.55	91.28
633.70	46.81
633.85	79.58
634.00	25.75
634.15	67.88
634.30	35.11
634.45	42.13
634.60	32.77
634.75	32.77
634.90	0.00
635.05	65.54
635.19	56.17
635.34	79.58
635.49	51.49
635.64	49.15
635.79	30.43
635.94	32.77
636.09	2.34
636.24	60.85
636.39	77.24
636.53	93.62
636.68	4.68
636.83	53.83
636.98	58.51
637.13	77.24
637.28	79.58
637.43	23.41
637.57	23.41
637.72	119.37
637.87	170.86
638.02	166.18
638.17	280.86
638.32	156.82
638.46	175.54
638.61	142.77
638.76	63.19
638.91	0.00
639.06	23.41
639.20	32.77
639.35	23.41
639.50	72.56
639.65	49.15
639.80	217.67
639.94	252.78
640.09	318.31
640.24	294.91
640.39	168.52
640.54	119.37
640.68	28.09
640.83	91.28
640.98	65.54
641.13	56.17
641.27	4.68
641.42	21.06
641.57	14.04
641.72	21.06
641.86	44.47
642.01	0.00
642.16	14.04
642.31	14.04
642.45	23.41
642.60	84.26
642.75	81.92
642.90	18.72
643.04	88.94
643.19	2.34
643.34	35.11
643.48	2.34
643.63	16.38
643.78	0.00
643.93	18.72
644.07	35.11
644.22	91.28
644.37	0.00
644.51	107.66
644.66	58.51
644.81	49.15
644.95	86.60
645.10	9.36
645.25	56.17
645.39	14.04
645.54	30.43
645.69	30.43
645.83	39.79
645.98	9.36
646.13	0.00
646.27	91.28
646.42	0.00
646.57	56.17
646.71	44.47
646.86	23.41
647.00	37.45
647.15	21.06
647.30	0.00
647.44	28.09
647.59	49.15
647.74	60.85
647.88	72.56
648.03	56.17
648.17	102.98
648.32	91.28
648.47	0.00
648.61	2.34
648.76	32.77
648.90	74.90
649.05	53.83
649.20	16.38
649.34	0.00
649.49	102.98
649.63	16.38
649.78	37.45
649.92	25.75
650.07	60.85
650.21	112.35
650.36	166.18
650.51	170.86
650.65	170.86
650.80	124.05
650.94	131.07
651.09	74.90
651.23	0.00
651.38	0.00
651.52	28.09
651.67	39.79
651.81	60.85
651.96	0.00
652.10	0.00
652.25	2.34
652.39	49.15
652.54	32.77
652.68	21.06
652.83	77.24
652.97	128.73
653.12	117.03
653.26	32.77
653.41	72.56
653.55	72.56
653.70	0.00
653.84	30.43
653.99	0.00
654.13	0.00
654.27	28.09
654.42	37.45
654.56	60.85
654.71	14.04
654.85	72.56
655.00	42.13
655.14	49.15
655.29	0.00
655.43	30.43
655.57	37.45
655.72	65.54
655.86	51.49
656.01	32.77
656.15	53.83
656.30	37.45
656.44	0.00
656.58	84.26
656.73	44.47
656.87	44.47
657.01	0.00
657.16	44.47
657.30	28.09
657.45	16.38
657.59	11.70
657.73	30.43
657.88	86.60
658.02	51.49
658.16	25.75
658.31	9.36
658.45	79.58
658.60	25.75
658.74	37.45
658.88	28.09
659.03	46.81
659.17	100.64
659.31	79.58
659.46	30.43
659.60	86.60
659.74	191.92
659.89	156.82
660.03	91.28
660.17	88.94
660.32	56.17
660.46	0.00
660.60	0.00
660.74	28.09
660.89	25.75
661.03	37.45
661.17	9.36
661.32	0.00
661.46	0.00
661.60	0.00
661.74	0.00
661.89	4.68
662.03	0.00
662.17	65.54
662.31	88.94
662.46	53.83
662.60	23.41
662.74	49.15
662.88	49.15
663.03	28.09
663.17	56.17
663.31	67.88
663.45	42.13
663.60	60.85
663.74	23.41
663.88	18.72
664.02	49.15
664.17	11.70
664.31	0.00
664.45	21.06
664.59	46.81
664.73	63.19
664.88	28.09
665.02	0.00
665.16	7.02
665.30	42.13
665.44	60.85
665.59	46.81
665.73	58.51
665.87	9.36
666.01	0.00
666.15	2.34
666.29	0.00
666.44	18.72
666.58	51.49
666.72	51.49
666.86	30.43
667.00	49.15
667.14	37.45
667.28	7.02
667.43	49.15
667.57	133.41
667.71	187.24
667.85	114.69
667.99	124.05
668.13	67.88
668.27	44.47
668.41	18.72
668.56	49.15
668.70	63.19
668.84	25.75
668.98	65.54
669.12	18.72
669.26	4.68
669.40	39.79
669.54	67.88
669.68	70.22
669.82	28.09
669.96	23.41
670.10	67.88
670.25	0.00
670.39	37.45
670.53	58.51
670.67	39.79
670.81	32.77
670.95	44.47
671.09	0.00
671.23	74.90
671.37	84.26
671.51	149.79
671.65	53.83
671.79	84.26
671.93	102.98
672.07	105.32
672.21	21.06
672.35	2.34
672.49	25.75
672.63	51.49
672.77	44.47
672.91	44.47
673.05	28.09
673.19	16.38
673.33	58.51
673.47	2.34
673.61	0.00
673.75	42.13
673.89	74.90
674.03	37.45
674.17	0.00
674.31	23.41
674.45	23.41
674.59	67.88
674.73	28.09
674.87	28.09
675.01	37.45
675.15	2.34
675.29	74.90
675.43	60.85
675.56	0.00
675.70	9.36
675.84	79.58
675.98	21.06
676.12	63.19
676.26	0.00
676.40	60.85
676.54	0.00
676.68	0.00
676.82	51.49
676.96	28.09
677.10	0.00
677.23	0.00
677.37	53.83
677.51	4.68
677.65	53.83
677.79	72.56
677.93	72.56
678.07	42.13
678.21	60.85
678.34	2.34
678.48	37.45
678.62	0.00
678.76	18.72
678.90	16.38
679.04	84.26
679.18	74.90
679.31	84.26
679.45	42.13
679.59	28.09
679.73	2.34
679.87	0.00
680.00	0.00
680.14	39.79
680.28	0.00
680.42	56.17
680.56	2.34
680.70	0.00
680.83	30.43
680.97	42.13
681.11	39.79
681.25	88.94
681.39	9.36
681.52	81.92
681.66	70.22
681.80	32.77
681.94	46.81
682.07	37.45
682.21	0.00
682.35	0.00
682.49	0.00
682.62	14.04
682.76	30.43
682.90	49.15
683.04	32.77
683.17	0.00
683.31	56.17
683.45	58.51
683.59	49.15
683.72	0.00
683.86	46.81
684.00	0.00
684.13	46.81
684.27	35.11
684.41	42.13
684.55	18.72
684.68	0.00
684.82	58.51
684.96	44.47
685.09	42.13
685.23	18.72
685.37	4.68
685.50	53.83
685.64	56.17
685.78	25.75
685.91	0.00
686.05	0.00
686.19	128.73
686.32	2.34
686.46	63.19
686.60	14.04
686.73	0.00
686.87	32.77
687.01	100.64
687.14	0.00
687.28	39.79
687.42	18.72
687.55	30.43
687.69	18.72
687.82	84.26
687.96	0.00
688.10	77.24
688.23	28.09
688.37	30.43
688.50	0.00
688.64	9.36
688.78	14.04
688.91	77.24
689.05	63.19
689.18	49.15
689.32	21.06
689.46	0.00
689.59	0.00
689.73	79.58
689.86	35.11
690.00	23.41
690.13	84.26
690.27	0.00
690.41	23.41
690.54	42.13
690.68	37.45
690.81	23.41
690.95	2.34
691.08	0.00
691.22	39.79
691.35	84.26
691.49	30.43
691.62	14.04
691.76	7.02
691.89	30.43
692.03	60.85
692.16	46.81
692.30	0.00
692.43	46.81
692.57	86.60
692.70	74.90
692.84	44.47
692.97	58.51
693.11	112.35
693.24	25.75
693.38	86.60
693.51	0.00
693.65	0.00
693.78	11.70
693.92	0.00
694.05	9.36
694.19	42.13
694.32	25.75
694.45	56.17
694.59	0.00
694.72	28.09
694.86	30.43
694.99	9.36
695.13	81.92
695.26	44.47
695.39	23.41
695.53	49.15
695.66	0.00
695.80	53.83
695.93	46.81
696.07	58.51
696.20	0.00
696.33	91.28
696.47	28.09
696.60	0.00
696.73	58.51
696.87	102.98
697.00	0.00
697.14	84.26
697.27	58.51
697.40	16.38
697.54	0.00
697.67	74.90
697.80	25.75
697.94	0.00
698.07	58.51
698.21	72.56
698.34	37.45
698.47	23.41
698.61	4.68
698.74	11.70
698.87	44.47
699.01	65.54
699.14	30.43
699.27	25.75
699.40	35.11
699.54	98.30
699.67	37.45
699.80	49.15
699.94	53.83
700.07	18.72
700.20	25.75
700.34	7.02
700.47	0.00
700.60	14.04
700.73	0.00
700.87	86.60
701.00	63.19
701.13	16.38
701.26	77.24
701.40	39.79
701.53	0.00
701.66	86.60
701.79	18.72
701.93	77.24
702.06	0.00
702.19	7.02
702.32	25.75
702.46	67.88
702.59	25.75
702.72	7.02
702.85	67.88
702.99	49.15
703.12	70.22
703.25	138.09
703.38	131.07
703.51	173.20
703.65	44.47
703.78	67.88
703.91	42.13
704.04	53.83
704.17	14.04
704.31	11.70
704.44	0.00
704.57	4.68
704.70	65.54
704.83	0.00
704.96	9.36
705.10	37.45
705.23	88.94
>>>>>End Processed Spectral Data<<<<<
