SpectraSuite Data File
++++++++++++++++++++++++++++++++++++
Date: Fri Oct 04 12:13:32 GMT-05:00 2013
User: price-jones
Dark Spectrum Present: No
Reference Spectrum Present: No
Number of Sampled Component Spectra: 1
Spectrometers: USB2+H05261
Integration Time (usec): 10000 (USB2+H05261)
Spectra Averaged: 1 (USB2+H05261)
Boxcar Smoothing: 0 (USB2+H05261)
Correct for Electrical Dark: No (USB2+H05261)
Strobe/Lamp Enabled: No (USB2+H05261)
Correct for Detector Non-linearity: No (USB2+H05261)
Correct for Stray Light: No (USB2+H05261)
Number of Pixels in Processed Spectrum: 2048
>>>>>Begin Processed Spectral Data<<<<<
365.73	0.00
365.92	0.00
366.12	0.00
366.32	0.00
366.52	0.00
366.72	0.00
366.91	0.00
367.11	0.00
367.31	0.00
367.51	0.00
367.70	0.00
367.90	0.00
368.10	0.00
368.30	0.00
368.49	0.00
368.69	0.00
368.89	0.00
369.09	0.00
369.28	0.00
369.48	0.00
369.68	0.00
369.87	0.00
370.07	0.00
370.27	0.00
370.47	0.00
370.66	0.00
370.86	0.00
371.06	0.00
371.25	28.09
371.45	0.00
371.65	14.04
371.84	0.00
372.04	25.75
372.24	39.79
372.44	44.47
372.63	14.04
372.83	46.81
373.03	0.00
373.22	42.13
373.42	28.09
373.62	0.00
373.81	0.00
374.01	11.70
374.21	18.72
374.40	23.41
374.60	88.94
374.79	4.68
374.99	2.34
375.19	51.49
375.38	35.11
375.58	18.72
375.78	88.94
375.97	67.88
376.17	86.60
376.37	2.34
376.56	7.02
376.76	2.34
376.95	0.00
377.15	72.56
377.35	60.85
377.54	46.81
377.74	37.45
377.93	0.00
378.13	0.00
378.33	44.47
378.52	25.75
378.72	16.38
378.91	0.00
379.11	0.00
379.31	0.00
379.50	46.81
379.70	11.70
379.89	102.98
380.09	25.75
380.28	42.13
380.48	0.00
380.68	0.00
380.87	0.00
381.07	67.88
381.26	42.13
381.46	0.00
381.65	0.00
381.85	53.83
382.04	21.06
382.24	32.77
382.43	0.00
382.63	0.00
382.83	0.00
383.02	0.00
383.22	0.00
383.41	44.47
383.61	14.04
383.80	49.15
384.00	21.06
384.19	0.00
384.39	32.77
384.58	65.54
384.78	42.13
384.97	0.00
385.17	37.45
385.36	0.00
385.56	0.00
385.75	9.36
385.95	77.24
386.14	28.09
386.34	39.79
386.53	16.38
386.72	9.36
386.92	23.41
387.11	39.79
387.31	70.22
387.50	4.68
387.70	23.41
387.89	0.00
388.09	0.00
388.28	0.00
388.48	79.58
388.67	4.68
388.86	58.51
389.06	72.56
389.25	23.41
389.45	0.00
389.64	60.85
389.84	0.00
390.03	28.09
390.22	0.00
390.42	0.00
390.61	28.09
390.81	44.47
391.00	28.09
391.19	25.75
391.39	0.00
391.58	0.00
391.78	44.47
391.97	0.00
392.16	0.00
392.36	14.04
392.55	42.13
392.75	23.41
392.94	2.34
393.13	0.00
393.33	0.00
393.52	11.70
393.71	65.54
393.91	42.13
394.10	9.36
394.29	60.85
394.49	37.45
394.68	16.38
394.88	0.00
395.07	7.02
395.26	0.00
395.46	2.34
395.65	0.00
395.84	23.41
396.04	42.13
396.23	0.00
396.42	23.41
396.62	21.06
396.81	0.00
397.00	100.64
397.19	28.09
397.39	21.06
397.58	23.41
397.77	0.00
397.97	32.77
398.16	53.83
398.35	0.00
398.55	0.00
398.74	0.00
398.93	81.92
399.12	74.90
399.32	0.00
399.51	81.92
399.70	88.94
399.90	0.00
400.09	56.17
400.28	0.00
400.47	49.15
400.67	49.15
400.86	21.06
401.05	7.02
401.24	7.02
401.44	63.19
401.63	0.00
401.82	7.02
402.01	16.38
402.21	25.75
402.40	18.72
402.59	98.30
402.78	0.00
402.97	9.36
403.17	84.26
403.36	58.51
403.55	30.43
403.74	42.13
403.93	51.49
404.13	30.43
404.32	7.02
404.51	51.49
404.70	37.45
404.89	4.68
405.09	23.41
405.28	35.11
405.47	39.79
405.66	42.13
405.85	0.00
406.05	70.22
406.24	9.36
406.43	51.49
406.62	0.00
406.81	46.81
407.00	35.11
407.20	51.49
407.39	11.70
407.58	65.54
407.77	91.28
407.96	112.35
408.15	30.43
408.34	88.94
408.54	49.15
408.73	37.45
408.92	70.22
409.11	37.45
409.30	0.00
409.49	0.00
409.68	65.54
409.87	60.85
410.07	0.00
410.26	37.45
410.45	72.56
410.64	9.36
410.83	0.00
411.02	46.81
411.21	7.02
411.40	39.79
411.59	74.90
411.78	21.06
411.98	35.11
412.17	44.47
412.36	67.88
412.55	60.85
412.74	77.24
412.93	2.34
413.12	81.92
413.31	56.17
413.50	58.51
413.69	14.04
413.88	4.68
414.07	0.00
414.26	4.68
414.45	51.49
414.64	0.00
414.83	32.77
415.02	28.09
415.22	14.04
415.41	39.79
415.60	32.77
415.79	21.06
415.98	0.00
416.17	0.00
416.36	56.17
416.55	42.13
416.74	49.15
416.93	18.72
417.12	49.15
417.31	77.24
417.50	65.54
417.69	0.00
417.88	0.00
418.07	88.94
418.26	16.38
418.45	0.00
418.64	14.04
418.83	44.47
419.02	53.83
419.21	58.51
419.39	42.13
419.58	11.70
419.77	81.92
419.96	77.24
420.15	112.35
420.34	49.15
420.53	0.00
420.72	0.00
420.91	63.19
421.10	86.60
421.29	28.09
421.48	39.79
421.67	67.88
421.86	37.45
422.05	86.60
422.24	39.79
422.43	0.00
422.61	39.79
422.80	18.72
422.99	42.13
423.18	37.45
423.37	21.06
423.56	21.06
423.75	0.00
423.94	63.19
424.13	23.41
424.32	51.49
424.50	16.38
424.69	46.81
424.88	0.00
425.07	32.77
425.26	42.13
425.45	70.22
425.64	49.15
425.83	21.06
426.01	0.00
426.20	30.43
426.39	0.00
426.58	16.38
426.77	32.77
426.96	0.00
427.15	0.00
427.33	35.11
427.52	4.68
427.71	70.22
427.90	56.17
428.09	49.15
428.28	0.00
428.46	35.11
428.65	7.02
428.84	39.79
429.03	39.79
429.22	0.00
429.40	74.90
429.59	91.28
429.78	70.22
429.97	51.49
430.16	25.75
430.34	37.45
430.53	58.51
430.72	23.41
430.91	0.00
431.10	44.47
431.28	70.22
431.47	11.70
431.66	81.92
431.85	44.47
432.03	0.00
432.22	53.83
432.41	37.45
432.60	0.00
432.79	21.06
432.97	84.26
433.16	28.09
433.35	72.56
433.54	0.00
433.72	16.38
433.91	100.64
434.10	72.56
434.28	0.00
434.47	39.79
434.66	42.13
434.85	46.81
435.03	53.83
435.22	11.70
435.41	23.41
435.59	18.72
435.78	0.00
435.97	70.22
436.16	0.00
436.34	65.54
436.53	107.66
436.72	0.00
436.90	35.11
437.09	0.00
437.28	2.34
437.46	46.81
437.65	81.92
437.84	51.49
438.02	23.41
438.21	102.98
438.40	21.06
438.58	91.28
438.77	23.41
438.96	9.36
439.14	0.00
439.33	0.00
439.52	0.00
439.70	0.00
439.89	9.36
440.08	58.51
440.26	39.79
440.45	49.15
440.63	56.17
440.82	23.41
441.01	39.79
441.19	7.02
441.38	0.00
441.57	58.51
441.75	88.94
441.94	63.19
442.12	42.13
442.31	16.38
442.50	79.58
442.68	0.00
442.87	60.85
443.05	18.72
443.24	0.00
443.43	4.68
443.61	7.02
443.80	35.11
443.98	72.56
444.17	63.19
444.35	35.11
444.54	0.00
444.73	79.58
444.91	79.58
445.10	32.77
445.28	18.72
445.47	124.05
445.65	9.36
445.84	46.81
446.02	77.24
446.21	77.24
446.39	37.45
446.58	16.38
446.77	0.00
446.95	32.77
447.14	23.41
447.32	63.19
447.51	65.54
447.69	28.09
447.88	35.11
448.06	0.00
448.25	16.38
448.43	84.26
448.62	44.47
448.80	46.81
448.99	0.00
449.17	32.77
449.36	44.47
449.54	63.19
449.73	0.00
449.91	95.96
450.10	105.32
450.28	32.77
450.46	21.06
450.65	44.47
450.83	23.41
451.02	21.06
451.20	0.00
451.39	0.00
451.57	0.00
451.76	18.72
451.94	44.47
452.13	0.00
452.31	42.13
452.49	9.36
452.68	16.38
452.86	25.75
453.05	58.51
453.23	30.43
453.42	39.79
453.60	51.49
453.78	23.41
453.97	28.09
454.15	105.32
454.34	77.24
454.52	0.00
454.70	0.00
454.89	49.15
455.07	23.41
455.26	42.13
455.44	93.62
455.62	37.45
455.81	9.36
455.99	77.24
456.17	35.11
456.36	21.06
456.54	72.56
456.73	46.81
456.91	32.77
457.09	79.58
457.28	2.34
457.46	7.02
457.64	0.00
457.83	16.38
458.01	16.38
458.19	42.13
458.38	16.38
458.56	7.02
458.74	0.00
458.93	23.41
459.11	0.00
459.29	35.11
459.48	18.72
459.66	0.00
459.84	79.58
460.03	21.06
460.21	58.51
460.39	81.92
460.57	11.70
460.76	58.51
460.94	35.11
461.12	0.00
461.31	0.00
461.49	16.38
461.67	56.17
461.85	0.00
462.04	58.51
462.22	138.09
462.40	21.06
462.59	0.00
462.77	49.15
462.95	35.11
463.13	37.45
463.32	51.49
463.50	11.70
463.68	37.45
463.86	23.41
464.05	25.75
464.23	60.85
464.41	42.13
464.59	44.47
464.78	70.22
464.96	105.32
465.14	51.49
465.32	11.70
465.50	56.17
465.69	51.49
465.87	53.83
466.05	60.85
466.23	0.00
466.41	18.72
466.60	35.11
466.78	7.02
466.96	28.09
467.14	79.58
467.32	46.81
467.51	60.85
467.69	32.77
467.87	7.02
468.05	46.81
468.23	107.66
468.41	53.83
468.60	18.72
468.78	30.43
468.96	65.54
469.14	18.72
469.32	0.00
469.50	16.38
469.69	56.17
469.87	0.00
470.05	37.45
470.23	37.45
470.41	44.47
470.59	0.00
470.77	110.01
470.95	44.47
471.14	4.68
471.32	32.77
471.50	0.00
471.68	42.13
471.86	30.43
472.04	39.79
472.22	93.62
472.40	95.96
472.58	16.38
472.77	0.00
472.95	0.00
473.13	53.83
473.31	44.47
473.49	7.02
473.67	0.00
473.85	37.45
474.03	28.09
474.21	11.70
474.39	28.09
474.57	44.47
474.75	67.88
474.93	126.39
475.12	4.68
475.30	23.41
475.48	49.15
475.66	7.02
475.84	88.94
476.02	14.04
476.20	84.26
476.38	39.79
476.56	58.51
476.74	60.85
476.92	93.62
477.10	65.54
477.28	30.43
477.46	0.00
477.64	30.43
477.82	65.54
478.00	46.81
478.18	51.49
478.36	25.75
478.54	58.51
478.72	56.17
478.90	30.43
479.08	0.00
479.26	72.56
479.44	70.22
479.62	102.98
479.80	63.19
479.98	0.00
480.16	25.75
480.34	35.11
480.52	88.94
480.70	0.00
480.88	30.43
481.06	11.70
481.24	7.02
481.41	74.90
481.59	28.09
481.77	0.00
481.95	14.04
482.13	72.56
482.31	32.77
482.49	11.70
482.67	0.00
482.85	77.24
483.03	28.09
483.21	30.43
483.39	25.75
483.57	128.73
483.74	0.00
483.92	88.94
484.10	18.72
484.28	77.24
484.46	49.15
484.64	53.83
484.82	25.75
485.00	86.60
485.18	93.62
485.35	74.90
485.53	74.90
485.71	95.96
485.89	56.17
486.07	44.47
486.25	74.90
486.43	42.13
486.61	0.00
486.78	58.51
486.96	30.43
487.14	49.15
487.32	39.79
487.50	95.96
487.68	11.70
487.85	77.24
488.03	102.98
488.21	44.47
488.39	16.38
488.57	156.82
488.75	9.36
488.92	0.00
489.10	11.70
489.28	79.58
489.46	53.83
489.64	110.01
489.81	42.13
489.99	91.28
490.17	49.15
490.35	21.06
490.53	0.00
490.70	0.00
490.88	9.36
491.06	0.00
491.24	37.45
491.41	100.64
491.59	9.36
491.77	39.79
491.95	25.75
492.13	70.22
492.30	30.43
492.48	23.41
492.66	58.51
492.84	4.68
493.01	46.81
493.19	39.79
493.37	114.69
493.54	95.96
493.72	0.00
493.90	4.68
494.08	110.01
494.25	39.79
494.43	16.38
494.61	91.28
494.79	67.88
494.96	32.77
495.14	37.45
495.32	93.62
495.49	49.15
495.67	91.28
495.85	21.06
496.02	30.43
496.20	39.79
496.38	70.22
496.55	67.88
496.73	44.47
496.91	53.83
497.09	84.26
497.26	39.79
497.44	0.00
497.62	105.32
497.79	30.43
497.97	110.01
498.14	39.79
498.32	21.06
498.50	35.11
498.67	74.90
498.85	35.11
499.03	77.24
499.20	35.11
499.38	7.02
499.56	0.00
499.73	0.00
499.91	42.13
500.08	7.02
500.26	0.00
500.44	2.34
500.61	46.81
500.79	128.73
500.97	30.43
501.14	42.13
501.32	86.60
501.49	44.47
501.67	46.81
501.84	30.43
502.02	32.77
502.20	18.72
502.37	4.68
502.55	42.13
502.72	51.49
502.90	0.00
503.07	46.81
503.25	74.90
503.43	44.47
503.60	67.88
503.78	44.47
503.95	93.62
504.13	18.72
504.30	37.45
504.48	86.60
504.65	79.58
504.83	9.36
505.01	58.51
505.18	7.02
505.36	100.64
505.53	74.90
505.71	121.71
505.88	67.88
506.06	0.00
506.23	74.90
506.41	14.04
506.58	28.09
506.76	72.56
506.93	51.49
507.11	0.00
507.28	32.77
507.46	0.00
507.63	49.15
507.81	63.19
507.98	91.28
508.16	74.90
508.33	11.70
508.50	25.75
508.68	14.04
508.85	0.00
509.03	0.00
509.20	72.56
509.38	79.58
509.55	74.90
509.73	44.47
509.90	56.17
510.08	42.13
510.25	63.19
510.42	91.28
510.60	79.58
510.77	98.30
510.95	0.00
511.12	37.45
511.30	25.75
511.47	65.54
511.64	58.51
511.82	58.51
511.99	56.17
512.17	35.11
512.34	105.32
512.51	81.92
512.69	46.81
512.86	35.11
513.04	7.02
513.21	79.58
513.38	25.75
513.56	107.66
513.73	0.00
513.90	32.77
514.08	86.60
514.25	0.00
514.43	0.00
514.60	16.38
514.77	37.45
514.95	0.00
515.12	25.75
515.29	51.49
515.47	37.45
515.64	18.72
515.81	42.13
515.99	70.22
516.16	30.43
516.33	0.00
516.51	65.54
516.68	0.00
516.85	110.01
517.03	70.22
517.20	42.13
517.37	42.13
517.54	58.51
517.72	9.36
517.89	0.00
518.06	67.88
518.24	32.77
518.41	58.51
518.58	56.17
518.75	107.66
518.93	21.06
519.10	70.22
519.27	81.92
519.45	0.00
519.62	70.22
519.79	25.75
519.96	58.51
520.14	39.79
520.31	93.62
520.48	25.75
520.65	44.47
520.83	30.43
521.00	86.60
521.17	84.26
521.34	65.54
521.52	60.85
521.69	0.00
521.86	0.00
522.03	14.04
522.20	56.17
522.38	0.00
522.55	39.79
522.72	72.56
522.89	44.47
523.07	58.51
523.24	11.70
523.41	81.92
523.58	112.35
523.75	21.06
523.92	58.51
524.10	65.54
524.27	107.66
524.44	25.75
524.61	53.83
524.78	18.72
524.96	60.85
525.13	72.56
525.30	114.69
525.47	110.01
525.64	166.18
525.81	70.22
525.98	44.47
526.16	65.54
526.33	58.51
526.50	0.00
526.67	0.00
526.84	65.54
527.01	16.38
527.18	0.00
527.36	21.06
527.53	7.02
527.70	74.90
527.87	35.11
528.04	0.00
528.21	65.54
528.38	53.83
528.55	0.00
528.72	74.90
528.89	67.88
529.07	102.98
529.24	91.28
529.41	72.56
529.58	72.56
529.75	86.60
529.92	49.15
530.09	14.04
530.26	46.81
530.43	58.51
530.60	74.90
530.77	46.81
530.94	4.68
531.11	0.00
531.28	46.81
531.46	46.81
531.63	65.54
531.80	98.30
531.97	77.24
532.14	14.04
532.31	124.05
532.48	28.09
532.65	0.00
532.82	65.54
532.99	18.72
533.16	30.43
533.33	166.18
533.50	88.94
533.67	0.00
533.84	18.72
534.01	81.92
534.18	46.81
534.35	95.96
534.52	0.00
534.69	58.51
534.86	0.00
535.03	51.49
535.20	98.30
535.37	63.19
535.54	152.13
535.71	53.83
535.88	0.00
536.05	107.66
536.22	72.56
536.38	63.19
536.55	32.77
536.72	102.98
536.89	0.00
537.06	93.62
537.23	95.96
537.40	65.54
537.57	46.81
537.74	37.45
537.91	147.45
538.08	49.15
538.25	16.38
538.42	74.90
538.59	21.06
538.75	44.47
538.92	46.81
539.09	63.19
539.26	60.85
539.43	14.04
539.60	4.68
539.77	112.35
539.94	0.00
540.11	39.79
540.28	58.51
540.44	63.19
540.61	72.56
540.78	46.81
540.95	35.11
541.12	32.77
541.29	42.13
541.46	63.19
541.62	30.43
541.79	131.07
541.96	72.56
542.13	58.51
542.30	53.83
542.47	58.51
542.63	77.24
542.80	35.11
542.97	0.00
543.14	35.11
543.31	58.51
543.48	11.70
543.64	86.60
543.81	18.72
543.98	56.17
544.15	56.17
544.32	46.81
544.48	49.15
544.65	25.75
544.82	79.58
544.99	58.51
545.16	53.83
545.32	46.81
545.49	39.79
545.66	23.41
545.83	14.04
546.00	91.28
546.16	42.13
546.33	0.00
546.50	28.09
546.67	44.47
546.83	14.04
547.00	117.03
547.17	23.41
547.34	65.54
547.50	30.43
547.67	95.96
547.84	32.77
548.00	60.85
548.17	0.00
548.34	74.90
548.51	79.58
548.67	70.22
548.84	16.38
549.01	42.13
549.18	93.62
549.34	46.81
549.51	0.00
549.68	0.00
549.84	37.45
550.01	53.83
550.18	74.90
550.34	105.32
550.51	74.90
550.68	9.36
550.84	93.62
551.01	9.36
551.18	39.79
551.34	0.00
551.51	105.32
551.68	42.13
551.84	77.24
552.01	84.26
552.18	65.54
552.34	88.94
552.51	28.09
552.68	44.47
552.84	65.54
553.01	2.34
553.18	0.00
553.34	39.79
553.51	23.41
553.67	37.45
553.84	72.56
554.01	37.45
554.17	98.30
554.34	67.88
554.51	63.19
554.67	39.79
554.84	56.17
555.00	56.17
555.17	14.04
555.33	28.09
555.50	44.47
555.67	4.68
555.83	42.13
556.00	21.06
556.16	74.90
556.33	23.41
556.50	0.00
556.66	91.28
556.83	42.13
556.99	56.17
557.16	105.32
557.32	105.32
557.49	105.32
557.65	79.58
557.82	86.60
557.98	107.66
558.15	84.26
558.32	46.81
558.48	98.30
558.65	56.17
558.81	46.81
558.98	79.58
559.14	11.70
559.31	72.56
559.47	28.09
559.64	7.02
559.80	74.90
559.97	28.09
560.13	119.37
560.30	79.58
560.46	46.81
560.63	95.96
560.79	30.43
560.96	23.41
561.12	0.00
561.29	44.47
561.45	98.30
561.61	95.96
561.78	102.98
561.94	18.72
562.11	23.41
562.27	72.56
562.44	42.13
562.60	0.00
562.77	0.00
562.93	11.70
563.10	56.17
563.26	0.00
563.42	46.81
563.59	65.54
563.75	49.15
563.92	79.58
564.08	39.79
564.24	23.41
564.41	0.00
564.57	86.60
564.74	0.00
564.90	86.60
565.07	37.45
565.23	79.58
565.39	0.00
565.56	28.09
565.72	72.56
565.88	98.30
566.05	4.68
566.21	39.79
566.38	0.00
566.54	46.81
566.70	74.90
566.87	23.41
567.03	65.54
567.19	25.75
567.36	56.17
567.52	67.88
567.68	98.30
567.85	28.09
568.01	28.09
568.17	110.01
568.34	49.15
568.50	0.00
568.66	18.72
568.83	67.88
568.99	7.02
569.15	28.09
569.32	18.72
569.48	42.13
569.64	23.41
569.81	51.49
569.97	0.00
570.13	102.98
570.30	95.96
570.46	46.81
570.62	11.70
570.78	133.41
570.95	67.88
571.11	112.35
571.27	102.98
571.43	30.43
571.60	0.00
571.76	0.00
571.92	124.05
572.09	0.00
572.25	70.22
572.41	67.88
572.57	14.04
572.74	0.00
572.90	28.09
573.06	21.06
573.22	28.09
573.38	79.58
573.55	37.45
573.71	30.43
573.87	72.56
574.03	0.00
574.20	0.00
574.36	4.68
574.52	95.96
574.68	154.48
574.84	0.00
575.01	0.00
575.17	32.77
575.33	21.06
575.49	14.04
575.65	2.34
575.82	16.38
575.98	0.00
576.14	67.88
576.30	67.88
576.46	98.30
576.62	88.94
576.79	39.79
576.95	7.02
577.11	88.94
577.27	21.06
577.43	70.22
577.59	53.83
577.75	4.68
577.92	0.00
578.08	30.43
578.24	14.04
578.40	114.69
578.56	77.24
578.72	60.85
578.88	0.00
579.04	0.00
579.21	25.75
579.37	60.85
579.53	65.54
579.69	58.51
579.85	74.90
580.01	67.88
580.17	110.01
580.33	46.81
580.49	37.45
580.65	112.35
580.82	72.56
580.98	86.60
581.14	46.81
581.30	74.90
581.46	18.72
581.62	91.28
581.78	4.68
581.94	44.47
582.10	88.94
582.26	0.00
582.42	42.13
582.58	112.35
582.74	42.13
582.90	63.19
583.06	42.13
583.22	117.03
583.38	98.30
583.54	30.43
583.70	46.81
583.86	28.09
584.02	0.00
584.18	70.22
584.34	35.11
584.50	100.64
584.66	49.15
584.82	21.06
584.98	74.90
585.14	133.41
585.30	32.77
585.46	49.15
585.62	98.30
585.78	46.81
585.94	37.45
586.10	44.47
586.26	58.51
586.42	25.75
586.58	23.41
586.74	0.00
586.90	88.94
587.06	14.04
587.22	67.88
587.38	7.02
587.54	32.77
587.70	65.54
587.86	42.13
588.02	114.69
588.18	51.49
588.34	42.13
588.49	21.06
588.65	18.72
588.81	74.90
588.97	23.41
589.13	18.72
589.29	72.56
589.45	53.83
589.61	77.24
589.77	60.85
589.93	93.62
590.08	21.06
590.24	63.19
590.40	63.19
590.56	18.72
590.72	49.15
590.88	23.41
591.04	0.00
591.20	100.64
591.35	0.00
591.51	37.45
591.67	49.15
591.83	32.77
591.99	4.68
592.15	44.47
592.31	60.85
592.46	58.51
592.62	58.51
592.78	7.02
592.94	93.62
593.10	49.15
593.26	39.79
593.41	35.11
593.57	56.17
593.73	37.45
593.89	28.09
594.05	145.11
594.20	18.72
594.36	51.49
594.52	0.00
594.68	30.43
594.84	51.49
594.99	74.90
595.15	0.00
595.31	63.19
595.47	95.96
595.62	53.83
595.78	0.00
595.94	70.22
596.10	63.19
596.25	67.88
596.41	65.54
596.57	16.38
596.73	44.47
596.88	0.00
597.04	32.77
597.20	11.70
597.36	91.28
597.51	74.90
597.67	4.68
597.83	0.00
597.99	126.39
598.14	91.28
598.30	0.00
598.46	23.41
598.61	14.04
598.77	56.17
598.93	72.56
599.09	9.36
599.24	88.94
599.40	0.00
599.56	56.17
599.71	72.56
599.87	63.19
600.03	30.43
600.18	25.75
600.34	79.58
600.50	0.00
600.65	65.54
600.81	39.79
600.97	77.24
601.12	65.54
601.28	0.00
601.44	0.00
601.59	60.85
601.75	4.68
601.91	39.79
602.06	63.19
602.22	72.56
602.37	100.64
602.53	102.98
602.69	7.02
602.84	39.79
603.00	91.28
603.16	46.81
603.31	58.51
603.47	30.43
603.62	72.56
603.78	74.90
603.94	51.49
604.09	46.81
604.25	4.68
604.40	4.68
604.56	32.77
604.71	70.22
604.87	21.06
605.03	0.00
605.18	91.28
605.34	128.73
605.49	0.00
605.65	86.60
605.80	21.06
605.96	77.24
606.12	0.00
606.27	42.13
606.43	112.35
606.58	0.00
606.74	49.15
606.89	65.54
607.05	84.26
607.20	30.43
607.36	65.54
607.51	86.60
607.67	2.34
607.82	16.38
607.98	100.64
608.13	39.79
608.29	74.90
608.44	67.88
608.60	63.19
608.75	46.81
608.91	39.79
609.06	11.70
609.22	14.04
609.37	72.56
609.53	28.09
609.68	39.79
609.84	49.15
609.99	67.88
610.15	0.00
610.30	4.68
610.46	0.00
610.61	51.49
610.76	114.69
610.92	114.69
611.07	42.13
611.23	93.62
611.38	42.13
611.54	0.00
611.69	0.00
611.84	79.58
612.00	21.06
612.15	72.56
612.31	72.56
612.46	51.49
612.62	39.79
612.77	0.00
612.92	58.51
613.08	0.00
613.23	0.00
613.39	51.49
613.54	18.72
613.69	51.49
613.85	93.62
614.00	70.22
614.15	51.49
614.31	44.47
614.46	72.56
614.62	77.24
614.77	58.51
614.92	0.00
615.08	16.38
615.23	7.02
615.38	58.51
615.54	86.60
615.69	77.24
615.84	107.66
616.00	79.58
616.15	53.83
616.30	0.00
616.46	51.49
616.61	23.41
616.76	93.62
616.92	2.34
617.07	14.04
617.22	18.72
617.37	0.00
617.53	7.02
617.68	133.41
617.83	0.00
617.99	53.83
618.14	135.75
618.29	32.77
618.45	30.43
618.60	58.51
618.75	86.60
618.90	0.00
619.06	81.92
619.21	35.11
619.36	37.45
619.51	23.41
619.67	70.22
619.82	49.15
619.97	30.43
620.12	25.75
620.28	72.56
620.43	117.03
620.58	37.45
620.73	0.00
620.89	51.49
621.04	121.71
621.19	44.47
621.34	63.19
621.49	28.09
621.65	30.43
621.80	32.77
621.95	58.51
622.10	37.45
622.25	65.54
622.41	30.43
622.56	14.04
622.71	58.51
622.86	23.41
623.01	23.41
623.16	0.00
623.32	72.56
623.47	35.11
623.62	9.36
623.77	93.62
623.92	0.00
624.07	70.22
624.23	86.60
624.38	60.85
624.53	32.77
624.68	2.34
624.83	49.15
624.98	18.72
625.13	21.06
625.29	0.00
625.44	51.49
625.59	30.43
625.74	79.58
625.89	2.34
626.04	81.92
626.19	72.56
626.34	95.96
626.49	25.75
626.65	147.45
626.80	60.85
626.95	95.96
627.10	58.51
627.25	126.39
627.40	65.54
627.55	58.51
627.70	32.77
627.85	60.85
628.00	2.34
628.15	84.26
628.30	72.56
628.45	49.15
628.60	72.56
628.76	81.92
628.91	63.19
629.06	117.03
629.21	63.19
629.36	60.85
629.51	128.73
629.66	25.75
629.81	63.19
629.96	88.94
630.11	35.11
630.26	0.00
630.41	51.49
630.56	88.94
630.71	53.83
630.86	107.66
631.01	28.09
631.16	138.09
631.31	98.30
631.46	7.02
631.61	16.38
631.76	58.51
631.91	53.83
632.06	11.70
632.21	51.49
632.36	21.06
632.51	14.04
632.66	63.19
632.81	44.47
632.96	58.51
633.10	46.81
633.25	0.00
633.40	32.77
633.55	16.38
633.70	70.22
633.85	11.70
634.00	32.77
634.15	105.32
634.30	28.09
634.45	21.06
634.60	18.72
634.75	53.83
634.90	23.41
635.05	58.51
635.19	18.72
635.34	42.13
635.49	42.13
635.64	23.41
635.79	58.51
635.94	0.00
636.09	93.62
636.24	91.28
636.39	81.92
636.53	67.88
636.68	28.09
636.83	95.96
636.98	114.69
637.13	0.00
637.28	28.09
637.43	0.00
637.57	72.56
637.72	65.54
637.87	23.41
638.02	35.11
638.17	107.66
638.32	51.49
638.46	74.90
638.61	46.81
638.76	49.15
638.91	95.96
639.06	49.15
639.20	25.75
639.35	65.54
639.50	53.83
639.65	28.09
639.80	23.41
639.94	9.36
640.09	0.00
640.24	70.22
640.39	58.51
640.54	23.41
640.68	51.49
640.83	25.75
640.98	77.24
641.13	0.00
641.27	0.00
641.42	14.04
641.57	98.30
641.72	56.17
641.86	0.00
642.01	25.75
642.16	32.77
642.31	25.75
642.45	60.85
642.60	0.00
642.75	58.51
642.90	37.45
643.04	58.51
643.19	86.60
643.34	72.56
643.48	58.51
643.63	74.90
643.78	53.83
643.93	23.41
644.07	16.38
644.22	0.00
644.37	25.75
644.51	65.54
644.66	93.62
644.81	53.83
644.95	37.45
645.10	16.38
645.25	7.02
645.39	37.45
645.54	117.03
645.69	105.32
645.83	77.24
645.98	60.85
646.13	2.34
646.27	32.77
646.42	4.68
646.57	11.70
646.71	14.04
646.86	49.15
647.00	2.34
647.15	72.56
647.30	49.15
647.44	67.88
647.59	63.19
647.74	28.09
647.88	77.24
648.03	72.56
648.17	0.00
648.32	0.00
648.47	128.73
648.61	0.00
648.76	9.36
648.90	39.79
649.05	21.06
649.20	0.00
649.34	74.90
649.49	16.38
649.63	46.81
649.78	67.88
649.92	100.64
650.07	46.81
650.21	39.79
650.36	28.09
650.51	74.90
650.65	39.79
650.80	9.36
650.94	65.54
651.09	7.02
651.23	21.06
651.38	21.06
651.52	112.35
651.67	11.70
651.81	25.75
651.96	100.64
652.10	0.00
652.25	42.13
652.39	44.47
652.54	16.38
652.68	58.51
652.83	51.49
652.97	0.00
653.12	11.70
653.26	51.49
653.41	0.00
653.55	0.00
653.70	51.49
653.84	0.00
653.99	105.32
654.13	102.98
654.27	23.41
654.42	42.13
654.56	37.45
654.71	0.00
654.85	131.07
655.00	0.00
655.14	0.00
655.29	0.00
655.43	63.19
655.57	46.81
655.72	65.54
655.86	11.70
656.01	44.47
656.15	60.85
656.30	65.54
656.44	58.51
656.58	81.92
656.73	67.88
656.87	56.17
657.01	0.00
657.16	56.17
657.30	0.00
657.45	58.51
657.59	0.00
657.73	35.11
657.88	51.49
658.02	51.49
658.16	0.00
658.31	86.60
658.45	74.90
658.60	21.06
658.74	67.88
658.88	86.60
659.03	65.54
659.17	72.56
659.31	14.04
659.46	14.04
659.60	107.66
659.74	35.11
659.89	0.00
660.03	74.90
660.17	32.77
660.32	37.45
660.46	14.04
660.60	0.00
660.74	42.13
660.89	18.72
661.03	0.00
661.17	39.79
661.32	58.51
661.46	79.58
661.60	56.17
661.74	2.34
661.89	74.90
662.03	35.11
662.17	49.15
662.31	28.09
662.46	30.43
662.60	49.15
662.74	35.11
662.88	32.77
663.03	77.24
663.17	84.26
663.31	18.72
663.45	14.04
663.60	56.17
663.74	67.88
663.88	0.00
664.02	46.81
664.17	0.00
664.31	18.72
664.45	44.47
664.59	95.96
664.73	32.77
664.88	28.09
665.02	7.02
665.16	25.75
665.30	65.54
665.44	18.72
665.59	53.83
665.73	72.56
665.87	0.00
666.01	114.69
666.15	46.81
666.29	14.04
666.44	0.00
666.58	28.09
666.72	16.38
666.86	60.85
667.00	35.11
667.14	46.81
667.28	81.92
667.43	49.15
667.57	28.09
667.71	0.00
667.85	0.00
667.99	14.04
668.13	18.72
668.27	16.38
668.41	0.00
668.56	4.68
668.70	0.00
668.84	110.01
668.98	0.00
669.12	0.00
669.26	25.75
669.40	25.75
669.54	37.45
669.68	4.68
669.82	23.41
669.96	70.22
670.10	95.96
670.25	51.49
670.39	0.00
670.53	63.19
670.67	28.09
670.81	107.66
670.95	35.11
671.09	42.13
671.23	53.83
671.37	0.00
671.51	9.36
671.65	0.00
671.79	58.51
671.93	42.13
672.07	49.15
672.21	28.09
672.35	65.54
672.49	70.22
672.63	0.00
672.77	72.56
672.91	25.75
673.05	37.45
673.19	0.00
673.33	72.56
673.47	42.13
673.61	18.72
673.75	37.45
673.89	0.00
674.03	16.38
674.17	9.36
674.31	93.62
674.45	7.02
674.59	11.70
674.73	46.81
674.87	35.11
675.01	0.00
675.15	0.00
675.29	23.41
675.43	65.54
675.56	0.00
675.70	25.75
675.84	25.75
675.98	84.26
676.12	0.00
676.26	70.22
676.40	98.30
676.54	0.00
676.68	72.56
676.82	2.34
676.96	0.00
677.10	7.02
677.23	0.00
677.37	0.00
677.51	100.64
677.65	37.45
677.79	39.79
677.93	0.00
678.07	18.72
678.21	60.85
678.34	30.43
678.48	51.49
678.62	0.00
678.76	11.70
678.90	42.13
679.04	23.41
679.18	0.00
679.31	9.36
679.45	100.64
679.59	49.15
679.73	2.34
679.87	35.11
680.00	11.70
680.14	30.43
680.28	18.72
680.42	30.43
680.56	0.00
680.70	67.88
680.83	23.41
680.97	35.11
681.11	49.15
681.25	74.90
681.39	67.88
681.52	14.04
681.66	11.70
681.80	11.70
681.94	56.17
682.07	4.68
682.21	0.00
682.35	21.06
682.49	30.43
682.62	25.75
682.76	93.62
682.90	23.41
683.04	0.00
683.17	0.00
683.31	42.13
683.45	84.26
683.59	86.60
683.72	81.92
683.86	28.09
684.00	67.88
684.13	25.75
684.27	91.28
684.41	18.72
684.55	60.85
684.68	35.11
684.82	35.11
684.96	0.00
685.09	18.72
685.23	35.11
685.37	49.15
685.50	28.09
685.64	30.43
685.78	25.75
685.91	70.22
686.05	56.17
686.19	53.83
686.32	11.70
686.46	72.56
686.60	11.70
686.73	30.43
686.87	9.36
687.01	0.00
687.14	67.88
687.28	72.56
687.42	46.81
687.55	39.79
687.69	65.54
687.82	0.00
687.96	107.66
688.10	30.43
688.23	98.30
688.37	7.02
688.50	56.17
688.64	0.00
688.78	28.09
688.91	2.34
689.05	4.68
689.18	32.77
689.32	0.00
689.46	60.85
689.59	0.00
689.73	0.00
689.86	18.72
690.00	67.88
690.13	32.77
690.27	53.83
690.41	4.68
690.54	46.81
690.68	44.47
690.81	79.58
690.95	51.49
691.08	63.19
691.22	67.88
691.35	77.24
691.49	56.17
691.62	105.32
691.76	81.92
691.89	65.54
692.03	14.04
692.16	7.02
692.30	37.45
692.43	0.00
692.57	74.90
692.70	65.54
692.84	0.00
692.97	0.00
693.11	81.92
693.24	32.77
693.38	107.66
693.51	58.51
693.65	14.04
693.78	46.81
693.92	0.00
694.05	51.49
694.19	0.00
694.32	112.35
694.45	46.81
694.59	84.26
694.72	56.17
694.86	51.49
694.99	58.51
695.13	81.92
695.26	32.77
695.39	51.49
695.53	32.77
695.66	58.51
695.80	25.75
695.93	37.45
696.07	58.51
696.20	37.45
696.33	11.70
696.47	0.00
696.60	72.56
696.73	0.00
696.87	65.54
697.00	39.79
697.14	56.17
697.27	51.49
697.40	0.00
697.54	9.36
697.67	4.68
697.80	98.30
697.94	44.47
698.07	21.06
698.21	49.15
698.34	14.04
698.47	16.38
698.61	0.00
698.74	0.00
698.87	0.00
699.01	49.15
699.14	2.34
699.27	0.00
699.40	9.36
699.54	70.22
699.67	58.51
699.80	58.51
699.94	21.06
700.07	11.70
700.20	37.45
700.34	51.49
700.47	35.11
700.60	23.41
700.73	11.70
700.87	91.28
701.00	39.79
701.13	28.09
701.26	0.00
701.40	18.72
701.53	11.70
701.66	65.54
701.79	93.62
701.93	98.30
702.06	21.06
702.19	0.00
702.32	0.00
702.46	58.51
702.59	58.51
702.72	32.77
702.85	112.35
702.99	0.00
703.12	0.00
703.25	0.00
703.38	46.81
703.51	21.06
703.65	30.43
703.78	70.22
703.91	0.00
704.04	28.09
704.17	56.17
704.31	35.11
704.44	0.00
704.57	9.36
704.70	0.00
704.83	21.06
704.96	25.75
705.10	0.00
705.23	16.38
>>>>>End Processed Spectral Data<<<<<
