SpectraSuite Data File
++++++++++++++++++++++++++++++++++++
Date: Fri Oct 04 12:13:32 GMT-05:00 2013
User: price-jones
Dark Spectrum Present: No
Reference Spectrum Present: No
Number of Sampled Component Spectra: 1
Spectrometers: USB2+H05261
Integration Time (usec): 10000 (USB2+H05261)
Spectra Averaged: 1 (USB2+H05261)
Boxcar Smoothing: 0 (USB2+H05261)
Correct for Electrical Dark: No (USB2+H05261)
Strobe/Lamp Enabled: No (USB2+H05261)
Correct for Detector Non-linearity: No (USB2+H05261)
Correct for Stray Light: No (USB2+H05261)
Number of Pixels in Processed Spectrum: 2048
>>>>>Begin Processed Spectral Data<<<<<
365.73	0.00
365.92	0.00
366.12	0.00
366.32	0.00
366.52	0.00
366.72	0.00
366.91	0.00
367.11	0.00
367.31	0.00
367.51	0.00
367.70	0.00
367.90	0.00
368.10	0.00
368.30	0.00
368.49	0.00
368.69	0.00
368.89	0.00
369.09	0.00
369.28	0.00
369.48	0.00
369.68	0.00
369.87	0.00
370.07	0.00
370.27	0.00
370.47	0.00
370.66	0.00
370.86	0.00
371.06	0.00
371.25	0.00
371.45	25.75
371.65	35.11
371.84	0.00
372.04	0.00
372.24	0.00
372.44	0.00
372.63	11.70
372.83	0.00
373.03	2.34
373.22	67.88
373.42	11.70
373.62	9.36
373.81	14.04
374.01	117.03
374.21	0.00
374.40	84.26
374.60	39.79
374.79	30.43
374.99	11.70
375.19	42.13
375.38	9.36
375.58	53.83
375.78	65.54
375.97	39.79
376.17	2.34
376.37	86.60
376.56	21.06
376.76	28.09
376.95	49.15
377.15	11.70
377.35	0.00
377.54	44.47
377.74	51.49
377.93	0.00
378.13	0.00
378.33	44.47
378.52	37.45
378.72	18.72
378.91	53.83
379.11	56.17
379.31	70.22
379.50	23.41
379.70	53.83
379.89	0.00
380.09	25.75
380.28	9.36
380.48	46.81
380.68	21.06
380.87	46.81
381.07	42.13
381.26	63.19
381.46	2.34
381.65	4.68
381.85	0.00
382.04	2.34
382.24	60.85
382.43	0.00
382.63	93.62
382.83	70.22
383.02	14.04
383.22	0.00
383.41	67.88
383.61	58.51
383.80	42.13
384.00	7.02
384.19	2.34
384.39	0.00
384.58	37.45
384.78	28.09
384.97	7.02
385.17	44.47
385.36	0.00
385.56	23.41
385.75	0.00
385.95	28.09
386.14	56.17
386.34	30.43
386.53	23.41
386.72	60.85
386.92	49.15
387.11	14.04
387.31	37.45
387.50	9.36
387.70	0.00
387.89	0.00
388.09	28.09
388.28	32.77
388.48	74.90
388.67	0.00
388.86	0.00
389.06	35.11
389.25	32.77
389.45	18.72
389.64	25.75
389.84	42.13
390.03	18.72
390.22	0.00
390.42	18.72
390.61	46.81
390.81	42.13
391.00	4.68
391.19	0.00
391.39	25.75
391.58	0.00
391.78	7.02
391.97	7.02
392.16	0.00
392.36	72.56
392.55	11.70
392.75	16.38
392.94	32.77
393.13	39.79
393.33	21.06
393.52	0.00
393.71	0.00
393.91	2.34
394.10	53.83
394.29	23.41
394.49	28.09
394.68	25.75
394.88	44.47
395.07	23.41
395.26	28.09
395.46	79.58
395.65	4.68
395.84	0.00
396.04	37.45
396.23	42.13
396.42	56.17
396.62	140.43
396.81	0.00
397.00	39.79
397.19	4.68
397.39	63.19
397.58	0.00
397.77	49.15
397.97	4.68
398.16	0.00
398.35	39.79
398.55	70.22
398.74	25.75
398.93	44.47
399.12	67.88
399.32	60.85
399.51	0.00
399.70	4.68
399.90	4.68
400.09	51.49
400.28	95.96
400.47	32.77
400.67	0.00
400.86	35.11
401.05	60.85
401.24	14.04
401.44	58.51
401.63	42.13
401.82	37.45
402.01	4.68
402.21	53.83
402.40	14.04
402.59	14.04
402.78	0.00
402.97	4.68
403.17	30.43
403.36	44.47
403.55	11.70
403.74	28.09
403.93	44.47
404.13	84.26
404.32	58.51
404.51	2.34
404.70	28.09
404.89	44.47
405.09	46.81
405.28	18.72
405.47	95.96
405.66	0.00
405.85	56.17
406.05	25.75
406.24	2.34
406.43	58.51
406.62	2.34
406.81	4.68
407.00	35.11
407.20	0.00
407.39	0.00
407.58	16.38
407.77	0.00
407.96	56.17
408.15	0.00
408.34	32.77
408.54	35.11
408.73	70.22
408.92	18.72
409.11	0.00
409.30	4.68
409.49	7.02
409.68	0.00
409.87	58.51
410.07	44.47
410.26	9.36
410.45	0.00
410.64	28.09
410.83	46.81
411.02	25.75
411.21	14.04
411.40	110.01
411.59	49.15
411.78	11.70
411.98	72.56
412.17	0.00
412.36	0.00
412.55	2.34
412.74	14.04
412.93	28.09
413.12	0.00
413.31	0.00
413.50	0.00
413.69	11.70
413.88	53.83
414.07	0.00
414.26	100.64
414.45	0.00
414.64	74.90
414.83	11.70
415.02	25.75
415.22	11.70
415.41	46.81
415.60	30.43
415.79	63.19
415.98	0.00
416.17	16.38
416.36	37.45
416.55	0.00
416.74	0.00
416.93	21.06
417.12	16.38
417.31	0.00
417.50	0.00
417.69	135.75
417.88	25.75
418.07	74.90
418.26	18.72
418.45	63.19
418.64	18.72
418.83	60.85
419.02	46.81
419.21	0.00
419.39	0.00
419.58	42.13
419.77	0.00
419.96	21.06
420.15	35.11
420.34	44.47
420.53	32.77
420.72	0.00
420.91	30.43
421.10	28.09
421.29	11.70
421.48	74.90
421.67	11.70
421.86	0.00
422.05	0.00
422.24	14.04
422.43	65.54
422.61	56.17
422.80	23.41
422.99	39.79
423.18	63.19
423.37	35.11
423.56	0.00
423.75	2.34
423.94	18.72
424.13	88.94
424.32	0.00
424.50	11.70
424.69	0.00
424.88	0.00
425.07	4.68
425.26	58.51
425.45	42.13
425.64	44.47
425.83	25.75
426.01	28.09
426.20	63.19
426.39	30.43
426.58	2.34
426.77	30.43
426.96	60.85
427.15	49.15
427.33	28.09
427.52	65.54
427.71	14.04
427.90	23.41
428.09	81.92
428.28	0.00
428.46	9.36
428.65	42.13
428.84	67.88
429.03	0.00
429.22	25.75
429.40	4.68
429.59	81.92
429.78	39.79
429.97	0.00
430.16	0.00
430.34	58.51
430.53	74.90
430.72	74.90
430.91	2.34
431.10	56.17
431.28	46.81
431.47	2.34
431.66	79.58
431.85	30.43
432.03	16.38
432.22	0.00
432.41	23.41
432.60	39.79
432.79	67.88
432.97	14.04
433.16	86.60
433.35	39.79
433.54	32.77
433.72	49.15
433.91	72.56
434.10	4.68
434.28	56.17
434.47	0.00
434.66	30.43
434.85	42.13
435.03	16.38
435.22	39.79
435.41	0.00
435.59	23.41
435.78	0.00
435.97	79.58
436.16	39.79
436.34	67.88
436.53	37.45
436.72	7.02
436.90	2.34
437.09	23.41
437.28	28.09
437.46	9.36
437.65	0.00
437.84	49.15
438.02	35.11
438.21	37.45
438.40	100.64
438.58	58.51
438.77	42.13
438.96	51.49
439.14	46.81
439.33	39.79
439.52	67.88
439.70	70.22
439.89	0.00
440.08	53.83
440.26	9.36
440.45	0.00
440.63	65.54
440.82	28.09
441.01	0.00
441.19	0.00
441.38	0.00
441.57	23.41
441.75	124.05
441.94	72.56
442.12	25.75
442.31	81.92
442.50	84.26
442.68	4.68
442.87	72.56
443.05	42.13
443.24	0.00
443.43	37.45
443.61	49.15
443.80	4.68
443.98	4.68
444.17	0.00
444.35	23.41
444.54	67.88
444.73	58.51
444.91	65.54
445.10	32.77
445.28	35.11
445.47	0.00
445.65	32.77
445.84	0.00
446.02	14.04
446.21	35.11
446.39	2.34
446.58	32.77
446.77	0.00
446.95	49.15
447.14	25.75
447.32	0.00
447.51	49.15
447.69	51.49
447.88	14.04
448.06	0.00
448.25	81.92
448.43	28.09
448.62	0.00
448.80	30.43
448.99	21.06
449.17	39.79
449.36	49.15
449.54	16.38
449.73	86.60
449.91	0.00
450.10	44.47
450.28	0.00
450.46	39.79
450.65	23.41
450.83	28.09
451.02	25.75
451.20	0.00
451.39	0.00
451.57	42.13
451.76	2.34
451.94	49.15
452.13	49.15
452.31	121.71
452.49	105.32
452.68	14.04
452.86	67.88
453.05	11.70
453.23	60.85
453.42	35.11
453.60	0.00
453.78	49.15
453.97	67.88
454.15	21.06
454.34	0.00
454.52	4.68
454.70	77.24
454.89	0.00
455.07	0.00
455.26	11.70
455.44	51.49
455.62	18.72
455.81	30.43
455.99	23.41
456.17	25.75
456.36	23.41
456.54	0.00
456.73	7.02
456.91	63.19
457.09	11.70
457.28	2.34
457.46	44.47
457.64	0.00
457.83	65.54
458.01	70.22
458.19	79.58
458.38	37.45
458.56	14.04
458.74	58.51
458.93	112.35
459.11	21.06
459.29	21.06
459.48	0.00
459.66	0.00
459.84	56.17
460.03	0.00
460.21	53.83
460.39	32.77
460.57	44.47
460.76	39.79
460.94	0.00
461.12	0.00
461.31	39.79
461.49	51.49
461.67	0.00
461.85	37.45
462.04	0.00
462.22	44.47
462.40	77.24
462.59	0.00
462.77	65.54
462.95	65.54
463.13	65.54
463.32	0.00
463.50	2.34
463.68	0.00
463.86	30.43
464.05	93.62
464.23	21.06
464.41	77.24
464.59	2.34
464.78	0.00
464.96	11.70
465.14	49.15
465.32	119.37
465.50	2.34
465.69	81.92
465.87	74.90
466.05	11.70
466.23	0.00
466.41	105.32
466.60	16.38
466.78	77.24
466.96	0.00
467.14	35.11
467.32	37.45
467.51	23.41
467.69	11.70
467.87	56.17
468.05	56.17
468.23	53.83
468.41	79.58
468.60	63.19
468.78	2.34
468.96	28.09
469.14	37.45
469.32	51.49
469.50	23.41
469.69	37.45
469.87	84.26
470.05	0.00
470.23	35.11
470.41	49.15
470.59	32.77
470.77	0.00
470.95	114.69
471.14	44.47
471.32	0.00
471.50	0.00
471.68	0.00
471.86	67.88
472.04	39.79
472.22	46.81
472.40	0.00
472.58	0.00
472.77	77.24
472.95	30.43
473.13	53.83
473.31	0.00
473.49	0.00
473.67	0.00
473.85	25.75
474.03	74.90
474.21	16.38
474.39	79.58
474.57	37.45
474.75	4.68
474.93	0.00
475.12	18.72
475.30	65.54
475.48	39.79
475.66	0.00
475.84	58.51
476.02	23.41
476.20	28.09
476.38	0.00
476.56	23.41
476.74	0.00
476.92	79.58
477.10	74.90
477.28	11.70
477.46	0.00
477.64	28.09
477.82	0.00
478.00	4.68
478.18	4.68
478.36	0.00
478.54	53.83
478.72	51.49
478.90	0.00
479.08	44.47
479.26	0.00
479.44	95.96
479.62	53.83
479.80	4.68
479.98	102.98
480.16	53.83
480.34	32.77
480.52	37.45
480.70	56.17
480.88	28.09
481.06	30.43
481.24	51.49
481.41	72.56
481.59	39.79
481.77	39.79
481.95	91.28
482.13	35.11
482.31	35.11
482.49	0.00
482.67	2.34
482.85	11.70
483.03	11.70
483.21	7.02
483.39	0.00
483.57	25.75
483.74	74.90
483.92	53.83
484.10	70.22
484.28	30.43
484.46	88.94
484.64	39.79
484.82	42.13
485.00	2.34
485.18	51.49
485.35	16.38
485.53	30.43
485.71	44.47
485.89	100.64
486.07	30.43
486.25	60.85
486.43	84.26
486.61	42.13
486.78	2.34
486.96	56.17
487.14	53.83
487.32	100.64
487.50	74.90
487.68	0.00
487.85	42.13
488.03	0.00
488.21	49.15
488.39	51.49
488.57	51.49
488.75	49.15
488.92	0.00
489.10	0.00
489.28	14.04
489.46	44.47
489.64	86.60
489.81	21.06
489.99	30.43
490.17	86.60
490.35	11.70
490.53	2.34
490.70	58.51
490.88	16.38
491.06	32.77
491.24	14.04
491.41	37.45
491.59	0.00
491.77	9.36
491.95	7.02
492.13	0.00
492.30	42.13
492.48	65.54
492.66	0.00
492.84	107.66
493.01	4.68
493.19	58.51
493.37	70.22
493.54	60.85
493.72	0.00
493.90	93.62
494.08	51.49
494.25	67.88
494.43	11.70
494.61	25.75
494.79	4.68
494.96	63.19
495.14	81.92
495.32	35.11
495.49	65.54
495.67	39.79
495.85	51.49
496.02	18.72
496.20	2.34
496.38	0.00
496.55	49.15
496.73	49.15
496.91	42.13
497.09	39.79
497.26	84.26
497.44	44.47
497.62	93.62
497.79	65.54
497.97	21.06
498.14	14.04
498.32	74.90
498.50	0.00
498.67	9.36
498.85	72.56
499.03	0.00
499.20	0.00
499.38	42.13
499.56	23.41
499.73	91.28
499.91	4.68
500.08	14.04
500.26	18.72
500.44	84.26
500.61	77.24
500.79	67.88
500.97	98.30
501.14	21.06
501.32	28.09
501.49	93.62
501.67	93.62
501.84	58.51
502.02	14.04
502.20	79.58
502.37	117.03
502.55	0.00
502.72	74.90
502.90	18.72
503.07	86.60
503.25	0.00
503.43	44.47
503.60	35.11
503.78	25.75
503.95	4.68
504.13	0.00
504.30	9.36
504.48	18.72
504.65	14.04
504.83	79.58
505.01	9.36
505.18	0.00
505.36	63.19
505.53	0.00
505.71	46.81
505.88	91.28
506.06	46.81
506.23	42.13
506.41	0.00
506.58	35.11
506.76	70.22
506.93	72.56
507.11	4.68
507.28	18.72
507.46	9.36
507.63	56.17
507.81	30.43
507.98	56.17
508.16	56.17
508.33	67.88
508.50	0.00
508.68	42.13
508.85	30.43
509.03	119.37
509.20	86.60
509.38	39.79
509.55	30.43
509.73	0.00
509.90	39.79
510.08	42.13
510.25	14.04
510.42	39.79
510.60	60.85
510.77	37.45
510.95	21.06
511.12	28.09
511.30	25.75
511.47	102.98
511.64	0.00
511.82	0.00
511.99	35.11
512.17	117.03
512.34	74.90
512.51	74.90
512.69	72.56
512.86	93.62
513.04	0.00
513.21	0.00
513.38	67.88
513.56	102.98
513.73	0.00
513.90	102.98
514.08	23.41
514.25	0.00
514.43	49.15
514.60	2.34
514.77	35.11
514.95	77.24
515.12	2.34
515.29	110.01
515.47	74.90
515.64	60.85
515.81	105.32
515.99	46.81
516.16	16.38
516.33	126.39
516.51	11.70
516.68	60.85
516.85	25.75
517.03	81.92
517.20	63.19
517.37	0.00
517.54	0.00
517.72	0.00
517.89	0.00
518.06	70.22
518.24	72.56
518.41	23.41
518.58	44.47
518.75	0.00
518.93	67.88
519.10	51.49
519.27	18.72
519.45	11.70
519.62	110.01
519.79	9.36
519.96	0.00
520.14	67.88
520.31	11.70
520.48	72.56
520.65	21.06
520.83	37.45
521.00	46.81
521.17	56.17
521.34	0.00
521.52	67.88
521.69	32.77
521.86	18.72
522.03	21.06
522.20	58.51
522.38	32.77
522.55	95.96
522.72	46.81
522.89	46.81
523.07	53.83
523.24	102.98
523.41	28.09
523.58	0.00
523.75	4.68
523.92	2.34
524.10	51.49
524.27	21.06
524.44	2.34
524.61	37.45
524.78	0.00
524.96	77.24
525.13	84.26
525.30	77.24
525.47	35.11
525.64	42.13
525.81	11.70
525.98	51.49
526.16	79.58
526.33	32.77
526.50	35.11
526.67	11.70
526.84	0.00
527.01	25.75
527.18	51.49
527.36	91.28
527.53	0.00
527.70	16.38
527.87	30.43
528.04	0.00
528.21	74.90
528.38	0.00
528.55	46.81
528.72	67.88
528.89	46.81
529.07	105.32
529.24	77.24
529.41	44.47
529.58	46.81
529.75	51.49
529.92	11.70
530.09	49.15
530.26	112.35
530.43	0.00
530.60	91.28
530.77	74.90
530.94	53.83
531.11	44.47
531.28	39.79
531.46	25.75
531.63	63.19
531.80	37.45
531.97	0.00
532.14	28.09
532.31	65.54
532.48	51.49
532.65	60.85
532.82	84.26
532.99	105.32
533.16	21.06
533.33	0.00
533.50	56.17
533.67	0.00
533.84	4.68
534.01	79.58
534.18	0.00
534.35	18.72
534.52	98.30
534.69	7.02
534.86	7.02
535.03	42.13
535.20	72.56
535.37	0.00
535.54	4.68
535.71	46.81
535.88	91.28
536.05	56.17
536.22	23.41
536.38	49.15
536.55	37.45
536.72	16.38
536.89	88.94
537.06	11.70
537.23	91.28
537.40	95.96
537.57	28.09
537.74	0.00
537.91	56.17
538.08	39.79
538.25	44.47
538.42	67.88
538.59	0.00
538.75	79.58
538.92	51.49
539.09	88.94
539.26	56.17
539.43	21.06
539.60	0.00
539.77	4.68
539.94	44.47
540.11	72.56
540.28	49.15
540.44	81.92
540.61	0.00
540.78	0.00
540.95	37.45
541.12	9.36
541.29	0.00
541.46	0.00
541.62	37.45
541.79	51.49
541.96	65.54
542.13	112.35
542.30	100.64
542.47	4.68
542.63	0.00
542.80	46.81
542.97	93.62
543.14	9.36
543.31	0.00
543.48	30.43
543.64	14.04
543.81	79.58
543.98	88.94
544.15	93.62
544.32	58.51
544.48	30.43
544.65	14.04
544.82	58.51
544.99	84.26
545.16	44.47
545.32	9.36
545.49	53.83
545.66	37.45
545.83	14.04
546.00	124.05
546.16	63.19
546.33	0.00
546.50	25.75
546.67	65.54
546.83	79.58
547.00	16.38
547.17	65.54
547.34	0.00
547.50	2.34
547.67	0.00
547.84	74.90
548.00	0.00
548.17	0.00
548.34	72.56
548.51	21.06
548.67	56.17
548.84	63.19
549.01	44.47
549.18	0.00
549.34	138.09
549.51	0.00
549.68	32.77
549.84	46.81
550.01	51.49
550.18	9.36
550.34	46.81
550.51	105.32
550.68	39.79
550.84	42.13
551.01	65.54
551.18	67.88
551.34	37.45
551.51	0.00
551.68	0.00
551.84	16.38
552.01	30.43
552.18	138.09
552.34	28.09
552.51	42.13
552.68	35.11
552.84	9.36
553.01	11.70
553.18	81.92
553.34	0.00
553.51	53.83
553.67	51.49
553.84	88.94
554.01	28.09
554.17	51.49
554.34	67.88
554.51	37.45
554.67	121.71
554.84	25.75
555.00	16.38
555.17	4.68
555.33	28.09
555.50	79.58
555.67	23.41
555.83	42.13
556.00	65.54
556.16	4.68
556.33	23.41
556.50	46.81
556.66	100.64
556.83	0.00
556.99	0.00
557.16	32.77
557.32	37.45
557.49	0.00
557.65	9.36
557.82	16.38
557.98	56.17
558.15	32.77
558.32	74.90
558.48	9.36
558.65	72.56
558.81	93.62
558.98	28.09
559.14	28.09
559.31	88.94
559.47	37.45
559.64	93.62
559.80	56.17
559.97	42.13
560.13	121.71
560.30	28.09
560.46	114.69
560.63	91.28
560.79	56.17
560.96	0.00
561.12	30.43
561.29	58.51
561.45	70.22
561.61	102.98
561.78	93.62
561.94	2.34
562.11	49.15
562.27	70.22
562.44	77.24
562.60	32.77
562.77	37.45
562.93	124.05
563.10	0.00
563.26	32.77
563.42	39.79
563.59	74.90
563.75	0.00
563.92	95.96
564.08	58.51
564.24	81.92
564.41	79.58
564.57	25.75
564.74	42.13
564.90	0.00
565.07	77.24
565.23	140.43
565.39	51.49
565.56	74.90
565.72	53.83
565.88	0.00
566.05	65.54
566.21	25.75
566.38	18.72
566.54	51.49
566.70	35.11
566.87	53.83
567.03	0.00
567.19	88.94
567.36	53.83
567.52	0.00
567.68	35.11
567.85	16.38
568.01	0.00
568.17	0.00
568.34	88.94
568.50	77.24
568.66	39.79
568.83	84.26
568.99	0.00
569.15	74.90
569.32	53.83
569.48	77.24
569.64	23.41
569.81	67.88
569.97	95.96
570.13	28.09
570.30	11.70
570.46	67.88
570.62	0.00
570.78	0.00
570.95	11.70
571.11	58.51
571.27	63.19
571.43	37.45
571.60	77.24
571.76	0.00
571.92	70.22
572.09	25.75
572.25	35.11
572.41	84.26
572.57	21.06
572.74	93.62
572.90	49.15
573.06	0.00
573.22	117.03
573.38	84.26
573.55	0.00
573.71	46.81
573.87	28.09
574.03	46.81
574.20	0.00
574.36	7.02
574.52	93.62
574.68	7.02
574.84	117.03
575.01	84.26
575.17	42.13
575.33	9.36
575.49	79.58
575.65	58.51
575.82	42.13
575.98	98.30
576.14	39.79
576.30	63.19
576.46	18.72
576.62	70.22
576.79	30.43
576.95	37.45
577.11	25.75
577.27	28.09
577.43	35.11
577.59	0.00
577.75	46.81
577.92	51.49
578.08	0.00
578.24	0.00
578.40	0.00
578.56	39.79
578.72	79.58
578.88	67.88
579.04	63.19
579.21	81.92
579.37	93.62
579.53	60.85
579.69	60.85
579.85	16.38
580.01	28.09
580.17	49.15
580.33	60.85
580.49	65.54
580.65	9.36
580.82	9.36
580.98	72.56
581.14	11.70
581.30	30.43
581.46	0.00
581.62	70.22
581.78	72.56
581.94	23.41
582.10	72.56
582.26	14.04
582.42	72.56
582.58	25.75
582.74	98.30
582.90	53.83
583.06	46.81
583.22	35.11
583.38	53.83
583.54	72.56
583.70	28.09
583.86	23.41
584.02	32.77
584.18	30.43
584.34	32.77
584.50	42.13
584.66	7.02
584.82	0.00
584.98	42.13
585.14	95.96
585.30	65.54
585.46	9.36
585.62	39.79
585.78	84.26
585.94	30.43
586.10	67.88
586.26	100.64
586.42	70.22
586.58	53.83
586.74	16.38
586.90	42.13
587.06	0.00
587.22	56.17
587.38	16.38
587.54	9.36
587.70	49.15
587.86	121.71
588.02	138.09
588.18	53.83
588.34	56.17
588.49	0.00
588.65	51.49
588.81	0.00
588.97	65.54
589.13	32.77
589.29	21.06
589.45	65.54
589.61	0.00
589.77	84.26
589.93	46.81
590.08	28.09
590.24	32.77
590.40	4.68
590.56	67.88
590.72	58.51
590.88	74.90
591.04	67.88
591.20	67.88
591.35	18.72
591.51	74.90
591.67	32.77
591.83	93.62
591.99	0.00
592.15	42.13
592.31	32.77
592.46	21.06
592.62	18.72
592.78	91.28
592.94	18.72
593.10	53.83
593.26	35.11
593.41	21.06
593.57	9.36
593.73	16.38
593.89	0.00
594.05	49.15
594.20	39.79
594.36	23.41
594.52	63.19
594.68	25.75
594.84	102.98
594.99	42.13
595.15	0.00
595.31	72.56
595.47	32.77
595.62	74.90
595.78	25.75
595.94	0.00
596.10	51.49
596.25	28.09
596.41	107.66
596.57	84.26
596.73	91.28
596.88	77.24
597.04	56.17
597.20	28.09
597.36	53.83
597.51	11.70
597.67	7.02
597.83	53.83
597.99	14.04
598.14	60.85
598.30	39.79
598.46	14.04
598.61	74.90
598.77	56.17
598.93	58.51
599.09	0.00
599.24	56.17
599.40	51.49
599.56	110.01
599.71	14.04
599.87	18.72
600.03	0.00
600.18	56.17
600.34	84.26
600.50	0.00
600.65	14.04
600.81	9.36
600.97	110.01
601.12	74.90
601.28	65.54
601.44	53.83
601.59	0.00
601.75	42.13
601.91	98.30
602.06	42.13
602.22	88.94
602.37	49.15
602.53	81.92
602.69	67.88
602.84	74.90
603.00	0.00
603.16	0.00
603.31	79.58
603.47	35.11
603.62	0.00
603.78	39.79
603.94	44.47
604.09	37.45
604.25	53.83
604.40	84.26
604.56	74.90
604.71	0.00
604.87	28.09
605.03	65.54
605.18	131.07
605.34	18.72
605.49	11.70
605.65	0.00
605.80	37.45
605.96	25.75
606.12	35.11
606.27	60.85
606.43	63.19
606.58	14.04
606.74	46.81
606.89	11.70
607.05	18.72
607.20	65.54
607.36	37.45
607.51	28.09
607.67	25.75
607.82	9.36
607.98	9.36
608.13	65.54
608.29	110.01
608.44	0.00
608.60	0.00
608.75	46.81
608.91	72.56
609.06	51.49
609.22	30.43
609.37	98.30
609.53	39.79
609.68	7.02
609.84	0.00
609.99	16.38
610.15	0.00
610.30	0.00
610.46	0.00
610.61	18.72
610.76	37.45
610.92	60.85
611.07	58.51
611.23	0.00
611.38	21.06
611.54	28.09
611.69	14.04
611.84	117.03
612.00	53.83
612.15	25.75
612.31	0.00
612.46	0.00
612.62	4.68
612.77	42.13
612.92	49.15
613.08	37.45
613.23	44.47
613.39	86.60
613.54	67.88
613.69	67.88
613.85	65.54
614.00	9.36
614.15	88.94
614.31	9.36
614.46	9.36
614.62	88.94
614.77	72.56
614.92	56.17
615.08	0.00
615.23	49.15
615.38	60.85
615.54	21.06
615.69	35.11
615.84	67.88
616.00	53.83
616.15	14.04
616.30	7.02
616.46	46.81
616.61	18.72
616.76	14.04
616.92	91.28
617.07	110.01
617.22	51.49
617.37	60.85
617.53	0.00
617.68	46.81
617.83	25.75
617.99	72.56
618.14	86.60
618.29	56.17
618.45	77.24
618.60	121.71
618.75	32.77
618.90	23.41
619.06	58.51
619.21	56.17
619.36	91.28
619.51	58.51
619.67	0.00
619.82	56.17
619.97	0.00
620.12	39.79
620.28	0.00
620.43	39.79
620.58	46.81
620.73	142.77
620.89	65.54
621.04	67.88
621.19	35.11
621.34	0.00
621.49	51.49
621.65	0.00
621.80	23.41
621.95	23.41
622.10	56.17
622.25	18.72
622.41	30.43
622.56	53.83
622.71	28.09
622.86	39.79
623.01	25.75
623.16	0.00
623.32	37.45
623.47	105.32
623.62	0.00
623.77	0.00
623.92	81.92
624.07	102.98
624.23	81.92
624.38	23.41
624.53	23.41
624.68	0.00
624.83	37.45
624.98	30.43
625.13	18.72
625.29	9.36
625.44	0.00
625.59	124.05
625.74	117.03
625.89	70.22
626.04	79.58
626.19	70.22
626.34	0.00
626.49	28.09
626.65	53.83
626.80	44.47
626.95	60.85
627.10	42.13
627.25	91.28
627.40	63.19
627.55	21.06
627.70	30.43
627.85	0.00
628.00	46.81
628.15	74.90
628.30	14.04
628.45	0.00
628.60	9.36
628.76	7.02
628.91	44.47
629.06	23.41
629.21	44.47
629.36	74.90
629.51	63.19
629.66	51.49
629.81	102.98
629.96	53.83
630.11	0.00
630.26	42.13
630.41	44.47
630.56	0.00
630.71	58.51
630.86	23.41
631.01	53.83
631.16	88.94
631.31	102.98
631.46	77.24
631.61	28.09
631.76	56.17
631.91	11.70
632.06	100.64
632.21	0.00
632.36	16.38
632.51	0.00
632.66	0.00
632.81	0.00
632.96	65.54
633.10	51.49
633.25	0.00
633.40	14.04
633.55	11.70
633.70	9.36
633.85	9.36
634.00	42.13
634.15	56.17
634.30	46.81
634.45	53.83
634.60	9.36
634.75	100.64
634.90	39.79
635.05	74.90
635.19	37.45
635.34	35.11
635.49	0.00
635.64	42.13
635.79	37.45
635.94	28.09
636.09	51.49
636.24	65.54
636.39	37.45
636.53	56.17
636.68	46.81
636.83	35.11
636.98	23.41
637.13	0.00
637.28	37.45
637.43	107.66
637.57	14.04
637.72	16.38
637.87	28.09
638.02	65.54
638.17	51.49
638.32	49.15
638.46	32.77
638.61	39.79
638.76	28.09
638.91	67.88
639.06	4.68
639.20	63.19
639.35	72.56
639.50	23.41
639.65	18.72
639.80	58.51
639.94	70.22
640.09	28.09
640.24	30.43
640.39	49.15
640.54	49.15
640.68	63.19
640.83	95.96
640.98	53.83
641.13	0.00
641.27	39.79
641.42	46.81
641.57	86.60
641.72	70.22
641.86	63.19
642.01	72.56
642.16	67.88
642.31	21.06
642.45	100.64
642.60	0.00
642.75	70.22
642.90	46.81
643.04	100.64
643.19	32.77
643.34	70.22
643.48	0.00
643.63	91.28
643.78	35.11
643.93	51.49
644.07	65.54
644.22	60.85
644.37	84.26
644.51	14.04
644.66	11.70
644.81	16.38
644.95	42.13
645.10	0.00
645.25	100.64
645.39	30.43
645.54	23.41
645.69	88.94
645.83	102.98
645.98	25.75
646.13	0.00
646.27	46.81
646.42	28.09
646.57	30.43
646.71	25.75
646.86	25.75
647.00	42.13
647.15	74.90
647.30	39.79
647.44	30.43
647.59	28.09
647.74	42.13
647.88	95.96
648.03	72.56
648.17	56.17
648.32	23.41
648.47	84.26
648.61	95.96
648.76	11.70
648.90	25.75
649.05	28.09
649.20	39.79
649.34	14.04
649.49	42.13
649.63	63.19
649.78	14.04
649.92	35.11
650.07	110.01
650.21	53.83
650.36	7.02
650.51	21.06
650.65	4.68
650.80	35.11
650.94	28.09
651.09	51.49
651.23	0.00
651.38	0.00
651.52	42.13
651.67	0.00
651.81	46.81
651.96	7.02
652.10	60.85
652.25	4.68
652.39	2.34
652.54	46.81
652.68	4.68
652.83	11.70
652.97	0.00
653.12	39.79
653.26	51.49
653.41	0.00
653.55	28.09
653.70	100.64
653.84	0.00
653.99	0.00
654.13	25.75
654.27	30.43
654.42	39.79
654.56	32.77
654.71	86.60
654.85	60.85
655.00	0.00
655.14	58.51
655.29	105.32
655.43	0.00
655.57	51.49
655.72	18.72
655.86	2.34
656.01	2.34
656.15	0.00
656.30	58.51
656.44	0.00
656.58	11.70
656.73	37.45
656.87	74.90
657.01	126.39
657.16	100.64
657.30	35.11
657.45	51.49
657.59	32.77
657.73	42.13
657.88	84.26
658.02	16.38
658.16	63.19
658.31	0.00
658.45	65.54
658.60	35.11
658.74	98.30
658.88	25.75
659.03	25.75
659.17	37.45
659.31	30.43
659.46	30.43
659.60	49.15
659.74	25.75
659.89	18.72
660.03	35.11
660.17	18.72
660.32	53.83
660.46	65.54
660.60	0.00
660.74	2.34
660.89	0.00
661.03	58.51
661.17	60.85
661.32	21.06
661.46	35.11
661.60	28.09
661.74	25.75
661.89	65.54
662.03	51.49
662.17	18.72
662.31	35.11
662.46	0.00
662.60	72.56
662.74	60.85
662.88	37.45
663.03	0.00
663.17	0.00
663.31	9.36
663.45	35.11
663.60	2.34
663.74	74.90
663.88	0.00
664.02	84.26
664.17	91.28
664.31	44.47
664.45	30.43
664.59	58.51
664.73	93.62
664.88	84.26
665.02	53.83
665.16	100.64
665.30	46.81
665.44	39.79
665.59	42.13
665.73	63.19
665.87	18.72
666.01	7.02
666.15	30.43
666.29	14.04
666.44	37.45
666.58	39.79
666.72	56.17
666.86	46.81
667.00	28.09
667.14	0.00
667.28	18.72
667.43	65.54
667.57	63.19
667.71	28.09
667.85	53.83
667.99	32.77
668.13	0.00
668.27	28.09
668.41	37.45
668.56	58.51
668.70	14.04
668.84	0.00
668.98	0.00
669.12	35.11
669.26	0.00
669.40	49.15
669.54	28.09
669.68	72.56
669.82	39.79
669.96	0.00
670.10	7.02
670.25	37.45
670.39	0.00
670.53	4.68
670.67	0.00
670.81	0.00
670.95	0.00
671.09	25.75
671.23	28.09
671.37	42.13
671.51	9.36
671.65	14.04
671.79	51.49
671.93	25.75
672.07	37.45
672.21	44.47
672.35	53.83
672.49	58.51
672.63	39.79
672.77	100.64
672.91	79.58
673.05	4.68
673.19	0.00
673.33	65.54
673.47	21.06
673.61	42.13
673.75	98.30
673.89	0.00
674.03	65.54
674.17	67.88
674.31	60.85
674.45	23.41
674.59	23.41
674.73	81.92
674.87	56.17
675.01	42.13
675.15	56.17
675.29	16.38
675.43	0.00
675.56	72.56
675.70	9.36
675.84	37.45
675.98	72.56
676.12	72.56
676.26	51.49
676.40	46.81
676.54	2.34
676.68	0.00
676.82	72.56
676.96	18.72
677.10	46.81
677.23	23.41
677.37	0.00
677.51	0.00
677.65	49.15
677.79	0.00
677.93	9.36
678.07	37.45
678.21	0.00
678.34	0.00
678.48	35.11
678.62	0.00
678.76	16.38
678.90	56.17
679.04	18.72
679.18	18.72
679.31	0.00
679.45	23.41
679.59	0.00
679.73	88.94
679.87	9.36
680.00	35.11
680.14	35.11
680.28	16.38
680.42	42.13
680.56	79.58
680.70	0.00
680.83	23.41
680.97	30.43
681.11	51.49
681.25	42.13
681.39	56.17
681.52	9.36
681.66	42.13
681.80	100.64
681.94	9.36
682.07	0.00
682.21	23.41
682.35	18.72
682.49	32.77
682.62	14.04
682.76	16.38
682.90	0.00
683.04	32.77
683.17	32.77
683.31	25.75
683.45	154.48
683.59	58.51
683.72	67.88
683.86	18.72
684.00	88.94
684.13	9.36
684.27	35.11
684.41	72.56
684.55	84.26
684.68	42.13
684.82	74.90
684.96	46.81
685.09	0.00
685.23	28.09
685.37	100.64
685.50	91.28
685.64	30.43
685.78	21.06
685.91	77.24
686.05	67.88
686.19	0.00
686.32	0.00
686.46	65.54
686.60	32.77
686.73	37.45
686.87	0.00
687.01	21.06
687.14	65.54
687.28	0.00
687.42	18.72
687.55	21.06
687.69	86.60
687.82	56.17
687.96	0.00
688.10	58.51
688.23	23.41
688.37	0.00
688.50	0.00
688.64	42.13
688.78	49.15
688.91	30.43
689.05	30.43
689.18	16.38
689.32	0.00
689.46	0.00
689.59	0.00
689.73	28.09
689.86	0.00
690.00	21.06
690.13	30.43
690.27	72.56
690.41	32.77
690.54	0.00
690.68	28.09
690.81	0.00
690.95	21.06
691.08	35.11
691.22	98.30
691.35	11.70
691.49	0.00
691.62	28.09
691.76	46.81
691.89	23.41
692.03	0.00
692.16	0.00
692.30	56.17
692.43	35.11
692.57	53.83
692.70	35.11
692.84	102.98
692.97	18.72
693.11	37.45
693.24	49.15
693.38	21.06
693.51	35.11
693.65	11.70
693.78	79.58
693.92	37.45
694.05	28.09
694.19	9.36
694.32	0.00
694.45	9.36
694.59	18.72
694.72	74.90
694.86	9.36
694.99	81.92
695.13	7.02
695.26	0.00
695.39	0.00
695.53	44.47
695.66	4.68
695.80	65.54
695.93	0.00
696.07	0.00
696.20	16.38
696.33	42.13
696.47	0.00
696.60	28.09
696.73	0.00
696.87	49.15
697.00	105.32
697.14	63.19
697.27	46.81
697.40	51.49
697.54	56.17
697.67	63.19
697.80	53.83
697.94	18.72
698.07	28.09
698.21	0.00
698.34	0.00
698.47	49.15
698.61	58.51
698.74	105.32
698.87	0.00
699.01	18.72
699.14	49.15
699.27	7.02
699.40	56.17
699.54	25.75
699.67	58.51
699.80	2.34
699.94	16.38
700.07	28.09
700.20	105.32
700.34	51.49
700.47	0.00
700.60	16.38
700.73	51.49
700.87	60.85
701.00	72.56
701.13	51.49
701.26	11.70
701.40	65.54
701.53	18.72
701.66	88.94
701.79	81.92
701.93	0.00
702.06	18.72
702.19	60.85
702.32	28.09
702.46	0.00
702.59	53.83
702.72	53.83
702.85	39.79
702.99	0.00
703.12	0.00
703.25	16.38
703.38	0.00
703.51	51.49
703.65	0.00
703.78	28.09
703.91	51.49
704.04	21.06
704.17	72.56
704.31	91.28
704.44	58.51
704.57	0.00
704.70	44.47
704.83	35.11
704.96	42.13
705.10	51.49
705.23	107.66
>>>>>End Processed Spectral Data<<<<<
