SpectraSuite Data File
++++++++++++++++++++++++++++++++++++
Date: Fri Oct 04 12:13:24 GMT-05:00 2013
User: price-jones
Dark Spectrum Present: No
Reference Spectrum Present: No
Number of Sampled Component Spectra: 1
Spectrometers: USB2+H05261
Integration Time (usec): 10000 (USB2+H05261)
Spectra Averaged: 1 (USB2+H05261)
Boxcar Smoothing: 0 (USB2+H05261)
Correct for Electrical Dark: No (USB2+H05261)
Strobe/Lamp Enabled: No (USB2+H05261)
Correct for Detector Non-linearity: No (USB2+H05261)
Correct for Stray Light: No (USB2+H05261)
Number of Pixels in Processed Spectrum: 2048
>>>>>Begin Processed Spectral Data<<<<<
365.73	0.00
365.92	0.00
366.12	0.00
366.32	0.00
366.52	0.00
366.72	0.00
366.91	0.00
367.11	0.00
367.31	0.00
367.51	0.00
367.70	0.00
367.90	0.00
368.10	0.00
368.30	0.00
368.49	0.00
368.69	0.00
368.89	0.00
369.09	0.00
369.28	0.00
369.48	0.00
369.68	0.00
369.87	0.00
370.07	0.00
370.27	0.00
370.47	0.00
370.66	0.00
370.86	0.00
371.06	0.00
371.25	0.00
371.45	0.00
371.65	16.38
371.84	0.00
372.04	0.00
372.24	0.00
372.44	23.41
372.63	37.45
372.83	0.00
373.03	0.00
373.22	28.09
373.42	0.00
373.62	30.43
373.81	42.13
374.01	60.85
374.21	53.83
374.40	9.36
374.60	63.19
374.79	9.36
374.99	0.00
375.19	39.79
375.38	32.77
375.58	35.11
375.78	37.45
375.97	42.13
376.17	30.43
376.37	30.43
376.56	44.47
376.76	0.00
376.95	0.00
377.15	100.64
377.35	58.51
377.54	58.51
377.74	0.00
377.93	0.00
378.13	0.00
378.33	0.00
378.52	11.70
378.72	16.38
378.91	0.00
379.11	0.00
379.31	4.68
379.50	65.54
379.70	0.00
379.89	0.00
380.09	21.06
380.28	67.88
380.48	46.81
380.68	51.49
380.87	60.85
381.07	7.02
381.26	46.81
381.46	39.79
381.65	60.85
381.85	77.24
382.04	100.64
382.24	11.70
382.43	9.36
382.63	0.00
382.83	16.38
383.02	39.79
383.22	53.83
383.41	23.41
383.61	0.00
383.80	70.22
384.00	2.34
384.19	0.00
384.39	32.77
384.58	32.77
384.78	58.51
384.97	14.04
385.17	0.00
385.36	0.00
385.56	56.17
385.75	32.77
385.95	0.00
386.14	0.00
386.34	0.00
386.53	0.00
386.72	21.06
386.92	0.00
387.11	0.00
387.31	32.77
387.50	0.00
387.70	9.36
387.89	4.68
388.09	0.00
388.28	44.47
388.48	28.09
388.67	0.00
388.86	30.43
389.06	37.45
389.25	65.54
389.45	49.15
389.64	0.00
389.84	44.47
390.03	28.09
390.22	0.00
390.42	0.00
390.61	7.02
390.81	91.28
391.00	0.00
391.19	60.85
391.39	11.70
391.58	0.00
391.78	0.00
391.97	18.72
392.16	11.70
392.36	72.56
392.55	28.09
392.75	30.43
392.94	0.00
393.13	42.13
393.33	0.00
393.52	18.72
393.71	0.00
393.91	105.32
394.10	86.60
394.29	2.34
394.49	0.00
394.68	0.00
394.88	107.66
395.07	14.04
395.26	74.90
395.46	7.02
395.65	49.15
395.84	2.34
396.04	51.49
396.23	0.00
396.42	0.00
396.62	16.38
396.81	91.28
397.00	18.72
397.19	67.88
397.39	77.24
397.58	39.79
397.77	7.02
397.97	2.34
398.16	98.30
398.35	0.00
398.55	74.90
398.74	0.00
398.93	60.85
399.12	53.83
399.32	9.36
399.51	9.36
399.70	0.00
399.90	0.00
400.09	0.00
400.28	30.43
400.47	28.09
400.67	18.72
400.86	53.83
401.05	65.54
401.24	21.06
401.44	21.06
401.63	46.81
401.82	30.43
402.01	4.68
402.21	11.70
402.40	4.68
402.59	0.00
402.78	91.28
402.97	0.00
403.17	0.00
403.36	39.79
403.55	28.09
403.74	79.58
403.93	32.77
404.13	60.85
404.32	28.09
404.51	18.72
404.70	0.00
404.89	0.00
405.09	35.11
405.28	65.54
405.47	0.00
405.66	7.02
405.85	88.94
406.05	4.68
406.24	35.11
406.43	11.70
406.62	0.00
406.81	25.75
407.00	67.88
407.20	0.00
407.39	0.00
407.58	9.36
407.77	46.81
407.96	0.00
408.15	56.17
408.34	7.02
408.54	67.88
408.73	53.83
408.92	0.00
409.11	0.00
409.30	30.43
409.49	21.06
409.68	35.11
409.87	7.02
410.07	60.85
410.26	0.00
410.45	0.00
410.64	51.49
410.83	81.92
411.02	65.54
411.21	28.09
411.40	53.83
411.59	58.51
411.78	0.00
411.98	39.79
412.17	56.17
412.36	0.00
412.55	32.77
412.74	91.28
412.93	2.34
413.12	9.36
413.31	0.00
413.50	4.68
413.69	65.54
413.88	37.45
414.07	0.00
414.26	0.00
414.45	88.94
414.64	39.79
414.83	86.60
415.02	37.45
415.22	53.83
415.41	7.02
415.60	58.51
415.79	0.00
415.98	0.00
416.17	30.43
416.36	35.11
416.55	0.00
416.74	42.13
416.93	0.00
417.12	74.90
417.31	23.41
417.50	4.68
417.69	23.41
417.88	0.00
418.07	16.38
418.26	0.00
418.45	0.00
418.64	16.38
418.83	60.85
419.02	60.85
419.21	74.90
419.39	175.54
419.58	30.43
419.77	32.77
419.96	0.00
420.15	0.00
420.34	86.60
420.53	46.81
420.72	11.70
420.91	39.79
421.10	35.11
421.29	51.49
421.48	39.79
421.67	74.90
421.86	53.83
422.05	100.64
422.24	0.00
422.43	9.36
422.61	72.56
422.80	0.00
422.99	4.68
423.18	0.00
423.37	32.77
423.56	35.11
423.75	79.58
423.94	32.77
424.13	21.06
424.32	2.34
424.50	0.00
424.69	37.45
424.88	60.85
425.07	0.00
425.26	9.36
425.45	39.79
425.64	37.45
425.83	49.15
426.01	0.00
426.20	53.83
426.39	44.47
426.58	37.45
426.77	21.06
426.96	0.00
427.15	67.88
427.33	25.75
427.52	42.13
427.71	30.43
427.90	30.43
428.09	0.00
428.28	58.51
428.46	0.00
428.65	60.85
428.84	72.56
429.03	0.00
429.22	0.00
429.40	39.79
429.59	9.36
429.78	14.04
429.97	67.88
430.16	0.00
430.34	32.77
430.53	2.34
430.72	7.02
430.91	0.00
431.10	0.00
431.28	32.77
431.47	14.04
431.66	23.41
431.85	28.09
432.03	2.34
432.22	0.00
432.41	0.00
432.60	0.00
432.79	44.47
432.97	74.90
433.16	67.88
433.35	0.00
433.54	11.70
433.72	37.45
433.91	49.15
434.10	30.43
434.28	23.41
434.47	58.51
434.66	2.34
434.85	0.00
435.03	35.11
435.22	58.51
435.41	70.22
435.59	21.06
435.78	18.72
435.97	14.04
436.16	67.88
436.34	60.85
436.53	84.26
436.72	14.04
436.90	39.79
437.09	11.70
437.28	60.85
437.46	37.45
437.65	18.72
437.84	4.68
438.02	37.45
438.21	0.00
438.40	0.00
438.58	23.41
438.77	32.77
438.96	42.13
439.14	0.00
439.33	72.56
439.52	46.81
439.70	21.06
439.89	4.68
440.08	0.00
440.26	32.77
440.45	58.51
440.63	0.00
440.82	84.26
441.01	72.56
441.19	0.00
441.38	28.09
441.57	58.51
441.75	56.17
441.94	0.00
442.12	58.51
442.31	18.72
442.50	0.00
442.68	0.00
442.87	0.00
443.05	67.88
443.24	58.51
443.43	88.94
443.61	44.47
443.80	0.00
443.98	28.09
444.17	0.00
444.35	65.54
444.54	0.00
444.73	0.00
444.91	21.06
445.10	42.13
445.28	42.13
445.47	63.19
445.65	28.09
445.84	44.47
446.02	53.83
446.21	0.00
446.39	56.17
446.58	70.22
446.77	2.34
446.95	7.02
447.14	58.51
447.32	2.34
447.51	91.28
447.69	0.00
447.88	37.45
448.06	51.49
448.25	7.02
448.43	21.06
448.62	72.56
448.80	35.11
448.99	49.15
449.17	58.51
449.36	37.45
449.54	42.13
449.73	0.00
449.91	37.45
450.10	9.36
450.28	53.83
450.46	0.00
450.65	0.00
450.83	35.11
451.02	74.90
451.20	79.58
451.39	25.75
451.57	0.00
451.76	35.11
451.94	0.00
452.13	70.22
452.31	25.75
452.49	0.00
452.68	18.72
452.86	16.38
453.05	44.47
453.23	74.90
453.42	60.85
453.60	119.37
453.78	67.88
453.97	53.83
454.15	4.68
454.34	67.88
454.52	42.13
454.70	18.72
454.89	126.39
455.07	72.56
455.26	79.58
455.44	0.00
455.62	0.00
455.81	58.51
455.99	65.54
456.17	28.09
456.36	70.22
456.54	0.00
456.73	16.38
456.91	9.36
457.09	25.75
457.28	147.45
457.46	25.75
457.64	18.72
457.83	30.43
458.01	30.43
458.19	0.00
458.38	25.75
458.56	32.77
458.74	2.34
458.93	14.04
459.11	70.22
459.29	39.79
459.48	32.77
459.66	39.79
459.84	37.45
460.03	65.54
460.21	42.13
460.39	28.09
460.57	0.00
460.76	30.43
460.94	46.81
461.12	21.06
461.31	53.83
461.49	32.77
461.67	60.85
461.85	49.15
462.04	72.56
462.22	86.60
462.40	65.54
462.59	79.58
462.77	0.00
462.95	65.54
463.13	58.51
463.32	25.75
463.50	46.81
463.68	74.90
463.86	107.66
464.05	84.26
464.23	23.41
464.41	88.94
464.59	0.00
464.78	58.51
464.96	86.60
465.14	46.81
465.32	84.26
465.50	28.09
465.69	9.36
465.87	9.36
466.05	102.98
466.23	28.09
466.41	32.77
466.60	2.34
466.78	30.43
466.96	53.83
467.14	0.00
467.32	11.70
467.51	51.49
467.69	37.45
467.87	102.98
468.05	16.38
468.23	46.81
468.41	93.62
468.60	39.79
468.78	14.04
468.96	77.24
469.14	93.62
469.32	56.17
469.50	81.92
469.69	46.81
469.87	0.00
470.05	0.00
470.23	37.45
470.41	49.15
470.59	0.00
470.77	56.17
470.95	51.49
471.14	81.92
471.32	16.38
471.50	58.51
471.68	4.68
471.86	72.56
472.04	16.38
472.22	0.00
472.40	42.13
472.58	25.75
472.77	28.09
472.95	42.13
473.13	93.62
473.31	100.64
473.49	128.73
473.67	70.22
473.85	65.54
474.03	37.45
474.21	0.00
474.39	72.56
474.57	51.49
474.75	39.79
474.93	7.02
475.12	11.70
475.30	79.58
475.48	14.04
475.66	30.43
475.84	18.72
476.02	114.69
476.20	88.94
476.38	9.36
476.56	7.02
476.74	16.38
476.92	0.00
477.10	4.68
477.28	37.45
477.46	14.04
477.64	7.02
477.82	16.38
478.00	77.24
478.18	98.30
478.36	7.02
478.54	58.51
478.72	9.36
478.90	70.22
479.08	32.77
479.26	16.38
479.44	0.00
479.62	18.72
479.80	14.04
479.98	0.00
480.16	37.45
480.34	58.51
480.52	93.62
480.70	0.00
480.88	11.70
481.06	88.94
481.24	65.54
481.41	0.00
481.59	18.72
481.77	84.26
481.95	63.19
482.13	51.49
482.31	79.58
482.49	117.03
482.67	51.49
482.85	124.05
483.03	16.38
483.21	0.00
483.39	81.92
483.57	25.75
483.74	58.51
483.92	74.90
484.10	35.11
484.28	56.17
484.46	49.15
484.64	11.70
484.82	0.00
485.00	42.13
485.18	105.32
485.35	0.00
485.53	70.22
485.71	60.85
485.89	11.70
486.07	2.34
486.25	39.79
486.43	28.09
486.61	32.77
486.78	70.22
486.96	44.47
487.14	77.24
487.32	25.75
487.50	58.51
487.68	63.19
487.85	49.15
488.03	91.28
488.21	49.15
488.39	21.06
488.57	0.00
488.75	2.34
488.92	60.85
489.10	44.47
489.28	37.45
489.46	107.66
489.64	11.70
489.81	32.77
489.99	0.00
490.17	0.00
490.35	93.62
490.53	60.85
490.70	51.49
490.88	46.81
491.06	35.11
491.24	46.81
491.41	60.85
491.59	42.13
491.77	21.06
491.95	39.79
492.13	0.00
492.30	4.68
492.48	0.00
492.66	84.26
492.84	0.00
493.01	9.36
493.19	28.09
493.37	16.38
493.54	21.06
493.72	14.04
493.90	30.43
494.08	42.13
494.25	23.41
494.43	9.36
494.61	28.09
494.79	67.88
494.96	70.22
495.14	0.00
495.32	56.17
495.49	0.00
495.67	65.54
495.85	46.81
496.02	35.11
496.20	23.41
496.38	72.56
496.55	39.79
496.73	60.85
496.91	0.00
497.09	77.24
497.26	9.36
497.44	16.38
497.62	25.75
497.79	67.88
497.97	30.43
498.14	67.88
498.32	11.70
498.50	42.13
498.67	46.81
498.85	79.58
499.03	91.28
499.20	14.04
499.38	2.34
499.56	74.90
499.73	39.79
499.91	49.15
500.08	56.17
500.26	25.75
500.44	0.00
500.61	88.94
500.79	63.19
500.97	70.22
501.14	46.81
501.32	79.58
501.49	56.17
501.67	4.68
501.84	56.17
502.02	65.54
502.20	105.32
502.37	9.36
502.55	2.34
502.72	98.30
502.90	42.13
503.07	23.41
503.25	60.85
503.43	7.02
503.60	44.47
503.78	30.43
503.95	18.72
504.13	9.36
504.30	70.22
504.48	95.96
504.65	46.81
504.83	28.09
505.01	53.83
505.18	81.92
505.36	21.06
505.53	0.00
505.71	88.94
505.88	42.13
506.06	30.43
506.23	0.00
506.41	21.06
506.58	25.75
506.76	88.94
506.93	63.19
507.11	42.13
507.28	18.72
507.46	58.51
507.63	93.62
507.81	67.88
507.98	14.04
508.16	86.60
508.33	18.72
508.50	86.60
508.68	21.06
508.85	7.02
509.03	30.43
509.20	53.83
509.38	23.41
509.55	7.02
509.73	25.75
509.90	58.51
510.08	119.37
510.25	25.75
510.42	35.11
510.60	32.77
510.77	88.94
510.95	42.13
511.12	9.36
511.30	44.47
511.47	95.96
511.64	4.68
511.82	30.43
511.99	11.70
512.17	51.49
512.34	0.00
512.51	25.75
512.69	9.36
512.86	37.45
513.04	86.60
513.21	0.00
513.38	0.00
513.56	53.83
513.73	0.00
513.90	0.00
514.08	53.83
514.25	0.00
514.43	25.75
514.60	16.38
514.77	49.15
514.95	4.68
515.12	7.02
515.29	0.00
515.47	91.28
515.64	88.94
515.81	100.64
515.99	63.19
516.16	84.26
516.33	4.68
516.51	39.79
516.68	63.19
516.85	9.36
517.03	21.06
517.20	16.38
517.37	25.75
517.54	30.43
517.72	18.72
517.89	65.54
518.06	0.00
518.24	0.00
518.41	44.47
518.58	18.72
518.75	14.04
518.93	4.68
519.10	60.85
519.27	37.45
519.45	0.00
519.62	65.54
519.79	72.56
519.96	0.00
520.14	46.81
520.31	65.54
520.48	65.54
520.65	23.41
520.83	56.17
521.00	72.56
521.17	37.45
521.34	81.92
521.52	51.49
521.69	67.88
521.86	100.64
522.03	9.36
522.20	7.02
522.38	7.02
522.55	9.36
522.72	23.41
522.89	37.45
523.07	100.64
523.24	56.17
523.41	72.56
523.58	51.49
523.75	0.00
523.92	0.00
524.10	32.77
524.27	21.06
524.44	0.00
524.61	86.60
524.78	133.41
524.96	51.49
525.13	0.00
525.30	49.15
525.47	112.35
525.64	42.13
525.81	93.62
525.98	7.02
526.16	39.79
526.33	49.15
526.50	23.41
526.67	81.92
526.84	51.49
527.01	35.11
527.18	0.00
527.36	112.35
527.53	70.22
527.70	93.62
527.87	105.32
528.04	42.13
528.21	77.24
528.38	100.64
528.55	74.90
528.72	0.00
528.89	30.43
529.07	18.72
529.24	18.72
529.41	39.79
529.58	53.83
529.75	58.51
529.92	63.19
530.09	16.38
530.26	46.81
530.43	7.02
530.60	0.00
530.77	0.00
530.94	63.19
531.11	16.38
531.28	42.13
531.46	23.41
531.63	79.58
531.80	35.11
531.97	95.96
532.14	37.45
532.31	32.77
532.48	0.00
532.65	152.13
532.82	25.75
532.99	9.36
533.16	100.64
533.33	21.06
533.50	0.00
533.67	42.13
533.84	51.49
534.01	14.04
534.18	117.03
534.35	21.06
534.52	30.43
534.69	28.09
534.86	56.17
535.03	0.00
535.20	25.75
535.37	2.34
535.54	63.19
535.71	4.68
535.88	0.00
536.05	51.49
536.22	35.11
536.38	16.38
536.55	77.24
536.72	16.38
536.89	110.01
537.06	79.58
537.23	0.00
537.40	60.85
537.57	51.49
537.74	56.17
537.91	58.51
538.08	14.04
538.25	86.60
538.42	84.26
538.59	0.00
538.75	0.00
538.92	49.15
539.09	0.00
539.26	37.45
539.43	49.15
539.60	121.71
539.77	37.45
539.94	0.00
540.11	0.00
540.28	49.15
540.44	4.68
540.61	0.00
540.78	0.00
540.95	0.00
541.12	0.00
541.29	88.94
541.46	65.54
541.62	14.04
541.79	46.81
541.96	107.66
542.13	91.28
542.30	25.75
542.47	53.83
542.63	18.72
542.80	53.83
542.97	0.00
543.14	91.28
543.31	60.85
543.48	0.00
543.64	0.00
543.81	79.58
543.98	25.75
544.15	39.79
544.32	0.00
544.48	4.68
544.65	58.51
544.82	16.38
544.99	37.45
545.16	49.15
545.32	46.81
545.49	0.00
545.66	44.47
545.83	18.72
546.00	23.41
546.16	58.51
546.33	23.41
546.50	7.02
546.67	58.51
546.83	21.06
547.00	53.83
547.17	39.79
547.34	28.09
547.50	53.83
547.67	42.13
547.84	77.24
548.00	0.00
548.17	58.51
548.34	18.72
548.51	86.60
548.67	11.70
548.84	0.00
549.01	0.00
549.18	56.17
549.34	65.54
549.51	51.49
549.68	67.88
549.84	23.41
550.01	60.85
550.18	0.00
550.34	32.77
550.51	56.17
550.68	67.88
550.84	88.94
551.01	77.24
551.18	105.32
551.34	18.72
551.51	7.02
551.68	39.79
551.84	84.26
552.01	32.77
552.18	51.49
552.34	79.58
552.51	0.00
552.68	60.85
552.84	44.47
553.01	46.81
553.18	70.22
553.34	79.58
553.51	74.90
553.67	35.11
553.84	16.38
554.01	35.11
554.17	0.00
554.34	28.09
554.51	56.17
554.67	42.13
554.84	51.49
555.00	51.49
555.17	70.22
555.33	56.17
555.50	56.17
555.67	95.96
555.83	42.13
556.00	37.45
556.16	79.58
556.33	49.15
556.50	21.06
556.66	23.41
556.83	0.00
556.99	74.90
557.16	16.38
557.32	0.00
557.49	18.72
557.65	51.49
557.82	58.51
557.98	0.00
558.15	30.43
558.32	0.00
558.48	39.79
558.65	37.45
558.81	58.51
558.98	86.60
559.14	79.58
559.31	95.96
559.47	46.81
559.64	32.77
559.80	56.17
559.97	0.00
560.13	46.81
560.30	0.00
560.46	0.00
560.63	30.43
560.79	16.38
560.96	44.47
561.12	0.00
561.29	63.19
561.45	32.77
561.61	0.00
561.78	14.04
561.94	0.00
562.11	11.70
562.27	117.03
562.44	21.06
562.60	105.32
562.77	25.75
562.93	28.09
563.10	28.09
563.26	46.81
563.42	0.00
563.59	25.75
563.75	56.17
563.92	32.77
564.08	77.24
564.24	63.19
564.41	11.70
564.57	88.94
564.74	21.06
564.90	30.43
565.07	0.00
565.23	53.83
565.39	30.43
565.56	2.34
565.72	0.00
565.88	4.68
566.05	126.39
566.21	35.11
566.38	95.96
566.54	79.58
566.70	32.77
566.87	0.00
567.03	0.00
567.19	53.83
567.36	23.41
567.52	30.43
567.68	58.51
567.85	44.47
568.01	21.06
568.17	23.41
568.34	60.85
568.50	95.96
568.66	51.49
568.83	58.51
568.99	0.00
569.15	4.68
569.32	91.28
569.48	53.83
569.64	65.54
569.81	39.79
569.97	74.90
570.13	39.79
570.30	53.83
570.46	65.54
570.62	46.81
570.78	46.81
570.95	28.09
571.11	81.92
571.27	39.79
571.43	25.75
571.60	32.77
571.76	0.00
571.92	4.68
572.09	93.62
572.25	18.72
572.41	112.35
572.57	102.98
572.74	79.58
572.90	49.15
573.06	49.15
573.22	39.79
573.38	86.60
573.55	25.75
573.71	0.00
573.87	74.90
574.03	37.45
574.20	28.09
574.36	51.49
574.52	14.04
574.68	0.00
574.84	72.56
575.01	32.77
575.17	11.70
575.33	14.04
575.49	0.00
575.65	114.69
575.82	14.04
575.98	0.00
576.14	44.47
576.30	74.90
576.46	49.15
576.62	16.38
576.79	65.54
576.95	2.34
577.11	88.94
577.27	21.06
577.43	16.38
577.59	35.11
577.75	18.72
577.92	70.22
578.08	25.75
578.24	7.02
578.40	72.56
578.56	4.68
578.72	25.75
578.88	0.00
579.04	2.34
579.21	21.06
579.37	72.56
579.53	105.32
579.69	110.01
579.85	0.00
580.01	70.22
580.17	51.49
580.33	124.05
580.49	37.45
580.65	42.13
580.82	51.49
580.98	58.51
581.14	16.38
581.30	74.90
581.46	91.28
581.62	51.49
581.78	81.92
581.94	44.47
582.10	46.81
582.26	0.00
582.42	44.47
582.58	58.51
582.74	4.68
582.90	49.15
583.06	21.06
583.22	49.15
583.38	49.15
583.54	95.96
583.70	100.64
583.86	56.17
584.02	0.00
584.18	86.60
584.34	65.54
584.50	0.00
584.66	35.11
584.82	60.85
584.98	65.54
585.14	9.36
585.30	56.17
585.46	2.34
585.62	81.92
585.78	156.82
585.94	49.15
586.10	0.00
586.26	53.83
586.42	14.04
586.58	79.58
586.74	23.41
586.90	67.88
587.06	98.30
587.22	30.43
587.38	39.79
587.54	65.54
587.70	77.24
587.86	9.36
588.02	114.69
588.18	0.00
588.34	35.11
588.49	105.32
588.65	46.81
588.81	4.68
588.97	30.43
589.13	21.06
589.29	0.00
589.45	7.02
589.61	79.58
589.77	77.24
589.93	72.56
590.08	30.43
590.24	74.90
590.40	0.00
590.56	70.22
590.72	67.88
590.88	0.00
591.04	105.32
591.20	0.00
591.35	44.47
591.51	77.24
591.67	0.00
591.83	39.79
591.99	28.09
592.15	0.00
592.31	16.38
592.46	14.04
592.62	14.04
592.78	51.49
592.94	63.19
593.10	112.35
593.26	35.11
593.41	39.79
593.57	42.13
593.73	0.00
593.89	53.83
594.05	46.81
594.20	9.36
594.36	67.88
594.52	28.09
594.68	39.79
594.84	49.15
594.99	0.00
595.15	58.51
595.31	70.22
595.47	21.06
595.62	32.77
595.78	58.51
595.94	72.56
596.10	35.11
596.25	81.92
596.41	0.00
596.57	0.00
596.73	86.60
596.88	107.66
597.04	18.72
597.20	42.13
597.36	110.01
597.51	51.49
597.67	63.19
597.83	84.26
597.99	46.81
598.14	37.45
598.30	86.60
598.46	53.83
598.61	84.26
598.77	93.62
598.93	23.41
599.09	60.85
599.24	0.00
599.40	16.38
599.56	121.71
599.71	67.88
599.87	0.00
600.03	44.47
600.18	0.00
600.34	23.41
600.50	44.47
600.65	18.72
600.81	35.11
600.97	77.24
601.12	0.00
601.28	53.83
601.44	30.43
601.59	72.56
601.75	53.83
601.91	39.79
602.06	32.77
602.22	77.24
602.37	53.83
602.53	37.45
602.69	11.70
602.84	2.34
603.00	25.75
603.16	21.06
603.31	46.81
603.47	16.38
603.62	70.22
603.78	60.85
603.94	0.00
604.09	18.72
604.25	0.00
604.40	67.88
604.56	21.06
604.71	0.00
604.87	60.85
605.03	25.75
605.18	37.45
605.34	32.77
605.49	0.00
605.65	44.47
605.80	46.81
605.96	28.09
606.12	14.04
606.27	7.02
606.43	46.81
606.58	4.68
606.74	0.00
606.89	65.54
607.05	42.13
607.20	56.17
607.36	67.88
607.51	7.02
607.67	95.96
607.82	58.51
607.98	44.47
608.13	67.88
608.29	63.19
608.44	9.36
608.60	23.41
608.75	63.19
608.91	58.51
609.06	0.00
609.22	86.60
609.37	32.77
609.53	28.09
609.68	0.00
609.84	63.19
609.99	14.04
610.15	65.54
610.30	84.26
610.46	0.00
610.61	84.26
610.76	25.75
610.92	0.00
611.07	4.68
611.23	77.24
611.38	28.09
611.54	53.83
611.69	23.41
611.84	63.19
612.00	53.83
612.15	0.00
612.31	98.30
612.46	4.68
612.62	60.85
612.77	95.96
612.92	0.00
613.08	2.34
613.23	65.54
613.39	0.00
613.54	0.00
613.69	79.58
613.85	79.58
614.00	25.75
614.15	37.45
614.31	0.00
614.46	46.81
614.62	35.11
614.77	46.81
614.92	60.85
615.08	42.13
615.23	14.04
615.38	0.00
615.54	0.00
615.69	102.98
615.84	28.09
616.00	56.17
616.15	56.17
616.30	11.70
616.46	18.72
616.61	0.00
616.76	35.11
616.92	65.54
617.07	7.02
617.22	46.81
617.37	2.34
617.53	84.26
617.68	0.00
617.83	60.85
617.99	30.43
618.14	28.09
618.29	25.75
618.45	53.83
618.60	2.34
618.75	114.69
618.90	67.88
619.06	84.26
619.21	49.15
619.36	86.60
619.51	18.72
619.67	25.75
619.82	25.75
619.97	0.00
620.12	30.43
620.28	4.68
620.43	25.75
620.58	25.75
620.73	16.38
620.89	65.54
621.04	81.92
621.19	35.11
621.34	84.26
621.49	42.13
621.65	35.11
621.80	0.00
621.95	0.00
622.10	18.72
622.25	0.00
622.41	25.75
622.56	46.81
622.71	30.43
622.86	114.69
623.01	44.47
623.16	0.00
623.32	0.00
623.47	18.72
623.62	0.00
623.77	46.81
623.92	0.00
624.07	11.70
624.23	23.41
624.38	0.00
624.53	4.68
624.68	56.17
624.83	63.19
624.98	0.00
625.13	9.36
625.29	58.51
625.44	42.13
625.59	77.24
625.74	79.58
625.89	21.06
626.04	100.64
626.19	0.00
626.34	0.00
626.49	77.24
626.65	79.58
626.80	42.13
626.95	0.00
627.10	35.11
627.25	56.17
627.40	4.68
627.55	74.90
627.70	102.98
627.85	42.13
628.00	58.51
628.15	0.00
628.30	0.00
628.45	60.85
628.60	0.00
628.76	0.00
628.91	95.96
629.06	46.81
629.21	0.00
629.36	65.54
629.51	51.49
629.66	67.88
629.81	91.28
629.96	53.83
630.11	25.75
630.26	60.85
630.41	58.51
630.56	81.92
630.71	23.41
630.86	107.66
631.01	0.00
631.16	86.60
631.31	121.71
631.46	42.13
631.61	25.75
631.76	0.00
631.91	65.54
632.06	65.54
632.21	21.06
632.36	0.00
632.51	95.96
632.66	4.68
632.81	58.51
632.96	81.92
633.10	0.00
633.25	32.77
633.40	16.38
633.55	74.90
633.70	51.49
633.85	74.90
634.00	67.88
634.15	0.00
634.30	49.15
634.45	63.19
634.60	11.70
634.75	11.70
634.90	23.41
635.05	58.51
635.19	0.00
635.34	23.41
635.49	81.92
635.64	4.68
635.79	0.00
635.94	110.01
636.09	44.47
636.24	0.00
636.39	67.88
636.53	74.90
636.68	16.38
636.83	0.00
636.98	77.24
637.13	65.54
637.28	4.68
637.43	67.88
637.57	0.00
637.72	25.75
637.87	91.28
638.02	14.04
638.17	56.17
638.32	53.83
638.46	4.68
638.61	49.15
638.76	58.51
638.91	0.00
639.06	21.06
639.20	42.13
639.35	11.70
639.50	30.43
639.65	21.06
639.80	7.02
639.94	0.00
640.09	0.00
640.24	53.83
640.39	58.51
640.54	95.96
640.68	0.00
640.83	119.37
640.98	70.22
641.13	14.04
641.27	0.00
641.42	14.04
641.57	70.22
641.72	0.00
641.86	16.38
642.01	18.72
642.16	102.98
642.31	23.41
642.45	0.00
642.60	110.01
642.75	42.13
642.90	70.22
643.04	58.51
643.19	0.00
643.34	63.19
643.48	37.45
643.63	0.00
643.78	35.11
643.93	23.41
644.07	86.60
644.22	9.36
644.37	74.90
644.51	0.00
644.66	39.79
644.81	84.26
644.95	39.79
645.10	0.00
645.25	0.00
645.39	21.06
645.54	88.94
645.69	30.43
645.83	65.54
645.98	46.81
646.13	51.49
646.27	21.06
646.42	0.00
646.57	35.11
646.71	21.06
646.86	32.77
647.00	0.00
647.15	74.90
647.30	84.26
647.44	9.36
647.59	72.56
647.74	0.00
647.88	9.36
648.03	117.03
648.17	0.00
648.32	65.54
648.47	58.51
648.61	18.72
648.76	0.00
648.90	86.60
649.05	18.72
649.20	49.15
649.34	44.47
649.49	46.81
649.63	35.11
649.78	7.02
649.92	0.00
650.07	58.51
650.21	86.60
650.36	72.56
650.51	21.06
650.65	11.70
650.80	23.41
650.94	16.38
651.09	0.00
651.23	74.90
651.38	56.17
651.52	84.26
651.67	84.26
651.81	74.90
651.96	0.00
652.10	56.17
652.25	23.41
652.39	0.00
652.54	32.77
652.68	63.19
652.83	30.43
652.97	79.58
653.12	32.77
653.26	42.13
653.41	65.54
653.55	30.43
653.70	28.09
653.84	16.38
653.99	46.81
654.13	14.04
654.27	11.70
654.42	79.58
654.56	0.00
654.71	16.38
654.85	21.06
655.00	14.04
655.14	4.68
655.29	53.83
655.43	42.13
655.57	105.32
655.72	0.00
655.86	0.00
656.01	0.00
656.15	0.00
656.30	14.04
656.44	9.36
656.58	14.04
656.73	74.90
656.87	67.88
657.01	126.39
657.16	25.75
657.30	93.62
657.45	0.00
657.59	18.72
657.73	74.90
657.88	35.11
658.02	18.72
658.16	16.38
658.31	46.81
658.45	14.04
658.60	0.00
658.74	0.00
658.88	18.72
659.03	0.00
659.17	2.34
659.31	25.75
659.46	100.64
659.60	25.75
659.74	86.60
659.89	0.00
660.03	93.62
660.17	4.68
660.32	21.06
660.46	91.28
660.60	4.68
660.74	0.00
660.89	42.13
661.03	49.15
661.17	0.00
661.32	0.00
661.46	49.15
661.60	77.24
661.74	51.49
661.89	44.47
662.03	21.06
662.17	0.00
662.31	0.00
662.46	23.41
662.60	9.36
662.74	67.88
662.88	0.00
663.03	16.38
663.17	0.00
663.31	119.37
663.45	0.00
663.60	46.81
663.74	14.04
663.88	65.54
664.02	0.00
664.17	105.32
664.31	30.43
664.45	0.00
664.59	0.00
664.73	18.72
664.88	63.19
665.02	0.00
665.16	77.24
665.30	77.24
665.44	56.17
665.59	46.81
665.73	74.90
665.87	0.00
666.01	77.24
666.15	91.28
666.29	70.22
666.44	42.13
666.58	32.77
666.72	86.60
666.86	91.28
667.00	37.45
667.14	4.68
667.28	70.22
667.43	14.04
667.57	60.85
667.71	51.49
667.85	49.15
667.99	9.36
668.13	0.00
668.27	0.00
668.41	11.70
668.56	37.45
668.70	32.77
668.84	0.00
668.98	56.17
669.12	84.26
669.26	49.15
669.40	25.75
669.54	53.83
669.68	16.38
669.82	0.00
669.96	60.85
670.10	72.56
670.25	0.00
670.39	32.77
670.53	79.58
670.67	28.09
670.81	9.36
670.95	44.47
671.09	16.38
671.23	28.09
671.37	91.28
671.51	42.13
671.65	14.04
671.79	9.36
671.93	25.75
672.07	72.56
672.21	100.64
672.35	25.75
672.49	74.90
672.63	81.92
672.77	72.56
672.91	46.81
673.05	28.09
673.19	18.72
673.33	39.79
673.47	28.09
673.61	56.17
673.75	0.00
673.89	70.22
674.03	0.00
674.17	0.00
674.31	0.00
674.45	2.34
674.59	9.36
674.73	32.77
674.87	53.83
675.01	60.85
675.15	37.45
675.29	0.00
675.43	30.43
675.56	58.51
675.70	4.68
675.84	77.24
675.98	14.04
676.12	21.06
676.26	77.24
676.40	39.79
676.54	46.81
676.68	44.47
676.82	28.09
676.96	21.06
677.10	46.81
677.23	0.00
677.37	72.56
677.51	0.00
677.65	0.00
677.79	23.41
677.93	86.60
678.07	18.72
678.21	95.96
678.34	79.58
678.48	63.19
678.62	53.83
678.76	0.00
678.90	0.00
679.04	37.45
679.18	21.06
679.31	25.75
679.45	2.34
679.59	0.00
679.73	72.56
679.87	0.00
680.00	30.43
680.14	74.90
680.28	21.06
680.42	77.24
680.56	35.11
680.70	0.00
680.83	0.00
680.97	32.77
681.11	14.04
681.25	35.11
681.39	46.81
681.52	105.32
681.66	72.56
681.80	72.56
681.94	46.81
682.07	21.06
682.21	7.02
682.35	51.49
682.49	18.72
682.62	44.47
682.76	91.28
682.90	51.49
683.04	81.92
683.17	28.09
683.31	7.02
683.45	28.09
683.59	77.24
683.72	18.72
683.86	86.60
684.00	46.81
684.13	4.68
684.27	0.00
684.41	0.00
684.55	11.70
684.68	42.13
684.82	88.94
684.96	0.00
685.09	0.00
685.23	0.00
685.37	63.19
685.50	49.15
685.64	91.28
685.78	37.45
685.91	23.41
686.05	32.77
686.19	0.00
686.32	51.49
686.46	0.00
686.60	39.79
686.73	9.36
686.87	46.81
687.01	28.09
687.14	53.83
687.28	4.68
687.42	4.68
687.55	11.70
687.69	0.00
687.82	51.49
687.96	0.00
688.10	37.45
688.23	60.85
688.37	42.13
688.50	30.43
688.64	60.85
688.78	42.13
688.91	21.06
689.05	0.00
689.18	88.94
689.32	107.66
689.46	0.00
689.59	39.79
689.73	39.79
689.86	11.70
690.00	18.72
690.13	2.34
690.27	56.17
690.41	53.83
690.54	95.96
690.68	2.34
690.81	37.45
690.95	18.72
691.08	0.00
691.22	25.75
691.35	21.06
691.49	0.00
691.62	30.43
691.76	0.00
691.89	72.56
692.03	53.83
692.16	46.81
692.30	60.85
692.43	4.68
692.57	21.06
692.70	25.75
692.84	0.00
692.97	0.00
693.11	28.09
693.24	51.49
693.38	0.00
693.51	42.13
693.65	49.15
693.78	28.09
693.92	60.85
694.05	67.88
694.19	32.77
694.32	81.92
694.45	0.00
694.59	16.38
694.72	0.00
694.86	98.30
694.99	0.00
695.13	7.02
695.26	42.13
695.39	60.85
695.53	4.68
695.66	32.77
695.80	86.60
695.93	16.38
696.07	30.43
696.20	37.45
696.33	0.00
696.47	53.83
696.60	14.04
696.73	0.00
696.87	42.13
697.00	58.51
697.14	0.00
697.27	0.00
697.40	74.90
697.54	44.47
697.67	25.75
697.80	46.81
697.94	35.11
698.07	51.49
698.21	35.11
698.34	63.19
698.47	25.75
698.61	23.41
698.74	25.75
698.87	9.36
699.01	49.15
699.14	0.00
699.27	0.00
699.40	23.41
699.54	0.00
699.67	0.00
699.80	9.36
699.94	0.00
700.07	44.47
700.20	2.34
700.34	0.00
700.47	0.00
700.60	39.79
700.73	63.19
700.87	63.19
701.00	60.85
701.13	0.00
701.26	4.68
701.40	28.09
701.53	46.81
701.66	23.41
701.79	0.00
701.93	81.92
702.06	51.49
702.19	0.00
702.32	0.00
702.46	0.00
702.59	88.94
702.72	56.17
702.85	56.17
702.99	58.51
703.12	88.94
703.25	56.17
703.38	0.00
703.51	0.00
703.65	0.00
703.78	2.34
703.91	0.00
704.04	56.17
704.17	30.43
704.31	25.75
704.44	42.13
704.57	39.79
704.70	95.96
704.83	105.32
704.96	77.24
705.10	30.43
705.23	91.28
>>>>>End Processed Spectral Data<<<<<
