SpectraSuite Data File
++++++++++++++++++++++++++++++++++++
Date: Fri Oct 04 12:13:45 GMT-05:00 2013
User: price-jones
Dark Spectrum Present: No
Reference Spectrum Present: No
Number of Sampled Component Spectra: 1
Spectrometers: USB2+H05261
Integration Time (usec): 10000 (USB2+H05261)
Spectra Averaged: 1 (USB2+H05261)
Boxcar Smoothing: 0 (USB2+H05261)
Correct for Electrical Dark: No (USB2+H05261)
Strobe/Lamp Enabled: No (USB2+H05261)
Correct for Detector Non-linearity: No (USB2+H05261)
Correct for Stray Light: No (USB2+H05261)
Number of Pixels in Processed Spectrum: 2048
>>>>>Begin Processed Spectral Data<<<<<
365.73	37.45
365.92	37.45
366.12	37.45
366.32	0.00
366.52	0.00
366.72	0.00
366.91	0.00
367.11	0.00
367.31	0.00
367.51	0.00
367.70	0.00
367.90	0.00
368.10	0.00
368.30	0.00
368.49	0.00
368.69	0.00
368.89	0.00
369.09	0.00
369.28	0.00
369.48	0.00
369.68	0.00
369.87	0.00
370.07	0.00
370.27	0.00
370.47	0.00
370.66	0.00
370.86	0.00
371.06	0.00
371.25	0.00
371.45	0.00
371.65	0.00
371.84	0.00
372.04	23.41
372.24	14.04
372.44	9.36
372.63	0.00
372.83	46.81
373.03	44.47
373.22	0.00
373.42	11.70
373.62	44.47
373.81	4.68
374.01	23.41
374.21	0.00
374.40	65.54
374.60	32.77
374.79	16.38
374.99	14.04
375.19	11.70
375.38	58.51
375.58	37.45
375.78	42.13
375.97	79.58
376.17	28.09
376.37	14.04
376.56	32.77
376.76	56.17
376.95	9.36
377.15	58.51
377.35	0.00
377.54	49.15
377.74	23.41
377.93	0.00
378.13	0.00
378.33	14.04
378.52	23.41
378.72	0.00
378.91	7.02
379.11	58.51
379.31	0.00
379.50	30.43
379.70	119.37
379.89	56.17
380.09	4.68
380.28	2.34
380.48	16.38
380.68	0.00
380.87	0.00
381.07	0.00
381.26	0.00
381.46	53.83
381.65	0.00
381.85	0.00
382.04	9.36
382.24	0.00
382.43	51.49
382.63	0.00
382.83	25.75
383.02	2.34
383.22	44.47
383.41	16.38
383.61	4.68
383.80	7.02
384.00	0.00
384.19	28.09
384.39	0.00
384.58	7.02
384.78	0.00
384.97	25.75
385.17	0.00
385.36	42.13
385.56	0.00
385.75	0.00
385.95	7.02
386.14	0.00
386.34	0.00
386.53	84.26
386.72	0.00
386.92	79.58
387.11	16.38
387.31	53.83
387.50	23.41
387.70	28.09
387.89	65.54
388.09	0.00
388.28	16.38
388.48	0.00
388.67	37.45
388.86	14.04
389.06	25.75
389.25	16.38
389.45	21.06
389.64	0.00
389.84	84.26
390.03	18.72
390.22	32.77
390.42	70.22
390.61	65.54
390.81	16.38
391.00	0.00
391.19	0.00
391.39	18.72
391.58	0.00
391.78	0.00
391.97	56.17
392.16	0.00
392.36	2.34
392.55	37.45
392.75	46.81
392.94	107.66
393.13	46.81
393.33	102.98
393.52	0.00
393.71	39.79
393.91	44.47
394.10	0.00
394.29	2.34
394.49	11.70
394.68	25.75
394.88	51.49
395.07	0.00
395.26	53.83
395.46	79.58
395.65	32.77
395.84	21.06
396.04	21.06
396.23	23.41
396.42	46.81
396.62	7.02
396.81	39.79
397.00	0.00
397.19	0.00
397.39	0.00
397.58	28.09
397.77	39.79
397.97	0.00
398.16	0.00
398.35	60.85
398.55	7.02
398.74	65.54
398.93	67.88
399.12	42.13
399.32	0.00
399.51	16.38
399.70	16.38
399.90	70.22
400.09	44.47
400.28	9.36
400.47	30.43
400.67	30.43
400.86	49.15
401.05	2.34
401.24	9.36
401.44	56.17
401.63	0.00
401.82	39.79
402.01	0.00
402.21	7.02
402.40	2.34
402.59	77.24
402.78	84.26
402.97	0.00
403.17	0.00
403.36	18.72
403.55	28.09
403.74	0.00
403.93	7.02
404.13	42.13
404.32	56.17
404.51	0.00
404.70	56.17
404.89	0.00
405.09	58.51
405.28	28.09
405.47	110.01
405.66	14.04
405.85	28.09
406.05	102.98
406.24	46.81
406.43	25.75
406.62	0.00
406.81	32.77
407.00	35.11
407.20	0.00
407.39	30.43
407.58	0.00
407.77	0.00
407.96	0.00
408.15	91.28
408.34	30.43
408.54	58.51
408.73	9.36
408.92	7.02
409.11	93.62
409.30	46.81
409.49	51.49
409.68	0.00
409.87	49.15
410.07	16.38
410.26	0.00
410.45	32.77
410.64	0.00
410.83	65.54
411.02	60.85
411.21	42.13
411.40	44.47
411.59	21.06
411.78	21.06
411.98	58.51
412.17	58.51
412.36	21.06
412.55	18.72
412.74	23.41
412.93	0.00
413.12	16.38
413.31	14.04
413.50	25.75
413.69	0.00
413.88	32.77
414.07	100.64
414.26	131.07
414.45	21.06
414.64	23.41
414.83	84.26
415.02	7.02
415.22	0.00
415.41	72.56
415.60	53.83
415.79	18.72
415.98	79.58
416.17	70.22
416.36	21.06
416.55	18.72
416.74	0.00
416.93	67.88
417.12	0.00
417.31	70.22
417.50	23.41
417.69	65.54
417.88	58.51
418.07	4.68
418.26	23.41
418.45	65.54
418.64	0.00
418.83	128.73
419.02	16.38
419.21	14.04
419.39	37.45
419.58	112.35
419.77	42.13
419.96	16.38
420.15	32.77
420.34	42.13
420.53	0.00
420.72	44.47
420.91	39.79
421.10	51.49
421.29	0.00
421.48	35.11
421.67	0.00
421.86	100.64
422.05	23.41
422.24	49.15
422.43	0.00
422.61	11.70
422.80	65.54
422.99	124.05
423.18	16.38
423.37	0.00
423.56	72.56
423.75	32.77
423.94	58.51
424.13	124.05
424.32	51.49
424.50	0.00
424.69	44.47
424.88	16.38
425.07	4.68
425.26	60.85
425.45	30.43
425.64	18.72
425.83	119.37
426.01	93.62
426.20	95.96
426.39	0.00
426.58	37.45
426.77	39.79
426.96	2.34
427.15	65.54
427.33	51.49
427.52	39.79
427.71	0.00
427.90	84.26
428.09	58.51
428.28	16.38
428.46	98.30
428.65	21.06
428.84	0.00
429.03	46.81
429.22	32.77
429.40	28.09
429.59	21.06
429.78	37.45
429.97	117.03
430.16	7.02
430.34	39.79
430.53	107.66
430.72	39.79
430.91	0.00
431.10	112.35
431.28	0.00
431.47	56.17
431.66	0.00
431.85	0.00
432.03	4.68
432.22	86.60
432.41	46.81
432.60	14.04
432.79	2.34
432.97	2.34
433.16	0.00
433.35	21.06
433.54	56.17
433.72	0.00
433.91	58.51
434.10	0.00
434.28	53.83
434.47	79.58
434.66	2.34
434.85	2.34
435.03	42.13
435.22	37.45
435.41	35.11
435.59	0.00
435.78	37.45
435.97	44.47
436.16	2.34
436.34	7.02
436.53	16.38
436.72	0.00
436.90	0.00
437.09	53.83
437.28	79.58
437.46	53.83
437.65	65.54
437.84	14.04
438.02	30.43
438.21	51.49
438.40	25.75
438.58	0.00
438.77	0.00
438.96	70.22
439.14	32.77
439.33	74.90
439.52	72.56
439.70	74.90
439.89	32.77
440.08	81.92
440.26	0.00
440.45	51.49
440.63	107.66
440.82	63.19
441.01	67.88
441.19	77.24
441.38	53.83
441.57	77.24
441.75	28.09
441.94	37.45
442.12	60.85
442.31	0.00
442.50	65.54
442.68	32.77
442.87	0.00
443.05	28.09
443.24	91.28
443.43	44.47
443.61	72.56
443.80	56.17
443.98	32.77
444.17	9.36
444.35	0.00
444.54	0.00
444.73	28.09
444.91	110.01
445.10	0.00
445.28	30.43
445.47	11.70
445.65	117.03
445.84	63.19
446.02	28.09
446.21	42.13
446.39	16.38
446.58	84.26
446.77	9.36
446.95	42.13
447.14	37.45
447.32	32.77
447.51	11.70
447.69	46.81
447.88	46.81
448.06	32.77
448.25	7.02
448.43	7.02
448.62	0.00
448.80	49.15
448.99	23.41
449.17	98.30
449.36	58.51
449.54	25.75
449.73	53.83
449.91	65.54
450.10	58.51
450.28	0.00
450.46	0.00
450.65	70.22
450.83	0.00
451.02	95.96
451.20	39.79
451.39	18.72
451.57	30.43
451.76	7.02
451.94	44.47
452.13	18.72
452.31	30.43
452.49	74.90
452.68	84.26
452.86	63.19
453.05	79.58
453.23	28.09
453.42	37.45
453.60	0.00
453.78	16.38
453.97	0.00
454.15	35.11
454.34	72.56
454.52	2.34
454.70	18.72
454.89	0.00
455.07	4.68
455.26	42.13
455.44	128.73
455.62	4.68
455.81	25.75
455.99	16.38
456.17	25.75
456.36	9.36
456.54	11.70
456.73	60.85
456.91	0.00
457.09	77.24
457.28	21.06
457.46	23.41
457.64	53.83
457.83	0.00
458.01	0.00
458.19	51.49
458.38	53.83
458.56	18.72
458.74	14.04
458.93	2.34
459.11	0.00
459.29	44.47
459.48	0.00
459.66	18.72
459.84	84.26
460.03	60.85
460.21	39.79
460.39	9.36
460.57	14.04
460.76	79.58
460.94	32.77
461.12	25.75
461.31	84.26
461.49	9.36
461.67	14.04
461.85	16.38
462.04	9.36
462.22	88.94
462.40	70.22
462.59	63.19
462.77	42.13
462.95	0.00
463.13	49.15
463.32	4.68
463.50	72.56
463.68	74.90
463.86	81.92
464.05	51.49
464.23	39.79
464.41	14.04
464.59	14.04
464.78	44.47
464.96	42.13
465.14	46.81
465.32	9.36
465.50	0.00
465.69	49.15
465.87	79.58
466.05	0.00
466.23	49.15
466.41	0.00
466.60	72.56
466.78	110.01
466.96	37.45
467.14	44.47
467.32	0.00
467.51	11.70
467.69	0.00
467.87	58.51
468.05	46.81
468.23	58.51
468.41	0.00
468.60	18.72
468.78	9.36
468.96	0.00
469.14	133.41
469.32	21.06
469.50	0.00
469.69	39.79
469.87	67.88
470.05	60.85
470.23	28.09
470.41	0.00
470.59	30.43
470.77	60.85
470.95	39.79
471.14	163.84
471.32	42.13
471.50	67.88
471.68	91.28
471.86	53.83
472.04	0.00
472.22	53.83
472.40	0.00
472.58	65.54
472.77	35.11
472.95	44.47
473.13	0.00
473.31	86.60
473.49	23.41
473.67	0.00
473.85	0.00
474.03	16.38
474.21	42.13
474.39	9.36
474.57	37.45
474.75	4.68
474.93	53.83
475.12	14.04
475.30	58.51
475.48	110.01
475.66	16.38
475.84	77.24
476.02	21.06
476.20	44.47
476.38	11.70
476.56	84.26
476.74	0.00
476.92	0.00
477.10	21.06
477.28	4.68
477.46	0.00
477.64	60.85
477.82	21.06
478.00	138.09
478.18	42.13
478.36	81.92
478.54	65.54
478.72	23.41
478.90	37.45
479.08	37.45
479.26	37.45
479.44	44.47
479.62	0.00
479.80	51.49
479.98	28.09
480.16	74.90
480.34	0.00
480.52	42.13
480.70	95.96
480.88	56.17
481.06	49.15
481.24	0.00
481.41	32.77
481.59	21.06
481.77	0.00
481.95	32.77
482.13	44.47
482.31	37.45
482.49	32.77
482.67	67.88
482.85	7.02
483.03	39.79
483.21	11.70
483.39	23.41
483.57	21.06
483.74	44.47
483.92	138.09
484.10	63.19
484.28	56.17
484.46	42.13
484.64	7.02
484.82	88.94
485.00	72.56
485.18	56.17
485.35	65.54
485.53	25.75
485.71	79.58
485.89	0.00
486.07	51.49
486.25	77.24
486.43	7.02
486.61	56.17
486.78	63.19
486.96	0.00
487.14	77.24
487.32	11.70
487.50	0.00
487.68	67.88
487.85	79.58
488.03	2.34
488.21	107.66
488.39	0.00
488.57	16.38
488.75	16.38
488.92	67.88
489.10	37.45
489.28	49.15
489.46	51.49
489.64	65.54
489.81	53.83
489.99	30.43
490.17	0.00
490.35	140.43
490.53	37.45
490.70	93.62
490.88	0.00
491.06	63.19
491.24	100.64
491.41	25.75
491.59	107.66
491.77	84.26
491.95	28.09
492.13	79.58
492.30	95.96
492.48	37.45
492.66	37.45
492.84	77.24
493.01	44.47
493.19	88.94
493.37	28.09
493.54	30.43
493.72	0.00
493.90	9.36
494.08	112.35
494.25	53.83
494.43	49.15
494.61	102.98
494.79	74.90
494.96	16.38
495.14	0.00
495.32	0.00
495.49	25.75
495.67	0.00
495.85	0.00
496.02	37.45
496.20	72.56
496.38	42.13
496.55	4.68
496.73	42.13
496.91	32.77
497.09	63.19
497.26	0.00
497.44	21.06
497.62	11.70
497.79	56.17
497.97	42.13
498.14	30.43
498.32	119.37
498.50	79.58
498.67	60.85
498.85	51.49
499.03	56.17
499.20	112.35
499.38	0.00
499.56	0.00
499.73	79.58
499.91	0.00
500.08	49.15
500.26	56.17
500.44	67.88
500.61	30.43
500.79	0.00
500.97	86.60
501.14	93.62
501.32	42.13
501.49	58.51
501.67	84.26
501.84	37.45
502.02	4.68
502.20	51.49
502.37	110.01
502.55	42.13
502.72	74.90
502.90	39.79
503.07	156.82
503.25	16.38
503.43	39.79
503.60	37.45
503.78	65.54
503.95	70.22
504.13	25.75
504.30	140.43
504.48	44.47
504.65	44.47
504.83	7.02
505.01	0.00
505.18	4.68
505.36	46.81
505.53	100.64
505.71	2.34
505.88	0.00
506.06	110.01
506.23	60.85
506.41	7.02
506.58	7.02
506.76	70.22
506.93	88.94
507.11	65.54
507.28	42.13
507.46	60.85
507.63	60.85
507.81	32.77
507.98	72.56
508.16	32.77
508.33	49.15
508.50	72.56
508.68	53.83
508.85	44.47
509.03	117.03
509.20	49.15
509.38	16.38
509.55	53.83
509.73	74.90
509.90	60.85
510.08	0.00
510.25	16.38
510.42	56.17
510.60	39.79
510.77	44.47
510.95	105.32
511.12	46.81
511.30	28.09
511.47	11.70
511.64	0.00
511.82	25.75
511.99	0.00
512.17	51.49
512.34	56.17
512.51	65.54
512.69	0.00
512.86	0.00
513.04	37.45
513.21	14.04
513.38	65.54
513.56	39.79
513.73	32.77
513.90	77.24
514.08	88.94
514.25	21.06
514.43	67.88
514.60	86.60
514.77	51.49
514.95	98.30
515.12	91.28
515.29	95.96
515.47	86.60
515.64	16.38
515.81	18.72
515.99	46.81
516.16	70.22
516.33	25.75
516.51	14.04
516.68	32.77
516.85	70.22
517.03	0.00
517.20	107.66
517.37	2.34
517.54	30.43
517.72	30.43
517.89	16.38
518.06	0.00
518.24	86.60
518.41	0.00
518.58	18.72
518.75	18.72
518.93	4.68
519.10	42.13
519.27	0.00
519.45	4.68
519.62	93.62
519.79	67.88
519.96	44.47
520.14	84.26
520.31	56.17
520.48	28.09
520.65	7.02
520.83	81.92
521.00	63.19
521.17	16.38
521.34	72.56
521.52	32.77
521.69	0.00
521.86	44.47
522.03	67.88
522.20	53.83
522.38	32.77
522.55	11.70
522.72	138.09
522.89	9.36
523.07	25.75
523.24	77.24
523.41	14.04
523.58	42.13
523.75	0.00
523.92	14.04
524.10	39.79
524.27	39.79
524.44	42.13
524.61	21.06
524.78	16.38
524.96	14.04
525.13	51.49
525.30	44.47
525.47	42.13
525.64	95.96
525.81	107.66
525.98	98.30
526.16	65.54
526.33	9.36
526.50	72.56
526.67	51.49
526.84	49.15
527.01	32.77
527.18	74.90
527.36	140.43
527.53	32.77
527.70	70.22
527.87	4.68
528.04	74.90
528.21	119.37
528.38	0.00
528.55	9.36
528.72	60.85
528.89	53.83
529.07	74.90
529.24	44.47
529.41	95.96
529.58	37.45
529.75	65.54
529.92	4.68
530.09	11.70
530.26	2.34
530.43	46.81
530.60	93.62
530.77	65.54
530.94	79.58
531.11	91.28
531.28	98.30
531.46	51.49
531.63	81.92
531.80	39.79
531.97	67.88
532.14	60.85
532.31	93.62
532.48	0.00
532.65	79.58
532.82	88.94
532.99	39.79
533.16	23.41
533.33	35.11
533.50	7.02
533.67	39.79
533.84	79.58
534.01	44.47
534.18	0.00
534.35	28.09
534.52	37.45
534.69	60.85
534.86	37.45
535.03	51.49
535.20	4.68
535.37	86.60
535.54	25.75
535.71	21.06
535.88	72.56
536.05	32.77
536.22	98.30
536.38	25.75
536.55	39.79
536.72	0.00
536.89	39.79
537.06	56.17
537.23	46.81
537.40	74.90
537.57	39.79
537.74	18.72
537.91	84.26
538.08	16.38
538.25	44.47
538.42	25.75
538.59	70.22
538.75	79.58
538.92	117.03
539.09	39.79
539.26	42.13
539.43	42.13
539.60	70.22
539.77	32.77
539.94	0.00
540.11	0.00
540.28	16.38
540.44	30.43
540.61	53.83
540.78	21.06
540.95	0.00
541.12	56.17
541.29	51.49
541.46	65.54
541.62	46.81
541.79	74.90
541.96	25.75
542.13	51.49
542.30	77.24
542.47	102.98
542.63	42.13
542.80	7.02
542.97	4.68
543.14	39.79
543.31	25.75
543.48	30.43
543.64	51.49
543.81	7.02
543.98	0.00
544.15	119.37
544.32	91.28
544.48	95.96
544.65	58.51
544.82	7.02
544.99	32.77
545.16	35.11
545.32	28.09
545.49	53.83
545.66	51.49
545.83	14.04
546.00	0.00
546.16	138.09
546.33	42.13
546.50	42.13
546.67	51.49
546.83	32.77
547.00	74.90
547.17	44.47
547.34	0.00
547.50	110.01
547.67	18.72
547.84	32.77
548.00	65.54
548.17	28.09
548.34	105.32
548.51	117.03
548.67	86.60
548.84	37.45
549.01	0.00
549.18	23.41
549.34	67.88
549.51	42.13
549.68	2.34
549.84	65.54
550.01	60.85
550.18	63.19
550.34	112.35
550.51	28.09
550.68	46.81
550.84	114.69
551.01	30.43
551.18	0.00
551.34	37.45
551.51	35.11
551.68	95.96
551.84	32.77
552.01	9.36
552.18	72.56
552.34	21.06
552.51	0.00
552.68	107.66
552.84	32.77
553.01	149.79
553.18	140.43
553.34	77.24
553.51	67.88
553.67	91.28
553.84	28.09
554.01	18.72
554.17	0.00
554.34	0.00
554.51	128.73
554.67	51.49
554.84	28.09
555.00	112.35
555.17	77.24
555.33	37.45
555.50	60.85
555.67	35.11
555.83	0.00
556.00	0.00
556.16	11.70
556.33	98.30
556.50	44.47
556.66	51.49
556.83	46.81
556.99	23.41
557.16	60.85
557.32	30.43
557.49	84.26
557.65	58.51
557.82	14.04
557.98	124.05
558.15	58.51
558.32	58.51
558.48	100.64
558.65	11.70
558.81	9.36
558.98	4.68
559.14	4.68
559.31	86.60
559.47	63.19
559.64	51.49
559.80	21.06
559.97	49.15
560.13	60.85
560.30	53.83
560.46	0.00
560.63	32.77
560.79	28.09
560.96	0.00
561.12	0.00
561.29	0.00
561.45	11.70
561.61	14.04
561.78	81.92
561.94	53.83
562.11	32.77
562.27	30.43
562.44	65.54
562.60	74.90
562.77	70.22
562.93	0.00
563.10	42.13
563.26	0.00
563.42	2.34
563.59	25.75
563.75	25.75
563.92	110.01
564.08	18.72
564.24	16.38
564.41	11.70
564.57	23.41
564.74	25.75
564.90	30.43
565.07	53.83
565.23	44.47
565.39	67.88
565.56	79.58
565.72	32.77
565.88	100.64
566.05	44.47
566.21	0.00
566.38	126.39
566.54	74.90
566.70	30.43
566.87	0.00
567.03	51.49
567.19	32.77
567.36	0.00
567.52	86.60
567.68	72.56
567.85	0.00
568.01	14.04
568.17	37.45
568.34	23.41
568.50	0.00
568.66	100.64
568.83	2.34
568.99	0.00
569.15	16.38
569.32	0.00
569.48	63.19
569.64	30.43
569.81	77.24
569.97	0.00
570.13	21.06
570.30	44.47
570.46	70.22
570.62	93.62
570.78	4.68
570.95	30.43
571.11	39.79
571.27	110.01
571.43	98.30
571.60	79.58
571.76	67.88
571.92	63.19
572.09	7.02
572.25	46.81
572.41	67.88
572.57	72.56
572.74	88.94
572.90	88.94
573.06	0.00
573.22	67.88
573.38	46.81
573.55	0.00
573.71	25.75
573.87	25.75
574.03	88.94
574.20	49.15
574.36	74.90
574.52	65.54
574.68	53.83
574.84	79.58
575.01	23.41
575.17	37.45
575.33	72.56
575.49	0.00
575.65	49.15
575.82	140.43
575.98	147.45
576.14	25.75
576.30	60.85
576.46	30.43
576.62	58.51
576.79	35.11
576.95	35.11
577.11	0.00
577.27	4.68
577.43	42.13
577.59	0.00
577.75	37.45
577.92	39.79
578.08	18.72
578.24	81.92
578.40	58.51
578.56	32.77
578.72	65.54
578.88	0.00
579.04	7.02
579.21	49.15
579.37	11.70
579.53	88.94
579.69	56.17
579.85	114.69
580.01	23.41
580.17	9.36
580.33	0.00
580.49	105.32
580.65	105.32
580.82	18.72
580.98	32.77
581.14	58.51
581.30	53.83
581.46	35.11
581.62	4.68
581.78	18.72
581.94	0.00
582.10	28.09
582.26	72.56
582.42	60.85
582.58	0.00
582.74	131.07
582.90	0.00
583.06	21.06
583.22	65.54
583.38	39.79
583.54	51.49
583.70	35.11
583.86	49.15
584.02	44.47
584.18	30.43
584.34	0.00
584.50	133.41
584.66	30.43
584.82	72.56
584.98	58.51
585.14	51.49
585.30	65.54
585.46	81.92
585.62	98.30
585.78	28.09
585.94	0.00
586.10	11.70
586.26	63.19
586.42	79.58
586.58	77.24
586.74	81.92
586.90	7.02
587.06	88.94
587.22	35.11
587.38	79.58
587.54	23.41
587.70	7.02
587.86	53.83
588.02	51.49
588.18	37.45
588.34	2.34
588.49	100.64
588.65	32.77
588.81	25.75
588.97	32.77
589.13	11.70
589.29	14.04
589.45	81.92
589.61	46.81
589.77	42.13
589.93	70.22
590.08	107.66
590.24	2.34
590.40	93.62
590.56	0.00
590.72	51.49
590.88	11.70
591.04	79.58
591.20	63.19
591.35	23.41
591.51	25.75
591.67	49.15
591.83	67.88
591.99	51.49
592.15	81.92
592.31	7.02
592.46	79.58
592.62	16.38
592.78	44.47
592.94	0.00
593.10	81.92
593.26	0.00
593.41	0.00
593.57	63.19
593.73	39.79
593.89	53.83
594.05	84.26
594.20	42.13
594.36	46.81
594.52	9.36
594.68	53.83
594.84	53.83
594.99	72.56
595.15	0.00
595.31	138.09
595.47	28.09
595.62	63.19
595.78	0.00
595.94	0.00
596.10	77.24
596.25	7.02
596.41	98.30
596.57	86.60
596.73	0.00
596.88	0.00
597.04	100.64
597.20	28.09
597.36	39.79
597.51	21.06
597.67	88.94
597.83	65.54
597.99	91.28
598.14	0.00
598.30	84.26
598.46	93.62
598.61	0.00
598.77	21.06
598.93	44.47
599.09	63.19
599.24	53.83
599.40	65.54
599.56	46.81
599.71	79.58
599.87	95.96
600.03	117.03
600.18	107.66
600.34	72.56
600.50	0.00
600.65	93.62
600.81	23.41
600.97	14.04
601.12	107.66
601.28	25.75
601.44	28.09
601.59	72.56
601.75	70.22
601.91	0.00
602.06	58.51
602.22	81.92
602.37	30.43
602.53	28.09
602.69	9.36
602.84	37.45
603.00	72.56
603.16	28.09
603.31	44.47
603.47	0.00
603.62	49.15
603.78	72.56
603.94	4.68
604.09	84.26
604.25	39.79
604.40	119.37
604.56	63.19
604.71	7.02
604.87	84.26
605.03	56.17
605.18	77.24
605.34	28.09
605.49	110.01
605.65	86.60
605.80	35.11
605.96	95.96
606.12	14.04
606.27	88.94
606.43	14.04
606.58	72.56
606.74	81.92
606.89	74.90
607.05	128.73
607.20	60.85
607.36	100.64
607.51	39.79
607.67	0.00
607.82	7.02
607.98	117.03
608.13	65.54
608.29	98.30
608.44	42.13
608.60	0.00
608.75	77.24
608.91	0.00
609.06	16.38
609.22	42.13
609.37	9.36
609.53	56.17
609.68	51.49
609.84	23.41
609.99	60.85
610.15	60.85
610.30	0.00
610.46	81.92
610.61	51.49
610.76	91.28
610.92	32.77
611.07	0.00
611.23	131.07
611.38	86.60
611.54	21.06
611.69	28.09
611.84	7.02
612.00	42.13
612.15	16.38
612.31	49.15
612.46	0.00
612.62	18.72
612.77	79.58
612.92	77.24
613.08	0.00
613.23	35.11
613.39	37.45
613.54	0.00
613.69	23.41
613.85	0.00
614.00	35.11
614.15	32.77
614.31	126.39
614.46	0.00
614.62	44.47
614.77	39.79
614.92	37.45
615.08	56.17
615.23	25.75
615.38	30.43
615.54	112.35
615.69	23.41
615.84	74.90
616.00	63.19
616.15	0.00
616.30	30.43
616.46	53.83
616.61	0.00
616.76	9.36
616.92	86.60
617.07	63.19
617.22	25.75
617.37	0.00
617.53	72.56
617.68	84.26
617.83	65.54
617.99	77.24
618.14	35.11
618.29	98.30
618.45	0.00
618.60	53.83
618.75	58.51
618.90	16.38
619.06	9.36
619.21	11.70
619.36	28.09
619.51	91.28
619.67	72.56
619.82	67.88
619.97	72.56
620.12	39.79
620.28	100.64
620.43	70.22
620.58	46.81
620.73	30.43
620.89	56.17
621.04	102.98
621.19	16.38
621.34	65.54
621.49	11.70
621.65	0.00
621.80	25.75
621.95	0.00
622.10	67.88
622.25	30.43
622.41	65.54
622.56	56.17
622.71	2.34
622.86	63.19
623.01	70.22
623.16	11.70
623.32	2.34
623.47	21.06
623.62	32.77
623.77	72.56
623.92	32.77
624.07	58.51
624.23	21.06
624.38	49.15
624.53	107.66
624.68	81.92
624.83	42.13
624.98	74.90
625.13	58.51
625.29	32.77
625.44	42.13
625.59	74.90
625.74	72.56
625.89	79.58
626.04	11.70
626.19	65.54
626.34	23.41
626.49	81.92
626.65	117.03
626.80	37.45
626.95	72.56
627.10	37.45
627.25	2.34
627.40	74.90
627.55	63.19
627.70	117.03
627.85	46.81
628.00	0.00
628.15	0.00
628.30	72.56
628.45	37.45
628.60	79.58
628.76	67.88
628.91	63.19
629.06	0.00
629.21	46.81
629.36	39.79
629.51	63.19
629.66	100.64
629.81	135.75
629.96	58.51
630.11	0.00
630.26	21.06
630.41	0.00
630.56	18.72
630.71	44.47
630.86	49.15
631.01	25.75
631.16	35.11
631.31	79.58
631.46	0.00
631.61	0.00
631.76	56.17
631.91	65.54
632.06	9.36
632.21	9.36
632.36	23.41
632.51	0.00
632.66	23.41
632.81	70.22
632.96	28.09
633.10	21.06
633.25	21.06
633.40	121.71
633.55	56.17
633.70	21.06
633.85	51.49
634.00	23.41
634.15	16.38
634.30	51.49
634.45	88.94
634.60	67.88
634.75	42.13
634.90	32.77
635.05	88.94
635.19	35.11
635.34	4.68
635.49	7.02
635.64	56.17
635.79	79.58
635.94	67.88
636.09	18.72
636.24	72.56
636.39	44.47
636.53	60.85
636.68	42.13
636.83	42.13
636.98	2.34
637.13	28.09
637.28	114.69
637.43	100.64
637.57	9.36
637.72	35.11
637.87	0.00
638.02	28.09
638.17	77.24
638.32	93.62
638.46	44.47
638.61	65.54
638.76	0.00
638.91	0.00
639.06	79.58
639.20	77.24
639.35	0.00
639.50	0.00
639.65	63.19
639.80	2.34
639.94	72.56
640.09	28.09
640.24	0.00
640.39	2.34
640.54	0.00
640.68	18.72
640.83	21.06
640.98	0.00
641.13	39.79
641.27	39.79
641.42	0.00
641.57	37.45
641.72	28.09
641.86	0.00
642.01	65.54
642.16	14.04
642.31	119.37
642.45	44.47
642.60	51.49
642.75	0.00
642.90	39.79
643.04	70.22
643.19	44.47
643.34	16.38
643.48	0.00
643.63	84.26
643.78	44.47
643.93	0.00
644.07	37.45
644.22	25.75
644.37	0.00
644.51	67.88
644.66	0.00
644.81	39.79
644.95	0.00
645.10	51.49
645.25	51.49
645.39	58.51
645.54	42.13
645.69	51.49
645.83	39.79
645.98	0.00
646.13	14.04
646.27	49.15
646.42	100.64
646.57	67.88
646.71	2.34
646.86	30.43
647.00	42.13
647.15	60.85
647.30	25.75
647.44	23.41
647.59	44.47
647.74	67.88
647.88	58.51
648.03	56.17
648.17	58.51
648.32	56.17
648.47	18.72
648.61	11.70
648.76	42.13
648.90	88.94
649.05	21.06
649.20	84.26
649.34	25.75
649.49	44.47
649.63	0.00
649.78	35.11
649.92	67.88
650.07	32.77
650.21	95.96
650.36	58.51
650.51	9.36
650.65	32.77
650.80	65.54
650.94	42.13
651.09	14.04
651.23	39.79
651.38	4.68
651.52	0.00
651.67	58.51
651.81	67.88
651.96	0.00
652.10	30.43
652.25	49.15
652.39	32.77
652.54	0.00
652.68	4.68
652.83	32.77
652.97	0.00
653.12	28.09
653.26	65.54
653.41	39.79
653.55	60.85
653.70	49.15
653.84	0.00
653.99	16.38
654.13	0.00
654.27	88.94
654.42	30.43
654.56	0.00
654.71	67.88
654.85	91.28
655.00	32.77
655.14	77.24
655.29	86.60
655.43	44.47
655.57	39.79
655.72	25.75
655.86	117.03
656.01	23.41
656.15	14.04
656.30	39.79
656.44	51.49
656.58	18.72
656.73	74.90
656.87	21.06
657.01	14.04
657.16	35.11
657.30	74.90
657.45	16.38
657.59	0.00
657.73	37.45
657.88	84.26
658.02	79.58
658.16	102.98
658.31	107.66
658.45	35.11
658.60	25.75
658.74	70.22
658.88	70.22
659.03	18.72
659.17	56.17
659.31	7.02
659.46	0.00
659.60	51.49
659.74	35.11
659.89	93.62
660.03	49.15
660.17	11.70
660.32	102.98
660.46	56.17
660.60	35.11
660.74	39.79
660.89	7.02
661.03	56.17
661.17	0.00
661.32	84.26
661.46	70.22
661.60	0.00
661.74	58.51
661.89	58.51
662.03	72.56
662.17	60.85
662.31	63.19
662.46	2.34
662.60	56.17
662.74	18.72
662.88	70.22
663.03	74.90
663.17	0.00
663.31	14.04
663.45	30.43
663.60	44.47
663.74	2.34
663.88	0.00
664.02	51.49
664.17	0.00
664.31	18.72
664.45	60.85
664.59	18.72
664.73	39.79
664.88	67.88
665.02	70.22
665.16	44.47
665.30	0.00
665.44	37.45
665.59	18.72
665.73	21.06
665.87	30.43
666.01	11.70
666.15	35.11
666.29	65.54
666.44	81.92
666.58	140.43
666.72	53.83
666.86	0.00
667.00	42.13
667.14	30.43
667.28	88.94
667.43	0.00
667.57	21.06
667.71	0.00
667.85	0.00
667.99	100.64
668.13	0.00
668.27	7.02
668.41	60.85
668.56	0.00
668.70	21.06
668.84	114.69
668.98	51.49
669.12	18.72
669.26	84.26
669.40	32.77
669.54	56.17
669.68	95.96
669.82	0.00
669.96	65.54
670.10	2.34
670.25	65.54
670.39	18.72
670.53	35.11
670.67	23.41
670.81	42.13
670.95	74.90
671.09	42.13
671.23	9.36
671.37	11.70
671.51	53.83
671.65	46.81
671.79	32.77
671.93	2.34
672.07	0.00
672.21	0.00
672.35	32.77
672.49	23.41
672.63	46.81
672.77	32.77
672.91	30.43
673.05	0.00
673.19	72.56
673.33	0.00
673.47	9.36
673.61	60.85
673.75	21.06
673.89	0.00
674.03	2.34
674.17	23.41
674.31	21.06
674.45	30.43
674.59	53.83
674.73	35.11
674.87	56.17
675.01	53.83
675.15	0.00
675.29	0.00
675.43	67.88
675.56	18.72
675.70	37.45
675.84	35.11
675.98	46.81
676.12	32.77
676.26	23.41
676.40	65.54
676.54	51.49
676.68	37.45
676.82	16.38
676.96	0.00
677.10	63.19
677.23	70.22
677.37	32.77
677.51	91.28
677.65	79.58
677.79	60.85
677.93	0.00
678.07	60.85
678.21	0.00
678.34	84.26
678.48	0.00
678.62	37.45
678.76	2.34
678.90	79.58
679.04	51.49
679.18	23.41
679.31	23.41
679.45	21.06
679.59	84.26
679.73	0.00
679.87	79.58
680.00	79.58
680.14	67.88
680.28	21.06
680.42	72.56
680.56	21.06
680.70	2.34
680.83	23.41
680.97	70.22
681.11	2.34
681.25	95.96
681.39	21.06
681.52	0.00
681.66	46.81
681.80	77.24
681.94	44.47
682.07	23.41
682.21	81.92
682.35	112.35
682.49	60.85
682.62	49.15
682.76	77.24
682.90	28.09
683.04	28.09
683.17	9.36
683.31	18.72
683.45	35.11
683.59	0.00
683.72	0.00
683.86	30.43
684.00	77.24
684.13	53.83
684.27	53.83
684.41	0.00
684.55	9.36
684.68	39.79
684.82	2.34
684.96	35.11
685.09	88.94
685.23	7.02
685.37	18.72
685.50	0.00
685.64	42.13
685.78	7.02
685.91	86.60
686.05	0.00
686.19	0.00
686.32	81.92
686.46	18.72
686.60	0.00
686.73	18.72
686.87	39.79
687.01	63.19
687.14	84.26
687.28	58.51
687.42	2.34
687.55	0.00
687.69	56.17
687.82	35.11
687.96	35.11
688.10	28.09
688.23	14.04
688.37	74.90
688.50	65.54
688.64	16.38
688.78	21.06
688.91	46.81
689.05	100.64
689.18	58.51
689.32	65.54
689.46	37.45
689.59	56.17
689.73	49.15
689.86	4.68
690.00	63.19
690.13	23.41
690.27	37.45
690.41	30.43
690.54	126.39
690.68	11.70
690.81	35.11
690.95	102.98
691.08	102.98
691.22	60.85
691.35	0.00
691.49	51.49
691.62	0.00
691.76	0.00
691.89	0.00
692.03	28.09
692.16	18.72
692.30	72.56
692.43	44.47
692.57	37.45
692.70	77.24
692.84	65.54
692.97	16.38
693.11	16.38
693.24	84.26
693.38	4.68
693.51	72.56
693.65	2.34
693.78	32.77
693.92	30.43
694.05	46.81
694.19	9.36
694.32	0.00
694.45	11.70
694.59	11.70
694.72	0.00
694.86	7.02
694.99	133.41
695.13	42.13
695.26	18.72
695.39	51.49
695.53	58.51
695.66	16.38
695.80	42.13
695.93	9.36
696.07	44.47
696.20	46.81
696.33	11.70
696.47	35.11
696.60	91.28
696.73	39.79
696.87	0.00
697.00	35.11
697.14	30.43
697.27	79.58
697.40	0.00
697.54	60.85
697.67	0.00
697.80	16.38
697.94	7.02
698.07	58.51
698.21	44.47
698.34	46.81
698.47	7.02
698.61	42.13
698.74	0.00
698.87	46.81
699.01	74.90
699.14	0.00
699.27	0.00
699.40	77.24
699.54	32.77
699.67	0.00
699.80	95.96
699.94	98.30
700.07	14.04
700.20	14.04
700.34	65.54
700.47	44.47
700.60	16.38
700.73	0.00
700.87	107.66
701.00	32.77
701.13	4.68
701.26	0.00
701.40	37.45
701.53	0.00
701.66	7.02
701.79	37.45
701.93	51.49
702.06	16.38
702.19	37.45
702.32	79.58
702.46	23.41
702.59	53.83
702.72	4.68
702.85	0.00
702.99	56.17
703.12	9.36
703.25	0.00
703.38	117.03
703.51	60.85
703.65	0.00
703.78	32.77
703.91	4.68
704.04	42.13
704.17	79.58
704.31	25.75
704.44	32.77
704.57	86.60
704.70	53.83
704.83	23.41
704.96	67.88
705.10	79.58
705.23	32.77
>>>>>End Processed Spectral Data<<<<<
