SpectraSuite Data File
++++++++++++++++++++++++++++++++++++
Date: Fri Oct 04 12:13:39 GMT-05:00 2013
User: price-jones
Dark Spectrum Present: No
Reference Spectrum Present: No
Number of Sampled Component Spectra: 1
Spectrometers: USB2+H05261
Integration Time (usec): 10000 (USB2+H05261)
Spectra Averaged: 1 (USB2+H05261)
Boxcar Smoothing: 0 (USB2+H05261)
Correct for Electrical Dark: No (USB2+H05261)
Strobe/Lamp Enabled: No (USB2+H05261)
Correct for Detector Non-linearity: No (USB2+H05261)
Correct for Stray Light: No (USB2+H05261)
Number of Pixels in Processed Spectrum: 2048
>>>>>Begin Processed Spectral Data<<<<<
365.73	46.81
365.92	46.81
366.12	46.81
366.32	0.00
366.52	0.00
366.72	0.00
366.91	0.00
367.11	0.00
367.31	0.00
367.51	0.00
367.70	0.00
367.90	0.00
368.10	0.00
368.30	0.00
368.49	0.00
368.69	0.00
368.89	0.00
369.09	0.00
369.28	0.00
369.48	0.00
369.68	0.00
369.87	0.00
370.07	0.00
370.27	0.00
370.47	0.00
370.66	0.00
370.86	0.00
371.06	0.00
371.25	30.43
371.45	4.68
371.65	0.00
371.84	0.00
372.04	9.36
372.24	0.00
372.44	0.00
372.63	0.00
372.83	0.00
373.03	42.13
373.22	4.68
373.42	58.51
373.62	0.00
373.81	63.19
374.01	9.36
374.21	0.00
374.40	46.81
374.60	9.36
374.79	63.19
374.99	56.17
375.19	84.26
375.38	110.01
375.58	107.66
375.78	46.81
375.97	65.54
376.17	53.83
376.37	7.02
376.56	0.00
376.76	51.49
376.95	21.06
377.15	21.06
377.35	35.11
377.54	39.79
377.74	0.00
377.93	0.00
378.13	0.00
378.33	0.00
378.52	0.00
378.72	16.38
378.91	0.00
379.11	23.41
379.31	16.38
379.50	63.19
379.70	72.56
379.89	0.00
380.09	0.00
380.28	0.00
380.48	77.24
380.68	0.00
380.87	9.36
381.07	60.85
381.26	18.72
381.46	14.04
381.65	39.79
381.85	46.81
382.04	0.00
382.24	0.00
382.43	25.75
382.63	14.04
382.83	0.00
383.02	30.43
383.22	0.00
383.41	117.03
383.61	11.70
383.80	37.45
384.00	35.11
384.19	21.06
384.39	46.81
384.58	0.00
384.78	0.00
384.97	0.00
385.17	0.00
385.36	0.00
385.56	0.00
385.75	39.79
385.95	0.00
386.14	70.22
386.34	23.41
386.53	51.49
386.72	18.72
386.92	18.72
387.11	63.19
387.31	21.06
387.50	0.00
387.70	39.79
387.89	0.00
388.09	0.00
388.28	18.72
388.48	0.00
388.67	95.96
388.86	14.04
389.06	28.09
389.25	0.00
389.45	0.00
389.64	42.13
389.84	28.09
390.03	16.38
390.22	7.02
390.42	14.04
390.61	9.36
390.81	16.38
391.00	0.00
391.19	16.38
391.39	0.00
391.58	51.49
391.78	128.73
391.97	28.09
392.16	23.41
392.36	58.51
392.55	0.00
392.75	46.81
392.94	51.49
393.13	0.00
393.33	77.24
393.52	9.36
393.71	0.00
393.91	114.69
394.10	4.68
394.29	0.00
394.49	0.00
394.68	39.79
394.88	35.11
395.07	4.68
395.26	0.00
395.46	63.19
395.65	51.49
395.84	23.41
396.04	58.51
396.23	28.09
396.42	18.72
396.62	25.75
396.81	67.88
397.00	18.72
397.19	0.00
397.39	67.88
397.58	49.15
397.77	9.36
397.97	86.60
398.16	4.68
398.35	0.00
398.55	0.00
398.74	0.00
398.93	102.98
399.12	0.00
399.32	28.09
399.51	44.47
399.70	2.34
399.90	70.22
400.09	0.00
400.28	35.11
400.47	11.70
400.67	30.43
400.86	32.77
401.05	18.72
401.24	37.45
401.44	23.41
401.63	67.88
401.82	37.45
402.01	70.22
402.21	32.77
402.40	126.39
402.59	77.24
402.78	7.02
402.97	25.75
403.17	74.90
403.36	39.79
403.55	7.02
403.74	0.00
403.93	28.09
404.13	0.00
404.32	11.70
404.51	4.68
404.70	93.62
404.89	39.79
405.09	18.72
405.28	0.00
405.47	0.00
405.66	67.88
405.85	35.11
406.05	0.00
406.24	16.38
406.43	81.92
406.62	88.94
406.81	37.45
407.00	7.02
407.20	21.06
407.39	9.36
407.58	95.96
407.77	56.17
407.96	44.47
408.15	16.38
408.34	72.56
408.54	46.81
408.73	35.11
408.92	7.02
409.11	0.00
409.30	25.75
409.49	56.17
409.68	114.69
409.87	67.88
410.07	28.09
410.26	53.83
410.45	49.15
410.64	0.00
410.83	56.17
411.02	0.00
411.21	124.05
411.40	112.35
411.59	49.15
411.78	49.15
411.98	46.81
412.17	25.75
412.36	124.05
412.55	4.68
412.74	44.47
412.93	9.36
413.12	25.75
413.31	32.77
413.50	35.11
413.69	42.13
413.88	79.58
414.07	35.11
414.26	56.17
414.45	39.79
414.64	0.00
414.83	0.00
415.02	65.54
415.22	53.83
415.41	11.70
415.60	23.41
415.79	46.81
415.98	0.00
416.17	51.49
416.36	70.22
416.55	21.06
416.74	0.00
416.93	81.92
417.12	23.41
417.31	56.17
417.50	0.00
417.69	2.34
417.88	0.00
418.07	53.83
418.26	51.49
418.45	0.00
418.64	81.92
418.83	0.00
419.02	23.41
419.21	72.56
419.39	58.51
419.58	0.00
419.77	105.32
419.96	53.83
420.15	30.43
420.34	28.09
420.53	42.13
420.72	49.15
420.91	37.45
421.10	91.28
421.29	60.85
421.48	16.38
421.67	56.17
421.86	77.24
422.05	53.83
422.24	107.66
422.43	51.49
422.61	0.00
422.80	53.83
422.99	14.04
423.18	56.17
423.37	126.39
423.56	9.36
423.75	0.00
423.94	18.72
424.13	93.62
424.32	58.51
424.50	121.71
424.69	9.36
424.88	35.11
425.07	53.83
425.26	0.00
425.45	117.03
425.64	81.92
425.83	0.00
426.01	63.19
426.20	9.36
426.39	0.00
426.58	70.22
426.77	58.51
426.96	46.81
427.15	63.19
427.33	93.62
427.52	16.38
427.71	58.51
427.90	0.00
428.09	67.88
428.28	70.22
428.46	72.56
428.65	46.81
428.84	0.00
429.03	79.58
429.22	0.00
429.40	58.51
429.59	23.41
429.78	39.79
429.97	91.28
430.16	0.00
430.34	18.72
430.53	91.28
430.72	91.28
430.91	7.02
431.10	46.81
431.28	32.77
431.47	86.60
431.66	37.45
431.85	60.85
432.03	2.34
432.22	14.04
432.41	44.47
432.60	74.90
432.79	107.66
432.97	84.26
433.16	44.47
433.35	39.79
433.54	30.43
433.72	25.75
433.91	37.45
434.10	0.00
434.28	16.38
434.47	49.15
434.66	0.00
434.85	0.00
435.03	74.90
435.22	0.00
435.41	0.00
435.59	72.56
435.78	72.56
435.97	60.85
436.16	23.41
436.34	60.85
436.53	135.75
436.72	117.03
436.90	32.77
437.09	23.41
437.28	84.26
437.46	25.75
437.65	133.41
437.84	77.24
438.02	63.19
438.21	32.77
438.40	4.68
438.58	102.98
438.77	53.83
438.96	25.75
439.14	0.00
439.33	53.83
439.52	49.15
439.70	81.92
439.89	72.56
440.08	11.70
440.26	63.19
440.45	53.83
440.63	72.56
440.82	88.94
441.01	39.79
441.19	32.77
441.38	56.17
441.57	28.09
441.75	112.35
441.94	53.83
442.12	79.58
442.31	39.79
442.50	60.85
442.68	60.85
442.87	0.00
443.05	49.15
443.24	102.98
443.43	51.49
443.61	81.92
443.80	0.00
443.98	46.81
444.17	49.15
444.35	74.90
444.54	42.13
444.73	56.17
444.91	91.28
445.10	67.88
445.28	51.49
445.47	119.37
445.65	18.72
445.84	9.36
446.02	74.90
446.21	21.06
446.39	100.64
446.58	16.38
446.77	23.41
446.95	46.81
447.14	32.77
447.32	14.04
447.51	49.15
447.69	77.24
447.88	79.58
448.06	9.36
448.25	9.36
448.43	60.85
448.62	63.19
448.80	84.26
448.99	46.81
449.17	65.54
449.36	126.39
449.54	37.45
449.73	67.88
449.91	65.54
450.10	9.36
450.28	0.00
450.46	2.34
450.65	51.49
450.83	72.56
451.02	107.66
451.20	39.79
451.39	51.49
451.57	46.81
451.76	25.75
451.94	25.75
452.13	0.00
452.31	35.11
452.49	44.47
452.68	58.51
452.86	100.64
453.05	46.81
453.23	58.51
453.42	0.00
453.60	51.49
453.78	37.45
453.97	84.26
454.15	35.11
454.34	100.64
454.52	112.35
454.70	30.43
454.89	58.51
455.07	42.13
455.26	4.68
455.44	23.41
455.62	79.58
455.81	23.41
455.99	95.96
456.17	0.00
456.36	81.92
456.54	102.98
456.73	56.17
456.91	51.49
457.09	63.19
457.28	86.60
457.46	117.03
457.64	46.81
457.83	25.75
458.01	91.28
458.19	25.75
458.38	81.92
458.56	67.88
458.74	18.72
458.93	46.81
459.11	4.68
459.29	86.60
459.48	77.24
459.66	128.73
459.84	39.79
460.03	37.45
460.21	60.85
460.39	100.64
460.57	0.00
460.76	110.01
460.94	65.54
461.12	32.77
461.31	44.47
461.49	21.06
461.67	23.41
461.85	70.22
462.04	0.00
462.22	65.54
462.40	98.30
462.59	44.47
462.77	49.15
462.95	16.38
463.13	25.75
463.32	16.38
463.50	14.04
463.68	46.81
463.86	81.92
464.05	81.92
464.23	112.35
464.41	39.79
464.59	72.56
464.78	110.01
464.96	95.96
465.14	42.13
465.32	18.72
465.50	56.17
465.69	32.77
465.87	88.94
466.05	21.06
466.23	4.68
466.41	11.70
466.60	39.79
466.78	35.11
466.96	60.85
467.14	74.90
467.32	0.00
467.51	91.28
467.69	28.09
467.87	63.19
468.05	67.88
468.23	30.43
468.41	63.19
468.60	39.79
468.78	14.04
468.96	49.15
469.14	100.64
469.32	53.83
469.50	56.17
469.69	39.79
469.87	79.58
470.05	91.28
470.23	51.49
470.41	14.04
470.59	30.43
470.77	58.51
470.95	114.69
471.14	138.09
471.32	72.56
471.50	28.09
471.68	58.51
471.86	18.72
472.04	11.70
472.22	42.13
472.40	133.41
472.58	65.54
472.77	23.41
472.95	53.83
473.13	21.06
473.31	86.60
473.49	81.92
473.67	28.09
473.85	28.09
474.03	23.41
474.21	70.22
474.39	14.04
474.57	65.54
474.75	74.90
474.93	72.56
475.12	46.81
475.30	124.05
475.48	93.62
475.66	21.06
475.84	51.49
476.02	37.45
476.20	23.41
476.38	65.54
476.56	65.54
476.74	53.83
476.92	39.79
477.10	0.00
477.28	0.00
477.46	107.66
477.64	58.51
477.82	131.07
478.00	49.15
478.18	0.00
478.36	0.00
478.54	14.04
478.72	67.88
478.90	0.00
479.08	79.58
479.26	110.01
479.44	49.15
479.62	0.00
479.80	0.00
479.98	23.41
480.16	147.45
480.34	63.19
480.52	42.13
480.70	58.51
480.88	28.09
481.06	133.41
481.24	74.90
481.41	77.24
481.59	74.90
481.77	81.92
481.95	110.01
482.13	53.83
482.31	35.11
482.49	30.43
482.67	28.09
482.85	46.81
483.03	39.79
483.21	93.62
483.39	51.49
483.57	147.45
483.74	81.92
483.92	42.13
484.10	86.60
484.28	100.64
484.46	53.83
484.64	23.41
484.82	77.24
485.00	35.11
485.18	102.98
485.35	117.03
485.53	42.13
485.71	16.38
485.89	100.64
486.07	70.22
486.25	23.41
486.43	60.85
486.61	112.35
486.78	32.77
486.96	44.47
487.14	74.90
487.32	32.77
487.50	102.98
487.68	56.17
487.85	37.45
488.03	79.58
488.21	81.92
488.39	67.88
488.57	53.83
488.75	72.56
488.92	42.13
489.10	131.07
489.28	65.54
489.46	93.62
489.64	88.94
489.81	9.36
489.99	0.00
490.17	124.05
490.35	84.26
490.53	39.79
490.70	58.51
490.88	95.96
491.06	95.96
491.24	133.41
491.41	102.98
491.59	37.45
491.77	56.17
491.95	35.11
492.13	60.85
492.30	191.92
492.48	114.69
492.66	11.70
492.84	58.51
493.01	37.45
493.19	74.90
493.37	114.69
493.54	124.05
493.72	95.96
493.90	44.47
494.08	112.35
494.25	53.83
494.43	81.92
494.61	93.62
494.79	77.24
494.96	56.17
495.14	58.51
495.32	32.77
495.49	51.49
495.67	18.72
495.85	56.17
496.02	46.81
496.20	81.92
496.38	126.39
496.55	65.54
496.73	56.17
496.91	107.66
497.09	81.92
497.26	56.17
497.44	105.32
497.62	95.96
497.79	152.13
497.97	77.24
498.14	140.43
498.32	140.43
498.50	149.79
498.67	63.19
498.85	53.83
499.03	18.72
499.20	81.92
499.38	16.38
499.56	74.90
499.73	23.41
499.91	42.13
500.08	84.26
500.26	84.26
500.44	58.51
500.61	30.43
500.79	79.58
500.97	44.47
501.14	70.22
501.32	149.79
501.49	140.43
501.67	91.28
501.84	170.86
502.02	72.56
502.20	42.13
502.37	67.88
502.55	95.96
502.72	30.43
502.90	149.79
503.07	84.26
503.25	25.75
503.43	37.45
503.60	67.88
503.78	28.09
503.95	39.79
504.13	126.39
504.30	145.11
504.48	93.62
504.65	56.17
504.83	70.22
505.01	107.66
505.18	53.83
505.36	42.13
505.53	84.26
505.71	79.58
505.88	102.98
506.06	159.16
506.23	25.75
506.41	11.70
506.58	77.24
506.76	77.24
506.93	119.37
507.11	147.45
507.28	72.56
507.46	114.69
507.63	30.43
507.81	63.19
507.98	79.58
508.16	51.49
508.33	79.58
508.50	21.06
508.68	112.35
508.85	142.77
509.03	124.05
509.20	0.00
509.38	88.94
509.55	30.43
509.73	112.35
509.90	84.26
510.08	88.94
510.25	74.90
510.42	81.92
510.60	25.75
510.77	51.49
510.95	112.35
511.12	95.96
511.30	98.30
511.47	53.83
511.64	110.01
511.82	117.03
511.99	100.64
512.17	126.39
512.34	46.81
512.51	79.58
512.69	18.72
512.86	74.90
513.04	70.22
513.21	154.48
513.38	63.19
513.56	84.26
513.73	51.49
513.90	60.85
514.08	100.64
514.25	161.50
514.43	39.79
514.60	95.96
514.77	65.54
514.95	119.37
515.12	110.01
515.29	77.24
515.47	63.19
515.64	81.92
515.81	112.35
515.99	142.77
516.16	60.85
516.33	49.15
516.51	46.81
516.68	145.11
516.85	51.49
517.03	18.72
517.20	84.26
517.37	114.69
517.54	53.83
517.72	91.28
517.89	102.98
518.06	63.19
518.24	53.83
518.41	98.30
518.58	58.51
518.75	91.28
518.93	74.90
519.10	77.24
519.27	56.17
519.45	131.07
519.62	105.32
519.79	72.56
519.96	77.24
520.14	112.35
520.31	25.75
520.48	70.22
520.65	95.96
520.83	30.43
521.00	60.85
521.17	14.04
521.34	102.98
521.52	77.24
521.69	65.54
521.86	53.83
522.03	56.17
522.20	84.26
522.38	84.26
522.55	88.94
522.72	156.82
522.89	86.60
523.07	110.01
523.24	28.09
523.41	30.43
523.58	114.69
523.75	88.94
523.92	86.60
524.10	70.22
524.27	77.24
524.44	102.98
524.61	74.90
524.78	56.17
524.96	79.58
525.13	77.24
525.30	77.24
525.47	145.11
525.64	110.01
525.81	63.19
525.98	114.69
526.16	105.32
526.33	135.75
526.50	7.02
526.67	88.94
526.84	98.30
527.01	44.47
527.18	112.35
527.36	84.26
527.53	107.66
527.70	112.35
527.87	86.60
528.04	84.26
528.21	58.51
528.38	79.58
528.55	81.92
528.72	72.56
528.89	21.06
529.07	60.85
529.24	93.62
529.41	0.00
529.58	65.54
529.75	39.79
529.92	86.60
530.09	49.15
530.26	42.13
530.43	32.77
530.60	131.07
530.77	138.09
530.94	138.09
531.11	23.41
531.28	184.90
531.46	170.86
531.63	58.51
531.80	39.79
531.97	86.60
532.14	124.05
532.31	53.83
532.48	77.24
532.65	67.88
532.82	65.54
532.99	107.66
533.16	95.96
533.33	74.90
533.50	11.70
533.67	77.24
533.84	42.13
534.01	128.73
534.18	35.11
534.35	126.39
534.52	110.01
534.69	51.49
534.86	147.45
535.03	114.69
535.20	0.00
535.37	37.45
535.54	114.69
535.71	49.15
535.88	156.82
536.05	81.92
536.22	95.96
536.38	100.64
536.55	51.49
536.72	28.09
536.89	105.32
537.06	77.24
537.23	58.51
537.40	102.98
537.57	112.35
537.74	121.71
537.91	117.03
538.08	117.03
538.25	105.32
538.42	91.28
538.59	58.51
538.75	105.32
538.92	138.09
539.09	145.11
539.26	56.17
539.43	32.77
539.60	53.83
539.77	84.26
539.94	84.26
540.11	70.22
540.28	84.26
540.44	67.88
540.61	25.75
540.78	84.26
540.95	147.45
541.12	56.17
541.29	74.90
541.46	191.92
541.62	102.98
541.79	110.01
541.96	11.70
542.13	79.58
542.30	105.32
542.47	131.07
542.63	100.64
542.80	77.24
542.97	131.07
543.14	72.56
543.31	2.34
543.48	28.09
543.64	117.03
543.81	79.58
543.98	72.56
544.15	112.35
544.32	46.81
544.48	112.35
544.65	70.22
544.82	58.51
544.99	91.28
545.16	74.90
545.32	79.58
545.49	79.58
545.66	105.32
545.83	74.90
546.00	77.24
546.16	63.19
546.33	79.58
546.50	72.56
546.67	51.49
546.83	44.47
547.00	58.51
547.17	182.56
547.34	74.90
547.50	86.60
547.67	42.13
547.84	81.92
548.00	100.64
548.17	102.98
548.34	42.13
548.51	70.22
548.67	126.39
548.84	138.09
549.01	81.92
549.18	51.49
549.34	149.79
549.51	147.45
549.68	72.56
549.84	49.15
550.01	56.17
550.18	110.01
550.34	79.58
550.51	84.26
550.68	112.35
550.84	121.71
551.01	100.64
551.18	63.19
551.34	95.96
551.51	154.48
551.68	21.06
551.84	100.64
552.01	44.47
552.18	95.96
552.34	72.56
552.51	145.11
552.68	100.64
552.84	100.64
553.01	70.22
553.18	110.01
553.34	110.01
553.51	84.26
553.67	145.11
553.84	124.05
554.01	28.09
554.17	21.06
554.34	74.90
554.51	107.66
554.67	44.47
554.84	0.00
555.00	74.90
555.17	95.96
555.33	142.77
555.50	128.73
555.67	67.88
555.83	9.36
556.00	131.07
556.16	102.98
556.33	53.83
556.50	161.50
556.66	98.30
556.83	91.28
556.99	51.49
557.16	138.09
557.32	102.98
557.49	84.26
557.65	152.13
557.82	117.03
557.98	102.98
558.15	128.73
558.32	107.66
558.48	133.41
558.65	110.01
558.81	93.62
558.98	110.01
559.14	81.92
559.31	39.79
559.47	84.26
559.64	105.32
559.80	86.60
559.97	77.24
560.13	32.77
560.30	114.69
560.46	98.30
560.63	14.04
560.79	44.47
560.96	70.22
561.12	46.81
561.29	11.70
561.45	124.05
561.61	140.43
561.78	121.71
561.94	88.94
562.11	126.39
562.27	105.32
562.44	86.60
562.60	42.13
562.77	98.30
562.93	117.03
563.10	72.56
563.26	28.09
563.42	51.49
563.59	100.64
563.75	152.13
563.92	201.29
564.08	133.41
564.24	39.79
564.41	86.60
564.57	88.94
564.74	74.90
564.90	98.30
565.07	72.56
565.23	154.48
565.39	84.26
565.56	60.85
565.72	60.85
565.88	88.94
566.05	77.24
566.21	42.13
566.38	53.83
566.54	35.11
566.70	117.03
566.87	25.75
567.03	0.00
567.19	110.01
567.36	58.51
567.52	28.09
567.68	121.71
567.85	135.75
568.01	95.96
568.17	53.83
568.34	152.13
568.50	128.73
568.66	79.58
568.83	107.66
568.99	46.81
569.15	74.90
569.32	121.71
569.48	58.51
569.64	117.03
569.81	102.98
569.97	23.41
570.13	44.47
570.30	91.28
570.46	42.13
570.62	98.30
570.78	11.70
570.95	98.30
571.11	14.04
571.27	74.90
571.43	93.62
571.60	58.51
571.76	51.49
571.92	65.54
572.09	53.83
572.25	110.01
572.41	79.58
572.57	77.24
572.74	28.09
572.90	74.90
573.06	63.19
573.22	100.64
573.38	105.32
573.55	81.92
573.71	51.49
573.87	37.45
574.03	58.51
574.20	175.54
574.36	147.45
574.52	177.88
574.68	37.45
574.84	88.94
575.01	112.35
575.17	42.13
575.33	18.72
575.49	121.71
575.65	112.35
575.82	72.56
575.98	63.19
576.14	88.94
576.30	21.06
576.46	32.77
576.62	88.94
576.79	16.38
576.95	4.68
577.11	79.58
577.27	42.13
577.43	112.35
577.59	154.48
577.75	102.98
577.92	51.49
578.08	25.75
578.24	53.83
578.40	58.51
578.56	86.60
578.72	4.68
578.88	35.11
579.04	65.54
579.21	131.07
579.37	95.96
579.53	49.15
579.69	128.73
579.85	23.41
580.01	0.00
580.17	67.88
580.33	65.54
580.49	74.90
580.65	37.45
580.82	81.92
580.98	70.22
581.14	39.79
581.30	46.81
581.46	86.60
581.62	102.98
581.78	58.51
581.94	236.39
582.10	98.30
582.26	93.62
582.42	37.45
582.58	23.41
582.74	28.09
582.90	30.43
583.06	100.64
583.22	37.45
583.38	49.15
583.54	107.66
583.70	77.24
583.86	53.83
584.02	37.45
584.18	67.88
584.34	128.73
584.50	30.43
584.66	126.39
584.82	77.24
584.98	0.00
585.14	131.07
585.30	105.32
585.46	156.82
585.62	16.38
585.78	4.68
585.94	28.09
586.10	32.77
586.26	51.49
586.42	70.22
586.58	77.24
586.74	72.56
586.90	49.15
587.06	65.54
587.22	100.64
587.38	58.51
587.54	63.19
587.70	124.05
587.86	67.88
588.02	72.56
588.18	46.81
588.34	0.00
588.49	42.13
588.65	100.64
588.81	23.41
588.97	72.56
589.13	23.41
589.29	44.47
589.45	21.06
589.61	0.00
589.77	140.43
589.93	51.49
590.08	0.00
590.24	37.45
590.40	58.51
590.56	126.39
590.72	30.43
590.88	119.37
591.04	126.39
591.20	56.17
591.35	77.24
591.51	53.83
591.67	60.85
591.83	70.22
591.99	98.30
592.15	105.32
592.31	21.06
592.46	11.70
592.62	102.98
592.78	37.45
592.94	81.92
593.10	49.15
593.26	0.00
593.41	21.06
593.57	0.00
593.73	74.90
593.89	95.96
594.05	60.85
594.20	60.85
594.36	7.02
594.52	65.54
594.68	67.88
594.84	32.77
594.99	56.17
595.15	142.77
595.31	107.66
595.47	53.83
595.62	49.15
595.78	14.04
595.94	30.43
596.10	95.96
596.25	58.51
596.41	0.00
596.57	32.77
596.73	0.00
596.88	67.88
597.04	30.43
597.20	102.98
597.36	0.00
597.51	53.83
597.67	42.13
597.83	112.35
597.99	42.13
598.14	131.07
598.30	88.94
598.46	63.19
598.61	65.54
598.77	56.17
598.93	46.81
599.09	30.43
599.24	63.19
599.40	88.94
599.56	56.17
599.71	44.47
599.87	44.47
600.03	14.04
600.18	56.17
600.34	21.06
600.50	110.01
600.65	25.75
600.81	88.94
600.97	35.11
601.12	93.62
601.28	156.82
601.44	128.73
601.59	72.56
601.75	35.11
601.91	56.17
602.06	63.19
602.22	133.41
602.37	100.64
602.53	28.09
602.69	84.26
602.84	72.56
603.00	18.72
603.16	86.60
603.31	93.62
603.47	133.41
603.62	49.15
603.78	77.24
603.94	21.06
604.09	37.45
604.25	105.32
604.40	72.56
604.56	184.90
604.71	46.81
604.87	46.81
605.03	56.17
605.18	37.45
605.34	51.49
605.49	42.13
605.65	11.70
605.80	81.92
605.96	110.01
606.12	98.30
606.27	23.41
606.43	121.71
606.58	7.02
606.74	25.75
606.89	98.30
607.05	51.49
607.20	28.09
607.36	60.85
607.51	53.83
607.67	56.17
607.82	0.00
607.98	114.69
608.13	112.35
608.29	86.60
608.44	46.81
608.60	56.17
608.75	72.56
608.91	133.41
609.06	74.90
609.22	119.37
609.37	4.68
609.53	86.60
609.68	91.28
609.84	63.19
609.99	46.81
610.15	0.00
610.30	11.70
610.46	135.75
610.61	58.51
610.76	147.45
610.92	147.45
611.07	112.35
611.23	44.47
611.38	28.09
611.54	56.17
611.69	74.90
611.84	72.56
612.00	119.37
612.15	58.51
612.31	117.03
612.46	28.09
612.62	53.83
612.77	35.11
612.92	56.17
613.08	0.00
613.23	72.56
613.39	53.83
613.54	63.19
613.69	60.85
613.85	18.72
614.00	58.51
614.15	84.26
614.31	28.09
614.46	131.07
614.62	72.56
614.77	44.47
614.92	46.81
615.08	93.62
615.23	79.58
615.38	79.58
615.54	53.83
615.69	98.30
615.84	114.69
616.00	119.37
616.15	51.49
616.30	105.32
616.46	77.24
616.61	46.81
616.76	102.98
616.92	112.35
617.07	124.05
617.22	81.92
617.37	72.56
617.53	56.17
617.68	93.62
617.83	28.09
617.99	72.56
618.14	91.28
618.29	84.26
618.45	67.88
618.60	9.36
618.75	53.83
618.90	138.09
619.06	105.32
619.21	91.28
619.36	53.83
619.51	14.04
619.67	79.58
619.82	79.58
619.97	121.71
620.12	91.28
620.28	53.83
620.43	81.92
620.58	4.68
620.73	93.62
620.89	56.17
621.04	131.07
621.19	81.92
621.34	124.05
621.49	0.00
621.65	46.81
621.80	100.64
621.95	114.69
622.10	95.96
622.25	70.22
622.41	56.17
622.56	79.58
622.71	49.15
622.86	84.26
623.01	102.98
623.16	105.32
623.32	91.28
623.47	44.47
623.62	42.13
623.77	60.85
623.92	84.26
624.07	58.51
624.23	32.77
624.38	84.26
624.53	131.07
624.68	39.79
624.83	0.00
624.98	79.58
625.13	77.24
625.29	93.62
625.44	72.56
625.59	67.88
625.74	93.62
625.89	58.51
626.04	42.13
626.19	65.54
626.34	95.96
626.49	63.19
626.65	0.00
626.80	44.47
626.95	58.51
627.10	102.98
627.25	72.56
627.40	32.77
627.55	105.32
627.70	100.64
627.85	28.09
628.00	46.81
628.15	70.22
628.30	65.54
628.45	65.54
628.60	39.79
628.76	117.03
628.91	86.60
629.06	37.45
629.21	30.43
629.36	56.17
629.51	79.58
629.66	44.47
629.81	16.38
629.96	86.60
630.11	105.32
630.26	77.24
630.41	70.22
630.56	63.19
630.71	56.17
630.86	91.28
631.01	138.09
631.16	133.41
631.31	16.38
631.46	23.41
631.61	44.47
631.76	0.00
631.91	51.49
632.06	88.94
632.21	23.41
632.36	11.70
632.51	112.35
632.66	23.41
632.81	14.04
632.96	81.92
633.10	60.85
633.25	91.28
633.40	53.83
633.55	63.19
633.70	0.00
633.85	51.49
634.00	56.17
634.15	9.36
634.30	79.58
634.45	88.94
634.60	84.26
634.75	42.13
634.90	0.00
635.05	77.24
635.19	28.09
635.34	84.26
635.49	77.24
635.64	117.03
635.79	4.68
635.94	86.60
636.09	60.85
636.24	86.60
636.39	53.83
636.53	100.64
636.68	65.54
636.83	60.85
636.98	105.32
637.13	44.47
637.28	58.51
637.43	0.00
637.57	53.83
637.72	11.70
637.87	25.75
638.02	0.00
638.17	51.49
638.32	67.88
638.46	72.56
638.61	140.43
638.76	77.24
638.91	77.24
639.06	14.04
639.20	119.37
639.35	35.11
639.50	60.85
639.65	30.43
639.80	16.38
639.94	0.00
640.09	25.75
640.24	119.37
640.39	46.81
640.54	56.17
640.68	46.81
640.83	112.35
640.98	4.68
641.13	0.00
641.27	91.28
641.42	2.34
641.57	0.00
641.72	95.96
641.86	25.75
642.01	14.04
642.16	28.09
642.31	21.06
642.45	70.22
642.60	21.06
642.75	63.19
642.90	23.41
643.04	91.28
643.19	51.49
643.34	63.19
643.48	28.09
643.63	53.83
643.78	11.70
643.93	32.77
644.07	16.38
644.22	42.13
644.37	39.79
644.51	0.00
644.66	46.81
644.81	0.00
644.95	25.75
645.10	79.58
645.25	49.15
645.39	51.49
645.54	0.00
645.69	79.58
645.83	56.17
645.98	60.85
646.13	60.85
646.27	65.54
646.42	79.58
646.57	51.49
646.71	91.28
646.86	16.38
647.00	70.22
647.15	35.11
647.30	140.43
647.44	74.90
647.59	9.36
647.74	46.81
647.88	11.70
648.03	23.41
648.17	0.00
648.32	79.58
648.47	102.98
648.61	56.17
648.76	60.85
648.90	166.18
649.05	67.88
649.20	102.98
649.34	53.83
649.49	7.02
649.63	0.00
649.78	16.38
649.92	53.83
650.07	32.77
650.21	28.09
650.36	72.56
650.51	4.68
650.65	72.56
650.80	0.00
650.94	0.00
651.09	0.00
651.23	67.88
651.38	7.02
651.52	23.41
651.67	84.26
651.81	51.49
651.96	112.35
652.10	51.49
652.25	0.00
652.39	18.72
652.54	65.54
652.68	117.03
652.83	0.00
652.97	56.17
653.12	60.85
653.26	60.85
653.41	30.43
653.55	21.06
653.70	30.43
653.84	79.58
653.99	67.88
654.13	128.73
654.27	91.28
654.42	65.54
654.56	131.07
654.71	74.90
654.85	9.36
655.00	138.09
655.14	107.66
655.29	65.54
655.43	46.81
655.57	65.54
655.72	46.81
655.86	37.45
656.01	18.72
656.15	63.19
656.30	14.04
656.44	0.00
656.58	0.00
656.73	0.00
656.87	60.85
657.01	67.88
657.16	18.72
657.30	65.54
657.45	51.49
657.59	77.24
657.73	56.17
657.88	32.77
658.02	58.51
658.16	98.30
658.31	42.13
658.45	46.81
658.60	0.00
658.74	100.64
658.88	35.11
659.03	39.79
659.17	35.11
659.31	16.38
659.46	32.77
659.60	14.04
659.74	53.83
659.89	107.66
660.03	63.19
660.17	67.88
660.32	35.11
660.46	32.77
660.60	93.62
660.74	44.47
660.89	60.85
661.03	18.72
661.17	84.26
661.32	28.09
661.46	0.00
661.60	100.64
661.74	60.85
661.89	60.85
662.03	46.81
662.17	21.06
662.31	21.06
662.46	79.58
662.60	2.34
662.74	91.28
662.88	126.39
663.03	18.72
663.17	53.83
663.31	16.38
663.45	42.13
663.60	107.66
663.74	25.75
663.88	65.54
664.02	39.79
664.17	58.51
664.31	65.54
664.45	0.00
664.59	86.60
664.73	63.19
664.88	32.77
665.02	98.30
665.16	11.70
665.30	46.81
665.44	79.58
665.59	70.22
665.73	46.81
665.87	0.00
666.01	107.66
666.15	67.88
666.29	60.85
666.44	0.00
666.58	51.49
666.72	51.49
666.86	60.85
667.00	30.43
667.14	42.13
667.28	86.60
667.43	21.06
667.57	88.94
667.71	0.00
667.85	65.54
667.99	0.00
668.13	46.81
668.27	110.01
668.41	53.83
668.56	110.01
668.70	25.75
668.84	9.36
668.98	4.68
669.12	28.09
669.26	49.15
669.40	63.19
669.54	65.54
669.68	53.83
669.82	58.51
669.96	32.77
670.10	84.26
670.25	117.03
670.39	86.60
670.53	16.38
670.67	21.06
670.81	86.60
670.95	72.56
671.09	21.06
671.23	84.26
671.37	63.19
671.51	70.22
671.65	70.22
671.79	46.81
671.93	0.00
672.07	110.01
672.21	21.06
672.35	77.24
672.49	81.92
672.63	53.83
672.77	9.36
672.91	51.49
673.05	91.28
673.19	4.68
673.33	23.41
673.47	86.60
673.61	23.41
673.75	102.98
673.89	11.70
674.03	58.51
674.17	30.43
674.31	67.88
674.45	23.41
674.59	4.68
674.73	67.88
674.87	49.15
675.01	0.00
675.15	25.75
675.29	114.69
675.43	0.00
675.56	42.13
675.70	18.72
675.84	51.49
675.98	53.83
676.12	2.34
676.26	16.38
676.40	9.36
676.54	0.00
676.68	21.06
676.82	23.41
676.96	46.81
677.10	25.75
677.23	28.09
677.37	93.62
677.51	93.62
677.65	98.30
677.79	110.01
677.93	16.38
678.07	32.77
678.21	30.43
678.34	39.79
678.48	0.00
678.62	58.51
678.76	60.85
678.90	30.43
679.04	56.17
679.18	67.88
679.31	0.00
679.45	81.92
679.59	46.81
679.73	65.54
679.87	56.17
680.00	100.64
680.14	25.75
680.28	0.00
680.42	0.00
680.56	14.04
680.70	0.00
680.83	63.19
680.97	79.58
681.11	21.06
681.25	58.51
681.39	51.49
681.52	25.75
681.66	21.06
681.80	25.75
681.94	30.43
682.07	70.22
682.21	56.17
682.35	74.90
682.49	9.36
682.62	21.06
682.76	79.58
682.90	0.00
683.04	0.00
683.17	58.51
683.31	16.38
683.45	0.00
683.59	44.47
683.72	72.56
683.86	114.69
684.00	0.00
684.13	16.38
684.27	51.49
684.41	9.36
684.55	60.85
684.68	18.72
684.82	35.11
684.96	23.41
685.09	98.30
685.23	86.60
685.37	18.72
685.50	124.05
685.64	100.64
685.78	0.00
685.91	79.58
686.05	32.77
686.19	81.92
686.32	23.41
686.46	37.45
686.60	58.51
686.73	18.72
686.87	112.35
687.01	9.36
687.14	86.60
687.28	21.06
687.42	72.56
687.55	0.00
687.69	86.60
687.82	0.00
687.96	0.00
688.10	60.85
688.23	58.51
688.37	95.96
688.50	9.36
688.64	16.38
688.78	4.68
688.91	32.77
689.05	86.60
689.18	37.45
689.32	0.00
689.46	14.04
689.59	0.00
689.73	21.06
689.86	56.17
690.00	72.56
690.13	102.98
690.27	0.00
690.41	0.00
690.54	0.00
690.68	100.64
690.81	65.54
690.95	58.51
691.08	0.00
691.22	23.41
691.35	0.00
691.49	88.94
691.62	9.36
691.76	14.04
691.89	4.68
692.03	0.00
692.16	32.77
692.30	0.00
692.43	44.47
692.57	72.56
692.70	14.04
692.84	44.47
692.97	18.72
693.11	44.47
693.24	28.09
693.38	51.49
693.51	63.19
693.65	88.94
693.78	4.68
693.92	70.22
694.05	70.22
694.19	21.06
694.32	0.00
694.45	21.06
694.59	39.79
694.72	0.00
694.86	21.06
694.99	79.58
695.13	14.04
695.26	25.75
695.39	25.75
695.53	44.47
695.66	0.00
695.80	49.15
695.93	49.15
696.07	21.06
696.20	30.43
696.33	0.00
696.47	4.68
696.60	23.41
696.73	63.19
696.87	0.00
697.00	58.51
697.14	88.94
697.27	0.00
697.40	2.34
697.54	60.85
697.67	88.94
697.80	79.58
697.94	46.81
698.07	0.00
698.21	98.30
698.34	84.26
698.47	46.81
698.61	32.77
698.74	35.11
698.87	0.00
699.01	9.36
699.14	0.00
699.27	88.94
699.40	53.83
699.54	56.17
699.67	25.75
699.80	4.68
699.94	39.79
700.07	46.81
700.20	72.56
700.34	74.90
700.47	49.15
700.60	56.17
700.73	74.90
700.87	42.13
701.00	0.00
701.13	0.00
701.26	70.22
701.40	56.17
701.53	25.75
701.66	49.15
701.79	63.19
701.93	25.75
702.06	23.41
702.19	21.06
702.32	0.00
702.46	16.38
702.59	23.41
702.72	56.17
702.85	86.60
702.99	58.51
703.12	70.22
703.25	65.54
703.38	63.19
703.51	0.00
703.65	16.38
703.78	0.00
703.91	18.72
704.04	88.94
704.17	100.64
704.31	23.41
704.44	32.77
704.57	102.98
704.70	28.09
704.83	0.00
704.96	7.02
705.10	2.34
705.23	25.75
>>>>>End Processed Spectral Data<<<<<
