SpectraSuite Data File
++++++++++++++++++++++++++++++++++++
Date: Fri Oct 04 12:13:42 GMT-05:00 2013
User: price-jones
Dark Spectrum Present: No
Reference Spectrum Present: No
Number of Sampled Component Spectra: 1
Spectrometers: USB2+H05261
Integration Time (usec): 10000 (USB2+H05261)
Spectra Averaged: 1 (USB2+H05261)
Boxcar Smoothing: 0 (USB2+H05261)
Correct for Electrical Dark: No (USB2+H05261)
Strobe/Lamp Enabled: No (USB2+H05261)
Correct for Detector Non-linearity: No (USB2+H05261)
Correct for Stray Light: No (USB2+H05261)
Number of Pixels in Processed Spectrum: 2048
>>>>>Begin Processed Spectral Data<<<<<
365.73	0.00
365.92	0.00
366.12	0.00
366.32	0.00
366.52	0.00
366.72	0.00
366.91	0.00
367.11	0.00
367.31	0.00
367.51	0.00
367.70	0.00
367.90	0.00
368.10	0.00
368.30	0.00
368.49	0.00
368.69	0.00
368.89	0.00
369.09	0.00
369.28	0.00
369.48	0.00
369.68	0.00
369.87	0.00
370.07	0.00
370.27	0.00
370.47	0.00
370.66	0.00
370.86	0.00
371.06	14.04
371.25	0.00
371.45	0.00
371.65	9.36
371.84	0.00
372.04	51.49
372.24	0.00
372.44	16.38
372.63	0.00
372.83	56.17
373.03	42.13
373.22	9.36
373.42	0.00
373.62	21.06
373.81	7.02
374.01	39.79
374.21	0.00
374.40	72.56
374.60	11.70
374.79	32.77
374.99	0.00
375.19	14.04
375.38	72.56
375.58	100.64
375.78	42.13
375.97	37.45
376.17	4.68
376.37	2.34
376.56	4.68
376.76	58.51
376.95	2.34
377.15	102.98
377.35	0.00
377.54	0.00
377.74	16.38
377.93	58.51
378.13	0.00
378.33	0.00
378.52	60.85
378.72	74.90
378.91	0.00
379.11	16.38
379.31	42.13
379.50	11.70
379.70	0.00
379.89	81.92
380.09	11.70
380.28	58.51
380.48	18.72
380.68	0.00
380.87	56.17
381.07	0.00
381.26	53.83
381.46	0.00
381.65	21.06
381.85	0.00
382.04	79.58
382.24	9.36
382.43	23.41
382.63	0.00
382.83	86.60
383.02	0.00
383.22	39.79
383.41	67.88
383.61	0.00
383.80	32.77
384.00	0.00
384.19	14.04
384.39	53.83
384.58	86.60
384.78	0.00
384.97	18.72
385.17	67.88
385.36	63.19
385.56	81.92
385.75	65.54
385.95	2.34
386.14	16.38
386.34	46.81
386.53	74.90
386.72	84.26
386.92	7.02
387.11	51.49
387.31	51.49
387.50	0.00
387.70	0.00
387.89	28.09
388.09	23.41
388.28	35.11
388.48	28.09
388.67	58.51
388.86	53.83
389.06	44.47
389.25	28.09
389.45	72.56
389.64	0.00
389.84	60.85
390.03	42.13
390.22	53.83
390.42	32.77
390.61	44.47
390.81	53.83
391.00	11.70
391.19	0.00
391.39	0.00
391.58	67.88
391.78	11.70
391.97	100.64
392.16	0.00
392.36	4.68
392.55	28.09
392.75	67.88
392.94	44.47
393.13	0.00
393.33	30.43
393.52	70.22
393.71	63.19
393.91	7.02
394.10	0.00
394.29	65.54
394.49	67.88
394.68	60.85
394.88	81.92
395.07	14.04
395.26	14.04
395.46	51.49
395.65	51.49
395.84	32.77
396.04	42.13
396.23	37.45
396.42	14.04
396.62	74.90
396.81	28.09
397.00	11.70
397.19	0.00
397.39	58.51
397.58	4.68
397.77	0.00
397.97	21.06
398.16	49.15
398.35	7.02
398.55	0.00
398.74	18.72
398.93	105.32
399.12	14.04
399.32	32.77
399.51	9.36
399.70	98.30
399.90	86.60
400.09	49.15
400.28	0.00
400.47	88.94
400.67	0.00
400.86	84.26
401.05	0.00
401.24	74.90
401.44	100.64
401.63	14.04
401.82	39.79
402.01	0.00
402.21	0.00
402.40	49.15
402.59	25.75
402.78	21.06
402.97	0.00
403.17	39.79
403.36	53.83
403.55	77.24
403.74	42.13
403.93	16.38
404.13	39.79
404.32	21.06
404.51	56.17
404.70	0.00
404.89	49.15
405.09	44.47
405.28	42.13
405.47	30.43
405.66	51.49
405.85	35.11
406.05	18.72
406.24	42.13
406.43	30.43
406.62	42.13
406.81	49.15
407.00	0.00
407.20	39.79
407.39	81.92
407.58	107.66
407.77	95.96
407.96	0.00
408.15	44.47
408.34	0.00
408.54	4.68
408.73	49.15
408.92	30.43
409.11	16.38
409.30	58.51
409.49	28.09
409.68	0.00
409.87	117.03
410.07	105.32
410.26	35.11
410.45	14.04
410.64	4.68
410.83	30.43
411.02	46.81
411.21	2.34
411.40	11.70
411.59	60.85
411.78	0.00
411.98	42.13
412.17	65.54
412.36	63.19
412.55	18.72
412.74	65.54
412.93	16.38
413.12	84.26
413.31	74.90
413.50	32.77
413.69	107.66
413.88	110.01
414.07	21.06
414.26	32.77
414.45	35.11
414.64	81.92
414.83	37.45
415.02	60.85
415.22	128.73
415.41	0.00
415.60	44.47
415.79	98.30
415.98	0.00
416.17	84.26
416.36	11.70
416.55	0.00
416.74	28.09
416.93	9.36
417.12	65.54
417.31	51.49
417.50	0.00
417.69	107.66
417.88	16.38
418.07	65.54
418.26	0.00
418.45	86.60
418.64	60.85
418.83	72.56
419.02	63.19
419.21	0.00
419.39	9.36
419.58	67.88
419.77	21.06
419.96	93.62
420.15	58.51
420.34	46.81
420.53	16.38
420.72	138.09
420.91	49.15
421.10	44.47
421.29	11.70
421.48	23.41
421.67	72.56
421.86	0.00
422.05	95.96
422.24	67.88
422.43	46.81
422.61	39.79
422.80	21.06
422.99	0.00
423.18	0.00
423.37	46.81
423.56	0.00
423.75	32.77
423.94	44.47
424.13	18.72
424.32	102.98
424.50	70.22
424.69	0.00
424.88	121.71
425.07	42.13
425.26	95.96
425.45	51.49
425.64	77.24
425.83	42.13
426.01	46.81
426.20	37.45
426.39	37.45
426.58	79.58
426.77	51.49
426.96	2.34
427.15	30.43
427.33	51.49
427.52	37.45
427.71	32.77
427.90	72.56
428.09	63.19
428.28	53.83
428.46	0.00
428.65	0.00
428.84	81.92
429.03	65.54
429.22	2.34
429.40	60.85
429.59	77.24
429.78	44.47
429.97	93.62
430.16	28.09
430.34	49.15
430.53	11.70
430.72	51.49
430.91	60.85
431.10	86.60
431.28	25.75
431.47	11.70
431.66	0.00
431.85	56.17
432.03	74.90
432.22	0.00
432.41	0.00
432.60	2.34
432.79	84.26
432.97	51.49
433.16	25.75
433.35	72.56
433.54	0.00
433.72	32.77
433.91	0.00
434.10	102.98
434.28	46.81
434.47	51.49
434.66	30.43
434.85	14.04
435.03	105.32
435.22	74.90
435.41	25.75
435.59	14.04
435.78	67.88
435.97	28.09
436.16	0.00
436.34	86.60
436.53	63.19
436.72	44.47
436.90	72.56
437.09	67.88
437.28	60.85
437.46	70.22
437.65	117.03
437.84	42.13
438.02	56.17
438.21	28.09
438.40	32.77
438.58	23.41
438.77	100.64
438.96	100.64
439.14	77.24
439.33	70.22
439.52	30.43
439.70	100.64
439.89	0.00
440.08	0.00
440.26	77.24
440.45	126.39
440.63	98.30
440.82	107.66
441.01	37.45
441.19	35.11
441.38	44.47
441.57	32.77
441.75	74.90
441.94	65.54
442.12	23.41
442.31	93.62
442.50	72.56
442.68	44.47
442.87	42.13
443.05	58.51
443.24	16.38
443.43	51.49
443.61	107.66
443.80	67.88
443.98	95.96
444.17	60.85
444.35	7.02
444.54	79.58
444.73	37.45
444.91	23.41
445.10	98.30
445.28	44.47
445.47	35.11
445.65	11.70
445.84	86.60
446.02	77.24
446.21	77.24
446.39	93.62
446.58	51.49
446.77	51.49
446.95	95.96
447.14	32.77
447.32	56.17
447.51	60.85
447.69	37.45
447.88	98.30
448.06	35.11
448.25	30.43
448.43	42.13
448.62	131.07
448.80	58.51
448.99	79.58
449.17	67.88
449.36	67.88
449.54	74.90
449.73	77.24
449.91	0.00
450.10	98.30
450.28	44.47
450.46	0.00
450.65	44.47
450.83	88.94
451.02	9.36
451.20	119.37
451.39	46.81
451.57	107.66
451.76	23.41
451.94	74.90
452.13	11.70
452.31	39.79
452.49	46.81
452.68	114.69
452.86	72.56
453.05	58.51
453.23	0.00
453.42	14.04
453.60	131.07
453.78	81.92
453.97	23.41
454.15	77.24
454.34	51.49
454.52	58.51
454.70	51.49
454.89	156.82
455.07	60.85
455.26	79.58
455.44	70.22
455.62	95.96
455.81	49.15
455.99	135.75
456.17	56.17
456.36	14.04
456.54	14.04
456.73	30.43
456.91	11.70
457.09	58.51
457.28	51.49
457.46	74.90
457.64	110.01
457.83	74.90
458.01	93.62
458.19	67.88
458.38	16.38
458.56	32.77
458.74	107.66
458.93	60.85
459.11	44.47
459.29	65.54
459.48	86.60
459.66	0.00
459.84	23.41
460.03	53.83
460.21	11.70
460.39	37.45
460.57	91.28
460.76	53.83
460.94	91.28
461.12	46.81
461.31	51.49
461.49	112.35
461.67	53.83
461.85	49.15
462.04	23.41
462.22	121.71
462.40	23.41
462.59	60.85
462.77	105.32
462.95	11.70
463.13	56.17
463.32	23.41
463.50	72.56
463.68	91.28
463.86	107.66
464.05	46.81
464.23	74.90
464.41	0.00
464.59	91.28
464.78	77.24
464.96	0.00
465.14	91.28
465.32	16.38
465.50	18.72
465.69	77.24
465.87	100.64
466.05	14.04
466.23	51.49
466.41	0.00
466.60	91.28
466.78	72.56
466.96	18.72
467.14	124.05
467.32	42.13
467.51	35.11
467.69	86.60
467.87	72.56
468.05	95.96
468.23	23.41
468.41	93.62
468.60	35.11
468.78	44.47
468.96	86.60
469.14	46.81
469.32	91.28
469.50	0.00
469.69	112.35
469.87	63.19
470.05	23.41
470.23	149.79
470.41	60.85
470.59	86.60
470.77	77.24
470.95	74.90
471.14	18.72
471.32	16.38
471.50	21.06
471.68	81.92
471.86	7.02
472.04	46.81
472.22	60.85
472.40	110.01
472.58	84.26
472.77	77.24
472.95	4.68
473.13	91.28
473.31	63.19
473.49	32.77
473.67	0.00
473.85	30.43
474.03	56.17
474.21	60.85
474.39	16.38
474.57	72.56
474.75	98.30
474.93	39.79
475.12	51.49
475.30	93.62
475.48	0.00
475.66	39.79
475.84	14.04
476.02	51.49
476.20	84.26
476.38	32.77
476.56	46.81
476.74	58.51
476.92	39.79
477.10	11.70
477.28	112.35
477.46	95.96
477.64	70.22
477.82	117.03
478.00	63.19
478.18	2.34
478.36	32.77
478.54	53.83
478.72	140.43
478.90	56.17
479.08	93.62
479.26	14.04
479.44	53.83
479.62	88.94
479.80	105.32
479.98	46.81
480.16	60.85
480.34	42.13
480.52	63.19
480.70	30.43
480.88	138.09
481.06	37.45
481.24	53.83
481.41	37.45
481.59	105.32
481.77	107.66
481.95	39.79
482.13	7.02
482.31	100.64
482.49	51.49
482.67	77.24
482.85	56.17
483.03	70.22
483.21	81.92
483.39	56.17
483.57	42.13
483.74	0.00
483.92	30.43
484.10	30.43
484.28	110.01
484.46	18.72
484.64	16.38
484.82	46.81
485.00	65.54
485.18	60.85
485.35	51.49
485.53	46.81
485.71	28.09
485.89	0.00
486.07	77.24
486.25	163.84
486.43	42.13
486.61	100.64
486.78	0.00
486.96	42.13
487.14	81.92
487.32	79.58
487.50	42.13
487.68	102.98
487.85	100.64
488.03	98.30
488.21	91.28
488.39	60.85
488.57	72.56
488.75	32.77
488.92	84.26
489.10	112.35
489.28	0.00
489.46	84.26
489.64	39.79
489.81	51.49
489.99	84.26
490.17	91.28
490.35	121.71
490.53	126.39
490.70	67.88
490.88	93.62
491.06	98.30
491.24	51.49
491.41	74.90
491.59	70.22
491.77	102.98
491.95	91.28
492.13	86.60
492.30	32.77
492.48	16.38
492.66	93.62
492.84	100.64
493.01	98.30
493.19	67.88
493.37	84.26
493.54	79.58
493.72	102.98
493.90	0.00
494.08	49.15
494.25	81.92
494.43	100.64
494.61	184.90
494.79	65.54
494.96	156.82
495.14	81.92
495.32	88.94
495.49	51.49
495.67	98.30
495.85	105.32
496.02	131.07
496.20	63.19
496.38	53.83
496.55	16.38
496.73	133.41
496.91	124.05
497.09	140.43
497.26	56.17
497.44	140.43
497.62	37.45
497.79	81.92
497.97	53.83
498.14	46.81
498.32	93.62
498.50	28.09
498.67	79.58
498.85	35.11
499.03	49.15
499.20	124.05
499.38	81.92
499.56	72.56
499.73	88.94
499.91	51.49
500.08	121.71
500.26	37.45
500.44	72.56
500.61	100.64
500.79	9.36
500.97	25.75
501.14	105.32
501.32	56.17
501.49	124.05
501.67	126.39
501.84	93.62
502.02	63.19
502.20	133.41
502.37	42.13
502.55	117.03
502.72	88.94
502.90	107.66
503.07	49.15
503.25	32.77
503.43	65.54
503.60	133.41
503.78	65.54
503.95	35.11
504.13	42.13
504.30	128.73
504.48	112.35
504.65	65.54
504.83	95.96
505.01	86.60
505.18	107.66
505.36	102.98
505.53	79.58
505.71	77.24
505.88	65.54
506.06	4.68
506.23	112.35
506.41	93.62
506.58	124.05
506.76	107.66
506.93	114.69
507.11	79.58
507.28	133.41
507.46	95.96
507.63	74.90
507.81	145.11
507.98	67.88
508.16	0.00
508.33	46.81
508.50	42.13
508.68	100.64
508.85	145.11
509.03	37.45
509.20	86.60
509.38	126.39
509.55	117.03
509.73	86.60
509.90	77.24
510.08	88.94
510.25	100.64
510.42	53.83
510.60	86.60
510.77	65.54
510.95	91.28
511.12	32.77
511.30	112.35
511.47	86.60
511.64	74.90
511.82	16.38
511.99	98.30
512.17	44.47
512.34	133.41
512.51	56.17
512.69	86.60
512.86	74.90
513.04	105.32
513.21	112.35
513.38	74.90
513.56	70.22
513.73	77.24
513.90	53.83
514.08	23.41
514.25	42.13
514.43	95.96
514.60	49.15
514.77	74.90
514.95	133.41
515.12	72.56
515.29	67.88
515.47	58.51
515.64	56.17
515.81	35.11
515.99	102.98
516.16	51.49
516.33	16.38
516.51	46.81
516.68	88.94
516.85	84.26
517.03	110.01
517.20	133.41
517.37	110.01
517.54	121.71
517.72	77.24
517.89	39.79
518.06	51.49
518.24	84.26
518.41	81.92
518.58	105.32
518.75	21.06
518.93	56.17
519.10	51.49
519.27	119.37
519.45	107.66
519.62	110.01
519.79	114.69
519.96	107.66
520.14	32.77
520.31	42.13
520.48	93.62
520.65	100.64
520.83	70.22
521.00	105.32
521.17	86.60
521.34	28.09
521.52	56.17
521.69	117.03
521.86	28.09
522.03	74.90
522.20	30.43
522.38	107.66
522.55	124.05
522.72	128.73
522.89	53.83
523.07	91.28
523.24	46.81
523.41	86.60
523.58	156.82
523.75	105.32
523.92	149.79
524.10	166.18
524.27	126.39
524.44	95.96
524.61	135.75
524.78	28.09
524.96	23.41
525.13	133.41
525.30	32.77
525.47	152.13
525.64	46.81
525.81	58.51
525.98	88.94
526.16	95.96
526.33	149.79
526.50	72.56
526.67	2.34
526.84	39.79
527.01	53.83
527.18	79.58
527.36	65.54
527.53	74.90
527.70	149.79
527.87	88.94
528.04	102.98
528.21	7.02
528.38	32.77
528.55	65.54
528.72	84.26
528.89	102.98
529.07	51.49
529.24	74.90
529.41	102.98
529.58	9.36
529.75	159.16
529.92	135.75
530.09	119.37
530.26	140.43
530.43	128.73
530.60	58.51
530.77	77.24
530.94	95.96
531.11	105.32
531.28	65.54
531.46	0.00
531.63	51.49
531.80	53.83
531.97	35.11
532.14	138.09
532.31	91.28
532.48	46.81
532.65	44.47
532.82	100.64
532.99	72.56
533.16	88.94
533.33	51.49
533.50	81.92
533.67	119.37
533.84	63.19
534.01	79.58
534.18	70.22
534.35	7.02
534.52	138.09
534.69	30.43
534.86	46.81
535.03	60.85
535.20	88.94
535.37	37.45
535.54	105.32
535.71	91.28
535.88	84.26
536.05	4.68
536.22	23.41
536.38	112.35
536.55	110.01
536.72	44.47
536.89	79.58
537.06	74.90
537.23	149.79
537.40	107.66
537.57	60.85
537.74	147.45
537.91	154.48
538.08	91.28
538.25	124.05
538.42	95.96
538.59	21.06
538.75	121.71
538.92	95.96
539.09	63.19
539.26	58.51
539.43	100.64
539.60	100.64
539.77	60.85
539.94	72.56
540.11	152.13
540.28	63.19
540.44	114.69
540.61	67.88
540.78	72.56
540.95	102.98
541.12	44.47
541.29	114.69
541.46	56.17
541.62	86.60
541.79	126.39
541.96	65.54
542.13	74.90
542.30	86.60
542.47	114.69
542.63	67.88
542.80	46.81
542.97	175.54
543.14	117.03
543.31	74.90
543.48	86.60
543.64	135.75
543.81	112.35
543.98	145.11
544.15	124.05
544.32	74.90
544.48	114.69
544.65	51.49
544.82	42.13
544.99	70.22
545.16	51.49
545.32	77.24
545.49	32.77
545.66	65.54
545.83	98.30
546.00	53.83
546.16	110.01
546.33	18.72
546.50	79.58
546.67	114.69
546.83	30.43
547.00	65.54
547.17	88.94
547.34	37.45
547.50	81.92
547.67	88.94
547.84	53.83
548.00	102.98
548.17	23.41
548.34	88.94
548.51	100.64
548.67	86.60
548.84	133.41
549.01	79.58
549.18	0.00
549.34	93.62
549.51	88.94
549.68	91.28
549.84	51.49
550.01	63.19
550.18	88.94
550.34	112.35
550.51	11.70
550.68	121.71
550.84	91.28
551.01	23.41
551.18	88.94
551.34	84.26
551.51	95.96
551.68	77.24
551.84	86.60
552.01	44.47
552.18	56.17
552.34	93.62
552.51	51.49
552.68	39.79
552.84	58.51
553.01	95.96
553.18	65.54
553.34	25.75
553.51	67.88
553.67	74.90
553.84	67.88
554.01	114.69
554.17	51.49
554.34	93.62
554.51	81.92
554.67	37.45
554.84	114.69
555.00	77.24
555.17	56.17
555.33	23.41
555.50	102.98
555.67	4.68
555.83	114.69
556.00	23.41
556.16	121.71
556.33	63.19
556.50	77.24
556.66	117.03
556.83	53.83
556.99	0.00
557.16	32.77
557.32	100.64
557.49	105.32
557.65	56.17
557.82	60.85
557.98	98.30
558.15	124.05
558.32	65.54
558.48	77.24
558.65	79.58
558.81	95.96
558.98	0.00
559.14	112.35
559.31	84.26
559.47	133.41
559.64	107.66
559.80	88.94
559.97	51.49
560.13	72.56
560.30	67.88
560.46	107.66
560.63	182.56
560.79	49.15
560.96	95.96
561.12	98.30
561.29	32.77
561.45	56.17
561.61	58.51
561.78	72.56
561.94	67.88
562.11	77.24
562.27	105.32
562.44	39.79
562.60	60.85
562.77	135.75
562.93	166.18
563.10	166.18
563.26	56.17
563.42	124.05
563.59	84.26
563.75	126.39
563.92	51.49
564.08	70.22
564.24	117.03
564.41	91.28
564.57	86.60
564.74	37.45
564.90	37.45
565.07	7.02
565.23	105.32
565.39	28.09
565.56	124.05
565.72	60.85
565.88	30.43
566.05	88.94
566.21	67.88
566.38	149.79
566.54	147.45
566.70	159.16
566.87	102.98
567.03	30.43
567.19	79.58
567.36	161.50
567.52	70.22
567.68	65.54
567.85	88.94
568.01	77.24
568.17	110.01
568.34	74.90
568.50	44.47
568.66	23.41
568.83	67.88
568.99	86.60
569.15	128.73
569.32	135.75
569.48	74.90
569.64	95.96
569.81	58.51
569.97	23.41
570.13	65.54
570.30	51.49
570.46	72.56
570.62	7.02
570.78	88.94
570.95	28.09
571.11	56.17
571.27	58.51
571.43	53.83
571.60	39.79
571.76	74.90
571.92	30.43
572.09	46.81
572.25	138.09
572.41	35.11
572.57	35.11
572.74	117.03
572.90	142.77
573.06	110.01
573.22	49.15
573.38	95.96
573.55	102.98
573.71	42.13
573.87	114.69
574.03	84.26
574.20	74.90
574.36	121.71
574.52	70.22
574.68	0.00
574.84	11.70
575.01	37.45
575.17	112.35
575.33	147.45
575.49	79.58
575.65	46.81
575.82	39.79
575.98	86.60
576.14	42.13
576.30	37.45
576.46	30.43
576.62	119.37
576.79	77.24
576.95	95.96
577.11	58.51
577.27	114.69
577.43	7.02
577.59	11.70
577.75	149.79
577.92	93.62
578.08	9.36
578.24	56.17
578.40	44.47
578.56	88.94
578.72	44.47
578.88	60.85
579.04	124.05
579.21	51.49
579.37	98.30
579.53	79.58
579.69	58.51
579.85	46.81
580.01	70.22
580.17	93.62
580.33	42.13
580.49	131.07
580.65	163.84
580.82	70.22
580.98	46.81
581.14	117.03
581.30	74.90
581.46	128.73
581.62	46.81
581.78	42.13
581.94	107.66
582.10	44.47
582.26	95.96
582.42	124.05
582.58	117.03
582.74	32.77
582.90	74.90
583.06	49.15
583.22	149.79
583.38	72.56
583.54	107.66
583.70	117.03
583.86	95.96
584.02	77.24
584.18	37.45
584.34	138.09
584.50	79.58
584.66	18.72
584.82	77.24
584.98	126.39
585.14	74.90
585.30	91.28
585.46	95.96
585.62	81.92
585.78	110.01
585.94	91.28
586.10	124.05
586.26	30.43
586.42	177.88
586.58	39.79
586.74	46.81
586.90	93.62
587.06	79.58
587.22	2.34
587.38	72.56
587.54	98.30
587.70	91.28
587.86	44.47
588.02	70.22
588.18	65.54
588.34	147.45
588.49	11.70
588.65	65.54
588.81	0.00
588.97	84.26
589.13	30.43
589.29	65.54
589.45	77.24
589.61	44.47
589.77	77.24
589.93	18.72
590.08	16.38
590.24	21.06
590.40	70.22
590.56	74.90
590.72	133.41
590.88	128.73
591.04	119.37
591.20	51.49
591.35	107.66
591.51	14.04
591.67	63.19
591.83	49.15
591.99	77.24
592.15	28.09
592.31	102.98
592.46	98.30
592.62	30.43
592.78	0.00
592.94	117.03
593.10	88.94
593.26	53.83
593.41	46.81
593.57	74.90
593.73	53.83
593.89	35.11
594.05	39.79
594.20	49.15
594.36	42.13
594.52	0.00
594.68	102.98
594.84	32.77
594.99	4.68
595.15	88.94
595.31	44.47
595.47	7.02
595.62	91.28
595.78	128.73
595.94	35.11
596.10	21.06
596.25	65.54
596.41	117.03
596.57	72.56
596.73	0.00
596.88	16.38
597.04	58.51
597.20	16.38
597.36	98.30
597.51	107.66
597.67	126.39
597.83	166.18
597.99	105.32
598.14	30.43
598.30	44.47
598.46	84.26
598.61	63.19
598.77	74.90
598.93	35.11
599.09	18.72
599.24	93.62
599.40	102.98
599.56	102.98
599.71	114.69
599.87	72.56
600.03	53.83
600.18	117.03
600.34	0.00
600.50	74.90
600.65	49.15
600.81	23.41
600.97	140.43
601.12	42.13
601.28	46.81
601.44	107.66
601.59	142.77
601.75	135.75
601.91	46.81
602.06	112.35
602.22	51.49
602.37	42.13
602.53	84.26
602.69	0.00
602.84	0.00
603.00	88.94
603.16	30.43
603.31	88.94
603.47	58.51
603.62	7.02
603.78	58.51
603.94	126.39
604.09	107.66
604.25	77.24
604.40	37.45
604.56	67.88
604.71	79.58
604.87	93.62
605.03	46.81
605.18	152.13
605.34	117.03
605.49	91.28
605.65	117.03
605.80	91.28
605.96	32.77
606.12	74.90
606.27	110.01
606.43	72.56
606.58	74.90
606.74	51.49
606.89	74.90
607.05	23.41
607.20	65.54
607.36	16.38
607.51	18.72
607.67	30.43
607.82	42.13
607.98	102.98
608.13	28.09
608.29	49.15
608.44	119.37
608.60	53.83
608.75	107.66
608.91	117.03
609.06	133.41
609.22	72.56
609.37	95.96
609.53	95.96
609.68	72.56
609.84	112.35
609.99	93.62
610.15	86.60
610.30	4.68
610.46	14.04
610.61	100.64
610.76	44.47
610.92	91.28
611.07	105.32
611.23	112.35
611.38	0.00
611.54	65.54
611.69	7.02
611.84	128.73
612.00	67.88
612.15	28.09
612.31	0.00
612.46	49.15
612.62	56.17
612.77	147.45
612.92	91.28
613.08	74.90
613.23	91.28
613.39	79.58
613.54	0.00
613.69	46.81
613.85	49.15
614.00	9.36
614.15	18.72
614.31	74.90
614.46	23.41
614.62	23.41
614.77	91.28
614.92	58.51
615.08	56.17
615.23	30.43
615.38	56.17
615.54	110.01
615.69	81.92
615.84	63.19
616.00	84.26
616.15	100.64
616.30	81.92
616.46	56.17
616.61	86.60
616.76	112.35
616.92	0.00
617.07	74.90
617.22	32.77
617.37	42.13
617.53	67.88
617.68	0.00
617.83	81.92
617.99	110.01
618.14	86.60
618.29	79.58
618.45	93.62
618.60	67.88
618.75	4.68
618.90	42.13
619.06	86.60
619.21	131.07
619.36	21.06
619.51	138.09
619.67	42.13
619.82	58.51
619.97	60.85
620.12	84.26
620.28	86.60
620.43	91.28
620.58	35.11
620.73	65.54
620.89	0.00
621.04	18.72
621.19	105.32
621.34	84.26
621.49	39.79
621.65	21.06
621.80	70.22
621.95	23.41
622.10	86.60
622.25	72.56
622.41	14.04
622.56	84.26
622.71	53.83
622.86	16.38
623.01	110.01
623.16	124.05
623.32	56.17
623.47	0.00
623.62	46.81
623.77	49.15
623.92	18.72
624.07	65.54
624.23	81.92
624.38	88.94
624.53	28.09
624.68	35.11
624.83	91.28
624.98	14.04
625.13	74.90
625.29	18.72
625.44	114.69
625.59	60.85
625.74	42.13
625.89	18.72
626.04	37.45
626.19	72.56
626.34	51.49
626.49	119.37
626.65	63.19
626.80	0.00
626.95	51.49
627.10	70.22
627.25	105.32
627.40	77.24
627.55	46.81
627.70	51.49
627.85	23.41
628.00	51.49
628.15	84.26
628.30	35.11
628.45	37.45
628.60	77.24
628.76	49.15
628.91	133.41
629.06	102.98
629.21	0.00
629.36	65.54
629.51	53.83
629.66	35.11
629.81	32.77
629.96	74.90
630.11	91.28
630.26	65.54
630.41	60.85
630.56	65.54
630.71	60.85
630.86	126.39
631.01	135.75
631.16	63.19
631.31	95.96
631.46	70.22
631.61	117.03
631.76	51.49
631.91	18.72
632.06	72.56
632.21	2.34
632.36	110.01
632.51	84.26
632.66	44.47
632.81	49.15
632.96	18.72
633.10	152.13
633.25	135.75
633.40	32.77
633.55	72.56
633.70	58.51
633.85	4.68
634.00	74.90
634.15	56.17
634.30	74.90
634.45	53.83
634.60	107.66
634.75	88.94
634.90	25.75
635.05	53.83
635.19	67.88
635.34	145.11
635.49	131.07
635.64	56.17
635.79	7.02
635.94	46.81
636.09	79.58
636.24	39.79
636.39	37.45
636.53	119.37
636.68	86.60
636.83	30.43
636.98	18.72
637.13	98.30
637.28	124.05
637.43	0.00
637.57	14.04
637.72	74.90
637.87	60.85
638.02	81.92
638.17	2.34
638.32	56.17
638.46	107.66
638.61	91.28
638.76	37.45
638.91	98.30
639.06	135.75
639.20	133.41
639.35	42.13
639.50	49.15
639.65	72.56
639.80	49.15
639.94	14.04
640.09	25.75
640.24	70.22
640.39	11.70
640.54	56.17
640.68	4.68
640.83	28.09
640.98	39.79
641.13	58.51
641.27	16.38
641.42	67.88
641.57	67.88
641.72	126.39
641.86	124.05
642.01	28.09
642.16	39.79
642.31	0.00
642.45	56.17
642.60	39.79
642.75	0.00
642.90	23.41
643.04	81.92
643.19	84.26
643.34	102.98
643.48	0.00
643.63	18.72
643.78	37.45
643.93	117.03
644.07	100.64
644.22	98.30
644.37	72.56
644.51	37.45
644.66	46.81
644.81	74.90
644.95	23.41
645.10	0.00
645.25	79.58
645.39	72.56
645.54	58.51
645.69	84.26
645.83	117.03
645.98	140.43
646.13	77.24
646.27	70.22
646.42	35.11
646.57	49.15
646.71	70.22
646.86	70.22
647.00	88.94
647.15	65.54
647.30	65.54
647.44	44.47
647.59	49.15
647.74	81.92
647.88	49.15
648.03	51.49
648.17	11.70
648.32	56.17
648.47	51.49
648.61	14.04
648.76	0.00
648.90	11.70
649.05	70.22
649.20	77.24
649.34	28.09
649.49	7.02
649.63	14.04
649.78	98.30
649.92	60.85
650.07	67.88
650.21	46.81
650.36	37.45
650.51	37.45
650.65	32.77
650.80	93.62
650.94	63.19
651.09	44.47
651.23	32.77
651.38	51.49
651.52	93.62
651.67	0.00
651.81	0.00
651.96	56.17
652.10	35.11
652.25	91.28
652.39	79.58
652.54	30.43
652.68	11.70
652.83	70.22
652.97	51.49
653.12	32.77
653.26	63.19
653.41	163.84
653.55	124.05
653.70	0.00
653.84	79.58
653.99	49.15
654.13	39.79
654.27	25.75
654.42	30.43
654.56	58.51
654.71	58.51
654.85	102.98
655.00	63.19
655.14	42.13
655.29	42.13
655.43	14.04
655.57	81.92
655.72	51.49
655.86	77.24
656.01	95.96
656.15	35.11
656.30	93.62
656.44	18.72
656.58	30.43
656.73	51.49
656.87	81.92
657.01	86.60
657.16	0.00
657.30	84.26
657.45	67.88
657.59	74.90
657.73	88.94
657.88	58.51
658.02	74.90
658.16	67.88
658.31	98.30
658.45	0.00
658.60	63.19
658.74	0.00
658.88	42.13
659.03	0.00
659.17	37.45
659.31	114.69
659.46	65.54
659.60	95.96
659.74	74.90
659.89	25.75
660.03	28.09
660.17	88.94
660.32	72.56
660.46	56.17
660.60	81.92
660.74	93.62
660.89	18.72
661.03	58.51
661.17	7.02
661.32	51.49
661.46	46.81
661.60	77.24
661.74	56.17
661.89	60.85
662.03	37.45
662.17	21.06
662.31	0.00
662.46	88.94
662.60	65.54
662.74	95.96
662.88	9.36
663.03	42.13
663.17	72.56
663.31	9.36
663.45	37.45
663.60	0.00
663.74	23.41
663.88	0.00
664.02	35.11
664.17	0.00
664.31	2.34
664.45	102.98
664.59	74.90
664.73	14.04
664.88	0.00
665.02	16.38
665.16	65.54
665.30	21.06
665.44	93.62
665.59	67.88
665.73	98.30
665.87	74.90
666.01	51.49
666.15	9.36
666.29	0.00
666.44	79.58
666.58	0.00
666.72	60.85
666.86	63.19
667.00	0.00
667.14	39.79
667.28	84.26
667.43	39.79
667.57	0.00
667.71	42.13
667.85	51.49
667.99	63.19
668.13	77.24
668.27	77.24
668.41	25.75
668.56	37.45
668.70	100.64
668.84	28.09
668.98	110.01
669.12	11.70
669.26	21.06
669.40	53.83
669.54	44.47
669.68	77.24
669.82	91.28
669.96	81.92
670.10	16.38
670.25	25.75
670.39	105.32
670.53	60.85
670.67	77.24
670.81	56.17
670.95	102.98
671.09	0.00
671.23	56.17
671.37	112.35
671.51	16.38
671.65	63.19
671.79	0.00
671.93	37.45
672.07	0.00
672.21	0.00
672.35	46.81
672.49	42.13
672.63	84.26
672.77	37.45
672.91	39.79
673.05	65.54
673.19	60.85
673.33	72.56
673.47	42.13
673.61	14.04
673.75	0.00
673.89	124.05
674.03	42.13
674.17	23.41
674.31	2.34
674.45	16.38
674.59	0.00
674.73	102.98
674.87	0.00
675.01	11.70
675.15	79.58
675.29	124.05
675.43	67.88
675.56	84.26
675.70	42.13
675.84	42.13
675.98	4.68
676.12	72.56
676.26	86.60
676.40	102.98
676.54	86.60
676.68	42.13
676.82	0.00
676.96	21.06
677.10	42.13
677.23	49.15
677.37	14.04
677.51	37.45
677.65	63.19
677.79	0.00
677.93	70.22
678.07	16.38
678.21	9.36
678.34	0.00
678.48	42.13
678.62	39.79
678.76	49.15
678.90	23.41
679.04	46.81
679.18	0.00
679.31	72.56
679.45	70.22
679.59	0.00
679.73	7.02
679.87	70.22
680.00	112.35
680.14	25.75
680.28	53.83
680.42	35.11
680.56	42.13
680.70	107.66
680.83	0.00
680.97	21.06
681.11	91.28
681.25	35.11
681.39	0.00
681.52	18.72
681.66	67.88
681.80	77.24
681.94	51.49
682.07	0.00
682.21	58.51
682.35	0.00
682.49	72.56
682.62	74.90
682.76	16.38
682.90	25.75
683.04	0.00
683.17	77.24
683.31	32.77
683.45	58.51
683.59	39.79
683.72	98.30
683.86	149.79
684.00	0.00
684.13	7.02
684.27	70.22
684.41	49.15
684.55	77.24
684.68	14.04
684.82	4.68
684.96	56.17
685.09	81.92
685.23	32.77
685.37	4.68
685.50	56.17
685.64	49.15
685.78	56.17
685.91	58.51
686.05	25.75
686.19	30.43
686.32	72.56
686.46	49.15
686.60	0.00
686.73	65.54
686.87	0.00
687.01	2.34
687.14	51.49
687.28	72.56
687.42	23.41
687.55	4.68
687.69	16.38
687.82	21.06
687.96	60.85
688.10	32.77
688.23	51.49
688.37	32.77
688.50	53.83
688.64	39.79
688.78	42.13
688.91	51.49
689.05	67.88
689.18	0.00
689.32	28.09
689.46	35.11
689.59	14.04
689.73	30.43
689.86	28.09
690.00	56.17
690.13	39.79
690.27	21.06
690.41	2.34
690.54	42.13
690.68	102.98
690.81	9.36
690.95	105.32
691.08	67.88
691.22	60.85
691.35	0.00
691.49	46.81
691.62	0.00
691.76	81.92
691.89	46.81
692.03	102.98
692.16	16.38
692.30	37.45
692.43	0.00
692.57	37.45
692.70	0.00
692.84	0.00
692.97	32.77
693.11	88.94
693.24	60.85
693.38	67.88
693.51	11.70
693.65	63.19
693.78	4.68
693.92	44.47
694.05	4.68
694.19	25.75
694.32	67.88
694.45	46.81
694.59	72.56
694.72	14.04
694.86	23.41
694.99	70.22
695.13	37.45
695.26	81.92
695.39	49.15
695.53	2.34
695.66	51.49
695.80	18.72
695.93	18.72
696.07	65.54
696.20	46.81
696.33	23.41
696.47	32.77
696.60	25.75
696.73	93.62
696.87	18.72
697.00	88.94
697.14	0.00
697.27	0.00
697.40	60.85
697.54	100.64
697.67	46.81
697.80	30.43
697.94	0.00
698.07	86.60
698.21	44.47
698.34	11.70
698.47	0.00
698.61	7.02
698.74	0.00
698.87	58.51
699.01	32.77
699.14	49.15
699.27	84.26
699.40	0.00
699.54	65.54
699.67	49.15
699.80	0.00
699.94	56.17
700.07	0.00
700.20	23.41
700.34	51.49
700.47	60.85
700.60	0.00
700.73	0.00
700.87	49.15
701.00	93.62
701.13	67.88
701.26	11.70
701.40	44.47
701.53	21.06
701.66	72.56
701.79	42.13
701.93	28.09
702.06	25.75
702.19	67.88
702.32	84.26
702.46	25.75
702.59	30.43
702.72	0.00
702.85	84.26
702.99	0.00
703.12	4.68
703.25	35.11
703.38	93.62
703.51	23.41
703.65	65.54
703.78	44.47
703.91	74.90
704.04	0.00
704.17	16.38
704.31	93.62
704.44	28.09
704.57	4.68
704.70	7.02
704.83	100.64
704.96	56.17
705.10	84.26
705.23	30.43
>>>>>End Processed Spectral Data<<<<<
