SpectraSuite Data File
++++++++++++++++++++++++++++++++++++
Date: Fri Oct 04 12:13:34 GMT-05:00 2013
User: price-jones
Dark Spectrum Present: No
Reference Spectrum Present: No
Number of Sampled Component Spectra: 1
Spectrometers: USB2+H05261
Integration Time (usec): 10000 (USB2+H05261)
Spectra Averaged: 1 (USB2+H05261)
Boxcar Smoothing: 0 (USB2+H05261)
Correct for Electrical Dark: No (USB2+H05261)
Strobe/Lamp Enabled: No (USB2+H05261)
Correct for Detector Non-linearity: No (USB2+H05261)
Correct for Stray Light: No (USB2+H05261)
Number of Pixels in Processed Spectrum: 2048
>>>>>Begin Processed Spectral Data<<<<<
365.73	51.49
365.92	51.49
366.12	51.49
366.32	0.00
366.52	0.00
366.72	0.00
366.91	0.00
367.11	0.00
367.31	0.00
367.51	0.00
367.70	0.00
367.90	0.00
368.10	0.00
368.30	0.00
368.49	0.00
368.69	0.00
368.89	0.00
369.09	0.00
369.28	0.00
369.48	0.00
369.68	0.00
369.87	0.00
370.07	0.00
370.27	0.00
370.47	0.00
370.66	0.00
370.86	0.00
371.06	0.00
371.25	0.00
371.45	0.00
371.65	0.00
371.84	0.00
372.04	37.45
372.24	0.00
372.44	28.09
372.63	16.38
372.83	0.00
373.03	25.75
373.22	67.88
373.42	9.36
373.62	0.00
373.81	0.00
374.01	23.41
374.21	95.96
374.40	0.00
374.60	49.15
374.79	0.00
374.99	11.70
375.19	9.36
375.38	25.75
375.58	30.43
375.78	35.11
375.97	53.83
376.17	79.58
376.37	7.02
376.56	18.72
376.76	2.34
376.95	2.34
377.15	0.00
377.35	44.47
377.54	67.88
377.74	60.85
377.93	58.51
378.13	7.02
378.33	67.88
378.52	0.00
378.72	0.00
378.91	4.68
379.11	16.38
379.31	46.81
379.50	0.00
379.70	0.00
379.89	112.35
380.09	28.09
380.28	30.43
380.48	4.68
380.68	0.00
380.87	23.41
381.07	18.72
381.26	0.00
381.46	72.56
381.65	0.00
381.85	0.00
382.04	51.49
382.24	9.36
382.43	53.83
382.63	53.83
382.83	0.00
383.02	0.00
383.22	51.49
383.41	25.75
383.61	0.00
383.80	0.00
384.00	25.75
384.19	0.00
384.39	11.70
384.58	0.00
384.78	95.96
384.97	0.00
385.17	0.00
385.36	4.68
385.56	0.00
385.75	21.06
385.95	18.72
386.14	7.02
386.34	0.00
386.53	14.04
386.72	67.88
386.92	88.94
387.11	0.00
387.31	0.00
387.50	28.09
387.70	49.15
387.89	0.00
388.09	16.38
388.28	39.79
388.48	16.38
388.67	67.88
388.86	56.17
389.06	0.00
389.25	32.77
389.45	56.17
389.64	79.58
389.84	11.70
390.03	0.00
390.22	0.00
390.42	14.04
390.61	35.11
390.81	0.00
391.00	42.13
391.19	37.45
391.39	42.13
391.58	42.13
391.78	91.28
391.97	16.38
392.16	18.72
392.36	98.30
392.55	37.45
392.75	30.43
392.94	63.19
393.13	39.79
393.33	74.90
393.52	25.75
393.71	23.41
393.91	32.77
394.10	14.04
394.29	9.36
394.49	7.02
394.68	0.00
394.88	9.36
395.07	114.69
395.26	0.00
395.46	2.34
395.65	14.04
395.84	0.00
396.04	4.68
396.23	2.34
396.42	0.00
396.62	46.81
396.81	0.00
397.00	14.04
397.19	0.00
397.39	0.00
397.58	42.13
397.77	9.36
397.97	121.71
398.16	25.75
398.35	4.68
398.55	2.34
398.74	0.00
398.93	42.13
399.12	65.54
399.32	0.00
399.51	28.09
399.70	0.00
399.90	18.72
400.09	70.22
400.28	44.47
400.47	0.00
400.67	0.00
400.86	9.36
401.05	65.54
401.24	37.45
401.44	16.38
401.63	58.51
401.82	0.00
402.01	0.00
402.21	72.56
402.40	25.75
402.59	37.45
402.78	100.64
402.97	0.00
403.17	28.09
403.36	0.00
403.55	49.15
403.74	46.81
403.93	0.00
404.13	18.72
404.32	56.17
404.51	56.17
404.70	16.38
404.89	51.49
405.09	11.70
405.28	18.72
405.47	0.00
405.66	37.45
405.85	23.41
406.05	0.00
406.24	95.96
406.43	16.38
406.62	30.43
406.81	60.85
407.00	21.06
407.20	0.00
407.39	0.00
407.58	0.00
407.77	30.43
407.96	0.00
408.15	25.75
408.34	79.58
408.54	42.13
408.73	81.92
408.92	0.00
409.11	7.02
409.30	32.77
409.49	51.49
409.68	30.43
409.87	7.02
410.07	18.72
410.26	51.49
410.45	42.13
410.64	0.00
410.83	0.00
411.02	28.09
411.21	49.15
411.40	44.47
411.59	86.60
411.78	35.11
411.98	0.00
412.17	42.13
412.36	0.00
412.55	77.24
412.74	0.00
412.93	77.24
413.12	70.22
413.31	60.85
413.50	49.15
413.69	14.04
413.88	95.96
414.07	32.77
414.26	7.02
414.45	21.06
414.64	63.19
414.83	7.02
415.02	72.56
415.22	74.90
415.41	28.09
415.60	58.51
415.79	18.72
415.98	4.68
416.17	11.70
416.36	84.26
416.55	25.75
416.74	49.15
416.93	37.45
417.12	35.11
417.31	2.34
417.50	70.22
417.69	25.75
417.88	28.09
418.07	0.00
418.26	98.30
418.45	53.83
418.64	32.77
418.83	0.00
419.02	42.13
419.21	9.36
419.39	84.26
419.58	65.54
419.77	25.75
419.96	25.75
420.15	0.00
420.34	37.45
420.53	30.43
420.72	117.03
420.91	51.49
421.10	37.45
421.29	9.36
421.48	9.36
421.67	0.00
421.86	65.54
422.05	98.30
422.24	46.81
422.43	44.47
422.61	49.15
422.80	0.00
422.99	77.24
423.18	16.38
423.37	74.90
423.56	18.72
423.75	0.00
423.94	79.58
424.13	93.62
424.32	84.26
424.50	84.26
424.69	18.72
424.88	121.71
425.07	79.58
425.26	91.28
425.45	46.81
425.64	0.00
425.83	0.00
426.01	0.00
426.20	9.36
426.39	37.45
426.58	56.17
426.77	0.00
426.96	93.62
427.15	35.11
427.33	0.00
427.52	42.13
427.71	51.49
427.90	58.51
428.09	70.22
428.28	4.68
428.46	9.36
428.65	9.36
428.84	25.75
429.03	2.34
429.22	2.34
429.40	37.45
429.59	0.00
429.78	0.00
429.97	58.51
430.16	21.06
430.34	25.75
430.53	39.79
430.72	49.15
430.91	30.43
431.10	0.00
431.28	107.66
431.47	0.00
431.66	72.56
431.85	91.28
432.03	39.79
432.22	67.88
432.41	81.92
432.60	11.70
432.79	60.85
432.97	18.72
433.16	0.00
433.35	60.85
433.54	7.02
433.72	65.54
433.91	9.36
434.10	37.45
434.28	93.62
434.47	32.77
434.66	16.38
434.85	42.13
435.03	39.79
435.22	42.13
435.41	46.81
435.59	30.43
435.78	91.28
435.97	70.22
436.16	77.24
436.34	2.34
436.53	0.00
436.72	72.56
436.90	0.00
437.09	58.51
437.28	53.83
437.46	9.36
437.65	46.81
437.84	0.00
438.02	88.94
438.21	25.75
438.40	70.22
438.58	9.36
438.77	16.38
438.96	23.41
439.14	112.35
439.33	105.32
439.52	63.19
439.70	16.38
439.89	88.94
440.08	18.72
440.26	56.17
440.45	84.26
440.63	14.04
440.82	72.56
441.01	32.77
441.19	72.56
441.38	0.00
441.57	0.00
441.75	88.94
441.94	93.62
442.12	28.09
442.31	32.77
442.50	23.41
442.68	53.83
442.87	4.68
443.05	74.90
443.24	72.56
443.43	21.06
443.61	4.68
443.80	93.62
443.98	4.68
444.17	51.49
444.35	79.58
444.54	79.58
444.73	0.00
444.91	53.83
445.10	51.49
445.28	56.17
445.47	9.36
445.65	42.13
445.84	0.00
446.02	0.00
446.21	21.06
446.39	2.34
446.58	0.00
446.77	0.00
446.95	53.83
447.14	65.54
447.32	51.49
447.51	107.66
447.69	0.00
447.88	32.77
448.06	16.38
448.25	0.00
448.43	67.88
448.62	30.43
448.80	32.77
448.99	23.41
449.17	56.17
449.36	65.54
449.54	44.47
449.73	117.03
449.91	0.00
450.10	0.00
450.28	56.17
450.46	70.22
450.65	91.28
450.83	49.15
451.02	25.75
451.20	14.04
451.39	65.54
451.57	18.72
451.76	44.47
451.94	35.11
452.13	84.26
452.31	14.04
452.49	65.54
452.68	0.00
452.86	11.70
453.05	18.72
453.23	0.00
453.42	119.37
453.60	4.68
453.78	60.85
453.97	81.92
454.15	25.75
454.34	9.36
454.52	112.35
454.70	70.22
454.89	7.02
455.07	110.01
455.26	0.00
455.44	84.26
455.62	145.11
455.81	112.35
455.99	11.70
456.17	28.09
456.36	30.43
456.54	0.00
456.73	110.01
456.91	0.00
457.09	0.00
457.28	0.00
457.46	25.75
457.64	0.00
457.83	18.72
458.01	0.00
458.19	49.15
458.38	51.49
458.56	30.43
458.74	67.88
458.93	32.77
459.11	4.68
459.29	0.00
459.48	72.56
459.66	35.11
459.84	65.54
460.03	14.04
460.21	51.49
460.39	65.54
460.57	23.41
460.76	30.43
460.94	86.60
461.12	0.00
461.31	30.43
461.49	0.00
461.67	53.83
461.85	14.04
462.04	32.77
462.22	77.24
462.40	0.00
462.59	9.36
462.77	21.06
462.95	14.04
463.13	16.38
463.32	79.58
463.50	42.13
463.68	81.92
463.86	140.43
464.05	0.00
464.23	53.83
464.41	72.56
464.59	49.15
464.78	46.81
464.96	49.15
465.14	0.00
465.32	21.06
465.50	74.90
465.69	65.54
465.87	49.15
466.05	11.70
466.23	21.06
466.41	56.17
466.60	46.81
466.78	28.09
466.96	72.56
467.14	53.83
467.32	110.01
467.51	18.72
467.69	32.77
467.87	37.45
468.05	25.75
468.23	30.43
468.41	16.38
468.60	9.36
468.78	30.43
468.96	25.75
469.14	46.81
469.32	107.66
469.50	46.81
469.69	28.09
469.87	100.64
470.05	81.92
470.23	0.00
470.41	114.69
470.59	0.00
470.77	0.00
470.95	46.81
471.14	0.00
471.32	0.00
471.50	39.79
471.68	37.45
471.86	58.51
472.04	70.22
472.22	0.00
472.40	25.75
472.58	51.49
472.77	9.36
472.95	88.94
473.13	72.56
473.31	4.68
473.49	93.62
473.67	7.02
473.85	65.54
474.03	18.72
474.21	86.60
474.39	74.90
474.57	65.54
474.75	18.72
474.93	21.06
475.12	49.15
475.30	0.00
475.48	0.00
475.66	28.09
475.84	35.11
476.02	60.85
476.20	39.79
476.38	114.69
476.56	88.94
476.74	0.00
476.92	51.49
477.10	58.51
477.28	77.24
477.46	35.11
477.64	72.56
477.82	16.38
478.00	93.62
478.18	21.06
478.36	44.47
478.54	9.36
478.72	42.13
478.90	21.06
479.08	0.00
479.26	35.11
479.44	60.85
479.62	0.00
479.80	53.83
479.98	42.13
480.16	46.81
480.34	30.43
480.52	105.32
480.70	11.70
480.88	18.72
481.06	65.54
481.24	9.36
481.41	42.13
481.59	30.43
481.77	18.72
481.95	65.54
482.13	46.81
482.31	18.72
482.49	65.54
482.67	30.43
482.85	121.71
483.03	72.56
483.21	35.11
483.39	72.56
483.57	46.81
483.74	63.19
483.92	91.28
484.10	70.22
484.28	98.30
484.46	70.22
484.64	51.49
484.82	25.75
485.00	4.68
485.18	23.41
485.35	0.00
485.53	51.49
485.71	56.17
485.89	81.92
486.07	63.19
486.25	11.70
486.43	0.00
486.61	23.41
486.78	35.11
486.96	53.83
487.14	117.03
487.32	44.47
487.50	98.30
487.68	98.30
487.85	0.00
488.03	0.00
488.21	39.79
488.39	72.56
488.57	2.34
488.75	98.30
488.92	81.92
489.10	39.79
489.28	32.77
489.46	23.41
489.64	28.09
489.81	21.06
489.99	67.88
490.17	91.28
490.35	42.13
490.53	0.00
490.70	124.05
490.88	65.54
491.06	84.26
491.24	74.90
491.41	28.09
491.59	126.39
491.77	0.00
491.95	21.06
492.13	0.00
492.30	25.75
492.48	0.00
492.66	46.81
492.84	105.32
493.01	88.94
493.19	117.03
493.37	58.51
493.54	32.77
493.72	11.70
493.90	49.15
494.08	79.58
494.25	28.09
494.43	30.43
494.61	95.96
494.79	98.30
494.96	77.24
495.14	46.81
495.32	23.41
495.49	32.77
495.67	77.24
495.85	49.15
496.02	11.70
496.20	0.00
496.38	63.19
496.55	98.30
496.73	37.45
496.91	0.00
497.09	46.81
497.26	51.49
497.44	4.68
497.62	35.11
497.79	0.00
497.97	0.00
498.14	28.09
498.32	63.19
498.50	16.38
498.67	102.98
498.85	0.00
499.03	0.00
499.20	23.41
499.38	56.17
499.56	46.81
499.73	53.83
499.91	77.24
500.08	135.75
500.26	126.39
500.44	0.00
500.61	18.72
500.79	79.58
500.97	0.00
501.14	39.79
501.32	44.47
501.49	42.13
501.67	58.51
501.84	58.51
502.02	46.81
502.20	86.60
502.37	0.00
502.55	67.88
502.72	72.56
502.90	84.26
503.07	67.88
503.25	14.04
503.43	23.41
503.60	35.11
503.78	0.00
503.95	0.00
504.13	32.77
504.30	23.41
504.48	81.92
504.65	35.11
504.83	30.43
505.01	18.72
505.18	63.19
505.36	86.60
505.53	2.34
505.71	72.56
505.88	11.70
506.06	4.68
506.23	49.15
506.41	72.56
506.58	110.01
506.76	51.49
506.93	77.24
507.11	56.17
507.28	2.34
507.46	114.69
507.63	110.01
507.81	35.11
507.98	117.03
508.16	0.00
508.33	28.09
508.50	81.92
508.68	0.00
508.85	49.15
509.03	81.92
509.20	65.54
509.38	42.13
509.55	0.00
509.73	88.94
509.90	58.51
510.08	63.19
510.25	107.66
510.42	88.94
510.60	0.00
510.77	74.90
510.95	32.77
511.12	88.94
511.30	91.28
511.47	86.60
511.64	63.19
511.82	0.00
511.99	79.58
512.17	88.94
512.34	4.68
512.51	72.56
512.69	28.09
512.86	49.15
513.04	28.09
513.21	30.43
513.38	30.43
513.56	0.00
513.73	14.04
513.90	23.41
514.08	42.13
514.25	4.68
514.43	32.77
514.60	9.36
514.77	60.85
514.95	46.81
515.12	58.51
515.29	49.15
515.47	105.32
515.64	56.17
515.81	4.68
515.99	46.81
516.16	107.66
516.33	84.26
516.51	63.19
516.68	58.51
516.85	56.17
517.03	18.72
517.20	74.90
517.37	51.49
517.54	63.19
517.72	81.92
517.89	102.98
518.06	49.15
518.24	16.38
518.41	65.54
518.58	37.45
518.75	53.83
518.93	72.56
519.10	46.81
519.27	72.56
519.45	14.04
519.62	98.30
519.79	30.43
519.96	53.83
520.14	9.36
520.31	51.49
520.48	65.54
520.65	70.22
520.83	42.13
521.00	0.00
521.17	35.11
521.34	84.26
521.52	60.85
521.69	67.88
521.86	37.45
522.03	100.64
522.20	21.06
522.38	44.47
522.55	60.85
522.72	39.79
522.89	11.70
523.07	35.11
523.24	70.22
523.41	2.34
523.58	63.19
523.75	28.09
523.92	0.00
524.10	58.51
524.27	32.77
524.44	84.26
524.61	63.19
524.78	63.19
524.96	105.32
525.13	32.77
525.30	65.54
525.47	60.85
525.64	74.90
525.81	42.13
525.98	46.81
526.16	18.72
526.33	42.13
526.50	91.28
526.67	39.79
526.84	95.96
527.01	18.72
527.18	44.47
527.36	32.77
527.53	37.45
527.70	81.92
527.87	58.51
528.04	95.96
528.21	11.70
528.38	0.00
528.55	107.66
528.72	124.05
528.89	121.71
529.07	44.47
529.24	16.38
529.41	49.15
529.58	107.66
529.75	0.00
529.92	0.00
530.09	28.09
530.26	170.86
530.43	0.00
530.60	91.28
530.77	70.22
530.94	110.01
531.11	84.26
531.28	70.22
531.46	58.51
531.63	28.09
531.80	56.17
531.97	86.60
532.14	72.56
532.31	79.58
532.48	100.64
532.65	25.75
532.82	25.75
532.99	49.15
533.16	49.15
533.33	58.51
533.50	95.96
533.67	84.26
533.84	74.90
534.01	60.85
534.18	67.88
534.35	88.94
534.52	7.02
534.69	110.01
534.86	35.11
535.03	14.04
535.20	142.77
535.37	21.06
535.54	124.05
535.71	67.88
535.88	70.22
536.05	46.81
536.22	114.69
536.38	0.00
536.55	2.34
536.72	138.09
536.89	0.00
537.06	42.13
537.23	25.75
537.40	21.06
537.57	105.32
537.74	63.19
537.91	70.22
538.08	91.28
538.25	84.26
538.42	105.32
538.59	46.81
538.75	119.37
538.92	67.88
539.09	84.26
539.26	28.09
539.43	72.56
539.60	63.19
539.77	79.58
539.94	58.51
540.11	102.98
540.28	60.85
540.44	72.56
540.61	0.00
540.78	0.00
540.95	70.22
541.12	21.06
541.29	67.88
541.46	79.58
541.62	25.75
541.79	0.00
541.96	0.00
542.13	77.24
542.30	44.47
542.47	98.30
542.63	88.94
542.80	79.58
542.97	53.83
543.14	32.77
543.31	49.15
543.48	74.90
543.64	51.49
543.81	42.13
543.98	35.11
544.15	70.22
544.32	46.81
544.48	70.22
544.65	0.00
544.82	0.00
544.99	46.81
545.16	0.00
545.32	16.38
545.49	42.13
545.66	0.00
545.83	58.51
546.00	39.79
546.16	77.24
546.33	39.79
546.50	58.51
546.67	51.49
546.83	25.75
547.00	70.22
547.17	0.00
547.34	142.77
547.50	9.36
547.67	65.54
547.84	0.00
548.00	86.60
548.17	84.26
548.34	49.15
548.51	0.00
548.67	67.88
548.84	23.41
549.01	95.96
549.18	98.30
549.34	77.24
549.51	28.09
549.68	35.11
549.84	98.30
550.01	74.90
550.18	124.05
550.34	53.83
550.51	49.15
550.68	7.02
550.84	28.09
551.01	58.51
551.18	58.51
551.34	74.90
551.51	63.19
551.68	9.36
551.84	77.24
552.01	39.79
552.18	32.77
552.34	0.00
552.51	81.92
552.68	35.11
552.84	44.47
553.01	37.45
553.18	42.13
553.34	77.24
553.51	102.98
553.67	4.68
553.84	65.54
554.01	46.81
554.17	72.56
554.34	37.45
554.51	28.09
554.67	16.38
554.84	84.26
555.00	58.51
555.17	25.75
555.33	67.88
555.50	14.04
555.67	18.72
555.83	86.60
556.00	88.94
556.16	46.81
556.33	117.03
556.50	145.11
556.66	37.45
556.83	98.30
556.99	37.45
557.16	51.49
557.32	65.54
557.49	16.38
557.65	42.13
557.82	46.81
557.98	53.83
558.15	49.15
558.32	46.81
558.48	0.00
558.65	35.11
558.81	0.00
558.98	86.60
559.14	46.81
559.31	35.11
559.47	77.24
559.64	95.96
559.80	86.60
559.97	91.28
560.13	0.00
560.30	32.77
560.46	49.15
560.63	42.13
560.79	35.11
560.96	2.34
561.12	70.22
561.29	23.41
561.45	49.15
561.61	70.22
561.78	74.90
561.94	65.54
562.11	100.64
562.27	7.02
562.44	142.77
562.60	2.34
562.77	0.00
562.93	74.90
563.10	112.35
563.26	95.96
563.42	117.03
563.59	0.00
563.75	37.45
563.92	77.24
564.08	46.81
564.24	65.54
564.41	81.92
564.57	11.70
564.74	95.96
564.90	4.68
565.07	0.00
565.23	63.19
565.39	44.47
565.56	74.90
565.72	37.45
565.88	44.47
566.05	72.56
566.21	60.85
566.38	7.02
566.54	60.85
566.70	46.81
566.87	0.00
567.03	63.19
567.19	88.94
567.36	39.79
567.52	74.90
567.68	102.98
567.85	0.00
568.01	18.72
568.17	70.22
568.34	95.96
568.50	56.17
568.66	65.54
568.83	173.20
568.99	72.56
569.15	0.00
569.32	102.98
569.48	35.11
569.64	58.51
569.81	49.15
569.97	30.43
570.13	77.24
570.30	60.85
570.46	18.72
570.62	23.41
570.78	37.45
570.95	39.79
571.11	0.00
571.27	42.13
571.43	63.19
571.60	60.85
571.76	88.94
571.92	70.22
572.09	86.60
572.25	70.22
572.41	0.00
572.57	63.19
572.74	74.90
572.90	49.15
573.06	60.85
573.22	42.13
573.38	9.36
573.55	46.81
573.71	23.41
573.87	42.13
574.03	28.09
574.20	44.47
574.36	46.81
574.52	46.81
574.68	42.13
574.84	42.13
575.01	102.98
575.17	21.06
575.33	32.77
575.49	56.17
575.65	14.04
575.82	77.24
575.98	0.00
576.14	4.68
576.30	0.00
576.46	2.34
576.62	81.92
576.79	53.83
576.95	46.81
577.11	32.77
577.27	42.13
577.43	4.68
577.59	16.38
577.75	35.11
577.92	79.58
578.08	58.51
578.24	25.75
578.40	0.00
578.56	72.56
578.72	35.11
578.88	0.00
579.04	86.60
579.21	28.09
579.37	16.38
579.53	21.06
579.69	74.90
579.85	2.34
580.01	72.56
580.17	100.64
580.33	53.83
580.49	14.04
580.65	28.09
580.82	67.88
580.98	51.49
581.14	67.88
581.30	44.47
581.46	112.35
581.62	81.92
581.78	81.92
581.94	39.79
582.10	53.83
582.26	58.51
582.42	93.62
582.58	74.90
582.74	138.09
582.90	63.19
583.06	65.54
583.22	154.48
583.38	46.81
583.54	77.24
583.70	65.54
583.86	58.51
584.02	60.85
584.18	9.36
584.34	9.36
584.50	0.00
584.66	56.17
584.82	44.47
584.98	37.45
585.14	67.88
585.30	74.90
585.46	128.73
585.62	114.69
585.78	60.85
585.94	0.00
586.10	86.60
586.26	0.00
586.42	147.45
586.58	49.15
586.74	63.19
586.90	0.00
587.06	46.81
587.22	39.79
587.38	63.19
587.54	100.64
587.70	67.88
587.86	72.56
588.02	0.00
588.18	32.77
588.34	65.54
588.49	0.00
588.65	117.03
588.81	58.51
588.97	0.00
589.13	42.13
589.29	53.83
589.45	18.72
589.61	88.94
589.77	18.72
589.93	42.13
590.08	46.81
590.24	0.00
590.40	7.02
590.56	81.92
590.72	0.00
590.88	30.43
591.04	23.41
591.20	9.36
591.35	79.58
591.51	42.13
591.67	44.47
591.83	0.00
591.99	117.03
592.15	18.72
592.31	67.88
592.46	84.26
592.62	53.83
592.78	74.90
592.94	72.56
593.10	35.11
593.26	16.38
593.41	39.79
593.57	14.04
593.73	58.51
593.89	98.30
594.05	23.41
594.20	46.81
594.36	114.69
594.52	39.79
594.68	142.77
594.84	46.81
594.99	18.72
595.15	42.13
595.31	37.45
595.47	18.72
595.62	46.81
595.78	0.00
595.94	51.49
596.10	79.58
596.25	28.09
596.41	95.96
596.57	0.00
596.73	37.45
596.88	63.19
597.04	51.49
597.20	58.51
597.36	107.66
597.51	72.56
597.67	4.68
597.83	32.77
597.99	67.88
598.14	28.09
598.30	67.88
598.46	18.72
598.61	0.00
598.77	32.77
598.93	30.43
599.09	107.66
599.24	67.88
599.40	37.45
599.56	79.58
599.71	4.68
599.87	88.94
600.03	42.13
600.18	25.75
600.34	79.58
600.50	42.13
600.65	9.36
600.81	100.64
600.97	58.51
601.12	37.45
601.28	44.47
601.44	7.02
601.59	107.66
601.75	0.00
601.91	65.54
602.06	21.06
602.22	0.00
602.37	84.26
602.53	60.85
602.69	81.92
602.84	9.36
603.00	63.19
603.16	25.75
603.31	70.22
603.47	16.38
603.62	42.13
603.78	79.58
603.94	72.56
604.09	86.60
604.25	39.79
604.40	112.35
604.56	58.51
604.71	93.62
604.87	32.77
605.03	110.01
605.18	110.01
605.34	0.00
605.49	72.56
605.65	56.17
605.80	58.51
605.96	42.13
606.12	86.60
606.27	56.17
606.43	67.88
606.58	102.98
606.74	58.51
606.89	81.92
607.05	28.09
607.20	114.69
607.36	67.88
607.51	23.41
607.67	18.72
607.82	77.24
607.98	114.69
608.13	84.26
608.29	0.00
608.44	63.19
608.60	37.45
608.75	14.04
608.91	42.13
609.06	100.64
609.22	23.41
609.37	74.90
609.53	0.00
609.68	72.56
609.84	0.00
609.99	51.49
610.15	30.43
610.30	93.62
610.46	70.22
610.61	44.47
610.76	79.58
610.92	67.88
611.07	56.17
611.23	86.60
611.38	65.54
611.54	46.81
611.69	30.43
611.84	88.94
612.00	23.41
612.15	42.13
612.31	0.00
612.46	0.00
612.62	37.45
612.77	0.00
612.92	4.68
613.08	0.00
613.23	28.09
613.39	0.00
613.54	84.26
613.69	9.36
613.85	42.13
614.00	28.09
614.15	23.41
614.31	35.11
614.46	95.96
614.62	51.49
614.77	46.81
614.92	35.11
615.08	63.19
615.23	65.54
615.38	98.30
615.54	0.00
615.69	25.75
615.84	18.72
616.00	0.00
616.15	53.83
616.30	35.11
616.46	60.85
616.61	37.45
616.76	72.56
616.92	4.68
617.07	11.70
617.22	51.49
617.37	63.19
617.53	0.00
617.68	0.00
617.83	25.75
617.99	98.30
618.14	84.26
618.29	93.62
618.45	67.88
618.60	0.00
618.75	56.17
618.90	25.75
619.06	79.58
619.21	93.62
619.36	74.90
619.51	107.66
619.67	25.75
619.82	42.13
619.97	56.17
620.12	65.54
620.28	126.39
620.43	49.15
620.58	42.13
620.73	0.00
620.89	9.36
621.04	65.54
621.19	93.62
621.34	16.38
621.49	138.09
621.65	51.49
621.80	53.83
621.95	51.49
622.10	86.60
622.25	81.92
622.41	4.68
622.56	0.00
622.71	28.09
622.86	0.00
623.01	63.19
623.16	117.03
623.32	23.41
623.47	60.85
623.62	81.92
623.77	28.09
623.92	63.19
624.07	58.51
624.23	18.72
624.38	42.13
624.53	112.35
624.68	60.85
624.83	46.81
624.98	51.49
625.13	60.85
625.29	9.36
625.44	67.88
625.59	56.17
625.74	53.83
625.89	46.81
626.04	0.00
626.19	93.62
626.34	0.00
626.49	0.00
626.65	53.83
626.80	18.72
626.95	79.58
627.10	119.37
627.25	0.00
627.40	81.92
627.55	65.54
627.70	25.75
627.85	11.70
628.00	39.79
628.15	102.98
628.30	30.43
628.45	77.24
628.60	98.30
628.76	42.13
628.91	2.34
629.06	30.43
629.21	100.64
629.36	0.00
629.51	95.96
629.66	21.06
629.81	74.90
629.96	11.70
630.11	35.11
630.26	65.54
630.41	60.85
630.56	18.72
630.71	39.79
630.86	102.98
631.01	39.79
631.16	30.43
631.31	117.03
631.46	46.81
631.61	42.13
631.76	56.17
631.91	4.68
632.06	39.79
632.21	14.04
632.36	44.47
632.51	112.35
632.66	95.96
632.81	67.88
632.96	65.54
633.10	39.79
633.25	147.45
633.40	81.92
633.55	16.38
633.70	0.00
633.85	112.35
634.00	21.06
634.15	51.49
634.30	0.00
634.45	65.54
634.60	124.05
634.75	79.58
634.90	37.45
635.05	44.47
635.19	81.92
635.34	16.38
635.49	42.13
635.64	74.90
635.79	58.51
635.94	21.06
636.09	72.56
636.24	4.68
636.39	93.62
636.53	98.30
636.68	74.90
636.83	145.11
636.98	44.47
637.13	11.70
637.28	18.72
637.43	32.77
637.57	25.75
637.72	72.56
637.87	77.24
638.02	95.96
638.17	35.11
638.32	23.41
638.46	86.60
638.61	72.56
638.76	35.11
638.91	60.85
639.06	39.79
639.20	77.24
639.35	44.47
639.50	4.68
639.65	11.70
639.80	86.60
639.94	25.75
640.09	65.54
640.24	51.49
640.39	39.79
640.54	53.83
640.68	44.47
640.83	88.94
640.98	9.36
641.13	135.75
641.27	65.54
641.42	28.09
641.57	72.56
641.72	84.26
641.86	46.81
642.01	63.19
642.16	49.15
642.31	0.00
642.45	65.54
642.60	42.13
642.75	124.05
642.90	28.09
643.04	81.92
643.19	42.13
643.34	21.06
643.48	63.19
643.63	32.77
643.78	56.17
643.93	112.35
644.07	42.13
644.22	35.11
644.37	63.19
644.51	46.81
644.66	46.81
644.81	53.83
644.95	49.15
645.10	58.51
645.25	39.79
645.39	53.83
645.54	56.17
645.69	107.66
645.83	74.90
645.98	110.01
646.13	0.00
646.27	163.84
646.42	46.81
646.57	110.01
646.71	28.09
646.86	77.24
647.00	86.60
647.15	63.19
647.30	16.38
647.44	0.00
647.59	35.11
647.74	95.96
647.88	60.85
648.03	14.04
648.17	42.13
648.32	21.06
648.47	35.11
648.61	105.32
648.76	79.58
648.90	152.13
649.05	21.06
649.20	0.00
649.34	56.17
649.49	46.81
649.63	72.56
649.78	81.92
649.92	79.58
650.07	77.24
650.21	105.32
650.36	32.77
650.51	121.71
650.65	124.05
650.80	53.83
650.94	98.30
651.09	98.30
651.23	110.01
651.38	9.36
651.52	18.72
651.67	35.11
651.81	51.49
651.96	4.68
652.10	88.94
652.25	81.92
652.39	39.79
652.54	23.41
652.68	91.28
652.83	35.11
652.97	84.26
653.12	91.28
653.26	135.75
653.41	39.79
653.55	4.68
653.70	0.00
653.84	0.00
653.99	23.41
654.13	4.68
654.27	91.28
654.42	72.56
654.56	63.19
654.71	105.32
654.85	88.94
655.00	91.28
655.14	124.05
655.29	32.77
655.43	18.72
655.57	28.09
655.72	72.56
655.86	44.47
656.01	28.09
656.15	67.88
656.30	18.72
656.44	70.22
656.58	23.41
656.73	7.02
656.87	39.79
657.01	49.15
657.16	21.06
657.30	39.79
657.45	46.81
657.59	21.06
657.73	91.28
657.88	30.43
658.02	65.54
658.16	35.11
658.31	42.13
658.45	14.04
658.60	18.72
658.74	37.45
658.88	53.83
659.03	72.56
659.17	88.94
659.31	9.36
659.46	53.83
659.60	117.03
659.74	93.62
659.89	72.56
660.03	32.77
660.17	0.00
660.32	110.01
660.46	74.90
660.60	74.90
660.74	74.90
660.89	49.15
661.03	110.01
661.17	121.71
661.32	46.81
661.46	16.38
661.60	14.04
661.74	114.69
661.89	110.01
662.03	131.07
662.17	84.26
662.31	88.94
662.46	88.94
662.60	65.54
662.74	112.35
662.88	72.56
663.03	23.41
663.17	114.69
663.31	7.02
663.45	44.47
663.60	44.47
663.74	67.88
663.88	35.11
664.02	9.36
664.17	32.77
664.31	42.13
664.45	67.88
664.59	102.98
664.73	42.13
664.88	46.81
665.02	124.05
665.16	60.85
665.30	32.77
665.44	25.75
665.59	124.05
665.73	53.83
665.87	60.85
666.01	11.70
666.15	0.00
666.29	0.00
666.44	9.36
666.58	28.09
666.72	37.45
666.86	16.38
667.00	86.60
667.14	84.26
667.28	28.09
667.43	49.15
667.57	21.06
667.71	77.24
667.85	95.96
667.99	16.38
668.13	0.00
668.27	88.94
668.41	11.70
668.56	46.81
668.70	2.34
668.84	44.47
668.98	46.81
669.12	16.38
669.26	49.15
669.40	60.85
669.54	46.81
669.68	60.85
669.82	42.13
669.96	79.58
670.10	30.43
670.25	53.83
670.39	39.79
670.53	88.94
670.67	70.22
670.81	21.06
670.95	86.60
671.09	14.04
671.23	84.26
671.37	21.06
671.51	0.00
671.65	2.34
671.79	100.64
671.93	42.13
672.07	7.02
672.21	63.19
672.35	107.66
672.49	4.68
672.63	42.13
672.77	67.88
672.91	42.13
673.05	0.00
673.19	46.81
673.33	93.62
673.47	77.24
673.61	30.43
673.75	35.11
673.89	9.36
674.03	74.90
674.17	100.64
674.31	100.64
674.45	58.51
674.59	18.72
674.73	98.30
674.87	16.38
675.01	56.17
675.15	56.17
675.29	74.90
675.43	25.75
675.56	95.96
675.70	88.94
675.84	21.06
675.98	51.49
676.12	63.19
676.26	39.79
676.40	58.51
676.54	70.22
676.68	51.49
676.82	91.28
676.96	32.77
677.10	0.00
677.23	21.06
677.37	91.28
677.51	0.00
677.65	16.38
677.79	42.13
677.93	0.00
678.07	39.79
678.21	2.34
678.34	16.38
678.48	53.83
678.62	25.75
678.76	60.85
678.90	11.70
679.04	28.09
679.18	49.15
679.31	46.81
679.45	56.17
679.59	44.47
679.73	30.43
679.87	23.41
680.00	51.49
680.14	81.92
680.28	0.00
680.42	42.13
680.56	67.88
680.70	11.70
680.83	23.41
680.97	44.47
681.11	98.30
681.25	25.75
681.39	42.13
681.52	72.56
681.66	44.47
681.80	77.24
681.94	86.60
682.07	21.06
682.21	2.34
682.35	56.17
682.49	46.81
682.62	77.24
682.76	77.24
682.90	14.04
683.04	16.38
683.17	32.77
683.31	0.00
683.45	56.17
683.59	42.13
683.72	67.88
683.86	11.70
684.00	0.00
684.13	21.06
684.27	0.00
684.41	39.79
684.55	0.00
684.68	7.02
684.82	28.09
684.96	0.00
685.09	39.79
685.23	67.88
685.37	63.19
685.50	51.49
685.64	128.73
685.78	51.49
685.91	23.41
686.05	32.77
686.19	21.06
686.32	42.13
686.46	67.88
686.60	79.58
686.73	51.49
686.87	58.51
687.01	2.34
687.14	0.00
687.28	0.00
687.42	44.47
687.55	35.11
687.69	56.17
687.82	93.62
687.96	18.72
688.10	63.19
688.23	0.00
688.37	51.49
688.50	79.58
688.64	51.49
688.78	77.24
688.91	9.36
689.05	56.17
689.18	53.83
689.32	0.00
689.46	28.09
689.59	46.81
689.73	9.36
689.86	0.00
690.00	18.72
690.13	49.15
690.27	79.58
690.41	28.09
690.54	70.22
690.68	32.77
690.81	56.17
690.95	56.17
691.08	46.81
691.22	37.45
691.35	86.60
691.49	4.68
691.62	30.43
691.76	30.43
691.89	42.13
692.03	107.66
692.16	0.00
692.30	0.00
692.43	56.17
692.57	9.36
692.70	79.58
692.84	23.41
692.97	46.81
693.11	95.96
693.24	67.88
693.38	42.13
693.51	72.56
693.65	18.72
693.78	0.00
693.92	51.49
694.05	25.75
694.19	77.24
694.32	2.34
694.45	72.56
694.59	0.00
694.72	0.00
694.86	44.47
694.99	65.54
695.13	51.49
695.26	9.36
695.39	11.70
695.53	37.45
695.66	16.38
695.80	49.15
695.93	18.72
696.07	95.96
696.20	44.47
696.33	0.00
696.47	65.54
696.60	7.02
696.73	0.00
696.87	37.45
697.00	0.00
697.14	37.45
697.27	23.41
697.40	37.45
697.54	98.30
697.67	16.38
697.80	81.92
697.94	14.04
698.07	0.00
698.21	72.56
698.34	30.43
698.47	7.02
698.61	21.06
698.74	37.45
698.87	42.13
699.01	23.41
699.14	0.00
699.27	119.37
699.40	72.56
699.54	53.83
699.67	42.13
699.80	42.13
699.94	124.05
700.07	53.83
700.20	37.45
700.34	74.90
700.47	16.38
700.60	35.11
700.73	42.13
700.87	42.13
701.00	67.88
701.13	2.34
701.26	16.38
701.40	32.77
701.53	51.49
701.66	39.79
701.79	77.24
701.93	0.00
702.06	63.19
702.19	25.75
702.32	65.54
702.46	7.02
702.59	37.45
702.72	9.36
702.85	53.83
702.99	23.41
703.12	74.90
703.25	0.00
703.38	28.09
703.51	56.17
703.65	0.00
703.78	18.72
703.91	16.38
704.04	0.00
704.17	0.00
704.31	0.00
704.44	23.41
704.57	42.13
704.70	25.75
704.83	63.19
704.96	28.09
705.10	39.79
705.23	18.72
>>>>>End Processed Spectral Data<<<<<
