SpectraSuite Data File
++++++++++++++++++++++++++++++++++++
Date: Tue Oct 01 18:25:10 GMT-05:00 2013
User: stostad
Dark Spectrum Present: No
Reference Spectrum Present: No
Number of Sampled Component Spectra: 1
Spectrometers: USB2+H05261
Integration Time (usec): 100000 (USB2+H05261)
Spectra Averaged: 1 (USB2+H05261)
Boxcar Smoothing: 0 (USB2+H05261)
Correct for Electrical Dark: No (USB2+H05261)
Strobe/Lamp Enabled: No (USB2+H05261)
Correct for Detector Non-linearity: No (USB2+H05261)
Correct for Stray Light: No (USB2+H05261)
Number of Pixels in Processed Spectrum: 2048
>>>>>Begin Processed Spectral Data<<<<<
365.73	77.24
365.92	77.24
366.12	77.24
366.32	0.00
366.52	0.00
366.72	0.00
366.91	0.00
367.11	0.00
367.31	0.00
367.51	0.00
367.70	0.00
367.90	18.72
368.10	0.00
368.30	0.00
368.49	0.00
368.69	39.79
368.89	0.00
369.09	0.00
369.28	0.00
369.48	0.00
369.68	0.00
369.87	9.36
370.07	35.11
370.27	7.02
370.47	7.02
370.66	7.02
370.86	14.04
371.06	117.03
371.25	112.35
371.45	117.03
371.65	105.32
371.84	84.26
372.04	112.35
372.24	170.86
372.44	35.11
372.63	30.43
372.83	168.52
373.03	51.49
373.22	119.37
373.42	154.48
373.62	175.54
373.81	72.56
374.01	182.56
374.21	173.20
374.40	149.79
374.60	149.79
374.79	131.07
374.99	212.99
375.19	138.09
375.38	149.79
375.58	98.30
375.78	163.84
375.97	173.20
376.17	231.71
376.37	156.82
376.56	159.16
376.76	149.79
376.95	37.45
377.15	147.45
377.35	119.37
377.54	156.82
377.74	147.45
377.93	102.98
378.13	112.35
378.33	133.41
378.52	173.20
378.72	182.56
378.91	198.95
379.11	163.84
379.31	102.98
379.50	212.99
379.70	145.11
379.89	224.69
380.09	149.79
380.28	107.66
380.48	114.69
380.68	191.92
380.87	93.62
381.07	105.32
381.26	119.37
381.46	173.20
381.65	142.77
381.85	142.77
382.04	131.07
382.24	224.69
382.43	163.84
382.63	182.56
382.83	121.71
383.02	110.01
383.22	145.11
383.41	60.85
383.61	173.20
383.80	91.28
384.00	67.88
384.19	117.03
384.39	128.73
384.58	9.36
384.78	107.66
384.97	163.84
385.17	147.45
385.36	159.16
385.56	142.77
385.75	102.98
385.95	88.94
386.14	166.18
386.34	112.35
386.53	95.96
386.72	142.77
386.92	126.39
387.11	170.86
387.31	177.88
387.50	138.09
387.70	65.54
387.89	65.54
388.09	114.69
388.28	86.60
388.48	42.13
388.67	135.75
388.86	156.82
389.06	49.15
389.25	114.69
389.45	124.05
389.64	126.39
389.84	142.77
390.03	128.73
390.22	128.73
390.42	135.75
390.61	93.62
390.81	112.35
391.00	166.18
391.19	133.41
391.39	140.43
391.58	142.77
391.78	86.60
391.97	124.05
392.16	128.73
392.36	170.86
392.55	170.86
392.75	212.99
392.94	110.01
393.13	163.84
393.33	70.22
393.52	161.50
393.71	152.13
393.91	159.16
394.10	142.77
394.29	102.98
394.49	189.58
394.68	184.90
394.88	187.24
395.07	215.33
395.26	93.62
395.46	117.03
395.65	173.20
395.84	81.92
396.04	112.35
396.23	170.86
396.42	117.03
396.62	177.88
396.81	147.45
397.00	58.51
397.19	163.84
397.39	72.56
397.58	187.24
397.77	93.62
397.97	124.05
398.16	114.69
398.35	142.77
398.55	149.79
398.74	147.45
398.93	182.56
399.12	166.18
399.32	107.66
399.51	86.60
399.70	79.58
399.90	154.48
400.09	149.79
400.28	180.22
400.47	119.37
400.67	117.03
400.86	140.43
401.05	156.82
401.24	170.86
401.44	135.75
401.63	145.11
401.82	154.48
402.01	100.64
402.21	100.64
402.40	95.96
402.59	88.94
402.78	198.95
402.97	72.56
403.17	105.32
403.36	149.79
403.55	170.86
403.74	135.75
403.93	182.56
404.13	203.63
404.32	126.39
404.51	133.41
404.70	128.73
404.89	100.64
405.09	184.90
405.28	173.20
405.47	91.28
405.66	182.56
405.85	117.03
406.05	149.79
406.24	91.28
406.43	46.81
406.62	161.50
406.81	177.88
407.00	110.01
407.20	126.39
407.39	135.75
407.58	65.54
407.77	161.50
407.96	147.45
408.15	105.32
408.34	140.43
408.54	166.18
408.73	170.86
408.92	184.90
409.11	149.79
409.30	110.01
409.49	112.35
409.68	133.41
409.87	91.28
410.07	98.30
410.26	131.07
410.45	145.11
410.64	121.71
410.83	119.37
411.02	170.86
411.21	161.50
411.40	182.56
411.59	140.43
411.78	168.52
411.98	163.84
412.17	93.62
412.36	168.52
412.55	114.69
412.74	63.19
412.93	156.82
413.12	124.05
413.31	177.88
413.50	166.18
413.69	152.13
413.88	154.48
414.07	91.28
414.26	145.11
414.45	212.99
414.64	135.75
414.83	77.24
415.02	112.35
415.22	149.79
415.41	187.24
415.60	56.17
415.79	156.82
415.98	177.88
416.17	114.69
416.36	159.16
416.55	112.35
416.74	205.97
416.93	166.18
417.12	102.98
417.31	152.13
417.50	131.07
417.69	198.95
417.88	184.90
418.07	81.92
418.26	156.82
418.45	149.79
418.64	189.58
418.83	156.82
419.02	163.84
419.21	156.82
419.39	107.66
419.58	220.01
419.77	168.52
419.96	147.45
420.15	168.52
420.34	175.54
420.53	126.39
420.72	152.13
420.91	124.05
421.10	131.07
421.29	189.58
421.48	126.39
421.67	128.73
421.86	145.11
422.05	117.03
422.24	191.92
422.43	131.07
422.61	67.88
422.80	65.54
422.99	152.13
423.18	100.64
423.37	198.95
423.56	154.48
423.75	147.45
423.94	131.07
424.13	156.82
424.32	84.26
424.50	72.56
424.69	110.01
424.88	147.45
425.07	86.60
425.26	191.92
425.45	175.54
425.64	227.03
425.83	194.26
426.01	159.16
426.20	128.73
426.39	161.50
426.58	81.92
426.77	121.71
426.96	191.92
427.15	131.07
427.33	105.32
427.52	95.96
427.71	163.84
427.90	159.16
428.09	95.96
428.28	180.22
428.46	159.16
428.65	145.11
428.84	32.77
429.03	203.63
429.22	135.75
429.40	81.92
429.59	81.92
429.78	184.90
429.97	112.35
430.16	98.30
430.34	56.17
430.53	138.09
430.72	177.88
430.91	163.84
431.10	107.66
431.28	177.88
431.47	98.30
431.66	79.58
431.85	187.24
432.03	138.09
432.22	212.99
432.41	81.92
432.60	159.16
432.79	208.31
432.97	159.16
433.16	229.37
433.35	231.71
433.54	126.39
433.72	135.75
433.91	224.69
434.10	217.67
434.28	191.92
434.47	170.86
434.66	203.63
434.85	161.50
435.03	177.88
435.22	159.16
435.41	201.29
435.59	196.60
435.78	231.71
435.97	170.86
436.16	152.13
436.34	119.37
436.53	107.66
436.72	156.82
436.90	273.84
437.09	154.48
437.28	182.56
437.46	74.90
437.65	161.50
437.84	93.62
438.02	86.60
438.21	149.79
438.40	180.22
438.58	110.01
438.77	152.13
438.96	124.05
439.14	112.35
439.33	168.52
439.52	147.45
439.70	107.66
439.89	149.79
440.08	166.18
440.26	128.73
440.45	142.77
440.63	208.31
440.82	107.66
441.01	135.75
441.19	91.28
441.38	112.35
441.57	138.09
441.75	175.54
441.94	147.45
442.12	180.22
442.31	117.03
442.50	128.73
442.68	133.41
442.87	131.07
443.05	138.09
443.24	110.01
443.43	189.58
443.61	191.92
443.80	105.32
443.98	49.15
444.17	91.28
444.35	198.95
444.54	177.88
444.73	102.98
444.91	163.84
445.10	100.64
445.28	140.43
445.47	201.29
445.65	147.45
445.84	91.28
446.02	110.01
446.21	107.66
446.39	138.09
446.58	147.45
446.77	77.24
446.95	81.92
447.14	163.84
447.32	126.39
447.51	135.75
447.69	142.77
447.88	81.92
448.06	177.88
448.25	93.62
448.43	126.39
448.62	105.32
448.80	77.24
448.99	88.94
449.17	112.35
449.36	112.35
449.54	79.58
449.73	170.86
449.91	86.60
450.10	86.60
450.28	170.86
450.46	238.73
450.65	177.88
450.83	142.77
451.02	114.69
451.20	191.92
451.39	107.66
451.57	93.62
451.76	128.73
451.94	98.30
452.13	142.77
452.31	131.07
452.49	117.03
452.68	30.43
452.86	121.71
453.05	201.29
453.23	131.07
453.42	152.13
453.60	142.77
453.78	152.13
453.97	222.35
454.15	250.44
454.34	166.18
454.52	166.18
454.70	191.92
454.89	159.16
455.07	154.48
455.26	201.29
455.44	93.62
455.62	105.32
455.81	84.26
455.99	102.98
456.17	140.43
456.36	102.98
456.54	159.16
456.73	166.18
456.91	102.98
457.09	152.13
457.28	189.58
457.46	173.20
457.64	117.03
457.83	154.48
458.01	121.71
458.19	23.41
458.38	56.17
458.56	208.31
458.74	77.24
458.93	189.58
459.11	201.29
459.29	161.50
459.48	133.41
459.66	208.31
459.84	163.84
460.03	271.50
460.21	133.41
460.39	124.05
460.57	210.65
460.76	236.39
460.94	166.18
461.12	156.82
461.31	187.24
461.49	112.35
461.67	86.60
461.85	138.09
462.04	142.77
462.22	596.84
462.40	177.88
462.59	159.16
462.77	32.77
462.95	138.09
463.13	177.88
463.32	159.16
463.50	224.69
463.68	133.41
463.86	145.11
464.05	145.11
464.23	168.52
464.41	107.66
464.59	140.43
464.78	133.41
464.96	133.41
465.14	126.39
465.32	168.52
465.50	154.48
465.69	210.65
465.87	152.13
466.05	201.29
466.23	91.28
466.41	149.79
466.60	161.50
466.78	140.43
466.96	208.31
467.14	70.22
467.32	102.98
467.51	117.03
467.69	184.90
467.87	205.97
468.05	128.73
468.23	222.35
468.41	110.01
468.60	124.05
468.78	124.05
468.96	154.48
469.14	180.22
469.32	91.28
469.50	121.71
469.69	166.18
469.87	126.39
470.05	208.31
470.23	88.94
470.41	128.73
470.59	152.13
470.77	147.45
470.95	140.43
471.14	140.43
471.32	140.43
471.50	79.58
471.68	53.83
471.86	117.03
472.04	60.85
472.22	128.73
472.40	154.48
472.58	161.50
472.77	161.50
472.95	147.45
473.13	168.52
473.31	133.41
473.49	126.39
473.67	102.98
473.85	152.13
474.03	173.20
474.21	187.24
474.39	168.52
474.57	215.33
474.75	126.39
474.93	102.98
475.12	124.05
475.30	180.22
475.48	105.32
475.66	58.51
475.84	189.58
476.02	21.06
476.20	180.22
476.38	187.24
476.56	187.24
476.74	98.30
476.92	170.86
477.10	154.48
477.28	128.73
477.46	126.39
477.64	131.07
477.82	133.41
478.00	159.16
478.18	138.09
478.36	180.22
478.54	166.18
478.72	95.96
478.90	102.98
479.08	175.54
479.26	74.90
479.44	168.52
479.62	86.60
479.80	177.88
479.98	119.37
480.16	180.22
480.34	154.48
480.52	135.75
480.70	91.28
480.88	100.64
481.06	124.05
481.24	117.03
481.41	187.24
481.59	105.32
481.77	86.60
481.95	194.26
482.13	149.79
482.31	140.43
482.49	126.39
482.67	133.41
482.85	138.09
483.03	168.52
483.21	93.62
483.39	86.60
483.57	166.18
483.74	154.48
483.92	154.48
484.10	112.35
484.28	175.54
484.46	138.09
484.64	140.43
484.82	135.75
485.00	142.77
485.18	234.05
485.35	156.82
485.53	145.11
485.71	147.45
485.89	140.43
486.07	196.60
486.25	133.41
486.43	156.82
486.61	79.58
486.78	222.35
486.96	95.96
487.14	74.90
487.32	100.64
487.50	105.32
487.68	191.92
487.85	119.37
488.03	166.18
488.21	135.75
488.39	184.90
488.57	180.22
488.75	86.60
488.92	229.37
489.10	124.05
489.28	65.54
489.46	112.35
489.64	72.56
489.81	102.98
489.99	133.41
490.17	124.05
490.35	201.29
490.53	168.52
490.70	105.32
490.88	112.35
491.06	156.82
491.24	156.82
491.41	142.77
491.59	138.09
491.77	133.41
491.95	86.60
492.13	180.22
492.30	138.09
492.48	49.15
492.66	119.37
492.84	133.41
493.01	117.03
493.19	128.73
493.37	159.16
493.54	163.84
493.72	98.30
493.90	184.90
494.08	196.60
494.25	114.69
494.43	117.03
494.61	131.07
494.79	156.82
494.96	119.37
495.14	133.41
495.32	140.43
495.49	138.09
495.67	138.09
495.85	117.03
496.02	128.73
496.20	245.76
496.38	117.03
496.55	98.30
496.73	135.75
496.91	166.18
497.09	166.18
497.26	107.66
497.44	81.92
497.62	182.56
497.79	107.66
497.97	70.22
498.14	159.16
498.32	140.43
498.50	100.64
498.67	105.32
498.85	163.84
499.03	163.84
499.20	168.52
499.38	135.75
499.56	112.35
499.73	180.22
499.91	133.41
500.08	124.05
500.26	170.86
500.44	159.16
500.61	184.90
500.79	184.90
500.97	117.03
501.14	189.58
501.32	210.65
501.49	177.88
501.67	142.77
501.84	201.29
502.02	135.75
502.20	191.92
502.37	126.39
502.55	107.66
502.72	175.54
502.90	84.26
503.07	133.41
503.25	156.82
503.43	124.05
503.60	119.37
503.78	121.71
503.95	86.60
504.13	156.82
504.30	135.75
504.48	60.85
504.65	220.01
504.83	166.18
505.01	191.92
505.18	177.88
505.36	93.62
505.53	112.35
505.71	159.16
505.88	187.24
506.06	198.95
506.23	88.94
506.41	173.20
506.58	140.43
506.76	70.22
506.93	145.11
507.11	114.69
507.28	84.26
507.46	128.73
507.63	124.05
507.81	149.79
507.98	77.24
508.16	163.84
508.33	126.39
508.50	110.01
508.68	102.98
508.85	67.88
509.03	187.24
509.20	126.39
509.38	114.69
509.55	128.73
509.73	98.30
509.90	126.39
510.08	124.05
510.25	110.01
510.42	168.52
510.60	21.06
510.77	203.63
510.95	198.95
511.12	142.77
511.30	159.16
511.47	166.18
511.64	212.99
511.82	135.75
511.99	121.71
512.17	173.20
512.34	126.39
512.51	70.22
512.69	149.79
512.86	140.43
513.04	203.63
513.21	114.69
513.38	147.45
513.56	51.49
513.73	65.54
513.90	142.77
514.08	60.85
514.25	131.07
514.43	175.54
514.60	182.56
514.77	124.05
514.95	182.56
515.12	128.73
515.29	140.43
515.47	170.86
515.64	138.09
515.81	198.95
515.99	161.50
516.16	161.50
516.33	198.95
516.51	131.07
516.68	112.35
516.85	145.11
517.03	128.73
517.20	128.73
517.37	156.82
517.54	138.09
517.72	119.37
517.89	131.07
518.06	88.94
518.24	182.56
518.41	163.84
518.58	161.50
518.75	138.09
518.93	131.07
519.10	159.16
519.27	98.30
519.45	112.35
519.62	112.35
519.79	208.31
519.96	81.92
520.14	154.48
520.31	161.50
520.48	159.16
520.65	117.03
520.83	124.05
521.00	159.16
521.17	105.32
521.34	156.82
521.52	119.37
521.69	98.30
521.86	65.54
522.03	86.60
522.20	208.31
522.38	152.13
522.55	175.54
522.72	105.32
522.89	140.43
523.07	187.24
523.24	140.43
523.41	112.35
523.58	93.62
523.75	177.88
523.92	173.20
524.10	196.60
524.27	133.41
524.44	105.32
524.61	126.39
524.78	105.32
524.96	79.58
525.13	84.26
525.30	203.63
525.47	191.92
525.64	128.73
525.81	159.16
525.98	107.66
526.16	140.43
526.33	86.60
526.50	79.58
526.67	161.50
526.84	100.64
527.01	184.90
527.18	126.39
527.36	182.56
527.53	201.29
527.70	121.71
527.87	135.75
528.04	124.05
528.21	88.94
528.38	126.39
528.55	121.71
528.72	163.84
528.89	124.05
529.07	189.58
529.24	65.54
529.41	180.22
529.58	173.20
529.75	170.86
529.92	140.43
530.09	110.01
530.26	133.41
530.43	184.90
530.60	126.39
530.77	124.05
530.94	224.69
531.11	149.79
531.28	147.45
531.46	142.77
531.63	114.69
531.80	149.79
531.97	198.95
532.14	107.66
532.31	112.35
532.48	187.24
532.65	231.71
532.82	236.39
532.99	191.92
533.16	166.18
533.33	147.45
533.50	161.50
533.67	224.69
533.84	273.84
534.01	210.65
534.18	245.76
534.35	135.75
534.52	142.77
534.69	180.22
534.86	187.24
535.03	152.13
535.20	152.13
535.37	201.29
535.54	142.77
535.71	135.75
535.88	163.84
536.05	187.24
536.22	173.20
536.38	114.69
536.55	128.73
536.72	163.84
536.89	117.03
537.06	138.09
537.23	60.85
537.40	121.71
537.57	30.43
537.74	51.49
537.91	194.26
538.08	117.03
538.25	149.79
538.42	161.50
538.59	154.48
538.75	135.75
538.92	93.62
539.09	201.29
539.26	93.62
539.43	365.12
539.60	688.12
539.77	901.11
539.94	812.17
540.11	395.55
540.28	273.84
540.44	215.33
540.61	133.41
540.78	121.71
540.95	161.50
541.12	156.82
541.29	88.94
541.46	222.35
541.62	53.83
541.79	161.50
541.96	98.30
542.13	194.26
542.30	163.84
542.47	105.32
542.63	154.48
542.80	117.03
542.97	154.48
543.14	175.54
543.31	121.71
543.48	105.32
543.64	170.86
543.81	238.73
543.98	121.71
544.15	63.19
544.32	105.32
544.48	100.64
544.65	112.35
544.82	112.35
544.99	110.01
545.16	189.58
545.32	124.05
545.49	166.18
545.66	154.48
545.83	110.01
546.00	93.62
546.16	39.79
546.33	140.43
546.50	142.77
546.67	187.24
546.83	107.66
547.00	191.92
547.17	131.07
547.34	107.66
547.50	131.07
547.67	105.32
547.84	140.43
548.00	126.39
548.17	182.56
548.34	194.26
548.51	145.11
548.67	147.45
548.84	222.35
549.01	161.50
549.18	187.24
549.34	159.16
549.51	128.73
549.68	208.31
549.84	149.79
550.01	131.07
550.18	180.22
550.34	224.69
550.51	149.79
550.68	170.86
550.84	145.11
551.01	149.79
551.18	217.67
551.34	58.51
551.51	114.69
551.68	138.09
551.84	149.79
552.01	133.41
552.18	135.75
552.34	102.98
552.51	102.98
552.68	187.24
552.84	86.60
553.01	201.29
553.18	105.32
553.34	187.24
553.51	98.30
553.67	121.71
553.84	173.20
554.01	138.09
554.17	124.05
554.34	124.05
554.51	77.24
554.67	203.63
554.84	119.37
555.00	145.11
555.17	152.13
555.33	152.13
555.50	191.92
555.67	194.26
555.83	128.73
556.00	161.50
556.16	351.08
556.33	152.13
556.50	131.07
556.66	131.07
556.83	154.48
556.99	126.39
557.16	110.01
557.32	117.03
557.49	138.09
557.65	147.45
557.82	126.39
557.98	147.45
558.15	159.16
558.32	114.69
558.48	161.50
558.65	121.71
558.81	91.28
558.98	100.64
559.14	194.26
559.31	138.09
559.47	128.73
559.64	161.50
559.80	210.65
559.97	124.05
560.13	119.37
560.30	196.60
560.46	175.54
560.63	95.96
560.79	126.39
560.96	149.79
561.12	86.60
561.29	145.11
561.45	121.71
561.61	170.86
561.78	191.92
561.94	161.50
562.11	147.45
562.27	166.18
562.44	110.01
562.60	79.58
562.77	142.77
562.93	194.26
563.10	142.77
563.26	95.96
563.42	145.11
563.59	119.37
563.75	147.45
563.92	156.82
564.08	222.35
564.24	170.86
564.41	196.60
564.57	117.03
564.74	107.66
564.90	107.66
565.07	117.03
565.23	114.69
565.39	142.77
565.56	201.29
565.72	142.77
565.88	173.20
566.05	173.20
566.21	60.85
566.38	110.01
566.54	187.24
566.70	133.41
566.87	128.73
567.03	95.96
567.19	187.24
567.36	217.67
567.52	95.96
567.68	140.43
567.85	107.66
568.01	140.43
568.17	173.20
568.34	133.41
568.50	156.82
568.66	110.01
568.83	170.86
568.99	184.90
569.15	105.32
569.32	142.77
569.48	154.48
569.64	145.11
569.81	110.01
569.97	107.66
570.13	147.45
570.30	161.50
570.46	114.69
570.62	166.18
570.78	175.54
570.95	102.98
571.11	166.18
571.27	222.35
571.43	142.77
571.60	131.07
571.76	112.35
571.92	156.82
572.09	107.66
572.25	98.30
572.41	121.71
572.57	147.45
572.74	119.37
572.90	222.35
573.06	175.54
573.22	88.94
573.38	203.63
573.55	161.50
573.71	128.73
573.87	154.48
574.03	107.66
574.20	222.35
574.36	205.97
574.52	191.92
574.68	182.56
574.84	187.24
575.01	212.99
575.17	198.95
575.33	135.75
575.49	224.69
575.65	245.76
575.82	346.40
575.98	381.51
576.14	416.62
576.30	322.99
576.46	276.18
576.62	152.13
576.79	227.03
576.95	198.95
577.11	88.94
577.27	110.01
577.43	187.24
577.59	177.88
577.75	102.98
577.92	201.29
578.08	149.79
578.24	154.48
578.40	182.56
578.56	173.20
578.72	194.26
578.88	208.31
579.04	135.75
579.21	156.82
579.37	173.20
579.53	243.42
579.69	217.67
579.85	194.26
580.01	205.97
580.17	236.39
580.33	234.05
580.49	198.95
580.65	175.54
580.82	182.56
580.98	248.10
581.14	243.42
581.30	259.80
581.46	367.46
581.62	355.76
581.78	334.70
581.94	227.03
582.10	259.80
582.26	236.39
582.42	222.35
582.58	241.08
582.74	227.03
582.90	142.77
583.06	294.91
583.22	229.37
583.38	243.42
583.54	341.72
583.70	332.36
583.86	407.25
584.02	400.23
584.18	592.16
584.34	1177.29
584.50	7510.78
584.66	26295.92
584.82	45038.93
584.98	47288.18
585.14	29359.68
585.30	15508.39
585.46	7562.27
585.62	2930.35
585.78	1306.02
585.94	732.59
586.10	491.51
586.26	374.49
586.42	386.19
586.58	341.72
586.74	227.03
586.90	306.61
587.06	341.72
587.22	299.59
587.38	416.62
587.54	1490.92
587.70	2909.29
587.86	3637.19
588.02	2733.75
588.18	1558.80
588.34	945.58
588.49	514.92
588.65	301.93
588.81	241.08
588.97	224.69
589.13	236.39
589.29	133.41
589.45	234.05
589.61	243.42
589.77	276.18
589.93	273.84
590.08	220.01
590.24	245.76
590.40	184.90
590.56	191.92
590.72	198.95
590.88	241.08
591.04	191.92
591.20	170.86
591.35	250.44
591.51	196.60
591.67	180.22
591.83	163.84
591.99	159.16
592.15	180.22
592.31	154.48
592.46	159.16
592.62	114.69
592.78	114.69
592.94	173.20
593.10	217.67
593.26	159.16
593.41	180.22
593.57	313.63
593.73	1224.10
593.89	3398.46
594.05	5713.25
594.20	5809.21
594.36	3995.29
594.52	2401.39
594.68	1259.21
594.84	671.73
594.99	369.80
595.15	238.73
595.31	210.65
595.47	210.65
595.62	205.97
595.78	147.45
595.94	133.41
596.10	196.60
596.25	196.60
596.41	203.63
596.57	241.08
596.73	243.42
596.88	634.29
597.04	1203.04
597.20	1462.83
597.36	1153.88
597.51	753.65
597.67	442.36
597.83	308.95
597.99	227.03
598.14	156.82
598.30	304.27
598.46	266.82
598.61	212.99
598.77	180.22
598.93	152.13
599.09	156.82
599.24	147.45
599.40	215.33
599.56	154.48
599.71	142.77
599.87	159.16
600.03	107.66
600.18	102.98
600.34	194.26
600.50	175.54
600.65	131.07
600.81	182.56
600.97	91.28
601.12	168.52
601.28	140.43
601.44	191.92
601.59	110.01
601.75	236.39
601.91	187.24
602.06	217.67
602.22	430.66
602.37	912.81
602.53	1413.68
602.69	1610.29
602.84	1177.29
603.00	795.78
603.16	458.74
603.31	269.16
603.47	180.22
603.62	201.29
603.78	212.99
603.94	201.29
604.09	182.56
604.25	142.77
604.40	205.97
604.56	229.37
604.71	220.01
604.87	128.73
605.03	114.69
605.18	177.88
605.34	229.37
605.49	189.58
605.65	187.24
605.80	145.11
605.96	168.52
606.12	215.33
606.27	222.35
606.43	220.01
606.58	606.20
606.74	1790.51
606.89	3534.21
607.05	4821.50
607.20	3988.27
607.36	2717.36
607.51	1652.42
607.67	1046.22
607.82	498.53
607.98	327.68
608.13	234.05
608.29	234.05
608.44	210.65
608.60	318.31
608.75	819.19
608.91	2981.84
609.06	6113.48
609.22	8269.11
609.37	6906.92
609.53	4877.68
609.68	2956.10
609.84	1708.59
609.99	870.68
610.15	486.83
610.30	292.57
610.46	241.08
610.61	220.01
610.76	205.97
610.92	180.22
611.07	163.84
611.23	250.44
611.38	280.86
611.54	189.58
611.69	252.78
611.84	168.52
612.00	227.03
612.15	285.55
612.31	365.12
612.46	365.12
612.62	332.36
612.77	353.42
612.92	344.06
613.08	318.31
613.23	351.08
613.39	622.58
613.54	3115.25
613.69	7707.38
613.85	12748.90
614.00	12664.64
614.15	9076.60
614.31	5584.52
614.46	3695.71
614.62	1853.70
614.77	924.51
614.92	486.83
615.08	383.85
615.23	344.06
615.38	266.82
615.54	578.11
615.69	1720.29
615.84	3035.67
616.00	3538.89
616.15	2754.81
616.30	1937.96
616.46	1235.80
616.61	674.07
616.76	454.06
616.92	227.03
617.07	220.01
617.22	184.90
617.37	187.24
617.53	259.80
617.68	182.56
617.83	149.79
617.99	264.48
618.14	259.80
618.29	201.29
618.45	154.48
618.60	133.41
618.75	100.64
618.90	170.86
619.06	187.24
619.21	168.52
619.36	149.79
619.51	198.95
619.67	156.82
619.82	131.07
619.97	231.71
620.12	180.22
620.28	194.26
620.43	161.50
620.58	142.77
620.73	252.78
620.89	369.80
621.04	847.27
621.19	1645.40
621.34	2059.67
621.49	1717.95
621.65	1263.89
621.80	812.17
621.95	589.82
622.10	334.70
622.25	241.08
622.41	229.37
622.56	187.24
622.71	203.63
622.86	224.69
623.01	196.60
623.16	252.78
623.32	126.39
623.47	140.43
623.62	161.50
623.77	119.37
623.92	159.16
624.07	156.82
624.23	131.07
624.38	177.88
624.53	212.99
624.68	147.45
624.83	210.65
624.98	170.86
625.13	212.99
625.29	198.95
625.44	224.69
625.59	175.54
625.74	477.47
625.89	1734.34
626.04	4058.49
626.19	6483.28
626.34	6579.25
626.49	4905.76
626.65	3309.52
626.80	2125.21
626.95	1291.98
627.10	566.41
627.25	447.04
627.40	269.16
627.55	182.56
627.70	131.07
627.85	212.99
628.00	138.09
628.15	107.66
628.30	168.52
628.45	224.69
628.60	91.28
628.76	299.59
628.91	81.92
629.06	133.41
629.21	194.26
629.36	203.63
629.51	205.97
629.66	376.83
629.81	816.85
629.96	1488.58
630.11	1713.27
630.26	1556.46
630.41	1102.39
630.56	725.57
630.71	528.96
630.86	304.27
631.01	241.08
631.16	224.69
631.31	175.54
631.46	166.18
631.61	79.58
631.76	250.44
631.91	133.41
632.06	189.58
632.21	283.20
632.36	304.27
632.51	383.85
632.66	901.11
632.81	2326.49
632.96	3960.19
633.10	4596.81
633.25	3555.27
633.40	2406.07
633.55	1598.59
633.70	1097.71
633.85	592.16
634.00	287.89
634.15	222.35
634.30	168.52
634.45	156.82
634.60	201.29
634.75	187.24
634.90	187.24
635.05	203.63
635.19	110.01
635.34	145.11
635.49	142.77
635.64	215.33
635.79	138.09
635.94	170.86
636.09	187.24
636.24	159.16
636.39	156.82
636.53	135.75
636.68	159.16
636.83	205.97
636.98	269.16
637.13	234.05
637.28	252.78
637.43	720.88
637.57	2497.35
637.72	5217.05
637.87	8053.78
638.02	7878.24
638.17	5776.44
638.32	3929.76
638.46	2551.18
638.61	1519.01
638.76	823.87
638.91	465.77
639.06	416.62
639.20	423.64
639.35	971.32
639.50	3583.36
639.65	7927.39
639.80	12053.76
639.94	11768.21
640.09	8762.97
640.24	5816.23
640.39	3782.31
640.54	2188.40
640.68	1032.18
640.83	589.82
640.98	404.91
641.13	271.50
641.27	203.63
641.42	234.05
641.57	238.73
641.72	208.31
641.86	156.82
642.01	215.33
642.16	194.26
642.31	156.82
642.45	229.37
642.60	140.43
642.75	142.77
642.90	184.90
643.04	133.41
643.19	126.39
643.34	145.11
643.48	128.73
643.63	63.19
643.78	191.92
643.93	126.39
644.07	112.35
644.22	142.77
644.37	135.75
644.51	227.03
644.66	119.37
644.81	168.52
644.95	161.50
645.10	112.35
645.25	124.05
645.39	154.48
645.54	149.79
645.69	222.35
645.83	135.75
645.98	191.92
646.13	191.92
646.27	152.13
646.42	182.56
646.57	149.79
646.71	107.66
646.86	189.58
647.00	173.20
647.15	170.86
647.30	121.71
647.44	107.66
647.59	107.66
647.74	135.75
647.88	163.84
648.03	175.54
648.17	149.79
648.32	93.62
648.47	182.56
648.61	189.58
648.76	126.39
648.90	215.33
649.05	205.97
649.20	124.05
649.34	243.42
649.49	217.67
649.63	217.67
649.78	465.77
649.92	1556.46
650.07	3599.74
650.21	6017.52
650.36	6590.95
650.51	4975.98
650.65	3571.66
650.80	2328.83
650.94	1390.28
651.09	786.42
651.23	402.57
651.38	308.95
651.52	220.01
651.67	173.20
651.81	224.69
651.96	248.10
652.10	163.84
652.25	124.05
652.39	217.67
652.54	517.26
652.68	1270.91
652.83	2010.52
652.97	2506.71
653.12	2026.90
653.26	1397.30
653.41	1020.47
653.55	617.90
653.70	433.00
653.84	194.26
653.99	252.78
654.13	112.35
654.27	100.64
654.42	95.96
654.56	156.82
654.71	168.52
654.85	86.60
655.00	154.48
655.14	105.32
655.29	159.16
655.43	205.97
655.57	138.09
655.72	56.17
655.86	110.01
656.01	201.29
656.15	198.95
656.30	203.63
656.44	168.52
656.58	95.96
656.73	212.99
656.87	163.84
657.01	161.50
657.16	177.88
657.30	86.60
657.45	152.13
657.59	175.54
657.73	77.24
657.88	100.64
658.02	217.67
658.16	175.54
658.31	222.35
658.45	105.32
658.60	60.85
658.74	194.26
658.88	156.82
659.03	248.10
659.17	695.14
659.31	1636.03
659.46	2853.11
659.60	3559.95
659.74	2925.67
659.89	1994.14
660.03	1390.28
660.17	896.43
660.32	519.60
660.46	348.74
660.60	208.31
660.74	222.35
660.89	203.63
661.03	91.28
661.17	156.82
661.32	98.30
661.46	102.98
661.60	128.73
661.74	147.45
661.89	147.45
662.03	241.08
662.17	161.50
662.31	152.13
662.46	203.63
662.60	220.01
662.74	88.94
662.88	180.22
663.03	175.54
663.17	107.66
663.31	147.45
663.45	159.16
663.60	112.35
663.74	133.41
663.88	121.71
664.02	180.22
664.17	196.60
664.31	84.26
664.45	161.50
664.59	107.66
664.73	182.56
664.88	189.58
665.02	168.52
665.16	131.07
665.30	238.73
665.44	184.90
665.59	133.41
665.73	105.32
665.87	156.82
666.01	170.86
666.15	128.73
666.29	180.22
666.44	215.33
666.58	241.08
666.72	184.90
666.86	161.50
667.00	376.83
667.14	1259.21
667.28	3119.93
667.43	5275.57
667.57	6347.53
667.71	4985.34
667.85	3468.67
667.99	2008.18
668.13	1224.10
668.27	751.31
668.41	472.79
668.56	276.18
668.70	353.42
668.84	224.69
668.98	269.16
669.12	203.63
669.26	189.58
669.40	231.71
669.54	227.03
669.68	191.92
669.82	170.86
669.96	159.16
670.10	117.03
670.25	203.63
670.39	152.13
670.53	128.73
670.67	285.55
670.81	203.63
670.95	458.74
671.09	1245.16
671.23	2513.74
671.37	3808.05
671.51	3529.53
671.65	2679.91
671.79	1767.10
671.93	1071.97
672.07	725.57
672.21	418.96
672.35	255.12
672.49	252.78
672.63	266.82
672.77	138.09
672.91	159.16
673.05	203.63
673.19	156.82
673.33	105.32
673.47	234.05
673.61	126.39
673.75	117.03
673.89	182.56
674.03	173.20
674.17	161.50
674.31	168.52
674.45	131.07
674.59	182.56
674.73	117.03
674.87	138.09
675.01	220.01
675.15	271.50
675.29	163.84
675.43	168.52
675.56	194.26
675.70	145.11
675.84	32.77
675.98	166.18
676.12	112.35
676.26	170.86
676.40	126.39
676.54	98.30
676.68	124.05
676.82	133.41
676.96	161.50
677.10	102.98
677.23	135.75
677.37	110.01
677.51	121.71
677.65	138.09
677.79	135.75
677.93	117.03
678.07	156.82
678.21	65.54
678.34	86.60
678.48	102.98
678.62	124.05
678.76	126.39
678.90	142.77
679.04	138.09
679.18	140.43
679.31	117.03
679.45	128.73
679.59	175.54
679.73	156.82
679.87	175.54
680.00	156.82
680.14	49.15
680.28	187.24
680.42	170.86
680.56	154.48
680.70	175.54
680.83	147.45
680.97	196.60
681.11	124.05
681.25	119.37
681.39	145.11
681.52	100.64
681.66	131.07
681.80	152.13
681.94	135.75
682.07	159.16
682.21	210.65
682.35	124.05
682.49	88.94
682.62	182.56
682.76	159.16
682.90	154.48
683.04	184.90
683.17	166.18
683.31	159.16
683.45	191.92
683.59	205.97
683.72	229.37
683.86	112.35
684.00	138.09
684.13	154.48
684.27	170.86
684.41	95.96
684.55	154.48
684.68	124.05
684.82	88.94
684.96	131.07
685.09	124.05
685.23	173.20
685.37	131.07
685.50	163.84
685.64	119.37
685.78	147.45
685.91	121.71
686.05	163.84
686.19	128.73
686.32	133.41
686.46	133.41
686.60	112.35
686.73	257.46
686.87	147.45
687.01	166.18
687.14	149.79
687.28	215.33
687.42	107.66
687.55	140.43
687.69	170.86
687.82	102.98
687.96	142.77
688.10	187.24
688.23	145.11
688.37	124.05
688.50	173.20
688.64	182.56
688.78	154.48
688.91	175.54
689.05	133.41
689.18	58.51
689.32	166.18
689.46	159.16
689.59	201.29
689.73	149.79
689.86	112.35
690.00	126.39
690.13	93.62
690.27	152.13
690.41	154.48
690.54	180.22
690.68	154.48
690.81	124.05
690.95	184.90
691.08	175.54
691.22	191.92
691.35	173.20
691.49	184.90
691.62	163.84
691.76	191.92
691.89	196.60
692.03	142.77
692.16	180.22
692.30	568.75
692.43	1296.66
692.57	2054.99
692.70	2642.46
692.84	2195.42
692.97	1659.44
693.11	1266.23
693.24	978.34
693.38	643.65
693.51	484.49
693.65	404.91
693.78	241.08
693.92	191.92
694.05	166.18
694.19	117.03
694.32	203.63
694.45	149.79
694.59	212.99
694.72	152.13
694.86	133.41
694.99	175.54
695.13	184.90
695.26	119.37
695.39	138.09
695.53	201.29
695.66	117.03
695.80	159.16
695.93	105.32
696.07	259.80
696.20	278.52
696.33	278.52
696.47	266.82
696.60	287.89
696.73	224.69
696.87	227.03
697.00	252.78
697.14	156.82
697.27	159.16
697.40	166.18
697.54	124.05
697.67	159.16
697.80	124.05
697.94	145.11
698.07	135.75
698.21	161.50
698.34	173.20
698.47	140.43
698.61	152.13
698.74	79.58
698.87	112.35
699.01	121.71
699.14	189.58
699.27	138.09
699.40	229.37
699.54	100.64
699.67	170.86
699.80	180.22
699.94	220.01
700.07	110.01
700.20	77.24
700.34	119.37
700.47	128.73
700.60	149.79
700.73	170.86
700.87	177.88
701.00	128.73
701.13	163.84
701.26	86.60
701.40	163.84
701.53	147.45
701.66	138.09
701.79	177.88
701.93	229.37
702.06	290.23
702.19	283.20
702.32	332.36
702.46	327.68
702.59	636.63
702.72	1453.47
702.85	3049.72
702.99	4252.75
703.12	4889.38
703.25	4053.81
703.38	3487.40
703.51	2818.00
703.65	2019.88
703.78	1284.95
703.91	905.79
704.04	674.07
704.17	418.96
704.31	234.05
704.44	212.99
704.57	189.58
704.70	208.31
704.83	107.66
704.96	229.37
705.10	173.20
705.23	194.26
>>>>>End Processed Spectral Data<<<<<
