SpectraSuite Data File
++++++++++++++++++++++++++++++++++++
Date: Fri Oct 04 12:13:26 GMT-05:00 2013
User: price-jones
Dark Spectrum Present: No
Reference Spectrum Present: No
Number of Sampled Component Spectra: 1
Spectrometers: USB2+H05261
Integration Time (usec): 10000 (USB2+H05261)
Spectra Averaged: 1 (USB2+H05261)
Boxcar Smoothing: 0 (USB2+H05261)
Correct for Electrical Dark: No (USB2+H05261)
Strobe/Lamp Enabled: No (USB2+H05261)
Correct for Detector Non-linearity: No (USB2+H05261)
Correct for Stray Light: No (USB2+H05261)
Number of Pixels in Processed Spectrum: 2048
>>>>>Begin Processed Spectral Data<<<<<
365.73	0.00
365.92	0.00
366.12	0.00
366.32	0.00
366.52	0.00
366.72	0.00
366.91	0.00
367.11	0.00
367.31	0.00
367.51	0.00
367.70	0.00
367.90	0.00
368.10	0.00
368.30	0.00
368.49	0.00
368.69	0.00
368.89	0.00
369.09	0.00
369.28	0.00
369.48	0.00
369.68	0.00
369.87	0.00
370.07	0.00
370.27	0.00
370.47	0.00
370.66	0.00
370.86	9.36
371.06	0.00
371.25	0.00
371.45	0.00
371.65	0.00
371.84	0.00
372.04	0.00
372.24	0.00
372.44	0.00
372.63	37.45
372.83	49.15
373.03	0.00
373.22	0.00
373.42	18.72
373.62	0.00
373.81	65.54
374.01	11.70
374.21	16.38
374.40	14.04
374.60	46.81
374.79	53.83
374.99	21.06
375.19	72.56
375.38	67.88
375.58	21.06
375.78	63.19
375.97	35.11
376.17	23.41
376.37	35.11
376.56	7.02
376.76	0.00
376.95	39.79
377.15	21.06
377.35	0.00
377.54	0.00
377.74	30.43
377.93	25.75
378.13	0.00
378.33	0.00
378.52	56.17
378.72	2.34
378.91	86.60
379.11	39.79
379.31	7.02
379.50	79.58
379.70	30.43
379.89	0.00
380.09	0.00
380.28	16.38
380.48	0.00
380.68	18.72
380.87	25.75
381.07	39.79
381.26	0.00
381.46	28.09
381.65	0.00
381.85	0.00
382.04	16.38
382.24	56.17
382.43	35.11
382.63	35.11
382.83	86.60
383.02	0.00
383.22	0.00
383.41	42.13
383.61	0.00
383.80	53.83
384.00	72.56
384.19	37.45
384.39	91.28
384.58	98.30
384.78	32.77
384.97	60.85
385.17	67.88
385.36	58.51
385.56	67.88
385.75	0.00
385.95	53.83
386.14	0.00
386.34	25.75
386.53	0.00
386.72	0.00
386.92	0.00
387.11	0.00
387.31	18.72
387.50	58.51
387.70	18.72
387.89	0.00
388.09	91.28
388.28	0.00
388.48	0.00
388.67	16.38
388.86	95.96
389.06	35.11
389.25	0.00
389.45	16.38
389.64	0.00
389.84	0.00
390.03	53.83
390.22	42.13
390.42	58.51
390.61	7.02
390.81	0.00
391.00	0.00
391.19	0.00
391.39	21.06
391.58	51.49
391.78	0.00
391.97	23.41
392.16	86.60
392.36	39.79
392.55	28.09
392.75	0.00
392.94	0.00
393.13	23.41
393.33	63.19
393.52	4.68
393.71	84.26
393.91	86.60
394.10	0.00
394.29	18.72
394.49	46.81
394.68	86.60
394.88	67.88
395.07	44.47
395.26	0.00
395.46	32.77
395.65	14.04
395.84	30.43
396.04	18.72
396.23	0.00
396.42	14.04
396.62	21.06
396.81	28.09
397.00	16.38
397.19	0.00
397.39	0.00
397.58	30.43
397.77	35.11
397.97	39.79
398.16	0.00
398.35	37.45
398.55	14.04
398.74	30.43
398.93	0.00
399.12	2.34
399.32	63.19
399.51	42.13
399.70	65.54
399.90	4.68
400.09	0.00
400.28	35.11
400.47	0.00
400.67	32.77
400.86	0.00
401.05	44.47
401.24	30.43
401.44	0.00
401.63	16.38
401.82	0.00
402.01	23.41
402.21	0.00
402.40	2.34
402.59	67.88
402.78	9.36
402.97	46.81
403.17	0.00
403.36	21.06
403.55	79.58
403.74	74.90
403.93	28.09
404.13	58.51
404.32	32.77
404.51	51.49
404.70	0.00
404.89	11.70
405.09	16.38
405.28	63.19
405.47	23.41
405.66	49.15
405.85	32.77
406.05	14.04
406.24	58.51
406.43	56.17
406.62	77.24
406.81	32.77
407.00	16.38
407.20	9.36
407.39	58.51
407.58	14.04
407.77	0.00
407.96	49.15
408.15	0.00
408.34	67.88
408.54	14.04
408.73	0.00
408.92	0.00
409.11	2.34
409.30	44.47
409.49	0.00
409.68	77.24
409.87	95.96
410.07	0.00
410.26	49.15
410.45	14.04
410.64	0.00
410.83	0.00
411.02	0.00
411.21	0.00
411.40	51.49
411.59	0.00
411.78	0.00
411.98	9.36
412.17	74.90
412.36	23.41
412.55	35.11
412.74	0.00
412.93	0.00
413.12	46.81
413.31	42.13
413.50	37.45
413.69	77.24
413.88	28.09
414.07	0.00
414.26	0.00
414.45	117.03
414.64	0.00
414.83	0.00
415.02	9.36
415.22	63.19
415.41	11.70
415.60	9.36
415.79	9.36
415.98	39.79
416.17	60.85
416.36	79.58
416.55	0.00
416.74	0.00
416.93	14.04
417.12	63.19
417.31	0.00
417.50	63.19
417.69	42.13
417.88	81.92
418.07	84.26
418.26	39.79
418.45	65.54
418.64	56.17
418.83	25.75
419.02	53.83
419.21	0.00
419.39	63.19
419.58	0.00
419.77	0.00
419.96	77.24
420.15	84.26
420.34	35.11
420.53	86.60
420.72	28.09
420.91	0.00
421.10	53.83
421.29	21.06
421.48	37.45
421.67	0.00
421.86	4.68
422.05	11.70
422.24	0.00
422.43	16.38
422.61	56.17
422.80	44.47
422.99	16.38
423.18	0.00
423.37	0.00
423.56	0.00
423.75	16.38
423.94	0.00
424.13	0.00
424.32	42.13
424.50	91.28
424.69	51.49
424.88	95.96
425.07	53.83
425.26	70.22
425.45	46.81
425.64	53.83
425.83	0.00
426.01	2.34
426.20	9.36
426.39	105.32
426.58	0.00
426.77	35.11
426.96	0.00
427.15	49.15
427.33	77.24
427.52	0.00
427.71	28.09
427.90	81.92
428.09	32.77
428.28	0.00
428.46	4.68
428.65	21.06
428.84	0.00
429.03	35.11
429.22	35.11
429.40	79.58
429.59	0.00
429.78	53.83
429.97	0.00
430.16	58.51
430.34	28.09
430.53	58.51
430.72	0.00
430.91	67.88
431.10	21.06
431.28	65.54
431.47	51.49
431.66	0.00
431.85	58.51
432.03	49.15
432.22	42.13
432.41	53.83
432.60	65.54
432.79	25.75
432.97	72.56
433.16	44.47
433.35	14.04
433.54	0.00
433.72	0.00
433.91	91.28
434.10	0.00
434.28	39.79
434.47	49.15
434.66	32.77
434.85	0.00
435.03	4.68
435.22	14.04
435.41	16.38
435.59	32.77
435.78	0.00
435.97	112.35
436.16	32.77
436.34	74.90
436.53	23.41
436.72	49.15
436.90	65.54
437.09	30.43
437.28	42.13
437.46	0.00
437.65	42.13
437.84	121.71
438.02	0.00
438.21	30.43
438.40	28.09
438.58	35.11
438.77	21.06
438.96	0.00
439.14	32.77
439.33	117.03
439.52	60.85
439.70	42.13
439.89	18.72
440.08	42.13
440.26	0.00
440.45	0.00
440.63	21.06
440.82	0.00
441.01	58.51
441.19	105.32
441.38	77.24
441.57	49.15
441.75	30.43
441.94	9.36
442.12	35.11
442.31	2.34
442.50	28.09
442.68	0.00
442.87	4.68
443.05	49.15
443.24	2.34
443.43	98.30
443.61	67.88
443.80	102.98
443.98	25.75
444.17	60.85
444.35	51.49
444.54	0.00
444.73	37.45
444.91	0.00
445.10	28.09
445.28	42.13
445.47	0.00
445.65	0.00
445.84	11.70
446.02	70.22
446.21	21.06
446.39	49.15
446.58	0.00
446.77	70.22
446.95	65.54
447.14	63.19
447.32	0.00
447.51	44.47
447.69	0.00
447.88	42.13
448.06	4.68
448.25	0.00
448.43	11.70
448.62	42.13
448.80	44.47
448.99	86.60
449.17	51.49
449.36	23.41
449.54	77.24
449.73	65.54
449.91	60.85
450.10	14.04
450.28	95.96
450.46	0.00
450.65	0.00
450.83	32.77
451.02	128.73
451.20	53.83
451.39	70.22
451.57	37.45
451.76	0.00
451.94	37.45
452.13	16.38
452.31	95.96
452.49	30.43
452.68	0.00
452.86	0.00
453.05	21.06
453.23	11.70
453.42	84.26
453.60	0.00
453.78	84.26
453.97	58.51
454.15	67.88
454.34	21.06
454.52	0.00
454.70	72.56
454.89	0.00
455.07	58.51
455.26	42.13
455.44	65.54
455.62	25.75
455.81	9.36
455.99	28.09
456.17	21.06
456.36	49.15
456.54	23.41
456.73	86.60
456.91	37.45
457.09	117.03
457.28	0.00
457.46	28.09
457.64	88.94
457.83	35.11
458.01	44.47
458.19	42.13
458.38	0.00
458.56	0.00
458.74	86.60
458.93	44.47
459.11	14.04
459.29	51.49
459.48	91.28
459.66	25.75
459.84	0.00
460.03	4.68
460.21	119.37
460.39	11.70
460.57	84.26
460.76	53.83
460.94	81.92
461.12	0.00
461.31	70.22
461.49	37.45
461.67	30.43
461.85	21.06
462.04	37.45
462.22	58.51
462.40	58.51
462.59	65.54
462.77	0.00
462.95	65.54
463.13	100.64
463.32	32.77
463.50	0.00
463.68	42.13
463.86	0.00
464.05	21.06
464.23	32.77
464.41	0.00
464.59	23.41
464.78	70.22
464.96	0.00
465.14	95.96
465.32	88.94
465.50	30.43
465.69	23.41
465.87	44.47
466.05	0.00
466.23	0.00
466.41	70.22
466.60	121.71
466.78	0.00
466.96	14.04
467.14	0.00
467.32	32.77
467.51	46.81
467.69	86.60
467.87	0.00
468.05	79.58
468.23	30.43
468.41	0.00
468.60	49.15
468.78	0.00
468.96	39.79
469.14	74.90
469.32	0.00
469.50	0.00
469.69	0.00
469.87	0.00
470.05	53.83
470.23	53.83
470.41	35.11
470.59	56.17
470.77	37.45
470.95	0.00
471.14	0.00
471.32	39.79
471.50	25.75
471.68	105.32
471.86	0.00
472.04	23.41
472.22	74.90
472.40	53.83
472.58	0.00
472.77	37.45
472.95	86.60
473.13	65.54
473.31	25.75
473.49	42.13
473.67	30.43
473.85	49.15
474.03	21.06
474.21	60.85
474.39	53.83
474.57	32.77
474.75	7.02
474.93	0.00
475.12	0.00
475.30	46.81
475.48	84.26
475.66	53.83
475.84	44.47
476.02	58.51
476.20	37.45
476.38	91.28
476.56	0.00
476.74	14.04
476.92	37.45
477.10	28.09
477.28	11.70
477.46	91.28
477.64	53.83
477.82	67.88
478.00	30.43
478.18	110.01
478.36	72.56
478.54	0.00
478.72	4.68
478.90	35.11
479.08	88.94
479.26	51.49
479.44	9.36
479.62	49.15
479.80	0.00
479.98	30.43
480.16	16.38
480.34	14.04
480.52	0.00
480.70	110.01
480.88	46.81
481.06	28.09
481.24	58.51
481.41	23.41
481.59	30.43
481.77	39.79
481.95	4.68
482.13	86.60
482.31	32.77
482.49	49.15
482.67	30.43
482.85	0.00
483.03	0.00
483.21	0.00
483.39	53.83
483.57	93.62
483.74	56.17
483.92	0.00
484.10	84.26
484.28	44.47
484.46	46.81
484.64	79.58
484.82	9.36
485.00	65.54
485.18	32.77
485.35	11.70
485.53	28.09
485.71	49.15
485.89	86.60
486.07	9.36
486.25	21.06
486.43	16.38
486.61	60.85
486.78	0.00
486.96	35.11
487.14	44.47
487.32	32.77
487.50	23.41
487.68	18.72
487.85	65.54
488.03	14.04
488.21	25.75
488.39	0.00
488.57	30.43
488.75	70.22
488.92	56.17
489.10	0.00
489.28	11.70
489.46	21.06
489.64	65.54
489.81	56.17
489.99	0.00
490.17	7.02
490.35	51.49
490.53	0.00
490.70	23.41
490.88	77.24
491.06	44.47
491.24	0.00
491.41	86.60
491.59	51.49
491.77	91.28
491.95	21.06
492.13	72.56
492.30	0.00
492.48	72.56
492.66	60.85
492.84	0.00
493.01	60.85
493.19	42.13
493.37	42.13
493.54	49.15
493.72	0.00
493.90	18.72
494.08	9.36
494.25	100.64
494.43	0.00
494.61	35.11
494.79	0.00
494.96	4.68
495.14	14.04
495.32	93.62
495.49	49.15
495.67	28.09
495.85	14.04
496.02	23.41
496.20	0.00
496.38	23.41
496.55	93.62
496.73	86.60
496.91	56.17
497.09	7.02
497.26	81.92
497.44	46.81
497.62	21.06
497.79	74.90
497.97	49.15
498.14	16.38
498.32	49.15
498.50	56.17
498.67	18.72
498.85	105.32
499.03	16.38
499.20	67.88
499.38	49.15
499.56	58.51
499.73	67.88
499.91	72.56
500.08	28.09
500.26	77.24
500.44	0.00
500.61	77.24
500.79	32.77
500.97	46.81
501.14	16.38
501.32	51.49
501.49	32.77
501.67	42.13
501.84	81.92
502.02	0.00
502.20	35.11
502.37	42.13
502.55	28.09
502.72	2.34
502.90	30.43
503.07	35.11
503.25	37.45
503.43	53.83
503.60	37.45
503.78	58.51
503.95	39.79
504.13	21.06
504.30	72.56
504.48	102.98
504.65	53.83
504.83	0.00
505.01	39.79
505.18	42.13
505.36	65.54
505.53	72.56
505.71	0.00
505.88	35.11
506.06	23.41
506.23	51.49
506.41	44.47
506.58	88.94
506.76	56.17
506.93	35.11
507.11	11.70
507.28	100.64
507.46	74.90
507.63	100.64
507.81	0.00
507.98	7.02
508.16	23.41
508.33	56.17
508.50	18.72
508.68	0.00
508.85	23.41
509.03	7.02
509.20	102.98
509.38	91.28
509.55	84.26
509.73	0.00
509.90	0.00
510.08	79.58
510.25	74.90
510.42	74.90
510.60	30.43
510.77	51.49
510.95	53.83
511.12	0.00
511.30	16.38
511.47	63.19
511.64	79.58
511.82	138.09
511.99	44.47
512.17	0.00
512.34	42.13
512.51	91.28
512.69	25.75
512.86	11.70
513.04	11.70
513.21	37.45
513.38	67.88
513.56	67.88
513.73	0.00
513.90	114.69
514.08	88.94
514.25	4.68
514.43	77.24
514.60	0.00
514.77	32.77
514.95	60.85
515.12	65.54
515.29	11.70
515.47	102.98
515.64	25.75
515.81	67.88
515.99	16.38
516.16	16.38
516.33	95.96
516.51	0.00
516.68	84.26
516.85	32.77
517.03	86.60
517.20	70.22
517.37	23.41
517.54	65.54
517.72	32.77
517.89	0.00
518.06	2.34
518.24	84.26
518.41	74.90
518.58	70.22
518.75	42.13
518.93	37.45
519.10	58.51
519.27	107.66
519.45	46.81
519.62	42.13
519.79	7.02
519.96	53.83
520.14	49.15
520.31	18.72
520.48	0.00
520.65	51.49
520.83	51.49
521.00	4.68
521.17	0.00
521.34	30.43
521.52	46.81
521.69	49.15
521.86	0.00
522.03	56.17
522.20	100.64
522.38	100.64
522.55	21.06
522.72	37.45
522.89	63.19
523.07	16.38
523.24	60.85
523.41	30.43
523.58	93.62
523.75	102.98
523.92	0.00
524.10	95.96
524.27	0.00
524.44	42.13
524.61	42.13
524.78	18.72
524.96	60.85
525.13	0.00
525.30	56.17
525.47	53.83
525.64	142.77
525.81	51.49
525.98	53.83
526.16	30.43
526.33	0.00
526.50	0.00
526.67	93.62
526.84	70.22
527.01	16.38
527.18	0.00
527.36	67.88
527.53	42.13
527.70	21.06
527.87	14.04
528.04	58.51
528.21	44.47
528.38	60.85
528.55	56.17
528.72	70.22
528.89	81.92
529.07	107.66
529.24	63.19
529.41	67.88
529.58	0.00
529.75	60.85
529.92	42.13
530.09	79.58
530.26	0.00
530.43	7.02
530.60	0.00
530.77	0.00
530.94	0.00
531.11	56.17
531.28	70.22
531.46	88.94
531.63	23.41
531.80	65.54
531.97	0.00
532.14	51.49
532.31	11.70
532.48	37.45
532.65	0.00
532.82	67.88
532.99	21.06
533.16	0.00
533.33	42.13
533.50	114.69
533.67	37.45
533.84	63.19
534.01	42.13
534.18	9.36
534.35	37.45
534.52	25.75
534.69	70.22
534.86	28.09
535.03	21.06
535.20	98.30
535.37	0.00
535.54	30.43
535.71	42.13
535.88	74.90
536.05	100.64
536.22	56.17
536.38	21.06
536.55	0.00
536.72	63.19
536.89	39.79
537.06	70.22
537.23	58.51
537.40	56.17
537.57	11.70
537.74	4.68
537.91	18.72
538.08	51.49
538.25	70.22
538.42	42.13
538.59	7.02
538.75	84.26
538.92	98.30
539.09	88.94
539.26	58.51
539.43	77.24
539.60	86.60
539.77	37.45
539.94	58.51
540.11	67.88
540.28	91.28
540.44	51.49
540.61	0.00
540.78	105.32
540.95	0.00
541.12	0.00
541.29	72.56
541.46	46.81
541.62	23.41
541.79	0.00
541.96	58.51
542.13	63.19
542.30	30.43
542.47	28.09
542.63	91.28
542.80	42.13
542.97	28.09
543.14	0.00
543.31	124.05
543.48	74.90
543.64	100.64
543.81	28.09
543.98	93.62
544.15	21.06
544.32	0.00
544.48	11.70
544.65	102.98
544.82	88.94
544.99	63.19
545.16	86.60
545.32	53.83
545.49	49.15
545.66	28.09
545.83	4.68
546.00	37.45
546.16	56.17
546.33	60.85
546.50	42.13
546.67	56.17
546.83	86.60
547.00	91.28
547.17	91.28
547.34	37.45
547.50	105.32
547.67	32.77
547.84	0.00
548.00	4.68
548.17	30.43
548.34	74.90
548.51	28.09
548.67	23.41
548.84	93.62
549.01	51.49
549.18	46.81
549.34	4.68
549.51	0.00
549.68	23.41
549.84	72.56
550.01	0.00
550.18	65.54
550.34	72.56
550.51	11.70
550.68	35.11
550.84	0.00
551.01	7.02
551.18	81.92
551.34	18.72
551.51	23.41
551.68	0.00
551.84	46.81
552.01	58.51
552.18	25.75
552.34	32.77
552.51	0.00
552.68	77.24
552.84	70.22
553.01	42.13
553.18	65.54
553.34	53.83
553.51	4.68
553.67	18.72
553.84	16.38
554.01	0.00
554.17	2.34
554.34	51.49
554.51	53.83
554.67	7.02
554.84	0.00
555.00	0.00
555.17	21.06
555.33	18.72
555.50	49.15
555.67	23.41
555.83	77.24
556.00	7.02
556.16	28.09
556.33	32.77
556.50	81.92
556.66	30.43
556.83	49.15
556.99	25.75
557.16	28.09
557.32	46.81
557.49	14.04
557.65	42.13
557.82	37.45
557.98	30.43
558.15	93.62
558.32	91.28
558.48	79.58
558.65	65.54
558.81	28.09
558.98	56.17
559.14	0.00
559.31	42.13
559.47	72.56
559.64	14.04
559.80	77.24
559.97	67.88
560.13	30.43
560.30	37.45
560.46	0.00
560.63	11.70
560.79	0.00
560.96	0.00
561.12	4.68
561.29	63.19
561.45	35.11
561.61	18.72
561.78	168.52
561.94	28.09
562.11	46.81
562.27	39.79
562.44	46.81
562.60	18.72
562.77	60.85
562.93	70.22
563.10	58.51
563.26	74.90
563.42	21.06
563.59	0.00
563.75	4.68
563.92	39.79
564.08	30.43
564.24	9.36
564.41	28.09
564.57	100.64
564.74	72.56
564.90	7.02
565.07	32.77
565.23	28.09
565.39	2.34
565.56	9.36
565.72	0.00
565.88	21.06
566.05	35.11
566.21	16.38
566.38	0.00
566.54	72.56
566.70	53.83
566.87	16.38
567.03	23.41
567.19	0.00
567.36	25.75
567.52	51.49
567.68	9.36
567.85	84.26
568.01	49.15
568.17	32.77
568.34	51.49
568.50	65.54
568.66	37.45
568.83	0.00
568.99	0.00
569.15	102.98
569.32	91.28
569.48	72.56
569.64	25.75
569.81	60.85
569.97	32.77
570.13	0.00
570.30	16.38
570.46	112.35
570.62	42.13
570.78	46.81
570.95	44.47
571.11	86.60
571.27	0.00
571.43	0.00
571.60	28.09
571.76	30.43
571.92	86.60
572.09	56.17
572.25	11.70
572.41	77.24
572.57	51.49
572.74	35.11
572.90	0.00
573.06	0.00
573.22	74.90
573.38	100.64
573.55	16.38
573.71	119.37
573.87	37.45
574.03	2.34
574.20	0.00
574.36	70.22
574.52	56.17
574.68	60.85
574.84	0.00
575.01	107.66
575.17	65.54
575.33	79.58
575.49	49.15
575.65	4.68
575.82	4.68
575.98	42.13
576.14	67.88
576.30	100.64
576.46	84.26
576.62	49.15
576.79	124.05
576.95	93.62
577.11	72.56
577.27	39.79
577.43	79.58
577.59	42.13
577.75	44.47
577.92	16.38
578.08	23.41
578.24	39.79
578.40	32.77
578.56	28.09
578.72	25.75
578.88	70.22
579.04	44.47
579.21	63.19
579.37	74.90
579.53	21.06
579.69	11.70
579.85	51.49
580.01	16.38
580.17	25.75
580.33	84.26
580.49	91.28
580.65	121.71
580.82	67.88
580.98	0.00
581.14	95.96
581.30	72.56
581.46	0.00
581.62	39.79
581.78	32.77
581.94	81.92
582.10	14.04
582.26	56.17
582.42	53.83
582.58	44.47
582.74	88.94
582.90	70.22
583.06	100.64
583.22	44.47
583.38	74.90
583.54	86.60
583.70	79.58
583.86	126.39
584.02	0.00
584.18	49.15
584.34	37.45
584.50	234.05
584.66	894.08
584.82	2305.43
584.98	2700.98
585.14	2452.88
585.30	1472.20
585.46	964.30
585.62	622.58
585.78	287.89
585.94	182.56
586.10	88.94
586.26	0.00
586.42	39.79
586.58	30.43
586.74	14.04
586.90	93.62
587.06	0.00
587.22	142.77
587.38	51.49
587.54	140.43
587.70	189.58
587.86	285.55
588.02	184.90
588.18	142.77
588.34	142.77
588.49	58.51
588.65	98.30
588.81	16.38
588.97	112.35
589.13	46.81
589.29	67.88
589.45	44.47
589.61	72.56
589.77	0.00
589.93	88.94
590.08	16.38
590.24	0.00
590.40	56.17
590.56	72.56
590.72	53.83
590.88	39.79
591.04	93.62
591.20	70.22
591.35	0.00
591.51	58.51
591.67	14.04
591.83	23.41
591.99	67.88
592.15	67.88
592.31	49.15
592.46	0.00
592.62	2.34
592.78	0.00
592.94	21.06
593.10	0.00
593.26	53.83
593.41	14.04
593.57	72.56
593.73	110.01
593.89	117.03
594.05	271.50
594.20	346.40
594.36	409.59
594.52	201.29
594.68	215.33
594.84	105.32
594.99	63.19
595.15	44.47
595.31	42.13
595.47	2.34
595.62	30.43
595.78	72.56
595.94	2.34
596.10	18.72
596.25	65.54
596.41	35.11
596.57	30.43
596.73	14.04
596.88	30.43
597.04	67.88
597.20	163.84
597.36	110.01
597.51	95.96
597.67	117.03
597.83	110.01
597.99	60.85
598.14	42.13
598.30	98.30
598.46	72.56
598.61	39.79
598.77	28.09
598.93	0.00
599.09	2.34
599.24	7.02
599.40	149.79
599.56	95.96
599.71	23.41
599.87	35.11
600.03	114.69
600.18	23.41
600.34	74.90
600.50	93.62
600.65	67.88
600.81	72.56
600.97	0.00
601.12	56.17
601.28	35.11
601.44	0.00
601.59	65.54
601.75	0.00
601.91	67.88
602.06	70.22
602.22	53.83
602.37	105.32
602.53	60.85
602.69	121.71
602.84	72.56
603.00	60.85
603.16	70.22
603.31	110.01
603.47	60.85
603.62	46.81
603.78	95.96
603.94	49.15
604.09	0.00
604.25	42.13
604.40	0.00
604.56	18.72
604.71	58.51
604.87	14.04
605.03	11.70
605.18	35.11
605.34	0.00
605.49	18.72
605.65	21.06
605.80	65.54
605.96	44.47
606.12	56.17
606.27	44.47
606.43	53.83
606.58	77.24
606.74	23.41
606.89	173.20
607.05	248.10
607.20	327.68
607.36	257.46
607.51	147.45
607.67	142.77
607.82	128.73
607.98	140.43
608.13	44.47
608.29	35.11
608.44	67.88
608.60	39.79
608.75	42.13
608.91	0.00
609.06	273.84
609.22	475.13
609.37	545.34
609.53	435.34
609.68	334.70
609.84	276.18
609.99	81.92
610.15	63.19
610.30	51.49
610.46	53.83
610.61	0.00
610.76	58.51
610.92	81.92
611.07	58.51
611.23	72.56
611.38	4.68
611.54	44.47
611.69	63.19
611.84	46.81
612.00	84.26
612.15	53.83
612.31	65.54
612.46	110.01
612.62	166.18
612.77	35.11
612.92	32.77
613.08	70.22
613.23	91.28
613.39	2.34
613.54	117.03
613.69	236.39
613.85	596.84
614.00	828.55
614.15	798.12
614.31	601.52
614.46	393.21
614.62	292.57
614.77	145.11
614.92	70.22
615.08	124.05
615.23	56.17
615.38	37.45
615.54	65.54
615.69	37.45
615.84	142.77
616.00	194.26
616.15	271.50
616.30	187.24
616.46	88.94
616.61	65.54
616.76	121.71
616.92	0.00
617.07	44.47
617.22	37.45
617.37	81.92
617.53	70.22
617.68	0.00
617.83	0.00
617.99	79.58
618.14	42.13
618.29	4.68
618.45	11.70
618.60	30.43
618.75	49.15
618.90	67.88
619.06	0.00
619.21	0.00
619.36	84.26
619.51	16.38
619.67	53.83
619.82	0.00
619.97	42.13
620.12	25.75
620.28	56.17
620.43	23.41
620.58	11.70
620.73	16.38
620.89	0.00
621.04	98.30
621.19	63.19
621.34	128.73
621.49	117.03
621.65	149.79
621.80	39.79
621.95	53.83
622.10	117.03
622.25	30.43
622.41	105.32
622.56	37.45
622.71	37.45
622.86	37.45
623.01	30.43
623.16	95.96
623.32	81.92
623.47	0.00
623.62	0.00
623.77	25.75
623.92	9.36
624.07	58.51
624.23	0.00
624.38	74.90
624.53	0.00
624.68	0.00
624.83	72.56
624.98	0.00
625.13	25.75
625.29	11.70
625.44	53.83
625.59	112.35
625.74	67.88
625.89	7.02
626.04	154.48
626.19	325.33
626.34	461.09
626.49	491.51
626.65	238.73
626.80	266.82
626.95	154.48
627.10	145.11
627.25	114.69
627.40	0.00
627.55	16.38
627.70	0.00
627.85	0.00
628.00	7.02
628.15	42.13
628.30	0.00
628.45	84.26
628.60	51.49
628.76	0.00
628.91	58.51
629.06	11.70
629.21	51.49
629.36	42.13
629.51	35.11
629.66	32.77
629.81	49.15
629.96	107.66
630.11	168.52
630.26	93.62
630.41	93.62
630.56	110.01
630.71	60.85
630.86	154.48
631.01	37.45
631.16	79.58
631.31	77.24
631.46	119.37
631.61	0.00
631.76	0.00
631.91	98.30
632.06	0.00
632.21	44.47
632.36	77.24
632.51	30.43
632.66	0.00
632.81	58.51
632.96	194.26
633.10	299.59
633.25	327.68
633.40	280.86
633.55	189.58
633.70	175.54
633.85	131.07
634.00	112.35
634.15	63.19
634.30	102.98
634.45	25.75
634.60	9.36
634.75	30.43
634.90	60.85
635.05	49.15
635.19	35.11
635.34	25.75
635.49	60.85
635.64	53.83
635.79	32.77
635.94	28.09
636.09	0.00
636.24	60.85
636.39	23.41
636.53	63.19
636.68	0.00
636.83	32.77
636.98	79.58
637.13	51.49
637.28	63.19
637.43	35.11
637.57	23.41
637.72	112.35
637.87	411.93
638.02	599.18
638.17	543.00
638.32	421.30
638.46	236.39
638.61	187.24
638.76	182.56
638.91	114.69
639.06	46.81
639.20	72.56
639.35	107.66
639.50	72.56
639.65	245.76
639.80	554.71
639.94	887.06
640.09	917.49
640.24	578.11
640.39	430.66
640.54	353.42
640.68	222.35
640.83	177.88
640.98	60.85
641.13	14.04
641.27	95.96
641.42	16.38
641.57	74.90
641.72	77.24
641.86	0.00
642.01	49.15
642.16	32.77
642.31	44.47
642.45	37.45
642.60	56.17
642.75	51.49
642.90	28.09
643.04	11.70
643.19	23.41
643.34	25.75
643.48	35.11
643.63	37.45
643.78	18.72
643.93	0.00
644.07	56.17
644.22	35.11
644.37	56.17
644.51	18.72
644.66	37.45
644.81	44.47
644.95	44.47
645.10	86.60
645.25	42.13
645.39	145.11
645.54	0.00
645.69	18.72
645.83	11.70
645.98	2.34
646.13	86.60
646.27	51.49
646.42	28.09
646.57	0.00
646.71	81.92
646.86	14.04
647.00	0.00
647.15	16.38
647.30	14.04
647.44	56.17
647.59	0.00
647.74	23.41
647.88	25.75
648.03	56.17
648.17	11.70
648.32	39.79
648.47	142.77
648.61	42.13
648.76	2.34
648.90	0.00
649.05	23.41
649.20	14.04
649.34	53.83
649.49	25.75
649.63	2.34
649.78	67.88
649.92	42.13
650.07	79.58
650.21	283.20
650.36	367.46
650.51	449.38
650.65	395.55
650.80	238.73
650.94	248.10
651.09	128.73
651.23	42.13
651.38	23.41
651.52	53.83
651.67	107.66
651.81	74.90
651.96	58.51
652.10	60.85
652.25	2.34
652.39	81.92
652.54	39.79
652.68	32.77
652.83	91.28
652.97	196.60
653.12	135.75
653.26	175.54
653.41	28.09
653.55	133.41
653.70	42.13
653.84	32.77
653.99	58.51
654.13	23.41
654.27	72.56
654.42	37.45
654.56	21.06
654.71	98.30
654.85	84.26
655.00	16.38
655.14	102.98
655.29	0.00
655.43	44.47
655.57	14.04
655.72	77.24
655.86	14.04
656.01	46.81
656.15	32.77
656.30	37.45
656.44	51.49
656.58	98.30
656.73	58.51
656.87	42.13
657.01	35.11
657.16	9.36
657.30	0.00
657.45	77.24
657.59	56.17
657.73	25.75
657.88	63.19
658.02	0.00
658.16	49.15
658.31	14.04
658.45	0.00
658.60	0.00
658.74	124.05
658.88	81.92
659.03	0.00
659.17	100.64
659.31	79.58
659.46	145.11
659.60	161.50
659.74	299.59
659.89	210.65
660.03	196.60
660.17	191.92
660.32	112.35
660.46	58.51
660.60	84.26
660.74	102.98
660.89	0.00
661.03	117.03
661.17	58.51
661.32	14.04
661.46	35.11
661.60	0.00
661.74	58.51
661.89	21.06
662.03	53.83
662.17	0.00
662.31	37.45
662.46	11.70
662.60	28.09
662.74	4.68
662.88	70.22
663.03	28.09
663.17	58.51
663.31	51.49
663.45	53.83
663.60	0.00
663.74	42.13
663.88	0.00
664.02	37.45
664.17	14.04
664.31	46.81
664.45	0.00
664.59	49.15
664.73	65.54
664.88	44.47
665.02	39.79
665.16	18.72
665.30	72.56
665.44	9.36
665.59	9.36
665.73	0.00
665.87	0.00
666.01	60.85
666.15	25.75
666.29	4.68
666.44	53.83
666.58	0.00
666.72	37.45
666.86	0.00
667.00	119.37
667.14	95.96
667.28	65.54
667.43	203.63
667.57	287.89
667.71	454.06
667.85	315.97
667.99	285.55
668.13	184.90
668.27	149.79
668.41	0.00
668.56	18.72
668.70	67.88
668.84	4.68
668.98	44.47
669.12	25.75
669.26	14.04
669.40	0.00
669.54	14.04
669.68	44.47
669.82	35.11
669.96	25.75
670.10	67.88
670.25	0.00
670.39	37.45
670.53	35.11
670.67	67.88
670.81	0.00
670.95	23.41
671.09	42.13
671.23	133.41
671.37	177.88
671.51	308.95
671.65	264.48
671.79	201.29
671.93	133.41
672.07	138.09
672.21	67.88
672.35	58.51
672.49	84.26
672.63	9.36
672.77	37.45
672.91	117.03
673.05	98.30
673.19	0.00
673.33	2.34
673.47	46.81
673.61	30.43
673.75	4.68
673.89	0.00
674.03	58.51
674.17	42.13
674.31	14.04
674.45	37.45
674.59	0.00
674.73	63.19
674.87	42.13
675.01	0.00
675.15	30.43
675.29	67.88
675.43	30.43
675.56	21.06
675.70	51.49
675.84	42.13
675.98	23.41
676.12	0.00
676.26	18.72
676.40	49.15
676.54	51.49
676.68	56.17
676.82	0.00
676.96	0.00
677.10	39.79
677.23	0.00
677.37	11.70
677.51	42.13
677.65	0.00
677.79	0.00
677.93	21.06
678.07	67.88
678.21	77.24
678.34	0.00
678.48	0.00
678.62	14.04
678.76	4.68
678.90	11.70
679.04	0.00
679.18	28.09
679.31	105.32
679.45	0.00
679.59	37.45
679.73	25.75
679.87	63.19
680.00	42.13
680.14	30.43
680.28	0.00
680.42	81.92
680.56	0.00
680.70	46.81
680.83	18.72
680.97	25.75
681.11	0.00
681.25	0.00
681.39	7.02
681.52	0.00
681.66	70.22
681.80	11.70
681.94	70.22
682.07	42.13
682.21	0.00
682.35	107.66
682.49	9.36
682.62	0.00
682.76	67.88
682.90	0.00
683.04	23.41
683.17	49.15
683.31	0.00
683.45	0.00
683.59	0.00
683.72	0.00
683.86	56.17
684.00	44.47
684.13	0.00
684.27	23.41
684.41	72.56
684.55	0.00
684.68	39.79
684.82	23.41
684.96	74.90
685.09	0.00
685.23	46.81
685.37	0.00
685.50	32.77
685.64	0.00
685.78	35.11
685.91	30.43
686.05	0.00
686.19	44.47
686.32	2.34
686.46	0.00
686.60	53.83
686.73	49.15
686.87	0.00
687.01	0.00
687.14	2.34
687.28	51.49
687.42	74.90
687.55	23.41
687.69	60.85
687.82	18.72
687.96	93.62
688.10	32.77
688.23	16.38
688.37	74.90
688.50	16.38
688.64	28.09
688.78	2.34
688.91	98.30
689.05	7.02
689.18	35.11
689.32	51.49
689.46	58.51
689.59	0.00
689.73	0.00
689.86	7.02
690.00	7.02
690.13	9.36
690.27	42.13
690.41	14.04
690.54	25.75
690.68	46.81
690.81	42.13
690.95	25.75
691.08	46.81
691.22	18.72
691.35	18.72
691.49	0.00
691.62	32.77
691.76	42.13
691.89	98.30
692.03	16.38
692.16	60.85
692.30	44.47
692.43	63.19
692.57	126.39
692.70	149.79
692.84	273.84
692.97	196.60
693.11	100.64
693.24	121.71
693.38	60.85
693.51	28.09
693.65	102.98
693.78	23.41
693.92	49.15
694.05	35.11
694.19	70.22
694.32	67.88
694.45	44.47
694.59	11.70
694.72	51.49
694.86	58.51
694.99	112.35
695.13	46.81
695.26	9.36
695.39	21.06
695.53	32.77
695.66	70.22
695.80	79.58
695.93	0.00
696.07	7.02
696.20	32.77
696.33	7.02
696.47	112.35
696.60	4.68
696.73	0.00
696.87	0.00
697.00	70.22
697.14	0.00
697.27	0.00
697.40	7.02
697.54	16.38
697.67	42.13
697.80	67.88
697.94	58.51
698.07	98.30
698.21	16.38
698.34	9.36
698.47	0.00
698.61	18.72
698.74	0.00
698.87	74.90
699.01	0.00
699.14	0.00
699.27	0.00
699.40	81.92
699.54	21.06
699.67	28.09
699.80	25.75
699.94	28.09
700.07	0.00
700.20	0.00
700.34	0.00
700.47	4.68
700.60	58.51
700.73	63.19
700.87	63.19
701.00	74.90
701.13	0.00
701.26	63.19
701.40	0.00
701.53	58.51
701.66	0.00
701.79	37.45
701.93	84.26
702.06	37.45
702.19	58.51
702.32	39.79
702.46	53.83
702.59	23.41
702.72	77.24
702.85	147.45
702.99	304.27
703.12	346.40
703.25	388.53
703.38	280.86
703.51	257.46
703.65	140.43
703.78	140.43
703.91	93.62
704.04	46.81
704.17	70.22
704.31	102.98
704.44	42.13
704.57	0.00
704.70	35.11
704.83	30.43
704.96	56.17
705.10	51.49
705.23	9.36
>>>>>End Processed Spectral Data<<<<<
