SpectraSuite Data File
++++++++++++++++++++++++++++++++++++
Date: Tue Oct 01 18:25:11 GMT-05:00 2013
User: stostad
Dark Spectrum Present: No
Reference Spectrum Present: No
Number of Sampled Component Spectra: 1
Spectrometers: USB2+H05261
Integration Time (usec): 100000 (USB2+H05261)
Spectra Averaged: 1 (USB2+H05261)
Boxcar Smoothing: 0 (USB2+H05261)
Correct for Electrical Dark: No (USB2+H05261)
Strobe/Lamp Enabled: No (USB2+H05261)
Correct for Detector Non-linearity: No (USB2+H05261)
Correct for Stray Light: No (USB2+H05261)
Number of Pixels in Processed Spectrum: 2048
>>>>>Begin Processed Spectral Data<<<<<
365.73	56.17
365.92	56.17
366.12	56.17
366.32	7.02
366.52	0.00
366.72	70.22
366.91	28.09
367.11	0.00
367.31	0.00
367.51	18.72
367.70	21.06
367.90	0.00
368.10	0.00
368.30	21.06
368.49	0.00
368.69	0.00
368.89	0.00
369.09	51.49
369.28	0.00
369.48	0.00
369.68	4.68
369.87	51.49
370.07	4.68
370.27	16.38
370.47	30.43
370.66	128.73
370.86	63.19
371.06	124.05
371.25	152.13
371.45	67.88
371.65	81.92
371.84	102.98
372.04	63.19
372.24	86.60
372.44	168.52
372.63	126.39
372.83	74.90
373.03	105.32
373.22	156.82
373.42	154.48
373.62	175.54
373.81	119.37
374.01	154.48
374.21	145.11
374.40	95.96
374.60	93.62
374.79	163.84
374.99	121.71
375.19	180.22
375.38	161.50
375.58	161.50
375.78	110.01
375.97	119.37
376.17	187.24
376.37	142.77
376.56	205.97
376.76	65.54
376.95	154.48
377.15	222.35
377.35	187.24
377.54	212.99
377.74	173.20
377.93	102.98
378.13	156.82
378.33	135.75
378.52	142.77
378.72	154.48
378.91	152.13
379.11	152.13
379.31	63.19
379.50	105.32
379.70	173.20
379.89	121.71
380.09	159.16
380.28	102.98
380.48	88.94
380.68	100.64
380.87	159.16
381.07	107.66
381.26	236.39
381.46	107.66
381.65	170.86
381.85	170.86
382.04	63.19
382.24	196.60
382.43	63.19
382.63	32.77
382.83	77.24
383.02	145.11
383.22	102.98
383.41	135.75
383.61	121.71
383.80	175.54
384.00	135.75
384.19	60.85
384.39	91.28
384.58	114.69
384.78	117.03
384.97	95.96
385.17	203.63
385.36	177.88
385.56	149.79
385.75	98.30
385.95	177.88
386.14	191.92
386.34	189.58
386.53	173.20
386.72	98.30
386.92	133.41
387.11	152.13
387.31	124.05
387.50	88.94
387.70	93.62
387.89	175.54
388.09	100.64
388.28	58.51
388.48	95.96
388.67	72.56
388.86	107.66
389.06	140.43
389.25	166.18
389.45	196.60
389.64	138.09
389.84	142.77
390.03	128.73
390.22	156.82
390.42	189.58
390.61	65.54
390.81	88.94
391.00	98.30
391.19	248.10
391.39	79.58
391.58	117.03
391.78	107.66
391.97	114.69
392.16	133.41
392.36	149.79
392.55	168.52
392.75	81.92
392.94	152.13
393.13	149.79
393.33	142.77
393.52	154.48
393.71	175.54
393.91	138.09
394.10	149.79
394.29	93.62
394.49	84.26
394.68	133.41
394.88	173.20
395.07	215.33
395.26	105.32
395.46	100.64
395.65	212.99
395.84	112.35
396.04	145.11
396.23	53.83
396.42	95.96
396.62	187.24
396.81	241.08
397.00	131.07
397.19	170.86
397.39	70.22
397.58	163.84
397.77	81.92
397.97	145.11
398.16	86.60
398.35	133.41
398.55	133.41
398.74	121.71
398.93	149.79
399.12	74.90
399.32	102.98
399.51	173.20
399.70	156.82
399.90	205.97
400.09	121.71
400.28	177.88
400.47	140.43
400.67	156.82
400.86	117.03
401.05	126.39
401.24	149.79
401.44	145.11
401.63	114.69
401.82	149.79
402.01	133.41
402.21	105.32
402.40	112.35
402.59	145.11
402.78	86.60
402.97	180.22
403.17	184.90
403.36	198.95
403.55	102.98
403.74	145.11
403.93	177.88
404.13	156.82
404.32	170.86
404.51	145.11
404.70	95.96
404.89	102.98
405.09	91.28
405.28	67.88
405.47	32.77
405.66	152.13
405.85	156.82
406.05	159.16
406.24	142.77
406.43	159.16
406.62	175.54
406.81	159.16
407.00	154.48
407.20	121.71
407.39	149.79
407.58	107.66
407.77	142.77
407.96	93.62
408.15	112.35
408.34	114.69
408.54	175.54
408.73	163.84
408.92	147.45
409.11	145.11
409.30	107.66
409.49	93.62
409.68	154.48
409.87	131.07
410.07	112.35
410.26	81.92
410.45	205.97
410.64	133.41
410.83	133.41
411.02	159.16
411.21	163.84
411.40	100.64
411.59	46.81
411.78	201.29
411.98	114.69
412.17	121.71
412.36	67.88
412.55	25.75
412.74	194.26
412.93	107.66
413.12	135.75
413.31	131.07
413.50	135.75
413.69	105.32
413.88	84.26
414.07	60.85
414.26	102.98
414.45	79.58
414.64	110.01
414.83	114.69
415.02	119.37
415.22	93.62
415.41	142.77
415.60	63.19
415.79	117.03
415.98	173.20
416.17	74.90
416.36	142.77
416.55	84.26
416.74	124.05
416.93	208.31
417.12	117.03
417.31	161.50
417.50	147.45
417.69	159.16
417.88	133.41
418.07	117.03
418.26	159.16
418.45	161.50
418.64	168.52
418.83	166.18
419.02	170.86
419.21	163.84
419.39	100.64
419.58	142.77
419.77	196.60
419.96	133.41
420.15	215.33
420.34	149.79
420.53	184.90
420.72	128.73
420.91	91.28
421.10	147.45
421.29	184.90
421.48	182.56
421.67	149.79
421.86	124.05
422.05	91.28
422.24	102.98
422.43	88.94
422.61	166.18
422.80	107.66
422.99	159.16
423.18	107.66
423.37	234.05
423.56	102.98
423.75	145.11
423.94	105.32
424.13	175.54
424.32	173.20
424.50	196.60
424.69	147.45
424.88	175.54
425.07	117.03
425.26	191.92
425.45	208.31
425.64	224.69
425.83	142.77
426.01	245.76
426.20	163.84
426.39	107.66
426.58	173.20
426.77	107.66
426.96	149.79
427.15	126.39
427.33	63.19
427.52	58.51
427.71	70.22
427.90	124.05
428.09	88.94
428.28	98.30
428.46	140.43
428.65	196.60
428.84	126.39
429.03	112.35
429.22	133.41
429.40	149.79
429.59	154.48
429.78	124.05
429.97	95.96
430.16	95.96
430.34	102.98
430.53	86.60
430.72	121.71
430.91	156.82
431.10	156.82
431.28	156.82
431.47	84.26
431.66	119.37
431.85	163.84
432.03	180.22
432.22	198.95
432.41	145.11
432.60	182.56
432.79	182.56
432.97	208.31
433.16	215.33
433.35	63.19
433.54	159.16
433.72	184.90
433.91	126.39
434.10	191.92
434.28	180.22
434.47	198.95
434.66	201.29
434.85	95.96
435.03	168.52
435.22	212.99
435.41	191.92
435.59	159.16
435.78	117.03
435.97	140.43
436.16	231.71
436.34	112.35
436.53	159.16
436.72	180.22
436.90	110.01
437.09	187.24
437.28	149.79
437.46	142.77
437.65	138.09
437.84	170.86
438.02	142.77
438.21	168.52
438.40	173.20
438.58	135.75
438.77	156.82
438.96	114.69
439.14	91.28
439.33	203.63
439.52	91.28
439.70	98.30
439.89	147.45
440.08	180.22
440.26	180.22
440.45	147.45
440.63	100.64
440.82	102.98
441.01	77.24
441.19	112.35
441.38	166.18
441.57	205.97
441.75	210.65
441.94	220.01
442.12	191.92
442.31	79.58
442.50	156.82
442.68	142.77
442.87	161.50
443.05	131.07
443.24	112.35
443.43	135.75
443.61	187.24
443.80	145.11
443.98	184.90
444.17	102.98
444.35	91.28
444.54	100.64
444.73	124.05
444.91	147.45
445.10	93.62
445.28	156.82
445.47	166.18
445.65	138.09
445.84	142.77
446.02	133.41
446.21	152.13
446.39	238.73
446.58	191.92
446.77	100.64
446.95	159.16
447.14	95.96
447.32	145.11
447.51	166.18
447.69	154.48
447.88	119.37
448.06	252.78
448.25	105.32
448.43	168.52
448.62	140.43
448.80	161.50
448.99	222.35
449.17	131.07
449.36	163.84
449.54	194.26
449.73	100.64
449.91	159.16
450.10	121.71
450.28	133.41
450.46	140.43
450.65	133.41
450.83	70.22
451.02	117.03
451.20	191.92
451.39	126.39
451.57	65.54
451.76	131.07
451.94	142.77
452.13	180.22
452.31	166.18
452.49	112.35
452.68	112.35
452.86	98.30
453.05	189.58
453.23	234.05
453.42	131.07
453.60	138.09
453.78	152.13
453.97	74.90
454.15	119.37
454.34	72.56
454.52	79.58
454.70	110.01
454.89	149.79
455.07	126.39
455.26	170.86
455.44	140.43
455.62	126.39
455.81	105.32
455.99	152.13
456.17	114.69
456.36	198.95
456.54	154.48
456.73	145.11
456.91	147.45
457.09	173.20
457.28	88.94
457.46	100.64
457.64	163.84
457.83	124.05
458.01	133.41
458.19	79.58
458.38	131.07
458.56	168.52
458.74	147.45
458.93	121.71
459.11	107.66
459.29	126.39
459.48	126.39
459.66	173.20
459.84	81.92
460.03	203.63
460.21	184.90
460.39	117.03
460.57	147.45
460.76	142.77
460.94	98.30
461.12	138.09
461.31	180.22
461.49	180.22
461.67	175.54
461.85	135.75
462.04	110.01
462.22	667.05
462.40	175.54
462.59	175.54
462.77	142.77
462.95	198.95
463.13	117.03
463.32	100.64
463.50	210.65
463.68	180.22
463.86	100.64
464.05	145.11
464.23	121.71
464.41	114.69
464.59	110.01
464.78	187.24
464.96	86.60
465.14	156.82
465.32	124.05
465.50	140.43
465.69	166.18
465.87	91.28
466.05	152.13
466.23	98.30
466.41	135.75
466.60	128.73
466.78	86.60
466.96	117.03
467.14	161.50
467.32	126.39
467.51	88.94
467.69	124.05
467.87	142.77
468.05	98.30
468.23	128.73
468.41	175.54
468.60	114.69
468.78	168.52
468.96	117.03
469.14	112.35
469.32	86.60
469.50	107.66
469.69	184.90
469.87	177.88
470.05	100.64
470.23	140.43
470.41	140.43
470.59	79.58
470.77	114.69
470.95	140.43
471.14	238.73
471.32	138.09
471.50	114.69
471.68	135.75
471.86	112.35
472.04	147.45
472.22	203.63
472.40	84.26
472.58	117.03
472.77	128.73
472.95	159.16
473.13	208.31
473.31	161.50
473.49	147.45
473.67	140.43
473.85	100.64
474.03	175.54
474.21	133.41
474.39	201.29
474.57	182.56
474.75	102.98
474.93	142.77
475.12	72.56
475.30	196.60
475.48	117.03
475.66	105.32
475.84	177.88
476.02	205.97
476.20	208.31
476.38	119.37
476.56	234.05
476.74	95.96
476.92	140.43
477.10	191.92
477.28	163.84
477.46	163.84
477.64	119.37
477.82	39.79
478.00	67.88
478.18	126.39
478.36	194.26
478.54	112.35
478.72	131.07
478.90	133.41
479.08	128.73
479.26	121.71
479.44	168.52
479.62	166.18
479.80	124.05
479.98	98.30
480.16	182.56
480.34	175.54
480.52	166.18
480.70	163.84
480.88	140.43
481.06	194.26
481.24	131.07
481.41	210.65
481.59	205.97
481.77	182.56
481.95	100.64
482.13	196.60
482.31	168.52
482.49	119.37
482.67	175.54
482.85	84.26
483.03	173.20
483.21	191.92
483.39	145.11
483.57	65.54
483.74	145.11
483.92	138.09
484.10	102.98
484.28	147.45
484.46	187.24
484.64	128.73
484.82	81.92
485.00	152.13
485.18	220.01
485.35	79.58
485.53	88.94
485.71	208.31
485.89	170.86
486.07	147.45
486.25	142.77
486.43	152.13
486.61	145.11
486.78	208.31
486.96	135.75
487.14	147.45
487.32	126.39
487.50	98.30
487.68	124.05
487.85	149.79
488.03	131.07
488.21	112.35
488.39	196.60
488.57	173.20
488.75	110.01
488.92	215.33
489.10	124.05
489.28	271.50
489.46	128.73
489.64	154.48
489.81	133.41
489.99	56.17
490.17	93.62
490.35	238.73
490.53	81.92
490.70	72.56
490.88	194.26
491.06	177.88
491.24	182.56
491.41	159.16
491.59	142.77
491.77	220.01
491.95	140.43
492.13	110.01
492.30	163.84
492.48	65.54
492.66	4.68
492.84	131.07
493.01	149.79
493.19	119.37
493.37	119.37
493.54	177.88
493.72	98.30
493.90	126.39
494.08	163.84
494.25	149.79
494.43	112.35
494.61	126.39
494.79	140.43
494.96	145.11
495.14	145.11
495.32	154.48
495.49	156.82
495.67	121.71
495.85	9.36
496.02	67.88
496.20	84.26
496.38	100.64
496.55	173.20
496.73	42.13
496.91	145.11
497.09	140.43
497.26	159.16
497.44	126.39
497.62	121.71
497.79	79.58
497.97	119.37
498.14	74.90
498.32	142.77
498.50	84.26
498.67	84.26
498.85	205.97
499.03	107.66
499.20	201.29
499.38	79.58
499.56	166.18
499.73	102.98
499.91	152.13
500.08	196.60
500.26	74.90
500.44	128.73
500.61	140.43
500.79	98.30
500.97	142.77
501.14	187.24
501.32	81.92
501.49	161.50
501.67	159.16
501.84	142.77
502.02	44.47
502.20	208.31
502.37	135.75
502.55	42.13
502.72	156.82
502.90	121.71
503.07	189.58
503.25	140.43
503.43	147.45
503.60	121.71
503.78	173.20
503.95	238.73
504.13	208.31
504.30	215.33
504.48	198.95
504.65	170.86
504.83	156.82
505.01	187.24
505.18	121.71
505.36	128.73
505.53	114.69
505.71	107.66
505.88	159.16
506.06	105.32
506.23	79.58
506.41	135.75
506.58	142.77
506.76	163.84
506.93	91.28
507.11	131.07
507.28	133.41
507.46	95.96
507.63	189.58
507.81	117.03
507.98	149.79
508.16	161.50
508.33	121.71
508.50	170.86
508.68	201.29
508.85	145.11
509.03	84.26
509.20	88.94
509.38	175.54
509.55	177.88
509.73	189.58
509.90	257.46
510.08	138.09
510.25	182.56
510.42	102.98
510.60	133.41
510.77	119.37
510.95	128.73
511.12	93.62
511.30	187.24
511.47	180.22
511.64	203.63
511.82	93.62
511.99	133.41
512.17	170.86
512.34	166.18
512.51	63.19
512.69	149.79
512.86	170.86
513.04	163.84
513.21	173.20
513.38	145.11
513.56	95.96
513.73	74.90
513.90	102.98
514.08	112.35
514.25	128.73
514.43	105.32
514.60	145.11
514.77	95.96
514.95	149.79
515.12	149.79
515.29	142.77
515.47	88.94
515.64	53.83
515.81	81.92
515.99	191.92
516.16	208.31
516.33	198.95
516.51	53.83
516.68	112.35
516.85	163.84
517.03	187.24
517.20	145.11
517.37	152.13
517.54	210.65
517.72	21.06
517.89	138.09
518.06	49.15
518.24	161.50
518.41	194.26
518.58	142.77
518.75	198.95
518.93	128.73
519.10	147.45
519.27	102.98
519.45	138.09
519.62	170.86
519.79	46.81
519.96	131.07
520.14	128.73
520.31	124.05
520.48	100.64
520.65	138.09
520.83	182.56
521.00	168.52
521.17	170.86
521.34	138.09
521.52	175.54
521.69	177.88
521.86	145.11
522.03	196.60
522.20	159.16
522.38	159.16
522.55	124.05
522.72	112.35
522.89	88.94
523.07	161.50
523.24	140.43
523.41	30.43
523.58	119.37
523.75	156.82
523.92	170.86
524.10	128.73
524.27	145.11
524.44	79.58
524.61	182.56
524.78	51.49
524.96	163.84
525.13	208.31
525.30	145.11
525.47	168.52
525.64	175.54
525.81	166.18
525.98	133.41
526.16	65.54
526.33	98.30
526.50	56.17
526.67	91.28
526.84	110.01
527.01	149.79
527.18	159.16
527.36	152.13
527.53	74.90
527.70	147.45
527.87	135.75
528.04	212.99
528.21	163.84
528.38	201.29
528.55	114.69
528.72	189.58
528.89	243.42
529.07	124.05
529.24	177.88
529.41	210.65
529.58	93.62
529.75	145.11
529.92	159.16
530.09	138.09
530.26	159.16
530.43	93.62
530.60	93.62
530.77	107.66
530.94	102.98
531.11	140.43
531.28	145.11
531.46	112.35
531.63	152.13
531.80	149.79
531.97	124.05
532.14	156.82
532.31	145.11
532.48	224.69
532.65	149.79
532.82	224.69
532.99	159.16
533.16	95.96
533.33	128.73
533.50	131.07
533.67	173.20
533.84	234.05
534.01	285.55
534.18	154.48
534.35	138.09
534.52	159.16
534.69	163.84
534.86	196.60
535.03	140.43
535.20	177.88
535.37	124.05
535.54	147.45
535.71	51.49
535.88	135.75
536.05	88.94
536.22	152.13
536.38	112.35
536.55	152.13
536.72	175.54
536.89	133.41
537.06	110.01
537.23	102.98
537.40	177.88
537.57	124.05
537.74	147.45
537.91	131.07
538.08	126.39
538.25	156.82
538.42	100.64
538.59	191.92
538.75	154.48
538.92	138.09
539.09	205.97
539.26	173.20
539.43	346.40
539.60	664.71
539.77	854.30
539.94	695.14
540.11	449.38
540.28	269.16
540.44	163.84
540.61	189.58
540.78	81.92
540.95	93.62
541.12	243.42
541.29	168.52
541.46	173.20
541.62	194.26
541.79	107.66
541.96	63.19
542.13	110.01
542.30	119.37
542.47	140.43
542.63	102.98
542.80	102.98
542.97	140.43
543.14	126.39
543.31	145.11
543.48	201.29
543.64	175.54
543.81	121.71
543.98	187.24
544.15	112.35
544.32	126.39
544.48	175.54
544.65	166.18
544.82	166.18
544.99	166.18
545.16	154.48
545.32	86.60
545.49	145.11
545.66	198.95
545.83	138.09
546.00	163.84
546.16	91.28
546.33	196.60
546.50	112.35
546.67	231.71
546.83	147.45
547.00	117.03
547.17	77.24
547.34	133.41
547.50	168.52
547.67	147.45
547.84	126.39
548.00	117.03
548.17	138.09
548.34	156.82
548.51	191.92
548.67	140.43
548.84	67.88
549.01	131.07
549.18	187.24
549.34	177.88
549.51	175.54
549.68	91.28
549.84	215.33
550.01	81.92
550.18	194.26
550.34	203.63
550.51	229.37
550.68	152.13
550.84	93.62
551.01	187.24
551.18	86.60
551.34	53.83
551.51	112.35
551.68	126.39
551.84	222.35
552.01	170.86
552.18	182.56
552.34	166.18
552.51	79.58
552.68	135.75
552.84	102.98
553.01	133.41
553.18	161.50
553.34	79.58
553.51	126.39
553.67	91.28
553.84	180.22
554.01	119.37
554.17	156.82
554.34	133.41
554.51	177.88
554.67	119.37
554.84	152.13
555.00	208.31
555.17	135.75
555.33	156.82
555.50	140.43
555.67	138.09
555.83	184.90
556.00	198.95
556.16	248.10
556.33	238.73
556.50	121.71
556.66	198.95
556.83	184.90
556.99	102.98
557.16	175.54
557.32	142.77
557.49	100.64
557.65	117.03
557.82	154.48
557.98	149.79
558.15	131.07
558.32	117.03
558.48	166.18
558.65	149.79
558.81	126.39
558.98	100.64
559.14	152.13
559.31	201.29
559.47	180.22
559.64	138.09
559.80	152.13
559.97	91.28
560.13	117.03
560.30	105.32
560.46	170.86
560.63	201.29
560.79	182.56
560.96	163.84
561.12	142.77
561.29	128.73
561.45	161.50
561.61	77.24
561.78	290.23
561.94	170.86
562.11	152.13
562.27	102.98
562.44	112.35
562.60	154.48
562.77	105.32
562.93	250.44
563.10	220.01
563.26	117.03
563.42	166.18
563.59	215.33
563.75	114.69
563.92	205.97
564.08	170.86
564.24	161.50
564.41	201.29
564.57	163.84
564.74	81.92
564.90	131.07
565.07	184.90
565.23	138.09
565.39	173.20
565.56	163.84
565.72	126.39
565.88	159.16
566.05	149.79
566.21	121.71
566.38	152.13
566.54	126.39
566.70	194.26
566.87	159.16
567.03	166.18
567.19	149.79
567.36	198.95
567.52	84.26
567.68	117.03
567.85	248.10
568.01	177.88
568.17	95.96
568.34	102.98
568.50	189.58
568.66	93.62
568.83	234.05
568.99	131.07
569.15	147.45
569.32	133.41
569.48	124.05
569.64	196.60
569.81	145.11
569.97	77.24
570.13	166.18
570.30	187.24
570.46	145.11
570.62	79.58
570.78	152.13
570.95	91.28
571.11	210.65
571.27	196.60
571.43	177.88
571.60	156.82
571.76	170.86
571.92	142.77
572.09	105.32
572.25	110.01
572.41	212.99
572.57	163.84
572.74	159.16
572.90	203.63
573.06	128.73
573.22	177.88
573.38	175.54
573.55	201.29
573.71	201.29
573.87	205.97
574.03	189.58
574.20	194.26
574.36	196.60
574.52	210.65
574.68	187.24
574.84	182.56
575.01	175.54
575.17	147.45
575.33	72.56
575.49	227.03
575.65	163.84
575.82	269.16
575.98	325.33
576.14	454.06
576.30	379.17
576.46	217.67
576.62	241.08
576.79	255.12
576.95	285.55
577.11	168.52
577.27	140.43
577.43	241.08
577.59	264.48
577.75	182.56
577.92	121.71
578.08	145.11
578.24	250.44
578.40	198.95
578.56	203.63
578.72	198.95
578.88	215.33
579.04	220.01
579.21	189.58
579.37	194.26
579.53	203.63
579.69	159.16
579.85	175.54
580.01	191.92
580.17	208.31
580.33	236.39
580.49	210.65
580.65	269.16
580.82	147.45
580.98	147.45
581.14	189.58
581.30	304.27
581.46	308.95
581.62	313.63
581.78	285.55
581.94	259.80
582.10	304.27
582.26	294.91
582.42	243.42
582.58	215.33
582.74	299.59
582.90	231.71
583.06	308.95
583.22	264.48
583.38	243.42
583.54	287.89
583.70	362.78
583.86	442.36
584.02	433.00
584.18	592.16
584.34	1137.50
584.50	7531.84
584.66	26192.94
584.82	45170.00
584.98	47739.91
585.14	29600.76
585.30	15604.35
585.46	7382.05
585.62	3026.31
585.78	1217.08
585.94	709.18
586.10	573.43
586.26	414.27
586.42	407.25
586.58	285.55
586.74	313.63
586.90	292.57
587.06	327.68
587.22	348.74
587.38	346.40
587.54	1416.02
587.70	2822.69
587.86	3726.13
588.02	2686.94
588.18	1650.08
588.34	919.83
588.49	423.64
588.65	374.49
588.81	217.67
588.97	208.31
589.13	142.77
589.29	227.03
589.45	241.08
589.61	198.95
589.77	210.65
589.93	280.86
590.08	308.95
590.24	306.61
590.40	278.52
590.56	262.14
590.72	262.14
590.88	215.33
591.04	234.05
591.20	138.09
591.35	208.31
591.51	248.10
591.67	161.50
591.83	203.63
591.99	222.35
592.15	259.80
592.31	159.16
592.46	131.07
592.62	154.48
592.78	159.16
592.94	168.52
593.10	173.20
593.26	210.65
593.41	177.88
593.57	341.72
593.73	1224.10
593.89	3506.12
594.05	5729.63
594.20	5998.79
594.36	4016.36
594.52	2340.54
594.68	1294.32
594.84	664.71
594.99	456.40
595.15	245.76
595.31	187.24
595.47	250.44
595.62	196.60
595.78	175.54
595.94	105.32
596.10	203.63
596.25	250.44
596.41	252.78
596.57	166.18
596.73	259.80
596.88	683.44
597.04	1224.10
597.20	1481.56
597.36	1205.38
597.51	777.06
597.67	608.54
597.83	306.61
597.99	205.97
598.14	149.79
598.30	182.56
598.46	191.92
598.61	215.33
598.77	266.82
598.93	177.88
599.09	180.22
599.24	161.50
599.40	210.65
599.56	182.56
599.71	177.88
599.87	133.41
600.03	117.03
600.18	212.99
600.34	152.13
600.50	117.03
600.65	173.20
600.81	182.56
600.97	133.41
601.12	121.71
601.28	156.82
601.44	156.82
601.59	124.05
601.75	124.05
601.91	168.52
602.06	147.45
602.22	414.27
602.37	844.93
602.53	1537.73
602.69	1582.20
602.84	1111.75
603.00	786.42
603.16	496.19
603.31	360.44
603.47	273.84
603.62	142.77
603.78	159.16
603.94	241.08
604.09	135.75
604.25	208.31
604.40	222.35
604.56	238.73
604.71	117.03
604.87	163.84
605.03	166.18
605.18	156.82
605.34	205.97
605.49	166.18
605.65	152.13
605.80	166.18
605.96	194.26
606.12	159.16
606.27	161.50
606.43	259.80
606.58	526.62
606.74	1863.07
606.89	3588.04
607.05	4868.31
607.20	4002.32
607.36	2644.81
607.51	1612.63
607.67	957.28
607.82	505.56
607.98	383.85
608.13	252.78
608.29	217.67
608.44	362.78
608.60	227.03
608.75	784.08
608.91	2935.03
609.06	6167.31
609.22	8383.80
609.37	6874.15
609.53	4786.40
609.68	3030.99
609.84	1732.00
609.99	866.00
610.15	505.56
610.30	299.59
610.46	306.61
610.61	145.11
610.76	198.95
610.92	168.52
611.07	222.35
611.23	259.80
611.38	252.78
611.54	177.88
611.69	198.95
611.84	170.86
612.00	222.35
612.15	299.59
612.31	367.46
612.46	383.85
612.62	287.89
612.77	353.42
612.92	271.50
613.08	287.89
613.23	290.23
613.39	634.29
613.54	3030.99
613.69	7955.48
613.85	12753.58
614.00	12664.64
614.15	9235.75
614.31	5830.27
614.46	3684.00
614.62	1856.04
614.77	940.90
614.92	491.51
615.08	348.74
615.23	299.59
615.38	297.25
615.54	676.41
615.69	1668.80
615.84	2801.62
616.00	3548.25
616.15	2698.64
616.30	1879.45
616.46	1238.14
616.61	702.16
616.76	472.79
616.92	313.63
617.07	229.37
617.22	203.63
617.37	161.50
617.53	203.63
617.68	255.12
617.83	231.71
617.99	227.03
618.14	194.26
618.29	156.82
618.45	187.24
618.60	177.88
618.75	159.16
618.90	84.26
619.06	159.16
619.21	210.65
619.36	203.63
619.51	194.26
619.67	145.11
619.82	152.13
619.97	77.24
620.12	187.24
620.28	236.39
620.43	220.01
620.58	184.90
620.73	175.54
620.89	407.25
621.04	990.05
621.19	1724.97
621.34	2090.10
621.49	1701.57
621.65	1200.69
621.80	816.85
621.95	585.13
622.10	404.91
622.25	255.12
622.41	170.86
622.56	191.92
622.71	241.08
622.86	217.67
623.01	149.79
623.16	182.56
623.32	173.20
623.47	135.75
623.62	142.77
623.77	170.86
623.92	191.92
624.07	161.50
624.23	173.20
624.38	159.16
624.53	194.26
624.68	191.92
624.83	215.33
624.98	205.97
625.13	189.58
625.29	168.52
625.44	210.65
625.59	245.76
625.74	449.38
625.89	1724.97
626.04	4170.83
626.19	6436.47
626.34	6675.21
626.49	4844.91
626.65	3258.03
626.80	2078.40
626.95	1268.57
627.10	648.33
627.25	315.97
627.40	262.14
627.55	257.46
627.70	198.95
627.85	159.16
628.00	161.50
628.15	168.52
628.30	107.66
628.45	88.94
628.60	121.71
628.76	161.50
628.91	81.92
629.06	138.09
629.21	177.88
629.36	170.86
629.51	184.90
629.66	374.49
629.81	931.53
629.96	1481.56
630.11	1687.53
630.26	1516.67
630.41	1071.97
630.56	751.31
630.71	578.11
630.86	339.38
631.01	217.67
631.16	222.35
631.31	238.73
631.46	229.37
631.61	159.16
631.76	201.29
631.91	196.60
632.06	262.14
632.21	259.80
632.36	264.48
632.51	294.91
632.66	990.05
632.81	2359.26
632.96	3878.27
633.10	4397.87
633.25	3492.08
633.40	2527.78
633.55	1657.10
633.70	1071.97
633.85	608.54
634.00	311.29
634.15	259.80
634.30	189.58
634.45	184.90
634.60	173.20
634.75	198.95
634.90	266.82
635.05	224.69
635.19	201.29
635.34	212.99
635.49	222.35
635.64	131.07
635.79	187.24
635.94	184.90
636.09	168.52
636.24	159.16
636.39	170.86
636.53	210.65
636.68	131.07
636.83	156.82
636.98	257.46
637.13	241.08
637.28	180.22
637.43	674.07
637.57	2438.84
637.72	5504.94
637.87	8114.64
638.02	7885.26
638.17	5783.46
638.32	3969.55
638.46	2614.38
638.61	1500.28
638.76	770.04
638.91	365.12
639.06	344.06
639.20	362.78
639.35	973.66
639.50	3836.14
639.65	8046.76
639.80	12196.53
639.94	11873.54
640.09	8903.40
640.24	5825.59
640.39	3843.16
640.54	2155.63
640.68	1125.80
640.83	608.54
640.98	418.96
641.13	252.78
641.27	304.27
641.42	205.97
641.57	271.50
641.72	217.67
641.86	147.45
642.01	159.16
642.16	196.60
642.31	184.90
642.45	332.36
642.60	131.07
642.75	58.51
642.90	194.26
643.04	175.54
643.19	112.35
643.34	163.84
643.48	145.11
643.63	138.09
643.78	220.01
643.93	224.69
644.07	154.48
644.22	182.56
644.37	163.84
644.51	224.69
644.66	234.05
644.81	128.73
644.95	145.11
645.10	98.30
645.25	114.69
645.39	182.56
645.54	170.86
645.69	222.35
645.83	138.09
645.98	198.95
646.13	149.79
646.27	159.16
646.42	133.41
646.57	105.32
646.71	168.52
646.86	220.01
647.00	126.39
647.15	168.52
647.30	205.97
647.44	161.50
647.59	110.01
647.74	187.24
647.88	131.07
648.03	196.60
648.17	187.24
648.32	140.43
648.47	201.29
648.61	168.52
648.76	102.98
648.90	184.90
649.05	170.86
649.20	224.69
649.34	170.86
649.49	252.78
649.63	203.63
649.78	379.17
649.92	1497.94
650.07	3733.15
650.21	5830.27
650.36	6551.16
650.51	5184.29
650.65	3616.13
650.80	2333.51
650.94	1310.70
651.09	777.06
651.23	468.11
651.38	276.18
651.52	304.27
651.67	198.95
651.81	177.88
651.96	175.54
652.10	222.35
652.25	149.79
652.39	203.63
652.54	550.03
652.68	1228.78
652.83	2001.16
652.97	2548.84
653.12	2097.12
653.26	1441.77
653.41	978.34
653.55	629.60
653.70	372.15
653.84	271.50
653.99	147.45
654.13	173.20
654.27	210.65
654.42	222.35
654.56	180.22
654.71	170.86
654.85	203.63
655.00	220.01
655.14	91.28
655.29	180.22
655.43	154.48
655.57	198.95
655.72	135.75
655.86	154.48
656.01	229.37
656.15	117.03
656.30	177.88
656.44	91.28
656.58	126.39
656.73	67.88
656.87	133.41
657.01	149.79
657.16	138.09
657.30	203.63
657.45	156.82
657.59	156.82
657.73	163.84
657.88	147.45
658.02	196.60
658.16	187.24
658.31	166.18
658.45	126.39
658.60	93.62
658.74	117.03
658.88	126.39
659.03	266.82
659.17	711.52
659.31	1680.50
659.46	3023.97
659.60	3604.42
659.74	2913.97
659.89	2111.16
660.03	1345.81
660.17	858.98
660.32	521.94
660.46	311.29
660.60	215.33
660.74	166.18
660.89	161.50
661.03	138.09
661.17	182.56
661.32	170.86
661.46	156.82
661.60	138.09
661.74	250.44
661.89	266.82
662.03	212.99
662.17	170.86
662.31	72.56
662.46	161.50
662.60	156.82
662.74	105.32
662.88	128.73
663.03	128.73
663.17	149.79
663.31	159.16
663.45	163.84
663.60	110.01
663.74	117.03
663.88	173.20
664.02	215.33
664.17	124.05
664.31	84.26
664.45	154.48
664.59	177.88
664.73	147.45
664.88	201.29
665.02	58.51
665.16	124.05
665.30	217.67
665.44	156.82
665.59	203.63
665.73	147.45
665.87	140.43
666.01	117.03
666.15	224.69
666.29	166.18
666.44	189.58
666.58	208.31
666.72	217.67
666.86	229.37
667.00	435.34
667.14	1217.08
667.28	3002.91
667.43	5226.42
667.57	6047.94
667.71	4994.70
667.85	3468.67
667.99	2057.33
668.13	1191.33
668.27	793.44
668.41	493.85
668.56	372.15
668.70	393.21
668.84	166.18
668.98	238.73
669.12	152.13
669.26	105.32
669.40	140.43
669.54	156.82
669.68	196.60
669.82	110.01
669.96	142.77
670.10	187.24
670.25	173.20
670.39	236.39
670.53	163.84
670.67	107.66
670.81	140.43
670.95	440.02
671.09	1219.42
671.23	2464.58
671.37	3597.40
671.51	3492.08
671.65	2768.85
671.79	1720.29
671.93	1001.75
672.07	723.23
672.21	470.45
672.35	327.68
672.49	175.54
672.63	231.71
672.77	177.88
672.91	100.64
673.05	95.96
673.19	142.77
673.33	107.66
673.47	220.01
673.61	212.99
673.75	154.48
673.89	149.79
674.03	208.31
674.17	102.98
674.31	168.52
674.45	145.11
674.59	133.41
674.73	196.60
674.87	191.92
675.01	220.01
675.15	163.84
675.29	156.82
675.43	182.56
675.56	191.92
675.70	224.69
675.84	182.56
675.98	196.60
676.12	112.35
676.26	102.98
676.40	177.88
676.54	161.50
676.68	191.92
676.82	168.52
676.96	112.35
677.10	133.41
677.23	65.54
677.37	159.16
677.51	147.45
677.65	245.76
677.79	86.60
677.93	133.41
678.07	72.56
678.21	114.69
678.34	126.39
678.48	189.58
678.62	91.28
678.76	95.96
678.90	210.65
679.04	177.88
679.18	152.13
679.31	133.41
679.45	126.39
679.59	126.39
679.73	67.88
679.87	100.64
680.00	135.75
680.14	98.30
680.28	98.30
680.42	163.84
680.56	128.73
680.70	135.75
680.83	161.50
680.97	93.62
681.11	112.35
681.25	81.92
681.39	65.54
681.52	156.82
681.66	152.13
681.80	198.95
681.94	100.64
682.07	166.18
682.21	145.11
682.35	156.82
682.49	173.20
682.62	187.24
682.76	135.75
682.90	145.11
683.04	168.52
683.17	147.45
683.31	222.35
683.45	124.05
683.59	175.54
683.72	142.77
683.86	163.84
684.00	58.51
684.13	119.37
684.27	91.28
684.41	201.29
684.55	114.69
684.68	189.58
684.82	135.75
684.96	135.75
685.09	170.86
685.23	95.96
685.37	105.32
685.50	163.84
685.64	168.52
685.78	145.11
685.91	117.03
686.05	152.13
686.19	117.03
686.32	126.39
686.46	191.92
686.60	184.90
686.73	283.20
686.87	201.29
687.01	210.65
687.14	135.75
687.28	191.92
687.42	182.56
687.55	189.58
687.69	245.76
687.82	77.24
687.96	145.11
688.10	201.29
688.23	147.45
688.37	163.84
688.50	131.07
688.64	217.67
688.78	173.20
688.91	149.79
689.05	138.09
689.18	177.88
689.32	196.60
689.46	147.45
689.59	154.48
689.73	145.11
689.86	231.71
690.00	142.77
690.13	95.96
690.27	140.43
690.41	180.22
690.54	121.71
690.68	159.16
690.81	147.45
690.95	170.86
691.08	217.67
691.22	163.84
691.35	184.90
691.49	102.98
691.62	147.45
691.76	170.86
691.89	159.16
692.03	152.13
692.16	128.73
692.30	552.37
692.43	1284.95
692.57	2031.58
692.70	2628.42
692.84	2249.25
692.97	1734.34
693.11	1348.15
693.24	950.26
693.38	664.71
693.51	468.11
693.65	351.08
693.78	198.95
693.92	248.10
694.05	161.50
694.19	100.64
694.32	175.54
694.45	217.67
694.59	93.62
694.72	168.52
694.86	182.56
694.99	205.97
695.13	147.45
695.26	124.05
695.39	187.24
695.53	203.63
695.66	224.69
695.80	182.56
695.93	196.60
696.07	243.42
696.20	383.85
696.33	397.89
696.47	355.76
696.60	276.18
696.73	248.10
696.87	163.84
697.00	140.43
697.14	205.97
697.27	107.66
697.40	177.88
697.54	196.60
697.67	212.99
697.80	170.86
697.94	149.79
698.07	170.86
698.21	88.94
698.34	208.31
698.47	175.54
698.61	133.41
698.74	138.09
698.87	140.43
699.01	180.22
699.14	79.58
699.27	196.60
699.40	259.80
699.54	184.90
699.67	194.26
699.80	100.64
699.94	142.77
700.07	91.28
700.20	161.50
700.34	198.95
700.47	154.48
700.60	56.17
700.73	105.32
700.87	231.71
701.00	180.22
701.13	124.05
701.26	187.24
701.40	208.31
701.53	147.45
701.66	119.37
701.79	154.48
701.93	262.14
702.06	292.57
702.19	290.23
702.32	315.97
702.46	353.42
702.59	608.54
702.72	1526.03
702.85	2979.50
702.99	4264.46
703.12	4903.42
703.25	4105.30
703.38	3471.01
703.51	2862.48
703.65	1984.77
703.78	1359.85
703.91	933.87
704.04	580.45
704.17	393.21
704.31	248.10
704.44	224.69
704.57	161.50
704.70	166.18
704.83	145.11
704.96	142.77
705.10	187.24
705.23	163.84
>>>>>End Processed Spectral Data<<<<<
