SpectraSuite Data File
++++++++++++++++++++++++++++++++++++
Date: Fri Oct 04 12:13:36 GMT-05:00 2013
User: price-jones
Dark Spectrum Present: No
Reference Spectrum Present: No
Number of Sampled Component Spectra: 1
Spectrometers: USB2+H05261
Integration Time (usec): 10000 (USB2+H05261)
Spectra Averaged: 1 (USB2+H05261)
Boxcar Smoothing: 0 (USB2+H05261)
Correct for Electrical Dark: No (USB2+H05261)
Strobe/Lamp Enabled: No (USB2+H05261)
Correct for Detector Non-linearity: No (USB2+H05261)
Correct for Stray Light: No (USB2+H05261)
Number of Pixels in Processed Spectrum: 2048
>>>>>Begin Processed Spectral Data<<<<<
365.73	56.17
365.92	56.17
366.12	56.17
366.32	0.00
366.52	0.00
366.72	0.00
366.91	0.00
367.11	0.00
367.31	0.00
367.51	0.00
367.70	0.00
367.90	0.00
368.10	0.00
368.30	0.00
368.49	0.00
368.69	0.00
368.89	0.00
369.09	0.00
369.28	0.00
369.48	0.00
369.68	0.00
369.87	0.00
370.07	0.00
370.27	0.00
370.47	0.00
370.66	0.00
370.86	0.00
371.06	0.00
371.25	0.00
371.45	0.00
371.65	21.06
371.84	0.00
372.04	0.00
372.24	4.68
372.44	0.00
372.63	0.00
372.83	63.19
373.03	0.00
373.22	65.54
373.42	60.85
373.62	58.51
373.81	60.85
374.01	63.19
374.21	30.43
374.40	53.83
374.60	18.72
374.79	28.09
374.99	58.51
375.19	77.24
375.38	88.94
375.58	9.36
375.78	0.00
375.97	117.03
376.17	42.13
376.37	51.49
376.56	0.00
376.76	23.41
376.95	63.19
377.15	42.13
377.35	0.00
377.54	100.64
377.74	4.68
377.93	39.79
378.13	2.34
378.33	60.85
378.52	0.00
378.72	7.02
378.91	0.00
379.11	30.43
379.31	39.79
379.50	0.00
379.70	0.00
379.89	28.09
380.09	14.04
380.28	16.38
380.48	35.11
380.68	39.79
380.87	0.00
381.07	0.00
381.26	11.70
381.46	23.41
381.65	9.36
381.85	0.00
382.04	46.81
382.24	16.38
382.43	56.17
382.63	28.09
382.83	0.00
383.02	42.13
383.22	0.00
383.41	0.00
383.61	42.13
383.80	0.00
384.00	30.43
384.19	44.47
384.39	65.54
384.58	0.00
384.78	102.98
384.97	72.56
385.17	0.00
385.36	14.04
385.56	46.81
385.75	0.00
385.95	49.15
386.14	28.09
386.34	30.43
386.53	86.60
386.72	11.70
386.92	0.00
387.11	63.19
387.31	23.41
387.50	32.77
387.70	0.00
387.89	0.00
388.09	9.36
388.28	21.06
388.48	25.75
388.67	0.00
388.86	25.75
389.06	72.56
389.25	53.83
389.45	79.58
389.64	23.41
389.84	74.90
390.03	0.00
390.22	0.00
390.42	44.47
390.61	18.72
390.81	0.00
391.00	0.00
391.19	2.34
391.39	0.00
391.58	67.88
391.78	2.34
391.97	7.02
392.16	23.41
392.36	37.45
392.55	44.47
392.75	28.09
392.94	56.17
393.13	16.38
393.33	0.00
393.52	21.06
393.71	56.17
393.91	0.00
394.10	32.77
394.29	32.77
394.49	0.00
394.68	0.00
394.88	0.00
395.07	84.26
395.26	9.36
395.46	21.06
395.65	37.45
395.84	0.00
396.04	46.81
396.23	0.00
396.42	88.94
396.62	77.24
396.81	14.04
397.00	14.04
397.19	56.17
397.39	0.00
397.58	39.79
397.77	67.88
397.97	32.77
398.16	46.81
398.35	112.35
398.55	84.26
398.74	79.58
398.93	37.45
399.12	9.36
399.32	39.79
399.51	56.17
399.70	11.70
399.90	58.51
400.09	70.22
400.28	65.54
400.47	53.83
400.67	30.43
400.86	58.51
401.05	56.17
401.24	63.19
401.44	77.24
401.63	63.19
401.82	58.51
402.01	7.02
402.21	46.81
402.40	0.00
402.59	0.00
402.78	156.82
402.97	0.00
403.17	0.00
403.36	72.56
403.55	0.00
403.74	0.00
403.93	0.00
404.13	23.41
404.32	0.00
404.51	114.69
404.70	46.81
404.89	88.94
405.09	81.92
405.28	91.28
405.47	32.77
405.66	72.56
405.85	51.49
406.05	46.81
406.24	2.34
406.43	49.15
406.62	9.36
406.81	4.68
407.00	28.09
407.20	14.04
407.39	0.00
407.58	0.00
407.77	107.66
407.96	110.01
408.15	114.69
408.34	44.47
408.54	0.00
408.73	63.19
408.92	65.54
409.11	37.45
409.30	39.79
409.49	14.04
409.68	77.24
409.87	72.56
410.07	86.60
410.26	58.51
410.45	0.00
410.64	74.90
410.83	88.94
411.02	0.00
411.21	28.09
411.40	74.90
411.59	42.13
411.78	100.64
411.98	16.38
412.17	49.15
412.36	32.77
412.55	7.02
412.74	23.41
412.93	0.00
413.12	79.58
413.31	51.49
413.50	126.39
413.69	32.77
413.88	0.00
414.07	0.00
414.26	58.51
414.45	39.79
414.64	58.51
414.83	30.43
415.02	91.28
415.22	84.26
415.41	28.09
415.60	49.15
415.79	0.00
415.98	105.32
416.17	128.73
416.36	84.26
416.55	46.81
416.74	37.45
416.93	28.09
417.12	30.43
417.31	30.43
417.50	107.66
417.69	117.03
417.88	88.94
418.07	70.22
418.26	56.17
418.45	84.26
418.64	74.90
418.83	39.79
419.02	63.19
419.21	49.15
419.39	0.00
419.58	30.43
419.77	72.56
419.96	79.58
420.15	0.00
420.34	25.75
420.53	51.49
420.72	44.47
420.91	93.62
421.10	14.04
421.29	21.06
421.48	28.09
421.67	65.54
421.86	2.34
422.05	0.00
422.24	39.79
422.43	35.11
422.61	67.88
422.80	60.85
422.99	46.81
423.18	25.75
423.37	35.11
423.56	23.41
423.75	67.88
423.94	23.41
424.13	4.68
424.32	25.75
424.50	86.60
424.69	49.15
424.88	84.26
425.07	56.17
425.26	98.30
425.45	60.85
425.64	44.47
425.83	100.64
426.01	0.00
426.20	56.17
426.39	72.56
426.58	46.81
426.77	42.13
426.96	21.06
427.15	0.00
427.33	60.85
427.52	0.00
427.71	7.02
427.90	25.75
428.09	30.43
428.28	145.11
428.46	30.43
428.65	0.00
428.84	93.62
429.03	18.72
429.22	25.75
429.40	39.79
429.59	16.38
429.78	44.47
429.97	37.45
430.16	0.00
430.34	11.70
430.53	23.41
430.72	35.11
430.91	86.60
431.10	14.04
431.28	56.17
431.47	91.28
431.66	117.03
431.85	58.51
432.03	16.38
432.22	11.70
432.41	0.00
432.60	67.88
432.79	0.00
432.97	0.00
433.16	60.85
433.35	79.58
433.54	14.04
433.72	0.00
433.91	98.30
434.10	65.54
434.28	79.58
434.47	39.79
434.66	23.41
434.85	46.81
435.03	70.22
435.22	32.77
435.41	25.75
435.59	2.34
435.78	32.77
435.97	93.62
436.16	51.49
436.34	95.96
436.53	88.94
436.72	107.66
436.90	102.98
437.09	28.09
437.28	67.88
437.46	18.72
437.65	93.62
437.84	53.83
438.02	28.09
438.21	4.68
438.40	56.17
438.58	16.38
438.77	119.37
438.96	51.49
439.14	37.45
439.33	21.06
439.52	0.00
439.70	65.54
439.89	32.77
440.08	30.43
440.26	23.41
440.45	30.43
440.63	46.81
440.82	0.00
441.01	0.00
441.19	30.43
441.38	46.81
441.57	16.38
441.75	147.45
441.94	65.54
442.12	23.41
442.31	0.00
442.50	0.00
442.68	0.00
442.87	0.00
443.05	53.83
443.24	77.24
443.43	93.62
443.61	30.43
443.80	53.83
443.98	79.58
444.17	49.15
444.35	18.72
444.54	58.51
444.73	0.00
444.91	100.64
445.10	46.81
445.28	30.43
445.47	9.36
445.65	67.88
445.84	46.81
446.02	0.00
446.21	86.60
446.39	42.13
446.58	121.71
446.77	88.94
446.95	88.94
447.14	67.88
447.32	23.41
447.51	112.35
447.69	25.75
447.88	46.81
448.06	0.00
448.25	58.51
448.43	32.77
448.62	77.24
448.80	67.88
448.99	88.94
449.17	51.49
449.36	32.77
449.54	53.83
449.73	0.00
449.91	14.04
450.10	58.51
450.28	21.06
450.46	0.00
450.65	16.38
450.83	58.51
451.02	49.15
451.20	0.00
451.39	30.43
451.57	2.34
451.76	32.77
451.94	14.04
452.13	70.22
452.31	0.00
452.49	51.49
452.68	88.94
452.86	16.38
453.05	79.58
453.23	0.00
453.42	86.60
453.60	81.92
453.78	65.54
453.97	23.41
454.15	93.62
454.34	0.00
454.52	56.17
454.70	70.22
454.89	126.39
455.07	0.00
455.26	86.60
455.44	72.56
455.62	46.81
455.81	72.56
455.99	114.69
456.17	39.79
456.36	58.51
456.54	18.72
456.73	74.90
456.91	67.88
457.09	0.00
457.28	74.90
457.46	42.13
457.64	37.45
457.83	60.85
458.01	95.96
458.19	126.39
458.38	95.96
458.56	70.22
458.74	58.51
458.93	49.15
459.11	67.88
459.29	105.32
459.48	42.13
459.66	131.07
459.84	86.60
460.03	37.45
460.21	65.54
460.39	70.22
460.57	39.79
460.76	44.47
460.94	0.00
461.12	81.92
461.31	42.13
461.49	63.19
461.67	63.19
461.85	0.00
462.04	112.35
462.22	121.71
462.40	49.15
462.59	58.51
462.77	56.17
462.95	53.83
463.13	84.26
463.32	14.04
463.50	112.35
463.68	9.36
463.86	32.77
464.05	37.45
464.23	51.49
464.41	32.77
464.59	51.49
464.78	37.45
464.96	86.60
465.14	0.00
465.32	4.68
465.50	65.54
465.69	65.54
465.87	42.13
466.05	110.01
466.23	67.88
466.41	30.43
466.60	67.88
466.78	95.96
466.96	77.24
467.14	88.94
467.32	0.00
467.51	46.81
467.69	35.11
467.87	51.49
468.05	70.22
468.23	39.79
468.41	2.34
468.60	98.30
468.78	21.06
468.96	0.00
469.14	44.47
469.32	58.51
469.50	53.83
469.69	53.83
469.87	67.88
470.05	0.00
470.23	7.02
470.41	9.36
470.59	32.77
470.77	42.13
470.95	23.41
471.14	37.45
471.32	23.41
471.50	110.01
471.68	46.81
471.86	2.34
472.04	79.58
472.22	98.30
472.40	60.85
472.58	49.15
472.77	100.64
472.95	86.60
473.13	11.70
473.31	11.70
473.49	53.83
473.67	32.77
473.85	37.45
474.03	93.62
474.21	28.09
474.39	49.15
474.57	79.58
474.75	86.60
474.93	60.85
475.12	56.17
475.30	49.15
475.48	14.04
475.66	30.43
475.84	37.45
476.02	72.56
476.20	93.62
476.38	100.64
476.56	44.47
476.74	0.00
476.92	44.47
477.10	121.71
477.28	63.19
477.46	23.41
477.64	30.43
477.82	0.00
478.00	0.00
478.18	46.81
478.36	107.66
478.54	25.75
478.72	9.36
478.90	42.13
479.08	46.81
479.26	86.60
479.44	114.69
479.62	7.02
479.80	7.02
479.98	18.72
480.16	46.81
480.34	35.11
480.52	16.38
480.70	44.47
480.88	51.49
481.06	37.45
481.24	58.51
481.41	23.41
481.59	4.68
481.77	53.83
481.95	67.88
482.13	110.01
482.31	107.66
482.49	93.62
482.67	16.38
482.85	110.01
483.03	0.00
483.21	86.60
483.39	32.77
483.57	86.60
483.74	60.85
483.92	119.37
484.10	49.15
484.28	21.06
484.46	88.94
484.64	51.49
484.82	84.26
485.00	81.92
485.18	16.38
485.35	84.26
485.53	84.26
485.71	37.45
485.89	56.17
486.07	56.17
486.25	11.70
486.43	0.00
486.61	46.81
486.78	74.90
486.96	67.88
487.14	114.69
487.32	37.45
487.50	11.70
487.68	14.04
487.85	98.30
488.03	102.98
488.21	56.17
488.39	32.77
488.57	65.54
488.75	30.43
488.92	128.73
489.10	0.00
489.28	91.28
489.46	156.82
489.64	16.38
489.81	0.00
489.99	32.77
490.17	131.07
490.35	35.11
490.53	21.06
490.70	107.66
490.88	79.58
491.06	74.90
491.24	72.56
491.41	16.38
491.59	93.62
491.77	44.47
491.95	79.58
492.13	44.47
492.30	74.90
492.48	102.98
492.66	107.66
492.84	91.28
493.01	46.81
493.19	149.79
493.37	65.54
493.54	91.28
493.72	65.54
493.90	77.24
494.08	74.90
494.25	72.56
494.43	23.41
494.61	110.01
494.79	131.07
494.96	32.77
495.14	9.36
495.32	72.56
495.49	110.01
495.67	32.77
495.85	121.71
496.02	37.45
496.20	135.75
496.38	88.94
496.55	74.90
496.73	140.43
496.91	25.75
497.09	102.98
497.26	51.49
497.44	93.62
497.62	16.38
497.79	14.04
497.97	110.01
498.14	110.01
498.32	154.48
498.50	49.15
498.67	11.70
498.85	67.88
499.03	95.96
499.20	4.68
499.38	117.03
499.56	72.56
499.73	135.75
499.91	93.62
500.08	35.11
500.26	74.90
500.44	53.83
500.61	88.94
500.79	28.09
500.97	79.58
501.14	25.75
501.32	77.24
501.49	126.39
501.67	79.58
501.84	7.02
502.02	53.83
502.20	110.01
502.37	67.88
502.55	107.66
502.72	154.48
502.90	98.30
503.07	28.09
503.25	44.47
503.43	79.58
503.60	44.47
503.78	74.90
503.95	93.62
504.13	98.30
504.30	107.66
504.48	147.45
504.65	100.64
504.83	126.39
505.01	32.77
505.18	131.07
505.36	30.43
505.53	81.92
505.71	60.85
505.88	44.47
506.06	110.01
506.23	86.60
506.41	44.47
506.58	42.13
506.76	42.13
506.93	44.47
507.11	0.00
507.28	102.98
507.46	35.11
507.63	60.85
507.81	65.54
507.98	72.56
508.16	124.05
508.33	56.17
508.50	117.03
508.68	107.66
508.85	35.11
509.03	93.62
509.20	70.22
509.38	72.56
509.55	140.43
509.73	74.90
509.90	114.69
510.08	16.38
510.25	63.19
510.42	117.03
510.60	110.01
510.77	81.92
510.95	98.30
511.12	49.15
511.30	77.24
511.47	72.56
511.64	18.72
511.82	63.19
511.99	105.32
512.17	147.45
512.34	44.47
512.51	46.81
512.69	37.45
512.86	112.35
513.04	46.81
513.21	65.54
513.38	107.66
513.56	84.26
513.73	88.94
513.90	42.13
514.08	126.39
514.25	16.38
514.43	79.58
514.60	63.19
514.77	100.64
514.95	72.56
515.12	107.66
515.29	37.45
515.47	51.49
515.64	114.69
515.81	9.36
515.99	18.72
516.16	60.85
516.33	117.03
516.51	81.92
516.68	32.77
516.85	39.79
517.03	159.16
517.20	18.72
517.37	105.32
517.54	86.60
517.72	37.45
517.89	105.32
518.06	65.54
518.24	0.00
518.41	44.47
518.58	65.54
518.75	112.35
518.93	112.35
519.10	107.66
519.27	39.79
519.45	121.71
519.62	114.69
519.79	11.70
519.96	42.13
520.14	112.35
520.31	46.81
520.48	100.64
520.65	98.30
520.83	95.96
521.00	117.03
521.17	79.58
521.34	114.69
521.52	149.79
521.69	67.88
521.86	124.05
522.03	88.94
522.20	110.01
522.38	86.60
522.55	46.81
522.72	142.77
522.89	51.49
523.07	2.34
523.24	0.00
523.41	117.03
523.58	51.49
523.75	63.19
523.92	63.19
524.10	63.19
524.27	79.58
524.44	147.45
524.61	110.01
524.78	44.47
524.96	23.41
525.13	107.66
525.30	0.00
525.47	112.35
525.64	65.54
525.81	142.77
525.98	128.73
526.16	100.64
526.33	53.83
526.50	72.56
526.67	93.62
526.84	124.05
527.01	86.60
527.18	74.90
527.36	95.96
527.53	131.07
527.70	77.24
527.87	72.56
528.04	81.92
528.21	42.13
528.38	81.92
528.55	72.56
528.72	124.05
528.89	79.58
529.07	95.96
529.24	58.51
529.41	0.00
529.58	142.77
529.75	95.96
529.92	60.85
530.09	79.58
530.26	70.22
530.43	102.98
530.60	84.26
530.77	119.37
530.94	63.19
531.11	107.66
531.28	124.05
531.46	18.72
531.63	145.11
531.80	74.90
531.97	121.71
532.14	119.37
532.31	39.79
532.48	133.41
532.65	28.09
532.82	81.92
532.99	114.69
533.16	49.15
533.33	126.39
533.50	84.26
533.67	131.07
533.84	9.36
534.01	91.28
534.18	86.60
534.35	107.66
534.52	21.06
534.69	60.85
534.86	107.66
535.03	161.50
535.20	86.60
535.37	121.71
535.54	93.62
535.71	128.73
535.88	84.26
536.05	133.41
536.22	86.60
536.38	44.47
536.55	32.77
536.72	91.28
536.89	65.54
537.06	77.24
537.23	102.98
537.40	124.05
537.57	79.58
537.74	42.13
537.91	128.73
538.08	74.90
538.25	86.60
538.42	91.28
538.59	11.70
538.75	100.64
538.92	74.90
539.09	95.96
539.26	177.88
539.43	102.98
539.60	131.07
539.77	42.13
539.94	93.62
540.11	60.85
540.28	110.01
540.44	67.88
540.61	91.28
540.78	35.11
540.95	79.58
541.12	138.09
541.29	121.71
541.46	74.90
541.62	58.51
541.79	79.58
541.96	102.98
542.13	11.70
542.30	58.51
542.47	107.66
542.63	51.49
542.80	88.94
542.97	121.71
543.14	110.01
543.31	95.96
543.48	0.00
543.64	74.90
543.81	110.01
543.98	86.60
544.15	119.37
544.32	98.30
544.48	105.32
544.65	102.98
544.82	46.81
544.99	110.01
545.16	98.30
545.32	77.24
545.49	25.75
545.66	88.94
545.83	46.81
546.00	46.81
546.16	2.34
546.33	11.70
546.50	91.28
546.67	119.37
546.83	81.92
547.00	107.66
547.17	49.15
547.34	91.28
547.50	35.11
547.67	110.01
547.84	95.96
548.00	133.41
548.17	72.56
548.34	84.26
548.51	91.28
548.67	81.92
548.84	79.58
549.01	86.60
549.18	117.03
549.34	105.32
549.51	114.69
549.68	102.98
549.84	72.56
550.01	95.96
550.18	154.48
550.34	131.07
550.51	63.19
550.68	56.17
550.84	124.05
551.01	70.22
551.18	60.85
551.34	81.92
551.51	79.58
551.68	79.58
551.84	88.94
552.01	107.66
552.18	72.56
552.34	112.35
552.51	107.66
552.68	72.56
552.84	91.28
553.01	100.64
553.18	56.17
553.34	117.03
553.51	100.64
553.67	58.51
553.84	93.62
554.01	65.54
554.17	65.54
554.34	98.30
554.51	0.00
554.67	84.26
554.84	28.09
555.00	88.94
555.17	60.85
555.33	86.60
555.50	53.83
555.67	110.01
555.83	70.22
556.00	58.51
556.16	119.37
556.33	95.96
556.50	56.17
556.66	23.41
556.83	77.24
556.99	145.11
557.16	95.96
557.32	91.28
557.49	149.79
557.65	44.47
557.82	119.37
557.98	159.16
558.15	67.88
558.32	65.54
558.48	84.26
558.65	100.64
558.81	70.22
558.98	77.24
559.14	65.54
559.31	138.09
559.47	142.77
559.64	77.24
559.80	112.35
559.97	18.72
560.13	147.45
560.30	114.69
560.46	18.72
560.63	140.43
560.79	114.69
560.96	30.43
561.12	65.54
561.29	124.05
561.45	81.92
561.61	112.35
561.78	79.58
561.94	81.92
562.11	88.94
562.27	112.35
562.44	51.49
562.60	58.51
562.77	53.83
562.93	16.38
563.10	28.09
563.26	67.88
563.42	140.43
563.59	37.45
563.75	72.56
563.92	30.43
564.08	28.09
564.24	86.60
564.41	95.96
564.57	44.47
564.74	16.38
564.90	49.15
565.07	53.83
565.23	65.54
565.39	112.35
565.56	14.04
565.72	67.88
565.88	86.60
566.05	23.41
566.21	121.71
566.38	74.90
566.54	110.01
566.70	46.81
566.87	51.49
567.03	60.85
567.19	95.96
567.36	56.17
567.52	18.72
567.68	114.69
567.85	32.77
568.01	131.07
568.17	86.60
568.34	53.83
568.50	46.81
568.66	72.56
568.83	93.62
568.99	79.58
569.15	149.79
569.32	74.90
569.48	37.45
569.64	21.06
569.81	53.83
569.97	107.66
570.13	100.64
570.30	110.01
570.46	49.15
570.62	98.30
570.78	53.83
570.95	72.56
571.11	114.69
571.27	86.60
571.43	53.83
571.60	49.15
571.76	70.22
571.92	128.73
572.09	88.94
572.25	65.54
572.41	44.47
572.57	102.98
572.74	53.83
572.90	72.56
573.06	65.54
573.22	107.66
573.38	74.90
573.55	32.77
573.71	114.69
573.87	107.66
574.03	98.30
574.20	30.43
574.36	32.77
574.52	25.75
574.68	93.62
574.84	79.58
575.01	51.49
575.17	105.32
575.33	91.28
575.49	77.24
575.65	138.09
575.82	70.22
575.98	63.19
576.14	81.92
576.30	98.30
576.46	84.26
576.62	133.41
576.79	88.94
576.95	84.26
577.11	70.22
577.27	98.30
577.43	110.01
577.59	84.26
577.75	28.09
577.92	81.92
578.08	53.83
578.24	98.30
578.40	74.90
578.56	119.37
578.72	102.98
578.88	84.26
579.04	70.22
579.21	79.58
579.37	81.92
579.53	105.32
579.69	98.30
579.85	72.56
580.01	98.30
580.17	98.30
580.33	51.49
580.49	65.54
580.65	46.81
580.82	93.62
580.98	25.75
581.14	51.49
581.30	95.96
581.46	126.39
581.62	112.35
581.78	93.62
581.94	77.24
582.10	0.00
582.26	25.75
582.42	102.98
582.58	30.43
582.74	49.15
582.90	18.72
583.06	77.24
583.22	58.51
583.38	77.24
583.54	30.43
583.70	98.30
583.86	105.32
584.02	79.58
584.18	49.15
584.34	95.96
584.50	70.22
584.66	91.28
584.82	112.35
584.98	42.13
585.14	23.41
585.30	42.13
585.46	100.64
585.62	84.26
585.78	0.00
585.94	2.34
586.10	46.81
586.26	56.17
586.42	135.75
586.58	37.45
586.74	49.15
586.90	32.77
587.06	42.13
587.22	0.00
587.38	53.83
587.54	65.54
587.70	18.72
587.86	25.75
588.02	58.51
588.18	67.88
588.34	110.01
588.49	37.45
588.65	51.49
588.81	131.07
588.97	60.85
589.13	156.82
589.29	0.00
589.45	7.02
589.61	39.79
589.77	0.00
589.93	23.41
590.08	60.85
590.24	77.24
590.40	128.73
590.56	32.77
590.72	77.24
590.88	53.83
591.04	114.69
591.20	56.17
591.35	74.90
591.51	110.01
591.67	93.62
591.83	18.72
591.99	14.04
592.15	117.03
592.31	56.17
592.46	46.81
592.62	107.66
592.78	102.98
592.94	53.83
593.10	79.58
593.26	30.43
593.41	23.41
593.57	4.68
593.73	37.45
593.89	77.24
594.05	63.19
594.20	124.05
594.36	72.56
594.52	37.45
594.68	37.45
594.84	32.77
594.99	124.05
595.15	65.54
595.31	93.62
595.47	28.09
595.62	105.32
595.78	117.03
595.94	37.45
596.10	93.62
596.25	28.09
596.41	0.00
596.57	25.75
596.73	46.81
596.88	25.75
597.04	0.00
597.20	135.75
597.36	60.85
597.51	65.54
597.67	77.24
597.83	21.06
597.99	60.85
598.14	11.70
598.30	60.85
598.46	107.66
598.61	7.02
598.77	74.90
598.93	124.05
599.09	126.39
599.24	0.00
599.40	0.00
599.56	65.54
599.71	84.26
599.87	70.22
600.03	84.26
600.18	37.45
600.34	44.47
600.50	91.28
600.65	49.15
600.81	114.69
600.97	93.62
601.12	11.70
601.28	79.58
601.44	79.58
601.59	58.51
601.75	60.85
601.91	0.00
602.06	74.90
602.22	56.17
602.37	98.30
602.53	7.02
602.69	95.96
602.84	105.32
603.00	21.06
603.16	72.56
603.31	30.43
603.47	107.66
603.62	98.30
603.78	95.96
603.94	98.30
604.09	25.75
604.25	56.17
604.40	70.22
604.56	100.64
604.71	79.58
604.87	25.75
605.03	98.30
605.18	98.30
605.34	60.85
605.49	91.28
605.65	131.07
605.80	70.22
605.96	102.98
606.12	67.88
606.27	124.05
606.43	135.75
606.58	161.50
606.74	25.75
606.89	91.28
607.05	77.24
607.20	79.58
607.36	114.69
607.51	58.51
607.67	84.26
607.82	35.11
607.98	95.96
608.13	65.54
608.29	77.24
608.44	53.83
608.60	107.66
608.75	72.56
608.91	77.24
609.06	77.24
609.22	46.81
609.37	9.36
609.53	42.13
609.68	67.88
609.84	9.36
609.99	65.54
610.15	39.79
610.30	28.09
610.46	110.01
610.61	58.51
610.76	110.01
610.92	46.81
611.07	86.60
611.23	58.51
611.38	95.96
611.54	35.11
611.69	77.24
611.84	0.00
612.00	119.37
612.15	77.24
612.31	11.70
612.46	70.22
612.62	23.41
612.77	14.04
612.92	65.54
613.08	60.85
613.23	49.15
613.39	117.03
613.54	119.37
613.69	88.94
613.85	102.98
614.00	77.24
614.15	49.15
614.31	39.79
614.46	9.36
614.62	39.79
614.77	72.56
614.92	46.81
615.08	56.17
615.23	63.19
615.38	49.15
615.54	74.90
615.69	159.16
615.84	51.49
616.00	102.98
616.15	37.45
616.30	86.60
616.46	88.94
616.61	77.24
616.76	46.81
616.92	42.13
617.07	44.47
617.22	77.24
617.37	37.45
617.53	53.83
617.68	107.66
617.83	25.75
617.99	91.28
618.14	112.35
618.29	88.94
618.45	60.85
618.60	65.54
618.75	51.49
618.90	37.45
619.06	114.69
619.21	100.64
619.36	56.17
619.51	63.19
619.67	37.45
619.82	98.30
619.97	0.00
620.12	56.17
620.28	46.81
620.43	30.43
620.58	140.43
620.73	159.16
620.89	102.98
621.04	67.88
621.19	39.79
621.34	39.79
621.49	30.43
621.65	0.00
621.80	86.60
621.95	42.13
622.10	77.24
622.25	77.24
622.41	67.88
622.56	56.17
622.71	159.16
622.86	100.64
623.01	65.54
623.16	42.13
623.32	49.15
623.47	56.17
623.62	25.75
623.77	93.62
623.92	72.56
624.07	84.26
624.23	11.70
624.38	81.92
624.53	42.13
624.68	81.92
624.83	102.98
624.98	39.79
625.13	46.81
625.29	53.83
625.44	14.04
625.59	93.62
625.74	16.38
625.89	42.13
626.04	0.00
626.19	56.17
626.34	42.13
626.49	138.09
626.65	102.98
626.80	11.70
626.95	16.38
627.10	56.17
627.25	105.32
627.40	46.81
627.55	93.62
627.70	0.00
627.85	65.54
628.00	51.49
628.15	0.00
628.30	46.81
628.45	60.85
628.60	107.66
628.76	23.41
628.91	88.94
629.06	74.90
629.21	88.94
629.36	16.38
629.51	100.64
629.66	49.15
629.81	60.85
629.96	98.30
630.11	0.00
630.26	0.00
630.41	28.09
630.56	25.75
630.71	11.70
630.86	11.70
631.01	86.60
631.16	70.22
631.31	0.00
631.46	63.19
631.61	25.75
631.76	88.94
631.91	44.47
632.06	88.94
632.21	46.81
632.36	56.17
632.51	30.43
632.66	39.79
632.81	14.04
632.96	63.19
633.10	107.66
633.25	74.90
633.40	9.36
633.55	0.00
633.70	9.36
633.85	0.00
634.00	25.75
634.15	16.38
634.30	42.13
634.45	110.01
634.60	58.51
634.75	0.00
634.90	77.24
635.05	140.43
635.19	60.85
635.34	39.79
635.49	49.15
635.64	0.00
635.79	63.19
635.94	60.85
636.09	18.72
636.24	63.19
636.39	60.85
636.53	126.39
636.68	49.15
636.83	86.60
636.98	60.85
637.13	56.17
637.28	53.83
637.43	98.30
637.57	28.09
637.72	67.88
637.87	42.13
638.02	60.85
638.17	65.54
638.32	21.06
638.46	18.72
638.61	142.77
638.76	32.77
638.91	37.45
639.06	128.73
639.20	46.81
639.35	46.81
639.50	42.13
639.65	9.36
639.80	0.00
639.94	58.51
640.09	91.28
640.24	58.51
640.39	98.30
640.54	95.96
640.68	67.88
640.83	72.56
640.98	65.54
641.13	42.13
641.27	67.88
641.42	35.11
641.57	56.17
641.72	70.22
641.86	72.56
642.01	42.13
642.16	102.98
642.31	65.54
642.45	72.56
642.60	53.83
642.75	0.00
642.90	93.62
643.04	65.54
643.19	39.79
643.34	77.24
643.48	67.88
643.63	53.83
643.78	53.83
643.93	88.94
644.07	42.13
644.22	114.69
644.37	114.69
644.51	25.75
644.66	88.94
644.81	67.88
644.95	63.19
645.10	72.56
645.25	102.98
645.39	42.13
645.54	63.19
645.69	0.00
645.83	23.41
645.98	81.92
646.13	84.26
646.27	95.96
646.42	39.79
646.57	28.09
646.71	2.34
646.86	79.58
647.00	42.13
647.15	28.09
647.30	37.45
647.44	88.94
647.59	70.22
647.74	72.56
647.88	77.24
648.03	98.30
648.17	49.15
648.32	91.28
648.47	65.54
648.61	72.56
648.76	65.54
648.90	60.85
649.05	30.43
649.20	35.11
649.34	93.62
649.49	4.68
649.63	14.04
649.78	107.66
649.92	0.00
650.07	0.00
650.21	70.22
650.36	0.00
650.51	18.72
650.65	42.13
650.80	133.41
650.94	0.00
651.09	25.75
651.23	67.88
651.38	51.49
651.52	0.00
651.67	131.07
651.81	18.72
651.96	100.64
652.10	93.62
652.25	58.51
652.39	32.77
652.54	0.00
652.68	81.92
652.83	11.70
652.97	107.66
653.12	23.41
653.26	91.28
653.41	60.85
653.55	74.90
653.70	9.36
653.84	0.00
653.99	77.24
654.13	14.04
654.27	37.45
654.42	65.54
654.56	70.22
654.71	93.62
654.85	49.15
655.00	23.41
655.14	86.60
655.29	30.43
655.43	74.90
655.57	56.17
655.72	18.72
655.86	60.85
656.01	23.41
656.15	70.22
656.30	91.28
656.44	70.22
656.58	42.13
656.73	0.00
656.87	39.79
657.01	42.13
657.16	23.41
657.30	95.96
657.45	102.98
657.59	81.92
657.73	39.79
657.88	58.51
658.02	56.17
658.16	56.17
658.31	81.92
658.45	18.72
658.60	51.49
658.74	65.54
658.88	56.17
659.03	7.02
659.17	93.62
659.31	79.58
659.46	72.56
659.60	53.83
659.74	145.11
659.89	42.13
660.03	124.05
660.17	58.51
660.32	65.54
660.46	51.49
660.60	72.56
660.74	28.09
660.89	70.22
661.03	91.28
661.17	84.26
661.32	46.81
661.46	65.54
661.60	102.98
661.74	67.88
661.89	53.83
662.03	79.58
662.17	72.56
662.31	65.54
662.46	35.11
662.60	39.79
662.74	18.72
662.88	53.83
663.03	58.51
663.17	121.71
663.31	39.79
663.45	121.71
663.60	67.88
663.74	60.85
663.88	105.32
664.02	84.26
664.17	74.90
664.31	86.60
664.45	53.83
664.59	11.70
664.73	49.15
664.88	44.47
665.02	30.43
665.16	42.13
665.30	100.64
665.44	86.60
665.59	30.43
665.73	63.19
665.87	0.00
666.01	91.28
666.15	98.30
666.29	70.22
666.44	105.32
666.58	0.00
666.72	84.26
666.86	32.77
667.00	88.94
667.14	51.49
667.28	51.49
667.43	30.43
667.57	39.79
667.71	46.81
667.85	18.72
667.99	42.13
668.13	105.32
668.27	60.85
668.41	58.51
668.56	67.88
668.70	65.54
668.84	112.35
668.98	88.94
669.12	65.54
669.26	93.62
669.40	18.72
669.54	39.79
669.68	79.58
669.82	44.47
669.96	35.11
670.10	79.58
670.25	147.45
670.39	72.56
670.53	16.38
670.67	21.06
670.81	23.41
670.95	72.56
671.09	63.19
671.23	21.06
671.37	63.19
671.51	72.56
671.65	49.15
671.79	100.64
671.93	91.28
672.07	86.60
672.21	77.24
672.35	9.36
672.49	91.28
672.63	42.13
672.77	0.00
672.91	67.88
673.05	67.88
673.19	70.22
673.33	46.81
673.47	65.54
673.61	124.05
673.75	35.11
673.89	58.51
674.03	60.85
674.17	49.15
674.31	102.98
674.45	46.81
674.59	102.98
674.73	28.09
674.87	16.38
675.01	100.64
675.15	35.11
675.29	7.02
675.43	46.81
675.56	42.13
675.70	114.69
675.84	53.83
675.98	28.09
676.12	81.92
676.26	42.13
676.40	91.28
676.54	37.45
676.68	25.75
676.82	0.00
676.96	0.00
677.10	110.01
677.23	25.75
677.37	60.85
677.51	149.79
677.65	124.05
677.79	30.43
677.93	0.00
678.07	58.51
678.21	42.13
678.34	70.22
678.48	30.43
678.62	35.11
678.76	77.24
678.90	65.54
679.04	42.13
679.18	67.88
679.31	28.09
679.45	46.81
679.59	35.11
679.73	23.41
679.87	72.56
680.00	49.15
680.14	23.41
680.28	112.35
680.42	11.70
680.56	0.00
680.70	102.98
680.83	0.00
680.97	32.77
681.11	30.43
681.25	14.04
681.39	44.47
681.52	30.43
681.66	60.85
681.80	25.75
681.94	51.49
682.07	16.38
682.21	81.92
682.35	44.47
682.49	86.60
682.62	37.45
682.76	63.19
682.90	93.62
683.04	65.54
683.17	39.79
683.31	0.00
683.45	107.66
683.59	42.13
683.72	30.43
683.86	2.34
684.00	21.06
684.13	88.94
684.27	86.60
684.41	32.77
684.55	53.83
684.68	81.92
684.82	67.88
684.96	30.43
685.09	88.94
685.23	18.72
685.37	44.47
685.50	53.83
685.64	93.62
685.78	30.43
685.91	18.72
686.05	124.05
686.19	105.32
686.32	81.92
686.46	53.83
686.60	4.68
686.73	114.69
686.87	16.38
687.01	7.02
687.14	32.77
687.28	16.38
687.42	63.19
687.55	114.69
687.69	9.36
687.82	28.09
687.96	53.83
688.10	110.01
688.23	63.19
688.37	28.09
688.50	105.32
688.64	79.58
688.78	4.68
688.91	53.83
689.05	0.00
689.18	21.06
689.32	0.00
689.46	28.09
689.59	28.09
689.73	77.24
689.86	63.19
690.00	0.00
690.13	16.38
690.27	0.00
690.41	79.58
690.54	72.56
690.68	70.22
690.81	0.00
690.95	30.43
691.08	46.81
691.22	88.94
691.35	30.43
691.49	0.00
691.62	79.58
691.76	37.45
691.89	11.70
692.03	60.85
692.16	30.43
692.30	0.00
692.43	105.32
692.57	49.15
692.70	30.43
692.84	84.26
692.97	16.38
693.11	2.34
693.24	86.60
693.38	16.38
693.51	72.56
693.65	44.47
693.78	81.92
693.92	56.17
694.05	0.00
694.19	63.19
694.32	60.85
694.45	4.68
694.59	0.00
694.72	105.32
694.86	7.02
694.99	46.81
695.13	14.04
695.26	32.77
695.39	49.15
695.53	11.70
695.66	0.00
695.80	35.11
695.93	21.06
696.07	65.54
696.20	32.77
696.33	51.49
696.47	91.28
696.60	0.00
696.73	44.47
696.87	86.60
697.00	0.00
697.14	93.62
697.27	25.75
697.40	0.00
697.54	63.19
697.67	30.43
697.80	65.54
697.94	0.00
698.07	14.04
698.21	28.09
698.34	88.94
698.47	35.11
698.61	0.00
698.74	60.85
698.87	35.11
699.01	84.26
699.14	65.54
699.27	21.06
699.40	0.00
699.54	0.00
699.67	14.04
699.80	44.47
699.94	107.66
700.07	53.83
700.20	28.09
700.34	7.02
700.47	0.00
700.60	70.22
700.73	77.24
700.87	28.09
701.00	30.43
701.13	37.45
701.26	37.45
701.40	42.13
701.53	0.00
701.66	11.70
701.79	58.51
701.93	0.00
702.06	30.43
702.19	56.17
702.32	30.43
702.46	0.00
702.59	7.02
702.72	0.00
702.85	0.00
702.99	0.00
703.12	53.83
703.25	124.05
703.38	9.36
703.51	67.88
703.65	46.81
703.78	14.04
703.91	53.83
704.04	4.68
704.17	21.06
704.31	21.06
704.44	0.00
704.57	42.13
704.70	18.72
704.83	84.26
704.96	112.35
705.10	44.47
705.23	42.13
>>>>>End Processed Spectral Data<<<<<
