SpectraSuite Data File
++++++++++++++++++++++++++++++++++++
Date: Fri Oct 04 12:13:30 GMT-05:00 2013
User: price-jones
Dark Spectrum Present: No
Reference Spectrum Present: No
Number of Sampled Component Spectra: 1
Spectrometers: USB2+H05261
Integration Time (usec): 10000 (USB2+H05261)
Spectra Averaged: 1 (USB2+H05261)
Boxcar Smoothing: 0 (USB2+H05261)
Correct for Electrical Dark: No (USB2+H05261)
Strobe/Lamp Enabled: No (USB2+H05261)
Correct for Detector Non-linearity: No (USB2+H05261)
Correct for Stray Light: No (USB2+H05261)
Number of Pixels in Processed Spectrum: 2048
>>>>>Begin Processed Spectral Data<<<<<
365.73	35.11
365.92	35.11
366.12	35.11
366.32	0.00
366.52	0.00
366.72	0.00
366.91	0.00
367.11	0.00
367.31	0.00
367.51	0.00
367.70	0.00
367.90	0.00
368.10	0.00
368.30	0.00
368.49	0.00
368.69	0.00
368.89	0.00
369.09	0.00
369.28	0.00
369.48	0.00
369.68	0.00
369.87	0.00
370.07	0.00
370.27	0.00
370.47	0.00
370.66	0.00
370.86	0.00
371.06	0.00
371.25	0.00
371.45	0.00
371.65	0.00
371.84	7.02
372.04	28.09
372.24	53.83
372.44	4.68
372.63	28.09
372.83	2.34
373.03	84.26
373.22	0.00
373.42	0.00
373.62	67.88
373.81	56.17
374.01	46.81
374.21	84.26
374.40	21.06
374.60	79.58
374.79	65.54
374.99	112.35
375.19	65.54
375.38	63.19
375.58	91.28
375.78	46.81
375.97	39.79
376.17	16.38
376.37	39.79
376.56	30.43
376.76	0.00
376.95	49.15
377.15	25.75
377.35	46.81
377.54	74.90
377.74	37.45
377.93	37.45
378.13	0.00
378.33	44.47
378.52	0.00
378.72	49.15
378.91	28.09
379.11	35.11
379.31	60.85
379.50	84.26
379.70	7.02
379.89	16.38
380.09	11.70
380.28	58.51
380.48	102.98
380.68	0.00
380.87	0.00
381.07	0.00
381.26	21.06
381.46	25.75
381.65	0.00
381.85	58.51
382.04	9.36
382.24	0.00
382.43	21.06
382.63	0.00
382.83	84.26
383.02	14.04
383.22	30.43
383.41	74.90
383.61	7.02
383.80	0.00
384.00	65.54
384.19	0.00
384.39	0.00
384.58	14.04
384.78	42.13
384.97	11.70
385.17	44.47
385.36	30.43
385.56	28.09
385.75	84.26
385.95	0.00
386.14	119.37
386.34	49.15
386.53	16.38
386.72	11.70
386.92	25.75
387.11	21.06
387.31	32.77
387.50	16.38
387.70	0.00
387.89	39.79
388.09	16.38
388.28	0.00
388.48	65.54
388.67	60.85
388.86	0.00
389.06	7.02
389.25	93.62
389.45	25.75
389.64	16.38
389.84	72.56
390.03	60.85
390.22	67.88
390.42	32.77
390.61	14.04
390.81	0.00
391.00	0.00
391.19	28.09
391.39	14.04
391.58	16.38
391.78	46.81
391.97	0.00
392.16	53.83
392.36	28.09
392.55	0.00
392.75	70.22
392.94	21.06
393.13	32.77
393.33	21.06
393.52	0.00
393.71	0.00
393.91	2.34
394.10	25.75
394.29	0.00
394.49	53.83
394.68	11.70
394.88	37.45
395.07	60.85
395.26	35.11
395.46	2.34
395.65	35.11
395.84	65.54
396.04	58.51
396.23	4.68
396.42	16.38
396.62	0.00
396.81	49.15
397.00	53.83
397.19	37.45
397.39	44.47
397.58	0.00
397.77	42.13
397.97	7.02
398.16	0.00
398.35	35.11
398.55	0.00
398.74	0.00
398.93	0.00
399.12	81.92
399.32	0.00
399.51	0.00
399.70	88.94
399.90	11.70
400.09	28.09
400.28	37.45
400.47	0.00
400.67	79.58
400.86	37.45
401.05	49.15
401.24	0.00
401.44	0.00
401.63	0.00
401.82	30.43
402.01	79.58
402.21	23.41
402.40	0.00
402.59	23.41
402.78	60.85
402.97	16.38
403.17	28.09
403.36	65.54
403.55	60.85
403.74	0.00
403.93	0.00
404.13	0.00
404.32	91.28
404.51	0.00
404.70	0.00
404.89	16.38
405.09	16.38
405.28	0.00
405.47	23.41
405.66	28.09
405.85	65.54
406.05	121.71
406.24	35.11
406.43	63.19
406.62	0.00
406.81	65.54
407.00	70.22
407.20	0.00
407.39	44.47
407.58	28.09
407.77	88.94
407.96	2.34
408.15	16.38
408.34	23.41
408.54	0.00
408.73	21.06
408.92	70.22
409.11	30.43
409.30	14.04
409.49	7.02
409.68	30.43
409.87	0.00
410.07	0.00
410.26	23.41
410.45	18.72
410.64	0.00
410.83	0.00
411.02	7.02
411.21	60.85
411.40	18.72
411.59	28.09
411.78	4.68
411.98	9.36
412.17	46.81
412.36	39.79
412.55	21.06
412.74	23.41
412.93	77.24
413.12	0.00
413.31	0.00
413.50	81.92
413.69	23.41
413.88	25.75
414.07	18.72
414.26	107.66
414.45	0.00
414.64	0.00
414.83	4.68
415.02	4.68
415.22	16.38
415.41	18.72
415.60	70.22
415.79	63.19
415.98	0.00
416.17	81.92
416.36	32.77
416.55	37.45
416.74	0.00
416.93	42.13
417.12	60.85
417.31	79.58
417.50	0.00
417.69	37.45
417.88	0.00
418.07	63.19
418.26	81.92
418.45	32.77
418.64	28.09
418.83	0.00
419.02	4.68
419.21	0.00
419.39	0.00
419.58	56.17
419.77	39.79
419.96	18.72
420.15	21.06
420.34	21.06
420.53	0.00
420.72	4.68
420.91	0.00
421.10	16.38
421.29	39.79
421.48	14.04
421.67	74.90
421.86	60.85
422.05	14.04
422.24	58.51
422.43	2.34
422.61	18.72
422.80	32.77
422.99	4.68
423.18	88.94
423.37	4.68
423.56	28.09
423.75	0.00
423.94	16.38
424.13	30.43
424.32	9.36
424.50	16.38
424.69	70.22
424.88	49.15
425.07	70.22
425.26	37.45
425.45	25.75
425.64	0.00
425.83	37.45
426.01	14.04
426.20	0.00
426.39	32.77
426.58	0.00
426.77	37.45
426.96	49.15
427.15	53.83
427.33	53.83
427.52	53.83
427.71	42.13
427.90	0.00
428.09	0.00
428.28	81.92
428.46	46.81
428.65	65.54
428.84	16.38
429.03	0.00
429.22	81.92
429.40	23.41
429.59	44.47
429.78	49.15
429.97	0.00
430.16	2.34
430.34	63.19
430.53	81.92
430.72	105.32
430.91	16.38
431.10	56.17
431.28	70.22
431.47	23.41
431.66	16.38
431.85	4.68
432.03	28.09
432.22	42.13
432.41	35.11
432.60	0.00
432.79	32.77
432.97	4.68
433.16	2.34
433.35	18.72
433.54	0.00
433.72	79.58
433.91	65.54
434.10	0.00
434.28	0.00
434.47	28.09
434.66	11.70
434.85	14.04
435.03	105.32
435.22	4.68
435.41	46.81
435.59	30.43
435.78	0.00
435.97	60.85
436.16	114.69
436.34	93.62
436.53	112.35
436.72	107.66
436.90	77.24
437.09	0.00
437.28	14.04
437.46	0.00
437.65	72.56
437.84	49.15
438.02	67.88
438.21	72.56
438.40	23.41
438.58	18.72
438.77	117.03
438.96	7.02
439.14	0.00
439.33	44.47
439.52	0.00
439.70	11.70
439.89	42.13
440.08	28.09
440.26	0.00
440.45	21.06
440.63	0.00
440.82	0.00
441.01	72.56
441.19	23.41
441.38	0.00
441.57	7.02
441.75	28.09
441.94	58.51
442.12	79.58
442.31	0.00
442.50	65.54
442.68	58.51
442.87	0.00
443.05	11.70
443.24	37.45
443.43	23.41
443.61	9.36
443.80	21.06
443.98	79.58
444.17	60.85
444.35	28.09
444.54	84.26
444.73	28.09
444.91	77.24
445.10	11.70
445.28	7.02
445.47	51.49
445.65	9.36
445.84	18.72
446.02	49.15
446.21	25.75
446.39	0.00
446.58	46.81
446.77	0.00
446.95	7.02
447.14	9.36
447.32	79.58
447.51	39.79
447.69	0.00
447.88	86.60
448.06	49.15
448.25	105.32
448.43	0.00
448.62	0.00
448.80	0.00
448.99	32.77
449.17	65.54
449.36	21.06
449.54	0.00
449.73	53.83
449.91	56.17
450.10	70.22
450.28	46.81
450.46	60.85
450.65	0.00
450.83	0.00
451.02	23.41
451.20	39.79
451.39	63.19
451.57	44.47
451.76	72.56
451.94	49.15
452.13	30.43
452.31	35.11
452.49	100.64
452.68	0.00
452.86	51.49
453.05	21.06
453.23	32.77
453.42	0.00
453.60	16.38
453.78	9.36
453.97	30.43
454.15	0.00
454.34	0.00
454.52	81.92
454.70	25.75
454.89	67.88
455.07	23.41
455.26	58.51
455.44	30.43
455.62	86.60
455.81	16.38
455.99	0.00
456.17	37.45
456.36	58.51
456.54	9.36
456.73	37.45
456.91	0.00
457.09	18.72
457.28	84.26
457.46	4.68
457.64	42.13
457.83	42.13
458.01	0.00
458.19	58.51
458.38	28.09
458.56	77.24
458.74	30.43
458.93	42.13
459.11	67.88
459.29	9.36
459.48	77.24
459.66	114.69
459.84	65.54
460.03	88.94
460.21	35.11
460.39	0.00
460.57	56.17
460.76	0.00
460.94	4.68
461.12	0.00
461.31	0.00
461.49	32.77
461.67	0.00
461.85	91.28
462.04	70.22
462.22	138.09
462.40	44.47
462.59	133.41
462.77	0.00
462.95	81.92
463.13	37.45
463.32	53.83
463.50	65.54
463.68	0.00
463.86	39.79
464.05	56.17
464.23	70.22
464.41	0.00
464.59	39.79
464.78	65.54
464.96	0.00
465.14	28.09
465.32	32.77
465.50	0.00
465.69	30.43
465.87	37.45
466.05	39.79
466.23	70.22
466.41	28.09
466.60	0.00
466.78	37.45
466.96	56.17
467.14	16.38
467.32	21.06
467.51	0.00
467.69	16.38
467.87	35.11
468.05	56.17
468.23	67.88
468.41	0.00
468.60	65.54
468.78	74.90
468.96	0.00
469.14	58.51
469.32	39.79
469.50	21.06
469.69	72.56
469.87	21.06
470.05	35.11
470.23	0.00
470.41	0.00
470.59	0.00
470.77	56.17
470.95	32.77
471.14	0.00
471.32	0.00
471.50	93.62
471.68	39.79
471.86	135.75
472.04	102.98
472.22	65.54
472.40	79.58
472.58	9.36
472.77	0.00
472.95	2.34
473.13	42.13
473.31	86.60
473.49	0.00
473.67	14.04
473.85	88.94
474.03	39.79
474.21	28.09
474.39	0.00
474.57	65.54
474.75	42.13
474.93	98.30
475.12	0.00
475.30	9.36
475.48	23.41
475.66	44.47
475.84	0.00
476.02	0.00
476.20	81.92
476.38	32.77
476.56	74.90
476.74	0.00
476.92	60.85
477.10	32.77
477.28	58.51
477.46	2.34
477.64	28.09
477.82	93.62
478.00	16.38
478.18	95.96
478.36	84.26
478.54	18.72
478.72	114.69
478.90	0.00
479.08	18.72
479.26	9.36
479.44	28.09
479.62	58.51
479.80	58.51
479.98	39.79
480.16	81.92
480.34	58.51
480.52	86.60
480.70	79.58
480.88	93.62
481.06	7.02
481.24	2.34
481.41	0.00
481.59	0.00
481.77	28.09
481.95	63.19
482.13	70.22
482.31	0.00
482.49	56.17
482.67	65.54
482.85	44.47
483.03	0.00
483.21	56.17
483.39	32.77
483.57	32.77
483.74	37.45
483.92	70.22
484.10	0.00
484.28	0.00
484.46	14.04
484.64	119.37
484.82	81.92
485.00	86.60
485.18	100.64
485.35	14.04
485.53	0.00
485.71	0.00
485.89	60.85
486.07	46.81
486.25	72.56
486.43	46.81
486.61	23.41
486.78	65.54
486.96	28.09
487.14	14.04
487.32	30.43
487.50	9.36
487.68	42.13
487.85	49.15
488.03	14.04
488.21	60.85
488.39	28.09
488.57	58.51
488.75	32.77
488.92	30.43
489.10	7.02
489.28	67.88
489.46	0.00
489.64	42.13
489.81	72.56
489.99	91.28
490.17	65.54
490.35	56.17
490.53	18.72
490.70	18.72
490.88	0.00
491.06	11.70
491.24	9.36
491.41	65.54
491.59	0.00
491.77	28.09
491.95	0.00
492.13	0.00
492.30	77.24
492.48	86.60
492.66	105.32
492.84	37.45
493.01	30.43
493.19	14.04
493.37	105.32
493.54	51.49
493.72	46.81
493.90	7.02
494.08	56.17
494.25	0.00
494.43	37.45
494.61	0.00
494.79	9.36
494.96	93.62
495.14	44.47
495.32	32.77
495.49	42.13
495.67	28.09
495.85	49.15
496.02	0.00
496.20	14.04
496.38	42.13
496.55	9.36
496.73	63.19
496.91	37.45
497.09	7.02
497.26	37.45
497.44	30.43
497.62	70.22
497.79	77.24
497.97	56.17
498.14	145.11
498.32	25.75
498.50	49.15
498.67	100.64
498.85	9.36
499.03	0.00
499.20	16.38
499.38	46.81
499.56	32.77
499.73	58.51
499.91	7.02
500.08	46.81
500.26	63.19
500.44	91.28
500.61	63.19
500.79	0.00
500.97	51.49
501.14	72.56
501.32	67.88
501.49	53.83
501.67	14.04
501.84	74.90
502.02	25.75
502.20	0.00
502.37	168.52
502.55	28.09
502.72	56.17
502.90	23.41
503.07	0.00
503.25	11.70
503.43	140.43
503.60	42.13
503.78	14.04
503.95	9.36
504.13	0.00
504.30	21.06
504.48	0.00
504.65	65.54
504.83	44.47
505.01	0.00
505.18	28.09
505.36	72.56
505.53	0.00
505.71	0.00
505.88	28.09
506.06	67.88
506.23	23.41
506.41	25.75
506.58	46.81
506.76	70.22
506.93	0.00
507.11	7.02
507.28	0.00
507.46	4.68
507.63	0.00
507.81	0.00
507.98	91.28
508.16	44.47
508.33	30.43
508.50	0.00
508.68	18.72
508.85	0.00
509.03	0.00
509.20	9.36
509.38	25.75
509.55	42.13
509.73	77.24
509.90	0.00
510.08	21.06
510.25	81.92
510.42	14.04
510.60	21.06
510.77	70.22
510.95	46.81
511.12	81.92
511.30	117.03
511.47	37.45
511.64	25.75
511.82	9.36
511.99	74.90
512.17	35.11
512.34	0.00
512.51	14.04
512.69	0.00
512.86	16.38
513.04	98.30
513.21	44.47
513.38	0.00
513.56	28.09
513.73	93.62
513.90	30.43
514.08	42.13
514.25	117.03
514.43	23.41
514.60	44.47
514.77	32.77
514.95	65.54
515.12	0.00
515.29	0.00
515.47	37.45
515.64	74.90
515.81	49.15
515.99	0.00
516.16	21.06
516.33	21.06
516.51	9.36
516.68	46.81
516.85	7.02
517.03	7.02
517.20	0.00
517.37	51.49
517.54	65.54
517.72	25.75
517.89	58.51
518.06	0.00
518.24	0.00
518.41	14.04
518.58	51.49
518.75	42.13
518.93	51.49
519.10	49.15
519.27	58.51
519.45	88.94
519.62	0.00
519.79	56.17
519.96	49.15
520.14	28.09
520.31	14.04
520.48	65.54
520.65	60.85
520.83	39.79
521.00	7.02
521.17	0.00
521.34	35.11
521.52	35.11
521.69	0.00
521.86	56.17
522.03	56.17
522.20	0.00
522.38	16.38
522.55	39.79
522.72	0.00
522.89	0.00
523.07	21.06
523.24	63.19
523.41	88.94
523.58	84.26
523.75	39.79
523.92	102.98
524.10	159.16
524.27	7.02
524.44	21.06
524.61	0.00
524.78	7.02
524.96	49.15
525.13	79.58
525.30	84.26
525.47	56.17
525.64	35.11
525.81	70.22
525.98	7.02
526.16	72.56
526.33	46.81
526.50	74.90
526.67	0.00
526.84	18.72
527.01	102.98
527.18	25.75
527.36	60.85
527.53	88.94
527.70	11.70
527.87	21.06
528.04	100.64
528.21	18.72
528.38	79.58
528.55	16.38
528.72	32.77
528.89	58.51
529.07	88.94
529.24	51.49
529.41	28.09
529.58	0.00
529.75	117.03
529.92	32.77
530.09	49.15
530.26	7.02
530.43	42.13
530.60	112.35
530.77	56.17
530.94	0.00
531.11	0.00
531.28	49.15
531.46	21.06
531.63	9.36
531.80	28.09
531.97	81.92
532.14	35.11
532.31	53.83
532.48	44.47
532.65	72.56
532.82	49.15
532.99	91.28
533.16	42.13
533.33	79.58
533.50	126.39
533.67	95.96
533.84	107.66
534.01	72.56
534.18	102.98
534.35	93.62
534.52	46.81
534.69	49.15
534.86	42.13
535.03	53.83
535.20	0.00
535.37	0.00
535.54	30.43
535.71	51.49
535.88	46.81
536.05	114.69
536.22	84.26
536.38	2.34
536.55	25.75
536.72	81.92
536.89	88.94
537.06	58.51
537.23	25.75
537.40	60.85
537.57	23.41
537.74	0.00
537.91	4.68
538.08	28.09
538.25	70.22
538.42	30.43
538.59	100.64
538.75	7.02
538.92	16.38
539.09	18.72
539.26	4.68
539.43	0.00
539.60	112.35
539.77	126.39
539.94	196.60
540.11	65.54
540.28	84.26
540.44	49.15
540.61	77.24
540.78	37.45
540.95	32.77
541.12	39.79
541.29	30.43
541.46	37.45
541.62	0.00
541.79	42.13
541.96	63.19
542.13	95.96
542.30	77.24
542.47	35.11
542.63	70.22
542.80	16.38
542.97	51.49
543.14	74.90
543.31	117.03
543.48	107.66
543.64	56.17
543.81	0.00
543.98	25.75
544.15	14.04
544.32	56.17
544.48	46.81
544.65	46.81
544.82	0.00
544.99	39.79
545.16	49.15
545.32	51.49
545.49	25.75
545.66	58.51
545.83	84.26
546.00	88.94
546.16	65.54
546.33	53.83
546.50	0.00
546.67	39.79
546.83	81.92
547.00	4.68
547.17	39.79
547.34	7.02
547.50	9.36
547.67	44.47
547.84	135.75
548.00	102.98
548.17	21.06
548.34	37.45
548.51	46.81
548.67	74.90
548.84	51.49
549.01	9.36
549.18	93.62
549.34	58.51
549.51	0.00
549.68	51.49
549.84	102.98
550.01	39.79
550.18	121.71
550.34	23.41
550.51	32.77
550.68	81.92
550.84	14.04
551.01	51.49
551.18	46.81
551.34	74.90
551.51	70.22
551.68	77.24
551.84	28.09
552.01	0.00
552.18	18.72
552.34	46.81
552.51	98.30
552.68	32.77
552.84	30.43
553.01	14.04
553.18	39.79
553.34	37.45
553.51	14.04
553.67	39.79
553.84	39.79
554.01	16.38
554.17	9.36
554.34	0.00
554.51	0.00
554.67	53.83
554.84	70.22
555.00	79.58
555.17	42.13
555.33	77.24
555.50	46.81
555.67	58.51
555.83	84.26
556.00	74.90
556.16	88.94
556.33	63.19
556.50	86.60
556.66	25.75
556.83	49.15
556.99	51.49
557.16	53.83
557.32	46.81
557.49	128.73
557.65	35.11
557.82	30.43
557.98	30.43
558.15	117.03
558.32	25.75
558.48	0.00
558.65	49.15
558.81	72.56
558.98	21.06
559.14	51.49
559.31	53.83
559.47	0.00
559.64	0.00
559.80	35.11
559.97	70.22
560.13	51.49
560.30	46.81
560.46	0.00
560.63	49.15
560.79	107.66
560.96	67.88
561.12	51.49
561.29	11.70
561.45	14.04
561.61	0.00
561.78	21.06
561.94	74.90
562.11	81.92
562.27	0.00
562.44	86.60
562.60	2.34
562.77	72.56
562.93	44.47
563.10	0.00
563.26	44.47
563.42	39.79
563.59	117.03
563.75	0.00
563.92	58.51
564.08	30.43
564.24	0.00
564.41	105.32
564.57	0.00
564.74	4.68
564.90	46.81
565.07	0.00
565.23	51.49
565.39	9.36
565.56	23.41
565.72	56.17
565.88	72.56
566.05	93.62
566.21	23.41
566.38	131.07
566.54	32.77
566.70	0.00
566.87	42.13
567.03	51.49
567.19	126.39
567.36	18.72
567.52	2.34
567.68	23.41
567.85	114.69
568.01	0.00
568.17	49.15
568.34	44.47
568.50	7.02
568.66	44.47
568.83	53.83
568.99	25.75
569.15	39.79
569.32	79.58
569.48	74.90
569.64	102.98
569.81	42.13
569.97	107.66
570.13	9.36
570.30	28.09
570.46	23.41
570.62	0.00
570.78	0.00
570.95	58.51
571.11	0.00
571.27	4.68
571.43	14.04
571.60	46.81
571.76	11.70
571.92	49.15
572.09	0.00
572.25	91.28
572.41	65.54
572.57	98.30
572.74	2.34
572.90	30.43
573.06	58.51
573.22	56.17
573.38	32.77
573.55	0.00
573.71	21.06
573.87	93.62
574.03	63.19
574.20	44.47
574.36	23.41
574.52	63.19
574.68	2.34
574.84	25.75
575.01	0.00
575.17	74.90
575.33	23.41
575.49	28.09
575.65	32.77
575.82	0.00
575.98	81.92
576.14	11.70
576.30	70.22
576.46	42.13
576.62	30.43
576.79	0.00
576.95	14.04
577.11	16.38
577.27	7.02
577.43	70.22
577.59	9.36
577.75	67.88
577.92	11.70
578.08	63.19
578.24	51.49
578.40	42.13
578.56	84.26
578.72	23.41
578.88	35.11
579.04	32.77
579.21	53.83
579.37	117.03
579.53	37.45
579.69	23.41
579.85	81.92
580.01	7.02
580.17	58.51
580.33	14.04
580.49	16.38
580.65	91.28
580.82	98.30
580.98	16.38
581.14	84.26
581.30	63.19
581.46	49.15
581.62	70.22
581.78	30.43
581.94	58.51
582.10	46.81
582.26	72.56
582.42	32.77
582.58	0.00
582.74	56.17
582.90	49.15
583.06	2.34
583.22	81.92
583.38	35.11
583.54	28.09
583.70	86.60
583.86	25.75
584.02	102.98
584.18	110.01
584.34	140.43
584.50	273.84
584.66	1701.57
584.82	4201.26
584.98	5586.86
585.14	4936.19
585.30	3157.38
585.46	1977.75
585.62	1275.59
585.78	615.56
585.94	285.55
586.10	119.37
586.26	107.66
586.42	166.18
586.58	53.83
586.74	79.58
586.90	84.26
587.06	105.32
587.22	63.19
587.38	107.66
587.54	147.45
587.70	313.63
587.86	400.23
588.02	428.32
588.18	437.68
588.34	248.10
588.49	196.60
588.65	107.66
588.81	51.49
588.97	16.38
589.13	60.85
589.29	70.22
589.45	14.04
589.61	21.06
589.77	42.13
589.93	46.81
590.08	21.06
590.24	74.90
590.40	107.66
590.56	42.13
590.72	65.54
590.88	63.19
591.04	81.92
591.20	18.72
591.35	91.28
591.51	142.77
591.67	7.02
591.83	72.56
591.99	74.90
592.15	74.90
592.31	98.30
592.46	0.00
592.62	112.35
592.78	9.36
592.94	105.32
593.10	44.47
593.26	65.54
593.41	0.00
593.57	65.54
593.73	124.05
593.89	229.37
594.05	557.05
594.20	821.53
594.36	662.37
594.52	461.09
594.68	311.29
594.84	210.65
594.99	112.35
595.15	49.15
595.31	39.79
595.47	107.66
595.62	56.17
595.78	7.02
595.94	44.47
596.10	44.47
596.25	30.43
596.41	21.06
596.57	37.45
596.73	60.85
596.88	107.66
597.04	126.39
597.20	210.65
597.36	212.99
597.51	131.07
597.67	121.71
597.83	74.90
597.99	0.00
598.14	88.94
598.30	23.41
598.46	35.11
598.61	63.19
598.77	63.19
598.93	18.72
599.09	56.17
599.24	0.00
599.40	0.00
599.56	79.58
599.71	21.06
599.87	21.06
600.03	56.17
600.18	35.11
600.34	58.51
600.50	0.00
600.65	102.98
600.81	23.41
600.97	91.28
601.12	37.45
601.28	44.47
601.44	2.34
601.59	67.88
601.75	77.24
601.91	37.45
602.06	14.04
602.22	93.62
602.37	156.82
602.53	147.45
602.69	198.95
602.84	184.90
603.00	105.32
603.16	156.82
603.31	56.17
603.47	60.85
603.62	44.47
603.78	0.00
603.94	28.09
604.09	46.81
604.25	37.45
604.40	35.11
604.56	28.09
604.71	70.22
604.87	9.36
605.03	16.38
605.18	70.22
605.34	14.04
605.49	49.15
605.65	28.09
605.80	72.56
605.96	138.09
606.12	18.72
606.27	23.41
606.43	124.05
606.58	46.81
606.74	51.49
606.89	294.91
607.05	538.32
607.20	603.86
607.36	528.96
607.51	330.02
607.67	182.56
607.82	156.82
607.98	147.45
608.13	88.94
608.29	51.49
608.44	28.09
608.60	46.81
608.75	58.51
608.91	100.64
609.06	449.38
609.22	800.46
609.37	1004.09
609.53	947.92
609.68	608.54
609.84	414.27
609.99	294.91
610.15	248.10
610.30	126.39
610.46	60.85
610.61	39.79
610.76	58.51
610.92	102.98
611.07	60.85
611.23	4.68
611.38	0.00
611.54	107.66
611.69	9.36
611.84	18.72
612.00	37.45
612.15	37.45
612.31	42.13
612.46	28.09
612.62	79.58
612.77	128.73
612.92	102.98
613.08	42.13
613.23	88.94
613.39	56.17
613.54	32.77
613.69	451.72
613.85	1102.39
614.00	1500.28
614.15	1783.49
614.31	1196.01
614.46	814.51
614.62	559.39
614.77	388.53
614.92	187.24
615.08	152.13
615.23	37.45
615.38	35.11
615.54	37.45
615.69	79.58
615.84	259.80
616.00	362.78
616.15	528.96
616.30	393.21
616.46	297.25
616.61	149.79
616.76	138.09
616.92	163.84
617.07	70.22
617.22	18.72
617.37	39.79
617.53	30.43
617.68	14.04
617.83	11.70
617.99	119.37
618.14	28.09
618.29	30.43
618.45	25.75
618.60	0.00
618.75	53.83
618.90	65.54
619.06	102.98
619.21	88.94
619.36	74.90
619.51	0.00
619.67	77.24
619.82	28.09
619.97	23.41
620.12	0.00
620.28	30.43
620.43	35.11
620.58	110.01
620.73	35.11
620.89	23.41
621.04	11.70
621.19	161.50
621.34	210.65
621.49	362.78
621.65	283.20
621.80	170.86
621.95	224.69
622.10	112.35
622.25	70.22
622.41	49.15
622.56	84.26
622.71	35.11
622.86	77.24
623.01	28.09
623.16	91.28
623.32	77.24
623.47	28.09
623.62	63.19
623.77	14.04
623.92	0.00
624.07	70.22
624.23	32.77
624.38	110.01
624.53	65.54
624.68	70.22
624.83	72.56
624.98	86.60
625.13	32.77
625.29	39.79
625.44	37.45
625.59	86.60
625.74	9.36
625.89	28.09
626.04	322.99
626.19	554.71
626.34	854.30
626.49	908.13
626.65	681.10
626.80	468.11
626.95	318.31
627.10	205.97
627.25	114.69
627.40	107.66
627.55	74.90
627.70	119.37
627.85	9.36
628.00	0.00
628.15	9.36
628.30	0.00
628.45	67.88
628.60	91.28
628.76	0.00
628.91	74.90
629.06	16.38
629.21	35.11
629.36	0.00
629.51	9.36
629.66	23.41
629.81	121.71
629.96	107.66
630.11	175.54
630.26	217.67
630.41	231.71
630.56	163.84
630.71	147.45
630.86	135.75
631.01	42.13
631.16	60.85
631.31	28.09
631.46	56.17
631.61	56.17
631.76	74.90
631.91	84.26
632.06	42.13
632.21	11.70
632.36	42.13
632.51	107.66
632.66	156.82
632.81	198.95
632.96	271.50
633.10	505.56
633.25	634.29
633.40	561.73
633.55	346.40
633.70	229.37
633.85	217.67
634.00	177.88
634.15	23.41
634.30	79.58
634.45	60.85
634.60	0.00
634.75	2.34
634.90	9.36
635.05	51.49
635.19	37.45
635.34	0.00
635.49	42.13
635.64	60.85
635.79	0.00
635.94	14.04
636.09	53.83
636.24	0.00
636.39	49.15
636.53	84.26
636.68	65.54
636.83	0.00
636.98	58.51
637.13	35.11
637.28	84.26
637.43	53.83
637.57	81.92
637.72	339.38
637.87	725.57
638.02	1020.47
638.17	1071.97
638.32	758.33
638.46	596.84
638.61	390.87
638.76	283.20
638.91	191.92
639.06	128.73
639.20	74.90
639.35	0.00
639.50	128.73
639.65	418.96
639.80	1015.79
639.94	1572.84
640.09	1720.29
640.24	1249.85
640.39	959.62
640.54	669.39
640.68	435.34
640.83	231.71
640.98	65.54
641.13	46.81
641.27	88.94
641.42	58.51
641.57	110.01
641.72	28.09
641.86	37.45
642.01	49.15
642.16	93.62
642.31	60.85
642.45	32.77
642.60	65.54
642.75	30.43
642.90	46.81
643.04	0.00
643.19	63.19
643.34	0.00
643.48	72.56
643.63	60.85
643.78	70.22
643.93	112.35
644.07	18.72
644.22	0.00
644.37	7.02
644.51	35.11
644.66	138.09
644.81	60.85
644.95	11.70
645.10	88.94
645.25	0.00
645.39	44.47
645.54	63.19
645.69	98.30
645.83	86.60
645.98	39.79
646.13	25.75
646.27	0.00
646.42	56.17
646.57	67.88
646.71	0.00
646.86	72.56
647.00	60.85
647.15	56.17
647.30	39.79
647.44	74.90
647.59	35.11
647.74	86.60
647.88	32.77
648.03	11.70
648.17	0.00
648.32	30.43
648.47	88.94
648.61	28.09
648.76	11.70
648.90	0.00
649.05	0.00
649.20	0.00
649.34	44.47
649.49	56.17
649.63	7.02
649.78	0.00
649.92	0.00
650.07	196.60
650.21	498.53
650.36	788.76
650.51	976.00
650.65	781.74
650.80	566.41
650.94	388.53
651.09	262.14
651.23	121.71
651.38	46.81
651.52	28.09
651.67	77.24
651.81	98.30
651.96	105.32
652.10	0.00
652.25	51.49
652.39	46.81
652.54	16.38
652.68	72.56
652.83	191.92
652.97	313.63
653.12	358.10
653.26	311.29
653.41	205.97
653.55	142.77
653.70	91.28
653.84	84.26
653.99	105.32
654.13	42.13
654.27	0.00
654.42	18.72
654.56	11.70
654.71	65.54
654.85	46.81
655.00	39.79
655.14	14.04
655.29	0.00
655.43	0.00
655.57	0.00
655.72	135.75
655.86	28.09
656.01	102.98
656.15	51.49
656.30	37.45
656.44	4.68
656.58	37.45
656.73	70.22
656.87	88.94
657.01	60.85
657.16	74.90
657.30	51.49
657.45	67.88
657.59	58.51
657.73	81.92
657.88	42.13
658.02	60.85
658.16	56.17
658.31	28.09
658.45	30.43
658.60	100.64
658.74	49.15
658.88	46.81
659.03	86.60
659.17	86.60
659.31	100.64
659.46	304.27
659.60	365.12
659.74	430.66
659.89	395.55
660.03	332.36
660.17	217.67
660.32	88.94
660.46	168.52
660.60	32.77
660.74	0.00
660.89	0.00
661.03	0.00
661.17	0.00
661.32	0.00
661.46	72.56
661.60	0.00
661.74	0.00
661.89	119.37
662.03	7.02
662.17	23.41
662.31	11.70
662.46	14.04
662.60	4.68
662.74	39.79
662.88	42.13
663.03	18.72
663.17	79.58
663.31	14.04
663.45	25.75
663.60	0.00
663.74	70.22
663.88	0.00
664.02	65.54
664.17	107.66
664.31	25.75
664.45	0.00
664.59	72.56
664.73	23.41
664.88	49.15
665.02	28.09
665.16	16.38
665.30	102.98
665.44	0.00
665.59	23.41
665.73	9.36
665.87	0.00
666.01	86.60
666.15	30.43
666.29	7.02
666.44	70.22
666.58	0.00
666.72	28.09
666.86	79.58
667.00	35.11
667.14	56.17
667.28	100.64
667.43	479.81
667.57	674.07
667.71	894.08
667.85	676.41
667.99	561.73
668.13	301.93
668.27	175.54
668.41	65.54
668.56	77.24
668.70	0.00
668.84	67.88
668.98	65.54
669.12	25.75
669.26	0.00
669.40	0.00
669.54	95.96
669.68	133.41
669.82	42.13
669.96	2.34
670.10	44.47
670.25	63.19
670.39	46.81
670.53	0.00
670.67	25.75
670.81	4.68
670.95	72.56
671.09	28.09
671.23	222.35
671.37	322.99
671.51	491.51
671.65	568.75
671.79	313.63
671.93	280.86
672.07	205.97
672.21	168.52
672.35	119.37
672.49	86.60
672.63	23.41
672.77	102.98
672.91	121.71
673.05	74.90
673.19	0.00
673.33	81.92
673.47	9.36
673.61	0.00
673.75	0.00
673.89	67.88
674.03	0.00
674.17	74.90
674.31	0.00
674.45	25.75
674.59	0.00
674.73	42.13
674.87	11.70
675.01	0.00
675.15	79.58
675.29	25.75
675.43	88.94
675.56	46.81
675.70	58.51
675.84	49.15
675.98	60.85
676.12	0.00
676.26	0.00
676.40	39.79
676.54	70.22
676.68	25.75
676.82	51.49
676.96	49.15
677.10	32.77
677.23	0.00
677.37	23.41
677.51	28.09
677.65	18.72
677.79	18.72
677.93	0.00
678.07	81.92
678.21	39.79
678.34	72.56
678.48	0.00
678.62	32.77
678.76	53.83
678.90	23.41
679.04	0.00
679.18	18.72
679.31	18.72
679.45	0.00
679.59	0.00
679.73	0.00
679.87	81.92
680.00	117.03
680.14	21.06
680.28	30.43
680.42	4.68
680.56	35.11
680.70	37.45
680.83	42.13
680.97	60.85
681.11	0.00
681.25	25.75
681.39	25.75
681.52	4.68
681.66	72.56
681.80	25.75
681.94	49.15
682.07	0.00
682.21	74.90
682.35	79.58
682.49	39.79
682.62	63.19
682.76	107.66
682.90	0.00
683.04	46.81
683.17	4.68
683.31	0.00
683.45	0.00
683.59	23.41
683.72	0.00
683.86	42.13
684.00	23.41
684.13	67.88
684.27	65.54
684.41	46.81
684.55	53.83
684.68	16.38
684.82	74.90
684.96	32.77
685.09	42.13
685.23	16.38
685.37	0.00
685.50	93.62
685.64	44.47
685.78	67.88
685.91	114.69
686.05	72.56
686.19	25.75
686.32	28.09
686.46	21.06
686.60	4.68
686.73	56.17
686.87	77.24
687.01	28.09
687.14	16.38
687.28	0.00
687.42	0.00
687.55	58.51
687.69	32.77
687.82	0.00
687.96	46.81
688.10	25.75
688.23	0.00
688.37	53.83
688.50	32.77
688.64	51.49
688.78	93.62
688.91	28.09
689.05	39.79
689.18	0.00
689.32	14.04
689.46	42.13
689.59	131.07
689.73	44.47
689.86	0.00
690.00	49.15
690.13	11.70
690.27	51.49
690.41	11.70
690.54	25.75
690.68	9.36
690.81	4.68
690.95	39.79
691.08	28.09
691.22	14.04
691.35	18.72
691.49	0.00
691.62	0.00
691.76	51.49
691.89	77.24
692.03	21.06
692.16	14.04
692.30	42.13
692.43	65.54
692.57	163.84
692.70	292.57
692.84	369.80
692.97	365.12
693.11	257.46
693.24	175.54
693.38	156.82
693.51	70.22
693.65	72.56
693.78	18.72
693.92	32.77
694.05	60.85
694.19	70.22
694.32	42.13
694.45	100.64
694.59	28.09
694.72	72.56
694.86	0.00
694.99	28.09
695.13	0.00
695.26	63.19
695.39	58.51
695.53	0.00
695.66	63.19
695.80	37.45
695.93	18.72
696.07	60.85
696.20	0.00
696.33	98.30
696.47	114.69
696.60	107.66
696.73	93.62
696.87	28.09
697.00	28.09
697.14	133.41
697.27	23.41
697.40	16.38
697.54	49.15
697.67	37.45
697.80	25.75
697.94	0.00
698.07	9.36
698.21	0.00
698.34	16.38
698.47	0.00
698.61	46.81
698.74	39.79
698.87	25.75
699.01	18.72
699.14	0.00
699.27	21.06
699.40	79.58
699.54	42.13
699.67	14.04
699.80	0.00
699.94	42.13
700.07	23.41
700.20	51.49
700.34	18.72
700.47	0.00
700.60	0.00
700.73	0.00
700.87	74.90
701.00	51.49
701.13	32.77
701.26	86.60
701.40	25.75
701.53	37.45
701.66	42.13
701.79	51.49
701.93	14.04
702.06	63.19
702.19	74.90
702.32	86.60
702.46	23.41
702.59	84.26
702.72	86.60
702.85	262.14
702.99	512.58
703.12	676.41
703.25	587.47
703.38	547.69
703.51	489.17
703.65	374.49
703.78	222.35
703.91	161.50
704.04	161.50
704.17	30.43
704.31	11.70
704.44	56.17
704.57	28.09
704.70	95.96
704.83	63.19
704.96	72.56
705.10	0.00
705.23	117.03
>>>>>End Processed Spectral Data<<<<<
