SpectraSuite Data File
++++++++++++++++++++++++++++++++++++
Date: Fri Oct 04 12:13:32 GMT-05:00 2013
User: price-jones
Dark Spectrum Present: No
Reference Spectrum Present: No
Number of Sampled Component Spectra: 1
Spectrometers: USB2+H05261
Integration Time (usec): 10000 (USB2+H05261)
Spectra Averaged: 1 (USB2+H05261)
Boxcar Smoothing: 0 (USB2+H05261)
Correct for Electrical Dark: No (USB2+H05261)
Strobe/Lamp Enabled: No (USB2+H05261)
Correct for Detector Non-linearity: No (USB2+H05261)
Correct for Stray Light: No (USB2+H05261)
Number of Pixels in Processed Spectrum: 2048
>>>>>Begin Processed Spectral Data<<<<<
365.73	42.13
365.92	42.13
366.12	42.13
366.32	0.00
366.52	0.00
366.72	0.00
366.91	0.00
367.11	0.00
367.31	0.00
367.51	0.00
367.70	0.00
367.90	0.00
368.10	0.00
368.30	0.00
368.49	0.00
368.69	0.00
368.89	0.00
369.09	0.00
369.28	0.00
369.48	0.00
369.68	0.00
369.87	0.00
370.07	0.00
370.27	0.00
370.47	0.00
370.66	0.00
370.86	0.00
371.06	0.00
371.25	0.00
371.45	0.00
371.65	0.00
371.84	46.81
372.04	7.02
372.24	0.00
372.44	16.38
372.63	11.70
372.83	46.81
373.03	32.77
373.22	7.02
373.42	0.00
373.62	7.02
373.81	14.04
374.01	23.41
374.21	74.90
374.40	21.06
374.60	51.49
374.79	39.79
374.99	28.09
375.19	77.24
375.38	58.51
375.58	46.81
375.78	46.81
375.97	32.77
376.17	16.38
376.37	67.88
376.56	9.36
376.76	65.54
376.95	23.41
377.15	49.15
377.35	0.00
377.54	0.00
377.74	44.47
377.93	0.00
378.13	32.77
378.33	42.13
378.52	60.85
378.72	14.04
378.91	9.36
379.11	67.88
379.31	16.38
379.50	74.90
379.70	65.54
379.89	9.36
380.09	0.00
380.28	0.00
380.48	0.00
380.68	37.45
380.87	70.22
381.07	39.79
381.26	112.35
381.46	0.00
381.65	0.00
381.85	2.34
382.04	18.72
382.24	32.77
382.43	44.47
382.63	53.83
382.83	63.19
383.02	32.77
383.22	23.41
383.41	49.15
383.61	77.24
383.80	100.64
384.00	0.00
384.19	16.38
384.39	0.00
384.58	42.13
384.78	58.51
384.97	14.04
385.17	102.98
385.36	44.47
385.56	0.00
385.75	0.00
385.95	0.00
386.14	18.72
386.34	60.85
386.53	0.00
386.72	14.04
386.92	0.00
387.11	21.06
387.31	0.00
387.50	51.49
387.70	30.43
387.89	56.17
388.09	35.11
388.28	0.00
388.48	0.00
388.67	0.00
388.86	46.81
389.06	16.38
389.25	18.72
389.45	49.15
389.64	2.34
389.84	28.09
390.03	21.06
390.22	0.00
390.42	4.68
390.61	0.00
390.81	44.47
391.00	49.15
391.19	70.22
391.39	53.83
391.58	0.00
391.78	93.62
391.97	0.00
392.16	21.06
392.36	0.00
392.55	0.00
392.75	11.70
392.94	0.00
393.13	28.09
393.33	51.49
393.52	2.34
393.71	0.00
393.91	42.13
394.10	0.00
394.29	35.11
394.49	67.88
394.68	21.06
394.88	77.24
395.07	37.45
395.26	0.00
395.46	0.00
395.65	0.00
395.84	58.51
396.04	74.90
396.23	39.79
396.42	39.79
396.62	72.56
396.81	23.41
397.00	79.58
397.19	25.75
397.39	53.83
397.58	28.09
397.77	51.49
397.97	16.38
398.16	0.00
398.35	32.77
398.55	0.00
398.74	49.15
398.93	0.00
399.12	37.45
399.32	91.28
399.51	37.45
399.70	28.09
399.90	30.43
400.09	58.51
400.28	39.79
400.47	9.36
400.67	0.00
400.86	23.41
401.05	2.34
401.24	37.45
401.44	53.83
401.63	9.36
401.82	37.45
402.01	0.00
402.21	0.00
402.40	42.13
402.59	0.00
402.78	49.15
402.97	14.04
403.17	37.45
403.36	60.85
403.55	39.79
403.74	9.36
403.93	37.45
404.13	100.64
404.32	28.09
404.51	86.60
404.70	42.13
404.89	56.17
405.09	49.15
405.28	14.04
405.47	63.19
405.66	56.17
405.85	0.00
406.05	0.00
406.24	0.00
406.43	60.85
406.62	81.92
406.81	138.09
407.00	0.00
407.20	77.24
407.39	93.62
407.58	46.81
407.77	4.68
407.96	2.34
408.15	21.06
408.34	74.90
408.54	2.34
408.73	18.72
408.92	16.38
409.11	0.00
409.30	14.04
409.49	35.11
409.68	23.41
409.87	65.54
410.07	60.85
410.26	65.54
410.45	0.00
410.64	37.45
410.83	18.72
411.02	23.41
411.21	35.11
411.40	46.81
411.59	51.49
411.78	42.13
411.98	53.83
412.17	21.06
412.36	16.38
412.55	14.04
412.74	23.41
412.93	42.13
413.12	25.75
413.31	46.81
413.50	23.41
413.69	0.00
413.88	70.22
414.07	0.00
414.26	0.00
414.45	23.41
414.64	0.00
414.83	77.24
415.02	49.15
415.22	7.02
415.41	21.06
415.60	28.09
415.79	46.81
415.98	51.49
416.17	0.00
416.36	25.75
416.55	65.54
416.74	84.26
416.93	37.45
417.12	37.45
417.31	0.00
417.50	49.15
417.69	65.54
417.88	37.45
418.07	56.17
418.26	16.38
418.45	95.96
418.64	23.41
418.83	65.54
419.02	88.94
419.21	65.54
419.39	11.70
419.58	93.62
419.77	7.02
419.96	9.36
420.15	149.79
420.34	53.83
420.53	25.75
420.72	42.13
420.91	21.06
421.10	74.90
421.29	9.36
421.48	0.00
421.67	0.00
421.86	46.81
422.05	37.45
422.24	56.17
422.43	0.00
422.61	72.56
422.80	110.01
422.99	51.49
423.18	63.19
423.37	16.38
423.56	25.75
423.75	21.06
423.94	4.68
424.13	0.00
424.32	16.38
424.50	7.02
424.69	53.83
424.88	37.45
425.07	56.17
425.26	18.72
425.45	65.54
425.64	56.17
425.83	60.85
426.01	44.47
426.20	70.22
426.39	11.70
426.58	30.43
426.77	21.06
426.96	49.15
427.15	0.00
427.33	67.88
427.52	7.02
427.71	9.36
427.90	42.13
428.09	46.81
428.28	67.88
428.46	7.02
428.65	0.00
428.84	88.94
429.03	30.43
429.22	18.72
429.40	0.00
429.59	95.96
429.78	21.06
429.97	81.92
430.16	51.49
430.34	18.72
430.53	30.43
430.72	93.62
430.91	88.94
431.10	35.11
431.28	0.00
431.47	67.88
431.66	121.71
431.85	42.13
432.03	0.00
432.22	0.00
432.41	16.38
432.60	30.43
432.79	46.81
432.97	51.49
433.16	35.11
433.35	56.17
433.54	0.00
433.72	156.82
433.91	46.81
434.10	39.79
434.28	0.00
434.47	0.00
434.66	14.04
434.85	0.00
435.03	14.04
435.22	81.92
435.41	0.00
435.59	32.77
435.78	0.00
435.97	0.00
436.16	39.79
436.34	63.19
436.53	0.00
436.72	0.00
436.90	25.75
437.09	7.02
437.28	9.36
437.46	0.00
437.65	51.49
437.84	0.00
438.02	9.36
438.21	37.45
438.40	63.19
438.58	0.00
438.77	56.17
438.96	56.17
439.14	37.45
439.33	16.38
439.52	0.00
439.70	32.77
439.89	30.43
440.08	0.00
440.26	65.54
440.45	2.34
440.63	0.00
440.82	51.49
441.01	25.75
441.19	74.90
441.38	0.00
441.57	14.04
441.75	56.17
441.94	51.49
442.12	51.49
442.31	14.04
442.50	11.70
442.68	60.85
442.87	51.49
443.05	28.09
443.24	93.62
443.43	23.41
443.61	0.00
443.80	39.79
443.98	28.09
444.17	7.02
444.35	140.43
444.54	84.26
444.73	4.68
444.91	88.94
445.10	16.38
445.28	0.00
445.47	74.90
445.65	4.68
445.84	18.72
446.02	0.00
446.21	60.85
446.39	23.41
446.58	102.98
446.77	81.92
446.95	23.41
447.14	11.70
447.32	28.09
447.51	11.70
447.69	37.45
447.88	9.36
448.06	56.17
448.25	0.00
448.43	32.77
448.62	0.00
448.80	46.81
448.99	35.11
449.17	4.68
449.36	7.02
449.54	37.45
449.73	4.68
449.91	0.00
450.10	0.00
450.28	102.98
450.46	25.75
450.65	95.96
450.83	42.13
451.02	11.70
451.20	18.72
451.39	70.22
451.57	67.88
451.76	30.43
451.94	63.19
452.13	9.36
452.31	4.68
452.49	16.38
452.68	0.00
452.86	32.77
453.05	37.45
453.23	63.19
453.42	91.28
453.60	51.49
453.78	0.00
453.97	35.11
454.15	11.70
454.34	16.38
454.52	42.13
454.70	79.58
454.89	0.00
455.07	65.54
455.26	0.00
455.44	65.54
455.62	11.70
455.81	37.45
455.99	65.54
456.17	70.22
456.36	0.00
456.54	67.88
456.73	0.00
456.91	91.28
457.09	9.36
457.28	0.00
457.46	51.49
457.64	0.00
457.83	0.00
458.01	49.15
458.19	0.00
458.38	79.58
458.56	32.77
458.74	9.36
458.93	135.75
459.11	56.17
459.29	39.79
459.48	37.45
459.66	91.28
459.84	37.45
460.03	0.00
460.21	35.11
460.39	60.85
460.57	39.79
460.76	74.90
460.94	70.22
461.12	11.70
461.31	93.62
461.49	39.79
461.67	51.49
461.85	0.00
462.04	56.17
462.22	100.64
462.40	93.62
462.59	14.04
462.77	30.43
462.95	35.11
463.13	88.94
463.32	42.13
463.50	124.05
463.68	23.41
463.86	11.70
464.05	44.47
464.23	95.96
464.41	0.00
464.59	23.41
464.78	0.00
464.96	37.45
465.14	60.85
465.32	14.04
465.50	18.72
465.69	72.56
465.87	74.90
466.05	37.45
466.23	88.94
466.41	32.77
466.60	32.77
466.78	39.79
466.96	28.09
467.14	65.54
467.32	21.06
467.51	63.19
467.69	28.09
467.87	46.81
468.05	147.45
468.23	32.77
468.41	117.03
468.60	0.00
468.78	95.96
468.96	44.47
469.14	70.22
469.32	0.00
469.50	110.01
469.69	72.56
469.87	14.04
470.05	0.00
470.23	37.45
470.41	7.02
470.59	0.00
470.77	105.32
470.95	49.15
471.14	51.49
471.32	4.68
471.50	46.81
471.68	25.75
471.86	49.15
472.04	72.56
472.22	42.13
472.40	42.13
472.58	39.79
472.77	159.16
472.95	0.00
473.13	28.09
473.31	67.88
473.49	0.00
473.67	11.70
473.85	154.48
474.03	51.49
474.21	65.54
474.39	11.70
474.57	0.00
474.75	32.77
474.93	11.70
475.12	51.49
475.30	91.28
475.48	0.00
475.66	74.90
475.84	39.79
476.02	14.04
476.20	32.77
476.38	95.96
476.56	21.06
476.74	18.72
476.92	16.38
477.10	44.47
477.28	0.00
477.46	0.00
477.64	25.75
477.82	35.11
478.00	25.75
478.18	63.19
478.36	51.49
478.54	53.83
478.72	51.49
478.90	23.41
479.08	117.03
479.26	0.00
479.44	7.02
479.62	0.00
479.80	56.17
479.98	21.06
480.16	46.81
480.34	84.26
480.52	0.00
480.70	42.13
480.88	53.83
481.06	0.00
481.24	58.51
481.41	7.02
481.59	42.13
481.77	0.00
481.95	0.00
482.13	18.72
482.31	42.13
482.49	0.00
482.67	65.54
482.85	16.38
483.03	14.04
483.21	49.15
483.39	0.00
483.57	0.00
483.74	0.00
483.92	0.00
484.10	0.00
484.28	74.90
484.46	25.75
484.64	0.00
484.82	56.17
485.00	42.13
485.18	58.51
485.35	60.85
485.53	30.43
485.71	35.11
485.89	42.13
486.07	60.85
486.25	93.62
486.43	0.00
486.61	35.11
486.78	42.13
486.96	86.60
487.14	2.34
487.32	35.11
487.50	0.00
487.68	93.62
487.85	42.13
488.03	0.00
488.21	53.83
488.39	0.00
488.57	46.81
488.75	7.02
488.92	46.81
489.10	7.02
489.28	35.11
489.46	0.00
489.64	49.15
489.81	86.60
489.99	49.15
490.17	37.45
490.35	72.56
490.53	0.00
490.70	0.00
490.88	67.88
491.06	9.36
491.24	58.51
491.41	49.15
491.59	42.13
491.77	72.56
491.95	28.09
492.13	42.13
492.30	21.06
492.48	119.37
492.66	119.37
492.84	16.38
493.01	67.88
493.19	67.88
493.37	37.45
493.54	56.17
493.72	25.75
493.90	2.34
494.08	11.70
494.25	30.43
494.43	53.83
494.61	93.62
494.79	16.38
494.96	88.94
495.14	60.85
495.32	117.03
495.49	30.43
495.67	63.19
495.85	74.90
496.02	42.13
496.20	0.00
496.38	0.00
496.55	35.11
496.73	60.85
496.91	51.49
497.09	81.92
497.26	39.79
497.44	44.47
497.62	2.34
497.79	58.51
497.97	0.00
498.14	49.15
498.32	67.88
498.50	35.11
498.67	93.62
498.85	86.60
499.03	79.58
499.20	107.66
499.38	42.13
499.56	2.34
499.73	95.96
499.91	58.51
500.08	77.24
500.26	30.43
500.44	9.36
500.61	7.02
500.79	0.00
500.97	0.00
501.14	56.17
501.32	0.00
501.49	0.00
501.67	28.09
501.84	53.83
502.02	0.00
502.20	37.45
502.37	49.15
502.55	42.13
502.72	39.79
502.90	84.26
503.07	79.58
503.25	18.72
503.43	28.09
503.60	42.13
503.78	159.16
503.95	112.35
504.13	16.38
504.30	35.11
504.48	51.49
504.65	0.00
504.83	37.45
505.01	81.92
505.18	2.34
505.36	60.85
505.53	9.36
505.71	70.22
505.88	32.77
506.06	70.22
506.23	86.60
506.41	65.54
506.58	2.34
506.76	53.83
506.93	72.56
507.11	0.00
507.28	42.13
507.46	79.58
507.63	7.02
507.81	88.94
507.98	95.96
508.16	25.75
508.33	9.36
508.50	102.98
508.68	0.00
508.85	67.88
509.03	0.00
509.20	37.45
509.38	51.49
509.55	0.00
509.73	84.26
509.90	51.49
510.08	49.15
510.25	32.77
510.42	51.49
510.60	21.06
510.77	39.79
510.95	65.54
511.12	30.43
511.30	65.54
511.47	100.64
511.64	63.19
511.82	0.00
511.99	65.54
512.17	65.54
512.34	114.69
512.51	46.81
512.69	25.75
512.86	51.49
513.04	51.49
513.21	28.09
513.38	11.70
513.56	44.47
513.73	131.07
513.90	117.03
514.08	84.26
514.25	67.88
514.43	46.81
514.60	42.13
514.77	53.83
514.95	30.43
515.12	74.90
515.29	0.00
515.47	53.83
515.64	35.11
515.81	42.13
515.99	58.51
516.16	102.98
516.33	56.17
516.51	0.00
516.68	0.00
516.85	58.51
517.03	21.06
517.20	133.41
517.37	0.00
517.54	30.43
517.72	14.04
517.89	53.83
518.06	0.00
518.24	74.90
518.41	44.47
518.58	119.37
518.75	30.43
518.93	58.51
519.10	42.13
519.27	58.51
519.45	105.32
519.62	114.69
519.79	98.30
519.96	79.58
520.14	9.36
520.31	72.56
520.48	9.36
520.65	98.30
520.83	46.81
521.00	140.43
521.17	0.00
521.34	46.81
521.52	32.77
521.69	63.19
521.86	18.72
522.03	93.62
522.20	63.19
522.38	23.41
522.55	53.83
522.72	42.13
522.89	0.00
523.07	0.00
523.24	60.85
523.41	32.77
523.58	4.68
523.75	56.17
523.92	65.54
524.10	49.15
524.27	86.60
524.44	51.49
524.61	95.96
524.78	72.56
524.96	0.00
525.13	4.68
525.30	0.00
525.47	81.92
525.64	32.77
525.81	37.45
525.98	46.81
526.16	88.94
526.33	124.05
526.50	84.26
526.67	107.66
526.84	60.85
527.01	56.17
527.18	37.45
527.36	93.62
527.53	86.60
527.70	25.75
527.87	39.79
528.04	77.24
528.21	42.13
528.38	28.09
528.55	9.36
528.72	74.90
528.89	16.38
529.07	25.75
529.24	72.56
529.41	110.01
529.58	72.56
529.75	105.32
529.92	39.79
530.09	11.70
530.26	51.49
530.43	30.43
530.60	18.72
530.77	60.85
530.94	49.15
531.11	46.81
531.28	42.13
531.46	23.41
531.63	95.96
531.80	93.62
531.97	11.70
532.14	51.49
532.31	84.26
532.48	39.79
532.65	67.88
532.82	46.81
532.99	70.22
533.16	56.17
533.33	0.00
533.50	16.38
533.67	65.54
533.84	58.51
534.01	53.83
534.18	51.49
534.35	142.77
534.52	0.00
534.69	128.73
534.86	0.00
535.03	84.26
535.20	0.00
535.37	0.00
535.54	46.81
535.71	28.09
535.88	7.02
536.05	86.60
536.22	42.13
536.38	102.98
536.55	74.90
536.72	95.96
536.89	0.00
537.06	32.77
537.23	58.51
537.40	32.77
537.57	0.00
537.74	51.49
537.91	58.51
538.08	42.13
538.25	37.45
538.42	65.54
538.59	39.79
538.75	67.88
538.92	0.00
539.09	44.47
539.26	42.13
539.43	131.07
539.60	152.13
539.77	306.61
539.94	271.50
540.11	212.99
540.28	133.41
540.44	86.60
540.61	110.01
540.78	84.26
540.95	14.04
541.12	53.83
541.29	18.72
541.46	39.79
541.62	49.15
541.79	9.36
541.96	72.56
542.13	88.94
542.30	0.00
542.47	2.34
542.63	49.15
542.80	112.35
542.97	133.41
543.14	77.24
543.31	79.58
543.48	72.56
543.64	51.49
543.81	4.68
543.98	9.36
544.15	9.36
544.32	65.54
544.48	70.22
544.65	0.00
544.82	7.02
544.99	117.03
545.16	21.06
545.32	30.43
545.49	126.39
545.66	0.00
545.83	25.75
546.00	32.77
546.16	35.11
546.33	37.45
546.50	46.81
546.67	37.45
546.83	58.51
547.00	0.00
547.17	23.41
547.34	46.81
547.50	37.45
547.67	39.79
547.84	124.05
548.00	56.17
548.17	14.04
548.34	67.88
548.51	70.22
548.67	70.22
548.84	21.06
549.01	58.51
549.18	102.98
549.34	42.13
549.51	63.19
549.68	37.45
549.84	0.00
550.01	67.88
550.18	11.70
550.34	0.00
550.51	28.09
550.68	88.94
550.84	16.38
551.01	74.90
551.18	56.17
551.34	98.30
551.51	0.00
551.68	0.00
551.84	0.00
552.01	58.51
552.18	4.68
552.34	60.85
552.51	60.85
552.68	0.00
552.84	95.96
553.01	58.51
553.18	21.06
553.34	39.79
553.51	28.09
553.67	74.90
553.84	88.94
554.01	0.00
554.17	72.56
554.34	51.49
554.51	44.47
554.67	49.15
554.84	65.54
555.00	28.09
555.17	9.36
555.33	25.75
555.50	4.68
555.67	0.00
555.83	0.00
556.00	18.72
556.16	56.17
556.33	124.05
556.50	32.77
556.66	58.51
556.83	46.81
556.99	74.90
557.16	0.00
557.32	11.70
557.49	0.00
557.65	67.88
557.82	0.00
557.98	0.00
558.15	21.06
558.32	46.81
558.48	0.00
558.65	70.22
558.81	105.32
558.98	11.70
559.14	0.00
559.31	70.22
559.47	67.88
559.64	0.00
559.80	53.83
559.97	9.36
560.13	0.00
560.30	30.43
560.46	70.22
560.63	0.00
560.79	42.13
560.96	65.54
561.12	30.43
561.29	119.37
561.45	9.36
561.61	32.77
561.78	56.17
561.94	2.34
562.11	49.15
562.27	46.81
562.44	46.81
562.60	65.54
562.77	28.09
562.93	53.83
563.10	53.83
563.26	46.81
563.42	102.98
563.59	77.24
563.75	21.06
563.92	16.38
564.08	138.09
564.24	110.01
564.41	23.41
564.57	9.36
564.74	0.00
564.90	23.41
565.07	0.00
565.23	14.04
565.39	0.00
565.56	11.70
565.72	14.04
565.88	124.05
566.05	0.00
566.21	0.00
566.38	16.38
566.54	0.00
566.70	65.54
566.87	110.01
567.03	42.13
567.19	16.38
567.36	49.15
567.52	42.13
567.68	0.00
567.85	23.41
568.01	56.17
568.17	2.34
568.34	51.49
568.50	63.19
568.66	56.17
568.83	74.90
568.99	42.13
569.15	93.62
569.32	9.36
569.48	18.72
569.64	32.77
569.81	21.06
569.97	51.49
570.13	86.60
570.30	51.49
570.46	58.51
570.62	42.13
570.78	18.72
570.95	39.79
571.11	88.94
571.27	51.49
571.43	39.79
571.60	32.77
571.76	0.00
571.92	16.38
572.09	63.19
572.25	16.38
572.41	58.51
572.57	14.04
572.74	74.90
572.90	67.88
573.06	23.41
573.22	35.11
573.38	14.04
573.55	16.38
573.71	0.00
573.87	56.17
574.03	51.49
574.20	53.83
574.36	0.00
574.52	25.75
574.68	35.11
574.84	65.54
575.01	72.56
575.17	39.79
575.33	0.00
575.49	0.00
575.65	74.90
575.82	65.54
575.98	93.62
576.14	114.69
576.30	124.05
576.46	138.09
576.62	86.60
576.79	58.51
576.95	84.26
577.11	77.24
577.27	67.88
577.43	44.47
577.59	53.83
577.75	42.13
577.92	0.00
578.08	46.81
578.24	84.26
578.40	49.15
578.56	49.15
578.72	32.77
578.88	49.15
579.04	21.06
579.21	56.17
579.37	79.58
579.53	79.58
579.69	70.22
579.85	21.06
580.01	65.54
580.17	95.96
580.33	77.24
580.49	51.49
580.65	37.45
580.82	30.43
580.98	32.77
581.14	0.00
581.30	91.28
581.46	112.35
581.62	86.60
581.78	98.30
581.94	140.43
582.10	147.45
582.26	56.17
582.42	70.22
582.58	35.11
582.74	102.98
582.90	84.26
583.06	84.26
583.22	37.45
583.38	93.62
583.54	86.60
583.70	102.98
583.86	44.47
584.02	117.03
584.18	166.18
584.34	184.90
584.50	592.16
584.66	3985.93
584.82	10717.31
584.98	16886.97
585.14	15295.40
585.30	9322.35
585.46	5502.60
585.62	3545.91
585.78	1661.78
585.94	585.13
586.10	325.33
586.26	227.03
586.42	117.03
586.58	119.37
586.74	65.54
586.90	105.32
587.06	46.81
587.22	140.43
587.38	102.98
587.54	227.03
587.70	692.80
587.86	1111.75
588.02	1226.44
588.18	861.32
588.34	622.58
588.49	355.76
588.65	182.56
588.81	189.58
588.97	39.79
589.13	88.94
589.29	44.47
589.45	77.24
589.61	16.38
589.77	74.90
589.93	102.98
590.08	121.71
590.24	72.56
590.40	37.45
590.56	110.01
590.72	67.88
590.88	102.98
591.04	91.28
591.20	0.00
591.35	60.85
591.51	67.88
591.67	67.88
591.83	63.19
591.99	70.22
592.15	65.54
592.31	56.17
592.46	70.22
592.62	86.60
592.78	32.77
592.94	133.41
593.10	67.88
593.26	79.58
593.41	86.60
593.57	88.94
593.73	135.75
593.89	510.24
594.05	1291.98
594.20	2050.31
594.36	2022.22
594.52	1289.64
594.68	793.44
594.84	582.79
594.99	227.03
595.15	168.52
595.31	51.49
595.47	58.51
595.62	105.32
595.78	51.49
595.94	25.75
596.10	0.00
596.25	93.62
596.41	42.13
596.57	100.64
596.73	67.88
596.88	23.41
597.04	290.23
597.20	463.43
597.36	568.75
597.51	400.23
597.67	224.69
597.83	238.73
597.99	126.39
598.14	42.13
598.30	0.00
598.46	44.47
598.61	102.98
598.77	81.92
598.93	0.00
599.09	98.30
599.24	51.49
599.40	77.24
599.56	21.06
599.71	37.45
599.87	37.45
600.03	21.06
600.18	44.47
600.34	39.79
600.50	53.83
600.65	74.90
600.81	39.79
600.97	14.04
601.12	56.17
601.28	0.00
601.44	91.28
601.59	91.28
601.75	37.45
601.91	37.45
602.06	32.77
602.22	44.47
602.37	161.50
602.53	259.80
602.69	535.98
602.84	592.16
603.00	369.80
603.16	222.35
603.31	208.31
603.47	37.45
603.62	114.69
603.78	65.54
603.94	81.92
604.09	112.35
604.25	16.38
604.40	67.88
604.56	16.38
604.71	21.06
604.87	37.45
605.03	37.45
605.18	9.36
605.34	56.17
605.49	23.41
605.65	9.36
605.80	84.26
605.96	58.51
606.12	117.03
606.27	112.35
606.43	166.18
606.58	56.17
606.74	217.67
606.89	667.05
607.05	1263.89
607.20	1741.36
607.36	1516.67
607.51	999.41
607.67	660.03
607.82	421.30
607.98	280.86
608.13	84.26
608.29	60.85
608.44	30.43
608.60	140.43
608.75	84.26
608.91	210.65
609.06	992.39
609.22	2150.95
609.37	3080.14
609.53	2689.28
609.68	1853.70
609.84	1151.54
609.99	781.74
610.15	390.87
610.30	177.88
610.46	67.88
610.61	70.22
610.76	86.60
610.92	56.17
611.07	0.00
611.23	51.49
611.38	21.06
611.54	46.81
611.69	42.13
611.84	65.54
612.00	145.11
612.15	77.24
612.31	112.35
612.46	166.18
612.62	149.79
612.77	142.77
612.92	159.16
613.08	81.92
613.23	98.30
613.39	110.01
613.54	243.42
613.69	933.87
613.85	2619.06
614.00	4325.31
614.15	4936.19
614.31	3403.14
614.46	2279.68
614.62	1504.96
614.77	959.62
614.92	468.11
615.08	187.24
615.23	126.39
615.38	91.28
615.54	81.92
615.69	203.63
615.84	454.06
616.00	987.71
616.15	1268.57
616.30	1053.24
616.46	763.01
616.61	486.83
616.76	315.97
616.92	198.95
617.07	70.22
617.22	32.77
617.37	51.49
617.53	21.06
617.68	53.83
617.83	56.17
617.99	114.69
618.14	72.56
618.29	88.94
618.45	0.00
618.60	74.90
618.75	35.11
618.90	44.47
619.06	35.11
619.21	37.45
619.36	79.58
619.51	14.04
619.67	72.56
619.82	65.54
619.97	4.68
620.12	39.79
620.28	56.17
620.43	77.24
620.58	67.88
620.73	51.49
620.89	74.90
621.04	86.60
621.19	236.39
621.34	535.98
621.49	746.63
621.65	657.69
621.80	519.60
621.95	311.29
622.10	227.03
622.25	156.82
622.41	65.54
622.56	44.47
622.71	63.19
622.86	16.38
623.01	11.70
623.16	2.34
623.32	7.02
623.47	88.94
623.62	81.92
623.77	77.24
623.92	112.35
624.07	112.35
624.23	72.56
624.38	77.24
624.53	18.72
624.68	98.30
624.83	18.72
624.98	70.22
625.13	72.56
625.29	42.13
625.44	79.58
625.59	35.11
625.74	126.39
625.89	91.28
626.04	447.04
626.19	1238.14
626.34	2319.47
626.49	2567.57
626.65	1886.47
626.80	1301.34
626.95	840.25
627.10	648.33
627.25	299.59
627.40	173.20
627.55	74.90
627.70	23.41
627.85	2.34
628.00	105.32
628.15	67.88
628.30	51.49
628.45	51.49
628.60	49.15
628.76	70.22
628.91	74.90
629.06	14.04
629.21	30.43
629.36	102.98
629.51	44.47
629.66	67.88
629.81	44.47
629.96	271.50
630.11	533.64
630.26	751.31
630.41	585.13
630.56	458.74
630.71	320.65
630.86	220.01
631.01	170.86
631.16	14.04
631.31	58.51
631.46	0.00
631.61	18.72
631.76	30.43
631.91	84.26
632.06	84.26
632.21	114.69
632.36	102.98
632.51	65.54
632.66	65.54
632.81	252.78
632.96	753.65
633.10	1320.06
633.25	1825.62
633.40	1465.18
633.55	985.37
633.70	753.65
633.85	479.81
634.00	220.01
634.15	84.26
634.30	11.70
634.45	88.94
634.60	105.32
634.75	28.09
634.90	147.45
635.05	95.96
635.19	51.49
635.34	51.49
635.49	86.60
635.64	46.81
635.79	56.17
635.94	138.09
636.09	21.06
636.24	112.35
636.39	35.11
636.53	67.88
636.68	46.81
636.83	65.54
636.98	63.19
637.13	79.58
637.28	28.09
637.43	95.96
637.57	196.60
637.72	627.26
637.87	1717.95
638.02	2766.51
638.17	3414.84
638.32	2551.18
638.46	1596.25
638.61	1050.90
638.76	669.39
638.91	330.02
639.06	147.45
639.20	74.90
639.35	110.01
639.50	194.26
639.65	863.66
639.80	2466.92
639.94	4482.13
640.09	5238.12
640.24	3740.18
640.39	2647.15
640.54	1722.63
640.68	1057.92
640.83	440.02
640.98	177.88
641.13	114.69
641.27	105.32
641.42	49.15
641.57	93.62
641.72	56.17
641.86	56.17
642.01	18.72
642.16	35.11
642.31	86.60
642.45	79.58
642.60	65.54
642.75	95.96
642.90	30.43
643.04	7.02
643.19	35.11
643.34	84.26
643.48	60.85
643.63	42.13
643.78	51.49
643.93	23.41
644.07	0.00
644.22	49.15
644.37	44.47
644.51	28.09
644.66	65.54
644.81	4.68
644.95	72.56
645.10	44.47
645.25	32.77
645.39	56.17
645.54	37.45
645.69	0.00
645.83	74.90
645.98	37.45
646.13	49.15
646.27	37.45
646.42	67.88
646.57	16.38
646.71	28.09
646.86	0.00
647.00	35.11
647.15	56.17
647.30	70.22
647.44	0.00
647.59	7.02
647.74	72.56
647.88	37.45
648.03	0.00
648.17	81.92
648.32	0.00
648.47	51.49
648.61	23.41
648.76	53.83
648.90	49.15
649.05	23.41
649.20	28.09
649.34	46.81
649.49	98.30
649.63	0.00
649.78	42.13
649.92	18.72
650.07	341.72
650.21	1018.13
650.36	2176.70
650.51	2649.49
650.65	2244.57
650.80	1614.97
650.94	1057.92
651.09	629.60
651.23	351.08
651.38	210.65
651.52	105.32
651.67	53.83
651.81	25.75
651.96	7.02
652.10	128.73
652.25	35.11
652.39	100.64
652.54	0.00
652.68	131.07
652.83	313.63
652.97	741.95
653.12	952.60
653.26	875.36
653.41	613.22
653.55	435.34
653.70	276.18
653.84	220.01
653.99	131.07
654.13	42.13
654.27	35.11
654.42	23.41
654.56	23.41
654.71	58.51
654.85	18.72
655.00	53.83
655.14	105.32
655.29	25.75
655.43	53.83
655.57	49.15
655.72	37.45
655.86	30.43
656.01	70.22
656.15	0.00
656.30	51.49
656.44	0.00
656.58	67.88
656.73	37.45
656.87	93.62
657.01	14.04
657.16	51.49
657.30	30.43
657.45	21.06
657.59	77.24
657.73	35.11
657.88	49.15
658.02	65.54
658.16	58.51
658.31	25.75
658.45	49.15
658.60	44.47
658.74	21.06
658.88	18.72
659.03	37.45
659.17	49.15
659.31	145.11
659.46	566.41
659.60	926.85
659.74	1357.51
659.89	1177.29
660.03	915.15
660.17	533.64
660.32	454.06
660.46	220.01
660.60	175.54
660.74	107.66
660.89	14.04
661.03	58.51
661.17	18.72
661.32	11.70
661.46	77.24
661.60	0.00
661.74	42.13
661.89	4.68
662.03	0.00
662.17	70.22
662.31	14.04
662.46	9.36
662.60	21.06
662.74	51.49
662.88	119.37
663.03	77.24
663.17	44.47
663.31	30.43
663.45	110.01
663.60	70.22
663.74	14.04
663.88	56.17
664.02	0.00
664.17	81.92
664.31	81.92
664.45	21.06
664.59	35.11
664.73	81.92
664.88	51.49
665.02	84.26
665.16	79.58
665.30	60.85
665.44	0.00
665.59	16.38
665.73	86.60
665.87	95.96
666.01	21.06
666.15	105.32
666.29	102.98
666.44	74.90
666.58	107.66
666.72	88.94
666.86	58.51
667.00	86.60
667.14	107.66
667.28	290.23
667.43	983.02
667.57	1783.49
667.71	2406.07
667.85	1975.41
667.99	1453.47
668.13	1011.11
668.27	552.37
668.41	290.23
668.56	184.90
668.70	128.73
668.84	70.22
668.98	91.28
669.12	58.51
669.26	77.24
669.40	23.41
669.54	25.75
669.68	88.94
669.82	124.05
669.96	21.06
670.10	58.51
670.25	58.51
670.39	67.88
670.53	79.58
670.67	35.11
670.81	65.54
670.95	21.06
671.09	91.28
671.23	381.51
671.37	795.78
671.51	1242.82
671.65	1497.94
671.79	1203.04
671.93	828.55
672.07	484.49
672.21	294.91
672.35	154.48
672.49	112.35
672.63	81.92
672.77	110.01
672.91	0.00
673.05	14.04
673.19	35.11
673.33	56.17
673.47	58.51
673.61	95.96
673.75	18.72
673.89	70.22
674.03	88.94
674.17	32.77
674.31	81.92
674.45	21.06
674.59	0.00
674.73	72.56
674.87	98.30
675.01	0.00
675.15	0.00
675.29	42.13
675.43	67.88
675.56	39.79
675.70	79.58
675.84	0.00
675.98	88.94
676.12	21.06
676.26	25.75
676.40	25.75
676.54	46.81
676.68	28.09
676.82	16.38
676.96	23.41
677.10	65.54
677.23	58.51
677.37	91.28
677.51	28.09
677.65	46.81
677.79	0.00
677.93	18.72
678.07	117.03
678.21	70.22
678.34	58.51
678.48	0.00
678.62	23.41
678.76	32.77
678.90	4.68
679.04	25.75
679.18	46.81
679.31	42.13
679.45	35.11
679.59	30.43
679.73	14.04
679.87	25.75
680.00	51.49
680.14	0.00
680.28	74.90
680.42	4.68
680.56	11.70
680.70	23.41
680.83	46.81
680.97	37.45
681.11	56.17
681.25	56.17
681.39	32.77
681.52	0.00
681.66	0.00
681.80	46.81
681.94	72.56
682.07	81.92
682.21	0.00
682.35	39.79
682.49	18.72
682.62	86.60
682.76	95.96
682.90	86.60
683.04	11.70
683.17	53.83
683.31	46.81
683.45	51.49
683.59	0.00
683.72	39.79
683.86	32.77
684.00	77.24
684.13	0.00
684.27	30.43
684.41	0.00
684.55	60.85
684.68	4.68
684.82	67.88
684.96	60.85
685.09	67.88
685.23	16.38
685.37	39.79
685.50	0.00
685.64	60.85
685.78	23.41
685.91	42.13
686.05	88.94
686.19	7.02
686.32	16.38
686.46	112.35
686.60	37.45
686.73	117.03
686.87	11.70
687.01	51.49
687.14	35.11
687.28	58.51
687.42	0.00
687.55	0.00
687.69	53.83
687.82	86.60
687.96	16.38
688.10	67.88
688.23	32.77
688.37	67.88
688.50	21.06
688.64	93.62
688.78	23.41
688.91	11.70
689.05	0.00
689.18	32.77
689.32	95.96
689.46	74.90
689.59	91.28
689.73	9.36
689.86	35.11
690.00	23.41
690.13	16.38
690.27	14.04
690.41	0.00
690.54	117.03
690.68	0.00
690.81	37.45
690.95	39.79
691.08	37.45
691.22	18.72
691.35	14.04
691.49	0.00
691.62	93.62
691.76	53.83
691.89	51.49
692.03	126.39
692.16	72.56
692.30	112.35
692.43	142.77
692.57	428.32
692.70	695.14
692.84	1020.47
692.97	973.66
693.11	713.86
693.24	552.37
693.38	322.99
693.51	238.73
693.65	222.35
693.78	84.26
693.92	84.26
694.05	93.62
694.19	56.17
694.32	74.90
694.45	0.00
694.59	28.09
694.72	23.41
694.86	37.45
694.99	9.36
695.13	0.00
695.26	0.00
695.39	0.00
695.53	7.02
695.66	7.02
695.80	18.72
695.93	4.68
696.07	28.09
696.20	79.58
696.33	91.28
696.47	142.77
696.60	67.88
696.73	44.47
696.87	67.88
697.00	74.90
697.14	14.04
697.27	49.15
697.40	16.38
697.54	79.58
697.67	39.79
697.80	0.00
697.94	30.43
698.07	28.09
698.21	0.00
698.34	25.75
698.47	35.11
698.61	0.00
698.74	0.00
698.87	0.00
699.01	44.47
699.14	63.19
699.27	0.00
699.40	37.45
699.54	28.09
699.67	23.41
699.80	9.36
699.94	23.41
700.07	88.94
700.20	56.17
700.34	79.58
700.47	138.09
700.60	67.88
700.73	60.85
700.87	93.62
701.00	128.73
701.13	42.13
701.26	25.75
701.40	39.79
701.53	28.09
701.66	7.02
701.79	30.43
701.93	72.56
702.06	30.43
702.19	70.22
702.32	86.60
702.46	91.28
702.59	67.88
702.72	168.52
702.85	575.77
702.99	1139.84
703.12	1671.14
703.25	1923.92
703.38	1636.03
703.51	1355.17
703.65	1062.60
703.78	716.20
703.91	465.77
704.04	341.72
704.17	215.33
704.31	140.43
704.44	91.28
704.57	53.83
704.70	18.72
704.83	79.58
704.96	51.49
705.10	98.30
705.23	60.85
>>>>>End Processed Spectral Data<<<<<
