SpectraSuite Data File
++++++++++++++++++++++++++++++++++++
Date: Fri Oct 04 12:13:25 GMT-05:00 2013
User: price-jones
Dark Spectrum Present: No
Reference Spectrum Present: No
Number of Sampled Component Spectra: 1
Spectrometers: USB2+H05261
Integration Time (usec): 10000 (USB2+H05261)
Spectra Averaged: 1 (USB2+H05261)
Boxcar Smoothing: 0 (USB2+H05261)
Correct for Electrical Dark: No (USB2+H05261)
Strobe/Lamp Enabled: No (USB2+H05261)
Correct for Detector Non-linearity: No (USB2+H05261)
Correct for Stray Light: No (USB2+H05261)
Number of Pixels in Processed Spectrum: 2048
>>>>>Begin Processed Spectral Data<<<<<
365.73	11.70
365.92	11.70
366.12	11.70
366.32	0.00
366.52	0.00
366.72	0.00
366.91	0.00
367.11	0.00
367.31	0.00
367.51	0.00
367.70	0.00
367.90	0.00
368.10	0.00
368.30	0.00
368.49	0.00
368.69	0.00
368.89	0.00
369.09	0.00
369.28	0.00
369.48	0.00
369.68	0.00
369.87	0.00
370.07	0.00
370.27	0.00
370.47	0.00
370.66	0.00
370.86	0.00
371.06	0.00
371.25	25.75
371.45	0.00
371.65	0.00
371.84	0.00
372.04	0.00
372.24	0.00
372.44	0.00
372.63	32.77
372.83	9.36
373.03	0.00
373.22	37.45
373.42	0.00
373.62	0.00
373.81	0.00
374.01	67.88
374.21	53.83
374.40	21.06
374.60	81.92
374.79	49.15
374.99	9.36
375.19	0.00
375.38	42.13
375.58	0.00
375.78	0.00
375.97	37.45
376.17	131.07
376.37	56.17
376.56	0.00
376.76	21.06
376.95	2.34
377.15	42.13
377.35	0.00
377.54	0.00
377.74	9.36
377.93	42.13
378.13	93.62
378.33	30.43
378.52	16.38
378.72	2.34
378.91	23.41
379.11	4.68
379.31	0.00
379.50	14.04
379.70	56.17
379.89	0.00
380.09	0.00
380.28	0.00
380.48	21.06
380.68	14.04
380.87	79.58
381.07	81.92
381.26	70.22
381.46	56.17
381.65	4.68
381.85	105.32
382.04	49.15
382.24	37.45
382.43	28.09
382.63	0.00
382.83	0.00
383.02	51.49
383.22	4.68
383.41	0.00
383.61	0.00
383.80	46.81
384.00	0.00
384.19	0.00
384.39	0.00
384.58	60.85
384.78	23.41
384.97	4.68
385.17	0.00
385.36	35.11
385.56	32.77
385.75	0.00
385.95	0.00
386.14	28.09
386.34	14.04
386.53	0.00
386.72	37.45
386.92	9.36
387.11	49.15
387.31	44.47
387.50	0.00
387.70	9.36
387.89	18.72
388.09	30.43
388.28	70.22
388.48	63.19
388.67	0.00
388.86	0.00
389.06	35.11
389.25	0.00
389.45	9.36
389.64	23.41
389.84	0.00
390.03	70.22
390.22	0.00
390.42	0.00
390.61	11.70
390.81	121.71
391.00	0.00
391.19	60.85
391.39	39.79
391.58	0.00
391.78	16.38
391.97	77.24
392.16	0.00
392.36	44.47
392.55	0.00
392.75	0.00
392.94	0.00
393.13	25.75
393.33	25.75
393.52	0.00
393.71	51.49
393.91	56.17
394.10	0.00
394.29	39.79
394.49	11.70
394.68	7.02
394.88	0.00
395.07	100.64
395.26	9.36
395.46	14.04
395.65	0.00
395.84	4.68
396.04	0.00
396.23	0.00
396.42	0.00
396.62	2.34
396.81	4.68
397.00	0.00
397.19	9.36
397.39	0.00
397.58	35.11
397.77	0.00
397.97	21.06
398.16	0.00
398.35	0.00
398.55	11.70
398.74	9.36
398.93	0.00
399.12	11.70
399.32	0.00
399.51	0.00
399.70	30.43
399.90	35.11
400.09	21.06
400.28	32.77
400.47	63.19
400.67	51.49
400.86	2.34
401.05	77.24
401.24	0.00
401.44	0.00
401.63	23.41
401.82	79.58
402.01	44.47
402.21	32.77
402.40	46.81
402.59	11.70
402.78	0.00
402.97	0.00
403.17	37.45
403.36	37.45
403.55	0.00
403.74	4.68
403.93	49.15
404.13	63.19
404.32	32.77
404.51	67.88
404.70	60.85
404.89	42.13
405.09	0.00
405.28	49.15
405.47	86.60
405.66	65.54
405.85	0.00
406.05	58.51
406.24	0.00
406.43	32.77
406.62	77.24
406.81	23.41
407.00	2.34
407.20	30.43
407.39	39.79
407.58	39.79
407.77	30.43
407.96	32.77
408.15	60.85
408.34	98.30
408.54	49.15
408.73	0.00
408.92	30.43
409.11	0.00
409.30	100.64
409.49	9.36
409.68	0.00
409.87	0.00
410.07	21.06
410.26	14.04
410.45	25.75
410.64	0.00
410.83	105.32
411.02	0.00
411.21	42.13
411.40	9.36
411.59	100.64
411.78	60.85
411.98	25.75
412.17	23.41
412.36	25.75
412.55	63.19
412.74	107.66
412.93	0.00
413.12	86.60
413.31	0.00
413.50	0.00
413.69	32.77
413.88	93.62
414.07	65.54
414.26	0.00
414.45	56.17
414.64	37.45
414.83	0.00
415.02	25.75
415.22	86.60
415.41	42.13
415.60	11.70
415.79	0.00
415.98	0.00
416.17	32.77
416.36	18.72
416.55	25.75
416.74	0.00
416.93	72.56
417.12	0.00
417.31	84.26
417.50	0.00
417.69	102.98
417.88	16.38
418.07	0.00
418.26	23.41
418.45	0.00
418.64	28.09
418.83	16.38
419.02	0.00
419.21	44.47
419.39	25.75
419.58	0.00
419.77	39.79
419.96	25.75
420.15	18.72
420.34	0.00
420.53	37.45
420.72	14.04
420.91	74.90
421.10	39.79
421.29	23.41
421.48	0.00
421.67	9.36
421.86	0.00
422.05	11.70
422.24	84.26
422.43	0.00
422.61	81.92
422.80	42.13
422.99	126.39
423.18	42.13
423.37	4.68
423.56	0.00
423.75	70.22
423.94	14.04
424.13	23.41
424.32	0.00
424.50	0.00
424.69	0.00
424.88	53.83
425.07	0.00
425.26	0.00
425.45	0.00
425.64	60.85
425.83	35.11
426.01	2.34
426.20	0.00
426.39	42.13
426.58	18.72
426.77	25.75
426.96	23.41
427.15	4.68
427.33	0.00
427.52	4.68
427.71	30.43
427.90	35.11
428.09	0.00
428.28	0.00
428.46	7.02
428.65	4.68
428.84	0.00
429.03	58.51
429.22	0.00
429.40	0.00
429.59	4.68
429.78	65.54
429.97	0.00
430.16	56.17
430.34	105.32
430.53	0.00
430.72	65.54
430.91	44.47
431.10	0.00
431.28	0.00
431.47	0.00
431.66	0.00
431.85	39.79
432.03	0.00
432.22	53.83
432.41	51.49
432.60	35.11
432.79	37.45
432.97	77.24
433.16	44.47
433.35	72.56
433.54	81.92
433.72	32.77
433.91	2.34
434.10	0.00
434.28	65.54
434.47	18.72
434.66	32.77
434.85	25.75
435.03	86.60
435.22	58.51
435.41	7.02
435.59	51.49
435.78	126.39
435.97	60.85
436.16	51.49
436.34	51.49
436.53	0.00
436.72	51.49
436.90	0.00
437.09	25.75
437.28	51.49
437.46	0.00
437.65	0.00
437.84	28.09
438.02	35.11
438.21	0.00
438.40	0.00
438.58	0.00
438.77	18.72
438.96	63.19
439.14	46.81
439.33	21.06
439.52	14.04
439.70	18.72
439.89	46.81
440.08	39.79
440.26	53.83
440.45	11.70
440.63	0.00
440.82	0.00
441.01	114.69
441.19	4.68
441.38	77.24
441.57	11.70
441.75	58.51
441.94	32.77
442.12	0.00
442.31	0.00
442.50	0.00
442.68	0.00
442.87	0.00
443.05	39.79
443.24	11.70
443.43	39.79
443.61	79.58
443.80	0.00
443.98	0.00
444.17	0.00
444.35	35.11
444.54	21.06
444.73	21.06
444.91	46.81
445.10	98.30
445.28	0.00
445.47	0.00
445.65	25.75
445.84	98.30
446.02	0.00
446.21	0.00
446.39	0.00
446.58	79.58
446.77	86.60
446.95	7.02
447.14	2.34
447.32	53.83
447.51	49.15
447.69	44.47
447.88	0.00
448.06	32.77
448.25	42.13
448.43	84.26
448.62	42.13
448.80	7.02
448.99	70.22
449.17	30.43
449.36	4.68
449.54	84.26
449.73	0.00
449.91	0.00
450.10	0.00
450.28	16.38
450.46	56.17
450.65	18.72
450.83	9.36
451.02	18.72
451.20	91.28
451.39	2.34
451.57	49.15
451.76	77.24
451.94	58.51
452.13	0.00
452.31	35.11
452.49	58.51
452.68	0.00
452.86	0.00
453.05	0.00
453.23	46.81
453.42	0.00
453.60	42.13
453.78	35.11
453.97	18.72
454.15	95.96
454.34	0.00
454.52	11.70
454.70	63.19
454.89	49.15
455.07	0.00
455.26	28.09
455.44	88.94
455.62	23.41
455.81	56.17
455.99	7.02
456.17	86.60
456.36	42.13
456.54	79.58
456.73	0.00
456.91	11.70
457.09	0.00
457.28	42.13
457.46	18.72
457.64	49.15
457.83	23.41
458.01	25.75
458.19	42.13
458.38	67.88
458.56	79.58
458.74	37.45
458.93	42.13
459.11	63.19
459.29	23.41
459.48	39.79
459.66	30.43
459.84	0.00
460.03	37.45
460.21	49.15
460.39	72.56
460.57	21.06
460.76	56.17
460.94	0.00
461.12	0.00
461.31	16.38
461.49	74.90
461.67	9.36
461.85	0.00
462.04	0.00
462.22	147.45
462.40	65.54
462.59	56.17
462.77	14.04
462.95	37.45
463.13	67.88
463.32	0.00
463.50	0.00
463.68	28.09
463.86	0.00
464.05	124.05
464.23	35.11
464.41	60.85
464.59	0.00
464.78	2.34
464.96	7.02
465.14	21.06
465.32	11.70
465.50	51.49
465.69	42.13
465.87	35.11
466.05	0.00
466.23	72.56
466.41	18.72
466.60	7.02
466.78	0.00
466.96	30.43
467.14	23.41
467.32	58.51
467.51	81.92
467.69	51.49
467.87	0.00
468.05	35.11
468.23	25.75
468.41	67.88
468.60	81.92
468.78	53.83
468.96	32.77
469.14	0.00
469.32	25.75
469.50	72.56
469.69	9.36
469.87	35.11
470.05	77.24
470.23	60.85
470.41	39.79
470.59	37.45
470.77	7.02
470.95	51.49
471.14	0.00
471.32	2.34
471.50	60.85
471.68	44.47
471.86	42.13
472.04	49.15
472.22	23.41
472.40	4.68
472.58	21.06
472.77	46.81
472.95	7.02
473.13	39.79
473.31	95.96
473.49	0.00
473.67	2.34
473.85	39.79
474.03	58.51
474.21	126.39
474.39	53.83
474.57	117.03
474.75	77.24
474.93	30.43
475.12	44.47
475.30	58.51
475.48	70.22
475.66	30.43
475.84	23.41
476.02	18.72
476.20	49.15
476.38	37.45
476.56	60.85
476.74	32.77
476.92	86.60
477.10	0.00
477.28	7.02
477.46	11.70
477.64	84.26
477.82	58.51
478.00	53.83
478.18	25.75
478.36	0.00
478.54	65.54
478.72	2.34
478.90	0.00
479.08	35.11
479.26	98.30
479.44	9.36
479.62	18.72
479.80	70.22
479.98	11.70
480.16	30.43
480.34	0.00
480.52	74.90
480.70	39.79
480.88	16.38
481.06	9.36
481.24	4.68
481.41	58.51
481.59	65.54
481.77	4.68
481.95	65.54
482.13	11.70
482.31	44.47
482.49	30.43
482.67	74.90
482.85	88.94
483.03	4.68
483.21	72.56
483.39	105.32
483.57	4.68
483.74	23.41
483.92	63.19
484.10	0.00
484.28	25.75
484.46	93.62
484.64	72.56
484.82	49.15
485.00	0.00
485.18	21.06
485.35	14.04
485.53	60.85
485.71	0.00
485.89	25.75
486.07	21.06
486.25	51.49
486.43	0.00
486.61	9.36
486.78	70.22
486.96	18.72
487.14	0.00
487.32	70.22
487.50	56.17
487.68	39.79
487.85	49.15
488.03	44.47
488.21	0.00
488.39	16.38
488.57	98.30
488.75	0.00
488.92	16.38
489.10	110.01
489.28	2.34
489.46	0.00
489.64	39.79
489.81	70.22
489.99	0.00
490.17	49.15
490.35	0.00
490.53	42.13
490.70	84.26
490.88	88.94
491.06	30.43
491.24	53.83
491.41	56.17
491.59	72.56
491.77	56.17
491.95	21.06
492.13	21.06
492.30	21.06
492.48	0.00
492.66	74.90
492.84	79.58
493.01	110.01
493.19	0.00
493.37	21.06
493.54	18.72
493.72	39.79
493.90	2.34
494.08	16.38
494.25	0.00
494.43	67.88
494.61	32.77
494.79	39.79
494.96	58.51
495.14	18.72
495.32	49.15
495.49	67.88
495.67	0.00
495.85	2.34
496.02	65.54
496.20	70.22
496.38	2.34
496.55	32.77
496.73	18.72
496.91	88.94
497.09	126.39
497.26	0.00
497.44	0.00
497.62	23.41
497.79	42.13
497.97	77.24
498.14	58.51
498.32	25.75
498.50	98.30
498.67	0.00
498.85	23.41
499.03	0.00
499.20	42.13
499.38	35.11
499.56	0.00
499.73	74.90
499.91	67.88
500.08	121.71
500.26	0.00
500.44	28.09
500.61	30.43
500.79	39.79
500.97	51.49
501.14	53.83
501.32	0.00
501.49	32.77
501.67	42.13
501.84	4.68
502.02	25.75
502.20	100.64
502.37	0.00
502.55	23.41
502.72	51.49
502.90	42.13
503.07	32.77
503.25	88.94
503.43	79.58
503.60	23.41
503.78	0.00
503.95	72.56
504.13	14.04
504.30	46.81
504.48	88.94
504.65	28.09
504.83	37.45
505.01	67.88
505.18	21.06
505.36	32.77
505.53	30.43
505.71	70.22
505.88	67.88
506.06	133.41
506.23	7.02
506.41	67.88
506.58	35.11
506.76	42.13
506.93	0.00
507.11	84.26
507.28	16.38
507.46	51.49
507.63	88.94
507.81	110.01
507.98	0.00
508.16	21.06
508.33	18.72
508.50	32.77
508.68	79.58
508.85	110.01
509.03	0.00
509.20	9.36
509.38	11.70
509.55	28.09
509.73	102.98
509.90	86.60
510.08	49.15
510.25	119.37
510.42	53.83
510.60	21.06
510.77	79.58
510.95	42.13
511.12	42.13
511.30	2.34
511.47	91.28
511.64	25.75
511.82	39.79
511.99	0.00
512.17	32.77
512.34	42.13
512.51	14.04
512.69	49.15
512.86	60.85
513.04	4.68
513.21	0.00
513.38	0.00
513.56	58.51
513.73	0.00
513.90	79.58
514.08	0.00
514.25	72.56
514.43	25.75
514.60	0.00
514.77	0.00
514.95	39.79
515.12	93.62
515.29	35.11
515.47	30.43
515.64	51.49
515.81	74.90
515.99	65.54
516.16	65.54
516.33	65.54
516.51	0.00
516.68	46.81
516.85	84.26
517.03	81.92
517.20	32.77
517.37	72.56
517.54	9.36
517.72	42.13
517.89	114.69
518.06	51.49
518.24	0.00
518.41	70.22
518.58	16.38
518.75	0.00
518.93	0.00
519.10	0.00
519.27	67.88
519.45	0.00
519.62	44.47
519.79	14.04
519.96	0.00
520.14	28.09
520.31	4.68
520.48	58.51
520.65	0.00
520.83	95.96
521.00	93.62
521.17	46.81
521.34	44.47
521.52	32.77
521.69	102.98
521.86	63.19
522.03	39.79
522.20	79.58
522.38	44.47
522.55	79.58
522.72	77.24
522.89	28.09
523.07	84.26
523.24	0.00
523.41	46.81
523.58	4.68
523.75	32.77
523.92	11.70
524.10	81.92
524.27	14.04
524.44	58.51
524.61	135.75
524.78	16.38
524.96	65.54
525.13	0.00
525.30	44.47
525.47	49.15
525.64	42.13
525.81	56.17
525.98	65.54
526.16	49.15
526.33	119.37
526.50	2.34
526.67	7.02
526.84	60.85
527.01	56.17
527.18	56.17
527.36	91.28
527.53	70.22
527.70	46.81
527.87	16.38
528.04	49.15
528.21	60.85
528.38	65.54
528.55	112.35
528.72	100.64
528.89	53.83
529.07	81.92
529.24	135.75
529.41	70.22
529.58	105.32
529.75	30.43
529.92	32.77
530.09	16.38
530.26	42.13
530.43	16.38
530.60	42.13
530.77	0.00
530.94	37.45
531.11	81.92
531.28	51.49
531.46	0.00
531.63	102.98
531.80	105.32
531.97	11.70
532.14	2.34
532.31	0.00
532.48	88.94
532.65	0.00
532.82	110.01
532.99	39.79
533.16	77.24
533.33	51.49
533.50	79.58
533.67	72.56
533.84	102.98
534.01	63.19
534.18	39.79
534.35	0.00
534.52	18.72
534.69	23.41
534.86	67.88
535.03	30.43
535.20	39.79
535.37	91.28
535.54	0.00
535.71	0.00
535.88	56.17
536.05	51.49
536.22	42.13
536.38	100.64
536.55	30.43
536.72	35.11
536.89	56.17
537.06	9.36
537.23	0.00
537.40	18.72
537.57	65.54
537.74	0.00
537.91	51.49
538.08	49.15
538.25	0.00
538.42	88.94
538.59	0.00
538.75	35.11
538.92	7.02
539.09	98.30
539.26	105.32
539.43	0.00
539.60	30.43
539.77	7.02
539.94	58.51
540.11	32.77
540.28	4.68
540.44	30.43
540.61	7.02
540.78	7.02
540.95	65.54
541.12	65.54
541.29	21.06
541.46	84.26
541.62	28.09
541.79	2.34
541.96	0.00
542.13	60.85
542.30	49.15
542.47	2.34
542.63	84.26
542.80	53.83
542.97	28.09
543.14	58.51
543.31	21.06
543.48	37.45
543.64	63.19
543.81	65.54
543.98	60.85
544.15	9.36
544.32	14.04
544.48	0.00
544.65	53.83
544.82	0.00
544.99	16.38
545.16	23.41
545.32	56.17
545.49	0.00
545.66	56.17
545.83	0.00
546.00	102.98
546.16	49.15
546.33	93.62
546.50	0.00
546.67	11.70
546.83	42.13
547.00	35.11
547.17	0.00
547.34	42.13
547.50	128.73
547.67	51.49
547.84	60.85
548.00	84.26
548.17	58.51
548.34	91.28
548.51	30.43
548.67	4.68
548.84	0.00
549.01	46.81
549.18	67.88
549.34	23.41
549.51	98.30
549.68	23.41
549.84	42.13
550.01	21.06
550.18	49.15
550.34	49.15
550.51	0.00
550.68	21.06
550.84	0.00
551.01	46.81
551.18	67.88
551.34	0.00
551.51	58.51
551.68	0.00
551.84	2.34
552.01	30.43
552.18	49.15
552.34	114.69
552.51	32.77
552.68	39.79
552.84	2.34
553.01	18.72
553.18	72.56
553.34	46.81
553.51	53.83
553.67	49.15
553.84	0.00
554.01	0.00
554.17	0.00
554.34	65.54
554.51	58.51
554.67	70.22
554.84	18.72
555.00	0.00
555.17	0.00
555.33	30.43
555.50	11.70
555.67	65.54
555.83	81.92
556.00	25.75
556.16	88.94
556.33	32.77
556.50	53.83
556.66	70.22
556.83	0.00
556.99	63.19
557.16	86.60
557.32	37.45
557.49	28.09
557.65	49.15
557.82	0.00
557.98	44.47
558.15	16.38
558.32	0.00
558.48	124.05
558.65	98.30
558.81	28.09
558.98	37.45
559.14	39.79
559.31	51.49
559.47	25.75
559.64	51.49
559.80	2.34
559.97	84.26
560.13	95.96
560.30	95.96
560.46	79.58
560.63	0.00
560.79	131.07
560.96	84.26
561.12	37.45
561.29	60.85
561.45	28.09
561.61	117.03
561.78	42.13
561.94	70.22
562.11	58.51
562.27	63.19
562.44	65.54
562.60	84.26
562.77	74.90
562.93	67.88
563.10	39.79
563.26	42.13
563.42	74.90
563.59	0.00
563.75	0.00
563.92	35.11
564.08	58.51
564.24	0.00
564.41	70.22
564.57	18.72
564.74	39.79
564.90	0.00
565.07	42.13
565.23	32.77
565.39	56.17
565.56	30.43
565.72	102.98
565.88	51.49
566.05	0.00
566.21	39.79
566.38	35.11
566.54	42.13
566.70	60.85
566.87	0.00
567.03	30.43
567.19	0.00
567.36	77.24
567.52	0.00
567.68	11.70
567.85	25.75
568.01	30.43
568.17	32.77
568.34	46.81
568.50	0.00
568.66	0.00
568.83	0.00
568.99	11.70
569.15	14.04
569.32	37.45
569.48	30.43
569.64	58.51
569.81	98.30
569.97	11.70
570.13	18.72
570.30	32.77
570.46	16.38
570.62	63.19
570.78	42.13
570.95	9.36
571.11	37.45
571.27	39.79
571.43	42.13
571.60	63.19
571.76	25.75
571.92	23.41
572.09	14.04
572.25	7.02
572.41	39.79
572.57	4.68
572.74	28.09
572.90	42.13
573.06	32.77
573.22	0.00
573.38	0.00
573.55	46.81
573.71	11.70
573.87	11.70
574.03	74.90
574.20	88.94
574.36	49.15
574.52	14.04
574.68	102.98
574.84	63.19
575.01	37.45
575.17	42.13
575.33	58.51
575.49	98.30
575.65	37.45
575.82	16.38
575.98	0.00
576.14	67.88
576.30	30.43
576.46	23.41
576.62	81.92
576.79	81.92
576.95	0.00
577.11	35.11
577.27	37.45
577.43	0.00
577.59	11.70
577.75	65.54
577.92	11.70
578.08	67.88
578.24	0.00
578.40	58.51
578.56	42.13
578.72	79.58
578.88	0.00
579.04	7.02
579.21	98.30
579.37	0.00
579.53	65.54
579.69	79.58
579.85	21.06
580.01	46.81
580.17	14.04
580.33	18.72
580.49	51.49
580.65	72.56
580.82	0.00
580.98	0.00
581.14	35.11
581.30	39.79
581.46	67.88
581.62	65.54
581.78	14.04
581.94	0.00
582.10	53.83
582.26	28.09
582.42	77.24
582.58	0.00
582.74	91.28
582.90	4.68
583.06	7.02
583.22	0.00
583.38	16.38
583.54	14.04
583.70	0.00
583.86	44.47
584.02	91.28
584.18	39.79
584.34	11.70
584.50	84.26
584.66	93.62
584.82	74.90
584.98	28.09
585.14	60.85
585.30	32.77
585.46	0.00
585.62	74.90
585.78	88.94
585.94	44.47
586.10	79.58
586.26	42.13
586.42	44.47
586.58	0.00
586.74	0.00
586.90	35.11
587.06	77.24
587.22	0.00
587.38	72.56
587.54	21.06
587.70	95.96
587.86	114.69
588.02	25.75
588.18	88.94
588.34	84.26
588.49	0.00
588.65	32.77
588.81	18.72
588.97	16.38
589.13	21.06
589.29	46.81
589.45	37.45
589.61	32.77
589.77	107.66
589.93	0.00
590.08	91.28
590.24	37.45
590.40	0.00
590.56	18.72
590.72	58.51
590.88	0.00
591.04	44.47
591.20	72.56
591.35	102.98
591.51	84.26
591.67	133.41
591.83	79.58
591.99	56.17
592.15	16.38
592.31	28.09
592.46	28.09
592.62	11.70
592.78	51.49
592.94	25.75
593.10	28.09
593.26	0.00
593.41	84.26
593.57	39.79
593.73	0.00
593.89	30.43
594.05	0.00
594.20	0.00
594.36	70.22
594.52	18.72
594.68	102.98
594.84	21.06
594.99	23.41
595.15	81.92
595.31	2.34
595.47	37.45
595.62	28.09
595.78	2.34
595.94	0.00
596.10	44.47
596.25	37.45
596.41	25.75
596.57	67.88
596.73	60.85
596.88	9.36
597.04	39.79
597.20	0.00
597.36	74.90
597.51	4.68
597.67	21.06
597.83	14.04
597.99	88.94
598.14	25.75
598.30	46.81
598.46	46.81
598.61	72.56
598.77	0.00
598.93	72.56
599.09	77.24
599.24	72.56
599.40	14.04
599.56	102.98
599.71	46.81
599.87	9.36
600.03	63.19
600.18	4.68
600.34	84.26
600.50	49.15
600.65	0.00
600.81	0.00
600.97	56.17
601.12	28.09
601.28	95.96
601.44	51.49
601.59	0.00
601.75	53.83
601.91	18.72
602.06	11.70
602.22	93.62
602.37	0.00
602.53	0.00
602.69	58.51
602.84	16.38
603.00	18.72
603.16	0.00
603.31	74.90
603.47	0.00
603.62	35.11
603.78	37.45
603.94	21.06
604.09	53.83
604.25	46.81
604.40	23.41
604.56	93.62
604.71	18.72
604.87	2.34
605.03	0.00
605.18	18.72
605.34	44.47
605.49	4.68
605.65	98.30
605.80	25.75
605.96	11.70
606.12	42.13
606.27	25.75
606.43	4.68
606.58	72.56
606.74	0.00
606.89	56.17
607.05	67.88
607.20	72.56
607.36	23.41
607.51	25.75
607.67	56.17
607.82	39.79
607.98	21.06
608.13	65.54
608.29	81.92
608.44	63.19
608.60	124.05
608.75	81.92
608.91	23.41
609.06	44.47
609.22	42.13
609.37	77.24
609.53	16.38
609.68	16.38
609.84	49.15
609.99	0.00
610.15	28.09
610.30	72.56
610.46	95.96
610.61	16.38
610.76	60.85
610.92	11.70
611.07	11.70
611.23	60.85
611.38	117.03
611.54	51.49
611.69	32.77
611.84	58.51
612.00	65.54
612.15	42.13
612.31	0.00
612.46	58.51
612.62	0.00
612.77	46.81
612.92	0.00
613.08	53.83
613.23	49.15
613.39	11.70
613.54	58.51
613.69	28.09
613.85	117.03
614.00	0.00
614.15	35.11
614.31	77.24
614.46	77.24
614.62	37.45
614.77	88.94
614.92	35.11
615.08	72.56
615.23	44.47
615.38	51.49
615.54	37.45
615.69	46.81
615.84	0.00
616.00	28.09
616.15	32.77
616.30	30.43
616.46	70.22
616.61	14.04
616.76	46.81
616.92	32.77
617.07	25.75
617.22	42.13
617.37	4.68
617.53	65.54
617.68	51.49
617.83	65.54
617.99	14.04
618.14	42.13
618.29	0.00
618.45	65.54
618.60	79.58
618.75	112.35
618.90	18.72
619.06	37.45
619.21	86.60
619.36	51.49
619.51	37.45
619.67	46.81
619.82	56.17
619.97	0.00
620.12	32.77
620.28	28.09
620.43	72.56
620.58	39.79
620.73	0.00
620.89	0.00
621.04	124.05
621.19	91.28
621.34	102.98
621.49	7.02
621.65	70.22
621.80	81.92
621.95	16.38
622.10	93.62
622.25	46.81
622.41	0.00
622.56	28.09
622.71	79.58
622.86	39.79
623.01	18.72
623.16	0.00
623.32	16.38
623.47	37.45
623.62	102.98
623.77	133.41
623.92	44.47
624.07	0.00
624.23	37.45
624.38	63.19
624.53	98.30
624.68	58.51
624.83	35.11
624.98	7.02
625.13	42.13
625.29	56.17
625.44	28.09
625.59	32.77
625.74	0.00
625.89	91.28
626.04	79.58
626.19	49.15
626.34	28.09
626.49	28.09
626.65	37.45
626.80	49.15
626.95	65.54
627.10	2.34
627.25	46.81
627.40	117.03
627.55	81.92
627.70	46.81
627.85	7.02
628.00	32.77
628.15	0.00
628.30	105.32
628.45	0.00
628.60	0.00
628.76	0.00
628.91	28.09
629.06	72.56
629.21	18.72
629.36	65.54
629.51	86.60
629.66	42.13
629.81	42.13
629.96	18.72
630.11	46.81
630.26	53.83
630.41	110.01
630.56	7.02
630.71	7.02
630.86	25.75
631.01	72.56
631.16	72.56
631.31	105.32
631.46	65.54
631.61	49.15
631.76	60.85
631.91	16.38
632.06	65.54
632.21	32.77
632.36	35.11
632.51	39.79
632.66	7.02
632.81	28.09
632.96	30.43
633.10	37.45
633.25	39.79
633.40	37.45
633.55	84.26
633.70	67.88
633.85	42.13
634.00	0.00
634.15	81.92
634.30	11.70
634.45	37.45
634.60	16.38
634.75	14.04
634.90	77.24
635.05	56.17
635.19	67.88
635.34	37.45
635.49	65.54
635.64	56.17
635.79	88.94
635.94	81.92
636.09	0.00
636.24	23.41
636.39	30.43
636.53	39.79
636.68	58.51
636.83	16.38
636.98	93.62
637.13	39.79
637.28	21.06
637.43	70.22
637.57	70.22
637.72	32.77
637.87	65.54
638.02	28.09
638.17	9.36
638.32	44.47
638.46	70.22
638.61	42.13
638.76	98.30
638.91	0.00
639.06	67.88
639.20	46.81
639.35	23.41
639.50	67.88
639.65	42.13
639.80	4.68
639.94	0.00
640.09	67.88
640.24	81.92
640.39	72.56
640.54	81.92
640.68	14.04
640.83	0.00
640.98	18.72
641.13	44.47
641.27	117.03
641.42	32.77
641.57	77.24
641.72	18.72
641.86	23.41
642.01	74.90
642.16	21.06
642.31	0.00
642.45	121.71
642.60	74.90
642.75	56.17
642.90	28.09
643.04	11.70
643.19	37.45
643.34	37.45
643.48	0.00
643.63	0.00
643.78	58.51
643.93	39.79
644.07	4.68
644.22	51.49
644.37	35.11
644.51	0.00
644.66	79.58
644.81	0.00
644.95	25.75
645.10	0.00
645.25	35.11
645.39	58.51
645.54	0.00
645.69	77.24
645.83	32.77
645.98	30.43
646.13	77.24
646.27	7.02
646.42	93.62
646.57	42.13
646.71	23.41
646.86	60.85
647.00	0.00
647.15	65.54
647.30	39.79
647.44	37.45
647.59	32.77
647.74	63.19
647.88	65.54
648.03	35.11
648.17	44.47
648.32	63.19
648.47	2.34
648.61	44.47
648.76	35.11
648.90	0.00
649.05	84.26
649.20	35.11
649.34	0.00
649.49	0.00
649.63	39.79
649.78	14.04
649.92	65.54
650.07	53.83
650.21	0.00
650.36	0.00
650.51	49.15
650.65	25.75
650.80	14.04
650.94	112.35
651.09	58.51
651.23	0.00
651.38	0.00
651.52	23.41
651.67	95.96
651.81	0.00
651.96	18.72
652.10	53.83
652.25	0.00
652.39	37.45
652.54	91.28
652.68	16.38
652.83	56.17
652.97	70.22
653.12	0.00
653.26	25.75
653.41	42.13
653.55	18.72
653.70	0.00
653.84	32.77
653.99	7.02
654.13	0.00
654.27	49.15
654.42	0.00
654.56	14.04
654.71	0.00
654.85	51.49
655.00	74.90
655.14	4.68
655.29	0.00
655.43	51.49
655.57	67.88
655.72	32.77
655.86	23.41
656.01	28.09
656.15	74.90
656.30	0.00
656.44	46.81
656.58	63.19
656.73	14.04
656.87	74.90
657.01	56.17
657.16	67.88
657.30	72.56
657.45	28.09
657.59	0.00
657.73	23.41
657.88	0.00
658.02	11.70
658.16	98.30
658.31	0.00
658.45	35.11
658.60	18.72
658.74	4.68
658.88	74.90
659.03	16.38
659.17	51.49
659.31	49.15
659.46	49.15
659.60	0.00
659.74	95.96
659.89	86.60
660.03	86.60
660.17	49.15
660.32	46.81
660.46	88.94
660.60	0.00
660.74	0.00
660.89	35.11
661.03	14.04
661.17	16.38
661.32	28.09
661.46	0.00
661.60	7.02
661.74	65.54
661.89	60.85
662.03	16.38
662.17	23.41
662.31	98.30
662.46	18.72
662.60	4.68
662.74	16.38
662.88	28.09
663.03	0.00
663.17	0.00
663.31	46.81
663.45	65.54
663.60	70.22
663.74	95.96
663.88	46.81
664.02	0.00
664.17	51.49
664.31	56.17
664.45	84.26
664.59	0.00
664.73	0.00
664.88	72.56
665.02	7.02
665.16	25.75
665.30	0.00
665.44	49.15
665.59	28.09
665.73	81.92
665.87	0.00
666.01	0.00
666.15	32.77
666.29	39.79
666.44	25.75
666.58	18.72
666.72	2.34
666.86	81.92
667.00	84.26
667.14	0.00
667.28	53.83
667.43	30.43
667.57	44.47
667.71	67.88
667.85	56.17
667.99	117.03
668.13	0.00
668.27	32.77
668.41	46.81
668.56	21.06
668.70	0.00
668.84	58.51
668.98	53.83
669.12	0.00
669.26	37.45
669.40	46.81
669.54	25.75
669.68	44.47
669.82	0.00
669.96	0.00
670.10	0.00
670.25	0.00
670.39	30.43
670.53	0.00
670.67	58.51
670.81	30.43
670.95	35.11
671.09	0.00
671.23	39.79
671.37	37.45
671.51	0.00
671.65	0.00
671.79	0.00
671.93	16.38
672.07	0.00
672.21	35.11
672.35	18.72
672.49	56.17
672.63	28.09
672.77	0.00
672.91	32.77
673.05	23.41
673.19	42.13
673.33	37.45
673.47	23.41
673.61	39.79
673.75	11.70
673.89	37.45
674.03	58.51
674.17	91.28
674.31	32.77
674.45	0.00
674.59	11.70
674.73	44.47
674.87	28.09
675.01	0.00
675.15	72.56
675.29	16.38
675.43	100.64
675.56	0.00
675.70	28.09
675.84	9.36
675.98	0.00
676.12	30.43
676.26	18.72
676.40	51.49
676.54	18.72
676.68	25.75
676.82	18.72
676.96	32.77
677.10	79.58
677.23	23.41
677.37	74.90
677.51	0.00
677.65	21.06
677.79	21.06
677.93	56.17
678.07	46.81
678.21	0.00
678.34	0.00
678.48	32.77
678.62	70.22
678.76	44.47
678.90	25.75
679.04	58.51
679.18	28.09
679.31	63.19
679.45	0.00
679.59	95.96
679.73	86.60
679.87	60.85
680.00	0.00
680.14	63.19
680.28	21.06
680.42	117.03
680.56	25.75
680.70	0.00
680.83	49.15
680.97	39.79
681.11	0.00
681.25	42.13
681.39	30.43
681.52	0.00
681.66	23.41
681.80	58.51
681.94	58.51
682.07	81.92
682.21	23.41
682.35	0.00
682.49	49.15
682.62	58.51
682.76	46.81
682.90	51.49
683.04	7.02
683.17	0.00
683.31	14.04
683.45	0.00
683.59	28.09
683.72	16.38
683.86	0.00
684.00	74.90
684.13	23.41
684.27	81.92
684.41	56.17
684.55	95.96
684.68	79.58
684.82	117.03
684.96	107.66
685.09	67.88
685.23	0.00
685.37	0.00
685.50	0.00
685.64	9.36
685.78	9.36
685.91	56.17
686.05	23.41
686.19	7.02
686.32	23.41
686.46	51.49
686.60	65.54
686.73	84.26
686.87	35.11
687.01	21.06
687.14	42.13
687.28	0.00
687.42	7.02
687.55	0.00
687.69	16.38
687.82	70.22
687.96	0.00
688.10	35.11
688.23	65.54
688.37	0.00
688.50	53.83
688.64	16.38
688.78	9.36
688.91	9.36
689.05	32.77
689.18	58.51
689.32	65.54
689.46	0.00
689.59	74.90
689.73	14.04
689.86	23.41
690.00	30.43
690.13	11.70
690.27	4.68
690.41	0.00
690.54	58.51
690.68	32.77
690.81	9.36
690.95	28.09
691.08	0.00
691.22	91.28
691.35	7.02
691.49	65.54
691.62	102.98
691.76	93.62
691.89	46.81
692.03	79.58
692.16	28.09
692.30	72.56
692.43	21.06
692.57	65.54
692.70	28.09
692.84	65.54
692.97	49.15
693.11	51.49
693.24	21.06
693.38	44.47
693.51	44.47
693.65	74.90
693.78	28.09
693.92	63.19
694.05	11.70
694.19	67.88
694.32	16.38
694.45	93.62
694.59	0.00
694.72	25.75
694.86	23.41
694.99	32.77
695.13	39.79
695.26	60.85
695.39	0.00
695.53	63.19
695.66	46.81
695.80	51.49
695.93	0.00
696.07	32.77
696.20	32.77
696.33	16.38
696.47	49.15
696.60	0.00
696.73	67.88
696.87	77.24
697.00	23.41
697.14	0.00
697.27	0.00
697.40	28.09
697.54	32.77
697.67	21.06
697.80	25.75
697.94	4.68
698.07	0.00
698.21	53.83
698.34	0.00
698.47	0.00
698.61	0.00
698.74	46.81
698.87	72.56
699.01	102.98
699.14	46.81
699.27	67.88
699.40	21.06
699.54	35.11
699.67	100.64
699.80	42.13
699.94	16.38
700.07	0.00
700.20	0.00
700.34	25.75
700.47	112.35
700.60	53.83
700.73	44.47
700.87	21.06
701.00	0.00
701.13	74.90
701.26	28.09
701.40	0.00
701.53	0.00
701.66	14.04
701.79	28.09
701.93	0.00
702.06	9.36
702.19	0.00
702.32	0.00
702.46	25.75
702.59	2.34
702.72	60.85
702.85	32.77
702.99	79.58
703.12	49.15
703.25	11.70
703.38	0.00
703.51	46.81
703.65	2.34
703.78	53.83
703.91	79.58
704.04	95.96
704.17	70.22
704.31	11.70
704.44	0.00
704.57	39.79
704.70	0.00
704.83	58.51
704.96	4.68
705.10	74.90
705.23	0.00
>>>>>End Processed Spectral Data<<<<<
