SpectraSuite Data File
++++++++++++++++++++++++++++++++++++
Date: Fri Oct 04 12:13:34 GMT-05:00 2013
User: price-jones
Dark Spectrum Present: No
Reference Spectrum Present: No
Number of Sampled Component Spectra: 1
Spectrometers: USB2+H05261
Integration Time (usec): 10000 (USB2+H05261)
Spectra Averaged: 1 (USB2+H05261)
Boxcar Smoothing: 0 (USB2+H05261)
Correct for Electrical Dark: No (USB2+H05261)
Strobe/Lamp Enabled: No (USB2+H05261)
Correct for Detector Non-linearity: No (USB2+H05261)
Correct for Stray Light: No (USB2+H05261)
Number of Pixels in Processed Spectrum: 2048
>>>>>Begin Processed Spectral Data<<<<<
365.73	0.00
365.92	0.00
366.12	0.00
366.32	0.00
366.52	0.00
366.72	0.00
366.91	0.00
367.11	0.00
367.31	0.00
367.51	0.00
367.70	0.00
367.90	0.00
368.10	0.00
368.30	0.00
368.49	0.00
368.69	0.00
368.89	0.00
369.09	0.00
369.28	0.00
369.48	0.00
369.68	0.00
369.87	0.00
370.07	0.00
370.27	0.00
370.47	0.00
370.66	0.00
370.86	0.00
371.06	0.00
371.25	11.70
371.45	0.00
371.65	0.00
371.84	23.41
372.04	0.00
372.24	0.00
372.44	0.00
372.63	4.68
372.83	0.00
373.03	0.00
373.22	25.75
373.42	32.77
373.62	16.38
373.81	70.22
374.01	0.00
374.21	60.85
374.40	37.45
374.60	98.30
374.79	58.51
374.99	0.00
375.19	0.00
375.38	0.00
375.58	72.56
375.78	70.22
375.97	32.77
376.17	37.45
376.37	93.62
376.56	28.09
376.76	53.83
376.95	23.41
377.15	42.13
377.35	49.15
377.54	18.72
377.74	117.03
377.93	0.00
378.13	9.36
378.33	42.13
378.52	23.41
378.72	0.00
378.91	72.56
379.11	44.47
379.31	42.13
379.50	18.72
379.70	0.00
379.89	39.79
380.09	21.06
380.28	95.96
380.48	30.43
380.68	0.00
380.87	53.83
381.07	0.00
381.26	35.11
381.46	58.51
381.65	51.49
381.85	49.15
382.04	110.01
382.24	0.00
382.43	0.00
382.63	35.11
382.83	77.24
383.02	44.47
383.22	86.60
383.41	0.00
383.61	30.43
383.80	11.70
384.00	0.00
384.19	46.81
384.39	0.00
384.58	0.00
384.78	0.00
384.97	0.00
385.17	0.00
385.36	65.54
385.56	30.43
385.75	39.79
385.95	0.00
386.14	11.70
386.34	117.03
386.53	32.77
386.72	0.00
386.92	0.00
387.11	0.00
387.31	72.56
387.50	102.98
387.70	0.00
387.89	30.43
388.09	39.79
388.28	37.45
388.48	0.00
388.67	100.64
388.86	0.00
389.06	7.02
389.25	53.83
389.45	35.11
389.64	0.00
389.84	49.15
390.03	25.75
390.22	0.00
390.42	49.15
390.61	42.13
390.81	28.09
391.00	0.00
391.19	16.38
391.39	16.38
391.58	77.24
391.78	58.51
391.97	28.09
392.16	49.15
392.36	23.41
392.55	72.56
392.75	0.00
392.94	11.70
393.13	0.00
393.33	0.00
393.52	0.00
393.71	46.81
393.91	14.04
394.10	0.00
394.29	4.68
394.49	65.54
394.68	7.02
394.88	35.11
395.07	46.81
395.26	56.17
395.46	0.00
395.65	0.00
395.84	46.81
396.04	53.83
396.23	84.26
396.42	65.54
396.62	49.15
396.81	11.70
397.00	39.79
397.19	30.43
397.39	81.92
397.58	37.45
397.77	0.00
397.97	16.38
398.16	37.45
398.35	37.45
398.55	0.00
398.74	0.00
398.93	35.11
399.12	53.83
399.32	14.04
399.51	46.81
399.70	21.06
399.90	25.75
400.09	0.00
400.28	67.88
400.47	21.06
400.67	0.00
400.86	0.00
401.05	18.72
401.24	0.00
401.44	0.00
401.63	84.26
401.82	21.06
402.01	18.72
402.21	124.05
402.40	60.85
402.59	4.68
402.78	23.41
402.97	77.24
403.17	35.11
403.36	72.56
403.55	39.79
403.74	16.38
403.93	30.43
404.13	18.72
404.32	53.83
404.51	124.05
404.70	63.19
404.89	37.45
405.09	28.09
405.28	0.00
405.47	49.15
405.66	16.38
405.85	32.77
406.05	42.13
406.24	42.13
406.43	23.41
406.62	42.13
406.81	4.68
407.00	0.00
407.20	79.58
407.39	35.11
407.58	37.45
407.77	79.58
407.96	49.15
408.15	60.85
408.34	37.45
408.54	51.49
408.73	44.47
408.92	4.68
409.11	18.72
409.30	2.34
409.49	28.09
409.68	0.00
409.87	21.06
410.07	100.64
410.26	39.79
410.45	37.45
410.64	30.43
410.83	14.04
411.02	9.36
411.21	4.68
411.40	70.22
411.59	56.17
411.78	25.75
411.98	32.77
412.17	44.47
412.36	25.75
412.55	18.72
412.74	0.00
412.93	49.15
413.12	37.45
413.31	49.15
413.50	16.38
413.69	70.22
413.88	0.00
414.07	46.81
414.26	28.09
414.45	0.00
414.64	2.34
414.83	65.54
415.02	44.47
415.22	46.81
415.41	81.92
415.60	0.00
415.79	0.00
415.98	4.68
416.17	0.00
416.36	58.51
416.55	0.00
416.74	4.68
416.93	0.00
417.12	16.38
417.31	56.17
417.50	70.22
417.69	25.75
417.88	79.58
418.07	56.17
418.26	16.38
418.45	37.45
418.64	0.00
418.83	56.17
419.02	60.85
419.21	65.54
419.39	53.83
419.58	42.13
419.77	37.45
419.96	0.00
420.15	14.04
420.34	30.43
420.53	46.81
420.72	39.79
420.91	42.13
421.10	35.11
421.29	102.98
421.48	39.79
421.67	56.17
421.86	60.85
422.05	0.00
422.24	117.03
422.43	42.13
422.61	0.00
422.80	0.00
422.99	0.00
423.18	51.49
423.37	0.00
423.56	35.11
423.75	11.70
423.94	18.72
424.13	21.06
424.32	72.56
424.50	79.58
424.69	60.85
424.88	60.85
425.07	51.49
425.26	65.54
425.45	25.75
425.64	72.56
425.83	163.84
426.01	81.92
426.20	154.48
426.39	79.58
426.58	121.71
426.77	58.51
426.96	16.38
427.15	77.24
427.33	46.81
427.52	23.41
427.71	56.17
427.90	0.00
428.09	35.11
428.28	23.41
428.46	53.83
428.65	32.77
428.84	51.49
429.03	16.38
429.22	39.79
429.40	44.47
429.59	70.22
429.78	32.77
429.97	28.09
430.16	37.45
430.34	44.47
430.53	86.60
430.72	0.00
430.91	16.38
431.10	39.79
431.28	14.04
431.47	88.94
431.66	25.75
431.85	0.00
432.03	84.26
432.22	46.81
432.41	46.81
432.60	51.49
432.79	16.38
432.97	133.41
433.16	49.15
433.35	70.22
433.54	60.85
433.72	49.15
433.91	18.72
434.10	67.88
434.28	28.09
434.47	65.54
434.66	28.09
434.85	0.00
435.03	95.96
435.22	81.92
435.41	35.11
435.59	63.19
435.78	86.60
435.97	53.83
436.16	28.09
436.34	35.11
436.53	49.15
436.72	28.09
436.90	84.26
437.09	72.56
437.28	25.75
437.46	42.13
437.65	67.88
437.84	84.26
438.02	23.41
438.21	32.77
438.40	7.02
438.58	0.00
438.77	51.49
438.96	51.49
439.14	53.83
439.33	72.56
439.52	42.13
439.70	25.75
439.89	51.49
440.08	93.62
440.26	25.75
440.45	21.06
440.63	70.22
440.82	58.51
441.01	51.49
441.19	35.11
441.38	14.04
441.57	63.19
441.75	28.09
441.94	102.98
442.12	60.85
442.31	79.58
442.50	152.13
442.68	88.94
442.87	49.15
443.05	107.66
443.24	9.36
443.43	88.94
443.61	42.13
443.80	25.75
443.98	84.26
444.17	0.00
444.35	32.77
444.54	46.81
444.73	30.43
444.91	70.22
445.10	102.98
445.28	35.11
445.47	18.72
445.65	30.43
445.84	0.00
446.02	67.88
446.21	114.69
446.39	35.11
446.58	21.06
446.77	0.00
446.95	53.83
447.14	58.51
447.32	74.90
447.51	70.22
447.69	56.17
447.88	79.58
448.06	91.28
448.25	0.00
448.43	32.77
448.62	23.41
448.80	84.26
448.99	77.24
449.17	63.19
449.36	51.49
449.54	142.77
449.73	18.72
449.91	18.72
450.10	32.77
450.28	42.13
450.46	53.83
450.65	42.13
450.83	95.96
451.02	65.54
451.20	28.09
451.39	0.00
451.57	60.85
451.76	95.96
451.94	81.92
452.13	86.60
452.31	42.13
452.49	79.58
452.68	42.13
452.86	37.45
453.05	21.06
453.23	30.43
453.42	23.41
453.60	18.72
453.78	86.60
453.97	21.06
454.15	74.90
454.34	51.49
454.52	0.00
454.70	0.00
454.89	42.13
455.07	63.19
455.26	79.58
455.44	53.83
455.62	56.17
455.81	114.69
455.99	110.01
456.17	30.43
456.36	65.54
456.54	0.00
456.73	72.56
456.91	79.58
457.09	18.72
457.28	84.26
457.46	67.88
457.64	77.24
457.83	28.09
458.01	23.41
458.19	32.77
458.38	107.66
458.56	65.54
458.74	32.77
458.93	140.43
459.11	30.43
459.29	77.24
459.48	131.07
459.66	39.79
459.84	23.41
460.03	67.88
460.21	44.47
460.39	0.00
460.57	84.26
460.76	42.13
460.94	74.90
461.12	145.11
461.31	46.81
461.49	44.47
461.67	98.30
461.85	58.51
462.04	21.06
462.22	119.37
462.40	79.58
462.59	107.66
462.77	11.70
462.95	37.45
463.13	18.72
463.32	18.72
463.50	0.00
463.68	91.28
463.86	11.70
464.05	7.02
464.23	35.11
464.41	18.72
464.59	25.75
464.78	0.00
464.96	25.75
465.14	152.13
465.32	58.51
465.50	16.38
465.69	42.13
465.87	35.11
466.05	133.41
466.23	16.38
466.41	65.54
466.60	58.51
466.78	70.22
466.96	44.47
467.14	23.41
467.32	70.22
467.51	37.45
467.69	53.83
467.87	74.90
468.05	21.06
468.23	56.17
468.41	102.98
468.60	60.85
468.78	63.19
468.96	11.70
469.14	25.75
469.32	0.00
469.50	42.13
469.69	105.32
469.87	86.60
470.05	16.38
470.23	16.38
470.41	98.30
470.59	65.54
470.77	77.24
470.95	9.36
471.14	142.77
471.32	65.54
471.50	28.09
471.68	46.81
471.86	49.15
472.04	0.00
472.22	30.43
472.40	81.92
472.58	39.79
472.77	42.13
472.95	42.13
473.13	53.83
473.31	7.02
473.49	18.72
473.67	88.94
473.85	11.70
474.03	0.00
474.21	53.83
474.39	46.81
474.57	138.09
474.75	77.24
474.93	74.90
475.12	74.90
475.30	72.56
475.48	112.35
475.66	60.85
475.84	124.05
476.02	35.11
476.20	35.11
476.38	91.28
476.56	0.00
476.74	42.13
476.92	63.19
477.10	23.41
477.28	102.98
477.46	60.85
477.64	18.72
477.82	70.22
478.00	42.13
478.18	60.85
478.36	95.96
478.54	93.62
478.72	93.62
478.90	30.43
479.08	70.22
479.26	0.00
479.44	23.41
479.62	0.00
479.80	51.49
479.98	114.69
480.16	95.96
480.34	51.49
480.52	86.60
480.70	138.09
480.88	86.60
481.06	16.38
481.24	44.47
481.41	133.41
481.59	126.39
481.77	32.77
481.95	42.13
482.13	88.94
482.31	84.26
482.49	60.85
482.67	135.75
482.85	42.13
483.03	74.90
483.21	102.98
483.39	49.15
483.57	46.81
483.74	110.01
483.92	93.62
484.10	67.88
484.28	112.35
484.46	88.94
484.64	23.41
484.82	42.13
485.00	84.26
485.18	51.49
485.35	79.58
485.53	114.69
485.71	77.24
485.89	60.85
486.07	79.58
486.25	100.64
486.43	88.94
486.61	93.62
486.78	0.00
486.96	60.85
487.14	77.24
487.32	58.51
487.50	44.47
487.68	72.56
487.85	117.03
488.03	112.35
488.21	88.94
488.39	100.64
488.57	102.98
488.75	72.56
488.92	77.24
489.10	93.62
489.28	86.60
489.46	32.77
489.64	91.28
489.81	114.69
489.99	11.70
490.17	4.68
490.35	72.56
490.53	58.51
490.70	180.22
490.88	105.32
491.06	77.24
491.24	44.47
491.41	79.58
491.59	77.24
491.77	79.58
491.95	67.88
492.13	0.00
492.30	39.79
492.48	70.22
492.66	53.83
492.84	91.28
493.01	32.77
493.19	79.58
493.37	93.62
493.54	91.28
493.72	63.19
493.90	163.84
494.08	91.28
494.25	88.94
494.43	95.96
494.61	84.26
494.79	65.54
494.96	30.43
495.14	28.09
495.32	65.54
495.49	93.62
495.67	49.15
495.85	74.90
496.02	119.37
496.20	58.51
496.38	46.81
496.55	91.28
496.73	74.90
496.91	49.15
497.09	126.39
497.26	140.43
497.44	56.17
497.62	77.24
497.79	77.24
497.97	63.19
498.14	95.96
498.32	28.09
498.50	140.43
498.67	98.30
498.85	107.66
499.03	65.54
499.20	149.79
499.38	121.71
499.56	65.54
499.73	77.24
499.91	138.09
500.08	91.28
500.26	81.92
500.44	105.32
500.61	51.49
500.79	21.06
500.97	46.81
501.14	84.26
501.32	84.26
501.49	114.69
501.67	126.39
501.84	0.00
502.02	77.24
502.20	70.22
502.37	67.88
502.55	74.90
502.72	168.52
502.90	30.43
503.07	44.47
503.25	56.17
503.43	105.32
503.60	117.03
503.78	154.48
503.95	93.62
504.13	37.45
504.30	0.00
504.48	74.90
504.65	72.56
504.83	63.19
505.01	138.09
505.18	32.77
505.36	112.35
505.53	23.41
505.71	110.01
505.88	88.94
506.06	124.05
506.23	37.45
506.41	0.00
506.58	98.30
506.76	110.01
506.93	98.30
507.11	30.43
507.28	21.06
507.46	93.62
507.63	135.75
507.81	39.79
507.98	58.51
508.16	39.79
508.33	100.64
508.50	100.64
508.68	46.81
508.85	110.01
509.03	149.79
509.20	124.05
509.38	79.58
509.55	67.88
509.73	39.79
509.90	100.64
510.08	77.24
510.25	32.77
510.42	124.05
510.60	67.88
510.77	170.86
510.95	70.22
511.12	102.98
511.30	107.66
511.47	124.05
511.64	112.35
511.82	124.05
511.99	23.41
512.17	86.60
512.34	56.17
512.51	91.28
512.69	135.75
512.86	58.51
513.04	126.39
513.21	91.28
513.38	42.13
513.56	84.26
513.73	70.22
513.90	121.71
514.08	102.98
514.25	21.06
514.43	81.92
514.60	39.79
514.77	70.22
514.95	42.13
515.12	100.64
515.29	53.83
515.47	74.90
515.64	79.58
515.81	67.88
515.99	95.96
516.16	35.11
516.33	147.45
516.51	156.82
516.68	100.64
516.85	84.26
517.03	177.88
517.20	79.58
517.37	189.58
517.54	95.96
517.72	81.92
517.89	46.81
518.06	70.22
518.24	46.81
518.41	91.28
518.58	84.26
518.75	67.88
518.93	60.85
519.10	105.32
519.27	79.58
519.45	124.05
519.62	100.64
519.79	147.45
519.96	91.28
520.14	93.62
520.31	93.62
520.48	2.34
520.65	84.26
520.83	81.92
521.00	53.83
521.17	100.64
521.34	70.22
521.52	121.71
521.69	117.03
521.86	72.56
522.03	117.03
522.20	58.51
522.38	53.83
522.55	30.43
522.72	84.26
522.89	126.39
523.07	70.22
523.24	128.73
523.41	95.96
523.58	79.58
523.75	131.07
523.92	81.92
524.10	74.90
524.27	74.90
524.44	67.88
524.61	102.98
524.78	121.71
524.96	84.26
525.13	49.15
525.30	138.09
525.47	112.35
525.64	88.94
525.81	4.68
525.98	74.90
526.16	91.28
526.33	44.47
526.50	72.56
526.67	67.88
526.84	39.79
527.01	65.54
527.18	18.72
527.36	124.05
527.53	98.30
527.70	42.13
527.87	86.60
528.04	98.30
528.21	145.11
528.38	56.17
528.55	72.56
528.72	79.58
528.89	88.94
529.07	56.17
529.24	65.54
529.41	51.49
529.58	74.90
529.75	65.54
529.92	121.71
530.09	67.88
530.26	32.77
530.43	95.96
530.60	166.18
530.77	95.96
530.94	72.56
531.11	23.41
531.28	65.54
531.46	86.60
531.63	88.94
531.80	86.60
531.97	114.69
532.14	131.07
532.31	98.30
532.48	102.98
532.65	74.90
532.82	30.43
532.99	105.32
533.16	102.98
533.33	98.30
533.50	79.58
533.67	100.64
533.84	72.56
534.01	58.51
534.18	152.13
534.35	58.51
534.52	98.30
534.69	60.85
534.86	88.94
535.03	23.41
535.20	133.41
535.37	60.85
535.54	42.13
535.71	81.92
535.88	72.56
536.05	46.81
536.22	102.98
536.38	128.73
536.55	138.09
536.72	56.17
536.89	67.88
537.06	70.22
537.23	138.09
537.40	56.17
537.57	142.77
537.74	65.54
537.91	124.05
538.08	114.69
538.25	114.69
538.42	72.56
538.59	84.26
538.75	56.17
538.92	28.09
539.09	135.75
539.26	98.30
539.43	147.45
539.60	149.79
539.77	161.50
539.94	79.58
540.11	88.94
540.28	110.01
540.44	145.11
540.61	39.79
540.78	84.26
540.95	93.62
541.12	168.52
541.29	95.96
541.46	60.85
541.62	128.73
541.79	135.75
541.96	72.56
542.13	79.58
542.30	35.11
542.47	84.26
542.63	79.58
542.80	124.05
542.97	84.26
543.14	63.19
543.31	23.41
543.48	67.88
543.64	81.92
543.81	9.36
543.98	74.90
544.15	107.66
544.32	72.56
544.48	128.73
544.65	63.19
544.82	117.03
544.99	0.00
545.16	107.66
545.32	121.71
545.49	102.98
545.66	65.54
545.83	91.28
546.00	100.64
546.16	86.60
546.33	86.60
546.50	56.17
546.67	105.32
546.83	49.15
547.00	63.19
547.17	23.41
547.34	44.47
547.50	88.94
547.67	98.30
547.84	102.98
548.00	93.62
548.17	86.60
548.34	95.96
548.51	105.32
548.67	84.26
548.84	128.73
549.01	35.11
549.18	91.28
549.34	86.60
549.51	88.94
549.68	170.86
549.84	98.30
550.01	51.49
550.18	81.92
550.34	107.66
550.51	23.41
550.68	70.22
550.84	79.58
551.01	100.64
551.18	65.54
551.34	51.49
551.51	88.94
551.68	124.05
551.84	102.98
552.01	46.81
552.18	77.24
552.34	112.35
552.51	88.94
552.68	128.73
552.84	0.00
553.01	70.22
553.18	107.66
553.34	156.82
553.51	79.58
553.67	32.77
553.84	105.32
554.01	70.22
554.17	56.17
554.34	95.96
554.51	112.35
554.67	98.30
554.84	154.48
555.00	77.24
555.17	37.45
555.33	102.98
555.50	70.22
555.67	16.38
555.83	46.81
556.00	119.37
556.16	147.45
556.33	121.71
556.50	117.03
556.66	46.81
556.83	98.30
556.99	72.56
557.16	88.94
557.32	77.24
557.49	98.30
557.65	100.64
557.82	102.98
557.98	91.28
558.15	56.17
558.32	65.54
558.48	44.47
558.65	93.62
558.81	84.26
558.98	119.37
559.14	93.62
559.31	91.28
559.47	81.92
559.64	72.56
559.80	135.75
559.97	49.15
560.13	124.05
560.30	74.90
560.46	100.64
560.63	142.77
560.79	65.54
560.96	53.83
561.12	53.83
561.29	105.32
561.45	142.77
561.61	98.30
561.78	95.96
561.94	60.85
562.11	28.09
562.27	28.09
562.44	30.43
562.60	110.01
562.77	110.01
562.93	93.62
563.10	30.43
563.26	67.88
563.42	184.90
563.59	95.96
563.75	7.02
563.92	93.62
564.08	112.35
564.24	140.43
564.41	93.62
564.57	79.58
564.74	95.96
564.90	32.77
565.07	114.69
565.23	105.32
565.39	84.26
565.56	114.69
565.72	84.26
565.88	63.19
566.05	93.62
566.21	72.56
566.38	30.43
566.54	102.98
566.70	46.81
566.87	39.79
567.03	77.24
567.19	124.05
567.36	100.64
567.52	133.41
567.68	114.69
567.85	56.17
568.01	91.28
568.17	53.83
568.34	81.92
568.50	63.19
568.66	95.96
568.83	112.35
568.99	72.56
569.15	81.92
569.32	102.98
569.48	74.90
569.64	28.09
569.81	67.88
569.97	107.66
570.13	70.22
570.30	18.72
570.46	32.77
570.62	105.32
570.78	60.85
570.95	88.94
571.11	107.66
571.27	46.81
571.43	84.26
571.60	74.90
571.76	133.41
571.92	30.43
572.09	79.58
572.25	88.94
572.41	98.30
572.57	39.79
572.74	49.15
572.90	49.15
573.06	74.90
573.22	114.69
573.38	65.54
573.55	60.85
573.71	84.26
573.87	60.85
574.03	14.04
574.20	25.75
574.36	42.13
574.52	86.60
574.68	124.05
574.84	53.83
575.01	35.11
575.17	79.58
575.33	39.79
575.49	28.09
575.65	79.58
575.82	65.54
575.98	128.73
576.14	32.77
576.30	95.96
576.46	110.01
576.62	93.62
576.79	117.03
576.95	84.26
577.11	58.51
577.27	98.30
577.43	138.09
577.59	0.00
577.75	39.79
577.92	112.35
578.08	4.68
578.24	145.11
578.40	65.54
578.56	67.88
578.72	121.71
578.88	88.94
579.04	119.37
579.21	56.17
579.37	102.98
579.53	11.70
579.69	58.51
579.85	133.41
580.01	53.83
580.17	79.58
580.33	102.98
580.49	39.79
580.65	74.90
580.82	65.54
580.98	114.69
581.14	72.56
581.30	110.01
581.46	37.45
581.62	98.30
581.78	81.92
581.94	156.82
582.10	39.79
582.26	84.26
582.42	21.06
582.58	42.13
582.74	95.96
582.90	30.43
583.06	140.43
583.22	46.81
583.38	9.36
583.54	67.88
583.70	133.41
583.86	42.13
584.02	110.01
584.18	98.30
584.34	53.83
584.50	58.51
584.66	46.81
584.82	11.70
584.98	100.64
585.14	37.45
585.30	79.58
585.46	105.32
585.62	42.13
585.78	79.58
585.94	154.48
586.10	112.35
586.26	112.35
586.42	121.71
586.58	60.85
586.74	79.58
586.90	30.43
587.06	35.11
587.22	14.04
587.38	93.62
587.54	28.09
587.70	72.56
587.86	107.66
588.02	70.22
588.18	154.48
588.34	110.01
588.49	86.60
588.65	30.43
588.81	30.43
588.97	93.62
589.13	53.83
589.29	25.75
589.45	70.22
589.61	25.75
589.77	100.64
589.93	152.13
590.08	60.85
590.24	58.51
590.40	105.32
590.56	58.51
590.72	102.98
590.88	58.51
591.04	49.15
591.20	72.56
591.35	0.00
591.51	42.13
591.67	74.90
591.83	51.49
591.99	124.05
592.15	86.60
592.31	63.19
592.46	72.56
592.62	42.13
592.78	4.68
592.94	98.30
593.10	32.77
593.26	72.56
593.41	74.90
593.57	114.69
593.73	102.98
593.89	63.19
594.05	74.90
594.20	74.90
594.36	140.43
594.52	74.90
594.68	102.98
594.84	100.64
594.99	63.19
595.15	88.94
595.31	58.51
595.47	86.60
595.62	117.03
595.78	67.88
595.94	70.22
596.10	53.83
596.25	11.70
596.41	37.45
596.57	58.51
596.73	67.88
596.88	74.90
597.04	79.58
597.20	86.60
597.36	58.51
597.51	124.05
597.67	53.83
597.83	44.47
597.99	121.71
598.14	86.60
598.30	142.77
598.46	70.22
598.61	51.49
598.77	49.15
598.93	60.85
599.09	14.04
599.24	98.30
599.40	117.03
599.56	72.56
599.71	72.56
599.87	77.24
600.03	100.64
600.18	86.60
600.34	53.83
600.50	105.32
600.65	70.22
600.81	0.00
600.97	72.56
601.12	37.45
601.28	102.98
601.44	107.66
601.59	105.32
601.75	32.77
601.91	67.88
602.06	30.43
602.22	112.35
602.37	93.62
602.53	119.37
602.69	42.13
602.84	124.05
603.00	32.77
603.16	119.37
603.31	25.75
603.47	81.92
603.62	77.24
603.78	0.00
603.94	84.26
604.09	53.83
604.25	112.35
604.40	74.90
604.56	102.98
604.71	65.54
604.87	32.77
605.03	56.17
605.18	11.70
605.34	135.75
605.49	98.30
605.65	44.47
605.80	77.24
605.96	56.17
606.12	105.32
606.27	110.01
606.43	86.60
606.58	46.81
606.74	88.94
606.89	60.85
607.05	145.11
607.20	100.64
607.36	63.19
607.51	70.22
607.67	39.79
607.82	16.38
607.98	105.32
608.13	145.11
608.29	32.77
608.44	77.24
608.60	93.62
608.75	46.81
608.91	81.92
609.06	163.84
609.22	23.41
609.37	58.51
609.53	53.83
609.68	88.94
609.84	46.81
609.99	110.01
610.15	70.22
610.30	119.37
610.46	63.19
610.61	60.85
610.76	25.75
610.92	93.62
611.07	35.11
611.23	77.24
611.38	79.58
611.54	138.09
611.69	107.66
611.84	4.68
612.00	44.47
612.15	58.51
612.31	84.26
612.46	65.54
612.62	70.22
612.77	156.82
612.92	74.90
613.08	72.56
613.23	102.98
613.39	0.00
613.54	0.00
613.69	56.17
613.85	84.26
614.00	84.26
614.15	114.69
614.31	98.30
614.46	110.01
614.62	46.81
614.77	81.92
614.92	53.83
615.08	11.70
615.23	44.47
615.38	60.85
615.54	93.62
615.69	77.24
615.84	79.58
616.00	95.96
616.15	98.30
616.30	72.56
616.46	16.38
616.61	65.54
616.76	0.00
616.92	86.60
617.07	74.90
617.22	86.60
617.37	0.00
617.53	119.37
617.68	105.32
617.83	142.77
617.99	84.26
618.14	42.13
618.29	0.00
618.45	0.00
618.60	133.41
618.75	70.22
618.90	51.49
619.06	110.01
619.21	67.88
619.36	9.36
619.51	63.19
619.67	102.98
619.82	37.45
619.97	93.62
620.12	56.17
620.28	21.06
620.43	63.19
620.58	53.83
620.73	93.62
620.89	51.49
621.04	67.88
621.19	28.09
621.34	88.94
621.49	91.28
621.65	84.26
621.80	0.00
621.95	65.54
622.10	93.62
622.25	65.54
622.41	46.81
622.56	77.24
622.71	30.43
622.86	46.81
623.01	35.11
623.16	67.88
623.32	133.41
623.47	60.85
623.62	0.00
623.77	70.22
623.92	4.68
624.07	77.24
624.23	77.24
624.38	124.05
624.53	105.32
624.68	46.81
624.83	58.51
624.98	142.77
625.13	35.11
625.29	35.11
625.44	39.79
625.59	67.88
625.74	21.06
625.89	93.62
626.04	53.83
626.19	56.17
626.34	28.09
626.49	86.60
626.65	23.41
626.80	44.47
626.95	110.01
627.10	11.70
627.25	88.94
627.40	30.43
627.55	28.09
627.70	114.69
627.85	81.92
628.00	49.15
628.15	74.90
628.30	23.41
628.45	25.75
628.60	114.69
628.76	84.26
628.91	100.64
629.06	93.62
629.21	37.45
629.36	91.28
629.51	25.75
629.66	42.13
629.81	91.28
629.96	28.09
630.11	37.45
630.26	86.60
630.41	79.58
630.56	65.54
630.71	44.47
630.86	65.54
631.01	65.54
631.16	46.81
631.31	95.96
631.46	42.13
631.61	46.81
631.76	46.81
631.91	7.02
632.06	42.13
632.21	81.92
632.36	175.54
632.51	32.77
632.66	95.96
632.81	100.64
632.96	58.51
633.10	39.79
633.25	93.62
633.40	67.88
633.55	93.62
633.70	67.88
633.85	110.01
634.00	88.94
634.15	35.11
634.30	58.51
634.45	18.72
634.60	51.49
634.75	95.96
634.90	51.49
635.05	42.13
635.19	56.17
635.34	70.22
635.49	44.47
635.64	95.96
635.79	44.47
635.94	32.77
636.09	79.58
636.24	77.24
636.39	95.96
636.53	28.09
636.68	63.19
636.83	18.72
636.98	25.75
637.13	0.00
637.28	18.72
637.43	110.01
637.57	18.72
637.72	49.15
637.87	86.60
638.02	163.84
638.17	112.35
638.32	4.68
638.46	60.85
638.61	42.13
638.76	0.00
638.91	56.17
639.06	16.38
639.20	65.54
639.35	2.34
639.50	77.24
639.65	63.19
639.80	77.24
639.94	84.26
640.09	100.64
640.24	0.00
640.39	81.92
640.54	32.77
640.68	121.71
640.83	56.17
640.98	102.98
641.13	138.09
641.27	44.47
641.42	65.54
641.57	28.09
641.72	93.62
641.86	39.79
642.01	102.98
642.16	93.62
642.31	142.77
642.45	81.92
642.60	98.30
642.75	46.81
642.90	65.54
643.04	30.43
643.19	72.56
643.34	119.37
643.48	117.03
643.63	18.72
643.78	72.56
643.93	119.37
644.07	35.11
644.22	53.83
644.37	46.81
644.51	98.30
644.66	93.62
644.81	117.03
644.95	30.43
645.10	105.32
645.25	51.49
645.39	35.11
645.54	51.49
645.69	86.60
645.83	46.81
645.98	35.11
646.13	79.58
646.27	81.92
646.42	28.09
646.57	67.88
646.71	60.85
646.86	86.60
647.00	88.94
647.15	58.51
647.30	88.94
647.44	25.75
647.59	88.94
647.74	135.75
647.88	37.45
648.03	18.72
648.17	42.13
648.32	35.11
648.47	37.45
648.61	23.41
648.76	72.56
648.90	65.54
649.05	63.19
649.20	105.32
649.34	67.88
649.49	0.00
649.63	25.75
649.78	67.88
649.92	84.26
650.07	4.68
650.21	67.88
650.36	0.00
650.51	30.43
650.65	70.22
650.80	121.71
650.94	88.94
651.09	119.37
651.23	42.13
651.38	79.58
651.52	84.26
651.67	63.19
651.81	88.94
651.96	21.06
652.10	72.56
652.25	72.56
652.39	72.56
652.54	32.77
652.68	138.09
652.83	56.17
652.97	56.17
653.12	77.24
653.26	23.41
653.41	30.43
653.55	32.77
653.70	39.79
653.84	0.00
653.99	49.15
654.13	86.60
654.27	32.77
654.42	28.09
654.56	18.72
654.71	30.43
654.85	70.22
655.00	100.64
655.14	79.58
655.29	60.85
655.43	49.15
655.57	88.94
655.72	124.05
655.86	16.38
656.01	0.00
656.15	60.85
656.30	88.94
656.44	18.72
656.58	0.00
656.73	18.72
656.87	124.05
657.01	25.75
657.16	86.60
657.30	88.94
657.45	7.02
657.59	28.09
657.73	119.37
657.88	79.58
658.02	81.92
658.16	0.00
658.31	4.68
658.45	39.79
658.60	79.58
658.74	56.17
658.88	28.09
659.03	60.85
659.17	46.81
659.31	84.26
659.46	58.51
659.60	39.79
659.74	28.09
659.89	77.24
660.03	72.56
660.17	126.39
660.32	60.85
660.46	0.00
660.60	84.26
660.74	49.15
660.89	49.15
661.03	74.90
661.17	110.01
661.32	30.43
661.46	72.56
661.60	42.13
661.74	70.22
661.89	126.39
662.03	60.85
662.17	51.49
662.31	84.26
662.46	65.54
662.60	70.22
662.74	28.09
662.88	37.45
663.03	81.92
663.17	124.05
663.31	51.49
663.45	84.26
663.60	67.88
663.74	56.17
663.88	23.41
664.02	74.90
664.17	67.88
664.31	105.32
664.45	63.19
664.59	16.38
664.73	37.45
664.88	72.56
665.02	124.05
665.16	28.09
665.30	0.00
665.44	32.77
665.59	110.01
665.73	44.47
665.87	98.30
666.01	0.00
666.15	32.77
666.29	49.15
666.44	25.75
666.58	65.54
666.72	65.54
666.86	46.81
667.00	63.19
667.14	0.00
667.28	23.41
667.43	18.72
667.57	67.88
667.71	42.13
667.85	70.22
667.99	35.11
668.13	79.58
668.27	91.28
668.41	51.49
668.56	0.00
668.70	110.01
668.84	49.15
668.98	2.34
669.12	39.79
669.26	58.51
669.40	56.17
669.54	0.00
669.68	9.36
669.82	56.17
669.96	95.96
670.10	44.47
670.25	18.72
670.39	9.36
670.53	23.41
670.67	72.56
670.81	65.54
670.95	81.92
671.09	81.92
671.23	91.28
671.37	30.43
671.51	35.11
671.65	42.13
671.79	91.28
671.93	42.13
672.07	140.43
672.21	11.70
672.35	0.00
672.49	138.09
672.63	44.47
672.77	56.17
672.91	88.94
673.05	102.98
673.19	51.49
673.33	18.72
673.47	42.13
673.61	84.26
673.75	0.00
673.89	16.38
674.03	58.51
674.17	25.75
674.31	74.90
674.45	49.15
674.59	51.49
674.73	67.88
674.87	39.79
675.01	30.43
675.15	56.17
675.29	49.15
675.43	9.36
675.56	60.85
675.70	39.79
675.84	51.49
675.98	30.43
676.12	67.88
676.26	0.00
676.40	84.26
676.54	60.85
676.68	100.64
676.82	74.90
676.96	35.11
677.10	0.00
677.23	7.02
677.37	18.72
677.51	44.47
677.65	21.06
677.79	63.19
677.93	46.81
678.07	117.03
678.21	46.81
678.34	53.83
678.48	7.02
678.62	60.85
678.76	14.04
678.90	88.94
679.04	7.02
679.18	95.96
679.31	74.90
679.45	0.00
679.59	30.43
679.73	110.01
679.87	2.34
680.00	0.00
680.14	0.00
680.28	32.77
680.42	32.77
680.56	42.13
680.70	58.51
680.83	0.00
680.97	37.45
681.11	11.70
681.25	102.98
681.39	74.90
681.52	81.92
681.66	39.79
681.80	58.51
681.94	28.09
682.07	56.17
682.21	93.62
682.35	44.47
682.49	23.41
682.62	11.70
682.76	30.43
682.90	72.56
683.04	39.79
683.17	121.71
683.31	46.81
683.45	14.04
683.59	53.83
683.72	67.88
683.86	46.81
684.00	25.75
684.13	28.09
684.27	30.43
684.41	46.81
684.55	44.47
684.68	23.41
684.82	128.73
684.96	28.09
685.09	65.54
685.23	95.96
685.37	46.81
685.50	30.43
685.64	51.49
685.78	86.60
685.91	107.66
686.05	98.30
686.19	0.00
686.32	88.94
686.46	79.58
686.60	74.90
686.73	110.01
686.87	117.03
687.01	56.17
687.14	0.00
687.28	91.28
687.42	88.94
687.55	77.24
687.69	11.70
687.82	53.83
687.96	32.77
688.10	58.51
688.23	30.43
688.37	84.26
688.50	72.56
688.64	30.43
688.78	16.38
688.91	44.47
689.05	23.41
689.18	53.83
689.32	72.56
689.46	72.56
689.59	53.83
689.73	0.00
689.86	16.38
690.00	0.00
690.13	0.00
690.27	95.96
690.41	58.51
690.54	30.43
690.68	30.43
690.81	32.77
690.95	16.38
691.08	30.43
691.22	56.17
691.35	14.04
691.49	7.02
691.62	4.68
691.76	58.51
691.89	7.02
692.03	65.54
692.16	98.30
692.30	0.00
692.43	11.70
692.57	39.79
692.70	44.47
692.84	65.54
692.97	70.22
693.11	70.22
693.24	77.24
693.38	46.81
693.51	65.54
693.65	35.11
693.78	32.77
693.92	49.15
694.05	9.36
694.19	65.54
694.32	60.85
694.45	110.01
694.59	28.09
694.72	35.11
694.86	95.96
694.99	42.13
695.13	58.51
695.26	4.68
695.39	63.19
695.53	28.09
695.66	58.51
695.80	81.92
695.93	37.45
696.07	0.00
696.20	2.34
696.33	60.85
696.47	72.56
696.60	35.11
696.73	18.72
696.87	86.60
697.00	60.85
697.14	0.00
697.27	0.00
697.40	4.68
697.54	21.06
697.67	0.00
697.80	58.51
697.94	18.72
698.07	77.24
698.21	72.56
698.34	0.00
698.47	23.41
698.61	74.90
698.74	32.77
698.87	77.24
699.01	42.13
699.14	53.83
699.27	30.43
699.40	49.15
699.54	0.00
699.67	0.00
699.80	28.09
699.94	0.00
700.07	42.13
700.20	0.00
700.34	16.38
700.47	44.47
700.60	37.45
700.73	56.17
700.87	39.79
701.00	58.51
701.13	25.75
701.26	42.13
701.40	4.68
701.53	0.00
701.66	42.13
701.79	35.11
701.93	98.30
702.06	35.11
702.19	32.77
702.32	88.94
702.46	86.60
702.59	74.90
702.72	11.70
702.85	30.43
702.99	35.11
703.12	37.45
703.25	4.68
703.38	98.30
703.51	74.90
703.65	0.00
703.78	0.00
703.91	14.04
704.04	74.90
704.17	35.11
704.31	49.15
704.44	28.09
704.57	16.38
704.70	100.64
704.83	7.02
704.96	121.71
705.10	0.00
705.23	65.54
>>>>>End Processed Spectral Data<<<<<
