SpectraSuite Data File
++++++++++++++++++++++++++++++++++++
Date: Fri Oct 04 12:13:26 GMT-05:00 2013
User: price-jones
Dark Spectrum Present: No
Reference Spectrum Present: No
Number of Sampled Component Spectra: 1
Spectrometers: USB2+H05261
Integration Time (usec): 10000 (USB2+H05261)
Spectra Averaged: 1 (USB2+H05261)
Boxcar Smoothing: 0 (USB2+H05261)
Correct for Electrical Dark: No (USB2+H05261)
Strobe/Lamp Enabled: No (USB2+H05261)
Correct for Detector Non-linearity: No (USB2+H05261)
Correct for Stray Light: No (USB2+H05261)
Number of Pixels in Processed Spectrum: 2048
>>>>>Begin Processed Spectral Data<<<<<
365.73	0.00
365.92	0.00
366.12	0.00
366.32	0.00
366.52	0.00
366.72	0.00
366.91	0.00
367.11	0.00
367.31	0.00
367.51	0.00
367.70	0.00
367.90	0.00
368.10	0.00
368.30	0.00
368.49	0.00
368.69	0.00
368.89	0.00
369.09	0.00
369.28	0.00
369.48	0.00
369.68	0.00
369.87	0.00
370.07	0.00
370.27	0.00
370.47	0.00
370.66	0.00
370.86	0.00
371.06	0.00
371.25	0.00
371.45	0.00
371.65	0.00
371.84	14.04
372.04	0.00
372.24	0.00
372.44	0.00
372.63	2.34
372.83	46.81
373.03	28.09
373.22	0.00
373.42	23.41
373.62	56.17
373.81	21.06
374.01	37.45
374.21	74.90
374.40	74.90
374.60	84.26
374.79	0.00
374.99	65.54
375.19	0.00
375.38	2.34
375.58	67.88
375.78	51.49
375.97	23.41
376.17	105.32
376.37	16.38
376.56	63.19
376.76	88.94
376.95	0.00
377.15	2.34
377.35	32.77
377.54	35.11
377.74	37.45
377.93	37.45
378.13	4.68
378.33	7.02
378.52	60.85
378.72	0.00
378.91	0.00
379.11	0.00
379.31	0.00
379.50	9.36
379.70	0.00
379.89	4.68
380.09	98.30
380.28	4.68
380.48	16.38
380.68	39.79
380.87	0.00
381.07	28.09
381.26	37.45
381.46	11.70
381.65	42.13
381.85	0.00
382.04	32.77
382.24	86.60
382.43	14.04
382.63	37.45
382.83	0.00
383.02	0.00
383.22	67.88
383.41	0.00
383.61	28.09
383.80	0.00
384.00	18.72
384.19	67.88
384.39	4.68
384.58	51.49
384.78	70.22
384.97	49.15
385.17	0.00
385.36	0.00
385.56	28.09
385.75	2.34
385.95	0.00
386.14	60.85
386.34	53.83
386.53	0.00
386.72	86.60
386.92	14.04
387.11	56.17
387.31	0.00
387.50	0.00
387.70	23.41
387.89	60.85
388.09	9.36
388.28	0.00
388.48	56.17
388.67	67.88
388.86	63.19
389.06	14.04
389.25	49.15
389.45	37.45
389.64	0.00
389.84	0.00
390.03	35.11
390.22	30.43
390.42	60.85
390.61	0.00
390.81	0.00
391.00	21.06
391.19	0.00
391.39	11.70
391.58	0.00
391.78	72.56
391.97	0.00
392.16	14.04
392.36	4.68
392.55	39.79
392.75	0.00
392.94	4.68
393.13	0.00
393.33	0.00
393.52	0.00
393.71	25.75
393.91	0.00
394.10	77.24
394.29	21.06
394.49	0.00
394.68	23.41
394.88	49.15
395.07	30.43
395.26	23.41
395.46	67.88
395.65	11.70
395.84	72.56
396.04	100.64
396.23	4.68
396.42	28.09
396.62	0.00
396.81	0.00
397.00	0.00
397.19	23.41
397.39	93.62
397.58	25.75
397.77	0.00
397.97	2.34
398.16	0.00
398.35	0.00
398.55	0.00
398.74	0.00
398.93	44.47
399.12	32.77
399.32	2.34
399.51	67.88
399.70	0.00
399.90	2.34
400.09	0.00
400.28	4.68
400.47	18.72
400.67	42.13
400.86	7.02
401.05	0.00
401.24	42.13
401.44	51.49
401.63	0.00
401.82	0.00
402.01	9.36
402.21	63.19
402.40	56.17
402.59	77.24
402.78	74.90
402.97	18.72
403.17	14.04
403.36	46.81
403.55	65.54
403.74	49.15
403.93	67.88
404.13	37.45
404.32	0.00
404.51	0.00
404.70	102.98
404.89	0.00
405.09	32.77
405.28	4.68
405.47	0.00
405.66	0.00
405.85	21.06
406.05	42.13
406.24	0.00
406.43	46.81
406.62	37.45
406.81	11.70
407.00	0.00
407.20	9.36
407.39	60.85
407.58	0.00
407.77	60.85
407.96	11.70
408.15	18.72
408.34	16.38
408.54	2.34
408.73	0.00
408.92	0.00
409.11	93.62
409.30	2.34
409.49	28.09
409.68	4.68
409.87	0.00
410.07	30.43
410.26	0.00
410.45	9.36
410.64	9.36
410.83	0.00
411.02	0.00
411.21	0.00
411.40	0.00
411.59	0.00
411.78	35.11
411.98	14.04
412.17	0.00
412.36	28.09
412.55	2.34
412.74	53.83
412.93	0.00
413.12	4.68
413.31	28.09
413.50	67.88
413.69	32.77
413.88	56.17
414.07	4.68
414.26	0.00
414.45	95.96
414.64	0.00
414.83	0.00
415.02	35.11
415.22	67.88
415.41	74.90
415.60	51.49
415.79	0.00
415.98	32.77
416.17	4.68
416.36	9.36
416.55	0.00
416.74	65.54
416.93	0.00
417.12	72.56
417.31	58.51
417.50	39.79
417.69	49.15
417.88	0.00
418.07	28.09
418.26	25.75
418.45	0.00
418.64	51.49
418.83	0.00
419.02	53.83
419.21	16.38
419.39	44.47
419.58	30.43
419.77	46.81
419.96	9.36
420.15	11.70
420.34	30.43
420.53	44.47
420.72	0.00
420.91	37.45
421.10	72.56
421.29	0.00
421.48	51.49
421.67	72.56
421.86	28.09
422.05	14.04
422.24	23.41
422.43	56.17
422.61	9.36
422.80	46.81
422.99	0.00
423.18	0.00
423.37	18.72
423.56	70.22
423.75	2.34
423.94	0.00
424.13	67.88
424.32	35.11
424.50	4.68
424.69	0.00
424.88	9.36
425.07	0.00
425.26	65.54
425.45	53.83
425.64	18.72
425.83	84.26
426.01	37.45
426.20	0.00
426.39	51.49
426.58	84.26
426.77	67.88
426.96	58.51
427.15	77.24
427.33	32.77
427.52	0.00
427.71	70.22
427.90	46.81
428.09	67.88
428.28	37.45
428.46	0.00
428.65	25.75
428.84	60.85
429.03	28.09
429.22	0.00
429.40	133.41
429.59	53.83
429.78	44.47
429.97	0.00
430.16	35.11
430.34	0.00
430.53	0.00
430.72	25.75
430.91	0.00
431.10	0.00
431.28	0.00
431.47	100.64
431.66	0.00
431.85	74.90
432.03	0.00
432.22	28.09
432.41	0.00
432.60	84.26
432.79	79.58
432.97	21.06
433.16	98.30
433.35	107.66
433.54	0.00
433.72	74.90
433.91	0.00
434.10	37.45
434.28	11.70
434.47	28.09
434.66	60.85
434.85	46.81
435.03	42.13
435.22	0.00
435.41	39.79
435.59	16.38
435.78	32.77
435.97	86.60
436.16	49.15
436.34	18.72
436.53	67.88
436.72	37.45
436.90	77.24
437.09	98.30
437.28	46.81
437.46	53.83
437.65	25.75
437.84	42.13
438.02	11.70
438.21	0.00
438.40	102.98
438.58	91.28
438.77	100.64
438.96	23.41
439.14	0.00
439.33	30.43
439.52	30.43
439.70	16.38
439.89	30.43
440.08	23.41
440.26	44.47
440.45	0.00
440.63	0.00
440.82	88.94
441.01	30.43
441.19	65.54
441.38	72.56
441.57	49.15
441.75	51.49
441.94	39.79
442.12	0.00
442.31	0.00
442.50	0.00
442.68	0.00
442.87	0.00
443.05	11.70
443.24	49.15
443.43	30.43
443.61	0.00
443.80	39.79
443.98	58.51
444.17	39.79
444.35	42.13
444.54	44.47
444.73	0.00
444.91	25.75
445.10	0.00
445.28	2.34
445.47	44.47
445.65	74.90
445.84	0.00
446.02	0.00
446.21	16.38
446.39	14.04
446.58	0.00
446.77	0.00
446.95	0.00
447.14	35.11
447.32	86.60
447.51	51.49
447.69	35.11
447.88	21.06
448.06	0.00
448.25	32.77
448.43	0.00
448.62	2.34
448.80	49.15
448.99	53.83
449.17	7.02
449.36	18.72
449.54	0.00
449.73	0.00
449.91	32.77
450.10	0.00
450.28	100.64
450.46	42.13
450.65	60.85
450.83	0.00
451.02	77.24
451.20	114.69
451.39	51.49
451.57	25.75
451.76	0.00
451.94	79.58
452.13	112.35
452.31	49.15
452.49	0.00
452.68	32.77
452.86	9.36
453.05	63.19
453.23	0.00
453.42	16.38
453.60	46.81
453.78	4.68
453.97	0.00
454.15	23.41
454.34	16.38
454.52	84.26
454.70	79.58
454.89	0.00
455.07	42.13
455.26	0.00
455.44	9.36
455.62	18.72
455.81	79.58
455.99	42.13
456.17	11.70
456.36	16.38
456.54	42.13
456.73	35.11
456.91	18.72
457.09	0.00
457.28	37.45
457.46	42.13
457.64	21.06
457.83	51.49
458.01	0.00
458.19	93.62
458.38	0.00
458.56	23.41
458.74	63.19
458.93	7.02
459.11	0.00
459.29	35.11
459.48	37.45
459.66	28.09
459.84	60.85
460.03	53.83
460.21	49.15
460.39	67.88
460.57	7.02
460.76	84.26
460.94	67.88
461.12	0.00
461.31	0.00
461.49	0.00
461.67	0.00
461.85	0.00
462.04	42.13
462.22	23.41
462.40	21.06
462.59	88.94
462.77	91.28
462.95	93.62
463.13	21.06
463.32	58.51
463.50	95.96
463.68	0.00
463.86	42.13
464.05	37.45
464.23	95.96
464.41	7.02
464.59	25.75
464.78	63.19
464.96	91.28
465.14	35.11
465.32	14.04
465.50	25.75
465.69	28.09
465.87	0.00
466.05	9.36
466.23	0.00
466.41	58.51
466.60	0.00
466.78	91.28
466.96	28.09
467.14	44.47
467.32	30.43
467.51	0.00
467.69	23.41
467.87	51.49
468.05	0.00
468.23	28.09
468.41	44.47
468.60	100.64
468.78	63.19
468.96	25.75
469.14	42.13
469.32	88.94
469.50	53.83
469.69	28.09
469.87	9.36
470.05	91.28
470.23	79.58
470.41	18.72
470.59	65.54
470.77	46.81
470.95	32.77
471.14	46.81
471.32	37.45
471.50	93.62
471.68	4.68
471.86	67.88
472.04	30.43
472.22	67.88
472.40	60.85
472.58	70.22
472.77	0.00
472.95	28.09
473.13	79.58
473.31	0.00
473.49	35.11
473.67	63.19
473.85	39.79
474.03	39.79
474.21	46.81
474.39	0.00
474.57	70.22
474.75	9.36
474.93	35.11
475.12	9.36
475.30	56.17
475.48	42.13
475.66	79.58
475.84	0.00
476.02	60.85
476.20	0.00
476.38	7.02
476.56	37.45
476.74	0.00
476.92	0.00
477.10	0.00
477.28	79.58
477.46	51.49
477.64	100.64
477.82	74.90
478.00	95.96
478.18	2.34
478.36	28.09
478.54	56.17
478.72	39.79
478.90	30.43
479.08	56.17
479.26	0.00
479.44	7.02
479.62	4.68
479.80	53.83
479.98	46.81
480.16	86.60
480.34	0.00
480.52	60.85
480.70	46.81
480.88	30.43
481.06	11.70
481.24	0.00
481.41	77.24
481.59	0.00
481.77	7.02
481.95	0.00
482.13	32.77
482.31	86.60
482.49	0.00
482.67	105.32
482.85	14.04
483.03	46.81
483.21	51.49
483.39	65.54
483.57	46.81
483.74	35.11
483.92	11.70
484.10	0.00
484.28	23.41
484.46	25.75
484.64	65.54
484.82	0.00
485.00	18.72
485.18	53.83
485.35	46.81
485.53	23.41
485.71	70.22
485.89	9.36
486.07	21.06
486.25	56.17
486.43	77.24
486.61	84.26
486.78	32.77
486.96	28.09
487.14	46.81
487.32	0.00
487.50	37.45
487.68	100.64
487.85	63.19
488.03	9.36
488.21	0.00
488.39	0.00
488.57	42.13
488.75	0.00
488.92	14.04
489.10	25.75
489.28	4.68
489.46	30.43
489.64	105.32
489.81	21.06
489.99	0.00
490.17	28.09
490.35	84.26
490.53	0.00
490.70	72.56
490.88	0.00
491.06	0.00
491.24	51.49
491.41	63.19
491.59	65.54
491.77	65.54
491.95	0.00
492.13	67.88
492.30	39.79
492.48	16.38
492.66	0.00
492.84	0.00
493.01	23.41
493.19	2.34
493.37	77.24
493.54	88.94
493.72	56.17
493.90	46.81
494.08	25.75
494.25	32.77
494.43	53.83
494.61	30.43
494.79	11.70
494.96	0.00
495.14	11.70
495.32	0.00
495.49	72.56
495.67	110.01
495.85	18.72
496.02	56.17
496.20	53.83
496.38	51.49
496.55	39.79
496.73	58.51
496.91	32.77
497.09	18.72
497.26	9.36
497.44	11.70
497.62	37.45
497.79	110.01
497.97	91.28
498.14	49.15
498.32	25.75
498.50	0.00
498.67	14.04
498.85	18.72
499.03	51.49
499.20	56.17
499.38	58.51
499.56	0.00
499.73	0.00
499.91	86.60
500.08	88.94
500.26	44.47
500.44	74.90
500.61	23.41
500.79	91.28
500.97	46.81
501.14	37.45
501.32	49.15
501.49	37.45
501.67	72.56
501.84	23.41
502.02	0.00
502.20	51.49
502.37	93.62
502.55	39.79
502.72	44.47
502.90	88.94
503.07	0.00
503.25	44.47
503.43	44.47
503.60	74.90
503.78	2.34
503.95	11.70
504.13	14.04
504.30	65.54
504.48	84.26
504.65	102.98
504.83	0.00
505.01	42.13
505.18	65.54
505.36	14.04
505.53	60.85
505.71	25.75
505.88	35.11
506.06	67.88
506.23	18.72
506.41	0.00
506.58	0.00
506.76	21.06
506.93	86.60
507.11	42.13
507.28	0.00
507.46	0.00
507.63	117.03
507.81	39.79
507.98	0.00
508.16	16.38
508.33	21.06
508.50	51.49
508.68	84.26
508.85	98.30
509.03	0.00
509.20	0.00
509.38	14.04
509.55	95.96
509.73	9.36
509.90	9.36
510.08	0.00
510.25	65.54
510.42	86.60
510.60	60.85
510.77	28.09
510.95	0.00
511.12	138.09
511.30	88.94
511.47	37.45
511.64	0.00
511.82	30.43
511.99	44.47
512.17	0.00
512.34	49.15
512.51	0.00
512.69	0.00
512.86	18.72
513.04	105.32
513.21	46.81
513.38	51.49
513.56	58.51
513.73	35.11
513.90	0.00
514.08	35.11
514.25	0.00
514.43	81.92
514.60	58.51
514.77	0.00
514.95	0.00
515.12	121.71
515.29	102.98
515.47	14.04
515.64	67.88
515.81	21.06
515.99	28.09
516.16	23.41
516.33	35.11
516.51	28.09
516.68	0.00
516.85	23.41
517.03	63.19
517.20	32.77
517.37	88.94
517.54	42.13
517.72	70.22
517.89	9.36
518.06	14.04
518.24	39.79
518.41	0.00
518.58	107.66
518.75	67.88
518.93	0.00
519.10	63.19
519.27	70.22
519.45	42.13
519.62	0.00
519.79	0.00
519.96	49.15
520.14	39.79
520.31	0.00
520.48	9.36
520.65	42.13
520.83	0.00
521.00	35.11
521.17	49.15
521.34	56.17
521.52	74.90
521.69	39.79
521.86	32.77
522.03	42.13
522.20	102.98
522.38	14.04
522.55	37.45
522.72	32.77
522.89	91.28
523.07	0.00
523.24	56.17
523.41	11.70
523.58	44.47
523.75	60.85
523.92	60.85
524.10	46.81
524.27	9.36
524.44	9.36
524.61	32.77
524.78	46.81
524.96	0.00
525.13	81.92
525.30	0.00
525.47	58.51
525.64	100.64
525.81	49.15
525.98	102.98
526.16	23.41
526.33	37.45
526.50	49.15
526.67	0.00
526.84	124.05
527.01	0.00
527.18	67.88
527.36	39.79
527.53	0.00
527.70	7.02
527.87	56.17
528.04	102.98
528.21	21.06
528.38	49.15
528.55	0.00
528.72	39.79
528.89	23.41
529.07	70.22
529.24	100.64
529.41	86.60
529.58	44.47
529.75	0.00
529.92	35.11
530.09	133.41
530.26	4.68
530.43	93.62
530.60	44.47
530.77	9.36
530.94	4.68
531.11	0.00
531.28	2.34
531.46	79.58
531.63	72.56
531.80	58.51
531.97	60.85
532.14	0.00
532.31	28.09
532.48	42.13
532.65	0.00
532.82	0.00
532.99	32.77
533.16	25.75
533.33	58.51
533.50	42.13
533.67	72.56
533.84	0.00
534.01	0.00
534.18	2.34
534.35	18.72
534.52	14.04
534.69	56.17
534.86	9.36
535.03	9.36
535.20	86.60
535.37	35.11
535.54	11.70
535.71	28.09
535.88	49.15
536.05	60.85
536.22	25.75
536.38	0.00
536.55	30.43
536.72	46.81
536.89	65.54
537.06	93.62
537.23	100.64
537.40	0.00
537.57	65.54
537.74	46.81
537.91	46.81
538.08	44.47
538.25	11.70
538.42	0.00
538.59	0.00
538.75	0.00
538.92	56.17
539.09	11.70
539.26	25.75
539.43	21.06
539.60	0.00
539.77	25.75
539.94	95.96
540.11	37.45
540.28	42.13
540.44	79.58
540.61	32.77
540.78	37.45
540.95	16.38
541.12	0.00
541.29	11.70
541.46	32.77
541.62	58.51
541.79	0.00
541.96	58.51
542.13	58.51
542.30	81.92
542.47	72.56
542.63	35.11
542.80	23.41
542.97	0.00
543.14	25.75
543.31	7.02
543.48	39.79
543.64	46.81
543.81	2.34
543.98	25.75
544.15	42.13
544.32	18.72
544.48	65.54
544.65	98.30
544.82	7.02
544.99	42.13
545.16	0.00
545.32	9.36
545.49	74.90
545.66	35.11
545.83	49.15
546.00	18.72
546.16	70.22
546.33	4.68
546.50	46.81
546.67	56.17
546.83	102.98
547.00	30.43
547.17	63.19
547.34	30.43
547.50	86.60
547.67	65.54
547.84	86.60
548.00	32.77
548.17	79.58
548.34	0.00
548.51	63.19
548.67	88.94
548.84	44.47
549.01	0.00
549.18	70.22
549.34	39.79
549.51	0.00
549.68	44.47
549.84	42.13
550.01	72.56
550.18	49.15
550.34	25.75
550.51	18.72
550.68	4.68
550.84	77.24
551.01	14.04
551.18	117.03
551.34	2.34
551.51	65.54
551.68	98.30
551.84	53.83
552.01	63.19
552.18	0.00
552.34	119.37
552.51	84.26
552.68	9.36
552.84	86.60
553.01	42.13
553.18	18.72
553.34	28.09
553.51	65.54
553.67	39.79
553.84	37.45
554.01	30.43
554.17	119.37
554.34	0.00
554.51	0.00
554.67	0.00
554.84	42.13
555.00	16.38
555.17	7.02
555.33	84.26
555.50	42.13
555.67	11.70
555.83	46.81
556.00	0.00
556.16	30.43
556.33	0.00
556.50	0.00
556.66	95.96
556.83	77.24
556.99	25.75
557.16	37.45
557.32	0.00
557.49	7.02
557.65	0.00
557.82	21.06
557.98	72.56
558.15	4.68
558.32	28.09
558.48	79.58
558.65	49.15
558.81	35.11
558.98	39.79
559.14	0.00
559.31	56.17
559.47	37.45
559.64	72.56
559.80	32.77
559.97	23.41
560.13	0.00
560.30	16.38
560.46	0.00
560.63	4.68
560.79	0.00
560.96	44.47
561.12	14.04
561.29	9.36
561.45	7.02
561.61	0.00
561.78	67.88
561.94	56.17
562.11	21.06
562.27	65.54
562.44	14.04
562.60	18.72
562.77	9.36
562.93	4.68
563.10	84.26
563.26	42.13
563.42	0.00
563.59	37.45
563.75	35.11
563.92	9.36
564.08	25.75
564.24	30.43
564.41	0.00
564.57	72.56
564.74	32.77
564.90	44.47
565.07	58.51
565.23	39.79
565.39	42.13
565.56	58.51
565.72	32.77
565.88	23.41
566.05	39.79
566.21	37.45
566.38	25.75
566.54	65.54
566.70	77.24
566.87	112.35
567.03	28.09
567.19	28.09
567.36	0.00
567.52	67.88
567.68	2.34
567.85	39.79
568.01	91.28
568.17	37.45
568.34	65.54
568.50	0.00
568.66	65.54
568.83	67.88
568.99	88.94
569.15	11.70
569.32	0.00
569.48	44.47
569.64	42.13
569.81	18.72
569.97	7.02
570.13	49.15
570.30	65.54
570.46	0.00
570.62	32.77
570.78	21.06
570.95	16.38
571.11	86.60
571.27	0.00
571.43	65.54
571.60	39.79
571.76	0.00
571.92	30.43
572.09	14.04
572.25	110.01
572.41	25.75
572.57	58.51
572.74	95.96
572.90	37.45
573.06	32.77
573.22	67.88
573.38	70.22
573.55	67.88
573.71	0.00
573.87	32.77
574.03	95.96
574.20	58.51
574.36	11.70
574.52	14.04
574.68	0.00
574.84	42.13
575.01	0.00
575.17	39.79
575.33	56.17
575.49	42.13
575.65	21.06
575.82	49.15
575.98	0.00
576.14	46.81
576.30	72.56
576.46	65.54
576.62	30.43
576.79	18.72
576.95	25.75
577.11	56.17
577.27	0.00
577.43	65.54
577.59	28.09
577.75	44.47
577.92	32.77
578.08	42.13
578.24	0.00
578.40	9.36
578.56	9.36
578.72	39.79
578.88	21.06
579.04	14.04
579.21	30.43
579.37	16.38
579.53	93.62
579.69	39.79
579.85	37.45
580.01	32.77
580.17	16.38
580.33	28.09
580.49	105.32
580.65	65.54
580.82	25.75
580.98	21.06
581.14	16.38
581.30	9.36
581.46	65.54
581.62	84.26
581.78	37.45
581.94	46.81
582.10	18.72
582.26	56.17
582.42	18.72
582.58	28.09
582.74	65.54
582.90	35.11
583.06	0.00
583.22	84.26
583.38	37.45
583.54	119.37
583.70	72.56
583.86	79.58
584.02	39.79
584.18	0.00
584.34	67.88
584.50	53.83
584.66	16.38
584.82	114.69
584.98	133.41
585.14	65.54
585.30	77.24
585.46	98.30
585.62	44.47
585.78	81.92
585.94	74.90
586.10	49.15
586.26	21.06
586.42	65.54
586.58	63.19
586.74	39.79
586.90	0.00
587.06	32.77
587.22	72.56
587.38	63.19
587.54	30.43
587.70	37.45
587.86	42.13
588.02	110.01
588.18	44.47
588.34	67.88
588.49	21.06
588.65	60.85
588.81	56.17
588.97	56.17
589.13	11.70
589.29	46.81
589.45	18.72
589.61	0.00
589.77	56.17
589.93	32.77
590.08	56.17
590.24	0.00
590.40	11.70
590.56	28.09
590.72	23.41
590.88	21.06
591.04	77.24
591.20	77.24
591.35	88.94
591.51	0.00
591.67	0.00
591.83	0.00
591.99	95.96
592.15	0.00
592.31	93.62
592.46	42.13
592.62	16.38
592.78	14.04
592.94	0.00
593.10	0.00
593.26	0.00
593.41	53.83
593.57	9.36
593.73	16.38
593.89	53.83
594.05	42.13
594.20	88.94
594.36	42.13
594.52	42.13
594.68	79.58
594.84	86.60
594.99	7.02
595.15	46.81
595.31	0.00
595.47	37.45
595.62	18.72
595.78	0.00
595.94	44.47
596.10	23.41
596.25	21.06
596.41	11.70
596.57	112.35
596.73	30.43
596.88	14.04
597.04	7.02
597.20	63.19
597.36	39.79
597.51	65.54
597.67	23.41
597.83	7.02
597.99	2.34
598.14	25.75
598.30	60.85
598.46	37.45
598.61	0.00
598.77	30.43
598.93	44.47
599.09	56.17
599.24	53.83
599.40	16.38
599.56	16.38
599.71	30.43
599.87	44.47
600.03	46.81
600.18	0.00
600.34	67.88
600.50	58.51
600.65	28.09
600.81	46.81
600.97	37.45
601.12	23.41
601.28	49.15
601.44	67.88
601.59	49.15
601.75	58.51
601.91	0.00
602.06	63.19
602.22	37.45
602.37	79.58
602.53	32.77
602.69	49.15
602.84	95.96
603.00	37.45
603.16	30.43
603.31	46.81
603.47	2.34
603.62	72.56
603.78	63.19
603.94	0.00
604.09	2.34
604.25	37.45
604.40	16.38
604.56	110.01
604.71	63.19
604.87	0.00
605.03	98.30
605.18	2.34
605.34	11.70
605.49	0.00
605.65	70.22
605.80	44.47
605.96	11.70
606.12	14.04
606.27	0.00
606.43	0.00
606.58	0.00
606.74	4.68
606.89	107.66
607.05	4.68
607.20	51.49
607.36	23.41
607.51	91.28
607.67	100.64
607.82	81.92
607.98	30.43
608.13	102.98
608.29	91.28
608.44	0.00
608.60	21.06
608.75	0.00
608.91	44.47
609.06	88.94
609.22	110.01
609.37	56.17
609.53	0.00
609.68	46.81
609.84	42.13
609.99	0.00
610.15	0.00
610.30	28.09
610.46	21.06
610.61	0.00
610.76	74.90
610.92	32.77
611.07	110.01
611.23	60.85
611.38	11.70
611.54	0.00
611.69	86.60
611.84	91.28
612.00	98.30
612.15	0.00
612.31	63.19
612.46	56.17
612.62	53.83
612.77	51.49
612.92	18.72
613.08	56.17
613.23	35.11
613.39	35.11
613.54	37.45
613.69	42.13
613.85	18.72
614.00	0.00
614.15	65.54
614.31	44.47
614.46	49.15
614.62	74.90
614.77	21.06
614.92	56.17
615.08	39.79
615.23	98.30
615.38	0.00
615.54	65.54
615.69	37.45
615.84	0.00
616.00	7.02
616.15	39.79
616.30	67.88
616.46	49.15
616.61	18.72
616.76	91.28
616.92	14.04
617.07	67.88
617.22	0.00
617.37	0.00
617.53	42.13
617.68	112.35
617.83	30.43
617.99	102.98
618.14	14.04
618.29	110.01
618.45	112.35
618.60	56.17
618.75	23.41
618.90	30.43
619.06	67.88
619.21	65.54
619.36	0.00
619.51	49.15
619.67	25.75
619.82	37.45
619.97	9.36
620.12	32.77
620.28	32.77
620.43	0.00
620.58	56.17
620.73	18.72
620.89	77.24
621.04	0.00
621.19	0.00
621.34	0.00
621.49	46.81
621.65	23.41
621.80	70.22
621.95	81.92
622.10	0.00
622.25	32.77
622.41	74.90
622.56	65.54
622.71	67.88
622.86	53.83
623.01	0.00
623.16	44.47
623.32	0.00
623.47	0.00
623.62	56.17
623.77	2.34
623.92	21.06
624.07	56.17
624.23	0.00
624.38	18.72
624.53	63.19
624.68	72.56
624.83	18.72
624.98	28.09
625.13	16.38
625.29	32.77
625.44	112.35
625.59	53.83
625.74	16.38
625.89	51.49
626.04	0.00
626.19	72.56
626.34	72.56
626.49	60.85
626.65	39.79
626.80	23.41
626.95	2.34
627.10	72.56
627.25	35.11
627.40	39.79
627.55	0.00
627.70	79.58
627.85	98.30
628.00	25.75
628.15	72.56
628.30	60.85
628.45	0.00
628.60	0.00
628.76	81.92
628.91	79.58
629.06	65.54
629.21	32.77
629.36	37.45
629.51	60.85
629.66	72.56
629.81	65.54
629.96	23.41
630.11	42.13
630.26	0.00
630.41	72.56
630.56	79.58
630.71	46.81
630.86	23.41
631.01	88.94
631.16	102.98
631.31	18.72
631.46	28.09
631.61	79.58
631.76	21.06
631.91	72.56
632.06	16.38
632.21	28.09
632.36	0.00
632.51	70.22
632.66	152.13
632.81	18.72
632.96	114.69
633.10	95.96
633.25	39.79
633.40	46.81
633.55	56.17
633.70	98.30
633.85	44.47
634.00	102.98
634.15	30.43
634.30	124.05
634.45	74.90
634.60	11.70
634.75	28.09
634.90	25.75
635.05	28.09
635.19	35.11
635.34	25.75
635.49	84.26
635.64	0.00
635.79	86.60
635.94	4.68
636.09	21.06
636.24	18.72
636.39	46.81
636.53	51.49
636.68	0.00
636.83	72.56
636.98	14.04
637.13	37.45
637.28	53.83
637.43	67.88
637.57	37.45
637.72	44.47
637.87	18.72
638.02	35.11
638.17	39.79
638.32	81.92
638.46	152.13
638.61	18.72
638.76	42.13
638.91	0.00
639.06	7.02
639.20	0.00
639.35	0.00
639.50	79.58
639.65	9.36
639.80	44.47
639.94	30.43
640.09	81.92
640.24	56.17
640.39	21.06
640.54	49.15
640.68	142.77
640.83	28.09
640.98	11.70
641.13	16.38
641.27	21.06
641.42	112.35
641.57	46.81
641.72	37.45
641.86	25.75
642.01	11.70
642.16	60.85
642.31	37.45
642.45	18.72
642.60	63.19
642.75	7.02
642.90	14.04
643.04	16.38
643.19	46.81
643.34	18.72
643.48	63.19
643.63	98.30
643.78	46.81
643.93	79.58
644.07	110.01
644.22	37.45
644.37	49.15
644.51	77.24
644.66	30.43
644.81	25.75
644.95	65.54
645.10	0.00
645.25	98.30
645.39	67.88
645.54	0.00
645.69	91.28
645.83	0.00
645.98	46.81
646.13	25.75
646.27	0.00
646.42	30.43
646.57	44.47
646.71	56.17
646.86	44.47
647.00	74.90
647.15	25.75
647.30	49.15
647.44	58.51
647.59	91.28
647.74	93.62
647.88	58.51
648.03	77.24
648.17	14.04
648.32	25.75
648.47	42.13
648.61	86.60
648.76	32.77
648.90	81.92
649.05	37.45
649.20	60.85
649.34	23.41
649.49	32.77
649.63	0.00
649.78	0.00
649.92	0.00
650.07	49.15
650.21	77.24
650.36	100.64
650.51	51.49
650.65	49.15
650.80	79.58
650.94	70.22
651.09	88.94
651.23	126.39
651.38	9.36
651.52	0.00
651.67	42.13
651.81	23.41
651.96	0.00
652.10	49.15
652.25	53.83
652.39	0.00
652.54	35.11
652.68	0.00
652.83	18.72
652.97	159.16
653.12	56.17
653.26	37.45
653.41	0.00
653.55	70.22
653.70	114.69
653.84	23.41
653.99	0.00
654.13	37.45
654.27	39.79
654.42	0.00
654.56	35.11
654.71	11.70
654.85	79.58
655.00	30.43
655.14	0.00
655.29	25.75
655.43	63.19
655.57	100.64
655.72	9.36
655.86	18.72
656.01	65.54
656.15	60.85
656.30	0.00
656.44	49.15
656.58	2.34
656.73	16.38
656.87	32.77
657.01	0.00
657.16	72.56
657.30	74.90
657.45	60.85
657.59	65.54
657.73	51.49
657.88	44.47
658.02	98.30
658.16	46.81
658.31	11.70
658.45	9.36
658.60	65.54
658.74	0.00
658.88	46.81
659.03	63.19
659.17	88.94
659.31	0.00
659.46	2.34
659.60	0.00
659.74	56.17
659.89	86.60
660.03	0.00
660.17	32.77
660.32	30.43
660.46	65.54
660.60	9.36
660.74	100.64
660.89	49.15
661.03	16.38
661.17	14.04
661.32	49.15
661.46	42.13
661.60	53.83
661.74	7.02
661.89	49.15
662.03	14.04
662.17	58.51
662.31	93.62
662.46	14.04
662.60	39.79
662.74	9.36
662.88	4.68
663.03	0.00
663.17	79.58
663.31	67.88
663.45	9.36
663.60	32.77
663.74	16.38
663.88	25.75
664.02	72.56
664.17	32.77
664.31	21.06
664.45	56.17
664.59	0.00
664.73	0.00
664.88	32.77
665.02	35.11
665.16	105.32
665.30	65.54
665.44	39.79
665.59	0.00
665.73	0.00
665.87	49.15
666.01	7.02
666.15	42.13
666.29	35.11
666.44	30.43
666.58	0.00
666.72	42.13
666.86	32.77
667.00	4.68
667.14	117.03
667.28	0.00
667.43	44.47
667.57	0.00
667.71	93.62
667.85	74.90
667.99	7.02
668.13	23.41
668.27	95.96
668.41	7.02
668.56	91.28
668.70	0.00
668.84	0.00
668.98	56.17
669.12	9.36
669.26	4.68
669.40	0.00
669.54	0.00
669.68	18.72
669.82	44.47
669.96	42.13
670.10	77.24
670.25	86.60
670.39	84.26
670.53	67.88
670.67	91.28
670.81	14.04
670.95	37.45
671.09	49.15
671.23	44.47
671.37	28.09
671.51	28.09
671.65	25.75
671.79	86.60
671.93	72.56
672.07	67.88
672.21	0.00
672.35	110.01
672.49	117.03
672.63	65.54
672.77	74.90
672.91	0.00
673.05	60.85
673.19	72.56
673.33	51.49
673.47	65.54
673.61	67.88
673.75	23.41
673.89	58.51
674.03	0.00
674.17	23.41
674.31	21.06
674.45	23.41
674.59	39.79
674.73	133.41
674.87	0.00
675.01	0.00
675.15	72.56
675.29	16.38
675.43	70.22
675.56	60.85
675.70	28.09
675.84	0.00
675.98	39.79
676.12	0.00
676.26	7.02
676.40	0.00
676.54	4.68
676.68	63.19
676.82	16.38
676.96	9.36
677.10	0.00
677.23	9.36
677.37	30.43
677.51	0.00
677.65	63.19
677.79	25.75
677.93	0.00
678.07	0.00
678.21	21.06
678.34	74.90
678.48	60.85
678.62	77.24
678.76	53.83
678.90	35.11
679.04	25.75
679.18	9.36
679.31	28.09
679.45	0.00
679.59	14.04
679.73	32.77
679.87	39.79
680.00	16.38
680.14	32.77
680.28	7.02
680.42	81.92
680.56	18.72
680.70	53.83
680.83	0.00
680.97	86.60
681.11	44.47
681.25	28.09
681.39	39.79
681.52	0.00
681.66	51.49
681.80	30.43
681.94	16.38
682.07	16.38
682.21	30.43
682.35	18.72
682.49	81.92
682.62	30.43
682.76	0.00
682.90	60.85
683.04	21.06
683.17	42.13
683.31	0.00
683.45	63.19
683.59	91.28
683.72	0.00
683.86	25.75
684.00	56.17
684.13	25.75
684.27	0.00
684.41	0.00
684.55	9.36
684.68	0.00
684.82	0.00
684.96	77.24
685.09	0.00
685.23	95.96
685.37	56.17
685.50	0.00
685.64	0.00
685.78	28.09
685.91	63.19
686.05	0.00
686.19	0.00
686.32	39.79
686.46	63.19
686.60	0.00
686.73	58.51
686.87	21.06
687.01	35.11
687.14	7.02
687.28	35.11
687.42	77.24
687.55	49.15
687.69	0.00
687.82	9.36
687.96	51.49
688.10	39.79
688.23	0.00
688.37	7.02
688.50	0.00
688.64	0.00
688.78	56.17
688.91	56.17
689.05	56.17
689.18	98.30
689.32	63.19
689.46	0.00
689.59	74.90
689.73	56.17
689.86	0.00
690.00	53.83
690.13	0.00
690.27	9.36
690.41	42.13
690.54	0.00
690.68	42.13
690.81	93.62
690.95	51.49
691.08	84.26
691.22	14.04
691.35	14.04
691.49	2.34
691.62	14.04
691.76	18.72
691.89	9.36
692.03	70.22
692.16	2.34
692.30	4.68
692.43	42.13
692.57	11.70
692.70	16.38
692.84	23.41
692.97	65.54
693.11	74.90
693.24	0.00
693.38	4.68
693.51	0.00
693.65	0.00
693.78	88.94
693.92	44.47
694.05	28.09
694.19	53.83
694.32	67.88
694.45	0.00
694.59	23.41
694.72	25.75
694.86	107.66
694.99	63.19
695.13	0.00
695.26	77.24
695.39	42.13
695.53	0.00
695.66	2.34
695.80	58.51
695.93	9.36
696.07	28.09
696.20	18.72
696.33	11.70
696.47	7.02
696.60	16.38
696.73	63.19
696.87	0.00
697.00	18.72
697.14	58.51
697.27	88.94
697.40	0.00
697.54	0.00
697.67	25.75
697.80	58.51
697.94	107.66
698.07	18.72
698.21	16.38
698.34	74.90
698.47	30.43
698.61	2.34
698.74	0.00
698.87	0.00
699.01	42.13
699.14	60.85
699.27	0.00
699.40	0.00
699.54	0.00
699.67	88.94
699.80	65.54
699.94	4.68
700.07	0.00
700.20	51.49
700.34	98.30
700.47	11.70
700.60	32.77
700.73	0.00
700.87	0.00
701.00	30.43
701.13	14.04
701.26	0.00
701.40	65.54
701.53	0.00
701.66	11.70
701.79	0.00
701.93	0.00
702.06	0.00
702.19	74.90
702.32	0.00
702.46	74.90
702.59	0.00
702.72	51.49
702.85	86.60
702.99	51.49
703.12	4.68
703.25	35.11
703.38	2.34
703.51	86.60
703.65	9.36
703.78	81.92
703.91	65.54
704.04	88.94
704.17	46.81
704.31	0.00
704.44	49.15
704.57	37.45
704.70	44.47
704.83	42.13
704.96	11.70
705.10	0.00
705.23	46.81
>>>>>End Processed Spectral Data<<<<<
