SpectraSuite Data File
++++++++++++++++++++++++++++++++++++
Date: Fri Oct 04 12:13:33 GMT-05:00 2013
User: price-jones
Dark Spectrum Present: No
Reference Spectrum Present: No
Number of Sampled Component Spectra: 1
Spectrometers: USB2+H05261
Integration Time (usec): 10000 (USB2+H05261)
Spectra Averaged: 1 (USB2+H05261)
Boxcar Smoothing: 0 (USB2+H05261)
Correct for Electrical Dark: No (USB2+H05261)
Strobe/Lamp Enabled: No (USB2+H05261)
Correct for Detector Non-linearity: No (USB2+H05261)
Correct for Stray Light: No (USB2+H05261)
Number of Pixels in Processed Spectrum: 2048
>>>>>Begin Processed Spectral Data<<<<<
365.73	0.00
365.92	0.00
366.12	0.00
366.32	0.00
366.52	0.00
366.72	0.00
366.91	0.00
367.11	0.00
367.31	0.00
367.51	0.00
367.70	0.00
367.90	0.00
368.10	0.00
368.30	0.00
368.49	0.00
368.69	0.00
368.89	0.00
369.09	0.00
369.28	0.00
369.48	0.00
369.68	0.00
369.87	0.00
370.07	0.00
370.27	0.00
370.47	0.00
370.66	0.00
370.86	0.00
371.06	0.00
371.25	0.00
371.45	0.00
371.65	0.00
371.84	0.00
372.04	0.00
372.24	0.00
372.44	0.00
372.63	0.00
372.83	58.51
373.03	0.00
373.22	88.94
373.42	0.00
373.62	0.00
373.81	39.79
374.01	37.45
374.21	49.15
374.40	42.13
374.60	7.02
374.79	0.00
374.99	30.43
375.19	2.34
375.38	65.54
375.58	4.68
375.78	7.02
375.97	0.00
376.17	25.75
376.37	44.47
376.56	0.00
376.76	32.77
376.95	23.41
377.15	84.26
377.35	88.94
377.54	0.00
377.74	0.00
377.93	2.34
378.13	0.00
378.33	4.68
378.52	0.00
378.72	4.68
378.91	35.11
379.11	72.56
379.31	16.38
379.50	0.00
379.70	0.00
379.89	84.26
380.09	0.00
380.28	0.00
380.48	35.11
380.68	21.06
380.87	0.00
381.07	23.41
381.26	28.09
381.46	0.00
381.65	77.24
381.85	4.68
382.04	7.02
382.24	0.00
382.43	4.68
382.63	0.00
382.83	46.81
383.02	37.45
383.22	0.00
383.41	0.00
383.61	46.81
383.80	0.00
384.00	42.13
384.19	16.38
384.39	23.41
384.58	25.75
384.78	21.06
384.97	0.00
385.17	23.41
385.36	65.54
385.56	46.81
385.75	0.00
385.95	56.17
386.14	0.00
386.34	0.00
386.53	0.00
386.72	0.00
386.92	56.17
387.11	30.43
387.31	30.43
387.50	0.00
387.70	0.00
387.89	0.00
388.09	63.19
388.28	0.00
388.48	49.15
388.67	0.00
388.86	2.34
389.06	16.38
389.25	0.00
389.45	77.24
389.64	11.70
389.84	0.00
390.03	46.81
390.22	25.75
390.42	0.00
390.61	18.72
390.81	0.00
391.00	16.38
391.19	0.00
391.39	0.00
391.58	30.43
391.78	37.45
391.97	14.04
392.16	49.15
392.36	58.51
392.55	18.72
392.75	0.00
392.94	18.72
393.13	46.81
393.33	37.45
393.52	0.00
393.71	35.11
393.91	53.83
394.10	30.43
394.29	0.00
394.49	32.77
394.68	0.00
394.88	0.00
395.07	4.68
395.26	35.11
395.46	16.38
395.65	58.51
395.84	42.13
396.04	0.00
396.23	53.83
396.42	84.26
396.62	0.00
396.81	0.00
397.00	0.00
397.19	0.00
397.39	0.00
397.58	2.34
397.77	49.15
397.97	0.00
398.16	0.00
398.35	49.15
398.55	0.00
398.74	32.77
398.93	0.00
399.12	32.77
399.32	16.38
399.51	0.00
399.70	39.79
399.90	14.04
400.09	23.41
400.28	67.88
400.47	63.19
400.67	18.72
400.86	14.04
401.05	39.79
401.24	60.85
401.44	39.79
401.63	4.68
401.82	44.47
402.01	0.00
402.21	39.79
402.40	16.38
402.59	74.90
402.78	35.11
402.97	32.77
403.17	16.38
403.36	84.26
403.55	16.38
403.74	0.00
403.93	95.96
404.13	0.00
404.32	0.00
404.51	0.00
404.70	9.36
404.89	28.09
405.09	65.54
405.28	14.04
405.47	0.00
405.66	49.15
405.85	0.00
406.05	58.51
406.24	25.75
406.43	0.00
406.62	30.43
406.81	25.75
407.00	11.70
407.20	16.38
407.39	49.15
407.58	56.17
407.77	58.51
407.96	0.00
408.15	9.36
408.34	63.19
408.54	32.77
408.73	2.34
408.92	9.36
409.11	100.64
409.30	21.06
409.49	7.02
409.68	4.68
409.87	32.77
410.07	51.49
410.26	0.00
410.45	44.47
410.64	16.38
410.83	30.43
411.02	23.41
411.21	58.51
411.40	11.70
411.59	11.70
411.78	70.22
411.98	0.00
412.17	0.00
412.36	0.00
412.55	0.00
412.74	72.56
412.93	2.34
413.12	53.83
413.31	0.00
413.50	14.04
413.69	70.22
413.88	53.83
414.07	0.00
414.26	18.72
414.45	74.90
414.64	23.41
414.83	0.00
415.02	51.49
415.22	51.49
415.41	67.88
415.60	70.22
415.79	0.00
415.98	56.17
416.17	79.58
416.36	32.77
416.55	56.17
416.74	74.90
416.93	7.02
417.12	56.17
417.31	0.00
417.50	7.02
417.69	95.96
417.88	0.00
418.07	0.00
418.26	79.58
418.45	58.51
418.64	23.41
418.83	0.00
419.02	42.13
419.21	11.70
419.39	60.85
419.58	30.43
419.77	74.90
419.96	23.41
420.15	18.72
420.34	30.43
420.53	25.75
420.72	0.00
420.91	0.00
421.10	0.00
421.29	0.00
421.48	7.02
421.67	46.81
421.86	60.85
422.05	18.72
422.24	44.47
422.43	32.77
422.61	25.75
422.80	25.75
422.99	0.00
423.18	70.22
423.37	79.58
423.56	32.77
423.75	51.49
423.94	95.96
424.13	0.00
424.32	18.72
424.50	37.45
424.69	30.43
424.88	14.04
425.07	53.83
425.26	77.24
425.45	46.81
425.64	0.00
425.83	35.11
426.01	35.11
426.20	4.68
426.39	70.22
426.58	0.00
426.77	28.09
426.96	28.09
427.15	39.79
427.33	25.75
427.52	117.03
427.71	0.00
427.90	30.43
428.09	14.04
428.28	105.32
428.46	25.75
428.65	0.00
428.84	126.39
429.03	18.72
429.22	7.02
429.40	0.00
429.59	32.77
429.78	9.36
429.97	0.00
430.16	9.36
430.34	0.00
430.53	100.64
430.72	51.49
430.91	14.04
431.10	42.13
431.28	60.85
431.47	44.47
431.66	2.34
431.85	35.11
432.03	0.00
432.22	65.54
432.41	32.77
432.60	102.98
432.79	18.72
432.97	18.72
433.16	0.00
433.35	21.06
433.54	91.28
433.72	32.77
433.91	25.75
434.10	0.00
434.28	0.00
434.47	65.54
434.66	53.83
434.85	98.30
435.03	39.79
435.22	23.41
435.41	0.00
435.59	39.79
435.78	9.36
435.97	44.47
436.16	32.77
436.34	0.00
436.53	0.00
436.72	18.72
436.90	2.34
437.09	9.36
437.28	51.49
437.46	30.43
437.65	84.26
437.84	28.09
438.02	63.19
438.21	110.01
438.40	28.09
438.58	14.04
438.77	0.00
438.96	70.22
439.14	0.00
439.33	42.13
439.52	35.11
439.70	37.45
439.89	44.47
440.08	60.85
440.26	14.04
440.45	93.62
440.63	98.30
440.82	39.79
441.01	0.00
441.19	4.68
441.38	0.00
441.57	70.22
441.75	28.09
441.94	0.00
442.12	30.43
442.31	14.04
442.50	44.47
442.68	77.24
442.87	51.49
443.05	88.94
443.24	42.13
443.43	28.09
443.61	77.24
443.80	51.49
443.98	56.17
444.17	25.75
444.35	0.00
444.54	65.54
444.73	60.85
444.91	11.70
445.10	0.00
445.28	21.06
445.47	23.41
445.65	91.28
445.84	25.75
446.02	9.36
446.21	79.58
446.39	67.88
446.58	67.88
446.77	58.51
446.95	58.51
447.14	65.54
447.32	0.00
447.51	46.81
447.69	0.00
447.88	77.24
448.06	44.47
448.25	65.54
448.43	16.38
448.62	70.22
448.80	21.06
448.99	23.41
449.17	37.45
449.36	46.81
449.54	39.79
449.73	56.17
449.91	0.00
450.10	39.79
450.28	0.00
450.46	0.00
450.65	35.11
450.83	86.60
451.02	42.13
451.20	7.02
451.39	0.00
451.57	42.13
451.76	21.06
451.94	4.68
452.13	32.77
452.31	35.11
452.49	56.17
452.68	84.26
452.86	23.41
453.05	2.34
453.23	0.00
453.42	0.00
453.60	0.00
453.78	0.00
453.97	4.68
454.15	79.58
454.34	67.88
454.52	9.36
454.70	65.54
454.89	21.06
455.07	0.00
455.26	32.77
455.44	30.43
455.62	0.00
455.81	0.00
455.99	0.00
456.17	32.77
456.36	81.92
456.54	0.00
456.73	28.09
456.91	11.70
457.09	11.70
457.28	0.00
457.46	23.41
457.64	0.00
457.83	14.04
458.01	44.47
458.19	23.41
458.38	4.68
458.56	23.41
458.74	100.64
458.93	28.09
459.11	11.70
459.29	42.13
459.48	25.75
459.66	37.45
459.84	79.58
460.03	11.70
460.21	23.41
460.39	0.00
460.57	51.49
460.76	86.60
460.94	91.28
461.12	0.00
461.31	49.15
461.49	35.11
461.67	46.81
461.85	0.00
462.04	37.45
462.22	84.26
462.40	44.47
462.59	0.00
462.77	0.00
462.95	51.49
463.13	28.09
463.32	37.45
463.50	98.30
463.68	60.85
463.86	21.06
464.05	0.00
464.23	25.75
464.41	35.11
464.59	0.00
464.78	46.81
464.96	30.43
465.14	23.41
465.32	0.00
465.50	51.49
465.69	14.04
465.87	37.45
466.05	56.17
466.23	14.04
466.41	2.34
466.60	84.26
466.78	11.70
466.96	25.75
467.14	58.51
467.32	0.00
467.51	0.00
467.69	4.68
467.87	0.00
468.05	63.19
468.23	37.45
468.41	0.00
468.60	0.00
468.78	51.49
468.96	42.13
469.14	65.54
469.32	56.17
469.50	0.00
469.69	0.00
469.87	4.68
470.05	18.72
470.23	14.04
470.41	0.00
470.59	121.71
470.77	67.88
470.95	74.90
471.14	44.47
471.32	65.54
471.50	46.81
471.68	0.00
471.86	28.09
472.04	30.43
472.22	72.56
472.40	0.00
472.58	0.00
472.77	0.00
472.95	18.72
473.13	14.04
473.31	100.64
473.49	0.00
473.67	11.70
473.85	135.75
474.03	112.35
474.21	0.00
474.39	91.28
474.57	0.00
474.75	39.79
474.93	32.77
475.12	11.70
475.30	58.51
475.48	46.81
475.66	77.24
475.84	21.06
476.02	11.70
476.20	63.19
476.38	65.54
476.56	25.75
476.74	86.60
476.92	11.70
477.10	0.00
477.28	16.38
477.46	30.43
477.64	46.81
477.82	0.00
478.00	0.00
478.18	0.00
478.36	28.09
478.54	91.28
478.72	28.09
478.90	28.09
479.08	79.58
479.26	39.79
479.44	49.15
479.62	32.77
479.80	46.81
479.98	0.00
480.16	0.00
480.34	81.92
480.52	56.17
480.70	35.11
480.88	49.15
481.06	44.47
481.24	46.81
481.41	35.11
481.59	42.13
481.77	119.37
481.95	58.51
482.13	63.19
482.31	51.49
482.49	7.02
482.67	56.17
482.85	14.04
483.03	0.00
483.21	0.00
483.39	0.00
483.57	7.02
483.74	63.19
483.92	9.36
484.10	0.00
484.28	0.00
484.46	0.00
484.64	0.00
484.82	4.68
485.00	44.47
485.18	60.85
485.35	14.04
485.53	42.13
485.71	35.11
485.89	70.22
486.07	51.49
486.25	16.38
486.43	18.72
486.61	16.38
486.78	46.81
486.96	42.13
487.14	65.54
487.32	14.04
487.50	53.83
487.68	23.41
487.85	18.72
488.03	58.51
488.21	4.68
488.39	0.00
488.57	91.28
488.75	51.49
488.92	93.62
489.10	32.77
489.28	0.00
489.46	0.00
489.64	28.09
489.81	58.51
489.99	32.77
490.17	39.79
490.35	37.45
490.53	18.72
490.70	0.00
490.88	0.00
491.06	9.36
491.24	72.56
491.41	60.85
491.59	49.15
491.77	14.04
491.95	0.00
492.13	84.26
492.30	23.41
492.48	74.90
492.66	14.04
492.84	28.09
493.01	105.32
493.19	11.70
493.37	32.77
493.54	91.28
493.72	7.02
493.90	30.43
494.08	74.90
494.25	0.00
494.43	74.90
494.61	0.00
494.79	0.00
494.96	51.49
495.14	4.68
495.32	14.04
495.49	18.72
495.67	46.81
495.85	35.11
496.02	63.19
496.20	7.02
496.38	0.00
496.55	23.41
496.73	11.70
496.91	30.43
497.09	7.02
497.26	39.79
497.44	105.32
497.62	28.09
497.79	9.36
497.97	37.45
498.14	30.43
498.32	0.00
498.50	0.00
498.67	58.51
498.85	72.56
499.03	88.94
499.20	114.69
499.38	77.24
499.56	0.00
499.73	23.41
499.91	0.00
500.08	32.77
500.26	74.90
500.44	23.41
500.61	56.17
500.79	44.47
500.97	0.00
501.14	28.09
501.32	70.22
501.49	30.43
501.67	0.00
501.84	58.51
502.02	63.19
502.20	56.17
502.37	0.00
502.55	100.64
502.72	28.09
502.90	67.88
503.07	51.49
503.25	0.00
503.43	74.90
503.60	100.64
503.78	51.49
503.95	98.30
504.13	35.11
504.30	0.00
504.48	100.64
504.65	67.88
504.83	18.72
505.01	14.04
505.18	67.88
505.36	39.79
505.53	14.04
505.71	72.56
505.88	46.81
506.06	49.15
506.23	60.85
506.41	23.41
506.58	51.49
506.76	0.00
506.93	32.77
507.11	46.81
507.28	56.17
507.46	32.77
507.63	60.85
507.81	11.70
507.98	175.54
508.16	53.83
508.33	2.34
508.50	81.92
508.68	39.79
508.85	65.54
509.03	131.07
509.20	105.32
509.38	0.00
509.55	91.28
509.73	32.77
509.90	135.75
510.08	44.47
510.25	21.06
510.42	18.72
510.60	84.26
510.77	53.83
510.95	51.49
511.12	18.72
511.30	25.75
511.47	0.00
511.64	28.09
511.82	0.00
511.99	39.79
512.17	0.00
512.34	74.90
512.51	46.81
512.69	2.34
512.86	51.49
513.04	74.90
513.21	77.24
513.38	0.00
513.56	46.81
513.73	93.62
513.90	56.17
514.08	25.75
514.25	0.00
514.43	67.88
514.60	56.17
514.77	4.68
514.95	23.41
515.12	0.00
515.29	16.38
515.47	0.00
515.64	11.70
515.81	42.13
515.99	7.02
516.16	14.04
516.33	95.96
516.51	0.00
516.68	44.47
516.85	2.34
517.03	0.00
517.20	30.43
517.37	56.17
517.54	56.17
517.72	81.92
517.89	39.79
518.06	53.83
518.24	72.56
518.41	79.58
518.58	46.81
518.75	37.45
518.93	0.00
519.10	44.47
519.27	11.70
519.45	98.30
519.62	0.00
519.79	25.75
519.96	37.45
520.14	86.60
520.31	35.11
520.48	0.00
520.65	56.17
520.83	67.88
521.00	39.79
521.17	67.88
521.34	79.58
521.52	67.88
521.69	35.11
521.86	7.02
522.03	23.41
522.20	39.79
522.38	46.81
522.55	72.56
522.72	37.45
522.89	102.98
523.07	102.98
523.24	32.77
523.41	88.94
523.58	67.88
523.75	84.26
523.92	2.34
524.10	21.06
524.27	70.22
524.44	95.96
524.61	84.26
524.78	74.90
524.96	30.43
525.13	77.24
525.30	81.92
525.47	11.70
525.64	117.03
525.81	100.64
525.98	9.36
526.16	16.38
526.33	21.06
526.50	0.00
526.67	2.34
526.84	35.11
527.01	28.09
527.18	84.26
527.36	95.96
527.53	114.69
527.70	70.22
527.87	67.88
528.04	39.79
528.21	72.56
528.38	46.81
528.55	42.13
528.72	58.51
528.89	18.72
529.07	77.24
529.24	16.38
529.41	95.96
529.58	53.83
529.75	9.36
529.92	65.54
530.09	63.19
530.26	30.43
530.43	16.38
530.60	0.00
530.77	81.92
530.94	23.41
531.11	21.06
531.28	70.22
531.46	67.88
531.63	7.02
531.80	53.83
531.97	51.49
532.14	16.38
532.31	0.00
532.48	32.77
532.65	51.49
532.82	72.56
532.99	63.19
533.16	51.49
533.33	39.79
533.50	53.83
533.67	86.60
533.84	35.11
534.01	21.06
534.18	42.13
534.35	60.85
534.52	9.36
534.69	44.47
534.86	35.11
535.03	0.00
535.20	11.70
535.37	79.58
535.54	74.90
535.71	0.00
535.88	84.26
536.05	102.98
536.22	84.26
536.38	0.00
536.55	51.49
536.72	102.98
536.89	65.54
537.06	42.13
537.23	49.15
537.40	32.77
537.57	28.09
537.74	131.07
537.91	65.54
538.08	9.36
538.25	56.17
538.42	49.15
538.59	56.17
538.75	0.00
538.92	70.22
539.09	56.17
539.26	32.77
539.43	60.85
539.60	0.00
539.77	95.96
539.94	86.60
540.11	117.03
540.28	114.69
540.44	0.00
540.61	110.01
540.78	9.36
540.95	84.26
541.12	42.13
541.29	44.47
541.46	131.07
541.62	65.54
541.79	72.56
541.96	86.60
542.13	117.03
542.30	25.75
542.47	86.60
542.63	65.54
542.80	70.22
542.97	44.47
543.14	93.62
543.31	21.06
543.48	95.96
543.64	135.75
543.81	42.13
543.98	37.45
544.15	46.81
544.32	53.83
544.48	39.79
544.65	18.72
544.82	58.51
544.99	42.13
545.16	39.79
545.32	0.00
545.49	0.00
545.66	35.11
545.83	0.00
546.00	37.45
546.16	21.06
546.33	56.17
546.50	30.43
546.67	56.17
546.83	72.56
547.00	105.32
547.17	60.85
547.34	30.43
547.50	11.70
547.67	11.70
547.84	4.68
548.00	58.51
548.17	14.04
548.34	110.01
548.51	138.09
548.67	63.19
548.84	0.00
549.01	72.56
549.18	98.30
549.34	86.60
549.51	60.85
549.68	74.90
549.84	77.24
550.01	67.88
550.18	126.39
550.34	74.90
550.51	37.45
550.68	49.15
550.84	4.68
551.01	58.51
551.18	93.62
551.34	67.88
551.51	56.17
551.68	39.79
551.84	51.49
552.01	2.34
552.18	72.56
552.34	21.06
552.51	46.81
552.68	58.51
552.84	28.09
553.01	49.15
553.18	46.81
553.34	21.06
553.51	23.41
553.67	23.41
553.84	0.00
554.01	37.45
554.17	28.09
554.34	46.81
554.51	23.41
554.67	86.60
554.84	4.68
555.00	0.00
555.17	65.54
555.33	70.22
555.50	18.72
555.67	23.41
555.83	16.38
556.00	0.00
556.16	77.24
556.33	86.60
556.50	0.00
556.66	42.13
556.83	28.09
556.99	23.41
557.16	65.54
557.32	0.00
557.49	18.72
557.65	79.58
557.82	14.04
557.98	65.54
558.15	44.47
558.32	49.15
558.48	18.72
558.65	93.62
558.81	124.05
558.98	58.51
559.14	9.36
559.31	114.69
559.47	53.83
559.64	91.28
559.80	0.00
559.97	110.01
560.13	72.56
560.30	0.00
560.46	37.45
560.63	18.72
560.79	70.22
560.96	11.70
561.12	2.34
561.29	79.58
561.45	32.77
561.61	49.15
561.78	112.35
561.94	2.34
562.11	0.00
562.27	70.22
562.44	28.09
562.60	0.00
562.77	46.81
562.93	18.72
563.10	56.17
563.26	49.15
563.42	142.77
563.59	28.09
563.75	67.88
563.92	70.22
564.08	77.24
564.24	0.00
564.41	95.96
564.57	32.77
564.74	72.56
564.90	0.00
565.07	32.77
565.23	0.00
565.39	117.03
565.56	7.02
565.72	88.94
565.88	0.00
566.05	11.70
566.21	18.72
566.38	84.26
566.54	98.30
566.70	37.45
566.87	44.47
567.03	35.11
567.19	44.47
567.36	91.28
567.52	9.36
567.68	105.32
567.85	74.90
568.01	93.62
568.17	11.70
568.34	0.00
568.50	53.83
568.66	91.28
568.83	37.45
568.99	58.51
569.15	53.83
569.32	42.13
569.48	49.15
569.64	9.36
569.81	35.11
569.97	37.45
570.13	53.83
570.30	0.00
570.46	4.68
570.62	81.92
570.78	128.73
570.95	42.13
571.11	39.79
571.27	46.81
571.43	46.81
571.60	21.06
571.76	0.00
571.92	44.47
572.09	86.60
572.25	49.15
572.41	81.92
572.57	79.58
572.74	79.58
572.90	91.28
573.06	37.45
573.22	11.70
573.38	37.45
573.55	65.54
573.71	0.00
573.87	9.36
574.03	67.88
574.20	35.11
574.36	25.75
574.52	67.88
574.68	16.38
574.84	74.90
575.01	91.28
575.17	37.45
575.33	42.13
575.49	39.79
575.65	56.17
575.82	74.90
575.98	21.06
576.14	51.49
576.30	21.06
576.46	37.45
576.62	0.00
576.79	23.41
576.95	23.41
577.11	0.00
577.27	0.00
577.43	32.77
577.59	79.58
577.75	0.00
577.92	65.54
578.08	105.32
578.24	112.35
578.40	18.72
578.56	105.32
578.72	0.00
578.88	32.77
579.04	11.70
579.21	0.00
579.37	98.30
579.53	0.00
579.69	79.58
579.85	58.51
580.01	77.24
580.17	105.32
580.33	46.81
580.49	49.15
580.65	18.72
580.82	124.05
580.98	39.79
581.14	9.36
581.30	21.06
581.46	58.51
581.62	0.00
581.78	72.56
581.94	58.51
582.10	0.00
582.26	51.49
582.42	21.06
582.58	44.47
582.74	51.49
582.90	2.34
583.06	23.41
583.22	84.26
583.38	7.02
583.54	95.96
583.70	7.02
583.86	91.28
584.02	63.19
584.18	9.36
584.34	25.75
584.50	98.30
584.66	21.06
584.82	102.98
584.98	11.70
585.14	39.79
585.30	93.62
585.46	114.69
585.62	65.54
585.78	4.68
585.94	53.83
586.10	39.79
586.26	39.79
586.42	79.58
586.58	70.22
586.74	53.83
586.90	0.00
587.06	100.64
587.22	46.81
587.38	14.04
587.54	79.58
587.70	18.72
587.86	95.96
588.02	182.56
588.18	119.37
588.34	0.00
588.49	49.15
588.65	39.79
588.81	49.15
588.97	0.00
589.13	72.56
589.29	0.00
589.45	46.81
589.61	91.28
589.77	0.00
589.93	0.00
590.08	14.04
590.24	9.36
590.40	9.36
590.56	105.32
590.72	0.00
590.88	63.19
591.04	49.15
591.20	58.51
591.35	58.51
591.51	21.06
591.67	32.77
591.83	11.70
591.99	74.90
592.15	56.17
592.31	56.17
592.46	39.79
592.62	25.75
592.78	0.00
592.94	2.34
593.10	74.90
593.26	74.90
593.41	11.70
593.57	37.45
593.73	72.56
593.89	107.66
594.05	11.70
594.20	70.22
594.36	56.17
594.52	0.00
594.68	37.45
594.84	98.30
594.99	11.70
595.15	32.77
595.31	100.64
595.47	88.94
595.62	86.60
595.78	58.51
595.94	30.43
596.10	0.00
596.25	0.00
596.41	63.19
596.57	65.54
596.73	56.17
596.88	28.09
597.04	51.49
597.20	60.85
597.36	23.41
597.51	32.77
597.67	74.90
597.83	2.34
597.99	0.00
598.14	49.15
598.30	7.02
598.46	60.85
598.61	70.22
598.77	49.15
598.93	63.19
599.09	30.43
599.24	23.41
599.40	4.68
599.56	117.03
599.71	100.64
599.87	28.09
600.03	25.75
600.18	74.90
600.34	63.19
600.50	51.49
600.65	51.49
600.81	0.00
600.97	2.34
601.12	70.22
601.28	86.60
601.44	9.36
601.59	56.17
601.75	58.51
601.91	4.68
602.06	0.00
602.22	4.68
602.37	81.92
602.53	159.16
602.69	102.98
602.84	72.56
603.00	35.11
603.16	32.77
603.31	77.24
603.47	16.38
603.62	0.00
603.78	42.13
603.94	7.02
604.09	7.02
604.25	0.00
604.40	7.02
604.56	23.41
604.71	72.56
604.87	46.81
605.03	72.56
605.18	0.00
605.34	67.88
605.49	74.90
605.65	0.00
605.80	91.28
605.96	95.96
606.12	37.45
606.27	49.15
606.43	39.79
606.58	28.09
606.74	7.02
606.89	65.54
607.05	37.45
607.20	98.30
607.36	35.11
607.51	86.60
607.67	30.43
607.82	0.00
607.98	23.41
608.13	53.83
608.29	4.68
608.44	25.75
608.60	7.02
608.75	0.00
608.91	86.60
609.06	23.41
609.22	84.26
609.37	46.81
609.53	100.64
609.68	93.62
609.84	35.11
609.99	63.19
610.15	86.60
610.30	56.17
610.46	110.01
610.61	0.00
610.76	18.72
610.92	0.00
611.07	44.47
611.23	0.00
611.38	0.00
611.54	44.47
611.69	39.79
611.84	35.11
612.00	30.43
612.15	0.00
612.31	58.51
612.46	102.98
612.62	21.06
612.77	0.00
612.92	46.81
613.08	35.11
613.23	105.32
613.39	58.51
613.54	16.38
613.69	60.85
613.85	67.88
614.00	70.22
614.15	37.45
614.31	77.24
614.46	93.62
614.62	81.92
614.77	21.06
614.92	72.56
615.08	53.83
615.23	126.39
615.38	65.54
615.54	95.96
615.69	14.04
615.84	91.28
616.00	16.38
616.15	65.54
616.30	32.77
616.46	42.13
616.61	67.88
616.76	35.11
616.92	30.43
617.07	49.15
617.22	56.17
617.37	65.54
617.53	23.41
617.68	112.35
617.83	18.72
617.99	102.98
618.14	67.88
618.29	42.13
618.45	44.47
618.60	0.00
618.75	93.62
618.90	74.90
619.06	9.36
619.21	72.56
619.36	79.58
619.51	44.47
619.67	65.54
619.82	91.28
619.97	11.70
620.12	21.06
620.28	7.02
620.43	14.04
620.58	49.15
620.73	30.43
620.89	56.17
621.04	39.79
621.19	21.06
621.34	58.51
621.49	16.38
621.65	7.02
621.80	105.32
621.95	65.54
622.10	91.28
622.25	67.88
622.41	51.49
622.56	51.49
622.71	0.00
622.86	0.00
623.01	35.11
623.16	37.45
623.32	42.13
623.47	9.36
623.62	56.17
623.77	60.85
623.92	23.41
624.07	4.68
624.23	37.45
624.38	88.94
624.53	37.45
624.68	4.68
624.83	37.45
624.98	21.06
625.13	25.75
625.29	56.17
625.44	4.68
625.59	51.49
625.74	86.60
625.89	60.85
626.04	79.58
626.19	58.51
626.34	16.38
626.49	63.19
626.65	53.83
626.80	51.49
626.95	84.26
627.10	0.00
627.25	60.85
627.40	0.00
627.55	37.45
627.70	0.00
627.85	56.17
628.00	28.09
628.15	42.13
628.30	21.06
628.45	32.77
628.60	60.85
628.76	35.11
628.91	44.47
629.06	0.00
629.21	77.24
629.36	49.15
629.51	0.00
629.66	0.00
629.81	65.54
629.96	60.85
630.11	21.06
630.26	28.09
630.41	30.43
630.56	0.00
630.71	84.26
630.86	56.17
631.01	0.00
631.16	88.94
631.31	74.90
631.46	42.13
631.61	32.77
631.76	53.83
631.91	0.00
632.06	56.17
632.21	21.06
632.36	65.54
632.51	42.13
632.66	0.00
632.81	44.47
632.96	46.81
633.10	102.98
633.25	14.04
633.40	100.64
633.55	35.11
633.70	74.90
633.85	65.54
634.00	18.72
634.15	51.49
634.30	51.49
634.45	30.43
634.60	81.92
634.75	18.72
634.90	0.00
635.05	14.04
635.19	35.11
635.34	28.09
635.49	9.36
635.64	16.38
635.79	42.13
635.94	37.45
636.09	0.00
636.24	0.00
636.39	18.72
636.53	0.00
636.68	70.22
636.83	18.72
636.98	25.75
637.13	7.02
637.28	0.00
637.43	60.85
637.57	58.51
637.72	77.24
637.87	37.45
638.02	2.34
638.17	58.51
638.32	112.35
638.46	63.19
638.61	112.35
638.76	0.00
638.91	16.38
639.06	39.79
639.20	25.75
639.35	124.05
639.50	77.24
639.65	93.62
639.80	70.22
639.94	35.11
640.09	2.34
640.24	23.41
640.39	46.81
640.54	18.72
640.68	95.96
640.83	81.92
640.98	58.51
641.13	39.79
641.27	49.15
641.42	0.00
641.57	70.22
641.72	0.00
641.86	53.83
642.01	74.90
642.16	95.96
642.31	65.54
642.45	28.09
642.60	49.15
642.75	32.77
642.90	100.64
643.04	0.00
643.19	65.54
643.34	46.81
643.48	23.41
643.63	81.92
643.78	74.90
643.93	0.00
644.07	112.35
644.22	11.70
644.37	0.00
644.51	39.79
644.66	79.58
644.81	23.41
644.95	98.30
645.10	58.51
645.25	86.60
645.39	100.64
645.54	7.02
645.69	37.45
645.83	0.00
645.98	0.00
646.13	11.70
646.27	98.30
646.42	65.54
646.57	14.04
646.71	0.00
646.86	7.02
647.00	44.47
647.15	72.56
647.30	53.83
647.44	0.00
647.59	21.06
647.74	35.11
647.88	56.17
648.03	39.79
648.17	63.19
648.32	46.81
648.47	49.15
648.61	0.00
648.76	0.00
648.90	65.54
649.05	21.06
649.20	30.43
649.34	39.79
649.49	49.15
649.63	88.94
649.78	107.66
649.92	124.05
650.07	0.00
650.21	98.30
650.36	0.00
650.51	53.83
650.65	9.36
650.80	117.03
650.94	133.41
651.09	65.54
651.23	67.88
651.38	28.09
651.52	105.32
651.67	23.41
651.81	0.00
651.96	11.70
652.10	56.17
652.25	25.75
652.39	93.62
652.54	42.13
652.68	35.11
652.83	18.72
652.97	51.49
653.12	70.22
653.26	42.13
653.41	35.11
653.55	79.58
653.70	35.11
653.84	18.72
653.99	30.43
654.13	0.00
654.27	51.49
654.42	107.66
654.56	0.00
654.71	86.60
654.85	0.00
655.00	74.90
655.14	124.05
655.29	74.90
655.43	65.54
655.57	0.00
655.72	0.00
655.86	74.90
656.01	0.00
656.15	23.41
656.30	117.03
656.44	63.19
656.58	23.41
656.73	0.00
656.87	98.30
657.01	21.06
657.16	86.60
657.30	37.45
657.45	14.04
657.59	30.43
657.73	9.36
657.88	2.34
658.02	51.49
658.16	77.24
658.31	79.58
658.45	63.19
658.60	0.00
658.74	51.49
658.88	0.00
659.03	0.00
659.17	56.17
659.31	44.47
659.46	46.81
659.60	0.00
659.74	58.51
659.89	21.06
660.03	53.83
660.17	21.06
660.32	91.28
660.46	23.41
660.60	72.56
660.74	65.54
660.89	65.54
661.03	58.51
661.17	0.00
661.32	11.70
661.46	0.00
661.60	81.92
661.74	84.26
661.89	91.28
662.03	16.38
662.17	0.00
662.31	84.26
662.46	37.45
662.60	32.77
662.74	16.38
662.88	32.77
663.03	11.70
663.17	30.43
663.31	53.83
663.45	0.00
663.60	70.22
663.74	74.90
663.88	81.92
664.02	23.41
664.17	0.00
664.31	9.36
664.45	0.00
664.59	14.04
664.73	37.45
664.88	51.49
665.02	117.03
665.16	37.45
665.30	28.09
665.44	42.13
665.59	28.09
665.73	7.02
665.87	53.83
666.01	11.70
666.15	53.83
666.29	67.88
666.44	93.62
666.58	28.09
666.72	42.13
666.86	86.60
667.00	0.00
667.14	0.00
667.28	0.00
667.43	0.00
667.57	37.45
667.71	95.96
667.85	58.51
667.99	0.00
668.13	11.70
668.27	53.83
668.41	7.02
668.56	28.09
668.70	51.49
668.84	9.36
668.98	23.41
669.12	28.09
669.26	35.11
669.40	42.13
669.54	65.54
669.68	32.77
669.82	16.38
669.96	0.00
670.10	88.94
670.25	88.94
670.39	0.00
670.53	28.09
670.67	2.34
670.81	63.19
670.95	84.26
671.09	2.34
671.23	114.69
671.37	51.49
671.51	16.38
671.65	23.41
671.79	0.00
671.93	49.15
672.07	39.79
672.21	0.00
672.35	51.49
672.49	74.90
672.63	65.54
672.77	18.72
672.91	28.09
673.05	21.06
673.19	32.77
673.33	86.60
673.47	0.00
673.61	0.00
673.75	107.66
673.89	25.75
674.03	46.81
674.17	42.13
674.31	25.75
674.45	42.13
674.59	49.15
674.73	58.51
674.87	140.43
675.01	16.38
675.15	0.00
675.29	72.56
675.43	72.56
675.56	98.30
675.70	35.11
675.84	56.17
675.98	72.56
676.12	72.56
676.26	0.00
676.40	14.04
676.54	0.00
676.68	58.51
676.82	0.00
676.96	28.09
677.10	0.00
677.23	9.36
677.37	98.30
677.51	18.72
677.65	0.00
677.79	49.15
677.93	74.90
678.07	110.01
678.21	53.83
678.34	131.07
678.48	70.22
678.62	18.72
678.76	28.09
678.90	58.51
679.04	39.79
679.18	11.70
679.31	37.45
679.45	23.41
679.59	7.02
679.73	65.54
679.87	84.26
680.00	25.75
680.14	84.26
680.28	58.51
680.42	25.75
680.56	0.00
680.70	58.51
680.83	23.41
680.97	65.54
681.11	11.70
681.25	67.88
681.39	60.85
681.52	23.41
681.66	37.45
681.80	53.83
681.94	63.19
682.07	63.19
682.21	0.00
682.35	51.49
682.49	98.30
682.62	105.32
682.76	44.47
682.90	0.00
683.04	0.00
683.17	4.68
683.31	32.77
683.45	0.00
683.59	30.43
683.72	39.79
683.86	39.79
684.00	0.00
684.13	77.24
684.27	14.04
684.41	98.30
684.55	18.72
684.68	0.00
684.82	58.51
684.96	58.51
685.09	107.66
685.23	65.54
685.37	37.45
685.50	65.54
685.64	56.17
685.78	60.85
685.91	60.85
686.05	28.09
686.19	28.09
686.32	112.35
686.46	11.70
686.60	67.88
686.73	39.79
686.87	9.36
687.01	14.04
687.14	93.62
687.28	100.64
687.42	18.72
687.55	0.00
687.69	67.88
687.82	0.00
687.96	14.04
688.10	72.56
688.23	0.00
688.37	58.51
688.50	37.45
688.64	39.79
688.78	11.70
688.91	23.41
689.05	53.83
689.18	2.34
689.32	0.00
689.46	21.06
689.59	0.00
689.73	53.83
689.86	105.32
690.00	77.24
690.13	32.77
690.27	25.75
690.41	21.06
690.54	51.49
690.68	95.96
690.81	7.02
690.95	105.32
691.08	58.51
691.22	0.00
691.35	37.45
691.49	37.45
691.62	0.00
691.76	42.13
691.89	49.15
692.03	42.13
692.16	114.69
692.30	84.26
692.43	131.07
692.57	42.13
692.70	79.58
692.84	21.06
692.97	67.88
693.11	0.00
693.24	7.02
693.38	0.00
693.51	58.51
693.65	16.38
693.78	44.47
693.92	86.60
694.05	0.00
694.19	58.51
694.32	16.38
694.45	0.00
694.59	18.72
694.72	60.85
694.86	0.00
694.99	30.43
695.13	65.54
695.26	4.68
695.39	11.70
695.53	0.00
695.66	9.36
695.80	56.17
695.93	14.04
696.07	21.06
696.20	53.83
696.33	18.72
696.47	63.19
696.60	28.09
696.73	18.72
696.87	0.00
697.00	42.13
697.14	46.81
697.27	0.00
697.40	35.11
697.54	35.11
697.67	30.43
697.80	4.68
697.94	0.00
698.07	0.00
698.21	46.81
698.34	51.49
698.47	67.88
698.61	0.00
698.74	32.77
698.87	0.00
699.01	16.38
699.14	25.75
699.27	65.54
699.40	60.85
699.54	9.36
699.67	74.90
699.80	60.85
699.94	23.41
700.07	0.00
700.20	56.17
700.34	0.00
700.47	35.11
700.60	16.38
700.73	0.00
700.87	56.17
701.00	28.09
701.13	11.70
701.26	11.70
701.40	0.00
701.53	21.06
701.66	37.45
701.79	46.81
701.93	44.47
702.06	44.47
702.19	21.06
702.32	9.36
702.46	42.13
702.59	32.77
702.72	0.00
702.85	58.51
702.99	16.38
703.12	35.11
703.25	25.75
703.38	9.36
703.51	0.00
703.65	91.28
703.78	0.00
703.91	0.00
704.04	37.45
704.17	32.77
704.31	0.00
704.44	0.00
704.57	0.00
704.70	0.00
704.83	39.79
704.96	51.49
705.10	44.47
705.23	74.90
>>>>>End Processed Spectral Data<<<<<
