SpectraSuite Data File
++++++++++++++++++++++++++++++++++++
Date: Fri Oct 04 12:13:25 GMT-05:00 2013
User: price-jones
Dark Spectrum Present: No
Reference Spectrum Present: No
Number of Sampled Component Spectra: 1
Spectrometers: USB2+H05261
Integration Time (usec): 10000 (USB2+H05261)
Spectra Averaged: 1 (USB2+H05261)
Boxcar Smoothing: 0 (USB2+H05261)
Correct for Electrical Dark: No (USB2+H05261)
Strobe/Lamp Enabled: No (USB2+H05261)
Correct for Detector Non-linearity: No (USB2+H05261)
Correct for Stray Light: No (USB2+H05261)
Number of Pixels in Processed Spectrum: 2048
>>>>>Begin Processed Spectral Data<<<<<
365.73	0.00
365.92	0.00
366.12	0.00
366.32	0.00
366.52	0.00
366.72	0.00
366.91	0.00
367.11	0.00
367.31	0.00
367.51	0.00
367.70	0.00
367.90	0.00
368.10	0.00
368.30	0.00
368.49	0.00
368.69	0.00
368.89	0.00
369.09	0.00
369.28	0.00
369.48	0.00
369.68	0.00
369.87	0.00
370.07	0.00
370.27	0.00
370.47	0.00
370.66	0.00
370.86	0.00
371.06	0.00
371.25	0.00
371.45	0.00
371.65	0.00
371.84	0.00
372.04	0.00
372.24	11.70
372.44	0.00
372.63	0.00
372.83	42.13
373.03	100.64
373.22	0.00
373.42	16.38
373.62	14.04
373.81	0.00
374.01	79.58
374.21	0.00
374.40	23.41
374.60	14.04
374.79	63.19
374.99	21.06
375.19	23.41
375.38	79.58
375.58	53.83
375.78	2.34
375.97	37.45
376.17	0.00
376.37	49.15
376.56	18.72
376.76	51.49
376.95	16.38
377.15	14.04
377.35	2.34
377.54	86.60
377.74	14.04
377.93	0.00
378.13	18.72
378.33	81.92
378.52	70.22
378.72	0.00
378.91	0.00
379.11	0.00
379.31	0.00
379.50	14.04
379.70	49.15
379.89	0.00
380.09	0.00
380.28	9.36
380.48	0.00
380.68	4.68
380.87	42.13
381.07	42.13
381.26	9.36
381.46	0.00
381.65	37.45
381.85	0.00
382.04	72.56
382.24	25.75
382.43	21.06
382.63	63.19
382.83	25.75
383.02	51.49
383.22	28.09
383.41	28.09
383.61	56.17
383.80	18.72
384.00	0.00
384.19	28.09
384.39	9.36
384.58	30.43
384.78	0.00
384.97	0.00
385.17	4.68
385.36	0.00
385.56	0.00
385.75	0.00
385.95	37.45
386.14	0.00
386.34	7.02
386.53	0.00
386.72	0.00
386.92	0.00
387.11	35.11
387.31	0.00
387.50	9.36
387.70	0.00
387.89	14.04
388.09	0.00
388.28	21.06
388.48	0.00
388.67	0.00
388.86	0.00
389.06	0.00
389.25	58.51
389.45	18.72
389.64	37.45
389.84	100.64
390.03	77.24
390.22	0.00
390.42	60.85
390.61	18.72
390.81	70.22
391.00	39.79
391.19	0.00
391.39	0.00
391.58	0.00
391.78	58.51
391.97	0.00
392.16	42.13
392.36	9.36
392.55	0.00
392.75	42.13
392.94	37.45
393.13	0.00
393.33	58.51
393.52	18.72
393.71	39.79
393.91	49.15
394.10	32.77
394.29	39.79
394.49	67.88
394.68	9.36
394.88	0.00
395.07	67.88
395.26	16.38
395.46	63.19
395.65	30.43
395.84	7.02
396.04	53.83
396.23	42.13
396.42	0.00
396.62	93.62
396.81	0.00
397.00	11.70
397.19	58.51
397.39	9.36
397.58	81.92
397.77	98.30
397.97	18.72
398.16	30.43
398.35	37.45
398.55	9.36
398.74	0.00
398.93	16.38
399.12	23.41
399.32	9.36
399.51	4.68
399.70	79.58
399.90	53.83
400.09	60.85
400.28	42.13
400.47	0.00
400.67	23.41
400.86	23.41
401.05	39.79
401.24	84.26
401.44	0.00
401.63	67.88
401.82	37.45
402.01	0.00
402.21	14.04
402.40	65.54
402.59	0.00
402.78	77.24
402.97	56.17
403.17	53.83
403.36	35.11
403.55	0.00
403.74	0.00
403.93	0.00
404.13	65.54
404.32	9.36
404.51	0.00
404.70	72.56
404.89	39.79
405.09	35.11
405.28	4.68
405.47	0.00
405.66	0.00
405.85	0.00
406.05	42.13
406.24	0.00
406.43	0.00
406.62	46.81
406.81	16.38
407.00	30.43
407.20	70.22
407.39	4.68
407.58	37.45
407.77	51.49
407.96	93.62
408.15	9.36
408.34	0.00
408.54	117.03
408.73	18.72
408.92	0.00
409.11	53.83
409.30	0.00
409.49	0.00
409.68	35.11
409.87	28.09
410.07	0.00
410.26	28.09
410.45	58.51
410.64	44.47
410.83	67.88
411.02	39.79
411.21	28.09
411.40	18.72
411.59	112.35
411.78	107.66
411.98	0.00
412.17	14.04
412.36	77.24
412.55	60.85
412.74	65.54
412.93	30.43
413.12	0.00
413.31	21.06
413.50	11.70
413.69	30.43
413.88	53.83
414.07	2.34
414.26	18.72
414.45	14.04
414.64	49.15
414.83	77.24
415.02	35.11
415.22	30.43
415.41	39.79
415.60	16.38
415.79	0.00
415.98	65.54
416.17	0.00
416.36	72.56
416.55	44.47
416.74	18.72
416.93	7.02
417.12	21.06
417.31	14.04
417.50	23.41
417.69	0.00
417.88	131.07
418.07	32.77
418.26	0.00
418.45	60.85
418.64	0.00
418.83	7.02
419.02	9.36
419.21	0.00
419.39	32.77
419.58	0.00
419.77	0.00
419.96	0.00
420.15	44.47
420.34	35.11
420.53	0.00
420.72	0.00
420.91	2.34
421.10	32.77
421.29	0.00
421.48	51.49
421.67	16.38
421.86	2.34
422.05	30.43
422.24	79.58
422.43	91.28
422.61	0.00
422.80	14.04
422.99	0.00
423.18	0.00
423.37	18.72
423.56	0.00
423.75	35.11
423.94	49.15
424.13	0.00
424.32	98.30
424.50	30.43
424.69	37.45
424.88	77.24
425.07	86.60
425.26	0.00
425.45	81.92
425.64	56.17
425.83	70.22
426.01	42.13
426.20	14.04
426.39	4.68
426.58	0.00
426.77	0.00
426.96	39.79
427.15	0.00
427.33	0.00
427.52	39.79
427.71	18.72
427.90	35.11
428.09	11.70
428.28	0.00
428.46	56.17
428.65	100.64
428.84	86.60
429.03	0.00
429.22	98.30
429.40	0.00
429.59	37.45
429.78	21.06
429.97	42.13
430.16	77.24
430.34	102.98
430.53	0.00
430.72	7.02
430.91	2.34
431.10	77.24
431.28	0.00
431.47	46.81
431.66	35.11
431.85	0.00
432.03	4.68
432.22	0.00
432.41	53.83
432.60	42.13
432.79	0.00
432.97	0.00
433.16	23.41
433.35	35.11
433.54	35.11
433.72	117.03
433.91	0.00
434.10	42.13
434.28	91.28
434.47	86.60
434.66	0.00
434.85	53.83
435.03	35.11
435.22	0.00
435.41	25.75
435.59	0.00
435.78	14.04
435.97	21.06
436.16	100.64
436.34	56.17
436.53	46.81
436.72	4.68
436.90	0.00
437.09	0.00
437.28	11.70
437.46	0.00
437.65	25.75
437.84	14.04
438.02	77.24
438.21	88.94
438.40	25.75
438.58	0.00
438.77	49.15
438.96	35.11
439.14	49.15
439.33	67.88
439.52	42.13
439.70	86.60
439.89	9.36
440.08	0.00
440.26	65.54
440.45	53.83
440.63	14.04
440.82	46.81
441.01	44.47
441.19	39.79
441.38	23.41
441.57	35.11
441.75	51.49
441.94	4.68
442.12	67.88
442.31	49.15
442.50	93.62
442.68	0.00
442.87	0.00
443.05	63.19
443.24	49.15
443.43	42.13
443.61	28.09
443.80	11.70
443.98	0.00
444.17	0.00
444.35	91.28
444.54	37.45
444.73	63.19
444.91	0.00
445.10	14.04
445.28	0.00
445.47	95.96
445.65	16.38
445.84	0.00
446.02	0.00
446.21	4.68
446.39	25.75
446.58	9.36
446.77	126.39
446.95	0.00
447.14	60.85
447.32	2.34
447.51	7.02
447.69	39.79
447.88	0.00
448.06	56.17
448.25	42.13
448.43	30.43
448.62	0.00
448.80	0.00
448.99	0.00
449.17	0.00
449.36	39.79
449.54	67.88
449.73	60.85
449.91	65.54
450.10	0.00
450.28	25.75
450.46	4.68
450.65	18.72
450.83	67.88
451.02	93.62
451.20	16.38
451.39	0.00
451.57	37.45
451.76	60.85
451.94	0.00
452.13	60.85
452.31	81.92
452.49	14.04
452.68	0.00
452.86	28.09
453.05	9.36
453.23	56.17
453.42	35.11
453.60	16.38
453.78	0.00
453.97	21.06
454.15	49.15
454.34	28.09
454.52	2.34
454.70	0.00
454.89	67.88
455.07	0.00
455.26	14.04
455.44	79.58
455.62	2.34
455.81	58.51
455.99	37.45
456.17	0.00
456.36	46.81
456.54	49.15
456.73	114.69
456.91	100.64
457.09	16.38
457.28	42.13
457.46	84.26
457.64	79.58
457.83	65.54
458.01	0.00
458.19	56.17
458.38	91.28
458.56	53.83
458.74	0.00
458.93	58.51
459.11	74.90
459.29	49.15
459.48	11.70
459.66	58.51
459.84	42.13
460.03	152.13
460.21	0.00
460.39	21.06
460.57	0.00
460.76	110.01
460.94	93.62
461.12	25.75
461.31	11.70
461.49	18.72
461.67	23.41
461.85	112.35
462.04	30.43
462.22	88.94
462.40	0.00
462.59	21.06
462.77	25.75
462.95	128.73
463.13	0.00
463.32	0.00
463.50	23.41
463.68	21.06
463.86	63.19
464.05	0.00
464.23	21.06
464.41	2.34
464.59	21.06
464.78	0.00
464.96	42.13
465.14	49.15
465.32	42.13
465.50	14.04
465.69	42.13
465.87	0.00
466.05	0.00
466.23	65.54
466.41	21.06
466.60	39.79
466.78	11.70
466.96	30.43
467.14	23.41
467.32	28.09
467.51	16.38
467.69	18.72
467.87	0.00
468.05	53.83
468.23	30.43
468.41	2.34
468.60	4.68
468.78	70.22
468.96	91.28
469.14	0.00
469.32	16.38
469.50	0.00
469.69	7.02
469.87	14.04
470.05	0.00
470.23	16.38
470.41	11.70
470.59	51.49
470.77	21.06
470.95	0.00
471.14	9.36
471.32	30.43
471.50	114.69
471.68	0.00
471.86	91.28
472.04	16.38
472.22	0.00
472.40	9.36
472.58	9.36
472.77	37.45
472.95	58.51
473.13	63.19
473.31	77.24
473.49	30.43
473.67	46.81
473.85	81.92
474.03	32.77
474.21	37.45
474.39	63.19
474.57	102.98
474.75	2.34
474.93	53.83
475.12	4.68
475.30	2.34
475.48	28.09
475.66	0.00
475.84	0.00
476.02	49.15
476.20	11.70
476.38	0.00
476.56	30.43
476.74	28.09
476.92	65.54
477.10	16.38
477.28	49.15
477.46	0.00
477.64	9.36
477.82	51.49
478.00	4.68
478.18	0.00
478.36	21.06
478.54	35.11
478.72	0.00
478.90	30.43
479.08	44.47
479.26	4.68
479.44	16.38
479.62	25.75
479.80	0.00
479.98	60.85
480.16	37.45
480.34	2.34
480.52	100.64
480.70	46.81
480.88	35.11
481.06	7.02
481.24	0.00
481.41	2.34
481.59	28.09
481.77	56.17
481.95	121.71
482.13	65.54
482.31	0.00
482.49	46.81
482.67	91.28
482.85	84.26
483.03	86.60
483.21	65.54
483.39	0.00
483.57	74.90
483.74	0.00
483.92	65.54
484.10	0.00
484.28	79.58
484.46	0.00
484.64	30.43
484.82	37.45
485.00	0.00
485.18	0.00
485.35	0.00
485.53	25.75
485.71	21.06
485.89	14.04
486.07	39.79
486.25	4.68
486.43	0.00
486.61	79.58
486.78	39.79
486.96	14.04
487.14	18.72
487.32	14.04
487.50	28.09
487.68	74.90
487.85	0.00
488.03	25.75
488.21	18.72
488.39	18.72
488.57	0.00
488.75	14.04
488.92	91.28
489.10	25.75
489.28	42.13
489.46	72.56
489.64	14.04
489.81	32.77
489.99	58.51
490.17	16.38
490.35	46.81
490.53	0.00
490.70	28.09
490.88	60.85
491.06	0.00
491.24	105.32
491.41	21.06
491.59	105.32
491.77	46.81
491.95	39.79
492.13	53.83
492.30	35.11
492.48	16.38
492.66	23.41
492.84	14.04
493.01	88.94
493.19	72.56
493.37	63.19
493.54	0.00
493.72	93.62
493.90	107.66
494.08	30.43
494.25	65.54
494.43	21.06
494.61	46.81
494.79	32.77
494.96	102.98
495.14	25.75
495.32	0.00
495.49	67.88
495.67	28.09
495.85	25.75
496.02	30.43
496.20	44.47
496.38	49.15
496.55	0.00
496.73	74.90
496.91	65.54
497.09	51.49
497.26	32.77
497.44	23.41
497.62	77.24
497.79	32.77
497.97	100.64
498.14	56.17
498.32	30.43
498.50	7.02
498.67	0.00
498.85	44.47
499.03	0.00
499.20	21.06
499.38	93.62
499.56	25.75
499.73	18.72
499.91	21.06
500.08	79.58
500.26	51.49
500.44	42.13
500.61	60.85
500.79	35.11
500.97	72.56
501.14	9.36
501.32	7.02
501.49	74.90
501.67	42.13
501.84	86.60
502.02	25.75
502.20	51.49
502.37	0.00
502.55	25.75
502.72	46.81
502.90	32.77
503.07	14.04
503.25	0.00
503.43	49.15
503.60	110.01
503.78	88.94
503.95	21.06
504.13	30.43
504.30	21.06
504.48	30.43
504.65	16.38
504.83	107.66
505.01	23.41
505.18	14.04
505.36	74.90
505.53	133.41
505.71	23.41
505.88	91.28
506.06	14.04
506.23	60.85
506.41	49.15
506.58	51.49
506.76	0.00
506.93	28.09
507.11	49.15
507.28	56.17
507.46	84.26
507.63	77.24
507.81	74.90
507.98	16.38
508.16	70.22
508.33	25.75
508.50	25.75
508.68	35.11
508.85	46.81
509.03	63.19
509.20	4.68
509.38	16.38
509.55	23.41
509.73	39.79
509.90	74.90
510.08	46.81
510.25	56.17
510.42	72.56
510.60	0.00
510.77	44.47
510.95	9.36
511.12	0.00
511.30	18.72
511.47	84.26
511.64	32.77
511.82	49.15
511.99	51.49
512.17	21.06
512.34	39.79
512.51	30.43
512.69	72.56
512.86	46.81
513.04	79.58
513.21	16.38
513.38	14.04
513.56	60.85
513.73	9.36
513.90	39.79
514.08	30.43
514.25	81.92
514.43	28.09
514.60	81.92
514.77	86.60
514.95	37.45
515.12	53.83
515.29	14.04
515.47	7.02
515.64	53.83
515.81	0.00
515.99	30.43
516.16	74.90
516.33	39.79
516.51	60.85
516.68	25.75
516.85	44.47
517.03	56.17
517.20	58.51
517.37	16.38
517.54	0.00
517.72	0.00
517.89	0.00
518.06	49.15
518.24	51.49
518.41	30.43
518.58	53.83
518.75	16.38
518.93	81.92
519.10	0.00
519.27	44.47
519.45	23.41
519.62	14.04
519.79	53.83
519.96	32.77
520.14	0.00
520.31	112.35
520.48	9.36
520.65	56.17
520.83	67.88
521.00	14.04
521.17	42.13
521.34	0.00
521.52	58.51
521.69	107.66
521.86	0.00
522.03	79.58
522.20	65.54
522.38	79.58
522.55	46.81
522.72	37.45
522.89	121.71
523.07	32.77
523.24	2.34
523.41	0.00
523.58	53.83
523.75	21.06
523.92	0.00
524.10	32.77
524.27	81.92
524.44	0.00
524.61	79.58
524.78	23.41
524.96	100.64
525.13	67.88
525.30	14.04
525.47	37.45
525.64	93.62
525.81	32.77
525.98	56.17
526.16	70.22
526.33	23.41
526.50	28.09
526.67	53.83
526.84	2.34
527.01	46.81
527.18	42.13
527.36	23.41
527.53	28.09
527.70	46.81
527.87	44.47
528.04	98.30
528.21	0.00
528.38	0.00
528.55	72.56
528.72	72.56
528.89	0.00
529.07	18.72
529.24	37.45
529.41	72.56
529.58	51.49
529.75	46.81
529.92	30.43
530.09	121.71
530.26	58.51
530.43	39.79
530.60	0.00
530.77	39.79
530.94	9.36
531.11	51.49
531.28	0.00
531.46	65.54
531.63	63.19
531.80	53.83
531.97	14.04
532.14	28.09
532.31	53.83
532.48	77.24
532.65	51.49
532.82	46.81
532.99	67.88
533.16	74.90
533.33	0.00
533.50	16.38
533.67	14.04
533.84	102.98
534.01	4.68
534.18	65.54
534.35	16.38
534.52	23.41
534.69	60.85
534.86	16.38
535.03	124.05
535.20	28.09
535.37	79.58
535.54	18.72
535.71	79.58
535.88	60.85
536.05	49.15
536.22	58.51
536.38	14.04
536.55	58.51
536.72	56.17
536.89	18.72
537.06	72.56
537.23	53.83
537.40	0.00
537.57	58.51
537.74	37.45
537.91	58.51
538.08	81.92
538.25	49.15
538.42	2.34
538.59	60.85
538.75	14.04
538.92	42.13
539.09	37.45
539.26	74.90
539.43	32.77
539.60	119.37
539.77	56.17
539.94	70.22
540.11	51.49
540.28	30.43
540.44	32.77
540.61	14.04
540.78	53.83
540.95	4.68
541.12	107.66
541.29	49.15
541.46	51.49
541.62	117.03
541.79	70.22
541.96	0.00
542.13	30.43
542.30	42.13
542.47	58.51
542.63	0.00
542.80	37.45
542.97	4.68
543.14	46.81
543.31	58.51
543.48	86.60
543.64	2.34
543.81	58.51
543.98	84.26
544.15	51.49
544.32	0.00
544.48	84.26
544.65	0.00
544.82	42.13
544.99	11.70
545.16	84.26
545.32	11.70
545.49	0.00
545.66	0.00
545.83	25.75
546.00	21.06
546.16	18.72
546.33	0.00
546.50	25.75
546.67	86.60
546.83	14.04
547.00	2.34
547.17	79.58
547.34	30.43
547.50	37.45
547.67	84.26
547.84	16.38
548.00	30.43
548.17	46.81
548.34	67.88
548.51	0.00
548.67	126.39
548.84	21.06
549.01	28.09
549.18	46.81
549.34	60.85
549.51	25.75
549.68	72.56
549.84	93.62
550.01	0.00
550.18	39.79
550.34	9.36
550.51	79.58
550.68	2.34
550.84	16.38
551.01	63.19
551.18	30.43
551.34	0.00
551.51	79.58
551.68	0.00
551.84	37.45
552.01	51.49
552.18	28.09
552.34	18.72
552.51	65.54
552.68	60.85
552.84	39.79
553.01	67.88
553.18	42.13
553.34	32.77
553.51	70.22
553.67	0.00
553.84	0.00
554.01	11.70
554.17	84.26
554.34	44.47
554.51	56.17
554.67	35.11
554.84	16.38
555.00	23.41
555.17	44.47
555.33	93.62
555.50	84.26
555.67	72.56
555.83	18.72
556.00	7.02
556.16	56.17
556.33	16.38
556.50	91.28
556.66	65.54
556.83	4.68
556.99	30.43
557.16	23.41
557.32	42.13
557.49	0.00
557.65	0.00
557.82	58.51
557.98	42.13
558.15	77.24
558.32	86.60
558.48	114.69
558.65	60.85
558.81	67.88
558.98	65.54
559.14	46.81
559.31	60.85
559.47	95.96
559.64	60.85
559.80	49.15
559.97	86.60
560.13	7.02
560.30	39.79
560.46	35.11
560.63	91.28
560.79	4.68
560.96	32.77
561.12	86.60
561.29	95.96
561.45	67.88
561.61	9.36
561.78	21.06
561.94	0.00
562.11	23.41
562.27	60.85
562.44	51.49
562.60	18.72
562.77	35.11
562.93	91.28
563.10	53.83
563.26	72.56
563.42	70.22
563.59	51.49
563.75	30.43
563.92	21.06
564.08	51.49
564.24	35.11
564.41	35.11
564.57	18.72
564.74	60.85
564.90	60.85
565.07	42.13
565.23	53.83
565.39	67.88
565.56	18.72
565.72	86.60
565.88	0.00
566.05	100.64
566.21	11.70
566.38	39.79
566.54	35.11
566.70	107.66
566.87	30.43
567.03	37.45
567.19	0.00
567.36	51.49
567.52	0.00
567.68	86.60
567.85	0.00
568.01	95.96
568.17	46.81
568.34	14.04
568.50	0.00
568.66	60.85
568.83	53.83
568.99	9.36
569.15	60.85
569.32	102.98
569.48	18.72
569.64	11.70
569.81	42.13
569.97	42.13
570.13	21.06
570.30	39.79
570.46	32.77
570.62	0.00
570.78	124.05
570.95	56.17
571.11	67.88
571.27	0.00
571.43	42.13
571.60	32.77
571.76	0.00
571.92	98.30
572.09	46.81
572.25	56.17
572.41	25.75
572.57	37.45
572.74	56.17
572.90	77.24
573.06	93.62
573.22	53.83
573.38	14.04
573.55	23.41
573.71	30.43
573.87	30.43
574.03	56.17
574.20	7.02
574.36	35.11
574.52	0.00
574.68	30.43
574.84	110.01
575.01	44.47
575.17	74.90
575.33	28.09
575.49	0.00
575.65	67.88
575.82	154.48
575.98	49.15
576.14	0.00
576.30	81.92
576.46	42.13
576.62	72.56
576.79	18.72
576.95	7.02
577.11	72.56
577.27	74.90
577.43	46.81
577.59	30.43
577.75	9.36
577.92	44.47
578.08	25.75
578.24	46.81
578.40	77.24
578.56	100.64
578.72	81.92
578.88	58.51
579.04	0.00
579.21	0.00
579.37	0.00
579.53	7.02
579.69	14.04
579.85	11.70
580.01	39.79
580.17	56.17
580.33	126.39
580.49	9.36
580.65	58.51
580.82	35.11
580.98	74.90
581.14	30.43
581.30	42.13
581.46	65.54
581.62	44.47
581.78	74.90
581.94	53.83
582.10	16.38
582.26	0.00
582.42	42.13
582.58	18.72
582.74	107.66
582.90	0.00
583.06	105.32
583.22	0.00
583.38	21.06
583.54	7.02
583.70	93.62
583.86	70.22
584.02	35.11
584.18	49.15
584.34	0.00
584.50	37.45
584.66	35.11
584.82	35.11
584.98	81.92
585.14	25.75
585.30	0.00
585.46	65.54
585.62	79.58
585.78	21.06
585.94	91.28
586.10	0.00
586.26	46.81
586.42	32.77
586.58	81.92
586.74	37.45
586.90	133.41
587.06	21.06
587.22	4.68
587.38	70.22
587.54	0.00
587.70	63.19
587.86	77.24
588.02	72.56
588.18	2.34
588.34	60.85
588.49	0.00
588.65	56.17
588.81	91.28
588.97	35.11
589.13	18.72
589.29	0.00
589.45	65.54
589.61	0.00
589.77	30.43
589.93	0.00
590.08	79.58
590.24	112.35
590.40	81.92
590.56	18.72
590.72	72.56
590.88	0.00
591.04	0.00
591.20	51.49
591.35	67.88
591.51	35.11
591.67	32.77
591.83	18.72
591.99	0.00
592.15	65.54
592.31	63.19
592.46	0.00
592.62	0.00
592.78	28.09
592.94	72.56
593.10	58.51
593.26	7.02
593.41	0.00
593.57	0.00
593.73	58.51
593.89	60.85
594.05	60.85
594.20	35.11
594.36	7.02
594.52	110.01
594.68	39.79
594.84	63.19
594.99	42.13
595.15	53.83
595.31	91.28
595.47	86.60
595.62	46.81
595.78	0.00
595.94	37.45
596.10	21.06
596.25	53.83
596.41	56.17
596.57	110.01
596.73	39.79
596.88	0.00
597.04	51.49
597.20	21.06
597.36	16.38
597.51	56.17
597.67	46.81
597.83	46.81
597.99	70.22
598.14	0.00
598.30	0.00
598.46	18.72
598.61	18.72
598.77	0.00
598.93	46.81
599.09	23.41
599.24	25.75
599.40	44.47
599.56	25.75
599.71	28.09
599.87	77.24
600.03	32.77
600.18	23.41
600.34	107.66
600.50	35.11
600.65	28.09
600.81	32.77
600.97	86.60
601.12	60.85
601.28	21.06
601.44	46.81
601.59	63.19
601.75	0.00
601.91	21.06
602.06	65.54
602.22	84.26
602.37	84.26
602.53	79.58
602.69	30.43
602.84	42.13
603.00	53.83
603.16	49.15
603.31	0.00
603.47	0.00
603.62	0.00
603.78	7.02
603.94	18.72
604.09	21.06
604.25	81.92
604.40	0.00
604.56	32.77
604.71	0.00
604.87	0.00
605.03	124.05
605.18	56.17
605.34	0.00
605.49	0.00
605.65	79.58
605.80	56.17
605.96	0.00
606.12	65.54
606.27	74.90
606.43	65.54
606.58	21.06
606.74	14.04
606.89	21.06
607.05	4.68
607.20	18.72
607.36	105.32
607.51	42.13
607.67	0.00
607.82	0.00
607.98	91.28
608.13	56.17
608.29	16.38
608.44	25.75
608.60	35.11
608.75	70.22
608.91	56.17
609.06	56.17
609.22	0.00
609.37	0.00
609.53	58.51
609.68	14.04
609.84	16.38
609.99	0.00
610.15	11.70
610.30	0.00
610.46	11.70
610.61	39.79
610.76	51.49
610.92	93.62
611.07	95.96
611.23	60.85
611.38	53.83
611.54	67.88
611.69	4.68
611.84	74.90
612.00	21.06
612.15	37.45
612.31	88.94
612.46	4.68
612.62	0.00
612.77	46.81
612.92	21.06
613.08	77.24
613.23	84.26
613.39	44.47
613.54	0.00
613.69	0.00
613.85	39.79
614.00	72.56
614.15	21.06
614.31	0.00
614.46	18.72
614.62	37.45
614.77	4.68
614.92	30.43
615.08	28.09
615.23	56.17
615.38	0.00
615.54	77.24
615.69	84.26
615.84	44.47
616.00	0.00
616.15	60.85
616.30	81.92
616.46	25.75
616.61	23.41
616.76	18.72
616.92	37.45
617.07	77.24
617.22	4.68
617.37	65.54
617.53	74.90
617.68	39.79
617.83	37.45
617.99	93.62
618.14	32.77
618.29	56.17
618.45	0.00
618.60	9.36
618.75	74.90
618.90	56.17
619.06	93.62
619.21	112.35
619.36	51.49
619.51	0.00
619.67	0.00
619.82	21.06
619.97	23.41
620.12	23.41
620.28	65.54
620.43	32.77
620.58	28.09
620.73	86.60
620.89	0.00
621.04	42.13
621.19	0.00
621.34	0.00
621.49	39.79
621.65	35.11
621.80	0.00
621.95	39.79
622.10	39.79
622.25	56.17
622.41	35.11
622.56	9.36
622.71	7.02
622.86	58.51
623.01	0.00
623.16	9.36
623.32	42.13
623.47	28.09
623.62	32.77
623.77	0.00
623.92	21.06
624.07	0.00
624.23	35.11
624.38	37.45
624.53	21.06
624.68	32.77
624.83	0.00
624.98	39.79
625.13	14.04
625.29	102.98
625.44	39.79
625.59	91.28
625.74	0.00
625.89	2.34
626.04	32.77
626.19	65.54
626.34	65.54
626.49	28.09
626.65	51.49
626.80	18.72
626.95	37.45
627.10	53.83
627.25	56.17
627.40	30.43
627.55	0.00
627.70	63.19
627.85	70.22
628.00	56.17
628.15	58.51
628.30	0.00
628.45	28.09
628.60	0.00
628.76	21.06
628.91	0.00
629.06	81.92
629.21	32.77
629.36	0.00
629.51	21.06
629.66	39.79
629.81	56.17
629.96	49.15
630.11	53.83
630.26	32.77
630.41	0.00
630.56	0.00
630.71	60.85
630.86	30.43
631.01	42.13
631.16	63.19
631.31	30.43
631.46	0.00
631.61	28.09
631.76	77.24
631.91	37.45
632.06	25.75
632.21	46.81
632.36	2.34
632.51	95.96
632.66	18.72
632.81	79.58
632.96	51.49
633.10	0.00
633.25	77.24
633.40	18.72
633.55	0.00
633.70	7.02
633.85	49.15
634.00	0.00
634.15	21.06
634.30	42.13
634.45	44.47
634.60	60.85
634.75	23.41
634.90	18.72
635.05	0.00
635.19	35.11
635.34	93.62
635.49	0.00
635.64	49.15
635.79	37.45
635.94	0.00
636.09	0.00
636.24	23.41
636.39	0.00
636.53	30.43
636.68	0.00
636.83	53.83
636.98	4.68
637.13	23.41
637.28	23.41
637.43	65.54
637.57	51.49
637.72	114.69
637.87	42.13
638.02	42.13
638.17	51.49
638.32	84.26
638.46	51.49
638.61	25.75
638.76	46.81
638.91	53.83
639.06	0.00
639.20	0.00
639.35	37.45
639.50	0.00
639.65	79.58
639.80	53.83
639.94	56.17
640.09	44.47
640.24	37.45
640.39	51.49
640.54	23.41
640.68	70.22
640.83	0.00
640.98	0.00
641.13	32.77
641.27	0.00
641.42	74.90
641.57	49.15
641.72	56.17
641.86	23.41
642.01	0.00
642.16	0.00
642.31	30.43
642.45	53.83
642.60	32.77
642.75	100.64
642.90	112.35
643.04	0.00
643.19	58.51
643.34	117.03
643.48	35.11
643.63	23.41
643.78	72.56
643.93	70.22
644.07	58.51
644.22	63.19
644.37	30.43
644.51	30.43
644.66	0.00
644.81	0.00
644.95	18.72
645.10	32.77
645.25	67.88
645.39	58.51
645.54	0.00
645.69	0.00
645.83	39.79
645.98	14.04
646.13	42.13
646.27	0.00
646.42	44.47
646.57	53.83
646.71	77.24
646.86	58.51
647.00	0.00
647.15	0.00
647.30	0.00
647.44	0.00
647.59	39.79
647.74	81.92
647.88	35.11
648.03	39.79
648.17	16.38
648.32	0.00
648.47	53.83
648.61	0.00
648.76	86.60
648.90	0.00
649.05	0.00
649.20	49.15
649.34	91.28
649.49	7.02
649.63	14.04
649.78	30.43
649.92	28.09
650.07	0.00
650.21	30.43
650.36	65.54
650.51	32.77
650.65	72.56
650.80	30.43
650.94	60.85
651.09	100.64
651.23	84.26
651.38	0.00
651.52	0.00
651.67	25.75
651.81	63.19
651.96	0.00
652.10	65.54
652.25	88.94
652.39	35.11
652.54	58.51
652.68	88.94
652.83	23.41
652.97	21.06
653.12	65.54
653.26	16.38
653.41	51.49
653.55	0.00
653.70	7.02
653.84	37.45
653.99	32.77
654.13	37.45
654.27	23.41
654.42	16.38
654.56	0.00
654.71	81.92
654.85	63.19
655.00	131.07
655.14	60.85
655.29	49.15
655.43	65.54
655.57	63.19
655.72	28.09
655.86	9.36
656.01	2.34
656.15	0.00
656.30	30.43
656.44	58.51
656.58	0.00
656.73	0.00
656.87	107.66
657.01	37.45
657.16	93.62
657.30	67.88
657.45	0.00
657.59	25.75
657.73	42.13
657.88	2.34
658.02	0.00
658.16	56.17
658.31	74.90
658.45	42.13
658.60	37.45
658.74	25.75
658.88	65.54
659.03	72.56
659.17	32.77
659.31	39.79
659.46	58.51
659.60	51.49
659.74	63.19
659.89	74.90
660.03	46.81
660.17	30.43
660.32	37.45
660.46	51.49
660.60	14.04
660.74	0.00
660.89	9.36
661.03	30.43
661.17	28.09
661.32	32.77
661.46	39.79
661.60	44.47
661.74	46.81
661.89	46.81
662.03	39.79
662.17	42.13
662.31	25.75
662.46	14.04
662.60	53.83
662.74	0.00
662.88	16.38
663.03	67.88
663.17	46.81
663.31	51.49
663.45	0.00
663.60	11.70
663.74	60.85
663.88	25.75
664.02	42.13
664.17	72.56
664.31	65.54
664.45	0.00
664.59	0.00
664.73	0.00
664.88	11.70
665.02	46.81
665.16	58.51
665.30	42.13
665.44	39.79
665.59	18.72
665.73	37.45
665.87	72.56
666.01	44.47
666.15	37.45
666.29	44.47
666.44	100.64
666.58	30.43
666.72	30.43
666.86	0.00
667.00	58.51
667.14	58.51
667.28	0.00
667.43	72.56
667.57	0.00
667.71	81.92
667.85	35.11
667.99	105.32
668.13	0.00
668.27	0.00
668.41	81.92
668.56	79.58
668.70	9.36
668.84	0.00
668.98	25.75
669.12	65.54
669.26	49.15
669.40	53.83
669.54	138.09
669.68	42.13
669.82	39.79
669.96	39.79
670.10	0.00
670.25	32.77
670.39	18.72
670.53	37.45
670.67	16.38
670.81	42.13
670.95	88.94
671.09	44.47
671.23	79.58
671.37	126.39
671.51	0.00
671.65	35.11
671.79	49.15
671.93	72.56
672.07	0.00
672.21	11.70
672.35	39.79
672.49	14.04
672.63	46.81
672.77	28.09
672.91	35.11
673.05	0.00
673.19	9.36
673.33	56.17
673.47	0.00
673.61	37.45
673.75	0.00
673.89	86.60
674.03	4.68
674.17	0.00
674.31	0.00
674.45	49.15
674.59	42.13
674.73	58.51
674.87	4.68
675.01	18.72
675.15	28.09
675.29	32.77
675.43	39.79
675.56	51.49
675.70	74.90
675.84	11.70
675.98	0.00
676.12	42.13
676.26	18.72
676.40	0.00
676.54	18.72
676.68	56.17
676.82	93.62
676.96	14.04
677.10	42.13
677.23	95.96
677.37	39.79
677.51	35.11
677.65	72.56
677.79	49.15
677.93	23.41
678.07	0.00
678.21	4.68
678.34	37.45
678.48	4.68
678.62	72.56
678.76	0.00
678.90	0.00
679.04	56.17
679.18	32.77
679.31	2.34
679.45	28.09
679.59	0.00
679.73	37.45
679.87	110.01
680.00	46.81
680.14	67.88
680.28	0.00
680.42	0.00
680.56	58.51
680.70	0.00
680.83	42.13
680.97	77.24
681.11	0.00
681.25	35.11
681.39	51.49
681.52	28.09
681.66	4.68
681.80	72.56
681.94	18.72
682.07	28.09
682.21	0.00
682.35	0.00
682.49	95.96
682.62	65.54
682.76	28.09
682.90	0.00
683.04	105.32
683.17	86.60
683.31	0.00
683.45	63.19
683.59	84.26
683.72	25.75
683.86	32.77
684.00	44.47
684.13	46.81
684.27	102.98
684.41	30.43
684.55	0.00
684.68	0.00
684.82	11.70
684.96	0.00
685.09	100.64
685.23	0.00
685.37	46.81
685.50	2.34
685.64	0.00
685.78	79.58
685.91	79.58
686.05	28.09
686.19	84.26
686.32	0.00
686.46	16.38
686.60	18.72
686.73	37.45
686.87	4.68
687.01	7.02
687.14	0.00
687.28	42.13
687.42	65.54
687.55	49.15
687.69	100.64
687.82	25.75
687.96	0.00
688.10	0.00
688.23	44.47
688.37	93.62
688.50	30.43
688.64	30.43
688.78	0.00
688.91	0.00
689.05	35.11
689.18	0.00
689.32	2.34
689.46	88.94
689.59	102.98
689.73	37.45
689.86	35.11
690.00	0.00
690.13	42.13
690.27	91.28
690.41	95.96
690.54	9.36
690.68	110.01
690.81	25.75
690.95	51.49
691.08	0.00
691.22	58.51
691.35	9.36
691.49	70.22
691.62	39.79
691.76	49.15
691.89	49.15
692.03	14.04
692.16	16.38
692.30	25.75
692.43	32.77
692.57	4.68
692.70	9.36
692.84	63.19
692.97	46.81
693.11	46.81
693.24	81.92
693.38	60.85
693.51	91.28
693.65	7.02
693.78	107.66
693.92	58.51
694.05	11.70
694.19	72.56
694.32	9.36
694.45	0.00
694.59	63.19
694.72	28.09
694.86	25.75
694.99	77.24
695.13	91.28
695.26	32.77
695.39	37.45
695.53	81.92
695.66	65.54
695.80	88.94
695.93	28.09
696.07	0.00
696.20	0.00
696.33	32.77
696.47	14.04
696.60	63.19
696.73	28.09
696.87	51.49
697.00	39.79
697.14	49.15
697.27	0.00
697.40	42.13
697.54	39.79
697.67	0.00
697.80	30.43
697.94	84.26
698.07	11.70
698.21	42.13
698.34	16.38
698.47	58.51
698.61	16.38
698.74	0.00
698.87	0.00
699.01	0.00
699.14	114.69
699.27	0.00
699.40	44.47
699.54	32.77
699.67	0.00
699.80	60.85
699.94	9.36
700.07	21.06
700.20	0.00
700.34	11.70
700.47	28.09
700.60	0.00
700.73	11.70
700.87	0.00
701.00	86.60
701.13	0.00
701.26	0.00
701.40	25.75
701.53	30.43
701.66	0.00
701.79	105.32
701.93	28.09
702.06	77.24
702.19	25.75
702.32	91.28
702.46	93.62
702.59	44.47
702.72	0.00
702.85	0.00
702.99	67.88
703.12	32.77
703.25	28.09
703.38	53.83
703.51	44.47
703.65	60.85
703.78	35.11
703.91	14.04
704.04	28.09
704.17	44.47
704.31	0.00
704.44	84.26
704.57	18.72
704.70	9.36
704.83	21.06
704.96	105.32
705.10	9.36
705.23	35.11
>>>>>End Processed Spectral Data<<<<<
