SpectraSuite Data File
++++++++++++++++++++++++++++++++++++
Date: Fri Oct 04 12:13:25 GMT-05:00 2013
User: price-jones
Dark Spectrum Present: No
Reference Spectrum Present: No
Number of Sampled Component Spectra: 1
Spectrometers: USB2+H05261
Integration Time (usec): 10000 (USB2+H05261)
Spectra Averaged: 1 (USB2+H05261)
Boxcar Smoothing: 0 (USB2+H05261)
Correct for Electrical Dark: No (USB2+H05261)
Strobe/Lamp Enabled: No (USB2+H05261)
Correct for Detector Non-linearity: No (USB2+H05261)
Correct for Stray Light: No (USB2+H05261)
Number of Pixels in Processed Spectrum: 2048
>>>>>Begin Processed Spectral Data<<<<<
365.73	0.00
365.92	0.00
366.12	0.00
366.32	0.00
366.52	0.00
366.72	0.00
366.91	0.00
367.11	0.00
367.31	0.00
367.51	0.00
367.70	0.00
367.90	0.00
368.10	0.00
368.30	0.00
368.49	0.00
368.69	0.00
368.89	0.00
369.09	0.00
369.28	0.00
369.48	0.00
369.68	0.00
369.87	0.00
370.07	0.00
370.27	0.00
370.47	0.00
370.66	0.00
370.86	0.00
371.06	7.02
371.25	0.00
371.45	0.00
371.65	0.00
371.84	7.02
372.04	0.00
372.24	0.00
372.44	39.79
372.63	0.00
372.83	53.83
373.03	58.51
373.22	37.45
373.42	9.36
373.62	0.00
373.81	0.00
374.01	58.51
374.21	84.26
374.40	25.75
374.60	18.72
374.79	35.11
374.99	60.85
375.19	67.88
375.38	58.51
375.58	44.47
375.78	18.72
375.97	74.90
376.17	65.54
376.37	0.00
376.56	11.70
376.76	0.00
376.95	37.45
377.15	81.92
377.35	32.77
377.54	37.45
377.74	65.54
377.93	56.17
378.13	72.56
378.33	63.19
378.52	0.00
378.72	46.81
378.91	53.83
379.11	124.05
379.31	0.00
379.50	79.58
379.70	18.72
379.89	35.11
380.09	0.00
380.28	0.00
380.48	44.47
380.68	14.04
380.87	0.00
381.07	2.34
381.26	35.11
381.46	0.00
381.65	0.00
381.85	0.00
382.04	44.47
382.24	2.34
382.43	0.00
382.63	18.72
382.83	53.83
383.02	0.00
383.22	44.47
383.41	0.00
383.61	0.00
383.80	2.34
384.00	21.06
384.19	0.00
384.39	30.43
384.58	11.70
384.78	14.04
384.97	72.56
385.17	0.00
385.36	0.00
385.56	86.60
385.75	25.75
385.95	7.02
386.14	79.58
386.34	0.00
386.53	0.00
386.72	0.00
386.92	51.49
387.11	60.85
387.31	46.81
387.50	0.00
387.70	93.62
387.89	0.00
388.09	0.00
388.28	4.68
388.48	0.00
388.67	14.04
388.86	0.00
389.06	2.34
389.25	28.09
389.45	0.00
389.64	0.00
389.84	79.58
390.03	53.83
390.22	67.88
390.42	2.34
390.61	16.38
390.81	0.00
391.00	0.00
391.19	72.56
391.39	9.36
391.58	0.00
391.78	49.15
391.97	35.11
392.16	32.77
392.36	23.41
392.55	18.72
392.75	18.72
392.94	14.04
393.13	51.49
393.33	32.77
393.52	0.00
393.71	23.41
393.91	0.00
394.10	0.00
394.29	7.02
394.49	0.00
394.68	21.06
394.88	21.06
395.07	23.41
395.26	0.00
395.46	58.51
395.65	65.54
395.84	0.00
396.04	77.24
396.23	14.04
396.42	0.00
396.62	0.00
396.81	102.98
397.00	74.90
397.19	16.38
397.39	49.15
397.58	18.72
397.77	42.13
397.97	14.04
398.16	28.09
398.35	0.00
398.55	88.94
398.74	21.06
398.93	81.92
399.12	4.68
399.32	0.00
399.51	63.19
399.70	21.06
399.90	0.00
400.09	0.00
400.28	0.00
400.47	42.13
400.67	46.81
400.86	21.06
401.05	39.79
401.24	37.45
401.44	39.79
401.63	95.96
401.82	46.81
402.01	0.00
402.21	46.81
402.40	0.00
402.59	42.13
402.78	0.00
402.97	42.13
403.17	42.13
403.36	0.00
403.55	44.47
403.74	14.04
403.93	79.58
404.13	23.41
404.32	0.00
404.51	30.43
404.70	53.83
404.89	0.00
405.09	81.92
405.28	58.51
405.47	14.04
405.66	0.00
405.85	0.00
406.05	4.68
406.24	16.38
406.43	0.00
406.62	0.00
406.81	9.36
407.00	30.43
407.20	7.02
407.39	0.00
407.58	98.30
407.77	0.00
407.96	0.00
408.15	42.13
408.34	56.17
408.54	35.11
408.73	4.68
408.92	32.77
409.11	0.00
409.30	14.04
409.49	0.00
409.68	32.77
409.87	32.77
410.07	0.00
410.26	112.35
410.45	0.00
410.64	0.00
410.83	58.51
411.02	16.38
411.21	16.38
411.40	49.15
411.59	88.94
411.78	0.00
411.98	70.22
412.17	18.72
412.36	11.70
412.55	16.38
412.74	32.77
412.93	4.68
413.12	7.02
413.31	72.56
413.50	9.36
413.69	32.77
413.88	0.00
414.07	28.09
414.26	56.17
414.45	0.00
414.64	0.00
414.83	60.85
415.02	72.56
415.22	56.17
415.41	18.72
415.60	9.36
415.79	23.41
415.98	124.05
416.17	0.00
416.36	98.30
416.55	65.54
416.74	35.11
416.93	95.96
417.12	32.77
417.31	42.13
417.50	42.13
417.69	81.92
417.88	42.13
418.07	37.45
418.26	49.15
418.45	11.70
418.64	84.26
418.83	0.00
419.02	25.75
419.21	30.43
419.39	11.70
419.58	18.72
419.77	11.70
419.96	21.06
420.15	0.00
420.34	4.68
420.53	14.04
420.72	35.11
420.91	16.38
421.10	11.70
421.29	39.79
421.48	21.06
421.67	16.38
421.86	0.00
422.05	51.49
422.24	18.72
422.43	32.77
422.61	30.43
422.80	65.54
422.99	23.41
423.18	0.00
423.37	49.15
423.56	49.15
423.75	25.75
423.94	9.36
424.13	14.04
424.32	65.54
424.50	7.02
424.69	0.00
424.88	77.24
425.07	0.00
425.26	0.00
425.45	51.49
425.64	51.49
425.83	11.70
426.01	53.83
426.20	0.00
426.39	0.00
426.58	7.02
426.77	51.49
426.96	74.90
427.15	18.72
427.33	88.94
427.52	63.19
427.71	126.39
427.90	0.00
428.09	74.90
428.28	72.56
428.46	2.34
428.65	14.04
428.84	74.90
429.03	0.00
429.22	18.72
429.40	4.68
429.59	56.17
429.78	39.79
429.97	21.06
430.16	102.98
430.34	98.30
430.53	39.79
430.72	0.00
430.91	28.09
431.10	49.15
431.28	4.68
431.47	30.43
431.66	72.56
431.85	77.24
432.03	107.66
432.22	39.79
432.41	9.36
432.60	63.19
432.79	0.00
432.97	16.38
433.16	131.07
433.35	37.45
433.54	4.68
433.72	9.36
433.91	0.00
434.10	2.34
434.28	53.83
434.47	128.73
434.66	56.17
434.85	88.94
435.03	21.06
435.22	28.09
435.41	0.00
435.59	0.00
435.78	51.49
435.97	53.83
436.16	51.49
436.34	30.43
436.53	18.72
436.72	9.36
436.90	51.49
437.09	0.00
437.28	7.02
437.46	2.34
437.65	72.56
437.84	0.00
438.02	0.00
438.21	32.77
438.40	58.51
438.58	0.00
438.77	0.00
438.96	98.30
439.14	21.06
439.33	72.56
439.52	11.70
439.70	32.77
439.89	7.02
440.08	95.96
440.26	7.02
440.45	63.19
440.63	16.38
440.82	2.34
441.01	32.77
441.19	37.45
441.38	95.96
441.57	21.06
441.75	95.96
441.94	98.30
442.12	32.77
442.31	65.54
442.50	9.36
442.68	53.83
442.87	110.01
443.05	18.72
443.24	28.09
443.43	42.13
443.61	0.00
443.80	18.72
443.98	60.85
444.17	95.96
444.35	65.54
444.54	37.45
444.73	0.00
444.91	9.36
445.10	0.00
445.28	14.04
445.47	0.00
445.65	0.00
445.84	30.43
446.02	18.72
446.21	35.11
446.39	0.00
446.58	25.75
446.77	37.45
446.95	49.15
447.14	42.13
447.32	44.47
447.51	4.68
447.69	30.43
447.88	0.00
448.06	30.43
448.25	91.28
448.43	9.36
448.62	60.85
448.80	65.54
448.99	14.04
449.17	14.04
449.36	53.83
449.54	42.13
449.73	0.00
449.91	42.13
450.10	2.34
450.28	28.09
450.46	23.41
450.65	0.00
450.83	14.04
451.02	4.68
451.20	21.06
451.39	18.72
451.57	28.09
451.76	37.45
451.94	79.58
452.13	67.88
452.31	86.60
452.49	42.13
452.68	0.00
452.86	11.70
453.05	0.00
453.23	53.83
453.42	46.81
453.60	0.00
453.78	81.92
453.97	9.36
454.15	114.69
454.34	0.00
454.52	95.96
454.70	44.47
454.89	42.13
455.07	0.00
455.26	37.45
455.44	72.56
455.62	37.45
455.81	42.13
455.99	70.22
456.17	74.90
456.36	25.75
456.54	81.92
456.73	53.83
456.91	56.17
457.09	49.15
457.28	35.11
457.46	67.88
457.64	63.19
457.83	56.17
458.01	11.70
458.19	16.38
458.38	25.75
458.56	0.00
458.74	7.02
458.93	0.00
459.11	0.00
459.29	0.00
459.48	63.19
459.66	56.17
459.84	65.54
460.03	98.30
460.21	46.81
460.39	32.77
460.57	30.43
460.76	37.45
460.94	51.49
461.12	11.70
461.31	32.77
461.49	44.47
461.67	0.00
461.85	81.92
462.04	0.00
462.22	112.35
462.40	4.68
462.59	18.72
462.77	16.38
462.95	16.38
463.13	0.00
463.32	0.00
463.50	0.00
463.68	0.00
463.86	65.54
464.05	32.77
464.23	42.13
464.41	35.11
464.59	11.70
464.78	9.36
464.96	30.43
465.14	4.68
465.32	74.90
465.50	49.15
465.69	21.06
465.87	51.49
466.05	84.26
466.23	11.70
466.41	35.11
466.60	65.54
466.78	0.00
466.96	4.68
467.14	4.68
467.32	124.05
467.51	23.41
467.69	63.19
467.87	32.77
468.05	18.72
468.23	4.68
468.41	30.43
468.60	0.00
468.78	0.00
468.96	11.70
469.14	0.00
469.32	39.79
469.50	74.90
469.69	74.90
469.87	95.96
470.05	11.70
470.23	37.45
470.41	25.75
470.59	0.00
470.77	0.00
470.95	16.38
471.14	42.13
471.32	63.19
471.50	7.02
471.68	7.02
471.86	4.68
472.04	42.13
472.22	95.96
472.40	18.72
472.58	53.83
472.77	42.13
472.95	70.22
473.13	0.00
473.31	23.41
473.49	0.00
473.67	0.00
473.85	49.15
474.03	42.13
474.21	121.71
474.39	32.77
474.57	56.17
474.75	77.24
474.93	16.38
475.12	0.00
475.30	28.09
475.48	0.00
475.66	28.09
475.84	93.62
476.02	18.72
476.20	49.15
476.38	18.72
476.56	28.09
476.74	0.00
476.92	0.00
477.10	35.11
477.28	23.41
477.46	28.09
477.64	30.43
477.82	63.19
478.00	28.09
478.18	56.17
478.36	4.68
478.54	23.41
478.72	81.92
478.90	37.45
479.08	21.06
479.26	18.72
479.44	4.68
479.62	0.00
479.80	14.04
479.98	0.00
480.16	0.00
480.34	102.98
480.52	0.00
480.70	30.43
480.88	114.69
481.06	4.68
481.24	44.47
481.41	39.79
481.59	2.34
481.77	44.47
481.95	4.68
482.13	65.54
482.31	0.00
482.49	32.77
482.67	60.85
482.85	23.41
483.03	49.15
483.21	37.45
483.39	74.90
483.57	9.36
483.74	88.94
483.92	53.83
484.10	4.68
484.28	67.88
484.46	49.15
484.64	79.58
484.82	32.77
485.00	0.00
485.18	7.02
485.35	28.09
485.53	2.34
485.71	46.81
485.89	46.81
486.07	63.19
486.25	11.70
486.43	42.13
486.61	39.79
486.78	72.56
486.96	124.05
487.14	0.00
487.32	91.28
487.50	7.02
487.68	37.45
487.85	0.00
488.03	46.81
488.21	0.00
488.39	51.49
488.57	30.43
488.75	14.04
488.92	95.96
489.10	46.81
489.28	81.92
489.46	28.09
489.64	4.68
489.81	100.64
489.99	37.45
490.17	35.11
490.35	11.70
490.53	9.36
490.70	46.81
490.88	63.19
491.06	44.47
491.24	58.51
491.41	4.68
491.59	39.79
491.77	63.19
491.95	0.00
492.13	30.43
492.30	70.22
492.48	23.41
492.66	81.92
492.84	0.00
493.01	0.00
493.19	58.51
493.37	21.06
493.54	9.36
493.72	4.68
493.90	37.45
494.08	46.81
494.25	65.54
494.43	107.66
494.61	49.15
494.79	56.17
494.96	28.09
495.14	2.34
495.32	0.00
495.49	37.45
495.67	51.49
495.85	86.60
496.02	30.43
496.20	16.38
496.38	42.13
496.55	93.62
496.73	42.13
496.91	28.09
497.09	49.15
497.26	14.04
497.44	67.88
497.62	84.26
497.79	0.00
497.97	11.70
498.14	28.09
498.32	0.00
498.50	28.09
498.67	44.47
498.85	56.17
499.03	46.81
499.20	4.68
499.38	35.11
499.56	46.81
499.73	23.41
499.91	88.94
500.08	56.17
500.26	110.01
500.44	86.60
500.61	39.79
500.79	30.43
500.97	81.92
501.14	60.85
501.32	63.19
501.49	112.35
501.67	0.00
501.84	81.92
502.02	44.47
502.20	56.17
502.37	37.45
502.55	28.09
502.72	60.85
502.90	21.06
503.07	88.94
503.25	84.26
503.43	4.68
503.60	46.81
503.78	32.77
503.95	18.72
504.13	93.62
504.30	53.83
504.48	53.83
504.65	32.77
504.83	25.75
505.01	117.03
505.18	121.71
505.36	0.00
505.53	0.00
505.71	67.88
505.88	46.81
506.06	0.00
506.23	0.00
506.41	65.54
506.58	95.96
506.76	79.58
506.93	18.72
507.11	0.00
507.28	51.49
507.46	25.75
507.63	28.09
507.81	35.11
507.98	0.00
508.16	2.34
508.33	0.00
508.50	7.02
508.68	51.49
508.85	81.92
509.03	0.00
509.20	37.45
509.38	67.88
509.55	56.17
509.73	56.17
509.90	86.60
510.08	0.00
510.25	16.38
510.42	42.13
510.60	39.79
510.77	4.68
510.95	0.00
511.12	39.79
511.30	30.43
511.47	79.58
511.64	0.00
511.82	9.36
511.99	72.56
512.17	21.06
512.34	0.00
512.51	30.43
512.69	60.85
512.86	98.30
513.04	30.43
513.21	16.38
513.38	46.81
513.56	0.00
513.73	0.00
513.90	30.43
514.08	70.22
514.25	37.45
514.43	100.64
514.60	44.47
514.77	53.83
514.95	25.75
515.12	46.81
515.29	0.00
515.47	51.49
515.64	105.32
515.81	16.38
515.99	49.15
516.16	39.79
516.33	18.72
516.51	16.38
516.68	35.11
516.85	4.68
517.03	14.04
517.20	88.94
517.37	25.75
517.54	74.90
517.72	21.06
517.89	105.32
518.06	81.92
518.24	25.75
518.41	7.02
518.58	51.49
518.75	14.04
518.93	28.09
519.10	74.90
519.27	42.13
519.45	56.17
519.62	0.00
519.79	84.26
519.96	0.00
520.14	49.15
520.31	86.60
520.48	21.06
520.65	51.49
520.83	58.51
521.00	0.00
521.17	0.00
521.34	30.43
521.52	14.04
521.69	0.00
521.86	14.04
522.03	74.90
522.20	21.06
522.38	67.88
522.55	105.32
522.72	56.17
522.89	11.70
523.07	70.22
523.24	23.41
523.41	44.47
523.58	84.26
523.75	0.00
523.92	46.81
524.10	67.88
524.27	0.00
524.44	11.70
524.61	0.00
524.78	56.17
524.96	102.98
525.13	65.54
525.30	0.00
525.47	0.00
525.64	30.43
525.81	44.47
525.98	49.15
526.16	21.06
526.33	93.62
526.50	25.75
526.67	0.00
526.84	63.19
527.01	39.79
527.18	42.13
527.36	11.70
527.53	0.00
527.70	0.00
527.87	23.41
528.04	70.22
528.21	21.06
528.38	0.00
528.55	0.00
528.72	65.54
528.89	63.19
529.07	30.43
529.24	60.85
529.41	25.75
529.58	0.00
529.75	42.13
529.92	0.00
530.09	79.58
530.26	42.13
530.43	58.51
530.60	25.75
530.77	4.68
530.94	95.96
531.11	0.00
531.28	63.19
531.46	100.64
531.63	117.03
531.80	0.00
531.97	28.09
532.14	42.13
532.31	32.77
532.48	60.85
532.65	16.38
532.82	25.75
532.99	86.60
533.16	9.36
533.33	51.49
533.50	21.06
533.67	112.35
533.84	32.77
534.01	56.17
534.18	0.00
534.35	81.92
534.52	0.00
534.69	42.13
534.86	56.17
535.03	79.58
535.20	2.34
535.37	23.41
535.54	0.00
535.71	39.79
535.88	98.30
536.05	14.04
536.22	0.00
536.38	91.28
536.55	14.04
536.72	0.00
536.89	32.77
537.06	58.51
537.23	74.90
537.40	49.15
537.57	42.13
537.74	30.43
537.91	9.36
538.08	0.00
538.25	16.38
538.42	0.00
538.59	2.34
538.75	14.04
538.92	77.24
539.09	44.47
539.26	18.72
539.43	0.00
539.60	32.77
539.77	0.00
539.94	79.58
540.11	72.56
540.28	81.92
540.44	0.00
540.61	7.02
540.78	65.54
540.95	67.88
541.12	42.13
541.29	0.00
541.46	4.68
541.62	0.00
541.79	9.36
541.96	9.36
542.13	0.00
542.30	58.51
542.47	102.98
542.63	23.41
542.80	30.43
542.97	39.79
543.14	77.24
543.31	53.83
543.48	67.88
543.64	35.11
543.81	2.34
543.98	0.00
544.15	23.41
544.32	42.13
544.48	74.90
544.65	0.00
544.82	28.09
544.99	16.38
545.16	0.00
545.32	28.09
545.49	86.60
545.66	0.00
545.83	2.34
546.00	18.72
546.16	18.72
546.33	60.85
546.50	0.00
546.67	51.49
546.83	63.19
547.00	77.24
547.17	49.15
547.34	93.62
547.50	74.90
547.67	70.22
547.84	21.06
548.00	14.04
548.17	114.69
548.34	37.45
548.51	0.00
548.67	14.04
548.84	0.00
549.01	0.00
549.18	42.13
549.34	0.00
549.51	0.00
549.68	37.45
549.84	0.00
550.01	86.60
550.18	63.19
550.34	65.54
550.51	63.19
550.68	65.54
550.84	70.22
551.01	70.22
551.18	2.34
551.34	9.36
551.51	51.49
551.68	70.22
551.84	51.49
552.01	0.00
552.18	84.26
552.34	49.15
552.51	23.41
552.68	58.51
552.84	58.51
553.01	93.62
553.18	63.19
553.34	0.00
553.51	88.94
553.67	11.70
553.84	0.00
554.01	65.54
554.17	70.22
554.34	25.75
554.51	9.36
554.67	0.00
554.84	0.00
555.00	0.00
555.17	81.92
555.33	114.69
555.50	60.85
555.67	49.15
555.83	65.54
556.00	0.00
556.16	88.94
556.33	0.00
556.50	0.00
556.66	44.47
556.83	0.00
556.99	39.79
557.16	37.45
557.32	44.47
557.49	35.11
557.65	60.85
557.82	84.26
557.98	9.36
558.15	93.62
558.32	88.94
558.48	67.88
558.65	46.81
558.81	95.96
558.98	4.68
559.14	114.69
559.31	37.45
559.47	67.88
559.64	16.38
559.80	37.45
559.97	32.77
560.13	9.36
560.30	93.62
560.46	42.13
560.63	88.94
560.79	53.83
560.96	51.49
561.12	25.75
561.29	0.00
561.45	21.06
561.61	95.96
561.78	58.51
561.94	18.72
562.11	0.00
562.27	51.49
562.44	28.09
562.60	74.90
562.77	70.22
562.93	128.73
563.10	42.13
563.26	11.70
563.42	74.90
563.59	56.17
563.75	60.85
563.92	0.00
564.08	0.00
564.24	81.92
564.41	0.00
564.57	63.19
564.74	11.70
564.90	25.75
565.07	0.00
565.23	72.56
565.39	4.68
565.56	70.22
565.72	0.00
565.88	9.36
566.05	0.00
566.21	53.83
566.38	70.22
566.54	95.96
566.70	81.92
566.87	11.70
567.03	25.75
567.19	0.00
567.36	65.54
567.52	18.72
567.68	0.00
567.85	53.83
568.01	37.45
568.17	58.51
568.34	0.00
568.50	88.94
568.66	0.00
568.83	23.41
568.99	56.17
569.15	30.43
569.32	37.45
569.48	39.79
569.64	91.28
569.81	30.43
569.97	81.92
570.13	0.00
570.30	42.13
570.46	51.49
570.62	37.45
570.78	107.66
570.95	51.49
571.11	42.13
571.27	32.77
571.43	21.06
571.60	42.13
571.76	72.56
571.92	25.75
572.09	42.13
572.25	91.28
572.41	49.15
572.57	0.00
572.74	63.19
572.90	74.90
573.06	53.83
573.22	77.24
573.38	110.01
573.55	58.51
573.71	56.17
573.87	42.13
574.03	4.68
574.20	0.00
574.36	70.22
574.52	30.43
574.68	42.13
574.84	28.09
575.01	28.09
575.17	70.22
575.33	0.00
575.49	0.00
575.65	4.68
575.82	16.38
575.98	53.83
576.14	95.96
576.30	0.00
576.46	60.85
576.62	4.68
576.79	14.04
576.95	21.06
577.11	25.75
577.27	51.49
577.43	9.36
577.59	60.85
577.75	39.79
577.92	37.45
578.08	107.66
578.24	149.79
578.40	25.75
578.56	4.68
578.72	53.83
578.88	63.19
579.04	28.09
579.21	0.00
579.37	65.54
579.53	72.56
579.69	0.00
579.85	21.06
580.01	0.00
580.17	149.79
580.33	58.51
580.49	46.81
580.65	16.38
580.82	79.58
580.98	37.45
581.14	7.02
581.30	39.79
581.46	63.19
581.62	65.54
581.78	112.35
581.94	77.24
582.10	0.00
582.26	9.36
582.42	56.17
582.58	18.72
582.74	7.02
582.90	39.79
583.06	44.47
583.22	30.43
583.38	4.68
583.54	32.77
583.70	58.51
583.86	60.85
584.02	88.94
584.18	81.92
584.34	72.56
584.50	53.83
584.66	0.00
584.82	0.00
584.98	58.51
585.14	110.01
585.30	65.54
585.46	11.70
585.62	0.00
585.78	51.49
585.94	2.34
586.10	0.00
586.26	60.85
586.42	56.17
586.58	23.41
586.74	84.26
586.90	46.81
587.06	77.24
587.22	21.06
587.38	44.47
587.54	2.34
587.70	0.00
587.86	21.06
588.02	49.15
588.18	25.75
588.34	0.00
588.49	16.38
588.65	44.47
588.81	28.09
588.97	51.49
589.13	37.45
589.29	0.00
589.45	0.00
589.61	9.36
589.77	65.54
589.93	46.81
590.08	79.58
590.24	46.81
590.40	0.00
590.56	44.47
590.72	16.38
590.88	102.98
591.04	0.00
591.20	37.45
591.35	0.00
591.51	77.24
591.67	65.54
591.83	100.64
591.99	14.04
592.15	77.24
592.31	30.43
592.46	117.03
592.62	23.41
592.78	25.75
592.94	42.13
593.10	21.06
593.26	79.58
593.41	30.43
593.57	51.49
593.73	28.09
593.89	0.00
594.05	51.49
594.20	25.75
594.36	23.41
594.52	98.30
594.68	39.79
594.84	9.36
594.99	56.17
595.15	35.11
595.31	0.00
595.47	93.62
595.62	63.19
595.78	107.66
595.94	9.36
596.10	0.00
596.25	93.62
596.41	65.54
596.57	107.66
596.73	14.04
596.88	16.38
597.04	0.00
597.20	72.56
597.36	0.00
597.51	102.98
597.67	74.90
597.83	74.90
597.99	72.56
598.14	63.19
598.30	67.88
598.46	35.11
598.61	65.54
598.77	30.43
598.93	42.13
599.09	77.24
599.24	44.47
599.40	88.94
599.56	93.62
599.71	72.56
599.87	44.47
600.03	126.39
600.18	0.00
600.34	14.04
600.50	37.45
600.65	44.47
600.81	67.88
600.97	9.36
601.12	14.04
601.28	72.56
601.44	0.00
601.59	21.06
601.75	30.43
601.91	35.11
602.06	100.64
602.22	18.72
602.37	14.04
602.53	128.73
602.69	102.98
602.84	124.05
603.00	58.51
603.16	51.49
603.31	25.75
603.47	95.96
603.62	18.72
603.78	67.88
603.94	79.58
604.09	4.68
604.25	72.56
604.40	63.19
604.56	88.94
604.71	81.92
604.87	0.00
605.03	77.24
605.18	0.00
605.34	112.35
605.49	25.75
605.65	77.24
605.80	126.39
605.96	25.75
606.12	65.54
606.27	0.00
606.43	37.45
606.58	86.60
606.74	14.04
606.89	39.79
607.05	51.49
607.20	72.56
607.36	46.81
607.51	51.49
607.67	56.17
607.82	35.11
607.98	100.64
608.13	74.90
608.29	126.39
608.44	100.64
608.60	23.41
608.75	0.00
608.91	0.00
609.06	0.00
609.22	58.51
609.37	72.56
609.53	86.60
609.68	42.13
609.84	0.00
609.99	100.64
610.15	14.04
610.30	35.11
610.46	51.49
610.61	77.24
610.76	74.90
610.92	0.00
611.07	32.77
611.23	63.19
611.38	114.69
611.54	112.35
611.69	65.54
611.84	0.00
612.00	28.09
612.15	14.04
612.31	77.24
612.46	16.38
612.62	84.26
612.77	11.70
612.92	58.51
613.08	63.19
613.23	37.45
613.39	72.56
613.54	60.85
613.69	63.19
613.85	16.38
614.00	35.11
614.15	35.11
614.31	0.00
614.46	4.68
614.62	86.60
614.77	44.47
614.92	88.94
615.08	14.04
615.23	0.00
615.38	0.00
615.54	70.22
615.69	2.34
615.84	14.04
616.00	53.83
616.15	0.00
616.30	0.00
616.46	56.17
616.61	0.00
616.76	112.35
616.92	23.41
617.07	74.90
617.22	35.11
617.37	93.62
617.53	77.24
617.68	0.00
617.83	49.15
617.99	79.58
618.14	39.79
618.29	79.58
618.45	49.15
618.60	91.28
618.75	4.68
618.90	58.51
619.06	0.00
619.21	135.75
619.36	77.24
619.51	28.09
619.67	0.00
619.82	67.88
619.97	121.71
620.12	18.72
620.28	63.19
620.43	0.00
620.58	0.00
620.73	63.19
620.89	74.90
621.04	30.43
621.19	44.47
621.34	0.00
621.49	4.68
621.65	102.98
621.80	63.19
621.95	0.00
622.10	0.00
622.25	7.02
622.41	4.68
622.56	18.72
622.71	37.45
622.86	53.83
623.01	0.00
623.16	49.15
623.32	74.90
623.47	16.38
623.62	65.54
623.77	56.17
623.92	53.83
624.07	37.45
624.23	32.77
624.38	77.24
624.53	44.47
624.68	100.64
624.83	21.06
624.98	37.45
625.13	74.90
625.29	0.00
625.44	14.04
625.59	14.04
625.74	18.72
625.89	79.58
626.04	81.92
626.19	53.83
626.34	46.81
626.49	0.00
626.65	0.00
626.80	58.51
626.95	0.00
627.10	0.00
627.25	46.81
627.40	58.51
627.55	44.47
627.70	23.41
627.85	0.00
628.00	39.79
628.15	37.45
628.30	37.45
628.45	7.02
628.60	37.45
628.76	67.88
628.91	7.02
629.06	0.00
629.21	0.00
629.36	49.15
629.51	44.47
629.66	53.83
629.81	53.83
629.96	74.90
630.11	23.41
630.26	81.92
630.41	21.06
630.56	23.41
630.71	28.09
630.86	67.88
631.01	0.00
631.16	49.15
631.31	23.41
631.46	14.04
631.61	53.83
631.76	53.83
631.91	30.43
632.06	0.00
632.21	23.41
632.36	77.24
632.51	65.54
632.66	70.22
632.81	74.90
632.96	110.01
633.10	23.41
633.25	21.06
633.40	30.43
633.55	44.47
633.70	88.94
633.85	18.72
634.00	0.00
634.15	51.49
634.30	56.17
634.45	95.96
634.60	46.81
634.75	35.11
634.90	30.43
635.05	16.38
635.19	56.17
635.34	81.92
635.49	23.41
635.64	63.19
635.79	30.43
635.94	35.11
636.09	51.49
636.24	35.11
636.39	25.75
636.53	32.77
636.68	58.51
636.83	70.22
636.98	11.70
637.13	28.09
637.28	18.72
637.43	32.77
637.57	18.72
637.72	28.09
637.87	0.00
638.02	23.41
638.17	0.00
638.32	133.41
638.46	16.38
638.61	7.02
638.76	88.94
638.91	70.22
639.06	0.00
639.20	25.75
639.35	0.00
639.50	70.22
639.65	79.58
639.80	7.02
639.94	0.00
640.09	4.68
640.24	70.22
640.39	74.90
640.54	74.90
640.68	86.60
640.83	21.06
640.98	0.00
641.13	93.62
641.27	39.79
641.42	21.06
641.57	74.90
641.72	91.28
641.86	32.77
642.01	4.68
642.16	23.41
642.31	74.90
642.45	49.15
642.60	70.22
642.75	42.13
642.90	25.75
643.04	95.96
643.19	9.36
643.34	32.77
643.48	105.32
643.63	39.79
643.78	56.17
643.93	9.36
644.07	42.13
644.22	121.71
644.37	16.38
644.51	79.58
644.66	53.83
644.81	9.36
644.95	0.00
645.10	0.00
645.25	0.00
645.39	63.19
645.54	21.06
645.69	72.56
645.83	16.38
645.98	60.85
646.13	74.90
646.27	37.45
646.42	124.05
646.57	58.51
646.71	2.34
646.86	42.13
647.00	37.45
647.15	44.47
647.30	70.22
647.44	72.56
647.59	58.51
647.74	18.72
647.88	0.00
648.03	23.41
648.17	98.30
648.32	25.75
648.47	39.79
648.61	56.17
648.76	14.04
648.90	81.92
649.05	65.54
649.20	42.13
649.34	42.13
649.49	0.00
649.63	14.04
649.78	18.72
649.92	25.75
650.07	46.81
650.21	77.24
650.36	23.41
650.51	58.51
650.65	35.11
650.80	49.15
650.94	58.51
651.09	110.01
651.23	63.19
651.38	58.51
651.52	42.13
651.67	0.00
651.81	63.19
651.96	35.11
652.10	0.00
652.25	0.00
652.39	0.00
652.54	14.04
652.68	23.41
652.83	39.79
652.97	58.51
653.12	67.88
653.26	0.00
653.41	51.49
653.55	67.88
653.70	56.17
653.84	11.70
653.99	88.94
654.13	81.92
654.27	88.94
654.42	0.00
654.56	30.43
654.71	0.00
654.85	32.77
655.00	0.00
655.14	30.43
655.29	84.26
655.43	9.36
655.57	2.34
655.72	63.19
655.86	16.38
656.01	32.77
656.15	0.00
656.30	28.09
656.44	70.22
656.58	25.75
656.73	81.92
656.87	11.70
657.01	0.00
657.16	0.00
657.30	9.36
657.45	16.38
657.59	91.28
657.73	44.47
657.88	30.43
658.02	56.17
658.16	25.75
658.31	37.45
658.45	2.34
658.60	7.02
658.74	44.47
658.88	0.00
659.03	42.13
659.17	11.70
659.31	102.98
659.46	60.85
659.60	63.19
659.74	53.83
659.89	42.13
660.03	39.79
660.17	79.58
660.32	0.00
660.46	70.22
660.60	0.00
660.74	21.06
660.89	4.68
661.03	0.00
661.17	35.11
661.32	102.98
661.46	30.43
661.60	72.56
661.74	4.68
661.89	44.47
662.03	16.38
662.17	0.00
662.31	65.54
662.46	51.49
662.60	0.00
662.74	60.85
662.88	0.00
663.03	119.37
663.17	63.19
663.31	70.22
663.45	46.81
663.60	42.13
663.74	25.75
663.88	16.38
664.02	25.75
664.17	0.00
664.31	35.11
664.45	14.04
664.59	0.00
664.73	65.54
664.88	37.45
665.02	49.15
665.16	0.00
665.30	28.09
665.44	0.00
665.59	4.68
665.73	21.06
665.87	56.17
666.01	51.49
666.15	60.85
666.29	9.36
666.44	70.22
666.58	0.00
666.72	7.02
666.86	46.81
667.00	0.00
667.14	46.81
667.28	23.41
667.43	14.04
667.57	28.09
667.71	49.15
667.85	0.00
667.99	56.17
668.13	42.13
668.27	77.24
668.41	86.60
668.56	119.37
668.70	39.79
668.84	30.43
668.98	46.81
669.12	23.41
669.26	77.24
669.40	72.56
669.54	51.49
669.68	9.36
669.82	37.45
669.96	18.72
670.10	0.00
670.25	0.00
670.39	0.00
670.53	2.34
670.67	63.19
670.81	11.70
670.95	35.11
671.09	84.26
671.23	0.00
671.37	0.00
671.51	11.70
671.65	0.00
671.79	63.19
671.93	18.72
672.07	60.85
672.21	23.41
672.35	39.79
672.49	67.88
672.63	11.70
672.77	74.90
672.91	28.09
673.05	25.75
673.19	32.77
673.33	35.11
673.47	0.00
673.61	9.36
673.75	0.00
673.89	14.04
674.03	88.94
674.17	74.90
674.31	0.00
674.45	32.77
674.59	63.19
674.73	9.36
674.87	0.00
675.01	42.13
675.15	11.70
675.29	65.54
675.43	21.06
675.56	67.88
675.70	0.00
675.84	39.79
675.98	72.56
676.12	77.24
676.26	0.00
676.40	53.83
676.54	0.00
676.68	2.34
676.82	14.04
676.96	0.00
677.10	81.92
677.23	37.45
677.37	0.00
677.51	42.13
677.65	39.79
677.79	4.68
677.93	53.83
678.07	35.11
678.21	0.00
678.34	21.06
678.48	35.11
678.62	25.75
678.76	21.06
678.90	88.94
679.04	0.00
679.18	51.49
679.31	18.72
679.45	28.09
679.59	16.38
679.73	84.26
679.87	0.00
680.00	46.81
680.14	0.00
680.28	35.11
680.42	58.51
680.56	56.17
680.70	53.83
680.83	53.83
680.97	18.72
681.11	42.13
681.25	42.13
681.39	32.77
681.52	14.04
681.66	35.11
681.80	16.38
681.94	37.45
682.07	0.00
682.21	37.45
682.35	0.00
682.49	65.54
682.62	23.41
682.76	0.00
682.90	0.00
683.04	51.49
683.17	21.06
683.31	0.00
683.45	63.19
683.59	16.38
683.72	23.41
683.86	58.51
684.00	51.49
684.13	28.09
684.27	11.70
684.41	46.81
684.55	79.58
684.68	30.43
684.82	77.24
684.96	23.41
685.09	37.45
685.23	0.00
685.37	0.00
685.50	16.38
685.64	51.49
685.78	70.22
685.91	16.38
686.05	35.11
686.19	0.00
686.32	35.11
686.46	63.19
686.60	0.00
686.73	0.00
686.87	0.00
687.01	63.19
687.14	11.70
687.28	119.37
687.42	35.11
687.55	25.75
687.69	39.79
687.82	4.68
687.96	18.72
688.10	84.26
688.23	30.43
688.37	58.51
688.50	23.41
688.64	0.00
688.78	86.60
688.91	72.56
689.05	37.45
689.18	70.22
689.32	0.00
689.46	0.00
689.59	86.60
689.73	23.41
689.86	30.43
690.00	16.38
690.13	18.72
690.27	53.83
690.41	0.00
690.54	86.60
690.68	0.00
690.81	23.41
690.95	32.77
691.08	39.79
691.22	4.68
691.35	37.45
691.49	70.22
691.62	2.34
691.76	14.04
691.89	18.72
692.03	14.04
692.16	74.90
692.30	0.00
692.43	2.34
692.57	70.22
692.70	70.22
692.84	74.90
692.97	77.24
693.11	46.81
693.24	46.81
693.38	53.83
693.51	32.77
693.65	35.11
693.78	42.13
693.92	37.45
694.05	0.00
694.19	0.00
694.32	49.15
694.45	2.34
694.59	0.00
694.72	7.02
694.86	18.72
694.99	49.15
695.13	0.00
695.26	18.72
695.39	21.06
695.53	86.60
695.66	25.75
695.80	53.83
695.93	44.47
696.07	0.00
696.20	91.28
696.33	7.02
696.47	30.43
696.60	28.09
696.73	0.00
696.87	60.85
697.00	72.56
697.14	0.00
697.27	18.72
697.40	0.00
697.54	35.11
697.67	84.26
697.80	39.79
697.94	42.13
698.07	60.85
698.21	46.81
698.34	58.51
698.47	11.70
698.61	4.68
698.74	102.98
698.87	0.00
699.01	28.09
699.14	65.54
699.27	18.72
699.40	98.30
699.54	98.30
699.67	42.13
699.80	67.88
699.94	35.11
700.07	37.45
700.20	77.24
700.34	0.00
700.47	28.09
700.60	79.58
700.73	0.00
700.87	9.36
701.00	53.83
701.13	0.00
701.26	114.69
701.40	0.00
701.53	0.00
701.66	74.90
701.79	21.06
701.93	93.62
702.06	0.00
702.19	21.06
702.32	35.11
702.46	0.00
702.59	49.15
702.72	0.00
702.85	9.36
702.99	0.00
703.12	0.00
703.25	98.30
703.38	0.00
703.51	32.77
703.65	9.36
703.78	0.00
703.91	0.00
704.04	0.00
704.17	70.22
704.31	39.79
704.44	35.11
704.57	7.02
704.70	44.47
704.83	70.22
704.96	9.36
705.10	72.56
705.23	32.77
>>>>>End Processed Spectral Data<<<<<
