SpectraSuite Data File
++++++++++++++++++++++++++++++++++++
Date: Tue Oct 01 18:25:12 GMT-05:00 2013
User: stostad
Dark Spectrum Present: No
Reference Spectrum Present: No
Number of Sampled Component Spectra: 1
Spectrometers: USB2+H05261
Integration Time (usec): 100000 (USB2+H05261)
Spectra Averaged: 1 (USB2+H05261)
Boxcar Smoothing: 0 (USB2+H05261)
Correct for Electrical Dark: No (USB2+H05261)
Strobe/Lamp Enabled: No (USB2+H05261)
Correct for Detector Non-linearity: No (USB2+H05261)
Correct for Stray Light: No (USB2+H05261)
Number of Pixels in Processed Spectrum: 2048
>>>>>Begin Processed Spectral Data<<<<<
365.73	86.60
365.92	86.60
366.12	86.60
366.32	60.85
366.52	0.00
366.72	0.00
366.91	0.00
367.11	0.00
367.31	0.00
367.51	0.00
367.70	0.00
367.90	0.00
368.10	0.00
368.30	0.00
368.49	0.00
368.69	0.00
368.89	0.00
369.09	0.00
369.28	0.00
369.48	0.00
369.68	0.00
369.87	0.00
370.07	42.13
370.27	35.11
370.47	86.60
370.66	0.00
370.86	51.49
371.06	70.22
371.25	133.41
371.45	9.36
371.65	119.37
371.84	105.32
372.04	67.88
372.24	170.86
372.44	93.62
372.63	133.41
372.83	107.66
373.03	177.88
373.22	133.41
373.42	119.37
373.62	170.86
373.81	175.54
374.01	128.73
374.21	133.41
374.40	142.77
374.60	236.39
374.79	149.79
374.99	159.16
375.19	175.54
375.38	187.24
375.58	140.43
375.78	205.97
375.97	208.31
376.17	208.31
376.37	128.73
376.56	152.13
376.76	138.09
376.95	95.96
377.15	119.37
377.35	100.64
377.54	124.05
377.74	131.07
377.93	105.32
378.13	161.50
378.33	154.48
378.52	180.22
378.72	147.45
378.91	126.39
379.11	67.88
379.31	145.11
379.50	81.92
379.70	95.96
379.89	205.97
380.09	131.07
380.28	166.18
380.48	98.30
380.68	133.41
380.87	110.01
381.07	189.58
381.26	117.03
381.46	100.64
381.65	121.71
381.85	74.90
382.04	161.50
382.24	189.58
382.43	140.43
382.63	184.90
382.83	100.64
383.02	168.52
383.22	121.71
383.41	166.18
383.61	194.26
383.80	229.37
384.00	117.03
384.19	203.63
384.39	177.88
384.58	88.94
384.78	138.09
384.97	140.43
385.17	152.13
385.36	166.18
385.56	194.26
385.75	135.75
385.95	135.75
386.14	121.71
386.34	112.35
386.53	93.62
386.72	126.39
386.92	161.50
387.11	110.01
387.31	147.45
387.50	128.73
387.70	81.92
387.89	182.56
388.09	208.31
388.28	126.39
388.48	107.66
388.67	100.64
388.86	102.98
389.06	175.54
389.25	184.90
389.45	112.35
389.64	93.62
389.84	180.22
390.03	112.35
390.22	145.11
390.42	131.07
390.61	72.56
390.81	53.83
391.00	142.77
391.19	203.63
391.39	266.82
391.58	124.05
391.78	91.28
391.97	145.11
392.16	166.18
392.36	140.43
392.55	220.01
392.75	145.11
392.94	159.16
393.13	65.54
393.33	124.05
393.52	124.05
393.71	177.88
393.91	180.22
394.10	102.98
394.29	166.18
394.49	128.73
394.68	156.82
394.88	100.64
395.07	168.52
395.26	140.43
395.46	86.60
395.65	168.52
395.84	140.43
396.04	227.03
396.23	149.79
396.42	140.43
396.62	194.26
396.81	100.64
397.00	161.50
397.19	84.26
397.39	128.73
397.58	121.71
397.77	161.50
397.97	138.09
398.16	147.45
398.35	140.43
398.55	74.90
398.74	154.48
398.93	81.92
399.12	138.09
399.32	184.90
399.51	168.52
399.70	135.75
399.90	212.99
400.09	166.18
400.28	112.35
400.47	191.92
400.67	189.58
400.86	173.20
401.05	121.71
401.24	182.56
401.44	126.39
401.63	138.09
401.82	128.73
402.01	110.01
402.21	65.54
402.40	170.86
402.59	124.05
402.78	110.01
402.97	124.05
403.17	98.30
403.36	177.88
403.55	102.98
403.74	145.11
403.93	112.35
404.13	184.90
404.32	131.07
404.51	77.24
404.70	208.31
404.89	121.71
405.09	159.16
405.28	222.35
405.47	184.90
405.66	95.96
405.85	93.62
406.05	95.96
406.24	95.96
406.43	128.73
406.62	100.64
406.81	152.13
407.00	175.54
407.20	161.50
407.39	81.92
407.58	86.60
407.77	117.03
407.96	187.24
408.15	173.20
408.34	133.41
408.54	133.41
408.73	170.86
408.92	117.03
409.11	133.41
409.30	128.73
409.49	168.52
409.68	177.88
409.87	149.79
410.07	203.63
410.26	201.29
410.45	131.07
410.64	135.75
410.83	110.01
411.02	135.75
411.21	131.07
411.40	128.73
411.59	131.07
411.78	177.88
411.98	102.98
412.17	159.16
412.36	140.43
412.55	145.11
412.74	168.52
412.93	81.92
413.12	30.43
413.31	131.07
413.50	124.05
413.69	170.86
413.88	166.18
414.07	121.71
414.26	201.29
414.45	149.79
414.64	138.09
414.83	142.77
415.02	154.48
415.22	133.41
415.41	173.20
415.60	119.37
415.79	142.77
415.98	220.01
416.17	147.45
416.36	149.79
416.55	44.47
416.74	140.43
416.93	180.22
417.12	166.18
417.31	114.69
417.50	170.86
417.69	154.48
417.88	187.24
418.07	173.20
418.26	161.50
418.45	70.22
418.64	248.10
418.83	194.26
419.02	180.22
419.21	135.75
419.39	180.22
419.58	138.09
419.77	131.07
419.96	138.09
420.15	166.18
420.34	88.94
420.53	63.19
420.72	163.84
420.91	91.28
421.10	133.41
421.29	88.94
421.48	51.49
421.67	114.69
421.86	142.77
422.05	147.45
422.24	124.05
422.43	63.19
422.61	105.32
422.80	149.79
422.99	184.90
423.18	135.75
423.37	154.48
423.56	152.13
423.75	51.49
423.94	114.69
424.13	156.82
424.32	156.82
424.50	112.35
424.69	102.98
424.88	166.18
425.07	114.69
425.26	107.66
425.45	182.56
425.64	191.92
425.83	161.50
426.01	168.52
426.20	236.39
426.39	149.79
426.58	93.62
426.77	138.09
426.96	187.24
427.15	156.82
427.33	119.37
427.52	145.11
427.71	156.82
427.90	138.09
428.09	147.45
428.28	156.82
428.46	255.12
428.65	114.69
428.84	110.01
429.03	215.33
429.22	203.63
429.40	138.09
429.59	140.43
429.78	194.26
429.97	149.79
430.16	210.65
430.34	147.45
430.53	86.60
430.72	142.77
430.91	154.48
431.10	93.62
431.28	110.01
431.47	145.11
431.66	102.98
431.85	152.13
432.03	95.96
432.22	212.99
432.41	102.98
432.60	168.52
432.79	180.22
432.97	212.99
433.16	187.24
433.35	168.52
433.54	191.92
433.72	161.50
433.91	203.63
434.10	74.90
434.28	107.66
434.47	119.37
434.66	161.50
434.85	126.39
435.03	140.43
435.22	243.42
435.41	147.45
435.59	177.88
435.78	107.66
435.97	88.94
436.16	107.66
436.34	163.84
436.53	107.66
436.72	140.43
436.90	182.56
437.09	114.69
437.28	133.41
437.46	163.84
437.65	194.26
437.84	110.01
438.02	133.41
438.21	102.98
438.40	117.03
438.58	67.88
438.77	154.48
438.96	156.82
439.14	119.37
439.33	166.18
439.52	189.58
439.70	105.32
439.89	201.29
440.08	133.41
440.26	156.82
440.45	107.66
440.63	102.98
440.82	119.37
441.01	135.75
441.19	135.75
441.38	72.56
441.57	121.71
441.75	79.58
441.94	159.16
442.12	163.84
442.31	191.92
442.50	91.28
442.68	63.19
442.87	156.82
443.05	91.28
443.24	140.43
443.43	147.45
443.61	168.52
443.80	194.26
443.98	107.66
444.17	161.50
444.35	126.39
444.54	170.86
444.73	142.77
444.91	124.05
445.10	100.64
445.28	67.88
445.47	147.45
445.65	154.48
445.84	117.03
446.02	182.56
446.21	154.48
446.39	128.73
446.58	81.92
446.77	114.69
446.95	126.39
447.14	173.20
447.32	170.86
447.51	173.20
447.69	37.45
447.88	149.79
448.06	126.39
448.25	81.92
448.43	72.56
448.62	98.30
448.80	95.96
448.99	170.86
449.17	100.64
449.36	166.18
449.54	182.56
449.73	95.96
449.91	126.39
450.10	98.30
450.28	194.26
450.46	220.01
450.65	117.03
450.83	131.07
451.02	128.73
451.20	163.84
451.39	142.77
451.57	163.84
451.76	159.16
451.94	112.35
452.13	184.90
452.31	154.48
452.49	149.79
452.68	98.30
452.86	159.16
453.05	194.26
453.23	124.05
453.42	131.07
453.60	175.54
453.78	142.77
453.97	79.58
454.15	189.58
454.34	98.30
454.52	110.01
454.70	173.20
454.89	177.88
455.07	159.16
455.26	189.58
455.44	142.77
455.62	110.01
455.81	51.49
455.99	173.20
456.17	175.54
456.36	102.98
456.54	91.28
456.73	117.03
456.91	156.82
457.09	131.07
457.28	224.69
457.46	159.16
457.64	105.32
457.83	198.95
458.01	147.45
458.19	117.03
458.38	93.62
458.56	128.73
458.74	86.60
458.93	131.07
459.11	140.43
459.29	124.05
459.48	163.84
459.66	238.73
459.84	110.01
460.03	191.92
460.21	191.92
460.39	107.66
460.57	145.11
460.76	154.48
460.94	196.60
461.12	203.63
461.31	166.18
461.49	170.86
461.67	107.66
461.85	107.66
462.04	63.19
462.22	606.20
462.40	133.41
462.59	187.24
462.77	53.83
462.95	210.65
463.13	79.58
463.32	177.88
463.50	112.35
463.68	142.77
463.86	154.48
464.05	145.11
464.23	147.45
464.41	60.85
464.59	117.03
464.78	102.98
464.96	126.39
465.14	145.11
465.32	184.90
465.50	203.63
465.69	220.01
465.87	124.05
466.05	84.26
466.23	86.60
466.41	98.30
466.60	140.43
466.78	91.28
466.96	189.58
467.14	114.69
467.32	145.11
467.51	105.32
467.69	187.24
467.87	135.75
468.05	112.35
468.23	117.03
468.41	175.54
468.60	100.64
468.78	105.32
468.96	161.50
469.14	168.52
469.32	163.84
469.50	119.37
469.69	124.05
469.87	147.45
470.05	182.56
470.23	154.48
470.41	121.71
470.59	56.17
470.77	110.01
470.95	126.39
471.14	159.16
471.32	135.75
471.50	215.33
471.68	166.18
471.86	182.56
472.04	110.01
472.22	180.22
472.40	191.92
472.58	180.22
472.77	175.54
472.95	105.32
473.13	180.22
473.31	205.97
473.49	88.94
473.67	110.01
473.85	177.88
474.03	154.48
474.21	135.75
474.39	215.33
474.57	159.16
474.75	98.30
474.93	77.24
475.12	184.90
475.30	105.32
475.48	110.01
475.66	156.82
475.84	210.65
476.02	135.75
476.20	196.60
476.38	147.45
476.56	208.31
476.74	142.77
476.92	119.37
477.10	156.82
477.28	131.07
477.46	91.28
477.64	149.79
477.82	107.66
478.00	110.01
478.18	112.35
478.36	119.37
478.54	166.18
478.72	121.71
478.90	142.77
479.08	173.20
479.26	149.79
479.44	128.73
479.62	154.48
479.80	114.69
479.98	105.32
480.16	163.84
480.34	44.47
480.52	107.66
480.70	208.31
480.88	126.39
481.06	25.75
481.24	170.86
481.41	100.64
481.59	133.41
481.77	166.18
481.95	112.35
482.13	131.07
482.31	159.16
482.49	107.66
482.67	140.43
482.85	88.94
483.03	159.16
483.21	124.05
483.39	196.60
483.57	175.54
483.74	168.52
483.92	105.32
484.10	175.54
484.28	208.31
484.46	189.58
484.64	145.11
484.82	105.32
485.00	159.16
485.18	177.88
485.35	112.35
485.53	102.98
485.71	170.86
485.89	147.45
486.07	138.09
486.25	241.08
486.43	152.13
486.61	166.18
486.78	121.71
486.96	102.98
487.14	168.52
487.32	114.69
487.50	95.96
487.68	117.03
487.85	110.01
488.03	95.96
488.21	170.86
488.39	84.26
488.57	156.82
488.75	72.56
488.92	198.95
489.10	189.58
489.28	161.50
489.46	117.03
489.64	138.09
489.81	105.32
489.99	135.75
490.17	124.05
490.35	205.97
490.53	166.18
490.70	74.90
490.88	163.84
491.06	149.79
491.24	145.11
491.41	173.20
491.59	112.35
491.77	152.13
491.95	98.30
492.13	102.98
492.30	135.75
492.48	121.71
492.66	182.56
492.84	114.69
493.01	81.92
493.19	98.30
493.37	194.26
493.54	140.43
493.72	131.07
493.90	7.02
494.08	84.26
494.25	166.18
494.43	84.26
494.61	100.64
494.79	161.50
494.96	105.32
495.14	177.88
495.32	117.03
495.49	168.52
495.67	88.94
495.85	91.28
496.02	112.35
496.20	142.77
496.38	198.95
496.55	70.22
496.73	77.24
496.91	170.86
497.09	102.98
497.26	131.07
497.44	147.45
497.62	142.77
497.79	159.16
497.97	196.60
498.14	114.69
498.32	133.41
498.50	63.19
498.67	135.75
498.85	145.11
499.03	156.82
499.20	147.45
499.38	93.62
499.56	168.52
499.73	215.33
499.91	173.20
500.08	149.79
500.26	149.79
500.44	131.07
500.61	177.88
500.79	65.54
500.97	166.18
501.14	95.96
501.32	250.44
501.49	102.98
501.67	142.77
501.84	91.28
502.02	135.75
502.20	131.07
502.37	107.66
502.55	163.84
502.72	173.20
502.90	182.56
503.07	138.09
503.25	191.92
503.43	201.29
503.60	159.16
503.78	67.88
503.95	126.39
504.13	135.75
504.30	142.77
504.48	166.18
504.65	203.63
504.83	138.09
505.01	152.13
505.18	170.86
505.36	88.94
505.53	152.13
505.71	133.41
505.88	205.97
506.06	187.24
506.23	208.31
506.41	128.73
506.58	77.24
506.76	133.41
506.93	166.18
507.11	241.08
507.28	91.28
507.46	180.22
507.63	152.13
507.81	161.50
507.98	63.19
508.16	100.64
508.33	110.01
508.50	166.18
508.68	227.03
508.85	166.18
509.03	154.48
509.20	107.66
509.38	205.97
509.55	142.77
509.73	135.75
509.90	208.31
510.08	84.26
510.25	140.43
510.42	65.54
510.60	149.79
510.77	119.37
510.95	145.11
511.12	173.20
511.30	133.41
511.47	107.66
511.64	236.39
511.82	133.41
511.99	46.81
512.17	107.66
512.34	91.28
512.51	184.90
512.69	168.52
512.86	187.24
513.04	140.43
513.21	107.66
513.38	166.18
513.56	117.03
513.73	135.75
513.90	102.98
514.08	138.09
514.25	79.58
514.43	203.63
514.60	98.30
514.77	133.41
514.95	105.32
515.12	117.03
515.29	126.39
515.47	147.45
515.64	177.88
515.81	154.48
515.99	196.60
516.16	93.62
516.33	173.20
516.51	133.41
516.68	161.50
516.85	86.60
517.03	112.35
517.20	173.20
517.37	189.58
517.54	133.41
517.72	126.39
517.89	102.98
518.06	152.13
518.24	93.62
518.41	229.37
518.58	159.16
518.75	126.39
518.93	198.95
519.10	173.20
519.27	100.64
519.45	105.32
519.62	154.48
519.79	203.63
519.96	110.01
520.14	98.30
520.31	138.09
520.48	180.22
520.65	152.13
520.83	196.60
521.00	222.35
521.17	159.16
521.34	67.88
521.52	147.45
521.69	152.13
521.86	215.33
522.03	133.41
522.20	121.71
522.38	156.82
522.55	159.16
522.72	98.30
522.89	198.95
523.07	145.11
523.24	170.86
523.41	117.03
523.58	98.30
523.75	100.64
523.92	131.07
524.10	170.86
524.27	110.01
524.44	131.07
524.61	121.71
524.78	187.24
524.96	102.98
525.13	154.48
525.30	147.45
525.47	159.16
525.64	177.88
525.81	203.63
525.98	163.84
526.16	128.73
526.33	79.58
526.50	128.73
526.67	84.26
526.84	126.39
527.01	156.82
527.18	110.01
527.36	77.24
527.53	53.83
527.70	163.84
527.87	140.43
528.04	175.54
528.21	166.18
528.38	100.64
528.55	149.79
528.72	154.48
528.89	159.16
529.07	163.84
529.24	154.48
529.41	161.50
529.58	74.90
529.75	177.88
529.92	191.92
530.09	182.56
530.26	154.48
530.43	138.09
530.60	152.13
530.77	110.01
530.94	154.48
531.11	180.22
531.28	142.77
531.46	142.77
531.63	84.26
531.80	114.69
531.97	203.63
532.14	114.69
532.31	131.07
532.48	175.54
532.65	196.60
532.82	182.56
532.99	124.05
533.16	189.58
533.33	142.77
533.50	159.16
533.67	166.18
533.84	222.35
534.01	166.18
534.18	262.14
534.35	142.77
534.52	140.43
534.69	163.84
534.86	145.11
535.03	131.07
535.20	124.05
535.37	210.65
535.54	149.79
535.71	156.82
535.88	201.29
536.05	60.85
536.22	154.48
536.38	194.26
536.55	140.43
536.72	194.26
536.89	91.28
537.06	91.28
537.23	168.52
537.40	117.03
537.57	98.30
537.74	175.54
537.91	177.88
538.08	161.50
538.25	110.01
538.42	126.39
538.59	72.56
538.75	126.39
538.92	196.60
539.09	187.24
539.26	208.31
539.43	428.32
539.60	732.59
539.77	936.21
539.94	774.72
540.11	449.38
540.28	280.86
540.44	201.29
540.61	133.41
540.78	126.39
540.95	112.35
541.12	201.29
541.29	173.20
541.46	156.82
541.62	142.77
541.79	107.66
541.96	173.20
542.13	138.09
542.30	84.26
542.47	135.75
542.63	124.05
542.80	173.20
542.97	196.60
543.14	131.07
543.31	168.52
543.48	168.52
543.64	149.79
543.81	147.45
543.98	149.79
544.15	128.73
544.32	154.48
544.48	124.05
544.65	145.11
544.82	189.58
544.99	133.41
545.16	222.35
545.32	182.56
545.49	163.84
545.66	147.45
545.83	149.79
546.00	95.96
546.16	152.13
546.33	140.43
546.50	142.77
546.67	117.03
546.83	180.22
547.00	175.54
547.17	147.45
547.34	93.62
547.50	175.54
547.67	131.07
547.84	112.35
548.00	154.48
548.17	126.39
548.34	124.05
548.51	189.58
548.67	142.77
548.84	114.69
549.01	135.75
549.18	168.52
549.34	105.32
549.51	168.52
549.68	187.24
549.84	173.20
550.01	135.75
550.18	145.11
550.34	259.80
550.51	159.16
550.68	224.69
550.84	166.18
551.01	177.88
551.18	81.92
551.34	135.75
551.51	77.24
551.68	156.82
551.84	100.64
552.01	25.75
552.18	142.77
552.34	105.32
552.51	140.43
552.68	128.73
552.84	100.64
553.01	86.60
553.18	170.86
553.34	51.49
553.51	98.30
553.67	102.98
553.84	252.78
554.01	175.54
554.17	131.07
554.34	133.41
554.51	182.56
554.67	147.45
554.84	208.31
555.00	121.71
555.17	147.45
555.33	194.26
555.50	168.52
555.67	191.92
555.83	168.52
556.00	156.82
556.16	294.91
556.33	175.54
556.50	161.50
556.66	220.01
556.83	95.96
556.99	112.35
557.16	124.05
557.32	102.98
557.49	187.24
557.65	187.24
557.82	107.66
557.98	166.18
558.15	102.98
558.32	77.24
558.48	135.75
558.65	156.82
558.81	124.05
558.98	140.43
559.14	156.82
559.31	102.98
559.47	180.22
559.64	196.60
559.80	198.95
559.97	79.58
560.13	140.43
560.30	170.86
560.46	102.98
560.63	79.58
560.79	140.43
560.96	133.41
561.12	126.39
561.29	58.51
561.45	175.54
561.61	189.58
561.78	212.99
561.94	166.18
562.11	112.35
562.27	145.11
562.44	203.63
562.60	114.69
562.77	98.30
562.93	187.24
563.10	194.26
563.26	138.09
563.42	238.73
563.59	196.60
563.75	142.77
563.92	194.26
564.08	194.26
564.24	128.73
564.41	180.22
564.57	112.35
564.74	131.07
564.90	131.07
565.07	135.75
565.23	194.26
565.39	163.84
565.56	210.65
565.72	168.52
565.88	234.05
566.05	81.92
566.21	154.48
566.38	81.92
566.54	126.39
566.70	84.26
566.87	110.01
567.03	110.01
567.19	65.54
567.36	177.88
567.52	133.41
567.68	189.58
567.85	131.07
568.01	198.95
568.17	163.84
568.34	156.82
568.50	191.92
568.66	131.07
568.83	255.12
568.99	142.77
569.15	184.90
569.32	152.13
569.48	117.03
569.64	142.77
569.81	184.90
569.97	147.45
570.13	156.82
570.30	152.13
570.46	86.60
570.62	142.77
570.78	135.75
570.95	182.56
571.11	166.18
571.27	250.44
571.43	163.84
571.60	107.66
571.76	182.56
571.92	102.98
572.09	100.64
572.25	159.16
572.41	140.43
572.57	149.79
572.74	135.75
572.90	126.39
573.06	79.58
573.22	152.13
573.38	220.01
573.55	135.75
573.71	117.03
573.87	175.54
574.03	135.75
574.20	135.75
574.36	231.71
574.52	224.69
574.68	140.43
574.84	184.90
575.01	126.39
575.17	74.90
575.33	91.28
575.49	91.28
575.65	191.92
575.82	287.89
575.98	327.68
576.14	454.06
576.30	381.51
576.46	285.55
576.62	205.97
576.79	163.84
576.95	175.54
577.11	149.79
577.27	152.13
577.43	271.50
577.59	163.84
577.75	170.86
577.92	154.48
578.08	212.99
578.24	147.45
578.40	100.64
578.56	180.22
578.72	252.78
578.88	245.76
579.04	205.97
579.21	170.86
579.37	114.69
579.53	152.13
579.69	187.24
579.85	203.63
580.01	208.31
580.17	203.63
580.33	128.73
580.49	210.65
580.65	276.18
580.82	217.67
580.98	252.78
581.14	191.92
581.30	276.18
581.46	269.16
581.62	390.87
581.78	353.42
581.94	243.42
582.10	273.84
582.26	250.44
582.42	170.86
582.58	252.78
582.74	273.84
582.90	194.26
583.06	250.44
583.22	241.08
583.38	262.14
583.54	348.74
583.70	407.25
583.86	390.87
584.02	482.15
584.18	664.71
584.34	1327.08
584.50	8477.42
584.66	29340.96
584.82	48491.22
584.98	49701.28
585.14	31814.90
585.30	16755.90
585.46	7927.39
585.62	3241.64
585.78	1420.71
585.94	823.87
586.10	566.41
586.26	362.78
586.42	421.30
586.58	433.00
586.74	276.18
586.90	374.49
587.06	297.25
587.22	287.89
587.38	447.04
587.54	1621.99
587.70	3234.62
587.86	3843.16
588.02	2991.20
588.18	1811.57
588.34	1036.86
588.49	521.94
588.65	269.16
588.81	210.65
588.97	189.58
589.13	215.33
589.29	229.37
589.45	191.92
589.61	189.58
589.77	269.16
589.93	245.76
590.08	311.29
590.24	259.80
590.40	287.89
590.56	241.08
590.72	262.14
590.88	194.26
591.04	196.60
591.20	278.52
591.35	280.86
591.51	210.65
591.67	191.92
591.83	140.43
591.99	184.90
592.15	234.05
592.31	175.54
592.46	182.56
592.62	191.92
592.78	112.35
592.94	203.63
593.10	154.48
593.26	175.54
593.41	248.10
593.57	294.91
593.73	1350.49
593.89	3688.68
594.05	6204.76
594.20	6237.53
594.36	4145.09
594.52	2560.55
594.68	1303.68
594.84	702.16
594.99	404.91
595.15	278.52
595.31	196.60
595.47	210.65
595.62	163.84
595.78	121.71
595.94	166.18
596.10	152.13
596.25	215.33
596.41	266.82
596.57	187.24
596.73	292.57
596.88	669.39
597.04	1277.93
597.20	1577.52
597.36	1289.64
597.51	894.08
597.67	519.60
597.83	372.15
597.99	280.86
598.14	264.48
598.30	175.54
598.46	154.48
598.61	187.24
598.77	205.97
598.93	154.48
599.09	224.69
599.24	170.86
599.40	187.24
599.56	124.05
599.71	215.33
599.87	231.71
600.03	128.73
600.18	170.86
600.34	142.77
600.50	203.63
600.65	86.60
600.81	224.69
600.97	84.26
601.12	152.13
601.28	208.31
601.44	175.54
601.59	133.41
601.75	149.79
601.91	145.11
602.06	217.67
602.22	484.49
602.37	954.94
602.53	1563.48
602.69	1549.43
602.84	1205.38
603.00	798.12
603.16	594.50
603.31	367.46
603.47	227.03
603.62	175.54
603.78	203.63
603.94	191.92
604.09	180.22
604.25	131.07
604.40	189.58
604.56	138.09
604.71	140.43
604.87	140.43
605.03	140.43
605.18	168.52
605.34	166.18
605.49	173.20
605.65	177.88
605.80	241.08
605.96	283.20
606.12	161.50
606.27	255.12
606.43	259.80
606.58	667.05
606.74	1935.62
606.89	3932.10
607.05	5158.54
607.20	4308.93
607.36	2841.41
607.51	1834.98
607.67	1097.71
607.82	493.85
607.98	362.78
608.13	297.25
608.29	259.80
608.44	259.80
608.60	304.27
608.75	945.58
608.91	3426.54
609.06	6796.92
609.22	9130.43
609.37	7482.69
609.53	5006.41
609.68	3197.17
609.84	1902.86
609.99	954.94
610.15	510.24
610.30	353.42
610.46	229.37
610.61	220.01
610.76	177.88
610.92	259.80
611.07	191.92
611.23	250.44
611.38	217.67
611.54	248.10
611.69	175.54
611.84	212.99
612.00	212.99
612.15	311.29
612.31	325.33
612.46	400.23
612.62	318.31
612.77	400.23
612.92	362.78
613.08	322.99
613.23	308.95
613.39	748.97
613.54	3421.86
613.69	8992.34
613.85	13970.66
614.00	13535.32
614.15	9963.66
614.31	6242.21
614.46	3992.95
614.62	2087.76
614.77	866.00
614.92	465.77
615.08	369.80
615.23	304.27
615.38	322.99
615.54	578.11
615.69	1760.08
615.84	3056.74
616.00	3707.41
616.15	2942.05
616.30	2165.00
616.46	1343.47
616.61	842.59
616.76	404.91
616.92	182.56
617.07	180.22
617.22	229.37
617.37	210.65
617.53	175.54
617.68	245.76
617.83	224.69
617.99	280.86
618.14	224.69
618.29	243.42
618.45	194.26
618.60	170.86
618.75	180.22
618.90	126.39
619.06	215.33
619.21	163.84
619.36	163.84
619.51	140.43
619.67	180.22
619.82	114.69
619.97	112.35
620.12	145.11
620.28	173.20
620.43	126.39
620.58	234.05
620.73	196.60
620.89	400.23
621.04	1064.94
621.19	1902.86
621.34	2253.94
621.49	1813.92
621.65	1284.95
621.80	954.94
621.95	681.10
622.10	409.59
622.25	271.50
622.41	210.65
622.56	166.18
622.71	210.65
622.86	257.46
623.01	159.16
623.16	194.26
623.32	166.18
623.47	159.16
623.62	168.52
623.77	156.82
623.92	154.48
624.07	140.43
624.23	170.86
624.38	205.97
624.53	210.65
624.68	269.16
624.83	234.05
624.98	220.01
625.13	245.76
625.29	187.24
625.44	208.31
625.59	231.71
625.74	545.34
625.89	1970.73
626.04	4535.96
626.19	7009.90
626.34	6970.12
626.49	5191.31
626.65	3396.12
626.80	2270.32
626.95	1301.34
627.10	695.14
627.25	388.53
627.40	229.37
627.55	252.78
627.70	227.03
627.85	198.95
628.00	154.48
628.15	191.92
628.30	114.69
628.45	138.09
628.60	145.11
628.76	173.20
628.91	173.20
629.06	156.82
629.21	168.52
629.36	198.95
629.51	168.52
629.66	421.30
629.81	957.28
629.96	1631.35
630.11	1916.90
630.26	1533.05
630.41	1104.73
630.56	741.95
630.71	547.69
630.86	404.91
631.01	255.12
631.16	163.84
631.31	234.05
631.46	241.08
631.61	224.69
631.76	245.76
631.91	252.78
632.06	105.32
632.21	250.44
632.36	168.52
632.51	395.55
632.66	1081.33
632.81	2642.46
632.96	4231.69
633.10	4791.08
633.25	3782.31
633.40	2553.52
633.55	1715.61
633.70	1104.73
633.85	559.39
634.00	402.57
634.15	220.01
634.30	161.50
634.45	196.60
634.60	234.05
634.75	182.56
634.90	156.82
635.05	217.67
635.19	191.92
635.34	203.63
635.49	198.95
635.64	203.63
635.79	238.73
635.94	198.95
636.09	161.50
636.24	182.56
636.39	163.84
636.53	264.48
636.68	229.37
636.83	191.92
636.98	320.65
637.13	154.48
637.28	234.05
637.43	739.61
637.57	2946.73
637.72	6136.88
637.87	8847.22
638.02	8131.02
638.17	6420.09
638.32	4170.83
638.46	2717.36
638.61	1746.04
638.76	891.74
638.91	526.62
639.06	327.68
639.20	327.68
639.35	1142.18
639.50	4170.83
639.65	9198.31
639.80	13848.95
639.94	12748.90
640.09	9701.52
640.24	6413.07
640.39	4241.05
640.54	2434.16
640.68	1121.12
640.83	620.24
640.98	388.53
641.13	306.61
641.27	243.42
641.42	252.78
641.57	241.08
641.72	196.60
641.86	201.29
642.01	271.50
642.16	201.29
642.31	126.39
642.45	210.65
642.60	264.48
642.75	222.35
642.90	212.99
643.04	154.48
643.19	205.97
643.34	210.65
643.48	215.33
643.63	198.95
643.78	170.86
643.93	110.01
644.07	161.50
644.22	173.20
644.37	163.84
644.51	248.10
644.66	205.97
644.81	173.20
644.95	168.52
645.10	110.01
645.25	166.18
645.39	189.58
645.54	154.48
645.69	205.97
645.83	177.88
645.98	173.20
646.13	189.58
646.27	175.54
646.42	156.82
646.57	121.71
646.71	194.26
646.86	110.01
647.00	212.99
647.15	182.56
647.30	166.18
647.44	135.75
647.59	212.99
647.74	114.69
647.88	175.54
648.03	88.94
648.17	177.88
648.32	147.45
648.47	142.77
648.61	194.26
648.76	126.39
648.90	245.76
649.05	224.69
649.20	201.29
649.34	215.33
649.49	140.43
649.63	84.26
649.78	400.23
649.92	1760.08
650.07	4140.41
650.21	6469.24
650.36	7150.34
650.51	5455.79
650.65	3786.99
650.80	2532.46
650.94	1533.05
651.09	798.12
651.23	428.32
651.38	283.20
651.52	259.80
651.67	203.63
651.81	177.88
651.96	182.56
652.10	210.65
652.25	156.82
652.39	238.73
652.54	603.86
652.68	1383.26
652.83	2179.04
652.97	2705.66
653.12	2188.40
653.26	1537.73
653.41	1121.12
653.55	660.03
653.70	470.45
653.84	259.80
653.99	220.01
654.13	170.86
654.27	234.05
654.42	238.73
654.56	210.65
654.71	184.90
654.85	175.54
655.00	119.37
655.14	173.20
655.29	133.41
655.43	194.26
655.57	203.63
655.72	142.77
655.86	133.41
656.01	124.05
656.15	154.48
656.30	201.29
656.44	184.90
656.58	51.49
656.73	131.07
656.87	100.64
657.01	100.64
657.16	252.78
657.30	234.05
657.45	121.71
657.59	100.64
657.73	140.43
657.88	138.09
658.02	198.95
658.16	140.43
658.31	187.24
658.45	140.43
658.60	173.20
658.74	177.88
658.88	138.09
659.03	208.31
659.17	842.59
659.31	1916.90
659.46	3208.87
659.60	3754.22
659.74	3063.76
659.89	2193.08
660.03	1425.39
660.17	966.64
660.32	610.88
660.46	358.10
660.60	259.80
660.74	236.39
660.89	198.95
661.03	117.03
661.17	140.43
661.32	145.11
661.46	140.43
661.60	117.03
661.74	138.09
661.89	194.26
662.03	210.65
662.17	168.52
662.31	170.86
662.46	135.75
662.60	205.97
662.74	100.64
662.88	180.22
663.03	161.50
663.17	133.41
663.31	74.90
663.45	168.52
663.60	124.05
663.74	117.03
663.88	191.92
664.02	248.10
664.17	191.92
664.31	177.88
664.45	194.26
664.59	133.41
664.73	149.79
664.88	187.24
665.02	166.18
665.16	145.11
665.30	131.07
665.44	189.58
665.59	203.63
665.73	203.63
665.87	180.22
666.01	205.97
666.15	138.09
666.29	114.69
666.44	212.99
666.58	243.42
666.72	203.63
666.86	194.26
667.00	435.34
667.14	1411.34
667.28	3581.02
667.43	5628.99
667.57	6347.53
667.71	5305.99
667.85	3730.81
667.99	2282.02
668.13	1231.12
668.27	699.82
668.41	433.00
668.56	355.76
668.70	257.46
668.84	208.31
668.98	222.35
669.12	156.82
669.26	145.11
669.40	250.44
669.54	187.24
669.68	205.97
669.82	203.63
669.96	184.90
670.10	102.98
670.25	205.97
670.39	100.64
670.53	187.24
670.67	163.84
670.81	304.27
670.95	479.81
671.09	1362.19
671.23	2876.52
671.37	3946.14
671.51	3831.46
671.65	2916.31
671.79	1804.55
671.93	1167.93
672.07	711.52
672.21	421.30
672.35	262.14
672.49	220.01
672.63	215.33
672.77	177.88
672.91	196.60
673.05	126.39
673.19	166.18
673.33	187.24
673.47	196.60
673.61	154.48
673.75	177.88
673.89	180.22
674.03	166.18
674.17	142.77
674.31	156.82
674.45	168.52
674.59	182.56
674.73	212.99
674.87	196.60
675.01	194.26
675.15	198.95
675.29	173.20
675.43	126.39
675.56	191.92
675.70	159.16
675.84	180.22
675.98	152.13
676.12	154.48
676.26	196.60
676.40	112.35
676.54	152.13
676.68	203.63
676.82	285.55
676.96	168.52
677.10	140.43
677.23	131.07
677.37	161.50
677.51	156.82
677.65	173.20
677.79	145.11
677.93	138.09
678.07	131.07
678.21	102.98
678.34	187.24
678.48	112.35
678.62	126.39
678.76	91.28
678.90	133.41
679.04	166.18
679.18	135.75
679.31	95.96
679.45	142.77
679.59	191.92
679.73	168.52
679.87	102.98
680.00	168.52
680.14	168.52
680.28	133.41
680.42	117.03
680.56	98.30
680.70	147.45
680.83	194.26
680.97	133.41
681.11	205.97
681.25	149.79
681.39	124.05
681.52	77.24
681.66	138.09
681.80	156.82
681.94	131.07
682.07	98.30
682.21	198.95
682.35	126.39
682.49	121.71
682.62	224.69
682.76	93.62
682.90	203.63
683.04	152.13
683.17	154.48
683.31	105.32
683.45	203.63
683.59	238.73
683.72	126.39
683.86	177.88
684.00	152.13
684.13	203.63
684.27	147.45
684.41	53.83
684.55	177.88
684.68	198.95
684.82	18.72
684.96	152.13
685.09	152.13
685.23	201.29
685.37	191.92
685.50	138.09
685.64	105.32
685.78	95.96
685.91	196.60
686.05	177.88
686.19	147.45
686.32	170.86
686.46	210.65
686.60	138.09
686.73	259.80
686.87	280.86
687.01	147.45
687.14	163.84
687.28	210.65
687.42	124.05
687.55	81.92
687.69	159.16
687.82	145.11
687.96	187.24
688.10	180.22
688.23	187.24
688.37	161.50
688.50	205.97
688.64	145.11
688.78	124.05
688.91	105.32
689.05	170.86
689.18	110.01
689.32	60.85
689.46	220.01
689.59	196.60
689.73	210.65
689.86	102.98
690.00	135.75
690.13	142.77
690.27	154.48
690.41	194.26
690.54	191.92
690.68	121.71
690.81	166.18
690.95	95.96
691.08	121.71
691.22	203.63
691.35	138.09
691.49	105.32
691.62	161.50
691.76	208.31
691.89	177.88
692.03	252.78
692.16	196.60
692.30	547.69
692.43	1469.86
692.57	2242.23
692.70	2792.26
692.84	2366.28
692.97	1926.26
693.11	1409.00
693.24	919.83
693.38	634.29
693.51	491.51
693.65	372.15
693.78	201.29
693.92	252.78
694.05	203.63
694.19	166.18
694.32	168.52
694.45	184.90
694.59	142.77
694.72	138.09
694.86	93.62
694.99	203.63
695.13	138.09
695.26	149.79
695.39	210.65
695.53	229.37
695.66	142.77
695.80	114.69
695.93	156.82
696.07	276.18
696.20	311.29
696.33	327.68
696.47	334.70
696.60	287.89
696.73	273.84
696.87	220.01
697.00	205.97
697.14	170.86
697.27	128.73
697.40	257.46
697.54	138.09
697.67	149.79
697.80	140.43
697.94	117.03
698.07	149.79
698.21	173.20
698.34	121.71
698.47	49.15
698.61	119.37
698.74	156.82
698.87	182.56
699.01	175.54
699.14	60.85
699.27	191.92
699.40	308.95
699.54	102.98
699.67	60.85
699.80	217.67
699.94	149.79
700.07	149.79
700.20	60.85
700.34	168.52
700.47	147.45
700.60	142.77
700.73	182.56
700.87	112.35
701.00	107.66
701.13	203.63
701.26	126.39
701.40	229.37
701.53	194.26
701.66	175.54
701.79	231.71
701.93	304.27
702.06	351.08
702.19	290.23
702.32	320.65
702.46	355.76
702.59	732.59
702.72	1746.04
702.85	3361.01
702.99	4617.88
703.12	5142.16
703.25	4444.68
703.38	3634.85
703.51	3021.63
703.65	2129.89
703.78	1308.36
703.91	924.51
704.04	594.50
704.17	442.36
704.31	231.71
704.44	241.08
704.57	203.63
704.70	196.60
704.83	133.41
704.96	205.97
705.10	152.13
705.23	112.35
>>>>>End Processed Spectral Data<<<<<
