SpectraSuite Data File
++++++++++++++++++++++++++++++++++++
Date: Fri Oct 04 12:13:40 GMT-05:00 2013
User: price-jones
Dark Spectrum Present: No
Reference Spectrum Present: No
Number of Sampled Component Spectra: 1
Spectrometers: USB2+H05261
Integration Time (usec): 10000 (USB2+H05261)
Spectra Averaged: 1 (USB2+H05261)
Boxcar Smoothing: 0 (USB2+H05261)
Correct for Electrical Dark: No (USB2+H05261)
Strobe/Lamp Enabled: No (USB2+H05261)
Correct for Detector Non-linearity: No (USB2+H05261)
Correct for Stray Light: No (USB2+H05261)
Number of Pixels in Processed Spectrum: 2048
>>>>>Begin Processed Spectral Data<<<<<
365.73	0.00
365.92	0.00
366.12	0.00
366.32	0.00
366.52	0.00
366.72	0.00
366.91	0.00
367.11	0.00
367.31	0.00
367.51	0.00
367.70	0.00
367.90	0.00
368.10	0.00
368.30	0.00
368.49	0.00
368.69	0.00
368.89	0.00
369.09	0.00
369.28	0.00
369.48	0.00
369.68	0.00
369.87	0.00
370.07	0.00
370.27	0.00
370.47	0.00
370.66	0.00
370.86	0.00
371.06	0.00
371.25	18.72
371.45	0.00
371.65	11.70
371.84	9.36
372.04	0.00
372.24	9.36
372.44	0.00
372.63	35.11
372.83	65.54
373.03	49.15
373.22	30.43
373.42	4.68
373.62	142.77
373.81	0.00
374.01	117.03
374.21	53.83
374.40	35.11
374.60	30.43
374.79	74.90
374.99	56.17
375.19	11.70
375.38	4.68
375.58	65.54
375.78	30.43
375.97	9.36
376.17	37.45
376.37	18.72
376.56	72.56
376.76	25.75
376.95	0.00
377.15	56.17
377.35	51.49
377.54	25.75
377.74	4.68
377.93	81.92
378.13	77.24
378.33	0.00
378.52	51.49
378.72	42.13
378.91	37.45
379.11	0.00
379.31	67.88
379.50	0.00
379.70	0.00
379.89	135.75
380.09	0.00
380.28	7.02
380.48	79.58
380.68	0.00
380.87	58.51
381.07	0.00
381.26	11.70
381.46	0.00
381.65	49.15
381.85	21.06
382.04	11.70
382.24	67.88
382.43	0.00
382.63	0.00
382.83	0.00
383.02	30.43
383.22	35.11
383.41	0.00
383.61	42.13
383.80	0.00
384.00	72.56
384.19	18.72
384.39	0.00
384.58	37.45
384.78	63.19
384.97	0.00
385.17	0.00
385.36	0.00
385.56	0.00
385.75	9.36
385.95	74.90
386.14	16.38
386.34	14.04
386.53	72.56
386.72	11.70
386.92	35.11
387.11	16.38
387.31	0.00
387.50	0.00
387.70	44.47
387.89	0.00
388.09	44.47
388.28	35.11
388.48	7.02
388.67	11.70
388.86	30.43
389.06	44.47
389.25	0.00
389.45	0.00
389.64	0.00
389.84	0.00
390.03	0.00
390.22	67.88
390.42	18.72
390.61	42.13
390.81	9.36
391.00	0.00
391.19	0.00
391.39	32.77
391.58	0.00
391.78	35.11
391.97	14.04
392.16	53.83
392.36	37.45
392.55	63.19
392.75	0.00
392.94	18.72
393.13	9.36
393.33	0.00
393.52	53.83
393.71	42.13
393.91	11.70
394.10	53.83
394.29	9.36
394.49	23.41
394.68	0.00
394.88	0.00
395.07	18.72
395.26	67.88
395.46	18.72
395.65	0.00
395.84	65.54
396.04	44.47
396.23	18.72
396.42	51.49
396.62	18.72
396.81	9.36
397.00	0.00
397.19	44.47
397.39	74.90
397.58	37.45
397.77	9.36
397.97	42.13
398.16	0.00
398.35	4.68
398.55	11.70
398.74	30.43
398.93	49.15
399.12	0.00
399.32	16.38
399.51	79.58
399.70	58.51
399.90	58.51
400.09	32.77
400.28	65.54
400.47	21.06
400.67	70.22
400.86	11.70
401.05	0.00
401.24	35.11
401.44	65.54
401.63	0.00
401.82	0.00
402.01	0.00
402.21	65.54
402.40	46.81
402.59	81.92
402.78	9.36
402.97	9.36
403.17	46.81
403.36	42.13
403.55	30.43
403.74	42.13
403.93	49.15
404.13	0.00
404.32	58.51
404.51	4.68
404.70	91.28
404.89	37.45
405.09	30.43
405.28	37.45
405.47	67.88
405.66	65.54
405.85	18.72
406.05	0.00
406.24	21.06
406.43	0.00
406.62	93.62
406.81	14.04
407.00	30.43
407.20	91.28
407.39	51.49
407.58	56.17
407.77	58.51
407.96	39.79
408.15	42.13
408.34	23.41
408.54	46.81
408.73	0.00
408.92	149.79
409.11	18.72
409.30	44.47
409.49	14.04
409.68	37.45
409.87	7.02
410.07	30.43
410.26	18.72
410.45	42.13
410.64	28.09
410.83	60.85
411.02	0.00
411.21	35.11
411.40	14.04
411.59	53.83
411.78	0.00
411.98	0.00
412.17	35.11
412.36	91.28
412.55	0.00
412.74	42.13
412.93	60.85
413.12	4.68
413.31	35.11
413.50	32.77
413.69	60.85
413.88	105.32
414.07	51.49
414.26	86.60
414.45	133.41
414.64	53.83
414.83	65.54
415.02	0.00
415.22	2.34
415.41	39.79
415.60	42.13
415.79	42.13
415.98	138.09
416.17	39.79
416.36	28.09
416.55	46.81
416.74	4.68
416.93	98.30
417.12	70.22
417.31	0.00
417.50	91.28
417.69	79.58
417.88	56.17
418.07	11.70
418.26	0.00
418.45	18.72
418.64	91.28
418.83	49.15
419.02	63.19
419.21	0.00
419.39	0.00
419.58	88.94
419.77	28.09
419.96	86.60
420.15	77.24
420.34	124.05
420.53	56.17
420.72	49.15
420.91	25.75
421.10	28.09
421.29	84.26
421.48	91.28
421.67	67.88
421.86	39.79
422.05	77.24
422.24	23.41
422.43	30.43
422.61	53.83
422.80	7.02
422.99	79.58
423.18	0.00
423.37	30.43
423.56	44.47
423.75	39.79
423.94	102.98
424.13	56.17
424.32	35.11
424.50	0.00
424.69	28.09
424.88	0.00
425.07	53.83
425.26	37.45
425.45	95.96
425.64	7.02
425.83	0.00
426.01	77.24
426.20	23.41
426.39	58.51
426.58	65.54
426.77	35.11
426.96	110.01
427.15	53.83
427.33	25.75
427.52	152.13
427.71	14.04
427.90	98.30
428.09	86.60
428.28	72.56
428.46	2.34
428.65	0.00
428.84	35.11
429.03	11.70
429.22	53.83
429.40	21.06
429.59	16.38
429.78	30.43
429.97	77.24
430.16	107.66
430.34	0.00
430.53	14.04
430.72	44.47
430.91	49.15
431.10	37.45
431.28	30.43
431.47	7.02
431.66	119.37
431.85	81.92
432.03	42.13
432.22	0.00
432.41	0.00
432.60	58.51
432.79	0.00
432.97	95.96
433.16	60.85
433.35	30.43
433.54	14.04
433.72	49.15
433.91	107.66
434.10	4.68
434.28	74.90
434.47	86.60
434.66	60.85
434.85	39.79
435.03	70.22
435.22	65.54
435.41	72.56
435.59	39.79
435.78	49.15
435.97	133.41
436.16	42.13
436.34	81.92
436.53	102.98
436.72	77.24
436.90	4.68
437.09	93.62
437.28	110.01
437.46	70.22
437.65	84.26
437.84	49.15
438.02	25.75
438.21	91.28
438.40	21.06
438.58	0.00
438.77	42.13
438.96	0.00
439.14	25.75
439.33	37.45
439.52	86.60
439.70	86.60
439.89	79.58
440.08	100.64
440.26	44.47
440.45	72.56
440.63	28.09
440.82	51.49
441.01	0.00
441.19	107.66
441.38	91.28
441.57	100.64
441.75	35.11
441.94	74.90
442.12	88.94
442.31	60.85
442.50	18.72
442.68	58.51
442.87	86.60
443.05	112.35
443.24	35.11
443.43	67.88
443.61	44.47
443.80	72.56
443.98	21.06
444.17	56.17
444.35	56.17
444.54	25.75
444.73	4.68
444.91	60.85
445.10	74.90
445.28	81.92
445.47	23.41
445.65	2.34
445.84	112.35
446.02	112.35
446.21	107.66
446.39	98.30
446.58	72.56
446.77	32.77
446.95	23.41
447.14	63.19
447.32	84.26
447.51	77.24
447.69	138.09
447.88	102.98
448.06	32.77
448.25	49.15
448.43	63.19
448.62	107.66
448.80	72.56
448.99	37.45
449.17	7.02
449.36	30.43
449.54	81.92
449.73	11.70
449.91	86.60
450.10	77.24
450.28	88.94
450.46	35.11
450.65	74.90
450.83	56.17
451.02	91.28
451.20	107.66
451.39	39.79
451.57	0.00
451.76	72.56
451.94	35.11
452.13	88.94
452.31	25.75
452.49	0.00
452.68	49.15
452.86	51.49
453.05	49.15
453.23	86.60
453.42	77.24
453.60	46.81
453.78	42.13
453.97	35.11
454.15	28.09
454.34	16.38
454.52	0.00
454.70	112.35
454.89	37.45
455.07	0.00
455.26	65.54
455.44	128.73
455.62	35.11
455.81	11.70
455.99	30.43
456.17	121.71
456.36	60.85
456.54	44.47
456.73	32.77
456.91	7.02
457.09	65.54
457.28	42.13
457.46	95.96
457.64	79.58
457.83	79.58
458.01	18.72
458.19	53.83
458.38	72.56
458.56	44.47
458.74	23.41
458.93	25.75
459.11	93.62
459.29	51.49
459.48	49.15
459.66	77.24
459.84	60.85
460.03	91.28
460.21	49.15
460.39	74.90
460.57	28.09
460.76	102.98
460.94	182.56
461.12	58.51
461.31	79.58
461.49	63.19
461.67	2.34
461.85	28.09
462.04	0.00
462.22	107.66
462.40	37.45
462.59	86.60
462.77	72.56
462.95	44.47
463.13	91.28
463.32	70.22
463.50	98.30
463.68	28.09
463.86	2.34
464.05	77.24
464.23	23.41
464.41	49.15
464.59	37.45
464.78	65.54
464.96	2.34
465.14	112.35
465.32	51.49
465.50	58.51
465.69	77.24
465.87	56.17
466.05	11.70
466.23	74.90
466.41	0.00
466.60	32.77
466.78	11.70
466.96	107.66
467.14	77.24
467.32	53.83
467.51	72.56
467.69	58.51
467.87	131.07
468.05	63.19
468.23	35.11
468.41	60.85
468.60	60.85
468.78	56.17
468.96	98.30
469.14	42.13
469.32	39.79
469.50	0.00
469.69	124.05
469.87	46.81
470.05	9.36
470.23	77.24
470.41	53.83
470.59	77.24
470.77	51.49
470.95	56.17
471.14	88.94
471.32	70.22
471.50	51.49
471.68	95.96
471.86	88.94
472.04	23.41
472.22	56.17
472.40	100.64
472.58	63.19
472.77	65.54
472.95	53.83
473.13	51.49
473.31	95.96
473.49	32.77
473.67	72.56
473.85	84.26
474.03	28.09
474.21	21.06
474.39	18.72
474.57	49.15
474.75	53.83
474.93	0.00
475.12	0.00
475.30	30.43
475.48	84.26
475.66	37.45
475.84	119.37
476.02	4.68
476.20	0.00
476.38	0.00
476.56	51.49
476.74	42.13
476.92	32.77
477.10	32.77
477.28	119.37
477.46	95.96
477.64	95.96
477.82	23.41
478.00	51.49
478.18	18.72
478.36	128.73
478.54	114.69
478.72	25.75
478.90	58.51
479.08	79.58
479.26	58.51
479.44	79.58
479.62	46.81
479.80	35.11
479.98	35.11
480.16	98.30
480.34	70.22
480.52	100.64
480.70	49.15
480.88	0.00
481.06	121.71
481.24	0.00
481.41	11.70
481.59	74.90
481.77	42.13
481.95	63.19
482.13	30.43
482.31	70.22
482.49	46.81
482.67	42.13
482.85	112.35
483.03	44.47
483.21	72.56
483.39	49.15
483.57	88.94
483.74	74.90
483.92	81.92
484.10	131.07
484.28	53.83
484.46	112.35
484.64	42.13
484.82	0.00
485.00	58.51
485.18	42.13
485.35	105.32
485.53	70.22
485.71	70.22
485.89	53.83
486.07	42.13
486.25	49.15
486.43	72.56
486.61	46.81
486.78	88.94
486.96	0.00
487.14	25.75
487.32	86.60
487.50	44.47
487.68	51.49
487.85	56.17
488.03	147.45
488.21	60.85
488.39	121.71
488.57	51.49
488.75	58.51
488.92	124.05
489.10	95.96
489.28	18.72
489.46	88.94
489.64	117.03
489.81	79.58
489.99	86.60
490.17	37.45
490.35	49.15
490.53	42.13
490.70	30.43
490.88	65.54
491.06	35.11
491.24	39.79
491.41	16.38
491.59	60.85
491.77	77.24
491.95	95.96
492.13	98.30
492.30	102.98
492.48	105.32
492.66	79.58
492.84	86.60
493.01	119.37
493.19	79.58
493.37	112.35
493.54	84.26
493.72	60.85
493.90	128.73
494.08	37.45
494.25	91.28
494.43	110.01
494.61	65.54
494.79	16.38
494.96	91.28
495.14	114.69
495.32	107.66
495.49	124.05
495.67	149.79
495.85	114.69
496.02	72.56
496.20	86.60
496.38	56.17
496.55	58.51
496.73	74.90
496.91	77.24
497.09	102.98
497.26	114.69
497.44	86.60
497.62	11.70
497.79	58.51
497.97	35.11
498.14	74.90
498.32	105.32
498.50	32.77
498.67	70.22
498.85	67.88
499.03	70.22
499.20	53.83
499.38	67.88
499.56	84.26
499.73	182.56
499.91	114.69
500.08	21.06
500.26	98.30
500.44	88.94
500.61	67.88
500.79	67.88
500.97	126.39
501.14	121.71
501.32	100.64
501.49	98.30
501.67	121.71
501.84	65.54
502.02	23.41
502.20	140.43
502.37	65.54
502.55	70.22
502.72	49.15
502.90	46.81
503.07	67.88
503.25	60.85
503.43	37.45
503.60	102.98
503.78	18.72
503.95	81.92
504.13	25.75
504.30	35.11
504.48	58.51
504.65	131.07
504.83	51.49
505.01	32.77
505.18	35.11
505.36	154.48
505.53	49.15
505.71	102.98
505.88	126.39
506.06	65.54
506.23	107.66
506.41	79.58
506.58	110.01
506.76	46.81
506.93	28.09
507.11	107.66
507.28	63.19
507.46	72.56
507.63	37.45
507.81	67.88
507.98	110.01
508.16	0.00
508.33	170.86
508.50	72.56
508.68	98.30
508.85	0.00
509.03	51.49
509.20	105.32
509.38	135.75
509.55	7.02
509.73	107.66
509.90	30.43
510.08	42.13
510.25	79.58
510.42	65.54
510.60	63.19
510.77	98.30
510.95	117.03
511.12	152.13
511.30	39.79
511.47	74.90
511.64	145.11
511.82	11.70
511.99	86.60
512.17	102.98
512.34	128.73
512.51	35.11
512.69	60.85
512.86	60.85
513.04	105.32
513.21	42.13
513.38	51.49
513.56	74.90
513.73	63.19
513.90	102.98
514.08	65.54
514.25	91.28
514.43	107.66
514.60	58.51
514.77	112.35
514.95	102.98
515.12	114.69
515.29	74.90
515.47	112.35
515.64	30.43
515.81	114.69
515.99	53.83
516.16	67.88
516.33	28.09
516.51	28.09
516.68	42.13
516.85	102.98
517.03	105.32
517.20	51.49
517.37	51.49
517.54	107.66
517.72	112.35
517.89	117.03
518.06	63.19
518.24	98.30
518.41	126.39
518.58	53.83
518.75	128.73
518.93	25.75
519.10	112.35
519.27	70.22
519.45	91.28
519.62	105.32
519.79	110.01
519.96	107.66
520.14	79.58
520.31	88.94
520.48	56.17
520.65	72.56
520.83	42.13
521.00	0.00
521.17	72.56
521.34	133.41
521.52	105.32
521.69	86.60
521.86	112.35
522.03	102.98
522.20	21.06
522.38	53.83
522.55	93.62
522.72	74.90
522.89	67.88
523.07	70.22
523.24	117.03
523.41	74.90
523.58	63.19
523.75	63.19
523.92	60.85
524.10	65.54
524.27	110.01
524.44	105.32
524.61	166.18
524.78	98.30
524.96	156.82
525.13	126.39
525.30	166.18
525.47	128.73
525.64	91.28
525.81	67.88
525.98	70.22
526.16	0.00
526.33	72.56
526.50	100.64
526.67	152.13
526.84	105.32
527.01	154.48
527.18	46.81
527.36	21.06
527.53	128.73
527.70	117.03
527.87	121.71
528.04	58.51
528.21	46.81
528.38	100.64
528.55	35.11
528.72	107.66
528.89	51.49
529.07	25.75
529.24	77.24
529.41	77.24
529.58	35.11
529.75	112.35
529.92	72.56
530.09	86.60
530.26	91.28
530.43	72.56
530.60	114.69
530.77	159.16
530.94	133.41
531.11	91.28
531.28	72.56
531.46	77.24
531.63	72.56
531.80	112.35
531.97	0.00
532.14	49.15
532.31	30.43
532.48	65.54
532.65	117.03
532.82	63.19
532.99	51.49
533.16	93.62
533.33	133.41
533.50	32.77
533.67	191.92
533.84	58.51
534.01	37.45
534.18	131.07
534.35	145.11
534.52	74.90
534.69	30.43
534.86	58.51
535.03	42.13
535.20	84.26
535.37	156.82
535.54	37.45
535.71	67.88
535.88	124.05
536.05	135.75
536.22	72.56
536.38	119.37
536.55	60.85
536.72	77.24
536.89	84.26
537.06	21.06
537.23	51.49
537.40	107.66
537.57	93.62
537.74	74.90
537.91	117.03
538.08	51.49
538.25	79.58
538.42	100.64
538.59	74.90
538.75	79.58
538.92	81.92
539.09	142.77
539.26	58.51
539.43	107.66
539.60	102.98
539.77	72.56
539.94	79.58
540.11	70.22
540.28	128.73
540.44	35.11
540.61	100.64
540.78	37.45
540.95	166.18
541.12	119.37
541.29	0.00
541.46	114.69
541.62	98.30
541.79	72.56
541.96	0.00
542.13	107.66
542.30	56.17
542.47	58.51
542.63	163.84
542.80	72.56
542.97	93.62
543.14	37.45
543.31	0.00
543.48	84.26
543.64	23.41
543.81	58.51
543.98	121.71
544.15	81.92
544.32	86.60
544.48	74.90
544.65	0.00
544.82	30.43
544.99	49.15
545.16	145.11
545.32	149.79
545.49	37.45
545.66	63.19
545.83	100.64
546.00	49.15
546.16	102.98
546.33	58.51
546.50	65.54
546.67	37.45
546.83	25.75
547.00	88.94
547.17	124.05
547.34	58.51
547.50	42.13
547.67	98.30
547.84	91.28
548.00	86.60
548.17	86.60
548.34	37.45
548.51	100.64
548.67	77.24
548.84	77.24
549.01	32.77
549.18	117.03
549.34	42.13
549.51	133.41
549.68	51.49
549.84	63.19
550.01	67.88
550.18	21.06
550.34	147.45
550.51	119.37
550.68	110.01
550.84	95.96
551.01	124.05
551.18	63.19
551.34	98.30
551.51	63.19
551.68	77.24
551.84	119.37
552.01	58.51
552.18	72.56
552.34	100.64
552.51	121.71
552.68	81.92
552.84	119.37
553.01	77.24
553.18	79.58
553.34	107.66
553.51	30.43
553.67	166.18
553.84	58.51
554.01	49.15
554.17	81.92
554.34	112.35
554.51	30.43
554.67	124.05
554.84	105.32
555.00	56.17
555.17	126.39
555.33	133.41
555.50	126.39
555.67	147.45
555.83	58.51
556.00	170.86
556.16	110.01
556.33	131.07
556.50	142.77
556.66	42.13
556.83	44.47
556.99	14.04
557.16	112.35
557.32	65.54
557.49	0.00
557.65	133.41
557.82	93.62
557.98	102.98
558.15	119.37
558.32	112.35
558.48	42.13
558.65	72.56
558.81	67.88
558.98	124.05
559.14	53.83
559.31	67.88
559.47	21.06
559.64	88.94
559.80	81.92
559.97	63.19
560.13	72.56
560.30	84.26
560.46	88.94
560.63	170.86
560.79	131.07
560.96	88.94
561.12	39.79
561.29	91.28
561.45	84.26
561.61	72.56
561.78	39.79
561.94	39.79
562.11	60.85
562.27	135.75
562.44	84.26
562.60	25.75
562.77	79.58
562.93	117.03
563.10	86.60
563.26	112.35
563.42	74.90
563.59	161.50
563.75	28.09
563.92	74.90
564.08	72.56
564.24	72.56
564.41	128.73
564.57	91.28
564.74	74.90
564.90	135.75
565.07	74.90
565.23	79.58
565.39	72.56
565.56	70.22
565.72	86.60
565.88	72.56
566.05	131.07
566.21	102.98
566.38	112.35
566.54	133.41
566.70	117.03
566.87	86.60
567.03	138.09
567.19	100.64
567.36	53.83
567.52	114.69
567.68	56.17
567.85	81.92
568.01	77.24
568.17	60.85
568.34	114.69
568.50	114.69
568.66	84.26
568.83	107.66
568.99	112.35
569.15	107.66
569.32	119.37
569.48	100.64
569.64	140.43
569.81	58.51
569.97	49.15
570.13	86.60
570.30	81.92
570.46	67.88
570.62	112.35
570.78	95.96
570.95	133.41
571.11	65.54
571.27	131.07
571.43	74.90
571.60	58.51
571.76	86.60
571.92	51.49
572.09	23.41
572.25	63.19
572.41	74.90
572.57	51.49
572.74	100.64
572.90	84.26
573.06	102.98
573.22	81.92
573.38	51.49
573.55	28.09
573.71	51.49
573.87	102.98
574.03	107.66
574.20	74.90
574.36	88.94
574.52	119.37
574.68	135.75
574.84	58.51
575.01	74.90
575.17	79.58
575.33	107.66
575.49	86.60
575.65	93.62
575.82	84.26
575.98	7.02
576.14	0.00
576.30	95.96
576.46	74.90
576.62	117.03
576.79	65.54
576.95	126.39
577.11	63.19
577.27	79.58
577.43	25.75
577.59	49.15
577.75	77.24
577.92	86.60
578.08	7.02
578.24	42.13
578.40	49.15
578.56	42.13
578.72	58.51
578.88	49.15
579.04	112.35
579.21	98.30
579.37	110.01
579.53	0.00
579.69	58.51
579.85	98.30
580.01	58.51
580.17	110.01
580.33	35.11
580.49	100.64
580.65	79.58
580.82	91.28
580.98	28.09
581.14	77.24
581.30	65.54
581.46	100.64
581.62	53.83
581.78	70.22
581.94	105.32
582.10	58.51
582.26	70.22
582.42	149.79
582.58	91.28
582.74	91.28
582.90	138.09
583.06	46.81
583.22	107.66
583.38	105.32
583.54	119.37
583.70	154.48
583.86	53.83
584.02	18.72
584.18	84.26
584.34	98.30
584.50	58.51
584.66	21.06
584.82	133.41
584.98	91.28
585.14	107.66
585.30	95.96
585.46	112.35
585.62	77.24
585.78	51.49
585.94	93.62
586.10	39.79
586.26	98.30
586.42	128.73
586.58	72.56
586.74	74.90
586.90	93.62
587.06	100.64
587.22	91.28
587.38	56.17
587.54	53.83
587.70	65.54
587.86	51.49
588.02	49.15
588.18	53.83
588.34	56.17
588.49	0.00
588.65	56.17
588.81	25.75
588.97	37.45
589.13	35.11
589.29	53.83
589.45	81.92
589.61	95.96
589.77	138.09
589.93	152.13
590.08	35.11
590.24	37.45
590.40	93.62
590.56	16.38
590.72	58.51
590.88	58.51
591.04	0.00
591.20	79.58
591.35	67.88
591.51	63.19
591.67	65.54
591.83	124.05
591.99	25.75
592.15	32.77
592.31	37.45
592.46	42.13
592.62	46.81
592.78	95.96
592.94	105.32
593.10	44.47
593.26	42.13
593.41	14.04
593.57	102.98
593.73	107.66
593.89	65.54
594.05	128.73
594.20	18.72
594.36	74.90
594.52	67.88
594.68	65.54
594.84	0.00
594.99	95.96
595.15	51.49
595.31	70.22
595.47	77.24
595.62	42.13
595.78	63.19
595.94	74.90
596.10	88.94
596.25	107.66
596.41	110.01
596.57	77.24
596.73	35.11
596.88	142.77
597.04	121.71
597.20	46.81
597.36	74.90
597.51	98.30
597.67	7.02
597.83	91.28
597.99	56.17
598.14	98.30
598.30	86.60
598.46	51.49
598.61	119.37
598.77	49.15
598.93	44.47
599.09	56.17
599.24	65.54
599.40	72.56
599.56	44.47
599.71	28.09
599.87	105.32
600.03	86.60
600.18	14.04
600.34	0.00
600.50	63.19
600.65	63.19
600.81	79.58
600.97	30.43
601.12	128.73
601.28	42.13
601.44	77.24
601.59	65.54
601.75	21.06
601.91	53.83
602.06	51.49
602.22	112.35
602.37	133.41
602.53	70.22
602.69	91.28
602.84	58.51
603.00	114.69
603.16	88.94
603.31	72.56
603.47	72.56
603.62	105.32
603.78	42.13
603.94	35.11
604.09	35.11
604.25	63.19
604.40	58.51
604.56	37.45
604.71	63.19
604.87	72.56
605.03	46.81
605.18	16.38
605.34	0.00
605.49	9.36
605.65	110.01
605.80	72.56
605.96	72.56
606.12	56.17
606.27	98.30
606.43	84.26
606.58	18.72
606.74	39.79
606.89	95.96
607.05	110.01
607.20	86.60
607.36	46.81
607.51	107.66
607.67	60.85
607.82	102.98
607.98	74.90
608.13	65.54
608.29	67.88
608.44	117.03
608.60	84.26
608.75	79.58
608.91	72.56
609.06	30.43
609.22	86.60
609.37	51.49
609.53	39.79
609.68	65.54
609.84	95.96
609.99	58.51
610.15	70.22
610.30	105.32
610.46	42.13
610.61	56.17
610.76	110.01
610.92	74.90
611.07	77.24
611.23	51.49
611.38	21.06
611.54	14.04
611.69	110.01
611.84	60.85
612.00	30.43
612.15	93.62
612.31	88.94
612.46	70.22
612.62	72.56
612.77	107.66
612.92	49.15
613.08	74.90
613.23	91.28
613.39	7.02
613.54	74.90
613.69	35.11
613.85	39.79
614.00	93.62
614.15	9.36
614.31	44.47
614.46	152.13
614.62	91.28
614.77	53.83
614.92	81.92
615.08	37.45
615.23	121.71
615.38	28.09
615.54	37.45
615.69	25.75
615.84	77.24
616.00	86.60
616.15	100.64
616.30	142.77
616.46	79.58
616.61	28.09
616.76	102.98
616.92	98.30
617.07	39.79
617.22	81.92
617.37	86.60
617.53	72.56
617.68	16.38
617.83	133.41
617.99	63.19
618.14	77.24
618.29	93.62
618.45	32.77
618.60	39.79
618.75	110.01
618.90	63.19
619.06	51.49
619.21	0.00
619.36	30.43
619.51	18.72
619.67	65.54
619.82	91.28
619.97	117.03
620.12	21.06
620.28	63.19
620.43	107.66
620.58	35.11
620.73	126.39
620.89	74.90
621.04	0.00
621.19	37.45
621.34	42.13
621.49	86.60
621.65	117.03
621.80	91.28
621.95	58.51
622.10	44.47
622.25	56.17
622.41	35.11
622.56	95.96
622.71	67.88
622.86	91.28
623.01	70.22
623.16	86.60
623.32	42.13
623.47	131.07
623.62	60.85
623.77	105.32
623.92	65.54
624.07	25.75
624.23	32.77
624.38	39.79
624.53	102.98
624.68	32.77
624.83	60.85
624.98	21.06
625.13	67.88
625.29	42.13
625.44	86.60
625.59	56.17
625.74	2.34
625.89	128.73
626.04	7.02
626.19	46.81
626.34	51.49
626.49	114.69
626.65	63.19
626.80	51.49
626.95	16.38
627.10	49.15
627.25	46.81
627.40	70.22
627.55	25.75
627.70	84.26
627.85	91.28
628.00	86.60
628.15	112.35
628.30	14.04
628.45	142.77
628.60	23.41
628.76	25.75
628.91	100.64
629.06	23.41
629.21	9.36
629.36	56.17
629.51	65.54
629.66	37.45
629.81	37.45
629.96	16.38
630.11	14.04
630.26	53.83
630.41	93.62
630.56	35.11
630.71	49.15
630.86	0.00
631.01	0.00
631.16	72.56
631.31	32.77
631.46	60.85
631.61	112.35
631.76	86.60
631.91	65.54
632.06	51.49
632.21	91.28
632.36	65.54
632.51	67.88
632.66	117.03
632.81	86.60
632.96	30.43
633.10	72.56
633.25	95.96
633.40	16.38
633.55	35.11
633.70	23.41
633.85	91.28
634.00	23.41
634.15	72.56
634.30	11.70
634.45	93.62
634.60	88.94
634.75	37.45
634.90	93.62
635.05	86.60
635.19	95.96
635.34	98.30
635.49	9.36
635.64	67.88
635.79	16.38
635.94	65.54
636.09	131.07
636.24	117.03
636.39	124.05
636.53	112.35
636.68	105.32
636.83	53.83
636.98	49.15
637.13	128.73
637.28	49.15
637.43	131.07
637.57	14.04
637.72	74.90
637.87	70.22
638.02	49.15
638.17	79.58
638.32	42.13
638.46	18.72
638.61	58.51
638.76	121.71
638.91	63.19
639.06	58.51
639.20	30.43
639.35	56.17
639.50	65.54
639.65	110.01
639.80	88.94
639.94	84.26
640.09	126.39
640.24	79.58
640.39	84.26
640.54	67.88
640.68	39.79
640.83	51.49
640.98	79.58
641.13	39.79
641.27	84.26
641.42	79.58
641.57	35.11
641.72	39.79
641.86	67.88
642.01	58.51
642.16	9.36
642.31	23.41
642.45	21.06
642.60	65.54
642.75	81.92
642.90	65.54
643.04	102.98
643.19	51.49
643.34	49.15
643.48	49.15
643.63	93.62
643.78	74.90
643.93	53.83
644.07	117.03
644.22	88.94
644.37	156.82
644.51	49.15
644.66	49.15
644.81	16.38
644.95	42.13
645.10	0.00
645.25	0.00
645.39	9.36
645.54	37.45
645.69	91.28
645.83	18.72
645.98	37.45
646.13	30.43
646.27	39.79
646.42	44.47
646.57	0.00
646.71	117.03
646.86	46.81
647.00	23.41
647.15	37.45
647.30	16.38
647.44	44.47
647.59	58.51
647.74	81.92
647.88	39.79
648.03	30.43
648.17	88.94
648.32	7.02
648.47	58.51
648.61	28.09
648.76	42.13
648.90	46.81
649.05	28.09
649.20	79.58
649.34	93.62
649.49	81.92
649.63	18.72
649.78	49.15
649.92	63.19
650.07	105.32
650.21	30.43
650.36	51.49
650.51	93.62
650.65	79.58
650.80	67.88
650.94	58.51
651.09	114.69
651.23	51.49
651.38	35.11
651.52	0.00
651.67	51.49
651.81	0.00
651.96	35.11
652.10	84.26
652.25	46.81
652.39	65.54
652.54	32.77
652.68	21.06
652.83	49.15
652.97	0.00
653.12	65.54
653.26	72.56
653.41	74.90
653.55	44.47
653.70	131.07
653.84	84.26
653.99	46.81
654.13	86.60
654.27	53.83
654.42	117.03
654.56	46.81
654.71	67.88
654.85	16.38
655.00	72.56
655.14	72.56
655.29	124.05
655.43	81.92
655.57	74.90
655.72	88.94
655.86	46.81
656.01	21.06
656.15	16.38
656.30	72.56
656.44	28.09
656.58	28.09
656.73	21.06
656.87	11.70
657.01	81.92
657.16	0.00
657.30	42.13
657.45	23.41
657.59	107.66
657.73	70.22
657.88	88.94
658.02	58.51
658.16	14.04
658.31	86.60
658.45	105.32
658.60	86.60
658.74	70.22
658.88	74.90
659.03	72.56
659.17	28.09
659.31	44.47
659.46	14.04
659.60	86.60
659.74	30.43
659.89	77.24
660.03	67.88
660.17	88.94
660.32	0.00
660.46	0.00
660.60	60.85
660.74	77.24
660.89	95.96
661.03	7.02
661.17	84.26
661.32	49.15
661.46	100.64
661.60	28.09
661.74	18.72
661.89	67.88
662.03	37.45
662.17	23.41
662.31	2.34
662.46	63.19
662.60	88.94
662.74	51.49
662.88	56.17
663.03	14.04
663.17	70.22
663.31	95.96
663.45	46.81
663.60	72.56
663.74	30.43
663.88	0.00
664.02	18.72
664.17	98.30
664.31	42.13
664.45	70.22
664.59	79.58
664.73	0.00
664.88	0.00
665.02	4.68
665.16	23.41
665.30	65.54
665.44	79.58
665.59	16.38
665.73	16.38
665.87	60.85
666.01	37.45
666.15	67.88
666.29	21.06
666.44	126.39
666.58	93.62
666.72	0.00
666.86	0.00
667.00	35.11
667.14	93.62
667.28	37.45
667.43	9.36
667.57	28.09
667.71	112.35
667.85	77.24
667.99	28.09
668.13	11.70
668.27	77.24
668.41	110.01
668.56	81.92
668.70	65.54
668.84	37.45
668.98	88.94
669.12	58.51
669.26	4.68
669.40	49.15
669.54	14.04
669.68	2.34
669.82	105.32
669.96	84.26
670.10	79.58
670.25	44.47
670.39	11.70
670.53	58.51
670.67	30.43
670.81	21.06
670.95	30.43
671.09	23.41
671.23	39.79
671.37	93.62
671.51	18.72
671.65	60.85
671.79	35.11
671.93	105.32
672.07	0.00
672.21	28.09
672.35	37.45
672.49	46.81
672.63	67.88
672.77	0.00
672.91	21.06
673.05	14.04
673.19	65.54
673.33	140.43
673.47	58.51
673.61	25.75
673.75	39.79
673.89	51.49
674.03	28.09
674.17	32.77
674.31	107.66
674.45	11.70
674.59	60.85
674.73	46.81
674.87	67.88
675.01	39.79
675.15	0.00
675.29	44.47
675.43	39.79
675.56	60.85
675.70	39.79
675.84	79.58
675.98	86.60
676.12	56.17
676.26	46.81
676.40	49.15
676.54	44.47
676.68	81.92
676.82	81.92
676.96	100.64
677.10	70.22
677.23	23.41
677.37	21.06
677.51	0.00
677.65	0.00
677.79	0.00
677.93	53.83
678.07	53.83
678.21	58.51
678.34	65.54
678.48	84.26
678.62	46.81
678.76	46.81
678.90	30.43
679.04	0.00
679.18	28.09
679.31	79.58
679.45	18.72
679.59	0.00
679.73	25.75
679.87	117.03
680.00	63.19
680.14	74.90
680.28	112.35
680.42	39.79
680.56	95.96
680.70	44.47
680.83	88.94
680.97	67.88
681.11	0.00
681.25	2.34
681.39	46.81
681.52	51.49
681.66	9.36
681.80	4.68
681.94	35.11
682.07	49.15
682.21	56.17
682.35	49.15
682.49	4.68
682.62	65.54
682.76	7.02
682.90	42.13
683.04	88.94
683.17	86.60
683.31	25.75
683.45	0.00
683.59	14.04
683.72	4.68
683.86	37.45
684.00	86.60
684.13	14.04
684.27	4.68
684.41	39.79
684.55	58.51
684.68	39.79
684.82	56.17
684.96	9.36
685.09	42.13
685.23	37.45
685.37	30.43
685.50	23.41
685.64	58.51
685.78	9.36
685.91	86.60
686.05	0.00
686.19	37.45
686.32	39.79
686.46	23.41
686.60	86.60
686.73	0.00
686.87	0.00
687.01	39.79
687.14	0.00
687.28	58.51
687.42	70.22
687.55	37.45
687.69	35.11
687.82	35.11
687.96	44.47
688.10	0.00
688.23	16.38
688.37	28.09
688.50	0.00
688.64	21.06
688.78	23.41
688.91	74.90
689.05	63.19
689.18	112.35
689.32	53.83
689.46	63.19
689.59	53.83
689.73	72.56
689.86	86.60
690.00	65.54
690.13	100.64
690.27	131.07
690.41	124.05
690.54	93.62
690.68	86.60
690.81	65.54
690.95	14.04
691.08	0.00
691.22	28.09
691.35	65.54
691.49	81.92
691.62	0.00
691.76	79.58
691.89	11.70
692.03	53.83
692.16	21.06
692.30	11.70
692.43	60.85
692.57	32.77
692.70	0.00
692.84	79.58
692.97	110.01
693.11	56.17
693.24	37.45
693.38	28.09
693.51	56.17
693.65	128.73
693.78	28.09
693.92	53.83
694.05	44.47
694.19	95.96
694.32	0.00
694.45	9.36
694.59	65.54
694.72	35.11
694.86	95.96
694.99	9.36
695.13	58.51
695.26	58.51
695.39	35.11
695.53	32.77
695.66	35.11
695.80	35.11
695.93	0.00
696.07	56.17
696.20	39.79
696.33	11.70
696.47	0.00
696.60	0.00
696.73	4.68
696.87	32.77
697.00	58.51
697.14	53.83
697.27	42.13
697.40	0.00
697.54	28.09
697.67	2.34
697.80	74.90
697.94	93.62
698.07	7.02
698.21	46.81
698.34	81.92
698.47	58.51
698.61	77.24
698.74	105.32
698.87	25.75
699.01	7.02
699.14	70.22
699.27	16.38
699.40	105.32
699.54	0.00
699.67	39.79
699.80	28.09
699.94	16.38
700.07	2.34
700.20	0.00
700.34	56.17
700.47	39.79
700.60	14.04
700.73	37.45
700.87	35.11
701.00	0.00
701.13	21.06
701.26	25.75
701.40	32.77
701.53	0.00
701.66	28.09
701.79	49.15
701.93	86.60
702.06	9.36
702.19	49.15
702.32	35.11
702.46	39.79
702.59	0.00
702.72	21.06
702.85	0.00
702.99	70.22
703.12	49.15
703.25	105.32
703.38	0.00
703.51	53.83
703.65	42.13
703.78	49.15
703.91	14.04
704.04	65.54
704.17	46.81
704.31	42.13
704.44	72.56
704.57	35.11
704.70	42.13
704.83	51.49
704.96	84.26
705.10	16.38
705.23	51.49
>>>>>End Processed Spectral Data<<<<<
