SpectraSuite Data File
++++++++++++++++++++++++++++++++++++
Date: Fri Oct 04 12:13:42 GMT-05:00 2013
User: price-jones
Dark Spectrum Present: No
Reference Spectrum Present: No
Number of Sampled Component Spectra: 1
Spectrometers: USB2+H05261
Integration Time (usec): 10000 (USB2+H05261)
Spectra Averaged: 1 (USB2+H05261)
Boxcar Smoothing: 0 (USB2+H05261)
Correct for Electrical Dark: No (USB2+H05261)
Strobe/Lamp Enabled: No (USB2+H05261)
Correct for Detector Non-linearity: No (USB2+H05261)
Correct for Stray Light: No (USB2+H05261)
Number of Pixels in Processed Spectrum: 2048
>>>>>Begin Processed Spectral Data<<<<<
365.73	11.70
365.92	11.70
366.12	11.70
366.32	0.00
366.52	0.00
366.72	0.00
366.91	0.00
367.11	0.00
367.31	0.00
367.51	0.00
367.70	0.00
367.90	0.00
368.10	0.00
368.30	0.00
368.49	0.00
368.69	0.00
368.89	0.00
369.09	0.00
369.28	0.00
369.48	0.00
369.68	0.00
369.87	0.00
370.07	0.00
370.27	0.00
370.47	0.00
370.66	0.00
370.86	0.00
371.06	0.00
371.25	0.00
371.45	0.00
371.65	23.41
371.84	42.13
372.04	11.70
372.24	0.00
372.44	0.00
372.63	0.00
372.83	35.11
373.03	65.54
373.22	7.02
373.42	0.00
373.62	32.77
373.81	0.00
374.01	53.83
374.21	23.41
374.40	11.70
374.60	9.36
374.79	4.68
374.99	0.00
375.19	37.45
375.38	51.49
375.58	14.04
375.78	0.00
375.97	93.62
376.17	63.19
376.37	16.38
376.56	32.77
376.76	0.00
376.95	25.75
377.15	25.75
377.35	39.79
377.54	60.85
377.74	70.22
377.93	49.15
378.13	4.68
378.33	0.00
378.52	18.72
378.72	16.38
378.91	53.83
379.11	14.04
379.31	49.15
379.50	70.22
379.70	9.36
379.89	42.13
380.09	0.00
380.28	14.04
380.48	9.36
380.68	11.70
380.87	16.38
381.07	74.90
381.26	16.38
381.46	0.00
381.65	46.81
381.85	28.09
382.04	51.49
382.24	0.00
382.43	42.13
382.63	23.41
382.83	0.00
383.02	0.00
383.22	35.11
383.41	0.00
383.61	112.35
383.80	25.75
384.00	86.60
384.19	67.88
384.39	18.72
384.58	2.34
384.78	39.79
384.97	18.72
385.17	37.45
385.36	0.00
385.56	14.04
385.75	0.00
385.95	11.70
386.14	23.41
386.34	0.00
386.53	0.00
386.72	14.04
386.92	25.75
387.11	159.16
387.31	23.41
387.50	0.00
387.70	0.00
387.89	53.83
388.09	0.00
388.28	0.00
388.48	2.34
388.67	44.47
388.86	7.02
389.06	0.00
389.25	2.34
389.45	0.00
389.64	30.43
389.84	0.00
390.03	0.00
390.22	60.85
390.42	30.43
390.61	72.56
390.81	0.00
391.00	0.00
391.19	65.54
391.39	9.36
391.58	70.22
391.78	30.43
391.97	44.47
392.16	7.02
392.36	16.38
392.55	56.17
392.75	42.13
392.94	58.51
393.13	0.00
393.33	18.72
393.52	93.62
393.71	23.41
393.91	0.00
394.10	32.77
394.29	0.00
394.49	14.04
394.68	0.00
394.88	4.68
395.07	7.02
395.26	49.15
395.46	37.45
395.65	93.62
395.84	84.26
396.04	28.09
396.23	35.11
396.42	0.00
396.62	30.43
396.81	0.00
397.00	88.94
397.19	39.79
397.39	37.45
397.58	46.81
397.77	70.22
397.97	25.75
398.16	35.11
398.35	0.00
398.55	81.92
398.74	21.06
398.93	102.98
399.12	11.70
399.32	35.11
399.51	46.81
399.70	0.00
399.90	65.54
400.09	60.85
400.28	18.72
400.47	72.56
400.67	42.13
400.86	0.00
401.05	0.00
401.24	114.69
401.44	88.94
401.63	93.62
401.82	11.70
402.01	0.00
402.21	0.00
402.40	21.06
402.59	65.54
402.78	21.06
402.97	18.72
403.17	28.09
403.36	7.02
403.55	79.58
403.74	72.56
403.93	51.49
404.13	70.22
404.32	23.41
404.51	18.72
404.70	84.26
404.89	9.36
405.09	30.43
405.28	39.79
405.47	107.66
405.66	77.24
405.85	18.72
406.05	0.00
406.24	9.36
406.43	9.36
406.62	37.45
406.81	81.92
407.00	49.15
407.20	63.19
407.39	0.00
407.58	88.94
407.77	16.38
407.96	16.38
408.15	67.88
408.34	72.56
408.54	14.04
408.73	58.51
408.92	0.00
409.11	63.19
409.30	23.41
409.49	0.00
409.68	0.00
409.87	81.92
410.07	4.68
410.26	2.34
410.45	72.56
410.64	37.45
410.83	53.83
411.02	9.36
411.21	86.60
411.40	58.51
411.59	49.15
411.78	60.85
411.98	4.68
412.17	7.02
412.36	102.98
412.55	105.32
412.74	51.49
412.93	18.72
413.12	65.54
413.31	2.34
413.50	100.64
413.69	46.81
413.88	46.81
414.07	21.06
414.26	23.41
414.45	63.19
414.64	114.69
414.83	63.19
415.02	53.83
415.22	67.88
415.41	53.83
415.60	23.41
415.79	9.36
415.98	77.24
416.17	0.00
416.36	67.88
416.55	32.77
416.74	14.04
416.93	63.19
417.12	74.90
417.31	0.00
417.50	0.00
417.69	0.00
417.88	60.85
418.07	42.13
418.26	18.72
418.45	95.96
418.64	32.77
418.83	14.04
419.02	25.75
419.21	14.04
419.39	42.13
419.58	11.70
419.77	0.00
419.96	18.72
420.15	81.92
420.34	65.54
420.53	18.72
420.72	23.41
420.91	21.06
421.10	121.71
421.29	39.79
421.48	0.00
421.67	28.09
421.86	42.13
422.05	39.79
422.24	74.90
422.43	74.90
422.61	0.00
422.80	67.88
422.99	28.09
423.18	49.15
423.37	0.00
423.56	0.00
423.75	14.04
423.94	0.00
424.13	0.00
424.32	0.00
424.50	67.88
424.69	0.00
424.88	37.45
425.07	14.04
425.26	49.15
425.45	72.56
425.64	72.56
425.83	51.49
426.01	42.13
426.20	49.15
426.39	77.24
426.58	25.75
426.77	0.00
426.96	14.04
427.15	9.36
427.33	53.83
427.52	88.94
427.71	39.79
427.90	0.00
428.09	35.11
428.28	67.88
428.46	72.56
428.65	128.73
428.84	0.00
429.03	0.00
429.22	53.83
429.40	32.77
429.59	72.56
429.78	56.17
429.97	42.13
430.16	0.00
430.34	126.39
430.53	0.00
430.72	0.00
430.91	112.35
431.10	72.56
431.28	79.58
431.47	39.79
431.66	23.41
431.85	79.58
432.03	70.22
432.22	49.15
432.41	18.72
432.60	0.00
432.79	51.49
432.97	0.00
433.16	70.22
433.35	112.35
433.54	81.92
433.72	44.47
433.91	14.04
434.10	49.15
434.28	58.51
434.47	14.04
434.66	49.15
434.85	32.77
435.03	72.56
435.22	37.45
435.41	11.70
435.59	21.06
435.78	35.11
435.97	77.24
436.16	44.47
436.34	133.41
436.53	74.90
436.72	81.92
436.90	65.54
437.09	37.45
437.28	0.00
437.46	0.00
437.65	14.04
437.84	30.43
438.02	42.13
438.21	18.72
438.40	23.41
438.58	23.41
438.77	53.83
438.96	0.00
439.14	53.83
439.33	74.90
439.52	21.06
439.70	9.36
439.89	4.68
440.08	124.05
440.26	140.43
440.45	67.88
440.63	67.88
440.82	95.96
441.01	107.66
441.19	70.22
441.38	93.62
441.57	39.79
441.75	67.88
441.94	44.47
442.12	60.85
442.31	32.77
442.50	77.24
442.68	44.47
442.87	81.92
443.05	53.83
443.24	0.00
443.43	37.45
443.61	100.64
443.80	56.17
443.98	23.41
444.17	58.51
444.35	51.49
444.54	98.30
444.73	95.96
444.91	0.00
445.10	51.49
445.28	102.98
445.47	91.28
445.65	56.17
445.84	25.75
446.02	35.11
446.21	30.43
446.39	98.30
446.58	72.56
446.77	30.43
446.95	86.60
447.14	44.47
447.32	105.32
447.51	39.79
447.69	86.60
447.88	21.06
448.06	30.43
448.25	30.43
448.43	23.41
448.62	79.58
448.80	42.13
448.99	39.79
449.17	32.77
449.36	84.26
449.54	58.51
449.73	58.51
449.91	25.75
450.10	42.13
450.28	58.51
450.46	84.26
450.65	67.88
450.83	74.90
451.02	72.56
451.20	11.70
451.39	49.15
451.57	42.13
451.76	9.36
451.94	102.98
452.13	4.68
452.31	51.49
452.49	51.49
452.68	51.49
452.86	23.41
453.05	74.90
453.23	0.00
453.42	32.77
453.60	86.60
453.78	58.51
453.97	60.85
454.15	51.49
454.34	65.54
454.52	114.69
454.70	14.04
454.89	74.90
455.07	42.13
455.26	0.00
455.44	28.09
455.62	53.83
455.81	23.41
455.99	72.56
456.17	39.79
456.36	23.41
456.54	28.09
456.73	95.96
456.91	0.00
457.09	74.90
457.28	93.62
457.46	88.94
457.64	51.49
457.83	49.15
458.01	117.03
458.19	30.43
458.38	35.11
458.56	60.85
458.74	121.71
458.93	60.85
459.11	77.24
459.29	39.79
459.48	35.11
459.66	166.18
459.84	46.81
460.03	88.94
460.21	110.01
460.39	25.75
460.57	30.43
460.76	46.81
460.94	49.15
461.12	107.66
461.31	56.17
461.49	100.64
461.67	93.62
461.85	32.77
462.04	25.75
462.22	77.24
462.40	49.15
462.59	145.11
462.77	49.15
462.95	72.56
463.13	72.56
463.32	39.79
463.50	0.00
463.68	44.47
463.86	79.58
464.05	79.58
464.23	84.26
464.41	0.00
464.59	53.83
464.78	53.83
464.96	63.19
465.14	42.13
465.32	67.88
465.50	91.28
465.69	63.19
465.87	32.77
466.05	88.94
466.23	14.04
466.41	44.47
466.60	18.72
466.78	25.75
466.96	81.92
467.14	74.90
467.32	100.64
467.51	72.56
467.69	49.15
467.87	74.90
468.05	95.96
468.23	74.90
468.41	18.72
468.60	18.72
468.78	44.47
468.96	46.81
469.14	4.68
469.32	44.47
469.50	46.81
469.69	74.90
469.87	0.00
470.05	95.96
470.23	79.58
470.41	63.19
470.59	138.09
470.77	42.13
470.95	2.34
471.14	46.81
471.32	110.01
471.50	56.17
471.68	28.09
471.86	114.69
472.04	23.41
472.22	70.22
472.40	16.38
472.58	21.06
472.77	0.00
472.95	39.79
473.13	25.75
473.31	0.00
473.49	14.04
473.67	49.15
473.85	37.45
474.03	95.96
474.21	102.98
474.39	81.92
474.57	35.11
474.75	32.77
474.93	53.83
475.12	81.92
475.30	60.85
475.48	72.56
475.66	4.68
475.84	35.11
476.02	18.72
476.20	53.83
476.38	65.54
476.56	32.77
476.74	0.00
476.92	39.79
477.10	102.98
477.28	0.00
477.46	49.15
477.64	58.51
477.82	128.73
478.00	46.81
478.18	37.45
478.36	112.35
478.54	95.96
478.72	100.64
478.90	30.43
479.08	65.54
479.26	49.15
479.44	25.75
479.62	49.15
479.80	74.90
479.98	133.41
480.16	0.00
480.34	102.98
480.52	72.56
480.70	16.38
480.88	23.41
481.06	53.83
481.24	72.56
481.41	79.58
481.59	98.30
481.77	21.06
481.95	98.30
482.13	0.00
482.31	63.19
482.49	70.22
482.67	105.32
482.85	95.96
483.03	0.00
483.21	58.51
483.39	0.00
483.57	81.92
483.74	88.94
483.92	28.09
484.10	58.51
484.28	37.45
484.46	98.30
484.64	163.84
484.82	135.75
485.00	42.13
485.18	53.83
485.35	102.98
485.53	0.00
485.71	81.92
485.89	63.19
486.07	88.94
486.25	124.05
486.43	0.00
486.61	72.56
486.78	70.22
486.96	39.79
487.14	166.18
487.32	107.66
487.50	84.26
487.68	51.49
487.85	65.54
488.03	114.69
488.21	79.58
488.39	14.04
488.57	56.17
488.75	21.06
488.92	105.32
489.10	91.28
489.28	79.58
489.46	46.81
489.64	39.79
489.81	51.49
489.99	49.15
490.17	74.90
490.35	37.45
490.53	4.68
490.70	107.66
490.88	35.11
491.06	4.68
491.24	79.58
491.41	30.43
491.59	133.41
491.77	35.11
491.95	67.88
492.13	168.52
492.30	74.90
492.48	72.56
492.66	79.58
492.84	70.22
493.01	46.81
493.19	51.49
493.37	95.96
493.54	67.88
493.72	95.96
493.90	77.24
494.08	86.60
494.25	121.71
494.43	105.32
494.61	77.24
494.79	79.58
494.96	81.92
495.14	95.96
495.32	60.85
495.49	105.32
495.67	81.92
495.85	86.60
496.02	0.00
496.20	53.83
496.38	11.70
496.55	65.54
496.73	95.96
496.91	2.34
497.09	100.64
497.26	140.43
497.44	74.90
497.62	110.01
497.79	0.00
497.97	98.30
498.14	112.35
498.32	49.15
498.50	91.28
498.67	67.88
498.85	84.26
499.03	39.79
499.20	95.96
499.38	18.72
499.56	44.47
499.73	74.90
499.91	107.66
500.08	102.98
500.26	65.54
500.44	149.79
500.61	93.62
500.79	44.47
500.97	74.90
501.14	77.24
501.32	110.01
501.49	32.77
501.67	126.39
501.84	74.90
502.02	46.81
502.20	117.03
502.37	112.35
502.55	37.45
502.72	39.79
502.90	88.94
503.07	105.32
503.25	16.38
503.43	93.62
503.60	63.19
503.78	58.51
503.95	72.56
504.13	79.58
504.30	91.28
504.48	65.54
504.65	23.41
504.83	105.32
505.01	35.11
505.18	2.34
505.36	72.56
505.53	23.41
505.71	51.49
505.88	88.94
506.06	74.90
506.23	81.92
506.41	44.47
506.58	51.49
506.76	0.00
506.93	53.83
507.11	110.01
507.28	93.62
507.46	67.88
507.63	98.30
507.81	107.66
507.98	79.58
508.16	63.19
508.33	56.17
508.50	124.05
508.68	117.03
508.85	128.73
509.03	7.02
509.20	30.43
509.38	102.98
509.55	84.26
509.73	86.60
509.90	67.88
510.08	114.69
510.25	88.94
510.42	100.64
510.60	77.24
510.77	63.19
510.95	35.11
511.12	56.17
511.30	124.05
511.47	100.64
511.64	84.26
511.82	72.56
511.99	93.62
512.17	95.96
512.34	25.75
512.51	154.48
512.69	88.94
512.86	46.81
513.04	114.69
513.21	159.16
513.38	63.19
513.56	0.00
513.73	91.28
513.90	35.11
514.08	79.58
514.25	42.13
514.43	60.85
514.60	65.54
514.77	100.64
514.95	79.58
515.12	149.79
515.29	11.70
515.47	7.02
515.64	70.22
515.81	79.58
515.99	70.22
516.16	117.03
516.33	135.75
516.51	46.81
516.68	88.94
516.85	4.68
517.03	23.41
517.20	121.71
517.37	14.04
517.54	60.85
517.72	93.62
517.89	95.96
518.06	107.66
518.24	95.96
518.41	42.13
518.58	37.45
518.75	49.15
518.93	46.81
519.10	107.66
519.27	53.83
519.45	114.69
519.62	131.07
519.79	98.30
519.96	91.28
520.14	72.56
520.31	74.90
520.48	95.96
520.65	107.66
520.83	35.11
521.00	21.06
521.17	46.81
521.34	91.28
521.52	70.22
521.69	28.09
521.86	49.15
522.03	105.32
522.20	114.69
522.38	65.54
522.55	166.18
522.72	65.54
522.89	86.60
523.07	65.54
523.24	0.00
523.41	63.19
523.58	128.73
523.75	4.68
523.92	91.28
524.10	58.51
524.27	95.96
524.44	95.96
524.61	105.32
524.78	39.79
524.96	81.92
525.13	128.73
525.30	70.22
525.47	77.24
525.64	84.26
525.81	0.00
525.98	86.60
526.16	44.47
526.33	112.35
526.50	86.60
526.67	42.13
526.84	65.54
527.01	128.73
527.18	25.75
527.36	117.03
527.53	102.98
527.70	81.92
527.87	93.62
528.04	70.22
528.21	28.09
528.38	56.17
528.55	88.94
528.72	30.43
528.89	128.73
529.07	53.83
529.24	63.19
529.41	7.02
529.58	77.24
529.75	107.66
529.92	65.54
530.09	93.62
530.26	135.75
530.43	77.24
530.60	100.64
530.77	110.01
530.94	124.05
531.11	112.35
531.28	70.22
531.46	95.96
531.63	79.58
531.80	79.58
531.97	107.66
532.14	159.16
532.31	56.17
532.48	51.49
532.65	46.81
532.82	84.26
532.99	49.15
533.16	23.41
533.33	58.51
533.50	0.00
533.67	42.13
533.84	98.30
534.01	84.26
534.18	121.71
534.35	49.15
534.52	138.09
534.69	51.49
534.86	63.19
535.03	74.90
535.20	86.60
535.37	95.96
535.54	147.45
535.71	102.98
535.88	102.98
536.05	81.92
536.22	16.38
536.38	93.62
536.55	70.22
536.72	86.60
536.89	46.81
537.06	88.94
537.23	135.75
537.40	112.35
537.57	0.00
537.74	119.37
537.91	49.15
538.08	128.73
538.25	53.83
538.42	133.41
538.59	168.52
538.75	79.58
538.92	88.94
539.09	102.98
539.26	110.01
539.43	25.75
539.60	128.73
539.77	147.45
539.94	65.54
540.11	107.66
540.28	81.92
540.44	88.94
540.61	65.54
540.78	102.98
540.95	23.41
541.12	84.26
541.29	100.64
541.46	14.04
541.62	114.69
541.79	49.15
541.96	77.24
542.13	44.47
542.30	60.85
542.47	79.58
542.63	98.30
542.80	0.00
542.97	88.94
543.14	72.56
543.31	79.58
543.48	35.11
543.64	44.47
543.81	70.22
543.98	42.13
544.15	105.32
544.32	95.96
544.48	102.98
544.65	102.98
544.82	58.51
544.99	74.90
545.16	81.92
545.32	110.01
545.49	28.09
545.66	91.28
545.83	74.90
546.00	21.06
546.16	88.94
546.33	117.03
546.50	58.51
546.67	67.88
546.83	23.41
547.00	65.54
547.17	84.26
547.34	74.90
547.50	74.90
547.67	37.45
547.84	131.07
548.00	114.69
548.17	91.28
548.34	84.26
548.51	93.62
548.67	102.98
548.84	42.13
549.01	102.98
549.18	88.94
549.34	56.17
549.51	77.24
549.68	77.24
549.84	21.06
550.01	88.94
550.18	58.51
550.34	23.41
550.51	63.19
550.68	140.43
550.84	81.92
551.01	70.22
551.18	107.66
551.34	91.28
551.51	77.24
551.68	16.38
551.84	32.77
552.01	138.09
552.18	70.22
552.34	102.98
552.51	4.68
552.68	102.98
552.84	112.35
553.01	112.35
553.18	124.05
553.34	95.96
553.51	126.39
553.67	124.05
553.84	110.01
554.01	39.79
554.17	138.09
554.34	49.15
554.51	105.32
554.67	86.60
554.84	18.72
555.00	128.73
555.17	156.82
555.33	126.39
555.50	58.51
555.67	105.32
555.83	93.62
556.00	65.54
556.16	105.32
556.33	49.15
556.50	98.30
556.66	152.13
556.83	70.22
556.99	93.62
557.16	77.24
557.32	84.26
557.49	39.79
557.65	81.92
557.82	107.66
557.98	46.81
558.15	44.47
558.32	88.94
558.48	25.75
558.65	102.98
558.81	42.13
558.98	32.77
559.14	65.54
559.31	93.62
559.47	37.45
559.64	93.62
559.80	65.54
559.97	58.51
560.13	133.41
560.30	138.09
560.46	117.03
560.63	84.26
560.79	114.69
560.96	81.92
561.12	149.79
561.29	23.41
561.45	0.00
561.61	84.26
561.78	49.15
561.94	56.17
562.11	44.47
562.27	119.37
562.44	138.09
562.60	100.64
562.77	105.32
562.93	140.43
563.10	58.51
563.26	51.49
563.42	49.15
563.59	49.15
563.75	88.94
563.92	53.83
564.08	23.41
564.24	49.15
564.41	100.64
564.57	88.94
564.74	0.00
564.90	156.82
565.07	58.51
565.23	23.41
565.39	53.83
565.56	51.49
565.72	65.54
565.88	0.00
566.05	65.54
566.21	105.32
566.38	128.73
566.54	124.05
566.70	117.03
566.87	86.60
567.03	58.51
567.19	28.09
567.36	100.64
567.52	0.00
567.68	102.98
567.85	56.17
568.01	58.51
568.17	51.49
568.34	14.04
568.50	18.72
568.66	58.51
568.83	30.43
568.99	86.60
569.15	81.92
569.32	67.88
569.48	112.35
569.64	58.51
569.81	53.83
569.97	70.22
570.13	60.85
570.30	93.62
570.46	53.83
570.62	168.52
570.78	84.26
570.95	28.09
571.11	140.43
571.27	145.11
571.43	74.90
571.60	37.45
571.76	154.48
571.92	88.94
572.09	91.28
572.25	107.66
572.41	124.05
572.57	9.36
572.74	77.24
572.90	58.51
573.06	74.90
573.22	93.62
573.38	56.17
573.55	51.49
573.71	117.03
573.87	72.56
574.03	95.96
574.20	86.60
574.36	126.39
574.52	49.15
574.68	51.49
574.84	49.15
575.01	107.66
575.17	53.83
575.33	42.13
575.49	51.49
575.65	63.19
575.82	56.17
575.98	70.22
576.14	72.56
576.30	14.04
576.46	18.72
576.62	105.32
576.79	51.49
576.95	72.56
577.11	107.66
577.27	70.22
577.43	124.05
577.59	67.88
577.75	60.85
577.92	91.28
578.08	175.54
578.24	25.75
578.40	58.51
578.56	60.85
578.72	56.17
578.88	74.90
579.04	74.90
579.21	84.26
579.37	60.85
579.53	84.26
579.69	60.85
579.85	53.83
580.01	2.34
580.17	124.05
580.33	74.90
580.49	37.45
580.65	63.19
580.82	44.47
580.98	35.11
581.14	9.36
581.30	44.47
581.46	23.41
581.62	86.60
581.78	102.98
581.94	124.05
582.10	39.79
582.26	74.90
582.42	81.92
582.58	21.06
582.74	51.49
582.90	98.30
583.06	100.64
583.22	30.43
583.38	58.51
583.54	49.15
583.70	128.73
583.86	72.56
584.02	114.69
584.18	88.94
584.34	93.62
584.50	77.24
584.66	170.86
584.82	124.05
584.98	49.15
585.14	100.64
585.30	53.83
585.46	4.68
585.62	65.54
585.78	107.66
585.94	93.62
586.10	81.92
586.26	42.13
586.42	58.51
586.58	154.48
586.74	112.35
586.90	154.48
587.06	63.19
587.22	107.66
587.38	100.64
587.54	77.24
587.70	65.54
587.86	117.03
588.02	23.41
588.18	56.17
588.34	28.09
588.49	46.81
588.65	23.41
588.81	56.17
588.97	51.49
589.13	42.13
589.29	42.13
589.45	65.54
589.61	53.83
589.77	126.39
589.93	44.47
590.08	0.00
590.24	51.49
590.40	70.22
590.56	124.05
590.72	100.64
590.88	60.85
591.04	138.09
591.20	70.22
591.35	112.35
591.51	117.03
591.67	156.82
591.83	98.30
591.99	60.85
592.15	58.51
592.31	37.45
592.46	93.62
592.62	49.15
592.78	51.49
592.94	149.79
593.10	81.92
593.26	86.60
593.41	46.81
593.57	77.24
593.73	100.64
593.89	32.77
594.05	42.13
594.20	16.38
594.36	84.26
594.52	152.13
594.68	110.01
594.84	53.83
594.99	63.19
595.15	44.47
595.31	81.92
595.47	77.24
595.62	65.54
595.78	95.96
595.94	119.37
596.10	46.81
596.25	16.38
596.41	107.66
596.57	9.36
596.73	9.36
596.88	44.47
597.04	67.88
597.20	91.28
597.36	58.51
597.51	53.83
597.67	46.81
597.83	70.22
597.99	53.83
598.14	77.24
598.30	88.94
598.46	53.83
598.61	135.75
598.77	49.15
598.93	74.90
599.09	23.41
599.24	44.47
599.40	110.01
599.56	42.13
599.71	67.88
599.87	18.72
600.03	58.51
600.18	117.03
600.34	35.11
600.50	44.47
600.65	60.85
600.81	98.30
600.97	53.83
601.12	88.94
601.28	51.49
601.44	70.22
601.59	46.81
601.75	63.19
601.91	140.43
602.06	37.45
602.22	77.24
602.37	105.32
602.53	119.37
602.69	81.92
602.84	100.64
603.00	86.60
603.16	102.98
603.31	44.47
603.47	9.36
603.62	84.26
603.78	42.13
603.94	25.75
604.09	79.58
604.25	21.06
604.40	21.06
604.56	72.56
604.71	114.69
604.87	46.81
605.03	58.51
605.18	77.24
605.34	112.35
605.49	65.54
605.65	102.98
605.80	126.39
605.96	37.45
606.12	70.22
606.27	16.38
606.43	60.85
606.58	126.39
606.74	88.94
606.89	67.88
607.05	72.56
607.20	79.58
607.36	0.00
607.51	65.54
607.67	32.77
607.82	37.45
607.98	107.66
608.13	28.09
608.29	30.43
608.44	46.81
608.60	56.17
608.75	58.51
608.91	0.00
609.06	9.36
609.22	77.24
609.37	93.62
609.53	49.15
609.68	39.79
609.84	114.69
609.99	44.47
610.15	53.83
610.30	105.32
610.46	98.30
610.61	72.56
610.76	128.73
610.92	128.73
611.07	88.94
611.23	128.73
611.38	72.56
611.54	88.94
611.69	98.30
611.84	110.01
612.00	140.43
612.15	74.90
612.31	23.41
612.46	74.90
612.62	0.00
612.77	53.83
612.92	23.41
613.08	39.79
613.23	79.58
613.39	133.41
613.54	0.00
613.69	74.90
613.85	16.38
614.00	25.75
614.15	23.41
614.31	39.79
614.46	84.26
614.62	81.92
614.77	35.11
614.92	18.72
615.08	128.73
615.23	84.26
615.38	112.35
615.54	0.00
615.69	39.79
615.84	60.85
616.00	58.51
616.15	4.68
616.30	88.94
616.46	77.24
616.61	42.13
616.76	98.30
616.92	53.83
617.07	142.77
617.22	67.88
617.37	53.83
617.53	39.79
617.68	95.96
617.83	95.96
617.99	88.94
618.14	35.11
618.29	112.35
618.45	72.56
618.60	65.54
618.75	51.49
618.90	121.71
619.06	0.00
619.21	49.15
619.36	25.75
619.51	88.94
619.67	65.54
619.82	74.90
619.97	70.22
620.12	18.72
620.28	145.11
620.43	81.92
620.58	77.24
620.73	107.66
620.89	32.77
621.04	18.72
621.19	44.47
621.34	30.43
621.49	35.11
621.65	58.51
621.80	117.03
621.95	95.96
622.10	79.58
622.25	16.38
622.41	79.58
622.56	100.64
622.71	93.62
622.86	0.00
623.01	58.51
623.16	91.28
623.32	0.00
623.47	56.17
623.62	70.22
623.77	56.17
623.92	67.88
624.07	70.22
624.23	60.85
624.38	49.15
624.53	32.77
624.68	58.51
624.83	28.09
624.98	88.94
625.13	105.32
625.29	79.58
625.44	77.24
625.59	56.17
625.74	138.09
625.89	102.98
626.04	67.88
626.19	42.13
626.34	60.85
626.49	79.58
626.65	16.38
626.80	91.28
626.95	44.47
627.10	65.54
627.25	72.56
627.40	44.47
627.55	44.47
627.70	63.19
627.85	110.01
628.00	131.07
628.15	2.34
628.30	102.98
628.45	4.68
628.60	84.26
628.76	124.05
628.91	65.54
629.06	79.58
629.21	72.56
629.36	63.19
629.51	84.26
629.66	147.45
629.81	74.90
629.96	53.83
630.11	74.90
630.26	102.98
630.41	32.77
630.56	60.85
630.71	65.54
630.86	70.22
631.01	53.83
631.16	60.85
631.31	0.00
631.46	91.28
631.61	110.01
631.76	91.28
631.91	84.26
632.06	98.30
632.21	11.70
632.36	81.92
632.51	95.96
632.66	63.19
632.81	53.83
632.96	60.85
633.10	102.98
633.25	86.60
633.40	65.54
633.55	100.64
633.70	58.51
633.85	65.54
634.00	93.62
634.15	49.15
634.30	93.62
634.45	88.94
634.60	56.17
634.75	110.01
634.90	60.85
635.05	65.54
635.19	102.98
635.34	42.13
635.49	114.69
635.64	77.24
635.79	142.77
635.94	11.70
636.09	4.68
636.24	65.54
636.39	51.49
636.53	112.35
636.68	23.41
636.83	173.20
636.98	95.96
637.13	74.90
637.28	63.19
637.43	30.43
637.57	51.49
637.72	107.66
637.87	119.37
638.02	49.15
638.17	56.17
638.32	44.47
638.46	39.79
638.61	0.00
638.76	110.01
638.91	42.13
639.06	46.81
639.20	67.88
639.35	91.28
639.50	49.15
639.65	88.94
639.80	39.79
639.94	35.11
640.09	39.79
640.24	42.13
640.39	86.60
640.54	65.54
640.68	46.81
640.83	65.54
640.98	100.64
641.13	42.13
641.27	79.58
641.42	11.70
641.57	39.79
641.72	77.24
641.86	70.22
642.01	72.56
642.16	60.85
642.31	88.94
642.45	70.22
642.60	84.26
642.75	81.92
642.90	18.72
643.04	168.52
643.19	67.88
643.34	70.22
643.48	7.02
643.63	77.24
643.78	81.92
643.93	49.15
644.07	65.54
644.22	98.30
644.37	74.90
644.51	88.94
644.66	86.60
644.81	46.81
644.95	77.24
645.10	67.88
645.25	32.77
645.39	112.35
645.54	46.81
645.69	72.56
645.83	67.88
645.98	74.90
646.13	131.07
646.27	35.11
646.42	0.00
646.57	25.75
646.71	133.41
646.86	72.56
647.00	30.43
647.15	25.75
647.30	21.06
647.44	81.92
647.59	14.04
647.74	93.62
647.88	142.77
648.03	46.81
648.17	58.51
648.32	0.00
648.47	18.72
648.61	4.68
648.76	77.24
648.90	95.96
649.05	74.90
649.20	0.00
649.34	51.49
649.49	60.85
649.63	51.49
649.78	0.00
649.92	67.88
650.07	0.00
650.21	93.62
650.36	63.19
650.51	88.94
650.65	56.17
650.80	21.06
650.94	79.58
651.09	63.19
651.23	67.88
651.38	30.43
651.52	74.90
651.67	51.49
651.81	84.26
651.96	72.56
652.10	21.06
652.25	46.81
652.39	53.83
652.54	56.17
652.68	79.58
652.83	74.90
652.97	51.49
653.12	102.98
653.26	86.60
653.41	46.81
653.55	79.58
653.70	124.05
653.84	11.70
653.99	88.94
654.13	32.77
654.27	16.38
654.42	159.16
654.56	7.02
654.71	53.83
654.85	53.83
655.00	49.15
655.14	65.54
655.29	74.90
655.43	102.98
655.57	74.90
655.72	84.26
655.86	93.62
656.01	23.41
656.15	21.06
656.30	9.36
656.44	0.00
656.58	42.13
656.73	0.00
656.87	63.19
657.01	14.04
657.16	0.00
657.30	65.54
657.45	70.22
657.59	65.54
657.73	53.83
657.88	63.19
658.02	51.49
658.16	35.11
658.31	60.85
658.45	0.00
658.60	0.00
658.74	72.56
658.88	21.06
659.03	37.45
659.17	58.51
659.31	7.02
659.46	18.72
659.60	65.54
659.74	128.73
659.89	44.47
660.03	42.13
660.17	16.38
660.32	51.49
660.46	18.72
660.60	46.81
660.74	42.13
660.89	65.54
661.03	112.35
661.17	95.96
661.32	39.79
661.46	35.11
661.60	0.00
661.74	49.15
661.89	30.43
662.03	58.51
662.17	18.72
662.31	42.13
662.46	81.92
662.60	58.51
662.74	63.19
662.88	65.54
663.03	53.83
663.17	42.13
663.31	70.22
663.45	84.26
663.60	86.60
663.74	9.36
663.88	0.00
664.02	28.09
664.17	63.19
664.31	105.32
664.45	53.83
664.59	4.68
664.73	95.96
664.88	39.79
665.02	39.79
665.16	11.70
665.30	84.26
665.44	18.72
665.59	74.90
665.73	9.36
665.87	110.01
666.01	65.54
666.15	93.62
666.29	9.36
666.44	84.26
666.58	110.01
666.72	0.00
666.86	60.85
667.00	16.38
667.14	65.54
667.28	9.36
667.43	70.22
667.57	56.17
667.71	39.79
667.85	53.83
667.99	56.17
668.13	51.49
668.27	0.00
668.41	49.15
668.56	0.00
668.70	67.88
668.84	74.90
668.98	0.00
669.12	86.60
669.26	84.26
669.40	114.69
669.54	0.00
669.68	105.32
669.82	91.28
669.96	35.11
670.10	28.09
670.25	32.77
670.39	81.92
670.53	35.11
670.67	9.36
670.81	0.00
670.95	65.54
671.09	2.34
671.23	46.81
671.37	0.00
671.51	63.19
671.65	79.58
671.79	0.00
671.93	56.17
672.07	70.22
672.21	35.11
672.35	32.77
672.49	91.28
672.63	72.56
672.77	37.45
672.91	63.19
673.05	107.66
673.19	11.70
673.33	23.41
673.47	46.81
673.61	2.34
673.75	18.72
673.89	60.85
674.03	58.51
674.17	37.45
674.31	65.54
674.45	18.72
674.59	119.37
674.73	88.94
674.87	25.75
675.01	7.02
675.15	70.22
675.29	124.05
675.43	42.13
675.56	53.83
675.70	79.58
675.84	119.37
675.98	0.00
676.12	0.00
676.26	98.30
676.40	46.81
676.54	32.77
676.68	46.81
676.82	74.90
676.96	28.09
677.10	32.77
677.23	0.00
677.37	39.79
677.51	110.01
677.65	84.26
677.79	131.07
677.93	72.56
678.07	119.37
678.21	58.51
678.34	105.32
678.48	18.72
678.62	7.02
678.76	60.85
678.90	42.13
679.04	114.69
679.18	25.75
679.31	67.88
679.45	110.01
679.59	49.15
679.73	23.41
679.87	63.19
680.00	60.85
680.14	37.45
680.28	0.00
680.42	105.32
680.56	37.45
680.70	77.24
680.83	39.79
680.97	70.22
681.11	53.83
681.25	81.92
681.39	39.79
681.52	28.09
681.66	30.43
681.80	102.98
681.94	0.00
682.07	44.47
682.21	70.22
682.35	32.77
682.49	100.64
682.62	79.58
682.76	39.79
682.90	58.51
683.04	51.49
683.17	126.39
683.31	44.47
683.45	56.17
683.59	65.54
683.72	23.41
683.86	77.24
684.00	30.43
684.13	42.13
684.27	32.77
684.41	0.00
684.55	65.54
684.68	49.15
684.82	42.13
684.96	35.11
685.09	42.13
685.23	28.09
685.37	0.00
685.50	39.79
685.64	81.92
685.78	0.00
685.91	42.13
686.05	0.00
686.19	16.38
686.32	4.68
686.46	91.28
686.60	53.83
686.73	18.72
686.87	0.00
687.01	0.00
687.14	0.00
687.28	35.11
687.42	11.70
687.55	0.00
687.69	39.79
687.82	60.85
687.96	21.06
688.10	30.43
688.23	0.00
688.37	35.11
688.50	39.79
688.64	70.22
688.78	28.09
688.91	100.64
689.05	65.54
689.18	72.56
689.32	46.81
689.46	93.62
689.59	37.45
689.73	84.26
689.86	37.45
690.00	65.54
690.13	37.45
690.27	0.00
690.41	0.00
690.54	77.24
690.68	0.00
690.81	16.38
690.95	25.75
691.08	58.51
691.22	37.45
691.35	79.58
691.49	107.66
691.62	32.77
691.76	67.88
691.89	79.58
692.03	93.62
692.16	49.15
692.30	42.13
692.43	107.66
692.57	30.43
692.70	42.13
692.84	72.56
692.97	37.45
693.11	72.56
693.24	28.09
693.38	58.51
693.51	95.96
693.65	21.06
693.78	84.26
693.92	72.56
694.05	65.54
694.19	7.02
694.32	0.00
694.45	46.81
694.59	170.86
694.72	44.47
694.86	30.43
694.99	77.24
695.13	53.83
695.26	0.00
695.39	32.77
695.53	72.56
695.66	77.24
695.80	51.49
695.93	46.81
696.07	91.28
696.20	0.00
696.33	77.24
696.47	9.36
696.60	81.92
696.73	100.64
696.87	49.15
697.00	51.49
697.14	37.45
697.27	4.68
697.40	81.92
697.54	84.26
697.67	86.60
697.80	0.00
697.94	0.00
698.07	49.15
698.21	23.41
698.34	86.60
698.47	32.77
698.61	37.45
698.74	11.70
698.87	95.96
699.01	35.11
699.14	0.00
699.27	74.90
699.40	30.43
699.54	124.05
699.67	74.90
699.80	65.54
699.94	0.00
700.07	107.66
700.20	72.56
700.34	0.00
700.47	51.49
700.60	0.00
700.73	11.70
700.87	67.88
701.00	79.58
701.13	58.51
701.26	39.79
701.40	28.09
701.53	23.41
701.66	46.81
701.79	37.45
701.93	93.62
702.06	32.77
702.19	77.24
702.32	9.36
702.46	72.56
702.59	7.02
702.72	7.02
702.85	4.68
702.99	0.00
703.12	18.72
703.25	58.51
703.38	42.13
703.51	23.41
703.65	44.47
703.78	11.70
703.91	0.00
704.04	30.43
704.17	56.17
704.31	23.41
704.44	70.22
704.57	51.49
704.70	93.62
704.83	30.43
704.96	23.41
705.10	21.06
705.23	9.36
>>>>>End Processed Spectral Data<<<<<
