SpectraSuite Data File
++++++++++++++++++++++++++++++++++++
Date: Fri Oct 04 12:13:31 GMT-05:00 2013
User: price-jones
Dark Spectrum Present: No
Reference Spectrum Present: No
Number of Sampled Component Spectra: 1
Spectrometers: USB2+H05261
Integration Time (usec): 10000 (USB2+H05261)
Spectra Averaged: 1 (USB2+H05261)
Boxcar Smoothing: 0 (USB2+H05261)
Correct for Electrical Dark: No (USB2+H05261)
Strobe/Lamp Enabled: No (USB2+H05261)
Correct for Detector Non-linearity: No (USB2+H05261)
Correct for Stray Light: No (USB2+H05261)
Number of Pixels in Processed Spectrum: 2048
>>>>>Begin Processed Spectral Data<<<<<
365.73	0.00
365.92	0.00
366.12	0.00
366.32	0.00
366.52	0.00
366.72	0.00
366.91	0.00
367.11	0.00
367.31	0.00
367.51	0.00
367.70	0.00
367.90	0.00
368.10	0.00
368.30	0.00
368.49	0.00
368.69	0.00
368.89	0.00
369.09	0.00
369.28	0.00
369.48	0.00
369.68	0.00
369.87	0.00
370.07	0.00
370.27	0.00
370.47	0.00
370.66	0.00
370.86	0.00
371.06	0.00
371.25	37.45
371.45	7.02
371.65	7.02
371.84	0.00
372.04	98.30
372.24	0.00
372.44	0.00
372.63	23.41
372.83	9.36
373.03	7.02
373.22	23.41
373.42	0.00
373.62	65.54
373.81	32.77
374.01	37.45
374.21	49.15
374.40	23.41
374.60	51.49
374.79	28.09
374.99	32.77
375.19	131.07
375.38	93.62
375.58	84.26
375.78	0.00
375.97	0.00
376.17	46.81
376.37	84.26
376.56	72.56
376.76	2.34
376.95	72.56
377.15	79.58
377.35	0.00
377.54	74.90
377.74	14.04
377.93	21.06
378.13	0.00
378.33	37.45
378.52	0.00
378.72	56.17
378.91	37.45
379.11	0.00
379.31	0.00
379.50	70.22
379.70	0.00
379.89	14.04
380.09	18.72
380.28	58.51
380.48	0.00
380.68	25.75
380.87	0.00
381.07	23.41
381.26	0.00
381.46	0.00
381.65	56.17
381.85	0.00
382.04	42.13
382.24	49.15
382.43	0.00
382.63	9.36
382.83	44.47
383.02	70.22
383.22	9.36
383.41	0.00
383.61	35.11
383.80	67.88
384.00	28.09
384.19	65.54
384.39	63.19
384.58	4.68
384.78	30.43
384.97	4.68
385.17	0.00
385.36	58.51
385.56	77.24
385.75	0.00
385.95	51.49
386.14	0.00
386.34	53.83
386.53	79.58
386.72	0.00
386.92	0.00
387.11	0.00
387.31	32.77
387.50	0.00
387.70	30.43
387.89	9.36
388.09	16.38
388.28	67.88
388.48	67.88
388.67	0.00
388.86	53.83
389.06	0.00
389.25	37.45
389.45	0.00
389.64	14.04
389.84	42.13
390.03	79.58
390.22	93.62
390.42	35.11
390.61	14.04
390.81	46.81
391.00	0.00
391.19	60.85
391.39	0.00
391.58	11.70
391.78	46.81
391.97	0.00
392.16	4.68
392.36	58.51
392.55	0.00
392.75	0.00
392.94	79.58
393.13	25.75
393.33	39.79
393.52	2.34
393.71	0.00
393.91	0.00
394.10	0.00
394.29	0.00
394.49	0.00
394.68	133.41
394.88	11.70
395.07	2.34
395.26	30.43
395.46	0.00
395.65	2.34
395.84	2.34
396.04	30.43
396.23	18.72
396.42	9.36
396.62	0.00
396.81	81.92
397.00	0.00
397.19	35.11
397.39	4.68
397.58	23.41
397.77	0.00
397.97	16.38
398.16	11.70
398.35	0.00
398.55	0.00
398.74	0.00
398.93	44.47
399.12	67.88
399.32	88.94
399.51	84.26
399.70	67.88
399.90	25.75
400.09	11.70
400.28	21.06
400.47	30.43
400.67	39.79
400.86	16.38
401.05	0.00
401.24	0.00
401.44	56.17
401.63	28.09
401.82	11.70
402.01	93.62
402.21	74.90
402.40	37.45
402.59	42.13
402.78	81.92
402.97	58.51
403.17	49.15
403.36	14.04
403.55	0.00
403.74	23.41
403.93	42.13
404.13	35.11
404.32	9.36
404.51	0.00
404.70	0.00
404.89	60.85
405.09	28.09
405.28	56.17
405.47	7.02
405.66	35.11
405.85	0.00
406.05	18.72
406.24	0.00
406.43	32.77
406.62	28.09
406.81	0.00
407.00	0.00
407.20	14.04
407.39	0.00
407.58	39.79
407.77	9.36
407.96	67.88
408.15	102.98
408.34	9.36
408.54	16.38
408.73	0.00
408.92	0.00
409.11	35.11
409.30	0.00
409.49	0.00
409.68	0.00
409.87	0.00
410.07	56.17
410.26	0.00
410.45	21.06
410.64	0.00
410.83	28.09
411.02	9.36
411.21	0.00
411.40	28.09
411.59	11.70
411.78	0.00
411.98	28.09
412.17	42.13
412.36	72.56
412.55	9.36
412.74	37.45
412.93	28.09
413.12	18.72
413.31	21.06
413.50	0.00
413.69	23.41
413.88	0.00
414.07	42.13
414.26	37.45
414.45	0.00
414.64	14.04
414.83	0.00
415.02	28.09
415.22	35.11
415.41	0.00
415.60	0.00
415.79	0.00
415.98	35.11
416.17	0.00
416.36	84.26
416.55	0.00
416.74	42.13
416.93	0.00
417.12	58.51
417.31	44.47
417.50	93.62
417.69	67.88
417.88	44.47
418.07	11.70
418.26	81.92
418.45	0.00
418.64	79.58
418.83	42.13
419.02	16.38
419.21	11.70
419.39	32.77
419.58	0.00
419.77	0.00
419.96	46.81
420.15	77.24
420.34	0.00
420.53	23.41
420.72	0.00
420.91	0.00
421.10	49.15
421.29	114.69
421.48	2.34
421.67	11.70
421.86	0.00
422.05	0.00
422.24	46.81
422.43	4.68
422.61	0.00
422.80	37.45
422.99	30.43
423.18	2.34
423.37	72.56
423.56	39.79
423.75	21.06
423.94	11.70
424.13	28.09
424.32	53.83
424.50	110.01
424.69	42.13
424.88	11.70
425.07	0.00
425.26	21.06
425.45	74.90
425.64	0.00
425.83	42.13
426.01	16.38
426.20	30.43
426.39	0.00
426.58	0.00
426.77	30.43
426.96	0.00
427.15	32.77
427.33	32.77
427.52	65.54
427.71	56.17
427.90	49.15
428.09	56.17
428.28	0.00
428.46	2.34
428.65	79.58
428.84	53.83
429.03	44.47
429.22	25.75
429.40	9.36
429.59	2.34
429.78	4.68
429.97	60.85
430.16	63.19
430.34	42.13
430.53	0.00
430.72	9.36
430.91	28.09
431.10	11.70
431.28	11.70
431.47	37.45
431.66	25.75
431.85	77.24
432.03	0.00
432.22	0.00
432.41	0.00
432.60	21.06
432.79	2.34
432.97	140.43
433.16	37.45
433.35	42.13
433.54	93.62
433.72	23.41
433.91	0.00
434.10	4.68
434.28	42.13
434.47	84.26
434.66	14.04
434.85	4.68
435.03	30.43
435.22	25.75
435.41	46.81
435.59	46.81
435.78	72.56
435.97	42.13
436.16	72.56
436.34	91.28
436.53	121.71
436.72	53.83
436.90	0.00
437.09	60.85
437.28	42.13
437.46	28.09
437.65	32.77
437.84	2.34
438.02	58.51
438.21	42.13
438.40	0.00
438.58	11.70
438.77	42.13
438.96	65.54
439.14	14.04
439.33	21.06
439.52	0.00
439.70	28.09
439.89	7.02
440.08	39.79
440.26	0.00
440.45	32.77
440.63	60.85
440.82	58.51
441.01	0.00
441.19	32.77
441.38	23.41
441.57	25.75
441.75	30.43
441.94	30.43
442.12	21.06
442.31	39.79
442.50	30.43
442.68	53.83
442.87	9.36
443.05	46.81
443.24	51.49
443.43	105.32
443.61	23.41
443.80	84.26
443.98	28.09
444.17	42.13
444.35	0.00
444.54	81.92
444.73	28.09
444.91	7.02
445.10	14.04
445.28	25.75
445.47	88.94
445.65	11.70
445.84	58.51
446.02	11.70
446.21	84.26
446.39	112.35
446.58	72.56
446.77	105.32
446.95	42.13
447.14	37.45
447.32	9.36
447.51	72.56
447.69	95.96
447.88	77.24
448.06	37.45
448.25	0.00
448.43	0.00
448.62	9.36
448.80	63.19
448.99	51.49
449.17	60.85
449.36	67.88
449.54	53.83
449.73	63.19
449.91	44.47
450.10	0.00
450.28	100.64
450.46	11.70
450.65	18.72
450.83	18.72
451.02	35.11
451.20	74.90
451.39	0.00
451.57	84.26
451.76	44.47
451.94	49.15
452.13	37.45
452.31	0.00
452.49	21.06
452.68	14.04
452.86	14.04
453.05	84.26
453.23	23.41
453.42	37.45
453.60	91.28
453.78	2.34
453.97	49.15
454.15	30.43
454.34	18.72
454.52	37.45
454.70	11.70
454.89	44.47
455.07	7.02
455.26	7.02
455.44	100.64
455.62	65.54
455.81	0.00
455.99	74.90
456.17	0.00
456.36	28.09
456.54	35.11
456.73	25.75
456.91	81.92
457.09	42.13
457.28	42.13
457.46	35.11
457.64	42.13
457.83	9.36
458.01	30.43
458.19	93.62
458.38	84.26
458.56	23.41
458.74	60.85
458.93	0.00
459.11	46.81
459.29	42.13
459.48	0.00
459.66	9.36
459.84	35.11
460.03	7.02
460.21	72.56
460.39	18.72
460.57	0.00
460.76	0.00
460.94	0.00
461.12	0.00
461.31	49.15
461.49	65.54
461.67	35.11
461.85	60.85
462.04	11.70
462.22	60.85
462.40	67.88
462.59	58.51
462.77	84.26
462.95	72.56
463.13	25.75
463.32	37.45
463.50	84.26
463.68	32.77
463.86	0.00
464.05	0.00
464.23	58.51
464.41	9.36
464.59	53.83
464.78	110.01
464.96	11.70
465.14	18.72
465.32	25.75
465.50	112.35
465.69	25.75
465.87	0.00
466.05	65.54
466.23	81.92
466.41	86.60
466.60	58.51
466.78	63.19
466.96	35.11
467.14	28.09
467.32	72.56
467.51	18.72
467.69	7.02
467.87	14.04
468.05	46.81
468.23	67.88
468.41	42.13
468.60	0.00
468.78	124.05
468.96	0.00
469.14	42.13
469.32	44.47
469.50	84.26
469.69	0.00
469.87	77.24
470.05	72.56
470.23	0.00
470.41	46.81
470.59	44.47
470.77	72.56
470.95	72.56
471.14	49.15
471.32	53.83
471.50	98.30
471.68	53.83
471.86	30.43
472.04	0.00
472.22	70.22
472.40	0.00
472.58	14.04
472.77	28.09
472.95	30.43
473.13	0.00
473.31	9.36
473.49	28.09
473.67	98.30
473.85	56.17
474.03	110.01
474.21	65.54
474.39	74.90
474.57	44.47
474.75	0.00
474.93	79.58
475.12	84.26
475.30	70.22
475.48	58.51
475.66	16.38
475.84	81.92
476.02	86.60
476.20	65.54
476.38	11.70
476.56	112.35
476.74	0.00
476.92	37.45
477.10	23.41
477.28	11.70
477.46	42.13
477.64	44.47
477.82	0.00
478.00	0.00
478.18	0.00
478.36	42.13
478.54	35.11
478.72	37.45
478.90	112.35
479.08	49.15
479.26	0.00
479.44	16.38
479.62	60.85
479.80	46.81
479.98	30.43
480.16	4.68
480.34	60.85
480.52	58.51
480.70	0.00
480.88	23.41
481.06	81.92
481.24	7.02
481.41	39.79
481.59	100.64
481.77	30.43
481.95	30.43
482.13	74.90
482.31	58.51
482.49	107.66
482.67	81.92
482.85	42.13
483.03	35.11
483.21	56.17
483.39	58.51
483.57	30.43
483.74	58.51
483.92	16.38
484.10	91.28
484.28	25.75
484.46	0.00
484.64	23.41
484.82	44.47
485.00	63.19
485.18	37.45
485.35	67.88
485.53	100.64
485.71	0.00
485.89	2.34
486.07	91.28
486.25	53.83
486.43	32.77
486.61	28.09
486.78	0.00
486.96	0.00
487.14	30.43
487.32	56.17
487.50	14.04
487.68	44.47
487.85	35.11
488.03	86.60
488.21	0.00
488.39	53.83
488.57	11.70
488.75	91.28
488.92	131.07
489.10	42.13
489.28	140.43
489.46	65.54
489.64	11.70
489.81	95.96
489.99	9.36
490.17	14.04
490.35	88.94
490.53	77.24
490.70	72.56
490.88	72.56
491.06	21.06
491.24	32.77
491.41	95.96
491.59	53.83
491.77	46.81
491.95	35.11
492.13	0.00
492.30	60.85
492.48	7.02
492.66	9.36
492.84	32.77
493.01	72.56
493.19	0.00
493.37	18.72
493.54	72.56
493.72	51.49
493.90	63.19
494.08	30.43
494.25	65.54
494.43	67.88
494.61	42.13
494.79	0.00
494.96	14.04
495.14	35.11
495.32	105.32
495.49	0.00
495.67	63.19
495.85	35.11
496.02	72.56
496.20	58.51
496.38	32.77
496.55	0.00
496.73	0.00
496.91	39.79
497.09	88.94
497.26	28.09
497.44	72.56
497.62	53.83
497.79	37.45
497.97	28.09
498.14	51.49
498.32	58.51
498.50	49.15
498.67	56.17
498.85	84.26
499.03	28.09
499.20	74.90
499.38	39.79
499.56	72.56
499.73	49.15
499.91	98.30
500.08	67.88
500.26	44.47
500.44	0.00
500.61	28.09
500.79	2.34
500.97	63.19
501.14	18.72
501.32	23.41
501.49	32.77
501.67	39.79
501.84	105.32
502.02	18.72
502.20	0.00
502.37	65.54
502.55	18.72
502.72	23.41
502.90	39.79
503.07	117.03
503.25	0.00
503.43	42.13
503.60	84.26
503.78	58.51
503.95	14.04
504.13	110.01
504.30	32.77
504.48	9.36
504.65	46.81
504.83	58.51
505.01	7.02
505.18	11.70
505.36	98.30
505.53	0.00
505.71	117.03
505.88	9.36
506.06	77.24
506.23	63.19
506.41	21.06
506.58	28.09
506.76	9.36
506.93	23.41
507.11	58.51
507.28	63.19
507.46	18.72
507.63	42.13
507.81	0.00
507.98	60.85
508.16	23.41
508.33	44.47
508.50	79.58
508.68	58.51
508.85	0.00
509.03	18.72
509.20	58.51
509.38	23.41
509.55	56.17
509.73	77.24
509.90	44.47
510.08	0.00
510.25	79.58
510.42	32.77
510.60	0.00
510.77	63.19
510.95	98.30
511.12	35.11
511.30	28.09
511.47	63.19
511.64	39.79
511.82	88.94
511.99	65.54
512.17	35.11
512.34	23.41
512.51	21.06
512.69	60.85
512.86	28.09
513.04	91.28
513.21	42.13
513.38	58.51
513.56	107.66
513.73	25.75
513.90	0.00
514.08	18.72
514.25	2.34
514.43	25.75
514.60	98.30
514.77	58.51
514.95	0.00
515.12	46.81
515.29	49.15
515.47	79.58
515.64	23.41
515.81	16.38
515.99	84.26
516.16	16.38
516.33	7.02
516.51	44.47
516.68	105.32
516.85	46.81
517.03	70.22
517.20	0.00
517.37	0.00
517.54	18.72
517.72	56.17
517.89	0.00
518.06	35.11
518.24	65.54
518.41	42.13
518.58	93.62
518.75	16.38
518.93	18.72
519.10	49.15
519.27	110.01
519.45	74.90
519.62	79.58
519.79	0.00
519.96	4.68
520.14	49.15
520.31	60.85
520.48	56.17
520.65	117.03
520.83	28.09
521.00	112.35
521.17	81.92
521.34	70.22
521.52	42.13
521.69	44.47
521.86	56.17
522.03	53.83
522.20	81.92
522.38	0.00
522.55	18.72
522.72	0.00
522.89	65.54
523.07	0.00
523.24	67.88
523.41	58.51
523.58	0.00
523.75	58.51
523.92	42.13
524.10	39.79
524.27	65.54
524.44	18.72
524.61	100.64
524.78	25.75
524.96	81.92
525.13	0.00
525.30	4.68
525.47	0.00
525.64	100.64
525.81	70.22
525.98	86.60
526.16	100.64
526.33	58.51
526.50	0.00
526.67	44.47
526.84	0.00
527.01	18.72
527.18	86.60
527.36	0.00
527.53	110.01
527.70	42.13
527.87	7.02
528.04	23.41
528.21	58.51
528.38	93.62
528.55	37.45
528.72	0.00
528.89	70.22
529.07	28.09
529.24	77.24
529.41	67.88
529.58	0.00
529.75	84.26
529.92	86.60
530.09	67.88
530.26	32.77
530.43	21.06
530.60	46.81
530.77	30.43
530.94	58.51
531.11	124.05
531.28	9.36
531.46	32.77
531.63	58.51
531.80	4.68
531.97	0.00
532.14	91.28
532.31	70.22
532.48	0.00
532.65	28.09
532.82	91.28
532.99	30.43
533.16	86.60
533.33	18.72
533.50	56.17
533.67	32.77
533.84	63.19
534.01	9.36
534.18	56.17
534.35	51.49
534.52	91.28
534.69	39.79
534.86	86.60
535.03	39.79
535.20	107.66
535.37	46.81
535.54	0.00
535.71	7.02
535.88	25.75
536.05	77.24
536.22	72.56
536.38	39.79
536.55	77.24
536.72	16.38
536.89	25.75
537.06	0.00
537.23	0.00
537.40	70.22
537.57	44.47
537.74	128.73
537.91	163.84
538.08	39.79
538.25	0.00
538.42	0.00
538.59	23.41
538.75	2.34
538.92	46.81
539.09	56.17
539.26	28.09
539.43	23.41
539.60	49.15
539.77	70.22
539.94	156.82
540.11	163.84
540.28	133.41
540.44	65.54
540.61	84.26
540.78	53.83
540.95	21.06
541.12	70.22
541.29	0.00
541.46	9.36
541.62	65.54
541.79	49.15
541.96	0.00
542.13	72.56
542.30	107.66
542.47	81.92
542.63	16.38
542.80	60.85
542.97	42.13
543.14	93.62
543.31	37.45
543.48	16.38
543.64	42.13
543.81	121.71
543.98	65.54
544.15	28.09
544.32	25.75
544.48	53.83
544.65	84.26
544.82	0.00
544.99	28.09
545.16	98.30
545.32	58.51
545.49	11.70
545.66	65.54
545.83	11.70
546.00	18.72
546.16	110.01
546.33	46.81
546.50	0.00
546.67	18.72
546.83	70.22
547.00	0.00
547.17	58.51
547.34	9.36
547.50	79.58
547.67	79.58
547.84	30.43
548.00	28.09
548.17	23.41
548.34	0.00
548.51	63.19
548.67	65.54
548.84	56.17
549.01	37.45
549.18	74.90
549.34	9.36
549.51	72.56
549.68	51.49
549.84	67.88
550.01	14.04
550.18	105.32
550.34	0.00
550.51	86.60
550.68	63.19
550.84	42.13
551.01	14.04
551.18	42.13
551.34	23.41
551.51	11.70
551.68	124.05
551.84	72.56
552.01	58.51
552.18	105.32
552.34	79.58
552.51	23.41
552.68	39.79
552.84	65.54
553.01	79.58
553.18	39.79
553.34	25.75
553.51	63.19
553.67	65.54
553.84	28.09
554.01	105.32
554.17	0.00
554.34	70.22
554.51	14.04
554.67	74.90
554.84	110.01
555.00	0.00
555.17	0.00
555.33	35.11
555.50	14.04
555.67	0.00
555.83	88.94
556.00	16.38
556.16	23.41
556.33	30.43
556.50	16.38
556.66	81.92
556.83	42.13
556.99	63.19
557.16	18.72
557.32	32.77
557.49	42.13
557.65	23.41
557.82	37.45
557.98	88.94
558.15	42.13
558.32	86.60
558.48	21.06
558.65	44.47
558.81	72.56
558.98	65.54
559.14	53.83
559.31	74.90
559.47	63.19
559.64	39.79
559.80	70.22
559.97	4.68
560.13	37.45
560.30	72.56
560.46	70.22
560.63	35.11
560.79	0.00
560.96	37.45
561.12	107.66
561.29	81.92
561.45	16.38
561.61	23.41
561.78	30.43
561.94	30.43
562.11	37.45
562.27	70.22
562.44	60.85
562.60	16.38
562.77	30.43
562.93	107.66
563.10	91.28
563.26	0.00
563.42	51.49
563.59	88.94
563.75	23.41
563.92	28.09
564.08	0.00
564.24	72.56
564.41	84.26
564.57	63.19
564.74	23.41
564.90	7.02
565.07	49.15
565.23	21.06
565.39	11.70
565.56	91.28
565.72	4.68
565.88	7.02
566.05	30.43
566.21	93.62
566.38	18.72
566.54	81.92
566.70	67.88
566.87	53.83
567.03	81.92
567.19	2.34
567.36	39.79
567.52	0.00
567.68	53.83
567.85	0.00
568.01	11.70
568.17	18.72
568.34	95.96
568.50	37.45
568.66	53.83
568.83	72.56
568.99	2.34
569.15	98.30
569.32	37.45
569.48	11.70
569.64	23.41
569.81	32.77
569.97	60.85
570.13	37.45
570.30	18.72
570.46	67.88
570.62	72.56
570.78	30.43
570.95	46.81
571.11	67.88
571.27	63.19
571.43	86.60
571.60	72.56
571.76	56.17
571.92	16.38
572.09	30.43
572.25	9.36
572.41	16.38
572.57	0.00
572.74	65.54
572.90	91.28
573.06	21.06
573.22	74.90
573.38	32.77
573.55	0.00
573.71	46.81
573.87	11.70
574.03	51.49
574.20	18.72
574.36	79.58
574.52	93.62
574.68	74.90
574.84	65.54
575.01	60.85
575.17	0.00
575.33	53.83
575.49	65.54
575.65	51.49
575.82	0.00
575.98	67.88
576.14	128.73
576.30	105.32
576.46	81.92
576.62	7.02
576.79	28.09
576.95	0.00
577.11	49.15
577.27	86.60
577.43	4.68
577.59	9.36
577.75	58.51
577.92	53.83
578.08	84.26
578.24	23.41
578.40	58.51
578.56	35.11
578.72	28.09
578.88	37.45
579.04	28.09
579.21	42.13
579.37	35.11
579.53	39.79
579.69	65.54
579.85	74.90
580.01	70.22
580.17	25.75
580.33	95.96
580.49	39.79
580.65	79.58
580.82	77.24
580.98	25.75
581.14	58.51
581.30	7.02
581.46	37.45
581.62	44.47
581.78	49.15
581.94	51.49
582.10	11.70
582.26	79.58
582.42	28.09
582.58	102.98
582.74	28.09
582.90	77.24
583.06	56.17
583.22	60.85
583.38	49.15
583.54	56.17
583.70	46.81
583.86	128.73
584.02	84.26
584.18	25.75
584.34	121.71
584.50	241.08
584.66	1334.11
584.82	3084.83
584.98	4564.04
585.14	3985.93
585.30	2490.33
585.46	1455.81
585.62	985.37
585.78	444.70
585.94	189.58
586.10	88.94
586.26	88.94
586.42	135.75
586.58	86.60
586.74	51.49
586.90	105.32
587.06	56.17
587.22	28.09
587.38	23.41
587.54	35.11
587.70	269.16
587.86	311.29
588.02	400.23
588.18	290.23
588.34	154.48
588.49	138.09
588.65	11.70
588.81	46.81
588.97	30.43
589.13	23.41
589.29	51.49
589.45	63.19
589.61	30.43
589.77	4.68
589.93	32.77
590.08	30.43
590.24	60.85
590.40	100.64
590.56	44.47
590.72	79.58
590.88	14.04
591.04	0.00
591.20	98.30
591.35	88.94
591.51	51.49
591.67	79.58
591.83	30.43
591.99	110.01
592.15	133.41
592.31	70.22
592.46	74.90
592.62	18.72
592.78	65.54
592.94	84.26
593.10	32.77
593.26	35.11
593.41	93.62
593.57	42.13
593.73	98.30
593.89	180.22
594.05	411.93
594.20	620.24
594.36	587.47
594.52	393.21
594.68	231.71
594.84	210.65
594.99	227.03
595.15	63.19
595.31	84.26
595.47	44.47
595.62	72.56
595.78	46.81
595.94	84.26
596.10	88.94
596.25	49.15
596.41	25.75
596.57	74.90
596.73	39.79
596.88	44.47
597.04	110.01
597.20	175.54
597.36	110.01
597.51	93.62
597.67	74.90
597.83	86.60
597.99	100.64
598.14	53.83
598.30	67.88
598.46	67.88
598.61	53.83
598.77	9.36
598.93	51.49
599.09	25.75
599.24	91.28
599.40	63.19
599.56	42.13
599.71	0.00
599.87	30.43
600.03	46.81
600.18	93.62
600.34	32.77
600.50	11.70
600.65	18.72
600.81	53.83
600.97	98.30
601.12	0.00
601.28	0.00
601.44	88.94
601.59	60.85
601.75	0.00
601.91	7.02
602.06	46.81
602.22	56.17
602.37	88.94
602.53	102.98
602.69	102.98
602.84	222.35
603.00	145.11
603.16	105.32
603.31	81.92
603.47	51.49
603.62	51.49
603.78	112.35
603.94	51.49
604.09	53.83
604.25	72.56
604.40	51.49
604.56	0.00
604.71	25.75
604.87	53.83
605.03	18.72
605.18	30.43
605.34	49.15
605.49	0.00
605.65	93.62
605.80	79.58
605.96	81.92
606.12	74.90
606.27	49.15
606.43	119.37
606.58	0.00
606.74	65.54
606.89	229.37
607.05	315.97
607.20	531.30
607.36	421.30
607.51	227.03
607.67	170.86
607.82	180.22
607.98	88.94
608.13	30.43
608.29	21.06
608.44	84.26
608.60	91.28
608.75	147.45
608.91	63.19
609.06	259.80
609.22	653.01
609.37	812.17
609.53	774.72
609.68	472.79
609.84	365.12
609.99	287.89
610.15	170.86
610.30	81.92
610.46	86.60
610.61	18.72
610.76	30.43
610.92	23.41
611.07	0.00
611.23	93.62
611.38	49.15
611.54	0.00
611.69	51.49
611.84	16.38
612.00	79.58
612.15	32.77
612.31	131.07
612.46	60.85
612.62	84.26
612.77	16.38
612.92	56.17
613.08	39.79
613.23	74.90
613.39	2.34
613.54	100.64
613.69	355.76
613.85	781.74
614.00	1270.91
614.15	1397.30
614.31	1011.11
614.46	634.29
614.62	440.02
614.77	308.95
614.92	114.69
615.08	53.83
615.23	37.45
615.38	35.11
615.54	4.68
615.69	58.51
615.84	198.95
616.00	318.31
616.15	397.89
616.30	341.72
616.46	294.91
616.61	119.37
616.76	124.05
616.92	95.96
617.07	46.81
617.22	46.81
617.37	46.81
617.53	0.00
617.68	56.17
617.83	0.00
617.99	70.22
618.14	11.70
618.29	25.75
618.45	14.04
618.60	102.98
618.75	91.28
618.90	60.85
619.06	25.75
619.21	4.68
619.36	39.79
619.51	88.94
619.67	102.98
619.82	56.17
619.97	14.04
620.12	0.00
620.28	23.41
620.43	67.88
620.58	35.11
620.73	51.49
620.89	11.70
621.04	56.17
621.19	166.18
621.34	212.99
621.49	187.24
621.65	269.16
621.80	168.52
621.95	191.92
622.10	112.35
622.25	35.11
622.41	56.17
622.56	2.34
622.71	114.69
622.86	32.77
623.01	37.45
623.16	0.00
623.32	70.22
623.47	67.88
623.62	9.36
623.77	11.70
623.92	46.81
624.07	49.15
624.23	0.00
624.38	44.47
624.53	28.09
624.68	35.11
624.83	37.45
624.98	30.43
625.13	56.17
625.29	7.02
625.44	0.00
625.59	7.02
625.74	81.92
625.89	131.07
626.04	191.92
626.19	433.00
626.34	613.22
626.49	732.59
626.65	531.30
626.80	360.44
626.95	257.46
627.10	131.07
627.25	112.35
627.40	77.24
627.55	56.17
627.70	25.75
627.85	65.54
628.00	44.47
628.15	18.72
628.30	46.81
628.45	30.43
628.60	49.15
628.76	0.00
628.91	0.00
629.06	0.00
629.21	44.47
629.36	37.45
629.51	0.00
629.66	23.41
629.81	77.24
629.96	70.22
630.11	236.39
630.26	198.95
630.41	220.01
630.56	135.75
630.71	102.98
630.86	100.64
631.01	81.92
631.16	28.09
631.31	44.47
631.46	58.51
631.61	49.15
631.76	35.11
631.91	49.15
632.06	70.22
632.21	49.15
632.36	0.00
632.51	53.83
632.66	49.15
632.81	138.09
632.96	262.14
633.10	463.43
633.25	500.87
633.40	404.91
633.55	358.10
633.70	184.90
633.85	145.11
634.00	77.24
634.15	30.43
634.30	0.00
634.45	44.47
634.60	28.09
634.75	9.36
634.90	42.13
635.05	74.90
635.19	30.43
635.34	2.34
635.49	35.11
635.64	49.15
635.79	21.06
635.94	18.72
636.09	35.11
636.24	152.13
636.39	0.00
636.53	0.00
636.68	18.72
636.83	2.34
636.98	11.70
637.13	60.85
637.28	105.32
637.43	49.15
637.57	159.16
637.72	201.29
637.87	512.58
638.02	800.46
638.17	924.51
638.32	739.61
638.46	451.72
638.61	327.68
638.76	257.46
638.91	161.50
639.06	93.62
639.20	0.00
639.35	72.56
639.50	70.22
639.65	283.20
639.80	851.96
639.94	1233.46
640.09	1357.51
640.24	1109.41
640.39	781.74
640.54	568.75
640.68	280.86
640.83	98.30
640.98	114.69
641.13	49.15
641.27	49.15
641.42	88.94
641.57	2.34
641.72	37.45
641.86	0.00
642.01	0.00
642.16	0.00
642.31	63.19
642.45	0.00
642.60	72.56
642.75	7.02
642.90	42.13
643.04	53.83
643.19	119.37
643.34	39.79
643.48	91.28
643.63	39.79
643.78	56.17
643.93	74.90
644.07	21.06
644.22	0.00
644.37	37.45
644.51	0.00
644.66	32.77
644.81	58.51
644.95	0.00
645.10	135.75
645.25	65.54
645.39	53.83
645.54	0.00
645.69	39.79
645.83	25.75
645.98	51.49
646.13	14.04
646.27	9.36
646.42	70.22
646.57	0.00
646.71	23.41
646.86	35.11
647.00	0.00
647.15	84.26
647.30	39.79
647.44	58.51
647.59	0.00
647.74	0.00
647.88	2.34
648.03	14.04
648.17	23.41
648.32	35.11
648.47	23.41
648.61	18.72
648.76	0.00
648.90	16.38
649.05	37.45
649.20	7.02
649.34	44.47
649.49	0.00
649.63	11.70
649.78	70.22
649.92	4.68
650.07	86.60
650.21	393.21
650.36	629.60
650.51	744.29
650.65	648.33
650.80	491.51
650.94	287.89
651.09	182.56
651.23	65.54
651.38	114.69
651.52	70.22
651.67	58.51
651.81	28.09
651.96	88.94
652.10	0.00
652.25	0.00
652.39	56.17
652.54	18.72
652.68	110.01
652.83	194.26
652.97	147.45
653.12	259.80
653.26	367.46
653.41	152.13
653.55	154.48
653.70	126.39
653.84	79.58
653.99	93.62
654.13	0.00
654.27	84.26
654.42	18.72
654.56	18.72
654.71	25.75
654.85	107.66
655.00	88.94
655.14	21.06
655.29	28.09
655.43	74.90
655.57	32.77
655.72	72.56
655.86	65.54
656.01	0.00
656.15	44.47
656.30	0.00
656.44	9.36
656.58	0.00
656.73	117.03
656.87	30.43
657.01	4.68
657.16	60.85
657.30	23.41
657.45	72.56
657.59	37.45
657.73	35.11
657.88	18.72
658.02	102.98
658.16	91.28
658.31	42.13
658.45	51.49
658.60	35.11
658.74	2.34
658.88	39.79
659.03	0.00
659.17	28.09
659.31	81.92
659.46	161.50
659.60	271.50
659.74	330.02
659.89	346.40
660.03	229.37
660.17	205.97
660.32	37.45
660.46	46.81
660.60	0.00
660.74	2.34
660.89	14.04
661.03	77.24
661.17	110.01
661.32	84.26
661.46	65.54
661.60	84.26
661.74	21.06
661.89	42.13
662.03	39.79
662.17	9.36
662.31	23.41
662.46	9.36
662.60	0.00
662.74	23.41
662.88	0.00
663.03	0.00
663.17	21.06
663.31	37.45
663.45	32.77
663.60	58.51
663.74	0.00
663.88	21.06
664.02	79.58
664.17	39.79
664.31	37.45
664.45	60.85
664.59	30.43
664.73	60.85
664.88	0.00
665.02	0.00
665.16	16.38
665.30	42.13
665.44	11.70
665.59	37.45
665.73	16.38
665.87	51.49
666.01	21.06
666.15	4.68
666.29	51.49
666.44	14.04
666.58	44.47
666.72	35.11
666.86	9.36
667.00	74.90
667.14	21.06
667.28	131.07
667.43	330.02
667.57	521.94
667.71	636.63
667.85	528.96
667.99	435.34
668.13	299.59
668.27	187.24
668.41	25.75
668.56	0.00
668.70	53.83
668.84	79.58
668.98	56.17
669.12	14.04
669.26	67.88
669.40	37.45
669.54	28.09
669.68	32.77
669.82	35.11
669.96	14.04
670.10	0.00
670.25	35.11
670.39	49.15
670.53	18.72
670.67	0.00
670.81	35.11
670.95	16.38
671.09	53.83
671.23	163.84
671.37	266.82
671.51	409.59
671.65	463.43
671.79	365.12
671.93	203.63
672.07	159.16
672.21	102.98
672.35	77.24
672.49	42.13
672.63	65.54
672.77	14.04
672.91	65.54
673.05	21.06
673.19	9.36
673.33	16.38
673.47	91.28
673.61	42.13
673.75	2.34
673.89	35.11
674.03	51.49
674.17	39.79
674.31	0.00
674.45	51.49
674.59	16.38
674.73	58.51
674.87	88.94
675.01	46.81
675.15	72.56
675.29	72.56
675.43	28.09
675.56	0.00
675.70	84.26
675.84	0.00
675.98	49.15
676.12	14.04
676.26	107.66
676.40	9.36
676.54	53.83
676.68	91.28
676.82	14.04
676.96	37.45
677.10	42.13
677.23	49.15
677.37	39.79
677.51	11.70
677.65	4.68
677.79	67.88
677.93	28.09
678.07	16.38
678.21	0.00
678.34	121.71
678.48	44.47
678.62	30.43
678.76	28.09
678.90	0.00
679.04	86.60
679.18	39.79
679.31	18.72
679.45	51.49
679.59	46.81
679.73	14.04
679.87	102.98
680.00	0.00
680.14	0.00
680.28	0.00
680.42	72.56
680.56	42.13
680.70	0.00
680.83	30.43
680.97	21.06
681.11	58.51
681.25	49.15
681.39	53.83
681.52	0.00
681.66	91.28
681.80	0.00
681.94	79.58
682.07	2.34
682.21	39.79
682.35	28.09
682.49	23.41
682.62	51.49
682.76	0.00
682.90	46.81
683.04	18.72
683.17	81.92
683.31	49.15
683.45	60.85
683.59	86.60
683.72	32.77
683.86	2.34
684.00	42.13
684.13	28.09
684.27	39.79
684.41	28.09
684.55	16.38
684.68	56.17
684.82	63.19
684.96	0.00
685.09	9.36
685.23	0.00
685.37	74.90
685.50	51.49
685.64	0.00
685.78	100.64
685.91	25.75
686.05	53.83
686.19	28.09
686.32	152.13
686.46	39.79
686.60	67.88
686.73	0.00
686.87	7.02
687.01	11.70
687.14	53.83
687.28	67.88
687.42	60.85
687.55	39.79
687.69	56.17
687.82	14.04
687.96	65.54
688.10	95.96
688.23	14.04
688.37	14.04
688.50	53.83
688.64	0.00
688.78	25.75
688.91	0.00
689.05	0.00
689.18	84.26
689.32	0.00
689.46	18.72
689.59	32.77
689.73	21.06
689.86	21.06
690.00	0.00
690.13	25.75
690.27	0.00
690.41	30.43
690.54	9.36
690.68	25.75
690.81	72.56
690.95	0.00
691.08	18.72
691.22	30.43
691.35	98.30
691.49	25.75
691.62	16.38
691.76	0.00
691.89	39.79
692.03	0.00
692.16	39.79
692.30	14.04
692.43	67.88
692.57	159.16
692.70	252.78
692.84	252.78
692.97	245.76
693.11	217.67
693.24	156.82
693.38	147.45
693.51	107.66
693.65	149.79
693.78	110.01
693.92	44.47
694.05	30.43
694.19	84.26
694.32	65.54
694.45	23.41
694.59	35.11
694.72	2.34
694.86	70.22
694.99	11.70
695.13	42.13
695.26	51.49
695.39	65.54
695.53	0.00
695.66	81.92
695.80	37.45
695.93	14.04
696.07	25.75
696.20	16.38
696.33	72.56
696.47	67.88
696.60	79.58
696.73	0.00
696.87	49.15
697.00	0.00
697.14	93.62
697.27	37.45
697.40	37.45
697.54	32.77
697.67	9.36
697.80	42.13
697.94	28.09
698.07	0.00
698.21	21.06
698.34	44.47
698.47	0.00
698.61	37.45
698.74	28.09
698.87	0.00
699.01	39.79
699.14	32.77
699.27	18.72
699.40	28.09
699.54	18.72
699.67	0.00
699.80	9.36
699.94	51.49
700.07	28.09
700.20	35.11
700.34	63.19
700.47	42.13
700.60	102.98
700.73	46.81
700.87	49.15
701.00	46.81
701.13	70.22
701.26	58.51
701.40	56.17
701.53	4.68
701.66	58.51
701.79	0.00
701.93	28.09
702.06	100.64
702.19	16.38
702.32	0.00
702.46	58.51
702.59	79.58
702.72	72.56
702.85	184.90
702.99	423.64
703.12	498.53
703.25	524.28
703.38	519.60
703.51	416.62
703.65	299.59
703.78	222.35
703.91	236.39
704.04	105.32
704.17	49.15
704.31	56.17
704.44	0.00
704.57	35.11
704.70	88.94
704.83	88.94
704.96	46.81
705.10	0.00
705.23	100.64
>>>>>End Processed Spectral Data<<<<<
