SpectraSuite Data File
++++++++++++++++++++++++++++++++++++
Date: Fri Oct 04 12:13:43 GMT-05:00 2013
User: price-jones
Dark Spectrum Present: No
Reference Spectrum Present: No
Number of Sampled Component Spectra: 1
Spectrometers: USB2+H05261
Integration Time (usec): 10000 (USB2+H05261)
Spectra Averaged: 1 (USB2+H05261)
Boxcar Smoothing: 0 (USB2+H05261)
Correct for Electrical Dark: No (USB2+H05261)
Strobe/Lamp Enabled: No (USB2+H05261)
Correct for Detector Non-linearity: No (USB2+H05261)
Correct for Stray Light: No (USB2+H05261)
Number of Pixels in Processed Spectrum: 2048
>>>>>Begin Processed Spectral Data<<<<<
365.73	9.36
365.92	9.36
366.12	9.36
366.32	0.00
366.52	0.00
366.72	0.00
366.91	0.00
367.11	0.00
367.31	0.00
367.51	0.00
367.70	0.00
367.90	0.00
368.10	0.00
368.30	0.00
368.49	0.00
368.69	0.00
368.89	0.00
369.09	0.00
369.28	0.00
369.48	0.00
369.68	0.00
369.87	0.00
370.07	0.00
370.27	0.00
370.47	0.00
370.66	0.00
370.86	0.00
371.06	2.34
371.25	0.00
371.45	30.43
371.65	0.00
371.84	0.00
372.04	0.00
372.24	0.00
372.44	63.19
372.63	0.00
372.83	11.70
373.03	42.13
373.22	30.43
373.42	32.77
373.62	46.81
373.81	0.00
374.01	9.36
374.21	32.77
374.40	0.00
374.60	39.79
374.79	60.85
374.99	0.00
375.19	9.36
375.38	53.83
375.58	65.54
375.78	11.70
375.97	0.00
376.17	4.68
376.37	4.68
376.56	70.22
376.76	25.75
376.95	56.17
377.15	0.00
377.35	65.54
377.54	35.11
377.74	58.51
377.93	46.81
378.13	79.58
378.33	128.73
378.52	0.00
378.72	39.79
378.91	0.00
379.11	39.79
379.31	37.45
379.50	2.34
379.70	30.43
379.89	46.81
380.09	42.13
380.28	84.26
380.48	0.00
380.68	0.00
380.87	0.00
381.07	0.00
381.26	0.00
381.46	77.24
381.65	0.00
381.85	44.47
382.04	14.04
382.24	0.00
382.43	0.00
382.63	60.85
382.83	51.49
383.02	9.36
383.22	95.96
383.41	37.45
383.61	37.45
383.80	23.41
384.00	0.00
384.19	51.49
384.39	11.70
384.58	51.49
384.78	0.00
384.97	58.51
385.17	16.38
385.36	91.28
385.56	42.13
385.75	11.70
385.95	0.00
386.14	0.00
386.34	28.09
386.53	49.15
386.72	0.00
386.92	65.54
387.11	14.04
387.31	28.09
387.50	51.49
387.70	11.70
387.89	32.77
388.09	28.09
388.28	7.02
388.48	28.09
388.67	16.38
388.86	0.00
389.06	32.77
389.25	42.13
389.45	102.98
389.64	39.79
389.84	56.17
390.03	0.00
390.22	35.11
390.42	32.77
390.61	18.72
390.81	65.54
391.00	51.49
391.19	16.38
391.39	2.34
391.58	60.85
391.78	0.00
391.97	16.38
392.16	93.62
392.36	72.56
392.55	81.92
392.75	23.41
392.94	0.00
393.13	88.94
393.33	53.83
393.52	0.00
393.71	11.70
393.91	32.77
394.10	28.09
394.29	0.00
394.49	9.36
394.68	30.43
394.88	81.92
395.07	23.41
395.26	0.00
395.46	65.54
395.65	32.77
395.84	65.54
396.04	88.94
396.23	0.00
396.42	11.70
396.62	37.45
396.81	0.00
397.00	0.00
397.19	88.94
397.39	42.13
397.58	53.83
397.77	39.79
397.97	4.68
398.16	0.00
398.35	91.28
398.55	0.00
398.74	74.90
398.93	58.51
399.12	2.34
399.32	28.09
399.51	32.77
399.70	0.00
399.90	65.54
400.09	21.06
400.28	18.72
400.47	42.13
400.67	18.72
400.86	53.83
401.05	53.83
401.24	0.00
401.44	37.45
401.63	51.49
401.82	39.79
402.01	2.34
402.21	0.00
402.40	0.00
402.59	84.26
402.78	77.24
402.97	11.70
403.17	18.72
403.36	0.00
403.55	16.38
403.74	30.43
403.93	0.00
404.13	46.81
404.32	70.22
404.51	112.35
404.70	44.47
404.89	124.05
405.09	35.11
405.28	37.45
405.47	32.77
405.66	39.79
405.85	30.43
406.05	25.75
406.24	44.47
406.43	35.11
406.62	32.77
406.81	88.94
407.00	21.06
407.20	154.48
407.39	23.41
407.58	0.00
407.77	56.17
407.96	0.00
408.15	63.19
408.34	0.00
408.54	56.17
408.73	0.00
408.92	60.85
409.11	77.24
409.30	93.62
409.49	86.60
409.68	0.00
409.87	0.00
410.07	0.00
410.26	18.72
410.45	28.09
410.64	25.75
410.83	35.11
411.02	0.00
411.21	0.00
411.40	35.11
411.59	0.00
411.78	28.09
411.98	81.92
412.17	0.00
412.36	11.70
412.55	0.00
412.74	60.85
412.93	0.00
413.12	53.83
413.31	16.38
413.50	65.54
413.69	35.11
413.88	81.92
414.07	102.98
414.26	37.45
414.45	37.45
414.64	107.66
414.83	23.41
415.02	49.15
415.22	0.00
415.41	18.72
415.60	56.17
415.79	28.09
415.98	30.43
416.17	32.77
416.36	2.34
416.55	0.00
416.74	79.58
416.93	49.15
417.12	21.06
417.31	58.51
417.50	44.47
417.69	79.58
417.88	65.54
418.07	77.24
418.26	98.30
418.45	7.02
418.64	107.66
418.83	42.13
419.02	39.79
419.21	53.83
419.39	21.06
419.58	42.13
419.77	70.22
419.96	0.00
420.15	49.15
420.34	46.81
420.53	23.41
420.72	53.83
420.91	21.06
421.10	39.79
421.29	67.88
421.48	0.00
421.67	0.00
421.86	56.17
422.05	124.05
422.24	25.75
422.43	28.09
422.61	7.02
422.80	49.15
422.99	35.11
423.18	44.47
423.37	67.88
423.56	53.83
423.75	44.47
423.94	56.17
424.13	0.00
424.32	9.36
424.50	65.54
424.69	35.11
424.88	46.81
425.07	51.49
425.26	72.56
425.45	53.83
425.64	16.38
425.83	121.71
426.01	46.81
426.20	91.28
426.39	16.38
426.58	9.36
426.77	4.68
426.96	11.70
427.15	63.19
427.33	81.92
427.52	56.17
427.71	42.13
427.90	28.09
428.09	9.36
428.28	77.24
428.46	63.19
428.65	23.41
428.84	42.13
429.03	65.54
429.22	0.00
429.40	37.45
429.59	53.83
429.78	56.17
429.97	72.56
430.16	51.49
430.34	65.54
430.53	42.13
430.72	42.13
430.91	0.00
431.10	63.19
431.28	0.00
431.47	84.26
431.66	35.11
431.85	4.68
432.03	63.19
432.22	74.90
432.41	81.92
432.60	98.30
432.79	0.00
432.97	51.49
433.16	91.28
433.35	70.22
433.54	53.83
433.72	9.36
433.91	72.56
434.10	30.43
434.28	63.19
434.47	25.75
434.66	56.17
434.85	91.28
435.03	67.88
435.22	81.92
435.41	0.00
435.59	46.81
435.78	35.11
435.97	74.90
436.16	79.58
436.34	58.51
436.53	84.26
436.72	4.68
436.90	98.30
437.09	23.41
437.28	37.45
437.46	9.36
437.65	86.60
437.84	25.75
438.02	86.60
438.21	23.41
438.40	32.77
438.58	14.04
438.77	25.75
438.96	70.22
439.14	0.00
439.33	88.94
439.52	102.98
439.70	0.00
439.89	9.36
440.08	100.64
440.26	23.41
440.45	0.00
440.63	7.02
440.82	16.38
441.01	65.54
441.19	67.88
441.38	23.41
441.57	9.36
441.75	51.49
441.94	14.04
442.12	21.06
442.31	21.06
442.50	98.30
442.68	11.70
442.87	0.00
443.05	110.01
443.24	49.15
443.43	0.00
443.61	86.60
443.80	49.15
443.98	117.03
444.17	117.03
444.35	51.49
444.54	67.88
444.73	0.00
444.91	53.83
445.10	49.15
445.28	58.51
445.47	58.51
445.65	49.15
445.84	67.88
446.02	23.41
446.21	65.54
446.39	58.51
446.58	37.45
446.77	0.00
446.95	88.94
447.14	67.88
447.32	25.75
447.51	0.00
447.69	51.49
447.88	18.72
448.06	37.45
448.25	70.22
448.43	42.13
448.62	81.92
448.80	42.13
448.99	49.15
449.17	70.22
449.36	51.49
449.54	11.70
449.73	77.24
449.91	117.03
450.10	105.32
450.28	117.03
450.46	37.45
450.65	37.45
450.83	30.43
451.02	88.94
451.20	32.77
451.39	11.70
451.57	93.62
451.76	37.45
451.94	56.17
452.13	28.09
452.31	79.58
452.49	37.45
452.68	51.49
452.86	56.17
453.05	0.00
453.23	67.88
453.42	126.39
453.60	112.35
453.78	23.41
453.97	37.45
454.15	42.13
454.34	28.09
454.52	88.94
454.70	60.85
454.89	84.26
455.07	65.54
455.26	44.47
455.44	56.17
455.62	28.09
455.81	79.58
455.99	37.45
456.17	88.94
456.36	23.41
456.54	42.13
456.73	16.38
456.91	46.81
457.09	72.56
457.28	110.01
457.46	14.04
457.64	63.19
457.83	18.72
458.01	74.90
458.19	105.32
458.38	65.54
458.56	35.11
458.74	42.13
458.93	67.88
459.11	46.81
459.29	77.24
459.48	112.35
459.66	72.56
459.84	102.98
460.03	53.83
460.21	35.11
460.39	110.01
460.57	42.13
460.76	28.09
460.94	65.54
461.12	107.66
461.31	65.54
461.49	163.84
461.67	65.54
461.85	77.24
462.04	35.11
462.22	156.82
462.40	28.09
462.59	70.22
462.77	72.56
462.95	35.11
463.13	91.28
463.32	32.77
463.50	11.70
463.68	2.34
463.86	28.09
464.05	74.90
464.23	58.51
464.41	93.62
464.59	67.88
464.78	56.17
464.96	0.00
465.14	91.28
465.32	0.00
465.50	67.88
465.69	51.49
465.87	72.56
466.05	0.00
466.23	28.09
466.41	0.00
466.60	88.94
466.78	51.49
466.96	35.11
467.14	58.51
467.32	74.90
467.51	60.85
467.69	49.15
467.87	39.79
468.05	46.81
468.23	110.01
468.41	30.43
468.60	18.72
468.78	35.11
468.96	18.72
469.14	11.70
469.32	44.47
469.50	9.36
469.69	4.68
469.87	70.22
470.05	98.30
470.23	56.17
470.41	121.71
470.59	35.11
470.77	37.45
470.95	28.09
471.14	25.75
471.32	98.30
471.50	67.88
471.68	67.88
471.86	0.00
472.04	44.47
472.22	84.26
472.40	7.02
472.58	60.85
472.77	70.22
472.95	25.75
473.13	161.50
473.31	21.06
473.49	74.90
473.67	107.66
473.85	39.79
474.03	0.00
474.21	21.06
474.39	70.22
474.57	35.11
474.75	28.09
474.93	67.88
475.12	65.54
475.30	77.24
475.48	86.60
475.66	95.96
475.84	93.62
476.02	74.90
476.20	163.84
476.38	67.88
476.56	58.51
476.74	77.24
476.92	21.06
477.10	77.24
477.28	28.09
477.46	18.72
477.64	25.75
477.82	2.34
478.00	28.09
478.18	63.19
478.36	86.60
478.54	25.75
478.72	91.28
478.90	119.37
479.08	4.68
479.26	11.70
479.44	46.81
479.62	65.54
479.80	44.47
479.98	16.38
480.16	18.72
480.34	44.47
480.52	46.81
480.70	98.30
480.88	14.04
481.06	77.24
481.24	25.75
481.41	21.06
481.59	63.19
481.77	56.17
481.95	121.71
482.13	14.04
482.31	65.54
482.49	70.22
482.67	39.79
482.85	72.56
483.03	56.17
483.21	25.75
483.39	11.70
483.57	37.45
483.74	102.98
483.92	77.24
484.10	86.60
484.28	28.09
484.46	65.54
484.64	56.17
484.82	65.54
485.00	88.94
485.18	2.34
485.35	44.47
485.53	95.96
485.71	21.06
485.89	117.03
486.07	131.07
486.25	102.98
486.43	37.45
486.61	46.81
486.78	131.07
486.96	53.83
487.14	145.11
487.32	91.28
487.50	58.51
487.68	88.94
487.85	16.38
488.03	21.06
488.21	67.88
488.39	84.26
488.57	49.15
488.75	18.72
488.92	112.35
489.10	91.28
489.28	70.22
489.46	102.98
489.64	7.02
489.81	16.38
489.99	98.30
490.17	81.92
490.35	32.77
490.53	86.60
490.70	58.51
490.88	58.51
491.06	35.11
491.24	67.88
491.41	0.00
491.59	39.79
491.77	79.58
491.95	16.38
492.13	131.07
492.30	107.66
492.48	67.88
492.66	74.90
492.84	70.22
493.01	11.70
493.19	72.56
493.37	74.90
493.54	88.94
493.72	58.51
493.90	35.11
494.08	39.79
494.25	88.94
494.43	67.88
494.61	70.22
494.79	58.51
494.96	11.70
495.14	86.60
495.32	7.02
495.49	81.92
495.67	42.13
495.85	105.32
496.02	37.45
496.20	9.36
496.38	65.54
496.55	110.01
496.73	56.17
496.91	74.90
497.09	65.54
497.26	100.64
497.44	49.15
497.62	110.01
497.79	79.58
497.97	25.75
498.14	98.30
498.32	4.68
498.50	51.49
498.67	88.94
498.85	112.35
499.03	11.70
499.20	63.19
499.38	98.30
499.56	39.79
499.73	42.13
499.91	25.75
500.08	105.32
500.26	63.19
500.44	81.92
500.61	49.15
500.79	77.24
500.97	65.54
501.14	70.22
501.32	84.26
501.49	37.45
501.67	114.69
501.84	117.03
502.02	102.98
502.20	102.98
502.37	46.81
502.55	77.24
502.72	42.13
502.90	67.88
503.07	56.17
503.25	98.30
503.43	79.58
503.60	23.41
503.78	79.58
503.95	79.58
504.13	84.26
504.30	84.26
504.48	84.26
504.65	49.15
504.83	46.81
505.01	98.30
505.18	63.19
505.36	67.88
505.53	56.17
505.71	72.56
505.88	98.30
506.06	28.09
506.23	53.83
506.41	100.64
506.58	119.37
506.76	86.60
506.93	70.22
507.11	67.88
507.28	110.01
507.46	102.98
507.63	42.13
507.81	35.11
507.98	58.51
508.16	65.54
508.33	93.62
508.50	131.07
508.68	79.58
508.85	23.41
509.03	91.28
509.20	4.68
509.38	91.28
509.55	42.13
509.73	124.05
509.90	79.58
510.08	79.58
510.25	18.72
510.42	98.30
510.60	88.94
510.77	102.98
510.95	107.66
511.12	114.69
511.30	77.24
511.47	39.79
511.64	102.98
511.82	131.07
511.99	114.69
512.17	32.77
512.34	84.26
512.51	65.54
512.69	121.71
512.86	44.47
513.04	145.11
513.21	37.45
513.38	70.22
513.56	30.43
513.73	93.62
513.90	114.69
514.08	93.62
514.25	114.69
514.43	74.90
514.60	81.92
514.77	98.30
514.95	53.83
515.12	107.66
515.29	93.62
515.47	28.09
515.64	84.26
515.81	49.15
515.99	79.58
516.16	95.96
516.33	98.30
516.51	2.34
516.68	98.30
516.85	93.62
517.03	56.17
517.20	74.90
517.37	53.83
517.54	81.92
517.72	16.38
517.89	70.22
518.06	98.30
518.24	138.09
518.41	46.81
518.58	37.45
518.75	35.11
518.93	63.19
519.10	25.75
519.27	74.90
519.45	56.17
519.62	88.94
519.79	100.64
519.96	30.43
520.14	93.62
520.31	32.77
520.48	126.39
520.65	65.54
520.83	91.28
521.00	74.90
521.17	74.90
521.34	63.19
521.52	39.79
521.69	60.85
521.86	37.45
522.03	84.26
522.20	74.90
522.38	142.77
522.55	117.03
522.72	91.28
522.89	63.19
523.07	107.66
523.24	18.72
523.41	117.03
523.58	100.64
523.75	14.04
523.92	112.35
524.10	133.41
524.27	53.83
524.44	46.81
524.61	105.32
524.78	65.54
524.96	138.09
525.13	49.15
525.30	100.64
525.47	49.15
525.64	126.39
525.81	93.62
525.98	100.64
526.16	4.68
526.33	135.75
526.50	58.51
526.67	16.38
526.84	107.66
527.01	46.81
527.18	42.13
527.36	63.19
527.53	30.43
527.70	42.13
527.87	145.11
528.04	58.51
528.21	74.90
528.38	74.90
528.55	86.60
528.72	0.00
528.89	105.32
529.07	142.77
529.24	98.30
529.41	74.90
529.58	49.15
529.75	121.71
529.92	58.51
530.09	44.47
530.26	84.26
530.43	95.96
530.60	58.51
530.77	84.26
530.94	67.88
531.11	21.06
531.28	88.94
531.46	51.49
531.63	98.30
531.80	18.72
531.97	35.11
532.14	93.62
532.31	138.09
532.48	42.13
532.65	63.19
532.82	110.01
532.99	49.15
533.16	53.83
533.33	74.90
533.50	23.41
533.67	53.83
533.84	105.32
534.01	117.03
534.18	0.00
534.35	56.17
534.52	39.79
534.69	105.32
534.86	44.47
535.03	121.71
535.20	124.05
535.37	37.45
535.54	88.94
535.71	84.26
535.88	30.43
536.05	138.09
536.22	105.32
536.38	44.47
536.55	91.28
536.72	46.81
536.89	56.17
537.06	32.77
537.23	117.03
537.40	65.54
537.57	112.35
537.74	114.69
537.91	70.22
538.08	53.83
538.25	65.54
538.42	161.50
538.59	93.62
538.75	65.54
538.92	84.26
539.09	98.30
539.26	152.13
539.43	152.13
539.60	39.79
539.77	128.73
539.94	60.85
540.11	53.83
540.28	74.90
540.44	102.98
540.61	51.49
540.78	51.49
540.95	128.73
541.12	91.28
541.29	77.24
541.46	86.60
541.62	107.66
541.79	51.49
541.96	70.22
542.13	86.60
542.30	119.37
542.47	25.75
542.63	32.77
542.80	53.83
542.97	74.90
543.14	74.90
543.31	25.75
543.48	49.15
543.64	133.41
543.81	39.79
543.98	133.41
544.15	63.19
544.32	105.32
544.48	112.35
544.65	0.00
544.82	133.41
544.99	107.66
545.16	77.24
545.32	23.41
545.49	60.85
545.66	65.54
545.83	63.19
546.00	21.06
546.16	74.90
546.33	77.24
546.50	49.15
546.67	105.32
546.83	135.75
547.00	100.64
547.17	23.41
547.34	39.79
547.50	44.47
547.67	67.88
547.84	30.43
548.00	110.01
548.17	74.90
548.34	70.22
548.51	49.15
548.67	11.70
548.84	35.11
549.01	88.94
549.18	0.00
549.34	44.47
549.51	70.22
549.68	70.22
549.84	138.09
550.01	70.22
550.18	88.94
550.34	39.79
550.51	81.92
550.68	119.37
550.84	93.62
551.01	67.88
551.18	72.56
551.34	0.00
551.51	0.00
551.68	14.04
551.84	25.75
552.01	91.28
552.18	74.90
552.34	77.24
552.51	67.88
552.68	44.47
552.84	117.03
553.01	67.88
553.18	84.26
553.34	77.24
553.51	0.00
553.67	18.72
553.84	154.48
554.01	46.81
554.17	49.15
554.34	121.71
554.51	44.47
554.67	53.83
554.84	39.79
555.00	51.49
555.17	0.00
555.33	58.51
555.50	58.51
555.67	107.66
555.83	86.60
556.00	100.64
556.16	84.26
556.33	72.56
556.50	72.56
556.66	79.58
556.83	63.19
556.99	95.96
557.16	126.39
557.32	91.28
557.49	63.19
557.65	74.90
557.82	88.94
557.98	95.96
558.15	93.62
558.32	39.79
558.48	70.22
558.65	0.00
558.81	46.81
558.98	44.47
559.14	56.17
559.31	88.94
559.47	81.92
559.64	56.17
559.80	93.62
559.97	95.96
560.13	102.98
560.30	42.13
560.46	105.32
560.63	77.24
560.79	4.68
560.96	25.75
561.12	58.51
561.29	63.19
561.45	79.58
561.61	93.62
561.78	86.60
561.94	60.85
562.11	140.43
562.27	39.79
562.44	67.88
562.60	70.22
562.77	39.79
562.93	18.72
563.10	110.01
563.26	88.94
563.42	46.81
563.59	0.00
563.75	121.71
563.92	110.01
564.08	107.66
564.24	84.26
564.41	23.41
564.57	56.17
564.74	114.69
564.90	88.94
565.07	121.71
565.23	67.88
565.39	79.58
565.56	4.68
565.72	67.88
565.88	107.66
566.05	56.17
566.21	88.94
566.38	56.17
566.54	0.00
566.70	42.13
566.87	86.60
567.03	81.92
567.19	35.11
567.36	77.24
567.52	60.85
567.68	102.98
567.85	128.73
568.01	93.62
568.17	91.28
568.34	42.13
568.50	86.60
568.66	72.56
568.83	100.64
568.99	102.98
569.15	112.35
569.32	58.51
569.48	0.00
569.64	14.04
569.81	81.92
569.97	44.47
570.13	39.79
570.30	119.37
570.46	49.15
570.62	81.92
570.78	30.43
570.95	72.56
571.11	58.51
571.27	93.62
571.43	63.19
571.60	114.69
571.76	98.30
571.92	100.64
572.09	65.54
572.25	63.19
572.41	18.72
572.57	117.03
572.74	32.77
572.90	65.54
573.06	0.00
573.22	60.85
573.38	135.75
573.55	23.41
573.71	156.82
573.87	86.60
574.03	107.66
574.20	84.26
574.36	88.94
574.52	84.26
574.68	93.62
574.84	72.56
575.01	131.07
575.17	9.36
575.33	32.77
575.49	51.49
575.65	93.62
575.82	35.11
575.98	63.19
576.14	88.94
576.30	182.56
576.46	84.26
576.62	65.54
576.79	37.45
576.95	49.15
577.11	105.32
577.27	46.81
577.43	70.22
577.59	107.66
577.75	63.19
577.92	0.00
578.08	79.58
578.24	93.62
578.40	95.96
578.56	128.73
578.72	2.34
578.88	37.45
579.04	63.19
579.21	0.00
579.37	51.49
579.53	95.96
579.69	56.17
579.85	35.11
580.01	72.56
580.17	70.22
580.33	53.83
580.49	23.41
580.65	81.92
580.82	53.83
580.98	135.75
581.14	138.09
581.30	114.69
581.46	93.62
581.62	79.58
581.78	46.81
581.94	39.79
582.10	102.98
582.26	18.72
582.42	37.45
582.58	91.28
582.74	16.38
582.90	25.75
583.06	18.72
583.22	65.54
583.38	60.85
583.54	86.60
583.70	42.13
583.86	9.36
584.02	114.69
584.18	98.30
584.34	63.19
584.50	9.36
584.66	121.71
584.82	39.79
584.98	145.11
585.14	30.43
585.30	124.05
585.46	128.73
585.62	147.45
585.78	32.77
585.94	42.13
586.10	32.77
586.26	49.15
586.42	107.66
586.58	30.43
586.74	74.90
586.90	0.00
587.06	163.84
587.22	14.04
587.38	4.68
587.54	49.15
587.70	91.28
587.86	30.43
588.02	44.47
588.18	79.58
588.34	86.60
588.49	65.54
588.65	72.56
588.81	9.36
588.97	42.13
589.13	0.00
589.29	93.62
589.45	58.51
589.61	79.58
589.77	81.92
589.93	46.81
590.08	51.49
590.24	23.41
590.40	44.47
590.56	28.09
590.72	25.75
590.88	117.03
591.04	21.06
591.20	60.85
591.35	42.13
591.51	114.69
591.67	102.98
591.83	110.01
591.99	58.51
592.15	28.09
592.31	91.28
592.46	58.51
592.62	93.62
592.78	84.26
592.94	77.24
593.10	70.22
593.26	25.75
593.41	28.09
593.57	128.73
593.73	77.24
593.89	77.24
594.05	79.58
594.20	46.81
594.36	110.01
594.52	44.47
594.68	105.32
594.84	74.90
594.99	0.00
595.15	74.90
595.31	180.22
595.47	21.06
595.62	37.45
595.78	53.83
595.94	91.28
596.10	133.41
596.25	53.83
596.41	98.30
596.57	23.41
596.73	60.85
596.88	110.01
597.04	100.64
597.20	46.81
597.36	7.02
597.51	39.79
597.67	95.96
597.83	0.00
597.99	21.06
598.14	110.01
598.30	126.39
598.46	154.48
598.61	77.24
598.77	74.90
598.93	86.60
599.09	53.83
599.24	37.45
599.40	133.41
599.56	0.00
599.71	84.26
599.87	119.37
600.03	32.77
600.18	65.54
600.34	81.92
600.50	91.28
600.65	51.49
600.81	49.15
600.97	0.00
601.12	102.98
601.28	84.26
601.44	79.58
601.59	100.64
601.75	110.01
601.91	86.60
602.06	23.41
602.22	86.60
602.37	25.75
602.53	0.00
602.69	98.30
602.84	56.17
603.00	67.88
603.16	133.41
603.31	72.56
603.47	4.68
603.62	88.94
603.78	77.24
603.94	51.49
604.09	95.96
604.25	39.79
604.40	81.92
604.56	58.51
604.71	100.64
604.87	63.19
605.03	30.43
605.18	11.70
605.34	74.90
605.49	145.11
605.65	63.19
605.80	42.13
605.96	95.96
606.12	32.77
606.27	42.13
606.43	56.17
606.58	53.83
606.74	56.17
606.89	77.24
607.05	44.47
607.20	84.26
607.36	37.45
607.51	135.75
607.67	51.49
607.82	53.83
607.98	79.58
608.13	133.41
608.29	133.41
608.44	35.11
608.60	49.15
608.75	0.00
608.91	32.77
609.06	56.17
609.22	168.52
609.37	93.62
609.53	56.17
609.68	56.17
609.84	133.41
609.99	46.81
610.15	32.77
610.30	110.01
610.46	84.26
610.61	105.32
610.76	37.45
610.92	77.24
611.07	49.15
611.23	100.64
611.38	23.41
611.54	18.72
611.69	133.41
611.84	84.26
612.00	56.17
612.15	70.22
612.31	102.98
612.46	65.54
612.62	58.51
612.77	0.00
612.92	100.64
613.08	91.28
613.23	110.01
613.39	18.72
613.54	9.36
613.69	117.03
613.85	126.39
614.00	72.56
614.15	49.15
614.31	84.26
614.46	77.24
614.62	114.69
614.77	138.09
614.92	21.06
615.08	159.16
615.23	23.41
615.38	0.00
615.54	114.69
615.69	2.34
615.84	67.88
616.00	65.54
616.15	49.15
616.30	67.88
616.46	30.43
616.61	14.04
616.76	58.51
616.92	44.47
617.07	25.75
617.22	145.11
617.37	21.06
617.53	56.17
617.68	46.81
617.83	0.00
617.99	28.09
618.14	44.47
618.29	30.43
618.45	46.81
618.60	0.00
618.75	53.83
618.90	86.60
619.06	49.15
619.21	86.60
619.36	49.15
619.51	16.38
619.67	60.85
619.82	37.45
619.97	0.00
620.12	117.03
620.28	44.47
620.43	49.15
620.58	74.90
620.73	70.22
620.89	93.62
621.04	86.60
621.19	105.32
621.34	42.13
621.49	46.81
621.65	79.58
621.80	131.07
621.95	93.62
622.10	32.77
622.25	39.79
622.41	0.00
622.56	0.00
622.71	49.15
622.86	112.35
623.01	28.09
623.16	16.38
623.32	60.85
623.47	0.00
623.62	16.38
623.77	84.26
623.92	63.19
624.07	112.35
624.23	91.28
624.38	119.37
624.53	84.26
624.68	56.17
624.83	49.15
624.98	86.60
625.13	0.00
625.29	37.45
625.44	74.90
625.59	30.43
625.74	93.62
625.89	98.30
626.04	53.83
626.19	35.11
626.34	79.58
626.49	23.41
626.65	32.77
626.80	46.81
626.95	56.17
627.10	88.94
627.25	67.88
627.40	18.72
627.55	65.54
627.70	126.39
627.85	105.32
628.00	46.81
628.15	9.36
628.30	81.92
628.45	95.96
628.60	49.15
628.76	77.24
628.91	86.60
629.06	44.47
629.21	28.09
629.36	63.19
629.51	28.09
629.66	95.96
629.81	65.54
629.96	56.17
630.11	102.98
630.26	2.34
630.41	37.45
630.56	133.41
630.71	25.75
630.86	16.38
631.01	67.88
631.16	44.47
631.31	112.35
631.46	77.24
631.61	51.49
631.76	70.22
631.91	84.26
632.06	39.79
632.21	110.01
632.36	58.51
632.51	0.00
632.66	95.96
632.81	58.51
632.96	91.28
633.10	0.00
633.25	37.45
633.40	46.81
633.55	30.43
633.70	93.62
633.85	98.30
634.00	0.00
634.15	25.75
634.30	51.49
634.45	81.92
634.60	42.13
634.75	35.11
634.90	0.00
635.05	35.11
635.19	14.04
635.34	7.02
635.49	91.28
635.64	65.54
635.79	42.13
635.94	128.73
636.09	77.24
636.24	39.79
636.39	14.04
636.53	0.00
636.68	44.47
636.83	95.96
636.98	79.58
637.13	0.00
637.28	37.45
637.43	9.36
637.57	112.35
637.72	2.34
637.87	51.49
638.02	105.32
638.17	16.38
638.32	60.85
638.46	28.09
638.61	105.32
638.76	42.13
638.91	63.19
639.06	102.98
639.20	117.03
639.35	0.00
639.50	65.54
639.65	46.81
639.80	88.94
639.94	70.22
640.09	128.73
640.24	37.45
640.39	28.09
640.54	77.24
640.68	65.54
640.83	58.51
640.98	65.54
641.13	0.00
641.27	60.85
641.42	126.39
641.57	23.41
641.72	86.60
641.86	7.02
642.01	0.00
642.16	77.24
642.31	70.22
642.45	102.98
642.60	0.00
642.75	77.24
642.90	0.00
643.04	98.30
643.19	46.81
643.34	93.62
643.48	107.66
643.63	110.01
643.78	30.43
643.93	70.22
644.07	0.00
644.22	63.19
644.37	35.11
644.51	30.43
644.66	102.98
644.81	98.30
644.95	53.83
645.10	65.54
645.25	67.88
645.39	0.00
645.54	53.83
645.69	98.30
645.83	84.26
645.98	67.88
646.13	16.38
646.27	0.00
646.42	0.00
646.57	42.13
646.71	53.83
646.86	56.17
647.00	95.96
647.15	102.98
647.30	98.30
647.44	46.81
647.59	21.06
647.74	42.13
647.88	65.54
648.03	11.70
648.17	67.88
648.32	4.68
648.47	79.58
648.61	46.81
648.76	56.17
648.90	117.03
649.05	105.32
649.20	102.98
649.34	35.11
649.49	0.00
649.63	28.09
649.78	0.00
649.92	42.13
650.07	42.13
650.21	67.88
650.36	114.69
650.51	84.26
650.65	102.98
650.80	58.51
650.94	42.13
651.09	0.00
651.23	63.19
651.38	42.13
651.52	18.72
651.67	88.94
651.81	46.81
651.96	44.47
652.10	63.19
652.25	39.79
652.39	56.17
652.54	60.85
652.68	30.43
652.83	100.64
652.97	53.83
653.12	32.77
653.26	72.56
653.41	98.30
653.55	0.00
653.70	14.04
653.84	67.88
653.99	145.11
654.13	58.51
654.27	7.02
654.42	0.00
654.56	0.00
654.71	2.34
654.85	0.00
655.00	65.54
655.14	42.13
655.29	18.72
655.43	74.90
655.57	70.22
655.72	39.79
655.86	65.54
656.01	53.83
656.15	84.26
656.30	21.06
656.44	0.00
656.58	51.49
656.73	39.79
656.87	0.00
657.01	91.28
657.16	0.00
657.30	58.51
657.45	77.24
657.59	28.09
657.73	30.43
657.88	56.17
658.02	42.13
658.16	9.36
658.31	168.52
658.45	56.17
658.60	42.13
658.74	65.54
658.88	37.45
659.03	0.00
659.17	18.72
659.31	7.02
659.46	18.72
659.60	91.28
659.74	25.75
659.89	58.51
660.03	16.38
660.17	0.00
660.32	46.81
660.46	21.06
660.60	0.00
660.74	28.09
660.89	58.51
661.03	14.04
661.17	4.68
661.32	93.62
661.46	65.54
661.60	21.06
661.74	0.00
661.89	60.85
662.03	44.47
662.17	70.22
662.31	72.56
662.46	0.00
662.60	2.34
662.74	63.19
662.88	67.88
663.03	37.45
663.17	56.17
663.31	21.06
663.45	32.77
663.60	60.85
663.74	0.00
663.88	67.88
664.02	4.68
664.17	7.02
664.31	88.94
664.45	72.56
664.59	0.00
664.73	84.26
664.88	28.09
665.02	0.00
665.16	65.54
665.30	63.19
665.44	88.94
665.59	91.28
665.73	74.90
665.87	23.41
666.01	67.88
666.15	60.85
666.29	18.72
666.44	11.70
666.58	28.09
666.72	16.38
666.86	60.85
667.00	133.41
667.14	53.83
667.28	63.19
667.43	53.83
667.57	4.68
667.71	65.54
667.85	39.79
667.99	51.49
668.13	79.58
668.27	30.43
668.41	37.45
668.56	72.56
668.70	60.85
668.84	72.56
668.98	49.15
669.12	37.45
669.26	105.32
669.40	0.00
669.54	60.85
669.68	0.00
669.82	42.13
669.96	46.81
670.10	30.43
670.25	79.58
670.39	39.79
670.53	95.96
670.67	72.56
670.81	42.13
670.95	70.22
671.09	60.85
671.23	65.54
671.37	74.90
671.51	44.47
671.65	53.83
671.79	72.56
671.93	95.96
672.07	63.19
672.21	77.24
672.35	42.13
672.49	42.13
672.63	84.26
672.77	30.43
672.91	0.00
673.05	30.43
673.19	51.49
673.33	65.54
673.47	67.88
673.61	72.56
673.75	49.15
673.89	0.00
674.03	0.00
674.17	21.06
674.31	112.35
674.45	56.17
674.59	98.30
674.73	58.51
674.87	37.45
675.01	0.00
675.15	53.83
675.29	0.00
675.43	37.45
675.56	51.49
675.70	0.00
675.84	131.07
675.98	16.38
676.12	72.56
676.26	49.15
676.40	70.22
676.54	56.17
676.68	84.26
676.82	37.45
676.96	30.43
677.10	42.13
677.23	77.24
677.37	49.15
677.51	63.19
677.65	65.54
677.79	0.00
677.93	37.45
678.07	74.90
678.21	93.62
678.34	79.58
678.48	14.04
678.62	16.38
678.76	39.79
678.90	100.64
679.04	60.85
679.18	32.77
679.31	86.60
679.45	0.00
679.59	30.43
679.73	56.17
679.87	51.49
680.00	18.72
680.14	42.13
680.28	35.11
680.42	2.34
680.56	72.56
680.70	23.41
680.83	7.02
680.97	16.38
681.11	0.00
681.25	79.58
681.39	72.56
681.52	0.00
681.66	77.24
681.80	42.13
681.94	0.00
682.07	70.22
682.21	72.56
682.35	0.00
682.49	58.51
682.62	9.36
682.76	107.66
682.90	21.06
683.04	60.85
683.17	0.00
683.31	56.17
683.45	95.96
683.59	46.81
683.72	79.58
683.86	79.58
684.00	81.92
684.13	93.62
684.27	98.30
684.41	14.04
684.55	53.83
684.68	30.43
684.82	21.06
684.96	65.54
685.09	14.04
685.23	16.38
685.37	30.43
685.50	88.94
685.64	39.79
685.78	72.56
685.91	44.47
686.05	23.41
686.19	0.00
686.32	65.54
686.46	23.41
686.60	0.00
686.73	28.09
686.87	0.00
687.01	39.79
687.14	53.83
687.28	58.51
687.42	25.75
687.55	67.88
687.69	102.98
687.82	0.00
687.96	0.00
688.10	32.77
688.23	14.04
688.37	58.51
688.50	74.90
688.64	4.68
688.78	81.92
688.91	23.41
689.05	110.01
689.18	9.36
689.32	0.00
689.46	42.13
689.59	9.36
689.73	51.49
689.86	18.72
690.00	42.13
690.13	0.00
690.27	51.49
690.41	18.72
690.54	23.41
690.68	72.56
690.81	98.30
690.95	0.00
691.08	0.00
691.22	51.49
691.35	44.47
691.49	88.94
691.62	65.54
691.76	117.03
691.89	32.77
692.03	145.11
692.16	44.47
692.30	117.03
692.43	16.38
692.57	0.00
692.70	44.47
692.84	112.35
692.97	60.85
693.11	65.54
693.24	72.56
693.38	30.43
693.51	0.00
693.65	21.06
693.78	2.34
693.92	107.66
694.05	32.77
694.19	135.75
694.32	9.36
694.45	0.00
694.59	2.34
694.72	105.32
694.86	72.56
694.99	23.41
695.13	0.00
695.26	63.19
695.39	39.79
695.53	65.54
695.66	0.00
695.80	65.54
695.93	0.00
696.07	14.04
696.20	0.00
696.33	84.26
696.47	37.45
696.60	58.51
696.73	72.56
696.87	107.66
697.00	56.17
697.14	0.00
697.27	0.00
697.40	23.41
697.54	28.09
697.67	23.41
697.80	0.00
697.94	46.81
698.07	39.79
698.21	60.85
698.34	32.77
698.47	88.94
698.61	39.79
698.74	58.51
698.87	0.00
699.01	0.00
699.14	0.00
699.27	37.45
699.40	11.70
699.54	51.49
699.67	18.72
699.80	65.54
699.94	0.00
700.07	60.85
700.20	79.58
700.34	23.41
700.47	44.47
700.60	25.75
700.73	0.00
700.87	32.77
701.00	35.11
701.13	2.34
701.26	100.64
701.40	46.81
701.53	35.11
701.66	121.71
701.79	65.54
701.93	35.11
702.06	11.70
702.19	37.45
702.32	30.43
702.46	49.15
702.59	7.02
702.72	28.09
702.85	2.34
702.99	0.00
703.12	49.15
703.25	49.15
703.38	56.17
703.51	53.83
703.65	30.43
703.78	0.00
703.91	77.24
704.04	98.30
704.17	67.88
704.31	91.28
704.44	86.60
704.57	23.41
704.70	0.00
704.83	60.85
704.96	16.38
705.10	18.72
705.23	0.00
>>>>>End Processed Spectral Data<<<<<
