SpectraSuite Data File
++++++++++++++++++++++++++++++++++++
Date: Fri Oct 04 12:13:28 GMT-05:00 2013
User: price-jones
Dark Spectrum Present: No
Reference Spectrum Present: No
Number of Sampled Component Spectra: 1
Spectrometers: USB2+H05261
Integration Time (usec): 10000 (USB2+H05261)
Spectra Averaged: 1 (USB2+H05261)
Boxcar Smoothing: 0 (USB2+H05261)
Correct for Electrical Dark: No (USB2+H05261)
Strobe/Lamp Enabled: No (USB2+H05261)
Correct for Detector Non-linearity: No (USB2+H05261)
Correct for Stray Light: No (USB2+H05261)
Number of Pixels in Processed Spectrum: 2048
>>>>>Begin Processed Spectral Data<<<<<
365.73	0.00
365.92	0.00
366.12	0.00
366.32	0.00
366.52	0.00
366.72	0.00
366.91	0.00
367.11	0.00
367.31	0.00
367.51	0.00
367.70	0.00
367.90	0.00
368.10	0.00
368.30	0.00
368.49	0.00
368.69	0.00
368.89	0.00
369.09	0.00
369.28	0.00
369.48	0.00
369.68	0.00
369.87	0.00
370.07	0.00
370.27	0.00
370.47	0.00
370.66	0.00
370.86	0.00
371.06	0.00
371.25	0.00
371.45	0.00
371.65	0.00
371.84	0.00
372.04	21.06
372.24	14.04
372.44	0.00
372.63	11.70
372.83	0.00
373.03	4.68
373.22	98.30
373.42	14.04
373.62	0.00
373.81	11.70
374.01	49.15
374.21	100.64
374.40	91.28
374.60	0.00
374.79	114.69
374.99	58.51
375.19	49.15
375.38	0.00
375.58	21.06
375.78	23.41
375.97	46.81
376.17	42.13
376.37	32.77
376.56	32.77
376.76	0.00
376.95	18.72
377.15	30.43
377.35	35.11
377.54	0.00
377.74	42.13
377.93	35.11
378.13	84.26
378.33	16.38
378.52	11.70
378.72	79.58
378.91	70.22
379.11	39.79
379.31	39.79
379.50	0.00
379.70	53.83
379.89	28.09
380.09	16.38
380.28	16.38
380.48	32.77
380.68	0.00
380.87	0.00
381.07	37.45
381.26	28.09
381.46	65.54
381.65	72.56
381.85	14.04
382.04	18.72
382.24	0.00
382.43	0.00
382.63	49.15
382.83	46.81
383.02	11.70
383.22	0.00
383.41	0.00
383.61	30.43
383.80	67.88
384.00	0.00
384.19	2.34
384.39	0.00
384.58	0.00
384.78	49.15
384.97	0.00
385.17	0.00
385.36	84.26
385.56	63.19
385.75	25.75
385.95	11.70
386.14	0.00
386.34	9.36
386.53	0.00
386.72	39.79
386.92	74.90
387.11	0.00
387.31	135.75
387.50	79.58
387.70	30.43
387.89	18.72
388.09	28.09
388.28	77.24
388.48	16.38
388.67	4.68
388.86	0.00
389.06	53.83
389.25	0.00
389.45	0.00
389.64	21.06
389.84	0.00
390.03	14.04
390.22	63.19
390.42	49.15
390.61	21.06
390.81	0.00
391.00	18.72
391.19	0.00
391.39	42.13
391.58	4.68
391.78	18.72
391.97	25.75
392.16	53.83
392.36	39.79
392.55	0.00
392.75	18.72
392.94	42.13
393.13	105.32
393.33	49.15
393.52	0.00
393.71	74.90
393.91	74.90
394.10	0.00
394.29	0.00
394.49	35.11
394.68	32.77
394.88	56.17
395.07	9.36
395.26	18.72
395.46	35.11
395.65	16.38
395.84	4.68
396.04	44.47
396.23	0.00
396.42	0.00
396.62	77.24
396.81	0.00
397.00	63.19
397.19	46.81
397.39	32.77
397.58	46.81
397.77	28.09
397.97	37.45
398.16	16.38
398.35	7.02
398.55	14.04
398.74	46.81
398.93	0.00
399.12	44.47
399.32	114.69
399.51	72.56
399.70	51.49
399.90	77.24
400.09	14.04
400.28	25.75
400.47	0.00
400.67	37.45
400.86	63.19
401.05	28.09
401.24	95.96
401.44	39.79
401.63	35.11
401.82	37.45
402.01	72.56
402.21	0.00
402.40	110.01
402.59	84.26
402.78	74.90
402.97	74.90
403.17	14.04
403.36	14.04
403.55	0.00
403.74	0.00
403.93	28.09
404.13	79.58
404.32	44.47
404.51	0.00
404.70	0.00
404.89	0.00
405.09	0.00
405.28	9.36
405.47	7.02
405.66	0.00
405.85	0.00
406.05	32.77
406.24	11.70
406.43	32.77
406.62	0.00
406.81	49.15
407.00	79.58
407.20	107.66
407.39	21.06
407.58	37.45
407.77	42.13
407.96	32.77
408.15	0.00
408.34	37.45
408.54	67.88
408.73	21.06
408.92	4.68
409.11	42.13
409.30	77.24
409.49	4.68
409.68	65.54
409.87	42.13
410.07	35.11
410.26	46.81
410.45	21.06
410.64	0.00
410.83	23.41
411.02	7.02
411.21	9.36
411.40	0.00
411.59	39.79
411.78	0.00
411.98	63.19
412.17	0.00
412.36	0.00
412.55	9.36
412.74	81.92
412.93	0.00
413.12	84.26
413.31	21.06
413.50	0.00
413.69	18.72
413.88	0.00
414.07	0.00
414.26	0.00
414.45	63.19
414.64	11.70
414.83	42.13
415.02	70.22
415.22	60.85
415.41	56.17
415.60	0.00
415.79	14.04
415.98	30.43
416.17	16.38
416.36	18.72
416.55	14.04
416.74	44.47
416.93	49.15
417.12	14.04
417.31	0.00
417.50	0.00
417.69	49.15
417.88	0.00
418.07	0.00
418.26	0.00
418.45	23.41
418.64	4.68
418.83	0.00
419.02	39.79
419.21	49.15
419.39	21.06
419.58	0.00
419.77	16.38
419.96	65.54
420.15	0.00
420.34	0.00
420.53	49.15
420.72	39.79
420.91	79.58
421.10	51.49
421.29	37.45
421.48	14.04
421.67	0.00
421.86	56.17
422.05	0.00
422.24	58.51
422.43	0.00
422.61	0.00
422.80	7.02
422.99	56.17
423.18	58.51
423.37	28.09
423.56	0.00
423.75	77.24
423.94	16.38
424.13	18.72
424.32	37.45
424.50	14.04
424.69	23.41
424.88	63.19
425.07	51.49
425.26	74.90
425.45	60.85
425.64	25.75
425.83	25.75
426.01	70.22
426.20	95.96
426.39	23.41
426.58	0.00
426.77	74.90
426.96	86.60
427.15	21.06
427.33	23.41
427.52	42.13
427.71	51.49
427.90	37.45
428.09	0.00
428.28	67.88
428.46	4.68
428.65	0.00
428.84	0.00
429.03	18.72
429.22	23.41
429.40	95.96
429.59	25.75
429.78	7.02
429.97	44.47
430.16	18.72
430.34	53.83
430.53	14.04
430.72	11.70
430.91	77.24
431.10	0.00
431.28	86.60
431.47	86.60
431.66	60.85
431.85	23.41
432.03	0.00
432.22	28.09
432.41	4.68
432.60	53.83
432.79	51.49
432.97	72.56
433.16	107.66
433.35	112.35
433.54	0.00
433.72	28.09
433.91	0.00
434.10	98.30
434.28	46.81
434.47	44.47
434.66	4.68
434.85	18.72
435.03	0.00
435.22	72.56
435.41	39.79
435.59	28.09
435.78	0.00
435.97	53.83
436.16	63.19
436.34	32.77
436.53	0.00
436.72	117.03
436.90	67.88
437.09	14.04
437.28	51.49
437.46	72.56
437.65	28.09
437.84	14.04
438.02	74.90
438.21	0.00
438.40	21.06
438.58	0.00
438.77	0.00
438.96	107.66
439.14	56.17
439.33	56.17
439.52	0.00
439.70	102.98
439.89	0.00
440.08	28.09
440.26	46.81
440.45	114.69
440.63	46.81
440.82	0.00
441.01	79.58
441.19	0.00
441.38	42.13
441.57	110.01
441.75	0.00
441.94	79.58
442.12	16.38
442.31	46.81
442.50	9.36
442.68	9.36
442.87	81.92
443.05	72.56
443.24	0.00
443.43	25.75
443.61	42.13
443.80	30.43
443.98	49.15
444.17	28.09
444.35	30.43
444.54	18.72
444.73	91.28
444.91	67.88
445.10	135.75
445.28	0.00
445.47	21.06
445.65	9.36
445.84	39.79
446.02	0.00
446.21	51.49
446.39	30.43
446.58	51.49
446.77	25.75
446.95	0.00
447.14	37.45
447.32	42.13
447.51	56.17
447.69	32.77
447.88	25.75
448.06	23.41
448.25	0.00
448.43	30.43
448.62	65.54
448.80	30.43
448.99	0.00
449.17	72.56
449.36	56.17
449.54	46.81
449.73	0.00
449.91	11.70
450.10	0.00
450.28	18.72
450.46	93.62
450.65	44.47
450.83	67.88
451.02	35.11
451.20	32.77
451.39	72.56
451.57	39.79
451.76	23.41
451.94	0.00
452.13	37.45
452.31	63.19
452.49	0.00
452.68	72.56
452.86	42.13
453.05	0.00
453.23	39.79
453.42	56.17
453.60	67.88
453.78	0.00
453.97	56.17
454.15	74.90
454.34	81.92
454.52	74.90
454.70	58.51
454.89	86.60
455.07	32.77
455.26	42.13
455.44	18.72
455.62	32.77
455.81	0.00
455.99	70.22
456.17	53.83
456.36	74.90
456.54	21.06
456.73	35.11
456.91	44.47
457.09	93.62
457.28	53.83
457.46	95.96
457.64	0.00
457.83	93.62
458.01	0.00
458.19	56.17
458.38	14.04
458.56	84.26
458.74	32.77
458.93	56.17
459.11	63.19
459.29	11.70
459.48	0.00
459.66	18.72
459.84	25.75
460.03	0.00
460.21	32.77
460.39	44.47
460.57	16.38
460.76	53.83
460.94	2.34
461.12	84.26
461.31	91.28
461.49	70.22
461.67	98.30
461.85	32.77
462.04	16.38
462.22	91.28
462.40	4.68
462.59	2.34
462.77	42.13
462.95	86.60
463.13	4.68
463.32	65.54
463.50	23.41
463.68	28.09
463.86	21.06
464.05	0.00
464.23	51.49
464.41	16.38
464.59	65.54
464.78	0.00
464.96	67.88
465.14	60.85
465.32	105.32
465.50	21.06
465.69	56.17
465.87	32.77
466.05	93.62
466.23	67.88
466.41	67.88
466.60	0.00
466.78	0.00
466.96	51.49
467.14	42.13
467.32	44.47
467.51	112.35
467.69	56.17
467.87	46.81
468.05	56.17
468.23	98.30
468.41	42.13
468.60	11.70
468.78	0.00
468.96	60.85
469.14	0.00
469.32	23.41
469.50	60.85
469.69	18.72
469.87	0.00
470.05	49.15
470.23	0.00
470.41	98.30
470.59	25.75
470.77	84.26
470.95	42.13
471.14	51.49
471.32	63.19
471.50	11.70
471.68	0.00
471.86	81.92
472.04	98.30
472.22	46.81
472.40	42.13
472.58	91.28
472.77	0.00
472.95	98.30
473.13	72.56
473.31	51.49
473.49	93.62
473.67	0.00
473.85	32.77
474.03	65.54
474.21	39.79
474.39	32.77
474.57	32.77
474.75	35.11
474.93	0.00
475.12	25.75
475.30	0.00
475.48	102.98
475.66	37.45
475.84	30.43
476.02	0.00
476.20	42.13
476.38	72.56
476.56	16.38
476.74	0.00
476.92	56.17
477.10	63.19
477.28	65.54
477.46	86.60
477.64	67.88
477.82	16.38
478.00	0.00
478.18	0.00
478.36	74.90
478.54	32.77
478.72	42.13
478.90	53.83
479.08	46.81
479.26	74.90
479.44	60.85
479.62	4.68
479.80	0.00
479.98	37.45
480.16	51.49
480.34	72.56
480.52	0.00
480.70	0.00
480.88	11.70
481.06	18.72
481.24	11.70
481.41	74.90
481.59	2.34
481.77	72.56
481.95	0.00
482.13	37.45
482.31	0.00
482.49	72.56
482.67	74.90
482.85	63.19
483.03	79.58
483.21	91.28
483.39	67.88
483.57	81.92
483.74	42.13
483.92	21.06
484.10	21.06
484.28	16.38
484.46	16.38
484.64	79.58
484.82	58.51
485.00	60.85
485.18	7.02
485.35	0.00
485.53	0.00
485.71	49.15
485.89	42.13
486.07	93.62
486.25	37.45
486.43	44.47
486.61	44.47
486.78	30.43
486.96	18.72
487.14	37.45
487.32	51.49
487.50	2.34
487.68	0.00
487.85	0.00
488.03	100.64
488.21	67.88
488.39	0.00
488.57	0.00
488.75	107.66
488.92	46.81
489.10	79.58
489.28	77.24
489.46	53.83
489.64	0.00
489.81	67.88
489.99	60.85
490.17	16.38
490.35	114.69
490.53	18.72
490.70	0.00
490.88	102.98
491.06	63.19
491.24	65.54
491.41	0.00
491.59	72.56
491.77	44.47
491.95	100.64
492.13	14.04
492.30	0.00
492.48	28.09
492.66	9.36
492.84	0.00
493.01	58.51
493.19	67.88
493.37	46.81
493.54	23.41
493.72	53.83
493.90	30.43
494.08	46.81
494.25	79.58
494.43	21.06
494.61	0.00
494.79	63.19
494.96	18.72
495.14	51.49
495.32	0.00
495.49	7.02
495.67	0.00
495.85	0.00
496.02	16.38
496.20	0.00
496.38	30.43
496.55	46.81
496.73	35.11
496.91	58.51
497.09	128.73
497.26	23.41
497.44	70.22
497.62	53.83
497.79	72.56
497.97	65.54
498.14	63.19
498.32	35.11
498.50	0.00
498.67	140.43
498.85	0.00
499.03	51.49
499.20	86.60
499.38	0.00
499.56	53.83
499.73	56.17
499.91	53.83
500.08	28.09
500.26	14.04
500.44	4.68
500.61	93.62
500.79	63.19
500.97	56.17
501.14	49.15
501.32	37.45
501.49	60.85
501.67	46.81
501.84	25.75
502.02	0.00
502.20	0.00
502.37	23.41
502.55	14.04
502.72	124.05
502.90	9.36
503.07	0.00
503.25	0.00
503.43	112.35
503.60	81.92
503.78	58.51
503.95	0.00
504.13	35.11
504.30	86.60
504.48	2.34
504.65	37.45
504.83	46.81
505.01	81.92
505.18	37.45
505.36	81.92
505.53	28.09
505.71	91.28
505.88	72.56
506.06	0.00
506.23	39.79
506.41	32.77
506.58	84.26
506.76	56.17
506.93	4.68
507.11	74.90
507.28	0.00
507.46	0.00
507.63	56.17
507.81	81.92
507.98	51.49
508.16	84.26
508.33	114.69
508.50	0.00
508.68	60.85
508.85	58.51
509.03	91.28
509.20	9.36
509.38	51.49
509.55	56.17
509.73	102.98
509.90	51.49
510.08	0.00
510.25	107.66
510.42	44.47
510.60	42.13
510.77	100.64
510.95	42.13
511.12	53.83
511.30	37.45
511.47	18.72
511.64	88.94
511.82	0.00
511.99	11.70
512.17	142.77
512.34	63.19
512.51	32.77
512.69	77.24
512.86	23.41
513.04	79.58
513.21	56.17
513.38	74.90
513.56	95.96
513.73	117.03
513.90	25.75
514.08	0.00
514.25	79.58
514.43	23.41
514.60	11.70
514.77	0.00
514.95	58.51
515.12	51.49
515.29	56.17
515.47	28.09
515.64	30.43
515.81	46.81
515.99	70.22
516.16	56.17
516.33	39.79
516.51	0.00
516.68	0.00
516.85	81.92
517.03	4.68
517.20	0.00
517.37	0.00
517.54	11.70
517.72	44.47
517.89	65.54
518.06	35.11
518.24	37.45
518.41	44.47
518.58	0.00
518.75	77.24
518.93	9.36
519.10	63.19
519.27	35.11
519.45	60.85
519.62	39.79
519.79	51.49
519.96	42.13
520.14	16.38
520.31	4.68
520.48	42.13
520.65	35.11
520.83	117.03
521.00	51.49
521.17	0.00
521.34	0.00
521.52	23.41
521.69	37.45
521.86	9.36
522.03	21.06
522.20	77.24
522.38	67.88
522.55	4.68
522.72	86.60
522.89	84.26
523.07	16.38
523.24	46.81
523.41	35.11
523.58	79.58
523.75	74.90
523.92	63.19
524.10	65.54
524.27	49.15
524.44	18.72
524.61	67.88
524.78	79.58
524.96	32.77
525.13	63.19
525.30	84.26
525.47	0.00
525.64	42.13
525.81	18.72
525.98	67.88
526.16	2.34
526.33	39.79
526.50	4.68
526.67	77.24
526.84	58.51
527.01	9.36
527.18	23.41
527.36	0.00
527.53	49.15
527.70	84.26
527.87	56.17
528.04	105.32
528.21	56.17
528.38	77.24
528.55	67.88
528.72	93.62
528.89	67.88
529.07	9.36
529.24	42.13
529.41	37.45
529.58	0.00
529.75	58.51
529.92	56.17
530.09	95.96
530.26	14.04
530.43	42.13
530.60	0.00
530.77	51.49
530.94	35.11
531.11	0.00
531.28	0.00
531.46	42.13
531.63	110.01
531.80	65.54
531.97	14.04
532.14	0.00
532.31	44.47
532.48	18.72
532.65	60.85
532.82	67.88
532.99	46.81
533.16	107.66
533.33	35.11
533.50	51.49
533.67	9.36
533.84	42.13
534.01	21.06
534.18	46.81
534.35	37.45
534.52	16.38
534.69	11.70
534.86	0.00
535.03	65.54
535.20	30.43
535.37	21.06
535.54	2.34
535.71	0.00
535.88	42.13
536.05	7.02
536.22	81.92
536.38	53.83
536.55	7.02
536.72	32.77
536.89	0.00
537.06	49.15
537.23	0.00
537.40	67.88
537.57	70.22
537.74	4.68
537.91	46.81
538.08	58.51
538.25	56.17
538.42	42.13
538.59	67.88
538.75	18.72
538.92	72.56
539.09	46.81
539.26	9.36
539.43	18.72
539.60	182.56
539.77	229.37
539.94	236.39
540.11	133.41
540.28	184.90
540.44	142.77
540.61	49.15
540.78	42.13
540.95	67.88
541.12	65.54
541.29	58.51
541.46	28.09
541.62	91.28
541.79	67.88
541.96	23.41
542.13	39.79
542.30	16.38
542.47	60.85
542.63	56.17
542.80	63.19
542.97	58.51
543.14	72.56
543.31	58.51
543.48	70.22
543.64	16.38
543.81	51.49
543.98	35.11
544.15	0.00
544.32	100.64
544.48	44.47
544.65	56.17
544.82	32.77
544.99	25.75
545.16	51.49
545.32	0.00
545.49	86.60
545.66	37.45
545.83	16.38
546.00	0.00
546.16	0.00
546.33	44.47
546.50	18.72
546.67	53.83
546.83	32.77
547.00	126.39
547.17	0.00
547.34	35.11
547.50	77.24
547.67	37.45
547.84	44.47
548.00	51.49
548.17	18.72
548.34	0.00
548.51	0.00
548.67	2.34
548.84	21.06
549.01	28.09
549.18	93.62
549.34	37.45
549.51	30.43
549.68	16.38
549.84	0.00
550.01	58.51
550.18	7.02
550.34	7.02
550.51	51.49
550.68	16.38
550.84	9.36
551.01	63.19
551.18	37.45
551.34	121.71
551.51	14.04
551.68	46.81
551.84	0.00
552.01	74.90
552.18	70.22
552.34	18.72
552.51	16.38
552.68	42.13
552.84	18.72
553.01	11.70
553.18	37.45
553.34	7.02
553.51	72.56
553.67	60.85
553.84	0.00
554.01	18.72
554.17	7.02
554.34	72.56
554.51	28.09
554.67	46.81
554.84	112.35
555.00	42.13
555.17	63.19
555.33	30.43
555.50	58.51
555.67	14.04
555.83	53.83
556.00	98.30
556.16	112.35
556.33	46.81
556.50	32.77
556.66	28.09
556.83	119.37
556.99	121.71
557.16	0.00
557.32	67.88
557.49	72.56
557.65	46.81
557.82	23.41
557.98	14.04
558.15	84.26
558.32	14.04
558.48	0.00
558.65	53.83
558.81	14.04
558.98	79.58
559.14	39.79
559.31	0.00
559.47	23.41
559.64	9.36
559.80	0.00
559.97	51.49
560.13	14.04
560.30	58.51
560.46	4.68
560.63	25.75
560.79	0.00
560.96	70.22
561.12	9.36
561.29	53.83
561.45	58.51
561.61	0.00
561.78	51.49
561.94	49.15
562.11	63.19
562.27	14.04
562.44	37.45
562.60	35.11
562.77	30.43
562.93	9.36
563.10	81.92
563.26	124.05
563.42	63.19
563.59	28.09
563.75	77.24
563.92	42.13
564.08	0.00
564.24	23.41
564.41	81.92
564.57	74.90
564.74	60.85
564.90	58.51
565.07	0.00
565.23	91.28
565.39	84.26
565.56	51.49
565.72	44.47
565.88	0.00
566.05	0.00
566.21	60.85
566.38	0.00
566.54	42.13
566.70	86.60
566.87	0.00
567.03	0.00
567.19	18.72
567.36	67.88
567.52	42.13
567.68	23.41
567.85	60.85
568.01	51.49
568.17	91.28
568.34	60.85
568.50	21.06
568.66	9.36
568.83	44.47
568.99	28.09
569.15	0.00
569.32	18.72
569.48	70.22
569.64	0.00
569.81	0.00
569.97	49.15
570.13	79.58
570.30	16.38
570.46	0.00
570.62	39.79
570.78	93.62
570.95	0.00
571.11	18.72
571.27	84.26
571.43	39.79
571.60	51.49
571.76	0.00
571.92	60.85
572.09	11.70
572.25	25.75
572.41	79.58
572.57	0.00
572.74	100.64
572.90	91.28
573.06	67.88
573.22	0.00
573.38	53.83
573.55	11.70
573.71	88.94
573.87	9.36
574.03	51.49
574.20	18.72
574.36	28.09
574.52	60.85
574.68	21.06
574.84	32.77
575.01	117.03
575.17	117.03
575.33	91.28
575.49	72.56
575.65	53.83
575.82	70.22
575.98	105.32
576.14	154.48
576.30	140.43
576.46	81.92
576.62	58.51
576.79	138.09
576.95	30.43
577.11	60.85
577.27	0.00
577.43	9.36
577.59	114.69
577.75	107.66
577.92	11.70
578.08	51.49
578.24	53.83
578.40	49.15
578.56	67.88
578.72	51.49
578.88	0.00
579.04	91.28
579.21	16.38
579.37	60.85
579.53	84.26
579.69	58.51
579.85	74.90
580.01	86.60
580.17	91.28
580.33	105.32
580.49	51.49
580.65	51.49
580.82	105.32
580.98	140.43
581.14	58.51
581.30	107.66
581.46	91.28
581.62	74.90
581.78	56.17
581.94	67.88
582.10	28.09
582.26	140.43
582.42	74.90
582.58	163.84
582.74	9.36
582.90	9.36
583.06	58.51
583.22	11.70
583.38	100.64
583.54	142.77
583.70	142.77
583.86	114.69
584.02	175.54
584.18	210.65
584.34	243.42
584.50	547.69
584.66	3763.58
584.82	9837.27
584.98	14237.48
585.14	12556.97
585.30	7578.65
585.46	4826.18
585.62	2935.03
585.78	1390.28
585.94	683.44
586.10	217.67
586.26	189.58
586.42	159.16
586.58	124.05
586.74	128.73
586.90	98.30
587.06	149.79
587.22	49.15
587.38	95.96
587.54	170.86
587.70	528.96
587.86	922.17
588.02	1034.52
588.18	662.37
588.34	465.77
588.49	390.87
588.65	140.43
588.81	91.28
588.97	21.06
589.13	67.88
589.29	11.70
589.45	21.06
589.61	91.28
589.77	81.92
589.93	51.49
590.08	102.98
590.24	72.56
590.40	110.01
590.56	131.07
590.72	14.04
590.88	77.24
591.04	11.70
591.20	63.19
591.35	42.13
591.51	21.06
591.67	14.04
591.83	112.35
591.99	0.00
592.15	84.26
592.31	23.41
592.46	28.09
592.62	28.09
592.78	72.56
592.94	0.00
593.10	42.13
593.26	79.58
593.41	14.04
593.57	74.90
593.73	203.63
593.89	524.28
594.05	1181.97
594.20	1746.04
594.36	1750.72
594.52	1153.88
594.68	739.61
594.84	512.58
594.99	320.65
595.15	168.52
595.31	93.62
595.47	114.69
595.62	0.00
595.78	44.47
595.94	102.98
596.10	100.64
596.25	60.85
596.41	37.45
596.57	14.04
596.73	70.22
596.88	119.37
597.04	262.14
597.20	433.00
597.36	484.49
597.51	290.23
597.67	243.42
597.83	189.58
597.99	142.77
598.14	72.56
598.30	28.09
598.46	58.51
598.61	53.83
598.77	72.56
598.93	37.45
599.09	23.41
599.24	86.60
599.40	39.79
599.56	49.15
599.71	37.45
599.87	0.00
600.03	35.11
600.18	14.04
600.34	4.68
600.50	72.56
600.65	21.06
600.81	72.56
600.97	0.00
601.12	23.41
601.28	37.45
601.44	14.04
601.59	28.09
601.75	0.00
601.91	60.85
602.06	81.92
602.22	0.00
602.37	70.22
602.53	227.03
602.69	505.56
602.84	514.92
603.00	330.02
603.16	299.59
603.31	208.31
603.47	145.11
603.62	49.15
603.78	9.36
603.94	58.51
604.09	28.09
604.25	74.90
604.40	21.06
604.56	128.73
604.71	77.24
604.87	25.75
605.03	49.15
605.18	110.01
605.34	21.06
605.49	0.00
605.65	86.60
605.80	7.02
605.96	72.56
606.12	58.51
606.27	42.13
606.43	25.75
606.58	0.00
606.74	191.92
606.89	547.69
607.05	1071.97
607.20	1568.16
607.36	1245.16
607.51	765.36
607.67	479.81
607.82	416.62
607.98	304.27
608.13	133.41
608.29	112.35
608.44	39.79
608.60	72.56
608.75	77.24
608.91	231.71
609.06	901.11
609.22	2017.54
609.37	2619.06
609.53	2225.85
609.68	1568.16
609.84	957.28
609.99	650.67
610.15	348.74
610.30	222.35
610.46	100.64
610.61	77.24
610.76	53.83
610.92	53.83
611.07	65.54
611.23	18.72
611.38	121.71
611.54	46.81
611.69	30.43
611.84	93.62
612.00	46.81
612.15	102.98
612.31	7.02
612.46	93.62
612.62	173.20
612.77	161.50
612.92	53.83
613.08	105.32
613.23	81.92
613.39	114.69
613.54	140.43
613.69	837.91
613.85	2466.92
614.00	3810.39
614.15	4227.01
614.31	2918.65
614.46	1977.75
614.62	1411.34
614.77	826.21
614.92	383.85
615.08	152.13
615.23	110.01
615.38	2.34
615.54	124.05
615.69	152.13
615.84	444.70
616.00	863.66
616.15	1146.86
616.30	854.30
616.46	505.56
616.61	374.49
616.76	264.48
616.92	149.79
617.07	81.92
617.22	81.92
617.37	4.68
617.53	51.49
617.68	56.17
617.83	110.01
617.99	56.17
618.14	105.32
618.29	39.79
618.45	23.41
618.60	102.98
618.75	44.47
618.90	117.03
619.06	37.45
619.21	102.98
619.36	0.00
619.51	0.00
619.67	65.54
619.82	91.28
619.97	0.00
620.12	37.45
620.28	105.32
620.43	67.88
620.58	46.81
620.73	0.00
620.89	77.24
621.04	145.11
621.19	297.25
621.34	416.62
621.49	589.82
621.65	615.56
621.80	421.30
621.95	313.63
622.10	170.86
622.25	110.01
622.41	88.94
622.56	88.94
622.71	65.54
622.86	0.00
623.01	35.11
623.16	37.45
623.32	0.00
623.47	58.51
623.62	46.81
623.77	42.13
623.92	21.06
624.07	86.60
624.23	30.43
624.38	124.05
624.53	88.94
624.68	56.17
624.83	98.30
624.98	7.02
625.13	46.81
625.29	23.41
625.44	107.66
625.59	21.06
625.74	79.58
625.89	159.16
626.04	435.34
626.19	1167.93
626.34	1856.04
626.49	2214.15
626.65	1661.78
626.80	1013.45
626.95	755.99
627.10	437.68
627.25	182.56
627.40	86.60
627.55	9.36
627.70	107.66
627.85	2.34
628.00	32.77
628.15	72.56
628.30	93.62
628.45	67.88
628.60	18.72
628.76	0.00
628.91	60.85
629.06	18.72
629.21	119.37
629.36	74.90
629.51	60.85
629.66	51.49
629.81	91.28
629.96	212.99
630.11	386.19
630.26	552.37
630.41	519.60
630.56	440.02
630.71	238.73
630.86	238.73
631.01	126.39
631.16	44.47
631.31	81.92
631.46	32.77
631.61	74.90
631.76	58.51
631.91	25.75
632.06	0.00
632.21	72.56
632.36	53.83
632.51	58.51
632.66	98.30
632.81	271.50
632.96	629.60
633.10	1306.02
633.25	1495.60
633.40	1221.76
633.55	950.26
633.70	596.84
633.85	341.72
634.00	203.63
634.15	124.05
634.30	21.06
634.45	133.41
634.60	56.17
634.75	21.06
634.90	126.39
635.05	23.41
635.19	63.19
635.34	63.19
635.49	16.38
635.64	63.19
635.79	18.72
635.94	32.77
636.09	25.75
636.24	18.72
636.39	0.00
636.53	60.85
636.68	30.43
636.83	25.75
636.98	0.00
637.13	49.15
637.28	0.00
637.43	37.45
637.57	131.07
637.72	580.45
637.87	1537.73
638.02	2408.41
638.17	2766.51
638.32	2029.24
638.46	1306.02
638.61	938.55
638.76	596.84
638.91	315.97
639.06	124.05
639.20	166.18
639.35	119.37
639.50	152.13
639.65	844.93
639.80	2445.86
639.94	3756.56
640.09	4201.26
640.24	3246.32
640.39	2197.76
640.54	1462.83
640.68	957.28
640.83	447.04
640.98	210.65
641.13	70.22
641.27	56.17
641.42	79.58
641.57	72.56
641.72	51.49
641.86	46.81
642.01	86.60
642.16	81.92
642.31	60.85
642.45	84.26
642.60	49.15
642.75	21.06
642.90	105.32
643.04	58.51
643.19	74.90
643.34	37.45
643.48	86.60
643.63	51.49
643.78	30.43
643.93	37.45
644.07	81.92
644.22	44.47
644.37	79.58
644.51	28.09
644.66	30.43
644.81	0.00
644.95	60.85
645.10	67.88
645.25	98.30
645.39	98.30
645.54	86.60
645.69	77.24
645.83	0.00
645.98	58.51
646.13	35.11
646.27	58.51
646.42	9.36
646.57	93.62
646.71	2.34
646.86	32.77
647.00	25.75
647.15	114.69
647.30	81.92
647.44	51.49
647.59	14.04
647.74	77.24
647.88	39.79
648.03	0.00
648.17	23.41
648.32	79.58
648.47	84.26
648.61	49.15
648.76	60.85
648.90	0.00
649.05	39.79
649.20	77.24
649.34	46.81
649.49	42.13
649.63	30.43
649.78	56.17
649.92	119.37
650.07	369.80
650.21	1064.94
650.36	1682.85
650.51	2183.72
650.65	1895.83
650.80	1282.61
650.94	847.27
651.09	545.34
651.23	278.52
651.38	65.54
651.52	39.79
651.67	88.94
651.81	84.26
651.96	131.07
652.10	117.03
652.25	88.94
652.39	39.79
652.54	0.00
652.68	119.37
652.83	280.86
652.97	606.20
653.12	826.21
653.26	695.14
653.41	496.19
653.55	339.38
653.70	241.08
653.84	138.09
653.99	79.58
654.13	14.04
654.27	0.00
654.42	56.17
654.56	58.51
654.71	0.00
654.85	53.83
655.00	0.00
655.14	0.00
655.29	14.04
655.43	67.88
655.57	28.09
655.72	44.47
655.86	25.75
656.01	0.00
656.15	9.36
656.30	21.06
656.44	88.94
656.58	28.09
656.73	0.00
656.87	28.09
657.01	56.17
657.16	46.81
657.30	0.00
657.45	107.66
657.59	25.75
657.73	37.45
657.88	53.83
658.02	0.00
658.16	91.28
658.31	51.49
658.45	25.75
658.60	60.85
658.74	39.79
658.88	0.00
659.03	74.90
659.17	60.85
659.31	191.92
659.46	507.90
659.60	870.68
659.74	1043.88
659.89	901.11
660.03	674.07
660.17	538.32
660.32	238.73
660.46	170.86
660.60	91.28
660.74	56.17
660.89	110.01
661.03	11.70
661.17	114.69
661.32	0.00
661.46	60.85
661.60	60.85
661.74	79.58
661.89	70.22
662.03	30.43
662.17	46.81
662.31	77.24
662.46	79.58
662.60	51.49
662.74	81.92
662.88	35.11
663.03	30.43
663.17	0.00
663.31	0.00
663.45	58.51
663.60	56.17
663.74	23.41
663.88	0.00
664.02	42.13
664.17	53.83
664.31	32.77
664.45	37.45
664.59	42.13
664.73	32.77
664.88	18.72
665.02	70.22
665.16	67.88
665.30	79.58
665.44	67.88
665.59	79.58
665.73	53.83
665.87	2.34
666.01	37.45
666.15	63.19
666.29	37.45
666.44	0.00
666.58	28.09
666.72	42.13
666.86	21.06
667.00	67.88
667.14	70.22
667.28	341.72
667.43	880.04
667.57	1577.52
667.71	1893.49
667.85	1657.10
667.99	1170.27
668.13	774.72
668.27	414.27
668.41	292.57
668.56	142.77
668.70	100.64
668.84	102.98
668.98	72.56
669.12	88.94
669.26	0.00
669.40	30.43
669.54	56.17
669.68	46.81
669.82	25.75
669.96	44.47
670.10	105.32
670.25	0.00
670.39	28.09
670.53	65.54
670.67	0.00
670.81	0.00
670.95	67.88
671.09	105.32
671.23	379.17
671.37	744.29
671.51	1116.44
671.65	1172.61
671.79	952.60
671.93	688.12
672.07	351.08
672.21	191.92
672.35	194.26
672.49	63.19
672.63	58.51
672.77	67.88
672.91	74.90
673.05	63.19
673.19	91.28
673.33	56.17
673.47	30.43
673.61	28.09
673.75	51.49
673.89	14.04
674.03	49.15
674.17	49.15
674.31	42.13
674.45	74.90
674.59	46.81
674.73	0.00
674.87	72.56
675.01	9.36
675.15	28.09
675.29	37.45
675.43	0.00
675.56	42.13
675.70	35.11
675.84	0.00
675.98	28.09
676.12	79.58
676.26	0.00
676.40	67.88
676.54	18.72
676.68	0.00
676.82	79.58
676.96	49.15
677.10	9.36
677.23	0.00
677.37	14.04
677.51	0.00
677.65	28.09
677.79	32.77
677.93	91.28
678.07	18.72
678.21	25.75
678.34	72.56
678.48	91.28
678.62	30.43
678.76	37.45
678.90	0.00
679.04	0.00
679.18	60.85
679.31	14.04
679.45	105.32
679.59	100.64
679.73	49.15
679.87	46.81
680.00	39.79
680.14	91.28
680.28	49.15
680.42	0.00
680.56	37.45
680.70	30.43
680.83	93.62
680.97	46.81
681.11	79.58
681.25	35.11
681.39	0.00
681.52	58.51
681.66	60.85
681.80	0.00
681.94	39.79
682.07	0.00
682.21	14.04
682.35	147.45
682.49	100.64
682.62	14.04
682.76	14.04
682.90	0.00
683.04	112.35
683.17	7.02
683.31	49.15
683.45	91.28
683.59	0.00
683.72	42.13
683.86	35.11
684.00	4.68
684.13	77.24
684.27	18.72
684.41	74.90
684.55	0.00
684.68	0.00
684.82	117.03
684.96	67.88
685.09	84.26
685.23	166.18
685.37	11.70
685.50	56.17
685.64	56.17
685.78	60.85
685.91	21.06
686.05	16.38
686.19	44.47
686.32	0.00
686.46	84.26
686.60	21.06
686.73	35.11
686.87	11.70
687.01	9.36
687.14	23.41
687.28	4.68
687.42	0.00
687.55	32.77
687.69	42.13
687.82	63.19
687.96	72.56
688.10	18.72
688.23	14.04
688.37	16.38
688.50	39.79
688.64	0.00
688.78	0.00
688.91	79.58
689.05	67.88
689.18	53.83
689.32	11.70
689.46	70.22
689.59	53.83
689.73	9.36
689.86	9.36
690.00	30.43
690.13	91.28
690.27	0.00
690.41	14.04
690.54	51.49
690.68	86.60
690.81	44.47
690.95	67.88
691.08	7.02
691.22	39.79
691.35	23.41
691.49	107.66
691.62	35.11
691.76	42.13
691.89	0.00
692.03	28.09
692.16	37.45
692.30	67.88
692.43	149.79
692.57	381.51
692.70	683.44
692.84	828.55
692.97	760.67
693.11	557.05
693.24	416.62
693.38	330.02
693.51	187.24
693.65	67.88
693.78	98.30
693.92	112.35
694.05	117.03
694.19	11.70
694.32	70.22
694.45	0.00
694.59	51.49
694.72	37.45
694.86	23.41
694.99	21.06
695.13	95.96
695.26	53.83
695.39	0.00
695.53	14.04
695.66	53.83
695.80	0.00
695.93	44.47
696.07	0.00
696.20	56.17
696.33	25.75
696.47	86.60
696.60	93.62
696.73	88.94
696.87	65.54
697.00	28.09
697.14	0.00
697.27	0.00
697.40	7.02
697.54	95.96
697.67	0.00
697.80	56.17
697.94	39.79
698.07	44.47
698.21	0.00
698.34	70.22
698.47	72.56
698.61	7.02
698.74	28.09
698.87	18.72
699.01	72.56
699.14	2.34
699.27	35.11
699.40	124.05
699.54	14.04
699.67	2.34
699.80	16.38
699.94	4.68
700.07	107.66
700.20	86.60
700.34	18.72
700.47	25.75
700.60	70.22
700.73	35.11
700.87	74.90
701.00	0.00
701.13	35.11
701.26	67.88
701.40	35.11
701.53	60.85
701.66	39.79
701.79	124.05
701.93	30.43
702.06	25.75
702.19	112.35
702.32	65.54
702.46	60.85
702.59	114.69
702.72	212.99
702.85	437.68
702.99	968.98
703.12	1451.13
703.25	1710.93
703.38	1376.24
703.51	1118.78
703.65	887.06
703.78	526.62
703.91	444.70
704.04	264.48
704.17	147.45
704.31	121.71
704.44	161.50
704.57	74.90
704.70	21.06
704.83	58.51
704.96	0.00
705.10	18.72
705.23	84.26
>>>>>End Processed Spectral Data<<<<<
