SpectraSuite Data File
++++++++++++++++++++++++++++++++++++
Date: Fri Oct 04 12:13:40 GMT-05:00 2013
User: price-jones
Dark Spectrum Present: No
Reference Spectrum Present: No
Number of Sampled Component Spectra: 1
Spectrometers: USB2+H05261
Integration Time (usec): 10000 (USB2+H05261)
Spectra Averaged: 1 (USB2+H05261)
Boxcar Smoothing: 0 (USB2+H05261)
Correct for Electrical Dark: No (USB2+H05261)
Strobe/Lamp Enabled: No (USB2+H05261)
Correct for Detector Non-linearity: No (USB2+H05261)
Correct for Stray Light: No (USB2+H05261)
Number of Pixels in Processed Spectrum: 2048
>>>>>Begin Processed Spectral Data<<<<<
365.73	9.36
365.92	9.36
366.12	9.36
366.32	0.00
366.52	0.00
366.72	0.00
366.91	0.00
367.11	0.00
367.31	0.00
367.51	0.00
367.70	0.00
367.90	0.00
368.10	0.00
368.30	0.00
368.49	0.00
368.69	0.00
368.89	0.00
369.09	0.00
369.28	0.00
369.48	0.00
369.68	0.00
369.87	0.00
370.07	0.00
370.27	0.00
370.47	0.00
370.66	0.00
370.86	0.00
371.06	0.00
371.25	28.09
371.45	0.00
371.65	0.00
371.84	0.00
372.04	0.00
372.24	0.00
372.44	0.00
372.63	28.09
372.83	7.02
373.03	77.24
373.22	16.38
373.42	18.72
373.62	21.06
373.81	32.77
374.01	98.30
374.21	28.09
374.40	11.70
374.60	0.00
374.79	0.00
374.99	39.79
375.19	9.36
375.38	77.24
375.58	25.75
375.78	51.49
375.97	51.49
376.17	0.00
376.37	0.00
376.56	32.77
376.76	25.75
376.95	0.00
377.15	58.51
377.35	58.51
377.54	0.00
377.74	39.79
377.93	44.47
378.13	14.04
378.33	16.38
378.52	58.51
378.72	21.06
378.91	0.00
379.11	0.00
379.31	0.00
379.50	0.00
379.70	0.00
379.89	37.45
380.09	32.77
380.28	51.49
380.48	23.41
380.68	39.79
380.87	0.00
381.07	28.09
381.26	107.66
381.46	9.36
381.65	79.58
381.85	0.00
382.04	0.00
382.24	0.00
382.43	0.00
382.63	58.51
382.83	39.79
383.02	16.38
383.22	32.77
383.41	32.77
383.61	46.81
383.80	49.15
384.00	51.49
384.19	2.34
384.39	63.19
384.58	7.02
384.78	4.68
384.97	35.11
385.17	0.00
385.36	0.00
385.56	0.00
385.75	32.77
385.95	14.04
386.14	0.00
386.34	44.47
386.53	2.34
386.72	35.11
386.92	23.41
387.11	21.06
387.31	0.00
387.50	4.68
387.70	0.00
387.89	23.41
388.09	0.00
388.28	42.13
388.48	74.90
388.67	60.85
388.86	2.34
389.06	42.13
389.25	0.00
389.45	0.00
389.64	30.43
389.84	25.75
390.03	49.15
390.22	28.09
390.42	63.19
390.61	25.75
390.81	18.72
391.00	14.04
391.19	0.00
391.39	0.00
391.58	0.00
391.78	0.00
391.97	49.15
392.16	0.00
392.36	0.00
392.55	0.00
392.75	32.77
392.94	7.02
393.13	37.45
393.33	0.00
393.52	0.00
393.71	30.43
393.91	9.36
394.10	11.70
394.29	14.04
394.49	0.00
394.68	51.49
394.88	0.00
395.07	9.36
395.26	74.90
395.46	65.54
395.65	51.49
395.84	51.49
396.04	28.09
396.23	44.47
396.42	32.77
396.62	60.85
396.81	0.00
397.00	0.00
397.19	42.13
397.39	32.77
397.58	126.39
397.77	39.79
397.97	63.19
398.16	16.38
398.35	16.38
398.55	42.13
398.74	79.58
398.93	42.13
399.12	42.13
399.32	0.00
399.51	51.49
399.70	81.92
399.90	98.30
400.09	28.09
400.28	65.54
400.47	0.00
400.67	0.00
400.86	4.68
401.05	100.64
401.24	35.11
401.44	42.13
401.63	100.64
401.82	79.58
402.01	25.75
402.21	86.60
402.40	98.30
402.59	46.81
402.78	46.81
402.97	60.85
403.17	58.51
403.36	49.15
403.55	7.02
403.74	14.04
403.93	65.54
404.13	70.22
404.32	0.00
404.51	9.36
404.70	77.24
404.89	65.54
405.09	95.96
405.28	58.51
405.47	37.45
405.66	0.00
405.85	0.00
406.05	23.41
406.24	42.13
406.43	35.11
406.62	44.47
406.81	67.88
407.00	0.00
407.20	11.70
407.39	7.02
407.58	95.96
407.77	65.54
407.96	53.83
408.15	79.58
408.34	0.00
408.54	145.11
408.73	32.77
408.92	0.00
409.11	0.00
409.30	0.00
409.49	0.00
409.68	70.22
409.87	14.04
410.07	16.38
410.26	58.51
410.45	21.06
410.64	2.34
410.83	0.00
411.02	18.72
411.21	100.64
411.40	4.68
411.59	67.88
411.78	0.00
411.98	72.56
412.17	49.15
412.36	60.85
412.55	77.24
412.74	93.62
412.93	9.36
413.12	42.13
413.31	0.00
413.50	51.49
413.69	0.00
413.88	37.45
414.07	23.41
414.26	14.04
414.45	86.60
414.64	49.15
414.83	14.04
415.02	88.94
415.22	0.00
415.41	18.72
415.60	72.56
415.79	32.77
415.98	4.68
416.17	7.02
416.36	84.26
416.55	0.00
416.74	44.47
416.93	156.82
417.12	100.64
417.31	39.79
417.50	88.94
417.69	4.68
417.88	67.88
418.07	30.43
418.26	32.77
418.45	51.49
418.64	79.58
418.83	0.00
419.02	63.19
419.21	51.49
419.39	42.13
419.58	81.92
419.77	11.70
419.96	14.04
420.15	39.79
420.34	7.02
420.53	88.94
420.72	42.13
420.91	63.19
421.10	105.32
421.29	93.62
421.48	81.92
421.67	84.26
421.86	35.11
422.05	25.75
422.24	0.00
422.43	18.72
422.61	0.00
422.80	21.06
422.99	100.64
423.18	72.56
423.37	67.88
423.56	37.45
423.75	0.00
423.94	21.06
424.13	102.98
424.32	58.51
424.50	37.45
424.69	110.01
424.88	63.19
425.07	49.15
425.26	0.00
425.45	114.69
425.64	32.77
425.83	53.83
426.01	77.24
426.20	46.81
426.39	7.02
426.58	58.51
426.77	0.00
426.96	44.47
427.15	30.43
427.33	35.11
427.52	30.43
427.71	42.13
427.90	128.73
428.09	46.81
428.28	58.51
428.46	105.32
428.65	0.00
428.84	30.43
429.03	88.94
429.22	11.70
429.40	9.36
429.59	42.13
429.78	7.02
429.97	25.75
430.16	0.00
430.34	9.36
430.53	0.00
430.72	0.00
430.91	56.17
431.10	67.88
431.28	35.11
431.47	0.00
431.66	46.81
431.85	39.79
432.03	11.70
432.22	28.09
432.41	128.73
432.60	9.36
432.79	53.83
432.97	107.66
433.16	79.58
433.35	58.51
433.54	0.00
433.72	60.85
433.91	74.90
434.10	53.83
434.28	2.34
434.47	7.02
434.66	9.36
434.85	18.72
435.03	46.81
435.22	25.75
435.41	112.35
435.59	86.60
435.78	37.45
435.97	105.32
436.16	42.13
436.34	4.68
436.53	98.30
436.72	39.79
436.90	18.72
437.09	98.30
437.28	18.72
437.46	65.54
437.65	63.19
437.84	88.94
438.02	25.75
438.21	84.26
438.40	30.43
438.58	11.70
438.77	16.38
438.96	0.00
439.14	74.90
439.33	14.04
439.52	79.58
439.70	21.06
439.89	72.56
440.08	56.17
440.26	51.49
440.45	23.41
440.63	39.79
440.82	58.51
441.01	70.22
441.19	9.36
441.38	0.00
441.57	114.69
441.75	53.83
441.94	121.71
442.12	21.06
442.31	77.24
442.50	51.49
442.68	23.41
442.87	0.00
443.05	67.88
443.24	74.90
443.43	28.09
443.61	30.43
443.80	0.00
443.98	70.22
444.17	93.62
444.35	74.90
444.54	0.00
444.73	95.96
444.91	21.06
445.10	25.75
445.28	37.45
445.47	0.00
445.65	14.04
445.84	21.06
446.02	49.15
446.21	28.09
446.39	0.00
446.58	117.03
446.77	74.90
446.95	39.79
447.14	44.47
447.32	37.45
447.51	124.05
447.69	72.56
447.88	79.58
448.06	86.60
448.25	65.54
448.43	42.13
448.62	23.41
448.80	14.04
448.99	79.58
449.17	37.45
449.36	7.02
449.54	0.00
449.73	32.77
449.91	65.54
450.10	98.30
450.28	140.43
450.46	81.92
450.65	14.04
450.83	56.17
451.02	0.00
451.20	77.24
451.39	91.28
451.57	91.28
451.76	51.49
451.94	77.24
452.13	77.24
452.31	21.06
452.49	9.36
452.68	74.90
452.86	39.79
453.05	32.77
453.23	100.64
453.42	28.09
453.60	135.75
453.78	53.83
453.97	51.49
454.15	46.81
454.34	121.71
454.52	30.43
454.70	60.85
454.89	112.35
455.07	37.45
455.26	37.45
455.44	70.22
455.62	42.13
455.81	51.49
455.99	28.09
456.17	63.19
456.36	56.17
456.54	44.47
456.73	86.60
456.91	46.81
457.09	4.68
457.28	58.51
457.46	58.51
457.64	35.11
457.83	2.34
458.01	70.22
458.19	65.54
458.38	140.43
458.56	51.49
458.74	74.90
458.93	9.36
459.11	117.03
459.29	0.00
459.48	56.17
459.66	28.09
459.84	84.26
460.03	72.56
460.21	23.41
460.39	16.38
460.57	81.92
460.76	67.88
460.94	37.45
461.12	4.68
461.31	95.96
461.49	39.79
461.67	67.88
461.85	72.56
462.04	37.45
462.22	56.17
462.40	95.96
462.59	65.54
462.77	51.49
462.95	88.94
463.13	39.79
463.32	25.75
463.50	7.02
463.68	58.51
463.86	140.43
464.05	91.28
464.23	39.79
464.41	42.13
464.59	28.09
464.78	81.92
464.96	28.09
465.14	60.85
465.32	0.00
465.50	119.37
465.69	72.56
465.87	56.17
466.05	58.51
466.23	65.54
466.41	46.81
466.60	0.00
466.78	124.05
466.96	58.51
467.14	0.00
467.32	63.19
467.51	98.30
467.69	44.47
467.87	65.54
468.05	63.19
468.23	58.51
468.41	16.38
468.60	32.77
468.78	0.00
468.96	77.24
469.14	56.17
469.32	74.90
469.50	112.35
469.69	14.04
469.87	81.92
470.05	70.22
470.23	14.04
470.41	70.22
470.59	51.49
470.77	51.49
470.95	79.58
471.14	53.83
471.32	79.58
471.50	53.83
471.68	46.81
471.86	60.85
472.04	42.13
472.22	0.00
472.40	51.49
472.58	91.28
472.77	72.56
472.95	23.41
473.13	35.11
473.31	65.54
473.49	79.58
473.67	84.26
473.85	56.17
474.03	93.62
474.21	70.22
474.39	65.54
474.57	0.00
474.75	70.22
474.93	72.56
475.12	72.56
475.30	128.73
475.48	100.64
475.66	37.45
475.84	44.47
476.02	51.49
476.20	72.56
476.38	74.90
476.56	32.77
476.74	28.09
476.92	56.17
477.10	9.36
477.28	0.00
477.46	53.83
477.64	0.00
477.82	93.62
478.00	56.17
478.18	117.03
478.36	65.54
478.54	72.56
478.72	79.58
478.90	11.70
479.08	100.64
479.26	0.00
479.44	56.17
479.62	42.13
479.80	35.11
479.98	44.47
480.16	30.43
480.34	67.88
480.52	32.77
480.70	98.30
480.88	32.77
481.06	102.98
481.24	63.19
481.41	91.28
481.59	56.17
481.77	133.41
481.95	67.88
482.13	42.13
482.31	117.03
482.49	32.77
482.67	91.28
482.85	110.01
483.03	56.17
483.21	114.69
483.39	84.26
483.57	4.68
483.74	74.90
483.92	44.47
484.10	37.45
484.28	86.60
484.46	53.83
484.64	32.77
484.82	100.64
485.00	91.28
485.18	63.19
485.35	16.38
485.53	0.00
485.71	0.00
485.89	28.09
486.07	84.26
486.25	0.00
486.43	77.24
486.61	51.49
486.78	39.79
486.96	42.13
487.14	65.54
487.32	30.43
487.50	72.56
487.68	84.26
487.85	63.19
488.03	63.19
488.21	35.11
488.39	81.92
488.57	110.01
488.75	142.77
488.92	117.03
489.10	77.24
489.28	42.13
489.46	128.73
489.64	51.49
489.81	98.30
489.99	74.90
490.17	147.45
490.35	110.01
490.53	32.77
490.70	149.79
490.88	140.43
491.06	58.51
491.24	135.75
491.41	93.62
491.59	0.00
491.77	63.19
491.95	86.60
492.13	72.56
492.30	84.26
492.48	39.79
492.66	23.41
492.84	35.11
493.01	44.47
493.19	63.19
493.37	77.24
493.54	95.96
493.72	23.41
493.90	114.69
494.08	35.11
494.25	58.51
494.43	93.62
494.61	98.30
494.79	58.51
494.96	93.62
495.14	70.22
495.32	72.56
495.49	35.11
495.67	105.32
495.85	42.13
496.02	79.58
496.20	81.92
496.38	100.64
496.55	74.90
496.73	147.45
496.91	105.32
497.09	65.54
497.26	159.16
497.44	51.49
497.62	88.94
497.79	84.26
497.97	60.85
498.14	72.56
498.32	72.56
498.50	72.56
498.67	70.22
498.85	117.03
499.03	18.72
499.20	128.73
499.38	154.48
499.56	49.15
499.73	117.03
499.91	91.28
500.08	126.39
500.26	88.94
500.44	117.03
500.61	11.70
500.79	91.28
500.97	93.62
501.14	30.43
501.32	100.64
501.49	44.47
501.67	7.02
501.84	126.39
502.02	86.60
502.20	91.28
502.37	81.92
502.55	32.77
502.72	28.09
502.90	35.11
503.07	65.54
503.25	98.30
503.43	25.75
503.60	46.81
503.78	56.17
503.95	67.88
504.13	28.09
504.30	88.94
504.48	72.56
504.65	0.00
504.83	149.79
505.01	35.11
505.18	67.88
505.36	138.09
505.53	79.58
505.71	58.51
505.88	77.24
506.06	114.69
506.23	133.41
506.41	98.30
506.58	124.05
506.76	102.98
506.93	72.56
507.11	114.69
507.28	79.58
507.46	112.35
507.63	86.60
507.81	110.01
507.98	67.88
508.16	117.03
508.33	72.56
508.50	107.66
508.68	77.24
508.85	72.56
509.03	63.19
509.20	67.88
509.38	166.18
509.55	84.26
509.73	107.66
509.90	93.62
510.08	119.37
510.25	91.28
510.42	67.88
510.60	51.49
510.77	126.39
510.95	37.45
511.12	63.19
511.30	25.75
511.47	84.26
511.64	46.81
511.82	72.56
511.99	110.01
512.17	95.96
512.34	124.05
512.51	81.92
512.69	67.88
512.86	152.13
513.04	156.82
513.21	7.02
513.38	72.56
513.56	126.39
513.73	25.75
513.90	84.26
514.08	142.77
514.25	110.01
514.43	135.75
514.60	79.58
514.77	100.64
514.95	51.49
515.12	100.64
515.29	74.90
515.47	74.90
515.64	65.54
515.81	74.90
515.99	81.92
516.16	63.19
516.33	72.56
516.51	81.92
516.68	119.37
516.85	46.81
517.03	49.15
517.20	35.11
517.37	84.26
517.54	51.49
517.72	88.94
517.89	124.05
518.06	46.81
518.24	65.54
518.41	79.58
518.58	110.01
518.75	91.28
518.93	126.39
519.10	42.13
519.27	95.96
519.45	81.92
519.62	140.43
519.79	117.03
519.96	93.62
520.14	63.19
520.31	98.30
520.48	46.81
520.65	117.03
520.83	81.92
521.00	65.54
521.17	70.22
521.34	86.60
521.52	102.98
521.69	49.15
521.86	84.26
522.03	93.62
522.20	84.26
522.38	77.24
522.55	51.49
522.72	175.54
522.89	74.90
523.07	152.13
523.24	95.96
523.41	114.69
523.58	79.58
523.75	70.22
523.92	124.05
524.10	81.92
524.27	91.28
524.44	124.05
524.61	74.90
524.78	86.60
524.96	60.85
525.13	145.11
525.30	37.45
525.47	46.81
525.64	51.49
525.81	110.01
525.98	88.94
526.16	107.66
526.33	72.56
526.50	56.17
526.67	72.56
526.84	46.81
527.01	77.24
527.18	23.41
527.36	74.90
527.53	39.79
527.70	42.13
527.87	25.75
528.04	65.54
528.21	65.54
528.38	149.79
528.55	67.88
528.72	70.22
528.89	121.71
529.07	49.15
529.24	67.88
529.41	152.13
529.58	79.58
529.75	35.11
529.92	21.06
530.09	18.72
530.26	37.45
530.43	131.07
530.60	140.43
530.77	128.73
530.94	128.73
531.11	119.37
531.28	65.54
531.46	74.90
531.63	30.43
531.80	112.35
531.97	63.19
532.14	128.73
532.31	70.22
532.48	102.98
532.65	53.83
532.82	30.43
532.99	84.26
533.16	0.00
533.33	0.00
533.50	95.96
533.67	95.96
533.84	65.54
534.01	77.24
534.18	102.98
534.35	72.56
534.52	37.45
534.69	67.88
534.86	131.07
535.03	168.52
535.20	81.92
535.37	110.01
535.54	114.69
535.71	91.28
535.88	58.51
536.05	46.81
536.22	37.45
536.38	138.09
536.55	100.64
536.72	86.60
536.89	21.06
537.06	67.88
537.23	100.64
537.40	79.58
537.57	74.90
537.74	95.96
537.91	56.17
538.08	95.96
538.25	39.79
538.42	81.92
538.59	77.24
538.75	28.09
538.92	2.34
539.09	105.32
539.26	28.09
539.43	138.09
539.60	98.30
539.77	49.15
539.94	77.24
540.11	110.01
540.28	126.39
540.44	135.75
540.61	124.05
540.78	154.48
540.95	126.39
541.12	65.54
541.29	86.60
541.46	65.54
541.62	25.75
541.79	32.77
541.96	51.49
542.13	84.26
542.30	112.35
542.47	168.52
542.63	110.01
542.80	93.62
542.97	0.00
543.14	119.37
543.31	154.48
543.48	11.70
543.64	95.96
543.81	72.56
543.98	88.94
544.15	100.64
544.32	70.22
544.48	100.64
544.65	63.19
544.82	86.60
544.99	77.24
545.16	142.77
545.32	67.88
545.49	30.43
545.66	74.90
545.83	51.49
546.00	119.37
546.16	74.90
546.33	86.60
546.50	67.88
546.67	112.35
546.83	58.51
547.00	25.75
547.17	60.85
547.34	49.15
547.50	105.32
547.67	60.85
547.84	98.30
548.00	119.37
548.17	35.11
548.34	117.03
548.51	63.19
548.67	51.49
548.84	142.77
549.01	145.11
549.18	98.30
549.34	65.54
549.51	187.24
549.68	74.90
549.84	67.88
550.01	95.96
550.18	91.28
550.34	93.62
550.51	84.26
550.68	102.98
550.84	51.49
551.01	86.60
551.18	119.37
551.34	112.35
551.51	124.05
551.68	86.60
551.84	205.97
552.01	119.37
552.18	138.09
552.34	60.85
552.51	42.13
552.68	46.81
552.84	102.98
553.01	53.83
553.18	86.60
553.34	32.77
553.51	84.26
553.67	154.48
553.84	63.19
554.01	159.16
554.17	67.88
554.34	60.85
554.51	124.05
554.67	93.62
554.84	84.26
555.00	145.11
555.17	117.03
555.33	44.47
555.50	49.15
555.67	35.11
555.83	100.64
556.00	72.56
556.16	114.69
556.33	74.90
556.50	0.00
556.66	88.94
556.83	58.51
556.99	23.41
557.16	128.73
557.32	81.92
557.49	49.15
557.65	60.85
557.82	56.17
557.98	37.45
558.15	49.15
558.32	124.05
558.48	63.19
558.65	84.26
558.81	168.52
558.98	44.47
559.14	0.00
559.31	93.62
559.47	72.56
559.64	72.56
559.80	30.43
559.97	0.00
560.13	51.49
560.30	37.45
560.46	79.58
560.63	133.41
560.79	175.54
560.96	131.07
561.12	56.17
561.29	46.81
561.45	114.69
561.61	117.03
561.78	126.39
561.94	35.11
562.11	0.00
562.27	84.26
562.44	25.75
562.60	49.15
562.77	70.22
562.93	11.70
563.10	128.73
563.26	88.94
563.42	112.35
563.59	110.01
563.75	46.81
563.92	37.45
564.08	53.83
564.24	135.75
564.41	11.70
564.57	35.11
564.74	86.60
564.90	39.79
565.07	95.96
565.23	18.72
565.39	39.79
565.56	86.60
565.72	77.24
565.88	30.43
566.05	91.28
566.21	70.22
566.38	53.83
566.54	74.90
566.70	124.05
566.87	105.32
567.03	79.58
567.19	77.24
567.36	67.88
567.52	95.96
567.68	93.62
567.85	65.54
568.01	110.01
568.17	56.17
568.34	46.81
568.50	93.62
568.66	107.66
568.83	46.81
568.99	84.26
569.15	67.88
569.32	25.75
569.48	74.90
569.64	58.51
569.81	65.54
569.97	37.45
570.13	37.45
570.30	16.38
570.46	35.11
570.62	102.98
570.78	105.32
570.95	112.35
571.11	100.64
571.27	102.98
571.43	140.43
571.60	88.94
571.76	56.17
571.92	112.35
572.09	74.90
572.25	65.54
572.41	58.51
572.57	63.19
572.74	124.05
572.90	91.28
573.06	70.22
573.22	0.00
573.38	72.56
573.55	112.35
573.71	81.92
573.87	110.01
574.03	77.24
574.20	74.90
574.36	91.28
574.52	58.51
574.68	51.49
574.84	58.51
575.01	72.56
575.17	91.28
575.33	28.09
575.49	81.92
575.65	117.03
575.82	84.26
575.98	67.88
576.14	86.60
576.30	95.96
576.46	21.06
576.62	81.92
576.79	70.22
576.95	98.30
577.11	49.15
577.27	65.54
577.43	74.90
577.59	14.04
577.75	16.38
577.92	128.73
578.08	56.17
578.24	18.72
578.40	149.79
578.56	65.54
578.72	102.98
578.88	86.60
579.04	60.85
579.21	0.00
579.37	100.64
579.53	60.85
579.69	93.62
579.85	49.15
580.01	91.28
580.17	67.88
580.33	60.85
580.49	124.05
580.65	107.66
580.82	107.66
580.98	124.05
581.14	60.85
581.30	79.58
581.46	53.83
581.62	131.07
581.78	112.35
581.94	16.38
582.10	81.92
582.26	84.26
582.42	70.22
582.58	124.05
582.74	86.60
582.90	114.69
583.06	102.98
583.22	91.28
583.38	49.15
583.54	84.26
583.70	112.35
583.86	32.77
584.02	88.94
584.18	60.85
584.34	114.69
584.50	65.54
584.66	28.09
584.82	70.22
584.98	58.51
585.14	152.13
585.30	28.09
585.46	63.19
585.62	114.69
585.78	32.77
585.94	18.72
586.10	74.90
586.26	110.01
586.42	77.24
586.58	53.83
586.74	117.03
586.90	18.72
587.06	102.98
587.22	81.92
587.38	88.94
587.54	67.88
587.70	65.54
587.86	84.26
588.02	58.51
588.18	32.77
588.34	124.05
588.49	107.66
588.65	49.15
588.81	72.56
588.97	53.83
589.13	18.72
589.29	56.17
589.45	112.35
589.61	93.62
589.77	49.15
589.93	32.77
590.08	112.35
590.24	67.88
590.40	107.66
590.56	93.62
590.72	86.60
590.88	74.90
591.04	93.62
591.20	21.06
591.35	81.92
591.51	35.11
591.67	44.47
591.83	100.64
591.99	46.81
592.15	72.56
592.31	86.60
592.46	124.05
592.62	65.54
592.78	105.32
592.94	77.24
593.10	32.77
593.26	39.79
593.41	2.34
593.57	86.60
593.73	107.66
593.89	53.83
594.05	63.19
594.20	100.64
594.36	88.94
594.52	28.09
594.68	9.36
594.84	46.81
594.99	81.92
595.15	44.47
595.31	51.49
595.47	131.07
595.62	32.77
595.78	56.17
595.94	37.45
596.10	79.58
596.25	105.32
596.41	142.77
596.57	0.00
596.73	60.85
596.88	32.77
597.04	23.41
597.20	93.62
597.36	88.94
597.51	105.32
597.67	0.00
597.83	44.47
597.99	135.75
598.14	46.81
598.30	53.83
598.46	88.94
598.61	53.83
598.77	51.49
598.93	0.00
599.09	93.62
599.24	70.22
599.40	93.62
599.56	112.35
599.71	44.47
599.87	124.05
600.03	63.19
600.18	135.75
600.34	93.62
600.50	53.83
600.65	117.03
600.81	114.69
600.97	9.36
601.12	86.60
601.28	0.00
601.44	32.77
601.59	102.98
601.75	91.28
601.91	65.54
602.06	91.28
602.22	77.24
602.37	63.19
602.53	46.81
602.69	105.32
602.84	79.58
603.00	30.43
603.16	60.85
603.31	53.83
603.47	67.88
603.62	93.62
603.78	81.92
603.94	14.04
604.09	93.62
604.25	56.17
604.40	117.03
604.56	102.98
604.71	67.88
604.87	56.17
605.03	30.43
605.18	67.88
605.34	107.66
605.49	32.77
605.65	98.30
605.80	114.69
605.96	56.17
606.12	21.06
606.27	39.79
606.43	67.88
606.58	30.43
606.74	107.66
606.89	67.88
607.05	42.13
607.20	11.70
607.36	4.68
607.51	65.54
607.67	95.96
607.82	65.54
607.98	124.05
608.13	93.62
608.29	37.45
608.44	21.06
608.60	39.79
608.75	84.26
608.91	93.62
609.06	44.47
609.22	28.09
609.37	14.04
609.53	53.83
609.68	32.77
609.84	4.68
609.99	9.36
610.15	67.88
610.30	0.00
610.46	175.54
610.61	105.32
610.76	28.09
610.92	84.26
611.07	98.30
611.23	0.00
611.38	91.28
611.54	154.48
611.69	93.62
611.84	95.96
612.00	102.98
612.15	53.83
612.31	65.54
612.46	56.17
612.62	79.58
612.77	70.22
612.92	53.83
613.08	65.54
613.23	46.81
613.39	84.26
613.54	67.88
613.69	37.45
613.85	124.05
614.00	70.22
614.15	65.54
614.31	67.88
614.46	58.51
614.62	11.70
614.77	28.09
614.92	70.22
615.08	72.56
615.23	49.15
615.38	42.13
615.54	25.75
615.69	119.37
615.84	98.30
616.00	70.22
616.15	95.96
616.30	25.75
616.46	18.72
616.61	72.56
616.76	107.66
616.92	79.58
617.07	98.30
617.22	74.90
617.37	56.17
617.53	56.17
617.68	37.45
617.83	86.60
617.99	44.47
618.14	124.05
618.29	0.00
618.45	93.62
618.60	37.45
618.75	37.45
618.90	30.43
619.06	65.54
619.21	16.38
619.36	53.83
619.51	46.81
619.67	25.75
619.82	0.00
619.97	37.45
620.12	74.90
620.28	14.04
620.43	100.64
620.58	98.30
620.73	67.88
620.89	140.43
621.04	30.43
621.19	79.58
621.34	44.47
621.49	65.54
621.65	86.60
621.80	86.60
621.95	42.13
622.10	77.24
622.25	18.72
622.41	152.13
622.56	63.19
622.71	28.09
622.86	63.19
623.01	100.64
623.16	18.72
623.32	58.51
623.47	72.56
623.62	72.56
623.77	42.13
623.92	102.98
624.07	7.02
624.23	32.77
624.38	49.15
624.53	32.77
624.68	112.35
624.83	53.83
624.98	65.54
625.13	117.03
625.29	37.45
625.44	86.60
625.59	112.35
625.74	35.11
625.89	67.88
626.04	100.64
626.19	100.64
626.34	28.09
626.49	74.90
626.65	140.43
626.80	16.38
626.95	37.45
627.10	56.17
627.25	0.00
627.40	11.70
627.55	107.66
627.70	98.30
627.85	72.56
628.00	39.79
628.15	93.62
628.30	49.15
628.45	30.43
628.60	25.75
628.76	53.83
628.91	51.49
629.06	37.45
629.21	65.54
629.36	44.47
629.51	18.72
629.66	53.83
629.81	74.90
629.96	25.75
630.11	42.13
630.26	42.13
630.41	42.13
630.56	46.81
630.71	121.71
630.86	37.45
631.01	84.26
631.16	100.64
631.31	102.98
631.46	88.94
631.61	51.49
631.76	7.02
631.91	98.30
632.06	98.30
632.21	23.41
632.36	56.17
632.51	35.11
632.66	25.75
632.81	32.77
632.96	114.69
633.10	30.43
633.25	67.88
633.40	86.60
633.55	37.45
633.70	28.09
633.85	53.83
634.00	28.09
634.15	88.94
634.30	0.00
634.45	91.28
634.60	88.94
634.75	0.00
634.90	21.06
635.05	37.45
635.19	32.77
635.34	58.51
635.49	16.38
635.64	49.15
635.79	88.94
635.94	58.51
636.09	37.45
636.24	114.69
636.39	23.41
636.53	0.00
636.68	74.90
636.83	98.30
636.98	112.35
637.13	191.92
637.28	51.49
637.43	21.06
637.57	11.70
637.72	0.00
637.87	56.17
638.02	4.68
638.17	98.30
638.32	42.13
638.46	117.03
638.61	91.28
638.76	131.07
638.91	51.49
639.06	23.41
639.20	93.62
639.35	102.98
639.50	0.00
639.65	44.47
639.80	84.26
639.94	88.94
640.09	51.49
640.24	18.72
640.39	95.96
640.54	74.90
640.68	114.69
640.83	65.54
640.98	35.11
641.13	84.26
641.27	95.96
641.42	51.49
641.57	60.85
641.72	124.05
641.86	30.43
642.01	58.51
642.16	51.49
642.31	53.83
642.45	44.47
642.60	77.24
642.75	53.83
642.90	58.51
643.04	14.04
643.19	58.51
643.34	4.68
643.48	86.60
643.63	86.60
643.78	32.77
643.93	70.22
644.07	37.45
644.22	16.38
644.37	77.24
644.51	37.45
644.66	60.85
644.81	74.90
644.95	0.00
645.10	126.39
645.25	28.09
645.39	0.00
645.54	49.15
645.69	60.85
645.83	79.58
645.98	114.69
646.13	39.79
646.27	121.71
646.42	0.00
646.57	21.06
646.71	14.04
646.86	74.90
647.00	21.06
647.15	2.34
647.30	49.15
647.44	46.81
647.59	49.15
647.74	0.00
647.88	14.04
648.03	77.24
648.17	84.26
648.32	102.98
648.47	77.24
648.61	53.83
648.76	56.17
648.90	77.24
649.05	93.62
649.20	42.13
649.34	7.02
649.49	28.09
649.63	121.71
649.78	60.85
649.92	60.85
650.07	86.60
650.21	53.83
650.36	25.75
650.51	46.81
650.65	72.56
650.80	86.60
650.94	25.75
651.09	0.00
651.23	53.83
651.38	14.04
651.52	28.09
651.67	86.60
651.81	77.24
651.96	107.66
652.10	70.22
652.25	0.00
652.39	102.98
652.54	67.88
652.68	0.00
652.83	86.60
652.97	42.13
653.12	0.00
653.26	35.11
653.41	39.79
653.55	84.26
653.70	79.58
653.84	21.06
653.99	84.26
654.13	46.81
654.27	124.05
654.42	0.00
654.56	42.13
654.71	119.37
654.85	93.62
655.00	37.45
655.14	100.64
655.29	100.64
655.43	98.30
655.57	84.26
655.72	98.30
655.86	25.75
656.01	39.79
656.15	67.88
656.30	74.90
656.44	0.00
656.58	11.70
656.73	74.90
656.87	0.00
657.01	88.94
657.16	37.45
657.30	58.51
657.45	65.54
657.59	93.62
657.73	25.75
657.88	35.11
658.02	42.13
658.16	131.07
658.31	112.35
658.45	51.49
658.60	46.81
658.74	124.05
658.88	25.75
659.03	18.72
659.17	88.94
659.31	58.51
659.46	18.72
659.60	102.98
659.74	32.77
659.89	72.56
660.03	58.51
660.17	44.47
660.32	23.41
660.46	28.09
660.60	14.04
660.74	77.24
660.89	25.75
661.03	44.47
661.17	114.69
661.32	56.17
661.46	79.58
661.60	0.00
661.74	67.88
661.89	86.60
662.03	67.88
662.17	112.35
662.31	37.45
662.46	53.83
662.60	32.77
662.74	91.28
662.88	86.60
663.03	51.49
663.17	81.92
663.31	77.24
663.45	46.81
663.60	9.36
663.74	0.00
663.88	100.64
664.02	44.47
664.17	0.00
664.31	74.90
664.45	79.58
664.59	46.81
664.73	46.81
664.88	44.47
665.02	37.45
665.16	0.00
665.30	37.45
665.44	53.83
665.59	67.88
665.73	77.24
665.87	147.45
666.01	60.85
666.15	18.72
666.29	93.62
666.44	0.00
666.58	37.45
666.72	16.38
666.86	18.72
667.00	25.75
667.14	102.98
667.28	88.94
667.43	23.41
667.57	30.43
667.71	0.00
667.85	16.38
667.99	65.54
668.13	0.00
668.27	60.85
668.41	86.60
668.56	28.09
668.70	58.51
668.84	117.03
668.98	7.02
669.12	56.17
669.26	58.51
669.40	77.24
669.54	0.00
669.68	140.43
669.82	25.75
669.96	0.00
670.10	58.51
670.25	72.56
670.39	67.88
670.53	53.83
670.67	56.17
670.81	42.13
670.95	46.81
671.09	0.00
671.23	32.77
671.37	32.77
671.51	72.56
671.65	110.01
671.79	72.56
671.93	7.02
672.07	44.47
672.21	74.90
672.35	91.28
672.49	114.69
672.63	79.58
672.77	4.68
672.91	0.00
673.05	93.62
673.19	25.75
673.33	0.00
673.47	28.09
673.61	0.00
673.75	42.13
673.89	25.75
674.03	18.72
674.17	53.83
674.31	79.58
674.45	25.75
674.59	30.43
674.73	37.45
674.87	58.51
675.01	91.28
675.15	51.49
675.29	91.28
675.43	44.47
675.56	74.90
675.70	88.94
675.84	18.72
675.98	28.09
676.12	46.81
676.26	56.17
676.40	16.38
676.54	100.64
676.68	28.09
676.82	25.75
676.96	74.90
677.10	138.09
677.23	67.88
677.37	42.13
677.51	46.81
677.65	95.96
677.79	93.62
677.93	0.00
678.07	81.92
678.21	11.70
678.34	0.00
678.48	0.00
678.62	28.09
678.76	0.00
678.90	32.77
679.04	28.09
679.18	30.43
679.31	72.56
679.45	23.41
679.59	60.85
679.73	51.49
679.87	131.07
680.00	23.41
680.14	74.90
680.28	4.68
680.42	93.62
680.56	74.90
680.70	14.04
680.83	60.85
680.97	14.04
681.11	0.00
681.25	86.60
681.39	35.11
681.52	21.06
681.66	42.13
681.80	16.38
681.94	39.79
682.07	14.04
682.21	56.17
682.35	58.51
682.49	0.00
682.62	84.26
682.76	53.83
682.90	39.79
683.04	0.00
683.17	7.02
683.31	0.00
683.45	23.41
683.59	53.83
683.72	53.83
683.86	112.35
684.00	0.00
684.13	23.41
684.27	30.43
684.41	42.13
684.55	28.09
684.68	49.15
684.82	37.45
684.96	0.00
685.09	37.45
685.23	86.60
685.37	74.90
685.50	65.54
685.64	0.00
685.78	25.75
685.91	42.13
686.05	58.51
686.19	67.88
686.32	49.15
686.46	32.77
686.60	28.09
686.73	30.43
686.87	51.49
687.01	39.79
687.14	23.41
687.28	0.00
687.42	46.81
687.55	30.43
687.69	0.00
687.82	37.45
687.96	21.06
688.10	44.47
688.23	0.00
688.37	21.06
688.50	0.00
688.64	51.49
688.78	67.88
688.91	0.00
689.05	0.00
689.18	0.00
689.32	107.66
689.46	37.45
689.59	0.00
689.73	0.00
689.86	18.72
690.00	74.90
690.13	25.75
690.27	74.90
690.41	84.26
690.54	14.04
690.68	0.00
690.81	88.94
690.95	44.47
691.08	74.90
691.22	7.02
691.35	46.81
691.49	44.47
691.62	4.68
691.76	25.75
691.89	53.83
692.03	53.83
692.16	0.00
692.30	16.38
692.43	4.68
692.57	126.39
692.70	9.36
692.84	65.54
692.97	58.51
693.11	70.22
693.24	28.09
693.38	39.79
693.51	65.54
693.65	42.13
693.78	81.92
693.92	133.41
694.05	11.70
694.19	37.45
694.32	51.49
694.45	28.09
694.59	0.00
694.72	51.49
694.86	56.17
694.99	65.54
695.13	53.83
695.26	37.45
695.39	23.41
695.53	72.56
695.66	30.43
695.80	42.13
695.93	0.00
696.07	7.02
696.20	39.79
696.33	88.94
696.47	81.92
696.60	77.24
696.73	0.00
696.87	46.81
697.00	37.45
697.14	77.24
697.27	74.90
697.40	72.56
697.54	0.00
697.67	0.00
697.80	32.77
697.94	44.47
698.07	32.77
698.21	2.34
698.34	11.70
698.47	37.45
698.61	0.00
698.74	51.49
698.87	49.15
699.01	35.11
699.14	11.70
699.27	0.00
699.40	25.75
699.54	0.00
699.67	65.54
699.80	16.38
699.94	51.49
700.07	81.92
700.20	53.83
700.34	14.04
700.47	51.49
700.60	46.81
700.73	0.00
700.87	117.03
701.00	49.15
701.13	95.96
701.26	53.83
701.40	18.72
701.53	32.77
701.66	77.24
701.79	0.00
701.93	42.13
702.06	65.54
702.19	124.05
702.32	63.19
702.46	79.58
702.59	35.11
702.72	0.00
702.85	102.98
702.99	18.72
703.12	44.47
703.25	0.00
703.38	0.00
703.51	0.00
703.65	0.00
703.78	0.00
703.91	102.98
704.04	42.13
704.17	30.43
704.31	21.06
704.44	51.49
704.57	0.00
704.70	72.56
704.83	46.81
704.96	11.70
705.10	32.77
705.23	7.02
>>>>>End Processed Spectral Data<<<<<
