SpectraSuite Data File
++++++++++++++++++++++++++++++++++++
Date: Fri Oct 04 12:13:41 GMT-05:00 2013
User: price-jones
Dark Spectrum Present: No
Reference Spectrum Present: No
Number of Sampled Component Spectra: 1
Spectrometers: USB2+H05261
Integration Time (usec): 10000 (USB2+H05261)
Spectra Averaged: 1 (USB2+H05261)
Boxcar Smoothing: 0 (USB2+H05261)
Correct for Electrical Dark: No (USB2+H05261)
Strobe/Lamp Enabled: No (USB2+H05261)
Correct for Detector Non-linearity: No (USB2+H05261)
Correct for Stray Light: No (USB2+H05261)
Number of Pixels in Processed Spectrum: 2048
>>>>>Begin Processed Spectral Data<<<<<
365.73	7.02
365.92	7.02
366.12	7.02
366.32	0.00
366.52	0.00
366.72	0.00
366.91	0.00
367.11	0.00
367.31	0.00
367.51	0.00
367.70	0.00
367.90	0.00
368.10	0.00
368.30	0.00
368.49	0.00
368.69	0.00
368.89	0.00
369.09	0.00
369.28	0.00
369.48	0.00
369.68	0.00
369.87	0.00
370.07	0.00
370.27	0.00
370.47	0.00
370.66	0.00
370.86	0.00
371.06	0.00
371.25	0.00
371.45	0.00
371.65	0.00
371.84	0.00
372.04	0.00
372.24	37.45
372.44	21.06
372.63	56.17
372.83	0.00
373.03	32.77
373.22	21.06
373.42	63.19
373.62	0.00
373.81	35.11
374.01	14.04
374.21	42.13
374.40	14.04
374.60	60.85
374.79	53.83
374.99	28.09
375.19	28.09
375.38	0.00
375.58	67.88
375.78	39.79
375.97	56.17
376.17	0.00
376.37	23.41
376.56	0.00
376.76	49.15
376.95	0.00
377.15	95.96
377.35	2.34
377.54	51.49
377.74	30.43
377.93	0.00
378.13	117.03
378.33	32.77
378.52	44.47
378.72	60.85
378.91	0.00
379.11	72.56
379.31	37.45
379.50	30.43
379.70	30.43
379.89	30.43
380.09	42.13
380.28	0.00
380.48	37.45
380.68	37.45
380.87	30.43
381.07	4.68
381.26	0.00
381.46	0.00
381.65	53.83
381.85	9.36
382.04	21.06
382.24	72.56
382.43	23.41
382.63	18.72
382.83	35.11
383.02	28.09
383.22	44.47
383.41	9.36
383.61	35.11
383.80	58.51
384.00	44.47
384.19	16.38
384.39	0.00
384.58	21.06
384.78	0.00
384.97	32.77
385.17	53.83
385.36	58.51
385.56	0.00
385.75	4.68
385.95	37.45
386.14	25.75
386.34	16.38
386.53	7.02
386.72	0.00
386.92	0.00
387.11	14.04
387.31	67.88
387.50	7.02
387.70	0.00
387.89	0.00
388.09	77.24
388.28	93.62
388.48	2.34
388.67	44.47
388.86	28.09
389.06	93.62
389.25	9.36
389.45	0.00
389.64	4.68
389.84	28.09
390.03	74.90
390.22	70.22
390.42	16.38
390.61	21.06
390.81	44.47
391.00	67.88
391.19	51.49
391.39	9.36
391.58	72.56
391.78	58.51
391.97	0.00
392.16	46.81
392.36	98.30
392.55	21.06
392.75	0.00
392.94	42.13
393.13	11.70
393.33	7.02
393.52	51.49
393.71	9.36
393.91	25.75
394.10	16.38
394.29	4.68
394.49	0.00
394.68	65.54
394.88	4.68
395.07	56.17
395.26	0.00
395.46	28.09
395.65	0.00
395.84	58.51
396.04	21.06
396.23	0.00
396.42	4.68
396.62	93.62
396.81	0.00
397.00	14.04
397.19	0.00
397.39	0.00
397.58	2.34
397.77	23.41
397.97	0.00
398.16	49.15
398.35	16.38
398.55	56.17
398.74	30.43
398.93	7.02
399.12	28.09
399.32	53.83
399.51	72.56
399.70	42.13
399.90	0.00
400.09	65.54
400.28	93.62
400.47	0.00
400.67	30.43
400.86	35.11
401.05	35.11
401.24	46.81
401.44	30.43
401.63	35.11
401.82	0.00
402.01	88.94
402.21	16.38
402.40	63.19
402.59	30.43
402.78	0.00
402.97	7.02
403.17	28.09
403.36	0.00
403.55	53.83
403.74	0.00
403.93	0.00
404.13	95.96
404.32	70.22
404.51	14.04
404.70	23.41
404.89	14.04
405.09	84.26
405.28	14.04
405.47	53.83
405.66	0.00
405.85	102.98
406.05	11.70
406.24	23.41
406.43	0.00
406.62	11.70
406.81	30.43
407.00	65.54
407.20	11.70
407.39	0.00
407.58	37.45
407.77	0.00
407.96	0.00
408.15	0.00
408.34	72.56
408.54	28.09
408.73	4.68
408.92	42.13
409.11	7.02
409.30	2.34
409.49	77.24
409.68	9.36
409.87	0.00
410.07	18.72
410.26	53.83
410.45	56.17
410.64	51.49
410.83	0.00
411.02	30.43
411.21	0.00
411.40	7.02
411.59	0.00
411.78	0.00
411.98	30.43
412.17	70.22
412.36	32.77
412.55	0.00
412.74	58.51
412.93	100.64
413.12	46.81
413.31	49.15
413.50	7.02
413.69	0.00
413.88	18.72
414.07	2.34
414.26	32.77
414.45	14.04
414.64	16.38
414.83	46.81
415.02	9.36
415.22	60.85
415.41	77.24
415.60	46.81
415.79	93.62
415.98	56.17
416.17	74.90
416.36	30.43
416.55	98.30
416.74	53.83
416.93	58.51
417.12	0.00
417.31	135.75
417.50	53.83
417.69	25.75
417.88	44.47
418.07	4.68
418.26	51.49
418.45	0.00
418.64	7.02
418.83	65.54
419.02	23.41
419.21	53.83
419.39	11.70
419.58	44.47
419.77	46.81
419.96	42.13
420.15	58.51
420.34	67.88
420.53	53.83
420.72	37.45
420.91	93.62
421.10	72.56
421.29	81.92
421.48	46.81
421.67	79.58
421.86	60.85
422.05	81.92
422.24	88.94
422.43	65.54
422.61	35.11
422.80	0.00
422.99	0.00
423.18	72.56
423.37	63.19
423.56	11.70
423.75	32.77
423.94	28.09
424.13	16.38
424.32	16.38
424.50	14.04
424.69	11.70
424.88	70.22
425.07	91.28
425.26	0.00
425.45	60.85
425.64	70.22
425.83	28.09
426.01	95.96
426.20	35.11
426.39	53.83
426.58	65.54
426.77	25.75
426.96	28.09
427.15	0.00
427.33	21.06
427.52	53.83
427.71	105.32
427.90	14.04
428.09	42.13
428.28	56.17
428.46	44.47
428.65	49.15
428.84	58.51
429.03	100.64
429.22	77.24
429.40	28.09
429.59	79.58
429.78	72.56
429.97	49.15
430.16	39.79
430.34	0.00
430.53	51.49
430.72	53.83
430.91	4.68
431.10	21.06
431.28	0.00
431.47	117.03
431.66	18.72
431.85	102.98
432.03	9.36
432.22	9.36
432.41	0.00
432.60	86.60
432.79	110.01
432.97	72.56
433.16	23.41
433.35	32.77
433.54	74.90
433.72	74.90
433.91	79.58
434.10	81.92
434.28	70.22
434.47	42.13
434.66	112.35
434.85	25.75
435.03	32.77
435.22	0.00
435.41	0.00
435.59	42.13
435.78	49.15
435.97	58.51
436.16	79.58
436.34	79.58
436.53	86.60
436.72	98.30
436.90	63.19
437.09	60.85
437.28	42.13
437.46	42.13
437.65	100.64
437.84	77.24
438.02	72.56
438.21	119.37
438.40	98.30
438.58	14.04
438.77	0.00
438.96	56.17
439.14	16.38
439.33	91.28
439.52	84.26
439.70	44.47
439.89	51.49
440.08	53.83
440.26	42.13
440.45	133.41
440.63	28.09
440.82	67.88
441.01	30.43
441.19	91.28
441.38	49.15
441.57	28.09
441.75	28.09
441.94	56.17
442.12	21.06
442.31	39.79
442.50	84.26
442.68	23.41
442.87	35.11
443.05	18.72
443.24	58.51
443.43	86.60
443.61	163.84
443.80	18.72
443.98	56.17
444.17	84.26
444.35	2.34
444.54	44.47
444.73	84.26
444.91	77.24
445.10	105.32
445.28	58.51
445.47	84.26
445.65	56.17
445.84	30.43
446.02	53.83
446.21	95.96
446.39	65.54
446.58	44.47
446.77	11.70
446.95	128.73
447.14	105.32
447.32	86.60
447.51	67.88
447.69	81.92
447.88	28.09
448.06	88.94
448.25	72.56
448.43	0.00
448.62	0.00
448.80	91.28
448.99	84.26
449.17	60.85
449.36	102.98
449.54	56.17
449.73	63.19
449.91	77.24
450.10	0.00
450.28	105.32
450.46	65.54
450.65	77.24
450.83	70.22
451.02	74.90
451.20	37.45
451.39	30.43
451.57	0.00
451.76	4.68
451.94	44.47
452.13	30.43
452.31	56.17
452.49	14.04
452.68	39.79
452.86	44.47
453.05	2.34
453.23	56.17
453.42	51.49
453.60	51.49
453.78	56.17
453.97	37.45
454.15	95.96
454.34	84.26
454.52	0.00
454.70	25.75
454.89	53.83
455.07	53.83
455.26	72.56
455.44	142.77
455.62	65.54
455.81	53.83
455.99	81.92
456.17	77.24
456.36	44.47
456.54	84.26
456.73	88.94
456.91	49.15
457.09	28.09
457.28	21.06
457.46	0.00
457.64	28.09
457.83	0.00
458.01	49.15
458.19	32.77
458.38	105.32
458.56	0.00
458.74	0.00
458.93	88.94
459.11	107.66
459.29	53.83
459.48	44.47
459.66	107.66
459.84	70.22
460.03	65.54
460.21	86.60
460.39	35.11
460.57	35.11
460.76	42.13
460.94	44.47
461.12	93.62
461.31	9.36
461.49	14.04
461.67	18.72
461.85	58.51
462.04	46.81
462.22	105.32
462.40	65.54
462.59	86.60
462.77	18.72
462.95	84.26
463.13	28.09
463.32	0.00
463.50	51.49
463.68	37.45
463.86	0.00
464.05	124.05
464.23	100.64
464.41	28.09
464.59	72.56
464.78	95.96
464.96	56.17
465.14	0.00
465.32	39.79
465.50	95.96
465.69	60.85
465.87	37.45
466.05	25.75
466.23	53.83
466.41	91.28
466.60	63.19
466.78	70.22
466.96	131.07
467.14	16.38
467.32	77.24
467.51	102.98
467.69	112.35
467.87	114.69
468.05	35.11
468.23	88.94
468.41	21.06
468.60	138.09
468.78	114.69
468.96	56.17
469.14	95.96
469.32	60.85
469.50	63.19
469.69	37.45
469.87	65.54
470.05	58.51
470.23	81.92
470.41	35.11
470.59	51.49
470.77	67.88
470.95	58.51
471.14	23.41
471.32	0.00
471.50	44.47
471.68	0.00
471.86	100.64
472.04	42.13
472.22	100.64
472.40	32.77
472.58	138.09
472.77	46.81
472.95	23.41
473.13	77.24
473.31	67.88
473.49	79.58
473.67	4.68
473.85	126.39
474.03	42.13
474.21	70.22
474.39	46.81
474.57	58.51
474.75	70.22
474.93	110.01
475.12	0.00
475.30	25.75
475.48	51.49
475.66	9.36
475.84	49.15
476.02	81.92
476.20	117.03
476.38	74.90
476.56	79.58
476.74	79.58
476.92	46.81
477.10	0.00
477.28	56.17
477.46	32.77
477.64	0.00
477.82	100.64
478.00	23.41
478.18	145.11
478.36	53.83
478.54	84.26
478.72	30.43
478.90	4.68
479.08	46.81
479.26	81.92
479.44	65.54
479.62	46.81
479.80	53.83
479.98	49.15
480.16	23.41
480.34	56.17
480.52	86.60
480.70	56.17
480.88	65.54
481.06	138.09
481.24	84.26
481.41	60.85
481.59	70.22
481.77	65.54
481.95	51.49
482.13	147.45
482.31	100.64
482.49	79.58
482.67	53.83
482.85	44.47
483.03	49.15
483.21	84.26
483.39	42.13
483.57	112.35
483.74	79.58
483.92	46.81
484.10	91.28
484.28	88.94
484.46	88.94
484.64	35.11
484.82	0.00
485.00	0.00
485.18	28.09
485.35	18.72
485.53	102.98
485.71	32.77
485.89	60.85
486.07	63.19
486.25	56.17
486.43	39.79
486.61	7.02
486.78	53.83
486.96	56.17
487.14	88.94
487.32	88.94
487.50	133.41
487.68	86.60
487.85	133.41
488.03	49.15
488.21	35.11
488.39	74.90
488.57	117.03
488.75	72.56
488.92	72.56
489.10	46.81
489.28	21.06
489.46	30.43
489.64	95.96
489.81	107.66
489.99	0.00
490.17	84.26
490.35	60.85
490.53	91.28
490.70	58.51
490.88	95.96
491.06	39.79
491.24	93.62
491.41	112.35
491.59	102.98
491.77	67.88
491.95	49.15
492.13	126.39
492.30	138.09
492.48	60.85
492.66	88.94
492.84	28.09
493.01	74.90
493.19	147.45
493.37	110.01
493.54	84.26
493.72	119.37
493.90	53.83
494.08	72.56
494.25	25.75
494.43	51.49
494.61	60.85
494.79	107.66
494.96	37.45
495.14	28.09
495.32	0.00
495.49	16.38
495.67	51.49
495.85	37.45
496.02	107.66
496.20	0.00
496.38	4.68
496.55	30.43
496.73	70.22
496.91	53.83
497.09	67.88
497.26	105.32
497.44	142.77
497.62	67.88
497.79	18.72
497.97	138.09
498.14	58.51
498.32	86.60
498.50	44.47
498.67	65.54
498.85	58.51
499.03	84.26
499.20	142.77
499.38	117.03
499.56	53.83
499.73	23.41
499.91	32.77
500.08	84.26
500.26	67.88
500.44	70.22
500.61	102.98
500.79	84.26
500.97	112.35
501.14	107.66
501.32	126.39
501.49	23.41
501.67	65.54
501.84	65.54
502.02	149.79
502.20	51.49
502.37	28.09
502.55	65.54
502.72	95.96
502.90	88.94
503.07	67.88
503.25	112.35
503.43	145.11
503.60	93.62
503.78	88.94
503.95	39.79
504.13	135.75
504.30	39.79
504.48	53.83
504.65	32.77
504.83	100.64
505.01	107.66
505.18	102.98
505.36	131.07
505.53	133.41
505.71	51.49
505.88	58.51
506.06	121.71
506.23	93.62
506.41	131.07
506.58	60.85
506.76	65.54
506.93	88.94
507.11	117.03
507.28	49.15
507.46	84.26
507.63	112.35
507.81	70.22
507.98	114.69
508.16	77.24
508.33	65.54
508.50	88.94
508.68	65.54
508.85	102.98
509.03	21.06
509.20	121.71
509.38	145.11
509.55	93.62
509.73	79.58
509.90	95.96
510.08	56.17
510.25	51.49
510.42	63.19
510.60	133.41
510.77	112.35
510.95	65.54
511.12	56.17
511.30	93.62
511.47	93.62
511.64	72.56
511.82	86.60
511.99	102.98
512.17	86.60
512.34	70.22
512.51	0.00
512.69	119.37
512.86	21.06
513.04	105.32
513.21	91.28
513.38	46.81
513.56	16.38
513.73	65.54
513.90	102.98
514.08	110.01
514.25	65.54
514.43	30.43
514.60	105.32
514.77	161.50
514.95	63.19
515.12	131.07
515.29	81.92
515.47	53.83
515.64	74.90
515.81	86.60
515.99	67.88
516.16	56.17
516.33	0.00
516.51	77.24
516.68	63.19
516.85	0.00
517.03	46.81
517.20	112.35
517.37	102.98
517.54	147.45
517.72	95.96
517.89	39.79
518.06	112.35
518.24	102.98
518.41	74.90
518.58	39.79
518.75	74.90
518.93	32.77
519.10	46.81
519.27	37.45
519.45	84.26
519.62	39.79
519.79	105.32
519.96	67.88
520.14	95.96
520.31	70.22
520.48	51.49
520.65	65.54
520.83	114.69
521.00	149.79
521.17	100.64
521.34	100.64
521.52	105.32
521.69	60.85
521.86	152.13
522.03	135.75
522.20	77.24
522.38	28.09
522.55	56.17
522.72	128.73
522.89	163.84
523.07	105.32
523.24	79.58
523.41	98.30
523.58	81.92
523.75	95.96
523.92	70.22
524.10	121.71
524.27	39.79
524.44	42.13
524.61	112.35
524.78	28.09
524.96	107.66
525.13	145.11
525.30	58.51
525.47	79.58
525.64	100.64
525.81	35.11
525.98	124.05
526.16	63.19
526.33	110.01
526.50	18.72
526.67	74.90
526.84	58.51
527.01	88.94
527.18	135.75
527.36	74.90
527.53	84.26
527.70	138.09
527.87	107.66
528.04	67.88
528.21	86.60
528.38	102.98
528.55	114.69
528.72	126.39
528.89	86.60
529.07	88.94
529.24	98.30
529.41	28.09
529.58	91.28
529.75	84.26
529.92	88.94
530.09	67.88
530.26	112.35
530.43	88.94
530.60	70.22
530.77	0.00
530.94	88.94
531.11	81.92
531.28	100.64
531.46	88.94
531.63	124.05
531.80	170.86
531.97	88.94
532.14	58.51
532.31	58.51
532.48	49.15
532.65	93.62
532.82	60.85
532.99	42.13
533.16	58.51
533.33	11.70
533.50	0.00
533.67	105.32
533.84	135.75
534.01	81.92
534.18	53.83
534.35	42.13
534.52	72.56
534.69	119.37
534.86	119.37
535.03	65.54
535.20	93.62
535.37	46.81
535.54	91.28
535.71	105.32
535.88	65.54
536.05	14.04
536.22	126.39
536.38	84.26
536.55	131.07
536.72	51.49
536.89	0.00
537.06	67.88
537.23	86.60
537.40	58.51
537.57	86.60
537.74	152.13
537.91	88.94
538.08	9.36
538.25	42.13
538.42	53.83
538.59	65.54
538.75	14.04
538.92	65.54
539.09	107.66
539.26	93.62
539.43	46.81
539.60	44.47
539.77	110.01
539.94	72.56
540.11	49.15
540.28	107.66
540.44	135.75
540.61	79.58
540.78	145.11
540.95	32.77
541.12	84.26
541.29	84.26
541.46	79.58
541.62	100.64
541.79	105.32
541.96	63.19
542.13	72.56
542.30	65.54
542.47	135.75
542.63	100.64
542.80	46.81
542.97	95.96
543.14	42.13
543.31	110.01
543.48	58.51
543.64	161.50
543.81	65.54
543.98	86.60
544.15	84.26
544.32	128.73
544.48	58.51
544.65	58.51
544.82	77.24
544.99	93.62
545.16	100.64
545.32	88.94
545.49	65.54
545.66	119.37
545.83	49.15
546.00	81.92
546.16	124.05
546.33	60.85
546.50	58.51
546.67	60.85
546.83	42.13
547.00	131.07
547.17	138.09
547.34	49.15
547.50	105.32
547.67	63.19
547.84	44.47
548.00	105.32
548.17	79.58
548.34	107.66
548.51	128.73
548.67	91.28
548.84	51.49
549.01	86.60
549.18	74.90
549.34	37.45
549.51	110.01
549.68	70.22
549.84	70.22
550.01	32.77
550.18	63.19
550.34	65.54
550.51	86.60
550.68	138.09
550.84	149.79
551.01	98.30
551.18	58.51
551.34	53.83
551.51	105.32
551.68	60.85
551.84	121.71
552.01	110.01
552.18	88.94
552.34	128.73
552.51	117.03
552.68	77.24
552.84	126.39
553.01	16.38
553.18	28.09
553.34	46.81
553.51	93.62
553.67	74.90
553.84	30.43
554.01	74.90
554.17	77.24
554.34	67.88
554.51	135.75
554.67	46.81
554.84	49.15
555.00	88.94
555.17	121.71
555.33	72.56
555.50	119.37
555.67	49.15
555.83	46.81
556.00	114.69
556.16	147.45
556.33	72.56
556.50	30.43
556.66	112.35
556.83	98.30
556.99	81.92
557.16	53.83
557.32	37.45
557.49	58.51
557.65	133.41
557.82	102.98
557.98	70.22
558.15	51.49
558.32	142.77
558.48	147.45
558.65	95.96
558.81	142.77
558.98	63.19
559.14	0.00
559.31	35.11
559.47	102.98
559.64	105.32
559.80	56.17
559.97	133.41
560.13	58.51
560.30	74.90
560.46	95.96
560.63	114.69
560.79	105.32
560.96	102.98
561.12	30.43
561.29	159.16
561.45	163.84
561.61	77.24
561.78	91.28
561.94	86.60
562.11	100.64
562.27	51.49
562.44	142.77
562.60	84.26
562.77	98.30
562.93	102.98
563.10	81.92
563.26	86.60
563.42	67.88
563.59	95.96
563.75	56.17
563.92	49.15
564.08	84.26
564.24	88.94
564.41	100.64
564.57	56.17
564.74	133.41
564.90	79.58
565.07	16.38
565.23	119.37
565.39	114.69
565.56	28.09
565.72	58.51
565.88	42.13
566.05	0.00
566.21	65.54
566.38	88.94
566.54	58.51
566.70	14.04
566.87	135.75
567.03	7.02
567.19	65.54
567.36	18.72
567.52	100.64
567.68	51.49
567.85	58.51
568.01	44.47
568.17	117.03
568.34	56.17
568.50	135.75
568.66	138.09
568.83	0.00
568.99	35.11
569.15	56.17
569.32	88.94
569.48	128.73
569.64	107.66
569.81	107.66
569.97	0.00
570.13	35.11
570.30	88.94
570.46	126.39
570.62	37.45
570.78	37.45
570.95	65.54
571.11	65.54
571.27	65.54
571.43	49.15
571.60	105.32
571.76	2.34
571.92	58.51
572.09	11.70
572.25	100.64
572.41	37.45
572.57	72.56
572.74	105.32
572.90	4.68
573.06	74.90
573.22	117.03
573.38	95.96
573.55	56.17
573.71	117.03
573.87	25.75
574.03	102.98
574.20	124.05
574.36	93.62
574.52	84.26
574.68	63.19
574.84	135.75
575.01	100.64
575.17	49.15
575.33	138.09
575.49	49.15
575.65	72.56
575.82	42.13
575.98	100.64
576.14	44.47
576.30	63.19
576.46	107.66
576.62	173.20
576.79	60.85
576.95	72.56
577.11	51.49
577.27	95.96
577.43	0.00
577.59	88.94
577.75	37.45
577.92	84.26
578.08	37.45
578.24	105.32
578.40	105.32
578.56	117.03
578.72	84.26
578.88	77.24
579.04	51.49
579.21	100.64
579.37	138.09
579.53	70.22
579.69	21.06
579.85	46.81
580.01	107.66
580.17	49.15
580.33	16.38
580.49	56.17
580.65	65.54
580.82	117.03
580.98	74.90
581.14	84.26
581.30	58.51
581.46	74.90
581.62	140.43
581.78	65.54
581.94	53.83
582.10	112.35
582.26	67.88
582.42	35.11
582.58	42.13
582.74	79.58
582.90	51.49
583.06	133.41
583.22	28.09
583.38	58.51
583.54	100.64
583.70	131.07
583.86	58.51
584.02	149.79
584.18	42.13
584.34	93.62
584.50	140.43
584.66	53.83
584.82	98.30
584.98	88.94
585.14	53.83
585.30	119.37
585.46	110.01
585.62	51.49
585.78	44.47
585.94	42.13
586.10	107.66
586.26	60.85
586.42	9.36
586.58	56.17
586.74	95.96
586.90	46.81
587.06	149.79
587.22	67.88
587.38	161.50
587.54	133.41
587.70	0.00
587.86	91.28
588.02	60.85
588.18	53.83
588.34	72.56
588.49	110.01
588.65	49.15
588.81	4.68
588.97	37.45
589.13	84.26
589.29	100.64
589.45	23.41
589.61	32.77
589.77	98.30
589.93	88.94
590.08	42.13
590.24	30.43
590.40	0.00
590.56	140.43
590.72	145.11
590.88	100.64
591.04	51.49
591.20	65.54
591.35	93.62
591.51	49.15
591.67	81.92
591.83	46.81
591.99	21.06
592.15	128.73
592.31	124.05
592.46	53.83
592.62	91.28
592.78	35.11
592.94	128.73
593.10	112.35
593.26	86.60
593.41	0.00
593.57	51.49
593.73	9.36
593.89	63.19
594.05	112.35
594.20	93.62
594.36	77.24
594.52	63.19
594.68	133.41
594.84	121.71
594.99	25.75
595.15	126.39
595.31	63.19
595.47	84.26
595.62	72.56
595.78	49.15
595.94	93.62
596.10	77.24
596.25	56.17
596.41	121.71
596.57	135.75
596.73	93.62
596.88	42.13
597.04	51.49
597.20	121.71
597.36	93.62
597.51	35.11
597.67	74.90
597.83	110.01
597.99	56.17
598.14	77.24
598.30	91.28
598.46	51.49
598.61	70.22
598.77	67.88
598.93	25.75
599.09	56.17
599.24	77.24
599.40	70.22
599.56	46.81
599.71	100.64
599.87	67.88
600.03	30.43
600.18	58.51
600.34	74.90
600.50	37.45
600.65	39.79
600.81	138.09
600.97	86.60
601.12	93.62
601.28	81.92
601.44	110.01
601.59	58.51
601.75	46.81
601.91	91.28
602.06	91.28
602.22	65.54
602.37	107.66
602.53	84.26
602.69	60.85
602.84	70.22
603.00	56.17
603.16	74.90
603.31	98.30
603.47	37.45
603.62	39.79
603.78	49.15
603.94	119.37
604.09	79.58
604.25	58.51
604.40	121.71
604.56	63.19
604.71	79.58
604.87	131.07
605.03	42.13
605.18	100.64
605.34	79.58
605.49	51.49
605.65	100.64
605.80	77.24
605.96	67.88
606.12	84.26
606.27	126.39
606.43	84.26
606.58	74.90
606.74	32.77
606.89	81.92
607.05	30.43
607.20	53.83
607.36	60.85
607.51	131.07
607.67	100.64
607.82	35.11
607.98	86.60
608.13	60.85
608.29	77.24
608.44	65.54
608.60	35.11
608.75	100.64
608.91	74.90
609.06	93.62
609.22	70.22
609.37	0.00
609.53	60.85
609.68	84.26
609.84	95.96
609.99	35.11
610.15	51.49
610.30	56.17
610.46	56.17
610.61	60.85
610.76	0.00
610.92	112.35
611.07	32.77
611.23	91.28
611.38	56.17
611.54	77.24
611.69	77.24
611.84	124.05
612.00	58.51
612.15	35.11
612.31	58.51
612.46	56.17
612.62	67.88
612.77	25.75
612.92	23.41
613.08	14.04
613.23	117.03
613.39	74.90
613.54	105.32
613.69	39.79
613.85	65.54
614.00	74.90
614.15	23.41
614.31	98.30
614.46	77.24
614.62	84.26
614.77	0.00
614.92	44.47
615.08	138.09
615.23	105.32
615.38	131.07
615.54	58.51
615.69	74.90
615.84	72.56
616.00	74.90
616.15	53.83
616.30	32.77
616.46	74.90
616.61	91.28
616.76	39.79
616.92	72.56
617.07	60.85
617.22	44.47
617.37	37.45
617.53	53.83
617.68	72.56
617.83	2.34
617.99	145.11
618.14	53.83
618.29	51.49
618.45	21.06
618.60	51.49
618.75	114.69
618.90	49.15
619.06	18.72
619.21	70.22
619.36	114.69
619.51	42.13
619.67	28.09
619.82	46.81
619.97	74.90
620.12	84.26
620.28	51.49
620.43	72.56
620.58	60.85
620.73	138.09
620.89	86.60
621.04	44.47
621.19	74.90
621.34	128.73
621.49	0.00
621.65	35.11
621.80	0.00
621.95	28.09
622.10	21.06
622.25	49.15
622.41	39.79
622.56	53.83
622.71	95.96
622.86	110.01
623.01	81.92
623.16	51.49
623.32	28.09
623.47	93.62
623.62	102.98
623.77	46.81
623.92	58.51
624.07	91.28
624.23	51.49
624.38	74.90
624.53	74.90
624.68	53.83
624.83	112.35
624.98	81.92
625.13	44.47
625.29	67.88
625.44	30.43
625.59	65.54
625.74	56.17
625.89	53.83
626.04	25.75
626.19	79.58
626.34	93.62
626.49	58.51
626.65	67.88
626.80	65.54
626.95	67.88
627.10	39.79
627.25	58.51
627.40	58.51
627.55	91.28
627.70	117.03
627.85	117.03
628.00	119.37
628.15	56.17
628.30	98.30
628.45	37.45
628.60	23.41
628.76	2.34
628.91	70.22
629.06	30.43
629.21	0.00
629.36	30.43
629.51	102.98
629.66	42.13
629.81	16.38
629.96	105.32
630.11	42.13
630.26	53.83
630.41	154.48
630.56	46.81
630.71	2.34
630.86	98.30
631.01	35.11
631.16	0.00
631.31	110.01
631.46	110.01
631.61	58.51
631.76	49.15
631.91	16.38
632.06	86.60
632.21	30.43
632.36	60.85
632.51	0.00
632.66	18.72
632.81	142.77
632.96	91.28
633.10	81.92
633.25	70.22
633.40	107.66
633.55	16.38
633.70	35.11
633.85	93.62
634.00	21.06
634.15	119.37
634.30	88.94
634.45	56.17
634.60	84.26
634.75	70.22
634.90	98.30
635.05	72.56
635.19	74.90
635.34	18.72
635.49	79.58
635.64	49.15
635.79	14.04
635.94	25.75
636.09	16.38
636.24	0.00
636.39	77.24
636.53	51.49
636.68	49.15
636.83	39.79
636.98	65.54
637.13	51.49
637.28	107.66
637.43	117.03
637.57	14.04
637.72	56.17
637.87	88.94
638.02	25.75
638.17	72.56
638.32	37.45
638.46	16.38
638.61	25.75
638.76	124.05
638.91	77.24
639.06	23.41
639.20	98.30
639.35	39.79
639.50	18.72
639.65	88.94
639.80	28.09
639.94	102.98
640.09	56.17
640.24	37.45
640.39	121.71
640.54	128.73
640.68	0.00
640.83	11.70
640.98	86.60
641.13	32.77
641.27	77.24
641.42	67.88
641.57	39.79
641.72	25.75
641.86	21.06
642.01	74.90
642.16	74.90
642.31	84.26
642.45	65.54
642.60	88.94
642.75	63.19
642.90	4.68
643.04	51.49
643.19	14.04
643.34	91.28
643.48	56.17
643.63	72.56
643.78	117.03
643.93	25.75
644.07	11.70
644.22	67.88
644.37	98.30
644.51	28.09
644.66	7.02
644.81	121.71
644.95	88.94
645.10	107.66
645.25	21.06
645.39	98.30
645.54	51.49
645.69	25.75
645.83	23.41
645.98	72.56
646.13	14.04
646.27	11.70
646.42	67.88
646.57	91.28
646.71	39.79
646.86	23.41
647.00	53.83
647.15	51.49
647.30	37.45
647.44	114.69
647.59	42.13
647.74	65.54
647.88	30.43
648.03	117.03
648.17	49.15
648.32	0.00
648.47	63.19
648.61	77.24
648.76	0.00
648.90	14.04
649.05	142.77
649.20	0.00
649.34	65.54
649.49	79.58
649.63	46.81
649.78	0.00
649.92	18.72
650.07	56.17
650.21	88.94
650.36	0.00
650.51	35.11
650.65	72.56
650.80	30.43
650.94	0.00
651.09	37.45
651.23	70.22
651.38	30.43
651.52	39.79
651.67	56.17
651.81	81.92
651.96	79.58
652.10	79.58
652.25	0.00
652.39	28.09
652.54	58.51
652.68	105.32
652.83	58.51
652.97	51.49
653.12	74.90
653.26	46.81
653.41	51.49
653.55	51.49
653.70	37.45
653.84	46.81
653.99	49.15
654.13	77.24
654.27	11.70
654.42	56.17
654.56	51.49
654.71	95.96
654.85	70.22
655.00	0.00
655.14	0.00
655.29	23.41
655.43	124.05
655.57	77.24
655.72	65.54
655.86	110.01
656.01	28.09
656.15	77.24
656.30	98.30
656.44	32.77
656.58	32.77
656.73	72.56
656.87	77.24
657.01	28.09
657.16	42.13
657.30	84.26
657.45	51.49
657.59	110.01
657.73	107.66
657.88	0.00
658.02	81.92
658.16	88.94
658.31	114.69
658.45	119.37
658.60	28.09
658.74	72.56
658.88	56.17
659.03	0.00
659.17	25.75
659.31	60.85
659.46	18.72
659.60	79.58
659.74	16.38
659.89	77.24
660.03	0.00
660.17	28.09
660.32	72.56
660.46	49.15
660.60	105.32
660.74	0.00
660.89	60.85
661.03	81.92
661.17	30.43
661.32	0.00
661.46	67.88
661.60	74.90
661.74	88.94
661.89	67.88
662.03	35.11
662.17	37.45
662.31	60.85
662.46	0.00
662.60	16.38
662.74	16.38
662.88	46.81
663.03	46.81
663.17	0.00
663.31	49.15
663.45	51.49
663.60	56.17
663.74	16.38
663.88	49.15
664.02	74.90
664.17	56.17
664.31	56.17
664.45	81.92
664.59	70.22
664.73	0.00
664.88	37.45
665.02	81.92
665.16	23.41
665.30	18.72
665.44	0.00
665.59	63.19
665.73	79.58
665.87	46.81
666.01	107.66
666.15	9.36
666.29	51.49
666.44	105.32
666.58	49.15
666.72	88.94
666.86	46.81
667.00	18.72
667.14	51.49
667.28	44.47
667.43	28.09
667.57	88.94
667.71	49.15
667.85	0.00
667.99	95.96
668.13	88.94
668.27	30.43
668.41	23.41
668.56	0.00
668.70	9.36
668.84	37.45
668.98	21.06
669.12	14.04
669.26	0.00
669.40	18.72
669.54	74.90
669.68	44.47
669.82	16.38
669.96	37.45
670.10	77.24
670.25	0.00
670.39	51.49
670.53	16.38
670.67	25.75
670.81	107.66
670.95	37.45
671.09	25.75
671.23	58.51
671.37	88.94
671.51	18.72
671.65	65.54
671.79	9.36
671.93	53.83
672.07	44.47
672.21	63.19
672.35	39.79
672.49	60.85
672.63	86.60
672.77	30.43
672.91	77.24
673.05	102.98
673.19	102.98
673.33	70.22
673.47	74.90
673.61	58.51
673.75	60.85
673.89	81.92
674.03	9.36
674.17	42.13
674.31	0.00
674.45	28.09
674.59	28.09
674.73	2.34
674.87	28.09
675.01	42.13
675.15	53.83
675.29	53.83
675.43	37.45
675.56	84.26
675.70	91.28
675.84	37.45
675.98	0.00
676.12	65.54
676.26	4.68
676.40	86.60
676.54	0.00
676.68	30.43
676.82	42.13
676.96	149.79
677.10	65.54
677.23	11.70
677.37	21.06
677.51	51.49
677.65	72.56
677.79	7.02
677.93	16.38
678.07	0.00
678.21	0.00
678.34	51.49
678.48	39.79
678.62	25.75
678.76	51.49
678.90	18.72
679.04	63.19
679.18	84.26
679.31	65.54
679.45	0.00
679.59	107.66
679.73	95.96
679.87	32.77
680.00	67.88
680.14	7.02
680.28	124.05
680.42	23.41
680.56	53.83
680.70	14.04
680.83	131.07
680.97	28.09
681.11	58.51
681.25	0.00
681.39	77.24
681.52	95.96
681.66	65.54
681.80	0.00
681.94	98.30
682.07	51.49
682.21	44.47
682.35	0.00
682.49	0.00
682.62	72.56
682.76	23.41
682.90	14.04
683.04	0.00
683.17	0.00
683.31	0.00
683.45	28.09
683.59	53.83
683.72	39.79
683.86	84.26
684.00	0.00
684.13	0.00
684.27	58.51
684.41	91.28
684.55	39.79
684.68	74.90
684.82	9.36
684.96	63.19
685.09	35.11
685.23	63.19
685.37	0.00
685.50	9.36
685.64	56.17
685.78	0.00
685.91	79.58
686.05	0.00
686.19	18.72
686.32	67.88
686.46	0.00
686.60	23.41
686.73	32.77
686.87	32.77
687.01	30.43
687.14	11.70
687.28	0.00
687.42	49.15
687.55	0.00
687.69	131.07
687.82	4.68
687.96	42.13
688.10	0.00
688.23	58.51
688.37	16.38
688.50	81.92
688.64	60.85
688.78	28.09
688.91	23.41
689.05	44.47
689.18	37.45
689.32	51.49
689.46	79.58
689.59	7.02
689.73	0.00
689.86	70.22
690.00	0.00
690.13	0.00
690.27	28.09
690.41	88.94
690.54	0.00
690.68	79.58
690.81	32.77
690.95	72.56
691.08	51.49
691.22	84.26
691.35	44.47
691.49	37.45
691.62	30.43
691.76	93.62
691.89	65.54
692.03	21.06
692.16	7.02
692.30	44.47
692.43	39.79
692.57	79.58
692.70	37.45
692.84	4.68
692.97	16.38
693.11	18.72
693.24	93.62
693.38	7.02
693.51	16.38
693.65	9.36
693.78	53.83
693.92	0.00
694.05	0.00
694.19	2.34
694.32	112.35
694.45	14.04
694.59	18.72
694.72	93.62
694.86	56.17
694.99	14.04
695.13	42.13
695.26	58.51
695.39	63.19
695.53	21.06
695.66	21.06
695.80	16.38
695.93	4.68
696.07	7.02
696.20	67.88
696.33	9.36
696.47	25.75
696.60	4.68
696.73	42.13
696.87	0.00
697.00	72.56
697.14	25.75
697.27	39.79
697.40	63.19
697.54	56.17
697.67	30.43
697.80	0.00
697.94	0.00
698.07	74.90
698.21	23.41
698.34	88.94
698.47	25.75
698.61	86.60
698.74	70.22
698.87	63.19
699.01	18.72
699.14	35.11
699.27	74.90
699.40	67.88
699.54	23.41
699.67	30.43
699.80	32.77
699.94	56.17
700.07	4.68
700.20	98.30
700.34	63.19
700.47	0.00
700.60	30.43
700.73	60.85
700.87	16.38
701.00	0.00
701.13	4.68
701.26	46.81
701.40	84.26
701.53	30.43
701.66	37.45
701.79	16.38
701.93	46.81
702.06	0.00
702.19	0.00
702.32	53.83
702.46	86.60
702.59	0.00
702.72	53.83
702.85	112.35
702.99	0.00
703.12	0.00
703.25	39.79
703.38	30.43
703.51	49.15
703.65	14.04
703.78	84.26
703.91	67.88
704.04	0.00
704.17	0.00
704.31	21.06
704.44	98.30
704.57	58.51
704.70	60.85
704.83	11.70
704.96	39.79
705.10	7.02
705.23	84.26
>>>>>End Processed Spectral Data<<<<<
