SpectraSuite Data File
++++++++++++++++++++++++++++++++++++
Date: Fri Oct 04 12:13:40 GMT-05:00 2013
User: price-jones
Dark Spectrum Present: No
Reference Spectrum Present: No
Number of Sampled Component Spectra: 1
Spectrometers: USB2+H05261
Integration Time (usec): 10000 (USB2+H05261)
Spectra Averaged: 1 (USB2+H05261)
Boxcar Smoothing: 0 (USB2+H05261)
Correct for Electrical Dark: No (USB2+H05261)
Strobe/Lamp Enabled: No (USB2+H05261)
Correct for Detector Non-linearity: No (USB2+H05261)
Correct for Stray Light: No (USB2+H05261)
Number of Pixels in Processed Spectrum: 2048
>>>>>Begin Processed Spectral Data<<<<<
365.73	0.00
365.92	0.00
366.12	0.00
366.32	0.00
366.52	0.00
366.72	0.00
366.91	0.00
367.11	0.00
367.31	0.00
367.51	0.00
367.70	0.00
367.90	0.00
368.10	0.00
368.30	0.00
368.49	0.00
368.69	0.00
368.89	0.00
369.09	0.00
369.28	0.00
369.48	0.00
369.68	0.00
369.87	0.00
370.07	0.00
370.27	0.00
370.47	0.00
370.66	0.00
370.86	0.00
371.06	0.00
371.25	0.00
371.45	0.00
371.65	56.17
371.84	0.00
372.04	14.04
372.24	21.06
372.44	14.04
372.63	18.72
372.83	4.68
373.03	0.00
373.22	25.75
373.42	35.11
373.62	42.13
373.81	11.70
374.01	44.47
374.21	14.04
374.40	39.79
374.60	0.00
374.79	53.83
374.99	7.02
375.19	44.47
375.38	0.00
375.58	77.24
375.78	11.70
375.97	42.13
376.17	70.22
376.37	77.24
376.56	105.32
376.76	79.58
376.95	18.72
377.15	77.24
377.35	102.98
377.54	0.00
377.74	65.54
377.93	18.72
378.13	42.13
378.33	25.75
378.52	0.00
378.72	0.00
378.91	35.11
379.11	0.00
379.31	14.04
379.50	0.00
379.70	0.00
379.89	60.85
380.09	0.00
380.28	39.79
380.48	0.00
380.68	0.00
380.87	25.75
381.07	72.56
381.26	0.00
381.46	65.54
381.65	110.01
381.85	0.00
382.04	11.70
382.24	58.51
382.43	0.00
382.63	32.77
382.83	0.00
383.02	18.72
383.22	4.68
383.41	32.77
383.61	0.00
383.80	0.00
384.00	0.00
384.19	93.62
384.39	60.85
384.58	18.72
384.78	44.47
384.97	0.00
385.17	0.00
385.36	74.90
385.56	16.38
385.75	0.00
385.95	58.51
386.14	77.24
386.34	16.38
386.53	0.00
386.72	32.77
386.92	25.75
387.11	37.45
387.31	65.54
387.50	0.00
387.70	37.45
387.89	0.00
388.09	39.79
388.28	0.00
388.48	63.19
388.67	42.13
388.86	102.98
389.06	0.00
389.25	67.88
389.45	72.56
389.64	46.81
389.84	42.13
390.03	58.51
390.22	0.00
390.42	51.49
390.61	0.00
390.81	0.00
391.00	0.00
391.19	0.00
391.39	25.75
391.58	35.11
391.78	25.75
391.97	28.09
392.16	7.02
392.36	9.36
392.55	4.68
392.75	4.68
392.94	39.79
393.13	14.04
393.33	0.00
393.52	11.70
393.71	37.45
393.91	2.34
394.10	0.00
394.29	65.54
394.49	44.47
394.68	16.38
394.88	56.17
395.07	65.54
395.26	16.38
395.46	14.04
395.65	4.68
395.84	37.45
396.04	72.56
396.23	28.09
396.42	35.11
396.62	23.41
396.81	56.17
397.00	67.88
397.19	91.28
397.39	49.15
397.58	74.90
397.77	0.00
397.97	2.34
398.16	11.70
398.35	0.00
398.55	56.17
398.74	37.45
398.93	30.43
399.12	0.00
399.32	67.88
399.51	60.85
399.70	42.13
399.90	25.75
400.09	16.38
400.28	39.79
400.47	37.45
400.67	58.51
400.86	11.70
401.05	39.79
401.24	77.24
401.44	79.58
401.63	44.47
401.82	0.00
402.01	58.51
402.21	70.22
402.40	7.02
402.59	0.00
402.78	0.00
402.97	28.09
403.17	0.00
403.36	60.85
403.55	44.47
403.74	44.47
403.93	28.09
404.13	44.47
404.32	70.22
404.51	2.34
404.70	23.41
404.89	32.77
405.09	63.19
405.28	49.15
405.47	28.09
405.66	79.58
405.85	67.88
406.05	100.64
406.24	0.00
406.43	112.35
406.62	30.43
406.81	35.11
407.00	0.00
407.20	2.34
407.39	0.00
407.58	0.00
407.77	28.09
407.96	65.54
408.15	9.36
408.34	21.06
408.54	0.00
408.73	60.85
408.92	9.36
409.11	72.56
409.30	42.13
409.49	100.64
409.68	35.11
409.87	4.68
410.07	0.00
410.26	0.00
410.45	0.00
410.64	44.47
410.83	49.15
411.02	42.13
411.21	30.43
411.40	0.00
411.59	0.00
411.78	42.13
411.98	117.03
412.17	98.30
412.36	30.43
412.55	51.49
412.74	11.70
412.93	0.00
413.12	0.00
413.31	30.43
413.50	4.68
413.69	0.00
413.88	0.00
414.07	138.09
414.26	39.79
414.45	86.60
414.64	105.32
414.83	0.00
415.02	67.88
415.22	95.96
415.41	16.38
415.60	0.00
415.79	7.02
415.98	25.75
416.17	0.00
416.36	25.75
416.55	9.36
416.74	25.75
416.93	63.19
417.12	7.02
417.31	0.00
417.50	0.00
417.69	35.11
417.88	133.41
418.07	67.88
418.26	11.70
418.45	39.79
418.64	88.94
418.83	56.17
419.02	11.70
419.21	42.13
419.39	121.71
419.58	4.68
419.77	28.09
419.96	44.47
420.15	2.34
420.34	21.06
420.53	46.81
420.72	28.09
420.91	32.77
421.10	30.43
421.29	25.75
421.48	77.24
421.67	30.43
421.86	63.19
422.05	86.60
422.24	37.45
422.43	39.79
422.61	88.94
422.80	25.75
422.99	42.13
423.18	44.47
423.37	16.38
423.56	18.72
423.75	67.88
423.94	37.45
424.13	18.72
424.32	28.09
424.50	28.09
424.69	28.09
424.88	46.81
425.07	49.15
425.26	42.13
425.45	9.36
425.64	0.00
425.83	53.83
426.01	28.09
426.20	46.81
426.39	28.09
426.58	0.00
426.77	74.90
426.96	0.00
427.15	0.00
427.33	58.51
427.52	7.02
427.71	37.45
427.90	30.43
428.09	100.64
428.28	58.51
428.46	53.83
428.65	14.04
428.84	49.15
429.03	0.00
429.22	98.30
429.40	67.88
429.59	7.02
429.78	0.00
429.97	35.11
430.16	58.51
430.34	0.00
430.53	39.79
430.72	16.38
430.91	84.26
431.10	35.11
431.28	32.77
431.47	0.00
431.66	49.15
431.85	51.49
432.03	37.45
432.22	0.00
432.41	7.02
432.60	86.60
432.79	9.36
432.97	23.41
433.16	56.17
433.35	0.00
433.54	0.00
433.72	28.09
433.91	58.51
434.10	23.41
434.28	65.54
434.47	0.00
434.66	65.54
434.85	126.39
435.03	44.47
435.22	112.35
435.41	25.75
435.59	51.49
435.78	42.13
435.97	14.04
436.16	49.15
436.34	60.85
436.53	70.22
436.72	0.00
436.90	21.06
437.09	42.13
437.28	77.24
437.46	93.62
437.65	58.51
437.84	49.15
438.02	7.02
438.21	79.58
438.40	112.35
438.58	16.38
438.77	84.26
438.96	65.54
439.14	23.41
439.33	58.51
439.52	77.24
439.70	65.54
439.89	23.41
440.08	0.00
440.26	93.62
440.45	102.98
440.63	37.45
440.82	53.83
441.01	70.22
441.19	35.11
441.38	53.83
441.57	16.38
441.75	60.85
441.94	49.15
442.12	35.11
442.31	0.00
442.50	102.98
442.68	0.00
442.87	70.22
443.05	37.45
443.24	114.69
443.43	16.38
443.61	0.00
443.80	16.38
443.98	81.92
444.17	16.38
444.35	65.54
444.54	23.41
444.73	60.85
444.91	91.28
445.10	65.54
445.28	28.09
445.47	51.49
445.65	16.38
445.84	0.00
446.02	30.43
446.21	18.72
446.39	70.22
446.58	65.54
446.77	42.13
446.95	133.41
447.14	84.26
447.32	46.81
447.51	39.79
447.69	63.19
447.88	0.00
448.06	110.01
448.25	93.62
448.43	23.41
448.62	0.00
448.80	0.00
448.99	86.60
449.17	18.72
449.36	32.77
449.54	56.17
449.73	18.72
449.91	30.43
450.10	161.50
450.28	0.00
450.46	70.22
450.65	98.30
450.83	39.79
451.02	58.51
451.20	25.75
451.39	81.92
451.57	0.00
451.76	72.56
451.94	79.58
452.13	63.19
452.31	110.01
452.49	30.43
452.68	117.03
452.86	133.41
453.05	0.00
453.23	93.62
453.42	21.06
453.60	0.00
453.78	81.92
453.97	91.28
454.15	46.81
454.34	91.28
454.52	88.94
454.70	42.13
454.89	0.00
455.07	152.13
455.26	77.24
455.44	88.94
455.62	0.00
455.81	18.72
455.99	56.17
456.17	28.09
456.36	70.22
456.54	81.92
456.73	44.47
456.91	0.00
457.09	53.83
457.28	67.88
457.46	110.01
457.64	42.13
457.83	37.45
458.01	2.34
458.19	23.41
458.38	110.01
458.56	72.56
458.74	102.98
458.93	72.56
459.11	81.92
459.29	21.06
459.48	77.24
459.66	72.56
459.84	93.62
460.03	65.54
460.21	86.60
460.39	65.54
460.57	112.35
460.76	86.60
460.94	60.85
461.12	9.36
461.31	42.13
461.49	56.17
461.67	84.26
461.85	9.36
462.04	18.72
462.22	124.05
462.40	28.09
462.59	56.17
462.77	79.58
462.95	63.19
463.13	84.26
463.32	56.17
463.50	77.24
463.68	49.15
463.86	30.43
464.05	58.51
464.23	63.19
464.41	53.83
464.59	23.41
464.78	56.17
464.96	21.06
465.14	32.77
465.32	95.96
465.50	32.77
465.69	91.28
465.87	98.30
466.05	39.79
466.23	28.09
466.41	117.03
466.60	53.83
466.78	51.49
466.96	7.02
467.14	79.58
467.32	16.38
467.51	9.36
467.69	37.45
467.87	46.81
468.05	77.24
468.23	42.13
468.41	95.96
468.60	28.09
468.78	53.83
468.96	37.45
469.14	79.58
469.32	16.38
469.50	81.92
469.69	42.13
469.87	46.81
470.05	53.83
470.23	110.01
470.41	32.77
470.59	44.47
470.77	86.60
470.95	79.58
471.14	53.83
471.32	77.24
471.50	37.45
471.68	42.13
471.86	53.83
472.04	0.00
472.22	74.90
472.40	74.90
472.58	21.06
472.77	91.28
472.95	60.85
473.13	65.54
473.31	30.43
473.49	49.15
473.67	72.56
473.85	65.54
474.03	102.98
474.21	18.72
474.39	133.41
474.57	32.77
474.75	63.19
474.93	56.17
475.12	56.17
475.30	44.47
475.48	72.56
475.66	37.45
475.84	39.79
476.02	65.54
476.20	0.00
476.38	49.15
476.56	70.22
476.74	95.96
476.92	91.28
477.10	37.45
477.28	58.51
477.46	51.49
477.64	81.92
477.82	25.75
478.00	70.22
478.18	18.72
478.36	25.75
478.54	72.56
478.72	32.77
478.90	18.72
479.08	56.17
479.26	42.13
479.44	72.56
479.62	60.85
479.80	65.54
479.98	79.58
480.16	91.28
480.34	107.66
480.52	30.43
480.70	23.41
480.88	65.54
481.06	77.24
481.24	0.00
481.41	117.03
481.59	32.77
481.77	72.56
481.95	114.69
482.13	11.70
482.31	84.26
482.49	84.26
482.67	32.77
482.85	65.54
483.03	51.49
483.21	53.83
483.39	37.45
483.57	79.58
483.74	42.13
483.92	65.54
484.10	11.70
484.28	72.56
484.46	98.30
484.64	93.62
484.82	63.19
485.00	44.47
485.18	140.43
485.35	0.00
485.53	37.45
485.71	98.30
485.89	79.58
486.07	21.06
486.25	39.79
486.43	88.94
486.61	79.58
486.78	37.45
486.96	110.01
487.14	102.98
487.32	65.54
487.50	30.43
487.68	79.58
487.85	18.72
488.03	0.00
488.21	30.43
488.39	16.38
488.57	65.54
488.75	49.15
488.92	100.64
489.10	63.19
489.28	44.47
489.46	77.24
489.64	56.17
489.81	30.43
489.99	60.85
490.17	67.88
490.35	74.90
490.53	56.17
490.70	81.92
490.88	37.45
491.06	102.98
491.24	0.00
491.41	107.66
491.59	84.26
491.77	95.96
491.95	56.17
492.13	4.68
492.30	63.19
492.48	105.32
492.66	152.13
492.84	44.47
493.01	84.26
493.19	58.51
493.37	93.62
493.54	86.60
493.72	70.22
493.90	119.37
494.08	60.85
494.25	0.00
494.43	79.58
494.61	53.83
494.79	117.03
494.96	110.01
495.14	107.66
495.32	88.94
495.49	65.54
495.67	28.09
495.85	0.00
496.02	63.19
496.20	121.71
496.38	152.13
496.55	39.79
496.73	23.41
496.91	60.85
497.09	58.51
497.26	44.47
497.44	44.47
497.62	91.28
497.79	67.88
497.97	51.49
498.14	18.72
498.32	65.54
498.50	63.19
498.67	49.15
498.85	70.22
499.03	77.24
499.20	79.58
499.38	23.41
499.56	88.94
499.73	135.75
499.91	98.30
500.08	126.39
500.26	86.60
500.44	84.26
500.61	39.79
500.79	128.73
500.97	58.51
501.14	98.30
501.32	121.71
501.49	30.43
501.67	65.54
501.84	79.58
502.02	63.19
502.20	30.43
502.37	51.49
502.55	23.41
502.72	32.77
502.90	70.22
503.07	25.75
503.25	79.58
503.43	91.28
503.60	121.71
503.78	102.98
503.95	56.17
504.13	91.28
504.30	51.49
504.48	126.39
504.65	91.28
504.83	88.94
505.01	63.19
505.18	32.77
505.36	35.11
505.53	0.00
505.71	65.54
505.88	9.36
506.06	107.66
506.23	81.92
506.41	100.64
506.58	44.47
506.76	67.88
506.93	67.88
507.11	105.32
507.28	107.66
507.46	100.64
507.63	110.01
507.81	67.88
507.98	53.83
508.16	42.13
508.33	93.62
508.50	88.94
508.68	124.05
508.85	86.60
509.03	51.49
509.20	11.70
509.38	112.35
509.55	79.58
509.73	131.07
509.90	84.26
510.08	28.09
510.25	53.83
510.42	0.00
510.60	133.41
510.77	28.09
510.95	93.62
511.12	93.62
511.30	86.60
511.47	98.30
511.64	58.51
511.82	44.47
511.99	105.32
512.17	37.45
512.34	126.39
512.51	30.43
512.69	74.90
512.86	91.28
513.04	88.94
513.21	14.04
513.38	63.19
513.56	88.94
513.73	35.11
513.90	102.98
514.08	77.24
514.25	23.41
514.43	63.19
514.60	86.60
514.77	65.54
514.95	11.70
515.12	77.24
515.29	91.28
515.47	119.37
515.64	88.94
515.81	114.69
515.99	46.81
516.16	77.24
516.33	88.94
516.51	107.66
516.68	100.64
516.85	51.49
517.03	124.05
517.20	102.98
517.37	53.83
517.54	156.82
517.72	110.01
517.89	18.72
518.06	102.98
518.24	81.92
518.41	63.19
518.58	21.06
518.75	98.30
518.93	91.28
519.10	70.22
519.27	74.90
519.45	98.30
519.62	145.11
519.79	88.94
519.96	58.51
520.14	23.41
520.31	105.32
520.48	95.96
520.65	70.22
520.83	86.60
521.00	58.51
521.17	67.88
521.34	95.96
521.52	88.94
521.69	105.32
521.86	46.81
522.03	51.49
522.20	126.39
522.38	119.37
522.55	84.26
522.72	72.56
522.89	58.51
523.07	110.01
523.24	98.30
523.41	51.49
523.58	18.72
523.75	39.79
523.92	79.58
524.10	9.36
524.27	145.11
524.44	95.96
524.61	79.58
524.78	142.77
524.96	114.69
525.13	91.28
525.30	58.51
525.47	28.09
525.64	25.75
525.81	74.90
525.98	135.75
526.16	79.58
526.33	79.58
526.50	46.81
526.67	107.66
526.84	112.35
527.01	102.98
527.18	93.62
527.36	30.43
527.53	11.70
527.70	102.98
527.87	70.22
528.04	93.62
528.21	30.43
528.38	84.26
528.55	56.17
528.72	107.66
528.89	28.09
529.07	49.15
529.24	91.28
529.41	74.90
529.58	63.19
529.75	65.54
529.92	91.28
530.09	79.58
530.26	84.26
530.43	93.62
530.60	28.09
530.77	58.51
530.94	135.75
531.11	81.92
531.28	79.58
531.46	39.79
531.63	121.71
531.80	49.15
531.97	95.96
532.14	107.66
532.31	126.39
532.48	63.19
532.65	72.56
532.82	98.30
532.99	93.62
533.16	42.13
533.33	124.05
533.50	11.70
533.67	154.48
533.84	42.13
534.01	105.32
534.18	149.79
534.35	124.05
534.52	112.35
534.69	30.43
534.86	53.83
535.03	65.54
535.20	44.47
535.37	112.35
535.54	77.24
535.71	16.38
535.88	53.83
536.05	58.51
536.22	60.85
536.38	105.32
536.55	110.01
536.72	74.90
536.89	72.56
537.06	131.07
537.23	100.64
537.40	142.77
537.57	149.79
537.74	112.35
537.91	110.01
538.08	70.22
538.25	4.68
538.42	74.90
538.59	133.41
538.75	149.79
538.92	81.92
539.09	102.98
539.26	102.98
539.43	37.45
539.60	81.92
539.77	67.88
539.94	124.05
540.11	170.86
540.28	56.17
540.44	42.13
540.61	49.15
540.78	65.54
540.95	117.03
541.12	135.75
541.29	88.94
541.46	70.22
541.62	49.15
541.79	84.26
541.96	56.17
542.13	88.94
542.30	21.06
542.47	145.11
542.63	114.69
542.80	107.66
542.97	28.09
543.14	81.92
543.31	56.17
543.48	79.58
543.64	102.98
543.81	74.90
543.98	98.30
544.15	74.90
544.32	67.88
544.48	58.51
544.65	21.06
544.82	84.26
544.99	142.77
545.16	91.28
545.32	81.92
545.49	135.75
545.66	86.60
545.83	67.88
546.00	60.85
546.16	105.32
546.33	30.43
546.50	9.36
546.67	63.19
546.83	114.69
547.00	84.26
547.17	131.07
547.34	95.96
547.50	121.71
547.67	93.62
547.84	119.37
548.00	49.15
548.17	42.13
548.34	124.05
548.51	0.00
548.67	121.71
548.84	88.94
549.01	25.75
549.18	81.92
549.34	112.35
549.51	105.32
549.68	72.56
549.84	51.49
550.01	56.17
550.18	138.09
550.34	16.38
550.51	105.32
550.68	105.32
550.84	65.54
551.01	60.85
551.18	74.90
551.34	114.69
551.51	86.60
551.68	44.47
551.84	51.49
552.01	86.60
552.18	63.19
552.34	88.94
552.51	11.70
552.68	88.94
552.84	74.90
553.01	81.92
553.18	98.30
553.34	60.85
553.51	37.45
553.67	88.94
553.84	140.43
554.01	110.01
554.17	110.01
554.34	58.51
554.51	126.39
554.67	102.98
554.84	154.48
555.00	2.34
555.17	60.85
555.33	95.96
555.50	100.64
555.67	117.03
555.83	112.35
556.00	51.49
556.16	23.41
556.33	77.24
556.50	49.15
556.66	126.39
556.83	154.48
556.99	117.03
557.16	51.49
557.32	102.98
557.49	81.92
557.65	11.70
557.82	58.51
557.98	100.64
558.15	102.98
558.32	138.09
558.48	98.30
558.65	70.22
558.81	70.22
558.98	86.60
559.14	37.45
559.31	49.15
559.47	102.98
559.64	46.81
559.80	86.60
559.97	58.51
560.13	67.88
560.30	88.94
560.46	63.19
560.63	81.92
560.79	58.51
560.96	81.92
561.12	77.24
561.29	84.26
561.45	58.51
561.61	81.92
561.78	16.38
561.94	100.64
562.11	152.13
562.27	70.22
562.44	140.43
562.60	81.92
562.77	147.45
562.93	84.26
563.10	105.32
563.26	77.24
563.42	117.03
563.59	39.79
563.75	107.66
563.92	84.26
564.08	110.01
564.24	81.92
564.41	107.66
564.57	63.19
564.74	152.13
564.90	32.77
565.07	126.39
565.23	9.36
565.39	46.81
565.56	32.77
565.72	105.32
565.88	51.49
566.05	56.17
566.21	100.64
566.38	95.96
566.54	88.94
566.70	79.58
566.87	42.13
567.03	102.98
567.19	91.28
567.36	93.62
567.52	161.50
567.68	79.58
567.85	79.58
568.01	49.15
568.17	9.36
568.34	60.85
568.50	77.24
568.66	37.45
568.83	77.24
568.99	114.69
569.15	100.64
569.32	49.15
569.48	93.62
569.64	112.35
569.81	88.94
569.97	100.64
570.13	18.72
570.30	56.17
570.46	70.22
570.62	25.75
570.78	58.51
570.95	98.30
571.11	44.47
571.27	86.60
571.43	32.77
571.60	63.19
571.76	98.30
571.92	79.58
572.09	72.56
572.25	46.81
572.41	110.01
572.57	0.00
572.74	4.68
572.90	23.41
573.06	105.32
573.22	86.60
573.38	128.73
573.55	63.19
573.71	70.22
573.87	117.03
574.03	84.26
574.20	117.03
574.36	128.73
574.52	117.03
574.68	95.96
574.84	53.83
575.01	35.11
575.17	74.90
575.33	72.56
575.49	156.82
575.65	105.32
575.82	117.03
575.98	124.05
576.14	95.96
576.30	42.13
576.46	93.62
576.62	79.58
576.79	35.11
576.95	63.19
577.11	56.17
577.27	7.02
577.43	84.26
577.59	102.98
577.75	16.38
577.92	9.36
578.08	147.45
578.24	35.11
578.40	84.26
578.56	91.28
578.72	84.26
578.88	58.51
579.04	44.47
579.21	56.17
579.37	79.58
579.53	110.01
579.69	72.56
579.85	56.17
580.01	53.83
580.17	93.62
580.33	114.69
580.49	119.37
580.65	79.58
580.82	63.19
580.98	84.26
581.14	88.94
581.30	51.49
581.46	86.60
581.62	63.19
581.78	133.41
581.94	107.66
582.10	88.94
582.26	138.09
582.42	70.22
582.58	110.01
582.74	39.79
582.90	121.71
583.06	93.62
583.22	110.01
583.38	39.79
583.54	49.15
583.70	4.68
583.86	117.03
584.02	25.75
584.18	95.96
584.34	145.11
584.50	110.01
584.66	70.22
584.82	39.79
584.98	51.49
585.14	72.56
585.30	77.24
585.46	91.28
585.62	58.51
585.78	117.03
585.94	77.24
586.10	9.36
586.26	0.00
586.42	98.30
586.58	95.96
586.74	88.94
586.90	35.11
587.06	74.90
587.22	110.01
587.38	0.00
587.54	49.15
587.70	23.41
587.86	100.64
588.02	0.00
588.18	105.32
588.34	84.26
588.49	53.83
588.65	84.26
588.81	60.85
588.97	32.77
589.13	72.56
589.29	51.49
589.45	49.15
589.61	21.06
589.77	44.47
589.93	7.02
590.08	95.96
590.24	39.79
590.40	60.85
590.56	152.13
590.72	30.43
590.88	72.56
591.04	72.56
591.20	107.66
591.35	70.22
591.51	70.22
591.67	7.02
591.83	32.77
591.99	30.43
592.15	161.50
592.31	77.24
592.46	58.51
592.62	65.54
592.78	65.54
592.94	46.81
593.10	81.92
593.26	53.83
593.41	56.17
593.57	35.11
593.73	93.62
593.89	67.88
594.05	0.00
594.20	98.30
594.36	91.28
594.52	147.45
594.68	65.54
594.84	77.24
594.99	42.13
595.15	56.17
595.31	53.83
595.47	131.07
595.62	86.60
595.78	67.88
595.94	93.62
596.10	70.22
596.25	63.19
596.41	121.71
596.57	46.81
596.73	56.17
596.88	79.58
597.04	88.94
597.20	74.90
597.36	30.43
597.51	2.34
597.67	21.06
597.83	30.43
597.99	65.54
598.14	35.11
598.30	100.64
598.46	86.60
598.61	86.60
598.77	63.19
598.93	72.56
599.09	51.49
599.24	121.71
599.40	53.83
599.56	42.13
599.71	145.11
599.87	67.88
600.03	72.56
600.18	72.56
600.34	30.43
600.50	98.30
600.65	32.77
600.81	91.28
600.97	49.15
601.12	72.56
601.28	88.94
601.44	74.90
601.59	98.30
601.75	56.17
601.91	32.77
602.06	112.35
602.22	23.41
602.37	100.64
602.53	65.54
602.69	56.17
602.84	67.88
603.00	67.88
603.16	79.58
603.31	28.09
603.47	74.90
603.62	42.13
603.78	119.37
603.94	126.39
604.09	23.41
604.25	114.69
604.40	56.17
604.56	74.90
604.71	70.22
604.87	28.09
605.03	88.94
605.18	135.75
605.34	114.69
605.49	91.28
605.65	53.83
605.80	42.13
605.96	93.62
606.12	180.22
606.27	100.64
606.43	53.83
606.58	53.83
606.74	107.66
606.89	49.15
607.05	138.09
607.20	49.15
607.36	74.90
607.51	86.60
607.67	37.45
607.82	81.92
607.98	18.72
608.13	56.17
608.29	84.26
608.44	49.15
608.60	58.51
608.75	124.05
608.91	121.71
609.06	39.79
609.22	124.05
609.37	60.85
609.53	46.81
609.68	100.64
609.84	9.36
609.99	37.45
610.15	77.24
610.30	149.79
610.46	91.28
610.61	93.62
610.76	39.79
610.92	39.79
611.07	63.19
611.23	126.39
611.38	16.38
611.54	53.83
611.69	23.41
611.84	51.49
612.00	81.92
612.15	86.60
612.31	77.24
612.46	49.15
612.62	0.00
612.77	23.41
612.92	28.09
613.08	142.77
613.23	72.56
613.39	110.01
613.54	30.43
613.69	84.26
613.85	0.00
614.00	35.11
614.15	49.15
614.31	63.19
614.46	46.81
614.62	39.79
614.77	37.45
614.92	32.77
615.08	46.81
615.23	53.83
615.38	0.00
615.54	74.90
615.69	107.66
615.84	95.96
616.00	63.19
616.15	46.81
616.30	0.00
616.46	119.37
616.61	60.85
616.76	7.02
616.92	126.39
617.07	100.64
617.22	42.13
617.37	63.19
617.53	9.36
617.68	110.01
617.83	126.39
617.99	42.13
618.14	30.43
618.29	0.00
618.45	65.54
618.60	16.38
618.75	28.09
618.90	42.13
619.06	95.96
619.21	60.85
619.36	74.90
619.51	32.77
619.67	0.00
619.82	18.72
619.97	65.54
620.12	67.88
620.28	74.90
620.43	72.56
620.58	49.15
620.73	77.24
620.89	86.60
621.04	70.22
621.19	102.98
621.34	72.56
621.49	79.58
621.65	60.85
621.80	2.34
621.95	72.56
622.10	121.71
622.25	56.17
622.41	93.62
622.56	74.90
622.71	35.11
622.86	37.45
623.01	117.03
623.16	88.94
623.32	9.36
623.47	37.45
623.62	149.79
623.77	0.00
623.92	95.96
624.07	81.92
624.23	100.64
624.38	42.13
624.53	0.00
624.68	23.41
624.83	102.98
624.98	98.30
625.13	77.24
625.29	51.49
625.44	77.24
625.59	21.06
625.74	30.43
625.89	0.00
626.04	56.17
626.19	32.77
626.34	0.00
626.49	7.02
626.65	70.22
626.80	18.72
626.95	37.45
627.10	67.88
627.25	56.17
627.40	51.49
627.55	37.45
627.70	30.43
627.85	51.49
628.00	0.00
628.15	37.45
628.30	42.13
628.45	72.56
628.60	0.00
628.76	42.13
628.91	56.17
629.06	0.00
629.21	32.77
629.36	58.51
629.51	21.06
629.66	65.54
629.81	28.09
629.96	23.41
630.11	58.51
630.26	100.64
630.41	79.58
630.56	74.90
630.71	105.32
630.86	110.01
631.01	110.01
631.16	77.24
631.31	37.45
631.46	37.45
631.61	88.94
631.76	65.54
631.91	84.26
632.06	39.79
632.21	86.60
632.36	30.43
632.51	14.04
632.66	16.38
632.81	67.88
632.96	100.64
633.10	128.73
633.25	67.88
633.40	9.36
633.55	65.54
633.70	21.06
633.85	98.30
634.00	70.22
634.15	88.94
634.30	63.19
634.45	9.36
634.60	58.51
634.75	11.70
634.90	0.00
635.05	35.11
635.19	79.58
635.34	28.09
635.49	39.79
635.64	44.47
635.79	98.30
635.94	88.94
636.09	51.49
636.24	16.38
636.39	72.56
636.53	25.75
636.68	100.64
636.83	0.00
636.98	102.98
637.13	65.54
637.28	2.34
637.43	163.84
637.57	56.17
637.72	67.88
637.87	25.75
638.02	14.04
638.17	81.92
638.32	56.17
638.46	11.70
638.61	42.13
638.76	53.83
638.91	16.38
639.06	98.30
639.20	74.90
639.35	86.60
639.50	0.00
639.65	105.32
639.80	0.00
639.94	114.69
640.09	77.24
640.24	56.17
640.39	72.56
640.54	131.07
640.68	86.60
640.83	14.04
640.98	37.45
641.13	2.34
641.27	70.22
641.42	0.00
641.57	72.56
641.72	81.92
641.86	60.85
642.01	44.47
642.16	84.26
642.31	72.56
642.45	49.15
642.60	0.00
642.75	72.56
642.90	60.85
643.04	58.51
643.19	53.83
643.34	67.88
643.48	86.60
643.63	37.45
643.78	0.00
643.93	30.43
644.07	119.37
644.22	100.64
644.37	60.85
644.51	28.09
644.66	44.47
644.81	23.41
644.95	86.60
645.10	102.98
645.25	21.06
645.39	16.38
645.54	2.34
645.69	84.26
645.83	58.51
645.98	65.54
646.13	42.13
646.27	58.51
646.42	44.47
646.57	88.94
646.71	107.66
646.86	11.70
647.00	32.77
647.15	53.83
647.30	60.85
647.44	63.19
647.59	18.72
647.74	60.85
647.88	105.32
648.03	53.83
648.17	42.13
648.32	0.00
648.47	93.62
648.61	18.72
648.76	91.28
648.90	42.13
649.05	107.66
649.20	51.49
649.34	70.22
649.49	65.54
649.63	105.32
649.78	21.06
649.92	32.77
650.07	35.11
650.21	28.09
650.36	81.92
650.51	121.71
650.65	112.35
650.80	37.45
650.94	21.06
651.09	18.72
651.23	46.81
651.38	37.45
651.52	16.38
651.67	93.62
651.81	70.22
651.96	60.85
652.10	49.15
652.25	37.45
652.39	126.39
652.54	56.17
652.68	58.51
652.83	53.83
652.97	30.43
653.12	70.22
653.26	44.47
653.41	77.24
653.55	11.70
653.70	23.41
653.84	42.13
653.99	58.51
654.13	51.49
654.27	16.38
654.42	39.79
654.56	63.19
654.71	0.00
654.85	63.19
655.00	65.54
655.14	51.49
655.29	67.88
655.43	58.51
655.57	28.09
655.72	18.72
655.86	9.36
656.01	84.26
656.15	30.43
656.30	32.77
656.44	107.66
656.58	44.47
656.73	53.83
656.87	25.75
657.01	23.41
657.16	0.00
657.30	21.06
657.45	84.26
657.59	56.17
657.73	91.28
657.88	58.51
658.02	18.72
658.16	84.26
658.31	4.68
658.45	46.81
658.60	44.47
658.74	91.28
658.88	0.00
659.03	0.00
659.17	131.07
659.31	126.39
659.46	11.70
659.60	39.79
659.74	100.64
659.89	46.81
660.03	95.96
660.17	51.49
660.32	77.24
660.46	79.58
660.60	74.90
660.74	42.13
660.89	70.22
661.03	42.13
661.17	42.13
661.32	124.05
661.46	49.15
661.60	63.19
661.74	72.56
661.89	67.88
662.03	95.96
662.17	30.43
662.31	63.19
662.46	86.60
662.60	0.00
662.74	44.47
662.88	53.83
663.03	32.77
663.17	0.00
663.31	56.17
663.45	32.77
663.60	51.49
663.74	25.75
663.88	65.54
664.02	110.01
664.17	23.41
664.31	0.00
664.45	51.49
664.59	35.11
664.73	74.90
664.88	39.79
665.02	51.49
665.16	11.70
665.30	0.00
665.44	21.06
665.59	42.13
665.73	53.83
665.87	77.24
666.01	67.88
666.15	100.64
666.29	32.77
666.44	72.56
666.58	112.35
666.72	70.22
666.86	39.79
667.00	91.28
667.14	37.45
667.28	39.79
667.43	102.98
667.57	72.56
667.71	37.45
667.85	25.75
667.99	72.56
668.13	28.09
668.27	105.32
668.41	65.54
668.56	56.17
668.70	98.30
668.84	100.64
668.98	0.00
669.12	35.11
669.26	58.51
669.40	35.11
669.54	107.66
669.68	51.49
669.82	114.69
669.96	39.79
670.10	25.75
670.25	14.04
670.39	25.75
670.53	51.49
670.67	37.45
670.81	0.00
670.95	11.70
671.09	72.56
671.23	70.22
671.37	42.13
671.51	23.41
671.65	74.90
671.79	0.00
671.93	18.72
672.07	58.51
672.21	44.47
672.35	84.26
672.49	77.24
672.63	30.43
672.77	77.24
672.91	14.04
673.05	46.81
673.19	0.00
673.33	21.06
673.47	0.00
673.61	42.13
673.75	37.45
673.89	84.26
674.03	21.06
674.17	65.54
674.31	11.70
674.45	65.54
674.59	88.94
674.73	91.28
674.87	67.88
675.01	65.54
675.15	65.54
675.29	23.41
675.43	107.66
675.56	30.43
675.70	14.04
675.84	67.88
675.98	67.88
676.12	9.36
676.26	112.35
676.40	32.77
676.54	32.77
676.68	72.56
676.82	32.77
676.96	35.11
677.10	46.81
677.23	79.58
677.37	0.00
677.51	77.24
677.65	14.04
677.79	84.26
677.93	0.00
678.07	117.03
678.21	18.72
678.34	0.00
678.48	77.24
678.62	63.19
678.76	72.56
678.90	46.81
679.04	56.17
679.18	56.17
679.31	32.77
679.45	25.75
679.59	98.30
679.73	0.00
679.87	100.64
680.00	0.00
680.14	58.51
680.28	65.54
680.42	14.04
680.56	51.49
680.70	39.79
680.83	63.19
680.97	77.24
681.11	81.92
681.25	0.00
681.39	37.45
681.52	44.47
681.66	0.00
681.80	7.02
681.94	30.43
682.07	0.00
682.21	60.85
682.35	72.56
682.49	37.45
682.62	114.69
682.76	56.17
682.90	0.00
683.04	42.13
683.17	53.83
683.31	16.38
683.45	46.81
683.59	51.49
683.72	63.19
683.86	0.00
684.00	112.35
684.13	131.07
684.27	79.58
684.41	39.79
684.55	79.58
684.68	0.00
684.82	30.43
684.96	21.06
685.09	28.09
685.23	63.19
685.37	37.45
685.50	44.47
685.64	58.51
685.78	37.45
685.91	28.09
686.05	0.00
686.19	67.88
686.32	79.58
686.46	23.41
686.60	37.45
686.73	39.79
686.87	93.62
687.01	23.41
687.14	16.38
687.28	91.28
687.42	102.98
687.55	58.51
687.69	21.06
687.82	7.02
687.96	32.77
688.10	39.79
688.23	0.00
688.37	74.90
688.50	60.85
688.64	25.75
688.78	0.00
688.91	81.92
689.05	51.49
689.18	42.13
689.32	84.26
689.46	112.35
689.59	53.83
689.73	53.83
689.86	70.22
690.00	67.88
690.13	11.70
690.27	21.06
690.41	11.70
690.54	0.00
690.68	39.79
690.81	63.19
690.95	0.00
691.08	42.13
691.22	0.00
691.35	16.38
691.49	0.00
691.62	46.81
691.76	39.79
691.89	0.00
692.03	9.36
692.16	0.00
692.30	145.11
692.43	0.00
692.57	70.22
692.70	2.34
692.84	28.09
692.97	105.32
693.11	74.90
693.24	56.17
693.38	56.17
693.51	49.15
693.65	79.58
693.78	18.72
693.92	0.00
694.05	58.51
694.19	93.62
694.32	21.06
694.45	23.41
694.59	51.49
694.72	65.54
694.86	0.00
694.99	30.43
695.13	4.68
695.26	91.28
695.39	60.85
695.53	49.15
695.66	70.22
695.80	102.98
695.93	35.11
696.07	16.38
696.20	25.75
696.33	58.51
696.47	0.00
696.60	11.70
696.73	25.75
696.87	35.11
697.00	86.60
697.14	0.00
697.27	0.00
697.40	11.70
697.54	0.00
697.67	9.36
697.80	28.09
697.94	0.00
698.07	46.81
698.21	35.11
698.34	0.00
698.47	32.77
698.61	9.36
698.74	42.13
698.87	9.36
699.01	49.15
699.14	42.13
699.27	16.38
699.40	72.56
699.54	4.68
699.67	65.54
699.80	14.04
699.94	23.41
700.07	9.36
700.20	46.81
700.34	53.83
700.47	7.02
700.60	16.38
700.73	28.09
700.87	0.00
701.00	0.00
701.13	0.00
701.26	0.00
701.40	44.47
701.53	46.81
701.66	53.83
701.79	42.13
701.93	67.88
702.06	93.62
702.19	67.88
702.32	0.00
702.46	60.85
702.59	51.49
702.72	9.36
702.85	63.19
702.99	79.58
703.12	51.49
703.25	14.04
703.38	67.88
703.51	18.72
703.65	4.68
703.78	65.54
703.91	37.45
704.04	39.79
704.17	30.43
704.31	60.85
704.44	86.60
704.57	11.70
704.70	72.56
704.83	84.26
704.96	14.04
705.10	4.68
705.23	93.62
>>>>>End Processed Spectral Data<<<<<
