SpectraSuite Data File
++++++++++++++++++++++++++++++++++++
Date: Fri Oct 04 12:13:34 GMT-05:00 2013
User: price-jones
Dark Spectrum Present: No
Reference Spectrum Present: No
Number of Sampled Component Spectra: 1
Spectrometers: USB2+H05261
Integration Time (usec): 10000 (USB2+H05261)
Spectra Averaged: 1 (USB2+H05261)
Boxcar Smoothing: 0 (USB2+H05261)
Correct for Electrical Dark: No (USB2+H05261)
Strobe/Lamp Enabled: No (USB2+H05261)
Correct for Detector Non-linearity: No (USB2+H05261)
Correct for Stray Light: No (USB2+H05261)
Number of Pixels in Processed Spectrum: 2048
>>>>>Begin Processed Spectral Data<<<<<
365.73	14.04
365.92	14.04
366.12	14.04
366.32	0.00
366.52	0.00
366.72	0.00
366.91	0.00
367.11	0.00
367.31	0.00
367.51	0.00
367.70	0.00
367.90	0.00
368.10	0.00
368.30	0.00
368.49	0.00
368.69	0.00
368.89	0.00
369.09	0.00
369.28	0.00
369.48	0.00
369.68	0.00
369.87	0.00
370.07	0.00
370.27	0.00
370.47	0.00
370.66	0.00
370.86	0.00
371.06	0.00
371.25	0.00
371.45	0.00
371.65	0.00
371.84	0.00
372.04	32.77
372.24	0.00
372.44	0.00
372.63	9.36
372.83	11.70
373.03	0.00
373.22	58.51
373.42	0.00
373.62	42.13
373.81	42.13
374.01	63.19
374.21	37.45
374.40	0.00
374.60	70.22
374.79	112.35
374.99	51.49
375.19	0.00
375.38	35.11
375.58	14.04
375.78	67.88
375.97	67.88
376.17	28.09
376.37	0.00
376.56	9.36
376.76	77.24
376.95	0.00
377.15	58.51
377.35	0.00
377.54	79.58
377.74	60.85
377.93	35.11
378.13	42.13
378.33	51.49
378.52	70.22
378.72	67.88
378.91	53.83
379.11	0.00
379.31	0.00
379.50	0.00
379.70	53.83
379.89	18.72
380.09	16.38
380.28	18.72
380.48	37.45
380.68	0.00
380.87	84.26
381.07	44.47
381.26	39.79
381.46	42.13
381.65	49.15
381.85	30.43
382.04	74.90
382.24	88.94
382.43	30.43
382.63	18.72
382.83	23.41
383.02	0.00
383.22	39.79
383.41	46.81
383.61	56.17
383.80	49.15
384.00	28.09
384.19	21.06
384.39	28.09
384.58	0.00
384.78	28.09
384.97	79.58
385.17	105.32
385.36	21.06
385.56	37.45
385.75	0.00
385.95	30.43
386.14	28.09
386.34	18.72
386.53	42.13
386.72	23.41
386.92	0.00
387.11	28.09
387.31	32.77
387.50	0.00
387.70	56.17
387.89	0.00
388.09	21.06
388.28	0.00
388.48	0.00
388.67	7.02
388.86	0.00
389.06	35.11
389.25	0.00
389.45	23.41
389.64	121.71
389.84	70.22
390.03	42.13
390.22	28.09
390.42	0.00
390.61	0.00
390.81	67.88
391.00	16.38
391.19	37.45
391.39	18.72
391.58	110.01
391.78	28.09
391.97	0.00
392.16	51.49
392.36	60.85
392.55	2.34
392.75	11.70
392.94	18.72
393.13	105.32
393.33	0.00
393.52	4.68
393.71	28.09
393.91	46.81
394.10	4.68
394.29	39.79
394.49	46.81
394.68	56.17
394.88	0.00
395.07	44.47
395.26	56.17
395.46	0.00
395.65	18.72
395.84	4.68
396.04	84.26
396.23	51.49
396.42	0.00
396.62	0.00
396.81	18.72
397.00	0.00
397.19	0.00
397.39	0.00
397.58	32.77
397.77	25.75
397.97	9.36
398.16	49.15
398.35	0.00
398.55	46.81
398.74	0.00
398.93	0.00
399.12	21.06
399.32	46.81
399.51	35.11
399.70	0.00
399.90	93.62
400.09	18.72
400.28	11.70
400.47	35.11
400.67	9.36
400.86	4.68
401.05	0.00
401.24	25.75
401.44	0.00
401.63	56.17
401.82	42.13
402.01	93.62
402.21	35.11
402.40	100.64
402.59	86.60
402.78	58.51
402.97	32.77
403.17	0.00
403.36	46.81
403.55	16.38
403.74	35.11
403.93	30.43
404.13	39.79
404.32	37.45
404.51	121.71
404.70	0.00
404.89	23.41
405.09	16.38
405.28	65.54
405.47	30.43
405.66	32.77
405.85	42.13
406.05	28.09
406.24	0.00
406.43	35.11
406.62	0.00
406.81	51.49
407.00	14.04
407.20	32.77
407.39	58.51
407.58	37.45
407.77	21.06
407.96	0.00
408.15	105.32
408.34	46.81
408.54	56.17
408.73	4.68
408.92	51.49
409.11	121.71
409.30	30.43
409.49	21.06
409.68	9.36
409.87	46.81
410.07	18.72
410.26	56.17
410.45	42.13
410.64	0.00
410.83	51.49
411.02	86.60
411.21	65.54
411.40	23.41
411.59	86.60
411.78	95.96
411.98	105.32
412.17	58.51
412.36	0.00
412.55	21.06
412.74	67.88
412.93	91.28
413.12	74.90
413.31	117.03
413.50	133.41
413.69	18.72
413.88	9.36
414.07	84.26
414.26	23.41
414.45	18.72
414.64	93.62
414.83	53.83
415.02	86.60
415.22	4.68
415.41	0.00
415.60	14.04
415.79	35.11
415.98	74.90
416.17	28.09
416.36	56.17
416.55	23.41
416.74	35.11
416.93	30.43
417.12	63.19
417.31	4.68
417.50	86.60
417.69	0.00
417.88	18.72
418.07	126.39
418.26	25.75
418.45	93.62
418.64	0.00
418.83	28.09
419.02	0.00
419.21	72.56
419.39	2.34
419.58	51.49
419.77	0.00
419.96	60.85
420.15	18.72
420.34	114.69
420.53	100.64
420.72	0.00
420.91	67.88
421.10	74.90
421.29	16.38
421.48	91.28
421.67	32.77
421.86	28.09
422.05	53.83
422.24	70.22
422.43	70.22
422.61	0.00
422.80	0.00
422.99	42.13
423.18	14.04
423.37	65.54
423.56	11.70
423.75	44.47
423.94	28.09
424.13	56.17
424.32	30.43
424.50	18.72
424.69	32.77
424.88	14.04
425.07	58.51
425.26	37.45
425.45	91.28
425.64	21.06
425.83	42.13
426.01	51.49
426.20	28.09
426.39	107.66
426.58	37.45
426.77	4.68
426.96	91.28
427.15	37.45
427.33	74.90
427.52	28.09
427.71	25.75
427.90	25.75
428.09	46.81
428.28	93.62
428.46	25.75
428.65	7.02
428.84	32.77
429.03	77.24
429.22	46.81
429.40	0.00
429.59	42.13
429.78	25.75
429.97	72.56
430.16	32.77
430.34	0.00
430.53	72.56
430.72	67.88
430.91	91.28
431.10	11.70
431.28	58.51
431.47	9.36
431.66	93.62
431.85	81.92
432.03	46.81
432.22	51.49
432.41	0.00
432.60	100.64
432.79	4.68
432.97	23.41
433.16	84.26
433.35	7.02
433.54	56.17
433.72	91.28
433.91	0.00
434.10	49.15
434.28	49.15
434.47	46.81
434.66	60.85
434.85	63.19
435.03	74.90
435.22	84.26
435.41	86.60
435.59	117.03
435.78	51.49
435.97	37.45
436.16	67.88
436.34	14.04
436.53	60.85
436.72	4.68
436.90	42.13
437.09	39.79
437.28	84.26
437.46	70.22
437.65	65.54
437.84	9.36
438.02	65.54
438.21	42.13
438.40	28.09
438.58	72.56
438.77	51.49
438.96	65.54
439.14	37.45
439.33	37.45
439.52	72.56
439.70	21.06
439.89	65.54
440.08	14.04
440.26	25.75
440.45	86.60
440.63	56.17
440.82	65.54
441.01	107.66
441.19	23.41
441.38	51.49
441.57	86.60
441.75	49.15
441.94	58.51
442.12	16.38
442.31	86.60
442.50	126.39
442.68	56.17
442.87	30.43
443.05	4.68
443.24	98.30
443.43	39.79
443.61	25.75
443.80	84.26
443.98	58.51
444.17	30.43
444.35	46.81
444.54	79.58
444.73	77.24
444.91	84.26
445.10	42.13
445.28	0.00
445.47	110.01
445.65	63.19
445.84	95.96
446.02	58.51
446.21	58.51
446.39	63.19
446.58	74.90
446.77	28.09
446.95	42.13
447.14	60.85
447.32	21.06
447.51	53.83
447.69	0.00
447.88	95.96
448.06	51.49
448.25	21.06
448.43	102.98
448.62	86.60
448.80	72.56
448.99	67.88
449.17	46.81
449.36	74.90
449.54	102.98
449.73	53.83
449.91	0.00
450.10	102.98
450.28	46.81
450.46	21.06
450.65	56.17
450.83	102.98
451.02	88.94
451.20	46.81
451.39	102.98
451.57	84.26
451.76	72.56
451.94	51.49
452.13	51.49
452.31	0.00
452.49	7.02
452.68	25.75
452.86	39.79
453.05	53.83
453.23	93.62
453.42	51.49
453.60	72.56
453.78	65.54
453.97	114.69
454.15	51.49
454.34	79.58
454.52	0.00
454.70	58.51
454.89	58.51
455.07	35.11
455.26	0.00
455.44	14.04
455.62	56.17
455.81	32.77
455.99	44.47
456.17	0.00
456.36	35.11
456.54	44.47
456.73	39.79
456.91	46.81
457.09	74.90
457.28	72.56
457.46	11.70
457.64	65.54
457.83	53.83
458.01	32.77
458.19	60.85
458.38	42.13
458.56	9.36
458.74	112.35
458.93	16.38
459.11	18.72
459.29	112.35
459.48	42.13
459.66	35.11
459.84	51.49
460.03	70.22
460.21	98.30
460.39	25.75
460.57	51.49
460.76	126.39
460.94	21.06
461.12	72.56
461.31	86.60
461.49	63.19
461.67	124.05
461.85	58.51
462.04	30.43
462.22	173.20
462.40	39.79
462.59	37.45
462.77	28.09
462.95	88.94
463.13	105.32
463.32	79.58
463.50	84.26
463.68	0.00
463.86	30.43
464.05	42.13
464.23	79.58
464.41	49.15
464.59	70.22
464.78	30.43
464.96	84.26
465.14	124.05
465.32	86.60
465.50	58.51
465.69	74.90
465.87	114.69
466.05	79.58
466.23	86.60
466.41	70.22
466.60	79.58
466.78	44.47
466.96	11.70
467.14	74.90
467.32	58.51
467.51	35.11
467.69	58.51
467.87	95.96
468.05	131.07
468.23	84.26
468.41	49.15
468.60	98.30
468.78	67.88
468.96	124.05
469.14	156.82
469.32	35.11
469.50	46.81
469.69	44.47
469.87	0.00
470.05	58.51
470.23	25.75
470.41	72.56
470.59	25.75
470.77	51.49
470.95	95.96
471.14	88.94
471.32	91.28
471.50	0.00
471.68	2.34
471.86	102.98
472.04	21.06
472.22	135.75
472.40	18.72
472.58	0.00
472.77	28.09
472.95	138.09
473.13	30.43
473.31	100.64
473.49	9.36
473.67	0.00
473.85	51.49
474.03	35.11
474.21	46.81
474.39	74.90
474.57	93.62
474.75	124.05
474.93	30.43
475.12	88.94
475.30	56.17
475.48	93.62
475.66	84.26
475.84	70.22
476.02	32.77
476.20	0.00
476.38	60.85
476.56	100.64
476.74	74.90
476.92	81.92
477.10	23.41
477.28	63.19
477.46	0.00
477.64	11.70
477.82	0.00
478.00	67.88
478.18	37.45
478.36	126.39
478.54	39.79
478.72	110.01
478.90	37.45
479.08	44.47
479.26	23.41
479.44	67.88
479.62	74.90
479.80	114.69
479.98	63.19
480.16	65.54
480.34	58.51
480.52	105.32
480.70	79.58
480.88	9.36
481.06	28.09
481.24	119.37
481.41	95.96
481.59	32.77
481.77	105.32
481.95	95.96
482.13	58.51
482.31	0.00
482.49	60.85
482.67	49.15
482.85	91.28
483.03	63.19
483.21	135.75
483.39	46.81
483.57	51.49
483.74	114.69
483.92	51.49
484.10	98.30
484.28	84.26
484.46	51.49
484.64	72.56
484.82	79.58
485.00	84.26
485.18	93.62
485.35	46.81
485.53	44.47
485.71	72.56
485.89	67.88
486.07	39.79
486.25	105.32
486.43	63.19
486.61	58.51
486.78	21.06
486.96	74.90
487.14	102.98
487.32	117.03
487.50	30.43
487.68	74.90
487.85	79.58
488.03	60.85
488.21	53.83
488.39	56.17
488.57	65.54
488.75	49.15
488.92	70.22
489.10	88.94
489.28	81.92
489.46	60.85
489.64	79.58
489.81	28.09
489.99	95.96
490.17	44.47
490.35	84.26
490.53	0.00
490.70	142.77
490.88	18.72
491.06	58.51
491.24	51.49
491.41	77.24
491.59	70.22
491.77	84.26
491.95	4.68
492.13	77.24
492.30	42.13
492.48	70.22
492.66	72.56
492.84	67.88
493.01	7.02
493.19	9.36
493.37	107.66
493.54	95.96
493.72	91.28
493.90	21.06
494.08	114.69
494.25	95.96
494.43	81.92
494.61	35.11
494.79	51.49
494.96	84.26
495.14	86.60
495.32	91.28
495.49	91.28
495.67	60.85
495.85	88.94
496.02	37.45
496.20	121.71
496.38	32.77
496.55	102.98
496.73	53.83
496.91	86.60
497.09	72.56
497.26	117.03
497.44	93.62
497.62	42.13
497.79	4.68
497.97	25.75
498.14	74.90
498.32	58.51
498.50	67.88
498.67	102.98
498.85	51.49
499.03	9.36
499.20	37.45
499.38	58.51
499.56	77.24
499.73	51.49
499.91	35.11
500.08	67.88
500.26	156.82
500.44	126.39
500.61	81.92
500.79	70.22
500.97	28.09
501.14	138.09
501.32	117.03
501.49	98.30
501.67	124.05
501.84	0.00
502.02	74.90
502.20	102.98
502.37	51.49
502.55	58.51
502.72	77.24
502.90	95.96
503.07	65.54
503.25	44.47
503.43	91.28
503.60	58.51
503.78	77.24
503.95	56.17
504.13	110.01
504.30	58.51
504.48	74.90
504.65	98.30
504.83	49.15
505.01	37.45
505.18	81.92
505.36	53.83
505.53	23.41
505.71	63.19
505.88	79.58
506.06	128.73
506.23	56.17
506.41	77.24
506.58	28.09
506.76	112.35
506.93	105.32
507.11	102.98
507.28	72.56
507.46	91.28
507.63	72.56
507.81	35.11
507.98	65.54
508.16	46.81
508.33	81.92
508.50	58.51
508.68	102.98
508.85	107.66
509.03	72.56
509.20	84.26
509.38	124.05
509.55	11.70
509.73	114.69
509.90	49.15
510.08	74.90
510.25	100.64
510.42	67.88
510.60	0.00
510.77	95.96
510.95	100.64
511.12	74.90
511.30	65.54
511.47	53.83
511.64	42.13
511.82	102.98
511.99	72.56
512.17	39.79
512.34	35.11
512.51	81.92
512.69	65.54
512.86	93.62
513.04	2.34
513.21	58.51
513.38	105.32
513.56	95.96
513.73	58.51
513.90	107.66
514.08	79.58
514.25	98.30
514.43	86.60
514.60	72.56
514.77	117.03
514.95	60.85
515.12	51.49
515.29	70.22
515.47	86.60
515.64	37.45
515.81	0.00
515.99	74.90
516.16	154.48
516.33	28.09
516.51	53.83
516.68	23.41
516.85	65.54
517.03	126.39
517.20	65.54
517.37	100.64
517.54	32.77
517.72	51.49
517.89	46.81
518.06	32.77
518.24	133.41
518.41	37.45
518.58	7.02
518.75	21.06
518.93	32.77
519.10	114.69
519.27	98.30
519.45	37.45
519.62	49.15
519.79	102.98
519.96	60.85
520.14	117.03
520.31	117.03
520.48	49.15
520.65	128.73
520.83	112.35
521.00	110.01
521.17	60.85
521.34	107.66
521.52	140.43
521.69	124.05
521.86	166.18
522.03	56.17
522.20	140.43
522.38	74.90
522.55	74.90
522.72	112.35
522.89	53.83
523.07	84.26
523.24	0.00
523.41	98.30
523.58	98.30
523.75	70.22
523.92	72.56
524.10	32.77
524.27	100.64
524.44	18.72
524.61	128.73
524.78	88.94
524.96	70.22
525.13	51.49
525.30	100.64
525.47	53.83
525.64	98.30
525.81	133.41
525.98	147.45
526.16	72.56
526.33	91.28
526.50	84.26
526.67	81.92
526.84	128.73
527.01	88.94
527.18	131.07
527.36	65.54
527.53	79.58
527.70	145.11
527.87	21.06
528.04	51.49
528.21	131.07
528.38	39.79
528.55	152.13
528.72	81.92
528.89	81.92
529.07	84.26
529.24	67.88
529.41	91.28
529.58	86.60
529.75	79.58
529.92	72.56
530.09	18.72
530.26	21.06
530.43	4.68
530.60	107.66
530.77	46.81
530.94	77.24
531.11	110.01
531.28	46.81
531.46	77.24
531.63	170.86
531.80	42.13
531.97	93.62
532.14	86.60
532.31	84.26
532.48	30.43
532.65	25.75
532.82	102.98
532.99	95.96
533.16	0.00
533.33	81.92
533.50	107.66
533.67	95.96
533.84	124.05
534.01	44.47
534.18	133.41
534.35	32.77
534.52	145.11
534.69	149.79
534.86	95.96
535.03	91.28
535.20	107.66
535.37	93.62
535.54	81.92
535.71	124.05
535.88	81.92
536.05	114.69
536.22	86.60
536.38	74.90
536.55	135.75
536.72	117.03
536.89	65.54
537.06	58.51
537.23	124.05
537.40	56.17
537.57	93.62
537.74	72.56
537.91	107.66
538.08	44.47
538.25	117.03
538.42	149.79
538.59	70.22
538.75	110.01
538.92	86.60
539.09	67.88
539.26	49.15
539.43	81.92
539.60	37.45
539.77	53.83
539.94	91.28
540.11	133.41
540.28	91.28
540.44	74.90
540.61	74.90
540.78	30.43
540.95	119.37
541.12	100.64
541.29	28.09
541.46	142.77
541.62	170.86
541.79	67.88
541.96	124.05
542.13	121.71
542.30	53.83
542.47	46.81
542.63	117.03
542.80	112.35
542.97	112.35
543.14	53.83
543.31	44.47
543.48	30.43
543.64	86.60
543.81	105.32
543.98	107.66
544.15	74.90
544.32	168.52
544.48	11.70
544.65	53.83
544.82	46.81
544.99	42.13
545.16	25.75
545.32	95.96
545.49	72.56
545.66	81.92
545.83	105.32
546.00	67.88
546.16	56.17
546.33	53.83
546.50	124.05
546.67	49.15
546.83	81.92
547.00	84.26
547.17	88.94
547.34	102.98
547.50	49.15
547.67	98.30
547.84	58.51
548.00	56.17
548.17	166.18
548.34	79.58
548.51	107.66
548.67	121.71
548.84	32.77
549.01	93.62
549.18	0.00
549.34	107.66
549.51	63.19
549.68	107.66
549.84	173.20
550.01	149.79
550.18	119.37
550.34	128.73
550.51	102.98
550.68	51.49
550.84	86.60
551.01	98.30
551.18	21.06
551.34	114.69
551.51	23.41
551.68	112.35
551.84	128.73
552.01	35.11
552.18	107.66
552.34	60.85
552.51	110.01
552.68	124.05
552.84	70.22
553.01	0.00
553.18	42.13
553.34	70.22
553.51	86.60
553.67	39.79
553.84	138.09
554.01	86.60
554.17	100.64
554.34	91.28
554.51	131.07
554.67	114.69
554.84	56.17
555.00	51.49
555.17	72.56
555.33	32.77
555.50	110.01
555.67	138.09
555.83	173.20
556.00	67.88
556.16	222.35
556.33	93.62
556.50	74.90
556.66	135.75
556.83	86.60
556.99	79.58
557.16	77.24
557.32	67.88
557.49	0.00
557.65	74.90
557.82	74.90
557.98	46.81
558.15	16.38
558.32	81.92
558.48	112.35
558.65	84.26
558.81	117.03
558.98	110.01
559.14	7.02
559.31	93.62
559.47	105.32
559.64	77.24
559.80	77.24
559.97	93.62
560.13	23.41
560.30	95.96
560.46	112.35
560.63	140.43
560.79	110.01
560.96	37.45
561.12	98.30
561.29	95.96
561.45	67.88
561.61	131.07
561.78	156.82
561.94	81.92
562.11	102.98
562.27	30.43
562.44	49.15
562.60	51.49
562.77	149.79
562.93	182.56
563.10	42.13
563.26	138.09
563.42	67.88
563.59	67.88
563.75	100.64
563.92	152.13
564.08	9.36
564.24	105.32
564.41	63.19
564.57	102.98
564.74	124.05
564.90	152.13
565.07	142.77
565.23	154.48
565.39	35.11
565.56	105.32
565.72	21.06
565.88	60.85
566.05	58.51
566.21	32.77
566.38	156.82
566.54	46.81
566.70	58.51
566.87	21.06
567.03	91.28
567.19	4.68
567.36	124.05
567.52	79.58
567.68	147.45
567.85	149.79
568.01	32.77
568.17	53.83
568.34	81.92
568.50	63.19
568.66	112.35
568.83	119.37
568.99	93.62
569.15	72.56
569.32	88.94
569.48	93.62
569.64	44.47
569.81	46.81
569.97	63.19
570.13	126.39
570.30	56.17
570.46	65.54
570.62	46.81
570.78	51.49
570.95	23.41
571.11	95.96
571.27	44.47
571.43	0.00
571.60	18.72
571.76	58.51
571.92	86.60
572.09	117.03
572.25	74.90
572.41	51.49
572.57	84.26
572.74	88.94
572.90	88.94
573.06	74.90
573.22	65.54
573.38	35.11
573.55	60.85
573.71	44.47
573.87	117.03
574.03	21.06
574.20	93.62
574.36	93.62
574.52	84.26
574.68	128.73
574.84	135.75
575.01	114.69
575.17	46.81
575.33	124.05
575.49	4.68
575.65	81.92
575.82	140.43
575.98	161.50
576.14	117.03
576.30	189.58
576.46	140.43
576.62	37.45
576.79	53.83
576.95	49.15
577.11	42.13
577.27	95.96
577.43	98.30
577.59	72.56
577.75	72.56
577.92	117.03
578.08	0.00
578.24	105.32
578.40	63.19
578.56	42.13
578.72	60.85
578.88	51.49
579.04	95.96
579.21	145.11
579.37	95.96
579.53	30.43
579.69	84.26
579.85	65.54
580.01	114.69
580.17	145.11
580.33	93.62
580.49	91.28
580.65	35.11
580.82	79.58
580.98	63.19
581.14	133.41
581.30	88.94
581.46	53.83
581.62	114.69
581.78	145.11
581.94	74.90
582.10	98.30
582.26	74.90
582.42	58.51
582.58	46.81
582.74	145.11
582.90	32.77
583.06	81.92
583.22	79.58
583.38	112.35
583.54	93.62
583.70	74.90
583.86	163.84
584.02	42.13
584.18	46.81
584.34	56.17
584.50	70.22
584.66	65.54
584.82	51.49
584.98	53.83
585.14	74.90
585.30	53.83
585.46	49.15
585.62	100.64
585.78	16.38
585.94	42.13
586.10	53.83
586.26	119.37
586.42	105.32
586.58	81.92
586.74	51.49
586.90	81.92
587.06	65.54
587.22	110.01
587.38	128.73
587.54	128.73
587.70	126.39
587.86	65.54
588.02	107.66
588.18	46.81
588.34	23.41
588.49	112.35
588.65	44.47
588.81	112.35
588.97	154.48
589.13	32.77
589.29	32.77
589.45	102.98
589.61	142.77
589.77	25.75
589.93	18.72
590.08	60.85
590.24	110.01
590.40	44.47
590.56	98.30
590.72	58.51
590.88	91.28
591.04	37.45
591.20	32.77
591.35	58.51
591.51	70.22
591.67	100.64
591.83	0.00
591.99	88.94
592.15	100.64
592.31	39.79
592.46	102.98
592.62	37.45
592.78	84.26
592.94	9.36
593.10	35.11
593.26	114.69
593.41	60.85
593.57	114.69
593.73	65.54
593.89	91.28
594.05	60.85
594.20	51.49
594.36	37.45
594.52	42.13
594.68	37.45
594.84	88.94
594.99	72.56
595.15	65.54
595.31	30.43
595.47	93.62
595.62	88.94
595.78	70.22
595.94	77.24
596.10	86.60
596.25	53.83
596.41	46.81
596.57	91.28
596.73	84.26
596.88	60.85
597.04	56.17
597.20	128.73
597.36	65.54
597.51	72.56
597.67	142.77
597.83	81.92
597.99	88.94
598.14	77.24
598.30	42.13
598.46	121.71
598.61	60.85
598.77	119.37
598.93	105.32
599.09	0.00
599.24	86.60
599.40	79.58
599.56	126.39
599.71	39.79
599.87	39.79
600.03	100.64
600.18	4.68
600.34	39.79
600.50	74.90
600.65	58.51
600.81	128.73
600.97	58.51
601.12	128.73
601.28	77.24
601.44	72.56
601.59	56.17
601.75	84.26
601.91	131.07
602.06	58.51
602.22	95.96
602.37	51.49
602.53	35.11
602.69	70.22
602.84	46.81
603.00	110.01
603.16	79.58
603.31	112.35
603.47	65.54
603.62	86.60
603.78	81.92
603.94	79.58
604.09	98.30
604.25	84.26
604.40	95.96
604.56	58.51
604.71	98.30
604.87	88.94
605.03	70.22
605.18	35.11
605.34	114.69
605.49	112.35
605.65	95.96
605.80	81.92
605.96	145.11
606.12	84.26
606.27	51.49
606.43	77.24
606.58	65.54
606.74	105.32
606.89	65.54
607.05	35.11
607.20	39.79
607.36	119.37
607.51	0.00
607.67	126.39
607.82	112.35
607.98	65.54
608.13	65.54
608.29	105.32
608.44	79.58
608.60	98.30
608.75	72.56
608.91	0.00
609.06	56.17
609.22	16.38
609.37	42.13
609.53	49.15
609.68	86.60
609.84	119.37
609.99	72.56
610.15	51.49
610.30	42.13
610.46	0.00
610.61	14.04
610.76	60.85
610.92	67.88
611.07	30.43
611.23	102.98
611.38	4.68
611.54	44.47
611.69	67.88
611.84	145.11
612.00	95.96
612.15	72.56
612.31	35.11
612.46	58.51
612.62	44.47
612.77	119.37
612.92	21.06
613.08	124.05
613.23	93.62
613.39	44.47
613.54	67.88
613.69	79.58
613.85	95.96
614.00	35.11
614.15	28.09
614.31	58.51
614.46	74.90
614.62	39.79
614.77	138.09
614.92	74.90
615.08	51.49
615.23	14.04
615.38	128.73
615.54	126.39
615.69	77.24
615.84	23.41
616.00	58.51
616.15	63.19
616.30	32.77
616.46	49.15
616.61	0.00
616.76	53.83
616.92	23.41
617.07	44.47
617.22	100.64
617.37	51.49
617.53	28.09
617.68	72.56
617.83	0.00
617.99	56.17
618.14	88.94
618.29	58.51
618.45	60.85
618.60	49.15
618.75	30.43
618.90	81.92
619.06	18.72
619.21	32.77
619.36	42.13
619.51	93.62
619.67	28.09
619.82	60.85
619.97	67.88
620.12	18.72
620.28	86.60
620.43	0.00
620.58	60.85
620.73	56.17
620.89	35.11
621.04	88.94
621.19	0.00
621.34	79.58
621.49	0.00
621.65	70.22
621.80	11.70
621.95	30.43
622.10	63.19
622.25	44.47
622.41	39.79
622.56	93.62
622.71	51.49
622.86	42.13
623.01	32.77
623.16	81.92
623.32	30.43
623.47	145.11
623.62	74.90
623.77	39.79
623.92	7.02
624.07	39.79
624.23	161.50
624.38	65.54
624.53	11.70
624.68	2.34
624.83	16.38
624.98	65.54
625.13	112.35
625.29	173.20
625.44	121.71
625.59	23.41
625.74	51.49
625.89	25.75
626.04	77.24
626.19	42.13
626.34	51.49
626.49	56.17
626.65	86.60
626.80	77.24
626.95	42.13
627.10	18.72
627.25	77.24
627.40	114.69
627.55	16.38
627.70	70.22
627.85	77.24
628.00	4.68
628.15	84.26
628.30	86.60
628.45	126.39
628.60	7.02
628.76	86.60
628.91	56.17
629.06	42.13
629.21	112.35
629.36	30.43
629.51	44.47
629.66	11.70
629.81	44.47
629.96	32.77
630.11	72.56
630.26	53.83
630.41	110.01
630.56	42.13
630.71	42.13
630.86	25.75
631.01	0.00
631.16	2.34
631.31	23.41
631.46	18.72
631.61	53.83
631.76	4.68
631.91	79.58
632.06	0.00
632.21	77.24
632.36	11.70
632.51	91.28
632.66	0.00
632.81	63.19
632.96	37.45
633.10	28.09
633.25	2.34
633.40	112.35
633.55	91.28
633.70	124.05
633.85	25.75
634.00	25.75
634.15	32.77
634.30	23.41
634.45	72.56
634.60	84.26
634.75	51.49
634.90	44.47
635.05	86.60
635.19	30.43
635.34	32.77
635.49	124.05
635.64	28.09
635.79	28.09
635.94	60.85
636.09	74.90
636.24	23.41
636.39	0.00
636.53	35.11
636.68	39.79
636.83	65.54
636.98	49.15
637.13	60.85
637.28	70.22
637.43	30.43
637.57	35.11
637.72	79.58
637.87	63.19
638.02	65.54
638.17	37.45
638.32	63.19
638.46	102.98
638.61	95.96
638.76	49.15
638.91	0.00
639.06	74.90
639.20	0.00
639.35	72.56
639.50	42.13
639.65	49.15
639.80	95.96
639.94	93.62
640.09	88.94
640.24	65.54
640.39	98.30
640.54	39.79
640.68	32.77
640.83	84.26
640.98	49.15
641.13	53.83
641.27	18.72
641.42	138.09
641.57	49.15
641.72	95.96
641.86	86.60
642.01	72.56
642.16	2.34
642.31	0.00
642.45	32.77
642.60	114.69
642.75	72.56
642.90	37.45
643.04	53.83
643.19	30.43
643.34	32.77
643.48	46.81
643.63	65.54
643.78	46.81
643.93	77.24
644.07	102.98
644.22	126.39
644.37	42.13
644.51	42.13
644.66	74.90
644.81	42.13
644.95	81.92
645.10	42.13
645.25	58.51
645.39	107.66
645.54	14.04
645.69	28.09
645.83	74.90
645.98	56.17
646.13	70.22
646.27	72.56
646.42	2.34
646.57	72.56
646.71	58.51
646.86	159.16
647.00	74.90
647.15	60.85
647.30	0.00
647.44	91.28
647.59	35.11
647.74	14.04
647.88	72.56
648.03	56.17
648.17	46.81
648.32	25.75
648.47	53.83
648.61	25.75
648.76	65.54
648.90	86.60
649.05	79.58
649.20	56.17
649.34	46.81
649.49	51.49
649.63	84.26
649.78	42.13
649.92	51.49
650.07	110.01
650.21	86.60
650.36	28.09
650.51	93.62
650.65	98.30
650.80	74.90
650.94	35.11
651.09	25.75
651.23	4.68
651.38	16.38
651.52	39.79
651.67	21.06
651.81	88.94
651.96	51.49
652.10	166.18
652.25	128.73
652.39	28.09
652.54	81.92
652.68	67.88
652.83	51.49
652.97	44.47
653.12	63.19
653.26	0.00
653.41	0.00
653.55	32.77
653.70	25.75
653.84	58.51
653.99	0.00
654.13	56.17
654.27	102.98
654.42	88.94
654.56	119.37
654.71	49.15
654.85	35.11
655.00	56.17
655.14	11.70
655.29	56.17
655.43	79.58
655.57	112.35
655.72	42.13
655.86	86.60
656.01	124.05
656.15	30.43
656.30	23.41
656.44	32.77
656.58	91.28
656.73	21.06
656.87	102.98
657.01	95.96
657.16	30.43
657.30	30.43
657.45	30.43
657.59	32.77
657.73	72.56
657.88	93.62
658.02	63.19
658.16	0.00
658.31	0.00
658.45	121.71
658.60	100.64
658.74	0.00
658.88	39.79
659.03	23.41
659.17	58.51
659.31	84.26
659.46	70.22
659.60	46.81
659.74	72.56
659.89	46.81
660.03	79.58
660.17	49.15
660.32	79.58
660.46	23.41
660.60	42.13
660.74	107.66
660.89	60.85
661.03	84.26
661.17	21.06
661.32	11.70
661.46	39.79
661.60	58.51
661.74	84.26
661.89	102.98
662.03	126.39
662.17	21.06
662.31	42.13
662.46	49.15
662.60	72.56
662.74	42.13
662.88	35.11
663.03	142.77
663.17	18.72
663.31	23.41
663.45	58.51
663.60	72.56
663.74	63.19
663.88	32.77
664.02	18.72
664.17	4.68
664.31	16.38
664.45	11.70
664.59	95.96
664.73	159.16
664.88	74.90
665.02	49.15
665.16	0.00
665.30	0.00
665.44	42.13
665.59	72.56
665.73	77.24
665.87	35.11
666.01	18.72
666.15	65.54
666.29	37.45
666.44	49.15
666.58	105.32
666.72	65.54
666.86	70.22
667.00	81.92
667.14	49.15
667.28	98.30
667.43	77.24
667.57	51.49
667.71	67.88
667.85	131.07
667.99	7.02
668.13	86.60
668.27	56.17
668.41	102.98
668.56	39.79
668.70	77.24
668.84	37.45
668.98	46.81
669.12	35.11
669.26	86.60
669.40	91.28
669.54	119.37
669.68	119.37
669.82	95.96
669.96	53.83
670.10	21.06
670.25	110.01
670.39	0.00
670.53	9.36
670.67	30.43
670.81	81.92
670.95	51.49
671.09	0.00
671.23	28.09
671.37	142.77
671.51	86.60
671.65	44.47
671.79	72.56
671.93	58.51
672.07	58.51
672.21	0.00
672.35	114.69
672.49	9.36
672.63	18.72
672.77	100.64
672.91	44.47
673.05	23.41
673.19	84.26
673.33	2.34
673.47	23.41
673.61	81.92
673.75	0.00
673.89	58.51
674.03	107.66
674.17	0.00
674.31	100.64
674.45	88.94
674.59	44.47
674.73	84.26
674.87	28.09
675.01	42.13
675.15	23.41
675.29	0.00
675.43	72.56
675.56	25.75
675.70	21.06
675.84	58.51
675.98	67.88
676.12	49.15
676.26	42.13
676.40	95.96
676.54	28.09
676.68	65.54
676.82	102.98
676.96	53.83
677.10	0.00
677.23	95.96
677.37	23.41
677.51	56.17
677.65	100.64
677.79	0.00
677.93	65.54
678.07	51.49
678.21	11.70
678.34	72.56
678.48	39.79
678.62	81.92
678.76	53.83
678.90	102.98
679.04	28.09
679.18	51.49
679.31	0.00
679.45	25.75
679.59	110.01
679.73	18.72
679.87	53.83
680.00	23.41
680.14	9.36
680.28	16.38
680.42	77.24
680.56	67.88
680.70	67.88
680.83	42.13
680.97	100.64
681.11	84.26
681.25	84.26
681.39	42.13
681.52	30.43
681.66	79.58
681.80	42.13
681.94	105.32
682.07	42.13
682.21	51.49
682.35	0.00
682.49	37.45
682.62	102.98
682.76	42.13
682.90	51.49
683.04	86.60
683.17	51.49
683.31	37.45
683.45	32.77
683.59	65.54
683.72	63.19
683.86	58.51
684.00	119.37
684.13	56.17
684.27	0.00
684.41	9.36
684.55	28.09
684.68	86.60
684.82	100.64
684.96	23.41
685.09	0.00
685.23	39.79
685.37	53.83
685.50	2.34
685.64	56.17
685.78	35.11
685.91	37.45
686.05	67.88
686.19	35.11
686.32	25.75
686.46	84.26
686.60	35.11
686.73	79.58
686.87	0.00
687.01	14.04
687.14	56.17
687.28	25.75
687.42	70.22
687.55	49.15
687.69	35.11
687.82	51.49
687.96	0.00
688.10	91.28
688.23	0.00
688.37	32.77
688.50	4.68
688.64	11.70
688.78	39.79
688.91	84.26
689.05	9.36
689.18	51.49
689.32	21.06
689.46	65.54
689.59	0.00
689.73	7.02
689.86	44.47
690.00	25.75
690.13	98.30
690.27	0.00
690.41	74.90
690.54	9.36
690.68	126.39
690.81	28.09
690.95	56.17
691.08	58.51
691.22	60.85
691.35	7.02
691.49	42.13
691.62	21.06
691.76	18.72
691.89	44.47
692.03	81.92
692.16	58.51
692.30	79.58
692.43	49.15
692.57	14.04
692.70	9.36
692.84	49.15
692.97	23.41
693.11	35.11
693.24	42.13
693.38	67.88
693.51	65.54
693.65	37.45
693.78	0.00
693.92	126.39
694.05	67.88
694.19	0.00
694.32	63.19
694.45	32.77
694.59	4.68
694.72	30.43
694.86	0.00
694.99	9.36
695.13	18.72
695.26	0.00
695.39	28.09
695.53	77.24
695.66	23.41
695.80	88.94
695.93	23.41
696.07	16.38
696.20	0.00
696.33	60.85
696.47	56.17
696.60	32.77
696.73	25.75
696.87	28.09
697.00	39.79
697.14	14.04
697.27	67.88
697.40	117.03
697.54	21.06
697.67	84.26
697.80	37.45
697.94	0.00
698.07	67.88
698.21	67.88
698.34	9.36
698.47	0.00
698.61	72.56
698.74	11.70
698.87	30.43
699.01	70.22
699.14	35.11
699.27	63.19
699.40	60.85
699.54	30.43
699.67	44.47
699.80	14.04
699.94	0.00
700.07	28.09
700.20	18.72
700.34	14.04
700.47	2.34
700.60	35.11
700.73	25.75
700.87	65.54
701.00	49.15
701.13	63.19
701.26	0.00
701.40	0.00
701.53	28.09
701.66	16.38
701.79	9.36
701.93	23.41
702.06	65.54
702.19	100.64
702.32	42.13
702.46	63.19
702.59	25.75
702.72	79.58
702.85	88.94
702.99	79.58
703.12	42.13
703.25	81.92
703.38	126.39
703.51	18.72
703.65	23.41
703.78	53.83
703.91	0.00
704.04	25.75
704.17	95.96
704.31	44.47
704.44	18.72
704.57	91.28
704.70	39.79
704.83	32.77
704.96	53.83
705.10	28.09
705.23	39.79
>>>>>End Processed Spectral Data<<<<<
