SpectraSuite Data File
++++++++++++++++++++++++++++++++++++
Date: Fri Oct 04 12:13:35 GMT-05:00 2013
User: price-jones
Dark Spectrum Present: No
Reference Spectrum Present: No
Number of Sampled Component Spectra: 1
Spectrometers: USB2+H05261
Integration Time (usec): 10000 (USB2+H05261)
Spectra Averaged: 1 (USB2+H05261)
Boxcar Smoothing: 0 (USB2+H05261)
Correct for Electrical Dark: No (USB2+H05261)
Strobe/Lamp Enabled: No (USB2+H05261)
Correct for Detector Non-linearity: No (USB2+H05261)
Correct for Stray Light: No (USB2+H05261)
Number of Pixels in Processed Spectrum: 2048
>>>>>Begin Processed Spectral Data<<<<<
365.73	9.36
365.92	9.36
366.12	9.36
366.32	0.00
366.52	0.00
366.72	0.00
366.91	0.00
367.11	0.00
367.31	0.00
367.51	0.00
367.70	0.00
367.90	0.00
368.10	0.00
368.30	0.00
368.49	0.00
368.69	0.00
368.89	0.00
369.09	0.00
369.28	0.00
369.48	0.00
369.68	0.00
369.87	0.00
370.07	0.00
370.27	0.00
370.47	0.00
370.66	0.00
370.86	0.00
371.06	0.00
371.25	25.75
371.45	0.00
371.65	0.00
371.84	2.34
372.04	28.09
372.24	35.11
372.44	0.00
372.63	35.11
372.83	7.02
373.03	18.72
373.22	9.36
373.42	9.36
373.62	37.45
373.81	70.22
374.01	70.22
374.21	51.49
374.40	0.00
374.60	56.17
374.79	58.51
374.99	100.64
375.19	46.81
375.38	14.04
375.58	0.00
375.78	9.36
375.97	14.04
376.17	70.22
376.37	98.30
376.56	0.00
376.76	30.43
376.95	0.00
377.15	11.70
377.35	63.19
377.54	28.09
377.74	0.00
377.93	72.56
378.13	16.38
378.33	49.15
378.52	60.85
378.72	37.45
378.91	112.35
379.11	0.00
379.31	0.00
379.50	0.00
379.70	30.43
379.89	0.00
380.09	58.51
380.28	35.11
380.48	112.35
380.68	102.98
380.87	11.70
381.07	88.94
381.26	91.28
381.46	0.00
381.65	0.00
381.85	0.00
382.04	86.60
382.24	44.47
382.43	0.00
382.63	4.68
382.83	0.00
383.02	25.75
383.22	0.00
383.41	49.15
383.61	60.85
383.80	37.45
384.00	16.38
384.19	0.00
384.39	0.00
384.58	0.00
384.78	30.43
384.97	0.00
385.17	56.17
385.36	0.00
385.56	14.04
385.75	0.00
385.95	63.19
386.14	72.56
386.34	0.00
386.53	16.38
386.72	4.68
386.92	0.00
387.11	0.00
387.31	100.64
387.50	0.00
387.70	37.45
387.89	79.58
388.09	0.00
388.28	23.41
388.48	4.68
388.67	49.15
388.86	88.94
389.06	23.41
389.25	0.00
389.45	0.00
389.64	9.36
389.84	25.75
390.03	0.00
390.22	0.00
390.42	0.00
390.61	0.00
390.81	35.11
391.00	0.00
391.19	65.54
391.39	39.79
391.58	28.09
391.78	0.00
391.97	35.11
392.16	42.13
392.36	39.79
392.55	11.70
392.75	0.00
392.94	0.00
393.13	60.85
393.33	0.00
393.52	100.64
393.71	0.00
393.91	0.00
394.10	4.68
394.29	46.81
394.49	63.19
394.68	0.00
394.88	25.75
395.07	124.05
395.26	44.47
395.46	4.68
395.65	0.00
395.84	46.81
396.04	0.00
396.23	0.00
396.42	11.70
396.62	67.88
396.81	0.00
397.00	53.83
397.19	16.38
397.39	49.15
397.58	39.79
397.77	0.00
397.97	46.81
398.16	0.00
398.35	0.00
398.55	21.06
398.74	67.88
398.93	37.45
399.12	23.41
399.32	63.19
399.51	28.09
399.70	70.22
399.90	0.00
400.09	42.13
400.28	2.34
400.47	0.00
400.67	51.49
400.86	9.36
401.05	149.79
401.24	30.43
401.44	28.09
401.63	0.00
401.82	16.38
402.01	2.34
402.21	58.51
402.40	2.34
402.59	42.13
402.78	39.79
402.97	11.70
403.17	60.85
403.36	0.00
403.55	53.83
403.74	51.49
403.93	100.64
404.13	32.77
404.32	0.00
404.51	4.68
404.70	11.70
404.89	25.75
405.09	56.17
405.28	79.58
405.47	63.19
405.66	72.56
405.85	49.15
406.05	0.00
406.24	37.45
406.43	65.54
406.62	23.41
406.81	0.00
407.00	28.09
407.20	18.72
407.39	18.72
407.58	0.00
407.77	9.36
407.96	65.54
408.15	100.64
408.34	25.75
408.54	0.00
408.73	42.13
408.92	0.00
409.11	65.54
409.30	23.41
409.49	46.81
409.68	58.51
409.87	114.69
410.07	0.00
410.26	60.85
410.45	102.98
410.64	14.04
410.83	65.54
411.02	128.73
411.21	25.75
411.40	65.54
411.59	46.81
411.78	86.60
411.98	9.36
412.17	88.94
412.36	30.43
412.55	37.45
412.74	0.00
412.93	0.00
413.12	0.00
413.31	0.00
413.50	86.60
413.69	91.28
413.88	18.72
414.07	63.19
414.26	46.81
414.45	30.43
414.64	86.60
414.83	9.36
415.02	32.77
415.22	21.06
415.41	46.81
415.60	51.49
415.79	67.88
415.98	35.11
416.17	53.83
416.36	74.90
416.55	91.28
416.74	2.34
416.93	28.09
417.12	18.72
417.31	0.00
417.50	81.92
417.69	7.02
417.88	49.15
418.07	28.09
418.26	0.00
418.45	18.72
418.64	21.06
418.83	30.43
419.02	65.54
419.21	0.00
419.39	0.00
419.58	44.47
419.77	91.28
419.96	23.41
420.15	0.00
420.34	42.13
420.53	30.43
420.72	86.60
420.91	98.30
421.10	11.70
421.29	35.11
421.48	70.22
421.67	79.58
421.86	51.49
422.05	70.22
422.24	56.17
422.43	65.54
422.61	56.17
422.80	16.38
422.99	63.19
423.18	93.62
423.37	72.56
423.56	30.43
423.75	37.45
423.94	56.17
424.13	37.45
424.32	0.00
424.50	30.43
424.69	60.85
424.88	30.43
425.07	74.90
425.26	37.45
425.45	117.03
425.64	21.06
425.83	51.49
426.01	44.47
426.20	77.24
426.39	63.19
426.58	39.79
426.77	117.03
426.96	0.00
427.15	105.32
427.33	0.00
427.52	32.77
427.71	35.11
427.90	0.00
428.09	0.00
428.28	114.69
428.46	42.13
428.65	0.00
428.84	0.00
429.03	35.11
429.22	63.19
429.40	72.56
429.59	81.92
429.78	16.38
429.97	65.54
430.16	56.17
430.34	0.00
430.53	23.41
430.72	72.56
430.91	67.88
431.10	39.79
431.28	0.00
431.47	11.70
431.66	60.85
431.85	93.62
432.03	60.85
432.22	16.38
432.41	0.00
432.60	21.06
432.79	0.00
432.97	95.96
433.16	70.22
433.35	0.00
433.54	51.49
433.72	86.60
433.91	81.92
434.10	42.13
434.28	58.51
434.47	14.04
434.66	63.19
434.85	51.49
435.03	44.47
435.22	81.92
435.41	0.00
435.59	9.36
435.78	0.00
435.97	37.45
436.16	65.54
436.34	0.00
436.53	32.77
436.72	86.60
436.90	53.83
437.09	95.96
437.28	39.79
437.46	2.34
437.65	74.90
437.84	124.05
438.02	93.62
438.21	37.45
438.40	11.70
438.58	65.54
438.77	84.26
438.96	65.54
439.14	60.85
439.33	42.13
439.52	14.04
439.70	30.43
439.89	79.58
440.08	14.04
440.26	7.02
440.45	121.71
440.63	21.06
440.82	16.38
441.01	79.58
441.19	44.47
441.38	70.22
441.57	39.79
441.75	18.72
441.94	35.11
442.12	39.79
442.31	46.81
442.50	37.45
442.68	107.66
442.87	42.13
443.05	0.00
443.24	95.96
443.43	58.51
443.61	4.68
443.80	84.26
443.98	30.43
444.17	77.24
444.35	58.51
444.54	77.24
444.73	35.11
444.91	72.56
445.10	95.96
445.28	42.13
445.47	39.79
445.65	14.04
445.84	107.66
446.02	65.54
446.21	21.06
446.39	9.36
446.58	0.00
446.77	67.88
446.95	77.24
447.14	0.00
447.32	88.94
447.51	44.47
447.69	42.13
447.88	107.66
448.06	25.75
448.25	65.54
448.43	81.92
448.62	91.28
448.80	32.77
448.99	70.22
449.17	67.88
449.36	46.81
449.54	32.77
449.73	65.54
449.91	91.28
450.10	60.85
450.28	65.54
450.46	105.32
450.65	65.54
450.83	121.71
451.02	32.77
451.20	11.70
451.39	67.88
451.57	16.38
451.76	46.81
451.94	117.03
452.13	0.00
452.31	0.00
452.49	77.24
452.68	79.58
452.86	51.49
453.05	21.06
453.23	9.36
453.42	37.45
453.60	110.01
453.78	53.83
453.97	0.00
454.15	60.85
454.34	23.41
454.52	37.45
454.70	95.96
454.89	77.24
455.07	16.38
455.26	67.88
455.44	25.75
455.62	7.02
455.81	0.00
455.99	25.75
456.17	4.68
456.36	23.41
456.54	93.62
456.73	58.51
456.91	65.54
457.09	74.90
457.28	112.35
457.46	126.39
457.64	58.51
457.83	60.85
458.01	0.00
458.19	100.64
458.38	58.51
458.56	37.45
458.74	51.49
458.93	7.02
459.11	37.45
459.29	91.28
459.48	23.41
459.66	107.66
459.84	35.11
460.03	9.36
460.21	0.00
460.39	46.81
460.57	49.15
460.76	65.54
460.94	32.77
461.12	72.56
461.31	44.47
461.49	63.19
461.67	84.26
461.85	121.71
462.04	39.79
462.22	121.71
462.40	46.81
462.59	98.30
462.77	2.34
462.95	110.01
463.13	42.13
463.32	49.15
463.50	37.45
463.68	42.13
463.86	79.58
464.05	63.19
464.23	67.88
464.41	39.79
464.59	49.15
464.78	126.39
464.96	81.92
465.14	102.98
465.32	16.38
465.50	79.58
465.69	88.94
465.87	0.00
466.05	0.00
466.23	7.02
466.41	77.24
466.60	63.19
466.78	74.90
466.96	56.17
467.14	58.51
467.32	72.56
467.51	58.51
467.69	23.41
467.87	25.75
468.05	44.47
468.23	67.88
468.41	30.43
468.60	0.00
468.78	49.15
468.96	72.56
469.14	91.28
469.32	35.11
469.50	86.60
469.69	44.47
469.87	35.11
470.05	98.30
470.23	74.90
470.41	105.32
470.59	51.49
470.77	56.17
470.95	0.00
471.14	67.88
471.32	18.72
471.50	126.39
471.68	63.19
471.86	49.15
472.04	77.24
472.22	65.54
472.40	46.81
472.58	56.17
472.77	77.24
472.95	23.41
473.13	100.64
473.31	91.28
473.49	65.54
473.67	0.00
473.85	42.13
474.03	65.54
474.21	25.75
474.39	30.43
474.57	44.47
474.75	72.56
474.93	0.00
475.12	98.30
475.30	49.15
475.48	37.45
475.66	23.41
475.84	63.19
476.02	102.98
476.20	35.11
476.38	32.77
476.56	88.94
476.74	60.85
476.92	42.13
477.10	44.47
477.28	79.58
477.46	81.92
477.64	49.15
477.82	72.56
478.00	124.05
478.18	81.92
478.36	112.35
478.54	21.06
478.72	11.70
478.90	88.94
479.08	32.77
479.26	4.68
479.44	121.71
479.62	23.41
479.80	79.58
479.98	63.19
480.16	77.24
480.34	37.45
480.52	2.34
480.70	102.98
480.88	49.15
481.06	28.09
481.24	14.04
481.41	72.56
481.59	0.00
481.77	86.60
481.95	0.00
482.13	46.81
482.31	91.28
482.49	21.06
482.67	70.22
482.85	95.96
483.03	0.00
483.21	51.49
483.39	56.17
483.57	70.22
483.74	70.22
483.92	53.83
484.10	11.70
484.28	93.62
484.46	0.00
484.64	88.94
484.82	30.43
485.00	25.75
485.18	91.28
485.35	86.60
485.53	18.72
485.71	86.60
485.89	74.90
486.07	133.41
486.25	70.22
486.43	77.24
486.61	72.56
486.78	74.90
486.96	72.56
487.14	42.13
487.32	37.45
487.50	105.32
487.68	102.98
487.85	0.00
488.03	67.88
488.21	0.00
488.39	7.02
488.57	32.77
488.75	42.13
488.92	46.81
489.10	81.92
489.28	168.52
489.46	84.26
489.64	2.34
489.81	102.98
489.99	35.11
490.17	79.58
490.35	18.72
490.53	58.51
490.70	35.11
490.88	133.41
491.06	56.17
491.24	93.62
491.41	112.35
491.59	0.00
491.77	56.17
491.95	21.06
492.13	77.24
492.30	107.66
492.48	65.54
492.66	46.81
492.84	84.26
493.01	70.22
493.19	39.79
493.37	70.22
493.54	65.54
493.72	39.79
493.90	79.58
494.08	39.79
494.25	72.56
494.43	65.54
494.61	79.58
494.79	88.94
494.96	77.24
495.14	0.00
495.32	63.19
495.49	32.77
495.67	28.09
495.85	65.54
496.02	156.82
496.20	23.41
496.38	119.37
496.55	0.00
496.73	98.30
496.91	81.92
497.09	88.94
497.26	72.56
497.44	95.96
497.62	58.51
497.79	23.41
497.97	25.75
498.14	114.69
498.32	105.32
498.50	44.47
498.67	58.51
498.85	124.05
499.03	42.13
499.20	107.66
499.38	18.72
499.56	88.94
499.73	91.28
499.91	35.11
500.08	49.15
500.26	67.88
500.44	93.62
500.61	79.58
500.79	28.09
500.97	18.72
501.14	79.58
501.32	30.43
501.49	32.77
501.67	142.77
501.84	51.49
502.02	98.30
502.20	79.58
502.37	100.64
502.55	105.32
502.72	37.45
502.90	81.92
503.07	79.58
503.25	84.26
503.43	114.69
503.60	49.15
503.78	65.54
503.95	93.62
504.13	93.62
504.30	84.26
504.48	163.84
504.65	105.32
504.83	0.00
505.01	138.09
505.18	63.19
505.36	81.92
505.53	32.77
505.71	77.24
505.88	58.51
506.06	102.98
506.23	86.60
506.41	49.15
506.58	37.45
506.76	56.17
506.93	70.22
507.11	42.13
507.28	138.09
507.46	119.37
507.63	74.90
507.81	98.30
507.98	119.37
508.16	70.22
508.33	98.30
508.50	44.47
508.68	63.19
508.85	112.35
509.03	0.00
509.20	74.90
509.38	117.03
509.55	145.11
509.73	51.49
509.90	9.36
510.08	23.41
510.25	88.94
510.42	51.49
510.60	46.81
510.77	77.24
510.95	86.60
511.12	88.94
511.30	121.71
511.47	79.58
511.64	114.69
511.82	0.00
511.99	81.92
512.17	42.13
512.34	145.11
512.51	86.60
512.69	91.28
512.86	147.45
513.04	86.60
513.21	39.79
513.38	79.58
513.56	37.45
513.73	49.15
513.90	102.98
514.08	67.88
514.25	23.41
514.43	168.52
514.60	114.69
514.77	98.30
514.95	46.81
515.12	28.09
515.29	147.45
515.47	95.96
515.64	63.19
515.81	86.60
515.99	88.94
516.16	53.83
516.33	4.68
516.51	98.30
516.68	63.19
516.85	126.39
517.03	74.90
517.20	107.66
517.37	74.90
517.54	112.35
517.72	88.94
517.89	98.30
518.06	107.66
518.24	124.05
518.41	100.64
518.58	126.39
518.75	67.88
518.93	110.01
519.10	98.30
519.27	93.62
519.45	65.54
519.62	93.62
519.79	81.92
519.96	102.98
520.14	46.81
520.31	98.30
520.48	49.15
520.65	74.90
520.83	81.92
521.00	74.90
521.17	32.77
521.34	65.54
521.52	86.60
521.69	77.24
521.86	18.72
522.03	0.00
522.20	81.92
522.38	163.84
522.55	77.24
522.72	60.85
522.89	91.28
523.07	117.03
523.24	9.36
523.41	25.75
523.58	72.56
523.75	58.51
523.92	53.83
524.10	107.66
524.27	105.32
524.44	124.05
524.61	84.26
524.78	128.73
524.96	81.92
525.13	138.09
525.30	110.01
525.47	79.58
525.64	117.03
525.81	72.56
525.98	84.26
526.16	63.19
526.33	58.51
526.50	46.81
526.67	135.75
526.84	18.72
527.01	105.32
527.18	32.77
527.36	72.56
527.53	84.26
527.70	140.43
527.87	65.54
528.04	107.66
528.21	70.22
528.38	79.58
528.55	100.64
528.72	110.01
528.89	117.03
529.07	105.32
529.24	11.70
529.41	37.45
529.58	60.85
529.75	86.60
529.92	16.38
530.09	51.49
530.26	81.92
530.43	77.24
530.60	95.96
530.77	95.96
530.94	184.90
531.11	140.43
531.28	58.51
531.46	81.92
531.63	74.90
531.80	21.06
531.97	37.45
532.14	98.30
532.31	100.64
532.48	102.98
532.65	105.32
532.82	105.32
532.99	0.00
533.16	88.94
533.33	91.28
533.50	142.77
533.67	107.66
533.84	79.58
534.01	81.92
534.18	86.60
534.35	133.41
534.52	91.28
534.69	112.35
534.86	46.81
535.03	30.43
535.20	37.45
535.37	32.77
535.54	131.07
535.71	53.83
535.88	84.26
536.05	100.64
536.22	60.85
536.38	44.47
536.55	86.60
536.72	98.30
536.89	16.38
537.06	140.43
537.23	91.28
537.40	0.00
537.57	74.90
537.74	72.56
537.91	110.01
538.08	44.47
538.25	67.88
538.42	88.94
538.59	84.26
538.75	56.17
538.92	84.26
539.09	16.38
539.26	131.07
539.43	105.32
539.60	44.47
539.77	77.24
539.94	77.24
540.11	88.94
540.28	112.35
540.44	49.15
540.61	84.26
540.78	0.00
540.95	72.56
541.12	58.51
541.29	145.11
541.46	124.05
541.62	7.02
541.79	84.26
541.96	95.96
542.13	25.75
542.30	100.64
542.47	117.03
542.63	93.62
542.80	124.05
542.97	95.96
543.14	70.22
543.31	74.90
543.48	93.62
543.64	102.98
543.81	124.05
543.98	98.30
544.15	114.69
544.32	35.11
544.48	107.66
544.65	81.92
544.82	37.45
544.99	30.43
545.16	53.83
545.32	49.15
545.49	124.05
545.66	84.26
545.83	131.07
546.00	147.45
546.16	128.73
546.33	135.75
546.50	105.32
546.67	46.81
546.83	81.92
547.00	49.15
547.17	131.07
547.34	117.03
547.50	86.60
547.67	142.77
547.84	60.85
548.00	114.69
548.17	110.01
548.34	88.94
548.51	0.00
548.67	117.03
548.84	105.32
549.01	53.83
549.18	100.64
549.34	49.15
549.51	117.03
549.68	117.03
549.84	63.19
550.01	135.75
550.18	121.71
550.34	81.92
550.51	112.35
550.68	72.56
550.84	140.43
551.01	56.17
551.18	100.64
551.34	81.92
551.51	117.03
551.68	0.00
551.84	124.05
552.01	126.39
552.18	98.30
552.34	102.98
552.51	102.98
552.68	37.45
552.84	117.03
553.01	91.28
553.18	21.06
553.34	119.37
553.51	102.98
553.67	42.13
553.84	112.35
554.01	102.98
554.17	112.35
554.34	37.45
554.51	77.24
554.67	142.77
554.84	42.13
555.00	60.85
555.17	67.88
555.33	117.03
555.50	79.58
555.67	91.28
555.83	88.94
556.00	93.62
556.16	105.32
556.33	18.72
556.50	56.17
556.66	86.60
556.83	79.58
556.99	53.83
557.16	88.94
557.32	60.85
557.49	39.79
557.65	79.58
557.82	21.06
557.98	126.39
558.15	2.34
558.32	56.17
558.48	100.64
558.65	138.09
558.81	98.30
558.98	42.13
559.14	35.11
559.31	86.60
559.47	53.83
559.64	124.05
559.80	140.43
559.97	81.92
560.13	166.18
560.30	117.03
560.46	95.96
560.63	152.13
560.79	102.98
560.96	60.85
561.12	93.62
561.29	23.41
561.45	44.47
561.61	23.41
561.78	70.22
561.94	37.45
562.11	102.98
562.27	88.94
562.44	65.54
562.60	65.54
562.77	28.09
562.93	79.58
563.10	53.83
563.26	67.88
563.42	117.03
563.59	51.49
563.75	28.09
563.92	67.88
564.08	100.64
564.24	98.30
564.41	140.43
564.57	100.64
564.74	7.02
564.90	84.26
565.07	114.69
565.23	110.01
565.39	100.64
565.56	74.90
565.72	28.09
565.88	53.83
566.05	88.94
566.21	98.30
566.38	77.24
566.54	81.92
566.70	79.58
566.87	44.47
567.03	35.11
567.19	88.94
567.36	128.73
567.52	149.79
567.68	163.84
567.85	86.60
568.01	110.01
568.17	18.72
568.34	56.17
568.50	32.77
568.66	84.26
568.83	79.58
568.99	98.30
569.15	67.88
569.32	14.04
569.48	100.64
569.64	117.03
569.81	93.62
569.97	107.66
570.13	56.17
570.30	0.00
570.46	105.32
570.62	170.86
570.78	140.43
570.95	67.88
571.11	81.92
571.27	72.56
571.43	88.94
571.60	74.90
571.76	25.75
571.92	30.43
572.09	39.79
572.25	30.43
572.41	58.51
572.57	25.75
572.74	72.56
572.90	95.96
573.06	91.28
573.22	44.47
573.38	102.98
573.55	98.30
573.71	88.94
573.87	100.64
574.03	35.11
574.20	77.24
574.36	30.43
574.52	49.15
574.68	65.54
574.84	60.85
575.01	72.56
575.17	42.13
575.33	44.47
575.49	86.60
575.65	58.51
575.82	86.60
575.98	84.26
576.14	56.17
576.30	49.15
576.46	93.62
576.62	95.96
576.79	28.09
576.95	21.06
577.11	42.13
577.27	105.32
577.43	63.19
577.59	93.62
577.75	23.41
577.92	88.94
578.08	128.73
578.24	93.62
578.40	114.69
578.56	119.37
578.72	128.73
578.88	58.51
579.04	86.60
579.21	91.28
579.37	4.68
579.53	18.72
579.69	77.24
579.85	42.13
580.01	53.83
580.17	105.32
580.33	110.01
580.49	81.92
580.65	77.24
580.82	51.49
580.98	84.26
581.14	77.24
581.30	30.43
581.46	70.22
581.62	37.45
581.78	37.45
581.94	65.54
582.10	37.45
582.26	35.11
582.42	25.75
582.58	39.79
582.74	100.64
582.90	140.43
583.06	53.83
583.22	65.54
583.38	105.32
583.54	77.24
583.70	14.04
583.86	65.54
584.02	86.60
584.18	25.75
584.34	102.98
584.50	112.35
584.66	46.81
584.82	37.45
584.98	53.83
585.14	152.13
585.30	124.05
585.46	95.96
585.62	32.77
585.78	70.22
585.94	121.71
586.10	86.60
586.26	124.05
586.42	35.11
586.58	35.11
586.74	25.75
586.90	107.66
587.06	107.66
587.22	37.45
587.38	147.45
587.54	98.30
587.70	105.32
587.86	88.94
588.02	72.56
588.18	39.79
588.34	156.82
588.49	72.56
588.65	63.19
588.81	56.17
588.97	121.71
589.13	77.24
589.29	28.09
589.45	51.49
589.61	42.13
589.77	53.83
589.93	149.79
590.08	51.49
590.24	32.77
590.40	49.15
590.56	70.22
590.72	100.64
590.88	67.88
591.04	77.24
591.20	102.98
591.35	93.62
591.51	84.26
591.67	65.54
591.83	93.62
591.99	0.00
592.15	105.32
592.31	42.13
592.46	30.43
592.62	28.09
592.78	32.77
592.94	56.17
593.10	65.54
593.26	14.04
593.41	65.54
593.57	88.94
593.73	84.26
593.89	105.32
594.05	93.62
594.20	112.35
594.36	0.00
594.52	28.09
594.68	32.77
594.84	35.11
594.99	21.06
595.15	98.30
595.31	98.30
595.47	100.64
595.62	74.90
595.78	79.58
595.94	126.39
596.10	49.15
596.25	49.15
596.41	100.64
596.57	56.17
596.73	53.83
596.88	93.62
597.04	67.88
597.20	105.32
597.36	42.13
597.51	35.11
597.67	53.83
597.83	28.09
597.99	0.00
598.14	110.01
598.30	58.51
598.46	53.83
598.61	58.51
598.77	124.05
598.93	102.98
599.09	18.72
599.24	58.51
599.40	35.11
599.56	124.05
599.71	124.05
599.87	46.81
600.03	105.32
600.18	49.15
600.34	105.32
600.50	67.88
600.65	70.22
600.81	88.94
600.97	58.51
601.12	140.43
601.28	95.96
601.44	119.37
601.59	60.85
601.75	145.11
601.91	60.85
602.06	79.58
602.22	39.79
602.37	81.92
602.53	100.64
602.69	79.58
602.84	53.83
603.00	77.24
603.16	67.88
603.31	79.58
603.47	11.70
603.62	18.72
603.78	16.38
603.94	2.34
604.09	110.01
604.25	98.30
604.40	74.90
604.56	114.69
604.71	42.13
604.87	110.01
605.03	112.35
605.18	95.96
605.34	98.30
605.49	84.26
605.65	46.81
605.80	51.49
605.96	35.11
606.12	112.35
606.27	51.49
606.43	63.19
606.58	100.64
606.74	67.88
606.89	86.60
607.05	49.15
607.20	53.83
607.36	86.60
607.51	53.83
607.67	58.51
607.82	114.69
607.98	77.24
608.13	44.47
608.29	93.62
608.44	56.17
608.60	72.56
608.75	16.38
608.91	39.79
609.06	46.81
609.22	98.30
609.37	98.30
609.53	28.09
609.68	60.85
609.84	72.56
609.99	166.18
610.15	98.30
610.30	100.64
610.46	112.35
610.61	70.22
610.76	112.35
610.92	37.45
611.07	35.11
611.23	49.15
611.38	56.17
611.54	67.88
611.69	58.51
611.84	131.07
612.00	14.04
612.15	126.39
612.31	105.32
612.46	72.56
612.62	30.43
612.77	58.51
612.92	131.07
613.08	0.00
613.23	74.90
613.39	30.43
613.54	84.26
613.69	0.00
613.85	0.00
614.00	98.30
614.15	67.88
614.31	79.58
614.46	58.51
614.62	98.30
614.77	28.09
614.92	51.49
615.08	65.54
615.23	154.48
615.38	30.43
615.54	14.04
615.69	23.41
615.84	14.04
616.00	56.17
616.15	67.88
616.30	86.60
616.46	84.26
616.61	114.69
616.76	100.64
616.92	79.58
617.07	81.92
617.22	0.00
617.37	65.54
617.53	25.75
617.68	81.92
617.83	58.51
617.99	58.51
618.14	46.81
618.29	53.83
618.45	60.85
618.60	60.85
618.75	88.94
618.90	14.04
619.06	72.56
619.21	84.26
619.36	56.17
619.51	126.39
619.67	28.09
619.82	93.62
619.97	42.13
620.12	49.15
620.28	117.03
620.43	49.15
620.58	86.60
620.73	88.94
620.89	117.03
621.04	86.60
621.19	44.47
621.34	70.22
621.49	65.54
621.65	77.24
621.80	53.83
621.95	70.22
622.10	79.58
622.25	79.58
622.41	67.88
622.56	95.96
622.71	84.26
622.86	35.11
623.01	77.24
623.16	114.69
623.32	88.94
623.47	65.54
623.62	93.62
623.77	65.54
623.92	70.22
624.07	37.45
624.23	14.04
624.38	102.98
624.53	67.88
624.68	126.39
624.83	65.54
624.98	32.77
625.13	152.13
625.29	135.75
625.44	30.43
625.59	9.36
625.74	46.81
625.89	14.04
626.04	30.43
626.19	30.43
626.34	95.96
626.49	0.00
626.65	32.77
626.80	9.36
626.95	51.49
627.10	93.62
627.25	121.71
627.40	63.19
627.55	9.36
627.70	67.88
627.85	79.58
628.00	65.54
628.15	49.15
628.30	39.79
628.45	58.51
628.60	0.00
628.76	23.41
628.91	98.30
629.06	46.81
629.21	23.41
629.36	114.69
629.51	91.28
629.66	42.13
629.81	98.30
629.96	58.51
630.11	14.04
630.26	110.01
630.41	39.79
630.56	32.77
630.71	9.36
630.86	49.15
631.01	63.19
631.16	74.90
631.31	124.05
631.46	4.68
631.61	63.19
631.76	35.11
631.91	0.00
632.06	25.75
632.21	11.70
632.36	51.49
632.51	16.38
632.66	28.09
632.81	51.49
632.96	138.09
633.10	51.49
633.25	39.79
633.40	107.66
633.55	63.19
633.70	53.83
633.85	46.81
634.00	124.05
634.15	110.01
634.30	70.22
634.45	110.01
634.60	63.19
634.75	46.81
634.90	0.00
635.05	35.11
635.19	74.90
635.34	35.11
635.49	21.06
635.64	135.75
635.79	84.26
635.94	95.96
636.09	173.20
636.24	105.32
636.39	37.45
636.53	63.19
636.68	0.00
636.83	67.88
636.98	51.49
637.13	86.60
637.28	126.39
637.43	91.28
637.57	42.13
637.72	28.09
637.87	30.43
638.02	32.77
638.17	30.43
638.32	58.51
638.46	133.41
638.61	91.28
638.76	86.60
638.91	102.98
639.06	98.30
639.20	95.96
639.35	67.88
639.50	72.56
639.65	81.92
639.80	102.98
639.94	32.77
640.09	70.22
640.24	53.83
640.39	84.26
640.54	51.49
640.68	77.24
640.83	100.64
640.98	81.92
641.13	7.02
641.27	126.39
641.42	81.92
641.57	30.43
641.72	21.06
641.86	39.79
642.01	93.62
642.16	32.77
642.31	72.56
642.45	98.30
642.60	39.79
642.75	67.88
642.90	39.79
643.04	49.15
643.19	0.00
643.34	49.15
643.48	14.04
643.63	117.03
643.78	58.51
643.93	77.24
644.07	58.51
644.22	46.81
644.37	74.90
644.51	0.00
644.66	21.06
644.81	0.00
644.95	84.26
645.10	46.81
645.25	84.26
645.39	32.77
645.54	49.15
645.69	72.56
645.83	98.30
645.98	65.54
646.13	11.70
646.27	46.81
646.42	114.69
646.57	93.62
646.71	0.00
646.86	42.13
647.00	65.54
647.15	49.15
647.30	72.56
647.44	51.49
647.59	11.70
647.74	88.94
647.88	39.79
648.03	37.45
648.17	32.77
648.32	51.49
648.47	86.60
648.61	18.72
648.76	0.00
648.90	60.85
649.05	9.36
649.20	46.81
649.34	74.90
649.49	88.94
649.63	86.60
649.78	32.77
649.92	70.22
650.07	98.30
650.21	37.45
650.36	84.26
650.51	42.13
650.65	49.15
650.80	28.09
650.94	32.77
651.09	53.83
651.23	58.51
651.38	72.56
651.52	21.06
651.67	126.39
651.81	124.05
651.96	60.85
652.10	0.00
652.25	0.00
652.39	0.00
652.54	51.49
652.68	21.06
652.83	102.98
652.97	63.19
653.12	14.04
653.26	102.98
653.41	77.24
653.55	86.60
653.70	56.17
653.84	70.22
653.99	25.75
654.13	56.17
654.27	128.73
654.42	16.38
654.56	81.92
654.71	114.69
654.85	46.81
655.00	39.79
655.14	51.49
655.29	58.51
655.43	91.28
655.57	84.26
655.72	0.00
655.86	65.54
656.01	44.47
656.15	25.75
656.30	135.75
656.44	86.60
656.58	0.00
656.73	0.00
656.87	44.47
657.01	58.51
657.16	91.28
657.30	70.22
657.45	9.36
657.59	46.81
657.73	70.22
657.88	70.22
658.02	30.43
658.16	0.00
658.31	86.60
658.45	72.56
658.60	46.81
658.74	37.45
658.88	93.62
659.03	79.58
659.17	0.00
659.31	81.92
659.46	28.09
659.60	11.70
659.74	86.60
659.89	56.17
660.03	32.77
660.17	72.56
660.32	42.13
660.46	28.09
660.60	112.35
660.74	0.00
660.89	53.83
661.03	84.26
661.17	107.66
661.32	65.54
661.46	32.77
661.60	16.38
661.74	58.51
661.89	95.96
662.03	102.98
662.17	42.13
662.31	32.77
662.46	56.17
662.60	107.66
662.74	46.81
662.88	77.24
663.03	74.90
663.17	46.81
663.31	44.47
663.45	21.06
663.60	42.13
663.74	0.00
663.88	112.35
664.02	0.00
664.17	60.85
664.31	23.41
664.45	0.00
664.59	9.36
664.73	79.58
664.88	49.15
665.02	74.90
665.16	42.13
665.30	18.72
665.44	0.00
665.59	105.32
665.73	39.79
665.87	105.32
666.01	77.24
666.15	74.90
666.29	0.00
666.44	86.60
666.58	0.00
666.72	77.24
666.86	30.43
667.00	23.41
667.14	91.28
667.28	0.00
667.43	56.17
667.57	53.83
667.71	39.79
667.85	79.58
667.99	124.05
668.13	88.94
668.27	21.06
668.41	23.41
668.56	91.28
668.70	21.06
668.84	18.72
668.98	53.83
669.12	46.81
669.26	49.15
669.40	18.72
669.54	77.24
669.68	60.85
669.82	63.19
669.96	46.81
670.10	25.75
670.25	4.68
670.39	4.68
670.53	51.49
670.67	16.38
670.81	60.85
670.95	11.70
671.09	114.69
671.23	32.77
671.37	32.77
671.51	44.47
671.65	49.15
671.79	77.24
671.93	112.35
672.07	32.77
672.21	49.15
672.35	7.02
672.49	14.04
672.63	25.75
672.77	37.45
672.91	42.13
673.05	32.77
673.19	16.38
673.33	121.71
673.47	95.96
673.61	32.77
673.75	18.72
673.89	39.79
674.03	70.22
674.17	28.09
674.31	86.60
674.45	84.26
674.59	16.38
674.73	72.56
674.87	4.68
675.01	42.13
675.15	49.15
675.29	0.00
675.43	21.06
675.56	86.60
675.70	0.00
675.84	58.51
675.98	119.37
676.12	60.85
676.26	51.49
676.40	44.47
676.54	70.22
676.68	37.45
676.82	126.39
676.96	79.58
677.10	46.81
677.23	49.15
677.37	18.72
677.51	51.49
677.65	0.00
677.79	0.00
677.93	84.26
678.07	0.00
678.21	28.09
678.34	42.13
678.48	14.04
678.62	0.00
678.76	14.04
678.90	30.43
679.04	56.17
679.18	70.22
679.31	65.54
679.45	18.72
679.59	23.41
679.73	88.94
679.87	49.15
680.00	4.68
680.14	107.66
680.28	95.96
680.42	74.90
680.56	37.45
680.70	0.00
680.83	58.51
680.97	51.49
681.11	95.96
681.25	0.00
681.39	23.41
681.52	81.92
681.66	67.88
681.80	53.83
681.94	77.24
682.07	51.49
682.21	23.41
682.35	44.47
682.49	28.09
682.62	49.15
682.76	0.00
682.90	67.88
683.04	63.19
683.17	51.49
683.31	23.41
683.45	21.06
683.59	93.62
683.72	30.43
683.86	65.54
684.00	23.41
684.13	72.56
684.27	0.00
684.41	11.70
684.55	102.98
684.68	11.70
684.82	46.81
684.96	7.02
685.09	65.54
685.23	39.79
685.37	21.06
685.50	25.75
685.64	21.06
685.78	23.41
685.91	14.04
686.05	91.28
686.19	51.49
686.32	39.79
686.46	0.00
686.60	81.92
686.73	79.58
686.87	42.13
687.01	7.02
687.14	23.41
687.28	49.15
687.42	35.11
687.55	2.34
687.69	21.06
687.82	42.13
687.96	14.04
688.10	67.88
688.23	46.81
688.37	56.17
688.50	37.45
688.64	49.15
688.78	28.09
688.91	49.15
689.05	28.09
689.18	4.68
689.32	67.88
689.46	0.00
689.59	28.09
689.73	44.47
689.86	23.41
690.00	37.45
690.13	39.79
690.27	7.02
690.41	42.13
690.54	72.56
690.68	25.75
690.81	65.54
690.95	67.88
691.08	74.90
691.22	0.00
691.35	60.85
691.49	77.24
691.62	0.00
691.76	0.00
691.89	0.00
692.03	0.00
692.16	0.00
692.30	86.60
692.43	72.56
692.57	21.06
692.70	70.22
692.84	0.00
692.97	0.00
693.11	0.00
693.24	0.00
693.38	58.51
693.51	81.92
693.65	88.94
693.78	60.85
693.92	81.92
694.05	56.17
694.19	16.38
694.32	32.77
694.45	37.45
694.59	0.00
694.72	0.00
694.86	49.15
694.99	70.22
695.13	0.00
695.26	81.92
695.39	44.47
695.53	74.90
695.66	0.00
695.80	60.85
695.93	35.11
696.07	0.00
696.20	9.36
696.33	0.00
696.47	44.47
696.60	0.00
696.73	46.81
696.87	16.38
697.00	107.66
697.14	63.19
697.27	49.15
697.40	0.00
697.54	2.34
697.67	9.36
697.80	42.13
697.94	88.94
698.07	95.96
698.21	53.83
698.34	0.00
698.47	0.00
698.61	114.69
698.74	25.75
698.87	0.00
699.01	25.75
699.14	44.47
699.27	0.00
699.40	37.45
699.54	46.81
699.67	0.00
699.80	84.26
699.94	51.49
700.07	58.51
700.20	0.00
700.34	105.32
700.47	9.36
700.60	21.06
700.73	67.88
700.87	60.85
701.00	35.11
701.13	65.54
701.26	11.70
701.40	0.00
701.53	35.11
701.66	60.85
701.79	67.88
701.93	0.00
702.06	79.58
702.19	56.17
702.32	46.81
702.46	42.13
702.59	81.92
702.72	14.04
702.85	53.83
702.99	91.28
703.12	77.24
703.25	18.72
703.38	35.11
703.51	42.13
703.65	4.68
703.78	93.62
703.91	81.92
704.04	25.75
704.17	2.34
704.31	70.22
704.44	63.19
704.57	46.81
704.70	42.13
704.83	49.15
704.96	7.02
705.10	0.00
705.23	7.02
>>>>>End Processed Spectral Data<<<<<
