SpectraSuite Data File
++++++++++++++++++++++++++++++++++++
Date: Fri Oct 04 12:13:44 GMT-05:00 2013
User: price-jones
Dark Spectrum Present: No
Reference Spectrum Present: No
Number of Sampled Component Spectra: 1
Spectrometers: USB2+H05261
Integration Time (usec): 10000 (USB2+H05261)
Spectra Averaged: 1 (USB2+H05261)
Boxcar Smoothing: 0 (USB2+H05261)
Correct for Electrical Dark: No (USB2+H05261)
Strobe/Lamp Enabled: No (USB2+H05261)
Correct for Detector Non-linearity: No (USB2+H05261)
Correct for Stray Light: No (USB2+H05261)
Number of Pixels in Processed Spectrum: 2048
>>>>>Begin Processed Spectral Data<<<<<
365.73	37.45
365.92	37.45
366.12	37.45
366.32	0.00
366.52	0.00
366.72	0.00
366.91	0.00
367.11	0.00
367.31	0.00
367.51	0.00
367.70	0.00
367.90	0.00
368.10	0.00
368.30	0.00
368.49	0.00
368.69	0.00
368.89	0.00
369.09	0.00
369.28	0.00
369.48	0.00
369.68	0.00
369.87	0.00
370.07	0.00
370.27	0.00
370.47	0.00
370.66	0.00
370.86	18.72
371.06	0.00
371.25	0.00
371.45	9.36
371.65	30.43
371.84	0.00
372.04	0.00
372.24	0.00
372.44	0.00
372.63	0.00
372.83	32.77
373.03	32.77
373.22	32.77
373.42	0.00
373.62	18.72
373.81	105.32
374.01	114.69
374.21	7.02
374.40	25.75
374.60	35.11
374.79	37.45
374.99	86.60
375.19	0.00
375.38	25.75
375.58	32.77
375.78	23.41
375.97	23.41
376.17	25.75
376.37	37.45
376.56	0.00
376.76	98.30
376.95	0.00
377.15	42.13
377.35	7.02
377.54	67.88
377.74	44.47
377.93	44.47
378.13	42.13
378.33	58.51
378.52	60.85
378.72	0.00
378.91	23.41
379.11	30.43
379.31	0.00
379.50	39.79
379.70	11.70
379.89	0.00
380.09	67.88
380.28	7.02
380.48	16.38
380.68	72.56
380.87	21.06
381.07	0.00
381.26	16.38
381.46	28.09
381.65	35.11
381.85	0.00
382.04	0.00
382.24	0.00
382.43	56.17
382.63	0.00
382.83	14.04
383.02	58.51
383.22	42.13
383.41	37.45
383.61	0.00
383.80	0.00
384.00	65.54
384.19	14.04
384.39	0.00
384.58	0.00
384.78	0.00
384.97	53.83
385.17	74.90
385.36	4.68
385.56	37.45
385.75	0.00
385.95	0.00
386.14	0.00
386.34	0.00
386.53	79.58
386.72	0.00
386.92	30.43
387.11	25.75
387.31	9.36
387.50	0.00
387.70	0.00
387.89	7.02
388.09	42.13
388.28	58.51
388.48	4.68
388.67	44.47
388.86	44.47
389.06	28.09
389.25	9.36
389.45	53.83
389.64	0.00
389.84	44.47
390.03	4.68
390.22	28.09
390.42	0.00
390.61	28.09
390.81	49.15
391.00	49.15
391.19	46.81
391.39	0.00
391.58	16.38
391.78	2.34
391.97	0.00
392.16	0.00
392.36	0.00
392.55	32.77
392.75	49.15
392.94	0.00
393.13	16.38
393.33	0.00
393.52	11.70
393.71	0.00
393.91	37.45
394.10	93.62
394.29	84.26
394.49	4.68
394.68	44.47
394.88	25.75
395.07	42.13
395.26	30.43
395.46	0.00
395.65	72.56
395.84	56.17
396.04	46.81
396.23	30.43
396.42	2.34
396.62	0.00
396.81	0.00
397.00	37.45
397.19	58.51
397.39	86.60
397.58	16.38
397.77	70.22
397.97	0.00
398.16	0.00
398.35	35.11
398.55	60.85
398.74	81.92
398.93	58.51
399.12	30.43
399.32	63.19
399.51	28.09
399.70	0.00
399.90	46.81
400.09	0.00
400.28	0.00
400.47	39.79
400.67	25.75
400.86	18.72
401.05	7.02
401.24	42.13
401.44	37.45
401.63	0.00
401.82	30.43
402.01	35.11
402.21	70.22
402.40	63.19
402.59	88.94
402.78	16.38
402.97	4.68
403.17	32.77
403.36	7.02
403.55	2.34
403.74	18.72
403.93	11.70
404.13	7.02
404.32	23.41
404.51	0.00
404.70	25.75
404.89	23.41
405.09	0.00
405.28	39.79
405.47	63.19
405.66	60.85
405.85	60.85
406.05	86.60
406.24	84.26
406.43	56.17
406.62	37.45
406.81	60.85
407.00	16.38
407.20	0.00
407.39	67.88
407.58	91.28
407.77	32.77
407.96	14.04
408.15	23.41
408.34	32.77
408.54	74.90
408.73	70.22
408.92	0.00
409.11	74.90
409.30	67.88
409.49	0.00
409.68	16.38
409.87	37.45
410.07	0.00
410.26	79.58
410.45	11.70
410.64	16.38
410.83	100.64
411.02	65.54
411.21	0.00
411.40	56.17
411.59	93.62
411.78	11.70
411.98	0.00
412.17	9.36
412.36	16.38
412.55	56.17
412.74	53.83
412.93	60.85
413.12	91.28
413.31	16.38
413.50	72.56
413.69	18.72
413.88	16.38
414.07	46.81
414.26	30.43
414.45	35.11
414.64	110.01
414.83	11.70
415.02	18.72
415.22	37.45
415.41	0.00
415.60	0.00
415.79	14.04
415.98	74.90
416.17	18.72
416.36	28.09
416.55	25.75
416.74	88.94
416.93	0.00
417.12	23.41
417.31	32.77
417.50	98.30
417.69	0.00
417.88	39.79
418.07	0.00
418.26	28.09
418.45	32.77
418.64	25.75
418.83	0.00
419.02	77.24
419.21	0.00
419.39	0.00
419.58	0.00
419.77	0.00
419.96	0.00
420.15	14.04
420.34	105.32
420.53	44.47
420.72	51.49
420.91	77.24
421.10	0.00
421.29	14.04
421.48	53.83
421.67	74.90
421.86	18.72
422.05	16.38
422.24	39.79
422.43	44.47
422.61	117.03
422.80	7.02
422.99	42.13
423.18	32.77
423.37	42.13
423.56	56.17
423.75	79.58
423.94	42.13
424.13	93.62
424.32	44.47
424.50	16.38
424.69	0.00
424.88	35.11
425.07	18.72
425.26	28.09
425.45	39.79
425.64	105.32
425.83	28.09
426.01	0.00
426.20	0.00
426.39	0.00
426.58	46.81
426.77	81.92
426.96	2.34
427.15	0.00
427.33	11.70
427.52	23.41
427.71	11.70
427.90	81.92
428.09	51.49
428.28	0.00
428.46	110.01
428.65	84.26
428.84	49.15
429.03	16.38
429.22	0.00
429.40	4.68
429.59	0.00
429.78	51.49
429.97	0.00
430.16	0.00
430.34	0.00
430.53	70.22
430.72	30.43
430.91	86.60
431.10	0.00
431.28	86.60
431.47	9.36
431.66	0.00
431.85	30.43
432.03	63.19
432.22	37.45
432.41	14.04
432.60	114.69
432.79	11.70
432.97	67.88
433.16	51.49
433.35	0.00
433.54	35.11
433.72	70.22
433.91	23.41
434.10	60.85
434.28	110.01
434.47	56.17
434.66	42.13
434.85	23.41
435.03	0.00
435.22	63.19
435.41	46.81
435.59	79.58
435.78	63.19
435.97	81.92
436.16	53.83
436.34	4.68
436.53	37.45
436.72	84.26
436.90	0.00
437.09	56.17
437.28	0.00
437.46	0.00
437.65	0.00
437.84	51.49
438.02	9.36
438.21	51.49
438.40	114.69
438.58	11.70
438.77	100.64
438.96	72.56
439.14	72.56
439.33	0.00
439.52	56.17
439.70	2.34
439.89	0.00
440.08	21.06
440.26	35.11
440.45	53.83
440.63	0.00
440.82	25.75
441.01	51.49
441.19	30.43
441.38	4.68
441.57	0.00
441.75	67.88
441.94	39.79
442.12	16.38
442.31	25.75
442.50	65.54
442.68	7.02
442.87	30.43
443.05	32.77
443.24	102.98
443.43	32.77
443.61	72.56
443.80	46.81
443.98	81.92
444.17	46.81
444.35	81.92
444.54	0.00
444.73	0.00
444.91	16.38
445.10	84.26
445.28	21.06
445.47	0.00
445.65	25.75
445.84	32.77
446.02	49.15
446.21	102.98
446.39	58.51
446.58	49.15
446.77	58.51
446.95	42.13
447.14	0.00
447.32	53.83
447.51	35.11
447.69	49.15
447.88	23.41
448.06	9.36
448.25	21.06
448.43	65.54
448.62	56.17
448.80	49.15
448.99	88.94
449.17	105.32
449.36	4.68
449.54	51.49
449.73	0.00
449.91	72.56
450.10	7.02
450.28	53.83
450.46	7.02
450.65	51.49
450.83	53.83
451.02	0.00
451.20	51.49
451.39	56.17
451.57	74.90
451.76	21.06
451.94	100.64
452.13	0.00
452.31	18.72
452.49	21.06
452.68	67.88
452.86	102.98
453.05	23.41
453.23	2.34
453.42	67.88
453.60	30.43
453.78	16.38
453.97	30.43
454.15	105.32
454.34	0.00
454.52	35.11
454.70	126.39
454.89	53.83
455.07	0.00
455.26	74.90
455.44	28.09
455.62	91.28
455.81	16.38
455.99	28.09
456.17	0.00
456.36	0.00
456.54	4.68
456.73	74.90
456.91	0.00
457.09	0.00
457.28	60.85
457.46	0.00
457.64	49.15
457.83	79.58
458.01	2.34
458.19	9.36
458.38	11.70
458.56	63.19
458.74	72.56
458.93	70.22
459.11	23.41
459.29	72.56
459.48	7.02
459.66	30.43
459.84	67.88
460.03	74.90
460.21	72.56
460.39	77.24
460.57	56.17
460.76	11.70
460.94	0.00
461.12	56.17
461.31	100.64
461.49	60.85
461.67	0.00
461.85	32.77
462.04	18.72
462.22	39.79
462.40	28.09
462.59	67.88
462.77	70.22
462.95	14.04
463.13	2.34
463.32	9.36
463.50	7.02
463.68	70.22
463.86	0.00
464.05	58.51
464.23	25.75
464.41	0.00
464.59	49.15
464.78	28.09
464.96	114.69
465.14	70.22
465.32	72.56
465.50	84.26
465.69	84.26
465.87	14.04
466.05	56.17
466.23	32.77
466.41	11.70
466.60	0.00
466.78	124.05
466.96	42.13
467.14	39.79
467.32	28.09
467.51	46.81
467.69	112.35
467.87	60.85
468.05	58.51
468.23	37.45
468.41	18.72
468.60	60.85
468.78	49.15
468.96	21.06
469.14	28.09
469.32	9.36
469.50	0.00
469.69	0.00
469.87	51.49
470.05	81.92
470.23	35.11
470.41	93.62
470.59	11.70
470.77	0.00
470.95	32.77
471.14	63.19
471.32	28.09
471.50	67.88
471.68	39.79
471.86	60.85
472.04	53.83
472.22	100.64
472.40	37.45
472.58	46.81
472.77	93.62
472.95	65.54
473.13	2.34
473.31	28.09
473.49	2.34
473.67	0.00
473.85	23.41
474.03	32.77
474.21	49.15
474.39	18.72
474.57	63.19
474.75	44.47
474.93	42.13
475.12	77.24
475.30	21.06
475.48	44.47
475.66	46.81
475.84	58.51
476.02	70.22
476.20	9.36
476.38	72.56
476.56	46.81
476.74	14.04
476.92	81.92
477.10	51.49
477.28	0.00
477.46	28.09
477.64	58.51
477.82	93.62
478.00	44.47
478.18	49.15
478.36	2.34
478.54	81.92
478.72	67.88
478.90	0.00
479.08	32.77
479.26	72.56
479.44	39.79
479.62	0.00
479.80	0.00
479.98	42.13
480.16	86.60
480.34	0.00
480.52	51.49
480.70	0.00
480.88	63.19
481.06	63.19
481.24	42.13
481.41	53.83
481.59	0.00
481.77	2.34
481.95	0.00
482.13	37.45
482.31	60.85
482.49	18.72
482.67	65.54
482.85	102.98
483.03	74.90
483.21	84.26
483.39	32.77
483.57	44.47
483.74	63.19
483.92	21.06
484.10	121.71
484.28	39.79
484.46	25.75
484.64	74.90
484.82	39.79
485.00	53.83
485.18	16.38
485.35	11.70
485.53	0.00
485.71	93.62
485.89	16.38
486.07	98.30
486.25	39.79
486.43	112.35
486.61	46.81
486.78	42.13
486.96	145.11
487.14	0.00
487.32	51.49
487.50	102.98
487.68	4.68
487.85	7.02
488.03	21.06
488.21	117.03
488.39	0.00
488.57	32.77
488.75	16.38
488.92	44.47
489.10	30.43
489.28	72.56
489.46	0.00
489.64	0.00
489.81	25.75
489.99	60.85
490.17	46.81
490.35	7.02
490.53	119.37
490.70	0.00
490.88	21.06
491.06	16.38
491.24	95.96
491.41	28.09
491.59	0.00
491.77	60.85
491.95	2.34
492.13	35.11
492.30	84.26
492.48	11.70
492.66	42.13
492.84	81.92
493.01	18.72
493.19	70.22
493.37	53.83
493.54	23.41
493.72	98.30
493.90	39.79
494.08	70.22
494.25	0.00
494.43	42.13
494.61	39.79
494.79	21.06
494.96	0.00
495.14	60.85
495.32	21.06
495.49	0.00
495.67	98.30
495.85	16.38
496.02	77.24
496.20	39.79
496.38	74.90
496.55	0.00
496.73	35.11
496.91	23.41
497.09	16.38
497.26	14.04
497.44	77.24
497.62	56.17
497.79	39.79
497.97	0.00
498.14	95.96
498.32	23.41
498.50	91.28
498.67	16.38
498.85	70.22
499.03	25.75
499.20	18.72
499.38	74.90
499.56	0.00
499.73	84.26
499.91	60.85
500.08	60.85
500.26	32.77
500.44	65.54
500.61	49.15
500.79	23.41
500.97	79.58
501.14	81.92
501.32	72.56
501.49	95.96
501.67	18.72
501.84	0.00
502.02	39.79
502.20	95.96
502.37	0.00
502.55	30.43
502.72	25.75
502.90	63.19
503.07	65.54
503.25	65.54
503.43	70.22
503.60	128.73
503.78	56.17
503.95	93.62
504.13	86.60
504.30	42.13
504.48	58.51
504.65	74.90
504.83	42.13
505.01	74.90
505.18	77.24
505.36	142.77
505.53	72.56
505.71	21.06
505.88	53.83
506.06	0.00
506.23	53.83
506.41	35.11
506.58	37.45
506.76	0.00
506.93	49.15
507.11	0.00
507.28	44.47
507.46	7.02
507.63	14.04
507.81	44.47
507.98	70.22
508.16	2.34
508.33	0.00
508.50	25.75
508.68	53.83
508.85	86.60
509.03	77.24
509.20	56.17
509.38	0.00
509.55	86.60
509.73	63.19
509.90	7.02
510.08	9.36
510.25	0.00
510.42	30.43
510.60	81.92
510.77	35.11
510.95	4.68
511.12	0.00
511.30	39.79
511.47	46.81
511.64	114.69
511.82	110.01
511.99	14.04
512.17	11.70
512.34	28.09
512.51	65.54
512.69	0.00
512.86	35.11
513.04	67.88
513.21	18.72
513.38	84.26
513.56	23.41
513.73	42.13
513.90	11.70
514.08	81.92
514.25	98.30
514.43	28.09
514.60	46.81
514.77	95.96
514.95	32.77
515.12	74.90
515.29	51.49
515.47	72.56
515.64	58.51
515.81	74.90
515.99	18.72
516.16	4.68
516.33	32.77
516.51	60.85
516.68	0.00
516.85	0.00
517.03	4.68
517.20	67.88
517.37	39.79
517.54	67.88
517.72	0.00
517.89	93.62
518.06	11.70
518.24	56.17
518.41	25.75
518.58	49.15
518.75	0.00
518.93	86.60
519.10	84.26
519.27	67.88
519.45	21.06
519.62	44.47
519.79	46.81
519.96	86.60
520.14	110.01
520.31	72.56
520.48	0.00
520.65	67.88
520.83	18.72
521.00	0.00
521.17	60.85
521.34	39.79
521.52	128.73
521.69	53.83
521.86	56.17
522.03	11.70
522.20	35.11
522.38	23.41
522.55	56.17
522.72	65.54
522.89	0.00
523.07	79.58
523.24	11.70
523.41	25.75
523.58	65.54
523.75	39.79
523.92	77.24
524.10	46.81
524.27	58.51
524.44	14.04
524.61	35.11
524.78	39.79
524.96	51.49
525.13	42.13
525.30	67.88
525.47	4.68
525.64	7.02
525.81	28.09
525.98	32.77
526.16	9.36
526.33	0.00
526.50	53.83
526.67	49.15
526.84	37.45
527.01	51.49
527.18	35.11
527.36	32.77
527.53	21.06
527.70	81.92
527.87	124.05
528.04	86.60
528.21	25.75
528.38	138.09
528.55	9.36
528.72	70.22
528.89	42.13
529.07	11.70
529.24	72.56
529.41	58.51
529.58	44.47
529.75	9.36
529.92	60.85
530.09	37.45
530.26	65.54
530.43	98.30
530.60	37.45
530.77	107.66
530.94	0.00
531.11	9.36
531.28	67.88
531.46	100.64
531.63	4.68
531.80	51.49
531.97	0.00
532.14	58.51
532.31	30.43
532.48	51.49
532.65	88.94
532.82	110.01
532.99	91.28
533.16	91.28
533.33	30.43
533.50	67.88
533.67	77.24
533.84	53.83
534.01	58.51
534.18	81.92
534.35	133.41
534.52	93.62
534.69	65.54
534.86	0.00
535.03	46.81
535.20	77.24
535.37	49.15
535.54	63.19
535.71	16.38
535.88	56.17
536.05	91.28
536.22	14.04
536.38	0.00
536.55	77.24
536.72	32.77
536.89	7.02
537.06	77.24
537.23	74.90
537.40	140.43
537.57	44.47
537.74	100.64
537.91	0.00
538.08	46.81
538.25	44.47
538.42	0.00
538.59	91.28
538.75	67.88
538.92	0.00
539.09	9.36
539.26	74.90
539.43	14.04
539.60	35.11
539.77	11.70
539.94	63.19
540.11	107.66
540.28	128.73
540.44	49.15
540.61	9.36
540.78	138.09
540.95	74.90
541.12	0.00
541.29	117.03
541.46	0.00
541.62	91.28
541.79	49.15
541.96	86.60
542.13	0.00
542.30	0.00
542.47	77.24
542.63	11.70
542.80	42.13
542.97	16.38
543.14	39.79
543.31	21.06
543.48	37.45
543.64	63.19
543.81	77.24
543.98	0.00
544.15	67.88
544.32	58.51
544.48	65.54
544.65	60.85
544.82	7.02
544.99	21.06
545.16	70.22
545.32	100.64
545.49	0.00
545.66	16.38
545.83	9.36
546.00	35.11
546.16	91.28
546.33	60.85
546.50	56.17
546.67	21.06
546.83	88.94
547.00	46.81
547.17	77.24
547.34	49.15
547.50	93.62
547.67	28.09
547.84	35.11
548.00	37.45
548.17	37.45
548.34	114.69
548.51	56.17
548.67	56.17
548.84	51.49
549.01	112.35
549.18	117.03
549.34	25.75
549.51	46.81
549.68	37.45
549.84	105.32
550.01	44.47
550.18	60.85
550.34	14.04
550.51	28.09
550.68	70.22
550.84	72.56
551.01	65.54
551.18	72.56
551.34	58.51
551.51	0.00
551.68	0.00
551.84	11.70
552.01	67.88
552.18	65.54
552.34	56.17
552.51	28.09
552.68	7.02
552.84	65.54
553.01	7.02
553.18	0.00
553.34	44.47
553.51	37.45
553.67	126.39
553.84	0.00
554.01	23.41
554.17	63.19
554.34	42.13
554.51	49.15
554.67	91.28
554.84	81.92
555.00	51.49
555.17	114.69
555.33	81.92
555.50	18.72
555.67	25.75
555.83	32.77
556.00	37.45
556.16	42.13
556.33	102.98
556.50	124.05
556.66	86.60
556.83	135.75
556.99	0.00
557.16	145.11
557.32	0.00
557.49	74.90
557.65	51.49
557.82	37.45
557.98	95.96
558.15	65.54
558.32	18.72
558.48	88.94
558.65	14.04
558.81	86.60
558.98	42.13
559.14	0.00
559.31	16.38
559.47	131.07
559.64	63.19
559.80	56.17
559.97	88.94
560.13	4.68
560.30	18.72
560.46	4.68
560.63	37.45
560.79	53.83
560.96	67.88
561.12	30.43
561.29	58.51
561.45	2.34
561.61	16.38
561.78	18.72
561.94	23.41
562.11	72.56
562.27	70.22
562.44	72.56
562.60	72.56
562.77	72.56
562.93	77.24
563.10	51.49
563.26	84.26
563.42	63.19
563.59	46.81
563.75	32.77
563.92	51.49
564.08	0.00
564.24	95.96
564.41	95.96
564.57	37.45
564.74	30.43
564.90	63.19
565.07	93.62
565.23	86.60
565.39	91.28
565.56	58.51
565.72	35.11
565.88	0.00
566.05	0.00
566.21	9.36
566.38	0.00
566.54	79.58
566.70	74.90
566.87	18.72
567.03	35.11
567.19	93.62
567.36	28.09
567.52	77.24
567.68	0.00
567.85	117.03
568.01	51.49
568.17	11.70
568.34	32.77
568.50	16.38
568.66	0.00
568.83	84.26
568.99	44.47
569.15	56.17
569.32	4.68
569.48	65.54
569.64	105.32
569.81	25.75
569.97	53.83
570.13	35.11
570.30	11.70
570.46	79.58
570.62	44.47
570.78	16.38
570.95	9.36
571.11	102.98
571.27	0.00
571.43	0.00
571.60	28.09
571.76	67.88
571.92	51.49
572.09	0.00
572.25	7.02
572.41	14.04
572.57	35.11
572.74	46.81
572.90	60.85
573.06	4.68
573.22	16.38
573.38	23.41
573.55	86.60
573.71	67.88
573.87	88.94
574.03	117.03
574.20	21.06
574.36	14.04
574.52	28.09
574.68	0.00
574.84	25.75
575.01	60.85
575.17	25.75
575.33	86.60
575.49	74.90
575.65	88.94
575.82	67.88
575.98	60.85
576.14	35.11
576.30	86.60
576.46	84.26
576.62	53.83
576.79	0.00
576.95	0.00
577.11	56.17
577.27	51.49
577.43	23.41
577.59	39.79
577.75	79.58
577.92	32.77
578.08	28.09
578.24	65.54
578.40	98.30
578.56	60.85
578.72	91.28
578.88	37.45
579.04	65.54
579.21	46.81
579.37	107.66
579.53	39.79
579.69	42.13
579.85	51.49
580.01	95.96
580.17	53.83
580.33	9.36
580.49	46.81
580.65	0.00
580.82	65.54
580.98	28.09
581.14	56.17
581.30	98.30
581.46	105.32
581.62	105.32
581.78	110.01
581.94	100.64
582.10	60.85
582.26	39.79
582.42	51.49
582.58	149.79
582.74	56.17
582.90	11.70
583.06	30.43
583.22	60.85
583.38	95.96
583.54	7.02
583.70	46.81
583.86	25.75
584.02	39.79
584.18	88.94
584.34	28.09
584.50	25.75
584.66	16.38
584.82	56.17
584.98	44.47
585.14	53.83
585.30	18.72
585.46	86.60
585.62	28.09
585.78	100.64
585.94	0.00
586.10	74.90
586.26	32.77
586.42	88.94
586.58	18.72
586.74	58.51
586.90	44.47
587.06	30.43
587.22	9.36
587.38	0.00
587.54	86.60
587.70	51.49
587.86	28.09
588.02	46.81
588.18	21.06
588.34	35.11
588.49	72.56
588.65	79.58
588.81	28.09
588.97	56.17
589.13	0.00
589.29	81.92
589.45	107.66
589.61	91.28
589.77	0.00
589.93	93.62
590.08	28.09
590.24	49.15
590.40	46.81
590.56	53.83
590.72	0.00
590.88	37.45
591.04	74.90
591.20	35.11
591.35	11.70
591.51	60.85
591.67	4.68
591.83	30.43
591.99	42.13
592.15	37.45
592.31	46.81
592.46	74.90
592.62	70.22
592.78	14.04
592.94	60.85
593.10	0.00
593.26	77.24
593.41	0.00
593.57	93.62
593.73	0.00
593.89	60.85
594.05	49.15
594.20	39.79
594.36	126.39
594.52	14.04
594.68	56.17
594.84	86.60
594.99	0.00
595.15	18.72
595.31	95.96
595.47	56.17
595.62	60.85
595.78	49.15
595.94	23.41
596.10	21.06
596.25	63.19
596.41	86.60
596.57	58.51
596.73	0.00
596.88	0.00
597.04	0.00
597.20	93.62
597.36	0.00
597.51	0.00
597.67	23.41
597.83	56.17
597.99	65.54
598.14	88.94
598.30	46.81
598.46	77.24
598.61	25.75
598.77	98.30
598.93	28.09
599.09	14.04
599.24	16.38
599.40	16.38
599.56	79.58
599.71	16.38
599.87	0.00
600.03	9.36
600.18	0.00
600.34	56.17
600.50	65.54
600.65	102.98
600.81	37.45
600.97	21.06
601.12	0.00
601.28	37.45
601.44	79.58
601.59	25.75
601.75	39.79
601.91	21.06
602.06	7.02
602.22	98.30
602.37	21.06
602.53	39.79
602.69	25.75
602.84	51.49
603.00	44.47
603.16	0.00
603.31	4.68
603.47	51.49
603.62	37.45
603.78	65.54
603.94	23.41
604.09	112.35
604.25	0.00
604.40	81.92
604.56	0.00
604.71	65.54
604.87	86.60
605.03	0.00
605.18	21.06
605.34	4.68
605.49	86.60
605.65	28.09
605.80	100.64
605.96	35.11
606.12	16.38
606.27	11.70
606.43	46.81
606.58	79.58
606.74	84.26
606.89	0.00
607.05	16.38
607.20	42.13
607.36	39.79
607.51	67.88
607.67	46.81
607.82	0.00
607.98	77.24
608.13	56.17
608.29	79.58
608.44	30.43
608.60	65.54
608.75	44.47
608.91	95.96
609.06	79.58
609.22	86.60
609.37	39.79
609.53	51.49
609.68	32.77
609.84	42.13
609.99	35.11
610.15	60.85
610.30	74.90
610.46	46.81
610.61	39.79
610.76	91.28
610.92	44.47
611.07	28.09
611.23	86.60
611.38	72.56
611.54	72.56
611.69	56.17
611.84	81.92
612.00	114.69
612.15	32.77
612.31	102.98
612.46	30.43
612.62	0.00
612.77	51.49
612.92	46.81
613.08	16.38
613.23	81.92
613.39	35.11
613.54	0.00
613.69	23.41
613.85	51.49
614.00	37.45
614.15	95.96
614.31	0.00
614.46	63.19
614.62	102.98
614.77	9.36
614.92	93.62
615.08	56.17
615.23	37.45
615.38	35.11
615.54	42.13
615.69	86.60
615.84	58.51
616.00	53.83
616.15	0.00
616.30	112.35
616.46	0.00
616.61	16.38
616.76	18.72
616.92	84.26
617.07	88.94
617.22	46.81
617.37	42.13
617.53	25.75
617.68	35.11
617.83	70.22
617.99	0.00
618.14	117.03
618.29	72.56
618.45	93.62
618.60	63.19
618.75	7.02
618.90	0.00
619.06	21.06
619.21	60.85
619.36	9.36
619.51	70.22
619.67	60.85
619.82	60.85
619.97	81.92
620.12	37.45
620.28	79.58
620.43	114.69
620.58	91.28
620.73	0.00
620.89	81.92
621.04	0.00
621.19	98.30
621.34	44.47
621.49	0.00
621.65	0.00
621.80	74.90
621.95	2.34
622.10	58.51
622.25	67.88
622.41	0.00
622.56	98.30
622.71	37.45
622.86	72.56
623.01	44.47
623.16	58.51
623.32	60.85
623.47	53.83
623.62	42.13
623.77	51.49
623.92	37.45
624.07	0.00
624.23	0.00
624.38	88.94
624.53	79.58
624.68	67.88
624.83	2.34
624.98	25.75
625.13	0.00
625.29	35.11
625.44	28.09
625.59	39.79
625.74	16.38
625.89	16.38
626.04	74.90
626.19	28.09
626.34	63.19
626.49	140.43
626.65	65.54
626.80	35.11
626.95	28.09
627.10	0.00
627.25	44.47
627.40	0.00
627.55	44.47
627.70	51.49
627.85	77.24
628.00	70.22
628.15	60.85
628.30	0.00
628.45	79.58
628.60	53.83
628.76	53.83
628.91	7.02
629.06	11.70
629.21	86.60
629.36	21.06
629.51	18.72
629.66	9.36
629.81	14.04
629.96	39.79
630.11	67.88
630.26	21.06
630.41	21.06
630.56	0.00
630.71	2.34
630.86	51.49
631.01	46.81
631.16	0.00
631.31	0.00
631.46	0.00
631.61	0.00
631.76	9.36
631.91	18.72
632.06	72.56
632.21	39.79
632.36	46.81
632.51	37.45
632.66	39.79
632.81	30.43
632.96	70.22
633.10	65.54
633.25	60.85
633.40	51.49
633.55	46.81
633.70	105.32
633.85	35.11
634.00	51.49
634.15	0.00
634.30	65.54
634.45	0.00
634.60	77.24
634.75	0.00
634.90	32.77
635.05	51.49
635.19	67.88
635.34	53.83
635.49	63.19
635.64	2.34
635.79	65.54
635.94	107.66
636.09	42.13
636.24	56.17
636.39	0.00
636.53	39.79
636.68	100.64
636.83	49.15
636.98	53.83
637.13	86.60
637.28	58.51
637.43	0.00
637.57	51.49
637.72	72.56
637.87	0.00
638.02	58.51
638.17	35.11
638.32	46.81
638.46	39.79
638.61	88.94
638.76	79.58
638.91	56.17
639.06	44.47
639.20	49.15
639.35	79.58
639.50	4.68
639.65	58.51
639.80	0.00
639.94	119.37
640.09	67.88
640.24	0.00
640.39	51.49
640.54	65.54
640.68	56.17
640.83	88.94
640.98	23.41
641.13	0.00
641.27	30.43
641.42	35.11
641.57	51.49
641.72	28.09
641.86	98.30
642.01	72.56
642.16	58.51
642.31	42.13
642.45	46.81
642.60	67.88
642.75	23.41
642.90	18.72
643.04	46.81
643.19	98.30
643.34	72.56
643.48	16.38
643.63	2.34
643.78	58.51
643.93	49.15
644.07	42.13
644.22	86.60
644.37	46.81
644.51	84.26
644.66	60.85
644.81	28.09
644.95	102.98
645.10	0.00
645.25	0.00
645.39	51.49
645.54	0.00
645.69	0.00
645.83	0.00
645.98	74.90
646.13	4.68
646.27	74.90
646.42	60.85
646.57	16.38
646.71	0.00
646.86	42.13
647.00	56.17
647.15	46.81
647.30	7.02
647.44	88.94
647.59	79.58
647.74	4.68
647.88	21.06
648.03	0.00
648.17	25.75
648.32	0.00
648.47	124.05
648.61	63.19
648.76	37.45
648.90	60.85
649.05	49.15
649.20	84.26
649.34	53.83
649.49	0.00
649.63	88.94
649.78	32.77
649.92	0.00
650.07	63.19
650.21	37.45
650.36	0.00
650.51	0.00
650.65	0.00
650.80	35.11
650.94	56.17
651.09	0.00
651.23	46.81
651.38	95.96
651.52	7.02
651.67	112.35
651.81	56.17
651.96	44.47
652.10	56.17
652.25	18.72
652.39	18.72
652.54	0.00
652.68	0.00
652.83	0.00
652.97	4.68
653.12	14.04
653.26	0.00
653.41	44.47
653.55	39.79
653.70	14.04
653.84	74.90
653.99	4.68
654.13	72.56
654.27	77.24
654.42	23.41
654.56	46.81
654.71	14.04
654.85	0.00
655.00	7.02
655.14	35.11
655.29	4.68
655.43	0.00
655.57	18.72
655.72	65.54
655.86	72.56
656.01	32.77
656.15	14.04
656.30	9.36
656.44	37.45
656.58	0.00
656.73	79.58
656.87	28.09
657.01	95.96
657.16	18.72
657.30	81.92
657.45	14.04
657.59	79.58
657.73	91.28
657.88	67.88
658.02	56.17
658.16	72.56
658.31	63.19
658.45	2.34
658.60	86.60
658.74	56.17
658.88	102.98
659.03	28.09
659.17	81.92
659.31	7.02
659.46	21.06
659.60	74.90
659.74	60.85
659.89	35.11
660.03	25.75
660.17	28.09
660.32	0.00
660.46	60.85
660.60	21.06
660.74	7.02
660.89	4.68
661.03	114.69
661.17	49.15
661.32	119.37
661.46	51.49
661.60	39.79
661.74	81.92
661.89	9.36
662.03	0.00
662.17	32.77
662.31	154.48
662.46	72.56
662.60	35.11
662.74	21.06
662.88	30.43
663.03	95.96
663.17	56.17
663.31	46.81
663.45	60.85
663.60	18.72
663.74	0.00
663.88	0.00
664.02	49.15
664.17	30.43
664.31	39.79
664.45	28.09
664.59	23.41
664.73	39.79
664.88	37.45
665.02	98.30
665.16	46.81
665.30	72.56
665.44	0.00
665.59	0.00
665.73	105.32
665.87	60.85
666.01	42.13
666.15	11.70
666.29	72.56
666.44	81.92
666.58	2.34
666.72	4.68
666.86	117.03
667.00	21.06
667.14	65.54
667.28	0.00
667.43	51.49
667.57	23.41
667.71	56.17
667.85	74.90
667.99	121.71
668.13	46.81
668.27	18.72
668.41	2.34
668.56	0.00
668.70	105.32
668.84	100.64
668.98	95.96
669.12	7.02
669.26	0.00
669.40	53.83
669.54	58.51
669.68	67.88
669.82	0.00
669.96	112.35
670.10	44.47
670.25	37.45
670.39	0.00
670.53	32.77
670.67	18.72
670.81	58.51
670.95	70.22
671.09	114.69
671.23	7.02
671.37	70.22
671.51	30.43
671.65	25.75
671.79	112.35
671.93	37.45
672.07	35.11
672.21	46.81
672.35	77.24
672.49	0.00
672.63	0.00
672.77	39.79
672.91	74.90
673.05	77.24
673.19	4.68
673.33	51.49
673.47	110.01
673.61	25.75
673.75	0.00
673.89	25.75
674.03	4.68
674.17	9.36
674.31	67.88
674.45	0.00
674.59	21.06
674.73	7.02
674.87	63.19
675.01	21.06
675.15	25.75
675.29	74.90
675.43	9.36
675.56	30.43
675.70	60.85
675.84	46.81
675.98	0.00
676.12	0.00
676.26	7.02
676.40	28.09
676.54	67.88
676.68	0.00
676.82	11.70
676.96	77.24
677.10	0.00
677.23	23.41
677.37	37.45
677.51	128.73
677.65	0.00
677.79	93.62
677.93	30.43
678.07	49.15
678.21	0.00
678.34	0.00
678.48	63.19
678.62	37.45
678.76	56.17
678.90	49.15
679.04	16.38
679.18	42.13
679.31	39.79
679.45	9.36
679.59	18.72
679.73	32.77
679.87	65.54
680.00	67.88
680.14	30.43
680.28	7.02
680.42	35.11
680.56	14.04
680.70	32.77
680.83	81.92
680.97	51.49
681.11	81.92
681.25	23.41
681.39	16.38
681.52	49.15
681.66	2.34
681.80	39.79
681.94	35.11
682.07	58.51
682.21	32.77
682.35	95.96
682.49	79.58
682.62	16.38
682.76	21.06
682.90	93.62
683.04	37.45
683.17	46.81
683.31	39.79
683.45	72.56
683.59	0.00
683.72	95.96
683.86	0.00
684.00	25.75
684.13	39.79
684.27	0.00
684.41	0.00
684.55	0.00
684.68	0.00
684.82	60.85
684.96	67.88
685.09	0.00
685.23	32.77
685.37	32.77
685.50	53.83
685.64	7.02
685.78	0.00
685.91	4.68
686.05	16.38
686.19	9.36
686.32	39.79
686.46	74.90
686.60	7.02
686.73	4.68
686.87	70.22
687.01	0.00
687.14	95.96
687.28	63.19
687.42	25.75
687.55	100.64
687.69	18.72
687.82	32.77
687.96	11.70
688.10	16.38
688.23	100.64
688.37	25.75
688.50	18.72
688.64	84.26
688.78	11.70
688.91	0.00
689.05	49.15
689.18	81.92
689.32	79.58
689.46	0.00
689.59	79.58
689.73	2.34
689.86	53.83
690.00	0.00
690.13	30.43
690.27	32.77
690.41	37.45
690.54	0.00
690.68	74.90
690.81	32.77
690.95	35.11
691.08	16.38
691.22	0.00
691.35	18.72
691.49	23.41
691.62	0.00
691.76	72.56
691.89	93.62
692.03	0.00
692.16	0.00
692.30	9.36
692.43	28.09
692.57	0.00
692.70	35.11
692.84	11.70
692.97	25.75
693.11	42.13
693.24	46.81
693.38	0.00
693.51	0.00
693.65	0.00
693.78	0.00
693.92	0.00
694.05	60.85
694.19	11.70
694.32	39.79
694.45	0.00
694.59	81.92
694.72	30.43
694.86	37.45
694.99	63.19
695.13	14.04
695.26	0.00
695.39	58.51
695.53	67.88
695.66	0.00
695.80	11.70
695.93	32.77
696.07	44.47
696.20	28.09
696.33	88.94
696.47	0.00
696.60	46.81
696.73	14.04
696.87	79.58
697.00	4.68
697.14	39.79
697.27	0.00
697.40	58.51
697.54	65.54
697.67	81.92
697.80	0.00
697.94	30.43
698.07	65.54
698.21	16.38
698.34	18.72
698.47	60.85
698.61	30.43
698.74	58.51
698.87	79.58
699.01	4.68
699.14	51.49
699.27	35.11
699.40	46.81
699.54	77.24
699.67	44.47
699.80	4.68
699.94	53.83
700.07	0.00
700.20	32.77
700.34	37.45
700.47	56.17
700.60	56.17
700.73	25.75
700.87	28.09
701.00	39.79
701.13	0.00
701.26	4.68
701.40	70.22
701.53	32.77
701.66	0.00
701.79	93.62
701.93	42.13
702.06	91.28
702.19	28.09
702.32	0.00
702.46	77.24
702.59	65.54
702.72	91.28
702.85	7.02
702.99	25.75
703.12	18.72
703.25	0.00
703.38	14.04
703.51	11.70
703.65	42.13
703.78	0.00
703.91	18.72
704.04	0.00
704.17	53.83
704.31	30.43
704.44	51.49
704.57	42.13
704.70	23.41
704.83	0.00
704.96	7.02
705.10	0.00
705.23	32.77
>>>>>End Processed Spectral Data<<<<<
