SpectraSuite Data File
++++++++++++++++++++++++++++++++++++
Date: Fri Oct 04 12:13:40 GMT-05:00 2013
User: price-jones
Dark Spectrum Present: No
Reference Spectrum Present: No
Number of Sampled Component Spectra: 1
Spectrometers: USB2+H05261
Integration Time (usec): 10000 (USB2+H05261)
Spectra Averaged: 1 (USB2+H05261)
Boxcar Smoothing: 0 (USB2+H05261)
Correct for Electrical Dark: No (USB2+H05261)
Strobe/Lamp Enabled: No (USB2+H05261)
Correct for Detector Non-linearity: No (USB2+H05261)
Correct for Stray Light: No (USB2+H05261)
Number of Pixels in Processed Spectrum: 2048
>>>>>Begin Processed Spectral Data<<<<<
365.73	0.00
365.92	0.00
366.12	0.00
366.32	0.00
366.52	0.00
366.72	0.00
366.91	0.00
367.11	0.00
367.31	0.00
367.51	0.00
367.70	0.00
367.90	0.00
368.10	0.00
368.30	0.00
368.49	0.00
368.69	0.00
368.89	0.00
369.09	0.00
369.28	0.00
369.48	0.00
369.68	0.00
369.87	0.00
370.07	0.00
370.27	0.00
370.47	0.00
370.66	0.00
370.86	0.00
371.06	0.00
371.25	0.00
371.45	0.00
371.65	0.00
371.84	0.00
372.04	0.00
372.24	0.00
372.44	9.36
372.63	46.81
372.83	65.54
373.03	56.17
373.22	16.38
373.42	88.94
373.62	9.36
373.81	74.90
374.01	28.09
374.21	81.92
374.40	11.70
374.60	0.00
374.79	16.38
374.99	32.77
375.19	35.11
375.38	0.00
375.58	11.70
375.78	0.00
375.97	18.72
376.17	0.00
376.37	0.00
376.56	63.19
376.76	0.00
376.95	11.70
377.15	0.00
377.35	0.00
377.54	32.77
377.74	30.43
377.93	72.56
378.13	23.41
378.33	0.00
378.52	53.83
378.72	4.68
378.91	0.00
379.11	18.72
379.31	28.09
379.50	0.00
379.70	0.00
379.89	0.00
380.09	4.68
380.28	0.00
380.48	35.11
380.68	0.00
380.87	0.00
381.07	0.00
381.26	46.81
381.46	16.38
381.65	28.09
381.85	28.09
382.04	65.54
382.24	67.88
382.43	9.36
382.63	77.24
382.83	0.00
383.02	0.00
383.22	81.92
383.41	21.06
383.61	32.77
383.80	28.09
384.00	0.00
384.19	74.90
384.39	25.75
384.58	35.11
384.78	7.02
384.97	0.00
385.17	32.77
385.36	18.72
385.56	37.45
385.75	58.51
385.95	28.09
386.14	2.34
386.34	70.22
386.53	0.00
386.72	23.41
386.92	28.09
387.11	0.00
387.31	0.00
387.50	0.00
387.70	11.70
387.89	23.41
388.09	74.90
388.28	4.68
388.48	9.36
388.67	35.11
388.86	7.02
389.06	42.13
389.25	0.00
389.45	9.36
389.64	53.83
389.84	32.77
390.03	4.68
390.22	11.70
390.42	14.04
390.61	2.34
390.81	51.49
391.00	14.04
391.19	18.72
391.39	21.06
391.58	23.41
391.78	81.92
391.97	32.77
392.16	2.34
392.36	7.02
392.55	11.70
392.75	32.77
392.94	0.00
393.13	28.09
393.33	0.00
393.52	35.11
393.71	9.36
393.91	4.68
394.10	65.54
394.29	21.06
394.49	74.90
394.68	2.34
394.88	28.09
395.07	25.75
395.26	39.79
395.46	21.06
395.65	0.00
395.84	0.00
396.04	25.75
396.23	0.00
396.42	46.81
396.62	37.45
396.81	23.41
397.00	2.34
397.19	53.83
397.39	23.41
397.58	77.24
397.77	39.79
397.97	79.58
398.16	28.09
398.35	46.81
398.55	4.68
398.74	25.75
398.93	0.00
399.12	16.38
399.32	0.00
399.51	0.00
399.70	0.00
399.90	23.41
400.09	14.04
400.28	25.75
400.47	11.70
400.67	23.41
400.86	0.00
401.05	23.41
401.24	102.98
401.44	30.43
401.63	0.00
401.82	65.54
402.01	81.92
402.21	53.83
402.40	44.47
402.59	9.36
402.78	28.09
402.97	0.00
403.17	46.81
403.36	44.47
403.55	51.49
403.74	46.81
403.93	81.92
404.13	0.00
404.32	2.34
404.51	11.70
404.70	35.11
404.89	60.85
405.09	77.24
405.28	2.34
405.47	37.45
405.66	93.62
405.85	60.85
406.05	81.92
406.24	53.83
406.43	135.75
406.62	67.88
406.81	16.38
407.00	0.00
407.20	23.41
407.39	30.43
407.58	0.00
407.77	114.69
407.96	0.00
408.15	84.26
408.34	0.00
408.54	44.47
408.73	9.36
408.92	53.83
409.11	88.94
409.30	72.56
409.49	42.13
409.68	63.19
409.87	56.17
410.07	30.43
410.26	84.26
410.45	81.92
410.64	81.92
410.83	58.51
411.02	30.43
411.21	11.70
411.40	46.81
411.59	67.88
411.78	42.13
411.98	16.38
412.17	39.79
412.36	72.56
412.55	25.75
412.74	23.41
412.93	53.83
413.12	133.41
413.31	9.36
413.50	28.09
413.69	35.11
413.88	16.38
414.07	72.56
414.26	60.85
414.45	107.66
414.64	98.30
414.83	0.00
415.02	21.06
415.22	100.64
415.41	65.54
415.60	102.98
415.79	11.70
415.98	88.94
416.17	63.19
416.36	18.72
416.55	51.49
416.74	49.15
416.93	2.34
417.12	67.88
417.31	67.88
417.50	46.81
417.69	100.64
417.88	44.47
418.07	21.06
418.26	65.54
418.45	35.11
418.64	14.04
418.83	51.49
419.02	30.43
419.21	51.49
419.39	70.22
419.58	91.28
419.77	63.19
419.96	28.09
420.15	60.85
420.34	42.13
420.53	37.45
420.72	30.43
420.91	28.09
421.10	32.77
421.29	7.02
421.48	84.26
421.67	46.81
421.86	58.51
422.05	32.77
422.24	21.06
422.43	67.88
422.61	84.26
422.80	112.35
422.99	119.37
423.18	86.60
423.37	9.36
423.56	65.54
423.75	11.70
423.94	53.83
424.13	7.02
424.32	35.11
424.50	53.83
424.69	4.68
424.88	39.79
425.07	51.49
425.26	37.45
425.45	0.00
425.64	0.00
425.83	44.47
426.01	30.43
426.20	91.28
426.39	95.96
426.58	4.68
426.77	0.00
426.96	2.34
427.15	0.00
427.33	30.43
427.52	63.19
427.71	56.17
427.90	56.17
428.09	86.60
428.28	49.15
428.46	0.00
428.65	145.11
428.84	0.00
429.03	91.28
429.22	98.30
429.40	70.22
429.59	25.75
429.78	0.00
429.97	2.34
430.16	25.75
430.34	35.11
430.53	74.90
430.72	16.38
430.91	114.69
431.10	110.01
431.28	63.19
431.47	107.66
431.66	81.92
431.85	18.72
432.03	28.09
432.22	128.73
432.41	88.94
432.60	44.47
432.79	46.81
432.97	51.49
433.16	86.60
433.35	95.96
433.54	65.54
433.72	100.64
433.91	58.51
434.10	0.00
434.28	39.79
434.47	0.00
434.66	46.81
434.85	14.04
435.03	53.83
435.22	0.00
435.41	70.22
435.59	0.00
435.78	65.54
435.97	79.58
436.16	117.03
436.34	46.81
436.53	39.79
436.72	91.28
436.90	74.90
437.09	39.79
437.28	0.00
437.46	44.47
437.65	84.26
437.84	0.00
438.02	70.22
438.21	16.38
438.40	23.41
438.58	0.00
438.77	39.79
438.96	44.47
439.14	35.11
439.33	23.41
439.52	72.56
439.70	37.45
439.89	58.51
440.08	11.70
440.26	0.00
440.45	0.00
440.63	32.77
440.82	18.72
441.01	56.17
441.19	0.00
441.38	60.85
441.57	63.19
441.75	102.98
441.94	93.62
442.12	49.15
442.31	63.19
442.50	67.88
442.68	42.13
442.87	138.09
443.05	105.32
443.24	49.15
443.43	0.00
443.61	32.77
443.80	14.04
443.98	28.09
444.17	58.51
444.35	51.49
444.54	25.75
444.73	51.49
444.91	65.54
445.10	23.41
445.28	51.49
445.47	81.92
445.65	77.24
445.84	60.85
446.02	58.51
446.21	135.75
446.39	65.54
446.58	60.85
446.77	39.79
446.95	21.06
447.14	56.17
447.32	25.75
447.51	42.13
447.69	100.64
447.88	28.09
448.06	51.49
448.25	18.72
448.43	44.47
448.62	0.00
448.80	93.62
448.99	86.60
449.17	74.90
449.36	35.11
449.54	0.00
449.73	51.49
449.91	60.85
450.10	44.47
450.28	42.13
450.46	14.04
450.65	21.06
450.83	135.75
451.02	49.15
451.20	30.43
451.39	60.85
451.57	105.32
451.76	0.00
451.94	0.00
452.13	93.62
452.31	0.00
452.49	56.17
452.68	63.19
452.86	21.06
453.05	51.49
453.23	105.32
453.42	0.00
453.60	56.17
453.78	58.51
453.97	18.72
454.15	46.81
454.34	84.26
454.52	124.05
454.70	117.03
454.89	49.15
455.07	65.54
455.26	42.13
455.44	23.41
455.62	44.47
455.81	81.92
455.99	74.90
456.17	93.62
456.36	128.73
456.54	44.47
456.73	112.35
456.91	18.72
457.09	46.81
457.28	60.85
457.46	7.02
457.64	77.24
457.83	79.58
458.01	32.77
458.19	25.75
458.38	67.88
458.56	4.68
458.74	70.22
458.93	0.00
459.11	117.03
459.29	4.68
459.48	39.79
459.66	124.05
459.84	42.13
460.03	86.60
460.21	84.26
460.39	114.69
460.57	67.88
460.76	74.90
460.94	0.00
461.12	84.26
461.31	39.79
461.49	0.00
461.67	84.26
461.85	56.17
462.04	95.96
462.22	35.11
462.40	30.43
462.59	63.19
462.77	51.49
462.95	30.43
463.13	112.35
463.32	63.19
463.50	16.38
463.68	42.13
463.86	28.09
464.05	65.54
464.23	93.62
464.41	4.68
464.59	88.94
464.78	91.28
464.96	0.00
465.14	91.28
465.32	30.43
465.50	2.34
465.69	65.54
465.87	114.69
466.05	98.30
466.23	84.26
466.41	63.19
466.60	16.38
466.78	42.13
466.96	63.19
467.14	32.77
467.32	0.00
467.51	49.15
467.69	98.30
467.87	72.56
468.05	53.83
468.23	70.22
468.41	67.88
468.60	11.70
468.78	51.49
468.96	74.90
469.14	98.30
469.32	84.26
469.50	95.96
469.69	46.81
469.87	67.88
470.05	49.15
470.23	72.56
470.41	25.75
470.59	81.92
470.77	110.01
470.95	0.00
471.14	86.60
471.32	0.00
471.50	32.77
471.68	4.68
471.86	58.51
472.04	39.79
472.22	77.24
472.40	0.00
472.58	84.26
472.77	70.22
472.95	0.00
473.13	100.64
473.31	35.11
473.49	93.62
473.67	35.11
473.85	67.88
474.03	110.01
474.21	91.28
474.39	72.56
474.57	110.01
474.75	98.30
474.93	70.22
475.12	0.00
475.30	37.45
475.48	124.05
475.66	79.58
475.84	86.60
476.02	100.64
476.20	51.49
476.38	70.22
476.56	86.60
476.74	60.85
476.92	30.43
477.10	81.92
477.28	11.70
477.46	65.54
477.64	16.38
477.82	53.83
478.00	56.17
478.18	107.66
478.36	110.01
478.54	86.60
478.72	37.45
478.90	100.64
479.08	37.45
479.26	124.05
479.44	77.24
479.62	16.38
479.80	98.30
479.98	53.83
480.16	67.88
480.34	44.47
480.52	65.54
480.70	51.49
480.88	79.58
481.06	30.43
481.24	74.90
481.41	152.13
481.59	91.28
481.77	56.17
481.95	88.94
482.13	56.17
482.31	56.17
482.49	0.00
482.67	49.15
482.85	16.38
483.03	81.92
483.21	102.98
483.39	110.01
483.57	25.75
483.74	88.94
483.92	128.73
484.10	140.43
484.28	133.41
484.46	105.32
484.64	72.56
484.82	49.15
485.00	133.41
485.18	74.90
485.35	100.64
485.53	72.56
485.71	93.62
485.89	35.11
486.07	39.79
486.25	105.32
486.43	98.30
486.61	112.35
486.78	149.79
486.96	67.88
487.14	0.00
487.32	44.47
487.50	86.60
487.68	37.45
487.85	100.64
488.03	91.28
488.21	25.75
488.39	30.43
488.57	126.39
488.75	79.58
488.92	81.92
489.10	126.39
489.28	112.35
489.46	21.06
489.64	102.98
489.81	107.66
489.99	67.88
490.17	30.43
490.35	93.62
490.53	32.77
490.70	23.41
490.88	60.85
491.06	53.83
491.24	53.83
491.41	110.01
491.59	86.60
491.77	65.54
491.95	100.64
492.13	93.62
492.30	42.13
492.48	72.56
492.66	7.02
492.84	44.47
493.01	65.54
493.19	107.66
493.37	105.32
493.54	91.28
493.72	100.64
493.90	128.73
494.08	35.11
494.25	79.58
494.43	117.03
494.61	32.77
494.79	51.49
494.96	51.49
495.14	107.66
495.32	86.60
495.49	0.00
495.67	28.09
495.85	49.15
496.02	128.73
496.20	140.43
496.38	65.54
496.55	140.43
496.73	133.41
496.91	74.90
497.09	93.62
497.26	49.15
497.44	42.13
497.62	81.92
497.79	105.32
497.97	124.05
498.14	74.90
498.32	77.24
498.50	79.58
498.67	117.03
498.85	79.58
499.03	100.64
499.20	105.32
499.38	180.22
499.56	46.81
499.73	72.56
499.91	91.28
500.08	0.00
500.26	145.11
500.44	14.04
500.61	35.11
500.79	37.45
500.97	79.58
501.14	53.83
501.32	84.26
501.49	35.11
501.67	51.49
501.84	124.05
502.02	72.56
502.20	67.88
502.37	56.17
502.55	154.48
502.72	28.09
502.90	42.13
503.07	133.41
503.25	7.02
503.43	98.30
503.60	93.62
503.78	56.17
503.95	91.28
504.13	60.85
504.30	51.49
504.48	74.90
504.65	88.94
504.83	98.30
505.01	53.83
505.18	114.69
505.36	91.28
505.53	77.24
505.71	32.77
505.88	18.72
506.06	39.79
506.23	86.60
506.41	81.92
506.58	88.94
506.76	100.64
506.93	117.03
507.11	67.88
507.28	25.75
507.46	30.43
507.63	107.66
507.81	60.85
507.98	53.83
508.16	114.69
508.33	107.66
508.50	53.83
508.68	72.56
508.85	163.84
509.03	58.51
509.20	95.96
509.38	23.41
509.55	86.60
509.73	74.90
509.90	46.81
510.08	138.09
510.25	14.04
510.42	105.32
510.60	81.92
510.77	63.19
510.95	35.11
511.12	156.82
511.30	70.22
511.47	170.86
511.64	77.24
511.82	142.77
511.99	93.62
512.17	133.41
512.34	65.54
512.51	42.13
512.69	74.90
512.86	79.58
513.04	18.72
513.21	60.85
513.38	79.58
513.56	58.51
513.73	105.32
513.90	53.83
514.08	107.66
514.25	77.24
514.43	86.60
514.60	152.13
514.77	121.71
514.95	105.32
515.12	63.19
515.29	63.19
515.47	93.62
515.64	70.22
515.81	105.32
515.99	98.30
516.16	149.79
516.33	86.60
516.51	0.00
516.68	117.03
516.85	81.92
517.03	100.64
517.20	112.35
517.37	107.66
517.54	152.13
517.72	70.22
517.89	42.13
518.06	84.26
518.24	93.62
518.41	18.72
518.58	16.38
518.75	91.28
518.93	39.79
519.10	105.32
519.27	138.09
519.45	63.19
519.62	65.54
519.79	65.54
519.96	93.62
520.14	81.92
520.31	44.47
520.48	72.56
520.65	84.26
520.83	81.92
521.00	51.49
521.17	177.88
521.34	105.32
521.52	147.45
521.69	28.09
521.86	112.35
522.03	102.98
522.20	98.30
522.38	105.32
522.55	74.90
522.72	110.01
522.89	88.94
523.07	56.17
523.24	105.32
523.41	53.83
523.58	135.75
523.75	65.54
523.92	11.70
524.10	65.54
524.27	84.26
524.44	11.70
524.61	126.39
524.78	79.58
524.96	88.94
525.13	126.39
525.30	117.03
525.47	100.64
525.64	98.30
525.81	114.69
525.98	42.13
526.16	133.41
526.33	102.98
526.50	28.09
526.67	21.06
526.84	98.30
527.01	81.92
527.18	51.49
527.36	46.81
527.53	65.54
527.70	147.45
527.87	70.22
528.04	110.01
528.21	58.51
528.38	63.19
528.55	133.41
528.72	14.04
528.89	79.58
529.07	51.49
529.24	133.41
529.41	107.66
529.58	65.54
529.75	88.94
529.92	74.90
530.09	51.49
530.26	32.77
530.43	51.49
530.60	81.92
530.77	88.94
530.94	102.98
531.11	133.41
531.28	84.26
531.46	32.77
531.63	93.62
531.80	32.77
531.97	16.38
532.14	88.94
532.31	98.30
532.48	0.00
532.65	86.60
532.82	91.28
532.99	117.03
533.16	37.45
533.33	140.43
533.50	138.09
533.67	93.62
533.84	135.75
534.01	28.09
534.18	149.79
534.35	107.66
534.52	81.92
534.69	77.24
534.86	145.11
535.03	138.09
535.20	138.09
535.37	124.05
535.54	79.58
535.71	102.98
535.88	79.58
536.05	56.17
536.22	175.54
536.38	112.35
536.55	70.22
536.72	119.37
536.89	72.56
537.06	133.41
537.23	35.11
537.40	124.05
537.57	46.81
537.74	128.73
537.91	67.88
538.08	4.68
538.25	35.11
538.42	152.13
538.59	77.24
538.75	70.22
538.92	86.60
539.09	56.17
539.26	58.51
539.43	49.15
539.60	65.54
539.77	128.73
539.94	117.03
540.11	88.94
540.28	105.32
540.44	145.11
540.61	100.64
540.78	91.28
540.95	135.75
541.12	147.45
541.29	93.62
541.46	42.13
541.62	37.45
541.79	95.96
541.96	25.75
542.13	140.43
542.30	117.03
542.47	138.09
542.63	147.45
542.80	88.94
542.97	35.11
543.14	110.01
543.31	110.01
543.48	110.01
543.64	77.24
543.81	65.54
543.98	119.37
544.15	110.01
544.32	117.03
544.48	44.47
544.65	72.56
544.82	63.19
544.99	53.83
545.16	65.54
545.32	88.94
545.49	70.22
545.66	105.32
545.83	65.54
546.00	128.73
546.16	140.43
546.33	63.19
546.50	107.66
546.67	100.64
546.83	93.62
547.00	147.45
547.17	42.13
547.34	18.72
547.50	81.92
547.67	86.60
547.84	44.47
548.00	2.34
548.17	138.09
548.34	91.28
548.51	81.92
548.67	0.00
548.84	107.66
549.01	91.28
549.18	131.07
549.34	14.04
549.51	23.41
549.68	140.43
549.84	112.35
550.01	42.13
550.18	100.64
550.34	77.24
550.51	95.96
550.68	126.39
550.84	56.17
551.01	100.64
551.18	168.52
551.34	112.35
551.51	53.83
551.68	81.92
551.84	102.98
552.01	65.54
552.18	91.28
552.34	65.54
552.51	117.03
552.68	84.26
552.84	102.98
553.01	86.60
553.18	0.00
553.34	86.60
553.51	133.41
553.67	42.13
553.84	121.71
554.01	56.17
554.17	133.41
554.34	112.35
554.51	56.17
554.67	51.49
554.84	88.94
555.00	88.94
555.17	140.43
555.33	95.96
555.50	49.15
555.67	28.09
555.83	84.26
556.00	28.09
556.16	142.77
556.33	81.92
556.50	42.13
556.66	91.28
556.83	63.19
556.99	42.13
557.16	121.71
557.32	84.26
557.49	110.01
557.65	67.88
557.82	70.22
557.98	11.70
558.15	159.16
558.32	112.35
558.48	126.39
558.65	107.66
558.81	91.28
558.98	51.49
559.14	65.54
559.31	56.17
559.47	63.19
559.64	0.00
559.80	117.03
559.97	119.37
560.13	18.72
560.30	110.01
560.46	37.45
560.63	142.77
560.79	72.56
560.96	131.07
561.12	170.86
561.29	51.49
561.45	44.47
561.61	124.05
561.78	126.39
561.94	100.64
562.11	117.03
562.27	84.26
562.44	119.37
562.60	30.43
562.77	88.94
562.93	32.77
563.10	81.92
563.26	30.43
563.42	154.48
563.59	105.32
563.75	105.32
563.92	91.28
564.08	124.05
564.24	21.06
564.41	156.82
564.57	128.73
564.74	84.26
564.90	91.28
565.07	86.60
565.23	86.60
565.39	91.28
565.56	81.92
565.72	11.70
565.88	25.75
566.05	100.64
566.21	93.62
566.38	32.77
566.54	53.83
566.70	67.88
566.87	112.35
567.03	102.98
567.19	117.03
567.36	51.49
567.52	63.19
567.68	74.90
567.85	100.64
568.01	51.49
568.17	91.28
568.34	63.19
568.50	84.26
568.66	72.56
568.83	88.94
568.99	58.51
569.15	88.94
569.32	121.71
569.48	142.77
569.64	88.94
569.81	53.83
569.97	81.92
570.13	166.18
570.30	46.81
570.46	121.71
570.62	72.56
570.78	65.54
570.95	93.62
571.11	58.51
571.27	65.54
571.43	42.13
571.60	91.28
571.76	56.17
571.92	53.83
572.09	56.17
572.25	145.11
572.41	110.01
572.57	60.85
572.74	14.04
572.90	63.19
573.06	84.26
573.22	117.03
573.38	91.28
573.55	72.56
573.71	110.01
573.87	91.28
574.03	95.96
574.20	28.09
574.36	44.47
574.52	35.11
574.68	58.51
574.84	51.49
575.01	74.90
575.17	88.94
575.33	100.64
575.49	58.51
575.65	56.17
575.82	49.15
575.98	112.35
576.14	58.51
576.30	86.60
576.46	81.92
576.62	110.01
576.79	84.26
576.95	126.39
577.11	60.85
577.27	112.35
577.43	95.96
577.59	112.35
577.75	74.90
577.92	14.04
578.08	37.45
578.24	79.58
578.40	100.64
578.56	44.47
578.72	140.43
578.88	84.26
579.04	114.69
579.21	30.43
579.37	79.58
579.53	74.90
579.69	88.94
579.85	58.51
580.01	42.13
580.17	88.94
580.33	102.98
580.49	46.81
580.65	117.03
580.82	72.56
580.98	72.56
581.14	138.09
581.30	100.64
581.46	9.36
581.62	2.34
581.78	16.38
581.94	21.06
582.10	102.98
582.26	0.00
582.42	91.28
582.58	42.13
582.74	133.41
582.90	67.88
583.06	86.60
583.22	112.35
583.38	65.54
583.54	63.19
583.70	84.26
583.86	124.05
584.02	117.03
584.18	93.62
584.34	77.24
584.50	93.62
584.66	16.38
584.82	126.39
584.98	39.79
585.14	42.13
585.30	25.75
585.46	51.49
585.62	88.94
585.78	30.43
585.94	86.60
586.10	114.69
586.26	18.72
586.42	126.39
586.58	46.81
586.74	110.01
586.90	74.90
587.06	88.94
587.22	74.90
587.38	11.70
587.54	63.19
587.70	119.37
587.86	23.41
588.02	7.02
588.18	88.94
588.34	23.41
588.49	56.17
588.65	44.47
588.81	32.77
588.97	60.85
589.13	53.83
589.29	95.96
589.45	60.85
589.61	44.47
589.77	53.83
589.93	44.47
590.08	84.26
590.24	72.56
590.40	126.39
590.56	147.45
590.72	32.77
590.88	79.58
591.04	30.43
591.20	9.36
591.35	79.58
591.51	37.45
591.67	65.54
591.83	72.56
591.99	86.60
592.15	60.85
592.31	100.64
592.46	70.22
592.62	37.45
592.78	7.02
592.94	65.54
593.10	98.30
593.26	46.81
593.41	51.49
593.57	93.62
593.73	39.79
593.89	18.72
594.05	56.17
594.20	91.28
594.36	72.56
594.52	74.90
594.68	81.92
594.84	91.28
594.99	70.22
595.15	58.51
595.31	86.60
595.47	100.64
595.62	98.30
595.78	63.19
595.94	49.15
596.10	21.06
596.25	126.39
596.41	44.47
596.57	88.94
596.73	102.98
596.88	119.37
597.04	37.45
597.20	65.54
597.36	14.04
597.51	32.77
597.67	159.16
597.83	46.81
597.99	98.30
598.14	0.00
598.30	102.98
598.46	46.81
598.61	67.88
598.77	77.24
598.93	56.17
599.09	84.26
599.24	84.26
599.40	86.60
599.56	74.90
599.71	72.56
599.87	51.49
600.03	121.71
600.18	7.02
600.34	102.98
600.50	49.15
600.65	37.45
600.81	28.09
600.97	18.72
601.12	81.92
601.28	142.77
601.44	117.03
601.59	91.28
601.75	88.94
601.91	30.43
602.06	42.13
602.22	72.56
602.37	28.09
602.53	53.83
602.69	67.88
602.84	88.94
603.00	60.85
603.16	105.32
603.31	91.28
603.47	56.17
603.62	60.85
603.78	30.43
603.94	37.45
604.09	39.79
604.25	102.98
604.40	72.56
604.56	0.00
604.71	74.90
604.87	128.73
605.03	32.77
605.18	46.81
605.34	30.43
605.49	98.30
605.65	9.36
605.80	37.45
605.96	100.64
606.12	102.98
606.27	93.62
606.43	98.30
606.58	107.66
606.74	81.92
606.89	58.51
607.05	84.26
607.20	56.17
607.36	23.41
607.51	37.45
607.67	39.79
607.82	67.88
607.98	79.58
608.13	93.62
608.29	42.13
608.44	98.30
608.60	0.00
608.75	79.58
608.91	67.88
609.06	60.85
609.22	86.60
609.37	84.26
609.53	39.79
609.68	84.26
609.84	84.26
609.99	98.30
610.15	154.48
610.30	91.28
610.46	119.37
610.61	100.64
610.76	58.51
610.92	140.43
611.07	79.58
611.23	46.81
611.38	65.54
611.54	70.22
611.69	30.43
611.84	91.28
612.00	110.01
612.15	53.83
612.31	86.60
612.46	58.51
612.62	91.28
612.77	63.19
612.92	86.60
613.08	2.34
613.23	77.24
613.39	84.26
613.54	44.47
613.69	18.72
613.85	77.24
614.00	84.26
614.15	46.81
614.31	77.24
614.46	72.56
614.62	63.19
614.77	56.17
614.92	70.22
615.08	46.81
615.23	114.69
615.38	65.54
615.54	46.81
615.69	93.62
615.84	121.71
616.00	0.00
616.15	95.96
616.30	23.41
616.46	117.03
616.61	16.38
616.76	72.56
616.92	100.64
617.07	65.54
617.22	88.94
617.37	91.28
617.53	72.56
617.68	95.96
617.83	37.45
617.99	102.98
618.14	70.22
618.29	91.28
618.45	84.26
618.60	156.82
618.75	112.35
618.90	133.41
619.06	117.03
619.21	37.45
619.36	56.17
619.51	114.69
619.67	42.13
619.82	44.47
619.97	16.38
620.12	72.56
620.28	37.45
620.43	67.88
620.58	35.11
620.73	14.04
620.89	81.92
621.04	102.98
621.19	93.62
621.34	72.56
621.49	49.15
621.65	79.58
621.80	117.03
621.95	51.49
622.10	84.26
622.25	39.79
622.41	81.92
622.56	107.66
622.71	117.03
622.86	46.81
623.01	65.54
623.16	79.58
623.32	42.13
623.47	53.83
623.62	46.81
623.77	67.88
623.92	51.49
624.07	23.41
624.23	65.54
624.38	0.00
624.53	28.09
624.68	44.47
624.83	63.19
624.98	131.07
625.13	0.00
625.29	124.05
625.44	67.88
625.59	84.26
625.74	98.30
625.89	39.79
626.04	114.69
626.19	112.35
626.34	107.66
626.49	91.28
626.65	28.09
626.80	86.60
626.95	88.94
627.10	95.96
627.25	42.13
627.40	25.75
627.55	93.62
627.70	0.00
627.85	39.79
628.00	39.79
628.15	86.60
628.30	128.73
628.45	84.26
628.60	98.30
628.76	95.96
628.91	70.22
629.06	100.64
629.21	56.17
629.36	60.85
629.51	102.98
629.66	58.51
629.81	88.94
629.96	93.62
630.11	16.38
630.26	51.49
630.41	46.81
630.56	28.09
630.71	88.94
630.86	0.00
631.01	30.43
631.16	0.00
631.31	91.28
631.46	21.06
631.61	91.28
631.76	14.04
631.91	39.79
632.06	105.32
632.21	77.24
632.36	84.26
632.51	58.51
632.66	35.11
632.81	88.94
632.96	60.85
633.10	21.06
633.25	49.15
633.40	53.83
633.55	14.04
633.70	53.83
633.85	53.83
634.00	112.35
634.15	65.54
634.30	131.07
634.45	86.60
634.60	88.94
634.75	91.28
634.90	42.13
635.05	42.13
635.19	84.26
635.34	105.32
635.49	39.79
635.64	35.11
635.79	117.03
635.94	58.51
636.09	91.28
636.24	121.71
636.39	105.32
636.53	110.01
636.68	9.36
636.83	11.70
636.98	56.17
637.13	18.72
637.28	0.00
637.43	79.58
637.57	65.54
637.72	0.00
637.87	67.88
638.02	74.90
638.17	63.19
638.32	105.32
638.46	72.56
638.61	81.92
638.76	46.81
638.91	39.79
639.06	16.38
639.20	32.77
639.35	67.88
639.50	67.88
639.65	51.49
639.80	23.41
639.94	152.13
640.09	65.54
640.24	0.00
640.39	0.00
640.54	25.75
640.68	126.39
640.83	16.38
640.98	14.04
641.13	98.30
641.27	133.41
641.42	74.90
641.57	72.56
641.72	51.49
641.86	93.62
642.01	93.62
642.16	65.54
642.31	100.64
642.45	21.06
642.60	88.94
642.75	25.75
642.90	42.13
643.04	126.39
643.19	30.43
643.34	11.70
643.48	23.41
643.63	72.56
643.78	49.15
643.93	86.60
644.07	0.00
644.22	56.17
644.37	18.72
644.51	77.24
644.66	72.56
644.81	16.38
644.95	63.19
645.10	65.54
645.25	21.06
645.39	7.02
645.54	74.90
645.69	65.54
645.83	11.70
645.98	23.41
646.13	56.17
646.27	49.15
646.42	53.83
646.57	0.00
646.71	77.24
646.86	14.04
647.00	72.56
647.15	63.19
647.30	21.06
647.44	72.56
647.59	86.60
647.74	107.66
647.88	74.90
648.03	28.09
648.17	16.38
648.32	65.54
648.47	42.13
648.61	7.02
648.76	119.37
648.90	18.72
649.05	42.13
649.20	0.00
649.34	39.79
649.49	63.19
649.63	60.85
649.78	0.00
649.92	37.45
650.07	79.58
650.21	60.85
650.36	14.04
650.51	0.00
650.65	86.60
650.80	49.15
650.94	35.11
651.09	63.19
651.23	14.04
651.38	51.49
651.52	105.32
651.67	91.28
651.81	112.35
651.96	7.02
652.10	0.00
652.25	0.00
652.39	51.49
652.54	0.00
652.68	0.00
652.83	79.58
652.97	4.68
653.12	56.17
653.26	88.94
653.41	39.79
653.55	42.13
653.70	18.72
653.84	65.54
653.99	35.11
654.13	124.05
654.27	7.02
654.42	23.41
654.56	67.88
654.71	37.45
654.85	0.00
655.00	70.22
655.14	39.79
655.29	74.90
655.43	100.64
655.57	16.38
655.72	77.24
655.86	93.62
656.01	23.41
656.15	49.15
656.30	65.54
656.44	39.79
656.58	0.00
656.73	84.26
656.87	14.04
657.01	49.15
657.16	79.58
657.30	88.94
657.45	46.81
657.59	86.60
657.73	88.94
657.88	42.13
658.02	58.51
658.16	44.47
658.31	21.06
658.45	46.81
658.60	35.11
658.74	51.49
658.88	65.54
659.03	77.24
659.17	42.13
659.31	70.22
659.46	23.41
659.60	67.88
659.74	0.00
659.89	0.00
660.03	14.04
660.17	72.56
660.32	67.88
660.46	51.49
660.60	102.98
660.74	0.00
660.89	63.19
661.03	35.11
661.17	70.22
661.32	46.81
661.46	72.56
661.60	46.81
661.74	23.41
661.89	86.60
662.03	35.11
662.17	21.06
662.31	37.45
662.46	46.81
662.60	37.45
662.74	131.07
662.88	81.92
663.03	35.11
663.17	58.51
663.31	28.09
663.45	4.68
663.60	102.98
663.74	11.70
663.88	14.04
664.02	84.26
664.17	58.51
664.31	0.00
664.45	30.43
664.59	2.34
664.73	84.26
664.88	107.66
665.02	30.43
665.16	7.02
665.30	18.72
665.44	42.13
665.59	117.03
665.73	56.17
665.87	28.09
666.01	2.34
666.15	0.00
666.29	67.88
666.44	44.47
666.58	51.49
666.72	49.15
666.86	0.00
667.00	86.60
667.14	117.03
667.28	102.98
667.43	131.07
667.57	65.54
667.71	84.26
667.85	100.64
667.99	42.13
668.13	0.00
668.27	37.45
668.41	79.58
668.56	9.36
668.70	23.41
668.84	70.22
668.98	67.88
669.12	23.41
669.26	44.47
669.40	72.56
669.54	91.28
669.68	0.00
669.82	51.49
669.96	67.88
670.10	46.81
670.25	0.00
670.39	0.00
670.53	70.22
670.67	0.00
670.81	4.68
670.95	91.28
671.09	79.58
671.23	56.17
671.37	72.56
671.51	42.13
671.65	0.00
671.79	81.92
671.93	79.58
672.07	58.51
672.21	65.54
672.35	28.09
672.49	37.45
672.63	0.00
672.77	79.58
672.91	16.38
673.05	0.00
673.19	49.15
673.33	2.34
673.47	4.68
673.61	119.37
673.75	7.02
673.89	0.00
674.03	9.36
674.17	102.98
674.31	72.56
674.45	37.45
674.59	14.04
674.73	0.00
674.87	42.13
675.01	46.81
675.15	56.17
675.29	42.13
675.43	65.54
675.56	53.83
675.70	70.22
675.84	67.88
675.98	67.88
676.12	84.26
676.26	102.98
676.40	65.54
676.54	107.66
676.68	44.47
676.82	46.81
676.96	60.85
677.10	91.28
677.23	30.43
677.37	7.02
677.51	63.19
677.65	25.75
677.79	0.00
677.93	46.81
678.07	105.32
678.21	28.09
678.34	25.75
678.48	110.01
678.62	0.00
678.76	42.13
678.90	49.15
679.04	7.02
679.18	77.24
679.31	14.04
679.45	4.68
679.59	32.77
679.73	46.81
679.87	0.00
680.00	49.15
680.14	53.83
680.28	112.35
680.42	37.45
680.56	4.68
680.70	37.45
680.83	58.51
680.97	37.45
681.11	105.32
681.25	84.26
681.39	28.09
681.52	18.72
681.66	0.00
681.80	42.13
681.94	0.00
682.07	44.47
682.21	110.01
682.35	16.38
682.49	0.00
682.62	14.04
682.76	88.94
682.90	77.24
683.04	2.34
683.17	49.15
683.31	32.77
683.45	0.00
683.59	30.43
683.72	37.45
683.86	53.83
684.00	67.88
684.13	0.00
684.27	53.83
684.41	18.72
684.55	35.11
684.68	86.60
684.82	39.79
684.96	39.79
685.09	25.75
685.23	74.90
685.37	51.49
685.50	53.83
685.64	58.51
685.78	32.77
685.91	0.00
686.05	28.09
686.19	25.75
686.32	91.28
686.46	112.35
686.60	74.90
686.73	65.54
686.87	25.75
687.01	58.51
687.14	105.32
687.28	18.72
687.42	60.85
687.55	0.00
687.69	63.19
687.82	21.06
687.96	72.56
688.10	102.98
688.23	35.11
688.37	30.43
688.50	37.45
688.64	67.88
688.78	11.70
688.91	70.22
689.05	67.88
689.18	70.22
689.32	0.00
689.46	4.68
689.59	0.00
689.73	65.54
689.86	79.58
690.00	0.00
690.13	91.28
690.27	11.70
690.41	18.72
690.54	46.81
690.68	25.75
690.81	86.60
690.95	46.81
691.08	67.88
691.22	74.90
691.35	56.17
691.49	18.72
691.62	37.45
691.76	14.04
691.89	72.56
692.03	0.00
692.16	39.79
692.30	39.79
692.43	25.75
692.57	0.00
692.70	16.38
692.84	25.75
692.97	14.04
693.11	72.56
693.24	119.37
693.38	44.47
693.51	0.00
693.65	32.77
693.78	4.68
693.92	0.00
694.05	9.36
694.19	58.51
694.32	81.92
694.45	74.90
694.59	35.11
694.72	37.45
694.86	0.00
694.99	16.38
695.13	93.62
695.26	0.00
695.39	63.19
695.53	100.64
695.66	18.72
695.80	11.70
695.93	74.90
696.07	0.00
696.20	28.09
696.33	58.51
696.47	93.62
696.60	51.49
696.73	4.68
696.87	65.54
697.00	46.81
697.14	0.00
697.27	0.00
697.40	60.85
697.54	37.45
697.67	11.70
697.80	11.70
697.94	0.00
698.07	102.98
698.21	2.34
698.34	46.81
698.47	105.32
698.61	88.94
698.74	142.77
698.87	14.04
699.01	51.49
699.14	77.24
699.27	0.00
699.40	0.00
699.54	0.00
699.67	0.00
699.80	46.81
699.94	39.79
700.07	0.00
700.20	0.00
700.34	63.19
700.47	58.51
700.60	0.00
700.73	0.00
700.87	51.49
701.00	0.00
701.13	88.94
701.26	70.22
701.40	60.85
701.53	28.09
701.66	131.07
701.79	44.47
701.93	11.70
702.06	0.00
702.19	23.41
702.32	149.79
702.46	0.00
702.59	0.00
702.72	77.24
702.85	4.68
702.99	2.34
703.12	35.11
703.25	0.00
703.38	74.90
703.51	67.88
703.65	2.34
703.78	79.58
703.91	35.11
704.04	0.00
704.17	86.60
704.31	0.00
704.44	98.30
704.57	56.17
704.70	51.49
704.83	53.83
704.96	65.54
705.10	0.00
705.23	53.83
>>>>>End Processed Spectral Data<<<<<
