SpectraSuite Data File
++++++++++++++++++++++++++++++++++++
Date: Fri Oct 04 12:13:42 GMT-05:00 2013
User: price-jones
Dark Spectrum Present: No
Reference Spectrum Present: No
Number of Sampled Component Spectra: 1
Spectrometers: USB2+H05261
Integration Time (usec): 10000 (USB2+H05261)
Spectra Averaged: 1 (USB2+H05261)
Boxcar Smoothing: 0 (USB2+H05261)
Correct for Electrical Dark: No (USB2+H05261)
Strobe/Lamp Enabled: No (USB2+H05261)
Correct for Detector Non-linearity: No (USB2+H05261)
Correct for Stray Light: No (USB2+H05261)
Number of Pixels in Processed Spectrum: 2048
>>>>>Begin Processed Spectral Data<<<<<
365.73	0.00
365.92	0.00
366.12	0.00
366.32	0.00
366.52	0.00
366.72	0.00
366.91	0.00
367.11	0.00
367.31	0.00
367.51	0.00
367.70	0.00
367.90	0.00
368.10	0.00
368.30	0.00
368.49	0.00
368.69	0.00
368.89	0.00
369.09	0.00
369.28	0.00
369.48	0.00
369.68	0.00
369.87	0.00
370.07	0.00
370.27	0.00
370.47	0.00
370.66	0.00
370.86	0.00
371.06	0.00
371.25	0.00
371.45	0.00
371.65	0.00
371.84	0.00
372.04	9.36
372.24	0.00
372.44	0.00
372.63	30.43
372.83	25.75
373.03	0.00
373.22	0.00
373.42	105.32
373.62	32.77
373.81	110.01
374.01	67.88
374.21	4.68
374.40	53.83
374.60	37.45
374.79	11.70
374.99	30.43
375.19	0.00
375.38	86.60
375.58	60.85
375.78	81.92
375.97	65.54
376.17	14.04
376.37	53.83
376.56	60.85
376.76	25.75
376.95	37.45
377.15	35.11
377.35	84.26
377.54	16.38
377.74	32.77
377.93	25.75
378.13	32.77
378.33	72.56
378.52	46.81
378.72	42.13
378.91	11.70
379.11	0.00
379.31	4.68
379.50	0.00
379.70	30.43
379.89	0.00
380.09	16.38
380.28	0.00
380.48	51.49
380.68	0.00
380.87	21.06
381.07	114.69
381.26	100.64
381.46	42.13
381.65	0.00
381.85	14.04
382.04	9.36
382.24	65.54
382.43	98.30
382.63	2.34
382.83	0.00
383.02	39.79
383.22	72.56
383.41	0.00
383.61	28.09
383.80	23.41
384.00	21.06
384.19	0.00
384.39	7.02
384.58	53.83
384.78	42.13
384.97	30.43
385.17	0.00
385.36	0.00
385.56	0.00
385.75	0.00
385.95	60.85
386.14	46.81
386.34	56.17
386.53	67.88
386.72	65.54
386.92	98.30
387.11	53.83
387.31	0.00
387.50	58.51
387.70	23.41
387.89	72.56
388.09	49.15
388.28	2.34
388.48	14.04
388.67	49.15
388.86	37.45
389.06	74.90
389.25	0.00
389.45	0.00
389.64	0.00
389.84	2.34
390.03	32.77
390.22	0.00
390.42	56.17
390.61	42.13
390.81	32.77
391.00	0.00
391.19	32.77
391.39	9.36
391.58	0.00
391.78	25.75
391.97	0.00
392.16	79.58
392.36	4.68
392.55	0.00
392.75	25.75
392.94	56.17
393.13	23.41
393.33	35.11
393.52	0.00
393.71	25.75
393.91	100.64
394.10	70.22
394.29	0.00
394.49	67.88
394.68	35.11
394.88	18.72
395.07	0.00
395.26	0.00
395.46	56.17
395.65	0.00
395.84	65.54
396.04	0.00
396.23	23.41
396.42	0.00
396.62	42.13
396.81	0.00
397.00	30.43
397.19	44.47
397.39	0.00
397.58	30.43
397.77	0.00
397.97	9.36
398.16	51.49
398.35	9.36
398.55	49.15
398.74	105.32
398.93	9.36
399.12	0.00
399.32	58.51
399.51	63.19
399.70	79.58
399.90	49.15
400.09	42.13
400.28	86.60
400.47	4.68
400.67	39.79
400.86	42.13
401.05	39.79
401.24	67.88
401.44	42.13
401.63	9.36
401.82	84.26
402.01	58.51
402.21	79.58
402.40	0.00
402.59	37.45
402.78	110.01
402.97	49.15
403.17	65.54
403.36	39.79
403.55	0.00
403.74	14.04
403.93	39.79
404.13	23.41
404.32	23.41
404.51	0.00
404.70	37.45
404.89	0.00
405.09	53.83
405.28	51.49
405.47	39.79
405.66	0.00
405.85	21.06
406.05	37.45
406.24	21.06
406.43	0.00
406.62	21.06
406.81	30.43
407.00	70.22
407.20	0.00
407.39	39.79
407.58	39.79
407.77	0.00
407.96	4.68
408.15	58.51
408.34	16.38
408.54	67.88
408.73	0.00
408.92	25.75
409.11	105.32
409.30	46.81
409.49	23.41
409.68	0.00
409.87	72.56
410.07	0.00
410.26	86.60
410.45	107.66
410.64	0.00
410.83	37.45
411.02	46.81
411.21	0.00
411.40	11.70
411.59	0.00
411.78	30.43
411.98	63.19
412.17	74.90
412.36	30.43
412.55	37.45
412.74	28.09
412.93	18.72
413.12	14.04
413.31	39.79
413.50	35.11
413.69	44.47
413.88	4.68
414.07	56.17
414.26	11.70
414.45	0.00
414.64	117.03
414.83	25.75
415.02	67.88
415.22	84.26
415.41	39.79
415.60	0.00
415.79	39.79
415.98	14.04
416.17	65.54
416.36	39.79
416.55	0.00
416.74	21.06
416.93	51.49
417.12	21.06
417.31	70.22
417.50	4.68
417.69	56.17
417.88	121.71
418.07	25.75
418.26	102.98
418.45	30.43
418.64	119.37
418.83	0.00
419.02	30.43
419.21	0.00
419.39	7.02
419.58	0.00
419.77	39.79
419.96	4.68
420.15	74.90
420.34	35.11
420.53	88.94
420.72	7.02
420.91	0.00
421.10	23.41
421.29	0.00
421.48	7.02
421.67	28.09
421.86	0.00
422.05	56.17
422.24	46.81
422.43	0.00
422.61	35.11
422.80	9.36
422.99	74.90
423.18	16.38
423.37	28.09
423.56	51.49
423.75	0.00
423.94	21.06
424.13	67.88
424.32	0.00
424.50	21.06
424.69	18.72
424.88	16.38
425.07	42.13
425.26	60.85
425.45	107.66
425.64	11.70
425.83	11.70
426.01	35.11
426.20	28.09
426.39	32.77
426.58	77.24
426.77	0.00
426.96	16.38
427.15	23.41
427.33	65.54
427.52	79.58
427.71	23.41
427.90	149.79
428.09	77.24
428.28	86.60
428.46	0.00
428.65	7.02
428.84	42.13
429.03	0.00
429.22	42.13
429.40	28.09
429.59	25.75
429.78	42.13
429.97	51.49
430.16	4.68
430.34	86.60
430.53	4.68
430.72	58.51
430.91	63.19
431.10	95.96
431.28	11.70
431.47	0.00
431.66	42.13
431.85	2.34
432.03	0.00
432.22	44.47
432.41	0.00
432.60	74.90
432.79	37.45
432.97	25.75
433.16	2.34
433.35	21.06
433.54	79.58
433.72	2.34
433.91	11.70
434.10	23.41
434.28	21.06
434.47	30.43
434.66	70.22
434.85	81.92
435.03	39.79
435.22	60.85
435.41	119.37
435.59	35.11
435.78	14.04
435.97	72.56
436.16	77.24
436.34	32.77
436.53	44.47
436.72	0.00
436.90	0.00
437.09	67.88
437.28	51.49
437.46	95.96
437.65	42.13
437.84	0.00
438.02	51.49
438.21	46.81
438.40	42.13
438.58	35.11
438.77	81.92
438.96	30.43
439.14	51.49
439.33	70.22
439.52	58.51
439.70	32.77
439.89	39.79
440.08	7.02
440.26	23.41
440.45	14.04
440.63	67.88
440.82	18.72
441.01	18.72
441.19	35.11
441.38	46.81
441.57	32.77
441.75	100.64
441.94	107.66
442.12	121.71
442.31	44.47
442.50	30.43
442.68	37.45
442.87	53.83
443.05	16.38
443.24	72.56
443.43	51.49
443.61	100.64
443.80	44.47
443.98	58.51
444.17	0.00
444.35	81.92
444.54	18.72
444.73	30.43
444.91	11.70
445.10	84.26
445.28	44.47
445.47	18.72
445.65	35.11
445.84	86.60
446.02	72.56
446.21	4.68
446.39	93.62
446.58	7.02
446.77	28.09
446.95	58.51
447.14	51.49
447.32	32.77
447.51	84.26
447.69	60.85
447.88	9.36
448.06	28.09
448.25	53.83
448.43	35.11
448.62	32.77
448.80	42.13
448.99	53.83
449.17	67.88
449.36	72.56
449.54	46.81
449.73	147.45
449.91	79.58
450.10	72.56
450.28	65.54
450.46	46.81
450.65	51.49
450.83	102.98
451.02	21.06
451.20	74.90
451.39	0.00
451.57	51.49
451.76	39.79
451.94	39.79
452.13	21.06
452.31	70.22
452.49	81.92
452.68	42.13
452.86	88.94
453.05	35.11
453.23	42.13
453.42	63.19
453.60	102.98
453.78	51.49
453.97	49.15
454.15	95.96
454.34	2.34
454.52	25.75
454.70	72.56
454.89	70.22
455.07	0.00
455.26	58.51
455.44	35.11
455.62	9.36
455.81	49.15
455.99	65.54
456.17	11.70
456.36	49.15
456.54	32.77
456.73	77.24
456.91	25.75
457.09	18.72
457.28	49.15
457.46	147.45
457.64	133.41
457.83	44.47
458.01	65.54
458.19	28.09
458.38	81.92
458.56	9.36
458.74	42.13
458.93	0.00
459.11	51.49
459.29	53.83
459.48	0.00
459.66	74.90
459.84	112.35
460.03	95.96
460.21	60.85
460.39	110.01
460.57	65.54
460.76	79.58
460.94	35.11
461.12	126.39
461.31	79.58
461.49	37.45
461.67	53.83
461.85	37.45
462.04	91.28
462.22	152.13
462.40	74.90
462.59	138.09
462.77	35.11
462.95	105.32
463.13	53.83
463.32	124.05
463.50	102.98
463.68	81.92
463.86	117.03
464.05	0.00
464.23	32.77
464.41	14.04
464.59	65.54
464.78	72.56
464.96	93.62
465.14	44.47
465.32	63.19
465.50	23.41
465.69	91.28
465.87	4.68
466.05	14.04
466.23	93.62
466.41	100.64
466.60	25.75
466.78	42.13
466.96	140.43
467.14	0.00
467.32	30.43
467.51	79.58
467.69	7.02
467.87	112.35
468.05	53.83
468.23	49.15
468.41	7.02
468.60	72.56
468.78	0.00
468.96	30.43
469.14	58.51
469.32	67.88
469.50	124.05
469.69	32.77
469.87	65.54
470.05	88.94
470.23	117.03
470.41	16.38
470.59	42.13
470.77	0.00
470.95	44.47
471.14	0.00
471.32	100.64
471.50	77.24
471.68	18.72
471.86	58.51
472.04	9.36
472.22	0.00
472.40	0.00
472.58	145.11
472.77	91.28
472.95	102.98
473.13	46.81
473.31	39.79
473.49	25.75
473.67	112.35
473.85	44.47
474.03	37.45
474.21	70.22
474.39	4.68
474.57	79.58
474.75	49.15
474.93	51.49
475.12	93.62
475.30	60.85
475.48	60.85
475.66	23.41
475.84	72.56
476.02	42.13
476.20	14.04
476.38	112.35
476.56	105.32
476.74	100.64
476.92	0.00
477.10	110.01
477.28	0.00
477.46	56.17
477.64	77.24
477.82	74.90
478.00	32.77
478.18	4.68
478.36	74.90
478.54	51.49
478.72	91.28
478.90	49.15
479.08	0.00
479.26	53.83
479.44	51.49
479.62	152.13
479.80	58.51
479.98	88.94
480.16	77.24
480.34	79.58
480.52	14.04
480.70	30.43
480.88	84.26
481.06	95.96
481.24	93.62
481.41	63.19
481.59	70.22
481.77	126.39
481.95	53.83
482.13	72.56
482.31	63.19
482.49	70.22
482.67	65.54
482.85	0.00
483.03	51.49
483.21	98.30
483.39	58.51
483.57	105.32
483.74	44.47
483.92	72.56
484.10	91.28
484.28	95.96
484.46	77.24
484.64	86.60
484.82	81.92
485.00	14.04
485.18	42.13
485.35	46.81
485.53	39.79
485.71	100.64
485.89	79.58
486.07	70.22
486.25	112.35
486.43	91.28
486.61	42.13
486.78	32.77
486.96	100.64
487.14	84.26
487.32	126.39
487.50	60.85
487.68	42.13
487.85	4.68
488.03	93.62
488.21	91.28
488.39	74.90
488.57	51.49
488.75	39.79
488.92	114.69
489.10	39.79
489.28	114.69
489.46	32.77
489.64	98.30
489.81	23.41
489.99	56.17
490.17	67.88
490.35	42.13
490.53	161.50
490.70	67.88
490.88	63.19
491.06	0.00
491.24	72.56
491.41	18.72
491.59	49.15
491.77	126.39
491.95	107.66
492.13	4.68
492.30	44.47
492.48	112.35
492.66	117.03
492.84	105.32
493.01	63.19
493.19	42.13
493.37	65.54
493.54	30.43
493.72	35.11
493.90	67.88
494.08	91.28
494.25	49.15
494.43	30.43
494.61	63.19
494.79	70.22
494.96	18.72
495.14	128.73
495.32	102.98
495.49	86.60
495.67	93.62
495.85	42.13
496.02	35.11
496.20	53.83
496.38	63.19
496.55	88.94
496.73	18.72
496.91	51.49
497.09	126.39
497.26	51.49
497.44	32.77
497.62	72.56
497.79	30.43
497.97	72.56
498.14	91.28
498.32	51.49
498.50	98.30
498.67	25.75
498.85	91.28
499.03	56.17
499.20	74.90
499.38	100.64
499.56	70.22
499.73	88.94
499.91	79.58
500.08	152.13
500.26	152.13
500.44	128.73
500.61	145.11
500.79	121.71
500.97	138.09
501.14	42.13
501.32	100.64
501.49	117.03
501.67	7.02
501.84	44.47
502.02	65.54
502.20	18.72
502.37	93.62
502.55	86.60
502.72	46.81
502.90	102.98
503.07	145.11
503.25	18.72
503.43	91.28
503.60	149.79
503.78	74.90
503.95	44.47
504.13	28.09
504.30	121.71
504.48	60.85
504.65	39.79
504.83	32.77
505.01	63.19
505.18	98.30
505.36	16.38
505.53	100.64
505.71	60.85
505.88	77.24
506.06	98.30
506.23	135.75
506.41	70.22
506.58	98.30
506.76	88.94
506.93	112.35
507.11	93.62
507.28	65.54
507.46	110.01
507.63	30.43
507.81	70.22
507.98	88.94
508.16	149.79
508.33	112.35
508.50	28.09
508.68	117.03
508.85	49.15
509.03	117.03
509.20	88.94
509.38	119.37
509.55	105.32
509.73	81.92
509.90	93.62
510.08	44.47
510.25	0.00
510.42	58.51
510.60	60.85
510.77	126.39
510.95	93.62
511.12	81.92
511.30	95.96
511.47	65.54
511.64	0.00
511.82	46.81
511.99	0.00
512.17	2.34
512.34	65.54
512.51	110.01
512.69	102.98
512.86	30.43
513.04	86.60
513.21	70.22
513.38	35.11
513.56	140.43
513.73	0.00
513.90	21.06
514.08	105.32
514.25	53.83
514.43	56.17
514.60	72.56
514.77	124.05
514.95	95.96
515.12	30.43
515.29	70.22
515.47	58.51
515.64	70.22
515.81	107.66
515.99	77.24
516.16	84.26
516.33	30.43
516.51	119.37
516.68	58.51
516.85	131.07
517.03	30.43
517.20	37.45
517.37	84.26
517.54	81.92
517.72	67.88
517.89	56.17
518.06	74.90
518.24	95.96
518.41	77.24
518.58	70.22
518.75	65.54
518.93	84.26
519.10	107.66
519.27	63.19
519.45	121.71
519.62	74.90
519.79	53.83
519.96	44.47
520.14	98.30
520.31	88.94
520.48	18.72
520.65	84.26
520.83	102.98
521.00	16.38
521.17	56.17
521.34	65.54
521.52	95.96
521.69	39.79
521.86	147.45
522.03	98.30
522.20	51.49
522.38	49.15
522.55	84.26
522.72	60.85
522.89	88.94
523.07	81.92
523.24	63.19
523.41	56.17
523.58	121.71
523.75	105.32
523.92	0.00
524.10	112.35
524.27	67.88
524.44	133.41
524.61	70.22
524.78	53.83
524.96	119.37
525.13	91.28
525.30	110.01
525.47	88.94
525.64	88.94
525.81	81.92
525.98	84.26
526.16	7.02
526.33	65.54
526.50	46.81
526.67	107.66
526.84	37.45
527.01	170.86
527.18	107.66
527.36	21.06
527.53	51.49
527.70	67.88
527.87	105.32
528.04	21.06
528.21	93.62
528.38	187.24
528.55	93.62
528.72	100.64
528.89	102.98
529.07	30.43
529.24	154.48
529.41	67.88
529.58	56.17
529.75	114.69
529.92	170.86
530.09	86.60
530.26	53.83
530.43	81.92
530.60	81.92
530.77	46.81
530.94	84.26
531.11	84.26
531.28	60.85
531.46	35.11
531.63	72.56
531.80	100.64
531.97	60.85
532.14	70.22
532.31	58.51
532.48	124.05
532.65	84.26
532.82	95.96
532.99	84.26
533.16	74.90
533.33	56.17
533.50	28.09
533.67	37.45
533.84	77.24
534.01	53.83
534.18	95.96
534.35	37.45
534.52	95.96
534.69	102.98
534.86	53.83
535.03	56.17
535.20	149.79
535.37	131.07
535.54	60.85
535.71	145.11
535.88	121.71
536.05	67.88
536.22	84.26
536.38	86.60
536.55	112.35
536.72	51.49
536.89	145.11
537.06	46.81
537.23	72.56
537.40	44.47
537.57	84.26
537.74	30.43
537.91	60.85
538.08	128.73
538.25	95.96
538.42	25.75
538.59	133.41
538.75	156.82
538.92	81.92
539.09	42.13
539.26	51.49
539.43	100.64
539.60	37.45
539.77	46.81
539.94	53.83
540.11	25.75
540.28	25.75
540.44	91.28
540.61	159.16
540.78	42.13
540.95	65.54
541.12	142.77
541.29	107.66
541.46	126.39
541.62	159.16
541.79	42.13
541.96	84.26
542.13	203.63
542.30	72.56
542.47	65.54
542.63	84.26
542.80	107.66
542.97	93.62
543.14	53.83
543.31	84.26
543.48	56.17
543.64	140.43
543.81	42.13
543.98	93.62
544.15	114.69
544.32	91.28
544.48	91.28
544.65	124.05
544.82	44.47
544.99	84.26
545.16	88.94
545.32	135.75
545.49	72.56
545.66	79.58
545.83	98.30
546.00	51.49
546.16	16.38
546.33	58.51
546.50	18.72
546.67	140.43
546.83	93.62
547.00	28.09
547.17	70.22
547.34	63.19
547.50	170.86
547.67	112.35
547.84	112.35
548.00	84.26
548.17	119.37
548.34	163.84
548.51	112.35
548.67	37.45
548.84	72.56
549.01	65.54
549.18	159.16
549.34	91.28
549.51	28.09
549.68	56.17
549.84	105.32
550.01	140.43
550.18	105.32
550.34	98.30
550.51	133.41
550.68	91.28
550.84	37.45
551.01	86.60
551.18	74.90
551.34	131.07
551.51	86.60
551.68	74.90
551.84	93.62
552.01	67.88
552.18	77.24
552.34	35.11
552.51	98.30
552.68	110.01
552.84	112.35
553.01	88.94
553.18	107.66
553.34	105.32
553.51	74.90
553.67	112.35
553.84	133.41
554.01	149.79
554.17	124.05
554.34	81.92
554.51	102.98
554.67	88.94
554.84	128.73
555.00	84.26
555.17	60.85
555.33	81.92
555.50	88.94
555.67	124.05
555.83	39.79
556.00	93.62
556.16	37.45
556.33	170.86
556.50	88.94
556.66	77.24
556.83	135.75
556.99	124.05
557.16	110.01
557.32	72.56
557.49	30.43
557.65	100.64
557.82	58.51
557.98	98.30
558.15	56.17
558.32	49.15
558.48	65.54
558.65	152.13
558.81	70.22
558.98	30.43
559.14	70.22
559.31	46.81
559.47	100.64
559.64	72.56
559.80	102.98
559.97	46.81
560.13	77.24
560.30	77.24
560.46	86.60
560.63	60.85
560.79	149.79
560.96	88.94
561.12	79.58
561.29	145.11
561.45	95.96
561.61	154.48
561.78	93.62
561.94	60.85
562.11	70.22
562.27	67.88
562.44	110.01
562.60	121.71
562.77	91.28
562.93	124.05
563.10	30.43
563.26	63.19
563.42	44.47
563.59	51.49
563.75	86.60
563.92	58.51
564.08	63.19
564.24	72.56
564.41	105.32
564.57	98.30
564.74	95.96
564.90	84.26
565.07	135.75
565.23	93.62
565.39	65.54
565.56	79.58
565.72	102.98
565.88	105.32
566.05	107.66
566.21	119.37
566.38	70.22
566.54	44.47
566.70	39.79
566.87	44.47
567.03	25.75
567.19	107.66
567.36	56.17
567.52	86.60
567.68	70.22
567.85	133.41
568.01	21.06
568.17	58.51
568.34	114.69
568.50	70.22
568.66	46.81
568.83	46.81
568.99	72.56
569.15	63.19
569.32	46.81
569.48	126.39
569.64	39.79
569.81	56.17
569.97	65.54
570.13	84.26
570.30	86.60
570.46	93.62
570.62	86.60
570.78	140.43
570.95	44.47
571.11	23.41
571.27	63.19
571.43	126.39
571.60	60.85
571.76	67.88
571.92	121.71
572.09	88.94
572.25	63.19
572.41	32.77
572.57	53.83
572.74	86.60
572.90	65.54
573.06	77.24
573.22	30.43
573.38	98.30
573.55	37.45
573.71	56.17
573.87	72.56
574.03	98.30
574.20	46.81
574.36	70.22
574.52	60.85
574.68	56.17
574.84	84.26
575.01	77.24
575.17	81.92
575.33	60.85
575.49	95.96
575.65	39.79
575.82	98.30
575.98	84.26
576.14	93.62
576.30	84.26
576.46	112.35
576.62	77.24
576.79	100.64
576.95	56.17
577.11	149.79
577.27	124.05
577.43	65.54
577.59	65.54
577.75	126.39
577.92	63.19
578.08	18.72
578.24	32.77
578.40	79.58
578.56	119.37
578.72	42.13
578.88	117.03
579.04	67.88
579.21	84.26
579.37	84.26
579.53	60.85
579.69	0.00
579.85	105.32
580.01	131.07
580.17	72.56
580.33	114.69
580.49	91.28
580.65	16.38
580.82	72.56
580.98	110.01
581.14	67.88
581.30	65.54
581.46	86.60
581.62	170.86
581.78	131.07
581.94	70.22
582.10	114.69
582.26	49.15
582.42	39.79
582.58	100.64
582.74	70.22
582.90	121.71
583.06	105.32
583.22	70.22
583.38	126.39
583.54	77.24
583.70	86.60
583.86	49.15
584.02	91.28
584.18	142.77
584.34	121.71
584.50	60.85
584.66	56.17
584.82	135.75
584.98	58.51
585.14	98.30
585.30	72.56
585.46	79.58
585.62	107.66
585.78	145.11
585.94	21.06
586.10	100.64
586.26	60.85
586.42	152.13
586.58	117.03
586.74	81.92
586.90	133.41
587.06	145.11
587.22	72.56
587.38	72.56
587.54	70.22
587.70	58.51
587.86	72.56
588.02	39.79
588.18	44.47
588.34	86.60
588.49	58.51
588.65	88.94
588.81	21.06
588.97	14.04
589.13	67.88
589.29	107.66
589.45	39.79
589.61	70.22
589.77	53.83
589.93	23.41
590.08	88.94
590.24	70.22
590.40	0.00
590.56	72.56
590.72	30.43
590.88	95.96
591.04	37.45
591.20	100.64
591.35	65.54
591.51	107.66
591.67	51.49
591.83	42.13
591.99	53.83
592.15	28.09
592.31	138.09
592.46	74.90
592.62	145.11
592.78	102.98
592.94	56.17
593.10	16.38
593.26	16.38
593.41	117.03
593.57	58.51
593.73	95.96
593.89	72.56
594.05	79.58
594.20	53.83
594.36	81.92
594.52	98.30
594.68	60.85
594.84	88.94
594.99	60.85
595.15	11.70
595.31	56.17
595.47	79.58
595.62	58.51
595.78	98.30
595.94	21.06
596.10	102.98
596.25	65.54
596.41	25.75
596.57	72.56
596.73	91.28
596.88	58.51
597.04	86.60
597.20	18.72
597.36	42.13
597.51	100.64
597.67	14.04
597.83	74.90
597.99	28.09
598.14	170.86
598.30	67.88
598.46	98.30
598.61	105.32
598.77	49.15
598.93	0.00
599.09	93.62
599.24	107.66
599.40	18.72
599.56	37.45
599.71	81.92
599.87	107.66
600.03	0.00
600.18	56.17
600.34	28.09
600.50	114.69
600.65	67.88
600.81	46.81
600.97	56.17
601.12	0.00
601.28	70.22
601.44	70.22
601.59	46.81
601.75	81.92
601.91	98.30
602.06	16.38
602.22	84.26
602.37	4.68
602.53	98.30
602.69	107.66
602.84	0.00
603.00	159.16
603.16	49.15
603.31	124.05
603.47	72.56
603.62	95.96
603.78	56.17
603.94	131.07
604.09	102.98
604.25	46.81
604.40	140.43
604.56	91.28
604.71	100.64
604.87	30.43
605.03	110.01
605.18	72.56
605.34	95.96
605.49	28.09
605.65	65.54
605.80	84.26
605.96	60.85
606.12	37.45
606.27	135.75
606.43	39.79
606.58	30.43
606.74	42.13
606.89	0.00
607.05	86.60
607.20	107.66
607.36	0.00
607.51	53.83
607.67	46.81
607.82	30.43
607.98	100.64
608.13	58.51
608.29	58.51
608.44	46.81
608.60	88.94
608.75	67.88
608.91	30.43
609.06	37.45
609.22	86.60
609.37	30.43
609.53	30.43
609.68	42.13
609.84	42.13
609.99	142.77
610.15	81.92
610.30	4.68
610.46	42.13
610.61	74.90
610.76	70.22
610.92	119.37
611.07	77.24
611.23	126.39
611.38	98.30
611.54	86.60
611.69	58.51
611.84	72.56
612.00	124.05
612.15	86.60
612.31	74.90
612.46	46.81
612.62	0.00
612.77	46.81
612.92	18.72
613.08	79.58
613.23	35.11
613.39	51.49
613.54	63.19
613.69	60.85
613.85	93.62
614.00	72.56
614.15	124.05
614.31	74.90
614.46	28.09
614.62	121.71
614.77	58.51
614.92	49.15
615.08	4.68
615.23	124.05
615.38	53.83
615.54	79.58
615.69	28.09
615.84	117.03
616.00	39.79
616.15	81.92
616.30	65.54
616.46	95.96
616.61	74.90
616.76	119.37
616.92	70.22
617.07	0.00
617.22	102.98
617.37	25.75
617.53	49.15
617.68	42.13
617.83	60.85
617.99	100.64
618.14	107.66
618.29	32.77
618.45	154.48
618.60	114.69
618.75	46.81
618.90	88.94
619.06	51.49
619.21	84.26
619.36	9.36
619.51	119.37
619.67	60.85
619.82	58.51
619.97	42.13
620.12	117.03
620.28	39.79
620.43	58.51
620.58	46.81
620.73	0.00
620.89	0.00
621.04	72.56
621.19	72.56
621.34	42.13
621.49	44.47
621.65	84.26
621.80	46.81
621.95	138.09
622.10	117.03
622.25	4.68
622.41	30.43
622.56	88.94
622.71	60.85
622.86	37.45
623.01	30.43
623.16	91.28
623.32	91.28
623.47	74.90
623.62	14.04
623.77	35.11
623.92	133.41
624.07	112.35
624.23	79.58
624.38	32.77
624.53	35.11
624.68	102.98
624.83	102.98
624.98	88.94
625.13	84.26
625.29	25.75
625.44	32.77
625.59	30.43
625.74	63.19
625.89	72.56
626.04	58.51
626.19	107.66
626.34	105.32
626.49	46.81
626.65	53.83
626.80	72.56
626.95	51.49
627.10	65.54
627.25	30.43
627.40	0.00
627.55	35.11
627.70	63.19
627.85	84.26
628.00	95.96
628.15	49.15
628.30	37.45
628.45	102.98
628.60	51.49
628.76	110.01
628.91	88.94
629.06	60.85
629.21	42.13
629.36	37.45
629.51	11.70
629.66	72.56
629.81	65.54
629.96	110.01
630.11	51.49
630.26	95.96
630.41	63.19
630.56	4.68
630.71	42.13
630.86	32.77
631.01	49.15
631.16	4.68
631.31	53.83
631.46	117.03
631.61	124.05
631.76	39.79
631.91	124.05
632.06	126.39
632.21	58.51
632.36	42.13
632.51	95.96
632.66	84.26
632.81	124.05
632.96	88.94
633.10	60.85
633.25	25.75
633.40	119.37
633.55	88.94
633.70	117.03
633.85	58.51
634.00	149.79
634.15	58.51
634.30	0.00
634.45	70.22
634.60	72.56
634.75	74.90
634.90	98.30
635.05	11.70
635.19	49.15
635.34	37.45
635.49	49.15
635.64	53.83
635.79	117.03
635.94	39.79
636.09	79.58
636.24	67.88
636.39	128.73
636.53	32.77
636.68	65.54
636.83	42.13
636.98	112.35
637.13	84.26
637.28	93.62
637.43	39.79
637.57	51.49
637.72	32.77
637.87	32.77
638.02	70.22
638.17	72.56
638.32	88.94
638.46	105.32
638.61	53.83
638.76	39.79
638.91	53.83
639.06	110.01
639.20	42.13
639.35	135.75
639.50	56.17
639.65	110.01
639.80	88.94
639.94	70.22
640.09	32.77
640.24	91.28
640.39	117.03
640.54	72.56
640.68	21.06
640.83	74.90
640.98	77.24
641.13	91.28
641.27	93.62
641.42	0.00
641.57	56.17
641.72	28.09
641.86	49.15
642.01	53.83
642.16	117.03
642.31	67.88
642.45	0.00
642.60	63.19
642.75	88.94
642.90	58.51
643.04	23.41
643.19	23.41
643.34	56.17
643.48	112.35
643.63	60.85
643.78	39.79
643.93	39.79
644.07	81.92
644.22	65.54
644.37	0.00
644.51	95.96
644.66	51.49
644.81	60.85
644.95	39.79
645.10	30.43
645.25	98.30
645.39	65.54
645.54	49.15
645.69	42.13
645.83	39.79
645.98	16.38
646.13	7.02
646.27	112.35
646.42	30.43
646.57	4.68
646.71	0.00
646.86	58.51
647.00	77.24
647.15	25.75
647.30	18.72
647.44	30.43
647.59	2.34
647.74	51.49
647.88	28.09
648.03	100.64
648.17	49.15
648.32	35.11
648.47	60.85
648.61	53.83
648.76	28.09
648.90	0.00
649.05	63.19
649.20	110.01
649.34	32.77
649.49	0.00
649.63	98.30
649.78	49.15
649.92	63.19
650.07	51.49
650.21	0.00
650.36	84.26
650.51	56.17
650.65	70.22
650.80	100.64
650.94	95.96
651.09	49.15
651.23	65.54
651.38	30.43
651.52	0.00
651.67	56.17
651.81	37.45
651.96	0.00
652.10	44.47
652.25	152.13
652.39	77.24
652.54	60.85
652.68	28.09
652.83	65.54
652.97	124.05
653.12	39.79
653.26	46.81
653.41	72.56
653.55	81.92
653.70	60.85
653.84	93.62
653.99	65.54
654.13	95.96
654.27	60.85
654.42	0.00
654.56	11.70
654.71	74.90
654.85	42.13
655.00	53.83
655.14	93.62
655.29	86.60
655.43	42.13
655.57	58.51
655.72	49.15
655.86	35.11
656.01	16.38
656.15	32.77
656.30	93.62
656.44	93.62
656.58	35.11
656.73	46.81
656.87	67.88
657.01	77.24
657.16	44.47
657.30	110.01
657.45	0.00
657.59	60.85
657.73	25.75
657.88	32.77
658.02	58.51
658.16	42.13
658.31	100.64
658.45	88.94
658.60	35.11
658.74	70.22
658.88	0.00
659.03	65.54
659.17	14.04
659.31	23.41
659.46	42.13
659.60	72.56
659.74	81.92
659.89	0.00
660.03	133.41
660.17	23.41
660.32	65.54
660.46	25.75
660.60	107.66
660.74	110.01
660.89	74.90
661.03	93.62
661.17	11.70
661.32	81.92
661.46	4.68
661.60	16.38
661.74	44.47
661.89	79.58
662.03	84.26
662.17	21.06
662.31	56.17
662.46	63.19
662.60	0.00
662.74	74.90
662.88	110.01
663.03	25.75
663.17	91.28
663.31	84.26
663.45	58.51
663.60	124.05
663.74	18.72
663.88	42.13
664.02	77.24
664.17	70.22
664.31	72.56
664.45	88.94
664.59	44.47
664.73	84.26
664.88	56.17
665.02	79.58
665.16	63.19
665.30	100.64
665.44	95.96
665.59	23.41
665.73	23.41
665.87	14.04
666.01	51.49
666.15	74.90
666.29	35.11
666.44	86.60
666.58	35.11
666.72	42.13
666.86	11.70
667.00	100.64
667.14	135.75
667.28	44.47
667.43	11.70
667.57	2.34
667.71	114.69
667.85	91.28
667.99	0.00
668.13	53.83
668.27	114.69
668.41	81.92
668.56	42.13
668.70	32.77
668.84	63.19
668.98	102.98
669.12	100.64
669.26	58.51
669.40	86.60
669.54	37.45
669.68	84.26
669.82	28.09
669.96	35.11
670.10	63.19
670.25	67.88
670.39	0.00
670.53	51.49
670.67	32.77
670.81	42.13
670.95	91.28
671.09	81.92
671.23	0.00
671.37	63.19
671.51	39.79
671.65	37.45
671.79	0.00
671.93	65.54
672.07	74.90
672.21	23.41
672.35	0.00
672.49	32.77
672.63	44.47
672.77	74.90
672.91	119.37
673.05	102.98
673.19	46.81
673.33	4.68
673.47	102.98
673.61	16.38
673.75	49.15
673.89	88.94
674.03	51.49
674.17	100.64
674.31	56.17
674.45	65.54
674.59	0.00
674.73	0.00
674.87	65.54
675.01	91.28
675.15	37.45
675.29	25.75
675.43	102.98
675.56	77.24
675.70	0.00
675.84	84.26
675.98	77.24
676.12	23.41
676.26	70.22
676.40	44.47
676.54	16.38
676.68	138.09
676.82	37.45
676.96	58.51
677.10	44.47
677.23	51.49
677.37	72.56
677.51	63.19
677.65	72.56
677.79	53.83
677.93	105.32
678.07	58.51
678.21	42.13
678.34	4.68
678.48	49.15
678.62	42.13
678.76	119.37
678.90	35.11
679.04	0.00
679.18	56.17
679.31	2.34
679.45	28.09
679.59	11.70
679.73	74.90
679.87	49.15
680.00	39.79
680.14	124.05
680.28	58.51
680.42	63.19
680.56	35.11
680.70	32.77
680.83	119.37
680.97	42.13
681.11	147.45
681.25	0.00
681.39	28.09
681.52	49.15
681.66	35.11
681.80	39.79
681.94	102.98
682.07	70.22
682.21	37.45
682.35	74.90
682.49	7.02
682.62	70.22
682.76	0.00
682.90	30.43
683.04	32.77
683.17	0.00
683.31	67.88
683.45	51.49
683.59	44.47
683.72	0.00
683.86	23.41
684.00	14.04
684.13	60.85
684.27	4.68
684.41	44.47
684.55	23.41
684.68	0.00
684.82	35.11
684.96	16.38
685.09	86.60
685.23	32.77
685.37	30.43
685.50	46.81
685.64	4.68
685.78	39.79
685.91	32.77
686.05	86.60
686.19	25.75
686.32	16.38
686.46	7.02
686.60	0.00
686.73	126.39
686.87	0.00
687.01	70.22
687.14	58.51
687.28	42.13
687.42	124.05
687.55	124.05
687.69	79.58
687.82	72.56
687.96	32.77
688.10	135.75
688.23	46.81
688.37	53.83
688.50	16.38
688.64	42.13
688.78	14.04
688.91	30.43
689.05	16.38
689.18	37.45
689.32	74.90
689.46	16.38
689.59	14.04
689.73	70.22
689.86	51.49
690.00	65.54
690.13	0.00
690.27	14.04
690.41	18.72
690.54	0.00
690.68	0.00
690.81	4.68
690.95	9.36
691.08	42.13
691.22	28.09
691.35	32.77
691.49	0.00
691.62	88.94
691.76	0.00
691.89	16.38
692.03	117.03
692.16	112.35
692.30	58.51
692.43	30.43
692.57	86.60
692.70	60.85
692.84	86.60
692.97	7.02
693.11	49.15
693.24	30.43
693.38	70.22
693.51	51.49
693.65	37.45
693.78	25.75
693.92	51.49
694.05	2.34
694.19	0.00
694.32	60.85
694.45	86.60
694.59	58.51
694.72	0.00
694.86	0.00
694.99	72.56
695.13	67.88
695.26	105.32
695.39	0.00
695.53	105.32
695.66	23.41
695.80	91.28
695.93	65.54
696.07	7.02
696.20	58.51
696.33	14.04
696.47	84.26
696.60	63.19
696.73	81.92
696.87	44.47
697.00	51.49
697.14	14.04
697.27	42.13
697.40	25.75
697.54	44.47
697.67	37.45
697.80	30.43
697.94	79.58
698.07	84.26
698.21	16.38
698.34	77.24
698.47	84.26
698.61	74.90
698.74	63.19
698.87	84.26
699.01	51.49
699.14	0.00
699.27	0.00
699.40	77.24
699.54	0.00
699.67	21.06
699.80	7.02
699.94	23.41
700.07	23.41
700.20	0.00
700.34	46.81
700.47	93.62
700.60	0.00
700.73	60.85
700.87	53.83
701.00	0.00
701.13	11.70
701.26	70.22
701.40	30.43
701.53	2.34
701.66	44.47
701.79	53.83
701.93	0.00
702.06	21.06
702.19	53.83
702.32	42.13
702.46	18.72
702.59	9.36
702.72	32.77
702.85	53.83
702.99	0.00
703.12	49.15
703.25	0.00
703.38	58.51
703.51	53.83
703.65	37.45
703.78	11.70
703.91	9.36
704.04	35.11
704.17	0.00
704.31	63.19
704.44	0.00
704.57	4.68
704.70	0.00
704.83	35.11
704.96	18.72
705.10	14.04
705.23	77.24
>>>>>End Processed Spectral Data<<<<<
