SpectraSuite Data File
++++++++++++++++++++++++++++++++++++
Date: Fri Oct 04 12:13:42 GMT-05:00 2013
User: price-jones
Dark Spectrum Present: No
Reference Spectrum Present: No
Number of Sampled Component Spectra: 1
Spectrometers: USB2+H05261
Integration Time (usec): 10000 (USB2+H05261)
Spectra Averaged: 1 (USB2+H05261)
Boxcar Smoothing: 0 (USB2+H05261)
Correct for Electrical Dark: No (USB2+H05261)
Strobe/Lamp Enabled: No (USB2+H05261)
Correct for Detector Non-linearity: No (USB2+H05261)
Correct for Stray Light: No (USB2+H05261)
Number of Pixels in Processed Spectrum: 2048
>>>>>Begin Processed Spectral Data<<<<<
365.73	0.00
365.92	0.00
366.12	0.00
366.32	0.00
366.52	0.00
366.72	0.00
366.91	0.00
367.11	0.00
367.31	0.00
367.51	0.00
367.70	0.00
367.90	0.00
368.10	0.00
368.30	0.00
368.49	0.00
368.69	0.00
368.89	0.00
369.09	0.00
369.28	0.00
369.48	0.00
369.68	0.00
369.87	0.00
370.07	0.00
370.27	0.00
370.47	0.00
370.66	0.00
370.86	46.81
371.06	0.00
371.25	0.00
371.45	0.00
371.65	0.00
371.84	7.02
372.04	11.70
372.24	14.04
372.44	51.49
372.63	18.72
372.83	58.51
373.03	37.45
373.22	77.24
373.42	23.41
373.62	42.13
373.81	0.00
374.01	42.13
374.21	21.06
374.40	14.04
374.60	9.36
374.79	32.77
374.99	16.38
375.19	37.45
375.38	0.00
375.58	21.06
375.78	4.68
375.97	49.15
376.17	65.54
376.37	39.79
376.56	35.11
376.76	25.75
376.95	53.83
377.15	18.72
377.35	23.41
377.54	11.70
377.74	2.34
377.93	51.49
378.13	60.85
378.33	63.19
378.52	25.75
378.72	39.79
378.91	9.36
379.11	7.02
379.31	0.00
379.50	37.45
379.70	0.00
379.89	0.00
380.09	0.00
380.28	21.06
380.48	25.75
380.68	14.04
380.87	79.58
381.07	16.38
381.26	79.58
381.46	98.30
381.65	2.34
381.85	0.00
382.04	86.60
382.24	44.47
382.43	0.00
382.63	32.77
382.83	35.11
383.02	42.13
383.22	56.17
383.41	37.45
383.61	35.11
383.80	0.00
384.00	0.00
384.19	11.70
384.39	11.70
384.58	2.34
384.78	25.75
384.97	44.47
385.17	0.00
385.36	14.04
385.56	11.70
385.75	56.17
385.95	0.00
386.14	28.09
386.34	0.00
386.53	0.00
386.72	0.00
386.92	0.00
387.11	60.85
387.31	0.00
387.50	14.04
387.70	77.24
387.89	0.00
388.09	28.09
388.28	46.81
388.48	4.68
388.67	37.45
388.86	0.00
389.06	84.26
389.25	0.00
389.45	9.36
389.64	2.34
389.84	18.72
390.03	56.17
390.22	7.02
390.42	63.19
390.61	0.00
390.81	53.83
391.00	21.06
391.19	67.88
391.39	0.00
391.58	51.49
391.78	100.64
391.97	30.43
392.16	32.77
392.36	21.06
392.55	49.15
392.75	0.00
392.94	7.02
393.13	35.11
393.33	56.17
393.52	63.19
393.71	11.70
393.91	7.02
394.10	51.49
394.29	128.73
394.49	18.72
394.68	0.00
394.88	56.17
395.07	44.47
395.26	117.03
395.46	30.43
395.65	39.79
395.84	28.09
396.04	42.13
396.23	0.00
396.42	46.81
396.62	0.00
396.81	0.00
397.00	53.83
397.19	39.79
397.39	14.04
397.58	53.83
397.77	114.69
397.97	2.34
398.16	84.26
398.35	2.34
398.55	46.81
398.74	18.72
398.93	9.36
399.12	0.00
399.32	81.92
399.51	0.00
399.70	32.77
399.90	37.45
400.09	2.34
400.28	70.22
400.47	0.00
400.67	0.00
400.86	11.70
401.05	16.38
401.24	23.41
401.44	44.47
401.63	84.26
401.82	0.00
402.01	51.49
402.21	0.00
402.40	0.00
402.59	0.00
402.78	72.56
402.97	0.00
403.17	0.00
403.36	58.51
403.55	70.22
403.74	0.00
403.93	9.36
404.13	70.22
404.32	51.49
404.51	65.54
404.70	86.60
404.89	28.09
405.09	70.22
405.28	49.15
405.47	35.11
405.66	56.17
405.85	35.11
406.05	4.68
406.24	63.19
406.43	25.75
406.62	30.43
406.81	88.94
407.00	0.00
407.20	63.19
407.39	60.85
407.58	51.49
407.77	0.00
407.96	39.79
408.15	56.17
408.34	39.79
408.54	79.58
408.73	16.38
408.92	72.56
409.11	0.00
409.30	14.04
409.49	56.17
409.68	35.11
409.87	11.70
410.07	2.34
410.26	0.00
410.45	67.88
410.64	14.04
410.83	23.41
411.02	0.00
411.21	65.54
411.40	114.69
411.59	84.26
411.78	37.45
411.98	0.00
412.17	0.00
412.36	0.00
412.55	51.49
412.74	9.36
412.93	2.34
413.12	30.43
413.31	32.77
413.50	0.00
413.69	93.62
413.88	30.43
414.07	42.13
414.26	21.06
414.45	37.45
414.64	74.90
414.83	25.75
415.02	56.17
415.22	32.77
415.41	0.00
415.60	100.64
415.79	63.19
415.98	77.24
416.17	128.73
416.36	11.70
416.55	0.00
416.74	0.00
416.93	60.85
417.12	0.00
417.31	0.00
417.50	77.24
417.69	53.83
417.88	2.34
418.07	0.00
418.26	46.81
418.45	63.19
418.64	0.00
418.83	11.70
419.02	28.09
419.21	9.36
419.39	53.83
419.58	77.24
419.77	39.79
419.96	72.56
420.15	0.00
420.34	7.02
420.53	0.00
420.72	93.62
420.91	32.77
421.10	37.45
421.29	49.15
421.48	95.96
421.67	23.41
421.86	11.70
422.05	0.00
422.24	72.56
422.43	46.81
422.61	30.43
422.80	65.54
422.99	60.85
423.18	0.00
423.37	39.79
423.56	39.79
423.75	30.43
423.94	0.00
424.13	53.83
424.32	0.00
424.50	53.83
424.69	18.72
424.88	95.96
425.07	46.81
425.26	21.06
425.45	46.81
425.64	147.45
425.83	23.41
426.01	98.30
426.20	11.70
426.39	39.79
426.58	81.92
426.77	0.00
426.96	51.49
427.15	11.70
427.33	21.06
427.52	102.98
427.71	72.56
427.90	0.00
428.09	117.03
428.28	39.79
428.46	28.09
428.65	4.68
428.84	159.16
429.03	51.49
429.22	30.43
429.40	18.72
429.59	60.85
429.78	81.92
429.97	51.49
430.16	44.47
430.34	74.90
430.53	79.58
430.72	35.11
430.91	81.92
431.10	0.00
431.28	25.75
431.47	72.56
431.66	32.77
431.85	32.77
432.03	126.39
432.22	0.00
432.41	72.56
432.60	0.00
432.79	88.94
432.97	60.85
433.16	91.28
433.35	21.06
433.54	16.38
433.72	84.26
433.91	95.96
434.10	81.92
434.28	0.00
434.47	58.51
434.66	65.54
434.85	4.68
435.03	0.00
435.22	25.75
435.41	58.51
435.59	0.00
435.78	84.26
435.97	0.00
436.16	46.81
436.34	11.70
436.53	105.32
436.72	46.81
436.90	60.85
437.09	49.15
437.28	79.58
437.46	28.09
437.65	39.79
437.84	14.04
438.02	65.54
438.21	72.56
438.40	56.17
438.58	35.11
438.77	18.72
438.96	21.06
439.14	114.69
439.33	63.19
439.52	77.24
439.70	70.22
439.89	2.34
440.08	2.34
440.26	28.09
440.45	2.34
440.63	63.19
440.82	102.98
441.01	37.45
441.19	102.98
441.38	16.38
441.57	37.45
441.75	58.51
441.94	21.06
442.12	65.54
442.31	9.36
442.50	18.72
442.68	0.00
442.87	0.00
443.05	14.04
443.24	11.70
443.43	0.00
443.61	117.03
443.80	88.94
443.98	39.79
444.17	18.72
444.35	65.54
444.54	86.60
444.73	72.56
444.91	16.38
445.10	49.15
445.28	91.28
445.47	9.36
445.65	67.88
445.84	107.66
446.02	93.62
446.21	51.49
446.39	37.45
446.58	2.34
446.77	32.77
446.95	53.83
447.14	0.00
447.32	35.11
447.51	0.00
447.69	70.22
447.88	72.56
448.06	11.70
448.25	81.92
448.43	0.00
448.62	51.49
448.80	39.79
448.99	70.22
449.17	28.09
449.36	25.75
449.54	42.13
449.73	23.41
449.91	51.49
450.10	70.22
450.28	30.43
450.46	63.19
450.65	44.47
450.83	21.06
451.02	74.90
451.20	51.49
451.39	79.58
451.57	84.26
451.76	0.00
451.94	9.36
452.13	53.83
452.31	42.13
452.49	14.04
452.68	60.85
452.86	124.05
453.05	60.85
453.23	86.60
453.42	0.00
453.60	88.94
453.78	2.34
453.97	49.15
454.15	98.30
454.34	86.60
454.52	42.13
454.70	51.49
454.89	44.47
455.07	72.56
455.26	67.88
455.44	72.56
455.62	0.00
455.81	18.72
455.99	77.24
456.17	56.17
456.36	74.90
456.54	65.54
456.73	4.68
456.91	88.94
457.09	65.54
457.28	60.85
457.46	32.77
457.64	14.04
457.83	72.56
458.01	30.43
458.19	65.54
458.38	95.96
458.56	49.15
458.74	49.15
458.93	88.94
459.11	0.00
459.29	77.24
459.48	14.04
459.66	124.05
459.84	42.13
460.03	44.47
460.21	51.49
460.39	37.45
460.57	98.30
460.76	25.75
460.94	25.75
461.12	23.41
461.31	77.24
461.49	88.94
461.67	16.38
461.85	21.06
462.04	56.17
462.22	86.60
462.40	44.47
462.59	56.17
462.77	107.66
462.95	28.09
463.13	79.58
463.32	23.41
463.50	42.13
463.68	161.50
463.86	37.45
464.05	91.28
464.23	0.00
464.41	39.79
464.59	70.22
464.78	32.77
464.96	51.49
465.14	32.77
465.32	124.05
465.50	0.00
465.69	0.00
465.87	74.90
466.05	72.56
466.23	32.77
466.41	0.00
466.60	25.75
466.78	56.17
466.96	86.60
467.14	67.88
467.32	60.85
467.51	84.26
467.69	56.17
467.87	100.64
468.05	81.92
468.23	11.70
468.41	63.19
468.60	60.85
468.78	107.66
468.96	9.36
469.14	53.83
469.32	37.45
469.50	51.49
469.69	98.30
469.87	65.54
470.05	119.37
470.23	107.66
470.41	81.92
470.59	51.49
470.77	14.04
470.95	95.96
471.14	72.56
471.32	77.24
471.50	44.47
471.68	67.88
471.86	51.49
472.04	98.30
472.22	74.90
472.40	30.43
472.58	86.60
472.77	56.17
472.95	53.83
473.13	84.26
473.31	0.00
473.49	126.39
473.67	18.72
473.85	51.49
474.03	37.45
474.21	16.38
474.39	58.51
474.57	37.45
474.75	25.75
474.93	84.26
475.12	117.03
475.30	107.66
475.48	67.88
475.66	46.81
475.84	72.56
476.02	91.28
476.20	49.15
476.38	135.75
476.56	60.85
476.74	9.36
476.92	98.30
477.10	35.11
477.28	49.15
477.46	79.58
477.64	93.62
477.82	56.17
478.00	114.69
478.18	56.17
478.36	128.73
478.54	88.94
478.72	46.81
478.90	14.04
479.08	0.00
479.26	67.88
479.44	28.09
479.62	84.26
479.80	124.05
479.98	60.85
480.16	119.37
480.34	25.75
480.52	44.47
480.70	74.90
480.88	159.16
481.06	21.06
481.24	35.11
481.41	72.56
481.59	60.85
481.77	35.11
481.95	28.09
482.13	32.77
482.31	74.90
482.49	7.02
482.67	65.54
482.85	128.73
483.03	32.77
483.21	72.56
483.39	0.00
483.57	133.41
483.74	46.81
483.92	60.85
484.10	86.60
484.28	28.09
484.46	46.81
484.64	11.70
484.82	56.17
485.00	32.77
485.18	112.35
485.35	81.92
485.53	44.47
485.71	105.32
485.89	32.77
486.07	65.54
486.25	9.36
486.43	28.09
486.61	117.03
486.78	14.04
486.96	63.19
487.14	79.58
487.32	0.00
487.50	63.19
487.68	84.26
487.85	72.56
488.03	112.35
488.21	51.49
488.39	56.17
488.57	63.19
488.75	32.77
488.92	105.32
489.10	70.22
489.28	23.41
489.46	131.07
489.64	16.38
489.81	60.85
489.99	79.58
490.17	79.58
490.35	88.94
490.53	77.24
490.70	53.83
490.88	102.98
491.06	86.60
491.24	138.09
491.41	159.16
491.59	112.35
491.77	56.17
491.95	42.13
492.13	84.26
492.30	117.03
492.48	42.13
492.66	81.92
492.84	161.50
493.01	72.56
493.19	81.92
493.37	53.83
493.54	32.77
493.72	107.66
493.90	112.35
494.08	88.94
494.25	98.30
494.43	14.04
494.61	93.62
494.79	114.69
494.96	18.72
495.14	51.49
495.32	42.13
495.49	100.64
495.67	131.07
495.85	110.01
496.02	88.94
496.20	63.19
496.38	37.45
496.55	67.88
496.73	37.45
496.91	131.07
497.09	0.00
497.26	60.85
497.44	77.24
497.62	46.81
497.79	51.49
497.97	112.35
498.14	63.19
498.32	35.11
498.50	177.88
498.67	133.41
498.85	60.85
499.03	21.06
499.20	11.70
499.38	93.62
499.56	110.01
499.73	105.32
499.91	91.28
500.08	0.00
500.26	126.39
500.44	107.66
500.61	84.26
500.79	110.01
500.97	121.71
501.14	100.64
501.32	102.98
501.49	117.03
501.67	128.73
501.84	121.71
502.02	28.09
502.20	88.94
502.37	131.07
502.55	81.92
502.72	53.83
502.90	39.79
503.07	67.88
503.25	77.24
503.43	49.15
503.60	112.35
503.78	58.51
503.95	110.01
504.13	100.64
504.30	32.77
504.48	0.00
504.65	30.43
504.83	0.00
505.01	46.81
505.18	46.81
505.36	131.07
505.53	28.09
505.71	107.66
505.88	100.64
506.06	95.96
506.23	105.32
506.41	93.62
506.58	84.26
506.76	39.79
506.93	39.79
507.11	112.35
507.28	110.01
507.46	131.07
507.63	77.24
507.81	93.62
507.98	110.01
508.16	100.64
508.33	70.22
508.50	42.13
508.68	74.90
508.85	112.35
509.03	102.98
509.20	86.60
509.38	88.94
509.55	124.05
509.73	100.64
509.90	35.11
510.08	16.38
510.25	77.24
510.42	117.03
510.60	84.26
510.77	70.22
510.95	126.39
511.12	84.26
511.30	84.26
511.47	142.77
511.64	58.51
511.82	81.92
511.99	117.03
512.17	124.05
512.34	79.58
512.51	63.19
512.69	74.90
512.86	86.60
513.04	114.69
513.21	44.47
513.38	58.51
513.56	7.02
513.73	39.79
513.90	88.94
514.08	131.07
514.25	72.56
514.43	46.81
514.60	9.36
514.77	74.90
514.95	117.03
515.12	58.51
515.29	21.06
515.47	149.79
515.64	58.51
515.81	133.41
515.99	140.43
516.16	110.01
516.33	95.96
516.51	56.17
516.68	70.22
516.85	91.28
517.03	88.94
517.20	77.24
517.37	91.28
517.54	131.07
517.72	110.01
517.89	18.72
518.06	88.94
518.24	93.62
518.41	23.41
518.58	28.09
518.75	56.17
518.93	58.51
519.10	14.04
519.27	53.83
519.45	39.79
519.62	51.49
519.79	70.22
519.96	77.24
520.14	88.94
520.31	63.19
520.48	95.96
520.65	70.22
520.83	46.81
521.00	65.54
521.17	74.90
521.34	72.56
521.52	67.88
521.69	39.79
521.86	56.17
522.03	105.32
522.20	117.03
522.38	98.30
522.55	63.19
522.72	126.39
522.89	95.96
523.07	67.88
523.24	88.94
523.41	58.51
523.58	81.92
523.75	88.94
523.92	84.26
524.10	88.94
524.27	93.62
524.44	105.32
524.61	156.82
524.78	133.41
524.96	44.47
525.13	51.49
525.30	30.43
525.47	95.96
525.64	126.39
525.81	88.94
525.98	88.94
526.16	142.77
526.33	105.32
526.50	65.54
526.67	51.49
526.84	67.88
527.01	95.96
527.18	102.98
527.36	84.26
527.53	70.22
527.70	60.85
527.87	88.94
528.04	39.79
528.21	30.43
528.38	126.39
528.55	81.92
528.72	131.07
528.89	107.66
529.07	114.69
529.24	74.90
529.41	0.00
529.58	46.81
529.75	56.17
529.92	110.01
530.09	142.77
530.26	124.05
530.43	131.07
530.60	28.09
530.77	114.69
530.94	100.64
531.11	100.64
531.28	56.17
531.46	138.09
531.63	102.98
531.80	84.26
531.97	58.51
532.14	58.51
532.31	79.58
532.48	114.69
532.65	126.39
532.82	121.71
532.99	67.88
533.16	35.11
533.33	84.26
533.50	107.66
533.67	105.32
533.84	67.88
534.01	18.72
534.18	65.54
534.35	102.98
534.52	58.51
534.69	77.24
534.86	124.05
535.03	119.37
535.20	135.75
535.37	163.84
535.54	117.03
535.71	7.02
535.88	74.90
536.05	112.35
536.22	121.71
536.38	110.01
536.55	0.00
536.72	81.92
536.89	107.66
537.06	124.05
537.23	74.90
537.40	23.41
537.57	145.11
537.74	86.60
537.91	49.15
538.08	112.35
538.25	39.79
538.42	145.11
538.59	44.47
538.75	58.51
538.92	112.35
539.09	86.60
539.26	77.24
539.43	135.75
539.60	126.39
539.77	93.62
539.94	84.26
540.11	77.24
540.28	72.56
540.44	77.24
540.61	145.11
540.78	102.98
540.95	77.24
541.12	107.66
541.29	175.54
541.46	84.26
541.62	93.62
541.79	51.49
541.96	128.73
542.13	88.94
542.30	32.77
542.47	72.56
542.63	0.00
542.80	81.92
542.97	84.26
543.14	86.60
543.31	74.90
543.48	81.92
543.64	102.98
543.81	67.88
543.98	93.62
544.15	4.68
544.32	121.71
544.48	88.94
544.65	105.32
544.82	93.62
544.99	149.79
545.16	119.37
545.32	91.28
545.49	117.03
545.66	84.26
545.83	95.96
546.00	51.49
546.16	35.11
546.33	81.92
546.50	124.05
546.67	114.69
546.83	91.28
547.00	105.32
547.17	35.11
547.34	46.81
547.50	74.90
547.67	70.22
547.84	44.47
548.00	77.24
548.17	121.71
548.34	74.90
548.51	72.56
548.67	35.11
548.84	51.49
549.01	37.45
549.18	30.43
549.34	147.45
549.51	28.09
549.68	79.58
549.84	126.39
550.01	114.69
550.18	121.71
550.34	2.34
550.51	95.96
550.68	74.90
550.84	21.06
551.01	114.69
551.18	126.39
551.34	23.41
551.51	65.54
551.68	46.81
551.84	112.35
552.01	77.24
552.18	98.30
552.34	145.11
552.51	105.32
552.68	4.68
552.84	93.62
553.01	100.64
553.18	95.96
553.34	49.15
553.51	21.06
553.67	128.73
553.84	142.77
554.01	88.94
554.17	112.35
554.34	42.13
554.51	117.03
554.67	25.75
554.84	110.01
555.00	135.75
555.17	107.66
555.33	72.56
555.50	63.19
555.67	95.96
555.83	25.75
556.00	60.85
556.16	100.64
556.33	65.54
556.50	95.96
556.66	100.64
556.83	84.26
556.99	88.94
557.16	91.28
557.32	114.69
557.49	72.56
557.65	107.66
557.82	46.81
557.98	128.73
558.15	30.43
558.32	119.37
558.48	102.98
558.65	112.35
558.81	156.82
558.98	53.83
559.14	91.28
559.31	46.81
559.47	81.92
559.64	91.28
559.80	74.90
559.97	105.32
560.13	23.41
560.30	4.68
560.46	114.69
560.63	124.05
560.79	53.83
560.96	114.69
561.12	117.03
561.29	79.58
561.45	93.62
561.61	65.54
561.78	112.35
561.94	77.24
562.11	98.30
562.27	42.13
562.44	112.35
562.60	128.73
562.77	121.71
562.93	98.30
563.10	58.51
563.26	107.66
563.42	46.81
563.59	93.62
563.75	112.35
563.92	107.66
564.08	77.24
564.24	86.60
564.41	28.09
564.57	42.13
564.74	98.30
564.90	37.45
565.07	39.79
565.23	140.43
565.39	84.26
565.56	119.37
565.72	86.60
565.88	37.45
566.05	28.09
566.21	30.43
566.38	88.94
566.54	88.94
566.70	0.00
566.87	74.90
567.03	65.54
567.19	53.83
567.36	105.32
567.52	93.62
567.68	74.90
567.85	98.30
568.01	124.05
568.17	112.35
568.34	23.41
568.50	79.58
568.66	46.81
568.83	49.15
568.99	102.98
569.15	93.62
569.32	72.56
569.48	105.32
569.64	44.47
569.81	58.51
569.97	46.81
570.13	56.17
570.30	53.83
570.46	98.30
570.62	16.38
570.78	95.96
570.95	42.13
571.11	7.02
571.27	81.92
571.43	93.62
571.60	100.64
571.76	0.00
571.92	112.35
572.09	81.92
572.25	114.69
572.41	42.13
572.57	70.22
572.74	91.28
572.90	11.70
573.06	67.88
573.22	93.62
573.38	35.11
573.55	126.39
573.71	49.15
573.87	39.79
574.03	98.30
574.20	81.92
574.36	63.19
574.52	72.56
574.68	98.30
574.84	133.41
575.01	124.05
575.17	42.13
575.33	0.00
575.49	86.60
575.65	44.47
575.82	58.51
575.98	140.43
576.14	58.51
576.30	63.19
576.46	126.39
576.62	65.54
576.79	81.92
576.95	102.98
577.11	117.03
577.27	74.90
577.43	86.60
577.59	81.92
577.75	32.77
577.92	102.98
578.08	21.06
578.24	51.49
578.40	91.28
578.56	86.60
578.72	102.98
578.88	77.24
579.04	74.90
579.21	81.92
579.37	63.19
579.53	58.51
579.69	39.79
579.85	102.98
580.01	53.83
580.17	102.98
580.33	46.81
580.49	140.43
580.65	72.56
580.82	53.83
580.98	91.28
581.14	93.62
581.30	63.19
581.46	32.77
581.62	37.45
581.78	93.62
581.94	112.35
582.10	56.17
582.26	91.28
582.42	49.15
582.58	74.90
582.74	28.09
582.90	102.98
583.06	77.24
583.22	112.35
583.38	140.43
583.54	121.71
583.70	67.88
583.86	70.22
584.02	44.47
584.18	112.35
584.34	84.26
584.50	77.24
584.66	53.83
584.82	60.85
584.98	51.49
585.14	51.49
585.30	23.41
585.46	44.47
585.62	91.28
585.78	86.60
585.94	46.81
586.10	39.79
586.26	37.45
586.42	23.41
586.58	126.39
586.74	102.98
586.90	0.00
587.06	95.96
587.22	124.05
587.38	79.58
587.54	53.83
587.70	60.85
587.86	114.69
588.02	32.77
588.18	98.30
588.34	37.45
588.49	67.88
588.65	77.24
588.81	51.49
588.97	39.79
589.13	58.51
589.29	86.60
589.45	86.60
589.61	72.56
589.77	88.94
589.93	28.09
590.08	79.58
590.24	95.96
590.40	9.36
590.56	35.11
590.72	149.79
590.88	39.79
591.04	91.28
591.20	81.92
591.35	14.04
591.51	56.17
591.67	98.30
591.83	84.26
591.99	25.75
592.15	37.45
592.31	105.32
592.46	112.35
592.62	35.11
592.78	117.03
592.94	67.88
593.10	77.24
593.26	32.77
593.41	51.49
593.57	58.51
593.73	16.38
593.89	63.19
594.05	81.92
594.20	37.45
594.36	56.17
594.52	32.77
594.68	91.28
594.84	53.83
594.99	72.56
595.15	84.26
595.31	53.83
595.47	110.01
595.62	56.17
595.78	86.60
595.94	154.48
596.10	46.81
596.25	142.77
596.41	65.54
596.57	44.47
596.73	51.49
596.88	72.56
597.04	95.96
597.20	4.68
597.36	42.13
597.51	46.81
597.67	65.54
597.83	100.64
597.99	32.77
598.14	21.06
598.30	2.34
598.46	44.47
598.61	84.26
598.77	39.79
598.93	44.47
599.09	35.11
599.24	95.96
599.40	0.00
599.56	133.41
599.71	53.83
599.87	86.60
600.03	18.72
600.18	67.88
600.34	44.47
600.50	81.92
600.65	42.13
600.81	84.26
600.97	95.96
601.12	51.49
601.28	117.03
601.44	102.98
601.59	42.13
601.75	72.56
601.91	51.49
602.06	28.09
602.22	25.75
602.37	56.17
602.53	91.28
602.69	84.26
602.84	117.03
603.00	60.85
603.16	88.94
603.31	67.88
603.47	163.84
603.62	140.43
603.78	46.81
603.94	28.09
604.09	135.75
604.25	53.83
604.40	154.48
604.56	77.24
604.71	133.41
604.87	126.39
605.03	102.98
605.18	65.54
605.34	16.38
605.49	35.11
605.65	63.19
605.80	37.45
605.96	51.49
606.12	21.06
606.27	70.22
606.43	56.17
606.58	147.45
606.74	35.11
606.89	77.24
607.05	107.66
607.20	58.51
607.36	98.30
607.51	63.19
607.67	98.30
607.82	42.13
607.98	37.45
608.13	110.01
608.29	63.19
608.44	86.60
608.60	65.54
608.75	63.19
608.91	93.62
609.06	79.58
609.22	58.51
609.37	51.49
609.53	88.94
609.68	58.51
609.84	35.11
609.99	49.15
610.15	100.64
610.30	145.11
610.46	105.32
610.61	11.70
610.76	100.64
610.92	138.09
611.07	53.83
611.23	51.49
611.38	95.96
611.54	91.28
611.69	74.90
611.84	128.73
612.00	18.72
612.15	46.81
612.31	110.01
612.46	102.98
612.62	67.88
612.77	46.81
612.92	124.05
613.08	70.22
613.23	37.45
613.39	77.24
613.54	161.50
613.69	98.30
613.85	0.00
614.00	42.13
614.15	67.88
614.31	72.56
614.46	44.47
614.62	28.09
614.77	28.09
614.92	25.75
615.08	102.98
615.23	23.41
615.38	124.05
615.54	112.35
615.69	42.13
615.84	81.92
616.00	65.54
616.15	39.79
616.30	65.54
616.46	49.15
616.61	35.11
616.76	70.22
616.92	79.58
617.07	0.00
617.22	65.54
617.37	91.28
617.53	42.13
617.68	93.62
617.83	51.49
617.99	0.00
618.14	63.19
618.29	128.73
618.45	51.49
618.60	77.24
618.75	98.30
618.90	39.79
619.06	67.88
619.21	37.45
619.36	35.11
619.51	21.06
619.67	121.71
619.82	58.51
619.97	42.13
620.12	86.60
620.28	84.26
620.43	49.15
620.58	93.62
620.73	63.19
620.89	63.19
621.04	37.45
621.19	72.56
621.34	74.90
621.49	42.13
621.65	32.77
621.80	46.81
621.95	102.98
622.10	30.43
622.25	0.00
622.41	107.66
622.56	39.79
622.71	0.00
622.86	74.90
623.01	100.64
623.16	100.64
623.32	105.32
623.47	74.90
623.62	21.06
623.77	39.79
623.92	14.04
624.07	2.34
624.23	0.00
624.38	4.68
624.53	53.83
624.68	152.13
624.83	88.94
624.98	70.22
625.13	32.77
625.29	53.83
625.44	74.90
625.59	119.37
625.74	110.01
625.89	81.92
626.04	4.68
626.19	98.30
626.34	60.85
626.49	0.00
626.65	135.75
626.80	145.11
626.95	84.26
627.10	114.69
627.25	65.54
627.40	30.43
627.55	72.56
627.70	67.88
627.85	74.90
628.00	30.43
628.15	46.81
628.30	117.03
628.45	46.81
628.60	49.15
628.76	23.41
628.91	60.85
629.06	0.00
629.21	0.00
629.36	9.36
629.51	44.47
629.66	114.69
629.81	0.00
629.96	58.51
630.11	60.85
630.26	37.45
630.41	51.49
630.56	102.98
630.71	35.11
630.86	81.92
631.01	74.90
631.16	63.19
631.31	93.62
631.46	35.11
631.61	0.00
631.76	32.77
631.91	65.54
632.06	58.51
632.21	79.58
632.36	44.47
632.51	117.03
632.66	56.17
632.81	67.88
632.96	65.54
633.10	25.75
633.25	133.41
633.40	14.04
633.55	60.85
633.70	81.92
633.85	56.17
634.00	114.69
634.15	53.83
634.30	77.24
634.45	65.54
634.60	9.36
634.75	100.64
634.90	58.51
635.05	63.19
635.19	84.26
635.34	77.24
635.49	35.11
635.64	107.66
635.79	70.22
635.94	60.85
636.09	0.00
636.24	128.73
636.39	32.77
636.53	51.49
636.68	138.09
636.83	72.56
636.98	28.09
637.13	25.75
637.28	121.71
637.43	72.56
637.57	119.37
637.72	102.98
637.87	16.38
638.02	77.24
638.17	81.92
638.32	65.54
638.46	72.56
638.61	91.28
638.76	84.26
638.91	63.19
639.06	42.13
639.20	44.47
639.35	81.92
639.50	16.38
639.65	7.02
639.80	0.00
639.94	65.54
640.09	93.62
640.24	37.45
640.39	49.15
640.54	51.49
640.68	28.09
640.83	93.62
640.98	184.90
641.13	74.90
641.27	0.00
641.42	28.09
641.57	105.32
641.72	84.26
641.86	86.60
642.01	107.66
642.16	88.94
642.31	72.56
642.45	46.81
642.60	119.37
642.75	74.90
642.90	88.94
643.04	105.32
643.19	79.58
643.34	95.96
643.48	32.77
643.63	72.56
643.78	56.17
643.93	30.43
644.07	53.83
644.22	56.17
644.37	51.49
644.51	84.26
644.66	56.17
644.81	86.60
644.95	51.49
645.10	46.81
645.25	49.15
645.39	25.75
645.54	77.24
645.69	39.79
645.83	53.83
645.98	98.30
646.13	46.81
646.27	53.83
646.42	65.54
646.57	37.45
646.71	28.09
646.86	14.04
647.00	4.68
647.15	0.00
647.30	53.83
647.44	58.51
647.59	102.98
647.74	124.05
647.88	32.77
648.03	25.75
648.17	16.38
648.32	84.26
648.47	0.00
648.61	53.83
648.76	56.17
648.90	84.26
649.05	7.02
649.20	4.68
649.34	0.00
649.49	105.32
649.63	0.00
649.78	95.96
649.92	100.64
650.07	124.05
650.21	21.06
650.36	63.19
650.51	46.81
650.65	2.34
650.80	49.15
650.94	39.79
651.09	49.15
651.23	49.15
651.38	72.56
651.52	21.06
651.67	74.90
651.81	11.70
651.96	107.66
652.10	51.49
652.25	53.83
652.39	72.56
652.54	140.43
652.68	37.45
652.83	0.00
652.97	72.56
653.12	98.30
653.26	18.72
653.41	86.60
653.55	11.70
653.70	72.56
653.84	56.17
653.99	14.04
654.13	49.15
654.27	37.45
654.42	88.94
654.56	72.56
654.71	60.85
654.85	91.28
655.00	14.04
655.14	53.83
655.29	65.54
655.43	70.22
655.57	67.88
655.72	11.70
655.86	65.54
656.01	35.11
656.15	0.00
656.30	77.24
656.44	28.09
656.58	7.02
656.73	56.17
656.87	14.04
657.01	14.04
657.16	49.15
657.30	18.72
657.45	21.06
657.59	18.72
657.73	21.06
657.88	46.81
658.02	119.37
658.16	0.00
658.31	42.13
658.45	119.37
658.60	107.66
658.74	67.88
658.88	67.88
659.03	46.81
659.17	58.51
659.31	74.90
659.46	72.56
659.60	128.73
659.74	93.62
659.89	0.00
660.03	42.13
660.17	72.56
660.32	11.70
660.46	46.81
660.60	126.39
660.74	72.56
660.89	39.79
661.03	32.77
661.17	91.28
661.32	2.34
661.46	105.32
661.60	88.94
661.74	84.26
661.89	100.64
662.03	107.66
662.17	18.72
662.31	67.88
662.46	0.00
662.60	14.04
662.74	107.66
662.88	93.62
663.03	161.50
663.17	117.03
663.31	44.47
663.45	65.54
663.60	65.54
663.74	7.02
663.88	39.79
664.02	88.94
664.17	119.37
664.31	154.48
664.45	56.17
664.59	28.09
664.73	0.00
664.88	39.79
665.02	51.49
665.16	53.83
665.30	58.51
665.44	72.56
665.59	74.90
665.73	39.79
665.87	84.26
666.01	65.54
666.15	0.00
666.29	46.81
666.44	112.35
666.58	102.98
666.72	30.43
666.86	21.06
667.00	56.17
667.14	60.85
667.28	114.69
667.43	58.51
667.57	58.51
667.71	30.43
667.85	72.56
667.99	39.79
668.13	37.45
668.27	119.37
668.41	35.11
668.56	81.92
668.70	23.41
668.84	121.71
668.98	9.36
669.12	63.19
669.26	81.92
669.40	74.90
669.54	114.69
669.68	9.36
669.82	70.22
669.96	32.77
670.10	46.81
670.25	53.83
670.39	100.64
670.53	60.85
670.67	79.58
670.81	0.00
670.95	58.51
671.09	16.38
671.23	11.70
671.37	53.83
671.51	58.51
671.65	86.60
671.79	81.92
671.93	67.88
672.07	53.83
672.21	79.58
672.35	35.11
672.49	0.00
672.63	70.22
672.77	86.60
672.91	60.85
673.05	88.94
673.19	53.83
673.33	14.04
673.47	42.13
673.61	67.88
673.75	0.00
673.89	49.15
674.03	84.26
674.17	0.00
674.31	72.56
674.45	128.73
674.59	72.56
674.73	32.77
674.87	37.45
675.01	79.58
675.15	9.36
675.29	51.49
675.43	67.88
675.56	58.51
675.70	46.81
675.84	105.32
675.98	98.30
676.12	93.62
676.26	35.11
676.40	25.75
676.54	70.22
676.68	30.43
676.82	25.75
676.96	117.03
677.10	0.00
677.23	9.36
677.37	86.60
677.51	70.22
677.65	51.49
677.79	39.79
677.93	7.02
678.07	23.41
678.21	53.83
678.34	0.00
678.48	88.94
678.62	58.51
678.76	88.94
678.90	110.01
679.04	135.75
679.18	42.13
679.31	51.49
679.45	77.24
679.59	21.06
679.73	0.00
679.87	58.51
680.00	0.00
680.14	84.26
680.28	23.41
680.42	79.58
680.56	39.79
680.70	23.41
680.83	21.06
680.97	72.56
681.11	53.83
681.25	84.26
681.39	32.77
681.52	14.04
681.66	42.13
681.80	30.43
681.94	74.90
682.07	60.85
682.21	46.81
682.35	60.85
682.49	23.41
682.62	91.28
682.76	25.75
682.90	49.15
683.04	128.73
683.17	138.09
683.31	63.19
683.45	93.62
683.59	0.00
683.72	28.09
683.86	51.49
684.00	11.70
684.13	0.00
684.27	91.28
684.41	42.13
684.55	39.79
684.68	16.38
684.82	35.11
684.96	81.92
685.09	135.75
685.23	25.75
685.37	35.11
685.50	28.09
685.64	37.45
685.78	25.75
685.91	42.13
686.05	133.41
686.19	147.45
686.32	72.56
686.46	37.45
686.60	25.75
686.73	16.38
686.87	74.90
687.01	93.62
687.14	0.00
687.28	2.34
687.42	32.77
687.55	77.24
687.69	18.72
687.82	7.02
687.96	51.49
688.10	21.06
688.23	63.19
688.37	81.92
688.50	67.88
688.64	0.00
688.78	65.54
688.91	11.70
689.05	53.83
689.18	81.92
689.32	102.98
689.46	0.00
689.59	28.09
689.73	63.19
689.86	51.49
690.00	42.13
690.13	11.70
690.27	0.00
690.41	32.77
690.54	23.41
690.68	9.36
690.81	74.90
690.95	70.22
691.08	39.79
691.22	35.11
691.35	67.88
691.49	35.11
691.62	74.90
691.76	30.43
691.89	81.92
692.03	23.41
692.16	117.03
692.30	95.96
692.43	18.72
692.57	56.17
692.70	21.06
692.84	23.41
692.97	58.51
693.11	32.77
693.24	126.39
693.38	67.88
693.51	42.13
693.65	16.38
693.78	4.68
693.92	0.00
694.05	2.34
694.19	58.51
694.32	58.51
694.45	23.41
694.59	53.83
694.72	44.47
694.86	37.45
694.99	18.72
695.13	79.58
695.26	72.56
695.39	74.90
695.53	23.41
695.66	58.51
695.80	11.70
695.93	25.75
696.07	32.77
696.20	74.90
696.33	37.45
696.47	56.17
696.60	56.17
696.73	11.70
696.87	88.94
697.00	56.17
697.14	23.41
697.27	4.68
697.40	49.15
697.54	44.47
697.67	72.56
697.80	32.77
697.94	25.75
698.07	4.68
698.21	0.00
698.34	2.34
698.47	77.24
698.61	56.17
698.74	93.62
698.87	91.28
699.01	131.07
699.14	70.22
699.27	18.72
699.40	14.04
699.54	30.43
699.67	60.85
699.80	23.41
699.94	42.13
700.07	28.09
700.20	0.00
700.34	51.49
700.47	0.00
700.60	32.77
700.73	23.41
700.87	67.88
701.00	37.45
701.13	0.00
701.26	0.00
701.40	30.43
701.53	91.28
701.66	67.88
701.79	105.32
701.93	81.92
702.06	79.58
702.19	37.45
702.32	93.62
702.46	51.49
702.59	21.06
702.72	49.15
702.85	0.00
702.99	2.34
703.12	28.09
703.25	37.45
703.38	14.04
703.51	100.64
703.65	0.00
703.78	49.15
703.91	18.72
704.04	30.43
704.17	37.45
704.31	14.04
704.44	32.77
704.57	39.79
704.70	93.62
704.83	0.00
704.96	44.47
705.10	21.06
705.23	39.79
>>>>>End Processed Spectral Data<<<<<
