SpectraSuite Data File
++++++++++++++++++++++++++++++++++++
Date: Fri Oct 04 12:13:36 GMT-05:00 2013
User: price-jones
Dark Spectrum Present: No
Reference Spectrum Present: No
Number of Sampled Component Spectra: 1
Spectrometers: USB2+H05261
Integration Time (usec): 10000 (USB2+H05261)
Spectra Averaged: 1 (USB2+H05261)
Boxcar Smoothing: 0 (USB2+H05261)
Correct for Electrical Dark: No (USB2+H05261)
Strobe/Lamp Enabled: No (USB2+H05261)
Correct for Detector Non-linearity: No (USB2+H05261)
Correct for Stray Light: No (USB2+H05261)
Number of Pixels in Processed Spectrum: 2048
>>>>>Begin Processed Spectral Data<<<<<
365.73	0.00
365.92	0.00
366.12	0.00
366.32	0.00
366.52	0.00
366.72	0.00
366.91	0.00
367.11	0.00
367.31	0.00
367.51	0.00
367.70	0.00
367.90	0.00
368.10	0.00
368.30	0.00
368.49	0.00
368.69	0.00
368.89	0.00
369.09	0.00
369.28	0.00
369.48	0.00
369.68	0.00
369.87	0.00
370.07	0.00
370.27	0.00
370.47	0.00
370.66	0.00
370.86	0.00
371.06	23.41
371.25	0.00
371.45	0.00
371.65	0.00
371.84	0.00
372.04	4.68
372.24	0.00
372.44	0.00
372.63	0.00
372.83	0.00
373.03	46.81
373.22	7.02
373.42	42.13
373.62	53.83
373.81	0.00
374.01	25.75
374.21	91.28
374.40	30.43
374.60	58.51
374.79	39.79
374.99	77.24
375.19	18.72
375.38	4.68
375.58	49.15
375.78	53.83
375.97	7.02
376.17	14.04
376.37	18.72
376.56	0.00
376.76	0.00
376.95	51.49
377.15	58.51
377.35	23.41
377.54	16.38
377.74	0.00
377.93	0.00
378.13	21.06
378.33	0.00
378.52	11.70
378.72	124.05
378.91	44.47
379.11	14.04
379.31	65.54
379.50	4.68
379.70	23.41
379.89	16.38
380.09	0.00
380.28	0.00
380.48	0.00
380.68	9.36
380.87	0.00
381.07	44.47
381.26	25.75
381.46	70.22
381.65	51.49
381.85	53.83
382.04	25.75
382.24	0.00
382.43	0.00
382.63	72.56
382.83	0.00
383.02	63.19
383.22	25.75
383.41	39.79
383.61	30.43
383.80	0.00
384.00	14.04
384.19	0.00
384.39	44.47
384.58	91.28
384.78	35.11
384.97	0.00
385.17	74.90
385.36	23.41
385.56	0.00
385.75	11.70
385.95	0.00
386.14	39.79
386.34	49.15
386.53	0.00
386.72	21.06
386.92	65.54
387.11	4.68
387.31	0.00
387.50	70.22
387.70	63.19
387.89	0.00
388.09	23.41
388.28	32.77
388.48	0.00
388.67	98.30
388.86	0.00
389.06	0.00
389.25	44.47
389.45	9.36
389.64	0.00
389.84	42.13
390.03	16.38
390.22	28.09
390.42	49.15
390.61	7.02
390.81	0.00
391.00	42.13
391.19	30.43
391.39	9.36
391.58	0.00
391.78	0.00
391.97	28.09
392.16	14.04
392.36	32.77
392.55	0.00
392.75	0.00
392.94	53.83
393.13	58.51
393.33	81.92
393.52	14.04
393.71	77.24
393.91	110.01
394.10	60.85
394.29	25.75
394.49	21.06
394.68	44.47
394.88	49.15
395.07	21.06
395.26	7.02
395.46	16.38
395.65	42.13
395.84	138.09
396.04	18.72
396.23	16.38
396.42	46.81
396.62	51.49
396.81	58.51
397.00	0.00
397.19	79.58
397.39	16.38
397.58	28.09
397.77	21.06
397.97	4.68
398.16	46.81
398.35	11.70
398.55	0.00
398.74	0.00
398.93	81.92
399.12	49.15
399.32	35.11
399.51	51.49
399.70	63.19
399.90	0.00
400.09	0.00
400.28	0.00
400.47	44.47
400.67	0.00
400.86	0.00
401.05	30.43
401.24	2.34
401.44	49.15
401.63	79.58
401.82	0.00
402.01	37.45
402.21	81.92
402.40	35.11
402.59	11.70
402.78	4.68
402.97	110.01
403.17	0.00
403.36	21.06
403.55	84.26
403.74	25.75
403.93	79.58
404.13	95.96
404.32	53.83
404.51	16.38
404.70	0.00
404.89	23.41
405.09	46.81
405.28	42.13
405.47	28.09
405.66	25.75
405.85	42.13
406.05	25.75
406.24	7.02
406.43	2.34
406.62	67.88
406.81	46.81
407.00	0.00
407.20	0.00
407.39	56.17
407.58	60.85
407.77	25.75
407.96	35.11
408.15	72.56
408.34	0.00
408.54	95.96
408.73	53.83
408.92	37.45
409.11	91.28
409.30	39.79
409.49	102.98
409.68	11.70
409.87	0.00
410.07	79.58
410.26	91.28
410.45	0.00
410.64	0.00
410.83	30.43
411.02	0.00
411.21	23.41
411.40	67.88
411.59	35.11
411.78	102.98
411.98	81.92
412.17	0.00
412.36	4.68
412.55	53.83
412.74	37.45
412.93	51.49
413.12	49.15
413.31	30.43
413.50	51.49
413.69	25.75
413.88	32.77
414.07	84.26
414.26	30.43
414.45	70.22
414.64	44.47
414.83	114.69
415.02	49.15
415.22	72.56
415.41	0.00
415.60	105.32
415.79	58.51
415.98	44.47
416.17	58.51
416.36	46.81
416.55	37.45
416.74	93.62
416.93	25.75
417.12	60.85
417.31	18.72
417.50	95.96
417.69	53.83
417.88	100.64
418.07	65.54
418.26	16.38
418.45	37.45
418.64	30.43
418.83	18.72
419.02	2.34
419.21	28.09
419.39	77.24
419.58	53.83
419.77	91.28
419.96	77.24
420.15	53.83
420.34	63.19
420.53	56.17
420.72	11.70
420.91	35.11
421.10	28.09
421.29	0.00
421.48	14.04
421.67	18.72
421.86	32.77
422.05	35.11
422.24	37.45
422.43	58.51
422.61	60.85
422.80	16.38
422.99	39.79
423.18	79.58
423.37	21.06
423.56	18.72
423.75	39.79
423.94	79.58
424.13	58.51
424.32	70.22
424.50	42.13
424.69	23.41
424.88	46.81
425.07	0.00
425.26	58.51
425.45	14.04
425.64	67.88
425.83	86.60
426.01	28.09
426.20	9.36
426.39	11.70
426.58	65.54
426.77	0.00
426.96	35.11
427.15	9.36
427.33	16.38
427.52	0.00
427.71	9.36
427.90	46.81
428.09	42.13
428.28	88.94
428.46	51.49
428.65	112.35
428.84	77.24
429.03	70.22
429.22	91.28
429.40	11.70
429.59	23.41
429.78	86.60
429.97	4.68
430.16	53.83
430.34	117.03
430.53	105.32
430.72	32.77
430.91	23.41
431.10	65.54
431.28	2.34
431.47	49.15
431.66	46.81
431.85	51.49
432.03	58.51
432.22	70.22
432.41	53.83
432.60	23.41
432.79	53.83
432.97	0.00
433.16	51.49
433.35	14.04
433.54	56.17
433.72	21.06
433.91	21.06
434.10	51.49
434.28	74.90
434.47	18.72
434.66	2.34
434.85	51.49
435.03	14.04
435.22	77.24
435.41	30.43
435.59	65.54
435.78	0.00
435.97	95.96
436.16	84.26
436.34	70.22
436.53	7.02
436.72	0.00
436.90	72.56
437.09	53.83
437.28	63.19
437.46	39.79
437.65	14.04
437.84	49.15
438.02	51.49
438.21	0.00
438.40	53.83
438.58	35.11
438.77	46.81
438.96	58.51
439.14	56.17
439.33	32.77
439.52	7.02
439.70	70.22
439.89	18.72
440.08	110.01
440.26	25.75
440.45	58.51
440.63	49.15
440.82	56.17
441.01	67.88
441.19	79.58
441.38	51.49
441.57	39.79
441.75	67.88
441.94	79.58
442.12	46.81
442.31	60.85
442.50	21.06
442.68	46.81
442.87	37.45
443.05	0.00
443.24	16.38
443.43	35.11
443.61	70.22
443.80	72.56
443.98	100.64
444.17	65.54
444.35	53.83
444.54	98.30
444.73	79.58
444.91	91.28
445.10	0.00
445.28	56.17
445.47	91.28
445.65	56.17
445.84	86.60
446.02	84.26
446.21	28.09
446.39	37.45
446.58	67.88
446.77	60.85
446.95	70.22
447.14	30.43
447.32	84.26
447.51	51.49
447.69	63.19
447.88	65.54
448.06	21.06
448.25	30.43
448.43	84.26
448.62	2.34
448.80	32.77
448.99	0.00
449.17	60.85
449.36	102.98
449.54	28.09
449.73	74.90
449.91	65.54
450.10	67.88
450.28	25.75
450.46	81.92
450.65	65.54
450.83	58.51
451.02	39.79
451.20	39.79
451.39	37.45
451.57	46.81
451.76	28.09
451.94	79.58
452.13	63.19
452.31	0.00
452.49	180.22
452.68	86.60
452.86	79.58
453.05	121.71
453.23	79.58
453.42	105.32
453.60	39.79
453.78	74.90
453.97	39.79
454.15	11.70
454.34	74.90
454.52	88.94
454.70	23.41
454.89	77.24
455.07	51.49
455.26	16.38
455.44	70.22
455.62	110.01
455.81	0.00
455.99	60.85
456.17	56.17
456.36	0.00
456.54	91.28
456.73	51.49
456.91	44.47
457.09	16.38
457.28	67.88
457.46	72.56
457.64	0.00
457.83	67.88
458.01	30.43
458.19	49.15
458.38	28.09
458.56	37.45
458.74	70.22
458.93	37.45
459.11	0.00
459.29	32.77
459.48	25.75
459.66	49.15
459.84	81.92
460.03	86.60
460.21	58.51
460.39	74.90
460.57	0.00
460.76	4.68
460.94	25.75
461.12	65.54
461.31	39.79
461.49	67.88
461.67	18.72
461.85	0.00
462.04	0.00
462.22	126.39
462.40	25.75
462.59	65.54
462.77	56.17
462.95	39.79
463.13	28.09
463.32	25.75
463.50	30.43
463.68	110.01
463.86	14.04
464.05	28.09
464.23	35.11
464.41	16.38
464.59	67.88
464.78	77.24
464.96	58.51
465.14	58.51
465.32	0.00
465.50	32.77
465.69	23.41
465.87	63.19
466.05	32.77
466.23	0.00
466.41	53.83
466.60	105.32
466.78	65.54
466.96	84.26
467.14	0.00
467.32	72.56
467.51	67.88
467.69	98.30
467.87	56.17
468.05	58.51
468.23	0.00
468.41	98.30
468.60	67.88
468.78	25.75
468.96	77.24
469.14	79.58
469.32	79.58
469.50	37.45
469.69	0.00
469.87	37.45
470.05	51.49
470.23	18.72
470.41	23.41
470.59	46.81
470.77	74.90
470.95	23.41
471.14	9.36
471.32	46.81
471.50	110.01
471.68	53.83
471.86	0.00
472.04	77.24
472.22	39.79
472.40	11.70
472.58	133.41
472.77	70.22
472.95	30.43
473.13	60.85
473.31	16.38
473.49	7.02
473.67	79.58
473.85	4.68
474.03	35.11
474.21	32.77
474.39	0.00
474.57	58.51
474.75	4.68
474.93	74.90
475.12	74.90
475.30	42.13
475.48	95.96
475.66	0.00
475.84	65.54
476.02	131.07
476.20	84.26
476.38	25.75
476.56	58.51
476.74	21.06
476.92	51.49
477.10	32.77
477.28	93.62
477.46	67.88
477.64	88.94
477.82	74.90
478.00	100.64
478.18	30.43
478.36	65.54
478.54	93.62
478.72	114.69
478.90	28.09
479.08	21.06
479.26	86.60
479.44	91.28
479.62	2.34
479.80	93.62
479.98	49.15
480.16	110.01
480.34	44.47
480.52	67.88
480.70	58.51
480.88	131.07
481.06	46.81
481.24	65.54
481.41	42.13
481.59	98.30
481.77	9.36
481.95	49.15
482.13	91.28
482.31	16.38
482.49	30.43
482.67	23.41
482.85	0.00
483.03	2.34
483.21	0.00
483.39	81.92
483.57	39.79
483.74	70.22
483.92	63.19
484.10	79.58
484.28	98.30
484.46	39.79
484.64	37.45
484.82	81.92
485.00	77.24
485.18	81.92
485.35	105.32
485.53	0.00
485.71	0.00
485.89	0.00
486.07	25.75
486.25	16.38
486.43	46.81
486.61	77.24
486.78	67.88
486.96	32.77
487.14	46.81
487.32	44.47
487.50	70.22
487.68	140.43
487.85	100.64
488.03	44.47
488.21	107.66
488.39	30.43
488.57	16.38
488.75	93.62
488.92	81.92
489.10	86.60
489.28	39.79
489.46	44.47
489.64	84.26
489.81	42.13
489.99	86.60
490.17	72.56
490.35	46.81
490.53	110.01
490.70	81.92
490.88	126.39
491.06	14.04
491.24	79.58
491.41	42.13
491.59	112.35
491.77	37.45
491.95	72.56
492.13	9.36
492.30	32.77
492.48	112.35
492.66	81.92
492.84	112.35
493.01	98.30
493.19	32.77
493.37	16.38
493.54	110.01
493.72	88.94
493.90	86.60
494.08	100.64
494.25	39.79
494.43	72.56
494.61	133.41
494.79	74.90
494.96	49.15
495.14	79.58
495.32	107.66
495.49	149.79
495.67	65.54
495.85	79.58
496.02	74.90
496.20	126.39
496.38	93.62
496.55	42.13
496.73	42.13
496.91	70.22
497.09	154.48
497.26	39.79
497.44	65.54
497.62	81.92
497.79	28.09
497.97	93.62
498.14	30.43
498.32	88.94
498.50	156.82
498.67	84.26
498.85	74.90
499.03	44.47
499.20	67.88
499.38	102.98
499.56	11.70
499.73	126.39
499.91	91.28
500.08	72.56
500.26	102.98
500.44	126.39
500.61	7.02
500.79	46.81
500.97	95.96
501.14	93.62
501.32	154.48
501.49	49.15
501.67	77.24
501.84	60.85
502.02	112.35
502.20	117.03
502.37	126.39
502.55	114.69
502.72	88.94
502.90	77.24
503.07	37.45
503.25	79.58
503.43	102.98
503.60	107.66
503.78	56.17
503.95	14.04
504.13	0.00
504.30	86.60
504.48	81.92
504.65	56.17
504.83	65.54
505.01	21.06
505.18	44.47
505.36	63.19
505.53	60.85
505.71	91.28
505.88	105.32
506.06	77.24
506.23	49.15
506.41	88.94
506.58	16.38
506.76	16.38
506.93	67.88
507.11	18.72
507.28	65.54
507.46	131.07
507.63	128.73
507.81	81.92
507.98	121.71
508.16	72.56
508.33	72.56
508.50	53.83
508.68	65.54
508.85	114.69
509.03	119.37
509.20	21.06
509.38	25.75
509.55	131.07
509.73	95.96
509.90	0.00
510.08	42.13
510.25	58.51
510.42	98.30
510.60	32.77
510.77	67.88
510.95	98.30
511.12	60.85
511.30	91.28
511.47	16.38
511.64	44.47
511.82	74.90
511.99	53.83
512.17	53.83
512.34	14.04
512.51	63.19
512.69	98.30
512.86	56.17
513.04	79.58
513.21	56.17
513.38	124.05
513.56	72.56
513.73	67.88
513.90	11.70
514.08	117.03
514.25	107.66
514.43	77.24
514.60	102.98
514.77	44.47
514.95	112.35
515.12	107.66
515.29	49.15
515.47	65.54
515.64	58.51
515.81	154.48
515.99	67.88
516.16	28.09
516.33	81.92
516.51	107.66
516.68	65.54
516.85	88.94
517.03	88.94
517.20	35.11
517.37	79.58
517.54	81.92
517.72	56.17
517.89	84.26
518.06	18.72
518.24	28.09
518.41	28.09
518.58	121.71
518.75	107.66
518.93	100.64
519.10	42.13
519.27	0.00
519.45	105.32
519.62	102.98
519.79	79.58
519.96	112.35
520.14	28.09
520.31	16.38
520.48	0.00
520.65	152.13
520.83	128.73
521.00	88.94
521.17	77.24
521.34	95.96
521.52	14.04
521.69	56.17
521.86	14.04
522.03	74.90
522.20	60.85
522.38	67.88
522.55	117.03
522.72	93.62
522.89	74.90
523.07	49.15
523.24	58.51
523.41	166.18
523.58	0.00
523.75	14.04
523.92	114.69
524.10	28.09
524.27	102.98
524.44	166.18
524.61	11.70
524.78	124.05
524.96	98.30
525.13	51.49
525.30	77.24
525.47	93.62
525.64	18.72
525.81	49.15
525.98	37.45
526.16	140.43
526.33	105.32
526.50	23.41
526.67	98.30
526.84	56.17
527.01	161.50
527.18	133.41
527.36	131.07
527.53	138.09
527.70	74.90
527.87	67.88
528.04	65.54
528.21	44.47
528.38	126.39
528.55	91.28
528.72	18.72
528.89	140.43
529.07	133.41
529.24	86.60
529.41	105.32
529.58	0.00
529.75	65.54
529.92	67.88
530.09	98.30
530.26	102.98
530.43	37.45
530.60	175.54
530.77	91.28
530.94	100.64
531.11	58.51
531.28	86.60
531.46	140.43
531.63	42.13
531.80	60.85
531.97	107.66
532.14	77.24
532.31	142.77
532.48	93.62
532.65	60.85
532.82	53.83
532.99	124.05
533.16	107.66
533.33	63.19
533.50	2.34
533.67	124.05
533.84	112.35
534.01	102.98
534.18	105.32
534.35	105.32
534.52	88.94
534.69	93.62
534.86	49.15
535.03	131.07
535.20	128.73
535.37	81.92
535.54	28.09
535.71	21.06
535.88	110.01
536.05	93.62
536.22	23.41
536.38	23.41
536.55	91.28
536.72	86.60
536.89	95.96
537.06	44.47
537.23	18.72
537.40	39.79
537.57	142.77
537.74	84.26
537.91	119.37
538.08	112.35
538.25	135.75
538.42	117.03
538.59	65.54
538.75	95.96
538.92	105.32
539.09	86.60
539.26	95.96
539.43	42.13
539.60	65.54
539.77	119.37
539.94	112.35
540.11	112.35
540.28	37.45
540.44	63.19
540.61	126.39
540.78	131.07
540.95	98.30
541.12	65.54
541.29	119.37
541.46	67.88
541.62	93.62
541.79	119.37
541.96	79.58
542.13	84.26
542.30	56.17
542.47	37.45
542.63	63.19
542.80	88.94
542.97	93.62
543.14	63.19
543.31	107.66
543.48	147.45
543.64	138.09
543.81	77.24
543.98	98.30
544.15	44.47
544.32	128.73
544.48	77.24
544.65	105.32
544.82	110.01
544.99	124.05
545.16	168.52
545.32	100.64
545.49	77.24
545.66	163.84
545.83	81.92
546.00	86.60
546.16	98.30
546.33	119.37
546.50	114.69
546.67	32.77
546.83	159.16
547.00	77.24
547.17	44.47
547.34	44.47
547.50	18.72
547.67	74.90
547.84	119.37
548.00	79.58
548.17	105.32
548.34	53.83
548.51	79.58
548.67	39.79
548.84	84.26
549.01	84.26
549.18	86.60
549.34	67.88
549.51	65.54
549.68	70.22
549.84	18.72
550.01	98.30
550.18	77.24
550.34	88.94
550.51	114.69
550.68	70.22
550.84	46.81
551.01	46.81
551.18	79.58
551.34	119.37
551.51	32.77
551.68	147.45
551.84	88.94
552.01	131.07
552.18	138.09
552.34	135.75
552.51	98.30
552.68	110.01
552.84	117.03
553.01	191.92
553.18	42.13
553.34	189.58
553.51	119.37
553.67	126.39
553.84	46.81
554.01	100.64
554.17	77.24
554.34	58.51
554.51	88.94
554.67	142.77
554.84	135.75
555.00	107.66
555.17	173.20
555.33	107.66
555.50	21.06
555.67	93.62
555.83	28.09
556.00	65.54
556.16	124.05
556.33	105.32
556.50	95.96
556.66	39.79
556.83	131.07
556.99	95.96
557.16	37.45
557.32	135.75
557.49	93.62
557.65	110.01
557.82	100.64
557.98	79.58
558.15	37.45
558.32	63.19
558.48	112.35
558.65	131.07
558.81	131.07
558.98	81.92
559.14	79.58
559.31	0.00
559.47	133.41
559.64	51.49
559.80	114.69
559.97	88.94
560.13	105.32
560.30	95.96
560.46	86.60
560.63	98.30
560.79	63.19
560.96	110.01
561.12	72.56
561.29	58.51
561.45	112.35
561.61	63.19
561.78	105.32
561.94	21.06
562.11	0.00
562.27	77.24
562.44	88.94
562.60	67.88
562.77	91.28
562.93	145.11
563.10	91.28
563.26	49.15
563.42	63.19
563.59	58.51
563.75	0.00
563.92	53.83
564.08	131.07
564.24	124.05
564.41	128.73
564.57	79.58
564.74	60.85
564.90	102.98
565.07	107.66
565.23	0.00
565.39	93.62
565.56	63.19
565.72	95.96
565.88	152.13
566.05	95.96
566.21	100.64
566.38	67.88
566.54	16.38
566.70	105.32
566.87	126.39
567.03	14.04
567.19	110.01
567.36	60.85
567.52	11.70
567.68	65.54
567.85	30.43
568.01	91.28
568.17	88.94
568.34	128.73
568.50	135.75
568.66	84.26
568.83	126.39
568.99	46.81
569.15	74.90
569.32	39.79
569.48	42.13
569.64	173.20
569.81	95.96
569.97	72.56
570.13	77.24
570.30	112.35
570.46	112.35
570.62	110.01
570.78	56.17
570.95	112.35
571.11	107.66
571.27	74.90
571.43	65.54
571.60	100.64
571.76	14.04
571.92	65.54
572.09	65.54
572.25	110.01
572.41	72.56
572.57	133.41
572.74	95.96
572.90	121.71
573.06	46.81
573.22	84.26
573.38	51.49
573.55	63.19
573.71	46.81
573.87	86.60
574.03	81.92
574.20	95.96
574.36	35.11
574.52	107.66
574.68	16.38
574.84	100.64
575.01	25.75
575.17	30.43
575.33	105.32
575.49	70.22
575.65	60.85
575.82	117.03
575.98	110.01
576.14	86.60
576.30	65.54
576.46	147.45
576.62	170.86
576.79	77.24
576.95	93.62
577.11	91.28
577.27	32.77
577.43	98.30
577.59	117.03
577.75	98.30
577.92	84.26
578.08	79.58
578.24	105.32
578.40	65.54
578.56	46.81
578.72	58.51
578.88	35.11
579.04	140.43
579.21	51.49
579.37	128.73
579.53	152.13
579.69	79.58
579.85	81.92
580.01	145.11
580.17	37.45
580.33	65.54
580.49	81.92
580.65	72.56
580.82	37.45
580.98	39.79
581.14	25.75
581.30	18.72
581.46	44.47
581.62	65.54
581.78	7.02
581.94	86.60
582.10	119.37
582.26	46.81
582.42	79.58
582.58	77.24
582.74	70.22
582.90	121.71
583.06	42.13
583.22	74.90
583.38	77.24
583.54	77.24
583.70	79.58
583.86	39.79
584.02	25.75
584.18	65.54
584.34	21.06
584.50	79.58
584.66	44.47
584.82	53.83
584.98	46.81
585.14	67.88
585.30	77.24
585.46	9.36
585.62	53.83
585.78	42.13
585.94	23.41
586.10	72.56
586.26	95.96
586.42	138.09
586.58	102.98
586.74	60.85
586.90	88.94
587.06	102.98
587.22	60.85
587.38	4.68
587.54	72.56
587.70	0.00
587.86	74.90
588.02	77.24
588.18	100.64
588.34	98.30
588.49	84.26
588.65	128.73
588.81	11.70
588.97	53.83
589.13	72.56
589.29	63.19
589.45	84.26
589.61	25.75
589.77	16.38
589.93	70.22
590.08	0.00
590.24	44.47
590.40	16.38
590.56	117.03
590.72	42.13
590.88	18.72
591.04	88.94
591.20	37.45
591.35	44.47
591.51	53.83
591.67	16.38
591.83	70.22
591.99	79.58
592.15	23.41
592.31	72.56
592.46	79.58
592.62	44.47
592.78	81.92
592.94	72.56
593.10	77.24
593.26	58.51
593.41	107.66
593.57	133.41
593.73	70.22
593.89	42.13
594.05	9.36
594.20	46.81
594.36	70.22
594.52	0.00
594.68	56.17
594.84	72.56
594.99	65.54
595.15	98.30
595.31	65.54
595.47	51.49
595.62	196.60
595.78	4.68
595.94	39.79
596.10	35.11
596.25	53.83
596.41	98.30
596.57	84.26
596.73	63.19
596.88	95.96
597.04	95.96
597.20	84.26
597.36	37.45
597.51	21.06
597.67	23.41
597.83	7.02
597.99	67.88
598.14	74.90
598.30	117.03
598.46	117.03
598.61	0.00
598.77	65.54
598.93	86.60
599.09	16.38
599.24	65.54
599.40	77.24
599.56	74.90
599.71	16.38
599.87	166.18
600.03	39.79
600.18	51.49
600.34	74.90
600.50	173.20
600.65	44.47
600.81	110.01
600.97	119.37
601.12	51.49
601.28	86.60
601.44	67.88
601.59	63.19
601.75	154.48
601.91	25.75
602.06	100.64
602.22	11.70
602.37	53.83
602.53	30.43
602.69	32.77
602.84	79.58
603.00	72.56
603.16	56.17
603.31	77.24
603.47	60.85
603.62	72.56
603.78	84.26
603.94	79.58
604.09	126.39
604.25	58.51
604.40	42.13
604.56	49.15
604.71	53.83
604.87	72.56
605.03	110.01
605.18	79.58
605.34	14.04
605.49	93.62
605.65	51.49
605.80	72.56
605.96	25.75
606.12	112.35
606.27	128.73
606.43	58.51
606.58	112.35
606.74	105.32
606.89	93.62
607.05	72.56
607.20	84.26
607.36	86.60
607.51	39.79
607.67	42.13
607.82	49.15
607.98	79.58
608.13	107.66
608.29	114.69
608.44	58.51
608.60	37.45
608.75	121.71
608.91	39.79
609.06	37.45
609.22	46.81
609.37	28.09
609.53	81.92
609.68	70.22
609.84	56.17
609.99	56.17
610.15	65.54
610.30	79.58
610.46	107.66
610.61	53.83
610.76	0.00
610.92	100.64
611.07	91.28
611.23	84.26
611.38	28.09
611.54	4.68
611.69	79.58
611.84	124.05
612.00	63.19
612.15	77.24
612.31	35.11
612.46	44.47
612.62	39.79
612.77	18.72
612.92	152.13
613.08	63.19
613.23	49.15
613.39	110.01
613.54	88.94
613.69	46.81
613.85	44.47
614.00	110.01
614.15	124.05
614.31	67.88
614.46	39.79
614.62	56.17
614.77	49.15
614.92	126.39
615.08	63.19
615.23	53.83
615.38	100.64
615.54	65.54
615.69	100.64
615.84	72.56
616.00	72.56
616.15	51.49
616.30	70.22
616.46	46.81
616.61	30.43
616.76	35.11
616.92	88.94
617.07	79.58
617.22	110.01
617.37	91.28
617.53	145.11
617.68	77.24
617.83	39.79
617.99	35.11
618.14	28.09
618.29	58.51
618.45	58.51
618.60	25.75
618.75	84.26
618.90	84.26
619.06	72.56
619.21	53.83
619.36	110.01
619.51	145.11
619.67	32.77
619.82	28.09
619.97	65.54
620.12	95.96
620.28	84.26
620.43	25.75
620.58	46.81
620.73	25.75
620.89	128.73
621.04	86.60
621.19	133.41
621.34	67.88
621.49	18.72
621.65	51.49
621.80	65.54
621.95	79.58
622.10	102.98
622.25	21.06
622.41	23.41
622.56	100.64
622.71	58.51
622.86	51.49
623.01	88.94
623.16	49.15
623.32	86.60
623.47	67.88
623.62	72.56
623.77	114.69
623.92	51.49
624.07	21.06
624.23	39.79
624.38	121.71
624.53	102.98
624.68	32.77
624.83	14.04
624.98	65.54
625.13	46.81
625.29	53.83
625.44	72.56
625.59	81.92
625.74	4.68
625.89	21.06
626.04	42.13
626.19	2.34
626.34	93.62
626.49	168.52
626.65	98.30
626.80	161.50
626.95	28.09
627.10	0.00
627.25	60.85
627.40	46.81
627.55	56.17
627.70	93.62
627.85	30.43
628.00	105.32
628.15	44.47
628.30	84.26
628.45	28.09
628.60	121.71
628.76	63.19
628.91	51.49
629.06	145.11
629.21	60.85
629.36	21.06
629.51	42.13
629.66	81.92
629.81	67.88
629.96	100.64
630.11	107.66
630.26	51.49
630.41	42.13
630.56	51.49
630.71	95.96
630.86	46.81
631.01	74.90
631.16	72.56
631.31	107.66
631.46	56.17
631.61	42.13
631.76	58.51
631.91	98.30
632.06	65.54
632.21	105.32
632.36	14.04
632.51	42.13
632.66	9.36
632.81	0.00
632.96	49.15
633.10	23.41
633.25	65.54
633.40	60.85
633.55	70.22
633.70	91.28
633.85	102.98
634.00	0.00
634.15	95.96
634.30	9.36
634.45	105.32
634.60	88.94
634.75	60.85
634.90	60.85
635.05	28.09
635.19	32.77
635.34	98.30
635.49	70.22
635.64	128.73
635.79	37.45
635.94	25.75
636.09	28.09
636.24	86.60
636.39	18.72
636.53	28.09
636.68	2.34
636.83	14.04
636.98	58.51
637.13	44.47
637.28	23.41
637.43	46.81
637.57	37.45
637.72	42.13
637.87	4.68
638.02	91.28
638.17	67.88
638.32	98.30
638.46	100.64
638.61	44.47
638.76	145.11
638.91	86.60
639.06	58.51
639.20	42.13
639.35	53.83
639.50	23.41
639.65	14.04
639.80	58.51
639.94	110.01
640.09	28.09
640.24	81.92
640.39	30.43
640.54	107.66
640.68	0.00
640.83	107.66
640.98	0.00
641.13	35.11
641.27	86.60
641.42	32.77
641.57	0.00
641.72	107.66
641.86	93.62
642.01	105.32
642.16	88.94
642.31	37.45
642.45	0.00
642.60	117.03
642.75	67.88
642.90	30.43
643.04	58.51
643.19	0.00
643.34	93.62
643.48	91.28
643.63	67.88
643.78	74.90
643.93	77.24
644.07	25.75
644.22	77.24
644.37	112.35
644.51	98.30
644.66	44.47
644.81	70.22
644.95	0.00
645.10	35.11
645.25	42.13
645.39	110.01
645.54	18.72
645.69	102.98
645.83	37.45
645.98	53.83
646.13	86.60
646.27	44.47
646.42	11.70
646.57	100.64
646.71	156.82
646.86	39.79
647.00	25.75
647.15	58.51
647.30	100.64
647.44	72.56
647.59	53.83
647.74	49.15
647.88	95.96
648.03	0.00
648.17	46.81
648.32	91.28
648.47	79.58
648.61	77.24
648.76	37.45
648.90	114.69
649.05	128.73
649.20	102.98
649.34	135.75
649.49	21.06
649.63	114.69
649.78	93.62
649.92	39.79
650.07	93.62
650.21	58.51
650.36	60.85
650.51	25.75
650.65	77.24
650.80	81.92
650.94	53.83
651.09	49.15
651.23	53.83
651.38	30.43
651.52	21.06
651.67	98.30
651.81	79.58
651.96	0.00
652.10	63.19
652.25	72.56
652.39	84.26
652.54	117.03
652.68	79.58
652.83	46.81
652.97	0.00
653.12	51.49
653.26	74.90
653.41	58.51
653.55	91.28
653.70	44.47
653.84	51.49
653.99	0.00
654.13	4.68
654.27	70.22
654.42	44.47
654.56	65.54
654.71	67.88
654.85	0.00
655.00	79.58
655.14	30.43
655.29	28.09
655.43	60.85
655.57	37.45
655.72	56.17
655.86	93.62
656.01	91.28
656.15	67.88
656.30	79.58
656.44	37.45
656.58	58.51
656.73	67.88
656.87	11.70
657.01	107.66
657.16	81.92
657.30	42.13
657.45	11.70
657.59	56.17
657.73	46.81
657.88	86.60
658.02	119.37
658.16	28.09
658.31	65.54
658.45	49.15
658.60	9.36
658.74	16.38
658.88	112.35
659.03	25.75
659.17	67.88
659.31	56.17
659.46	60.85
659.60	84.26
659.74	25.75
659.89	84.26
660.03	9.36
660.17	70.22
660.32	46.81
660.46	110.01
660.60	39.79
660.74	91.28
660.89	42.13
661.03	11.70
661.17	16.38
661.32	25.75
661.46	100.64
661.60	35.11
661.74	98.30
661.89	32.77
662.03	110.01
662.17	86.60
662.31	63.19
662.46	65.54
662.60	35.11
662.74	98.30
662.88	9.36
663.03	0.00
663.17	0.00
663.31	149.79
663.45	18.72
663.60	67.88
663.74	124.05
663.88	63.19
664.02	84.26
664.17	72.56
664.31	98.30
664.45	39.79
664.59	91.28
664.73	2.34
664.88	70.22
665.02	191.92
665.16	28.09
665.30	128.73
665.44	49.15
665.59	124.05
665.73	49.15
665.87	44.47
666.01	65.54
666.15	58.51
666.29	14.04
666.44	35.11
666.58	72.56
666.72	100.64
666.86	58.51
667.00	60.85
667.14	0.00
667.28	126.39
667.43	28.09
667.57	30.43
667.71	46.81
667.85	56.17
667.99	51.49
668.13	21.06
668.27	79.58
668.41	32.77
668.56	0.00
668.70	63.19
668.84	67.88
668.98	135.75
669.12	65.54
669.26	0.00
669.40	81.92
669.54	65.54
669.68	72.56
669.82	42.13
669.96	4.68
670.10	39.79
670.25	39.79
670.39	11.70
670.53	81.92
670.67	44.47
670.81	60.85
670.95	63.19
671.09	18.72
671.23	81.92
671.37	32.77
671.51	7.02
671.65	0.00
671.79	11.70
671.93	23.41
672.07	63.19
672.21	100.64
672.35	51.49
672.49	18.72
672.63	37.45
672.77	84.26
672.91	60.85
673.05	32.77
673.19	28.09
673.33	0.00
673.47	49.15
673.61	86.60
673.75	79.58
673.89	0.00
674.03	140.43
674.17	77.24
674.31	88.94
674.45	18.72
674.59	0.00
674.73	32.77
674.87	51.49
675.01	44.47
675.15	77.24
675.29	49.15
675.43	79.58
675.56	39.79
675.70	46.81
675.84	42.13
675.98	117.03
676.12	100.64
676.26	95.96
676.40	32.77
676.54	46.81
676.68	18.72
676.82	0.00
676.96	154.48
677.10	51.49
677.23	56.17
677.37	46.81
677.51	86.60
677.65	79.58
677.79	112.35
677.93	79.58
678.07	0.00
678.21	63.19
678.34	84.26
678.48	18.72
678.62	18.72
678.76	67.88
678.90	49.15
679.04	7.02
679.18	25.75
679.31	14.04
679.45	79.58
679.59	14.04
679.73	86.60
679.87	35.11
680.00	70.22
680.14	67.88
680.28	58.51
680.42	72.56
680.56	56.17
680.70	79.58
680.83	95.96
680.97	72.56
681.11	98.30
681.25	49.15
681.39	37.45
681.52	100.64
681.66	86.60
681.80	63.19
681.94	0.00
682.07	58.51
682.21	0.00
682.35	72.56
682.49	77.24
682.62	23.41
682.76	56.17
682.90	25.75
683.04	63.19
683.17	23.41
683.31	21.06
683.45	7.02
683.59	60.85
683.72	23.41
683.86	30.43
684.00	9.36
684.13	56.17
684.27	67.88
684.41	44.47
684.55	105.32
684.68	67.88
684.82	16.38
684.96	93.62
685.09	0.00
685.23	65.54
685.37	7.02
685.50	11.70
685.64	14.04
685.78	30.43
685.91	53.83
686.05	79.58
686.19	77.24
686.32	0.00
686.46	81.92
686.60	63.19
686.73	35.11
686.87	105.32
687.01	65.54
687.14	42.13
687.28	0.00
687.42	70.22
687.55	11.70
687.69	46.81
687.82	9.36
687.96	95.96
688.10	0.00
688.23	0.00
688.37	0.00
688.50	4.68
688.64	70.22
688.78	0.00
688.91	4.68
689.05	63.19
689.18	0.00
689.32	0.00
689.46	37.45
689.59	0.00
689.73	7.02
689.86	35.11
690.00	35.11
690.13	93.62
690.27	51.49
690.41	0.00
690.54	51.49
690.68	4.68
690.81	0.00
690.95	105.32
691.08	14.04
691.22	0.00
691.35	11.70
691.49	0.00
691.62	53.83
691.76	42.13
691.89	28.09
692.03	117.03
692.16	0.00
692.30	135.75
692.43	49.15
692.57	74.90
692.70	91.28
692.84	46.81
692.97	0.00
693.11	28.09
693.24	25.75
693.38	25.75
693.51	30.43
693.65	149.79
693.78	121.71
693.92	14.04
694.05	65.54
694.19	74.90
694.32	23.41
694.45	25.75
694.59	84.26
694.72	67.88
694.86	0.00
694.99	86.60
695.13	49.15
695.26	18.72
695.39	0.00
695.53	11.70
695.66	23.41
695.80	18.72
695.93	65.54
696.07	77.24
696.20	77.24
696.33	102.98
696.47	23.41
696.60	0.00
696.73	72.56
696.87	44.47
697.00	14.04
697.14	46.81
697.27	0.00
697.40	60.85
697.54	88.94
697.67	0.00
697.80	44.47
697.94	0.00
698.07	49.15
698.21	7.02
698.34	0.00
698.47	21.06
698.61	65.54
698.74	0.00
698.87	53.83
699.01	18.72
699.14	4.68
699.27	37.45
699.40	67.88
699.54	30.43
699.67	32.77
699.80	14.04
699.94	74.90
700.07	58.51
700.20	14.04
700.34	11.70
700.47	0.00
700.60	70.22
700.73	98.30
700.87	11.70
701.00	21.06
701.13	0.00
701.26	18.72
701.40	0.00
701.53	42.13
701.66	28.09
701.79	18.72
701.93	42.13
702.06	112.35
702.19	37.45
702.32	28.09
702.46	58.51
702.59	0.00
702.72	0.00
702.85	16.38
702.99	39.79
703.12	0.00
703.25	67.88
703.38	70.22
703.51	0.00
703.65	0.00
703.78	0.00
703.91	14.04
704.04	35.11
704.17	0.00
704.31	81.92
704.44	21.06
704.57	44.47
704.70	102.98
704.83	49.15
704.96	21.06
705.10	0.00
705.23	7.02
>>>>>End Processed Spectral Data<<<<<
