SpectraSuite Data File
++++++++++++++++++++++++++++++++++++
Date: Fri Oct 04 12:13:35 GMT-05:00 2013
User: price-jones
Dark Spectrum Present: No
Reference Spectrum Present: No
Number of Sampled Component Spectra: 1
Spectrometers: USB2+H05261
Integration Time (usec): 10000 (USB2+H05261)
Spectra Averaged: 1 (USB2+H05261)
Boxcar Smoothing: 0 (USB2+H05261)
Correct for Electrical Dark: No (USB2+H05261)
Strobe/Lamp Enabled: No (USB2+H05261)
Correct for Detector Non-linearity: No (USB2+H05261)
Correct for Stray Light: No (USB2+H05261)
Number of Pixels in Processed Spectrum: 2048
>>>>>Begin Processed Spectral Data<<<<<
365.73	35.11
365.92	35.11
366.12	35.11
366.32	0.00
366.52	0.00
366.72	0.00
366.91	0.00
367.11	0.00
367.31	0.00
367.51	0.00
367.70	0.00
367.90	0.00
368.10	0.00
368.30	0.00
368.49	0.00
368.69	0.00
368.89	0.00
369.09	0.00
369.28	0.00
369.48	0.00
369.68	0.00
369.87	0.00
370.07	0.00
370.27	0.00
370.47	0.00
370.66	0.00
370.86	0.00
371.06	0.00
371.25	0.00
371.45	0.00
371.65	0.00
371.84	9.36
372.04	21.06
372.24	0.00
372.44	0.00
372.63	0.00
372.83	88.94
373.03	4.68
373.22	0.00
373.42	0.00
373.62	28.09
373.81	0.00
374.01	30.43
374.21	4.68
374.40	35.11
374.60	0.00
374.79	56.17
374.99	65.54
375.19	49.15
375.38	14.04
375.58	11.70
375.78	74.90
375.97	37.45
376.17	30.43
376.37	11.70
376.56	53.83
376.76	11.70
376.95	74.90
377.15	86.60
377.35	49.15
377.54	16.38
377.74	28.09
377.93	0.00
378.13	35.11
378.33	0.00
378.52	46.81
378.72	30.43
378.91	74.90
379.11	56.17
379.31	0.00
379.50	0.00
379.70	35.11
379.89	65.54
380.09	51.49
380.28	37.45
380.48	16.38
380.68	0.00
380.87	0.00
381.07	51.49
381.26	0.00
381.46	21.06
381.65	0.00
381.85	65.54
382.04	9.36
382.24	0.00
382.43	16.38
382.63	32.77
382.83	51.49
383.02	9.36
383.22	53.83
383.41	0.00
383.61	35.11
383.80	35.11
384.00	28.09
384.19	25.75
384.39	63.19
384.58	63.19
384.78	0.00
384.97	105.32
385.17	14.04
385.36	18.72
385.56	25.75
385.75	30.43
385.95	63.19
386.14	2.34
386.34	25.75
386.53	44.47
386.72	30.43
386.92	79.58
387.11	30.43
387.31	30.43
387.50	0.00
387.70	39.79
387.89	0.00
388.09	74.90
388.28	0.00
388.48	0.00
388.67	4.68
388.86	0.00
389.06	0.00
389.25	44.47
389.45	39.79
389.64	42.13
389.84	0.00
390.03	30.43
390.22	0.00
390.42	0.00
390.61	56.17
390.81	0.00
391.00	77.24
391.19	4.68
391.39	0.00
391.58	74.90
391.78	32.77
391.97	0.00
392.16	91.28
392.36	25.75
392.55	58.51
392.75	0.00
392.94	7.02
393.13	32.77
393.33	0.00
393.52	93.62
393.71	0.00
393.91	39.79
394.10	14.04
394.29	32.77
394.49	46.81
394.68	0.00
394.88	9.36
395.07	0.00
395.26	39.79
395.46	77.24
395.65	37.45
395.84	0.00
396.04	21.06
396.23	0.00
396.42	7.02
396.62	91.28
396.81	51.49
397.00	0.00
397.19	4.68
397.39	79.58
397.58	0.00
397.77	51.49
397.97	0.00
398.16	84.26
398.35	0.00
398.55	63.19
398.74	81.92
398.93	65.54
399.12	16.38
399.32	0.00
399.51	0.00
399.70	37.45
399.90	0.00
400.09	88.94
400.28	2.34
400.47	21.06
400.67	81.92
400.86	0.00
401.05	0.00
401.24	0.00
401.44	0.00
401.63	56.17
401.82	0.00
402.01	65.54
402.21	9.36
402.40	65.54
402.59	4.68
402.78	28.09
402.97	35.11
403.17	18.72
403.36	0.00
403.55	42.13
403.74	72.56
403.93	21.06
404.13	81.92
404.32	14.04
404.51	16.38
404.70	65.54
404.89	21.06
405.09	14.04
405.28	37.45
405.47	16.38
405.66	37.45
405.85	74.90
406.05	46.81
406.24	58.51
406.43	86.60
406.62	91.28
406.81	46.81
407.00	39.79
407.20	32.77
407.39	18.72
407.58	0.00
407.77	72.56
407.96	0.00
408.15	42.13
408.34	84.26
408.54	65.54
408.73	23.41
408.92	79.58
409.11	70.22
409.30	0.00
409.49	21.06
409.68	16.38
409.87	0.00
410.07	35.11
410.26	60.85
410.45	32.77
410.64	0.00
410.83	11.70
411.02	67.88
411.21	42.13
411.40	30.43
411.59	14.04
411.78	23.41
411.98	58.51
412.17	42.13
412.36	14.04
412.55	56.17
412.74	37.45
412.93	60.85
413.12	110.01
413.31	77.24
413.50	11.70
413.69	37.45
413.88	39.79
414.07	0.00
414.26	42.13
414.45	53.83
414.64	77.24
414.83	21.06
415.02	35.11
415.22	84.26
415.41	0.00
415.60	65.54
415.79	0.00
415.98	63.19
416.17	46.81
416.36	44.47
416.55	0.00
416.74	93.62
416.93	28.09
417.12	74.90
417.31	0.00
417.50	14.04
417.69	65.54
417.88	32.77
418.07	67.88
418.26	23.41
418.45	0.00
418.64	28.09
418.83	60.85
419.02	42.13
419.21	35.11
419.39	18.72
419.58	0.00
419.77	16.38
419.96	102.98
420.15	0.00
420.34	16.38
420.53	72.56
420.72	93.62
420.91	46.81
421.10	84.26
421.29	37.45
421.48	65.54
421.67	60.85
421.86	32.77
422.05	58.51
422.24	0.00
422.43	37.45
422.61	7.02
422.80	86.60
422.99	91.28
423.18	53.83
423.37	14.04
423.56	0.00
423.75	7.02
423.94	4.68
424.13	0.00
424.32	88.94
424.50	110.01
424.69	56.17
424.88	93.62
425.07	14.04
425.26	70.22
425.45	0.00
425.64	51.49
425.83	16.38
426.01	67.88
426.20	65.54
426.39	49.15
426.58	9.36
426.77	7.02
426.96	4.68
427.15	58.51
427.33	0.00
427.52	58.51
427.71	67.88
427.90	93.62
428.09	49.15
428.28	77.24
428.46	88.94
428.65	9.36
428.84	37.45
429.03	28.09
429.22	0.00
429.40	28.09
429.59	70.22
429.78	112.35
429.97	25.75
430.16	86.60
430.34	16.38
430.53	0.00
430.72	77.24
430.91	65.54
431.10	0.00
431.28	9.36
431.47	39.79
431.66	23.41
431.85	86.60
432.03	56.17
432.22	37.45
432.41	0.00
432.60	0.00
432.79	0.00
432.97	67.88
433.16	0.00
433.35	42.13
433.54	16.38
433.72	74.90
433.91	23.41
434.10	0.00
434.28	84.26
434.47	42.13
434.66	30.43
434.85	0.00
435.03	91.28
435.22	14.04
435.41	53.83
435.59	4.68
435.78	77.24
435.97	16.38
436.16	23.41
436.34	23.41
436.53	0.00
436.72	65.54
436.90	2.34
437.09	49.15
437.28	0.00
437.46	32.77
437.65	25.75
437.84	18.72
438.02	25.75
438.21	0.00
438.40	21.06
438.58	0.00
438.77	0.00
438.96	79.58
439.14	23.41
439.33	0.00
439.52	56.17
439.70	23.41
439.89	18.72
440.08	60.85
440.26	0.00
440.45	65.54
440.63	49.15
440.82	0.00
441.01	65.54
441.19	58.51
441.38	56.17
441.57	16.38
441.75	18.72
441.94	67.88
442.12	58.51
442.31	21.06
442.50	39.79
442.68	49.15
442.87	72.56
443.05	117.03
443.24	46.81
443.43	63.19
443.61	72.56
443.80	37.45
443.98	39.79
444.17	32.77
444.35	51.49
444.54	25.75
444.73	70.22
444.91	51.49
445.10	60.85
445.28	46.81
445.47	39.79
445.65	114.69
445.84	63.19
446.02	110.01
446.21	107.66
446.39	86.60
446.58	42.13
446.77	65.54
446.95	11.70
447.14	37.45
447.32	53.83
447.51	49.15
447.69	39.79
447.88	72.56
448.06	91.28
448.25	35.11
448.43	21.06
448.62	18.72
448.80	63.19
448.99	114.69
449.17	67.88
449.36	32.77
449.54	56.17
449.73	77.24
449.91	25.75
450.10	16.38
450.28	58.51
450.46	0.00
450.65	51.49
450.83	91.28
451.02	35.11
451.20	58.51
451.39	58.51
451.57	98.30
451.76	67.88
451.94	93.62
452.13	81.92
452.31	93.62
452.49	112.35
452.68	60.85
452.86	46.81
453.05	51.49
453.23	28.09
453.42	51.49
453.60	42.13
453.78	56.17
453.97	72.56
454.15	42.13
454.34	0.00
454.52	9.36
454.70	14.04
454.89	79.58
455.07	42.13
455.26	0.00
455.44	70.22
455.62	60.85
455.81	9.36
455.99	35.11
456.17	9.36
456.36	51.49
456.54	117.03
456.73	53.83
456.91	32.77
457.09	35.11
457.28	58.51
457.46	42.13
457.64	21.06
457.83	32.77
458.01	100.64
458.19	23.41
458.38	42.13
458.56	74.90
458.74	2.34
458.93	37.45
459.11	11.70
459.29	53.83
459.48	0.00
459.66	86.60
459.84	44.47
460.03	0.00
460.21	58.51
460.39	70.22
460.57	65.54
460.76	88.94
460.94	0.00
461.12	95.96
461.31	65.54
461.49	95.96
461.67	67.88
461.85	67.88
462.04	79.58
462.22	173.20
462.40	124.05
462.59	0.00
462.77	28.09
462.95	93.62
463.13	95.96
463.32	79.58
463.50	60.85
463.68	42.13
463.86	9.36
464.05	0.00
464.23	105.32
464.41	86.60
464.59	37.45
464.78	30.43
464.96	49.15
465.14	105.32
465.32	0.00
465.50	42.13
465.69	114.69
465.87	128.73
466.05	81.92
466.23	70.22
466.41	74.90
466.60	91.28
466.78	60.85
466.96	53.83
467.14	0.00
467.32	0.00
467.51	77.24
467.69	0.00
467.87	35.11
468.05	16.38
468.23	39.79
468.41	91.28
468.60	135.75
468.78	98.30
468.96	81.92
469.14	44.47
469.32	37.45
469.50	18.72
469.69	28.09
469.87	37.45
470.05	84.26
470.23	166.18
470.41	56.17
470.59	28.09
470.77	0.00
470.95	51.49
471.14	51.49
471.32	30.43
471.50	0.00
471.68	42.13
471.86	51.49
472.04	121.71
472.22	93.62
472.40	0.00
472.58	32.77
472.77	84.26
472.95	25.75
473.13	23.41
473.31	56.17
473.49	133.41
473.67	58.51
473.85	72.56
474.03	16.38
474.21	44.47
474.39	58.51
474.57	74.90
474.75	70.22
474.93	49.15
475.12	7.02
475.30	84.26
475.48	53.83
475.66	28.09
475.84	11.70
476.02	32.77
476.20	168.52
476.38	58.51
476.56	81.92
476.74	37.45
476.92	0.00
477.10	16.38
477.28	0.00
477.46	32.77
477.64	7.02
477.82	86.60
478.00	93.62
478.18	49.15
478.36	46.81
478.54	81.92
478.72	23.41
478.90	4.68
479.08	51.49
479.26	35.11
479.44	28.09
479.62	107.66
479.80	67.88
479.98	23.41
480.16	53.83
480.34	70.22
480.52	4.68
480.70	46.81
480.88	23.41
481.06	9.36
481.24	114.69
481.41	65.54
481.59	126.39
481.77	133.41
481.95	23.41
482.13	126.39
482.31	102.98
482.49	93.62
482.67	56.17
482.85	72.56
483.03	16.38
483.21	77.24
483.39	124.05
483.57	44.47
483.74	60.85
483.92	39.79
484.10	81.92
484.28	88.94
484.46	49.15
484.64	140.43
484.82	112.35
485.00	70.22
485.18	53.83
485.35	46.81
485.53	74.90
485.71	30.43
485.89	95.96
486.07	173.20
486.25	95.96
486.43	44.47
486.61	98.30
486.78	86.60
486.96	88.94
487.14	60.85
487.32	79.58
487.50	102.98
487.68	42.13
487.85	42.13
488.03	51.49
488.21	107.66
488.39	58.51
488.57	126.39
488.75	58.51
488.92	145.11
489.10	0.00
489.28	65.54
489.46	72.56
489.64	131.07
489.81	77.24
489.99	0.00
490.17	95.96
490.35	44.47
490.53	42.13
490.70	95.96
490.88	91.28
491.06	91.28
491.24	56.17
491.41	42.13
491.59	28.09
491.77	70.22
491.95	107.66
492.13	56.17
492.30	105.32
492.48	63.19
492.66	74.90
492.84	67.88
493.01	9.36
493.19	65.54
493.37	98.30
493.54	51.49
493.72	110.01
493.90	51.49
494.08	100.64
494.25	0.00
494.43	77.24
494.61	105.32
494.79	88.94
494.96	95.96
495.14	49.15
495.32	74.90
495.49	112.35
495.67	32.77
495.85	44.47
496.02	81.92
496.20	105.32
496.38	112.35
496.55	135.75
496.73	67.88
496.91	44.47
497.09	93.62
497.26	107.66
497.44	0.00
497.62	23.41
497.79	84.26
497.97	46.81
498.14	79.58
498.32	35.11
498.50	28.09
498.67	53.83
498.85	88.94
499.03	60.85
499.20	58.51
499.38	44.47
499.56	140.43
499.73	126.39
499.91	65.54
500.08	124.05
500.26	67.88
500.44	88.94
500.61	74.90
500.79	56.17
500.97	88.94
501.14	77.24
501.32	110.01
501.49	102.98
501.67	65.54
501.84	39.79
502.02	63.19
502.20	42.13
502.37	51.49
502.55	86.60
502.72	74.90
502.90	121.71
503.07	142.77
503.25	35.11
503.43	95.96
503.60	117.03
503.78	121.71
503.95	46.81
504.13	124.05
504.30	0.00
504.48	18.72
504.65	0.00
504.83	37.45
505.01	128.73
505.18	114.69
505.36	79.58
505.53	37.45
505.71	39.79
505.88	32.77
506.06	147.45
506.23	37.45
506.41	51.49
506.58	105.32
506.76	81.92
506.93	74.90
507.11	58.51
507.28	35.11
507.46	35.11
507.63	39.79
507.81	58.51
507.98	65.54
508.16	135.75
508.33	124.05
508.50	110.01
508.68	100.64
508.85	58.51
509.03	49.15
509.20	105.32
509.38	93.62
509.55	30.43
509.73	124.05
509.90	18.72
510.08	67.88
510.25	105.32
510.42	147.45
510.60	91.28
510.77	72.56
510.95	32.77
511.12	107.66
511.30	56.17
511.47	93.62
511.64	84.26
511.82	30.43
511.99	63.19
512.17	86.60
512.34	105.32
512.51	98.30
512.69	149.79
512.86	86.60
513.04	79.58
513.21	49.15
513.38	30.43
513.56	95.96
513.73	70.22
513.90	142.77
514.08	56.17
514.25	56.17
514.43	133.41
514.60	44.47
514.77	77.24
514.95	51.49
515.12	11.70
515.29	67.88
515.47	70.22
515.64	37.45
515.81	128.73
515.99	100.64
516.16	46.81
516.33	49.15
516.51	81.92
516.68	110.01
516.85	49.15
517.03	86.60
517.20	16.38
517.37	102.98
517.54	56.17
517.72	105.32
517.89	159.16
518.06	77.24
518.24	42.13
518.41	67.88
518.58	117.03
518.75	163.84
518.93	53.83
519.10	79.58
519.27	91.28
519.45	117.03
519.62	135.75
519.79	163.84
519.96	25.75
520.14	25.75
520.31	56.17
520.48	49.15
520.65	138.09
520.83	95.96
521.00	142.77
521.17	9.36
521.34	65.54
521.52	149.79
521.69	95.96
521.86	35.11
522.03	39.79
522.20	98.30
522.38	60.85
522.55	74.90
522.72	100.64
522.89	77.24
523.07	86.60
523.24	60.85
523.41	98.30
523.58	227.03
523.75	133.41
523.92	117.03
524.10	112.35
524.27	84.26
524.44	133.41
524.61	91.28
524.78	119.37
524.96	65.54
525.13	100.64
525.30	154.48
525.47	70.22
525.64	72.56
525.81	119.37
525.98	56.17
526.16	67.88
526.33	166.18
526.50	112.35
526.67	95.96
526.84	100.64
527.01	77.24
527.18	110.01
527.36	63.19
527.53	95.96
527.70	93.62
527.87	138.09
528.04	133.41
528.21	112.35
528.38	154.48
528.55	60.85
528.72	91.28
528.89	70.22
529.07	28.09
529.24	56.17
529.41	60.85
529.58	53.83
529.75	112.35
529.92	100.64
530.09	63.19
530.26	25.75
530.43	46.81
530.60	114.69
530.77	37.45
530.94	86.60
531.11	110.01
531.28	173.20
531.46	70.22
531.63	42.13
531.80	133.41
531.97	46.81
532.14	79.58
532.31	100.64
532.48	161.50
532.65	145.11
532.82	84.26
532.99	93.62
533.16	79.58
533.33	102.98
533.50	42.13
533.67	159.16
533.84	53.83
534.01	49.15
534.18	56.17
534.35	88.94
534.52	58.51
534.69	14.04
534.86	110.01
535.03	44.47
535.20	117.03
535.37	91.28
535.54	145.11
535.71	149.79
535.88	88.94
536.05	95.96
536.22	105.32
536.38	93.62
536.55	149.79
536.72	60.85
536.89	77.24
537.06	121.71
537.23	140.43
537.40	112.35
537.57	63.19
537.74	110.01
537.91	70.22
538.08	124.05
538.25	110.01
538.42	49.15
538.59	49.15
538.75	93.62
538.92	18.72
539.09	81.92
539.26	44.47
539.43	105.32
539.60	119.37
539.77	138.09
539.94	124.05
540.11	86.60
540.28	91.28
540.44	35.11
540.61	81.92
540.78	95.96
540.95	51.49
541.12	9.36
541.29	25.75
541.46	107.66
541.62	70.22
541.79	42.13
541.96	128.73
542.13	95.96
542.30	131.07
542.47	175.54
542.63	72.56
542.80	56.17
542.97	49.15
543.14	39.79
543.31	30.43
543.48	91.28
543.64	138.09
543.81	114.69
543.98	67.88
544.15	46.81
544.32	177.88
544.48	9.36
544.65	79.58
544.82	81.92
544.99	70.22
545.16	105.32
545.32	79.58
545.49	117.03
545.66	93.62
545.83	131.07
546.00	74.90
546.16	46.81
546.33	135.75
546.50	79.58
546.67	32.77
546.83	56.17
547.00	133.41
547.17	159.16
547.34	84.26
547.50	100.64
547.67	53.83
547.84	65.54
548.00	95.96
548.17	14.04
548.34	42.13
548.51	60.85
548.67	149.79
548.84	79.58
549.01	44.47
549.18	102.98
549.34	49.15
549.51	56.17
549.68	63.19
549.84	105.32
550.01	32.77
550.18	86.60
550.34	170.86
550.51	60.85
550.68	11.70
550.84	147.45
551.01	63.19
551.18	112.35
551.34	124.05
551.51	133.41
551.68	74.90
551.84	93.62
552.01	35.11
552.18	86.60
552.34	7.02
552.51	77.24
552.68	39.79
552.84	37.45
553.01	110.01
553.18	51.49
553.34	84.26
553.51	100.64
553.67	95.96
553.84	44.47
554.01	42.13
554.17	30.43
554.34	91.28
554.51	124.05
554.67	79.58
554.84	46.81
555.00	102.98
555.17	91.28
555.33	128.73
555.50	110.01
555.67	56.17
555.83	110.01
556.00	58.51
556.16	110.01
556.33	2.34
556.50	105.32
556.66	79.58
556.83	72.56
556.99	91.28
557.16	95.96
557.32	100.64
557.49	110.01
557.65	126.39
557.82	98.30
557.98	145.11
558.15	93.62
558.32	14.04
558.48	56.17
558.65	77.24
558.81	147.45
558.98	124.05
559.14	60.85
559.31	23.41
559.47	95.96
559.64	119.37
559.80	30.43
559.97	77.24
560.13	131.07
560.30	72.56
560.46	9.36
560.63	72.56
560.79	74.90
560.96	112.35
561.12	88.94
561.29	124.05
561.45	58.51
561.61	201.29
561.78	72.56
561.94	70.22
562.11	81.92
562.27	86.60
562.44	44.47
562.60	74.90
562.77	95.96
562.93	187.24
563.10	53.83
563.26	37.45
563.42	30.43
563.59	107.66
563.75	107.66
563.92	72.56
564.08	72.56
564.24	49.15
564.41	77.24
564.57	93.62
564.74	107.66
564.90	102.98
565.07	46.81
565.23	63.19
565.39	77.24
565.56	72.56
565.72	14.04
565.88	112.35
566.05	95.96
566.21	124.05
566.38	42.13
566.54	114.69
566.70	63.19
566.87	77.24
567.03	0.00
567.19	25.75
567.36	145.11
567.52	98.30
567.68	37.45
567.85	117.03
568.01	0.00
568.17	121.71
568.34	44.47
568.50	81.92
568.66	114.69
568.83	56.17
568.99	86.60
569.15	140.43
569.32	74.90
569.48	39.79
569.64	35.11
569.81	98.30
569.97	63.19
570.13	126.39
570.30	86.60
570.46	84.26
570.62	105.32
570.78	35.11
570.95	74.90
571.11	173.20
571.27	84.26
571.43	30.43
571.60	67.88
571.76	46.81
571.92	60.85
572.09	102.98
572.25	79.58
572.41	0.00
572.57	49.15
572.74	98.30
572.90	142.77
573.06	42.13
573.22	46.81
573.38	79.58
573.55	37.45
573.71	44.47
573.87	93.62
574.03	140.43
574.20	126.39
574.36	32.77
574.52	98.30
574.68	110.01
574.84	44.47
575.01	84.26
575.17	49.15
575.33	67.88
575.49	107.66
575.65	117.03
575.82	14.04
575.98	25.75
576.14	93.62
576.30	93.62
576.46	93.62
576.62	131.07
576.79	72.56
576.95	35.11
577.11	42.13
577.27	86.60
577.43	42.13
577.59	58.51
577.75	44.47
577.92	119.37
578.08	39.79
578.24	0.00
578.40	95.96
578.56	72.56
578.72	81.92
578.88	56.17
579.04	51.49
579.21	102.98
579.37	4.68
579.53	25.75
579.69	138.09
579.85	39.79
580.01	9.36
580.17	65.54
580.33	16.38
580.49	81.92
580.65	32.77
580.82	9.36
580.98	56.17
581.14	44.47
581.30	67.88
581.46	159.16
581.62	63.19
581.78	46.81
581.94	77.24
582.10	72.56
582.26	37.45
582.42	58.51
582.58	112.35
582.74	58.51
582.90	65.54
583.06	91.28
583.22	124.05
583.38	46.81
583.54	93.62
583.70	138.09
583.86	35.11
584.02	72.56
584.18	91.28
584.34	74.90
584.50	42.13
584.66	37.45
584.82	100.64
584.98	91.28
585.14	88.94
585.30	102.98
585.46	74.90
585.62	39.79
585.78	114.69
585.94	72.56
586.10	63.19
586.26	88.94
586.42	77.24
586.58	25.75
586.74	100.64
586.90	58.51
587.06	79.58
587.22	152.13
587.38	124.05
587.54	30.43
587.70	124.05
587.86	86.60
588.02	81.92
588.18	63.19
588.34	128.73
588.49	25.75
588.65	77.24
588.81	53.83
588.97	81.92
589.13	7.02
589.29	131.07
589.45	93.62
589.61	95.96
589.77	53.83
589.93	124.05
590.08	9.36
590.24	142.77
590.40	72.56
590.56	81.92
590.72	56.17
590.88	67.88
591.04	28.09
591.20	65.54
591.35	117.03
591.51	25.75
591.67	72.56
591.83	0.00
591.99	60.85
592.15	107.66
592.31	88.94
592.46	63.19
592.62	30.43
592.78	53.83
592.94	88.94
593.10	28.09
593.26	30.43
593.41	70.22
593.57	84.26
593.73	21.06
593.89	93.62
594.05	35.11
594.20	56.17
594.36	9.36
594.52	42.13
594.68	112.35
594.84	81.92
594.99	77.24
595.15	84.26
595.31	77.24
595.47	117.03
595.62	14.04
595.78	65.54
595.94	44.47
596.10	28.09
596.25	91.28
596.41	84.26
596.57	65.54
596.73	58.51
596.88	145.11
597.04	107.66
597.20	107.66
597.36	147.45
597.51	72.56
597.67	7.02
597.83	44.47
597.99	60.85
598.14	100.64
598.30	88.94
598.46	102.98
598.61	67.88
598.77	32.77
598.93	112.35
599.09	30.43
599.24	14.04
599.40	46.81
599.56	98.30
599.71	23.41
599.87	65.54
600.03	4.68
600.18	0.00
600.34	95.96
600.50	0.00
600.65	105.32
600.81	93.62
600.97	35.11
601.12	88.94
601.28	86.60
601.44	67.88
601.59	60.85
601.75	51.49
601.91	14.04
602.06	30.43
602.22	25.75
602.37	159.16
602.53	91.28
602.69	67.88
602.84	84.26
603.00	91.28
603.16	147.45
603.31	25.75
603.47	63.19
603.62	105.32
603.78	81.92
603.94	37.45
604.09	91.28
604.25	145.11
604.40	21.06
604.56	98.30
604.71	58.51
604.87	16.38
605.03	124.05
605.18	58.51
605.34	126.39
605.49	63.19
605.65	84.26
605.80	49.15
605.96	117.03
606.12	28.09
606.27	58.51
606.43	67.88
606.58	65.54
606.74	32.77
606.89	114.69
607.05	74.90
607.20	72.56
607.36	58.51
607.51	39.79
607.67	98.30
607.82	42.13
607.98	67.88
608.13	67.88
608.29	25.75
608.44	67.88
608.60	0.00
608.75	77.24
608.91	58.51
609.06	58.51
609.22	112.35
609.37	88.94
609.53	44.47
609.68	30.43
609.84	46.81
609.99	11.70
610.15	0.00
610.30	100.64
610.46	79.58
610.61	77.24
610.76	51.49
610.92	21.06
611.07	72.56
611.23	32.77
611.38	98.30
611.54	35.11
611.69	49.15
611.84	81.92
612.00	58.51
612.15	56.17
612.31	67.88
612.46	74.90
612.62	37.45
612.77	72.56
612.92	0.00
613.08	65.54
613.23	107.66
613.39	79.58
613.54	121.71
613.69	81.92
613.85	72.56
614.00	30.43
614.15	56.17
614.31	65.54
614.46	7.02
614.62	37.45
614.77	63.19
614.92	51.49
615.08	7.02
615.23	25.75
615.38	46.81
615.54	32.77
615.69	133.41
615.84	81.92
616.00	81.92
616.15	98.30
616.30	91.28
616.46	0.00
616.61	16.38
616.76	102.98
616.92	74.90
617.07	11.70
617.22	49.15
617.37	105.32
617.53	51.49
617.68	51.49
617.83	30.43
617.99	7.02
618.14	21.06
618.29	0.00
618.45	67.88
618.60	72.56
618.75	44.47
618.90	49.15
619.06	63.19
619.21	168.52
619.36	128.73
619.51	114.69
619.67	133.41
619.82	95.96
619.97	32.77
620.12	23.41
620.28	86.60
620.43	39.79
620.58	39.79
620.73	51.49
620.89	7.02
621.04	58.51
621.19	16.38
621.34	63.19
621.49	79.58
621.65	70.22
621.80	56.17
621.95	74.90
622.10	72.56
622.25	53.83
622.41	53.83
622.56	2.34
622.71	63.19
622.86	70.22
623.01	93.62
623.16	42.13
623.32	114.69
623.47	56.17
623.62	39.79
623.77	124.05
623.92	51.49
624.07	46.81
624.23	65.54
624.38	91.28
624.53	7.02
624.68	16.38
624.83	7.02
624.98	35.11
625.13	142.77
625.29	42.13
625.44	84.26
625.59	60.85
625.74	30.43
625.89	7.02
626.04	67.88
626.19	25.75
626.34	142.77
626.49	86.60
626.65	72.56
626.80	23.41
626.95	28.09
627.10	114.69
627.25	4.68
627.40	42.13
627.55	53.83
627.70	37.45
627.85	58.51
628.00	112.35
628.15	67.88
628.30	67.88
628.45	32.77
628.60	37.45
628.76	23.41
628.91	100.64
629.06	163.84
629.21	0.00
629.36	74.90
629.51	131.07
629.66	14.04
629.81	65.54
629.96	56.17
630.11	18.72
630.26	121.71
630.41	9.36
630.56	100.64
630.71	51.49
630.86	98.30
631.01	112.35
631.16	124.05
631.31	56.17
631.46	58.51
631.61	51.49
631.76	2.34
631.91	98.30
632.06	88.94
632.21	0.00
632.36	112.35
632.51	49.15
632.66	44.47
632.81	35.11
632.96	86.60
633.10	37.45
633.25	37.45
633.40	56.17
633.55	117.03
633.70	7.02
633.85	42.13
634.00	70.22
634.15	16.38
634.30	44.47
634.45	0.00
634.60	11.70
634.75	21.06
634.90	46.81
635.05	56.17
635.19	0.00
635.34	117.03
635.49	51.49
635.64	7.02
635.79	28.09
635.94	79.58
636.09	63.19
636.24	93.62
636.39	77.24
636.53	100.64
636.68	67.88
636.83	44.47
636.98	14.04
637.13	35.11
637.28	7.02
637.43	102.98
637.57	84.26
637.72	79.58
637.87	95.96
638.02	37.45
638.17	0.00
638.32	46.81
638.46	65.54
638.61	95.96
638.76	0.00
638.91	4.68
639.06	0.00
639.20	107.66
639.35	105.32
639.50	25.75
639.65	65.54
639.80	112.35
639.94	67.88
640.09	77.24
640.24	72.56
640.39	77.24
640.54	49.15
640.68	7.02
640.83	7.02
640.98	110.01
641.13	25.75
641.27	21.06
641.42	25.75
641.57	23.41
641.72	58.51
641.86	74.90
642.01	0.00
642.16	37.45
642.31	100.64
642.45	91.28
642.60	60.85
642.75	117.03
642.90	131.07
643.04	135.75
643.19	74.90
643.34	21.06
643.48	65.54
643.63	102.98
643.78	21.06
643.93	0.00
644.07	49.15
644.22	11.70
644.37	14.04
644.51	110.01
644.66	65.54
644.81	0.00
644.95	67.88
645.10	117.03
645.25	0.00
645.39	4.68
645.54	95.96
645.69	42.13
645.83	67.88
645.98	25.75
646.13	25.75
646.27	0.00
646.42	35.11
646.57	110.01
646.71	28.09
646.86	121.71
647.00	98.30
647.15	60.85
647.30	0.00
647.44	42.13
647.59	86.60
647.74	65.54
647.88	30.43
648.03	79.58
648.17	63.19
648.32	28.09
648.47	81.92
648.61	49.15
648.76	2.34
648.90	0.00
649.05	42.13
649.20	28.09
649.34	65.54
649.49	79.58
649.63	72.56
649.78	9.36
649.92	88.94
650.07	42.13
650.21	67.88
650.36	44.47
650.51	9.36
650.65	107.66
650.80	0.00
650.94	49.15
651.09	35.11
651.23	42.13
651.38	77.24
651.52	37.45
651.67	51.49
651.81	77.24
651.96	70.22
652.10	46.81
652.25	63.19
652.39	140.43
652.54	67.88
652.68	60.85
652.83	74.90
652.97	91.28
653.12	9.36
653.26	63.19
653.41	95.96
653.55	0.00
653.70	35.11
653.84	14.04
653.99	58.51
654.13	49.15
654.27	133.41
654.42	100.64
654.56	21.06
654.71	86.60
654.85	0.00
655.00	65.54
655.14	110.01
655.29	49.15
655.43	53.83
655.57	4.68
655.72	0.00
655.86	67.88
656.01	114.69
656.15	42.13
656.30	9.36
656.44	56.17
656.58	161.50
656.73	0.00
656.87	0.00
657.01	105.32
657.16	70.22
657.30	4.68
657.45	23.41
657.59	60.85
657.73	86.60
657.88	37.45
658.02	44.47
658.16	49.15
658.31	32.77
658.45	39.79
658.60	70.22
658.74	25.75
658.88	79.58
659.03	70.22
659.17	49.15
659.31	79.58
659.46	32.77
659.60	23.41
659.74	74.90
659.89	77.24
660.03	56.17
660.17	77.24
660.32	86.60
660.46	133.41
660.60	86.60
660.74	124.05
660.89	84.26
661.03	88.94
661.17	7.02
661.32	65.54
661.46	35.11
661.60	23.41
661.74	0.00
661.89	18.72
662.03	28.09
662.17	67.88
662.31	21.06
662.46	53.83
662.60	58.51
662.74	86.60
662.88	0.00
663.03	107.66
663.17	70.22
663.31	18.72
663.45	84.26
663.60	25.75
663.74	93.62
663.88	135.75
664.02	65.54
664.17	23.41
664.31	42.13
664.45	60.85
664.59	84.26
664.73	65.54
664.88	88.94
665.02	79.58
665.16	35.11
665.30	46.81
665.44	53.83
665.59	49.15
665.73	79.58
665.87	72.56
666.01	18.72
666.15	21.06
666.29	51.49
666.44	49.15
666.58	88.94
666.72	110.01
666.86	81.92
667.00	70.22
667.14	46.81
667.28	84.26
667.43	21.06
667.57	46.81
667.71	72.56
667.85	18.72
667.99	53.83
668.13	79.58
668.27	37.45
668.41	53.83
668.56	25.75
668.70	11.70
668.84	86.60
668.98	49.15
669.12	28.09
669.26	30.43
669.40	39.79
669.54	119.37
669.68	49.15
669.82	14.04
669.96	112.35
670.10	70.22
670.25	18.72
670.39	32.77
670.53	39.79
670.67	44.47
670.81	42.13
670.95	23.41
671.09	25.75
671.23	58.51
671.37	60.85
671.51	49.15
671.65	63.19
671.79	42.13
671.93	9.36
672.07	51.49
672.21	91.28
672.35	98.30
672.49	25.75
672.63	107.66
672.77	63.19
672.91	30.43
673.05	102.98
673.19	98.30
673.33	53.83
673.47	58.51
673.61	46.81
673.75	28.09
673.89	42.13
674.03	65.54
674.17	42.13
674.31	46.81
674.45	28.09
674.59	49.15
674.73	56.17
674.87	51.49
675.01	42.13
675.15	88.94
675.29	86.60
675.43	56.17
675.56	74.90
675.70	32.77
675.84	70.22
675.98	105.32
676.12	79.58
676.26	0.00
676.40	23.41
676.54	49.15
676.68	67.88
676.82	28.09
676.96	51.49
677.10	0.00
677.23	70.22
677.37	14.04
677.51	135.75
677.65	58.51
677.79	98.30
677.93	42.13
678.07	49.15
678.21	58.51
678.34	37.45
678.48	51.49
678.62	58.51
678.76	135.75
678.90	25.75
679.04	4.68
679.18	81.92
679.31	67.88
679.45	58.51
679.59	60.85
679.73	2.34
679.87	11.70
680.00	30.43
680.14	88.94
680.28	102.98
680.42	49.15
680.56	0.00
680.70	37.45
680.83	65.54
680.97	105.32
681.11	100.64
681.25	72.56
681.39	53.83
681.52	4.68
681.66	0.00
681.80	0.00
681.94	42.13
682.07	65.54
682.21	63.19
682.35	114.69
682.49	51.49
682.62	77.24
682.76	88.94
682.90	49.15
683.04	70.22
683.17	72.56
683.31	39.79
683.45	60.85
683.59	72.56
683.72	74.90
683.86	0.00
684.00	0.00
684.13	67.88
684.27	86.60
684.41	30.43
684.55	37.45
684.68	16.38
684.82	37.45
684.96	0.00
685.09	95.96
685.23	72.56
685.37	65.54
685.50	112.35
685.64	16.38
685.78	0.00
685.91	88.94
686.05	49.15
686.19	16.38
686.32	16.38
686.46	18.72
686.60	84.26
686.73	67.88
686.87	126.39
687.01	4.68
687.14	81.92
687.28	88.94
687.42	30.43
687.55	53.83
687.69	49.15
687.82	25.75
687.96	86.60
688.10	0.00
688.23	93.62
688.37	88.94
688.50	30.43
688.64	53.83
688.78	79.58
688.91	28.09
689.05	51.49
689.18	72.56
689.32	0.00
689.46	32.77
689.59	9.36
689.73	51.49
689.86	39.79
690.00	56.17
690.13	86.60
690.27	58.51
690.41	18.72
690.54	14.04
690.68	4.68
690.81	44.47
690.95	63.19
691.08	23.41
691.22	63.19
691.35	88.94
691.49	0.00
691.62	53.83
691.76	28.09
691.89	81.92
692.03	37.45
692.16	46.81
692.30	42.13
692.43	126.39
692.57	23.41
692.70	91.28
692.84	0.00
692.97	9.36
693.11	0.00
693.24	149.79
693.38	9.36
693.51	65.54
693.65	86.60
693.78	0.00
693.92	0.00
694.05	0.00
694.19	25.75
694.32	0.00
694.45	32.77
694.59	63.19
694.72	23.41
694.86	21.06
694.99	0.00
695.13	21.06
695.26	18.72
695.39	51.49
695.53	131.07
695.66	60.85
695.80	42.13
695.93	9.36
696.07	14.04
696.20	4.68
696.33	91.28
696.47	18.72
696.60	9.36
696.73	0.00
696.87	11.70
697.00	0.00
697.14	32.77
697.27	65.54
697.40	30.43
697.54	0.00
697.67	37.45
697.80	28.09
697.94	23.41
698.07	46.81
698.21	74.90
698.34	44.47
698.47	42.13
698.61	93.62
698.74	65.54
698.87	30.43
699.01	16.38
699.14	0.00
699.27	37.45
699.40	117.03
699.54	93.62
699.67	0.00
699.80	14.04
699.94	42.13
700.07	53.83
700.20	18.72
700.34	121.71
700.47	0.00
700.60	0.00
700.73	0.00
700.87	93.62
701.00	0.00
701.13	32.77
701.26	81.92
701.40	67.88
701.53	21.06
701.66	35.11
701.79	0.00
701.93	14.04
702.06	0.00
702.19	32.77
702.32	0.00
702.46	23.41
702.59	51.49
702.72	14.04
702.85	18.72
702.99	39.79
703.12	0.00
703.25	110.01
703.38	21.06
703.51	23.41
703.65	77.24
703.78	0.00
703.91	0.00
704.04	30.43
704.17	4.68
704.31	46.81
704.44	46.81
704.57	46.81
704.70	18.72
704.83	128.73
704.96	60.85
705.10	51.49
705.23	0.00
>>>>>End Processed Spectral Data<<<<<
