SpectraSuite Data File
++++++++++++++++++++++++++++++++++++
Date: Fri Oct 04 12:13:42 GMT-05:00 2013
User: price-jones
Dark Spectrum Present: No
Reference Spectrum Present: No
Number of Sampled Component Spectra: 1
Spectrometers: USB2+H05261
Integration Time (usec): 10000 (USB2+H05261)
Spectra Averaged: 1 (USB2+H05261)
Boxcar Smoothing: 0 (USB2+H05261)
Correct for Electrical Dark: No (USB2+H05261)
Strobe/Lamp Enabled: No (USB2+H05261)
Correct for Detector Non-linearity: No (USB2+H05261)
Correct for Stray Light: No (USB2+H05261)
Number of Pixels in Processed Spectrum: 2048
>>>>>Begin Processed Spectral Data<<<<<
365.73	0.00
365.92	0.00
366.12	0.00
366.32	0.00
366.52	0.00
366.72	0.00
366.91	0.00
367.11	0.00
367.31	0.00
367.51	0.00
367.70	0.00
367.90	0.00
368.10	0.00
368.30	0.00
368.49	0.00
368.69	0.00
368.89	0.00
369.09	0.00
369.28	0.00
369.48	0.00
369.68	0.00
369.87	0.00
370.07	0.00
370.27	0.00
370.47	0.00
370.66	0.00
370.86	0.00
371.06	0.00
371.25	0.00
371.45	0.00
371.65	0.00
371.84	14.04
372.04	42.13
372.24	0.00
372.44	23.41
372.63	18.72
372.83	0.00
373.03	0.00
373.22	46.81
373.42	0.00
373.62	21.06
373.81	0.00
374.01	23.41
374.21	16.38
374.40	86.60
374.60	107.66
374.79	16.38
374.99	2.34
375.19	30.43
375.38	0.00
375.58	0.00
375.78	60.85
375.97	49.15
376.17	74.90
376.37	70.22
376.56	0.00
376.76	105.32
376.95	107.66
377.15	0.00
377.35	0.00
377.54	4.68
377.74	21.06
377.93	37.45
378.13	4.68
378.33	84.26
378.52	37.45
378.72	84.26
378.91	25.75
379.11	0.00
379.31	2.34
379.50	77.24
379.70	25.75
379.89	32.77
380.09	28.09
380.28	0.00
380.48	81.92
380.68	9.36
380.87	56.17
381.07	53.83
381.26	4.68
381.46	0.00
381.65	2.34
381.85	23.41
382.04	0.00
382.24	0.00
382.43	70.22
382.63	79.58
382.83	37.45
383.02	67.88
383.22	74.90
383.41	23.41
383.61	0.00
383.80	79.58
384.00	51.49
384.19	86.60
384.39	2.34
384.58	0.00
384.78	21.06
384.97	4.68
385.17	37.45
385.36	37.45
385.56	11.70
385.75	49.15
385.95	0.00
386.14	65.54
386.34	39.79
386.53	0.00
386.72	42.13
386.92	56.17
387.11	84.26
387.31	0.00
387.50	44.47
387.70	4.68
387.89	16.38
388.09	0.00
388.28	0.00
388.48	39.79
388.67	0.00
388.86	23.41
389.06	28.09
389.25	95.96
389.45	39.79
389.64	14.04
389.84	35.11
390.03	11.70
390.22	42.13
390.42	91.28
390.61	60.85
390.81	21.06
391.00	84.26
391.19	0.00
391.39	39.79
391.58	2.34
391.78	39.79
391.97	28.09
392.16	18.72
392.36	7.02
392.55	58.51
392.75	0.00
392.94	81.92
393.13	2.34
393.33	23.41
393.52	95.96
393.71	0.00
393.91	0.00
394.10	0.00
394.29	0.00
394.49	58.51
394.68	21.06
394.88	0.00
395.07	63.19
395.26	60.85
395.46	35.11
395.65	0.00
395.84	42.13
396.04	67.88
396.23	18.72
396.42	58.51
396.62	65.54
396.81	9.36
397.00	0.00
397.19	112.35
397.39	79.58
397.58	44.47
397.77	49.15
397.97	23.41
398.16	77.24
398.35	37.45
398.55	0.00
398.74	32.77
398.93	0.00
399.12	0.00
399.32	72.56
399.51	44.47
399.70	63.19
399.90	25.75
400.09	65.54
400.28	79.58
400.47	65.54
400.67	79.58
400.86	14.04
401.05	16.38
401.24	28.09
401.44	86.60
401.63	44.47
401.82	42.13
402.01	49.15
402.21	35.11
402.40	63.19
402.59	58.51
402.78	60.85
402.97	0.00
403.17	39.79
403.36	0.00
403.55	32.77
403.74	133.41
403.93	126.39
404.13	0.00
404.32	35.11
404.51	11.70
404.70	46.81
404.89	70.22
405.09	21.06
405.28	81.92
405.47	0.00
405.66	0.00
405.85	91.28
406.05	95.96
406.24	0.00
406.43	0.00
406.62	9.36
406.81	58.51
407.00	37.45
407.20	23.41
407.39	0.00
407.58	0.00
407.77	70.22
407.96	0.00
408.15	0.00
408.34	72.56
408.54	21.06
408.73	81.92
408.92	67.88
409.11	25.75
409.30	0.00
409.49	0.00
409.68	0.00
409.87	37.45
410.07	67.88
410.26	86.60
410.45	42.13
410.64	0.00
410.83	35.11
411.02	7.02
411.21	114.69
411.40	72.56
411.59	91.28
411.78	65.54
411.98	65.54
412.17	23.41
412.36	0.00
412.55	7.02
412.74	88.94
412.93	39.79
413.12	21.06
413.31	0.00
413.50	32.77
413.69	49.15
413.88	79.58
414.07	49.15
414.26	74.90
414.45	135.75
414.64	0.00
414.83	77.24
415.02	70.22
415.22	74.90
415.41	46.81
415.60	35.11
415.79	0.00
415.98	44.47
416.17	67.88
416.36	4.68
416.55	81.92
416.74	77.24
416.93	39.79
417.12	0.00
417.31	23.41
417.50	63.19
417.69	11.70
417.88	67.88
418.07	74.90
418.26	0.00
418.45	42.13
418.64	0.00
418.83	49.15
419.02	67.88
419.21	44.47
419.39	107.66
419.58	53.83
419.77	25.75
419.96	60.85
420.15	39.79
420.34	51.49
420.53	44.47
420.72	74.90
420.91	46.81
421.10	35.11
421.29	49.15
421.48	21.06
421.67	37.45
421.86	30.43
422.05	49.15
422.24	110.01
422.43	49.15
422.61	37.45
422.80	51.49
422.99	0.00
423.18	49.15
423.37	9.36
423.56	58.51
423.75	23.41
423.94	7.02
424.13	65.54
424.32	32.77
424.50	28.09
424.69	16.38
424.88	44.47
425.07	140.43
425.26	63.19
425.45	0.00
425.64	0.00
425.83	0.00
426.01	0.00
426.20	18.72
426.39	37.45
426.58	16.38
426.77	42.13
426.96	70.22
427.15	49.15
427.33	35.11
427.52	58.51
427.71	37.45
427.90	0.00
428.09	79.58
428.28	0.00
428.46	16.38
428.65	79.58
428.84	63.19
429.03	84.26
429.22	98.30
429.40	9.36
429.59	58.51
429.78	44.47
429.97	25.75
430.16	74.90
430.34	60.85
430.53	53.83
430.72	67.88
430.91	21.06
431.10	56.17
431.28	2.34
431.47	23.41
431.66	35.11
431.85	39.79
432.03	14.04
432.22	0.00
432.41	46.81
432.60	28.09
432.79	37.45
432.97	65.54
433.16	0.00
433.35	23.41
433.54	30.43
433.72	74.90
433.91	14.04
434.10	0.00
434.28	86.60
434.47	7.02
434.66	0.00
434.85	0.00
435.03	28.09
435.22	21.06
435.41	0.00
435.59	72.56
435.78	0.00
435.97	51.49
436.16	32.77
436.34	21.06
436.53	95.96
436.72	21.06
436.90	86.60
437.09	0.00
437.28	32.77
437.46	49.15
437.65	88.94
437.84	30.43
438.02	0.00
438.21	28.09
438.40	70.22
438.58	46.81
438.77	35.11
438.96	105.32
439.14	35.11
439.33	49.15
439.52	11.70
439.70	39.79
439.89	77.24
440.08	84.26
440.26	0.00
440.45	86.60
440.63	39.79
440.82	35.11
441.01	56.17
441.19	133.41
441.38	35.11
441.57	60.85
441.75	42.13
441.94	32.77
442.12	86.60
442.31	28.09
442.50	37.45
442.68	60.85
442.87	37.45
443.05	37.45
443.24	32.77
443.43	88.94
443.61	119.37
443.80	28.09
443.98	88.94
444.17	0.00
444.35	86.60
444.54	126.39
444.73	44.47
444.91	67.88
445.10	0.00
445.28	21.06
445.47	37.45
445.65	117.03
445.84	46.81
446.02	28.09
446.21	86.60
446.39	128.73
446.58	81.92
446.77	112.35
446.95	30.43
447.14	91.28
447.32	60.85
447.51	67.88
447.69	51.49
447.88	46.81
448.06	84.26
448.25	53.83
448.43	53.83
448.62	16.38
448.80	4.68
448.99	70.22
449.17	7.02
449.36	39.79
449.54	0.00
449.73	67.88
449.91	81.92
450.10	46.81
450.28	37.45
450.46	46.81
450.65	77.24
450.83	77.24
451.02	32.77
451.20	65.54
451.39	56.17
451.57	30.43
451.76	100.64
451.94	49.15
452.13	65.54
452.31	67.88
452.49	18.72
452.68	21.06
452.86	67.88
453.05	37.45
453.23	84.26
453.42	51.49
453.60	56.17
453.78	107.66
453.97	0.00
454.15	58.51
454.34	72.56
454.52	53.83
454.70	124.05
454.89	114.69
455.07	58.51
455.26	37.45
455.44	49.15
455.62	107.66
455.81	9.36
455.99	91.28
456.17	51.49
456.36	86.60
456.54	9.36
456.73	28.09
456.91	11.70
457.09	21.06
457.28	44.47
457.46	0.00
457.64	39.79
457.83	60.85
458.01	60.85
458.19	65.54
458.38	18.72
458.56	7.02
458.74	25.75
458.93	65.54
459.11	56.17
459.29	28.09
459.48	72.56
459.66	0.00
459.84	30.43
460.03	163.84
460.21	37.45
460.39	65.54
460.57	9.36
460.76	60.85
460.94	25.75
461.12	42.13
461.31	32.77
461.49	42.13
461.67	126.39
461.85	11.70
462.04	67.88
462.22	105.32
462.40	35.11
462.59	0.00
462.77	44.47
462.95	46.81
463.13	42.13
463.32	14.04
463.50	107.66
463.68	81.92
463.86	44.47
464.05	93.62
464.23	0.00
464.41	49.15
464.59	0.00
464.78	39.79
464.96	9.36
465.14	44.47
465.32	18.72
465.50	39.79
465.69	32.77
465.87	21.06
466.05	102.98
466.23	74.90
466.41	23.41
466.60	93.62
466.78	98.30
466.96	14.04
467.14	44.47
467.32	32.77
467.51	28.09
467.69	49.15
467.87	49.15
468.05	91.28
468.23	114.69
468.41	72.56
468.60	93.62
468.78	88.94
468.96	114.69
469.14	39.79
469.32	149.79
469.50	30.43
469.69	42.13
469.87	37.45
470.05	70.22
470.23	42.13
470.41	84.26
470.59	44.47
470.77	18.72
470.95	35.11
471.14	46.81
471.32	60.85
471.50	58.51
471.68	65.54
471.86	74.90
472.04	44.47
472.22	0.00
472.40	49.15
472.58	51.49
472.77	102.98
472.95	72.56
473.13	93.62
473.31	79.58
473.49	107.66
473.67	102.98
473.85	74.90
474.03	91.28
474.21	95.96
474.39	56.17
474.57	77.24
474.75	79.58
474.93	102.98
475.12	21.06
475.30	46.81
475.48	53.83
475.66	51.49
475.84	65.54
476.02	56.17
476.20	21.06
476.38	72.56
476.56	42.13
476.74	49.15
476.92	49.15
477.10	21.06
477.28	84.26
477.46	44.47
477.64	25.75
477.82	39.79
478.00	74.90
478.18	11.70
478.36	23.41
478.54	2.34
478.72	56.17
478.90	42.13
479.08	46.81
479.26	30.43
479.44	86.60
479.62	28.09
479.80	30.43
479.98	93.62
480.16	100.64
480.34	53.83
480.52	72.56
480.70	72.56
480.88	30.43
481.06	67.88
481.24	7.02
481.41	39.79
481.59	126.39
481.77	37.45
481.95	56.17
482.13	23.41
482.31	44.47
482.49	23.41
482.67	84.26
482.85	124.05
483.03	67.88
483.21	0.00
483.39	131.07
483.57	110.01
483.74	4.68
483.92	37.45
484.10	51.49
484.28	28.09
484.46	149.79
484.64	63.19
484.82	49.15
485.00	86.60
485.18	7.02
485.35	39.79
485.53	81.92
485.71	51.49
485.89	30.43
486.07	65.54
486.25	7.02
486.43	81.92
486.61	86.60
486.78	119.37
486.96	53.83
487.14	93.62
487.32	49.15
487.50	25.75
487.68	51.49
487.85	2.34
488.03	25.75
488.21	51.49
488.39	21.06
488.57	53.83
488.75	60.85
488.92	128.73
489.10	91.28
489.28	35.11
489.46	65.54
489.64	16.38
489.81	0.00
489.99	25.75
490.17	0.00
490.35	44.47
490.53	74.90
490.70	77.24
490.88	81.92
491.06	88.94
491.24	112.35
491.41	67.88
491.59	100.64
491.77	56.17
491.95	42.13
492.13	138.09
492.30	95.96
492.48	128.73
492.66	81.92
492.84	102.98
493.01	140.43
493.19	44.47
493.37	72.56
493.54	46.81
493.72	42.13
493.90	65.54
494.08	58.51
494.25	128.73
494.43	16.38
494.61	84.26
494.79	60.85
494.96	63.19
495.14	56.17
495.32	107.66
495.49	117.03
495.67	74.90
495.85	124.05
496.02	84.26
496.20	9.36
496.38	138.09
496.55	86.60
496.73	152.13
496.91	140.43
497.09	105.32
497.26	107.66
497.44	93.62
497.62	21.06
497.79	70.22
497.97	93.62
498.14	60.85
498.32	133.41
498.50	35.11
498.67	166.18
498.85	51.49
499.03	77.24
499.20	100.64
499.38	119.37
499.56	32.77
499.73	44.47
499.91	74.90
500.08	72.56
500.26	74.90
500.44	37.45
500.61	72.56
500.79	100.64
500.97	124.05
501.14	79.58
501.32	102.98
501.49	63.19
501.67	72.56
501.84	35.11
502.02	56.17
502.20	98.30
502.37	102.98
502.55	65.54
502.72	74.90
502.90	124.05
503.07	110.01
503.25	70.22
503.43	142.77
503.60	100.64
503.78	88.94
503.95	56.17
504.13	91.28
504.30	63.19
504.48	72.56
504.65	35.11
504.83	91.28
505.01	105.32
505.18	86.60
505.36	74.90
505.53	37.45
505.71	63.19
505.88	46.81
506.06	63.19
506.23	23.41
506.41	95.96
506.58	65.54
506.76	28.09
506.93	88.94
507.11	84.26
507.28	86.60
507.46	11.70
507.63	0.00
507.81	65.54
507.98	79.58
508.16	110.01
508.33	91.28
508.50	100.64
508.68	81.92
508.85	79.58
509.03	110.01
509.20	170.86
509.38	107.66
509.55	49.15
509.73	0.00
509.90	72.56
510.08	67.88
510.25	107.66
510.42	88.94
510.60	42.13
510.77	133.41
510.95	159.16
511.12	63.19
511.30	163.84
511.47	37.45
511.64	95.96
511.82	138.09
511.99	77.24
512.17	72.56
512.34	126.39
512.51	112.35
512.69	58.51
512.86	147.45
513.04	35.11
513.21	58.51
513.38	53.83
513.56	72.56
513.73	28.09
513.90	74.90
514.08	86.60
514.25	44.47
514.43	138.09
514.60	77.24
514.77	93.62
514.95	88.94
515.12	25.75
515.29	60.85
515.47	51.49
515.64	95.96
515.81	124.05
515.99	114.69
516.16	70.22
516.33	91.28
516.51	93.62
516.68	117.03
516.85	35.11
517.03	74.90
517.20	28.09
517.37	102.98
517.54	110.01
517.72	35.11
517.89	46.81
518.06	152.13
518.24	107.66
518.41	88.94
518.58	58.51
518.75	72.56
518.93	74.90
519.10	105.32
519.27	28.09
519.45	86.60
519.62	114.69
519.79	93.62
519.96	114.69
520.14	77.24
520.31	56.17
520.48	81.92
520.65	86.60
520.83	72.56
521.00	84.26
521.17	138.09
521.34	110.01
521.52	58.51
521.69	44.47
521.86	86.60
522.03	91.28
522.20	74.90
522.38	25.75
522.55	84.26
522.72	81.92
522.89	117.03
523.07	107.66
523.24	51.49
523.41	95.96
523.58	91.28
523.75	70.22
523.92	86.60
524.10	79.58
524.27	114.69
524.44	79.58
524.61	98.30
524.78	154.48
524.96	107.66
525.13	138.09
525.30	135.75
525.47	112.35
525.64	112.35
525.81	60.85
525.98	114.69
526.16	74.90
526.33	25.75
526.50	42.13
526.67	84.26
526.84	30.43
527.01	21.06
527.18	65.54
527.36	25.75
527.53	65.54
527.70	67.88
527.87	100.64
528.04	67.88
528.21	154.48
528.38	37.45
528.55	79.58
528.72	53.83
528.89	107.66
529.07	121.71
529.24	102.98
529.41	67.88
529.58	79.58
529.75	79.58
529.92	56.17
530.09	81.92
530.26	84.26
530.43	133.41
530.60	84.26
530.77	135.75
530.94	0.00
531.11	63.19
531.28	74.90
531.46	79.58
531.63	37.45
531.80	126.39
531.97	117.03
532.14	81.92
532.31	91.28
532.48	77.24
532.65	74.90
532.82	81.92
532.99	95.96
533.16	138.09
533.33	100.64
533.50	86.60
533.67	39.79
533.84	51.49
534.01	39.79
534.18	79.58
534.35	117.03
534.52	121.71
534.69	154.48
534.86	14.04
535.03	159.16
535.20	95.96
535.37	91.28
535.54	152.13
535.71	79.58
535.88	39.79
536.05	91.28
536.22	93.62
536.38	74.90
536.55	42.13
536.72	121.71
536.89	131.07
537.06	81.92
537.23	86.60
537.40	170.86
537.57	124.05
537.74	35.11
537.91	110.01
538.08	95.96
538.25	0.00
538.42	51.49
538.59	58.51
538.75	42.13
538.92	161.50
539.09	131.07
539.26	63.19
539.43	100.64
539.60	88.94
539.77	72.56
539.94	60.85
540.11	100.64
540.28	102.98
540.44	98.30
540.61	91.28
540.78	74.90
540.95	58.51
541.12	147.45
541.29	49.15
541.46	117.03
541.62	53.83
541.79	23.41
541.96	70.22
542.13	107.66
542.30	74.90
542.47	135.75
542.63	102.98
542.80	187.24
542.97	95.96
543.14	25.75
543.31	98.30
543.48	77.24
543.64	28.09
543.81	93.62
543.98	86.60
544.15	46.81
544.32	138.09
544.48	98.30
544.65	81.92
544.82	105.32
544.99	135.75
545.16	110.01
545.32	79.58
545.49	4.68
545.66	23.41
545.83	65.54
546.00	74.90
546.16	72.56
546.33	32.77
546.50	0.00
546.67	51.49
546.83	112.35
547.00	81.92
547.17	67.88
547.34	74.90
547.50	100.64
547.67	88.94
547.84	56.17
548.00	67.88
548.17	56.17
548.34	49.15
548.51	37.45
548.67	86.60
548.84	112.35
549.01	110.01
549.18	88.94
549.34	95.96
549.51	77.24
549.68	140.43
549.84	102.98
550.01	84.26
550.18	86.60
550.34	81.92
550.51	131.07
550.68	102.98
550.84	56.17
551.01	9.36
551.18	140.43
551.34	81.92
551.51	84.26
551.68	84.26
551.84	128.73
552.01	25.75
552.18	70.22
552.34	112.35
552.51	93.62
552.68	81.92
552.84	81.92
553.01	124.05
553.18	131.07
553.34	98.30
553.51	74.90
553.67	110.01
553.84	95.96
554.01	100.64
554.17	98.30
554.34	107.66
554.51	56.17
554.67	32.77
554.84	117.03
555.00	159.16
555.17	102.98
555.33	37.45
555.50	16.38
555.67	98.30
555.83	72.56
556.00	159.16
556.16	182.56
556.33	72.56
556.50	77.24
556.66	102.98
556.83	74.90
556.99	65.54
557.16	21.06
557.32	117.03
557.49	74.90
557.65	60.85
557.82	72.56
557.98	88.94
558.15	35.11
558.32	63.19
558.48	39.79
558.65	79.58
558.81	121.71
558.98	32.77
559.14	142.77
559.31	105.32
559.47	49.15
559.64	81.92
559.80	60.85
559.97	100.64
560.13	95.96
560.30	63.19
560.46	107.66
560.63	46.81
560.79	72.56
560.96	149.79
561.12	37.45
561.29	81.92
561.45	56.17
561.61	98.30
561.78	182.56
561.94	107.66
562.11	149.79
562.27	93.62
562.44	35.11
562.60	147.45
562.77	49.15
562.93	88.94
563.10	58.51
563.26	126.39
563.42	84.26
563.59	105.32
563.75	81.92
563.92	145.11
564.08	177.88
564.24	128.73
564.41	102.98
564.57	98.30
564.74	67.88
564.90	30.43
565.07	56.17
565.23	28.09
565.39	100.64
565.56	58.51
565.72	128.73
565.88	51.49
566.05	58.51
566.21	32.77
566.38	23.41
566.54	28.09
566.70	95.96
566.87	140.43
567.03	81.92
567.19	74.90
567.36	161.50
567.52	117.03
567.68	46.81
567.85	168.52
568.01	84.26
568.17	79.58
568.34	37.45
568.50	72.56
568.66	91.28
568.83	110.01
568.99	49.15
569.15	112.35
569.32	70.22
569.48	35.11
569.64	74.90
569.81	86.60
569.97	56.17
570.13	110.01
570.30	16.38
570.46	51.49
570.62	63.19
570.78	131.07
570.95	79.58
571.11	39.79
571.27	32.77
571.43	84.26
571.60	84.26
571.76	53.83
571.92	42.13
572.09	4.68
572.25	81.92
572.41	37.45
572.57	53.83
572.74	49.15
572.90	95.96
573.06	110.01
573.22	63.19
573.38	63.19
573.55	102.98
573.71	112.35
573.87	65.54
574.03	16.38
574.20	42.13
574.36	121.71
574.52	133.41
574.68	91.28
574.84	46.81
575.01	56.17
575.17	53.83
575.33	79.58
575.49	53.83
575.65	79.58
575.82	77.24
575.98	84.26
576.14	114.69
576.30	119.37
576.46	102.98
576.62	79.58
576.79	88.94
576.95	18.72
577.11	86.60
577.27	72.56
577.43	117.03
577.59	53.83
577.75	79.58
577.92	140.43
578.08	110.01
578.24	88.94
578.40	126.39
578.56	23.41
578.72	67.88
578.88	147.45
579.04	30.43
579.21	46.81
579.37	93.62
579.53	16.38
579.69	91.28
579.85	84.26
580.01	86.60
580.17	44.47
580.33	63.19
580.49	18.72
580.65	110.01
580.82	121.71
580.98	63.19
581.14	145.11
581.30	91.28
581.46	0.00
581.62	84.26
581.78	105.32
581.94	70.22
582.10	44.47
582.26	60.85
582.42	4.68
582.58	77.24
582.74	131.07
582.90	70.22
583.06	117.03
583.22	51.49
583.38	107.66
583.54	138.09
583.70	100.64
583.86	49.15
584.02	81.92
584.18	215.33
584.34	72.56
584.50	126.39
584.66	51.49
584.82	53.83
584.98	102.98
585.14	124.05
585.30	65.54
585.46	119.37
585.62	117.03
585.78	126.39
585.94	44.47
586.10	156.82
586.26	42.13
586.42	7.02
586.58	105.32
586.74	63.19
586.90	51.49
587.06	9.36
587.22	63.19
587.38	28.09
587.54	81.92
587.70	58.51
587.86	91.28
588.02	67.88
588.18	65.54
588.34	37.45
588.49	79.58
588.65	91.28
588.81	37.45
588.97	86.60
589.13	79.58
589.29	32.77
589.45	56.17
589.61	0.00
589.77	112.35
589.93	110.01
590.08	117.03
590.24	4.68
590.40	91.28
590.56	110.01
590.72	84.26
590.88	32.77
591.04	60.85
591.20	49.15
591.35	2.34
591.51	63.19
591.67	65.54
591.83	58.51
591.99	28.09
592.15	46.81
592.31	39.79
592.46	100.64
592.62	46.81
592.78	30.43
592.94	91.28
593.10	46.81
593.26	79.58
593.41	98.30
593.57	35.11
593.73	74.90
593.89	86.60
594.05	102.98
594.20	77.24
594.36	25.75
594.52	9.36
594.68	32.77
594.84	74.90
594.99	14.04
595.15	53.83
595.31	145.11
595.47	56.17
595.62	70.22
595.78	105.32
595.94	2.34
596.10	60.85
596.25	100.64
596.41	56.17
596.57	74.90
596.73	79.58
596.88	135.75
597.04	35.11
597.20	65.54
597.36	91.28
597.51	0.00
597.67	112.35
597.83	117.03
597.99	100.64
598.14	74.90
598.30	9.36
598.46	88.94
598.61	72.56
598.77	100.64
598.93	77.24
599.09	53.83
599.24	35.11
599.40	119.37
599.56	124.05
599.71	110.01
599.87	74.90
600.03	86.60
600.18	91.28
600.34	70.22
600.50	91.28
600.65	28.09
600.81	67.88
600.97	124.05
601.12	77.24
601.28	77.24
601.44	100.64
601.59	117.03
601.75	14.04
601.91	72.56
602.06	53.83
602.22	88.94
602.37	72.56
602.53	30.43
602.69	77.24
602.84	49.15
603.00	84.26
603.16	28.09
603.31	51.49
603.47	51.49
603.62	91.28
603.78	70.22
603.94	9.36
604.09	9.36
604.25	93.62
604.40	42.13
604.56	4.68
604.71	86.60
604.87	28.09
605.03	131.07
605.18	124.05
605.34	4.68
605.49	65.54
605.65	58.51
605.80	152.13
605.96	121.71
606.12	67.88
606.27	126.39
606.43	105.32
606.58	95.96
606.74	74.90
606.89	79.58
607.05	46.81
607.20	53.83
607.36	72.56
607.51	74.90
607.67	67.88
607.82	88.94
607.98	49.15
608.13	95.96
608.29	60.85
608.44	28.09
608.60	100.64
608.75	28.09
608.91	105.32
609.06	81.92
609.22	114.69
609.37	72.56
609.53	58.51
609.68	91.28
609.84	67.88
609.99	56.17
610.15	56.17
610.30	95.96
610.46	131.07
610.61	0.00
610.76	32.77
610.92	84.26
611.07	58.51
611.23	93.62
611.38	81.92
611.54	79.58
611.69	46.81
611.84	44.47
612.00	60.85
612.15	42.13
612.31	105.32
612.46	51.49
612.62	9.36
612.77	0.00
612.92	0.00
613.08	95.96
613.23	121.71
613.39	23.41
613.54	70.22
613.69	60.85
613.85	0.00
614.00	107.66
614.15	67.88
614.31	46.81
614.46	114.69
614.62	110.01
614.77	107.66
614.92	56.17
615.08	72.56
615.23	11.70
615.38	194.26
615.54	93.62
615.69	70.22
615.84	77.24
616.00	23.41
616.15	79.58
616.30	81.92
616.46	91.28
616.61	32.77
616.76	44.47
616.92	102.98
617.07	72.56
617.22	138.09
617.37	39.79
617.53	77.24
617.68	138.09
617.83	28.09
617.99	114.69
618.14	112.35
618.29	81.92
618.45	25.75
618.60	21.06
618.75	98.30
618.90	37.45
619.06	58.51
619.21	11.70
619.36	84.26
619.51	77.24
619.67	107.66
619.82	119.37
619.97	110.01
620.12	112.35
620.28	18.72
620.43	11.70
620.58	39.79
620.73	46.81
620.89	65.54
621.04	39.79
621.19	9.36
621.34	152.13
621.49	93.62
621.65	84.26
621.80	58.51
621.95	84.26
622.10	39.79
622.25	30.43
622.41	53.83
622.56	88.94
622.71	88.94
622.86	84.26
623.01	91.28
623.16	44.47
623.32	63.19
623.47	98.30
623.62	79.58
623.77	25.75
623.92	81.92
624.07	93.62
624.23	117.03
624.38	93.62
624.53	119.37
624.68	58.51
624.83	112.35
624.98	63.19
625.13	72.56
625.29	60.85
625.44	42.13
625.59	58.51
625.74	77.24
625.89	74.90
626.04	28.09
626.19	117.03
626.34	23.41
626.49	51.49
626.65	86.60
626.80	53.83
626.95	60.85
627.10	88.94
627.25	44.47
627.40	70.22
627.55	131.07
627.70	67.88
627.85	81.92
628.00	77.24
628.15	100.64
628.30	44.47
628.45	81.92
628.60	53.83
628.76	49.15
628.91	77.24
629.06	131.07
629.21	51.49
629.36	91.28
629.51	42.13
629.66	4.68
629.81	39.79
629.96	93.62
630.11	46.81
630.26	11.70
630.41	84.26
630.56	70.22
630.71	84.26
630.86	32.77
631.01	4.68
631.16	35.11
631.31	114.69
631.46	107.66
631.61	91.28
631.76	95.96
631.91	0.00
632.06	16.38
632.21	37.45
632.36	93.62
632.51	25.75
632.66	93.62
632.81	147.45
632.96	58.51
633.10	56.17
633.25	14.04
633.40	42.13
633.55	56.17
633.70	51.49
633.85	91.28
634.00	53.83
634.15	63.19
634.30	11.70
634.45	65.54
634.60	84.26
634.75	77.24
634.90	65.54
635.05	65.54
635.19	37.45
635.34	49.15
635.49	51.49
635.64	135.75
635.79	86.60
635.94	37.45
636.09	63.19
636.24	51.49
636.39	95.96
636.53	49.15
636.68	93.62
636.83	0.00
636.98	74.90
637.13	30.43
637.28	0.00
637.43	72.56
637.57	65.54
637.72	18.72
637.87	114.69
638.02	7.02
638.17	81.92
638.32	65.54
638.46	46.81
638.61	9.36
638.76	56.17
638.91	81.92
639.06	100.64
639.20	70.22
639.35	37.45
639.50	65.54
639.65	51.49
639.80	60.85
639.94	49.15
640.09	11.70
640.24	100.64
640.39	161.50
640.54	63.19
640.68	72.56
640.83	65.54
640.98	60.85
641.13	4.68
641.27	58.51
641.42	42.13
641.57	100.64
641.72	39.79
641.86	63.19
642.01	72.56
642.16	30.43
642.31	51.49
642.45	86.60
642.60	32.77
642.75	70.22
642.90	77.24
643.04	72.56
643.19	98.30
643.34	95.96
643.48	86.60
643.63	65.54
643.78	56.17
643.93	95.96
644.07	74.90
644.22	95.96
644.37	70.22
644.51	81.92
644.66	9.36
644.81	81.92
644.95	105.32
645.10	0.00
645.25	35.11
645.39	39.79
645.54	91.28
645.69	37.45
645.83	39.79
645.98	77.24
646.13	0.00
646.27	77.24
646.42	63.19
646.57	16.38
646.71	30.43
646.86	0.00
647.00	102.98
647.15	23.41
647.30	23.41
647.44	100.64
647.59	39.79
647.74	112.35
647.88	86.60
648.03	44.47
648.17	107.66
648.32	44.47
648.47	0.00
648.61	102.98
648.76	0.00
648.90	56.17
649.05	0.00
649.20	117.03
649.34	58.51
649.49	0.00
649.63	79.58
649.78	25.75
649.92	77.24
650.07	86.60
650.21	49.15
650.36	98.30
650.51	39.79
650.65	135.75
650.80	110.01
650.94	28.09
651.09	21.06
651.23	67.88
651.38	60.85
651.52	67.88
651.67	44.47
651.81	53.83
651.96	93.62
652.10	65.54
652.25	88.94
652.39	107.66
652.54	72.56
652.68	65.54
652.83	142.77
652.97	60.85
653.12	93.62
653.26	63.19
653.41	65.54
653.55	39.79
653.70	91.28
653.84	0.00
653.99	77.24
654.13	77.24
654.27	49.15
654.42	56.17
654.56	42.13
654.71	51.49
654.85	30.43
655.00	23.41
655.14	81.92
655.29	0.00
655.43	9.36
655.57	63.19
655.72	86.60
655.86	18.72
656.01	77.24
656.15	35.11
656.30	98.30
656.44	9.36
656.58	35.11
656.73	65.54
656.87	95.96
657.01	86.60
657.16	28.09
657.30	63.19
657.45	72.56
657.59	65.54
657.73	30.43
657.88	107.66
658.02	79.58
658.16	25.75
658.31	102.98
658.45	140.43
658.60	18.72
658.74	0.00
658.88	44.47
659.03	65.54
659.17	30.43
659.31	35.11
659.46	28.09
659.60	86.60
659.74	110.01
659.89	35.11
660.03	84.26
660.17	35.11
660.32	30.43
660.46	56.17
660.60	145.11
660.74	91.28
660.89	107.66
661.03	0.00
661.17	95.96
661.32	14.04
661.46	56.17
661.60	14.04
661.74	49.15
661.89	63.19
662.03	70.22
662.17	65.54
662.31	28.09
662.46	9.36
662.60	30.43
662.74	112.35
662.88	21.06
663.03	74.90
663.17	0.00
663.31	11.70
663.45	14.04
663.60	56.17
663.74	114.69
663.88	65.54
664.02	65.54
664.17	63.19
664.31	18.72
664.45	0.00
664.59	32.77
664.73	79.58
664.88	18.72
665.02	14.04
665.16	39.79
665.30	46.81
665.44	67.88
665.59	18.72
665.73	56.17
665.87	105.32
666.01	11.70
666.15	58.51
666.29	28.09
666.44	46.81
666.58	110.01
666.72	79.58
666.86	42.13
667.00	147.45
667.14	56.17
667.28	133.41
667.43	21.06
667.57	53.83
667.71	9.36
667.85	0.00
667.99	46.81
668.13	0.00
668.27	51.49
668.41	58.51
668.56	79.58
668.70	102.98
668.84	100.64
668.98	39.79
669.12	0.00
669.26	53.83
669.40	72.56
669.54	77.24
669.68	23.41
669.82	81.92
669.96	60.85
670.10	16.38
670.25	58.51
670.39	49.15
670.53	63.19
670.67	42.13
670.81	44.47
670.95	28.09
671.09	121.71
671.23	95.96
671.37	70.22
671.51	39.79
671.65	95.96
671.79	0.00
671.93	35.11
672.07	49.15
672.21	39.79
672.35	56.17
672.49	11.70
672.63	30.43
672.77	79.58
672.91	30.43
673.05	74.90
673.19	0.00
673.33	30.43
673.47	30.43
673.61	37.45
673.75	86.60
673.89	21.06
674.03	46.81
674.17	23.41
674.31	7.02
674.45	35.11
674.59	0.00
674.73	37.45
674.87	23.41
675.01	51.49
675.15	53.83
675.29	28.09
675.43	117.03
675.56	39.79
675.70	131.07
675.84	126.39
675.98	67.88
676.12	39.79
676.26	46.81
676.40	2.34
676.54	86.60
676.68	58.51
676.82	42.13
676.96	25.75
677.10	56.17
677.23	70.22
677.37	23.41
677.51	37.45
677.65	21.06
677.79	9.36
677.93	42.13
678.07	0.00
678.21	37.45
678.34	79.58
678.48	49.15
678.62	25.75
678.76	0.00
678.90	23.41
679.04	72.56
679.18	175.54
679.31	56.17
679.45	46.81
679.59	70.22
679.73	81.92
679.87	37.45
680.00	9.36
680.14	39.79
680.28	86.60
680.42	70.22
680.56	18.72
680.70	121.71
680.83	35.11
680.97	42.13
681.11	0.00
681.25	0.00
681.39	86.60
681.52	112.35
681.66	35.11
681.80	72.56
681.94	16.38
682.07	70.22
682.21	0.00
682.35	74.90
682.49	0.00
682.62	53.83
682.76	9.36
682.90	0.00
683.04	16.38
683.17	124.05
683.31	30.43
683.45	49.15
683.59	0.00
683.72	74.90
683.86	86.60
684.00	72.56
684.13	35.11
684.27	0.00
684.41	21.06
684.55	37.45
684.68	21.06
684.82	9.36
684.96	49.15
685.09	56.17
685.23	60.85
685.37	58.51
685.50	0.00
685.64	121.71
685.78	35.11
685.91	72.56
686.05	42.13
686.19	67.88
686.32	0.00
686.46	77.24
686.60	28.09
686.73	98.30
686.87	35.11
687.01	7.02
687.14	37.45
687.28	0.00
687.42	84.26
687.55	2.34
687.69	58.51
687.82	67.88
687.96	95.96
688.10	11.70
688.23	46.81
688.37	11.70
688.50	2.34
688.64	56.17
688.78	74.90
688.91	0.00
689.05	7.02
689.18	0.00
689.32	30.43
689.46	35.11
689.59	23.41
689.73	44.47
689.86	49.15
690.00	0.00
690.13	67.88
690.27	28.09
690.41	117.03
690.54	67.88
690.68	63.19
690.81	7.02
690.95	100.64
691.08	32.77
691.22	9.36
691.35	4.68
691.49	63.19
691.62	37.45
691.76	51.49
691.89	28.09
692.03	7.02
692.16	37.45
692.30	107.66
692.43	25.75
692.57	37.45
692.70	35.11
692.84	18.72
692.97	18.72
693.11	18.72
693.24	18.72
693.38	21.06
693.51	0.00
693.65	100.64
693.78	11.70
693.92	67.88
694.05	32.77
694.19	23.41
694.32	110.01
694.45	42.13
694.59	56.17
694.72	0.00
694.86	63.19
694.99	79.58
695.13	74.90
695.26	72.56
695.39	72.56
695.53	44.47
695.66	0.00
695.80	0.00
695.93	65.54
696.07	65.54
696.20	72.56
696.33	119.37
696.47	77.24
696.60	88.94
696.73	0.00
696.87	56.17
697.00	7.02
697.14	49.15
697.27	21.06
697.40	7.02
697.54	35.11
697.67	60.85
697.80	21.06
697.94	7.02
698.07	63.19
698.21	79.58
698.34	0.00
698.47	0.00
698.61	7.02
698.74	37.45
698.87	35.11
699.01	2.34
699.14	16.38
699.27	110.01
699.40	49.15
699.54	88.94
699.67	16.38
699.80	0.00
699.94	67.88
700.07	67.88
700.20	67.88
700.34	11.70
700.47	65.54
700.60	0.00
700.73	0.00
700.87	63.19
701.00	32.77
701.13	0.00
701.26	112.35
701.40	9.36
701.53	0.00
701.66	21.06
701.79	30.43
701.93	7.02
702.06	74.90
702.19	60.85
702.32	117.03
702.46	65.54
702.59	0.00
702.72	9.36
702.85	74.90
702.99	23.41
703.12	9.36
703.25	93.62
703.38	60.85
703.51	11.70
703.65	0.00
703.78	9.36
703.91	35.11
704.04	2.34
704.17	32.77
704.31	51.49
704.44	11.70
704.57	105.32
704.70	58.51
704.83	88.94
704.96	49.15
705.10	0.00
705.23	86.60
>>>>>End Processed Spectral Data<<<<<
