SpectraSuite Data File
++++++++++++++++++++++++++++++++++++
Date: Fri Oct 04 12:13:34 GMT-05:00 2013
User: price-jones
Dark Spectrum Present: No
Reference Spectrum Present: No
Number of Sampled Component Spectra: 1
Spectrometers: USB2+H05261
Integration Time (usec): 10000 (USB2+H05261)
Spectra Averaged: 1 (USB2+H05261)
Boxcar Smoothing: 0 (USB2+H05261)
Correct for Electrical Dark: No (USB2+H05261)
Strobe/Lamp Enabled: No (USB2+H05261)
Correct for Detector Non-linearity: No (USB2+H05261)
Correct for Stray Light: No (USB2+H05261)
Number of Pixels in Processed Spectrum: 2048
>>>>>Begin Processed Spectral Data<<<<<
365.73	14.04
365.92	14.04
366.12	14.04
366.32	0.00
366.52	0.00
366.72	0.00
366.91	0.00
367.11	0.00
367.31	0.00
367.51	0.00
367.70	0.00
367.90	0.00
368.10	0.00
368.30	0.00
368.49	0.00
368.69	0.00
368.89	0.00
369.09	0.00
369.28	0.00
369.48	0.00
369.68	0.00
369.87	0.00
370.07	0.00
370.27	0.00
370.47	0.00
370.66	0.00
370.86	0.00
371.06	0.00
371.25	0.00
371.45	0.00
371.65	9.36
371.84	0.00
372.04	0.00
372.24	0.00
372.44	0.00
372.63	9.36
372.83	25.75
373.03	0.00
373.22	0.00
373.42	0.00
373.62	39.79
373.81	107.66
374.01	49.15
374.21	32.77
374.40	0.00
374.60	58.51
374.79	2.34
374.99	0.00
375.19	30.43
375.38	74.90
375.58	7.02
375.78	0.00
375.97	30.43
376.17	58.51
376.37	49.15
376.56	42.13
376.76	32.77
376.95	25.75
377.15	25.75
377.35	28.09
377.54	42.13
377.74	32.77
377.93	0.00
378.13	7.02
378.33	81.92
378.52	0.00
378.72	0.00
378.91	0.00
379.11	2.34
379.31	25.75
379.50	0.00
379.70	4.68
379.89	32.77
380.09	11.70
380.28	0.00
380.48	58.51
380.68	91.28
380.87	58.51
381.07	0.00
381.26	14.04
381.46	9.36
381.65	30.43
381.85	30.43
382.04	14.04
382.24	65.54
382.43	16.38
382.63	23.41
382.83	77.24
383.02	0.00
383.22	0.00
383.41	51.49
383.61	46.81
383.80	14.04
384.00	0.00
384.19	18.72
384.39	42.13
384.58	42.13
384.78	37.45
384.97	60.85
385.17	0.00
385.36	25.75
385.56	0.00
385.75	0.00
385.95	56.17
386.14	14.04
386.34	4.68
386.53	67.88
386.72	0.00
386.92	0.00
387.11	0.00
387.31	37.45
387.50	9.36
387.70	42.13
387.89	0.00
388.09	16.38
388.28	28.09
388.48	46.81
388.67	81.92
388.86	63.19
389.06	53.83
389.25	11.70
389.45	0.00
389.64	25.75
389.84	0.00
390.03	23.41
390.22	28.09
390.42	0.00
390.61	39.79
390.81	16.38
391.00	60.85
391.19	0.00
391.39	0.00
391.58	0.00
391.78	0.00
391.97	0.00
392.16	21.06
392.36	0.00
392.55	49.15
392.75	88.94
392.94	4.68
393.13	63.19
393.33	16.38
393.52	0.00
393.71	4.68
393.91	4.68
394.10	49.15
394.29	35.11
394.49	16.38
394.68	14.04
394.88	0.00
395.07	28.09
395.26	28.09
395.46	18.72
395.65	88.94
395.84	16.38
396.04	28.09
396.23	88.94
396.42	56.17
396.62	32.77
396.81	35.11
397.00	7.02
397.19	39.79
397.39	39.79
397.58	44.47
397.77	28.09
397.97	28.09
398.16	37.45
398.35	0.00
398.55	65.54
398.74	0.00
398.93	39.79
399.12	32.77
399.32	60.85
399.51	32.77
399.70	117.03
399.90	0.00
400.09	21.06
400.28	46.81
400.47	86.60
400.67	0.00
400.86	14.04
401.05	23.41
401.24	0.00
401.44	18.72
401.63	2.34
401.82	30.43
402.01	72.56
402.21	18.72
402.40	70.22
402.59	14.04
402.78	0.00
402.97	67.88
403.17	51.49
403.36	67.88
403.55	0.00
403.74	25.75
403.93	67.88
404.13	98.30
404.32	16.38
404.51	56.17
404.70	28.09
404.89	16.38
405.09	37.45
405.28	30.43
405.47	2.34
405.66	46.81
405.85	0.00
406.05	0.00
406.24	7.02
406.43	0.00
406.62	2.34
406.81	0.00
407.00	0.00
407.20	49.15
407.39	0.00
407.58	7.02
407.77	18.72
407.96	79.58
408.15	70.22
408.34	39.79
408.54	14.04
408.73	95.96
408.92	28.09
409.11	88.94
409.30	74.90
409.49	23.41
409.68	0.00
409.87	0.00
410.07	0.00
410.26	0.00
410.45	0.00
410.64	23.41
410.83	18.72
411.02	0.00
411.21	35.11
411.40	9.36
411.59	32.77
411.78	95.96
411.98	56.17
412.17	72.56
412.36	70.22
412.55	74.90
412.74	25.75
412.93	21.06
413.12	58.51
413.31	30.43
413.50	84.26
413.69	28.09
413.88	138.09
414.07	63.19
414.26	42.13
414.45	102.98
414.64	2.34
414.83	65.54
415.02	0.00
415.22	35.11
415.41	32.77
415.60	79.58
415.79	28.09
415.98	25.75
416.17	0.00
416.36	124.05
416.55	51.49
416.74	49.15
416.93	88.94
417.12	44.47
417.31	42.13
417.50	58.51
417.69	0.00
417.88	0.00
418.07	49.15
418.26	74.90
418.45	51.49
418.64	53.83
418.83	0.00
419.02	11.70
419.21	114.69
419.39	0.00
419.58	42.13
419.77	21.06
419.96	0.00
420.15	86.60
420.34	32.77
420.53	0.00
420.72	39.79
420.91	25.75
421.10	0.00
421.29	2.34
421.48	30.43
421.67	16.38
421.86	11.70
422.05	9.36
422.24	37.45
422.43	88.94
422.61	70.22
422.80	35.11
422.99	14.04
423.18	51.49
423.37	25.75
423.56	112.35
423.75	65.54
423.94	23.41
424.13	56.17
424.32	0.00
424.50	0.00
424.69	35.11
424.88	60.85
425.07	30.43
425.26	93.62
425.45	100.64
425.64	21.06
425.83	119.37
426.01	0.00
426.20	21.06
426.39	0.00
426.58	35.11
426.77	46.81
426.96	42.13
427.15	0.00
427.33	63.19
427.52	56.17
427.71	28.09
427.90	74.90
428.09	56.17
428.28	14.04
428.46	0.00
428.65	79.58
428.84	0.00
429.03	46.81
429.22	65.54
429.40	14.04
429.59	74.90
429.78	65.54
429.97	14.04
430.16	7.02
430.34	42.13
430.53	30.43
430.72	53.83
430.91	51.49
431.10	32.77
431.28	4.68
431.47	0.00
431.66	0.00
431.85	0.00
432.03	0.00
432.22	9.36
432.41	32.77
432.60	0.00
432.79	0.00
432.97	0.00
433.16	79.58
433.35	53.83
433.54	11.70
433.72	16.38
433.91	51.49
434.10	4.68
434.28	14.04
434.47	11.70
434.66	0.00
434.85	0.00
435.03	18.72
435.22	0.00
435.41	37.45
435.59	102.98
435.78	23.41
435.97	30.43
436.16	0.00
436.34	86.60
436.53	60.85
436.72	86.60
436.90	25.75
437.09	39.79
437.28	135.75
437.46	32.77
437.65	117.03
437.84	93.62
438.02	77.24
438.21	11.70
438.40	67.88
438.58	14.04
438.77	21.06
438.96	42.13
439.14	23.41
439.33	0.00
439.52	46.81
439.70	0.00
439.89	39.79
440.08	23.41
440.26	93.62
440.45	44.47
440.63	42.13
440.82	37.45
441.01	65.54
441.19	98.30
441.38	7.02
441.57	28.09
441.75	44.47
441.94	32.77
442.12	4.68
442.31	114.69
442.50	42.13
442.68	77.24
442.87	0.00
443.05	37.45
443.24	9.36
443.43	39.79
443.61	72.56
443.80	44.47
443.98	9.36
444.17	0.00
444.35	7.02
444.54	74.90
444.73	21.06
444.91	0.00
445.10	49.15
445.28	44.47
445.47	28.09
445.65	23.41
445.84	23.41
446.02	0.00
446.21	63.19
446.39	7.02
446.58	51.49
446.77	51.49
446.95	0.00
447.14	0.00
447.32	65.54
447.51	37.45
447.69	0.00
447.88	0.00
448.06	42.13
448.25	72.56
448.43	2.34
448.62	91.28
448.80	0.00
448.99	53.83
449.17	0.00
449.36	58.51
449.54	72.56
449.73	77.24
449.91	58.51
450.10	2.34
450.28	0.00
450.46	11.70
450.65	23.41
450.83	4.68
451.02	0.00
451.20	37.45
451.39	0.00
451.57	21.06
451.76	65.54
451.94	77.24
452.13	32.77
452.31	32.77
452.49	7.02
452.68	16.38
452.86	9.36
453.05	0.00
453.23	2.34
453.42	21.06
453.60	30.43
453.78	0.00
453.97	37.45
454.15	18.72
454.34	30.43
454.52	21.06
454.70	79.58
454.89	37.45
455.07	84.26
455.26	77.24
455.44	0.00
455.62	70.22
455.81	93.62
455.99	30.43
456.17	121.71
456.36	30.43
456.54	42.13
456.73	35.11
456.91	98.30
457.09	74.90
457.28	51.49
457.46	161.50
457.64	46.81
457.83	7.02
458.01	28.09
458.19	88.94
458.38	0.00
458.56	81.92
458.74	79.58
458.93	110.01
459.11	2.34
459.29	32.77
459.48	131.07
459.66	77.24
459.84	0.00
460.03	30.43
460.21	11.70
460.39	0.00
460.57	114.69
460.76	42.13
460.94	42.13
461.12	14.04
461.31	39.79
461.49	25.75
461.67	46.81
461.85	112.35
462.04	70.22
462.22	49.15
462.40	98.30
462.59	58.51
462.77	0.00
462.95	30.43
463.13	39.79
463.32	91.28
463.50	21.06
463.68	110.01
463.86	16.38
464.05	37.45
464.23	21.06
464.41	37.45
464.59	0.00
464.78	18.72
464.96	84.26
465.14	67.88
465.32	42.13
465.50	7.02
465.69	105.32
465.87	21.06
466.05	51.49
466.23	0.00
466.41	0.00
466.60	67.88
466.78	14.04
466.96	42.13
467.14	30.43
467.32	25.75
467.51	9.36
467.69	0.00
467.87	105.32
468.05	79.58
468.23	100.64
468.41	44.47
468.60	51.49
468.78	56.17
468.96	117.03
469.14	4.68
469.32	0.00
469.50	86.60
469.69	23.41
469.87	56.17
470.05	70.22
470.23	58.51
470.41	91.28
470.59	30.43
470.77	0.00
470.95	0.00
471.14	28.09
471.32	42.13
471.50	25.75
471.68	79.58
471.86	65.54
472.04	51.49
472.22	16.38
472.40	0.00
472.58	7.02
472.77	21.06
472.95	0.00
473.13	39.79
473.31	46.81
473.49	0.00
473.67	21.06
473.85	21.06
474.03	42.13
474.21	39.79
474.39	11.70
474.57	49.15
474.75	95.96
474.93	28.09
475.12	39.79
475.30	74.90
475.48	28.09
475.66	70.22
475.84	28.09
476.02	0.00
476.20	23.41
476.38	72.56
476.56	53.83
476.74	72.56
476.92	102.98
477.10	56.17
477.28	23.41
477.46	46.81
477.64	77.24
477.82	0.00
478.00	25.75
478.18	42.13
478.36	21.06
478.54	88.94
478.72	7.02
478.90	44.47
479.08	25.75
479.26	18.72
479.44	30.43
479.62	79.58
479.80	102.98
479.98	9.36
480.16	79.58
480.34	93.62
480.52	51.49
480.70	0.00
480.88	23.41
481.06	58.51
481.24	119.37
481.41	9.36
481.59	67.88
481.77	39.79
481.95	121.71
482.13	9.36
482.31	28.09
482.49	9.36
482.67	46.81
482.85	23.41
483.03	0.00
483.21	23.41
483.39	37.45
483.57	100.64
483.74	46.81
483.92	28.09
484.10	42.13
484.28	42.13
484.46	67.88
484.64	56.17
484.82	91.28
485.00	114.69
485.18	16.38
485.35	0.00
485.53	25.75
485.71	11.70
485.89	107.66
486.07	72.56
486.25	35.11
486.43	100.64
486.61	37.45
486.78	95.96
486.96	23.41
487.14	56.17
487.32	49.15
487.50	105.32
487.68	42.13
487.85	30.43
488.03	70.22
488.21	46.81
488.39	74.90
488.57	16.38
488.75	86.60
488.92	159.16
489.10	42.13
489.28	42.13
489.46	128.73
489.64	51.49
489.81	133.41
489.99	112.35
490.17	67.88
490.35	37.45
490.53	49.15
490.70	65.54
490.88	14.04
491.06	86.60
491.24	51.49
491.41	0.00
491.59	32.77
491.77	39.79
491.95	0.00
492.13	7.02
492.30	58.51
492.48	32.77
492.66	49.15
492.84	58.51
493.01	18.72
493.19	79.58
493.37	98.30
493.54	53.83
493.72	42.13
493.90	0.00
494.08	88.94
494.25	14.04
494.43	32.77
494.61	70.22
494.79	60.85
494.96	35.11
495.14	9.36
495.32	0.00
495.49	30.43
495.67	16.38
495.85	98.30
496.02	35.11
496.20	53.83
496.38	95.96
496.55	21.06
496.73	67.88
496.91	58.51
497.09	88.94
497.26	0.00
497.44	100.64
497.62	46.81
497.79	65.54
497.97	21.06
498.14	11.70
498.32	32.77
498.50	0.00
498.67	7.02
498.85	32.77
499.03	79.58
499.20	72.56
499.38	81.92
499.56	135.75
499.73	58.51
499.91	32.77
500.08	70.22
500.26	77.24
500.44	81.92
500.61	44.47
500.79	2.34
500.97	46.81
501.14	58.51
501.32	63.19
501.49	74.90
501.67	72.56
501.84	121.71
502.02	28.09
502.20	67.88
502.37	105.32
502.55	46.81
502.72	18.72
502.90	25.75
503.07	105.32
503.25	79.58
503.43	53.83
503.60	0.00
503.78	4.68
503.95	44.47
504.13	0.00
504.30	30.43
504.48	74.90
504.65	0.00
504.83	37.45
505.01	81.92
505.18	18.72
505.36	72.56
505.53	58.51
505.71	93.62
505.88	170.86
506.06	32.77
506.23	51.49
506.41	30.43
506.58	93.62
506.76	74.90
506.93	32.77
507.11	56.17
507.28	86.60
507.46	44.47
507.63	70.22
507.81	0.00
507.98	23.41
508.16	65.54
508.33	9.36
508.50	28.09
508.68	98.30
508.85	4.68
509.03	88.94
509.20	63.19
509.38	51.49
509.55	0.00
509.73	98.30
509.90	46.81
510.08	32.77
510.25	0.00
510.42	4.68
510.60	86.60
510.77	70.22
510.95	100.64
511.12	117.03
511.30	9.36
511.47	86.60
511.64	0.00
511.82	46.81
511.99	42.13
512.17	39.79
512.34	140.43
512.51	16.38
512.69	53.83
512.86	0.00
513.04	124.05
513.21	63.19
513.38	65.54
513.56	0.00
513.73	21.06
513.90	7.02
514.08	98.30
514.25	114.69
514.43	39.79
514.60	51.49
514.77	91.28
514.95	79.58
515.12	30.43
515.29	11.70
515.47	49.15
515.64	0.00
515.81	0.00
515.99	30.43
516.16	23.41
516.33	39.79
516.51	72.56
516.68	77.24
516.85	39.79
517.03	53.83
517.20	72.56
517.37	0.00
517.54	51.49
517.72	56.17
517.89	74.90
518.06	9.36
518.24	147.45
518.41	126.39
518.58	53.83
518.75	23.41
518.93	0.00
519.10	23.41
519.27	42.13
519.45	159.16
519.62	105.32
519.79	46.81
519.96	46.81
520.14	72.56
520.31	84.26
520.48	49.15
520.65	0.00
520.83	63.19
521.00	56.17
521.17	88.94
521.34	4.68
521.52	11.70
521.69	49.15
521.86	44.47
522.03	70.22
522.20	86.60
522.38	37.45
522.55	44.47
522.72	18.72
522.89	65.54
523.07	70.22
523.24	100.64
523.41	25.75
523.58	49.15
523.75	67.88
523.92	81.92
524.10	95.96
524.27	86.60
524.44	70.22
524.61	84.26
524.78	28.09
524.96	70.22
525.13	23.41
525.30	70.22
525.47	98.30
525.64	9.36
525.81	79.58
525.98	53.83
526.16	81.92
526.33	28.09
526.50	28.09
526.67	51.49
526.84	77.24
527.01	14.04
527.18	35.11
527.36	100.64
527.53	23.41
527.70	95.96
527.87	42.13
528.04	53.83
528.21	88.94
528.38	42.13
528.55	107.66
528.72	42.13
528.89	65.54
529.07	18.72
529.24	42.13
529.41	0.00
529.58	39.79
529.75	25.75
529.92	0.00
530.09	100.64
530.26	74.90
530.43	16.38
530.60	30.43
530.77	72.56
530.94	30.43
531.11	49.15
531.28	37.45
531.46	70.22
531.63	88.94
531.80	67.88
531.97	39.79
532.14	0.00
532.31	84.26
532.48	105.32
532.65	98.30
532.82	53.83
532.99	49.15
533.16	18.72
533.33	25.75
533.50	2.34
533.67	16.38
533.84	28.09
534.01	18.72
534.18	67.88
534.35	32.77
534.52	21.06
534.69	72.56
534.86	28.09
535.03	86.60
535.20	35.11
535.37	37.45
535.54	56.17
535.71	112.35
535.88	72.56
536.05	14.04
536.22	11.70
536.38	18.72
536.55	32.77
536.72	84.26
536.89	46.81
537.06	53.83
537.23	21.06
537.40	18.72
537.57	25.75
537.74	11.70
537.91	28.09
538.08	0.00
538.25	51.49
538.42	102.98
538.59	60.85
538.75	56.17
538.92	28.09
539.09	91.28
539.26	4.68
539.43	67.88
539.60	30.43
539.77	44.47
539.94	65.54
540.11	14.04
540.28	16.38
540.44	7.02
540.61	39.79
540.78	39.79
540.95	18.72
541.12	124.05
541.29	70.22
541.46	119.37
541.62	140.43
541.79	49.15
541.96	84.26
542.13	74.90
542.30	63.19
542.47	53.83
542.63	4.68
542.80	37.45
542.97	70.22
543.14	67.88
543.31	44.47
543.48	70.22
543.64	35.11
543.81	37.45
543.98	72.56
544.15	28.09
544.32	84.26
544.48	65.54
544.65	53.83
544.82	51.49
544.99	72.56
545.16	28.09
545.32	58.51
545.49	42.13
545.66	30.43
545.83	49.15
546.00	0.00
546.16	0.00
546.33	51.49
546.50	28.09
546.67	74.90
546.83	16.38
547.00	4.68
547.17	70.22
547.34	88.94
547.50	77.24
547.67	53.83
547.84	100.64
548.00	74.90
548.17	0.00
548.34	0.00
548.51	56.17
548.67	30.43
548.84	4.68
549.01	2.34
549.18	88.94
549.34	58.51
549.51	35.11
549.68	86.60
549.84	51.49
550.01	14.04
550.18	23.41
550.34	42.13
550.51	133.41
550.68	23.41
550.84	112.35
551.01	0.00
551.18	16.38
551.34	112.35
551.51	131.07
551.68	35.11
551.84	7.02
552.01	70.22
552.18	18.72
552.34	56.17
552.51	7.02
552.68	0.00
552.84	39.79
553.01	51.49
553.18	46.81
553.34	88.94
553.51	102.98
553.67	18.72
553.84	35.11
554.01	37.45
554.17	53.83
554.34	7.02
554.51	9.36
554.67	2.34
554.84	0.00
555.00	91.28
555.17	18.72
555.33	56.17
555.50	0.00
555.67	86.60
555.83	58.51
556.00	74.90
556.16	72.56
556.33	79.58
556.50	51.49
556.66	126.39
556.83	23.41
556.99	28.09
557.16	95.96
557.32	49.15
557.49	72.56
557.65	100.64
557.82	102.98
557.98	91.28
558.15	72.56
558.32	32.77
558.48	51.49
558.65	84.26
558.81	88.94
558.98	67.88
559.14	86.60
559.31	0.00
559.47	14.04
559.64	4.68
559.80	77.24
559.97	53.83
560.13	11.70
560.30	23.41
560.46	9.36
560.63	84.26
560.79	9.36
560.96	16.38
561.12	81.92
561.29	79.58
561.45	37.45
561.61	18.72
561.78	21.06
561.94	0.00
562.11	42.13
562.27	56.17
562.44	7.02
562.60	58.51
562.77	84.26
562.93	58.51
563.10	67.88
563.26	14.04
563.42	107.66
563.59	28.09
563.75	72.56
563.92	0.00
564.08	74.90
564.24	72.56
564.41	86.60
564.57	51.49
564.74	11.70
564.90	42.13
565.07	25.75
565.23	28.09
565.39	2.34
565.56	138.09
565.72	60.85
565.88	53.83
566.05	0.00
566.21	56.17
566.38	84.26
566.54	58.51
566.70	77.24
566.87	114.69
567.03	35.11
567.19	88.94
567.36	4.68
567.52	63.19
567.68	44.47
567.85	93.62
568.01	70.22
568.17	121.71
568.34	63.19
568.50	51.49
568.66	67.88
568.83	23.41
568.99	11.70
569.15	35.11
569.32	77.24
569.48	39.79
569.64	16.38
569.81	93.62
569.97	93.62
570.13	91.28
570.30	39.79
570.46	105.32
570.62	14.04
570.78	93.62
570.95	88.94
571.11	74.90
571.27	32.77
571.43	42.13
571.60	42.13
571.76	60.85
571.92	95.96
572.09	28.09
572.25	58.51
572.41	53.83
572.57	0.00
572.74	35.11
572.90	74.90
573.06	42.13
573.22	28.09
573.38	53.83
573.55	32.77
573.71	81.92
573.87	16.38
574.03	95.96
574.20	2.34
574.36	107.66
574.52	21.06
574.68	44.47
574.84	88.94
575.01	18.72
575.17	44.47
575.33	77.24
575.49	79.58
575.65	49.15
575.82	102.98
575.98	0.00
576.14	11.70
576.30	28.09
576.46	7.02
576.62	58.51
576.79	4.68
576.95	32.77
577.11	56.17
577.27	60.85
577.43	18.72
577.59	0.00
577.75	35.11
577.92	84.26
578.08	102.98
578.24	0.00
578.40	23.41
578.56	37.45
578.72	39.79
578.88	81.92
579.04	0.00
579.21	18.72
579.37	11.70
579.53	98.30
579.69	117.03
579.85	0.00
580.01	0.00
580.17	84.26
580.33	18.72
580.49	21.06
580.65	60.85
580.82	79.58
580.98	0.00
581.14	42.13
581.30	51.49
581.46	35.11
581.62	110.01
581.78	39.79
581.94	67.88
582.10	39.79
582.26	35.11
582.42	0.00
582.58	65.54
582.74	4.68
582.90	30.43
583.06	21.06
583.22	7.02
583.38	79.58
583.54	67.88
583.70	74.90
583.86	46.81
584.02	18.72
584.18	37.45
584.34	32.77
584.50	51.49
584.66	60.85
584.82	60.85
584.98	9.36
585.14	9.36
585.30	53.83
585.46	98.30
585.62	25.75
585.78	0.00
585.94	14.04
586.10	53.83
586.26	9.36
586.42	107.66
586.58	32.77
586.74	35.11
586.90	11.70
587.06	35.11
587.22	65.54
587.38	14.04
587.54	49.15
587.70	102.98
587.86	23.41
588.02	25.75
588.18	72.56
588.34	65.54
588.49	79.58
588.65	72.56
588.81	0.00
588.97	39.79
589.13	74.90
589.29	11.70
589.45	110.01
589.61	0.00
589.77	58.51
589.93	0.00
590.08	51.49
590.24	44.47
590.40	58.51
590.56	135.75
590.72	0.00
590.88	39.79
591.04	119.37
591.20	107.66
591.35	0.00
591.51	126.39
591.67	121.71
591.83	93.62
591.99	37.45
592.15	14.04
592.31	67.88
592.46	51.49
592.62	88.94
592.78	88.94
592.94	63.19
593.10	18.72
593.26	0.00
593.41	56.17
593.57	58.51
593.73	107.66
593.89	23.41
594.05	9.36
594.20	7.02
594.36	21.06
594.52	60.85
594.68	42.13
594.84	67.88
594.99	74.90
595.15	79.58
595.31	7.02
595.47	77.24
595.62	0.00
595.78	79.58
595.94	56.17
596.10	7.02
596.25	58.51
596.41	46.81
596.57	21.06
596.73	16.38
596.88	0.00
597.04	0.00
597.20	32.77
597.36	63.19
597.51	39.79
597.67	58.51
597.83	37.45
597.99	58.51
598.14	44.47
598.30	0.00
598.46	58.51
598.61	79.58
598.77	105.32
598.93	58.51
599.09	65.54
599.24	51.49
599.40	131.07
599.56	51.49
599.71	51.49
599.87	81.92
600.03	0.00
600.18	37.45
600.34	70.22
600.50	49.15
600.65	119.37
600.81	67.88
600.97	121.71
601.12	30.43
601.28	51.49
601.44	74.90
601.59	18.72
601.75	84.26
601.91	25.75
602.06	105.32
602.22	53.83
602.37	72.56
602.53	46.81
602.69	9.36
602.84	30.43
603.00	91.28
603.16	93.62
603.31	131.07
603.47	67.88
603.62	67.88
603.78	28.09
603.94	58.51
604.09	23.41
604.25	53.83
604.40	58.51
604.56	74.90
604.71	74.90
604.87	37.45
605.03	79.58
605.18	42.13
605.34	11.70
605.49	65.54
605.65	51.49
605.80	128.73
605.96	7.02
606.12	98.30
606.27	28.09
606.43	2.34
606.58	42.13
606.74	0.00
606.89	121.71
607.05	72.56
607.20	105.32
607.36	107.66
607.51	0.00
607.67	102.98
607.82	58.51
607.98	37.45
608.13	91.28
608.29	63.19
608.44	58.51
608.60	49.15
608.75	56.17
608.91	46.81
609.06	79.58
609.22	30.43
609.37	30.43
609.53	88.94
609.68	81.92
609.84	42.13
609.99	14.04
610.15	18.72
610.30	86.60
610.46	28.09
610.61	44.47
610.76	105.32
610.92	44.47
611.07	107.66
611.23	42.13
611.38	77.24
611.54	46.81
611.69	126.39
611.84	114.69
612.00	91.28
612.15	46.81
612.31	42.13
612.46	30.43
612.62	4.68
612.77	100.64
612.92	49.15
613.08	72.56
613.23	86.60
613.39	39.79
613.54	56.17
613.69	79.58
613.85	42.13
614.00	53.83
614.15	58.51
614.31	7.02
614.46	65.54
614.62	28.09
614.77	79.58
614.92	84.26
615.08	112.35
615.23	49.15
615.38	124.05
615.54	37.45
615.69	67.88
615.84	67.88
616.00	112.35
616.15	42.13
616.30	81.92
616.46	4.68
616.61	4.68
616.76	58.51
616.92	23.41
617.07	102.98
617.22	74.90
617.37	0.00
617.53	16.38
617.68	21.06
617.83	84.26
617.99	30.43
618.14	60.85
618.29	67.88
618.45	88.94
618.60	18.72
618.75	74.90
618.90	93.62
619.06	53.83
619.21	53.83
619.36	102.98
619.51	81.92
619.67	39.79
619.82	105.32
619.97	79.58
620.12	11.70
620.28	16.38
620.43	58.51
620.58	63.19
620.73	28.09
620.89	65.54
621.04	117.03
621.19	63.19
621.34	0.00
621.49	11.70
621.65	4.68
621.80	46.81
621.95	53.83
622.10	86.60
622.25	42.13
622.41	114.69
622.56	67.88
622.71	102.98
622.86	14.04
623.01	11.70
623.16	105.32
623.32	56.17
623.47	88.94
623.62	70.22
623.77	100.64
623.92	70.22
624.07	39.79
624.23	100.64
624.38	93.62
624.53	88.94
624.68	84.26
624.83	58.51
624.98	60.85
625.13	161.50
625.29	194.26
625.44	79.58
625.59	60.85
625.74	65.54
625.89	42.13
626.04	60.85
626.19	53.83
626.34	25.75
626.49	39.79
626.65	58.51
626.80	72.56
626.95	39.79
627.10	30.43
627.25	39.79
627.40	67.88
627.55	74.90
627.70	74.90
627.85	65.54
628.00	107.66
628.15	74.90
628.30	72.56
628.45	79.58
628.60	39.79
628.76	126.39
628.91	70.22
629.06	74.90
629.21	39.79
629.36	133.41
629.51	107.66
629.66	95.96
629.81	53.83
629.96	0.00
630.11	60.85
630.26	72.56
630.41	93.62
630.56	67.88
630.71	23.41
630.86	28.09
631.01	30.43
631.16	21.06
631.31	0.00
631.46	65.54
631.61	81.92
631.76	42.13
631.91	37.45
632.06	46.81
632.21	0.00
632.36	128.73
632.51	79.58
632.66	21.06
632.81	60.85
632.96	63.19
633.10	84.26
633.25	2.34
633.40	46.81
633.55	67.88
633.70	44.47
633.85	63.19
634.00	84.26
634.15	65.54
634.30	18.72
634.45	93.62
634.60	44.47
634.75	58.51
634.90	72.56
635.05	28.09
635.19	102.98
635.34	72.56
635.49	49.15
635.64	67.88
635.79	63.19
635.94	25.75
636.09	117.03
636.24	30.43
636.39	93.62
636.53	51.49
636.68	105.32
636.83	98.30
636.98	156.82
637.13	25.75
637.28	39.79
637.43	86.60
637.57	191.92
637.72	39.79
637.87	37.45
638.02	79.58
638.17	70.22
638.32	128.73
638.46	67.88
638.61	98.30
638.76	91.28
638.91	86.60
639.06	16.38
639.20	53.83
639.35	70.22
639.50	0.00
639.65	84.26
639.80	84.26
639.94	72.56
640.09	140.43
640.24	58.51
640.39	95.96
640.54	65.54
640.68	7.02
640.83	88.94
640.98	23.41
641.13	58.51
641.27	93.62
641.42	37.45
641.57	56.17
641.72	81.92
641.86	102.98
642.01	28.09
642.16	37.45
642.31	74.90
642.45	65.54
642.60	0.00
642.75	84.26
642.90	91.28
643.04	46.81
643.19	0.00
643.34	0.00
643.48	88.94
643.63	35.11
643.78	39.79
643.93	44.47
644.07	56.17
644.22	65.54
644.37	72.56
644.51	53.83
644.66	84.26
644.81	77.24
644.95	0.00
645.10	37.45
645.25	154.48
645.39	95.96
645.54	128.73
645.69	100.64
645.83	4.68
645.98	91.28
646.13	25.75
646.27	107.66
646.42	0.00
646.57	21.06
646.71	152.13
646.86	152.13
647.00	72.56
647.15	2.34
647.30	119.37
647.44	0.00
647.59	0.00
647.74	9.36
647.88	30.43
648.03	42.13
648.17	25.75
648.32	0.00
648.47	37.45
648.61	74.90
648.76	53.83
648.90	65.54
649.05	84.26
649.20	11.70
649.34	49.15
649.49	88.94
649.63	105.32
649.78	28.09
649.92	2.34
650.07	70.22
650.21	70.22
650.36	18.72
650.51	88.94
650.65	58.51
650.80	70.22
650.94	44.47
651.09	14.04
651.23	37.45
651.38	14.04
651.52	23.41
651.67	23.41
651.81	60.85
651.96	32.77
652.10	11.70
652.25	105.32
652.39	86.60
652.54	18.72
652.68	32.77
652.83	124.05
652.97	95.96
653.12	93.62
653.26	30.43
653.41	88.94
653.55	74.90
653.70	77.24
653.84	91.28
653.99	2.34
654.13	28.09
654.27	7.02
654.42	72.56
654.56	18.72
654.71	56.17
654.85	7.02
655.00	98.30
655.14	0.00
655.29	77.24
655.43	4.68
655.57	4.68
655.72	100.64
655.86	0.00
656.01	39.79
656.15	93.62
656.30	0.00
656.44	4.68
656.58	37.45
656.73	124.05
656.87	95.96
657.01	28.09
657.16	37.45
657.30	77.24
657.45	42.13
657.59	58.51
657.73	21.06
657.88	0.00
658.02	79.58
658.16	39.79
658.31	135.75
658.45	86.60
658.60	7.02
658.74	44.47
658.88	95.96
659.03	107.66
659.17	70.22
659.31	51.49
659.46	0.00
659.60	4.68
659.74	67.88
659.89	0.00
660.03	88.94
660.17	28.09
660.32	58.51
660.46	67.88
660.60	30.43
660.74	0.00
660.89	51.49
661.03	39.79
661.17	63.19
661.32	86.60
661.46	14.04
661.60	0.00
661.74	56.17
661.89	42.13
662.03	124.05
662.17	112.35
662.31	0.00
662.46	98.30
662.60	46.81
662.74	60.85
662.88	49.15
663.03	93.62
663.17	95.96
663.31	91.28
663.45	63.19
663.60	102.98
663.74	46.81
663.88	0.00
664.02	0.00
664.17	63.19
664.31	72.56
664.45	102.98
664.59	56.17
664.73	49.15
664.88	7.02
665.02	46.81
665.16	39.79
665.30	63.19
665.44	51.49
665.59	0.00
665.73	42.13
665.87	37.45
666.01	35.11
666.15	91.28
666.29	39.79
666.44	77.24
666.58	21.06
666.72	32.77
666.86	63.19
667.00	93.62
667.14	51.49
667.28	77.24
667.43	16.38
667.57	4.68
667.71	0.00
667.85	91.28
667.99	70.22
668.13	11.70
668.27	32.77
668.41	30.43
668.56	16.38
668.70	0.00
668.84	84.26
668.98	39.79
669.12	18.72
669.26	0.00
669.40	84.26
669.54	79.58
669.68	72.56
669.82	91.28
669.96	100.64
670.10	32.77
670.25	70.22
670.39	7.02
670.53	35.11
670.67	0.00
670.81	72.56
670.95	102.98
671.09	60.85
671.23	56.17
671.37	65.54
671.51	7.02
671.65	0.00
671.79	0.00
671.93	63.19
672.07	72.56
672.21	0.00
672.35	70.22
672.49	49.15
672.63	102.98
672.77	72.56
672.91	35.11
673.05	98.30
673.19	0.00
673.33	105.32
673.47	46.81
673.61	70.22
673.75	70.22
673.89	0.00
674.03	0.00
674.17	4.68
674.31	42.13
674.45	91.28
674.59	53.83
674.73	51.49
674.87	0.00
675.01	51.49
675.15	154.48
675.29	42.13
675.43	65.54
675.56	100.64
675.70	51.49
675.84	56.17
675.98	72.56
676.12	86.60
676.26	56.17
676.40	60.85
676.54	32.77
676.68	53.83
676.82	86.60
676.96	53.83
677.10	4.68
677.23	0.00
677.37	39.79
677.51	88.94
677.65	30.43
677.79	35.11
677.93	56.17
678.07	77.24
678.21	72.56
678.34	58.51
678.48	74.90
678.62	39.79
678.76	49.15
678.90	42.13
679.04	0.00
679.18	28.09
679.31	70.22
679.45	46.81
679.59	39.79
679.73	77.24
679.87	56.17
680.00	46.81
680.14	0.00
680.28	23.41
680.42	35.11
680.56	56.17
680.70	21.06
680.83	0.00
680.97	67.88
681.11	11.70
681.25	0.00
681.39	16.38
681.52	77.24
681.66	37.45
681.80	84.26
681.94	102.98
682.07	88.94
682.21	0.00
682.35	21.06
682.49	39.79
682.62	98.30
682.76	18.72
682.90	0.00
683.04	32.77
683.17	44.47
683.31	58.51
683.45	110.01
683.59	39.79
683.72	28.09
683.86	30.43
684.00	84.26
684.13	44.47
684.27	112.35
684.41	117.03
684.55	67.88
684.68	0.00
684.82	0.00
684.96	0.00
685.09	72.56
685.23	65.54
685.37	0.00
685.50	79.58
685.64	21.06
685.78	51.49
685.91	30.43
686.05	42.13
686.19	16.38
686.32	25.75
686.46	74.90
686.60	100.64
686.73	30.43
686.87	0.00
687.01	51.49
687.14	70.22
687.28	32.77
687.42	0.00
687.55	23.41
687.69	2.34
687.82	93.62
687.96	105.32
688.10	14.04
688.23	93.62
688.37	91.28
688.50	79.58
688.64	28.09
688.78	67.88
688.91	4.68
689.05	56.17
689.18	60.85
689.32	74.90
689.46	60.85
689.59	70.22
689.73	0.00
689.86	0.00
690.00	0.00
690.13	72.56
690.27	0.00
690.41	35.11
690.54	102.98
690.68	44.47
690.81	60.85
690.95	0.00
691.08	35.11
691.22	7.02
691.35	14.04
691.49	30.43
691.62	60.85
691.76	70.22
691.89	81.92
692.03	11.70
692.16	21.06
692.30	42.13
692.43	0.00
692.57	14.04
692.70	79.58
692.84	42.13
692.97	84.26
693.11	35.11
693.24	88.94
693.38	105.32
693.51	9.36
693.65	21.06
693.78	46.81
693.92	53.83
694.05	0.00
694.19	9.36
694.32	58.51
694.45	0.00
694.59	46.81
694.72	46.81
694.86	21.06
694.99	0.00
695.13	25.75
695.26	74.90
695.39	23.41
695.53	49.15
695.66	7.02
695.80	60.85
695.93	21.06
696.07	0.00
696.20	11.70
696.33	51.49
696.47	95.96
696.60	58.51
696.73	0.00
696.87	39.79
697.00	0.00
697.14	0.00
697.27	91.28
697.40	44.47
697.54	44.47
697.67	58.51
697.80	72.56
697.94	56.17
698.07	0.00
698.21	0.00
698.34	0.00
698.47	77.24
698.61	77.24
698.74	44.47
698.87	23.41
699.01	30.43
699.14	77.24
699.27	0.00
699.40	4.68
699.54	0.00
699.67	0.00
699.80	53.83
699.94	9.36
700.07	100.64
700.20	72.56
700.34	56.17
700.47	58.51
700.60	30.43
700.73	77.24
700.87	79.58
701.00	4.68
701.13	23.41
701.26	39.79
701.40	93.62
701.53	46.81
701.66	7.02
701.79	23.41
701.93	37.45
702.06	39.79
702.19	60.85
702.32	18.72
702.46	44.47
702.59	107.66
702.72	35.11
702.85	28.09
702.99	81.92
703.12	21.06
703.25	79.58
703.38	60.85
703.51	14.04
703.65	53.83
703.78	53.83
703.91	0.00
704.04	18.72
704.17	23.41
704.31	56.17
704.44	0.00
704.57	0.00
704.70	0.00
704.83	18.72
704.96	133.41
705.10	79.58
705.23	0.00
>>>>>End Processed Spectral Data<<<<<
