SpectraSuite Data File
++++++++++++++++++++++++++++++++++++
Date: Fri Oct 04 12:13:27 GMT-05:00 2013
User: price-jones
Dark Spectrum Present: No
Reference Spectrum Present: No
Number of Sampled Component Spectra: 1
Spectrometers: USB2+H05261
Integration Time (usec): 10000 (USB2+H05261)
Spectra Averaged: 1 (USB2+H05261)
Boxcar Smoothing: 0 (USB2+H05261)
Correct for Electrical Dark: No (USB2+H05261)
Strobe/Lamp Enabled: No (USB2+H05261)
Correct for Detector Non-linearity: No (USB2+H05261)
Correct for Stray Light: No (USB2+H05261)
Number of Pixels in Processed Spectrum: 2048
>>>>>Begin Processed Spectral Data<<<<<
365.73	0.00
365.92	0.00
366.12	0.00
366.32	0.00
366.52	0.00
366.72	0.00
366.91	0.00
367.11	0.00
367.31	0.00
367.51	0.00
367.70	0.00
367.90	0.00
368.10	0.00
368.30	0.00
368.49	0.00
368.69	0.00
368.89	0.00
369.09	0.00
369.28	0.00
369.48	0.00
369.68	0.00
369.87	0.00
370.07	0.00
370.27	0.00
370.47	0.00
370.66	0.00
370.86	0.00
371.06	0.00
371.25	0.00
371.45	11.70
371.65	0.00
371.84	0.00
372.04	0.00
372.24	23.41
372.44	0.00
372.63	18.72
372.83	21.06
373.03	32.77
373.22	46.81
373.42	35.11
373.62	0.00
373.81	0.00
374.01	51.49
374.21	56.17
374.40	56.17
374.60	44.47
374.79	49.15
374.99	86.60
375.19	95.96
375.38	37.45
375.58	0.00
375.78	7.02
375.97	0.00
376.17	11.70
376.37	7.02
376.56	0.00
376.76	72.56
376.95	77.24
377.15	67.88
377.35	32.77
377.54	42.13
377.74	102.98
377.93	7.02
378.13	81.92
378.33	46.81
378.52	11.70
378.72	74.90
378.91	21.06
379.11	0.00
379.31	0.00
379.50	0.00
379.70	0.00
379.89	9.36
380.09	74.90
380.28	0.00
380.48	0.00
380.68	0.00
380.87	11.70
381.07	0.00
381.26	42.13
381.46	0.00
381.65	0.00
381.85	44.47
382.04	0.00
382.24	18.72
382.43	0.00
382.63	37.45
382.83	67.88
383.02	72.56
383.22	25.75
383.41	60.85
383.61	60.85
383.80	14.04
384.00	37.45
384.19	0.00
384.39	0.00
384.58	7.02
384.78	0.00
384.97	39.79
385.17	0.00
385.36	77.24
385.56	11.70
385.75	25.75
385.95	0.00
386.14	65.54
386.34	11.70
386.53	0.00
386.72	37.45
386.92	11.70
387.11	0.00
387.31	65.54
387.50	65.54
387.70	16.38
387.89	0.00
388.09	56.17
388.28	11.70
388.48	30.43
388.67	51.49
388.86	21.06
389.06	0.00
389.25	11.70
389.45	0.00
389.64	28.09
389.84	9.36
390.03	81.92
390.22	11.70
390.42	14.04
390.61	84.26
390.81	77.24
391.00	11.70
391.19	88.94
391.39	18.72
391.58	14.04
391.78	70.22
391.97	72.56
392.16	25.75
392.36	16.38
392.55	23.41
392.75	35.11
392.94	91.28
393.13	14.04
393.33	2.34
393.52	49.15
393.71	39.79
393.91	53.83
394.10	0.00
394.29	0.00
394.49	63.19
394.68	21.06
394.88	0.00
395.07	39.79
395.26	46.81
395.46	53.83
395.65	46.81
395.84	9.36
396.04	7.02
396.23	18.72
396.42	39.79
396.62	30.43
396.81	72.56
397.00	0.00
397.19	37.45
397.39	37.45
397.58	25.75
397.77	0.00
397.97	9.36
398.16	0.00
398.35	53.83
398.55	35.11
398.74	37.45
398.93	30.43
399.12	51.49
399.32	0.00
399.51	30.43
399.70	49.15
399.90	25.75
400.09	0.00
400.28	0.00
400.47	0.00
400.67	51.49
400.86	53.83
401.05	51.49
401.24	60.85
401.44	11.70
401.63	0.00
401.82	0.00
402.01	42.13
402.21	32.77
402.40	72.56
402.59	11.70
402.78	0.00
402.97	28.09
403.17	0.00
403.36	28.09
403.55	65.54
403.74	0.00
403.93	102.98
404.13	0.00
404.32	32.77
404.51	11.70
404.70	21.06
404.89	0.00
405.09	35.11
405.28	0.00
405.47	0.00
405.66	16.38
405.85	0.00
406.05	23.41
406.24	30.43
406.43	39.79
406.62	133.41
406.81	0.00
407.00	0.00
407.20	35.11
407.39	53.83
407.58	91.28
407.77	0.00
407.96	28.09
408.15	7.02
408.34	4.68
408.54	0.00
408.73	0.00
408.92	37.45
409.11	21.06
409.30	72.56
409.49	16.38
409.68	2.34
409.87	49.15
410.07	46.81
410.26	35.11
410.45	9.36
410.64	0.00
410.83	0.00
411.02	51.49
411.21	49.15
411.40	23.41
411.59	0.00
411.78	9.36
411.98	9.36
412.17	79.58
412.36	58.51
412.55	84.26
412.74	44.47
412.93	28.09
413.12	23.41
413.31	44.47
413.50	28.09
413.69	0.00
413.88	88.94
414.07	44.47
414.26	0.00
414.45	74.90
414.64	60.85
414.83	16.38
415.02	2.34
415.22	37.45
415.41	21.06
415.60	42.13
415.79	0.00
415.98	72.56
416.17	28.09
416.36	32.77
416.55	0.00
416.74	28.09
416.93	46.81
417.12	39.79
417.31	0.00
417.50	37.45
417.69	112.35
417.88	14.04
418.07	56.17
418.26	0.00
418.45	58.51
418.64	63.19
418.83	0.00
419.02	0.00
419.21	30.43
419.39	72.56
419.58	65.54
419.77	18.72
419.96	14.04
420.15	23.41
420.34	56.17
420.53	81.92
420.72	0.00
420.91	72.56
421.10	53.83
421.29	79.58
421.48	28.09
421.67	67.88
421.86	77.24
422.05	65.54
422.24	21.06
422.43	77.24
422.61	4.68
422.80	88.94
422.99	14.04
423.18	53.83
423.37	23.41
423.56	0.00
423.75	56.17
423.94	74.90
424.13	49.15
424.32	0.00
424.50	32.77
424.69	91.28
424.88	63.19
425.07	53.83
425.26	30.43
425.45	49.15
425.64	18.72
425.83	51.49
426.01	53.83
426.20	0.00
426.39	28.09
426.58	77.24
426.77	35.11
426.96	81.92
427.15	32.77
427.33	16.38
427.52	7.02
427.71	23.41
427.90	37.45
428.09	23.41
428.28	60.85
428.46	0.00
428.65	7.02
428.84	53.83
429.03	42.13
429.22	9.36
429.40	9.36
429.59	30.43
429.78	32.77
429.97	60.85
430.16	60.85
430.34	0.00
430.53	63.19
430.72	46.81
430.91	119.37
431.10	21.06
431.28	0.00
431.47	53.83
431.66	0.00
431.85	0.00
432.03	9.36
432.22	91.28
432.41	91.28
432.60	28.09
432.79	79.58
432.97	65.54
433.16	63.19
433.35	0.00
433.54	4.68
433.72	0.00
433.91	84.26
434.10	51.49
434.28	37.45
434.47	39.79
434.66	37.45
434.85	88.94
435.03	42.13
435.22	63.19
435.41	0.00
435.59	46.81
435.78	63.19
435.97	16.38
436.16	63.19
436.34	28.09
436.53	105.32
436.72	18.72
436.90	0.00
437.09	4.68
437.28	21.06
437.46	30.43
437.65	39.79
437.84	60.85
438.02	18.72
438.21	53.83
438.40	2.34
438.58	46.81
438.77	72.56
438.96	0.00
439.14	51.49
439.33	74.90
439.52	21.06
439.70	51.49
439.89	39.79
440.08	49.15
440.26	18.72
440.45	102.98
440.63	63.19
440.82	18.72
441.01	0.00
441.19	21.06
441.38	65.54
441.57	0.00
441.75	14.04
441.94	4.68
442.12	88.94
442.31	37.45
442.50	0.00
442.68	56.17
442.87	0.00
443.05	2.34
443.24	0.00
443.43	11.70
443.61	91.28
443.80	4.68
443.98	72.56
444.17	100.64
444.35	9.36
444.54	58.51
444.73	70.22
444.91	37.45
445.10	67.88
445.28	77.24
445.47	39.79
445.65	16.38
445.84	25.75
446.02	42.13
446.21	0.00
446.39	65.54
446.58	32.77
446.77	0.00
446.95	112.35
447.14	39.79
447.32	56.17
447.51	65.54
447.69	102.98
447.88	58.51
448.06	30.43
448.25	0.00
448.43	18.72
448.62	0.00
448.80	49.15
448.99	32.77
449.17	67.88
449.36	0.00
449.54	28.09
449.73	58.51
449.91	72.56
450.10	0.00
450.28	42.13
450.46	77.24
450.65	81.92
450.83	100.64
451.02	0.00
451.20	0.00
451.39	28.09
451.57	0.00
451.76	0.00
451.94	39.79
452.13	60.85
452.31	74.90
452.49	14.04
452.68	7.02
452.86	65.54
453.05	138.09
453.23	0.00
453.42	30.43
453.60	51.49
453.78	28.09
453.97	46.81
454.15	18.72
454.34	91.28
454.52	0.00
454.70	53.83
454.89	0.00
455.07	60.85
455.26	0.00
455.44	21.06
455.62	77.24
455.81	79.58
455.99	0.00
456.17	65.54
456.36	86.60
456.54	30.43
456.73	105.32
456.91	4.68
457.09	28.09
457.28	0.00
457.46	0.00
457.64	0.00
457.83	0.00
458.01	14.04
458.19	0.00
458.38	11.70
458.56	81.92
458.74	51.49
458.93	42.13
459.11	30.43
459.29	0.00
459.48	39.79
459.66	0.00
459.84	0.00
460.03	42.13
460.21	14.04
460.39	53.83
460.57	2.34
460.76	44.47
460.94	0.00
461.12	16.38
461.31	67.88
461.49	84.26
461.67	35.11
461.85	32.77
462.04	25.75
462.22	100.64
462.40	25.75
462.59	30.43
462.77	0.00
462.95	32.77
463.13	56.17
463.32	30.43
463.50	0.00
463.68	0.00
463.86	32.77
464.05	37.45
464.23	53.83
464.41	32.77
464.59	21.06
464.78	23.41
464.96	7.02
465.14	28.09
465.32	65.54
465.50	0.00
465.69	67.88
465.87	39.79
466.05	0.00
466.23	72.56
466.41	23.41
466.60	74.90
466.78	46.81
466.96	0.00
467.14	81.92
467.32	23.41
467.51	30.43
467.69	2.34
467.87	21.06
468.05	0.00
468.23	14.04
468.41	72.56
468.60	77.24
468.78	0.00
468.96	46.81
469.14	112.35
469.32	70.22
469.50	60.85
469.69	56.17
469.87	37.45
470.05	0.00
470.23	18.72
470.41	0.00
470.59	9.36
470.77	58.51
470.95	4.68
471.14	42.13
471.32	0.00
471.50	0.00
471.68	0.00
471.86	53.83
472.04	30.43
472.22	2.34
472.40	42.13
472.58	30.43
472.77	70.22
472.95	65.54
473.13	7.02
473.31	16.38
473.49	39.79
473.67	49.15
473.85	18.72
474.03	0.00
474.21	32.77
474.39	25.75
474.57	74.90
474.75	0.00
474.93	56.17
475.12	42.13
475.30	49.15
475.48	56.17
475.66	23.41
475.84	30.43
476.02	14.04
476.20	16.38
476.38	28.09
476.56	0.00
476.74	21.06
476.92	0.00
477.10	9.36
477.28	37.45
477.46	49.15
477.64	28.09
477.82	0.00
478.00	2.34
478.18	79.58
478.36	11.70
478.54	81.92
478.72	37.45
478.90	72.56
479.08	25.75
479.26	0.00
479.44	30.43
479.62	140.43
479.80	56.17
479.98	0.00
480.16	0.00
480.34	28.09
480.52	46.81
480.70	4.68
480.88	14.04
481.06	0.00
481.24	11.70
481.41	67.88
481.59	74.90
481.77	28.09
481.95	39.79
482.13	0.00
482.31	4.68
482.49	60.85
482.67	18.72
482.85	49.15
483.03	0.00
483.21	60.85
483.39	53.83
483.57	7.02
483.74	18.72
483.92	46.81
484.10	35.11
484.28	44.47
484.46	14.04
484.64	58.51
484.82	0.00
485.00	0.00
485.18	9.36
485.35	0.00
485.53	0.00
485.71	21.06
485.89	53.83
486.07	98.30
486.25	0.00
486.43	44.47
486.61	25.75
486.78	23.41
486.96	42.13
487.14	0.00
487.32	53.83
487.50	0.00
487.68	39.79
487.85	126.39
488.03	74.90
488.21	81.92
488.39	23.41
488.57	91.28
488.75	39.79
488.92	72.56
489.10	16.38
489.28	0.00
489.46	0.00
489.64	95.96
489.81	86.60
489.99	28.09
490.17	37.45
490.35	65.54
490.53	65.54
490.70	9.36
490.88	30.43
491.06	42.13
491.24	25.75
491.41	44.47
491.59	51.49
491.77	32.77
491.95	11.70
492.13	37.45
492.30	67.88
492.48	44.47
492.66	32.77
492.84	63.19
493.01	51.49
493.19	11.70
493.37	79.58
493.54	4.68
493.72	0.00
493.90	25.75
494.08	93.62
494.25	63.19
494.43	0.00
494.61	60.85
494.79	44.47
494.96	37.45
495.14	0.00
495.32	0.00
495.49	79.58
495.67	72.56
495.85	58.51
496.02	21.06
496.20	21.06
496.38	51.49
496.55	0.00
496.73	35.11
496.91	21.06
497.09	30.43
497.26	53.83
497.44	49.15
497.62	4.68
497.79	39.79
497.97	74.90
498.14	23.41
498.32	65.54
498.50	16.38
498.67	70.22
498.85	60.85
499.03	25.75
499.20	11.70
499.38	58.51
499.56	32.77
499.73	65.54
499.91	30.43
500.08	21.06
500.26	0.00
500.44	44.47
500.61	37.45
500.79	51.49
500.97	37.45
501.14	65.54
501.32	0.00
501.49	91.28
501.67	51.49
501.84	0.00
502.02	21.06
502.20	37.45
502.37	39.79
502.55	53.83
502.72	58.51
502.90	81.92
503.07	53.83
503.25	30.43
503.43	4.68
503.60	0.00
503.78	16.38
503.95	0.00
504.13	86.60
504.30	28.09
504.48	25.75
504.65	49.15
504.83	14.04
505.01	56.17
505.18	0.00
505.36	0.00
505.53	37.45
505.71	56.17
505.88	32.77
506.06	32.77
506.23	110.01
506.41	63.19
506.58	0.00
506.76	91.28
506.93	67.88
507.11	0.00
507.28	37.45
507.46	30.43
507.63	67.88
507.81	0.00
507.98	42.13
508.16	58.51
508.33	91.28
508.50	91.28
508.68	7.02
508.85	81.92
509.03	32.77
509.20	46.81
509.38	30.43
509.55	0.00
509.73	51.49
509.90	0.00
510.08	18.72
510.25	0.00
510.42	0.00
510.60	0.00
510.77	44.47
510.95	72.56
511.12	44.47
511.30	35.11
511.47	39.79
511.64	25.75
511.82	58.51
511.99	37.45
512.17	67.88
512.34	53.83
512.51	14.04
512.69	37.45
512.86	91.28
513.04	49.15
513.21	4.68
513.38	23.41
513.56	9.36
513.73	37.45
513.90	56.17
514.08	0.00
514.25	114.69
514.43	0.00
514.60	23.41
514.77	39.79
514.95	46.81
515.12	18.72
515.29	21.06
515.47	0.00
515.64	44.47
515.81	53.83
515.99	11.70
516.16	44.47
516.33	25.75
516.51	37.45
516.68	0.00
516.85	7.02
517.03	23.41
517.20	95.96
517.37	2.34
517.54	32.77
517.72	28.09
517.89	23.41
518.06	9.36
518.24	46.81
518.41	18.72
518.58	9.36
518.75	77.24
518.93	79.58
519.10	46.81
519.27	93.62
519.45	37.45
519.62	84.26
519.79	63.19
519.96	18.72
520.14	53.83
520.31	51.49
520.48	100.64
520.65	124.05
520.83	84.26
521.00	32.77
521.17	35.11
521.34	28.09
521.52	4.68
521.69	39.79
521.86	11.70
522.03	11.70
522.20	88.94
522.38	23.41
522.55	2.34
522.72	117.03
522.89	86.60
523.07	56.17
523.24	42.13
523.41	16.38
523.58	4.68
523.75	100.64
523.92	0.00
524.10	0.00
524.27	11.70
524.44	58.51
524.61	0.00
524.78	79.58
524.96	7.02
525.13	32.77
525.30	84.26
525.47	0.00
525.64	142.77
525.81	39.79
525.98	37.45
526.16	0.00
526.33	0.00
526.50	49.15
526.67	119.37
526.84	0.00
527.01	72.56
527.18	63.19
527.36	79.58
527.53	98.30
527.70	2.34
527.87	72.56
528.04	9.36
528.21	39.79
528.38	102.98
528.55	138.09
528.72	32.77
528.89	93.62
529.07	11.70
529.24	72.56
529.41	9.36
529.58	39.79
529.75	88.94
529.92	0.00
530.09	72.56
530.26	0.00
530.43	0.00
530.60	91.28
530.77	49.15
530.94	2.34
531.11	63.19
531.28	49.15
531.46	79.58
531.63	23.41
531.80	102.98
531.97	30.43
532.14	42.13
532.31	0.00
532.48	0.00
532.65	98.30
532.82	21.06
532.99	25.75
533.16	7.02
533.33	49.15
533.50	105.32
533.67	16.38
533.84	30.43
534.01	28.09
534.18	0.00
534.35	37.45
534.52	44.47
534.69	32.77
534.86	70.22
535.03	42.13
535.20	67.88
535.37	9.36
535.54	0.00
535.71	65.54
535.88	2.34
536.05	44.47
536.22	42.13
536.38	28.09
536.55	49.15
536.72	74.90
536.89	51.49
537.06	53.83
537.23	114.69
537.40	0.00
537.57	135.75
537.74	21.06
537.91	72.56
538.08	37.45
538.25	67.88
538.42	44.47
538.59	32.77
538.75	37.45
538.92	28.09
539.09	30.43
539.26	25.75
539.43	51.49
539.60	114.69
539.77	142.77
539.94	67.88
540.11	79.58
540.28	65.54
540.44	67.88
540.61	91.28
540.78	39.79
540.95	46.81
541.12	105.32
541.29	58.51
541.46	74.90
541.62	4.68
541.79	91.28
541.96	35.11
542.13	58.51
542.30	46.81
542.47	14.04
542.63	53.83
542.80	0.00
542.97	79.58
543.14	70.22
543.31	49.15
543.48	2.34
543.64	81.92
543.81	98.30
543.98	114.69
544.15	0.00
544.32	39.79
544.48	2.34
544.65	0.00
544.82	16.38
544.99	86.60
545.16	60.85
545.32	77.24
545.49	81.92
545.66	0.00
545.83	7.02
546.00	58.51
546.16	0.00
546.33	0.00
546.50	51.49
546.67	60.85
546.83	51.49
547.00	39.79
547.17	51.49
547.34	0.00
547.50	0.00
547.67	21.06
547.84	124.05
548.00	0.00
548.17	7.02
548.34	0.00
548.51	126.39
548.67	93.62
548.84	16.38
549.01	79.58
549.18	84.26
549.34	81.92
549.51	32.77
549.68	51.49
549.84	30.43
550.01	70.22
550.18	16.38
550.34	21.06
550.51	37.45
550.68	30.43
550.84	0.00
551.01	74.90
551.18	0.00
551.34	0.00
551.51	35.11
551.68	11.70
551.84	30.43
552.01	110.01
552.18	9.36
552.34	72.56
552.51	16.38
552.68	42.13
552.84	56.17
553.01	72.56
553.18	86.60
553.34	53.83
553.51	51.49
553.67	44.47
553.84	37.45
554.01	53.83
554.17	35.11
554.34	0.00
554.51	0.00
554.67	65.54
554.84	2.34
555.00	0.00
555.17	30.43
555.33	84.26
555.50	0.00
555.67	37.45
555.83	60.85
556.00	28.09
556.16	124.05
556.33	72.56
556.50	51.49
556.66	67.88
556.83	65.54
556.99	4.68
557.16	23.41
557.32	30.43
557.49	142.77
557.65	0.00
557.82	91.28
557.98	77.24
558.15	70.22
558.32	88.94
558.48	0.00
558.65	49.15
558.81	81.92
558.98	53.83
559.14	7.02
559.31	70.22
559.47	51.49
559.64	23.41
559.80	7.02
559.97	72.56
560.13	42.13
560.30	28.09
560.46	56.17
560.63	9.36
560.79	105.32
560.96	56.17
561.12	88.94
561.29	67.88
561.45	0.00
561.61	42.13
561.78	53.83
561.94	119.37
562.11	0.00
562.27	56.17
562.44	0.00
562.60	46.81
562.77	23.41
562.93	60.85
563.10	60.85
563.26	0.00
563.42	72.56
563.59	30.43
563.75	49.15
563.92	14.04
564.08	70.22
564.24	7.02
564.41	67.88
564.57	42.13
564.74	60.85
564.90	60.85
565.07	81.92
565.23	131.07
565.39	72.56
565.56	0.00
565.72	49.15
565.88	70.22
566.05	21.06
566.21	81.92
566.38	18.72
566.54	70.22
566.70	37.45
566.87	70.22
567.03	30.43
567.19	37.45
567.36	112.35
567.52	28.09
567.68	37.45
567.85	58.51
568.01	70.22
568.17	0.00
568.34	56.17
568.50	35.11
568.66	58.51
568.83	63.19
568.99	44.47
569.15	21.06
569.32	95.96
569.48	112.35
569.64	0.00
569.81	44.47
569.97	23.41
570.13	28.09
570.30	32.77
570.46	44.47
570.62	95.96
570.78	74.90
570.95	70.22
571.11	67.88
571.27	44.47
571.43	37.45
571.60	86.60
571.76	74.90
571.92	0.00
572.09	56.17
572.25	0.00
572.41	0.00
572.57	95.96
572.74	53.83
572.90	46.81
573.06	51.49
573.22	0.00
573.38	95.96
573.55	44.47
573.71	30.43
573.87	21.06
574.03	39.79
574.20	74.90
574.36	23.41
574.52	0.00
574.68	60.85
574.84	58.51
575.01	0.00
575.17	0.00
575.33	86.60
575.49	16.38
575.65	63.19
575.82	35.11
575.98	84.26
576.14	102.98
576.30	23.41
576.46	42.13
576.62	91.28
576.79	63.19
576.95	60.85
577.11	2.34
577.27	79.58
577.43	58.51
577.59	95.96
577.75	0.00
577.92	4.68
578.08	21.06
578.24	23.41
578.40	28.09
578.56	65.54
578.72	70.22
578.88	0.00
579.04	23.41
579.21	30.43
579.37	25.75
579.53	21.06
579.69	58.51
579.85	0.00
580.01	72.56
580.17	37.45
580.33	25.75
580.49	44.47
580.65	81.92
580.82	2.34
580.98	51.49
581.14	39.79
581.30	0.00
581.46	60.85
581.62	84.26
581.78	77.24
581.94	0.00
582.10	21.06
582.26	56.17
582.42	23.41
582.58	107.66
582.74	0.00
582.90	30.43
583.06	28.09
583.22	30.43
583.38	0.00
583.54	0.00
583.70	49.15
583.86	56.17
584.02	60.85
584.18	86.60
584.34	63.19
584.50	182.56
584.66	1095.37
584.82	2593.31
584.98	3775.28
585.14	3417.18
585.30	2113.50
585.46	1280.27
585.62	910.47
585.78	367.46
585.94	128.73
586.10	93.62
586.26	74.90
586.42	91.28
586.58	0.00
586.74	91.28
586.90	67.88
587.06	46.81
587.22	91.28
587.38	44.47
587.54	84.26
587.70	252.78
587.86	353.42
588.02	404.91
588.18	283.20
588.34	177.88
588.49	84.26
588.65	21.06
588.81	0.00
588.97	23.41
589.13	9.36
589.29	37.45
589.45	16.38
589.61	56.17
589.77	70.22
589.93	51.49
590.08	51.49
590.24	65.54
590.40	65.54
590.56	0.00
590.72	126.39
590.88	67.88
591.04	107.66
591.20	11.70
591.35	81.92
591.51	46.81
591.67	81.92
591.83	86.60
591.99	98.30
592.15	65.54
592.31	63.19
592.46	58.51
592.62	131.07
592.78	121.71
592.94	58.51
593.10	39.79
593.26	0.00
593.41	32.77
593.57	0.00
593.73	28.09
593.89	135.75
594.05	386.19
594.20	568.75
594.36	479.81
594.52	383.85
594.68	168.52
594.84	182.56
594.99	131.07
595.15	60.85
595.31	4.68
595.47	56.17
595.62	0.00
595.78	21.06
595.94	84.26
596.10	65.54
596.25	72.56
596.41	4.68
596.57	39.79
596.73	30.43
596.88	28.09
597.04	32.77
597.20	128.73
597.36	126.39
597.51	131.07
597.67	135.75
597.83	119.37
597.99	30.43
598.14	46.81
598.30	7.02
598.46	4.68
598.61	91.28
598.77	2.34
598.93	0.00
599.09	100.64
599.24	30.43
599.40	60.85
599.56	21.06
599.71	51.49
599.87	35.11
600.03	28.09
600.18	18.72
600.34	37.45
600.50	70.22
600.65	98.30
600.81	56.17
600.97	0.00
601.12	74.90
601.28	58.51
601.44	0.00
601.59	46.81
601.75	72.56
601.91	65.54
602.06	0.00
602.22	74.90
602.37	98.30
602.53	72.56
602.69	152.13
602.84	124.05
603.00	81.92
603.16	126.39
603.31	63.19
603.47	77.24
603.62	0.00
603.78	86.60
603.94	14.04
604.09	0.00
604.25	60.85
604.40	67.88
604.56	70.22
604.71	126.39
604.87	51.49
605.03	0.00
605.18	32.77
605.34	107.66
605.49	4.68
605.65	11.70
605.80	51.49
605.96	28.09
606.12	0.00
606.27	7.02
606.43	93.62
606.58	51.49
606.74	70.22
606.89	198.95
607.05	351.08
607.20	447.04
607.36	428.32
607.51	217.67
607.67	194.26
607.82	126.39
607.98	81.92
608.13	105.32
608.29	56.17
608.44	102.98
608.60	49.15
608.75	32.77
608.91	60.85
609.06	290.23
609.22	421.30
609.37	690.46
609.53	699.82
609.68	507.90
609.84	313.63
609.99	142.77
610.15	110.01
610.30	84.26
610.46	42.13
610.61	53.83
610.76	44.47
610.92	81.92
611.07	16.38
611.23	9.36
611.38	53.83
611.54	128.73
611.69	32.77
611.84	79.58
612.00	51.49
612.15	28.09
612.31	60.85
612.46	86.60
612.62	60.85
612.77	37.45
612.92	63.19
613.08	35.11
613.23	44.47
613.39	42.13
613.54	46.81
613.69	334.70
613.85	725.57
614.00	1090.69
614.15	1259.21
614.31	854.30
614.46	564.07
614.62	404.91
614.77	252.78
614.92	93.62
615.08	53.83
615.23	114.69
615.38	37.45
615.54	67.88
615.69	86.60
615.84	173.20
616.00	245.76
616.15	294.91
616.30	344.06
616.46	163.84
616.61	145.11
616.76	67.88
616.92	49.15
617.07	67.88
617.22	63.19
617.37	49.15
617.53	81.92
617.68	25.75
617.83	23.41
617.99	88.94
618.14	93.62
618.29	60.85
618.45	16.38
618.60	9.36
618.75	11.70
618.90	72.56
619.06	21.06
619.21	39.79
619.36	70.22
619.51	32.77
619.67	100.64
619.82	105.32
619.97	32.77
620.12	44.47
620.28	0.00
620.43	65.54
620.58	65.54
620.73	63.19
620.89	42.13
621.04	35.11
621.19	77.24
621.34	147.45
621.49	191.92
621.65	196.60
621.80	149.79
621.95	147.45
622.10	119.37
622.25	70.22
622.41	37.45
622.56	0.00
622.71	0.00
622.86	51.49
623.01	23.41
623.16	39.79
623.32	11.70
623.47	0.00
623.62	74.90
623.77	37.45
623.92	32.77
624.07	23.41
624.23	95.96
624.38	0.00
624.53	11.70
624.68	88.94
624.83	14.04
624.98	18.72
625.13	63.19
625.29	53.83
625.44	25.75
625.59	67.88
625.74	58.51
625.89	16.38
626.04	131.07
626.19	355.76
626.34	505.56
626.49	624.92
626.65	449.38
626.80	280.86
626.95	234.05
627.10	173.20
627.25	117.03
627.40	91.28
627.55	56.17
627.70	16.38
627.85	46.81
628.00	46.81
628.15	49.15
628.30	0.00
628.45	100.64
628.60	39.79
628.76	32.77
628.91	84.26
629.06	28.09
629.21	37.45
629.36	35.11
629.51	77.24
629.66	53.83
629.81	25.75
629.96	98.30
630.11	100.64
630.26	163.84
630.41	142.77
630.56	102.98
630.71	30.43
630.86	121.71
631.01	98.30
631.16	9.36
631.31	35.11
631.46	88.94
631.61	56.17
631.76	102.98
631.91	35.11
632.06	93.62
632.21	49.15
632.36	35.11
632.51	0.00
632.66	0.00
632.81	119.37
632.96	217.67
633.10	327.68
633.25	440.02
633.40	290.23
633.55	301.93
633.70	140.43
633.85	173.20
634.00	95.96
634.15	35.11
634.30	44.47
634.45	0.00
634.60	0.00
634.75	23.41
634.90	81.92
635.05	81.92
635.19	0.00
635.34	16.38
635.49	28.09
635.64	44.47
635.79	74.90
635.94	49.15
636.09	16.38
636.24	0.00
636.39	58.51
636.53	63.19
636.68	0.00
636.83	51.49
636.98	93.62
637.13	23.41
637.28	63.19
637.43	63.19
637.57	124.05
637.72	203.63
637.87	416.62
638.02	688.12
638.17	812.17
638.32	580.45
638.46	374.49
638.61	322.99
638.76	182.56
638.91	194.26
639.06	60.85
639.20	23.41
639.35	25.75
639.50	11.70
639.65	280.86
639.80	767.70
639.94	1097.71
640.09	1160.91
640.24	1001.75
640.39	718.54
640.54	440.02
640.68	266.82
640.83	140.43
640.98	70.22
641.13	37.45
641.27	65.54
641.42	44.47
641.57	93.62
641.72	60.85
641.86	23.41
642.01	49.15
642.16	21.06
642.31	0.00
642.45	114.69
642.60	23.41
642.75	2.34
642.90	63.19
643.04	25.75
643.19	16.38
643.34	51.49
643.48	98.30
643.63	44.47
643.78	72.56
643.93	105.32
644.07	56.17
644.22	23.41
644.37	100.64
644.51	0.00
644.66	9.36
644.81	35.11
644.95	56.17
645.10	58.51
645.25	28.09
645.39	0.00
645.54	91.28
645.69	11.70
645.83	18.72
645.98	0.00
646.13	0.00
646.27	53.83
646.42	46.81
646.57	58.51
646.71	46.81
646.86	77.24
647.00	65.54
647.15	14.04
647.30	32.77
647.44	0.00
647.59	28.09
647.74	7.02
647.88	53.83
648.03	74.90
648.17	16.38
648.32	28.09
648.47	21.06
648.61	21.06
648.76	0.00
648.90	72.56
649.05	32.77
649.20	30.43
649.34	77.24
649.49	53.83
649.63	91.28
649.78	0.00
649.92	0.00
650.07	149.79
650.21	290.23
650.36	585.13
650.51	669.39
650.65	503.22
650.80	362.78
650.94	304.27
651.09	133.41
651.23	168.52
651.38	102.98
651.52	53.83
651.67	93.62
651.81	93.62
651.96	60.85
652.10	63.19
652.25	0.00
652.39	58.51
652.54	25.75
652.68	42.13
652.83	126.39
652.97	191.92
653.12	234.05
653.26	241.08
653.41	88.94
653.55	93.62
653.70	102.98
653.84	149.79
653.99	42.13
654.13	51.49
654.27	16.38
654.42	30.43
654.56	7.02
654.71	74.90
654.85	28.09
655.00	39.79
655.14	42.13
655.29	39.79
655.43	7.02
655.57	70.22
655.72	63.19
655.86	7.02
656.01	0.00
656.15	0.00
656.30	37.45
656.44	4.68
656.58	25.75
656.73	0.00
656.87	0.00
657.01	46.81
657.16	0.00
657.30	11.70
657.45	88.94
657.59	30.43
657.73	32.77
657.88	0.00
658.02	117.03
658.16	28.09
658.31	9.36
658.45	14.04
658.60	32.77
658.74	4.68
658.88	0.00
659.03	46.81
659.17	11.70
659.31	56.17
659.46	60.85
659.60	255.12
659.74	276.18
659.89	294.91
660.03	173.20
660.17	194.26
660.32	53.83
660.46	58.51
660.60	95.96
660.74	0.00
660.89	65.54
661.03	30.43
661.17	32.77
661.32	44.47
661.46	0.00
661.60	39.79
661.74	35.11
661.89	49.15
662.03	25.75
662.17	72.56
662.31	23.41
662.46	18.72
662.60	100.64
662.74	18.72
662.88	42.13
663.03	42.13
663.17	0.00
663.31	70.22
663.45	91.28
663.60	77.24
663.74	0.00
663.88	39.79
664.02	86.60
664.17	18.72
664.31	46.81
664.45	7.02
664.59	21.06
664.73	30.43
664.88	0.00
665.02	0.00
665.16	74.90
665.30	53.83
665.44	37.45
665.59	42.13
665.73	0.00
665.87	44.47
666.01	63.19
666.15	0.00
666.29	37.45
666.44	121.71
666.58	70.22
666.72	60.85
666.86	0.00
667.00	18.72
667.14	72.56
667.28	79.58
667.43	285.55
667.57	416.62
667.71	592.16
667.85	540.66
667.99	332.36
668.13	222.35
668.27	229.37
668.41	107.66
668.56	79.58
668.70	42.13
668.84	0.00
668.98	0.00
669.12	58.51
669.26	63.19
669.40	21.06
669.54	81.92
669.68	16.38
669.82	32.77
669.96	25.75
670.10	35.11
670.25	56.17
670.39	30.43
670.53	95.96
670.67	7.02
670.81	9.36
670.95	105.32
671.09	11.70
671.23	124.05
671.37	269.16
671.51	465.77
671.65	355.76
671.79	271.50
671.93	229.37
672.07	100.64
672.21	81.92
672.35	0.00
672.49	37.45
672.63	105.32
672.77	9.36
672.91	56.17
673.05	14.04
673.19	49.15
673.33	9.36
673.47	46.81
673.61	63.19
673.75	70.22
673.89	39.79
674.03	63.19
674.17	44.47
674.31	21.06
674.45	16.38
674.59	51.49
674.73	0.00
674.87	11.70
675.01	14.04
675.15	11.70
675.29	49.15
675.43	98.30
675.56	0.00
675.70	42.13
675.84	53.83
675.98	35.11
676.12	70.22
676.26	0.00
676.40	0.00
676.54	11.70
676.68	0.00
676.82	0.00
676.96	86.60
677.10	46.81
677.23	39.79
677.37	98.30
677.51	14.04
677.65	60.85
677.79	63.19
677.93	42.13
678.07	58.51
678.21	28.09
678.34	23.41
678.48	58.51
678.62	0.00
678.76	44.47
678.90	53.83
679.04	51.49
679.18	51.49
679.31	74.90
679.45	53.83
679.59	25.75
679.73	70.22
679.87	28.09
680.00	30.43
680.14	77.24
680.28	4.68
680.42	100.64
680.56	0.00
680.70	0.00
680.83	28.09
680.97	42.13
681.11	23.41
681.25	42.13
681.39	4.68
681.52	0.00
681.66	42.13
681.80	0.00
681.94	21.06
682.07	53.83
682.21	32.77
682.35	16.38
682.49	2.34
682.62	21.06
682.76	2.34
682.90	51.49
683.04	63.19
683.17	58.51
683.31	14.04
683.45	58.51
683.59	0.00
683.72	0.00
683.86	23.41
684.00	0.00
684.13	25.75
684.27	0.00
684.41	51.49
684.55	23.41
684.68	7.02
684.82	42.13
684.96	56.17
685.09	0.00
685.23	49.15
685.37	37.45
685.50	37.45
685.64	44.47
685.78	0.00
685.91	35.11
686.05	14.04
686.19	0.00
686.32	11.70
686.46	16.38
686.60	56.17
686.73	32.77
686.87	72.56
687.01	117.03
687.14	46.81
687.28	53.83
687.42	9.36
687.55	21.06
687.69	42.13
687.82	102.98
687.96	37.45
688.10	60.85
688.23	0.00
688.37	49.15
688.50	72.56
688.64	9.36
688.78	37.45
688.91	42.13
689.05	81.92
689.18	11.70
689.32	44.47
689.46	14.04
689.59	72.56
689.73	23.41
689.86	23.41
690.00	60.85
690.13	37.45
690.27	35.11
690.41	16.38
690.54	39.79
690.68	67.88
690.81	42.13
690.95	0.00
691.08	11.70
691.22	30.43
691.35	0.00
691.49	11.70
691.62	25.75
691.76	0.00
691.89	0.00
692.03	60.85
692.16	74.90
692.30	135.75
692.43	60.85
692.57	189.58
692.70	217.67
692.84	308.95
692.97	203.63
693.11	131.07
693.24	133.41
693.38	163.84
693.51	51.49
693.65	58.51
693.78	14.04
693.92	0.00
694.05	121.71
694.19	46.81
694.32	56.17
694.45	0.00
694.59	30.43
694.72	37.45
694.86	117.03
694.99	65.54
695.13	25.75
695.26	105.32
695.39	39.79
695.53	23.41
695.66	81.92
695.80	63.19
695.93	30.43
696.07	42.13
696.20	28.09
696.33	46.81
696.47	65.54
696.60	65.54
696.73	77.24
696.87	0.00
697.00	16.38
697.14	21.06
697.27	65.54
697.40	37.45
697.54	9.36
697.67	70.22
697.80	67.88
697.94	37.45
698.07	77.24
698.21	0.00
698.34	35.11
698.47	0.00
698.61	7.02
698.74	32.77
698.87	65.54
699.01	25.75
699.14	0.00
699.27	0.00
699.40	9.36
699.54	32.77
699.67	0.00
699.80	0.00
699.94	42.13
700.07	0.00
700.20	0.00
700.34	110.01
700.47	25.75
700.60	145.11
700.73	42.13
700.87	14.04
701.00	42.13
701.13	49.15
701.26	14.04
701.40	28.09
701.53	65.54
701.66	65.54
701.79	28.09
701.93	25.75
702.06	4.68
702.19	49.15
702.32	91.28
702.46	46.81
702.59	63.19
702.72	60.85
702.85	88.94
702.99	311.29
703.12	449.38
703.25	451.72
703.38	409.59
703.51	330.02
703.65	262.14
703.78	208.31
703.91	152.13
704.04	107.66
704.17	39.79
704.31	79.58
704.44	16.38
704.57	74.90
704.70	84.26
704.83	84.26
704.96	93.62
705.10	39.79
705.23	58.51
>>>>>End Processed Spectral Data<<<<<
