SpectraSuite Data File
++++++++++++++++++++++++++++++++++++
Date: Fri Oct 04 12:13:42 GMT-05:00 2013
User: price-jones
Dark Spectrum Present: No
Reference Spectrum Present: No
Number of Sampled Component Spectra: 1
Spectrometers: USB2+H05261
Integration Time (usec): 10000 (USB2+H05261)
Spectra Averaged: 1 (USB2+H05261)
Boxcar Smoothing: 0 (USB2+H05261)
Correct for Electrical Dark: No (USB2+H05261)
Strobe/Lamp Enabled: No (USB2+H05261)
Correct for Detector Non-linearity: No (USB2+H05261)
Correct for Stray Light: No (USB2+H05261)
Number of Pixels in Processed Spectrum: 2048
>>>>>Begin Processed Spectral Data<<<<<
365.73	0.00
365.92	0.00
366.12	0.00
366.32	0.00
366.52	0.00
366.72	0.00
366.91	0.00
367.11	0.00
367.31	0.00
367.51	0.00
367.70	0.00
367.90	0.00
368.10	0.00
368.30	0.00
368.49	0.00
368.69	0.00
368.89	0.00
369.09	0.00
369.28	0.00
369.48	0.00
369.68	0.00
369.87	0.00
370.07	0.00
370.27	0.00
370.47	0.00
370.66	0.00
370.86	0.00
371.06	0.00
371.25	0.00
371.45	0.00
371.65	0.00
371.84	0.00
372.04	0.00
372.24	0.00
372.44	9.36
372.63	0.00
372.83	28.09
373.03	0.00
373.22	0.00
373.42	9.36
373.62	65.54
373.81	56.17
374.01	21.06
374.21	42.13
374.40	0.00
374.60	0.00
374.79	2.34
374.99	37.45
375.19	21.06
375.38	9.36
375.58	14.04
375.78	74.90
375.97	37.45
376.17	18.72
376.37	9.36
376.56	65.54
376.76	18.72
376.95	58.51
377.15	42.13
377.35	100.64
377.54	53.83
377.74	46.81
377.93	46.81
378.13	32.77
378.33	51.49
378.52	46.81
378.72	35.11
378.91	56.17
379.11	30.43
379.31	91.28
379.50	81.92
379.70	51.49
379.89	30.43
380.09	25.75
380.28	39.79
380.48	0.00
380.68	70.22
380.87	0.00
381.07	0.00
381.26	0.00
381.46	35.11
381.65	0.00
381.85	25.75
382.04	58.51
382.24	39.79
382.43	2.34
382.63	77.24
382.83	18.72
383.02	4.68
383.22	65.54
383.41	0.00
383.61	0.00
383.80	37.45
384.00	35.11
384.19	11.70
384.39	21.06
384.58	70.22
384.78	32.77
384.97	35.11
385.17	0.00
385.36	2.34
385.56	0.00
385.75	0.00
385.95	0.00
386.14	2.34
386.34	49.15
386.53	37.45
386.72	79.58
386.92	84.26
387.11	84.26
387.31	60.85
387.50	0.00
387.70	2.34
387.89	32.77
388.09	39.79
388.28	0.00
388.48	0.00
388.67	0.00
388.86	23.41
389.06	0.00
389.25	0.00
389.45	74.90
389.64	0.00
389.84	46.81
390.03	16.38
390.22	0.00
390.42	0.00
390.61	0.00
390.81	56.17
391.00	25.75
391.19	60.85
391.39	11.70
391.58	4.68
391.78	42.13
391.97	100.64
392.16	0.00
392.36	53.83
392.55	11.70
392.75	0.00
392.94	95.96
393.13	0.00
393.33	65.54
393.52	4.68
393.71	32.77
393.91	30.43
394.10	98.30
394.29	79.58
394.49	49.15
394.68	77.24
394.88	23.41
395.07	63.19
395.26	0.00
395.46	84.26
395.65	0.00
395.84	102.98
396.04	42.13
396.23	7.02
396.42	0.00
396.62	18.72
396.81	32.77
397.00	79.58
397.19	46.81
397.39	0.00
397.58	95.96
397.77	46.81
397.97	0.00
398.16	0.00
398.35	37.45
398.55	0.00
398.74	16.38
398.93	42.13
399.12	0.00
399.32	51.49
399.51	25.75
399.70	65.54
399.90	49.15
400.09	4.68
400.28	23.41
400.47	67.88
400.67	37.45
400.86	21.06
401.05	16.38
401.24	14.04
401.44	28.09
401.63	7.02
401.82	86.60
402.01	0.00
402.21	65.54
402.40	25.75
402.59	18.72
402.78	44.47
402.97	9.36
403.17	100.64
403.36	28.09
403.55	0.00
403.74	35.11
403.93	102.98
404.13	60.85
404.32	28.09
404.51	0.00
404.70	30.43
404.89	67.88
405.09	67.88
405.28	14.04
405.47	0.00
405.66	42.13
405.85	0.00
406.05	14.04
406.24	63.19
406.43	0.00
406.62	49.15
406.81	0.00
407.00	0.00
407.20	58.51
407.39	91.28
407.58	53.83
407.77	74.90
407.96	86.60
408.15	0.00
408.34	32.77
408.54	44.47
408.73	53.83
408.92	18.72
409.11	56.17
409.30	49.15
409.49	46.81
409.68	7.02
409.87	32.77
410.07	37.45
410.26	84.26
410.45	74.90
410.64	23.41
410.83	72.56
411.02	35.11
411.21	37.45
411.40	32.77
411.59	7.02
411.78	21.06
411.98	70.22
412.17	4.68
412.36	88.94
412.55	2.34
412.74	70.22
412.93	79.58
413.12	35.11
413.31	46.81
413.50	0.00
413.69	63.19
413.88	51.49
414.07	23.41
414.26	0.00
414.45	67.88
414.64	42.13
414.83	0.00
415.02	86.60
415.22	81.92
415.41	58.51
415.60	110.01
415.79	2.34
415.98	2.34
416.17	0.00
416.36	46.81
416.55	70.22
416.74	53.83
416.93	30.43
417.12	18.72
417.31	67.88
417.50	44.47
417.69	46.81
417.88	58.51
418.07	53.83
418.26	46.81
418.45	56.17
418.64	30.43
418.83	49.15
419.02	107.66
419.21	110.01
419.39	110.01
419.58	63.19
419.77	49.15
419.96	84.26
420.15	72.56
420.34	2.34
420.53	51.49
420.72	0.00
420.91	0.00
421.10	23.41
421.29	42.13
421.48	0.00
421.67	44.47
421.86	88.94
422.05	28.09
422.24	42.13
422.43	28.09
422.61	0.00
422.80	102.98
422.99	56.17
423.18	42.13
423.37	60.85
423.56	67.88
423.75	23.41
423.94	112.35
424.13	81.92
424.32	65.54
424.50	60.85
424.69	67.88
424.88	39.79
425.07	16.38
425.26	46.81
425.45	39.79
425.64	21.06
425.83	49.15
426.01	44.47
426.20	23.41
426.39	37.45
426.58	0.00
426.77	32.77
426.96	7.02
427.15	77.24
427.33	7.02
427.52	0.00
427.71	0.00
427.90	42.13
428.09	79.58
428.28	14.04
428.46	81.92
428.65	46.81
428.84	95.96
429.03	16.38
429.22	30.43
429.40	95.96
429.59	86.60
429.78	81.92
429.97	49.15
430.16	91.28
430.34	0.00
430.53	46.81
430.72	39.79
430.91	18.72
431.10	67.88
431.28	93.62
431.47	37.45
431.66	16.38
431.85	4.68
432.03	23.41
432.22	0.00
432.41	84.26
432.60	32.77
432.79	49.15
432.97	49.15
433.16	51.49
433.35	0.00
433.54	88.94
433.72	117.03
433.91	0.00
434.10	0.00
434.28	46.81
434.47	88.94
434.66	25.75
434.85	112.35
435.03	28.09
435.22	37.45
435.41	53.83
435.59	42.13
435.78	28.09
435.97	18.72
436.16	9.36
436.34	49.15
436.53	0.00
436.72	93.62
436.90	42.13
437.09	126.39
437.28	0.00
437.46	79.58
437.65	79.58
437.84	0.00
438.02	14.04
438.21	88.94
438.40	25.75
438.58	72.56
438.77	7.02
438.96	110.01
439.14	21.06
439.33	0.00
439.52	23.41
439.70	72.56
439.89	35.11
440.08	21.06
440.26	58.51
440.45	51.49
440.63	81.92
440.82	28.09
441.01	37.45
441.19	42.13
441.38	9.36
441.57	58.51
441.75	25.75
441.94	37.45
442.12	67.88
442.31	72.56
442.50	60.85
442.68	39.79
442.87	14.04
443.05	63.19
443.24	67.88
443.43	124.05
443.61	53.83
443.80	25.75
443.98	46.81
444.17	65.54
444.35	77.24
444.54	25.75
444.73	133.41
444.91	49.15
445.10	70.22
445.28	42.13
445.47	25.75
445.65	100.64
445.84	46.81
446.02	21.06
446.21	88.94
446.39	121.71
446.58	60.85
446.77	102.98
446.95	32.77
447.14	98.30
447.32	81.92
447.51	21.06
447.69	88.94
447.88	65.54
448.06	67.88
448.25	53.83
448.43	72.56
448.62	28.09
448.80	100.64
448.99	60.85
449.17	60.85
449.36	35.11
449.54	56.17
449.73	124.05
449.91	56.17
450.10	74.90
450.28	23.41
450.46	49.15
450.65	117.03
450.83	53.83
451.02	46.81
451.20	77.24
451.39	65.54
451.57	23.41
451.76	105.32
451.94	4.68
452.13	2.34
452.31	42.13
452.49	65.54
452.68	25.75
452.86	18.72
453.05	0.00
453.23	131.07
453.42	42.13
453.60	56.17
453.78	88.94
453.97	0.00
454.15	46.81
454.34	56.17
454.52	37.45
454.70	102.98
454.89	67.88
455.07	102.98
455.26	79.58
455.44	100.64
455.62	91.28
455.81	18.72
455.99	81.92
456.17	105.32
456.36	46.81
456.54	65.54
456.73	21.06
456.91	63.19
457.09	58.51
457.28	107.66
457.46	56.17
457.64	102.98
457.83	58.51
458.01	7.02
458.19	56.17
458.38	16.38
458.56	11.70
458.74	79.58
458.93	39.79
459.11	84.26
459.29	35.11
459.48	79.58
459.66	46.81
459.84	42.13
460.03	49.15
460.21	65.54
460.39	16.38
460.57	60.85
460.76	79.58
460.94	102.98
461.12	32.77
461.31	25.75
461.49	70.22
461.67	98.30
461.85	4.68
462.04	72.56
462.22	86.60
462.40	79.58
462.59	86.60
462.77	30.43
462.95	35.11
463.13	37.45
463.32	46.81
463.50	23.41
463.68	16.38
463.86	95.96
464.05	88.94
464.23	2.34
464.41	35.11
464.59	72.56
464.78	42.13
464.96	67.88
465.14	65.54
465.32	21.06
465.50	81.92
465.69	63.19
465.87	138.09
466.05	28.09
466.23	100.64
466.41	63.19
466.60	84.26
466.78	121.71
466.96	35.11
467.14	60.85
467.32	79.58
467.51	56.17
467.69	35.11
467.87	63.19
468.05	37.45
468.23	65.54
468.41	131.07
468.60	44.47
468.78	70.22
468.96	124.05
469.14	60.85
469.32	42.13
469.50	112.35
469.69	0.00
469.87	114.69
470.05	121.71
470.23	35.11
470.41	67.88
470.59	42.13
470.77	46.81
470.95	98.30
471.14	84.26
471.32	98.30
471.50	32.77
471.68	67.88
471.86	110.01
472.04	53.83
472.22	25.75
472.40	51.49
472.58	46.81
472.77	0.00
472.95	112.35
473.13	11.70
473.31	60.85
473.49	30.43
473.67	67.88
473.85	70.22
474.03	72.56
474.21	91.28
474.39	119.37
474.57	74.90
474.75	49.15
474.93	72.56
475.12	46.81
475.30	60.85
475.48	79.58
475.66	18.72
475.84	67.88
476.02	91.28
476.20	42.13
476.38	112.35
476.56	88.94
476.74	145.11
476.92	67.88
477.10	121.71
477.28	84.26
477.46	53.83
477.64	93.62
477.82	112.35
478.00	86.60
478.18	56.17
478.36	81.92
478.54	7.02
478.72	65.54
478.90	16.38
479.08	100.64
479.26	0.00
479.44	0.00
479.62	16.38
479.80	81.92
479.98	49.15
480.16	58.51
480.34	42.13
480.52	126.39
480.70	93.62
480.88	60.85
481.06	56.17
481.24	70.22
481.41	140.43
481.59	39.79
481.77	126.39
481.95	63.19
482.13	77.24
482.31	110.01
482.49	56.17
482.67	126.39
482.85	44.47
483.03	67.88
483.21	110.01
483.39	49.15
483.57	81.92
483.74	79.58
483.92	0.00
484.10	112.35
484.28	39.79
484.46	124.05
484.64	114.69
484.82	60.85
485.00	107.66
485.18	63.19
485.35	23.41
485.53	32.77
485.71	58.51
485.89	39.79
486.07	58.51
486.25	23.41
486.43	56.17
486.61	112.35
486.78	88.94
486.96	91.28
487.14	88.94
487.32	86.60
487.50	65.54
487.68	100.64
487.85	2.34
488.03	46.81
488.21	2.34
488.39	7.02
488.57	77.24
488.75	114.69
488.92	4.68
489.10	84.26
489.28	105.32
489.46	16.38
489.64	51.49
489.81	105.32
489.99	28.09
490.17	16.38
490.35	60.85
490.53	88.94
490.70	23.41
490.88	112.35
491.06	51.49
491.24	37.45
491.41	65.54
491.59	117.03
491.77	86.60
491.95	65.54
492.13	126.39
492.30	72.56
492.48	49.15
492.66	81.92
492.84	117.03
493.01	51.49
493.19	16.38
493.37	84.26
493.54	49.15
493.72	60.85
493.90	102.98
494.08	65.54
494.25	77.24
494.43	67.88
494.61	0.00
494.79	39.79
494.96	93.62
495.14	88.94
495.32	70.22
495.49	53.83
495.67	140.43
495.85	110.01
496.02	35.11
496.20	117.03
496.38	35.11
496.55	79.58
496.73	46.81
496.91	39.79
497.09	107.66
497.26	65.54
497.44	58.51
497.62	70.22
497.79	135.75
497.97	126.39
498.14	46.81
498.32	65.54
498.50	46.81
498.67	51.49
498.85	98.30
499.03	72.56
499.20	53.83
499.38	133.41
499.56	95.96
499.73	65.54
499.91	14.04
500.08	32.77
500.26	107.66
500.44	79.58
500.61	42.13
500.79	81.92
500.97	105.32
501.14	32.77
501.32	112.35
501.49	74.90
501.67	49.15
501.84	86.60
502.02	119.37
502.20	119.37
502.37	110.01
502.55	72.56
502.72	39.79
502.90	88.94
503.07	44.47
503.25	119.37
503.43	126.39
503.60	56.17
503.78	100.64
503.95	70.22
504.13	77.24
504.30	60.85
504.48	72.56
504.65	23.41
504.83	23.41
505.01	161.50
505.18	56.17
505.36	110.01
505.53	63.19
505.71	135.75
505.88	105.32
506.06	4.68
506.23	79.58
506.41	138.09
506.58	58.51
506.76	102.98
506.93	86.60
507.11	74.90
507.28	0.00
507.46	37.45
507.63	74.90
507.81	95.96
507.98	77.24
508.16	142.77
508.33	86.60
508.50	65.54
508.68	65.54
508.85	102.98
509.03	0.00
509.20	138.09
509.38	100.64
509.55	63.19
509.73	124.05
509.90	86.60
510.08	74.90
510.25	105.32
510.42	65.54
510.60	67.88
510.77	65.54
510.95	35.11
511.12	49.15
511.30	114.69
511.47	44.47
511.64	117.03
511.82	114.69
511.99	58.51
512.17	105.32
512.34	42.13
512.51	175.54
512.69	58.51
512.86	140.43
513.04	21.06
513.21	0.00
513.38	91.28
513.56	72.56
513.73	119.37
513.90	49.15
514.08	154.48
514.25	117.03
514.43	37.45
514.60	117.03
514.77	86.60
514.95	98.30
515.12	91.28
515.29	93.62
515.47	21.06
515.64	21.06
515.81	84.26
515.99	37.45
516.16	98.30
516.33	86.60
516.51	46.81
516.68	74.90
516.85	51.49
517.03	67.88
517.20	72.56
517.37	58.51
517.54	4.68
517.72	44.47
517.89	79.58
518.06	65.54
518.24	39.79
518.41	114.69
518.58	135.75
518.75	67.88
518.93	32.77
519.10	88.94
519.27	74.90
519.45	152.13
519.62	147.45
519.79	98.30
519.96	32.77
520.14	91.28
520.31	84.26
520.48	58.51
520.65	131.07
520.83	135.75
521.00	63.19
521.17	77.24
521.34	30.43
521.52	110.01
521.69	107.66
521.86	21.06
522.03	51.49
522.20	65.54
522.38	142.77
522.55	67.88
522.72	112.35
522.89	70.22
523.07	81.92
523.24	70.22
523.41	72.56
523.58	72.56
523.75	140.43
523.92	74.90
524.10	128.73
524.27	131.07
524.44	95.96
524.61	35.11
524.78	46.81
524.96	159.16
525.13	93.62
525.30	110.01
525.47	70.22
525.64	88.94
525.81	74.90
525.98	93.62
526.16	72.56
526.33	100.64
526.50	77.24
526.67	74.90
526.84	95.96
527.01	65.54
527.18	88.94
527.36	72.56
527.53	65.54
527.70	56.17
527.87	32.77
528.04	72.56
528.21	86.60
528.38	91.28
528.55	81.92
528.72	105.32
528.89	9.36
529.07	70.22
529.24	39.79
529.41	46.81
529.58	60.85
529.75	95.96
529.92	53.83
530.09	88.94
530.26	110.01
530.43	102.98
530.60	95.96
530.77	95.96
530.94	63.19
531.11	119.37
531.28	105.32
531.46	63.19
531.63	84.26
531.80	30.43
531.97	67.88
532.14	121.71
532.31	98.30
532.48	93.62
532.65	86.60
532.82	102.98
532.99	88.94
533.16	135.75
533.33	107.66
533.50	121.71
533.67	53.83
533.84	49.15
534.01	98.30
534.18	88.94
534.35	4.68
534.52	23.41
534.69	44.47
534.86	67.88
535.03	91.28
535.20	63.19
535.37	70.22
535.54	163.84
535.71	53.83
535.88	102.98
536.05	105.32
536.22	35.11
536.38	72.56
536.55	88.94
536.72	39.79
536.89	88.94
537.06	112.35
537.23	107.66
537.40	126.39
537.57	93.62
537.74	49.15
537.91	133.41
538.08	23.41
538.25	88.94
538.42	77.24
538.59	95.96
538.75	114.69
538.92	56.17
539.09	93.62
539.26	58.51
539.43	110.01
539.60	84.26
539.77	91.28
539.94	135.75
540.11	124.05
540.28	63.19
540.44	79.58
540.61	0.00
540.78	44.47
540.95	70.22
541.12	166.18
541.29	70.22
541.46	128.73
541.62	145.11
541.79	42.13
541.96	35.11
542.13	53.83
542.30	140.43
542.47	81.92
542.63	70.22
542.80	51.49
542.97	112.35
543.14	51.49
543.31	93.62
543.48	81.92
543.64	98.30
543.81	124.05
543.98	70.22
544.15	70.22
544.32	63.19
544.48	102.98
544.65	102.98
544.82	168.52
544.99	77.24
545.16	114.69
545.32	114.69
545.49	107.66
545.66	56.17
545.83	112.35
546.00	63.19
546.16	65.54
546.33	56.17
546.50	72.56
546.67	107.66
546.83	60.85
547.00	126.39
547.17	159.16
547.34	79.58
547.50	91.28
547.67	46.81
547.84	23.41
548.00	124.05
548.17	138.09
548.34	117.03
548.51	60.85
548.67	142.77
548.84	102.98
549.01	98.30
549.18	0.00
549.34	2.34
549.51	74.90
549.68	63.19
549.84	100.64
550.01	91.28
550.18	51.49
550.34	30.43
550.51	114.69
550.68	84.26
550.84	93.62
551.01	53.83
551.18	131.07
551.34	121.71
551.51	35.11
551.68	35.11
551.84	63.19
552.01	44.47
552.18	70.22
552.34	42.13
552.51	60.85
552.68	77.24
552.84	53.83
553.01	88.94
553.18	102.98
553.34	0.00
553.51	138.09
553.67	51.49
553.84	49.15
554.01	93.62
554.17	126.39
554.34	53.83
554.51	107.66
554.67	170.86
554.84	65.54
555.00	140.43
555.17	42.13
555.33	100.64
555.50	84.26
555.67	100.64
555.83	53.83
556.00	60.85
556.16	156.82
556.33	30.43
556.50	39.79
556.66	88.94
556.83	65.54
556.99	79.58
557.16	84.26
557.32	9.36
557.49	46.81
557.65	74.90
557.82	63.19
557.98	110.01
558.15	35.11
558.32	63.19
558.48	93.62
558.65	149.79
558.81	93.62
558.98	88.94
559.14	18.72
559.31	74.90
559.47	60.85
559.64	117.03
559.80	4.68
559.97	11.70
560.13	28.09
560.30	107.66
560.46	88.94
560.63	74.90
560.79	72.56
560.96	60.85
561.12	53.83
561.29	86.60
561.45	51.49
561.61	56.17
561.78	60.85
561.94	121.71
562.11	81.92
562.27	28.09
562.44	74.90
562.60	126.39
562.77	74.90
562.93	58.51
563.10	79.58
563.26	51.49
563.42	124.05
563.59	88.94
563.75	107.66
563.92	37.45
564.08	86.60
564.24	79.58
564.41	53.83
564.57	119.37
564.74	124.05
564.90	145.11
565.07	84.26
565.23	107.66
565.39	74.90
565.56	142.77
565.72	91.28
565.88	65.54
566.05	107.66
566.21	58.51
566.38	39.79
566.54	72.56
566.70	100.64
566.87	149.79
567.03	42.13
567.19	70.22
567.36	67.88
567.52	65.54
567.68	35.11
567.85	28.09
568.01	114.69
568.17	49.15
568.34	60.85
568.50	91.28
568.66	86.60
568.83	39.79
568.99	14.04
569.15	18.72
569.32	93.62
569.48	98.30
569.64	81.92
569.81	49.15
569.97	156.82
570.13	88.94
570.30	91.28
570.46	74.90
570.62	124.05
570.78	93.62
570.95	16.38
571.11	79.58
571.27	70.22
571.43	154.48
571.60	145.11
571.76	84.26
571.92	93.62
572.09	140.43
572.25	74.90
572.41	98.30
572.57	70.22
572.74	4.68
572.90	91.28
573.06	65.54
573.22	147.45
573.38	154.48
573.55	49.15
573.71	35.11
573.87	28.09
574.03	91.28
574.20	95.96
574.36	119.37
574.52	95.96
574.68	65.54
574.84	105.32
575.01	107.66
575.17	93.62
575.33	98.30
575.49	63.19
575.65	107.66
575.82	84.26
575.98	35.11
576.14	67.88
576.30	91.28
576.46	105.32
576.62	201.29
576.79	107.66
576.95	44.47
577.11	72.56
577.27	67.88
577.43	93.62
577.59	35.11
577.75	25.75
577.92	7.02
578.08	37.45
578.24	105.32
578.40	77.24
578.56	42.13
578.72	145.11
578.88	46.81
579.04	93.62
579.21	95.96
579.37	53.83
579.53	124.05
579.69	81.92
579.85	84.26
580.01	14.04
580.17	67.88
580.33	46.81
580.49	135.75
580.65	182.56
580.82	79.58
580.98	105.32
581.14	126.39
581.30	65.54
581.46	35.11
581.62	44.47
581.78	72.56
581.94	107.66
582.10	30.43
582.26	114.69
582.42	42.13
582.58	74.90
582.74	84.26
582.90	135.75
583.06	0.00
583.22	142.77
583.38	86.60
583.54	110.01
583.70	58.51
583.86	133.41
584.02	166.18
584.18	72.56
584.34	91.28
584.50	161.50
584.66	152.13
584.82	65.54
584.98	56.17
585.14	49.15
585.30	133.41
585.46	84.26
585.62	65.54
585.78	105.32
585.94	35.11
586.10	98.30
586.26	117.03
586.42	79.58
586.58	79.58
586.74	65.54
586.90	56.17
587.06	30.43
587.22	88.94
587.38	51.49
587.54	35.11
587.70	154.48
587.86	23.41
588.02	28.09
588.18	98.30
588.34	98.30
588.49	102.98
588.65	49.15
588.81	86.60
588.97	51.49
589.13	49.15
589.29	21.06
589.45	93.62
589.61	58.51
589.77	180.22
589.93	63.19
590.08	9.36
590.24	11.70
590.40	46.81
590.56	102.98
590.72	74.90
590.88	56.17
591.04	28.09
591.20	107.66
591.35	32.77
591.51	39.79
591.67	25.75
591.83	100.64
591.99	18.72
592.15	88.94
592.31	117.03
592.46	9.36
592.62	37.45
592.78	60.85
592.94	49.15
593.10	114.69
593.26	67.88
593.41	72.56
593.57	140.43
593.73	124.05
593.89	86.60
594.05	74.90
594.20	65.54
594.36	72.56
594.52	112.35
594.68	0.00
594.84	53.83
594.99	74.90
595.15	93.62
595.31	107.66
595.47	65.54
595.62	67.88
595.78	63.19
595.94	7.02
596.10	86.60
596.25	46.81
596.41	21.06
596.57	105.32
596.73	65.54
596.88	65.54
597.04	9.36
597.20	0.00
597.36	30.43
597.51	145.11
597.67	58.51
597.83	65.54
597.99	107.66
598.14	135.75
598.30	128.73
598.46	74.90
598.61	70.22
598.77	53.83
598.93	21.06
599.09	86.60
599.24	95.96
599.40	58.51
599.56	126.39
599.71	152.13
599.87	60.85
600.03	0.00
600.18	105.32
600.34	42.13
600.50	67.88
600.65	14.04
600.81	65.54
600.97	79.58
601.12	84.26
601.28	16.38
601.44	58.51
601.59	105.32
601.75	98.30
601.91	49.15
602.06	67.88
602.22	79.58
602.37	14.04
602.53	51.49
602.69	70.22
602.84	105.32
603.00	117.03
603.16	110.01
603.31	58.51
603.47	49.15
603.62	16.38
603.78	100.64
603.94	95.96
604.09	77.24
604.25	25.75
604.40	44.47
604.56	70.22
604.71	16.38
604.87	63.19
605.03	95.96
605.18	88.94
605.34	56.17
605.49	140.43
605.65	117.03
605.80	16.38
605.96	102.98
606.12	72.56
606.27	119.37
606.43	65.54
606.58	37.45
606.74	84.26
606.89	84.26
607.05	56.17
607.20	70.22
607.36	28.09
607.51	74.90
607.67	25.75
607.82	107.66
607.98	32.77
608.13	0.00
608.29	56.17
608.44	161.50
608.60	84.26
608.75	30.43
608.91	65.54
609.06	86.60
609.22	60.85
609.37	95.96
609.53	81.92
609.68	32.77
609.84	86.60
609.99	88.94
610.15	51.49
610.30	44.47
610.46	84.26
610.61	88.94
610.76	79.58
610.92	53.83
611.07	110.01
611.23	53.83
611.38	102.98
611.54	16.38
611.69	121.71
611.84	124.05
612.00	140.43
612.15	135.75
612.31	72.56
612.46	72.56
612.62	0.00
612.77	81.92
612.92	0.00
613.08	42.13
613.23	77.24
613.39	0.00
613.54	51.49
613.69	79.58
613.85	9.36
614.00	9.36
614.15	25.75
614.31	14.04
614.46	30.43
614.62	0.00
614.77	102.98
614.92	53.83
615.08	98.30
615.23	14.04
615.38	110.01
615.54	25.75
615.69	58.51
615.84	114.69
616.00	39.79
616.15	88.94
616.30	110.01
616.46	70.22
616.61	67.88
616.76	0.00
616.92	37.45
617.07	102.98
617.22	105.32
617.37	77.24
617.53	128.73
617.68	77.24
617.83	79.58
617.99	7.02
618.14	70.22
618.29	84.26
618.45	117.03
618.60	72.56
618.75	37.45
618.90	63.19
619.06	30.43
619.21	7.02
619.36	138.09
619.51	91.28
619.67	119.37
619.82	65.54
619.97	28.09
620.12	117.03
620.28	67.88
620.43	126.39
620.58	42.13
620.73	86.60
620.89	149.79
621.04	86.60
621.19	65.54
621.34	14.04
621.49	79.58
621.65	79.58
621.80	98.30
621.95	44.47
622.10	70.22
622.25	58.51
622.41	65.54
622.56	177.88
622.71	46.81
622.86	16.38
623.01	86.60
623.16	93.62
623.32	74.90
623.47	84.26
623.62	14.04
623.77	0.00
623.92	67.88
624.07	65.54
624.23	7.02
624.38	28.09
624.53	93.62
624.68	0.00
624.83	49.15
624.98	0.00
625.13	98.30
625.29	0.00
625.44	63.19
625.59	135.75
625.74	74.90
625.89	46.81
626.04	49.15
626.19	58.51
626.34	58.51
626.49	107.66
626.65	51.49
626.80	77.24
626.95	44.47
627.10	14.04
627.25	95.96
627.40	23.41
627.55	86.60
627.70	44.47
627.85	74.90
628.00	53.83
628.15	46.81
628.30	70.22
628.45	0.00
628.60	7.02
628.76	88.94
628.91	74.90
629.06	72.56
629.21	114.69
629.36	42.13
629.51	81.92
629.66	25.75
629.81	77.24
629.96	117.03
630.11	65.54
630.26	100.64
630.41	84.26
630.56	65.54
630.71	25.75
630.86	86.60
631.01	9.36
631.16	105.32
631.31	58.51
631.46	107.66
631.61	140.43
631.76	72.56
631.91	102.98
632.06	39.79
632.21	102.98
632.36	84.26
632.51	79.58
632.66	56.17
632.81	112.35
632.96	95.96
633.10	65.54
633.25	70.22
633.40	23.41
633.55	0.00
633.70	16.38
633.85	112.35
634.00	74.90
634.15	81.92
634.30	4.68
634.45	93.62
634.60	84.26
634.75	60.85
634.90	44.47
635.05	16.38
635.19	42.13
635.34	37.45
635.49	84.26
635.64	30.43
635.79	56.17
635.94	105.32
636.09	60.85
636.24	39.79
636.39	138.09
636.53	0.00
636.68	53.83
636.83	65.54
636.98	44.47
637.13	86.60
637.28	32.77
637.43	81.92
637.57	95.96
637.72	98.30
637.87	91.28
638.02	84.26
638.17	77.24
638.32	77.24
638.46	128.73
638.61	32.77
638.76	35.11
638.91	35.11
639.06	107.66
639.20	98.30
639.35	28.09
639.50	98.30
639.65	63.19
639.80	4.68
639.94	149.79
640.09	37.45
640.24	44.47
640.39	51.49
640.54	37.45
640.68	46.81
640.83	77.24
640.98	72.56
641.13	100.64
641.27	46.81
641.42	65.54
641.57	44.47
641.72	74.90
641.86	74.90
642.01	53.83
642.16	105.32
642.31	107.66
642.45	60.85
642.60	39.79
642.75	93.62
642.90	46.81
643.04	60.85
643.19	37.45
643.34	0.00
643.48	74.90
643.63	11.70
643.78	91.28
643.93	14.04
644.07	53.83
644.22	0.00
644.37	81.92
644.51	67.88
644.66	30.43
644.81	0.00
644.95	0.00
645.10	53.83
645.25	25.75
645.39	30.43
645.54	0.00
645.69	53.83
645.83	79.58
645.98	56.17
646.13	60.85
646.27	56.17
646.42	0.00
646.57	0.00
646.71	98.30
646.86	44.47
647.00	65.54
647.15	88.94
647.30	16.38
647.44	44.47
647.59	42.13
647.74	32.77
647.88	74.90
648.03	63.19
648.17	0.00
648.32	53.83
648.47	30.43
648.61	88.94
648.76	107.66
648.90	32.77
649.05	9.36
649.20	60.85
649.34	56.17
649.49	67.88
649.63	56.17
649.78	42.13
649.92	140.43
650.07	74.90
650.21	44.47
650.36	37.45
650.51	95.96
650.65	63.19
650.80	39.79
650.94	147.45
651.09	14.04
651.23	7.02
651.38	44.47
651.52	18.72
651.67	79.58
651.81	37.45
651.96	7.02
652.10	86.60
652.25	70.22
652.39	44.47
652.54	4.68
652.68	21.06
652.83	98.30
652.97	105.32
653.12	23.41
653.26	58.51
653.41	117.03
653.55	77.24
653.70	56.17
653.84	105.32
653.99	49.15
654.13	117.03
654.27	88.94
654.42	42.13
654.56	58.51
654.71	23.41
654.85	23.41
655.00	74.90
655.14	53.83
655.29	65.54
655.43	11.70
655.57	0.00
655.72	56.17
655.86	105.32
656.01	49.15
656.15	51.49
656.30	60.85
656.44	63.19
656.58	46.81
656.73	35.11
656.87	21.06
657.01	56.17
657.16	119.37
657.30	128.73
657.45	21.06
657.59	91.28
657.73	74.90
657.88	70.22
658.02	114.69
658.16	21.06
658.31	60.85
658.45	46.81
658.60	65.54
658.74	79.58
658.88	67.88
659.03	21.06
659.17	32.77
659.31	23.41
659.46	0.00
659.60	70.22
659.74	84.26
659.89	63.19
660.03	70.22
660.17	67.88
660.32	44.47
660.46	63.19
660.60	72.56
660.74	44.47
660.89	7.02
661.03	93.62
661.17	37.45
661.32	37.45
661.46	53.83
661.60	86.60
661.74	44.47
661.89	53.83
662.03	0.00
662.17	0.00
662.31	70.22
662.46	0.00
662.60	42.13
662.74	0.00
662.88	35.11
663.03	32.77
663.17	4.68
663.31	58.51
663.45	135.75
663.60	86.60
663.74	44.47
663.88	70.22
664.02	44.47
664.17	58.51
664.31	44.47
664.45	77.24
664.59	37.45
664.73	0.00
664.88	11.70
665.02	39.79
665.16	21.06
665.30	49.15
665.44	56.17
665.59	84.26
665.73	95.96
665.87	93.62
666.01	9.36
666.15	51.49
666.29	0.00
666.44	51.49
666.58	65.54
666.72	4.68
666.86	65.54
667.00	112.35
667.14	53.83
667.28	91.28
667.43	0.00
667.57	37.45
667.71	25.75
667.85	110.01
667.99	0.00
668.13	14.04
668.27	49.15
668.41	0.00
668.56	70.22
668.70	23.41
668.84	9.36
668.98	35.11
669.12	4.68
669.26	4.68
669.40	84.26
669.54	46.81
669.68	88.94
669.82	74.90
669.96	42.13
670.10	119.37
670.25	49.15
670.39	49.15
670.53	37.45
670.67	7.02
670.81	53.83
670.95	14.04
671.09	39.79
671.23	30.43
671.37	51.49
671.51	74.90
671.65	16.38
671.79	60.85
671.93	53.83
672.07	84.26
672.21	7.02
672.35	53.83
672.49	37.45
672.63	18.72
672.77	21.06
672.91	72.56
673.05	7.02
673.19	56.17
673.33	37.45
673.47	46.81
673.61	56.17
673.75	53.83
673.89	35.11
674.03	0.00
674.17	0.00
674.31	46.81
674.45	42.13
674.59	119.37
674.73	51.49
674.87	21.06
675.01	0.00
675.15	53.83
675.29	9.36
675.43	25.75
675.56	100.64
675.70	7.02
675.84	60.85
675.98	37.45
676.12	9.36
676.26	21.06
676.40	2.34
676.54	0.00
676.68	0.00
676.82	16.38
676.96	58.51
677.10	51.49
677.23	72.56
677.37	60.85
677.51	138.09
677.65	21.06
677.79	42.13
677.93	63.19
678.07	79.58
678.21	16.38
678.34	0.00
678.48	0.00
678.62	98.30
678.76	131.07
678.90	0.00
679.04	18.72
679.18	63.19
679.31	46.81
679.45	44.47
679.59	88.94
679.73	39.79
679.87	63.19
680.00	67.88
680.14	0.00
680.28	70.22
680.42	88.94
680.56	14.04
680.70	63.19
680.83	53.83
680.97	28.09
681.11	32.77
681.25	58.51
681.39	21.06
681.52	37.45
681.66	25.75
681.80	49.15
681.94	93.62
682.07	18.72
682.21	70.22
682.35	0.00
682.49	21.06
682.62	88.94
682.76	70.22
682.90	79.58
683.04	102.98
683.17	30.43
683.31	86.60
683.45	4.68
683.59	0.00
683.72	18.72
683.86	23.41
684.00	0.00
684.13	46.81
684.27	53.83
684.41	51.49
684.55	0.00
684.68	81.92
684.82	32.77
684.96	49.15
685.09	0.00
685.23	0.00
685.37	32.77
685.50	110.01
685.64	4.68
685.78	53.83
685.91	9.36
686.05	42.13
686.19	0.00
686.32	70.22
686.46	0.00
686.60	0.00
686.73	77.24
686.87	28.09
687.01	7.02
687.14	53.83
687.28	46.81
687.42	28.09
687.55	102.98
687.69	39.79
687.82	93.62
687.96	74.90
688.10	49.15
688.23	58.51
688.37	18.72
688.50	9.36
688.64	0.00
688.78	93.62
688.91	88.94
689.05	77.24
689.18	95.96
689.32	42.13
689.46	60.85
689.59	46.81
689.73	107.66
689.86	140.43
690.00	14.04
690.13	44.47
690.27	88.94
690.41	25.75
690.54	9.36
690.68	25.75
690.81	46.81
690.95	37.45
691.08	42.13
691.22	44.47
691.35	0.00
691.49	0.00
691.62	0.00
691.76	7.02
691.89	46.81
692.03	98.30
692.16	25.75
692.30	0.00
692.43	58.51
692.57	0.00
692.70	32.77
692.84	58.51
692.97	18.72
693.11	42.13
693.24	53.83
693.38	60.85
693.51	0.00
693.65	63.19
693.78	95.96
693.92	30.43
694.05	25.75
694.19	28.09
694.32	0.00
694.45	7.02
694.59	86.60
694.72	0.00
694.86	51.49
694.99	39.79
695.13	32.77
695.26	63.19
695.39	72.56
695.53	72.56
695.66	44.47
695.80	93.62
695.93	77.24
696.07	51.49
696.20	0.00
696.33	0.00
696.47	0.00
696.60	63.19
696.73	77.24
696.87	18.72
697.00	42.13
697.14	84.26
697.27	107.66
697.40	23.41
697.54	42.13
697.67	0.00
697.80	95.96
697.94	35.11
698.07	0.00
698.21	0.00
698.34	46.81
698.47	0.00
698.61	32.77
698.74	0.00
698.87	35.11
699.01	11.70
699.14	65.54
699.27	86.60
699.40	135.75
699.54	46.81
699.67	25.75
699.80	58.51
699.94	93.62
700.07	58.51
700.20	44.47
700.34	4.68
700.47	0.00
700.60	42.13
700.73	79.58
700.87	21.06
701.00	39.79
701.13	4.68
701.26	35.11
701.40	112.35
701.53	0.00
701.66	18.72
701.79	4.68
701.93	9.36
702.06	32.77
702.19	0.00
702.32	18.72
702.46	0.00
702.59	0.00
702.72	14.04
702.85	37.45
702.99	37.45
703.12	74.90
703.25	0.00
703.38	11.70
703.51	60.85
703.65	65.54
703.78	25.75
703.91	88.94
704.04	2.34
704.17	39.79
704.31	44.47
704.44	0.00
704.57	0.00
704.70	21.06
704.83	67.88
704.96	18.72
705.10	18.72
705.23	0.00
>>>>>End Processed Spectral Data<<<<<
