SpectraSuite Data File
++++++++++++++++++++++++++++++++++++
Date: Fri Oct 04 12:13:37 GMT-05:00 2013
User: price-jones
Dark Spectrum Present: No
Reference Spectrum Present: No
Number of Sampled Component Spectra: 1
Spectrometers: USB2+H05261
Integration Time (usec): 10000 (USB2+H05261)
Spectra Averaged: 1 (USB2+H05261)
Boxcar Smoothing: 0 (USB2+H05261)
Correct for Electrical Dark: No (USB2+H05261)
Strobe/Lamp Enabled: No (USB2+H05261)
Correct for Detector Non-linearity: No (USB2+H05261)
Correct for Stray Light: No (USB2+H05261)
Number of Pixels in Processed Spectrum: 2048
>>>>>Begin Processed Spectral Data<<<<<
365.73	0.00
365.92	0.00
366.12	0.00
366.32	0.00
366.52	0.00
366.72	0.00
366.91	0.00
367.11	0.00
367.31	0.00
367.51	0.00
367.70	0.00
367.90	0.00
368.10	0.00
368.30	0.00
368.49	0.00
368.69	0.00
368.89	0.00
369.09	0.00
369.28	0.00
369.48	0.00
369.68	0.00
369.87	0.00
370.07	0.00
370.27	0.00
370.47	0.00
370.66	0.00
370.86	0.00
371.06	0.00
371.25	0.00
371.45	35.11
371.65	7.02
371.84	32.77
372.04	0.00
372.24	0.00
372.44	4.68
372.63	51.49
372.83	0.00
373.03	63.19
373.22	86.60
373.42	91.28
373.62	42.13
373.81	0.00
374.01	11.70
374.21	2.34
374.40	30.43
374.60	21.06
374.79	107.66
374.99	65.54
375.19	4.68
375.38	46.81
375.58	32.77
375.78	32.77
375.97	58.51
376.17	28.09
376.37	23.41
376.56	4.68
376.76	56.17
376.95	86.60
377.15	56.17
377.35	7.02
377.54	72.56
377.74	14.04
377.93	51.49
378.13	16.38
378.33	49.15
378.52	0.00
378.72	28.09
378.91	2.34
379.11	4.68
379.31	79.58
379.50	42.13
379.70	46.81
379.89	63.19
380.09	0.00
380.28	0.00
380.48	37.45
380.68	0.00
380.87	77.24
381.07	46.81
381.26	35.11
381.46	88.94
381.65	32.77
381.85	14.04
382.04	21.06
382.24	28.09
382.43	23.41
382.63	14.04
382.83	18.72
383.02	44.47
383.22	25.75
383.41	0.00
383.61	28.09
383.80	0.00
384.00	18.72
384.19	18.72
384.39	28.09
384.58	0.00
384.78	0.00
384.97	0.00
385.17	58.51
385.36	0.00
385.56	21.06
385.75	0.00
385.95	56.17
386.14	0.00
386.34	0.00
386.53	53.83
386.72	11.70
386.92	46.81
387.11	4.68
387.31	14.04
387.50	77.24
387.70	0.00
387.89	7.02
388.09	0.00
388.28	0.00
388.48	28.09
388.67	0.00
388.86	0.00
389.06	0.00
389.25	30.43
389.45	32.77
389.64	56.17
389.84	102.98
390.03	14.04
390.22	0.00
390.42	44.47
390.61	44.47
390.81	4.68
391.00	0.00
391.19	0.00
391.39	7.02
391.58	56.17
391.78	39.79
391.97	49.15
392.16	81.92
392.36	18.72
392.55	37.45
392.75	18.72
392.94	0.00
393.13	0.00
393.33	0.00
393.52	18.72
393.71	0.00
393.91	51.49
394.10	53.83
394.29	0.00
394.49	0.00
394.68	53.83
394.88	0.00
395.07	0.00
395.26	0.00
395.46	0.00
395.65	0.00
395.84	67.88
396.04	84.26
396.23	30.43
396.42	32.77
396.62	7.02
396.81	56.17
397.00	86.60
397.19	117.03
397.39	0.00
397.58	44.47
397.77	0.00
397.97	2.34
398.16	42.13
398.35	7.02
398.55	0.00
398.74	70.22
398.93	81.92
399.12	7.02
399.32	0.00
399.51	49.15
399.70	16.38
399.90	0.00
400.09	44.47
400.28	63.19
400.47	0.00
400.67	0.00
400.86	74.90
401.05	0.00
401.24	9.36
401.44	39.79
401.63	28.09
401.82	56.17
402.01	0.00
402.21	18.72
402.40	77.24
402.59	9.36
402.78	23.41
402.97	56.17
403.17	2.34
403.36	72.56
403.55	0.00
403.74	28.09
403.93	42.13
404.13	77.24
404.32	44.47
404.51	0.00
404.70	91.28
404.89	0.00
405.09	0.00
405.28	51.49
405.47	0.00
405.66	44.47
405.85	117.03
406.05	18.72
406.24	23.41
406.43	23.41
406.62	23.41
406.81	49.15
407.00	131.07
407.20	70.22
407.39	51.49
407.58	30.43
407.77	18.72
407.96	30.43
408.15	95.96
408.34	0.00
408.54	102.98
408.73	0.00
408.92	58.51
409.11	93.62
409.30	51.49
409.49	16.38
409.68	25.75
409.87	93.62
410.07	16.38
410.26	23.41
410.45	32.77
410.64	88.94
410.83	25.75
411.02	74.90
411.21	67.88
411.40	39.79
411.59	42.13
411.78	0.00
411.98	70.22
412.17	49.15
412.36	65.54
412.55	35.11
412.74	67.88
412.93	53.83
413.12	77.24
413.31	0.00
413.50	46.81
413.69	28.09
413.88	30.43
414.07	63.19
414.26	23.41
414.45	67.88
414.64	30.43
414.83	56.17
415.02	39.79
415.22	72.56
415.41	65.54
415.60	14.04
415.79	42.13
415.98	77.24
416.17	9.36
416.36	39.79
416.55	51.49
416.74	0.00
416.93	35.11
417.12	51.49
417.31	72.56
417.50	88.94
417.69	84.26
417.88	32.77
418.07	23.41
418.26	81.92
418.45	51.49
418.64	46.81
418.83	39.79
419.02	0.00
419.21	58.51
419.39	39.79
419.58	21.06
419.77	51.49
419.96	25.75
420.15	39.79
420.34	14.04
420.53	100.64
420.72	39.79
420.91	81.92
421.10	53.83
421.29	2.34
421.48	65.54
421.67	11.70
421.86	37.45
422.05	11.70
422.24	65.54
422.43	37.45
422.61	51.49
422.80	7.02
422.99	74.90
423.18	0.00
423.37	0.00
423.56	60.85
423.75	0.00
423.94	0.00
424.13	56.17
424.32	93.62
424.50	81.92
424.69	65.54
424.88	39.79
425.07	9.36
425.26	51.49
425.45	0.00
425.64	44.47
425.83	0.00
426.01	4.68
426.20	86.60
426.39	65.54
426.58	63.19
426.77	7.02
426.96	79.58
427.15	37.45
427.33	30.43
427.52	18.72
427.71	84.26
427.90	79.58
428.09	14.04
428.28	7.02
428.46	4.68
428.65	0.00
428.84	23.41
429.03	0.00
429.22	23.41
429.40	60.85
429.59	9.36
429.78	30.43
429.97	46.81
430.16	102.98
430.34	28.09
430.53	79.58
430.72	18.72
430.91	0.00
431.10	0.00
431.28	46.81
431.47	7.02
431.66	2.34
431.85	23.41
432.03	37.45
432.22	70.22
432.41	119.37
432.60	81.92
432.79	39.79
432.97	56.17
433.16	0.00
433.35	53.83
433.54	0.00
433.72	11.70
433.91	32.77
434.10	14.04
434.28	32.77
434.47	102.98
434.66	53.83
434.85	16.38
435.03	23.41
435.22	60.85
435.41	39.79
435.59	46.81
435.78	79.58
435.97	0.00
436.16	32.77
436.34	23.41
436.53	18.72
436.72	16.38
436.90	4.68
437.09	39.79
437.28	100.64
437.46	93.62
437.65	49.15
437.84	32.77
438.02	0.00
438.21	51.49
438.40	60.85
438.58	91.28
438.77	42.13
438.96	30.43
439.14	0.00
439.33	0.00
439.52	14.04
439.70	7.02
439.89	67.88
440.08	72.56
440.26	32.77
440.45	37.45
440.63	46.81
440.82	74.90
441.01	77.24
441.19	42.13
441.38	44.47
441.57	53.83
441.75	0.00
441.94	88.94
442.12	63.19
442.31	11.70
442.50	51.49
442.68	37.45
442.87	44.47
443.05	58.51
443.24	60.85
443.43	39.79
443.61	2.34
443.80	58.51
443.98	0.00
444.17	49.15
444.35	63.19
444.54	30.43
444.73	42.13
444.91	39.79
445.10	79.58
445.28	56.17
445.47	7.02
445.65	51.49
445.84	100.64
446.02	39.79
446.21	53.83
446.39	11.70
446.58	51.49
446.77	49.15
446.95	49.15
447.14	100.64
447.32	0.00
447.51	63.19
447.69	95.96
447.88	88.94
448.06	102.98
448.25	0.00
448.43	21.06
448.62	46.81
448.80	58.51
448.99	9.36
449.17	35.11
449.36	56.17
449.54	58.51
449.73	58.51
449.91	7.02
450.10	42.13
450.28	105.32
450.46	39.79
450.65	56.17
450.83	67.88
451.02	119.37
451.20	44.47
451.39	56.17
451.57	0.00
451.76	102.98
451.94	95.96
452.13	63.19
452.31	95.96
452.49	56.17
452.68	0.00
452.86	25.75
453.05	42.13
453.23	81.92
453.42	11.70
453.60	119.37
453.78	35.11
453.97	58.51
454.15	28.09
454.34	102.98
454.52	0.00
454.70	72.56
454.89	91.28
455.07	58.51
455.26	25.75
455.44	49.15
455.62	138.09
455.81	21.06
455.99	63.19
456.17	60.85
456.36	2.34
456.54	95.96
456.73	37.45
456.91	95.96
457.09	124.05
457.28	51.49
457.46	44.47
457.64	42.13
457.83	32.77
458.01	65.54
458.19	88.94
458.38	42.13
458.56	63.19
458.74	35.11
458.93	18.72
459.11	95.96
459.29	124.05
459.48	51.49
459.66	72.56
459.84	51.49
460.03	74.90
460.21	84.26
460.39	84.26
460.57	0.00
460.76	49.15
460.94	53.83
461.12	77.24
461.31	88.94
461.49	39.79
461.67	63.19
461.85	42.13
462.04	53.83
462.22	161.50
462.40	53.83
462.59	70.22
462.77	18.72
462.95	25.75
463.13	46.81
463.32	84.26
463.50	91.28
463.68	21.06
463.86	0.00
464.05	72.56
464.23	32.77
464.41	4.68
464.59	93.62
464.78	72.56
464.96	142.77
465.14	93.62
465.32	58.51
465.50	107.66
465.69	0.00
465.87	35.11
466.05	93.62
466.23	0.00
466.41	60.85
466.60	4.68
466.78	46.81
466.96	0.00
467.14	102.98
467.32	23.41
467.51	39.79
467.69	21.06
467.87	126.39
468.05	18.72
468.23	74.90
468.41	46.81
468.60	70.22
468.78	39.79
468.96	58.51
469.14	51.49
469.32	86.60
469.50	81.92
469.69	25.75
469.87	30.43
470.05	74.90
470.23	21.06
470.41	86.60
470.59	53.83
470.77	58.51
470.95	93.62
471.14	53.83
471.32	74.90
471.50	14.04
471.68	56.17
471.86	21.06
472.04	51.49
472.22	86.60
472.40	39.79
472.58	86.60
472.77	39.79
472.95	84.26
473.13	63.19
473.31	88.94
473.49	30.43
473.67	88.94
473.85	21.06
474.03	84.26
474.21	102.98
474.39	16.38
474.57	49.15
474.75	95.96
474.93	0.00
475.12	49.15
475.30	44.47
475.48	49.15
475.66	63.19
475.84	18.72
476.02	65.54
476.20	44.47
476.38	32.77
476.56	74.90
476.74	37.45
476.92	100.64
477.10	86.60
477.28	56.17
477.46	60.85
477.64	72.56
477.82	81.92
478.00	11.70
478.18	16.38
478.36	72.56
478.54	53.83
478.72	72.56
478.90	105.32
479.08	65.54
479.26	32.77
479.44	74.90
479.62	0.00
479.80	63.19
479.98	51.49
480.16	7.02
480.34	74.90
480.52	46.81
480.70	74.90
480.88	2.34
481.06	88.94
481.24	35.11
481.41	95.96
481.59	110.01
481.77	37.45
481.95	30.43
482.13	86.60
482.31	65.54
482.49	93.62
482.67	70.22
482.85	124.05
483.03	114.69
483.21	88.94
483.39	65.54
483.57	79.58
483.74	107.66
483.92	86.60
484.10	135.75
484.28	42.13
484.46	91.28
484.64	0.00
484.82	51.49
485.00	63.19
485.18	28.09
485.35	56.17
485.53	25.75
485.71	60.85
485.89	102.98
486.07	100.64
486.25	74.90
486.43	72.56
486.61	30.43
486.78	16.38
486.96	46.81
487.14	63.19
487.32	53.83
487.50	60.85
487.68	100.64
487.85	56.17
488.03	107.66
488.21	124.05
488.39	53.83
488.57	142.77
488.75	65.54
488.92	74.90
489.10	133.41
489.28	25.75
489.46	72.56
489.64	168.52
489.81	53.83
489.99	42.13
490.17	112.35
490.35	93.62
490.53	88.94
490.70	98.30
490.88	102.98
491.06	37.45
491.24	72.56
491.41	135.75
491.59	49.15
491.77	53.83
491.95	56.17
492.13	93.62
492.30	100.64
492.48	28.09
492.66	128.73
492.84	102.98
493.01	91.28
493.19	51.49
493.37	140.43
493.54	0.00
493.72	114.69
493.90	95.96
494.08	93.62
494.25	77.24
494.43	42.13
494.61	107.66
494.79	74.90
494.96	88.94
495.14	49.15
495.32	21.06
495.49	49.15
495.67	77.24
495.85	107.66
496.02	110.01
496.20	81.92
496.38	84.26
496.55	131.07
496.73	77.24
496.91	124.05
497.09	95.96
497.26	112.35
497.44	74.90
497.62	86.60
497.79	74.90
497.97	81.92
498.14	2.34
498.32	117.03
498.50	56.17
498.67	152.13
498.85	110.01
499.03	91.28
499.20	138.09
499.38	81.92
499.56	7.02
499.73	93.62
499.91	110.01
500.08	65.54
500.26	53.83
500.44	100.64
500.61	105.32
500.79	79.58
500.97	110.01
501.14	86.60
501.32	0.00
501.49	56.17
501.67	119.37
501.84	100.64
502.02	100.64
502.20	98.30
502.37	51.49
502.55	79.58
502.72	95.96
502.90	95.96
503.07	58.51
503.25	100.64
503.43	107.66
503.60	51.49
503.78	88.94
503.95	30.43
504.13	88.94
504.30	175.54
504.48	124.05
504.65	107.66
504.83	117.03
505.01	102.98
505.18	102.98
505.36	88.94
505.53	51.49
505.71	88.94
505.88	121.71
506.06	39.79
506.23	72.56
506.41	114.69
506.58	128.73
506.76	35.11
506.93	65.54
507.11	86.60
507.28	70.22
507.46	11.70
507.63	60.85
507.81	70.22
507.98	98.30
508.16	74.90
508.33	77.24
508.50	84.26
508.68	98.30
508.85	39.79
509.03	140.43
509.20	124.05
509.38	65.54
509.55	72.56
509.73	63.19
509.90	140.43
510.08	100.64
510.25	105.32
510.42	53.83
510.60	102.98
510.77	124.05
510.95	7.02
511.12	58.51
511.30	86.60
511.47	63.19
511.64	119.37
511.82	65.54
511.99	124.05
512.17	58.51
512.34	65.54
512.51	0.00
512.69	51.49
512.86	70.22
513.04	60.85
513.21	49.15
513.38	25.75
513.56	135.75
513.73	35.11
513.90	105.32
514.08	25.75
514.25	140.43
514.43	126.39
514.60	117.03
514.77	74.90
514.95	98.30
515.12	84.26
515.29	56.17
515.47	39.79
515.64	60.85
515.81	0.00
515.99	42.13
516.16	147.45
516.33	72.56
516.51	140.43
516.68	74.90
516.85	18.72
517.03	39.79
517.20	72.56
517.37	60.85
517.54	112.35
517.72	110.01
517.89	37.45
518.06	21.06
518.24	107.66
518.41	98.30
518.58	37.45
518.75	42.13
518.93	100.64
519.10	58.51
519.27	0.00
519.45	114.69
519.62	93.62
519.79	126.39
519.96	74.90
520.14	72.56
520.31	88.94
520.48	49.15
520.65	102.98
520.83	105.32
521.00	74.90
521.17	79.58
521.34	65.54
521.52	14.04
521.69	74.90
521.86	133.41
522.03	23.41
522.20	72.56
522.38	81.92
522.55	49.15
522.72	107.66
522.89	63.19
523.07	65.54
523.24	53.83
523.41	126.39
523.58	30.43
523.75	135.75
523.92	0.00
524.10	86.60
524.27	35.11
524.44	91.28
524.61	81.92
524.78	63.19
524.96	67.88
525.13	79.58
525.30	86.60
525.47	121.71
525.64	114.69
525.81	81.92
525.98	121.71
526.16	65.54
526.33	147.45
526.50	56.17
526.67	23.41
526.84	102.98
527.01	60.85
527.18	93.62
527.36	117.03
527.53	56.17
527.70	79.58
527.87	88.94
528.04	93.62
528.21	100.64
528.38	88.94
528.55	70.22
528.72	25.75
528.89	128.73
529.07	60.85
529.24	79.58
529.41	67.88
529.58	131.07
529.75	51.49
529.92	98.30
530.09	133.41
530.26	65.54
530.43	70.22
530.60	28.09
530.77	119.37
530.94	182.56
531.11	18.72
531.28	65.54
531.46	81.92
531.63	105.32
531.80	184.90
531.97	65.54
532.14	74.90
532.31	98.30
532.48	81.92
532.65	63.19
532.82	135.75
532.99	72.56
533.16	121.71
533.33	53.83
533.50	95.96
533.67	79.58
533.84	49.15
534.01	124.05
534.18	128.73
534.35	74.90
534.52	74.90
534.69	77.24
534.86	84.26
535.03	53.83
535.20	53.83
535.37	126.39
535.54	119.37
535.71	67.88
535.88	79.58
536.05	37.45
536.22	114.69
536.38	105.32
536.55	44.47
536.72	49.15
536.89	110.01
537.06	16.38
537.23	77.24
537.40	81.92
537.57	14.04
537.74	74.90
537.91	60.85
538.08	21.06
538.25	46.81
538.42	58.51
538.59	110.01
538.75	58.51
538.92	7.02
539.09	65.54
539.26	114.69
539.43	65.54
539.60	100.64
539.77	86.60
539.94	9.36
540.11	128.73
540.28	102.98
540.44	42.13
540.61	72.56
540.78	77.24
540.95	86.60
541.12	88.94
541.29	95.96
541.46	117.03
541.62	138.09
541.79	88.94
541.96	0.00
542.13	58.51
542.30	0.00
542.47	70.22
542.63	194.26
542.80	56.17
542.97	44.47
543.14	91.28
543.31	166.18
543.48	93.62
543.64	88.94
543.81	128.73
543.98	138.09
544.15	72.56
544.32	81.92
544.48	74.90
544.65	112.35
544.82	138.09
544.99	77.24
545.16	56.17
545.32	74.90
545.49	88.94
545.66	58.51
545.83	79.58
546.00	81.92
546.16	58.51
546.33	84.26
546.50	102.98
546.67	110.01
546.83	100.64
547.00	145.11
547.17	28.09
547.34	84.26
547.50	88.94
547.67	11.70
547.84	91.28
548.00	32.77
548.17	46.81
548.34	35.11
548.51	46.81
548.67	156.82
548.84	88.94
549.01	140.43
549.18	86.60
549.34	107.66
549.51	65.54
549.68	124.05
549.84	147.45
550.01	81.92
550.18	37.45
550.34	119.37
550.51	140.43
550.68	105.32
550.84	91.28
551.01	121.71
551.18	18.72
551.34	114.69
551.51	107.66
551.68	107.66
551.84	79.58
552.01	0.00
552.18	30.43
552.34	16.38
552.51	37.45
552.68	35.11
552.84	65.54
553.01	63.19
553.18	70.22
553.34	79.58
553.51	67.88
553.67	86.60
553.84	105.32
554.01	63.19
554.17	126.39
554.34	74.90
554.51	110.01
554.67	86.60
554.84	117.03
555.00	51.49
555.17	39.79
555.33	102.98
555.50	154.48
555.67	121.71
555.83	39.79
556.00	142.77
556.16	44.47
556.33	67.88
556.50	56.17
556.66	37.45
556.83	63.19
556.99	119.37
557.16	70.22
557.32	44.47
557.49	81.92
557.65	39.79
557.82	56.17
557.98	56.17
558.15	95.96
558.32	58.51
558.48	42.13
558.65	56.17
558.81	23.41
558.98	126.39
559.14	95.96
559.31	84.26
559.47	112.35
559.64	128.73
559.80	110.01
559.97	84.26
560.13	88.94
560.30	119.37
560.46	65.54
560.63	35.11
560.79	93.62
560.96	88.94
561.12	81.92
561.29	88.94
561.45	107.66
561.61	9.36
561.78	44.47
561.94	88.94
562.11	119.37
562.27	107.66
562.44	110.01
562.60	119.37
562.77	100.64
562.93	67.88
563.10	32.77
563.26	35.11
563.42	42.13
563.59	77.24
563.75	42.13
563.92	110.01
564.08	88.94
564.24	65.54
564.41	0.00
564.57	77.24
564.74	0.00
564.90	46.81
565.07	67.88
565.23	105.32
565.39	95.96
565.56	72.56
565.72	102.98
565.88	60.85
566.05	28.09
566.21	79.58
566.38	70.22
566.54	131.07
566.70	98.30
566.87	114.69
567.03	135.75
567.19	93.62
567.36	0.00
567.52	114.69
567.68	44.47
567.85	4.68
568.01	58.51
568.17	46.81
568.34	81.92
568.50	84.26
568.66	44.47
568.83	95.96
568.99	126.39
569.15	110.01
569.32	42.13
569.48	135.75
569.64	88.94
569.81	25.75
569.97	77.24
570.13	63.19
570.30	67.88
570.46	46.81
570.62	0.00
570.78	56.17
570.95	128.73
571.11	95.96
571.27	107.66
571.43	70.22
571.60	128.73
571.76	135.75
571.92	131.07
572.09	117.03
572.25	28.09
572.41	119.37
572.57	11.70
572.74	0.00
572.90	32.77
573.06	46.81
573.22	30.43
573.38	107.66
573.55	107.66
573.71	53.83
573.87	25.75
574.03	44.47
574.20	74.90
574.36	63.19
574.52	67.88
574.68	105.32
574.84	0.00
575.01	28.09
575.17	149.79
575.33	95.96
575.49	42.13
575.65	110.01
575.82	140.43
575.98	107.66
576.14	46.81
576.30	95.96
576.46	117.03
576.62	121.71
576.79	46.81
576.95	100.64
577.11	25.75
577.27	30.43
577.43	79.58
577.59	42.13
577.75	16.38
577.92	60.85
578.08	30.43
578.24	154.48
578.40	79.58
578.56	60.85
578.72	32.77
578.88	119.37
579.04	39.79
579.21	84.26
579.37	28.09
579.53	81.92
579.69	70.22
579.85	58.51
580.01	39.79
580.17	135.75
580.33	81.92
580.49	14.04
580.65	25.75
580.82	86.60
580.98	9.36
581.14	30.43
581.30	65.54
581.46	44.47
581.62	91.28
581.78	126.39
581.94	86.60
582.10	98.30
582.26	105.32
582.42	191.92
582.58	42.13
582.74	70.22
582.90	65.54
583.06	21.06
583.22	51.49
583.38	79.58
583.54	51.49
583.70	0.00
583.86	88.94
584.02	72.56
584.18	128.73
584.34	39.79
584.50	79.58
584.66	63.19
584.82	112.35
584.98	86.60
585.14	79.58
585.30	65.54
585.46	60.85
585.62	112.35
585.78	74.90
585.94	18.72
586.10	53.83
586.26	37.45
586.42	63.19
586.58	56.17
586.74	86.60
586.90	67.88
587.06	53.83
587.22	93.62
587.38	4.68
587.54	46.81
587.70	30.43
587.86	93.62
588.02	93.62
588.18	98.30
588.34	110.01
588.49	32.77
588.65	51.49
588.81	9.36
588.97	65.54
589.13	117.03
589.29	117.03
589.45	114.69
589.61	105.32
589.77	105.32
589.93	23.41
590.08	0.00
590.24	93.62
590.40	63.19
590.56	149.79
590.72	84.26
590.88	49.15
591.04	56.17
591.20	44.47
591.35	74.90
591.51	95.96
591.67	114.69
591.83	46.81
591.99	112.35
592.15	56.17
592.31	39.79
592.46	42.13
592.62	114.69
592.78	25.75
592.94	117.03
593.10	100.64
593.26	93.62
593.41	98.30
593.57	65.54
593.73	51.49
593.89	39.79
594.05	51.49
594.20	53.83
594.36	95.96
594.52	79.58
594.68	105.32
594.84	42.13
594.99	16.38
595.15	51.49
595.31	93.62
595.47	126.39
595.62	51.49
595.78	42.13
595.94	25.75
596.10	2.34
596.25	81.92
596.41	131.07
596.57	0.00
596.73	11.70
596.88	107.66
597.04	53.83
597.20	35.11
597.36	72.56
597.51	53.83
597.67	25.75
597.83	28.09
597.99	56.17
598.14	98.30
598.30	77.24
598.46	145.11
598.61	98.30
598.77	105.32
598.93	81.92
599.09	0.00
599.24	77.24
599.40	65.54
599.56	110.01
599.71	46.81
599.87	93.62
600.03	67.88
600.18	25.75
600.34	53.83
600.50	70.22
600.65	175.54
600.81	49.15
600.97	25.75
601.12	95.96
601.28	39.79
601.44	124.05
601.59	107.66
601.75	51.49
601.91	42.13
602.06	91.28
602.22	126.39
602.37	42.13
602.53	117.03
602.69	35.11
602.84	11.70
603.00	100.64
603.16	84.26
603.31	37.45
603.47	53.83
603.62	142.77
603.78	14.04
603.94	60.85
604.09	35.11
604.25	0.00
604.40	0.00
604.56	58.51
604.71	95.96
604.87	63.19
605.03	119.37
605.18	0.00
605.34	102.98
605.49	37.45
605.65	18.72
605.80	88.94
605.96	25.75
606.12	117.03
606.27	56.17
606.43	74.90
606.58	79.58
606.74	49.15
606.89	65.54
607.05	44.47
607.20	42.13
607.36	18.72
607.51	46.81
607.67	32.77
607.82	21.06
607.98	35.11
608.13	105.32
608.29	105.32
608.44	58.51
608.60	32.77
608.75	86.60
608.91	126.39
609.06	72.56
609.22	25.75
609.37	28.09
609.53	107.66
609.68	110.01
609.84	86.60
609.99	14.04
610.15	117.03
610.30	86.60
610.46	35.11
610.61	140.43
610.76	98.30
610.92	84.26
611.07	84.26
611.23	65.54
611.38	56.17
611.54	70.22
611.69	81.92
611.84	63.19
612.00	88.94
612.15	32.77
612.31	88.94
612.46	147.45
612.62	49.15
612.77	93.62
612.92	65.54
613.08	42.13
613.23	98.30
613.39	114.69
613.54	0.00
613.69	124.05
613.85	0.00
614.00	18.72
614.15	28.09
614.31	128.73
614.46	9.36
614.62	70.22
614.77	102.98
614.92	35.11
615.08	107.66
615.23	25.75
615.38	23.41
615.54	0.00
615.69	140.43
615.84	121.71
616.00	30.43
616.15	37.45
616.30	4.68
616.46	42.13
616.61	37.45
616.76	49.15
616.92	28.09
617.07	91.28
617.22	98.30
617.37	30.43
617.53	84.26
617.68	58.51
617.83	23.41
617.99	32.77
618.14	191.92
618.29	119.37
618.45	102.98
618.60	35.11
618.75	110.01
618.90	0.00
619.06	28.09
619.21	9.36
619.36	0.00
619.51	11.70
619.67	39.79
619.82	60.85
619.97	102.98
620.12	98.30
620.28	63.19
620.43	135.75
620.58	65.54
620.73	98.30
620.89	51.49
621.04	105.32
621.19	23.41
621.34	84.26
621.49	49.15
621.65	67.88
621.80	44.47
621.95	39.79
622.10	65.54
622.25	107.66
622.41	112.35
622.56	46.81
622.71	81.92
622.86	86.60
623.01	21.06
623.16	81.92
623.32	147.45
623.47	46.81
623.62	39.79
623.77	46.81
623.92	95.96
624.07	53.83
624.23	117.03
624.38	74.90
624.53	102.98
624.68	53.83
624.83	30.43
624.98	91.28
625.13	53.83
625.29	35.11
625.44	25.75
625.59	39.79
625.74	79.58
625.89	11.70
626.04	56.17
626.19	18.72
626.34	23.41
626.49	58.51
626.65	100.64
626.80	70.22
626.95	7.02
627.10	110.01
627.25	23.41
627.40	39.79
627.55	0.00
627.70	100.64
627.85	4.68
628.00	35.11
628.15	42.13
628.30	65.54
628.45	84.26
628.60	110.01
628.76	79.58
628.91	0.00
629.06	74.90
629.21	0.00
629.36	42.13
629.51	56.17
629.66	39.79
629.81	25.75
629.96	25.75
630.11	30.43
630.26	74.90
630.41	98.30
630.56	23.41
630.71	105.32
630.86	74.90
631.01	70.22
631.16	42.13
631.31	0.00
631.46	51.49
631.61	88.94
631.76	65.54
631.91	65.54
632.06	110.01
632.21	0.00
632.36	42.13
632.51	126.39
632.66	56.17
632.81	65.54
632.96	16.38
633.10	53.83
633.25	65.54
633.40	35.11
633.55	16.38
633.70	44.47
633.85	46.81
634.00	44.47
634.15	56.17
634.30	25.75
634.45	56.17
634.60	154.48
634.75	11.70
634.90	42.13
635.05	46.81
635.19	11.70
635.34	25.75
635.49	35.11
635.64	72.56
635.79	9.36
635.94	131.07
636.09	53.83
636.24	28.09
636.39	49.15
636.53	42.13
636.68	0.00
636.83	91.28
636.98	72.56
637.13	72.56
637.28	114.69
637.43	84.26
637.57	98.30
637.72	67.88
637.87	49.15
638.02	60.85
638.17	58.51
638.32	60.85
638.46	56.17
638.61	131.07
638.76	23.41
638.91	77.24
639.06	72.56
639.20	16.38
639.35	44.47
639.50	44.47
639.65	72.56
639.80	86.60
639.94	23.41
640.09	72.56
640.24	46.81
640.39	37.45
640.54	44.47
640.68	28.09
640.83	74.90
640.98	16.38
641.13	84.26
641.27	84.26
641.42	105.32
641.57	23.41
641.72	107.66
641.86	53.83
642.01	79.58
642.16	77.24
642.31	88.94
642.45	49.15
642.60	128.73
642.75	9.36
642.90	23.41
643.04	84.26
643.19	86.60
643.34	37.45
643.48	67.88
643.63	0.00
643.78	46.81
643.93	0.00
644.07	51.49
644.22	126.39
644.37	60.85
644.51	67.88
644.66	42.13
644.81	9.36
644.95	35.11
645.10	39.79
645.25	91.28
645.39	28.09
645.54	110.01
645.69	23.41
645.83	65.54
645.98	63.19
646.13	46.81
646.27	11.70
646.42	58.51
646.57	100.64
646.71	77.24
646.86	21.06
647.00	0.00
647.15	32.77
647.30	35.11
647.44	51.49
647.59	156.82
647.74	102.98
647.88	53.83
648.03	44.47
648.17	14.04
648.32	63.19
648.47	126.39
648.61	95.96
648.76	39.79
648.90	2.34
649.05	46.81
649.20	110.01
649.34	53.83
649.49	0.00
649.63	0.00
649.78	21.06
649.92	46.81
650.07	23.41
650.21	60.85
650.36	58.51
650.51	37.45
650.65	0.00
650.80	35.11
650.94	28.09
651.09	63.19
651.23	121.71
651.38	114.69
651.52	79.58
651.67	67.88
651.81	53.83
651.96	53.83
652.10	39.79
652.25	49.15
652.39	44.47
652.54	53.83
652.68	72.56
652.83	58.51
652.97	16.38
653.12	70.22
653.26	72.56
653.41	112.35
653.55	37.45
653.70	53.83
653.84	2.34
653.99	58.51
654.13	51.49
654.27	65.54
654.42	72.56
654.56	77.24
654.71	70.22
654.85	53.83
655.00	42.13
655.14	28.09
655.29	25.75
655.43	93.62
655.57	11.70
655.72	65.54
655.86	18.72
656.01	37.45
656.15	42.13
656.30	77.24
656.44	60.85
656.58	39.79
656.73	14.04
656.87	56.17
657.01	77.24
657.16	37.45
657.30	16.38
657.45	124.05
657.59	39.79
657.73	51.49
657.88	4.68
658.02	42.13
658.16	42.13
658.31	100.64
658.45	95.96
658.60	67.88
658.74	49.15
658.88	42.13
659.03	58.51
659.17	37.45
659.31	91.28
659.46	0.00
659.60	9.36
659.74	0.00
659.89	21.06
660.03	49.15
660.17	44.47
660.32	67.88
660.46	159.16
660.60	42.13
660.74	58.51
660.89	65.54
661.03	44.47
661.17	49.15
661.32	18.72
661.46	65.54
661.60	30.43
661.74	37.45
661.89	18.72
662.03	145.11
662.17	35.11
662.31	30.43
662.46	102.98
662.60	0.00
662.74	67.88
662.88	0.00
663.03	60.85
663.17	18.72
663.31	14.04
663.45	119.37
663.60	74.90
663.74	86.60
663.88	102.98
664.02	30.43
664.17	9.36
664.31	84.26
664.45	84.26
664.59	84.26
664.73	23.41
664.88	28.09
665.02	81.92
665.16	74.90
665.30	98.30
665.44	0.00
665.59	56.17
665.73	37.45
665.87	74.90
666.01	65.54
666.15	14.04
666.29	88.94
666.44	42.13
666.58	79.58
666.72	37.45
666.86	30.43
667.00	56.17
667.14	7.02
667.28	88.94
667.43	49.15
667.57	81.92
667.71	74.90
667.85	35.11
667.99	84.26
668.13	7.02
668.27	98.30
668.41	65.54
668.56	44.47
668.70	65.54
668.84	79.58
668.98	72.56
669.12	86.60
669.26	168.52
669.40	42.13
669.54	44.47
669.68	79.58
669.82	21.06
669.96	95.96
670.10	30.43
670.25	18.72
670.39	9.36
670.53	70.22
670.67	63.19
670.81	18.72
670.95	11.70
671.09	0.00
671.23	14.04
671.37	74.90
671.51	42.13
671.65	53.83
671.79	53.83
671.93	77.24
672.07	9.36
672.21	39.79
672.35	67.88
672.49	7.02
672.63	67.88
672.77	35.11
672.91	86.60
673.05	53.83
673.19	32.77
673.33	37.45
673.47	42.13
673.61	63.19
673.75	9.36
673.89	44.47
674.03	0.00
674.17	60.85
674.31	74.90
674.45	9.36
674.59	51.49
674.73	21.06
674.87	95.96
675.01	2.34
675.15	72.56
675.29	98.30
675.43	37.45
675.56	51.49
675.70	42.13
675.84	114.69
675.98	46.81
676.12	21.06
676.26	32.77
676.40	4.68
676.54	39.79
676.68	77.24
676.82	9.36
676.96	32.77
677.10	79.58
677.23	35.11
677.37	56.17
677.51	77.24
677.65	32.77
677.79	39.79
677.93	58.51
678.07	72.56
678.21	42.13
678.34	16.38
678.48	56.17
678.62	37.45
678.76	35.11
678.90	0.00
679.04	0.00
679.18	30.43
679.31	65.54
679.45	0.00
679.59	44.47
679.73	107.66
679.87	0.00
680.00	0.00
680.14	2.34
680.28	63.19
680.42	37.45
680.56	49.15
680.70	25.75
680.83	86.60
680.97	74.90
681.11	138.09
681.25	65.54
681.39	30.43
681.52	0.00
681.66	63.19
681.80	9.36
681.94	0.00
682.07	39.79
682.21	25.75
682.35	53.83
682.49	28.09
682.62	0.00
682.76	72.56
682.90	0.00
683.04	21.06
683.17	77.24
683.31	100.64
683.45	9.36
683.59	135.75
683.72	30.43
683.86	0.00
684.00	0.00
684.13	35.11
684.27	32.77
684.41	65.54
684.55	49.15
684.68	51.49
684.82	32.77
684.96	70.22
685.09	18.72
685.23	37.45
685.37	16.38
685.50	0.00
685.64	44.47
685.78	30.43
685.91	0.00
686.05	51.49
686.19	11.70
686.32	28.09
686.46	49.15
686.60	23.41
686.73	21.06
686.87	42.13
687.01	72.56
687.14	93.62
687.28	32.77
687.42	70.22
687.55	63.19
687.69	63.19
687.82	77.24
687.96	0.00
688.10	91.28
688.23	124.05
688.37	18.72
688.50	53.83
688.64	91.28
688.78	119.37
688.91	72.56
689.05	35.11
689.18	72.56
689.32	63.19
689.46	7.02
689.59	58.51
689.73	39.79
689.86	39.79
690.00	39.79
690.13	84.26
690.27	60.85
690.41	77.24
690.54	56.17
690.68	60.85
690.81	77.24
690.95	46.81
691.08	91.28
691.22	88.94
691.35	77.24
691.49	4.68
691.62	93.62
691.76	70.22
691.89	11.70
692.03	84.26
692.16	95.96
692.30	11.70
692.43	72.56
692.57	77.24
692.70	0.00
692.84	0.00
692.97	58.51
693.11	21.06
693.24	37.45
693.38	0.00
693.51	16.38
693.65	46.81
693.78	14.04
693.92	100.64
694.05	21.06
694.19	0.00
694.32	67.88
694.45	0.00
694.59	21.06
694.72	98.30
694.86	0.00
694.99	25.75
695.13	56.17
695.26	0.00
695.39	46.81
695.53	51.49
695.66	93.62
695.80	25.75
695.93	72.56
696.07	56.17
696.20	72.56
696.33	9.36
696.47	70.22
696.60	79.58
696.73	0.00
696.87	39.79
697.00	46.81
697.14	51.49
697.27	74.90
697.40	25.75
697.54	51.49
697.67	0.00
697.80	42.13
697.94	60.85
698.07	39.79
698.21	49.15
698.34	46.81
698.47	168.52
698.61	56.17
698.74	0.00
698.87	0.00
699.01	23.41
699.14	49.15
699.27	18.72
699.40	0.00
699.54	37.45
699.67	16.38
699.80	0.00
699.94	110.01
700.07	44.47
700.20	42.13
700.34	0.00
700.47	30.43
700.60	77.24
700.73	70.22
700.87	11.70
701.00	39.79
701.13	46.81
701.26	32.77
701.40	49.15
701.53	37.45
701.66	60.85
701.79	35.11
701.93	39.79
702.06	67.88
702.19	28.09
702.32	60.85
702.46	63.19
702.59	49.15
702.72	0.00
702.85	63.19
702.99	32.77
703.12	102.98
703.25	121.71
703.38	23.41
703.51	11.70
703.65	21.06
703.78	0.00
703.91	32.77
704.04	58.51
704.17	9.36
704.31	79.58
704.44	23.41
704.57	72.56
704.70	11.70
704.83	42.13
704.96	74.90
705.10	60.85
705.23	11.70
>>>>>End Processed Spectral Data<<<<<
