SpectraSuite Data File
++++++++++++++++++++++++++++++++++++
Date: Fri Oct 04 12:13:32 GMT-05:00 2013
User: price-jones
Dark Spectrum Present: No
Reference Spectrum Present: No
Number of Sampled Component Spectra: 1
Spectrometers: USB2+H05261
Integration Time (usec): 10000 (USB2+H05261)
Spectra Averaged: 1 (USB2+H05261)
Boxcar Smoothing: 0 (USB2+H05261)
Correct for Electrical Dark: No (USB2+H05261)
Strobe/Lamp Enabled: No (USB2+H05261)
Correct for Detector Non-linearity: No (USB2+H05261)
Correct for Stray Light: No (USB2+H05261)
Number of Pixels in Processed Spectrum: 2048
>>>>>Begin Processed Spectral Data<<<<<
365.73	21.06
365.92	21.06
366.12	21.06
366.32	0.00
366.52	0.00
366.72	0.00
366.91	0.00
367.11	0.00
367.31	0.00
367.51	0.00
367.70	0.00
367.90	0.00
368.10	0.00
368.30	0.00
368.49	0.00
368.69	0.00
368.89	0.00
369.09	0.00
369.28	0.00
369.48	0.00
369.68	0.00
369.87	0.00
370.07	0.00
370.27	0.00
370.47	0.00
370.66	0.00
370.86	0.00
371.06	0.00
371.25	0.00
371.45	0.00
371.65	4.68
371.84	0.00
372.04	0.00
372.24	0.00
372.44	0.00
372.63	0.00
372.83	16.38
373.03	0.00
373.22	58.51
373.42	0.00
373.62	4.68
373.81	0.00
374.01	35.11
374.21	79.58
374.40	0.00
374.60	117.03
374.79	65.54
374.99	63.19
375.19	4.68
375.38	14.04
375.58	0.00
375.78	9.36
375.97	30.43
376.17	42.13
376.37	37.45
376.56	53.83
376.76	16.38
376.95	46.81
377.15	11.70
377.35	65.54
377.54	30.43
377.74	0.00
377.93	23.41
378.13	35.11
378.33	7.02
378.52	21.06
378.72	0.00
378.91	0.00
379.11	46.81
379.31	56.17
379.50	60.85
379.70	0.00
379.89	35.11
380.09	0.00
380.28	28.09
380.48	0.00
380.68	25.75
380.87	81.92
381.07	28.09
381.26	0.00
381.46	0.00
381.65	77.24
381.85	2.34
382.04	2.34
382.24	2.34
382.43	18.72
382.63	16.38
382.83	70.22
383.02	51.49
383.22	0.00
383.41	44.47
383.61	9.36
383.80	4.68
384.00	86.60
384.19	58.51
384.39	0.00
384.58	30.43
384.78	14.04
384.97	23.41
385.17	0.00
385.36	0.00
385.56	11.70
385.75	0.00
385.95	16.38
386.14	100.64
386.34	14.04
386.53	0.00
386.72	2.34
386.92	14.04
387.11	42.13
387.31	49.15
387.50	77.24
387.70	63.19
387.89	95.96
388.09	14.04
388.28	0.00
388.48	0.00
388.67	14.04
388.86	0.00
389.06	53.83
389.25	4.68
389.45	0.00
389.64	0.00
389.84	0.00
390.03	39.79
390.22	16.38
390.42	14.04
390.61	53.83
390.81	0.00
391.00	32.77
391.19	0.00
391.39	0.00
391.58	0.00
391.78	0.00
391.97	65.54
392.16	53.83
392.36	0.00
392.55	0.00
392.75	14.04
392.94	0.00
393.13	0.00
393.33	44.47
393.52	46.81
393.71	28.09
393.91	2.34
394.10	30.43
394.29	4.68
394.49	0.00
394.68	14.04
394.88	18.72
395.07	0.00
395.26	0.00
395.46	91.28
395.65	67.88
395.84	95.96
396.04	46.81
396.23	0.00
396.42	44.47
396.62	0.00
396.81	53.83
397.00	0.00
397.19	23.41
397.39	79.58
397.58	77.24
397.77	79.58
397.97	46.81
398.16	44.47
398.35	28.09
398.55	100.64
398.74	35.11
398.93	0.00
399.12	0.00
399.32	28.09
399.51	18.72
399.70	84.26
399.90	21.06
400.09	14.04
400.28	32.77
400.47	11.70
400.67	114.69
400.86	81.92
401.05	60.85
401.24	44.47
401.44	25.75
401.63	65.54
401.82	60.85
402.01	70.22
402.21	18.72
402.40	0.00
402.59	60.85
402.78	2.34
402.97	35.11
403.17	0.00
403.36	42.13
403.55	23.41
403.74	53.83
403.93	0.00
404.13	0.00
404.32	14.04
404.51	42.13
404.70	56.17
404.89	42.13
405.09	35.11
405.28	0.00
405.47	21.06
405.66	14.04
405.85	0.00
406.05	44.47
406.24	37.45
406.43	0.00
406.62	39.79
406.81	58.51
407.00	0.00
407.20	23.41
407.39	58.51
407.58	23.41
407.77	74.90
407.96	0.00
408.15	107.66
408.34	28.09
408.54	18.72
408.73	60.85
408.92	0.00
409.11	0.00
409.30	0.00
409.49	60.85
409.68	63.19
409.87	58.51
410.07	16.38
410.26	23.41
410.45	35.11
410.64	35.11
410.83	114.69
411.02	79.58
411.21	18.72
411.40	63.19
411.59	65.54
411.78	14.04
411.98	0.00
412.17	37.45
412.36	67.88
412.55	0.00
412.74	16.38
412.93	9.36
413.12	79.58
413.31	42.13
413.50	65.54
413.69	0.00
413.88	37.45
414.07	0.00
414.26	14.04
414.45	0.00
414.64	21.06
414.83	86.60
415.02	11.70
415.22	16.38
415.41	67.88
415.60	0.00
415.79	0.00
415.98	42.13
416.17	0.00
416.36	11.70
416.55	60.85
416.74	74.90
416.93	23.41
417.12	30.43
417.31	25.75
417.50	16.38
417.69	0.00
417.88	152.13
418.07	0.00
418.26	32.77
418.45	42.13
418.64	23.41
418.83	0.00
419.02	0.00
419.21	46.81
419.39	58.51
419.58	49.15
419.77	37.45
419.96	58.51
420.15	32.77
420.34	37.45
420.53	0.00
420.72	105.32
420.91	46.81
421.10	44.47
421.29	37.45
421.48	51.49
421.67	37.45
421.86	30.43
422.05	25.75
422.24	37.45
422.43	30.43
422.61	0.00
422.80	7.02
422.99	67.88
423.18	18.72
423.37	28.09
423.56	4.68
423.75	11.70
423.94	72.56
424.13	28.09
424.32	0.00
424.50	30.43
424.69	23.41
424.88	23.41
425.07	56.17
425.26	51.49
425.45	35.11
425.64	0.00
425.83	23.41
426.01	35.11
426.20	63.19
426.39	0.00
426.58	88.94
426.77	23.41
426.96	0.00
427.15	42.13
427.33	0.00
427.52	0.00
427.71	42.13
427.90	18.72
428.09	42.13
428.28	14.04
428.46	0.00
428.65	18.72
428.84	16.38
429.03	35.11
429.22	0.00
429.40	0.00
429.59	9.36
429.78	74.90
429.97	9.36
430.16	42.13
430.34	46.81
430.53	53.83
430.72	77.24
430.91	16.38
431.10	95.96
431.28	0.00
431.47	0.00
431.66	0.00
431.85	37.45
432.03	0.00
432.22	49.15
432.41	44.47
432.60	95.96
432.79	56.17
432.97	65.54
433.16	18.72
433.35	25.75
433.54	65.54
433.72	58.51
433.91	30.43
434.10	0.00
434.28	60.85
434.47	16.38
434.66	37.45
434.85	98.30
435.03	11.70
435.22	39.79
435.41	37.45
435.59	28.09
435.78	25.75
435.97	32.77
436.16	21.06
436.34	46.81
436.53	32.77
436.72	58.51
436.90	32.77
437.09	67.88
437.28	32.77
437.46	0.00
437.65	0.00
437.84	53.83
438.02	0.00
438.21	0.00
438.40	70.22
438.58	65.54
438.77	0.00
438.96	77.24
439.14	0.00
439.33	21.06
439.52	0.00
439.70	16.38
439.89	91.28
440.08	42.13
440.26	0.00
440.45	63.19
440.63	65.54
440.82	81.92
441.01	2.34
441.19	23.41
441.38	53.83
441.57	21.06
441.75	112.35
441.94	32.77
442.12	30.43
442.31	77.24
442.50	51.49
442.68	11.70
442.87	4.68
443.05	21.06
443.24	58.51
443.43	81.92
443.61	58.51
443.80	46.81
443.98	70.22
444.17	51.49
444.35	44.47
444.54	49.15
444.73	56.17
444.91	44.47
445.10	14.04
445.28	35.11
445.47	30.43
445.65	51.49
445.84	7.02
446.02	21.06
446.21	18.72
446.39	32.77
446.58	37.45
446.77	72.56
446.95	60.85
447.14	0.00
447.32	79.58
447.51	32.77
447.69	42.13
447.88	2.34
448.06	0.00
448.25	46.81
448.43	25.75
448.62	0.00
448.80	35.11
448.99	37.45
449.17	0.00
449.36	25.75
449.54	39.79
449.73	44.47
449.91	0.00
450.10	11.70
450.28	11.70
450.46	30.43
450.65	46.81
450.83	0.00
451.02	18.72
451.20	79.58
451.39	105.32
451.57	0.00
451.76	95.96
451.94	0.00
452.13	9.36
452.31	72.56
452.49	39.79
452.68	35.11
452.86	63.19
453.05	74.90
453.23	32.77
453.42	32.77
453.60	0.00
453.78	72.56
453.97	110.01
454.15	39.79
454.34	21.06
454.52	42.13
454.70	39.79
454.89	63.19
455.07	0.00
455.26	0.00
455.44	25.75
455.62	86.60
455.81	100.64
455.99	4.68
456.17	39.79
456.36	84.26
456.54	7.02
456.73	58.51
456.91	21.06
457.09	65.54
457.28	37.45
457.46	0.00
457.64	0.00
457.83	60.85
458.01	11.70
458.19	84.26
458.38	0.00
458.56	42.13
458.74	25.75
458.93	86.60
459.11	65.54
459.29	58.51
459.48	98.30
459.66	65.54
459.84	23.41
460.03	58.51
460.21	0.00
460.39	39.79
460.57	25.75
460.76	0.00
460.94	0.00
461.12	100.64
461.31	37.45
461.49	11.70
461.67	93.62
461.85	16.38
462.04	79.58
462.22	95.96
462.40	16.38
462.59	100.64
462.77	88.94
462.95	30.43
463.13	102.98
463.32	117.03
463.50	0.00
463.68	0.00
463.86	23.41
464.05	72.56
464.23	0.00
464.41	25.75
464.59	0.00
464.78	46.81
464.96	65.54
465.14	81.92
465.32	119.37
465.50	84.26
465.69	0.00
465.87	25.75
466.05	23.41
466.23	2.34
466.41	79.58
466.60	0.00
466.78	30.43
466.96	25.75
467.14	102.98
467.32	35.11
467.51	21.06
467.69	0.00
467.87	46.81
468.05	46.81
468.23	30.43
468.41	23.41
468.60	7.02
468.78	28.09
468.96	91.28
469.14	56.17
469.32	72.56
469.50	0.00
469.69	95.96
469.87	51.49
470.05	0.00
470.23	0.00
470.41	11.70
470.59	65.54
470.77	23.41
470.95	46.81
471.14	70.22
471.32	35.11
471.50	65.54
471.68	91.28
471.86	86.60
472.04	2.34
472.22	9.36
472.40	0.00
472.58	0.00
472.77	74.90
472.95	0.00
473.13	0.00
473.31	46.81
473.49	18.72
473.67	37.45
473.85	4.68
474.03	0.00
474.21	0.00
474.39	46.81
474.57	0.00
474.75	42.13
474.93	93.62
475.12	23.41
475.30	63.19
475.48	0.00
475.66	0.00
475.84	2.34
476.02	0.00
476.20	32.77
476.38	46.81
476.56	7.02
476.74	86.60
476.92	112.35
477.10	32.77
477.28	60.85
477.46	53.83
477.64	14.04
477.82	21.06
478.00	4.68
478.18	0.00
478.36	23.41
478.54	21.06
478.72	16.38
478.90	4.68
479.08	42.13
479.26	95.96
479.44	60.85
479.62	30.43
479.80	28.09
479.98	0.00
480.16	16.38
480.34	0.00
480.52	0.00
480.70	35.11
480.88	25.75
481.06	65.54
481.24	0.00
481.41	79.58
481.59	79.58
481.77	30.43
481.95	0.00
482.13	72.56
482.31	30.43
482.49	100.64
482.67	65.54
482.85	0.00
483.03	32.77
483.21	91.28
483.39	81.92
483.57	102.98
483.74	77.24
483.92	11.70
484.10	49.15
484.28	0.00
484.46	42.13
484.64	28.09
484.82	0.00
485.00	39.79
485.18	46.81
485.35	28.09
485.53	44.47
485.71	51.49
485.89	74.90
486.07	23.41
486.25	16.38
486.43	23.41
486.61	2.34
486.78	0.00
486.96	9.36
487.14	70.22
487.32	25.75
487.50	46.81
487.68	79.58
487.85	30.43
488.03	44.47
488.21	25.75
488.39	37.45
488.57	119.37
488.75	35.11
488.92	53.83
489.10	93.62
489.28	119.37
489.46	28.09
489.64	23.41
489.81	0.00
489.99	46.81
490.17	70.22
490.35	23.41
490.53	32.77
490.70	0.00
490.88	121.71
491.06	67.88
491.24	117.03
491.41	67.88
491.59	28.09
491.77	4.68
491.95	37.45
492.13	46.81
492.30	4.68
492.48	0.00
492.66	49.15
492.84	28.09
493.01	44.47
493.19	16.38
493.37	58.51
493.54	35.11
493.72	30.43
493.90	14.04
494.08	14.04
494.25	63.19
494.43	126.39
494.61	102.98
494.79	30.43
494.96	32.77
495.14	65.54
495.32	37.45
495.49	0.00
495.67	51.49
495.85	0.00
496.02	23.41
496.20	16.38
496.38	58.51
496.55	60.85
496.73	60.85
496.91	0.00
497.09	0.00
497.26	107.66
497.44	72.56
497.62	72.56
497.79	53.83
497.97	42.13
498.14	21.06
498.32	37.45
498.50	0.00
498.67	32.77
498.85	23.41
499.03	72.56
499.20	16.38
499.38	28.09
499.56	58.51
499.73	0.00
499.91	0.00
500.08	49.15
500.26	65.54
500.44	0.00
500.61	53.83
500.79	156.82
500.97	0.00
501.14	0.00
501.32	95.96
501.49	37.45
501.67	53.83
501.84	119.37
502.02	25.75
502.20	65.54
502.37	25.75
502.55	60.85
502.72	42.13
502.90	107.66
503.07	65.54
503.25	2.34
503.43	65.54
503.60	9.36
503.78	60.85
503.95	44.47
504.13	18.72
504.30	7.02
504.48	2.34
504.65	7.02
504.83	11.70
505.01	0.00
505.18	2.34
505.36	77.24
505.53	2.34
505.71	51.49
505.88	23.41
506.06	88.94
506.23	35.11
506.41	32.77
506.58	63.19
506.76	25.75
506.93	7.02
507.11	39.79
507.28	91.28
507.46	16.38
507.63	44.47
507.81	23.41
507.98	42.13
508.16	37.45
508.33	56.17
508.50	4.68
508.68	28.09
508.85	35.11
509.03	58.51
509.20	16.38
509.38	35.11
509.55	0.00
509.73	93.62
509.90	0.00
510.08	7.02
510.25	51.49
510.42	88.94
510.60	11.70
510.77	56.17
510.95	0.00
511.12	14.04
511.30	32.77
511.47	86.60
511.64	86.60
511.82	138.09
511.99	25.75
512.17	30.43
512.34	37.45
512.51	65.54
512.69	0.00
512.86	65.54
513.04	0.00
513.21	21.06
513.38	11.70
513.56	72.56
513.73	25.75
513.90	28.09
514.08	65.54
514.25	58.51
514.43	56.17
514.60	65.54
514.77	46.81
514.95	0.00
515.12	88.94
515.29	25.75
515.47	28.09
515.64	51.49
515.81	0.00
515.99	86.60
516.16	39.79
516.33	39.79
516.51	63.19
516.68	32.77
516.85	35.11
517.03	95.96
517.20	28.09
517.37	67.88
517.54	7.02
517.72	39.79
517.89	51.49
518.06	2.34
518.24	49.15
518.41	79.58
518.58	0.00
518.75	65.54
518.93	72.56
519.10	0.00
519.27	28.09
519.45	37.45
519.62	25.75
519.79	28.09
519.96	23.41
520.14	77.24
520.31	0.00
520.48	121.71
520.65	65.54
520.83	74.90
521.00	105.32
521.17	63.19
521.34	60.85
521.52	0.00
521.69	44.47
521.86	18.72
522.03	2.34
522.20	4.68
522.38	49.15
522.55	7.02
522.72	51.49
522.89	49.15
523.07	0.00
523.24	23.41
523.41	93.62
523.58	30.43
523.75	39.79
523.92	28.09
524.10	16.38
524.27	70.22
524.44	37.45
524.61	67.88
524.78	58.51
524.96	0.00
525.13	4.68
525.30	39.79
525.47	53.83
525.64	84.26
525.81	0.00
525.98	4.68
526.16	46.81
526.33	18.72
526.50	35.11
526.67	32.77
526.84	0.00
527.01	58.51
527.18	88.94
527.36	65.54
527.53	63.19
527.70	0.00
527.87	23.41
528.04	25.75
528.21	0.00
528.38	0.00
528.55	63.19
528.72	88.94
528.89	49.15
529.07	81.92
529.24	21.06
529.41	39.79
529.58	119.37
529.75	16.38
529.92	60.85
530.09	58.51
530.26	23.41
530.43	72.56
530.60	0.00
530.77	11.70
530.94	32.77
531.11	79.58
531.28	16.38
531.46	56.17
531.63	51.49
531.80	91.28
531.97	37.45
532.14	44.47
532.31	0.00
532.48	51.49
532.65	79.58
532.82	65.54
532.99	39.79
533.16	0.00
533.33	84.26
533.50	0.00
533.67	58.51
533.84	72.56
534.01	51.49
534.18	70.22
534.35	37.45
534.52	70.22
534.69	0.00
534.86	74.90
535.03	46.81
535.20	128.73
535.37	65.54
535.54	0.00
535.71	98.30
535.88	11.70
536.05	70.22
536.22	72.56
536.38	21.06
536.55	95.96
536.72	100.64
536.89	0.00
537.06	124.05
537.23	0.00
537.40	65.54
537.57	14.04
537.74	51.49
537.91	56.17
538.08	0.00
538.25	39.79
538.42	39.79
538.59	21.06
538.75	56.17
538.92	35.11
539.09	81.92
539.26	51.49
539.43	119.37
539.60	30.43
539.77	81.92
539.94	93.62
540.11	65.54
540.28	7.02
540.44	63.19
540.61	58.51
540.78	23.41
540.95	9.36
541.12	37.45
541.29	0.00
541.46	0.00
541.62	28.09
541.79	28.09
541.96	25.75
542.13	86.60
542.30	95.96
542.47	39.79
542.63	72.56
542.80	58.51
542.97	23.41
543.14	65.54
543.31	14.04
543.48	21.06
543.64	28.09
543.81	9.36
543.98	131.07
544.15	88.94
544.32	16.38
544.48	35.11
544.65	7.02
544.82	0.00
544.99	79.58
545.16	58.51
545.32	46.81
545.49	28.09
545.66	70.22
545.83	16.38
546.00	121.71
546.16	39.79
546.33	142.77
546.50	107.66
546.67	51.49
546.83	86.60
547.00	18.72
547.17	32.77
547.34	4.68
547.50	77.24
547.67	35.11
547.84	51.49
548.00	63.19
548.17	63.19
548.34	25.75
548.51	65.54
548.67	77.24
548.84	51.49
549.01	7.02
549.18	44.47
549.34	84.26
549.51	37.45
549.68	39.79
549.84	91.28
550.01	72.56
550.18	23.41
550.34	128.73
550.51	11.70
550.68	72.56
550.84	93.62
551.01	35.11
551.18	81.92
551.34	32.77
551.51	84.26
551.68	44.47
551.84	0.00
552.01	81.92
552.18	25.75
552.34	9.36
552.51	14.04
552.68	0.00
552.84	23.41
553.01	51.49
553.18	0.00
553.34	0.00
553.51	114.69
553.67	21.06
553.84	86.60
554.01	84.26
554.17	39.79
554.34	0.00
554.51	25.75
554.67	0.00
554.84	145.11
555.00	0.00
555.17	0.00
555.33	25.75
555.50	35.11
555.67	49.15
555.83	44.47
556.00	35.11
556.16	46.81
556.33	23.41
556.50	100.64
556.66	74.90
556.83	91.28
556.99	18.72
557.16	32.77
557.32	9.36
557.49	28.09
557.65	58.51
557.82	25.75
557.98	11.70
558.15	124.05
558.32	0.00
558.48	86.60
558.65	35.11
558.81	37.45
558.98	53.83
559.14	7.02
559.31	32.77
559.47	0.00
559.64	74.90
559.80	14.04
559.97	0.00
560.13	21.06
560.30	107.66
560.46	11.70
560.63	67.88
560.79	46.81
560.96	32.77
561.12	37.45
561.29	77.24
561.45	133.41
561.61	60.85
561.78	56.17
561.94	51.49
562.11	56.17
562.27	58.51
562.44	79.58
562.60	53.83
562.77	18.72
562.93	81.92
563.10	49.15
563.26	84.26
563.42	114.69
563.59	42.13
563.75	0.00
563.92	72.56
564.08	42.13
564.24	0.00
564.41	58.51
564.57	0.00
564.74	4.68
564.90	0.00
565.07	23.41
565.23	84.26
565.39	39.79
565.56	86.60
565.72	74.90
565.88	81.92
566.05	0.00
566.21	0.00
566.38	18.72
566.54	70.22
566.70	28.09
566.87	30.43
567.03	72.56
567.19	81.92
567.36	0.00
567.52	25.75
567.68	88.94
567.85	58.51
568.01	32.77
568.17	53.83
568.34	42.13
568.50	84.26
568.66	0.00
568.83	2.34
568.99	88.94
569.15	58.51
569.32	23.41
569.48	0.00
569.64	46.81
569.81	67.88
569.97	0.00
570.13	44.47
570.30	0.00
570.46	42.13
570.62	70.22
570.78	0.00
570.95	60.85
571.11	14.04
571.27	49.15
571.43	4.68
571.60	30.43
571.76	56.17
571.92	65.54
572.09	56.17
572.25	128.73
572.41	49.15
572.57	0.00
572.74	14.04
572.90	23.41
573.06	56.17
573.22	14.04
573.38	18.72
573.55	16.38
573.71	14.04
573.87	49.15
574.03	58.51
574.20	0.00
574.36	88.94
574.52	77.24
574.68	30.43
574.84	51.49
575.01	91.28
575.17	67.88
575.33	65.54
575.49	39.79
575.65	93.62
575.82	60.85
575.98	93.62
576.14	70.22
576.30	72.56
576.46	65.54
576.62	35.11
576.79	51.49
576.95	86.60
577.11	0.00
577.27	44.47
577.43	91.28
577.59	49.15
577.75	25.75
577.92	84.26
578.08	28.09
578.24	21.06
578.40	72.56
578.56	0.00
578.72	88.94
578.88	49.15
579.04	42.13
579.21	0.00
579.37	30.43
579.53	74.90
579.69	49.15
579.85	58.51
580.01	60.85
580.17	23.41
580.33	37.45
580.49	23.41
580.65	23.41
580.82	14.04
580.98	102.98
581.14	79.58
581.30	70.22
581.46	32.77
581.62	67.88
581.78	70.22
581.94	0.00
582.10	46.81
582.26	95.96
582.42	84.26
582.58	28.09
582.74	0.00
582.90	88.94
583.06	23.41
583.22	0.00
583.38	42.13
583.54	32.77
583.70	37.45
583.86	88.94
584.02	18.72
584.18	70.22
584.34	23.41
584.50	0.00
584.66	173.20
584.82	271.50
584.98	409.59
585.14	390.87
585.30	236.39
585.46	163.84
585.62	65.54
585.78	88.94
585.94	93.62
586.10	39.79
586.26	98.30
586.42	46.81
586.58	37.45
586.74	60.85
586.90	9.36
587.06	0.00
587.22	84.26
587.38	70.22
587.54	138.09
587.70	11.70
587.86	65.54
588.02	42.13
588.18	28.09
588.34	98.30
588.49	98.30
588.65	0.00
588.81	46.81
588.97	18.72
589.13	23.41
589.29	30.43
589.45	63.19
589.61	39.79
589.77	77.24
589.93	2.34
590.08	98.30
590.24	93.62
590.40	67.88
590.56	21.06
590.72	81.92
590.88	67.88
591.04	16.38
591.20	30.43
591.35	37.45
591.51	21.06
591.67	63.19
591.83	25.75
591.99	77.24
592.15	35.11
592.31	98.30
592.46	117.03
592.62	32.77
592.78	0.00
592.94	39.79
593.10	14.04
593.26	0.00
593.41	21.06
593.57	21.06
593.73	28.09
593.89	86.60
594.05	70.22
594.20	37.45
594.36	124.05
594.52	98.30
594.68	65.54
594.84	0.00
594.99	32.77
595.15	53.83
595.31	4.68
595.47	70.22
595.62	65.54
595.78	35.11
595.94	65.54
596.10	88.94
596.25	4.68
596.41	65.54
596.57	16.38
596.73	28.09
596.88	21.06
597.04	67.88
597.20	25.75
597.36	79.58
597.51	53.83
597.67	53.83
597.83	98.30
597.99	28.09
598.14	93.62
598.30	0.00
598.46	98.30
598.61	28.09
598.77	28.09
598.93	42.13
599.09	0.00
599.24	77.24
599.40	65.54
599.56	28.09
599.71	39.79
599.87	65.54
600.03	88.94
600.18	11.70
600.34	44.47
600.50	25.75
600.65	44.47
600.81	79.58
600.97	93.62
601.12	95.96
601.28	0.00
601.44	16.38
601.59	72.56
601.75	0.00
601.91	98.30
602.06	63.19
602.22	0.00
602.37	39.79
602.53	72.56
602.69	25.75
602.84	42.13
603.00	95.96
603.16	35.11
603.31	95.96
603.47	79.58
603.62	70.22
603.78	9.36
603.94	93.62
604.09	35.11
604.25	91.28
604.40	37.45
604.56	98.30
604.71	74.90
604.87	18.72
605.03	0.00
605.18	0.00
605.34	60.85
605.49	30.43
605.65	53.83
605.80	51.49
605.96	102.98
606.12	102.98
606.27	81.92
606.43	0.00
606.58	63.19
606.74	4.68
606.89	7.02
607.05	88.94
607.20	133.41
607.36	110.01
607.51	16.38
607.67	79.58
607.82	74.90
607.98	58.51
608.13	21.06
608.29	39.79
608.44	84.26
608.60	35.11
608.75	4.68
608.91	51.49
609.06	39.79
609.22	126.39
609.37	102.98
609.53	117.03
609.68	110.01
609.84	11.70
609.99	37.45
610.15	9.36
610.30	46.81
610.46	39.79
610.61	0.00
610.76	9.36
610.92	86.60
611.07	119.37
611.23	126.39
611.38	88.94
611.54	74.90
611.69	0.00
611.84	65.54
612.00	9.36
612.15	32.77
612.31	7.02
612.46	46.81
612.62	58.51
612.77	107.66
612.92	35.11
613.08	91.28
613.23	39.79
613.39	32.77
613.54	4.68
613.69	74.90
613.85	88.94
614.00	145.11
614.15	91.28
614.31	163.84
614.46	133.41
614.62	91.28
614.77	100.64
614.92	70.22
615.08	32.77
615.23	30.43
615.38	46.81
615.54	16.38
615.69	35.11
615.84	0.00
616.00	105.32
616.15	88.94
616.30	67.88
616.46	60.85
616.61	49.15
616.76	79.58
616.92	16.38
617.07	51.49
617.22	53.83
617.37	37.45
617.53	37.45
617.68	32.77
617.83	56.17
617.99	86.60
618.14	30.43
618.29	25.75
618.45	67.88
618.60	16.38
618.75	100.64
618.90	74.90
619.06	79.58
619.21	95.96
619.36	131.07
619.51	44.47
619.67	4.68
619.82	0.00
619.97	30.43
620.12	100.64
620.28	91.28
620.43	60.85
620.58	42.13
620.73	39.79
620.89	32.77
621.04	44.47
621.19	14.04
621.34	18.72
621.49	49.15
621.65	7.02
621.80	0.00
621.95	4.68
622.10	60.85
622.25	30.43
622.41	21.06
622.56	32.77
622.71	98.30
622.86	49.15
623.01	56.17
623.16	49.15
623.32	37.45
623.47	91.28
623.62	0.00
623.77	21.06
623.92	39.79
624.07	11.70
624.23	11.70
624.38	95.96
624.53	110.01
624.68	18.72
624.83	37.45
624.98	72.56
625.13	0.00
625.29	42.13
625.44	28.09
625.59	0.00
625.74	25.75
625.89	30.43
626.04	42.13
626.19	0.00
626.34	81.92
626.49	93.62
626.65	56.17
626.80	2.34
626.95	32.77
627.10	46.81
627.25	58.51
627.40	32.77
627.55	9.36
627.70	21.06
627.85	49.15
628.00	30.43
628.15	65.54
628.30	28.09
628.45	44.47
628.60	4.68
628.76	44.47
628.91	0.00
629.06	30.43
629.21	51.49
629.36	65.54
629.51	72.56
629.66	14.04
629.81	42.13
629.96	23.41
630.11	53.83
630.26	21.06
630.41	60.85
630.56	32.77
630.71	60.85
630.86	18.72
631.01	4.68
631.16	63.19
631.31	44.47
631.46	147.45
631.61	2.34
631.76	9.36
631.91	0.00
632.06	56.17
632.21	74.90
632.36	91.28
632.51	16.38
632.66	28.09
632.81	53.83
632.96	77.24
633.10	91.28
633.25	81.92
633.40	32.77
633.55	11.70
633.70	114.69
633.85	0.00
634.00	21.06
634.15	53.83
634.30	14.04
634.45	46.81
634.60	37.45
634.75	23.41
634.90	0.00
635.05	14.04
635.19	86.60
635.34	49.15
635.49	58.51
635.64	74.90
635.79	49.15
635.94	44.47
636.09	53.83
636.24	25.75
636.39	81.92
636.53	25.75
636.68	107.66
636.83	56.17
636.98	72.56
637.13	28.09
637.28	60.85
637.43	16.38
637.57	18.72
637.72	39.79
637.87	37.45
638.02	91.28
638.17	170.86
638.32	42.13
638.46	74.90
638.61	86.60
638.76	4.68
638.91	79.58
639.06	18.72
639.20	30.43
639.35	77.24
639.50	44.47
639.65	81.92
639.80	95.96
639.94	168.52
640.09	234.05
640.24	119.37
640.39	131.07
640.54	107.66
640.68	58.51
640.83	23.41
640.98	21.06
641.13	0.00
641.27	0.00
641.42	0.00
641.57	49.15
641.72	30.43
641.86	51.49
642.01	56.17
642.16	9.36
642.31	42.13
642.45	16.38
642.60	30.43
642.75	4.68
642.90	23.41
643.04	102.98
643.19	58.51
643.34	84.26
643.48	28.09
643.63	46.81
643.78	0.00
643.93	0.00
644.07	21.06
644.22	4.68
644.37	0.00
644.51	4.68
644.66	7.02
644.81	98.30
644.95	46.81
645.10	0.00
645.25	0.00
645.39	16.38
645.54	32.77
645.69	0.00
645.83	18.72
645.98	65.54
646.13	0.00
646.27	77.24
646.42	44.47
646.57	46.81
646.71	0.00
646.86	51.49
647.00	21.06
647.15	72.56
647.30	79.58
647.44	25.75
647.59	46.81
647.74	42.13
647.88	11.70
648.03	0.00
648.17	58.51
648.32	35.11
648.47	74.90
648.61	74.90
648.76	0.00
648.90	0.00
649.05	81.92
649.20	46.81
649.34	0.00
649.49	58.51
649.63	72.56
649.78	67.88
649.92	4.68
650.07	23.41
650.21	63.19
650.36	93.62
650.51	138.09
650.65	58.51
650.80	77.24
650.94	11.70
651.09	51.49
651.23	53.83
651.38	0.00
651.52	14.04
651.67	0.00
651.81	51.49
651.96	49.15
652.10	60.85
652.25	88.94
652.39	39.79
652.54	46.81
652.68	0.00
652.83	100.64
652.97	37.45
653.12	42.13
653.26	53.83
653.41	0.00
653.55	79.58
653.70	88.94
653.84	0.00
653.99	0.00
654.13	37.45
654.27	25.75
654.42	14.04
654.56	88.94
654.71	16.38
654.85	70.22
655.00	58.51
655.14	65.54
655.29	53.83
655.43	72.56
655.57	65.54
655.72	53.83
655.86	74.90
656.01	32.77
656.15	0.00
656.30	0.00
656.44	0.00
656.58	39.79
656.73	44.47
656.87	37.45
657.01	37.45
657.16	30.43
657.30	74.90
657.45	25.75
657.59	14.04
657.73	46.81
657.88	65.54
658.02	0.00
658.16	42.13
658.31	4.68
658.45	65.54
658.60	0.00
658.74	0.00
658.88	84.26
659.03	51.49
659.17	84.26
659.31	95.96
659.46	86.60
659.60	65.54
659.74	95.96
659.89	65.54
660.03	91.28
660.17	74.90
660.32	18.72
660.46	63.19
660.60	93.62
660.74	11.70
660.89	35.11
661.03	25.75
661.17	0.00
661.32	51.49
661.46	100.64
661.60	16.38
661.74	16.38
661.89	0.00
662.03	11.70
662.17	42.13
662.31	25.75
662.46	74.90
662.60	28.09
662.74	21.06
662.88	0.00
663.03	23.41
663.17	28.09
663.31	0.00
663.45	84.26
663.60	0.00
663.74	84.26
663.88	0.00
664.02	0.00
664.17	0.00
664.31	67.88
664.45	16.38
664.59	11.70
664.73	18.72
664.88	44.47
665.02	18.72
665.16	30.43
665.30	60.85
665.44	28.09
665.59	16.38
665.73	11.70
665.87	95.96
666.01	32.77
666.15	63.19
666.29	25.75
666.44	9.36
666.58	7.02
666.72	60.85
666.86	0.00
667.00	18.72
667.14	49.15
667.28	84.26
667.43	60.85
667.57	70.22
667.71	91.28
667.85	81.92
667.99	23.41
668.13	4.68
668.27	142.77
668.41	79.58
668.56	39.79
668.70	39.79
668.84	63.19
668.98	30.43
669.12	30.43
669.26	0.00
669.40	0.00
669.54	65.54
669.68	23.41
669.82	0.00
669.96	0.00
670.10	42.13
670.25	100.64
670.39	42.13
670.53	25.75
670.67	74.90
670.81	30.43
670.95	42.13
671.09	74.90
671.23	32.77
671.37	105.32
671.51	30.43
671.65	107.66
671.79	32.77
671.93	81.92
672.07	88.94
672.21	37.45
672.35	25.75
672.49	63.19
672.63	105.32
672.77	9.36
672.91	0.00
673.05	0.00
673.19	46.81
673.33	51.49
673.47	51.49
673.61	21.06
673.75	91.28
673.89	14.04
674.03	0.00
674.17	56.17
674.31	9.36
674.45	0.00
674.59	72.56
674.73	53.83
674.87	16.38
675.01	21.06
675.15	0.00
675.29	42.13
675.43	60.85
675.56	9.36
675.70	63.19
675.84	72.56
675.98	14.04
676.12	58.51
676.26	37.45
676.40	49.15
676.54	39.79
676.68	51.49
676.82	28.09
676.96	44.47
677.10	14.04
677.23	0.00
677.37	35.11
677.51	28.09
677.65	86.60
677.79	0.00
677.93	46.81
678.07	25.75
678.21	28.09
678.34	121.71
678.48	0.00
678.62	88.94
678.76	37.45
678.90	84.26
679.04	65.54
679.18	56.17
679.31	56.17
679.45	72.56
679.59	28.09
679.73	14.04
679.87	37.45
680.00	18.72
680.14	25.75
680.28	0.00
680.42	32.77
680.56	28.09
680.70	44.47
680.83	58.51
680.97	0.00
681.11	51.49
681.25	63.19
681.39	11.70
681.52	53.83
681.66	65.54
681.80	60.85
681.94	0.00
682.07	56.17
682.21	49.15
682.35	74.90
682.49	63.19
682.62	60.85
682.76	67.88
682.90	44.47
683.04	95.96
683.17	117.03
683.31	42.13
683.45	39.79
683.59	30.43
683.72	18.72
683.86	16.38
684.00	9.36
684.13	0.00
684.27	0.00
684.41	70.22
684.55	32.77
684.68	49.15
684.82	16.38
684.96	0.00
685.09	7.02
685.23	2.34
685.37	37.45
685.50	81.92
685.64	51.49
685.78	39.79
685.91	7.02
686.05	91.28
686.19	49.15
686.32	9.36
686.46	37.45
686.60	0.00
686.73	0.00
686.87	37.45
687.01	49.15
687.14	56.17
687.28	28.09
687.42	16.38
687.55	42.13
687.69	25.75
687.82	23.41
687.96	0.00
688.10	25.75
688.23	0.00
688.37	35.11
688.50	91.28
688.64	30.43
688.78	58.51
688.91	65.54
689.05	0.00
689.18	21.06
689.32	0.00
689.46	0.00
689.59	23.41
689.73	0.00
689.86	39.79
690.00	56.17
690.13	0.00
690.27	0.00
690.41	49.15
690.54	53.83
690.68	0.00
690.81	0.00
690.95	0.00
691.08	39.79
691.22	0.00
691.35	11.70
691.49	42.13
691.62	16.38
691.76	0.00
691.89	0.00
692.03	28.09
692.16	56.17
692.30	70.22
692.43	0.00
692.57	81.92
692.70	30.43
692.84	39.79
692.97	84.26
693.11	51.49
693.24	91.28
693.38	51.49
693.51	4.68
693.65	0.00
693.78	28.09
693.92	28.09
694.05	39.79
694.19	42.13
694.32	21.06
694.45	79.58
694.59	72.56
694.72	46.81
694.86	7.02
694.99	21.06
695.13	67.88
695.26	60.85
695.39	49.15
695.53	79.58
695.66	23.41
695.80	9.36
695.93	9.36
696.07	56.17
696.20	46.81
696.33	18.72
696.47	93.62
696.60	46.81
696.73	14.04
696.87	14.04
697.00	126.39
697.14	39.79
697.27	74.90
697.40	35.11
697.54	42.13
697.67	37.45
697.80	32.77
697.94	32.77
698.07	77.24
698.21	72.56
698.34	0.00
698.47	0.00
698.61	0.00
698.74	35.11
698.87	0.00
699.01	16.38
699.14	35.11
699.27	0.00
699.40	4.68
699.54	2.34
699.67	30.43
699.80	0.00
699.94	4.68
700.07	65.54
700.20	56.17
700.34	0.00
700.47	65.54
700.60	0.00
700.73	0.00
700.87	0.00
701.00	30.43
701.13	0.00
701.26	0.00
701.40	0.00
701.53	84.26
701.66	32.77
701.79	105.32
701.93	39.79
702.06	23.41
702.19	51.49
702.32	0.00
702.46	18.72
702.59	32.77
702.72	88.94
702.85	124.05
702.99	46.81
703.12	7.02
703.25	119.37
703.38	196.60
703.51	44.47
703.65	74.90
703.78	53.83
703.91	4.68
704.04	2.34
704.17	0.00
704.31	95.96
704.44	7.02
704.57	7.02
704.70	53.83
704.83	0.00
704.96	4.68
705.10	79.58
705.23	28.09
>>>>>End Processed Spectral Data<<<<<
