SpectraSuite Data File
++++++++++++++++++++++++++++++++++++
Date: Fri Oct 04 12:13:41 GMT-05:00 2013
User: price-jones
Dark Spectrum Present: No
Reference Spectrum Present: No
Number of Sampled Component Spectra: 1
Spectrometers: USB2+H05261
Integration Time (usec): 10000 (USB2+H05261)
Spectra Averaged: 1 (USB2+H05261)
Boxcar Smoothing: 0 (USB2+H05261)
Correct for Electrical Dark: No (USB2+H05261)
Strobe/Lamp Enabled: No (USB2+H05261)
Correct for Detector Non-linearity: No (USB2+H05261)
Correct for Stray Light: No (USB2+H05261)
Number of Pixels in Processed Spectrum: 2048
>>>>>Begin Processed Spectral Data<<<<<
365.73	11.70
365.92	11.70
366.12	11.70
366.32	0.00
366.52	0.00
366.72	0.00
366.91	0.00
367.11	0.00
367.31	0.00
367.51	0.00
367.70	0.00
367.90	0.00
368.10	0.00
368.30	0.00
368.49	0.00
368.69	0.00
368.89	0.00
369.09	0.00
369.28	0.00
369.48	0.00
369.68	0.00
369.87	0.00
370.07	0.00
370.27	0.00
370.47	0.00
370.66	0.00
370.86	0.00
371.06	0.00
371.25	0.00
371.45	0.00
371.65	23.41
371.84	7.02
372.04	0.00
372.24	14.04
372.44	0.00
372.63	0.00
372.83	74.90
373.03	14.04
373.22	2.34
373.42	0.00
373.62	0.00
373.81	49.15
374.01	0.00
374.21	0.00
374.40	37.45
374.60	119.37
374.79	63.19
374.99	88.94
375.19	18.72
375.38	14.04
375.58	9.36
375.78	0.00
375.97	14.04
376.17	60.85
376.37	0.00
376.56	147.45
376.76	7.02
376.95	0.00
377.15	4.68
377.35	14.04
377.54	18.72
377.74	42.13
377.93	67.88
378.13	77.24
378.33	0.00
378.52	0.00
378.72	32.77
378.91	65.54
379.11	0.00
379.31	4.68
379.50	63.19
379.70	25.75
379.89	0.00
380.09	18.72
380.28	30.43
380.48	23.41
380.68	0.00
380.87	18.72
381.07	35.11
381.26	0.00
381.46	18.72
381.65	14.04
381.85	63.19
382.04	0.00
382.24	25.75
382.43	63.19
382.63	72.56
382.83	0.00
383.02	37.45
383.22	46.81
383.41	0.00
383.61	7.02
383.80	0.00
384.00	0.00
384.19	0.00
384.39	7.02
384.58	67.88
384.78	102.98
384.97	37.45
385.17	84.26
385.36	0.00
385.56	0.00
385.75	0.00
385.95	0.00
386.14	25.75
386.34	30.43
386.53	65.54
386.72	63.19
386.92	51.49
387.11	110.01
387.31	16.38
387.50	0.00
387.70	21.06
387.89	7.02
388.09	0.00
388.28	14.04
388.48	70.22
388.67	35.11
388.86	53.83
389.06	0.00
389.25	42.13
389.45	77.24
389.64	70.22
389.84	95.96
390.03	32.77
390.22	39.79
390.42	72.56
390.61	84.26
390.81	65.54
391.00	14.04
391.19	56.17
391.39	53.83
391.58	23.41
391.78	0.00
391.97	16.38
392.16	60.85
392.36	37.45
392.55	51.49
392.75	35.11
392.94	32.77
393.13	0.00
393.33	0.00
393.52	65.54
393.71	28.09
393.91	37.45
394.10	0.00
394.29	77.24
394.49	135.75
394.68	4.68
394.88	56.17
395.07	0.00
395.26	25.75
395.46	0.00
395.65	42.13
395.84	74.90
396.04	23.41
396.23	35.11
396.42	58.51
396.62	35.11
396.81	51.49
397.00	7.02
397.19	28.09
397.39	51.49
397.58	28.09
397.77	2.34
397.97	0.00
398.16	2.34
398.35	56.17
398.55	35.11
398.74	39.79
398.93	56.17
399.12	11.70
399.32	9.36
399.51	44.47
399.70	7.02
399.90	9.36
400.09	0.00
400.28	30.43
400.47	4.68
400.67	23.41
400.86	0.00
401.05	44.47
401.24	0.00
401.44	0.00
401.63	74.90
401.82	49.15
402.01	14.04
402.21	46.81
402.40	2.34
402.59	86.60
402.78	0.00
402.97	7.02
403.17	110.01
403.36	0.00
403.55	39.79
403.74	77.24
403.93	49.15
404.13	0.00
404.32	0.00
404.51	18.72
404.70	65.54
404.89	0.00
405.09	0.00
405.28	37.45
405.47	0.00
405.66	30.43
405.85	30.43
406.05	53.83
406.24	9.36
406.43	16.38
406.62	0.00
406.81	58.51
407.00	77.24
407.20	11.70
407.39	63.19
407.58	18.72
407.77	51.49
407.96	53.83
408.15	93.62
408.34	23.41
408.54	79.58
408.73	30.43
408.92	32.77
409.11	56.17
409.30	81.92
409.49	2.34
409.68	16.38
409.87	32.77
410.07	39.79
410.26	0.00
410.45	65.54
410.64	67.88
410.83	72.56
411.02	2.34
411.21	32.77
411.40	51.49
411.59	18.72
411.78	30.43
411.98	100.64
412.17	63.19
412.36	49.15
412.55	46.81
412.74	70.22
412.93	72.56
413.12	4.68
413.31	16.38
413.50	11.70
413.69	37.45
413.88	9.36
414.07	51.49
414.26	0.00
414.45	39.79
414.64	81.92
414.83	65.54
415.02	18.72
415.22	11.70
415.41	53.83
415.60	21.06
415.79	58.51
415.98	44.47
416.17	51.49
416.36	0.00
416.55	51.49
416.74	98.30
416.93	16.38
417.12	72.56
417.31	32.77
417.50	63.19
417.69	51.49
417.88	72.56
418.07	63.19
418.26	67.88
418.45	32.77
418.64	72.56
418.83	46.81
419.02	70.22
419.21	28.09
419.39	84.26
419.58	58.51
419.77	18.72
419.96	0.00
420.15	51.49
420.34	39.79
420.53	25.75
420.72	44.47
420.91	9.36
421.10	84.26
421.29	9.36
421.48	0.00
421.67	102.98
421.86	23.41
422.05	51.49
422.24	112.35
422.43	81.92
422.61	60.85
422.80	79.58
422.99	30.43
423.18	0.00
423.37	117.03
423.56	37.45
423.75	35.11
423.94	0.00
424.13	0.00
424.32	35.11
424.50	77.24
424.69	91.28
424.88	114.69
425.07	65.54
425.26	72.56
425.45	23.41
425.64	32.77
425.83	102.98
426.01	56.17
426.20	133.41
426.39	32.77
426.58	4.68
426.77	23.41
426.96	53.83
427.15	0.00
427.33	9.36
427.52	0.00
427.71	39.79
427.90	0.00
428.09	60.85
428.28	23.41
428.46	51.49
428.65	42.13
428.84	0.00
429.03	70.22
429.22	63.19
429.40	107.66
429.59	42.13
429.78	0.00
429.97	30.43
430.16	23.41
430.34	79.58
430.53	0.00
430.72	42.13
430.91	51.49
431.10	58.51
431.28	30.43
431.47	131.07
431.66	58.51
431.85	86.60
432.03	23.41
432.22	49.15
432.41	44.47
432.60	65.54
432.79	28.09
432.97	128.73
433.16	16.38
433.35	39.79
433.54	51.49
433.72	93.62
433.91	39.79
434.10	11.70
434.28	46.81
434.47	81.92
434.66	0.00
434.85	105.32
435.03	88.94
435.22	37.45
435.41	28.09
435.59	32.77
435.78	28.09
435.97	21.06
436.16	39.79
436.34	44.47
436.53	11.70
436.72	53.83
436.90	18.72
437.09	74.90
437.28	23.41
437.46	7.02
437.65	0.00
437.84	4.68
438.02	51.49
438.21	16.38
438.40	0.00
438.58	65.54
438.77	46.81
438.96	0.00
439.14	107.66
439.33	39.79
439.52	60.85
439.70	72.56
439.89	28.09
440.08	70.22
440.26	56.17
440.45	35.11
440.63	56.17
440.82	51.49
441.01	30.43
441.19	35.11
441.38	70.22
441.57	44.47
441.75	18.72
441.94	107.66
442.12	95.96
442.31	86.60
442.50	65.54
442.68	0.00
442.87	74.90
443.05	42.13
443.24	0.00
443.43	44.47
443.61	51.49
443.80	86.60
443.98	7.02
444.17	39.79
444.35	53.83
444.54	0.00
444.73	114.69
444.91	91.28
445.10	95.96
445.28	4.68
445.47	84.26
445.65	30.43
445.84	98.30
446.02	28.09
446.21	0.00
446.39	23.41
446.58	39.79
446.77	53.83
446.95	0.00
447.14	51.49
447.32	42.13
447.51	4.68
447.69	14.04
447.88	0.00
448.06	67.88
448.25	42.13
448.43	9.36
448.62	93.62
448.80	56.17
448.99	65.54
449.17	58.51
449.36	72.56
449.54	49.15
449.73	51.49
449.91	65.54
450.10	46.81
450.28	56.17
450.46	11.70
450.65	65.54
450.83	18.72
451.02	30.43
451.20	65.54
451.39	65.54
451.57	49.15
451.76	28.09
451.94	42.13
452.13	77.24
452.31	39.79
452.49	25.75
452.68	49.15
452.86	51.49
453.05	32.77
453.23	0.00
453.42	11.70
453.60	93.62
453.78	0.00
453.97	0.00
454.15	105.32
454.34	51.49
454.52	51.49
454.70	79.58
454.89	81.92
455.07	70.22
455.26	46.81
455.44	77.24
455.62	88.94
455.81	16.38
455.99	4.68
456.17	74.90
456.36	25.75
456.54	67.88
456.73	128.73
456.91	74.90
457.09	95.96
457.28	105.32
457.46	133.41
457.64	51.49
457.83	25.75
458.01	39.79
458.19	86.60
458.38	72.56
458.56	44.47
458.74	63.19
458.93	37.45
459.11	49.15
459.29	84.26
459.48	70.22
459.66	35.11
459.84	56.17
460.03	53.83
460.21	37.45
460.39	63.19
460.57	49.15
460.76	112.35
460.94	72.56
461.12	58.51
461.31	63.19
461.49	21.06
461.67	86.60
461.85	112.35
462.04	53.83
462.22	39.79
462.40	65.54
462.59	44.47
462.77	35.11
462.95	102.98
463.13	14.04
463.32	81.92
463.50	63.19
463.68	0.00
463.86	9.36
464.05	74.90
464.23	32.77
464.41	72.56
464.59	67.88
464.78	18.72
464.96	56.17
465.14	60.85
465.32	23.41
465.50	0.00
465.69	16.38
465.87	70.22
466.05	60.85
466.23	98.30
466.41	49.15
466.60	51.49
466.78	102.98
466.96	9.36
467.14	42.13
467.32	21.06
467.51	42.13
467.69	0.00
467.87	32.77
468.05	77.24
468.23	58.51
468.41	25.75
468.60	60.85
468.78	0.00
468.96	35.11
469.14	0.00
469.32	0.00
469.50	30.43
469.69	53.83
469.87	16.38
470.05	117.03
470.23	65.54
470.41	4.68
470.59	74.90
470.77	51.49
470.95	21.06
471.14	49.15
471.32	51.49
471.50	44.47
471.68	77.24
471.86	28.09
472.04	9.36
472.22	112.35
472.40	46.81
472.58	28.09
472.77	117.03
472.95	72.56
473.13	88.94
473.31	100.64
473.49	102.98
473.67	88.94
473.85	184.90
474.03	65.54
474.21	53.83
474.39	25.75
474.57	70.22
474.75	14.04
474.93	42.13
475.12	79.58
475.30	91.28
475.48	65.54
475.66	77.24
475.84	77.24
476.02	30.43
476.20	77.24
476.38	77.24
476.56	77.24
476.74	102.98
476.92	16.38
477.10	16.38
477.28	74.90
477.46	77.24
477.64	72.56
477.82	9.36
478.00	0.00
478.18	140.43
478.36	16.38
478.54	110.01
478.72	46.81
478.90	77.24
479.08	37.45
479.26	58.51
479.44	9.36
479.62	0.00
479.80	70.22
479.98	88.94
480.16	105.32
480.34	121.71
480.52	79.58
480.70	60.85
480.88	112.35
481.06	60.85
481.24	16.38
481.41	0.00
481.59	46.81
481.77	53.83
481.95	53.83
482.13	105.32
482.31	72.56
482.49	65.54
482.67	124.05
482.85	166.18
483.03	117.03
483.21	110.01
483.39	51.49
483.57	72.56
483.74	81.92
483.92	37.45
484.10	46.81
484.28	56.17
484.46	102.98
484.64	35.11
484.82	39.79
485.00	84.26
485.18	105.32
485.35	39.79
485.53	11.70
485.71	46.81
485.89	63.19
486.07	35.11
486.25	58.51
486.43	72.56
486.61	42.13
486.78	63.19
486.96	11.70
487.14	30.43
487.32	28.09
487.50	107.66
487.68	0.00
487.85	72.56
488.03	53.83
488.21	102.98
488.39	46.81
488.57	81.92
488.75	88.94
488.92	95.96
489.10	112.35
489.28	21.06
489.46	53.83
489.64	63.19
489.81	23.41
489.99	84.26
490.17	70.22
490.35	105.32
490.53	46.81
490.70	51.49
490.88	53.83
491.06	42.13
491.24	79.58
491.41	102.98
491.59	72.56
491.77	60.85
491.95	60.85
492.13	0.00
492.30	67.88
492.48	74.90
492.66	58.51
492.84	91.28
493.01	30.43
493.19	102.98
493.37	86.60
493.54	14.04
493.72	56.17
493.90	37.45
494.08	51.49
494.25	72.56
494.43	100.64
494.61	86.60
494.79	79.58
494.96	37.45
495.14	65.54
495.32	35.11
495.49	100.64
495.67	110.01
495.85	86.60
496.02	53.83
496.20	112.35
496.38	53.83
496.55	70.22
496.73	93.62
496.91	30.43
497.09	51.49
497.26	65.54
497.44	74.90
497.62	39.79
497.79	42.13
497.97	51.49
498.14	84.26
498.32	35.11
498.50	51.49
498.67	44.47
498.85	98.30
499.03	60.85
499.20	56.17
499.38	44.47
499.56	18.72
499.73	133.41
499.91	110.01
500.08	11.70
500.26	23.41
500.44	79.58
500.61	131.07
500.79	70.22
500.97	91.28
501.14	91.28
501.32	67.88
501.49	56.17
501.67	88.94
501.84	81.92
502.02	30.43
502.20	119.37
502.37	140.43
502.55	131.07
502.72	51.49
502.90	53.83
503.07	44.47
503.25	72.56
503.43	124.05
503.60	37.45
503.78	107.66
503.95	163.84
504.13	49.15
504.30	23.41
504.48	135.75
504.65	93.62
504.83	133.41
505.01	42.13
505.18	42.13
505.36	63.19
505.53	112.35
505.71	100.64
505.88	49.15
506.06	16.38
506.23	65.54
506.41	60.85
506.58	44.47
506.76	102.98
506.93	42.13
507.11	49.15
507.28	184.90
507.46	53.83
507.63	25.75
507.81	42.13
507.98	100.64
508.16	114.69
508.33	121.71
508.50	70.22
508.68	124.05
508.85	79.58
509.03	112.35
509.20	81.92
509.38	65.54
509.55	138.09
509.73	98.30
509.90	105.32
510.08	77.24
510.25	124.05
510.42	46.81
510.60	152.13
510.77	91.28
510.95	74.90
511.12	112.35
511.30	39.79
511.47	135.75
511.64	44.47
511.82	119.37
511.99	53.83
512.17	100.64
512.34	42.13
512.51	53.83
512.69	63.19
512.86	166.18
513.04	142.77
513.21	152.13
513.38	39.79
513.56	88.94
513.73	91.28
513.90	72.56
514.08	77.24
514.25	56.17
514.43	102.98
514.60	32.77
514.77	67.88
514.95	105.32
515.12	46.81
515.29	70.22
515.47	0.00
515.64	98.30
515.81	53.83
515.99	49.15
516.16	67.88
516.33	67.88
516.51	110.01
516.68	133.41
516.85	84.26
517.03	37.45
517.20	117.03
517.37	98.30
517.54	114.69
517.72	81.92
517.89	67.88
518.06	98.30
518.24	93.62
518.41	105.32
518.58	175.54
518.75	70.22
518.93	74.90
519.10	16.38
519.27	133.41
519.45	98.30
519.62	72.56
519.79	72.56
519.96	21.06
520.14	79.58
520.31	60.85
520.48	121.71
520.65	105.32
520.83	95.96
521.00	112.35
521.17	39.79
521.34	49.15
521.52	117.03
521.69	65.54
521.86	112.35
522.03	67.88
522.20	74.90
522.38	0.00
522.55	102.98
522.72	110.01
522.89	102.98
523.07	102.98
523.24	79.58
523.41	124.05
523.58	105.32
523.75	100.64
523.92	86.60
524.10	49.15
524.27	72.56
524.44	98.30
524.61	102.98
524.78	124.05
524.96	124.05
525.13	98.30
525.30	159.16
525.47	117.03
525.64	168.52
525.81	53.83
525.98	166.18
526.16	72.56
526.33	112.35
526.50	9.36
526.67	77.24
526.84	95.96
527.01	46.81
527.18	110.01
527.36	107.66
527.53	28.09
527.70	79.58
527.87	77.24
528.04	56.17
528.21	77.24
528.38	72.56
528.55	79.58
528.72	79.58
528.89	126.39
529.07	77.24
529.24	110.01
529.41	126.39
529.58	49.15
529.75	84.26
529.92	23.41
530.09	63.19
530.26	56.17
530.43	107.66
530.60	88.94
530.77	124.05
530.94	112.35
531.11	86.60
531.28	102.98
531.46	81.92
531.63	100.64
531.80	102.98
531.97	100.64
532.14	91.28
532.31	100.64
532.48	56.17
532.65	91.28
532.82	145.11
532.99	44.47
533.16	93.62
533.33	74.90
533.50	81.92
533.67	77.24
533.84	65.54
534.01	18.72
534.18	107.66
534.35	21.06
534.52	72.56
534.69	67.88
534.86	102.98
535.03	25.75
535.20	63.19
535.37	70.22
535.54	86.60
535.71	88.94
535.88	46.81
536.05	117.03
536.22	138.09
536.38	28.09
536.55	126.39
536.72	135.75
536.89	114.69
537.06	30.43
537.23	74.90
537.40	67.88
537.57	114.69
537.74	159.16
537.91	93.62
538.08	112.35
538.25	72.56
538.42	65.54
538.59	18.72
538.75	131.07
538.92	163.84
539.09	102.98
539.26	53.83
539.43	51.49
539.60	98.30
539.77	81.92
539.94	25.75
540.11	98.30
540.28	53.83
540.44	51.49
540.61	107.66
540.78	84.26
540.95	23.41
541.12	102.98
541.29	42.13
541.46	98.30
541.62	107.66
541.79	100.64
541.96	39.79
542.13	23.41
542.30	67.88
542.47	114.69
542.63	81.92
542.80	110.01
542.97	79.58
543.14	138.09
543.31	93.62
543.48	88.94
543.64	63.19
543.81	98.30
543.98	95.96
544.15	74.90
544.32	131.07
544.48	166.18
544.65	65.54
544.82	110.01
544.99	114.69
545.16	56.17
545.32	86.60
545.49	84.26
545.66	138.09
545.83	49.15
546.00	128.73
546.16	79.58
546.33	84.26
546.50	138.09
546.67	128.73
546.83	84.26
547.00	145.11
547.17	56.17
547.34	65.54
547.50	37.45
547.67	102.98
547.84	124.05
548.00	126.39
548.17	81.92
548.34	74.90
548.51	98.30
548.67	44.47
548.84	102.98
549.01	18.72
549.18	180.22
549.34	105.32
549.51	93.62
549.68	124.05
549.84	53.83
550.01	79.58
550.18	60.85
550.34	86.60
550.51	84.26
550.68	95.96
550.84	117.03
551.01	79.58
551.18	140.43
551.34	110.01
551.51	159.16
551.68	95.96
551.84	79.58
552.01	7.02
552.18	67.88
552.34	117.03
552.51	140.43
552.68	65.54
552.84	84.26
553.01	126.39
553.18	147.45
553.34	133.41
553.51	44.47
553.67	154.48
553.84	145.11
554.01	145.11
554.17	67.88
554.34	135.75
554.51	107.66
554.67	93.62
554.84	110.01
555.00	53.83
555.17	145.11
555.33	18.72
555.50	138.09
555.67	107.66
555.83	147.45
556.00	95.96
556.16	117.03
556.33	145.11
556.50	74.90
556.66	119.37
556.83	161.50
556.99	124.05
557.16	9.36
557.32	56.17
557.49	56.17
557.65	51.49
557.82	105.32
557.98	112.35
558.15	133.41
558.32	28.09
558.48	56.17
558.65	74.90
558.81	112.35
558.98	56.17
559.14	37.45
559.31	11.70
559.47	128.73
559.64	77.24
559.80	121.71
559.97	63.19
560.13	84.26
560.30	65.54
560.46	74.90
560.63	110.01
560.79	77.24
560.96	51.49
561.12	16.38
561.29	81.92
561.45	67.88
561.61	58.51
561.78	93.62
561.94	77.24
562.11	74.90
562.27	44.47
562.44	131.07
562.60	91.28
562.77	102.98
562.93	35.11
563.10	86.60
563.26	91.28
563.42	46.81
563.59	4.68
563.75	128.73
563.92	159.16
564.08	114.69
564.24	102.98
564.41	173.20
564.57	74.90
564.74	42.13
564.90	112.35
565.07	39.79
565.23	91.28
565.39	44.47
565.56	44.47
565.72	135.75
565.88	95.96
566.05	77.24
566.21	35.11
566.38	0.00
566.54	60.85
566.70	65.54
566.87	58.51
567.03	98.30
567.19	35.11
567.36	145.11
567.52	119.37
567.68	184.90
567.85	100.64
568.01	105.32
568.17	107.66
568.34	93.62
568.50	81.92
568.66	60.85
568.83	58.51
568.99	72.56
569.15	67.88
569.32	133.41
569.48	65.54
569.64	4.68
569.81	42.13
569.97	11.70
570.13	102.98
570.30	107.66
570.46	95.96
570.62	2.34
570.78	98.30
570.95	65.54
571.11	58.51
571.27	7.02
571.43	93.62
571.60	53.83
571.76	79.58
571.92	93.62
572.09	60.85
572.25	49.15
572.41	49.15
572.57	133.41
572.74	86.60
572.90	119.37
573.06	58.51
573.22	46.81
573.38	124.05
573.55	79.58
573.71	121.71
573.87	32.77
574.03	4.68
574.20	42.13
574.36	156.82
574.52	93.62
574.68	46.81
574.84	107.66
575.01	65.54
575.17	112.35
575.33	121.71
575.49	44.47
575.65	102.98
575.82	79.58
575.98	51.49
576.14	46.81
576.30	51.49
576.46	18.72
576.62	79.58
576.79	79.58
576.95	95.96
577.11	72.56
577.27	81.92
577.43	32.77
577.59	88.94
577.75	58.51
577.92	4.68
578.08	74.90
578.24	86.60
578.40	79.58
578.56	114.69
578.72	131.07
578.88	37.45
579.04	65.54
579.21	93.62
579.37	114.69
579.53	46.81
579.69	74.90
579.85	131.07
580.01	105.32
580.17	86.60
580.33	154.48
580.49	84.26
580.65	126.39
580.82	95.96
580.98	21.06
581.14	119.37
581.30	84.26
581.46	84.26
581.62	105.32
581.78	107.66
581.94	121.71
582.10	93.62
582.26	53.83
582.42	53.83
582.58	93.62
582.74	93.62
582.90	81.92
583.06	46.81
583.22	102.98
583.38	102.98
583.54	28.09
583.70	58.51
583.86	79.58
584.02	126.39
584.18	18.72
584.34	128.73
584.50	44.47
584.66	60.85
584.82	105.32
584.98	23.41
585.14	23.41
585.30	88.94
585.46	58.51
585.62	65.54
585.78	60.85
585.94	72.56
586.10	51.49
586.26	39.79
586.42	0.00
586.58	84.26
586.74	53.83
586.90	63.19
587.06	124.05
587.22	135.75
587.38	25.75
587.54	86.60
587.70	51.49
587.86	56.17
588.02	128.73
588.18	70.22
588.34	77.24
588.49	30.43
588.65	81.92
588.81	128.73
588.97	140.43
589.13	117.03
589.29	44.47
589.45	70.22
589.61	56.17
589.77	79.58
589.93	72.56
590.08	58.51
590.24	81.92
590.40	67.88
590.56	37.45
590.72	32.77
590.88	98.30
591.04	60.85
591.20	84.26
591.35	93.62
591.51	49.15
591.67	79.58
591.83	67.88
591.99	98.30
592.15	32.77
592.31	37.45
592.46	65.54
592.62	88.94
592.78	51.49
592.94	114.69
593.10	112.35
593.26	58.51
593.41	70.22
593.57	114.69
593.73	46.81
593.89	56.17
594.05	67.88
594.20	32.77
594.36	114.69
594.52	60.85
594.68	9.36
594.84	107.66
594.99	63.19
595.15	53.83
595.31	46.81
595.47	77.24
595.62	65.54
595.78	0.00
595.94	161.50
596.10	77.24
596.25	16.38
596.41	16.38
596.57	102.98
596.73	56.17
596.88	124.05
597.04	72.56
597.20	53.83
597.36	18.72
597.51	119.37
597.67	112.35
597.83	81.92
597.99	114.69
598.14	46.81
598.30	93.62
598.46	32.77
598.61	117.03
598.77	67.88
598.93	140.43
599.09	4.68
599.24	72.56
599.40	88.94
599.56	142.77
599.71	67.88
599.87	21.06
600.03	77.24
600.18	107.66
600.34	77.24
600.50	121.71
600.65	37.45
600.81	79.58
600.97	79.58
601.12	72.56
601.28	30.43
601.44	91.28
601.59	44.47
601.75	67.88
601.91	98.30
602.06	30.43
602.22	0.00
602.37	79.58
602.53	37.45
602.69	49.15
602.84	102.98
603.00	124.05
603.16	9.36
603.31	79.58
603.47	133.41
603.62	102.98
603.78	107.66
603.94	119.37
604.09	0.00
604.25	53.83
604.40	91.28
604.56	126.39
604.71	35.11
604.87	37.45
605.03	0.00
605.18	63.19
605.34	100.64
605.49	70.22
605.65	107.66
605.80	35.11
605.96	84.26
606.12	154.48
606.27	100.64
606.43	163.84
606.58	42.13
606.74	23.41
606.89	81.92
607.05	56.17
607.20	79.58
607.36	81.92
607.51	72.56
607.67	53.83
607.82	53.83
607.98	70.22
608.13	72.56
608.29	152.13
608.44	91.28
608.60	74.90
608.75	86.60
608.91	58.51
609.06	91.28
609.22	14.04
609.37	88.94
609.53	138.09
609.68	37.45
609.84	72.56
609.99	35.11
610.15	21.06
610.30	65.54
610.46	51.49
610.61	60.85
610.76	72.56
610.92	110.01
611.07	105.32
611.23	121.71
611.38	88.94
611.54	67.88
611.69	100.64
611.84	119.37
612.00	0.00
612.15	51.49
612.31	37.45
612.46	28.09
612.62	161.50
612.77	128.73
612.92	42.13
613.08	138.09
613.23	77.24
613.39	98.30
613.54	28.09
613.69	91.28
613.85	56.17
614.00	86.60
614.15	51.49
614.31	100.64
614.46	100.64
614.62	44.47
614.77	86.60
614.92	67.88
615.08	65.54
615.23	51.49
615.38	18.72
615.54	187.24
615.69	77.24
615.84	44.47
616.00	107.66
616.15	58.51
616.30	72.56
616.46	42.13
616.61	140.43
616.76	140.43
616.92	0.00
617.07	28.09
617.22	107.66
617.37	67.88
617.53	140.43
617.68	63.19
617.83	124.05
617.99	81.92
618.14	72.56
618.29	95.96
618.45	86.60
618.60	81.92
618.75	49.15
618.90	58.51
619.06	16.38
619.21	37.45
619.36	81.92
619.51	46.81
619.67	21.06
619.82	35.11
619.97	81.92
620.12	100.64
620.28	67.88
620.43	0.00
620.58	0.00
620.73	58.51
620.89	74.90
621.04	65.54
621.19	131.07
621.34	58.51
621.49	79.58
621.65	72.56
621.80	105.32
621.95	100.64
622.10	119.37
622.25	11.70
622.41	140.43
622.56	39.79
622.71	0.00
622.86	117.03
623.01	117.03
623.16	119.37
623.32	23.41
623.47	100.64
623.62	84.26
623.77	44.47
623.92	88.94
624.07	51.49
624.23	58.51
624.38	53.83
624.53	72.56
624.68	21.06
624.83	98.30
624.98	112.35
625.13	37.45
625.29	53.83
625.44	131.07
625.59	42.13
625.74	23.41
625.89	88.94
626.04	84.26
626.19	70.22
626.34	37.45
626.49	9.36
626.65	0.00
626.80	147.45
626.95	124.05
627.10	65.54
627.25	46.81
627.40	0.00
627.55	9.36
627.70	28.09
627.85	74.90
628.00	58.51
628.15	28.09
628.30	16.38
628.45	124.05
628.60	46.81
628.76	39.79
628.91	102.98
629.06	51.49
629.21	0.00
629.36	49.15
629.51	98.30
629.66	46.81
629.81	117.03
629.96	2.34
630.11	84.26
630.26	84.26
630.41	23.41
630.56	124.05
630.71	60.85
630.86	58.51
631.01	0.00
631.16	51.49
631.31	67.88
631.46	65.54
631.61	91.28
631.76	37.45
631.91	32.77
632.06	98.30
632.21	67.88
632.36	60.85
632.51	42.13
632.66	0.00
632.81	37.45
632.96	28.09
633.10	0.00
633.25	25.75
633.40	32.77
633.55	86.60
633.70	53.83
633.85	56.17
634.00	74.90
634.15	0.00
634.30	77.24
634.45	98.30
634.60	0.00
634.75	16.38
634.90	95.96
635.05	84.26
635.19	145.11
635.34	56.17
635.49	49.15
635.64	100.64
635.79	63.19
635.94	86.60
636.09	112.35
636.24	119.37
636.39	56.17
636.53	39.79
636.68	102.98
636.83	124.05
636.98	91.28
637.13	30.43
637.28	72.56
637.43	81.92
637.57	58.51
637.72	110.01
637.87	70.22
638.02	72.56
638.17	35.11
638.32	70.22
638.46	0.00
638.61	49.15
638.76	93.62
638.91	14.04
639.06	21.06
639.20	0.00
639.35	0.00
639.50	102.98
639.65	112.35
639.80	72.56
639.94	11.70
640.09	63.19
640.24	74.90
640.39	51.49
640.54	46.81
640.68	63.19
640.83	77.24
640.98	2.34
641.13	63.19
641.27	49.15
641.42	74.90
641.57	74.90
641.72	51.49
641.86	28.09
642.01	53.83
642.16	102.98
642.31	35.11
642.45	70.22
642.60	51.49
642.75	0.00
642.90	39.79
643.04	42.13
643.19	58.51
643.34	21.06
643.48	79.58
643.63	74.90
643.78	37.45
643.93	0.00
644.07	42.13
644.22	60.85
644.37	117.03
644.51	0.00
644.66	72.56
644.81	88.94
644.95	51.49
645.10	72.56
645.25	84.26
645.39	65.54
645.54	0.00
645.69	21.06
645.83	46.81
645.98	21.06
646.13	63.19
646.27	21.06
646.42	77.24
646.57	79.58
646.71	25.75
646.86	25.75
647.00	0.00
647.15	0.00
647.30	60.85
647.44	77.24
647.59	44.47
647.74	88.94
647.88	0.00
648.03	53.83
648.17	0.00
648.32	98.30
648.47	88.94
648.61	53.83
648.76	86.60
648.90	14.04
649.05	11.70
649.20	53.83
649.34	124.05
649.49	0.00
649.63	126.39
649.78	53.83
649.92	37.45
650.07	56.17
650.21	0.00
650.36	46.81
650.51	77.24
650.65	102.98
650.80	95.96
650.94	37.45
651.09	60.85
651.23	110.01
651.38	32.77
651.52	65.54
651.67	152.13
651.81	112.35
651.96	28.09
652.10	72.56
652.25	142.77
652.39	72.56
652.54	51.49
652.68	107.66
652.83	107.66
652.97	58.51
653.12	16.38
653.26	37.45
653.41	63.19
653.55	44.47
653.70	58.51
653.84	159.16
653.99	107.66
654.13	88.94
654.27	138.09
654.42	138.09
654.56	7.02
654.71	11.70
654.85	72.56
655.00	93.62
655.14	56.17
655.29	25.75
655.43	86.60
655.57	4.68
655.72	0.00
655.86	39.79
656.01	88.94
656.15	23.41
656.30	28.09
656.44	102.98
656.58	14.04
656.73	28.09
656.87	79.58
657.01	58.51
657.16	44.47
657.30	154.48
657.45	42.13
657.59	35.11
657.73	70.22
657.88	53.83
658.02	77.24
658.16	86.60
658.31	81.92
658.45	105.32
658.60	88.94
658.74	91.28
658.88	81.92
659.03	117.03
659.17	37.45
659.31	107.66
659.46	18.72
659.60	35.11
659.74	51.49
659.89	0.00
660.03	42.13
660.17	84.26
660.32	91.28
660.46	42.13
660.60	70.22
660.74	72.56
660.89	74.90
661.03	37.45
661.17	16.38
661.32	102.98
661.46	37.45
661.60	107.66
661.74	44.47
661.89	37.45
662.03	79.58
662.17	86.60
662.31	0.00
662.46	84.26
662.60	42.13
662.74	11.70
662.88	79.58
663.03	18.72
663.17	37.45
663.31	58.51
663.45	9.36
663.60	25.75
663.74	42.13
663.88	7.02
664.02	0.00
664.17	65.54
664.31	44.47
664.45	84.26
664.59	72.56
664.73	65.54
664.88	81.92
665.02	16.38
665.16	51.49
665.30	30.43
665.44	53.83
665.59	30.43
665.73	11.70
665.87	53.83
666.01	0.00
666.15	79.58
666.29	121.71
666.44	79.58
666.58	56.17
666.72	30.43
666.86	42.13
667.00	46.81
667.14	46.81
667.28	28.09
667.43	4.68
667.57	0.00
667.71	56.17
667.85	72.56
667.99	16.38
668.13	72.56
668.27	91.28
668.41	53.83
668.56	7.02
668.70	56.17
668.84	67.88
668.98	28.09
669.12	37.45
669.26	74.90
669.40	44.47
669.54	91.28
669.68	0.00
669.82	128.73
669.96	0.00
670.10	4.68
670.25	37.45
670.39	39.79
670.53	60.85
670.67	46.81
670.81	65.54
670.95	37.45
671.09	93.62
671.23	65.54
671.37	0.00
671.51	65.54
671.65	63.19
671.79	53.83
671.93	95.96
672.07	63.19
672.21	91.28
672.35	170.86
672.49	49.15
672.63	28.09
672.77	91.28
672.91	138.09
673.05	65.54
673.19	42.13
673.33	105.32
673.47	110.01
673.61	112.35
673.75	100.64
673.89	0.00
674.03	105.32
674.17	4.68
674.31	21.06
674.45	72.56
674.59	2.34
674.73	44.47
674.87	63.19
675.01	35.11
675.15	49.15
675.29	32.77
675.43	126.39
675.56	49.15
675.70	65.54
675.84	49.15
675.98	65.54
676.12	0.00
676.26	58.51
676.40	16.38
676.54	25.75
676.68	0.00
676.82	32.77
676.96	9.36
677.10	105.32
677.23	84.26
677.37	30.43
677.51	2.34
677.65	49.15
677.79	42.13
677.93	0.00
678.07	0.00
678.21	0.00
678.34	56.17
678.48	60.85
678.62	72.56
678.76	51.49
678.90	79.58
679.04	32.77
679.18	0.00
679.31	81.92
679.45	28.09
679.59	42.13
679.73	21.06
679.87	72.56
680.00	117.03
680.14	74.90
680.28	30.43
680.42	81.92
680.56	70.22
680.70	23.41
680.83	51.49
680.97	0.00
681.11	46.81
681.25	14.04
681.39	42.13
681.52	42.13
681.66	79.58
681.80	28.09
681.94	58.51
682.07	46.81
682.21	60.85
682.35	23.41
682.49	58.51
682.62	46.81
682.76	95.96
682.90	16.38
683.04	11.70
683.17	0.00
683.31	56.17
683.45	16.38
683.59	86.60
683.72	86.60
683.86	56.17
684.00	23.41
684.13	53.83
684.27	46.81
684.41	110.01
684.55	0.00
684.68	60.85
684.82	56.17
684.96	32.77
685.09	0.00
685.23	23.41
685.37	114.69
685.50	105.32
685.64	16.38
685.78	0.00
685.91	23.41
686.05	9.36
686.19	11.70
686.32	63.19
686.46	77.24
686.60	16.38
686.73	49.15
686.87	67.88
687.01	74.90
687.14	46.81
687.28	58.51
687.42	7.02
687.55	72.56
687.69	32.77
687.82	0.00
687.96	60.85
688.10	18.72
688.23	84.26
688.37	37.45
688.50	74.90
688.64	0.00
688.78	46.81
688.91	58.51
689.05	32.77
689.18	32.77
689.32	0.00
689.46	126.39
689.59	84.26
689.73	81.92
689.86	16.38
690.00	0.00
690.13	91.28
690.27	23.41
690.41	0.00
690.54	114.69
690.68	32.77
690.81	72.56
690.95	14.04
691.08	37.45
691.22	14.04
691.35	91.28
691.49	72.56
691.62	49.15
691.76	23.41
691.89	56.17
692.03	2.34
692.16	35.11
692.30	56.17
692.43	25.75
692.57	16.38
692.70	14.04
692.84	56.17
692.97	42.13
693.11	7.02
693.24	2.34
693.38	86.60
693.51	65.54
693.65	9.36
693.78	42.13
693.92	30.43
694.05	51.49
694.19	11.70
694.32	16.38
694.45	0.00
694.59	51.49
694.72	16.38
694.86	0.00
694.99	0.00
695.13	11.70
695.26	65.54
695.39	25.75
695.53	70.22
695.66	32.77
695.80	0.00
695.93	4.68
696.07	60.85
696.20	72.56
696.33	0.00
696.47	46.81
696.60	23.41
696.73	67.88
696.87	16.38
697.00	42.13
697.14	81.92
697.27	46.81
697.40	39.79
697.54	0.00
697.67	35.11
697.80	102.98
697.94	39.79
698.07	0.00
698.21	30.43
698.34	46.81
698.47	81.92
698.61	18.72
698.74	46.81
698.87	49.15
699.01	9.36
699.14	35.11
699.27	14.04
699.40	74.90
699.54	112.35
699.67	46.81
699.80	63.19
699.94	86.60
700.07	44.47
700.20	0.00
700.34	100.64
700.47	58.51
700.60	21.06
700.73	70.22
700.87	53.83
701.00	14.04
701.13	51.49
701.26	42.13
701.40	49.15
701.53	46.81
701.66	84.26
701.79	0.00
701.93	44.47
702.06	42.13
702.19	30.43
702.32	4.68
702.46	4.68
702.59	25.75
702.72	0.00
702.85	49.15
702.99	42.13
703.12	81.92
703.25	84.26
703.38	0.00
703.51	28.09
703.65	67.88
703.78	18.72
703.91	91.28
704.04	81.92
704.17	37.45
704.31	53.83
704.44	39.79
704.57	0.00
704.70	7.02
704.83	49.15
704.96	7.02
705.10	58.51
705.23	28.09
>>>>>End Processed Spectral Data<<<<<
