SpectraSuite Data File
++++++++++++++++++++++++++++++++++++
Date: Fri Oct 04 12:13:28 GMT-05:00 2013
User: price-jones
Dark Spectrum Present: No
Reference Spectrum Present: No
Number of Sampled Component Spectra: 1
Spectrometers: USB2+H05261
Integration Time (usec): 10000 (USB2+H05261)
Spectra Averaged: 1 (USB2+H05261)
Boxcar Smoothing: 0 (USB2+H05261)
Correct for Electrical Dark: No (USB2+H05261)
Strobe/Lamp Enabled: No (USB2+H05261)
Correct for Detector Non-linearity: No (USB2+H05261)
Correct for Stray Light: No (USB2+H05261)
Number of Pixels in Processed Spectrum: 2048
>>>>>Begin Processed Spectral Data<<<<<
365.73	0.00
365.92	0.00
366.12	0.00
366.32	18.72
366.52	0.00
366.72	0.00
366.91	0.00
367.11	0.00
367.31	0.00
367.51	0.00
367.70	0.00
367.90	0.00
368.10	0.00
368.30	0.00
368.49	0.00
368.69	0.00
368.89	0.00
369.09	0.00
369.28	0.00
369.48	0.00
369.68	0.00
369.87	0.00
370.07	0.00
370.27	0.00
370.47	0.00
370.66	0.00
370.86	0.00
371.06	0.00
371.25	0.00
371.45	0.00
371.65	0.00
371.84	0.00
372.04	28.09
372.24	7.02
372.44	0.00
372.63	7.02
372.83	14.04
373.03	0.00
373.22	0.00
373.42	0.00
373.62	21.06
373.81	44.47
374.01	14.04
374.21	2.34
374.40	32.77
374.60	30.43
374.79	21.06
374.99	37.45
375.19	79.58
375.38	16.38
375.58	21.06
375.78	21.06
375.97	16.38
376.17	51.49
376.37	46.81
376.56	16.38
376.76	18.72
376.95	0.00
377.15	42.13
377.35	0.00
377.54	18.72
377.74	9.36
377.93	37.45
378.13	0.00
378.33	0.00
378.52	21.06
378.72	0.00
378.91	28.09
379.11	42.13
379.31	2.34
379.50	2.34
379.70	16.38
379.89	35.11
380.09	0.00
380.28	37.45
380.48	39.79
380.68	0.00
380.87	28.09
381.07	35.11
381.26	0.00
381.46	44.47
381.65	51.49
381.85	32.77
382.04	95.96
382.24	0.00
382.43	56.17
382.63	53.83
382.83	42.13
383.02	0.00
383.22	65.54
383.41	14.04
383.61	0.00
383.80	0.00
384.00	0.00
384.19	46.81
384.39	37.45
384.58	2.34
384.78	0.00
384.97	0.00
385.17	0.00
385.36	0.00
385.56	51.49
385.75	49.15
385.95	53.83
386.14	67.88
386.34	14.04
386.53	4.68
386.72	77.24
386.92	28.09
387.11	0.00
387.31	9.36
387.50	9.36
387.70	0.00
387.89	4.68
388.09	0.00
388.28	0.00
388.48	25.75
388.67	60.85
388.86	0.00
389.06	4.68
389.25	28.09
389.45	0.00
389.64	30.43
389.84	0.00
390.03	9.36
390.22	28.09
390.42	32.77
390.61	28.09
390.81	42.13
391.00	16.38
391.19	21.06
391.39	0.00
391.58	0.00
391.78	0.00
391.97	0.00
392.16	77.24
392.36	70.22
392.55	56.17
392.75	0.00
392.94	35.11
393.13	0.00
393.33	56.17
393.52	0.00
393.71	0.00
393.91	67.88
394.10	0.00
394.29	39.79
394.49	28.09
394.68	93.62
394.88	16.38
395.07	16.38
395.26	0.00
395.46	128.73
395.65	51.49
395.84	16.38
396.04	0.00
396.23	37.45
396.42	0.00
396.62	28.09
396.81	0.00
397.00	32.77
397.19	93.62
397.39	84.26
397.58	11.70
397.77	0.00
397.97	14.04
398.16	30.43
398.35	70.22
398.55	44.47
398.74	39.79
398.93	2.34
399.12	81.92
399.32	44.47
399.51	42.13
399.70	18.72
399.90	0.00
400.09	0.00
400.28	0.00
400.47	0.00
400.67	67.88
400.86	67.88
401.05	30.43
401.24	51.49
401.44	37.45
401.63	95.96
401.82	0.00
402.01	16.38
402.21	110.01
402.40	21.06
402.59	65.54
402.78	105.32
402.97	42.13
403.17	21.06
403.36	37.45
403.55	0.00
403.74	0.00
403.93	56.17
404.13	0.00
404.32	39.79
404.51	16.38
404.70	67.88
404.89	53.83
405.09	28.09
405.28	91.28
405.47	56.17
405.66	28.09
405.85	37.45
406.05	58.51
406.24	0.00
406.43	0.00
406.62	0.00
406.81	63.19
407.00	44.47
407.20	16.38
407.39	35.11
407.58	0.00
407.77	0.00
407.96	21.06
408.15	51.49
408.34	7.02
408.54	88.94
408.73	23.41
408.92	4.68
409.11	46.81
409.30	44.47
409.49	63.19
409.68	0.00
409.87	0.00
410.07	30.43
410.26	63.19
410.45	16.38
410.64	35.11
410.83	14.04
411.02	117.03
411.21	0.00
411.40	14.04
411.59	32.77
411.78	23.41
411.98	56.17
412.17	18.72
412.36	67.88
412.55	0.00
412.74	37.45
412.93	18.72
413.12	35.11
413.31	117.03
413.50	51.49
413.69	0.00
413.88	0.00
414.07	88.94
414.26	0.00
414.45	0.00
414.64	60.85
414.83	37.45
415.02	98.30
415.22	21.06
415.41	11.70
415.60	0.00
415.79	0.00
415.98	0.00
416.17	23.41
416.36	58.51
416.55	84.26
416.74	0.00
416.93	58.51
417.12	7.02
417.31	119.37
417.50	86.60
417.69	65.54
417.88	2.34
418.07	100.64
418.26	102.98
418.45	0.00
418.64	4.68
418.83	23.41
419.02	32.77
419.21	35.11
419.39	58.51
419.58	28.09
419.77	18.72
419.96	67.88
420.15	37.45
420.34	0.00
420.53	53.83
420.72	23.41
420.91	30.43
421.10	37.45
421.29	23.41
421.48	14.04
421.67	2.34
421.86	63.19
422.05	7.02
422.24	0.00
422.43	0.00
422.61	0.00
422.80	0.00
422.99	4.68
423.18	4.68
423.37	2.34
423.56	72.56
423.75	70.22
423.94	37.45
424.13	63.19
424.32	18.72
424.50	9.36
424.69	49.15
424.88	53.83
425.07	25.75
425.26	49.15
425.45	0.00
425.64	98.30
425.83	39.79
426.01	0.00
426.20	46.81
426.39	63.19
426.58	46.81
426.77	51.49
426.96	56.17
427.15	9.36
427.33	4.68
427.52	44.47
427.71	11.70
427.90	51.49
428.09	14.04
428.28	39.79
428.46	58.51
428.65	60.85
428.84	49.15
429.03	105.32
429.22	63.19
429.40	44.47
429.59	58.51
429.78	0.00
429.97	0.00
430.16	51.49
430.34	25.75
430.53	14.04
430.72	49.15
430.91	131.07
431.10	51.49
431.28	4.68
431.47	32.77
431.66	70.22
431.85	30.43
432.03	56.17
432.22	0.00
432.41	65.54
432.60	35.11
432.79	32.77
432.97	81.92
433.16	67.88
433.35	51.49
433.54	81.92
433.72	81.92
433.91	11.70
434.10	7.02
434.28	81.92
434.47	58.51
434.66	0.00
434.85	7.02
435.03	0.00
435.22	14.04
435.41	0.00
435.59	4.68
435.78	88.94
435.97	30.43
436.16	0.00
436.34	0.00
436.53	46.81
436.72	98.30
436.90	23.41
437.09	100.64
437.28	25.75
437.46	49.15
437.65	46.81
437.84	51.49
438.02	49.15
438.21	18.72
438.40	0.00
438.58	60.85
438.77	23.41
438.96	0.00
439.14	65.54
439.33	9.36
439.52	2.34
439.70	60.85
439.89	21.06
440.08	11.70
440.26	72.56
440.45	0.00
440.63	18.72
440.82	37.45
441.01	49.15
441.19	42.13
441.38	107.66
441.57	81.92
441.75	11.70
441.94	0.00
442.12	2.34
442.31	42.13
442.50	21.06
442.68	72.56
442.87	37.45
443.05	51.49
443.24	42.13
443.43	44.47
443.61	35.11
443.80	46.81
443.98	9.36
444.17	51.49
444.35	32.77
444.54	0.00
444.73	46.81
444.91	65.54
445.10	58.51
445.28	7.02
445.47	0.00
445.65	70.22
445.84	0.00
446.02	44.47
446.21	14.04
446.39	16.38
446.58	86.60
446.77	7.02
446.95	0.00
447.14	81.92
447.32	0.00
447.51	0.00
447.69	49.15
447.88	51.49
448.06	37.45
448.25	32.77
448.43	51.49
448.62	0.00
448.80	28.09
448.99	0.00
449.17	18.72
449.36	53.83
449.54	18.72
449.73	0.00
449.91	39.79
450.10	25.75
450.28	53.83
450.46	25.75
450.65	49.15
450.83	23.41
451.02	0.00
451.20	65.54
451.39	23.41
451.57	23.41
451.76	0.00
451.94	79.58
452.13	4.68
452.31	0.00
452.49	42.13
452.68	56.17
452.86	0.00
453.05	11.70
453.23	18.72
453.42	100.64
453.60	39.79
453.78	44.47
453.97	42.13
454.15	23.41
454.34	77.24
454.52	0.00
454.70	7.02
454.89	42.13
455.07	42.13
455.26	35.11
455.44	0.00
455.62	32.77
455.81	88.94
455.99	0.00
456.17	0.00
456.36	23.41
456.54	4.68
456.73	21.06
456.91	39.79
457.09	2.34
457.28	30.43
457.46	0.00
457.64	7.02
457.83	58.51
458.01	18.72
458.19	105.32
458.38	42.13
458.56	30.43
458.74	44.47
458.93	81.92
459.11	0.00
459.29	9.36
459.48	39.79
459.66	42.13
459.84	23.41
460.03	0.00
460.21	65.54
460.39	60.85
460.57	0.00
460.76	42.13
460.94	37.45
461.12	60.85
461.31	49.15
461.49	16.38
461.67	79.58
461.85	63.19
462.04	32.77
462.22	98.30
462.40	63.19
462.59	67.88
462.77	53.83
462.95	84.26
463.13	35.11
463.32	23.41
463.50	0.00
463.68	84.26
463.86	72.56
464.05	49.15
464.23	35.11
464.41	56.17
464.59	51.49
464.78	0.00
464.96	63.19
465.14	7.02
465.32	95.96
465.50	46.81
465.69	25.75
465.87	7.02
466.05	42.13
466.23	58.51
466.41	131.07
466.60	35.11
466.78	39.79
466.96	28.09
467.14	53.83
467.32	110.01
467.51	58.51
467.69	46.81
467.87	60.85
468.05	91.28
468.23	0.00
468.41	39.79
468.60	42.13
468.78	7.02
468.96	7.02
469.14	51.49
469.32	23.41
469.50	46.81
469.69	32.77
469.87	0.00
470.05	79.58
470.23	121.71
470.41	77.24
470.59	32.77
470.77	56.17
470.95	51.49
471.14	49.15
471.32	0.00
471.50	58.51
471.68	119.37
471.86	21.06
472.04	0.00
472.22	60.85
472.40	51.49
472.58	30.43
472.77	0.00
472.95	28.09
473.13	0.00
473.31	0.00
473.49	63.19
473.67	16.38
473.85	0.00
474.03	37.45
474.21	18.72
474.39	102.98
474.57	67.88
474.75	14.04
474.93	35.11
475.12	0.00
475.30	32.77
475.48	65.54
475.66	25.75
475.84	42.13
476.02	32.77
476.20	42.13
476.38	107.66
476.56	49.15
476.74	2.34
476.92	0.00
477.10	0.00
477.28	51.49
477.46	58.51
477.64	53.83
477.82	11.70
478.00	23.41
478.18	63.19
478.36	51.49
478.54	23.41
478.72	65.54
478.90	65.54
479.08	35.11
479.26	81.92
479.44	0.00
479.62	42.13
479.80	0.00
479.98	46.81
480.16	9.36
480.34	49.15
480.52	51.49
480.70	44.47
480.88	0.00
481.06	49.15
481.24	30.43
481.41	39.79
481.59	18.72
481.77	0.00
481.95	28.09
482.13	16.38
482.31	32.77
482.49	39.79
482.67	9.36
482.85	44.47
483.03	46.81
483.21	46.81
483.39	79.58
483.57	70.22
483.74	53.83
483.92	60.85
484.10	32.77
484.28	9.36
484.46	4.68
484.64	37.45
484.82	32.77
485.00	30.43
485.18	35.11
485.35	0.00
485.53	0.00
485.71	37.45
485.89	0.00
486.07	88.94
486.25	0.00
486.43	88.94
486.61	2.34
486.78	65.54
486.96	42.13
487.14	11.70
487.32	37.45
487.50	0.00
487.68	0.00
487.85	21.06
488.03	74.90
488.21	131.07
488.39	0.00
488.57	2.34
488.75	107.66
488.92	60.85
489.10	42.13
489.28	7.02
489.46	21.06
489.64	0.00
489.81	0.00
489.99	44.47
490.17	95.96
490.35	93.62
490.53	11.70
490.70	25.75
490.88	30.43
491.06	0.00
491.24	2.34
491.41	51.49
491.59	28.09
491.77	25.75
491.95	79.58
492.13	42.13
492.30	53.83
492.48	65.54
492.66	35.11
492.84	58.51
493.01	30.43
493.19	0.00
493.37	32.77
493.54	0.00
493.72	102.98
493.90	0.00
494.08	0.00
494.25	105.32
494.43	46.81
494.61	0.00
494.79	39.79
494.96	23.41
495.14	91.28
495.32	0.00
495.49	0.00
495.67	0.00
495.85	51.49
496.02	0.00
496.20	30.43
496.38	39.79
496.55	110.01
496.73	98.30
496.91	28.09
497.09	7.02
497.26	0.00
497.44	56.17
497.62	112.35
497.79	28.09
497.97	60.85
498.14	49.15
498.32	4.68
498.50	88.94
498.67	25.75
498.85	7.02
499.03	86.60
499.20	105.32
499.38	0.00
499.56	32.77
499.73	84.26
499.91	30.43
500.08	56.17
500.26	0.00
500.44	67.88
500.61	23.41
500.79	25.75
500.97	98.30
501.14	0.00
501.32	42.13
501.49	72.56
501.67	56.17
501.84	0.00
502.02	35.11
502.20	14.04
502.37	46.81
502.55	0.00
502.72	0.00
502.90	51.49
503.07	42.13
503.25	2.34
503.43	37.45
503.60	91.28
503.78	0.00
503.95	7.02
504.13	72.56
504.30	49.15
504.48	0.00
504.65	35.11
504.83	56.17
505.01	0.00
505.18	37.45
505.36	39.79
505.53	28.09
505.71	0.00
505.88	63.19
506.06	107.66
506.23	60.85
506.41	16.38
506.58	67.88
506.76	18.72
506.93	53.83
507.11	0.00
507.28	44.47
507.46	0.00
507.63	16.38
507.81	0.00
507.98	21.06
508.16	84.26
508.33	0.00
508.50	42.13
508.68	70.22
508.85	53.83
509.03	44.47
509.20	70.22
509.38	42.13
509.55	46.81
509.73	0.00
509.90	18.72
510.08	100.64
510.25	58.51
510.42	18.72
510.60	65.54
510.77	35.11
510.95	49.15
511.12	0.00
511.30	74.90
511.47	46.81
511.64	18.72
511.82	30.43
511.99	16.38
512.17	18.72
512.34	88.94
512.51	46.81
512.69	11.70
512.86	23.41
513.04	44.47
513.21	51.49
513.38	14.04
513.56	42.13
513.73	37.45
513.90	4.68
514.08	58.51
514.25	35.11
514.43	28.09
514.60	100.64
514.77	30.43
514.95	0.00
515.12	21.06
515.29	95.96
515.47	14.04
515.64	51.49
515.81	30.43
515.99	46.81
516.16	72.56
516.33	51.49
516.51	56.17
516.68	65.54
516.85	67.88
517.03	14.04
517.20	0.00
517.37	37.45
517.54	60.85
517.72	0.00
517.89	42.13
518.06	0.00
518.24	93.62
518.41	49.15
518.58	23.41
518.75	7.02
518.93	23.41
519.10	0.00
519.27	67.88
519.45	65.54
519.62	74.90
519.79	56.17
519.96	14.04
520.14	16.38
520.31	46.81
520.48	60.85
520.65	53.83
520.83	44.47
521.00	35.11
521.17	67.88
521.34	7.02
521.52	63.19
521.69	49.15
521.86	84.26
522.03	28.09
522.20	11.70
522.38	49.15
522.55	0.00
522.72	4.68
522.89	28.09
523.07	56.17
523.24	0.00
523.41	0.00
523.58	30.43
523.75	81.92
523.92	126.39
524.10	65.54
524.27	32.77
524.44	0.00
524.61	105.32
524.78	72.56
524.96	25.75
525.13	0.00
525.30	9.36
525.47	56.17
525.64	35.11
525.81	0.00
525.98	0.00
526.16	14.04
526.33	86.60
526.50	72.56
526.67	32.77
526.84	4.68
527.01	23.41
527.18	30.43
527.36	18.72
527.53	42.13
527.70	0.00
527.87	18.72
528.04	14.04
528.21	124.05
528.38	79.58
528.55	0.00
528.72	58.51
528.89	0.00
529.07	49.15
529.24	117.03
529.41	0.00
529.58	67.88
529.75	63.19
529.92	60.85
530.09	35.11
530.26	44.47
530.43	37.45
530.60	11.70
530.77	67.88
530.94	112.35
531.11	70.22
531.28	84.26
531.46	39.79
531.63	28.09
531.80	56.17
531.97	0.00
532.14	46.81
532.31	51.49
532.48	46.81
532.65	102.98
532.82	53.83
532.99	93.62
533.16	70.22
533.33	105.32
533.50	21.06
533.67	7.02
533.84	25.75
534.01	58.51
534.18	72.56
534.35	63.19
534.52	46.81
534.69	79.58
534.86	25.75
535.03	0.00
535.20	56.17
535.37	60.85
535.54	7.02
535.71	91.28
535.88	44.47
536.05	9.36
536.22	51.49
536.38	32.77
536.55	25.75
536.72	44.47
536.89	21.06
537.06	0.00
537.23	46.81
537.40	21.06
537.57	65.54
537.74	46.81
537.91	0.00
538.08	35.11
538.25	58.51
538.42	0.00
538.59	18.72
538.75	53.83
538.92	0.00
539.09	88.94
539.26	65.54
539.43	70.22
539.60	222.35
539.77	259.80
539.94	215.33
540.11	191.92
540.28	88.94
540.44	159.16
540.61	30.43
540.78	60.85
540.95	65.54
541.12	65.54
541.29	28.09
541.46	42.13
541.62	23.41
541.79	0.00
541.96	88.94
542.13	0.00
542.30	30.43
542.47	14.04
542.63	0.00
542.80	37.45
542.97	74.90
543.14	30.43
543.31	49.15
543.48	79.58
543.64	91.28
543.81	70.22
543.98	58.51
544.15	16.38
544.32	74.90
544.48	81.92
544.65	77.24
544.82	28.09
544.99	42.13
545.16	0.00
545.32	4.68
545.49	105.32
545.66	7.02
545.83	0.00
546.00	0.00
546.16	39.79
546.33	70.22
546.50	7.02
546.67	23.41
546.83	0.00
547.00	95.96
547.17	46.81
547.34	30.43
547.50	74.90
547.67	84.26
547.84	28.09
548.00	53.83
548.17	77.24
548.34	2.34
548.51	81.92
548.67	63.19
548.84	0.00
549.01	70.22
549.18	77.24
549.34	51.49
549.51	53.83
549.68	16.38
549.84	7.02
550.01	0.00
550.18	56.17
550.34	11.70
550.51	112.35
550.68	11.70
550.84	86.60
551.01	65.54
551.18	35.11
551.34	60.85
551.51	86.60
551.68	58.51
551.84	39.79
552.01	44.47
552.18	44.47
552.34	32.77
552.51	72.56
552.68	0.00
552.84	39.79
553.01	0.00
553.18	102.98
553.34	51.49
553.51	0.00
553.67	46.81
553.84	0.00
554.01	86.60
554.17	0.00
554.34	46.81
554.51	79.58
554.67	21.06
554.84	0.00
555.00	14.04
555.17	84.26
555.33	35.11
555.50	25.75
555.67	0.00
555.83	53.83
556.00	53.83
556.16	51.49
556.33	72.56
556.50	39.79
556.66	30.43
556.83	100.64
556.99	91.28
557.16	138.09
557.32	0.00
557.49	30.43
557.65	51.49
557.82	46.81
557.98	84.26
558.15	4.68
558.32	51.49
558.48	2.34
558.65	0.00
558.81	32.77
558.98	42.13
559.14	21.06
559.31	0.00
559.47	7.02
559.64	25.75
559.80	53.83
559.97	0.00
560.13	28.09
560.30	86.60
560.46	28.09
560.63	18.72
560.79	35.11
560.96	77.24
561.12	49.15
561.29	86.60
561.45	18.72
561.61	0.00
561.78	30.43
561.94	70.22
562.11	49.15
562.27	7.02
562.44	2.34
562.60	0.00
562.77	32.77
562.93	0.00
563.10	88.94
563.26	0.00
563.42	53.83
563.59	28.09
563.75	35.11
563.92	0.00
564.08	37.45
564.24	119.37
564.41	88.94
564.57	0.00
564.74	14.04
564.90	0.00
565.07	0.00
565.23	44.47
565.39	37.45
565.56	49.15
565.72	60.85
565.88	67.88
566.05	0.00
566.21	30.43
566.38	44.47
566.54	18.72
566.70	42.13
566.87	25.75
567.03	81.92
567.19	56.17
567.36	60.85
567.52	39.79
567.68	58.51
567.85	37.45
568.01	58.51
568.17	70.22
568.34	0.00
568.50	84.26
568.66	42.13
568.83	60.85
568.99	49.15
569.15	51.49
569.32	63.19
569.48	65.54
569.64	0.00
569.81	0.00
569.97	2.34
570.13	0.00
570.30	35.11
570.46	60.85
570.62	65.54
570.78	32.77
570.95	91.28
571.11	79.58
571.27	32.77
571.43	84.26
571.60	121.71
571.76	56.17
571.92	72.56
572.09	56.17
572.25	21.06
572.41	67.88
572.57	25.75
572.74	0.00
572.90	42.13
573.06	58.51
573.22	77.24
573.38	60.85
573.55	0.00
573.71	7.02
573.87	37.45
574.03	11.70
574.20	0.00
574.36	42.13
574.52	4.68
574.68	30.43
574.84	51.49
575.01	58.51
575.17	93.62
575.33	93.62
575.49	39.79
575.65	21.06
575.82	65.54
575.98	70.22
576.14	100.64
576.30	138.09
576.46	100.64
576.62	39.79
576.79	117.03
576.95	60.85
577.11	42.13
577.27	79.58
577.43	30.43
577.59	39.79
577.75	60.85
577.92	0.00
578.08	32.77
578.24	91.28
578.40	70.22
578.56	51.49
578.72	86.60
578.88	105.32
579.04	16.38
579.21	102.98
579.37	28.09
579.53	74.90
579.69	74.90
579.85	79.58
580.01	65.54
580.17	126.39
580.33	58.51
580.49	32.77
580.65	7.02
580.82	28.09
580.98	46.81
581.14	77.24
581.30	114.69
581.46	107.66
581.62	105.32
581.78	100.64
581.94	84.26
582.10	79.58
582.26	79.58
582.42	28.09
582.58	84.26
582.74	138.09
582.90	18.72
583.06	119.37
583.22	74.90
583.38	131.07
583.54	9.36
583.70	67.88
583.86	156.82
584.02	79.58
584.18	138.09
584.34	149.79
584.50	461.09
584.66	3096.53
584.82	7714.41
584.98	11578.63
585.14	10387.30
585.30	6265.61
585.46	3854.86
585.62	2373.30
585.78	1109.41
585.94	547.69
586.10	283.20
586.26	152.13
586.42	182.56
586.58	88.94
586.74	152.13
586.90	63.19
587.06	133.41
587.22	126.39
587.38	149.79
587.54	154.48
587.70	456.40
587.86	833.23
588.02	926.85
588.18	631.94
588.34	369.80
588.49	306.61
588.65	187.24
588.81	166.18
588.97	74.90
589.13	100.64
589.29	46.81
589.45	63.19
589.61	63.19
589.77	81.92
589.93	30.43
590.08	98.30
590.24	72.56
590.40	58.51
590.56	14.04
590.72	81.92
590.88	18.72
591.04	39.79
591.20	86.60
591.35	25.75
591.51	0.00
591.67	21.06
591.83	2.34
591.99	56.17
592.15	35.11
592.31	65.54
592.46	51.49
592.62	60.85
592.78	65.54
592.94	30.43
593.10	46.81
593.26	102.98
593.41	93.62
593.57	67.88
593.73	72.56
593.89	451.72
594.05	1011.11
594.20	1472.20
594.36	1324.74
594.52	938.55
594.68	505.56
594.84	386.19
594.99	173.20
595.15	184.90
595.31	39.79
595.47	58.51
595.62	25.75
595.78	9.36
595.94	44.47
596.10	51.49
596.25	42.13
596.41	53.83
596.57	4.68
596.73	46.81
596.88	91.28
597.04	191.92
597.20	393.21
597.36	461.09
597.51	248.10
597.67	194.26
597.83	91.28
597.99	117.03
598.14	65.54
598.30	84.26
598.46	28.09
598.61	4.68
598.77	37.45
598.93	70.22
599.09	112.35
599.24	56.17
599.40	74.90
599.56	0.00
599.71	56.17
599.87	0.00
600.03	88.94
600.18	0.00
600.34	110.01
600.50	84.26
600.65	0.00
600.81	60.85
600.97	53.83
601.12	0.00
601.28	4.68
601.44	2.34
601.59	25.75
601.75	84.26
601.91	16.38
602.06	25.75
602.22	74.90
602.37	124.05
602.53	292.57
602.69	348.74
602.84	341.72
603.00	280.86
603.16	222.35
603.31	152.13
603.47	93.62
603.62	91.28
603.78	35.11
603.94	0.00
604.09	77.24
604.25	145.11
604.40	65.54
604.56	28.09
604.71	35.11
604.87	23.41
605.03	74.90
605.18	32.77
605.34	72.56
605.49	0.00
605.65	46.81
605.80	112.35
605.96	67.88
606.12	102.98
606.27	25.75
606.43	39.79
606.58	0.00
606.74	140.43
606.89	470.45
607.05	882.38
607.20	1348.15
607.36	1083.67
607.51	685.78
607.67	465.77
607.82	365.12
607.98	201.29
608.13	93.62
608.29	88.94
608.44	79.58
608.60	84.26
608.75	81.92
608.91	166.18
609.06	725.57
609.22	1521.35
609.37	2101.80
609.53	1956.69
609.68	1280.27
609.84	807.48
609.99	613.22
610.15	348.74
610.30	149.79
610.46	102.98
610.61	133.41
610.76	70.22
610.92	72.56
611.07	28.09
611.23	72.56
611.38	145.11
611.54	65.54
611.69	39.79
611.84	16.38
612.00	53.83
612.15	88.94
612.31	49.15
612.46	98.30
612.62	133.41
612.77	42.13
612.92	81.92
613.08	79.58
613.23	42.13
613.39	91.28
613.54	119.37
613.69	718.54
613.85	1923.92
614.00	3155.04
614.15	3419.52
614.31	2469.27
614.46	1664.12
614.62	1102.39
614.77	631.94
614.92	322.99
615.08	212.99
615.23	170.86
615.38	56.17
615.54	56.17
615.69	140.43
615.84	402.57
616.00	683.44
616.15	954.94
616.30	720.88
616.46	451.72
616.61	362.78
616.76	236.39
616.92	117.03
617.07	126.39
617.22	0.00
617.37	37.45
617.53	67.88
617.68	128.73
617.83	11.70
617.99	86.60
618.14	46.81
618.29	46.81
618.45	28.09
618.60	72.56
618.75	30.43
618.90	105.32
619.06	60.85
619.21	77.24
619.36	81.92
619.51	0.00
619.67	0.00
619.82	30.43
619.97	18.72
620.12	28.09
620.28	0.00
620.43	42.13
620.58	7.02
620.73	98.30
620.89	0.00
621.04	105.32
621.19	217.67
621.34	383.85
621.49	564.07
621.65	489.17
621.80	390.87
621.95	227.03
622.10	189.58
622.25	70.22
622.41	102.98
622.56	79.58
622.71	25.75
622.86	25.75
623.01	0.00
623.16	0.00
623.32	81.92
623.47	28.09
623.62	74.90
623.77	21.06
623.92	0.00
624.07	46.81
624.23	32.77
624.38	70.22
624.53	0.00
624.68	102.98
624.83	77.24
624.98	65.54
625.13	30.43
625.29	21.06
625.44	79.58
625.59	0.00
625.74	110.01
625.89	46.81
626.04	376.83
626.19	983.02
626.34	1631.35
626.49	1860.73
626.65	1416.02
626.80	870.68
626.95	550.03
627.10	395.55
627.25	210.65
627.40	39.79
627.55	53.83
627.70	77.24
627.85	81.92
628.00	53.83
628.15	53.83
628.30	0.00
628.45	0.00
628.60	28.09
628.76	0.00
628.91	0.00
629.06	74.90
629.21	100.64
629.36	102.98
629.51	30.43
629.66	14.04
629.81	7.02
629.96	149.79
630.11	304.27
630.26	505.56
630.41	435.34
630.56	301.93
630.71	203.63
630.86	177.88
631.01	37.45
631.16	58.51
631.31	4.68
631.46	114.69
631.61	60.85
631.76	88.94
631.91	0.00
632.06	72.56
632.21	11.70
632.36	44.47
632.51	72.56
632.66	105.32
632.81	145.11
632.96	622.58
633.10	980.68
633.25	1256.87
633.40	1064.94
633.55	763.01
633.70	416.62
633.85	320.65
634.00	198.95
634.15	74.90
634.30	93.62
634.45	49.15
634.60	67.88
634.75	93.62
634.90	44.47
635.05	28.09
635.19	56.17
635.34	72.56
635.49	53.83
635.64	18.72
635.79	7.02
635.94	23.41
636.09	39.79
636.24	74.90
636.39	72.56
636.53	37.45
636.68	25.75
636.83	16.38
636.98	126.39
637.13	23.41
637.28	0.00
637.43	100.64
637.57	105.32
637.72	472.79
637.87	1313.04
638.02	2085.42
638.17	2251.60
638.32	1732.00
638.46	1177.29
638.61	779.40
638.76	514.92
638.91	187.24
639.06	119.37
639.20	131.07
639.35	84.26
639.50	100.64
639.65	725.57
639.80	1970.73
639.94	3176.11
640.09	3637.19
640.24	2700.98
640.39	1764.76
640.54	1226.44
640.68	716.20
640.83	304.27
640.98	210.65
641.13	86.60
641.27	4.68
641.42	35.11
641.57	0.00
641.72	16.38
641.86	65.54
642.01	16.38
642.16	53.83
642.31	44.47
642.45	42.13
642.60	9.36
642.75	63.19
642.90	60.85
643.04	46.81
643.19	37.45
643.34	81.92
643.48	11.70
643.63	37.45
643.78	84.26
643.93	37.45
644.07	53.83
644.22	53.83
644.37	28.09
644.51	18.72
644.66	110.01
644.81	53.83
644.95	63.19
645.10	42.13
645.25	46.81
645.39	142.77
645.54	42.13
645.69	42.13
645.83	4.68
645.98	95.96
646.13	58.51
646.27	0.00
646.42	23.41
646.57	14.04
646.71	0.00
646.86	60.85
647.00	18.72
647.15	112.35
647.30	84.26
647.44	25.75
647.59	49.15
647.74	0.00
647.88	77.24
648.03	74.90
648.17	0.00
648.32	23.41
648.47	32.77
648.61	67.88
648.76	28.09
648.90	53.83
649.05	98.30
649.20	11.70
649.34	65.54
649.49	72.56
649.63	0.00
649.78	42.13
649.92	95.96
650.07	278.52
650.21	863.66
650.36	1514.33
650.51	1851.36
650.65	1509.65
650.80	1109.41
650.94	767.70
651.09	454.06
651.23	285.55
651.38	140.43
651.52	81.92
651.67	88.94
651.81	0.00
651.96	7.02
652.10	18.72
652.25	46.81
652.39	63.19
652.54	56.17
652.68	114.69
652.83	252.78
652.97	528.96
653.12	622.58
653.26	568.75
653.41	458.74
653.55	175.54
653.70	227.03
653.84	220.01
653.99	53.83
654.13	56.17
654.27	53.83
654.42	23.41
654.56	0.00
654.71	56.17
654.85	81.92
655.00	46.81
655.14	56.17
655.29	0.00
655.43	128.73
655.57	102.98
655.72	93.62
655.86	88.94
656.01	0.00
656.15	9.36
656.30	42.13
656.44	18.72
656.58	16.38
656.73	0.00
656.87	100.64
657.01	79.58
657.16	9.36
657.30	67.88
657.45	63.19
657.59	14.04
657.73	70.22
657.88	0.00
658.02	88.94
658.16	7.02
658.31	0.00
658.45	37.45
658.60	44.47
658.74	0.00
658.88	0.00
659.03	145.11
659.17	88.94
659.31	177.88
659.46	411.93
659.60	779.40
659.74	809.83
659.89	805.14
660.03	512.58
660.17	369.80
660.32	264.48
660.46	133.41
660.60	81.92
660.74	65.54
660.89	91.28
661.03	95.96
661.17	32.77
661.32	0.00
661.46	7.02
661.60	23.41
661.74	60.85
661.89	74.90
662.03	58.51
662.17	32.77
662.31	0.00
662.46	49.15
662.60	102.98
662.74	56.17
662.88	74.90
663.03	91.28
663.17	16.38
663.31	30.43
663.45	49.15
663.60	35.11
663.74	63.19
663.88	42.13
664.02	60.85
664.17	117.03
664.31	102.98
664.45	65.54
664.59	95.96
664.73	39.79
664.88	91.28
665.02	30.43
665.16	32.77
665.30	51.49
665.44	42.13
665.59	49.15
665.73	14.04
665.87	49.15
666.01	11.70
666.15	21.06
666.29	63.19
666.44	42.13
666.58	65.54
666.72	0.00
666.86	39.79
667.00	49.15
667.14	9.36
667.28	292.57
667.43	734.93
667.57	1270.91
667.71	1647.74
667.85	1423.05
667.99	926.85
668.13	697.48
668.27	353.42
668.41	227.03
668.56	105.32
668.70	58.51
668.84	53.83
668.98	95.96
669.12	37.45
669.26	32.77
669.40	91.28
669.54	0.00
669.68	65.54
669.82	42.13
669.96	93.62
670.10	77.24
670.25	37.45
670.39	18.72
670.53	0.00
670.67	0.00
670.81	25.75
670.95	49.15
671.09	51.49
671.23	301.93
671.37	585.13
671.51	847.27
671.65	1034.52
671.79	730.25
671.93	521.94
672.07	332.36
672.21	220.01
672.35	98.30
672.49	58.51
672.63	58.51
672.77	44.47
672.91	46.81
673.05	23.41
673.19	9.36
673.33	0.00
673.47	25.75
673.61	37.45
673.75	53.83
673.89	37.45
674.03	44.47
674.17	72.56
674.31	37.45
674.45	0.00
674.59	60.85
674.73	56.17
674.87	35.11
675.01	60.85
675.15	28.09
675.29	81.92
675.43	65.54
675.56	51.49
675.70	95.96
675.84	14.04
675.98	77.24
676.12	0.00
676.26	16.38
676.40	14.04
676.54	23.41
676.68	23.41
676.82	25.75
676.96	42.13
677.10	56.17
677.23	37.45
677.37	51.49
677.51	14.04
677.65	0.00
677.79	56.17
677.93	0.00
678.07	30.43
678.21	7.02
678.34	65.54
678.48	81.92
678.62	51.49
678.76	63.19
678.90	25.75
679.04	0.00
679.18	42.13
679.31	65.54
679.45	25.75
679.59	60.85
679.73	58.51
679.87	42.13
680.00	32.77
680.14	9.36
680.28	28.09
680.42	14.04
680.56	16.38
680.70	32.77
680.83	0.00
680.97	49.15
681.11	65.54
681.25	49.15
681.39	0.00
681.52	11.70
681.66	53.83
681.80	30.43
681.94	44.47
682.07	28.09
682.21	65.54
682.35	0.00
682.49	102.98
682.62	23.41
682.76	0.00
682.90	4.68
683.04	0.00
683.17	88.94
683.31	46.81
683.45	93.62
683.59	58.51
683.72	42.13
683.86	107.66
684.00	42.13
684.13	30.43
684.27	0.00
684.41	0.00
684.55	9.36
684.68	0.00
684.82	39.79
684.96	84.26
685.09	4.68
685.23	0.00
685.37	32.77
685.50	49.15
685.64	18.72
685.78	63.19
685.91	16.38
686.05	42.13
686.19	42.13
686.32	16.38
686.46	67.88
686.60	53.83
686.73	72.56
686.87	4.68
687.01	0.00
687.14	7.02
687.28	56.17
687.42	58.51
687.55	67.88
687.69	4.68
687.82	53.83
687.96	0.00
688.10	0.00
688.23	37.45
688.37	0.00
688.50	35.11
688.64	9.36
688.78	21.06
688.91	32.77
689.05	39.79
689.18	30.43
689.32	18.72
689.46	39.79
689.59	16.38
689.73	32.77
689.86	0.00
690.00	0.00
690.13	53.83
690.27	51.49
690.41	32.77
690.54	4.68
690.68	49.15
690.81	18.72
690.95	35.11
691.08	42.13
691.22	0.00
691.35	32.77
691.49	18.72
691.62	39.79
691.76	39.79
691.89	23.41
692.03	58.51
692.16	7.02
692.30	86.60
692.43	91.28
692.57	273.84
692.70	543.00
692.84	706.84
692.97	678.76
693.11	512.58
693.24	355.76
693.38	259.80
693.51	121.71
693.65	117.03
693.78	140.43
693.92	9.36
694.05	14.04
694.19	114.69
694.32	23.41
694.45	39.79
694.59	72.56
694.72	14.04
694.86	0.00
694.99	25.75
695.13	0.00
695.26	11.70
695.39	0.00
695.53	9.36
695.66	30.43
695.80	0.00
695.93	35.11
696.07	23.41
696.20	60.85
696.33	23.41
696.47	9.36
696.60	63.19
696.73	14.04
696.87	119.37
697.00	86.60
697.14	32.77
697.27	18.72
697.40	107.66
697.54	0.00
697.67	0.00
697.80	91.28
697.94	39.79
698.07	37.45
698.21	28.09
698.34	93.62
698.47	60.85
698.61	42.13
698.74	14.04
698.87	32.77
699.01	30.43
699.14	53.83
699.27	56.17
699.40	58.51
699.54	25.75
699.67	0.00
699.80	23.41
699.94	60.85
700.07	79.58
700.20	114.69
700.34	56.17
700.47	0.00
700.60	37.45
700.73	21.06
700.87	30.43
701.00	32.77
701.13	7.02
701.26	0.00
701.40	28.09
701.53	84.26
701.66	0.00
701.79	0.00
701.93	35.11
702.06	79.58
702.19	32.77
702.32	79.58
702.46	65.54
702.59	37.45
702.72	60.85
702.85	362.78
702.99	830.89
703.12	1224.10
703.25	1350.49
703.38	1259.21
703.51	940.90
703.65	767.70
703.78	482.15
703.91	407.25
704.04	222.35
704.17	77.24
704.31	173.20
704.44	98.30
704.57	51.49
704.70	107.66
704.83	65.54
704.96	39.79
705.10	51.49
705.23	32.77
>>>>>End Processed Spectral Data<<<<<
