SpectraSuite Data File
++++++++++++++++++++++++++++++++++++
Date: Fri Oct 04 12:13:28 GMT-05:00 2013
User: price-jones
Dark Spectrum Present: No
Reference Spectrum Present: No
Number of Sampled Component Spectra: 1
Spectrometers: USB2+H05261
Integration Time (usec): 10000 (USB2+H05261)
Spectra Averaged: 1 (USB2+H05261)
Boxcar Smoothing: 0 (USB2+H05261)
Correct for Electrical Dark: No (USB2+H05261)
Strobe/Lamp Enabled: No (USB2+H05261)
Correct for Detector Non-linearity: No (USB2+H05261)
Correct for Stray Light: No (USB2+H05261)
Number of Pixels in Processed Spectrum: 2048
>>>>>Begin Processed Spectral Data<<<<<
365.73	4.68
365.92	4.68
366.12	4.68
366.32	0.00
366.52	0.00
366.72	0.00
366.91	0.00
367.11	0.00
367.31	0.00
367.51	0.00
367.70	0.00
367.90	0.00
368.10	0.00
368.30	0.00
368.49	0.00
368.69	0.00
368.89	0.00
369.09	0.00
369.28	0.00
369.48	0.00
369.68	0.00
369.87	0.00
370.07	0.00
370.27	0.00
370.47	0.00
370.66	0.00
370.86	0.00
371.06	0.00
371.25	0.00
371.45	0.00
371.65	14.04
371.84	9.36
372.04	0.00
372.24	0.00
372.44	0.00
372.63	70.22
372.83	0.00
373.03	53.83
373.22	79.58
373.42	84.26
373.62	30.43
373.81	98.30
374.01	18.72
374.21	0.00
374.40	0.00
374.60	23.41
374.79	23.41
374.99	98.30
375.19	11.70
375.38	0.00
375.58	0.00
375.78	72.56
375.97	30.43
376.17	91.28
376.37	84.26
376.56	16.38
376.76	84.26
376.95	0.00
377.15	95.96
377.35	11.70
377.54	0.00
377.74	21.06
377.93	0.00
378.13	0.00
378.33	25.75
378.52	86.60
378.72	14.04
378.91	60.85
379.11	0.00
379.31	0.00
379.50	72.56
379.70	4.68
379.89	0.00
380.09	0.00
380.28	28.09
380.48	37.45
380.68	0.00
380.87	14.04
381.07	51.49
381.26	4.68
381.46	14.04
381.65	0.00
381.85	11.70
382.04	0.00
382.24	39.79
382.43	0.00
382.63	0.00
382.83	49.15
383.02	14.04
383.22	14.04
383.41	0.00
383.61	0.00
383.80	60.85
384.00	16.38
384.19	35.11
384.39	0.00
384.58	18.72
384.78	70.22
384.97	0.00
385.17	0.00
385.36	30.43
385.56	23.41
385.75	0.00
385.95	35.11
386.14	0.00
386.34	11.70
386.53	0.00
386.72	0.00
386.92	0.00
387.11	0.00
387.31	79.58
387.50	39.79
387.70	67.88
387.89	0.00
388.09	39.79
388.28	16.38
388.48	51.49
388.67	95.96
388.86	0.00
389.06	16.38
389.25	30.43
389.45	0.00
389.64	65.54
389.84	0.00
390.03	11.70
390.22	4.68
390.42	46.81
390.61	91.28
390.81	7.02
391.00	37.45
391.19	21.06
391.39	28.09
391.58	0.00
391.78	0.00
391.97	67.88
392.16	112.35
392.36	79.58
392.55	46.81
392.75	44.47
392.94	112.35
393.13	42.13
393.33	46.81
393.52	35.11
393.71	32.77
393.91	16.38
394.10	74.90
394.29	37.45
394.49	0.00
394.68	0.00
394.88	4.68
395.07	28.09
395.26	53.83
395.46	25.75
395.65	7.02
395.84	23.41
396.04	16.38
396.23	30.43
396.42	25.75
396.62	37.45
396.81	2.34
397.00	0.00
397.19	0.00
397.39	16.38
397.58	88.94
397.77	53.83
397.97	39.79
398.16	0.00
398.35	0.00
398.55	0.00
398.74	0.00
398.93	74.90
399.12	0.00
399.32	0.00
399.51	18.72
399.70	25.75
399.90	56.17
400.09	56.17
400.28	7.02
400.47	21.06
400.67	60.85
400.86	60.85
401.05	72.56
401.24	0.00
401.44	11.70
401.63	84.26
401.82	21.06
402.01	23.41
402.21	9.36
402.40	23.41
402.59	39.79
402.78	0.00
402.97	98.30
403.17	37.45
403.36	70.22
403.55	0.00
403.74	0.00
403.93	0.00
404.13	25.75
404.32	16.38
404.51	28.09
404.70	9.36
404.89	74.90
405.09	28.09
405.28	74.90
405.47	23.41
405.66	39.79
405.85	11.70
406.05	28.09
406.24	0.00
406.43	44.47
406.62	93.62
406.81	35.11
407.00	14.04
407.20	42.13
407.39	65.54
407.58	67.88
407.77	60.85
407.96	0.00
408.15	25.75
408.34	56.17
408.54	0.00
408.73	11.70
408.92	46.81
409.11	98.30
409.30	16.38
409.49	14.04
409.68	91.28
409.87	70.22
410.07	28.09
410.26	11.70
410.45	37.45
410.64	67.88
410.83	77.24
411.02	18.72
411.21	37.45
411.40	53.83
411.59	0.00
411.78	102.98
411.98	0.00
412.17	42.13
412.36	112.35
412.55	25.75
412.74	11.70
412.93	18.72
413.12	0.00
413.31	7.02
413.50	23.41
413.69	107.66
413.88	63.19
414.07	35.11
414.26	46.81
414.45	0.00
414.64	72.56
414.83	16.38
415.02	67.88
415.22	46.81
415.41	0.00
415.60	9.36
415.79	9.36
415.98	0.00
416.17	0.00
416.36	16.38
416.55	42.13
416.74	0.00
416.93	70.22
417.12	0.00
417.31	74.90
417.50	0.00
417.69	46.81
417.88	107.66
418.07	0.00
418.26	37.45
418.45	98.30
418.64	70.22
418.83	16.38
419.02	84.26
419.21	58.51
419.39	39.79
419.58	58.51
419.77	9.36
419.96	2.34
420.15	2.34
420.34	0.00
420.53	28.09
420.72	49.15
420.91	46.81
421.10	30.43
421.29	0.00
421.48	37.45
421.67	16.38
421.86	67.88
422.05	131.07
422.24	11.70
422.43	42.13
422.61	49.15
422.80	28.09
422.99	0.00
423.18	21.06
423.37	77.24
423.56	0.00
423.75	28.09
423.94	18.72
424.13	7.02
424.32	35.11
424.50	0.00
424.69	39.79
424.88	0.00
425.07	0.00
425.26	0.00
425.45	53.83
425.64	65.54
425.83	0.00
426.01	0.00
426.20	0.00
426.39	9.36
426.58	58.51
426.77	46.81
426.96	58.51
427.15	0.00
427.33	0.00
427.52	58.51
427.71	23.41
427.90	86.60
428.09	0.00
428.28	0.00
428.46	51.49
428.65	72.56
428.84	56.17
429.03	16.38
429.22	51.49
429.40	37.45
429.59	126.39
429.78	0.00
429.97	30.43
430.16	0.00
430.34	102.98
430.53	65.54
430.72	84.26
430.91	53.83
431.10	0.00
431.28	0.00
431.47	46.81
431.66	0.00
431.85	21.06
432.03	44.47
432.22	0.00
432.41	74.90
432.60	32.77
432.79	46.81
432.97	60.85
433.16	37.45
433.35	56.17
433.54	0.00
433.72	39.79
433.91	0.00
434.10	32.77
434.28	56.17
434.47	65.54
434.66	0.00
434.85	42.13
435.03	14.04
435.22	0.00
435.41	67.88
435.59	32.77
435.78	9.36
435.97	14.04
436.16	32.77
436.34	0.00
436.53	70.22
436.72	56.17
436.90	30.43
437.09	53.83
437.28	51.49
437.46	14.04
437.65	4.68
437.84	25.75
438.02	51.49
438.21	23.41
438.40	35.11
438.58	0.00
438.77	4.68
438.96	0.00
439.14	95.96
439.33	58.51
439.52	0.00
439.70	9.36
439.89	0.00
440.08	2.34
440.26	51.49
440.45	121.71
440.63	0.00
440.82	35.11
441.01	0.00
441.19	25.75
441.38	11.70
441.57	23.41
441.75	56.17
441.94	16.38
442.12	0.00
442.31	0.00
442.50	7.02
442.68	16.38
442.87	93.62
443.05	51.49
443.24	58.51
443.43	51.49
443.61	11.70
443.80	53.83
443.98	0.00
444.17	0.00
444.35	37.45
444.54	0.00
444.73	0.00
444.91	0.00
445.10	35.11
445.28	16.38
445.47	0.00
445.65	0.00
445.84	0.00
446.02	2.34
446.21	0.00
446.39	9.36
446.58	14.04
446.77	70.22
446.95	16.38
447.14	16.38
447.32	56.17
447.51	9.36
447.69	0.00
447.88	65.54
448.06	58.51
448.25	88.94
448.43	0.00
448.62	56.17
448.80	16.38
448.99	56.17
449.17	58.51
449.36	39.79
449.54	0.00
449.73	67.88
449.91	46.81
450.10	0.00
450.28	51.49
450.46	14.04
450.65	0.00
450.83	154.48
451.02	30.43
451.20	67.88
451.39	44.47
451.57	32.77
451.76	35.11
451.94	0.00
452.13	60.85
452.31	74.90
452.49	65.54
452.68	51.49
452.86	86.60
453.05	46.81
453.23	0.00
453.42	77.24
453.60	112.35
453.78	35.11
453.97	0.00
454.15	84.26
454.34	0.00
454.52	65.54
454.70	28.09
454.89	11.70
455.07	46.81
455.26	9.36
455.44	0.00
455.62	0.00
455.81	154.48
455.99	81.92
456.17	4.68
456.36	0.00
456.54	18.72
456.73	21.06
456.91	0.00
457.09	0.00
457.28	23.41
457.46	86.60
457.64	0.00
457.83	0.00
458.01	7.02
458.19	67.88
458.38	0.00
458.56	21.06
458.74	37.45
458.93	58.51
459.11	0.00
459.29	110.01
459.48	0.00
459.66	49.15
459.84	0.00
460.03	65.54
460.21	14.04
460.39	60.85
460.57	11.70
460.76	0.00
460.94	35.11
461.12	0.00
461.31	42.13
461.49	35.11
461.67	42.13
461.85	81.92
462.04	84.26
462.22	79.58
462.40	86.60
462.59	18.72
462.77	0.00
462.95	42.13
463.13	39.79
463.32	53.83
463.50	14.04
463.68	2.34
463.86	39.79
464.05	44.47
464.23	35.11
464.41	46.81
464.59	58.51
464.78	2.34
464.96	0.00
465.14	0.00
465.32	23.41
465.50	4.68
465.69	28.09
465.87	32.77
466.05	49.15
466.23	28.09
466.41	0.00
466.60	131.07
466.78	0.00
466.96	0.00
467.14	140.43
467.32	16.38
467.51	46.81
467.69	0.00
467.87	21.06
468.05	74.90
468.23	44.47
468.41	0.00
468.60	0.00
468.78	58.51
468.96	95.96
469.14	0.00
469.32	53.83
469.50	112.35
469.69	37.45
469.87	60.85
470.05	0.00
470.23	0.00
470.41	56.17
470.59	32.77
470.77	37.45
470.95	53.83
471.14	23.41
471.32	84.26
471.50	119.37
471.68	53.83
471.86	93.62
472.04	9.36
472.22	21.06
472.40	86.60
472.58	0.00
472.77	30.43
472.95	65.54
473.13	0.00
473.31	44.47
473.49	0.00
473.67	77.24
473.85	37.45
474.03	0.00
474.21	42.13
474.39	74.90
474.57	53.83
474.75	7.02
474.93	49.15
475.12	0.00
475.30	39.79
475.48	0.00
475.66	81.92
475.84	37.45
476.02	18.72
476.20	30.43
476.38	2.34
476.56	7.02
476.74	25.75
476.92	30.43
477.10	84.26
477.28	0.00
477.46	21.06
477.64	23.41
477.82	42.13
478.00	0.00
478.18	39.79
478.36	58.51
478.54	0.00
478.72	4.68
478.90	28.09
479.08	70.22
479.26	46.81
479.44	67.88
479.62	4.68
479.80	2.34
479.98	4.68
480.16	53.83
480.34	30.43
480.52	35.11
480.70	0.00
480.88	77.24
481.06	65.54
481.24	42.13
481.41	28.09
481.59	44.47
481.77	0.00
481.95	56.17
482.13	35.11
482.31	107.66
482.49	0.00
482.67	44.47
482.85	58.51
483.03	2.34
483.21	25.75
483.39	42.13
483.57	74.90
483.74	0.00
483.92	0.00
484.10	70.22
484.28	91.28
484.46	37.45
484.64	72.56
484.82	0.00
485.00	35.11
485.18	58.51
485.35	56.17
485.53	131.07
485.71	58.51
485.89	30.43
486.07	63.19
486.25	0.00
486.43	0.00
486.61	49.15
486.78	14.04
486.96	0.00
487.14	79.58
487.32	0.00
487.50	30.43
487.68	93.62
487.85	39.79
488.03	65.54
488.21	25.75
488.39	16.38
488.57	133.41
488.75	32.77
488.92	63.19
489.10	58.51
489.28	0.00
489.46	35.11
489.64	42.13
489.81	2.34
489.99	11.70
490.17	0.00
490.35	53.83
490.53	0.00
490.70	7.02
490.88	2.34
491.06	56.17
491.24	32.77
491.41	49.15
491.59	65.54
491.77	60.85
491.95	91.28
492.13	84.26
492.30	53.83
492.48	46.81
492.66	28.09
492.84	0.00
493.01	65.54
493.19	65.54
493.37	11.70
493.54	60.85
493.72	2.34
493.90	4.68
494.08	39.79
494.25	70.22
494.43	63.19
494.61	9.36
494.79	0.00
494.96	30.43
495.14	56.17
495.32	56.17
495.49	2.34
495.67	51.49
495.85	0.00
496.02	35.11
496.20	37.45
496.38	102.98
496.55	23.41
496.73	42.13
496.91	91.28
497.09	70.22
497.26	56.17
497.44	9.36
497.62	0.00
497.79	72.56
497.97	107.66
498.14	133.41
498.32	0.00
498.50	0.00
498.67	79.58
498.85	79.58
499.03	60.85
499.20	56.17
499.38	126.39
499.56	88.94
499.73	95.96
499.91	51.49
500.08	119.37
500.26	9.36
500.44	30.43
500.61	18.72
500.79	84.26
500.97	105.32
501.14	28.09
501.32	84.26
501.49	11.70
501.67	53.83
501.84	30.43
502.02	0.00
502.20	30.43
502.37	79.58
502.55	30.43
502.72	84.26
502.90	91.28
503.07	39.79
503.25	23.41
503.43	14.04
503.60	67.88
503.78	16.38
503.95	53.83
504.13	30.43
504.30	39.79
504.48	95.96
504.65	72.56
504.83	105.32
505.01	25.75
505.18	67.88
505.36	84.26
505.53	72.56
505.71	58.51
505.88	46.81
506.06	72.56
506.23	21.06
506.41	0.00
506.58	30.43
506.76	25.75
506.93	86.60
507.11	0.00
507.28	4.68
507.46	28.09
507.63	74.90
507.81	0.00
507.98	46.81
508.16	72.56
508.33	51.49
508.50	28.09
508.68	37.45
508.85	67.88
509.03	39.79
509.20	30.43
509.38	124.05
509.55	65.54
509.73	28.09
509.90	28.09
510.08	0.00
510.25	0.00
510.42	16.38
510.60	67.88
510.77	0.00
510.95	46.81
511.12	65.54
511.30	49.15
511.47	23.41
511.64	86.60
511.82	14.04
511.99	44.47
512.17	98.30
512.34	51.49
512.51	2.34
512.69	98.30
512.86	25.75
513.04	0.00
513.21	100.64
513.38	46.81
513.56	51.49
513.73	4.68
513.90	65.54
514.08	21.06
514.25	25.75
514.43	58.51
514.60	0.00
514.77	0.00
514.95	7.02
515.12	0.00
515.29	11.70
515.47	49.15
515.64	51.49
515.81	0.00
515.99	0.00
516.16	51.49
516.33	9.36
516.51	63.19
516.68	9.36
516.85	21.06
517.03	0.00
517.20	42.13
517.37	46.81
517.54	0.00
517.72	9.36
517.89	4.68
518.06	37.45
518.24	0.00
518.41	21.06
518.58	21.06
518.75	67.88
518.93	18.72
519.10	91.28
519.27	131.07
519.45	32.77
519.62	86.60
519.79	65.54
519.96	63.19
520.14	65.54
520.31	35.11
520.48	58.51
520.65	63.19
520.83	74.90
521.00	0.00
521.17	100.64
521.34	77.24
521.52	117.03
521.69	119.37
521.86	2.34
522.03	105.32
522.20	42.13
522.38	51.49
522.55	37.45
522.72	0.00
522.89	46.81
523.07	21.06
523.24	7.02
523.41	0.00
523.58	0.00
523.75	46.81
523.92	23.41
524.10	44.47
524.27	32.77
524.44	21.06
524.61	63.19
524.78	37.45
524.96	95.96
525.13	44.47
525.30	67.88
525.47	0.00
525.64	70.22
525.81	16.38
525.98	70.22
526.16	0.00
526.33	0.00
526.50	0.00
526.67	23.41
526.84	67.88
527.01	60.85
527.18	91.28
527.36	58.51
527.53	25.75
527.70	86.60
527.87	42.13
528.04	51.49
528.21	23.41
528.38	51.49
528.55	112.35
528.72	23.41
528.89	23.41
529.07	42.13
529.24	25.75
529.41	0.00
529.58	51.49
529.75	32.77
529.92	63.19
530.09	63.19
530.26	88.94
530.43	35.11
530.60	14.04
530.77	0.00
530.94	60.85
531.11	65.54
531.28	16.38
531.46	46.81
531.63	7.02
531.80	0.00
531.97	2.34
532.14	65.54
532.31	86.60
532.48	0.00
532.65	60.85
532.82	70.22
532.99	16.38
533.16	51.49
533.33	21.06
533.50	86.60
533.67	121.71
533.84	65.54
534.01	25.75
534.18	56.17
534.35	131.07
534.52	84.26
534.69	72.56
534.86	44.47
535.03	37.45
535.20	35.11
535.37	11.70
535.54	51.49
535.71	63.19
535.88	138.09
536.05	100.64
536.22	93.62
536.38	7.02
536.55	0.00
536.72	51.49
536.89	32.77
537.06	74.90
537.23	28.09
537.40	9.36
537.57	0.00
537.74	11.70
537.91	110.01
538.08	88.94
538.25	60.85
538.42	11.70
538.59	25.75
538.75	98.30
538.92	30.43
539.09	42.13
539.26	46.81
539.43	119.37
539.60	110.01
539.77	205.97
539.94	194.26
540.11	156.82
540.28	86.60
540.44	105.32
540.61	30.43
540.78	67.88
540.95	28.09
541.12	11.70
541.29	84.26
541.46	7.02
541.62	30.43
541.79	2.34
541.96	39.79
542.13	35.11
542.30	93.62
542.47	0.00
542.63	77.24
542.80	21.06
542.97	65.54
543.14	32.77
543.31	14.04
543.48	32.77
543.64	25.75
543.81	0.00
543.98	84.26
544.15	0.00
544.32	56.17
544.48	72.56
544.65	63.19
544.82	60.85
544.99	35.11
545.16	39.79
545.32	100.64
545.49	4.68
545.66	114.69
545.83	0.00
546.00	49.15
546.16	2.34
546.33	46.81
546.50	58.51
546.67	65.54
546.83	0.00
547.00	7.02
547.17	11.70
547.34	0.00
547.50	2.34
547.67	0.00
547.84	37.45
548.00	14.04
548.17	0.00
548.34	37.45
548.51	65.54
548.67	112.35
548.84	0.00
549.01	18.72
549.18	56.17
549.34	37.45
549.51	14.04
549.68	70.22
549.84	42.13
550.01	67.88
550.18	65.54
550.34	7.02
550.51	65.54
550.68	25.75
550.84	46.81
551.01	4.68
551.18	74.90
551.34	46.81
551.51	4.68
551.68	0.00
551.84	2.34
552.01	72.56
552.18	7.02
552.34	44.47
552.51	35.11
552.68	28.09
552.84	2.34
553.01	56.17
553.18	74.90
553.34	35.11
553.51	0.00
553.67	28.09
553.84	0.00
554.01	60.85
554.17	70.22
554.34	0.00
554.51	14.04
554.67	0.00
554.84	11.70
555.00	35.11
555.17	44.47
555.33	53.83
555.50	51.49
555.67	28.09
555.83	0.00
556.00	37.45
556.16	21.06
556.33	46.81
556.50	14.04
556.66	32.77
556.83	60.85
556.99	67.88
557.16	42.13
557.32	0.00
557.49	53.83
557.65	100.64
557.82	67.88
557.98	110.01
558.15	0.00
558.32	37.45
558.48	51.49
558.65	42.13
558.81	67.88
558.98	67.88
559.14	0.00
559.31	79.58
559.47	11.70
559.64	4.68
559.80	11.70
559.97	2.34
560.13	9.36
560.30	77.24
560.46	74.90
560.63	56.17
560.79	37.45
560.96	30.43
561.12	79.58
561.29	56.17
561.45	7.02
561.61	67.88
561.78	60.85
561.94	35.11
562.11	37.45
562.27	65.54
562.44	42.13
562.60	44.47
562.77	35.11
562.93	72.56
563.10	63.19
563.26	58.51
563.42	37.45
563.59	28.09
563.75	95.96
563.92	28.09
564.08	23.41
564.24	58.51
564.41	32.77
564.57	126.39
564.74	51.49
564.90	49.15
565.07	98.30
565.23	119.37
565.39	72.56
565.56	37.45
565.72	35.11
565.88	39.79
566.05	72.56
566.21	63.19
566.38	0.00
566.54	9.36
566.70	51.49
566.87	30.43
567.03	107.66
567.19	53.83
567.36	0.00
567.52	0.00
567.68	67.88
567.85	9.36
568.01	42.13
568.17	60.85
568.34	86.60
568.50	2.34
568.66	28.09
568.83	100.64
568.99	11.70
569.15	46.81
569.32	86.60
569.48	37.45
569.64	23.41
569.81	25.75
569.97	0.00
570.13	14.04
570.30	16.38
570.46	28.09
570.62	21.06
570.78	14.04
570.95	42.13
571.11	77.24
571.27	30.43
571.43	0.00
571.60	0.00
571.76	58.51
571.92	84.26
572.09	72.56
572.25	11.70
572.41	28.09
572.57	0.00
572.74	110.01
572.90	14.04
573.06	86.60
573.22	119.37
573.38	25.75
573.55	56.17
573.71	56.17
573.87	63.19
574.03	44.47
574.20	23.41
574.36	11.70
574.52	21.06
574.68	117.03
574.84	77.24
575.01	58.51
575.17	91.28
575.33	32.77
575.49	77.24
575.65	100.64
575.82	9.36
575.98	44.47
576.14	145.11
576.30	177.88
576.46	133.41
576.62	84.26
576.79	105.32
576.95	77.24
577.11	11.70
577.27	44.47
577.43	67.88
577.59	88.94
577.75	18.72
577.92	0.00
578.08	102.98
578.24	37.45
578.40	93.62
578.56	42.13
578.72	35.11
578.88	72.56
579.04	91.28
579.21	37.45
579.37	65.54
579.53	30.43
579.69	88.94
579.85	32.77
580.01	51.49
580.17	9.36
580.33	46.81
580.49	93.62
580.65	14.04
580.82	98.30
580.98	84.26
581.14	74.90
581.30	65.54
581.46	21.06
581.62	16.38
581.78	63.19
581.94	124.05
582.10	86.60
582.26	91.28
582.42	166.18
582.58	0.00
582.74	77.24
582.90	4.68
583.06	0.00
583.22	77.24
583.38	117.03
583.54	145.11
583.70	126.39
583.86	60.85
584.02	77.24
584.18	196.60
584.34	138.09
584.50	559.39
584.66	3552.93
584.82	9174.90
584.98	13933.21
585.14	12652.94
585.30	7686.32
585.46	4496.17
585.62	2857.79
585.78	1364.53
585.94	589.82
586.10	259.80
586.26	173.20
586.42	126.39
586.58	121.71
586.74	30.43
586.90	124.05
587.06	65.54
587.22	110.01
587.38	81.92
587.54	124.05
587.70	545.34
587.86	903.45
588.02	1032.18
588.18	699.82
588.34	433.00
588.49	269.16
588.65	175.54
588.81	126.39
588.97	56.17
589.13	49.15
589.29	72.56
589.45	0.00
589.61	39.79
589.77	14.04
589.93	58.51
590.08	126.39
590.24	93.62
590.40	56.17
590.56	140.43
590.72	121.71
590.88	32.77
591.04	91.28
591.20	46.81
591.35	42.13
591.51	18.72
591.67	0.00
591.83	51.49
591.99	0.00
592.15	0.00
592.31	63.19
592.46	51.49
592.62	0.00
592.78	77.24
592.94	32.77
593.10	42.13
593.26	63.19
593.41	53.83
593.57	100.64
593.73	110.01
593.89	503.22
594.05	1184.31
594.20	1762.42
594.36	1732.00
594.52	1114.10
594.68	662.37
594.84	479.81
594.99	227.03
595.15	70.22
595.31	63.19
595.47	58.51
595.62	91.28
595.78	39.79
595.94	46.81
596.10	44.47
596.25	42.13
596.41	81.92
596.57	23.41
596.73	98.30
596.88	110.01
597.04	278.52
597.20	395.55
597.36	451.72
597.51	311.29
597.67	194.26
597.83	102.98
597.99	133.41
598.14	0.00
598.30	0.00
598.46	60.85
598.61	65.54
598.77	11.70
598.93	9.36
599.09	53.83
599.24	53.83
599.40	67.88
599.56	126.39
599.71	28.09
599.87	79.58
600.03	16.38
600.18	23.41
600.34	46.81
600.50	35.11
600.65	18.72
600.81	44.47
600.97	65.54
601.12	86.60
601.28	65.54
601.44	49.15
601.59	110.01
601.75	63.19
601.91	30.43
602.06	98.30
602.22	72.56
602.37	140.43
602.53	327.68
602.69	423.64
602.84	503.22
603.00	308.95
603.16	189.58
603.31	259.80
603.47	114.69
603.62	86.60
603.78	42.13
603.94	0.00
604.09	98.30
604.25	79.58
604.40	70.22
604.56	117.03
604.71	131.07
604.87	0.00
605.03	37.45
605.18	42.13
605.34	98.30
605.49	25.75
605.65	67.88
605.80	72.56
605.96	4.68
606.12	18.72
606.27	35.11
606.43	0.00
606.58	70.22
606.74	138.09
606.89	507.90
607.05	1081.33
607.20	1455.81
607.36	1348.15
607.51	875.36
607.67	545.34
607.82	451.72
607.98	194.26
608.13	84.26
608.29	67.88
608.44	18.72
608.60	100.64
608.75	63.19
608.91	163.84
609.06	828.55
609.22	1839.66
609.37	2642.46
609.53	2218.83
609.68	1570.50
609.84	1027.50
609.99	676.41
610.15	351.08
610.30	140.43
610.46	74.90
610.61	46.81
610.76	58.51
610.92	105.32
611.07	88.94
611.23	77.24
611.38	16.38
611.54	100.64
611.69	14.04
611.84	28.09
612.00	51.49
612.15	25.75
612.31	102.98
612.46	81.92
612.62	88.94
612.77	161.50
612.92	28.09
613.08	88.94
613.23	56.17
613.39	107.66
613.54	107.66
613.69	795.78
613.85	2223.51
614.00	3737.84
614.15	4252.75
614.31	2932.69
614.46	1926.26
614.62	1324.74
614.77	828.55
614.92	287.89
615.08	191.92
615.23	124.05
615.38	65.54
615.54	93.62
615.69	161.50
615.84	461.09
616.00	809.83
616.15	1114.10
616.30	912.81
616.46	589.82
616.61	435.34
616.76	393.21
616.92	149.79
617.07	32.77
617.22	74.90
617.37	56.17
617.53	60.85
617.68	30.43
617.83	37.45
617.99	88.94
618.14	30.43
618.29	39.79
618.45	70.22
618.60	32.77
618.75	0.00
618.90	56.17
619.06	77.24
619.21	28.09
619.36	28.09
619.51	53.83
619.67	74.90
619.82	86.60
619.97	0.00
620.12	79.58
620.28	105.32
620.43	46.81
620.58	14.04
620.73	51.49
620.89	21.06
621.04	86.60
621.19	236.39
621.34	409.59
621.49	662.37
621.65	594.50
621.80	479.81
621.95	212.99
622.10	182.56
622.25	88.94
622.41	86.60
622.56	70.22
622.71	84.26
622.86	91.28
623.01	77.24
623.16	88.94
623.32	105.32
623.47	21.06
623.62	28.09
623.77	56.17
623.92	35.11
624.07	67.88
624.23	0.00
624.38	63.19
624.53	32.77
624.68	0.00
624.83	67.88
624.98	0.00
625.13	44.47
625.29	56.17
625.44	53.83
625.59	0.00
625.74	16.38
625.89	119.37
626.04	461.09
626.19	1041.54
626.34	1837.32
626.49	2214.15
626.65	1636.03
626.80	1041.54
626.95	657.69
627.10	524.28
627.25	163.84
627.40	126.39
627.55	98.30
627.70	81.92
627.85	42.13
628.00	74.90
628.15	18.72
628.30	49.15
628.45	16.38
628.60	124.05
628.76	107.66
628.91	4.68
629.06	67.88
629.21	70.22
629.36	49.15
629.51	49.15
629.66	23.41
629.81	91.28
629.96	208.31
630.11	428.32
630.26	507.90
630.41	461.09
630.56	376.83
630.71	337.04
630.86	79.58
631.01	74.90
631.16	51.49
631.31	53.83
631.46	9.36
631.61	114.69
631.76	74.90
631.91	81.92
632.06	65.54
632.21	70.22
632.36	25.75
632.51	60.85
632.66	72.56
632.81	203.63
632.96	599.18
633.10	1135.16
633.25	1516.67
633.40	1207.72
633.55	856.64
633.70	599.18
633.85	393.21
634.00	243.42
634.15	79.58
634.30	58.51
634.45	112.35
634.60	65.54
634.75	42.13
634.90	37.45
635.05	9.36
635.19	35.11
635.34	14.04
635.49	30.43
635.64	42.13
635.79	14.04
635.94	7.02
636.09	0.00
636.24	0.00
636.39	37.45
636.53	107.66
636.68	53.83
636.83	56.17
636.98	51.49
637.13	0.00
637.28	46.81
637.43	58.51
637.57	135.75
637.72	573.43
637.87	1488.58
638.02	2434.16
638.17	2677.57
638.32	2076.06
638.46	1397.30
638.61	940.90
638.76	585.13
638.91	294.91
639.06	145.11
639.20	133.41
639.35	117.03
639.50	205.97
639.65	807.48
639.80	2256.28
639.94	3782.31
640.09	4203.60
640.24	3215.90
640.39	2172.02
640.54	1490.92
640.68	866.00
640.83	374.49
640.98	161.50
641.13	135.75
641.27	65.54
641.42	95.96
641.57	81.92
641.72	70.22
641.86	18.72
642.01	0.00
642.16	46.81
642.31	58.51
642.45	16.38
642.60	93.62
642.75	25.75
642.90	53.83
643.04	18.72
643.19	142.77
643.34	39.79
643.48	74.90
643.63	46.81
643.78	65.54
643.93	44.47
644.07	49.15
644.22	74.90
644.37	23.41
644.51	28.09
644.66	98.30
644.81	0.00
644.95	117.03
645.10	0.00
645.25	67.88
645.39	35.11
645.54	65.54
645.69	51.49
645.83	37.45
645.98	51.49
646.13	51.49
646.27	51.49
646.42	0.00
646.57	28.09
646.71	42.13
646.86	0.00
647.00	77.24
647.15	4.68
647.30	0.00
647.44	37.45
647.59	7.02
647.74	67.88
647.88	37.45
648.03	32.77
648.17	0.00
648.32	51.49
648.47	65.54
648.61	11.70
648.76	39.79
648.90	14.04
649.05	72.56
649.20	63.19
649.34	0.00
649.49	44.47
649.63	105.32
649.78	112.35
649.92	37.45
650.07	390.87
650.21	1006.43
650.36	1816.26
650.51	2214.15
650.65	1825.62
650.80	1336.45
650.94	849.61
651.09	550.03
651.23	311.29
651.38	191.92
651.52	65.54
651.67	110.01
651.81	21.06
651.96	42.13
652.10	79.58
652.25	77.24
652.39	100.64
652.54	37.45
652.68	128.73
652.83	348.74
652.97	730.25
653.12	807.48
653.26	781.74
653.41	510.24
653.55	348.74
653.70	126.39
653.84	177.88
653.99	14.04
654.13	7.02
654.27	84.26
654.42	23.41
654.56	65.54
654.71	0.00
654.85	0.00
655.00	49.15
655.14	95.96
655.29	53.83
655.43	44.47
655.57	4.68
655.72	53.83
655.86	56.17
656.01	28.09
656.15	56.17
656.30	28.09
656.44	58.51
656.58	46.81
656.73	60.85
656.87	30.43
657.01	0.00
657.16	70.22
657.30	53.83
657.45	0.00
657.59	42.13
657.73	49.15
657.88	0.00
658.02	9.36
658.16	21.06
658.31	93.62
658.45	25.75
658.60	0.00
658.74	0.00
658.88	86.60
659.03	0.00
659.17	105.32
659.31	142.77
659.46	463.43
659.60	819.19
659.74	1184.31
659.89	954.94
660.03	730.25
660.17	428.32
660.32	334.70
660.46	241.08
660.60	152.13
660.74	44.47
660.89	35.11
661.03	32.77
661.17	60.85
661.32	0.00
661.46	79.58
661.60	23.41
661.74	16.38
661.89	49.15
662.03	25.75
662.17	70.22
662.31	11.70
662.46	16.38
662.60	70.22
662.74	81.92
662.88	44.47
663.03	25.75
663.17	67.88
663.31	28.09
663.45	98.30
663.60	14.04
663.74	0.00
663.88	0.00
664.02	72.56
664.17	4.68
664.31	51.49
664.45	0.00
664.59	39.79
664.73	0.00
664.88	0.00
665.02	2.34
665.16	42.13
665.30	72.56
665.44	7.02
665.59	70.22
665.73	9.36
665.87	35.11
666.01	74.90
666.15	25.75
666.29	18.72
666.44	0.00
666.58	95.96
666.72	32.77
666.86	67.88
667.00	18.72
667.14	81.92
667.28	229.37
667.43	816.85
667.57	1542.41
667.71	1905.20
667.85	1657.10
667.99	1210.06
668.13	744.29
668.27	465.77
668.41	236.39
668.56	187.24
668.70	126.39
668.84	70.22
668.98	53.83
669.12	56.17
669.26	84.26
669.40	14.04
669.54	0.00
669.68	16.38
669.82	42.13
669.96	14.04
670.10	72.56
670.25	56.17
670.39	25.75
670.53	63.19
670.67	4.68
670.81	11.70
670.95	107.66
671.09	114.69
671.23	315.97
671.37	688.12
671.51	1022.81
671.65	1144.52
671.79	891.74
671.93	669.39
672.07	393.21
672.21	257.46
672.35	173.20
672.49	135.75
672.63	100.64
672.77	0.00
672.91	100.64
673.05	37.45
673.19	81.92
673.33	0.00
673.47	32.77
673.61	65.54
673.75	0.00
673.89	18.72
674.03	65.54
674.17	2.34
674.31	0.00
674.45	46.81
674.59	4.68
674.73	70.22
674.87	28.09
675.01	77.24
675.15	135.75
675.29	9.36
675.43	14.04
675.56	30.43
675.70	35.11
675.84	95.96
675.98	0.00
676.12	23.41
676.26	74.90
676.40	42.13
676.54	44.47
676.68	51.49
676.82	30.43
676.96	0.00
677.10	2.34
677.23	63.19
677.37	65.54
677.51	44.47
677.65	44.47
677.79	63.19
677.93	30.43
678.07	30.43
678.21	0.00
678.34	0.00
678.48	25.75
678.62	100.64
678.76	39.79
678.90	16.38
679.04	2.34
679.18	0.00
679.31	25.75
679.45	4.68
679.59	60.85
679.73	42.13
679.87	51.49
680.00	23.41
680.14	46.81
680.28	28.09
680.42	44.47
680.56	56.17
680.70	7.02
680.83	46.81
680.97	42.13
681.11	42.13
681.25	93.62
681.39	21.06
681.52	39.79
681.66	21.06
681.80	37.45
681.94	25.75
682.07	81.92
682.21	18.72
682.35	67.88
682.49	0.00
682.62	51.49
682.76	49.15
682.90	32.77
683.04	77.24
683.17	14.04
683.31	0.00
683.45	42.13
683.59	42.13
683.72	44.47
683.86	23.41
684.00	51.49
684.13	28.09
684.27	44.47
684.41	14.04
684.55	11.70
684.68	58.51
684.82	0.00
684.96	39.79
685.09	0.00
685.23	30.43
685.37	58.51
685.50	51.49
685.64	32.77
685.78	67.88
685.91	70.22
686.05	23.41
686.19	9.36
686.32	11.70
686.46	14.04
686.60	18.72
686.73	79.58
686.87	14.04
687.01	93.62
687.14	63.19
687.28	7.02
687.42	42.13
687.55	0.00
687.69	53.83
687.82	0.00
687.96	0.00
688.10	0.00
688.23	44.47
688.37	39.79
688.50	9.36
688.64	0.00
688.78	0.00
688.91	4.68
689.05	77.24
689.18	16.38
689.32	0.00
689.46	32.77
689.59	88.94
689.73	7.02
689.86	28.09
690.00	70.22
690.13	0.00
690.27	49.15
690.41	32.77
690.54	39.79
690.68	18.72
690.81	0.00
690.95	42.13
691.08	0.00
691.22	44.47
691.35	58.51
691.49	0.00
691.62	0.00
691.76	0.00
691.89	88.94
692.03	102.98
692.16	84.26
692.30	11.70
692.43	177.88
692.57	334.70
692.70	578.11
692.84	894.08
692.97	866.00
693.11	578.11
693.24	454.06
693.38	351.08
693.51	203.63
693.65	201.29
693.78	53.83
693.92	30.43
694.05	35.11
694.19	16.38
694.32	32.77
694.45	93.62
694.59	0.00
694.72	2.34
694.86	32.77
694.99	35.11
695.13	23.41
695.26	35.11
695.39	9.36
695.53	28.09
695.66	44.47
695.80	98.30
695.93	25.75
696.07	39.79
696.20	18.72
696.33	28.09
696.47	105.32
696.60	133.41
696.73	119.37
696.87	32.77
697.00	0.00
697.14	49.15
697.27	0.00
697.40	98.30
697.54	28.09
697.67	9.36
697.80	11.70
697.94	32.77
698.07	39.79
698.21	53.83
698.34	0.00
698.47	18.72
698.61	25.75
698.74	0.00
698.87	0.00
699.01	4.68
699.14	70.22
699.27	65.54
699.40	9.36
699.54	32.77
699.67	16.38
699.80	49.15
699.94	2.34
700.07	58.51
700.20	0.00
700.34	88.94
700.47	0.00
700.60	44.47
700.73	84.26
700.87	46.81
701.00	0.00
701.13	58.51
701.26	21.06
701.40	4.68
701.53	72.56
701.66	0.00
701.79	25.75
701.93	25.75
702.06	25.75
702.19	14.04
702.32	0.00
702.46	156.82
702.59	114.69
702.72	142.77
702.85	540.66
702.99	966.64
703.12	1521.35
703.25	1673.48
703.38	1413.68
703.51	1158.57
703.65	896.43
703.78	610.88
703.91	339.38
704.04	290.23
704.17	180.22
704.31	98.30
704.44	65.54
704.57	121.71
704.70	46.81
704.83	67.88
704.96	25.75
705.10	30.43
705.23	42.13
>>>>>End Processed Spectral Data<<<<<
