SpectraSuite Data File
++++++++++++++++++++++++++++++++++++
Date: Fri Oct 04 12:13:37 GMT-05:00 2013
User: price-jones
Dark Spectrum Present: No
Reference Spectrum Present: No
Number of Sampled Component Spectra: 1
Spectrometers: USB2+H05261
Integration Time (usec): 10000 (USB2+H05261)
Spectra Averaged: 1 (USB2+H05261)
Boxcar Smoothing: 0 (USB2+H05261)
Correct for Electrical Dark: No (USB2+H05261)
Strobe/Lamp Enabled: No (USB2+H05261)
Correct for Detector Non-linearity: No (USB2+H05261)
Correct for Stray Light: No (USB2+H05261)
Number of Pixels in Processed Spectrum: 2048
>>>>>Begin Processed Spectral Data<<<<<
365.73	0.00
365.92	0.00
366.12	0.00
366.32	0.00
366.52	0.00
366.72	0.00
366.91	0.00
367.11	0.00
367.31	0.00
367.51	0.00
367.70	0.00
367.90	0.00
368.10	0.00
368.30	0.00
368.49	0.00
368.69	0.00
368.89	0.00
369.09	0.00
369.28	0.00
369.48	0.00
369.68	0.00
369.87	0.00
370.07	0.00
370.27	0.00
370.47	0.00
370.66	0.00
370.86	0.00
371.06	0.00
371.25	0.00
371.45	0.00
371.65	0.00
371.84	0.00
372.04	0.00
372.24	28.09
372.44	49.15
372.63	4.68
372.83	9.36
373.03	23.41
373.22	35.11
373.42	0.00
373.62	77.24
373.81	0.00
374.01	44.47
374.21	70.22
374.40	30.43
374.60	79.58
374.79	35.11
374.99	44.47
375.19	0.00
375.38	51.49
375.58	42.13
375.78	0.00
375.97	42.13
376.17	4.68
376.37	9.36
376.56	0.00
376.76	16.38
376.95	49.15
377.15	0.00
377.35	46.81
377.54	0.00
377.74	0.00
377.93	28.09
378.13	63.19
378.33	53.83
378.52	23.41
378.72	39.79
378.91	2.34
379.11	0.00
379.31	21.06
379.50	7.02
379.70	37.45
379.89	0.00
380.09	30.43
380.28	46.81
380.48	14.04
380.68	65.54
380.87	2.34
381.07	58.51
381.26	0.00
381.46	79.58
381.65	65.54
381.85	4.68
382.04	16.38
382.24	42.13
382.43	0.00
382.63	102.98
382.83	53.83
383.02	0.00
383.22	2.34
383.41	0.00
383.61	35.11
383.80	2.34
384.00	0.00
384.19	23.41
384.39	25.75
384.58	0.00
384.78	46.81
384.97	0.00
385.17	35.11
385.36	60.85
385.56	60.85
385.75	0.00
385.95	32.77
386.14	32.77
386.34	28.09
386.53	0.00
386.72	32.77
386.92	51.49
387.11	21.06
387.31	21.06
387.50	0.00
387.70	0.00
387.89	46.81
388.09	0.00
388.28	2.34
388.48	42.13
388.67	16.38
388.86	0.00
389.06	25.75
389.25	0.00
389.45	23.41
389.64	63.19
389.84	30.43
390.03	18.72
390.22	0.00
390.42	4.68
390.61	0.00
390.81	21.06
391.00	44.47
391.19	16.38
391.39	35.11
391.58	28.09
391.78	4.68
391.97	16.38
392.16	35.11
392.36	42.13
392.55	0.00
392.75	11.70
392.94	39.79
393.13	18.72
393.33	46.81
393.52	56.17
393.71	28.09
393.91	81.92
394.10	0.00
394.29	0.00
394.49	0.00
394.68	0.00
394.88	70.22
395.07	0.00
395.26	53.83
395.46	44.47
395.65	70.22
395.84	28.09
396.04	16.38
396.23	84.26
396.42	0.00
396.62	126.39
396.81	0.00
397.00	37.45
397.19	91.28
397.39	74.90
397.58	0.00
397.77	65.54
397.97	53.83
398.16	11.70
398.35	0.00
398.55	42.13
398.74	21.06
398.93	35.11
399.12	44.47
399.32	95.96
399.51	16.38
399.70	77.24
399.90	0.00
400.09	9.36
400.28	0.00
400.47	0.00
400.67	0.00
400.86	42.13
401.05	37.45
401.24	81.92
401.44	58.51
401.63	37.45
401.82	0.00
402.01	0.00
402.21	0.00
402.40	4.68
402.59	0.00
402.78	23.41
402.97	138.09
403.17	25.75
403.36	35.11
403.55	0.00
403.74	72.56
403.93	67.88
404.13	0.00
404.32	0.00
404.51	46.81
404.70	21.06
404.89	0.00
405.09	67.88
405.28	25.75
405.47	7.02
405.66	0.00
405.85	37.45
406.05	7.02
406.24	0.00
406.43	53.83
406.62	25.75
406.81	42.13
407.00	51.49
407.20	23.41
407.39	21.06
407.58	0.00
407.77	98.30
407.96	53.83
408.15	67.88
408.34	51.49
408.54	58.51
408.73	72.56
408.92	77.24
409.11	39.79
409.30	53.83
409.49	28.09
409.68	0.00
409.87	9.36
410.07	72.56
410.26	23.41
410.45	0.00
410.64	30.43
410.83	0.00
411.02	60.85
411.21	46.81
411.40	56.17
411.59	53.83
411.78	56.17
411.98	107.66
412.17	0.00
412.36	86.60
412.55	28.09
412.74	51.49
412.93	9.36
413.12	28.09
413.31	0.00
413.50	60.85
413.69	14.04
413.88	93.62
414.07	25.75
414.26	81.92
414.45	63.19
414.64	14.04
414.83	23.41
415.02	56.17
415.22	70.22
415.41	23.41
415.60	58.51
415.79	14.04
415.98	86.60
416.17	67.88
416.36	0.00
416.55	56.17
416.74	70.22
416.93	53.83
417.12	86.60
417.31	0.00
417.50	46.81
417.69	102.98
417.88	60.85
418.07	14.04
418.26	63.19
418.45	81.92
418.64	84.26
418.83	100.64
419.02	63.19
419.21	65.54
419.39	32.77
419.58	0.00
419.77	0.00
419.96	37.45
420.15	112.35
420.34	28.09
420.53	37.45
420.72	37.45
420.91	70.22
421.10	0.00
421.29	35.11
421.48	11.70
421.67	42.13
421.86	84.26
422.05	79.58
422.24	95.96
422.43	51.49
422.61	0.00
422.80	60.85
422.99	37.45
423.18	44.47
423.37	37.45
423.56	42.13
423.75	21.06
423.94	100.64
424.13	7.02
424.32	25.75
424.50	23.41
424.69	0.00
424.88	7.02
425.07	35.11
425.26	53.83
425.45	79.58
425.64	37.45
425.83	126.39
426.01	65.54
426.20	63.19
426.39	105.32
426.58	14.04
426.77	93.62
426.96	77.24
427.15	0.00
427.33	56.17
427.52	91.28
427.71	2.34
427.90	86.60
428.09	0.00
428.28	0.00
428.46	53.83
428.65	49.15
428.84	77.24
429.03	0.00
429.22	28.09
429.40	53.83
429.59	30.43
429.78	56.17
429.97	60.85
430.16	16.38
430.34	2.34
430.53	65.54
430.72	0.00
430.91	44.47
431.10	53.83
431.28	0.00
431.47	0.00
431.66	49.15
431.85	95.96
432.03	42.13
432.22	81.92
432.41	53.83
432.60	23.41
432.79	28.09
432.97	25.75
433.16	42.13
433.35	91.28
433.54	16.38
433.72	42.13
433.91	51.49
434.10	37.45
434.28	37.45
434.47	16.38
434.66	63.19
434.85	35.11
435.03	63.19
435.22	58.51
435.41	60.85
435.59	44.47
435.78	0.00
435.97	25.75
436.16	14.04
436.34	74.90
436.53	21.06
436.72	79.58
436.90	65.54
437.09	14.04
437.28	37.45
437.46	16.38
437.65	86.60
437.84	9.36
438.02	72.56
438.21	95.96
438.40	58.51
438.58	37.45
438.77	86.60
438.96	11.70
439.14	16.38
439.33	105.32
439.52	84.26
439.70	86.60
439.89	98.30
440.08	65.54
440.26	95.96
440.45	0.00
440.63	39.79
440.82	53.83
441.01	51.49
441.19	65.54
441.38	23.41
441.57	9.36
441.75	37.45
441.94	56.17
442.12	70.22
442.31	49.15
442.50	25.75
442.68	84.26
442.87	56.17
443.05	91.28
443.24	18.72
443.43	11.70
443.61	39.79
443.80	56.17
443.98	74.90
444.17	37.45
444.35	102.98
444.54	9.36
444.73	46.81
444.91	53.83
445.10	9.36
445.28	21.06
445.47	28.09
445.65	0.00
445.84	86.60
446.02	63.19
446.21	67.88
446.39	84.26
446.58	0.00
446.77	65.54
446.95	28.09
447.14	18.72
447.32	2.34
447.51	28.09
447.69	14.04
447.88	51.49
448.06	49.15
448.25	18.72
448.43	25.75
448.62	67.88
448.80	77.24
448.99	39.79
449.17	9.36
449.36	25.75
449.54	114.69
449.73	30.43
449.91	56.17
450.10	32.77
450.28	49.15
450.46	84.26
450.65	9.36
450.83	44.47
451.02	14.04
451.20	63.19
451.39	23.41
451.57	84.26
451.76	72.56
451.94	49.15
452.13	63.19
452.31	39.79
452.49	7.02
452.68	49.15
452.86	0.00
453.05	121.71
453.23	44.47
453.42	67.88
453.60	60.85
453.78	145.11
453.97	42.13
454.15	60.85
454.34	60.85
454.52	60.85
454.70	81.92
454.89	39.79
455.07	93.62
455.26	30.43
455.44	170.86
455.62	156.82
455.81	91.28
455.99	23.41
456.17	86.60
456.36	67.88
456.54	53.83
456.73	91.28
456.91	30.43
457.09	88.94
457.28	0.00
457.46	46.81
457.64	16.38
457.83	9.36
458.01	60.85
458.19	30.43
458.38	49.15
458.56	58.51
458.74	107.66
458.93	95.96
459.11	51.49
459.29	18.72
459.48	65.54
459.66	49.15
459.84	56.17
460.03	86.60
460.21	112.35
460.39	93.62
460.57	7.02
460.76	114.69
460.94	30.43
461.12	21.06
461.31	70.22
461.49	58.51
461.67	51.49
461.85	49.15
462.04	84.26
462.22	126.39
462.40	110.01
462.59	131.07
462.77	37.45
462.95	30.43
463.13	35.11
463.32	102.98
463.50	53.83
463.68	60.85
463.86	117.03
464.05	112.35
464.23	112.35
464.41	98.30
464.59	37.45
464.78	2.34
464.96	0.00
465.14	16.38
465.32	58.51
465.50	21.06
465.69	0.00
465.87	60.85
466.05	49.15
466.23	67.88
466.41	44.47
466.60	4.68
466.78	84.26
466.96	100.64
467.14	11.70
467.32	49.15
467.51	65.54
467.69	56.17
467.87	35.11
468.05	44.47
468.23	18.72
468.41	88.94
468.60	60.85
468.78	28.09
468.96	58.51
469.14	67.88
469.32	72.56
469.50	46.81
469.69	46.81
469.87	56.17
470.05	86.60
470.23	25.75
470.41	0.00
470.59	0.00
470.77	56.17
470.95	16.38
471.14	79.58
471.32	100.64
471.50	74.90
471.68	88.94
471.86	28.09
472.04	28.09
472.22	46.81
472.40	0.00
472.58	23.41
472.77	39.79
472.95	37.45
473.13	84.26
473.31	60.85
473.49	32.77
473.67	173.20
473.85	138.09
474.03	49.15
474.21	63.19
474.39	0.00
474.57	128.73
474.75	110.01
474.93	112.35
475.12	72.56
475.30	46.81
475.48	110.01
475.66	70.22
475.84	37.45
476.02	65.54
476.20	86.60
476.38	70.22
476.56	0.00
476.74	18.72
476.92	67.88
477.10	84.26
477.28	72.56
477.46	46.81
477.64	110.01
477.82	81.92
478.00	53.83
478.18	70.22
478.36	28.09
478.54	98.30
478.72	46.81
478.90	67.88
479.08	53.83
479.26	84.26
479.44	119.37
479.62	23.41
479.80	56.17
479.98	0.00
480.16	70.22
480.34	107.66
480.52	124.05
480.70	14.04
480.88	70.22
481.06	30.43
481.24	72.56
481.41	124.05
481.59	53.83
481.77	102.98
481.95	135.75
482.13	100.64
482.31	60.85
482.49	84.26
482.67	53.83
482.85	56.17
483.03	44.47
483.21	147.45
483.39	154.48
483.57	102.98
483.74	74.90
483.92	138.09
484.10	105.32
484.28	105.32
484.46	65.54
484.64	56.17
484.82	42.13
485.00	58.51
485.18	67.88
485.35	110.01
485.53	46.81
485.71	107.66
485.89	74.90
486.07	0.00
486.25	105.32
486.43	88.94
486.61	56.17
486.78	70.22
486.96	0.00
487.14	44.47
487.32	9.36
487.50	60.85
487.68	65.54
487.85	49.15
488.03	37.45
488.21	166.18
488.39	46.81
488.57	100.64
488.75	107.66
488.92	135.75
489.10	86.60
489.28	2.34
489.46	63.19
489.64	65.54
489.81	86.60
489.99	135.75
490.17	81.92
490.35	95.96
490.53	11.70
490.70	117.03
490.88	60.85
491.06	51.49
491.24	112.35
491.41	70.22
491.59	30.43
491.77	105.32
491.95	140.43
492.13	32.77
492.30	65.54
492.48	32.77
492.66	60.85
492.84	14.04
493.01	93.62
493.19	107.66
493.37	86.60
493.54	147.45
493.72	0.00
493.90	65.54
494.08	77.24
494.25	56.17
494.43	0.00
494.61	110.01
494.79	18.72
494.96	88.94
495.14	74.90
495.32	16.38
495.49	65.54
495.67	18.72
495.85	126.39
496.02	44.47
496.20	81.92
496.38	95.96
496.55	93.62
496.73	49.15
496.91	88.94
497.09	74.90
497.26	93.62
497.44	131.07
497.62	65.54
497.79	70.22
497.97	88.94
498.14	93.62
498.32	102.98
498.50	65.54
498.67	77.24
498.85	110.01
499.03	74.90
499.20	28.09
499.38	84.26
499.56	138.09
499.73	60.85
499.91	35.11
500.08	105.32
500.26	135.75
500.44	126.39
500.61	110.01
500.79	70.22
500.97	84.26
501.14	128.73
501.32	67.88
501.49	56.17
501.67	74.90
501.84	53.83
502.02	42.13
502.20	28.09
502.37	102.98
502.55	0.00
502.72	51.49
502.90	81.92
503.07	79.58
503.25	74.90
503.43	49.15
503.60	126.39
503.78	107.66
503.95	0.00
504.13	16.38
504.30	102.98
504.48	18.72
504.65	56.17
504.83	133.41
505.01	98.30
505.18	86.60
505.36	46.81
505.53	37.45
505.71	102.98
505.88	131.07
506.06	63.19
506.23	114.69
506.41	128.73
506.58	53.83
506.76	77.24
506.93	79.58
507.11	126.39
507.28	70.22
507.46	56.17
507.63	121.71
507.81	100.64
507.98	67.88
508.16	37.45
508.33	112.35
508.50	72.56
508.68	84.26
508.85	16.38
509.03	49.15
509.20	81.92
509.38	102.98
509.55	105.32
509.73	119.37
509.90	100.64
510.08	67.88
510.25	79.58
510.42	35.11
510.60	117.03
510.77	131.07
510.95	79.58
511.12	102.98
511.30	53.83
511.47	0.00
511.64	114.69
511.82	28.09
511.99	114.69
512.17	21.06
512.34	105.32
512.51	0.00
512.69	74.90
512.86	46.81
513.04	77.24
513.21	105.32
513.38	37.45
513.56	91.28
513.73	124.05
513.90	98.30
514.08	126.39
514.25	91.28
514.43	16.38
514.60	63.19
514.77	95.96
514.95	63.19
515.12	65.54
515.29	51.49
515.47	58.51
515.64	67.88
515.81	114.69
515.99	138.09
516.16	58.51
516.33	53.83
516.51	49.15
516.68	77.24
516.85	110.01
517.03	102.98
517.20	70.22
517.37	67.88
517.54	110.01
517.72	102.98
517.89	11.70
518.06	49.15
518.24	98.30
518.41	86.60
518.58	72.56
518.75	72.56
518.93	112.35
519.10	107.66
519.27	65.54
519.45	91.28
519.62	95.96
519.79	112.35
519.96	107.66
520.14	121.71
520.31	67.88
520.48	16.38
520.65	112.35
520.83	100.64
521.00	95.96
521.17	67.88
521.34	21.06
521.52	65.54
521.69	107.66
521.86	79.58
522.03	74.90
522.20	121.71
522.38	105.32
522.55	100.64
522.72	107.66
522.89	112.35
523.07	37.45
523.24	84.26
523.41	93.62
523.58	79.58
523.75	84.26
523.92	102.98
524.10	88.94
524.27	14.04
524.44	91.28
524.61	112.35
524.78	16.38
524.96	46.81
525.13	51.49
525.30	79.58
525.47	81.92
525.64	91.28
525.81	105.32
525.98	53.83
526.16	67.88
526.33	88.94
526.50	25.75
526.67	156.82
526.84	49.15
527.01	70.22
527.18	28.09
527.36	28.09
527.53	88.94
527.70	140.43
527.87	77.24
528.04	39.79
528.21	67.88
528.38	147.45
528.55	110.01
528.72	131.07
528.89	88.94
529.07	95.96
529.24	119.37
529.41	91.28
529.58	95.96
529.75	63.19
529.92	154.48
530.09	110.01
530.26	112.35
530.43	11.70
530.60	77.24
530.77	77.24
530.94	35.11
531.11	81.92
531.28	11.70
531.46	72.56
531.63	84.26
531.80	105.32
531.97	77.24
532.14	121.71
532.31	126.39
532.48	72.56
532.65	53.83
532.82	135.75
532.99	84.26
533.16	95.96
533.33	81.92
533.50	67.88
533.67	72.56
533.84	93.62
534.01	93.62
534.18	70.22
534.35	98.30
534.52	95.96
534.69	124.05
534.86	72.56
535.03	117.03
535.20	86.60
535.37	112.35
535.54	112.35
535.71	147.45
535.88	102.98
536.05	98.30
536.22	100.64
536.38	88.94
536.55	105.32
536.72	105.32
536.89	121.71
537.06	131.07
537.23	128.73
537.40	114.69
537.57	88.94
537.74	102.98
537.91	95.96
538.08	110.01
538.25	145.11
538.42	51.49
538.59	18.72
538.75	107.66
538.92	28.09
539.09	74.90
539.26	46.81
539.43	51.49
539.60	84.26
539.77	105.32
539.94	0.00
540.11	126.39
540.28	121.71
540.44	121.71
540.61	74.90
540.78	35.11
540.95	119.37
541.12	126.39
541.29	44.47
541.46	131.07
541.62	86.60
541.79	28.09
541.96	93.62
542.13	95.96
542.30	93.62
542.47	72.56
542.63	25.75
542.80	37.45
542.97	81.92
543.14	86.60
543.31	63.19
543.48	67.88
543.64	58.51
543.81	100.64
543.98	72.56
544.15	72.56
544.32	112.35
544.48	126.39
544.65	9.36
544.82	53.83
544.99	110.01
545.16	7.02
545.32	51.49
545.49	77.24
545.66	138.09
545.83	133.41
546.00	91.28
546.16	86.60
546.33	56.17
546.50	121.71
546.67	112.35
546.83	72.56
547.00	44.47
547.17	63.19
547.34	88.94
547.50	86.60
547.67	98.30
547.84	102.98
548.00	91.28
548.17	117.03
548.34	112.35
548.51	102.98
548.67	46.81
548.84	91.28
549.01	98.30
549.18	102.98
549.34	110.01
549.51	95.96
549.68	25.75
549.84	95.96
550.01	114.69
550.18	147.45
550.34	124.05
550.51	60.85
550.68	51.49
550.84	93.62
551.01	86.60
551.18	7.02
551.34	107.66
551.51	86.60
551.68	70.22
551.84	37.45
552.01	84.26
552.18	135.75
552.34	74.90
552.51	100.64
552.68	86.60
552.84	95.96
553.01	107.66
553.18	60.85
553.34	100.64
553.51	39.79
553.67	95.96
553.84	53.83
554.01	105.32
554.17	117.03
554.34	110.01
554.51	93.62
554.67	84.26
554.84	37.45
555.00	102.98
555.17	102.98
555.33	121.71
555.50	51.49
555.67	49.15
555.83	117.03
556.00	117.03
556.16	126.39
556.33	67.88
556.50	117.03
556.66	114.69
556.83	114.69
556.99	100.64
557.16	72.56
557.32	53.83
557.49	91.28
557.65	138.09
557.82	147.45
557.98	133.41
558.15	156.82
558.32	63.19
558.48	30.43
558.65	131.07
558.81	65.54
558.98	100.64
559.14	60.85
559.31	131.07
559.47	126.39
559.64	145.11
559.80	46.81
559.97	117.03
560.13	9.36
560.30	98.30
560.46	86.60
560.63	88.94
560.79	77.24
560.96	49.15
561.12	65.54
561.29	131.07
561.45	107.66
561.61	98.30
561.78	161.50
561.94	42.13
562.11	0.00
562.27	67.88
562.44	91.28
562.60	95.96
562.77	53.83
562.93	119.37
563.10	39.79
563.26	91.28
563.42	86.60
563.59	72.56
563.75	128.73
563.92	65.54
564.08	60.85
564.24	98.30
564.41	67.88
564.57	25.75
564.74	58.51
564.90	145.11
565.07	95.96
565.23	65.54
565.39	86.60
565.56	37.45
565.72	88.94
565.88	86.60
566.05	28.09
566.21	74.90
566.38	74.90
566.54	74.90
566.70	88.94
566.87	7.02
567.03	98.30
567.19	37.45
567.36	170.86
567.52	86.60
567.68	46.81
567.85	32.77
568.01	110.01
568.17	70.22
568.34	51.49
568.50	60.85
568.66	88.94
568.83	49.15
568.99	37.45
569.15	74.90
569.32	102.98
569.48	100.64
569.64	105.32
569.81	72.56
569.97	30.43
570.13	67.88
570.30	91.28
570.46	88.94
570.62	23.41
570.78	30.43
570.95	60.85
571.11	161.50
571.27	60.85
571.43	91.28
571.60	60.85
571.76	84.26
571.92	84.26
572.09	9.36
572.25	112.35
572.41	0.00
572.57	88.94
572.74	124.05
572.90	51.49
573.06	77.24
573.22	42.13
573.38	102.98
573.55	60.85
573.71	65.54
573.87	93.62
574.03	95.96
574.20	95.96
574.36	58.51
574.52	56.17
574.68	84.26
574.84	72.56
575.01	0.00
575.17	58.51
575.33	28.09
575.49	93.62
575.65	105.32
575.82	84.26
575.98	117.03
576.14	81.92
576.30	0.00
576.46	49.15
576.62	51.49
576.79	81.92
576.95	65.54
577.11	74.90
577.27	98.30
577.43	112.35
577.59	70.22
577.75	107.66
577.92	91.28
578.08	0.00
578.24	70.22
578.40	11.70
578.56	84.26
578.72	81.92
578.88	70.22
579.04	81.92
579.21	42.13
579.37	42.13
579.53	100.64
579.69	23.41
579.85	124.05
580.01	107.66
580.17	72.56
580.33	91.28
580.49	60.85
580.65	107.66
580.82	60.85
580.98	112.35
581.14	35.11
581.30	44.47
581.46	42.13
581.62	131.07
581.78	51.49
581.94	51.49
582.10	95.96
582.26	138.09
582.42	102.98
582.58	70.22
582.74	51.49
582.90	4.68
583.06	39.79
583.22	142.77
583.38	46.81
583.54	110.01
583.70	79.58
583.86	112.35
584.02	100.64
584.18	18.72
584.34	23.41
584.50	88.94
584.66	105.32
584.82	81.92
584.98	63.19
585.14	58.51
585.30	63.19
585.46	81.92
585.62	58.51
585.78	126.39
585.94	65.54
586.10	81.92
586.26	72.56
586.42	70.22
586.58	93.62
586.74	60.85
586.90	72.56
587.06	91.28
587.22	142.77
587.38	0.00
587.54	60.85
587.70	74.90
587.86	133.41
588.02	114.69
588.18	32.77
588.34	11.70
588.49	46.81
588.65	30.43
588.81	16.38
588.97	49.15
589.13	81.92
589.29	56.17
589.45	74.90
589.61	60.85
589.77	77.24
589.93	114.69
590.08	18.72
590.24	135.75
590.40	168.52
590.56	79.58
590.72	77.24
590.88	0.00
591.04	51.49
591.20	74.90
591.35	79.58
591.51	70.22
591.67	88.94
591.83	28.09
591.99	138.09
592.15	112.35
592.31	70.22
592.46	70.22
592.62	93.62
592.78	79.58
592.94	117.03
593.10	102.98
593.26	53.83
593.41	32.77
593.57	107.66
593.73	67.88
593.89	121.71
594.05	49.15
594.20	53.83
594.36	86.60
594.52	53.83
594.68	51.49
594.84	72.56
594.99	128.73
595.15	60.85
595.31	98.30
595.47	88.94
595.62	39.79
595.78	81.92
595.94	53.83
596.10	79.58
596.25	39.79
596.41	23.41
596.57	56.17
596.73	51.49
596.88	49.15
597.04	81.92
597.20	0.00
597.36	65.54
597.51	65.54
597.67	16.38
597.83	135.75
597.99	42.13
598.14	28.09
598.30	53.83
598.46	163.84
598.61	4.68
598.77	0.00
598.93	74.90
599.09	28.09
599.24	91.28
599.40	131.07
599.56	95.96
599.71	124.05
599.87	91.28
600.03	60.85
600.18	77.24
600.34	67.88
600.50	72.56
600.65	145.11
600.81	121.71
600.97	67.88
601.12	79.58
601.28	51.49
601.44	49.15
601.59	91.28
601.75	4.68
601.91	14.04
602.06	86.60
602.22	37.45
602.37	42.13
602.53	79.58
602.69	0.00
602.84	86.60
603.00	58.51
603.16	0.00
603.31	44.47
603.47	74.90
603.62	25.75
603.78	67.88
603.94	88.94
604.09	145.11
604.25	21.06
604.40	58.51
604.56	60.85
604.71	74.90
604.87	56.17
605.03	84.26
605.18	39.79
605.34	98.30
605.49	44.47
605.65	91.28
605.80	114.69
605.96	74.90
606.12	51.49
606.27	110.01
606.43	70.22
606.58	107.66
606.74	49.15
606.89	79.58
607.05	84.26
607.20	63.19
607.36	88.94
607.51	88.94
607.67	49.15
607.82	112.35
607.98	79.58
608.13	67.88
608.29	0.00
608.44	72.56
608.60	112.35
608.75	79.58
608.91	74.90
609.06	72.56
609.22	28.09
609.37	79.58
609.53	58.51
609.68	102.98
609.84	93.62
609.99	95.96
610.15	91.28
610.30	74.90
610.46	0.00
610.61	51.49
610.76	98.30
610.92	65.54
611.07	112.35
611.23	60.85
611.38	35.11
611.54	56.17
611.69	23.41
611.84	18.72
612.00	88.94
612.15	51.49
612.31	91.28
612.46	23.41
612.62	30.43
612.77	37.45
612.92	37.45
613.08	39.79
613.23	32.77
613.39	0.00
613.54	28.09
613.69	58.51
613.85	166.18
614.00	79.58
614.15	131.07
614.31	60.85
614.46	2.34
614.62	35.11
614.77	18.72
614.92	98.30
615.08	81.92
615.23	91.28
615.38	53.83
615.54	49.15
615.69	0.00
615.84	117.03
616.00	63.19
616.15	44.47
616.30	42.13
616.46	14.04
616.61	86.60
616.76	51.49
616.92	70.22
617.07	39.79
617.22	60.85
617.37	58.51
617.53	46.81
617.68	25.75
617.83	44.47
617.99	93.62
618.14	9.36
618.29	65.54
618.45	18.72
618.60	112.35
618.75	25.75
618.90	138.09
619.06	95.96
619.21	37.45
619.36	53.83
619.51	49.15
619.67	65.54
619.82	70.22
619.97	21.06
620.12	37.45
620.28	81.92
620.43	81.92
620.58	121.71
620.73	100.64
620.89	79.58
621.04	0.00
621.19	44.47
621.34	49.15
621.49	32.77
621.65	102.98
621.80	30.43
621.95	14.04
622.10	51.49
622.25	4.68
622.41	93.62
622.56	44.47
622.71	42.13
622.86	60.85
623.01	37.45
623.16	88.94
623.32	49.15
623.47	42.13
623.62	114.69
623.77	53.83
623.92	65.54
624.07	72.56
624.23	58.51
624.38	51.49
624.53	102.98
624.68	44.47
624.83	60.85
624.98	72.56
625.13	58.51
625.29	0.00
625.44	79.58
625.59	63.19
625.74	35.11
625.89	53.83
626.04	30.43
626.19	51.49
626.34	72.56
626.49	14.04
626.65	0.00
626.80	0.00
626.95	70.22
627.10	100.64
627.25	53.83
627.40	60.85
627.55	53.83
627.70	46.81
627.85	107.66
628.00	56.17
628.15	49.15
628.30	70.22
628.45	72.56
628.60	7.02
628.76	25.75
628.91	81.92
629.06	56.17
629.21	37.45
629.36	110.01
629.51	23.41
629.66	30.43
629.81	74.90
629.96	63.19
630.11	95.96
630.26	39.79
630.41	56.17
630.56	56.17
630.71	56.17
630.86	42.13
631.01	100.64
631.16	105.32
631.31	42.13
631.46	156.82
631.61	49.15
631.76	32.77
631.91	7.02
632.06	35.11
632.21	9.36
632.36	126.39
632.51	28.09
632.66	21.06
632.81	112.35
632.96	91.28
633.10	88.94
633.25	70.22
633.40	100.64
633.55	28.09
633.70	119.37
633.85	70.22
634.00	88.94
634.15	95.96
634.30	46.81
634.45	28.09
634.60	95.96
634.75	77.24
634.90	65.54
635.05	0.00
635.19	70.22
635.34	21.06
635.49	63.19
635.64	9.36
635.79	79.58
635.94	49.15
636.09	4.68
636.24	63.19
636.39	37.45
636.53	56.17
636.68	98.30
636.83	74.90
636.98	56.17
637.13	42.13
637.28	23.41
637.43	16.38
637.57	42.13
637.72	91.28
637.87	147.45
638.02	0.00
638.17	81.92
638.32	0.00
638.46	67.88
638.61	49.15
638.76	18.72
638.91	39.79
639.06	28.09
639.20	18.72
639.35	95.96
639.50	100.64
639.65	119.37
639.80	72.56
639.94	112.35
640.09	49.15
640.24	117.03
640.39	112.35
640.54	86.60
640.68	0.00
640.83	67.88
640.98	18.72
641.13	112.35
641.27	28.09
641.42	86.60
641.57	77.24
641.72	72.56
641.86	88.94
642.01	23.41
642.16	105.32
642.31	37.45
642.45	53.83
642.60	110.01
642.75	44.47
642.90	114.69
643.04	32.77
643.19	100.64
643.34	86.60
643.48	74.90
643.63	44.47
643.78	98.30
643.93	124.05
644.07	63.19
644.22	44.47
644.37	42.13
644.51	30.43
644.66	23.41
644.81	53.83
644.95	81.92
645.10	49.15
645.25	0.00
645.39	4.68
645.54	18.72
645.69	112.35
645.83	67.88
645.98	4.68
646.13	14.04
646.27	105.32
646.42	110.01
646.57	39.79
646.71	60.85
646.86	67.88
647.00	56.17
647.15	110.01
647.30	14.04
647.44	16.38
647.59	81.92
647.74	110.01
647.88	4.68
648.03	37.45
648.17	135.75
648.32	32.77
648.47	65.54
648.61	39.79
648.76	21.06
648.90	46.81
649.05	79.58
649.20	81.92
649.34	74.90
649.49	49.15
649.63	63.19
649.78	16.38
649.92	56.17
650.07	21.06
650.21	4.68
650.36	100.64
650.51	51.49
650.65	70.22
650.80	25.75
650.94	56.17
651.09	49.15
651.23	35.11
651.38	72.56
651.52	77.24
651.67	49.15
651.81	0.00
651.96	9.36
652.10	46.81
652.25	67.88
652.39	46.81
652.54	95.96
652.68	44.47
652.83	56.17
652.97	72.56
653.12	21.06
653.26	63.19
653.41	102.98
653.55	39.79
653.70	9.36
653.84	53.83
653.99	88.94
654.13	110.01
654.27	79.58
654.42	56.17
654.56	60.85
654.71	49.15
654.85	21.06
655.00	18.72
655.14	84.26
655.29	67.88
655.43	16.38
655.57	65.54
655.72	32.77
655.86	46.81
656.01	42.13
656.15	14.04
656.30	93.62
656.44	58.51
656.58	0.00
656.73	35.11
656.87	25.75
657.01	23.41
657.16	21.06
657.30	65.54
657.45	30.43
657.59	37.45
657.73	79.58
657.88	86.60
658.02	100.64
658.16	114.69
658.31	0.00
658.45	0.00
658.60	51.49
658.74	110.01
658.88	88.94
659.03	60.85
659.17	32.77
659.31	93.62
659.46	67.88
659.60	100.64
659.74	46.81
659.89	46.81
660.03	65.54
660.17	25.75
660.32	58.51
660.46	21.06
660.60	39.79
660.74	60.85
660.89	117.03
661.03	30.43
661.17	98.30
661.32	67.88
661.46	67.88
661.60	14.04
661.74	102.98
661.89	0.00
662.03	49.15
662.17	21.06
662.31	88.94
662.46	21.06
662.60	14.04
662.74	0.00
662.88	67.88
663.03	49.15
663.17	0.00
663.31	74.90
663.45	105.32
663.60	119.37
663.74	42.13
663.88	56.17
664.02	105.32
664.17	0.00
664.31	11.70
664.45	91.28
664.59	4.68
664.73	32.77
664.88	81.92
665.02	79.58
665.16	72.56
665.30	107.66
665.44	49.15
665.59	51.49
665.73	0.00
665.87	4.68
666.01	30.43
666.15	0.00
666.29	79.58
666.44	60.85
666.58	63.19
666.72	35.11
666.86	67.88
667.00	114.69
667.14	58.51
667.28	7.02
667.43	23.41
667.57	44.47
667.71	91.28
667.85	72.56
667.99	63.19
668.13	32.77
668.27	58.51
668.41	95.96
668.56	102.98
668.70	60.85
668.84	60.85
668.98	35.11
669.12	42.13
669.26	56.17
669.40	44.47
669.54	21.06
669.68	105.32
669.82	30.43
669.96	105.32
670.10	63.19
670.25	95.96
670.39	74.90
670.53	0.00
670.67	46.81
670.81	30.43
670.95	112.35
671.09	91.28
671.23	30.43
671.37	112.35
671.51	65.54
671.65	49.15
671.79	81.92
671.93	58.51
672.07	51.49
672.21	35.11
672.35	133.41
672.49	58.51
672.63	98.30
672.77	46.81
672.91	0.00
673.05	30.43
673.19	88.94
673.33	67.88
673.47	56.17
673.61	56.17
673.75	156.82
673.89	49.15
674.03	53.83
674.17	18.72
674.31	53.83
674.45	100.64
674.59	18.72
674.73	60.85
674.87	32.77
675.01	77.24
675.15	21.06
675.29	77.24
675.43	56.17
675.56	70.22
675.70	72.56
675.84	9.36
675.98	93.62
676.12	72.56
676.26	28.09
676.40	58.51
676.54	0.00
676.68	93.62
676.82	25.75
676.96	9.36
677.10	49.15
677.23	70.22
677.37	28.09
677.51	35.11
677.65	102.98
677.79	30.43
677.93	37.45
678.07	77.24
678.21	25.75
678.34	0.00
678.48	102.98
678.62	14.04
678.76	30.43
678.90	21.06
679.04	49.15
679.18	53.83
679.31	70.22
679.45	46.81
679.59	28.09
679.73	0.00
679.87	14.04
680.00	7.02
680.14	51.49
680.28	58.51
680.42	2.34
680.56	25.75
680.70	0.00
680.83	46.81
680.97	79.58
681.11	84.26
681.25	42.13
681.39	14.04
681.52	51.49
681.66	0.00
681.80	100.64
681.94	86.60
682.07	11.70
682.21	28.09
682.35	0.00
682.49	77.24
682.62	11.70
682.76	21.06
682.90	98.30
683.04	46.81
683.17	77.24
683.31	72.56
683.45	53.83
683.59	30.43
683.72	65.54
683.86	49.15
684.00	7.02
684.13	49.15
684.27	16.38
684.41	81.92
684.55	37.45
684.68	0.00
684.82	23.41
684.96	63.19
685.09	39.79
685.23	58.51
685.37	180.22
685.50	72.56
685.64	114.69
685.78	110.01
685.91	67.88
686.05	49.15
686.19	23.41
686.32	70.22
686.46	70.22
686.60	0.00
686.73	11.70
686.87	9.36
687.01	2.34
687.14	4.68
687.28	25.75
687.42	11.70
687.55	32.77
687.69	4.68
687.82	7.02
687.96	65.54
688.10	56.17
688.23	86.60
688.37	0.00
688.50	105.32
688.64	58.51
688.78	49.15
688.91	49.15
689.05	98.30
689.18	44.47
689.32	0.00
689.46	110.01
689.59	65.54
689.73	51.49
689.86	0.00
690.00	63.19
690.13	42.13
690.27	14.04
690.41	51.49
690.54	72.56
690.68	81.92
690.81	91.28
690.95	18.72
691.08	65.54
691.22	42.13
691.35	44.47
691.49	51.49
691.62	42.13
691.76	18.72
691.89	2.34
692.03	39.79
692.16	25.75
692.30	23.41
692.43	102.98
692.57	105.32
692.70	32.77
692.84	0.00
692.97	102.98
693.11	18.72
693.24	32.77
693.38	0.00
693.51	21.06
693.65	140.43
693.78	77.24
693.92	49.15
694.05	65.54
694.19	21.06
694.32	49.15
694.45	58.51
694.59	0.00
694.72	0.00
694.86	49.15
694.99	86.60
695.13	28.09
695.26	14.04
695.39	91.28
695.53	84.26
695.66	84.26
695.80	35.11
695.93	58.51
696.07	23.41
696.20	0.00
696.33	2.34
696.47	35.11
696.60	117.03
696.73	105.32
696.87	98.30
697.00	70.22
697.14	135.75
697.27	51.49
697.40	28.09
697.54	49.15
697.67	84.26
697.80	30.43
697.94	72.56
698.07	91.28
698.21	39.79
698.34	0.00
698.47	126.39
698.61	23.41
698.74	18.72
698.87	65.54
699.01	16.38
699.14	32.77
699.27	98.30
699.40	18.72
699.54	105.32
699.67	16.38
699.80	39.79
699.94	35.11
700.07	21.06
700.20	128.73
700.34	53.83
700.47	0.00
700.60	16.38
700.73	53.83
700.87	51.49
701.00	46.81
701.13	81.92
701.26	0.00
701.40	30.43
701.53	49.15
701.66	30.43
701.79	16.38
701.93	37.45
702.06	28.09
702.19	84.26
702.32	4.68
702.46	56.17
702.59	100.64
702.72	21.06
702.85	51.49
702.99	0.00
703.12	4.68
703.25	72.56
703.38	16.38
703.51	21.06
703.65	65.54
703.78	37.45
703.91	37.45
704.04	39.79
704.17	74.90
704.31	42.13
704.44	93.62
704.57	46.81
704.70	70.22
704.83	23.41
704.96	86.60
705.10	74.90
705.23	32.77
>>>>>End Processed Spectral Data<<<<<
