SpectraSuite Data File
++++++++++++++++++++++++++++++++++++
Date: Fri Oct 04 12:13:28 GMT-05:00 2013
User: price-jones
Dark Spectrum Present: No
Reference Spectrum Present: No
Number of Sampled Component Spectra: 1
Spectrometers: USB2+H05261
Integration Time (usec): 10000 (USB2+H05261)
Spectra Averaged: 1 (USB2+H05261)
Boxcar Smoothing: 0 (USB2+H05261)
Correct for Electrical Dark: No (USB2+H05261)
Strobe/Lamp Enabled: No (USB2+H05261)
Correct for Detector Non-linearity: No (USB2+H05261)
Correct for Stray Light: No (USB2+H05261)
Number of Pixels in Processed Spectrum: 2048
>>>>>Begin Processed Spectral Data<<<<<
365.73	0.00
365.92	0.00
366.12	0.00
366.32	0.00
366.52	0.00
366.72	0.00
366.91	0.00
367.11	0.00
367.31	0.00
367.51	0.00
367.70	0.00
367.90	0.00
368.10	0.00
368.30	0.00
368.49	0.00
368.69	0.00
368.89	0.00
369.09	0.00
369.28	0.00
369.48	0.00
369.68	0.00
369.87	0.00
370.07	0.00
370.27	0.00
370.47	0.00
370.66	0.00
370.86	0.00
371.06	0.00
371.25	9.36
371.45	0.00
371.65	0.00
371.84	0.00
372.04	0.00
372.24	53.83
372.44	42.13
372.63	0.00
372.83	39.79
373.03	42.13
373.22	0.00
373.42	37.45
373.62	49.15
373.81	25.75
374.01	72.56
374.21	93.62
374.40	14.04
374.60	0.00
374.79	0.00
374.99	60.85
375.19	23.41
375.38	0.00
375.58	42.13
375.78	28.09
375.97	42.13
376.17	51.49
376.37	70.22
376.56	42.13
376.76	0.00
376.95	18.72
377.15	16.38
377.35	0.00
377.54	21.06
377.74	21.06
377.93	0.00
378.13	0.00
378.33	0.00
378.52	0.00
378.72	28.09
378.91	58.51
379.11	0.00
379.31	81.92
379.50	42.13
379.70	32.77
379.89	44.47
380.09	65.54
380.28	0.00
380.48	16.38
380.68	0.00
380.87	0.00
381.07	28.09
381.26	28.09
381.46	16.38
381.65	21.06
381.85	11.70
382.04	70.22
382.24	46.81
382.43	0.00
382.63	65.54
382.83	51.49
383.02	32.77
383.22	21.06
383.41	91.28
383.61	39.79
383.80	0.00
384.00	65.54
384.19	23.41
384.39	7.02
384.58	58.51
384.78	2.34
384.97	74.90
385.17	0.00
385.36	35.11
385.56	30.43
385.75	28.09
385.95	32.77
386.14	0.00
386.34	9.36
386.53	0.00
386.72	25.75
386.92	0.00
387.11	30.43
387.31	14.04
387.50	0.00
387.70	18.72
387.89	35.11
388.09	0.00
388.28	11.70
388.48	0.00
388.67	53.83
388.86	44.47
389.06	23.41
389.25	65.54
389.45	14.04
389.64	51.49
389.84	0.00
390.03	0.00
390.22	70.22
390.42	18.72
390.61	46.81
390.81	88.94
391.00	30.43
391.19	9.36
391.39	9.36
391.58	14.04
391.78	63.19
391.97	37.45
392.16	30.43
392.36	14.04
392.55	11.70
392.75	16.38
392.94	0.00
393.13	16.38
393.33	65.54
393.52	2.34
393.71	0.00
393.91	0.00
394.10	0.00
394.29	84.26
394.49	23.41
394.68	86.60
394.88	0.00
395.07	11.70
395.26	21.06
395.46	2.34
395.65	67.88
395.84	4.68
396.04	16.38
396.23	65.54
396.42	18.72
396.62	16.38
396.81	0.00
397.00	0.00
397.19	0.00
397.39	44.47
397.58	88.94
397.77	0.00
397.97	58.51
398.16	74.90
398.35	25.75
398.55	2.34
398.74	44.47
398.93	32.77
399.12	28.09
399.32	44.47
399.51	30.43
399.70	42.13
399.90	0.00
400.09	18.72
400.28	0.00
400.47	0.00
400.67	63.19
400.86	72.56
401.05	25.75
401.24	60.85
401.44	72.56
401.63	21.06
401.82	37.45
402.01	114.69
402.21	86.60
402.40	74.90
402.59	9.36
402.78	4.68
402.97	0.00
403.17	0.00
403.36	7.02
403.55	7.02
403.74	0.00
403.93	9.36
404.13	84.26
404.32	63.19
404.51	0.00
404.70	14.04
404.89	0.00
405.09	39.79
405.28	0.00
405.47	0.00
405.66	30.43
405.85	21.06
406.05	0.00
406.24	16.38
406.43	60.85
406.62	67.88
406.81	58.51
407.00	42.13
407.20	60.85
407.39	53.83
407.58	0.00
407.77	30.43
407.96	0.00
408.15	44.47
408.34	0.00
408.54	7.02
408.73	39.79
408.92	4.68
409.11	4.68
409.30	35.11
409.49	46.81
409.68	28.09
409.87	32.77
410.07	28.09
410.26	0.00
410.45	37.45
410.64	49.15
410.83	56.17
411.02	35.11
411.21	53.83
411.40	0.00
411.59	14.04
411.78	67.88
411.98	7.02
412.17	67.88
412.36	63.19
412.55	0.00
412.74	72.56
412.93	25.75
413.12	77.24
413.31	44.47
413.50	0.00
413.69	0.00
413.88	0.00
414.07	7.02
414.26	0.00
414.45	32.77
414.64	91.28
414.83	7.02
415.02	11.70
415.22	16.38
415.41	28.09
415.60	0.00
415.79	32.77
415.98	44.47
416.17	4.68
416.36	44.47
416.55	0.00
416.74	60.85
416.93	11.70
417.12	35.11
417.31	0.00
417.50	0.00
417.69	37.45
417.88	16.38
418.07	37.45
418.26	56.17
418.45	60.85
418.64	105.32
418.83	72.56
419.02	9.36
419.21	105.32
419.39	88.94
419.58	70.22
419.77	16.38
419.96	49.15
420.15	37.45
420.34	39.79
420.53	67.88
420.72	0.00
420.91	112.35
421.10	135.75
421.29	56.17
421.48	79.58
421.67	0.00
421.86	0.00
422.05	7.02
422.24	95.96
422.43	9.36
422.61	4.68
422.80	0.00
422.99	11.70
423.18	23.41
423.37	14.04
423.56	16.38
423.75	2.34
423.94	25.75
424.13	0.00
424.32	39.79
424.50	14.04
424.69	63.19
424.88	35.11
425.07	2.34
425.26	16.38
425.45	65.54
425.64	58.51
425.83	42.13
426.01	53.83
426.20	0.00
426.39	0.00
426.58	0.00
426.77	23.41
426.96	65.54
427.15	14.04
427.33	72.56
427.52	65.54
427.71	77.24
427.90	21.06
428.09	44.47
428.28	56.17
428.46	51.49
428.65	23.41
428.84	79.58
429.03	84.26
429.22	39.79
429.40	65.54
429.59	0.00
429.78	131.07
429.97	9.36
430.16	39.79
430.34	42.13
430.53	30.43
430.72	0.00
430.91	30.43
431.10	56.17
431.28	37.45
431.47	65.54
431.66	42.13
431.85	0.00
432.03	35.11
432.22	30.43
432.41	14.04
432.60	67.88
432.79	60.85
432.97	56.17
433.16	74.90
433.35	37.45
433.54	0.00
433.72	14.04
433.91	51.49
434.10	86.60
434.28	51.49
434.47	28.09
434.66	56.17
434.85	100.64
435.03	35.11
435.22	135.75
435.41	65.54
435.59	18.72
435.78	7.02
435.97	18.72
436.16	0.00
436.34	110.01
436.53	14.04
436.72	21.06
436.90	46.81
437.09	0.00
437.28	49.15
437.46	16.38
437.65	56.17
437.84	18.72
438.02	0.00
438.21	35.11
438.40	81.92
438.58	39.79
438.77	37.45
438.96	21.06
439.14	9.36
439.33	0.00
439.52	0.00
439.70	63.19
439.89	14.04
440.08	110.01
440.26	0.00
440.45	23.41
440.63	42.13
440.82	88.94
441.01	49.15
441.19	102.98
441.38	39.79
441.57	0.00
441.75	51.49
441.94	93.62
442.12	56.17
442.31	86.60
442.50	21.06
442.68	0.00
442.87	42.13
443.05	23.41
443.24	114.69
443.43	14.04
443.61	91.28
443.80	42.13
443.98	32.77
444.17	58.51
444.35	60.85
444.54	14.04
444.73	81.92
444.91	42.13
445.10	0.00
445.28	11.70
445.47	51.49
445.65	53.83
445.84	60.85
446.02	77.24
446.21	51.49
446.39	0.00
446.58	53.83
446.77	18.72
446.95	14.04
447.14	0.00
447.32	0.00
447.51	0.00
447.69	23.41
447.88	72.56
448.06	119.37
448.25	0.00
448.43	25.75
448.62	0.00
448.80	65.54
448.99	32.77
449.17	37.45
449.36	72.56
449.54	84.26
449.73	44.47
449.91	0.00
450.10	7.02
450.28	65.54
450.46	72.56
450.65	11.70
450.83	0.00
451.02	0.00
451.20	2.34
451.39	63.19
451.57	49.15
451.76	25.75
451.94	25.75
452.13	25.75
452.31	0.00
452.49	37.45
452.68	63.19
452.86	21.06
453.05	0.00
453.23	0.00
453.42	56.17
453.60	0.00
453.78	56.17
453.97	79.58
454.15	86.60
454.34	25.75
454.52	32.77
454.70	32.77
454.89	0.00
455.07	0.00
455.26	0.00
455.44	72.56
455.62	77.24
455.81	53.83
455.99	42.13
456.17	4.68
456.36	32.77
456.54	0.00
456.73	9.36
456.91	56.17
457.09	60.85
457.28	72.56
457.46	67.88
457.64	4.68
457.83	49.15
458.01	28.09
458.19	65.54
458.38	9.36
458.56	0.00
458.74	58.51
458.93	60.85
459.11	37.45
459.29	0.00
459.48	0.00
459.66	88.94
459.84	93.62
460.03	84.26
460.21	4.68
460.39	0.00
460.57	23.41
460.76	81.92
460.94	9.36
461.12	86.60
461.31	25.75
461.49	18.72
461.67	56.17
461.85	18.72
462.04	79.58
462.22	98.30
462.40	16.38
462.59	0.00
462.77	11.70
462.95	63.19
463.13	9.36
463.32	0.00
463.50	32.77
463.68	28.09
463.86	0.00
464.05	16.38
464.23	86.60
464.41	63.19
464.59	28.09
464.78	4.68
464.96	11.70
465.14	0.00
465.32	7.02
465.50	23.41
465.69	72.56
465.87	14.04
466.05	7.02
466.23	79.58
466.41	21.06
466.60	11.70
466.78	0.00
466.96	0.00
467.14	9.36
467.32	42.13
467.51	0.00
467.69	11.70
467.87	37.45
468.05	49.15
468.23	7.02
468.41	44.47
468.60	37.45
468.78	7.02
468.96	30.43
469.14	16.38
469.32	60.85
469.50	28.09
469.69	9.36
469.87	72.56
470.05	25.75
470.23	98.30
470.41	25.75
470.59	16.38
470.77	67.88
470.95	28.09
471.14	42.13
471.32	56.17
471.50	0.00
471.68	32.77
471.86	32.77
472.04	60.85
472.22	0.00
472.40	14.04
472.58	42.13
472.77	44.47
472.95	102.98
473.13	72.56
473.31	39.79
473.49	25.75
473.67	49.15
473.85	25.75
474.03	0.00
474.21	39.79
474.39	70.22
474.57	35.11
474.75	88.94
474.93	0.00
475.12	51.49
475.30	70.22
475.48	32.77
475.66	4.68
475.84	0.00
476.02	16.38
476.20	58.51
476.38	60.85
476.56	28.09
476.74	14.04
476.92	67.88
477.10	2.34
477.28	0.00
477.46	0.00
477.64	35.11
477.82	23.41
478.00	70.22
478.18	84.26
478.36	44.47
478.54	0.00
478.72	25.75
478.90	0.00
479.08	30.43
479.26	46.81
479.44	0.00
479.62	72.56
479.80	0.00
479.98	60.85
480.16	56.17
480.34	35.11
480.52	7.02
480.70	39.79
480.88	42.13
481.06	42.13
481.24	4.68
481.41	67.88
481.59	42.13
481.77	58.51
481.95	53.83
482.13	42.13
482.31	93.62
482.49	0.00
482.67	9.36
482.85	0.00
483.03	67.88
483.21	35.11
483.39	67.88
483.57	49.15
483.74	2.34
483.92	53.83
484.10	51.49
484.28	37.45
484.46	46.81
484.64	0.00
484.82	84.26
485.00	16.38
485.18	67.88
485.35	32.77
485.53	44.47
485.71	65.54
485.89	44.47
486.07	2.34
486.25	84.26
486.43	63.19
486.61	53.83
486.78	7.02
486.96	72.56
487.14	7.02
487.32	77.24
487.50	42.13
487.68	32.77
487.85	25.75
488.03	49.15
488.21	79.58
488.39	74.90
488.57	21.06
488.75	0.00
488.92	117.03
489.10	67.88
489.28	0.00
489.46	46.81
489.64	25.75
489.81	60.85
489.99	4.68
490.17	51.49
490.35	58.51
490.53	0.00
490.70	0.00
490.88	53.83
491.06	0.00
491.24	63.19
491.41	93.62
491.59	67.88
491.77	0.00
491.95	0.00
492.13	91.28
492.30	9.36
492.48	0.00
492.66	86.60
492.84	93.62
493.01	25.75
493.19	39.79
493.37	67.88
493.54	32.77
493.72	102.98
493.90	0.00
494.08	0.00
494.25	56.17
494.43	0.00
494.61	0.00
494.79	7.02
494.96	28.09
495.14	46.81
495.32	112.35
495.49	77.24
495.67	37.45
495.85	39.79
496.02	7.02
496.20	49.15
496.38	4.68
496.55	65.54
496.73	72.56
496.91	23.41
497.09	7.02
497.26	67.88
497.44	0.00
497.62	39.79
497.79	65.54
497.97	77.24
498.14	86.60
498.32	84.26
498.50	65.54
498.67	49.15
498.85	0.00
499.03	84.26
499.20	70.22
499.38	35.11
499.56	0.00
499.73	16.38
499.91	0.00
500.08	32.77
500.26	28.09
500.44	28.09
500.61	14.04
500.79	25.75
500.97	39.79
501.14	28.09
501.32	74.90
501.49	0.00
501.67	0.00
501.84	107.66
502.02	23.41
502.20	51.49
502.37	0.00
502.55	21.06
502.72	102.98
502.90	0.00
503.07	88.94
503.25	49.15
503.43	0.00
503.60	0.00
503.78	0.00
503.95	72.56
504.13	51.49
504.30	11.70
504.48	14.04
504.65	39.79
504.83	35.11
505.01	0.00
505.18	51.49
505.36	138.09
505.53	11.70
505.71	65.54
505.88	60.85
506.06	56.17
506.23	0.00
506.41	0.00
506.58	72.56
506.76	37.45
506.93	79.58
507.11	44.47
507.28	39.79
507.46	114.69
507.63	0.00
507.81	86.60
507.98	67.88
508.16	32.77
508.33	0.00
508.50	18.72
508.68	51.49
508.85	0.00
509.03	74.90
509.20	39.79
509.38	58.51
509.55	0.00
509.73	42.13
509.90	53.83
510.08	72.56
510.25	7.02
510.42	39.79
510.60	77.24
510.77	84.26
510.95	23.41
511.12	93.62
511.30	7.02
511.47	0.00
511.64	30.43
511.82	67.88
511.99	0.00
512.17	42.13
512.34	4.68
512.51	91.28
512.69	65.54
512.86	42.13
513.04	16.38
513.21	0.00
513.38	86.60
513.56	39.79
513.73	11.70
513.90	18.72
514.08	23.41
514.25	0.00
514.43	16.38
514.60	25.75
514.77	53.83
514.95	0.00
515.12	42.13
515.29	42.13
515.47	53.83
515.64	58.51
515.81	25.75
515.99	67.88
516.16	25.75
516.33	37.45
516.51	28.09
516.68	39.79
516.85	65.54
517.03	39.79
517.20	46.81
517.37	30.43
517.54	51.49
517.72	21.06
517.89	7.02
518.06	0.00
518.24	9.36
518.41	60.85
518.58	58.51
518.75	58.51
518.93	53.83
519.10	42.13
519.27	46.81
519.45	0.00
519.62	23.41
519.79	11.70
519.96	74.90
520.14	44.47
520.31	39.79
520.48	67.88
520.65	67.88
520.83	14.04
521.00	65.54
521.17	28.09
521.34	56.17
521.52	42.13
521.69	11.70
521.86	9.36
522.03	110.01
522.20	16.38
522.38	53.83
522.55	46.81
522.72	51.49
522.89	58.51
523.07	4.68
523.24	131.07
523.41	35.11
523.58	28.09
523.75	65.54
523.92	0.00
524.10	46.81
524.27	81.92
524.44	86.60
524.61	2.34
524.78	30.43
524.96	88.94
525.13	42.13
525.30	51.49
525.47	67.88
525.64	56.17
525.81	32.77
525.98	60.85
526.16	46.81
526.33	0.00
526.50	16.38
526.67	0.00
526.84	0.00
527.01	42.13
527.18	70.22
527.36	49.15
527.53	56.17
527.70	0.00
527.87	25.75
528.04	49.15
528.21	25.75
528.38	88.94
528.55	53.83
528.72	44.47
528.89	58.51
529.07	35.11
529.24	105.32
529.41	93.62
529.58	53.83
529.75	58.51
529.92	44.47
530.09	119.37
530.26	23.41
530.43	4.68
530.60	4.68
530.77	30.43
530.94	88.94
531.11	51.49
531.28	0.00
531.46	72.56
531.63	16.38
531.80	0.00
531.97	44.47
532.14	67.88
532.31	30.43
532.48	56.17
532.65	49.15
532.82	60.85
532.99	16.38
533.16	65.54
533.33	39.79
533.50	28.09
533.67	91.28
533.84	79.58
534.01	32.77
534.18	46.81
534.35	42.13
534.52	42.13
534.69	53.83
534.86	46.81
535.03	53.83
535.20	35.11
535.37	124.05
535.54	51.49
535.71	42.13
535.88	72.56
536.05	100.64
536.22	65.54
536.38	51.49
536.55	18.72
536.72	30.43
536.89	53.83
537.06	49.15
537.23	35.11
537.40	25.75
537.57	39.79
537.74	18.72
537.91	70.22
538.08	28.09
538.25	0.00
538.42	4.68
538.59	0.00
538.75	39.79
538.92	28.09
539.09	30.43
539.26	37.45
539.43	56.17
539.60	201.29
539.77	283.20
539.94	241.08
540.11	306.61
540.28	173.20
540.44	58.51
540.61	42.13
540.78	42.13
540.95	0.00
541.12	49.15
541.29	0.00
541.46	86.60
541.62	25.75
541.79	67.88
541.96	51.49
542.13	58.51
542.30	25.75
542.47	58.51
542.63	32.77
542.80	74.90
542.97	86.60
543.14	11.70
543.31	0.00
543.48	0.00
543.64	63.19
543.81	9.36
543.98	72.56
544.15	18.72
544.32	9.36
544.48	100.64
544.65	18.72
544.82	9.36
544.99	25.75
545.16	49.15
545.32	35.11
545.49	9.36
545.66	0.00
545.83	46.81
546.00	65.54
546.16	14.04
546.33	21.06
546.50	0.00
546.67	98.30
546.83	0.00
547.00	0.00
547.17	0.00
547.34	30.43
547.50	18.72
547.67	53.83
547.84	58.51
548.00	0.00
548.17	0.00
548.34	51.49
548.51	32.77
548.67	0.00
548.84	39.79
549.01	140.43
549.18	84.26
549.34	16.38
549.51	67.88
549.68	16.38
549.84	53.83
550.01	4.68
550.18	79.58
550.34	28.09
550.51	11.70
550.68	9.36
550.84	63.19
551.01	9.36
551.18	77.24
551.34	30.43
551.51	0.00
551.68	0.00
551.84	53.83
552.01	86.60
552.18	37.45
552.34	0.00
552.51	0.00
552.68	93.62
552.84	53.83
553.01	0.00
553.18	74.90
553.34	51.49
553.51	39.79
553.67	42.13
553.84	0.00
554.01	84.26
554.17	70.22
554.34	44.47
554.51	44.47
554.67	91.28
554.84	65.54
555.00	142.77
555.17	65.54
555.33	9.36
555.50	0.00
555.67	51.49
555.83	84.26
556.00	91.28
556.16	107.66
556.33	21.06
556.50	98.30
556.66	128.73
556.83	88.94
556.99	65.54
557.16	49.15
557.32	32.77
557.49	25.75
557.65	37.45
557.82	7.02
557.98	7.02
558.15	56.17
558.32	32.77
558.48	49.15
558.65	44.47
558.81	91.28
558.98	70.22
559.14	58.51
559.31	28.09
559.47	72.56
559.64	0.00
559.80	0.00
559.97	72.56
560.13	25.75
560.30	98.30
560.46	25.75
560.63	74.90
560.79	56.17
560.96	58.51
561.12	32.77
561.29	32.77
561.45	100.64
561.61	58.51
561.78	98.30
561.94	18.72
562.11	2.34
562.27	28.09
562.44	70.22
562.60	7.02
562.77	58.51
562.93	70.22
563.10	23.41
563.26	84.26
563.42	112.35
563.59	51.49
563.75	2.34
563.92	46.81
564.08	49.15
564.24	44.47
564.41	67.88
564.57	32.77
564.74	39.79
564.90	37.45
565.07	39.79
565.23	70.22
565.39	128.73
565.56	0.00
565.72	53.83
565.88	28.09
566.05	35.11
566.21	93.62
566.38	126.39
566.54	28.09
566.70	23.41
566.87	0.00
567.03	0.00
567.19	37.45
567.36	51.49
567.52	0.00
567.68	35.11
567.85	95.96
568.01	98.30
568.17	14.04
568.34	56.17
568.50	49.15
568.66	100.64
568.83	16.38
568.99	0.00
569.15	91.28
569.32	0.00
569.48	44.47
569.64	0.00
569.81	9.36
569.97	0.00
570.13	81.92
570.30	21.06
570.46	91.28
570.62	0.00
570.78	81.92
570.95	35.11
571.11	7.02
571.27	49.15
571.43	72.56
571.60	67.88
571.76	11.70
571.92	30.43
572.09	2.34
572.25	138.09
572.41	0.00
572.57	0.00
572.74	23.41
572.90	56.17
573.06	119.37
573.22	11.70
573.38	58.51
573.55	44.47
573.71	56.17
573.87	58.51
574.03	119.37
574.20	23.41
574.36	44.47
574.52	21.06
574.68	51.49
574.84	2.34
575.01	28.09
575.17	14.04
575.33	28.09
575.49	86.60
575.65	114.69
575.82	44.47
575.98	135.75
576.14	121.71
576.30	131.07
576.46	81.92
576.62	114.69
576.79	119.37
576.95	60.85
577.11	72.56
577.27	18.72
577.43	44.47
577.59	32.77
577.75	28.09
577.92	18.72
578.08	81.92
578.24	72.56
578.40	37.45
578.56	0.00
578.72	110.01
578.88	124.05
579.04	28.09
579.21	140.43
579.37	72.56
579.53	25.75
579.69	4.68
579.85	16.38
580.01	14.04
580.17	107.66
580.33	35.11
580.49	88.94
580.65	77.24
580.82	79.58
580.98	91.28
581.14	35.11
581.30	70.22
581.46	124.05
581.62	126.39
581.78	154.48
581.94	105.32
582.10	142.77
582.26	56.17
582.42	7.02
582.58	63.19
582.74	88.94
582.90	77.24
583.06	98.30
583.22	60.85
583.38	107.66
583.54	77.24
583.70	208.31
583.86	140.43
584.02	110.01
584.18	149.79
584.34	266.82
584.50	676.41
584.66	4404.89
584.82	11250.96
584.98	17053.14
585.14	15403.07
585.30	9554.07
585.46	5750.70
585.62	3506.12
585.78	1619.65
585.94	601.52
586.10	297.25
586.26	203.63
586.42	84.26
586.58	163.84
586.74	145.11
586.90	121.71
587.06	175.54
587.22	84.26
587.38	65.54
587.54	187.24
587.70	638.97
587.86	1184.31
588.02	1256.87
588.18	861.32
588.34	589.82
588.49	365.12
588.65	208.31
588.81	100.64
588.97	81.92
589.13	0.00
589.29	142.77
589.45	65.54
589.61	0.00
589.77	56.17
589.93	70.22
590.08	152.13
590.24	9.36
590.40	163.84
590.56	21.06
590.72	110.01
590.88	65.54
591.04	0.00
591.20	58.51
591.35	37.45
591.51	117.03
591.67	49.15
591.83	56.17
591.99	46.81
592.15	67.88
592.31	49.15
592.46	72.56
592.62	95.96
592.78	70.22
592.94	44.47
593.10	35.11
593.26	0.00
593.41	32.77
593.57	107.66
593.73	77.24
593.89	465.77
594.05	1364.53
594.20	2139.25
594.36	1991.80
594.52	1320.06
594.68	816.85
594.84	510.24
594.99	313.63
595.15	180.22
595.31	84.26
595.47	72.56
595.62	53.83
595.78	74.90
595.94	11.70
596.10	72.56
596.25	131.07
596.41	100.64
596.57	70.22
596.73	126.39
596.88	135.75
597.04	264.48
597.20	528.96
597.36	535.98
597.51	397.89
597.67	348.74
597.83	121.71
597.99	140.43
598.14	114.69
598.30	93.62
598.46	102.98
598.61	53.83
598.77	60.85
598.93	105.32
599.09	35.11
599.24	44.47
599.40	72.56
599.56	53.83
599.71	74.90
599.87	32.77
600.03	105.32
600.18	32.77
600.34	7.02
600.50	21.06
600.65	84.26
600.81	60.85
600.97	21.06
601.12	35.11
601.28	63.19
601.44	117.03
601.59	4.68
601.75	77.24
601.91	0.00
602.06	81.92
602.22	84.26
602.37	142.77
602.53	339.38
602.69	564.07
602.84	585.13
603.00	428.32
603.16	234.05
603.31	224.69
603.47	126.39
603.62	119.37
603.78	105.32
603.94	60.85
604.09	74.90
604.25	53.83
604.40	110.01
604.56	32.77
604.71	35.11
604.87	0.00
605.03	0.00
605.18	49.15
605.34	91.28
605.49	42.13
605.65	93.62
605.80	84.26
605.96	88.94
606.12	65.54
606.27	37.45
606.43	93.62
606.58	65.54
606.74	224.69
606.89	645.99
607.05	1261.55
607.20	1893.49
607.36	1579.86
607.51	1118.78
607.67	650.67
607.82	475.13
607.98	266.82
608.13	159.16
608.29	70.22
608.44	60.85
608.60	42.13
608.75	79.58
608.91	255.12
609.06	1144.52
609.22	2408.41
609.37	3283.77
609.53	2686.94
609.68	1774.13
609.84	1142.18
609.99	798.12
610.15	451.72
610.30	241.08
610.46	117.03
610.61	51.49
610.76	39.79
610.92	53.83
611.07	32.77
611.23	81.92
611.38	56.17
611.54	51.49
611.69	11.70
611.84	117.03
612.00	67.88
612.15	135.75
612.31	42.13
612.46	124.05
612.62	161.50
612.77	168.52
612.92	98.30
613.08	140.43
613.23	110.01
613.39	18.72
613.54	189.58
613.69	950.26
613.85	2799.28
614.00	4603.83
614.15	5097.69
614.31	3506.12
614.46	2394.37
614.62	1554.12
614.77	884.72
614.92	407.25
615.08	189.58
615.23	86.60
615.38	86.60
615.54	105.32
615.69	135.75
615.84	528.96
616.00	1057.92
616.15	1329.42
616.30	1153.88
616.46	629.60
616.61	386.19
616.76	322.99
616.92	191.92
617.07	177.88
617.22	124.05
617.37	44.47
617.53	131.07
617.68	32.77
617.83	98.30
617.99	42.13
618.14	42.13
618.29	21.06
618.45	72.56
618.60	114.69
618.75	0.00
618.90	100.64
619.06	25.75
619.21	46.81
619.36	58.51
619.51	77.24
619.67	9.36
619.82	51.49
619.97	84.26
620.12	53.83
620.28	81.92
620.43	44.47
620.58	0.00
620.73	77.24
620.89	14.04
621.04	107.66
621.19	301.93
621.34	615.56
621.49	833.23
621.65	730.25
621.80	454.06
621.95	248.10
622.10	241.08
622.25	88.94
622.41	105.32
622.56	79.58
622.71	51.49
622.86	0.00
623.01	60.85
623.16	58.51
623.32	49.15
623.47	11.70
623.62	58.51
623.77	35.11
623.92	77.24
624.07	56.17
624.23	49.15
624.38	102.98
624.53	51.49
624.68	0.00
624.83	25.75
624.98	53.83
625.13	70.22
625.29	58.51
625.44	56.17
625.59	25.75
625.74	46.81
625.89	159.16
626.04	498.53
626.19	1406.66
626.34	2242.23
626.49	2602.68
626.65	1961.37
626.80	1294.32
626.95	917.49
627.10	517.26
627.25	297.25
627.40	128.73
627.55	72.56
627.70	37.45
627.85	88.94
628.00	28.09
628.15	67.88
628.30	0.00
628.45	44.47
628.60	67.88
628.76	119.37
628.91	74.90
629.06	60.85
629.21	84.26
629.36	23.41
629.51	32.77
629.66	84.26
629.81	49.15
629.96	271.50
630.11	564.07
630.26	650.67
630.41	610.88
630.56	496.19
630.71	294.91
630.86	184.90
631.01	140.43
631.16	133.41
631.31	88.94
631.46	51.49
631.61	53.83
631.76	21.06
631.91	25.75
632.06	60.85
632.21	79.58
632.36	77.24
632.51	49.15
632.66	84.26
632.81	234.05
632.96	723.23
633.10	1355.17
633.25	1755.40
633.40	1425.39
633.55	987.71
633.70	753.65
633.85	500.87
634.00	322.99
634.15	102.98
634.30	65.54
634.45	128.73
634.60	63.19
634.75	42.13
634.90	23.41
635.05	23.41
635.19	72.56
635.34	65.54
635.49	88.94
635.64	102.98
635.79	98.30
635.94	46.81
636.09	0.00
636.24	72.56
636.39	84.26
636.53	51.49
636.68	93.62
636.83	39.79
636.98	79.58
637.13	98.30
637.28	77.24
637.43	56.17
637.57	205.97
637.72	709.18
637.87	1785.83
638.02	3016.95
638.17	3393.78
638.32	2448.20
638.46	1629.01
638.61	1146.86
638.76	697.48
638.91	411.93
639.06	194.26
639.20	98.30
639.35	135.75
639.50	138.09
639.65	983.02
639.80	2834.39
639.94	4589.79
640.09	5210.03
640.24	3901.67
640.39	2612.04
640.54	1727.32
640.68	1118.78
640.83	465.77
640.98	236.39
641.13	119.37
641.27	112.35
641.42	117.03
641.57	105.32
641.72	30.43
641.86	100.64
642.01	30.43
642.16	37.45
642.31	70.22
642.45	65.54
642.60	70.22
642.75	102.98
642.90	0.00
643.04	70.22
643.19	32.77
643.34	7.02
643.48	63.19
643.63	65.54
643.78	81.92
643.93	39.79
644.07	0.00
644.22	2.34
644.37	37.45
644.51	67.88
644.66	53.83
644.81	65.54
644.95	42.13
645.10	2.34
645.25	4.68
645.39	2.34
645.54	0.00
645.69	30.43
645.83	105.32
645.98	72.56
646.13	49.15
646.27	16.38
646.42	14.04
646.57	60.85
646.71	16.38
646.86	0.00
647.00	51.49
647.15	37.45
647.30	0.00
647.44	70.22
647.59	63.19
647.74	0.00
647.88	30.43
648.03	67.88
648.17	72.56
648.32	0.00
648.47	0.00
648.61	16.38
648.76	46.81
648.90	0.00
649.05	16.38
649.20	58.51
649.34	65.54
649.49	0.00
649.63	86.60
649.78	84.26
649.92	110.01
650.07	337.04
650.21	1291.98
650.36	2106.48
650.51	2729.06
650.65	2282.02
650.80	1570.50
650.94	994.73
651.09	645.99
651.23	400.23
651.38	147.45
651.52	119.37
651.67	117.03
651.81	131.07
651.96	70.22
652.10	0.00
652.25	35.11
652.39	72.56
652.54	53.83
652.68	182.56
652.83	369.80
652.97	674.07
653.12	980.68
653.26	924.51
653.41	596.84
653.55	440.02
653.70	212.99
653.84	114.69
653.99	30.43
654.13	32.77
654.27	7.02
654.42	0.00
654.56	35.11
654.71	60.85
654.85	2.34
655.00	37.45
655.14	74.90
655.29	0.00
655.43	0.00
655.57	60.85
655.72	23.41
655.86	51.49
656.01	46.81
656.15	9.36
656.30	25.75
656.44	56.17
656.58	35.11
656.73	84.26
656.87	30.43
657.01	18.72
657.16	42.13
657.30	67.88
657.45	2.34
657.59	25.75
657.73	74.90
657.88	88.94
658.02	21.06
658.16	63.19
658.31	0.00
658.45	72.56
658.60	0.00
658.74	77.24
658.88	21.06
659.03	86.60
659.17	117.03
659.31	163.84
659.46	545.34
659.60	1006.43
659.74	1345.81
659.89	1181.97
660.03	823.87
660.17	561.73
660.32	355.76
660.46	264.48
660.60	124.05
660.74	102.98
660.89	93.62
661.03	30.43
661.17	42.13
661.32	28.09
661.46	51.49
661.60	0.00
661.74	70.22
661.89	42.13
662.03	44.47
662.17	42.13
662.31	81.92
662.46	159.16
662.60	11.70
662.74	114.69
662.88	79.58
663.03	51.49
663.17	56.17
663.31	42.13
663.45	35.11
663.60	42.13
663.74	58.51
663.88	102.98
664.02	9.36
664.17	21.06
664.31	9.36
664.45	58.51
664.59	86.60
664.73	0.00
664.88	63.19
665.02	28.09
665.16	56.17
665.30	18.72
665.44	18.72
665.59	2.34
665.73	56.17
665.87	0.00
666.01	30.43
666.15	0.00
666.29	0.00
666.44	0.00
666.58	72.56
666.72	60.85
666.86	23.41
667.00	86.60
667.14	105.32
667.28	339.38
667.43	1064.94
667.57	1832.64
667.71	2361.60
667.85	1973.07
667.99	1453.47
668.13	924.51
668.27	585.13
668.41	318.31
668.56	173.20
668.70	145.11
668.84	65.54
668.98	117.03
669.12	74.90
669.26	117.03
669.40	44.47
669.54	49.15
669.68	0.00
669.82	21.06
669.96	70.22
670.10	32.77
670.25	74.90
670.39	49.15
670.53	42.13
670.67	60.85
670.81	74.90
670.95	18.72
671.09	79.58
671.23	341.72
671.37	919.83
671.51	1294.32
671.65	1474.54
671.79	1172.61
671.93	802.80
672.07	484.49
672.21	250.44
672.35	224.69
672.49	93.62
672.63	70.22
672.77	117.03
672.91	84.26
673.05	18.72
673.19	79.58
673.33	56.17
673.47	32.77
673.61	56.17
673.75	25.75
673.89	25.75
674.03	65.54
674.17	44.47
674.31	30.43
674.45	46.81
674.59	79.58
674.73	0.00
674.87	16.38
675.01	11.70
675.15	67.88
675.29	25.75
675.43	63.19
675.56	72.56
675.70	51.49
675.84	56.17
675.98	0.00
676.12	0.00
676.26	9.36
676.40	112.35
676.54	53.83
676.68	98.30
676.82	102.98
676.96	46.81
677.10	32.77
677.23	46.81
677.37	0.00
677.51	44.47
677.65	30.43
677.79	35.11
677.93	39.79
678.07	21.06
678.21	4.68
678.34	32.77
678.48	46.81
678.62	42.13
678.76	86.60
678.90	25.75
679.04	0.00
679.18	65.54
679.31	67.88
679.45	11.70
679.59	0.00
679.73	0.00
679.87	79.58
680.00	86.60
680.14	28.09
680.28	0.00
680.42	0.00
680.56	88.94
680.70	0.00
680.83	79.58
680.97	7.02
681.11	77.24
681.25	63.19
681.39	98.30
681.52	0.00
681.66	0.00
681.80	7.02
681.94	0.00
682.07	11.70
682.21	77.24
682.35	28.09
682.49	7.02
682.62	37.45
682.76	0.00
682.90	37.45
683.04	56.17
683.17	102.98
683.31	39.79
683.45	23.41
683.59	18.72
683.72	9.36
683.86	4.68
684.00	25.75
684.13	67.88
684.27	11.70
684.41	28.09
684.55	32.77
684.68	46.81
684.82	0.00
684.96	107.66
685.09	25.75
685.23	0.00
685.37	0.00
685.50	51.49
685.64	72.56
685.78	7.02
685.91	0.00
686.05	37.45
686.19	30.43
686.32	0.00
686.46	0.00
686.60	28.09
686.73	0.00
686.87	0.00
687.01	23.41
687.14	25.75
687.28	102.98
687.42	39.79
687.55	79.58
687.69	63.19
687.82	9.36
687.96	18.72
688.10	37.45
688.23	63.19
688.37	60.85
688.50	23.41
688.64	0.00
688.78	21.06
688.91	14.04
689.05	0.00
689.18	4.68
689.32	9.36
689.46	42.13
689.59	0.00
689.73	18.72
689.86	46.81
690.00	91.28
690.13	0.00
690.27	28.09
690.41	4.68
690.54	32.77
690.68	46.81
690.81	0.00
690.95	0.00
691.08	25.75
691.22	25.75
691.35	16.38
691.49	7.02
691.62	4.68
691.76	63.19
691.89	39.79
692.03	70.22
692.16	0.00
692.30	51.49
692.43	102.98
692.57	503.22
692.70	758.33
692.84	1018.13
692.97	936.21
693.11	660.03
693.24	543.00
693.38	381.51
693.51	194.26
693.65	156.82
693.78	133.41
693.92	51.49
694.05	4.68
694.19	44.47
694.32	30.43
694.45	0.00
694.59	42.13
694.72	35.11
694.86	65.54
694.99	74.90
695.13	0.00
695.26	0.00
695.39	49.15
695.53	46.81
695.66	105.32
695.80	58.51
695.93	37.45
696.07	65.54
696.20	105.32
696.33	84.26
696.47	65.54
696.60	142.77
696.73	95.96
696.87	102.98
697.00	79.58
697.14	79.58
697.27	84.26
697.40	28.09
697.54	0.00
697.67	60.85
697.80	0.00
697.94	0.00
698.07	7.02
698.21	0.00
698.34	30.43
698.47	84.26
698.61	46.81
698.74	93.62
698.87	46.81
699.01	0.00
699.14	81.92
699.27	25.75
699.40	14.04
699.54	56.17
699.67	0.00
699.80	119.37
699.94	21.06
700.07	9.36
700.20	88.94
700.34	0.00
700.47	79.58
700.60	18.72
700.73	37.45
700.87	98.30
701.00	7.02
701.13	39.79
701.26	0.00
701.40	53.83
701.53	0.00
701.66	46.81
701.79	88.94
701.93	51.49
702.06	63.19
702.19	91.28
702.32	124.05
702.46	131.07
702.59	107.66
702.72	177.88
702.85	568.75
702.99	1149.20
703.12	1769.44
703.25	1970.73
703.38	1671.14
703.51	1387.94
703.65	1142.18
703.78	786.42
703.91	496.19
704.04	381.51
704.17	156.82
704.31	95.96
704.44	49.15
704.57	46.81
704.70	21.06
704.83	0.00
704.96	74.90
705.10	65.54
705.23	25.75
>>>>>End Processed Spectral Data<<<<<
