SpectraSuite Data File
++++++++++++++++++++++++++++++++++++
Date: Fri Oct 04 12:13:32 GMT-05:00 2013
User: price-jones
Dark Spectrum Present: No
Reference Spectrum Present: No
Number of Sampled Component Spectra: 1
Spectrometers: USB2+H05261
Integration Time (usec): 10000 (USB2+H05261)
Spectra Averaged: 1 (USB2+H05261)
Boxcar Smoothing: 0 (USB2+H05261)
Correct for Electrical Dark: No (USB2+H05261)
Strobe/Lamp Enabled: No (USB2+H05261)
Correct for Detector Non-linearity: No (USB2+H05261)
Correct for Stray Light: No (USB2+H05261)
Number of Pixels in Processed Spectrum: 2048
>>>>>Begin Processed Spectral Data<<<<<
365.73	0.00
365.92	0.00
366.12	0.00
366.32	0.00
366.52	0.00
366.72	0.00
366.91	0.00
367.11	0.00
367.31	0.00
367.51	0.00
367.70	0.00
367.90	0.00
368.10	0.00
368.30	0.00
368.49	0.00
368.69	0.00
368.89	0.00
369.09	0.00
369.28	0.00
369.48	0.00
369.68	0.00
369.87	0.00
370.07	0.00
370.27	0.00
370.47	0.00
370.66	0.00
370.86	0.00
371.06	0.00
371.25	0.00
371.45	0.00
371.65	21.06
371.84	0.00
372.04	0.00
372.24	0.00
372.44	0.00
372.63	0.00
372.83	18.72
373.03	49.15
373.22	30.43
373.42	44.47
373.62	9.36
373.81	42.13
374.01	0.00
374.21	91.28
374.40	0.00
374.60	0.00
374.79	0.00
374.99	0.00
375.19	84.26
375.38	53.83
375.58	86.60
375.78	100.64
375.97	44.47
376.17	44.47
376.37	4.68
376.56	67.88
376.76	46.81
376.95	0.00
377.15	44.47
377.35	23.41
377.54	18.72
377.74	0.00
377.93	58.51
378.13	79.58
378.33	42.13
378.52	16.38
378.72	30.43
378.91	35.11
379.11	32.77
379.31	0.00
379.50	35.11
379.70	65.54
379.89	0.00
380.09	70.22
380.28	28.09
380.48	42.13
380.68	0.00
380.87	0.00
381.07	0.00
381.26	0.00
381.46	18.72
381.65	0.00
381.85	0.00
382.04	21.06
382.24	60.85
382.43	60.85
382.63	0.00
382.83	23.41
383.02	0.00
383.22	0.00
383.41	0.00
383.61	0.00
383.80	60.85
384.00	0.00
384.19	0.00
384.39	46.81
384.58	51.49
384.78	14.04
384.97	9.36
385.17	39.79
385.36	35.11
385.56	0.00
385.75	67.88
385.95	23.41
386.14	60.85
386.34	51.49
386.53	0.00
386.72	72.56
386.92	0.00
387.11	0.00
387.31	0.00
387.50	65.54
387.70	25.75
387.89	0.00
388.09	7.02
388.28	14.04
388.48	37.45
388.67	44.47
388.86	14.04
389.06	0.00
389.25	0.00
389.45	56.17
389.64	0.00
389.84	0.00
390.03	9.36
390.22	84.26
390.42	0.00
390.61	4.68
390.81	28.09
391.00	0.00
391.19	11.70
391.39	30.43
391.58	0.00
391.78	0.00
391.97	37.45
392.16	0.00
392.36	67.88
392.55	2.34
392.75	28.09
392.94	11.70
393.13	0.00
393.33	0.00
393.52	0.00
393.71	44.47
393.91	28.09
394.10	9.36
394.29	18.72
394.49	25.75
394.68	16.38
394.88	63.19
395.07	23.41
395.26	91.28
395.46	9.36
395.65	0.00
395.84	25.75
396.04	21.06
396.23	23.41
396.42	67.88
396.62	23.41
396.81	53.83
397.00	23.41
397.19	74.90
397.39	11.70
397.58	86.60
397.77	35.11
397.97	18.72
398.16	49.15
398.35	30.43
398.55	0.00
398.74	42.13
398.93	11.70
399.12	0.00
399.32	112.35
399.51	93.62
399.70	0.00
399.90	133.41
400.09	46.81
400.28	16.38
400.47	60.85
400.67	37.45
400.86	58.51
401.05	53.83
401.24	11.70
401.44	0.00
401.63	42.13
401.82	7.02
402.01	60.85
402.21	37.45
402.40	0.00
402.59	74.90
402.78	0.00
402.97	49.15
403.17	23.41
403.36	56.17
403.55	7.02
403.74	53.83
403.93	100.64
404.13	16.38
404.32	7.02
404.51	4.68
404.70	9.36
404.89	53.83
405.09	0.00
405.28	39.79
405.47	74.90
405.66	0.00
405.85	25.75
406.05	39.79
406.24	21.06
406.43	51.49
406.62	0.00
406.81	2.34
407.00	49.15
407.20	133.41
407.39	28.09
407.58	4.68
407.77	0.00
407.96	0.00
408.15	11.70
408.34	0.00
408.54	72.56
408.73	86.60
408.92	0.00
409.11	93.62
409.30	0.00
409.49	11.70
409.68	18.72
409.87	28.09
410.07	2.34
410.26	0.00
410.45	11.70
410.64	51.49
410.83	23.41
411.02	0.00
411.21	14.04
411.40	14.04
411.59	110.01
411.78	65.54
411.98	63.19
412.17	0.00
412.36	0.00
412.55	28.09
412.74	28.09
412.93	4.68
413.12	11.70
413.31	46.81
413.50	37.45
413.69	42.13
413.88	42.13
414.07	16.38
414.26	88.94
414.45	42.13
414.64	0.00
414.83	39.79
415.02	0.00
415.22	0.00
415.41	9.36
415.60	72.56
415.79	0.00
415.98	81.92
416.17	42.13
416.36	9.36
416.55	7.02
416.74	42.13
416.93	0.00
417.12	0.00
417.31	2.34
417.50	44.47
417.69	65.54
417.88	0.00
418.07	7.02
418.26	58.51
418.45	53.83
418.64	58.51
418.83	25.75
419.02	49.15
419.21	67.88
419.39	86.60
419.58	30.43
419.77	46.81
419.96	32.77
420.15	58.51
420.34	35.11
420.53	65.54
420.72	30.43
420.91	100.64
421.10	37.45
421.29	42.13
421.48	86.60
421.67	81.92
421.86	0.00
422.05	4.68
422.24	30.43
422.43	18.72
422.61	0.00
422.80	9.36
422.99	79.58
423.18	102.98
423.37	42.13
423.56	11.70
423.75	77.24
423.94	44.47
424.13	42.13
424.32	39.79
424.50	0.00
424.69	28.09
424.88	91.28
425.07	70.22
425.26	84.26
425.45	39.79
425.64	30.43
425.83	67.88
426.01	0.00
426.20	102.98
426.39	35.11
426.58	0.00
426.77	14.04
426.96	0.00
427.15	74.90
427.33	0.00
427.52	11.70
427.71	84.26
427.90	53.83
428.09	0.00
428.28	37.45
428.46	30.43
428.65	32.77
428.84	53.83
429.03	58.51
429.22	32.77
429.40	100.64
429.59	77.24
429.78	0.00
429.97	35.11
430.16	60.85
430.34	37.45
430.53	0.00
430.72	100.64
430.91	42.13
431.10	9.36
431.28	2.34
431.47	25.75
431.66	0.00
431.85	53.83
432.03	0.00
432.22	49.15
432.41	28.09
432.60	58.51
432.79	77.24
432.97	23.41
433.16	23.41
433.35	72.56
433.54	4.68
433.72	16.38
433.91	0.00
434.10	98.30
434.28	0.00
434.47	16.38
434.66	102.98
434.85	84.26
435.03	32.77
435.22	35.11
435.41	0.00
435.59	67.88
435.78	77.24
435.97	23.41
436.16	112.35
436.34	0.00
436.53	0.00
436.72	30.43
436.90	58.51
437.09	0.00
437.28	0.00
437.46	7.02
437.65	56.17
437.84	42.13
438.02	35.11
438.21	0.00
438.40	56.17
438.58	93.62
438.77	32.77
438.96	114.69
439.14	114.69
439.33	93.62
439.52	56.17
439.70	18.72
439.89	39.79
440.08	0.00
440.26	0.00
440.45	102.98
440.63	65.54
440.82	32.77
441.01	30.43
441.19	30.43
441.38	28.09
441.57	95.96
441.75	25.75
441.94	51.49
442.12	28.09
442.31	2.34
442.50	0.00
442.68	39.79
442.87	0.00
443.05	35.11
443.24	74.90
443.43	70.22
443.61	74.90
443.80	79.58
443.98	107.66
444.17	39.79
444.35	70.22
444.54	37.45
444.73	77.24
444.91	14.04
445.10	0.00
445.28	18.72
445.47	100.64
445.65	25.75
445.84	39.79
446.02	11.70
446.21	84.26
446.39	67.88
446.58	88.94
446.77	0.00
446.95	0.00
447.14	35.11
447.32	28.09
447.51	11.70
447.69	46.81
447.88	30.43
448.06	4.68
448.25	100.64
448.43	37.45
448.62	84.26
448.80	79.58
448.99	51.49
449.17	35.11
449.36	25.75
449.54	0.00
449.73	53.83
449.91	51.49
450.10	74.90
450.28	88.94
450.46	2.34
450.65	46.81
450.83	81.92
451.02	0.00
451.20	9.36
451.39	30.43
451.57	60.85
451.76	7.02
451.94	65.54
452.13	42.13
452.31	70.22
452.49	0.00
452.68	70.22
452.86	102.98
453.05	98.30
453.23	67.88
453.42	58.51
453.60	7.02
453.78	67.88
453.97	4.68
454.15	0.00
454.34	32.77
454.52	9.36
454.70	14.04
454.89	58.51
455.07	0.00
455.26	14.04
455.44	4.68
455.62	35.11
455.81	0.00
455.99	0.00
456.17	46.81
456.36	117.03
456.54	93.62
456.73	98.30
456.91	0.00
457.09	84.26
457.28	67.88
457.46	0.00
457.64	112.35
457.83	74.90
458.01	49.15
458.19	21.06
458.38	0.00
458.56	72.56
458.74	25.75
458.93	74.90
459.11	44.47
459.29	35.11
459.48	4.68
459.66	11.70
459.84	60.85
460.03	49.15
460.21	23.41
460.39	67.88
460.57	72.56
460.76	56.17
460.94	28.09
461.12	25.75
461.31	77.24
461.49	88.94
461.67	2.34
461.85	35.11
462.04	32.77
462.22	79.58
462.40	58.51
462.59	11.70
462.77	0.00
462.95	42.13
463.13	11.70
463.32	105.32
463.50	0.00
463.68	0.00
463.86	18.72
464.05	11.70
464.23	46.81
464.41	35.11
464.59	44.47
464.78	2.34
464.96	51.49
465.14	58.51
465.32	67.88
465.50	0.00
465.69	14.04
465.87	60.85
466.05	107.66
466.23	0.00
466.41	0.00
466.60	25.75
466.78	35.11
466.96	25.75
467.14	37.45
467.32	0.00
467.51	4.68
467.69	0.00
467.87	86.60
468.05	9.36
468.23	86.60
468.41	18.72
468.60	46.81
468.78	37.45
468.96	70.22
469.14	60.85
469.32	0.00
469.50	30.43
469.69	37.45
469.87	7.02
470.05	39.79
470.23	42.13
470.41	88.94
470.59	42.13
470.77	2.34
470.95	79.58
471.14	30.43
471.32	39.79
471.50	0.00
471.68	49.15
471.86	0.00
472.04	0.00
472.22	70.22
472.40	72.56
472.58	65.54
472.77	44.47
472.95	72.56
473.13	91.28
473.31	107.66
473.49	84.26
473.67	51.49
473.85	72.56
474.03	100.64
474.21	0.00
474.39	58.51
474.57	0.00
474.75	63.19
474.93	0.00
475.12	14.04
475.30	74.90
475.48	23.41
475.66	0.00
475.84	56.17
476.02	0.00
476.20	56.17
476.38	49.15
476.56	28.09
476.74	37.45
476.92	0.00
477.10	42.13
477.28	0.00
477.46	9.36
477.64	25.75
477.82	86.60
478.00	44.47
478.18	0.00
478.36	60.85
478.54	67.88
478.72	81.92
478.90	65.54
479.08	135.75
479.26	79.58
479.44	67.88
479.62	51.49
479.80	44.47
479.98	56.17
480.16	0.00
480.34	0.00
480.52	60.85
480.70	0.00
480.88	39.79
481.06	65.54
481.24	35.11
481.41	35.11
481.59	4.68
481.77	42.13
481.95	0.00
482.13	4.68
482.31	44.47
482.49	16.38
482.67	60.85
482.85	35.11
483.03	72.56
483.21	0.00
483.39	35.11
483.57	18.72
483.74	16.38
483.92	0.00
484.10	74.90
484.28	9.36
484.46	114.69
484.64	28.09
484.82	32.77
485.00	105.32
485.18	51.49
485.35	23.41
485.53	0.00
485.71	28.09
485.89	28.09
486.07	0.00
486.25	16.38
486.43	0.00
486.61	4.68
486.78	72.56
486.96	28.09
487.14	84.26
487.32	11.70
487.50	32.77
487.68	124.05
487.85	65.54
488.03	37.45
488.21	7.02
488.39	4.68
488.57	93.62
488.75	39.79
488.92	72.56
489.10	56.17
489.28	117.03
489.46	0.00
489.64	58.51
489.81	74.90
489.99	79.58
490.17	46.81
490.35	30.43
490.53	32.77
490.70	93.62
490.88	35.11
491.06	28.09
491.24	0.00
491.41	49.15
491.59	9.36
491.77	77.24
491.95	72.56
492.13	42.13
492.30	14.04
492.48	35.11
492.66	74.90
492.84	18.72
493.01	42.13
493.19	70.22
493.37	88.94
493.54	35.11
493.72	79.58
493.90	32.77
494.08	56.17
494.25	53.83
494.43	42.13
494.61	28.09
494.79	95.96
494.96	98.30
495.14	65.54
495.32	67.88
495.49	21.06
495.67	63.19
495.85	95.96
496.02	7.02
496.20	81.92
496.38	77.24
496.55	25.75
496.73	44.47
496.91	0.00
497.09	28.09
497.26	81.92
497.44	21.06
497.62	30.43
497.79	51.49
497.97	0.00
498.14	51.49
498.32	0.00
498.50	72.56
498.67	100.64
498.85	16.38
499.03	4.68
499.20	72.56
499.38	93.62
499.56	39.79
499.73	114.69
499.91	58.51
500.08	23.41
500.26	0.00
500.44	0.00
500.61	42.13
500.79	0.00
500.97	95.96
501.14	100.64
501.32	0.00
501.49	0.00
501.67	56.17
501.84	49.15
502.02	44.47
502.20	49.15
502.37	39.79
502.55	77.24
502.72	110.01
502.90	18.72
503.07	0.00
503.25	0.00
503.43	9.36
503.60	39.79
503.78	44.47
503.95	51.49
504.13	18.72
504.30	112.35
504.48	105.32
504.65	28.09
504.83	102.98
505.01	0.00
505.18	95.96
505.36	105.32
505.53	16.38
505.71	14.04
505.88	112.35
506.06	56.17
506.23	35.11
506.41	67.88
506.58	84.26
506.76	79.58
506.93	44.47
507.11	74.90
507.28	32.77
507.46	79.58
507.63	25.75
507.81	37.45
507.98	28.09
508.16	60.85
508.33	28.09
508.50	79.58
508.68	0.00
508.85	44.47
509.03	77.24
509.20	95.96
509.38	56.17
509.55	37.45
509.73	72.56
509.90	49.15
510.08	63.19
510.25	77.24
510.42	117.03
510.60	28.09
510.77	91.28
510.95	135.75
511.12	49.15
511.30	56.17
511.47	39.79
511.64	2.34
511.82	23.41
511.99	0.00
512.17	84.26
512.34	46.81
512.51	110.01
512.69	51.49
512.86	37.45
513.04	58.51
513.21	51.49
513.38	23.41
513.56	39.79
513.73	0.00
513.90	44.47
514.08	25.75
514.25	67.88
514.43	133.41
514.60	58.51
514.77	51.49
514.95	25.75
515.12	11.70
515.29	0.00
515.47	65.54
515.64	74.90
515.81	72.56
515.99	72.56
516.16	18.72
516.33	77.24
516.51	105.32
516.68	67.88
516.85	63.19
517.03	21.06
517.20	77.24
517.37	112.35
517.54	9.36
517.72	70.22
517.89	53.83
518.06	39.79
518.24	58.51
518.41	30.43
518.58	35.11
518.75	0.00
518.93	74.90
519.10	95.96
519.27	0.00
519.45	16.38
519.62	0.00
519.79	51.49
519.96	51.49
520.14	32.77
520.31	84.26
520.48	25.75
520.65	60.85
520.83	16.38
521.00	72.56
521.17	0.00
521.34	56.17
521.52	84.26
521.69	84.26
521.86	86.60
522.03	126.39
522.20	74.90
522.38	16.38
522.55	46.81
522.72	65.54
522.89	147.45
523.07	131.07
523.24	46.81
523.41	42.13
523.58	105.32
523.75	100.64
523.92	11.70
524.10	131.07
524.27	60.85
524.44	44.47
524.61	7.02
524.78	117.03
524.96	74.90
525.13	98.30
525.30	44.47
525.47	30.43
525.64	0.00
525.81	128.73
525.98	77.24
526.16	67.88
526.33	4.68
526.50	35.11
526.67	39.79
526.84	42.13
527.01	0.00
527.18	11.70
527.36	81.92
527.53	72.56
527.70	88.94
527.87	60.85
528.04	42.13
528.21	37.45
528.38	56.17
528.55	37.45
528.72	60.85
528.89	46.81
529.07	60.85
529.24	53.83
529.41	11.70
529.58	11.70
529.75	58.51
529.92	147.45
530.09	131.07
530.26	14.04
530.43	79.58
530.60	28.09
530.77	28.09
530.94	39.79
531.11	107.66
531.28	79.58
531.46	9.36
531.63	39.79
531.80	4.68
531.97	60.85
532.14	0.00
532.31	60.85
532.48	28.09
532.65	49.15
532.82	128.73
532.99	0.00
533.16	63.19
533.33	0.00
533.50	46.81
533.67	91.28
533.84	95.96
534.01	67.88
534.18	49.15
534.35	102.98
534.52	0.00
534.69	119.37
534.86	51.49
535.03	9.36
535.20	25.75
535.37	0.00
535.54	0.00
535.71	2.34
535.88	72.56
536.05	46.81
536.22	14.04
536.38	28.09
536.55	30.43
536.72	77.24
536.89	32.77
537.06	53.83
537.23	42.13
537.40	53.83
537.57	56.17
537.74	77.24
537.91	37.45
538.08	32.77
538.25	21.06
538.42	77.24
538.59	0.00
538.75	63.19
538.92	74.90
539.09	32.77
539.26	35.11
539.43	70.22
539.60	46.81
539.77	44.47
539.94	16.38
540.11	0.00
540.28	58.51
540.44	44.47
540.61	81.92
540.78	119.37
540.95	102.98
541.12	91.28
541.29	91.28
541.46	70.22
541.62	128.73
541.79	70.22
541.96	30.43
542.13	60.85
542.30	0.00
542.47	60.85
542.63	21.06
542.80	2.34
542.97	39.79
543.14	23.41
543.31	65.54
543.48	98.30
543.64	16.38
543.81	56.17
543.98	77.24
544.15	60.85
544.32	51.49
544.48	32.77
544.65	91.28
544.82	74.90
544.99	18.72
545.16	49.15
545.32	7.02
545.49	42.13
545.66	102.98
545.83	67.88
546.00	21.06
546.16	53.83
546.33	18.72
546.50	124.05
546.67	88.94
546.83	72.56
547.00	74.90
547.17	23.41
547.34	4.68
547.50	39.79
547.67	46.81
547.84	25.75
548.00	105.32
548.17	74.90
548.34	63.19
548.51	95.96
548.67	58.51
548.84	32.77
549.01	16.38
549.18	70.22
549.34	51.49
549.51	21.06
549.68	14.04
549.84	23.41
550.01	25.75
550.18	0.00
550.34	91.28
550.51	56.17
550.68	7.02
550.84	0.00
551.01	0.00
551.18	121.71
551.34	32.77
551.51	49.15
551.68	49.15
551.84	110.01
552.01	18.72
552.18	81.92
552.34	65.54
552.51	32.77
552.68	11.70
552.84	95.96
553.01	95.96
553.18	0.00
553.34	91.28
553.51	42.13
553.67	42.13
553.84	121.71
554.01	42.13
554.17	88.94
554.34	51.49
554.51	32.77
554.67	74.90
554.84	74.90
555.00	51.49
555.17	14.04
555.33	0.00
555.50	42.13
555.67	32.77
555.83	46.81
556.00	53.83
556.16	135.75
556.33	4.68
556.50	84.26
556.66	60.85
556.83	100.64
556.99	25.75
557.16	72.56
557.32	0.00
557.49	0.00
557.65	46.81
557.82	79.58
557.98	65.54
558.15	93.62
558.32	84.26
558.48	0.00
558.65	30.43
558.81	35.11
558.98	7.02
559.14	51.49
559.31	49.15
559.47	67.88
559.64	11.70
559.80	23.41
559.97	98.30
560.13	117.03
560.30	88.94
560.46	88.94
560.63	0.00
560.79	42.13
560.96	30.43
561.12	0.00
561.29	67.88
561.45	28.09
561.61	0.00
561.78	102.98
561.94	51.49
562.11	35.11
562.27	63.19
562.44	46.81
562.60	30.43
562.77	18.72
562.93	35.11
563.10	9.36
563.26	65.54
563.42	70.22
563.59	53.83
563.75	51.49
563.92	23.41
564.08	93.62
564.24	49.15
564.41	98.30
564.57	53.83
564.74	79.58
564.90	0.00
565.07	49.15
565.23	42.13
565.39	23.41
565.56	56.17
565.72	37.45
565.88	0.00
566.05	119.37
566.21	88.94
566.38	35.11
566.54	79.58
566.70	32.77
566.87	37.45
567.03	21.06
567.19	84.26
567.36	51.49
567.52	0.00
567.68	44.47
567.85	35.11
568.01	25.75
568.17	0.00
568.34	39.79
568.50	58.51
568.66	65.54
568.83	9.36
568.99	39.79
569.15	67.88
569.32	0.00
569.48	0.00
569.64	65.54
569.81	107.66
569.97	60.85
570.13	124.05
570.30	95.96
570.46	74.90
570.62	42.13
570.78	37.45
570.95	135.75
571.11	0.00
571.27	4.68
571.43	9.36
571.60	44.47
571.76	112.35
571.92	65.54
572.09	0.00
572.25	53.83
572.41	42.13
572.57	42.13
572.74	91.28
572.90	0.00
573.06	60.85
573.22	35.11
573.38	58.51
573.55	63.19
573.71	81.92
573.87	0.00
574.03	65.54
574.20	30.43
574.36	32.77
574.52	32.77
574.68	67.88
574.84	44.47
575.01	70.22
575.17	32.77
575.33	25.75
575.49	30.43
575.65	9.36
575.82	70.22
575.98	49.15
576.14	74.90
576.30	0.00
576.46	35.11
576.62	14.04
576.79	39.79
576.95	49.15
577.11	35.11
577.27	72.56
577.43	105.32
577.59	35.11
577.75	77.24
577.92	58.51
578.08	49.15
578.24	0.00
578.40	81.92
578.56	70.22
578.72	37.45
578.88	37.45
579.04	44.47
579.21	0.00
579.37	51.49
579.53	37.45
579.69	86.60
579.85	91.28
580.01	65.54
580.17	84.26
580.33	49.15
580.49	53.83
580.65	42.13
580.82	37.45
580.98	105.32
581.14	51.49
581.30	77.24
581.46	81.92
581.62	37.45
581.78	0.00
581.94	105.32
582.10	65.54
582.26	67.88
582.42	16.38
582.58	28.09
582.74	81.92
582.90	0.00
583.06	18.72
583.22	0.00
583.38	58.51
583.54	79.58
583.70	51.49
583.86	28.09
584.02	0.00
584.18	0.00
584.34	39.79
584.50	51.49
584.66	121.71
584.82	46.81
584.98	23.41
585.14	60.85
585.30	74.90
585.46	53.83
585.62	0.00
585.78	58.51
585.94	30.43
586.10	81.92
586.26	49.15
586.42	16.38
586.58	0.00
586.74	39.79
586.90	91.28
587.06	35.11
587.22	46.81
587.38	9.36
587.54	0.00
587.70	51.49
587.86	72.56
588.02	86.60
588.18	14.04
588.34	42.13
588.49	88.94
588.65	65.54
588.81	0.00
588.97	56.17
589.13	23.41
589.29	39.79
589.45	72.56
589.61	65.54
589.77	35.11
589.93	102.98
590.08	51.49
590.24	37.45
590.40	88.94
590.56	30.43
590.72	23.41
590.88	119.37
591.04	56.17
591.20	30.43
591.35	49.15
591.51	46.81
591.67	67.88
591.83	65.54
591.99	77.24
592.15	81.92
592.31	67.88
592.46	51.49
592.62	0.00
592.78	23.41
592.94	0.00
593.10	100.64
593.26	25.75
593.41	56.17
593.57	44.47
593.73	9.36
593.89	35.11
594.05	105.32
594.20	35.11
594.36	65.54
594.52	51.49
594.68	18.72
594.84	46.81
594.99	142.77
595.15	39.79
595.31	65.54
595.47	23.41
595.62	53.83
595.78	131.07
595.94	124.05
596.10	51.49
596.25	49.15
596.41	7.02
596.57	74.90
596.73	72.56
596.88	93.62
597.04	0.00
597.20	0.00
597.36	42.13
597.51	46.81
597.67	63.19
597.83	58.51
597.99	121.71
598.14	2.34
598.30	0.00
598.46	46.81
598.61	72.56
598.77	91.28
598.93	110.01
599.09	56.17
599.24	63.19
599.40	51.49
599.56	72.56
599.71	74.90
599.87	32.77
600.03	39.79
600.18	58.51
600.34	65.54
600.50	16.38
600.65	35.11
600.81	65.54
600.97	4.68
601.12	58.51
601.28	28.09
601.44	32.77
601.59	0.00
601.75	65.54
601.91	53.83
602.06	14.04
602.22	63.19
602.37	35.11
602.53	65.54
602.69	72.56
602.84	0.00
603.00	0.00
603.16	44.47
603.31	2.34
603.47	81.92
603.62	49.15
603.78	67.88
603.94	91.28
604.09	44.47
604.25	32.77
604.40	124.05
604.56	60.85
604.71	0.00
604.87	119.37
605.03	81.92
605.18	30.43
605.34	0.00
605.49	46.81
605.65	53.83
605.80	7.02
605.96	119.37
606.12	23.41
606.27	72.56
606.43	44.47
606.58	105.32
606.74	53.83
606.89	9.36
607.05	79.58
607.20	23.41
607.36	28.09
607.51	86.60
607.67	32.77
607.82	0.00
607.98	58.51
608.13	37.45
608.29	117.03
608.44	60.85
608.60	0.00
608.75	25.75
608.91	65.54
609.06	107.66
609.22	21.06
609.37	79.58
609.53	0.00
609.68	65.54
609.84	79.58
609.99	88.94
610.15	72.56
610.30	49.15
610.46	49.15
610.61	114.69
610.76	84.26
610.92	39.79
611.07	49.15
611.23	81.92
611.38	46.81
611.54	35.11
611.69	21.06
611.84	56.17
612.00	23.41
612.15	46.81
612.31	0.00
612.46	81.92
612.62	28.09
612.77	58.51
612.92	42.13
613.08	56.17
613.23	0.00
613.39	9.36
613.54	39.79
613.69	0.00
613.85	98.30
614.00	91.28
614.15	126.39
614.31	14.04
614.46	63.19
614.62	0.00
614.77	77.24
614.92	28.09
615.08	0.00
615.23	37.45
615.38	9.36
615.54	0.00
615.69	86.60
615.84	65.54
616.00	39.79
616.15	58.51
616.30	46.81
616.46	79.58
616.61	30.43
616.76	67.88
616.92	70.22
617.07	56.17
617.22	102.98
617.37	58.51
617.53	0.00
617.68	44.47
617.83	28.09
617.99	49.15
618.14	79.58
618.29	0.00
618.45	79.58
618.60	51.49
618.75	70.22
618.90	126.39
619.06	39.79
619.21	110.01
619.36	42.13
619.51	25.75
619.67	81.92
619.82	58.51
619.97	0.00
620.12	117.03
620.28	53.83
620.43	77.24
620.58	0.00
620.73	93.62
620.89	25.75
621.04	14.04
621.19	35.11
621.34	77.24
621.49	67.88
621.65	51.49
621.80	11.70
621.95	81.92
622.10	14.04
622.25	91.28
622.41	91.28
622.56	72.56
622.71	72.56
622.86	37.45
623.01	32.77
623.16	72.56
623.32	53.83
623.47	42.13
623.62	72.56
623.77	0.00
623.92	39.79
624.07	121.71
624.23	30.43
624.38	28.09
624.53	0.00
624.68	16.38
624.83	51.49
624.98	23.41
625.13	18.72
625.29	44.47
625.44	56.17
625.59	53.83
625.74	16.38
625.89	72.56
626.04	18.72
626.19	0.00
626.34	70.22
626.49	58.51
626.65	0.00
626.80	77.24
626.95	53.83
627.10	0.00
627.25	105.32
627.40	37.45
627.55	56.17
627.70	86.60
627.85	0.00
628.00	42.13
628.15	74.90
628.30	100.64
628.45	25.75
628.60	79.58
628.76	0.00
628.91	0.00
629.06	0.00
629.21	25.75
629.36	42.13
629.51	23.41
629.66	32.77
629.81	79.58
629.96	74.90
630.11	86.60
630.26	0.00
630.41	46.81
630.56	21.06
630.71	56.17
630.86	14.04
631.01	51.49
631.16	65.54
631.31	35.11
631.46	74.90
631.61	60.85
631.76	4.68
631.91	0.00
632.06	56.17
632.21	9.36
632.36	67.88
632.51	28.09
632.66	30.43
632.81	0.00
632.96	30.43
633.10	70.22
633.25	0.00
633.40	0.00
633.55	42.13
633.70	9.36
633.85	32.77
634.00	49.15
634.15	21.06
634.30	86.60
634.45	98.30
634.60	70.22
634.75	63.19
634.90	110.01
635.05	70.22
635.19	21.06
635.34	70.22
635.49	70.22
635.64	0.00
635.79	35.11
635.94	35.11
636.09	39.79
636.24	35.11
636.39	28.09
636.53	98.30
636.68	42.13
636.83	21.06
636.98	88.94
637.13	51.49
637.28	67.88
637.43	91.28
637.57	56.17
637.72	102.98
637.87	58.51
638.02	0.00
638.17	21.06
638.32	70.22
638.46	0.00
638.61	42.13
638.76	44.47
638.91	39.79
639.06	51.49
639.20	21.06
639.35	51.49
639.50	0.00
639.65	60.85
639.80	46.81
639.94	14.04
640.09	44.47
640.24	30.43
640.39	0.00
640.54	70.22
640.68	4.68
640.83	53.83
640.98	9.36
641.13	63.19
641.27	16.38
641.42	21.06
641.57	86.60
641.72	74.90
641.86	0.00
642.01	60.85
642.16	32.77
642.31	77.24
642.45	86.60
642.60	32.77
642.75	98.30
642.90	49.15
643.04	0.00
643.19	23.41
643.34	53.83
643.48	42.13
643.63	18.72
643.78	16.38
643.93	0.00
644.07	16.38
644.22	0.00
644.37	30.43
644.51	74.90
644.66	32.77
644.81	46.81
644.95	0.00
645.10	2.34
645.25	60.85
645.39	70.22
645.54	51.49
645.69	102.98
645.83	9.36
645.98	56.17
646.13	84.26
646.27	86.60
646.42	114.69
646.57	0.00
646.71	0.00
646.86	84.26
647.00	42.13
647.15	23.41
647.30	0.00
647.44	56.17
647.59	51.49
647.74	49.15
647.88	49.15
648.03	0.00
648.17	16.38
648.32	65.54
648.47	53.83
648.61	67.88
648.76	84.26
648.90	114.69
649.05	37.45
649.20	4.68
649.34	28.09
649.49	67.88
649.63	0.00
649.78	0.00
649.92	58.51
650.07	77.24
650.21	0.00
650.36	56.17
650.51	100.64
650.65	0.00
650.80	37.45
650.94	86.60
651.09	9.36
651.23	32.77
651.38	0.00
651.52	42.13
651.67	63.19
651.81	49.15
651.96	39.79
652.10	32.77
652.25	7.02
652.39	42.13
652.54	0.00
652.68	14.04
652.83	18.72
652.97	35.11
653.12	25.75
653.26	7.02
653.41	70.22
653.55	51.49
653.70	35.11
653.84	4.68
653.99	0.00
654.13	16.38
654.27	0.00
654.42	25.75
654.56	23.41
654.71	21.06
654.85	23.41
655.00	18.72
655.14	16.38
655.29	18.72
655.43	63.19
655.57	0.00
655.72	74.90
655.86	58.51
656.01	53.83
656.15	37.45
656.30	32.77
656.44	67.88
656.58	23.41
656.73	25.75
656.87	18.72
657.01	79.58
657.16	0.00
657.30	23.41
657.45	35.11
657.59	11.70
657.73	67.88
657.88	25.75
658.02	70.22
658.16	51.49
658.31	4.68
658.45	0.00
658.60	102.98
658.74	39.79
658.88	86.60
659.03	51.49
659.17	70.22
659.31	65.54
659.46	30.43
659.60	70.22
659.74	39.79
659.89	0.00
660.03	28.09
660.17	37.45
660.32	11.70
660.46	37.45
660.60	37.45
660.74	79.58
660.89	67.88
661.03	30.43
661.17	42.13
661.32	0.00
661.46	56.17
661.60	51.49
661.74	60.85
661.89	49.15
662.03	98.30
662.17	60.85
662.31	84.26
662.46	91.28
662.60	9.36
662.74	0.00
662.88	0.00
663.03	46.81
663.17	0.00
663.31	84.26
663.45	35.11
663.60	11.70
663.74	0.00
663.88	58.51
664.02	25.75
664.17	4.68
664.31	51.49
664.45	49.15
664.59	0.00
664.73	49.15
664.88	4.68
665.02	35.11
665.16	39.79
665.30	21.06
665.44	49.15
665.59	0.00
665.73	9.36
665.87	0.00
666.01	60.85
666.15	4.68
666.29	14.04
666.44	81.92
666.58	51.49
666.72	30.43
666.86	0.00
667.00	28.09
667.14	14.04
667.28	14.04
667.43	0.00
667.57	37.45
667.71	65.54
667.85	49.15
667.99	46.81
668.13	18.72
668.27	81.92
668.41	18.72
668.56	44.47
668.70	67.88
668.84	77.24
668.98	2.34
669.12	0.00
669.26	56.17
669.40	7.02
669.54	58.51
669.68	0.00
669.82	21.06
669.96	37.45
670.10	25.75
670.25	67.88
670.39	14.04
670.53	49.15
670.67	42.13
670.81	23.41
670.95	95.96
671.09	0.00
671.23	0.00
671.37	4.68
671.51	42.13
671.65	46.81
671.79	28.09
671.93	60.85
672.07	18.72
672.21	0.00
672.35	37.45
672.49	67.88
672.63	110.01
672.77	53.83
672.91	37.45
673.05	60.85
673.19	37.45
673.33	51.49
673.47	46.81
673.61	44.47
673.75	44.47
673.89	56.17
674.03	86.60
674.17	25.75
674.31	49.15
674.45	51.49
674.59	49.15
674.73	2.34
674.87	0.00
675.01	46.81
675.15	25.75
675.29	98.30
675.43	35.11
675.56	60.85
675.70	9.36
675.84	58.51
675.98	9.36
676.12	25.75
676.26	0.00
676.40	0.00
676.54	51.49
676.68	56.17
676.82	23.41
676.96	32.77
677.10	0.00
677.23	0.00
677.37	0.00
677.51	18.72
677.65	0.00
677.79	23.41
677.93	7.02
678.07	37.45
678.21	114.69
678.34	37.45
678.48	11.70
678.62	42.13
678.76	124.05
678.90	60.85
679.04	77.24
679.18	58.51
679.31	0.00
679.45	0.00
679.59	60.85
679.73	46.81
679.87	32.77
680.00	32.77
680.14	11.70
680.28	42.13
680.42	14.04
680.56	72.56
680.70	0.00
680.83	14.04
680.97	23.41
681.11	25.75
681.25	11.70
681.39	14.04
681.52	16.38
681.66	63.19
681.80	63.19
681.94	30.43
682.07	11.70
682.21	77.24
682.35	46.81
682.49	65.54
682.62	2.34
682.76	0.00
682.90	14.04
683.04	0.00
683.17	86.60
683.31	0.00
683.45	18.72
683.59	84.26
683.72	56.17
683.86	25.75
684.00	0.00
684.13	0.00
684.27	21.06
684.41	21.06
684.55	0.00
684.68	0.00
684.82	21.06
684.96	25.75
685.09	0.00
685.23	51.49
685.37	79.58
685.50	74.90
685.64	7.02
685.78	63.19
685.91	16.38
686.05	0.00
686.19	39.79
686.32	0.00
686.46	32.77
686.60	63.19
686.73	53.83
686.87	2.34
687.01	0.00
687.14	0.00
687.28	9.36
687.42	60.85
687.55	44.47
687.69	32.77
687.82	14.04
687.96	46.81
688.10	9.36
688.23	70.22
688.37	53.83
688.50	0.00
688.64	25.75
688.78	56.17
688.91	35.11
689.05	49.15
689.18	39.79
689.32	42.13
689.46	42.13
689.59	28.09
689.73	70.22
689.86	37.45
690.00	46.81
690.13	37.45
690.27	30.43
690.41	28.09
690.54	0.00
690.68	53.83
690.81	14.04
690.95	4.68
691.08	53.83
691.22	16.38
691.35	51.49
691.49	7.02
691.62	53.83
691.76	46.81
691.89	46.81
692.03	9.36
692.16	0.00
692.30	0.00
692.43	56.17
692.57	93.62
692.70	46.81
692.84	42.13
692.97	28.09
693.11	32.77
693.24	42.13
693.38	58.51
693.51	4.68
693.65	51.49
693.78	51.49
693.92	51.49
694.05	0.00
694.19	42.13
694.32	23.41
694.45	46.81
694.59	4.68
694.72	23.41
694.86	21.06
694.99	28.09
695.13	28.09
695.26	0.00
695.39	25.75
695.53	86.60
695.66	63.19
695.80	86.60
695.93	23.41
696.07	65.54
696.20	30.43
696.33	25.75
696.47	42.13
696.60	51.49
696.73	39.79
696.87	95.96
697.00	0.00
697.14	44.47
697.27	0.00
697.40	51.49
697.54	0.00
697.67	49.15
697.80	72.56
697.94	4.68
698.07	58.51
698.21	23.41
698.34	0.00
698.47	14.04
698.61	0.00
698.74	0.00
698.87	58.51
699.01	16.38
699.14	9.36
699.27	39.79
699.40	74.90
699.54	79.58
699.67	30.43
699.80	14.04
699.94	0.00
700.07	4.68
700.20	9.36
700.34	0.00
700.47	23.41
700.60	37.45
700.73	11.70
700.87	35.11
701.00	9.36
701.13	79.58
701.26	4.68
701.40	65.54
701.53	25.75
701.66	0.00
701.79	39.79
701.93	30.43
702.06	30.43
702.19	0.00
702.32	0.00
702.46	35.11
702.59	35.11
702.72	72.56
702.85	91.28
702.99	0.00
703.12	119.37
703.25	0.00
703.38	72.56
703.51	0.00
703.65	18.72
703.78	11.70
703.91	0.00
704.04	7.02
704.17	86.60
704.31	56.17
704.44	28.09
704.57	30.43
704.70	21.06
704.83	30.43
704.96	56.17
705.10	86.60
705.23	18.72
>>>>>End Processed Spectral Data<<<<<
