SpectraSuite Data File
++++++++++++++++++++++++++++++++++++
Date: Tue Oct 01 18:25:11 GMT-05:00 2013
User: stostad
Dark Spectrum Present: No
Reference Spectrum Present: No
Number of Sampled Component Spectra: 1
Spectrometers: USB2+H05261
Integration Time (usec): 100000 (USB2+H05261)
Spectra Averaged: 1 (USB2+H05261)
Boxcar Smoothing: 0 (USB2+H05261)
Correct for Electrical Dark: No (USB2+H05261)
Strobe/Lamp Enabled: No (USB2+H05261)
Correct for Detector Non-linearity: No (USB2+H05261)
Correct for Stray Light: No (USB2+H05261)
Number of Pixels in Processed Spectrum: 2048
>>>>>Begin Processed Spectral Data<<<<<
365.73	51.49
365.92	51.49
366.12	51.49
366.32	25.75
366.52	0.00
366.72	14.04
366.91	0.00
367.11	0.00
367.31	0.00
367.51	0.00
367.70	86.60
367.90	0.00
368.10	0.00
368.30	51.49
368.49	0.00
368.69	0.00
368.89	0.00
369.09	0.00
369.28	0.00
369.48	7.02
369.68	0.00
369.87	16.38
370.07	0.00
370.27	105.32
370.47	32.77
370.66	14.04
370.86	9.36
371.06	95.96
371.25	105.32
371.45	63.19
371.65	58.51
371.84	81.92
372.04	135.75
372.24	121.71
372.44	86.60
372.63	191.92
372.83	145.11
373.03	124.05
373.22	44.47
373.42	142.77
373.62	86.60
373.81	163.84
374.01	121.71
374.21	152.13
374.40	121.71
374.60	208.31
374.79	154.48
374.99	149.79
375.19	131.07
375.38	121.71
375.58	91.28
375.78	119.37
375.97	86.60
376.17	227.03
376.37	93.62
376.56	166.18
376.76	149.79
376.95	119.37
377.15	184.90
377.35	95.96
377.54	128.73
377.74	133.41
377.93	53.83
378.13	138.09
378.33	114.69
378.52	145.11
378.72	152.13
378.91	124.05
379.11	110.01
379.31	84.26
379.50	112.35
379.70	114.69
379.89	208.31
380.09	133.41
380.28	168.52
380.48	184.90
380.68	95.96
380.87	4.68
381.07	170.86
381.26	140.43
381.46	70.22
381.65	121.71
381.85	105.32
382.04	102.98
382.24	154.48
382.43	119.37
382.63	119.37
382.83	135.75
383.02	124.05
383.22	147.45
383.41	105.32
383.61	159.16
383.80	133.41
384.00	98.30
384.19	18.72
384.39	135.75
384.58	161.50
384.78	49.15
384.97	147.45
385.17	100.64
385.36	98.30
385.56	88.94
385.75	154.48
385.95	70.22
386.14	161.50
386.34	72.56
386.53	117.03
386.72	133.41
386.92	105.32
387.11	126.39
387.31	180.22
387.50	131.07
387.70	121.71
387.89	72.56
388.09	77.24
388.28	234.05
388.48	126.39
388.67	191.92
388.86	133.41
389.06	114.69
389.25	145.11
389.45	91.28
389.64	177.88
389.84	147.45
390.03	102.98
390.22	81.92
390.42	147.45
390.61	114.69
390.81	53.83
391.00	107.66
391.19	135.75
391.39	147.45
391.58	152.13
391.78	166.18
391.97	191.92
392.16	121.71
392.36	161.50
392.55	117.03
392.75	107.66
392.94	110.01
393.13	140.43
393.33	145.11
393.52	142.77
393.71	140.43
393.91	189.58
394.10	102.98
394.29	140.43
394.49	170.86
394.68	168.52
394.88	147.45
395.07	147.45
395.26	121.71
395.46	86.60
395.65	142.77
395.84	93.62
396.04	142.77
396.23	121.71
396.42	114.69
396.62	107.66
396.81	74.90
397.00	147.45
397.19	100.64
397.39	102.98
397.58	142.77
397.77	117.03
397.97	161.50
398.16	91.28
398.35	154.48
398.55	135.75
398.74	128.73
398.93	170.86
399.12	124.05
399.32	154.48
399.51	166.18
399.70	124.05
399.90	182.56
400.09	147.45
400.28	149.79
400.47	110.01
400.67	154.48
400.86	110.01
401.05	112.35
401.24	138.09
401.44	182.56
401.63	121.71
401.82	100.64
402.01	117.03
402.21	105.32
402.40	175.54
402.59	131.07
402.78	79.58
402.97	131.07
403.17	159.16
403.36	112.35
403.55	110.01
403.74	121.71
403.93	112.35
404.13	208.31
404.32	135.75
404.51	182.56
404.70	70.22
404.89	117.03
405.09	168.52
405.28	131.07
405.47	135.75
405.66	212.99
405.85	135.75
406.05	102.98
406.24	133.41
406.43	180.22
406.62	194.26
406.81	149.79
407.00	184.90
407.20	138.09
407.39	102.98
407.58	107.66
407.77	149.79
407.96	168.52
408.15	177.88
408.34	140.43
408.54	107.66
408.73	161.50
408.92	138.09
409.11	187.24
409.30	173.20
409.49	112.35
409.68	119.37
409.87	84.26
410.07	105.32
410.26	107.66
410.45	145.11
410.64	147.45
410.83	168.52
411.02	77.24
411.21	135.75
411.40	180.22
411.59	131.07
411.78	114.69
411.98	86.60
412.17	147.45
412.36	91.28
412.55	53.83
412.74	170.86
412.93	215.33
413.12	119.37
413.31	138.09
413.50	119.37
413.69	175.54
413.88	142.77
414.07	161.50
414.26	72.56
414.45	177.88
414.64	290.23
414.83	140.43
415.02	114.69
415.22	173.20
415.41	159.16
415.60	182.56
415.79	170.86
415.98	117.03
416.17	128.73
416.36	86.60
416.55	105.32
416.74	98.30
416.93	187.24
417.12	175.54
417.31	124.05
417.50	105.32
417.69	187.24
417.88	140.43
418.07	117.03
418.26	135.75
418.45	170.86
418.64	238.73
418.83	156.82
419.02	177.88
419.21	114.69
419.39	112.35
419.58	154.48
419.77	170.86
419.96	201.29
420.15	117.03
420.34	95.96
420.53	105.32
420.72	215.33
420.91	161.50
421.10	107.66
421.29	128.73
421.48	84.26
421.67	191.92
421.86	93.62
422.05	102.98
422.24	110.01
422.43	126.39
422.61	140.43
422.80	145.11
422.99	170.86
423.18	112.35
423.37	180.22
423.56	168.52
423.75	205.97
423.94	126.39
424.13	128.73
424.32	131.07
424.50	149.79
424.69	147.45
424.88	117.03
425.07	154.48
425.26	117.03
425.45	201.29
425.64	210.65
425.83	175.54
426.01	191.92
426.20	196.60
426.39	100.64
426.58	107.66
426.77	128.73
426.96	154.48
427.15	110.01
427.33	110.01
427.52	173.20
427.71	110.01
427.90	168.52
428.09	140.43
428.28	126.39
428.46	168.52
428.65	208.31
428.84	159.16
429.03	208.31
429.22	145.11
429.40	124.05
429.59	147.45
429.78	128.73
429.97	159.16
430.16	138.09
430.34	65.54
430.53	152.13
430.72	105.32
430.91	173.20
431.10	91.28
431.28	149.79
431.47	142.77
431.66	142.77
431.85	170.86
432.03	152.13
432.22	98.30
432.41	145.11
432.60	98.30
432.79	194.26
432.97	227.03
433.16	215.33
433.35	205.97
433.54	159.16
433.72	196.60
433.91	156.82
434.10	140.43
434.28	245.76
434.47	149.79
434.66	168.52
434.85	112.35
435.03	131.07
435.22	161.50
435.41	201.29
435.59	175.54
435.78	95.96
435.97	135.75
436.16	196.60
436.34	117.03
436.53	182.56
436.72	149.79
436.90	201.29
437.09	212.99
437.28	187.24
437.46	119.37
437.65	196.60
437.84	187.24
438.02	119.37
438.21	222.35
438.40	145.11
438.58	124.05
438.77	102.98
438.96	138.09
439.14	175.54
439.33	77.24
439.52	131.07
439.70	84.26
439.89	147.45
440.08	93.62
440.26	152.13
440.45	142.77
440.63	93.62
440.82	152.13
441.01	147.45
441.19	166.18
441.38	100.64
441.57	124.05
441.75	135.75
441.94	215.33
442.12	126.39
442.31	145.11
442.50	142.77
442.68	159.16
442.87	147.45
443.05	175.54
443.24	175.54
443.43	149.79
443.61	184.90
443.80	114.69
443.98	196.60
444.17	145.11
444.35	142.77
444.54	112.35
444.73	117.03
444.91	98.30
445.10	135.75
445.28	86.60
445.47	170.86
445.65	121.71
445.84	135.75
446.02	124.05
446.21	124.05
446.39	114.69
446.58	86.60
446.77	72.56
446.95	84.26
447.14	100.64
447.32	128.73
447.51	135.75
447.69	138.09
447.88	114.69
448.06	149.79
448.25	81.92
448.43	203.63
448.62	191.92
448.80	166.18
448.99	196.60
449.17	124.05
449.36	117.03
449.54	74.90
449.73	70.22
449.91	180.22
450.10	257.46
450.28	198.95
450.46	135.75
450.65	166.18
450.83	166.18
451.02	128.73
451.20	142.77
451.39	102.98
451.57	149.79
451.76	166.18
451.94	126.39
452.13	238.73
452.31	191.92
452.49	203.63
452.68	124.05
452.86	131.07
453.05	149.79
453.23	138.09
453.42	142.77
453.60	180.22
453.78	154.48
453.97	152.13
454.15	77.24
454.34	102.98
454.52	51.49
454.70	224.69
454.89	184.90
455.07	114.69
455.26	156.82
455.44	168.52
455.62	93.62
455.81	138.09
455.99	117.03
456.17	117.03
456.36	117.03
456.54	95.96
456.73	30.43
456.91	110.01
457.09	119.37
457.28	201.29
457.46	56.17
457.64	187.24
457.83	205.97
458.01	119.37
458.19	126.39
458.38	145.11
458.56	170.86
458.74	128.73
458.93	81.92
459.11	105.32
459.29	147.45
459.48	124.05
459.66	117.03
459.84	208.31
460.03	175.54
460.21	114.69
460.39	77.24
460.57	182.56
460.76	191.92
460.94	161.50
461.12	161.50
461.31	187.24
461.49	110.01
461.67	154.48
461.85	112.35
462.04	112.35
462.22	568.75
462.40	135.75
462.59	119.37
462.77	126.39
462.95	126.39
463.13	145.11
463.32	184.90
463.50	170.86
463.68	173.20
463.86	86.60
464.05	114.69
464.23	133.41
464.41	126.39
464.59	201.29
464.78	131.07
464.96	166.18
465.14	124.05
465.32	121.71
465.50	138.09
465.69	187.24
465.87	131.07
466.05	180.22
466.23	152.13
466.41	91.28
466.60	156.82
466.78	147.45
466.96	177.88
467.14	121.71
467.32	154.48
467.51	88.94
467.69	191.92
467.87	189.58
468.05	86.60
468.23	107.66
468.41	135.75
468.60	145.11
468.78	119.37
468.96	198.95
469.14	173.20
469.32	124.05
469.50	128.73
469.69	149.79
469.87	166.18
470.05	119.37
470.23	126.39
470.41	135.75
470.59	205.97
470.77	152.13
470.95	112.35
471.14	173.20
471.32	107.66
471.50	102.98
471.68	112.35
471.86	173.20
472.04	126.39
472.22	93.62
472.40	119.37
472.58	88.94
472.77	84.26
472.95	138.09
473.13	191.92
473.31	145.11
473.49	138.09
473.67	131.07
473.85	142.77
474.03	107.66
474.21	133.41
474.39	170.86
474.57	194.26
474.75	154.48
474.93	98.30
475.12	74.90
475.30	152.13
475.48	110.01
475.66	175.54
475.84	133.41
476.02	63.19
476.20	177.88
476.38	156.82
476.56	140.43
476.74	147.45
476.92	149.79
477.10	84.26
477.28	201.29
477.46	44.47
477.64	154.48
477.82	121.71
478.00	133.41
478.18	180.22
478.36	124.05
478.54	170.86
478.72	156.82
478.90	133.41
479.08	88.94
479.26	112.35
479.44	70.22
479.62	161.50
479.80	117.03
479.98	107.66
480.16	105.32
480.34	159.16
480.52	124.05
480.70	173.20
480.88	152.13
481.06	163.84
481.24	42.13
481.41	88.94
481.59	88.94
481.77	177.88
481.95	163.84
482.13	126.39
482.31	86.60
482.49	112.35
482.67	88.94
482.85	145.11
483.03	49.15
483.21	149.79
483.39	201.29
483.57	114.69
483.74	128.73
483.92	149.79
484.10	53.83
484.28	126.39
484.46	138.09
484.64	133.41
484.82	163.84
485.00	161.50
485.18	105.32
485.35	70.22
485.53	98.30
485.71	112.35
485.89	152.13
486.07	107.66
486.25	238.73
486.43	180.22
486.61	187.24
486.78	37.45
486.96	138.09
487.14	119.37
487.32	79.58
487.50	110.01
487.68	147.45
487.85	124.05
488.03	168.52
488.21	124.05
488.39	117.03
488.57	212.99
488.75	149.79
488.92	210.65
489.10	191.92
489.28	184.90
489.46	128.73
489.64	133.41
489.81	149.79
489.99	131.07
490.17	138.09
490.35	194.26
490.53	93.62
490.70	100.64
490.88	124.05
491.06	133.41
491.24	166.18
491.41	140.43
491.59	201.29
491.77	161.50
491.95	107.66
492.13	128.73
492.30	184.90
492.48	79.58
492.66	39.79
492.84	138.09
493.01	170.86
493.19	142.77
493.37	145.11
493.54	145.11
493.72	135.75
493.90	100.64
494.08	72.56
494.25	98.30
494.43	105.32
494.61	84.26
494.79	119.37
494.96	37.45
495.14	110.01
495.32	105.32
495.49	173.20
495.67	163.84
495.85	142.77
496.02	84.26
496.20	198.95
496.38	168.52
496.55	131.07
496.73	140.43
496.91	161.50
497.09	147.45
497.26	135.75
497.44	135.75
497.62	117.03
497.79	177.88
497.97	102.98
498.14	102.98
498.32	121.71
498.50	159.16
498.67	93.62
498.85	131.07
499.03	81.92
499.20	159.16
499.38	133.41
499.56	131.07
499.73	163.84
499.91	182.56
500.08	154.48
500.26	105.32
500.44	86.60
500.61	196.60
500.79	152.13
500.97	128.73
501.14	175.54
501.32	81.92
501.49	88.94
501.67	173.20
501.84	159.16
502.02	107.66
502.20	175.54
502.37	208.31
502.55	212.99
502.72	149.79
502.90	135.75
503.07	189.58
503.25	100.64
503.43	121.71
503.60	170.86
503.78	121.71
503.95	98.30
504.13	149.79
504.30	189.58
504.48	187.24
504.65	227.03
504.83	135.75
505.01	67.88
505.18	248.10
505.36	124.05
505.53	124.05
505.71	117.03
505.88	147.45
506.06	131.07
506.23	196.60
506.41	177.88
506.58	163.84
506.76	161.50
506.93	91.28
507.11	133.41
507.28	128.73
507.46	154.48
507.63	91.28
507.81	65.54
507.98	194.26
508.16	159.16
508.33	131.07
508.50	180.22
508.68	149.79
508.85	124.05
509.03	159.16
509.20	124.05
509.38	140.43
509.55	238.73
509.73	168.52
509.90	152.13
510.08	72.56
510.25	128.73
510.42	159.16
510.60	149.79
510.77	51.49
510.95	205.97
511.12	147.45
511.30	259.80
511.47	166.18
511.64	100.64
511.82	184.90
511.99	112.35
512.17	112.35
512.34	124.05
512.51	98.30
512.69	177.88
512.86	152.13
513.04	102.98
513.21	189.58
513.38	110.01
513.56	46.81
513.73	147.45
513.90	133.41
514.08	112.35
514.25	208.31
514.43	140.43
514.60	53.83
514.77	205.97
514.95	145.11
515.12	126.39
515.29	173.20
515.47	152.13
515.64	70.22
515.81	180.22
515.99	187.24
516.16	163.84
516.33	196.60
516.51	262.14
516.68	170.86
516.85	180.22
517.03	198.95
517.20	177.88
517.37	152.13
517.54	138.09
517.72	135.75
517.89	131.07
518.06	117.03
518.24	194.26
518.41	133.41
518.58	191.92
518.75	133.41
518.93	145.11
519.10	133.41
519.27	119.37
519.45	131.07
519.62	159.16
519.79	79.58
519.96	105.32
520.14	173.20
520.31	173.20
520.48	156.82
520.65	117.03
520.83	177.88
521.00	149.79
521.17	112.35
521.34	91.28
521.52	170.86
521.69	128.73
521.86	156.82
522.03	210.65
522.20	117.03
522.38	166.18
522.55	168.52
522.72	86.60
522.89	166.18
523.07	217.67
523.24	147.45
523.41	135.75
523.58	81.92
523.75	147.45
523.92	70.22
524.10	152.13
524.27	191.92
524.44	58.51
524.61	72.56
524.78	60.85
524.96	170.86
525.13	138.09
525.30	117.03
525.47	140.43
525.64	110.01
525.81	149.79
525.98	152.13
526.16	107.66
526.33	147.45
526.50	67.88
526.67	131.07
526.84	159.16
527.01	119.37
527.18	128.73
527.36	107.66
527.53	86.60
527.70	126.39
527.87	149.79
528.04	187.24
528.21	121.71
528.38	119.37
528.55	154.48
528.72	182.56
528.89	145.11
529.07	131.07
529.24	84.26
529.41	210.65
529.58	145.11
529.75	140.43
529.92	114.69
530.09	145.11
530.26	91.28
530.43	173.20
530.60	67.88
530.77	114.69
530.94	201.29
531.11	138.09
531.28	182.56
531.46	159.16
531.63	145.11
531.80	154.48
531.97	138.09
532.14	131.07
532.31	142.77
532.48	175.54
532.65	266.82
532.82	163.84
532.99	224.69
533.16	194.26
533.33	147.45
533.50	220.01
533.67	196.60
533.84	280.86
534.01	231.71
534.18	166.18
534.35	215.33
534.52	114.69
534.69	201.29
534.86	110.01
535.03	107.66
535.20	105.32
535.37	180.22
535.54	154.48
535.71	196.60
535.88	166.18
536.05	131.07
536.22	117.03
536.38	91.28
536.55	152.13
536.72	205.97
536.89	56.17
537.06	156.82
537.23	84.26
537.40	72.56
537.57	135.75
537.74	119.37
537.91	112.35
538.08	133.41
538.25	175.54
538.42	124.05
538.59	131.07
538.75	156.82
538.92	91.28
539.09	112.35
539.26	145.11
539.43	327.68
539.60	702.16
539.77	992.39
539.94	784.08
540.11	428.32
540.28	313.63
540.44	149.79
540.61	121.71
540.78	126.39
540.95	102.98
541.12	149.79
541.29	110.01
541.46	208.31
541.62	191.92
541.79	175.54
541.96	173.20
542.13	95.96
542.30	100.64
542.47	138.09
542.63	126.39
542.80	198.95
542.97	231.71
543.14	182.56
543.31	159.16
543.48	220.01
543.64	110.01
543.81	142.77
543.98	135.75
544.15	140.43
544.32	147.45
544.48	217.67
544.65	124.05
544.82	152.13
544.99	119.37
545.16	180.22
545.32	93.62
545.49	110.01
545.66	138.09
545.83	79.58
546.00	23.41
546.16	79.58
546.33	135.75
546.50	187.24
546.67	180.22
546.83	58.51
547.00	121.71
547.17	117.03
547.34	110.01
547.50	168.52
547.67	131.07
547.84	196.60
548.00	168.52
548.17	93.62
548.34	114.69
548.51	220.01
548.67	163.84
548.84	138.09
549.01	198.95
549.18	147.45
549.34	126.39
549.51	168.52
549.68	170.86
549.84	205.97
550.01	175.54
550.18	220.01
550.34	210.65
550.51	135.75
550.68	159.16
550.84	110.01
551.01	138.09
551.18	65.54
551.34	173.20
551.51	170.86
551.68	149.79
551.84	138.09
552.01	128.73
552.18	159.16
552.34	163.84
552.51	124.05
552.68	142.77
552.84	184.90
553.01	243.42
553.18	117.03
553.34	131.07
553.51	114.69
553.67	131.07
553.84	161.50
554.01	222.35
554.17	198.95
554.34	184.90
554.51	119.37
554.67	131.07
554.84	203.63
555.00	161.50
555.17	131.07
555.33	107.66
555.50	149.79
555.67	147.45
555.83	173.20
556.00	79.58
556.16	311.29
556.33	173.20
556.50	173.20
556.66	224.69
556.83	121.71
556.99	147.45
557.16	142.77
557.32	145.11
557.49	208.31
557.65	105.32
557.82	147.45
557.98	142.77
558.15	86.60
558.32	126.39
558.48	95.96
558.65	131.07
558.81	140.43
558.98	170.86
559.14	159.16
559.31	149.79
559.47	88.94
559.64	170.86
559.80	203.63
559.97	182.56
560.13	154.48
560.30	95.96
560.46	161.50
560.63	180.22
560.79	112.35
560.96	91.28
561.12	161.50
561.29	187.24
561.45	194.26
561.61	51.49
561.78	163.84
561.94	184.90
562.11	149.79
562.27	140.43
562.44	147.45
562.60	91.28
562.77	203.63
562.93	236.39
563.10	194.26
563.26	161.50
563.42	180.22
563.59	74.90
563.75	133.41
563.92	142.77
564.08	159.16
564.24	152.13
564.41	189.58
564.57	133.41
564.74	175.54
564.90	156.82
565.07	133.41
565.23	203.63
565.39	180.22
565.56	126.39
565.72	112.35
565.88	154.48
566.05	180.22
566.21	124.05
566.38	180.22
566.54	131.07
566.70	77.24
566.87	100.64
567.03	133.41
567.19	126.39
567.36	173.20
567.52	138.09
567.68	138.09
567.85	79.58
568.01	110.01
568.17	60.85
568.34	67.88
568.50	138.09
568.66	46.81
568.83	159.16
568.99	175.54
569.15	156.82
569.32	145.11
569.48	168.52
569.64	131.07
569.81	149.79
569.97	58.51
570.13	145.11
570.30	154.48
570.46	131.07
570.62	154.48
570.78	67.88
570.95	91.28
571.11	166.18
571.27	184.90
571.43	191.92
571.60	208.31
571.76	138.09
571.92	182.56
572.09	95.96
572.25	124.05
572.41	135.75
572.57	138.09
572.74	189.58
572.90	131.07
573.06	135.75
573.22	210.65
573.38	196.60
573.55	215.33
573.71	138.09
573.87	187.24
574.03	100.64
574.20	170.86
574.36	168.52
574.52	280.86
574.68	161.50
574.84	168.52
575.01	182.56
575.17	161.50
575.33	133.41
575.49	142.77
575.65	262.14
575.82	390.87
575.98	393.21
576.14	435.34
576.30	362.78
576.46	341.72
576.62	205.97
576.79	177.88
576.95	234.05
577.11	135.75
577.27	84.26
577.43	84.26
577.59	201.29
577.75	182.56
577.92	124.05
578.08	128.73
578.24	196.60
578.40	168.52
578.56	203.63
578.72	231.71
578.88	180.22
579.04	184.90
579.21	175.54
579.37	177.88
579.53	145.11
579.69	271.50
579.85	252.78
580.01	189.58
580.17	224.69
580.33	208.31
580.49	238.73
580.65	203.63
580.82	236.39
580.98	161.50
581.14	173.20
581.30	299.59
581.46	325.33
581.62	355.76
581.78	386.19
581.94	299.59
582.10	266.82
582.26	327.68
582.42	318.31
582.58	250.44
582.74	259.80
582.90	210.65
583.06	245.76
583.22	257.46
583.38	341.72
583.54	262.14
583.70	425.98
583.86	393.21
584.02	477.47
584.18	627.26
584.34	1226.44
584.50	8102.93
584.66	28833.06
584.82	48079.28
584.98	49792.56
585.14	31576.17
585.30	16589.72
585.46	7955.48
585.62	3157.38
585.78	1423.05
585.94	856.64
586.10	594.50
586.26	411.93
586.42	418.96
586.58	339.38
586.74	358.10
586.90	334.70
587.06	318.31
587.22	330.02
587.38	454.06
587.54	1474.54
587.70	3096.53
587.86	3953.16
588.02	2967.80
588.18	1783.49
588.34	999.41
588.49	552.37
588.65	355.76
588.81	248.10
588.97	283.20
589.13	229.37
589.29	217.67
589.45	203.63
589.61	210.65
589.77	285.55
589.93	215.33
590.08	311.29
590.24	344.06
590.40	252.78
590.56	241.08
590.72	187.24
590.88	196.60
591.04	166.18
591.20	210.65
591.35	222.35
591.51	231.71
591.67	156.82
591.83	149.79
591.99	245.76
592.15	217.67
592.31	212.99
592.46	238.73
592.62	194.26
592.78	128.73
592.94	147.45
593.10	205.97
593.26	191.92
593.41	191.92
593.57	252.78
593.73	1263.89
593.89	3698.05
594.05	6239.87
594.20	6258.59
594.36	4112.32
594.52	2532.46
594.68	1397.30
594.84	739.61
594.99	411.93
595.15	198.95
595.31	191.92
595.47	238.73
595.62	231.71
595.78	114.69
595.94	198.95
596.10	191.92
596.25	245.76
596.41	264.48
596.57	170.86
596.73	287.89
596.88	688.12
597.04	1196.01
597.20	1650.08
597.36	1231.12
597.51	755.99
597.67	526.62
597.83	320.65
597.99	290.23
598.14	149.79
598.30	269.16
598.46	180.22
598.61	248.10
598.77	257.46
598.93	201.29
599.09	201.29
599.24	203.63
599.40	147.45
599.56	135.75
599.71	198.95
599.87	168.52
600.03	128.73
600.18	156.82
600.34	159.16
600.50	182.56
600.65	180.22
600.81	79.58
600.97	189.58
601.12	161.50
601.28	217.67
601.44	156.82
601.59	163.84
601.75	191.92
601.91	205.97
602.06	203.63
602.22	519.60
602.37	1020.47
602.53	1533.05
602.69	1685.19
602.84	1277.93
603.00	807.48
603.16	486.83
603.31	360.44
603.47	203.63
603.62	102.98
603.78	149.79
603.94	194.26
604.09	126.39
604.25	241.08
604.40	191.92
604.56	149.79
604.71	114.69
604.87	131.07
605.03	149.79
605.18	191.92
605.34	91.28
605.49	194.26
605.65	241.08
605.80	163.84
605.96	259.80
606.12	227.03
606.27	205.97
606.43	255.12
606.58	638.97
606.74	1914.56
606.89	3824.44
607.05	5088.32
607.20	4212.96
607.36	2848.43
607.51	1781.15
607.67	1076.65
607.82	599.18
607.98	397.89
608.13	306.61
608.29	285.55
608.44	238.73
608.60	257.46
608.75	873.02
608.91	3035.67
609.06	6630.74
609.22	8919.78
609.37	7456.95
609.53	5093.01
609.68	3274.41
609.84	1823.28
609.99	929.19
610.15	519.60
610.30	379.17
610.46	327.68
610.61	257.46
610.76	220.01
610.92	266.82
611.07	196.60
611.23	250.44
611.38	262.14
611.54	201.29
611.69	166.18
611.84	161.50
612.00	168.52
612.15	241.08
612.31	416.62
612.46	428.32
612.62	437.68
612.77	334.70
612.92	266.82
613.08	299.59
613.23	290.23
613.39	667.05
613.54	3246.32
613.69	8315.92
613.85	13572.77
614.00	13532.98
614.15	9753.01
614.31	6263.27
614.46	3896.99
614.62	1914.56
614.77	964.30
614.92	526.62
615.08	386.19
615.23	327.68
615.38	367.46
615.54	716.20
615.69	1823.28
615.84	3075.46
616.00	3824.44
616.15	2923.33
616.30	1973.07
616.46	1268.57
616.61	821.53
616.76	414.27
616.92	360.44
617.07	224.69
617.22	262.14
617.37	156.82
617.53	234.05
617.68	231.71
617.83	180.22
617.99	229.37
618.14	220.01
618.29	227.03
618.45	217.67
618.60	170.86
618.75	187.24
618.90	135.75
619.06	215.33
619.21	170.86
619.36	196.60
619.51	140.43
619.67	187.24
619.82	205.97
619.97	138.09
620.12	131.07
620.28	105.32
620.43	175.54
620.58	227.03
620.73	189.58
620.89	355.76
621.04	978.34
621.19	1813.92
621.34	2127.55
621.49	1804.55
621.65	1277.93
621.80	971.32
621.95	596.84
622.10	358.10
622.25	196.60
622.41	182.56
622.56	201.29
622.71	161.50
622.86	168.52
623.01	184.90
623.16	198.95
623.32	135.75
623.47	138.09
623.62	175.54
623.77	152.13
623.92	135.75
624.07	168.52
624.23	168.52
624.38	210.65
624.53	173.20
624.68	191.92
624.83	205.97
624.98	154.48
625.13	159.16
625.29	182.56
625.44	170.86
625.59	229.37
625.74	489.17
625.89	1907.54
626.04	4400.21
626.19	6979.48
626.34	6836.70
626.49	5294.29
626.65	3365.69
626.80	2265.64
626.95	1263.89
627.10	657.69
627.25	353.42
627.40	196.60
627.55	175.54
627.70	198.95
627.85	212.99
628.00	163.84
628.15	175.54
628.30	114.69
628.45	133.41
628.60	163.84
628.76	140.43
628.91	210.65
629.06	175.54
629.21	184.90
629.36	203.63
629.51	156.82
629.66	433.00
629.81	901.11
629.96	1619.65
630.11	1825.62
630.26	1584.54
630.41	1125.80
630.56	816.85
630.71	559.39
630.86	276.18
631.01	196.60
631.16	187.24
631.31	220.01
631.46	224.69
631.61	250.44
631.76	262.14
631.91	187.24
632.06	198.95
632.21	210.65
632.36	243.42
632.51	318.31
632.66	1036.86
632.81	2511.39
632.96	4276.16
633.10	4676.39
633.25	3744.86
633.40	2513.74
633.55	1713.27
633.70	1139.84
633.85	603.86
634.00	393.21
634.15	255.12
634.30	236.39
634.45	220.01
634.60	220.01
634.75	133.41
634.90	156.82
635.05	170.86
635.19	217.67
635.34	166.18
635.49	177.88
635.64	107.66
635.79	161.50
635.94	166.18
636.09	273.84
636.24	189.58
636.39	201.29
636.53	234.05
636.68	227.03
636.83	201.29
636.98	212.99
637.13	168.52
637.28	304.27
637.43	716.20
637.57	2874.18
637.72	5776.44
637.87	8690.41
638.02	7932.08
638.17	5968.37
638.32	4222.33
638.46	2794.60
638.61	1586.88
638.76	791.10
638.91	517.26
639.06	365.12
639.20	411.93
639.35	1006.43
639.50	3992.95
639.65	8837.86
639.80	13268.50
639.94	12542.93
640.09	9460.45
640.24	6342.85
640.39	4191.90
640.54	2256.28
640.68	1032.18
640.83	692.80
640.98	430.66
641.13	301.93
641.27	238.73
641.42	236.39
641.57	215.33
641.72	196.60
641.86	142.77
642.01	166.18
642.16	203.63
642.31	119.37
642.45	163.84
642.60	182.56
642.75	131.07
642.90	175.54
643.04	135.75
643.19	126.39
643.34	140.43
643.48	154.48
643.63	117.03
643.78	159.16
643.93	212.99
644.07	166.18
644.22	205.97
644.37	131.07
644.51	154.48
644.66	81.92
644.81	152.13
644.95	194.26
645.10	110.01
645.25	152.13
645.39	168.52
645.54	121.71
645.69	215.33
645.83	159.16
645.98	161.50
646.13	201.29
646.27	194.26
646.42	161.50
646.57	114.69
646.71	93.62
646.86	138.09
647.00	154.48
647.15	187.24
647.30	149.79
647.44	110.01
647.59	128.73
647.74	168.52
647.88	191.92
648.03	147.45
648.17	163.84
648.32	210.65
648.47	210.65
648.61	119.37
648.76	131.07
648.90	234.05
649.05	142.77
649.20	102.98
649.34	163.84
649.49	110.01
649.63	198.95
649.78	428.32
649.92	1687.53
650.07	4086.58
650.21	6303.06
650.36	7070.76
650.51	5305.99
650.65	3845.50
650.80	2417.77
650.94	1479.22
651.09	772.38
651.23	437.68
651.38	306.61
651.52	212.99
651.67	147.45
651.81	196.60
651.96	229.37
652.10	189.58
652.25	243.42
652.39	273.84
652.54	533.64
652.68	1280.27
652.83	2200.10
652.97	2647.15
653.12	2125.21
653.26	1572.84
653.41	1107.07
653.55	645.99
653.70	407.25
653.84	210.65
653.99	311.29
654.13	135.75
654.27	98.30
654.42	135.75
654.56	133.41
654.71	133.41
654.85	196.60
655.00	91.28
655.14	163.84
655.29	77.24
655.43	140.43
655.57	149.79
655.72	51.49
655.86	145.11
656.01	126.39
656.15	114.69
656.30	194.26
656.44	180.22
656.58	156.82
656.73	133.41
656.87	102.98
657.01	154.48
657.16	196.60
657.30	180.22
657.45	205.97
657.59	166.18
657.73	131.07
657.88	159.16
658.02	184.90
658.16	138.09
658.31	124.05
658.45	121.71
658.60	159.16
658.74	74.90
658.88	173.20
659.03	238.73
659.17	786.42
659.31	1774.13
659.46	3110.57
659.60	3599.74
659.74	3192.49
659.89	2165.00
660.03	1495.60
660.17	877.70
660.32	444.70
660.46	348.74
660.60	269.16
660.74	161.50
660.89	149.79
661.03	166.18
661.17	147.45
661.32	217.67
661.46	88.94
661.60	222.35
661.74	154.48
661.89	208.31
662.03	201.29
662.17	81.92
662.31	67.88
662.46	184.90
662.60	198.95
662.74	215.33
662.88	257.46
663.03	210.65
663.17	128.73
663.31	210.65
663.45	182.56
663.60	110.01
663.74	229.37
663.88	177.88
664.02	189.58
664.17	159.16
664.31	74.90
664.45	180.22
664.59	147.45
664.73	154.48
664.88	196.60
665.02	145.11
665.16	163.84
665.30	177.88
665.44	149.79
665.59	222.35
665.73	170.86
665.87	161.50
666.01	166.18
666.15	147.45
666.29	173.20
666.44	163.84
666.58	189.58
666.72	238.73
666.86	234.05
667.00	428.32
667.14	1401.98
667.28	3372.71
667.43	5518.98
667.57	6623.72
667.71	5116.41
667.85	3559.95
667.99	2218.83
668.13	1198.35
668.27	739.61
668.41	521.94
668.56	334.70
668.70	273.84
668.84	147.45
668.98	173.20
669.12	180.22
669.26	227.03
669.40	287.89
669.54	175.54
669.68	191.92
669.82	175.54
669.96	180.22
670.10	124.05
670.25	168.52
670.39	184.90
670.53	177.88
670.67	229.37
670.81	170.86
670.95	528.96
671.09	1416.02
671.23	2672.89
671.37	3939.12
671.51	3796.35
671.65	2998.23
671.79	1827.96
671.93	1177.29
672.07	713.86
672.21	428.32
672.35	290.23
672.49	241.08
672.63	208.31
672.77	166.18
672.91	191.92
673.05	110.01
673.19	198.95
673.33	168.52
673.47	215.33
673.61	154.48
673.75	189.58
673.89	110.01
674.03	208.31
674.17	194.26
674.31	175.54
674.45	212.99
674.59	140.43
674.73	201.29
674.87	194.26
675.01	177.88
675.15	126.39
675.29	210.65
675.43	140.43
675.56	231.71
675.70	147.45
675.84	187.24
675.98	182.56
676.12	110.01
676.26	119.37
676.40	159.16
676.54	194.26
676.68	175.54
676.82	161.50
676.96	117.03
677.10	107.66
677.23	121.71
677.37	105.32
677.51	98.30
677.65	217.67
677.79	126.39
677.93	189.58
678.07	191.92
678.21	140.43
678.34	142.77
678.48	135.75
678.62	184.90
678.76	217.67
678.90	117.03
679.04	152.13
679.18	119.37
679.31	88.94
679.45	79.58
679.59	84.26
679.73	177.88
679.87	133.41
680.00	126.39
680.14	175.54
680.28	168.52
680.42	126.39
680.56	220.01
680.70	114.69
680.83	110.01
680.97	119.37
681.11	154.48
681.25	126.39
681.39	149.79
681.52	126.39
681.66	159.16
681.80	138.09
681.94	112.35
682.07	205.97
682.21	131.07
682.35	163.84
682.49	105.32
682.62	177.88
682.76	161.50
682.90	131.07
683.04	166.18
683.17	93.62
683.31	81.92
683.45	154.48
683.59	161.50
683.72	196.60
683.86	149.79
684.00	194.26
684.13	128.73
684.27	173.20
684.41	166.18
684.55	131.07
684.68	182.56
684.82	117.03
684.96	159.16
685.09	140.43
685.23	147.45
685.37	147.45
685.50	117.03
685.64	98.30
685.78	156.82
685.91	227.03
686.05	135.75
686.19	147.45
686.32	135.75
686.46	161.50
686.60	112.35
686.73	299.59
686.87	229.37
687.01	231.71
687.14	152.13
687.28	105.32
687.42	112.35
687.55	140.43
687.69	210.65
687.82	142.77
687.96	154.48
688.10	166.18
688.23	182.56
688.37	220.01
688.50	175.54
688.64	126.39
688.78	145.11
688.91	156.82
689.05	135.75
689.18	163.84
689.32	203.63
689.46	58.51
689.59	149.79
689.73	196.60
689.86	163.84
690.00	142.77
690.13	177.88
690.27	168.52
690.41	124.05
690.54	224.69
690.68	145.11
690.81	105.32
690.95	138.09
691.08	180.22
691.22	191.92
691.35	124.05
691.49	203.63
691.62	154.48
691.76	196.60
691.89	170.86
692.03	161.50
692.16	210.65
692.30	552.37
692.43	1313.04
692.57	2242.23
692.70	2808.64
692.84	2335.85
692.97	1863.07
693.11	1369.21
693.24	1020.47
693.38	737.27
693.51	463.43
693.65	442.36
693.78	198.95
693.92	276.18
694.05	227.03
694.19	147.45
694.32	203.63
694.45	175.54
694.59	180.22
694.72	149.79
694.86	168.52
694.99	156.82
695.13	135.75
695.26	138.09
695.39	156.82
695.53	182.56
695.66	86.60
695.80	110.01
695.93	250.44
696.07	273.84
696.20	287.89
696.33	299.59
696.47	278.52
696.60	250.44
696.73	250.44
696.87	189.58
697.00	231.71
697.14	208.31
697.27	168.52
697.40	248.10
697.54	149.79
697.67	154.48
697.80	152.13
697.94	86.60
698.07	194.26
698.21	67.88
698.34	194.26
698.47	138.09
698.61	135.75
698.74	119.37
698.87	203.63
699.01	194.26
699.14	191.92
699.27	74.90
699.40	124.05
699.54	168.52
699.67	184.90
699.80	138.09
699.94	140.43
700.07	156.82
700.20	124.05
700.34	147.45
700.47	145.11
700.60	170.86
700.73	114.69
700.87	170.86
701.00	194.26
701.13	168.52
701.26	166.18
701.40	145.11
701.53	133.41
701.66	128.73
701.79	238.73
701.93	257.46
702.06	344.06
702.19	301.93
702.32	322.99
702.46	318.31
702.59	671.73
702.72	1659.44
702.85	3286.11
702.99	4559.36
703.12	5226.42
703.25	4386.16
703.38	3726.13
703.51	3042.70
703.65	2172.02
703.78	1453.47
703.91	1008.77
704.04	683.44
704.17	348.74
704.31	299.59
704.44	217.67
704.57	245.76
704.70	210.65
704.83	177.88
704.96	156.82
705.10	154.48
705.23	147.45
>>>>>End Processed Spectral Data<<<<<
