SpectraSuite Data File
++++++++++++++++++++++++++++++++++++
Date: Fri Oct 04 12:13:33 GMT-05:00 2013
User: price-jones
Dark Spectrum Present: No
Reference Spectrum Present: No
Number of Sampled Component Spectra: 1
Spectrometers: USB2+H05261
Integration Time (usec): 10000 (USB2+H05261)
Spectra Averaged: 1 (USB2+H05261)
Boxcar Smoothing: 0 (USB2+H05261)
Correct for Electrical Dark: No (USB2+H05261)
Strobe/Lamp Enabled: No (USB2+H05261)
Correct for Detector Non-linearity: No (USB2+H05261)
Correct for Stray Light: No (USB2+H05261)
Number of Pixels in Processed Spectrum: 2048
>>>>>Begin Processed Spectral Data<<<<<
365.73	0.00
365.92	0.00
366.12	0.00
366.32	0.00
366.52	0.00
366.72	0.00
366.91	0.00
367.11	0.00
367.31	0.00
367.51	0.00
367.70	0.00
367.90	0.00
368.10	0.00
368.30	0.00
368.49	0.00
368.69	0.00
368.89	0.00
369.09	0.00
369.28	0.00
369.48	0.00
369.68	0.00
369.87	0.00
370.07	0.00
370.27	4.68
370.47	0.00
370.66	0.00
370.86	0.00
371.06	37.45
371.25	0.00
371.45	0.00
371.65	0.00
371.84	0.00
372.04	0.00
372.24	51.49
372.44	35.11
372.63	23.41
372.83	0.00
373.03	23.41
373.22	67.88
373.42	28.09
373.62	39.79
373.81	42.13
374.01	7.02
374.21	30.43
374.40	21.06
374.60	4.68
374.79	0.00
374.99	9.36
375.19	30.43
375.38	28.09
375.58	11.70
375.78	0.00
375.97	60.85
376.17	14.04
376.37	30.43
376.56	32.77
376.76	0.00
376.95	98.30
377.15	63.19
377.35	30.43
377.54	0.00
377.74	67.88
377.93	0.00
378.13	0.00
378.33	9.36
378.52	0.00
378.72	35.11
378.91	30.43
379.11	65.54
379.31	30.43
379.50	2.34
379.70	9.36
379.89	30.43
380.09	35.11
380.28	0.00
380.48	56.17
380.68	7.02
380.87	2.34
381.07	37.45
381.26	9.36
381.46	30.43
381.65	56.17
381.85	65.54
382.04	63.19
382.24	23.41
382.43	0.00
382.63	0.00
382.83	0.00
383.02	0.00
383.22	14.04
383.41	0.00
383.61	0.00
383.80	14.04
384.00	49.15
384.19	39.79
384.39	65.54
384.58	77.24
384.78	49.15
384.97	79.58
385.17	32.77
385.36	79.58
385.56	18.72
385.75	0.00
385.95	37.45
386.14	70.22
386.34	11.70
386.53	23.41
386.72	53.83
386.92	0.00
387.11	4.68
387.31	0.00
387.50	30.43
387.70	11.70
387.89	44.47
388.09	42.13
388.28	72.56
388.48	84.26
388.67	65.54
388.86	18.72
389.06	46.81
389.25	86.60
389.45	7.02
389.64	63.19
389.84	0.00
390.03	0.00
390.22	39.79
390.42	0.00
390.61	39.79
390.81	70.22
391.00	7.02
391.19	28.09
391.39	0.00
391.58	81.92
391.78	0.00
391.97	46.81
392.16	39.79
392.36	0.00
392.55	37.45
392.75	44.47
392.94	0.00
393.13	23.41
393.33	39.79
393.52	11.70
393.71	28.09
393.91	42.13
394.10	81.92
394.29	35.11
394.49	0.00
394.68	0.00
394.88	46.81
395.07	16.38
395.26	65.54
395.46	0.00
395.65	21.06
395.84	0.00
396.04	86.60
396.23	42.13
396.42	81.92
396.62	0.00
396.81	65.54
397.00	21.06
397.19	46.81
397.39	4.68
397.58	14.04
397.77	11.70
397.97	0.00
398.16	0.00
398.35	0.00
398.55	0.00
398.74	77.24
398.93	7.02
399.12	46.81
399.32	35.11
399.51	9.36
399.70	81.92
399.90	49.15
400.09	0.00
400.28	23.41
400.47	0.00
400.67	0.00
400.86	14.04
401.05	46.81
401.24	0.00
401.44	0.00
401.63	28.09
401.82	58.51
402.01	0.00
402.21	0.00
402.40	0.00
402.59	21.06
402.78	91.28
402.97	7.02
403.17	81.92
403.36	0.00
403.55	46.81
403.74	0.00
403.93	30.43
404.13	25.75
404.32	44.47
404.51	0.00
404.70	0.00
404.89	0.00
405.09	44.47
405.28	0.00
405.47	86.60
405.66	30.43
405.85	49.15
406.05	0.00
406.24	35.11
406.43	100.64
406.62	16.38
406.81	32.77
407.00	4.68
407.20	30.43
407.39	44.47
407.58	9.36
407.77	0.00
407.96	58.51
408.15	28.09
408.34	58.51
408.54	16.38
408.73	60.85
408.92	9.36
409.11	28.09
409.30	0.00
409.49	46.81
409.68	21.06
409.87	67.88
410.07	0.00
410.26	32.77
410.45	42.13
410.64	0.00
410.83	49.15
411.02	11.70
411.21	37.45
411.40	0.00
411.59	0.00
411.78	21.06
411.98	37.45
412.17	56.17
412.36	35.11
412.55	72.56
412.74	79.58
412.93	37.45
413.12	0.00
413.31	28.09
413.50	14.04
413.69	4.68
413.88	18.72
414.07	51.49
414.26	28.09
414.45	23.41
414.64	0.00
414.83	0.00
415.02	25.75
415.22	16.38
415.41	51.49
415.60	7.02
415.79	46.81
415.98	93.62
416.17	114.69
416.36	0.00
416.55	0.00
416.74	7.02
416.93	37.45
417.12	39.79
417.31	25.75
417.50	49.15
417.69	72.56
417.88	0.00
418.07	0.00
418.26	32.77
418.45	21.06
418.64	42.13
418.83	65.54
419.02	30.43
419.21	102.98
419.39	18.72
419.58	42.13
419.77	37.45
419.96	65.54
420.15	67.88
420.34	53.83
420.53	51.49
420.72	30.43
420.91	9.36
421.10	30.43
421.29	39.79
421.48	49.15
421.67	0.00
421.86	0.00
422.05	0.00
422.24	16.38
422.43	0.00
422.61	32.77
422.80	44.47
422.99	16.38
423.18	42.13
423.37	23.41
423.56	0.00
423.75	35.11
423.94	25.75
424.13	49.15
424.32	39.79
424.50	30.43
424.69	51.49
424.88	0.00
425.07	21.06
425.26	56.17
425.45	37.45
425.64	0.00
425.83	77.24
426.01	44.47
426.20	4.68
426.39	49.15
426.58	44.47
426.77	14.04
426.96	72.56
427.15	84.26
427.33	81.92
427.52	51.49
427.71	70.22
427.90	0.00
428.09	0.00
428.28	88.94
428.46	7.02
428.65	7.02
428.84	44.47
429.03	28.09
429.22	7.02
429.40	67.88
429.59	65.54
429.78	0.00
429.97	60.85
430.16	84.26
430.34	25.75
430.53	60.85
430.72	25.75
430.91	30.43
431.10	23.41
431.28	58.51
431.47	79.58
431.66	18.72
431.85	2.34
432.03	84.26
432.22	126.39
432.41	25.75
432.60	93.62
432.79	0.00
432.97	32.77
433.16	81.92
433.35	72.56
433.54	53.83
433.72	23.41
433.91	32.77
434.10	16.38
434.28	84.26
434.47	0.00
434.66	0.00
434.85	56.17
435.03	138.09
435.22	0.00
435.41	28.09
435.59	58.51
435.78	0.00
435.97	56.17
436.16	63.19
436.34	51.49
436.53	0.00
436.72	37.45
436.90	0.00
437.09	49.15
437.28	42.13
437.46	84.26
437.65	60.85
437.84	86.60
438.02	102.98
438.21	65.54
438.40	0.00
438.58	37.45
438.77	70.22
438.96	35.11
439.14	25.75
439.33	18.72
439.52	0.00
439.70	18.72
439.89	18.72
440.08	74.90
440.26	32.77
440.45	51.49
440.63	35.11
440.82	23.41
441.01	0.00
441.19	18.72
441.38	53.83
441.57	53.83
441.75	42.13
441.94	0.00
442.12	0.00
442.31	46.81
442.50	44.47
442.68	0.00
442.87	65.54
443.05	0.00
443.24	16.38
443.43	60.85
443.61	46.81
443.80	0.00
443.98	23.41
444.17	0.00
444.35	65.54
444.54	0.00
444.73	0.00
444.91	98.30
445.10	23.41
445.28	25.75
445.47	0.00
445.65	72.56
445.84	11.70
446.02	0.00
446.21	42.13
446.39	18.72
446.58	35.11
446.77	21.06
446.95	81.92
447.14	46.81
447.32	67.88
447.51	114.69
447.69	0.00
447.88	0.00
448.06	21.06
448.25	86.60
448.43	86.60
448.62	28.09
448.80	117.03
448.99	0.00
449.17	28.09
449.36	39.79
449.54	23.41
449.73	9.36
449.91	32.77
450.10	46.81
450.28	65.54
450.46	32.77
450.65	46.81
450.83	95.96
451.02	28.09
451.20	58.51
451.39	56.17
451.57	77.24
451.76	23.41
451.94	0.00
452.13	72.56
452.31	7.02
452.49	49.15
452.68	58.51
452.86	25.75
453.05	0.00
453.23	0.00
453.42	23.41
453.60	0.00
453.78	0.00
453.97	18.72
454.15	0.00
454.34	0.00
454.52	0.00
454.70	14.04
454.89	18.72
455.07	44.47
455.26	44.47
455.44	67.88
455.62	39.79
455.81	79.58
455.99	0.00
456.17	30.43
456.36	0.00
456.54	70.22
456.73	23.41
456.91	46.81
457.09	23.41
457.28	88.94
457.46	63.19
457.64	74.90
457.83	9.36
458.01	28.09
458.19	44.47
458.38	88.94
458.56	0.00
458.74	18.72
458.93	32.77
459.11	0.00
459.29	44.47
459.48	0.00
459.66	44.47
459.84	35.11
460.03	77.24
460.21	9.36
460.39	16.38
460.57	49.15
460.76	56.17
460.94	44.47
461.12	70.22
461.31	32.77
461.49	81.92
461.67	53.83
461.85	74.90
462.04	21.06
462.22	98.30
462.40	65.54
462.59	25.75
462.77	93.62
462.95	11.70
463.13	53.83
463.32	91.28
463.50	60.85
463.68	14.04
463.86	18.72
464.05	53.83
464.23	18.72
464.41	100.64
464.59	79.58
464.78	37.45
464.96	84.26
465.14	11.70
465.32	0.00
465.50	70.22
465.69	72.56
465.87	39.79
466.05	53.83
466.23	16.38
466.41	86.60
466.60	30.43
466.78	30.43
466.96	25.75
467.14	21.06
467.32	72.56
467.51	39.79
467.69	114.69
467.87	65.54
468.05	25.75
468.23	77.24
468.41	84.26
468.60	21.06
468.78	39.79
468.96	23.41
469.14	91.28
469.32	46.81
469.50	51.49
469.69	0.00
469.87	37.45
470.05	37.45
470.23	49.15
470.41	25.75
470.59	56.17
470.77	131.07
470.95	23.41
471.14	72.56
471.32	44.47
471.50	18.72
471.68	0.00
471.86	16.38
472.04	0.00
472.22	98.30
472.40	51.49
472.58	37.45
472.77	56.17
472.95	4.68
473.13	23.41
473.31	84.26
473.49	23.41
473.67	56.17
473.85	53.83
474.03	131.07
474.21	0.00
474.39	16.38
474.57	56.17
474.75	72.56
474.93	49.15
475.12	0.00
475.30	46.81
475.48	84.26
475.66	39.79
475.84	63.19
476.02	42.13
476.20	21.06
476.38	23.41
476.56	70.22
476.74	46.81
476.92	77.24
477.10	11.70
477.28	37.45
477.46	51.49
477.64	51.49
477.82	44.47
478.00	107.66
478.18	105.32
478.36	7.02
478.54	51.49
478.72	46.81
478.90	46.81
479.08	0.00
479.26	32.77
479.44	58.51
479.62	56.17
479.80	23.41
479.98	77.24
480.16	23.41
480.34	0.00
480.52	81.92
480.70	60.85
480.88	49.15
481.06	0.00
481.24	142.77
481.41	42.13
481.59	0.00
481.77	42.13
481.95	0.00
482.13	11.70
482.31	81.92
482.49	25.75
482.67	0.00
482.85	4.68
483.03	65.54
483.21	37.45
483.39	39.79
483.57	30.43
483.74	21.06
483.92	28.09
484.10	11.70
484.28	0.00
484.46	18.72
484.64	42.13
484.82	28.09
485.00	37.45
485.18	16.38
485.35	46.81
485.53	23.41
485.71	46.81
485.89	37.45
486.07	93.62
486.25	18.72
486.43	58.51
486.61	72.56
486.78	88.94
486.96	32.77
487.14	21.06
487.32	0.00
487.50	28.09
487.68	84.26
487.85	60.85
488.03	0.00
488.21	18.72
488.39	0.00
488.57	51.49
488.75	88.94
488.92	84.26
489.10	67.88
489.28	63.19
489.46	18.72
489.64	49.15
489.81	74.90
489.99	58.51
490.17	67.88
490.35	56.17
490.53	72.56
490.70	23.41
490.88	37.45
491.06	51.49
491.24	0.00
491.41	56.17
491.59	56.17
491.77	23.41
491.95	21.06
492.13	30.43
492.30	0.00
492.48	14.04
492.66	53.83
492.84	0.00
493.01	0.00
493.19	74.90
493.37	30.43
493.54	30.43
493.72	65.54
493.90	58.51
494.08	77.24
494.25	37.45
494.43	35.11
494.61	0.00
494.79	81.92
494.96	0.00
495.14	51.49
495.32	58.51
495.49	28.09
495.67	60.85
495.85	39.79
496.02	44.47
496.20	51.49
496.38	0.00
496.55	32.77
496.73	35.11
496.91	0.00
497.09	79.58
497.26	0.00
497.44	86.60
497.62	84.26
497.79	44.47
497.97	60.85
498.14	42.13
498.32	0.00
498.50	51.49
498.67	51.49
498.85	63.19
499.03	0.00
499.20	0.00
499.38	98.30
499.56	86.60
499.73	56.17
499.91	2.34
500.08	0.00
500.26	4.68
500.44	7.02
500.61	51.49
500.79	4.68
500.97	0.00
501.14	46.81
501.32	18.72
501.49	18.72
501.67	0.00
501.84	16.38
502.02	32.77
502.20	88.94
502.37	65.54
502.55	138.09
502.72	63.19
502.90	0.00
503.07	28.09
503.25	51.49
503.43	2.34
503.60	42.13
503.78	35.11
503.95	46.81
504.13	42.13
504.30	51.49
504.48	46.81
504.65	100.64
504.83	72.56
505.01	4.68
505.18	35.11
505.36	11.70
505.53	14.04
505.71	14.04
505.88	67.88
506.06	23.41
506.23	49.15
506.41	0.00
506.58	0.00
506.76	93.62
506.93	58.51
507.11	32.77
507.28	21.06
507.46	58.51
507.63	117.03
507.81	65.54
507.98	46.81
508.16	0.00
508.33	67.88
508.50	60.85
508.68	49.15
508.85	25.75
509.03	37.45
509.20	18.72
509.38	30.43
509.55	86.60
509.73	37.45
509.90	35.11
510.08	37.45
510.25	0.00
510.42	23.41
510.60	16.38
510.77	67.88
510.95	9.36
511.12	28.09
511.30	53.83
511.47	65.54
511.64	9.36
511.82	60.85
511.99	0.00
512.17	91.28
512.34	0.00
512.51	0.00
512.69	2.34
512.86	46.81
513.04	131.07
513.21	67.88
513.38	11.70
513.56	93.62
513.73	88.94
513.90	70.22
514.08	107.66
514.25	0.00
514.43	0.00
514.60	53.83
514.77	44.47
514.95	9.36
515.12	98.30
515.29	79.58
515.47	63.19
515.64	67.88
515.81	77.24
515.99	79.58
516.16	84.26
516.33	63.19
516.51	42.13
516.68	4.68
516.85	51.49
517.03	81.92
517.20	67.88
517.37	63.19
517.54	7.02
517.72	0.00
517.89	14.04
518.06	0.00
518.24	67.88
518.41	9.36
518.58	91.28
518.75	42.13
518.93	0.00
519.10	58.51
519.27	49.15
519.45	18.72
519.62	88.94
519.79	105.32
519.96	16.38
520.14	93.62
520.31	30.43
520.48	49.15
520.65	21.06
520.83	60.85
521.00	35.11
521.17	14.04
521.34	67.88
521.52	102.98
521.69	4.68
521.86	70.22
522.03	114.69
522.20	37.45
522.38	11.70
522.55	25.75
522.72	39.79
522.89	70.22
523.07	81.92
523.24	23.41
523.41	0.00
523.58	0.00
523.75	18.72
523.92	117.03
524.10	46.81
524.27	86.60
524.44	51.49
524.61	39.79
524.78	72.56
524.96	39.79
525.13	60.85
525.30	63.19
525.47	28.09
525.64	23.41
525.81	0.00
525.98	56.17
526.16	0.00
526.33	21.06
526.50	65.54
526.67	60.85
526.84	60.85
527.01	39.79
527.18	49.15
527.36	81.92
527.53	32.77
527.70	32.77
527.87	53.83
528.04	74.90
528.21	0.00
528.38	4.68
528.55	53.83
528.72	11.70
528.89	18.72
529.07	70.22
529.24	21.06
529.41	0.00
529.58	70.22
529.75	84.26
529.92	0.00
530.09	16.38
530.26	77.24
530.43	23.41
530.60	0.00
530.77	44.47
530.94	93.62
531.11	39.79
531.28	121.71
531.46	16.38
531.63	23.41
531.80	84.26
531.97	25.75
532.14	42.13
532.31	147.45
532.48	98.30
532.65	63.19
532.82	49.15
532.99	67.88
533.16	58.51
533.33	51.49
533.50	7.02
533.67	84.26
533.84	7.02
534.01	163.84
534.18	0.00
534.35	70.22
534.52	86.60
534.69	42.13
534.86	32.77
535.03	51.49
535.20	60.85
535.37	63.19
535.54	0.00
535.71	60.85
535.88	0.00
536.05	30.43
536.22	119.37
536.38	35.11
536.55	93.62
536.72	65.54
536.89	79.58
537.06	63.19
537.23	63.19
537.40	112.35
537.57	100.64
537.74	81.92
537.91	0.00
538.08	25.75
538.25	102.98
538.42	0.00
538.59	39.79
538.75	32.77
538.92	93.62
539.09	65.54
539.26	63.19
539.43	114.69
539.60	28.09
539.77	32.77
539.94	49.15
540.11	79.58
540.28	9.36
540.44	51.49
540.61	9.36
540.78	32.77
540.95	63.19
541.12	39.79
541.29	72.56
541.46	86.60
541.62	126.39
541.79	51.49
541.96	112.35
542.13	124.05
542.30	42.13
542.47	46.81
542.63	9.36
542.80	46.81
542.97	58.51
543.14	86.60
543.31	35.11
543.48	65.54
543.64	79.58
543.81	84.26
543.98	72.56
544.15	0.00
544.32	14.04
544.48	49.15
544.65	81.92
544.82	65.54
544.99	79.58
545.16	84.26
545.32	37.45
545.49	39.79
545.66	63.19
545.83	142.77
546.00	77.24
546.16	14.04
546.33	58.51
546.50	56.17
546.67	28.09
546.83	63.19
547.00	49.15
547.17	79.58
547.34	4.68
547.50	149.79
547.67	44.47
547.84	28.09
548.00	79.58
548.17	37.45
548.34	67.88
548.51	79.58
548.67	21.06
548.84	44.47
549.01	70.22
549.18	88.94
549.34	70.22
549.51	0.00
549.68	4.68
549.84	86.60
550.01	46.81
550.18	0.00
550.34	25.75
550.51	58.51
550.68	135.75
550.84	88.94
551.01	39.79
551.18	117.03
551.34	28.09
551.51	35.11
551.68	65.54
551.84	7.02
552.01	46.81
552.18	39.79
552.34	30.43
552.51	46.81
552.68	0.00
552.84	91.28
553.01	30.43
553.18	30.43
553.34	32.77
553.51	46.81
553.67	11.70
553.84	70.22
554.01	42.13
554.17	70.22
554.34	49.15
554.51	23.41
554.67	21.06
554.84	32.77
555.00	14.04
555.17	14.04
555.33	32.77
555.50	0.00
555.67	16.38
555.83	67.88
556.00	46.81
556.16	70.22
556.33	42.13
556.50	74.90
556.66	46.81
556.83	21.06
556.99	84.26
557.16	35.11
557.32	46.81
557.49	81.92
557.65	11.70
557.82	18.72
557.98	23.41
558.15	117.03
558.32	4.68
558.48	42.13
558.65	39.79
558.81	39.79
558.98	16.38
559.14	58.51
559.31	0.00
559.47	28.09
559.64	53.83
559.80	46.81
559.97	56.17
560.13	0.00
560.30	56.17
560.46	51.49
560.63	11.70
560.79	25.75
560.96	4.68
561.12	65.54
561.29	114.69
561.45	0.00
561.61	0.00
561.78	28.09
561.94	46.81
562.11	65.54
562.27	21.06
562.44	2.34
562.60	74.90
562.77	63.19
562.93	74.90
563.10	7.02
563.26	70.22
563.42	35.11
563.59	0.00
563.75	7.02
563.92	51.49
564.08	32.77
564.24	35.11
564.41	84.26
564.57	0.00
564.74	21.06
564.90	2.34
565.07	9.36
565.23	25.75
565.39	28.09
565.56	4.68
565.72	14.04
565.88	11.70
566.05	58.51
566.21	63.19
566.38	133.41
566.54	88.94
566.70	58.51
566.87	14.04
567.03	60.85
567.19	51.49
567.36	51.49
567.52	16.38
567.68	16.38
567.85	14.04
568.01	21.06
568.17	72.56
568.34	42.13
568.50	35.11
568.66	56.17
568.83	46.81
568.99	124.05
569.15	18.72
569.32	2.34
569.48	0.00
569.64	23.41
569.81	81.92
569.97	53.83
570.13	81.92
570.30	35.11
570.46	95.96
570.62	63.19
570.78	49.15
570.95	67.88
571.11	67.88
571.27	30.43
571.43	63.19
571.60	63.19
571.76	60.85
571.92	0.00
572.09	14.04
572.25	51.49
572.41	49.15
572.57	91.28
572.74	58.51
572.90	30.43
573.06	0.00
573.22	0.00
573.38	37.45
573.55	100.64
573.71	79.58
573.87	25.75
574.03	25.75
574.20	28.09
574.36	65.54
574.52	81.92
574.68	58.51
574.84	81.92
575.01	65.54
575.17	91.28
575.33	46.81
575.49	79.58
575.65	0.00
575.82	65.54
575.98	9.36
576.14	37.45
576.30	23.41
576.46	95.96
576.62	25.75
576.79	98.30
576.95	25.75
577.11	72.56
577.27	0.00
577.43	58.51
577.59	0.00
577.75	0.00
577.92	58.51
578.08	95.96
578.24	39.79
578.40	44.47
578.56	117.03
578.72	72.56
578.88	65.54
579.04	60.85
579.21	2.34
579.37	35.11
579.53	119.37
579.69	100.64
579.85	95.96
580.01	11.70
580.17	0.00
580.33	35.11
580.49	107.66
580.65	0.00
580.82	46.81
580.98	102.98
581.14	39.79
581.30	93.62
581.46	23.41
581.62	0.00
581.78	149.79
581.94	79.58
582.10	58.51
582.26	98.30
582.42	32.77
582.58	42.13
582.74	18.72
582.90	25.75
583.06	114.69
583.22	44.47
583.38	28.09
583.54	25.75
583.70	51.49
583.86	86.60
584.02	65.54
584.18	44.47
584.34	58.51
584.50	56.17
584.66	58.51
584.82	51.49
584.98	60.85
585.14	58.51
585.30	32.77
585.46	25.75
585.62	44.47
585.78	0.00
585.94	14.04
586.10	105.32
586.26	49.15
586.42	46.81
586.58	23.41
586.74	9.36
586.90	58.51
587.06	100.64
587.22	30.43
587.38	0.00
587.54	4.68
587.70	67.88
587.86	63.19
588.02	63.19
588.18	65.54
588.34	88.94
588.49	72.56
588.65	60.85
588.81	0.00
588.97	0.00
589.13	0.00
589.29	32.77
589.45	91.28
589.61	79.58
589.77	37.45
589.93	2.34
590.08	65.54
590.24	65.54
590.40	18.72
590.56	77.24
590.72	7.02
590.88	56.17
591.04	0.00
591.20	37.45
591.35	25.75
591.51	35.11
591.67	42.13
591.83	0.00
591.99	14.04
592.15	37.45
592.31	16.38
592.46	25.75
592.62	44.47
592.78	42.13
592.94	70.22
593.10	11.70
593.26	74.90
593.41	42.13
593.57	51.49
593.73	2.34
593.89	37.45
594.05	23.41
594.20	110.01
594.36	74.90
594.52	25.75
594.68	81.92
594.84	39.79
594.99	16.38
595.15	0.00
595.31	18.72
595.47	18.72
595.62	77.24
595.78	28.09
595.94	4.68
596.10	46.81
596.25	32.77
596.41	88.94
596.57	28.09
596.73	35.11
596.88	35.11
597.04	0.00
597.20	14.04
597.36	37.45
597.51	14.04
597.67	0.00
597.83	74.90
597.99	110.01
598.14	63.19
598.30	93.62
598.46	110.01
598.61	0.00
598.77	79.58
598.93	67.88
599.09	46.81
599.24	32.77
599.40	56.17
599.56	0.00
599.71	9.36
599.87	98.30
600.03	28.09
600.18	79.58
600.34	25.75
600.50	2.34
600.65	100.64
600.81	63.19
600.97	32.77
601.12	79.58
601.28	46.81
601.44	0.00
601.59	44.47
601.75	39.79
601.91	32.77
602.06	58.51
602.22	91.28
602.37	37.45
602.53	18.72
602.69	63.19
602.84	84.26
603.00	21.06
603.16	49.15
603.31	81.92
603.47	56.17
603.62	11.70
603.78	9.36
603.94	0.00
604.09	79.58
604.25	60.85
604.40	14.04
604.56	18.72
604.71	14.04
604.87	16.38
605.03	42.13
605.18	51.49
605.34	46.81
605.49	28.09
605.65	74.90
605.80	0.00
605.96	0.00
606.12	77.24
606.27	0.00
606.43	0.00
606.58	88.94
606.74	88.94
606.89	49.15
607.05	53.83
607.20	14.04
607.36	21.06
607.51	81.92
607.67	102.98
607.82	0.00
607.98	21.06
608.13	23.41
608.29	14.04
608.44	53.83
608.60	53.83
608.75	119.37
608.91	0.00
609.06	44.47
609.22	30.43
609.37	18.72
609.53	102.98
609.68	2.34
609.84	32.77
609.99	84.26
610.15	49.15
610.30	18.72
610.46	9.36
610.61	58.51
610.76	46.81
610.92	67.88
611.07	70.22
611.23	100.64
611.38	0.00
611.54	51.49
611.69	49.15
611.84	72.56
612.00	7.02
612.15	51.49
612.31	11.70
612.46	51.49
612.62	11.70
612.77	0.00
612.92	51.49
613.08	60.85
613.23	63.19
613.39	91.28
613.54	51.49
613.69	18.72
613.85	65.54
614.00	46.81
614.15	58.51
614.31	102.98
614.46	0.00
614.62	18.72
614.77	28.09
614.92	65.54
615.08	72.56
615.23	23.41
615.38	35.11
615.54	0.00
615.69	88.94
615.84	79.58
616.00	63.19
616.15	81.92
616.30	32.77
616.46	44.47
616.61	23.41
616.76	95.96
616.92	98.30
617.07	46.81
617.22	0.00
617.37	21.06
617.53	74.90
617.68	11.70
617.83	21.06
617.99	23.41
618.14	51.49
618.29	0.00
618.45	53.83
618.60	126.39
618.75	37.45
618.90	37.45
619.06	14.04
619.21	58.51
619.36	46.81
619.51	63.19
619.67	105.32
619.82	117.03
619.97	9.36
620.12	14.04
620.28	35.11
620.43	60.85
620.58	93.62
620.73	60.85
620.89	0.00
621.04	0.00
621.19	25.75
621.34	7.02
621.49	53.83
621.65	58.51
621.80	58.51
621.95	42.13
622.10	42.13
622.25	67.88
622.41	81.92
622.56	44.47
622.71	140.43
622.86	0.00
623.01	46.81
623.16	86.60
623.32	0.00
623.47	11.70
623.62	2.34
623.77	18.72
623.92	0.00
624.07	39.79
624.23	28.09
624.38	0.00
624.53	37.45
624.68	7.02
624.83	14.04
624.98	35.11
625.13	11.70
625.29	23.41
625.44	46.81
625.59	35.11
625.74	58.51
625.89	114.69
626.04	39.79
626.19	28.09
626.34	35.11
626.49	0.00
626.65	4.68
626.80	42.13
626.95	35.11
627.10	0.00
627.25	0.00
627.40	18.72
627.55	46.81
627.70	44.47
627.85	91.28
628.00	39.79
628.15	67.88
628.30	67.88
628.45	21.06
628.60	86.60
628.76	32.77
628.91	9.36
629.06	37.45
629.21	51.49
629.36	44.47
629.51	9.36
629.66	44.47
629.81	60.85
629.96	35.11
630.11	72.56
630.26	14.04
630.41	44.47
630.56	42.13
630.71	16.38
630.86	0.00
631.01	63.19
631.16	0.00
631.31	86.60
631.46	37.45
631.61	84.26
631.76	9.36
631.91	53.83
632.06	2.34
632.21	18.72
632.36	88.94
632.51	16.38
632.66	65.54
632.81	98.30
632.96	126.39
633.10	126.39
633.25	67.88
633.40	110.01
633.55	86.60
633.70	37.45
633.85	30.43
634.00	32.77
634.15	16.38
634.30	35.11
634.45	46.81
634.60	88.94
634.75	53.83
634.90	86.60
635.05	88.94
635.19	25.75
635.34	81.92
635.49	135.75
635.64	98.30
635.79	35.11
635.94	37.45
636.09	91.28
636.24	112.35
636.39	32.77
636.53	49.15
636.68	25.75
636.83	60.85
636.98	18.72
637.13	0.00
637.28	37.45
637.43	98.30
637.57	0.00
637.72	53.83
637.87	30.43
638.02	100.64
638.17	46.81
638.32	44.47
638.46	65.54
638.61	14.04
638.76	28.09
638.91	28.09
639.06	39.79
639.20	58.51
639.35	63.19
639.50	23.41
639.65	37.45
639.80	37.45
639.94	25.75
640.09	133.41
640.24	128.73
640.39	79.58
640.54	65.54
640.68	119.37
640.83	37.45
640.98	46.81
641.13	18.72
641.27	70.22
641.42	2.34
641.57	86.60
641.72	86.60
641.86	7.02
642.01	88.94
642.16	102.98
642.31	0.00
642.45	81.92
642.60	53.83
642.75	63.19
642.90	56.17
643.04	23.41
643.19	44.47
643.34	58.51
643.48	79.58
643.63	0.00
643.78	42.13
643.93	100.64
644.07	58.51
644.22	18.72
644.37	79.58
644.51	60.85
644.66	0.00
644.81	0.00
644.95	98.30
645.10	72.56
645.25	0.00
645.39	0.00
645.54	0.00
645.69	100.64
645.83	0.00
645.98	0.00
646.13	56.17
646.27	0.00
646.42	11.70
646.57	28.09
646.71	44.47
646.86	16.38
647.00	67.88
647.15	28.09
647.30	4.68
647.44	65.54
647.59	65.54
647.74	0.00
647.88	67.88
648.03	72.56
648.17	9.36
648.32	11.70
648.47	58.51
648.61	49.15
648.76	91.28
648.90	42.13
649.05	28.09
649.20	25.75
649.34	32.77
649.49	4.68
649.63	44.47
649.78	84.26
649.92	53.83
650.07	53.83
650.21	51.49
650.36	37.45
650.51	88.94
650.65	70.22
650.80	67.88
650.94	9.36
651.09	60.85
651.23	37.45
651.38	30.43
651.52	0.00
651.67	4.68
651.81	53.83
651.96	51.49
652.10	56.17
652.25	79.58
652.39	88.94
652.54	74.90
652.68	58.51
652.83	53.83
652.97	0.00
653.12	72.56
653.26	37.45
653.41	14.04
653.55	7.02
653.70	46.81
653.84	4.68
653.99	114.69
654.13	0.00
654.27	0.00
654.42	32.77
654.56	65.54
654.71	65.54
654.85	44.47
655.00	58.51
655.14	44.47
655.29	42.13
655.43	42.13
655.57	58.51
655.72	4.68
655.86	4.68
656.01	44.47
656.15	65.54
656.30	0.00
656.44	23.41
656.58	60.85
656.73	30.43
656.87	44.47
657.01	44.47
657.16	0.00
657.30	23.41
657.45	7.02
657.59	53.83
657.73	79.58
657.88	21.06
658.02	0.00
658.16	56.17
658.31	0.00
658.45	0.00
658.60	70.22
658.74	46.81
658.88	0.00
659.03	63.19
659.17	79.58
659.31	0.00
659.46	0.00
659.60	98.30
659.74	9.36
659.89	0.00
660.03	42.13
660.17	65.54
660.32	56.17
660.46	79.58
660.60	112.35
660.74	86.60
660.89	88.94
661.03	37.45
661.17	42.13
661.32	72.56
661.46	7.02
661.60	39.79
661.74	11.70
661.89	63.19
662.03	0.00
662.17	0.00
662.31	30.43
662.46	42.13
662.60	14.04
662.74	93.62
662.88	32.77
663.03	79.58
663.17	9.36
663.31	42.13
663.45	21.06
663.60	110.01
663.74	39.79
663.88	0.00
664.02	18.72
664.17	2.34
664.31	46.81
664.45	56.17
664.59	53.83
664.73	23.41
664.88	0.00
665.02	0.00
665.16	14.04
665.30	49.15
665.44	63.19
665.59	28.09
665.73	49.15
665.87	7.02
666.01	25.75
666.15	53.83
666.29	42.13
666.44	77.24
666.58	11.70
666.72	60.85
666.86	58.51
667.00	37.45
667.14	42.13
667.28	9.36
667.43	35.11
667.57	9.36
667.71	44.47
667.85	2.34
667.99	74.90
668.13	42.13
668.27	53.83
668.41	58.51
668.56	0.00
668.70	63.19
668.84	58.51
668.98	9.36
669.12	21.06
669.26	46.81
669.40	25.75
669.54	0.00
669.68	28.09
669.82	0.00
669.96	49.15
670.10	28.09
670.25	105.32
670.39	56.17
670.53	117.03
670.67	67.88
670.81	11.70
670.95	37.45
671.09	0.00
671.23	21.06
671.37	58.51
671.51	7.02
671.65	21.06
671.79	67.88
671.93	77.24
672.07	81.92
672.21	23.41
672.35	0.00
672.49	21.06
672.63	100.64
672.77	42.13
672.91	74.90
673.05	32.77
673.19	14.04
673.33	0.00
673.47	2.34
673.61	0.00
673.75	102.98
673.89	11.70
674.03	56.17
674.17	84.26
674.31	46.81
674.45	0.00
674.59	74.90
674.73	39.79
674.87	67.88
675.01	37.45
675.15	49.15
675.29	44.47
675.43	49.15
675.56	11.70
675.70	51.49
675.84	74.90
675.98	53.83
676.12	72.56
676.26	128.73
676.40	44.47
676.54	60.85
676.68	42.13
676.82	0.00
676.96	0.00
677.10	28.09
677.23	74.90
677.37	84.26
677.51	79.58
677.65	18.72
677.79	25.75
677.93	0.00
678.07	51.49
678.21	18.72
678.34	0.00
678.48	98.30
678.62	14.04
678.76	44.47
678.90	53.83
679.04	21.06
679.18	18.72
679.31	84.26
679.45	70.22
679.59	0.00
679.73	0.00
679.87	21.06
680.00	0.00
680.14	51.49
680.28	72.56
680.42	30.43
680.56	30.43
680.70	25.75
680.83	11.70
680.97	32.77
681.11	49.15
681.25	88.94
681.39	25.75
681.52	70.22
681.66	21.06
681.80	74.90
681.94	51.49
682.07	53.83
682.21	0.00
682.35	42.13
682.49	32.77
682.62	88.94
682.76	4.68
682.90	32.77
683.04	0.00
683.17	23.41
683.31	60.85
683.45	0.00
683.59	32.77
683.72	67.88
683.86	72.56
684.00	56.17
684.13	4.68
684.27	56.17
684.41	128.73
684.55	60.85
684.68	100.64
684.82	51.49
684.96	79.58
685.09	121.71
685.23	28.09
685.37	0.00
685.50	91.28
685.64	100.64
685.78	51.49
685.91	0.00
686.05	42.13
686.19	67.88
686.32	51.49
686.46	2.34
686.60	65.54
686.73	39.79
686.87	37.45
687.01	0.00
687.14	0.00
687.28	0.00
687.42	32.77
687.55	0.00
687.69	74.90
687.82	2.34
687.96	0.00
688.10	11.70
688.23	37.45
688.37	35.11
688.50	0.00
688.64	16.38
688.78	11.70
688.91	32.77
689.05	0.00
689.18	77.24
689.32	98.30
689.46	42.13
689.59	72.56
689.73	81.92
689.86	81.92
690.00	65.54
690.13	53.83
690.27	0.00
690.41	42.13
690.54	30.43
690.68	114.69
690.81	30.43
690.95	0.00
691.08	0.00
691.22	42.13
691.35	14.04
691.49	53.83
691.62	39.79
691.76	39.79
691.89	84.26
692.03	0.00
692.16	0.00
692.30	28.09
692.43	18.72
692.57	42.13
692.70	0.00
692.84	67.88
692.97	21.06
693.11	35.11
693.24	37.45
693.38	18.72
693.51	23.41
693.65	58.51
693.78	39.79
693.92	91.28
694.05	16.38
694.19	53.83
694.32	16.38
694.45	67.88
694.59	23.41
694.72	44.47
694.86	0.00
694.99	63.19
695.13	32.77
695.26	0.00
695.39	11.70
695.53	72.56
695.66	4.68
695.80	16.38
695.93	42.13
696.07	77.24
696.20	42.13
696.33	35.11
696.47	7.02
696.60	30.43
696.73	39.79
696.87	37.45
697.00	0.00
697.14	0.00
697.27	49.15
697.40	0.00
697.54	14.04
697.67	28.09
697.80	91.28
697.94	35.11
698.07	23.41
698.21	25.75
698.34	93.62
698.47	4.68
698.61	18.72
698.74	18.72
698.87	60.85
699.01	86.60
699.14	110.01
699.27	0.00
699.40	77.24
699.54	18.72
699.67	98.30
699.80	46.81
699.94	0.00
700.07	39.79
700.20	25.75
700.34	67.88
700.47	0.00
700.60	0.00
700.73	18.72
700.87	63.19
701.00	58.51
701.13	0.00
701.26	37.45
701.40	0.00
701.53	7.02
701.66	23.41
701.79	79.58
701.93	9.36
702.06	21.06
702.19	70.22
702.32	98.30
702.46	23.41
702.59	4.68
702.72	0.00
702.85	32.77
702.99	39.79
703.12	7.02
703.25	0.00
703.38	35.11
703.51	11.70
703.65	0.00
703.78	42.13
703.91	0.00
704.04	42.13
704.17	25.75
704.31	0.00
704.44	60.85
704.57	11.70
704.70	28.09
704.83	4.68
704.96	0.00
705.10	49.15
705.23	67.88
>>>>>End Processed Spectral Data<<<<<
