SpectraSuite Data File
++++++++++++++++++++++++++++++++++++
Date: Fri Oct 04 12:13:38 GMT-05:00 2013
User: price-jones
Dark Spectrum Present: No
Reference Spectrum Present: No
Number of Sampled Component Spectra: 1
Spectrometers: USB2+H05261
Integration Time (usec): 10000 (USB2+H05261)
Spectra Averaged: 1 (USB2+H05261)
Boxcar Smoothing: 0 (USB2+H05261)
Correct for Electrical Dark: No (USB2+H05261)
Strobe/Lamp Enabled: No (USB2+H05261)
Correct for Detector Non-linearity: No (USB2+H05261)
Correct for Stray Light: No (USB2+H05261)
Number of Pixels in Processed Spectrum: 2048
>>>>>Begin Processed Spectral Data<<<<<
365.73	30.43
365.92	30.43
366.12	30.43
366.32	0.00
366.52	0.00
366.72	0.00
366.91	0.00
367.11	0.00
367.31	0.00
367.51	0.00
367.70	0.00
367.90	0.00
368.10	0.00
368.30	0.00
368.49	0.00
368.69	0.00
368.89	0.00
369.09	0.00
369.28	0.00
369.48	0.00
369.68	0.00
369.87	0.00
370.07	0.00
370.27	0.00
370.47	0.00
370.66	39.79
370.86	18.72
371.06	14.04
371.25	0.00
371.45	23.41
371.65	0.00
371.84	0.00
372.04	0.00
372.24	30.43
372.44	84.26
372.63	11.70
372.83	0.00
373.03	30.43
373.22	0.00
373.42	0.00
373.62	0.00
373.81	42.13
374.01	0.00
374.21	21.06
374.40	56.17
374.60	30.43
374.79	23.41
374.99	23.41
375.19	67.88
375.38	28.09
375.58	9.36
375.78	58.51
375.97	56.17
376.17	0.00
376.37	0.00
376.56	16.38
376.76	42.13
376.95	0.00
377.15	11.70
377.35	39.79
377.54	0.00
377.74	7.02
377.93	0.00
378.13	18.72
378.33	58.51
378.52	0.00
378.72	0.00
378.91	0.00
379.11	0.00
379.31	25.75
379.50	14.04
379.70	14.04
379.89	25.75
380.09	53.83
380.28	86.60
380.48	14.04
380.68	44.47
380.87	32.77
381.07	46.81
381.26	25.75
381.46	7.02
381.65	60.85
381.85	37.45
382.04	16.38
382.24	110.01
382.43	28.09
382.63	0.00
382.83	72.56
383.02	4.68
383.22	65.54
383.41	28.09
383.61	18.72
383.80	35.11
384.00	0.00
384.19	35.11
384.39	0.00
384.58	2.34
384.78	23.41
384.97	56.17
385.17	0.00
385.36	0.00
385.56	16.38
385.75	51.49
385.95	63.19
386.14	58.51
386.34	32.77
386.53	79.58
386.72	2.34
386.92	49.15
387.11	0.00
387.31	30.43
387.50	0.00
387.70	0.00
387.89	53.83
388.09	23.41
388.28	0.00
388.48	28.09
388.67	0.00
388.86	30.43
389.06	42.13
389.25	46.81
389.45	0.00
389.64	0.00
389.84	37.45
390.03	28.09
390.22	42.13
390.42	25.75
390.61	28.09
390.81	74.90
391.00	56.17
391.19	0.00
391.39	60.85
391.58	159.16
391.78	4.68
391.97	0.00
392.16	44.47
392.36	65.54
392.55	107.66
392.75	60.85
392.94	84.26
393.13	14.04
393.33	51.49
393.52	14.04
393.71	21.06
393.91	18.72
394.10	21.06
394.29	53.83
394.49	60.85
394.68	9.36
394.88	9.36
395.07	93.62
395.26	0.00
395.46	14.04
395.65	51.49
395.84	28.09
396.04	49.15
396.23	30.43
396.42	21.06
396.62	0.00
396.81	16.38
397.00	58.51
397.19	65.54
397.39	0.00
397.58	0.00
397.77	16.38
397.97	39.79
398.16	74.90
398.35	86.60
398.55	42.13
398.74	95.96
398.93	37.45
399.12	0.00
399.32	42.13
399.51	0.00
399.70	0.00
399.90	0.00
400.09	56.17
400.28	21.06
400.47	9.36
400.67	28.09
400.86	39.79
401.05	30.43
401.24	100.64
401.44	9.36
401.63	23.41
401.82	65.54
402.01	49.15
402.21	28.09
402.40	60.85
402.59	0.00
402.78	0.00
402.97	0.00
403.17	7.02
403.36	51.49
403.55	0.00
403.74	53.83
403.93	32.77
404.13	51.49
404.32	77.24
404.51	81.92
404.70	117.03
404.89	49.15
405.09	18.72
405.28	32.77
405.47	81.92
405.66	0.00
405.85	105.32
406.05	53.83
406.24	9.36
406.43	14.04
406.62	70.22
406.81	7.02
407.00	60.85
407.20	42.13
407.39	21.06
407.58	0.00
407.77	0.00
407.96	9.36
408.15	53.83
408.34	0.00
408.54	53.83
408.73	46.81
408.92	9.36
409.11	7.02
409.30	18.72
409.49	49.15
409.68	49.15
409.87	32.77
410.07	58.51
410.26	0.00
410.45	32.77
410.64	44.47
410.83	72.56
411.02	105.32
411.21	0.00
411.40	21.06
411.59	35.11
411.78	35.11
411.98	53.83
412.17	16.38
412.36	25.75
412.55	21.06
412.74	30.43
412.93	60.85
413.12	74.90
413.31	98.30
413.50	11.70
413.69	39.79
413.88	51.49
414.07	46.81
414.26	42.13
414.45	25.75
414.64	0.00
414.83	46.81
415.02	72.56
415.22	39.79
415.41	35.11
415.60	77.24
415.79	0.00
415.98	95.96
416.17	0.00
416.36	51.49
416.55	95.96
416.74	63.19
416.93	100.64
417.12	65.54
417.31	14.04
417.50	93.62
417.69	0.00
417.88	105.32
418.07	44.47
418.26	37.45
418.45	105.32
418.64	39.79
418.83	9.36
419.02	11.70
419.21	11.70
419.39	37.45
419.58	65.54
419.77	0.00
419.96	88.94
420.15	35.11
420.34	79.58
420.53	60.85
420.72	60.85
420.91	74.90
421.10	23.41
421.29	16.38
421.48	74.90
421.67	58.51
421.86	91.28
422.05	84.26
422.24	72.56
422.43	147.45
422.61	100.64
422.80	60.85
422.99	37.45
423.18	28.09
423.37	53.83
423.56	21.06
423.75	46.81
423.94	91.28
424.13	110.01
424.32	142.77
424.50	105.32
424.69	4.68
424.88	60.85
425.07	98.30
425.26	11.70
425.45	0.00
425.64	0.00
425.83	0.00
426.01	37.45
426.20	4.68
426.39	9.36
426.58	58.51
426.77	0.00
426.96	95.96
427.15	42.13
427.33	4.68
427.52	25.75
427.71	23.41
427.90	0.00
428.09	65.54
428.28	42.13
428.46	56.17
428.65	46.81
428.84	37.45
429.03	44.47
429.22	32.77
429.40	56.17
429.59	0.00
429.78	88.94
429.97	51.49
430.16	44.47
430.34	117.03
430.53	32.77
430.72	79.58
430.91	70.22
431.10	14.04
431.28	63.19
431.47	65.54
431.66	16.38
431.85	44.47
432.03	21.06
432.22	0.00
432.41	35.11
432.60	105.32
432.79	7.02
432.97	39.79
433.16	37.45
433.35	149.79
433.54	58.51
433.72	0.00
433.91	0.00
434.10	51.49
434.28	30.43
434.47	72.56
434.66	28.09
434.85	7.02
435.03	70.22
435.22	65.54
435.41	63.19
435.59	42.13
435.78	16.38
435.97	102.98
436.16	91.28
436.34	21.06
436.53	58.51
436.72	51.49
436.90	18.72
437.09	88.94
437.28	74.90
437.46	74.90
437.65	0.00
437.84	14.04
438.02	35.11
438.21	56.17
438.40	16.38
438.58	39.79
438.77	23.41
438.96	51.49
439.14	0.00
439.33	53.83
439.52	21.06
439.70	25.75
439.89	86.60
440.08	42.13
440.26	100.64
440.45	35.11
440.63	35.11
440.82	21.06
441.01	91.28
441.19	74.90
441.38	72.56
441.57	124.05
441.75	84.26
441.94	147.45
442.12	16.38
442.31	0.00
442.50	23.41
442.68	112.35
442.87	63.19
443.05	77.24
443.24	60.85
443.43	138.09
443.61	67.88
443.80	32.77
443.98	72.56
444.17	60.85
444.35	0.00
444.54	67.88
444.73	67.88
444.91	28.09
445.10	135.75
445.28	140.43
445.47	0.00
445.65	112.35
445.84	49.15
446.02	0.00
446.21	32.77
446.39	72.56
446.58	25.75
446.77	14.04
446.95	28.09
447.14	7.02
447.32	86.60
447.51	0.00
447.69	88.94
447.88	84.26
448.06	49.15
448.25	14.04
448.43	42.13
448.62	107.66
448.80	100.64
448.99	25.75
449.17	25.75
449.36	91.28
449.54	84.26
449.73	37.45
449.91	2.34
450.10	91.28
450.28	81.92
450.46	65.54
450.65	140.43
450.83	74.90
451.02	86.60
451.20	217.67
451.39	72.56
451.57	53.83
451.76	11.70
451.94	110.01
452.13	65.54
452.31	98.30
452.49	67.88
452.68	32.77
452.86	95.96
453.05	100.64
453.23	16.38
453.42	49.15
453.60	65.54
453.78	28.09
453.97	0.00
454.15	0.00
454.34	81.92
454.52	58.51
454.70	72.56
454.89	0.00
455.07	58.51
455.26	56.17
455.44	107.66
455.62	44.47
455.81	32.77
455.99	16.38
456.17	58.51
456.36	53.83
456.54	67.88
456.73	60.85
456.91	7.02
457.09	0.00
457.28	63.19
457.46	42.13
457.64	84.26
457.83	16.38
458.01	119.37
458.19	18.72
458.38	133.41
458.56	42.13
458.74	77.24
458.93	16.38
459.11	25.75
459.29	102.98
459.48	70.22
459.66	42.13
459.84	42.13
460.03	110.01
460.21	49.15
460.39	42.13
460.57	67.88
460.76	84.26
460.94	25.75
461.12	7.02
461.31	0.00
461.49	91.28
461.67	88.94
461.85	77.24
462.04	37.45
462.22	56.17
462.40	95.96
462.59	46.81
462.77	23.41
462.95	7.02
463.13	77.24
463.32	112.35
463.50	42.13
463.68	170.86
463.86	39.79
464.05	46.81
464.23	39.79
464.41	56.17
464.59	56.17
464.78	18.72
464.96	81.92
465.14	147.45
465.32	105.32
465.50	35.11
465.69	105.32
465.87	77.24
466.05	72.56
466.23	0.00
466.41	0.00
466.60	86.60
466.78	23.41
466.96	28.09
467.14	11.70
467.32	0.00
467.51	63.19
467.69	63.19
467.87	100.64
468.05	14.04
468.23	65.54
468.41	42.13
468.60	39.79
468.78	18.72
468.96	2.34
469.14	23.41
469.32	56.17
469.50	58.51
469.69	18.72
469.87	42.13
470.05	100.64
470.23	49.15
470.41	23.41
470.59	70.22
470.77	18.72
470.95	49.15
471.14	28.09
471.32	77.24
471.50	100.64
471.68	124.05
471.86	67.88
472.04	23.41
472.22	107.66
472.40	0.00
472.58	110.01
472.77	16.38
472.95	46.81
473.13	88.94
473.31	35.11
473.49	102.98
473.67	30.43
473.85	58.51
474.03	39.79
474.21	30.43
474.39	51.49
474.57	107.66
474.75	30.43
474.93	77.24
475.12	88.94
475.30	67.88
475.48	72.56
475.66	30.43
475.84	63.19
476.02	46.81
476.20	100.64
476.38	105.32
476.56	65.54
476.74	14.04
476.92	93.62
477.10	131.07
477.28	42.13
477.46	42.13
477.64	65.54
477.82	102.98
478.00	25.75
478.18	102.98
478.36	79.58
478.54	28.09
478.72	74.90
478.90	84.26
479.08	51.49
479.26	60.85
479.44	84.26
479.62	117.03
479.80	28.09
479.98	35.11
480.16	67.88
480.34	53.83
480.52	56.17
480.70	39.79
480.88	112.35
481.06	98.30
481.24	84.26
481.41	35.11
481.59	9.36
481.77	95.96
481.95	23.41
482.13	0.00
482.31	135.75
482.49	53.83
482.67	7.02
482.85	39.79
483.03	60.85
483.21	28.09
483.39	79.58
483.57	30.43
483.74	46.81
483.92	44.47
484.10	60.85
484.28	53.83
484.46	88.94
484.64	51.49
484.82	84.26
485.00	25.75
485.18	72.56
485.35	23.41
485.53	49.15
485.71	44.47
485.89	58.51
486.07	51.49
486.25	49.15
486.43	49.15
486.61	42.13
486.78	79.58
486.96	0.00
487.14	46.81
487.32	86.60
487.50	72.56
487.68	49.15
487.85	81.92
488.03	105.32
488.21	58.51
488.39	39.79
488.57	95.96
488.75	32.77
488.92	110.01
489.10	72.56
489.28	23.41
489.46	98.30
489.64	72.56
489.81	81.92
489.99	65.54
490.17	98.30
490.35	65.54
490.53	32.77
490.70	117.03
490.88	58.51
491.06	51.49
491.24	81.92
491.41	32.77
491.59	72.56
491.77	28.09
491.95	0.00
492.13	81.92
492.30	91.28
492.48	124.05
492.66	81.92
492.84	110.01
493.01	126.39
493.19	60.85
493.37	44.47
493.54	67.88
493.72	107.66
493.90	0.00
494.08	100.64
494.25	28.09
494.43	32.77
494.61	51.49
494.79	93.62
494.96	72.56
495.14	147.45
495.32	30.43
495.49	65.54
495.67	67.88
495.85	2.34
496.02	81.92
496.20	67.88
496.38	107.66
496.55	121.71
496.73	18.72
496.91	53.83
497.09	0.00
497.26	74.90
497.44	49.15
497.62	74.90
497.79	0.00
497.97	63.19
498.14	65.54
498.32	51.49
498.50	86.60
498.67	114.69
498.85	79.58
499.03	67.88
499.20	126.39
499.38	74.90
499.56	72.56
499.73	28.09
499.91	39.79
500.08	37.45
500.26	149.79
500.44	70.22
500.61	107.66
500.79	58.51
500.97	67.88
501.14	25.75
501.32	114.69
501.49	77.24
501.67	51.49
501.84	79.58
502.02	121.71
502.20	88.94
502.37	0.00
502.55	133.41
502.72	138.09
502.90	72.56
503.07	46.81
503.25	51.49
503.43	58.51
503.60	84.26
503.78	107.66
503.95	110.01
504.13	100.64
504.30	79.58
504.48	124.05
504.65	72.56
504.83	32.77
505.01	110.01
505.18	35.11
505.36	65.54
505.53	95.96
505.71	93.62
505.88	145.11
506.06	72.56
506.23	86.60
506.41	124.05
506.58	121.71
506.76	53.83
506.93	60.85
507.11	81.92
507.28	84.26
507.46	37.45
507.63	70.22
507.81	102.98
507.98	98.30
508.16	77.24
508.33	88.94
508.50	65.54
508.68	9.36
508.85	142.77
509.03	140.43
509.20	42.13
509.38	91.28
509.55	65.54
509.73	30.43
509.90	2.34
510.08	25.75
510.25	117.03
510.42	28.09
510.60	161.50
510.77	86.60
510.95	77.24
511.12	42.13
511.30	86.60
511.47	0.00
511.64	126.39
511.82	81.92
511.99	100.64
512.17	81.92
512.34	81.92
512.51	128.73
512.69	56.17
512.86	53.83
513.04	65.54
513.21	18.72
513.38	65.54
513.56	88.94
513.73	77.24
513.90	72.56
514.08	138.09
514.25	93.62
514.43	86.60
514.60	105.32
514.77	95.96
514.95	35.11
515.12	100.64
515.29	182.56
515.47	39.79
515.64	53.83
515.81	7.02
515.99	98.30
516.16	46.81
516.33	44.47
516.51	98.30
516.68	67.88
516.85	30.43
517.03	98.30
517.20	93.62
517.37	93.62
517.54	53.83
517.72	84.26
517.89	51.49
518.06	93.62
518.24	35.11
518.41	51.49
518.58	49.15
518.75	100.64
518.93	100.64
519.10	44.47
519.27	74.90
519.45	102.98
519.62	126.39
519.79	98.30
519.96	105.32
520.14	142.77
520.31	49.15
520.48	21.06
520.65	114.69
520.83	42.13
521.00	114.69
521.17	100.64
521.34	105.32
521.52	102.98
521.69	70.22
521.86	154.48
522.03	145.11
522.20	30.43
522.38	112.35
522.55	79.58
522.72	39.79
522.89	142.77
523.07	145.11
523.24	11.70
523.41	42.13
523.58	110.01
523.75	2.34
523.92	117.03
524.10	65.54
524.27	49.15
524.44	86.60
524.61	95.96
524.78	100.64
524.96	121.71
525.13	58.51
525.30	95.96
525.47	88.94
525.64	93.62
525.81	63.19
525.98	156.82
526.16	53.83
526.33	7.02
526.50	44.47
526.67	86.60
526.84	60.85
527.01	18.72
527.18	21.06
527.36	105.32
527.53	46.81
527.70	124.05
527.87	133.41
528.04	23.41
528.21	95.96
528.38	98.30
528.55	110.01
528.72	65.54
528.89	74.90
529.07	79.58
529.24	56.17
529.41	42.13
529.58	53.83
529.75	46.81
529.92	51.49
530.09	65.54
530.26	28.09
530.43	93.62
530.60	72.56
530.77	63.19
530.94	138.09
531.11	138.09
531.28	53.83
531.46	72.56
531.63	37.45
531.80	138.09
531.97	42.13
532.14	18.72
532.31	63.19
532.48	88.94
532.65	126.39
532.82	112.35
532.99	39.79
533.16	74.90
533.33	72.56
533.50	28.09
533.67	121.71
533.84	53.83
534.01	107.66
534.18	46.81
534.35	105.32
534.52	70.22
534.69	18.72
534.86	44.47
535.03	98.30
535.20	46.81
535.37	128.73
535.54	53.83
535.71	74.90
535.88	70.22
536.05	131.07
536.22	35.11
536.38	70.22
536.55	70.22
536.72	95.96
536.89	67.88
537.06	91.28
537.23	100.64
537.40	91.28
537.57	102.98
537.74	117.03
537.91	91.28
538.08	18.72
538.25	93.62
538.42	105.32
538.59	4.68
538.75	84.26
538.92	70.22
539.09	145.11
539.26	77.24
539.43	110.01
539.60	67.88
539.77	100.64
539.94	93.62
540.11	51.49
540.28	84.26
540.44	79.58
540.61	121.71
540.78	42.13
540.95	0.00
541.12	67.88
541.29	121.71
541.46	37.45
541.62	114.69
541.79	46.81
541.96	18.72
542.13	180.22
542.30	91.28
542.47	119.37
542.63	88.94
542.80	114.69
542.97	98.30
543.14	79.58
543.31	46.81
543.48	114.69
543.64	49.15
543.81	51.49
543.98	102.98
544.15	77.24
544.32	121.71
544.48	84.26
544.65	77.24
544.82	84.26
544.99	147.45
545.16	100.64
545.32	133.41
545.49	114.69
545.66	81.92
545.83	128.73
546.00	72.56
546.16	124.05
546.33	98.30
546.50	70.22
546.67	88.94
546.83	126.39
547.00	77.24
547.17	65.54
547.34	39.79
547.50	110.01
547.67	112.35
547.84	93.62
548.00	53.83
548.17	84.26
548.34	70.22
548.51	74.90
548.67	32.77
548.84	110.01
549.01	117.03
549.18	112.35
549.34	35.11
549.51	110.01
549.68	44.47
549.84	30.43
550.01	67.88
550.18	56.17
550.34	156.82
550.51	149.79
550.68	100.64
550.84	58.51
551.01	107.66
551.18	135.75
551.34	93.62
551.51	114.69
551.68	9.36
551.84	56.17
552.01	117.03
552.18	145.11
552.34	11.70
552.51	21.06
552.68	30.43
552.84	112.35
553.01	37.45
553.18	81.92
553.34	30.43
553.51	140.43
553.67	86.60
553.84	100.64
554.01	58.51
554.17	98.30
554.34	63.19
554.51	60.85
554.67	70.22
554.84	14.04
555.00	84.26
555.17	51.49
555.33	147.45
555.50	79.58
555.67	56.17
555.83	98.30
556.00	63.19
556.16	152.13
556.33	107.66
556.50	102.98
556.66	93.62
556.83	100.64
556.99	147.45
557.16	46.81
557.32	32.77
557.49	77.24
557.65	128.73
557.82	110.01
557.98	131.07
558.15	79.58
558.32	11.70
558.48	124.05
558.65	107.66
558.81	77.24
558.98	81.92
559.14	119.37
559.31	35.11
559.47	112.35
559.64	32.77
559.80	21.06
559.97	142.77
560.13	135.75
560.30	163.84
560.46	53.83
560.63	163.84
560.79	117.03
560.96	35.11
561.12	93.62
561.29	58.51
561.45	86.60
561.61	49.15
561.78	86.60
561.94	79.58
562.11	110.01
562.27	79.58
562.44	112.35
562.60	88.94
562.77	32.77
562.93	128.73
563.10	46.81
563.26	72.56
563.42	37.45
563.59	42.13
563.75	65.54
563.92	65.54
564.08	88.94
564.24	46.81
564.41	74.90
564.57	60.85
564.74	77.24
564.90	65.54
565.07	133.41
565.23	107.66
565.39	121.71
565.56	18.72
565.72	35.11
565.88	65.54
566.05	21.06
566.21	72.56
566.38	70.22
566.54	114.69
566.70	88.94
566.87	49.15
567.03	86.60
567.19	28.09
567.36	84.26
567.52	74.90
567.68	100.64
567.85	114.69
568.01	14.04
568.17	91.28
568.34	105.32
568.50	112.35
568.66	131.07
568.83	72.56
568.99	88.94
569.15	102.98
569.32	49.15
569.48	58.51
569.64	72.56
569.81	84.26
569.97	112.35
570.13	152.13
570.30	16.38
570.46	67.88
570.62	163.84
570.78	91.28
570.95	67.88
571.11	88.94
571.27	56.17
571.43	95.96
571.60	65.54
571.76	86.60
571.92	51.49
572.09	39.79
572.25	63.19
572.41	98.30
572.57	0.00
572.74	49.15
572.90	49.15
573.06	67.88
573.22	81.92
573.38	98.30
573.55	114.69
573.71	100.64
573.87	70.22
574.03	88.94
574.20	133.41
574.36	135.75
574.52	53.83
574.68	105.32
574.84	74.90
575.01	93.62
575.17	86.60
575.33	70.22
575.49	166.18
575.65	110.01
575.82	114.69
575.98	112.35
576.14	9.36
576.30	58.51
576.46	58.51
576.62	105.32
576.79	124.05
576.95	100.64
577.11	124.05
577.27	91.28
577.43	114.69
577.59	2.34
577.75	16.38
577.92	86.60
578.08	56.17
578.24	124.05
578.40	63.19
578.56	84.26
578.72	102.98
578.88	11.70
579.04	46.81
579.21	74.90
579.37	84.26
579.53	77.24
579.69	161.50
579.85	119.37
580.01	131.07
580.17	63.19
580.33	28.09
580.49	98.30
580.65	74.90
580.82	14.04
580.98	44.47
581.14	93.62
581.30	93.62
581.46	102.98
581.62	114.69
581.78	70.22
581.94	30.43
582.10	63.19
582.26	84.26
582.42	126.39
582.58	53.83
582.74	72.56
582.90	107.66
583.06	51.49
583.22	107.66
583.38	60.85
583.54	105.32
583.70	95.96
583.86	91.28
584.02	74.90
584.18	70.22
584.34	11.70
584.50	74.90
584.66	105.32
584.82	49.15
584.98	23.41
585.14	74.90
585.30	67.88
585.46	65.54
585.62	56.17
585.78	44.47
585.94	86.60
586.10	65.54
586.26	72.56
586.42	60.85
586.58	102.98
586.74	126.39
586.90	42.13
587.06	0.00
587.22	0.00
587.38	53.83
587.54	135.75
587.70	112.35
587.86	124.05
588.02	39.79
588.18	46.81
588.34	65.54
588.49	35.11
588.65	110.01
588.81	53.83
588.97	37.45
589.13	37.45
589.29	28.09
589.45	93.62
589.61	16.38
589.77	25.75
589.93	28.09
590.08	77.24
590.24	93.62
590.40	53.83
590.56	72.56
590.72	49.15
590.88	51.49
591.04	42.13
591.20	152.13
591.35	51.49
591.51	51.49
591.67	72.56
591.83	65.54
591.99	88.94
592.15	77.24
592.31	70.22
592.46	100.64
592.62	74.90
592.78	133.41
592.94	70.22
593.10	28.09
593.26	65.54
593.41	95.96
593.57	51.49
593.73	88.94
593.89	74.90
594.05	128.73
594.20	0.00
594.36	88.94
594.52	37.45
594.68	28.09
594.84	28.09
594.99	63.19
595.15	124.05
595.31	95.96
595.47	39.79
595.62	58.51
595.78	0.00
595.94	88.94
596.10	126.39
596.25	102.98
596.41	86.60
596.57	88.94
596.73	60.85
596.88	56.17
597.04	86.60
597.20	53.83
597.36	67.88
597.51	84.26
597.67	60.85
597.83	79.58
597.99	63.19
598.14	170.86
598.30	100.64
598.46	98.30
598.61	58.51
598.77	16.38
598.93	44.47
599.09	35.11
599.24	102.98
599.40	49.15
599.56	100.64
599.71	107.66
599.87	93.62
600.03	44.47
600.18	37.45
600.34	60.85
600.50	79.58
600.65	72.56
600.81	100.64
600.97	84.26
601.12	142.77
601.28	88.94
601.44	63.19
601.59	98.30
601.75	28.09
601.91	35.11
602.06	0.00
602.22	67.88
602.37	58.51
602.53	86.60
602.69	58.51
602.84	117.03
603.00	63.19
603.16	86.60
603.31	84.26
603.47	28.09
603.62	42.13
603.78	161.50
603.94	51.49
604.09	91.28
604.25	53.83
604.40	49.15
604.56	65.54
604.71	44.47
604.87	0.00
605.03	72.56
605.18	74.90
605.34	112.35
605.49	159.16
605.65	42.13
605.80	86.60
605.96	30.43
606.12	35.11
606.27	154.48
606.43	63.19
606.58	49.15
606.74	112.35
606.89	121.71
607.05	37.45
607.20	77.24
607.36	86.60
607.51	35.11
607.67	39.79
607.82	100.64
607.98	65.54
608.13	121.71
608.29	110.01
608.44	74.90
608.60	117.03
608.75	102.98
608.91	63.19
609.06	105.32
609.22	63.19
609.37	65.54
609.53	35.11
609.68	79.58
609.84	86.60
609.99	102.98
610.15	35.11
610.30	119.37
610.46	60.85
610.61	23.41
610.76	95.96
610.92	28.09
611.07	88.94
611.23	53.83
611.38	95.96
611.54	44.47
611.69	98.30
611.84	105.32
612.00	77.24
612.15	77.24
612.31	102.98
612.46	110.01
612.62	25.75
612.77	121.71
612.92	58.51
613.08	128.73
613.23	72.56
613.39	4.68
613.54	67.88
613.69	51.49
613.85	140.43
614.00	81.92
614.15	93.62
614.31	95.96
614.46	81.92
614.62	44.47
614.77	51.49
614.92	51.49
615.08	112.35
615.23	79.58
615.38	93.62
615.54	9.36
615.69	30.43
615.84	30.43
616.00	42.13
616.15	60.85
616.30	105.32
616.46	65.54
616.61	35.11
616.76	77.24
616.92	67.88
617.07	152.13
617.22	93.62
617.37	67.88
617.53	95.96
617.68	37.45
617.83	42.13
617.99	42.13
618.14	93.62
618.29	117.03
618.45	72.56
618.60	112.35
618.75	81.92
618.90	65.54
619.06	95.96
619.21	72.56
619.36	77.24
619.51	53.83
619.67	88.94
619.82	86.60
619.97	30.43
620.12	81.92
620.28	74.90
620.43	67.88
620.58	67.88
620.73	42.13
620.89	65.54
621.04	35.11
621.19	142.77
621.34	51.49
621.49	110.01
621.65	37.45
621.80	21.06
621.95	42.13
622.10	117.03
622.25	95.96
622.41	39.79
622.56	30.43
622.71	28.09
622.86	63.19
623.01	70.22
623.16	60.85
623.32	46.81
623.47	42.13
623.62	112.35
623.77	79.58
623.92	30.43
624.07	63.19
624.23	23.41
624.38	112.35
624.53	100.64
624.68	25.75
624.83	77.24
624.98	11.70
625.13	23.41
625.29	117.03
625.44	63.19
625.59	51.49
625.74	70.22
625.89	133.41
626.04	102.98
626.19	126.39
626.34	65.54
626.49	0.00
626.65	93.62
626.80	46.81
626.95	98.30
627.10	39.79
627.25	91.28
627.40	70.22
627.55	53.83
627.70	0.00
627.85	86.60
628.00	70.22
628.15	18.72
628.30	84.26
628.45	63.19
628.60	86.60
628.76	32.77
628.91	63.19
629.06	77.24
629.21	35.11
629.36	0.00
629.51	58.51
629.66	37.45
629.81	39.79
629.96	37.45
630.11	28.09
630.26	63.19
630.41	11.70
630.56	46.81
630.71	14.04
630.86	74.90
631.01	18.72
631.16	77.24
631.31	58.51
631.46	39.79
631.61	107.66
631.76	84.26
631.91	49.15
632.06	86.60
632.21	74.90
632.36	37.45
632.51	81.92
632.66	65.54
632.81	42.13
632.96	117.03
633.10	98.30
633.25	11.70
633.40	9.36
633.55	117.03
633.70	91.28
633.85	58.51
634.00	46.81
634.15	128.73
634.30	35.11
634.45	140.43
634.60	32.77
634.75	51.49
634.90	49.15
635.05	102.98
635.19	9.36
635.34	173.20
635.49	0.00
635.64	16.38
635.79	0.00
635.94	44.47
636.09	14.04
636.24	32.77
636.39	74.90
636.53	63.19
636.68	42.13
636.83	74.90
636.98	51.49
637.13	65.54
637.28	46.81
637.43	88.94
637.57	67.88
637.72	51.49
637.87	114.69
638.02	25.75
638.17	7.02
638.32	60.85
638.46	46.81
638.61	56.17
638.76	37.45
638.91	46.81
639.06	79.58
639.20	7.02
639.35	81.92
639.50	44.47
639.65	93.62
639.80	58.51
639.94	56.17
640.09	105.32
640.24	74.90
640.39	42.13
640.54	0.00
640.68	72.56
640.83	60.85
640.98	44.47
641.13	93.62
641.27	100.64
641.42	79.58
641.57	46.81
641.72	49.15
641.86	53.83
642.01	51.49
642.16	46.81
642.31	72.56
642.45	65.54
642.60	105.32
642.75	28.09
642.90	46.81
643.04	65.54
643.19	112.35
643.34	39.79
643.48	138.09
643.63	88.94
643.78	42.13
643.93	30.43
644.07	100.64
644.22	49.15
644.37	112.35
644.51	98.30
644.66	74.90
644.81	88.94
644.95	42.13
645.10	53.83
645.25	72.56
645.39	63.19
645.54	84.26
645.69	95.96
645.83	72.56
645.98	23.41
646.13	60.85
646.27	21.06
646.42	124.05
646.57	28.09
646.71	79.58
646.86	18.72
647.00	14.04
647.15	107.66
647.30	67.88
647.44	86.60
647.59	63.19
647.74	98.30
647.88	2.34
648.03	46.81
648.17	67.88
648.32	86.60
648.47	102.98
648.61	0.00
648.76	67.88
648.90	37.45
649.05	49.15
649.20	74.90
649.34	23.41
649.49	35.11
649.63	67.88
649.78	107.66
649.92	72.56
650.07	30.43
650.21	37.45
650.36	32.77
650.51	58.51
650.65	77.24
650.80	37.45
650.94	72.56
651.09	23.41
651.23	18.72
651.38	58.51
651.52	65.54
651.67	79.58
651.81	25.75
651.96	49.15
652.10	77.24
652.25	16.38
652.39	74.90
652.54	16.38
652.68	58.51
652.83	2.34
652.97	46.81
653.12	23.41
653.26	56.17
653.41	39.79
653.55	56.17
653.70	44.47
653.84	0.00
653.99	56.17
654.13	42.13
654.27	70.22
654.42	32.77
654.56	56.17
654.71	4.68
654.85	77.24
655.00	14.04
655.14	63.19
655.29	0.00
655.43	42.13
655.57	0.00
655.72	25.75
655.86	102.98
656.01	7.02
656.15	51.49
656.30	107.66
656.44	91.28
656.58	77.24
656.73	39.79
656.87	105.32
657.01	23.41
657.16	56.17
657.30	44.47
657.45	95.96
657.59	86.60
657.73	25.75
657.88	128.73
658.02	58.51
658.16	51.49
658.31	60.85
658.45	58.51
658.60	0.00
658.74	65.54
658.88	60.85
659.03	56.17
659.17	9.36
659.31	32.77
659.46	53.83
659.60	21.06
659.74	70.22
659.89	81.92
660.03	93.62
660.17	79.58
660.32	56.17
660.46	56.17
660.60	0.00
660.74	42.13
660.89	18.72
661.03	7.02
661.17	72.56
661.32	49.15
661.46	79.58
661.60	84.26
661.74	56.17
661.89	46.81
662.03	58.51
662.17	0.00
662.31	23.41
662.46	58.51
662.60	46.81
662.74	91.28
662.88	86.60
663.03	23.41
663.17	46.81
663.31	37.45
663.45	28.09
663.60	102.98
663.74	28.09
663.88	70.22
664.02	102.98
664.17	56.17
664.31	53.83
664.45	30.43
664.59	46.81
664.73	46.81
664.88	30.43
665.02	161.50
665.16	70.22
665.30	42.13
665.44	11.70
665.59	88.94
665.73	0.00
665.87	81.92
666.01	9.36
666.15	11.70
666.29	39.79
666.44	32.77
666.58	110.01
666.72	0.00
666.86	37.45
667.00	18.72
667.14	42.13
667.28	0.00
667.43	84.26
667.57	56.17
667.71	102.98
667.85	86.60
667.99	51.49
668.13	105.32
668.27	107.66
668.41	0.00
668.56	60.85
668.70	9.36
668.84	114.69
668.98	107.66
669.12	39.79
669.26	46.81
669.40	60.85
669.54	4.68
669.68	93.62
669.82	91.28
669.96	63.19
670.10	25.75
670.25	72.56
670.39	98.30
670.53	58.51
670.67	49.15
670.81	11.70
670.95	21.06
671.09	25.75
671.23	67.88
671.37	53.83
671.51	67.88
671.65	11.70
671.79	112.35
671.93	2.34
672.07	67.88
672.21	79.58
672.35	46.81
672.49	14.04
672.63	0.00
672.77	56.17
672.91	81.92
673.05	28.09
673.19	37.45
673.33	81.92
673.47	44.47
673.61	56.17
673.75	81.92
673.89	112.35
674.03	0.00
674.17	107.66
674.31	44.47
674.45	102.98
674.59	63.19
674.73	131.07
674.87	0.00
675.01	51.49
675.15	72.56
675.29	46.81
675.43	44.47
675.56	42.13
675.70	93.62
675.84	72.56
675.98	49.15
676.12	65.54
676.26	56.17
676.40	74.90
676.54	2.34
676.68	18.72
676.82	74.90
676.96	28.09
677.10	42.13
677.23	9.36
677.37	0.00
677.51	37.45
677.65	0.00
677.79	63.19
677.93	51.49
678.07	25.75
678.21	49.15
678.34	70.22
678.48	37.45
678.62	95.96
678.76	18.72
678.90	49.15
679.04	7.02
679.18	63.19
679.31	37.45
679.45	58.51
679.59	100.64
679.73	93.62
679.87	0.00
680.00	25.75
680.14	60.85
680.28	23.41
680.42	16.38
680.56	30.43
680.70	100.64
680.83	42.13
680.97	0.00
681.11	58.51
681.25	2.34
681.39	67.88
681.52	4.68
681.66	11.70
681.80	70.22
681.94	142.77
682.07	74.90
682.21	16.38
682.35	7.02
682.49	18.72
682.62	60.85
682.76	60.85
682.90	35.11
683.04	49.15
683.17	91.28
683.31	100.64
683.45	23.41
683.59	135.75
683.72	14.04
683.86	46.81
684.00	70.22
684.13	0.00
684.27	0.00
684.41	67.88
684.55	105.32
684.68	58.51
684.82	56.17
684.96	147.45
685.09	98.30
685.23	14.04
685.37	11.70
685.50	0.00
685.64	21.06
685.78	49.15
685.91	79.58
686.05	114.69
686.19	93.62
686.32	28.09
686.46	105.32
686.60	0.00
686.73	25.75
686.87	25.75
687.01	39.79
687.14	74.90
687.28	63.19
687.42	81.92
687.55	53.83
687.69	28.09
687.82	21.06
687.96	0.00
688.10	65.54
688.23	28.09
688.37	51.49
688.50	28.09
688.64	145.11
688.78	0.00
688.91	39.79
689.05	25.75
689.18	0.00
689.32	79.58
689.46	53.83
689.59	58.51
689.73	86.60
689.86	32.77
690.00	79.58
690.13	0.00
690.27	65.54
690.41	46.81
690.54	0.00
690.68	46.81
690.81	42.13
690.95	93.62
691.08	60.85
691.22	63.19
691.35	30.43
691.49	23.41
691.62	58.51
691.76	58.51
691.89	72.56
692.03	51.49
692.16	9.36
692.30	53.83
692.43	14.04
692.57	7.02
692.70	11.70
692.84	56.17
692.97	30.43
693.11	21.06
693.24	7.02
693.38	0.00
693.51	63.19
693.65	23.41
693.78	0.00
693.92	56.17
694.05	63.19
694.19	32.77
694.32	37.45
694.45	0.00
694.59	102.98
694.72	91.28
694.86	49.15
694.99	56.17
695.13	21.06
695.26	23.41
695.39	25.75
695.53	60.85
695.66	0.00
695.80	9.36
695.93	39.79
696.07	51.49
696.20	18.72
696.33	0.00
696.47	0.00
696.60	46.81
696.73	56.17
696.87	60.85
697.00	51.49
697.14	0.00
697.27	49.15
697.40	46.81
697.54	46.81
697.67	30.43
697.80	39.79
697.94	0.00
698.07	0.00
698.21	23.41
698.34	32.77
698.47	25.75
698.61	0.00
698.74	39.79
698.87	9.36
699.01	0.00
699.14	100.64
699.27	23.41
699.40	119.37
699.54	9.36
699.67	86.60
699.80	51.49
699.94	11.70
700.07	74.90
700.20	0.00
700.34	32.77
700.47	23.41
700.60	112.35
700.73	67.88
700.87	60.85
701.00	0.00
701.13	63.19
701.26	32.77
701.40	70.22
701.53	39.79
701.66	35.11
701.79	25.75
701.93	9.36
702.06	58.51
702.19	51.49
702.32	70.22
702.46	0.00
702.59	60.85
702.72	110.01
702.85	44.47
702.99	77.24
703.12	51.49
703.25	67.88
703.38	53.83
703.51	58.51
703.65	25.75
703.78	100.64
703.91	72.56
704.04	28.09
704.17	53.83
704.31	7.02
704.44	0.00
704.57	23.41
704.70	49.15
704.83	25.75
704.96	70.22
705.10	25.75
705.23	11.70
>>>>>End Processed Spectral Data<<<<<
