SpectraSuite Data File
++++++++++++++++++++++++++++++++++++
Date: Fri Oct 04 12:13:42 GMT-05:00 2013
User: price-jones
Dark Spectrum Present: No
Reference Spectrum Present: No
Number of Sampled Component Spectra: 1
Spectrometers: USB2+H05261
Integration Time (usec): 10000 (USB2+H05261)
Spectra Averaged: 1 (USB2+H05261)
Boxcar Smoothing: 0 (USB2+H05261)
Correct for Electrical Dark: No (USB2+H05261)
Strobe/Lamp Enabled: No (USB2+H05261)
Correct for Detector Non-linearity: No (USB2+H05261)
Correct for Stray Light: No (USB2+H05261)
Number of Pixels in Processed Spectrum: 2048
>>>>>Begin Processed Spectral Data<<<<<
365.73	0.00
365.92	0.00
366.12	0.00
366.32	0.00
366.52	0.00
366.72	0.00
366.91	0.00
367.11	0.00
367.31	0.00
367.51	0.00
367.70	0.00
367.90	0.00
368.10	0.00
368.30	0.00
368.49	0.00
368.69	0.00
368.89	0.00
369.09	0.00
369.28	0.00
369.48	0.00
369.68	0.00
369.87	0.00
370.07	0.00
370.27	0.00
370.47	0.00
370.66	0.00
370.86	0.00
371.06	7.02
371.25	0.00
371.45	0.00
371.65	0.00
371.84	23.41
372.04	0.00
372.24	86.60
372.44	23.41
372.63	32.77
372.83	53.83
373.03	65.54
373.22	0.00
373.42	4.68
373.62	86.60
373.81	7.02
374.01	51.49
374.21	7.02
374.40	18.72
374.60	0.00
374.79	0.00
374.99	44.47
375.19	46.81
375.38	39.79
375.58	28.09
375.78	0.00
375.97	9.36
376.17	30.43
376.37	0.00
376.56	0.00
376.76	25.75
376.95	2.34
377.15	65.54
377.35	0.00
377.54	44.47
377.74	44.47
377.93	32.77
378.13	23.41
378.33	70.22
378.52	86.60
378.72	77.24
378.91	56.17
379.11	4.68
379.31	0.00
379.50	63.19
379.70	86.60
379.89	25.75
380.09	0.00
380.28	0.00
380.48	0.00
380.68	28.09
380.87	32.77
381.07	114.69
381.26	79.58
381.46	2.34
381.65	49.15
381.85	0.00
382.04	0.00
382.24	0.00
382.43	0.00
382.63	21.06
382.83	28.09
383.02	0.00
383.22	37.45
383.41	0.00
383.61	37.45
383.80	42.13
384.00	0.00
384.19	84.26
384.39	18.72
384.58	0.00
384.78	0.00
384.97	42.13
385.17	21.06
385.36	0.00
385.56	67.88
385.75	16.38
385.95	23.41
386.14	42.13
386.34	65.54
386.53	42.13
386.72	65.54
386.92	67.88
387.11	100.64
387.31	9.36
387.50	0.00
387.70	28.09
387.89	18.72
388.09	0.00
388.28	46.81
388.48	67.88
388.67	11.70
388.86	18.72
389.06	37.45
389.25	0.00
389.45	23.41
389.64	4.68
389.84	11.70
390.03	0.00
390.22	0.00
390.42	16.38
390.61	88.94
390.81	42.13
391.00	37.45
391.19	9.36
391.39	25.75
391.58	28.09
391.78	42.13
391.97	23.41
392.16	0.00
392.36	67.88
392.55	23.41
392.75	0.00
392.94	32.77
393.13	63.19
393.33	16.38
393.52	42.13
393.71	0.00
393.91	32.77
394.10	0.00
394.29	30.43
394.49	0.00
394.68	11.70
394.88	0.00
395.07	0.00
395.26	37.45
395.46	32.77
395.65	44.47
395.84	28.09
396.04	44.47
396.23	28.09
396.42	56.17
396.62	0.00
396.81	21.06
397.00	74.90
397.19	35.11
397.39	0.00
397.58	37.45
397.77	67.88
397.97	14.04
398.16	86.60
398.35	0.00
398.55	44.47
398.74	67.88
398.93	51.49
399.12	63.19
399.32	4.68
399.51	44.47
399.70	81.92
399.90	74.90
400.09	0.00
400.28	58.51
400.47	74.90
400.67	4.68
400.86	0.00
401.05	72.56
401.24	39.79
401.44	42.13
401.63	35.11
401.82	4.68
402.01	0.00
402.21	28.09
402.40	56.17
402.59	39.79
402.78	49.15
402.97	30.43
403.17	35.11
403.36	37.45
403.55	0.00
403.74	46.81
403.93	7.02
404.13	0.00
404.32	14.04
404.51	65.54
404.70	11.70
404.89	91.28
405.09	9.36
405.28	11.70
405.47	0.00
405.66	16.38
405.85	39.79
406.05	28.09
406.24	79.58
406.43	9.36
406.62	37.45
406.81	4.68
407.00	49.15
407.20	16.38
407.39	7.02
407.58	11.70
407.77	23.41
407.96	67.88
408.15	65.54
408.34	23.41
408.54	81.92
408.73	28.09
408.92	30.43
409.11	25.75
409.30	98.30
409.49	0.00
409.68	0.00
409.87	0.00
410.07	32.77
410.26	58.51
410.45	9.36
410.64	98.30
410.83	39.79
411.02	56.17
411.21	0.00
411.40	58.51
411.59	32.77
411.78	9.36
411.98	16.38
412.17	21.06
412.36	9.36
412.55	42.13
412.74	30.43
412.93	14.04
413.12	9.36
413.31	44.47
413.50	39.79
413.69	0.00
413.88	14.04
414.07	9.36
414.26	77.24
414.45	0.00
414.64	72.56
414.83	0.00
415.02	46.81
415.22	46.81
415.41	35.11
415.60	42.13
415.79	65.54
415.98	37.45
416.17	98.30
416.36	49.15
416.55	39.79
416.74	42.13
416.93	56.17
417.12	23.41
417.31	49.15
417.50	56.17
417.69	30.43
417.88	25.75
418.07	107.66
418.26	32.77
418.45	2.34
418.64	49.15
418.83	32.77
419.02	25.75
419.21	95.96
419.39	11.70
419.58	74.90
419.77	0.00
419.96	49.15
420.15	79.58
420.34	30.43
420.53	114.69
420.72	4.68
420.91	0.00
421.10	126.39
421.29	37.45
421.48	0.00
421.67	77.24
421.86	46.81
422.05	91.28
422.24	79.58
422.43	0.00
422.61	58.51
422.80	114.69
422.99	70.22
423.18	0.00
423.37	58.51
423.56	39.79
423.75	25.75
423.94	14.04
424.13	56.17
424.32	30.43
424.50	42.13
424.69	16.38
424.88	23.41
425.07	77.24
425.26	18.72
425.45	35.11
425.64	72.56
425.83	11.70
426.01	7.02
426.20	25.75
426.39	53.83
426.58	25.75
426.77	0.00
426.96	16.38
427.15	0.00
427.33	49.15
427.52	65.54
427.71	0.00
427.90	0.00
428.09	65.54
428.28	35.11
428.46	81.92
428.65	21.06
428.84	0.00
429.03	63.19
429.22	72.56
429.40	67.88
429.59	2.34
429.78	121.71
429.97	93.62
430.16	91.28
430.34	79.58
430.53	11.70
430.72	95.96
430.91	35.11
431.10	49.15
431.28	63.19
431.47	0.00
431.66	49.15
431.85	63.19
432.03	72.56
432.22	53.83
432.41	37.45
432.60	72.56
432.79	63.19
432.97	42.13
433.16	60.85
433.35	23.41
433.54	86.60
433.72	32.77
433.91	65.54
434.10	44.47
434.28	53.83
434.47	0.00
434.66	18.72
434.85	51.49
435.03	4.68
435.22	70.22
435.41	37.45
435.59	42.13
435.78	88.94
435.97	4.68
436.16	65.54
436.34	42.13
436.53	53.83
436.72	119.37
436.90	23.41
437.09	0.00
437.28	32.77
437.46	0.00
437.65	88.94
437.84	112.35
438.02	0.00
438.21	67.88
438.40	65.54
438.58	65.54
438.77	23.41
438.96	67.88
439.14	21.06
439.33	53.83
439.52	65.54
439.70	67.88
439.89	49.15
440.08	35.11
440.26	51.49
440.45	63.19
440.63	0.00
440.82	49.15
441.01	9.36
441.19	14.04
441.38	16.38
441.57	65.54
441.75	100.64
441.94	72.56
442.12	9.36
442.31	58.51
442.50	0.00
442.68	42.13
442.87	53.83
443.05	16.38
443.24	42.13
443.43	49.15
443.61	32.77
443.80	28.09
443.98	154.48
444.17	35.11
444.35	74.90
444.54	91.28
444.73	140.43
444.91	49.15
445.10	140.43
445.28	51.49
445.47	25.75
445.65	145.11
445.84	28.09
446.02	77.24
446.21	117.03
446.39	51.49
446.58	60.85
446.77	18.72
446.95	25.75
447.14	0.00
447.32	60.85
447.51	0.00
447.69	44.47
447.88	0.00
448.06	117.03
448.25	63.19
448.43	95.96
448.62	93.62
448.80	7.02
448.99	0.00
449.17	84.26
449.36	53.83
449.54	74.90
449.73	16.38
449.91	65.54
450.10	91.28
450.28	32.77
450.46	126.39
450.65	32.77
450.83	4.68
451.02	23.41
451.20	124.05
451.39	28.09
451.57	86.60
451.76	44.47
451.94	16.38
452.13	124.05
452.31	135.75
452.49	84.26
452.68	25.75
452.86	23.41
453.05	161.50
453.23	42.13
453.42	86.60
453.60	65.54
453.78	35.11
453.97	28.09
454.15	42.13
454.34	21.06
454.52	107.66
454.70	65.54
454.89	7.02
455.07	81.92
455.26	42.13
455.44	67.88
455.62	46.81
455.81	0.00
455.99	37.45
456.17	102.98
456.36	44.47
456.54	67.88
456.73	79.58
456.91	23.41
457.09	79.58
457.28	44.47
457.46	35.11
457.64	91.28
457.83	63.19
458.01	25.75
458.19	51.49
458.38	128.73
458.56	72.56
458.74	149.79
458.93	18.72
459.11	23.41
459.29	0.00
459.48	4.68
459.66	67.88
459.84	79.58
460.03	60.85
460.21	63.19
460.39	46.81
460.57	77.24
460.76	28.09
460.94	70.22
461.12	67.88
461.31	60.85
461.49	21.06
461.67	105.32
461.85	77.24
462.04	128.73
462.22	131.07
462.40	18.72
462.59	53.83
462.77	42.13
462.95	86.60
463.13	23.41
463.32	28.09
463.50	74.90
463.68	42.13
463.86	63.19
464.05	42.13
464.23	25.75
464.41	63.19
464.59	138.09
464.78	42.13
464.96	11.70
465.14	65.54
465.32	74.90
465.50	39.79
465.69	100.64
465.87	65.54
466.05	0.00
466.23	51.49
466.41	86.60
466.60	14.04
466.78	86.60
466.96	32.77
467.14	42.13
467.32	114.69
467.51	105.32
467.69	79.58
467.87	35.11
468.05	60.85
468.23	0.00
468.41	39.79
468.60	114.69
468.78	84.26
468.96	112.35
469.14	18.72
469.32	72.56
469.50	170.86
469.69	88.94
469.87	138.09
470.05	133.41
470.23	39.79
470.41	86.60
470.59	18.72
470.77	39.79
470.95	65.54
471.14	56.17
471.32	35.11
471.50	49.15
471.68	65.54
471.86	63.19
472.04	70.22
472.22	65.54
472.40	79.58
472.58	140.43
472.77	88.94
472.95	23.41
473.13	86.60
473.31	79.58
473.49	63.19
473.67	110.01
473.85	79.58
474.03	0.00
474.21	46.81
474.39	46.81
474.57	0.00
474.75	135.75
474.93	81.92
475.12	74.90
475.30	117.03
475.48	74.90
475.66	53.83
475.84	93.62
476.02	4.68
476.20	32.77
476.38	16.38
476.56	77.24
476.74	0.00
476.92	60.85
477.10	0.00
477.28	23.41
477.46	14.04
477.64	84.26
477.82	37.45
478.00	0.00
478.18	81.92
478.36	128.73
478.54	84.26
478.72	133.41
478.90	74.90
479.08	60.85
479.26	67.88
479.44	65.54
479.62	58.51
479.80	77.24
479.98	117.03
480.16	107.66
480.34	84.26
480.52	56.17
480.70	35.11
480.88	0.00
481.06	88.94
481.24	126.39
481.41	51.49
481.59	67.88
481.77	84.26
481.95	86.60
482.13	53.83
482.31	37.45
482.49	72.56
482.67	37.45
482.85	58.51
483.03	37.45
483.21	114.69
483.39	44.47
483.57	102.98
483.74	44.47
483.92	23.41
484.10	74.90
484.28	102.98
484.46	84.26
484.64	88.94
484.82	102.98
485.00	77.24
485.18	128.73
485.35	60.85
485.53	124.05
485.71	107.66
485.89	51.49
486.07	107.66
486.25	63.19
486.43	51.49
486.61	39.79
486.78	56.17
486.96	30.43
487.14	30.43
487.32	86.60
487.50	18.72
487.68	86.60
487.85	60.85
488.03	32.77
488.21	65.54
488.39	23.41
488.57	0.00
488.75	156.82
488.92	0.00
489.10	79.58
489.28	84.26
489.46	81.92
489.64	135.75
489.81	44.47
489.99	133.41
490.17	72.56
490.35	86.60
490.53	105.32
490.70	58.51
490.88	39.79
491.06	39.79
491.24	58.51
491.41	84.26
491.59	67.88
491.77	81.92
491.95	135.75
492.13	100.64
492.30	156.82
492.48	93.62
492.66	14.04
492.84	63.19
493.01	95.96
493.19	0.00
493.37	175.54
493.54	60.85
493.72	93.62
493.90	46.81
494.08	79.58
494.25	44.47
494.43	25.75
494.61	112.35
494.79	135.75
494.96	49.15
495.14	67.88
495.32	42.13
495.49	86.60
495.67	91.28
495.85	51.49
496.02	74.90
496.20	77.24
496.38	88.94
496.55	60.85
496.73	65.54
496.91	117.03
497.09	126.39
497.26	107.66
497.44	28.09
497.62	58.51
497.79	53.83
497.97	32.77
498.14	79.58
498.32	72.56
498.50	63.19
498.67	60.85
498.85	53.83
499.03	93.62
499.20	65.54
499.38	114.69
499.56	79.58
499.73	49.15
499.91	77.24
500.08	49.15
500.26	70.22
500.44	32.77
500.61	77.24
500.79	100.64
500.97	18.72
501.14	60.85
501.32	88.94
501.49	152.13
501.67	65.54
501.84	112.35
502.02	30.43
502.20	60.85
502.37	39.79
502.55	149.79
502.72	121.71
502.90	72.56
503.07	88.94
503.25	117.03
503.43	65.54
503.60	145.11
503.78	60.85
503.95	145.11
504.13	147.45
504.30	0.00
504.48	58.51
504.65	119.37
504.83	67.88
505.01	74.90
505.18	84.26
505.36	65.54
505.53	58.51
505.71	39.79
505.88	121.71
506.06	35.11
506.23	0.00
506.41	49.15
506.58	53.83
506.76	91.28
506.93	114.69
507.11	126.39
507.28	0.00
507.46	121.71
507.63	63.19
507.81	88.94
507.98	161.50
508.16	67.88
508.33	124.05
508.50	154.48
508.68	60.85
508.85	98.30
509.03	98.30
509.20	58.51
509.38	0.00
509.55	147.45
509.73	60.85
509.90	65.54
510.08	46.81
510.25	81.92
510.42	74.90
510.60	142.77
510.77	105.32
510.95	67.88
511.12	110.01
511.30	95.96
511.47	72.56
511.64	131.07
511.82	53.83
511.99	53.83
512.17	65.54
512.34	32.77
512.51	110.01
512.69	44.47
512.86	74.90
513.04	25.75
513.21	44.47
513.38	18.72
513.56	60.85
513.73	63.19
513.90	46.81
514.08	114.69
514.25	81.92
514.43	114.69
514.60	72.56
514.77	86.60
514.95	110.01
515.12	117.03
515.29	119.37
515.47	53.83
515.64	84.26
515.81	98.30
515.99	110.01
516.16	53.83
516.33	44.47
516.51	124.05
516.68	124.05
516.85	121.71
517.03	81.92
517.20	0.00
517.37	93.62
517.54	46.81
517.72	88.94
517.89	124.05
518.06	51.49
518.24	74.90
518.41	79.58
518.58	70.22
518.75	138.09
518.93	81.92
519.10	56.17
519.27	53.83
519.45	142.77
519.62	93.62
519.79	152.13
519.96	100.64
520.14	147.45
520.31	91.28
520.48	100.64
520.65	107.66
520.83	98.30
521.00	72.56
521.17	100.64
521.34	53.83
521.52	77.24
521.69	105.32
521.86	95.96
522.03	93.62
522.20	74.90
522.38	95.96
522.55	126.39
522.72	168.52
522.89	56.17
523.07	128.73
523.24	65.54
523.41	21.06
523.58	65.54
523.75	49.15
523.92	117.03
524.10	119.37
524.27	77.24
524.44	107.66
524.61	23.41
524.78	74.90
524.96	30.43
525.13	93.62
525.30	100.64
525.47	180.22
525.64	98.30
525.81	30.43
525.98	77.24
526.16	51.49
526.33	56.17
526.50	128.73
526.67	58.51
526.84	100.64
527.01	72.56
527.18	152.13
527.36	117.03
527.53	88.94
527.70	126.39
527.87	81.92
528.04	46.81
528.21	65.54
528.38	119.37
528.55	65.54
528.72	128.73
528.89	117.03
529.07	63.19
529.24	88.94
529.41	93.62
529.58	70.22
529.75	63.19
529.92	100.64
530.09	72.56
530.26	77.24
530.43	119.37
530.60	88.94
530.77	84.26
530.94	112.35
531.11	117.03
531.28	0.00
531.46	70.22
531.63	74.90
531.80	49.15
531.97	65.54
532.14	128.73
532.31	74.90
532.48	93.62
532.65	56.17
532.82	88.94
532.99	131.07
533.16	124.05
533.33	49.15
533.50	74.90
533.67	93.62
533.84	131.07
534.01	114.69
534.18	58.51
534.35	42.13
534.52	91.28
534.69	0.00
534.86	67.88
535.03	107.66
535.20	112.35
535.37	161.50
535.54	140.43
535.71	145.11
535.88	70.22
536.05	133.41
536.22	128.73
536.38	67.88
536.55	74.90
536.72	84.26
536.89	95.96
537.06	124.05
537.23	147.45
537.40	114.69
537.57	95.96
537.74	72.56
537.91	177.88
538.08	70.22
538.25	124.05
538.42	117.03
538.59	138.09
538.75	56.17
538.92	56.17
539.09	119.37
539.26	72.56
539.43	46.81
539.60	105.32
539.77	74.90
539.94	67.88
540.11	93.62
540.28	56.17
540.44	86.60
540.61	67.88
540.78	46.81
540.95	79.58
541.12	95.96
541.29	63.19
541.46	65.54
541.62	58.51
541.79	100.64
541.96	119.37
542.13	121.71
542.30	112.35
542.47	154.48
542.63	131.07
542.80	60.85
542.97	35.11
543.14	74.90
543.31	37.45
543.48	53.83
543.64	74.90
543.81	58.51
543.98	67.88
544.15	18.72
544.32	126.39
544.48	44.47
544.65	58.51
544.82	88.94
544.99	102.98
545.16	46.81
545.32	74.90
545.49	56.17
545.66	105.32
545.83	0.00
546.00	63.19
546.16	95.96
546.33	88.94
546.50	102.98
546.67	112.35
546.83	93.62
547.00	77.24
547.17	110.01
547.34	98.30
547.50	77.24
547.67	114.69
547.84	84.26
548.00	79.58
548.17	117.03
548.34	32.77
548.51	70.22
548.67	49.15
548.84	65.54
549.01	77.24
549.18	79.58
549.34	86.60
549.51	110.01
549.68	154.48
549.84	112.35
550.01	58.51
550.18	49.15
550.34	98.30
550.51	81.92
550.68	182.56
550.84	56.17
551.01	51.49
551.18	102.98
551.34	121.71
551.51	138.09
551.68	119.37
551.84	117.03
552.01	128.73
552.18	161.50
552.34	119.37
552.51	70.22
552.68	39.79
552.84	44.47
553.01	100.64
553.18	77.24
553.34	95.96
553.51	39.79
553.67	117.03
553.84	44.47
554.01	42.13
554.17	98.30
554.34	79.58
554.51	81.92
554.67	46.81
554.84	2.34
555.00	140.43
555.17	16.38
555.33	53.83
555.50	100.64
555.67	44.47
555.83	135.75
556.00	156.82
556.16	135.75
556.33	84.26
556.50	67.88
556.66	140.43
556.83	102.98
556.99	32.77
557.16	105.32
557.32	93.62
557.49	74.90
557.65	28.09
557.82	98.30
557.98	98.30
558.15	100.64
558.32	93.62
558.48	16.38
558.65	42.13
558.81	72.56
558.98	131.07
559.14	107.66
559.31	63.19
559.47	72.56
559.64	65.54
559.80	72.56
559.97	14.04
560.13	147.45
560.30	32.77
560.46	65.54
560.63	84.26
560.79	25.75
560.96	53.83
561.12	93.62
561.29	105.32
561.45	21.06
561.61	91.28
561.78	138.09
561.94	168.52
562.11	184.90
562.27	112.35
562.44	98.30
562.60	84.26
562.77	161.50
562.93	58.51
563.10	107.66
563.26	100.64
563.42	74.90
563.59	117.03
563.75	65.54
563.92	95.96
564.08	128.73
564.24	112.35
564.41	114.69
564.57	39.79
564.74	42.13
564.90	63.19
565.07	72.56
565.23	58.51
565.39	88.94
565.56	133.41
565.72	98.30
565.88	25.75
566.05	63.19
566.21	131.07
566.38	100.64
566.54	77.24
566.70	86.60
566.87	154.48
567.03	117.03
567.19	110.01
567.36	110.01
567.52	23.41
567.68	88.94
567.85	51.49
568.01	44.47
568.17	98.30
568.34	105.32
568.50	117.03
568.66	121.71
568.83	53.83
568.99	23.41
569.15	100.64
569.32	107.66
569.48	79.58
569.64	102.98
569.81	65.54
569.97	91.28
570.13	102.98
570.30	119.37
570.46	74.90
570.62	56.17
570.78	63.19
570.95	119.37
571.11	51.49
571.27	79.58
571.43	44.47
571.60	30.43
571.76	98.30
571.92	112.35
572.09	95.96
572.25	79.58
572.41	107.66
572.57	37.45
572.74	46.81
572.90	74.90
573.06	84.26
573.22	70.22
573.38	145.11
573.55	77.24
573.71	18.72
573.87	63.19
574.03	88.94
574.20	133.41
574.36	67.88
574.52	42.13
574.68	93.62
574.84	51.49
575.01	39.79
575.17	161.50
575.33	14.04
575.49	30.43
575.65	39.79
575.82	67.88
575.98	53.83
576.14	100.64
576.30	2.34
576.46	60.85
576.62	56.17
576.79	88.94
576.95	159.16
577.11	100.64
577.27	49.15
577.43	91.28
577.59	46.81
577.75	74.90
577.92	51.49
578.08	0.00
578.24	46.81
578.40	84.26
578.56	145.11
578.72	91.28
578.88	107.66
579.04	72.56
579.21	49.15
579.37	65.54
579.53	21.06
579.69	88.94
579.85	30.43
580.01	110.01
580.17	77.24
580.33	51.49
580.49	98.30
580.65	100.64
580.82	121.71
580.98	44.47
581.14	154.48
581.30	145.11
581.46	21.06
581.62	0.00
581.78	95.96
581.94	74.90
582.10	28.09
582.26	42.13
582.42	107.66
582.58	86.60
582.74	67.88
582.90	51.49
583.06	88.94
583.22	81.92
583.38	42.13
583.54	4.68
583.70	133.41
583.86	93.62
584.02	114.69
584.18	44.47
584.34	67.88
584.50	65.54
584.66	72.56
584.82	184.90
584.98	77.24
585.14	91.28
585.30	84.26
585.46	74.90
585.62	91.28
585.78	126.39
585.94	39.79
586.10	117.03
586.26	37.45
586.42	63.19
586.58	60.85
586.74	21.06
586.90	74.90
587.06	18.72
587.22	79.58
587.38	72.56
587.54	119.37
587.70	9.36
587.86	147.45
588.02	105.32
588.18	67.88
588.34	77.24
588.49	84.26
588.65	74.90
588.81	93.62
588.97	79.58
589.13	0.00
589.29	100.64
589.45	135.75
589.61	117.03
589.77	63.19
589.93	0.00
590.08	88.94
590.24	70.22
590.40	53.83
590.56	117.03
590.72	117.03
590.88	53.83
591.04	102.98
591.20	98.30
591.35	60.85
591.51	74.90
591.67	56.17
591.83	16.38
591.99	81.92
592.15	114.69
592.31	105.32
592.46	84.26
592.62	91.28
592.78	124.05
592.94	11.70
593.10	121.71
593.26	102.98
593.41	107.66
593.57	74.90
593.73	65.54
593.89	32.77
594.05	23.41
594.20	95.96
594.36	133.41
594.52	44.47
594.68	131.07
594.84	28.09
594.99	74.90
595.15	60.85
595.31	70.22
595.47	58.51
595.62	32.77
595.78	53.83
595.94	70.22
596.10	138.09
596.25	138.09
596.41	70.22
596.57	23.41
596.73	46.81
596.88	102.98
597.04	32.77
597.20	93.62
597.36	65.54
597.51	60.85
597.67	79.58
597.83	93.62
597.99	51.49
598.14	74.90
598.30	32.77
598.46	86.60
598.61	60.85
598.77	98.30
598.93	56.17
599.09	49.15
599.24	0.00
599.40	140.43
599.56	81.92
599.71	88.94
599.87	42.13
600.03	67.88
600.18	128.73
600.34	53.83
600.50	56.17
600.65	46.81
600.81	70.22
600.97	37.45
601.12	79.58
601.28	58.51
601.44	154.48
601.59	79.58
601.75	114.69
601.91	105.32
602.06	140.43
602.22	74.90
602.37	30.43
602.53	84.26
602.69	84.26
602.84	58.51
603.00	110.01
603.16	30.43
603.31	105.32
603.47	53.83
603.62	67.88
603.78	142.77
603.94	42.13
604.09	63.19
604.25	42.13
604.40	86.60
604.56	84.26
604.71	84.26
604.87	77.24
605.03	30.43
605.18	102.98
605.34	124.05
605.49	39.79
605.65	67.88
605.80	196.60
605.96	72.56
606.12	126.39
606.27	102.98
606.43	56.17
606.58	51.49
606.74	63.19
606.89	49.15
607.05	98.30
607.20	39.79
607.36	72.56
607.51	65.54
607.67	79.58
607.82	100.64
607.98	35.11
608.13	30.43
608.29	91.28
608.44	67.88
608.60	84.26
608.75	95.96
608.91	147.45
609.06	63.19
609.22	49.15
609.37	46.81
609.53	9.36
609.68	95.96
609.84	46.81
609.99	149.79
610.15	86.60
610.30	37.45
610.46	119.37
610.61	84.26
610.76	93.62
610.92	84.26
611.07	81.92
611.23	79.58
611.38	86.60
611.54	93.62
611.69	70.22
611.84	0.00
612.00	84.26
612.15	79.58
612.31	42.13
612.46	25.75
612.62	102.98
612.77	18.72
612.92	28.09
613.08	44.47
613.23	46.81
613.39	74.90
613.54	93.62
613.69	46.81
613.85	39.79
614.00	72.56
614.15	32.77
614.31	74.90
614.46	72.56
614.62	14.04
614.77	30.43
614.92	51.49
615.08	51.49
615.23	88.94
615.38	60.85
615.54	72.56
615.69	105.32
615.84	35.11
616.00	28.09
616.15	86.60
616.30	0.00
616.46	9.36
616.61	21.06
616.76	28.09
616.92	11.70
617.07	21.06
617.22	18.72
617.37	107.66
617.53	2.34
617.68	128.73
617.83	49.15
617.99	114.69
618.14	81.92
618.29	79.58
618.45	67.88
618.60	126.39
618.75	63.19
618.90	67.88
619.06	51.49
619.21	42.13
619.36	72.56
619.51	65.54
619.67	42.13
619.82	131.07
619.97	98.30
620.12	100.64
620.28	70.22
620.43	65.54
620.58	21.06
620.73	72.56
620.89	140.43
621.04	110.01
621.19	95.96
621.34	16.38
621.49	44.47
621.65	88.94
621.80	63.19
621.95	93.62
622.10	70.22
622.25	67.88
622.41	32.77
622.56	9.36
622.71	63.19
622.86	30.43
623.01	79.58
623.16	25.75
623.32	18.72
623.47	88.94
623.62	0.00
623.77	58.51
623.92	39.79
624.07	105.32
624.23	21.06
624.38	107.66
624.53	51.49
624.68	88.94
624.83	107.66
624.98	35.11
625.13	84.26
625.29	98.30
625.44	86.60
625.59	124.05
625.74	46.81
625.89	44.47
626.04	56.17
626.19	28.09
626.34	95.96
626.49	91.28
626.65	56.17
626.80	60.85
626.95	16.38
627.10	72.56
627.25	98.30
627.40	67.88
627.55	65.54
627.70	77.24
627.85	53.83
628.00	9.36
628.15	30.43
628.30	88.94
628.45	42.13
628.60	77.24
628.76	88.94
628.91	60.85
629.06	51.49
629.21	7.02
629.36	67.88
629.51	65.54
629.66	93.62
629.81	131.07
629.96	23.41
630.11	102.98
630.26	16.38
630.41	35.11
630.56	86.60
630.71	60.85
630.86	63.19
631.01	46.81
631.16	0.00
631.31	95.96
631.46	121.71
631.61	119.37
631.76	58.51
631.91	81.92
632.06	70.22
632.21	63.19
632.36	60.85
632.51	114.69
632.66	112.35
632.81	79.58
632.96	56.17
633.10	79.58
633.25	42.13
633.40	119.37
633.55	91.28
633.70	58.51
633.85	93.62
634.00	42.13
634.15	79.58
634.30	56.17
634.45	67.88
634.60	102.98
634.75	91.28
634.90	0.00
635.05	154.48
635.19	49.15
635.34	9.36
635.49	11.70
635.64	49.15
635.79	18.72
635.94	46.81
636.09	32.77
636.24	58.51
636.39	30.43
636.53	65.54
636.68	121.71
636.83	65.54
636.98	131.07
637.13	32.77
637.28	98.30
637.43	100.64
637.57	102.98
637.72	30.43
637.87	42.13
638.02	58.51
638.17	56.17
638.32	91.28
638.46	42.13
638.61	98.30
638.76	44.47
638.91	100.64
639.06	42.13
639.20	53.83
639.35	49.15
639.50	65.54
639.65	49.15
639.80	7.02
639.94	88.94
640.09	32.77
640.24	60.85
640.39	28.09
640.54	0.00
640.68	81.92
640.83	51.49
640.98	63.19
641.13	70.22
641.27	11.70
641.42	117.03
641.57	63.19
641.72	23.41
641.86	46.81
642.01	112.35
642.16	100.64
642.31	0.00
642.45	53.83
642.60	86.60
642.75	9.36
642.90	86.60
643.04	131.07
643.19	39.79
643.34	23.41
643.48	70.22
643.63	21.06
643.78	72.56
643.93	32.77
644.07	65.54
644.22	152.13
644.37	39.79
644.51	46.81
644.66	53.83
644.81	102.98
644.95	39.79
645.10	32.77
645.25	65.54
645.39	11.70
645.54	65.54
645.69	100.64
645.83	42.13
645.98	138.09
646.13	51.49
646.27	0.00
646.42	2.34
646.57	163.84
646.71	58.51
646.86	84.26
647.00	37.45
647.15	0.00
647.30	77.24
647.44	42.13
647.59	53.83
647.74	60.85
647.88	23.41
648.03	16.38
648.17	21.06
648.32	0.00
648.47	16.38
648.61	23.41
648.76	84.26
648.90	98.30
649.05	16.38
649.20	53.83
649.34	44.47
649.49	39.79
649.63	70.22
649.78	65.54
649.92	95.96
650.07	70.22
650.21	28.09
650.36	32.77
650.51	0.00
650.65	39.79
650.80	72.56
650.94	100.64
651.09	56.17
651.23	65.54
651.38	32.77
651.52	81.92
651.67	133.41
651.81	46.81
651.96	9.36
652.10	110.01
652.25	65.54
652.39	0.00
652.54	60.85
652.68	131.07
652.83	60.85
652.97	70.22
653.12	37.45
653.26	58.51
653.41	16.38
653.55	95.96
653.70	0.00
653.84	102.98
653.99	67.88
654.13	32.77
654.27	0.00
654.42	44.47
654.56	67.88
654.71	37.45
654.85	0.00
655.00	56.17
655.14	124.05
655.29	39.79
655.43	60.85
655.57	23.41
655.72	77.24
655.86	79.58
656.01	37.45
656.15	39.79
656.30	0.00
656.44	0.00
656.58	63.19
656.73	44.47
656.87	72.56
657.01	56.17
657.16	72.56
657.30	70.22
657.45	28.09
657.59	51.49
657.73	49.15
657.88	35.11
658.02	0.00
658.16	49.15
658.31	28.09
658.45	67.88
658.60	25.75
658.74	117.03
658.88	81.92
659.03	49.15
659.17	65.54
659.31	44.47
659.46	14.04
659.60	25.75
659.74	126.39
659.89	0.00
660.03	35.11
660.17	53.83
660.32	23.41
660.46	95.96
660.60	56.17
660.74	30.43
660.89	28.09
661.03	53.83
661.17	39.79
661.32	14.04
661.46	18.72
661.60	0.00
661.74	32.77
661.89	60.85
662.03	98.30
662.17	21.06
662.31	86.60
662.46	16.38
662.60	86.60
662.74	105.32
662.88	79.58
663.03	79.58
663.17	28.09
663.31	49.15
663.45	32.77
663.60	72.56
663.74	105.32
663.88	30.43
664.02	25.75
664.17	67.88
664.31	84.26
664.45	0.00
664.59	110.01
664.73	46.81
664.88	70.22
665.02	16.38
665.16	102.98
665.30	72.56
665.44	46.81
665.59	110.01
665.73	49.15
665.87	53.83
666.01	16.38
666.15	16.38
666.29	37.45
666.44	0.00
666.58	28.09
666.72	9.36
666.86	0.00
667.00	79.58
667.14	88.94
667.28	135.75
667.43	0.00
667.57	16.38
667.71	44.47
667.85	42.13
667.99	70.22
668.13	0.00
668.27	131.07
668.41	100.64
668.56	86.60
668.70	32.77
668.84	46.81
668.98	58.51
669.12	44.47
669.26	0.00
669.40	84.26
669.54	0.00
669.68	35.11
669.82	70.22
669.96	35.11
670.10	72.56
670.25	91.28
670.39	117.03
670.53	81.92
670.67	63.19
670.81	56.17
670.95	53.83
671.09	39.79
671.23	46.81
671.37	105.32
671.51	44.47
671.65	4.68
671.79	42.13
671.93	53.83
672.07	46.81
672.21	88.94
672.35	70.22
672.49	105.32
672.63	11.70
672.77	88.94
672.91	32.77
673.05	117.03
673.19	70.22
673.33	79.58
673.47	35.11
673.61	79.58
673.75	93.62
673.89	114.69
674.03	2.34
674.17	77.24
674.31	67.88
674.45	112.35
674.59	56.17
674.73	46.81
674.87	51.49
675.01	86.60
675.15	67.88
675.29	42.13
675.43	39.79
675.56	88.94
675.70	98.30
675.84	77.24
675.98	25.75
676.12	0.00
676.26	0.00
676.40	65.54
676.54	91.28
676.68	63.19
676.82	98.30
676.96	16.38
677.10	0.00
677.23	107.66
677.37	0.00
677.51	63.19
677.65	107.66
677.79	35.11
677.93	11.70
678.07	0.00
678.21	42.13
678.34	51.49
678.48	35.11
678.62	114.69
678.76	88.94
678.90	70.22
679.04	35.11
679.18	60.85
679.31	79.58
679.45	79.58
679.59	39.79
679.73	51.49
679.87	60.85
680.00	44.47
680.14	44.47
680.28	18.72
680.42	7.02
680.56	88.94
680.70	32.77
680.83	58.51
680.97	77.24
681.11	46.81
681.25	121.71
681.39	0.00
681.52	58.51
681.66	35.11
681.80	56.17
681.94	2.34
682.07	0.00
682.21	77.24
682.35	65.54
682.49	63.19
682.62	42.13
682.76	53.83
682.90	0.00
683.04	0.00
683.17	0.00
683.31	37.45
683.45	86.60
683.59	49.15
683.72	65.54
683.86	39.79
684.00	39.79
684.13	2.34
684.27	60.85
684.41	65.54
684.55	32.77
684.68	21.06
684.82	25.75
684.96	60.85
685.09	21.06
685.23	28.09
685.37	37.45
685.50	21.06
685.64	77.24
685.78	25.75
685.91	0.00
686.05	30.43
686.19	0.00
686.32	23.41
686.46	63.19
686.60	37.45
686.73	81.92
686.87	0.00
687.01	35.11
687.14	91.28
687.28	21.06
687.42	65.54
687.55	67.88
687.69	42.13
687.82	0.00
687.96	77.24
688.10	70.22
688.23	35.11
688.37	51.49
688.50	138.09
688.64	30.43
688.78	7.02
688.91	25.75
689.05	77.24
689.18	84.26
689.32	65.54
689.46	128.73
689.59	51.49
689.73	79.58
689.86	16.38
690.00	72.56
690.13	0.00
690.27	7.02
690.41	16.38
690.54	79.58
690.68	124.05
690.81	37.45
690.95	58.51
691.08	0.00
691.22	28.09
691.35	18.72
691.49	81.92
691.62	67.88
691.76	4.68
691.89	0.00
692.03	72.56
692.16	53.83
692.30	84.26
692.43	0.00
692.57	84.26
692.70	35.11
692.84	46.81
692.97	114.69
693.11	9.36
693.24	51.49
693.38	0.00
693.51	53.83
693.65	63.19
693.78	60.85
693.92	51.49
694.05	56.17
694.19	53.83
694.32	49.15
694.45	56.17
694.59	0.00
694.72	42.13
694.86	51.49
694.99	58.51
695.13	28.09
695.26	30.43
695.39	110.01
695.53	0.00
695.66	16.38
695.80	93.62
695.93	0.00
696.07	72.56
696.20	46.81
696.33	44.47
696.47	39.79
696.60	0.00
696.73	25.75
696.87	21.06
697.00	16.38
697.14	84.26
697.27	30.43
697.40	37.45
697.54	70.22
697.67	16.38
697.80	93.62
697.94	35.11
698.07	86.60
698.21	18.72
698.34	51.49
698.47	107.66
698.61	60.85
698.74	72.56
698.87	16.38
699.01	37.45
699.14	28.09
699.27	23.41
699.40	25.75
699.54	0.00
699.67	28.09
699.80	37.45
699.94	46.81
700.07	65.54
700.20	0.00
700.34	58.51
700.47	49.15
700.60	28.09
700.73	7.02
700.87	77.24
701.00	53.83
701.13	51.49
701.26	56.17
701.40	16.38
701.53	39.79
701.66	18.72
701.79	49.15
701.93	65.54
702.06	21.06
702.19	53.83
702.32	91.28
702.46	77.24
702.59	91.28
702.72	32.77
702.85	56.17
702.99	42.13
703.12	67.88
703.25	14.04
703.38	9.36
703.51	91.28
703.65	32.77
703.78	4.68
703.91	46.81
704.04	63.19
704.17	44.47
704.31	81.92
704.44	39.79
704.57	18.72
704.70	37.45
704.83	30.43
704.96	21.06
705.10	60.85
705.23	117.03
>>>>>End Processed Spectral Data<<<<<
