SpectraSuite Data File
++++++++++++++++++++++++++++++++++++
Date: Fri Oct 04 12:13:40 GMT-05:00 2013
User: price-jones
Dark Spectrum Present: No
Reference Spectrum Present: No
Number of Sampled Component Spectra: 1
Spectrometers: USB2+H05261
Integration Time (usec): 10000 (USB2+H05261)
Spectra Averaged: 1 (USB2+H05261)
Boxcar Smoothing: 0 (USB2+H05261)
Correct for Electrical Dark: No (USB2+H05261)
Strobe/Lamp Enabled: No (USB2+H05261)
Correct for Detector Non-linearity: No (USB2+H05261)
Correct for Stray Light: No (USB2+H05261)
Number of Pixels in Processed Spectrum: 2048
>>>>>Begin Processed Spectral Data<<<<<
365.73	0.00
365.92	0.00
366.12	0.00
366.32	0.00
366.52	0.00
366.72	0.00
366.91	0.00
367.11	0.00
367.31	0.00
367.51	0.00
367.70	0.00
367.90	0.00
368.10	0.00
368.30	0.00
368.49	0.00
368.69	0.00
368.89	0.00
369.09	0.00
369.28	0.00
369.48	0.00
369.68	0.00
369.87	0.00
370.07	0.00
370.27	0.00
370.47	0.00
370.66	0.00
370.86	0.00
371.06	0.00
371.25	0.00
371.45	18.72
371.65	0.00
371.84	14.04
372.04	2.34
372.24	0.00
372.44	16.38
372.63	0.00
372.83	14.04
373.03	0.00
373.22	0.00
373.42	21.06
373.62	16.38
373.81	0.00
374.01	0.00
374.21	56.17
374.40	0.00
374.60	2.34
374.79	46.81
374.99	110.01
375.19	30.43
375.38	56.17
375.58	0.00
375.78	60.85
375.97	37.45
376.17	25.75
376.37	0.00
376.56	70.22
376.76	42.13
376.95	9.36
377.15	32.77
377.35	32.77
377.54	32.77
377.74	60.85
377.93	88.94
378.13	0.00
378.33	16.38
378.52	77.24
378.72	11.70
378.91	0.00
379.11	9.36
379.31	70.22
379.50	81.92
379.70	39.79
379.89	37.45
380.09	0.00
380.28	63.19
380.48	0.00
380.68	0.00
380.87	0.00
381.07	35.11
381.26	0.00
381.46	21.06
381.65	0.00
381.85	88.94
382.04	72.56
382.24	110.01
382.43	46.81
382.63	37.45
382.83	35.11
383.02	0.00
383.22	0.00
383.41	2.34
383.61	18.72
383.80	0.00
384.00	58.51
384.19	0.00
384.39	4.68
384.58	9.36
384.78	16.38
384.97	21.06
385.17	0.00
385.36	0.00
385.56	49.15
385.75	58.51
385.95	11.70
386.14	67.88
386.34	28.09
386.53	37.45
386.72	0.00
386.92	0.00
387.11	25.75
387.31	21.06
387.50	88.94
387.70	16.38
387.89	4.68
388.09	0.00
388.28	0.00
388.48	42.13
388.67	14.04
388.86	7.02
389.06	23.41
389.25	0.00
389.45	42.13
389.64	42.13
389.84	0.00
390.03	16.38
390.22	23.41
390.42	0.00
390.61	0.00
390.81	81.92
391.00	7.02
391.19	30.43
391.39	0.00
391.58	18.72
391.78	60.85
391.97	25.75
392.16	46.81
392.36	72.56
392.55	0.00
392.75	56.17
392.94	0.00
393.13	16.38
393.33	0.00
393.52	4.68
393.71	39.79
393.91	0.00
394.10	0.00
394.29	0.00
394.49	51.49
394.68	4.68
394.88	21.06
395.07	18.72
395.26	46.81
395.46	0.00
395.65	58.51
395.84	114.69
396.04	102.98
396.23	0.00
396.42	67.88
396.62	23.41
396.81	56.17
397.00	74.90
397.19	0.00
397.39	0.00
397.58	28.09
397.77	88.94
397.97	0.00
398.16	4.68
398.35	0.00
398.55	0.00
398.74	70.22
398.93	81.92
399.12	49.15
399.32	72.56
399.51	23.41
399.70	9.36
399.90	30.43
400.09	107.66
400.28	37.45
400.47	0.00
400.67	0.00
400.86	56.17
401.05	30.43
401.24	4.68
401.44	9.36
401.63	0.00
401.82	88.94
402.01	37.45
402.21	42.13
402.40	0.00
402.59	0.00
402.78	0.00
402.97	11.70
403.17	67.88
403.36	0.00
403.55	21.06
403.74	81.92
403.93	21.06
404.13	60.85
404.32	0.00
404.51	0.00
404.70	4.68
404.89	58.51
405.09	0.00
405.28	42.13
405.47	49.15
405.66	42.13
405.85	21.06
406.05	16.38
406.24	11.70
406.43	30.43
406.62	46.81
406.81	32.77
407.00	23.41
407.20	0.00
407.39	44.47
407.58	35.11
407.77	42.13
407.96	110.01
408.15	79.58
408.34	121.71
408.54	0.00
408.73	0.00
408.92	51.49
409.11	37.45
409.30	0.00
409.49	23.41
409.68	77.24
409.87	25.75
410.07	0.00
410.26	35.11
410.45	0.00
410.64	23.41
410.83	39.79
411.02	98.30
411.21	32.77
411.40	16.38
411.59	0.00
411.78	72.56
411.98	49.15
412.17	0.00
412.36	28.09
412.55	0.00
412.74	0.00
412.93	7.02
413.12	77.24
413.31	0.00
413.50	25.75
413.69	58.51
413.88	16.38
414.07	23.41
414.26	46.81
414.45	39.79
414.64	0.00
414.83	0.00
415.02	21.06
415.22	79.58
415.41	37.45
415.60	14.04
415.79	88.94
415.98	91.28
416.17	0.00
416.36	117.03
416.55	39.79
416.74	0.00
416.93	0.00
417.12	30.43
417.31	39.79
417.50	21.06
417.69	0.00
417.88	35.11
418.07	21.06
418.26	51.49
418.45	63.19
418.64	81.92
418.83	58.51
419.02	88.94
419.21	149.79
419.39	0.00
419.58	4.68
419.77	4.68
419.96	67.88
420.15	16.38
420.34	39.79
420.53	72.56
420.72	42.13
420.91	56.17
421.10	0.00
421.29	30.43
421.48	86.60
421.67	0.00
421.86	0.00
422.05	44.47
422.24	46.81
422.43	9.36
422.61	16.38
422.80	102.98
422.99	53.83
423.18	53.83
423.37	79.58
423.56	60.85
423.75	0.00
423.94	60.85
424.13	32.77
424.32	16.38
424.50	49.15
424.69	60.85
424.88	56.17
425.07	9.36
425.26	53.83
425.45	7.02
425.64	9.36
425.83	16.38
426.01	46.81
426.20	0.00
426.39	0.00
426.58	16.38
426.77	95.96
426.96	4.68
427.15	4.68
427.33	7.02
427.52	28.09
427.71	121.71
427.90	65.54
428.09	0.00
428.28	0.00
428.46	14.04
428.65	11.70
428.84	18.72
429.03	37.45
429.22	42.13
429.40	0.00
429.59	11.70
429.78	18.72
429.97	14.04
430.16	84.26
430.34	60.85
430.53	42.13
430.72	42.13
430.91	0.00
431.10	23.41
431.28	60.85
431.47	56.17
431.66	4.68
431.85	51.49
432.03	56.17
432.22	65.54
432.41	74.90
432.60	25.75
432.79	77.24
432.97	65.54
433.16	0.00
433.35	60.85
433.54	18.72
433.72	81.92
433.91	42.13
434.10	74.90
434.28	51.49
434.47	128.73
434.66	65.54
434.85	0.00
435.03	98.30
435.22	9.36
435.41	23.41
435.59	49.15
435.78	28.09
435.97	95.96
436.16	9.36
436.34	49.15
436.53	44.47
436.72	42.13
436.90	56.17
437.09	98.30
437.28	67.88
437.46	44.47
437.65	42.13
437.84	18.72
438.02	11.70
438.21	56.17
438.40	70.22
438.58	49.15
438.77	56.17
438.96	39.79
439.14	42.13
439.33	117.03
439.52	7.02
439.70	44.47
439.89	16.38
440.08	102.98
440.26	32.77
440.45	28.09
440.63	46.81
440.82	100.64
441.01	60.85
441.19	9.36
441.38	121.71
441.57	65.54
441.75	93.62
441.94	49.15
442.12	37.45
442.31	56.17
442.50	37.45
442.68	46.81
442.87	0.00
443.05	60.85
443.24	105.32
443.43	16.38
443.61	56.17
443.80	98.30
443.98	112.35
444.17	70.22
444.35	0.00
444.54	74.90
444.73	51.49
444.91	9.36
445.10	51.49
445.28	32.77
445.47	18.72
445.65	70.22
445.84	58.51
446.02	93.62
446.21	23.41
446.39	77.24
446.58	46.81
446.77	65.54
446.95	72.56
447.14	32.77
447.32	93.62
447.51	100.64
447.69	65.54
447.88	65.54
448.06	58.51
448.25	58.51
448.43	60.85
448.62	30.43
448.80	51.49
448.99	70.22
449.17	44.47
449.36	56.17
449.54	63.19
449.73	79.58
449.91	23.41
450.10	81.92
450.28	16.38
450.46	11.70
450.65	60.85
450.83	84.26
451.02	9.36
451.20	117.03
451.39	84.26
451.57	74.90
451.76	124.05
451.94	67.88
452.13	0.00
452.31	37.45
452.49	60.85
452.68	72.56
452.86	21.06
453.05	39.79
453.23	63.19
453.42	110.01
453.60	135.75
453.78	18.72
453.97	39.79
454.15	9.36
454.34	74.90
454.52	72.56
454.70	128.73
454.89	100.64
455.07	79.58
455.26	88.94
455.44	42.13
455.62	53.83
455.81	21.06
455.99	14.04
456.17	105.32
456.36	49.15
456.54	65.54
456.73	30.43
456.91	100.64
457.09	46.81
457.28	0.00
457.46	30.43
457.64	88.94
457.83	0.00
458.01	56.17
458.19	7.02
458.38	60.85
458.56	70.22
458.74	72.56
458.93	77.24
459.11	9.36
459.29	77.24
459.48	49.15
459.66	11.70
459.84	63.19
460.03	30.43
460.21	77.24
460.39	63.19
460.57	0.00
460.76	121.71
460.94	11.70
461.12	79.58
461.31	63.19
461.49	42.13
461.67	91.28
461.85	21.06
462.04	84.26
462.22	112.35
462.40	37.45
462.59	77.24
462.77	74.90
462.95	88.94
463.13	42.13
463.32	37.45
463.50	21.06
463.68	63.19
463.86	77.24
464.05	135.75
464.23	39.79
464.41	72.56
464.59	7.02
464.78	32.77
464.96	37.45
465.14	51.49
465.32	37.45
465.50	0.00
465.69	46.81
465.87	86.60
466.05	28.09
466.23	0.00
466.41	65.54
466.60	93.62
466.78	0.00
466.96	44.47
467.14	67.88
467.32	112.35
467.51	60.85
467.69	0.00
467.87	21.06
468.05	46.81
468.23	49.15
468.41	14.04
468.60	46.81
468.78	11.70
468.96	25.75
469.14	81.92
469.32	49.15
469.50	63.19
469.69	0.00
469.87	49.15
470.05	72.56
470.23	114.69
470.41	86.60
470.59	84.26
470.77	9.36
470.95	7.02
471.14	63.19
471.32	18.72
471.50	67.88
471.68	60.85
471.86	77.24
472.04	126.39
472.22	72.56
472.40	0.00
472.58	0.00
472.77	25.75
472.95	114.69
473.13	35.11
473.31	58.51
473.49	25.75
473.67	7.02
473.85	70.22
474.03	51.49
474.21	18.72
474.39	114.69
474.57	67.88
474.75	44.47
474.93	74.90
475.12	46.81
475.30	124.05
475.48	60.85
475.66	95.96
475.84	81.92
476.02	51.49
476.20	70.22
476.38	25.75
476.56	37.45
476.74	119.37
476.92	2.34
477.10	110.01
477.28	95.96
477.46	105.32
477.64	93.62
477.82	53.83
478.00	9.36
478.18	72.56
478.36	51.49
478.54	39.79
478.72	93.62
478.90	70.22
479.08	25.75
479.26	107.66
479.44	58.51
479.62	51.49
479.80	0.00
479.98	28.09
480.16	72.56
480.34	107.66
480.52	18.72
480.70	60.85
480.88	28.09
481.06	23.41
481.24	98.30
481.41	79.58
481.59	95.96
481.77	95.96
481.95	0.00
482.13	88.94
482.31	98.30
482.49	70.22
482.67	81.92
482.85	14.04
483.03	60.85
483.21	0.00
483.39	58.51
483.57	58.51
483.74	70.22
483.92	56.17
484.10	56.17
484.28	70.22
484.46	74.90
484.64	16.38
484.82	84.26
485.00	30.43
485.18	67.88
485.35	88.94
485.53	4.68
485.71	7.02
485.89	7.02
486.07	79.58
486.25	21.06
486.43	49.15
486.61	21.06
486.78	46.81
486.96	145.11
487.14	114.69
487.32	70.22
487.50	0.00
487.68	63.19
487.85	58.51
488.03	95.96
488.21	18.72
488.39	79.58
488.57	0.00
488.75	128.73
488.92	102.98
489.10	81.92
489.28	35.11
489.46	98.30
489.64	110.01
489.81	4.68
489.99	72.56
490.17	23.41
490.35	117.03
490.53	44.47
490.70	65.54
490.88	112.35
491.06	67.88
491.24	58.51
491.41	51.49
491.59	16.38
491.77	131.07
491.95	51.49
492.13	23.41
492.30	25.75
492.48	46.81
492.66	105.32
492.84	16.38
493.01	39.79
493.19	98.30
493.37	117.03
493.54	128.73
493.72	84.26
493.90	39.79
494.08	51.49
494.25	79.58
494.43	93.62
494.61	128.73
494.79	58.51
494.96	105.32
495.14	65.54
495.32	121.71
495.49	70.22
495.67	60.85
495.85	231.71
496.02	70.22
496.20	100.64
496.38	2.34
496.55	93.62
496.73	126.39
496.91	105.32
497.09	37.45
497.26	72.56
497.44	25.75
497.62	98.30
497.79	81.92
497.97	117.03
498.14	53.83
498.32	37.45
498.50	0.00
498.67	49.15
498.85	16.38
499.03	84.26
499.20	177.88
499.38	46.81
499.56	46.81
499.73	100.64
499.91	112.35
500.08	0.00
500.26	107.66
500.44	44.47
500.61	67.88
500.79	100.64
500.97	32.77
501.14	25.75
501.32	86.60
501.49	107.66
501.67	56.17
501.84	86.60
502.02	110.01
502.20	135.75
502.37	58.51
502.55	72.56
502.72	128.73
502.90	173.20
503.07	140.43
503.25	84.26
503.43	0.00
503.60	30.43
503.78	110.01
503.95	63.19
504.13	32.77
504.30	37.45
504.48	138.09
504.65	37.45
504.83	98.30
505.01	49.15
505.18	65.54
505.36	42.13
505.53	53.83
505.71	95.96
505.88	79.58
506.06	110.01
506.23	56.17
506.41	35.11
506.58	35.11
506.76	67.88
506.93	147.45
507.11	121.71
507.28	86.60
507.46	53.83
507.63	25.75
507.81	60.85
507.98	79.58
508.16	60.85
508.33	32.77
508.50	95.96
508.68	91.28
508.85	58.51
509.03	121.71
509.20	53.83
509.38	166.18
509.55	161.50
509.73	140.43
509.90	77.24
510.08	91.28
510.25	95.96
510.42	30.43
510.60	67.88
510.77	18.72
510.95	32.77
511.12	74.90
511.30	70.22
511.47	128.73
511.64	102.98
511.82	67.88
511.99	140.43
512.17	95.96
512.34	81.92
512.51	42.13
512.69	100.64
512.86	44.47
513.04	14.04
513.21	51.49
513.38	107.66
513.56	28.09
513.73	145.11
513.90	88.94
514.08	37.45
514.25	23.41
514.43	145.11
514.60	72.56
514.77	126.39
514.95	77.24
515.12	49.15
515.29	58.51
515.47	107.66
515.64	42.13
515.81	60.85
515.99	98.30
516.16	91.28
516.33	49.15
516.51	0.00
516.68	128.73
516.85	70.22
517.03	56.17
517.20	46.81
517.37	58.51
517.54	56.17
517.72	81.92
517.89	58.51
518.06	93.62
518.24	105.32
518.41	63.19
518.58	30.43
518.75	88.94
518.93	49.15
519.10	11.70
519.27	93.62
519.45	88.94
519.62	88.94
519.79	88.94
519.96	133.41
520.14	70.22
520.31	88.94
520.48	124.05
520.65	32.77
520.83	112.35
521.00	42.13
521.17	28.09
521.34	70.22
521.52	30.43
521.69	93.62
521.86	16.38
522.03	42.13
522.20	112.35
522.38	65.54
522.55	58.51
522.72	84.26
522.89	0.00
523.07	152.13
523.24	79.58
523.41	86.60
523.58	124.05
523.75	135.75
523.92	58.51
524.10	88.94
524.27	25.75
524.44	60.85
524.61	128.73
524.78	138.09
524.96	126.39
525.13	102.98
525.30	159.16
525.47	79.58
525.64	56.17
525.81	53.83
525.98	119.37
526.16	91.28
526.33	86.60
526.50	88.94
526.67	4.68
526.84	60.85
527.01	100.64
527.18	110.01
527.36	98.30
527.53	77.24
527.70	67.88
527.87	53.83
528.04	58.51
528.21	28.09
528.38	110.01
528.55	86.60
528.72	138.09
528.89	110.01
529.07	98.30
529.24	42.13
529.41	49.15
529.58	21.06
529.75	72.56
529.92	46.81
530.09	88.94
530.26	93.62
530.43	84.26
530.60	117.03
530.77	9.36
530.94	53.83
531.11	79.58
531.28	138.09
531.46	119.37
531.63	91.28
531.80	56.17
531.97	114.69
532.14	58.51
532.31	56.17
532.48	53.83
532.65	65.54
532.82	65.54
532.99	156.82
533.16	124.05
533.33	79.58
533.50	74.90
533.67	21.06
533.84	159.16
534.01	152.13
534.18	131.07
534.35	51.49
534.52	86.60
534.69	154.48
534.86	86.60
535.03	23.41
535.20	77.24
535.37	98.30
535.54	128.73
535.71	0.00
535.88	84.26
536.05	56.17
536.22	70.22
536.38	88.94
536.55	88.94
536.72	126.39
536.89	67.88
537.06	81.92
537.23	114.69
537.40	23.41
537.57	53.83
537.74	74.90
537.91	149.79
538.08	60.85
538.25	44.47
538.42	105.32
538.59	44.47
538.75	56.17
538.92	98.30
539.09	42.13
539.26	100.64
539.43	84.26
539.60	81.92
539.77	58.51
539.94	135.75
540.11	77.24
540.28	53.83
540.44	53.83
540.61	173.20
540.78	124.05
540.95	159.16
541.12	147.45
541.29	70.22
541.46	88.94
541.62	105.32
541.79	95.96
541.96	70.22
542.13	60.85
542.30	37.45
542.47	126.39
542.63	124.05
542.80	117.03
542.97	88.94
543.14	63.19
543.31	0.00
543.48	84.26
543.64	74.90
543.81	35.11
543.98	74.90
544.15	88.94
544.32	74.90
544.48	100.64
544.65	39.79
544.82	88.94
544.99	81.92
545.16	84.26
545.32	23.41
545.49	119.37
545.66	117.03
545.83	56.17
546.00	51.49
546.16	56.17
546.33	84.26
546.50	93.62
546.67	56.17
546.83	67.88
547.00	56.17
547.17	159.16
547.34	51.49
547.50	86.60
547.67	42.13
547.84	105.32
548.00	79.58
548.17	102.98
548.34	161.50
548.51	95.96
548.67	119.37
548.84	86.60
549.01	114.69
549.18	126.39
549.34	128.73
549.51	37.45
549.68	91.28
549.84	60.85
550.01	72.56
550.18	102.98
550.34	79.58
550.51	135.75
550.68	84.26
550.84	74.90
551.01	46.81
551.18	65.54
551.34	51.49
551.51	121.71
551.68	138.09
551.84	124.05
552.01	79.58
552.18	110.01
552.34	65.54
552.51	58.51
552.68	88.94
552.84	88.94
553.01	67.88
553.18	74.90
553.34	67.88
553.51	128.73
553.67	93.62
553.84	39.79
554.01	60.85
554.17	72.56
554.34	95.96
554.51	93.62
554.67	135.75
554.84	81.92
555.00	58.51
555.17	79.58
555.33	46.81
555.50	51.49
555.67	100.64
555.83	0.00
556.00	88.94
556.16	58.51
556.33	100.64
556.50	142.77
556.66	98.30
556.83	119.37
556.99	37.45
557.16	114.69
557.32	105.32
557.49	23.41
557.65	49.15
557.82	77.24
557.98	51.49
558.15	102.98
558.32	84.26
558.48	9.36
558.65	84.26
558.81	88.94
558.98	100.64
559.14	117.03
559.31	128.73
559.47	65.54
559.64	60.85
559.80	100.64
559.97	37.45
560.13	121.71
560.30	84.26
560.46	0.00
560.63	161.50
560.79	110.01
560.96	119.37
561.12	81.92
561.29	32.77
561.45	49.15
561.61	42.13
561.78	72.56
561.94	93.62
562.11	126.39
562.27	60.85
562.44	25.75
562.60	88.94
562.77	149.79
562.93	128.73
563.10	70.22
563.26	110.01
563.42	105.32
563.59	35.11
563.75	46.81
563.92	98.30
564.08	98.30
564.24	88.94
564.41	84.26
564.57	131.07
564.74	63.19
564.90	135.75
565.07	88.94
565.23	42.13
565.39	72.56
565.56	49.15
565.72	159.16
565.88	2.34
566.05	23.41
566.21	105.32
566.38	98.30
566.54	30.43
566.70	28.09
566.87	4.68
567.03	105.32
567.19	77.24
567.36	140.43
567.52	93.62
567.68	149.79
567.85	77.24
568.01	63.19
568.17	51.49
568.34	98.30
568.50	53.83
568.66	91.28
568.83	72.56
568.99	145.11
569.15	70.22
569.32	46.81
569.48	30.43
569.64	58.51
569.81	30.43
569.97	84.26
570.13	156.82
570.30	72.56
570.46	177.88
570.62	102.98
570.78	21.06
570.95	70.22
571.11	110.01
571.27	91.28
571.43	58.51
571.60	65.54
571.76	91.28
571.92	46.81
572.09	46.81
572.25	128.73
572.41	72.56
572.57	91.28
572.74	72.56
572.90	79.58
573.06	133.41
573.22	105.32
573.38	63.19
573.55	95.96
573.71	46.81
573.87	105.32
574.03	131.07
574.20	86.60
574.36	79.58
574.52	35.11
574.68	110.01
574.84	11.70
575.01	65.54
575.17	98.30
575.33	79.58
575.49	74.90
575.65	117.03
575.82	102.98
575.98	107.66
576.14	25.75
576.30	93.62
576.46	84.26
576.62	0.00
576.79	2.34
576.95	98.30
577.11	70.22
577.27	88.94
577.43	133.41
577.59	67.88
577.75	95.96
577.92	37.45
578.08	49.15
578.24	119.37
578.40	138.09
578.56	72.56
578.72	117.03
578.88	86.60
579.04	49.15
579.21	147.45
579.37	133.41
579.53	77.24
579.69	37.45
579.85	28.09
580.01	93.62
580.17	126.39
580.33	67.88
580.49	23.41
580.65	102.98
580.82	110.01
580.98	142.77
581.14	79.58
581.30	170.86
581.46	46.81
581.62	39.79
581.78	100.64
581.94	49.15
582.10	46.81
582.26	60.85
582.42	79.58
582.58	28.09
582.74	91.28
582.90	74.90
583.06	88.94
583.22	128.73
583.38	91.28
583.54	63.19
583.70	135.75
583.86	79.58
584.02	114.69
584.18	32.77
584.34	110.01
584.50	46.81
584.66	84.26
584.82	91.28
584.98	9.36
585.14	65.54
585.30	86.60
585.46	77.24
585.62	100.64
585.78	23.41
585.94	37.45
586.10	145.11
586.26	37.45
586.42	53.83
586.58	67.88
586.74	95.96
586.90	156.82
587.06	98.30
587.22	88.94
587.38	70.22
587.54	35.11
587.70	117.03
587.86	37.45
588.02	77.24
588.18	32.77
588.34	53.83
588.49	30.43
588.65	84.26
588.81	2.34
588.97	39.79
589.13	86.60
589.29	56.17
589.45	0.00
589.61	35.11
589.77	112.35
589.93	51.49
590.08	114.69
590.24	44.47
590.40	93.62
590.56	98.30
590.72	140.43
590.88	117.03
591.04	0.00
591.20	53.83
591.35	91.28
591.51	46.81
591.67	30.43
591.83	65.54
591.99	46.81
592.15	65.54
592.31	49.15
592.46	46.81
592.62	28.09
592.78	0.00
592.94	46.81
593.10	56.17
593.26	7.02
593.41	65.54
593.57	25.75
593.73	65.54
593.89	0.00
594.05	37.45
594.20	49.15
594.36	32.77
594.52	4.68
594.68	23.41
594.84	46.81
594.99	110.01
595.15	39.79
595.31	112.35
595.47	121.71
595.62	182.56
595.78	32.77
595.94	142.77
596.10	79.58
596.25	77.24
596.41	67.88
596.57	4.68
596.73	119.37
596.88	46.81
597.04	65.54
597.20	110.01
597.36	28.09
597.51	79.58
597.67	91.28
597.83	79.58
597.99	135.75
598.14	88.94
598.30	117.03
598.46	84.26
598.61	86.60
598.77	30.43
598.93	126.39
599.09	156.82
599.24	95.96
599.40	72.56
599.56	142.77
599.71	105.32
599.87	81.92
600.03	79.58
600.18	63.19
600.34	124.05
600.50	86.60
600.65	102.98
600.81	105.32
600.97	49.15
601.12	49.15
601.28	119.37
601.44	79.58
601.59	42.13
601.75	46.81
601.91	98.30
602.06	11.70
602.22	35.11
602.37	84.26
602.53	28.09
602.69	65.54
602.84	72.56
603.00	49.15
603.16	121.71
603.31	93.62
603.47	128.73
603.62	70.22
603.78	93.62
603.94	30.43
604.09	0.00
604.25	35.11
604.40	16.38
604.56	23.41
604.71	49.15
604.87	81.92
605.03	84.26
605.18	88.94
605.34	110.01
605.49	187.24
605.65	51.49
605.80	23.41
605.96	100.64
606.12	84.26
606.27	91.28
606.43	35.11
606.58	93.62
606.74	72.56
606.89	14.04
607.05	67.88
607.20	81.92
607.36	77.24
607.51	105.32
607.67	98.30
607.82	51.49
607.98	98.30
608.13	86.60
608.29	100.64
608.44	65.54
608.60	30.43
608.75	142.77
608.91	93.62
609.06	107.66
609.22	86.60
609.37	81.92
609.53	28.09
609.68	25.75
609.84	0.00
609.99	93.62
610.15	88.94
610.30	81.92
610.46	39.79
610.61	30.43
610.76	107.66
610.92	39.79
611.07	154.48
611.23	39.79
611.38	11.70
611.54	46.81
611.69	37.45
611.84	74.90
612.00	65.54
612.15	84.26
612.31	53.83
612.46	84.26
612.62	32.77
612.77	74.90
612.92	60.85
613.08	35.11
613.23	110.01
613.39	102.98
613.54	133.41
613.69	88.94
613.85	72.56
614.00	60.85
614.15	107.66
614.31	77.24
614.46	79.58
614.62	37.45
614.77	72.56
614.92	42.13
615.08	46.81
615.23	149.79
615.38	128.73
615.54	32.77
615.69	42.13
615.84	39.79
616.00	23.41
616.15	56.17
616.30	163.84
616.46	67.88
616.61	86.60
616.76	60.85
616.92	74.90
617.07	53.83
617.22	72.56
617.37	98.30
617.53	117.03
617.68	67.88
617.83	32.77
617.99	70.22
618.14	60.85
618.29	114.69
618.45	107.66
618.60	53.83
618.75	67.88
618.90	44.47
619.06	30.43
619.21	9.36
619.36	88.94
619.51	65.54
619.67	39.79
619.82	56.17
619.97	98.30
620.12	86.60
620.28	91.28
620.43	91.28
620.58	79.58
620.73	28.09
620.89	11.70
621.04	65.54
621.19	81.92
621.34	88.94
621.49	114.69
621.65	79.58
621.80	65.54
621.95	25.75
622.10	88.94
622.25	86.60
622.41	74.90
622.56	91.28
622.71	93.62
622.86	58.51
623.01	51.49
623.16	81.92
623.32	145.11
623.47	56.17
623.62	32.77
623.77	79.58
623.92	67.88
624.07	60.85
624.23	58.51
624.38	23.41
624.53	56.17
624.68	7.02
624.83	42.13
624.98	18.72
625.13	86.60
625.29	0.00
625.44	9.36
625.59	0.00
625.74	46.81
625.89	37.45
626.04	70.22
626.19	32.77
626.34	93.62
626.49	16.38
626.65	53.83
626.80	88.94
626.95	105.32
627.10	18.72
627.25	53.83
627.40	37.45
627.55	46.81
627.70	91.28
627.85	114.69
628.00	102.98
628.15	49.15
628.30	161.50
628.45	93.62
628.60	60.85
628.76	110.01
628.91	93.62
629.06	0.00
629.21	37.45
629.36	37.45
629.51	105.32
629.66	74.90
629.81	49.15
629.96	65.54
630.11	21.06
630.26	86.60
630.41	88.94
630.56	56.17
630.71	25.75
630.86	9.36
631.01	63.19
631.16	56.17
631.31	53.83
631.46	60.85
631.61	102.98
631.76	23.41
631.91	133.41
632.06	100.64
632.21	51.49
632.36	39.79
632.51	128.73
632.66	0.00
632.81	91.28
632.96	9.36
633.10	93.62
633.25	70.22
633.40	51.49
633.55	72.56
633.70	37.45
633.85	49.15
634.00	88.94
634.15	7.02
634.30	102.98
634.45	21.06
634.60	93.62
634.75	14.04
634.90	0.00
635.05	86.60
635.19	112.35
635.34	67.88
635.49	124.05
635.64	121.71
635.79	42.13
635.94	140.43
636.09	91.28
636.24	98.30
636.39	79.58
636.53	84.26
636.68	67.88
636.83	18.72
636.98	121.71
637.13	175.54
637.28	93.62
637.43	56.17
637.57	74.90
637.72	28.09
637.87	46.81
638.02	98.30
638.17	0.00
638.32	77.24
638.46	53.83
638.61	18.72
638.76	107.66
638.91	56.17
639.06	28.09
639.20	56.17
639.35	135.75
639.50	0.00
639.65	16.38
639.80	70.22
639.94	133.41
640.09	56.17
640.24	182.56
640.39	107.66
640.54	35.11
640.68	58.51
640.83	110.01
640.98	0.00
641.13	135.75
641.27	23.41
641.42	32.77
641.57	0.00
641.72	28.09
641.86	35.11
642.01	67.88
642.16	2.34
642.31	56.17
642.45	0.00
642.60	84.26
642.75	37.45
642.90	63.19
643.04	2.34
643.19	58.51
643.34	63.19
643.48	88.94
643.63	117.03
643.78	46.81
643.93	42.13
644.07	44.47
644.22	63.19
644.37	53.83
644.51	65.54
644.66	74.90
644.81	0.00
644.95	72.56
645.10	0.00
645.25	79.58
645.39	117.03
645.54	0.00
645.69	0.00
645.83	14.04
645.98	67.88
646.13	53.83
646.27	86.60
646.42	25.75
646.57	51.49
646.71	86.60
646.86	44.47
647.00	65.54
647.15	35.11
647.30	110.01
647.44	0.00
647.59	23.41
647.74	72.56
647.88	42.13
648.03	74.90
648.17	67.88
648.32	18.72
648.47	110.01
648.61	25.75
648.76	4.68
648.90	11.70
649.05	0.00
649.20	39.79
649.34	35.11
649.49	58.51
649.63	18.72
649.78	88.94
649.92	77.24
650.07	117.03
650.21	16.38
650.36	14.04
650.51	49.15
650.65	79.58
650.80	112.35
650.94	44.47
651.09	14.04
651.23	88.94
651.38	56.17
651.52	102.98
651.67	18.72
651.81	32.77
651.96	11.70
652.10	140.43
652.25	39.79
652.39	0.00
652.54	0.00
652.68	51.49
652.83	4.68
652.97	49.15
653.12	42.13
653.26	63.19
653.41	70.22
653.55	0.00
653.70	35.11
653.84	11.70
653.99	42.13
654.13	46.81
654.27	65.54
654.42	112.35
654.56	14.04
654.71	14.04
654.85	81.92
655.00	16.38
655.14	23.41
655.29	46.81
655.43	9.36
655.57	60.85
655.72	58.51
655.86	2.34
656.01	7.02
656.15	74.90
656.30	42.13
656.44	91.28
656.58	60.85
656.73	124.05
656.87	25.75
657.01	81.92
657.16	77.24
657.30	91.28
657.45	53.83
657.59	25.75
657.73	23.41
657.88	14.04
658.02	63.19
658.16	42.13
658.31	32.77
658.45	49.15
658.60	49.15
658.74	30.43
658.88	65.54
659.03	46.81
659.17	0.00
659.31	23.41
659.46	18.72
659.60	0.00
659.74	117.03
659.89	112.35
660.03	159.16
660.17	63.19
660.32	53.83
660.46	0.00
660.60	28.09
660.74	58.51
660.89	0.00
661.03	51.49
661.17	88.94
661.32	0.00
661.46	53.83
661.60	74.90
661.74	79.58
661.89	124.05
662.03	81.92
662.17	102.98
662.31	0.00
662.46	42.13
662.60	51.49
662.74	49.15
662.88	49.15
663.03	112.35
663.17	112.35
663.31	56.17
663.45	67.88
663.60	7.02
663.74	56.17
663.88	42.13
664.02	0.00
664.17	128.73
664.31	14.04
664.45	117.03
664.59	70.22
664.73	65.54
664.88	72.56
665.02	63.19
665.16	72.56
665.30	86.60
665.44	7.02
665.59	72.56
665.73	110.01
665.87	51.49
666.01	42.13
666.15	77.24
666.29	95.96
666.44	21.06
666.58	49.15
666.72	72.56
666.86	56.17
667.00	56.17
667.14	86.60
667.28	18.72
667.43	56.17
667.57	49.15
667.71	51.49
667.85	35.11
667.99	107.66
668.13	23.41
668.27	28.09
668.41	100.64
668.56	42.13
668.70	28.09
668.84	0.00
668.98	39.79
669.12	126.39
669.26	0.00
669.40	58.51
669.54	72.56
669.68	49.15
669.82	16.38
669.96	51.49
670.10	0.00
670.25	0.00
670.39	102.98
670.53	18.72
670.67	65.54
670.81	44.47
670.95	65.54
671.09	51.49
671.23	32.77
671.37	88.94
671.51	135.75
671.65	28.09
671.79	0.00
671.93	60.85
672.07	18.72
672.21	32.77
672.35	84.26
672.49	23.41
672.63	39.79
672.77	44.47
672.91	70.22
673.05	28.09
673.19	37.45
673.33	60.85
673.47	0.00
673.61	65.54
673.75	112.35
673.89	124.05
674.03	42.13
674.17	51.49
674.31	77.24
674.45	49.15
674.59	88.94
674.73	77.24
674.87	0.00
675.01	11.70
675.15	23.41
675.29	91.28
675.43	79.58
675.56	30.43
675.70	79.58
675.84	32.77
675.98	0.00
676.12	4.68
676.26	46.81
676.40	28.09
676.54	16.38
676.68	42.13
676.82	14.04
676.96	0.00
677.10	51.49
677.23	14.04
677.37	93.62
677.51	102.98
677.65	44.47
677.79	37.45
677.93	32.77
678.07	98.30
678.21	65.54
678.34	58.51
678.48	107.66
678.62	58.51
678.76	0.00
678.90	0.00
679.04	32.77
679.18	30.43
679.31	60.85
679.45	81.92
679.59	32.77
679.73	23.41
679.87	35.11
680.00	100.64
680.14	18.72
680.28	81.92
680.42	79.58
680.56	51.49
680.70	60.85
680.83	37.45
680.97	63.19
681.11	0.00
681.25	42.13
681.39	25.75
681.52	67.88
681.66	32.77
681.80	63.19
681.94	7.02
682.07	107.66
682.21	0.00
682.35	58.51
682.49	100.64
682.62	70.22
682.76	14.04
682.90	49.15
683.04	0.00
683.17	58.51
683.31	14.04
683.45	117.03
683.59	21.06
683.72	46.81
683.86	16.38
684.00	30.43
684.13	65.54
684.27	23.41
684.41	51.49
684.55	81.92
684.68	42.13
684.82	0.00
684.96	0.00
685.09	18.72
685.23	23.41
685.37	0.00
685.50	32.77
685.64	84.26
685.78	21.06
685.91	2.34
686.05	93.62
686.19	30.43
686.32	0.00
686.46	23.41
686.60	72.56
686.73	53.83
686.87	28.09
687.01	53.83
687.14	93.62
687.28	35.11
687.42	32.77
687.55	32.77
687.69	51.49
687.82	72.56
687.96	14.04
688.10	0.00
688.23	88.94
688.37	25.75
688.50	81.92
688.64	0.00
688.78	0.00
688.91	0.00
689.05	7.02
689.18	18.72
689.32	23.41
689.46	58.51
689.59	28.09
689.73	67.88
689.86	102.98
690.00	53.83
690.13	28.09
690.27	39.79
690.41	7.02
690.54	9.36
690.68	21.06
690.81	0.00
690.95	56.17
691.08	35.11
691.22	11.70
691.35	42.13
691.49	0.00
691.62	23.41
691.76	2.34
691.89	25.75
692.03	67.88
692.16	53.83
692.30	9.36
692.43	35.11
692.57	21.06
692.70	93.62
692.84	72.56
692.97	2.34
693.11	0.00
693.24	18.72
693.38	35.11
693.51	18.72
693.65	67.88
693.78	60.85
693.92	0.00
694.05	126.39
694.19	30.43
694.32	30.43
694.45	0.00
694.59	30.43
694.72	81.92
694.86	23.41
694.99	4.68
695.13	0.00
695.26	86.60
695.39	9.36
695.53	21.06
695.66	0.00
695.80	81.92
695.93	49.15
696.07	28.09
696.20	2.34
696.33	65.54
696.47	18.72
696.60	42.13
696.73	23.41
696.87	23.41
697.00	0.00
697.14	25.75
697.27	0.00
697.40	11.70
697.54	58.51
697.67	51.49
697.80	18.72
697.94	18.72
698.07	46.81
698.21	0.00
698.34	49.15
698.47	0.00
698.61	65.54
698.74	63.19
698.87	30.43
699.01	44.47
699.14	0.00
699.27	65.54
699.40	2.34
699.54	4.68
699.67	49.15
699.80	46.81
699.94	39.79
700.07	21.06
700.20	0.00
700.34	58.51
700.47	7.02
700.60	30.43
700.73	11.70
700.87	25.75
701.00	4.68
701.13	2.34
701.26	70.22
701.40	30.43
701.53	32.77
701.66	37.45
701.79	30.43
701.93	0.00
702.06	21.06
702.19	23.41
702.32	42.13
702.46	49.15
702.59	7.02
702.72	0.00
702.85	70.22
702.99	84.26
703.12	91.28
703.25	65.54
703.38	53.83
703.51	28.09
703.65	32.77
703.78	0.00
703.91	44.47
704.04	39.79
704.17	0.00
704.31	35.11
704.44	0.00
704.57	16.38
704.70	25.75
704.83	84.26
704.96	95.96
705.10	11.70
705.23	25.75
>>>>>End Processed Spectral Data<<<<<
