SpectraSuite Data File
++++++++++++++++++++++++++++++++++++
Date: Fri Oct 04 12:13:35 GMT-05:00 2013
User: price-jones
Dark Spectrum Present: No
Reference Spectrum Present: No
Number of Sampled Component Spectra: 1
Spectrometers: USB2+H05261
Integration Time (usec): 10000 (USB2+H05261)
Spectra Averaged: 1 (USB2+H05261)
Boxcar Smoothing: 0 (USB2+H05261)
Correct for Electrical Dark: No (USB2+H05261)
Strobe/Lamp Enabled: No (USB2+H05261)
Correct for Detector Non-linearity: No (USB2+H05261)
Correct for Stray Light: No (USB2+H05261)
Number of Pixels in Processed Spectrum: 2048
>>>>>Begin Processed Spectral Data<<<<<
365.73	0.00
365.92	0.00
366.12	0.00
366.32	0.00
366.52	0.00
366.72	0.00
366.91	0.00
367.11	0.00
367.31	0.00
367.51	0.00
367.70	0.00
367.90	0.00
368.10	0.00
368.30	0.00
368.49	0.00
368.69	0.00
368.89	0.00
369.09	0.00
369.28	0.00
369.48	0.00
369.68	0.00
369.87	0.00
370.07	0.00
370.27	0.00
370.47	0.00
370.66	0.00
370.86	0.00
371.06	0.00
371.25	0.00
371.45	0.00
371.65	0.00
371.84	0.00
372.04	0.00
372.24	42.13
372.44	0.00
372.63	51.49
372.83	60.85
373.03	2.34
373.22	30.43
373.42	0.00
373.62	16.38
373.81	79.58
374.01	53.83
374.21	44.47
374.40	0.00
374.60	53.83
374.79	32.77
374.99	35.11
375.19	58.51
375.38	119.37
375.58	65.54
375.78	74.90
375.97	0.00
376.17	51.49
376.37	14.04
376.56	51.49
376.76	35.11
376.95	21.06
377.15	84.26
377.35	46.81
377.54	72.56
377.74	51.49
377.93	9.36
378.13	16.38
378.33	0.00
378.52	0.00
378.72	42.13
378.91	63.19
379.11	79.58
379.31	11.70
379.50	0.00
379.70	91.28
379.89	67.88
380.09	56.17
380.28	0.00
380.48	39.79
380.68	0.00
380.87	0.00
381.07	37.45
381.26	14.04
381.46	0.00
381.65	0.00
381.85	28.09
382.04	11.70
382.24	0.00
382.43	18.72
382.63	0.00
382.83	37.45
383.02	0.00
383.22	0.00
383.41	0.00
383.61	14.04
383.80	0.00
384.00	0.00
384.19	0.00
384.39	88.94
384.58	28.09
384.78	0.00
384.97	42.13
385.17	49.15
385.36	84.26
385.56	0.00
385.75	0.00
385.95	42.13
386.14	44.47
386.34	49.15
386.53	25.75
386.72	25.75
386.92	25.75
387.11	42.13
387.31	63.19
387.50	14.04
387.70	4.68
387.89	72.56
388.09	42.13
388.28	7.02
388.48	72.56
388.67	46.81
388.86	18.72
389.06	53.83
389.25	77.24
389.45	0.00
389.64	30.43
389.84	28.09
390.03	0.00
390.22	51.49
390.42	67.88
390.61	25.75
390.81	4.68
391.00	72.56
391.19	0.00
391.39	0.00
391.58	63.19
391.78	14.04
391.97	4.68
392.16	58.51
392.36	21.06
392.55	25.75
392.75	49.15
392.94	51.49
393.13	42.13
393.33	49.15
393.52	0.00
393.71	0.00
393.91	30.43
394.10	105.32
394.29	28.09
394.49	0.00
394.68	16.38
394.88	28.09
395.07	46.81
395.26	0.00
395.46	46.81
395.65	53.83
395.84	77.24
396.04	0.00
396.23	9.36
396.42	35.11
396.62	67.88
396.81	0.00
397.00	0.00
397.19	44.47
397.39	49.15
397.58	21.06
397.77	7.02
397.97	30.43
398.16	0.00
398.35	14.04
398.55	56.17
398.74	18.72
398.93	0.00
399.12	74.90
399.32	0.00
399.51	0.00
399.70	67.88
399.90	23.41
400.09	0.00
400.28	0.00
400.47	30.43
400.67	18.72
400.86	72.56
401.05	0.00
401.24	7.02
401.44	60.85
401.63	46.81
401.82	58.51
402.01	37.45
402.21	16.38
402.40	28.09
402.59	51.49
402.78	46.81
402.97	51.49
403.17	35.11
403.36	0.00
403.55	0.00
403.74	0.00
403.93	0.00
404.13	53.83
404.32	67.88
404.51	84.26
404.70	81.92
404.89	35.11
405.09	2.34
405.28	28.09
405.47	0.00
405.66	39.79
405.85	0.00
406.05	4.68
406.24	37.45
406.43	79.58
406.62	91.28
406.81	56.17
407.00	0.00
407.20	0.00
407.39	28.09
407.58	72.56
407.77	0.00
407.96	42.13
408.15	23.41
408.34	0.00
408.54	35.11
408.73	0.00
408.92	4.68
409.11	0.00
409.30	0.00
409.49	46.81
409.68	0.00
409.87	37.45
410.07	37.45
410.26	67.88
410.45	25.75
410.64	0.00
410.83	30.43
411.02	25.75
411.21	30.43
411.40	23.41
411.59	11.70
411.78	65.54
411.98	16.38
412.17	0.00
412.36	0.00
412.55	53.83
412.74	42.13
412.93	0.00
413.12	0.00
413.31	25.75
413.50	51.49
413.69	56.17
413.88	4.68
414.07	0.00
414.26	44.47
414.45	102.98
414.64	0.00
414.83	30.43
415.02	110.01
415.22	16.38
415.41	65.54
415.60	70.22
415.79	32.77
415.98	51.49
416.17	79.58
416.36	49.15
416.55	46.81
416.74	46.81
416.93	25.75
417.12	53.83
417.31	25.75
417.50	0.00
417.69	7.02
417.88	84.26
418.07	63.19
418.26	46.81
418.45	0.00
418.64	53.83
418.83	56.17
419.02	46.81
419.21	16.38
419.39	70.22
419.58	37.45
419.77	32.77
419.96	30.43
420.15	2.34
420.34	18.72
420.53	35.11
420.72	0.00
420.91	0.00
421.10	16.38
421.29	11.70
421.48	0.00
421.67	79.58
421.86	0.00
422.05	51.49
422.24	51.49
422.43	53.83
422.61	58.51
422.80	0.00
422.99	21.06
423.18	0.00
423.37	91.28
423.56	35.11
423.75	0.00
423.94	72.56
424.13	65.54
424.32	25.75
424.50	42.13
424.69	93.62
424.88	51.49
425.07	21.06
425.26	60.85
425.45	70.22
425.64	49.15
425.83	23.41
426.01	49.15
426.20	4.68
426.39	0.00
426.58	2.34
426.77	95.96
426.96	0.00
427.15	91.28
427.33	30.43
427.52	0.00
427.71	53.83
427.90	11.70
428.09	60.85
428.28	30.43
428.46	60.85
428.65	0.00
428.84	14.04
429.03	28.09
429.22	100.64
429.40	11.70
429.59	28.09
429.78	30.43
429.97	67.88
430.16	58.51
430.34	65.54
430.53	30.43
430.72	37.45
430.91	4.68
431.10	72.56
431.28	42.13
431.47	46.81
431.66	72.56
431.85	32.77
432.03	72.56
432.22	0.00
432.41	72.56
432.60	39.79
432.79	74.90
432.97	39.79
433.16	42.13
433.35	49.15
433.54	9.36
433.72	16.38
433.91	140.43
434.10	44.47
434.28	84.26
434.47	49.15
434.66	30.43
434.85	4.68
435.03	23.41
435.22	72.56
435.41	37.45
435.59	84.26
435.78	4.68
435.97	51.49
436.16	7.02
436.34	44.47
436.53	70.22
436.72	72.56
436.90	0.00
437.09	0.00
437.28	16.38
437.46	2.34
437.65	51.49
437.84	65.54
438.02	72.56
438.21	53.83
438.40	18.72
438.58	0.00
438.77	25.75
438.96	84.26
439.14	133.41
439.33	14.04
439.52	53.83
439.70	46.81
439.89	86.60
440.08	23.41
440.26	105.32
440.45	18.72
440.63	4.68
440.82	65.54
441.01	44.47
441.19	0.00
441.38	100.64
441.57	77.24
441.75	18.72
441.94	49.15
442.12	67.88
442.31	67.88
442.50	53.83
442.68	107.66
442.87	30.43
443.05	14.04
443.24	117.03
443.43	60.85
443.61	93.62
443.80	18.72
443.98	121.71
444.17	86.60
444.35	79.58
444.54	110.01
444.73	56.17
444.91	91.28
445.10	14.04
445.28	74.90
445.47	70.22
445.65	37.45
445.84	79.58
446.02	42.13
446.21	30.43
446.39	95.96
446.58	9.36
446.77	67.88
446.95	84.26
447.14	91.28
447.32	21.06
447.51	86.60
447.69	51.49
447.88	67.88
448.06	77.24
448.25	28.09
448.43	9.36
448.62	0.00
448.80	9.36
448.99	37.45
449.17	0.00
449.36	77.24
449.54	39.79
449.73	18.72
449.91	0.00
450.10	42.13
450.28	11.70
450.46	39.79
450.65	30.43
450.83	70.22
451.02	84.26
451.20	79.58
451.39	23.41
451.57	14.04
451.76	23.41
451.94	49.15
452.13	58.51
452.31	72.56
452.49	42.13
452.68	93.62
452.86	51.49
453.05	0.00
453.23	72.56
453.42	84.26
453.60	93.62
453.78	65.54
453.97	63.19
454.15	86.60
454.34	30.43
454.52	86.60
454.70	81.92
454.89	63.19
455.07	58.51
455.26	88.94
455.44	11.70
455.62	0.00
455.81	74.90
455.99	21.06
456.17	110.01
456.36	67.88
456.54	32.77
456.73	70.22
456.91	86.60
457.09	88.94
457.28	56.17
457.46	37.45
457.64	70.22
457.83	37.45
458.01	11.70
458.19	63.19
458.38	4.68
458.56	67.88
458.74	44.47
458.93	35.11
459.11	46.81
459.29	84.26
459.48	37.45
459.66	37.45
459.84	98.30
460.03	65.54
460.21	42.13
460.39	0.00
460.57	70.22
460.76	42.13
460.94	86.60
461.12	74.90
461.31	84.26
461.49	56.17
461.67	65.54
461.85	63.19
462.04	32.77
462.22	65.54
462.40	37.45
462.59	60.85
462.77	81.92
462.95	49.15
463.13	32.77
463.32	102.98
463.50	0.00
463.68	39.79
463.86	49.15
464.05	98.30
464.23	63.19
464.41	112.35
464.59	60.85
464.78	28.09
464.96	2.34
465.14	25.75
465.32	63.19
465.50	119.37
465.69	93.62
465.87	67.88
466.05	56.17
466.23	67.88
466.41	63.19
466.60	65.54
466.78	100.64
466.96	28.09
467.14	49.15
467.32	65.54
467.51	4.68
467.69	0.00
467.87	77.24
468.05	0.00
468.23	138.09
468.41	23.41
468.60	23.41
468.78	154.48
468.96	117.03
469.14	79.58
469.32	2.34
469.50	14.04
469.69	112.35
469.87	51.49
470.05	84.26
470.23	77.24
470.41	112.35
470.59	21.06
470.77	81.92
470.95	107.66
471.14	102.98
471.32	72.56
471.50	79.58
471.68	51.49
471.86	49.15
472.04	56.17
472.22	81.92
472.40	39.79
472.58	14.04
472.77	77.24
472.95	105.32
473.13	98.30
473.31	159.16
473.49	63.19
473.67	88.94
473.85	4.68
474.03	14.04
474.21	86.60
474.39	81.92
474.57	74.90
474.75	53.83
474.93	0.00
475.12	39.79
475.30	14.04
475.48	138.09
475.66	81.92
475.84	42.13
476.02	37.45
476.20	119.37
476.38	79.58
476.56	70.22
476.74	35.11
476.92	100.64
477.10	95.96
477.28	91.28
477.46	60.85
477.64	114.69
477.82	70.22
478.00	25.75
478.18	46.81
478.36	9.36
478.54	72.56
478.72	51.49
478.90	9.36
479.08	58.51
479.26	81.92
479.44	98.30
479.62	117.03
479.80	63.19
479.98	67.88
480.16	84.26
480.34	91.28
480.52	114.69
480.70	86.60
480.88	7.02
481.06	49.15
481.24	112.35
481.41	16.38
481.59	30.43
481.77	0.00
481.95	46.81
482.13	112.35
482.31	91.28
482.49	9.36
482.67	79.58
482.85	126.39
483.03	46.81
483.21	49.15
483.39	0.00
483.57	91.28
483.74	93.62
483.92	0.00
484.10	58.51
484.28	67.88
484.46	46.81
484.64	42.13
484.82	105.32
485.00	44.47
485.18	37.45
485.35	63.19
485.53	23.41
485.71	81.92
485.89	102.98
486.07	35.11
486.25	86.60
486.43	60.85
486.61	79.58
486.78	77.24
486.96	0.00
487.14	91.28
487.32	44.47
487.50	105.32
487.68	79.58
487.85	149.79
488.03	11.70
488.21	60.85
488.39	63.19
488.57	18.72
488.75	53.83
488.92	42.13
489.10	133.41
489.28	98.30
489.46	39.79
489.64	70.22
489.81	46.81
489.99	117.03
490.17	79.58
490.35	105.32
490.53	145.11
490.70	53.83
490.88	142.77
491.06	28.09
491.24	135.75
491.41	9.36
491.59	9.36
491.77	84.26
491.95	39.79
492.13	79.58
492.30	84.26
492.48	72.56
492.66	79.58
492.84	95.96
493.01	74.90
493.19	79.58
493.37	70.22
493.54	35.11
493.72	42.13
493.90	53.83
494.08	60.85
494.25	60.85
494.43	60.85
494.61	53.83
494.79	77.24
494.96	65.54
495.14	42.13
495.32	30.43
495.49	49.15
495.67	79.58
495.85	81.92
496.02	161.50
496.20	95.96
496.38	140.43
496.55	35.11
496.73	117.03
496.91	63.19
497.09	95.96
497.26	21.06
497.44	91.28
497.62	32.77
497.79	74.90
497.97	133.41
498.14	37.45
498.32	95.96
498.50	117.03
498.67	11.70
498.85	79.58
499.03	74.90
499.20	84.26
499.38	28.09
499.56	46.81
499.73	91.28
499.91	102.98
500.08	72.56
500.26	91.28
500.44	93.62
500.61	25.75
500.79	30.43
500.97	154.48
501.14	16.38
501.32	32.77
501.49	112.35
501.67	98.30
501.84	84.26
502.02	138.09
502.20	79.58
502.37	84.26
502.55	51.49
502.72	39.79
502.90	56.17
503.07	138.09
503.25	138.09
503.43	117.03
503.60	88.94
503.78	4.68
503.95	149.79
504.13	88.94
504.30	102.98
504.48	114.69
504.65	79.58
504.83	100.64
505.01	2.34
505.18	14.04
505.36	79.58
505.53	16.38
505.71	42.13
505.88	53.83
506.06	23.41
506.23	91.28
506.41	56.17
506.58	60.85
506.76	81.92
506.93	100.64
507.11	77.24
507.28	81.92
507.46	72.56
507.63	0.00
507.81	124.05
507.98	142.77
508.16	42.13
508.33	30.43
508.50	42.13
508.68	49.15
508.85	81.92
509.03	86.60
509.20	49.15
509.38	46.81
509.55	58.51
509.73	30.43
509.90	81.92
510.08	58.51
510.25	102.98
510.42	16.38
510.60	46.81
510.77	91.28
510.95	79.58
511.12	7.02
511.30	84.26
511.47	154.48
511.64	84.26
511.82	30.43
511.99	49.15
512.17	21.06
512.34	49.15
512.51	0.00
512.69	81.92
512.86	135.75
513.04	117.03
513.21	42.13
513.38	98.30
513.56	100.64
513.73	53.83
513.90	46.81
514.08	91.28
514.25	98.30
514.43	44.47
514.60	53.83
514.77	18.72
514.95	72.56
515.12	93.62
515.29	67.88
515.47	93.62
515.64	18.72
515.81	35.11
515.99	100.64
516.16	79.58
516.33	79.58
516.51	88.94
516.68	65.54
516.85	46.81
517.03	32.77
517.20	28.09
517.37	39.79
517.54	147.45
517.72	0.00
517.89	105.32
518.06	77.24
518.24	128.73
518.41	84.26
518.58	42.13
518.75	42.13
518.93	35.11
519.10	81.92
519.27	131.07
519.45	44.47
519.62	117.03
519.79	133.41
519.96	135.75
520.14	95.96
520.31	140.43
520.48	39.79
520.65	0.00
520.83	60.85
521.00	81.92
521.17	51.49
521.34	60.85
521.52	133.41
521.69	21.06
521.86	152.13
522.03	147.45
522.20	93.62
522.38	49.15
522.55	107.66
522.72	56.17
522.89	16.38
523.07	88.94
523.24	114.69
523.41	91.28
523.58	58.51
523.75	72.56
523.92	159.16
524.10	147.45
524.27	58.51
524.44	28.09
524.61	53.83
524.78	79.58
524.96	105.32
525.13	67.88
525.30	110.01
525.47	133.41
525.64	53.83
525.81	14.04
525.98	65.54
526.16	53.83
526.33	9.36
526.50	37.45
526.67	0.00
526.84	4.68
527.01	93.62
527.18	21.06
527.36	105.32
527.53	107.66
527.70	154.48
527.87	121.71
528.04	79.58
528.21	86.60
528.38	72.56
528.55	98.30
528.72	70.22
528.89	88.94
529.07	42.13
529.24	0.00
529.41	212.99
529.58	53.83
529.75	49.15
529.92	30.43
530.09	32.77
530.26	42.13
530.43	0.00
530.60	84.26
530.77	56.17
530.94	35.11
531.11	102.98
531.28	72.56
531.46	44.47
531.63	67.88
531.80	65.54
531.97	42.13
532.14	98.30
532.31	42.13
532.48	84.26
532.65	93.62
532.82	142.77
532.99	126.39
533.16	81.92
533.33	79.58
533.50	44.47
533.67	60.85
533.84	117.03
534.01	112.35
534.18	110.01
534.35	56.17
534.52	166.18
534.69	72.56
534.86	138.09
535.03	138.09
535.20	131.07
535.37	98.30
535.54	131.07
535.71	91.28
535.88	93.62
536.05	60.85
536.22	126.39
536.38	37.45
536.55	95.96
536.72	152.13
536.89	114.69
537.06	72.56
537.23	79.58
537.40	51.49
537.57	131.07
537.74	142.77
537.91	9.36
538.08	84.26
538.25	93.62
538.42	49.15
538.59	93.62
538.75	0.00
538.92	51.49
539.09	35.11
539.26	173.20
539.43	65.54
539.60	60.85
539.77	72.56
539.94	42.13
540.11	88.94
540.28	58.51
540.44	112.35
540.61	0.00
540.78	65.54
540.95	84.26
541.12	140.43
541.29	44.47
541.46	14.04
541.62	189.58
541.79	84.26
541.96	91.28
542.13	56.17
542.30	119.37
542.47	51.49
542.63	93.62
542.80	168.52
542.97	42.13
543.14	119.37
543.31	72.56
543.48	72.56
543.64	88.94
543.81	72.56
543.98	77.24
544.15	180.22
544.32	84.26
544.48	117.03
544.65	14.04
544.82	70.22
544.99	72.56
545.16	37.45
545.32	91.28
545.49	135.75
545.66	184.90
545.83	74.90
546.00	28.09
546.16	37.45
546.33	140.43
546.50	93.62
546.67	112.35
546.83	70.22
547.00	100.64
547.17	74.90
547.34	51.49
547.50	110.01
547.67	88.94
547.84	77.24
548.00	119.37
548.17	140.43
548.34	112.35
548.51	114.69
548.67	105.32
548.84	105.32
549.01	72.56
549.18	128.73
549.34	67.88
549.51	124.05
549.68	100.64
549.84	152.13
550.01	105.32
550.18	81.92
550.34	88.94
550.51	65.54
550.68	74.90
550.84	105.32
551.01	77.24
551.18	56.17
551.34	42.13
551.51	60.85
551.68	149.79
551.84	72.56
552.01	70.22
552.18	88.94
552.34	79.58
552.51	53.83
552.68	67.88
552.84	42.13
553.01	86.60
553.18	72.56
553.34	100.64
553.51	49.15
553.67	138.09
553.84	84.26
554.01	135.75
554.17	102.98
554.34	49.15
554.51	95.96
554.67	39.79
554.84	105.32
555.00	131.07
555.17	105.32
555.33	77.24
555.50	67.88
555.67	124.05
555.83	70.22
556.00	56.17
556.16	28.09
556.33	93.62
556.50	58.51
556.66	32.77
556.83	128.73
556.99	56.17
557.16	107.66
557.32	128.73
557.49	138.09
557.65	117.03
557.82	67.88
557.98	79.58
558.15	121.71
558.32	72.56
558.48	126.39
558.65	70.22
558.81	70.22
558.98	30.43
559.14	30.43
559.31	60.85
559.47	30.43
559.64	7.02
559.80	110.01
559.97	70.22
560.13	60.85
560.30	152.13
560.46	65.54
560.63	110.01
560.79	138.09
560.96	72.56
561.12	84.26
561.29	93.62
561.45	58.51
561.61	70.22
561.78	93.62
561.94	58.51
562.11	60.85
562.27	72.56
562.44	107.66
562.60	58.51
562.77	63.19
562.93	95.96
563.10	77.24
563.26	117.03
563.42	49.15
563.59	93.62
563.75	70.22
563.92	65.54
564.08	79.58
564.24	53.83
564.41	110.01
564.57	77.24
564.74	42.13
564.90	114.69
565.07	91.28
565.23	142.77
565.39	56.17
565.56	110.01
565.72	79.58
565.88	74.90
566.05	81.92
566.21	147.45
566.38	72.56
566.54	138.09
566.70	77.24
566.87	105.32
567.03	65.54
567.19	79.58
567.36	42.13
567.52	88.94
567.68	0.00
567.85	81.92
568.01	102.98
568.17	58.51
568.34	65.54
568.50	79.58
568.66	53.83
568.83	42.13
568.99	161.50
569.15	37.45
569.32	53.83
569.48	114.69
569.64	49.15
569.81	49.15
569.97	51.49
570.13	58.51
570.30	32.77
570.46	114.69
570.62	140.43
570.78	88.94
570.95	44.47
571.11	58.51
571.27	112.35
571.43	102.98
571.60	74.90
571.76	32.77
571.92	81.92
572.09	65.54
572.25	53.83
572.41	72.56
572.57	79.58
572.74	91.28
572.90	58.51
573.06	67.88
573.22	49.15
573.38	77.24
573.55	65.54
573.71	37.45
573.87	79.58
574.03	23.41
574.20	135.75
574.36	124.05
574.52	79.58
574.68	112.35
574.84	65.54
575.01	84.26
575.17	60.85
575.33	51.49
575.49	58.51
575.65	0.00
575.82	63.19
575.98	86.60
576.14	88.94
576.30	53.83
576.46	63.19
576.62	65.54
576.79	30.43
576.95	105.32
577.11	133.41
577.27	102.98
577.43	23.41
577.59	98.30
577.75	16.38
577.92	142.77
578.08	72.56
578.24	14.04
578.40	112.35
578.56	51.49
578.72	81.92
578.88	42.13
579.04	65.54
579.21	133.41
579.37	32.77
579.53	65.54
579.69	65.54
579.85	4.68
580.01	65.54
580.17	124.05
580.33	60.85
580.49	156.82
580.65	124.05
580.82	152.13
580.98	91.28
581.14	58.51
581.30	25.75
581.46	58.51
581.62	79.58
581.78	58.51
581.94	98.30
582.10	95.96
582.26	91.28
582.42	58.51
582.58	84.26
582.74	119.37
582.90	72.56
583.06	63.19
583.22	177.88
583.38	2.34
583.54	105.32
583.70	63.19
583.86	128.73
584.02	35.11
584.18	65.54
584.34	91.28
584.50	140.43
584.66	79.58
584.82	39.79
584.98	56.17
585.14	95.96
585.30	79.58
585.46	39.79
585.62	21.06
585.78	131.07
585.94	23.41
586.10	93.62
586.26	67.88
586.42	0.00
586.58	84.26
586.74	0.00
586.90	86.60
587.06	117.03
587.22	107.66
587.38	32.77
587.54	95.96
587.70	126.39
587.86	128.73
588.02	11.70
588.18	35.11
588.34	102.98
588.49	88.94
588.65	81.92
588.81	77.24
588.97	25.75
589.13	119.37
589.29	81.92
589.45	84.26
589.61	18.72
589.77	65.54
589.93	114.69
590.08	58.51
590.24	30.43
590.40	95.96
590.56	77.24
590.72	102.98
590.88	84.26
591.04	35.11
591.20	154.48
591.35	74.90
591.51	84.26
591.67	154.48
591.83	49.15
591.99	44.47
592.15	35.11
592.31	21.06
592.46	95.96
592.62	0.00
592.78	74.90
592.94	51.49
593.10	77.24
593.26	88.94
593.41	18.72
593.57	88.94
593.73	156.82
593.89	95.96
594.05	95.96
594.20	14.04
594.36	91.28
594.52	11.70
594.68	84.26
594.84	0.00
594.99	23.41
595.15	14.04
595.31	138.09
595.47	110.01
595.62	14.04
595.78	37.45
595.94	23.41
596.10	140.43
596.25	95.96
596.41	0.00
596.57	77.24
596.73	70.22
596.88	14.04
597.04	14.04
597.20	60.85
597.36	105.32
597.51	63.19
597.67	107.66
597.83	100.64
597.99	67.88
598.14	88.94
598.30	93.62
598.46	39.79
598.61	58.51
598.77	77.24
598.93	77.24
599.09	114.69
599.24	4.68
599.40	67.88
599.56	60.85
599.71	0.00
599.87	98.30
600.03	77.24
600.18	79.58
600.34	65.54
600.50	77.24
600.65	21.06
600.81	63.19
600.97	60.85
601.12	124.05
601.28	53.83
601.44	14.04
601.59	91.28
601.75	70.22
601.91	67.88
602.06	51.49
602.22	77.24
602.37	11.70
602.53	23.41
602.69	84.26
602.84	77.24
603.00	98.30
603.16	93.62
603.31	65.54
603.47	121.71
603.62	65.54
603.78	93.62
603.94	145.11
604.09	32.77
604.25	74.90
604.40	42.13
604.56	0.00
604.71	88.94
604.87	74.90
605.03	9.36
605.18	79.58
605.34	65.54
605.49	44.47
605.65	30.43
605.80	37.45
605.96	39.79
606.12	0.00
606.27	79.58
606.43	128.73
606.58	46.81
606.74	11.70
606.89	21.06
607.05	100.64
607.20	67.88
607.36	4.68
607.51	107.66
607.67	121.71
607.82	46.81
607.98	58.51
608.13	107.66
608.29	110.01
608.44	0.00
608.60	37.45
608.75	88.94
608.91	88.94
609.06	70.22
609.22	60.85
609.37	30.43
609.53	67.88
609.68	37.45
609.84	110.01
609.99	58.51
610.15	42.13
610.30	63.19
610.46	51.49
610.61	88.94
610.76	117.03
610.92	124.05
611.07	49.15
611.23	49.15
611.38	81.92
611.54	58.51
611.69	98.30
611.84	51.49
612.00	95.96
612.15	58.51
612.31	70.22
612.46	67.88
612.62	100.64
612.77	37.45
612.92	0.00
613.08	67.88
613.23	28.09
613.39	100.64
613.54	93.62
613.69	149.79
613.85	79.58
614.00	79.58
614.15	49.15
614.31	37.45
614.46	16.38
614.62	49.15
614.77	131.07
614.92	23.41
615.08	21.06
615.23	18.72
615.38	95.96
615.54	9.36
615.69	67.88
615.84	102.98
616.00	110.01
616.15	105.32
616.30	11.70
616.46	128.73
616.61	74.90
616.76	98.30
616.92	56.17
617.07	21.06
617.22	77.24
617.37	46.81
617.53	16.38
617.68	58.51
617.83	112.35
617.99	98.30
618.14	44.47
618.29	44.47
618.45	70.22
618.60	126.39
618.75	28.09
618.90	53.83
619.06	86.60
619.21	37.45
619.36	100.64
619.51	32.77
619.67	95.96
619.82	81.92
619.97	154.48
620.12	86.60
620.28	98.30
620.43	140.43
620.58	35.11
620.73	88.94
620.89	51.49
621.04	124.05
621.19	72.56
621.34	37.45
621.49	74.90
621.65	91.28
621.80	30.43
621.95	46.81
622.10	56.17
622.25	70.22
622.41	60.85
622.56	100.64
622.71	39.79
622.86	72.56
623.01	42.13
623.16	58.51
623.32	70.22
623.47	46.81
623.62	7.02
623.77	91.28
623.92	77.24
624.07	93.62
624.23	81.92
624.38	142.77
624.53	102.98
624.68	67.88
624.83	21.06
624.98	72.56
625.13	86.60
625.29	42.13
625.44	58.51
625.59	79.58
625.74	37.45
625.89	107.66
626.04	74.90
626.19	63.19
626.34	44.47
626.49	60.85
626.65	124.05
626.80	30.43
626.95	16.38
627.10	37.45
627.25	0.00
627.40	72.56
627.55	58.51
627.70	112.35
627.85	11.70
628.00	133.41
628.15	93.62
628.30	86.60
628.45	74.90
628.60	98.30
628.76	70.22
628.91	152.13
629.06	70.22
629.21	44.47
629.36	30.43
629.51	37.45
629.66	46.81
629.81	9.36
629.96	121.71
630.11	95.96
630.26	88.94
630.41	110.01
630.56	65.54
630.71	98.30
630.86	63.19
631.01	25.75
631.16	21.06
631.31	74.90
631.46	37.45
631.61	84.26
631.76	42.13
631.91	18.72
632.06	32.77
632.21	77.24
632.36	2.34
632.51	51.49
632.66	88.94
632.81	37.45
632.96	30.43
633.10	21.06
633.25	0.00
633.40	30.43
633.55	135.75
633.70	18.72
633.85	74.90
634.00	0.00
634.15	74.90
634.30	86.60
634.45	98.30
634.60	72.56
634.75	74.90
634.90	23.41
635.05	46.81
635.19	21.06
635.34	100.64
635.49	56.17
635.64	98.30
635.79	77.24
635.94	37.45
636.09	110.01
636.24	28.09
636.39	72.56
636.53	131.07
636.68	100.64
636.83	35.11
636.98	110.01
637.13	28.09
637.28	65.54
637.43	133.41
637.57	30.43
637.72	51.49
637.87	46.81
638.02	93.62
638.17	86.60
638.32	32.77
638.46	67.88
638.61	37.45
638.76	56.17
638.91	16.38
639.06	35.11
639.20	51.49
639.35	102.98
639.50	51.49
639.65	56.17
639.80	79.58
639.94	67.88
640.09	51.49
640.24	79.58
640.39	70.22
640.54	49.15
640.68	102.98
640.83	79.58
640.98	37.45
641.13	49.15
641.27	88.94
641.42	79.58
641.57	86.60
641.72	0.00
641.86	79.58
642.01	81.92
642.16	21.06
642.31	32.77
642.45	51.49
642.60	37.45
642.75	9.36
642.90	117.03
643.04	18.72
643.19	51.49
643.34	51.49
643.48	28.09
643.63	56.17
643.78	35.11
643.93	105.32
644.07	37.45
644.22	131.07
644.37	95.96
644.51	32.77
644.66	70.22
644.81	102.98
644.95	79.58
645.10	88.94
645.25	0.00
645.39	58.51
645.54	39.79
645.69	37.45
645.83	65.54
645.98	46.81
646.13	84.26
646.27	2.34
646.42	88.94
646.57	9.36
646.71	18.72
646.86	44.47
647.00	18.72
647.15	93.62
647.30	0.00
647.44	121.71
647.59	72.56
647.74	39.79
647.88	95.96
648.03	49.15
648.17	56.17
648.32	117.03
648.47	51.49
648.61	70.22
648.76	102.98
648.90	0.00
649.05	30.43
649.20	4.68
649.34	65.54
649.49	32.77
649.63	77.24
649.78	60.85
649.92	63.19
650.07	37.45
650.21	102.98
650.36	58.51
650.51	74.90
650.65	51.49
650.80	70.22
650.94	42.13
651.09	81.92
651.23	16.38
651.38	11.70
651.52	44.47
651.67	35.11
651.81	58.51
651.96	37.45
652.10	30.43
652.25	42.13
652.39	18.72
652.54	0.00
652.68	105.32
652.83	42.13
652.97	60.85
653.12	11.70
653.26	60.85
653.41	46.81
653.55	67.88
653.70	0.00
653.84	32.77
653.99	95.96
654.13	114.69
654.27	65.54
654.42	25.75
654.56	25.75
654.71	60.85
654.85	23.41
655.00	0.00
655.14	67.88
655.29	51.49
655.43	81.92
655.57	91.28
655.72	112.35
655.86	0.00
656.01	0.00
656.15	30.43
656.30	28.09
656.44	0.00
656.58	21.06
656.73	11.70
656.87	72.56
657.01	53.83
657.16	44.47
657.30	51.49
657.45	58.51
657.59	81.92
657.73	16.38
657.88	51.49
658.02	100.64
658.16	67.88
658.31	49.15
658.45	44.47
658.60	16.38
658.74	56.17
658.88	32.77
659.03	0.00
659.17	72.56
659.31	70.22
659.46	0.00
659.60	0.00
659.74	46.81
659.89	21.06
660.03	21.06
660.17	39.79
660.32	74.90
660.46	21.06
660.60	37.45
660.74	65.54
660.89	0.00
661.03	49.15
661.17	91.28
661.32	112.35
661.46	70.22
661.60	70.22
661.74	74.90
661.89	25.75
662.03	60.85
662.17	93.62
662.31	70.22
662.46	21.06
662.60	2.34
662.74	51.49
662.88	49.15
663.03	16.38
663.17	102.98
663.31	0.00
663.45	70.22
663.60	70.22
663.74	21.06
663.88	128.73
664.02	86.60
664.17	65.54
664.31	86.60
664.45	39.79
664.59	44.47
664.73	56.17
664.88	0.00
665.02	91.28
665.16	39.79
665.30	98.30
665.44	9.36
665.59	49.15
665.73	74.90
665.87	49.15
666.01	107.66
666.15	35.11
666.29	86.60
666.44	117.03
666.58	102.98
666.72	49.15
666.86	28.09
667.00	93.62
667.14	42.13
667.28	63.19
667.43	49.15
667.57	0.00
667.71	7.02
667.85	0.00
667.99	25.75
668.13	88.94
668.27	28.09
668.41	77.24
668.56	53.83
668.70	49.15
668.84	67.88
668.98	93.62
669.12	56.17
669.26	56.17
669.40	21.06
669.54	77.24
669.68	119.37
669.82	0.00
669.96	28.09
670.10	91.28
670.25	28.09
670.39	30.43
670.53	51.49
670.67	23.41
670.81	67.88
670.95	70.22
671.09	42.13
671.23	110.01
671.37	46.81
671.51	77.24
671.65	35.11
671.79	91.28
671.93	81.92
672.07	112.35
672.21	58.51
672.35	39.79
672.49	56.17
672.63	60.85
672.77	105.32
672.91	86.60
673.05	9.36
673.19	121.71
673.33	46.81
673.47	121.71
673.61	81.92
673.75	84.26
673.89	42.13
674.03	30.43
674.17	37.45
674.31	56.17
674.45	100.64
674.59	140.43
674.73	58.51
674.87	0.00
675.01	39.79
675.15	67.88
675.29	154.48
675.43	102.98
675.56	81.92
675.70	53.83
675.84	0.00
675.98	30.43
676.12	0.00
676.26	42.13
676.40	9.36
676.54	70.22
676.68	56.17
676.82	44.47
676.96	0.00
677.10	0.00
677.23	14.04
677.37	110.01
677.51	2.34
677.65	18.72
677.79	16.38
677.93	110.01
678.07	58.51
678.21	58.51
678.34	35.11
678.48	4.68
678.62	0.00
678.76	77.24
678.90	18.72
679.04	4.68
679.18	9.36
679.31	124.05
679.45	46.81
679.59	63.19
679.73	16.38
679.87	53.83
680.00	81.92
680.14	28.09
680.28	88.94
680.42	100.64
680.56	81.92
680.70	72.56
680.83	30.43
680.97	21.06
681.11	60.85
681.25	7.02
681.39	30.43
681.52	72.56
681.66	7.02
681.80	81.92
681.94	42.13
682.07	102.98
682.21	28.09
682.35	72.56
682.49	63.19
682.62	14.04
682.76	100.64
682.90	28.09
683.04	23.41
683.17	72.56
683.31	37.45
683.45	0.00
683.59	51.49
683.72	21.06
683.86	0.00
684.00	42.13
684.13	28.09
684.27	42.13
684.41	39.79
684.55	63.19
684.68	16.38
684.82	91.28
684.96	32.77
685.09	32.77
685.23	128.73
685.37	25.75
685.50	107.66
685.64	74.90
685.78	121.71
685.91	140.43
686.05	42.13
686.19	42.13
686.32	18.72
686.46	58.51
686.60	0.00
686.73	67.88
686.87	72.56
687.01	32.77
687.14	32.77
687.28	4.68
687.42	32.77
687.55	0.00
687.69	60.85
687.82	67.88
687.96	0.00
688.10	84.26
688.23	119.37
688.37	86.60
688.50	0.00
688.64	46.81
688.78	0.00
688.91	32.77
689.05	44.47
689.18	9.36
689.32	86.60
689.46	0.00
689.59	30.43
689.73	46.81
689.86	88.94
690.00	63.19
690.13	32.77
690.27	30.43
690.41	60.85
690.54	98.30
690.68	0.00
690.81	70.22
690.95	9.36
691.08	77.24
691.22	0.00
691.35	9.36
691.49	0.00
691.62	60.85
691.76	51.49
691.89	60.85
692.03	84.26
692.16	93.62
692.30	112.35
692.43	0.00
692.57	4.68
692.70	0.00
692.84	58.51
692.97	63.19
693.11	28.09
693.24	28.09
693.38	30.43
693.51	0.00
693.65	23.41
693.78	0.00
693.92	32.77
694.05	53.83
694.19	35.11
694.32	28.09
694.45	4.68
694.59	35.11
694.72	81.92
694.86	4.68
694.99	110.01
695.13	102.98
695.26	46.81
695.39	121.71
695.53	79.58
695.66	39.79
695.80	63.19
695.93	53.83
696.07	0.00
696.20	84.26
696.33	0.00
696.47	67.88
696.60	37.45
696.73	25.75
696.87	28.09
697.00	0.00
697.14	46.81
697.27	2.34
697.40	32.77
697.54	0.00
697.67	11.70
697.80	91.28
697.94	25.75
698.07	21.06
698.21	18.72
698.34	0.00
698.47	105.32
698.61	60.85
698.74	25.75
698.87	35.11
699.01	56.17
699.14	4.68
699.27	70.22
699.40	65.54
699.54	30.43
699.67	0.00
699.80	91.28
699.94	11.70
700.07	32.77
700.20	32.77
700.34	37.45
700.47	0.00
700.60	23.41
700.73	23.41
700.87	11.70
701.00	0.00
701.13	39.79
701.26	35.11
701.40	18.72
701.53	93.62
701.66	9.36
701.79	72.56
701.93	14.04
702.06	72.56
702.19	0.00
702.32	51.49
702.46	67.88
702.59	63.19
702.72	51.49
702.85	0.00
702.99	9.36
703.12	2.34
703.25	14.04
703.38	49.15
703.51	56.17
703.65	110.01
703.78	0.00
703.91	30.43
704.04	37.45
704.17	60.85
704.31	84.26
704.44	56.17
704.57	0.00
704.70	23.41
704.83	35.11
704.96	21.06
705.10	25.75
705.23	14.04
>>>>>End Processed Spectral Data<<<<<
