SpectraSuite Data File
++++++++++++++++++++++++++++++++++++
Date: Fri Oct 04 12:13:38 GMT-05:00 2013
User: price-jones
Dark Spectrum Present: No
Reference Spectrum Present: No
Number of Sampled Component Spectra: 1
Spectrometers: USB2+H05261
Integration Time (usec): 10000 (USB2+H05261)
Spectra Averaged: 1 (USB2+H05261)
Boxcar Smoothing: 0 (USB2+H05261)
Correct for Electrical Dark: No (USB2+H05261)
Strobe/Lamp Enabled: No (USB2+H05261)
Correct for Detector Non-linearity: No (USB2+H05261)
Correct for Stray Light: No (USB2+H05261)
Number of Pixels in Processed Spectrum: 2048
>>>>>Begin Processed Spectral Data<<<<<
365.73	0.00
365.92	0.00
366.12	0.00
366.32	0.00
366.52	0.00
366.72	0.00
366.91	0.00
367.11	0.00
367.31	0.00
367.51	0.00
367.70	0.00
367.90	0.00
368.10	0.00
368.30	0.00
368.49	0.00
368.69	0.00
368.89	0.00
369.09	0.00
369.28	0.00
369.48	0.00
369.68	0.00
369.87	0.00
370.07	0.00
370.27	0.00
370.47	0.00
370.66	0.00
370.86	7.02
371.06	28.09
371.25	4.68
371.45	0.00
371.65	0.00
371.84	39.79
372.04	0.00
372.24	53.83
372.44	0.00
372.63	0.00
372.83	0.00
373.03	0.00
373.22	4.68
373.42	28.09
373.62	84.26
373.81	63.19
374.01	56.17
374.21	21.06
374.40	95.96
374.60	21.06
374.79	14.04
374.99	79.58
375.19	23.41
375.38	77.24
375.58	74.90
375.78	7.02
375.97	25.75
376.17	30.43
376.37	44.47
376.56	53.83
376.76	46.81
376.95	65.54
377.15	46.81
377.35	30.43
377.54	18.72
377.74	18.72
377.93	58.51
378.13	44.47
378.33	0.00
378.52	4.68
378.72	42.13
378.91	49.15
379.11	65.54
379.31	0.00
379.50	39.79
379.70	9.36
379.89	9.36
380.09	0.00
380.28	0.00
380.48	63.19
380.68	51.49
380.87	16.38
381.07	0.00
381.26	44.47
381.46	42.13
381.65	21.06
381.85	39.79
382.04	0.00
382.24	16.38
382.43	0.00
382.63	14.04
382.83	56.17
383.02	2.34
383.22	51.49
383.41	39.79
383.61	0.00
383.80	56.17
384.00	30.43
384.19	25.75
384.39	86.60
384.58	65.54
384.78	0.00
384.97	37.45
385.17	37.45
385.36	18.72
385.56	14.04
385.75	0.00
385.95	18.72
386.14	56.17
386.34	0.00
386.53	37.45
386.72	67.88
386.92	0.00
387.11	7.02
387.31	65.54
387.50	0.00
387.70	14.04
387.89	21.06
388.09	37.45
388.28	51.49
388.48	18.72
388.67	42.13
388.86	46.81
389.06	7.02
389.25	0.00
389.45	11.70
389.64	51.49
389.84	0.00
390.03	39.79
390.22	0.00
390.42	39.79
390.61	0.00
390.81	0.00
391.00	7.02
391.19	23.41
391.39	37.45
391.58	0.00
391.78	9.36
391.97	23.41
392.16	0.00
392.36	28.09
392.55	117.03
392.75	53.83
392.94	23.41
393.13	23.41
393.33	53.83
393.52	42.13
393.71	4.68
393.91	42.13
394.10	46.81
394.29	0.00
394.49	0.00
394.68	63.19
394.88	58.51
395.07	39.79
395.26	46.81
395.46	42.13
395.65	49.15
395.84	42.13
396.04	25.75
396.23	49.15
396.42	0.00
396.62	0.00
396.81	4.68
397.00	37.45
397.19	9.36
397.39	14.04
397.58	32.77
397.77	46.81
397.97	16.38
398.16	0.00
398.35	18.72
398.55	0.00
398.74	70.22
398.93	70.22
399.12	145.11
399.32	0.00
399.51	0.00
399.70	30.43
399.90	7.02
400.09	46.81
400.28	4.68
400.47	0.00
400.67	93.62
400.86	28.09
401.05	53.83
401.24	28.09
401.44	23.41
401.63	28.09
401.82	39.79
402.01	0.00
402.21	35.11
402.40	98.30
402.59	42.13
402.78	49.15
402.97	25.75
403.17	11.70
403.36	51.49
403.55	60.85
403.74	74.90
403.93	102.98
404.13	0.00
404.32	58.51
404.51	14.04
404.70	30.43
404.89	51.49
405.09	63.19
405.28	0.00
405.47	28.09
405.66	46.81
405.85	51.49
406.05	11.70
406.24	74.90
406.43	14.04
406.62	23.41
406.81	93.62
407.00	21.06
407.20	0.00
407.39	11.70
407.58	39.79
407.77	0.00
407.96	18.72
408.15	46.81
408.34	79.58
408.54	0.00
408.73	95.96
408.92	84.26
409.11	39.79
409.30	23.41
409.49	37.45
409.68	44.47
409.87	46.81
410.07	53.83
410.26	42.13
410.45	63.19
410.64	140.43
410.83	72.56
411.02	14.04
411.21	0.00
411.40	0.00
411.59	0.00
411.78	18.72
411.98	23.41
412.17	60.85
412.36	2.34
412.55	42.13
412.74	0.00
412.93	0.00
413.12	35.11
413.31	67.88
413.50	51.49
413.69	79.58
413.88	23.41
414.07	100.64
414.26	77.24
414.45	28.09
414.64	0.00
414.83	58.51
415.02	0.00
415.22	0.00
415.41	46.81
415.60	28.09
415.79	32.77
415.98	42.13
416.17	110.01
416.36	79.58
416.55	102.98
416.74	0.00
416.93	65.54
417.12	18.72
417.31	37.45
417.50	35.11
417.69	98.30
417.88	37.45
418.07	9.36
418.26	23.41
418.45	0.00
418.64	25.75
418.83	4.68
419.02	49.15
419.21	7.02
419.39	60.85
419.58	91.28
419.77	32.77
419.96	28.09
420.15	11.70
420.34	42.13
420.53	30.43
420.72	14.04
420.91	93.62
421.10	56.17
421.29	56.17
421.48	93.62
421.67	11.70
421.86	37.45
422.05	74.90
422.24	16.38
422.43	9.36
422.61	39.79
422.80	0.00
422.99	7.02
423.18	28.09
423.37	114.69
423.56	30.43
423.75	65.54
423.94	0.00
424.13	0.00
424.32	21.06
424.50	53.83
424.69	28.09
424.88	9.36
425.07	84.26
425.26	44.47
425.45	0.00
425.64	0.00
425.83	21.06
426.01	14.04
426.20	28.09
426.39	7.02
426.58	79.58
426.77	56.17
426.96	21.06
427.15	49.15
427.33	32.77
427.52	42.13
427.71	42.13
427.90	60.85
428.09	53.83
428.28	18.72
428.46	35.11
428.65	60.85
428.84	63.19
429.03	67.88
429.22	84.26
429.40	21.06
429.59	18.72
429.78	79.58
429.97	9.36
430.16	44.47
430.34	16.38
430.53	79.58
430.72	23.41
430.91	67.88
431.10	72.56
431.28	23.41
431.47	44.47
431.66	0.00
431.85	65.54
432.03	0.00
432.22	21.06
432.41	2.34
432.60	51.49
432.79	32.77
432.97	14.04
433.16	21.06
433.35	81.92
433.54	39.79
433.72	74.90
433.91	98.30
434.10	84.26
434.28	39.79
434.47	114.69
434.66	23.41
434.85	81.92
435.03	74.90
435.22	74.90
435.41	74.90
435.59	49.15
435.78	63.19
435.97	114.69
436.16	100.64
436.34	0.00
436.53	11.70
436.72	67.88
436.90	28.09
437.09	39.79
437.28	67.88
437.46	93.62
437.65	51.49
437.84	105.32
438.02	79.58
438.21	72.56
438.40	44.47
438.58	16.38
438.77	58.51
438.96	138.09
439.14	100.64
439.33	18.72
439.52	53.83
439.70	32.77
439.89	72.56
440.08	0.00
440.26	79.58
440.45	49.15
440.63	25.75
440.82	112.35
441.01	77.24
441.19	21.06
441.38	0.00
441.57	65.54
441.75	37.45
441.94	51.49
442.12	65.54
442.31	0.00
442.50	119.37
442.68	107.66
442.87	100.64
443.05	25.75
443.24	91.28
443.43	25.75
443.61	114.69
443.80	74.90
443.98	32.77
444.17	60.85
444.35	14.04
444.54	46.81
444.73	53.83
444.91	0.00
445.10	65.54
445.28	126.39
445.47	46.81
445.65	72.56
445.84	28.09
446.02	70.22
446.21	30.43
446.39	56.17
446.58	11.70
446.77	86.60
446.95	49.15
447.14	100.64
447.32	67.88
447.51	18.72
447.69	16.38
447.88	58.51
448.06	32.77
448.25	0.00
448.43	58.51
448.62	88.94
448.80	98.30
448.99	98.30
449.17	81.92
449.36	56.17
449.54	51.49
449.73	0.00
449.91	46.81
450.10	93.62
450.28	0.00
450.46	81.92
450.65	86.60
450.83	42.13
451.02	23.41
451.20	49.15
451.39	42.13
451.57	0.00
451.76	100.64
451.94	88.94
452.13	14.04
452.31	30.43
452.49	0.00
452.68	0.00
452.86	67.88
453.05	70.22
453.23	25.75
453.42	107.66
453.60	63.19
453.78	39.79
453.97	56.17
454.15	65.54
454.34	98.30
454.52	88.94
454.70	23.41
454.89	25.75
455.07	0.00
455.26	42.13
455.44	86.60
455.62	102.98
455.81	28.09
455.99	147.45
456.17	53.83
456.36	21.06
456.54	91.28
456.73	81.92
456.91	140.43
457.09	18.72
457.28	56.17
457.46	93.62
457.64	95.96
457.83	58.51
458.01	39.79
458.19	32.77
458.38	72.56
458.56	32.77
458.74	51.49
458.93	0.00
459.11	51.49
459.29	51.49
459.48	88.94
459.66	79.58
459.84	32.77
460.03	60.85
460.21	44.47
460.39	86.60
460.57	100.64
460.76	39.79
460.94	32.77
461.12	67.88
461.31	65.54
461.49	44.47
461.67	4.68
461.85	67.88
462.04	70.22
462.22	112.35
462.40	32.77
462.59	114.69
462.77	100.64
462.95	65.54
463.13	44.47
463.32	21.06
463.50	0.00
463.68	32.77
463.86	16.38
464.05	95.96
464.23	32.77
464.41	51.49
464.59	84.26
464.78	95.96
464.96	23.41
465.14	74.90
465.32	0.00
465.50	65.54
465.69	16.38
465.87	58.51
466.05	142.77
466.23	44.47
466.41	74.90
466.60	60.85
466.78	138.09
466.96	51.49
467.14	114.69
467.32	72.56
467.51	0.00
467.69	51.49
467.87	0.00
468.05	77.24
468.23	72.56
468.41	100.64
468.60	2.34
468.78	25.75
468.96	42.13
469.14	42.13
469.32	95.96
469.50	60.85
469.69	21.06
469.87	60.85
470.05	131.07
470.23	88.94
470.41	72.56
470.59	21.06
470.77	30.43
470.95	0.00
471.14	72.56
471.32	93.62
471.50	0.00
471.68	53.83
471.86	51.49
472.04	42.13
472.22	112.35
472.40	58.51
472.58	14.04
472.77	0.00
472.95	84.26
473.13	23.41
473.31	95.96
473.49	18.72
473.67	110.01
473.85	72.56
474.03	56.17
474.21	102.98
474.39	65.54
474.57	81.92
474.75	65.54
474.93	67.88
475.12	0.00
475.30	32.77
475.48	95.96
475.66	23.41
475.84	70.22
476.02	7.02
476.20	88.94
476.38	49.15
476.56	91.28
476.74	72.56
476.92	86.60
477.10	44.47
477.28	156.82
477.46	16.38
477.64	42.13
477.82	0.00
478.00	67.88
478.18	49.15
478.36	93.62
478.54	0.00
478.72	14.04
478.90	56.17
479.08	51.49
479.26	56.17
479.44	60.85
479.62	42.13
479.80	21.06
479.98	46.81
480.16	58.51
480.34	16.38
480.52	0.00
480.70	60.85
480.88	39.79
481.06	100.64
481.24	133.41
481.41	133.41
481.59	114.69
481.77	95.96
481.95	133.41
482.13	100.64
482.31	119.37
482.49	46.81
482.67	112.35
482.85	84.26
483.03	53.83
483.21	0.00
483.39	44.47
483.57	53.83
483.74	166.18
483.92	23.41
484.10	110.01
484.28	88.94
484.46	63.19
484.64	16.38
484.82	28.09
485.00	37.45
485.18	121.71
485.35	56.17
485.53	25.75
485.71	32.77
485.89	74.90
486.07	28.09
486.25	7.02
486.43	88.94
486.61	58.51
486.78	56.17
486.96	166.18
487.14	77.24
487.32	21.06
487.50	46.81
487.68	77.24
487.85	16.38
488.03	46.81
488.21	7.02
488.39	7.02
488.57	28.09
488.75	42.13
488.92	72.56
489.10	63.19
489.28	105.32
489.46	0.00
489.64	81.92
489.81	88.94
489.99	142.77
490.17	70.22
490.35	98.30
490.53	49.15
490.70	95.96
490.88	81.92
491.06	51.49
491.24	95.96
491.41	84.26
491.59	163.84
491.77	63.19
491.95	88.94
492.13	112.35
492.30	35.11
492.48	51.49
492.66	18.72
492.84	72.56
493.01	67.88
493.19	74.90
493.37	135.75
493.54	70.22
493.72	58.51
493.90	58.51
494.08	84.26
494.25	79.58
494.43	81.92
494.61	91.28
494.79	102.98
494.96	105.32
495.14	60.85
495.32	46.81
495.49	56.17
495.67	0.00
495.85	18.72
496.02	100.64
496.20	60.85
496.38	63.19
496.55	187.24
496.73	74.90
496.91	88.94
497.09	142.77
497.26	74.90
497.44	126.39
497.62	60.85
497.79	102.98
497.97	39.79
498.14	53.83
498.32	56.17
498.50	51.49
498.67	67.88
498.85	102.98
499.03	81.92
499.20	161.50
499.38	74.90
499.56	95.96
499.73	53.83
499.91	112.35
500.08	67.88
500.26	84.26
500.44	65.54
500.61	93.62
500.79	84.26
500.97	110.01
501.14	102.98
501.32	49.15
501.49	0.00
501.67	77.24
501.84	35.11
502.02	168.52
502.20	23.41
502.37	11.70
502.55	65.54
502.72	91.28
502.90	77.24
503.07	74.90
503.25	74.90
503.43	53.83
503.60	44.47
503.78	88.94
503.95	112.35
504.13	53.83
504.30	46.81
504.48	44.47
504.65	121.71
504.83	163.84
505.01	126.39
505.18	79.58
505.36	63.19
505.53	51.49
505.71	100.64
505.88	81.92
506.06	70.22
506.23	21.06
506.41	105.32
506.58	70.22
506.76	93.62
506.93	18.72
507.11	49.15
507.28	4.68
507.46	65.54
507.63	131.07
507.81	0.00
507.98	88.94
508.16	149.79
508.33	23.41
508.50	124.05
508.68	100.64
508.85	147.45
509.03	51.49
509.20	112.35
509.38	42.13
509.55	51.49
509.73	107.66
509.90	88.94
510.08	72.56
510.25	65.54
510.42	147.45
510.60	16.38
510.77	81.92
510.95	91.28
511.12	70.22
511.30	56.17
511.47	32.77
511.64	44.47
511.82	74.90
511.99	105.32
512.17	93.62
512.34	163.84
512.51	105.32
512.69	42.13
512.86	135.75
513.04	119.37
513.21	81.92
513.38	77.24
513.56	77.24
513.73	60.85
513.90	0.00
514.08	53.83
514.25	77.24
514.43	0.00
514.60	37.45
514.77	18.72
514.95	177.88
515.12	86.60
515.29	74.90
515.47	86.60
515.64	77.24
515.81	84.26
515.99	124.05
516.16	25.75
516.33	100.64
516.51	72.56
516.68	25.75
516.85	46.81
517.03	88.94
517.20	63.19
517.37	2.34
517.54	98.30
517.72	128.73
517.89	145.11
518.06	98.30
518.24	28.09
518.41	93.62
518.58	121.71
518.75	63.19
518.93	159.16
519.10	93.62
519.27	72.56
519.45	49.15
519.62	86.60
519.79	25.75
519.96	98.30
520.14	63.19
520.31	44.47
520.48	114.69
520.65	0.00
520.83	84.26
521.00	58.51
521.17	84.26
521.34	95.96
521.52	117.03
521.69	74.90
521.86	121.71
522.03	30.43
522.20	121.71
522.38	39.79
522.55	142.77
522.72	46.81
522.89	70.22
523.07	88.94
523.24	100.64
523.41	133.41
523.58	105.32
523.75	88.94
523.92	95.96
524.10	79.58
524.27	49.15
524.44	102.98
524.61	65.54
524.78	117.03
524.96	98.30
525.13	81.92
525.30	72.56
525.47	81.92
525.64	74.90
525.81	32.77
525.98	37.45
526.16	81.92
526.33	18.72
526.50	86.60
526.67	70.22
526.84	9.36
527.01	102.98
527.18	51.49
527.36	100.64
527.53	46.81
527.70	28.09
527.87	72.56
528.04	49.15
528.21	100.64
528.38	60.85
528.55	86.60
528.72	81.92
528.89	98.30
529.07	56.17
529.24	79.58
529.41	133.41
529.58	79.58
529.75	14.04
529.92	124.05
530.09	128.73
530.26	77.24
530.43	63.19
530.60	53.83
530.77	44.47
530.94	72.56
531.11	56.17
531.28	86.60
531.46	79.58
531.63	119.37
531.80	124.05
531.97	72.56
532.14	86.60
532.31	84.26
532.48	112.35
532.65	93.62
532.82	21.06
532.99	70.22
533.16	51.49
533.33	51.49
533.50	23.41
533.67	72.56
533.84	86.60
534.01	173.20
534.18	65.54
534.35	138.09
534.52	58.51
534.69	58.51
534.86	88.94
535.03	119.37
535.20	133.41
535.37	49.15
535.54	149.79
535.71	58.51
535.88	102.98
536.05	32.77
536.22	88.94
536.38	112.35
536.55	65.54
536.72	65.54
536.89	135.75
537.06	117.03
537.23	67.88
537.40	84.26
537.57	147.45
537.74	107.66
537.91	72.56
538.08	95.96
538.25	126.39
538.42	81.92
538.59	79.58
538.75	135.75
538.92	46.81
539.09	161.50
539.26	58.51
539.43	56.17
539.60	79.58
539.77	119.37
539.94	72.56
540.11	93.62
540.28	65.54
540.44	98.30
540.61	32.77
540.78	65.54
540.95	65.54
541.12	37.45
541.29	60.85
541.46	25.75
541.62	107.66
541.79	84.26
541.96	100.64
542.13	42.13
542.30	114.69
542.47	0.00
542.63	32.77
542.80	39.79
542.97	51.49
543.14	135.75
543.31	11.70
543.48	11.70
543.64	74.90
543.81	100.64
543.98	84.26
544.15	2.34
544.32	81.92
544.48	53.83
544.65	56.17
544.82	65.54
544.99	79.58
545.16	72.56
545.32	74.90
545.49	81.92
545.66	114.69
545.83	110.01
546.00	138.09
546.16	65.54
546.33	81.92
546.50	46.81
546.67	39.79
546.83	81.92
547.00	39.79
547.17	100.64
547.34	86.60
547.50	91.28
547.67	98.30
547.84	53.83
548.00	49.15
548.17	117.03
548.34	72.56
548.51	65.54
548.67	86.60
548.84	46.81
549.01	9.36
549.18	107.66
549.34	102.98
549.51	135.75
549.68	88.94
549.84	67.88
550.01	95.96
550.18	91.28
550.34	72.56
550.51	110.01
550.68	110.01
550.84	60.85
551.01	121.71
551.18	126.39
551.34	84.26
551.51	114.69
551.68	23.41
551.84	51.49
552.01	58.51
552.18	86.60
552.34	49.15
552.51	117.03
552.68	95.96
552.84	95.96
553.01	126.39
553.18	140.43
553.34	44.47
553.51	91.28
553.67	65.54
553.84	121.71
554.01	44.47
554.17	63.19
554.34	53.83
554.51	84.26
554.67	152.13
554.84	84.26
555.00	98.30
555.17	105.32
555.33	100.64
555.50	65.54
555.67	14.04
555.83	21.06
556.00	84.26
556.16	124.05
556.33	112.35
556.50	102.98
556.66	70.22
556.83	32.77
556.99	77.24
557.16	74.90
557.32	131.07
557.49	58.51
557.65	112.35
557.82	93.62
557.98	53.83
558.15	67.88
558.32	114.69
558.48	32.77
558.65	35.11
558.81	100.64
558.98	58.51
559.14	86.60
559.31	0.00
559.47	84.26
559.64	98.30
559.80	119.37
559.97	114.69
560.13	86.60
560.30	56.17
560.46	32.77
560.63	74.90
560.79	46.81
560.96	35.11
561.12	107.66
561.29	102.98
561.45	37.45
561.61	53.83
561.78	147.45
561.94	145.11
562.11	84.26
562.27	88.94
562.44	100.64
562.60	110.01
562.77	67.88
562.93	124.05
563.10	98.30
563.26	79.58
563.42	81.92
563.59	149.79
563.75	18.72
563.92	72.56
564.08	93.62
564.24	161.50
564.41	112.35
564.57	37.45
564.74	77.24
564.90	149.79
565.07	79.58
565.23	91.28
565.39	100.64
565.56	51.49
565.72	95.96
565.88	79.58
566.05	28.09
566.21	119.37
566.38	88.94
566.54	131.07
566.70	135.75
566.87	21.06
567.03	102.98
567.19	72.56
567.36	32.77
567.52	11.70
567.68	98.30
567.85	81.92
568.01	86.60
568.17	81.92
568.34	93.62
568.50	0.00
568.66	28.09
568.83	79.58
568.99	65.54
569.15	145.11
569.32	93.62
569.48	32.77
569.64	51.49
569.81	56.17
569.97	105.32
570.13	149.79
570.30	126.39
570.46	91.28
570.62	93.62
570.78	25.75
570.95	93.62
571.11	105.32
571.27	91.28
571.43	81.92
571.60	72.56
571.76	51.49
571.92	60.85
572.09	105.32
572.25	42.13
572.41	121.71
572.57	131.07
572.74	98.30
572.90	119.37
573.06	107.66
573.22	72.56
573.38	56.17
573.55	56.17
573.71	56.17
573.87	30.43
574.03	65.54
574.20	112.35
574.36	74.90
574.52	110.01
574.68	65.54
574.84	25.75
575.01	91.28
575.17	28.09
575.33	23.41
575.49	93.62
575.65	161.50
575.82	9.36
575.98	35.11
576.14	77.24
576.30	32.77
576.46	16.38
576.62	63.19
576.79	74.90
576.95	107.66
577.11	72.56
577.27	88.94
577.43	65.54
577.59	16.38
577.75	84.26
577.92	72.56
578.08	49.15
578.24	49.15
578.40	49.15
578.56	70.22
578.72	117.03
578.88	98.30
579.04	37.45
579.21	133.41
579.37	44.47
579.53	79.58
579.69	98.30
579.85	88.94
580.01	95.96
580.17	102.98
580.33	74.90
580.49	81.92
580.65	135.75
580.82	42.13
580.98	39.79
581.14	100.64
581.30	79.58
581.46	88.94
581.62	84.26
581.78	74.90
581.94	39.79
582.10	60.85
582.26	142.77
582.42	39.79
582.58	70.22
582.74	88.94
582.90	0.00
583.06	51.49
583.22	72.56
583.38	81.92
583.54	70.22
583.70	112.35
583.86	88.94
584.02	53.83
584.18	138.09
584.34	107.66
584.50	67.88
584.66	65.54
584.82	0.00
584.98	72.56
585.14	124.05
585.30	84.26
585.46	131.07
585.62	63.19
585.78	28.09
585.94	65.54
586.10	28.09
586.26	79.58
586.42	107.66
586.58	58.51
586.74	140.43
586.90	98.30
587.06	84.26
587.22	152.13
587.38	105.32
587.54	49.15
587.70	84.26
587.86	77.24
588.02	112.35
588.18	67.88
588.34	42.13
588.49	149.79
588.65	30.43
588.81	0.00
588.97	4.68
589.13	32.77
589.29	84.26
589.45	81.92
589.61	44.47
589.77	91.28
589.93	105.32
590.08	72.56
590.24	42.13
590.40	70.22
590.56	93.62
590.72	2.34
590.88	32.77
591.04	126.39
591.20	65.54
591.35	98.30
591.51	79.58
591.67	119.37
591.83	39.79
591.99	126.39
592.15	102.98
592.31	77.24
592.46	93.62
592.62	32.77
592.78	32.77
592.94	58.51
593.10	65.54
593.26	84.26
593.41	121.71
593.57	23.41
593.73	107.66
593.89	79.58
594.05	91.28
594.20	91.28
594.36	84.26
594.52	58.51
594.68	126.39
594.84	14.04
594.99	56.17
595.15	32.77
595.31	105.32
595.47	91.28
595.62	93.62
595.78	70.22
595.94	58.51
596.10	51.49
596.25	51.49
596.41	77.24
596.57	86.60
596.73	39.79
596.88	56.17
597.04	93.62
597.20	119.37
597.36	51.49
597.51	133.41
597.67	51.49
597.83	56.17
597.99	25.75
598.14	135.75
598.30	49.15
598.46	128.73
598.61	117.03
598.77	63.19
598.93	67.88
599.09	112.35
599.24	88.94
599.40	77.24
599.56	72.56
599.71	77.24
599.87	0.00
600.03	128.73
600.18	9.36
600.34	102.98
600.50	28.09
600.65	77.24
600.81	95.96
600.97	112.35
601.12	23.41
601.28	107.66
601.44	18.72
601.59	142.77
601.75	140.43
601.91	72.56
602.06	46.81
602.22	110.01
602.37	86.60
602.53	39.79
602.69	86.60
602.84	9.36
603.00	42.13
603.16	126.39
603.31	0.00
603.47	128.73
603.62	37.45
603.78	67.88
603.94	93.62
604.09	100.64
604.25	70.22
604.40	110.01
604.56	95.96
604.71	44.47
604.87	142.77
605.03	79.58
605.18	77.24
605.34	18.72
605.49	32.77
605.65	51.49
605.80	74.90
605.96	72.56
606.12	30.43
606.27	135.75
606.43	93.62
606.58	74.90
606.74	121.71
606.89	86.60
607.05	74.90
607.20	126.39
607.36	86.60
607.51	32.77
607.67	98.30
607.82	79.58
607.98	105.32
608.13	32.77
608.29	16.38
608.44	93.62
608.60	91.28
608.75	86.60
608.91	58.51
609.06	119.37
609.22	30.43
609.37	95.96
609.53	18.72
609.68	0.00
609.84	21.06
609.99	63.19
610.15	0.00
610.30	51.49
610.46	28.09
610.61	135.75
610.76	0.00
610.92	145.11
611.07	133.41
611.23	88.94
611.38	28.09
611.54	21.06
611.69	7.02
611.84	70.22
612.00	114.69
612.15	42.13
612.31	102.98
612.46	23.41
612.62	72.56
612.77	63.19
612.92	77.24
613.08	65.54
613.23	105.32
613.39	67.88
613.54	93.62
613.69	70.22
613.85	28.09
614.00	93.62
614.15	65.54
614.31	46.81
614.46	102.98
614.62	98.30
614.77	2.34
614.92	112.35
615.08	2.34
615.23	84.26
615.38	28.09
615.54	16.38
615.69	70.22
615.84	30.43
616.00	53.83
616.15	67.88
616.30	100.64
616.46	70.22
616.61	35.11
616.76	21.06
616.92	30.43
617.07	77.24
617.22	0.00
617.37	49.15
617.53	49.15
617.68	51.49
617.83	124.05
617.99	93.62
618.14	70.22
618.29	100.64
618.45	0.00
618.60	28.09
618.75	42.13
618.90	93.62
619.06	51.49
619.21	84.26
619.36	67.88
619.51	58.51
619.67	65.54
619.82	93.62
619.97	88.94
620.12	93.62
620.28	49.15
620.43	140.43
620.58	32.77
620.73	42.13
620.89	79.58
621.04	72.56
621.19	72.56
621.34	49.15
621.49	49.15
621.65	11.70
621.80	110.01
621.95	105.32
622.10	30.43
622.25	65.54
622.41	53.83
622.56	39.79
622.71	18.72
622.86	74.90
623.01	81.92
623.16	65.54
623.32	23.41
623.47	86.60
623.62	88.94
623.77	42.13
623.92	86.60
624.07	102.98
624.23	98.30
624.38	51.49
624.53	60.85
624.68	0.00
624.83	0.00
624.98	98.30
625.13	70.22
625.29	0.00
625.44	46.81
625.59	35.11
625.74	77.24
625.89	81.92
626.04	60.85
626.19	72.56
626.34	142.77
626.49	42.13
626.65	63.19
626.80	53.83
626.95	35.11
627.10	42.13
627.25	81.92
627.40	91.28
627.55	42.13
627.70	126.39
627.85	63.19
628.00	91.28
628.15	44.47
628.30	0.00
628.45	65.54
628.60	16.38
628.76	49.15
628.91	0.00
629.06	49.15
629.21	79.58
629.36	21.06
629.51	49.15
629.66	0.00
629.81	18.72
629.96	79.58
630.11	102.98
630.26	42.13
630.41	39.79
630.56	30.43
630.71	121.71
630.86	46.81
631.01	84.26
631.16	23.41
631.31	166.18
631.46	77.24
631.61	32.77
631.76	102.98
631.91	81.92
632.06	49.15
632.21	37.45
632.36	72.56
632.51	67.88
632.66	18.72
632.81	124.05
632.96	0.00
633.10	119.37
633.25	25.75
633.40	98.30
633.55	44.47
633.70	25.75
633.85	114.69
634.00	84.26
634.15	18.72
634.30	60.85
634.45	46.81
634.60	42.13
634.75	100.64
634.90	84.26
635.05	11.70
635.19	70.22
635.34	0.00
635.49	84.26
635.64	70.22
635.79	74.90
635.94	81.92
636.09	28.09
636.24	32.77
636.39	0.00
636.53	32.77
636.68	79.58
636.83	49.15
636.98	9.36
637.13	39.79
637.28	86.60
637.43	60.85
637.57	100.64
637.72	60.85
637.87	147.45
638.02	79.58
638.17	74.90
638.32	84.26
638.46	81.92
638.61	44.47
638.76	37.45
638.91	110.01
639.06	88.94
639.20	107.66
639.35	39.79
639.50	30.43
639.65	65.54
639.80	44.47
639.94	35.11
640.09	21.06
640.24	51.49
640.39	93.62
640.54	0.00
640.68	11.70
640.83	81.92
640.98	21.06
641.13	86.60
641.27	32.77
641.42	74.90
641.57	56.17
641.72	44.47
641.86	23.41
642.01	105.32
642.16	37.45
642.31	9.36
642.45	67.88
642.60	28.09
642.75	37.45
642.90	72.56
643.04	25.75
643.19	44.47
643.34	28.09
643.48	100.64
643.63	51.49
643.78	128.73
643.93	39.79
644.07	49.15
644.22	35.11
644.37	25.75
644.51	32.77
644.66	14.04
644.81	35.11
644.95	88.94
645.10	74.90
645.25	95.96
645.39	65.54
645.54	72.56
645.69	0.00
645.83	0.00
645.98	128.73
646.13	98.30
646.27	42.13
646.42	58.51
646.57	37.45
646.71	114.69
646.86	65.54
647.00	56.17
647.15	23.41
647.30	37.45
647.44	42.13
647.59	63.19
647.74	95.96
647.88	37.45
648.03	39.79
648.17	58.51
648.32	58.51
648.47	0.00
648.61	35.11
648.76	72.56
648.90	46.81
649.05	65.54
649.20	37.45
649.34	138.09
649.49	74.90
649.63	77.24
649.78	72.56
649.92	74.90
650.07	91.28
650.21	107.66
650.36	46.81
650.51	119.37
650.65	21.06
650.80	53.83
650.94	91.28
651.09	46.81
651.23	11.70
651.38	56.17
651.52	110.01
651.67	42.13
651.81	63.19
651.96	65.54
652.10	70.22
652.25	51.49
652.39	37.45
652.54	39.79
652.68	32.77
652.83	58.51
652.97	23.41
653.12	2.34
653.26	16.38
653.41	79.58
653.55	65.54
653.70	107.66
653.84	42.13
653.99	14.04
654.13	0.00
654.27	25.75
654.42	18.72
654.56	58.51
654.71	21.06
654.85	81.92
655.00	39.79
655.14	4.68
655.29	51.49
655.43	63.19
655.57	65.54
655.72	84.26
655.86	7.02
656.01	81.92
656.15	56.17
656.30	65.54
656.44	51.49
656.58	39.79
656.73	39.79
656.87	51.49
657.01	0.00
657.16	74.90
657.30	86.60
657.45	107.66
657.59	121.71
657.73	32.77
657.88	126.39
658.02	114.69
658.16	81.92
658.31	0.00
658.45	74.90
658.60	30.43
658.74	79.58
658.88	35.11
659.03	44.47
659.17	42.13
659.31	51.49
659.46	16.38
659.60	58.51
659.74	65.54
659.89	14.04
660.03	93.62
660.17	16.38
660.32	0.00
660.46	0.00
660.60	70.22
660.74	56.17
660.89	25.75
661.03	65.54
661.17	70.22
661.32	58.51
661.46	25.75
661.60	63.19
661.74	102.98
661.89	56.17
662.03	74.90
662.17	35.11
662.31	95.96
662.46	86.60
662.60	32.77
662.74	0.00
662.88	0.00
663.03	11.70
663.17	53.83
663.31	102.98
663.45	63.19
663.60	77.24
663.74	105.32
663.88	100.64
664.02	9.36
664.17	18.72
664.31	72.56
664.45	81.92
664.59	63.19
664.73	42.13
664.88	84.26
665.02	65.54
665.16	0.00
665.30	107.66
665.44	39.79
665.59	93.62
665.73	84.26
665.87	72.56
666.01	0.00
666.15	0.00
666.29	4.68
666.44	0.00
666.58	56.17
666.72	51.49
666.86	63.19
667.00	77.24
667.14	79.58
667.28	65.54
667.43	51.49
667.57	14.04
667.71	39.79
667.85	67.88
667.99	67.88
668.13	58.51
668.27	46.81
668.41	14.04
668.56	56.17
668.70	63.19
668.84	98.30
668.98	49.15
669.12	60.85
669.26	2.34
669.40	60.85
669.54	23.41
669.68	4.68
669.82	37.45
669.96	35.11
670.10	105.32
670.25	23.41
670.39	0.00
670.53	37.45
670.67	37.45
670.81	35.11
670.95	63.19
671.09	72.56
671.23	53.83
671.37	35.11
671.51	35.11
671.65	112.35
671.79	65.54
671.93	60.85
672.07	77.24
672.21	18.72
672.35	86.60
672.49	42.13
672.63	72.56
672.77	14.04
672.91	107.66
673.05	65.54
673.19	0.00
673.33	0.00
673.47	77.24
673.61	32.77
673.75	107.66
673.89	18.72
674.03	53.83
674.17	37.45
674.31	51.49
674.45	133.41
674.59	91.28
674.73	42.13
674.87	35.11
675.01	95.96
675.15	25.75
675.29	37.45
675.43	56.17
675.56	0.00
675.70	70.22
675.84	65.54
675.98	0.00
676.12	63.19
676.26	14.04
676.40	25.75
676.54	112.35
676.68	39.79
676.82	95.96
676.96	67.88
677.10	77.24
677.23	18.72
677.37	0.00
677.51	60.85
677.65	60.85
677.79	77.24
677.93	39.79
678.07	84.26
678.21	145.11
678.34	110.01
678.48	74.90
678.62	0.00
678.76	112.35
678.90	74.90
679.04	131.07
679.18	126.39
679.31	79.58
679.45	98.30
679.59	128.73
679.73	72.56
679.87	9.36
680.00	0.00
680.14	100.64
680.28	58.51
680.42	56.17
680.56	72.56
680.70	0.00
680.83	23.41
680.97	131.07
681.11	74.90
681.25	32.77
681.39	11.70
681.52	32.77
681.66	65.54
681.80	100.64
681.94	49.15
682.07	63.19
682.21	16.38
682.35	56.17
682.49	0.00
682.62	21.06
682.76	14.04
682.90	28.09
683.04	9.36
683.17	46.81
683.31	42.13
683.45	74.90
683.59	91.28
683.72	93.62
683.86	72.56
684.00	11.70
684.13	67.88
684.27	70.22
684.41	32.77
684.55	70.22
684.68	72.56
684.82	0.00
684.96	14.04
685.09	133.41
685.23	110.01
685.37	9.36
685.50	91.28
685.64	23.41
685.78	46.81
685.91	56.17
686.05	77.24
686.19	23.41
686.32	74.90
686.46	0.00
686.60	72.56
686.73	0.00
686.87	0.00
687.01	105.32
687.14	49.15
687.28	0.00
687.42	11.70
687.55	0.00
687.69	35.11
687.82	35.11
687.96	46.81
688.10	63.19
688.23	105.32
688.37	147.45
688.50	35.11
688.64	39.79
688.78	7.02
688.91	58.51
689.05	58.51
689.18	93.62
689.32	21.06
689.46	28.09
689.59	60.85
689.73	21.06
689.86	88.94
690.00	53.83
690.13	0.00
690.27	0.00
690.41	51.49
690.54	60.85
690.68	18.72
690.81	88.94
690.95	4.68
691.08	46.81
691.22	112.35
691.35	56.17
691.49	42.13
691.62	86.60
691.76	63.19
691.89	100.64
692.03	21.06
692.16	49.15
692.30	0.00
692.43	2.34
692.57	16.38
692.70	44.47
692.84	37.45
692.97	37.45
693.11	21.06
693.24	49.15
693.38	0.00
693.51	70.22
693.65	63.19
693.78	30.43
693.92	18.72
694.05	37.45
694.19	0.00
694.32	105.32
694.45	58.51
694.59	126.39
694.72	25.75
694.86	51.49
694.99	23.41
695.13	42.13
695.26	51.49
695.39	56.17
695.53	112.35
695.66	4.68
695.80	11.70
695.93	32.77
696.07	0.00
696.20	49.15
696.33	32.77
696.47	0.00
696.60	42.13
696.73	77.24
696.87	0.00
697.00	21.06
697.14	46.81
697.27	44.47
697.40	58.51
697.54	23.41
697.67	0.00
697.80	56.17
697.94	32.77
698.07	18.72
698.21	44.47
698.34	65.54
698.47	51.49
698.61	42.13
698.74	63.19
698.87	44.47
699.01	102.98
699.14	110.01
699.27	67.88
699.40	25.75
699.54	14.04
699.67	49.15
699.80	46.81
699.94	56.17
700.07	46.81
700.20	63.19
700.34	39.79
700.47	0.00
700.60	53.83
700.73	23.41
700.87	11.70
701.00	32.77
701.13	0.00
701.26	74.90
701.40	79.58
701.53	72.56
701.66	74.90
701.79	60.85
701.93	23.41
702.06	60.85
702.19	100.64
702.32	37.45
702.46	0.00
702.59	46.81
702.72	58.51
702.85	79.58
702.99	42.13
703.12	0.00
703.25	86.60
703.38	42.13
703.51	72.56
703.65	14.04
703.78	58.51
703.91	9.36
704.04	114.69
704.17	4.68
704.31	23.41
704.44	0.00
704.57	35.11
704.70	32.77
704.83	0.00
704.96	49.15
705.10	53.83
705.23	32.77
>>>>>End Processed Spectral Data<<<<<
