SpectraSuite Data File
++++++++++++++++++++++++++++++++++++
Date: Fri Oct 04 12:13:35 GMT-05:00 2013
User: price-jones
Dark Spectrum Present: No
Reference Spectrum Present: No
Number of Sampled Component Spectra: 1
Spectrometers: USB2+H05261
Integration Time (usec): 10000 (USB2+H05261)
Spectra Averaged: 1 (USB2+H05261)
Boxcar Smoothing: 0 (USB2+H05261)
Correct for Electrical Dark: No (USB2+H05261)
Strobe/Lamp Enabled: No (USB2+H05261)
Correct for Detector Non-linearity: No (USB2+H05261)
Correct for Stray Light: No (USB2+H05261)
Number of Pixels in Processed Spectrum: 2048
>>>>>Begin Processed Spectral Data<<<<<
365.73	0.00
365.92	0.00
366.12	0.00
366.32	0.00
366.52	0.00
366.72	0.00
366.91	0.00
367.11	0.00
367.31	0.00
367.51	0.00
367.70	0.00
367.90	0.00
368.10	0.00
368.30	0.00
368.49	0.00
368.69	0.00
368.89	0.00
369.09	0.00
369.28	0.00
369.48	0.00
369.68	0.00
369.87	0.00
370.07	0.00
370.27	0.00
370.47	0.00
370.66	0.00
370.86	0.00
371.06	0.00
371.25	0.00
371.45	0.00
371.65	0.00
371.84	0.00
372.04	0.00
372.24	32.77
372.44	0.00
372.63	4.68
372.83	0.00
373.03	0.00
373.22	18.72
373.42	53.83
373.62	0.00
373.81	30.43
374.01	11.70
374.21	102.98
374.40	0.00
374.60	42.13
374.79	44.47
374.99	0.00
375.19	0.00
375.38	39.79
375.58	30.43
375.78	0.00
375.97	39.79
376.17	11.70
376.37	72.56
376.56	18.72
376.76	21.06
376.95	0.00
377.15	32.77
377.35	49.15
377.54	0.00
377.74	0.00
377.93	70.22
378.13	60.85
378.33	28.09
378.52	91.28
378.72	21.06
378.91	0.00
379.11	25.75
379.31	58.51
379.50	0.00
379.70	0.00
379.89	70.22
380.09	0.00
380.28	37.45
380.48	11.70
380.68	0.00
380.87	58.51
381.07	0.00
381.26	81.92
381.46	4.68
381.65	98.30
381.85	23.41
382.04	0.00
382.24	0.00
382.43	32.77
382.63	88.94
382.83	0.00
383.02	25.75
383.22	74.90
383.41	0.00
383.61	0.00
383.80	35.11
384.00	7.02
384.19	14.04
384.39	4.68
384.58	18.72
384.78	44.47
384.97	14.04
385.17	0.00
385.36	37.45
385.56	23.41
385.75	37.45
385.95	11.70
386.14	0.00
386.34	0.00
386.53	0.00
386.72	0.00
386.92	7.02
387.11	0.00
387.31	21.06
387.50	28.09
387.70	0.00
387.89	65.54
388.09	63.19
388.28	0.00
388.48	0.00
388.67	37.45
388.86	28.09
389.06	30.43
389.25	65.54
389.45	37.45
389.64	0.00
389.84	42.13
390.03	11.70
390.22	84.26
390.42	23.41
390.61	77.24
390.81	0.00
391.00	0.00
391.19	77.24
391.39	0.00
391.58	21.06
391.78	67.88
391.97	60.85
392.16	72.56
392.36	9.36
392.55	0.00
392.75	11.70
392.94	0.00
393.13	60.85
393.33	0.00
393.52	67.88
393.71	0.00
393.91	0.00
394.10	67.88
394.29	11.70
394.49	0.00
394.68	107.66
394.88	9.36
395.07	0.00
395.26	49.15
395.46	60.85
395.65	79.58
395.84	58.51
396.04	95.96
396.23	28.09
396.42	0.00
396.62	0.00
396.81	88.94
397.00	0.00
397.19	51.49
397.39	23.41
397.58	0.00
397.77	0.00
397.97	81.92
398.16	2.34
398.35	30.43
398.55	0.00
398.74	32.77
398.93	39.79
399.12	67.88
399.32	60.85
399.51	51.49
399.70	0.00
399.90	0.00
400.09	7.02
400.28	0.00
400.47	37.45
400.67	49.15
400.86	51.49
401.05	58.51
401.24	77.24
401.44	44.47
401.63	46.81
401.82	0.00
402.01	0.00
402.21	0.00
402.40	0.00
402.59	56.17
402.78	49.15
402.97	0.00
403.17	37.45
403.36	0.00
403.55	56.17
403.74	46.81
403.93	42.13
404.13	63.19
404.32	28.09
404.51	28.09
404.70	53.83
404.89	4.68
405.09	9.36
405.28	72.56
405.47	7.02
405.66	7.02
405.85	35.11
406.05	0.00
406.24	2.34
406.43	39.79
406.62	0.00
406.81	98.30
407.00	2.34
407.20	107.66
407.39	0.00
407.58	9.36
407.77	37.45
407.96	42.13
408.15	35.11
408.34	9.36
408.54	21.06
408.73	28.09
408.92	35.11
409.11	70.22
409.30	93.62
409.49	44.47
409.68	7.02
409.87	0.00
410.07	35.11
410.26	51.49
410.45	63.19
410.64	7.02
410.83	32.77
411.02	95.96
411.21	32.77
411.40	70.22
411.59	49.15
411.78	0.00
411.98	86.60
412.17	49.15
412.36	28.09
412.55	63.19
412.74	86.60
412.93	21.06
413.12	0.00
413.31	23.41
413.50	0.00
413.69	63.19
413.88	58.51
414.07	88.94
414.26	77.24
414.45	60.85
414.64	28.09
414.83	72.56
415.02	58.51
415.22	11.70
415.41	65.54
415.60	9.36
415.79	0.00
415.98	4.68
416.17	42.13
416.36	44.47
416.55	23.41
416.74	23.41
416.93	56.17
417.12	39.79
417.31	63.19
417.50	74.90
417.69	30.43
417.88	60.85
418.07	11.70
418.26	81.92
418.45	2.34
418.64	44.47
418.83	72.56
419.02	44.47
419.21	0.00
419.39	0.00
419.58	23.41
419.77	98.30
419.96	28.09
420.15	88.94
420.34	51.49
420.53	72.56
420.72	0.00
420.91	28.09
421.10	25.75
421.29	9.36
421.48	4.68
421.67	0.00
421.86	117.03
422.05	63.19
422.24	23.41
422.43	95.96
422.61	14.04
422.80	0.00
422.99	58.51
423.18	0.00
423.37	39.79
423.56	42.13
423.75	30.43
423.94	49.15
424.13	63.19
424.32	0.00
424.50	0.00
424.69	9.36
424.88	65.54
425.07	39.79
425.26	58.51
425.45	30.43
425.64	9.36
425.83	28.09
426.01	63.19
426.20	63.19
426.39	0.00
426.58	44.47
426.77	30.43
426.96	0.00
427.15	0.00
427.33	0.00
427.52	0.00
427.71	44.47
427.90	42.13
428.09	112.35
428.28	46.81
428.46	63.19
428.65	35.11
428.84	39.79
429.03	35.11
429.22	16.38
429.40	16.38
429.59	84.26
429.78	77.24
429.97	72.56
430.16	2.34
430.34	0.00
430.53	53.83
430.72	98.30
430.91	74.90
431.10	7.02
431.28	35.11
431.47	2.34
431.66	72.56
431.85	0.00
432.03	25.75
432.22	16.38
432.41	119.37
432.60	70.22
432.79	58.51
432.97	86.60
433.16	32.77
433.35	16.38
433.54	42.13
433.72	32.77
433.91	30.43
434.10	16.38
434.28	11.70
434.47	32.77
434.66	28.09
434.85	28.09
435.03	9.36
435.22	58.51
435.41	28.09
435.59	93.62
435.78	42.13
435.97	39.79
436.16	44.47
436.34	0.00
436.53	91.28
436.72	30.43
436.90	39.79
437.09	11.70
437.28	0.00
437.46	21.06
437.65	46.81
437.84	0.00
438.02	60.85
438.21	105.32
438.40	0.00
438.58	25.75
438.77	58.51
438.96	21.06
439.14	95.96
439.33	74.90
439.52	0.00
439.70	49.15
439.89	46.81
440.08	42.13
440.26	70.22
440.45	81.92
440.63	74.90
440.82	56.17
441.01	42.13
441.19	23.41
441.38	107.66
441.57	67.88
441.75	21.06
441.94	77.24
442.12	46.81
442.31	35.11
442.50	100.64
442.68	21.06
442.87	140.43
443.05	84.26
443.24	70.22
443.43	28.09
443.61	21.06
443.80	37.45
443.98	0.00
444.17	0.00
444.35	11.70
444.54	86.60
444.73	30.43
444.91	46.81
445.10	23.41
445.28	74.90
445.47	56.17
445.65	7.02
445.84	11.70
446.02	18.72
446.21	18.72
446.39	0.00
446.58	95.96
446.77	35.11
446.95	11.70
447.14	58.51
447.32	74.90
447.51	30.43
447.69	7.02
447.88	100.64
448.06	63.19
448.25	0.00
448.43	74.90
448.62	30.43
448.80	58.51
448.99	46.81
449.17	53.83
449.36	126.39
449.54	56.17
449.73	18.72
449.91	30.43
450.10	23.41
450.28	30.43
450.46	30.43
450.65	105.32
450.83	88.94
451.02	98.30
451.20	60.85
451.39	56.17
451.57	9.36
451.76	51.49
451.94	0.00
452.13	65.54
452.31	39.79
452.49	35.11
452.68	51.49
452.86	124.05
453.05	14.04
453.23	14.04
453.42	67.88
453.60	46.81
453.78	117.03
453.97	9.36
454.15	16.38
454.34	81.92
454.52	35.11
454.70	149.79
454.89	98.30
455.07	21.06
455.26	46.81
455.44	0.00
455.62	77.24
455.81	100.64
455.99	44.47
456.17	63.19
456.36	56.17
456.54	70.22
456.73	25.75
456.91	51.49
457.09	88.94
457.28	42.13
457.46	32.77
457.64	35.11
457.83	81.92
458.01	121.71
458.19	107.66
458.38	86.60
458.56	105.32
458.74	74.90
458.93	67.88
459.11	21.06
459.29	67.88
459.48	49.15
459.66	0.00
459.84	110.01
460.03	93.62
460.21	51.49
460.39	100.64
460.57	67.88
460.76	28.09
460.94	63.19
461.12	53.83
461.31	32.77
461.49	30.43
461.67	77.24
461.85	0.00
462.04	114.69
462.22	140.43
462.40	110.01
462.59	53.83
462.77	39.79
462.95	56.17
463.13	86.60
463.32	25.75
463.50	42.13
463.68	2.34
463.86	16.38
464.05	11.70
464.23	18.72
464.41	60.85
464.59	44.47
464.78	86.60
464.96	67.88
465.14	42.13
465.32	7.02
465.50	0.00
465.69	72.56
465.87	58.51
466.05	30.43
466.23	18.72
466.41	63.19
466.60	35.11
466.78	60.85
466.96	74.90
467.14	124.05
467.32	77.24
467.51	84.26
467.69	25.75
467.87	35.11
468.05	79.58
468.23	14.04
468.41	65.54
468.60	60.85
468.78	119.37
468.96	86.60
469.14	44.47
469.32	63.19
469.50	0.00
469.69	37.45
469.87	28.09
470.05	86.60
470.23	37.45
470.41	0.00
470.59	112.35
470.77	39.79
470.95	98.30
471.14	102.98
471.32	30.43
471.50	32.77
471.68	23.41
471.86	77.24
472.04	56.17
472.22	28.09
472.40	154.48
472.58	65.54
472.77	18.72
472.95	56.17
473.13	65.54
473.31	51.49
473.49	84.26
473.67	28.09
473.85	84.26
474.03	72.56
474.21	35.11
474.39	60.85
474.57	84.26
474.75	0.00
474.93	32.77
475.12	16.38
475.30	9.36
475.48	126.39
475.66	65.54
475.84	60.85
476.02	32.77
476.20	23.41
476.38	53.83
476.56	7.02
476.74	21.06
476.92	42.13
477.10	51.49
477.28	70.22
477.46	39.79
477.64	74.90
477.82	58.51
478.00	102.98
478.18	84.26
478.36	67.88
478.54	100.64
478.72	9.36
478.90	42.13
479.08	72.56
479.26	74.90
479.44	21.06
479.62	119.37
479.80	42.13
479.98	93.62
480.16	63.19
480.34	77.24
480.52	74.90
480.70	14.04
480.88	65.54
481.06	102.98
481.24	25.75
481.41	128.73
481.59	74.90
481.77	65.54
481.95	95.96
482.13	77.24
482.31	9.36
482.49	23.41
482.67	79.58
482.85	11.70
483.03	81.92
483.21	63.19
483.39	102.98
483.57	46.81
483.74	60.85
483.92	53.83
484.10	0.00
484.28	35.11
484.46	65.54
484.64	117.03
484.82	44.47
485.00	60.85
485.18	28.09
485.35	79.58
485.53	18.72
485.71	42.13
485.89	70.22
486.07	49.15
486.25	25.75
486.43	100.64
486.61	25.75
486.78	11.70
486.96	121.71
487.14	46.81
487.32	0.00
487.50	46.81
487.68	72.56
487.85	98.30
488.03	25.75
488.21	67.88
488.39	79.58
488.57	102.98
488.75	60.85
488.92	72.56
489.10	72.56
489.28	107.66
489.46	32.77
489.64	91.28
489.81	98.30
489.99	28.09
490.17	140.43
490.35	112.35
490.53	18.72
490.70	102.98
490.88	18.72
491.06	168.52
491.24	98.30
491.41	70.22
491.59	32.77
491.77	107.66
491.95	23.41
492.13	100.64
492.30	119.37
492.48	58.51
492.66	93.62
492.84	32.77
493.01	51.49
493.19	81.92
493.37	63.19
493.54	74.90
493.72	49.15
493.90	16.38
494.08	67.88
494.25	11.70
494.43	46.81
494.61	114.69
494.79	93.62
494.96	58.51
495.14	65.54
495.32	86.60
495.49	67.88
495.67	44.47
495.85	86.60
496.02	63.19
496.20	49.15
496.38	44.47
496.55	88.94
496.73	42.13
496.91	35.11
497.09	70.22
497.26	14.04
497.44	56.17
497.62	51.49
497.79	0.00
497.97	98.30
498.14	14.04
498.32	74.90
498.50	56.17
498.67	49.15
498.85	0.00
499.03	23.41
499.20	95.96
499.38	88.94
499.56	74.90
499.73	65.54
499.91	32.77
500.08	84.26
500.26	44.47
500.44	65.54
500.61	58.51
500.79	30.43
500.97	84.26
501.14	124.05
501.32	72.56
501.49	70.22
501.67	60.85
501.84	117.03
502.02	67.88
502.20	32.77
502.37	126.39
502.55	74.90
502.72	39.79
502.90	98.30
503.07	46.81
503.25	28.09
503.43	28.09
503.60	46.81
503.78	65.54
503.95	44.47
504.13	117.03
504.30	88.94
504.48	44.47
504.65	154.48
504.83	30.43
505.01	72.56
505.18	79.58
505.36	25.75
505.53	9.36
505.71	133.41
505.88	37.45
506.06	88.94
506.23	28.09
506.41	28.09
506.58	74.90
506.76	39.79
506.93	42.13
507.11	49.15
507.28	32.77
507.46	112.35
507.63	58.51
507.81	100.64
507.98	107.66
508.16	117.03
508.33	0.00
508.50	152.13
508.68	18.72
508.85	30.43
509.03	74.90
509.20	114.69
509.38	138.09
509.55	119.37
509.73	86.60
509.90	112.35
510.08	114.69
510.25	70.22
510.42	70.22
510.60	112.35
510.77	74.90
510.95	81.92
511.12	124.05
511.30	119.37
511.47	0.00
511.64	112.35
511.82	131.07
511.99	72.56
512.17	56.17
512.34	70.22
512.51	138.09
512.69	65.54
512.86	16.38
513.04	65.54
513.21	138.09
513.38	49.15
513.56	49.15
513.73	110.01
513.90	53.83
514.08	39.79
514.25	32.77
514.43	44.47
514.60	58.51
514.77	60.85
514.95	72.56
515.12	98.30
515.29	117.03
515.47	128.73
515.64	39.79
515.81	70.22
515.99	42.13
516.16	46.81
516.33	93.62
516.51	135.75
516.68	110.01
516.85	56.17
517.03	79.58
517.20	46.81
517.37	65.54
517.54	56.17
517.72	25.75
517.89	205.97
518.06	91.28
518.24	102.98
518.41	70.22
518.58	65.54
518.75	98.30
518.93	77.24
519.10	56.17
519.27	93.62
519.45	84.26
519.62	107.66
519.79	100.64
519.96	112.35
520.14	32.77
520.31	107.66
520.48	110.01
520.65	105.32
520.83	98.30
521.00	84.26
521.17	60.85
521.34	63.19
521.52	91.28
521.69	110.01
521.86	95.96
522.03	93.62
522.20	0.00
522.38	135.75
522.55	88.94
522.72	67.88
522.89	60.85
523.07	51.49
523.24	18.72
523.41	65.54
523.58	79.58
523.75	65.54
523.92	98.30
524.10	58.51
524.27	65.54
524.44	44.47
524.61	65.54
524.78	117.03
524.96	217.67
525.13	124.05
525.30	95.96
525.47	88.94
525.64	42.13
525.81	44.47
525.98	18.72
526.16	140.43
526.33	16.38
526.50	84.26
526.67	60.85
526.84	51.49
527.01	110.01
527.18	112.35
527.36	95.96
527.53	39.79
527.70	93.62
527.87	42.13
528.04	98.30
528.21	95.96
528.38	46.81
528.55	63.19
528.72	88.94
528.89	74.90
529.07	131.07
529.24	77.24
529.41	84.26
529.58	58.51
529.75	112.35
529.92	72.56
530.09	67.88
530.26	128.73
530.43	58.51
530.60	117.03
530.77	105.32
530.94	86.60
531.11	187.24
531.28	65.54
531.46	107.66
531.63	93.62
531.80	117.03
531.97	63.19
532.14	86.60
532.31	159.16
532.48	161.50
532.65	30.43
532.82	32.77
532.99	77.24
533.16	105.32
533.33	145.11
533.50	77.24
533.67	121.71
533.84	58.51
534.01	84.26
534.18	142.77
534.35	117.03
534.52	11.70
534.69	42.13
534.86	105.32
535.03	98.30
535.20	58.51
535.37	117.03
535.54	46.81
535.71	112.35
535.88	21.06
536.05	79.58
536.22	112.35
536.38	84.26
536.55	102.98
536.72	107.66
536.89	44.47
537.06	42.13
537.23	81.92
537.40	88.94
537.57	131.07
537.74	93.62
537.91	56.17
538.08	18.72
538.25	142.77
538.42	58.51
538.59	53.83
538.75	46.81
538.92	100.64
539.09	112.35
539.26	28.09
539.43	56.17
539.60	0.00
539.77	98.30
539.94	77.24
540.11	60.85
540.28	46.81
540.44	65.54
540.61	56.17
540.78	107.66
540.95	74.90
541.12	77.24
541.29	44.47
541.46	131.07
541.62	44.47
541.79	65.54
541.96	32.77
542.13	91.28
542.30	107.66
542.47	32.77
542.63	46.81
542.80	93.62
542.97	100.64
543.14	39.79
543.31	98.30
543.48	119.37
543.64	60.85
543.81	74.90
543.98	23.41
544.15	42.13
544.32	110.01
544.48	88.94
544.65	98.30
544.82	91.28
544.99	140.43
545.16	77.24
545.32	74.90
545.49	100.64
545.66	56.17
545.83	133.41
546.00	98.30
546.16	163.84
546.33	79.58
546.50	2.34
546.67	119.37
546.83	95.96
547.00	119.37
547.17	121.71
547.34	65.54
547.50	30.43
547.67	46.81
547.84	98.30
548.00	110.01
548.17	11.70
548.34	98.30
548.51	77.24
548.67	84.26
548.84	175.54
549.01	32.77
549.18	42.13
549.34	58.51
549.51	91.28
549.68	42.13
549.84	114.69
550.01	67.88
550.18	65.54
550.34	60.85
550.51	84.26
550.68	114.69
550.84	91.28
551.01	0.00
551.18	14.04
551.34	39.79
551.51	93.62
551.68	77.24
551.84	121.71
552.01	63.19
552.18	39.79
552.34	23.41
552.51	138.09
552.68	23.41
552.84	107.66
553.01	138.09
553.18	88.94
553.34	98.30
553.51	77.24
553.67	145.11
553.84	84.26
554.01	79.58
554.17	163.84
554.34	25.75
554.51	119.37
554.67	74.90
554.84	105.32
555.00	149.79
555.17	65.54
555.33	117.03
555.50	91.28
555.67	88.94
555.83	56.17
556.00	102.98
556.16	72.56
556.33	53.83
556.50	119.37
556.66	119.37
556.83	16.38
556.99	67.88
557.16	119.37
557.32	81.92
557.49	91.28
557.65	42.13
557.82	37.45
557.98	46.81
558.15	105.32
558.32	95.96
558.48	74.90
558.65	39.79
558.81	84.26
558.98	98.30
559.14	28.09
559.31	121.71
559.47	18.72
559.64	51.49
559.80	74.90
559.97	100.64
560.13	77.24
560.30	91.28
560.46	84.26
560.63	72.56
560.79	79.58
560.96	100.64
561.12	105.32
561.29	84.26
561.45	51.49
561.61	117.03
561.78	135.75
561.94	119.37
562.11	117.03
562.27	93.62
562.44	72.56
562.60	81.92
562.77	81.92
562.93	72.56
563.10	100.64
563.26	18.72
563.42	102.98
563.59	93.62
563.75	100.64
563.92	58.51
564.08	77.24
564.24	93.62
564.41	77.24
564.57	44.47
564.74	84.26
564.90	67.88
565.07	30.43
565.23	70.22
565.39	74.90
565.56	58.51
565.72	39.79
565.88	161.50
566.05	86.60
566.21	63.19
566.38	110.01
566.54	131.07
566.70	149.79
566.87	100.64
567.03	30.43
567.19	63.19
567.36	67.88
567.52	72.56
567.68	72.56
567.85	70.22
568.01	95.96
568.17	88.94
568.34	63.19
568.50	16.38
568.66	112.35
568.83	63.19
568.99	110.01
569.15	16.38
569.32	98.30
569.48	88.94
569.64	58.51
569.81	133.41
569.97	196.60
570.13	154.48
570.30	95.96
570.46	145.11
570.62	81.92
570.78	44.47
570.95	28.09
571.11	39.79
571.27	67.88
571.43	42.13
571.60	70.22
571.76	84.26
571.92	9.36
572.09	51.49
572.25	149.79
572.41	79.58
572.57	56.17
572.74	107.66
572.90	88.94
573.06	88.94
573.22	37.45
573.38	117.03
573.55	23.41
573.71	88.94
573.87	44.47
574.03	93.62
574.20	35.11
574.36	100.64
574.52	49.15
574.68	46.81
574.84	0.00
575.01	70.22
575.17	0.00
575.33	86.60
575.49	60.85
575.65	63.19
575.82	72.56
575.98	0.00
576.14	72.56
576.30	65.54
576.46	140.43
576.62	79.58
576.79	32.77
576.95	142.77
577.11	70.22
577.27	42.13
577.43	119.37
577.59	131.07
577.75	44.47
577.92	79.58
578.08	74.90
578.24	51.49
578.40	53.83
578.56	60.85
578.72	95.96
578.88	114.69
579.04	86.60
579.21	84.26
579.37	131.07
579.53	95.96
579.69	65.54
579.85	60.85
580.01	46.81
580.17	4.68
580.33	140.43
580.49	23.41
580.65	46.81
580.82	51.49
580.98	28.09
581.14	58.51
581.30	56.17
581.46	65.54
581.62	100.64
581.78	79.58
581.94	102.98
582.10	39.79
582.26	86.60
582.42	86.60
582.58	112.35
582.74	79.58
582.90	37.45
583.06	37.45
583.22	72.56
583.38	16.38
583.54	51.49
583.70	91.28
583.86	58.51
584.02	145.11
584.18	42.13
584.34	105.32
584.50	74.90
584.66	93.62
584.82	133.41
584.98	102.98
585.14	49.15
585.30	105.32
585.46	84.26
585.62	46.81
585.78	49.15
585.94	98.30
586.10	65.54
586.26	128.73
586.42	131.07
586.58	79.58
586.74	7.02
586.90	63.19
587.06	95.96
587.22	65.54
587.38	138.09
587.54	23.41
587.70	105.32
587.86	35.11
588.02	58.51
588.18	0.00
588.34	81.92
588.49	100.64
588.65	58.51
588.81	58.51
588.97	60.85
589.13	72.56
589.29	100.64
589.45	39.79
589.61	63.19
589.77	79.58
589.93	49.15
590.08	105.32
590.24	56.17
590.40	53.83
590.56	51.49
590.72	126.39
590.88	88.94
591.04	51.49
591.20	74.90
591.35	42.13
591.51	18.72
591.67	60.85
591.83	56.17
591.99	84.26
592.15	112.35
592.31	84.26
592.46	117.03
592.62	74.90
592.78	70.22
592.94	91.28
593.10	60.85
593.26	49.15
593.41	110.01
593.57	102.98
593.73	39.79
593.89	79.58
594.05	32.77
594.20	21.06
594.36	60.85
594.52	117.03
594.68	23.41
594.84	86.60
594.99	86.60
595.15	91.28
595.31	88.94
595.47	119.37
595.62	156.82
595.78	67.88
595.94	46.81
596.10	84.26
596.25	30.43
596.41	88.94
596.57	63.19
596.73	72.56
596.88	0.00
597.04	100.64
597.20	95.96
597.36	95.96
597.51	11.70
597.67	88.94
597.83	58.51
597.99	42.13
598.14	88.94
598.30	25.75
598.46	124.05
598.61	77.24
598.77	91.28
598.93	35.11
599.09	51.49
599.24	112.35
599.40	28.09
599.56	49.15
599.71	124.05
599.87	53.83
600.03	49.15
600.18	63.19
600.34	79.58
600.50	58.51
600.65	60.85
600.81	14.04
600.97	58.51
601.12	32.77
601.28	86.60
601.44	93.62
601.59	72.56
601.75	58.51
601.91	39.79
602.06	91.28
602.22	42.13
602.37	18.72
602.53	32.77
602.69	56.17
602.84	126.39
603.00	77.24
603.16	88.94
603.31	79.58
603.47	98.30
603.62	79.58
603.78	25.75
603.94	135.75
604.09	42.13
604.25	93.62
604.40	88.94
604.56	126.39
604.71	121.71
604.87	154.48
605.03	58.51
605.18	79.58
605.34	81.92
605.49	32.77
605.65	67.88
605.80	58.51
605.96	67.88
606.12	100.64
606.27	88.94
606.43	114.69
606.58	65.54
606.74	119.37
606.89	77.24
607.05	86.60
607.20	72.56
607.36	0.00
607.51	84.26
607.67	81.92
607.82	91.28
607.98	74.90
608.13	74.90
608.29	70.22
608.44	32.77
608.60	28.09
608.75	51.49
608.91	74.90
609.06	67.88
609.22	23.41
609.37	28.09
609.53	72.56
609.68	91.28
609.84	74.90
609.99	7.02
610.15	14.04
610.30	110.01
610.46	93.62
610.61	58.51
610.76	124.05
610.92	58.51
611.07	53.83
611.23	84.26
611.38	98.30
611.54	77.24
611.69	107.66
611.84	117.03
612.00	79.58
612.15	37.45
612.31	72.56
612.46	58.51
612.62	86.60
612.77	65.54
612.92	37.45
613.08	30.43
613.23	16.38
613.39	100.64
613.54	18.72
613.69	84.26
613.85	84.26
614.00	30.43
614.15	114.69
614.31	51.49
614.46	91.28
614.62	23.41
614.77	74.90
614.92	65.54
615.08	56.17
615.23	4.68
615.38	81.92
615.54	107.66
615.69	30.43
615.84	35.11
616.00	49.15
616.15	0.00
616.30	126.39
616.46	138.09
616.61	107.66
616.76	124.05
616.92	70.22
617.07	60.85
617.22	107.66
617.37	39.79
617.53	77.24
617.68	9.36
617.83	56.17
617.99	42.13
618.14	51.49
618.29	46.81
618.45	65.54
618.60	65.54
618.75	65.54
618.90	112.35
619.06	42.13
619.21	86.60
619.36	70.22
619.51	0.00
619.67	86.60
619.82	107.66
619.97	46.81
620.12	77.24
620.28	72.56
620.43	77.24
620.58	58.51
620.73	72.56
620.89	49.15
621.04	81.92
621.19	58.51
621.34	112.35
621.49	4.68
621.65	9.36
621.80	49.15
621.95	53.83
622.10	46.81
622.25	37.45
622.41	28.09
622.56	39.79
622.71	67.88
622.86	53.83
623.01	77.24
623.16	72.56
623.32	21.06
623.47	0.00
623.62	39.79
623.77	74.90
623.92	86.60
624.07	112.35
624.23	53.83
624.38	58.51
624.53	21.06
624.68	131.07
624.83	84.26
624.98	51.49
625.13	53.83
625.29	60.85
625.44	30.43
625.59	11.70
625.74	65.54
625.89	58.51
626.04	56.17
626.19	0.00
626.34	21.06
626.49	95.96
626.65	60.85
626.80	49.15
626.95	16.38
627.10	79.58
627.25	79.58
627.40	77.24
627.55	23.41
627.70	63.19
627.85	60.85
628.00	56.17
628.15	88.94
628.30	74.90
628.45	58.51
628.60	37.45
628.76	84.26
628.91	39.79
629.06	84.26
629.21	44.47
629.36	65.54
629.51	81.92
629.66	51.49
629.81	72.56
629.96	110.01
630.11	51.49
630.26	67.88
630.41	117.03
630.56	110.01
630.71	25.75
630.86	46.81
631.01	44.47
631.16	100.64
631.31	77.24
631.46	39.79
631.61	114.69
631.76	49.15
631.91	81.92
632.06	0.00
632.21	79.58
632.36	114.69
632.51	42.13
632.66	37.45
632.81	16.38
632.96	18.72
633.10	63.19
633.25	0.00
633.40	0.00
633.55	4.68
633.70	23.41
633.85	0.00
634.00	25.75
634.15	124.05
634.30	74.90
634.45	105.32
634.60	88.94
634.75	23.41
634.90	77.24
635.05	51.49
635.19	93.62
635.34	88.94
635.49	72.56
635.64	88.94
635.79	0.00
635.94	84.26
636.09	18.72
636.24	84.26
636.39	81.92
636.53	121.71
636.68	46.81
636.83	70.22
636.98	88.94
637.13	100.64
637.28	72.56
637.43	72.56
637.57	51.49
637.72	53.83
637.87	21.06
638.02	72.56
638.17	100.64
638.32	133.41
638.46	60.85
638.61	53.83
638.76	70.22
638.91	77.24
639.06	81.92
639.20	11.70
639.35	14.04
639.50	49.15
639.65	53.83
639.80	0.00
639.94	30.43
640.09	0.00
640.24	67.88
640.39	4.68
640.54	44.47
640.68	23.41
640.83	23.41
640.98	117.03
641.13	81.92
641.27	95.96
641.42	86.60
641.57	23.41
641.72	142.77
641.86	91.28
642.01	63.19
642.16	0.00
642.31	58.51
642.45	0.00
642.60	0.00
642.75	53.83
642.90	32.77
643.04	121.71
643.19	44.47
643.34	67.88
643.48	105.32
643.63	138.09
643.78	35.11
643.93	93.62
644.07	16.38
644.22	2.34
644.37	0.00
644.51	117.03
644.66	51.49
644.81	67.88
644.95	0.00
645.10	63.19
645.25	53.83
645.39	37.45
645.54	131.07
645.69	51.49
645.83	2.34
645.98	72.56
646.13	119.37
646.27	84.26
646.42	39.79
646.57	102.98
646.71	70.22
646.86	56.17
647.00	138.09
647.15	32.77
647.30	11.70
647.44	124.05
647.59	56.17
647.74	60.85
647.88	110.01
648.03	46.81
648.17	14.04
648.32	79.58
648.47	91.28
648.61	98.30
648.76	105.32
648.90	18.72
649.05	49.15
649.20	32.77
649.34	53.83
649.49	72.56
649.63	9.36
649.78	72.56
649.92	70.22
650.07	7.02
650.21	42.13
650.36	154.48
650.51	107.66
650.65	79.58
650.80	105.32
650.94	88.94
651.09	117.03
651.23	9.36
651.38	58.51
651.52	0.00
651.67	0.00
651.81	23.41
651.96	135.75
652.10	102.98
652.25	67.88
652.39	117.03
652.54	23.41
652.68	42.13
652.83	93.62
652.97	42.13
653.12	42.13
653.26	0.00
653.41	72.56
653.55	114.69
653.70	35.11
653.84	84.26
653.99	37.45
654.13	4.68
654.27	0.00
654.42	32.77
654.56	51.49
654.71	65.54
654.85	0.00
655.00	51.49
655.14	11.70
655.29	117.03
655.43	102.98
655.57	0.00
655.72	74.90
655.86	44.47
656.01	11.70
656.15	53.83
656.30	0.00
656.44	81.92
656.58	79.58
656.73	37.45
656.87	49.15
657.01	81.92
657.16	53.83
657.30	2.34
657.45	98.30
657.59	7.02
657.73	16.38
657.88	81.92
658.02	23.41
658.16	0.00
658.31	32.77
658.45	14.04
658.60	49.15
658.74	46.81
658.88	25.75
659.03	23.41
659.17	46.81
659.31	60.85
659.46	74.90
659.60	44.47
659.74	77.24
659.89	0.00
660.03	112.35
660.17	37.45
660.32	112.35
660.46	105.32
660.60	110.01
660.74	49.15
660.89	63.19
661.03	49.15
661.17	58.51
661.32	21.06
661.46	0.00
661.60	0.00
661.74	28.09
661.89	0.00
662.03	72.56
662.17	110.01
662.31	42.13
662.46	42.13
662.60	65.54
662.74	37.45
662.88	32.77
663.03	74.90
663.17	14.04
663.31	0.00
663.45	56.17
663.60	23.41
663.74	25.75
663.88	53.83
664.02	56.17
664.17	30.43
664.31	117.03
664.45	98.30
664.59	42.13
664.73	84.26
664.88	112.35
665.02	14.04
665.16	77.24
665.30	107.66
665.44	16.38
665.59	74.90
665.73	32.77
665.87	46.81
666.01	112.35
666.15	23.41
666.29	58.51
666.44	42.13
666.58	51.49
666.72	11.70
666.86	102.98
667.00	0.00
667.14	21.06
667.28	42.13
667.43	53.83
667.57	25.75
667.71	0.00
667.85	0.00
667.99	93.62
668.13	88.94
668.27	117.03
668.41	65.54
668.56	32.77
668.70	86.60
668.84	53.83
668.98	16.38
669.12	21.06
669.26	32.77
669.40	0.00
669.54	53.83
669.68	49.15
669.82	67.88
669.96	35.11
670.10	35.11
670.25	51.49
670.39	25.75
670.53	30.43
670.67	37.45
670.81	79.58
670.95	11.70
671.09	67.88
671.23	70.22
671.37	0.00
671.51	2.34
671.65	60.85
671.79	46.81
671.93	84.26
672.07	60.85
672.21	100.64
672.35	42.13
672.49	0.00
672.63	18.72
672.77	140.43
672.91	67.88
673.05	7.02
673.19	42.13
673.33	18.72
673.47	7.02
673.61	25.75
673.75	53.83
673.89	30.43
674.03	102.98
674.17	18.72
674.31	53.83
674.45	65.54
674.59	67.88
674.73	46.81
674.87	72.56
675.01	60.85
675.15	53.83
675.29	25.75
675.43	74.90
675.56	60.85
675.70	11.70
675.84	81.92
675.98	58.51
676.12	37.45
676.26	58.51
676.40	79.58
676.54	91.28
676.68	77.24
676.82	18.72
676.96	65.54
677.10	18.72
677.23	49.15
677.37	11.70
677.51	91.28
677.65	14.04
677.79	23.41
677.93	0.00
678.07	46.81
678.21	37.45
678.34	25.75
678.48	32.77
678.62	91.28
678.76	14.04
678.90	63.19
679.04	23.41
679.18	42.13
679.31	4.68
679.45	102.98
679.59	25.75
679.73	39.79
679.87	37.45
680.00	16.38
680.14	60.85
680.28	107.66
680.42	100.64
680.56	95.96
680.70	28.09
680.83	14.04
680.97	42.13
681.11	102.98
681.25	65.54
681.39	70.22
681.52	32.77
681.66	14.04
681.80	9.36
681.94	93.62
682.07	53.83
682.21	63.19
682.35	0.00
682.49	14.04
682.62	70.22
682.76	51.49
682.90	37.45
683.04	102.98
683.17	0.00
683.31	25.75
683.45	18.72
683.59	60.85
683.72	72.56
683.86	11.70
684.00	32.77
684.13	37.45
684.27	35.11
684.41	9.36
684.55	67.88
684.68	42.13
684.82	140.43
684.96	72.56
685.09	49.15
685.23	30.43
685.37	49.15
685.50	51.49
685.64	9.36
685.78	0.00
685.91	95.96
686.05	100.64
686.19	28.09
686.32	63.19
686.46	9.36
686.60	91.28
686.73	42.13
686.87	21.06
687.01	0.00
687.14	67.88
687.28	49.15
687.42	44.47
687.55	74.90
687.69	60.85
687.82	9.36
687.96	21.06
688.10	0.00
688.23	35.11
688.37	4.68
688.50	0.00
688.64	23.41
688.78	72.56
688.91	30.43
689.05	58.51
689.18	79.58
689.32	23.41
689.46	0.00
689.59	49.15
689.73	30.43
689.86	0.00
690.00	79.58
690.13	72.56
690.27	16.38
690.41	28.09
690.54	91.28
690.68	9.36
690.81	0.00
690.95	32.77
691.08	25.75
691.22	42.13
691.35	39.79
691.49	4.68
691.62	0.00
691.76	32.77
691.89	23.41
692.03	28.09
692.16	21.06
692.30	0.00
692.43	0.00
692.57	93.62
692.70	72.56
692.84	81.92
692.97	63.19
693.11	53.83
693.24	49.15
693.38	126.39
693.51	4.68
693.65	0.00
693.78	44.47
693.92	49.15
694.05	37.45
694.19	0.00
694.32	67.88
694.45	0.00
694.59	93.62
694.72	72.56
694.86	60.85
694.99	0.00
695.13	49.15
695.26	25.75
695.39	18.72
695.53	126.39
695.66	46.81
695.80	46.81
695.93	0.00
696.07	60.85
696.20	30.43
696.33	51.49
696.47	32.77
696.60	58.51
696.73	107.66
696.87	32.77
697.00	44.47
697.14	74.90
697.27	0.00
697.40	0.00
697.54	4.68
697.67	16.38
697.80	74.90
697.94	32.77
698.07	28.09
698.21	39.79
698.34	65.54
698.47	0.00
698.61	86.60
698.74	46.81
698.87	65.54
699.01	0.00
699.14	0.00
699.27	2.34
699.40	4.68
699.54	56.17
699.67	67.88
699.80	32.77
699.94	70.22
700.07	56.17
700.20	0.00
700.34	14.04
700.47	9.36
700.60	7.02
700.73	37.45
700.87	30.43
701.00	16.38
701.13	42.13
701.26	49.15
701.40	28.09
701.53	4.68
701.66	9.36
701.79	88.94
701.93	9.36
702.06	39.79
702.19	60.85
702.32	30.43
702.46	74.90
702.59	49.15
702.72	0.00
702.85	0.00
702.99	32.77
703.12	0.00
703.25	77.24
703.38	77.24
703.51	74.90
703.65	28.09
703.78	91.28
703.91	0.00
704.04	9.36
704.17	18.72
704.31	112.35
704.44	0.00
704.57	0.00
704.70	21.06
704.83	18.72
704.96	0.00
705.10	25.75
705.23	25.75
>>>>>End Processed Spectral Data<<<<<
