SpectraSuite Data File
++++++++++++++++++++++++++++++++++++
Date: Fri Oct 04 12:13:31 GMT-05:00 2013
User: price-jones
Dark Spectrum Present: No
Reference Spectrum Present: No
Number of Sampled Component Spectra: 1
Spectrometers: USB2+H05261
Integration Time (usec): 10000 (USB2+H05261)
Spectra Averaged: 1 (USB2+H05261)
Boxcar Smoothing: 0 (USB2+H05261)
Correct for Electrical Dark: No (USB2+H05261)
Strobe/Lamp Enabled: No (USB2+H05261)
Correct for Detector Non-linearity: No (USB2+H05261)
Correct for Stray Light: No (USB2+H05261)
Number of Pixels in Processed Spectrum: 2048
>>>>>Begin Processed Spectral Data<<<<<
365.73	16.38
365.92	16.38
366.12	16.38
366.32	0.00
366.52	0.00
366.72	0.00
366.91	0.00
367.11	0.00
367.31	0.00
367.51	0.00
367.70	0.00
367.90	0.00
368.10	0.00
368.30	0.00
368.49	0.00
368.69	0.00
368.89	0.00
369.09	0.00
369.28	0.00
369.48	0.00
369.68	0.00
369.87	0.00
370.07	0.00
370.27	0.00
370.47	0.00
370.66	0.00
370.86	0.00
371.06	0.00
371.25	0.00
371.45	0.00
371.65	0.00
371.84	0.00
372.04	0.00
372.24	0.00
372.44	28.09
372.63	51.49
372.83	42.13
373.03	0.00
373.22	0.00
373.42	30.43
373.62	42.13
373.81	51.49
374.01	28.09
374.21	121.71
374.40	65.54
374.60	53.83
374.79	0.00
374.99	28.09
375.19	77.24
375.38	0.00
375.58	0.00
375.78	81.92
375.97	93.62
376.17	0.00
376.37	9.36
376.56	46.81
376.76	32.77
376.95	60.85
377.15	35.11
377.35	84.26
377.54	0.00
377.74	0.00
377.93	4.68
378.13	35.11
378.33	7.02
378.52	9.36
378.72	58.51
378.91	25.75
379.11	35.11
379.31	0.00
379.50	35.11
379.70	0.00
379.89	37.45
380.09	0.00
380.28	4.68
380.48	32.77
380.68	0.00
380.87	0.00
381.07	0.00
381.26	63.19
381.46	0.00
381.65	25.75
381.85	0.00
382.04	56.17
382.24	56.17
382.43	42.13
382.63	0.00
382.83	0.00
383.02	74.90
383.22	56.17
383.41	0.00
383.61	35.11
383.80	2.34
384.00	0.00
384.19	0.00
384.39	39.79
384.58	60.85
384.78	0.00
384.97	58.51
385.17	0.00
385.36	65.54
385.56	0.00
385.75	11.70
385.95	30.43
386.14	30.43
386.34	28.09
386.53	0.00
386.72	0.00
386.92	0.00
387.11	42.13
387.31	42.13
387.50	0.00
387.70	25.75
387.89	4.68
388.09	14.04
388.28	39.79
388.48	0.00
388.67	0.00
388.86	79.58
389.06	63.19
389.25	79.58
389.45	131.07
389.64	79.58
389.84	0.00
390.03	16.38
390.22	39.79
390.42	0.00
390.61	0.00
390.81	46.81
391.00	84.26
391.19	0.00
391.39	58.51
391.58	93.62
391.78	0.00
391.97	32.77
392.16	9.36
392.36	4.68
392.55	28.09
392.75	16.38
392.94	25.75
393.13	46.81
393.33	35.11
393.52	56.17
393.71	39.79
393.91	0.00
394.10	114.69
394.29	0.00
394.49	0.00
394.68	28.09
394.88	16.38
395.07	60.85
395.26	65.54
395.46	44.47
395.65	70.22
395.84	42.13
396.04	84.26
396.23	14.04
396.42	53.83
396.62	88.94
396.81	25.75
397.00	9.36
397.19	58.51
397.39	2.34
397.58	0.00
397.77	32.77
397.97	42.13
398.16	9.36
398.35	67.88
398.55	21.06
398.74	32.77
398.93	39.79
399.12	0.00
399.32	25.75
399.51	93.62
399.70	70.22
399.90	16.38
400.09	56.17
400.28	91.28
400.47	0.00
400.67	16.38
400.86	0.00
401.05	53.83
401.24	35.11
401.44	0.00
401.63	58.51
401.82	21.06
402.01	53.83
402.21	7.02
402.40	14.04
402.59	56.17
402.78	0.00
402.97	0.00
403.17	42.13
403.36	21.06
403.55	23.41
403.74	0.00
403.93	0.00
404.13	23.41
404.32	81.92
404.51	39.79
404.70	117.03
404.89	63.19
405.09	0.00
405.28	114.69
405.47	0.00
405.66	0.00
405.85	0.00
406.05	39.79
406.24	117.03
406.43	102.98
406.62	0.00
406.81	79.58
407.00	18.72
407.20	32.77
407.39	32.77
407.58	72.56
407.77	0.00
407.96	51.49
408.15	35.11
408.34	16.38
408.54	32.77
408.73	2.34
408.92	60.85
409.11	42.13
409.30	58.51
409.49	30.43
409.68	42.13
409.87	84.26
410.07	37.45
410.26	81.92
410.45	72.56
410.64	25.75
410.83	25.75
411.02	21.06
411.21	124.05
411.40	49.15
411.59	30.43
411.78	86.60
411.98	35.11
412.17	18.72
412.36	53.83
412.55	88.94
412.74	53.83
412.93	25.75
413.12	67.88
413.31	21.06
413.50	23.41
413.69	11.70
413.88	18.72
414.07	63.19
414.26	56.17
414.45	95.96
414.64	18.72
414.83	28.09
415.02	49.15
415.22	0.00
415.41	63.19
415.60	35.11
415.79	42.13
415.98	0.00
416.17	25.75
416.36	37.45
416.55	39.79
416.74	0.00
416.93	11.70
417.12	21.06
417.31	100.64
417.50	30.43
417.69	32.77
417.88	98.30
418.07	4.68
418.26	4.68
418.45	4.68
418.64	30.43
418.83	110.01
419.02	0.00
419.21	11.70
419.39	63.19
419.58	0.00
419.77	42.13
419.96	4.68
420.15	72.56
420.34	0.00
420.53	56.17
420.72	46.81
420.91	126.39
421.10	58.51
421.29	0.00
421.48	39.79
421.67	21.06
421.86	0.00
422.05	63.19
422.24	0.00
422.43	7.02
422.61	4.68
422.80	44.47
422.99	51.49
423.18	21.06
423.37	98.30
423.56	28.09
423.75	81.92
423.94	2.34
424.13	60.85
424.32	39.79
424.50	16.38
424.69	0.00
424.88	11.70
425.07	0.00
425.26	14.04
425.45	0.00
425.64	21.06
425.83	46.81
426.01	25.75
426.20	28.09
426.39	46.81
426.58	0.00
426.77	0.00
426.96	37.45
427.15	51.49
427.33	0.00
427.52	63.19
427.71	0.00
427.90	32.77
428.09	49.15
428.28	9.36
428.46	79.58
428.65	49.15
428.84	63.19
429.03	74.90
429.22	32.77
429.40	0.00
429.59	72.56
429.78	67.88
429.97	0.00
430.16	70.22
430.34	65.54
430.53	0.00
430.72	4.68
430.91	56.17
431.10	30.43
431.28	14.04
431.47	28.09
431.66	86.60
431.85	70.22
432.03	0.00
432.22	70.22
432.41	42.13
432.60	91.28
432.79	77.24
432.97	74.90
433.16	0.00
433.35	84.26
433.54	0.00
433.72	44.47
433.91	65.54
434.10	60.85
434.28	28.09
434.47	18.72
434.66	2.34
434.85	53.83
435.03	72.56
435.22	74.90
435.41	39.79
435.59	0.00
435.78	72.56
435.97	0.00
436.16	74.90
436.34	51.49
436.53	11.70
436.72	53.83
436.90	0.00
437.09	0.00
437.28	53.83
437.46	53.83
437.65	65.54
437.84	0.00
438.02	0.00
438.21	49.15
438.40	23.41
438.58	39.79
438.77	88.94
438.96	46.81
439.14	126.39
439.33	23.41
439.52	88.94
439.70	98.30
439.89	95.96
440.08	7.02
440.26	39.79
440.45	30.43
440.63	37.45
440.82	91.28
441.01	25.75
441.19	105.32
441.38	74.90
441.57	72.56
441.75	25.75
441.94	39.79
442.12	14.04
442.31	0.00
442.50	93.62
442.68	30.43
442.87	0.00
443.05	28.09
443.24	9.36
443.43	23.41
443.61	49.15
443.80	49.15
443.98	65.54
444.17	70.22
444.35	51.49
444.54	32.77
444.73	0.00
444.91	91.28
445.10	44.47
445.28	84.26
445.47	9.36
445.65	21.06
445.84	4.68
446.02	16.38
446.21	9.36
446.39	25.75
446.58	2.34
446.77	0.00
446.95	11.70
447.14	0.00
447.32	42.13
447.51	0.00
447.69	35.11
447.88	70.22
448.06	58.51
448.25	63.19
448.43	79.58
448.62	67.88
448.80	25.75
448.99	95.96
449.17	9.36
449.36	0.00
449.54	72.56
449.73	11.70
449.91	23.41
450.10	0.00
450.28	65.54
450.46	95.96
450.65	0.00
450.83	58.51
451.02	46.81
451.20	0.00
451.39	32.77
451.57	63.19
451.76	0.00
451.94	56.17
452.13	25.75
452.31	88.94
452.49	102.98
452.68	131.07
452.86	39.79
453.05	25.75
453.23	114.69
453.42	0.00
453.60	70.22
453.78	4.68
453.97	35.11
454.15	39.79
454.34	86.60
454.52	58.51
454.70	0.00
454.89	21.06
455.07	2.34
455.26	67.88
455.44	11.70
455.62	11.70
455.81	35.11
455.99	2.34
456.17	46.81
456.36	0.00
456.54	44.47
456.73	0.00
456.91	16.38
457.09	91.28
457.28	67.88
457.46	16.38
457.64	9.36
457.83	53.83
458.01	53.83
458.19	39.79
458.38	70.22
458.56	49.15
458.74	60.85
458.93	4.68
459.11	16.38
459.29	0.00
459.48	0.00
459.66	0.00
459.84	0.00
460.03	81.92
460.21	14.04
460.39	35.11
460.57	14.04
460.76	35.11
460.94	0.00
461.12	81.92
461.31	53.83
461.49	18.72
461.67	0.00
461.85	30.43
462.04	56.17
462.22	56.17
462.40	95.96
462.59	30.43
462.77	58.51
462.95	53.83
463.13	74.90
463.32	81.92
463.50	72.56
463.68	56.17
463.86	110.01
464.05	25.75
464.23	23.41
464.41	65.54
464.59	0.00
464.78	0.00
464.96	77.24
465.14	23.41
465.32	53.83
465.50	100.64
465.69	2.34
465.87	35.11
466.05	42.13
466.23	91.28
466.41	0.00
466.60	16.38
466.78	35.11
466.96	58.51
467.14	84.26
467.32	18.72
467.51	0.00
467.69	67.88
467.87	18.72
468.05	79.58
468.23	126.39
468.41	65.54
468.60	70.22
468.78	65.54
468.96	2.34
469.14	51.49
469.32	67.88
469.50	0.00
469.69	70.22
469.87	23.41
470.05	30.43
470.23	42.13
470.41	119.37
470.59	72.56
470.77	0.00
470.95	0.00
471.14	98.30
471.32	84.26
471.50	0.00
471.68	0.00
471.86	35.11
472.04	30.43
472.22	39.79
472.40	35.11
472.58	35.11
472.77	0.00
472.95	30.43
473.13	39.79
473.31	53.83
473.49	9.36
473.67	11.70
473.85	67.88
474.03	0.00
474.21	23.41
474.39	11.70
474.57	84.26
474.75	32.77
474.93	72.56
475.12	37.45
475.30	81.92
475.48	21.06
475.66	58.51
475.84	35.11
476.02	63.19
476.20	0.00
476.38	79.58
476.56	16.38
476.74	49.15
476.92	58.51
477.10	21.06
477.28	25.75
477.46	0.00
477.64	79.58
477.82	72.56
478.00	63.19
478.18	37.45
478.36	86.60
478.54	63.19
478.72	95.96
478.90	32.77
479.08	42.13
479.26	23.41
479.44	7.02
479.62	39.79
479.80	0.00
479.98	23.41
480.16	51.49
480.34	86.60
480.52	32.77
480.70	95.96
480.88	42.13
481.06	25.75
481.24	28.09
481.41	0.00
481.59	18.72
481.77	39.79
481.95	0.00
482.13	23.41
482.31	60.85
482.49	32.77
482.67	67.88
482.85	72.56
483.03	4.68
483.21	77.24
483.39	9.36
483.57	65.54
483.74	100.64
483.92	44.47
484.10	60.85
484.28	11.70
484.46	60.85
484.64	67.88
484.82	46.81
485.00	32.77
485.18	28.09
485.35	35.11
485.53	58.51
485.71	0.00
485.89	72.56
486.07	46.81
486.25	51.49
486.43	32.77
486.61	28.09
486.78	0.00
486.96	35.11
487.14	0.00
487.32	51.49
487.50	42.13
487.68	35.11
487.85	65.54
488.03	56.17
488.21	107.66
488.39	74.90
488.57	0.00
488.75	16.38
488.92	65.54
489.10	42.13
489.28	0.00
489.46	74.90
489.64	4.68
489.81	51.49
489.99	4.68
490.17	74.90
490.35	0.00
490.53	74.90
490.70	11.70
490.88	79.58
491.06	9.36
491.24	46.81
491.41	51.49
491.59	4.68
491.77	51.49
491.95	86.60
492.13	44.47
492.30	53.83
492.48	0.00
492.66	21.06
492.84	44.47
493.01	11.70
493.19	4.68
493.37	28.09
493.54	70.22
493.72	28.09
493.90	0.00
494.08	79.58
494.25	79.58
494.43	51.49
494.61	100.64
494.79	70.22
494.96	51.49
495.14	0.00
495.32	2.34
495.49	102.98
495.67	53.83
495.85	42.13
496.02	95.96
496.20	91.28
496.38	14.04
496.55	30.43
496.73	79.58
496.91	0.00
497.09	16.38
497.26	35.11
497.44	28.09
497.62	23.41
497.79	145.11
497.97	86.60
498.14	4.68
498.32	14.04
498.50	60.85
498.67	39.79
498.85	81.92
499.03	0.00
499.20	84.26
499.38	58.51
499.56	32.77
499.73	21.06
499.91	60.85
500.08	37.45
500.26	11.70
500.44	86.60
500.61	53.83
500.79	0.00
500.97	18.72
501.14	21.06
501.32	0.00
501.49	70.22
501.67	35.11
501.84	77.24
502.02	4.68
502.20	58.51
502.37	42.13
502.55	7.02
502.72	35.11
502.90	0.00
503.07	72.56
503.25	23.41
503.43	0.00
503.60	9.36
503.78	63.19
503.95	0.00
504.13	23.41
504.30	0.00
504.48	0.00
504.65	37.45
504.83	100.64
505.01	74.90
505.18	86.60
505.36	60.85
505.53	4.68
505.71	25.75
505.88	79.58
506.06	65.54
506.23	30.43
506.41	46.81
506.58	0.00
506.76	37.45
506.93	25.75
507.11	63.19
507.28	18.72
507.46	49.15
507.63	84.26
507.81	93.62
507.98	16.38
508.16	124.05
508.33	100.64
508.50	21.06
508.68	105.32
508.85	39.79
509.03	58.51
509.20	30.43
509.38	77.24
509.55	53.83
509.73	74.90
509.90	16.38
510.08	28.09
510.25	46.81
510.42	0.00
510.60	51.49
510.77	4.68
510.95	0.00
511.12	58.51
511.30	0.00
511.47	32.77
511.64	51.49
511.82	37.45
511.99	16.38
512.17	88.94
512.34	44.47
512.51	58.51
512.69	16.38
512.86	56.17
513.04	112.35
513.21	0.00
513.38	23.41
513.56	23.41
513.73	0.00
513.90	32.77
514.08	28.09
514.25	74.90
514.43	25.75
514.60	0.00
514.77	44.47
514.95	74.90
515.12	37.45
515.29	60.85
515.47	100.64
515.64	110.01
515.81	0.00
515.99	42.13
516.16	135.75
516.33	84.26
516.51	42.13
516.68	126.39
516.85	91.28
517.03	11.70
517.20	60.85
517.37	114.69
517.54	81.92
517.72	0.00
517.89	65.54
518.06	60.85
518.24	14.04
518.41	35.11
518.58	79.58
518.75	11.70
518.93	65.54
519.10	65.54
519.27	42.13
519.45	88.94
519.62	9.36
519.79	39.79
519.96	42.13
520.14	18.72
520.31	58.51
520.48	0.00
520.65	42.13
520.83	74.90
521.00	70.22
521.17	42.13
521.34	21.06
521.52	0.00
521.69	51.49
521.86	37.45
522.03	86.60
522.20	37.45
522.38	74.90
522.55	7.02
522.72	25.75
522.89	98.30
523.07	44.47
523.24	49.15
523.41	46.81
523.58	51.49
523.75	37.45
523.92	51.49
524.10	72.56
524.27	39.79
524.44	16.38
524.61	0.00
524.78	32.77
524.96	81.92
525.13	16.38
525.30	67.88
525.47	107.66
525.64	0.00
525.81	46.81
525.98	49.15
526.16	0.00
526.33	14.04
526.50	25.75
526.67	58.51
526.84	100.64
527.01	25.75
527.18	30.43
527.36	0.00
527.53	0.00
527.70	0.00
527.87	2.34
528.04	23.41
528.21	58.51
528.38	25.75
528.55	79.58
528.72	46.81
528.89	37.45
529.07	4.68
529.24	11.70
529.41	0.00
529.58	110.01
529.75	81.92
529.92	70.22
530.09	91.28
530.26	46.81
530.43	51.49
530.60	11.70
530.77	121.71
530.94	14.04
531.11	0.00
531.28	49.15
531.46	86.60
531.63	74.90
531.80	67.88
531.97	9.36
532.14	65.54
532.31	49.15
532.48	70.22
532.65	4.68
532.82	100.64
532.99	60.85
533.16	60.85
533.33	51.49
533.50	105.32
533.67	25.75
533.84	11.70
534.01	63.19
534.18	23.41
534.35	7.02
534.52	100.64
534.69	56.17
534.86	46.81
535.03	56.17
535.20	0.00
535.37	70.22
535.54	23.41
535.71	65.54
535.88	102.98
536.05	77.24
536.22	0.00
536.38	86.60
536.55	0.00
536.72	58.51
536.89	18.72
537.06	51.49
537.23	65.54
537.40	58.51
537.57	58.51
537.74	98.30
537.91	56.17
538.08	0.00
538.25	23.41
538.42	112.35
538.59	74.90
538.75	67.88
538.92	0.00
539.09	0.00
539.26	72.56
539.43	25.75
539.60	93.62
539.77	53.83
539.94	175.54
540.11	49.15
540.28	70.22
540.44	51.49
540.61	46.81
540.78	56.17
540.95	0.00
541.12	11.70
541.29	37.45
541.46	56.17
541.62	0.00
541.79	60.85
541.96	0.00
542.13	74.90
542.30	65.54
542.47	53.83
542.63	51.49
542.80	67.88
542.97	51.49
543.14	70.22
543.31	79.58
543.48	25.75
543.64	81.92
543.81	58.51
543.98	49.15
544.15	44.47
544.32	0.00
544.48	65.54
544.65	35.11
544.82	2.34
544.99	18.72
545.16	37.45
545.32	77.24
545.49	93.62
545.66	2.34
545.83	53.83
546.00	0.00
546.16	42.13
546.33	72.56
546.50	60.85
546.67	0.00
546.83	72.56
547.00	25.75
547.17	65.54
547.34	46.81
547.50	39.79
547.67	7.02
547.84	32.77
548.00	63.19
548.17	11.70
548.34	100.64
548.51	39.79
548.67	18.72
548.84	35.11
549.01	23.41
549.18	56.17
549.34	86.60
549.51	53.83
549.68	37.45
549.84	93.62
550.01	32.77
550.18	49.15
550.34	93.62
550.51	53.83
550.68	39.79
550.84	0.00
551.01	51.49
551.18	0.00
551.34	7.02
551.51	7.02
551.68	102.98
551.84	7.02
552.01	60.85
552.18	23.41
552.34	0.00
552.51	95.96
552.68	74.90
552.84	0.00
553.01	32.77
553.18	0.00
553.34	91.28
553.51	51.49
553.67	16.38
553.84	117.03
554.01	23.41
554.17	0.00
554.34	72.56
554.51	79.58
554.67	117.03
554.84	18.72
555.00	72.56
555.17	77.24
555.33	35.11
555.50	49.15
555.67	0.00
555.83	98.30
556.00	9.36
556.16	0.00
556.33	60.85
556.50	42.13
556.66	46.81
556.83	56.17
556.99	65.54
557.16	49.15
557.32	79.58
557.49	30.43
557.65	0.00
557.82	93.62
557.98	49.15
558.15	23.41
558.32	84.26
558.48	14.04
558.65	70.22
558.81	0.00
558.98	0.00
559.14	14.04
559.31	0.00
559.47	56.17
559.64	0.00
559.80	0.00
559.97	25.75
560.13	0.00
560.30	0.00
560.46	0.00
560.63	0.00
560.79	65.54
560.96	84.26
561.12	88.94
561.29	98.30
561.45	28.09
561.61	21.06
561.78	49.15
561.94	11.70
562.11	18.72
562.27	14.04
562.44	35.11
562.60	56.17
562.77	60.85
562.93	11.70
563.10	53.83
563.26	74.90
563.42	9.36
563.59	42.13
563.75	14.04
563.92	93.62
564.08	84.26
564.24	81.92
564.41	65.54
564.57	72.56
564.74	39.79
564.90	0.00
565.07	70.22
565.23	0.00
565.39	25.75
565.56	95.96
565.72	79.58
565.88	74.90
566.05	25.75
566.21	23.41
566.38	32.77
566.54	67.88
566.70	25.75
566.87	133.41
567.03	0.00
567.19	74.90
567.36	0.00
567.52	30.43
567.68	32.77
567.85	21.06
568.01	63.19
568.17	11.70
568.34	28.09
568.50	77.24
568.66	44.47
568.83	49.15
568.99	0.00
569.15	63.19
569.32	16.38
569.48	0.00
569.64	42.13
569.81	98.30
569.97	93.62
570.13	58.51
570.30	28.09
570.46	30.43
570.62	70.22
570.78	30.43
570.95	42.13
571.11	51.49
571.27	51.49
571.43	49.15
571.60	53.83
571.76	2.34
571.92	0.00
572.09	28.09
572.25	0.00
572.41	0.00
572.57	51.49
572.74	112.35
572.90	56.17
573.06	39.79
573.22	79.58
573.38	14.04
573.55	39.79
573.71	49.15
573.87	88.94
574.03	72.56
574.20	14.04
574.36	25.75
574.52	39.79
574.68	0.00
574.84	49.15
575.01	60.85
575.17	65.54
575.33	0.00
575.49	44.47
575.65	14.04
575.82	51.49
575.98	67.88
576.14	95.96
576.30	128.73
576.46	135.75
576.62	98.30
576.79	114.69
576.95	32.77
577.11	86.60
577.27	72.56
577.43	114.69
577.59	77.24
577.75	7.02
577.92	95.96
578.08	63.19
578.24	39.79
578.40	58.51
578.56	81.92
578.72	0.00
578.88	16.38
579.04	32.77
579.21	0.00
579.37	60.85
579.53	14.04
579.69	35.11
579.85	9.36
580.01	56.17
580.17	93.62
580.33	65.54
580.49	65.54
580.65	49.15
580.82	28.09
580.98	86.60
581.14	42.13
581.30	88.94
581.46	53.83
581.62	4.68
581.78	72.56
581.94	131.07
582.10	51.49
582.26	53.83
582.42	49.15
582.58	37.45
582.74	28.09
582.90	58.51
583.06	0.00
583.22	30.43
583.38	70.22
583.54	93.62
583.70	65.54
583.86	58.51
584.02	107.66
584.18	117.03
584.34	53.83
584.50	121.71
584.66	873.02
584.82	1912.22
584.98	2476.29
585.14	2221.17
585.30	1432.41
585.46	933.87
585.62	660.03
585.78	278.52
585.94	114.69
586.10	124.05
586.26	100.64
586.42	42.13
586.58	0.00
586.74	11.70
586.90	65.54
587.06	63.19
587.22	77.24
587.38	56.17
587.54	37.45
587.70	241.08
587.86	229.37
588.02	210.65
588.18	177.88
588.34	110.01
588.49	35.11
588.65	105.32
588.81	18.72
588.97	72.56
589.13	91.28
589.29	105.32
589.45	58.51
589.61	53.83
589.77	28.09
589.93	44.47
590.08	105.32
590.24	35.11
590.40	30.43
590.56	77.24
590.72	21.06
590.88	37.45
591.04	25.75
591.20	16.38
591.35	53.83
591.51	0.00
591.67	0.00
591.83	51.49
591.99	28.09
592.15	93.62
592.31	107.66
592.46	53.83
592.62	74.90
592.78	84.26
592.94	25.75
593.10	18.72
593.26	32.77
593.41	18.72
593.57	9.36
593.73	93.62
593.89	175.54
594.05	301.93
594.20	280.86
594.36	393.21
594.52	252.78
594.68	131.07
594.84	168.52
594.99	131.07
595.15	42.13
595.31	86.60
595.47	42.13
595.62	0.00
595.78	14.04
595.94	16.38
596.10	35.11
596.25	0.00
596.41	44.47
596.57	42.13
596.73	0.00
596.88	86.60
597.04	60.85
597.20	95.96
597.36	161.50
597.51	95.96
597.67	131.07
597.83	88.94
597.99	67.88
598.14	46.81
598.30	72.56
598.46	32.77
598.61	35.11
598.77	42.13
598.93	60.85
599.09	9.36
599.24	0.00
599.40	58.51
599.56	65.54
599.71	30.43
599.87	46.81
600.03	42.13
600.18	16.38
600.34	0.00
600.50	0.00
600.65	25.75
600.81	0.00
600.97	0.00
601.12	4.68
601.28	28.09
601.44	21.06
601.59	7.02
601.75	0.00
601.91	0.00
602.06	0.00
602.22	60.85
602.37	95.96
602.53	107.66
602.69	149.79
602.84	46.81
603.00	67.88
603.16	49.15
603.31	100.64
603.47	4.68
603.62	53.83
603.78	84.26
603.94	7.02
604.09	18.72
604.25	95.96
604.40	60.85
604.56	42.13
604.71	42.13
604.87	53.83
605.03	37.45
605.18	56.17
605.34	84.26
605.49	30.43
605.65	98.30
605.80	51.49
605.96	14.04
606.12	2.34
606.27	9.36
606.43	35.11
606.58	133.41
606.74	105.32
606.89	170.86
607.05	273.84
607.20	315.97
607.36	308.95
607.51	149.79
607.67	93.62
607.82	58.51
607.98	56.17
608.13	7.02
608.29	110.01
608.44	81.92
608.60	65.54
608.75	58.51
608.91	124.05
609.06	177.88
609.22	461.09
609.37	543.00
609.53	472.79
609.68	327.68
609.84	248.10
609.99	168.52
610.15	70.22
610.30	32.77
610.46	119.37
610.61	79.58
610.76	67.88
610.92	25.75
611.07	42.13
611.23	4.68
611.38	42.13
611.54	88.94
611.69	11.70
611.84	58.51
612.00	58.51
612.15	0.00
612.31	72.56
612.46	53.83
612.62	7.02
612.77	0.00
612.92	39.79
613.08	7.02
613.23	30.43
613.39	65.54
613.54	56.17
613.69	205.97
613.85	533.64
614.00	760.67
614.15	734.93
614.31	535.98
614.46	369.80
614.62	294.91
614.77	140.43
614.92	110.01
615.08	4.68
615.23	95.96
615.38	39.79
615.54	53.83
615.69	56.17
615.84	18.72
616.00	203.63
616.15	241.08
616.30	163.84
616.46	145.11
616.61	126.39
616.76	126.39
616.92	81.92
617.07	93.62
617.22	11.70
617.37	14.04
617.53	23.41
617.68	84.26
617.83	25.75
617.99	25.75
618.14	58.51
618.29	67.88
618.45	32.77
618.60	65.54
618.75	49.15
618.90	21.06
619.06	16.38
619.21	0.00
619.36	18.72
619.51	39.79
619.67	53.83
619.82	51.49
619.97	35.11
620.12	121.71
620.28	70.22
620.43	77.24
620.58	70.22
620.73	0.00
620.89	65.54
621.04	56.17
621.19	32.77
621.34	196.60
621.49	126.39
621.65	145.11
621.80	56.17
621.95	168.52
622.10	60.85
622.25	11.70
622.41	44.47
622.56	105.32
622.71	74.90
622.86	7.02
623.01	11.70
623.16	32.77
623.32	35.11
623.47	72.56
623.62	23.41
623.77	4.68
623.92	14.04
624.07	102.98
624.23	74.90
624.38	9.36
624.53	7.02
624.68	72.56
624.83	25.75
624.98	0.00
625.13	58.51
625.29	39.79
625.44	18.72
625.59	42.13
625.74	56.17
625.89	0.00
626.04	114.69
626.19	294.91
626.34	428.32
626.49	540.66
626.65	332.36
626.80	234.05
626.95	152.13
627.10	102.98
627.25	142.77
627.40	88.94
627.55	65.54
627.70	32.77
627.85	16.38
628.00	49.15
628.15	72.56
628.30	16.38
628.45	0.00
628.60	0.00
628.76	9.36
628.91	72.56
629.06	56.17
629.21	98.30
629.36	32.77
629.51	25.75
629.66	121.71
629.81	81.92
629.96	135.75
630.11	77.24
630.26	154.48
630.41	135.75
630.56	30.43
630.71	60.85
630.86	35.11
631.01	86.60
631.16	42.13
631.31	58.51
631.46	93.62
631.61	63.19
631.76	25.75
631.91	58.51
632.06	58.51
632.21	37.45
632.36	49.15
632.51	39.79
632.66	30.43
632.81	74.90
632.96	175.54
633.10	255.12
633.25	217.67
633.40	276.18
633.55	145.11
633.70	145.11
633.85	81.92
634.00	46.81
634.15	0.00
634.30	110.01
634.45	88.94
634.60	0.00
634.75	0.00
634.90	70.22
635.05	86.60
635.19	49.15
635.34	2.34
635.49	18.72
635.64	9.36
635.79	2.34
635.94	7.02
636.09	72.56
636.24	95.96
636.39	0.00
636.53	60.85
636.68	126.39
636.83	7.02
636.98	0.00
637.13	79.58
637.28	18.72
637.43	30.43
637.57	53.83
637.72	173.20
637.87	341.72
638.02	470.45
638.17	519.60
638.32	388.53
638.46	290.23
638.61	215.33
638.76	70.22
638.91	18.72
639.06	84.26
639.20	105.32
639.35	56.17
639.50	77.24
639.65	180.22
639.80	482.15
639.94	774.72
640.09	772.38
640.24	674.07
640.39	388.53
640.54	297.25
640.68	177.88
640.83	107.66
640.98	88.94
641.13	84.26
641.27	51.49
641.42	51.49
641.57	93.62
641.72	49.15
641.86	39.79
642.01	25.75
642.16	0.00
642.31	23.41
642.45	79.58
642.60	23.41
642.75	0.00
642.90	67.88
643.04	72.56
643.19	65.54
643.34	84.26
643.48	53.83
643.63	53.83
643.78	65.54
643.93	67.88
644.07	60.85
644.22	37.45
644.37	0.00
644.51	35.11
644.66	23.41
644.81	102.98
644.95	0.00
645.10	53.83
645.25	81.92
645.39	30.43
645.54	63.19
645.69	84.26
645.83	46.81
645.98	65.54
646.13	30.43
646.27	0.00
646.42	0.00
646.57	44.47
646.71	2.34
646.86	46.81
647.00	9.36
647.15	70.22
647.30	91.28
647.44	63.19
647.59	11.70
647.74	0.00
647.88	37.45
648.03	9.36
648.17	79.58
648.32	0.00
648.47	42.13
648.61	32.77
648.76	98.30
648.90	72.56
649.05	46.81
649.20	25.75
649.34	4.68
649.49	0.00
649.63	28.09
649.78	42.13
649.92	49.15
650.07	35.11
650.21	187.24
650.36	341.72
650.51	337.04
650.65	369.80
650.80	322.99
650.94	201.29
651.09	170.86
651.23	72.56
651.38	53.83
651.52	25.75
651.67	39.79
651.81	0.00
651.96	67.88
652.10	110.01
652.25	67.88
652.39	70.22
652.54	79.58
652.68	7.02
652.83	63.19
652.97	215.33
653.12	187.24
653.26	102.98
653.41	145.11
653.55	98.30
653.70	114.69
653.84	93.62
653.99	74.90
654.13	65.54
654.27	44.47
654.42	42.13
654.56	16.38
654.71	37.45
654.85	25.75
655.00	86.60
655.14	63.19
655.29	42.13
655.43	0.00
655.57	18.72
655.72	39.79
655.86	0.00
656.01	53.83
656.15	74.90
656.30	67.88
656.44	28.09
656.58	117.03
656.73	4.68
656.87	49.15
657.01	39.79
657.16	56.17
657.30	49.15
657.45	88.94
657.59	18.72
657.73	35.11
657.88	32.77
658.02	79.58
658.16	37.45
658.31	117.03
658.45	32.77
658.60	49.15
658.74	95.96
658.88	9.36
659.03	112.35
659.17	84.26
659.31	95.96
659.46	159.16
659.60	189.58
659.74	257.46
659.89	241.08
660.03	180.22
660.17	180.22
660.32	121.71
660.46	72.56
660.60	37.45
660.74	0.00
660.89	23.41
661.03	42.13
661.17	9.36
661.32	2.34
661.46	30.43
661.60	72.56
661.74	112.35
661.89	58.51
662.03	11.70
662.17	70.22
662.31	28.09
662.46	81.92
662.60	0.00
662.74	0.00
662.88	14.04
663.03	91.28
663.17	0.00
663.31	0.00
663.45	63.19
663.60	37.45
663.74	32.77
663.88	32.77
664.02	0.00
664.17	35.11
664.31	88.94
664.45	0.00
664.59	18.72
664.73	0.00
664.88	49.15
665.02	25.75
665.16	67.88
665.30	37.45
665.44	95.96
665.59	46.81
665.73	0.00
665.87	21.06
666.01	16.38
666.15	79.58
666.29	58.51
666.44	60.85
666.58	11.70
666.72	81.92
666.86	105.32
667.00	67.88
667.14	16.38
667.28	35.11
667.43	255.12
667.57	325.33
667.71	407.25
667.85	320.65
667.99	234.05
668.13	168.52
668.27	79.58
668.41	46.81
668.56	0.00
668.70	65.54
668.84	49.15
668.98	18.72
669.12	23.41
669.26	98.30
669.40	91.28
669.54	105.32
669.68	44.47
669.82	81.92
669.96	0.00
670.10	0.00
670.25	42.13
670.39	21.06
670.53	0.00
670.67	2.34
670.81	42.13
670.95	21.06
671.09	11.70
671.23	102.98
671.37	149.79
671.51	224.69
671.65	227.03
671.79	217.67
671.93	294.91
672.07	142.77
672.21	67.88
672.35	30.43
672.49	37.45
672.63	91.28
672.77	0.00
672.91	44.47
673.05	46.81
673.19	0.00
673.33	0.00
673.47	2.34
673.61	67.88
673.75	84.26
673.89	7.02
674.03	98.30
674.17	16.38
674.31	95.96
674.45	60.85
674.59	0.00
674.73	46.81
674.87	77.24
675.01	11.70
675.15	53.83
675.29	88.94
675.43	0.00
675.56	100.64
675.70	37.45
675.84	0.00
675.98	70.22
676.12	112.35
676.26	53.83
676.40	0.00
676.54	58.51
676.68	91.28
676.82	42.13
676.96	0.00
677.10	58.51
677.23	58.51
677.37	0.00
677.51	117.03
677.65	18.72
677.79	81.92
677.93	63.19
678.07	37.45
678.21	25.75
678.34	72.56
678.48	25.75
678.62	74.90
678.76	60.85
678.90	53.83
679.04	23.41
679.18	4.68
679.31	21.06
679.45	0.00
679.59	100.64
679.73	0.00
679.87	23.41
680.00	145.11
680.14	53.83
680.28	81.92
680.42	0.00
680.56	86.60
680.70	0.00
680.83	51.49
680.97	0.00
681.11	35.11
681.25	60.85
681.39	107.66
681.52	46.81
681.66	46.81
681.80	32.77
681.94	37.45
682.07	51.49
682.21	14.04
682.35	56.17
682.49	9.36
682.62	0.00
682.76	65.54
682.90	65.54
683.04	9.36
683.17	23.41
683.31	65.54
683.45	51.49
683.59	0.00
683.72	16.38
683.86	0.00
684.00	0.00
684.13	60.85
684.27	70.22
684.41	0.00
684.55	37.45
684.68	23.41
684.82	51.49
684.96	65.54
685.09	16.38
685.23	4.68
685.37	58.51
685.50	42.13
685.64	77.24
685.78	23.41
685.91	74.90
686.05	105.32
686.19	11.70
686.32	0.00
686.46	7.02
686.60	84.26
686.73	72.56
686.87	58.51
687.01	7.02
687.14	23.41
687.28	56.17
687.42	0.00
687.55	53.83
687.69	60.85
687.82	0.00
687.96	131.07
688.10	21.06
688.23	102.98
688.37	30.43
688.50	84.26
688.64	81.92
688.78	53.83
688.91	37.45
689.05	4.68
689.18	4.68
689.32	56.17
689.46	100.64
689.59	79.58
689.73	63.19
689.86	4.68
690.00	30.43
690.13	0.00
690.27	18.72
690.41	0.00
690.54	14.04
690.68	28.09
690.81	35.11
690.95	39.79
691.08	0.00
691.22	28.09
691.35	51.49
691.49	30.43
691.62	56.17
691.76	72.56
691.89	86.60
692.03	42.13
692.16	0.00
692.30	79.58
692.43	72.56
692.57	93.62
692.70	114.69
692.84	168.52
692.97	191.92
693.11	126.39
693.24	93.62
693.38	21.06
693.51	0.00
693.65	0.00
693.78	51.49
693.92	28.09
694.05	84.26
694.19	0.00
694.32	58.51
694.45	107.66
694.59	0.00
694.72	23.41
694.86	0.00
694.99	7.02
695.13	7.02
695.26	0.00
695.39	0.00
695.53	44.47
695.66	7.02
695.80	0.00
695.93	14.04
696.07	0.00
696.20	32.77
696.33	14.04
696.47	42.13
696.60	70.22
696.73	35.11
696.87	0.00
697.00	119.37
697.14	4.68
697.27	14.04
697.40	51.49
697.54	21.06
697.67	28.09
697.80	79.58
697.94	14.04
698.07	0.00
698.21	28.09
698.34	0.00
698.47	98.30
698.61	16.38
698.74	0.00
698.87	0.00
699.01	0.00
699.14	0.00
699.27	9.36
699.40	63.19
699.54	91.28
699.67	110.01
699.80	2.34
699.94	9.36
700.07	56.17
700.20	81.92
700.34	79.58
700.47	46.81
700.60	25.75
700.73	11.70
700.87	46.81
701.00	42.13
701.13	84.26
701.26	0.00
701.40	53.83
701.53	0.00
701.66	18.72
701.79	14.04
701.93	21.06
702.06	0.00
702.19	58.51
702.32	0.00
702.46	14.04
702.59	0.00
702.72	91.28
702.85	142.77
702.99	166.18
703.12	236.39
703.25	280.86
703.38	379.17
703.51	238.73
703.65	128.73
703.78	119.37
703.91	81.92
704.04	119.37
704.17	114.69
704.31	49.15
704.44	0.00
704.57	28.09
704.70	16.38
704.83	65.54
704.96	21.06
705.10	35.11
705.23	9.36
>>>>>End Processed Spectral Data<<<<<
