SpectraSuite Data File
++++++++++++++++++++++++++++++++++++
Date: Fri Oct 04 12:13:40 GMT-05:00 2013
User: price-jones
Dark Spectrum Present: No
Reference Spectrum Present: No
Number of Sampled Component Spectra: 1
Spectrometers: USB2+H05261
Integration Time (usec): 10000 (USB2+H05261)
Spectra Averaged: 1 (USB2+H05261)
Boxcar Smoothing: 0 (USB2+H05261)
Correct for Electrical Dark: No (USB2+H05261)
Strobe/Lamp Enabled: No (USB2+H05261)
Correct for Detector Non-linearity: No (USB2+H05261)
Correct for Stray Light: No (USB2+H05261)
Number of Pixels in Processed Spectrum: 2048
>>>>>Begin Processed Spectral Data<<<<<
365.73	0.00
365.92	0.00
366.12	0.00
366.32	0.00
366.52	0.00
366.72	0.00
366.91	0.00
367.11	0.00
367.31	0.00
367.51	0.00
367.70	0.00
367.90	0.00
368.10	0.00
368.30	0.00
368.49	0.00
368.69	0.00
368.89	0.00
369.09	0.00
369.28	0.00
369.48	0.00
369.68	0.00
369.87	0.00
370.07	0.00
370.27	0.00
370.47	0.00
370.66	0.00
370.86	0.00
371.06	0.00
371.25	0.00
371.45	0.00
371.65	0.00
371.84	21.06
372.04	32.77
372.24	0.00
372.44	32.77
372.63	72.56
372.83	0.00
373.03	72.56
373.22	0.00
373.42	23.41
373.62	37.45
373.81	35.11
374.01	0.00
374.21	16.38
374.40	70.22
374.60	65.54
374.79	58.51
374.99	39.79
375.19	100.64
375.38	65.54
375.58	70.22
375.78	11.70
375.97	16.38
376.17	11.70
376.37	11.70
376.56	23.41
376.76	42.13
376.95	4.68
377.15	65.54
377.35	25.75
377.54	0.00
377.74	16.38
377.93	28.09
378.13	39.79
378.33	9.36
378.52	58.51
378.72	0.00
378.91	0.00
379.11	30.43
379.31	0.00
379.50	9.36
379.70	49.15
379.89	4.68
380.09	49.15
380.28	56.17
380.48	0.00
380.68	9.36
380.87	0.00
381.07	46.81
381.26	51.49
381.46	0.00
381.65	70.22
381.85	37.45
382.04	0.00
382.24	44.47
382.43	25.75
382.63	2.34
382.83	11.70
383.02	9.36
383.22	25.75
383.41	0.00
383.61	0.00
383.80	0.00
384.00	30.43
384.19	23.41
384.39	0.00
384.58	60.85
384.78	21.06
384.97	0.00
385.17	0.00
385.36	0.00
385.56	0.00
385.75	51.49
385.95	70.22
386.14	9.36
386.34	18.72
386.53	119.37
386.72	32.77
386.92	16.38
387.11	0.00
387.31	9.36
387.50	67.88
387.70	0.00
387.89	35.11
388.09	100.64
388.28	25.75
388.48	67.88
388.67	35.11
388.86	0.00
389.06	0.00
389.25	0.00
389.45	4.68
389.64	46.81
389.84	44.47
390.03	11.70
390.22	30.43
390.42	53.83
390.61	74.90
390.81	23.41
391.00	42.13
391.19	44.47
391.39	42.13
391.58	65.54
391.78	0.00
391.97	0.00
392.16	37.45
392.36	0.00
392.55	56.17
392.75	2.34
392.94	21.06
393.13	53.83
393.33	0.00
393.52	65.54
393.71	35.11
393.91	0.00
394.10	74.90
394.29	0.00
394.49	2.34
394.68	11.70
394.88	39.79
395.07	65.54
395.26	25.75
395.46	86.60
395.65	142.77
395.84	44.47
396.04	42.13
396.23	0.00
396.42	65.54
396.62	39.79
396.81	18.72
397.00	86.60
397.19	11.70
397.39	91.28
397.58	77.24
397.77	53.83
397.97	0.00
398.16	30.43
398.35	28.09
398.55	14.04
398.74	0.00
398.93	2.34
399.12	0.00
399.32	53.83
399.51	25.75
399.70	84.26
399.90	0.00
400.09	0.00
400.28	74.90
400.47	77.24
400.67	32.77
400.86	51.49
401.05	0.00
401.24	51.49
401.44	60.85
401.63	16.38
401.82	35.11
402.01	28.09
402.21	32.77
402.40	0.00
402.59	46.81
402.78	0.00
402.97	0.00
403.17	32.77
403.36	39.79
403.55	67.88
403.74	4.68
403.93	30.43
404.13	39.79
404.32	77.24
404.51	0.00
404.70	74.90
404.89	0.00
405.09	32.77
405.28	51.49
405.47	0.00
405.66	28.09
405.85	42.13
406.05	9.36
406.24	49.15
406.43	25.75
406.62	23.41
406.81	0.00
407.00	51.49
407.20	42.13
407.39	0.00
407.58	51.49
407.77	42.13
407.96	65.54
408.15	77.24
408.34	100.64
408.54	0.00
408.73	2.34
408.92	0.00
409.11	16.38
409.30	56.17
409.49	30.43
409.68	44.47
409.87	39.79
410.07	0.00
410.26	11.70
410.45	9.36
410.64	37.45
410.83	98.30
411.02	11.70
411.21	4.68
411.40	58.51
411.59	63.19
411.78	0.00
411.98	11.70
412.17	30.43
412.36	44.47
412.55	11.70
412.74	46.81
412.93	56.17
413.12	11.70
413.31	112.35
413.50	30.43
413.69	67.88
413.88	0.00
414.07	67.88
414.26	58.51
414.45	112.35
414.64	56.17
414.83	28.09
415.02	58.51
415.22	79.58
415.41	30.43
415.60	18.72
415.79	65.54
415.98	30.43
416.17	88.94
416.36	0.00
416.55	32.77
416.74	53.83
416.93	14.04
417.12	65.54
417.31	30.43
417.50	56.17
417.69	32.77
417.88	35.11
418.07	72.56
418.26	60.85
418.45	77.24
418.64	51.49
418.83	70.22
419.02	49.15
419.21	37.45
419.39	74.90
419.58	0.00
419.77	0.00
419.96	37.45
420.15	0.00
420.34	28.09
420.53	44.47
420.72	42.13
420.91	39.79
421.10	67.88
421.29	79.58
421.48	79.58
421.67	18.72
421.86	51.49
422.05	2.34
422.24	21.06
422.43	65.54
422.61	35.11
422.80	0.00
422.99	35.11
423.18	7.02
423.37	84.26
423.56	74.90
423.75	63.19
423.94	0.00
424.13	32.77
424.32	46.81
424.50	42.13
424.69	84.26
424.88	0.00
425.07	0.00
425.26	67.88
425.45	112.35
425.64	25.75
425.83	105.32
426.01	100.64
426.20	16.38
426.39	56.17
426.58	23.41
426.77	100.64
426.96	7.02
427.15	0.00
427.33	0.00
427.52	53.83
427.71	30.43
427.90	70.22
428.09	0.00
428.28	0.00
428.46	46.81
428.65	39.79
428.84	72.56
429.03	58.51
429.22	91.28
429.40	53.83
429.59	60.85
429.78	124.05
429.97	51.49
430.16	23.41
430.34	77.24
430.53	39.79
430.72	81.92
430.91	56.17
431.10	32.77
431.28	53.83
431.47	9.36
431.66	0.00
431.85	25.75
432.03	56.17
432.22	37.45
432.41	65.54
432.60	0.00
432.79	95.96
432.97	0.00
433.16	119.37
433.35	0.00
433.54	28.09
433.72	79.58
433.91	72.56
434.10	44.47
434.28	67.88
434.47	56.17
434.66	11.70
434.85	14.04
435.03	46.81
435.22	107.66
435.41	53.83
435.59	0.00
435.78	88.94
435.97	44.47
436.16	0.00
436.34	63.19
436.53	0.00
436.72	16.38
436.90	77.24
437.09	60.85
437.28	32.77
437.46	23.41
437.65	65.54
437.84	11.70
438.02	88.94
438.21	56.17
438.40	18.72
438.58	60.85
438.77	49.15
438.96	77.24
439.14	21.06
439.33	49.15
439.52	9.36
439.70	81.92
439.89	93.62
440.08	16.38
440.26	81.92
440.45	77.24
440.63	110.01
440.82	11.70
441.01	53.83
441.19	42.13
441.38	88.94
441.57	107.66
441.75	95.96
441.94	49.15
442.12	98.30
442.31	53.83
442.50	84.26
442.68	53.83
442.87	84.26
443.05	98.30
443.24	91.28
443.43	77.24
443.61	4.68
443.80	42.13
443.98	39.79
444.17	18.72
444.35	51.49
444.54	51.49
444.73	56.17
444.91	149.79
445.10	56.17
445.28	81.92
445.47	0.00
445.65	58.51
445.84	0.00
446.02	28.09
446.21	79.58
446.39	58.51
446.58	23.41
446.77	74.90
446.95	65.54
447.14	74.90
447.32	95.96
447.51	65.54
447.69	56.17
447.88	84.26
448.06	88.94
448.25	102.98
448.43	49.15
448.62	77.24
448.80	63.19
448.99	67.88
449.17	100.64
449.36	14.04
449.54	72.56
449.73	86.60
449.91	100.64
450.10	65.54
450.28	67.88
450.46	67.88
450.65	79.58
450.83	58.51
451.02	35.11
451.20	14.04
451.39	140.43
451.57	0.00
451.76	39.79
451.94	18.72
452.13	0.00
452.31	56.17
452.49	11.70
452.68	0.00
452.86	0.00
453.05	110.01
453.23	110.01
453.42	44.47
453.60	42.13
453.78	23.41
453.97	35.11
454.15	63.19
454.34	102.98
454.52	140.43
454.70	70.22
454.89	39.79
455.07	63.19
455.26	65.54
455.44	63.19
455.62	51.49
455.81	4.68
455.99	25.75
456.17	74.90
456.36	9.36
456.54	14.04
456.73	58.51
456.91	100.64
457.09	58.51
457.28	49.15
457.46	21.06
457.64	51.49
457.83	39.79
458.01	72.56
458.19	60.85
458.38	23.41
458.56	77.24
458.74	46.81
458.93	51.49
459.11	91.28
459.29	18.72
459.48	70.22
459.66	133.41
459.84	56.17
460.03	112.35
460.21	84.26
460.39	84.26
460.57	100.64
460.76	117.03
460.94	98.30
461.12	72.56
461.31	56.17
461.49	49.15
461.67	60.85
461.85	67.88
462.04	114.69
462.22	124.05
462.40	60.85
462.59	84.26
462.77	79.58
462.95	79.58
463.13	77.24
463.32	18.72
463.50	25.75
463.68	9.36
463.86	44.47
464.05	77.24
464.23	18.72
464.41	100.64
464.59	93.62
464.78	25.75
464.96	32.77
465.14	49.15
465.32	100.64
465.50	81.92
465.69	60.85
465.87	25.75
466.05	58.51
466.23	72.56
466.41	63.19
466.60	32.77
466.78	86.60
466.96	0.00
467.14	79.58
467.32	100.64
467.51	70.22
467.69	49.15
467.87	51.49
468.05	49.15
468.23	51.49
468.41	117.03
468.60	37.45
468.78	67.88
468.96	58.51
469.14	28.09
469.32	37.45
469.50	49.15
469.69	112.35
469.87	67.88
470.05	74.90
470.23	86.60
470.41	51.49
470.59	79.58
470.77	114.69
470.95	79.58
471.14	39.79
471.32	56.17
471.50	105.32
471.68	65.54
471.86	93.62
472.04	56.17
472.22	56.17
472.40	84.26
472.58	84.26
472.77	46.81
472.95	14.04
473.13	7.02
473.31	0.00
473.49	81.92
473.67	77.24
473.85	95.96
474.03	30.43
474.21	21.06
474.39	0.00
474.57	18.72
474.75	46.81
474.93	81.92
475.12	79.58
475.30	86.60
475.48	56.17
475.66	70.22
475.84	28.09
476.02	0.00
476.20	28.09
476.38	37.45
476.56	72.56
476.74	67.88
476.92	77.24
477.10	74.90
477.28	7.02
477.46	4.68
477.64	65.54
477.82	30.43
478.00	63.19
478.18	74.90
478.36	79.58
478.54	28.09
478.72	0.00
478.90	51.49
479.08	95.96
479.26	0.00
479.44	135.75
479.62	74.90
479.80	72.56
479.98	58.51
480.16	23.41
480.34	58.51
480.52	142.77
480.70	44.47
480.88	39.79
481.06	58.51
481.24	117.03
481.41	60.85
481.59	65.54
481.77	70.22
481.95	91.28
482.13	37.45
482.31	88.94
482.49	72.56
482.67	70.22
482.85	110.01
483.03	72.56
483.21	74.90
483.39	112.35
483.57	142.77
483.74	44.47
483.92	63.19
484.10	114.69
484.28	58.51
484.46	53.83
484.64	79.58
484.82	138.09
485.00	72.56
485.18	74.90
485.35	79.58
485.53	77.24
485.71	58.51
485.89	35.11
486.07	88.94
486.25	65.54
486.43	77.24
486.61	51.49
486.78	23.41
486.96	86.60
487.14	56.17
487.32	39.79
487.50	65.54
487.68	133.41
487.85	37.45
488.03	112.35
488.21	11.70
488.39	112.35
488.57	86.60
488.75	11.70
488.92	51.49
489.10	112.35
489.28	42.13
489.46	65.54
489.64	170.86
489.81	93.62
489.99	77.24
490.17	107.66
490.35	65.54
490.53	53.83
490.70	84.26
490.88	14.04
491.06	63.19
491.24	88.94
491.41	79.58
491.59	74.90
491.77	0.00
491.95	37.45
492.13	23.41
492.30	65.54
492.48	133.41
492.66	51.49
492.84	67.88
493.01	60.85
493.19	117.03
493.37	114.69
493.54	112.35
493.72	35.11
493.90	102.98
494.08	74.90
494.25	88.94
494.43	58.51
494.61	102.98
494.79	42.13
494.96	60.85
495.14	14.04
495.32	110.01
495.49	81.92
495.67	88.94
495.85	44.47
496.02	131.07
496.20	124.05
496.38	81.92
496.55	56.17
496.73	117.03
496.91	51.49
497.09	105.32
497.26	77.24
497.44	56.17
497.62	0.00
497.79	51.49
497.97	72.56
498.14	32.77
498.32	93.62
498.50	77.24
498.67	46.81
498.85	149.79
499.03	110.01
499.20	128.73
499.38	79.58
499.56	51.49
499.73	70.22
499.91	51.49
500.08	79.58
500.26	9.36
500.44	30.43
500.61	191.92
500.79	79.58
500.97	35.11
501.14	128.73
501.32	145.11
501.49	16.38
501.67	63.19
501.84	107.66
502.02	46.81
502.20	39.79
502.37	37.45
502.55	0.00
502.72	25.75
502.90	184.90
503.07	28.09
503.25	46.81
503.43	72.56
503.60	102.98
503.78	107.66
503.95	49.15
504.13	81.92
504.30	51.49
504.48	39.79
504.65	28.09
504.83	93.62
505.01	100.64
505.18	53.83
505.36	91.28
505.53	91.28
505.71	114.69
505.88	58.51
506.06	32.77
506.23	44.47
506.41	81.92
506.58	98.30
506.76	117.03
506.93	60.85
507.11	63.19
507.28	159.16
507.46	42.13
507.63	49.15
507.81	72.56
507.98	23.41
508.16	117.03
508.33	72.56
508.50	44.47
508.68	114.69
508.85	53.83
509.03	105.32
509.20	91.28
509.38	88.94
509.55	128.73
509.73	88.94
509.90	63.19
510.08	63.19
510.25	32.77
510.42	203.63
510.60	145.11
510.77	30.43
510.95	30.43
511.12	84.26
511.30	117.03
511.47	28.09
511.64	77.24
511.82	117.03
511.99	25.75
512.17	81.92
512.34	70.22
512.51	72.56
512.69	112.35
512.86	147.45
513.04	142.77
513.21	154.48
513.38	105.32
513.56	37.45
513.73	0.00
513.90	114.69
514.08	74.90
514.25	77.24
514.43	58.51
514.60	86.60
514.77	42.13
514.95	44.47
515.12	63.19
515.29	46.81
515.47	124.05
515.64	0.00
515.81	121.71
515.99	2.34
516.16	46.81
516.33	74.90
516.51	72.56
516.68	49.15
516.85	142.77
517.03	95.96
517.20	86.60
517.37	53.83
517.54	77.24
517.72	0.00
517.89	138.09
518.06	114.69
518.24	107.66
518.41	184.90
518.58	112.35
518.75	79.58
518.93	58.51
519.10	107.66
519.27	93.62
519.45	46.81
519.62	63.19
519.79	77.24
519.96	88.94
520.14	81.92
520.31	79.58
520.48	84.26
520.65	77.24
520.83	70.22
521.00	67.88
521.17	121.71
521.34	98.30
521.52	84.26
521.69	67.88
521.86	149.79
522.03	39.79
522.20	100.64
522.38	51.49
522.55	74.90
522.72	98.30
522.89	51.49
523.07	105.32
523.24	147.45
523.41	119.37
523.58	107.66
523.75	95.96
523.92	58.51
524.10	102.98
524.27	112.35
524.44	93.62
524.61	72.56
524.78	79.58
524.96	28.09
525.13	121.71
525.30	95.96
525.47	121.71
525.64	86.60
525.81	11.70
525.98	30.43
526.16	88.94
526.33	21.06
526.50	11.70
526.67	63.19
526.84	70.22
527.01	18.72
527.18	98.30
527.36	49.15
527.53	112.35
527.70	112.35
527.87	74.90
528.04	56.17
528.21	79.58
528.38	100.64
528.55	114.69
528.72	79.58
528.89	63.19
529.07	70.22
529.24	42.13
529.41	105.32
529.58	58.51
529.75	79.58
529.92	49.15
530.09	110.01
530.26	93.62
530.43	39.79
530.60	114.69
530.77	93.62
530.94	86.60
531.11	0.00
531.28	28.09
531.46	74.90
531.63	84.26
531.80	58.51
531.97	46.81
532.14	91.28
532.31	77.24
532.48	23.41
532.65	91.28
532.82	100.64
532.99	42.13
533.16	51.49
533.33	102.98
533.50	14.04
533.67	88.94
533.84	117.03
534.01	81.92
534.18	117.03
534.35	105.32
534.52	86.60
534.69	105.32
534.86	25.75
535.03	152.13
535.20	42.13
535.37	149.79
535.54	0.00
535.71	25.75
535.88	42.13
536.05	121.71
536.22	91.28
536.38	81.92
536.55	39.79
536.72	98.30
536.89	112.35
537.06	91.28
537.23	133.41
537.40	149.79
537.57	56.17
537.74	110.01
537.91	95.96
538.08	67.88
538.25	159.16
538.42	117.03
538.59	77.24
538.75	56.17
538.92	102.98
539.09	124.05
539.26	126.39
539.43	93.62
539.60	126.39
539.77	79.58
539.94	58.51
540.11	131.07
540.28	159.16
540.44	86.60
540.61	39.79
540.78	37.45
540.95	9.36
541.12	100.64
541.29	74.90
541.46	21.06
541.62	91.28
541.79	107.66
541.96	67.88
542.13	51.49
542.30	74.90
542.47	81.92
542.63	121.71
542.80	93.62
542.97	72.56
543.14	124.05
543.31	88.94
543.48	81.92
543.64	39.79
543.81	81.92
543.98	84.26
544.15	124.05
544.32	37.45
544.48	58.51
544.65	46.81
544.82	142.77
544.99	65.54
545.16	126.39
545.32	23.41
545.49	107.66
545.66	60.85
545.83	131.07
546.00	44.47
546.16	91.28
546.33	102.98
546.50	21.06
546.67	98.30
546.83	79.58
547.00	102.98
547.17	189.58
547.34	53.83
547.50	60.85
547.67	4.68
547.84	135.75
548.00	77.24
548.17	81.92
548.34	86.60
548.51	110.01
548.67	119.37
548.84	98.30
549.01	58.51
549.18	72.56
549.34	86.60
549.51	100.64
549.68	32.77
549.84	152.13
550.01	67.88
550.18	86.60
550.34	156.82
550.51	121.71
550.68	58.51
550.84	70.22
551.01	51.49
551.18	35.11
551.34	51.49
551.51	88.94
551.68	63.19
551.84	74.90
552.01	138.09
552.18	46.81
552.34	100.64
552.51	16.38
552.68	121.71
552.84	46.81
553.01	21.06
553.18	91.28
553.34	77.24
553.51	63.19
553.67	77.24
553.84	28.09
554.01	81.92
554.17	25.75
554.34	65.54
554.51	53.83
554.67	46.81
554.84	119.37
555.00	102.98
555.17	51.49
555.33	79.58
555.50	84.26
555.67	114.69
555.83	86.60
556.00	67.88
556.16	128.73
556.33	81.92
556.50	84.26
556.66	124.05
556.83	88.94
556.99	86.60
557.16	53.83
557.32	100.64
557.49	46.81
557.65	110.01
557.82	95.96
557.98	46.81
558.15	131.07
558.32	184.90
558.48	124.05
558.65	163.84
558.81	112.35
558.98	110.01
559.14	77.24
559.31	74.90
559.47	67.88
559.64	21.06
559.80	70.22
559.97	16.38
560.13	18.72
560.30	21.06
560.46	9.36
560.63	70.22
560.79	161.50
560.96	112.35
561.12	63.19
561.29	58.51
561.45	72.56
561.61	25.75
561.78	138.09
561.94	72.56
562.11	98.30
562.27	107.66
562.44	53.83
562.60	35.11
562.77	14.04
562.93	60.85
563.10	65.54
563.26	84.26
563.42	32.77
563.59	46.81
563.75	102.98
563.92	51.49
564.08	124.05
564.24	77.24
564.41	53.83
564.57	124.05
564.74	91.28
564.90	84.26
565.07	91.28
565.23	133.41
565.39	86.60
565.56	42.13
565.72	84.26
565.88	58.51
566.05	119.37
566.21	74.90
566.38	110.01
566.54	46.81
566.70	107.66
566.87	63.19
567.03	98.30
567.19	70.22
567.36	23.41
567.52	86.60
567.68	187.24
567.85	100.64
568.01	93.62
568.17	4.68
568.34	51.49
568.50	114.69
568.66	84.26
568.83	86.60
568.99	35.11
569.15	91.28
569.32	39.79
569.48	72.56
569.64	156.82
569.81	72.56
569.97	25.75
570.13	42.13
570.30	105.32
570.46	79.58
570.62	112.35
570.78	105.32
570.95	107.66
571.11	70.22
571.27	67.88
571.43	67.88
571.60	110.01
571.76	110.01
571.92	23.41
572.09	70.22
572.25	142.77
572.41	105.32
572.57	102.98
572.74	142.77
572.90	18.72
573.06	100.64
573.22	39.79
573.38	44.47
573.55	114.69
573.71	86.60
573.87	58.51
574.03	32.77
574.20	98.30
574.36	81.92
574.52	42.13
574.68	63.19
574.84	60.85
575.01	56.17
575.17	140.43
575.33	142.77
575.49	53.83
575.65	60.85
575.82	119.37
575.98	84.26
576.14	37.45
576.30	86.60
576.46	58.51
576.62	28.09
576.79	42.13
576.95	72.56
577.11	51.49
577.27	67.88
577.43	93.62
577.59	32.77
577.75	112.35
577.92	107.66
578.08	95.96
578.24	25.75
578.40	128.73
578.56	86.60
578.72	112.35
578.88	117.03
579.04	107.66
579.21	67.88
579.37	49.15
579.53	39.79
579.69	102.98
579.85	147.45
580.01	81.92
580.17	67.88
580.33	84.26
580.49	91.28
580.65	74.90
580.82	60.85
580.98	88.94
581.14	95.96
581.30	79.58
581.46	72.56
581.62	0.00
581.78	79.58
581.94	44.47
582.10	86.60
582.26	84.26
582.42	107.66
582.58	32.77
582.74	119.37
582.90	58.51
583.06	84.26
583.22	60.85
583.38	135.75
583.54	53.83
583.70	135.75
583.86	74.90
584.02	100.64
584.18	53.83
584.34	14.04
584.50	70.22
584.66	70.22
584.82	67.88
584.98	102.98
585.14	58.51
585.30	60.85
585.46	58.51
585.62	79.58
585.78	91.28
585.94	37.45
586.10	128.73
586.26	35.11
586.42	23.41
586.58	72.56
586.74	42.13
586.90	81.92
587.06	135.75
587.22	159.16
587.38	28.09
587.54	88.94
587.70	86.60
587.86	21.06
588.02	70.22
588.18	93.62
588.34	79.58
588.49	11.70
588.65	67.88
588.81	0.00
588.97	74.90
589.13	51.49
589.29	46.81
589.45	107.66
589.61	107.66
589.77	65.54
589.93	107.66
590.08	56.17
590.24	25.75
590.40	72.56
590.56	42.13
590.72	11.70
590.88	23.41
591.04	74.90
591.20	28.09
591.35	72.56
591.51	114.69
591.67	126.39
591.83	65.54
591.99	79.58
592.15	77.24
592.31	60.85
592.46	60.85
592.62	124.05
592.78	79.58
592.94	102.98
593.10	86.60
593.26	39.79
593.41	84.26
593.57	86.60
593.73	117.03
593.89	25.75
594.05	18.72
594.20	32.77
594.36	42.13
594.52	107.66
594.68	11.70
594.84	117.03
594.99	67.88
595.15	107.66
595.31	65.54
595.47	107.66
595.62	81.92
595.78	79.58
595.94	58.51
596.10	105.32
596.25	86.60
596.41	105.32
596.57	65.54
596.73	28.09
596.88	112.35
597.04	74.90
597.20	84.26
597.36	18.72
597.51	98.30
597.67	67.88
597.83	88.94
597.99	37.45
598.14	49.15
598.30	126.39
598.46	60.85
598.61	93.62
598.77	79.58
598.93	88.94
599.09	112.35
599.24	25.75
599.40	67.88
599.56	70.22
599.71	56.17
599.87	93.62
600.03	119.37
600.18	63.19
600.34	79.58
600.50	93.62
600.65	4.68
600.81	0.00
600.97	72.56
601.12	72.56
601.28	70.22
601.44	74.90
601.59	86.60
601.75	49.15
601.91	51.49
602.06	107.66
602.22	65.54
602.37	67.88
602.53	86.60
602.69	63.19
602.84	46.81
603.00	0.00
603.16	0.00
603.31	84.26
603.47	102.98
603.62	0.00
603.78	135.75
603.94	49.15
604.09	51.49
604.25	84.26
604.40	79.58
604.56	35.11
604.71	32.77
604.87	53.83
605.03	0.00
605.18	56.17
605.34	119.37
605.49	58.51
605.65	86.60
605.80	53.83
605.96	95.96
606.12	133.41
606.27	46.81
606.43	46.81
606.58	0.00
606.74	79.58
606.89	2.34
607.05	28.09
607.20	86.60
607.36	46.81
607.51	93.62
607.67	16.38
607.82	23.41
607.98	88.94
608.13	0.00
608.29	138.09
608.44	93.62
608.60	16.38
608.75	93.62
608.91	65.54
609.06	32.77
609.22	42.13
609.37	58.51
609.53	60.85
609.68	53.83
609.84	37.45
609.99	30.43
610.15	84.26
610.30	124.05
610.46	39.79
610.61	93.62
610.76	0.00
610.92	30.43
611.07	100.64
611.23	95.96
611.38	28.09
611.54	67.88
611.69	16.38
611.84	2.34
612.00	124.05
612.15	121.71
612.31	72.56
612.46	74.90
612.62	51.49
612.77	77.24
612.92	35.11
613.08	72.56
613.23	49.15
613.39	65.54
613.54	42.13
613.69	131.07
613.85	102.98
614.00	18.72
614.15	18.72
614.31	72.56
614.46	140.43
614.62	112.35
614.77	30.43
614.92	0.00
615.08	63.19
615.23	95.96
615.38	51.49
615.54	91.28
615.69	84.26
615.84	86.60
616.00	102.98
616.15	79.58
616.30	81.92
616.46	21.06
616.61	37.45
616.76	98.30
616.92	110.01
617.07	72.56
617.22	46.81
617.37	91.28
617.53	0.00
617.68	0.00
617.83	30.43
617.99	53.83
618.14	67.88
618.29	9.36
618.45	37.45
618.60	0.00
618.75	16.38
618.90	67.88
619.06	102.98
619.21	72.56
619.36	53.83
619.51	95.96
619.67	53.83
619.82	86.60
619.97	79.58
620.12	14.04
620.28	114.69
620.43	124.05
620.58	86.60
620.73	28.09
620.89	72.56
621.04	42.13
621.19	149.79
621.34	37.45
621.49	114.69
621.65	63.19
621.80	84.26
621.95	67.88
622.10	72.56
622.25	23.41
622.41	39.79
622.56	67.88
622.71	93.62
622.86	72.56
623.01	56.17
623.16	67.88
623.32	14.04
623.47	128.73
623.62	2.34
623.77	74.90
623.92	147.45
624.07	105.32
624.23	18.72
624.38	70.22
624.53	98.30
624.68	81.92
624.83	0.00
624.98	25.75
625.13	0.00
625.29	58.51
625.44	0.00
625.59	60.85
625.74	56.17
625.89	39.79
626.04	0.00
626.19	63.19
626.34	49.15
626.49	95.96
626.65	0.00
626.80	84.26
626.95	70.22
627.10	39.79
627.25	102.98
627.40	81.92
627.55	102.98
627.70	42.13
627.85	49.15
628.00	65.54
628.15	58.51
628.30	51.49
628.45	23.41
628.60	0.00
628.76	63.19
628.91	100.64
629.06	42.13
629.21	79.58
629.36	170.86
629.51	58.51
629.66	140.43
629.81	39.79
629.96	11.70
630.11	63.19
630.26	51.49
630.41	51.49
630.56	65.54
630.71	9.36
630.86	9.36
631.01	51.49
631.16	37.45
631.31	77.24
631.46	51.49
631.61	0.00
631.76	124.05
631.91	49.15
632.06	77.24
632.21	74.90
632.36	0.00
632.51	70.22
632.66	49.15
632.81	23.41
632.96	9.36
633.10	0.00
633.25	60.85
633.40	107.66
633.55	72.56
633.70	11.70
633.85	14.04
634.00	56.17
634.15	86.60
634.30	72.56
634.45	140.43
634.60	28.09
634.75	81.92
634.90	37.45
635.05	70.22
635.19	117.03
635.34	63.19
635.49	0.00
635.64	4.68
635.79	126.39
635.94	58.51
636.09	18.72
636.24	65.54
636.39	65.54
636.53	72.56
636.68	23.41
636.83	7.02
636.98	93.62
637.13	49.15
637.28	53.83
637.43	79.58
637.57	14.04
637.72	0.00
637.87	131.07
638.02	14.04
638.17	0.00
638.32	49.15
638.46	121.71
638.61	37.45
638.76	32.77
638.91	51.49
639.06	86.60
639.20	39.79
639.35	14.04
639.50	60.85
639.65	51.49
639.80	77.24
639.94	28.09
640.09	7.02
640.24	37.45
640.39	32.77
640.54	140.43
640.68	84.26
640.83	72.56
640.98	9.36
641.13	88.94
641.27	16.38
641.42	53.83
641.57	4.68
641.72	49.15
641.86	72.56
642.01	77.24
642.16	63.19
642.31	110.01
642.45	14.04
642.60	77.24
642.75	65.54
642.90	67.88
643.04	46.81
643.19	0.00
643.34	0.00
643.48	60.85
643.63	81.92
643.78	4.68
643.93	63.19
644.07	81.92
644.22	30.43
644.37	53.83
644.51	0.00
644.66	0.00
644.81	65.54
644.95	35.11
645.10	72.56
645.25	14.04
645.39	42.13
645.54	53.83
645.69	65.54
645.83	49.15
645.98	53.83
646.13	2.34
646.27	0.00
646.42	63.19
646.57	28.09
646.71	18.72
646.86	46.81
647.00	56.17
647.15	46.81
647.30	81.92
647.44	110.01
647.59	56.17
647.74	49.15
647.88	74.90
648.03	53.83
648.17	65.54
648.32	46.81
648.47	53.83
648.61	25.75
648.76	42.13
648.90	63.19
649.05	42.13
649.20	0.00
649.34	21.06
649.49	67.88
649.63	28.09
649.78	60.85
649.92	0.00
650.07	67.88
650.21	46.81
650.36	0.00
650.51	44.47
650.65	107.66
650.80	0.00
650.94	16.38
651.09	67.88
651.23	0.00
651.38	35.11
651.52	72.56
651.67	11.70
651.81	72.56
651.96	21.06
652.10	21.06
652.25	53.83
652.39	49.15
652.54	93.62
652.68	11.70
652.83	0.00
652.97	7.02
653.12	25.75
653.26	7.02
653.41	23.41
653.55	42.13
653.70	21.06
653.84	44.47
653.99	23.41
654.13	63.19
654.27	25.75
654.42	14.04
654.56	7.02
654.71	16.38
654.85	67.88
655.00	37.45
655.14	60.85
655.29	46.81
655.43	79.58
655.57	124.05
655.72	60.85
655.86	95.96
656.01	65.54
656.15	168.52
656.30	0.00
656.44	60.85
656.58	0.00
656.73	81.92
656.87	0.00
657.01	65.54
657.16	63.19
657.30	30.43
657.45	88.94
657.59	79.58
657.73	46.81
657.88	16.38
658.02	114.69
658.16	65.54
658.31	0.00
658.45	9.36
658.60	65.54
658.74	16.38
658.88	28.09
659.03	35.11
659.17	88.94
659.31	56.17
659.46	56.17
659.60	100.64
659.74	0.00
659.89	63.19
660.03	56.17
660.17	51.49
660.32	56.17
660.46	46.81
660.60	0.00
660.74	7.02
660.89	4.68
661.03	23.41
661.17	53.83
661.32	72.56
661.46	91.28
661.60	39.79
661.74	35.11
661.89	60.85
662.03	91.28
662.17	65.54
662.31	58.51
662.46	65.54
662.60	46.81
662.74	58.51
662.88	102.98
663.03	23.41
663.17	7.02
663.31	65.54
663.45	63.19
663.60	145.11
663.74	84.26
663.88	42.13
664.02	102.98
664.17	44.47
664.31	49.15
664.45	91.28
664.59	14.04
664.73	56.17
664.88	44.47
665.02	56.17
665.16	2.34
665.30	30.43
665.44	30.43
665.59	79.58
665.73	46.81
665.87	93.62
666.01	30.43
666.15	110.01
666.29	30.43
666.44	14.04
666.58	86.60
666.72	46.81
666.86	39.79
667.00	39.79
667.14	0.00
667.28	0.00
667.43	32.77
667.57	72.56
667.71	100.64
667.85	51.49
667.99	37.45
668.13	37.45
668.27	11.70
668.41	58.51
668.56	23.41
668.70	30.43
668.84	25.75
668.98	4.68
669.12	77.24
669.26	98.30
669.40	0.00
669.54	16.38
669.68	0.00
669.82	9.36
669.96	58.51
670.10	65.54
670.25	56.17
670.39	74.90
670.53	46.81
670.67	18.72
670.81	25.75
670.95	46.81
671.09	14.04
671.23	65.54
671.37	91.28
671.51	51.49
671.65	9.36
671.79	37.45
671.93	60.85
672.07	98.30
672.21	53.83
672.35	25.75
672.49	9.36
672.63	81.92
672.77	81.92
672.91	37.45
673.05	39.79
673.19	32.77
673.33	0.00
673.47	25.75
673.61	25.75
673.75	4.68
673.89	119.37
674.03	35.11
674.17	74.90
674.31	65.54
674.45	4.68
674.59	39.79
674.73	65.54
674.87	51.49
675.01	67.88
675.15	51.49
675.29	67.88
675.43	81.92
675.56	56.17
675.70	0.00
675.84	46.81
675.98	28.09
676.12	42.13
676.26	28.09
676.40	77.24
676.54	0.00
676.68	42.13
676.82	23.41
676.96	93.62
677.10	0.00
677.23	0.00
677.37	0.00
677.51	49.15
677.65	79.58
677.79	11.70
677.93	77.24
678.07	98.30
678.21	42.13
678.34	18.72
678.48	77.24
678.62	42.13
678.76	39.79
678.90	56.17
679.04	0.00
679.18	18.72
679.31	65.54
679.45	44.47
679.59	67.88
679.73	60.85
679.87	16.38
680.00	21.06
680.14	25.75
680.28	63.19
680.42	11.70
680.56	0.00
680.70	67.88
680.83	77.24
680.97	95.96
681.11	0.00
681.25	23.41
681.39	32.77
681.52	42.13
681.66	58.51
681.80	0.00
681.94	28.09
682.07	18.72
682.21	74.90
682.35	0.00
682.49	4.68
682.62	0.00
682.76	67.88
682.90	81.92
683.04	42.13
683.17	28.09
683.31	49.15
683.45	18.72
683.59	79.58
683.72	58.51
683.86	60.85
684.00	0.00
684.13	98.30
684.27	0.00
684.41	74.90
684.55	4.68
684.68	35.11
684.82	74.90
684.96	0.00
685.09	65.54
685.23	21.06
685.37	28.09
685.50	86.60
685.64	56.17
685.78	128.73
685.91	7.02
686.05	4.68
686.19	100.64
686.32	56.17
686.46	9.36
686.60	63.19
686.73	16.38
686.87	0.00
687.01	0.00
687.14	56.17
687.28	0.00
687.42	0.00
687.55	53.83
687.69	79.58
687.82	16.38
687.96	53.83
688.10	18.72
688.23	35.11
688.37	0.00
688.50	39.79
688.64	119.37
688.78	14.04
688.91	0.00
689.05	18.72
689.18	23.41
689.32	9.36
689.46	42.13
689.59	37.45
689.73	49.15
689.86	32.77
690.00	74.90
690.13	35.11
690.27	51.49
690.41	67.88
690.54	58.51
690.68	91.28
690.81	65.54
690.95	58.51
691.08	49.15
691.22	18.72
691.35	70.22
691.49	51.49
691.62	0.00
691.76	0.00
691.89	84.26
692.03	53.83
692.16	58.51
692.30	53.83
692.43	23.41
692.57	11.70
692.70	44.47
692.84	4.68
692.97	58.51
693.11	32.77
693.24	0.00
693.38	18.72
693.51	63.19
693.65	21.06
693.78	37.45
693.92	0.00
694.05	0.00
694.19	9.36
694.32	28.09
694.45	25.75
694.59	81.92
694.72	2.34
694.86	23.41
694.99	102.98
695.13	32.77
695.26	21.06
695.39	65.54
695.53	9.36
695.66	37.45
695.80	95.96
695.93	63.19
696.07	37.45
696.20	39.79
696.33	18.72
696.47	70.22
696.60	77.24
696.73	21.06
696.87	18.72
697.00	0.00
697.14	25.75
697.27	0.00
697.40	121.71
697.54	0.00
697.67	91.28
697.80	7.02
697.94	86.60
698.07	79.58
698.21	23.41
698.34	28.09
698.47	0.00
698.61	0.00
698.74	35.11
698.87	72.56
699.01	28.09
699.14	37.45
699.27	25.75
699.40	35.11
699.54	0.00
699.67	32.77
699.80	35.11
699.94	63.19
700.07	0.00
700.20	0.00
700.34	0.00
700.47	0.00
700.60	37.45
700.73	79.58
700.87	14.04
701.00	0.00
701.13	60.85
701.26	49.15
701.40	86.60
701.53	84.26
701.66	0.00
701.79	58.51
701.93	0.00
702.06	98.30
702.19	7.02
702.32	46.81
702.46	42.13
702.59	0.00
702.72	25.75
702.85	18.72
702.99	0.00
703.12	0.00
703.25	58.51
703.38	0.00
703.51	4.68
703.65	4.68
703.78	46.81
703.91	4.68
704.04	58.51
704.17	102.98
704.31	21.06
704.44	77.24
704.57	14.04
704.70	32.77
704.83	42.13
704.96	32.77
705.10	49.15
705.23	77.24
>>>>>End Processed Spectral Data<<<<<
