SpectraSuite Data File
++++++++++++++++++++++++++++++++++++
Date: Fri Oct 04 12:13:29 GMT-05:00 2013
User: price-jones
Dark Spectrum Present: No
Reference Spectrum Present: No
Number of Sampled Component Spectra: 1
Spectrometers: USB2+H05261
Integration Time (usec): 10000 (USB2+H05261)
Spectra Averaged: 1 (USB2+H05261)
Boxcar Smoothing: 0 (USB2+H05261)
Correct for Electrical Dark: No (USB2+H05261)
Strobe/Lamp Enabled: No (USB2+H05261)
Correct for Detector Non-linearity: No (USB2+H05261)
Correct for Stray Light: No (USB2+H05261)
Number of Pixels in Processed Spectrum: 2048
>>>>>Begin Processed Spectral Data<<<<<
365.73	0.00
365.92	0.00
366.12	0.00
366.32	0.00
366.52	0.00
366.72	0.00
366.91	0.00
367.11	0.00
367.31	0.00
367.51	0.00
367.70	0.00
367.90	7.02
368.10	0.00
368.30	0.00
368.49	0.00
368.69	0.00
368.89	0.00
369.09	0.00
369.28	0.00
369.48	0.00
369.68	0.00
369.87	0.00
370.07	0.00
370.27	0.00
370.47	0.00
370.66	0.00
370.86	0.00
371.06	0.00
371.25	0.00
371.45	0.00
371.65	0.00
371.84	9.36
372.04	0.00
372.24	0.00
372.44	16.38
372.63	0.00
372.83	4.68
373.03	0.00
373.22	16.38
373.42	28.09
373.62	0.00
373.81	0.00
374.01	39.79
374.21	0.00
374.40	49.15
374.60	9.36
374.79	23.41
374.99	63.19
375.19	16.38
375.38	4.68
375.58	0.00
375.78	86.60
375.97	0.00
376.17	0.00
376.37	32.77
376.56	25.75
376.76	18.72
376.95	0.00
377.15	60.85
377.35	9.36
377.54	0.00
377.74	0.00
377.93	0.00
378.13	65.54
378.33	51.49
378.52	0.00
378.72	30.43
378.91	72.56
379.11	0.00
379.31	2.34
379.50	53.83
379.70	23.41
379.89	79.58
380.09	11.70
380.28	0.00
380.48	42.13
380.68	23.41
380.87	23.41
381.07	0.00
381.26	16.38
381.46	58.51
381.65	56.17
381.85	84.26
382.04	51.49
382.24	32.77
382.43	0.00
382.63	49.15
382.83	0.00
383.02	0.00
383.22	30.43
383.41	0.00
383.61	4.68
383.80	42.13
384.00	11.70
384.19	0.00
384.39	16.38
384.58	2.34
384.78	0.00
384.97	56.17
385.17	9.36
385.36	23.41
385.56	58.51
385.75	0.00
385.95	32.77
386.14	0.00
386.34	0.00
386.53	46.81
386.72	49.15
386.92	0.00
387.11	35.11
387.31	44.47
387.50	0.00
387.70	23.41
387.89	0.00
388.09	0.00
388.28	49.15
388.48	42.13
388.67	18.72
388.86	7.02
389.06	14.04
389.25	0.00
389.45	0.00
389.64	58.51
389.84	58.51
390.03	70.22
390.22	14.04
390.42	0.00
390.61	65.54
390.81	4.68
391.00	98.30
391.19	105.32
391.39	18.72
391.58	35.11
391.78	0.00
391.97	35.11
392.16	0.00
392.36	58.51
392.55	46.81
392.75	70.22
392.94	2.34
393.13	53.83
393.33	51.49
393.52	25.75
393.71	28.09
393.91	46.81
394.10	0.00
394.29	11.70
394.49	105.32
394.68	9.36
394.88	51.49
395.07	37.45
395.26	79.58
395.46	65.54
395.65	30.43
395.84	53.83
396.04	16.38
396.23	65.54
396.42	37.45
396.62	7.02
396.81	9.36
397.00	0.00
397.19	2.34
397.39	0.00
397.58	11.70
397.77	0.00
397.97	23.41
398.16	0.00
398.35	14.04
398.55	0.00
398.74	60.85
398.93	0.00
399.12	16.38
399.32	0.00
399.51	53.83
399.70	28.09
399.90	74.90
400.09	74.90
400.28	0.00
400.47	58.51
400.67	65.54
400.86	23.41
401.05	23.41
401.24	25.75
401.44	0.00
401.63	0.00
401.82	35.11
402.01	0.00
402.21	21.06
402.40	21.06
402.59	93.62
402.78	58.51
402.97	128.73
403.17	42.13
403.36	0.00
403.55	0.00
403.74	77.24
403.93	0.00
404.13	30.43
404.32	0.00
404.51	0.00
404.70	9.36
404.89	46.81
405.09	14.04
405.28	0.00
405.47	42.13
405.66	39.79
405.85	128.73
406.05	35.11
406.24	16.38
406.43	65.54
406.62	14.04
406.81	107.66
407.00	39.79
407.20	49.15
407.39	53.83
407.58	56.17
407.77	72.56
407.96	35.11
408.15	23.41
408.34	0.00
408.54	7.02
408.73	4.68
408.92	14.04
409.11	0.00
409.30	37.45
409.49	67.88
409.68	42.13
409.87	35.11
410.07	23.41
410.26	30.43
410.45	49.15
410.64	11.70
410.83	0.00
411.02	16.38
411.21	0.00
411.40	37.45
411.59	30.43
411.78	72.56
411.98	21.06
412.17	28.09
412.36	39.79
412.55	0.00
412.74	25.75
412.93	56.17
413.12	117.03
413.31	102.98
413.50	0.00
413.69	0.00
413.88	51.49
414.07	0.00
414.26	0.00
414.45	0.00
414.64	37.45
414.83	30.43
415.02	0.00
415.22	60.85
415.41	0.00
415.60	100.64
415.79	102.98
415.98	32.77
416.17	39.79
416.36	0.00
416.55	0.00
416.74	88.94
416.93	0.00
417.12	79.58
417.31	18.72
417.50	93.62
417.69	0.00
417.88	23.41
418.07	86.60
418.26	37.45
418.45	30.43
418.64	46.81
418.83	0.00
419.02	67.88
419.21	105.32
419.39	0.00
419.58	4.68
419.77	21.06
419.96	2.34
420.15	110.01
420.34	84.26
420.53	0.00
420.72	4.68
420.91	86.60
421.10	60.85
421.29	39.79
421.48	79.58
421.67	16.38
421.86	9.36
422.05	72.56
422.24	25.75
422.43	9.36
422.61	114.69
422.80	0.00
422.99	7.02
423.18	56.17
423.37	32.77
423.56	79.58
423.75	35.11
423.94	16.38
424.13	30.43
424.32	16.38
424.50	0.00
424.69	63.19
424.88	11.70
425.07	0.00
425.26	18.72
425.45	0.00
425.64	4.68
425.83	0.00
426.01	0.00
426.20	0.00
426.39	9.36
426.58	0.00
426.77	18.72
426.96	9.36
427.15	0.00
427.33	2.34
427.52	53.83
427.71	4.68
427.90	14.04
428.09	0.00
428.28	0.00
428.46	91.28
428.65	28.09
428.84	14.04
429.03	18.72
429.22	0.00
429.40	0.00
429.59	0.00
429.78	2.34
429.97	0.00
430.16	0.00
430.34	23.41
430.53	60.85
430.72	72.56
430.91	49.15
431.10	42.13
431.28	42.13
431.47	39.79
431.66	51.49
431.85	9.36
432.03	0.00
432.22	7.02
432.41	23.41
432.60	42.13
432.79	23.41
432.97	79.58
433.16	44.47
433.35	65.54
433.54	0.00
433.72	0.00
433.91	0.00
434.10	35.11
434.28	58.51
434.47	0.00
434.66	42.13
434.85	2.34
435.03	39.79
435.22	70.22
435.41	16.38
435.59	44.47
435.78	49.15
435.97	42.13
436.16	25.75
436.34	74.90
436.53	49.15
436.72	114.69
436.90	14.04
437.09	21.06
437.28	56.17
437.46	32.77
437.65	60.85
437.84	37.45
438.02	35.11
438.21	51.49
438.40	42.13
438.58	42.13
438.77	42.13
438.96	51.49
439.14	0.00
439.33	84.26
439.52	37.45
439.70	14.04
439.89	46.81
440.08	84.26
440.26	0.00
440.45	46.81
440.63	37.45
440.82	37.45
441.01	35.11
441.19	60.85
441.38	21.06
441.57	67.88
441.75	32.77
441.94	91.28
442.12	56.17
442.31	0.00
442.50	0.00
442.68	35.11
442.87	0.00
443.05	16.38
443.24	46.81
443.43	32.77
443.61	0.00
443.80	30.43
443.98	28.09
444.17	138.09
444.35	0.00
444.54	63.19
444.73	28.09
444.91	30.43
445.10	14.04
445.28	9.36
445.47	0.00
445.65	21.06
445.84	35.11
446.02	42.13
446.21	14.04
446.39	53.83
446.58	72.56
446.77	0.00
446.95	9.36
447.14	95.96
447.32	79.58
447.51	14.04
447.69	9.36
447.88	9.36
448.06	4.68
448.25	35.11
448.43	18.72
448.62	32.77
448.80	70.22
448.99	28.09
449.17	18.72
449.36	42.13
449.54	44.47
449.73	58.51
449.91	0.00
450.10	28.09
450.28	0.00
450.46	11.70
450.65	0.00
450.83	70.22
451.02	91.28
451.20	39.79
451.39	4.68
451.57	65.54
451.76	0.00
451.94	44.47
452.13	70.22
452.31	0.00
452.49	23.41
452.68	11.70
452.86	0.00
453.05	25.75
453.23	44.47
453.42	0.00
453.60	56.17
453.78	70.22
453.97	67.88
454.15	37.45
454.34	37.45
454.52	60.85
454.70	23.41
454.89	46.81
455.07	37.45
455.26	39.79
455.44	67.88
455.62	0.00
455.81	0.00
455.99	65.54
456.17	23.41
456.36	0.00
456.54	42.13
456.73	74.90
456.91	0.00
457.09	77.24
457.28	56.17
457.46	79.58
457.64	81.92
457.83	84.26
458.01	4.68
458.19	28.09
458.38	88.94
458.56	67.88
458.74	16.38
458.93	60.85
459.11	2.34
459.29	44.47
459.48	0.00
459.66	56.17
459.84	77.24
460.03	0.00
460.21	14.04
460.39	37.45
460.57	0.00
460.76	74.90
460.94	37.45
461.12	65.54
461.31	102.98
461.49	32.77
461.67	56.17
461.85	21.06
462.04	30.43
462.22	124.05
462.40	0.00
462.59	58.51
462.77	107.66
462.95	28.09
463.13	121.71
463.32	37.45
463.50	11.70
463.68	25.75
463.86	23.41
464.05	0.00
464.23	88.94
464.41	63.19
464.59	23.41
464.78	49.15
464.96	112.35
465.14	2.34
465.32	0.00
465.50	60.85
465.69	16.38
465.87	70.22
466.05	18.72
466.23	21.06
466.41	2.34
466.60	91.28
466.78	56.17
466.96	9.36
467.14	28.09
467.32	42.13
467.51	98.30
467.69	58.51
467.87	119.37
468.05	0.00
468.23	72.56
468.41	30.43
468.60	0.00
468.78	65.54
468.96	0.00
469.14	9.36
469.32	51.49
469.50	0.00
469.69	145.11
469.87	18.72
470.05	0.00
470.23	44.47
470.41	14.04
470.59	2.34
470.77	0.00
470.95	0.00
471.14	135.75
471.32	21.06
471.50	51.49
471.68	51.49
471.86	58.51
472.04	56.17
472.22	28.09
472.40	16.38
472.58	0.00
472.77	0.00
472.95	46.81
473.13	0.00
473.31	37.45
473.49	16.38
473.67	63.19
473.85	88.94
474.03	30.43
474.21	100.64
474.39	9.36
474.57	46.81
474.75	18.72
474.93	9.36
475.12	77.24
475.30	39.79
475.48	67.88
475.66	95.96
475.84	9.36
476.02	81.92
476.20	74.90
476.38	70.22
476.56	51.49
476.74	30.43
476.92	9.36
477.10	0.00
477.28	46.81
477.46	28.09
477.64	39.79
477.82	21.06
478.00	0.00
478.18	9.36
478.36	56.17
478.54	14.04
478.72	37.45
478.90	39.79
479.08	0.00
479.26	0.00
479.44	74.90
479.62	81.92
479.80	51.49
479.98	44.47
480.16	0.00
480.34	4.68
480.52	0.00
480.70	91.28
480.88	4.68
481.06	102.98
481.24	102.98
481.41	56.17
481.59	60.85
481.77	72.56
481.95	0.00
482.13	30.43
482.31	58.51
482.49	0.00
482.67	39.79
482.85	84.26
483.03	11.70
483.21	77.24
483.39	98.30
483.57	44.47
483.74	23.41
483.92	4.68
484.10	0.00
484.28	35.11
484.46	32.77
484.64	107.66
484.82	56.17
485.00	84.26
485.18	14.04
485.35	4.68
485.53	100.64
485.71	67.88
485.89	70.22
486.07	39.79
486.25	4.68
486.43	72.56
486.61	25.75
486.78	58.51
486.96	30.43
487.14	9.36
487.32	9.36
487.50	30.43
487.68	46.81
487.85	0.00
488.03	28.09
488.21	0.00
488.39	9.36
488.57	30.43
488.75	51.49
488.92	74.90
489.10	56.17
489.28	84.26
489.46	42.13
489.64	14.04
489.81	0.00
489.99	11.70
490.17	0.00
490.35	25.75
490.53	133.41
490.70	49.15
490.88	46.81
491.06	72.56
491.24	65.54
491.41	46.81
491.59	0.00
491.77	30.43
491.95	46.81
492.13	23.41
492.30	60.85
492.48	14.04
492.66	14.04
492.84	79.58
493.01	23.41
493.19	70.22
493.37	105.32
493.54	0.00
493.72	70.22
493.90	11.70
494.08	42.13
494.25	74.90
494.43	0.00
494.61	0.00
494.79	16.38
494.96	86.60
495.14	0.00
495.32	28.09
495.49	18.72
495.67	58.51
495.85	18.72
496.02	11.70
496.20	98.30
496.38	0.00
496.55	28.09
496.73	11.70
496.91	9.36
497.09	46.81
497.26	63.19
497.44	30.43
497.62	18.72
497.79	25.75
497.97	95.96
498.14	18.72
498.32	23.41
498.50	2.34
498.67	70.22
498.85	0.00
499.03	84.26
499.20	49.15
499.38	88.94
499.56	35.11
499.73	60.85
499.91	81.92
500.08	56.17
500.26	18.72
500.44	0.00
500.61	117.03
500.79	112.35
500.97	0.00
501.14	72.56
501.32	124.05
501.49	7.02
501.67	0.00
501.84	44.47
502.02	0.00
502.20	124.05
502.37	35.11
502.55	9.36
502.72	105.32
502.90	16.38
503.07	35.11
503.25	4.68
503.43	74.90
503.60	28.09
503.78	30.43
503.95	126.39
504.13	51.49
504.30	84.26
504.48	0.00
504.65	0.00
504.83	56.17
505.01	107.66
505.18	44.47
505.36	23.41
505.53	30.43
505.71	11.70
505.88	49.15
506.06	11.70
506.23	4.68
506.41	35.11
506.58	117.03
506.76	107.66
506.93	56.17
507.11	93.62
507.28	21.06
507.46	23.41
507.63	28.09
507.81	63.19
507.98	46.81
508.16	51.49
508.33	16.38
508.50	35.11
508.68	28.09
508.85	53.83
509.03	0.00
509.20	0.00
509.38	65.54
509.55	49.15
509.73	42.13
509.90	0.00
510.08	4.68
510.25	0.00
510.42	67.88
510.60	56.17
510.77	21.06
510.95	74.90
511.12	93.62
511.30	25.75
511.47	16.38
511.64	100.64
511.82	0.00
511.99	74.90
512.17	91.28
512.34	95.96
512.51	142.77
512.69	28.09
512.86	18.72
513.04	0.00
513.21	23.41
513.38	44.47
513.56	16.38
513.73	32.77
513.90	0.00
514.08	23.41
514.25	28.09
514.43	51.49
514.60	7.02
514.77	0.00
514.95	4.68
515.12	0.00
515.29	53.83
515.47	35.11
515.64	35.11
515.81	32.77
515.99	11.70
516.16	11.70
516.33	46.81
516.51	30.43
516.68	72.56
516.85	39.79
517.03	14.04
517.20	44.47
517.37	46.81
517.54	63.19
517.72	11.70
517.89	0.00
518.06	119.37
518.24	0.00
518.41	14.04
518.58	0.00
518.75	37.45
518.93	16.38
519.10	0.00
519.27	0.00
519.45	0.00
519.62	0.00
519.79	16.38
519.96	126.39
520.14	86.60
520.31	86.60
520.48	0.00
520.65	56.17
520.83	56.17
521.00	161.50
521.17	35.11
521.34	4.68
521.52	14.04
521.69	46.81
521.86	16.38
522.03	0.00
522.20	30.43
522.38	84.26
522.55	65.54
522.72	49.15
522.89	4.68
523.07	30.43
523.24	35.11
523.41	32.77
523.58	63.19
523.75	56.17
523.92	95.96
524.10	58.51
524.27	30.43
524.44	88.94
524.61	21.06
524.78	51.49
524.96	14.04
525.13	42.13
525.30	128.73
525.47	88.94
525.64	70.22
525.81	65.54
525.98	46.81
526.16	0.00
526.33	46.81
526.50	23.41
526.67	70.22
526.84	39.79
527.01	79.58
527.18	65.54
527.36	0.00
527.53	0.00
527.70	11.70
527.87	53.83
528.04	74.90
528.21	49.15
528.38	58.51
528.55	30.43
528.72	107.66
528.89	74.90
529.07	86.60
529.24	39.79
529.41	21.06
529.58	44.47
529.75	51.49
529.92	14.04
530.09	46.81
530.26	14.04
530.43	25.75
530.60	70.22
530.77	42.13
530.94	42.13
531.11	44.47
531.28	14.04
531.46	18.72
531.63	91.28
531.80	14.04
531.97	0.00
532.14	91.28
532.31	37.45
532.48	49.15
532.65	49.15
532.82	77.24
532.99	70.22
533.16	102.98
533.33	30.43
533.50	77.24
533.67	79.58
533.84	81.92
534.01	65.54
534.18	65.54
534.35	0.00
534.52	4.68
534.69	135.75
534.86	37.45
535.03	91.28
535.20	145.11
535.37	11.70
535.54	42.13
535.71	58.51
535.88	65.54
536.05	42.13
536.22	107.66
536.38	28.09
536.55	4.68
536.72	28.09
536.89	72.56
537.06	119.37
537.23	60.85
537.40	2.34
537.57	44.47
537.74	0.00
537.91	28.09
538.08	51.49
538.25	7.02
538.42	32.77
538.59	42.13
538.75	63.19
538.92	56.17
539.09	30.43
539.26	88.94
539.43	98.30
539.60	60.85
539.77	105.32
539.94	91.28
540.11	102.98
540.28	60.85
540.44	44.47
540.61	0.00
540.78	0.00
540.95	0.00
541.12	25.75
541.29	4.68
541.46	42.13
541.62	2.34
541.79	42.13
541.96	51.49
542.13	60.85
542.30	42.13
542.47	0.00
542.63	23.41
542.80	23.41
542.97	14.04
543.14	49.15
543.31	0.00
543.48	0.00
543.64	117.03
543.81	9.36
543.98	0.00
544.15	56.17
544.32	0.00
544.48	35.11
544.65	49.15
544.82	35.11
544.99	0.00
545.16	21.06
545.32	67.88
545.49	72.56
545.66	56.17
545.83	44.47
546.00	72.56
546.16	4.68
546.33	79.58
546.50	23.41
546.67	53.83
546.83	70.22
547.00	0.00
547.17	46.81
547.34	102.98
547.50	23.41
547.67	56.17
547.84	30.43
548.00	91.28
548.17	135.75
548.34	0.00
548.51	2.34
548.67	0.00
548.84	0.00
549.01	63.19
549.18	35.11
549.34	2.34
549.51	49.15
549.68	51.49
549.84	79.58
550.01	0.00
550.18	18.72
550.34	65.54
550.51	65.54
550.68	28.09
550.84	28.09
551.01	23.41
551.18	2.34
551.34	32.77
551.51	7.02
551.68	67.88
551.84	39.79
552.01	0.00
552.18	30.43
552.34	79.58
552.51	74.90
552.68	72.56
552.84	44.47
553.01	0.00
553.18	88.94
553.34	42.13
553.51	72.56
553.67	14.04
553.84	0.00
554.01	65.54
554.17	42.13
554.34	46.81
554.51	0.00
554.67	0.00
554.84	0.00
555.00	138.09
555.17	0.00
555.33	32.77
555.50	28.09
555.67	42.13
555.83	21.06
556.00	0.00
556.16	91.28
556.33	14.04
556.50	46.81
556.66	23.41
556.83	60.85
556.99	70.22
557.16	4.68
557.32	67.88
557.49	95.96
557.65	37.45
557.82	44.47
557.98	84.26
558.15	30.43
558.32	0.00
558.48	49.15
558.65	28.09
558.81	51.49
558.98	46.81
559.14	2.34
559.31	37.45
559.47	32.77
559.64	65.54
559.80	23.41
559.97	56.17
560.13	44.47
560.30	32.77
560.46	79.58
560.63	0.00
560.79	18.72
560.96	63.19
561.12	44.47
561.29	0.00
561.45	0.00
561.61	44.47
561.78	81.92
561.94	25.75
562.11	102.98
562.27	51.49
562.44	100.64
562.60	28.09
562.77	30.43
562.93	88.94
563.10	44.47
563.26	88.94
563.42	2.34
563.59	51.49
563.75	23.41
563.92	88.94
564.08	37.45
564.24	0.00
564.41	72.56
564.57	21.06
564.74	63.19
564.90	39.79
565.07	16.38
565.23	88.94
565.39	28.09
565.56	77.24
565.72	86.60
565.88	21.06
566.05	14.04
566.21	51.49
566.38	53.83
566.54	14.04
566.70	79.58
566.87	70.22
567.03	42.13
567.19	0.00
567.36	7.02
567.52	121.71
567.68	49.15
567.85	0.00
568.01	23.41
568.17	102.98
568.34	46.81
568.50	39.79
568.66	46.81
568.83	65.54
568.99	21.06
569.15	58.51
569.32	39.79
569.48	21.06
569.64	67.88
569.81	21.06
569.97	86.60
570.13	79.58
570.30	77.24
570.46	65.54
570.62	9.36
570.78	93.62
570.95	35.11
571.11	114.69
571.27	28.09
571.43	0.00
571.60	39.79
571.76	0.00
571.92	49.15
572.09	56.17
572.25	28.09
572.41	46.81
572.57	21.06
572.74	79.58
572.90	58.51
573.06	9.36
573.22	21.06
573.38	0.00
573.55	91.28
573.71	49.15
573.87	0.00
574.03	0.00
574.20	35.11
574.36	4.68
574.52	42.13
574.68	0.00
574.84	86.60
575.01	4.68
575.17	81.92
575.33	2.34
575.49	102.98
575.65	79.58
575.82	79.58
575.98	63.19
576.14	21.06
576.30	51.49
576.46	42.13
576.62	100.64
576.79	65.54
576.95	14.04
577.11	0.00
577.27	30.43
577.43	32.77
577.59	95.96
577.75	14.04
577.92	39.79
578.08	51.49
578.24	7.02
578.40	74.90
578.56	93.62
578.72	58.51
578.88	86.60
579.04	14.04
579.21	46.81
579.37	46.81
579.53	7.02
579.69	56.17
579.85	70.22
580.01	98.30
580.17	79.58
580.33	67.88
580.49	70.22
580.65	37.45
580.82	44.47
580.98	18.72
581.14	0.00
581.30	84.26
581.46	84.26
581.62	88.94
581.78	72.56
581.94	138.09
582.10	65.54
582.26	63.19
582.42	49.15
582.58	42.13
582.74	56.17
582.90	14.04
583.06	70.22
583.22	14.04
583.38	60.85
583.54	42.13
583.70	9.36
583.86	49.15
584.02	74.90
584.18	72.56
584.34	81.92
584.50	379.17
584.66	2197.76
584.82	4699.80
584.98	5870.06
585.14	4938.53
585.30	3047.38
585.46	2057.33
585.62	1249.85
585.78	603.86
585.94	271.50
586.10	131.07
586.26	77.24
586.42	100.64
586.58	28.09
586.74	56.17
586.90	84.26
587.06	65.54
587.22	77.24
587.38	49.15
587.54	100.64
587.70	322.99
587.86	493.85
588.02	444.70
588.18	372.15
588.34	210.65
588.49	145.11
588.65	49.15
588.81	100.64
588.97	42.13
589.13	14.04
589.29	112.35
589.45	60.85
589.61	21.06
589.77	4.68
589.93	23.41
590.08	53.83
590.24	77.24
590.40	51.49
590.56	74.90
590.72	84.26
590.88	91.28
591.04	65.54
591.20	46.81
591.35	53.83
591.51	56.17
591.67	98.30
591.83	37.45
591.99	28.09
592.15	39.79
592.31	0.00
592.46	74.90
592.62	37.45
592.78	88.94
592.94	177.88
593.10	67.88
593.26	28.09
593.41	91.28
593.57	30.43
593.73	67.88
593.89	266.82
594.05	578.11
594.20	826.21
594.36	676.41
594.52	475.13
594.68	234.05
594.84	177.88
594.99	140.43
595.15	88.94
595.31	65.54
595.47	70.22
595.62	7.02
595.78	11.70
595.94	79.58
596.10	131.07
596.25	0.00
596.41	37.45
596.57	0.00
596.73	18.72
596.88	63.19
597.04	168.52
597.20	236.39
597.36	191.92
597.51	145.11
597.67	74.90
597.83	84.26
597.99	152.13
598.14	91.28
598.30	88.94
598.46	135.75
598.61	102.98
598.77	65.54
598.93	149.79
599.09	91.28
599.24	42.13
599.40	9.36
599.56	32.77
599.71	7.02
599.87	28.09
600.03	102.98
600.18	0.00
600.34	135.75
600.50	0.00
600.65	9.36
600.81	37.45
600.97	0.00
601.12	7.02
601.28	28.09
601.44	23.41
601.59	0.00
601.75	28.09
601.91	18.72
602.06	49.15
602.22	88.94
602.37	74.90
602.53	173.20
602.69	278.52
602.84	262.14
603.00	184.90
603.16	175.54
603.31	128.73
603.47	105.32
603.62	4.68
603.78	60.85
603.94	39.79
604.09	25.75
604.25	91.28
604.40	53.83
604.56	51.49
604.71	56.17
604.87	30.43
605.03	46.81
605.18	35.11
605.34	42.13
605.49	7.02
605.65	0.00
605.80	60.85
605.96	23.41
606.12	32.77
606.27	56.17
606.43	58.51
606.58	74.90
606.74	145.11
606.89	294.91
607.05	564.07
607.20	739.61
607.36	447.04
607.51	367.46
607.67	271.50
607.82	152.13
607.98	154.48
608.13	95.96
608.29	37.45
608.44	51.49
608.60	51.49
608.75	107.66
608.91	142.77
609.06	468.11
609.22	889.40
609.37	950.26
609.53	931.53
609.68	575.77
609.84	435.34
609.99	297.25
610.15	168.52
610.30	81.92
610.46	88.94
610.61	11.70
610.76	14.04
610.92	79.58
611.07	53.83
611.23	107.66
611.38	100.64
611.54	100.64
611.69	9.36
611.84	2.34
612.00	42.13
612.15	63.19
612.31	16.38
612.46	16.38
612.62	23.41
612.77	0.00
612.92	88.94
613.08	53.83
613.23	53.83
613.39	4.68
613.54	105.32
613.69	512.58
613.85	1135.16
614.00	1598.59
614.15	1626.67
614.31	1249.85
614.46	826.21
614.62	521.94
614.77	376.83
614.92	189.58
615.08	77.24
615.23	58.51
615.38	11.70
615.54	88.94
615.69	180.22
615.84	205.97
616.00	388.53
616.15	507.90
616.30	327.68
616.46	259.80
616.61	198.95
616.76	124.05
616.92	112.35
617.07	93.62
617.22	0.00
617.37	117.03
617.53	39.79
617.68	37.45
617.83	126.39
617.99	28.09
618.14	53.83
618.29	63.19
618.45	39.79
618.60	21.06
618.75	105.32
618.90	44.47
619.06	37.45
619.21	88.94
619.36	2.34
619.51	49.15
619.67	16.38
619.82	35.11
619.97	28.09
620.12	9.36
620.28	28.09
620.43	58.51
620.58	25.75
620.73	11.70
620.89	105.32
621.04	112.35
621.19	81.92
621.34	297.25
621.49	287.89
621.65	262.14
621.80	133.41
621.95	142.77
622.10	112.35
622.25	74.90
622.41	37.45
622.56	37.45
622.71	86.60
622.86	0.00
623.01	0.00
623.16	28.09
623.32	51.49
623.47	0.00
623.62	0.00
623.77	72.56
623.92	0.00
624.07	37.45
624.23	42.13
624.38	0.00
624.53	18.72
624.68	11.70
624.83	128.73
624.98	0.00
625.13	88.94
625.29	42.13
625.44	84.26
625.59	79.58
625.74	51.49
625.89	86.60
626.04	259.80
626.19	653.01
626.34	828.55
626.49	894.08
626.65	744.29
626.80	463.43
626.95	299.59
627.10	234.05
627.25	145.11
627.40	25.75
627.55	56.17
627.70	86.60
627.85	0.00
628.00	60.85
628.15	46.81
628.30	44.47
628.45	18.72
628.60	46.81
628.76	51.49
628.91	0.00
629.06	23.41
629.21	79.58
629.36	44.47
629.51	0.00
629.66	51.49
629.81	49.15
629.96	46.81
630.11	259.80
630.26	294.91
630.41	189.58
630.56	227.03
630.71	147.45
630.86	70.22
631.01	28.09
631.16	0.00
631.31	91.28
631.46	14.04
631.61	11.70
631.76	0.00
631.91	49.15
632.06	95.96
632.21	102.98
632.36	81.92
632.51	0.00
632.66	114.69
632.81	175.54
632.96	379.17
633.10	578.11
633.25	704.50
633.40	559.39
633.55	346.40
633.70	351.08
633.85	166.18
634.00	133.41
634.15	72.56
634.30	0.00
634.45	30.43
634.60	46.81
634.75	60.85
634.90	37.45
635.05	51.49
635.19	16.38
635.34	4.68
635.49	70.22
635.64	14.04
635.79	37.45
635.94	4.68
636.09	98.30
636.24	0.00
636.39	72.56
636.53	18.72
636.68	7.02
636.83	58.51
636.98	51.49
637.13	49.15
637.28	44.47
637.43	67.88
637.57	117.03
637.72	379.17
637.87	793.44
638.02	1048.56
638.17	1100.05
638.32	814.51
638.46	554.71
638.61	447.04
638.76	255.12
638.91	131.07
639.06	107.66
639.20	28.09
639.35	98.30
639.50	70.22
639.65	578.11
639.80	1233.46
639.94	1792.85
640.09	1767.10
640.24	1291.98
640.39	894.08
640.54	601.52
640.68	348.74
640.83	177.88
640.98	126.39
641.13	91.28
641.27	51.49
641.42	79.58
641.57	70.22
641.72	77.24
641.86	98.30
642.01	51.49
642.16	93.62
642.31	79.58
642.45	114.69
642.60	60.85
642.75	42.13
642.90	0.00
643.04	35.11
643.19	72.56
643.34	112.35
643.48	32.77
643.63	0.00
643.78	4.68
643.93	0.00
644.07	53.83
644.22	4.68
644.37	0.00
644.51	32.77
644.66	23.41
644.81	37.45
644.95	0.00
645.10	39.79
645.25	7.02
645.39	0.00
645.54	0.00
645.69	0.00
645.83	44.47
645.98	91.28
646.13	42.13
646.27	51.49
646.42	0.00
646.57	0.00
646.71	63.19
646.86	0.00
647.00	11.70
647.15	70.22
647.30	14.04
647.44	42.13
647.59	32.77
647.74	91.28
647.88	14.04
648.03	98.30
648.17	32.77
648.32	63.19
648.47	79.58
648.61	37.45
648.76	91.28
648.90	0.00
649.05	0.00
649.20	60.85
649.34	21.06
649.49	63.19
649.63	0.00
649.78	16.38
649.92	49.15
650.07	145.11
650.21	517.26
650.36	758.33
650.51	976.00
650.65	837.91
650.80	554.71
650.94	428.32
651.09	243.42
651.23	145.11
651.38	25.75
651.52	0.00
651.67	37.45
651.81	60.85
651.96	21.06
652.10	98.30
652.25	30.43
652.39	63.19
652.54	30.43
652.68	74.90
652.83	173.20
652.97	285.55
653.12	311.29
653.26	327.68
653.41	271.50
653.55	149.79
653.70	112.35
653.84	102.98
653.99	60.85
654.13	53.83
654.27	77.24
654.42	9.36
654.56	56.17
654.71	110.01
654.85	0.00
655.00	23.41
655.14	42.13
655.29	21.06
655.43	35.11
655.57	35.11
655.72	88.94
655.86	0.00
656.01	28.09
656.15	53.83
656.30	77.24
656.44	0.00
656.58	14.04
656.73	70.22
656.87	0.00
657.01	0.00
657.16	0.00
657.30	60.85
657.45	21.06
657.59	39.79
657.73	16.38
657.88	60.85
658.02	32.77
658.16	67.88
658.31	58.51
658.45	0.00
658.60	16.38
658.74	0.00
658.88	14.04
659.03	30.43
659.17	23.41
659.31	112.35
659.46	285.55
659.60	344.06
659.74	463.43
659.89	425.98
660.03	264.48
660.17	250.44
660.32	163.84
660.46	105.32
660.60	124.05
660.74	0.00
660.89	4.68
661.03	65.54
661.17	67.88
661.32	37.45
661.46	60.85
661.60	63.19
661.74	25.75
661.89	44.47
662.03	32.77
662.17	28.09
662.31	0.00
662.46	35.11
662.60	98.30
662.74	79.58
662.88	39.79
663.03	7.02
663.17	65.54
663.31	42.13
663.45	18.72
663.60	56.17
663.74	16.38
663.88	0.00
664.02	11.70
664.17	9.36
664.31	72.56
664.45	32.77
664.59	60.85
664.73	30.43
664.88	84.26
665.02	74.90
665.16	32.77
665.30	42.13
665.44	74.90
665.59	65.54
665.73	11.70
665.87	56.17
666.01	72.56
666.15	0.00
666.29	65.54
666.44	112.35
666.58	86.60
666.72	37.45
666.86	93.62
667.00	58.51
667.14	49.15
667.28	196.60
667.43	435.34
667.57	664.71
667.71	788.76
667.85	739.61
667.99	514.92
668.13	353.42
668.27	264.48
668.41	147.45
668.56	95.96
668.70	88.94
668.84	28.09
668.98	58.51
669.12	46.81
669.26	42.13
669.40	84.26
669.54	58.51
669.68	0.00
669.82	11.70
669.96	0.00
670.10	0.00
670.25	18.72
670.39	14.04
670.53	98.30
670.67	0.00
670.81	32.77
670.95	46.81
671.09	35.11
671.23	161.50
671.37	341.72
671.51	493.85
671.65	512.58
671.79	454.06
671.93	332.36
672.07	166.18
672.21	175.54
672.35	84.26
672.49	81.92
672.63	11.70
672.77	77.24
672.91	0.00
673.05	70.22
673.19	0.00
673.33	49.15
673.47	67.88
673.61	44.47
673.75	79.58
673.89	21.06
674.03	77.24
674.17	53.83
674.31	79.58
674.45	37.45
674.59	37.45
674.73	53.83
674.87	0.00
675.01	56.17
675.15	16.38
675.29	58.51
675.43	63.19
675.56	0.00
675.70	88.94
675.84	4.68
675.98	51.49
676.12	0.00
676.26	14.04
676.40	21.06
676.54	49.15
676.68	60.85
676.82	98.30
676.96	4.68
677.10	35.11
677.23	100.64
677.37	32.77
677.51	60.85
677.65	35.11
677.79	11.70
677.93	21.06
678.07	16.38
678.21	70.22
678.34	0.00
678.48	0.00
678.62	74.90
678.76	28.09
678.90	77.24
679.04	63.19
679.18	21.06
679.31	44.47
679.45	0.00
679.59	56.17
679.73	7.02
679.87	37.45
680.00	77.24
680.14	0.00
680.28	46.81
680.42	51.49
680.56	32.77
680.70	2.34
680.83	30.43
680.97	67.88
681.11	60.85
681.25	67.88
681.39	28.09
681.52	16.38
681.66	30.43
681.80	53.83
681.94	0.00
682.07	0.00
682.21	37.45
682.35	49.15
682.49	0.00
682.62	0.00
682.76	0.00
682.90	30.43
683.04	60.85
683.17	135.75
683.31	46.81
683.45	0.00
683.59	21.06
683.72	9.36
683.86	72.56
684.00	42.13
684.13	81.92
684.27	0.00
684.41	14.04
684.55	7.02
684.68	81.92
684.82	84.26
684.96	77.24
685.09	7.02
685.23	0.00
685.37	0.00
685.50	70.22
685.64	46.81
685.78	0.00
685.91	0.00
686.05	102.98
686.19	84.26
686.32	37.45
686.46	74.90
686.60	70.22
686.73	37.45
686.87	95.96
687.01	81.92
687.14	30.43
687.28	70.22
687.42	63.19
687.55	18.72
687.69	56.17
687.82	0.00
687.96	0.00
688.10	46.81
688.23	56.17
688.37	30.43
688.50	49.15
688.64	2.34
688.78	14.04
688.91	21.06
689.05	0.00
689.18	58.51
689.32	46.81
689.46	16.38
689.59	53.83
689.73	74.90
689.86	42.13
690.00	67.88
690.13	60.85
690.27	4.68
690.41	0.00
690.54	60.85
690.68	14.04
690.81	37.45
690.95	32.77
691.08	0.00
691.22	0.00
691.35	117.03
691.49	117.03
691.62	0.00
691.76	121.71
691.89	42.13
692.03	21.06
692.16	63.19
692.30	67.88
692.43	131.07
692.57	264.48
692.70	294.91
692.84	297.25
692.97	280.86
693.11	196.60
693.24	191.92
693.38	159.16
693.51	140.43
693.65	56.17
693.78	32.77
693.92	9.36
694.05	14.04
694.19	79.58
694.32	154.48
694.45	135.75
694.59	49.15
694.72	0.00
694.86	98.30
694.99	37.45
695.13	32.77
695.26	58.51
695.39	28.09
695.53	21.06
695.66	44.47
695.80	11.70
695.93	35.11
696.07	0.00
696.20	7.02
696.33	79.58
696.47	84.26
696.60	0.00
696.73	4.68
696.87	28.09
697.00	16.38
697.14	0.00
697.27	91.28
697.40	58.51
697.54	23.41
697.67	37.45
697.80	63.19
697.94	21.06
698.07	25.75
698.21	98.30
698.34	39.79
698.47	0.00
698.61	77.24
698.74	112.35
698.87	56.17
699.01	23.41
699.14	0.00
699.27	58.51
699.40	93.62
699.54	18.72
699.67	0.00
699.80	35.11
699.94	18.72
700.07	0.00
700.20	0.00
700.34	14.04
700.47	0.00
700.60	77.24
700.73	91.28
700.87	72.56
701.00	39.79
701.13	107.66
701.26	11.70
701.40	39.79
701.53	7.02
701.66	0.00
701.79	25.75
701.93	46.81
702.06	46.81
702.19	67.88
702.32	63.19
702.46	63.19
702.59	25.75
702.72	67.88
702.85	273.84
702.99	463.43
703.12	575.77
703.25	699.82
703.38	624.92
703.51	416.62
703.65	344.06
703.78	257.46
703.91	184.90
704.04	84.26
704.17	35.11
704.31	95.96
704.44	65.54
704.57	142.77
704.70	42.13
704.83	25.75
704.96	21.06
705.10	23.41
705.23	0.00
>>>>>End Processed Spectral Data<<<<<
