SpectraSuite Data File
++++++++++++++++++++++++++++++++++++
Date: Fri Oct 04 12:13:35 GMT-05:00 2013
User: price-jones
Dark Spectrum Present: No
Reference Spectrum Present: No
Number of Sampled Component Spectra: 1
Spectrometers: USB2+H05261
Integration Time (usec): 10000 (USB2+H05261)
Spectra Averaged: 1 (USB2+H05261)
Boxcar Smoothing: 0 (USB2+H05261)
Correct for Electrical Dark: No (USB2+H05261)
Strobe/Lamp Enabled: No (USB2+H05261)
Correct for Detector Non-linearity: No (USB2+H05261)
Correct for Stray Light: No (USB2+H05261)
Number of Pixels in Processed Spectrum: 2048
>>>>>Begin Processed Spectral Data<<<<<
365.73	60.85
365.92	60.85
366.12	60.85
366.32	0.00
366.52	0.00
366.72	0.00
366.91	0.00
367.11	0.00
367.31	0.00
367.51	0.00
367.70	0.00
367.90	0.00
368.10	0.00
368.30	0.00
368.49	0.00
368.69	0.00
368.89	0.00
369.09	0.00
369.28	0.00
369.48	0.00
369.68	0.00
369.87	0.00
370.07	0.00
370.27	0.00
370.47	0.00
370.66	0.00
370.86	0.00
371.06	0.00
371.25	0.00
371.45	23.41
371.65	16.38
371.84	28.09
372.04	39.79
372.24	30.43
372.44	0.00
372.63	56.17
372.83	14.04
373.03	58.51
373.22	60.85
373.42	30.43
373.62	28.09
373.81	21.06
374.01	0.00
374.21	67.88
374.40	107.66
374.60	23.41
374.79	0.00
374.99	63.19
375.19	44.47
375.38	35.11
375.58	21.06
375.78	84.26
375.97	79.58
376.17	2.34
376.37	37.45
376.56	98.30
376.76	56.17
376.95	0.00
377.15	16.38
377.35	23.41
377.54	53.83
377.74	2.34
377.93	72.56
378.13	0.00
378.33	32.77
378.52	2.34
378.72	0.00
378.91	46.81
379.11	0.00
379.31	0.00
379.50	18.72
379.70	49.15
379.89	58.51
380.09	67.88
380.28	79.58
380.48	72.56
380.68	9.36
380.87	42.13
381.07	65.54
381.26	9.36
381.46	0.00
381.65	0.00
381.85	11.70
382.04	56.17
382.24	0.00
382.43	0.00
382.63	30.43
382.83	30.43
383.02	58.51
383.22	42.13
383.41	0.00
383.61	35.11
383.80	30.43
384.00	51.49
384.19	18.72
384.39	25.75
384.58	63.19
384.78	28.09
384.97	100.64
385.17	0.00
385.36	35.11
385.56	25.75
385.75	0.00
385.95	0.00
386.14	0.00
386.34	37.45
386.53	72.56
386.72	46.81
386.92	32.77
387.11	70.22
387.31	0.00
387.50	28.09
387.70	65.54
387.89	18.72
388.09	0.00
388.28	0.00
388.48	23.41
388.67	0.00
388.86	39.79
389.06	21.06
389.25	0.00
389.45	77.24
389.64	81.92
389.84	79.58
390.03	23.41
390.22	28.09
390.42	39.79
390.61	42.13
390.81	7.02
391.00	70.22
391.19	2.34
391.39	37.45
391.58	23.41
391.78	9.36
391.97	60.85
392.16	37.45
392.36	0.00
392.55	49.15
392.75	0.00
392.94	95.96
393.13	21.06
393.33	0.00
393.52	0.00
393.71	42.13
393.91	0.00
394.10	18.72
394.29	25.75
394.49	53.83
394.68	77.24
394.88	37.45
395.07	0.00
395.26	30.43
395.46	91.28
395.65	56.17
395.84	16.38
396.04	39.79
396.23	58.51
396.42	51.49
396.62	30.43
396.81	30.43
397.00	91.28
397.19	0.00
397.39	14.04
397.58	23.41
397.77	72.56
397.97	39.79
398.16	30.43
398.35	51.49
398.55	2.34
398.74	53.83
398.93	7.02
399.12	0.00
399.32	0.00
399.51	25.75
399.70	30.43
399.90	32.77
400.09	53.83
400.28	32.77
400.47	105.32
400.67	39.79
400.86	11.70
401.05	65.54
401.24	0.00
401.44	112.35
401.63	93.62
401.82	98.30
402.01	32.77
402.21	0.00
402.40	37.45
402.59	9.36
402.78	74.90
402.97	21.06
403.17	37.45
403.36	30.43
403.55	39.79
403.74	0.00
403.93	37.45
404.13	35.11
404.32	0.00
404.51	37.45
404.70	49.15
404.89	35.11
405.09	21.06
405.28	0.00
405.47	0.00
405.66	0.00
405.85	49.15
406.05	79.58
406.24	81.92
406.43	84.26
406.62	0.00
406.81	81.92
407.00	16.38
407.20	18.72
407.39	56.17
407.58	35.11
407.77	51.49
407.96	121.71
408.15	0.00
408.34	2.34
408.54	2.34
408.73	0.00
408.92	28.09
409.11	30.43
409.30	11.70
409.49	0.00
409.68	0.00
409.87	0.00
410.07	0.00
410.26	0.00
410.45	0.00
410.64	30.43
410.83	7.02
411.02	0.00
411.21	102.98
411.40	39.79
411.59	35.11
411.78	21.06
411.98	21.06
412.17	63.19
412.36	77.24
412.55	46.81
412.74	77.24
412.93	4.68
413.12	56.17
413.31	84.26
413.50	25.75
413.69	79.58
413.88	60.85
414.07	51.49
414.26	77.24
414.45	65.54
414.64	114.69
414.83	46.81
415.02	0.00
415.22	0.00
415.41	18.72
415.60	86.60
415.79	63.19
415.98	56.17
416.17	0.00
416.36	60.85
416.55	86.60
416.74	0.00
416.93	77.24
417.12	53.83
417.31	37.45
417.50	42.13
417.69	117.03
417.88	65.54
418.07	44.47
418.26	32.77
418.45	28.09
418.64	21.06
418.83	0.00
419.02	9.36
419.21	18.72
419.39	30.43
419.58	28.09
419.77	58.51
419.96	51.49
420.15	21.06
420.34	14.04
420.53	4.68
420.72	70.22
420.91	63.19
421.10	53.83
421.29	53.83
421.48	4.68
421.67	74.90
421.86	0.00
422.05	11.70
422.24	74.90
422.43	138.09
422.61	32.77
422.80	37.45
422.99	53.83
423.18	72.56
423.37	37.45
423.56	65.54
423.75	0.00
423.94	81.92
424.13	14.04
424.32	0.00
424.50	39.79
424.69	63.19
424.88	67.88
425.07	42.13
425.26	32.77
425.45	65.54
425.64	37.45
425.83	53.83
426.01	102.98
426.20	23.41
426.39	46.81
426.58	49.15
426.77	124.05
426.96	11.70
427.15	28.09
427.33	102.98
427.52	21.06
427.71	60.85
427.90	0.00
428.09	49.15
428.28	16.38
428.46	56.17
428.65	84.26
428.84	58.51
429.03	114.69
429.22	0.00
429.40	2.34
429.59	46.81
429.78	35.11
429.97	70.22
430.16	77.24
430.34	0.00
430.53	23.41
430.72	0.00
430.91	4.68
431.10	65.54
431.28	72.56
431.47	49.15
431.66	32.77
431.85	74.90
432.03	63.19
432.22	32.77
432.41	42.13
432.60	56.17
432.79	39.79
432.97	9.36
433.16	56.17
433.35	56.17
433.54	37.45
433.72	37.45
433.91	0.00
434.10	35.11
434.28	23.41
434.47	72.56
434.66	46.81
434.85	0.00
435.03	44.47
435.22	0.00
435.41	2.34
435.59	86.60
435.78	131.07
435.97	79.58
436.16	30.43
436.34	37.45
436.53	0.00
436.72	28.09
436.90	11.70
437.09	18.72
437.28	0.00
437.46	67.88
437.65	86.60
437.84	51.49
438.02	121.71
438.21	11.70
438.40	0.00
438.58	32.77
438.77	44.47
438.96	63.19
439.14	0.00
439.33	23.41
439.52	16.38
439.70	74.90
439.89	32.77
440.08	14.04
440.26	119.37
440.45	81.92
440.63	91.28
440.82	35.11
441.01	35.11
441.19	65.54
441.38	7.02
441.57	0.00
441.75	9.36
441.94	49.15
442.12	79.58
442.31	23.41
442.50	23.41
442.68	28.09
442.87	18.72
443.05	51.49
443.24	11.70
443.43	49.15
443.61	49.15
443.80	65.54
443.98	74.90
444.17	28.09
444.35	56.17
444.54	0.00
444.73	60.85
444.91	37.45
445.10	100.64
445.28	11.70
445.47	23.41
445.65	2.34
445.84	91.28
446.02	63.19
446.21	81.92
446.39	53.83
446.58	65.54
446.77	21.06
446.95	93.62
447.14	65.54
447.32	79.58
447.51	4.68
447.69	81.92
447.88	21.06
448.06	11.70
448.25	9.36
448.43	37.45
448.62	30.43
448.80	35.11
448.99	16.38
449.17	18.72
449.36	102.98
449.54	81.92
449.73	56.17
449.91	49.15
450.10	32.77
450.28	30.43
450.46	70.22
450.65	56.17
450.83	7.02
451.02	46.81
451.20	154.48
451.39	86.60
451.57	65.54
451.76	107.66
451.94	42.13
452.13	42.13
452.31	119.37
452.49	77.24
452.68	110.01
452.86	51.49
453.05	77.24
453.23	51.49
453.42	91.28
453.60	102.98
453.78	70.22
453.97	79.58
454.15	0.00
454.34	72.56
454.52	51.49
454.70	60.85
454.89	0.00
455.07	44.47
455.26	58.51
455.44	51.49
455.62	28.09
455.81	9.36
455.99	0.00
456.17	28.09
456.36	95.96
456.54	21.06
456.73	0.00
456.91	79.58
457.09	18.72
457.28	72.56
457.46	32.77
457.64	44.47
457.83	88.94
458.01	21.06
458.19	102.98
458.38	28.09
458.56	88.94
458.74	0.00
458.93	84.26
459.11	37.45
459.29	16.38
459.48	16.38
459.66	65.54
459.84	77.24
460.03	60.85
460.21	7.02
460.39	91.28
460.57	32.77
460.76	77.24
460.94	95.96
461.12	32.77
461.31	49.15
461.49	35.11
461.67	53.83
461.85	51.49
462.04	98.30
462.22	145.11
462.40	86.60
462.59	88.94
462.77	42.13
462.95	93.62
463.13	58.51
463.32	2.34
463.50	131.07
463.68	53.83
463.86	63.19
464.05	49.15
464.23	84.26
464.41	32.77
464.59	93.62
464.78	28.09
464.96	30.43
465.14	0.00
465.32	44.47
465.50	79.58
465.69	46.81
465.87	63.19
466.05	56.17
466.23	63.19
466.41	121.71
466.60	28.09
466.78	100.64
466.96	128.73
467.14	37.45
467.32	28.09
467.51	42.13
467.69	23.41
467.87	189.58
468.05	51.49
468.23	30.43
468.41	23.41
468.60	56.17
468.78	60.85
468.96	91.28
469.14	53.83
469.32	0.00
469.50	25.75
469.69	9.36
469.87	49.15
470.05	95.96
470.23	11.70
470.41	23.41
470.59	79.58
470.77	107.66
470.95	67.88
471.14	11.70
471.32	16.38
471.50	86.60
471.68	28.09
471.86	91.28
472.04	56.17
472.22	0.00
472.40	84.26
472.58	72.56
472.77	51.49
472.95	74.90
473.13	63.19
473.31	72.56
473.49	84.26
473.67	112.35
473.85	56.17
474.03	114.69
474.21	86.60
474.39	67.88
474.57	107.66
474.75	35.11
474.93	7.02
475.12	56.17
475.30	95.96
475.48	42.13
475.66	86.60
475.84	65.54
476.02	56.17
476.20	70.22
476.38	51.49
476.56	42.13
476.74	0.00
476.92	0.00
477.10	46.81
477.28	84.26
477.46	44.47
477.64	70.22
477.82	72.56
478.00	74.90
478.18	102.98
478.36	9.36
478.54	51.49
478.72	65.54
478.90	58.51
479.08	53.83
479.26	95.96
479.44	107.66
479.62	67.88
479.80	86.60
479.98	124.05
480.16	91.28
480.34	67.88
480.52	124.05
480.70	119.37
480.88	93.62
481.06	84.26
481.24	32.77
481.41	65.54
481.59	7.02
481.77	32.77
481.95	79.58
482.13	39.79
482.31	86.60
482.49	70.22
482.67	121.71
482.85	30.43
483.03	67.88
483.21	77.24
483.39	74.90
483.57	53.83
483.74	46.81
483.92	93.62
484.10	0.00
484.28	91.28
484.46	72.56
484.64	74.90
484.82	7.02
485.00	21.06
485.18	86.60
485.35	67.88
485.53	107.66
485.71	56.17
485.89	112.35
486.07	44.47
486.25	133.41
486.43	119.37
486.61	0.00
486.78	37.45
486.96	84.26
487.14	58.51
487.32	79.58
487.50	72.56
487.68	110.01
487.85	28.09
488.03	105.32
488.21	0.00
488.39	32.77
488.57	67.88
488.75	25.75
488.92	112.35
489.10	9.36
489.28	147.45
489.46	56.17
489.64	39.79
489.81	58.51
489.99	70.22
490.17	102.98
490.35	60.85
490.53	86.60
490.70	102.98
490.88	65.54
491.06	42.13
491.24	46.81
491.41	98.30
491.59	14.04
491.77	81.92
491.95	117.03
492.13	0.00
492.30	100.64
492.48	49.15
492.66	147.45
492.84	65.54
493.01	145.11
493.19	56.17
493.37	65.54
493.54	86.60
493.72	35.11
493.90	128.73
494.08	58.51
494.25	93.62
494.43	107.66
494.61	105.32
494.79	77.24
494.96	46.81
495.14	95.96
495.32	18.72
495.49	112.35
495.67	49.15
495.85	74.90
496.02	79.58
496.20	44.47
496.38	60.85
496.55	65.54
496.73	102.98
496.91	44.47
497.09	72.56
497.26	95.96
497.44	49.15
497.62	79.58
497.79	42.13
497.97	42.13
498.14	63.19
498.32	86.60
498.50	152.13
498.67	44.47
498.85	44.47
499.03	107.66
499.20	133.41
499.38	56.17
499.56	91.28
499.73	30.43
499.91	74.90
500.08	63.19
500.26	105.32
500.44	30.43
500.61	140.43
500.79	58.51
500.97	58.51
501.14	95.96
501.32	18.72
501.49	93.62
501.67	95.96
501.84	131.07
502.02	100.64
502.20	51.49
502.37	18.72
502.55	98.30
502.72	117.03
502.90	112.35
503.07	117.03
503.25	11.70
503.43	51.49
503.60	74.90
503.78	51.49
503.95	84.26
504.13	16.38
504.30	131.07
504.48	77.24
504.65	107.66
504.83	84.26
505.01	46.81
505.18	88.94
505.36	86.60
505.53	98.30
505.71	84.26
505.88	133.41
506.06	114.69
506.23	81.92
506.41	138.09
506.58	72.56
506.76	35.11
506.93	49.15
507.11	70.22
507.28	49.15
507.46	154.48
507.63	25.75
507.81	51.49
507.98	42.13
508.16	81.92
508.33	152.13
508.50	95.96
508.68	30.43
508.85	56.17
509.03	98.30
509.20	39.79
509.38	60.85
509.55	72.56
509.73	152.13
509.90	131.07
510.08	7.02
510.25	23.41
510.42	91.28
510.60	37.45
510.77	88.94
510.95	107.66
511.12	53.83
511.30	53.83
511.47	72.56
511.64	56.17
511.82	93.62
511.99	110.01
512.17	70.22
512.34	145.11
512.51	72.56
512.69	70.22
512.86	51.49
513.04	84.26
513.21	56.17
513.38	81.92
513.56	98.30
513.73	119.37
513.90	35.11
514.08	126.39
514.25	84.26
514.43	74.90
514.60	74.90
514.77	84.26
514.95	114.69
515.12	161.50
515.29	140.43
515.47	0.00
515.64	152.13
515.81	91.28
515.99	44.47
516.16	65.54
516.33	44.47
516.51	67.88
516.68	74.90
516.85	107.66
517.03	95.96
517.20	77.24
517.37	37.45
517.54	86.60
517.72	67.88
517.89	42.13
518.06	65.54
518.24	110.01
518.41	91.28
518.58	100.64
518.75	53.83
518.93	37.45
519.10	88.94
519.27	72.56
519.45	25.75
519.62	81.92
519.79	102.98
519.96	191.92
520.14	23.41
520.31	98.30
520.48	11.70
520.65	58.51
520.83	84.26
521.00	65.54
521.17	72.56
521.34	98.30
521.52	72.56
521.69	126.39
521.86	56.17
522.03	67.88
522.20	70.22
522.38	121.71
522.55	135.75
522.72	126.39
522.89	107.66
523.07	117.03
523.24	86.60
523.41	35.11
523.58	28.09
523.75	67.88
523.92	86.60
524.10	21.06
524.27	84.26
524.44	60.85
524.61	63.19
524.78	0.00
524.96	14.04
525.13	63.19
525.30	126.39
525.47	100.64
525.64	77.24
525.81	65.54
525.98	65.54
526.16	124.05
526.33	42.13
526.50	119.37
526.67	81.92
526.84	119.37
527.01	100.64
527.18	133.41
527.36	84.26
527.53	58.51
527.70	95.96
527.87	51.49
528.04	42.13
528.21	42.13
528.38	72.56
528.55	42.13
528.72	63.19
528.89	121.71
529.07	124.05
529.24	84.26
529.41	35.11
529.58	88.94
529.75	100.64
529.92	95.96
530.09	39.79
530.26	93.62
530.43	95.96
530.60	25.75
530.77	72.56
530.94	105.32
531.11	98.30
531.28	49.15
531.46	102.98
531.63	84.26
531.80	95.96
531.97	72.56
532.14	105.32
532.31	30.43
532.48	72.56
532.65	49.15
532.82	49.15
532.99	84.26
533.16	91.28
533.33	102.98
533.50	67.88
533.67	58.51
533.84	98.30
534.01	81.92
534.18	102.98
534.35	67.88
534.52	81.92
534.69	95.96
534.86	53.83
535.03	128.73
535.20	63.19
535.37	138.09
535.54	65.54
535.71	60.85
535.88	117.03
536.05	88.94
536.22	110.01
536.38	65.54
536.55	46.81
536.72	84.26
536.89	105.32
537.06	2.34
537.23	126.39
537.40	128.73
537.57	100.64
537.74	25.75
537.91	58.51
538.08	126.39
538.25	149.79
538.42	95.96
538.59	93.62
538.75	63.19
538.92	114.69
539.09	152.13
539.26	44.47
539.43	84.26
539.60	70.22
539.77	114.69
539.94	102.98
540.11	74.90
540.28	119.37
540.44	25.75
540.61	128.73
540.78	102.98
540.95	65.54
541.12	67.88
541.29	91.28
541.46	100.64
541.62	46.81
541.79	60.85
541.96	79.58
542.13	105.32
542.30	70.22
542.47	77.24
542.63	93.62
542.80	79.58
542.97	58.51
543.14	58.51
543.31	77.24
543.48	65.54
543.64	70.22
543.81	95.96
543.98	91.28
544.15	121.71
544.32	74.90
544.48	187.24
544.65	16.38
544.82	128.73
544.99	121.71
545.16	14.04
545.32	58.51
545.49	88.94
545.66	110.01
545.83	86.60
546.00	56.17
546.16	18.72
546.33	0.00
546.50	79.58
546.67	149.79
546.83	93.62
547.00	46.81
547.17	70.22
547.34	121.71
547.50	110.01
547.67	74.90
547.84	121.71
548.00	147.45
548.17	65.54
548.34	138.09
548.51	35.11
548.67	112.35
548.84	42.13
549.01	53.83
549.18	110.01
549.34	65.54
549.51	77.24
549.68	114.69
549.84	46.81
550.01	86.60
550.18	107.66
550.34	88.94
550.51	84.26
550.68	126.39
550.84	135.75
551.01	121.71
551.18	25.75
551.34	51.49
551.51	16.38
551.68	100.64
551.84	79.58
552.01	63.19
552.18	112.35
552.34	79.58
552.51	58.51
552.68	126.39
552.84	60.85
553.01	16.38
553.18	107.66
553.34	77.24
553.51	95.96
553.67	30.43
553.84	93.62
554.01	53.83
554.17	159.16
554.34	39.79
554.51	74.90
554.67	102.98
554.84	124.05
555.00	67.88
555.17	28.09
555.33	88.94
555.50	102.98
555.67	51.49
555.83	63.19
556.00	91.28
556.16	65.54
556.33	98.30
556.50	88.94
556.66	63.19
556.83	88.94
556.99	60.85
557.16	93.62
557.32	100.64
557.49	72.56
557.65	117.03
557.82	154.48
557.98	79.58
558.15	58.51
558.32	65.54
558.48	98.30
558.65	98.30
558.81	88.94
558.98	100.64
559.14	37.45
559.31	88.94
559.47	140.43
559.64	100.64
559.80	79.58
559.97	126.39
560.13	110.01
560.30	39.79
560.46	42.13
560.63	119.37
560.79	110.01
560.96	102.98
561.12	53.83
561.29	58.51
561.45	51.49
561.61	63.19
561.78	32.77
561.94	100.64
562.11	100.64
562.27	91.28
562.44	67.88
562.60	105.32
562.77	44.47
562.93	81.92
563.10	84.26
563.26	105.32
563.42	159.16
563.59	112.35
563.75	98.30
563.92	28.09
564.08	0.00
564.24	156.82
564.41	124.05
564.57	37.45
564.74	65.54
564.90	74.90
565.07	93.62
565.23	107.66
565.39	88.94
565.56	53.83
565.72	79.58
565.88	60.85
566.05	91.28
566.21	95.96
566.38	138.09
566.54	63.19
566.70	65.54
566.87	79.58
567.03	105.32
567.19	124.05
567.36	67.88
567.52	56.17
567.68	46.81
567.85	107.66
568.01	70.22
568.17	74.90
568.34	56.17
568.50	60.85
568.66	58.51
568.83	72.56
568.99	107.66
569.15	35.11
569.32	117.03
569.48	135.75
569.64	70.22
569.81	46.81
569.97	119.37
570.13	105.32
570.30	95.96
570.46	39.79
570.62	95.96
570.78	58.51
570.95	49.15
571.11	95.96
571.27	0.00
571.43	168.52
571.60	21.06
571.76	51.49
571.92	86.60
572.09	23.41
572.25	42.13
572.41	79.58
572.57	91.28
572.74	74.90
572.90	98.30
573.06	98.30
573.22	51.49
573.38	110.01
573.55	4.68
573.71	119.37
573.87	37.45
574.03	18.72
574.20	114.69
574.36	140.43
574.52	86.60
574.68	53.83
574.84	93.62
575.01	93.62
575.17	81.92
575.33	86.60
575.49	72.56
575.65	126.39
575.82	70.22
575.98	37.45
576.14	77.24
576.30	189.58
576.46	95.96
576.62	124.05
576.79	28.09
576.95	93.62
577.11	37.45
577.27	93.62
577.43	86.60
577.59	56.17
577.75	102.98
577.92	88.94
578.08	112.35
578.24	100.64
578.40	98.30
578.56	133.41
578.72	60.85
578.88	32.77
579.04	93.62
579.21	72.56
579.37	77.24
579.53	98.30
579.69	25.75
579.85	42.13
580.01	63.19
580.17	93.62
580.33	39.79
580.49	100.64
580.65	86.60
580.82	51.49
580.98	102.98
581.14	70.22
581.30	86.60
581.46	79.58
581.62	140.43
581.78	74.90
581.94	121.71
582.10	88.94
582.26	133.41
582.42	51.49
582.58	126.39
582.74	39.79
582.90	100.64
583.06	95.96
583.22	84.26
583.38	65.54
583.54	65.54
583.70	74.90
583.86	44.47
584.02	88.94
584.18	63.19
584.34	79.58
584.50	77.24
584.66	102.98
584.82	70.22
584.98	25.75
585.14	67.88
585.30	86.60
585.46	91.28
585.62	42.13
585.78	72.56
585.94	58.51
586.10	100.64
586.26	91.28
586.42	159.16
586.58	0.00
586.74	58.51
586.90	60.85
587.06	65.54
587.22	0.00
587.38	23.41
587.54	67.88
587.70	86.60
587.86	79.58
588.02	53.83
588.18	74.90
588.34	35.11
588.49	44.47
588.65	25.75
588.81	11.70
588.97	42.13
589.13	70.22
589.29	74.90
589.45	32.77
589.61	67.88
589.77	21.06
589.93	110.01
590.08	93.62
590.24	105.32
590.40	86.60
590.56	32.77
590.72	0.00
590.88	39.79
591.04	32.77
591.20	72.56
591.35	56.17
591.51	11.70
591.67	91.28
591.83	112.35
591.99	114.69
592.15	81.92
592.31	77.24
592.46	126.39
592.62	37.45
592.78	131.07
592.94	79.58
593.10	70.22
593.26	138.09
593.41	35.11
593.57	88.94
593.73	91.28
593.89	79.58
594.05	208.31
594.20	14.04
594.36	51.49
594.52	53.83
594.68	81.92
594.84	67.88
594.99	79.58
595.15	102.98
595.31	84.26
595.47	32.77
595.62	21.06
595.78	28.09
595.94	14.04
596.10	30.43
596.25	133.41
596.41	51.49
596.57	77.24
596.73	63.19
596.88	121.71
597.04	114.69
597.20	70.22
597.36	107.66
597.51	74.90
597.67	112.35
597.83	37.45
597.99	28.09
598.14	91.28
598.30	72.56
598.46	91.28
598.61	100.64
598.77	63.19
598.93	124.05
599.09	72.56
599.24	23.41
599.40	128.73
599.56	14.04
599.71	51.49
599.87	21.06
600.03	4.68
600.18	138.09
600.34	93.62
600.50	9.36
600.65	58.51
600.81	114.69
600.97	79.58
601.12	72.56
601.28	86.60
601.44	100.64
601.59	74.90
601.75	32.77
601.91	11.70
602.06	124.05
602.22	42.13
602.37	98.30
602.53	72.56
602.69	30.43
602.84	81.92
603.00	53.83
603.16	16.38
603.31	70.22
603.47	100.64
603.62	67.88
603.78	21.06
603.94	147.45
604.09	63.19
604.25	102.98
604.40	21.06
604.56	42.13
604.71	79.58
604.87	0.00
605.03	65.54
605.18	72.56
605.34	156.82
605.49	37.45
605.65	0.00
605.80	58.51
605.96	81.92
606.12	86.60
606.27	74.90
606.43	51.49
606.58	114.69
606.74	44.47
606.89	88.94
607.05	72.56
607.20	44.47
607.36	133.41
607.51	49.15
607.67	58.51
607.82	77.24
607.98	44.47
608.13	88.94
608.29	74.90
608.44	81.92
608.60	58.51
608.75	81.92
608.91	119.37
609.06	0.00
609.22	18.72
609.37	117.03
609.53	77.24
609.68	42.13
609.84	100.64
609.99	46.81
610.15	91.28
610.30	98.30
610.46	28.09
610.61	70.22
610.76	51.49
610.92	86.60
611.07	56.17
611.23	77.24
611.38	49.15
611.54	145.11
611.69	42.13
611.84	67.88
612.00	58.51
612.15	93.62
612.31	114.69
612.46	119.37
612.62	88.94
612.77	124.05
612.92	11.70
613.08	102.98
613.23	93.62
613.39	79.58
613.54	102.98
613.69	46.81
613.85	84.26
614.00	124.05
614.15	32.77
614.31	74.90
614.46	32.77
614.62	119.37
614.77	30.43
614.92	93.62
615.08	65.54
615.23	28.09
615.38	81.92
615.54	105.32
615.69	105.32
615.84	0.00
616.00	25.75
616.15	18.72
616.30	56.17
616.46	77.24
616.61	4.68
616.76	70.22
616.92	81.92
617.07	105.32
617.22	56.17
617.37	11.70
617.53	65.54
617.68	58.51
617.83	86.60
617.99	35.11
618.14	32.77
618.29	88.94
618.45	46.81
618.60	21.06
618.75	37.45
618.90	16.38
619.06	53.83
619.21	49.15
619.36	77.24
619.51	23.41
619.67	126.39
619.82	86.60
619.97	18.72
620.12	11.70
620.28	177.88
620.43	67.88
620.58	53.83
620.73	98.30
620.89	28.09
621.04	46.81
621.19	25.75
621.34	39.79
621.49	154.48
621.65	107.66
621.80	35.11
621.95	37.45
622.10	65.54
622.25	39.79
622.41	67.88
622.56	63.19
622.71	23.41
622.86	88.94
623.01	51.49
623.16	95.96
623.32	2.34
623.47	60.85
623.62	84.26
623.77	91.28
623.92	28.09
624.07	79.58
624.23	35.11
624.38	37.45
624.53	63.19
624.68	25.75
624.83	79.58
624.98	110.01
625.13	88.94
625.29	70.22
625.44	56.17
625.59	110.01
625.74	110.01
625.89	74.90
626.04	18.72
626.19	70.22
626.34	53.83
626.49	110.01
626.65	79.58
626.80	30.43
626.95	28.09
627.10	86.60
627.25	91.28
627.40	21.06
627.55	46.81
627.70	39.79
627.85	53.83
628.00	32.77
628.15	9.36
628.30	91.28
628.45	25.75
628.60	77.24
628.76	107.66
628.91	39.79
629.06	7.02
629.21	56.17
629.36	51.49
629.51	46.81
629.66	25.75
629.81	11.70
629.96	72.56
630.11	79.58
630.26	91.28
630.41	49.15
630.56	100.64
630.71	79.58
630.86	74.90
631.01	28.09
631.16	39.79
631.31	0.00
631.46	9.36
631.61	14.04
631.76	18.72
631.91	93.62
632.06	102.98
632.21	91.28
632.36	84.26
632.51	25.75
632.66	81.92
632.81	65.54
632.96	121.71
633.10	46.81
633.25	65.54
633.40	32.77
633.55	84.26
633.70	42.13
633.85	25.75
634.00	44.47
634.15	100.64
634.30	53.83
634.45	105.32
634.60	74.90
634.75	67.88
634.90	14.04
635.05	16.38
635.19	114.69
635.34	86.60
635.49	110.01
635.64	44.47
635.79	72.56
635.94	16.38
636.09	67.88
636.24	77.24
636.39	79.58
636.53	65.54
636.68	0.00
636.83	63.19
636.98	16.38
637.13	70.22
637.28	0.00
637.43	91.28
637.57	42.13
637.72	56.17
637.87	91.28
638.02	58.51
638.17	98.30
638.32	93.62
638.46	49.15
638.61	46.81
638.76	74.90
638.91	25.75
639.06	91.28
639.20	74.90
639.35	102.98
639.50	67.88
639.65	67.88
639.80	81.92
639.94	98.30
640.09	65.54
640.24	44.47
640.39	2.34
640.54	44.47
640.68	39.79
640.83	32.77
640.98	0.00
641.13	14.04
641.27	46.81
641.42	51.49
641.57	0.00
641.72	28.09
641.86	67.88
642.01	39.79
642.16	37.45
642.31	60.85
642.45	110.01
642.60	16.38
642.75	21.06
642.90	16.38
643.04	46.81
643.19	79.58
643.34	70.22
643.48	58.51
643.63	79.58
643.78	0.00
643.93	74.90
644.07	100.64
644.22	65.54
644.37	102.98
644.51	53.83
644.66	0.00
644.81	65.54
644.95	46.81
645.10	53.83
645.25	16.38
645.39	0.00
645.54	21.06
645.69	23.41
645.83	35.11
645.98	84.26
646.13	39.79
646.27	25.75
646.42	23.41
646.57	44.47
646.71	0.00
646.86	32.77
647.00	51.49
647.15	84.26
647.30	86.60
647.44	35.11
647.59	72.56
647.74	56.17
647.88	95.96
648.03	72.56
648.17	9.36
648.32	32.77
648.47	110.01
648.61	98.30
648.76	7.02
648.90	84.26
649.05	0.00
649.20	51.49
649.34	46.81
649.49	42.13
649.63	0.00
649.78	86.60
649.92	21.06
650.07	53.83
650.21	39.79
650.36	121.71
650.51	11.70
650.65	79.58
650.80	56.17
650.94	124.05
651.09	9.36
651.23	84.26
651.38	30.43
651.52	63.19
651.67	30.43
651.81	65.54
651.96	81.92
652.10	100.64
652.25	30.43
652.39	70.22
652.54	37.45
652.68	91.28
652.83	14.04
652.97	42.13
653.12	60.85
653.26	9.36
653.41	60.85
653.55	91.28
653.70	95.96
653.84	9.36
653.99	23.41
654.13	2.34
654.27	102.98
654.42	28.09
654.56	39.79
654.71	30.43
654.85	93.62
655.00	0.00
655.14	2.34
655.29	72.56
655.43	18.72
655.57	58.51
655.72	72.56
655.86	0.00
656.01	18.72
656.15	7.02
656.30	86.60
656.44	35.11
656.58	77.24
656.73	56.17
656.87	14.04
657.01	16.38
657.16	81.92
657.30	86.60
657.45	39.79
657.59	25.75
657.73	30.43
657.88	39.79
658.02	70.22
658.16	74.90
658.31	84.26
658.45	2.34
658.60	67.88
658.74	14.04
658.88	51.49
659.03	93.62
659.17	51.49
659.31	25.75
659.46	21.06
659.60	91.28
659.74	74.90
659.89	37.45
660.03	95.96
660.17	39.79
660.32	49.15
660.46	77.24
660.60	88.94
660.74	72.56
660.89	102.98
661.03	51.49
661.17	49.15
661.32	79.58
661.46	84.26
661.60	35.11
661.74	84.26
661.89	70.22
662.03	74.90
662.17	14.04
662.31	56.17
662.46	65.54
662.60	72.56
662.74	28.09
662.88	70.22
663.03	63.19
663.17	79.58
663.31	44.47
663.45	84.26
663.60	63.19
663.74	102.98
663.88	56.17
664.02	105.32
664.17	25.75
664.31	117.03
664.45	0.00
664.59	105.32
664.73	77.24
664.88	4.68
665.02	28.09
665.16	58.51
665.30	88.94
665.44	39.79
665.59	114.69
665.73	114.69
665.87	88.94
666.01	11.70
666.15	65.54
666.29	11.70
666.44	0.00
666.58	84.26
666.72	63.19
666.86	35.11
667.00	60.85
667.14	107.66
667.28	37.45
667.43	51.49
667.57	84.26
667.71	95.96
667.85	39.79
667.99	126.39
668.13	63.19
668.27	107.66
668.41	32.77
668.56	2.34
668.70	56.17
668.84	81.92
668.98	44.47
669.12	0.00
669.26	56.17
669.40	42.13
669.54	49.15
669.68	117.03
669.82	91.28
669.96	25.75
670.10	35.11
670.25	11.70
670.39	70.22
670.53	58.51
670.67	70.22
670.81	37.45
670.95	44.47
671.09	72.56
671.23	60.85
671.37	107.66
671.51	107.66
671.65	67.88
671.79	84.26
671.93	0.00
672.07	30.43
672.21	18.72
672.35	70.22
672.49	32.77
672.63	30.43
672.77	0.00
672.91	25.75
673.05	58.51
673.19	72.56
673.33	121.71
673.47	9.36
673.61	2.34
673.75	0.00
673.89	0.00
674.03	14.04
674.17	0.00
674.31	28.09
674.45	51.49
674.59	0.00
674.73	79.58
674.87	56.17
675.01	46.81
675.15	60.85
675.29	51.49
675.43	42.13
675.56	112.35
675.70	0.00
675.84	42.13
675.98	51.49
676.12	0.00
676.26	32.77
676.40	81.92
676.54	16.38
676.68	42.13
676.82	100.64
676.96	84.26
677.10	110.01
677.23	124.05
677.37	18.72
677.51	42.13
677.65	42.13
677.79	42.13
677.93	14.04
678.07	2.34
678.21	11.70
678.34	100.64
678.48	0.00
678.62	14.04
678.76	117.03
678.90	0.00
679.04	0.00
679.18	58.51
679.31	16.38
679.45	23.41
679.59	84.26
679.73	0.00
679.87	86.60
680.00	35.11
680.14	77.24
680.28	0.00
680.42	60.85
680.56	67.88
680.70	0.00
680.83	117.03
680.97	46.81
681.11	32.77
681.25	42.13
681.39	58.51
681.52	112.35
681.66	0.00
681.80	70.22
681.94	42.13
682.07	53.83
682.21	4.68
682.35	35.11
682.49	46.81
682.62	42.13
682.76	16.38
682.90	44.47
683.04	60.85
683.17	39.79
683.31	0.00
683.45	18.72
683.59	46.81
683.72	65.54
683.86	70.22
684.00	63.19
684.13	105.32
684.27	23.41
684.41	0.00
684.55	88.94
684.68	49.15
684.82	37.45
684.96	81.92
685.09	46.81
685.23	51.49
685.37	23.41
685.50	0.00
685.64	37.45
685.78	67.88
685.91	39.79
686.05	0.00
686.19	2.34
686.32	74.90
686.46	37.45
686.60	9.36
686.73	18.72
686.87	51.49
687.01	7.02
687.14	63.19
687.28	56.17
687.42	46.81
687.55	95.96
687.69	44.47
687.82	72.56
687.96	0.00
688.10	37.45
688.23	16.38
688.37	114.69
688.50	0.00
688.64	4.68
688.78	39.79
688.91	23.41
689.05	0.00
689.18	60.85
689.32	35.11
689.46	67.88
689.59	49.15
689.73	23.41
689.86	28.09
690.00	7.02
690.13	2.34
690.27	18.72
690.41	2.34
690.54	110.01
690.68	56.17
690.81	0.00
690.95	79.58
691.08	16.38
691.22	53.83
691.35	60.85
691.49	11.70
691.62	25.75
691.76	79.58
691.89	72.56
692.03	39.79
692.16	114.69
692.30	21.06
692.43	60.85
692.57	23.41
692.70	63.19
692.84	91.28
692.97	112.35
693.11	72.56
693.24	9.36
693.38	0.00
693.51	0.00
693.65	102.98
693.78	39.79
693.92	9.36
694.05	0.00
694.19	7.02
694.32	79.58
694.45	81.92
694.59	0.00
694.72	74.90
694.86	110.01
694.99	121.71
695.13	7.02
695.26	35.11
695.39	72.56
695.53	21.06
695.66	0.00
695.80	0.00
695.93	112.35
696.07	37.45
696.20	81.92
696.33	0.00
696.47	14.04
696.60	53.83
696.73	53.83
696.87	0.00
697.00	119.37
697.14	46.81
697.27	39.79
697.40	25.75
697.54	39.79
697.67	0.00
697.80	70.22
697.94	14.04
698.07	9.36
698.21	30.43
698.34	0.00
698.47	56.17
698.61	60.85
698.74	16.38
698.87	28.09
699.01	0.00
699.14	16.38
699.27	79.58
699.40	0.00
699.54	11.70
699.67	67.88
699.80	0.00
699.94	0.00
700.07	46.81
700.20	67.88
700.34	16.38
700.47	2.34
700.60	0.00
700.73	0.00
700.87	77.24
701.00	53.83
701.13	42.13
701.26	35.11
701.40	0.00
701.53	63.19
701.66	9.36
701.79	84.26
701.93	0.00
702.06	28.09
702.19	25.75
702.32	49.15
702.46	0.00
702.59	60.85
702.72	93.62
702.85	35.11
702.99	0.00
703.12	0.00
703.25	0.00
703.38	0.00
703.51	98.30
703.65	0.00
703.78	30.43
703.91	35.11
704.04	30.43
704.17	0.00
704.31	42.13
704.44	58.51
704.57	0.00
704.70	67.88
704.83	7.02
704.96	21.06
705.10	39.79
705.23	100.64
>>>>>End Processed Spectral Data<<<<<
