SpectraSuite Data File
++++++++++++++++++++++++++++++++++++
Date: Fri Oct 04 12:13:26 GMT-05:00 2013
User: price-jones
Dark Spectrum Present: No
Reference Spectrum Present: No
Number of Sampled Component Spectra: 1
Spectrometers: USB2+H05261
Integration Time (usec): 10000 (USB2+H05261)
Spectra Averaged: 1 (USB2+H05261)
Boxcar Smoothing: 0 (USB2+H05261)
Correct for Electrical Dark: No (USB2+H05261)
Strobe/Lamp Enabled: No (USB2+H05261)
Correct for Detector Non-linearity: No (USB2+H05261)
Correct for Stray Light: No (USB2+H05261)
Number of Pixels in Processed Spectrum: 2048
>>>>>Begin Processed Spectral Data<<<<<
365.73	0.00
365.92	0.00
366.12	0.00
366.32	0.00
366.52	0.00
366.72	0.00
366.91	0.00
367.11	0.00
367.31	0.00
367.51	0.00
367.70	0.00
367.90	0.00
368.10	0.00
368.30	0.00
368.49	0.00
368.69	0.00
368.89	0.00
369.09	0.00
369.28	0.00
369.48	0.00
369.68	0.00
369.87	0.00
370.07	0.00
370.27	0.00
370.47	0.00
370.66	0.00
370.86	0.00
371.06	0.00
371.25	0.00
371.45	0.00
371.65	4.68
371.84	0.00
372.04	0.00
372.24	16.38
372.44	0.00
372.63	42.13
372.83	58.51
373.03	65.54
373.22	74.90
373.42	0.00
373.62	44.47
373.81	0.00
374.01	46.81
374.21	53.83
374.40	2.34
374.60	0.00
374.79	81.92
374.99	44.47
375.19	0.00
375.38	14.04
375.58	35.11
375.78	0.00
375.97	63.19
376.17	9.36
376.37	65.54
376.56	14.04
376.76	9.36
376.95	28.09
377.15	0.00
377.35	9.36
377.54	18.72
377.74	0.00
377.93	23.41
378.13	28.09
378.33	7.02
378.52	0.00
378.72	21.06
378.91	0.00
379.11	37.45
379.31	0.00
379.50	25.75
379.70	0.00
379.89	0.00
380.09	0.00
380.28	32.77
380.48	21.06
380.68	2.34
380.87	28.09
381.07	0.00
381.26	86.60
381.46	30.43
381.65	35.11
381.85	0.00
382.04	30.43
382.24	7.02
382.43	0.00
382.63	49.15
382.83	9.36
383.02	0.00
383.22	0.00
383.41	0.00
383.61	30.43
383.80	37.45
384.00	25.75
384.19	49.15
384.39	16.38
384.58	0.00
384.78	35.11
384.97	0.00
385.17	4.68
385.36	23.41
385.56	4.68
385.75	28.09
385.95	0.00
386.14	46.81
386.34	11.70
386.53	37.45
386.72	0.00
386.92	79.58
387.11	35.11
387.31	74.90
387.50	0.00
387.70	0.00
387.89	0.00
388.09	39.79
388.28	0.00
388.48	11.70
388.67	42.13
388.86	16.38
389.06	0.00
389.25	16.38
389.45	0.00
389.64	46.81
389.84	51.49
390.03	72.56
390.22	37.45
390.42	60.85
390.61	4.68
390.81	70.22
391.00	0.00
391.19	49.15
391.39	0.00
391.58	4.68
391.78	79.58
391.97	16.38
392.16	74.90
392.36	60.85
392.55	42.13
392.75	35.11
392.94	63.19
393.13	0.00
393.33	18.72
393.52	42.13
393.71	53.83
393.91	0.00
394.10	63.19
394.29	0.00
394.49	46.81
394.68	39.79
394.88	0.00
395.07	0.00
395.26	9.36
395.46	79.58
395.65	112.35
395.84	119.37
396.04	51.49
396.23	56.17
396.42	140.43
396.62	0.00
396.81	65.54
397.00	0.00
397.19	16.38
397.39	28.09
397.58	35.11
397.77	35.11
397.97	0.00
398.16	23.41
398.35	42.13
398.55	32.77
398.74	4.68
398.93	49.15
399.12	0.00
399.32	0.00
399.51	44.47
399.70	32.77
399.90	28.09
400.09	23.41
400.28	81.92
400.47	0.00
400.67	39.79
400.86	58.51
401.05	28.09
401.24	58.51
401.44	67.88
401.63	4.68
401.82	32.77
402.01	30.43
402.21	23.41
402.40	0.00
402.59	95.96
402.78	74.90
402.97	11.70
403.17	37.45
403.36	25.75
403.55	32.77
403.74	28.09
403.93	56.17
404.13	39.79
404.32	49.15
404.51	18.72
404.70	14.04
404.89	0.00
405.09	14.04
405.28	21.06
405.47	25.75
405.66	63.19
405.85	9.36
406.05	39.79
406.24	16.38
406.43	0.00
406.62	28.09
406.81	30.43
407.00	65.54
407.20	2.34
407.39	11.70
407.58	0.00
407.77	0.00
407.96	23.41
408.15	63.19
408.34	51.49
408.54	0.00
408.73	28.09
408.92	2.34
409.11	4.68
409.30	23.41
409.49	30.43
409.68	18.72
409.87	0.00
410.07	7.02
410.26	28.09
410.45	0.00
410.64	18.72
410.83	77.24
411.02	23.41
411.21	0.00
411.40	102.98
411.59	0.00
411.78	44.47
411.98	39.79
412.17	44.47
412.36	32.77
412.55	0.00
412.74	77.24
412.93	4.68
413.12	0.00
413.31	4.68
413.50	23.41
413.69	32.77
413.88	84.26
414.07	42.13
414.26	0.00
414.45	25.75
414.64	39.79
414.83	0.00
415.02	0.00
415.22	0.00
415.41	21.06
415.60	28.09
415.79	0.00
415.98	9.36
416.17	0.00
416.36	7.02
416.55	0.00
416.74	32.77
416.93	88.94
417.12	18.72
417.31	0.00
417.50	4.68
417.69	0.00
417.88	53.83
418.07	35.11
418.26	2.34
418.45	107.66
418.64	0.00
418.83	84.26
419.02	2.34
419.21	14.04
419.39	42.13
419.58	7.02
419.77	0.00
419.96	0.00
420.15	30.43
420.34	81.92
420.53	0.00
420.72	49.15
420.91	72.56
421.10	9.36
421.29	35.11
421.48	0.00
421.67	23.41
421.86	9.36
422.05	0.00
422.24	63.19
422.43	0.00
422.61	7.02
422.80	0.00
422.99	51.49
423.18	72.56
423.37	2.34
423.56	4.68
423.75	7.02
423.94	7.02
424.13	23.41
424.32	46.81
424.50	7.02
424.69	72.56
424.88	51.49
425.07	37.45
425.26	56.17
425.45	74.90
425.64	23.41
425.83	28.09
426.01	23.41
426.20	0.00
426.39	32.77
426.58	0.00
426.77	32.77
426.96	0.00
427.15	67.88
427.33	63.19
427.52	4.68
427.71	30.43
427.90	0.00
428.09	91.28
428.28	0.00
428.46	65.54
428.65	91.28
428.84	25.75
429.03	63.19
429.22	0.00
429.40	0.00
429.59	14.04
429.78	39.79
429.97	49.15
430.16	70.22
430.34	32.77
430.53	70.22
430.72	14.04
430.91	70.22
431.10	49.15
431.28	9.36
431.47	4.68
431.66	42.13
431.85	65.54
432.03	86.60
432.22	0.00
432.41	37.45
432.60	0.00
432.79	114.69
432.97	0.00
433.16	30.43
433.35	9.36
433.54	23.41
433.72	0.00
433.91	0.00
434.10	7.02
434.28	2.34
434.47	23.41
434.66	0.00
434.85	18.72
435.03	4.68
435.22	16.38
435.41	14.04
435.59	32.77
435.78	72.56
435.97	23.41
436.16	7.02
436.34	0.00
436.53	0.00
436.72	65.54
436.90	14.04
437.09	0.00
437.28	28.09
437.46	21.06
437.65	0.00
437.84	11.70
438.02	53.83
438.21	42.13
438.40	74.90
438.58	72.56
438.77	70.22
438.96	42.13
439.14	70.22
439.33	11.70
439.52	0.00
439.70	46.81
439.89	0.00
440.08	60.85
440.26	0.00
440.45	9.36
440.63	0.00
440.82	53.83
441.01	0.00
441.19	39.79
441.38	0.00
441.57	112.35
441.75	4.68
441.94	16.38
442.12	21.06
442.31	18.72
442.50	0.00
442.68	35.11
442.87	37.45
443.05	0.00
443.24	58.51
443.43	21.06
443.61	14.04
443.80	0.00
443.98	35.11
444.17	0.00
444.35	58.51
444.54	0.00
444.73	35.11
444.91	74.90
445.10	25.75
445.28	0.00
445.47	0.00
445.65	63.19
445.84	0.00
446.02	46.81
446.21	0.00
446.39	67.88
446.58	37.45
446.77	39.79
446.95	9.36
447.14	18.72
447.32	93.62
447.51	4.68
447.69	32.77
447.88	2.34
448.06	23.41
448.25	7.02
448.43	0.00
448.62	44.47
448.80	112.35
448.99	0.00
449.17	21.06
449.36	46.81
449.54	2.34
449.73	25.75
449.91	4.68
450.10	0.00
450.28	51.49
450.46	42.13
450.65	46.81
450.83	16.38
451.02	65.54
451.20	65.54
451.39	30.43
451.57	21.06
451.76	42.13
451.94	70.22
452.13	25.75
452.31	42.13
452.49	0.00
452.68	11.70
452.86	72.56
453.05	0.00
453.23	44.47
453.42	2.34
453.60	60.85
453.78	30.43
453.97	46.81
454.15	18.72
454.34	37.45
454.52	37.45
454.70	0.00
454.89	49.15
455.07	74.90
455.26	49.15
455.44	32.77
455.62	2.34
455.81	42.13
455.99	98.30
456.17	0.00
456.36	25.75
456.54	28.09
456.73	0.00
456.91	14.04
457.09	67.88
457.28	9.36
457.46	63.19
457.64	65.54
457.83	58.51
458.01	4.68
458.19	39.79
458.38	28.09
458.56	25.75
458.74	63.19
458.93	0.00
459.11	105.32
459.29	21.06
459.48	88.94
459.66	56.17
459.84	37.45
460.03	14.04
460.21	0.00
460.39	0.00
460.57	0.00
460.76	25.75
460.94	9.36
461.12	49.15
461.31	2.34
461.49	32.77
461.67	2.34
461.85	44.47
462.04	28.09
462.22	74.90
462.40	105.32
462.59	16.38
462.77	42.13
462.95	0.00
463.13	51.49
463.32	74.90
463.50	0.00
463.68	0.00
463.86	0.00
464.05	9.36
464.23	72.56
464.41	0.00
464.59	0.00
464.78	74.90
464.96	51.49
465.14	51.49
465.32	25.75
465.50	25.75
465.69	2.34
465.87	32.77
466.05	65.54
466.23	51.49
466.41	14.04
466.60	49.15
466.78	42.13
466.96	0.00
467.14	37.45
467.32	2.34
467.51	53.83
467.69	67.88
467.87	0.00
468.05	72.56
468.23	60.85
468.41	4.68
468.60	0.00
468.78	21.06
468.96	51.49
469.14	49.15
469.32	65.54
469.50	51.49
469.69	93.62
469.87	35.11
470.05	28.09
470.23	58.51
470.41	100.64
470.59	56.17
470.77	56.17
470.95	63.19
471.14	23.41
471.32	112.35
471.50	14.04
471.68	49.15
471.86	4.68
472.04	30.43
472.22	42.13
472.40	49.15
472.58	72.56
472.77	77.24
472.95	4.68
473.13	0.00
473.31	21.06
473.49	21.06
473.67	9.36
473.85	16.38
474.03	58.51
474.21	37.45
474.39	11.70
474.57	0.00
474.75	14.04
474.93	0.00
475.12	14.04
475.30	37.45
475.48	0.00
475.66	23.41
475.84	63.19
476.02	72.56
476.20	60.85
476.38	32.77
476.56	51.49
476.74	35.11
476.92	0.00
477.10	51.49
477.28	46.81
477.46	51.49
477.64	121.71
477.82	79.58
478.00	81.92
478.18	37.45
478.36	18.72
478.54	49.15
478.72	65.54
478.90	0.00
479.08	51.49
479.26	23.41
479.44	4.68
479.62	44.47
479.80	91.28
479.98	11.70
480.16	49.15
480.34	72.56
480.52	53.83
480.70	23.41
480.88	9.36
481.06	60.85
481.24	35.11
481.41	37.45
481.59	100.64
481.77	63.19
481.95	0.00
482.13	49.15
482.31	77.24
482.49	18.72
482.67	56.17
482.85	56.17
483.03	0.00
483.21	0.00
483.39	42.13
483.57	21.06
483.74	35.11
483.92	9.36
484.10	4.68
484.28	16.38
484.46	37.45
484.64	70.22
484.82	77.24
485.00	2.34
485.18	65.54
485.35	63.19
485.53	51.49
485.71	60.85
485.89	56.17
486.07	42.13
486.25	46.81
486.43	0.00
486.61	72.56
486.78	91.28
486.96	37.45
487.14	42.13
487.32	30.43
487.50	110.01
487.68	9.36
487.85	21.06
488.03	53.83
488.21	2.34
488.39	74.90
488.57	44.47
488.75	98.30
488.92	72.56
489.10	23.41
489.28	72.56
489.46	60.85
489.64	18.72
489.81	60.85
489.99	35.11
490.17	44.47
490.35	67.88
490.53	58.51
490.70	4.68
490.88	91.28
491.06	25.75
491.24	4.68
491.41	58.51
491.59	28.09
491.77	56.17
491.95	42.13
492.13	32.77
492.30	0.00
492.48	58.51
492.66	0.00
492.84	28.09
493.01	70.22
493.19	32.77
493.37	0.00
493.54	63.19
493.72	65.54
493.90	44.47
494.08	0.00
494.25	77.24
494.43	114.69
494.61	72.56
494.79	35.11
494.96	30.43
495.14	110.01
495.32	56.17
495.49	51.49
495.67	23.41
495.85	30.43
496.02	46.81
496.20	42.13
496.38	0.00
496.55	58.51
496.73	107.66
496.91	79.58
497.09	16.38
497.26	39.79
497.44	63.19
497.62	30.43
497.79	70.22
497.97	46.81
498.14	46.81
498.32	100.64
498.50	18.72
498.67	88.94
498.85	65.54
499.03	86.60
499.20	91.28
499.38	65.54
499.56	37.45
499.73	11.70
499.91	16.38
500.08	0.00
500.26	0.00
500.44	93.62
500.61	63.19
500.79	105.32
500.97	60.85
501.14	53.83
501.32	46.81
501.49	117.03
501.67	79.58
501.84	39.79
502.02	100.64
502.20	32.77
502.37	60.85
502.55	86.60
502.72	65.54
502.90	49.15
503.07	86.60
503.25	91.28
503.43	35.11
503.60	46.81
503.78	28.09
503.95	79.58
504.13	35.11
504.30	74.90
504.48	21.06
504.65	30.43
504.83	95.96
505.01	102.98
505.18	7.02
505.36	51.49
505.53	0.00
505.71	21.06
505.88	23.41
506.06	25.75
506.23	37.45
506.41	65.54
506.58	100.64
506.76	0.00
506.93	70.22
507.11	0.00
507.28	11.70
507.46	7.02
507.63	74.90
507.81	117.03
507.98	16.38
508.16	16.38
508.33	44.47
508.50	35.11
508.68	100.64
508.85	60.85
509.03	0.00
509.20	16.38
509.38	91.28
509.55	21.06
509.73	46.81
509.90	79.58
510.08	42.13
510.25	60.85
510.42	88.94
510.60	0.00
510.77	4.68
510.95	49.15
511.12	39.79
511.30	79.58
511.47	14.04
511.64	79.58
511.82	128.73
511.99	46.81
512.17	56.17
512.34	28.09
512.51	84.26
512.69	86.60
512.86	51.49
513.04	63.19
513.21	21.06
513.38	21.06
513.56	16.38
513.73	0.00
513.90	60.85
514.08	0.00
514.25	128.73
514.43	23.41
514.60	63.19
514.77	18.72
514.95	53.83
515.12	14.04
515.29	30.43
515.47	67.88
515.64	117.03
515.81	30.43
515.99	100.64
516.16	112.35
516.33	74.90
516.51	0.00
516.68	65.54
516.85	51.49
517.03	86.60
517.20	63.19
517.37	30.43
517.54	23.41
517.72	49.15
517.89	81.92
518.06	95.96
518.24	32.77
518.41	39.79
518.58	77.24
518.75	112.35
518.93	9.36
519.10	39.79
519.27	70.22
519.45	72.56
519.62	56.17
519.79	0.00
519.96	0.00
520.14	100.64
520.31	51.49
520.48	95.96
520.65	46.81
520.83	16.38
521.00	86.60
521.17	16.38
521.34	18.72
521.52	0.00
521.69	9.36
521.86	49.15
522.03	35.11
522.20	46.81
522.38	21.06
522.55	0.00
522.72	0.00
522.89	0.00
523.07	39.79
523.24	44.47
523.41	14.04
523.58	0.00
523.75	56.17
523.92	77.24
524.10	100.64
524.27	11.70
524.44	67.88
524.61	84.26
524.78	46.81
524.96	0.00
525.13	28.09
525.30	93.62
525.47	9.36
525.64	18.72
525.81	4.68
525.98	114.69
526.16	46.81
526.33	107.66
526.50	74.90
526.67	84.26
526.84	30.43
527.01	35.11
527.18	28.09
527.36	105.32
527.53	35.11
527.70	0.00
527.87	98.30
528.04	0.00
528.21	23.41
528.38	138.09
528.55	23.41
528.72	14.04
528.89	0.00
529.07	102.98
529.24	77.24
529.41	39.79
529.58	79.58
529.75	72.56
529.92	4.68
530.09	72.56
530.26	49.15
530.43	53.83
530.60	30.43
530.77	21.06
530.94	37.45
531.11	77.24
531.28	44.47
531.46	56.17
531.63	0.00
531.80	25.75
531.97	67.88
532.14	11.70
532.31	16.38
532.48	58.51
532.65	74.90
532.82	51.49
532.99	56.17
533.16	32.77
533.33	4.68
533.50	0.00
533.67	44.47
533.84	65.54
534.01	0.00
534.18	4.68
534.35	0.00
534.52	30.43
534.69	21.06
534.86	35.11
535.03	32.77
535.20	56.17
535.37	74.90
535.54	0.00
535.71	42.13
535.88	46.81
536.05	67.88
536.22	11.70
536.38	107.66
536.55	84.26
536.72	32.77
536.89	0.00
537.06	74.90
537.23	84.26
537.40	72.56
537.57	46.81
537.74	25.75
537.91	95.96
538.08	51.49
538.25	51.49
538.42	72.56
538.59	4.68
538.75	70.22
538.92	44.47
539.09	72.56
539.26	74.90
539.43	0.00
539.60	35.11
539.77	32.77
539.94	51.49
540.11	163.84
540.28	81.92
540.44	91.28
540.61	98.30
540.78	46.81
540.95	51.49
541.12	63.19
541.29	77.24
541.46	11.70
541.62	65.54
541.79	70.22
541.96	117.03
542.13	25.75
542.30	114.69
542.47	67.88
542.63	112.35
542.80	39.79
542.97	4.68
543.14	51.49
543.31	114.69
543.48	79.58
543.64	7.02
543.81	25.75
543.98	51.49
544.15	16.38
544.32	21.06
544.48	18.72
544.65	67.88
544.82	7.02
544.99	91.28
545.16	46.81
545.32	21.06
545.49	0.00
545.66	0.00
545.83	126.39
546.00	44.47
546.16	14.04
546.33	0.00
546.50	9.36
546.67	28.09
546.83	60.85
547.00	37.45
547.17	39.79
547.34	0.00
547.50	44.47
547.67	79.58
547.84	0.00
548.00	51.49
548.17	42.13
548.34	21.06
548.51	0.00
548.67	56.17
548.84	32.77
549.01	23.41
549.18	56.17
549.34	60.85
549.51	95.96
549.68	67.88
549.84	39.79
550.01	37.45
550.18	0.00
550.34	32.77
550.51	0.00
550.68	60.85
550.84	0.00
551.01	74.90
551.18	35.11
551.34	7.02
551.51	60.85
551.68	67.88
551.84	11.70
552.01	7.02
552.18	84.26
552.34	51.49
552.51	9.36
552.68	46.81
552.84	67.88
553.01	23.41
553.18	0.00
553.34	4.68
553.51	65.54
553.67	4.68
553.84	25.75
554.01	18.72
554.17	21.06
554.34	11.70
554.51	4.68
554.67	56.17
554.84	65.54
555.00	9.36
555.17	28.09
555.33	44.47
555.50	74.90
555.67	79.58
555.83	42.13
556.00	28.09
556.16	0.00
556.33	25.75
556.50	53.83
556.66	25.75
556.83	35.11
556.99	63.19
557.16	30.43
557.32	72.56
557.49	81.92
557.65	51.49
557.82	70.22
557.98	84.26
558.15	79.58
558.32	16.38
558.48	58.51
558.65	25.75
558.81	51.49
558.98	51.49
559.14	51.49
559.31	53.83
559.47	63.19
559.64	58.51
559.80	0.00
559.97	91.28
560.13	93.62
560.30	0.00
560.46	30.43
560.63	37.45
560.79	35.11
560.96	21.06
561.12	0.00
561.29	65.54
561.45	95.96
561.61	0.00
561.78	35.11
561.94	147.45
562.11	51.49
562.27	53.83
562.44	77.24
562.60	16.38
562.77	25.75
562.93	28.09
563.10	9.36
563.26	35.11
563.42	14.04
563.59	0.00
563.75	88.94
563.92	107.66
564.08	135.75
564.24	46.81
564.41	11.70
564.57	79.58
564.74	72.56
564.90	65.54
565.07	79.58
565.23	81.92
565.39	46.81
565.56	93.62
565.72	58.51
565.88	51.49
566.05	58.51
566.21	18.72
566.38	0.00
566.54	0.00
566.70	0.00
566.87	0.00
567.03	77.24
567.19	14.04
567.36	63.19
567.52	14.04
567.68	0.00
567.85	16.38
568.01	49.15
568.17	88.94
568.34	49.15
568.50	39.79
568.66	4.68
568.83	42.13
568.99	0.00
569.15	84.26
569.32	60.85
569.48	72.56
569.64	0.00
569.81	30.43
569.97	25.75
570.13	2.34
570.30	121.71
570.46	91.28
570.62	0.00
570.78	42.13
570.95	25.75
571.11	16.38
571.27	63.19
571.43	28.09
571.60	39.79
571.76	0.00
571.92	0.00
572.09	42.13
572.25	42.13
572.41	67.88
572.57	18.72
572.74	65.54
572.90	37.45
573.06	46.81
573.22	51.49
573.38	0.00
573.55	21.06
573.71	79.58
573.87	0.00
574.03	0.00
574.20	56.17
574.36	42.13
574.52	28.09
574.68	0.00
574.84	49.15
575.01	53.83
575.17	21.06
575.33	21.06
575.49	35.11
575.65	37.45
575.82	44.47
575.98	0.00
576.14	56.17
576.30	39.79
576.46	44.47
576.62	84.26
576.79	21.06
576.95	25.75
577.11	37.45
577.27	0.00
577.43	2.34
577.59	11.70
577.75	0.00
577.92	32.77
578.08	2.34
578.24	0.00
578.40	72.56
578.56	9.36
578.72	74.90
578.88	51.49
579.04	51.49
579.21	0.00
579.37	51.49
579.53	39.79
579.69	42.13
579.85	37.45
580.01	86.60
580.17	70.22
580.33	0.00
580.49	39.79
580.65	28.09
580.82	63.19
580.98	79.58
581.14	0.00
581.30	30.43
581.46	23.41
581.62	44.47
581.78	9.36
581.94	28.09
582.10	4.68
582.26	110.01
582.42	60.85
582.58	35.11
582.74	60.85
582.90	56.17
583.06	100.64
583.22	46.81
583.38	9.36
583.54	0.00
583.70	46.81
583.86	0.00
584.02	0.00
584.18	35.11
584.34	9.36
584.50	30.43
584.66	53.83
584.82	84.26
584.98	70.22
585.14	21.06
585.30	98.30
585.46	44.47
585.62	35.11
585.78	25.75
585.94	56.17
586.10	58.51
586.26	98.30
586.42	107.66
586.58	100.64
586.74	0.00
586.90	37.45
587.06	21.06
587.22	67.88
587.38	56.17
587.54	28.09
587.70	46.81
587.86	77.24
588.02	74.90
588.18	44.47
588.34	81.92
588.49	0.00
588.65	0.00
588.81	0.00
588.97	0.00
589.13	14.04
589.29	117.03
589.45	0.00
589.61	0.00
589.77	7.02
589.93	58.51
590.08	88.94
590.24	56.17
590.40	0.00
590.56	102.98
590.72	21.06
590.88	72.56
591.04	86.60
591.20	0.00
591.35	14.04
591.51	39.79
591.67	18.72
591.83	0.00
591.99	0.00
592.15	37.45
592.31	84.26
592.46	39.79
592.62	46.81
592.78	35.11
592.94	39.79
593.10	0.00
593.26	32.77
593.41	51.49
593.57	25.75
593.73	112.35
593.89	39.79
594.05	65.54
594.20	65.54
594.36	56.17
594.52	72.56
594.68	46.81
594.84	39.79
594.99	39.79
595.15	18.72
595.31	39.79
595.47	30.43
595.62	46.81
595.78	0.00
595.94	4.68
596.10	0.00
596.25	0.00
596.41	30.43
596.57	114.69
596.73	9.36
596.88	0.00
597.04	18.72
597.20	0.00
597.36	0.00
597.51	4.68
597.67	7.02
597.83	25.75
597.99	100.64
598.14	51.49
598.30	28.09
598.46	67.88
598.61	37.45
598.77	0.00
598.93	4.68
599.09	2.34
599.24	51.49
599.40	42.13
599.56	56.17
599.71	95.96
599.87	46.81
600.03	0.00
600.18	63.19
600.34	39.79
600.50	0.00
600.65	46.81
600.81	25.75
600.97	74.90
601.12	44.47
601.28	16.38
601.44	0.00
601.59	0.00
601.75	84.26
601.91	42.13
602.06	100.64
602.22	23.41
602.37	84.26
602.53	0.00
602.69	63.19
602.84	124.05
603.00	0.00
603.16	46.81
603.31	53.83
603.47	37.45
603.62	0.00
603.78	42.13
603.94	0.00
604.09	70.22
604.25	70.22
604.40	42.13
604.56	32.77
604.71	23.41
604.87	49.15
605.03	44.47
605.18	70.22
605.34	74.90
605.49	4.68
605.65	0.00
605.80	16.38
605.96	105.32
606.12	9.36
606.27	35.11
606.43	39.79
606.58	72.56
606.74	18.72
606.89	70.22
607.05	30.43
607.20	63.19
607.36	67.88
607.51	44.47
607.67	11.70
607.82	21.06
607.98	9.36
608.13	0.00
608.29	65.54
608.44	86.60
608.60	0.00
608.75	0.00
608.91	18.72
609.06	138.09
609.22	88.94
609.37	88.94
609.53	21.06
609.68	39.79
609.84	63.19
609.99	79.58
610.15	42.13
610.30	25.75
610.46	18.72
610.61	2.34
610.76	65.54
610.92	18.72
611.07	7.02
611.23	58.51
611.38	44.47
611.54	4.68
611.69	21.06
611.84	21.06
612.00	30.43
612.15	32.77
612.31	58.51
612.46	95.96
612.62	0.00
612.77	35.11
612.92	35.11
613.08	51.49
613.23	21.06
613.39	37.45
613.54	21.06
613.69	58.51
613.85	105.32
614.00	0.00
614.15	44.47
614.31	2.34
614.46	23.41
614.62	53.83
614.77	56.17
614.92	25.75
615.08	23.41
615.23	77.24
615.38	51.49
615.54	63.19
615.69	4.68
615.84	98.30
616.00	0.00
616.15	28.09
616.30	42.13
616.46	46.81
616.61	0.00
616.76	0.00
616.92	49.15
617.07	84.26
617.22	7.02
617.37	74.90
617.53	25.75
617.68	128.73
617.83	112.35
617.99	0.00
618.14	63.19
618.29	28.09
618.45	21.06
618.60	93.62
618.75	0.00
618.90	0.00
619.06	63.19
619.21	60.85
619.36	81.92
619.51	25.75
619.67	42.13
619.82	16.38
619.97	63.19
620.12	23.41
620.28	0.00
620.43	70.22
620.58	35.11
620.73	9.36
620.89	32.77
621.04	98.30
621.19	114.69
621.34	53.83
621.49	0.00
621.65	0.00
621.80	49.15
621.95	11.70
622.10	28.09
622.25	35.11
622.41	35.11
622.56	51.49
622.71	18.72
622.86	51.49
623.01	51.49
623.16	84.26
623.32	32.77
623.47	37.45
623.62	0.00
623.77	18.72
623.92	0.00
624.07	0.00
624.23	0.00
624.38	39.79
624.53	0.00
624.68	35.11
624.83	44.47
624.98	46.81
625.13	23.41
625.29	65.54
625.44	93.62
625.59	0.00
625.74	0.00
625.89	0.00
626.04	9.36
626.19	18.72
626.34	25.75
626.49	77.24
626.65	28.09
626.80	21.06
626.95	35.11
627.10	11.70
627.25	100.64
627.40	30.43
627.55	0.00
627.70	28.09
627.85	51.49
628.00	0.00
628.15	0.00
628.30	37.45
628.45	9.36
628.60	0.00
628.76	65.54
628.91	18.72
629.06	7.02
629.21	74.90
629.36	51.49
629.51	4.68
629.66	42.13
629.81	46.81
629.96	39.79
630.11	32.77
630.26	63.19
630.41	0.00
630.56	0.00
630.71	58.51
630.86	0.00
631.01	11.70
631.16	30.43
631.31	65.54
631.46	9.36
631.61	23.41
631.76	25.75
631.91	74.90
632.06	39.79
632.21	35.11
632.36	42.13
632.51	51.49
632.66	4.68
632.81	44.47
632.96	72.56
633.10	0.00
633.25	16.38
633.40	11.70
633.55	91.28
633.70	2.34
633.85	9.36
634.00	63.19
634.15	79.58
634.30	32.77
634.45	0.00
634.60	65.54
634.75	102.98
634.90	79.58
635.05	25.75
635.19	72.56
635.34	74.90
635.49	18.72
635.64	14.04
635.79	14.04
635.94	30.43
636.09	84.26
636.24	16.38
636.39	51.49
636.53	18.72
636.68	39.79
636.83	0.00
636.98	42.13
637.13	9.36
637.28	35.11
637.43	32.77
637.57	95.96
637.72	35.11
637.87	86.60
638.02	37.45
638.17	49.15
638.32	93.62
638.46	51.49
638.61	0.00
638.76	42.13
638.91	65.54
639.06	53.83
639.20	42.13
639.35	60.85
639.50	53.83
639.65	28.09
639.80	49.15
639.94	60.85
640.09	0.00
640.24	58.51
640.39	51.49
640.54	23.41
640.68	21.06
640.83	117.03
640.98	0.00
641.13	70.22
641.27	32.77
641.42	0.00
641.57	16.38
641.72	81.92
641.86	49.15
642.01	21.06
642.16	0.00
642.31	81.92
642.45	0.00
642.60	25.75
642.75	70.22
642.90	88.94
643.04	46.81
643.19	51.49
643.34	44.47
643.48	0.00
643.63	11.70
643.78	51.49
643.93	65.54
644.07	0.00
644.22	32.77
644.37	44.47
644.51	0.00
644.66	51.49
644.81	0.00
644.95	11.70
645.10	0.00
645.25	7.02
645.39	51.49
645.54	30.43
645.69	58.51
645.83	21.06
645.98	28.09
646.13	70.22
646.27	74.90
646.42	7.02
646.57	21.06
646.71	46.81
646.86	44.47
647.00	44.47
647.15	0.00
647.30	79.58
647.44	0.00
647.59	2.34
647.74	44.47
647.88	77.24
648.03	0.00
648.17	23.41
648.32	28.09
648.47	42.13
648.61	46.81
648.76	21.06
648.90	16.38
649.05	7.02
649.20	39.79
649.34	14.04
649.49	37.45
649.63	44.47
649.78	74.90
649.92	44.47
650.07	81.92
650.21	51.49
650.36	105.32
650.51	18.72
650.65	105.32
650.80	0.00
650.94	23.41
651.09	93.62
651.23	35.11
651.38	0.00
651.52	46.81
651.67	0.00
651.81	37.45
651.96	0.00
652.10	63.19
652.25	0.00
652.39	74.90
652.54	4.68
652.68	0.00
652.83	0.00
652.97	81.92
653.12	35.11
653.26	70.22
653.41	18.72
653.55	72.56
653.70	39.79
653.84	7.02
653.99	56.17
654.13	91.28
654.27	93.62
654.42	0.00
654.56	4.68
654.71	11.70
654.85	18.72
655.00	7.02
655.14	0.00
655.29	32.77
655.43	21.06
655.57	0.00
655.72	0.00
655.86	25.75
656.01	11.70
656.15	51.49
656.30	77.24
656.44	42.13
656.58	0.00
656.73	0.00
656.87	16.38
657.01	16.38
657.16	63.19
657.30	79.58
657.45	0.00
657.59	65.54
657.73	0.00
657.88	42.13
658.02	86.60
658.16	14.04
658.31	7.02
658.45	42.13
658.60	0.00
658.74	30.43
658.88	0.00
659.03	128.73
659.17	70.22
659.31	0.00
659.46	44.47
659.60	46.81
659.74	93.62
659.89	21.06
660.03	30.43
660.17	0.00
660.32	84.26
660.46	18.72
660.60	44.47
660.74	28.09
660.89	84.26
661.03	0.00
661.17	11.70
661.32	42.13
661.46	25.75
661.60	72.56
661.74	0.00
661.89	21.06
662.03	0.00
662.17	37.45
662.31	72.56
662.46	0.00
662.60	53.83
662.74	0.00
662.88	30.43
663.03	42.13
663.17	18.72
663.31	39.79
663.45	18.72
663.60	25.75
663.74	0.00
663.88	39.79
664.02	93.62
664.17	86.60
664.31	0.00
664.45	7.02
664.59	42.13
664.73	23.41
664.88	60.85
665.02	119.37
665.16	0.00
665.30	63.19
665.44	72.56
665.59	60.85
665.73	0.00
665.87	37.45
666.01	16.38
666.15	70.22
666.29	0.00
666.44	16.38
666.58	70.22
666.72	65.54
666.86	102.98
667.00	35.11
667.14	7.02
667.28	25.75
667.43	0.00
667.57	39.79
667.71	32.77
667.85	0.00
667.99	37.45
668.13	32.77
668.27	44.47
668.41	70.22
668.56	72.56
668.70	58.51
668.84	18.72
668.98	23.41
669.12	0.00
669.26	14.04
669.40	105.32
669.54	98.30
669.68	63.19
669.82	0.00
669.96	53.83
670.10	25.75
670.25	18.72
670.39	28.09
670.53	51.49
670.67	18.72
670.81	67.88
670.95	32.77
671.09	0.00
671.23	18.72
671.37	37.45
671.51	72.56
671.65	67.88
671.79	39.79
671.93	14.04
672.07	77.24
672.21	0.00
672.35	86.60
672.49	35.11
672.63	74.90
672.77	51.49
672.91	63.19
673.05	126.39
673.19	0.00
673.33	0.00
673.47	4.68
673.61	32.77
673.75	102.98
673.89	49.15
674.03	23.41
674.17	0.00
674.31	14.04
674.45	58.51
674.59	9.36
674.73	60.85
674.87	44.47
675.01	37.45
675.15	49.15
675.29	39.79
675.43	4.68
675.56	14.04
675.70	67.88
675.84	88.94
675.98	35.11
676.12	35.11
676.26	0.00
676.40	46.81
676.54	49.15
676.68	72.56
676.82	53.83
676.96	0.00
677.10	84.26
677.23	25.75
677.37	42.13
677.51	7.02
677.65	53.83
677.79	67.88
677.93	9.36
678.07	23.41
678.21	28.09
678.34	0.00
678.48	23.41
678.62	79.58
678.76	0.00
678.90	23.41
679.04	0.00
679.18	0.00
679.31	72.56
679.45	58.51
679.59	39.79
679.73	39.79
679.87	28.09
680.00	58.51
680.14	0.00
680.28	23.41
680.42	25.75
680.56	86.60
680.70	9.36
680.83	16.38
680.97	0.00
681.11	7.02
681.25	49.15
681.39	37.45
681.52	23.41
681.66	37.45
681.80	102.98
681.94	0.00
682.07	30.43
682.21	25.75
682.35	21.06
682.49	67.88
682.62	39.79
682.76	0.00
682.90	39.79
683.04	18.72
683.17	0.00
683.31	16.38
683.45	44.47
683.59	11.70
683.72	46.81
683.86	65.54
684.00	74.90
684.13	72.56
684.27	0.00
684.41	0.00
684.55	44.47
684.68	46.81
684.82	25.75
684.96	79.58
685.09	18.72
685.23	49.15
685.37	56.17
685.50	11.70
685.64	105.32
685.78	39.79
685.91	65.54
686.05	51.49
686.19	4.68
686.32	37.45
686.46	0.00
686.60	37.45
686.73	49.15
686.87	93.62
687.01	0.00
687.14	0.00
687.28	35.11
687.42	44.47
687.55	11.70
687.69	35.11
687.82	70.22
687.96	0.00
688.10	32.77
688.23	23.41
688.37	88.94
688.50	0.00
688.64	14.04
688.78	0.00
688.91	39.79
689.05	21.06
689.18	93.62
689.32	0.00
689.46	65.54
689.59	18.72
689.73	23.41
689.86	95.96
690.00	53.83
690.13	140.43
690.27	9.36
690.41	25.75
690.54	16.38
690.68	7.02
690.81	37.45
690.95	4.68
691.08	39.79
691.22	49.15
691.35	28.09
691.49	4.68
691.62	0.00
691.76	25.75
691.89	51.49
692.03	0.00
692.16	2.34
692.30	16.38
692.43	110.01
692.57	25.75
692.70	18.72
692.84	0.00
692.97	2.34
693.11	28.09
693.24	11.70
693.38	23.41
693.51	63.19
693.65	65.54
693.78	18.72
693.92	39.79
694.05	0.00
694.19	49.15
694.32	23.41
694.45	4.68
694.59	16.38
694.72	70.22
694.86	0.00
694.99	51.49
695.13	42.13
695.26	0.00
695.39	79.58
695.53	53.83
695.66	0.00
695.80	0.00
695.93	0.00
696.07	14.04
696.20	16.38
696.33	0.00
696.47	0.00
696.60	44.47
696.73	105.32
696.87	0.00
697.00	84.26
697.14	86.60
697.27	79.58
697.40	119.37
697.54	0.00
697.67	49.15
697.80	0.00
697.94	0.00
698.07	32.77
698.21	0.00
698.34	23.41
698.47	21.06
698.61	0.00
698.74	42.13
698.87	65.54
699.01	56.17
699.14	107.66
699.27	0.00
699.40	7.02
699.54	0.00
699.67	0.00
699.80	11.70
699.94	35.11
700.07	49.15
700.20	74.90
700.34	0.00
700.47	56.17
700.60	81.92
700.73	16.38
700.87	28.09
701.00	72.56
701.13	0.00
701.26	37.45
701.40	102.98
701.53	79.58
701.66	0.00
701.79	72.56
701.93	51.49
702.06	0.00
702.19	0.00
702.32	86.60
702.46	2.34
702.59	0.00
702.72	0.00
702.85	49.15
702.99	0.00
703.12	16.38
703.25	11.70
703.38	0.00
703.51	0.00
703.65	32.77
703.78	37.45
703.91	93.62
704.04	2.34
704.17	11.70
704.31	49.15
704.44	4.68
704.57	28.09
704.70	21.06
704.83	44.47
704.96	11.70
705.10	60.85
705.23	32.77
>>>>>End Processed Spectral Data<<<<<
