SpectraSuite Data File
++++++++++++++++++++++++++++++++++++
Date: Fri Oct 04 12:13:32 GMT-05:00 2013
User: price-jones
Dark Spectrum Present: No
Reference Spectrum Present: No
Number of Sampled Component Spectra: 1
Spectrometers: USB2+H05261
Integration Time (usec): 10000 (USB2+H05261)
Spectra Averaged: 1 (USB2+H05261)
Boxcar Smoothing: 0 (USB2+H05261)
Correct for Electrical Dark: No (USB2+H05261)
Strobe/Lamp Enabled: No (USB2+H05261)
Correct for Detector Non-linearity: No (USB2+H05261)
Correct for Stray Light: No (USB2+H05261)
Number of Pixels in Processed Spectrum: 2048
>>>>>Begin Processed Spectral Data<<<<<
365.73	23.41
365.92	23.41
366.12	23.41
366.32	0.00
366.52	0.00
366.72	0.00
366.91	0.00
367.11	0.00
367.31	0.00
367.51	0.00
367.70	0.00
367.90	0.00
368.10	0.00
368.30	0.00
368.49	0.00
368.69	0.00
368.89	0.00
369.09	0.00
369.28	0.00
369.48	0.00
369.68	0.00
369.87	0.00
370.07	0.00
370.27	0.00
370.47	0.00
370.66	0.00
370.86	0.00
371.06	0.00
371.25	0.00
371.45	0.00
371.65	21.06
371.84	0.00
372.04	58.51
372.24	0.00
372.44	0.00
372.63	11.70
372.83	16.38
373.03	70.22
373.22	46.81
373.42	65.54
373.62	39.79
373.81	70.22
374.01	0.00
374.21	23.41
374.40	79.58
374.60	88.94
374.79	37.45
374.99	88.94
375.19	23.41
375.38	0.00
375.58	51.49
375.78	0.00
375.97	49.15
376.17	0.00
376.37	60.85
376.56	105.32
376.76	67.88
376.95	42.13
377.15	16.38
377.35	16.38
377.54	9.36
377.74	21.06
377.93	58.51
378.13	37.45
378.33	39.79
378.52	49.15
378.72	16.38
378.91	35.11
379.11	0.00
379.31	0.00
379.50	0.00
379.70	84.26
379.89	39.79
380.09	81.92
380.28	51.49
380.48	9.36
380.68	39.79
380.87	46.81
381.07	0.00
381.26	70.22
381.46	14.04
381.65	88.94
381.85	21.06
382.04	0.00
382.24	58.51
382.43	9.36
382.63	23.41
382.83	0.00
383.02	0.00
383.22	0.00
383.41	0.00
383.61	0.00
383.80	0.00
384.00	39.79
384.19	23.41
384.39	42.13
384.58	18.72
384.78	67.88
384.97	0.00
385.17	0.00
385.36	0.00
385.56	0.00
385.75	9.36
385.95	91.28
386.14	70.22
386.34	0.00
386.53	58.51
386.72	2.34
386.92	35.11
387.11	102.98
387.31	32.77
387.50	0.00
387.70	18.72
387.89	0.00
388.09	70.22
388.28	0.00
388.48	23.41
388.67	16.38
388.86	0.00
389.06	81.92
389.25	16.38
389.45	21.06
389.64	11.70
389.84	77.24
390.03	72.56
390.22	117.03
390.42	23.41
390.61	39.79
390.81	42.13
391.00	58.51
391.19	60.85
391.39	7.02
391.58	49.15
391.78	25.75
391.97	30.43
392.16	4.68
392.36	37.45
392.55	25.75
392.75	30.43
392.94	65.54
393.13	4.68
393.33	44.47
393.52	2.34
393.71	30.43
393.91	9.36
394.10	14.04
394.29	21.06
394.49	18.72
394.68	79.58
394.88	0.00
395.07	91.28
395.26	4.68
395.46	23.41
395.65	35.11
395.84	0.00
396.04	46.81
396.23	21.06
396.42	74.90
396.62	11.70
396.81	16.38
397.00	30.43
397.19	67.88
397.39	25.75
397.58	0.00
397.77	0.00
397.97	51.49
398.16	35.11
398.35	16.38
398.55	46.81
398.74	65.54
398.93	2.34
399.12	65.54
399.32	0.00
399.51	63.19
399.70	72.56
399.90	16.38
400.09	14.04
400.28	51.49
400.47	0.00
400.67	72.56
400.86	39.79
401.05	0.00
401.24	39.79
401.44	32.77
401.63	14.04
401.82	35.11
402.01	0.00
402.21	63.19
402.40	46.81
402.59	74.90
402.78	30.43
402.97	37.45
403.17	21.06
403.36	25.75
403.55	23.41
403.74	18.72
403.93	35.11
404.13	2.34
404.32	42.13
404.51	0.00
404.70	32.77
404.89	23.41
405.09	37.45
405.28	84.26
405.47	79.58
405.66	44.47
405.85	14.04
406.05	23.41
406.24	0.00
406.43	46.81
406.62	11.70
406.81	39.79
407.00	0.00
407.20	14.04
407.39	58.51
407.58	2.34
407.77	18.72
407.96	0.00
408.15	42.13
408.34	0.00
408.54	0.00
408.73	32.77
408.92	58.51
409.11	32.77
409.30	88.94
409.49	21.06
409.68	39.79
409.87	37.45
410.07	39.79
410.26	56.17
410.45	32.77
410.64	9.36
410.83	88.94
411.02	32.77
411.21	23.41
411.40	91.28
411.59	9.36
411.78	0.00
411.98	42.13
412.17	23.41
412.36	9.36
412.55	21.06
412.74	56.17
412.93	63.19
413.12	0.00
413.31	53.83
413.50	81.92
413.69	2.34
413.88	46.81
414.07	63.19
414.26	121.71
414.45	0.00
414.64	51.49
414.83	0.00
415.02	0.00
415.22	0.00
415.41	51.49
415.60	0.00
415.79	0.00
415.98	32.77
416.17	0.00
416.36	7.02
416.55	39.79
416.74	88.94
416.93	70.22
417.12	0.00
417.31	0.00
417.50	9.36
417.69	67.88
417.88	18.72
418.07	49.15
418.26	0.00
418.45	0.00
418.64	11.70
418.83	65.54
419.02	0.00
419.21	4.68
419.39	32.77
419.58	95.96
419.77	9.36
419.96	79.58
420.15	0.00
420.34	23.41
420.53	32.77
420.72	25.75
420.91	9.36
421.10	30.43
421.29	0.00
421.48	39.79
421.67	72.56
421.86	39.79
422.05	63.19
422.24	25.75
422.43	0.00
422.61	0.00
422.80	0.00
422.99	28.09
423.18	0.00
423.37	140.43
423.56	58.51
423.75	21.06
423.94	0.00
424.13	21.06
424.32	25.75
424.50	56.17
424.69	79.58
424.88	7.02
425.07	23.41
425.26	46.81
425.45	23.41
425.64	14.04
425.83	18.72
426.01	77.24
426.20	53.83
426.39	37.45
426.58	44.47
426.77	32.77
426.96	16.38
427.15	30.43
427.33	18.72
427.52	44.47
427.71	88.94
427.90	7.02
428.09	44.47
428.28	9.36
428.46	25.75
428.65	37.45
428.84	21.06
429.03	58.51
429.22	11.70
429.40	21.06
429.59	0.00
429.78	56.17
429.97	32.77
430.16	46.81
430.34	63.19
430.53	28.09
430.72	51.49
430.91	0.00
431.10	23.41
431.28	11.70
431.47	14.04
431.66	0.00
431.85	0.00
432.03	0.00
432.22	0.00
432.41	84.26
432.60	32.77
432.79	32.77
432.97	0.00
433.16	25.75
433.35	42.13
433.54	138.09
433.72	67.88
433.91	58.51
434.10	37.45
434.28	72.56
434.47	0.00
434.66	0.00
434.85	77.24
435.03	23.41
435.22	21.06
435.41	60.85
435.59	79.58
435.78	39.79
435.97	42.13
436.16	60.85
436.34	37.45
436.53	0.00
436.72	23.41
436.90	0.00
437.09	60.85
437.28	51.49
437.46	23.41
437.65	30.43
437.84	9.36
438.02	0.00
438.21	30.43
438.40	30.43
438.58	4.68
438.77	0.00
438.96	86.60
439.14	0.00
439.33	0.00
439.52	30.43
439.70	81.92
439.89	14.04
440.08	16.38
440.26	0.00
440.45	14.04
440.63	25.75
440.82	9.36
441.01	23.41
441.19	14.04
441.38	28.09
441.57	70.22
441.75	4.68
441.94	16.38
442.12	37.45
442.31	0.00
442.50	11.70
442.68	42.13
442.87	39.79
443.05	2.34
443.24	49.15
443.43	30.43
443.61	25.75
443.80	128.73
443.98	32.77
444.17	74.90
444.35	63.19
444.54	37.45
444.73	39.79
444.91	30.43
445.10	14.04
445.28	37.45
445.47	81.92
445.65	18.72
445.84	49.15
446.02	25.75
446.21	16.38
446.39	51.49
446.58	4.68
446.77	81.92
446.95	9.36
447.14	88.94
447.32	32.77
447.51	0.00
447.69	35.11
447.88	0.00
448.06	77.24
448.25	32.77
448.43	70.22
448.62	11.70
448.80	119.37
448.99	28.09
449.17	30.43
449.36	9.36
449.54	2.34
449.73	74.90
449.91	46.81
450.10	51.49
450.28	74.90
450.46	88.94
450.65	23.41
450.83	0.00
451.02	21.06
451.20	0.00
451.39	42.13
451.57	44.47
451.76	0.00
451.94	35.11
452.13	21.06
452.31	14.04
452.49	0.00
452.68	21.06
452.86	95.96
453.05	0.00
453.23	81.92
453.42	42.13
453.60	28.09
453.78	32.77
453.97	0.00
454.15	25.75
454.34	9.36
454.52	18.72
454.70	30.43
454.89	0.00
455.07	84.26
455.26	70.22
455.44	11.70
455.62	35.11
455.81	11.70
455.99	0.00
456.17	49.15
456.36	63.19
456.54	0.00
456.73	42.13
456.91	39.79
457.09	0.00
457.28	63.19
457.46	74.90
457.64	37.45
457.83	65.54
458.01	2.34
458.19	58.51
458.38	0.00
458.56	51.49
458.74	7.02
458.93	53.83
459.11	60.85
459.29	32.77
459.48	72.56
459.66	84.26
459.84	32.77
460.03	60.85
460.21	107.66
460.39	39.79
460.57	67.88
460.76	4.68
460.94	18.72
461.12	0.00
461.31	53.83
461.49	65.54
461.67	56.17
461.85	28.09
462.04	44.47
462.22	98.30
462.40	46.81
462.59	0.00
462.77	74.90
462.95	25.75
463.13	58.51
463.32	0.00
463.50	0.00
463.68	126.39
463.86	32.77
464.05	56.17
464.23	60.85
464.41	7.02
464.59	21.06
464.78	74.90
464.96	18.72
465.14	37.45
465.32	11.70
465.50	65.54
465.69	11.70
465.87	65.54
466.05	0.00
466.23	39.79
466.41	21.06
466.60	28.09
466.78	16.38
466.96	46.81
467.14	32.77
467.32	23.41
467.51	0.00
467.69	72.56
467.87	0.00
468.05	42.13
468.23	0.00
468.41	14.04
468.60	44.47
468.78	60.85
468.96	46.81
469.14	30.43
469.32	46.81
469.50	91.28
469.69	7.02
469.87	0.00
470.05	28.09
470.23	42.13
470.41	35.11
470.59	0.00
470.77	110.01
470.95	60.85
471.14	42.13
471.32	44.47
471.50	70.22
471.68	72.56
471.86	42.13
472.04	58.51
472.22	79.58
472.40	53.83
472.58	16.38
472.77	91.28
472.95	58.51
473.13	4.68
473.31	25.75
473.49	42.13
473.67	2.34
473.85	0.00
474.03	25.75
474.21	16.38
474.39	23.41
474.57	18.72
474.75	88.94
474.93	72.56
475.12	7.02
475.30	23.41
475.48	11.70
475.66	18.72
475.84	79.58
476.02	0.00
476.20	32.77
476.38	0.00
476.56	42.13
476.74	0.00
476.92	49.15
477.10	0.00
477.28	9.36
477.46	32.77
477.64	67.88
477.82	35.11
478.00	35.11
478.18	0.00
478.36	0.00
478.54	0.00
478.72	0.00
478.90	37.45
479.08	58.51
479.26	0.00
479.44	23.41
479.62	44.47
479.80	16.38
479.98	79.58
480.16	58.51
480.34	100.64
480.52	60.85
480.70	88.94
480.88	28.09
481.06	56.17
481.24	32.77
481.41	4.68
481.59	0.00
481.77	121.71
481.95	100.64
482.13	42.13
482.31	63.19
482.49	11.70
482.67	121.71
482.85	9.36
483.03	105.32
483.21	44.47
483.39	21.06
483.57	49.15
483.74	9.36
483.92	7.02
484.10	60.85
484.28	100.64
484.46	102.98
484.64	60.85
484.82	30.43
485.00	28.09
485.18	32.77
485.35	58.51
485.53	0.00
485.71	30.43
485.89	0.00
486.07	60.85
486.25	7.02
486.43	18.72
486.61	42.13
486.78	72.56
486.96	18.72
487.14	42.13
487.32	60.85
487.50	28.09
487.68	74.90
487.85	79.58
488.03	28.09
488.21	65.54
488.39	112.35
488.57	37.45
488.75	93.62
488.92	107.66
489.10	37.45
489.28	56.17
489.46	93.62
489.64	98.30
489.81	0.00
489.99	16.38
490.17	53.83
490.35	79.58
490.53	44.47
490.70	88.94
490.88	46.81
491.06	77.24
491.24	0.00
491.41	63.19
491.59	51.49
491.77	70.22
491.95	56.17
492.13	93.62
492.30	51.49
492.48	84.26
492.66	46.81
492.84	56.17
493.01	86.60
493.19	70.22
493.37	32.77
493.54	46.81
493.72	23.41
493.90	0.00
494.08	42.13
494.25	70.22
494.43	51.49
494.61	23.41
494.79	93.62
494.96	23.41
495.14	16.38
495.32	65.54
495.49	16.38
495.67	35.11
495.85	21.06
496.02	51.49
496.20	30.43
496.38	72.56
496.55	44.47
496.73	60.85
496.91	51.49
497.09	49.15
497.26	74.90
497.44	28.09
497.62	0.00
497.79	16.38
497.97	53.83
498.14	51.49
498.32	74.90
498.50	51.49
498.67	51.49
498.85	42.13
499.03	51.49
499.20	0.00
499.38	0.00
499.56	86.60
499.73	93.62
499.91	11.70
500.08	49.15
500.26	7.02
500.44	25.75
500.61	23.41
500.79	32.77
500.97	44.47
501.14	65.54
501.32	67.88
501.49	0.00
501.67	18.72
501.84	44.47
502.02	107.66
502.20	37.45
502.37	56.17
502.55	30.43
502.72	28.09
502.90	11.70
503.07	63.19
503.25	65.54
503.43	46.81
503.60	2.34
503.78	98.30
503.95	37.45
504.13	110.01
504.30	56.17
504.48	56.17
504.65	58.51
504.83	0.00
505.01	56.17
505.18	0.00
505.36	0.00
505.53	2.34
505.71	16.38
505.88	11.70
506.06	58.51
506.23	81.92
506.41	0.00
506.58	112.35
506.76	37.45
506.93	81.92
507.11	58.51
507.28	30.43
507.46	25.75
507.63	105.32
507.81	72.56
507.98	88.94
508.16	28.09
508.33	72.56
508.50	30.43
508.68	39.79
508.85	65.54
509.03	60.85
509.20	51.49
509.38	11.70
509.55	0.00
509.73	28.09
509.90	98.30
510.08	32.77
510.25	28.09
510.42	32.77
510.60	46.81
510.77	65.54
510.95	14.04
511.12	114.69
511.30	114.69
511.47	95.96
511.64	39.79
511.82	102.98
511.99	42.13
512.17	42.13
512.34	88.94
512.51	21.06
512.69	44.47
512.86	102.98
513.04	63.19
513.21	126.39
513.38	0.00
513.56	23.41
513.73	72.56
513.90	7.02
514.08	35.11
514.25	79.58
514.43	4.68
514.60	18.72
514.77	46.81
514.95	58.51
515.12	88.94
515.29	79.58
515.47	70.22
515.64	86.60
515.81	124.05
515.99	35.11
516.16	67.88
516.33	28.09
516.51	9.36
516.68	0.00
516.85	42.13
517.03	0.00
517.20	44.47
517.37	58.51
517.54	32.77
517.72	4.68
517.89	65.54
518.06	25.75
518.24	7.02
518.41	98.30
518.58	58.51
518.75	0.00
518.93	91.28
519.10	18.72
519.27	25.75
519.45	58.51
519.62	23.41
519.79	114.69
519.96	37.45
520.14	0.00
520.31	9.36
520.48	49.15
520.65	49.15
520.83	70.22
521.00	98.30
521.17	16.38
521.34	14.04
521.52	46.81
521.69	21.06
521.86	0.00
522.03	42.13
522.20	7.02
522.38	0.00
522.55	44.47
522.72	58.51
522.89	67.88
523.07	32.77
523.24	28.09
523.41	74.90
523.58	30.43
523.75	67.88
523.92	0.00
524.10	65.54
524.27	4.68
524.44	28.09
524.61	53.83
524.78	0.00
524.96	74.90
525.13	70.22
525.30	86.60
525.47	39.79
525.64	84.26
525.81	79.58
525.98	58.51
526.16	72.56
526.33	0.00
526.50	0.00
526.67	63.19
526.84	77.24
527.01	105.32
527.18	60.85
527.36	21.06
527.53	60.85
527.70	0.00
527.87	25.75
528.04	95.96
528.21	107.66
528.38	58.51
528.55	16.38
528.72	32.77
528.89	23.41
529.07	58.51
529.24	65.54
529.41	51.49
529.58	37.45
529.75	72.56
529.92	18.72
530.09	16.38
530.26	124.05
530.43	63.19
530.60	46.81
530.77	0.00
530.94	56.17
531.11	28.09
531.28	70.22
531.46	7.02
531.63	0.00
531.80	7.02
531.97	42.13
532.14	28.09
532.31	49.15
532.48	28.09
532.65	4.68
532.82	0.00
532.99	0.00
533.16	37.45
533.33	21.06
533.50	0.00
533.67	98.30
533.84	16.38
534.01	4.68
534.18	9.36
534.35	32.77
534.52	37.45
534.69	25.75
534.86	18.72
535.03	56.17
535.20	51.49
535.37	16.38
535.54	32.77
535.71	51.49
535.88	25.75
536.05	35.11
536.22	0.00
536.38	21.06
536.55	88.94
536.72	42.13
536.89	105.32
537.06	39.79
537.23	23.41
537.40	39.79
537.57	44.47
537.74	53.83
537.91	32.77
538.08	25.75
538.25	0.00
538.42	0.00
538.59	72.56
538.75	37.45
538.92	46.81
539.09	18.72
539.26	53.83
539.43	114.69
539.60	105.32
539.77	81.92
539.94	72.56
540.11	44.47
540.28	21.06
540.44	63.19
540.61	21.06
540.78	42.13
540.95	16.38
541.12	21.06
541.29	35.11
541.46	11.70
541.62	0.00
541.79	9.36
541.96	0.00
542.13	14.04
542.30	9.36
542.47	30.43
542.63	16.38
542.80	14.04
542.97	7.02
543.14	102.98
543.31	56.17
543.48	98.30
543.64	0.00
543.81	23.41
543.98	42.13
544.15	112.35
544.32	25.75
544.48	49.15
544.65	63.19
544.82	21.06
544.99	110.01
545.16	2.34
545.32	16.38
545.49	0.00
545.66	88.94
545.83	39.79
546.00	0.00
546.16	60.85
546.33	63.19
546.50	25.75
546.67	42.13
546.83	0.00
547.00	51.49
547.17	9.36
547.34	0.00
547.50	0.00
547.67	42.13
547.84	21.06
548.00	37.45
548.17	16.38
548.34	18.72
548.51	42.13
548.67	102.98
548.84	16.38
549.01	74.90
549.18	23.41
549.34	58.51
549.51	53.83
549.68	107.66
549.84	2.34
550.01	0.00
550.18	28.09
550.34	28.09
550.51	32.77
550.68	0.00
550.84	46.81
551.01	63.19
551.18	32.77
551.34	60.85
551.51	46.81
551.68	28.09
551.84	7.02
552.01	25.75
552.18	2.34
552.34	0.00
552.51	25.75
552.68	0.00
552.84	9.36
553.01	21.06
553.18	25.75
553.34	42.13
553.51	0.00
553.67	74.90
553.84	32.77
554.01	37.45
554.17	21.06
554.34	51.49
554.51	0.00
554.67	23.41
554.84	46.81
555.00	0.00
555.17	0.00
555.33	88.94
555.50	84.26
555.67	30.43
555.83	4.68
556.00	0.00
556.16	86.60
556.33	37.45
556.50	67.88
556.66	53.83
556.83	81.92
556.99	2.34
557.16	51.49
557.32	56.17
557.49	23.41
557.65	74.90
557.82	0.00
557.98	0.00
558.15	86.60
558.32	74.90
558.48	79.58
558.65	0.00
558.81	95.96
558.98	70.22
559.14	9.36
559.31	25.75
559.47	74.90
559.64	105.32
559.80	98.30
559.97	86.60
560.13	51.49
560.30	44.47
560.46	79.58
560.63	74.90
560.79	37.45
560.96	0.00
561.12	93.62
561.29	60.85
561.45	56.17
561.61	72.56
561.78	4.68
561.94	72.56
562.11	0.00
562.27	0.00
562.44	11.70
562.60	77.24
562.77	72.56
562.93	44.47
563.10	21.06
563.26	105.32
563.42	65.54
563.59	39.79
563.75	4.68
563.92	39.79
564.08	0.00
564.24	72.56
564.41	65.54
564.57	102.98
564.74	56.17
564.90	51.49
565.07	51.49
565.23	14.04
565.39	72.56
565.56	51.49
565.72	77.24
565.88	2.34
566.05	23.41
566.21	49.15
566.38	53.83
566.54	7.02
566.70	79.58
566.87	49.15
567.03	0.00
567.19	60.85
567.36	105.32
567.52	28.09
567.68	86.60
567.85	0.00
568.01	44.47
568.17	25.75
568.34	2.34
568.50	23.41
568.66	18.72
568.83	0.00
568.99	46.81
569.15	93.62
569.32	25.75
569.48	0.00
569.64	0.00
569.81	18.72
569.97	42.13
570.13	58.51
570.30	58.51
570.46	18.72
570.62	23.41
570.78	30.43
570.95	77.24
571.11	60.85
571.27	63.19
571.43	49.15
571.60	74.90
571.76	51.49
571.92	7.02
572.09	0.00
572.25	0.00
572.41	4.68
572.57	30.43
572.74	39.79
572.90	35.11
573.06	70.22
573.22	84.26
573.38	0.00
573.55	44.47
573.71	60.85
573.87	72.56
574.03	58.51
574.20	0.00
574.36	18.72
574.52	35.11
574.68	39.79
574.84	44.47
575.01	21.06
575.17	21.06
575.33	65.54
575.49	56.17
575.65	7.02
575.82	65.54
575.98	23.41
576.14	0.00
576.30	11.70
576.46	51.49
576.62	35.11
576.79	44.47
576.95	7.02
577.11	53.83
577.27	7.02
577.43	0.00
577.59	65.54
577.75	49.15
577.92	25.75
578.08	0.00
578.24	44.47
578.40	11.70
578.56	18.72
578.72	37.45
578.88	51.49
579.04	11.70
579.21	91.28
579.37	18.72
579.53	46.81
579.69	0.00
579.85	39.79
580.01	0.00
580.17	53.83
580.33	39.79
580.49	32.77
580.65	49.15
580.82	16.38
580.98	0.00
581.14	4.68
581.30	79.58
581.46	49.15
581.62	67.88
581.78	81.92
581.94	79.58
582.10	7.02
582.26	39.79
582.42	35.11
582.58	0.00
582.74	37.45
582.90	63.19
583.06	74.90
583.22	77.24
583.38	65.54
583.54	39.79
583.70	119.37
583.86	46.81
584.02	100.64
584.18	32.77
584.34	42.13
584.50	11.70
584.66	0.00
584.82	0.00
584.98	0.00
585.14	32.77
585.30	0.00
585.46	0.00
585.62	58.51
585.78	9.36
585.94	7.02
586.10	46.81
586.26	74.90
586.42	72.56
586.58	65.54
586.74	0.00
586.90	91.28
587.06	79.58
587.22	0.00
587.38	0.00
587.54	25.75
587.70	0.00
587.86	39.79
588.02	86.60
588.18	37.45
588.34	51.49
588.49	46.81
588.65	37.45
588.81	74.90
588.97	16.38
589.13	21.06
589.29	72.56
589.45	79.58
589.61	28.09
589.77	14.04
589.93	7.02
590.08	0.00
590.24	46.81
590.40	81.92
590.56	81.92
590.72	37.45
590.88	11.70
591.04	0.00
591.20	32.77
591.35	112.35
591.51	28.09
591.67	63.19
591.83	0.00
591.99	49.15
592.15	102.98
592.31	58.51
592.46	63.19
592.62	23.41
592.78	142.77
592.94	56.17
593.10	25.75
593.26	0.00
593.41	63.19
593.57	74.90
593.73	23.41
593.89	74.90
594.05	37.45
594.20	53.83
594.36	23.41
594.52	65.54
594.68	0.00
594.84	37.45
594.99	67.88
595.15	9.36
595.31	37.45
595.47	7.02
595.62	74.90
595.78	56.17
595.94	2.34
596.10	56.17
596.25	72.56
596.41	4.68
596.57	32.77
596.73	4.68
596.88	72.56
597.04	0.00
597.20	56.17
597.36	39.79
597.51	88.94
597.67	0.00
597.83	39.79
597.99	0.00
598.14	49.15
598.30	67.88
598.46	37.45
598.61	46.81
598.77	79.58
598.93	49.15
599.09	72.56
599.24	0.00
599.40	14.04
599.56	67.88
599.71	25.75
599.87	30.43
600.03	70.22
600.18	23.41
600.34	28.09
600.50	7.02
600.65	79.58
600.81	25.75
600.97	53.83
601.12	53.83
601.28	21.06
601.44	0.00
601.59	0.00
601.75	18.72
601.91	23.41
602.06	88.94
602.22	25.75
602.37	63.19
602.53	107.66
602.69	53.83
602.84	63.19
603.00	79.58
603.16	23.41
603.31	4.68
603.47	49.15
603.62	67.88
603.78	39.79
603.94	7.02
604.09	7.02
604.25	32.77
604.40	67.88
604.56	95.96
604.71	0.00
604.87	95.96
605.03	60.85
605.18	95.96
605.34	98.30
605.49	51.49
605.65	9.36
605.80	51.49
605.96	18.72
606.12	0.00
606.27	39.79
606.43	93.62
606.58	67.88
606.74	7.02
606.89	21.06
607.05	16.38
607.20	0.00
607.36	88.94
607.51	16.38
607.67	37.45
607.82	16.38
607.98	0.00
608.13	0.00
608.29	14.04
608.44	65.54
608.60	0.00
608.75	58.51
608.91	2.34
609.06	23.41
609.22	51.49
609.37	56.17
609.53	0.00
609.68	39.79
609.84	95.96
609.99	0.00
610.15	56.17
610.30	11.70
610.46	60.85
610.61	60.85
610.76	30.43
610.92	23.41
611.07	105.32
611.23	58.51
611.38	0.00
611.54	21.06
611.69	25.75
611.84	14.04
612.00	102.98
612.15	0.00
612.31	0.00
612.46	0.00
612.62	65.54
612.77	21.06
612.92	0.00
613.08	25.75
613.23	42.13
613.39	39.79
613.54	0.00
613.69	58.51
613.85	0.00
614.00	18.72
614.15	110.01
614.31	65.54
614.46	51.49
614.62	11.70
614.77	91.28
614.92	110.01
615.08	0.00
615.23	84.26
615.38	37.45
615.54	35.11
615.69	25.75
615.84	21.06
616.00	0.00
616.15	51.49
616.30	0.00
616.46	25.75
616.61	42.13
616.76	44.47
616.92	70.22
617.07	0.00
617.22	84.26
617.37	0.00
617.53	23.41
617.68	39.79
617.83	0.00
617.99	49.15
618.14	0.00
618.29	51.49
618.45	0.00
618.60	84.26
618.75	156.82
618.90	51.49
619.06	42.13
619.21	42.13
619.36	0.00
619.51	9.36
619.67	0.00
619.82	11.70
619.97	56.17
620.12	72.56
620.28	7.02
620.43	30.43
620.58	37.45
620.73	37.45
620.89	4.68
621.04	39.79
621.19	42.13
621.34	51.49
621.49	39.79
621.65	49.15
621.80	46.81
621.95	0.00
622.10	74.90
622.25	53.83
622.41	58.51
622.56	18.72
622.71	0.00
622.86	2.34
623.01	39.79
623.16	16.38
623.32	70.22
623.47	0.00
623.62	0.00
623.77	95.96
623.92	32.77
624.07	100.64
624.23	63.19
624.38	49.15
624.53	72.56
624.68	21.06
624.83	77.24
624.98	37.45
625.13	0.00
625.29	16.38
625.44	28.09
625.59	0.00
625.74	21.06
625.89	37.45
626.04	21.06
626.19	16.38
626.34	16.38
626.49	39.79
626.65	0.00
626.80	0.00
626.95	0.00
627.10	0.00
627.25	95.96
627.40	0.00
627.55	21.06
627.70	44.47
627.85	49.15
628.00	51.49
628.15	100.64
628.30	81.92
628.45	0.00
628.60	23.41
628.76	9.36
628.91	9.36
629.06	18.72
629.21	121.71
629.36	70.22
629.51	7.02
629.66	32.77
629.81	32.77
629.96	21.06
630.11	18.72
630.26	16.38
630.41	0.00
630.56	18.72
630.71	21.06
630.86	37.45
631.01	16.38
631.16	16.38
631.31	0.00
631.46	30.43
631.61	0.00
631.76	35.11
631.91	14.04
632.06	0.00
632.21	86.60
632.36	14.04
632.51	0.00
632.66	18.72
632.81	0.00
632.96	0.00
633.10	23.41
633.25	147.45
633.40	0.00
633.55	16.38
633.70	37.45
633.85	63.19
634.00	79.58
634.15	0.00
634.30	93.62
634.45	21.06
634.60	39.79
634.75	70.22
634.90	39.79
635.05	0.00
635.19	4.68
635.34	4.68
635.49	114.69
635.64	0.00
635.79	18.72
635.94	100.64
636.09	53.83
636.24	0.00
636.39	28.09
636.53	35.11
636.68	105.32
636.83	91.28
636.98	53.83
637.13	2.34
637.28	28.09
637.43	77.24
637.57	7.02
637.72	18.72
637.87	88.94
638.02	51.49
638.17	25.75
638.32	84.26
638.46	65.54
638.61	58.51
638.76	51.49
638.91	65.54
639.06	0.00
639.20	100.64
639.35	44.47
639.50	88.94
639.65	37.45
639.80	32.77
639.94	65.54
640.09	44.47
640.24	30.43
640.39	32.77
640.54	7.02
640.68	46.81
640.83	0.00
640.98	23.41
641.13	0.00
641.27	0.00
641.42	49.15
641.57	86.60
641.72	35.11
641.86	37.45
642.01	46.81
642.16	0.00
642.31	135.75
642.45	0.00
642.60	53.83
642.75	74.90
642.90	23.41
643.04	37.45
643.19	60.85
643.34	70.22
643.48	60.85
643.63	28.09
643.78	58.51
643.93	51.49
644.07	88.94
644.22	0.00
644.37	37.45
644.51	60.85
644.66	72.56
644.81	23.41
644.95	49.15
645.10	7.02
645.25	35.11
645.39	72.56
645.54	18.72
645.69	107.66
645.83	67.88
645.98	91.28
646.13	9.36
646.27	2.34
646.42	14.04
646.57	9.36
646.71	72.56
646.86	0.00
647.00	84.26
647.15	46.81
647.30	0.00
647.44	9.36
647.59	60.85
647.74	42.13
647.88	16.38
648.03	67.88
648.17	0.00
648.32	93.62
648.47	16.38
648.61	25.75
648.76	51.49
648.90	0.00
649.05	42.13
649.20	0.00
649.34	39.79
649.49	32.77
649.63	18.72
649.78	44.47
649.92	14.04
650.07	67.88
650.21	72.56
650.36	4.68
650.51	23.41
650.65	35.11
650.80	63.19
650.94	0.00
651.09	9.36
651.23	7.02
651.38	86.60
651.52	60.85
651.67	9.36
651.81	14.04
651.96	0.00
652.10	4.68
652.25	9.36
652.39	65.54
652.54	88.94
652.68	0.00
652.83	70.22
652.97	67.88
653.12	95.96
653.26	98.30
653.41	16.38
653.55	23.41
653.70	0.00
653.84	51.49
653.99	0.00
654.13	21.06
654.27	4.68
654.42	0.00
654.56	14.04
654.71	30.43
654.85	4.68
655.00	93.62
655.14	0.00
655.29	0.00
655.43	53.83
655.57	18.72
655.72	16.38
655.86	49.15
656.01	93.62
656.15	56.17
656.30	74.90
656.44	44.47
656.58	46.81
656.73	67.88
656.87	37.45
657.01	46.81
657.16	35.11
657.30	81.92
657.45	0.00
657.59	67.88
657.73	35.11
657.88	28.09
658.02	95.96
658.16	35.11
658.31	0.00
658.45	63.19
658.60	74.90
658.74	4.68
658.88	81.92
659.03	37.45
659.17	0.00
659.31	2.34
659.46	58.51
659.60	74.90
659.74	30.43
659.89	32.77
660.03	49.15
660.17	35.11
660.32	0.00
660.46	0.00
660.60	0.00
660.74	32.77
660.89	14.04
661.03	25.75
661.17	39.79
661.32	32.77
661.46	0.00
661.60	39.79
661.74	9.36
661.89	14.04
662.03	0.00
662.17	49.15
662.31	0.00
662.46	44.47
662.60	21.06
662.74	95.96
662.88	23.41
663.03	25.75
663.17	0.00
663.31	53.83
663.45	2.34
663.60	0.00
663.74	46.81
663.88	46.81
664.02	81.92
664.17	9.36
664.31	63.19
664.45	58.51
664.59	28.09
664.73	11.70
664.88	67.88
665.02	39.79
665.16	0.00
665.30	65.54
665.44	16.38
665.59	18.72
665.73	0.00
665.87	0.00
666.01	32.77
666.15	18.72
666.29	28.09
666.44	35.11
666.58	51.49
666.72	88.94
666.86	53.83
667.00	0.00
667.14	28.09
667.28	0.00
667.43	0.00
667.57	0.00
667.71	37.45
667.85	0.00
667.99	18.72
668.13	110.01
668.27	44.47
668.41	21.06
668.56	18.72
668.70	25.75
668.84	7.02
668.98	4.68
669.12	23.41
669.26	21.06
669.40	0.00
669.54	67.88
669.68	58.51
669.82	37.45
669.96	63.19
670.10	63.19
670.25	44.47
670.39	72.56
670.53	0.00
670.67	23.41
670.81	0.00
670.95	39.79
671.09	74.90
671.23	53.83
671.37	0.00
671.51	72.56
671.65	65.54
671.79	18.72
671.93	133.41
672.07	60.85
672.21	14.04
672.35	25.75
672.49	21.06
672.63	102.98
672.77	25.75
672.91	39.79
673.05	0.00
673.19	4.68
673.33	0.00
673.47	18.72
673.61	37.45
673.75	56.17
673.89	0.00
674.03	0.00
674.17	18.72
674.31	0.00
674.45	35.11
674.59	28.09
674.73	49.15
674.87	0.00
675.01	37.45
675.15	53.83
675.29	0.00
675.43	0.00
675.56	95.96
675.70	16.38
675.84	16.38
675.98	0.00
676.12	98.30
676.26	46.81
676.40	0.00
676.54	0.00
676.68	18.72
676.82	11.70
676.96	0.00
677.10	0.00
677.23	56.17
677.37	0.00
677.51	65.54
677.65	74.90
677.79	58.51
677.93	46.81
678.07	39.79
678.21	28.09
678.34	35.11
678.48	39.79
678.62	35.11
678.76	0.00
678.90	32.77
679.04	53.83
679.18	79.58
679.31	28.09
679.45	42.13
679.59	121.71
679.73	65.54
679.87	44.47
680.00	0.00
680.14	32.77
680.28	100.64
680.42	79.58
680.56	0.00
680.70	0.00
680.83	60.85
680.97	65.54
681.11	72.56
681.25	39.79
681.39	30.43
681.52	21.06
681.66	65.54
681.80	39.79
681.94	44.47
682.07	4.68
682.21	23.41
682.35	39.79
682.49	63.19
682.62	49.15
682.76	58.51
682.90	49.15
683.04	56.17
683.17	53.83
683.31	9.36
683.45	67.88
683.59	30.43
683.72	95.96
683.86	91.28
684.00	0.00
684.13	35.11
684.27	4.68
684.41	0.00
684.55	58.51
684.68	65.54
684.82	18.72
684.96	53.83
685.09	79.58
685.23	23.41
685.37	51.49
685.50	28.09
685.64	0.00
685.78	0.00
685.91	79.58
686.05	51.49
686.19	102.98
686.32	65.54
686.46	0.00
686.60	37.45
686.73	86.60
686.87	0.00
687.01	23.41
687.14	7.02
687.28	32.77
687.42	35.11
687.55	2.34
687.69	44.47
687.82	32.77
687.96	14.04
688.10	0.00
688.23	95.96
688.37	2.34
688.50	28.09
688.64	86.60
688.78	63.19
688.91	35.11
689.05	60.85
689.18	9.36
689.32	7.02
689.46	11.70
689.59	35.11
689.73	42.13
689.86	56.17
690.00	37.45
690.13	14.04
690.27	25.75
690.41	9.36
690.54	35.11
690.68	0.00
690.81	0.00
690.95	21.06
691.08	25.75
691.22	0.00
691.35	114.69
691.49	11.70
691.62	35.11
691.76	4.68
691.89	0.00
692.03	70.22
692.16	0.00
692.30	32.77
692.43	25.75
692.57	0.00
692.70	51.49
692.84	67.88
692.97	9.36
693.11	51.49
693.24	42.13
693.38	32.77
693.51	81.92
693.65	98.30
693.78	39.79
693.92	95.96
694.05	0.00
694.19	21.06
694.32	107.66
694.45	2.34
694.59	0.00
694.72	0.00
694.86	0.00
694.99	51.49
695.13	0.00
695.26	0.00
695.39	56.17
695.53	77.24
695.66	37.45
695.80	11.70
695.93	0.00
696.07	21.06
696.20	30.43
696.33	67.88
696.47	14.04
696.60	18.72
696.73	0.00
696.87	0.00
697.00	70.22
697.14	0.00
697.27	67.88
697.40	28.09
697.54	0.00
697.67	32.77
697.80	35.11
697.94	11.70
698.07	2.34
698.21	84.26
698.34	0.00
698.47	25.75
698.61	32.77
698.74	49.15
698.87	28.09
699.01	0.00
699.14	2.34
699.27	72.56
699.40	0.00
699.54	4.68
699.67	16.38
699.80	0.00
699.94	98.30
700.07	28.09
700.20	58.51
700.34	25.75
700.47	37.45
700.60	23.41
700.73	4.68
700.87	16.38
701.00	0.00
701.13	16.38
701.26	112.35
701.40	21.06
701.53	67.88
701.66	18.72
701.79	0.00
701.93	42.13
702.06	37.45
702.19	16.38
702.32	81.92
702.46	86.60
702.59	93.62
702.72	63.19
702.85	0.00
702.99	77.24
703.12	11.70
703.25	9.36
703.38	56.17
703.51	28.09
703.65	39.79
703.78	23.41
703.91	42.13
704.04	105.32
704.17	53.83
704.31	77.24
704.44	39.79
704.57	4.68
704.70	42.13
704.83	18.72
704.96	14.04
705.10	60.85
705.23	72.56
>>>>>End Processed Spectral Data<<<<<
