SpectraSuite Data File
++++++++++++++++++++++++++++++++++++
Date: Fri Oct 04 12:13:37 GMT-05:00 2013
User: price-jones
Dark Spectrum Present: No
Reference Spectrum Present: No
Number of Sampled Component Spectra: 1
Spectrometers: USB2+H05261
Integration Time (usec): 10000 (USB2+H05261)
Spectra Averaged: 1 (USB2+H05261)
Boxcar Smoothing: 0 (USB2+H05261)
Correct for Electrical Dark: No (USB2+H05261)
Strobe/Lamp Enabled: No (USB2+H05261)
Correct for Detector Non-linearity: No (USB2+H05261)
Correct for Stray Light: No (USB2+H05261)
Number of Pixels in Processed Spectrum: 2048
>>>>>Begin Processed Spectral Data<<<<<
365.73	0.00
365.92	0.00
366.12	0.00
366.32	0.00
366.52	0.00
366.72	0.00
366.91	0.00
367.11	0.00
367.31	0.00
367.51	0.00
367.70	0.00
367.90	0.00
368.10	0.00
368.30	0.00
368.49	0.00
368.69	0.00
368.89	0.00
369.09	0.00
369.28	0.00
369.48	0.00
369.68	0.00
369.87	0.00
370.07	0.00
370.27	0.00
370.47	0.00
370.66	0.00
370.86	0.00
371.06	30.43
371.25	0.00
371.45	0.00
371.65	0.00
371.84	0.00
372.04	28.09
372.24	0.00
372.44	7.02
372.63	2.34
372.83	0.00
373.03	0.00
373.22	0.00
373.42	37.45
373.62	30.43
373.81	0.00
374.01	11.70
374.21	88.94
374.40	63.19
374.60	39.79
374.79	23.41
374.99	0.00
375.19	98.30
375.38	23.41
375.58	35.11
375.78	0.00
375.97	37.45
376.17	0.00
376.37	14.04
376.56	0.00
376.76	65.54
376.95	7.02
377.15	0.00
377.35	28.09
377.54	7.02
377.74	44.47
377.93	16.38
378.13	0.00
378.33	39.79
378.52	37.45
378.72	39.79
378.91	51.49
379.11	35.11
379.31	0.00
379.50	0.00
379.70	79.58
379.89	0.00
380.09	84.26
380.28	46.81
380.48	60.85
380.68	0.00
380.87	0.00
381.07	56.17
381.26	0.00
381.46	0.00
381.65	0.00
381.85	0.00
382.04	4.68
382.24	37.45
382.43	7.02
382.63	7.02
382.83	14.04
383.02	72.56
383.22	0.00
383.41	0.00
383.61	2.34
383.80	37.45
384.00	0.00
384.19	35.11
384.39	42.13
384.58	0.00
384.78	23.41
384.97	0.00
385.17	0.00
385.36	72.56
385.56	0.00
385.75	14.04
385.95	0.00
386.14	0.00
386.34	53.83
386.53	77.24
386.72	70.22
386.92	39.79
387.11	58.51
387.31	88.94
387.50	30.43
387.70	86.60
387.89	14.04
388.09	30.43
388.28	0.00
388.48	28.09
388.67	0.00
388.86	25.75
389.06	63.19
389.25	0.00
389.45	0.00
389.64	23.41
389.84	9.36
390.03	18.72
390.22	7.02
390.42	0.00
390.61	0.00
390.81	0.00
391.00	56.17
391.19	9.36
391.39	16.38
391.58	21.06
391.78	51.49
391.97	0.00
392.16	98.30
392.36	72.56
392.55	0.00
392.75	28.09
392.94	39.79
393.13	0.00
393.33	0.00
393.52	23.41
393.71	18.72
393.91	16.38
394.10	58.51
394.29	58.51
394.49	16.38
394.68	4.68
394.88	44.47
395.07	81.92
395.26	11.70
395.46	53.83
395.65	25.75
395.84	11.70
396.04	39.79
396.23	0.00
396.42	0.00
396.62	30.43
396.81	0.00
397.00	0.00
397.19	39.79
397.39	0.00
397.58	0.00
397.77	9.36
397.97	77.24
398.16	14.04
398.35	18.72
398.55	77.24
398.74	35.11
398.93	58.51
399.12	32.77
399.32	4.68
399.51	0.00
399.70	56.17
399.90	0.00
400.09	25.75
400.28	102.98
400.47	51.49
400.67	70.22
400.86	21.06
401.05	30.43
401.24	28.09
401.44	124.05
401.63	18.72
401.82	117.03
402.01	46.81
402.21	25.75
402.40	25.75
402.59	35.11
402.78	21.06
402.97	21.06
403.17	42.13
403.36	28.09
403.55	0.00
403.74	16.38
403.93	16.38
404.13	37.45
404.32	79.58
404.51	77.24
404.70	84.26
404.89	58.51
405.09	28.09
405.28	25.75
405.47	30.43
405.66	39.79
405.85	63.19
406.05	32.77
406.24	39.79
406.43	23.41
406.62	86.60
406.81	16.38
407.00	51.49
407.20	0.00
407.39	0.00
407.58	0.00
407.77	86.60
407.96	4.68
408.15	53.83
408.34	49.15
408.54	16.38
408.73	0.00
408.92	0.00
409.11	23.41
409.30	70.22
409.49	0.00
409.68	0.00
409.87	49.15
410.07	18.72
410.26	7.02
410.45	131.07
410.64	39.79
410.83	37.45
411.02	14.04
411.21	28.09
411.40	39.79
411.59	110.01
411.78	77.24
411.98	0.00
412.17	0.00
412.36	70.22
412.55	14.04
412.74	23.41
412.93	70.22
413.12	4.68
413.31	11.70
413.50	79.58
413.69	35.11
413.88	91.28
414.07	14.04
414.26	53.83
414.45	0.00
414.64	44.47
414.83	37.45
415.02	11.70
415.22	7.02
415.41	67.88
415.60	25.75
415.79	91.28
415.98	16.38
416.17	21.06
416.36	53.83
416.55	2.34
416.74	0.00
416.93	39.79
417.12	7.02
417.31	25.75
417.50	32.77
417.69	39.79
417.88	46.81
418.07	28.09
418.26	30.43
418.45	0.00
418.64	30.43
418.83	67.88
419.02	46.81
419.21	18.72
419.39	53.83
419.58	42.13
419.77	9.36
419.96	11.70
420.15	18.72
420.34	166.18
420.53	0.00
420.72	42.13
420.91	0.00
421.10	93.62
421.29	56.17
421.48	32.77
421.67	23.41
421.86	0.00
422.05	56.17
422.24	4.68
422.43	23.41
422.61	16.38
422.80	77.24
422.99	23.41
423.18	79.58
423.37	60.85
423.56	58.51
423.75	49.15
423.94	23.41
424.13	35.11
424.32	18.72
424.50	28.09
424.69	93.62
424.88	53.83
425.07	37.45
425.26	37.45
425.45	102.98
425.64	37.45
425.83	86.60
426.01	0.00
426.20	53.83
426.39	39.79
426.58	14.04
426.77	105.32
426.96	46.81
427.15	51.49
427.33	23.41
427.52	65.54
427.71	81.92
427.90	23.41
428.09	49.15
428.28	46.81
428.46	14.04
428.65	46.81
428.84	30.43
429.03	56.17
429.22	25.75
429.40	58.51
429.59	4.68
429.78	53.83
429.97	11.70
430.16	0.00
430.34	44.47
430.53	0.00
430.72	51.49
430.91	60.85
431.10	11.70
431.28	100.64
431.47	131.07
431.66	53.83
431.85	0.00
432.03	11.70
432.22	2.34
432.41	74.90
432.60	16.38
432.79	49.15
432.97	56.17
433.16	67.88
433.35	65.54
433.54	84.26
433.72	72.56
433.91	72.56
434.10	16.38
434.28	102.98
434.47	67.88
434.66	67.88
434.85	21.06
435.03	56.17
435.22	4.68
435.41	74.90
435.59	65.54
435.78	35.11
435.97	105.32
436.16	91.28
436.34	25.75
436.53	9.36
436.72	128.73
436.90	44.47
437.09	51.49
437.28	58.51
437.46	4.68
437.65	21.06
437.84	84.26
438.02	53.83
438.21	18.72
438.40	46.81
438.58	37.45
438.77	95.96
438.96	142.77
439.14	74.90
439.33	81.92
439.52	32.77
439.70	11.70
439.89	0.00
440.08	9.36
440.26	60.85
440.45	18.72
440.63	35.11
440.82	23.41
441.01	35.11
441.19	49.15
441.38	18.72
441.57	0.00
441.75	2.34
441.94	91.28
442.12	9.36
442.31	14.04
442.50	65.54
442.68	72.56
442.87	77.24
443.05	142.77
443.24	72.56
443.43	168.52
443.61	16.38
443.80	42.13
443.98	42.13
444.17	56.17
444.35	67.88
444.54	72.56
444.73	49.15
444.91	42.13
445.10	53.83
445.28	100.64
445.47	16.38
445.65	72.56
445.84	37.45
446.02	11.70
446.21	0.00
446.39	72.56
446.58	32.77
446.77	53.83
446.95	11.70
447.14	72.56
447.32	93.62
447.51	100.64
447.69	37.45
447.88	56.17
448.06	21.06
448.25	51.49
448.43	37.45
448.62	67.88
448.80	74.90
448.99	53.83
449.17	81.92
449.36	70.22
449.54	100.64
449.73	44.47
449.91	0.00
450.10	51.49
450.28	56.17
450.46	30.43
450.65	56.17
450.83	7.02
451.02	79.58
451.20	0.00
451.39	23.41
451.57	70.22
451.76	93.62
451.94	39.79
452.13	0.00
452.31	28.09
452.49	28.09
452.68	30.43
452.86	25.75
453.05	16.38
453.23	67.88
453.42	102.98
453.60	88.94
453.78	18.72
453.97	70.22
454.15	21.06
454.34	86.60
454.52	51.49
454.70	79.58
454.89	100.64
455.07	58.51
455.26	95.96
455.44	30.43
455.62	70.22
455.81	79.58
455.99	53.83
456.17	16.38
456.36	32.77
456.54	0.00
456.73	91.28
456.91	35.11
457.09	67.88
457.28	30.43
457.46	112.35
457.64	37.45
457.83	0.00
458.01	84.26
458.19	39.79
458.38	65.54
458.56	49.15
458.74	138.09
458.93	67.88
459.11	56.17
459.29	65.54
459.48	46.81
459.66	46.81
459.84	18.72
460.03	23.41
460.21	32.77
460.39	98.30
460.57	25.75
460.76	91.28
460.94	2.34
461.12	84.26
461.31	0.00
461.49	58.51
461.67	102.98
461.85	53.83
462.04	65.54
462.22	88.94
462.40	9.36
462.59	72.56
462.77	18.72
462.95	49.15
463.13	46.81
463.32	56.17
463.50	124.05
463.68	44.47
463.86	88.94
464.05	11.70
464.23	9.36
464.41	102.98
464.59	114.69
464.78	95.96
464.96	4.68
465.14	28.09
465.32	100.64
465.50	60.85
465.69	56.17
465.87	21.06
466.05	28.09
466.23	100.64
466.41	28.09
466.60	67.88
466.78	25.75
466.96	37.45
467.14	128.73
467.32	49.15
467.51	74.90
467.69	74.90
467.87	81.92
468.05	88.94
468.23	60.85
468.41	98.30
468.60	110.01
468.78	84.26
468.96	63.19
469.14	44.47
469.32	110.01
469.50	63.19
469.69	35.11
469.87	35.11
470.05	112.35
470.23	102.98
470.41	51.49
470.59	2.34
470.77	14.04
470.95	70.22
471.14	81.92
471.32	23.41
471.50	49.15
471.68	16.38
471.86	81.92
472.04	93.62
472.22	18.72
472.40	81.92
472.58	91.28
472.77	51.49
472.95	51.49
473.13	30.43
473.31	58.51
473.49	53.83
473.67	37.45
473.85	70.22
474.03	145.11
474.21	18.72
474.39	79.58
474.57	53.83
474.75	138.09
474.93	39.79
475.12	65.54
475.30	46.81
475.48	102.98
475.66	88.94
475.84	86.60
476.02	28.09
476.20	58.51
476.38	86.60
476.56	79.58
476.74	53.83
476.92	44.47
477.10	77.24
477.28	49.15
477.46	105.32
477.64	102.98
477.82	88.94
478.00	93.62
478.18	9.36
478.36	98.30
478.54	42.13
478.72	58.51
478.90	25.75
479.08	44.47
479.26	39.79
479.44	81.92
479.62	32.77
479.80	30.43
479.98	88.94
480.16	58.51
480.34	46.81
480.52	74.90
480.70	42.13
480.88	2.34
481.06	53.83
481.24	0.00
481.41	56.17
481.59	133.41
481.77	77.24
481.95	65.54
482.13	77.24
482.31	42.13
482.49	110.01
482.67	67.88
482.85	25.75
483.03	35.11
483.21	72.56
483.39	81.92
483.57	72.56
483.74	56.17
483.92	21.06
484.10	98.30
484.28	49.15
484.46	49.15
484.64	49.15
484.82	72.56
485.00	91.28
485.18	112.35
485.35	11.70
485.53	105.32
485.71	100.64
485.89	21.06
486.07	100.64
486.25	91.28
486.43	102.98
486.61	42.13
486.78	81.92
486.96	23.41
487.14	67.88
487.32	105.32
487.50	121.71
487.68	98.30
487.85	18.72
488.03	67.88
488.21	138.09
488.39	70.22
488.57	124.05
488.75	60.85
488.92	74.90
489.10	63.19
489.28	102.98
489.46	53.83
489.64	72.56
489.81	58.51
489.99	77.24
490.17	39.79
490.35	88.94
490.53	53.83
490.70	49.15
490.88	0.00
491.06	102.98
491.24	102.98
491.41	77.24
491.59	35.11
491.77	133.41
491.95	107.66
492.13	163.84
492.30	133.41
492.48	35.11
492.66	86.60
492.84	49.15
493.01	49.15
493.19	77.24
493.37	58.51
493.54	65.54
493.72	124.05
493.90	107.66
494.08	63.19
494.25	84.26
494.43	84.26
494.61	49.15
494.79	98.30
494.96	79.58
495.14	39.79
495.32	93.62
495.49	110.01
495.67	42.13
495.85	121.71
496.02	44.47
496.20	114.69
496.38	91.28
496.55	112.35
496.73	84.26
496.91	37.45
497.09	72.56
497.26	114.69
497.44	46.81
497.62	39.79
497.79	110.01
497.97	117.03
498.14	124.05
498.32	0.00
498.50	2.34
498.67	88.94
498.85	84.26
499.03	128.73
499.20	102.98
499.38	67.88
499.56	105.32
499.73	44.47
499.91	124.05
500.08	67.88
500.26	60.85
500.44	23.41
500.61	77.24
500.79	112.35
500.97	49.15
501.14	124.05
501.32	79.58
501.49	23.41
501.67	56.17
501.84	124.05
502.02	114.69
502.20	46.81
502.37	39.79
502.55	114.69
502.72	72.56
502.90	128.73
503.07	72.56
503.25	67.88
503.43	60.85
503.60	86.60
503.78	93.62
503.95	21.06
504.13	74.90
504.30	84.26
504.48	25.75
504.65	102.98
504.83	138.09
505.01	110.01
505.18	119.37
505.36	161.50
505.53	88.94
505.71	95.96
505.88	131.07
506.06	147.45
506.23	124.05
506.41	100.64
506.58	65.54
506.76	105.32
506.93	39.79
507.11	65.54
507.28	117.03
507.46	53.83
507.63	39.79
507.81	98.30
507.98	95.96
508.16	0.00
508.33	112.35
508.50	121.71
508.68	84.26
508.85	126.39
509.03	105.32
509.20	39.79
509.38	56.17
509.55	70.22
509.73	60.85
509.90	163.84
510.08	107.66
510.25	25.75
510.42	140.43
510.60	107.66
510.77	56.17
510.95	67.88
511.12	112.35
511.30	67.88
511.47	105.32
511.64	67.88
511.82	126.39
511.99	28.09
512.17	126.39
512.34	88.94
512.51	107.66
512.69	170.86
512.86	114.69
513.04	63.19
513.21	58.51
513.38	56.17
513.56	65.54
513.73	56.17
513.90	117.03
514.08	58.51
514.25	105.32
514.43	114.69
514.60	42.13
514.77	58.51
514.95	70.22
515.12	70.22
515.29	9.36
515.47	105.32
515.64	105.32
515.81	9.36
515.99	98.30
516.16	124.05
516.33	126.39
516.51	72.56
516.68	81.92
516.85	67.88
517.03	67.88
517.20	16.38
517.37	72.56
517.54	70.22
517.72	105.32
517.89	30.43
518.06	126.39
518.24	77.24
518.41	112.35
518.58	63.19
518.75	60.85
518.93	110.01
519.10	32.77
519.27	100.64
519.45	60.85
519.62	44.47
519.79	44.47
519.96	74.90
520.14	58.51
520.31	105.32
520.48	88.94
520.65	159.16
520.83	42.13
521.00	46.81
521.17	58.51
521.34	126.39
521.52	51.49
521.69	51.49
521.86	65.54
522.03	102.98
522.20	79.58
522.38	77.24
522.55	93.62
522.72	63.19
522.89	77.24
523.07	65.54
523.24	86.60
523.41	102.98
523.58	30.43
523.75	72.56
523.92	53.83
524.10	95.96
524.27	60.85
524.44	23.41
524.61	28.09
524.78	121.71
524.96	74.90
525.13	131.07
525.30	67.88
525.47	65.54
525.64	28.09
525.81	74.90
525.98	65.54
526.16	53.83
526.33	63.19
526.50	58.51
526.67	0.00
526.84	145.11
527.01	114.69
527.18	56.17
527.36	51.49
527.53	81.92
527.70	102.98
527.87	84.26
528.04	149.79
528.21	63.19
528.38	56.17
528.55	51.49
528.72	93.62
528.89	23.41
529.07	35.11
529.24	70.22
529.41	63.19
529.58	100.64
529.75	86.60
529.92	135.75
530.09	110.01
530.26	114.69
530.43	49.15
530.60	28.09
530.77	138.09
530.94	114.69
531.11	117.03
531.28	42.13
531.46	88.94
531.63	105.32
531.80	154.48
531.97	46.81
532.14	72.56
532.31	67.88
532.48	51.49
532.65	65.54
532.82	0.00
532.99	112.35
533.16	105.32
533.33	100.64
533.50	88.94
533.67	77.24
533.84	102.98
534.01	138.09
534.18	0.00
534.35	91.28
534.52	135.75
534.69	63.19
534.86	110.01
535.03	79.58
535.20	112.35
535.37	51.49
535.54	173.20
535.71	39.79
535.88	140.43
536.05	170.86
536.22	112.35
536.38	56.17
536.55	102.98
536.72	138.09
536.89	35.11
537.06	114.69
537.23	112.35
537.40	72.56
537.57	140.43
537.74	114.69
537.91	60.85
538.08	135.75
538.25	44.47
538.42	95.96
538.59	95.96
538.75	114.69
538.92	95.96
539.09	0.00
539.26	51.49
539.43	42.13
539.60	140.43
539.77	114.69
539.94	18.72
540.11	53.83
540.28	65.54
540.44	102.98
540.61	32.77
540.78	77.24
540.95	84.26
541.12	81.92
541.29	107.66
541.46	74.90
541.62	88.94
541.79	117.03
541.96	16.38
542.13	121.71
542.30	95.96
542.47	65.54
542.63	42.13
542.80	65.54
542.97	95.96
543.14	98.30
543.31	65.54
543.48	126.39
543.64	77.24
543.81	28.09
543.98	140.43
544.15	58.51
544.32	58.51
544.48	91.28
544.65	135.75
544.82	63.19
544.99	65.54
545.16	0.00
545.32	159.16
545.49	88.94
545.66	95.96
545.83	107.66
546.00	95.96
546.16	128.73
546.33	70.22
546.50	100.64
546.67	32.77
546.83	95.96
547.00	100.64
547.17	58.51
547.34	65.54
547.50	138.09
547.67	84.26
547.84	112.35
548.00	110.01
548.17	0.00
548.34	49.15
548.51	84.26
548.67	117.03
548.84	131.07
549.01	105.32
549.18	159.16
549.34	56.17
549.51	98.30
549.68	138.09
549.84	28.09
550.01	110.01
550.18	79.58
550.34	74.90
550.51	112.35
550.68	114.69
550.84	112.35
551.01	88.94
551.18	37.45
551.34	107.66
551.51	156.82
551.68	67.88
551.84	60.85
552.01	156.82
552.18	67.88
552.34	67.88
552.51	117.03
552.68	30.43
552.84	18.72
553.01	156.82
553.18	23.41
553.34	51.49
553.51	39.79
553.67	74.90
553.84	112.35
554.01	39.79
554.17	159.16
554.34	126.39
554.51	56.17
554.67	56.17
554.84	79.58
555.00	84.26
555.17	14.04
555.33	46.81
555.50	72.56
555.67	70.22
555.83	110.01
556.00	65.54
556.16	128.73
556.33	98.30
556.50	39.79
556.66	77.24
556.83	37.45
556.99	63.19
557.16	79.58
557.32	28.09
557.49	93.62
557.65	58.51
557.82	46.81
557.98	74.90
558.15	124.05
558.32	58.51
558.48	84.26
558.65	65.54
558.81	67.88
558.98	138.09
559.14	44.47
559.31	53.83
559.47	152.13
559.64	93.62
559.80	56.17
559.97	30.43
560.13	60.85
560.30	91.28
560.46	110.01
560.63	37.45
560.79	105.32
560.96	32.77
561.12	142.77
561.29	168.52
561.45	124.05
561.61	16.38
561.78	93.62
561.94	16.38
562.11	88.94
562.27	35.11
562.44	105.32
562.60	16.38
562.77	79.58
562.93	105.32
563.10	4.68
563.26	25.75
563.42	112.35
563.59	65.54
563.75	114.69
563.92	44.47
564.08	49.15
564.24	53.83
564.41	21.06
564.57	65.54
564.74	56.17
564.90	88.94
565.07	149.79
565.23	102.98
565.39	32.77
565.56	86.60
565.72	114.69
565.88	25.75
566.05	53.83
566.21	56.17
566.38	95.96
566.54	56.17
566.70	114.69
566.87	117.03
567.03	86.60
567.19	91.28
567.36	91.28
567.52	74.90
567.68	107.66
567.85	105.32
568.01	63.19
568.17	9.36
568.34	72.56
568.50	21.06
568.66	0.00
568.83	56.17
568.99	11.70
569.15	70.22
569.32	79.58
569.48	93.62
569.64	119.37
569.81	49.15
569.97	79.58
570.13	93.62
570.30	7.02
570.46	65.54
570.62	91.28
570.78	70.22
570.95	114.69
571.11	53.83
571.27	187.24
571.43	44.47
571.60	105.32
571.76	44.47
571.92	0.00
572.09	84.26
572.25	95.96
572.41	100.64
572.57	58.51
572.74	72.56
572.90	163.84
573.06	84.26
573.22	88.94
573.38	81.92
573.55	74.90
573.71	124.05
573.87	70.22
574.03	98.30
574.20	60.85
574.36	156.82
574.52	51.49
574.68	142.77
574.84	49.15
575.01	72.56
575.17	39.79
575.33	112.35
575.49	74.90
575.65	102.98
575.82	37.45
575.98	44.47
576.14	105.32
576.30	25.75
576.46	107.66
576.62	58.51
576.79	72.56
576.95	28.09
577.11	0.00
577.27	65.54
577.43	37.45
577.59	117.03
577.75	63.19
577.92	138.09
578.08	63.19
578.24	65.54
578.40	0.00
578.56	91.28
578.72	53.83
578.88	77.24
579.04	32.77
579.21	58.51
579.37	102.98
579.53	81.92
579.69	14.04
579.85	67.88
580.01	95.96
580.17	51.49
580.33	133.41
580.49	173.20
580.65	91.28
580.82	102.98
580.98	128.73
581.14	81.92
581.30	46.81
581.46	145.11
581.62	147.45
581.78	60.85
581.94	100.64
582.10	0.00
582.26	46.81
582.42	79.58
582.58	39.79
582.74	86.60
582.90	32.77
583.06	117.03
583.22	88.94
583.38	37.45
583.54	159.16
583.70	84.26
583.86	60.85
584.02	72.56
584.18	70.22
584.34	74.90
584.50	79.58
584.66	0.00
584.82	102.98
584.98	67.88
585.14	46.81
585.30	131.07
585.46	53.83
585.62	70.22
585.78	147.45
585.94	56.17
586.10	65.54
586.26	88.94
586.42	44.47
586.58	72.56
586.74	79.58
586.90	93.62
587.06	14.04
587.22	60.85
587.38	28.09
587.54	58.51
587.70	86.60
587.86	107.66
588.02	81.92
588.18	124.05
588.34	4.68
588.49	16.38
588.65	11.70
588.81	58.51
588.97	21.06
589.13	79.58
589.29	65.54
589.45	95.96
589.61	7.02
589.77	70.22
589.93	88.94
590.08	152.13
590.24	79.58
590.40	93.62
590.56	65.54
590.72	18.72
590.88	88.94
591.04	140.43
591.20	88.94
591.35	28.09
591.51	98.30
591.67	51.49
591.83	79.58
591.99	65.54
592.15	70.22
592.31	63.19
592.46	112.35
592.62	147.45
592.78	91.28
592.94	88.94
593.10	126.39
593.26	79.58
593.41	0.00
593.57	88.94
593.73	63.19
593.89	102.98
594.05	72.56
594.20	88.94
594.36	81.92
594.52	30.43
594.68	30.43
594.84	95.96
594.99	110.01
595.15	88.94
595.31	81.92
595.47	95.96
595.62	56.17
595.78	60.85
595.94	60.85
596.10	105.32
596.25	37.45
596.41	88.94
596.57	53.83
596.73	37.45
596.88	84.26
597.04	79.58
597.20	98.30
597.36	46.81
597.51	110.01
597.67	126.39
597.83	44.47
597.99	46.81
598.14	112.35
598.30	63.19
598.46	67.88
598.61	105.32
598.77	49.15
598.93	67.88
599.09	79.58
599.24	32.77
599.40	105.32
599.56	37.45
599.71	39.79
599.87	58.51
600.03	72.56
600.18	70.22
600.34	11.70
600.50	39.79
600.65	11.70
600.81	51.49
600.97	53.83
601.12	124.05
601.28	32.77
601.44	77.24
601.59	91.28
601.75	49.15
601.91	30.43
602.06	63.19
602.22	42.13
602.37	77.24
602.53	63.19
602.69	16.38
602.84	37.45
603.00	79.58
603.16	51.49
603.31	95.96
603.47	46.81
603.62	39.79
603.78	81.92
603.94	81.92
604.09	32.77
604.25	102.98
604.40	107.66
604.56	67.88
604.71	124.05
604.87	107.66
605.03	65.54
605.18	107.66
605.34	0.00
605.49	81.92
605.65	79.58
605.80	70.22
605.96	100.64
606.12	117.03
606.27	170.86
606.43	0.00
606.58	65.54
606.74	25.75
606.89	81.92
607.05	60.85
607.20	72.56
607.36	93.62
607.51	140.43
607.67	7.02
607.82	98.30
607.98	23.41
608.13	117.03
608.29	161.50
608.44	77.24
608.60	77.24
608.75	49.15
608.91	53.83
609.06	152.13
609.22	0.00
609.37	58.51
609.53	16.38
609.68	110.01
609.84	44.47
609.99	110.01
610.15	93.62
610.30	7.02
610.46	53.83
610.61	110.01
610.76	46.81
610.92	60.85
611.07	74.90
611.23	39.79
611.38	110.01
611.54	37.45
611.69	63.19
611.84	105.32
612.00	86.60
612.15	53.83
612.31	32.77
612.46	70.22
612.62	60.85
612.77	72.56
612.92	21.06
613.08	65.54
613.23	35.11
613.39	65.54
613.54	102.98
613.69	11.70
613.85	30.43
614.00	74.90
614.15	72.56
614.31	35.11
614.46	77.24
614.62	79.58
614.77	46.81
614.92	35.11
615.08	44.47
615.23	114.69
615.38	63.19
615.54	81.92
615.69	51.49
615.84	51.49
616.00	46.81
616.15	147.45
616.30	133.41
616.46	32.77
616.61	74.90
616.76	93.62
616.92	23.41
617.07	49.15
617.22	30.43
617.37	7.02
617.53	49.15
617.68	77.24
617.83	51.49
617.99	65.54
618.14	70.22
618.29	51.49
618.45	117.03
618.60	105.32
618.75	51.49
618.90	25.75
619.06	107.66
619.21	79.58
619.36	91.28
619.51	30.43
619.67	32.77
619.82	98.30
619.97	119.37
620.12	53.83
620.28	110.01
620.43	42.13
620.58	53.83
620.73	95.96
620.89	49.15
621.04	91.28
621.19	117.03
621.34	79.58
621.49	79.58
621.65	65.54
621.80	77.24
621.95	105.32
622.10	105.32
622.25	65.54
622.41	159.16
622.56	67.88
622.71	14.04
622.86	53.83
623.01	53.83
623.16	51.49
623.32	49.15
623.47	0.00
623.62	81.92
623.77	46.81
623.92	81.92
624.07	67.88
624.23	91.28
624.38	46.81
624.53	42.13
624.68	2.34
624.83	42.13
624.98	135.75
625.13	53.83
625.29	37.45
625.44	149.79
625.59	84.26
625.74	121.71
625.89	58.51
626.04	79.58
626.19	112.35
626.34	100.64
626.49	100.64
626.65	70.22
626.80	35.11
626.95	14.04
627.10	117.03
627.25	105.32
627.40	16.38
627.55	91.28
627.70	128.73
627.85	102.98
628.00	56.17
628.15	70.22
628.30	131.07
628.45	72.56
628.60	63.19
628.76	60.85
628.91	77.24
629.06	58.51
629.21	60.85
629.36	105.32
629.51	37.45
629.66	58.51
629.81	23.41
629.96	51.49
630.11	39.79
630.26	154.48
630.41	32.77
630.56	84.26
630.71	21.06
630.86	32.77
631.01	58.51
631.16	77.24
631.31	95.96
631.46	79.58
631.61	35.11
631.76	100.64
631.91	88.94
632.06	16.38
632.21	74.90
632.36	37.45
632.51	51.49
632.66	14.04
632.81	49.15
632.96	70.22
633.10	67.88
633.25	0.00
633.40	65.54
633.55	51.49
633.70	60.85
633.85	74.90
634.00	21.06
634.15	32.77
634.30	112.35
634.45	86.60
634.60	39.79
634.75	51.49
634.90	30.43
635.05	107.66
635.19	39.79
635.34	67.88
635.49	14.04
635.64	32.77
635.79	39.79
635.94	95.96
636.09	30.43
636.24	65.54
636.39	4.68
636.53	79.58
636.68	16.38
636.83	121.71
636.98	84.26
637.13	42.13
637.28	60.85
637.43	23.41
637.57	86.60
637.72	23.41
637.87	11.70
638.02	58.51
638.17	30.43
638.32	30.43
638.46	81.92
638.61	42.13
638.76	114.69
638.91	65.54
639.06	70.22
639.20	0.00
639.35	60.85
639.50	128.73
639.65	23.41
639.80	51.49
639.94	35.11
640.09	11.70
640.24	114.69
640.39	117.03
640.54	44.47
640.68	58.51
640.83	0.00
640.98	88.94
641.13	4.68
641.27	138.09
641.42	74.90
641.57	65.54
641.72	60.85
641.86	51.49
642.01	65.54
642.16	42.13
642.31	28.09
642.45	86.60
642.60	21.06
642.75	9.36
642.90	0.00
643.04	46.81
643.19	107.66
643.34	63.19
643.48	107.66
643.63	32.77
643.78	67.88
643.93	84.26
644.07	72.56
644.22	42.13
644.37	49.15
644.51	16.38
644.66	112.35
644.81	28.09
644.95	11.70
645.10	39.79
645.25	65.54
645.39	51.49
645.54	112.35
645.69	25.75
645.83	0.00
645.98	35.11
646.13	44.47
646.27	44.47
646.42	72.56
646.57	110.01
646.71	110.01
646.86	37.45
647.00	18.72
647.15	81.92
647.30	65.54
647.44	60.85
647.59	65.54
647.74	117.03
647.88	58.51
648.03	35.11
648.17	32.77
648.32	23.41
648.47	74.90
648.61	72.56
648.76	58.51
648.90	121.71
649.05	42.13
649.20	37.45
649.34	56.17
649.49	28.09
649.63	95.96
649.78	93.62
649.92	0.00
650.07	49.15
650.21	28.09
650.36	70.22
650.51	16.38
650.65	84.26
650.80	168.52
650.94	79.58
651.09	74.90
651.23	21.06
651.38	105.32
651.52	0.00
651.67	67.88
651.81	56.17
651.96	28.09
652.10	42.13
652.25	63.19
652.39	121.71
652.54	53.83
652.68	105.32
652.83	81.92
652.97	0.00
653.12	53.83
653.26	39.79
653.41	0.00
653.55	23.41
653.70	21.06
653.84	145.11
653.99	58.51
654.13	79.58
654.27	133.41
654.42	56.17
654.56	72.56
654.71	0.00
654.85	51.49
655.00	65.54
655.14	131.07
655.29	88.94
655.43	0.00
655.57	56.17
655.72	63.19
655.86	46.81
656.01	0.00
656.15	32.77
656.30	74.90
656.44	44.47
656.58	77.24
656.73	30.43
656.87	2.34
657.01	84.26
657.16	81.92
657.30	91.28
657.45	9.36
657.59	77.24
657.73	0.00
657.88	98.30
658.02	60.85
658.16	46.81
658.31	121.71
658.45	32.77
658.60	18.72
658.74	112.35
658.88	86.60
659.03	4.68
659.17	0.00
659.31	44.47
659.46	72.56
659.60	72.56
659.74	95.96
659.89	25.75
660.03	112.35
660.17	56.17
660.32	98.30
660.46	14.04
660.60	25.75
660.74	42.13
660.89	32.77
661.03	0.00
661.17	56.17
661.32	63.19
661.46	7.02
661.60	16.38
661.74	37.45
661.89	70.22
662.03	4.68
662.17	0.00
662.31	30.43
662.46	86.60
662.60	21.06
662.74	100.64
662.88	86.60
663.03	51.49
663.17	32.77
663.31	110.01
663.45	0.00
663.60	79.58
663.74	58.51
663.88	0.00
664.02	14.04
664.17	112.35
664.31	35.11
664.45	46.81
664.59	131.07
664.73	18.72
664.88	60.85
665.02	102.98
665.16	7.02
665.30	28.09
665.44	114.69
665.59	30.43
665.73	25.75
665.87	51.49
666.01	30.43
666.15	77.24
666.29	32.77
666.44	0.00
666.58	18.72
666.72	18.72
666.86	63.19
667.00	117.03
667.14	79.58
667.28	23.41
667.43	81.92
667.57	18.72
667.71	95.96
667.85	11.70
667.99	39.79
668.13	23.41
668.27	81.92
668.41	42.13
668.56	65.54
668.70	74.90
668.84	67.88
668.98	81.92
669.12	46.81
669.26	86.60
669.40	58.51
669.54	51.49
669.68	37.45
669.82	32.77
669.96	84.26
670.10	35.11
670.25	37.45
670.39	53.83
670.53	51.49
670.67	23.41
670.81	0.00
670.95	56.17
671.09	102.98
671.23	88.94
671.37	18.72
671.51	63.19
671.65	77.24
671.79	37.45
671.93	44.47
672.07	46.81
672.21	110.01
672.35	51.49
672.49	32.77
672.63	39.79
672.77	95.96
672.91	79.58
673.05	28.09
673.19	46.81
673.33	7.02
673.47	56.17
673.61	51.49
673.75	32.77
673.89	37.45
674.03	39.79
674.17	79.58
674.31	49.15
674.45	56.17
674.59	46.81
674.73	88.94
674.87	23.41
675.01	9.36
675.15	46.81
675.29	79.58
675.43	23.41
675.56	0.00
675.70	49.15
675.84	51.49
675.98	46.81
676.12	58.51
676.26	67.88
676.40	86.60
676.54	86.60
676.68	39.79
676.82	21.06
676.96	7.02
677.10	70.22
677.23	77.24
677.37	51.49
677.51	74.90
677.65	44.47
677.79	0.00
677.93	21.06
678.07	9.36
678.21	44.47
678.34	16.38
678.48	154.48
678.62	46.81
678.76	30.43
678.90	56.17
679.04	74.90
679.18	56.17
679.31	4.68
679.45	102.98
679.59	60.85
679.73	74.90
679.87	0.00
680.00	53.83
680.14	65.54
680.28	42.13
680.42	140.43
680.56	0.00
680.70	100.64
680.83	91.28
680.97	14.04
681.11	7.02
681.25	49.15
681.39	95.96
681.52	117.03
681.66	0.00
681.80	25.75
681.94	28.09
682.07	18.72
682.21	0.00
682.35	14.04
682.49	63.19
682.62	9.36
682.76	44.47
682.90	79.58
683.04	128.73
683.17	79.58
683.31	46.81
683.45	21.06
683.59	46.81
683.72	18.72
683.86	42.13
684.00	49.15
684.13	25.75
684.27	46.81
684.41	63.19
684.55	53.83
684.68	25.75
684.82	53.83
684.96	32.77
685.09	21.06
685.23	44.47
685.37	42.13
685.50	30.43
685.64	0.00
685.78	60.85
685.91	0.00
686.05	4.68
686.19	93.62
686.32	88.94
686.46	16.38
686.60	25.75
686.73	70.22
686.87	39.79
687.01	65.54
687.14	21.06
687.28	67.88
687.42	58.51
687.55	65.54
687.69	46.81
687.82	49.15
687.96	0.00
688.10	0.00
688.23	49.15
688.37	72.56
688.50	0.00
688.64	56.17
688.78	0.00
688.91	77.24
689.05	0.00
689.18	2.34
689.32	58.51
689.46	81.92
689.59	84.26
689.73	67.88
689.86	0.00
690.00	0.00
690.13	16.38
690.27	84.26
690.41	37.45
690.54	35.11
690.68	44.47
690.81	0.00
690.95	70.22
691.08	49.15
691.22	0.00
691.35	4.68
691.49	0.00
691.62	37.45
691.76	23.41
691.89	56.17
692.03	11.70
692.16	25.75
692.30	42.13
692.43	70.22
692.57	128.73
692.70	46.81
692.84	44.47
692.97	81.92
693.11	23.41
693.24	42.13
693.38	93.62
693.51	0.00
693.65	58.51
693.78	0.00
693.92	0.00
694.05	0.00
694.19	135.75
694.32	81.92
694.45	0.00
694.59	0.00
694.72	35.11
694.86	72.56
694.99	30.43
695.13	21.06
695.26	0.00
695.39	65.54
695.53	70.22
695.66	53.83
695.80	49.15
695.93	49.15
696.07	110.01
696.20	28.09
696.33	39.79
696.47	0.00
696.60	18.72
696.73	51.49
696.87	0.00
697.00	16.38
697.14	11.70
697.27	35.11
697.40	28.09
697.54	49.15
697.67	51.49
697.80	0.00
697.94	32.77
698.07	14.04
698.21	46.81
698.34	58.51
698.47	4.68
698.61	0.00
698.74	18.72
698.87	21.06
699.01	21.06
699.14	0.00
699.27	9.36
699.40	2.34
699.54	102.98
699.67	58.51
699.80	28.09
699.94	46.81
700.07	44.47
700.20	51.49
700.34	35.11
700.47	16.38
700.60	93.62
700.73	39.79
700.87	39.79
701.00	0.00
701.13	25.75
701.26	7.02
701.40	39.79
701.53	11.70
701.66	53.83
701.79	60.85
701.93	70.22
702.06	119.37
702.19	65.54
702.32	53.83
702.46	100.64
702.59	67.88
702.72	14.04
702.85	16.38
702.99	0.00
703.12	46.81
703.25	0.00
703.38	56.17
703.51	25.75
703.65	70.22
703.78	4.68
703.91	0.00
704.04	65.54
704.17	32.77
704.31	0.00
704.44	56.17
704.57	16.38
704.70	0.00
704.83	107.66
704.96	16.38
705.10	88.94
705.23	0.00
>>>>>End Processed Spectral Data<<<<<
