SpectraSuite Data File
++++++++++++++++++++++++++++++++++++
Date: Fri Oct 04 12:13:41 GMT-05:00 2013
User: price-jones
Dark Spectrum Present: No
Reference Spectrum Present: No
Number of Sampled Component Spectra: 1
Spectrometers: USB2+H05261
Integration Time (usec): 10000 (USB2+H05261)
Spectra Averaged: 1 (USB2+H05261)
Boxcar Smoothing: 0 (USB2+H05261)
Correct for Electrical Dark: No (USB2+H05261)
Strobe/Lamp Enabled: No (USB2+H05261)
Correct for Detector Non-linearity: No (USB2+H05261)
Correct for Stray Light: No (USB2+H05261)
Number of Pixels in Processed Spectrum: 2048
>>>>>Begin Processed Spectral Data<<<<<
365.73	0.00
365.92	0.00
366.12	0.00
366.32	0.00
366.52	0.00
366.72	0.00
366.91	0.00
367.11	0.00
367.31	0.00
367.51	0.00
367.70	0.00
367.90	0.00
368.10	0.00
368.30	0.00
368.49	0.00
368.69	0.00
368.89	0.00
369.09	0.00
369.28	0.00
369.48	0.00
369.68	0.00
369.87	0.00
370.07	0.00
370.27	0.00
370.47	0.00
370.66	0.00
370.86	0.00
371.06	2.34
371.25	0.00
371.45	0.00
371.65	0.00
371.84	0.00
372.04	4.68
372.24	0.00
372.44	37.45
372.63	65.54
372.83	67.88
373.03	0.00
373.22	0.00
373.42	0.00
373.62	67.88
373.81	18.72
374.01	18.72
374.21	79.58
374.40	0.00
374.60	49.15
374.79	25.75
374.99	28.09
375.19	0.00
375.38	142.77
375.58	53.83
375.78	42.13
375.97	46.81
376.17	63.19
376.37	0.00
376.56	0.00
376.76	9.36
376.95	81.92
377.15	65.54
377.35	18.72
377.54	0.00
377.74	65.54
377.93	0.00
378.13	0.00
378.33	77.24
378.52	0.00
378.72	37.45
378.91	23.41
379.11	0.00
379.31	7.02
379.50	46.81
379.70	21.06
379.89	14.04
380.09	0.00
380.28	25.75
380.48	74.90
380.68	16.38
380.87	28.09
381.07	0.00
381.26	0.00
381.46	0.00
381.65	16.38
381.85	0.00
382.04	25.75
382.24	65.54
382.43	86.60
382.63	9.36
382.83	44.47
383.02	0.00
383.22	42.13
383.41	28.09
383.61	14.04
383.80	30.43
384.00	46.81
384.19	0.00
384.39	4.68
384.58	25.75
384.78	0.00
384.97	16.38
385.17	0.00
385.36	14.04
385.56	79.58
385.75	25.75
385.95	11.70
386.14	0.00
386.34	51.49
386.53	0.00
386.72	11.70
386.92	0.00
387.11	39.79
387.31	0.00
387.50	9.36
387.70	0.00
387.89	35.11
388.09	70.22
388.28	25.75
388.48	0.00
388.67	0.00
388.86	16.38
389.06	11.70
389.25	14.04
389.45	11.70
389.64	21.06
389.84	4.68
390.03	49.15
390.22	7.02
390.42	28.09
390.61	42.13
390.81	18.72
391.00	18.72
391.19	0.00
391.39	16.38
391.58	0.00
391.78	39.79
391.97	16.38
392.16	56.17
392.36	56.17
392.55	0.00
392.75	0.00
392.94	77.24
393.13	74.90
393.33	2.34
393.52	58.51
393.71	53.83
393.91	30.43
394.10	72.56
394.29	0.00
394.49	9.36
394.68	7.02
394.88	23.41
395.07	56.17
395.26	32.77
395.46	74.90
395.65	88.94
395.84	0.00
396.04	14.04
396.23	0.00
396.42	119.37
396.62	91.28
396.81	86.60
397.00	0.00
397.19	21.06
397.39	0.00
397.58	0.00
397.77	21.06
397.97	0.00
398.16	63.19
398.35	14.04
398.55	0.00
398.74	0.00
398.93	102.98
399.12	28.09
399.32	51.49
399.51	44.47
399.70	74.90
399.90	0.00
400.09	44.47
400.28	11.70
400.47	74.90
400.67	72.56
400.86	42.13
401.05	39.79
401.24	0.00
401.44	84.26
401.63	35.11
401.82	0.00
402.01	42.13
402.21	14.04
402.40	0.00
402.59	53.83
402.78	67.88
402.97	63.19
403.17	0.00
403.36	51.49
403.55	49.15
403.74	0.00
403.93	25.75
404.13	42.13
404.32	0.00
404.51	110.01
404.70	35.11
404.89	14.04
405.09	14.04
405.28	63.19
405.47	86.60
405.66	91.28
405.85	56.17
406.05	0.00
406.24	46.81
406.43	84.26
406.62	14.04
406.81	93.62
407.00	0.00
407.20	37.45
407.39	53.83
407.58	72.56
407.77	51.49
407.96	25.75
408.15	56.17
408.34	70.22
408.54	0.00
408.73	81.92
408.92	102.98
409.11	37.45
409.30	72.56
409.49	25.75
409.68	23.41
409.87	46.81
410.07	74.90
410.26	56.17
410.45	65.54
410.64	84.26
410.83	30.43
411.02	32.77
411.21	79.58
411.40	39.79
411.59	67.88
411.78	0.00
411.98	37.45
412.17	39.79
412.36	46.81
412.55	49.15
412.74	35.11
412.93	42.13
413.12	70.22
413.31	35.11
413.50	0.00
413.69	11.70
413.88	79.58
414.07	46.81
414.26	21.06
414.45	18.72
414.64	0.00
414.83	32.77
415.02	14.04
415.22	0.00
415.41	58.51
415.60	53.83
415.79	25.75
415.98	28.09
416.17	0.00
416.36	0.00
416.55	32.77
416.74	14.04
416.93	30.43
417.12	16.38
417.31	30.43
417.50	105.32
417.69	107.66
417.88	4.68
418.07	44.47
418.26	0.00
418.45	51.49
418.64	67.88
418.83	60.85
419.02	42.13
419.21	9.36
419.39	16.38
419.58	0.00
419.77	70.22
419.96	42.13
420.15	65.54
420.34	128.73
420.53	0.00
420.72	18.72
420.91	42.13
421.10	7.02
421.29	25.75
421.48	100.64
421.67	67.88
421.86	117.03
422.05	51.49
422.24	79.58
422.43	58.51
422.61	84.26
422.80	46.81
422.99	0.00
423.18	21.06
423.37	49.15
423.56	37.45
423.75	11.70
423.94	39.79
424.13	0.00
424.32	39.79
424.50	60.85
424.69	49.15
424.88	84.26
425.07	81.92
425.26	0.00
425.45	49.15
425.64	42.13
425.83	65.54
426.01	58.51
426.20	105.32
426.39	65.54
426.58	25.75
426.77	81.92
426.96	51.49
427.15	21.06
427.33	79.58
427.52	98.30
427.71	37.45
427.90	91.28
428.09	23.41
428.28	77.24
428.46	44.47
428.65	53.83
428.84	60.85
429.03	53.83
429.22	67.88
429.40	95.96
429.59	32.77
429.78	44.47
429.97	30.43
430.16	67.88
430.34	84.26
430.53	67.88
430.72	0.00
430.91	0.00
431.10	60.85
431.28	30.43
431.47	25.75
431.66	49.15
431.85	53.83
432.03	65.54
432.22	49.15
432.41	23.41
432.60	30.43
432.79	131.07
432.97	98.30
433.16	70.22
433.35	42.13
433.54	84.26
433.72	23.41
433.91	14.04
434.10	42.13
434.28	74.90
434.47	37.45
434.66	46.81
434.85	51.49
435.03	93.62
435.22	42.13
435.41	0.00
435.59	39.79
435.78	93.62
435.97	35.11
436.16	11.70
436.34	44.47
436.53	88.94
436.72	86.60
436.90	0.00
437.09	53.83
437.28	72.56
437.46	46.81
437.65	65.54
437.84	79.58
438.02	42.13
438.21	67.88
438.40	65.54
438.58	0.00
438.77	51.49
438.96	117.03
439.14	21.06
439.33	44.47
439.52	63.19
439.70	51.49
439.89	70.22
440.08	9.36
440.26	56.17
440.45	32.77
440.63	107.66
440.82	2.34
441.01	60.85
441.19	0.00
441.38	53.83
441.57	91.28
441.75	49.15
441.94	28.09
442.12	63.19
442.31	79.58
442.50	88.94
442.68	0.00
442.87	58.51
443.05	32.77
443.24	100.64
443.43	44.47
443.61	51.49
443.80	51.49
443.98	98.30
444.17	67.88
444.35	14.04
444.54	133.41
444.73	44.47
444.91	65.54
445.10	53.83
445.28	9.36
445.47	63.19
445.65	60.85
445.84	25.75
446.02	56.17
446.21	65.54
446.39	117.03
446.58	37.45
446.77	98.30
446.95	16.38
447.14	49.15
447.32	4.68
447.51	0.00
447.69	74.90
447.88	46.81
448.06	21.06
448.25	102.98
448.43	81.92
448.62	53.83
448.80	2.34
448.99	86.60
449.17	98.30
449.36	37.45
449.54	53.83
449.73	93.62
449.91	37.45
450.10	51.49
450.28	70.22
450.46	63.19
450.65	86.60
450.83	32.77
451.02	91.28
451.20	44.47
451.39	72.56
451.57	30.43
451.76	30.43
451.94	0.00
452.13	91.28
452.31	56.17
452.49	25.75
452.68	58.51
452.86	21.06
453.05	44.47
453.23	32.77
453.42	86.60
453.60	39.79
453.78	35.11
453.97	0.00
454.15	121.71
454.34	11.70
454.52	0.00
454.70	56.17
454.89	44.47
455.07	28.09
455.26	23.41
455.44	16.38
455.62	23.41
455.81	32.77
455.99	91.28
456.17	32.77
456.36	107.66
456.54	9.36
456.73	44.47
456.91	114.69
457.09	117.03
457.28	14.04
457.46	56.17
457.64	16.38
457.83	28.09
458.01	30.43
458.19	84.26
458.38	67.88
458.56	65.54
458.74	84.26
458.93	72.56
459.11	79.58
459.29	0.00
459.48	88.94
459.66	0.00
459.84	79.58
460.03	70.22
460.21	0.00
460.39	49.15
460.57	67.88
460.76	60.85
460.94	70.22
461.12	46.81
461.31	70.22
461.49	100.64
461.67	63.19
461.85	81.92
462.04	72.56
462.22	81.92
462.40	39.79
462.59	32.77
462.77	51.49
462.95	23.41
463.13	60.85
463.32	74.90
463.50	44.47
463.68	51.49
463.86	25.75
464.05	95.96
464.23	81.92
464.41	72.56
464.59	35.11
464.78	42.13
464.96	121.71
465.14	46.81
465.32	77.24
465.50	25.75
465.69	58.51
465.87	65.54
466.05	105.32
466.23	84.26
466.41	11.70
466.60	0.00
466.78	86.60
466.96	46.81
467.14	25.75
467.32	114.69
467.51	86.60
467.69	105.32
467.87	42.13
468.05	53.83
468.23	42.13
468.41	135.75
468.60	91.28
468.78	16.38
468.96	14.04
469.14	72.56
469.32	14.04
469.50	53.83
469.69	0.00
469.87	86.60
470.05	135.75
470.23	86.60
470.41	105.32
470.59	25.75
470.77	74.90
470.95	0.00
471.14	28.09
471.32	98.30
471.50	98.30
471.68	11.70
471.86	102.98
472.04	70.22
472.22	124.05
472.40	86.60
472.58	81.92
472.77	84.26
472.95	63.19
473.13	81.92
473.31	37.45
473.49	37.45
473.67	35.11
473.85	53.83
474.03	72.56
474.21	67.88
474.39	42.13
474.57	18.72
474.75	74.90
474.93	86.60
475.12	88.94
475.30	105.32
475.48	25.75
475.66	114.69
475.84	42.13
476.02	44.47
476.20	14.04
476.38	65.54
476.56	100.64
476.74	21.06
476.92	0.00
477.10	56.17
477.28	32.77
477.46	58.51
477.64	0.00
477.82	72.56
478.00	16.38
478.18	37.45
478.36	100.64
478.54	14.04
478.72	23.41
478.90	14.04
479.08	100.64
479.26	46.81
479.44	25.75
479.62	49.15
479.80	51.49
479.98	21.06
480.16	9.36
480.34	0.00
480.52	72.56
480.70	11.70
480.88	95.96
481.06	0.00
481.24	28.09
481.41	86.60
481.59	77.24
481.77	74.90
481.95	56.17
482.13	98.30
482.31	110.01
482.49	84.26
482.67	56.17
482.85	95.96
483.03	63.19
483.21	114.69
483.39	18.72
483.57	72.56
483.74	140.43
483.92	39.79
484.10	28.09
484.28	91.28
484.46	95.96
484.64	56.17
484.82	42.13
485.00	49.15
485.18	28.09
485.35	37.45
485.53	60.85
485.71	53.83
485.89	51.49
486.07	67.88
486.25	67.88
486.43	51.49
486.61	65.54
486.78	107.66
486.96	79.58
487.14	25.75
487.32	72.56
487.50	117.03
487.68	77.24
487.85	70.22
488.03	114.69
488.21	39.79
488.39	56.17
488.57	74.90
488.75	67.88
488.92	119.37
489.10	79.58
489.28	65.54
489.46	0.00
489.64	21.06
489.81	93.62
489.99	7.02
490.17	37.45
490.35	39.79
490.53	93.62
490.70	95.96
490.88	159.16
491.06	49.15
491.24	105.32
491.41	91.28
491.59	72.56
491.77	65.54
491.95	56.17
492.13	72.56
492.30	126.39
492.48	58.51
492.66	28.09
492.84	28.09
493.01	93.62
493.19	65.54
493.37	25.75
493.54	35.11
493.72	60.85
493.90	131.07
494.08	140.43
494.25	77.24
494.43	86.60
494.61	102.98
494.79	126.39
494.96	39.79
495.14	105.32
495.32	117.03
495.49	72.56
495.67	65.54
495.85	28.09
496.02	2.34
496.20	117.03
496.38	77.24
496.55	46.81
496.73	28.09
496.91	16.38
497.09	56.17
497.26	14.04
497.44	23.41
497.62	138.09
497.79	0.00
497.97	56.17
498.14	51.49
498.32	95.96
498.50	60.85
498.67	79.58
498.85	161.50
499.03	93.62
499.20	81.92
499.38	100.64
499.56	30.43
499.73	60.85
499.91	37.45
500.08	119.37
500.26	86.60
500.44	100.64
500.61	91.28
500.79	81.92
500.97	142.77
501.14	74.90
501.32	60.85
501.49	42.13
501.67	65.54
501.84	51.49
502.02	0.00
502.20	133.41
502.37	32.77
502.55	138.09
502.72	140.43
502.90	88.94
503.07	37.45
503.25	79.58
503.43	42.13
503.60	140.43
503.78	37.45
503.95	98.30
504.13	65.54
504.30	95.96
504.48	53.83
504.65	100.64
504.83	37.45
505.01	37.45
505.18	102.98
505.36	93.62
505.53	117.03
505.71	42.13
505.88	28.09
506.06	44.47
506.23	91.28
506.41	91.28
506.58	119.37
506.76	100.64
506.93	74.90
507.11	91.28
507.28	91.28
507.46	124.05
507.63	166.18
507.81	140.43
507.98	105.32
508.16	74.90
508.33	0.00
508.50	77.24
508.68	42.13
508.85	25.75
509.03	28.09
509.20	88.94
509.38	112.35
509.55	102.98
509.73	58.51
509.90	119.37
510.08	74.90
510.25	102.98
510.42	37.45
510.60	135.75
510.77	102.98
510.95	149.79
511.12	147.45
511.30	91.28
511.47	79.58
511.64	119.37
511.82	79.58
511.99	4.68
512.17	28.09
512.34	98.30
512.51	60.85
512.69	65.54
512.86	142.77
513.04	65.54
513.21	42.13
513.38	72.56
513.56	102.98
513.73	98.30
513.90	77.24
514.08	156.82
514.25	110.01
514.43	25.75
514.60	114.69
514.77	28.09
514.95	14.04
515.12	32.77
515.29	98.30
515.47	37.45
515.64	42.13
515.81	147.45
515.99	28.09
516.16	117.03
516.33	107.66
516.51	79.58
516.68	84.26
516.85	107.66
517.03	77.24
517.20	74.90
517.37	91.28
517.54	133.41
517.72	58.51
517.89	11.70
518.06	102.98
518.24	2.34
518.41	107.66
518.58	88.94
518.75	2.34
518.93	63.19
519.10	81.92
519.27	88.94
519.45	51.49
519.62	58.51
519.79	81.92
519.96	102.98
520.14	154.48
520.31	114.69
520.48	105.32
520.65	56.17
520.83	53.83
521.00	23.41
521.17	58.51
521.34	74.90
521.52	102.98
521.69	35.11
521.86	53.83
522.03	37.45
522.20	37.45
522.38	81.92
522.55	105.32
522.72	84.26
522.89	58.51
523.07	133.41
523.24	135.75
523.41	88.94
523.58	39.79
523.75	81.92
523.92	95.96
524.10	58.51
524.27	88.94
524.44	84.26
524.61	56.17
524.78	91.28
524.96	133.41
525.13	79.58
525.30	51.49
525.47	79.58
525.64	77.24
525.81	114.69
525.98	107.66
526.16	156.82
526.33	105.32
526.50	131.07
526.67	110.01
526.84	67.88
527.01	133.41
527.18	28.09
527.36	102.98
527.53	84.26
527.70	98.30
527.87	88.94
528.04	67.88
528.21	60.85
528.38	42.13
528.55	65.54
528.72	95.96
528.89	102.98
529.07	60.85
529.24	91.28
529.41	49.15
529.58	95.96
529.75	100.64
529.92	60.85
530.09	74.90
530.26	67.88
530.43	147.45
530.60	70.22
530.77	25.75
530.94	142.77
531.11	110.01
531.28	86.60
531.46	74.90
531.63	79.58
531.80	67.88
531.97	117.03
532.14	79.58
532.31	46.81
532.48	119.37
532.65	102.98
532.82	65.54
532.99	56.17
533.16	124.05
533.33	112.35
533.50	72.56
533.67	107.66
533.84	58.51
534.01	114.69
534.18	107.66
534.35	112.35
534.52	72.56
534.69	107.66
534.86	58.51
535.03	95.96
535.20	42.13
535.37	46.81
535.54	51.49
535.71	110.01
535.88	16.38
536.05	42.13
536.22	114.69
536.38	65.54
536.55	77.24
536.72	152.13
536.89	37.45
537.06	37.45
537.23	81.92
537.40	11.70
537.57	114.69
537.74	53.83
537.91	44.47
538.08	107.66
538.25	114.69
538.42	110.01
538.59	156.82
538.75	53.83
538.92	67.88
539.09	53.83
539.26	74.90
539.43	81.92
539.60	53.83
539.77	91.28
539.94	81.92
540.11	58.51
540.28	70.22
540.44	140.43
540.61	65.54
540.78	72.56
540.95	102.98
541.12	135.75
541.29	79.58
541.46	72.56
541.62	77.24
541.79	53.83
541.96	79.58
542.13	135.75
542.30	7.02
542.47	42.13
542.63	58.51
542.80	98.30
542.97	81.92
543.14	88.94
543.31	133.41
543.48	74.90
543.64	98.30
543.81	25.75
543.98	117.03
544.15	56.17
544.32	74.90
544.48	18.72
544.65	98.30
544.82	30.43
544.99	56.17
545.16	65.54
545.32	163.84
545.49	135.75
545.66	79.58
545.83	128.73
546.00	79.58
546.16	95.96
546.33	58.51
546.50	163.84
546.67	91.28
546.83	77.24
547.00	91.28
547.17	72.56
547.34	110.01
547.50	114.69
547.67	121.71
547.84	91.28
548.00	0.00
548.17	105.32
548.34	100.64
548.51	88.94
548.67	56.17
548.84	93.62
549.01	74.90
549.18	58.51
549.34	86.60
549.51	100.64
549.68	145.11
549.84	110.01
550.01	126.39
550.18	128.73
550.34	42.13
550.51	9.36
550.68	14.04
550.84	105.32
551.01	100.64
551.18	4.68
551.34	58.51
551.51	65.54
551.68	159.16
551.84	74.90
552.01	110.01
552.18	49.15
552.34	117.03
552.51	74.90
552.68	44.47
552.84	100.64
553.01	56.17
553.18	142.77
553.34	30.43
553.51	124.05
553.67	138.09
553.84	70.22
554.01	18.72
554.17	84.26
554.34	140.43
554.51	119.37
554.67	84.26
554.84	131.07
555.00	133.41
555.17	84.26
555.33	49.15
555.50	37.45
555.67	74.90
555.83	0.00
556.00	23.41
556.16	131.07
556.33	28.09
556.50	65.54
556.66	30.43
556.83	77.24
556.99	63.19
557.16	58.51
557.32	67.88
557.49	95.96
557.65	58.51
557.82	119.37
557.98	32.77
558.15	119.37
558.32	9.36
558.48	72.56
558.65	81.92
558.81	60.85
558.98	58.51
559.14	154.48
559.31	74.90
559.47	107.66
559.64	95.96
559.80	51.49
559.97	110.01
560.13	98.30
560.30	46.81
560.46	74.90
560.63	121.71
560.79	107.66
560.96	58.51
561.12	79.58
561.29	79.58
561.45	110.01
561.61	53.83
561.78	126.39
561.94	98.30
562.11	72.56
562.27	0.00
562.44	77.24
562.60	65.54
562.77	110.01
562.93	102.98
563.10	16.38
563.26	21.06
563.42	65.54
563.59	39.79
563.75	58.51
563.92	149.79
564.08	147.45
564.24	65.54
564.41	138.09
564.57	86.60
564.74	51.49
564.90	100.64
565.07	72.56
565.23	35.11
565.39	60.85
565.56	93.62
565.72	49.15
565.88	102.98
566.05	51.49
566.21	49.15
566.38	35.11
566.54	72.56
566.70	42.13
566.87	180.22
567.03	9.36
567.19	65.54
567.36	105.32
567.52	88.94
567.68	37.45
567.85	110.01
568.01	86.60
568.17	86.60
568.34	46.81
568.50	114.69
568.66	74.90
568.83	35.11
568.99	49.15
569.15	91.28
569.32	70.22
569.48	70.22
569.64	30.43
569.81	46.81
569.97	102.98
570.13	30.43
570.30	72.56
570.46	49.15
570.62	84.26
570.78	46.81
570.95	53.83
571.11	117.03
571.27	49.15
571.43	0.00
571.60	58.51
571.76	32.77
571.92	102.98
572.09	56.17
572.25	63.19
572.41	72.56
572.57	42.13
572.74	49.15
572.90	121.71
573.06	124.05
573.22	67.88
573.38	30.43
573.55	86.60
573.71	46.81
573.87	63.19
574.03	88.94
574.20	11.70
574.36	79.58
574.52	124.05
574.68	91.28
574.84	53.83
575.01	30.43
575.17	112.35
575.33	84.26
575.49	117.03
575.65	51.49
575.82	67.88
575.98	74.90
576.14	124.05
576.30	93.62
576.46	0.00
576.62	70.22
576.79	37.45
576.95	51.49
577.11	81.92
577.27	110.01
577.43	60.85
577.59	88.94
577.75	102.98
577.92	119.37
578.08	142.77
578.24	37.45
578.40	133.41
578.56	9.36
578.72	44.47
578.88	70.22
579.04	37.45
579.21	119.37
579.37	49.15
579.53	133.41
579.69	67.88
579.85	102.98
580.01	72.56
580.17	51.49
580.33	100.64
580.49	128.73
580.65	114.69
580.82	107.66
580.98	79.58
581.14	60.85
581.30	88.94
581.46	72.56
581.62	79.58
581.78	98.30
581.94	98.30
582.10	124.05
582.26	77.24
582.42	105.32
582.58	23.41
582.74	107.66
582.90	81.92
583.06	72.56
583.22	30.43
583.38	53.83
583.54	140.43
583.70	70.22
583.86	42.13
584.02	91.28
584.18	70.22
584.34	56.17
584.50	102.98
584.66	81.92
584.82	110.01
584.98	114.69
585.14	74.90
585.30	105.32
585.46	65.54
585.62	77.24
585.78	98.30
585.94	102.98
586.10	14.04
586.26	112.35
586.42	67.88
586.58	110.01
586.74	53.83
586.90	63.19
587.06	95.96
587.22	42.13
587.38	0.00
587.54	114.69
587.70	107.66
587.86	37.45
588.02	70.22
588.18	79.58
588.34	63.19
588.49	100.64
588.65	37.45
588.81	114.69
588.97	56.17
589.13	95.96
589.29	25.75
589.45	32.77
589.61	124.05
589.77	131.07
589.93	46.81
590.08	93.62
590.24	107.66
590.40	53.83
590.56	93.62
590.72	93.62
590.88	9.36
591.04	142.77
591.20	0.00
591.35	110.01
591.51	63.19
591.67	51.49
591.83	72.56
591.99	77.24
592.15	56.17
592.31	37.45
592.46	86.60
592.62	56.17
592.78	86.60
592.94	74.90
593.10	44.47
593.26	114.69
593.41	4.68
593.57	58.51
593.73	37.45
593.89	95.96
594.05	112.35
594.20	72.56
594.36	35.11
594.52	42.13
594.68	70.22
594.84	107.66
594.99	86.60
595.15	72.56
595.31	93.62
595.47	65.54
595.62	23.41
595.78	86.60
595.94	126.39
596.10	72.56
596.25	37.45
596.41	44.47
596.57	18.72
596.73	51.49
596.88	88.94
597.04	18.72
597.20	58.51
597.36	100.64
597.51	56.17
597.67	124.05
597.83	60.85
597.99	84.26
598.14	117.03
598.30	65.54
598.46	9.36
598.61	74.90
598.77	67.88
598.93	46.81
599.09	142.77
599.24	91.28
599.40	74.90
599.56	67.88
599.71	67.88
599.87	49.15
600.03	100.64
600.18	102.98
600.34	58.51
600.50	91.28
600.65	11.70
600.81	56.17
600.97	14.04
601.12	159.16
601.28	72.56
601.44	161.50
601.59	53.83
601.75	44.47
601.91	112.35
602.06	107.66
602.22	81.92
602.37	95.96
602.53	100.64
602.69	9.36
602.84	107.66
603.00	86.60
603.16	56.17
603.31	100.64
603.47	105.32
603.62	65.54
603.78	91.28
603.94	51.49
604.09	138.09
604.25	65.54
604.40	114.69
604.56	42.13
604.71	60.85
604.87	72.56
605.03	93.62
605.18	93.62
605.34	105.32
605.49	7.02
605.65	46.81
605.80	49.15
605.96	60.85
606.12	77.24
606.27	44.47
606.43	81.92
606.58	70.22
606.74	77.24
606.89	102.98
607.05	35.11
607.20	91.28
607.36	93.62
607.51	60.85
607.67	74.90
607.82	88.94
607.98	49.15
608.13	126.39
608.29	86.60
608.44	110.01
608.60	60.85
608.75	49.15
608.91	51.49
609.06	70.22
609.22	65.54
609.37	60.85
609.53	35.11
609.68	46.81
609.84	39.79
609.99	86.60
610.15	37.45
610.30	46.81
610.46	124.05
610.61	100.64
610.76	79.58
610.92	84.26
611.07	77.24
611.23	67.88
611.38	53.83
611.54	53.83
611.69	107.66
611.84	21.06
612.00	9.36
612.15	4.68
612.31	46.81
612.46	107.66
612.62	60.85
612.77	42.13
612.92	124.05
613.08	105.32
613.23	65.54
613.39	74.90
613.54	0.00
613.69	44.47
613.85	60.85
614.00	49.15
614.15	74.90
614.31	77.24
614.46	30.43
614.62	84.26
614.77	110.01
614.92	35.11
615.08	112.35
615.23	53.83
615.38	28.09
615.54	91.28
615.69	35.11
615.84	117.03
616.00	121.71
616.15	91.28
616.30	74.90
616.46	25.75
616.61	4.68
616.76	102.98
616.92	77.24
617.07	35.11
617.22	56.17
617.37	93.62
617.53	35.11
617.68	42.13
617.83	49.15
617.99	56.17
618.14	49.15
618.29	77.24
618.45	32.77
618.60	67.88
618.75	65.54
618.90	35.11
619.06	16.38
619.21	44.47
619.36	2.34
619.51	46.81
619.67	77.24
619.82	77.24
619.97	114.69
620.12	86.60
620.28	16.38
620.43	58.51
620.58	133.41
620.73	53.83
620.89	84.26
621.04	25.75
621.19	58.51
621.34	2.34
621.49	79.58
621.65	63.19
621.80	81.92
621.95	98.30
622.10	110.01
622.25	110.01
622.41	0.00
622.56	37.45
622.71	79.58
622.86	65.54
623.01	86.60
623.16	28.09
623.32	63.19
623.47	81.92
623.62	49.15
623.77	72.56
623.92	67.88
624.07	84.26
624.23	98.30
624.38	81.92
624.53	86.60
624.68	79.58
624.83	72.56
624.98	77.24
625.13	23.41
625.29	81.92
625.44	60.85
625.59	49.15
625.74	70.22
625.89	53.83
626.04	126.39
626.19	60.85
626.34	53.83
626.49	30.43
626.65	37.45
626.80	9.36
626.95	42.13
627.10	0.00
627.25	39.79
627.40	58.51
627.55	18.72
627.70	46.81
627.85	35.11
628.00	53.83
628.15	60.85
628.30	70.22
628.45	44.47
628.60	72.56
628.76	93.62
628.91	79.58
629.06	100.64
629.21	81.92
629.36	95.96
629.51	53.83
629.66	72.56
629.81	70.22
629.96	105.32
630.11	112.35
630.26	44.47
630.41	0.00
630.56	58.51
630.71	32.77
630.86	42.13
631.01	70.22
631.16	56.17
631.31	44.47
631.46	21.06
631.61	0.00
631.76	25.75
631.91	0.00
632.06	2.34
632.21	23.41
632.36	72.56
632.51	131.07
632.66	56.17
632.81	0.00
632.96	32.77
633.10	30.43
633.25	72.56
633.40	79.58
633.55	79.58
633.70	51.49
633.85	84.26
634.00	77.24
634.15	0.00
634.30	72.56
634.45	131.07
634.60	102.98
634.75	16.38
634.90	65.54
635.05	65.54
635.19	32.77
635.34	32.77
635.49	81.92
635.64	67.88
635.79	42.13
635.94	39.79
636.09	0.00
636.24	37.45
636.39	107.66
636.53	53.83
636.68	42.13
636.83	23.41
636.98	30.43
637.13	16.38
637.28	44.47
637.43	70.22
637.57	30.43
637.72	42.13
637.87	46.81
638.02	0.00
638.17	107.66
638.32	88.94
638.46	44.47
638.61	156.82
638.76	23.41
638.91	65.54
639.06	84.26
639.20	56.17
639.35	93.62
639.50	0.00
639.65	93.62
639.80	119.37
639.94	98.30
640.09	67.88
640.24	88.94
640.39	25.75
640.54	0.00
640.68	86.60
640.83	0.00
640.98	49.15
641.13	72.56
641.27	60.85
641.42	28.09
641.57	46.81
641.72	79.58
641.86	30.43
642.01	56.17
642.16	93.62
642.31	30.43
642.45	72.56
642.60	65.54
642.75	65.54
642.90	35.11
643.04	44.47
643.19	124.05
643.34	28.09
643.48	140.43
643.63	95.96
643.78	56.17
643.93	67.88
644.07	95.96
644.22	0.00
644.37	0.00
644.51	77.24
644.66	53.83
644.81	65.54
644.95	49.15
645.10	58.51
645.25	7.02
645.39	11.70
645.54	58.51
645.69	58.51
645.83	35.11
645.98	67.88
646.13	126.39
646.27	112.35
646.42	58.51
646.57	16.38
646.71	72.56
646.86	65.54
647.00	0.00
647.15	51.49
647.30	14.04
647.44	98.30
647.59	60.85
647.74	37.45
647.88	35.11
648.03	14.04
648.17	77.24
648.32	88.94
648.47	86.60
648.61	49.15
648.76	88.94
648.90	60.85
649.05	84.26
649.20	44.47
649.34	107.66
649.49	0.00
649.63	35.11
649.78	65.54
649.92	9.36
650.07	79.58
650.21	107.66
650.36	110.01
650.51	128.73
650.65	65.54
650.80	56.17
650.94	63.19
651.09	65.54
651.23	84.26
651.38	60.85
651.52	11.70
651.67	37.45
651.81	21.06
651.96	100.64
652.10	58.51
652.25	0.00
652.39	44.47
652.54	77.24
652.68	56.17
652.83	32.77
652.97	28.09
653.12	58.51
653.26	88.94
653.41	51.49
653.55	0.00
653.70	0.00
653.84	93.62
653.99	28.09
654.13	49.15
654.27	84.26
654.42	44.47
654.56	23.41
654.71	67.88
654.85	11.70
655.00	72.56
655.14	23.41
655.29	98.30
655.43	14.04
655.57	63.19
655.72	65.54
655.86	60.85
656.01	91.28
656.15	56.17
656.30	63.19
656.44	51.49
656.58	11.70
656.73	25.75
656.87	65.54
657.01	0.00
657.16	77.24
657.30	37.45
657.45	44.47
657.59	0.00
657.73	60.85
657.88	4.68
658.02	35.11
658.16	79.58
658.31	49.15
658.45	67.88
658.60	14.04
658.74	81.92
658.88	58.51
659.03	16.38
659.17	46.81
659.31	18.72
659.46	67.88
659.60	0.00
659.74	44.47
659.89	42.13
660.03	88.94
660.17	107.66
660.32	0.00
660.46	9.36
660.60	0.00
660.74	63.19
660.89	91.28
661.03	84.26
661.17	67.88
661.32	0.00
661.46	18.72
661.60	63.19
661.74	70.22
661.89	42.13
662.03	131.07
662.17	51.49
662.31	86.60
662.46	95.96
662.60	84.26
662.74	100.64
662.88	110.01
663.03	77.24
663.17	37.45
663.31	117.03
663.45	42.13
663.60	44.47
663.74	98.30
663.88	72.56
664.02	39.79
664.17	86.60
664.31	21.06
664.45	58.51
664.59	0.00
664.73	102.98
664.88	91.28
665.02	42.13
665.16	51.49
665.30	30.43
665.44	114.69
665.59	30.43
665.73	28.09
665.87	63.19
666.01	4.68
666.15	100.64
666.29	72.56
666.44	14.04
666.58	49.15
666.72	42.13
666.86	58.51
667.00	44.47
667.14	86.60
667.28	44.47
667.43	44.47
667.57	95.96
667.71	72.56
667.85	81.92
667.99	51.49
668.13	25.75
668.27	4.68
668.41	81.92
668.56	18.72
668.70	44.47
668.84	18.72
668.98	74.90
669.12	42.13
669.26	51.49
669.40	18.72
669.54	28.09
669.68	117.03
669.82	14.04
669.96	14.04
670.10	77.24
670.25	70.22
670.39	28.09
670.53	30.43
670.67	0.00
670.81	84.26
670.95	67.88
671.09	46.81
671.23	81.92
671.37	56.17
671.51	7.02
671.65	0.00
671.79	0.00
671.93	35.11
672.07	25.75
672.21	88.94
672.35	0.00
672.49	11.70
672.63	77.24
672.77	95.96
672.91	60.85
673.05	49.15
673.19	44.47
673.33	25.75
673.47	28.09
673.61	2.34
673.75	0.00
673.89	11.70
674.03	0.00
674.17	0.00
674.31	0.00
674.45	42.13
674.59	79.58
674.73	110.01
674.87	28.09
675.01	14.04
675.15	60.85
675.29	72.56
675.43	35.11
675.56	79.58
675.70	95.96
675.84	110.01
675.98	58.51
676.12	23.41
676.26	32.77
676.40	74.90
676.54	2.34
676.68	11.70
676.82	65.54
676.96	0.00
677.10	0.00
677.23	81.92
677.37	0.00
677.51	11.70
677.65	58.51
677.79	58.51
677.93	0.00
678.07	37.45
678.21	23.41
678.34	32.77
678.48	42.13
678.62	21.06
678.76	32.77
678.90	81.92
679.04	35.11
679.18	30.43
679.31	4.68
679.45	98.30
679.59	9.36
679.73	65.54
679.87	37.45
680.00	0.00
680.14	35.11
680.28	53.83
680.42	51.49
680.56	65.54
680.70	74.90
680.83	107.66
680.97	74.90
681.11	79.58
681.25	72.56
681.39	2.34
681.52	72.56
681.66	16.38
681.80	53.83
681.94	0.00
682.07	100.64
682.21	4.68
682.35	9.36
682.49	0.00
682.62	53.83
682.76	72.56
682.90	93.62
683.04	49.15
683.17	102.98
683.31	112.35
683.45	42.13
683.59	65.54
683.72	79.58
683.86	60.85
684.00	91.28
684.13	58.51
684.27	56.17
684.41	121.71
684.55	9.36
684.68	0.00
684.82	0.00
684.96	0.00
685.09	53.83
685.23	9.36
685.37	63.19
685.50	81.92
685.64	16.38
685.78	100.64
685.91	49.15
686.05	37.45
686.19	7.02
686.32	0.00
686.46	53.83
686.60	0.00
686.73	56.17
686.87	32.77
687.01	70.22
687.14	28.09
687.28	42.13
687.42	28.09
687.55	32.77
687.69	79.58
687.82	18.72
687.96	35.11
688.10	7.02
688.23	21.06
688.37	0.00
688.50	0.00
688.64	7.02
688.78	0.00
688.91	51.49
689.05	35.11
689.18	60.85
689.32	114.69
689.46	58.51
689.59	56.17
689.73	0.00
689.86	39.79
690.00	11.70
690.13	110.01
690.27	79.58
690.41	81.92
690.54	11.70
690.68	0.00
690.81	72.56
690.95	32.77
691.08	21.06
691.22	84.26
691.35	23.41
691.49	11.70
691.62	126.39
691.76	70.22
691.89	35.11
692.03	86.60
692.16	46.81
692.30	105.32
692.43	67.88
692.57	70.22
692.70	0.00
692.84	16.38
692.97	11.70
693.11	21.06
693.24	0.00
693.38	0.00
693.51	7.02
693.65	0.00
693.78	42.13
693.92	9.36
694.05	65.54
694.19	51.49
694.32	84.26
694.45	30.43
694.59	51.49
694.72	0.00
694.86	37.45
694.99	46.81
695.13	23.41
695.26	67.88
695.39	37.45
695.53	63.19
695.66	39.79
695.80	60.85
695.93	100.64
696.07	16.38
696.20	0.00
696.33	7.02
696.47	0.00
696.60	0.00
696.73	23.41
696.87	70.22
697.00	72.56
697.14	46.81
697.27	65.54
697.40	98.30
697.54	16.38
697.67	0.00
697.80	140.43
697.94	42.13
698.07	56.17
698.21	58.51
698.34	18.72
698.47	0.00
698.61	4.68
698.74	51.49
698.87	46.81
699.01	35.11
699.14	60.85
699.27	0.00
699.40	51.49
699.54	16.38
699.67	30.43
699.80	46.81
699.94	58.51
700.07	53.83
700.20	88.94
700.34	0.00
700.47	14.04
700.60	49.15
700.73	42.13
700.87	14.04
701.00	44.47
701.13	105.32
701.26	42.13
701.40	98.30
701.53	49.15
701.66	28.09
701.79	70.22
701.93	70.22
702.06	35.11
702.19	9.36
702.32	0.00
702.46	9.36
702.59	32.77
702.72	0.00
702.85	79.58
702.99	4.68
703.12	124.05
703.25	105.32
703.38	21.06
703.51	25.75
703.65	93.62
703.78	91.28
703.91	0.00
704.04	30.43
704.17	0.00
704.31	0.00
704.44	35.11
704.57	79.58
704.70	49.15
704.83	0.00
704.96	0.00
705.10	0.00
705.23	53.83
>>>>>End Processed Spectral Data<<<<<
