SpectraSuite Data File
++++++++++++++++++++++++++++++++++++
Date: Fri Oct 04 12:13:39 GMT-05:00 2013
User: price-jones
Dark Spectrum Present: No
Reference Spectrum Present: No
Number of Sampled Component Spectra: 1
Spectrometers: USB2+H05261
Integration Time (usec): 10000 (USB2+H05261)
Spectra Averaged: 1 (USB2+H05261)
Boxcar Smoothing: 0 (USB2+H05261)
Correct for Electrical Dark: No (USB2+H05261)
Strobe/Lamp Enabled: No (USB2+H05261)
Correct for Detector Non-linearity: No (USB2+H05261)
Correct for Stray Light: No (USB2+H05261)
Number of Pixels in Processed Spectrum: 2048
>>>>>Begin Processed Spectral Data<<<<<
365.73	0.00
365.92	0.00
366.12	0.00
366.32	0.00
366.52	0.00
366.72	0.00
366.91	0.00
367.11	0.00
367.31	0.00
367.51	0.00
367.70	0.00
367.90	0.00
368.10	0.00
368.30	0.00
368.49	0.00
368.69	0.00
368.89	0.00
369.09	0.00
369.28	4.68
369.48	0.00
369.68	0.00
369.87	0.00
370.07	0.00
370.27	0.00
370.47	0.00
370.66	0.00
370.86	0.00
371.06	0.00
371.25	0.00
371.45	0.00
371.65	0.00
371.84	0.00
372.04	18.72
372.24	23.41
372.44	0.00
372.63	0.00
372.83	11.70
373.03	14.04
373.22	44.47
373.42	0.00
373.62	9.36
373.81	11.70
374.01	77.24
374.21	11.70
374.40	63.19
374.60	0.00
374.79	21.06
374.99	79.58
375.19	46.81
375.38	0.00
375.58	0.00
375.78	4.68
375.97	74.90
376.17	56.17
376.37	0.00
376.56	58.51
376.76	18.72
376.95	0.00
377.15	56.17
377.35	14.04
377.54	16.38
377.74	51.49
377.93	0.00
378.13	28.09
378.33	60.85
378.52	74.90
378.72	72.56
378.91	67.88
379.11	0.00
379.31	11.70
379.50	0.00
379.70	18.72
379.89	60.85
380.09	16.38
380.28	25.75
380.48	14.04
380.68	39.79
380.87	9.36
381.07	0.00
381.26	0.00
381.46	0.00
381.65	0.00
381.85	0.00
382.04	93.62
382.24	0.00
382.43	25.75
382.63	49.15
382.83	35.11
383.02	63.19
383.22	0.00
383.41	2.34
383.61	7.02
383.80	42.13
384.00	105.32
384.19	28.09
384.39	11.70
384.58	11.70
384.78	53.83
384.97	0.00
385.17	53.83
385.36	0.00
385.56	56.17
385.75	0.00
385.95	16.38
386.14	39.79
386.34	51.49
386.53	117.03
386.72	14.04
386.92	0.00
387.11	70.22
387.31	53.83
387.50	0.00
387.70	0.00
387.89	74.90
388.09	25.75
388.28	49.15
388.48	18.72
388.67	0.00
388.86	0.00
389.06	28.09
389.25	32.77
389.45	0.00
389.64	60.85
389.84	35.11
390.03	28.09
390.22	0.00
390.42	44.47
390.61	37.45
390.81	67.88
391.00	9.36
391.19	0.00
391.39	0.00
391.58	0.00
391.78	35.11
391.97	7.02
392.16	0.00
392.36	18.72
392.55	35.11
392.75	28.09
392.94	39.79
393.13	14.04
393.33	0.00
393.52	23.41
393.71	30.43
393.91	18.72
394.10	11.70
394.29	7.02
394.49	32.77
394.68	74.90
394.88	11.70
395.07	44.47
395.26	0.00
395.46	25.75
395.65	74.90
395.84	0.00
396.04	11.70
396.23	28.09
396.42	37.45
396.62	28.09
396.81	4.68
397.00	25.75
397.19	0.00
397.39	4.68
397.58	7.02
397.77	77.24
397.97	44.47
398.16	16.38
398.35	0.00
398.55	14.04
398.74	28.09
398.93	142.77
399.12	2.34
399.32	0.00
399.51	0.00
399.70	0.00
399.90	0.00
400.09	0.00
400.28	7.02
400.47	9.36
400.67	28.09
400.86	65.54
401.05	77.24
401.24	16.38
401.44	2.34
401.63	51.49
401.82	35.11
402.01	77.24
402.21	35.11
402.40	11.70
402.59	14.04
402.78	0.00
402.97	0.00
403.17	28.09
403.36	0.00
403.55	0.00
403.74	70.22
403.93	0.00
404.13	0.00
404.32	102.98
404.51	42.13
404.70	58.51
404.89	28.09
405.09	60.85
405.28	0.00
405.47	14.04
405.66	0.00
405.85	70.22
406.05	58.51
406.24	0.00
406.43	42.13
406.62	39.79
406.81	67.88
407.00	21.06
407.20	0.00
407.39	35.11
407.58	56.17
407.77	18.72
407.96	0.00
408.15	23.41
408.34	93.62
408.54	105.32
408.73	0.00
408.92	95.96
409.11	0.00
409.30	0.00
409.49	18.72
409.68	25.75
409.87	60.85
410.07	16.38
410.26	30.43
410.45	25.75
410.64	39.79
410.83	46.81
411.02	0.00
411.21	0.00
411.40	42.13
411.59	100.64
411.78	63.19
411.98	56.17
412.17	65.54
412.36	74.90
412.55	28.09
412.74	39.79
412.93	56.17
413.12	58.51
413.31	7.02
413.50	72.56
413.69	63.19
413.88	42.13
414.07	84.26
414.26	0.00
414.45	70.22
414.64	121.71
414.83	23.41
415.02	49.15
415.22	95.96
415.41	37.45
415.60	49.15
415.79	0.00
415.98	30.43
416.17	79.58
416.36	0.00
416.55	70.22
416.74	21.06
416.93	18.72
417.12	30.43
417.31	84.26
417.50	117.03
417.69	51.49
417.88	74.90
418.07	138.09
418.26	39.79
418.45	42.13
418.64	56.17
418.83	65.54
419.02	74.90
419.21	56.17
419.39	79.58
419.58	60.85
419.77	65.54
419.96	112.35
420.15	30.43
420.34	98.30
420.53	44.47
420.72	65.54
420.91	67.88
421.10	79.58
421.29	81.92
421.48	56.17
421.67	23.41
421.86	37.45
422.05	21.06
422.24	32.77
422.43	74.90
422.61	7.02
422.80	119.37
422.99	23.41
423.18	35.11
423.37	28.09
423.56	28.09
423.75	49.15
423.94	30.43
424.13	98.30
424.32	53.83
424.50	30.43
424.69	30.43
424.88	7.02
425.07	42.13
425.26	93.62
425.45	63.19
425.64	30.43
425.83	39.79
426.01	77.24
426.20	58.51
426.39	72.56
426.58	25.75
426.77	56.17
426.96	79.58
427.15	35.11
427.33	74.90
427.52	98.30
427.71	84.26
427.90	14.04
428.09	0.00
428.28	44.47
428.46	67.88
428.65	49.15
428.84	0.00
429.03	51.49
429.22	9.36
429.40	35.11
429.59	18.72
429.78	0.00
429.97	60.85
430.16	0.00
430.34	0.00
430.53	28.09
430.72	11.70
430.91	51.49
431.10	32.77
431.28	16.38
431.47	58.51
431.66	63.19
431.85	32.77
432.03	46.81
432.22	18.72
432.41	0.00
432.60	95.96
432.79	30.43
432.97	7.02
433.16	21.06
433.35	0.00
433.54	0.00
433.72	72.56
433.91	32.77
434.10	95.96
434.28	51.49
434.47	110.01
434.66	44.47
434.85	91.28
435.03	46.81
435.22	11.70
435.41	44.47
435.59	79.58
435.78	35.11
435.97	21.06
436.16	112.35
436.34	79.58
436.53	32.77
436.72	0.00
436.90	7.02
437.09	37.45
437.28	128.73
437.46	23.41
437.65	0.00
437.84	32.77
438.02	14.04
438.21	79.58
438.40	70.22
438.58	70.22
438.77	0.00
438.96	18.72
439.14	98.30
439.33	77.24
439.52	44.47
439.70	0.00
439.89	88.94
440.08	14.04
440.26	77.24
440.45	110.01
440.63	49.15
440.82	0.00
441.01	4.68
441.19	35.11
441.38	0.00
441.57	14.04
441.75	11.70
441.94	84.26
442.12	28.09
442.31	74.90
442.50	25.75
442.68	128.73
442.87	72.56
443.05	65.54
443.24	23.41
443.43	21.06
443.61	14.04
443.80	114.69
443.98	46.81
444.17	65.54
444.35	39.79
444.54	14.04
444.73	30.43
444.91	28.09
445.10	0.00
445.28	39.79
445.47	112.35
445.65	79.58
445.84	70.22
446.02	95.96
446.21	152.13
446.39	117.03
446.58	70.22
446.77	53.83
446.95	81.92
447.14	0.00
447.32	58.51
447.51	49.15
447.69	112.35
447.88	74.90
448.06	95.96
448.25	98.30
448.43	51.49
448.62	30.43
448.80	0.00
448.99	39.79
449.17	121.71
449.36	0.00
449.54	107.66
449.73	72.56
449.91	0.00
450.10	16.38
450.28	0.00
450.46	91.28
450.65	21.06
450.83	25.75
451.02	49.15
451.20	110.01
451.39	91.28
451.57	56.17
451.76	9.36
451.94	14.04
452.13	121.71
452.31	16.38
452.49	86.60
452.68	7.02
452.86	67.88
453.05	88.94
453.23	70.22
453.42	37.45
453.60	56.17
453.78	72.56
453.97	7.02
454.15	84.26
454.34	30.43
454.52	42.13
454.70	32.77
454.89	70.22
455.07	42.13
455.26	0.00
455.44	51.49
455.62	107.66
455.81	0.00
455.99	107.66
456.17	67.88
456.36	49.15
456.54	11.70
456.73	56.17
456.91	81.92
457.09	28.09
457.28	51.49
457.46	105.32
457.64	32.77
457.83	0.00
458.01	93.62
458.19	46.81
458.38	30.43
458.56	58.51
458.74	32.77
458.93	18.72
459.11	42.13
459.29	63.19
459.48	56.17
459.66	81.92
459.84	81.92
460.03	128.73
460.21	28.09
460.39	0.00
460.57	93.62
460.76	74.90
460.94	44.47
461.12	77.24
461.31	44.47
461.49	77.24
461.67	65.54
461.85	35.11
462.04	18.72
462.22	152.13
462.40	63.19
462.59	9.36
462.77	56.17
462.95	100.64
463.13	56.17
463.32	65.54
463.50	18.72
463.68	63.19
463.86	53.83
464.05	124.05
464.23	72.56
464.41	98.30
464.59	91.28
464.78	0.00
464.96	0.00
465.14	30.43
465.32	23.41
465.50	14.04
465.69	77.24
465.87	25.75
466.05	79.58
466.23	0.00
466.41	93.62
466.60	156.82
466.78	65.54
466.96	110.01
467.14	88.94
467.32	84.26
467.51	88.94
467.69	65.54
467.87	30.43
468.05	58.51
468.23	28.09
468.41	56.17
468.60	51.49
468.78	72.56
468.96	79.58
469.14	51.49
469.32	60.85
469.50	65.54
469.69	39.79
469.87	102.98
470.05	44.47
470.23	42.13
470.41	46.81
470.59	21.06
470.77	35.11
470.95	39.79
471.14	0.00
471.32	39.79
471.50	51.49
471.68	79.58
471.86	112.35
472.04	16.38
472.22	91.28
472.40	60.85
472.58	107.66
472.77	84.26
472.95	63.19
473.13	107.66
473.31	0.00
473.49	93.62
473.67	30.43
473.85	63.19
474.03	107.66
474.21	135.75
474.39	21.06
474.57	81.92
474.75	46.81
474.93	9.36
475.12	67.88
475.30	56.17
475.48	56.17
475.66	72.56
475.84	72.56
476.02	60.85
476.20	124.05
476.38	119.37
476.56	35.11
476.74	58.51
476.92	77.24
477.10	39.79
477.28	0.00
477.46	16.38
477.64	42.13
477.82	65.54
478.00	72.56
478.18	86.60
478.36	49.15
478.54	121.71
478.72	88.94
478.90	42.13
479.08	117.03
479.26	44.47
479.44	44.47
479.62	14.04
479.80	93.62
479.98	44.47
480.16	58.51
480.34	91.28
480.52	84.26
480.70	44.47
480.88	79.58
481.06	81.92
481.24	63.19
481.41	102.98
481.59	44.47
481.77	112.35
481.95	102.98
482.13	102.98
482.31	70.22
482.49	84.26
482.67	70.22
482.85	67.88
483.03	56.17
483.21	107.66
483.39	23.41
483.57	58.51
483.74	28.09
483.92	23.41
484.10	30.43
484.28	102.98
484.46	107.66
484.64	74.90
484.82	84.26
485.00	110.01
485.18	23.41
485.35	93.62
485.53	51.49
485.71	21.06
485.89	93.62
486.07	53.83
486.25	86.60
486.43	138.09
486.61	110.01
486.78	102.98
486.96	2.34
487.14	114.69
487.32	63.19
487.50	18.72
487.68	121.71
487.85	58.51
488.03	2.34
488.21	77.24
488.39	63.19
488.57	46.81
488.75	23.41
488.92	63.19
489.10	32.77
489.28	72.56
489.46	0.00
489.64	37.45
489.81	77.24
489.99	63.19
490.17	63.19
490.35	114.69
490.53	117.03
490.70	53.83
490.88	23.41
491.06	65.54
491.24	49.15
491.41	98.30
491.59	114.69
491.77	102.98
491.95	67.88
492.13	56.17
492.30	25.75
492.48	46.81
492.66	74.90
492.84	124.05
493.01	119.37
493.19	86.60
493.37	138.09
493.54	86.60
493.72	131.07
493.90	88.94
494.08	86.60
494.25	102.98
494.43	28.09
494.61	60.85
494.79	102.98
494.96	119.37
495.14	56.17
495.32	23.41
495.49	51.49
495.67	88.94
495.85	77.24
496.02	121.71
496.20	84.26
496.38	21.06
496.55	70.22
496.73	18.72
496.91	23.41
497.09	74.90
497.26	117.03
497.44	77.24
497.62	49.15
497.79	81.92
497.97	65.54
498.14	53.83
498.32	95.96
498.50	60.85
498.67	126.39
498.85	135.75
499.03	156.82
499.20	72.56
499.38	86.60
499.56	21.06
499.73	95.96
499.91	32.77
500.08	21.06
500.26	11.70
500.44	88.94
500.61	9.36
500.79	60.85
500.97	63.19
501.14	91.28
501.32	91.28
501.49	58.51
501.67	88.94
501.84	93.62
502.02	23.41
502.20	16.38
502.37	53.83
502.55	81.92
502.72	88.94
502.90	110.01
503.07	88.94
503.25	107.66
503.43	124.05
503.60	84.26
503.78	25.75
503.95	88.94
504.13	21.06
504.30	49.15
504.48	102.98
504.65	95.96
504.83	49.15
505.01	51.49
505.18	23.41
505.36	81.92
505.53	88.94
505.71	65.54
505.88	51.49
506.06	0.00
506.23	39.79
506.41	56.17
506.58	56.17
506.76	21.06
506.93	70.22
507.11	81.92
507.28	110.01
507.46	86.60
507.63	53.83
507.81	70.22
507.98	79.58
508.16	107.66
508.33	100.64
508.50	63.19
508.68	56.17
508.85	114.69
509.03	84.26
509.20	65.54
509.38	149.79
509.55	91.28
509.73	105.32
509.90	56.17
510.08	67.88
510.25	58.51
510.42	84.26
510.60	4.68
510.77	79.58
510.95	56.17
511.12	95.96
511.30	70.22
511.47	126.39
511.64	117.03
511.82	46.81
511.99	117.03
512.17	110.01
512.34	93.62
512.51	39.79
512.69	67.88
512.86	70.22
513.04	105.32
513.21	93.62
513.38	93.62
513.56	91.28
513.73	95.96
513.90	67.88
514.08	67.88
514.25	51.49
514.43	21.06
514.60	149.79
514.77	74.90
514.95	74.90
515.12	140.43
515.29	91.28
515.47	102.98
515.64	60.85
515.81	138.09
515.99	25.75
516.16	74.90
516.33	35.11
516.51	112.35
516.68	11.70
516.85	35.11
517.03	72.56
517.20	53.83
517.37	102.98
517.54	100.64
517.72	133.41
517.89	35.11
518.06	39.79
518.24	72.56
518.41	112.35
518.58	93.62
518.75	46.81
518.93	86.60
519.10	93.62
519.27	79.58
519.45	65.54
519.62	112.35
519.79	95.96
519.96	65.54
520.14	93.62
520.31	131.07
520.48	65.54
520.65	156.82
520.83	37.45
521.00	53.83
521.17	63.19
521.34	117.03
521.52	149.79
521.69	110.01
521.86	56.17
522.03	70.22
522.20	88.94
522.38	46.81
522.55	60.85
522.72	93.62
522.89	95.96
523.07	86.60
523.24	121.71
523.41	35.11
523.58	23.41
523.75	107.66
523.92	23.41
524.10	60.85
524.27	60.85
524.44	65.54
524.61	46.81
524.78	72.56
524.96	42.13
525.13	133.41
525.30	39.79
525.47	46.81
525.64	126.39
525.81	102.98
525.98	124.05
526.16	67.88
526.33	72.56
526.50	119.37
526.67	86.60
526.84	16.38
527.01	67.88
527.18	72.56
527.36	46.81
527.53	121.71
527.70	63.19
527.87	74.90
528.04	140.43
528.21	74.90
528.38	77.24
528.55	93.62
528.72	107.66
528.89	93.62
529.07	161.50
529.24	112.35
529.41	105.32
529.58	152.13
529.75	105.32
529.92	32.77
530.09	51.49
530.26	102.98
530.43	93.62
530.60	107.66
530.77	117.03
530.94	135.75
531.11	0.00
531.28	53.83
531.46	51.49
531.63	39.79
531.80	79.58
531.97	156.82
532.14	14.04
532.31	100.64
532.48	0.00
532.65	37.45
532.82	77.24
532.99	112.35
533.16	119.37
533.33	147.45
533.50	63.19
533.67	63.19
533.84	32.77
534.01	91.28
534.18	86.60
534.35	79.58
534.52	119.37
534.69	110.01
534.86	28.09
535.03	67.88
535.20	79.58
535.37	100.64
535.54	102.98
535.71	32.77
535.88	182.56
536.05	46.81
536.22	11.70
536.38	93.62
536.55	58.51
536.72	91.28
536.89	21.06
537.06	49.15
537.23	58.51
537.40	184.90
537.57	70.22
537.74	72.56
537.91	138.09
538.08	84.26
538.25	30.43
538.42	70.22
538.59	65.54
538.75	163.84
538.92	79.58
539.09	84.26
539.26	81.92
539.43	91.28
539.60	72.56
539.77	63.19
539.94	88.94
540.11	70.22
540.28	65.54
540.44	51.49
540.61	14.04
540.78	98.30
540.95	67.88
541.12	51.49
541.29	23.41
541.46	124.05
541.62	72.56
541.79	126.39
541.96	14.04
542.13	72.56
542.30	86.60
542.47	107.66
542.63	79.58
542.80	58.51
542.97	60.85
543.14	21.06
543.31	126.39
543.48	95.96
543.64	56.17
543.81	77.24
543.98	138.09
544.15	126.39
544.32	131.07
544.48	128.73
544.65	0.00
544.82	65.54
544.99	105.32
545.16	65.54
545.32	91.28
545.49	98.30
545.66	79.58
545.83	65.54
546.00	156.82
546.16	84.26
546.33	93.62
546.50	138.09
546.67	156.82
546.83	35.11
547.00	117.03
547.17	91.28
547.34	145.11
547.50	56.17
547.67	93.62
547.84	77.24
548.00	30.43
548.17	126.39
548.34	25.75
548.51	138.09
548.67	63.19
548.84	60.85
549.01	107.66
549.18	149.79
549.34	77.24
549.51	51.49
549.68	81.92
549.84	133.41
550.01	44.47
550.18	168.52
550.34	86.60
550.51	112.35
550.68	126.39
550.84	56.17
551.01	110.01
551.18	126.39
551.34	4.68
551.51	95.96
551.68	86.60
551.84	119.37
552.01	86.60
552.18	65.54
552.34	65.54
552.51	84.26
552.68	135.75
552.84	84.26
553.01	65.54
553.18	102.98
553.34	112.35
553.51	91.28
553.67	0.00
553.84	58.51
554.01	91.28
554.17	100.64
554.34	49.15
554.51	84.26
554.67	121.71
554.84	60.85
555.00	67.88
555.17	9.36
555.33	63.19
555.50	42.13
555.67	105.32
555.83	84.26
556.00	70.22
556.16	30.43
556.33	107.66
556.50	70.22
556.66	21.06
556.83	163.84
556.99	46.81
557.16	51.49
557.32	105.32
557.49	39.79
557.65	95.96
557.82	72.56
557.98	95.96
558.15	117.03
558.32	110.01
558.48	91.28
558.65	65.54
558.81	100.64
558.98	128.73
559.14	11.70
559.31	49.15
559.47	67.88
559.64	131.07
559.80	112.35
559.97	170.86
560.13	79.58
560.30	84.26
560.46	119.37
560.63	159.16
560.79	81.92
560.96	4.68
561.12	0.00
561.29	53.83
561.45	58.51
561.61	119.37
561.78	88.94
561.94	65.54
562.11	102.98
562.27	72.56
562.44	88.94
562.60	121.71
562.77	65.54
562.93	46.81
563.10	53.83
563.26	112.35
563.42	88.94
563.59	70.22
563.75	95.96
563.92	131.07
564.08	91.28
564.24	88.94
564.41	28.09
564.57	107.66
564.74	46.81
564.90	53.83
565.07	107.66
565.23	124.05
565.39	53.83
565.56	72.56
565.72	114.69
565.88	95.96
566.05	102.98
566.21	42.13
566.38	88.94
566.54	51.49
566.70	81.92
566.87	112.35
567.03	100.64
567.19	46.81
567.36	49.15
567.52	86.60
567.68	107.66
567.85	102.98
568.01	70.22
568.17	88.94
568.34	65.54
568.50	88.94
568.66	86.60
568.83	51.49
568.99	65.54
569.15	112.35
569.32	32.77
569.48	0.00
569.64	77.24
569.81	46.81
569.97	81.92
570.13	0.00
570.30	67.88
570.46	42.13
570.62	142.77
570.78	58.51
570.95	102.98
571.11	88.94
571.27	53.83
571.43	65.54
571.60	124.05
571.76	58.51
571.92	100.64
572.09	0.00
572.25	79.58
572.41	95.96
572.57	77.24
572.74	86.60
572.90	84.26
573.06	32.77
573.22	70.22
573.38	95.96
573.55	35.11
573.71	49.15
573.87	77.24
574.03	124.05
574.20	114.69
574.36	110.01
574.52	60.85
574.68	114.69
574.84	2.34
575.01	56.17
575.17	102.98
575.33	77.24
575.49	95.96
575.65	147.45
575.82	39.79
575.98	46.81
576.14	98.30
576.30	152.13
576.46	35.11
576.62	72.56
576.79	37.45
576.95	16.38
577.11	98.30
577.27	44.47
577.43	46.81
577.59	58.51
577.75	70.22
577.92	110.01
578.08	133.41
578.24	72.56
578.40	107.66
578.56	49.15
578.72	46.81
578.88	86.60
579.04	93.62
579.21	28.09
579.37	72.56
579.53	49.15
579.69	88.94
579.85	88.94
580.01	135.75
580.17	39.79
580.33	39.79
580.49	72.56
580.65	100.64
580.82	77.24
580.98	86.60
581.14	70.22
581.30	25.75
581.46	72.56
581.62	42.13
581.78	42.13
581.94	51.49
582.10	67.88
582.26	95.96
582.42	21.06
582.58	53.83
582.74	100.64
582.90	140.43
583.06	105.32
583.22	77.24
583.38	88.94
583.54	77.24
583.70	102.98
583.86	56.17
584.02	86.60
584.18	121.71
584.34	16.38
584.50	65.54
584.66	133.41
584.82	63.19
584.98	107.66
585.14	74.90
585.30	119.37
585.46	142.77
585.62	86.60
585.78	147.45
585.94	95.96
586.10	140.43
586.26	135.75
586.42	100.64
586.58	114.69
586.74	21.06
586.90	93.62
587.06	49.15
587.22	105.32
587.38	51.49
587.54	121.71
587.70	114.69
587.86	117.03
588.02	67.88
588.18	114.69
588.34	105.32
588.49	51.49
588.65	30.43
588.81	60.85
588.97	147.45
589.13	107.66
589.29	142.77
589.45	107.66
589.61	28.09
589.77	107.66
589.93	74.90
590.08	39.79
590.24	102.98
590.40	98.30
590.56	30.43
590.72	67.88
590.88	49.15
591.04	86.60
591.20	39.79
591.35	58.51
591.51	7.02
591.67	44.47
591.83	7.02
591.99	56.17
592.15	72.56
592.31	156.82
592.46	56.17
592.62	140.43
592.78	119.37
592.94	77.24
593.10	145.11
593.26	77.24
593.41	32.77
593.57	63.19
593.73	23.41
593.89	46.81
594.05	67.88
594.20	42.13
594.36	2.34
594.52	91.28
594.68	93.62
594.84	35.11
594.99	81.92
595.15	56.17
595.31	14.04
595.47	88.94
595.62	32.77
595.78	56.17
595.94	49.15
596.10	72.56
596.25	70.22
596.41	91.28
596.57	84.26
596.73	79.58
596.88	149.79
597.04	42.13
597.20	60.85
597.36	74.90
597.51	72.56
597.67	0.00
597.83	51.49
597.99	79.58
598.14	39.79
598.30	91.28
598.46	58.51
598.61	166.18
598.77	102.98
598.93	67.88
599.09	79.58
599.24	86.60
599.40	58.51
599.56	65.54
599.71	124.05
599.87	74.90
600.03	30.43
600.18	79.58
600.34	124.05
600.50	74.90
600.65	138.09
600.81	91.28
600.97	67.88
601.12	81.92
601.28	77.24
601.44	32.77
601.59	56.17
601.75	18.72
601.91	23.41
602.06	91.28
602.22	100.64
602.37	44.47
602.53	102.98
602.69	56.17
602.84	93.62
603.00	30.43
603.16	7.02
603.31	98.30
603.47	84.26
603.62	131.07
603.78	124.05
603.94	63.19
604.09	86.60
604.25	88.94
604.40	74.90
604.56	58.51
604.71	53.83
604.87	58.51
605.03	67.88
605.18	0.00
605.34	0.00
605.49	53.83
605.65	79.58
605.80	131.07
605.96	65.54
606.12	32.77
606.27	39.79
606.43	35.11
606.58	77.24
606.74	93.62
606.89	28.09
607.05	7.02
607.20	114.69
607.36	65.54
607.51	23.41
607.67	81.92
607.82	63.19
607.98	70.22
608.13	107.66
608.29	67.88
608.44	35.11
608.60	107.66
608.75	14.04
608.91	30.43
609.06	91.28
609.22	77.24
609.37	84.26
609.53	88.94
609.68	117.03
609.84	114.69
609.99	88.94
610.15	28.09
610.30	58.51
610.46	74.90
610.61	79.58
610.76	65.54
610.92	121.71
611.07	60.85
611.23	117.03
611.38	42.13
611.54	149.79
611.69	72.56
611.84	84.26
612.00	100.64
612.15	53.83
612.31	44.47
612.46	131.07
612.62	44.47
612.77	16.38
612.92	117.03
613.08	86.60
613.23	0.00
613.39	79.58
613.54	35.11
613.69	14.04
613.85	37.45
614.00	21.06
614.15	0.00
614.31	44.47
614.46	60.85
614.62	72.56
614.77	152.13
614.92	56.17
615.08	49.15
615.23	67.88
615.38	135.75
615.54	102.98
615.69	72.56
615.84	56.17
616.00	53.83
616.15	39.79
616.30	37.45
616.46	88.94
616.61	49.15
616.76	77.24
616.92	119.37
617.07	100.64
617.22	105.32
617.37	56.17
617.53	88.94
617.68	67.88
617.83	124.05
617.99	56.17
618.14	51.49
618.29	16.38
618.45	32.77
618.60	30.43
618.75	95.96
618.90	88.94
619.06	65.54
619.21	114.69
619.36	60.85
619.51	105.32
619.67	74.90
619.82	42.13
619.97	0.00
620.12	4.68
620.28	65.54
620.43	84.26
620.58	46.81
620.73	91.28
620.89	159.16
621.04	112.35
621.19	0.00
621.34	39.79
621.49	147.45
621.65	84.26
621.80	49.15
621.95	63.19
622.10	124.05
622.25	65.54
622.41	110.01
622.56	42.13
622.71	67.88
622.86	65.54
623.01	14.04
623.16	25.75
623.32	53.83
623.47	23.41
623.62	105.32
623.77	114.69
623.92	121.71
624.07	23.41
624.23	37.45
624.38	95.96
624.53	63.19
624.68	81.92
624.83	110.01
624.98	114.69
625.13	112.35
625.29	37.45
625.44	0.00
625.59	105.32
625.74	70.22
625.89	65.54
626.04	49.15
626.19	88.94
626.34	79.58
626.49	44.47
626.65	0.00
626.80	105.32
626.95	81.92
627.10	16.38
627.25	77.24
627.40	86.60
627.55	70.22
627.70	37.45
627.85	4.68
628.00	21.06
628.15	95.96
628.30	0.00
628.45	23.41
628.60	7.02
628.76	95.96
628.91	25.75
629.06	77.24
629.21	16.38
629.36	110.01
629.51	49.15
629.66	11.70
629.81	37.45
629.96	79.58
630.11	53.83
630.26	11.70
630.41	49.15
630.56	18.72
630.71	16.38
630.86	65.54
631.01	0.00
631.16	105.32
631.31	86.60
631.46	63.19
631.61	0.00
631.76	72.56
631.91	21.06
632.06	67.88
632.21	67.88
632.36	58.51
632.51	67.88
632.66	21.06
632.81	51.49
632.96	110.01
633.10	18.72
633.25	7.02
633.40	35.11
633.55	67.88
633.70	77.24
633.85	53.83
634.00	18.72
634.15	0.00
634.30	42.13
634.45	25.75
634.60	98.30
634.75	98.30
634.90	25.75
635.05	51.49
635.19	140.43
635.34	93.62
635.49	58.51
635.64	42.13
635.79	42.13
635.94	21.06
636.09	72.56
636.24	42.13
636.39	7.02
636.53	58.51
636.68	7.02
636.83	119.37
636.98	131.07
637.13	7.02
637.28	91.28
637.43	88.94
637.57	14.04
637.72	0.00
637.87	159.16
638.02	86.60
638.17	25.75
638.32	32.77
638.46	65.54
638.61	63.19
638.76	56.17
638.91	77.24
639.06	84.26
639.20	70.22
639.35	74.90
639.50	74.90
639.65	53.83
639.80	100.64
639.94	72.56
640.09	23.41
640.24	42.13
640.39	0.00
640.54	37.45
640.68	21.06
640.83	9.36
640.98	98.30
641.13	135.75
641.27	91.28
641.42	7.02
641.57	44.47
641.72	0.00
641.86	58.51
642.01	21.06
642.16	25.75
642.31	35.11
642.45	51.49
642.60	44.47
642.75	25.75
642.90	42.13
643.04	95.96
643.19	46.81
643.34	58.51
643.48	65.54
643.63	18.72
643.78	107.66
643.93	98.30
644.07	86.60
644.22	93.62
644.37	93.62
644.51	32.77
644.66	0.00
644.81	0.00
644.95	63.19
645.10	95.96
645.25	88.94
645.39	49.15
645.54	4.68
645.69	11.70
645.83	91.28
645.98	44.47
646.13	11.70
646.27	51.49
646.42	25.75
646.57	9.36
646.71	124.05
646.86	84.26
647.00	35.11
647.15	44.47
647.30	110.01
647.44	72.56
647.59	126.39
647.74	58.51
647.88	107.66
648.03	88.94
648.17	86.60
648.32	21.06
648.47	39.79
648.61	25.75
648.76	18.72
648.90	23.41
649.05	32.77
649.20	0.00
649.34	0.00
649.49	42.13
649.63	7.02
649.78	79.58
649.92	14.04
650.07	112.35
650.21	100.64
650.36	46.81
650.51	32.77
650.65	86.60
650.80	37.45
650.94	35.11
651.09	86.60
651.23	84.26
651.38	81.92
651.52	32.77
651.67	131.07
651.81	46.81
651.96	84.26
652.10	53.83
652.25	28.09
652.39	60.85
652.54	42.13
652.68	16.38
652.83	58.51
652.97	18.72
653.12	16.38
653.26	72.56
653.41	65.54
653.55	39.79
653.70	67.88
653.84	112.35
653.99	53.83
654.13	32.77
654.27	46.81
654.42	65.54
654.56	11.70
654.71	98.30
654.85	0.00
655.00	65.54
655.14	46.81
655.29	53.83
655.43	51.49
655.57	67.88
655.72	0.00
655.86	79.58
656.01	51.49
656.15	72.56
656.30	0.00
656.44	0.00
656.58	30.43
656.73	67.88
656.87	25.75
657.01	39.79
657.16	35.11
657.30	28.09
657.45	95.96
657.59	25.75
657.73	4.68
657.88	51.49
658.02	16.38
658.16	39.79
658.31	84.26
658.45	74.90
658.60	32.77
658.74	18.72
658.88	42.13
659.03	93.62
659.17	2.34
659.31	25.75
659.46	88.94
659.60	67.88
659.74	53.83
659.89	9.36
660.03	39.79
660.17	21.06
660.32	124.05
660.46	14.04
660.60	86.60
660.74	119.37
660.89	81.92
661.03	142.77
661.17	0.00
661.32	53.83
661.46	23.41
661.60	4.68
661.74	0.00
661.89	37.45
662.03	72.56
662.17	98.30
662.31	28.09
662.46	140.43
662.60	16.38
662.74	98.30
662.88	44.47
663.03	56.17
663.17	79.58
663.31	18.72
663.45	42.13
663.60	37.45
663.74	23.41
663.88	39.79
664.02	28.09
664.17	35.11
664.31	77.24
664.45	25.75
664.59	74.90
664.73	51.49
664.88	81.92
665.02	11.70
665.16	4.68
665.30	0.00
665.44	95.96
665.59	95.96
665.73	42.13
665.87	65.54
666.01	0.00
666.15	138.09
666.29	77.24
666.44	93.62
666.58	163.84
666.72	133.41
666.86	84.26
667.00	42.13
667.14	30.43
667.28	37.45
667.43	56.17
667.57	25.75
667.71	128.73
667.85	74.90
667.99	102.98
668.13	0.00
668.27	56.17
668.41	39.79
668.56	63.19
668.70	105.32
668.84	39.79
668.98	124.05
669.12	67.88
669.26	0.00
669.40	81.92
669.54	39.79
669.68	81.92
669.82	35.11
669.96	39.79
670.10	35.11
670.25	0.00
670.39	79.58
670.53	60.85
670.67	2.34
670.81	2.34
670.95	37.45
671.09	0.00
671.23	46.81
671.37	88.94
671.51	128.73
671.65	44.47
671.79	58.51
671.93	42.13
672.07	0.00
672.21	37.45
672.35	67.88
672.49	0.00
672.63	0.00
672.77	0.00
672.91	63.19
673.05	70.22
673.19	131.07
673.33	51.49
673.47	46.81
673.61	32.77
673.75	98.30
673.89	9.36
674.03	32.77
674.17	49.15
674.31	63.19
674.45	28.09
674.59	114.69
674.73	63.19
674.87	53.83
675.01	98.30
675.15	91.28
675.29	105.32
675.43	11.70
675.56	60.85
675.70	30.43
675.84	35.11
675.98	138.09
676.12	21.06
676.26	91.28
676.40	42.13
676.54	16.38
676.68	53.83
676.82	25.75
676.96	0.00
677.10	0.00
677.23	60.85
677.37	14.04
677.51	14.04
677.65	23.41
677.79	18.72
677.93	30.43
678.07	37.45
678.21	32.77
678.34	58.51
678.48	86.60
678.62	35.11
678.76	35.11
678.90	18.72
679.04	42.13
679.18	53.83
679.31	88.94
679.45	2.34
679.59	2.34
679.73	21.06
679.87	18.72
680.00	60.85
680.14	30.43
680.28	28.09
680.42	37.45
680.56	21.06
680.70	84.26
680.83	7.02
680.97	18.72
681.11	32.77
681.25	112.35
681.39	46.81
681.52	37.45
681.66	30.43
681.80	58.51
681.94	63.19
682.07	0.00
682.21	86.60
682.35	72.56
682.49	102.98
682.62	39.79
682.76	28.09
682.90	9.36
683.04	28.09
683.17	65.54
683.31	63.19
683.45	4.68
683.59	81.92
683.72	0.00
683.86	2.34
684.00	18.72
684.13	53.83
684.27	35.11
684.41	67.88
684.55	35.11
684.68	28.09
684.82	39.79
684.96	0.00
685.09	0.00
685.23	37.45
685.37	14.04
685.50	77.24
685.64	65.54
685.78	86.60
685.91	46.81
686.05	91.28
686.19	14.04
686.32	0.00
686.46	100.64
686.60	77.24
686.73	0.00
686.87	16.38
687.01	0.00
687.14	14.04
687.28	0.00
687.42	0.00
687.55	32.77
687.69	30.43
687.82	58.51
687.96	0.00
688.10	100.64
688.23	42.13
688.37	60.85
688.50	32.77
688.64	9.36
688.78	18.72
688.91	30.43
689.05	32.77
689.18	0.00
689.32	0.00
689.46	84.26
689.59	44.47
689.73	58.51
689.86	58.51
690.00	39.79
690.13	51.49
690.27	121.71
690.41	7.02
690.54	56.17
690.68	2.34
690.81	16.38
690.95	72.56
691.08	105.32
691.22	79.58
691.35	44.47
691.49	84.26
691.62	30.43
691.76	46.81
691.89	16.38
692.03	32.77
692.16	0.00
692.30	0.00
692.43	46.81
692.57	7.02
692.70	0.00
692.84	49.15
692.97	72.56
693.11	44.47
693.24	0.00
693.38	7.02
693.51	74.90
693.65	58.51
693.78	70.22
693.92	37.45
694.05	0.00
694.19	72.56
694.32	86.60
694.45	37.45
694.59	114.69
694.72	11.70
694.86	4.68
694.99	44.47
695.13	42.13
695.26	51.49
695.39	74.90
695.53	14.04
695.66	11.70
695.80	7.02
695.93	4.68
696.07	98.30
696.20	49.15
696.33	28.09
696.47	91.28
696.60	7.02
696.73	84.26
696.87	37.45
697.00	77.24
697.14	0.00
697.27	35.11
697.40	51.49
697.54	49.15
697.67	0.00
697.80	7.02
697.94	35.11
698.07	0.00
698.21	28.09
698.34	9.36
698.47	14.04
698.61	98.30
698.74	70.22
698.87	0.00
699.01	2.34
699.14	21.06
699.27	49.15
699.40	30.43
699.54	56.17
699.67	14.04
699.80	44.47
699.94	30.43
700.07	16.38
700.20	53.83
700.34	49.15
700.47	0.00
700.60	42.13
700.73	14.04
700.87	0.00
701.00	21.06
701.13	16.38
701.26	46.81
701.40	16.38
701.53	23.41
701.66	18.72
701.79	72.56
701.93	126.39
702.06	46.81
702.19	0.00
702.32	0.00
702.46	25.75
702.59	37.45
702.72	65.54
702.85	18.72
702.99	117.03
703.12	0.00
703.25	14.04
703.38	74.90
703.51	0.00
703.65	67.88
703.78	35.11
703.91	30.43
704.04	100.64
704.17	32.77
704.31	0.00
704.44	46.81
704.57	39.79
704.70	77.24
704.83	65.54
704.96	74.90
705.10	37.45
705.23	0.00
>>>>>End Processed Spectral Data<<<<<
