SpectraSuite Data File
++++++++++++++++++++++++++++++++++++
Date: Fri Oct 04 12:13:29 GMT-05:00 2013
User: price-jones
Dark Spectrum Present: No
Reference Spectrum Present: No
Number of Sampled Component Spectra: 1
Spectrometers: USB2+H05261
Integration Time (usec): 10000 (USB2+H05261)
Spectra Averaged: 1 (USB2+H05261)
Boxcar Smoothing: 0 (USB2+H05261)
Correct for Electrical Dark: No (USB2+H05261)
Strobe/Lamp Enabled: No (USB2+H05261)
Correct for Detector Non-linearity: No (USB2+H05261)
Correct for Stray Light: No (USB2+H05261)
Number of Pixels in Processed Spectrum: 2048
>>>>>Begin Processed Spectral Data<<<<<
365.73	0.00
365.92	0.00
366.12	0.00
366.32	0.00
366.52	0.00
366.72	0.00
366.91	0.00
367.11	0.00
367.31	0.00
367.51	0.00
367.70	0.00
367.90	0.00
368.10	0.00
368.30	0.00
368.49	0.00
368.69	0.00
368.89	0.00
369.09	0.00
369.28	0.00
369.48	0.00
369.68	0.00
369.87	0.00
370.07	0.00
370.27	0.00
370.47	0.00
370.66	0.00
370.86	0.00
371.06	0.00
371.25	16.38
371.45	42.13
371.65	0.00
371.84	44.47
372.04	7.02
372.24	0.00
372.44	35.11
372.63	0.00
372.83	98.30
373.03	23.41
373.22	39.79
373.42	49.15
373.62	42.13
373.81	21.06
374.01	0.00
374.21	21.06
374.40	84.26
374.60	42.13
374.79	74.90
374.99	37.45
375.19	84.26
375.38	77.24
375.58	79.58
375.78	0.00
375.97	18.72
376.17	67.88
376.37	72.56
376.56	0.00
376.76	0.00
376.95	42.13
377.15	32.77
377.35	0.00
377.54	30.43
377.74	0.00
377.93	39.79
378.13	0.00
378.33	0.00
378.52	79.58
378.72	0.00
378.91	28.09
379.11	2.34
379.31	0.00
379.50	49.15
379.70	30.43
379.89	4.68
380.09	0.00
380.28	124.05
380.48	4.68
380.68	11.70
380.87	0.00
381.07	0.00
381.26	0.00
381.46	53.83
381.65	0.00
381.85	16.38
382.04	0.00
382.24	81.92
382.43	32.77
382.63	0.00
382.83	14.04
383.02	65.54
383.22	0.00
383.41	21.06
383.61	51.49
383.80	9.36
384.00	93.62
384.19	32.77
384.39	44.47
384.58	56.17
384.78	46.81
384.97	0.00
385.17	32.77
385.36	58.51
385.56	102.98
385.75	44.47
385.95	9.36
386.14	93.62
386.34	46.81
386.53	11.70
386.72	42.13
386.92	53.83
387.11	9.36
387.31	28.09
387.50	65.54
387.70	0.00
387.89	0.00
388.09	0.00
388.28	0.00
388.48	21.06
388.67	16.38
388.86	65.54
389.06	0.00
389.25	0.00
389.45	14.04
389.64	18.72
389.84	42.13
390.03	0.00
390.22	44.47
390.42	0.00
390.61	44.47
390.81	49.15
391.00	44.47
391.19	32.77
391.39	25.75
391.58	21.06
391.78	0.00
391.97	60.85
392.16	2.34
392.36	86.60
392.55	91.28
392.75	74.90
392.94	0.00
393.13	0.00
393.33	49.15
393.52	0.00
393.71	32.77
393.91	0.00
394.10	2.34
394.29	2.34
394.49	0.00
394.68	4.68
394.88	67.88
395.07	67.88
395.26	25.75
395.46	0.00
395.65	0.00
395.84	0.00
396.04	18.72
396.23	28.09
396.42	30.43
396.62	18.72
396.81	0.00
397.00	46.81
397.19	0.00
397.39	23.41
397.58	0.00
397.77	53.83
397.97	23.41
398.16	0.00
398.35	60.85
398.55	67.88
398.74	39.79
398.93	7.02
399.12	42.13
399.32	2.34
399.51	4.68
399.70	0.00
399.90	0.00
400.09	53.83
400.28	0.00
400.47	65.54
400.67	0.00
400.86	42.13
401.05	49.15
401.24	0.00
401.44	18.72
401.63	7.02
401.82	84.26
402.01	32.77
402.21	70.22
402.40	67.88
402.59	32.77
402.78	98.30
402.97	65.54
403.17	28.09
403.36	9.36
403.55	42.13
403.74	0.00
403.93	14.04
404.13	0.00
404.32	32.77
404.51	21.06
404.70	63.19
404.89	0.00
405.09	0.00
405.28	65.54
405.47	0.00
405.66	0.00
405.85	0.00
406.05	0.00
406.24	28.09
406.43	0.00
406.62	0.00
406.81	0.00
407.00	44.47
407.20	32.77
407.39	102.98
407.58	44.47
407.77	7.02
407.96	16.38
408.15	18.72
408.34	0.00
408.54	0.00
408.73	77.24
408.92	11.70
409.11	65.54
409.30	11.70
409.49	42.13
409.68	0.00
409.87	58.51
410.07	44.47
410.26	25.75
410.45	35.11
410.64	0.00
410.83	0.00
411.02	2.34
411.21	53.83
411.40	21.06
411.59	4.68
411.78	0.00
411.98	4.68
412.17	56.17
412.36	0.00
412.55	0.00
412.74	0.00
412.93	84.26
413.12	0.00
413.31	25.75
413.50	16.38
413.69	93.62
413.88	30.43
414.07	46.81
414.26	0.00
414.45	131.07
414.64	81.92
414.83	11.70
415.02	0.00
415.22	81.92
415.41	14.04
415.60	14.04
415.79	0.00
415.98	0.00
416.17	9.36
416.36	77.24
416.55	42.13
416.74	0.00
416.93	37.45
417.12	28.09
417.31	42.13
417.50	0.00
417.69	37.45
417.88	16.38
418.07	0.00
418.26	30.43
418.45	30.43
418.64	25.75
418.83	30.43
419.02	51.49
419.21	46.81
419.39	42.13
419.58	60.85
419.77	23.41
419.96	51.49
420.15	30.43
420.34	32.77
420.53	67.88
420.72	58.51
420.91	35.11
421.10	51.49
421.29	39.79
421.48	4.68
421.67	0.00
421.86	32.77
422.05	37.45
422.24	79.58
422.43	51.49
422.61	30.43
422.80	21.06
422.99	0.00
423.18	21.06
423.37	74.90
423.56	4.68
423.75	60.85
423.94	42.13
424.13	100.64
424.32	58.51
424.50	63.19
424.69	9.36
424.88	16.38
425.07	23.41
425.26	14.04
425.45	23.41
425.64	9.36
425.83	23.41
426.01	65.54
426.20	39.79
426.39	53.83
426.58	0.00
426.77	0.00
426.96	30.43
427.15	18.72
427.33	30.43
427.52	4.68
427.71	14.04
427.90	86.60
428.09	58.51
428.28	0.00
428.46	72.56
428.65	0.00
428.84	9.36
429.03	124.05
429.22	93.62
429.40	0.00
429.59	0.00
429.78	2.34
429.97	0.00
430.16	49.15
430.34	42.13
430.53	46.81
430.72	39.79
430.91	42.13
431.10	53.83
431.28	0.00
431.47	7.02
431.66	0.00
431.85	70.22
432.03	46.81
432.22	7.02
432.41	28.09
432.60	0.00
432.79	39.79
432.97	4.68
433.16	25.75
433.35	4.68
433.54	0.00
433.72	49.15
433.91	46.81
434.10	74.90
434.28	28.09
434.47	0.00
434.66	28.09
434.85	0.00
435.03	4.68
435.22	9.36
435.41	18.72
435.59	7.02
435.78	0.00
435.97	32.77
436.16	49.15
436.34	0.00
436.53	0.00
436.72	0.00
436.90	23.41
437.09	88.94
437.28	0.00
437.46	46.81
437.65	46.81
437.84	0.00
438.02	32.77
438.21	60.85
438.40	46.81
438.58	0.00
438.77	86.60
438.96	86.60
439.14	0.00
439.33	114.69
439.52	39.79
439.70	119.37
439.89	0.00
440.08	35.11
440.26	51.49
440.45	0.00
440.63	23.41
440.82	51.49
441.01	67.88
441.19	2.34
441.38	0.00
441.57	58.51
441.75	0.00
441.94	28.09
442.12	30.43
442.31	58.51
442.50	32.77
442.68	23.41
442.87	9.36
443.05	72.56
443.24	0.00
443.43	25.75
443.61	30.43
443.80	46.81
443.98	81.92
444.17	58.51
444.35	11.70
444.54	53.83
444.73	39.79
444.91	0.00
445.10	25.75
445.28	14.04
445.47	67.88
445.65	42.13
445.84	53.83
446.02	67.88
446.21	0.00
446.39	49.15
446.58	25.75
446.77	7.02
446.95	49.15
447.14	0.00
447.32	0.00
447.51	14.04
447.69	60.85
447.88	0.00
448.06	49.15
448.25	32.77
448.43	7.02
448.62	9.36
448.80	46.81
448.99	9.36
449.17	51.49
449.36	23.41
449.54	86.60
449.73	0.00
449.91	86.60
450.10	0.00
450.28	0.00
450.46	63.19
450.65	0.00
450.83	49.15
451.02	49.15
451.20	30.43
451.39	0.00
451.57	44.47
451.76	0.00
451.94	44.47
452.13	0.00
452.31	42.13
452.49	16.38
452.68	49.15
452.86	0.00
453.05	42.13
453.23	7.02
453.42	84.26
453.60	25.75
453.78	0.00
453.97	0.00
454.15	35.11
454.34	58.51
454.52	16.38
454.70	7.02
454.89	44.47
455.07	53.83
455.26	14.04
455.44	11.70
455.62	23.41
455.81	46.81
455.99	84.26
456.17	49.15
456.36	37.45
456.54	67.88
456.73	93.62
456.91	65.54
457.09	4.68
457.28	0.00
457.46	11.70
457.64	107.66
457.83	51.49
458.01	0.00
458.19	4.68
458.38	0.00
458.56	0.00
458.74	0.00
458.93	0.00
459.11	4.68
459.29	0.00
459.48	16.38
459.66	21.06
459.84	102.98
460.03	65.54
460.21	0.00
460.39	84.26
460.57	25.75
460.76	0.00
460.94	0.00
461.12	18.72
461.31	65.54
461.49	0.00
461.67	98.30
461.85	35.11
462.04	28.09
462.22	58.51
462.40	32.77
462.59	37.45
462.77	0.00
462.95	23.41
463.13	28.09
463.32	0.00
463.50	18.72
463.68	16.38
463.86	0.00
464.05	0.00
464.23	7.02
464.41	16.38
464.59	0.00
464.78	23.41
464.96	32.77
465.14	9.36
465.32	39.79
465.50	60.85
465.69	0.00
465.87	32.77
466.05	9.36
466.23	51.49
466.41	0.00
466.60	0.00
466.78	49.15
466.96	44.47
467.14	44.47
467.32	23.41
467.51	39.79
467.69	11.70
467.87	88.94
468.05	53.83
468.23	51.49
468.41	25.75
468.60	0.00
468.78	0.00
468.96	42.13
469.14	32.77
469.32	0.00
469.50	0.00
469.69	67.88
469.87	0.00
470.05	0.00
470.23	81.92
470.41	100.64
470.59	0.00
470.77	9.36
470.95	84.26
471.14	0.00
471.32	37.45
471.50	37.45
471.68	0.00
471.86	56.17
472.04	0.00
472.22	79.58
472.40	51.49
472.58	42.13
472.77	79.58
472.95	11.70
473.13	0.00
473.31	0.00
473.49	39.79
473.67	16.38
473.85	58.51
474.03	79.58
474.21	0.00
474.39	4.68
474.57	28.09
474.75	35.11
474.93	58.51
475.12	0.00
475.30	28.09
475.48	39.79
475.66	100.64
475.84	46.81
476.02	7.02
476.20	2.34
476.38	93.62
476.56	42.13
476.74	0.00
476.92	28.09
477.10	51.49
477.28	14.04
477.46	65.54
477.64	81.92
477.82	0.00
478.00	21.06
478.18	56.17
478.36	0.00
478.54	9.36
478.72	86.60
478.90	18.72
479.08	58.51
479.26	70.22
479.44	37.45
479.62	18.72
479.80	39.79
479.98	0.00
480.16	70.22
480.34	63.19
480.52	60.85
480.70	77.24
480.88	37.45
481.06	88.94
481.24	21.06
481.41	67.88
481.59	35.11
481.77	7.02
481.95	30.43
482.13	18.72
482.31	0.00
482.49	53.83
482.67	18.72
482.85	32.77
483.03	9.36
483.21	0.00
483.39	32.77
483.57	7.02
483.74	30.43
483.92	25.75
484.10	72.56
484.28	42.13
484.46	25.75
484.64	51.49
484.82	60.85
485.00	16.38
485.18	39.79
485.35	0.00
485.53	49.15
485.71	28.09
485.89	18.72
486.07	67.88
486.25	58.51
486.43	49.15
486.61	37.45
486.78	65.54
486.96	7.02
487.14	37.45
487.32	32.77
487.50	74.90
487.68	25.75
487.85	0.00
488.03	0.00
488.21	84.26
488.39	74.90
488.57	56.17
488.75	0.00
488.92	14.04
489.10	49.15
489.28	100.64
489.46	37.45
489.64	65.54
489.81	72.56
489.99	119.37
490.17	4.68
490.35	77.24
490.53	98.30
490.70	16.38
490.88	25.75
491.06	0.00
491.24	30.43
491.41	18.72
491.59	37.45
491.77	88.94
491.95	67.88
492.13	28.09
492.30	42.13
492.48	9.36
492.66	70.22
492.84	39.79
493.01	7.02
493.19	39.79
493.37	0.00
493.54	70.22
493.72	121.71
493.90	18.72
494.08	72.56
494.25	30.43
494.43	42.13
494.61	11.70
494.79	18.72
494.96	0.00
495.14	72.56
495.32	30.43
495.49	4.68
495.67	18.72
495.85	51.49
496.02	77.24
496.20	39.79
496.38	93.62
496.55	32.77
496.73	49.15
496.91	39.79
497.09	0.00
497.26	4.68
497.44	4.68
497.62	14.04
497.79	60.85
497.97	9.36
498.14	53.83
498.32	42.13
498.50	32.77
498.67	0.00
498.85	93.62
499.03	88.94
499.20	63.19
499.38	140.43
499.56	93.62
499.73	77.24
499.91	25.75
500.08	0.00
500.26	79.58
500.44	79.58
500.61	86.60
500.79	37.45
500.97	53.83
501.14	28.09
501.32	81.92
501.49	53.83
501.67	51.49
501.84	25.75
502.02	74.90
502.20	0.00
502.37	4.68
502.55	37.45
502.72	60.85
502.90	30.43
503.07	100.64
503.25	86.60
503.43	77.24
503.60	28.09
503.78	0.00
503.95	4.68
504.13	25.75
504.30	35.11
504.48	88.94
504.65	16.38
504.83	105.32
505.01	58.51
505.18	0.00
505.36	44.47
505.53	65.54
505.71	84.26
505.88	0.00
506.06	42.13
506.23	14.04
506.41	0.00
506.58	28.09
506.76	21.06
506.93	18.72
507.11	14.04
507.28	53.83
507.46	14.04
507.63	105.32
507.81	21.06
507.98	9.36
508.16	0.00
508.33	7.02
508.50	0.00
508.68	72.56
508.85	49.15
509.03	18.72
509.20	35.11
509.38	0.00
509.55	46.81
509.73	86.60
509.90	81.92
510.08	39.79
510.25	18.72
510.42	37.45
510.60	23.41
510.77	9.36
510.95	42.13
511.12	74.90
511.30	56.17
511.47	65.54
511.64	0.00
511.82	70.22
511.99	86.60
512.17	58.51
512.34	58.51
512.51	0.00
512.69	0.00
512.86	51.49
513.04	0.00
513.21	18.72
513.38	0.00
513.56	58.51
513.73	42.13
513.90	18.72
514.08	18.72
514.25	42.13
514.43	0.00
514.60	0.00
514.77	0.00
514.95	18.72
515.12	32.77
515.29	53.83
515.47	44.47
515.64	63.19
515.81	39.79
515.99	28.09
516.16	79.58
516.33	56.17
516.51	37.45
516.68	21.06
516.85	4.68
517.03	84.26
517.20	86.60
517.37	95.96
517.54	4.68
517.72	128.73
517.89	46.81
518.06	39.79
518.24	63.19
518.41	28.09
518.58	28.09
518.75	72.56
518.93	65.54
519.10	23.41
519.27	100.64
519.45	46.81
519.62	7.02
519.79	46.81
519.96	107.66
520.14	21.06
520.31	2.34
520.48	23.41
520.65	56.17
520.83	95.96
521.00	49.15
521.17	0.00
521.34	70.22
521.52	44.47
521.69	51.49
521.86	56.17
522.03	11.70
522.20	79.58
522.38	0.00
522.55	74.90
522.72	0.00
522.89	56.17
523.07	81.92
523.24	53.83
523.41	72.56
523.58	72.56
523.75	32.77
523.92	86.60
524.10	46.81
524.27	28.09
524.44	0.00
524.61	117.03
524.78	25.75
524.96	74.90
525.13	93.62
525.30	39.79
525.47	51.49
525.64	42.13
525.81	56.17
525.98	63.19
526.16	0.00
526.33	0.00
526.50	93.62
526.67	7.02
526.84	110.01
527.01	72.56
527.18	0.00
527.36	46.81
527.53	0.00
527.70	0.00
527.87	23.41
528.04	91.28
528.21	77.24
528.38	44.47
528.55	42.13
528.72	0.00
528.89	84.26
529.07	88.94
529.24	4.68
529.41	51.49
529.58	138.09
529.75	4.68
529.92	56.17
530.09	74.90
530.26	91.28
530.43	65.54
530.60	28.09
530.77	0.00
530.94	0.00
531.11	128.73
531.28	51.49
531.46	44.47
531.63	4.68
531.80	28.09
531.97	140.43
532.14	0.00
532.31	60.85
532.48	16.38
532.65	32.77
532.82	4.68
532.99	102.98
533.16	0.00
533.33	25.75
533.50	16.38
533.67	53.83
533.84	18.72
534.01	32.77
534.18	0.00
534.35	21.06
534.52	23.41
534.69	2.34
534.86	23.41
535.03	0.00
535.20	37.45
535.37	110.01
535.54	60.85
535.71	0.00
535.88	30.43
536.05	58.51
536.22	53.83
536.38	28.09
536.55	56.17
536.72	0.00
536.89	0.00
537.06	39.79
537.23	0.00
537.40	9.36
537.57	21.06
537.74	58.51
537.91	37.45
538.08	25.75
538.25	51.49
538.42	81.92
538.59	72.56
538.75	58.51
538.92	4.68
539.09	0.00
539.26	0.00
539.43	21.06
539.60	63.19
539.77	44.47
539.94	67.88
540.11	53.83
540.28	67.88
540.44	88.94
540.61	60.85
540.78	77.24
540.95	0.00
541.12	102.98
541.29	44.47
541.46	49.15
541.62	30.43
541.79	0.00
541.96	0.00
542.13	79.58
542.30	46.81
542.47	117.03
542.63	35.11
542.80	14.04
542.97	28.09
543.14	32.77
543.31	70.22
543.48	72.56
543.64	86.60
543.81	21.06
543.98	88.94
544.15	0.00
544.32	30.43
544.48	23.41
544.65	23.41
544.82	81.92
544.99	37.45
545.16	53.83
545.32	14.04
545.49	37.45
545.66	70.22
545.83	112.35
546.00	37.45
546.16	32.77
546.33	63.19
546.50	72.56
546.67	124.05
546.83	49.15
547.00	67.88
547.17	93.62
547.34	53.83
547.50	46.81
547.67	51.49
547.84	9.36
548.00	49.15
548.17	35.11
548.34	0.00
548.51	46.81
548.67	65.54
548.84	11.70
549.01	14.04
549.18	56.17
549.34	81.92
549.51	65.54
549.68	0.00
549.84	30.43
550.01	44.47
550.18	42.13
550.34	0.00
550.51	7.02
550.68	46.81
550.84	25.75
551.01	72.56
551.18	0.00
551.34	44.47
551.51	60.85
551.68	18.72
551.84	81.92
552.01	23.41
552.18	0.00
552.34	21.06
552.51	77.24
552.68	0.00
552.84	11.70
553.01	79.58
553.18	42.13
553.34	4.68
553.51	0.00
553.67	0.00
553.84	84.26
554.01	70.22
554.17	0.00
554.34	35.11
554.51	81.92
554.67	37.45
554.84	74.90
555.00	46.81
555.17	37.45
555.33	0.00
555.50	0.00
555.67	9.36
555.83	0.00
556.00	28.09
556.16	30.43
556.33	32.77
556.50	56.17
556.66	0.00
556.83	39.79
556.99	28.09
557.16	0.00
557.32	65.54
557.49	93.62
557.65	44.47
557.82	0.00
557.98	7.02
558.15	70.22
558.32	39.79
558.48	39.79
558.65	39.79
558.81	0.00
558.98	39.79
559.14	0.00
559.31	0.00
559.47	56.17
559.64	53.83
559.80	42.13
559.97	49.15
560.13	16.38
560.30	63.19
560.46	65.54
560.63	14.04
560.79	46.81
560.96	51.49
561.12	46.81
561.29	16.38
561.45	9.36
561.61	117.03
561.78	0.00
561.94	102.98
562.11	0.00
562.27	0.00
562.44	67.88
562.60	58.51
562.77	0.00
562.93	105.32
563.10	11.70
563.26	30.43
563.42	0.00
563.59	0.00
563.75	56.17
563.92	46.81
564.08	0.00
564.24	65.54
564.41	105.32
564.57	0.00
564.74	44.47
564.90	35.11
565.07	0.00
565.23	21.06
565.39	58.51
565.56	44.47
565.72	23.41
565.88	7.02
566.05	44.47
566.21	121.71
566.38	93.62
566.54	32.77
566.70	81.92
566.87	0.00
567.03	42.13
567.19	46.81
567.36	35.11
567.52	30.43
567.68	37.45
567.85	23.41
568.01	0.00
568.17	42.13
568.34	65.54
568.50	0.00
568.66	25.75
568.83	67.88
568.99	35.11
569.15	72.56
569.32	51.49
569.48	74.90
569.64	51.49
569.81	4.68
569.97	67.88
570.13	0.00
570.30	28.09
570.46	0.00
570.62	79.58
570.78	0.00
570.95	9.36
571.11	0.00
571.27	16.38
571.43	0.00
571.60	21.06
571.76	35.11
571.92	23.41
572.09	30.43
572.25	23.41
572.41	112.35
572.57	79.58
572.74	0.00
572.90	4.68
573.06	74.90
573.22	70.22
573.38	9.36
573.55	49.15
573.71	58.51
573.87	23.41
574.03	14.04
574.20	35.11
574.36	42.13
574.52	42.13
574.68	44.47
574.84	58.51
575.01	16.38
575.17	39.79
575.33	84.26
575.49	21.06
575.65	7.02
575.82	74.90
575.98	4.68
576.14	46.81
576.30	0.00
576.46	25.75
576.62	9.36
576.79	72.56
576.95	56.17
577.11	44.47
577.27	46.81
577.43	23.41
577.59	2.34
577.75	98.30
577.92	0.00
578.08	39.79
578.24	0.00
578.40	72.56
578.56	44.47
578.72	28.09
578.88	46.81
579.04	0.00
579.21	0.00
579.37	23.41
579.53	4.68
579.69	138.09
579.85	16.38
580.01	74.90
580.17	67.88
580.33	79.58
580.49	70.22
580.65	42.13
580.82	117.03
580.98	79.58
581.14	60.85
581.30	51.49
581.46	60.85
581.62	72.56
581.78	39.79
581.94	53.83
582.10	60.85
582.26	93.62
582.42	58.51
582.58	74.90
582.74	65.54
582.90	21.06
583.06	77.24
583.22	0.00
583.38	0.00
583.54	58.51
583.70	74.90
583.86	77.24
584.02	2.34
584.18	49.15
584.34	14.04
584.50	154.48
584.66	858.98
584.82	1605.61
584.98	2214.15
585.14	1980.09
585.30	1291.98
585.46	645.99
585.62	514.92
585.78	278.52
585.94	131.07
586.10	105.32
586.26	35.11
586.42	70.22
586.58	2.34
586.74	42.13
586.90	81.92
587.06	7.02
587.22	7.02
587.38	110.01
587.54	117.03
587.70	152.13
587.86	184.90
588.02	208.31
588.18	215.33
588.34	140.43
588.49	65.54
588.65	65.54
588.81	67.88
588.97	70.22
589.13	91.28
589.29	2.34
589.45	65.54
589.61	74.90
589.77	0.00
589.93	51.49
590.08	44.47
590.24	84.26
590.40	44.47
590.56	91.28
590.72	0.00
590.88	0.00
591.04	138.09
591.20	63.19
591.35	46.81
591.51	100.64
591.67	98.30
591.83	18.72
591.99	51.49
592.15	51.49
592.31	11.70
592.46	0.00
592.62	42.13
592.78	79.58
592.94	51.49
593.10	0.00
593.26	65.54
593.41	56.17
593.57	72.56
593.73	21.06
593.89	168.52
594.05	273.84
594.20	341.72
594.36	337.04
594.52	210.65
594.68	163.84
594.84	145.11
594.99	46.81
595.15	42.13
595.31	91.28
595.47	100.64
595.62	28.09
595.78	63.19
595.94	0.00
596.10	39.79
596.25	44.47
596.41	67.88
596.57	77.24
596.73	21.06
596.88	0.00
597.04	117.03
597.20	117.03
597.36	100.64
597.51	126.39
597.67	9.36
597.83	112.35
597.99	67.88
598.14	131.07
598.30	51.49
598.46	32.77
598.61	23.41
598.77	21.06
598.93	93.62
599.09	46.81
599.24	46.81
599.40	53.83
599.56	51.49
599.71	93.62
599.87	51.49
600.03	79.58
600.18	67.88
600.34	0.00
600.50	65.54
600.65	0.00
600.81	23.41
600.97	14.04
601.12	7.02
601.28	0.00
601.44	18.72
601.59	67.88
601.75	60.85
601.91	0.00
602.06	0.00
602.22	74.90
602.37	28.09
602.53	161.50
602.69	126.39
602.84	98.30
603.00	98.30
603.16	91.28
603.31	79.58
603.47	56.17
603.62	70.22
603.78	77.24
603.94	0.00
604.09	74.90
604.25	25.75
604.40	0.00
604.56	86.60
604.71	86.60
604.87	53.83
605.03	63.19
605.18	0.00
605.34	46.81
605.49	30.43
605.65	28.09
605.80	44.47
605.96	91.28
606.12	30.43
606.27	16.38
606.43	0.00
606.58	0.00
606.74	74.90
606.89	166.18
607.05	234.05
607.20	283.20
607.36	297.25
607.51	201.29
607.67	91.28
607.82	39.79
607.98	107.66
608.13	23.41
608.29	49.15
608.44	93.62
608.60	65.54
608.75	42.13
608.91	121.71
609.06	220.01
609.22	435.34
609.37	433.00
609.53	407.25
609.68	238.73
609.84	182.56
609.99	154.48
610.15	128.73
610.30	0.00
610.46	53.83
610.61	79.58
610.76	44.47
610.92	42.13
611.07	42.13
611.23	72.56
611.38	0.00
611.54	67.88
611.69	32.77
611.84	53.83
612.00	7.02
612.15	63.19
612.31	91.28
612.46	21.06
612.62	35.11
612.77	42.13
612.92	23.41
613.08	42.13
613.23	28.09
613.39	14.04
613.54	35.11
613.69	243.42
613.85	493.85
614.00	559.39
614.15	660.03
614.31	475.13
614.46	315.97
614.62	212.99
614.77	182.56
614.92	88.94
615.08	77.24
615.23	11.70
615.38	21.06
615.54	42.13
615.69	86.60
615.84	168.52
616.00	79.58
616.15	187.24
616.30	217.67
616.46	173.20
616.61	147.45
616.76	65.54
616.92	51.49
617.07	23.41
617.22	25.75
617.37	58.51
617.53	25.75
617.68	79.58
617.83	81.92
617.99	7.02
618.14	14.04
618.29	72.56
618.45	67.88
618.60	14.04
618.75	32.77
618.90	14.04
619.06	9.36
619.21	117.03
619.36	11.70
619.51	74.90
619.67	0.00
619.82	4.68
619.97	30.43
620.12	39.79
620.28	4.68
620.43	4.68
620.58	102.98
620.73	0.00
620.89	0.00
621.04	93.62
621.19	60.85
621.34	98.30
621.49	88.94
621.65	140.43
621.80	32.77
621.95	53.83
622.10	88.94
622.25	79.58
622.41	0.00
622.56	128.73
622.71	0.00
622.86	102.98
623.01	72.56
623.16	39.79
623.32	0.00
623.47	56.17
623.62	60.85
623.77	30.43
623.92	0.00
624.07	23.41
624.23	98.30
624.38	0.00
624.53	30.43
624.68	0.00
624.83	21.06
624.98	25.75
625.13	77.24
625.29	72.56
625.44	88.94
625.59	70.22
625.74	81.92
625.89	18.72
626.04	126.39
626.19	215.33
626.34	341.72
626.49	322.99
626.65	320.65
626.80	163.84
626.95	194.26
627.10	70.22
627.25	74.90
627.40	131.07
627.55	81.92
627.70	2.34
627.85	0.00
628.00	67.88
628.15	58.51
628.30	65.54
628.45	30.43
628.60	0.00
628.76	58.51
628.91	51.49
629.06	100.64
629.21	100.64
629.36	58.51
629.51	0.00
629.66	23.41
629.81	42.13
629.96	18.72
630.11	67.88
630.26	156.82
630.41	91.28
630.56	58.51
630.71	86.60
630.86	72.56
631.01	32.77
631.16	0.00
631.31	14.04
631.46	42.13
631.61	42.13
631.76	53.83
631.91	0.00
632.06	95.96
632.21	72.56
632.36	0.00
632.51	63.19
632.66	51.49
632.81	51.49
632.96	184.90
633.10	269.16
633.25	287.89
633.40	191.92
633.55	138.09
633.70	84.26
633.85	114.69
634.00	86.60
634.15	53.83
634.30	88.94
634.45	25.75
634.60	0.00
634.75	60.85
634.90	67.88
635.05	117.03
635.19	117.03
635.34	74.90
635.49	11.70
635.64	58.51
635.79	30.43
635.94	44.47
636.09	32.77
636.24	79.58
636.39	35.11
636.53	0.00
636.68	18.72
636.83	63.19
636.98	37.45
637.13	56.17
637.28	44.47
637.43	117.03
637.57	163.84
637.72	154.48
637.87	376.83
638.02	409.59
638.17	510.24
638.32	369.80
638.46	224.69
638.61	184.90
638.76	119.37
638.91	30.43
639.06	0.00
639.20	79.58
639.35	56.17
639.50	25.75
639.65	198.95
639.80	433.00
639.94	667.05
640.09	711.52
640.24	573.43
640.39	393.21
640.54	278.52
640.68	212.99
640.83	102.98
640.98	58.51
641.13	35.11
641.27	112.35
641.42	56.17
641.57	119.37
641.72	56.17
641.86	37.45
642.01	21.06
642.16	16.38
642.31	46.81
642.45	46.81
642.60	86.60
642.75	28.09
642.90	25.75
643.04	2.34
643.19	56.17
643.34	72.56
643.48	49.15
643.63	21.06
643.78	58.51
643.93	53.83
644.07	0.00
644.22	0.00
644.37	51.49
644.51	58.51
644.66	0.00
644.81	93.62
644.95	14.04
645.10	44.47
645.25	25.75
645.39	35.11
645.54	51.49
645.69	53.83
645.83	56.17
645.98	72.56
646.13	35.11
646.27	46.81
646.42	51.49
646.57	21.06
646.71	0.00
646.86	121.71
647.00	79.58
647.15	53.83
647.30	23.41
647.44	53.83
647.59	14.04
647.74	72.56
647.88	11.70
648.03	0.00
648.17	44.47
648.32	37.45
648.47	2.34
648.61	35.11
648.76	70.22
648.90	28.09
649.05	46.81
649.20	23.41
649.34	81.92
649.49	177.88
649.63	0.00
649.78	46.81
649.92	63.19
650.07	98.30
650.21	196.60
650.36	325.33
650.51	367.46
650.65	290.23
650.80	224.69
650.94	86.60
651.09	149.79
651.23	18.72
651.38	77.24
651.52	0.00
651.67	67.88
651.81	60.85
651.96	28.09
652.10	2.34
652.25	49.15
652.39	44.47
652.54	14.04
652.68	112.35
652.83	51.49
652.97	227.03
653.12	187.24
653.26	93.62
653.41	100.64
653.55	187.24
653.70	7.02
653.84	18.72
653.99	74.90
654.13	93.62
654.27	23.41
654.42	9.36
654.56	32.77
654.71	0.00
654.85	46.81
655.00	44.47
655.14	18.72
655.29	16.38
655.43	49.15
655.57	28.09
655.72	46.81
655.86	2.34
656.01	0.00
656.15	70.22
656.30	51.49
656.44	0.00
656.58	70.22
656.73	0.00
656.87	79.58
657.01	32.77
657.16	16.38
657.30	35.11
657.45	0.00
657.59	65.54
657.73	11.70
657.88	128.73
658.02	0.00
658.16	0.00
658.31	74.90
658.45	9.36
658.60	0.00
658.74	95.96
658.88	56.17
659.03	14.04
659.17	58.51
659.31	30.43
659.46	84.26
659.60	147.45
659.74	159.16
659.89	145.11
660.03	173.20
660.17	105.32
660.32	88.94
660.46	51.49
660.60	9.36
660.74	74.90
660.89	42.13
661.03	81.92
661.17	14.04
661.32	117.03
661.46	0.00
661.60	56.17
661.74	79.58
661.89	63.19
662.03	53.83
662.17	28.09
662.31	0.00
662.46	18.72
662.60	30.43
662.74	56.17
662.88	32.77
663.03	53.83
663.17	35.11
663.31	0.00
663.45	0.00
663.60	37.45
663.74	60.85
663.88	18.72
664.02	74.90
664.17	16.38
664.31	35.11
664.45	46.81
664.59	105.32
664.73	35.11
664.88	0.00
665.02	86.60
665.16	0.00
665.30	16.38
665.44	7.02
665.59	30.43
665.73	46.81
665.87	4.68
666.01	4.68
666.15	18.72
666.29	21.06
666.44	30.43
666.58	74.90
666.72	74.90
666.86	0.00
667.00	18.72
667.14	88.94
667.28	182.56
667.43	203.63
667.57	234.05
667.71	311.29
667.85	243.42
667.99	220.01
668.13	147.45
668.27	126.39
668.41	102.98
668.56	60.85
668.70	58.51
668.84	42.13
668.98	2.34
669.12	28.09
669.26	16.38
669.40	0.00
669.54	42.13
669.68	14.04
669.82	72.56
669.96	0.00
670.10	30.43
670.25	51.49
670.39	46.81
670.53	0.00
670.67	60.85
670.81	60.85
670.95	7.02
671.09	30.43
671.23	119.37
671.37	189.58
671.51	220.01
671.65	257.46
671.79	189.58
671.93	215.33
672.07	95.96
672.21	67.88
672.35	0.00
672.49	53.83
672.63	0.00
672.77	0.00
672.91	0.00
673.05	0.00
673.19	30.43
673.33	0.00
673.47	98.30
673.61	2.34
673.75	32.77
673.89	14.04
674.03	65.54
674.17	28.09
674.31	39.79
674.45	2.34
674.59	23.41
674.73	56.17
674.87	0.00
675.01	77.24
675.15	84.26
675.29	30.43
675.43	46.81
675.56	51.49
675.70	42.13
675.84	28.09
675.98	53.83
676.12	112.35
676.26	0.00
676.40	35.11
676.54	11.70
676.68	2.34
676.82	18.72
676.96	0.00
677.10	32.77
677.23	46.81
677.37	42.13
677.51	30.43
677.65	30.43
677.79	102.98
677.93	0.00
678.07	30.43
678.21	0.00
678.34	30.43
678.48	39.79
678.62	105.32
678.76	32.77
678.90	0.00
679.04	28.09
679.18	0.00
679.31	53.83
679.45	28.09
679.59	14.04
679.73	32.77
679.87	25.75
680.00	0.00
680.14	0.00
680.28	49.15
680.42	77.24
680.56	9.36
680.70	0.00
680.83	0.00
680.97	30.43
681.11	16.38
681.25	28.09
681.39	88.94
681.52	32.77
681.66	30.43
681.80	39.79
681.94	56.17
682.07	0.00
682.21	2.34
682.35	65.54
682.49	67.88
682.62	56.17
682.76	35.11
682.90	23.41
683.04	21.06
683.17	91.28
683.31	102.98
683.45	32.77
683.59	53.83
683.72	37.45
683.86	30.43
684.00	65.54
684.13	7.02
684.27	23.41
684.41	70.22
684.55	2.34
684.68	63.19
684.82	58.51
684.96	46.81
685.09	0.00
685.23	56.17
685.37	0.00
685.50	16.38
685.64	16.38
685.78	23.41
685.91	37.45
686.05	14.04
686.19	81.92
686.32	74.90
686.46	58.51
686.60	0.00
686.73	16.38
686.87	14.04
687.01	30.43
687.14	60.85
687.28	46.81
687.42	74.90
687.55	63.19
687.69	0.00
687.82	18.72
687.96	0.00
688.10	72.56
688.23	81.92
688.37	42.13
688.50	35.11
688.64	0.00
688.78	16.38
688.91	9.36
689.05	0.00
689.18	14.04
689.32	39.79
689.46	0.00
689.59	0.00
689.73	0.00
689.86	44.47
690.00	44.47
690.13	46.81
690.27	9.36
690.41	0.00
690.54	32.77
690.68	0.00
690.81	86.60
690.95	112.35
691.08	23.41
691.22	23.41
691.35	21.06
691.49	63.19
691.62	11.70
691.76	0.00
691.89	0.00
692.03	21.06
692.16	74.90
692.30	0.00
692.43	67.88
692.57	72.56
692.70	128.73
692.84	119.37
692.97	173.20
693.11	131.07
693.24	138.09
693.38	105.32
693.51	86.60
693.65	0.00
693.78	7.02
693.92	53.83
694.05	30.43
694.19	9.36
694.32	4.68
694.45	14.04
694.59	14.04
694.72	30.43
694.86	25.75
694.99	86.60
695.13	56.17
695.26	72.56
695.39	0.00
695.53	4.68
695.66	25.75
695.80	0.00
695.93	53.83
696.07	7.02
696.20	25.75
696.33	0.00
696.47	28.09
696.60	7.02
696.73	88.94
696.87	42.13
697.00	65.54
697.14	98.30
697.27	0.00
697.40	88.94
697.54	53.83
697.67	0.00
697.80	25.75
697.94	67.88
698.07	0.00
698.21	72.56
698.34	72.56
698.47	14.04
698.61	0.00
698.74	98.30
698.87	14.04
699.01	23.41
699.14	21.06
699.27	7.02
699.40	2.34
699.54	35.11
699.67	67.88
699.80	70.22
699.94	72.56
700.07	77.24
700.20	79.58
700.34	0.00
700.47	79.58
700.60	72.56
700.73	0.00
700.87	42.13
701.00	23.41
701.13	23.41
701.26	0.00
701.40	51.49
701.53	0.00
701.66	74.90
701.79	14.04
701.93	58.51
702.06	102.98
702.19	35.11
702.32	67.88
702.46	9.36
702.59	11.70
702.72	102.98
702.85	166.18
702.99	140.43
703.12	308.95
703.25	264.48
703.38	255.12
703.51	224.69
703.65	135.75
703.78	145.11
703.91	121.71
704.04	25.75
704.17	81.92
704.31	60.85
704.44	0.00
704.57	0.00
704.70	37.45
704.83	16.38
704.96	58.51
705.10	23.41
705.23	46.81
>>>>>End Processed Spectral Data<<<<<
