SpectraSuite Data File
++++++++++++++++++++++++++++++++++++
Date: Fri Oct 04 12:13:37 GMT-05:00 2013
User: price-jones
Dark Spectrum Present: No
Reference Spectrum Present: No
Number of Sampled Component Spectra: 1
Spectrometers: USB2+H05261
Integration Time (usec): 10000 (USB2+H05261)
Spectra Averaged: 1 (USB2+H05261)
Boxcar Smoothing: 0 (USB2+H05261)
Correct for Electrical Dark: No (USB2+H05261)
Strobe/Lamp Enabled: No (USB2+H05261)
Correct for Detector Non-linearity: No (USB2+H05261)
Correct for Stray Light: No (USB2+H05261)
Number of Pixels in Processed Spectrum: 2048
>>>>>Begin Processed Spectral Data<<<<<
365.73	23.41
365.92	23.41
366.12	23.41
366.32	0.00
366.52	0.00
366.72	0.00
366.91	0.00
367.11	0.00
367.31	0.00
367.51	0.00
367.70	0.00
367.90	0.00
368.10	0.00
368.30	0.00
368.49	0.00
368.69	0.00
368.89	0.00
369.09	0.00
369.28	0.00
369.48	0.00
369.68	0.00
369.87	0.00
370.07	0.00
370.27	0.00
370.47	0.00
370.66	0.00
370.86	0.00
371.06	0.00
371.25	0.00
371.45	0.00
371.65	0.00
371.84	0.00
372.04	0.00
372.24	21.06
372.44	0.00
372.63	11.70
372.83	91.28
373.03	28.09
373.22	0.00
373.42	0.00
373.62	9.36
373.81	0.00
374.01	84.26
374.21	0.00
374.40	88.94
374.60	0.00
374.79	72.56
374.99	39.79
375.19	25.75
375.38	35.11
375.58	53.83
375.78	42.13
375.97	28.09
376.17	79.58
376.37	0.00
376.56	44.47
376.76	0.00
376.95	28.09
377.15	32.77
377.35	0.00
377.54	39.79
377.74	0.00
377.93	0.00
378.13	11.70
378.33	23.41
378.52	0.00
378.72	46.81
378.91	16.38
379.11	46.81
379.31	95.96
379.50	0.00
379.70	37.45
379.89	23.41
380.09	56.17
380.28	0.00
380.48	0.00
380.68	18.72
380.87	0.00
381.07	30.43
381.26	28.09
381.46	0.00
381.65	9.36
381.85	16.38
382.04	35.11
382.24	0.00
382.43	37.45
382.63	21.06
382.83	0.00
383.02	0.00
383.22	0.00
383.41	51.49
383.61	0.00
383.80	0.00
384.00	0.00
384.19	0.00
384.39	58.51
384.58	21.06
384.78	25.75
384.97	93.62
385.17	18.72
385.36	30.43
385.56	0.00
385.75	79.58
385.95	49.15
386.14	37.45
386.34	42.13
386.53	42.13
386.72	0.00
386.92	0.00
387.11	88.94
387.31	2.34
387.50	9.36
387.70	16.38
387.89	51.49
388.09	16.38
388.28	0.00
388.48	0.00
388.67	28.09
388.86	14.04
389.06	51.49
389.25	30.43
389.45	65.54
389.64	0.00
389.84	0.00
390.03	0.00
390.22	0.00
390.42	14.04
390.61	44.47
390.81	32.77
391.00	0.00
391.19	0.00
391.39	2.34
391.58	63.19
391.78	105.32
391.97	51.49
392.16	0.00
392.36	9.36
392.55	49.15
392.75	93.62
392.94	0.00
393.13	60.85
393.33	0.00
393.52	16.38
393.71	53.83
393.91	35.11
394.10	23.41
394.29	65.54
394.49	0.00
394.68	21.06
394.88	0.00
395.07	74.90
395.26	0.00
395.46	0.00
395.65	9.36
395.84	16.38
396.04	65.54
396.23	23.41
396.42	2.34
396.62	105.32
396.81	28.09
397.00	58.51
397.19	58.51
397.39	46.81
397.58	25.75
397.77	79.58
397.97	4.68
398.16	14.04
398.35	0.00
398.55	51.49
398.74	18.72
398.93	9.36
399.12	0.00
399.32	35.11
399.51	67.88
399.70	21.06
399.90	35.11
400.09	51.49
400.28	21.06
400.47	56.17
400.67	32.77
400.86	58.51
401.05	25.75
401.24	67.88
401.44	42.13
401.63	49.15
401.82	35.11
402.01	9.36
402.21	46.81
402.40	0.00
402.59	56.17
402.78	9.36
402.97	42.13
403.17	23.41
403.36	18.72
403.55	11.70
403.74	98.30
403.93	58.51
404.13	42.13
404.32	56.17
404.51	74.90
404.70	0.00
404.89	65.54
405.09	35.11
405.28	42.13
405.47	30.43
405.66	11.70
405.85	7.02
406.05	95.96
406.24	0.00
406.43	72.56
406.62	67.88
406.81	60.85
407.00	39.79
407.20	53.83
407.39	58.51
407.58	32.77
407.77	46.81
407.96	0.00
408.15	0.00
408.34	65.54
408.54	23.41
408.73	16.38
408.92	32.77
409.11	35.11
409.30	0.00
409.49	35.11
409.68	53.83
409.87	23.41
410.07	37.45
410.26	93.62
410.45	16.38
410.64	58.51
410.83	0.00
411.02	18.72
411.21	0.00
411.40	37.45
411.59	14.04
411.78	65.54
411.98	53.83
412.17	2.34
412.36	39.79
412.55	7.02
412.74	25.75
412.93	2.34
413.12	46.81
413.31	14.04
413.50	65.54
413.69	35.11
413.88	14.04
414.07	30.43
414.26	28.09
414.45	51.49
414.64	39.79
414.83	32.77
415.02	56.17
415.22	28.09
415.41	37.45
415.60	79.58
415.79	60.85
415.98	65.54
416.17	77.24
416.36	110.01
416.55	25.75
416.74	39.79
416.93	49.15
417.12	0.00
417.31	37.45
417.50	56.17
417.69	53.83
417.88	14.04
418.07	0.00
418.26	0.00
418.45	14.04
418.64	77.24
418.83	70.22
419.02	42.13
419.21	74.90
419.39	93.62
419.58	32.77
419.77	0.00
419.96	25.75
420.15	37.45
420.34	25.75
420.53	84.26
420.72	81.92
420.91	0.00
421.10	58.51
421.29	100.64
421.48	72.56
421.67	9.36
421.86	28.09
422.05	91.28
422.24	53.83
422.43	65.54
422.61	35.11
422.80	28.09
422.99	0.00
423.18	131.07
423.37	51.49
423.56	28.09
423.75	65.54
423.94	28.09
424.13	18.72
424.32	21.06
424.50	32.77
424.69	14.04
424.88	23.41
425.07	0.00
425.26	30.43
425.45	35.11
425.64	42.13
425.83	32.77
426.01	11.70
426.20	44.47
426.39	49.15
426.58	72.56
426.77	30.43
426.96	77.24
427.15	51.49
427.33	37.45
427.52	81.92
427.71	25.75
427.90	0.00
428.09	7.02
428.28	0.00
428.46	9.36
428.65	86.60
428.84	21.06
429.03	0.00
429.22	63.19
429.40	0.00
429.59	0.00
429.78	39.79
429.97	100.64
430.16	18.72
430.34	23.41
430.53	0.00
430.72	0.00
430.91	60.85
431.10	60.85
431.28	11.70
431.47	21.06
431.66	0.00
431.85	0.00
432.03	44.47
432.22	0.00
432.41	32.77
432.60	60.85
432.79	0.00
432.97	18.72
433.16	37.45
433.35	25.75
433.54	46.81
433.72	93.62
433.91	60.85
434.10	63.19
434.28	58.51
434.47	77.24
434.66	42.13
434.85	67.88
435.03	9.36
435.22	37.45
435.41	102.98
435.59	32.77
435.78	65.54
435.97	72.56
436.16	100.64
436.34	58.51
436.53	0.00
436.72	114.69
436.90	70.22
437.09	91.28
437.28	58.51
437.46	56.17
437.65	86.60
437.84	28.09
438.02	0.00
438.21	0.00
438.40	86.60
438.58	37.45
438.77	23.41
438.96	77.24
439.14	60.85
439.33	11.70
439.52	60.85
439.70	81.92
439.89	39.79
440.08	0.00
440.26	42.13
440.45	70.22
440.63	91.28
440.82	77.24
441.01	70.22
441.19	72.56
441.38	35.11
441.57	67.88
441.75	21.06
441.94	18.72
442.12	102.98
442.31	56.17
442.50	30.43
442.68	79.58
442.87	53.83
443.05	63.19
443.24	107.66
443.43	35.11
443.61	65.54
443.80	25.75
443.98	110.01
444.17	128.73
444.35	0.00
444.54	56.17
444.73	0.00
444.91	74.90
445.10	46.81
445.28	126.39
445.47	49.15
445.65	11.70
445.84	39.79
446.02	42.13
446.21	32.77
446.39	32.77
446.58	14.04
446.77	0.00
446.95	67.88
447.14	42.13
447.32	39.79
447.51	107.66
447.69	77.24
447.88	107.66
448.06	63.19
448.25	44.47
448.43	63.19
448.62	0.00
448.80	79.58
448.99	81.92
449.17	14.04
449.36	0.00
449.54	81.92
449.73	44.47
449.91	74.90
450.10	37.45
450.28	44.47
450.46	74.90
450.65	74.90
450.83	114.69
451.02	4.68
451.20	16.38
451.39	81.92
451.57	93.62
451.76	49.15
451.94	86.60
452.13	74.90
452.31	86.60
452.49	86.60
452.68	14.04
452.86	0.00
453.05	93.62
453.23	4.68
453.42	7.02
453.60	0.00
453.78	114.69
453.97	91.28
454.15	16.38
454.34	35.11
454.52	9.36
454.70	58.51
454.89	98.30
455.07	16.38
455.26	56.17
455.44	79.58
455.62	21.06
455.81	70.22
455.99	60.85
456.17	67.88
456.36	126.39
456.54	112.35
456.73	53.83
456.91	100.64
457.09	23.41
457.28	124.05
457.46	42.13
457.64	81.92
457.83	70.22
458.01	60.85
458.19	51.49
458.38	74.90
458.56	32.77
458.74	28.09
458.93	70.22
459.11	35.11
459.29	25.75
459.48	28.09
459.66	88.94
459.84	4.68
460.03	107.66
460.21	65.54
460.39	81.92
460.57	79.58
460.76	49.15
460.94	51.49
461.12	35.11
461.31	114.69
461.49	46.81
461.67	25.75
461.85	37.45
462.04	114.69
462.22	63.19
462.40	88.94
462.59	84.26
462.77	42.13
462.95	117.03
463.13	74.90
463.32	37.45
463.50	72.56
463.68	37.45
463.86	21.06
464.05	98.30
464.23	35.11
464.41	23.41
464.59	44.47
464.78	39.79
464.96	46.81
465.14	100.64
465.32	133.41
465.50	44.47
465.69	77.24
465.87	9.36
466.05	16.38
466.23	63.19
466.41	98.30
466.60	39.79
466.78	32.77
466.96	58.51
467.14	30.43
467.32	46.81
467.51	81.92
467.69	84.26
467.87	9.36
468.05	0.00
468.23	112.35
468.41	72.56
468.60	95.96
468.78	110.01
468.96	133.41
469.14	100.64
469.32	72.56
469.50	30.43
469.69	21.06
469.87	74.90
470.05	14.04
470.23	9.36
470.41	128.73
470.59	72.56
470.77	81.92
470.95	124.05
471.14	98.30
471.32	32.77
471.50	56.17
471.68	67.88
471.86	95.96
472.04	58.51
472.22	110.01
472.40	67.88
472.58	42.13
472.77	39.79
472.95	77.24
473.13	0.00
473.31	70.22
473.49	58.51
473.67	25.75
473.85	74.90
474.03	154.48
474.21	9.36
474.39	60.85
474.57	72.56
474.75	32.77
474.93	107.66
475.12	63.19
475.30	42.13
475.48	49.15
475.66	25.75
475.84	18.72
476.02	81.92
476.20	100.64
476.38	67.88
476.56	84.26
476.74	67.88
476.92	18.72
477.10	37.45
477.28	79.58
477.46	46.81
477.64	86.60
477.82	7.02
478.00	23.41
478.18	65.54
478.36	100.64
478.54	88.94
478.72	9.36
478.90	65.54
479.08	58.51
479.26	51.49
479.44	95.96
479.62	102.98
479.80	28.09
479.98	142.77
480.16	65.54
480.34	30.43
480.52	124.05
480.70	74.90
480.88	0.00
481.06	114.69
481.24	114.69
481.41	65.54
481.59	42.13
481.77	32.77
481.95	23.41
482.13	63.19
482.31	56.17
482.49	91.28
482.67	119.37
482.85	107.66
483.03	98.30
483.21	107.66
483.39	110.01
483.57	30.43
483.74	49.15
483.92	0.00
484.10	65.54
484.28	37.45
484.46	107.66
484.64	46.81
484.82	51.49
485.00	11.70
485.18	49.15
485.35	67.88
485.53	35.11
485.71	51.49
485.89	32.77
486.07	56.17
486.25	102.98
486.43	46.81
486.61	138.09
486.78	7.02
486.96	63.19
487.14	72.56
487.32	88.94
487.50	49.15
487.68	79.58
487.85	0.00
488.03	112.35
488.21	39.79
488.39	0.00
488.57	107.66
488.75	112.35
488.92	58.51
489.10	107.66
489.28	63.19
489.46	63.19
489.64	131.07
489.81	16.38
489.99	32.77
490.17	133.41
490.35	49.15
490.53	51.49
490.70	91.28
490.88	72.56
491.06	58.51
491.24	65.54
491.41	11.70
491.59	58.51
491.77	67.88
491.95	81.92
492.13	102.98
492.30	98.30
492.48	88.94
492.66	124.05
492.84	105.32
493.01	91.28
493.19	105.32
493.37	86.60
493.54	44.47
493.72	74.90
493.90	23.41
494.08	60.85
494.25	93.62
494.43	93.62
494.61	39.79
494.79	98.30
494.96	105.32
495.14	131.07
495.32	84.26
495.49	44.47
495.67	70.22
495.85	133.41
496.02	56.17
496.20	44.47
496.38	72.56
496.55	63.19
496.73	156.82
496.91	114.69
497.09	107.66
497.26	65.54
497.44	135.75
497.62	84.26
497.79	60.85
497.97	138.09
498.14	67.88
498.32	119.37
498.50	149.79
498.67	84.26
498.85	35.11
499.03	88.94
499.20	56.17
499.38	84.26
499.56	56.17
499.73	23.41
499.91	53.83
500.08	58.51
500.26	51.49
500.44	86.60
500.61	72.56
500.79	0.00
500.97	105.32
501.14	140.43
501.32	63.19
501.49	74.90
501.67	86.60
501.84	44.47
502.02	44.47
502.20	42.13
502.37	102.98
502.55	102.98
502.72	79.58
502.90	60.85
503.07	77.24
503.25	126.39
503.43	49.15
503.60	60.85
503.78	46.81
503.95	77.24
504.13	42.13
504.30	107.66
504.48	91.28
504.65	49.15
504.83	67.88
505.01	49.15
505.18	81.92
505.36	86.60
505.53	44.47
505.71	112.35
505.88	86.60
506.06	107.66
506.23	168.52
506.41	205.97
506.58	173.20
506.76	114.69
506.93	0.00
507.11	65.54
507.28	65.54
507.46	72.56
507.63	60.85
507.81	56.17
507.98	37.45
508.16	124.05
508.33	53.83
508.50	65.54
508.68	117.03
508.85	14.04
509.03	65.54
509.20	65.54
509.38	70.22
509.55	49.15
509.73	84.26
509.90	88.94
510.08	124.05
510.25	142.77
510.42	124.05
510.60	91.28
510.77	79.58
510.95	98.30
511.12	35.11
511.30	93.62
511.47	42.13
511.64	88.94
511.82	16.38
511.99	145.11
512.17	25.75
512.34	53.83
512.51	44.47
512.69	95.96
512.86	84.26
513.04	102.98
513.21	7.02
513.38	91.28
513.56	60.85
513.73	72.56
513.90	126.39
514.08	35.11
514.25	86.60
514.43	70.22
514.60	189.58
514.77	65.54
514.95	51.49
515.12	63.19
515.29	65.54
515.47	91.28
515.64	138.09
515.81	91.28
515.99	128.73
516.16	133.41
516.33	124.05
516.51	39.79
516.68	114.69
516.85	0.00
517.03	114.69
517.20	138.09
517.37	110.01
517.54	4.68
517.72	74.90
517.89	117.03
518.06	65.54
518.24	49.15
518.41	117.03
518.58	140.43
518.75	100.64
518.93	46.81
519.10	98.30
519.27	98.30
519.45	46.81
519.62	100.64
519.79	91.28
519.96	107.66
520.14	102.98
520.31	124.05
520.48	58.51
520.65	67.88
520.83	102.98
521.00	124.05
521.17	93.62
521.34	42.13
521.52	0.00
521.69	124.05
521.86	46.81
522.03	63.19
522.20	175.54
522.38	67.88
522.55	93.62
522.72	58.51
522.89	98.30
523.07	135.75
523.24	81.92
523.41	35.11
523.58	93.62
523.75	60.85
523.92	159.16
524.10	60.85
524.27	63.19
524.44	91.28
524.61	58.51
524.78	28.09
524.96	11.70
525.13	42.13
525.30	49.15
525.47	39.79
525.64	95.96
525.81	135.75
525.98	67.88
526.16	56.17
526.33	105.32
526.50	100.64
526.67	70.22
526.84	14.04
527.01	0.00
527.18	53.83
527.36	93.62
527.53	112.35
527.70	93.62
527.87	84.26
528.04	84.26
528.21	98.30
528.38	49.15
528.55	147.45
528.72	131.07
528.89	74.90
529.07	145.11
529.24	145.11
529.41	72.56
529.58	95.96
529.75	16.38
529.92	107.66
530.09	107.66
530.26	128.73
530.43	65.54
530.60	51.49
530.77	58.51
530.94	100.64
531.11	147.45
531.28	88.94
531.46	110.01
531.63	42.13
531.80	114.69
531.97	112.35
532.14	21.06
532.31	149.79
532.48	11.70
532.65	86.60
532.82	18.72
532.99	18.72
533.16	79.58
533.33	67.88
533.50	110.01
533.67	100.64
533.84	110.01
534.01	81.92
534.18	98.30
534.35	117.03
534.52	105.32
534.69	74.90
534.86	81.92
535.03	67.88
535.20	67.88
535.37	65.54
535.54	86.60
535.71	42.13
535.88	107.66
536.05	53.83
536.22	72.56
536.38	128.73
536.55	124.05
536.72	81.92
536.89	152.13
537.06	119.37
537.23	128.73
537.40	65.54
537.57	88.94
537.74	98.30
537.91	21.06
538.08	56.17
538.25	56.17
538.42	131.07
538.59	18.72
538.75	49.15
538.92	65.54
539.09	95.96
539.26	117.03
539.43	70.22
539.60	39.79
539.77	30.43
539.94	119.37
540.11	23.41
540.28	63.19
540.44	98.30
540.61	70.22
540.78	0.00
540.95	138.09
541.12	46.81
541.29	187.24
541.46	56.17
541.62	14.04
541.79	105.32
541.96	84.26
542.13	18.72
542.30	72.56
542.47	147.45
542.63	100.64
542.80	9.36
542.97	124.05
543.14	32.77
543.31	124.05
543.48	74.90
543.64	67.88
543.81	42.13
543.98	77.24
544.15	77.24
544.32	100.64
544.48	79.58
544.65	53.83
544.82	91.28
544.99	46.81
545.16	65.54
545.32	46.81
545.49	65.54
545.66	51.49
545.83	35.11
546.00	100.64
546.16	95.96
546.33	114.69
546.50	133.41
546.67	112.35
546.83	133.41
547.00	25.75
547.17	4.68
547.34	93.62
547.50	124.05
547.67	105.32
547.84	56.17
548.00	72.56
548.17	65.54
548.34	102.98
548.51	126.39
548.67	4.68
548.84	124.05
549.01	154.48
549.18	88.94
549.34	18.72
549.51	93.62
549.68	14.04
549.84	67.88
550.01	88.94
550.18	79.58
550.34	105.32
550.51	81.92
550.68	170.86
550.84	42.13
551.01	95.96
551.18	88.94
551.34	56.17
551.51	86.60
551.68	42.13
551.84	65.54
552.01	135.75
552.18	81.92
552.34	107.66
552.51	100.64
552.68	74.90
552.84	79.58
553.01	88.94
553.18	93.62
553.34	49.15
553.51	74.90
553.67	112.35
553.84	65.54
554.01	93.62
554.17	117.03
554.34	51.49
554.51	60.85
554.67	56.17
554.84	117.03
555.00	77.24
555.17	60.85
555.33	46.81
555.50	138.09
555.67	110.01
555.83	65.54
556.00	93.62
556.16	98.30
556.33	88.94
556.50	72.56
556.66	140.43
556.83	100.64
556.99	39.79
557.16	28.09
557.32	86.60
557.49	30.43
557.65	154.48
557.82	135.75
557.98	140.43
558.15	0.00
558.32	138.09
558.48	67.88
558.65	53.83
558.81	72.56
558.98	53.83
559.14	51.49
559.31	147.45
559.47	93.62
559.64	28.09
559.80	126.39
559.97	60.85
560.13	114.69
560.30	67.88
560.46	37.45
560.63	152.13
560.79	163.84
560.96	114.69
561.12	110.01
561.29	14.04
561.45	74.90
561.61	142.77
561.78	0.00
561.94	74.90
562.11	72.56
562.27	51.49
562.44	25.75
562.60	142.77
562.77	93.62
562.93	39.79
563.10	35.11
563.26	53.83
563.42	91.28
563.59	105.32
563.75	46.81
563.92	79.58
564.08	53.83
564.24	67.88
564.41	126.39
564.57	105.32
564.74	91.28
564.90	53.83
565.07	39.79
565.23	65.54
565.39	65.54
565.56	93.62
565.72	35.11
565.88	56.17
566.05	112.35
566.21	117.03
566.38	70.22
566.54	53.83
566.70	70.22
566.87	124.05
567.03	49.15
567.19	88.94
567.36	88.94
567.52	0.00
567.68	60.85
567.85	100.64
568.01	16.38
568.17	65.54
568.34	114.69
568.50	84.26
568.66	81.92
568.83	60.85
568.99	30.43
569.15	42.13
569.32	91.28
569.48	93.62
569.64	84.26
569.81	63.19
569.97	32.77
570.13	124.05
570.30	86.60
570.46	70.22
570.62	46.81
570.78	124.05
570.95	128.73
571.11	39.79
571.27	37.45
571.43	86.60
571.60	58.51
571.76	0.00
571.92	70.22
572.09	46.81
572.25	65.54
572.41	135.75
572.57	86.60
572.74	93.62
572.90	74.90
573.06	28.09
573.22	51.49
573.38	42.13
573.55	0.00
573.71	88.94
573.87	51.49
574.03	37.45
574.20	53.83
574.36	42.13
574.52	112.35
574.68	49.15
574.84	112.35
575.01	117.03
575.17	53.83
575.33	70.22
575.49	107.66
575.65	51.49
575.82	51.49
575.98	65.54
576.14	72.56
576.30	74.90
576.46	79.58
576.62	86.60
576.79	65.54
576.95	93.62
577.11	70.22
577.27	9.36
577.43	91.28
577.59	49.15
577.75	46.81
577.92	74.90
578.08	88.94
578.24	23.41
578.40	56.17
578.56	60.85
578.72	112.35
578.88	74.90
579.04	25.75
579.21	60.85
579.37	95.96
579.53	102.98
579.69	0.00
579.85	95.96
580.01	23.41
580.17	37.45
580.33	98.30
580.49	154.48
580.65	98.30
580.82	74.90
580.98	102.98
581.14	67.88
581.30	81.92
581.46	51.49
581.62	98.30
581.78	37.45
581.94	100.64
582.10	70.22
582.26	79.58
582.42	30.43
582.58	56.17
582.74	32.77
582.90	67.88
583.06	100.64
583.22	102.98
583.38	58.51
583.54	145.11
583.70	49.15
583.86	79.58
584.02	74.90
584.18	51.49
584.34	46.81
584.50	95.96
584.66	14.04
584.82	67.88
584.98	93.62
585.14	63.19
585.30	28.09
585.46	21.06
585.62	39.79
585.78	102.98
585.94	70.22
586.10	51.49
586.26	100.64
586.42	70.22
586.58	135.75
586.74	63.19
586.90	42.13
587.06	105.32
587.22	65.54
587.38	95.96
587.54	74.90
587.70	81.92
587.86	67.88
588.02	56.17
588.18	49.15
588.34	77.24
588.49	23.41
588.65	0.00
588.81	112.35
588.97	39.79
589.13	60.85
589.29	0.00
589.45	65.54
589.61	77.24
589.77	81.92
589.93	44.47
590.08	65.54
590.24	149.79
590.40	35.11
590.56	9.36
590.72	147.45
590.88	74.90
591.04	86.60
591.20	49.15
591.35	72.56
591.51	81.92
591.67	46.81
591.83	14.04
591.99	23.41
592.15	53.83
592.31	16.38
592.46	23.41
592.62	23.41
592.78	30.43
592.94	9.36
593.10	53.83
593.26	112.35
593.41	56.17
593.57	112.35
593.73	32.77
593.89	119.37
594.05	25.75
594.20	81.92
594.36	86.60
594.52	28.09
594.68	56.17
594.84	84.26
594.99	14.04
595.15	95.96
595.31	81.92
595.47	28.09
595.62	42.13
595.78	30.43
595.94	46.81
596.10	84.26
596.25	28.09
596.41	77.24
596.57	56.17
596.73	56.17
596.88	0.00
597.04	145.11
597.20	91.28
597.36	74.90
597.51	133.41
597.67	119.37
597.83	170.86
597.99	70.22
598.14	39.79
598.30	142.77
598.46	70.22
598.61	60.85
598.77	105.32
598.93	51.49
599.09	0.00
599.24	49.15
599.40	70.22
599.56	67.88
599.71	32.77
599.87	79.58
600.03	39.79
600.18	53.83
600.34	93.62
600.50	77.24
600.65	98.30
600.81	56.17
600.97	70.22
601.12	0.00
601.28	37.45
601.44	67.88
601.59	14.04
601.75	30.43
601.91	35.11
602.06	44.47
602.22	53.83
602.37	25.75
602.53	56.17
602.69	86.60
602.84	88.94
603.00	100.64
603.16	79.58
603.31	9.36
603.47	58.51
603.62	58.51
603.78	163.84
603.94	105.32
604.09	112.35
604.25	79.58
604.40	60.85
604.56	65.54
604.71	77.24
604.87	60.85
605.03	114.69
605.18	72.56
605.34	65.54
605.49	91.28
605.65	102.98
605.80	88.94
605.96	39.79
606.12	107.66
606.27	46.81
606.43	67.88
606.58	119.37
606.74	56.17
606.89	14.04
607.05	84.26
607.20	140.43
607.36	98.30
607.51	121.71
607.67	65.54
607.82	79.58
607.98	131.07
608.13	98.30
608.29	77.24
608.44	72.56
608.60	159.16
608.75	65.54
608.91	117.03
609.06	124.05
609.22	51.49
609.37	35.11
609.53	53.83
609.68	102.98
609.84	74.90
609.99	23.41
610.15	128.73
610.30	98.30
610.46	100.64
610.61	86.60
610.76	74.90
610.92	110.01
611.07	166.18
611.23	67.88
611.38	79.58
611.54	93.62
611.69	147.45
611.84	84.26
612.00	28.09
612.15	60.85
612.31	86.60
612.46	14.04
612.62	98.30
612.77	11.70
612.92	98.30
613.08	51.49
613.23	25.75
613.39	51.49
613.54	88.94
613.69	37.45
613.85	107.66
614.00	74.90
614.15	23.41
614.31	37.45
614.46	35.11
614.62	77.24
614.77	42.13
614.92	18.72
615.08	35.11
615.23	65.54
615.38	67.88
615.54	0.00
615.69	70.22
615.84	72.56
616.00	67.88
616.15	51.49
616.30	56.17
616.46	53.83
616.61	42.13
616.76	0.00
616.92	51.49
617.07	7.02
617.22	79.58
617.37	0.00
617.53	25.75
617.68	86.60
617.83	37.45
617.99	74.90
618.14	53.83
618.29	0.00
618.45	58.51
618.60	51.49
618.75	58.51
618.90	0.00
619.06	117.03
619.21	16.38
619.36	51.49
619.51	79.58
619.67	23.41
619.82	49.15
619.97	142.77
620.12	42.13
620.28	74.90
620.43	175.54
620.58	25.75
620.73	0.00
620.89	95.96
621.04	0.00
621.19	28.09
621.34	46.81
621.49	30.43
621.65	14.04
621.80	21.06
621.95	88.94
622.10	23.41
622.25	95.96
622.41	4.68
622.56	112.35
622.71	110.01
622.86	114.69
623.01	32.77
623.16	95.96
623.32	51.49
623.47	81.92
623.62	60.85
623.77	39.79
623.92	51.49
624.07	100.64
624.23	49.15
624.38	102.98
624.53	56.17
624.68	18.72
624.83	81.92
624.98	81.92
625.13	0.00
625.29	65.54
625.44	72.56
625.59	16.38
625.74	175.54
625.89	77.24
626.04	91.28
626.19	93.62
626.34	44.47
626.49	93.62
626.65	44.47
626.80	32.77
626.95	74.90
627.10	58.51
627.25	70.22
627.40	0.00
627.55	4.68
627.70	140.43
627.85	0.00
628.00	65.54
628.15	70.22
628.30	53.83
628.45	30.43
628.60	67.88
628.76	74.90
628.91	28.09
629.06	107.66
629.21	93.62
629.36	86.60
629.51	72.56
629.66	163.84
629.81	112.35
629.96	147.45
630.11	44.47
630.26	4.68
630.41	65.54
630.56	11.70
630.71	60.85
630.86	79.58
631.01	98.30
631.16	145.11
631.31	74.90
631.46	35.11
631.61	63.19
631.76	60.85
631.91	11.70
632.06	98.30
632.21	63.19
632.36	84.26
632.51	4.68
632.66	58.51
632.81	32.77
632.96	53.83
633.10	4.68
633.25	131.07
633.40	49.15
633.55	65.54
633.70	98.30
633.85	77.24
634.00	154.48
634.15	72.56
634.30	42.13
634.45	91.28
634.60	79.58
634.75	30.43
634.90	63.19
635.05	53.83
635.19	117.03
635.34	46.81
635.49	53.83
635.64	16.38
635.79	58.51
635.94	63.19
636.09	81.92
636.24	74.90
636.39	95.96
636.53	81.92
636.68	81.92
636.83	114.69
636.98	0.00
637.13	42.13
637.28	0.00
637.43	42.13
637.57	51.49
637.72	23.41
637.87	128.73
638.02	25.75
638.17	21.06
638.32	93.62
638.46	84.26
638.61	81.92
638.76	0.00
638.91	114.69
639.06	0.00
639.20	74.90
639.35	117.03
639.50	42.13
639.65	51.49
639.80	67.88
639.94	44.47
640.09	70.22
640.24	39.79
640.39	30.43
640.54	86.60
640.68	14.04
640.83	126.39
640.98	9.36
641.13	42.13
641.27	93.62
641.42	128.73
641.57	49.15
641.72	51.49
641.86	84.26
642.01	42.13
642.16	77.24
642.31	4.68
642.45	126.39
642.60	74.90
642.75	63.19
642.90	0.00
643.04	39.79
643.19	124.05
643.34	65.54
643.48	86.60
643.63	0.00
643.78	51.49
643.93	63.19
644.07	49.15
644.22	32.77
644.37	88.94
644.51	0.00
644.66	145.11
644.81	49.15
644.95	84.26
645.10	95.96
645.25	2.34
645.39	51.49
645.54	44.47
645.69	44.47
645.83	74.90
645.98	0.00
646.13	81.92
646.27	65.54
646.42	88.94
646.57	110.01
646.71	53.83
646.86	105.32
647.00	32.77
647.15	7.02
647.30	21.06
647.44	23.41
647.59	60.85
647.74	39.79
647.88	30.43
648.03	0.00
648.17	81.92
648.32	65.54
648.47	4.68
648.61	63.19
648.76	0.00
648.90	74.90
649.05	53.83
649.20	74.90
649.34	11.70
649.49	37.45
649.63	70.22
649.78	58.51
649.92	42.13
650.07	21.06
650.21	84.26
650.36	32.77
650.51	154.48
650.65	128.73
650.80	46.81
650.94	4.68
651.09	72.56
651.23	67.88
651.38	135.75
651.52	119.37
651.67	18.72
651.81	65.54
651.96	51.49
652.10	58.51
652.25	42.13
652.39	60.85
652.54	49.15
652.68	42.13
652.83	86.60
652.97	0.00
653.12	0.00
653.26	91.28
653.41	95.96
653.55	0.00
653.70	0.00
653.84	21.06
653.99	32.77
654.13	91.28
654.27	0.00
654.42	88.94
654.56	42.13
654.71	28.09
654.85	74.90
655.00	84.26
655.14	39.79
655.29	74.90
655.43	135.75
655.57	16.38
655.72	77.24
655.86	91.28
656.01	131.07
656.15	18.72
656.30	0.00
656.44	25.75
656.58	65.54
656.73	37.45
656.87	81.92
657.01	28.09
657.16	0.00
657.30	9.36
657.45	67.88
657.59	21.06
657.73	30.43
657.88	0.00
658.02	21.06
658.16	51.49
658.31	39.79
658.45	18.72
658.60	49.15
658.74	93.62
658.88	0.00
659.03	0.00
659.17	56.17
659.31	98.30
659.46	7.02
659.60	35.11
659.74	11.70
659.89	124.05
660.03	56.17
660.17	95.96
660.32	65.54
660.46	25.75
660.60	53.83
660.74	23.41
660.89	30.43
661.03	67.88
661.17	51.49
661.32	86.60
661.46	58.51
661.60	110.01
661.74	105.32
661.89	110.01
662.03	28.09
662.17	84.26
662.31	0.00
662.46	77.24
662.60	98.30
662.74	110.01
662.88	25.75
663.03	93.62
663.17	51.49
663.31	39.79
663.45	42.13
663.60	0.00
663.74	0.00
663.88	11.70
664.02	35.11
664.17	53.83
664.31	53.83
664.45	28.09
664.59	70.22
664.73	102.98
664.88	58.51
665.02	25.75
665.16	14.04
665.30	79.58
665.44	51.49
665.59	37.45
665.73	51.49
665.87	51.49
666.01	77.24
666.15	63.19
666.29	37.45
666.44	0.00
666.58	42.13
666.72	35.11
666.86	42.13
667.00	46.81
667.14	81.92
667.28	46.81
667.43	67.88
667.57	18.72
667.71	56.17
667.85	53.83
667.99	25.75
668.13	44.47
668.27	70.22
668.41	25.75
668.56	28.09
668.70	14.04
668.84	70.22
668.98	93.62
669.12	16.38
669.26	65.54
669.40	39.79
669.54	14.04
669.68	77.24
669.82	11.70
669.96	35.11
670.10	7.02
670.25	32.77
670.39	30.43
670.53	74.90
670.67	35.11
670.81	0.00
670.95	53.83
671.09	25.75
671.23	53.83
671.37	30.43
671.51	74.90
671.65	114.69
671.79	86.60
671.93	74.90
672.07	30.43
672.21	28.09
672.35	86.60
672.49	32.77
672.63	30.43
672.77	46.81
672.91	112.35
673.05	70.22
673.19	49.15
673.33	53.83
673.47	46.81
673.61	81.92
673.75	131.07
673.89	42.13
674.03	72.56
674.17	79.58
674.31	53.83
674.45	49.15
674.59	95.96
674.73	53.83
674.87	56.17
675.01	126.39
675.15	70.22
675.29	91.28
675.43	0.00
675.56	30.43
675.70	56.17
675.84	0.00
675.98	39.79
676.12	105.32
676.26	0.00
676.40	32.77
676.54	46.81
676.68	81.92
676.82	28.09
676.96	21.06
677.10	102.98
677.23	53.83
677.37	0.00
677.51	65.54
677.65	51.49
677.79	88.94
677.93	30.43
678.07	93.62
678.21	60.85
678.34	93.62
678.48	21.06
678.62	0.00
678.76	95.96
678.90	65.54
679.04	91.28
679.18	53.83
679.31	58.51
679.45	9.36
679.59	79.58
679.73	32.77
679.87	30.43
680.00	95.96
680.14	0.00
680.28	86.60
680.42	121.71
680.56	14.04
680.70	88.94
680.83	16.38
680.97	11.70
681.11	72.56
681.25	0.00
681.39	0.00
681.52	32.77
681.66	51.49
681.80	53.83
681.94	138.09
682.07	14.04
682.21	0.00
682.35	77.24
682.49	0.00
682.62	16.38
682.76	0.00
682.90	60.85
683.04	77.24
683.17	7.02
683.31	63.19
683.45	39.79
683.59	70.22
683.72	105.32
683.86	0.00
684.00	42.13
684.13	25.75
684.27	0.00
684.41	42.13
684.55	7.02
684.68	39.79
684.82	18.72
684.96	23.41
685.09	0.00
685.23	67.88
685.37	37.45
685.50	39.79
685.64	0.00
685.78	98.30
685.91	58.51
686.05	84.26
686.19	100.64
686.32	35.11
686.46	77.24
686.60	37.45
686.73	0.00
686.87	21.06
687.01	88.94
687.14	11.70
687.28	23.41
687.42	23.41
687.55	60.85
687.69	37.45
687.82	84.26
687.96	119.37
688.10	9.36
688.23	60.85
688.37	67.88
688.50	7.02
688.64	42.13
688.78	42.13
688.91	51.49
689.05	0.00
689.18	77.24
689.32	0.00
689.46	58.51
689.59	0.00
689.73	32.77
689.86	32.77
690.00	35.11
690.13	7.02
690.27	28.09
690.41	9.36
690.54	4.68
690.68	86.60
690.81	9.36
690.95	42.13
691.08	23.41
691.22	0.00
691.35	0.00
691.49	51.49
691.62	49.15
691.76	18.72
691.89	11.70
692.03	14.04
692.16	56.17
692.30	0.00
692.43	56.17
692.57	65.54
692.70	11.70
692.84	51.49
692.97	46.81
693.11	11.70
693.24	84.26
693.38	46.81
693.51	49.15
693.65	28.09
693.78	93.62
693.92	18.72
694.05	39.79
694.19	65.54
694.32	70.22
694.45	35.11
694.59	77.24
694.72	86.60
694.86	0.00
694.99	100.64
695.13	39.79
695.26	37.45
695.39	30.43
695.53	42.13
695.66	79.58
695.80	32.77
695.93	91.28
696.07	65.54
696.20	0.00
696.33	35.11
696.47	0.00
696.60	49.15
696.73	39.79
696.87	16.38
697.00	28.09
697.14	14.04
697.27	32.77
697.40	14.04
697.54	0.00
697.67	77.24
697.80	37.45
697.94	2.34
698.07	0.00
698.21	0.00
698.34	81.92
698.47	0.00
698.61	65.54
698.74	21.06
698.87	14.04
699.01	23.41
699.14	25.75
699.27	21.06
699.40	42.13
699.54	9.36
699.67	74.90
699.80	44.47
699.94	53.83
700.07	53.83
700.20	28.09
700.34	70.22
700.47	121.71
700.60	70.22
700.73	30.43
700.87	70.22
701.00	32.77
701.13	23.41
701.26	81.92
701.40	42.13
701.53	44.47
701.66	21.06
701.79	81.92
701.93	72.56
702.06	44.47
702.19	0.00
702.32	0.00
702.46	0.00
702.59	0.00
702.72	28.09
702.85	0.00
702.99	0.00
703.12	70.22
703.25	44.47
703.38	0.00
703.51	0.00
703.65	49.15
703.78	77.24
703.91	51.49
704.04	65.54
704.17	74.90
704.31	44.47
704.44	30.43
704.57	30.43
704.70	0.00
704.83	44.47
704.96	7.02
705.10	18.72
705.23	0.00
>>>>>End Processed Spectral Data<<<<<
