SpectraSuite Data File
++++++++++++++++++++++++++++++++++++
Date: Fri Oct 04 12:13:30 GMT-05:00 2013
User: price-jones
Dark Spectrum Present: No
Reference Spectrum Present: No
Number of Sampled Component Spectra: 1
Spectrometers: USB2+H05261
Integration Time (usec): 10000 (USB2+H05261)
Spectra Averaged: 1 (USB2+H05261)
Boxcar Smoothing: 0 (USB2+H05261)
Correct for Electrical Dark: No (USB2+H05261)
Strobe/Lamp Enabled: No (USB2+H05261)
Correct for Detector Non-linearity: No (USB2+H05261)
Correct for Stray Light: No (USB2+H05261)
Number of Pixels in Processed Spectrum: 2048
>>>>>Begin Processed Spectral Data<<<<<
365.73	28.09
365.92	28.09
366.12	28.09
366.32	0.00
366.52	0.00
366.72	0.00
366.91	0.00
367.11	0.00
367.31	0.00
367.51	0.00
367.70	0.00
367.90	0.00
368.10	0.00
368.30	0.00
368.49	0.00
368.69	0.00
368.89	0.00
369.09	0.00
369.28	0.00
369.48	0.00
369.68	0.00
369.87	0.00
370.07	0.00
370.27	0.00
370.47	0.00
370.66	0.00
370.86	0.00
371.06	0.00
371.25	0.00
371.45	14.04
371.65	51.49
371.84	0.00
372.04	0.00
372.24	0.00
372.44	0.00
372.63	53.83
372.83	107.66
373.03	0.00
373.22	0.00
373.42	81.92
373.62	46.81
373.81	77.24
374.01	32.77
374.21	72.56
374.40	23.41
374.60	23.41
374.79	63.19
374.99	0.00
375.19	42.13
375.38	28.09
375.58	14.04
375.78	79.58
375.97	32.77
376.17	79.58
376.37	49.15
376.56	44.47
376.76	0.00
376.95	42.13
377.15	28.09
377.35	44.47
377.54	30.43
377.74	49.15
377.93	56.17
378.13	14.04
378.33	63.19
378.52	60.85
378.72	23.41
378.91	56.17
379.11	4.68
379.31	4.68
379.50	46.81
379.70	11.70
379.89	25.75
380.09	0.00
380.28	28.09
380.48	0.00
380.68	35.11
380.87	14.04
381.07	60.85
381.26	18.72
381.46	16.38
381.65	0.00
381.85	21.06
382.04	0.00
382.24	0.00
382.43	4.68
382.63	51.49
382.83	67.88
383.02	91.28
383.22	14.04
383.41	105.32
383.61	25.75
383.80	0.00
384.00	30.43
384.19	0.00
384.39	0.00
384.58	72.56
384.78	46.81
384.97	7.02
385.17	16.38
385.36	0.00
385.56	0.00
385.75	14.04
385.95	30.43
386.14	91.28
386.34	35.11
386.53	0.00
386.72	0.00
386.92	7.02
387.11	14.04
387.31	86.60
387.50	14.04
387.70	98.30
387.89	21.06
388.09	37.45
388.28	0.00
388.48	11.70
388.67	0.00
388.86	2.34
389.06	51.49
389.25	74.90
389.45	42.13
389.64	74.90
389.84	131.07
390.03	0.00
390.22	0.00
390.42	16.38
390.61	4.68
390.81	0.00
391.00	23.41
391.19	42.13
391.39	32.77
391.58	16.38
391.78	0.00
391.97	0.00
392.16	14.04
392.36	56.17
392.55	18.72
392.75	28.09
392.94	9.36
393.13	30.43
393.33	18.72
393.52	0.00
393.71	0.00
393.91	37.45
394.10	37.45
394.29	79.58
394.49	30.43
394.68	72.56
394.88	0.00
395.07	60.85
395.26	23.41
395.46	84.26
395.65	0.00
395.84	0.00
396.04	9.36
396.23	0.00
396.42	11.70
396.62	63.19
396.81	70.22
397.00	0.00
397.19	98.30
397.39	0.00
397.58	0.00
397.77	0.00
397.97	7.02
398.16	11.70
398.35	0.00
398.55	14.04
398.74	35.11
398.93	7.02
399.12	67.88
399.32	0.00
399.51	65.54
399.70	0.00
399.90	28.09
400.09	0.00
400.28	72.56
400.47	0.00
400.67	21.06
400.86	0.00
401.05	74.90
401.24	72.56
401.44	2.34
401.63	0.00
401.82	95.96
402.01	42.13
402.21	14.04
402.40	30.43
402.59	39.79
402.78	39.79
402.97	28.09
403.17	23.41
403.36	114.69
403.55	25.75
403.74	0.00
403.93	0.00
404.13	30.43
404.32	58.51
404.51	25.75
404.70	16.38
404.89	37.45
405.09	14.04
405.28	0.00
405.47	58.51
405.66	95.96
405.85	0.00
406.05	16.38
406.24	44.47
406.43	0.00
406.62	42.13
406.81	0.00
407.00	39.79
407.20	14.04
407.39	35.11
407.58	51.49
407.77	58.51
407.96	14.04
408.15	0.00
408.34	0.00
408.54	30.43
408.73	95.96
408.92	70.22
409.11	16.38
409.30	28.09
409.49	18.72
409.68	0.00
409.87	2.34
410.07	0.00
410.26	0.00
410.45	11.70
410.64	0.00
410.83	0.00
411.02	25.75
411.21	18.72
411.40	9.36
411.59	0.00
411.78	49.15
411.98	0.00
412.17	0.00
412.36	0.00
412.55	39.79
412.74	91.28
412.93	156.82
413.12	11.70
413.31	0.00
413.50	72.56
413.69	107.66
413.88	67.88
414.07	58.51
414.26	58.51
414.45	4.68
414.64	7.02
414.83	35.11
415.02	79.58
415.22	0.00
415.41	18.72
415.60	44.47
415.79	35.11
415.98	28.09
416.17	42.13
416.36	25.75
416.55	51.49
416.74	63.19
416.93	35.11
417.12	30.43
417.31	46.81
417.50	21.06
417.69	18.72
417.88	14.04
418.07	0.00
418.26	4.68
418.45	39.79
418.64	23.41
418.83	49.15
419.02	39.79
419.21	0.00
419.39	21.06
419.58	0.00
419.77	44.47
419.96	18.72
420.15	81.92
420.34	30.43
420.53	0.00
420.72	46.81
420.91	9.36
421.10	0.00
421.29	53.83
421.48	18.72
421.67	86.60
421.86	46.81
422.05	70.22
422.24	25.75
422.43	102.98
422.61	9.36
422.80	53.83
422.99	79.58
423.18	74.90
423.37	58.51
423.56	105.32
423.75	9.36
423.94	72.56
424.13	44.47
424.32	0.00
424.50	0.00
424.69	2.34
424.88	14.04
425.07	98.30
425.26	21.06
425.45	0.00
425.64	42.13
425.83	11.70
426.01	37.45
426.20	16.38
426.39	0.00
426.58	44.47
426.77	44.47
426.96	30.43
427.15	9.36
427.33	42.13
427.52	16.38
427.71	0.00
427.90	0.00
428.09	63.19
428.28	9.36
428.46	0.00
428.65	0.00
428.84	0.00
429.03	51.49
429.22	39.79
429.40	121.71
429.59	0.00
429.78	0.00
429.97	119.37
430.16	42.13
430.34	0.00
430.53	42.13
430.72	88.94
430.91	67.88
431.10	0.00
431.28	0.00
431.47	56.17
431.66	28.09
431.85	0.00
432.03	14.04
432.22	0.00
432.41	23.41
432.60	37.45
432.79	23.41
432.97	58.51
433.16	67.88
433.35	49.15
433.54	23.41
433.72	35.11
433.91	0.00
434.10	58.51
434.28	16.38
434.47	9.36
434.66	7.02
434.85	23.41
435.03	0.00
435.22	44.47
435.41	42.13
435.59	9.36
435.78	28.09
435.97	60.85
436.16	0.00
436.34	16.38
436.53	91.28
436.72	4.68
436.90	60.85
437.09	140.43
437.28	42.13
437.46	16.38
437.65	0.00
437.84	56.17
438.02	44.47
438.21	74.90
438.40	21.06
438.58	51.49
438.77	16.38
438.96	42.13
439.14	56.17
439.33	46.81
439.52	37.45
439.70	0.00
439.89	0.00
440.08	56.17
440.26	21.06
440.45	23.41
440.63	0.00
440.82	42.13
441.01	51.49
441.19	0.00
441.38	53.83
441.57	9.36
441.75	0.00
441.94	9.36
442.12	21.06
442.31	11.70
442.50	30.43
442.68	42.13
442.87	70.22
443.05	16.38
443.24	21.06
443.43	74.90
443.61	2.34
443.80	84.26
443.98	4.68
444.17	23.41
444.35	37.45
444.54	44.47
444.73	30.43
444.91	93.62
445.10	2.34
445.28	21.06
445.47	100.64
445.65	23.41
445.84	14.04
446.02	51.49
446.21	77.24
446.39	42.13
446.58	0.00
446.77	28.09
446.95	37.45
447.14	91.28
447.32	35.11
447.51	102.98
447.69	44.47
447.88	30.43
448.06	0.00
448.25	65.54
448.43	21.06
448.62	16.38
448.80	0.00
448.99	53.83
449.17	0.00
449.36	11.70
449.54	42.13
449.73	49.15
449.91	30.43
450.10	0.00
450.28	0.00
450.46	11.70
450.65	79.58
450.83	63.19
451.02	4.68
451.20	91.28
451.39	0.00
451.57	42.13
451.76	49.15
451.94	0.00
452.13	0.00
452.31	44.47
452.49	7.02
452.68	42.13
452.86	0.00
453.05	107.66
453.23	86.60
453.42	53.83
453.60	0.00
453.78	35.11
453.97	0.00
454.15	0.00
454.34	35.11
454.52	124.05
454.70	91.28
454.89	70.22
455.07	35.11
455.26	9.36
455.44	91.28
455.62	30.43
455.81	37.45
455.99	100.64
456.17	51.49
456.36	14.04
456.54	0.00
456.73	44.47
456.91	39.79
457.09	0.00
457.28	58.51
457.46	53.83
457.64	0.00
457.83	0.00
458.01	102.98
458.19	72.56
458.38	28.09
458.56	9.36
458.74	25.75
458.93	46.81
459.11	77.24
459.29	88.94
459.48	53.83
459.66	2.34
459.84	0.00
460.03	37.45
460.21	44.47
460.39	0.00
460.57	0.00
460.76	86.60
460.94	30.43
461.12	11.70
461.31	18.72
461.49	16.38
461.67	44.47
461.85	65.54
462.04	18.72
462.22	63.19
462.40	7.02
462.59	37.45
462.77	98.30
462.95	46.81
463.13	0.00
463.32	0.00
463.50	9.36
463.68	35.11
463.86	0.00
464.05	65.54
464.23	39.79
464.41	86.60
464.59	32.77
464.78	46.81
464.96	0.00
465.14	0.00
465.32	4.68
465.50	4.68
465.69	16.38
465.87	72.56
466.05	58.51
466.23	63.19
466.41	32.77
466.60	46.81
466.78	84.26
466.96	49.15
467.14	65.54
467.32	42.13
467.51	0.00
467.69	0.00
467.87	105.32
468.05	25.75
468.23	84.26
468.41	16.38
468.60	100.64
468.78	30.43
468.96	0.00
469.14	9.36
469.32	65.54
469.50	32.77
469.69	58.51
469.87	0.00
470.05	35.11
470.23	16.38
470.41	14.04
470.59	70.22
470.77	0.00
470.95	2.34
471.14	58.51
471.32	84.26
471.50	37.45
471.68	60.85
471.86	11.70
472.04	9.36
472.22	58.51
472.40	42.13
472.58	0.00
472.77	0.00
472.95	18.72
473.13	28.09
473.31	35.11
473.49	21.06
473.67	0.00
473.85	42.13
474.03	9.36
474.21	4.68
474.39	0.00
474.57	4.68
474.75	44.47
474.93	21.06
475.12	46.81
475.30	30.43
475.48	46.81
475.66	14.04
475.84	44.47
476.02	98.30
476.20	65.54
476.38	37.45
476.56	32.77
476.74	0.00
476.92	67.88
477.10	39.79
477.28	11.70
477.46	51.49
477.64	0.00
477.82	65.54
478.00	77.24
478.18	39.79
478.36	67.88
478.54	49.15
478.72	18.72
478.90	0.00
479.08	58.51
479.26	86.60
479.44	107.66
479.62	51.49
479.80	9.36
479.98	72.56
480.16	42.13
480.34	56.17
480.52	0.00
480.70	51.49
480.88	0.00
481.06	28.09
481.24	63.19
481.41	2.34
481.59	46.81
481.77	0.00
481.95	11.70
482.13	70.22
482.31	35.11
482.49	18.72
482.67	32.77
482.85	0.00
483.03	0.00
483.21	42.13
483.39	11.70
483.57	18.72
483.74	0.00
483.92	65.54
484.10	44.47
484.28	0.00
484.46	11.70
484.64	32.77
484.82	100.64
485.00	18.72
485.18	32.77
485.35	37.45
485.53	65.54
485.71	0.00
485.89	74.90
486.07	70.22
486.25	58.51
486.43	79.58
486.61	28.09
486.78	0.00
486.96	84.26
487.14	95.96
487.32	0.00
487.50	4.68
487.68	72.56
487.85	2.34
488.03	133.41
488.21	4.68
488.39	39.79
488.57	79.58
488.75	58.51
488.92	35.11
489.10	23.41
489.28	23.41
489.46	124.05
489.64	56.17
489.81	46.81
489.99	35.11
490.17	81.92
490.35	42.13
490.53	9.36
490.70	65.54
490.88	60.85
491.06	86.60
491.24	32.77
491.41	25.75
491.59	30.43
491.77	25.75
491.95	2.34
492.13	49.15
492.30	42.13
492.48	35.11
492.66	0.00
492.84	42.13
493.01	56.17
493.19	70.22
493.37	79.58
493.54	51.49
493.72	114.69
493.90	0.00
494.08	0.00
494.25	32.77
494.43	0.00
494.61	0.00
494.79	84.26
494.96	100.64
495.14	70.22
495.32	0.00
495.49	0.00
495.67	112.35
495.85	0.00
496.02	53.83
496.20	49.15
496.38	25.75
496.55	58.51
496.73	16.38
496.91	37.45
497.09	110.01
497.26	46.81
497.44	46.81
497.62	42.13
497.79	0.00
497.97	81.92
498.14	67.88
498.32	49.15
498.50	21.06
498.67	46.81
498.85	0.00
499.03	124.05
499.20	0.00
499.38	86.60
499.56	0.00
499.73	9.36
499.91	25.75
500.08	93.62
500.26	53.83
500.44	2.34
500.61	0.00
500.79	77.24
500.97	77.24
501.14	100.64
501.32	28.09
501.49	37.45
501.67	35.11
501.84	21.06
502.02	14.04
502.20	0.00
502.37	70.22
502.55	72.56
502.72	0.00
502.90	84.26
503.07	11.70
503.25	0.00
503.43	14.04
503.60	72.56
503.78	0.00
503.95	0.00
504.13	95.96
504.30	70.22
504.48	2.34
504.65	16.38
504.83	30.43
505.01	63.19
505.18	2.34
505.36	25.75
505.53	35.11
505.71	39.79
505.88	67.88
506.06	81.92
506.23	53.83
506.41	28.09
506.58	42.13
506.76	35.11
506.93	23.41
507.11	9.36
507.28	112.35
507.46	14.04
507.63	0.00
507.81	35.11
507.98	11.70
508.16	126.39
508.33	25.75
508.50	65.54
508.68	105.32
508.85	49.15
509.03	39.79
509.20	58.51
509.38	32.77
509.55	72.56
509.73	16.38
509.90	70.22
510.08	0.00
510.25	2.34
510.42	65.54
510.60	23.41
510.77	142.77
510.95	35.11
511.12	37.45
511.30	46.81
511.47	14.04
511.64	39.79
511.82	51.49
511.99	0.00
512.17	9.36
512.34	74.90
512.51	49.15
512.69	67.88
512.86	60.85
513.04	0.00
513.21	37.45
513.38	63.19
513.56	0.00
513.73	21.06
513.90	53.83
514.08	65.54
514.25	2.34
514.43	25.75
514.60	0.00
514.77	21.06
514.95	74.90
515.12	0.00
515.29	44.47
515.47	95.96
515.64	16.38
515.81	95.96
515.99	105.32
516.16	65.54
516.33	0.00
516.51	0.00
516.68	28.09
516.85	11.70
517.03	56.17
517.20	114.69
517.37	9.36
517.54	28.09
517.72	79.58
517.89	84.26
518.06	32.77
518.24	63.19
518.41	51.49
518.58	100.64
518.75	81.92
518.93	110.01
519.10	88.94
519.27	11.70
519.45	28.09
519.62	53.83
519.79	21.06
519.96	60.85
520.14	0.00
520.31	37.45
520.48	7.02
520.65	77.24
520.83	28.09
521.00	79.58
521.17	63.19
521.34	67.88
521.52	7.02
521.69	58.51
521.86	28.09
522.03	16.38
522.20	9.36
522.38	42.13
522.55	14.04
522.72	77.24
522.89	30.43
523.07	65.54
523.24	0.00
523.41	65.54
523.58	84.26
523.75	32.77
523.92	9.36
524.10	0.00
524.27	0.00
524.44	58.51
524.61	0.00
524.78	0.00
524.96	35.11
525.13	30.43
525.30	16.38
525.47	0.00
525.64	0.00
525.81	18.72
525.98	21.06
526.16	0.00
526.33	56.17
526.50	0.00
526.67	32.77
526.84	25.75
527.01	72.56
527.18	4.68
527.36	37.45
527.53	4.68
527.70	46.81
527.87	16.38
528.04	95.96
528.21	105.32
528.38	63.19
528.55	46.81
528.72	35.11
528.89	25.75
529.07	63.19
529.24	88.94
529.41	100.64
529.58	21.06
529.75	16.38
529.92	88.94
530.09	2.34
530.26	133.41
530.43	88.94
530.60	0.00
530.77	42.13
530.94	86.60
531.11	107.66
531.28	91.28
531.46	51.49
531.63	110.01
531.80	9.36
531.97	84.26
532.14	63.19
532.31	67.88
532.48	63.19
532.65	37.45
532.82	42.13
532.99	28.09
533.16	58.51
533.33	39.79
533.50	39.79
533.67	30.43
533.84	74.90
534.01	98.30
534.18	14.04
534.35	16.38
534.52	7.02
534.69	21.06
534.86	16.38
535.03	74.90
535.20	46.81
535.37	21.06
535.54	81.92
535.71	58.51
535.88	72.56
536.05	39.79
536.22	91.28
536.38	28.09
536.55	98.30
536.72	11.70
536.89	70.22
537.06	42.13
537.23	63.19
537.40	114.69
537.57	32.77
537.74	23.41
537.91	0.00
538.08	9.36
538.25	16.38
538.42	77.24
538.59	35.11
538.75	95.96
538.92	42.13
539.09	7.02
539.26	28.09
539.43	67.88
539.60	51.49
539.77	98.30
539.94	25.75
540.11	70.22
540.28	0.00
540.44	0.00
540.61	46.81
540.78	102.98
540.95	93.62
541.12	21.06
541.29	16.38
541.46	65.54
541.62	39.79
541.79	25.75
541.96	35.11
542.13	49.15
542.30	65.54
542.47	65.54
542.63	37.45
542.80	32.77
542.97	74.90
543.14	135.75
543.31	0.00
543.48	79.58
543.64	72.56
543.81	70.22
543.98	74.90
544.15	23.41
544.32	0.00
544.48	84.26
544.65	28.09
544.82	56.17
544.99	60.85
545.16	0.00
545.32	28.09
545.49	105.32
545.66	28.09
545.83	35.11
546.00	28.09
546.16	0.00
546.33	42.13
546.50	7.02
546.67	42.13
546.83	28.09
547.00	0.00
547.17	0.00
547.34	65.54
547.50	16.38
547.67	79.58
547.84	28.09
548.00	44.47
548.17	42.13
548.34	88.94
548.51	91.28
548.67	56.17
548.84	110.01
549.01	56.17
549.18	81.92
549.34	9.36
549.51	70.22
549.68	65.54
549.84	23.41
550.01	37.45
550.18	25.75
550.34	32.77
550.51	9.36
550.68	39.79
550.84	0.00
551.01	14.04
551.18	23.41
551.34	42.13
551.51	56.17
551.68	79.58
551.84	67.88
552.01	74.90
552.18	138.09
552.34	63.19
552.51	95.96
552.68	51.49
552.84	37.45
553.01	32.77
553.18	84.26
553.34	100.64
553.51	25.75
553.67	42.13
553.84	65.54
554.01	128.73
554.17	9.36
554.34	23.41
554.51	58.51
554.67	91.28
554.84	4.68
555.00	63.19
555.17	49.15
555.33	21.06
555.50	25.75
555.67	51.49
555.83	0.00
556.00	39.79
556.16	102.98
556.33	25.75
556.50	53.83
556.66	0.00
556.83	42.13
556.99	135.75
557.16	0.00
557.32	65.54
557.49	0.00
557.65	35.11
557.82	84.26
557.98	11.70
558.15	23.41
558.32	42.13
558.48	11.70
558.65	84.26
558.81	56.17
558.98	67.88
559.14	37.45
559.31	88.94
559.47	149.79
559.64	42.13
559.80	49.15
559.97	28.09
560.13	11.70
560.30	23.41
560.46	42.13
560.63	4.68
560.79	63.19
560.96	49.15
561.12	51.49
561.29	72.56
561.45	7.02
561.61	28.09
561.78	9.36
561.94	56.17
562.11	30.43
562.27	0.00
562.44	18.72
562.60	49.15
562.77	77.24
562.93	95.96
563.10	0.00
563.26	37.45
563.42	28.09
563.59	102.98
563.75	0.00
563.92	32.77
564.08	84.26
564.24	72.56
564.41	65.54
564.57	161.50
564.74	102.98
564.90	0.00
565.07	37.45
565.23	58.51
565.39	0.00
565.56	67.88
565.72	0.00
565.88	16.38
566.05	142.77
566.21	67.88
566.38	2.34
566.54	79.58
566.70	58.51
566.87	0.00
567.03	114.69
567.19	25.75
567.36	9.36
567.52	0.00
567.68	95.96
567.85	56.17
568.01	23.41
568.17	46.81
568.34	25.75
568.50	32.77
568.66	0.00
568.83	86.60
568.99	18.72
569.15	0.00
569.32	0.00
569.48	49.15
569.64	65.54
569.81	67.88
569.97	53.83
570.13	21.06
570.30	56.17
570.46	53.83
570.62	63.19
570.78	23.41
570.95	70.22
571.11	72.56
571.27	42.13
571.43	28.09
571.60	32.77
571.76	72.56
571.92	49.15
572.09	32.77
572.25	23.41
572.41	46.81
572.57	0.00
572.74	0.00
572.90	65.54
573.06	7.02
573.22	0.00
573.38	58.51
573.55	11.70
573.71	58.51
573.87	56.17
574.03	23.41
574.20	58.51
574.36	25.75
574.52	37.45
574.68	0.00
574.84	18.72
575.01	16.38
575.17	46.81
575.33	67.88
575.49	0.00
575.65	23.41
575.82	88.94
575.98	28.09
576.14	42.13
576.30	30.43
576.46	4.68
576.62	72.56
576.79	39.79
576.95	21.06
577.11	23.41
577.27	32.77
577.43	56.17
577.59	25.75
577.75	0.00
577.92	16.38
578.08	84.26
578.24	0.00
578.40	0.00
578.56	51.49
578.72	72.56
578.88	53.83
579.04	51.49
579.21	0.00
579.37	74.90
579.53	53.83
579.69	39.79
579.85	67.88
580.01	98.30
580.17	49.15
580.33	0.00
580.49	74.90
580.65	46.81
580.82	46.81
580.98	53.83
581.14	49.15
581.30	0.00
581.46	0.00
581.62	51.49
581.78	46.81
581.94	0.00
582.10	81.92
582.26	70.22
582.42	110.01
582.58	37.45
582.74	84.26
582.90	0.00
583.06	0.00
583.22	0.00
583.38	56.17
583.54	0.00
583.70	37.45
583.86	107.66
584.02	0.00
584.18	74.90
584.34	51.49
584.50	154.48
584.66	547.69
584.82	1137.50
584.98	1472.20
585.14	1256.87
585.30	798.12
585.46	486.83
585.62	320.65
585.78	142.77
585.94	65.54
586.10	154.48
586.26	51.49
586.42	84.26
586.58	46.81
586.74	88.94
586.90	142.77
587.06	18.72
587.22	86.60
587.38	28.09
587.54	42.13
587.70	105.32
587.86	77.24
588.02	128.73
588.18	105.32
588.34	79.58
588.49	119.37
588.65	25.75
588.81	79.58
588.97	9.36
589.13	110.01
589.29	65.54
589.45	0.00
589.61	46.81
589.77	0.00
589.93	28.09
590.08	49.15
590.24	37.45
590.40	14.04
590.56	18.72
590.72	86.60
590.88	16.38
591.04	2.34
591.20	9.36
591.35	30.43
591.51	44.47
591.67	86.60
591.83	63.19
591.99	23.41
592.15	63.19
592.31	135.75
592.46	56.17
592.62	56.17
592.78	35.11
592.94	0.00
593.10	53.83
593.26	4.68
593.41	0.00
593.57	53.83
593.73	0.00
593.89	100.64
594.05	175.54
594.20	198.95
594.36	208.31
594.52	112.35
594.68	72.56
594.84	112.35
594.99	60.85
595.15	51.49
595.31	65.54
595.47	7.02
595.62	81.92
595.78	93.62
595.94	42.13
596.10	152.13
596.25	11.70
596.41	0.00
596.57	65.54
596.73	18.72
596.88	49.15
597.04	86.60
597.20	32.77
597.36	46.81
597.51	65.54
597.67	14.04
597.83	30.43
597.99	91.28
598.14	0.00
598.30	14.04
598.46	32.77
598.61	72.56
598.77	46.81
598.93	14.04
599.09	4.68
599.24	53.83
599.40	32.77
599.56	149.79
599.71	14.04
599.87	56.17
600.03	2.34
600.18	23.41
600.34	119.37
600.50	67.88
600.65	60.85
600.81	0.00
600.97	23.41
601.12	77.24
601.28	53.83
601.44	81.92
601.59	56.17
601.75	0.00
601.91	65.54
602.06	49.15
602.22	81.92
602.37	110.01
602.53	86.60
602.69	131.07
602.84	91.28
603.00	86.60
603.16	65.54
603.31	0.00
603.47	60.85
603.62	49.15
603.78	121.71
603.94	0.00
604.09	107.66
604.25	25.75
604.40	44.47
604.56	46.81
604.71	28.09
604.87	63.19
605.03	51.49
605.18	63.19
605.34	32.77
605.49	42.13
605.65	44.47
605.80	35.11
605.96	107.66
606.12	77.24
606.27	0.00
606.43	0.00
606.58	35.11
606.74	49.15
606.89	138.09
607.05	217.67
607.20	140.43
607.36	189.58
607.51	196.60
607.67	98.30
607.82	77.24
607.98	46.81
608.13	37.45
608.29	63.19
608.44	23.41
608.60	51.49
608.75	35.11
608.91	105.32
609.06	182.56
609.22	229.37
609.37	299.59
609.53	283.20
609.68	191.92
609.84	93.62
609.99	37.45
610.15	72.56
610.30	30.43
610.46	25.75
610.61	60.85
610.76	0.00
610.92	28.09
611.07	49.15
611.23	23.41
611.38	93.62
611.54	42.13
611.69	21.06
611.84	0.00
612.00	37.45
612.15	0.00
612.31	46.81
612.46	4.68
612.62	4.68
612.77	100.64
612.92	28.09
613.08	7.02
613.23	79.58
613.39	56.17
613.54	28.09
613.69	250.44
613.85	367.46
614.00	435.34
614.15	393.21
614.31	348.74
614.46	227.03
614.62	152.13
614.77	77.24
614.92	88.94
615.08	16.38
615.23	53.83
615.38	9.36
615.54	84.26
615.69	23.41
615.84	58.51
616.00	175.54
616.15	168.52
616.30	140.43
616.46	72.56
616.61	2.34
616.76	56.17
616.92	49.15
617.07	49.15
617.22	32.77
617.37	77.24
617.53	67.88
617.68	39.79
617.83	30.43
617.99	7.02
618.14	23.41
618.29	35.11
618.45	23.41
618.60	9.36
618.75	0.00
618.90	72.56
619.06	72.56
619.21	77.24
619.36	100.64
619.51	0.00
619.67	35.11
619.82	107.66
619.97	21.06
620.12	133.41
620.28	70.22
620.43	37.45
620.58	0.00
620.73	39.79
620.89	30.43
621.04	121.71
621.19	35.11
621.34	79.58
621.49	159.16
621.65	28.09
621.80	46.81
621.95	0.00
622.10	74.90
622.25	0.00
622.41	46.81
622.56	114.69
622.71	84.26
622.86	21.06
623.01	16.38
623.16	79.58
623.32	44.47
623.47	93.62
623.62	32.77
623.77	72.56
623.92	51.49
624.07	35.11
624.23	21.06
624.38	65.54
624.53	67.88
624.68	35.11
624.83	39.79
624.98	65.54
625.13	0.00
625.29	79.58
625.44	11.70
625.59	39.79
625.74	0.00
625.89	58.51
626.04	74.90
626.19	173.20
626.34	259.80
626.49	273.84
626.65	224.69
626.80	145.11
626.95	168.52
627.10	51.49
627.25	14.04
627.40	42.13
627.55	49.15
627.70	58.51
627.85	18.72
628.00	0.00
628.15	44.47
628.30	0.00
628.45	53.83
628.60	70.22
628.76	74.90
628.91	23.41
629.06	18.72
629.21	49.15
629.36	42.13
629.51	63.19
629.66	147.45
629.81	32.77
629.96	67.88
630.11	86.60
630.26	23.41
630.41	93.62
630.56	88.94
630.71	9.36
630.86	46.81
631.01	0.00
631.16	21.06
631.31	77.24
631.46	107.66
631.61	53.83
631.76	21.06
631.91	14.04
632.06	131.07
632.21	35.11
632.36	28.09
632.51	105.32
632.66	95.96
632.81	37.45
632.96	67.88
633.10	163.84
633.25	231.71
633.40	177.88
633.55	124.05
633.70	53.83
633.85	91.28
634.00	23.41
634.15	21.06
634.30	44.47
634.45	32.77
634.60	0.00
634.75	30.43
634.90	0.00
635.05	72.56
635.19	88.94
635.34	74.90
635.49	0.00
635.64	37.45
635.79	58.51
635.94	0.00
636.09	0.00
636.24	28.09
636.39	0.00
636.53	11.70
636.68	0.00
636.83	7.02
636.98	91.28
637.13	0.00
637.28	0.00
637.43	2.34
637.57	9.36
637.72	138.09
637.87	227.03
638.02	372.15
638.17	374.49
638.32	266.82
638.46	175.54
638.61	145.11
638.76	49.15
638.91	28.09
639.06	81.92
639.20	7.02
639.35	18.72
639.50	42.13
639.65	128.73
639.80	313.63
639.94	433.00
640.09	386.19
640.24	262.14
640.39	241.08
640.54	203.63
640.68	184.90
640.83	49.15
640.98	44.47
641.13	46.81
641.27	11.70
641.42	4.68
641.57	42.13
641.72	93.62
641.86	49.15
642.01	86.60
642.16	44.47
642.31	39.79
642.45	16.38
642.60	25.75
642.75	32.77
642.90	0.00
643.04	28.09
643.19	4.68
643.34	67.88
643.48	23.41
643.63	25.75
643.78	37.45
643.93	77.24
644.07	23.41
644.22	2.34
644.37	81.92
644.51	102.98
644.66	65.54
644.81	49.15
644.95	49.15
645.10	0.00
645.25	65.54
645.39	51.49
645.54	2.34
645.69	67.88
645.83	39.79
645.98	107.66
646.13	16.38
646.27	74.90
646.42	0.00
646.57	30.43
646.71	56.17
646.86	35.11
647.00	14.04
647.15	9.36
647.30	84.26
647.44	21.06
647.59	16.38
647.74	32.77
647.88	44.47
648.03	37.45
648.17	35.11
648.32	60.85
648.47	30.43
648.61	0.00
648.76	44.47
648.90	0.00
649.05	23.41
649.20	77.24
649.34	51.49
649.49	14.04
649.63	42.13
649.78	35.11
649.92	72.56
650.07	131.07
650.21	159.16
650.36	227.03
650.51	236.39
650.65	252.78
650.80	198.95
650.94	114.69
651.09	105.32
651.23	44.47
651.38	74.90
651.52	72.56
651.67	53.83
651.81	60.85
651.96	0.00
652.10	81.92
652.25	0.00
652.39	0.00
652.54	0.00
652.68	65.54
652.83	51.49
652.97	119.37
653.12	95.96
653.26	77.24
653.41	46.81
653.55	42.13
653.70	30.43
653.84	79.58
653.99	86.60
654.13	37.45
654.27	0.00
654.42	35.11
654.56	65.54
654.71	49.15
654.85	14.04
655.00	39.79
655.14	0.00
655.29	37.45
655.43	44.47
655.57	44.47
655.72	39.79
655.86	49.15
656.01	72.56
656.15	46.81
656.30	60.85
656.44	23.41
656.58	35.11
656.73	42.13
656.87	58.51
657.01	42.13
657.16	0.00
657.30	67.88
657.45	70.22
657.59	44.47
657.73	95.96
657.88	72.56
658.02	0.00
658.16	42.13
658.31	2.34
658.45	0.00
658.60	56.17
658.74	51.49
658.88	49.15
659.03	9.36
659.17	58.51
659.31	56.17
659.46	142.77
659.60	166.18
659.74	184.90
659.89	67.88
660.03	95.96
660.17	58.51
660.32	16.38
660.46	0.00
660.60	79.58
660.74	70.22
660.89	70.22
661.03	30.43
661.17	79.58
661.32	65.54
661.46	30.43
661.60	0.00
661.74	46.81
661.89	18.72
662.03	0.00
662.17	23.41
662.31	0.00
662.46	0.00
662.60	53.83
662.74	37.45
662.88	28.09
663.03	7.02
663.17	46.81
663.31	0.00
663.45	88.94
663.60	39.79
663.74	25.75
663.88	84.26
664.02	46.81
664.17	0.00
664.31	2.34
664.45	23.41
664.59	51.49
664.73	84.26
664.88	7.02
665.02	42.13
665.16	77.24
665.30	4.68
665.44	42.13
665.59	67.88
665.73	25.75
665.87	23.41
666.01	0.00
666.15	0.00
666.29	67.88
666.44	51.49
666.58	56.17
666.72	0.00
666.86	105.32
667.00	0.00
667.14	35.11
667.28	51.49
667.43	140.43
667.57	227.03
667.71	248.10
667.85	159.16
667.99	245.76
668.13	102.98
668.27	42.13
668.41	56.17
668.56	60.85
668.70	39.79
668.84	39.79
668.98	44.47
669.12	37.45
669.26	79.58
669.40	30.43
669.54	0.00
669.68	7.02
669.82	14.04
669.96	23.41
670.10	49.15
670.25	42.13
670.39	100.64
670.53	114.69
670.67	70.22
670.81	84.26
670.95	65.54
671.09	30.43
671.23	70.22
671.37	135.75
671.51	163.84
671.65	203.63
671.79	126.39
671.93	152.13
672.07	58.51
672.21	21.06
672.35	28.09
672.49	42.13
672.63	67.88
672.77	58.51
672.91	35.11
673.05	14.04
673.19	32.77
673.33	95.96
673.47	65.54
673.61	9.36
673.75	46.81
673.89	11.70
674.03	112.35
674.17	67.88
674.31	112.35
674.45	35.11
674.59	112.35
674.73	30.43
674.87	0.00
675.01	74.90
675.15	44.47
675.29	88.94
675.43	81.92
675.56	70.22
675.70	51.49
675.84	28.09
675.98	30.43
676.12	21.06
676.26	0.00
676.40	32.77
676.54	32.77
676.68	72.56
676.82	4.68
676.96	0.00
677.10	0.00
677.23	0.00
677.37	11.70
677.51	0.00
677.65	25.75
677.79	18.72
677.93	42.13
678.07	14.04
678.21	74.90
678.34	53.83
678.48	23.41
678.62	0.00
678.76	0.00
678.90	142.77
679.04	28.09
679.18	0.00
679.31	30.43
679.45	77.24
679.59	0.00
679.73	18.72
679.87	25.75
680.00	4.68
680.14	46.81
680.28	58.51
680.42	0.00
680.56	74.90
680.70	44.47
680.83	56.17
680.97	0.00
681.11	21.06
681.25	18.72
681.39	35.11
681.52	93.62
681.66	49.15
681.80	28.09
681.94	0.00
682.07	7.02
682.21	44.47
682.35	2.34
682.49	79.58
682.62	0.00
682.76	74.90
682.90	25.75
683.04	0.00
683.17	9.36
683.31	56.17
683.45	2.34
683.59	100.64
683.72	14.04
683.86	9.36
684.00	51.49
684.13	18.72
684.27	51.49
684.41	0.00
684.55	49.15
684.68	0.00
684.82	49.15
684.96	7.02
685.09	74.90
685.23	28.09
685.37	49.15
685.50	84.26
685.64	44.47
685.78	65.54
685.91	42.13
686.05	56.17
686.19	35.11
686.32	35.11
686.46	84.26
686.60	81.92
686.73	11.70
686.87	58.51
687.01	51.49
687.14	0.00
687.28	0.00
687.42	0.00
687.55	11.70
687.69	37.45
687.82	81.92
687.96	25.75
688.10	0.00
688.23	16.38
688.37	30.43
688.50	42.13
688.64	4.68
688.78	16.38
688.91	58.51
689.05	9.36
689.18	35.11
689.32	30.43
689.46	25.75
689.59	14.04
689.73	0.00
689.86	18.72
690.00	0.00
690.13	79.58
690.27	0.00
690.41	0.00
690.54	35.11
690.68	51.49
690.81	28.09
690.95	60.85
691.08	0.00
691.22	11.70
691.35	32.77
691.49	18.72
691.62	21.06
691.76	0.00
691.89	0.00
692.03	46.81
692.16	21.06
692.30	46.81
692.43	74.90
692.57	0.00
692.70	84.26
692.84	84.26
692.97	119.37
693.11	37.45
693.24	37.45
693.38	84.26
693.51	46.81
693.65	51.49
693.78	0.00
693.92	0.00
694.05	0.00
694.19	16.38
694.32	0.00
694.45	18.72
694.59	25.75
694.72	84.26
694.86	0.00
694.99	23.41
695.13	74.90
695.26	2.34
695.39	16.38
695.53	39.79
695.66	0.00
695.80	14.04
695.93	9.36
696.07	21.06
696.20	105.32
696.33	28.09
696.47	63.19
696.60	0.00
696.73	18.72
696.87	53.83
697.00	91.28
697.14	25.75
697.27	56.17
697.40	70.22
697.54	35.11
697.67	128.73
697.80	46.81
697.94	0.00
698.07	0.00
698.21	56.17
698.34	0.00
698.47	30.43
698.61	28.09
698.74	18.72
698.87	7.02
699.01	37.45
699.14	86.60
699.27	4.68
699.40	23.41
699.54	0.00
699.67	46.81
699.80	0.00
699.94	14.04
700.07	9.36
700.20	25.75
700.34	37.45
700.47	44.47
700.60	0.00
700.73	25.75
700.87	32.77
701.00	63.19
701.13	18.72
701.26	67.88
701.40	35.11
701.53	35.11
701.66	58.51
701.79	49.15
701.93	51.49
702.06	0.00
702.19	23.41
702.32	0.00
702.46	88.94
702.59	28.09
702.72	30.43
702.85	91.28
702.99	60.85
703.12	140.43
703.25	222.35
703.38	140.43
703.51	105.32
703.65	88.94
703.78	9.36
703.91	42.13
704.04	56.17
704.17	91.28
704.31	0.00
704.44	86.60
704.57	28.09
704.70	11.70
704.83	39.79
704.96	39.79
705.10	88.94
705.23	16.38
>>>>>End Processed Spectral Data<<<<<
