SpectraSuite Data File
++++++++++++++++++++++++++++++++++++
Date: Fri Oct 04 12:13:27 GMT-05:00 2013
User: price-jones
Dark Spectrum Present: No
Reference Spectrum Present: No
Number of Sampled Component Spectra: 1
Spectrometers: USB2+H05261
Integration Time (usec): 10000 (USB2+H05261)
Spectra Averaged: 1 (USB2+H05261)
Boxcar Smoothing: 0 (USB2+H05261)
Correct for Electrical Dark: No (USB2+H05261)
Strobe/Lamp Enabled: No (USB2+H05261)
Correct for Detector Non-linearity: No (USB2+H05261)
Correct for Stray Light: No (USB2+H05261)
Number of Pixels in Processed Spectrum: 2048
>>>>>Begin Processed Spectral Data<<<<<
365.73	0.00
365.92	0.00
366.12	0.00
366.32	0.00
366.52	0.00
366.72	0.00
366.91	0.00
367.11	0.00
367.31	0.00
367.51	0.00
367.70	0.00
367.90	0.00
368.10	0.00
368.30	0.00
368.49	0.00
368.69	0.00
368.89	0.00
369.09	0.00
369.28	0.00
369.48	0.00
369.68	0.00
369.87	0.00
370.07	0.00
370.27	0.00
370.47	0.00
370.66	0.00
370.86	0.00
371.06	21.06
371.25	0.00
371.45	0.00
371.65	0.00
371.84	0.00
372.04	25.75
372.24	0.00
372.44	11.70
372.63	51.49
372.83	4.68
373.03	30.43
373.22	39.79
373.42	0.00
373.62	2.34
373.81	35.11
374.01	4.68
374.21	72.56
374.40	28.09
374.60	107.66
374.79	18.72
374.99	53.83
375.19	0.00
375.38	79.58
375.58	53.83
375.78	60.85
375.97	124.05
376.17	49.15
376.37	0.00
376.56	9.36
376.76	67.88
376.95	9.36
377.15	9.36
377.35	32.77
377.54	23.41
377.74	65.54
377.93	98.30
378.13	30.43
378.33	4.68
378.52	9.36
378.72	30.43
378.91	0.00
379.11	4.68
379.31	9.36
379.50	35.11
379.70	39.79
379.89	95.96
380.09	77.24
380.28	9.36
380.48	18.72
380.68	44.47
380.87	0.00
381.07	42.13
381.26	11.70
381.46	93.62
381.65	67.88
381.85	4.68
382.04	32.77
382.24	53.83
382.43	44.47
382.63	84.26
382.83	39.79
383.02	0.00
383.22	39.79
383.41	112.35
383.61	7.02
383.80	0.00
384.00	0.00
384.19	0.00
384.39	37.45
384.58	9.36
384.78	0.00
384.97	7.02
385.17	67.88
385.36	4.68
385.56	32.77
385.75	56.17
385.95	46.81
386.14	0.00
386.34	28.09
386.53	0.00
386.72	0.00
386.92	46.81
387.11	9.36
387.31	23.41
387.50	0.00
387.70	86.60
387.89	28.09
388.09	51.49
388.28	0.00
388.48	30.43
388.67	32.77
388.86	117.03
389.06	53.83
389.25	0.00
389.45	46.81
389.64	4.68
389.84	18.72
390.03	18.72
390.22	35.11
390.42	18.72
390.61	0.00
390.81	0.00
391.00	32.77
391.19	56.17
391.39	0.00
391.58	14.04
391.78	42.13
391.97	32.77
392.16	60.85
392.36	0.00
392.55	0.00
392.75	74.90
392.94	7.02
393.13	81.92
393.33	0.00
393.52	63.19
393.71	2.34
393.91	0.00
394.10	11.70
394.29	49.15
394.49	23.41
394.68	16.38
394.88	0.00
395.07	53.83
395.26	7.02
395.46	11.70
395.65	0.00
395.84	0.00
396.04	25.75
396.23	0.00
396.42	79.58
396.62	0.00
396.81	0.00
397.00	9.36
397.19	0.00
397.39	23.41
397.58	0.00
397.77	11.70
397.97	86.60
398.16	0.00
398.35	58.51
398.55	46.81
398.74	53.83
398.93	42.13
399.12	0.00
399.32	42.13
399.51	30.43
399.70	0.00
399.90	23.41
400.09	121.71
400.28	0.00
400.47	14.04
400.67	51.49
400.86	4.68
401.05	39.79
401.24	0.00
401.44	4.68
401.63	0.00
401.82	46.81
402.01	32.77
402.21	86.60
402.40	0.00
402.59	72.56
402.78	51.49
402.97	28.09
403.17	4.68
403.36	9.36
403.55	7.02
403.74	39.79
403.93	58.51
404.13	56.17
404.32	25.75
404.51	0.00
404.70	42.13
404.89	16.38
405.09	18.72
405.28	46.81
405.47	0.00
405.66	9.36
405.85	42.13
406.05	21.06
406.24	37.45
406.43	44.47
406.62	21.06
406.81	81.92
407.00	18.72
407.20	42.13
407.39	2.34
407.58	32.77
407.77	35.11
407.96	67.88
408.15	32.77
408.34	39.79
408.54	32.77
408.73	42.13
408.92	35.11
409.11	0.00
409.30	91.28
409.49	84.26
409.68	100.64
409.87	56.17
410.07	114.69
410.26	25.75
410.45	0.00
410.64	0.00
410.83	79.58
411.02	35.11
411.21	77.24
411.40	46.81
411.59	44.47
411.78	91.28
411.98	23.41
412.17	44.47
412.36	37.45
412.55	63.19
412.74	51.49
412.93	0.00
413.12	70.22
413.31	0.00
413.50	18.72
413.69	0.00
413.88	14.04
414.07	16.38
414.26	77.24
414.45	37.45
414.64	16.38
414.83	0.00
415.02	14.04
415.22	70.22
415.41	25.75
415.60	14.04
415.79	58.51
415.98	7.02
416.17	32.77
416.36	16.38
416.55	46.81
416.74	7.02
416.93	0.00
417.12	100.64
417.31	100.64
417.50	0.00
417.69	14.04
417.88	91.28
418.07	18.72
418.26	0.00
418.45	25.75
418.64	18.72
418.83	0.00
419.02	4.68
419.21	37.45
419.39	98.30
419.58	32.77
419.77	53.83
419.96	0.00
420.15	46.81
420.34	0.00
420.53	79.58
420.72	58.51
420.91	0.00
421.10	65.54
421.29	56.17
421.48	0.00
421.67	0.00
421.86	9.36
422.05	42.13
422.24	0.00
422.43	11.70
422.61	42.13
422.80	49.15
422.99	77.24
423.18	37.45
423.37	0.00
423.56	79.58
423.75	39.79
423.94	67.88
424.13	0.00
424.32	0.00
424.50	51.49
424.69	0.00
424.88	77.24
425.07	28.09
425.26	11.70
425.45	32.77
425.64	0.00
425.83	110.01
426.01	44.47
426.20	56.17
426.39	49.15
426.58	0.00
426.77	107.66
426.96	7.02
427.15	4.68
427.33	0.00
427.52	2.34
427.71	0.00
427.90	2.34
428.09	72.56
428.28	35.11
428.46	0.00
428.65	93.62
428.84	11.70
429.03	9.36
429.22	23.41
429.40	9.36
429.59	63.19
429.78	60.85
429.97	53.83
430.16	32.77
430.34	0.00
430.53	63.19
430.72	88.94
430.91	0.00
431.10	65.54
431.28	7.02
431.47	44.47
431.66	28.09
431.85	14.04
432.03	81.92
432.22	14.04
432.41	23.41
432.60	25.75
432.79	0.00
432.97	21.06
433.16	77.24
433.35	32.77
433.54	86.60
433.72	44.47
433.91	4.68
434.10	28.09
434.28	42.13
434.47	9.36
434.66	0.00
434.85	14.04
435.03	0.00
435.22	58.51
435.41	79.58
435.59	0.00
435.78	88.94
435.97	58.51
436.16	23.41
436.34	74.90
436.53	0.00
436.72	14.04
436.90	35.11
437.09	0.00
437.28	0.00
437.46	98.30
437.65	72.56
437.84	16.38
438.02	32.77
438.21	18.72
438.40	14.04
438.58	16.38
438.77	0.00
438.96	0.00
439.14	46.81
439.33	0.00
439.52	84.26
439.70	46.81
439.89	0.00
440.08	53.83
440.26	51.49
440.45	2.34
440.63	30.43
440.82	0.00
441.01	91.28
441.19	51.49
441.38	18.72
441.57	0.00
441.75	0.00
441.94	16.38
442.12	70.22
442.31	0.00
442.50	37.45
442.68	0.00
442.87	0.00
443.05	84.26
443.24	74.90
443.43	72.56
443.61	0.00
443.80	63.19
443.98	18.72
444.17	65.54
444.35	53.83
444.54	4.68
444.73	0.00
444.91	25.75
445.10	21.06
445.28	25.75
445.47	39.79
445.65	14.04
445.84	37.45
446.02	4.68
446.21	0.00
446.39	51.49
446.58	23.41
446.77	67.88
446.95	9.36
447.14	98.30
447.32	23.41
447.51	32.77
447.69	42.13
447.88	0.00
448.06	77.24
448.25	67.88
448.43	0.00
448.62	0.00
448.80	0.00
448.99	46.81
449.17	72.56
449.36	37.45
449.54	67.88
449.73	0.00
449.91	0.00
450.10	37.45
450.28	0.00
450.46	4.68
450.65	0.00
450.83	35.11
451.02	58.51
451.20	42.13
451.39	7.02
451.57	21.06
451.76	14.04
451.94	0.00
452.13	105.32
452.31	110.01
452.49	49.15
452.68	35.11
452.86	0.00
453.05	0.00
453.23	30.43
453.42	4.68
453.60	0.00
453.78	86.60
453.97	72.56
454.15	35.11
454.34	93.62
454.52	23.41
454.70	70.22
454.89	0.00
455.07	0.00
455.26	28.09
455.44	37.45
455.62	53.83
455.81	16.38
455.99	88.94
456.17	42.13
456.36	39.79
456.54	0.00
456.73	0.00
456.91	4.68
457.09	30.43
457.28	11.70
457.46	46.81
457.64	32.77
457.83	30.43
458.01	51.49
458.19	4.68
458.38	91.28
458.56	91.28
458.74	39.79
458.93	72.56
459.11	32.77
459.29	49.15
459.48	63.19
459.66	79.58
459.84	16.38
460.03	60.85
460.21	0.00
460.39	79.58
460.57	58.51
460.76	65.54
460.94	67.88
461.12	60.85
461.31	25.75
461.49	14.04
461.67	9.36
461.85	63.19
462.04	30.43
462.22	91.28
462.40	0.00
462.59	46.81
462.77	30.43
462.95	0.00
463.13	0.00
463.32	30.43
463.50	23.41
463.68	9.36
463.86	9.36
464.05	53.83
464.23	79.58
464.41	35.11
464.59	0.00
464.78	51.49
464.96	9.36
465.14	0.00
465.32	79.58
465.50	37.45
465.69	14.04
465.87	88.94
466.05	72.56
466.23	70.22
466.41	39.79
466.60	67.88
466.78	65.54
466.96	32.77
467.14	2.34
467.32	14.04
467.51	74.90
467.69	88.94
467.87	49.15
468.05	42.13
468.23	0.00
468.41	58.51
468.60	77.24
468.78	32.77
468.96	28.09
469.14	7.02
469.32	53.83
469.50	93.62
469.69	51.49
469.87	0.00
470.05	32.77
470.23	63.19
470.41	0.00
470.59	84.26
470.77	81.92
470.95	18.72
471.14	84.26
471.32	30.43
471.50	9.36
471.68	11.70
471.86	142.77
472.04	46.81
472.22	0.00
472.40	77.24
472.58	25.75
472.77	84.26
472.95	4.68
473.13	0.00
473.31	72.56
473.49	0.00
473.67	60.85
473.85	37.45
474.03	58.51
474.21	56.17
474.39	0.00
474.57	28.09
474.75	21.06
474.93	63.19
475.12	51.49
475.30	0.00
475.48	0.00
475.66	0.00
475.84	16.38
476.02	18.72
476.20	51.49
476.38	30.43
476.56	58.51
476.74	44.47
476.92	37.45
477.10	30.43
477.28	21.06
477.46	0.00
477.64	0.00
477.82	28.09
478.00	88.94
478.18	67.88
478.36	23.41
478.54	0.00
478.72	46.81
478.90	77.24
479.08	0.00
479.26	51.49
479.44	2.34
479.62	107.66
479.80	7.02
479.98	14.04
480.16	9.36
480.34	11.70
480.52	0.00
480.70	0.00
480.88	49.15
481.06	0.00
481.24	0.00
481.41	70.22
481.59	53.83
481.77	0.00
481.95	0.00
482.13	67.88
482.31	0.00
482.49	39.79
482.67	81.92
482.85	35.11
483.03	4.68
483.21	25.75
483.39	0.00
483.57	49.15
483.74	32.77
483.92	2.34
484.10	16.38
484.28	77.24
484.46	51.49
484.64	0.00
484.82	0.00
485.00	72.56
485.18	35.11
485.35	0.00
485.53	44.47
485.71	37.45
485.89	124.05
486.07	49.15
486.25	65.54
486.43	63.19
486.61	0.00
486.78	79.58
486.96	70.22
487.14	11.70
487.32	0.00
487.50	37.45
487.68	14.04
487.85	67.88
488.03	93.62
488.21	46.81
488.39	25.75
488.57	0.00
488.75	42.13
488.92	98.30
489.10	30.43
489.28	81.92
489.46	72.56
489.64	16.38
489.81	0.00
489.99	42.13
490.17	21.06
490.35	30.43
490.53	46.81
490.70	63.19
490.88	79.58
491.06	0.00
491.24	74.90
491.41	18.72
491.59	72.56
491.77	84.26
491.95	98.30
492.13	39.79
492.30	72.56
492.48	28.09
492.66	63.19
492.84	21.06
493.01	79.58
493.19	81.92
493.37	49.15
493.54	77.24
493.72	67.88
493.90	53.83
494.08	16.38
494.25	28.09
494.43	4.68
494.61	28.09
494.79	2.34
494.96	44.47
495.14	35.11
495.32	11.70
495.49	63.19
495.67	0.00
495.85	0.00
496.02	30.43
496.20	0.00
496.38	0.00
496.55	11.70
496.73	30.43
496.91	30.43
497.09	2.34
497.26	7.02
497.44	49.15
497.62	0.00
497.79	32.77
497.97	0.00
498.14	25.75
498.32	67.88
498.50	32.77
498.67	58.51
498.85	58.51
499.03	63.19
499.20	30.43
499.38	28.09
499.56	14.04
499.73	42.13
499.91	0.00
500.08	7.02
500.26	70.22
500.44	7.02
500.61	23.41
500.79	67.88
500.97	95.96
501.14	70.22
501.32	28.09
501.49	35.11
501.67	14.04
501.84	18.72
502.02	63.19
502.20	14.04
502.37	0.00
502.55	53.83
502.72	72.56
502.90	88.94
503.07	4.68
503.25	49.15
503.43	58.51
503.60	35.11
503.78	102.98
503.95	23.41
504.13	53.83
504.30	77.24
504.48	77.24
504.65	11.70
504.83	21.06
505.01	28.09
505.18	79.58
505.36	23.41
505.53	0.00
505.71	14.04
505.88	0.00
506.06	51.49
506.23	42.13
506.41	0.00
506.58	30.43
506.76	44.47
506.93	74.90
507.11	70.22
507.28	32.77
507.46	51.49
507.63	46.81
507.81	14.04
507.98	84.26
508.16	42.13
508.33	86.60
508.50	0.00
508.68	67.88
508.85	95.96
509.03	0.00
509.20	110.01
509.38	56.17
509.55	72.56
509.73	42.13
509.90	23.41
510.08	49.15
510.25	37.45
510.42	39.79
510.60	49.15
510.77	74.90
510.95	37.45
511.12	4.68
511.30	0.00
511.47	67.88
511.64	81.92
511.82	0.00
511.99	0.00
512.17	81.92
512.34	37.45
512.51	16.38
512.69	79.58
512.86	105.32
513.04	81.92
513.21	35.11
513.38	46.81
513.56	51.49
513.73	28.09
513.90	25.75
514.08	0.00
514.25	86.60
514.43	112.35
514.60	60.85
514.77	28.09
514.95	84.26
515.12	60.85
515.29	51.49
515.47	51.49
515.64	9.36
515.81	72.56
515.99	21.06
516.16	25.75
516.33	0.00
516.51	32.77
516.68	60.85
516.85	86.60
517.03	84.26
517.20	77.24
517.37	42.13
517.54	0.00
517.72	91.28
517.89	0.00
518.06	42.13
518.24	46.81
518.41	0.00
518.58	18.72
518.75	60.85
518.93	30.43
519.10	39.79
519.27	58.51
519.45	44.47
519.62	51.49
519.79	42.13
519.96	117.03
520.14	7.02
520.31	23.41
520.48	44.47
520.65	63.19
520.83	0.00
521.00	37.45
521.17	49.15
521.34	110.01
521.52	0.00
521.69	60.85
521.86	0.00
522.03	72.56
522.20	4.68
522.38	91.28
522.55	65.54
522.72	14.04
522.89	28.09
523.07	30.43
523.24	25.75
523.41	0.00
523.58	51.49
523.75	18.72
523.92	0.00
524.10	44.47
524.27	21.06
524.44	107.66
524.61	65.54
524.78	21.06
524.96	9.36
525.13	95.96
525.30	70.22
525.47	42.13
525.64	0.00
525.81	11.70
525.98	72.56
526.16	42.13
526.33	107.66
526.50	28.09
526.67	102.98
526.84	30.43
527.01	44.47
527.18	0.00
527.36	32.77
527.53	0.00
527.70	0.00
527.87	58.51
528.04	53.83
528.21	72.56
528.38	81.92
528.55	84.26
528.72	86.60
528.89	21.06
529.07	58.51
529.24	86.60
529.41	42.13
529.58	0.00
529.75	63.19
529.92	70.22
530.09	79.58
530.26	51.49
530.43	28.09
530.60	70.22
530.77	58.51
530.94	98.30
531.11	65.54
531.28	21.06
531.46	44.47
531.63	0.00
531.80	0.00
531.97	53.83
532.14	0.00
532.31	77.24
532.48	58.51
532.65	0.00
532.82	91.28
532.99	81.92
533.16	11.70
533.33	0.00
533.50	51.49
533.67	77.24
533.84	14.04
534.01	63.19
534.18	74.90
534.35	23.41
534.52	51.49
534.69	37.45
534.86	7.02
535.03	56.17
535.20	35.11
535.37	0.00
535.54	0.00
535.71	30.43
535.88	86.60
536.05	65.54
536.22	37.45
536.38	30.43
536.55	49.15
536.72	7.02
536.89	32.77
537.06	0.00
537.23	65.54
537.40	128.73
537.57	16.38
537.74	0.00
537.91	30.43
538.08	46.81
538.25	98.30
538.42	131.07
538.59	74.90
538.75	0.00
538.92	9.36
539.09	77.24
539.26	88.94
539.43	60.85
539.60	117.03
539.77	154.48
539.94	135.75
540.11	65.54
540.28	63.19
540.44	2.34
540.61	16.38
540.78	60.85
540.95	0.00
541.12	0.00
541.29	58.51
541.46	32.77
541.62	65.54
541.79	21.06
541.96	18.72
542.13	9.36
542.30	110.01
542.47	81.92
542.63	65.54
542.80	98.30
542.97	28.09
543.14	37.45
543.31	65.54
543.48	25.75
543.64	35.11
543.81	42.13
543.98	9.36
544.15	42.13
544.32	25.75
544.48	16.38
544.65	79.58
544.82	46.81
544.99	58.51
545.16	42.13
545.32	11.70
545.49	53.83
545.66	114.69
545.83	30.43
546.00	65.54
546.16	63.19
546.33	53.83
546.50	18.72
546.67	23.41
546.83	121.71
547.00	0.00
547.17	51.49
547.34	0.00
547.50	0.00
547.67	46.81
547.84	0.00
548.00	86.60
548.17	25.75
548.34	46.81
548.51	95.96
548.67	30.43
548.84	35.11
549.01	60.85
549.18	0.00
549.34	14.04
549.51	58.51
549.68	67.88
549.84	4.68
550.01	79.58
550.18	70.22
550.34	86.60
550.51	58.51
550.68	30.43
550.84	58.51
551.01	0.00
551.18	0.00
551.34	138.09
551.51	56.17
551.68	74.90
551.84	0.00
552.01	60.85
552.18	18.72
552.34	42.13
552.51	98.30
552.68	74.90
552.84	9.36
553.01	58.51
553.18	28.09
553.34	21.06
553.51	35.11
553.67	11.70
553.84	95.96
554.01	35.11
554.17	30.43
554.34	74.90
554.51	39.79
554.67	100.64
554.84	14.04
555.00	88.94
555.17	51.49
555.33	63.19
555.50	16.38
555.67	35.11
555.83	53.83
556.00	114.69
556.16	23.41
556.33	28.09
556.50	28.09
556.66	51.49
556.83	0.00
556.99	46.81
557.16	72.56
557.32	9.36
557.49	0.00
557.65	53.83
557.82	86.60
557.98	77.24
558.15	42.13
558.32	35.11
558.48	72.56
558.65	91.28
558.81	74.90
558.98	30.43
559.14	0.00
559.31	77.24
559.47	79.58
559.64	44.47
559.80	30.43
559.97	0.00
560.13	23.41
560.30	28.09
560.46	105.32
560.63	0.00
560.79	0.00
560.96	63.19
561.12	100.64
561.29	39.79
561.45	30.43
561.61	0.00
561.78	95.96
561.94	77.24
562.11	46.81
562.27	60.85
562.44	65.54
562.60	77.24
562.77	63.19
562.93	23.41
563.10	30.43
563.26	58.51
563.42	86.60
563.59	42.13
563.75	9.36
563.92	84.26
564.08	37.45
564.24	23.41
564.41	42.13
564.57	11.70
564.74	44.47
564.90	0.00
565.07	58.51
565.23	102.98
565.39	58.51
565.56	86.60
565.72	67.88
565.88	60.85
566.05	58.51
566.21	86.60
566.38	100.64
566.54	79.58
566.70	0.00
566.87	28.09
567.03	0.00
567.19	117.03
567.36	28.09
567.52	84.26
567.68	86.60
567.85	42.13
568.01	0.00
568.17	42.13
568.34	14.04
568.50	21.06
568.66	84.26
568.83	72.56
568.99	60.85
569.15	0.00
569.32	88.94
569.48	25.75
569.64	121.71
569.81	51.49
569.97	32.77
570.13	37.45
570.30	60.85
570.46	53.83
570.62	42.13
570.78	102.98
570.95	107.66
571.11	72.56
571.27	7.02
571.43	4.68
571.60	7.02
571.76	74.90
571.92	49.15
572.09	86.60
572.25	79.58
572.41	0.00
572.57	0.00
572.74	9.36
572.90	42.13
573.06	37.45
573.22	46.81
573.38	74.90
573.55	35.11
573.71	39.79
573.87	39.79
574.03	0.00
574.20	46.81
574.36	56.17
574.52	63.19
574.68	81.92
574.84	25.75
575.01	58.51
575.17	86.60
575.33	0.00
575.49	39.79
575.65	14.04
575.82	58.51
575.98	35.11
576.14	51.49
576.30	77.24
576.46	51.49
576.62	28.09
576.79	39.79
576.95	117.03
577.11	18.72
577.27	46.81
577.43	56.17
577.59	4.68
577.75	58.51
577.92	0.00
578.08	79.58
578.24	84.26
578.40	23.41
578.56	58.51
578.72	67.88
578.88	72.56
579.04	86.60
579.21	58.51
579.37	67.88
579.53	23.41
579.69	65.54
579.85	60.85
580.01	121.71
580.17	67.88
580.33	35.11
580.49	0.00
580.65	0.00
580.82	32.77
580.98	46.81
581.14	65.54
581.30	25.75
581.46	67.88
581.62	147.45
581.78	74.90
581.94	95.96
582.10	107.66
582.26	11.70
582.42	18.72
582.58	79.58
582.74	11.70
582.90	72.56
583.06	63.19
583.22	51.49
583.38	32.77
583.54	23.41
583.70	53.83
583.86	70.22
584.02	53.83
584.18	77.24
584.34	63.19
584.50	276.18
584.66	1783.49
584.82	4486.81
584.98	6216.46
585.14	5551.75
585.30	3412.50
585.46	2120.53
585.62	1404.32
585.78	519.60
585.94	264.48
586.10	147.45
586.26	110.01
586.42	53.83
586.58	91.28
586.74	42.13
586.90	93.62
587.06	18.72
587.22	39.79
587.38	102.98
587.54	126.39
587.70	280.86
587.86	456.40
588.02	528.96
588.18	362.78
588.34	182.56
588.49	212.99
588.65	53.83
588.81	60.85
588.97	0.00
589.13	74.90
589.29	0.00
589.45	44.47
589.61	72.56
589.77	25.75
589.93	11.70
590.08	72.56
590.24	49.15
590.40	65.54
590.56	72.56
590.72	39.79
590.88	65.54
591.04	0.00
591.20	77.24
591.35	28.09
591.51	42.13
591.67	79.58
591.83	58.51
591.99	35.11
592.15	21.06
592.31	63.19
592.46	39.79
592.62	23.41
592.78	32.77
592.94	77.24
593.10	25.75
593.26	42.13
593.41	30.43
593.57	46.81
593.73	0.00
593.89	266.82
594.05	540.66
594.20	926.85
594.36	791.10
594.52	517.26
594.68	299.59
594.84	231.71
594.99	149.79
595.15	124.05
595.31	65.54
595.47	32.77
595.62	70.22
595.78	49.15
595.94	18.72
596.10	107.66
596.25	0.00
596.41	42.13
596.57	65.54
596.73	63.19
596.88	121.71
597.04	88.94
597.20	205.97
597.36	222.35
597.51	184.90
597.67	110.01
597.83	77.24
597.99	58.51
598.14	7.02
598.30	77.24
598.46	9.36
598.61	72.56
598.77	25.75
598.93	28.09
599.09	0.00
599.24	95.96
599.40	72.56
599.56	9.36
599.71	37.45
599.87	21.06
600.03	2.34
600.18	0.00
600.34	4.68
600.50	49.15
600.65	58.51
600.81	58.51
600.97	16.38
601.12	0.00
601.28	88.94
601.44	28.09
601.59	0.00
601.75	32.77
601.91	84.26
602.06	28.09
602.22	51.49
602.37	70.22
602.53	117.03
602.69	306.61
602.84	227.03
603.00	217.67
603.16	124.05
603.31	128.73
603.47	16.38
603.62	28.09
603.78	74.90
603.94	11.70
604.09	56.17
604.25	133.41
604.40	53.83
604.56	79.58
604.71	95.96
604.87	35.11
605.03	107.66
605.18	70.22
605.34	58.51
605.49	7.02
605.65	49.15
605.80	7.02
605.96	30.43
606.12	119.37
606.27	28.09
606.43	51.49
606.58	51.49
606.74	131.07
606.89	330.02
607.05	578.11
607.20	746.63
607.36	571.09
607.51	475.13
607.67	290.23
607.82	271.50
607.98	175.54
608.13	145.11
608.29	53.83
608.44	16.38
608.60	4.68
608.75	28.09
608.91	168.52
609.06	468.11
609.22	952.60
609.37	1196.01
609.53	1015.79
609.68	596.84
609.84	458.74
609.99	294.91
610.15	175.54
610.30	135.75
610.46	44.47
610.61	72.56
610.76	32.77
610.92	30.43
611.07	46.81
611.23	25.75
611.38	86.60
611.54	95.96
611.69	18.72
611.84	25.75
612.00	9.36
612.15	42.13
612.31	100.64
612.46	81.92
612.62	91.28
612.77	128.73
612.92	70.22
613.08	44.47
613.23	56.17
613.39	49.15
613.54	67.88
613.69	482.15
613.85	1139.84
614.00	1717.95
614.15	1865.41
614.31	1394.96
614.46	870.68
614.62	594.50
614.77	383.85
614.92	205.97
615.08	93.62
615.23	0.00
615.38	86.60
615.54	84.26
615.69	198.95
615.84	245.76
616.00	409.59
616.15	606.20
616.30	482.15
616.46	301.93
616.61	220.01
616.76	95.96
616.92	32.77
617.07	39.79
617.22	11.70
617.37	32.77
617.53	91.28
617.68	21.06
617.83	39.79
617.99	28.09
618.14	65.54
618.29	44.47
618.45	58.51
618.60	56.17
618.75	42.13
618.90	0.00
619.06	42.13
619.21	81.92
619.36	42.13
619.51	44.47
619.67	0.00
619.82	25.75
619.97	18.72
620.12	0.00
620.28	0.00
620.43	9.36
620.58	77.24
620.73	30.43
620.89	65.54
621.04	63.19
621.19	117.03
621.34	212.99
621.49	355.76
621.65	227.03
621.80	184.90
621.95	93.62
622.10	112.35
622.25	4.68
622.41	23.41
622.56	2.34
622.71	53.83
622.86	67.88
623.01	72.56
623.16	28.09
623.32	81.92
623.47	25.75
623.62	42.13
623.77	32.77
623.92	74.90
624.07	74.90
624.23	107.66
624.38	28.09
624.53	74.90
624.68	46.81
624.83	107.66
624.98	30.43
625.13	105.32
625.29	65.54
625.44	16.38
625.59	79.58
625.74	46.81
625.89	77.24
626.04	210.65
626.19	554.71
626.34	880.04
626.49	983.02
626.65	744.29
626.80	507.90
626.95	313.63
627.10	264.48
627.25	243.42
627.40	84.26
627.55	11.70
627.70	60.85
627.85	74.90
628.00	28.09
628.15	58.51
628.30	51.49
628.45	2.34
628.60	51.49
628.76	51.49
628.91	30.43
629.06	60.85
629.21	84.26
629.36	72.56
629.51	114.69
629.66	25.75
629.81	42.13
629.96	95.96
630.11	161.50
630.26	250.44
630.41	177.88
630.56	198.95
630.71	126.39
630.86	110.01
631.01	112.35
631.16	0.00
631.31	23.41
631.46	53.83
631.61	77.24
631.76	28.09
631.91	0.00
632.06	23.41
632.21	70.22
632.36	56.17
632.51	79.58
632.66	145.11
632.81	67.88
632.96	241.08
633.10	559.39
633.25	758.33
633.40	463.43
633.55	463.43
633.70	304.27
633.85	189.58
634.00	114.69
634.15	70.22
634.30	9.36
634.45	77.24
634.60	49.15
634.75	79.58
634.90	4.68
635.05	63.19
635.19	23.41
635.34	0.00
635.49	0.00
635.64	81.92
635.79	0.00
635.94	74.90
636.09	28.09
636.24	65.54
636.39	23.41
636.53	4.68
636.68	2.34
636.83	11.70
636.98	18.72
637.13	35.11
637.28	0.00
637.43	0.00
637.57	117.03
637.72	306.61
637.87	809.83
638.02	1177.29
638.17	1188.99
638.32	947.92
638.46	645.99
638.61	372.15
638.76	325.33
638.91	121.71
639.06	88.94
639.20	58.51
639.35	46.81
639.50	86.60
639.65	451.72
639.80	1139.84
639.94	1764.76
640.09	1959.03
640.24	1434.75
640.39	1090.69
640.54	650.67
640.68	437.68
640.83	215.33
640.98	79.58
641.13	86.60
641.27	110.01
641.42	65.54
641.57	102.98
641.72	25.75
641.86	67.88
642.01	0.00
642.16	112.35
642.31	124.05
642.45	128.73
642.60	37.45
642.75	28.09
642.90	35.11
643.04	32.77
643.19	49.15
643.34	100.64
643.48	79.58
643.63	51.49
643.78	37.45
643.93	49.15
644.07	65.54
644.22	9.36
644.37	79.58
644.51	44.47
644.66	0.00
644.81	21.06
644.95	37.45
645.10	60.85
645.25	63.19
645.39	0.00
645.54	37.45
645.69	0.00
645.83	39.79
645.98	88.94
646.13	86.60
646.27	35.11
646.42	46.81
646.57	84.26
646.71	0.00
646.86	16.38
647.00	58.51
647.15	51.49
647.30	53.83
647.44	16.38
647.59	35.11
647.74	0.00
647.88	0.00
648.03	0.00
648.17	28.09
648.32	49.15
648.47	39.79
648.61	9.36
648.76	107.66
648.90	67.88
649.05	65.54
649.20	18.72
649.34	2.34
649.49	65.54
649.63	77.24
649.78	11.70
649.92	42.13
650.07	182.56
650.21	521.94
650.36	814.51
650.51	961.96
650.65	809.83
650.80	641.31
650.94	433.00
651.09	250.44
651.23	170.86
651.38	32.77
651.52	58.51
651.67	18.72
651.81	37.45
651.96	25.75
652.10	126.39
652.25	16.38
652.39	65.54
652.54	46.81
652.68	98.30
652.83	154.48
652.97	217.67
653.12	381.51
653.26	430.66
653.41	297.25
653.55	126.39
653.70	74.90
653.84	119.37
653.99	51.49
654.13	7.02
654.27	7.02
654.42	65.54
654.56	72.56
654.71	4.68
654.85	16.38
655.00	30.43
655.14	0.00
655.29	70.22
655.43	23.41
655.57	58.51
655.72	44.47
655.86	28.09
656.01	49.15
656.15	98.30
656.30	32.77
656.44	23.41
656.58	86.60
656.73	25.75
656.87	42.13
657.01	0.00
657.16	30.43
657.30	51.49
657.45	46.81
657.59	21.06
657.73	0.00
657.88	84.26
658.02	16.38
658.16	0.00
658.31	0.00
658.45	65.54
658.60	95.96
658.74	49.15
658.88	11.70
659.03	44.47
659.17	9.36
659.31	93.62
659.46	285.55
659.60	433.00
659.74	559.39
659.89	500.87
660.03	383.85
660.17	266.82
660.32	84.26
660.46	88.94
660.60	25.75
660.74	51.49
660.89	51.49
661.03	49.15
661.17	44.47
661.32	51.49
661.46	0.00
661.60	44.47
661.74	42.13
661.89	100.64
662.03	7.02
662.17	0.00
662.31	0.00
662.46	51.49
662.60	0.00
662.74	18.72
662.88	88.94
663.03	58.51
663.17	49.15
663.31	16.38
663.45	23.41
663.60	81.92
663.74	74.90
663.88	0.00
664.02	72.56
664.17	70.22
664.31	37.45
664.45	110.01
664.59	0.00
664.73	60.85
664.88	14.04
665.02	81.92
665.16	51.49
665.30	100.64
665.44	9.36
665.59	60.85
665.73	25.75
665.87	58.51
666.01	0.00
666.15	42.13
666.29	16.38
666.44	56.17
666.58	72.56
666.72	9.36
666.86	23.41
667.00	72.56
667.14	112.35
667.28	149.79
667.43	437.68
667.57	716.20
667.71	880.04
667.85	758.33
667.99	557.05
668.13	355.76
668.27	217.67
668.41	110.01
668.56	121.71
668.70	63.19
668.84	2.34
668.98	23.41
669.12	42.13
669.26	0.00
669.40	9.36
669.54	0.00
669.68	67.88
669.82	0.00
669.96	21.06
670.10	72.56
670.25	88.94
670.39	42.13
670.53	0.00
670.67	23.41
670.81	53.83
670.95	107.66
671.09	32.77
671.23	152.13
671.37	365.12
671.51	543.00
671.65	533.64
671.79	475.13
671.93	269.16
672.07	140.43
672.21	37.45
672.35	0.00
672.49	81.92
672.63	42.13
672.77	28.09
672.91	16.38
673.05	16.38
673.19	2.34
673.33	0.00
673.47	51.49
673.61	74.90
673.75	37.45
673.89	30.43
674.03	65.54
674.17	2.34
674.31	67.88
674.45	0.00
674.59	70.22
674.73	0.00
674.87	63.19
675.01	0.00
675.15	2.34
675.29	21.06
675.43	14.04
675.56	28.09
675.70	58.51
675.84	121.71
675.98	77.24
676.12	0.00
676.26	65.54
676.40	18.72
676.54	0.00
676.68	23.41
676.82	25.75
676.96	9.36
677.10	28.09
677.23	39.79
677.37	44.47
677.51	0.00
677.65	91.28
677.79	0.00
677.93	2.34
678.07	53.83
678.21	70.22
678.34	110.01
678.48	16.38
678.62	81.92
678.76	88.94
678.90	16.38
679.04	7.02
679.18	0.00
679.31	7.02
679.45	21.06
679.59	60.85
679.73	39.79
679.87	51.49
680.00	81.92
680.14	51.49
680.28	25.75
680.42	86.60
680.56	11.70
680.70	9.36
680.83	4.68
680.97	63.19
681.11	56.17
681.25	30.43
681.39	35.11
681.52	14.04
681.66	35.11
681.80	86.60
681.94	0.00
682.07	0.00
682.21	44.47
682.35	37.45
682.49	65.54
682.62	70.22
682.76	72.56
682.90	23.41
683.04	4.68
683.17	37.45
683.31	88.94
683.45	25.75
683.59	0.00
683.72	39.79
683.86	35.11
684.00	98.30
684.13	102.98
684.27	63.19
684.41	117.03
684.55	21.06
684.68	49.15
684.82	98.30
684.96	35.11
685.09	77.24
685.23	46.81
685.37	44.47
685.50	37.45
685.64	91.28
685.78	16.38
685.91	16.38
686.05	91.28
686.19	107.66
686.32	65.54
686.46	4.68
686.60	14.04
686.73	0.00
686.87	14.04
687.01	32.77
687.14	16.38
687.28	91.28
687.42	53.83
687.55	91.28
687.69	0.00
687.82	112.35
687.96	46.81
688.10	0.00
688.23	51.49
688.37	46.81
688.50	77.24
688.64	72.56
688.78	79.58
688.91	0.00
689.05	37.45
689.18	98.30
689.32	7.02
689.46	0.00
689.59	70.22
689.73	0.00
689.86	46.81
690.00	28.09
690.13	32.77
690.27	0.00
690.41	18.72
690.54	58.51
690.68	28.09
690.81	56.17
690.95	39.79
691.08	74.90
691.22	65.54
691.35	35.11
691.49	79.58
691.62	100.64
691.76	18.72
691.89	51.49
692.03	18.72
692.16	49.15
692.30	18.72
692.43	77.24
692.57	236.39
692.70	271.50
692.84	479.81
692.97	404.91
693.11	337.04
693.24	154.48
693.38	138.09
693.51	121.71
693.65	95.96
693.78	42.13
693.92	7.02
694.05	42.13
694.19	37.45
694.32	67.88
694.45	28.09
694.59	25.75
694.72	79.58
694.86	77.24
694.99	58.51
695.13	16.38
695.26	58.51
695.39	46.81
695.53	37.45
695.66	119.37
695.80	25.75
695.93	18.72
696.07	79.58
696.20	86.60
696.33	81.92
696.47	81.92
696.60	72.56
696.73	93.62
696.87	79.58
697.00	67.88
697.14	37.45
697.27	18.72
697.40	0.00
697.54	91.28
697.67	0.00
697.80	18.72
697.94	0.00
698.07	93.62
698.21	7.02
698.34	46.81
698.47	46.81
698.61	35.11
698.74	28.09
698.87	53.83
699.01	37.45
699.14	21.06
699.27	18.72
699.40	25.75
699.54	117.03
699.67	30.43
699.80	4.68
699.94	117.03
700.07	79.58
700.20	14.04
700.34	0.00
700.47	23.41
700.60	70.22
700.73	32.77
700.87	51.49
701.00	51.49
701.13	25.75
701.26	60.85
701.40	11.70
701.53	18.72
701.66	37.45
701.79	51.49
701.93	56.17
702.06	91.28
702.19	126.39
702.32	93.62
702.46	114.69
702.59	9.36
702.72	159.16
702.85	341.72
702.99	557.05
703.12	671.73
703.25	741.95
703.38	695.14
703.51	510.24
703.65	414.27
703.78	330.02
703.91	205.97
704.04	67.88
704.17	60.85
704.31	131.07
704.44	81.92
704.57	37.45
704.70	9.36
704.83	35.11
704.96	107.66
705.10	58.51
705.23	74.90
>>>>>End Processed Spectral Data<<<<<
