SpectraSuite Data File
++++++++++++++++++++++++++++++++++++
Date: Fri Oct 04 12:13:33 GMT-05:00 2013
User: price-jones
Dark Spectrum Present: No
Reference Spectrum Present: No
Number of Sampled Component Spectra: 1
Spectrometers: USB2+H05261
Integration Time (usec): 10000 (USB2+H05261)
Spectra Averaged: 1 (USB2+H05261)
Boxcar Smoothing: 0 (USB2+H05261)
Correct for Electrical Dark: No (USB2+H05261)
Strobe/Lamp Enabled: No (USB2+H05261)
Correct for Detector Non-linearity: No (USB2+H05261)
Correct for Stray Light: No (USB2+H05261)
Number of Pixels in Processed Spectrum: 2048
>>>>>Begin Processed Spectral Data<<<<<
365.73	18.72
365.92	18.72
366.12	18.72
366.32	0.00
366.52	0.00
366.72	0.00
366.91	0.00
367.11	0.00
367.31	0.00
367.51	0.00
367.70	0.00
367.90	0.00
368.10	0.00
368.30	0.00
368.49	0.00
368.69	0.00
368.89	0.00
369.09	0.00
369.28	0.00
369.48	0.00
369.68	0.00
369.87	0.00
370.07	0.00
370.27	0.00
370.47	0.00
370.66	0.00
370.86	32.77
371.06	0.00
371.25	0.00
371.45	4.68
371.65	0.00
371.84	0.00
372.04	0.00
372.24	0.00
372.44	0.00
372.63	0.00
372.83	74.90
373.03	56.17
373.22	44.47
373.42	0.00
373.62	58.51
373.81	58.51
374.01	30.43
374.21	21.06
374.40	35.11
374.60	30.43
374.79	74.90
374.99	0.00
375.19	102.98
375.38	25.75
375.58	37.45
375.78	23.41
375.97	88.94
376.17	51.49
376.37	49.15
376.56	0.00
376.76	0.00
376.95	56.17
377.15	63.19
377.35	23.41
377.54	28.09
377.74	9.36
377.93	0.00
378.13	28.09
378.33	0.00
378.52	77.24
378.72	35.11
378.91	23.41
379.11	0.00
379.31	44.47
379.50	2.34
379.70	0.00
379.89	32.77
380.09	35.11
380.28	2.34
380.48	0.00
380.68	0.00
380.87	0.00
381.07	7.02
381.26	21.06
381.46	56.17
381.65	42.13
381.85	35.11
382.04	0.00
382.24	4.68
382.43	23.41
382.63	18.72
382.83	0.00
383.02	42.13
383.22	56.17
383.41	63.19
383.61	28.09
383.80	0.00
384.00	53.83
384.19	0.00
384.39	0.00
384.58	28.09
384.78	56.17
384.97	0.00
385.17	72.56
385.36	49.15
385.56	0.00
385.75	21.06
385.95	28.09
386.14	65.54
386.34	81.92
386.53	0.00
386.72	53.83
386.92	67.88
387.11	37.45
387.31	0.00
387.50	42.13
387.70	25.75
387.89	0.00
388.09	9.36
388.28	30.43
388.48	0.00
388.67	37.45
388.86	9.36
389.06	0.00
389.25	28.09
389.45	95.96
389.64	16.38
389.84	0.00
390.03	51.49
390.22	0.00
390.42	51.49
390.61	0.00
390.81	23.41
391.00	32.77
391.19	11.70
391.39	0.00
391.58	16.38
391.78	53.83
391.97	0.00
392.16	14.04
392.36	56.17
392.55	0.00
392.75	49.15
392.94	91.28
393.13	42.13
393.33	56.17
393.52	86.60
393.71	28.09
393.91	14.04
394.10	35.11
394.29	7.02
394.49	0.00
394.68	56.17
394.88	46.81
395.07	4.68
395.26	56.17
395.46	79.58
395.65	0.00
395.84	23.41
396.04	0.00
396.23	14.04
396.42	0.00
396.62	2.34
396.81	84.26
397.00	0.00
397.19	42.13
397.39	95.96
397.58	23.41
397.77	81.92
397.97	23.41
398.16	35.11
398.35	14.04
398.55	35.11
398.74	0.00
398.93	35.11
399.12	21.06
399.32	35.11
399.51	30.43
399.70	37.45
399.90	9.36
400.09	0.00
400.28	56.17
400.47	14.04
400.67	4.68
400.86	16.38
401.05	35.11
401.24	0.00
401.44	0.00
401.63	88.94
401.82	11.70
402.01	42.13
402.21	0.00
402.40	35.11
402.59	0.00
402.78	37.45
402.97	14.04
403.17	49.15
403.36	0.00
403.55	79.58
403.74	51.49
403.93	37.45
404.13	44.47
404.32	39.79
404.51	46.81
404.70	84.26
404.89	0.00
405.09	0.00
405.28	11.70
405.47	0.00
405.66	11.70
405.85	23.41
406.05	0.00
406.24	28.09
406.43	30.43
406.62	0.00
406.81	0.00
407.00	128.73
407.20	112.35
407.39	25.75
407.58	23.41
407.77	0.00
407.96	7.02
408.15	28.09
408.34	37.45
408.54	154.48
408.73	53.83
408.92	44.47
409.11	9.36
409.30	98.30
409.49	28.09
409.68	65.54
409.87	58.51
410.07	11.70
410.26	9.36
410.45	51.49
410.64	23.41
410.83	21.06
411.02	9.36
411.21	63.19
411.40	0.00
411.59	46.81
411.78	9.36
411.98	0.00
412.17	32.77
412.36	2.34
412.55	16.38
412.74	77.24
412.93	84.26
413.12	0.00
413.31	30.43
413.50	39.79
413.69	49.15
413.88	44.47
414.07	0.00
414.26	77.24
414.45	56.17
414.64	65.54
414.83	56.17
415.02	23.41
415.22	32.77
415.41	14.04
415.60	7.02
415.79	9.36
415.98	53.83
416.17	0.00
416.36	11.70
416.55	0.00
416.74	39.79
416.93	4.68
417.12	42.13
417.31	21.06
417.50	25.75
417.69	25.75
417.88	0.00
418.07	0.00
418.26	63.19
418.45	74.90
418.64	16.38
418.83	46.81
419.02	58.51
419.21	11.70
419.39	0.00
419.58	53.83
419.77	0.00
419.96	63.19
420.15	23.41
420.34	53.83
420.53	23.41
420.72	0.00
420.91	37.45
421.10	72.56
421.29	21.06
421.48	7.02
421.67	9.36
421.86	0.00
422.05	2.34
422.24	23.41
422.43	25.75
422.61	0.00
422.80	63.19
422.99	18.72
423.18	0.00
423.37	65.54
423.56	2.34
423.75	32.77
423.94	53.83
424.13	25.75
424.32	16.38
424.50	58.51
424.69	23.41
424.88	23.41
425.07	58.51
425.26	0.00
425.45	11.70
425.64	32.77
425.83	46.81
426.01	0.00
426.20	28.09
426.39	0.00
426.58	0.00
426.77	0.00
426.96	32.77
427.15	0.00
427.33	70.22
427.52	46.81
427.71	44.47
427.90	0.00
428.09	49.15
428.28	79.58
428.46	25.75
428.65	37.45
428.84	0.00
429.03	0.00
429.22	44.47
429.40	21.06
429.59	14.04
429.78	18.72
429.97	70.22
430.16	100.64
430.34	0.00
430.53	18.72
430.72	46.81
430.91	67.88
431.10	79.58
431.28	72.56
431.47	0.00
431.66	100.64
431.85	16.38
432.03	32.77
432.22	70.22
432.41	7.02
432.60	67.88
432.79	11.70
432.97	28.09
433.16	0.00
433.35	4.68
433.54	0.00
433.72	11.70
433.91	56.17
434.10	60.85
434.28	2.34
434.47	46.81
434.66	14.04
434.85	102.98
435.03	53.83
435.22	0.00
435.41	32.77
435.59	81.92
435.78	49.15
435.97	37.45
436.16	65.54
436.34	0.00
436.53	49.15
436.72	2.34
436.90	28.09
437.09	9.36
437.28	53.83
437.46	84.26
437.65	46.81
437.84	70.22
438.02	11.70
438.21	35.11
438.40	0.00
438.58	30.43
438.77	30.43
438.96	4.68
439.14	32.77
439.33	133.41
439.52	16.38
439.70	63.19
439.89	53.83
440.08	0.00
440.26	0.00
440.45	91.28
440.63	84.26
440.82	63.19
441.01	7.02
441.19	2.34
441.38	37.45
441.57	11.70
441.75	0.00
441.94	23.41
442.12	0.00
442.31	65.54
442.50	70.22
442.68	0.00
442.87	42.13
443.05	9.36
443.24	0.00
443.43	0.00
443.61	37.45
443.80	51.49
443.98	60.85
444.17	35.11
444.35	53.83
444.54	21.06
444.73	11.70
444.91	58.51
445.10	4.68
445.28	51.49
445.47	23.41
445.65	0.00
445.84	60.85
446.02	23.41
446.21	86.60
446.39	9.36
446.58	30.43
446.77	35.11
446.95	49.15
447.14	7.02
447.32	72.56
447.51	53.83
447.69	39.79
447.88	32.77
448.06	23.41
448.25	37.45
448.43	4.68
448.62	0.00
448.80	11.70
448.99	86.60
449.17	23.41
449.36	0.00
449.54	58.51
449.73	4.68
449.91	93.62
450.10	35.11
450.28	88.94
450.46	77.24
450.65	0.00
450.83	0.00
451.02	18.72
451.20	86.60
451.39	63.19
451.57	42.13
451.76	42.13
451.94	46.81
452.13	7.02
452.31	28.09
452.49	11.70
452.68	53.83
452.86	0.00
453.05	0.00
453.23	0.00
453.42	0.00
453.60	0.00
453.78	28.09
453.97	35.11
454.15	65.54
454.34	72.56
454.52	0.00
454.70	51.49
454.89	0.00
455.07	37.45
455.26	21.06
455.44	39.79
455.62	25.75
455.81	46.81
455.99	49.15
456.17	63.19
456.36	42.13
456.54	67.88
456.73	56.17
456.91	42.13
457.09	7.02
457.28	0.00
457.46	98.30
457.64	11.70
457.83	154.48
458.01	0.00
458.19	39.79
458.38	46.81
458.56	44.47
458.74	39.79
458.93	100.64
459.11	0.00
459.29	23.41
459.48	9.36
459.66	0.00
459.84	42.13
460.03	70.22
460.21	14.04
460.39	28.09
460.57	39.79
460.76	70.22
460.94	63.19
461.12	28.09
461.31	72.56
461.49	91.28
461.67	56.17
461.85	74.90
462.04	30.43
462.22	65.54
462.40	30.43
462.59	35.11
462.77	0.00
462.95	0.00
463.13	0.00
463.32	0.00
463.50	42.13
463.68	32.77
463.86	56.17
464.05	11.70
464.23	16.38
464.41	11.70
464.59	2.34
464.78	121.71
464.96	0.00
465.14	98.30
465.32	7.02
465.50	35.11
465.69	117.03
465.87	42.13
466.05	67.88
466.23	32.77
466.41	124.05
466.60	46.81
466.78	7.02
466.96	58.51
467.14	4.68
467.32	67.88
467.51	30.43
467.69	18.72
467.87	117.03
468.05	81.92
468.23	7.02
468.41	74.90
468.60	49.15
468.78	0.00
468.96	0.00
469.14	11.70
469.32	135.75
469.50	35.11
469.69	56.17
469.87	37.45
470.05	11.70
470.23	0.00
470.41	0.00
470.59	32.77
470.77	35.11
470.95	7.02
471.14	72.56
471.32	79.58
471.50	84.26
471.68	81.92
471.86	23.41
472.04	0.00
472.22	49.15
472.40	107.66
472.58	60.85
472.77	112.35
472.95	9.36
473.13	18.72
473.31	126.39
473.49	74.90
473.67	11.70
473.85	4.68
474.03	79.58
474.21	0.00
474.39	11.70
474.57	60.85
474.75	84.26
474.93	21.06
475.12	0.00
475.30	42.13
475.48	60.85
475.66	0.00
475.84	60.85
476.02	39.79
476.20	0.00
476.38	128.73
476.56	7.02
476.74	0.00
476.92	35.11
477.10	35.11
477.28	49.15
477.46	56.17
477.64	107.66
477.82	39.79
478.00	23.41
478.18	14.04
478.36	4.68
478.54	0.00
478.72	32.77
478.90	117.03
479.08	37.45
479.26	0.00
479.44	49.15
479.62	18.72
479.80	39.79
479.98	67.88
480.16	56.17
480.34	46.81
480.52	58.51
480.70	35.11
480.88	0.00
481.06	32.77
481.24	32.77
481.41	70.22
481.59	58.51
481.77	42.13
481.95	58.51
482.13	58.51
482.31	2.34
482.49	65.54
482.67	14.04
482.85	0.00
483.03	65.54
483.21	2.34
483.39	7.02
483.57	28.09
483.74	98.30
483.92	98.30
484.10	21.06
484.28	35.11
484.46	0.00
484.64	53.83
484.82	39.79
485.00	63.19
485.18	37.45
485.35	32.77
485.53	110.01
485.71	28.09
485.89	60.85
486.07	14.04
486.25	79.58
486.43	0.00
486.61	14.04
486.78	30.43
486.96	74.90
487.14	110.01
487.32	112.35
487.50	81.92
487.68	23.41
487.85	60.85
488.03	32.77
488.21	30.43
488.39	37.45
488.57	0.00
488.75	2.34
488.92	72.56
489.10	65.54
489.28	56.17
489.46	42.13
489.64	70.22
489.81	25.75
489.99	0.00
490.17	51.49
490.35	49.15
490.53	0.00
490.70	42.13
490.88	0.00
491.06	4.68
491.24	0.00
491.41	74.90
491.59	67.88
491.77	102.98
491.95	74.90
492.13	0.00
492.30	51.49
492.48	44.47
492.66	2.34
492.84	72.56
493.01	0.00
493.19	70.22
493.37	44.47
493.54	4.68
493.72	72.56
493.90	46.81
494.08	58.51
494.25	102.98
494.43	84.26
494.61	30.43
494.79	58.51
494.96	100.64
495.14	81.92
495.32	0.00
495.49	63.19
495.67	0.00
495.85	114.69
496.02	72.56
496.20	53.83
496.38	42.13
496.55	100.64
496.73	25.75
496.91	91.28
497.09	128.73
497.26	93.62
497.44	53.83
497.62	9.36
497.79	79.58
497.97	39.79
498.14	79.58
498.32	35.11
498.50	23.41
498.67	16.38
498.85	63.19
499.03	51.49
499.20	42.13
499.38	51.49
499.56	0.00
499.73	18.72
499.91	79.58
500.08	0.00
500.26	32.77
500.44	65.54
500.61	37.45
500.79	0.00
500.97	37.45
501.14	58.51
501.32	60.85
501.49	84.26
501.67	140.43
501.84	58.51
502.02	23.41
502.20	42.13
502.37	35.11
502.55	32.77
502.72	7.02
502.90	117.03
503.07	79.58
503.25	74.90
503.43	74.90
503.60	77.24
503.78	77.24
503.95	98.30
504.13	81.92
504.30	51.49
504.48	35.11
504.65	42.13
504.83	14.04
505.01	37.45
505.18	37.45
505.36	77.24
505.53	35.11
505.71	30.43
505.88	105.32
506.06	74.90
506.23	0.00
506.41	32.77
506.58	28.09
506.76	86.60
506.93	112.35
507.11	51.49
507.28	79.58
507.46	4.68
507.63	84.26
507.81	67.88
507.98	79.58
508.16	0.00
508.33	11.70
508.50	77.24
508.68	18.72
508.85	0.00
509.03	42.13
509.20	42.13
509.38	14.04
509.55	60.85
509.73	39.79
509.90	70.22
510.08	35.11
510.25	121.71
510.42	56.17
510.60	42.13
510.77	93.62
510.95	65.54
511.12	49.15
511.30	51.49
511.47	46.81
511.64	56.17
511.82	135.75
511.99	35.11
512.17	30.43
512.34	28.09
512.51	23.41
512.69	74.90
512.86	88.94
513.04	91.28
513.21	53.83
513.38	9.36
513.56	0.00
513.73	74.90
513.90	88.94
514.08	81.92
514.25	2.34
514.43	4.68
514.60	14.04
514.77	107.66
514.95	0.00
515.12	72.56
515.29	56.17
515.47	0.00
515.64	21.06
515.81	44.47
515.99	58.51
516.16	133.41
516.33	21.06
516.51	14.04
516.68	11.70
516.85	133.41
517.03	74.90
517.20	49.15
517.37	0.00
517.54	35.11
517.72	14.04
517.89	42.13
518.06	105.32
518.24	9.36
518.41	79.58
518.58	60.85
518.75	11.70
518.93	100.64
519.10	42.13
519.27	39.79
519.45	0.00
519.62	72.56
519.79	35.11
519.96	74.90
520.14	88.94
520.31	0.00
520.48	0.00
520.65	72.56
520.83	46.81
521.00	53.83
521.17	84.26
521.34	77.24
521.52	9.36
521.69	98.30
521.86	0.00
522.03	70.22
522.20	18.72
522.38	0.00
522.55	84.26
522.72	42.13
522.89	93.62
523.07	53.83
523.24	135.75
523.41	65.54
523.58	7.02
523.75	60.85
523.92	37.45
524.10	93.62
524.27	0.00
524.44	110.01
524.61	58.51
524.78	49.15
524.96	7.02
525.13	84.26
525.30	74.90
525.47	53.83
525.64	25.75
525.81	70.22
525.98	32.77
526.16	7.02
526.33	0.00
526.50	65.54
526.67	98.30
526.84	117.03
527.01	0.00
527.18	67.88
527.36	74.90
527.53	81.92
527.70	56.17
527.87	86.60
528.04	37.45
528.21	39.79
528.38	95.96
528.55	105.32
528.72	147.45
528.89	11.70
529.07	32.77
529.24	44.47
529.41	30.43
529.58	7.02
529.75	72.56
529.92	58.51
530.09	39.79
530.26	21.06
530.43	105.32
530.60	53.83
530.77	44.47
530.94	88.94
531.11	81.92
531.28	72.56
531.46	7.02
531.63	65.54
531.80	0.00
531.97	21.06
532.14	51.49
532.31	0.00
532.48	4.68
532.65	42.13
532.82	51.49
532.99	23.41
533.16	30.43
533.33	0.00
533.50	91.28
533.67	23.41
533.84	60.85
534.01	65.54
534.18	0.00
534.35	11.70
534.52	4.68
534.69	74.90
534.86	77.24
535.03	98.30
535.20	86.60
535.37	46.81
535.54	81.92
535.71	16.38
535.88	91.28
536.05	100.64
536.22	23.41
536.38	25.75
536.55	95.96
536.72	39.79
536.89	56.17
537.06	91.28
537.23	28.09
537.40	53.83
537.57	79.58
537.74	32.77
537.91	0.00
538.08	32.77
538.25	35.11
538.42	21.06
538.59	42.13
538.75	18.72
538.92	88.94
539.09	93.62
539.26	53.83
539.43	70.22
539.60	91.28
539.77	98.30
539.94	86.60
540.11	79.58
540.28	95.96
540.44	0.00
540.61	77.24
540.78	16.38
540.95	98.30
541.12	35.11
541.29	81.92
541.46	7.02
541.62	79.58
541.79	44.47
541.96	37.45
542.13	16.38
542.30	35.11
542.47	114.69
542.63	63.19
542.80	44.47
542.97	0.00
543.14	93.62
543.31	126.39
543.48	28.09
543.64	53.83
543.81	0.00
543.98	32.77
544.15	0.00
544.32	28.09
544.48	0.00
544.65	39.79
544.82	65.54
544.99	9.36
545.16	124.05
545.32	0.00
545.49	84.26
545.66	37.45
545.83	0.00
546.00	42.13
546.16	53.83
546.33	25.75
546.50	98.30
546.67	110.01
546.83	44.47
547.00	0.00
547.17	18.72
547.34	49.15
547.50	16.38
547.67	81.92
547.84	0.00
548.00	42.13
548.17	138.09
548.34	18.72
548.51	86.60
548.67	60.85
548.84	58.51
549.01	72.56
549.18	49.15
549.34	72.56
549.51	53.83
549.68	81.92
549.84	0.00
550.01	53.83
550.18	70.22
550.34	0.00
550.51	74.90
550.68	30.43
550.84	0.00
551.01	65.54
551.18	91.28
551.34	65.54
551.51	60.85
551.68	86.60
551.84	58.51
552.01	56.17
552.18	105.32
552.34	77.24
552.51	4.68
552.68	23.41
552.84	0.00
553.01	51.49
553.18	79.58
553.34	46.81
553.51	46.81
553.67	2.34
553.84	39.79
554.01	0.00
554.17	77.24
554.34	28.09
554.51	100.64
554.67	35.11
554.84	44.47
555.00	110.01
555.17	0.00
555.33	65.54
555.50	65.54
555.67	63.19
555.83	114.69
556.00	72.56
556.16	49.15
556.33	46.81
556.50	0.00
556.66	79.58
556.83	81.92
556.99	70.22
557.16	51.49
557.32	18.72
557.49	44.47
557.65	44.47
557.82	60.85
557.98	14.04
558.15	84.26
558.32	21.06
558.48	4.68
558.65	63.19
558.81	72.56
558.98	0.00
559.14	0.00
559.31	46.81
559.47	140.43
559.64	60.85
559.80	32.77
559.97	51.49
560.13	60.85
560.30	0.00
560.46	133.41
560.63	117.03
560.79	35.11
560.96	100.64
561.12	28.09
561.29	56.17
561.45	25.75
561.61	117.03
561.78	72.56
561.94	65.54
562.11	18.72
562.27	58.51
562.44	46.81
562.60	28.09
562.77	107.66
562.93	37.45
563.10	74.90
563.26	0.00
563.42	18.72
563.59	4.68
563.75	46.81
563.92	11.70
564.08	30.43
564.24	7.02
564.41	53.83
564.57	14.04
564.74	74.90
564.90	60.85
565.07	74.90
565.23	25.75
565.39	0.00
565.56	65.54
565.72	86.60
565.88	56.17
566.05	0.00
566.21	84.26
566.38	37.45
566.54	51.49
566.70	16.38
566.87	44.47
567.03	16.38
567.19	25.75
567.36	7.02
567.52	0.00
567.68	4.68
567.85	53.83
568.01	37.45
568.17	9.36
568.34	30.43
568.50	117.03
568.66	0.00
568.83	58.51
568.99	39.79
569.15	56.17
569.32	79.58
569.48	7.02
569.64	67.88
569.81	72.56
569.97	35.11
570.13	25.75
570.30	7.02
570.46	42.13
570.62	126.39
570.78	56.17
570.95	37.45
571.11	110.01
571.27	79.58
571.43	0.00
571.60	65.54
571.76	74.90
571.92	25.75
572.09	0.00
572.25	86.60
572.41	0.00
572.57	11.70
572.74	65.54
572.90	30.43
573.06	35.11
573.22	23.41
573.38	21.06
573.55	21.06
573.71	56.17
573.87	126.39
574.03	2.34
574.20	44.47
574.36	72.56
574.52	0.00
574.68	74.90
574.84	46.81
575.01	9.36
575.17	49.15
575.33	18.72
575.49	91.28
575.65	18.72
575.82	18.72
575.98	72.56
576.14	60.85
576.30	16.38
576.46	102.98
576.62	0.00
576.79	42.13
576.95	74.90
577.11	44.47
577.27	98.30
577.43	37.45
577.59	131.07
577.75	44.47
577.92	14.04
578.08	53.83
578.24	72.56
578.40	0.00
578.56	30.43
578.72	88.94
578.88	70.22
579.04	16.38
579.21	65.54
579.37	105.32
579.53	32.77
579.69	18.72
579.85	56.17
580.01	16.38
580.17	70.22
580.33	56.17
580.49	86.60
580.65	0.00
580.82	14.04
580.98	32.77
581.14	0.00
581.30	102.98
581.46	56.17
581.62	51.49
581.78	30.43
581.94	72.56
582.10	32.77
582.26	11.70
582.42	11.70
582.58	56.17
582.74	124.05
582.90	14.04
583.06	65.54
583.22	0.00
583.38	14.04
583.54	21.06
583.70	88.94
583.86	121.71
584.02	0.00
584.18	0.00
584.34	42.13
584.50	23.41
584.66	44.47
584.82	37.45
584.98	58.51
585.14	23.41
585.30	88.94
585.46	74.90
585.62	28.09
585.78	44.47
585.94	30.43
586.10	81.92
586.26	16.38
586.42	30.43
586.58	25.75
586.74	63.19
586.90	72.56
587.06	131.07
587.22	44.47
587.38	23.41
587.54	88.94
587.70	74.90
587.86	23.41
588.02	0.00
588.18	0.00
588.34	4.68
588.49	58.51
588.65	65.54
588.81	0.00
588.97	0.00
589.13	0.00
589.29	0.00
589.45	46.81
589.61	0.00
589.77	67.88
589.93	4.68
590.08	42.13
590.24	42.13
590.40	86.60
590.56	44.47
590.72	93.62
590.88	25.75
591.04	42.13
591.20	0.00
591.35	60.85
591.51	4.68
591.67	35.11
591.83	128.73
591.99	58.51
592.15	60.85
592.31	77.24
592.46	2.34
592.62	72.56
592.78	95.96
592.94	37.45
593.10	44.47
593.26	0.00
593.41	25.75
593.57	0.00
593.73	4.68
593.89	7.02
594.05	21.06
594.20	30.43
594.36	53.83
594.52	112.35
594.68	0.00
594.84	0.00
594.99	93.62
595.15	51.49
595.31	88.94
595.47	0.00
595.62	53.83
595.78	42.13
595.94	9.36
596.10	46.81
596.25	72.56
596.41	98.30
596.57	0.00
596.73	49.15
596.88	102.98
597.04	67.88
597.20	105.32
597.36	79.58
597.51	0.00
597.67	42.13
597.83	95.96
597.99	0.00
598.14	2.34
598.30	81.92
598.46	14.04
598.61	21.06
598.77	102.98
598.93	35.11
599.09	46.81
599.24	0.00
599.40	11.70
599.56	49.15
599.71	35.11
599.87	18.72
600.03	39.79
600.18	70.22
600.34	46.81
600.50	11.70
600.65	7.02
600.81	53.83
600.97	0.00
601.12	0.00
601.28	21.06
601.44	37.45
601.59	60.85
601.75	9.36
601.91	93.62
602.06	84.26
602.22	60.85
602.37	91.28
602.53	14.04
602.69	86.60
602.84	14.04
603.00	72.56
603.16	46.81
603.31	44.47
603.47	65.54
603.62	0.00
603.78	35.11
603.94	63.19
604.09	84.26
604.25	49.15
604.40	133.41
604.56	0.00
604.71	91.28
604.87	37.45
605.03	35.11
605.18	74.90
605.34	32.77
605.49	0.00
605.65	110.01
605.80	63.19
605.96	65.54
606.12	23.41
606.27	23.41
606.43	4.68
606.58	4.68
606.74	58.51
606.89	14.04
607.05	147.45
607.20	49.15
607.36	37.45
607.51	37.45
607.67	77.24
607.82	70.22
607.98	98.30
608.13	81.92
608.29	39.79
608.44	84.26
608.60	74.90
608.75	102.98
608.91	88.94
609.06	56.17
609.22	63.19
609.37	49.15
609.53	70.22
609.68	51.49
609.84	0.00
609.99	67.88
610.15	42.13
610.30	53.83
610.46	16.38
610.61	65.54
610.76	7.02
610.92	51.49
611.07	28.09
611.23	72.56
611.38	39.79
611.54	0.00
611.69	49.15
611.84	46.81
612.00	72.56
612.15	32.77
612.31	0.00
612.46	23.41
612.62	9.36
612.77	119.37
612.92	28.09
613.08	32.77
613.23	102.98
613.39	46.81
613.54	98.30
613.69	63.19
613.85	63.19
614.00	23.41
614.15	72.56
614.31	88.94
614.46	91.28
614.62	30.43
614.77	42.13
614.92	18.72
615.08	65.54
615.23	21.06
615.38	32.77
615.54	14.04
615.69	25.75
615.84	0.00
616.00	30.43
616.15	35.11
616.30	67.88
616.46	84.26
616.61	56.17
616.76	49.15
616.92	86.60
617.07	32.77
617.22	100.64
617.37	100.64
617.53	72.56
617.68	60.85
617.83	74.90
617.99	44.47
618.14	42.13
618.29	46.81
618.45	128.73
618.60	35.11
618.75	51.49
618.90	131.07
619.06	46.81
619.21	53.83
619.36	42.13
619.51	25.75
619.67	37.45
619.82	32.77
619.97	18.72
620.12	0.00
620.28	72.56
620.43	25.75
620.58	58.51
620.73	9.36
620.89	25.75
621.04	67.88
621.19	0.00
621.34	14.04
621.49	91.28
621.65	0.00
621.80	93.62
621.95	74.90
622.10	0.00
622.25	9.36
622.41	51.49
622.56	44.47
622.71	32.77
622.86	95.96
623.01	46.81
623.16	16.38
623.32	72.56
623.47	4.68
623.62	42.13
623.77	4.68
623.92	30.43
624.07	88.94
624.23	72.56
624.38	21.06
624.53	39.79
624.68	25.75
624.83	21.06
624.98	65.54
625.13	51.49
625.29	0.00
625.44	51.49
625.59	60.85
625.74	0.00
625.89	42.13
626.04	0.00
626.19	7.02
626.34	39.79
626.49	35.11
626.65	30.43
626.80	37.45
626.95	2.34
627.10	32.77
627.25	46.81
627.40	28.09
627.55	86.60
627.70	56.17
627.85	65.54
628.00	0.00
628.15	51.49
628.30	0.00
628.45	91.28
628.60	42.13
628.76	44.47
628.91	65.54
629.06	21.06
629.21	28.09
629.36	84.26
629.51	70.22
629.66	23.41
629.81	0.00
629.96	63.19
630.11	4.68
630.26	0.00
630.41	46.81
630.56	112.35
630.71	0.00
630.86	18.72
631.01	86.60
631.16	51.49
631.31	131.07
631.46	23.41
631.61	98.30
631.76	56.17
631.91	58.51
632.06	63.19
632.21	79.58
632.36	98.30
632.51	42.13
632.66	39.79
632.81	14.04
632.96	0.00
633.10	63.19
633.25	23.41
633.40	77.24
633.55	32.77
633.70	49.15
633.85	4.68
634.00	21.06
634.15	58.51
634.30	18.72
634.45	102.98
634.60	46.81
634.75	65.54
634.90	51.49
635.05	105.32
635.19	28.09
635.34	63.19
635.49	100.64
635.64	60.85
635.79	84.26
635.94	0.00
636.09	0.00
636.24	18.72
636.39	28.09
636.53	23.41
636.68	49.15
636.83	23.41
636.98	21.06
637.13	0.00
637.28	0.00
637.43	81.92
637.57	63.19
637.72	102.98
637.87	53.83
638.02	86.60
638.17	79.58
638.32	95.96
638.46	0.00
638.61	49.15
638.76	23.41
638.91	60.85
639.06	93.62
639.20	42.13
639.35	39.79
639.50	49.15
639.65	91.28
639.80	14.04
639.94	4.68
640.09	0.00
640.24	14.04
640.39	0.00
640.54	28.09
640.68	21.06
640.83	53.83
640.98	51.49
641.13	121.71
641.27	37.45
641.42	46.81
641.57	70.22
641.72	65.54
641.86	53.83
642.01	21.06
642.16	37.45
642.31	58.51
642.45	35.11
642.60	56.17
642.75	60.85
642.90	9.36
643.04	79.58
643.19	39.79
643.34	77.24
643.48	58.51
643.63	46.81
643.78	0.00
643.93	0.00
644.07	32.77
644.22	0.00
644.37	16.38
644.51	16.38
644.66	9.36
644.81	39.79
644.95	32.77
645.10	65.54
645.25	56.17
645.39	35.11
645.54	37.45
645.69	53.83
645.83	67.88
645.98	16.38
646.13	67.88
646.27	4.68
646.42	30.43
646.57	0.00
646.71	65.54
646.86	51.49
647.00	67.88
647.15	63.19
647.30	25.75
647.44	93.62
647.59	0.00
647.74	51.49
647.88	88.94
648.03	16.38
648.17	79.58
648.32	42.13
648.47	0.00
648.61	77.24
648.76	28.09
648.90	100.64
649.05	49.15
649.20	102.98
649.34	63.19
649.49	0.00
649.63	102.98
649.78	79.58
649.92	56.17
650.07	16.38
650.21	11.70
650.36	30.43
650.51	32.77
650.65	74.90
650.80	70.22
650.94	131.07
651.09	30.43
651.23	16.38
651.38	16.38
651.52	39.79
651.67	0.00
651.81	32.77
651.96	114.69
652.10	11.70
652.25	46.81
652.39	58.51
652.54	46.81
652.68	67.88
652.83	21.06
652.97	58.51
653.12	0.00
653.26	60.85
653.41	112.35
653.55	100.64
653.70	30.43
653.84	0.00
653.99	56.17
654.13	32.77
654.27	88.94
654.42	0.00
654.56	0.00
654.71	23.41
654.85	53.83
655.00	53.83
655.14	16.38
655.29	74.90
655.43	49.15
655.57	81.92
655.72	21.06
655.86	72.56
656.01	9.36
656.15	0.00
656.30	23.41
656.44	35.11
656.58	16.38
656.73	51.49
656.87	23.41
657.01	23.41
657.16	65.54
657.30	51.49
657.45	32.77
657.59	51.49
657.73	21.06
657.88	88.94
658.02	63.19
658.16	51.49
658.31	77.24
658.45	30.43
658.60	65.54
658.74	49.15
658.88	88.94
659.03	0.00
659.17	7.02
659.31	65.54
659.46	18.72
659.60	14.04
659.74	65.54
659.89	0.00
660.03	110.01
660.17	28.09
660.32	37.45
660.46	46.81
660.60	42.13
660.74	7.02
660.89	32.77
661.03	84.26
661.17	30.43
661.32	32.77
661.46	21.06
661.60	23.41
661.74	70.22
661.89	58.51
662.03	46.81
662.17	49.15
662.31	65.54
662.46	25.75
662.60	30.43
662.74	35.11
662.88	51.49
663.03	95.96
663.17	16.38
663.31	39.79
663.45	30.43
663.60	51.49
663.74	0.00
663.88	7.02
664.02	25.75
664.17	102.98
664.31	51.49
664.45	0.00
664.59	46.81
664.73	30.43
664.88	28.09
665.02	0.00
665.16	49.15
665.30	39.79
665.44	42.13
665.59	114.69
665.73	105.32
665.87	14.04
666.01	28.09
666.15	60.85
666.29	79.58
666.44	0.00
666.58	39.79
666.72	25.75
666.86	39.79
667.00	28.09
667.14	72.56
667.28	0.00
667.43	53.83
667.57	30.43
667.71	7.02
667.85	98.30
667.99	37.45
668.13	67.88
668.27	49.15
668.41	49.15
668.56	11.70
668.70	25.75
668.84	32.77
668.98	0.00
669.12	98.30
669.26	49.15
669.40	23.41
669.54	23.41
669.68	32.77
669.82	23.41
669.96	79.58
670.10	60.85
670.25	37.45
670.39	67.88
670.53	11.70
670.67	16.38
670.81	49.15
670.95	46.81
671.09	44.47
671.23	16.38
671.37	79.58
671.51	0.00
671.65	0.00
671.79	7.02
671.93	42.13
672.07	23.41
672.21	98.30
672.35	0.00
672.49	81.92
672.63	9.36
672.77	32.77
672.91	46.81
673.05	51.49
673.19	21.06
673.33	7.02
673.47	25.75
673.61	51.49
673.75	49.15
673.89	0.00
674.03	51.49
674.17	9.36
674.31	81.92
674.45	35.11
674.59	23.41
674.73	16.38
674.87	7.02
675.01	65.54
675.15	63.19
675.29	65.54
675.43	23.41
675.56	72.56
675.70	9.36
675.84	112.35
675.98	46.81
676.12	14.04
676.26	0.00
676.40	60.85
676.54	28.09
676.68	21.06
676.82	65.54
676.96	70.22
677.10	21.06
677.23	44.47
677.37	23.41
677.51	0.00
677.65	18.72
677.79	4.68
677.93	2.34
678.07	86.60
678.21	53.83
678.34	79.58
678.48	39.79
678.62	114.69
678.76	16.38
678.90	42.13
679.04	9.36
679.18	39.79
679.31	35.11
679.45	21.06
679.59	7.02
679.73	11.70
679.87	0.00
680.00	51.49
680.14	0.00
680.28	58.51
680.42	42.13
680.56	65.54
680.70	49.15
680.83	81.92
680.97	0.00
681.11	37.45
681.25	35.11
681.39	42.13
681.52	60.85
681.66	102.98
681.80	42.13
681.94	7.02
682.07	7.02
682.21	28.09
682.35	11.70
682.49	79.58
682.62	37.45
682.76	0.00
682.90	0.00
683.04	51.49
683.17	67.88
683.31	37.45
683.45	4.68
683.59	51.49
683.72	44.47
683.86	39.79
684.00	9.36
684.13	30.43
684.27	42.13
684.41	102.98
684.55	0.00
684.68	0.00
684.82	53.83
684.96	58.51
685.09	23.41
685.23	0.00
685.37	37.45
685.50	51.49
685.64	0.00
685.78	14.04
685.91	25.75
686.05	60.85
686.19	53.83
686.32	4.68
686.46	14.04
686.60	35.11
686.73	28.09
686.87	88.94
687.01	56.17
687.14	42.13
687.28	0.00
687.42	25.75
687.55	0.00
687.69	39.79
687.82	42.13
687.96	65.54
688.10	30.43
688.23	37.45
688.37	32.77
688.50	35.11
688.64	0.00
688.78	0.00
688.91	21.06
689.05	28.09
689.18	25.75
689.32	42.13
689.46	63.19
689.59	2.34
689.73	0.00
689.86	0.00
690.00	28.09
690.13	9.36
690.27	32.77
690.41	58.51
690.54	35.11
690.68	7.02
690.81	0.00
690.95	0.00
691.08	0.00
691.22	11.70
691.35	32.77
691.49	0.00
691.62	14.04
691.76	21.06
691.89	58.51
692.03	0.00
692.16	0.00
692.30	0.00
692.43	60.85
692.57	63.19
692.70	0.00
692.84	35.11
692.97	86.60
693.11	28.09
693.24	11.70
693.38	58.51
693.51	0.00
693.65	28.09
693.78	0.00
693.92	74.90
694.05	79.58
694.19	30.43
694.32	7.02
694.45	2.34
694.59	37.45
694.72	0.00
694.86	0.00
694.99	11.70
695.13	21.06
695.26	16.38
695.39	93.62
695.53	0.00
695.66	23.41
695.80	77.24
695.93	88.94
696.07	4.68
696.20	77.24
696.33	67.88
696.47	21.06
696.60	0.00
696.73	0.00
696.87	37.45
697.00	18.72
697.14	0.00
697.27	84.26
697.40	0.00
697.54	7.02
697.67	46.81
697.80	18.72
697.94	35.11
698.07	84.26
698.21	2.34
698.34	30.43
698.47	4.68
698.61	0.00
698.74	0.00
698.87	25.75
699.01	28.09
699.14	0.00
699.27	100.64
699.40	0.00
699.54	35.11
699.67	0.00
699.80	25.75
699.94	4.68
700.07	0.00
700.20	30.43
700.34	102.98
700.47	7.02
700.60	42.13
700.73	25.75
700.87	25.75
701.00	63.19
701.13	16.38
701.26	79.58
701.40	35.11
701.53	53.83
701.66	9.36
701.79	16.38
701.93	0.00
702.06	0.00
702.19	0.00
702.32	18.72
702.46	56.17
702.59	0.00
702.72	93.62
702.85	95.96
702.99	23.41
703.12	18.72
703.25	0.00
703.38	46.81
703.51	65.54
703.65	23.41
703.78	9.36
703.91	65.54
704.04	84.26
704.17	18.72
704.31	0.00
704.44	30.43
704.57	37.45
704.70	35.11
704.83	63.19
704.96	35.11
705.10	42.13
705.23	25.75
>>>>>End Processed Spectral Data<<<<<
