SpectraSuite Data File
++++++++++++++++++++++++++++++++++++
Date: Fri Oct 04 12:13:29 GMT-05:00 2013
User: price-jones
Dark Spectrum Present: No
Reference Spectrum Present: No
Number of Sampled Component Spectra: 1
Spectrometers: USB2+H05261
Integration Time (usec): 10000 (USB2+H05261)
Spectra Averaged: 1 (USB2+H05261)
Boxcar Smoothing: 0 (USB2+H05261)
Correct for Electrical Dark: No (USB2+H05261)
Strobe/Lamp Enabled: No (USB2+H05261)
Correct for Detector Non-linearity: No (USB2+H05261)
Correct for Stray Light: No (USB2+H05261)
Number of Pixels in Processed Spectrum: 2048
>>>>>Begin Processed Spectral Data<<<<<
365.73	112.35
365.92	112.35
366.12	112.35
366.32	0.00
366.52	0.00
366.72	0.00
366.91	0.00
367.11	0.00
367.31	0.00
367.51	0.00
367.70	0.00
367.90	0.00
368.10	0.00
368.30	0.00
368.49	0.00
368.69	0.00
368.89	0.00
369.09	0.00
369.28	0.00
369.48	0.00
369.68	0.00
369.87	0.00
370.07	0.00
370.27	0.00
370.47	0.00
370.66	0.00
370.86	0.00
371.06	0.00
371.25	0.00
371.45	0.00
371.65	18.72
371.84	14.04
372.04	28.09
372.24	0.00
372.44	0.00
372.63	16.38
372.83	44.47
373.03	9.36
373.22	65.54
373.42	49.15
373.62	30.43
373.81	28.09
374.01	51.49
374.21	67.88
374.40	0.00
374.60	0.00
374.79	32.77
374.99	42.13
375.19	28.09
375.38	0.00
375.58	0.00
375.78	2.34
375.97	14.04
376.17	0.00
376.37	74.90
376.56	0.00
376.76	21.06
376.95	0.00
377.15	65.54
377.35	46.81
377.54	0.00
377.74	0.00
377.93	28.09
378.13	0.00
378.33	11.70
378.52	46.81
378.72	0.00
378.91	21.06
379.11	18.72
379.31	46.81
379.50	18.72
379.70	74.90
379.89	9.36
380.09	0.00
380.28	58.51
380.48	23.41
380.68	0.00
380.87	0.00
381.07	9.36
381.26	0.00
381.46	14.04
381.65	2.34
381.85	0.00
382.04	0.00
382.24	49.15
382.43	16.38
382.63	81.92
382.83	49.15
383.02	2.34
383.22	49.15
383.41	0.00
383.61	0.00
383.80	0.00
384.00	72.56
384.19	14.04
384.39	28.09
384.58	77.24
384.78	70.22
384.97	32.77
385.17	0.00
385.36	53.83
385.56	7.02
385.75	0.00
385.95	2.34
386.14	28.09
386.34	11.70
386.53	0.00
386.72	28.09
386.92	51.49
387.11	0.00
387.31	0.00
387.50	0.00
387.70	14.04
387.89	51.49
388.09	21.06
388.28	39.79
388.48	0.00
388.67	4.68
388.86	42.13
389.06	44.47
389.25	7.02
389.45	70.22
389.64	35.11
389.84	49.15
390.03	49.15
390.22	2.34
390.42	74.90
390.61	21.06
390.81	74.90
391.00	9.36
391.19	102.98
391.39	35.11
391.58	0.00
391.78	0.00
391.97	0.00
392.16	0.00
392.36	58.51
392.55	79.58
392.75	86.60
392.94	53.83
393.13	11.70
393.33	39.79
393.52	21.06
393.71	4.68
393.91	65.54
394.10	28.09
394.29	0.00
394.49	0.00
394.68	0.00
394.88	39.79
395.07	18.72
395.26	37.45
395.46	32.77
395.65	18.72
395.84	79.58
396.04	9.36
396.23	0.00
396.42	7.02
396.62	58.51
396.81	44.47
397.00	23.41
397.19	119.37
397.39	25.75
397.58	91.28
397.77	37.45
397.97	25.75
398.16	46.81
398.35	46.81
398.55	44.47
398.74	35.11
398.93	58.51
399.12	14.04
399.32	42.13
399.51	37.45
399.70	0.00
399.90	0.00
400.09	0.00
400.28	35.11
400.47	2.34
400.67	88.94
400.86	23.41
401.05	53.83
401.24	16.38
401.44	67.88
401.63	0.00
401.82	46.81
402.01	0.00
402.21	0.00
402.40	2.34
402.59	0.00
402.78	0.00
402.97	0.00
403.17	25.75
403.36	0.00
403.55	7.02
403.74	35.11
403.93	46.81
404.13	28.09
404.32	0.00
404.51	49.15
404.70	58.51
404.89	32.77
405.09	44.47
405.28	4.68
405.47	0.00
405.66	18.72
405.85	0.00
406.05	7.02
406.24	9.36
406.43	0.00
406.62	0.00
406.81	18.72
407.00	67.88
407.20	79.58
407.39	46.81
407.58	51.49
407.77	28.09
407.96	58.51
408.15	72.56
408.34	23.41
408.54	21.06
408.73	37.45
408.92	0.00
409.11	28.09
409.30	0.00
409.49	0.00
409.68	0.00
409.87	46.81
410.07	110.01
410.26	53.83
410.45	84.26
410.64	23.41
410.83	28.09
411.02	32.77
411.21	56.17
411.40	0.00
411.59	0.00
411.78	35.11
411.98	0.00
412.17	0.00
412.36	74.90
412.55	77.24
412.74	23.41
412.93	88.94
413.12	9.36
413.31	0.00
413.50	28.09
413.69	107.66
413.88	63.19
414.07	46.81
414.26	0.00
414.45	60.85
414.64	7.02
414.83	21.06
415.02	63.19
415.22	53.83
415.41	100.64
415.60	70.22
415.79	28.09
415.98	16.38
416.17	0.00
416.36	63.19
416.55	51.49
416.74	63.19
416.93	21.06
417.12	0.00
417.31	58.51
417.50	7.02
417.69	46.81
417.88	0.00
418.07	93.62
418.26	37.45
418.45	30.43
418.64	39.79
418.83	0.00
419.02	0.00
419.21	16.38
419.39	0.00
419.58	18.72
419.77	58.51
419.96	60.85
420.15	67.88
420.34	0.00
420.53	0.00
420.72	70.22
420.91	28.09
421.10	0.00
421.29	0.00
421.48	58.51
421.67	0.00
421.86	4.68
422.05	42.13
422.24	53.83
422.43	16.38
422.61	37.45
422.80	2.34
422.99	30.43
423.18	25.75
423.37	70.22
423.56	46.81
423.75	56.17
423.94	60.85
424.13	0.00
424.32	4.68
424.50	28.09
424.69	39.79
424.88	65.54
425.07	0.00
425.26	0.00
425.45	32.77
425.64	60.85
425.83	14.04
426.01	37.45
426.20	16.38
426.39	65.54
426.58	44.47
426.77	42.13
426.96	84.26
427.15	35.11
427.33	0.00
427.52	2.34
427.71	0.00
427.90	23.41
428.09	88.94
428.28	39.79
428.46	9.36
428.65	51.49
428.84	70.22
429.03	81.92
429.22	67.88
429.40	70.22
429.59	98.30
429.78	0.00
429.97	7.02
430.16	93.62
430.34	51.49
430.53	4.68
430.72	0.00
430.91	0.00
431.10	56.17
431.28	32.77
431.47	28.09
431.66	25.75
431.85	21.06
432.03	23.41
432.22	46.81
432.41	105.32
432.60	0.00
432.79	23.41
432.97	37.45
433.16	28.09
433.35	39.79
433.54	37.45
433.72	0.00
433.91	0.00
434.10	25.75
434.28	25.75
434.47	32.77
434.66	0.00
434.85	0.00
435.03	18.72
435.22	37.45
435.41	32.77
435.59	70.22
435.78	0.00
435.97	32.77
436.16	21.06
436.34	44.47
436.53	23.41
436.72	28.09
436.90	65.54
437.09	21.06
437.28	11.70
437.46	30.43
437.65	0.00
437.84	44.47
438.02	0.00
438.21	14.04
438.40	58.51
438.58	0.00
438.77	0.00
438.96	32.77
439.14	53.83
439.33	70.22
439.52	65.54
439.70	53.83
439.89	0.00
440.08	28.09
440.26	32.77
440.45	0.00
440.63	44.47
440.82	18.72
441.01	0.00
441.19	4.68
441.38	58.51
441.57	58.51
441.75	84.26
441.94	23.41
442.12	70.22
442.31	35.11
442.50	88.94
442.68	28.09
442.87	58.51
443.05	0.00
443.24	72.56
443.43	18.72
443.61	65.54
443.80	65.54
443.98	35.11
444.17	16.38
444.35	2.34
444.54	21.06
444.73	9.36
444.91	93.62
445.10	0.00
445.28	0.00
445.47	91.28
445.65	0.00
445.84	0.00
446.02	46.81
446.21	84.26
446.39	25.75
446.58	84.26
446.77	0.00
446.95	49.15
447.14	16.38
447.32	67.88
447.51	32.77
447.69	0.00
447.88	16.38
448.06	53.83
448.25	0.00
448.43	102.98
448.62	9.36
448.80	67.88
448.99	74.90
449.17	16.38
449.36	37.45
449.54	0.00
449.73	70.22
449.91	79.58
450.10	39.79
450.28	39.79
450.46	2.34
450.65	0.00
450.83	74.90
451.02	32.77
451.20	18.72
451.39	0.00
451.57	53.83
451.76	46.81
451.94	46.81
452.13	2.34
452.31	51.49
452.49	21.06
452.68	18.72
452.86	53.83
453.05	28.09
453.23	39.79
453.42	32.77
453.60	67.88
453.78	79.58
453.97	63.19
454.15	0.00
454.34	58.51
454.52	70.22
454.70	60.85
454.89	56.17
455.07	37.45
455.26	51.49
455.44	56.17
455.62	30.43
455.81	65.54
455.99	21.06
456.17	0.00
456.36	2.34
456.54	14.04
456.73	0.00
456.91	0.00
457.09	0.00
457.28	53.83
457.46	30.43
457.64	0.00
457.83	49.15
458.01	0.00
458.19	42.13
458.38	25.75
458.56	37.45
458.74	0.00
458.93	105.32
459.11	81.92
459.29	39.79
459.48	58.51
459.66	44.47
459.84	9.36
460.03	0.00
460.21	35.11
460.39	67.88
460.57	21.06
460.76	0.00
460.94	28.09
461.12	37.45
461.31	53.83
461.49	9.36
461.67	16.38
461.85	9.36
462.04	25.75
462.22	100.64
462.40	39.79
462.59	7.02
462.77	51.49
462.95	0.00
463.13	16.38
463.32	0.00
463.50	14.04
463.68	77.24
463.86	23.41
464.05	63.19
464.23	23.41
464.41	44.47
464.59	0.00
464.78	88.94
464.96	58.51
465.14	0.00
465.32	77.24
465.50	32.77
465.69	84.26
465.87	2.34
466.05	21.06
466.23	32.77
466.41	98.30
466.60	49.15
466.78	11.70
466.96	84.26
467.14	23.41
467.32	0.00
467.51	11.70
467.69	67.88
467.87	81.92
468.05	70.22
468.23	16.38
468.41	46.81
468.60	9.36
468.78	88.94
468.96	32.77
469.14	53.83
469.32	0.00
469.50	4.68
469.69	37.45
469.87	39.79
470.05	16.38
470.23	39.79
470.41	30.43
470.59	77.24
470.77	49.15
470.95	91.28
471.14	49.15
471.32	70.22
471.50	32.77
471.68	0.00
471.86	0.00
472.04	32.77
472.22	0.00
472.40	0.00
472.58	4.68
472.77	18.72
472.95	0.00
473.13	28.09
473.31	51.49
473.49	37.45
473.67	35.11
473.85	39.79
474.03	0.00
474.21	67.88
474.39	98.30
474.57	25.75
474.75	18.72
474.93	67.88
475.12	0.00
475.30	77.24
475.48	65.54
475.66	93.62
475.84	23.41
476.02	51.49
476.20	51.49
476.38	0.00
476.56	58.51
476.74	23.41
476.92	28.09
477.10	18.72
477.28	67.88
477.46	0.00
477.64	46.81
477.82	105.32
478.00	49.15
478.18	51.49
478.36	18.72
478.54	42.13
478.72	16.38
478.90	77.24
479.08	63.19
479.26	30.43
479.44	21.06
479.62	60.85
479.80	0.00
479.98	0.00
480.16	7.02
480.34	58.51
480.52	42.13
480.70	16.38
480.88	46.81
481.06	0.00
481.24	65.54
481.41	0.00
481.59	30.43
481.77	88.94
481.95	56.17
482.13	74.90
482.31	72.56
482.49	42.13
482.67	16.38
482.85	105.32
483.03	25.75
483.21	0.00
483.39	0.00
483.57	0.00
483.74	124.05
483.92	21.06
484.10	0.00
484.28	30.43
484.46	56.17
484.64	98.30
484.82	67.88
485.00	23.41
485.18	0.00
485.35	56.17
485.53	23.41
485.71	0.00
485.89	25.75
486.07	86.60
486.25	56.17
486.43	16.38
486.61	21.06
486.78	67.88
486.96	0.00
487.14	16.38
487.32	67.88
487.50	37.45
487.68	135.75
487.85	49.15
488.03	9.36
488.21	0.00
488.39	0.00
488.57	39.79
488.75	53.83
488.92	72.56
489.10	37.45
489.28	32.77
489.46	93.62
489.64	28.09
489.81	28.09
489.99	65.54
490.17	0.00
490.35	11.70
490.53	42.13
490.70	58.51
490.88	28.09
491.06	32.77
491.24	63.19
491.41	2.34
491.59	39.79
491.77	9.36
491.95	42.13
492.13	39.79
492.30	72.56
492.48	77.24
492.66	91.28
492.84	74.90
493.01	21.06
493.19	35.11
493.37	0.00
493.54	51.49
493.72	95.96
493.90	70.22
494.08	72.56
494.25	77.24
494.43	32.77
494.61	42.13
494.79	44.47
494.96	4.68
495.14	53.83
495.32	74.90
495.49	14.04
495.67	11.70
495.85	9.36
496.02	28.09
496.20	0.00
496.38	39.79
496.55	25.75
496.73	60.85
496.91	98.30
497.09	16.38
497.26	21.06
497.44	11.70
497.62	30.43
497.79	93.62
497.97	0.00
498.14	81.92
498.32	39.79
498.50	70.22
498.67	70.22
498.85	81.92
499.03	70.22
499.20	39.79
499.38	37.45
499.56	72.56
499.73	91.28
499.91	7.02
500.08	11.70
500.26	51.49
500.44	60.85
500.61	18.72
500.79	42.13
500.97	60.85
501.14	21.06
501.32	35.11
501.49	63.19
501.67	93.62
501.84	28.09
502.02	39.79
502.20	18.72
502.37	74.90
502.55	4.68
502.72	51.49
502.90	7.02
503.07	0.00
503.25	51.49
503.43	149.79
503.60	16.38
503.78	30.43
503.95	77.24
504.13	88.94
504.30	81.92
504.48	67.88
504.65	42.13
504.83	44.47
505.01	0.00
505.18	21.06
505.36	11.70
505.53	0.00
505.71	56.17
505.88	79.58
506.06	35.11
506.23	53.83
506.41	0.00
506.58	0.00
506.76	32.77
506.93	0.00
507.11	32.77
507.28	98.30
507.46	46.81
507.63	32.77
507.81	0.00
507.98	58.51
508.16	86.60
508.33	77.24
508.50	0.00
508.68	30.43
508.85	42.13
509.03	58.51
509.20	77.24
509.38	84.26
509.55	11.70
509.73	35.11
509.90	18.72
510.08	7.02
510.25	56.17
510.42	74.90
510.60	74.90
510.77	77.24
510.95	93.62
511.12	88.94
511.30	100.64
511.47	37.45
511.64	46.81
511.82	37.45
511.99	0.00
512.17	21.06
512.34	77.24
512.51	0.00
512.69	58.51
512.86	152.13
513.04	65.54
513.21	42.13
513.38	11.70
513.56	70.22
513.73	56.17
513.90	0.00
514.08	81.92
514.25	88.94
514.43	112.35
514.60	72.56
514.77	91.28
514.95	0.00
515.12	28.09
515.29	35.11
515.47	60.85
515.64	35.11
515.81	121.71
515.99	63.19
516.16	51.49
516.33	124.05
516.51	0.00
516.68	39.79
516.85	7.02
517.03	0.00
517.20	51.49
517.37	21.06
517.54	67.88
517.72	53.83
517.89	0.00
518.06	0.00
518.24	39.79
518.41	30.43
518.58	42.13
518.75	84.26
518.93	65.54
519.10	28.09
519.27	51.49
519.45	0.00
519.62	39.79
519.79	81.92
519.96	93.62
520.14	0.00
520.31	23.41
520.48	0.00
520.65	51.49
520.83	39.79
521.00	105.32
521.17	91.28
521.34	60.85
521.52	74.90
521.69	0.00
521.86	51.49
522.03	9.36
522.20	42.13
522.38	21.06
522.55	37.45
522.72	0.00
522.89	0.00
523.07	49.15
523.24	84.26
523.41	53.83
523.58	18.72
523.75	16.38
523.92	86.60
524.10	0.00
524.27	14.04
524.44	30.43
524.61	0.00
524.78	23.41
524.96	51.49
525.13	53.83
525.30	86.60
525.47	77.24
525.64	32.77
525.81	35.11
525.98	44.47
526.16	44.47
526.33	56.17
526.50	0.00
526.67	2.34
526.84	30.43
527.01	86.60
527.18	70.22
527.36	11.70
527.53	74.90
527.70	88.94
527.87	0.00
528.04	0.00
528.21	56.17
528.38	7.02
528.55	88.94
528.72	37.45
528.89	16.38
529.07	77.24
529.24	102.98
529.41	58.51
529.58	84.26
529.75	14.04
529.92	25.75
530.09	121.71
530.26	28.09
530.43	51.49
530.60	107.66
530.77	58.51
530.94	88.94
531.11	102.98
531.28	0.00
531.46	70.22
531.63	58.51
531.80	46.81
531.97	4.68
532.14	100.64
532.31	110.01
532.48	30.43
532.65	23.41
532.82	126.39
532.99	25.75
533.16	23.41
533.33	63.19
533.50	70.22
533.67	23.41
533.84	25.75
534.01	77.24
534.18	81.92
534.35	91.28
534.52	42.13
534.69	63.19
534.86	98.30
535.03	56.17
535.20	93.62
535.37	70.22
535.54	0.00
535.71	65.54
535.88	72.56
536.05	23.41
536.22	84.26
536.38	21.06
536.55	65.54
536.72	25.75
536.89	18.72
537.06	37.45
537.23	46.81
537.40	16.38
537.57	72.56
537.74	32.77
537.91	35.11
538.08	0.00
538.25	11.70
538.42	37.45
538.59	44.47
538.75	100.64
538.92	53.83
539.09	4.68
539.26	124.05
539.43	42.13
539.60	133.41
539.77	229.37
539.94	170.86
540.11	222.35
540.28	131.07
540.44	86.60
540.61	88.94
540.78	0.00
540.95	72.56
541.12	9.36
541.29	51.49
541.46	0.00
541.62	0.00
541.79	107.66
541.96	60.85
542.13	37.45
542.30	65.54
542.47	0.00
542.63	70.22
542.80	0.00
542.97	70.22
543.14	81.92
543.31	7.02
543.48	46.81
543.64	4.68
543.81	46.81
543.98	46.81
544.15	72.56
544.32	30.43
544.48	37.45
544.65	42.13
544.82	42.13
544.99	93.62
545.16	53.83
545.32	65.54
545.49	70.22
545.66	53.83
545.83	28.09
546.00	37.45
546.16	32.77
546.33	65.54
546.50	51.49
546.67	14.04
546.83	49.15
547.00	32.77
547.17	67.88
547.34	0.00
547.50	51.49
547.67	14.04
547.84	63.19
548.00	0.00
548.17	0.00
548.34	11.70
548.51	39.79
548.67	18.72
548.84	16.38
549.01	63.19
549.18	119.37
549.34	60.85
549.51	133.41
549.68	18.72
549.84	0.00
550.01	65.54
550.18	70.22
550.34	37.45
550.51	63.19
550.68	91.28
550.84	56.17
551.01	65.54
551.18	0.00
551.34	32.77
551.51	44.47
551.68	60.85
551.84	11.70
552.01	2.34
552.18	0.00
552.34	39.79
552.51	56.17
552.68	58.51
552.84	0.00
553.01	0.00
553.18	44.47
553.34	42.13
553.51	65.54
553.67	91.28
553.84	18.72
554.01	56.17
554.17	53.83
554.34	81.92
554.51	93.62
554.67	32.77
554.84	35.11
555.00	58.51
555.17	0.00
555.33	46.81
555.50	70.22
555.67	93.62
555.83	56.17
556.00	46.81
556.16	0.00
556.33	32.77
556.50	32.77
556.66	51.49
556.83	39.79
556.99	70.22
557.16	51.49
557.32	32.77
557.49	9.36
557.65	21.06
557.82	0.00
557.98	0.00
558.15	84.26
558.32	49.15
558.48	86.60
558.65	23.41
558.81	7.02
558.98	39.79
559.14	4.68
559.31	21.06
559.47	72.56
559.64	21.06
559.80	46.81
559.97	4.68
560.13	0.00
560.30	32.77
560.46	79.58
560.63	88.94
560.79	21.06
560.96	60.85
561.12	53.83
561.29	23.41
561.45	102.98
561.61	0.00
561.78	0.00
561.94	46.81
562.11	28.09
562.27	32.77
562.44	81.92
562.60	79.58
562.77	46.81
562.93	23.41
563.10	112.35
563.26	0.00
563.42	81.92
563.59	16.38
563.75	0.00
563.92	79.58
564.08	0.00
564.24	114.69
564.41	0.00
564.57	30.43
564.74	49.15
564.90	81.92
565.07	112.35
565.23	37.45
565.39	0.00
565.56	67.88
565.72	21.06
565.88	145.11
566.05	51.49
566.21	72.56
566.38	16.38
566.54	74.90
566.70	46.81
566.87	0.00
567.03	30.43
567.19	39.79
567.36	0.00
567.52	16.38
567.68	49.15
567.85	58.51
568.01	79.58
568.17	9.36
568.34	46.81
568.50	70.22
568.66	77.24
568.83	25.75
568.99	23.41
569.15	23.41
569.32	2.34
569.48	0.00
569.64	74.90
569.81	23.41
569.97	128.73
570.13	46.81
570.30	0.00
570.46	28.09
570.62	65.54
570.78	0.00
570.95	74.90
571.11	56.17
571.27	81.92
571.43	0.00
571.60	53.83
571.76	93.62
571.92	67.88
572.09	91.28
572.25	72.56
572.41	65.54
572.57	23.41
572.74	35.11
572.90	23.41
573.06	102.98
573.22	0.00
573.38	102.98
573.55	81.92
573.71	102.98
573.87	51.49
574.03	81.92
574.20	72.56
574.36	51.49
574.52	119.37
574.68	32.77
574.84	37.45
575.01	102.98
575.17	2.34
575.33	23.41
575.49	25.75
575.65	37.45
575.82	98.30
575.98	145.11
576.14	128.73
576.30	152.13
576.46	121.71
576.62	112.35
576.79	79.58
576.95	88.94
577.11	56.17
577.27	46.81
577.43	44.47
577.59	63.19
577.75	16.38
577.92	44.47
578.08	56.17
578.24	93.62
578.40	25.75
578.56	74.90
578.72	110.01
578.88	60.85
579.04	51.49
579.21	0.00
579.37	142.77
579.53	0.00
579.69	0.00
579.85	18.72
580.01	72.56
580.17	79.58
580.33	9.36
580.49	42.13
580.65	124.05
580.82	119.37
580.98	58.51
581.14	77.24
581.30	117.03
581.46	77.24
581.62	95.96
581.78	142.77
581.94	107.66
582.10	98.30
582.26	42.13
582.42	147.45
582.58	98.30
582.74	126.39
582.90	88.94
583.06	60.85
583.22	102.98
583.38	65.54
583.54	65.54
583.70	95.96
583.86	135.75
584.02	124.05
584.18	117.03
584.34	168.52
584.50	540.66
584.66	3419.52
584.82	8397.84
584.98	12250.36
585.14	10958.39
585.30	6853.09
585.46	4084.23
585.62	2518.42
585.78	1226.44
585.94	479.81
586.10	210.65
586.26	112.35
586.42	140.43
586.58	154.48
586.74	126.39
586.90	95.96
587.06	67.88
587.22	138.09
587.38	98.30
587.54	180.22
587.70	479.81
587.86	912.81
588.02	957.28
588.18	624.92
588.34	468.11
588.49	353.42
588.65	163.84
588.81	91.28
588.97	102.98
589.13	7.02
589.29	107.66
589.45	65.54
589.61	117.03
589.77	56.17
589.93	135.75
590.08	56.17
590.24	65.54
590.40	81.92
590.56	0.00
590.72	72.56
590.88	72.56
591.04	30.43
591.20	32.77
591.35	70.22
591.51	107.66
591.67	39.79
591.83	21.06
591.99	88.94
592.15	65.54
592.31	11.70
592.46	102.98
592.62	39.79
592.78	67.88
592.94	58.51
593.10	42.13
593.26	56.17
593.41	30.43
593.57	0.00
593.73	98.30
593.89	435.34
594.05	1118.78
594.20	1596.25
594.36	1556.46
594.52	1078.99
594.68	617.90
594.84	461.09
594.99	222.35
595.15	121.71
595.31	152.13
595.47	49.15
595.62	102.98
595.78	9.36
595.94	0.00
596.10	65.54
596.25	81.92
596.41	84.26
596.57	74.90
596.73	77.24
596.88	14.04
597.04	208.31
597.20	337.04
597.36	344.06
597.51	248.10
597.67	189.58
597.83	140.43
597.99	81.92
598.14	98.30
598.30	0.00
598.46	93.62
598.61	58.51
598.77	30.43
598.93	0.00
599.09	16.38
599.24	72.56
599.40	70.22
599.56	93.62
599.71	0.00
599.87	11.70
600.03	49.15
600.18	44.47
600.34	49.15
600.50	0.00
600.65	9.36
600.81	49.15
600.97	4.68
601.12	77.24
601.28	110.01
601.44	77.24
601.59	0.00
601.75	65.54
601.91	74.90
602.06	44.47
602.22	28.09
602.37	121.71
602.53	248.10
602.69	369.80
602.84	400.23
603.00	341.72
603.16	227.03
603.31	203.63
603.47	93.62
603.62	72.56
603.78	39.79
603.94	67.88
604.09	35.11
604.25	37.45
604.40	39.79
604.56	16.38
604.71	0.00
604.87	0.00
605.03	107.66
605.18	2.34
605.34	84.26
605.49	70.22
605.65	126.39
605.80	2.34
605.96	44.47
606.12	63.19
606.27	44.47
606.43	98.30
606.58	72.56
606.74	194.26
606.89	606.20
607.05	1011.11
607.20	1378.58
607.36	1104.73
607.51	699.82
607.67	484.49
607.82	292.57
607.98	159.16
608.13	117.03
608.29	138.09
608.44	14.04
608.60	65.54
608.75	175.54
608.91	133.41
609.06	795.78
609.22	1722.63
609.37	2256.28
609.53	2022.22
609.68	1317.72
609.84	898.77
609.99	517.26
610.15	390.87
610.30	133.41
610.46	56.17
610.61	88.94
610.76	79.58
610.92	37.45
611.07	81.92
611.23	117.03
611.38	49.15
611.54	0.00
611.69	102.98
611.84	58.51
612.00	119.37
612.15	117.03
612.31	98.30
612.46	102.98
612.62	128.73
612.77	88.94
612.92	110.01
613.08	74.90
613.23	98.30
613.39	119.37
613.54	72.56
613.69	779.40
613.85	2106.48
614.00	3300.16
614.15	3473.36
614.31	2537.14
614.46	1806.89
614.62	1086.01
614.77	683.44
614.92	365.12
615.08	74.90
615.23	124.05
615.38	128.73
615.54	91.28
615.69	128.73
615.84	425.98
616.00	835.57
616.15	964.30
616.30	765.36
616.46	592.16
616.61	374.49
616.76	337.04
616.92	147.45
617.07	44.47
617.22	124.05
617.37	7.02
617.53	35.11
617.68	35.11
617.83	65.54
617.99	0.00
618.14	95.96
618.29	9.36
618.45	60.85
618.60	100.64
618.75	44.47
618.90	65.54
619.06	42.13
619.21	86.60
619.36	77.24
619.51	39.79
619.67	30.43
619.82	0.00
619.97	42.13
620.12	93.62
620.28	32.77
620.43	0.00
620.58	91.28
620.73	35.11
620.89	95.96
621.04	114.69
621.19	245.76
621.34	456.40
621.49	596.84
621.65	557.05
621.80	430.66
621.95	273.84
622.10	163.84
622.25	145.11
622.41	91.28
622.56	0.00
622.71	67.88
622.86	32.77
623.01	28.09
623.16	53.83
623.32	18.72
623.47	4.68
623.62	46.81
623.77	58.51
623.92	56.17
624.07	65.54
624.23	16.38
624.38	0.00
624.53	32.77
624.68	88.94
624.83	21.06
624.98	0.00
625.13	65.54
625.29	72.56
625.44	46.81
625.59	53.83
625.74	63.19
625.89	77.24
626.04	369.80
626.19	1041.54
626.34	1647.74
626.49	1935.62
626.65	1540.07
626.80	1001.75
626.95	624.92
627.10	498.53
627.25	245.76
627.40	112.35
627.55	42.13
627.70	56.17
627.85	21.06
628.00	72.56
628.15	65.54
628.30	14.04
628.45	0.00
628.60	56.17
628.76	21.06
628.91	49.15
629.06	21.06
629.21	21.06
629.36	56.17
629.51	100.64
629.66	46.81
629.81	91.28
629.96	243.42
630.11	325.33
630.26	468.11
630.41	440.02
630.56	266.82
630.71	229.37
630.86	220.01
631.01	168.52
631.16	44.47
631.31	133.41
631.46	138.09
631.61	37.45
631.76	32.77
631.91	16.38
632.06	72.56
632.21	70.22
632.36	84.26
632.51	39.79
632.66	51.49
632.81	161.50
632.96	599.18
633.10	1018.13
633.25	1331.76
633.40	1114.10
633.55	716.20
633.70	514.92
633.85	416.62
634.00	205.97
634.15	70.22
634.30	86.60
634.45	100.64
634.60	28.09
634.75	84.26
634.90	102.98
635.05	28.09
635.19	107.66
635.34	39.79
635.49	42.13
635.64	72.56
635.79	128.73
635.94	16.38
636.09	84.26
636.24	86.60
636.39	114.69
636.53	93.62
636.68	39.79
636.83	79.58
636.98	0.00
637.13	93.62
637.28	86.60
637.43	74.90
637.57	114.69
637.72	517.26
637.87	1376.24
638.02	2150.95
638.17	2450.54
638.32	1806.89
638.46	1224.10
638.61	835.57
638.76	580.45
638.91	252.78
639.06	126.39
639.20	114.69
639.35	156.82
639.50	241.08
639.65	765.36
639.80	2232.87
639.94	3328.24
640.09	3721.45
640.24	2949.08
640.39	2001.16
640.54	1301.34
640.68	788.76
640.83	383.85
640.98	208.31
641.13	124.05
641.27	220.01
641.42	67.88
641.57	39.79
641.72	72.56
641.86	70.22
642.01	28.09
642.16	51.49
642.31	110.01
642.45	11.70
642.60	77.24
642.75	86.60
642.90	18.72
643.04	72.56
643.19	95.96
643.34	21.06
643.48	21.06
643.63	58.51
643.78	28.09
643.93	60.85
644.07	100.64
644.22	58.51
644.37	56.17
644.51	39.79
644.66	39.79
644.81	88.94
644.95	0.00
645.10	0.00
645.25	9.36
645.39	0.00
645.54	32.77
645.69	30.43
645.83	0.00
645.98	30.43
646.13	39.79
646.27	37.45
646.42	42.13
646.57	0.00
646.71	91.28
646.86	46.81
647.00	0.00
647.15	67.88
647.30	65.54
647.44	30.43
647.59	0.00
647.74	0.00
647.88	100.64
648.03	2.34
648.17	28.09
648.32	0.00
648.47	9.36
648.61	25.75
648.76	18.72
648.90	37.45
649.05	4.68
649.20	46.81
649.34	51.49
649.49	53.83
649.63	21.06
649.78	88.94
649.92	51.49
650.07	285.55
650.21	873.02
650.36	1607.95
650.51	1916.90
650.65	1579.86
650.80	1188.99
650.94	697.48
651.09	545.34
651.23	266.82
651.38	112.35
651.52	51.49
651.67	95.96
651.81	58.51
651.96	91.28
652.10	49.15
652.25	42.13
652.39	88.94
652.54	18.72
652.68	147.45
652.83	297.25
652.97	535.98
653.12	770.04
653.26	692.80
653.41	489.17
653.55	358.10
653.70	238.73
653.84	180.22
653.99	95.96
654.13	25.75
654.27	0.00
654.42	42.13
654.56	18.72
654.71	32.77
654.85	60.85
655.00	0.00
655.14	37.45
655.29	110.01
655.43	65.54
655.57	51.49
655.72	51.49
655.86	51.49
656.01	84.26
656.15	0.00
656.30	46.81
656.44	32.77
656.58	0.00
656.73	74.90
656.87	53.83
657.01	11.70
657.16	0.00
657.30	79.58
657.45	84.26
657.59	18.72
657.73	18.72
657.88	37.45
658.02	28.09
658.16	58.51
658.31	30.43
658.45	77.24
658.60	72.56
658.74	107.66
658.88	25.75
659.03	9.36
659.17	102.98
659.31	105.32
659.46	440.02
659.60	669.39
659.74	924.51
659.89	894.08
660.03	664.71
660.17	449.38
660.32	231.71
660.46	131.07
660.60	95.96
660.74	91.28
660.89	84.26
661.03	51.49
661.17	37.45
661.32	0.00
661.46	9.36
661.60	25.75
661.74	56.17
661.89	86.60
662.03	37.45
662.17	7.02
662.31	16.38
662.46	58.51
662.60	46.81
662.74	100.64
662.88	49.15
663.03	18.72
663.17	81.92
663.31	67.88
663.45	46.81
663.60	70.22
663.74	30.43
663.88	51.49
664.02	114.69
664.17	35.11
664.31	14.04
664.45	30.43
664.59	0.00
664.73	0.00
664.88	16.38
665.02	0.00
665.16	119.37
665.30	65.54
665.44	88.94
665.59	49.15
665.73	7.02
665.87	25.75
666.01	0.00
666.15	102.98
666.29	0.00
666.44	88.94
666.58	49.15
666.72	65.54
666.86	0.00
667.00	53.83
667.14	67.88
667.28	252.78
667.43	711.52
667.57	1315.38
667.71	1753.06
667.85	1537.73
667.99	1116.44
668.13	706.84
668.27	362.78
668.41	266.82
668.56	107.66
668.70	39.79
668.84	60.85
668.98	79.58
669.12	88.94
669.26	28.09
669.40	35.11
669.54	25.75
669.68	81.92
669.82	21.06
669.96	0.00
670.10	65.54
670.25	9.36
670.39	35.11
670.53	0.00
670.67	14.04
670.81	91.28
670.95	70.22
671.09	42.13
671.23	245.76
671.37	690.46
671.51	912.81
671.65	1069.62
671.79	854.30
671.93	573.43
672.07	325.33
672.21	201.29
672.35	177.88
672.49	60.85
672.63	100.64
672.77	70.22
672.91	9.36
673.05	39.79
673.19	51.49
673.33	37.45
673.47	0.00
673.61	49.15
673.75	100.64
673.89	0.00
674.03	0.00
674.17	25.75
674.31	4.68
674.45	63.19
674.59	93.62
674.73	51.49
674.87	39.79
675.01	60.85
675.15	0.00
675.29	63.19
675.43	25.75
675.56	35.11
675.70	0.00
675.84	25.75
675.98	65.54
676.12	49.15
676.26	25.75
676.40	0.00
676.54	105.32
676.68	0.00
676.82	46.81
676.96	84.26
677.10	63.19
677.23	32.77
677.37	9.36
677.51	21.06
677.65	37.45
677.79	56.17
677.93	98.30
678.07	0.00
678.21	21.06
678.34	81.92
678.48	74.90
678.62	4.68
678.76	46.81
678.90	67.88
679.04	7.02
679.18	18.72
679.31	63.19
679.45	42.13
679.59	98.30
679.73	72.56
679.87	0.00
680.00	0.00
680.14	63.19
680.28	32.77
680.42	9.36
680.56	30.43
680.70	28.09
680.83	35.11
680.97	28.09
681.11	56.17
681.25	0.00
681.39	60.85
681.52	9.36
681.66	30.43
681.80	0.00
681.94	88.94
682.07	58.51
682.21	58.51
682.35	0.00
682.49	25.75
682.62	0.00
682.76	95.96
682.90	84.26
683.04	0.00
683.17	42.13
683.31	91.28
683.45	49.15
683.59	0.00
683.72	0.00
683.86	0.00
684.00	25.75
684.13	91.28
684.27	0.00
684.41	0.00
684.55	63.19
684.68	56.17
684.82	0.00
684.96	28.09
685.09	0.00
685.23	4.68
685.37	9.36
685.50	102.98
685.64	28.09
685.78	0.00
685.91	112.35
686.05	42.13
686.19	16.38
686.32	0.00
686.46	0.00
686.60	9.36
686.73	60.85
686.87	0.00
687.01	30.43
687.14	72.56
687.28	60.85
687.42	63.19
687.55	53.83
687.69	21.06
687.82	32.77
687.96	35.11
688.10	74.90
688.23	88.94
688.37	14.04
688.50	2.34
688.64	0.00
688.78	51.49
688.91	32.77
689.05	49.15
689.18	56.17
689.32	23.41
689.46	63.19
689.59	28.09
689.73	53.83
689.86	25.75
690.00	39.79
690.13	18.72
690.27	44.47
690.41	23.41
690.54	42.13
690.68	16.38
690.81	21.06
690.95	16.38
691.08	0.00
691.22	72.56
691.35	74.90
691.49	53.83
691.62	70.22
691.76	93.62
691.89	100.64
692.03	49.15
692.16	49.15
692.30	2.34
692.43	110.01
692.57	301.93
692.70	615.56
692.84	713.86
692.97	718.54
693.11	533.64
693.24	418.96
693.38	292.57
693.51	121.71
693.65	152.13
693.78	93.62
693.92	39.79
694.05	124.05
694.19	60.85
694.32	0.00
694.45	18.72
694.59	2.34
694.72	51.49
694.86	63.19
694.99	30.43
695.13	39.79
695.26	0.00
695.39	51.49
695.53	39.79
695.66	88.94
695.80	67.88
695.93	0.00
696.07	56.17
696.20	21.06
696.33	18.72
696.47	107.66
696.60	88.94
696.73	86.60
696.87	42.13
697.00	145.11
697.14	16.38
697.27	28.09
697.40	44.47
697.54	30.43
697.67	53.83
697.80	2.34
697.94	0.00
698.07	0.00
698.21	105.32
698.34	0.00
698.47	49.15
698.61	0.00
698.74	30.43
698.87	0.00
699.01	0.00
699.14	65.54
699.27	110.01
699.40	67.88
699.54	65.54
699.67	18.72
699.80	37.45
699.94	0.00
700.07	46.81
700.20	4.68
700.34	9.36
700.47	0.00
700.60	88.94
700.73	14.04
700.87	39.79
701.00	0.00
701.13	14.04
701.26	53.83
701.40	35.11
701.53	65.54
701.66	42.13
701.79	7.02
701.93	74.90
702.06	32.77
702.19	49.15
702.32	184.90
702.46	114.69
702.59	23.41
702.72	135.75
702.85	369.80
702.99	957.28
703.12	1282.61
703.25	1455.81
703.38	1266.23
703.51	1022.81
703.65	781.74
703.78	580.45
703.91	351.08
704.04	264.48
704.17	126.39
704.31	58.51
704.44	42.13
704.57	14.04
704.70	79.58
704.83	39.79
704.96	67.88
705.10	44.47
705.23	58.51
>>>>>End Processed Spectral Data<<<<<
