SpectraSuite Data File
++++++++++++++++++++++++++++++++++++
Date: Fri Oct 04 12:13:42 GMT-05:00 2013
User: price-jones
Dark Spectrum Present: No
Reference Spectrum Present: No
Number of Sampled Component Spectra: 1
Spectrometers: USB2+H05261
Integration Time (usec): 10000 (USB2+H05261)
Spectra Averaged: 1 (USB2+H05261)
Boxcar Smoothing: 0 (USB2+H05261)
Correct for Electrical Dark: No (USB2+H05261)
Strobe/Lamp Enabled: No (USB2+H05261)
Correct for Detector Non-linearity: No (USB2+H05261)
Correct for Stray Light: No (USB2+H05261)
Number of Pixels in Processed Spectrum: 2048
>>>>>Begin Processed Spectral Data<<<<<
365.73	0.00
365.92	0.00
366.12	0.00
366.32	0.00
366.52	0.00
366.72	0.00
366.91	0.00
367.11	0.00
367.31	0.00
367.51	0.00
367.70	0.00
367.90	0.00
368.10	0.00
368.30	0.00
368.49	0.00
368.69	0.00
368.89	0.00
369.09	0.00
369.28	0.00
369.48	0.00
369.68	0.00
369.87	0.00
370.07	0.00
370.27	0.00
370.47	0.00
370.66	0.00
370.86	0.00
371.06	0.00
371.25	0.00
371.45	0.00
371.65	0.00
371.84	0.00
372.04	32.77
372.24	0.00
372.44	0.00
372.63	7.02
372.83	0.00
373.03	32.77
373.22	39.79
373.42	42.13
373.62	0.00
373.81	60.85
374.01	0.00
374.21	0.00
374.40	0.00
374.60	77.24
374.79	0.00
374.99	35.11
375.19	4.68
375.38	91.28
375.58	32.77
375.78	18.72
375.97	51.49
376.17	25.75
376.37	0.00
376.56	4.68
376.76	58.51
376.95	0.00
377.15	86.60
377.35	46.81
377.54	42.13
377.74	23.41
377.93	60.85
378.13	79.58
378.33	16.38
378.52	21.06
378.72	0.00
378.91	0.00
379.11	23.41
379.31	32.77
379.50	67.88
379.70	28.09
379.89	18.72
380.09	9.36
380.28	46.81
380.48	21.06
380.68	0.00
380.87	74.90
381.07	14.04
381.26	4.68
381.46	23.41
381.65	65.54
381.85	95.96
382.04	0.00
382.24	23.41
382.43	4.68
382.63	7.02
382.83	63.19
383.02	39.79
383.22	25.75
383.41	32.77
383.61	67.88
383.80	0.00
384.00	0.00
384.19	11.70
384.39	0.00
384.58	4.68
384.78	28.09
384.97	44.47
385.17	65.54
385.36	28.09
385.56	91.28
385.75	56.17
385.95	32.77
386.14	30.43
386.34	102.98
386.53	16.38
386.72	51.49
386.92	0.00
387.11	30.43
387.31	14.04
387.50	0.00
387.70	0.00
387.89	0.00
388.09	0.00
388.28	81.92
388.48	51.49
388.67	0.00
388.86	21.06
389.06	0.00
389.25	23.41
389.45	23.41
389.64	25.75
389.84	18.72
390.03	7.02
390.22	2.34
390.42	44.47
390.61	11.70
390.81	70.22
391.00	30.43
391.19	14.04
391.39	32.77
391.58	56.17
391.78	11.70
391.97	23.41
392.16	0.00
392.36	9.36
392.55	79.58
392.75	60.85
392.94	67.88
393.13	35.11
393.33	37.45
393.52	14.04
393.71	65.54
393.91	28.09
394.10	23.41
394.29	39.79
394.49	0.00
394.68	63.19
394.88	105.32
395.07	18.72
395.26	0.00
395.46	65.54
395.65	81.92
395.84	0.00
396.04	44.47
396.23	32.77
396.42	67.88
396.62	30.43
396.81	35.11
397.00	0.00
397.19	58.51
397.39	25.75
397.58	74.90
397.77	42.13
397.97	30.43
398.16	0.00
398.35	63.19
398.55	0.00
398.74	0.00
398.93	9.36
399.12	11.70
399.32	67.88
399.51	28.09
399.70	88.94
399.90	0.00
400.09	39.79
400.28	0.00
400.47	18.72
400.67	42.13
400.86	81.92
401.05	0.00
401.24	28.09
401.44	63.19
401.63	60.85
401.82	53.83
402.01	0.00
402.21	7.02
402.40	30.43
402.59	14.04
402.78	72.56
402.97	93.62
403.17	98.30
403.36	56.17
403.55	60.85
403.74	42.13
403.93	84.26
404.13	0.00
404.32	51.49
404.51	95.96
404.70	18.72
404.89	0.00
405.09	23.41
405.28	84.26
405.47	14.04
405.66	72.56
405.85	28.09
406.05	56.17
406.24	30.43
406.43	0.00
406.62	42.13
406.81	0.00
407.00	39.79
407.20	0.00
407.39	14.04
407.58	28.09
407.77	21.06
407.96	39.79
408.15	0.00
408.34	37.45
408.54	72.56
408.73	100.64
408.92	51.49
409.11	0.00
409.30	0.00
409.49	74.90
409.68	84.26
409.87	65.54
410.07	0.00
410.26	0.00
410.45	14.04
410.64	0.00
410.83	37.45
411.02	0.00
411.21	88.94
411.40	49.15
411.59	32.77
411.78	32.77
411.98	28.09
412.17	107.66
412.36	25.75
412.55	7.02
412.74	72.56
412.93	16.38
413.12	84.26
413.31	0.00
413.50	0.00
413.69	84.26
413.88	53.83
414.07	0.00
414.26	39.79
414.45	58.51
414.64	18.72
414.83	23.41
415.02	65.54
415.22	0.00
415.41	65.54
415.60	102.98
415.79	21.06
415.98	70.22
416.17	53.83
416.36	11.70
416.55	0.00
416.74	0.00
416.93	35.11
417.12	65.54
417.31	30.43
417.50	0.00
417.69	110.01
417.88	79.58
418.07	35.11
418.26	23.41
418.45	18.72
418.64	21.06
418.83	18.72
419.02	91.28
419.21	16.38
419.39	11.70
419.58	21.06
419.77	0.00
419.96	56.17
420.15	28.09
420.34	0.00
420.53	46.81
420.72	49.15
420.91	30.43
421.10	11.70
421.29	49.15
421.48	0.00
421.67	91.28
421.86	60.85
422.05	37.45
422.24	135.75
422.43	21.06
422.61	56.17
422.80	49.15
422.99	16.38
423.18	74.90
423.37	60.85
423.56	42.13
423.75	60.85
423.94	39.79
424.13	35.11
424.32	91.28
424.50	149.79
424.69	0.00
424.88	4.68
425.07	72.56
425.26	0.00
425.45	0.00
425.64	46.81
425.83	131.07
426.01	25.75
426.20	74.90
426.39	53.83
426.58	86.60
426.77	51.49
426.96	60.85
427.15	88.94
427.33	0.00
427.52	95.96
427.71	65.54
427.90	65.54
428.09	0.00
428.28	42.13
428.46	0.00
428.65	30.43
428.84	79.58
429.03	32.77
429.22	74.90
429.40	0.00
429.59	11.70
429.78	67.88
429.97	56.17
430.16	58.51
430.34	0.00
430.53	107.66
430.72	0.00
430.91	74.90
431.10	21.06
431.28	44.47
431.47	44.47
431.66	39.79
431.85	58.51
432.03	28.09
432.22	42.13
432.41	0.00
432.60	84.26
432.79	56.17
432.97	49.15
433.16	70.22
433.35	32.77
433.54	53.83
433.72	49.15
433.91	21.06
434.10	42.13
434.28	53.83
434.47	30.43
434.66	67.88
434.85	0.00
435.03	70.22
435.22	98.30
435.41	91.28
435.59	30.43
435.78	60.85
435.97	74.90
436.16	107.66
436.34	42.13
436.53	28.09
436.72	95.96
436.90	39.79
437.09	51.49
437.28	16.38
437.46	25.75
437.65	63.19
437.84	0.00
438.02	32.77
438.21	23.41
438.40	35.11
438.58	30.43
438.77	39.79
438.96	37.45
439.14	72.56
439.33	23.41
439.52	88.94
439.70	56.17
439.89	30.43
440.08	21.06
440.26	35.11
440.45	84.26
440.63	79.58
440.82	84.26
441.01	30.43
441.19	65.54
441.38	46.81
441.57	25.75
441.75	79.58
441.94	84.26
442.12	88.94
442.31	30.43
442.50	42.13
442.68	60.85
442.87	39.79
443.05	44.47
443.24	14.04
443.43	46.81
443.61	0.00
443.80	30.43
443.98	0.00
444.17	98.30
444.35	42.13
444.54	79.58
444.73	44.47
444.91	93.62
445.10	51.49
445.28	102.98
445.47	39.79
445.65	4.68
445.84	0.00
446.02	0.00
446.21	79.58
446.39	49.15
446.58	77.24
446.77	30.43
446.95	39.79
447.14	88.94
447.32	95.96
447.51	81.92
447.69	42.13
447.88	25.75
448.06	79.58
448.25	95.96
448.43	53.83
448.62	159.16
448.80	53.83
448.99	0.00
449.17	44.47
449.36	79.58
449.54	11.70
449.73	98.30
449.91	21.06
450.10	86.60
450.28	58.51
450.46	102.98
450.65	42.13
450.83	28.09
451.02	0.00
451.20	0.00
451.39	95.96
451.57	35.11
451.76	53.83
451.94	110.01
452.13	67.88
452.31	58.51
452.49	53.83
452.68	18.72
452.86	60.85
453.05	65.54
453.23	93.62
453.42	0.00
453.60	42.13
453.78	95.96
453.97	16.38
454.15	56.17
454.34	32.77
454.52	7.02
454.70	79.58
454.89	46.81
455.07	56.17
455.26	100.64
455.44	98.30
455.62	63.19
455.81	28.09
455.99	9.36
456.17	21.06
456.36	91.28
456.54	0.00
456.73	58.51
456.91	74.90
457.09	65.54
457.28	121.71
457.46	77.24
457.64	119.37
457.83	32.77
458.01	39.79
458.19	32.77
458.38	28.09
458.56	46.81
458.74	35.11
458.93	23.41
459.11	39.79
459.29	60.85
459.48	81.92
459.66	77.24
459.84	72.56
460.03	88.94
460.21	84.26
460.39	53.83
460.57	63.19
460.76	91.28
460.94	49.15
461.12	18.72
461.31	77.24
461.49	0.00
461.67	121.71
461.85	35.11
462.04	58.51
462.22	74.90
462.40	42.13
462.59	88.94
462.77	44.47
462.95	14.04
463.13	79.58
463.32	46.81
463.50	81.92
463.68	51.49
463.86	53.83
464.05	107.66
464.23	86.60
464.41	14.04
464.59	42.13
464.78	56.17
464.96	107.66
465.14	25.75
465.32	37.45
465.50	100.64
465.69	67.88
465.87	0.00
466.05	37.45
466.23	37.45
466.41	0.00
466.60	49.15
466.78	84.26
466.96	42.13
467.14	42.13
467.32	102.98
467.51	53.83
467.69	107.66
467.87	44.47
468.05	93.62
468.23	93.62
468.41	74.90
468.60	0.00
468.78	60.85
468.96	51.49
469.14	0.00
469.32	81.92
469.50	0.00
469.69	105.32
469.87	21.06
470.05	107.66
470.23	49.15
470.41	11.70
470.59	37.45
470.77	67.88
470.95	72.56
471.14	88.94
471.32	81.92
471.50	65.54
471.68	70.22
471.86	98.30
472.04	98.30
472.22	154.48
472.40	84.26
472.58	0.00
472.77	67.88
472.95	16.38
473.13	60.85
473.31	58.51
473.49	67.88
473.67	86.60
473.85	23.41
474.03	63.19
474.21	98.30
474.39	154.48
474.57	79.58
474.75	9.36
474.93	91.28
475.12	51.49
475.30	46.81
475.48	67.88
475.66	105.32
475.84	28.09
476.02	86.60
476.20	0.00
476.38	100.64
476.56	58.51
476.74	107.66
476.92	95.96
477.10	49.15
477.28	102.98
477.46	39.79
477.64	98.30
477.82	67.88
478.00	110.01
478.18	81.92
478.36	154.48
478.54	102.98
478.72	67.88
478.90	110.01
479.08	95.96
479.26	21.06
479.44	65.54
479.62	30.43
479.80	84.26
479.98	81.92
480.16	93.62
480.34	79.58
480.52	70.22
480.70	121.71
480.88	110.01
481.06	51.49
481.24	84.26
481.41	102.98
481.59	84.26
481.77	84.26
481.95	21.06
482.13	67.88
482.31	79.58
482.49	72.56
482.67	7.02
482.85	117.03
483.03	88.94
483.21	168.52
483.39	105.32
483.57	63.19
483.74	67.88
483.92	67.88
484.10	7.02
484.28	95.96
484.46	105.32
484.64	126.39
484.82	86.60
485.00	105.32
485.18	63.19
485.35	93.62
485.53	42.13
485.71	44.47
485.89	42.13
486.07	9.36
486.25	0.00
486.43	72.56
486.61	60.85
486.78	2.34
486.96	37.45
487.14	121.71
487.32	37.45
487.50	39.79
487.68	7.02
487.85	102.98
488.03	65.54
488.21	65.54
488.39	42.13
488.57	35.11
488.75	37.45
488.92	173.20
489.10	95.96
489.28	84.26
489.46	77.24
489.64	72.56
489.81	133.41
489.99	152.13
490.17	53.83
490.35	25.75
490.53	95.96
490.70	98.30
490.88	107.66
491.06	100.64
491.24	95.96
491.41	0.00
491.59	100.64
491.77	7.02
491.95	42.13
492.13	0.00
492.30	9.36
492.48	88.94
492.66	79.58
492.84	119.37
493.01	117.03
493.19	56.17
493.37	117.03
493.54	152.13
493.72	39.79
493.90	23.41
494.08	23.41
494.25	77.24
494.43	37.45
494.61	46.81
494.79	107.66
494.96	131.07
495.14	58.51
495.32	91.28
495.49	91.28
495.67	95.96
495.85	102.98
496.02	60.85
496.20	121.71
496.38	0.00
496.55	60.85
496.73	63.19
496.91	114.69
497.09	105.32
497.26	124.05
497.44	79.58
497.62	67.88
497.79	70.22
497.97	102.98
498.14	138.09
498.32	53.83
498.50	105.32
498.67	81.92
498.85	11.70
499.03	131.07
499.20	81.92
499.38	49.15
499.56	60.85
499.73	58.51
499.91	84.26
500.08	30.43
500.26	63.19
500.44	107.66
500.61	133.41
500.79	63.19
500.97	88.94
501.14	28.09
501.32	74.90
501.49	72.56
501.67	161.50
501.84	128.73
502.02	63.19
502.20	110.01
502.37	126.39
502.55	98.30
502.72	98.30
502.90	105.32
503.07	128.73
503.25	77.24
503.43	72.56
503.60	65.54
503.78	23.41
503.95	93.62
504.13	110.01
504.30	98.30
504.48	91.28
504.65	49.15
504.83	84.26
505.01	102.98
505.18	46.81
505.36	79.58
505.53	98.30
505.71	93.62
505.88	39.79
506.06	42.13
506.23	107.66
506.41	42.13
506.58	56.17
506.76	42.13
506.93	128.73
507.11	138.09
507.28	28.09
507.46	32.77
507.63	84.26
507.81	44.47
507.98	135.75
508.16	14.04
508.33	79.58
508.50	133.41
508.68	72.56
508.85	72.56
509.03	121.71
509.20	53.83
509.38	131.07
509.55	91.28
509.73	30.43
509.90	0.00
510.08	86.60
510.25	131.07
510.42	110.01
510.60	30.43
510.77	63.19
510.95	67.88
511.12	63.19
511.30	119.37
511.47	163.84
511.64	98.30
511.82	107.66
511.99	25.75
512.17	60.85
512.34	79.58
512.51	154.48
512.69	81.92
512.86	102.98
513.04	95.96
513.21	135.75
513.38	107.66
513.56	60.85
513.73	11.70
513.90	77.24
514.08	18.72
514.25	49.15
514.43	81.92
514.60	23.41
514.77	86.60
514.95	107.66
515.12	93.62
515.29	81.92
515.47	67.88
515.64	86.60
515.81	63.19
515.99	161.50
516.16	133.41
516.33	0.00
516.51	0.00
516.68	63.19
516.85	42.13
517.03	145.11
517.20	84.26
517.37	105.32
517.54	112.35
517.72	105.32
517.89	131.07
518.06	56.17
518.24	77.24
518.41	117.03
518.58	124.05
518.75	114.69
518.93	81.92
519.10	79.58
519.27	35.11
519.45	51.49
519.62	161.50
519.79	49.15
519.96	49.15
520.14	60.85
520.31	79.58
520.48	102.98
520.65	67.88
520.83	74.90
521.00	88.94
521.17	107.66
521.34	88.94
521.52	79.58
521.69	49.15
521.86	142.77
522.03	100.64
522.20	28.09
522.38	98.30
522.55	58.51
522.72	72.56
522.89	124.05
523.07	4.68
523.24	77.24
523.41	74.90
523.58	63.19
523.75	77.24
523.92	39.79
524.10	65.54
524.27	138.09
524.44	74.90
524.61	168.52
524.78	95.96
524.96	21.06
525.13	112.35
525.30	121.71
525.47	84.26
525.64	67.88
525.81	65.54
525.98	35.11
526.16	60.85
526.33	131.07
526.50	93.62
526.67	63.19
526.84	112.35
527.01	126.39
527.18	72.56
527.36	56.17
527.53	102.98
527.70	77.24
527.87	112.35
528.04	133.41
528.21	147.45
528.38	74.90
528.55	84.26
528.72	37.45
528.89	74.90
529.07	107.66
529.24	81.92
529.41	56.17
529.58	91.28
529.75	128.73
529.92	86.60
530.09	51.49
530.26	131.07
530.43	102.98
530.60	72.56
530.77	77.24
530.94	95.96
531.11	65.54
531.28	35.11
531.46	58.51
531.63	114.69
531.80	51.49
531.97	14.04
532.14	56.17
532.31	154.48
532.48	119.37
532.65	117.03
532.82	107.66
532.99	9.36
533.16	72.56
533.33	110.01
533.50	42.13
533.67	105.32
533.84	98.30
534.01	74.90
534.18	126.39
534.35	84.26
534.52	88.94
534.69	140.43
534.86	133.41
535.03	72.56
535.20	23.41
535.37	81.92
535.54	86.60
535.71	135.75
535.88	65.54
536.05	147.45
536.22	37.45
536.38	67.88
536.55	107.66
536.72	105.32
536.89	37.45
537.06	18.72
537.23	140.43
537.40	131.07
537.57	0.00
537.74	65.54
537.91	39.79
538.08	74.90
538.25	177.88
538.42	100.64
538.59	65.54
538.75	95.96
538.92	37.45
539.09	32.77
539.26	60.85
539.43	30.43
539.60	117.03
539.77	95.96
539.94	37.45
540.11	140.43
540.28	117.03
540.44	67.88
540.61	39.79
540.78	128.73
540.95	88.94
541.12	93.62
541.29	58.51
541.46	98.30
541.62	91.28
541.79	79.58
541.96	53.83
542.13	93.62
542.30	88.94
542.47	88.94
542.63	35.11
542.80	86.60
542.97	84.26
543.14	35.11
543.31	81.92
543.48	65.54
543.64	110.01
543.81	128.73
543.98	51.49
544.15	105.32
544.32	84.26
544.48	60.85
544.65	77.24
544.82	81.92
544.99	56.17
545.16	60.85
545.32	117.03
545.49	107.66
545.66	105.32
545.83	88.94
546.00	46.81
546.16	35.11
546.33	4.68
546.50	84.26
546.67	105.32
546.83	74.90
547.00	81.92
547.17	70.22
547.34	100.64
547.50	44.47
547.67	81.92
547.84	77.24
548.00	32.77
548.17	126.39
548.34	56.17
548.51	128.73
548.67	63.19
548.84	117.03
549.01	133.41
549.18	91.28
549.34	84.26
549.51	37.45
549.68	131.07
549.84	60.85
550.01	42.13
550.18	126.39
550.34	154.48
550.51	14.04
550.68	65.54
550.84	49.15
551.01	98.30
551.18	117.03
551.34	93.62
551.51	117.03
551.68	65.54
551.84	91.28
552.01	154.48
552.18	126.39
552.34	114.69
552.51	98.30
552.68	105.32
552.84	135.75
553.01	88.94
553.18	37.45
553.34	98.30
553.51	72.56
553.67	95.96
553.84	56.17
554.01	42.13
554.17	16.38
554.34	79.58
554.51	91.28
554.67	77.24
554.84	102.98
555.00	105.32
555.17	95.96
555.33	67.88
555.50	42.13
555.67	105.32
555.83	107.66
556.00	0.00
556.16	18.72
556.33	49.15
556.50	63.19
556.66	7.02
556.83	86.60
556.99	56.17
557.16	58.51
557.32	46.81
557.49	81.92
557.65	49.15
557.82	72.56
557.98	138.09
558.15	42.13
558.32	79.58
558.48	37.45
558.65	56.17
558.81	93.62
558.98	79.58
559.14	119.37
559.31	140.43
559.47	145.11
559.64	60.85
559.80	84.26
559.97	37.45
560.13	117.03
560.30	30.43
560.46	14.04
560.63	53.83
560.79	63.19
560.96	60.85
561.12	32.77
561.29	23.41
561.45	86.60
561.61	77.24
561.78	88.94
561.94	107.66
562.11	117.03
562.27	65.54
562.44	161.50
562.60	32.77
562.77	60.85
562.93	128.73
563.10	112.35
563.26	28.09
563.42	107.66
563.59	93.62
563.75	65.54
563.92	84.26
564.08	72.56
564.24	100.64
564.41	149.79
564.57	128.73
564.74	25.75
564.90	135.75
565.07	65.54
565.23	163.84
565.39	168.52
565.56	93.62
565.72	126.39
565.88	65.54
566.05	72.56
566.21	119.37
566.38	152.13
566.54	32.77
566.70	49.15
566.87	131.07
567.03	133.41
567.19	46.81
567.36	95.96
567.52	67.88
567.68	67.88
567.85	18.72
568.01	98.30
568.17	74.90
568.34	56.17
568.50	166.18
568.66	133.41
568.83	128.73
568.99	53.83
569.15	91.28
569.32	93.62
569.48	42.13
569.64	93.62
569.81	91.28
569.97	51.49
570.13	91.28
570.30	63.19
570.46	16.38
570.62	39.79
570.78	98.30
570.95	102.98
571.11	112.35
571.27	74.90
571.43	107.66
571.60	93.62
571.76	117.03
571.92	65.54
572.09	93.62
572.25	100.64
572.41	72.56
572.57	65.54
572.74	140.43
572.90	18.72
573.06	39.79
573.22	53.83
573.38	168.52
573.55	95.96
573.71	133.41
573.87	79.58
574.03	0.00
574.20	72.56
574.36	135.75
574.52	79.58
574.68	135.75
574.84	100.64
575.01	91.28
575.17	65.54
575.33	100.64
575.49	0.00
575.65	149.79
575.82	44.47
575.98	140.43
576.14	42.13
576.30	98.30
576.46	63.19
576.62	14.04
576.79	25.75
576.95	79.58
577.11	79.58
577.27	100.64
577.43	21.06
577.59	91.28
577.75	93.62
577.92	16.38
578.08	91.28
578.24	86.60
578.40	138.09
578.56	131.07
578.72	86.60
578.88	25.75
579.04	70.22
579.21	14.04
579.37	18.72
579.53	0.00
579.69	81.92
579.85	49.15
580.01	65.54
580.17	35.11
580.33	110.01
580.49	60.85
580.65	51.49
580.82	28.09
580.98	21.06
581.14	91.28
581.30	110.01
581.46	107.66
581.62	124.05
581.78	98.30
581.94	100.64
582.10	105.32
582.26	72.56
582.42	25.75
582.58	133.41
582.74	49.15
582.90	37.45
583.06	88.94
583.22	42.13
583.38	63.19
583.54	117.03
583.70	58.51
583.86	51.49
584.02	74.90
584.18	51.49
584.34	0.00
584.50	86.60
584.66	23.41
584.82	100.64
584.98	60.85
585.14	9.36
585.30	84.26
585.46	18.72
585.62	23.41
585.78	95.96
585.94	39.79
586.10	102.98
586.26	56.17
586.42	86.60
586.58	21.06
586.74	4.68
586.90	86.60
587.06	163.84
587.22	53.83
587.38	81.92
587.54	77.24
587.70	93.62
587.86	58.51
588.02	77.24
588.18	70.22
588.34	30.43
588.49	140.43
588.65	107.66
588.81	0.00
588.97	49.15
589.13	46.81
589.29	128.73
589.45	79.58
589.61	46.81
589.77	56.17
589.93	95.96
590.08	124.05
590.24	53.83
590.40	95.96
590.56	58.51
590.72	30.43
590.88	58.51
591.04	53.83
591.20	98.30
591.35	56.17
591.51	170.86
591.67	46.81
591.83	0.00
591.99	86.60
592.15	74.90
592.31	88.94
592.46	0.00
592.62	51.49
592.78	112.35
592.94	131.07
593.10	16.38
593.26	131.07
593.41	88.94
593.57	18.72
593.73	102.98
593.89	128.73
594.05	58.51
594.20	81.92
594.36	0.00
594.52	77.24
594.68	28.09
594.84	0.00
594.99	100.64
595.15	67.88
595.31	0.00
595.47	56.17
595.62	105.32
595.78	107.66
595.94	110.01
596.10	67.88
596.25	102.98
596.41	86.60
596.57	23.41
596.73	107.66
596.88	72.56
597.04	105.32
597.20	23.41
597.36	138.09
597.51	30.43
597.67	56.17
597.83	30.43
597.99	84.26
598.14	51.49
598.30	49.15
598.46	74.90
598.61	86.60
598.77	70.22
598.93	79.58
599.09	91.28
599.24	119.37
599.40	86.60
599.56	67.88
599.71	67.88
599.87	39.79
600.03	100.64
600.18	77.24
600.34	51.49
600.50	0.00
600.65	102.98
600.81	79.58
600.97	63.19
601.12	72.56
601.28	65.54
601.44	51.49
601.59	28.09
601.75	53.83
601.91	51.49
602.06	0.00
602.22	51.49
602.37	49.15
602.53	60.85
602.69	14.04
602.84	42.13
603.00	70.22
603.16	63.19
603.31	124.05
603.47	58.51
603.62	88.94
603.78	65.54
603.94	58.51
604.09	39.79
604.25	46.81
604.40	49.15
604.56	35.11
604.71	140.43
604.87	39.79
605.03	51.49
605.18	60.85
605.34	112.35
605.49	16.38
605.65	133.41
605.80	74.90
605.96	46.81
606.12	91.28
606.27	28.09
606.43	110.01
606.58	91.28
606.74	72.56
606.89	44.47
607.05	93.62
607.20	32.77
607.36	14.04
607.51	107.66
607.67	110.01
607.82	0.00
607.98	98.30
608.13	105.32
608.29	9.36
608.44	88.94
608.60	72.56
608.75	88.94
608.91	49.15
609.06	98.30
609.22	42.13
609.37	49.15
609.53	107.66
609.68	117.03
609.84	86.60
609.99	39.79
610.15	46.81
610.30	56.17
610.46	95.96
610.61	67.88
610.76	58.51
610.92	25.75
611.07	128.73
611.23	14.04
611.38	102.98
611.54	72.56
611.69	23.41
611.84	42.13
612.00	119.37
612.15	39.79
612.31	95.96
612.46	98.30
612.62	51.49
612.77	46.81
612.92	51.49
613.08	95.96
613.23	0.00
613.39	102.98
613.54	23.41
613.69	74.90
613.85	39.79
614.00	67.88
614.15	32.77
614.31	105.32
614.46	32.77
614.62	11.70
614.77	74.90
614.92	32.77
615.08	9.36
615.23	51.49
615.38	60.85
615.54	56.17
615.69	30.43
615.84	30.43
616.00	79.58
616.15	74.90
616.30	84.26
616.46	105.32
616.61	28.09
616.76	86.60
616.92	42.13
617.07	44.47
617.22	102.98
617.37	93.62
617.53	28.09
617.68	79.58
617.83	70.22
617.99	56.17
618.14	44.47
618.29	81.92
618.45	74.90
618.60	16.38
618.75	65.54
618.90	70.22
619.06	0.00
619.21	72.56
619.36	56.17
619.51	0.00
619.67	0.00
619.82	56.17
619.97	53.83
620.12	74.90
620.28	0.00
620.43	102.98
620.58	91.28
620.73	37.45
620.89	84.26
621.04	60.85
621.19	91.28
621.34	58.51
621.49	65.54
621.65	74.90
621.80	53.83
621.95	0.00
622.10	63.19
622.25	44.47
622.41	88.94
622.56	74.90
622.71	79.58
622.86	58.51
623.01	37.45
623.16	16.38
623.32	93.62
623.47	112.35
623.62	46.81
623.77	72.56
623.92	124.05
624.07	110.01
624.23	67.88
624.38	121.71
624.53	35.11
624.68	110.01
624.83	74.90
624.98	67.88
625.13	140.43
625.29	102.98
625.44	0.00
625.59	51.49
625.74	42.13
625.89	119.37
626.04	91.28
626.19	58.51
626.34	67.88
626.49	39.79
626.65	112.35
626.80	79.58
626.95	9.36
627.10	0.00
627.25	51.49
627.40	72.56
627.55	65.54
627.70	9.36
627.85	23.41
628.00	0.00
628.15	58.51
628.30	86.60
628.45	35.11
628.60	67.88
628.76	58.51
628.91	49.15
629.06	112.35
629.21	147.45
629.36	49.15
629.51	39.79
629.66	84.26
629.81	11.70
629.96	35.11
630.11	53.83
630.26	16.38
630.41	88.94
630.56	124.05
630.71	39.79
630.86	44.47
631.01	72.56
631.16	49.15
631.31	23.41
631.46	67.88
631.61	70.22
631.76	119.37
631.91	35.11
632.06	67.88
632.21	65.54
632.36	77.24
632.51	86.60
632.66	72.56
632.81	32.77
632.96	53.83
633.10	74.90
633.25	86.60
633.40	56.17
633.55	79.58
633.70	0.00
633.85	84.26
634.00	84.26
634.15	53.83
634.30	0.00
634.45	63.19
634.60	23.41
634.75	44.47
634.90	46.81
635.05	32.77
635.19	39.79
635.34	72.56
635.49	30.43
635.64	0.00
635.79	74.90
635.94	77.24
636.09	14.04
636.24	25.75
636.39	102.98
636.53	53.83
636.68	65.54
636.83	23.41
636.98	0.00
637.13	28.09
637.28	14.04
637.43	32.77
637.57	140.43
637.72	117.03
637.87	51.49
638.02	56.17
638.17	58.51
638.32	145.11
638.46	18.72
638.61	88.94
638.76	28.09
638.91	37.45
639.06	46.81
639.20	32.77
639.35	49.15
639.50	51.49
639.65	25.75
639.80	21.06
639.94	79.58
640.09	28.09
640.24	128.73
640.39	117.03
640.54	44.47
640.68	9.36
640.83	74.90
640.98	100.64
641.13	124.05
641.27	44.47
641.42	88.94
641.57	42.13
641.72	102.98
641.86	81.92
642.01	140.43
642.16	49.15
642.31	51.49
642.45	21.06
642.60	100.64
642.75	93.62
642.90	28.09
643.04	70.22
643.19	63.19
643.34	46.81
643.48	18.72
643.63	70.22
643.78	16.38
643.93	98.30
644.07	74.90
644.22	53.83
644.37	32.77
644.51	2.34
644.66	32.77
644.81	49.15
644.95	102.98
645.10	11.70
645.25	0.00
645.39	28.09
645.54	32.77
645.69	16.38
645.83	107.66
645.98	0.00
646.13	35.11
646.27	21.06
646.42	100.64
646.57	102.98
646.71	114.69
646.86	56.17
647.00	25.75
647.15	86.60
647.30	65.54
647.44	65.54
647.59	49.15
647.74	0.00
647.88	84.26
648.03	51.49
648.17	121.71
648.32	84.26
648.47	0.00
648.61	65.54
648.76	98.30
648.90	0.00
649.05	39.79
649.20	72.56
649.34	65.54
649.49	156.82
649.63	39.79
649.78	107.66
649.92	21.06
650.07	128.73
650.21	2.34
650.36	44.47
650.51	70.22
650.65	53.83
650.80	105.32
650.94	35.11
651.09	42.13
651.23	37.45
651.38	28.09
651.52	91.28
651.67	84.26
651.81	32.77
651.96	14.04
652.10	119.37
652.25	49.15
652.39	110.01
652.54	74.90
652.68	39.79
652.83	53.83
652.97	67.88
653.12	77.24
653.26	77.24
653.41	117.03
653.55	91.28
653.70	84.26
653.84	0.00
653.99	46.81
654.13	100.64
654.27	42.13
654.42	42.13
654.56	63.19
654.71	100.64
654.85	14.04
655.00	95.96
655.14	60.85
655.29	14.04
655.43	49.15
655.57	93.62
655.72	70.22
655.86	112.35
656.01	51.49
656.15	35.11
656.30	30.43
656.44	0.00
656.58	32.77
656.73	16.38
656.87	35.11
657.01	28.09
657.16	21.06
657.30	79.58
657.45	77.24
657.59	65.54
657.73	39.79
657.88	72.56
658.02	63.19
658.16	25.75
658.31	60.85
658.45	93.62
658.60	32.77
658.74	0.00
658.88	102.98
659.03	7.02
659.17	56.17
659.31	28.09
659.46	11.70
659.60	86.60
659.74	18.72
659.89	0.00
660.03	32.77
660.17	63.19
660.32	79.58
660.46	25.75
660.60	25.75
660.74	60.85
660.89	84.26
661.03	23.41
661.17	72.56
661.32	152.13
661.46	0.00
661.60	72.56
661.74	93.62
661.89	37.45
662.03	0.00
662.17	0.00
662.31	58.51
662.46	107.66
662.60	84.26
662.74	102.98
662.88	124.05
663.03	35.11
663.17	88.94
663.31	93.62
663.45	98.30
663.60	0.00
663.74	0.00
663.88	32.77
664.02	46.81
664.17	37.45
664.31	117.03
664.45	35.11
664.59	44.47
664.73	65.54
664.88	23.41
665.02	49.15
665.16	35.11
665.30	35.11
665.44	49.15
665.59	14.04
665.73	60.85
665.87	44.47
666.01	74.90
666.15	70.22
666.29	107.66
666.44	86.60
666.58	110.01
666.72	65.54
666.86	72.56
667.00	0.00
667.14	67.88
667.28	0.00
667.43	84.26
667.57	46.81
667.71	84.26
667.85	56.17
667.99	84.26
668.13	77.24
668.27	21.06
668.41	124.05
668.56	37.45
668.70	0.00
668.84	2.34
668.98	0.00
669.12	25.75
669.26	0.00
669.40	28.09
669.54	44.47
669.68	42.13
669.82	63.19
669.96	23.41
670.10	9.36
670.25	133.41
670.39	14.04
670.53	30.43
670.67	42.13
670.81	51.49
670.95	9.36
671.09	72.56
671.23	88.94
671.37	77.24
671.51	0.00
671.65	112.35
671.79	63.19
671.93	0.00
672.07	77.24
672.21	56.17
672.35	53.83
672.49	30.43
672.63	21.06
672.77	39.79
672.91	63.19
673.05	95.96
673.19	0.00
673.33	28.09
673.47	70.22
673.61	37.45
673.75	0.00
673.89	77.24
674.03	154.48
674.17	100.64
674.31	21.06
674.45	32.77
674.59	9.36
674.73	0.00
674.87	100.64
675.01	42.13
675.15	105.32
675.29	25.75
675.43	51.49
675.56	102.98
675.70	53.83
675.84	119.37
675.98	46.81
676.12	81.92
676.26	46.81
676.40	84.26
676.54	14.04
676.68	11.70
676.82	35.11
676.96	79.58
677.10	49.15
677.23	53.83
677.37	79.58
677.51	39.79
677.65	65.54
677.79	60.85
677.93	77.24
678.07	18.72
678.21	79.58
678.34	93.62
678.48	46.81
678.62	56.17
678.76	60.85
678.90	63.19
679.04	44.47
679.18	11.70
679.31	42.13
679.45	51.49
679.59	0.00
679.73	11.70
679.87	53.83
680.00	100.64
680.14	58.51
680.28	28.09
680.42	28.09
680.56	102.98
680.70	37.45
680.83	56.17
680.97	56.17
681.11	91.28
681.25	39.79
681.39	16.38
681.52	77.24
681.66	18.72
681.80	9.36
681.94	9.36
682.07	23.41
682.21	72.56
682.35	51.49
682.49	88.94
682.62	35.11
682.76	35.11
682.90	72.56
683.04	0.00
683.17	0.00
683.31	53.83
683.45	58.51
683.59	77.24
683.72	70.22
683.86	21.06
684.00	105.32
684.13	39.79
684.27	0.00
684.41	49.15
684.55	0.00
684.68	58.51
684.82	25.75
684.96	11.70
685.09	30.43
685.23	72.56
685.37	16.38
685.50	28.09
685.64	70.22
685.78	79.58
685.91	21.06
686.05	51.49
686.19	51.49
686.32	42.13
686.46	4.68
686.60	58.51
686.73	0.00
686.87	95.96
687.01	11.70
687.14	0.00
687.28	60.85
687.42	0.00
687.55	51.49
687.69	42.13
687.82	74.90
687.96	42.13
688.10	67.88
688.23	44.47
688.37	49.15
688.50	7.02
688.64	11.70
688.78	74.90
688.91	77.24
689.05	88.94
689.18	14.04
689.32	23.41
689.46	30.43
689.59	79.58
689.73	21.06
689.86	0.00
690.00	53.83
690.13	0.00
690.27	7.02
690.41	0.00
690.54	72.56
690.68	49.15
690.81	67.88
690.95	0.00
691.08	39.79
691.22	7.02
691.35	65.54
691.49	35.11
691.62	77.24
691.76	7.02
691.89	121.71
692.03	58.51
692.16	95.96
692.30	44.47
692.43	37.45
692.57	88.94
692.70	39.79
692.84	81.92
692.97	0.00
693.11	53.83
693.24	21.06
693.38	35.11
693.51	95.96
693.65	124.05
693.78	77.24
693.92	60.85
694.05	0.00
694.19	53.83
694.32	11.70
694.45	7.02
694.59	53.83
694.72	51.49
694.86	28.09
694.99	0.00
695.13	35.11
695.26	0.00
695.39	18.72
695.53	91.28
695.66	72.56
695.80	0.00
695.93	88.94
696.07	4.68
696.20	35.11
696.33	0.00
696.47	30.43
696.60	107.66
696.73	4.68
696.87	58.51
697.00	18.72
697.14	28.09
697.27	88.94
697.40	72.56
697.54	28.09
697.67	49.15
697.80	14.04
697.94	14.04
698.07	81.92
698.21	86.60
698.34	56.17
698.47	98.30
698.61	18.72
698.74	58.51
698.87	39.79
699.01	0.00
699.14	60.85
699.27	46.81
699.40	4.68
699.54	0.00
699.67	53.83
699.80	95.96
699.94	32.77
700.07	49.15
700.20	65.54
700.34	21.06
700.47	23.41
700.60	0.00
700.73	51.49
700.87	60.85
701.00	0.00
701.13	58.51
701.26	42.13
701.40	46.81
701.53	7.02
701.66	46.81
701.79	37.45
701.93	102.98
702.06	56.17
702.19	0.00
702.32	30.43
702.46	9.36
702.59	0.00
702.72	0.00
702.85	86.60
702.99	18.72
703.12	49.15
703.25	42.13
703.38	32.77
703.51	84.26
703.65	4.68
703.78	14.04
703.91	84.26
704.04	63.19
704.17	0.00
704.31	25.75
704.44	51.49
704.57	14.04
704.70	25.75
704.83	25.75
704.96	0.00
705.10	42.13
705.23	16.38
>>>>>End Processed Spectral Data<<<<<
