SpectraSuite Data File
++++++++++++++++++++++++++++++++++++
Date: Fri Oct 04 12:13:34 GMT-05:00 2013
User: price-jones
Dark Spectrum Present: No
Reference Spectrum Present: No
Number of Sampled Component Spectra: 1
Spectrometers: USB2+H05261
Integration Time (usec): 10000 (USB2+H05261)
Spectra Averaged: 1 (USB2+H05261)
Boxcar Smoothing: 0 (USB2+H05261)
Correct for Electrical Dark: No (USB2+H05261)
Strobe/Lamp Enabled: No (USB2+H05261)
Correct for Detector Non-linearity: No (USB2+H05261)
Correct for Stray Light: No (USB2+H05261)
Number of Pixels in Processed Spectrum: 2048
>>>>>Begin Processed Spectral Data<<<<<
365.73	0.00
365.92	0.00
366.12	0.00
366.32	0.00
366.52	0.00
366.72	0.00
366.91	0.00
367.11	0.00
367.31	0.00
367.51	0.00
367.70	0.00
367.90	0.00
368.10	0.00
368.30	0.00
368.49	0.00
368.69	0.00
368.89	0.00
369.09	0.00
369.28	0.00
369.48	0.00
369.68	0.00
369.87	0.00
370.07	0.00
370.27	0.00
370.47	0.00
370.66	0.00
370.86	0.00
371.06	0.00
371.25	0.00
371.45	0.00
371.65	0.00
371.84	0.00
372.04	0.00
372.24	0.00
372.44	0.00
372.63	46.81
372.83	74.90
373.03	4.68
373.22	0.00
373.42	25.75
373.62	2.34
373.81	65.54
374.01	0.00
374.21	91.28
374.40	58.51
374.60	23.41
374.79	65.54
374.99	51.49
375.19	25.75
375.38	0.00
375.58	23.41
375.78	0.00
375.97	51.49
376.17	86.60
376.37	51.49
376.56	18.72
376.76	88.94
376.95	88.94
377.15	79.58
377.35	67.88
377.54	60.85
377.74	121.71
377.93	51.49
378.13	44.47
378.33	16.38
378.52	18.72
378.72	0.00
378.91	56.17
379.11	14.04
379.31	63.19
379.50	7.02
379.70	0.00
379.89	53.83
380.09	18.72
380.28	51.49
380.48	35.11
380.68	42.13
380.87	105.32
381.07	56.17
381.26	0.00
381.46	0.00
381.65	9.36
381.85	14.04
382.04	46.81
382.24	49.15
382.43	25.75
382.63	14.04
382.83	56.17
383.02	0.00
383.22	35.11
383.41	53.83
383.61	37.45
383.80	53.83
384.00	70.22
384.19	23.41
384.39	49.15
384.58	65.54
384.78	30.43
384.97	86.60
385.17	9.36
385.36	2.34
385.56	18.72
385.75	42.13
385.95	32.77
386.14	58.51
386.34	32.77
386.53	0.00
386.72	0.00
386.92	0.00
387.11	23.41
387.31	18.72
387.50	93.62
387.70	60.85
387.89	28.09
388.09	0.00
388.28	46.81
388.48	32.77
388.67	49.15
388.86	46.81
389.06	23.41
389.25	49.15
389.45	14.04
389.64	56.17
389.84	0.00
390.03	72.56
390.22	107.66
390.42	25.75
390.61	16.38
390.81	37.45
391.00	21.06
391.19	9.36
391.39	67.88
391.58	18.72
391.78	37.45
391.97	49.15
392.16	0.00
392.36	21.06
392.55	53.83
392.75	0.00
392.94	84.26
393.13	0.00
393.33	65.54
393.52	0.00
393.71	37.45
393.91	30.43
394.10	30.43
394.29	0.00
394.49	0.00
394.68	74.90
394.88	79.58
395.07	84.26
395.26	58.51
395.46	32.77
395.65	23.41
395.84	14.04
396.04	119.37
396.23	0.00
396.42	0.00
396.62	0.00
396.81	0.00
397.00	0.00
397.19	0.00
397.39	23.41
397.58	119.37
397.77	32.77
397.97	81.92
398.16	0.00
398.35	0.00
398.55	37.45
398.74	0.00
398.93	53.83
399.12	60.85
399.32	28.09
399.51	25.75
399.70	56.17
399.90	35.11
400.09	9.36
400.28	39.79
400.47	49.15
400.67	81.92
400.86	0.00
401.05	44.47
401.24	2.34
401.44	35.11
401.63	70.22
401.82	21.06
402.01	44.47
402.21	0.00
402.40	0.00
402.59	39.79
402.78	56.17
402.97	74.90
403.17	32.77
403.36	51.49
403.55	37.45
403.74	63.19
403.93	72.56
404.13	21.06
404.32	0.00
404.51	16.38
404.70	93.62
404.89	46.81
405.09	56.17
405.28	81.92
405.47	44.47
405.66	39.79
405.85	39.79
406.05	0.00
406.24	60.85
406.43	18.72
406.62	16.38
406.81	0.00
407.00	100.64
407.20	28.09
407.39	14.04
407.58	14.04
407.77	65.54
407.96	28.09
408.15	60.85
408.34	58.51
408.54	77.24
408.73	4.68
408.92	0.00
409.11	60.85
409.30	30.43
409.49	0.00
409.68	23.41
409.87	119.37
410.07	74.90
410.26	49.15
410.45	21.06
410.64	0.00
410.83	32.77
411.02	72.56
411.21	56.17
411.40	0.00
411.59	0.00
411.78	60.85
411.98	44.47
412.17	65.54
412.36	44.47
412.55	46.81
412.74	126.39
412.93	30.43
413.12	56.17
413.31	0.00
413.50	16.38
413.69	63.19
413.88	72.56
414.07	2.34
414.26	0.00
414.45	0.00
414.64	84.26
414.83	25.75
415.02	81.92
415.22	72.56
415.41	51.49
415.60	23.41
415.79	70.22
415.98	23.41
416.17	2.34
416.36	0.00
416.55	0.00
416.74	11.70
416.93	0.00
417.12	0.00
417.31	0.00
417.50	35.11
417.69	138.09
417.88	98.30
418.07	32.77
418.26	35.11
418.45	32.77
418.64	23.41
418.83	28.09
419.02	86.60
419.21	23.41
419.39	46.81
419.58	0.00
419.77	0.00
419.96	67.88
420.15	28.09
420.34	25.75
420.53	9.36
420.72	60.85
420.91	37.45
421.10	112.35
421.29	14.04
421.48	23.41
421.67	42.13
421.86	51.49
422.05	110.01
422.24	18.72
422.43	159.16
422.61	124.05
422.80	60.85
422.99	21.06
423.18	86.60
423.37	30.43
423.56	42.13
423.75	84.26
423.94	30.43
424.13	35.11
424.32	0.00
424.50	4.68
424.69	18.72
424.88	65.54
425.07	35.11
425.26	44.47
425.45	2.34
425.64	0.00
425.83	74.90
426.01	51.49
426.20	86.60
426.39	16.38
426.58	46.81
426.77	32.77
426.96	46.81
427.15	0.00
427.33	117.03
427.52	0.00
427.71	16.38
427.90	56.17
428.09	60.85
428.28	65.54
428.46	51.49
428.65	7.02
428.84	39.79
429.03	60.85
429.22	72.56
429.40	74.90
429.59	53.83
429.78	0.00
429.97	0.00
430.16	42.13
430.34	14.04
430.53	114.69
430.72	46.81
430.91	0.00
431.10	14.04
431.28	18.72
431.47	18.72
431.66	30.43
431.85	79.58
432.03	0.00
432.22	23.41
432.41	0.00
432.60	35.11
432.79	65.54
432.97	25.75
433.16	88.94
433.35	107.66
433.54	32.77
433.72	114.69
433.91	77.24
434.10	14.04
434.28	21.06
434.47	42.13
434.66	102.98
434.85	7.02
435.03	23.41
435.22	77.24
435.41	23.41
435.59	119.37
435.78	23.41
435.97	7.02
436.16	72.56
436.34	16.38
436.53	23.41
436.72	42.13
436.90	56.17
437.09	65.54
437.28	14.04
437.46	84.26
437.65	65.54
437.84	18.72
438.02	65.54
438.21	37.45
438.40	91.28
438.58	102.98
438.77	126.39
438.96	65.54
439.14	0.00
439.33	23.41
439.52	37.45
439.70	42.13
439.89	21.06
440.08	65.54
440.26	77.24
440.45	25.75
440.63	18.72
440.82	100.64
441.01	93.62
441.19	14.04
441.38	79.58
441.57	0.00
441.75	9.36
441.94	39.79
442.12	0.00
442.31	0.00
442.50	56.17
442.68	51.49
442.87	70.22
443.05	46.81
443.24	21.06
443.43	0.00
443.61	74.90
443.80	42.13
443.98	42.13
444.17	70.22
444.35	84.26
444.54	46.81
444.73	58.51
444.91	11.70
445.10	74.90
445.28	107.66
445.47	49.15
445.65	35.11
445.84	37.45
446.02	16.38
446.21	23.41
446.39	65.54
446.58	46.81
446.77	60.85
446.95	28.09
447.14	35.11
447.32	79.58
447.51	46.81
447.69	86.60
447.88	102.98
448.06	2.34
448.25	37.45
448.43	65.54
448.62	86.60
448.80	21.06
448.99	37.45
449.17	63.19
449.36	53.83
449.54	58.51
449.73	77.24
449.91	79.58
450.10	98.30
450.28	102.98
450.46	35.11
450.65	30.43
450.83	49.15
451.02	60.85
451.20	126.39
451.39	110.01
451.57	23.41
451.76	44.47
451.94	63.19
452.13	58.51
452.31	112.35
452.49	4.68
452.68	37.45
452.86	84.26
453.05	0.00
453.23	28.09
453.42	95.96
453.60	77.24
453.78	65.54
453.97	81.92
454.15	14.04
454.34	88.94
454.52	65.54
454.70	60.85
454.89	81.92
455.07	93.62
455.26	81.92
455.44	65.54
455.62	16.38
455.81	124.05
455.99	79.58
456.17	28.09
456.36	28.09
456.54	95.96
456.73	39.79
456.91	142.77
457.09	25.75
457.28	133.41
457.46	63.19
457.64	114.69
457.83	14.04
458.01	100.64
458.19	81.92
458.38	32.77
458.56	131.07
458.74	30.43
458.93	2.34
459.11	42.13
459.29	9.36
459.48	18.72
459.66	119.37
459.84	42.13
460.03	35.11
460.21	35.11
460.39	70.22
460.57	23.41
460.76	74.90
460.94	58.51
461.12	91.28
461.31	100.64
461.49	138.09
461.67	77.24
461.85	114.69
462.04	81.92
462.22	67.88
462.40	79.58
462.59	93.62
462.77	0.00
462.95	28.09
463.13	37.45
463.32	81.92
463.50	56.17
463.68	77.24
463.86	58.51
464.05	93.62
464.23	35.11
464.41	0.00
464.59	58.51
464.78	128.73
464.96	53.83
465.14	39.79
465.32	49.15
465.50	21.06
465.69	140.43
465.87	70.22
466.05	74.90
466.23	30.43
466.41	91.28
466.60	77.24
466.78	35.11
466.96	93.62
467.14	60.85
467.32	77.24
467.51	53.83
467.69	28.09
467.87	51.49
468.05	107.66
468.23	58.51
468.41	35.11
468.60	37.45
468.78	4.68
468.96	28.09
469.14	58.51
469.32	21.06
469.50	21.06
469.69	84.26
469.87	126.39
470.05	0.00
470.23	105.32
470.41	79.58
470.59	0.00
470.77	18.72
470.95	56.17
471.14	25.75
471.32	70.22
471.50	56.17
471.68	81.92
471.86	35.11
472.04	60.85
472.22	84.26
472.40	35.11
472.58	39.79
472.77	16.38
472.95	23.41
473.13	49.15
473.31	16.38
473.49	51.49
473.67	46.81
473.85	7.02
474.03	39.79
474.21	63.19
474.39	131.07
474.57	65.54
474.75	32.77
474.93	70.22
475.12	58.51
475.30	7.02
475.48	58.51
475.66	67.88
475.84	70.22
476.02	84.26
476.20	58.51
476.38	65.54
476.56	51.49
476.74	0.00
476.92	58.51
477.10	30.43
477.28	51.49
477.46	37.45
477.64	18.72
477.82	74.90
478.00	9.36
478.18	84.26
478.36	4.68
478.54	37.45
478.72	42.13
478.90	98.30
479.08	53.83
479.26	39.79
479.44	77.24
479.62	0.00
479.80	32.77
479.98	102.98
480.16	98.30
480.34	140.43
480.52	46.81
480.70	107.66
480.88	51.49
481.06	37.45
481.24	32.77
481.41	70.22
481.59	79.58
481.77	95.96
481.95	70.22
482.13	53.83
482.31	72.56
482.49	67.88
482.67	81.92
482.85	53.83
483.03	2.34
483.21	84.26
483.39	37.45
483.57	86.60
483.74	84.26
483.92	86.60
484.10	81.92
484.28	74.90
484.46	93.62
484.64	51.49
484.82	67.88
485.00	7.02
485.18	39.79
485.35	42.13
485.53	30.43
485.71	58.51
485.89	72.56
486.07	37.45
486.25	49.15
486.43	49.15
486.61	74.90
486.78	65.54
486.96	35.11
487.14	53.83
487.32	110.01
487.50	86.60
487.68	110.01
487.85	131.07
488.03	42.13
488.21	117.03
488.39	84.26
488.57	72.56
488.75	100.64
488.92	49.15
489.10	79.58
489.28	53.83
489.46	110.01
489.64	135.75
489.81	140.43
489.99	37.45
490.17	58.51
490.35	37.45
490.53	67.88
490.70	65.54
490.88	0.00
491.06	79.58
491.24	53.83
491.41	72.56
491.59	30.43
491.77	88.94
491.95	119.37
492.13	121.71
492.30	39.79
492.48	44.47
492.66	84.26
492.84	91.28
493.01	88.94
493.19	35.11
493.37	60.85
493.54	91.28
493.72	117.03
493.90	140.43
494.08	37.45
494.25	133.41
494.43	74.90
494.61	53.83
494.79	67.88
494.96	30.43
495.14	42.13
495.32	25.75
495.49	65.54
495.67	67.88
495.85	42.13
496.02	142.77
496.20	117.03
496.38	145.11
496.55	44.47
496.73	49.15
496.91	114.69
497.09	65.54
497.26	119.37
497.44	53.83
497.62	49.15
497.79	56.17
497.97	74.90
498.14	46.81
498.32	95.96
498.50	67.88
498.67	56.17
498.85	105.32
499.03	112.35
499.20	65.54
499.38	18.72
499.56	119.37
499.73	98.30
499.91	114.69
500.08	81.92
500.26	51.49
500.44	72.56
500.61	70.22
500.79	147.45
500.97	51.49
501.14	93.62
501.32	72.56
501.49	18.72
501.67	42.13
501.84	32.77
502.02	49.15
502.20	56.17
502.37	126.39
502.55	56.17
502.72	84.26
502.90	74.90
503.07	84.26
503.25	42.13
503.43	126.39
503.60	14.04
503.78	37.45
503.95	105.32
504.13	42.13
504.30	114.69
504.48	74.90
504.65	88.94
504.83	86.60
505.01	74.90
505.18	100.64
505.36	119.37
505.53	49.15
505.71	2.34
505.88	135.75
506.06	44.47
506.23	105.32
506.41	67.88
506.58	86.60
506.76	16.38
506.93	32.77
507.11	110.01
507.28	112.35
507.46	0.00
507.63	32.77
507.81	30.43
507.98	77.24
508.16	67.88
508.33	65.54
508.50	70.22
508.68	79.58
508.85	70.22
509.03	65.54
509.20	65.54
509.38	79.58
509.55	98.30
509.73	149.79
509.90	49.15
510.08	44.47
510.25	86.60
510.42	74.90
510.60	16.38
510.77	100.64
510.95	126.39
511.12	86.60
511.30	95.96
511.47	70.22
511.64	79.58
511.82	91.28
511.99	98.30
512.17	37.45
512.34	79.58
512.51	67.88
512.69	7.02
512.86	51.49
513.04	44.47
513.21	39.79
513.38	51.49
513.56	93.62
513.73	49.15
513.90	35.11
514.08	51.49
514.25	117.03
514.43	124.05
514.60	65.54
514.77	154.48
514.95	131.07
515.12	70.22
515.29	91.28
515.47	114.69
515.64	124.05
515.81	42.13
515.99	98.30
516.16	70.22
516.33	49.15
516.51	67.88
516.68	110.01
516.85	60.85
517.03	117.03
517.20	67.88
517.37	102.98
517.54	133.41
517.72	25.75
517.89	67.88
518.06	93.62
518.24	121.71
518.41	93.62
518.58	23.41
518.75	49.15
518.93	65.54
519.10	39.79
519.27	32.77
519.45	124.05
519.62	67.88
519.79	74.90
519.96	119.37
520.14	49.15
520.31	105.32
520.48	86.60
520.65	93.62
520.83	30.43
521.00	70.22
521.17	168.52
521.34	56.17
521.52	98.30
521.69	91.28
521.86	114.69
522.03	156.82
522.20	77.24
522.38	49.15
522.55	152.13
522.72	140.43
522.89	86.60
523.07	117.03
523.24	93.62
523.41	58.51
523.58	131.07
523.75	112.35
523.92	105.32
524.10	135.75
524.27	138.09
524.44	145.11
524.61	126.39
524.78	0.00
524.96	168.52
525.13	91.28
525.30	142.77
525.47	98.30
525.64	159.16
525.81	74.90
525.98	84.26
526.16	126.39
526.33	67.88
526.50	93.62
526.67	21.06
526.84	4.68
527.01	67.88
527.18	93.62
527.36	98.30
527.53	114.69
527.70	79.58
527.87	37.45
528.04	91.28
528.21	86.60
528.38	56.17
528.55	121.71
528.72	177.88
528.89	63.19
529.07	46.81
529.24	0.00
529.41	84.26
529.58	86.60
529.75	124.05
529.92	107.66
530.09	63.19
530.26	95.96
530.43	107.66
530.60	105.32
530.77	95.96
530.94	67.88
531.11	93.62
531.28	119.37
531.46	119.37
531.63	35.11
531.80	63.19
531.97	117.03
532.14	100.64
532.31	42.13
532.48	42.13
532.65	53.83
532.82	4.68
532.99	74.90
533.16	84.26
533.33	72.56
533.50	124.05
533.67	95.96
533.84	117.03
534.01	105.32
534.18	39.79
534.35	121.71
534.52	100.64
534.69	152.13
534.86	53.83
535.03	112.35
535.20	128.73
535.37	100.64
535.54	131.07
535.71	42.13
535.88	58.51
536.05	0.00
536.22	93.62
536.38	58.51
536.55	100.64
536.72	74.90
536.89	60.85
537.06	84.26
537.23	53.83
537.40	105.32
537.57	63.19
537.74	124.05
537.91	21.06
538.08	112.35
538.25	107.66
538.42	49.15
538.59	112.35
538.75	7.02
538.92	25.75
539.09	110.01
539.26	81.92
539.43	95.96
539.60	133.41
539.77	124.05
539.94	95.96
540.11	93.62
540.28	79.58
540.44	65.54
540.61	56.17
540.78	100.64
540.95	128.73
541.12	124.05
541.29	25.75
541.46	9.36
541.62	74.90
541.79	74.90
541.96	79.58
542.13	25.75
542.30	65.54
542.47	107.66
542.63	93.62
542.80	88.94
542.97	72.56
543.14	105.32
543.31	65.54
543.48	77.24
543.64	72.56
543.81	126.39
543.98	58.51
544.15	53.83
544.32	154.48
544.48	74.90
544.65	79.58
544.82	2.34
544.99	105.32
545.16	0.00
545.32	81.92
545.49	42.13
545.66	124.05
545.83	58.51
546.00	65.54
546.16	154.48
546.33	79.58
546.50	79.58
546.67	51.49
546.83	121.71
547.00	84.26
547.17	72.56
547.34	100.64
547.50	67.88
547.67	117.03
547.84	124.05
548.00	112.35
548.17	35.11
548.34	81.92
548.51	35.11
548.67	117.03
548.84	44.47
549.01	79.58
549.18	74.90
549.34	67.88
549.51	147.45
549.68	81.92
549.84	100.64
550.01	79.58
550.18	128.73
550.34	70.22
550.51	110.01
550.68	88.94
550.84	138.09
551.01	74.90
551.18	91.28
551.34	49.15
551.51	138.09
551.68	102.98
551.84	100.64
552.01	145.11
552.18	65.54
552.34	95.96
552.51	166.18
552.68	119.37
552.84	9.36
553.01	102.98
553.18	74.90
553.34	110.01
553.51	163.84
553.67	79.58
553.84	93.62
554.01	135.75
554.17	84.26
554.34	44.47
554.51	156.82
554.67	107.66
554.84	49.15
555.00	105.32
555.17	126.39
555.33	112.35
555.50	9.36
555.67	98.30
555.83	14.04
556.00	81.92
556.16	77.24
556.33	88.94
556.50	142.77
556.66	58.51
556.83	16.38
556.99	56.17
557.16	159.16
557.32	93.62
557.49	35.11
557.65	65.54
557.82	95.96
557.98	133.41
558.15	140.43
558.32	131.07
558.48	79.58
558.65	44.47
558.81	107.66
558.98	0.00
559.14	23.41
559.31	77.24
559.47	46.81
559.64	74.90
559.80	140.43
559.97	86.60
560.13	126.39
560.30	105.32
560.46	131.07
560.63	91.28
560.79	42.13
560.96	72.56
561.12	53.83
561.29	138.09
561.45	147.45
561.61	88.94
561.78	126.39
561.94	105.32
562.11	126.39
562.27	23.41
562.44	32.77
562.60	51.49
562.77	72.56
562.93	39.79
563.10	142.77
563.26	187.24
563.42	84.26
563.59	177.88
563.75	95.96
563.92	91.28
564.08	91.28
564.24	63.19
564.41	98.30
564.57	42.13
564.74	81.92
564.90	182.56
565.07	58.51
565.23	95.96
565.39	100.64
565.56	117.03
565.72	11.70
565.88	119.37
566.05	46.81
566.21	142.77
566.38	84.26
566.54	32.77
566.70	100.64
566.87	51.49
567.03	138.09
567.19	67.88
567.36	102.98
567.52	84.26
567.68	79.58
567.85	112.35
568.01	51.49
568.17	0.00
568.34	86.60
568.50	105.32
568.66	30.43
568.83	60.85
568.99	42.13
569.15	98.30
569.32	60.85
569.48	93.62
569.64	70.22
569.81	91.28
569.97	117.03
570.13	138.09
570.30	42.13
570.46	18.72
570.62	227.03
570.78	124.05
570.95	63.19
571.11	112.35
571.27	70.22
571.43	112.35
571.60	84.26
571.76	88.94
571.92	133.41
572.09	37.45
572.25	14.04
572.41	77.24
572.57	124.05
572.74	58.51
572.90	32.77
573.06	110.01
573.22	128.73
573.38	67.88
573.55	93.62
573.71	42.13
573.87	84.26
574.03	107.66
574.20	100.64
574.36	142.77
574.52	100.64
574.68	35.11
574.84	154.48
575.01	74.90
575.17	51.49
575.33	32.77
575.49	63.19
575.65	100.64
575.82	70.22
575.98	37.45
576.14	4.68
576.30	84.26
576.46	110.01
576.62	147.45
576.79	74.90
576.95	28.09
577.11	81.92
577.27	72.56
577.43	42.13
577.59	30.43
577.75	133.41
577.92	51.49
578.08	72.56
578.24	138.09
578.40	0.00
578.56	0.00
578.72	100.64
578.88	84.26
579.04	18.72
579.21	159.16
579.37	93.62
579.53	95.96
579.69	102.98
579.85	9.36
580.01	124.05
580.17	95.96
580.33	25.75
580.49	86.60
580.65	63.19
580.82	56.17
580.98	9.36
581.14	46.81
581.30	84.26
581.46	81.92
581.62	126.39
581.78	102.98
581.94	135.75
582.10	161.50
582.26	79.58
582.42	74.90
582.58	88.94
582.74	86.60
582.90	23.41
583.06	65.54
583.22	81.92
583.38	44.47
583.54	117.03
583.70	28.09
583.86	0.00
584.02	70.22
584.18	72.56
584.34	49.15
584.50	117.03
584.66	67.88
584.82	84.26
584.98	25.75
585.14	81.92
585.30	86.60
585.46	102.98
585.62	7.02
585.78	67.88
585.94	93.62
586.10	32.77
586.26	168.52
586.42	105.32
586.58	65.54
586.74	110.01
586.90	39.79
587.06	93.62
587.22	131.07
587.38	58.51
587.54	0.00
587.70	37.45
587.86	46.81
588.02	81.92
588.18	39.79
588.34	107.66
588.49	63.19
588.65	60.85
588.81	0.00
588.97	70.22
589.13	72.56
589.29	37.45
589.45	79.58
589.61	25.75
589.77	58.51
589.93	53.83
590.08	65.54
590.24	25.75
590.40	0.00
590.56	105.32
590.72	0.00
590.88	56.17
591.04	77.24
591.20	88.94
591.35	105.32
591.51	79.58
591.67	117.03
591.83	53.83
591.99	60.85
592.15	145.11
592.31	72.56
592.46	16.38
592.62	44.47
592.78	60.85
592.94	56.17
593.10	138.09
593.26	124.05
593.41	86.60
593.57	0.00
593.73	65.54
593.89	79.58
594.05	121.71
594.20	93.62
594.36	105.32
594.52	30.43
594.68	46.81
594.84	30.43
594.99	49.15
595.15	60.85
595.31	0.00
595.47	131.07
595.62	112.35
595.78	46.81
595.94	63.19
596.10	77.24
596.25	53.83
596.41	112.35
596.57	63.19
596.73	51.49
596.88	93.62
597.04	0.00
597.20	114.69
597.36	63.19
597.51	98.30
597.67	74.90
597.83	67.88
597.99	88.94
598.14	51.49
598.30	138.09
598.46	121.71
598.61	74.90
598.77	37.45
598.93	91.28
599.09	60.85
599.24	79.58
599.40	98.30
599.56	58.51
599.71	93.62
599.87	102.98
600.03	53.83
600.18	32.77
600.34	93.62
600.50	91.28
600.65	16.38
600.81	86.60
600.97	74.90
601.12	95.96
601.28	51.49
601.44	70.22
601.59	35.11
601.75	0.00
601.91	32.77
602.06	93.62
602.22	58.51
602.37	0.00
602.53	121.71
602.69	112.35
602.84	37.45
603.00	84.26
603.16	105.32
603.31	21.06
603.47	110.01
603.62	138.09
603.78	46.81
603.94	72.56
604.09	53.83
604.25	74.90
604.40	79.58
604.56	100.64
604.71	128.73
604.87	35.11
605.03	124.05
605.18	35.11
605.34	112.35
605.49	93.62
605.65	51.49
605.80	105.32
605.96	70.22
606.12	93.62
606.27	35.11
606.43	23.41
606.58	56.17
606.74	121.71
606.89	56.17
607.05	88.94
607.20	30.43
607.36	102.98
607.51	88.94
607.67	105.32
607.82	135.75
607.98	84.26
608.13	23.41
608.29	105.32
608.44	128.73
608.60	117.03
608.75	135.75
608.91	35.11
609.06	44.47
609.22	28.09
609.37	133.41
609.53	35.11
609.68	65.54
609.84	60.85
609.99	102.98
610.15	166.18
610.30	126.39
610.46	46.81
610.61	67.88
610.76	107.66
610.92	67.88
611.07	79.58
611.23	102.98
611.38	81.92
611.54	65.54
611.69	56.17
611.84	74.90
612.00	28.09
612.15	44.47
612.31	30.43
612.46	140.43
612.62	49.15
612.77	93.62
612.92	2.34
613.08	98.30
613.23	51.49
613.39	70.22
613.54	18.72
613.69	35.11
613.85	91.28
614.00	110.01
614.15	16.38
614.31	0.00
614.46	93.62
614.62	77.24
614.77	39.79
614.92	32.77
615.08	70.22
615.23	74.90
615.38	30.43
615.54	65.54
615.69	65.54
615.84	35.11
616.00	32.77
616.15	23.41
616.30	77.24
616.46	49.15
616.61	79.58
616.76	65.54
616.92	74.90
617.07	102.98
617.22	46.81
617.37	70.22
617.53	39.79
617.68	79.58
617.83	86.60
617.99	53.83
618.14	84.26
618.29	95.96
618.45	56.17
618.60	9.36
618.75	46.81
618.90	49.15
619.06	88.94
619.21	65.54
619.36	35.11
619.51	124.05
619.67	93.62
619.82	53.83
619.97	53.83
620.12	98.30
620.28	74.90
620.43	42.13
620.58	128.73
620.73	86.60
620.89	28.09
621.04	67.88
621.19	67.88
621.34	46.81
621.49	0.00
621.65	95.96
621.80	25.75
621.95	49.15
622.10	0.00
622.25	35.11
622.41	86.60
622.56	79.58
622.71	77.24
622.86	110.01
623.01	46.81
623.16	56.17
623.32	121.71
623.47	67.88
623.62	65.54
623.77	60.85
623.92	35.11
624.07	126.39
624.23	51.49
624.38	53.83
624.53	46.81
624.68	102.98
624.83	65.54
624.98	86.60
625.13	37.45
625.29	98.30
625.44	7.02
625.59	53.83
625.74	18.72
625.89	102.98
626.04	70.22
626.19	16.38
626.34	44.47
626.49	100.64
626.65	42.13
626.80	11.70
626.95	102.98
627.10	84.26
627.25	84.26
627.40	58.51
627.55	32.77
627.70	102.98
627.85	0.00
628.00	18.72
628.15	18.72
628.30	21.06
628.45	65.54
628.60	28.09
628.76	0.00
628.91	23.41
629.06	37.45
629.21	84.26
629.36	112.35
629.51	84.26
629.66	67.88
629.81	105.32
629.96	105.32
630.11	56.17
630.26	56.17
630.41	32.77
630.56	39.79
630.71	67.88
630.86	81.92
631.01	79.58
631.16	7.02
631.31	135.75
631.46	25.75
631.61	67.88
631.76	70.22
631.91	23.41
632.06	63.19
632.21	65.54
632.36	81.92
632.51	58.51
632.66	49.15
632.81	91.28
632.96	74.90
633.10	98.30
633.25	53.83
633.40	81.92
633.55	7.02
633.70	35.11
633.85	28.09
634.00	46.81
634.15	107.66
634.30	0.00
634.45	175.54
634.60	56.17
634.75	105.32
634.90	70.22
635.05	44.47
635.19	70.22
635.34	86.60
635.49	79.58
635.64	81.92
635.79	0.00
635.94	65.54
636.09	42.13
636.24	46.81
636.39	93.62
636.53	51.49
636.68	4.68
636.83	25.75
636.98	56.17
637.13	67.88
637.28	18.72
637.43	35.11
637.57	102.98
637.72	81.92
637.87	0.00
638.02	95.96
638.17	58.51
638.32	67.88
638.46	93.62
638.61	84.26
638.76	53.83
638.91	28.09
639.06	70.22
639.20	91.28
639.35	84.26
639.50	39.79
639.65	42.13
639.80	63.19
639.94	53.83
640.09	21.06
640.24	56.17
640.39	70.22
640.54	23.41
640.68	32.77
640.83	37.45
640.98	30.43
641.13	63.19
641.27	0.00
641.42	44.47
641.57	58.51
641.72	131.07
641.86	37.45
642.01	91.28
642.16	56.17
642.31	46.81
642.45	74.90
642.60	58.51
642.75	70.22
642.90	67.88
643.04	0.00
643.19	93.62
643.34	67.88
643.48	30.43
643.63	0.00
643.78	102.98
643.93	74.90
644.07	16.38
644.22	124.05
644.37	95.96
644.51	46.81
644.66	86.60
644.81	25.75
644.95	56.17
645.10	30.43
645.25	77.24
645.39	0.00
645.54	65.54
645.69	65.54
645.83	58.51
645.98	98.30
646.13	79.58
646.27	16.38
646.42	11.70
646.57	53.83
646.71	7.02
646.86	74.90
647.00	46.81
647.15	32.77
647.30	56.17
647.44	93.62
647.59	93.62
647.74	93.62
647.88	28.09
648.03	0.00
648.17	98.30
648.32	93.62
648.47	86.60
648.61	53.83
648.76	4.68
648.90	63.19
649.05	39.79
649.20	18.72
649.34	0.00
649.49	74.90
649.63	58.51
649.78	56.17
649.92	72.56
650.07	98.30
650.21	79.58
650.36	56.17
650.51	11.70
650.65	77.24
650.80	35.11
650.94	51.49
651.09	65.54
651.23	145.11
651.38	21.06
651.52	42.13
651.67	11.70
651.81	53.83
651.96	11.70
652.10	161.50
652.25	16.38
652.39	37.45
652.54	0.00
652.68	56.17
652.83	70.22
652.97	100.64
653.12	117.03
653.26	56.17
653.41	74.90
653.55	18.72
653.70	4.68
653.84	72.56
653.99	18.72
654.13	11.70
654.27	53.83
654.42	49.15
654.56	63.19
654.71	0.00
654.85	102.98
655.00	63.19
655.14	79.58
655.29	102.98
655.43	53.83
655.57	86.60
655.72	2.34
655.86	49.15
656.01	23.41
656.15	88.94
656.30	65.54
656.44	9.36
656.58	44.47
656.73	42.13
656.87	49.15
657.01	0.00
657.16	84.26
657.30	91.28
657.45	30.43
657.59	110.01
657.73	63.19
657.88	51.49
658.02	142.77
658.16	28.09
658.31	72.56
658.45	77.24
658.60	0.00
658.74	44.47
658.88	84.26
659.03	91.28
659.17	32.77
659.31	105.32
659.46	63.19
659.60	42.13
659.74	23.41
659.89	53.83
660.03	70.22
660.17	100.64
660.32	107.66
660.46	60.85
660.60	84.26
660.74	86.60
660.89	53.83
661.03	23.41
661.17	53.83
661.32	51.49
661.46	23.41
661.60	77.24
661.74	93.62
661.89	98.30
662.03	28.09
662.17	74.90
662.31	70.22
662.46	112.35
662.60	60.85
662.74	74.90
662.88	0.00
663.03	39.79
663.17	56.17
663.31	56.17
663.45	86.60
663.60	0.00
663.74	67.88
663.88	117.03
664.02	11.70
664.17	42.13
664.31	74.90
664.45	44.47
664.59	42.13
664.73	28.09
664.88	35.11
665.02	39.79
665.16	65.54
665.30	30.43
665.44	46.81
665.59	60.85
665.73	11.70
665.87	28.09
666.01	0.00
666.15	42.13
666.29	37.45
666.44	58.51
666.58	23.41
666.72	58.51
666.86	95.96
667.00	51.49
667.14	60.85
667.28	93.62
667.43	30.43
667.57	63.19
667.71	7.02
667.85	77.24
667.99	44.47
668.13	81.92
668.27	0.00
668.41	0.00
668.56	70.22
668.70	95.96
668.84	46.81
668.98	77.24
669.12	91.28
669.26	30.43
669.40	70.22
669.54	98.30
669.68	107.66
669.82	49.15
669.96	67.88
670.10	39.79
670.25	39.79
670.39	30.43
670.53	30.43
670.67	86.60
670.81	86.60
670.95	11.70
671.09	35.11
671.23	0.00
671.37	72.56
671.51	175.54
671.65	42.13
671.79	21.06
671.93	72.56
672.07	124.05
672.21	46.81
672.35	28.09
672.49	88.94
672.63	35.11
672.77	100.64
672.91	53.83
673.05	37.45
673.19	32.77
673.33	42.13
673.47	0.00
673.61	79.58
673.75	177.88
673.89	56.17
674.03	16.38
674.17	105.32
674.31	21.06
674.45	0.00
674.59	56.17
674.73	77.24
674.87	49.15
675.01	51.49
675.15	98.30
675.29	84.26
675.43	60.85
675.56	102.98
675.70	93.62
675.84	84.26
675.98	32.77
676.12	65.54
676.26	0.00
676.40	35.11
676.54	2.34
676.68	93.62
676.82	23.41
676.96	4.68
677.10	14.04
677.23	86.60
677.37	74.90
677.51	35.11
677.65	67.88
677.79	0.00
677.93	102.98
678.07	16.38
678.21	37.45
678.34	37.45
678.48	9.36
678.62	37.45
678.76	84.26
678.90	56.17
679.04	23.41
679.18	63.19
679.31	0.00
679.45	107.66
679.59	126.39
679.73	21.06
679.87	4.68
680.00	28.09
680.14	14.04
680.28	58.51
680.42	65.54
680.56	49.15
680.70	65.54
680.83	46.81
680.97	35.11
681.11	63.19
681.25	0.00
681.39	25.75
681.52	117.03
681.66	56.17
681.80	0.00
681.94	98.30
682.07	49.15
682.21	79.58
682.35	93.62
682.49	98.30
682.62	4.68
682.76	30.43
682.90	84.26
683.04	79.58
683.17	117.03
683.31	63.19
683.45	74.90
683.59	14.04
683.72	84.26
683.86	14.04
684.00	0.00
684.13	72.56
684.27	58.51
684.41	58.51
684.55	70.22
684.68	74.90
684.82	16.38
684.96	44.47
685.09	58.51
685.23	21.06
685.37	16.38
685.50	28.09
685.64	114.69
685.78	2.34
685.91	51.49
686.05	91.28
686.19	0.00
686.32	0.00
686.46	39.79
686.60	37.45
686.73	53.83
686.87	21.06
687.01	81.92
687.14	53.83
687.28	9.36
687.42	91.28
687.55	39.79
687.69	23.41
687.82	44.47
687.96	42.13
688.10	21.06
688.23	16.38
688.37	0.00
688.50	39.79
688.64	84.26
688.78	88.94
688.91	70.22
689.05	81.92
689.18	107.66
689.32	95.96
689.46	0.00
689.59	72.56
689.73	58.51
689.86	86.60
690.00	107.66
690.13	46.81
690.27	77.24
690.41	18.72
690.54	9.36
690.68	25.75
690.81	21.06
690.95	49.15
691.08	9.36
691.22	49.15
691.35	60.85
691.49	60.85
691.62	121.71
691.76	60.85
691.89	53.83
692.03	67.88
692.16	51.49
692.30	0.00
692.43	51.49
692.57	58.51
692.70	60.85
692.84	7.02
692.97	25.75
693.11	0.00
693.24	35.11
693.38	0.00
693.51	0.00
693.65	2.34
693.78	30.43
693.92	93.62
694.05	72.56
694.19	98.30
694.32	74.90
694.45	0.00
694.59	70.22
694.72	42.13
694.86	0.00
694.99	60.85
695.13	0.00
695.26	37.45
695.39	98.30
695.53	11.70
695.66	98.30
695.80	81.92
695.93	44.47
696.07	0.00
696.20	18.72
696.33	105.32
696.47	7.02
696.60	46.81
696.73	0.00
696.87	11.70
697.00	102.98
697.14	37.45
697.27	28.09
697.40	0.00
697.54	77.24
697.67	100.64
697.80	56.17
697.94	0.00
698.07	14.04
698.21	100.64
698.34	63.19
698.47	49.15
698.61	44.47
698.74	0.00
698.87	70.22
699.01	30.43
699.14	39.79
699.27	42.13
699.40	53.83
699.54	2.34
699.67	28.09
699.80	23.41
699.94	9.36
700.07	37.45
700.20	0.00
700.34	72.56
700.47	79.58
700.60	93.62
700.73	0.00
700.87	53.83
701.00	60.85
701.13	30.43
701.26	18.72
701.40	46.81
701.53	0.00
701.66	72.56
701.79	25.75
701.93	67.88
702.06	0.00
702.19	0.00
702.32	0.00
702.46	28.09
702.59	42.13
702.72	0.00
702.85	23.41
702.99	128.73
703.12	37.45
703.25	4.68
703.38	4.68
703.51	32.77
703.65	14.04
703.78	98.30
703.91	56.17
704.04	53.83
704.17	25.75
704.31	23.41
704.44	0.00
704.57	0.00
704.70	37.45
704.83	0.00
704.96	46.81
705.10	25.75
705.23	44.47
>>>>>End Processed Spectral Data<<<<<
