SpectraSuite Data File
++++++++++++++++++++++++++++++++++++
Date: Fri Oct 04 12:13:41 GMT-05:00 2013
User: price-jones
Dark Spectrum Present: No
Reference Spectrum Present: No
Number of Sampled Component Spectra: 1
Spectrometers: USB2+H05261
Integration Time (usec): 10000 (USB2+H05261)
Spectra Averaged: 1 (USB2+H05261)
Boxcar Smoothing: 0 (USB2+H05261)
Correct for Electrical Dark: No (USB2+H05261)
Strobe/Lamp Enabled: No (USB2+H05261)
Correct for Detector Non-linearity: No (USB2+H05261)
Correct for Stray Light: No (USB2+H05261)
Number of Pixels in Processed Spectrum: 2048
>>>>>Begin Processed Spectral Data<<<<<
365.73	0.00
365.92	0.00
366.12	0.00
366.32	0.00
366.52	0.00
366.72	0.00
366.91	0.00
367.11	0.00
367.31	0.00
367.51	0.00
367.70	0.00
367.90	0.00
368.10	0.00
368.30	0.00
368.49	0.00
368.69	0.00
368.89	0.00
369.09	0.00
369.28	0.00
369.48	0.00
369.68	0.00
369.87	0.00
370.07	0.00
370.27	0.00
370.47	0.00
370.66	0.00
370.86	0.00
371.06	0.00
371.25	0.00
371.45	0.00
371.65	0.00
371.84	42.13
372.04	4.68
372.24	28.09
372.44	0.00
372.63	0.00
372.83	0.00
373.03	25.75
373.22	74.90
373.42	58.51
373.62	35.11
373.81	35.11
374.01	58.51
374.21	21.06
374.40	0.00
374.60	65.54
374.79	0.00
374.99	25.75
375.19	25.75
375.38	81.92
375.58	79.58
375.78	23.41
375.97	32.77
376.17	28.09
376.37	112.35
376.56	0.00
376.76	51.49
376.95	0.00
377.15	56.17
377.35	4.68
377.54	0.00
377.74	0.00
377.93	32.77
378.13	0.00
378.33	21.06
378.52	16.38
378.72	2.34
378.91	56.17
379.11	0.00
379.31	37.45
379.50	25.75
379.70	0.00
379.89	37.45
380.09	16.38
380.28	42.13
380.48	14.04
380.68	16.38
380.87	0.00
381.07	42.13
381.26	63.19
381.46	0.00
381.65	56.17
381.85	0.00
382.04	58.51
382.24	98.30
382.43	74.90
382.63	49.15
382.83	0.00
383.02	0.00
383.22	65.54
383.41	23.41
383.61	0.00
383.80	25.75
384.00	35.11
384.19	0.00
384.39	9.36
384.58	0.00
384.78	51.49
384.97	0.00
385.17	23.41
385.36	39.79
385.56	0.00
385.75	70.22
385.95	9.36
386.14	42.13
386.34	4.68
386.53	100.64
386.72	51.49
386.92	7.02
387.11	18.72
387.31	35.11
387.50	23.41
387.70	0.00
387.89	35.11
388.09	0.00
388.28	0.00
388.48	42.13
388.67	9.36
388.86	23.41
389.06	2.34
389.25	49.15
389.45	35.11
389.64	0.00
389.84	18.72
390.03	70.22
390.22	72.56
390.42	0.00
390.61	16.38
390.81	30.43
391.00	74.90
391.19	25.75
391.39	28.09
391.58	0.00
391.78	21.06
391.97	0.00
392.16	39.79
392.36	0.00
392.55	0.00
392.75	32.77
392.94	0.00
393.13	39.79
393.33	42.13
393.52	7.02
393.71	88.94
393.91	72.56
394.10	21.06
394.29	0.00
394.49	32.77
394.68	0.00
394.88	39.79
395.07	30.43
395.26	18.72
395.46	77.24
395.65	35.11
395.84	0.00
396.04	53.83
396.23	30.43
396.42	60.85
396.62	4.68
396.81	44.47
397.00	16.38
397.19	81.92
397.39	58.51
397.58	100.64
397.77	98.30
397.97	39.79
398.16	0.00
398.35	30.43
398.55	9.36
398.74	0.00
398.93	72.56
399.12	23.41
399.32	0.00
399.51	79.58
399.70	28.09
399.90	42.13
400.09	49.15
400.28	70.22
400.47	21.06
400.67	79.58
400.86	0.00
401.05	9.36
401.24	28.09
401.44	0.00
401.63	0.00
401.82	84.26
402.01	72.56
402.21	2.34
402.40	0.00
402.59	121.71
402.78	42.13
402.97	0.00
403.17	98.30
403.36	86.60
403.55	7.02
403.74	37.45
403.93	28.09
404.13	56.17
404.32	0.00
404.51	16.38
404.70	56.17
404.89	16.38
405.09	37.45
405.28	56.17
405.47	16.38
405.66	0.00
405.85	21.06
406.05	23.41
406.24	70.22
406.43	32.77
406.62	65.54
406.81	67.88
407.00	30.43
407.20	0.00
407.39	74.90
407.58	98.30
407.77	35.11
407.96	16.38
408.15	0.00
408.34	28.09
408.54	21.06
408.73	42.13
408.92	49.15
409.11	23.41
409.30	93.62
409.49	49.15
409.68	100.64
409.87	0.00
410.07	42.13
410.26	67.88
410.45	18.72
410.64	46.81
410.83	63.19
411.02	21.06
411.21	53.83
411.40	25.75
411.59	58.51
411.78	4.68
411.98	51.49
412.17	46.81
412.36	72.56
412.55	2.34
412.74	23.41
412.93	51.49
413.12	7.02
413.31	25.75
413.50	9.36
413.69	100.64
413.88	37.45
414.07	0.00
414.26	79.58
414.45	37.45
414.64	56.17
414.83	53.83
415.02	0.00
415.22	0.00
415.41	39.79
415.60	81.92
415.79	44.47
415.98	65.54
416.17	65.54
416.36	46.81
416.55	0.00
416.74	70.22
416.93	60.85
417.12	0.00
417.31	25.75
417.50	112.35
417.69	42.13
417.88	28.09
418.07	0.00
418.26	35.11
418.45	72.56
418.64	53.83
418.83	2.34
419.02	23.41
419.21	86.60
419.39	25.75
419.58	51.49
419.77	49.15
419.96	28.09
420.15	11.70
420.34	35.11
420.53	63.19
420.72	107.66
420.91	77.24
421.10	44.47
421.29	49.15
421.48	77.24
421.67	0.00
421.86	30.43
422.05	32.77
422.24	7.02
422.43	21.06
422.61	23.41
422.80	49.15
422.99	51.49
423.18	44.47
423.37	2.34
423.56	0.00
423.75	51.49
423.94	126.39
424.13	37.45
424.32	23.41
424.50	58.51
424.69	16.38
424.88	63.19
425.07	67.88
425.26	79.58
425.45	46.81
425.64	9.36
425.83	35.11
426.01	0.00
426.20	138.09
426.39	32.77
426.58	107.66
426.77	56.17
426.96	39.79
427.15	39.79
427.33	88.94
427.52	18.72
427.71	37.45
427.90	2.34
428.09	42.13
428.28	63.19
428.46	110.01
428.65	37.45
428.84	0.00
429.03	35.11
429.22	102.98
429.40	35.11
429.59	93.62
429.78	0.00
429.97	0.00
430.16	0.00
430.34	32.77
430.53	56.17
430.72	16.38
430.91	70.22
431.10	0.00
431.28	0.00
431.47	72.56
431.66	46.81
431.85	11.70
432.03	51.49
432.22	0.00
432.41	35.11
432.60	0.00
432.79	70.22
432.97	18.72
433.16	2.34
433.35	49.15
433.54	0.00
433.72	63.19
433.91	0.00
434.10	0.00
434.28	102.98
434.47	0.00
434.66	105.32
434.85	49.15
435.03	51.49
435.22	18.72
435.41	11.70
435.59	35.11
435.78	0.00
435.97	77.24
436.16	30.43
436.34	88.94
436.53	86.60
436.72	53.83
436.90	63.19
437.09	44.47
437.28	0.00
437.46	70.22
437.65	0.00
437.84	4.68
438.02	28.09
438.21	0.00
438.40	49.15
438.58	63.19
438.77	39.79
438.96	30.43
439.14	0.00
439.33	14.04
439.52	0.00
439.70	79.58
439.89	53.83
440.08	37.45
440.26	81.92
440.45	0.00
440.63	98.30
440.82	124.05
441.01	16.38
441.19	28.09
441.38	65.54
441.57	42.13
441.75	112.35
441.94	42.13
442.12	117.03
442.31	11.70
442.50	72.56
442.68	28.09
442.87	23.41
443.05	74.90
443.24	46.81
443.43	65.54
443.61	74.90
443.80	100.64
443.98	58.51
444.17	124.05
444.35	4.68
444.54	100.64
444.73	0.00
444.91	0.00
445.10	72.56
445.28	114.69
445.47	88.94
445.65	0.00
445.84	39.79
446.02	0.00
446.21	53.83
446.39	21.06
446.58	58.51
446.77	112.35
446.95	16.38
447.14	65.54
447.32	32.77
447.51	84.26
447.69	77.24
447.88	28.09
448.06	37.45
448.25	23.41
448.43	74.90
448.62	105.32
448.80	16.38
448.99	0.00
449.17	56.17
449.36	74.90
449.54	23.41
449.73	56.17
449.91	37.45
450.10	77.24
450.28	93.62
450.46	21.06
450.65	74.90
450.83	88.94
451.02	72.56
451.20	60.85
451.39	49.15
451.57	9.36
451.76	14.04
451.94	28.09
452.13	86.60
452.31	60.85
452.49	74.90
452.68	39.79
452.86	44.47
453.05	105.32
453.23	9.36
453.42	86.60
453.60	35.11
453.78	46.81
453.97	11.70
454.15	70.22
454.34	51.49
454.52	60.85
454.70	77.24
454.89	77.24
455.07	110.01
455.26	28.09
455.44	77.24
455.62	74.90
455.81	65.54
455.99	65.54
456.17	98.30
456.36	91.28
456.54	35.11
456.73	58.51
456.91	70.22
457.09	0.00
457.28	100.64
457.46	0.00
457.64	51.49
457.83	46.81
458.01	11.70
458.19	46.81
458.38	72.56
458.56	46.81
458.74	53.83
458.93	30.43
459.11	79.58
459.29	56.17
459.48	70.22
459.66	84.26
459.84	53.83
460.03	119.37
460.21	100.64
460.39	49.15
460.57	72.56
460.76	105.32
460.94	56.17
461.12	102.98
461.31	128.73
461.49	56.17
461.67	88.94
461.85	44.47
462.04	67.88
462.22	65.54
462.40	0.00
462.59	21.06
462.77	67.88
462.95	39.79
463.13	60.85
463.32	18.72
463.50	35.11
463.68	60.85
463.86	81.92
464.05	88.94
464.23	39.79
464.41	16.38
464.59	84.26
464.78	102.98
464.96	112.35
465.14	114.69
465.32	72.56
465.50	39.79
465.69	88.94
465.87	60.85
466.05	16.38
466.23	72.56
466.41	32.77
466.60	74.90
466.78	14.04
466.96	16.38
467.14	102.98
467.32	84.26
467.51	91.28
467.69	21.06
467.87	58.51
468.05	32.77
468.23	25.75
468.41	32.77
468.60	58.51
468.78	74.90
468.96	107.66
469.14	0.00
469.32	142.77
469.50	32.77
469.69	70.22
469.87	81.92
470.05	91.28
470.23	121.71
470.41	65.54
470.59	23.41
470.77	138.09
470.95	81.92
471.14	70.22
471.32	70.22
471.50	72.56
471.68	0.00
471.86	77.24
472.04	44.47
472.22	84.26
472.40	30.43
472.58	16.38
472.77	0.00
472.95	32.77
473.13	32.77
473.31	37.45
473.49	126.39
473.67	124.05
473.85	84.26
474.03	102.98
474.21	18.72
474.39	37.45
474.57	49.15
474.75	4.68
474.93	177.88
475.12	74.90
475.30	58.51
475.48	35.11
475.66	72.56
475.84	53.83
476.02	0.00
476.20	30.43
476.38	28.09
476.56	11.70
476.74	0.00
476.92	65.54
477.10	63.19
477.28	95.96
477.46	72.56
477.64	63.19
477.82	49.15
478.00	93.62
478.18	124.05
478.36	25.75
478.54	0.00
478.72	98.30
478.90	84.26
479.08	21.06
479.26	16.38
479.44	72.56
479.62	42.13
479.80	84.26
479.98	16.38
480.16	58.51
480.34	74.90
480.52	14.04
480.70	112.35
480.88	39.79
481.06	14.04
481.24	35.11
481.41	28.09
481.59	79.58
481.77	28.09
481.95	72.56
482.13	46.81
482.31	35.11
482.49	114.69
482.67	81.92
482.85	74.90
483.03	105.32
483.21	152.13
483.39	65.54
483.57	126.39
483.74	102.98
483.92	32.77
484.10	53.83
484.28	53.83
484.46	84.26
484.64	117.03
484.82	53.83
485.00	16.38
485.18	51.49
485.35	131.07
485.53	79.58
485.71	77.24
485.89	88.94
486.07	35.11
486.25	119.37
486.43	46.81
486.61	67.88
486.78	32.77
486.96	46.81
487.14	46.81
487.32	79.58
487.50	28.09
487.68	119.37
487.85	77.24
488.03	107.66
488.21	77.24
488.39	21.06
488.57	39.79
488.75	112.35
488.92	95.96
489.10	60.85
489.28	107.66
489.46	56.17
489.64	18.72
489.81	32.77
489.99	56.17
490.17	88.94
490.35	49.15
490.53	70.22
490.70	60.85
490.88	102.98
491.06	126.39
491.24	91.28
491.41	107.66
491.59	39.79
491.77	100.64
491.95	79.58
492.13	117.03
492.30	84.26
492.48	11.70
492.66	112.35
492.84	58.51
493.01	201.29
493.19	166.18
493.37	124.05
493.54	42.13
493.72	100.64
493.90	72.56
494.08	88.94
494.25	100.64
494.43	72.56
494.61	189.58
494.79	56.17
494.96	126.39
495.14	121.71
495.32	35.11
495.49	93.62
495.67	77.24
495.85	9.36
496.02	86.60
496.20	131.07
496.38	56.17
496.55	60.85
496.73	58.51
496.91	74.90
497.09	107.66
497.26	128.73
497.44	67.88
497.62	9.36
497.79	35.11
497.97	18.72
498.14	88.94
498.32	102.98
498.50	98.30
498.67	114.69
498.85	91.28
499.03	53.83
499.20	51.49
499.38	60.85
499.56	88.94
499.73	93.62
499.91	79.58
500.08	74.90
500.26	93.62
500.44	86.60
500.61	58.51
500.79	110.01
500.97	114.69
501.14	35.11
501.32	100.64
501.49	84.26
501.67	14.04
501.84	126.39
502.02	49.15
502.20	37.45
502.37	84.26
502.55	107.66
502.72	79.58
502.90	114.69
503.07	28.09
503.25	77.24
503.43	51.49
503.60	63.19
503.78	53.83
503.95	65.54
504.13	49.15
504.30	152.13
504.48	77.24
504.65	121.71
504.83	114.69
505.01	16.38
505.18	95.96
505.36	51.49
505.53	138.09
505.71	133.41
505.88	112.35
506.06	135.75
506.23	142.77
506.41	65.54
506.58	142.77
506.76	9.36
506.93	53.83
507.11	107.66
507.28	30.43
507.46	23.41
507.63	51.49
507.81	102.98
507.98	95.96
508.16	37.45
508.33	37.45
508.50	95.96
508.68	121.71
508.85	84.26
509.03	70.22
509.20	145.11
509.38	53.83
509.55	4.68
509.73	58.51
509.90	51.49
510.08	79.58
510.25	105.32
510.42	58.51
510.60	37.45
510.77	74.90
510.95	58.51
511.12	49.15
511.30	51.49
511.47	63.19
511.64	110.01
511.82	88.94
511.99	100.64
512.17	25.75
512.34	86.60
512.51	35.11
512.69	145.11
512.86	49.15
513.04	84.26
513.21	25.75
513.38	37.45
513.56	107.66
513.73	46.81
513.90	79.58
514.08	60.85
514.25	72.56
514.43	9.36
514.60	72.56
514.77	93.62
514.95	53.83
515.12	42.13
515.29	9.36
515.47	25.75
515.64	7.02
515.81	58.51
515.99	107.66
516.16	84.26
516.33	149.79
516.51	105.32
516.68	51.49
516.85	77.24
517.03	42.13
517.20	63.19
517.37	100.64
517.54	28.09
517.72	32.77
517.89	95.96
518.06	117.03
518.24	25.75
518.41	121.71
518.58	77.24
518.75	23.41
518.93	28.09
519.10	46.81
519.27	53.83
519.45	81.92
519.62	149.79
519.79	126.39
519.96	4.68
520.14	58.51
520.31	65.54
520.48	147.45
520.65	98.30
520.83	81.92
521.00	72.56
521.17	77.24
521.34	46.81
521.52	37.45
521.69	119.37
521.86	107.66
522.03	142.77
522.20	37.45
522.38	60.85
522.55	77.24
522.72	86.60
522.89	135.75
523.07	18.72
523.24	126.39
523.41	42.13
523.58	79.58
523.75	140.43
523.92	126.39
524.10	168.52
524.27	126.39
524.44	74.90
524.61	46.81
524.78	102.98
524.96	110.01
525.13	161.50
525.30	63.19
525.47	95.96
525.64	77.24
525.81	126.39
525.98	135.75
526.16	182.56
526.33	93.62
526.50	65.54
526.67	91.28
526.84	51.49
527.01	7.02
527.18	9.36
527.36	81.92
527.53	93.62
527.70	88.94
527.87	149.79
528.04	93.62
528.21	107.66
528.38	91.28
528.55	91.28
528.72	110.01
528.89	161.50
529.07	119.37
529.24	98.30
529.41	72.56
529.58	114.69
529.75	142.77
529.92	86.60
530.09	107.66
530.26	142.77
530.43	112.35
530.60	84.26
530.77	105.32
530.94	56.17
531.11	14.04
531.28	56.17
531.46	44.47
531.63	60.85
531.80	128.73
531.97	98.30
532.14	70.22
532.31	0.00
532.48	156.82
532.65	102.98
532.82	112.35
532.99	91.28
533.16	182.56
533.33	51.49
533.50	95.96
533.67	42.13
533.84	53.83
534.01	65.54
534.18	58.51
534.35	44.47
534.52	95.96
534.69	102.98
534.86	81.92
535.03	114.69
535.20	112.35
535.37	98.30
535.54	81.92
535.71	30.43
535.88	56.17
536.05	81.92
536.22	126.39
536.38	133.41
536.55	63.19
536.72	51.49
536.89	74.90
537.06	117.03
537.23	88.94
537.40	81.92
537.57	0.00
537.74	60.85
537.91	119.37
538.08	86.60
538.25	84.26
538.42	46.81
538.59	84.26
538.75	58.51
538.92	86.60
539.09	138.09
539.26	107.66
539.43	84.26
539.60	72.56
539.77	102.98
539.94	0.00
540.11	51.49
540.28	81.92
540.44	44.47
540.61	81.92
540.78	32.77
540.95	77.24
541.12	105.32
541.29	138.09
541.46	142.77
541.62	42.13
541.79	93.62
541.96	98.30
542.13	84.26
542.30	77.24
542.47	42.13
542.63	112.35
542.80	91.28
542.97	110.01
543.14	93.62
543.31	135.75
543.48	65.54
543.64	112.35
543.81	46.81
543.98	60.85
544.15	126.39
544.32	105.32
544.48	81.92
544.65	9.36
544.82	119.37
544.99	46.81
545.16	102.98
545.32	86.60
545.49	67.88
545.66	49.15
545.83	100.64
546.00	77.24
546.16	72.56
546.33	91.28
546.50	88.94
546.67	84.26
546.83	77.24
547.00	37.45
547.17	135.75
547.34	86.60
547.50	88.94
547.67	91.28
547.84	42.13
548.00	74.90
548.17	131.07
548.34	126.39
548.51	51.49
548.67	42.13
548.84	147.45
549.01	65.54
549.18	37.45
549.34	65.54
549.51	51.49
549.68	44.47
549.84	124.05
550.01	88.94
550.18	72.56
550.34	110.01
550.51	98.30
550.68	93.62
550.84	110.01
551.01	67.88
551.18	131.07
551.34	147.45
551.51	131.07
551.68	91.28
551.84	114.69
552.01	98.30
552.18	117.03
552.34	110.01
552.51	91.28
552.68	30.43
552.84	107.66
553.01	67.88
553.18	67.88
553.34	98.30
553.51	121.71
553.67	79.58
553.84	105.32
554.01	35.11
554.17	93.62
554.34	46.81
554.51	84.26
554.67	74.90
554.84	11.70
555.00	53.83
555.17	152.13
555.33	84.26
555.50	110.01
555.67	84.26
555.83	44.47
556.00	198.95
556.16	72.56
556.33	74.90
556.50	65.54
556.66	201.29
556.83	112.35
556.99	63.19
557.16	107.66
557.32	128.73
557.49	18.72
557.65	72.56
557.82	105.32
557.98	100.64
558.15	21.06
558.32	58.51
558.48	84.26
558.65	135.75
558.81	74.90
558.98	81.92
559.14	79.58
559.31	81.92
559.47	175.54
559.64	28.09
559.80	63.19
559.97	81.92
560.13	88.94
560.30	72.56
560.46	65.54
560.63	39.79
560.79	110.01
560.96	58.51
561.12	88.94
561.29	0.00
561.45	84.26
561.61	77.24
561.78	67.88
561.94	37.45
562.11	56.17
562.27	126.39
562.44	63.19
562.60	133.41
562.77	112.35
562.93	117.03
563.10	93.62
563.26	0.00
563.42	32.77
563.59	124.05
563.75	93.62
563.92	117.03
564.08	119.37
564.24	102.98
564.41	39.79
564.57	121.71
564.74	32.77
564.90	18.72
565.07	28.09
565.23	138.09
565.39	56.17
565.56	58.51
565.72	60.85
565.88	159.16
566.05	0.00
566.21	77.24
566.38	105.32
566.54	56.17
566.70	95.96
566.87	88.94
567.03	39.79
567.19	105.32
567.36	128.73
567.52	156.82
567.68	72.56
567.85	35.11
568.01	58.51
568.17	107.66
568.34	133.41
568.50	58.51
568.66	51.49
568.83	124.05
568.99	18.72
569.15	51.49
569.32	117.03
569.48	119.37
569.64	117.03
569.81	95.96
569.97	105.32
570.13	88.94
570.30	140.43
570.46	0.00
570.62	63.19
570.78	135.75
570.95	65.54
571.11	135.75
571.27	95.96
571.43	63.19
571.60	35.11
571.76	88.94
571.92	102.98
572.09	30.43
572.25	56.17
572.41	70.22
572.57	86.60
572.74	149.79
572.90	114.69
573.06	51.49
573.22	77.24
573.38	70.22
573.55	124.05
573.71	98.30
573.87	23.41
574.03	86.60
574.20	70.22
574.36	126.39
574.52	53.83
574.68	72.56
574.84	70.22
575.01	60.85
575.17	84.26
575.33	21.06
575.49	72.56
575.65	84.26
575.82	56.17
575.98	77.24
576.14	77.24
576.30	95.96
576.46	105.32
576.62	0.00
576.79	42.13
576.95	25.75
577.11	51.49
577.27	65.54
577.43	100.64
577.59	28.09
577.75	74.90
577.92	53.83
578.08	135.75
578.24	187.24
578.40	149.79
578.56	131.07
578.72	0.00
578.88	72.56
579.04	65.54
579.21	100.64
579.37	77.24
579.53	98.30
579.69	72.56
579.85	84.26
580.01	121.71
580.17	102.98
580.33	110.01
580.49	86.60
580.65	88.94
580.82	67.88
580.98	131.07
581.14	37.45
581.30	53.83
581.46	23.41
581.62	105.32
581.78	51.49
581.94	93.62
582.10	46.81
582.26	37.45
582.42	98.30
582.58	53.83
582.74	119.37
582.90	58.51
583.06	0.00
583.22	56.17
583.38	102.98
583.54	112.35
583.70	72.56
583.86	126.39
584.02	70.22
584.18	117.03
584.34	131.07
584.50	112.35
584.66	28.09
584.82	56.17
584.98	79.58
585.14	163.84
585.30	81.92
585.46	56.17
585.62	60.85
585.78	67.88
585.94	98.30
586.10	65.54
586.26	86.60
586.42	14.04
586.58	100.64
586.74	102.98
586.90	81.92
587.06	65.54
587.22	65.54
587.38	30.43
587.54	46.81
587.70	79.58
587.86	84.26
588.02	42.13
588.18	124.05
588.34	110.01
588.49	23.41
588.65	46.81
588.81	135.75
588.97	112.35
589.13	135.75
589.29	81.92
589.45	49.15
589.61	114.69
589.77	56.17
589.93	0.00
590.08	63.19
590.24	11.70
590.40	79.58
590.56	16.38
590.72	49.15
590.88	49.15
591.04	11.70
591.20	44.47
591.35	128.73
591.51	88.94
591.67	102.98
591.83	98.30
591.99	51.49
592.15	11.70
592.31	105.32
592.46	46.81
592.62	95.96
592.78	170.86
592.94	74.90
593.10	114.69
593.26	67.88
593.41	114.69
593.57	63.19
593.73	35.11
593.89	28.09
594.05	79.58
594.20	93.62
594.36	42.13
594.52	91.28
594.68	65.54
594.84	53.83
594.99	74.90
595.15	102.98
595.31	126.39
595.47	117.03
595.62	70.22
595.78	4.68
595.94	95.96
596.10	95.96
596.25	124.05
596.41	88.94
596.57	93.62
596.73	98.30
596.88	133.41
597.04	86.60
597.20	49.15
597.36	0.00
597.51	77.24
597.67	51.49
597.83	98.30
597.99	154.48
598.14	81.92
598.30	28.09
598.46	65.54
598.61	37.45
598.77	0.00
598.93	95.96
599.09	51.49
599.24	58.51
599.40	53.83
599.56	49.15
599.71	91.28
599.87	74.90
600.03	28.09
600.18	72.56
600.34	0.00
600.50	81.92
600.65	93.62
600.81	70.22
600.97	81.92
601.12	154.48
601.28	107.66
601.44	0.00
601.59	65.54
601.75	60.85
601.91	91.28
602.06	56.17
602.22	70.22
602.37	124.05
602.53	63.19
602.69	88.94
602.84	79.58
603.00	70.22
603.16	25.75
603.31	30.43
603.47	18.72
603.62	72.56
603.78	77.24
603.94	98.30
604.09	86.60
604.25	16.38
604.40	70.22
604.56	51.49
604.71	145.11
604.87	63.19
605.03	88.94
605.18	35.11
605.34	63.19
605.49	58.51
605.65	93.62
605.80	28.09
605.96	39.79
606.12	0.00
606.27	42.13
606.43	77.24
606.58	100.64
606.74	65.54
606.89	128.73
607.05	93.62
607.20	81.92
607.36	9.36
607.51	67.88
607.67	53.83
607.82	72.56
607.98	112.35
608.13	9.36
608.29	110.01
608.44	95.96
608.60	79.58
608.75	98.30
608.91	98.30
609.06	58.51
609.22	93.62
609.37	93.62
609.53	105.32
609.68	0.00
609.84	46.81
609.99	110.01
610.15	37.45
610.30	39.79
610.46	49.15
610.61	28.09
610.76	77.24
610.92	114.69
611.07	91.28
611.23	56.17
611.38	30.43
611.54	112.35
611.69	91.28
611.84	81.92
612.00	98.30
612.15	72.56
612.31	72.56
612.46	9.36
612.62	44.47
612.77	0.00
612.92	46.81
613.08	95.96
613.23	77.24
613.39	58.51
613.54	88.94
613.69	53.83
613.85	110.01
614.00	16.38
614.15	84.26
614.31	42.13
614.46	42.13
614.62	84.26
614.77	102.98
614.92	72.56
615.08	72.56
615.23	39.79
615.38	74.90
615.54	88.94
615.69	0.00
615.84	49.15
616.00	49.15
616.15	119.37
616.30	74.90
616.46	72.56
616.61	32.77
616.76	93.62
616.92	11.70
617.07	35.11
617.22	49.15
617.37	65.54
617.53	65.54
617.68	60.85
617.83	51.49
617.99	21.06
618.14	35.11
618.29	44.47
618.45	28.09
618.60	30.43
618.75	67.88
618.90	44.47
619.06	42.13
619.21	128.73
619.36	201.29
619.51	81.92
619.67	131.07
619.82	72.56
619.97	74.90
620.12	79.58
620.28	86.60
620.43	84.26
620.58	180.22
620.73	86.60
620.89	74.90
621.04	98.30
621.19	74.90
621.34	100.64
621.49	98.30
621.65	0.00
621.80	105.32
621.95	81.92
622.10	86.60
622.25	95.96
622.41	58.51
622.56	4.68
622.71	81.92
622.86	56.17
623.01	84.26
623.16	93.62
623.32	67.88
623.47	63.19
623.62	0.00
623.77	88.94
623.92	67.88
624.07	86.60
624.23	117.03
624.38	86.60
624.53	93.62
624.68	121.71
624.83	0.00
624.98	44.47
625.13	95.96
625.29	77.24
625.44	93.62
625.59	32.77
625.74	49.15
625.89	63.19
626.04	42.13
626.19	44.47
626.34	37.45
626.49	0.00
626.65	70.22
626.80	74.90
626.95	67.88
627.10	112.35
627.25	95.96
627.40	100.64
627.55	107.66
627.70	44.47
627.85	63.19
628.00	79.58
628.15	70.22
628.30	77.24
628.45	49.15
628.60	81.92
628.76	65.54
628.91	0.00
629.06	70.22
629.21	60.85
629.36	0.00
629.51	23.41
629.66	126.39
629.81	93.62
629.96	112.35
630.11	2.34
630.26	74.90
630.41	124.05
630.56	84.26
630.71	65.54
630.86	58.51
631.01	25.75
631.16	0.00
631.31	93.62
631.46	37.45
631.61	95.96
631.76	86.60
631.91	25.75
632.06	56.17
632.21	23.41
632.36	131.07
632.51	16.38
632.66	58.51
632.81	126.39
632.96	44.47
633.10	58.51
633.25	49.15
633.40	88.94
633.55	49.15
633.70	79.58
633.85	74.90
634.00	65.54
634.15	0.00
634.30	11.70
634.45	77.24
634.60	86.60
634.75	98.30
634.90	105.32
635.05	46.81
635.19	30.43
635.34	70.22
635.49	110.01
635.64	0.00
635.79	107.66
635.94	77.24
636.09	23.41
636.24	53.83
636.39	126.39
636.53	98.30
636.68	72.56
636.83	28.09
636.98	39.79
637.13	39.79
637.28	51.49
637.43	30.43
637.57	74.90
637.72	42.13
637.87	21.06
638.02	114.69
638.17	39.79
638.32	126.39
638.46	91.28
638.61	9.36
638.76	39.79
638.91	42.13
639.06	0.00
639.20	119.37
639.35	84.26
639.50	114.69
639.65	28.09
639.80	0.00
639.94	42.13
640.09	58.51
640.24	63.19
640.39	42.13
640.54	23.41
640.68	77.24
640.83	39.79
640.98	46.81
641.13	81.92
641.27	32.77
641.42	98.30
641.57	42.13
641.72	28.09
641.86	39.79
642.01	56.17
642.16	37.45
642.31	35.11
642.45	11.70
642.60	53.83
642.75	145.11
642.90	100.64
643.04	0.00
643.19	65.54
643.34	79.58
643.48	72.56
643.63	70.22
643.78	70.22
643.93	119.37
644.07	84.26
644.22	32.77
644.37	107.66
644.51	63.19
644.66	46.81
644.81	58.51
644.95	74.90
645.10	67.88
645.25	35.11
645.39	65.54
645.54	49.15
645.69	28.09
645.83	53.83
645.98	98.30
646.13	110.01
646.27	51.49
646.42	7.02
646.57	77.24
646.71	79.58
646.86	39.79
647.00	39.79
647.15	81.92
647.30	128.73
647.44	53.83
647.59	95.96
647.74	98.30
647.88	23.41
648.03	30.43
648.17	37.45
648.32	107.66
648.47	63.19
648.61	18.72
648.76	32.77
648.90	46.81
649.05	46.81
649.20	39.79
649.34	81.92
649.49	95.96
649.63	49.15
649.78	70.22
649.92	72.56
650.07	49.15
650.21	0.00
650.36	9.36
650.51	81.92
650.65	39.79
650.80	112.35
650.94	18.72
651.09	140.43
651.23	9.36
651.38	18.72
651.52	53.83
651.67	70.22
651.81	84.26
651.96	102.98
652.10	119.37
652.25	58.51
652.39	0.00
652.54	74.90
652.68	37.45
652.83	4.68
652.97	121.71
653.12	63.19
653.26	56.17
653.41	72.56
653.55	72.56
653.70	114.69
653.84	32.77
653.99	79.58
654.13	0.00
654.27	65.54
654.42	11.70
654.56	53.83
654.71	28.09
654.85	119.37
655.00	11.70
655.14	98.30
655.29	84.26
655.43	53.83
655.57	100.64
655.72	79.58
655.86	72.56
656.01	70.22
656.15	0.00
656.30	58.51
656.44	56.17
656.58	49.15
656.73	100.64
656.87	65.54
657.01	56.17
657.16	7.02
657.30	56.17
657.45	0.00
657.59	4.68
657.73	49.15
657.88	9.36
658.02	67.88
658.16	25.75
658.31	81.92
658.45	0.00
658.60	0.00
658.74	74.90
658.88	0.00
659.03	0.00
659.17	77.24
659.31	88.94
659.46	37.45
659.60	58.51
659.74	63.19
659.89	58.51
660.03	53.83
660.17	70.22
660.32	70.22
660.46	37.45
660.60	102.98
660.74	70.22
660.89	56.17
661.03	23.41
661.17	58.51
661.32	91.28
661.46	74.90
661.60	23.41
661.74	51.49
661.89	70.22
662.03	21.06
662.17	77.24
662.31	95.96
662.46	51.49
662.60	86.60
662.74	58.51
662.88	14.04
663.03	39.79
663.17	7.02
663.31	65.54
663.45	51.49
663.60	2.34
663.74	79.58
663.88	21.06
664.02	21.06
664.17	65.54
664.31	65.54
664.45	67.88
664.59	51.49
664.73	58.51
664.88	49.15
665.02	9.36
665.16	30.43
665.30	56.17
665.44	65.54
665.59	28.09
665.73	53.83
665.87	100.64
666.01	11.70
666.15	37.45
666.29	7.02
666.44	70.22
666.58	42.13
666.72	72.56
666.86	0.00
667.00	28.09
667.14	131.07
667.28	74.90
667.43	9.36
667.57	58.51
667.71	16.38
667.85	35.11
667.99	0.00
668.13	39.79
668.27	84.26
668.41	60.85
668.56	14.04
668.70	84.26
668.84	32.77
668.98	30.43
669.12	42.13
669.26	56.17
669.40	0.00
669.54	37.45
669.68	102.98
669.82	28.09
669.96	67.88
670.10	135.75
670.25	58.51
670.39	49.15
670.53	93.62
670.67	14.04
670.81	0.00
670.95	53.83
671.09	9.36
671.23	100.64
671.37	60.85
671.51	28.09
671.65	35.11
671.79	84.26
671.93	30.43
672.07	81.92
672.21	28.09
672.35	32.77
672.49	23.41
672.63	58.51
672.77	9.36
672.91	28.09
673.05	9.36
673.19	0.00
673.33	30.43
673.47	37.45
673.61	49.15
673.75	0.00
673.89	147.45
674.03	51.49
674.17	28.09
674.31	4.68
674.45	30.43
674.59	70.22
674.73	77.24
674.87	49.15
675.01	23.41
675.15	84.26
675.29	39.79
675.43	63.19
675.56	72.56
675.70	53.83
675.84	14.04
675.98	44.47
676.12	25.75
676.26	77.24
676.40	46.81
676.54	0.00
676.68	86.60
676.82	25.75
676.96	18.72
677.10	0.00
677.23	65.54
677.37	51.49
677.51	93.62
677.65	37.45
677.79	9.36
677.93	44.47
678.07	74.90
678.21	51.49
678.34	81.92
678.48	63.19
678.62	49.15
678.76	58.51
678.90	67.88
679.04	0.00
679.18	0.00
679.31	39.79
679.45	42.13
679.59	51.49
679.73	81.92
679.87	25.75
680.00	65.54
680.14	37.45
680.28	39.79
680.42	74.90
680.56	93.62
680.70	23.41
680.83	42.13
680.97	63.19
681.11	2.34
681.25	119.37
681.39	63.19
681.52	63.19
681.66	81.92
681.80	0.00
681.94	63.19
682.07	0.00
682.21	70.22
682.35	0.00
682.49	44.47
682.62	4.68
682.76	9.36
682.90	124.05
683.04	91.28
683.17	49.15
683.31	44.47
683.45	46.81
683.59	95.96
683.72	18.72
683.86	37.45
684.00	93.62
684.13	39.79
684.27	42.13
684.41	0.00
684.55	37.45
684.68	128.73
684.82	53.83
684.96	23.41
685.09	39.79
685.23	37.45
685.37	51.49
685.50	91.28
685.64	88.94
685.78	49.15
685.91	16.38
686.05	42.13
686.19	16.38
686.32	56.17
686.46	46.81
686.60	39.79
686.73	93.62
686.87	37.45
687.01	30.43
687.14	7.02
687.28	35.11
687.42	28.09
687.55	7.02
687.69	84.26
687.82	0.00
687.96	0.00
688.10	0.00
688.23	86.60
688.37	95.96
688.50	0.00
688.64	51.49
688.78	81.92
688.91	88.94
689.05	70.22
689.18	2.34
689.32	88.94
689.46	30.43
689.59	30.43
689.73	58.51
689.86	0.00
690.00	21.06
690.13	79.58
690.27	0.00
690.41	44.47
690.54	102.98
690.68	102.98
690.81	14.04
690.95	0.00
691.08	0.00
691.22	28.09
691.35	70.22
691.49	79.58
691.62	35.11
691.76	0.00
691.89	74.90
692.03	74.90
692.16	18.72
692.30	18.72
692.43	25.75
692.57	7.02
692.70	84.26
692.84	35.11
692.97	32.77
693.11	16.38
693.24	0.00
693.38	60.85
693.51	23.41
693.65	23.41
693.78	42.13
693.92	42.13
694.05	0.00
694.19	105.32
694.32	79.58
694.45	77.24
694.59	32.77
694.72	44.47
694.86	77.24
694.99	60.85
695.13	51.49
695.26	44.47
695.39	114.69
695.53	77.24
695.66	63.19
695.80	46.81
695.93	98.30
696.07	67.88
696.20	95.96
696.33	67.88
696.47	11.70
696.60	0.00
696.73	14.04
696.87	0.00
697.00	16.38
697.14	46.81
697.27	60.85
697.40	37.45
697.54	25.75
697.67	88.94
697.80	65.54
697.94	2.34
698.07	60.85
698.21	30.43
698.34	0.00
698.47	58.51
698.61	58.51
698.74	18.72
698.87	53.83
699.01	46.81
699.14	84.26
699.27	44.47
699.40	46.81
699.54	32.77
699.67	0.00
699.80	74.90
699.94	63.19
700.07	18.72
700.20	0.00
700.34	51.49
700.47	0.00
700.60	11.70
700.73	30.43
700.87	58.51
701.00	4.68
701.13	84.26
701.26	84.26
701.40	81.92
701.53	56.17
701.66	70.22
701.79	60.85
701.93	60.85
702.06	126.39
702.19	0.00
702.32	49.15
702.46	56.17
702.59	35.11
702.72	42.13
702.85	56.17
702.99	0.00
703.12	23.41
703.25	18.72
703.38	0.00
703.51	49.15
703.65	105.32
703.78	0.00
703.91	81.92
704.04	21.06
704.17	107.66
704.31	0.00
704.44	25.75
704.57	37.45
704.70	60.85
704.83	18.72
704.96	42.13
705.10	25.75
705.23	63.19
>>>>>End Processed Spectral Data<<<<<
