SpectraSuite Data File
++++++++++++++++++++++++++++++++++++
Date: Fri Oct 04 12:13:28 GMT-05:00 2013
User: price-jones
Dark Spectrum Present: No
Reference Spectrum Present: No
Number of Sampled Component Spectra: 1
Spectrometers: USB2+H05261
Integration Time (usec): 10000 (USB2+H05261)
Spectra Averaged: 1 (USB2+H05261)
Boxcar Smoothing: 0 (USB2+H05261)
Correct for Electrical Dark: No (USB2+H05261)
Strobe/Lamp Enabled: No (USB2+H05261)
Correct for Detector Non-linearity: No (USB2+H05261)
Correct for Stray Light: No (USB2+H05261)
Number of Pixels in Processed Spectrum: 2048
>>>>>Begin Processed Spectral Data<<<<<
365.73	30.43
365.92	30.43
366.12	30.43
366.32	0.00
366.52	0.00
366.72	0.00
366.91	0.00
367.11	0.00
367.31	0.00
367.51	0.00
367.70	0.00
367.90	0.00
368.10	0.00
368.30	0.00
368.49	0.00
368.69	0.00
368.89	0.00
369.09	0.00
369.28	0.00
369.48	0.00
369.68	0.00
369.87	0.00
370.07	0.00
370.27	0.00
370.47	0.00
370.66	14.04
370.86	0.00
371.06	0.00
371.25	0.00
371.45	0.00
371.65	11.70
371.84	0.00
372.04	0.00
372.24	11.70
372.44	0.00
372.63	0.00
372.83	9.36
373.03	37.45
373.22	4.68
373.42	88.94
373.62	39.79
373.81	77.24
374.01	77.24
374.21	0.00
374.40	21.06
374.60	11.70
374.79	21.06
374.99	28.09
375.19	53.83
375.38	84.26
375.58	18.72
375.78	39.79
375.97	0.00
376.17	28.09
376.37	28.09
376.56	88.94
376.76	21.06
376.95	39.79
377.15	42.13
377.35	56.17
377.54	18.72
377.74	51.49
377.93	91.28
378.13	4.68
378.33	21.06
378.52	9.36
378.72	53.83
378.91	56.17
379.11	39.79
379.31	44.47
379.50	77.24
379.70	0.00
379.89	0.00
380.09	16.38
380.28	0.00
380.48	35.11
380.68	72.56
380.87	14.04
381.07	0.00
381.26	58.51
381.46	79.58
381.65	9.36
381.85	35.11
382.04	0.00
382.24	4.68
382.43	0.00
382.63	0.00
382.83	0.00
383.02	0.00
383.22	42.13
383.41	65.54
383.61	39.79
383.80	21.06
384.00	0.00
384.19	39.79
384.39	0.00
384.58	14.04
384.78	70.22
384.97	28.09
385.17	0.00
385.36	0.00
385.56	30.43
385.75	39.79
385.95	14.04
386.14	0.00
386.34	49.15
386.53	0.00
386.72	16.38
386.92	63.19
387.11	7.02
387.31	63.19
387.50	51.49
387.70	28.09
387.89	7.02
388.09	86.60
388.28	28.09
388.48	23.41
388.67	0.00
388.86	11.70
389.06	14.04
389.25	21.06
389.45	56.17
389.64	53.83
389.84	84.26
390.03	14.04
390.22	65.54
390.42	0.00
390.61	95.96
390.81	0.00
391.00	67.88
391.19	0.00
391.39	42.13
391.58	74.90
391.78	86.60
391.97	21.06
392.16	35.11
392.36	46.81
392.55	0.00
392.75	37.45
392.94	0.00
393.13	93.62
393.33	0.00
393.52	42.13
393.71	42.13
393.91	18.72
394.10	0.00
394.29	98.30
394.49	105.32
394.68	0.00
394.88	9.36
395.07	60.85
395.26	35.11
395.46	56.17
395.65	7.02
395.84	0.00
396.04	42.13
396.23	51.49
396.42	65.54
396.62	0.00
396.81	14.04
397.00	4.68
397.19	42.13
397.39	0.00
397.58	2.34
397.77	0.00
397.97	9.36
398.16	95.96
398.35	42.13
398.55	0.00
398.74	46.81
398.93	21.06
399.12	0.00
399.32	0.00
399.51	0.00
399.70	14.04
399.90	0.00
400.09	0.00
400.28	65.54
400.47	0.00
400.67	11.70
400.86	81.92
401.05	110.01
401.24	46.81
401.44	56.17
401.63	0.00
401.82	32.77
402.01	72.56
402.21	63.19
402.40	0.00
402.59	0.00
402.78	51.49
402.97	14.04
403.17	0.00
403.36	58.51
403.55	0.00
403.74	0.00
403.93	44.47
404.13	60.85
404.32	21.06
404.51	65.54
404.70	21.06
404.89	60.85
405.09	0.00
405.28	0.00
405.47	0.00
405.66	7.02
405.85	49.15
406.05	9.36
406.24	65.54
406.43	44.47
406.62	18.72
406.81	0.00
407.00	0.00
407.20	7.02
407.39	0.00
407.58	9.36
407.77	28.09
407.96	58.51
408.15	0.00
408.34	23.41
408.54	11.70
408.73	23.41
408.92	2.34
409.11	14.04
409.30	0.00
409.49	30.43
409.68	0.00
409.87	0.00
410.07	16.38
410.26	65.54
410.45	4.68
410.64	0.00
410.83	0.00
411.02	0.00
411.21	0.00
411.40	107.66
411.59	46.81
411.78	0.00
411.98	9.36
412.17	35.11
412.36	60.85
412.55	46.81
412.74	51.49
412.93	0.00
413.12	28.09
413.31	16.38
413.50	28.09
413.69	77.24
413.88	84.26
414.07	21.06
414.26	67.88
414.45	145.11
414.64	0.00
414.83	42.13
415.02	0.00
415.22	79.58
415.41	60.85
415.60	7.02
415.79	88.94
415.98	65.54
416.17	95.96
416.36	18.72
416.55	0.00
416.74	18.72
416.93	70.22
417.12	30.43
417.31	2.34
417.50	0.00
417.69	0.00
417.88	0.00
418.07	35.11
418.26	21.06
418.45	91.28
418.64	0.00
418.83	53.83
419.02	0.00
419.21	30.43
419.39	95.96
419.58	0.00
419.77	23.41
419.96	84.26
420.15	28.09
420.34	9.36
420.53	0.00
420.72	105.32
420.91	32.77
421.10	67.88
421.29	23.41
421.48	91.28
421.67	67.88
421.86	35.11
422.05	23.41
422.24	53.83
422.43	93.62
422.61	28.09
422.80	28.09
422.99	16.38
423.18	30.43
423.37	0.00
423.56	0.00
423.75	95.96
423.94	0.00
424.13	44.47
424.32	28.09
424.50	49.15
424.69	0.00
424.88	42.13
425.07	49.15
425.26	84.26
425.45	84.26
425.64	42.13
425.83	81.92
426.01	51.49
426.20	107.66
426.39	0.00
426.58	32.77
426.77	42.13
426.96	7.02
427.15	65.54
427.33	81.92
427.52	95.96
427.71	0.00
427.90	81.92
428.09	9.36
428.28	0.00
428.46	42.13
428.65	49.15
428.84	0.00
429.03	0.00
429.22	35.11
429.40	0.00
429.59	72.56
429.78	0.00
429.97	0.00
430.16	0.00
430.34	9.36
430.53	51.49
430.72	18.72
430.91	74.90
431.10	65.54
431.28	72.56
431.47	0.00
431.66	2.34
431.85	0.00
432.03	37.45
432.22	46.81
432.41	0.00
432.60	53.83
432.79	0.00
432.97	21.06
433.16	56.17
433.35	32.77
433.54	63.19
433.72	86.60
433.91	49.15
434.10	21.06
434.28	25.75
434.47	23.41
434.66	0.00
434.85	67.88
435.03	53.83
435.22	0.00
435.41	11.70
435.59	11.70
435.78	28.09
435.97	0.00
436.16	16.38
436.34	49.15
436.53	23.41
436.72	88.94
436.90	149.79
437.09	44.47
437.28	7.02
437.46	2.34
437.65	32.77
437.84	56.17
438.02	84.26
438.21	32.77
438.40	0.00
438.58	25.75
438.77	32.77
438.96	56.17
439.14	23.41
439.33	39.79
439.52	4.68
439.70	35.11
439.89	0.00
440.08	11.70
440.26	0.00
440.45	0.00
440.63	0.00
440.82	63.19
441.01	0.00
441.19	28.09
441.38	42.13
441.57	0.00
441.75	79.58
441.94	107.66
442.12	25.75
442.31	37.45
442.50	0.00
442.68	70.22
442.87	37.45
443.05	51.49
443.24	39.79
443.43	35.11
443.61	11.70
443.80	11.70
443.98	25.75
444.17	0.00
444.35	0.00
444.54	35.11
444.73	0.00
444.91	0.00
445.10	58.51
445.28	23.41
445.47	30.43
445.65	0.00
445.84	0.00
446.02	11.70
446.21	56.17
446.39	51.49
446.58	81.92
446.77	74.90
446.95	102.98
447.14	56.17
447.32	56.17
447.51	25.75
447.69	93.62
447.88	42.13
448.06	0.00
448.25	14.04
448.43	14.04
448.62	30.43
448.80	0.00
448.99	0.00
449.17	67.88
449.36	37.45
449.54	93.62
449.73	60.85
449.91	18.72
450.10	21.06
450.28	67.88
450.46	9.36
450.65	0.00
450.83	9.36
451.02	56.17
451.20	0.00
451.39	0.00
451.57	58.51
451.76	0.00
451.94	79.58
452.13	25.75
452.31	0.00
452.49	0.00
452.68	35.11
452.86	51.49
453.05	0.00
453.23	0.00
453.42	42.13
453.60	28.09
453.78	0.00
453.97	58.51
454.15	23.41
454.34	51.49
454.52	11.70
454.70	0.00
454.89	16.38
455.07	32.77
455.26	32.77
455.44	30.43
455.62	37.45
455.81	11.70
455.99	49.15
456.17	28.09
456.36	42.13
456.54	18.72
456.73	7.02
456.91	56.17
457.09	28.09
457.28	84.26
457.46	14.04
457.64	0.00
457.83	0.00
458.01	51.49
458.19	30.43
458.38	44.47
458.56	0.00
458.74	39.79
458.93	53.83
459.11	49.15
459.29	88.94
459.48	88.94
459.66	37.45
459.84	0.00
460.03	18.72
460.21	9.36
460.39	7.02
460.57	65.54
460.76	42.13
460.94	21.06
461.12	70.22
461.31	39.79
461.49	46.81
461.67	53.83
461.85	0.00
462.04	30.43
462.22	91.28
462.40	46.81
462.59	21.06
462.77	30.43
462.95	0.00
463.13	53.83
463.32	0.00
463.50	21.06
463.68	72.56
463.86	0.00
464.05	39.79
464.23	42.13
464.41	37.45
464.59	32.77
464.78	105.32
464.96	46.81
465.14	60.85
465.32	77.24
465.50	0.00
465.69	23.41
465.87	7.02
466.05	0.00
466.23	18.72
466.41	0.00
466.60	23.41
466.78	79.58
466.96	30.43
467.14	42.13
467.32	0.00
467.51	60.85
467.69	42.13
467.87	16.38
468.05	39.79
468.23	53.83
468.41	42.13
468.60	39.79
468.78	35.11
468.96	21.06
469.14	0.00
469.32	2.34
469.50	23.41
469.69	44.47
469.87	0.00
470.05	72.56
470.23	49.15
470.41	37.45
470.59	81.92
470.77	63.19
470.95	70.22
471.14	93.62
471.32	65.54
471.50	2.34
471.68	42.13
471.86	72.56
472.04	53.83
472.22	105.32
472.40	30.43
472.58	0.00
472.77	35.11
472.95	0.00
473.13	0.00
473.31	9.36
473.49	74.90
473.67	0.00
473.85	4.68
474.03	16.38
474.21	58.51
474.39	21.06
474.57	51.49
474.75	0.00
474.93	46.81
475.12	51.49
475.30	0.00
475.48	0.00
475.66	25.75
475.84	86.60
476.02	35.11
476.20	81.92
476.38	25.75
476.56	0.00
476.74	30.43
476.92	32.77
477.10	74.90
477.28	63.19
477.46	77.24
477.64	7.02
477.82	60.85
478.00	0.00
478.18	4.68
478.36	0.00
478.54	65.54
478.72	79.58
478.90	0.00
479.08	51.49
479.26	119.37
479.44	114.69
479.62	30.43
479.80	0.00
479.98	0.00
480.16	25.75
480.34	0.00
480.52	35.11
480.70	77.24
480.88	51.49
481.06	42.13
481.24	91.28
481.41	32.77
481.59	49.15
481.77	11.70
481.95	42.13
482.13	39.79
482.31	0.00
482.49	32.77
482.67	74.90
482.85	65.54
483.03	42.13
483.21	60.85
483.39	95.96
483.57	0.00
483.74	0.00
483.92	11.70
484.10	0.00
484.28	14.04
484.46	7.02
484.64	0.00
484.82	0.00
485.00	0.00
485.18	28.09
485.35	0.00
485.53	86.60
485.71	7.02
485.89	0.00
486.07	51.49
486.25	44.47
486.43	63.19
486.61	0.00
486.78	84.26
486.96	30.43
487.14	0.00
487.32	21.06
487.50	9.36
487.68	11.70
487.85	7.02
488.03	35.11
488.21	67.88
488.39	44.47
488.57	56.17
488.75	0.00
488.92	58.51
489.10	49.15
489.28	23.41
489.46	91.28
489.64	37.45
489.81	53.83
489.99	60.85
490.17	0.00
490.35	0.00
490.53	0.00
490.70	0.00
490.88	161.50
491.06	16.38
491.24	60.85
491.41	65.54
491.59	0.00
491.77	49.15
491.95	0.00
492.13	0.00
492.30	0.00
492.48	72.56
492.66	32.77
492.84	11.70
493.01	110.01
493.19	46.81
493.37	23.41
493.54	49.15
493.72	37.45
493.90	93.62
494.08	7.02
494.25	32.77
494.43	53.83
494.61	14.04
494.79	30.43
494.96	67.88
495.14	98.30
495.32	35.11
495.49	67.88
495.67	56.17
495.85	0.00
496.02	0.00
496.20	0.00
496.38	67.88
496.55	49.15
496.73	37.45
496.91	49.15
497.09	0.00
497.26	23.41
497.44	44.47
497.62	0.00
497.79	49.15
497.97	32.77
498.14	126.39
498.32	131.07
498.50	65.54
498.67	0.00
498.85	30.43
499.03	49.15
499.20	67.88
499.38	18.72
499.56	53.83
499.73	0.00
499.91	0.00
500.08	46.81
500.26	67.88
500.44	4.68
500.61	60.85
500.79	44.47
500.97	28.09
501.14	32.77
501.32	63.19
501.49	65.54
501.67	0.00
501.84	126.39
502.02	91.28
502.20	56.17
502.37	32.77
502.55	0.00
502.72	32.77
502.90	11.70
503.07	51.49
503.25	4.68
503.43	77.24
503.60	35.11
503.78	14.04
503.95	49.15
504.13	0.00
504.30	32.77
504.48	77.24
504.65	42.13
504.83	37.45
505.01	70.22
505.18	14.04
505.36	135.75
505.53	88.94
505.71	4.68
505.88	25.75
506.06	37.45
506.23	84.26
506.41	7.02
506.58	28.09
506.76	56.17
506.93	79.58
507.11	35.11
507.28	37.45
507.46	9.36
507.63	11.70
507.81	74.90
507.98	9.36
508.16	4.68
508.33	28.09
508.50	86.60
508.68	39.79
508.85	4.68
509.03	72.56
509.20	44.47
509.38	72.56
509.55	25.75
509.73	79.58
509.90	37.45
510.08	60.85
510.25	56.17
510.42	98.30
510.60	67.88
510.77	37.45
510.95	51.49
511.12	35.11
511.30	58.51
511.47	77.24
511.64	25.75
511.82	37.45
511.99	74.90
512.17	42.13
512.34	30.43
512.51	74.90
512.69	39.79
512.86	93.62
513.04	63.19
513.21	32.77
513.38	46.81
513.56	53.83
513.73	105.32
513.90	46.81
514.08	0.00
514.25	88.94
514.43	35.11
514.60	56.17
514.77	42.13
514.95	65.54
515.12	9.36
515.29	117.03
515.47	39.79
515.64	63.19
515.81	65.54
515.99	4.68
516.16	70.22
516.33	70.22
516.51	53.83
516.68	21.06
516.85	0.00
517.03	16.38
517.20	91.28
517.37	25.75
517.54	51.49
517.72	72.56
517.89	58.51
518.06	0.00
518.24	42.13
518.41	51.49
518.58	58.51
518.75	0.00
518.93	46.81
519.10	67.88
519.27	37.45
519.45	77.24
519.62	4.68
519.79	86.60
519.96	107.66
520.14	18.72
520.31	30.43
520.48	39.79
520.65	102.98
520.83	0.00
521.00	86.60
521.17	9.36
521.34	9.36
521.52	9.36
521.69	23.41
521.86	4.68
522.03	14.04
522.20	0.00
522.38	16.38
522.55	35.11
522.72	91.28
522.89	51.49
523.07	39.79
523.24	0.00
523.41	46.81
523.58	42.13
523.75	35.11
523.92	65.54
524.10	39.79
524.27	46.81
524.44	0.00
524.61	14.04
524.78	51.49
524.96	0.00
525.13	51.49
525.30	112.35
525.47	70.22
525.64	18.72
525.81	51.49
525.98	11.70
526.16	37.45
526.33	93.62
526.50	84.26
526.67	95.96
526.84	105.32
527.01	53.83
527.18	37.45
527.36	0.00
527.53	7.02
527.70	46.81
527.87	4.68
528.04	16.38
528.21	84.26
528.38	0.00
528.55	46.81
528.72	72.56
528.89	91.28
529.07	124.05
529.24	107.66
529.41	4.68
529.58	53.83
529.75	65.54
529.92	135.75
530.09	70.22
530.26	49.15
530.43	21.06
530.60	4.68
530.77	72.56
530.94	42.13
531.11	46.81
531.28	70.22
531.46	32.77
531.63	14.04
531.80	30.43
531.97	0.00
532.14	44.47
532.31	51.49
532.48	35.11
532.65	0.00
532.82	46.81
532.99	102.98
533.16	0.00
533.33	149.79
533.50	9.36
533.67	77.24
533.84	100.64
534.01	74.90
534.18	37.45
534.35	35.11
534.52	65.54
534.69	53.83
534.86	58.51
535.03	0.00
535.20	18.72
535.37	51.49
535.54	88.94
535.71	72.56
535.88	32.77
536.05	21.06
536.22	28.09
536.38	37.45
536.55	58.51
536.72	56.17
536.89	0.00
537.06	65.54
537.23	84.26
537.40	65.54
537.57	32.77
537.74	0.00
537.91	79.58
538.08	72.56
538.25	53.83
538.42	23.41
538.59	0.00
538.75	14.04
538.92	60.85
539.09	88.94
539.26	39.79
539.43	81.92
539.60	187.24
539.77	152.13
539.94	212.99
540.11	161.50
540.28	117.03
540.44	37.45
540.61	16.38
540.78	30.43
540.95	70.22
541.12	9.36
541.29	60.85
541.46	30.43
541.62	21.06
541.79	74.90
541.96	102.98
542.13	81.92
542.30	0.00
542.47	46.81
542.63	53.83
542.80	35.11
542.97	9.36
543.14	11.70
543.31	28.09
543.48	53.83
543.64	56.17
543.81	28.09
543.98	30.43
544.15	149.79
544.32	77.24
544.48	79.58
544.65	4.68
544.82	53.83
544.99	98.30
545.16	0.00
545.32	39.79
545.49	42.13
545.66	39.79
545.83	51.49
546.00	98.30
546.16	37.45
546.33	39.79
546.50	84.26
546.67	65.54
546.83	67.88
547.00	46.81
547.17	42.13
547.34	21.06
547.50	0.00
547.67	25.75
547.84	79.58
548.00	0.00
548.17	56.17
548.34	102.98
548.51	42.13
548.67	0.00
548.84	0.00
549.01	49.15
549.18	0.00
549.34	32.77
549.51	98.30
549.68	46.81
549.84	4.68
550.01	0.00
550.18	100.64
550.34	110.01
550.51	32.77
550.68	37.45
550.84	46.81
551.01	58.51
551.18	42.13
551.34	0.00
551.51	65.54
551.68	86.60
551.84	37.45
552.01	2.34
552.18	35.11
552.34	86.60
552.51	18.72
552.68	49.15
552.84	58.51
553.01	44.47
553.18	51.49
553.34	39.79
553.51	0.00
553.67	2.34
553.84	0.00
554.01	44.47
554.17	14.04
554.34	35.11
554.51	16.38
554.67	28.09
554.84	0.00
555.00	124.05
555.17	51.49
555.33	56.17
555.50	154.48
555.67	91.28
555.83	42.13
556.00	95.96
556.16	100.64
556.33	86.60
556.50	49.15
556.66	25.75
556.83	58.51
556.99	77.24
557.16	0.00
557.32	0.00
557.49	25.75
557.65	63.19
557.82	49.15
557.98	107.66
558.15	95.96
558.32	0.00
558.48	35.11
558.65	72.56
558.81	81.92
558.98	35.11
559.14	28.09
559.31	0.00
559.47	37.45
559.64	30.43
559.80	128.73
559.97	42.13
560.13	110.01
560.30	0.00
560.46	44.47
560.63	72.56
560.79	25.75
560.96	74.90
561.12	14.04
561.29	0.00
561.45	11.70
561.61	28.09
561.78	72.56
561.94	23.41
562.11	0.00
562.27	7.02
562.44	0.00
562.60	4.68
562.77	70.22
562.93	56.17
563.10	102.98
563.26	81.92
563.42	35.11
563.59	0.00
563.75	77.24
563.92	0.00
564.08	51.49
564.24	74.90
564.41	65.54
564.57	0.00
564.74	65.54
564.90	60.85
565.07	105.32
565.23	0.00
565.39	0.00
565.56	63.19
565.72	25.75
565.88	35.11
566.05	58.51
566.21	18.72
566.38	0.00
566.54	46.81
566.70	23.41
566.87	16.38
567.03	2.34
567.19	2.34
567.36	46.81
567.52	25.75
567.68	0.00
567.85	32.77
568.01	56.17
568.17	39.79
568.34	35.11
568.50	46.81
568.66	0.00
568.83	0.00
568.99	9.36
569.15	0.00
569.32	70.22
569.48	63.19
569.64	51.49
569.81	32.77
569.97	49.15
570.13	53.83
570.30	21.06
570.46	91.28
570.62	53.83
570.78	4.68
570.95	58.51
571.11	0.00
571.27	16.38
571.43	117.03
571.60	44.47
571.76	0.00
571.92	11.70
572.09	30.43
572.25	58.51
572.41	42.13
572.57	51.49
572.74	91.28
572.90	67.88
573.06	95.96
573.22	44.47
573.38	28.09
573.55	9.36
573.71	0.00
573.87	0.00
574.03	9.36
574.20	39.79
574.36	67.88
574.52	39.79
574.68	131.07
574.84	32.77
575.01	67.88
575.17	56.17
575.33	63.19
575.49	0.00
575.65	88.94
575.82	51.49
575.98	119.37
576.14	98.30
576.30	63.19
576.46	42.13
576.62	70.22
576.79	56.17
576.95	37.45
577.11	39.79
577.27	58.51
577.43	100.64
577.59	23.41
577.75	18.72
577.92	56.17
578.08	37.45
578.24	39.79
578.40	32.77
578.56	37.45
578.72	154.48
578.88	42.13
579.04	86.60
579.21	4.68
579.37	112.35
579.53	35.11
579.69	0.00
579.85	72.56
580.01	95.96
580.17	70.22
580.33	84.26
580.49	16.38
580.65	7.02
580.82	79.58
580.98	0.00
581.14	11.70
581.30	14.04
581.46	72.56
581.62	67.88
581.78	84.26
581.94	95.96
582.10	49.15
582.26	112.35
582.42	88.94
582.58	72.56
582.74	0.00
582.90	14.04
583.06	51.49
583.22	58.51
583.38	84.26
583.54	105.32
583.70	128.73
583.86	168.52
584.02	147.45
584.18	173.20
584.34	163.84
584.50	430.66
584.66	2869.50
584.82	7595.04
584.98	12177.81
585.14	11201.80
585.30	6703.29
585.46	3950.82
585.62	2403.73
585.78	1200.69
585.94	493.85
586.10	294.91
586.26	152.13
586.42	140.43
586.58	140.43
586.74	112.35
586.90	117.03
587.06	53.83
587.22	128.73
587.38	67.88
587.54	81.92
587.70	404.91
587.86	819.19
588.02	947.92
588.18	692.80
588.34	433.00
588.49	287.89
588.65	252.78
588.81	133.41
588.97	46.81
589.13	32.77
589.29	25.75
589.45	72.56
589.61	60.85
589.77	46.81
589.93	102.98
590.08	70.22
590.24	81.92
590.40	72.56
590.56	79.58
590.72	84.26
590.88	58.51
591.04	39.79
591.20	18.72
591.35	117.03
591.51	28.09
591.67	0.00
591.83	53.83
591.99	63.19
592.15	11.70
592.31	35.11
592.46	77.24
592.62	30.43
592.78	0.00
592.94	7.02
593.10	11.70
593.26	58.51
593.41	35.11
593.57	39.79
593.73	37.45
593.89	414.27
594.05	894.08
594.20	1589.22
594.36	1537.73
594.52	1043.88
594.68	568.75
594.84	425.98
594.99	184.90
595.15	79.58
595.31	79.58
595.47	65.54
595.62	58.51
595.78	102.98
595.94	28.09
596.10	91.28
596.25	70.22
596.41	77.24
596.57	100.64
596.73	0.00
596.88	142.77
597.04	140.43
597.20	311.29
597.36	372.15
597.51	386.19
597.67	182.56
597.83	88.94
597.99	112.35
598.14	7.02
598.30	9.36
598.46	49.15
598.61	0.00
598.77	84.26
598.93	58.51
599.09	51.49
599.24	56.17
599.40	56.17
599.56	58.51
599.71	81.92
599.87	67.88
600.03	32.77
600.18	18.72
600.34	44.47
600.50	21.06
600.65	14.04
600.81	53.83
600.97	9.36
601.12	21.06
601.28	42.13
601.44	0.00
601.59	4.68
601.75	25.75
601.91	37.45
602.06	65.54
602.22	117.03
602.37	142.77
602.53	257.46
602.69	397.89
602.84	411.93
603.00	351.08
603.16	241.08
603.31	161.50
603.47	72.56
603.62	77.24
603.78	37.45
603.94	32.77
604.09	77.24
604.25	53.83
604.40	70.22
604.56	63.19
604.71	42.13
604.87	58.51
605.03	63.19
605.18	70.22
605.34	105.32
605.49	0.00
605.65	70.22
605.80	65.54
605.96	9.36
606.12	0.00
606.27	49.15
606.43	42.13
606.58	72.56
606.74	128.73
606.89	484.49
607.05	1015.79
607.20	1322.40
607.36	1165.59
607.51	802.80
607.67	505.56
607.82	360.44
607.98	210.65
608.13	112.35
608.29	81.92
608.44	60.85
608.60	72.56
608.75	100.64
608.91	112.35
609.06	713.86
609.22	1462.83
609.37	2174.36
609.53	2031.58
609.68	1399.64
609.84	870.68
609.99	568.75
610.15	287.89
610.30	77.24
610.46	114.69
610.61	16.38
610.76	145.11
610.92	58.51
611.07	91.28
611.23	0.00
611.38	112.35
611.54	65.54
611.69	93.62
611.84	131.07
612.00	81.92
612.15	67.88
612.31	86.60
612.46	93.62
612.62	110.01
612.77	142.77
612.92	70.22
613.08	84.26
613.23	138.09
613.39	25.75
613.54	135.75
613.69	692.80
613.85	1944.99
614.00	3183.13
614.15	3702.73
614.31	2560.55
614.46	1680.50
614.62	1142.18
614.77	784.08
614.92	217.67
615.08	37.45
615.23	88.94
615.38	95.96
615.54	63.19
615.69	4.68
615.84	390.87
616.00	709.18
616.15	901.11
616.30	791.10
616.46	543.00
616.61	313.63
616.76	259.80
616.92	147.45
617.07	117.03
617.22	49.15
617.37	0.00
617.53	37.45
617.68	142.77
617.83	112.35
617.99	79.58
618.14	28.09
618.29	65.54
618.45	0.00
618.60	30.43
618.75	25.75
618.90	105.32
619.06	32.77
619.21	23.41
619.36	53.83
619.51	147.45
619.67	72.56
619.82	86.60
619.97	60.85
620.12	32.77
620.28	91.28
620.43	42.13
620.58	0.00
620.73	79.58
620.89	35.11
621.04	81.92
621.19	156.82
621.34	322.99
621.49	477.47
621.65	505.56
621.80	332.36
621.95	236.39
622.10	187.24
622.25	100.64
622.41	16.38
622.56	84.26
622.71	37.45
622.86	56.17
623.01	39.79
623.16	93.62
623.32	35.11
623.47	21.06
623.62	0.00
623.77	16.38
623.92	35.11
624.07	53.83
624.23	32.77
624.38	18.72
624.53	39.79
624.68	35.11
624.83	44.47
624.98	35.11
625.13	60.85
625.29	30.43
625.44	63.19
625.59	18.72
625.74	67.88
625.89	30.43
626.04	318.31
626.19	971.32
626.34	1650.08
626.49	1844.34
626.65	1451.13
626.80	894.08
626.95	667.05
627.10	437.68
627.25	177.88
627.40	161.50
627.55	86.60
627.70	44.47
627.85	14.04
628.00	58.51
628.15	72.56
628.30	23.41
628.45	91.28
628.60	23.41
628.76	9.36
628.91	0.00
629.06	35.11
629.21	4.68
629.36	51.49
629.51	0.00
629.66	102.98
629.81	56.17
629.96	145.11
630.11	280.86
630.26	564.07
630.41	339.38
630.56	276.18
630.71	208.31
630.86	159.16
631.01	100.64
631.16	32.77
631.31	74.90
631.46	60.85
631.61	79.58
631.76	0.00
631.91	18.72
632.06	81.92
632.21	35.11
632.36	0.00
632.51	53.83
632.66	65.54
632.81	201.29
632.96	521.94
633.10	964.30
633.25	1348.15
633.40	1100.05
633.55	741.95
633.70	482.15
633.85	400.23
634.00	189.58
634.15	124.05
634.30	46.81
634.45	7.02
634.60	86.60
634.75	44.47
634.90	44.47
635.05	86.60
635.19	35.11
635.34	2.34
635.49	35.11
635.64	107.66
635.79	32.77
635.94	21.06
636.09	30.43
636.24	21.06
636.39	7.02
636.53	81.92
636.68	88.94
636.83	79.58
636.98	65.54
637.13	70.22
637.28	156.82
637.43	25.75
637.57	86.60
637.72	456.40
637.87	1299.00
638.02	2085.42
638.17	2370.96
638.32	1823.28
638.46	1177.29
638.61	816.85
638.76	514.92
638.91	266.82
639.06	79.58
639.20	0.00
639.35	84.26
639.50	159.16
639.65	603.86
639.80	1842.00
639.94	3169.09
640.09	3796.35
640.24	2803.96
640.39	1919.24
640.54	1228.78
640.68	732.59
640.83	353.42
640.98	224.69
641.13	114.69
641.27	60.85
641.42	81.92
641.57	63.19
641.72	32.77
641.86	58.51
642.01	121.71
642.16	28.09
642.31	44.47
642.45	46.81
642.60	16.38
642.75	56.17
642.90	74.90
643.04	32.77
643.19	0.00
643.34	9.36
643.48	60.85
643.63	119.37
643.78	42.13
643.93	100.64
644.07	51.49
644.22	4.68
644.37	49.15
644.51	35.11
644.66	51.49
644.81	46.81
644.95	0.00
645.10	84.26
645.25	21.06
645.39	44.47
645.54	0.00
645.69	18.72
645.83	9.36
645.98	72.56
646.13	14.04
646.27	25.75
646.42	0.00
646.57	39.79
646.71	35.11
646.86	28.09
647.00	100.64
647.15	25.75
647.30	86.60
647.44	105.32
647.59	49.15
647.74	44.47
647.88	51.49
648.03	70.22
648.17	0.00
648.32	11.70
648.47	42.13
648.61	0.00
648.76	32.77
648.90	21.06
649.05	9.36
649.20	42.13
649.34	70.22
649.49	46.81
649.63	60.85
649.78	2.34
649.92	77.24
650.07	259.80
650.21	896.43
650.36	1511.99
650.51	1947.33
650.65	1593.90
650.80	1256.87
650.94	692.80
651.09	547.69
651.23	191.92
651.38	93.62
651.52	0.00
651.67	42.13
651.81	51.49
651.96	0.00
652.10	4.68
652.25	0.00
652.39	30.43
652.54	30.43
652.68	173.20
652.83	318.31
652.97	428.32
653.12	781.74
653.26	643.65
653.41	381.51
653.55	269.16
653.70	189.58
653.84	142.77
653.99	0.00
654.13	67.88
654.27	16.38
654.42	25.75
654.56	0.00
654.71	56.17
654.85	60.85
655.00	23.41
655.14	14.04
655.29	79.58
655.43	51.49
655.57	14.04
655.72	4.68
655.86	0.00
656.01	84.26
656.15	93.62
656.30	32.77
656.44	58.51
656.58	107.66
656.73	23.41
656.87	77.24
657.01	44.47
657.16	2.34
657.30	14.04
657.45	28.09
657.59	84.26
657.73	0.00
657.88	30.43
658.02	23.41
658.16	42.13
658.31	23.41
658.45	28.09
658.60	23.41
658.74	58.51
658.88	37.45
659.03	7.02
659.17	46.81
659.31	112.35
659.46	458.74
659.60	723.23
659.74	1001.75
659.89	870.68
660.03	580.45
660.17	395.55
660.32	170.86
660.46	95.96
660.60	133.41
660.74	65.54
660.89	86.60
661.03	63.19
661.17	72.56
661.32	25.75
661.46	53.83
661.60	65.54
661.74	112.35
661.89	0.00
662.03	23.41
662.17	81.92
662.31	81.92
662.46	58.51
662.60	63.19
662.74	0.00
662.88	60.85
663.03	53.83
663.17	7.02
663.31	7.02
663.45	60.85
663.60	42.13
663.74	0.00
663.88	93.62
664.02	23.41
664.17	70.22
664.31	0.00
664.45	49.15
664.59	86.60
664.73	117.03
664.88	81.92
665.02	0.00
665.16	42.13
665.30	2.34
665.44	21.06
665.59	60.85
665.73	72.56
665.87	81.92
666.01	91.28
666.15	56.17
666.29	46.81
666.44	21.06
666.58	70.22
666.72	32.77
666.86	21.06
667.00	37.45
667.14	49.15
667.28	283.20
667.43	660.03
667.57	1233.46
667.71	1671.14
667.85	1465.18
667.99	1043.88
668.13	662.37
668.27	381.51
668.41	182.56
668.56	205.97
668.70	65.54
668.84	117.03
668.98	0.00
669.12	7.02
669.26	0.00
669.40	56.17
669.54	39.79
669.68	79.58
669.82	0.00
669.96	0.00
670.10	0.00
670.25	79.58
670.39	56.17
670.53	58.51
670.67	63.19
670.81	44.47
670.95	72.56
671.09	77.24
671.23	248.10
671.37	587.47
671.51	954.94
671.65	1130.48
671.79	889.40
671.93	681.10
672.07	388.53
672.21	255.12
672.35	166.18
672.49	63.19
672.63	100.64
672.77	56.17
672.91	60.85
673.05	56.17
673.19	23.41
673.33	37.45
673.47	28.09
673.61	77.24
673.75	35.11
673.89	65.54
674.03	74.90
674.17	0.00
674.31	25.75
674.45	53.83
674.59	37.45
674.73	91.28
674.87	95.96
675.01	49.15
675.15	32.77
675.29	93.62
675.43	2.34
675.56	39.79
675.70	23.41
675.84	39.79
675.98	46.81
676.12	30.43
676.26	0.00
676.40	0.00
676.54	65.54
676.68	0.00
676.82	72.56
676.96	39.79
677.10	88.94
677.23	110.01
677.37	11.70
677.51	60.85
677.65	14.04
677.79	77.24
677.93	16.38
678.07	0.00
678.21	67.88
678.34	28.09
678.48	81.92
678.62	14.04
678.76	74.90
678.90	81.92
679.04	107.66
679.18	72.56
679.31	30.43
679.45	79.58
679.59	37.45
679.73	25.75
679.87	0.00
680.00	25.75
680.14	4.68
680.28	86.60
680.42	37.45
680.56	14.04
680.70	42.13
680.83	0.00
680.97	16.38
681.11	46.81
681.25	91.28
681.39	2.34
681.52	39.79
681.66	32.77
681.80	39.79
681.94	44.47
682.07	46.81
682.21	32.77
682.35	2.34
682.49	74.90
682.62	39.79
682.76	18.72
682.90	77.24
683.04	140.43
683.17	74.90
683.31	39.79
683.45	0.00
683.59	0.00
683.72	0.00
683.86	56.17
684.00	46.81
684.13	21.06
684.27	42.13
684.41	121.71
684.55	42.13
684.68	21.06
684.82	0.00
684.96	81.92
685.09	16.38
685.23	88.94
685.37	9.36
685.50	14.04
685.64	35.11
685.78	56.17
685.91	0.00
686.05	32.77
686.19	7.02
686.32	16.38
686.46	25.75
686.60	35.11
686.73	79.58
686.87	110.01
687.01	14.04
687.14	39.79
687.28	0.00
687.42	18.72
687.55	0.00
687.69	25.75
687.82	25.75
687.96	74.90
688.10	7.02
688.23	0.00
688.37	39.79
688.50	0.00
688.64	51.49
688.78	37.45
688.91	46.81
689.05	7.02
689.18	42.13
689.32	63.19
689.46	32.77
689.59	72.56
689.73	16.38
689.86	56.17
690.00	81.92
690.13	28.09
690.27	0.00
690.41	0.00
690.54	18.72
690.68	0.00
690.81	37.45
690.95	39.79
691.08	0.00
691.22	53.83
691.35	58.51
691.49	4.68
691.62	60.85
691.76	18.72
691.89	0.00
692.03	9.36
692.16	14.04
692.30	0.00
692.43	107.66
692.57	325.33
692.70	566.41
692.84	763.01
692.97	713.86
693.11	493.85
693.24	383.85
693.38	294.91
693.51	156.82
693.65	16.38
693.78	124.05
693.92	88.94
694.05	88.94
694.19	28.09
694.32	63.19
694.45	0.00
694.59	2.34
694.72	58.51
694.86	0.00
694.99	0.00
695.13	51.49
695.26	53.83
695.39	21.06
695.53	0.00
695.66	44.47
695.80	2.34
695.93	39.79
696.07	25.75
696.20	4.68
696.33	25.75
696.47	35.11
696.60	102.98
696.73	42.13
696.87	0.00
697.00	0.00
697.14	16.38
697.27	79.58
697.40	110.01
697.54	79.58
697.67	67.88
697.80	112.35
697.94	58.51
698.07	9.36
698.21	46.81
698.34	72.56
698.47	107.66
698.61	81.92
698.74	30.43
698.87	9.36
699.01	30.43
699.14	35.11
699.27	65.54
699.40	18.72
699.54	0.00
699.67	0.00
699.80	84.26
699.94	0.00
700.07	91.28
700.20	74.90
700.34	32.77
700.47	0.00
700.60	4.68
700.73	51.49
700.87	84.26
701.00	42.13
701.13	30.43
701.26	65.54
701.40	0.00
701.53	18.72
701.66	51.49
701.79	44.47
701.93	51.49
702.06	53.83
702.19	81.92
702.32	114.69
702.46	152.13
702.59	46.81
702.72	184.90
702.85	327.68
702.99	858.98
703.12	1203.04
703.25	1507.30
703.38	1324.74
703.51	1048.56
703.65	777.06
703.78	599.18
703.91	409.59
704.04	236.39
704.17	135.75
704.31	100.64
704.44	51.49
704.57	133.41
704.70	77.24
704.83	0.00
704.96	0.00
705.10	21.06
705.23	105.32
>>>>>End Processed Spectral Data<<<<<
