SpectraSuite Data File
++++++++++++++++++++++++++++++++++++
Date: Fri Oct 04 12:13:37 GMT-05:00 2013
User: price-jones
Dark Spectrum Present: No
Reference Spectrum Present: No
Number of Sampled Component Spectra: 1
Spectrometers: USB2+H05261
Integration Time (usec): 10000 (USB2+H05261)
Spectra Averaged: 1 (USB2+H05261)
Boxcar Smoothing: 0 (USB2+H05261)
Correct for Electrical Dark: No (USB2+H05261)
Strobe/Lamp Enabled: No (USB2+H05261)
Correct for Detector Non-linearity: No (USB2+H05261)
Correct for Stray Light: No (USB2+H05261)
Number of Pixels in Processed Spectrum: 2048
>>>>>Begin Processed Spectral Data<<<<<
365.73	0.00
365.92	0.00
366.12	0.00
366.32	0.00
366.52	0.00
366.72	0.00
366.91	0.00
367.11	0.00
367.31	0.00
367.51	0.00
367.70	0.00
367.90	0.00
368.10	0.00
368.30	0.00
368.49	0.00
368.69	0.00
368.89	0.00
369.09	0.00
369.28	0.00
369.48	0.00
369.68	0.00
369.87	0.00
370.07	0.00
370.27	0.00
370.47	0.00
370.66	0.00
370.86	0.00
371.06	0.00
371.25	0.00
371.45	0.00
371.65	0.00
371.84	0.00
372.04	72.56
372.24	0.00
372.44	0.00
372.63	0.00
372.83	81.92
373.03	70.22
373.22	42.13
373.42	46.81
373.62	65.54
373.81	44.47
374.01	0.00
374.21	21.06
374.40	58.51
374.60	63.19
374.79	81.92
374.99	0.00
375.19	138.09
375.38	2.34
375.58	0.00
375.78	11.70
375.97	42.13
376.17	63.19
376.37	100.64
376.56	35.11
376.76	0.00
376.95	21.06
377.15	16.38
377.35	60.85
377.54	23.41
377.74	56.17
377.93	7.02
378.13	0.00
378.33	60.85
378.52	110.01
378.72	4.68
378.91	9.36
379.11	0.00
379.31	32.77
379.50	28.09
379.70	46.81
379.89	65.54
380.09	46.81
380.28	72.56
380.48	0.00
380.68	25.75
380.87	21.06
381.07	39.79
381.26	35.11
381.46	0.00
381.65	112.35
381.85	18.72
382.04	0.00
382.24	0.00
382.43	63.19
382.63	25.75
382.83	14.04
383.02	0.00
383.22	7.02
383.41	32.77
383.61	4.68
383.80	18.72
384.00	0.00
384.19	0.00
384.39	0.00
384.58	0.00
384.78	0.00
384.97	0.00
385.17	42.13
385.36	91.28
385.56	65.54
385.75	0.00
385.95	11.70
386.14	16.38
386.34	25.75
386.53	23.41
386.72	0.00
386.92	23.41
387.11	35.11
387.31	46.81
387.50	98.30
387.70	51.49
387.89	63.19
388.09	0.00
388.28	16.38
388.48	21.06
388.67	60.85
388.86	9.36
389.06	30.43
389.25	0.00
389.45	56.17
389.64	4.68
389.84	74.90
390.03	49.15
390.22	23.41
390.42	42.13
390.61	0.00
390.81	30.43
391.00	11.70
391.19	7.02
391.39	9.36
391.58	14.04
391.78	4.68
391.97	7.02
392.16	0.00
392.36	42.13
392.55	49.15
392.75	58.51
392.94	0.00
393.13	65.54
393.33	18.72
393.52	21.06
393.71	0.00
393.91	21.06
394.10	18.72
394.29	58.51
394.49	2.34
394.68	23.41
394.88	30.43
395.07	63.19
395.26	58.51
395.46	21.06
395.65	53.83
395.84	23.41
396.04	112.35
396.23	25.75
396.42	18.72
396.62	0.00
396.81	51.49
397.00	91.28
397.19	23.41
397.39	25.75
397.58	0.00
397.77	49.15
397.97	4.68
398.16	95.96
398.35	4.68
398.55	44.47
398.74	9.36
398.93	0.00
399.12	18.72
399.32	4.68
399.51	0.00
399.70	63.19
399.90	14.04
400.09	23.41
400.28	35.11
400.47	56.17
400.67	18.72
400.86	39.79
401.05	46.81
401.24	25.75
401.44	0.00
401.63	65.54
401.82	74.90
402.01	30.43
402.21	30.43
402.40	0.00
402.59	0.00
402.78	0.00
402.97	0.00
403.17	14.04
403.36	112.35
403.55	0.00
403.74	7.02
403.93	0.00
404.13	2.34
404.32	9.36
404.51	42.13
404.70	63.19
404.89	42.13
405.09	39.79
405.28	14.04
405.47	37.45
405.66	25.75
405.85	0.00
406.05	74.90
406.24	32.77
406.43	16.38
406.62	0.00
406.81	18.72
407.00	42.13
407.20	53.83
407.39	32.77
407.58	53.83
407.77	0.00
407.96	39.79
408.15	7.02
408.34	7.02
408.54	2.34
408.73	23.41
408.92	44.47
409.11	23.41
409.30	18.72
409.49	37.45
409.68	56.17
409.87	100.64
410.07	95.96
410.26	16.38
410.45	46.81
410.64	49.15
410.83	46.81
411.02	42.13
411.21	39.79
411.40	11.70
411.59	67.88
411.78	25.75
411.98	107.66
412.17	0.00
412.36	0.00
412.55	63.19
412.74	60.85
412.93	117.03
413.12	0.00
413.31	102.98
413.50	42.13
413.69	74.90
413.88	77.24
414.07	37.45
414.26	65.54
414.45	25.75
414.64	110.01
414.83	37.45
415.02	114.69
415.22	18.72
415.41	25.75
415.60	145.11
415.79	30.43
415.98	14.04
416.17	0.00
416.36	93.62
416.55	21.06
416.74	30.43
416.93	70.22
417.12	46.81
417.31	32.77
417.50	32.77
417.69	18.72
417.88	32.77
418.07	32.77
418.26	0.00
418.45	16.38
418.64	39.79
418.83	14.04
419.02	56.17
419.21	53.83
419.39	42.13
419.58	9.36
419.77	28.09
419.96	72.56
420.15	51.49
420.34	4.68
420.53	77.24
420.72	58.51
420.91	107.66
421.10	102.98
421.29	67.88
421.48	0.00
421.67	14.04
421.86	72.56
422.05	79.58
422.24	0.00
422.43	44.47
422.61	91.28
422.80	95.96
422.99	44.47
423.18	65.54
423.37	60.85
423.56	32.77
423.75	79.58
423.94	2.34
424.13	79.58
424.32	4.68
424.50	65.54
424.69	86.60
424.88	86.60
425.07	39.79
425.26	46.81
425.45	32.77
425.64	65.54
425.83	30.43
426.01	39.79
426.20	51.49
426.39	74.90
426.58	91.28
426.77	39.79
426.96	0.00
427.15	21.06
427.33	14.04
427.52	28.09
427.71	42.13
427.90	16.38
428.09	25.75
428.28	37.45
428.46	65.54
428.65	65.54
428.84	67.88
429.03	32.77
429.22	91.28
429.40	65.54
429.59	42.13
429.78	14.04
429.97	56.17
430.16	0.00
430.34	79.58
430.53	32.77
430.72	0.00
430.91	37.45
431.10	2.34
431.28	30.43
431.47	25.75
431.66	0.00
431.85	21.06
432.03	32.77
432.22	39.79
432.41	79.58
432.60	77.24
432.79	39.79
432.97	23.41
433.16	7.02
433.35	44.47
433.54	21.06
433.72	0.00
433.91	39.79
434.10	56.17
434.28	4.68
434.47	32.77
434.66	0.00
434.85	25.75
435.03	21.06
435.22	63.19
435.41	100.64
435.59	60.85
435.78	0.00
435.97	0.00
436.16	86.60
436.34	23.41
436.53	0.00
436.72	42.13
436.90	46.81
437.09	18.72
437.28	28.09
437.46	2.34
437.65	91.28
437.84	11.70
438.02	77.24
438.21	39.79
438.40	42.13
438.58	53.83
438.77	49.15
438.96	53.83
439.14	67.88
439.33	35.11
439.52	21.06
439.70	63.19
439.89	88.94
440.08	126.39
440.26	0.00
440.45	53.83
440.63	74.90
440.82	110.01
441.01	39.79
441.19	51.49
441.38	58.51
441.57	35.11
441.75	79.58
441.94	86.60
442.12	72.56
442.31	79.58
442.50	117.03
442.68	14.04
442.87	60.85
443.05	0.00
443.24	30.43
443.43	11.70
443.61	84.26
443.80	49.15
443.98	79.58
444.17	86.60
444.35	117.03
444.54	44.47
444.73	70.22
444.91	65.54
445.10	46.81
445.28	53.83
445.47	0.00
445.65	25.75
445.84	42.13
446.02	42.13
446.21	37.45
446.39	32.77
446.58	98.30
446.77	79.58
446.95	72.56
447.14	9.36
447.32	58.51
447.51	67.88
447.69	18.72
447.88	56.17
448.06	79.58
448.25	107.66
448.43	77.24
448.62	7.02
448.80	65.54
448.99	84.26
449.17	25.75
449.36	117.03
449.54	53.83
449.73	35.11
449.91	0.00
450.10	49.15
450.28	51.49
450.46	60.85
450.65	49.15
450.83	39.79
451.02	14.04
451.20	0.00
451.39	79.58
451.57	98.30
451.76	14.04
451.94	63.19
452.13	100.64
452.31	37.45
452.49	23.41
452.68	42.13
452.86	65.54
453.05	21.06
453.23	114.69
453.42	51.49
453.60	28.09
453.78	67.88
453.97	0.00
454.15	30.43
454.34	0.00
454.52	4.68
454.70	70.22
454.89	0.00
455.07	53.83
455.26	88.94
455.44	28.09
455.62	77.24
455.81	100.64
455.99	65.54
456.17	70.22
456.36	91.28
456.54	0.00
456.73	86.60
456.91	30.43
457.09	23.41
457.28	0.00
457.46	30.43
457.64	60.85
457.83	60.85
458.01	72.56
458.19	58.51
458.38	77.24
458.56	23.41
458.74	42.13
458.93	51.49
459.11	105.32
459.29	79.58
459.48	14.04
459.66	114.69
459.84	77.24
460.03	46.81
460.21	93.62
460.39	21.06
460.57	9.36
460.76	42.13
460.94	23.41
461.12	79.58
461.31	60.85
461.49	119.37
461.67	58.51
461.85	39.79
462.04	84.26
462.22	60.85
462.40	51.49
462.59	105.32
462.77	25.75
462.95	4.68
463.13	119.37
463.32	63.19
463.50	65.54
463.68	58.51
463.86	67.88
464.05	187.24
464.23	67.88
464.41	91.28
464.59	23.41
464.78	35.11
464.96	14.04
465.14	42.13
465.32	2.34
465.50	100.64
465.69	100.64
465.87	84.26
466.05	77.24
466.23	39.79
466.41	114.69
466.60	79.58
466.78	95.96
466.96	74.90
467.14	67.88
467.32	37.45
467.51	100.64
467.69	58.51
467.87	67.88
468.05	0.00
468.23	95.96
468.41	46.81
468.60	58.51
468.78	30.43
468.96	79.58
469.14	51.49
469.32	42.13
469.50	70.22
469.69	49.15
469.87	39.79
470.05	65.54
470.23	58.51
470.41	72.56
470.59	74.90
470.77	119.37
470.95	98.30
471.14	114.69
471.32	65.54
471.50	56.17
471.68	117.03
471.86	63.19
472.04	0.00
472.22	67.88
472.40	105.32
472.58	0.00
472.77	42.13
472.95	49.15
473.13	84.26
473.31	86.60
473.49	49.15
473.67	65.54
473.85	100.64
474.03	70.22
474.21	23.41
474.39	88.94
474.57	0.00
474.75	72.56
474.93	0.00
475.12	93.62
475.30	30.43
475.48	95.96
475.66	58.51
475.84	4.68
476.02	79.58
476.20	46.81
476.38	46.81
476.56	72.56
476.74	53.83
476.92	21.06
477.10	84.26
477.28	65.54
477.46	95.96
477.64	60.85
477.82	70.22
478.00	51.49
478.18	49.15
478.36	81.92
478.54	65.54
478.72	156.82
478.90	72.56
479.08	0.00
479.26	74.90
479.44	147.45
479.62	84.26
479.80	84.26
479.98	35.11
480.16	91.28
480.34	37.45
480.52	81.92
480.70	81.92
480.88	95.96
481.06	72.56
481.24	30.43
481.41	67.88
481.59	95.96
481.77	30.43
481.95	0.00
482.13	46.81
482.31	28.09
482.49	42.13
482.67	49.15
482.85	121.71
483.03	65.54
483.21	58.51
483.39	0.00
483.57	119.37
483.74	42.13
483.92	49.15
484.10	14.04
484.28	65.54
484.46	32.77
484.64	95.96
484.82	0.00
485.00	4.68
485.18	44.47
485.35	44.47
485.53	58.51
485.71	119.37
485.89	84.26
486.07	28.09
486.25	60.85
486.43	37.45
486.61	79.58
486.78	39.79
486.96	88.94
487.14	0.00
487.32	0.00
487.50	74.90
487.68	39.79
487.85	32.77
488.03	30.43
488.21	93.62
488.39	39.79
488.57	107.66
488.75	51.49
488.92	121.71
489.10	72.56
489.28	72.56
489.46	119.37
489.64	105.32
489.81	67.88
489.99	112.35
490.17	0.00
490.35	0.00
490.53	91.28
490.70	0.00
490.88	170.86
491.06	58.51
491.24	16.38
491.41	56.17
491.59	110.01
491.77	93.62
491.95	44.47
492.13	7.02
492.30	46.81
492.48	74.90
492.66	74.90
492.84	56.17
493.01	25.75
493.19	91.28
493.37	37.45
493.54	67.88
493.72	121.71
493.90	32.77
494.08	105.32
494.25	46.81
494.43	72.56
494.61	60.85
494.79	126.39
494.96	4.68
495.14	107.66
495.32	4.68
495.49	32.77
495.67	131.07
495.85	44.47
496.02	79.58
496.20	93.62
496.38	46.81
496.55	149.79
496.73	105.32
496.91	49.15
497.09	51.49
497.26	60.85
497.44	28.09
497.62	30.43
497.79	107.66
497.97	58.51
498.14	110.01
498.32	93.62
498.50	84.26
498.67	131.07
498.85	95.96
499.03	49.15
499.20	84.26
499.38	11.70
499.56	98.30
499.73	105.32
499.91	0.00
500.08	35.11
500.26	131.07
500.44	81.92
500.61	93.62
500.79	84.26
500.97	74.90
501.14	51.49
501.32	79.58
501.49	39.79
501.67	105.32
501.84	98.30
502.02	70.22
502.20	142.77
502.37	93.62
502.55	110.01
502.72	107.66
502.90	119.37
503.07	86.60
503.25	16.38
503.43	51.49
503.60	100.64
503.78	102.98
503.95	86.60
504.13	86.60
504.30	140.43
504.48	77.24
504.65	81.92
504.83	72.56
505.01	91.28
505.18	14.04
505.36	86.60
505.53	112.35
505.71	84.26
505.88	86.60
506.06	37.45
506.23	60.85
506.41	112.35
506.58	46.81
506.76	56.17
506.93	39.79
507.11	25.75
507.28	84.26
507.46	65.54
507.63	63.19
507.81	65.54
507.98	9.36
508.16	67.88
508.33	39.79
508.50	93.62
508.68	35.11
508.85	131.07
509.03	77.24
509.20	74.90
509.38	65.54
509.55	88.94
509.73	112.35
509.90	58.51
510.08	49.15
510.25	131.07
510.42	98.30
510.60	53.83
510.77	147.45
510.95	72.56
511.12	135.75
511.30	37.45
511.47	121.71
511.64	117.03
511.82	93.62
511.99	107.66
512.17	81.92
512.34	117.03
512.51	51.49
512.69	42.13
512.86	63.19
513.04	117.03
513.21	100.64
513.38	51.49
513.56	63.19
513.73	102.98
513.90	112.35
514.08	138.09
514.25	58.51
514.43	159.16
514.60	126.39
514.77	77.24
514.95	37.45
515.12	84.26
515.29	46.81
515.47	98.30
515.64	67.88
515.81	156.82
515.99	88.94
516.16	65.54
516.33	65.54
516.51	112.35
516.68	124.05
516.85	58.51
517.03	53.83
517.20	84.26
517.37	74.90
517.54	63.19
517.72	93.62
517.89	46.81
518.06	119.37
518.24	161.50
518.41	60.85
518.58	53.83
518.75	91.28
518.93	88.94
519.10	60.85
519.27	4.68
519.45	51.49
519.62	28.09
519.79	28.09
519.96	63.19
520.14	117.03
520.31	70.22
520.48	65.54
520.65	30.43
520.83	77.24
521.00	98.30
521.17	25.75
521.34	93.62
521.52	95.96
521.69	177.88
521.86	93.62
522.03	81.92
522.20	11.70
522.38	42.13
522.55	11.70
522.72	107.66
522.89	100.64
523.07	32.77
523.24	110.01
523.41	91.28
523.58	91.28
523.75	107.66
523.92	74.90
524.10	121.71
524.27	128.73
524.44	102.98
524.61	60.85
524.78	28.09
524.96	84.26
525.13	44.47
525.30	131.07
525.47	105.32
525.64	65.54
525.81	39.79
525.98	60.85
526.16	119.37
526.33	44.47
526.50	102.98
526.67	105.32
526.84	107.66
527.01	23.41
527.18	142.77
527.36	98.30
527.53	65.54
527.70	114.69
527.87	16.38
528.04	131.07
528.21	60.85
528.38	9.36
528.55	145.11
528.72	86.60
528.89	63.19
529.07	140.43
529.24	131.07
529.41	65.54
529.58	49.15
529.75	114.69
529.92	58.51
530.09	98.30
530.26	16.38
530.43	105.32
530.60	72.56
530.77	86.60
530.94	105.32
531.11	49.15
531.28	81.92
531.46	72.56
531.63	168.52
531.80	51.49
531.97	49.15
532.14	110.01
532.31	79.58
532.48	84.26
532.65	37.45
532.82	70.22
532.99	67.88
533.16	65.54
533.33	65.54
533.50	95.96
533.67	63.19
533.84	105.32
534.01	67.88
534.18	51.49
534.35	74.90
534.52	37.45
534.69	107.66
534.86	32.77
535.03	124.05
535.20	180.22
535.37	147.45
535.54	81.92
535.71	166.18
535.88	135.75
536.05	107.66
536.22	117.03
536.38	81.92
536.55	128.73
536.72	95.96
536.89	79.58
537.06	119.37
537.23	49.15
537.40	74.90
537.57	98.30
537.74	105.32
537.91	72.56
538.08	23.41
538.25	100.64
538.42	21.06
538.59	70.22
538.75	147.45
538.92	93.62
539.09	156.82
539.26	39.79
539.43	84.26
539.60	46.81
539.77	100.64
539.94	42.13
540.11	93.62
540.28	70.22
540.44	30.43
540.61	81.92
540.78	86.60
540.95	138.09
541.12	126.39
541.29	93.62
541.46	138.09
541.62	63.19
541.79	95.96
541.96	98.30
542.13	88.94
542.30	93.62
542.47	152.13
542.63	175.54
542.80	53.83
542.97	107.66
543.14	114.69
543.31	23.41
543.48	107.66
543.64	117.03
543.81	74.90
543.98	114.69
544.15	60.85
544.32	79.58
544.48	124.05
544.65	70.22
544.82	100.64
544.99	84.26
545.16	100.64
545.32	77.24
545.49	124.05
545.66	67.88
545.83	44.47
546.00	138.09
546.16	168.52
546.33	152.13
546.50	88.94
546.67	70.22
546.83	86.60
547.00	100.64
547.17	95.96
547.34	74.90
547.50	44.47
547.67	72.56
547.84	95.96
548.00	63.19
548.17	88.94
548.34	142.77
548.51	114.69
548.67	173.20
548.84	142.77
549.01	112.35
549.18	58.51
549.34	124.05
549.51	110.01
549.68	98.30
549.84	119.37
550.01	74.90
550.18	28.09
550.34	121.71
550.51	77.24
550.68	9.36
550.84	65.54
551.01	100.64
551.18	88.94
551.34	58.51
551.51	154.48
551.68	168.52
551.84	84.26
552.01	91.28
552.18	74.90
552.34	131.07
552.51	234.05
552.68	58.51
552.84	44.47
553.01	88.94
553.18	18.72
553.34	100.64
553.51	70.22
553.67	145.11
553.84	67.88
554.01	7.02
554.17	65.54
554.34	102.98
554.51	117.03
554.67	37.45
554.84	95.96
555.00	56.17
555.17	56.17
555.33	102.98
555.50	98.30
555.67	0.00
555.83	39.79
556.00	70.22
556.16	98.30
556.33	105.32
556.50	91.28
556.66	30.43
556.83	79.58
556.99	91.28
557.16	23.41
557.32	79.58
557.49	110.01
557.65	159.16
557.82	30.43
557.98	56.17
558.15	77.24
558.32	88.94
558.48	4.68
558.65	74.90
558.81	95.96
558.98	30.43
559.14	63.19
559.31	88.94
559.47	70.22
559.64	74.90
559.80	124.05
559.97	95.96
560.13	51.49
560.30	100.64
560.46	56.17
560.63	102.98
560.79	112.35
560.96	86.60
561.12	70.22
561.29	49.15
561.45	91.28
561.61	117.03
561.78	0.00
561.94	72.56
562.11	18.72
562.27	102.98
562.44	79.58
562.60	128.73
562.77	77.24
562.93	32.77
563.10	42.13
563.26	42.13
563.42	128.73
563.59	18.72
563.75	121.71
563.92	114.69
564.08	77.24
564.24	110.01
564.41	152.13
564.57	77.24
564.74	49.15
564.90	112.35
565.07	107.66
565.23	128.73
565.39	138.09
565.56	95.96
565.72	77.24
565.88	77.24
566.05	72.56
566.21	25.75
566.38	42.13
566.54	161.50
566.70	67.88
566.87	58.51
567.03	37.45
567.19	51.49
567.36	110.01
567.52	117.03
567.68	142.77
567.85	93.62
568.01	53.83
568.17	81.92
568.34	74.90
568.50	74.90
568.66	112.35
568.83	100.64
568.99	140.43
569.15	21.06
569.32	67.88
569.48	95.96
569.64	142.77
569.81	88.94
569.97	51.49
570.13	65.54
570.30	65.54
570.46	175.54
570.62	39.79
570.78	112.35
570.95	7.02
571.11	74.90
571.27	51.49
571.43	117.03
571.60	112.35
571.76	117.03
571.92	100.64
572.09	30.43
572.25	119.37
572.41	58.51
572.57	135.75
572.74	65.54
572.90	42.13
573.06	14.04
573.22	60.85
573.38	39.79
573.55	142.77
573.71	70.22
573.87	86.60
574.03	63.19
574.20	105.32
574.36	67.88
574.52	77.24
574.68	131.07
574.84	191.92
575.01	56.17
575.17	46.81
575.33	100.64
575.49	65.54
575.65	110.01
575.82	70.22
575.98	84.26
576.14	91.28
576.30	95.96
576.46	135.75
576.62	14.04
576.79	86.60
576.95	91.28
577.11	7.02
577.27	79.58
577.43	67.88
577.59	86.60
577.75	95.96
577.92	32.77
578.08	79.58
578.24	95.96
578.40	107.66
578.56	107.66
578.72	77.24
578.88	128.73
579.04	53.83
579.21	119.37
579.37	84.26
579.53	110.01
579.69	91.28
579.85	21.06
580.01	112.35
580.17	128.73
580.33	100.64
580.49	72.56
580.65	152.13
580.82	72.56
580.98	119.37
581.14	0.00
581.30	72.56
581.46	53.83
581.62	39.79
581.78	39.79
581.94	67.88
582.10	0.00
582.26	88.94
582.42	100.64
582.58	152.13
582.74	72.56
582.90	154.48
583.06	56.17
583.22	88.94
583.38	100.64
583.54	37.45
583.70	154.48
583.86	9.36
584.02	95.96
584.18	100.64
584.34	65.54
584.50	91.28
584.66	63.19
584.82	117.03
584.98	70.22
585.14	100.64
585.30	81.92
585.46	46.81
585.62	128.73
585.78	0.00
585.94	35.11
586.10	126.39
586.26	72.56
586.42	88.94
586.58	74.90
586.74	84.26
586.90	42.13
587.06	32.77
587.22	98.30
587.38	9.36
587.54	67.88
587.70	65.54
587.86	21.06
588.02	18.72
588.18	65.54
588.34	58.51
588.49	37.45
588.65	37.45
588.81	60.85
588.97	91.28
589.13	42.13
589.29	126.39
589.45	105.32
589.61	46.81
589.77	121.71
589.93	51.49
590.08	138.09
590.24	79.58
590.40	0.00
590.56	32.77
590.72	37.45
590.88	37.45
591.04	95.96
591.20	65.54
591.35	46.81
591.51	46.81
591.67	93.62
591.83	105.32
591.99	7.02
592.15	16.38
592.31	67.88
592.46	28.09
592.62	46.81
592.78	124.05
592.94	56.17
593.10	93.62
593.26	91.28
593.41	58.51
593.57	42.13
593.73	63.19
593.89	35.11
594.05	114.69
594.20	145.11
594.36	128.73
594.52	140.43
594.68	91.28
594.84	53.83
594.99	84.26
595.15	91.28
595.31	23.41
595.47	70.22
595.62	95.96
595.78	110.01
595.94	67.88
596.10	65.54
596.25	21.06
596.41	37.45
596.57	44.47
596.73	152.13
596.88	95.96
597.04	58.51
597.20	53.83
597.36	0.00
597.51	23.41
597.67	114.69
597.83	133.41
597.99	95.96
598.14	30.43
598.30	88.94
598.46	53.83
598.61	42.13
598.77	32.77
598.93	147.45
599.09	79.58
599.24	51.49
599.40	88.94
599.56	46.81
599.71	18.72
599.87	117.03
600.03	32.77
600.18	98.30
600.34	72.56
600.50	46.81
600.65	65.54
600.81	63.19
600.97	98.30
601.12	152.13
601.28	11.70
601.44	95.96
601.59	0.00
601.75	53.83
601.91	81.92
602.06	79.58
602.22	74.90
602.37	49.15
602.53	9.36
602.69	46.81
602.84	39.79
603.00	65.54
603.16	65.54
603.31	58.51
603.47	79.58
603.62	140.43
603.78	93.62
603.94	86.60
604.09	100.64
604.25	65.54
604.40	65.54
604.56	25.75
604.71	60.85
604.87	112.35
605.03	77.24
605.18	72.56
605.34	18.72
605.49	67.88
605.65	93.62
605.80	65.54
605.96	84.26
606.12	51.49
606.27	98.30
606.43	44.47
606.58	56.17
606.74	84.26
606.89	16.38
607.05	28.09
607.20	0.00
607.36	74.90
607.51	60.85
607.67	72.56
607.82	86.60
607.98	126.39
608.13	49.15
608.29	105.32
608.44	42.13
608.60	100.64
608.75	25.75
608.91	32.77
609.06	72.56
609.22	131.07
609.37	42.13
609.53	91.28
609.68	74.90
609.84	28.09
609.99	65.54
610.15	88.94
610.30	72.56
610.46	93.62
610.61	0.00
610.76	74.90
610.92	112.35
611.07	18.72
611.23	72.56
611.38	135.75
611.54	25.75
611.69	102.98
611.84	39.79
612.00	84.26
612.15	35.11
612.31	60.85
612.46	63.19
612.62	74.90
612.77	72.56
612.92	84.26
613.08	42.13
613.23	110.01
613.39	142.77
613.54	93.62
613.69	42.13
613.85	84.26
614.00	145.11
614.15	102.98
614.31	16.38
614.46	32.77
614.62	58.51
614.77	93.62
614.92	56.17
615.08	95.96
615.23	42.13
615.38	86.60
615.54	72.56
615.69	102.98
615.84	107.66
616.00	88.94
616.15	56.17
616.30	16.38
616.46	37.45
616.61	84.26
616.76	56.17
616.92	63.19
617.07	60.85
617.22	37.45
617.37	28.09
617.53	88.94
617.68	79.58
617.83	4.68
617.99	152.13
618.14	30.43
618.29	39.79
618.45	35.11
618.60	32.77
618.75	124.05
618.90	7.02
619.06	21.06
619.21	100.64
619.36	98.30
619.51	16.38
619.67	44.47
619.82	88.94
619.97	63.19
620.12	56.17
620.28	60.85
620.43	25.75
620.58	135.75
620.73	32.77
620.89	67.88
621.04	81.92
621.19	133.41
621.34	81.92
621.49	79.58
621.65	147.45
621.80	51.49
621.95	77.24
622.10	63.19
622.25	133.41
622.41	65.54
622.56	65.54
622.71	42.13
622.86	74.90
623.01	56.17
623.16	25.75
623.32	56.17
623.47	131.07
623.62	79.58
623.77	95.96
623.92	51.49
624.07	79.58
624.23	105.32
624.38	70.22
624.53	9.36
624.68	65.54
624.83	51.49
624.98	70.22
625.13	65.54
625.29	65.54
625.44	121.71
625.59	86.60
625.74	32.77
625.89	74.90
626.04	18.72
626.19	53.83
626.34	35.11
626.49	84.26
626.65	46.81
626.80	88.94
626.95	105.32
627.10	152.13
627.25	79.58
627.40	30.43
627.55	51.49
627.70	107.66
627.85	63.19
628.00	49.15
628.15	21.06
628.30	35.11
628.45	25.75
628.60	18.72
628.76	46.81
628.91	84.26
629.06	121.71
629.21	7.02
629.36	56.17
629.51	49.15
629.66	98.30
629.81	4.68
629.96	21.06
630.11	32.77
630.26	42.13
630.41	30.43
630.56	67.88
630.71	42.13
630.86	107.66
631.01	72.56
631.16	74.90
631.31	35.11
631.46	51.49
631.61	28.09
631.76	16.38
631.91	72.56
632.06	72.56
632.21	100.64
632.36	32.77
632.51	32.77
632.66	65.54
632.81	28.09
632.96	35.11
633.10	49.15
633.25	63.19
633.40	53.83
633.55	100.64
633.70	14.04
633.85	131.07
634.00	138.09
634.15	88.94
634.30	51.49
634.45	0.00
634.60	58.51
634.75	42.13
634.90	53.83
635.05	98.30
635.19	117.03
635.34	56.17
635.49	138.09
635.64	133.41
635.79	21.06
635.94	91.28
636.09	53.83
636.24	0.00
636.39	60.85
636.53	35.11
636.68	30.43
636.83	25.75
636.98	18.72
637.13	46.81
637.28	133.41
637.43	79.58
637.57	0.00
637.72	74.90
637.87	98.30
638.02	77.24
638.17	77.24
638.32	51.49
638.46	60.85
638.61	86.60
638.76	53.83
638.91	39.79
639.06	51.49
639.20	114.69
639.35	65.54
639.50	84.26
639.65	110.01
639.80	119.37
639.94	46.81
640.09	63.19
640.24	18.72
640.39	79.58
640.54	72.56
640.68	49.15
640.83	14.04
640.98	67.88
641.13	30.43
641.27	119.37
641.42	42.13
641.57	9.36
641.72	60.85
641.86	37.45
642.01	32.77
642.16	112.35
642.31	84.26
642.45	39.79
642.60	53.83
642.75	44.47
642.90	74.90
643.04	135.75
643.19	182.56
643.34	56.17
643.48	0.00
643.63	16.38
643.78	23.41
643.93	2.34
644.07	18.72
644.22	102.98
644.37	23.41
644.51	70.22
644.66	98.30
644.81	93.62
644.95	51.49
645.10	44.47
645.25	100.64
645.39	124.05
645.54	117.03
645.69	44.47
645.83	138.09
645.98	88.94
646.13	23.41
646.27	28.09
646.42	28.09
646.57	56.17
646.71	70.22
646.86	56.17
647.00	23.41
647.15	131.07
647.30	91.28
647.44	56.17
647.59	37.45
647.74	53.83
647.88	58.51
648.03	63.19
648.17	7.02
648.32	95.96
648.47	53.83
648.61	70.22
648.76	16.38
648.90	142.77
649.05	37.45
649.20	149.79
649.34	67.88
649.49	65.54
649.63	49.15
649.78	91.28
649.92	79.58
650.07	88.94
650.21	65.54
650.36	51.49
650.51	72.56
650.65	39.79
650.80	49.15
650.94	0.00
651.09	35.11
651.23	67.88
651.38	37.45
651.52	72.56
651.67	91.28
651.81	91.28
651.96	11.70
652.10	91.28
652.25	81.92
652.39	86.60
652.54	53.83
652.68	37.45
652.83	21.06
652.97	18.72
653.12	88.94
653.26	95.96
653.41	91.28
653.55	23.41
653.70	51.49
653.84	124.05
653.99	67.88
654.13	18.72
654.27	91.28
654.42	0.00
654.56	74.90
654.71	81.92
654.85	0.00
655.00	4.68
655.14	79.58
655.29	2.34
655.43	46.81
655.57	23.41
655.72	60.85
655.86	23.41
656.01	81.92
656.15	44.47
656.30	51.49
656.44	56.17
656.58	121.71
656.73	14.04
656.87	86.60
657.01	11.70
657.16	93.62
657.30	77.24
657.45	51.49
657.59	107.66
657.73	4.68
657.88	39.79
658.02	42.13
658.16	81.92
658.31	91.28
658.45	0.00
658.60	11.70
658.74	9.36
658.88	102.98
659.03	58.51
659.17	119.37
659.31	39.79
659.46	4.68
659.60	4.68
659.74	58.51
659.89	46.81
660.03	18.72
660.17	63.19
660.32	0.00
660.46	70.22
660.60	21.06
660.74	86.60
660.89	63.19
661.03	70.22
661.17	51.49
661.32	72.56
661.46	63.19
661.60	56.17
661.74	72.56
661.89	112.35
662.03	2.34
662.17	23.41
662.31	77.24
662.46	18.72
662.60	21.06
662.74	107.66
662.88	46.81
663.03	0.00
663.17	30.43
663.31	112.35
663.45	65.54
663.60	25.75
663.74	16.38
663.88	74.90
664.02	53.83
664.17	93.62
664.31	30.43
664.45	95.96
664.59	88.94
664.73	46.81
664.88	140.43
665.02	0.00
665.16	91.28
665.30	91.28
665.44	170.86
665.59	0.00
665.73	21.06
665.87	0.00
666.01	70.22
666.15	30.43
666.29	58.51
666.44	30.43
666.58	53.83
666.72	35.11
666.86	77.24
667.00	77.24
667.14	21.06
667.28	70.22
667.43	2.34
667.57	16.38
667.71	65.54
667.85	98.30
667.99	0.00
668.13	30.43
668.27	56.17
668.41	67.88
668.56	44.47
668.70	72.56
668.84	28.09
668.98	53.83
669.12	0.00
669.26	9.36
669.40	128.73
669.54	14.04
669.68	98.30
669.82	32.77
669.96	74.90
670.10	42.13
670.25	9.36
670.39	39.79
670.53	53.83
670.67	105.32
670.81	21.06
670.95	74.90
671.09	88.94
671.23	65.54
671.37	4.68
671.51	53.83
671.65	0.00
671.79	56.17
671.93	105.32
672.07	49.15
672.21	53.83
672.35	21.06
672.49	23.41
672.63	77.24
672.77	49.15
672.91	105.32
673.05	72.56
673.19	11.70
673.33	53.83
673.47	124.05
673.61	42.13
673.75	58.51
673.89	35.11
674.03	0.00
674.17	65.54
674.31	44.47
674.45	0.00
674.59	21.06
674.73	72.56
674.87	53.83
675.01	58.51
675.15	37.45
675.29	0.00
675.43	67.88
675.56	95.96
675.70	30.43
675.84	42.13
675.98	79.58
676.12	32.77
676.26	117.03
676.40	63.19
676.54	81.92
676.68	37.45
676.82	25.75
676.96	0.00
677.10	37.45
677.23	93.62
677.37	60.85
677.51	28.09
677.65	53.83
677.79	4.68
677.93	56.17
678.07	2.34
678.21	44.47
678.34	70.22
678.48	11.70
678.62	4.68
678.76	0.00
678.90	44.47
679.04	70.22
679.18	91.28
679.31	53.83
679.45	88.94
679.59	60.85
679.73	124.05
679.87	91.28
680.00	37.45
680.14	23.41
680.28	42.13
680.42	42.13
680.56	14.04
680.70	49.15
680.83	35.11
680.97	14.04
681.11	49.15
681.25	11.70
681.39	0.00
681.52	25.75
681.66	0.00
681.80	93.62
681.94	32.77
682.07	14.04
682.21	35.11
682.35	65.54
682.49	2.34
682.62	84.26
682.76	25.75
682.90	42.13
683.04	28.09
683.17	18.72
683.31	35.11
683.45	51.49
683.59	60.85
683.72	44.47
683.86	25.75
684.00	23.41
684.13	0.00
684.27	56.17
684.41	0.00
684.55	79.58
684.68	35.11
684.82	117.03
684.96	56.17
685.09	58.51
685.23	9.36
685.37	98.30
685.50	60.85
685.64	70.22
685.78	39.79
685.91	51.49
686.05	72.56
686.19	70.22
686.32	91.28
686.46	0.00
686.60	30.43
686.73	37.45
686.87	44.47
687.01	98.30
687.14	56.17
687.28	81.92
687.42	35.11
687.55	0.00
687.69	126.39
687.82	14.04
687.96	21.06
688.10	25.75
688.23	9.36
688.37	37.45
688.50	51.49
688.64	81.92
688.78	74.90
688.91	9.36
689.05	49.15
689.18	81.92
689.32	7.02
689.46	37.45
689.59	51.49
689.73	121.71
689.86	70.22
690.00	86.60
690.13	46.81
690.27	49.15
690.41	60.85
690.54	35.11
690.68	21.06
690.81	51.49
690.95	44.47
691.08	0.00
691.22	105.32
691.35	81.92
691.49	58.51
691.62	67.88
691.76	37.45
691.89	0.00
692.03	23.41
692.16	65.54
692.30	0.00
692.43	100.64
692.57	39.79
692.70	60.85
692.84	51.49
692.97	110.01
693.11	18.72
693.24	49.15
693.38	98.30
693.51	37.45
693.65	44.47
693.78	30.43
693.92	39.79
694.05	53.83
694.19	49.15
694.32	0.00
694.45	0.00
694.59	107.66
694.72	42.13
694.86	32.77
694.99	156.82
695.13	53.83
695.26	39.79
695.39	44.47
695.53	79.58
695.66	0.00
695.80	23.41
695.93	51.49
696.07	72.56
696.20	56.17
696.33	124.05
696.47	7.02
696.60	114.69
696.73	46.81
696.87	0.00
697.00	56.17
697.14	67.88
697.27	60.85
697.40	140.43
697.54	126.39
697.67	18.72
697.80	14.04
697.94	110.01
698.07	21.06
698.21	44.47
698.34	119.37
698.47	0.00
698.61	39.79
698.74	18.72
698.87	18.72
699.01	21.06
699.14	0.00
699.27	56.17
699.40	93.62
699.54	63.19
699.67	16.38
699.80	63.19
699.94	98.30
700.07	53.83
700.20	65.54
700.34	121.71
700.47	0.00
700.60	35.11
700.73	67.88
700.87	2.34
701.00	77.24
701.13	9.36
701.26	42.13
701.40	32.77
701.53	37.45
701.66	28.09
701.79	44.47
701.93	9.36
702.06	21.06
702.19	86.60
702.32	51.49
702.46	49.15
702.59	25.75
702.72	58.51
702.85	0.00
702.99	0.00
703.12	117.03
703.25	53.83
703.38	4.68
703.51	0.00
703.65	58.51
703.78	25.75
703.91	46.81
704.04	60.85
704.17	28.09
704.31	84.26
704.44	30.43
704.57	0.00
704.70	35.11
704.83	110.01
704.96	4.68
705.10	23.41
705.23	0.00
>>>>>End Processed Spectral Data<<<<<
