SpectraSuite Data File
++++++++++++++++++++++++++++++++++++
Date: Fri Oct 04 12:13:26 GMT-05:00 2013
User: price-jones
Dark Spectrum Present: No
Reference Spectrum Present: No
Number of Sampled Component Spectra: 1
Spectrometers: USB2+H05261
Integration Time (usec): 10000 (USB2+H05261)
Spectra Averaged: 1 (USB2+H05261)
Boxcar Smoothing: 0 (USB2+H05261)
Correct for Electrical Dark: No (USB2+H05261)
Strobe/Lamp Enabled: No (USB2+H05261)
Correct for Detector Non-linearity: No (USB2+H05261)
Correct for Stray Light: No (USB2+H05261)
Number of Pixels in Processed Spectrum: 2048
>>>>>Begin Processed Spectral Data<<<<<
365.73	0.00
365.92	0.00
366.12	0.00
366.32	0.00
366.52	0.00
366.72	0.00
366.91	0.00
367.11	0.00
367.31	0.00
367.51	0.00
367.70	0.00
367.90	0.00
368.10	0.00
368.30	0.00
368.49	0.00
368.69	0.00
368.89	0.00
369.09	0.00
369.28	0.00
369.48	0.00
369.68	0.00
369.87	0.00
370.07	0.00
370.27	0.00
370.47	0.00
370.66	0.00
370.86	0.00
371.06	0.00
371.25	0.00
371.45	0.00
371.65	0.00
371.84	42.13
372.04	0.00
372.24	0.00
372.44	0.00
372.63	18.72
372.83	0.00
373.03	112.35
373.22	11.70
373.42	18.72
373.62	49.15
373.81	9.36
374.01	11.70
374.21	23.41
374.40	0.00
374.60	28.09
374.79	32.77
374.99	0.00
375.19	7.02
375.38	72.56
375.58	0.00
375.78	65.54
375.97	65.54
376.17	0.00
376.37	72.56
376.56	46.81
376.76	44.47
376.95	51.49
377.15	2.34
377.35	0.00
377.54	11.70
377.74	0.00
377.93	21.06
378.13	35.11
378.33	0.00
378.52	0.00
378.72	18.72
378.91	72.56
379.11	7.02
379.31	2.34
379.50	0.00
379.70	0.00
379.89	0.00
380.09	35.11
380.28	0.00
380.48	0.00
380.68	0.00
380.87	0.00
381.07	0.00
381.26	7.02
381.46	56.17
381.65	0.00
381.85	51.49
382.04	0.00
382.24	42.13
382.43	0.00
382.63	0.00
382.83	67.88
383.02	32.77
383.22	30.43
383.41	4.68
383.61	37.45
383.80	0.00
384.00	11.70
384.19	39.79
384.39	4.68
384.58	56.17
384.78	25.75
384.97	2.34
385.17	0.00
385.36	11.70
385.56	0.00
385.75	56.17
385.95	0.00
386.14	0.00
386.34	0.00
386.53	14.04
386.72	9.36
386.92	93.62
387.11	25.75
387.31	46.81
387.50	49.15
387.70	0.00
387.89	28.09
388.09	0.00
388.28	0.00
388.48	11.70
388.67	100.64
388.86	21.06
389.06	0.00
389.25	0.00
389.45	65.54
389.64	42.13
389.84	2.34
390.03	86.60
390.22	0.00
390.42	11.70
390.61	35.11
390.81	0.00
391.00	0.00
391.19	0.00
391.39	28.09
391.58	0.00
391.78	0.00
391.97	39.79
392.16	77.24
392.36	30.43
392.55	0.00
392.75	7.02
392.94	9.36
393.13	30.43
393.33	23.41
393.52	4.68
393.71	0.00
393.91	65.54
394.10	9.36
394.29	14.04
394.49	0.00
394.68	28.09
394.88	0.00
395.07	0.00
395.26	25.75
395.46	14.04
395.65	23.41
395.84	30.43
396.04	51.49
396.23	0.00
396.42	0.00
396.62	18.72
396.81	72.56
397.00	44.47
397.19	60.85
397.39	65.54
397.58	0.00
397.77	0.00
397.97	35.11
398.16	30.43
398.35	60.85
398.55	0.00
398.74	49.15
398.93	0.00
399.12	39.79
399.32	2.34
399.51	11.70
399.70	0.00
399.90	0.00
400.09	32.77
400.28	93.62
400.47	131.07
400.67	44.47
400.86	0.00
401.05	0.00
401.24	28.09
401.44	25.75
401.63	0.00
401.82	86.60
402.01	14.04
402.21	0.00
402.40	21.06
402.59	25.75
402.78	0.00
402.97	0.00
403.17	63.19
403.36	28.09
403.55	0.00
403.74	81.92
403.93	14.04
404.13	11.70
404.32	32.77
404.51	91.28
404.70	39.79
404.89	42.13
405.09	79.58
405.28	51.49
405.47	79.58
405.66	18.72
405.85	0.00
406.05	46.81
406.24	9.36
406.43	11.70
406.62	44.47
406.81	60.85
407.00	88.94
407.20	124.05
407.39	2.34
407.58	23.41
407.77	74.90
407.96	30.43
408.15	60.85
408.34	0.00
408.54	0.00
408.73	9.36
408.92	0.00
409.11	14.04
409.30	65.54
409.49	0.00
409.68	16.38
409.87	25.75
410.07	0.00
410.26	0.00
410.45	16.38
410.64	44.47
410.83	0.00
411.02	23.41
411.21	100.64
411.40	77.24
411.59	2.34
411.78	56.17
411.98	42.13
412.17	0.00
412.36	0.00
412.55	81.92
412.74	56.17
412.93	11.70
413.12	18.72
413.31	49.15
413.50	2.34
413.69	67.88
413.88	105.32
414.07	23.41
414.26	56.17
414.45	0.00
414.64	32.77
414.83	18.72
415.02	37.45
415.22	60.85
415.41	0.00
415.60	35.11
415.79	0.00
415.98	46.81
416.17	0.00
416.36	11.70
416.55	0.00
416.74	0.00
416.93	32.77
417.12	91.28
417.31	35.11
417.50	0.00
417.69	18.72
417.88	0.00
418.07	0.00
418.26	51.49
418.45	60.85
418.64	0.00
418.83	23.41
419.02	23.41
419.21	9.36
419.39	0.00
419.58	60.85
419.77	2.34
419.96	51.49
420.15	9.36
420.34	25.75
420.53	53.83
420.72	91.28
420.91	42.13
421.10	9.36
421.29	39.79
421.48	100.64
421.67	53.83
421.86	32.77
422.05	23.41
422.24	58.51
422.43	28.09
422.61	21.06
422.80	7.02
422.99	32.77
423.18	4.68
423.37	53.83
423.56	42.13
423.75	0.00
423.94	65.54
424.13	39.79
424.32	65.54
424.50	9.36
424.69	25.75
424.88	30.43
425.07	49.15
425.26	51.49
425.45	63.19
425.64	74.90
425.83	11.70
426.01	0.00
426.20	4.68
426.39	11.70
426.58	60.85
426.77	93.62
426.96	53.83
427.15	18.72
427.33	70.22
427.52	46.81
427.71	67.88
427.90	0.00
428.09	0.00
428.28	60.85
428.46	18.72
428.65	70.22
428.84	0.00
429.03	63.19
429.22	58.51
429.40	0.00
429.59	30.43
429.78	0.00
429.97	60.85
430.16	4.68
430.34	30.43
430.53	2.34
430.72	0.00
430.91	0.00
431.10	32.77
431.28	0.00
431.47	58.51
431.66	67.88
431.85	42.13
432.03	88.94
432.22	0.00
432.41	0.00
432.60	42.13
432.79	65.54
432.97	70.22
433.16	77.24
433.35	14.04
433.54	39.79
433.72	65.54
433.91	4.68
434.10	0.00
434.28	14.04
434.47	49.15
434.66	0.00
434.85	46.81
435.03	39.79
435.22	65.54
435.41	84.26
435.59	58.51
435.78	0.00
435.97	0.00
436.16	14.04
436.34	46.81
436.53	16.38
436.72	91.28
436.90	42.13
437.09	49.15
437.28	84.26
437.46	67.88
437.65	0.00
437.84	58.51
438.02	44.47
438.21	56.17
438.40	102.98
438.58	46.81
438.77	25.75
438.96	0.00
439.14	44.47
439.33	37.45
439.52	7.02
439.70	9.36
439.89	0.00
440.08	65.54
440.26	32.77
440.45	63.19
440.63	2.34
440.82	39.79
441.01	0.00
441.19	0.00
441.38	35.11
441.57	28.09
441.75	32.77
441.94	0.00
442.12	11.70
442.31	35.11
442.50	32.77
442.68	0.00
442.87	0.00
443.05	44.47
443.24	14.04
443.43	67.88
443.61	0.00
443.80	28.09
443.98	102.98
444.17	21.06
444.35	49.15
444.54	18.72
444.73	0.00
444.91	35.11
445.10	14.04
445.28	23.41
445.47	72.56
445.65	56.17
445.84	25.75
446.02	42.13
446.21	32.77
446.39	44.47
446.58	9.36
446.77	4.68
446.95	67.88
447.14	67.88
447.32	53.83
447.51	63.19
447.69	2.34
447.88	0.00
448.06	11.70
448.25	30.43
448.43	21.06
448.62	67.88
448.80	39.79
448.99	4.68
449.17	9.36
449.36	0.00
449.54	49.15
449.73	35.11
449.91	32.77
450.10	32.77
450.28	28.09
450.46	74.90
450.65	117.03
450.83	9.36
451.02	0.00
451.20	98.30
451.39	0.00
451.57	28.09
451.76	77.24
451.94	30.43
452.13	126.39
452.31	70.22
452.49	56.17
452.68	28.09
452.86	37.45
453.05	58.51
453.23	7.02
453.42	58.51
453.60	44.47
453.78	0.00
453.97	2.34
454.15	0.00
454.34	74.90
454.52	44.47
454.70	39.79
454.89	63.19
455.07	42.13
455.26	51.49
455.44	0.00
455.62	0.00
455.81	86.60
455.99	0.00
456.17	51.49
456.36	9.36
456.54	74.90
456.73	18.72
456.91	0.00
457.09	81.92
457.28	23.41
457.46	42.13
457.64	25.75
457.83	0.00
458.01	18.72
458.19	56.17
458.38	0.00
458.56	23.41
458.74	2.34
458.93	23.41
459.11	7.02
459.29	21.06
459.48	70.22
459.66	35.11
459.84	79.58
460.03	42.13
460.21	23.41
460.39	84.26
460.57	0.00
460.76	30.43
460.94	56.17
461.12	25.75
461.31	58.51
461.49	0.00
461.67	4.68
461.85	0.00
462.04	0.00
462.22	128.73
462.40	23.41
462.59	58.51
462.77	100.64
462.95	63.19
463.13	100.64
463.32	0.00
463.50	25.75
463.68	70.22
463.86	25.75
464.05	91.28
464.23	35.11
464.41	42.13
464.59	32.77
464.78	67.88
464.96	39.79
465.14	65.54
465.32	9.36
465.50	30.43
465.69	18.72
465.87	44.47
466.05	16.38
466.23	91.28
466.41	23.41
466.60	56.17
466.78	49.15
466.96	30.43
467.14	79.58
467.32	39.79
467.51	60.85
467.69	44.47
467.87	30.43
468.05	9.36
468.23	84.26
468.41	44.47
468.60	46.81
468.78	11.70
468.96	21.06
469.14	2.34
469.32	23.41
469.50	100.64
469.69	37.45
469.87	0.00
470.05	0.00
470.23	23.41
470.41	23.41
470.59	32.77
470.77	0.00
470.95	84.26
471.14	4.68
471.32	30.43
471.50	7.02
471.68	67.88
471.86	39.79
472.04	72.56
472.22	30.43
472.40	70.22
472.58	67.88
472.77	126.39
472.95	14.04
473.13	60.85
473.31	2.34
473.49	25.75
473.67	32.77
473.85	42.13
474.03	93.62
474.21	0.00
474.39	98.30
474.57	32.77
474.75	18.72
474.93	0.00
475.12	0.00
475.30	2.34
475.48	86.60
475.66	0.00
475.84	21.06
476.02	46.81
476.20	37.45
476.38	0.00
476.56	11.70
476.74	32.77
476.92	21.06
477.10	58.51
477.28	0.00
477.46	25.75
477.64	28.09
477.82	63.19
478.00	35.11
478.18	74.90
478.36	28.09
478.54	58.51
478.72	0.00
478.90	14.04
479.08	91.28
479.26	58.51
479.44	77.24
479.62	53.83
479.80	32.77
479.98	67.88
480.16	0.00
480.34	18.72
480.52	32.77
480.70	63.19
480.88	72.56
481.06	0.00
481.24	65.54
481.41	32.77
481.59	25.75
481.77	21.06
481.95	42.13
482.13	14.04
482.31	0.00
482.49	25.75
482.67	86.60
482.85	16.38
483.03	152.13
483.21	23.41
483.39	35.11
483.57	0.00
483.74	119.37
483.92	9.36
484.10	37.45
484.28	86.60
484.46	56.17
484.64	21.06
484.82	25.75
485.00	93.62
485.18	0.00
485.35	30.43
485.53	14.04
485.71	86.60
485.89	126.39
486.07	32.77
486.25	60.85
486.43	58.51
486.61	56.17
486.78	77.24
486.96	0.00
487.14	42.13
487.32	23.41
487.50	37.45
487.68	79.58
487.85	72.56
488.03	44.47
488.21	2.34
488.39	14.04
488.57	18.72
488.75	39.79
488.92	121.71
489.10	79.58
489.28	53.83
489.46	102.98
489.64	42.13
489.81	4.68
489.99	63.19
490.17	44.47
490.35	0.00
490.53	91.28
490.70	35.11
490.88	37.45
491.06	51.49
491.24	32.77
491.41	70.22
491.59	28.09
491.77	37.45
491.95	9.36
492.13	53.83
492.30	46.81
492.48	72.56
492.66	42.13
492.84	23.41
493.01	46.81
493.19	77.24
493.37	0.00
493.54	42.13
493.72	100.64
493.90	0.00
494.08	53.83
494.25	98.30
494.43	9.36
494.61	25.75
494.79	46.81
494.96	14.04
495.14	32.77
495.32	81.92
495.49	9.36
495.67	14.04
495.85	79.58
496.02	28.09
496.20	84.26
496.38	58.51
496.55	21.06
496.73	46.81
496.91	0.00
497.09	35.11
497.26	39.79
497.44	42.13
497.62	9.36
497.79	32.77
497.97	32.77
498.14	11.70
498.32	11.70
498.50	77.24
498.67	51.49
498.85	39.79
499.03	70.22
499.20	63.19
499.38	35.11
499.56	67.88
499.73	93.62
499.91	39.79
500.08	63.19
500.26	56.17
500.44	25.75
500.61	0.00
500.79	23.41
500.97	0.00
501.14	44.47
501.32	98.30
501.49	0.00
501.67	77.24
501.84	32.77
502.02	30.43
502.20	18.72
502.37	53.83
502.55	63.19
502.72	79.58
502.90	30.43
503.07	46.81
503.25	81.92
503.43	56.17
503.60	16.38
503.78	37.45
503.95	9.36
504.13	30.43
504.30	4.68
504.48	11.70
504.65	35.11
504.83	93.62
505.01	110.01
505.18	11.70
505.36	91.28
505.53	60.85
505.71	44.47
505.88	46.81
506.06	53.83
506.23	65.54
506.41	107.66
506.58	81.92
506.76	0.00
506.93	44.47
507.11	67.88
507.28	4.68
507.46	4.68
507.63	56.17
507.81	98.30
507.98	56.17
508.16	4.68
508.33	18.72
508.50	0.00
508.68	0.00
508.85	42.13
509.03	4.68
509.20	67.88
509.38	42.13
509.55	35.11
509.73	72.56
509.90	9.36
510.08	18.72
510.25	11.70
510.42	67.88
510.60	44.47
510.77	14.04
510.95	72.56
511.12	107.66
511.30	42.13
511.47	0.00
511.64	56.17
511.82	0.00
511.99	0.00
512.17	35.11
512.34	60.85
512.51	30.43
512.69	18.72
512.86	39.79
513.04	49.15
513.21	28.09
513.38	63.19
513.56	0.00
513.73	14.04
513.90	51.49
514.08	72.56
514.25	2.34
514.43	0.00
514.60	0.00
514.77	60.85
514.95	0.00
515.12	44.47
515.29	67.88
515.47	32.77
515.64	117.03
515.81	95.96
515.99	56.17
516.16	0.00
516.33	21.06
516.51	0.00
516.68	0.00
516.85	53.83
517.03	0.00
517.20	100.64
517.37	58.51
517.54	7.02
517.72	11.70
517.89	46.81
518.06	70.22
518.24	114.69
518.41	21.06
518.58	39.79
518.75	63.19
518.93	18.72
519.10	56.17
519.27	28.09
519.45	0.00
519.62	32.77
519.79	65.54
519.96	37.45
520.14	77.24
520.31	63.19
520.48	70.22
520.65	53.83
520.83	35.11
521.00	124.05
521.17	42.13
521.34	16.38
521.52	147.45
521.69	37.45
521.86	72.56
522.03	32.77
522.20	65.54
522.38	14.04
522.55	42.13
522.72	53.83
522.89	4.68
523.07	0.00
523.24	23.41
523.41	0.00
523.58	32.77
523.75	35.11
523.92	60.85
524.10	74.90
524.27	72.56
524.44	0.00
524.61	0.00
524.78	0.00
524.96	102.98
525.13	56.17
525.30	18.72
525.47	84.26
525.64	72.56
525.81	77.24
525.98	119.37
526.16	42.13
526.33	4.68
526.50	39.79
526.67	93.62
526.84	81.92
527.01	18.72
527.18	2.34
527.36	35.11
527.53	37.45
527.70	42.13
527.87	39.79
528.04	100.64
528.21	0.00
528.38	65.54
528.55	23.41
528.72	14.04
528.89	60.85
529.07	95.96
529.24	51.49
529.41	74.90
529.58	16.38
529.75	39.79
529.92	37.45
530.09	35.11
530.26	152.13
530.43	4.68
530.60	79.58
530.77	81.92
530.94	63.19
531.11	88.94
531.28	60.85
531.46	86.60
531.63	35.11
531.80	0.00
531.97	63.19
532.14	14.04
532.31	42.13
532.48	60.85
532.65	2.34
532.82	14.04
532.99	0.00
533.16	65.54
533.33	84.26
533.50	18.72
533.67	51.49
533.84	102.98
534.01	28.09
534.18	2.34
534.35	84.26
534.52	67.88
534.69	65.54
534.86	0.00
535.03	56.17
535.20	60.85
535.37	70.22
535.54	42.13
535.71	7.02
535.88	9.36
536.05	0.00
536.22	30.43
536.38	4.68
536.55	0.00
536.72	0.00
536.89	88.94
537.06	70.22
537.23	79.58
537.40	67.88
537.57	0.00
537.74	0.00
537.91	18.72
538.08	95.96
538.25	84.26
538.42	102.98
538.59	2.34
538.75	21.06
538.92	91.28
539.09	114.69
539.26	79.58
539.43	9.36
539.60	39.79
539.77	138.09
539.94	51.49
540.11	72.56
540.28	49.15
540.44	0.00
540.61	11.70
540.78	9.36
540.95	30.43
541.12	42.13
541.29	44.47
541.46	2.34
541.62	39.79
541.79	2.34
541.96	0.00
542.13	72.56
542.30	0.00
542.47	60.85
542.63	128.73
542.80	100.64
542.97	0.00
543.14	0.00
543.31	4.68
543.48	42.13
543.64	18.72
543.81	25.75
543.98	0.00
544.15	16.38
544.32	44.47
544.48	0.00
544.65	0.00
544.82	30.43
544.99	49.15
545.16	42.13
545.32	0.00
545.49	42.13
545.66	14.04
545.83	51.49
546.00	39.79
546.16	70.22
546.33	9.36
546.50	25.75
546.67	25.75
546.83	18.72
547.00	86.60
547.17	21.06
547.34	0.00
547.50	42.13
547.67	51.49
547.84	0.00
548.00	70.22
548.17	70.22
548.34	86.60
548.51	58.51
548.67	42.13
548.84	105.32
549.01	30.43
549.18	72.56
549.34	51.49
549.51	77.24
549.68	79.58
549.84	18.72
550.01	0.00
550.18	49.15
550.34	56.17
550.51	84.26
550.68	25.75
550.84	42.13
551.01	18.72
551.18	14.04
551.34	91.28
551.51	46.81
551.68	16.38
551.84	16.38
552.01	42.13
552.18	18.72
552.34	35.11
552.51	77.24
552.68	32.77
552.84	35.11
553.01	58.51
553.18	9.36
553.34	46.81
553.51	119.37
553.67	4.68
553.84	0.00
554.01	32.77
554.17	35.11
554.34	39.79
554.51	110.01
554.67	25.75
554.84	105.32
555.00	0.00
555.17	49.15
555.33	7.02
555.50	149.79
555.67	49.15
555.83	30.43
556.00	4.68
556.16	9.36
556.33	0.00
556.50	93.62
556.66	49.15
556.83	86.60
556.99	58.51
557.16	74.90
557.32	28.09
557.49	114.69
557.65	46.81
557.82	67.88
557.98	39.79
558.15	84.26
558.32	84.26
558.48	42.13
558.65	77.24
558.81	4.68
558.98	95.96
559.14	14.04
559.31	51.49
559.47	86.60
559.64	42.13
559.80	23.41
559.97	79.58
560.13	60.85
560.30	0.00
560.46	51.49
560.63	65.54
560.79	25.75
560.96	77.24
561.12	0.00
561.29	46.81
561.45	72.56
561.61	84.26
561.78	23.41
561.94	88.94
562.11	65.54
562.27	16.38
562.44	0.00
562.60	0.00
562.77	58.51
562.93	0.00
563.10	18.72
563.26	112.35
563.42	0.00
563.59	21.06
563.75	0.00
563.92	16.38
564.08	46.81
564.24	74.90
564.41	18.72
564.57	9.36
564.74	0.00
564.90	9.36
565.07	4.68
565.23	53.83
565.39	0.00
565.56	32.77
565.72	65.54
565.88	74.90
566.05	21.06
566.21	56.17
566.38	0.00
566.54	72.56
566.70	49.15
566.87	37.45
567.03	70.22
567.19	100.64
567.36	37.45
567.52	56.17
567.68	16.38
567.85	42.13
568.01	53.83
568.17	93.62
568.34	42.13
568.50	67.88
568.66	44.47
568.83	170.86
568.99	23.41
569.15	102.98
569.32	35.11
569.48	65.54
569.64	112.35
569.81	0.00
569.97	2.34
570.13	86.60
570.30	39.79
570.46	58.51
570.62	2.34
570.78	0.00
570.95	0.00
571.11	25.75
571.27	39.79
571.43	18.72
571.60	67.88
571.76	72.56
571.92	44.47
572.09	44.47
572.25	0.00
572.41	35.11
572.57	0.00
572.74	44.47
572.90	14.04
573.06	63.19
573.22	126.39
573.38	30.43
573.55	0.00
573.71	60.85
573.87	0.00
574.03	58.51
574.20	110.01
574.36	91.28
574.52	81.92
574.68	49.15
574.84	81.92
575.01	46.81
575.17	49.15
575.33	95.96
575.49	4.68
575.65	56.17
575.82	4.68
575.98	51.49
576.14	100.64
576.30	39.79
576.46	0.00
576.62	37.45
576.79	4.68
576.95	77.24
577.11	102.98
577.27	58.51
577.43	112.35
577.59	35.11
577.75	7.02
577.92	0.00
578.08	60.85
578.24	0.00
578.40	30.43
578.56	28.09
578.72	63.19
578.88	51.49
579.04	32.77
579.21	28.09
579.37	23.41
579.53	131.07
579.69	30.43
579.85	100.64
580.01	60.85
580.17	44.47
580.33	60.85
580.49	0.00
580.65	65.54
580.82	93.62
580.98	58.51
581.14	14.04
581.30	11.70
581.46	0.00
581.62	30.43
581.78	16.38
581.94	42.13
582.10	63.19
582.26	4.68
582.42	79.58
582.58	0.00
582.74	60.85
582.90	145.11
583.06	53.83
583.22	46.81
583.38	14.04
583.54	11.70
583.70	2.34
583.86	39.79
584.02	77.24
584.18	46.81
584.34	95.96
584.50	138.09
584.66	0.00
584.82	86.60
584.98	14.04
585.14	88.94
585.30	9.36
585.46	105.32
585.62	81.92
585.78	37.45
585.94	42.13
586.10	0.00
586.26	30.43
586.42	58.51
586.58	0.00
586.74	72.56
586.90	91.28
587.06	7.02
587.22	79.58
587.38	63.19
587.54	28.09
587.70	21.06
587.86	105.32
588.02	7.02
588.18	35.11
588.34	0.00
588.49	18.72
588.65	2.34
588.81	0.00
588.97	72.56
589.13	14.04
589.29	39.79
589.45	25.75
589.61	0.00
589.77	86.60
589.93	100.64
590.08	4.68
590.24	16.38
590.40	72.56
590.56	100.64
590.72	23.41
590.88	4.68
591.04	4.68
591.20	56.17
591.35	25.75
591.51	0.00
591.67	95.96
591.83	7.02
591.99	25.75
592.15	0.00
592.31	0.00
592.46	0.00
592.62	58.51
592.78	0.00
592.94	44.47
593.10	114.69
593.26	28.09
593.41	23.41
593.57	84.26
593.73	53.83
593.89	16.38
594.05	0.00
594.20	53.83
594.36	110.01
594.52	100.64
594.68	60.85
594.84	53.83
594.99	112.35
595.15	28.09
595.31	58.51
595.47	46.81
595.62	67.88
595.78	0.00
595.94	7.02
596.10	60.85
596.25	58.51
596.41	77.24
596.57	67.88
596.73	46.81
596.88	2.34
597.04	49.15
597.20	4.68
597.36	23.41
597.51	28.09
597.67	7.02
597.83	30.43
597.99	63.19
598.14	25.75
598.30	0.00
598.46	63.19
598.61	35.11
598.77	56.17
598.93	30.43
599.09	37.45
599.24	9.36
599.40	0.00
599.56	7.02
599.71	44.47
599.87	51.49
600.03	11.70
600.18	119.37
600.34	18.72
600.50	0.00
600.65	7.02
600.81	35.11
600.97	0.00
601.12	23.41
601.28	2.34
601.44	46.81
601.59	23.41
601.75	42.13
601.91	25.75
602.06	32.77
602.22	112.35
602.37	98.30
602.53	0.00
602.69	0.00
602.84	0.00
603.00	0.00
603.16	9.36
603.31	46.81
603.47	67.88
603.62	35.11
603.78	25.75
603.94	32.77
604.09	44.47
604.25	91.28
604.40	46.81
604.56	11.70
604.71	35.11
604.87	0.00
605.03	0.00
605.18	74.90
605.34	84.26
605.49	18.72
605.65	37.45
605.80	58.51
605.96	0.00
606.12	0.00
606.27	0.00
606.43	35.11
606.58	95.96
606.74	77.24
606.89	102.98
607.05	79.58
607.20	119.37
607.36	35.11
607.51	2.34
607.67	7.02
607.82	35.11
607.98	65.54
608.13	65.54
608.29	35.11
608.44	0.00
608.60	37.45
608.75	58.51
608.91	77.24
609.06	70.22
609.22	32.77
609.37	28.09
609.53	21.06
609.68	110.01
609.84	60.85
609.99	14.04
610.15	58.51
610.30	49.15
610.46	51.49
610.61	0.00
610.76	51.49
610.92	30.43
611.07	42.13
611.23	58.51
611.38	2.34
611.54	74.90
611.69	0.00
611.84	2.34
612.00	28.09
612.15	51.49
612.31	60.85
612.46	0.00
612.62	21.06
612.77	58.51
612.92	28.09
613.08	70.22
613.23	124.05
613.39	0.00
613.54	79.58
613.69	70.22
613.85	65.54
614.00	74.90
614.15	9.36
614.31	81.92
614.46	0.00
614.62	72.56
614.77	21.06
614.92	0.00
615.08	23.41
615.23	79.58
615.38	51.49
615.54	49.15
615.69	70.22
615.84	0.00
616.00	44.47
616.15	60.85
616.30	23.41
616.46	79.58
616.61	32.77
616.76	49.15
616.92	63.19
617.07	0.00
617.22	0.00
617.37	60.85
617.53	39.79
617.68	79.58
617.83	42.13
617.99	98.30
618.14	42.13
618.29	51.49
618.45	79.58
618.60	25.75
618.75	56.17
618.90	88.94
619.06	44.47
619.21	0.00
619.36	56.17
619.51	28.09
619.67	35.11
619.82	81.92
619.97	37.45
620.12	0.00
620.28	32.77
620.43	72.56
620.58	18.72
620.73	0.00
620.89	0.00
621.04	28.09
621.19	21.06
621.34	23.41
621.49	37.45
621.65	35.11
621.80	65.54
621.95	0.00
622.10	28.09
622.25	0.00
622.41	60.85
622.56	0.00
622.71	63.19
622.86	60.85
623.01	32.77
623.16	51.49
623.32	91.28
623.47	65.54
623.62	39.79
623.77	84.26
623.92	56.17
624.07	0.00
624.23	77.24
624.38	30.43
624.53	79.58
624.68	4.68
624.83	39.79
624.98	7.02
625.13	18.72
625.29	9.36
625.44	49.15
625.59	56.17
625.74	56.17
625.89	63.19
626.04	0.00
626.19	91.28
626.34	7.02
626.49	95.96
626.65	0.00
626.80	0.00
626.95	37.45
627.10	60.85
627.25	0.00
627.40	86.60
627.55	0.00
627.70	72.56
627.85	42.13
628.00	0.00
628.15	7.02
628.30	25.75
628.45	7.02
628.60	0.00
628.76	0.00
628.91	0.00
629.06	16.38
629.21	51.49
629.36	51.49
629.51	14.04
629.66	0.00
629.81	11.70
629.96	42.13
630.11	4.68
630.26	46.81
630.41	0.00
630.56	37.45
630.71	51.49
630.86	44.47
631.01	0.00
631.16	4.68
631.31	23.41
631.46	88.94
631.61	65.54
631.76	67.88
631.91	46.81
632.06	114.69
632.21	0.00
632.36	21.06
632.51	46.81
632.66	2.34
632.81	0.00
632.96	39.79
633.10	0.00
633.25	84.26
633.40	4.68
633.55	35.11
633.70	39.79
633.85	56.17
634.00	23.41
634.15	46.81
634.30	72.56
634.45	51.49
634.60	72.56
634.75	0.00
634.90	23.41
635.05	16.38
635.19	121.71
635.34	102.98
635.49	21.06
635.64	51.49
635.79	60.85
635.94	74.90
636.09	67.88
636.24	30.43
636.39	98.30
636.53	56.17
636.68	0.00
636.83	60.85
636.98	72.56
637.13	81.92
637.28	63.19
637.43	0.00
637.57	0.00
637.72	60.85
637.87	14.04
638.02	42.13
638.17	0.00
638.32	93.62
638.46	58.51
638.61	81.92
638.76	39.79
638.91	107.66
639.06	49.15
639.20	0.00
639.35	32.77
639.50	65.54
639.65	42.13
639.80	2.34
639.94	91.28
640.09	28.09
640.24	44.47
640.39	72.56
640.54	0.00
640.68	81.92
640.83	58.51
640.98	11.70
641.13	9.36
641.27	65.54
641.42	91.28
641.57	51.49
641.72	42.13
641.86	21.06
642.01	28.09
642.16	0.00
642.31	39.79
642.45	0.00
642.60	37.45
642.75	49.15
642.90	42.13
643.04	11.70
643.19	0.00
643.34	0.00
643.48	112.35
643.63	30.43
643.78	35.11
643.93	67.88
644.07	0.00
644.22	0.00
644.37	51.49
644.51	4.68
644.66	21.06
644.81	11.70
644.95	74.90
645.10	35.11
645.25	107.66
645.39	60.85
645.54	0.00
645.69	11.70
645.83	133.41
645.98	67.88
646.13	4.68
646.27	0.00
646.42	23.41
646.57	0.00
646.71	14.04
646.86	86.60
647.00	67.88
647.15	44.47
647.30	9.36
647.44	23.41
647.59	0.00
647.74	32.77
647.88	0.00
648.03	88.94
648.17	23.41
648.32	2.34
648.47	18.72
648.61	77.24
648.76	30.43
648.90	14.04
649.05	39.79
649.20	2.34
649.34	28.09
649.49	0.00
649.63	128.73
649.78	58.51
649.92	0.00
650.07	93.62
650.21	58.51
650.36	84.26
650.51	0.00
650.65	21.06
650.80	14.04
650.94	42.13
651.09	112.35
651.23	77.24
651.38	0.00
651.52	18.72
651.67	67.88
651.81	86.60
651.96	65.54
652.10	30.43
652.25	14.04
652.39	65.54
652.54	42.13
652.68	0.00
652.83	0.00
652.97	100.64
653.12	21.06
653.26	39.79
653.41	9.36
653.55	0.00
653.70	37.45
653.84	91.28
653.99	58.51
654.13	0.00
654.27	37.45
654.42	37.45
654.56	65.54
654.71	37.45
654.85	110.01
655.00	11.70
655.14	11.70
655.29	28.09
655.43	70.22
655.57	93.62
655.72	0.00
655.86	56.17
656.01	0.00
656.15	0.00
656.30	30.43
656.44	14.04
656.58	39.79
656.73	0.00
656.87	0.00
657.01	88.94
657.16	100.64
657.30	84.26
657.45	39.79
657.59	25.75
657.73	65.54
657.88	56.17
658.02	58.51
658.16	58.51
658.31	2.34
658.45	74.90
658.60	16.38
658.74	67.88
658.88	16.38
659.03	16.38
659.17	58.51
659.31	18.72
659.46	65.54
659.60	0.00
659.74	0.00
659.89	0.00
660.03	28.09
660.17	140.43
660.32	77.24
660.46	0.00
660.60	0.00
660.74	35.11
660.89	84.26
661.03	63.19
661.17	0.00
661.32	88.94
661.46	58.51
661.60	65.54
661.74	49.15
661.89	60.85
662.03	58.51
662.17	49.15
662.31	16.38
662.46	51.49
662.60	0.00
662.74	58.51
662.88	11.70
663.03	14.04
663.17	51.49
663.31	65.54
663.45	0.00
663.60	0.00
663.74	44.47
663.88	0.00
664.02	0.00
664.17	0.00
664.31	46.81
664.45	0.00
664.59	79.58
664.73	23.41
664.88	0.00
665.02	63.19
665.16	0.00
665.30	0.00
665.44	14.04
665.59	0.00
665.73	30.43
665.87	0.00
666.01	86.60
666.15	0.00
666.29	74.90
666.44	0.00
666.58	9.36
666.72	0.00
666.86	77.24
667.00	0.00
667.14	37.45
667.28	70.22
667.43	39.79
667.57	0.00
667.71	58.51
667.85	112.35
667.99	18.72
668.13	51.49
668.27	16.38
668.41	9.36
668.56	86.60
668.70	88.94
668.84	74.90
668.98	30.43
669.12	4.68
669.26	67.88
669.40	11.70
669.54	95.96
669.68	67.88
669.82	79.58
669.96	39.79
670.10	9.36
670.25	21.06
670.39	11.70
670.53	0.00
670.67	0.00
670.81	58.51
670.95	42.13
671.09	49.15
671.23	35.11
671.37	39.79
671.51	28.09
671.65	0.00
671.79	44.47
671.93	42.13
672.07	28.09
672.21	21.06
672.35	21.06
672.49	28.09
672.63	74.90
672.77	42.13
672.91	44.47
673.05	84.26
673.19	51.49
673.33	98.30
673.47	0.00
673.61	4.68
673.75	102.98
673.89	72.56
674.03	32.77
674.17	81.92
674.31	0.00
674.45	0.00
674.59	0.00
674.73	56.17
674.87	67.88
675.01	49.15
675.15	28.09
675.29	42.13
675.43	81.92
675.56	51.49
675.70	28.09
675.84	25.75
675.98	0.00
676.12	7.02
676.26	60.85
676.40	7.02
676.54	0.00
676.68	30.43
676.82	14.04
676.96	67.88
677.10	28.09
677.23	67.88
677.37	0.00
677.51	23.41
677.65	30.43
677.79	18.72
677.93	35.11
678.07	42.13
678.21	39.79
678.34	4.68
678.48	0.00
678.62	7.02
678.76	11.70
678.90	30.43
679.04	25.75
679.18	32.77
679.31	0.00
679.45	60.85
679.59	21.06
679.73	37.45
679.87	46.81
680.00	30.43
680.14	2.34
680.28	37.45
680.42	72.56
680.56	72.56
680.70	44.47
680.83	4.68
680.97	42.13
681.11	60.85
681.25	70.22
681.39	30.43
681.52	70.22
681.66	98.30
681.80	30.43
681.94	16.38
682.07	2.34
682.21	72.56
682.35	0.00
682.49	56.17
682.62	32.77
682.76	28.09
682.90	18.72
683.04	58.51
683.17	0.00
683.31	25.75
683.45	51.49
683.59	21.06
683.72	4.68
683.86	9.36
684.00	32.77
684.13	37.45
684.27	46.81
684.41	35.11
684.55	4.68
684.68	49.15
684.82	86.60
684.96	42.13
685.09	9.36
685.23	56.17
685.37	25.75
685.50	28.09
685.64	16.38
685.78	14.04
685.91	0.00
686.05	23.41
686.19	0.00
686.32	0.00
686.46	32.77
686.60	4.68
686.73	53.83
686.87	35.11
687.01	0.00
687.14	18.72
687.28	32.77
687.42	46.81
687.55	30.43
687.69	95.96
687.82	46.81
687.96	74.90
688.10	0.00
688.23	37.45
688.37	44.47
688.50	42.13
688.64	4.68
688.78	60.85
688.91	39.79
689.05	0.00
689.18	44.47
689.32	35.11
689.46	0.00
689.59	4.68
689.73	9.36
689.86	18.72
690.00	37.45
690.13	58.51
690.27	63.19
690.41	0.00
690.54	0.00
690.68	72.56
690.81	32.77
690.95	0.00
691.08	46.81
691.22	49.15
691.35	42.13
691.49	42.13
691.62	0.00
691.76	7.02
691.89	81.92
692.03	65.54
692.16	46.81
692.30	4.68
692.43	44.47
692.57	107.66
692.70	21.06
692.84	28.09
692.97	42.13
693.11	67.88
693.24	25.75
693.38	51.49
693.51	39.79
693.65	0.00
693.78	16.38
693.92	0.00
694.05	32.77
694.19	91.28
694.32	9.36
694.45	46.81
694.59	0.00
694.72	14.04
694.86	126.39
694.99	42.13
695.13	63.19
695.26	0.00
695.39	63.19
695.53	81.92
695.66	0.00
695.80	39.79
695.93	42.13
696.07	74.90
696.20	67.88
696.33	72.56
696.47	30.43
696.60	9.36
696.73	11.70
696.87	51.49
697.00	51.49
697.14	28.09
697.27	16.38
697.40	0.00
697.54	46.81
697.67	9.36
697.80	53.83
697.94	44.47
698.07	58.51
698.21	88.94
698.34	0.00
698.47	25.75
698.61	21.06
698.74	21.06
698.87	21.06
699.01	11.70
699.14	0.00
699.27	0.00
699.40	60.85
699.54	25.75
699.67	21.06
699.80	46.81
699.94	0.00
700.07	0.00
700.20	9.36
700.34	32.77
700.47	0.00
700.60	0.00
700.73	0.00
700.87	102.98
701.00	53.83
701.13	28.09
701.26	65.54
701.40	16.38
701.53	65.54
701.66	37.45
701.79	35.11
701.93	25.75
702.06	25.75
702.19	114.69
702.32	30.43
702.46	0.00
702.59	67.88
702.72	25.75
702.85	42.13
702.99	44.47
703.12	0.00
703.25	49.15
703.38	53.83
703.51	23.41
703.65	42.13
703.78	32.77
703.91	4.68
704.04	0.00
704.17	0.00
704.31	0.00
704.44	0.00
704.57	28.09
704.70	42.13
704.83	0.00
704.96	98.30
705.10	21.06
705.23	44.47
>>>>>End Processed Spectral Data<<<<<
