SpectraSuite Data File
++++++++++++++++++++++++++++++++++++
Date: Fri Oct 04 12:13:38 GMT-05:00 2013
User: price-jones
Dark Spectrum Present: No
Reference Spectrum Present: No
Number of Sampled Component Spectra: 1
Spectrometers: USB2+H05261
Integration Time (usec): 10000 (USB2+H05261)
Spectra Averaged: 1 (USB2+H05261)
Boxcar Smoothing: 0 (USB2+H05261)
Correct for Electrical Dark: No (USB2+H05261)
Strobe/Lamp Enabled: No (USB2+H05261)
Correct for Detector Non-linearity: No (USB2+H05261)
Correct for Stray Light: No (USB2+H05261)
Number of Pixels in Processed Spectrum: 2048
>>>>>Begin Processed Spectral Data<<<<<
365.73	53.83
365.92	53.83
366.12	53.83
366.32	0.00
366.52	0.00
366.72	0.00
366.91	0.00
367.11	0.00
367.31	0.00
367.51	0.00
367.70	0.00
367.90	0.00
368.10	0.00
368.30	0.00
368.49	0.00
368.69	0.00
368.89	0.00
369.09	0.00
369.28	0.00
369.48	0.00
369.68	0.00
369.87	0.00
370.07	0.00
370.27	0.00
370.47	0.00
370.66	2.34
370.86	0.00
371.06	0.00
371.25	0.00
371.45	0.00
371.65	56.17
371.84	0.00
372.04	0.00
372.24	0.00
372.44	0.00
372.63	0.00
372.83	25.75
373.03	74.90
373.22	70.22
373.42	0.00
373.62	0.00
373.81	7.02
374.01	91.28
374.21	0.00
374.40	25.75
374.60	58.51
374.79	86.60
374.99	44.47
375.19	79.58
375.38	100.64
375.58	14.04
375.78	67.88
375.97	77.24
376.17	84.26
376.37	95.96
376.56	32.77
376.76	53.83
376.95	21.06
377.15	30.43
377.35	98.30
377.54	0.00
377.74	93.62
377.93	88.94
378.13	32.77
378.33	0.00
378.52	28.09
378.72	49.15
378.91	23.41
379.11	9.36
379.31	53.83
379.50	35.11
379.70	67.88
379.89	65.54
380.09	0.00
380.28	7.02
380.48	30.43
380.68	72.56
380.87	42.13
381.07	2.34
381.26	0.00
381.46	0.00
381.65	4.68
381.85	63.19
382.04	32.77
382.24	0.00
382.43	79.58
382.63	32.77
382.83	74.90
383.02	14.04
383.22	0.00
383.41	0.00
383.61	9.36
383.80	49.15
384.00	74.90
384.19	14.04
384.39	2.34
384.58	7.02
384.78	56.17
384.97	100.64
385.17	0.00
385.36	72.56
385.56	84.26
385.75	0.00
385.95	0.00
386.14	0.00
386.34	0.00
386.53	0.00
386.72	42.13
386.92	28.09
387.11	0.00
387.31	0.00
387.50	0.00
387.70	0.00
387.89	86.60
388.09	21.06
388.28	70.22
388.48	44.47
388.67	25.75
388.86	4.68
389.06	23.41
389.25	21.06
389.45	0.00
389.64	0.00
389.84	30.43
390.03	23.41
390.22	37.45
390.42	42.13
390.61	30.43
390.81	84.26
391.00	0.00
391.19	11.70
391.39	35.11
391.58	14.04
391.78	56.17
391.97	11.70
392.16	0.00
392.36	0.00
392.55	42.13
392.75	39.79
392.94	42.13
393.13	140.43
393.33	58.51
393.52	65.54
393.71	42.13
393.91	21.06
394.10	18.72
394.29	28.09
394.49	58.51
394.68	0.00
394.88	0.00
395.07	23.41
395.26	58.51
395.46	14.04
395.65	74.90
395.84	0.00
396.04	18.72
396.23	58.51
396.42	0.00
396.62	44.47
396.81	16.38
397.00	42.13
397.19	30.43
397.39	112.35
397.58	14.04
397.77	0.00
397.97	0.00
398.16	53.83
398.35	98.30
398.55	58.51
398.74	16.38
398.93	0.00
399.12	58.51
399.32	30.43
399.51	53.83
399.70	44.47
399.90	44.47
400.09	49.15
400.28	0.00
400.47	63.19
400.67	25.75
400.86	0.00
401.05	51.49
401.24	11.70
401.44	0.00
401.63	39.79
401.82	39.79
402.01	51.49
402.21	0.00
402.40	0.00
402.59	81.92
402.78	63.19
402.97	0.00
403.17	0.00
403.36	30.43
403.55	23.41
403.74	84.26
403.93	25.75
404.13	81.92
404.32	0.00
404.51	0.00
404.70	32.77
404.89	53.83
405.09	16.38
405.28	37.45
405.47	21.06
405.66	0.00
405.85	28.09
406.05	7.02
406.24	42.13
406.43	0.00
406.62	58.51
406.81	53.83
407.00	86.60
407.20	0.00
407.39	56.17
407.58	0.00
407.77	60.85
407.96	44.47
408.15	37.45
408.34	63.19
408.54	79.58
408.73	42.13
408.92	0.00
409.11	14.04
409.30	46.81
409.49	44.47
409.68	42.13
409.87	42.13
410.07	63.19
410.26	58.51
410.45	51.49
410.64	0.00
410.83	46.81
411.02	16.38
411.21	0.00
411.40	86.60
411.59	67.88
411.78	93.62
411.98	44.47
412.17	44.47
412.36	18.72
412.55	30.43
412.74	51.49
412.93	72.56
413.12	70.22
413.31	79.58
413.50	77.24
413.69	46.81
413.88	58.51
414.07	18.72
414.26	53.83
414.45	25.75
414.64	0.00
414.83	67.88
415.02	28.09
415.22	91.28
415.41	23.41
415.60	23.41
415.79	49.15
415.98	30.43
416.17	23.41
416.36	77.24
416.55	11.70
416.74	0.00
416.93	0.00
417.12	81.92
417.31	86.60
417.50	23.41
417.69	112.35
417.88	23.41
418.07	0.00
418.26	51.49
418.45	25.75
418.64	42.13
418.83	114.69
419.02	46.81
419.21	32.77
419.39	79.58
419.58	70.22
419.77	28.09
419.96	0.00
420.15	23.41
420.34	37.45
420.53	91.28
420.72	46.81
420.91	86.60
421.10	86.60
421.29	93.62
421.48	28.09
421.67	28.09
421.86	88.94
422.05	79.58
422.24	16.38
422.43	95.96
422.61	49.15
422.80	37.45
422.99	4.68
423.18	37.45
423.37	0.00
423.56	25.75
423.75	0.00
423.94	7.02
424.13	58.51
424.32	7.02
424.50	39.79
424.69	23.41
424.88	25.75
425.07	9.36
425.26	28.09
425.45	81.92
425.64	51.49
425.83	49.15
426.01	4.68
426.20	65.54
426.39	51.49
426.58	58.51
426.77	0.00
426.96	46.81
427.15	84.26
427.33	72.56
427.52	79.58
427.71	70.22
427.90	88.94
428.09	37.45
428.28	44.47
428.46	100.64
428.65	16.38
428.84	0.00
429.03	0.00
429.22	18.72
429.40	4.68
429.59	46.81
429.78	0.00
429.97	77.24
430.16	0.00
430.34	110.01
430.53	86.60
430.72	117.03
430.91	0.00
431.10	63.19
431.28	2.34
431.47	0.00
431.66	51.49
431.85	107.66
432.03	25.75
432.22	42.13
432.41	0.00
432.60	16.38
432.79	70.22
432.97	93.62
433.16	67.88
433.35	0.00
433.54	51.49
433.72	9.36
433.91	44.47
434.10	16.38
434.28	9.36
434.47	18.72
434.66	77.24
434.85	60.85
435.03	72.56
435.22	46.81
435.41	32.77
435.59	79.58
435.78	14.04
435.97	37.45
436.16	46.81
436.34	79.58
436.53	32.77
436.72	72.56
436.90	56.17
437.09	28.09
437.28	60.85
437.46	95.96
437.65	42.13
437.84	28.09
438.02	28.09
438.21	60.85
438.40	60.85
438.58	44.47
438.77	72.56
438.96	60.85
439.14	51.49
439.33	126.39
439.52	39.79
439.70	32.77
439.89	51.49
440.08	25.75
440.26	0.00
440.45	49.15
440.63	58.51
440.82	67.88
441.01	112.35
441.19	98.30
441.38	65.54
441.57	65.54
441.75	60.85
441.94	79.58
442.12	25.75
442.31	91.28
442.50	88.94
442.68	32.77
442.87	65.54
443.05	37.45
443.24	23.41
443.43	77.24
443.61	7.02
443.80	9.36
443.98	16.38
444.17	74.90
444.35	51.49
444.54	149.79
444.73	161.50
444.91	0.00
445.10	0.00
445.28	0.00
445.47	21.06
445.65	16.38
445.84	21.06
446.02	28.09
446.21	46.81
446.39	46.81
446.58	88.94
446.77	58.51
446.95	21.06
447.14	44.47
447.32	60.85
447.51	79.58
447.69	67.88
447.88	14.04
448.06	60.85
448.25	21.06
448.43	67.88
448.62	74.90
448.80	28.09
448.99	72.56
449.17	95.96
449.36	79.58
449.54	70.22
449.73	18.72
449.91	79.58
450.10	42.13
450.28	74.90
450.46	60.85
450.65	2.34
450.83	86.60
451.02	35.11
451.20	37.45
451.39	72.56
451.57	42.13
451.76	0.00
451.94	35.11
452.13	0.00
452.31	18.72
452.49	23.41
452.68	131.07
452.86	58.51
453.05	72.56
453.23	37.45
453.42	98.30
453.60	35.11
453.78	86.60
453.97	121.71
454.15	79.58
454.34	67.88
454.52	63.19
454.70	84.26
454.89	81.92
455.07	98.30
455.26	60.85
455.44	100.64
455.62	0.00
455.81	0.00
455.99	49.15
456.17	88.94
456.36	60.85
456.54	44.47
456.73	58.51
456.91	98.30
457.09	37.45
457.28	39.79
457.46	23.41
457.64	0.00
457.83	0.00
458.01	0.00
458.19	32.77
458.38	60.85
458.56	56.17
458.74	21.06
458.93	39.79
459.11	35.11
459.29	0.00
459.48	21.06
459.66	32.77
459.84	0.00
460.03	56.17
460.21	32.77
460.39	58.51
460.57	30.43
460.76	49.15
460.94	95.96
461.12	4.68
461.31	44.47
461.49	77.24
461.67	74.90
461.85	42.13
462.04	58.51
462.22	145.11
462.40	58.51
462.59	25.75
462.77	95.96
462.95	30.43
463.13	0.00
463.32	0.00
463.50	86.60
463.68	140.43
463.86	86.60
464.05	67.88
464.23	7.02
464.41	107.66
464.59	119.37
464.78	0.00
464.96	0.00
465.14	25.75
465.32	84.26
465.50	81.92
465.69	0.00
465.87	23.41
466.05	117.03
466.23	0.00
466.41	9.36
466.60	37.45
466.78	25.75
466.96	102.98
467.14	51.49
467.32	98.30
467.51	39.79
467.69	7.02
467.87	32.77
468.05	46.81
468.23	70.22
468.41	35.11
468.60	56.17
468.78	98.30
468.96	60.85
469.14	98.30
469.32	32.77
469.50	0.00
469.69	67.88
469.87	32.77
470.05	35.11
470.23	0.00
470.41	0.00
470.59	0.00
470.77	37.45
470.95	65.54
471.14	37.45
471.32	21.06
471.50	56.17
471.68	39.79
471.86	37.45
472.04	39.79
472.22	42.13
472.40	44.47
472.58	93.62
472.77	32.77
472.95	23.41
473.13	84.26
473.31	0.00
473.49	0.00
473.67	79.58
473.85	86.60
474.03	28.09
474.21	49.15
474.39	74.90
474.57	142.77
474.75	21.06
474.93	25.75
475.12	119.37
475.30	117.03
475.48	133.41
475.66	100.64
475.84	72.56
476.02	67.88
476.20	7.02
476.38	0.00
476.56	98.30
476.74	39.79
476.92	63.19
477.10	53.83
477.28	58.51
477.46	51.49
477.64	37.45
477.82	35.11
478.00	11.70
478.18	98.30
478.36	91.28
478.54	79.58
478.72	65.54
478.90	46.81
479.08	63.19
479.26	11.70
479.44	58.51
479.62	30.43
479.80	67.88
479.98	72.56
480.16	0.00
480.34	60.85
480.52	100.64
480.70	65.54
480.88	105.32
481.06	84.26
481.24	16.38
481.41	88.94
481.59	124.05
481.77	117.03
481.95	49.15
482.13	77.24
482.31	142.77
482.49	16.38
482.67	56.17
482.85	23.41
483.03	32.77
483.21	84.26
483.39	119.37
483.57	25.75
483.74	46.81
483.92	0.00
484.10	32.77
484.28	21.06
484.46	152.13
484.64	79.58
484.82	42.13
485.00	51.49
485.18	88.94
485.35	77.24
485.53	88.94
485.71	53.83
485.89	105.32
486.07	35.11
486.25	21.06
486.43	95.96
486.61	74.90
486.78	56.17
486.96	37.45
487.14	9.36
487.32	25.75
487.50	72.56
487.68	81.92
487.85	30.43
488.03	35.11
488.21	95.96
488.39	91.28
488.57	9.36
488.75	58.51
488.92	140.43
489.10	84.26
489.28	161.50
489.46	91.28
489.64	51.49
489.81	65.54
489.99	91.28
490.17	72.56
490.35	102.98
490.53	88.94
490.70	110.01
490.88	72.56
491.06	53.83
491.24	49.15
491.41	110.01
491.59	84.26
491.77	74.90
491.95	112.35
492.13	88.94
492.30	11.70
492.48	74.90
492.66	74.90
492.84	51.49
493.01	23.41
493.19	105.32
493.37	105.32
493.54	23.41
493.72	91.28
493.90	11.70
494.08	58.51
494.25	53.83
494.43	88.94
494.61	147.45
494.79	39.79
494.96	77.24
495.14	49.15
495.32	46.81
495.49	37.45
495.67	147.45
495.85	105.32
496.02	2.34
496.20	46.81
496.38	72.56
496.55	114.69
496.73	42.13
496.91	86.60
497.09	0.00
497.26	91.28
497.44	65.54
497.62	79.58
497.79	42.13
497.97	119.37
498.14	60.85
498.32	9.36
498.50	112.35
498.67	58.51
498.85	126.39
499.03	159.16
499.20	88.94
499.38	67.88
499.56	70.22
499.73	65.54
499.91	98.30
500.08	128.73
500.26	77.24
500.44	67.88
500.61	37.45
500.79	77.24
500.97	98.30
501.14	88.94
501.32	77.24
501.49	105.32
501.67	0.00
501.84	119.37
502.02	51.49
502.20	81.92
502.37	65.54
502.55	84.26
502.72	58.51
502.90	60.85
503.07	88.94
503.25	112.35
503.43	86.60
503.60	58.51
503.78	60.85
503.95	46.81
504.13	126.39
504.30	128.73
504.48	65.54
504.65	63.19
504.83	117.03
505.01	65.54
505.18	30.43
505.36	88.94
505.53	42.13
505.71	65.54
505.88	79.58
506.06	98.30
506.23	79.58
506.41	117.03
506.58	102.98
506.76	121.71
506.93	131.07
507.11	39.79
507.28	51.49
507.46	77.24
507.63	163.84
507.81	84.26
507.98	67.88
508.16	93.62
508.33	70.22
508.50	117.03
508.68	37.45
508.85	98.30
509.03	102.98
509.20	56.17
509.38	159.16
509.55	77.24
509.73	77.24
509.90	145.11
510.08	86.60
510.25	60.85
510.42	56.17
510.60	121.71
510.77	11.70
510.95	112.35
511.12	117.03
511.30	53.83
511.47	49.15
511.64	91.28
511.82	138.09
511.99	0.00
512.17	46.81
512.34	159.16
512.51	74.90
512.69	102.98
512.86	147.45
513.04	60.85
513.21	107.66
513.38	117.03
513.56	81.92
513.73	53.83
513.90	37.45
514.08	100.64
514.25	72.56
514.43	138.09
514.60	65.54
514.77	21.06
514.95	30.43
515.12	88.94
515.29	107.66
515.47	37.45
515.64	102.98
515.81	84.26
515.99	46.81
516.16	140.43
516.33	49.15
516.51	105.32
516.68	14.04
516.85	112.35
517.03	84.26
517.20	124.05
517.37	100.64
517.54	133.41
517.72	156.82
517.89	95.96
518.06	107.66
518.24	16.38
518.41	74.90
518.58	74.90
518.75	110.01
518.93	65.54
519.10	81.92
519.27	65.54
519.45	25.75
519.62	58.51
519.79	117.03
519.96	91.28
520.14	60.85
520.31	124.05
520.48	72.56
520.65	72.56
520.83	39.79
521.00	42.13
521.17	93.62
521.34	72.56
521.52	79.58
521.69	112.35
521.86	30.43
522.03	147.45
522.20	91.28
522.38	79.58
522.55	124.05
522.72	166.18
522.89	67.88
523.07	81.92
523.24	105.32
523.41	7.02
523.58	131.07
523.75	4.68
523.92	56.17
524.10	88.94
524.27	74.90
524.44	152.13
524.61	32.77
524.78	81.92
524.96	42.13
525.13	81.92
525.30	0.00
525.47	74.90
525.64	88.94
525.81	107.66
525.98	60.85
526.16	70.22
526.33	81.92
526.50	93.62
526.67	95.96
526.84	32.77
527.01	74.90
527.18	56.17
527.36	60.85
527.53	44.47
527.70	81.92
527.87	102.98
528.04	110.01
528.21	86.60
528.38	53.83
528.55	70.22
528.72	149.79
528.89	65.54
529.07	79.58
529.24	145.11
529.41	154.48
529.58	60.85
529.75	4.68
529.92	100.64
530.09	79.58
530.26	53.83
530.43	147.45
530.60	42.13
530.77	67.88
530.94	77.24
531.11	100.64
531.28	84.26
531.46	95.96
531.63	138.09
531.80	86.60
531.97	135.75
532.14	70.22
532.31	100.64
532.48	18.72
532.65	65.54
532.82	159.16
532.99	74.90
533.16	145.11
533.33	168.52
533.50	74.90
533.67	84.26
533.84	51.49
534.01	81.92
534.18	56.17
534.35	110.01
534.52	93.62
534.69	39.79
534.86	49.15
535.03	124.05
535.20	98.30
535.37	98.30
535.54	79.58
535.71	100.64
535.88	53.83
536.05	74.90
536.22	86.60
536.38	110.01
536.55	39.79
536.72	65.54
536.89	65.54
537.06	88.94
537.23	88.94
537.40	51.49
537.57	67.88
537.74	53.83
537.91	56.17
538.08	86.60
538.25	117.03
538.42	77.24
538.59	14.04
538.75	74.90
538.92	28.09
539.09	11.70
539.26	0.00
539.43	100.64
539.60	0.00
539.77	49.15
539.94	56.17
540.11	126.39
540.28	138.09
540.44	58.51
540.61	65.54
540.78	49.15
540.95	119.37
541.12	100.64
541.29	95.96
541.46	9.36
541.62	44.47
541.79	37.45
541.96	49.15
542.13	128.73
542.30	107.66
542.47	81.92
542.63	72.56
542.80	35.11
542.97	53.83
543.14	105.32
543.31	81.92
543.48	95.96
543.64	117.03
543.81	86.60
543.98	93.62
544.15	77.24
544.32	74.90
544.48	138.09
544.65	44.47
544.82	124.05
544.99	91.28
545.16	105.32
545.32	74.90
545.49	72.56
545.66	119.37
545.83	117.03
546.00	35.11
546.16	74.90
546.33	35.11
546.50	53.83
546.67	56.17
546.83	81.92
547.00	53.83
547.17	114.69
547.34	16.38
547.50	107.66
547.67	67.88
547.84	35.11
548.00	105.32
548.17	93.62
548.34	88.94
548.51	100.64
548.67	114.69
548.84	18.72
549.01	14.04
549.18	102.98
549.34	30.43
549.51	77.24
549.68	74.90
549.84	35.11
550.01	42.13
550.18	93.62
550.34	53.83
550.51	156.82
550.68	121.71
550.84	44.47
551.01	32.77
551.18	79.58
551.34	56.17
551.51	0.00
551.68	67.88
551.84	79.58
552.01	72.56
552.18	77.24
552.34	102.98
552.51	95.96
552.68	166.18
552.84	105.32
553.01	42.13
553.18	124.05
553.34	56.17
553.51	110.01
553.67	79.58
553.84	131.07
554.01	81.92
554.17	117.03
554.34	65.54
554.51	37.45
554.67	95.96
554.84	67.88
555.00	105.32
555.17	79.58
555.33	42.13
555.50	30.43
555.67	49.15
555.83	81.92
556.00	100.64
556.16	121.71
556.33	98.30
556.50	84.26
556.66	70.22
556.83	88.94
556.99	88.94
557.16	60.85
557.32	37.45
557.49	42.13
557.65	79.58
557.82	114.69
557.98	152.13
558.15	67.88
558.32	121.71
558.48	180.22
558.65	93.62
558.81	46.81
558.98	102.98
559.14	121.71
559.31	131.07
559.47	72.56
559.64	53.83
559.80	105.32
559.97	53.83
560.13	102.98
560.30	128.73
560.46	74.90
560.63	117.03
560.79	46.81
560.96	46.81
561.12	53.83
561.29	102.98
561.45	0.00
561.61	58.51
561.78	86.60
561.94	51.49
562.11	102.98
562.27	14.04
562.44	46.81
562.60	114.69
562.77	74.90
562.93	131.07
563.10	74.90
563.26	117.03
563.42	88.94
563.59	60.85
563.75	133.41
563.92	93.62
564.08	88.94
564.24	84.26
564.41	37.45
564.57	86.60
564.74	102.98
564.90	114.69
565.07	91.28
565.23	72.56
565.39	107.66
565.56	110.01
565.72	72.56
565.88	98.30
566.05	84.26
566.21	102.98
566.38	110.01
566.54	114.69
566.70	46.81
566.87	86.60
567.03	100.64
567.19	56.17
567.36	86.60
567.52	86.60
567.68	81.92
567.85	67.88
568.01	70.22
568.17	77.24
568.34	67.88
568.50	81.92
568.66	105.32
568.83	159.16
568.99	16.38
569.15	58.51
569.32	100.64
569.48	0.00
569.64	98.30
569.81	81.92
569.97	11.70
570.13	60.85
570.30	28.09
570.46	131.07
570.62	119.37
570.78	121.71
570.95	140.43
571.11	37.45
571.27	86.60
571.43	67.88
571.60	42.13
571.76	131.07
571.92	70.22
572.09	117.03
572.25	21.06
572.41	51.49
572.57	72.56
572.74	93.62
572.90	100.64
573.06	63.19
573.22	114.69
573.38	88.94
573.55	119.37
573.71	14.04
573.87	30.43
574.03	126.39
574.20	112.35
574.36	95.96
574.52	86.60
574.68	23.41
574.84	72.56
575.01	32.77
575.17	51.49
575.33	131.07
575.49	95.96
575.65	121.71
575.82	65.54
575.98	67.88
576.14	21.06
576.30	0.00
576.46	28.09
576.62	35.11
576.79	91.28
576.95	74.90
577.11	107.66
577.27	100.64
577.43	60.85
577.59	46.81
577.75	86.60
577.92	114.69
578.08	98.30
578.24	95.96
578.40	30.43
578.56	11.70
578.72	23.41
578.88	32.77
579.04	84.26
579.21	88.94
579.37	117.03
579.53	112.35
579.69	102.98
579.85	91.28
580.01	93.62
580.17	77.24
580.33	16.38
580.49	88.94
580.65	81.92
580.82	147.45
580.98	91.28
581.14	21.06
581.30	110.01
581.46	49.15
581.62	77.24
581.78	74.90
581.94	79.58
582.10	77.24
582.26	86.60
582.42	72.56
582.58	46.81
582.74	100.64
582.90	128.73
583.06	110.01
583.22	28.09
583.38	140.43
583.54	70.22
583.70	81.92
583.86	51.49
584.02	100.64
584.18	145.11
584.34	67.88
584.50	51.49
584.66	88.94
584.82	11.70
584.98	77.24
585.14	74.90
585.30	60.85
585.46	30.43
585.62	18.72
585.78	67.88
585.94	91.28
586.10	44.47
586.26	65.54
586.42	140.43
586.58	77.24
586.74	86.60
586.90	131.07
587.06	112.35
587.22	84.26
587.38	102.98
587.54	65.54
587.70	128.73
587.86	42.13
588.02	79.58
588.18	84.26
588.34	56.17
588.49	117.03
588.65	35.11
588.81	32.77
588.97	124.05
589.13	84.26
589.29	30.43
589.45	37.45
589.61	112.35
589.77	28.09
589.93	91.28
590.08	67.88
590.24	32.77
590.40	91.28
590.56	0.00
590.72	51.49
590.88	49.15
591.04	56.17
591.20	126.39
591.35	39.79
591.51	44.47
591.67	35.11
591.83	28.09
591.99	81.92
592.15	39.79
592.31	88.94
592.46	37.45
592.62	84.26
592.78	44.47
592.94	86.60
593.10	100.64
593.26	105.32
593.41	79.58
593.57	98.30
593.73	79.58
593.89	67.88
594.05	72.56
594.20	86.60
594.36	67.88
594.52	119.37
594.68	21.06
594.84	21.06
594.99	49.15
595.15	56.17
595.31	67.88
595.47	44.47
595.62	124.05
595.78	0.00
595.94	128.73
596.10	42.13
596.25	46.81
596.41	49.15
596.57	49.15
596.73	32.77
596.88	112.35
597.04	119.37
597.20	0.00
597.36	32.77
597.51	25.75
597.67	100.64
597.83	58.51
597.99	72.56
598.14	46.81
598.30	84.26
598.46	95.96
598.61	16.38
598.77	70.22
598.93	58.51
599.09	51.49
599.24	46.81
599.40	81.92
599.56	37.45
599.71	119.37
599.87	65.54
600.03	63.19
600.18	49.15
600.34	18.72
600.50	60.85
600.65	0.00
600.81	86.60
600.97	128.73
601.12	100.64
601.28	98.30
601.44	88.94
601.59	86.60
601.75	42.13
601.91	112.35
602.06	131.07
602.22	39.79
602.37	79.58
602.53	98.30
602.69	49.15
602.84	79.58
603.00	28.09
603.16	30.43
603.31	98.30
603.47	79.58
603.62	63.19
603.78	58.51
603.94	93.62
604.09	140.43
604.25	84.26
604.40	86.60
604.56	35.11
604.71	74.90
604.87	70.22
605.03	93.62
605.18	32.77
605.34	58.51
605.49	72.56
605.65	39.79
605.80	86.60
605.96	124.05
606.12	39.79
606.27	81.92
606.43	102.98
606.58	44.47
606.74	51.49
606.89	81.92
607.05	35.11
607.20	37.45
607.36	91.28
607.51	42.13
607.67	60.85
607.82	70.22
607.98	135.75
608.13	56.17
608.29	18.72
608.44	42.13
608.60	91.28
608.75	0.00
608.91	37.45
609.06	79.58
609.22	67.88
609.37	79.58
609.53	60.85
609.68	81.92
609.84	67.88
609.99	105.32
610.15	86.60
610.30	4.68
610.46	119.37
610.61	93.62
610.76	35.11
610.92	9.36
611.07	39.79
611.23	21.06
611.38	93.62
611.54	107.66
611.69	63.19
611.84	159.16
612.00	49.15
612.15	32.77
612.31	107.66
612.46	70.22
612.62	35.11
612.77	65.54
612.92	23.41
613.08	117.03
613.23	79.58
613.39	0.00
613.54	77.24
613.69	32.77
613.85	74.90
614.00	93.62
614.15	44.47
614.31	7.02
614.46	60.85
614.62	30.43
614.77	72.56
614.92	65.54
615.08	51.49
615.23	58.51
615.38	100.64
615.54	60.85
615.69	4.68
615.84	37.45
616.00	70.22
616.15	28.09
616.30	63.19
616.46	0.00
616.61	114.69
616.76	67.88
616.92	117.03
617.07	70.22
617.22	91.28
617.37	86.60
617.53	18.72
617.68	91.28
617.83	84.26
617.99	79.58
618.14	70.22
618.29	51.49
618.45	74.90
618.60	39.79
618.75	53.83
618.90	112.35
619.06	42.13
619.21	35.11
619.36	32.77
619.51	49.15
619.67	21.06
619.82	95.96
619.97	39.79
620.12	0.00
620.28	58.51
620.43	65.54
620.58	11.70
620.73	30.43
620.89	0.00
621.04	42.13
621.19	72.56
621.34	7.02
621.49	0.00
621.65	46.81
621.80	65.54
621.95	74.90
622.10	53.83
622.25	88.94
622.41	93.62
622.56	65.54
622.71	112.35
622.86	30.43
623.01	42.13
623.16	4.68
623.32	77.24
623.47	79.58
623.62	56.17
623.77	112.35
623.92	63.19
624.07	0.00
624.23	102.98
624.38	112.35
624.53	44.47
624.68	44.47
624.83	117.03
624.98	110.01
625.13	105.32
625.29	46.81
625.44	81.92
625.59	42.13
625.74	60.85
625.89	124.05
626.04	44.47
626.19	35.11
626.34	28.09
626.49	84.26
626.65	98.30
626.80	63.19
626.95	67.88
627.10	138.09
627.25	28.09
627.40	117.03
627.55	107.66
627.70	98.30
627.85	2.34
628.00	58.51
628.15	28.09
628.30	63.19
628.45	81.92
628.60	95.96
628.76	16.38
628.91	51.49
629.06	145.11
629.21	105.32
629.36	16.38
629.51	102.98
629.66	0.00
629.81	79.58
629.96	102.98
630.11	86.60
630.26	0.00
630.41	0.00
630.56	135.75
630.71	65.54
630.86	91.28
631.01	23.41
631.16	147.45
631.31	42.13
631.46	91.28
631.61	81.92
631.76	0.00
631.91	105.32
632.06	65.54
632.21	0.00
632.36	77.24
632.51	32.77
632.66	58.51
632.81	138.09
632.96	81.92
633.10	16.38
633.25	53.83
633.40	81.92
633.55	21.06
633.70	65.54
633.85	60.85
634.00	81.92
634.15	14.04
634.30	51.49
634.45	0.00
634.60	95.96
634.75	37.45
634.90	117.03
635.05	37.45
635.19	70.22
635.34	60.85
635.49	72.56
635.64	65.54
635.79	131.07
635.94	119.37
636.09	84.26
636.24	81.92
636.39	0.00
636.53	44.47
636.68	74.90
636.83	0.00
636.98	77.24
637.13	14.04
637.28	74.90
637.43	112.35
637.57	88.94
637.72	21.06
637.87	72.56
638.02	0.00
638.17	100.64
638.32	67.88
638.46	114.69
638.61	16.38
638.76	28.09
638.91	35.11
639.06	30.43
639.20	9.36
639.35	21.06
639.50	32.77
639.65	44.47
639.80	126.39
639.94	131.07
640.09	84.26
640.24	84.26
640.39	70.22
640.54	18.72
640.68	102.98
640.83	11.70
640.98	49.15
641.13	60.85
641.27	56.17
641.42	65.54
641.57	79.58
641.72	56.17
641.86	95.96
642.01	0.00
642.16	170.86
642.31	58.51
642.45	60.85
642.60	67.88
642.75	0.00
642.90	135.75
643.04	88.94
643.19	44.47
643.34	44.47
643.48	42.13
643.63	72.56
643.78	79.58
643.93	74.90
644.07	58.51
644.22	98.30
644.37	32.77
644.51	30.43
644.66	0.00
644.81	58.51
644.95	98.30
645.10	67.88
645.25	9.36
645.39	32.77
645.54	2.34
645.69	21.06
645.83	63.19
645.98	60.85
646.13	74.90
646.27	70.22
646.42	9.36
646.57	49.15
646.71	63.19
646.86	67.88
647.00	0.00
647.15	42.13
647.30	35.11
647.44	70.22
647.59	0.00
647.74	0.00
647.88	46.81
648.03	0.00
648.17	32.77
648.32	0.00
648.47	4.68
648.61	65.54
648.76	44.47
648.90	28.09
649.05	44.47
649.20	84.26
649.34	35.11
649.49	0.00
649.63	2.34
649.78	79.58
649.92	100.64
650.07	72.56
650.21	46.81
650.36	0.00
650.51	0.00
650.65	72.56
650.80	25.75
650.94	25.75
651.09	107.66
651.23	0.00
651.38	119.37
651.52	7.02
651.67	0.00
651.81	74.90
651.96	74.90
652.10	32.77
652.25	30.43
652.39	0.00
652.54	93.62
652.68	44.47
652.83	77.24
652.97	63.19
653.12	117.03
653.26	21.06
653.41	60.85
653.55	102.98
653.70	84.26
653.84	56.17
653.99	46.81
654.13	67.88
654.27	100.64
654.42	30.43
654.56	0.00
654.71	11.70
654.85	0.00
655.00	60.85
655.14	0.00
655.29	65.54
655.43	42.13
655.57	42.13
655.72	32.77
655.86	74.90
656.01	51.49
656.15	56.17
656.30	42.13
656.44	79.58
656.58	35.11
656.73	21.06
656.87	56.17
657.01	81.92
657.16	51.49
657.30	42.13
657.45	44.47
657.59	117.03
657.73	86.60
657.88	23.41
658.02	0.00
658.16	0.00
658.31	23.41
658.45	65.54
658.60	98.30
658.74	110.01
658.88	53.83
659.03	9.36
659.17	0.00
659.31	117.03
659.46	23.41
659.60	60.85
659.74	86.60
659.89	2.34
660.03	2.34
660.17	70.22
660.32	28.09
660.46	0.00
660.60	67.88
660.74	44.47
660.89	88.94
661.03	163.84
661.17	11.70
661.32	32.77
661.46	95.96
661.60	49.15
661.74	79.58
661.89	46.81
662.03	81.92
662.17	65.54
662.31	128.73
662.46	86.60
662.60	95.96
662.74	14.04
662.88	25.75
663.03	21.06
663.17	93.62
663.31	18.72
663.45	67.88
663.60	72.56
663.74	49.15
663.88	46.81
664.02	11.70
664.17	42.13
664.31	60.85
664.45	44.47
664.59	14.04
664.73	53.83
664.88	44.47
665.02	84.26
665.16	39.79
665.30	100.64
665.44	39.79
665.59	0.00
665.73	0.00
665.87	32.77
666.01	56.17
666.15	60.85
666.29	42.13
666.44	84.26
666.58	81.92
666.72	86.60
666.86	63.19
667.00	35.11
667.14	60.85
667.28	98.30
667.43	58.51
667.57	0.00
667.71	0.00
667.85	23.41
667.99	63.19
668.13	14.04
668.27	74.90
668.41	86.60
668.56	60.85
668.70	37.45
668.84	67.88
668.98	110.01
669.12	95.96
669.26	93.62
669.40	77.24
669.54	88.94
669.68	72.56
669.82	28.09
669.96	0.00
670.10	60.85
670.25	53.83
670.39	77.24
670.53	0.00
670.67	0.00
670.81	0.00
670.95	21.06
671.09	72.56
671.23	44.47
671.37	86.60
671.51	18.72
671.65	23.41
671.79	18.72
671.93	28.09
672.07	70.22
672.21	70.22
672.35	65.54
672.49	4.68
672.63	56.17
672.77	42.13
672.91	0.00
673.05	93.62
673.19	84.26
673.33	0.00
673.47	28.09
673.61	53.83
673.75	35.11
673.89	53.83
674.03	65.54
674.17	11.70
674.31	93.62
674.45	65.54
674.59	100.64
674.73	65.54
674.87	46.81
675.01	11.70
675.15	56.17
675.29	30.43
675.43	95.96
675.56	25.75
675.70	79.58
675.84	21.06
675.98	32.77
676.12	72.56
676.26	93.62
676.40	84.26
676.54	72.56
676.68	70.22
676.82	18.72
676.96	56.17
677.10	28.09
677.23	74.90
677.37	88.94
677.51	0.00
677.65	35.11
677.79	86.60
677.93	2.34
678.07	0.00
678.21	88.94
678.34	84.26
678.48	18.72
678.62	37.45
678.76	67.88
678.90	30.43
679.04	65.54
679.18	25.75
679.31	32.77
679.45	42.13
679.59	53.83
679.73	23.41
679.87	18.72
680.00	74.90
680.14	56.17
680.28	32.77
680.42	44.47
680.56	18.72
680.70	11.70
680.83	56.17
680.97	0.00
681.11	0.00
681.25	44.47
681.39	70.22
681.52	30.43
681.66	63.19
681.80	58.51
681.94	23.41
682.07	42.13
682.21	39.79
682.35	70.22
682.49	53.83
682.62	117.03
682.76	35.11
682.90	21.06
683.04	63.19
683.17	67.88
683.31	74.90
683.45	32.77
683.59	65.54
683.72	32.77
683.86	42.13
684.00	46.81
684.13	58.51
684.27	79.58
684.41	18.72
684.55	0.00
684.68	72.56
684.82	77.24
684.96	30.43
685.09	23.41
685.23	28.09
685.37	84.26
685.50	77.24
685.64	60.85
685.78	0.00
685.91	21.06
686.05	84.26
686.19	35.11
686.32	28.09
686.46	39.79
686.60	81.92
686.73	51.49
686.87	114.69
687.01	42.13
687.14	7.02
687.28	63.19
687.42	21.06
687.55	42.13
687.69	70.22
687.82	70.22
687.96	84.26
688.10	18.72
688.23	35.11
688.37	25.75
688.50	51.49
688.64	25.75
688.78	95.96
688.91	49.15
689.05	51.49
689.18	18.72
689.32	72.56
689.46	28.09
689.59	2.34
689.73	63.19
689.86	37.45
690.00	0.00
690.13	117.03
690.27	0.00
690.41	63.19
690.54	16.38
690.68	117.03
690.81	49.15
690.95	11.70
691.08	46.81
691.22	0.00
691.35	72.56
691.49	0.00
691.62	14.04
691.76	4.68
691.89	79.58
692.03	74.90
692.16	39.79
692.30	16.38
692.43	37.45
692.57	67.88
692.70	0.00
692.84	30.43
692.97	67.88
693.11	102.98
693.24	42.13
693.38	70.22
693.51	44.47
693.65	0.00
693.78	16.38
693.92	49.15
694.05	39.79
694.19	46.81
694.32	95.96
694.45	0.00
694.59	4.68
694.72	11.70
694.86	0.00
694.99	63.19
695.13	84.26
695.26	14.04
695.39	11.70
695.53	23.41
695.66	37.45
695.80	77.24
695.93	77.24
696.07	53.83
696.20	23.41
696.33	25.75
696.47	65.54
696.60	37.45
696.73	72.56
696.87	86.60
697.00	0.00
697.14	44.47
697.27	119.37
697.40	49.15
697.54	53.83
697.67	2.34
697.80	56.17
697.94	2.34
698.07	0.00
698.21	37.45
698.34	119.37
698.47	42.13
698.61	65.54
698.74	0.00
698.87	11.70
699.01	60.85
699.14	14.04
699.27	79.58
699.40	58.51
699.54	0.00
699.67	70.22
699.80	25.75
699.94	79.58
700.07	110.01
700.20	32.77
700.34	39.79
700.47	35.11
700.60	23.41
700.73	91.28
700.87	46.81
701.00	0.00
701.13	21.06
701.26	23.41
701.40	39.79
701.53	28.09
701.66	70.22
701.79	70.22
701.93	46.81
702.06	0.00
702.19	81.92
702.32	39.79
702.46	32.77
702.59	21.06
702.72	49.15
702.85	77.24
702.99	28.09
703.12	35.11
703.25	60.85
703.38	18.72
703.51	21.06
703.65	74.90
703.78	0.00
703.91	7.02
704.04	11.70
704.17	91.28
704.31	0.00
704.44	67.88
704.57	9.36
704.70	16.38
704.83	0.00
704.96	74.90
705.10	0.00
705.23	4.68
>>>>>End Processed Spectral Data<<<<<
