SpectraSuite Data File
++++++++++++++++++++++++++++++++++++
Date: Fri Oct 04 12:13:25 GMT-05:00 2013
User: price-jones
Dark Spectrum Present: No
Reference Spectrum Present: No
Number of Sampled Component Spectra: 1
Spectrometers: USB2+H05261
Integration Time (usec): 10000 (USB2+H05261)
Spectra Averaged: 1 (USB2+H05261)
Boxcar Smoothing: 0 (USB2+H05261)
Correct for Electrical Dark: No (USB2+H05261)
Strobe/Lamp Enabled: No (USB2+H05261)
Correct for Detector Non-linearity: No (USB2+H05261)
Correct for Stray Light: No (USB2+H05261)
Number of Pixels in Processed Spectrum: 2048
>>>>>Begin Processed Spectral Data<<<<<
365.73	21.06
365.92	21.06
366.12	21.06
366.32	0.00
366.52	0.00
366.72	0.00
366.91	0.00
367.11	0.00
367.31	0.00
367.51	0.00
367.70	0.00
367.90	0.00
368.10	0.00
368.30	0.00
368.49	0.00
368.69	0.00
368.89	0.00
369.09	0.00
369.28	0.00
369.48	0.00
369.68	0.00
369.87	0.00
370.07	0.00
370.27	0.00
370.47	0.00
370.66	0.00
370.86	0.00
371.06	0.00
371.25	0.00
371.45	0.00
371.65	0.00
371.84	0.00
372.04	11.70
372.24	21.06
372.44	0.00
372.63	7.02
372.83	0.00
373.03	16.38
373.22	14.04
373.42	7.02
373.62	0.00
373.81	56.17
374.01	46.81
374.21	0.00
374.40	32.77
374.60	58.51
374.79	16.38
374.99	63.19
375.19	58.51
375.38	14.04
375.58	49.15
375.78	60.85
375.97	42.13
376.17	9.36
376.37	0.00
376.56	46.81
376.76	0.00
376.95	81.92
377.15	74.90
377.35	0.00
377.54	39.79
377.74	0.00
377.93	23.41
378.13	107.66
378.33	44.47
378.52	0.00
378.72	63.19
378.91	7.02
379.11	0.00
379.31	4.68
379.50	35.11
379.70	9.36
379.89	72.56
380.09	9.36
380.28	4.68
380.48	32.77
380.68	4.68
380.87	58.51
381.07	23.41
381.26	56.17
381.46	0.00
381.65	0.00
381.85	44.47
382.04	23.41
382.24	42.13
382.43	30.43
382.63	67.88
382.83	28.09
383.02	0.00
383.22	25.75
383.41	0.00
383.61	0.00
383.80	0.00
384.00	0.00
384.19	42.13
384.39	49.15
384.58	0.00
384.78	37.45
384.97	53.83
385.17	4.68
385.36	0.00
385.56	0.00
385.75	60.85
385.95	53.83
386.14	42.13
386.34	74.90
386.53	0.00
386.72	21.06
386.92	0.00
387.11	2.34
387.31	0.00
387.50	37.45
387.70	35.11
387.89	23.41
388.09	70.22
388.28	0.00
388.48	72.56
388.67	23.41
388.86	0.00
389.06	21.06
389.25	14.04
389.45	4.68
389.64	39.79
389.84	9.36
390.03	0.00
390.22	0.00
390.42	9.36
390.61	102.98
390.81	46.81
391.00	23.41
391.19	44.47
391.39	0.00
391.58	16.38
391.78	65.54
391.97	39.79
392.16	67.88
392.36	63.19
392.55	124.05
392.75	0.00
392.94	0.00
393.13	11.70
393.33	77.24
393.52	0.00
393.71	7.02
393.91	58.51
394.10	39.79
394.29	0.00
394.49	39.79
394.68	21.06
394.88	28.09
395.07	14.04
395.26	11.70
395.46	46.81
395.65	0.00
395.84	56.17
396.04	0.00
396.23	32.77
396.42	56.17
396.62	0.00
396.81	58.51
397.00	4.68
397.19	0.00
397.39	35.11
397.58	9.36
397.77	0.00
397.97	0.00
398.16	4.68
398.35	0.00
398.55	32.77
398.74	28.09
398.93	0.00
399.12	18.72
399.32	0.00
399.51	0.00
399.70	0.00
399.90	0.00
400.09	18.72
400.28	56.17
400.47	44.47
400.67	9.36
400.86	21.06
401.05	44.47
401.24	0.00
401.44	0.00
401.63	37.45
401.82	25.75
402.01	0.00
402.21	25.75
402.40	46.81
402.59	2.34
402.78	28.09
402.97	42.13
403.17	0.00
403.36	9.36
403.55	51.49
403.74	56.17
403.93	11.70
404.13	107.66
404.32	16.38
404.51	18.72
404.70	39.79
404.89	32.77
405.09	53.83
405.28	2.34
405.47	0.00
405.66	0.00
405.85	0.00
406.05	28.09
406.24	37.45
406.43	72.56
406.62	67.88
406.81	60.85
407.00	60.85
407.20	49.15
407.39	0.00
407.58	35.11
407.77	39.79
407.96	91.28
408.15	9.36
408.34	0.00
408.54	56.17
408.73	35.11
408.92	0.00
409.11	32.77
409.30	56.17
409.49	0.00
409.68	18.72
409.87	2.34
410.07	51.49
410.26	58.51
410.45	0.00
410.64	39.79
410.83	14.04
411.02	14.04
411.21	0.00
411.40	51.49
411.59	81.92
411.78	0.00
411.98	51.49
412.17	28.09
412.36	18.72
412.55	0.00
412.74	42.13
412.93	37.45
413.12	65.54
413.31	35.11
413.50	86.60
413.69	119.37
413.88	21.06
414.07	18.72
414.26	25.75
414.45	56.17
414.64	0.00
414.83	7.02
415.02	32.77
415.22	46.81
415.41	0.00
415.60	0.00
415.79	35.11
415.98	72.56
416.17	37.45
416.36	35.11
416.55	0.00
416.74	0.00
416.93	7.02
417.12	49.15
417.31	14.04
417.50	0.00
417.69	72.56
417.88	88.94
418.07	0.00
418.26	77.24
418.45	18.72
418.64	0.00
418.83	18.72
419.02	44.47
419.21	56.17
419.39	42.13
419.58	0.00
419.77	0.00
419.96	49.15
420.15	63.19
420.34	0.00
420.53	0.00
420.72	9.36
420.91	32.77
421.10	60.85
421.29	138.09
421.48	67.88
421.67	18.72
421.86	4.68
422.05	18.72
422.24	0.00
422.43	39.79
422.61	0.00
422.80	42.13
422.99	25.75
423.18	0.00
423.37	0.00
423.56	49.15
423.75	0.00
423.94	0.00
424.13	9.36
424.32	0.00
424.50	18.72
424.69	37.45
424.88	37.45
425.07	42.13
425.26	0.00
425.45	0.00
425.64	44.47
425.83	0.00
426.01	32.77
426.20	56.17
426.39	70.22
426.58	0.00
426.77	37.45
426.96	30.43
427.15	14.04
427.33	0.00
427.52	14.04
427.71	0.00
427.90	56.17
428.09	63.19
428.28	39.79
428.46	67.88
428.65	35.11
428.84	0.00
429.03	0.00
429.22	49.15
429.40	39.79
429.59	0.00
429.78	42.13
429.97	0.00
430.16	0.00
430.34	16.38
430.53	0.00
430.72	9.36
430.91	86.60
431.10	0.00
431.28	42.13
431.47	9.36
431.66	74.90
431.85	53.83
432.03	37.45
432.22	42.13
432.41	25.75
432.60	35.11
432.79	84.26
432.97	56.17
433.16	42.13
433.35	14.04
433.54	35.11
433.72	0.00
433.91	11.70
434.10	0.00
434.28	37.45
434.47	9.36
434.66	0.00
434.85	28.09
435.03	42.13
435.22	91.28
435.41	32.77
435.59	77.24
435.78	105.32
435.97	35.11
436.16	18.72
436.34	56.17
436.53	0.00
436.72	0.00
436.90	81.92
437.09	74.90
437.28	0.00
437.46	14.04
437.65	16.38
437.84	30.43
438.02	37.45
438.21	46.81
438.40	0.00
438.58	9.36
438.77	42.13
438.96	0.00
439.14	32.77
439.33	70.22
439.52	11.70
439.70	88.94
439.89	30.43
440.08	65.54
440.26	51.49
440.45	65.54
440.63	0.00
440.82	4.68
441.01	18.72
441.19	35.11
441.38	0.00
441.57	0.00
441.75	0.00
441.94	70.22
442.12	63.19
442.31	0.00
442.50	72.56
442.68	39.79
442.87	21.06
443.05	0.00
443.24	0.00
443.43	0.00
443.61	2.34
443.80	0.00
443.98	56.17
444.17	23.41
444.35	16.38
444.54	37.45
444.73	35.11
444.91	56.17
445.10	67.88
445.28	9.36
445.47	65.54
445.65	42.13
445.84	4.68
446.02	46.81
446.21	91.28
446.39	88.94
446.58	86.60
446.77	72.56
446.95	25.75
447.14	49.15
447.32	56.17
447.51	28.09
447.69	18.72
447.88	35.11
448.06	14.04
448.25	2.34
448.43	0.00
448.62	32.77
448.80	0.00
448.99	23.41
449.17	56.17
449.36	44.47
449.54	67.88
449.73	0.00
449.91	0.00
450.10	60.85
450.28	0.00
450.46	16.38
450.65	44.47
450.83	2.34
451.02	49.15
451.20	7.02
451.39	65.54
451.57	4.68
451.76	0.00
451.94	4.68
452.13	14.04
452.31	39.79
452.49	117.03
452.68	0.00
452.86	25.75
453.05	53.83
453.23	79.58
453.42	37.45
453.60	42.13
453.78	65.54
453.97	14.04
454.15	28.09
454.34	67.88
454.52	23.41
454.70	0.00
454.89	2.34
455.07	14.04
455.26	16.38
455.44	86.60
455.62	11.70
455.81	0.00
455.99	60.85
456.17	49.15
456.36	95.96
456.54	70.22
456.73	0.00
456.91	32.77
457.09	32.77
457.28	86.60
457.46	39.79
457.64	0.00
457.83	32.77
458.01	2.34
458.19	7.02
458.38	0.00
458.56	11.70
458.74	58.51
458.93	49.15
459.11	51.49
459.29	18.72
459.48	142.77
459.66	37.45
459.84	0.00
460.03	18.72
460.21	72.56
460.39	46.81
460.57	42.13
460.76	37.45
460.94	0.00
461.12	51.49
461.31	72.56
461.49	0.00
461.67	18.72
461.85	0.00
462.04	0.00
462.22	51.49
462.40	79.58
462.59	14.04
462.77	0.00
462.95	0.00
463.13	30.43
463.32	23.41
463.50	98.30
463.68	70.22
463.86	51.49
464.05	0.00
464.23	11.70
464.41	0.00
464.59	37.45
464.78	53.83
464.96	56.17
465.14	91.28
465.32	79.58
465.50	63.19
465.69	70.22
465.87	86.60
466.05	0.00
466.23	25.75
466.41	51.49
466.60	65.54
466.78	25.75
466.96	44.47
467.14	32.77
467.32	0.00
467.51	11.70
467.69	0.00
467.87	4.68
468.05	30.43
468.23	100.64
468.41	21.06
468.60	46.81
468.78	79.58
468.96	21.06
469.14	74.90
469.32	11.70
469.50	37.45
469.69	32.77
469.87	79.58
470.05	21.06
470.23	121.71
470.41	23.41
470.59	44.47
470.77	0.00
470.95	46.81
471.14	23.41
471.32	21.06
471.50	21.06
471.68	0.00
471.86	49.15
472.04	9.36
472.22	14.04
472.40	39.79
472.58	84.26
472.77	0.00
472.95	0.00
473.13	105.32
473.31	60.85
473.49	51.49
473.67	84.26
473.85	11.70
474.03	23.41
474.21	30.43
474.39	0.00
474.57	0.00
474.75	91.28
474.93	70.22
475.12	16.38
475.30	46.81
475.48	9.36
475.66	37.45
475.84	0.00
476.02	28.09
476.20	0.00
476.38	0.00
476.56	86.60
476.74	107.66
476.92	35.11
477.10	21.06
477.28	35.11
477.46	74.90
477.64	0.00
477.82	105.32
478.00	53.83
478.18	58.51
478.36	60.85
478.54	74.90
478.72	0.00
478.90	37.45
479.08	0.00
479.26	0.00
479.44	23.41
479.62	0.00
479.80	49.15
479.98	51.49
480.16	0.00
480.34	72.56
480.52	39.79
480.70	58.51
480.88	35.11
481.06	32.77
481.24	63.19
481.41	7.02
481.59	0.00
481.77	42.13
481.95	0.00
482.13	0.00
482.31	46.81
482.49	0.00
482.67	14.04
482.85	70.22
483.03	42.13
483.21	91.28
483.39	0.00
483.57	58.51
483.74	53.83
483.92	60.85
484.10	126.39
484.28	14.04
484.46	0.00
484.64	18.72
484.82	25.75
485.00	58.51
485.18	35.11
485.35	49.15
485.53	9.36
485.71	65.54
485.89	21.06
486.07	0.00
486.25	30.43
486.43	23.41
486.61	51.49
486.78	23.41
486.96	37.45
487.14	0.00
487.32	28.09
487.50	0.00
487.68	44.47
487.85	95.96
488.03	0.00
488.21	25.75
488.39	91.28
488.57	42.13
488.75	32.77
488.92	16.38
489.10	46.81
489.28	65.54
489.46	0.00
489.64	9.36
489.81	35.11
489.99	4.68
490.17	28.09
490.35	49.15
490.53	46.81
490.70	9.36
490.88	16.38
491.06	23.41
491.24	25.75
491.41	11.70
491.59	32.77
491.77	32.77
491.95	0.00
492.13	67.88
492.30	107.66
492.48	86.60
492.66	37.45
492.84	39.79
493.01	0.00
493.19	53.83
493.37	65.54
493.54	65.54
493.72	9.36
493.90	65.54
494.08	30.43
494.25	23.41
494.43	0.00
494.61	16.38
494.79	74.90
494.96	51.49
495.14	74.90
495.32	53.83
495.49	107.66
495.67	84.26
495.85	93.62
496.02	0.00
496.20	32.77
496.38	21.06
496.55	91.28
496.73	46.81
496.91	11.70
497.09	72.56
497.26	49.15
497.44	49.15
497.62	14.04
497.79	35.11
497.97	102.98
498.14	74.90
498.32	46.81
498.50	21.06
498.67	79.58
498.85	37.45
499.03	18.72
499.20	79.58
499.38	44.47
499.56	46.81
499.73	65.54
499.91	58.51
500.08	11.70
500.26	0.00
500.44	56.17
500.61	4.68
500.79	16.38
500.97	2.34
501.14	102.98
501.32	51.49
501.49	0.00
501.67	0.00
501.84	35.11
502.02	16.38
502.20	51.49
502.37	60.85
502.55	0.00
502.72	84.26
502.90	28.09
503.07	81.92
503.25	18.72
503.43	11.70
503.60	0.00
503.78	53.83
503.95	2.34
504.13	67.88
504.30	39.79
504.48	25.75
504.65	63.19
504.83	51.49
505.01	49.15
505.18	4.68
505.36	42.13
505.53	105.32
505.71	11.70
505.88	16.38
506.06	91.28
506.23	37.45
506.41	51.49
506.58	46.81
506.76	98.30
506.93	56.17
507.11	0.00
507.28	42.13
507.46	35.11
507.63	51.49
507.81	25.75
507.98	49.15
508.16	25.75
508.33	44.47
508.50	11.70
508.68	0.00
508.85	0.00
509.03	81.92
509.20	0.00
509.38	23.41
509.55	37.45
509.73	35.11
509.90	88.94
510.08	28.09
510.25	25.75
510.42	11.70
510.60	44.47
510.77	44.47
510.95	16.38
511.12	114.69
511.30	74.90
511.47	98.30
511.64	0.00
511.82	42.13
511.99	35.11
512.17	18.72
512.34	16.38
512.51	18.72
512.69	63.19
512.86	42.13
513.04	42.13
513.21	18.72
513.38	16.38
513.56	21.06
513.73	98.30
513.90	58.51
514.08	0.00
514.25	44.47
514.43	0.00
514.60	56.17
514.77	84.26
514.95	79.58
515.12	77.24
515.29	93.62
515.47	79.58
515.64	0.00
515.81	28.09
515.99	58.51
516.16	37.45
516.33	79.58
516.51	39.79
516.68	39.79
516.85	37.45
517.03	53.83
517.20	100.64
517.37	63.19
517.54	88.94
517.72	49.15
517.89	77.24
518.06	70.22
518.24	0.00
518.41	4.68
518.58	46.81
518.75	0.00
518.93	65.54
519.10	39.79
519.27	39.79
519.45	65.54
519.62	84.26
519.79	79.58
519.96	32.77
520.14	18.72
520.31	32.77
520.48	67.88
520.65	65.54
520.83	35.11
521.00	51.49
521.17	0.00
521.34	0.00
521.52	107.66
521.69	0.00
521.86	60.85
522.03	32.77
522.20	14.04
522.38	60.85
522.55	53.83
522.72	65.54
522.89	58.51
523.07	23.41
523.24	131.07
523.41	58.51
523.58	16.38
523.75	28.09
523.92	18.72
524.10	98.30
524.27	0.00
524.44	32.77
524.61	30.43
524.78	42.13
524.96	79.58
525.13	74.90
525.30	56.17
525.47	25.75
525.64	126.39
525.81	28.09
525.98	77.24
526.16	53.83
526.33	28.09
526.50	23.41
526.67	0.00
526.84	0.00
527.01	23.41
527.18	44.47
527.36	70.22
527.53	39.79
527.70	74.90
527.87	0.00
528.04	4.68
528.21	21.06
528.38	0.00
528.55	98.30
528.72	7.02
528.89	65.54
529.07	86.60
529.24	30.43
529.41	46.81
529.58	67.88
529.75	51.49
529.92	65.54
530.09	60.85
530.26	28.09
530.43	74.90
530.60	9.36
530.77	126.39
530.94	53.83
531.11	88.94
531.28	37.45
531.46	51.49
531.63	79.58
531.80	51.49
531.97	39.79
532.14	0.00
532.31	4.68
532.48	46.81
532.65	37.45
532.82	39.79
532.99	0.00
533.16	0.00
533.33	32.77
533.50	7.02
533.67	102.98
533.84	67.88
534.01	42.13
534.18	110.01
534.35	49.15
534.52	0.00
534.69	0.00
534.86	0.00
535.03	84.26
535.20	2.34
535.37	32.77
535.54	56.17
535.71	32.77
535.88	25.75
536.05	39.79
536.22	11.70
536.38	7.02
536.55	70.22
536.72	77.24
536.89	35.11
537.06	0.00
537.23	46.81
537.40	60.85
537.57	28.09
537.74	53.83
537.91	4.68
538.08	42.13
538.25	88.94
538.42	39.79
538.59	0.00
538.75	21.06
538.92	72.56
539.09	65.54
539.26	70.22
539.43	53.83
539.60	63.19
539.77	88.94
539.94	135.75
540.11	11.70
540.28	49.15
540.44	77.24
540.61	79.58
540.78	93.62
540.95	74.90
541.12	18.72
541.29	58.51
541.46	63.19
541.62	110.01
541.79	39.79
541.96	88.94
542.13	37.45
542.30	28.09
542.47	4.68
542.63	37.45
542.80	7.02
542.97	30.43
543.14	63.19
543.31	70.22
543.48	79.58
543.64	110.01
543.81	42.13
543.98	42.13
544.15	4.68
544.32	65.54
544.48	23.41
544.65	35.11
544.82	0.00
544.99	28.09
545.16	117.03
545.32	23.41
545.49	0.00
545.66	42.13
545.83	21.06
546.00	51.49
546.16	0.00
546.33	0.00
546.50	35.11
546.67	23.41
546.83	21.06
547.00	44.47
547.17	30.43
547.34	16.38
547.50	39.79
547.67	42.13
547.84	37.45
548.00	0.00
548.17	37.45
548.34	63.19
548.51	49.15
548.67	23.41
548.84	0.00
549.01	35.11
549.18	86.60
549.34	49.15
549.51	88.94
549.68	0.00
549.84	74.90
550.01	0.00
550.18	25.75
550.34	0.00
550.51	46.81
550.68	0.00
550.84	51.49
551.01	51.49
551.18	0.00
551.34	30.43
551.51	86.60
551.68	35.11
551.84	23.41
552.01	23.41
552.18	56.17
552.34	0.00
552.51	11.70
552.68	81.92
552.84	72.56
553.01	30.43
553.18	30.43
553.34	18.72
553.51	42.13
553.67	0.00
553.84	0.00
554.01	39.79
554.17	86.60
554.34	30.43
554.51	91.28
554.67	0.00
554.84	2.34
555.00	0.00
555.17	7.02
555.33	77.24
555.50	4.68
555.67	4.68
555.83	51.49
556.00	32.77
556.16	35.11
556.33	84.26
556.50	72.56
556.66	46.81
556.83	0.00
556.99	25.75
557.16	42.13
557.32	49.15
557.49	70.22
557.65	44.47
557.82	51.49
557.98	51.49
558.15	2.34
558.32	4.68
558.48	53.83
558.65	30.43
558.81	70.22
558.98	0.00
559.14	60.85
559.31	44.47
559.47	86.60
559.64	0.00
559.80	93.62
559.97	25.75
560.13	53.83
560.30	49.15
560.46	4.68
560.63	58.51
560.79	70.22
560.96	30.43
561.12	56.17
561.29	23.41
561.45	25.75
561.61	16.38
561.78	91.28
561.94	74.90
562.11	86.60
562.27	16.38
562.44	51.49
562.60	0.00
562.77	7.02
562.93	70.22
563.10	53.83
563.26	23.41
563.42	51.49
563.59	0.00
563.75	0.00
563.92	63.19
564.08	39.79
564.24	88.94
564.41	23.41
564.57	16.38
564.74	25.75
564.90	23.41
565.07	30.43
565.23	0.00
565.39	51.49
565.56	93.62
565.72	53.83
565.88	0.00
566.05	53.83
566.21	79.58
566.38	95.96
566.54	77.24
566.70	14.04
566.87	37.45
567.03	0.00
567.19	88.94
567.36	67.88
567.52	0.00
567.68	72.56
567.85	39.79
568.01	46.81
568.17	0.00
568.34	44.47
568.50	16.38
568.66	28.09
568.83	21.06
568.99	9.36
569.15	51.49
569.32	112.35
569.48	65.54
569.64	7.02
569.81	0.00
569.97	9.36
570.13	0.00
570.30	0.00
570.46	58.51
570.62	37.45
570.78	112.35
570.95	60.85
571.11	74.90
571.27	65.54
571.43	53.83
571.60	86.60
571.76	23.41
571.92	42.13
572.09	56.17
572.25	11.70
572.41	35.11
572.57	0.00
572.74	30.43
572.90	88.94
573.06	110.01
573.22	81.92
573.38	14.04
573.55	84.26
573.71	25.75
573.87	4.68
574.03	110.01
574.20	149.79
574.36	14.04
574.52	67.88
574.68	72.56
574.84	60.85
575.01	93.62
575.17	0.00
575.33	72.56
575.49	42.13
575.65	0.00
575.82	32.77
575.98	37.45
576.14	0.00
576.30	0.00
576.46	65.54
576.62	37.45
576.79	9.36
576.95	25.75
577.11	72.56
577.27	77.24
577.43	21.06
577.59	84.26
577.75	79.58
577.92	18.72
578.08	18.72
578.24	88.94
578.40	53.83
578.56	46.81
578.72	60.85
578.88	35.11
579.04	23.41
579.21	18.72
579.37	37.45
579.53	42.13
579.69	25.75
579.85	65.54
580.01	25.75
580.17	58.51
580.33	60.85
580.49	46.81
580.65	114.69
580.82	35.11
580.98	53.83
581.14	16.38
581.30	51.49
581.46	72.56
581.62	32.77
581.78	65.54
581.94	23.41
582.10	77.24
582.26	98.30
582.42	107.66
582.58	100.64
582.74	11.70
582.90	23.41
583.06	86.60
583.22	42.13
583.38	0.00
583.54	56.17
583.70	44.47
583.86	63.19
584.02	39.79
584.18	46.81
584.34	16.38
584.50	124.05
584.66	713.86
584.82	1839.66
584.98	3208.87
585.14	2946.73
585.30	1856.04
585.46	1078.99
585.62	741.95
585.78	351.08
585.94	194.26
586.10	46.81
586.26	0.00
586.42	98.30
586.58	58.51
586.74	37.45
586.90	112.35
587.06	42.13
587.22	95.96
587.38	16.38
587.54	18.72
587.70	100.64
587.86	278.52
588.02	250.44
588.18	159.16
588.34	79.58
588.49	147.45
588.65	110.01
588.81	32.77
588.97	98.30
589.13	72.56
589.29	51.49
589.45	23.41
589.61	16.38
589.77	28.09
589.93	30.43
590.08	18.72
590.24	30.43
590.40	39.79
590.56	14.04
590.72	0.00
590.88	88.94
591.04	42.13
591.20	9.36
591.35	74.90
591.51	63.19
591.67	9.36
591.83	58.51
591.99	0.00
592.15	35.11
592.31	67.88
592.46	105.32
592.62	117.03
592.78	58.51
592.94	7.02
593.10	0.00
593.26	35.11
593.41	4.68
593.57	35.11
593.73	74.90
593.89	124.05
594.05	262.14
594.20	475.13
594.36	397.89
594.52	313.63
594.68	121.71
594.84	49.15
594.99	81.92
595.15	0.00
595.31	63.19
595.47	32.77
595.62	37.45
595.78	0.00
595.94	63.19
596.10	105.32
596.25	35.11
596.41	0.00
596.57	65.54
596.73	21.06
596.88	23.41
597.04	79.58
597.20	124.05
597.36	138.09
597.51	102.98
597.67	110.01
597.83	93.62
597.99	49.15
598.14	32.77
598.30	28.09
598.46	0.00
598.61	4.68
598.77	102.98
598.93	0.00
599.09	46.81
599.24	0.00
599.40	56.17
599.56	93.62
599.71	72.56
599.87	16.38
600.03	0.00
600.18	25.75
600.34	63.19
600.50	42.13
600.65	0.00
600.81	30.43
600.97	107.66
601.12	86.60
601.28	11.70
601.44	72.56
601.59	39.79
601.75	0.00
601.91	77.24
602.06	0.00
602.22	39.79
602.37	2.34
602.53	28.09
602.69	121.71
602.84	74.90
603.00	88.94
603.16	23.41
603.31	65.54
603.47	81.92
603.62	21.06
603.78	49.15
603.94	0.00
604.09	53.83
604.25	28.09
604.40	28.09
604.56	56.17
604.71	67.88
604.87	0.00
605.03	49.15
605.18	0.00
605.34	0.00
605.49	11.70
605.65	42.13
605.80	11.70
605.96	44.47
606.12	51.49
606.27	95.96
606.43	56.17
606.58	74.90
606.74	124.05
606.89	95.96
607.05	311.29
607.20	402.57
607.36	273.84
607.51	231.71
607.67	168.52
607.82	142.77
607.98	77.24
608.13	100.64
608.29	7.02
608.44	35.11
608.60	7.02
608.75	7.02
608.91	93.62
609.06	184.90
609.22	435.34
609.37	622.58
609.53	620.24
609.68	449.38
609.84	266.82
609.99	161.50
610.15	117.03
610.30	142.77
610.46	0.00
610.61	63.19
610.76	0.00
610.92	84.26
611.07	0.00
611.23	39.79
611.38	63.19
611.54	30.43
611.69	110.01
611.84	11.70
612.00	32.77
612.15	39.79
612.31	0.00
612.46	63.19
612.62	44.47
612.77	0.00
612.92	11.70
613.08	14.04
613.23	44.47
613.39	21.06
613.54	72.56
613.69	220.01
613.85	423.64
614.00	816.85
614.15	994.73
614.31	681.10
614.46	458.74
614.62	325.33
614.77	252.78
614.92	95.96
615.08	126.39
615.23	30.43
615.38	110.01
615.54	0.00
615.69	88.94
615.84	91.28
616.00	255.12
616.15	301.93
616.30	292.57
616.46	184.90
616.61	152.13
616.76	114.69
616.92	117.03
617.07	16.38
617.22	35.11
617.37	49.15
617.53	42.13
617.68	18.72
617.83	0.00
617.99	60.85
618.14	37.45
618.29	65.54
618.45	60.85
618.60	67.88
618.75	42.13
618.90	32.77
619.06	95.96
619.21	98.30
619.36	107.66
619.51	0.00
619.67	32.77
619.82	35.11
619.97	23.41
620.12	53.83
620.28	88.94
620.43	28.09
620.58	65.54
620.73	37.45
620.89	35.11
621.04	60.85
621.19	58.51
621.34	135.75
621.49	145.11
621.65	159.16
621.80	124.05
621.95	72.56
622.10	67.88
622.25	112.35
622.41	91.28
622.56	67.88
622.71	39.79
622.86	81.92
623.01	74.90
623.16	67.88
623.32	93.62
623.47	88.94
623.62	9.36
623.77	0.00
623.92	142.77
624.07	88.94
624.23	18.72
624.38	0.00
624.53	39.79
624.68	86.60
624.83	37.45
624.98	9.36
625.13	0.00
625.29	0.00
625.44	133.41
625.59	25.75
625.74	74.90
625.89	46.81
626.04	95.96
626.19	262.14
626.34	416.62
626.49	543.00
626.65	393.21
626.80	276.18
626.95	161.50
627.10	196.60
627.25	119.37
627.40	0.00
627.55	35.11
627.70	0.00
627.85	67.88
628.00	79.58
628.15	25.75
628.30	28.09
628.45	84.26
628.60	11.70
628.76	0.00
628.91	0.00
629.06	0.00
629.21	58.51
629.36	72.56
629.51	11.70
629.66	84.26
629.81	28.09
629.96	21.06
630.11	58.51
630.26	133.41
630.41	173.20
630.56	105.32
630.71	105.32
630.86	91.28
631.01	44.47
631.16	0.00
631.31	110.01
631.46	46.81
631.61	18.72
631.76	23.41
631.91	65.54
632.06	39.79
632.21	65.54
632.36	77.24
632.51	14.04
632.66	117.03
632.81	102.98
632.96	102.98
633.10	241.08
633.25	379.17
633.40	355.76
633.55	175.54
633.70	126.39
633.85	119.37
634.00	53.83
634.15	0.00
634.30	72.56
634.45	67.88
634.60	39.79
634.75	28.09
634.90	35.11
635.05	44.47
635.19	11.70
635.34	23.41
635.49	88.94
635.64	32.77
635.79	110.01
635.94	105.32
636.09	23.41
636.24	100.64
636.39	37.45
636.53	49.15
636.68	28.09
636.83	77.24
636.98	60.85
637.13	37.45
637.28	2.34
637.43	39.79
637.57	84.26
637.72	138.09
637.87	344.06
638.02	575.77
638.17	615.56
638.32	552.37
638.46	339.38
638.61	273.84
638.76	135.75
638.91	63.19
639.06	72.56
639.20	37.45
639.35	65.54
639.50	46.81
639.65	231.71
639.80	475.13
639.94	814.51
640.09	1100.05
640.24	807.48
640.39	454.06
640.54	287.89
640.68	224.69
640.83	184.90
640.98	95.96
641.13	100.64
641.27	81.92
641.42	46.81
641.57	42.13
641.72	46.81
641.86	53.83
642.01	30.43
642.16	91.28
642.31	67.88
642.45	0.00
642.60	105.32
642.75	60.85
642.90	79.58
643.04	49.15
643.19	0.00
643.34	112.35
643.48	60.85
643.63	0.00
643.78	60.85
643.93	91.28
644.07	21.06
644.22	11.70
644.37	51.49
644.51	0.00
644.66	4.68
644.81	25.75
644.95	70.22
645.10	37.45
645.25	0.00
645.39	49.15
645.54	63.19
645.69	2.34
645.83	9.36
645.98	23.41
646.13	0.00
646.27	51.49
646.42	70.22
646.57	28.09
646.71	0.00
646.86	0.00
647.00	18.72
647.15	21.06
647.30	67.88
647.44	28.09
647.59	0.00
647.74	0.00
647.88	63.19
648.03	35.11
648.17	70.22
648.32	18.72
648.47	4.68
648.61	42.13
648.76	23.41
648.90	46.81
649.05	0.00
649.20	7.02
649.34	37.45
649.49	23.41
649.63	0.00
649.78	79.58
649.92	21.06
650.07	65.54
650.21	198.95
650.36	493.85
650.51	582.79
650.65	440.02
650.80	337.04
650.94	212.99
651.09	147.45
651.23	63.19
651.38	79.58
651.52	65.54
651.67	39.79
651.81	51.49
651.96	7.02
652.10	35.11
652.25	9.36
652.39	9.36
652.54	60.85
652.68	58.51
652.83	79.58
652.97	102.98
653.12	220.01
653.26	182.56
653.41	124.05
653.55	126.39
653.70	88.94
653.84	58.51
653.99	14.04
654.13	0.00
654.27	67.88
654.42	25.75
654.56	30.43
654.71	53.83
654.85	30.43
655.00	42.13
655.14	23.41
655.29	72.56
655.43	0.00
655.57	56.17
655.72	18.72
655.86	23.41
656.01	4.68
656.15	49.15
656.30	37.45
656.44	0.00
656.58	0.00
656.73	42.13
656.87	0.00
657.01	11.70
657.16	11.70
657.30	46.81
657.45	32.77
657.59	63.19
657.73	46.81
657.88	102.98
658.02	11.70
658.16	0.00
658.31	32.77
658.45	74.90
658.60	23.41
658.74	53.83
658.88	51.49
659.03	0.00
659.17	44.47
659.31	0.00
659.46	124.05
659.60	248.10
659.74	262.14
659.89	299.59
660.03	196.60
660.17	159.16
660.32	86.60
660.46	39.79
660.60	53.83
660.74	67.88
660.89	0.00
661.03	128.73
661.17	35.11
661.32	23.41
661.46	0.00
661.60	70.22
661.74	0.00
661.89	0.00
662.03	25.75
662.17	0.00
662.31	0.00
662.46	98.30
662.60	42.13
662.74	0.00
662.88	37.45
663.03	14.04
663.17	44.47
663.31	63.19
663.45	0.00
663.60	0.00
663.74	14.04
663.88	0.00
664.02	2.34
664.17	56.17
664.31	32.77
664.45	39.79
664.59	0.00
664.73	79.58
664.88	44.47
665.02	44.47
665.16	42.13
665.30	58.51
665.44	23.41
665.59	58.51
665.73	0.00
665.87	4.68
666.01	2.34
666.15	0.00
666.29	0.00
666.44	44.47
666.58	37.45
666.72	98.30
666.86	0.00
667.00	0.00
667.14	102.98
667.28	2.34
667.43	205.97
667.57	304.27
667.71	500.87
667.85	393.21
667.99	287.89
668.13	154.48
668.27	152.13
668.41	121.71
668.56	77.24
668.70	44.47
668.84	0.00
668.98	93.62
669.12	0.00
669.26	65.54
669.40	49.15
669.54	46.81
669.68	23.41
669.82	91.28
669.96	0.00
670.10	0.00
670.25	0.00
670.39	0.00
670.53	0.00
670.67	18.72
670.81	0.00
670.95	79.58
671.09	67.88
671.23	105.32
671.37	166.18
671.51	252.78
671.65	313.63
671.79	191.92
671.93	154.48
672.07	224.69
672.21	107.66
672.35	88.94
672.49	0.00
672.63	86.60
672.77	4.68
672.91	0.00
673.05	42.13
673.19	7.02
673.33	28.09
673.47	35.11
673.61	81.92
673.75	49.15
673.89	0.00
674.03	32.77
674.17	25.75
674.31	93.62
674.45	0.00
674.59	42.13
674.73	0.00
674.87	56.17
675.01	0.00
675.15	35.11
675.29	0.00
675.43	49.15
675.56	0.00
675.70	35.11
675.84	53.83
675.98	72.56
676.12	72.56
676.26	88.94
676.40	25.75
676.54	44.47
676.68	0.00
676.82	56.17
676.96	4.68
677.10	91.28
677.23	2.34
677.37	2.34
677.51	84.26
677.65	51.49
677.79	0.00
677.93	11.70
678.07	11.70
678.21	25.75
678.34	74.90
678.48	0.00
678.62	0.00
678.76	0.00
678.90	42.13
679.04	16.38
679.18	25.75
679.31	28.09
679.45	77.24
679.59	37.45
679.73	2.34
679.87	60.85
680.00	21.06
680.14	18.72
680.28	102.98
680.42	88.94
680.56	28.09
680.70	0.00
680.83	0.00
680.97	39.79
681.11	7.02
681.25	4.68
681.39	0.00
681.52	37.45
681.66	0.00
681.80	35.11
681.94	51.49
682.07	46.81
682.21	46.81
682.35	32.77
682.49	56.17
682.62	37.45
682.76	25.75
682.90	0.00
683.04	93.62
683.17	30.43
683.31	28.09
683.45	51.49
683.59	147.45
683.72	77.24
683.86	39.79
684.00	0.00
684.13	49.15
684.27	32.77
684.41	53.83
684.55	42.13
684.68	53.83
684.82	0.00
684.96	23.41
685.09	102.98
685.23	0.00
685.37	4.68
685.50	11.70
685.64	58.51
685.78	0.00
685.91	16.38
686.05	37.45
686.19	7.02
686.32	0.00
686.46	23.41
686.60	42.13
686.73	25.75
686.87	126.39
687.01	63.19
687.14	9.36
687.28	30.43
687.42	4.68
687.55	21.06
687.69	37.45
687.82	0.00
687.96	0.00
688.10	21.06
688.23	72.56
688.37	74.90
688.50	39.79
688.64	0.00
688.78	112.35
688.91	14.04
689.05	74.90
689.18	18.72
689.32	0.00
689.46	77.24
689.59	0.00
689.73	53.83
689.86	53.83
690.00	11.70
690.13	21.06
690.27	0.00
690.41	0.00
690.54	14.04
690.68	9.36
690.81	37.45
690.95	37.45
691.08	37.45
691.22	25.75
691.35	39.79
691.49	0.00
691.62	0.00
691.76	0.00
691.89	56.17
692.03	53.83
692.16	0.00
692.30	49.15
692.43	110.01
692.57	84.26
692.70	86.60
692.84	220.01
692.97	201.29
693.11	149.79
693.24	114.69
693.38	39.79
693.51	58.51
693.65	79.58
693.78	30.43
693.92	49.15
694.05	25.75
694.19	35.11
694.32	63.19
694.45	35.11
694.59	65.54
694.72	0.00
694.86	81.92
694.99	79.58
695.13	53.83
695.26	60.85
695.39	16.38
695.53	14.04
695.66	0.00
695.80	56.17
695.93	0.00
696.07	32.77
696.20	21.06
696.33	49.15
696.47	9.36
696.60	0.00
696.73	67.88
696.87	18.72
697.00	86.60
697.14	100.64
697.27	42.13
697.40	79.58
697.54	0.00
697.67	21.06
697.80	37.45
697.94	23.41
698.07	53.83
698.21	0.00
698.34	25.75
698.47	49.15
698.61	23.41
698.74	21.06
698.87	42.13
699.01	28.09
699.14	30.43
699.27	0.00
699.40	93.62
699.54	70.22
699.67	25.75
699.80	0.00
699.94	25.75
700.07	49.15
700.20	35.11
700.34	25.75
700.47	0.00
700.60	49.15
700.73	49.15
700.87	0.00
701.00	25.75
701.13	72.56
701.26	0.00
701.40	65.54
701.53	21.06
701.66	7.02
701.79	25.75
701.93	86.60
702.06	0.00
702.19	16.38
702.32	105.32
702.46	25.75
702.59	35.11
702.72	91.28
702.85	93.62
702.99	187.24
703.12	365.12
703.25	390.87
703.38	360.44
703.51	264.48
703.65	278.52
703.78	217.67
703.91	107.66
704.04	121.71
704.17	65.54
704.31	91.28
704.44	14.04
704.57	32.77
704.70	25.75
704.83	39.79
704.96	23.41
705.10	37.45
705.23	16.38
>>>>>End Processed Spectral Data<<<<<
