SpectraSuite Data File
++++++++++++++++++++++++++++++++++++
Date: Fri Oct 04 12:13:40 GMT-05:00 2013
User: price-jones
Dark Spectrum Present: No
Reference Spectrum Present: No
Number of Sampled Component Spectra: 1
Spectrometers: USB2+H05261
Integration Time (usec): 10000 (USB2+H05261)
Spectra Averaged: 1 (USB2+H05261)
Boxcar Smoothing: 0 (USB2+H05261)
Correct for Electrical Dark: No (USB2+H05261)
Strobe/Lamp Enabled: No (USB2+H05261)
Correct for Detector Non-linearity: No (USB2+H05261)
Correct for Stray Light: No (USB2+H05261)
Number of Pixels in Processed Spectrum: 2048
>>>>>Begin Processed Spectral Data<<<<<
365.73	4.68
365.92	4.68
366.12	4.68
366.32	0.00
366.52	0.00
366.72	0.00
366.91	0.00
367.11	0.00
367.31	0.00
367.51	0.00
367.70	0.00
367.90	0.00
368.10	0.00
368.30	0.00
368.49	0.00
368.69	0.00
368.89	0.00
369.09	0.00
369.28	0.00
369.48	0.00
369.68	0.00
369.87	0.00
370.07	0.00
370.27	0.00
370.47	0.00
370.66	0.00
370.86	0.00
371.06	0.00
371.25	7.02
371.45	0.00
371.65	0.00
371.84	0.00
372.04	0.00
372.24	21.06
372.44	21.06
372.63	21.06
372.83	0.00
373.03	4.68
373.22	0.00
373.42	0.00
373.62	23.41
373.81	37.45
374.01	105.32
374.21	56.17
374.40	53.83
374.60	0.00
374.79	30.43
374.99	84.26
375.19	21.06
375.38	93.62
375.58	23.41
375.78	44.47
375.97	4.68
376.17	46.81
376.37	35.11
376.56	0.00
376.76	0.00
376.95	42.13
377.15	35.11
377.35	0.00
377.54	49.15
377.74	2.34
377.93	46.81
378.13	14.04
378.33	14.04
378.52	49.15
378.72	110.01
378.91	2.34
379.11	0.00
379.31	14.04
379.50	16.38
379.70	30.43
379.89	0.00
380.09	2.34
380.28	0.00
380.48	0.00
380.68	72.56
380.87	23.41
381.07	0.00
381.26	70.22
381.46	0.00
381.65	30.43
381.85	0.00
382.04	30.43
382.24	21.06
382.43	0.00
382.63	0.00
382.83	63.19
383.02	79.58
383.22	58.51
383.41	35.11
383.61	107.66
383.80	35.11
384.00	28.09
384.19	0.00
384.39	42.13
384.58	56.17
384.78	0.00
384.97	4.68
385.17	0.00
385.36	2.34
385.56	65.54
385.75	4.68
385.95	84.26
386.14	72.56
386.34	0.00
386.53	23.41
386.72	42.13
386.92	16.38
387.11	0.00
387.31	0.00
387.50	25.75
387.70	0.00
387.89	16.38
388.09	35.11
388.28	0.00
388.48	28.09
388.67	30.43
388.86	74.90
389.06	67.88
389.25	49.15
389.45	18.72
389.64	0.00
389.84	35.11
390.03	72.56
390.22	0.00
390.42	0.00
390.61	44.47
390.81	51.49
391.00	0.00
391.19	79.58
391.39	25.75
391.58	37.45
391.78	28.09
391.97	21.06
392.16	81.92
392.36	0.00
392.55	37.45
392.75	11.70
392.94	18.72
393.13	14.04
393.33	49.15
393.52	0.00
393.71	42.13
393.91	0.00
394.10	46.81
394.29	0.00
394.49	32.77
394.68	44.47
394.88	63.19
395.07	58.51
395.26	9.36
395.46	30.43
395.65	56.17
395.84	37.45
396.04	72.56
396.23	63.19
396.42	93.62
396.62	72.56
396.81	56.17
397.00	14.04
397.19	16.38
397.39	14.04
397.58	9.36
397.77	51.49
397.97	51.49
398.16	0.00
398.35	0.00
398.55	0.00
398.74	23.41
398.93	0.00
399.12	51.49
399.32	30.43
399.51	58.51
399.70	126.39
399.90	35.11
400.09	46.81
400.28	28.09
400.47	21.06
400.67	23.41
400.86	44.47
401.05	2.34
401.24	46.81
401.44	0.00
401.63	23.41
401.82	25.75
402.01	74.90
402.21	21.06
402.40	11.70
402.59	0.00
402.78	37.45
402.97	25.75
403.17	23.41
403.36	11.70
403.55	28.09
403.74	0.00
403.93	35.11
404.13	28.09
404.32	91.28
404.51	72.56
404.70	58.51
404.89	42.13
405.09	32.77
405.28	0.00
405.47	91.28
405.66	39.79
405.85	7.02
406.05	0.00
406.24	0.00
406.43	11.70
406.62	37.45
406.81	23.41
407.00	25.75
407.20	0.00
407.39	35.11
407.58	23.41
407.77	0.00
407.96	9.36
408.15	0.00
408.34	53.83
408.54	0.00
408.73	58.51
408.92	37.45
409.11	21.06
409.30	0.00
409.49	0.00
409.68	91.28
409.87	46.81
410.07	23.41
410.26	58.51
410.45	44.47
410.64	56.17
410.83	100.64
411.02	46.81
411.21	105.32
411.40	46.81
411.59	32.77
411.78	86.60
411.98	84.26
412.17	0.00
412.36	0.00
412.55	70.22
412.74	102.98
412.93	58.51
413.12	0.00
413.31	56.17
413.50	95.96
413.69	56.17
413.88	0.00
414.07	53.83
414.26	42.13
414.45	30.43
414.64	0.00
414.83	14.04
415.02	51.49
415.22	0.00
415.41	32.77
415.60	0.00
415.79	72.56
415.98	42.13
416.17	74.90
416.36	39.79
416.55	60.85
416.74	0.00
416.93	49.15
417.12	14.04
417.31	28.09
417.50	53.83
417.69	0.00
417.88	53.83
418.07	72.56
418.26	81.92
418.45	67.88
418.64	131.07
418.83	95.96
419.02	14.04
419.21	0.00
419.39	21.06
419.58	77.24
419.77	49.15
419.96	4.68
420.15	72.56
420.34	16.38
420.53	58.51
420.72	77.24
420.91	0.00
421.10	0.00
421.29	0.00
421.48	74.90
421.67	37.45
421.86	35.11
422.05	63.19
422.24	81.92
422.43	107.66
422.61	93.62
422.80	9.36
422.99	23.41
423.18	44.47
423.37	88.94
423.56	0.00
423.75	37.45
423.94	16.38
424.13	37.45
424.32	30.43
424.50	65.54
424.69	46.81
424.88	65.54
425.07	58.51
425.26	98.30
425.45	81.92
425.64	72.56
425.83	0.00
426.01	72.56
426.20	56.17
426.39	25.75
426.58	65.54
426.77	0.00
426.96	65.54
427.15	72.56
427.33	0.00
427.52	81.92
427.71	60.85
427.90	0.00
428.09	21.06
428.28	44.47
428.46	0.00
428.65	18.72
428.84	67.88
429.03	100.64
429.22	0.00
429.40	37.45
429.59	0.00
429.78	37.45
429.97	21.06
430.16	0.00
430.34	91.28
430.53	74.90
430.72	72.56
430.91	0.00
431.10	39.79
431.28	0.00
431.47	4.68
431.66	11.70
431.85	67.88
432.03	107.66
432.22	72.56
432.41	63.19
432.60	86.60
432.79	107.66
432.97	53.83
433.16	35.11
433.35	44.47
433.54	107.66
433.72	14.04
433.91	37.45
434.10	21.06
434.28	79.58
434.47	79.58
434.66	58.51
434.85	72.56
435.03	65.54
435.22	81.92
435.41	56.17
435.59	4.68
435.78	65.54
435.97	0.00
436.16	2.34
436.34	49.15
436.53	95.96
436.72	67.88
436.90	0.00
437.09	121.71
437.28	9.36
437.46	35.11
437.65	65.54
437.84	56.17
438.02	9.36
438.21	30.43
438.40	58.51
438.58	60.85
438.77	72.56
438.96	23.41
439.14	124.05
439.33	58.51
439.52	14.04
439.70	70.22
439.89	0.00
440.08	14.04
440.26	18.72
440.45	100.64
440.63	74.90
440.82	91.28
441.01	44.47
441.19	0.00
441.38	77.24
441.57	49.15
441.75	42.13
441.94	102.98
442.12	14.04
442.31	93.62
442.50	49.15
442.68	21.06
442.87	30.43
443.05	72.56
443.24	49.15
443.43	65.54
443.61	65.54
443.80	98.30
443.98	58.51
444.17	100.64
444.35	79.58
444.54	63.19
444.73	23.41
444.91	0.00
445.10	14.04
445.28	35.11
445.47	58.51
445.65	98.30
445.84	65.54
446.02	49.15
446.21	4.68
446.39	25.75
446.58	112.35
446.77	51.49
446.95	35.11
447.14	114.69
447.32	53.83
447.51	74.90
447.69	25.75
447.88	0.00
448.06	51.49
448.25	35.11
448.43	35.11
448.62	11.70
448.80	37.45
448.99	25.75
449.17	35.11
449.36	88.94
449.54	28.09
449.73	0.00
449.91	60.85
450.10	60.85
450.28	86.60
450.46	37.45
450.65	72.56
450.83	63.19
451.02	30.43
451.20	0.00
451.39	79.58
451.57	93.62
451.76	98.30
451.94	63.19
452.13	51.49
452.31	39.79
452.49	70.22
452.68	11.70
452.86	51.49
453.05	39.79
453.23	39.79
453.42	44.47
453.60	16.38
453.78	51.49
453.97	84.26
454.15	74.90
454.34	23.41
454.52	79.58
454.70	44.47
454.89	37.45
455.07	53.83
455.26	65.54
455.44	44.47
455.62	32.77
455.81	107.66
455.99	23.41
456.17	72.56
456.36	32.77
456.54	39.79
456.73	60.85
456.91	35.11
457.09	21.06
457.28	93.62
457.46	9.36
457.64	100.64
457.83	37.45
458.01	65.54
458.19	37.45
458.38	11.70
458.56	46.81
458.74	74.90
458.93	70.22
459.11	77.24
459.29	0.00
459.48	42.13
459.66	32.77
459.84	32.77
460.03	88.94
460.21	23.41
460.39	4.68
460.57	63.19
460.76	105.32
460.94	0.00
461.12	147.45
461.31	86.60
461.49	126.39
461.67	53.83
461.85	88.94
462.04	25.75
462.22	98.30
462.40	170.86
462.59	114.69
462.77	84.26
462.95	110.01
463.13	124.05
463.32	81.92
463.50	28.09
463.68	60.85
463.86	51.49
464.05	37.45
464.23	30.43
464.41	37.45
464.59	37.45
464.78	124.05
464.96	32.77
465.14	65.54
465.32	56.17
465.50	65.54
465.69	79.58
465.87	23.41
466.05	16.38
466.23	60.85
466.41	53.83
466.60	79.58
466.78	79.58
466.96	126.39
467.14	91.28
467.32	32.77
467.51	35.11
467.69	98.30
467.87	35.11
468.05	63.19
468.23	28.09
468.41	60.85
468.60	88.94
468.78	74.90
468.96	79.58
469.14	58.51
469.32	70.22
469.50	0.00
469.69	23.41
469.87	25.75
470.05	0.00
470.23	35.11
470.41	4.68
470.59	42.13
470.77	93.62
470.95	42.13
471.14	93.62
471.32	77.24
471.50	39.79
471.68	0.00
471.86	35.11
472.04	35.11
472.22	56.17
472.40	16.38
472.58	49.15
472.77	91.28
472.95	140.43
473.13	67.88
473.31	35.11
473.49	65.54
473.67	60.85
473.85	58.51
474.03	35.11
474.21	0.00
474.39	105.32
474.57	93.62
474.75	49.15
474.93	60.85
475.12	79.58
475.30	102.98
475.48	65.54
475.66	95.96
475.84	159.16
476.02	49.15
476.20	79.58
476.38	63.19
476.56	23.41
476.74	91.28
476.92	74.90
477.10	42.13
477.28	86.60
477.46	0.00
477.64	23.41
477.82	44.47
478.00	63.19
478.18	67.88
478.36	88.94
478.54	58.51
478.72	49.15
478.90	28.09
479.08	74.90
479.26	56.17
479.44	98.30
479.62	30.43
479.80	0.00
479.98	18.72
480.16	72.56
480.34	60.85
480.52	112.35
480.70	56.17
480.88	70.22
481.06	28.09
481.24	65.54
481.41	56.17
481.59	95.96
481.77	65.54
481.95	60.85
482.13	46.81
482.31	28.09
482.49	63.19
482.67	77.24
482.85	53.83
483.03	18.72
483.21	35.11
483.39	0.00
483.57	72.56
483.74	30.43
483.92	14.04
484.10	159.16
484.28	23.41
484.46	74.90
484.64	0.00
484.82	105.32
485.00	4.68
485.18	0.00
485.35	124.05
485.53	37.45
485.71	63.19
485.89	37.45
486.07	9.36
486.25	32.77
486.43	63.19
486.61	65.54
486.78	14.04
486.96	32.77
487.14	51.49
487.32	163.84
487.50	72.56
487.68	86.60
487.85	56.17
488.03	107.66
488.21	70.22
488.39	67.88
488.57	35.11
488.75	100.64
488.92	39.79
489.10	67.88
489.28	88.94
489.46	117.03
489.64	112.35
489.81	117.03
489.99	98.30
490.17	156.82
490.35	60.85
490.53	74.90
490.70	135.75
490.88	126.39
491.06	49.15
491.24	88.94
491.41	16.38
491.59	42.13
491.77	63.19
491.95	124.05
492.13	42.13
492.30	135.75
492.48	77.24
492.66	42.13
492.84	88.94
493.01	88.94
493.19	23.41
493.37	79.58
493.54	28.09
493.72	119.37
493.90	60.85
494.08	65.54
494.25	124.05
494.43	63.19
494.61	93.62
494.79	114.69
494.96	0.00
495.14	72.56
495.32	77.24
495.49	53.83
495.67	119.37
495.85	44.47
496.02	30.43
496.20	168.52
496.38	114.69
496.55	159.16
496.73	100.64
496.91	100.64
497.09	53.83
497.26	128.73
497.44	65.54
497.62	65.54
497.79	79.58
497.97	70.22
498.14	112.35
498.32	72.56
498.50	42.13
498.67	81.92
498.85	77.24
499.03	46.81
499.20	98.30
499.38	86.60
499.56	21.06
499.73	67.88
499.91	95.96
500.08	18.72
500.26	98.30
500.44	32.77
500.61	58.51
500.79	28.09
500.97	23.41
501.14	51.49
501.32	91.28
501.49	72.56
501.67	56.17
501.84	53.83
502.02	121.71
502.20	72.56
502.37	35.11
502.55	49.15
502.72	91.28
502.90	25.75
503.07	46.81
503.25	44.47
503.43	98.30
503.60	53.83
503.78	79.58
503.95	93.62
504.13	119.37
504.30	105.32
504.48	98.30
504.65	65.54
504.83	77.24
505.01	112.35
505.18	110.01
505.36	152.13
505.53	81.92
505.71	107.66
505.88	102.98
506.06	105.32
506.23	133.41
506.41	107.66
506.58	79.58
506.76	72.56
506.93	51.49
507.11	86.60
507.28	128.73
507.46	140.43
507.63	0.00
507.81	18.72
507.98	107.66
508.16	53.83
508.33	86.60
508.50	44.47
508.68	88.94
508.85	46.81
509.03	86.60
509.20	154.48
509.38	53.83
509.55	74.90
509.73	65.54
509.90	88.94
510.08	105.32
510.25	86.60
510.42	170.86
510.60	93.62
510.77	58.51
510.95	117.03
511.12	166.18
511.30	112.35
511.47	110.01
511.64	51.49
511.82	79.58
511.99	86.60
512.17	102.98
512.34	88.94
512.51	126.39
512.69	63.19
512.86	74.90
513.04	28.09
513.21	105.32
513.38	98.30
513.56	86.60
513.73	135.75
513.90	56.17
514.08	51.49
514.25	100.64
514.43	95.96
514.60	100.64
514.77	70.22
514.95	81.92
515.12	110.01
515.29	56.17
515.47	0.00
515.64	79.58
515.81	138.09
515.99	72.56
516.16	30.43
516.33	91.28
516.51	79.58
516.68	100.64
516.85	135.75
517.03	131.07
517.20	65.54
517.37	63.19
517.54	79.58
517.72	70.22
517.89	102.98
518.06	81.92
518.24	105.32
518.41	72.56
518.58	84.26
518.75	98.30
518.93	102.98
519.10	77.24
519.27	9.36
519.45	102.98
519.62	51.49
519.79	159.16
519.96	67.88
520.14	60.85
520.31	93.62
520.48	93.62
520.65	42.13
520.83	42.13
521.00	51.49
521.17	58.51
521.34	74.90
521.52	81.92
521.69	98.30
521.86	11.70
522.03	67.88
522.20	65.54
522.38	131.07
522.55	60.85
522.72	140.43
522.89	100.64
523.07	112.35
523.24	81.92
523.41	25.75
523.58	98.30
523.75	86.60
523.92	56.17
524.10	67.88
524.27	152.13
524.44	65.54
524.61	91.28
524.78	23.41
524.96	91.28
525.13	11.70
525.30	16.38
525.47	67.88
525.64	149.79
525.81	4.68
525.98	100.64
526.16	100.64
526.33	93.62
526.50	67.88
526.67	67.88
526.84	81.92
527.01	51.49
527.18	37.45
527.36	173.20
527.53	0.00
527.70	67.88
527.87	145.11
528.04	42.13
528.21	79.58
528.38	79.58
528.55	102.98
528.72	39.79
528.89	163.84
529.07	138.09
529.24	77.24
529.41	60.85
529.58	58.51
529.75	0.00
529.92	25.75
530.09	102.98
530.26	9.36
530.43	84.26
530.60	81.92
530.77	114.69
530.94	114.69
531.11	110.01
531.28	0.00
531.46	86.60
531.63	79.58
531.80	72.56
531.97	65.54
532.14	133.41
532.31	91.28
532.48	77.24
532.65	70.22
532.82	86.60
532.99	154.48
533.16	100.64
533.33	105.32
533.50	119.37
533.67	72.56
533.84	105.32
534.01	46.81
534.18	30.43
534.35	0.00
534.52	49.15
534.69	180.22
534.86	67.88
535.03	121.71
535.20	65.54
535.37	110.01
535.54	107.66
535.71	63.19
535.88	9.36
536.05	114.69
536.22	72.56
536.38	46.81
536.55	58.51
536.72	161.50
536.89	72.56
537.06	86.60
537.23	102.98
537.40	67.88
537.57	86.60
537.74	119.37
537.91	135.75
538.08	114.69
538.25	95.96
538.42	0.00
538.59	161.50
538.75	84.26
538.92	112.35
539.09	145.11
539.26	16.38
539.43	145.11
539.60	49.15
539.77	74.90
539.94	142.77
540.11	91.28
540.28	0.00
540.44	102.98
540.61	81.92
540.78	30.43
540.95	189.58
541.12	72.56
541.29	46.81
541.46	114.69
541.62	147.45
541.79	58.51
541.96	121.71
542.13	102.98
542.30	0.00
542.47	60.85
542.63	110.01
542.80	32.77
542.97	84.26
543.14	117.03
543.31	110.01
543.48	25.75
543.64	142.77
543.81	100.64
543.98	81.92
544.15	100.64
544.32	98.30
544.48	44.47
544.65	93.62
544.82	39.79
544.99	51.49
545.16	173.20
545.32	126.39
545.49	88.94
545.66	74.90
545.83	56.17
546.00	77.24
546.16	74.90
546.33	0.00
546.50	100.64
546.67	149.79
546.83	56.17
547.00	77.24
547.17	98.30
547.34	67.88
547.50	147.45
547.67	88.94
547.84	102.98
548.00	126.39
548.17	81.92
548.34	126.39
548.51	128.73
548.67	88.94
548.84	65.54
549.01	121.71
549.18	145.11
549.34	198.95
549.51	65.54
549.68	79.58
549.84	98.30
550.01	16.38
550.18	133.41
550.34	112.35
550.51	98.30
550.68	70.22
550.84	65.54
551.01	117.03
551.18	81.92
551.34	147.45
551.51	121.71
551.68	117.03
551.84	107.66
552.01	49.15
552.18	95.96
552.34	126.39
552.51	110.01
552.68	112.35
552.84	105.32
553.01	84.26
553.18	88.94
553.34	93.62
553.51	138.09
553.67	53.83
553.84	128.73
554.01	88.94
554.17	32.77
554.34	110.01
554.51	105.32
554.67	100.64
554.84	77.24
555.00	63.19
555.17	145.11
555.33	65.54
555.50	56.17
555.67	21.06
555.83	112.35
556.00	112.35
556.16	100.64
556.33	74.90
556.50	112.35
556.66	133.41
556.83	56.17
556.99	70.22
557.16	65.54
557.32	102.98
557.49	131.07
557.65	65.54
557.82	138.09
557.98	81.92
558.15	30.43
558.32	117.03
558.48	84.26
558.65	77.24
558.81	70.22
558.98	65.54
559.14	107.66
559.31	128.73
559.47	23.41
559.64	53.83
559.80	7.02
559.97	100.64
560.13	140.43
560.30	63.19
560.46	140.43
560.63	51.49
560.79	102.98
560.96	79.58
561.12	79.58
561.29	72.56
561.45	65.54
561.61	142.77
561.78	154.48
561.94	112.35
562.11	135.75
562.27	72.56
562.44	56.17
562.60	11.70
562.77	100.64
562.93	107.66
563.10	49.15
563.26	49.15
563.42	79.58
563.59	112.35
563.75	100.64
563.92	88.94
564.08	98.30
564.24	112.35
564.41	114.69
564.57	84.26
564.74	98.30
564.90	72.56
565.07	72.56
565.23	37.45
565.39	119.37
565.56	56.17
565.72	74.90
565.88	88.94
566.05	128.73
566.21	100.64
566.38	56.17
566.54	121.71
566.70	72.56
566.87	63.19
567.03	95.96
567.19	53.83
567.36	93.62
567.52	44.47
567.68	98.30
567.85	42.13
568.01	72.56
568.17	86.60
568.34	84.26
568.50	114.69
568.66	93.62
568.83	79.58
568.99	159.16
569.15	119.37
569.32	114.69
569.48	30.43
569.64	126.39
569.81	39.79
569.97	58.51
570.13	72.56
570.30	142.77
570.46	77.24
570.62	79.58
570.78	72.56
570.95	53.83
571.11	105.32
571.27	149.79
571.43	98.30
571.60	79.58
571.76	81.92
571.92	49.15
572.09	25.75
572.25	65.54
572.41	112.35
572.57	110.01
572.74	98.30
572.90	14.04
573.06	128.73
573.22	161.50
573.38	74.90
573.55	117.03
573.71	51.49
573.87	58.51
574.03	93.62
574.20	39.79
574.36	53.83
574.52	81.92
574.68	74.90
574.84	7.02
575.01	110.01
575.17	0.00
575.33	42.13
575.49	100.64
575.65	110.01
575.82	21.06
575.98	93.62
576.14	14.04
576.30	98.30
576.46	16.38
576.62	112.35
576.79	67.88
576.95	60.85
577.11	86.60
577.27	49.15
577.43	131.07
577.59	140.43
577.75	46.81
577.92	149.79
578.08	51.49
578.24	60.85
578.40	107.66
578.56	131.07
578.72	53.83
578.88	154.48
579.04	53.83
579.21	133.41
579.37	9.36
579.53	77.24
579.69	74.90
579.85	0.00
580.01	16.38
580.17	84.26
580.33	30.43
580.49	84.26
580.65	105.32
580.82	9.36
580.98	147.45
581.14	126.39
581.30	88.94
581.46	95.96
581.62	58.51
581.78	88.94
581.94	53.83
582.10	39.79
582.26	35.11
582.42	21.06
582.58	16.38
582.74	49.15
582.90	95.96
583.06	117.03
583.22	95.96
583.38	142.77
583.54	100.64
583.70	49.15
583.86	110.01
584.02	63.19
584.18	58.51
584.34	140.43
584.50	60.85
584.66	53.83
584.82	21.06
584.98	58.51
585.14	51.49
585.30	84.26
585.46	25.75
585.62	84.26
585.78	95.96
585.94	77.24
586.10	49.15
586.26	81.92
586.42	56.17
586.58	77.24
586.74	142.77
586.90	51.49
587.06	9.36
587.22	39.79
587.38	28.09
587.54	60.85
587.70	88.94
587.86	44.47
588.02	74.90
588.18	124.05
588.34	81.92
588.49	74.90
588.65	25.75
588.81	133.41
588.97	93.62
589.13	74.90
589.29	30.43
589.45	53.83
589.61	18.72
589.77	0.00
589.93	37.45
590.08	86.60
590.24	2.34
590.40	124.05
590.56	147.45
590.72	91.28
590.88	77.24
591.04	112.35
591.20	86.60
591.35	95.96
591.51	105.32
591.67	0.00
591.83	72.56
591.99	37.45
592.15	117.03
592.31	35.11
592.46	60.85
592.62	79.58
592.78	11.70
592.94	58.51
593.10	102.98
593.26	23.41
593.41	51.49
593.57	25.75
593.73	56.17
593.89	9.36
594.05	0.00
594.20	21.06
594.36	46.81
594.52	107.66
594.68	46.81
594.84	58.51
594.99	70.22
595.15	65.54
595.31	7.02
595.47	84.26
595.62	95.96
595.78	37.45
595.94	58.51
596.10	58.51
596.25	0.00
596.41	28.09
596.57	105.32
596.73	79.58
596.88	79.58
597.04	11.70
597.20	70.22
597.36	84.26
597.51	37.45
597.67	51.49
597.83	0.00
597.99	70.22
598.14	42.13
598.30	58.51
598.46	25.75
598.61	53.83
598.77	21.06
598.93	58.51
599.09	72.56
599.24	84.26
599.40	65.54
599.56	77.24
599.71	98.30
599.87	56.17
600.03	51.49
600.18	149.79
600.34	84.26
600.50	81.92
600.65	98.30
600.81	84.26
600.97	70.22
601.12	37.45
601.28	28.09
601.44	102.98
601.59	53.83
601.75	81.92
601.91	74.90
602.06	58.51
602.22	93.62
602.37	95.96
602.53	74.90
602.69	93.62
602.84	35.11
603.00	30.43
603.16	98.30
603.31	67.88
603.47	135.75
603.62	60.85
603.78	72.56
603.94	16.38
604.09	124.05
604.25	42.13
604.40	49.15
604.56	39.79
604.71	21.06
604.87	56.17
605.03	44.47
605.18	124.05
605.34	42.13
605.49	72.56
605.65	56.17
605.80	91.28
605.96	74.90
606.12	105.32
606.27	56.17
606.43	91.28
606.58	93.62
606.74	81.92
606.89	16.38
607.05	28.09
607.20	53.83
607.36	95.96
607.51	35.11
607.67	95.96
607.82	98.30
607.98	84.26
608.13	49.15
608.29	112.35
608.44	53.83
608.60	114.69
608.75	88.94
608.91	93.62
609.06	81.92
609.22	49.15
609.37	102.98
609.53	74.90
609.68	70.22
609.84	67.88
609.99	88.94
610.15	135.75
610.30	86.60
610.46	72.56
610.61	49.15
610.76	58.51
610.92	37.45
611.07	107.66
611.23	63.19
611.38	51.49
611.54	121.71
611.69	42.13
611.84	63.19
612.00	67.88
612.15	32.77
612.31	51.49
612.46	93.62
612.62	21.06
612.77	100.64
612.92	46.81
613.08	0.00
613.23	65.54
613.39	100.64
613.54	28.09
613.69	46.81
613.85	30.43
614.00	72.56
614.15	114.69
614.31	95.96
614.46	124.05
614.62	100.64
614.77	49.15
614.92	95.96
615.08	72.56
615.23	102.98
615.38	0.00
615.54	117.03
615.69	53.83
615.84	51.49
616.00	21.06
616.15	0.00
616.30	88.94
616.46	131.07
616.61	95.96
616.76	9.36
616.92	88.94
617.07	84.26
617.22	107.66
617.37	58.51
617.53	30.43
617.68	98.30
617.83	2.34
617.99	7.02
618.14	102.98
618.29	28.09
618.45	70.22
618.60	84.26
618.75	88.94
618.90	95.96
619.06	79.58
619.21	135.75
619.36	56.17
619.51	117.03
619.67	86.60
619.82	91.28
619.97	65.54
620.12	35.11
620.28	67.88
620.43	91.28
620.58	86.60
620.73	79.58
620.89	77.24
621.04	72.56
621.19	37.45
621.34	88.94
621.49	49.15
621.65	74.90
621.80	161.50
621.95	30.43
622.10	88.94
622.25	0.00
622.41	28.09
622.56	58.51
622.71	84.26
622.86	46.81
623.01	79.58
623.16	51.49
623.32	91.28
623.47	86.60
623.62	4.68
623.77	58.51
623.92	9.36
624.07	42.13
624.23	2.34
624.38	42.13
624.53	30.43
624.68	44.47
624.83	63.19
624.98	11.70
625.13	110.01
625.29	42.13
625.44	0.00
625.59	25.75
625.74	112.35
625.89	93.62
626.04	128.73
626.19	11.70
626.34	149.79
626.49	0.00
626.65	23.41
626.80	100.64
626.95	56.17
627.10	44.47
627.25	4.68
627.40	49.15
627.55	42.13
627.70	44.47
627.85	21.06
628.00	14.04
628.15	128.73
628.30	0.00
628.45	65.54
628.60	86.60
628.76	18.72
628.91	25.75
629.06	74.90
629.21	124.05
629.36	58.51
629.51	119.37
629.66	9.36
629.81	70.22
629.96	37.45
630.11	0.00
630.26	100.64
630.41	114.69
630.56	70.22
630.71	72.56
630.86	53.83
631.01	49.15
631.16	37.45
631.31	121.71
631.46	56.17
631.61	25.75
631.76	70.22
631.91	81.92
632.06	28.09
632.21	84.26
632.36	7.02
632.51	110.01
632.66	60.85
632.81	30.43
632.96	79.58
633.10	21.06
633.25	105.32
633.40	124.05
633.55	102.98
633.70	95.96
633.85	70.22
634.00	0.00
634.15	102.98
634.30	4.68
634.45	35.11
634.60	0.00
634.75	77.24
634.90	70.22
635.05	98.30
635.19	30.43
635.34	110.01
635.49	161.50
635.64	60.85
635.79	121.71
635.94	32.77
636.09	77.24
636.24	77.24
636.39	25.75
636.53	39.79
636.68	91.28
636.83	0.00
636.98	44.47
637.13	32.77
637.28	53.83
637.43	35.11
637.57	23.41
637.72	16.38
637.87	16.38
638.02	44.47
638.17	65.54
638.32	184.90
638.46	65.54
638.61	147.45
638.76	58.51
638.91	121.71
639.06	32.77
639.20	65.54
639.35	86.60
639.50	53.83
639.65	51.49
639.80	91.28
639.94	63.19
640.09	46.81
640.24	28.09
640.39	56.17
640.54	56.17
640.68	42.13
640.83	81.92
640.98	81.92
641.13	84.26
641.27	46.81
641.42	39.79
641.57	60.85
641.72	39.79
641.86	49.15
642.01	42.13
642.16	72.56
642.31	49.15
642.45	72.56
642.60	32.77
642.75	77.24
642.90	65.54
643.04	9.36
643.19	44.47
643.34	79.58
643.48	35.11
643.63	119.37
643.78	67.88
643.93	28.09
644.07	77.24
644.22	42.13
644.37	77.24
644.51	79.58
644.66	39.79
644.81	77.24
644.95	35.11
645.10	18.72
645.25	0.00
645.39	49.15
645.54	0.00
645.69	70.22
645.83	46.81
645.98	0.00
646.13	30.43
646.27	70.22
646.42	88.94
646.57	30.43
646.71	124.05
646.86	91.28
647.00	9.36
647.15	112.35
647.30	0.00
647.44	56.17
647.59	21.06
647.74	32.77
647.88	44.47
648.03	0.00
648.17	56.17
648.32	16.38
648.47	0.00
648.61	88.94
648.76	72.56
648.90	37.45
649.05	0.00
649.20	18.72
649.34	70.22
649.49	46.81
649.63	65.54
649.78	16.38
649.92	0.00
650.07	51.49
650.21	42.13
650.36	21.06
650.51	44.47
650.65	102.98
650.80	53.83
650.94	117.03
651.09	11.70
651.23	30.43
651.38	51.49
651.52	88.94
651.67	0.00
651.81	49.15
651.96	32.77
652.10	0.00
652.25	21.06
652.39	88.94
652.54	28.09
652.68	51.49
652.83	56.17
652.97	28.09
653.12	88.94
653.26	138.09
653.41	21.06
653.55	56.17
653.70	0.00
653.84	2.34
653.99	70.22
654.13	63.19
654.27	35.11
654.42	0.00
654.56	9.36
654.71	88.94
654.85	70.22
655.00	44.47
655.14	58.51
655.29	88.94
655.43	0.00
655.57	102.98
655.72	0.00
655.86	4.68
656.01	0.00
656.15	95.96
656.30	30.43
656.44	0.00
656.58	37.45
656.73	51.49
656.87	25.75
657.01	81.92
657.16	131.07
657.30	67.88
657.45	91.28
657.59	30.43
657.73	4.68
657.88	58.51
658.02	110.01
658.16	51.49
658.31	0.00
658.45	42.13
658.60	44.47
658.74	53.83
658.88	32.77
659.03	86.60
659.17	56.17
659.31	105.32
659.46	30.43
659.60	53.83
659.74	28.09
659.89	77.24
660.03	0.00
660.17	0.00
660.32	0.00
660.46	23.41
660.60	105.32
660.74	37.45
660.89	51.49
661.03	25.75
661.17	58.51
661.32	11.70
661.46	28.09
661.60	2.34
661.74	91.28
661.89	14.04
662.03	77.24
662.17	28.09
662.31	112.35
662.46	58.51
662.60	23.41
662.74	4.68
662.88	28.09
663.03	0.00
663.17	37.45
663.31	46.81
663.45	60.85
663.60	63.19
663.74	18.72
663.88	124.05
664.02	110.01
664.17	0.00
664.31	4.68
664.45	74.90
664.59	37.45
664.73	74.90
664.88	56.17
665.02	30.43
665.16	95.96
665.30	124.05
665.44	28.09
665.59	37.45
665.73	67.88
665.87	44.47
666.01	53.83
666.15	58.51
666.29	65.54
666.44	84.26
666.58	46.81
666.72	30.43
666.86	37.45
667.00	135.75
667.14	46.81
667.28	32.77
667.43	35.11
667.57	32.77
667.71	53.83
667.85	102.98
667.99	49.15
668.13	60.85
668.27	49.15
668.41	67.88
668.56	0.00
668.70	60.85
668.84	56.17
668.98	0.00
669.12	0.00
669.26	4.68
669.40	72.56
669.54	65.54
669.68	114.69
669.82	49.15
669.96	63.19
670.10	58.51
670.25	117.03
670.39	4.68
670.53	86.60
670.67	35.11
670.81	100.64
670.95	23.41
671.09	32.77
671.23	37.45
671.37	51.49
671.51	46.81
671.65	49.15
671.79	25.75
671.93	126.39
672.07	14.04
672.21	11.70
672.35	63.19
672.49	72.56
672.63	9.36
672.77	32.77
672.91	42.13
673.05	65.54
673.19	7.02
673.33	44.47
673.47	4.68
673.61	126.39
673.75	23.41
673.89	46.81
674.03	2.34
674.17	30.43
674.31	7.02
674.45	42.13
674.59	67.88
674.73	84.26
674.87	77.24
675.01	67.88
675.15	4.68
675.29	37.45
675.43	53.83
675.56	60.85
675.70	16.38
675.84	0.00
675.98	74.90
676.12	67.88
676.26	46.81
676.40	4.68
676.54	11.70
676.68	79.58
676.82	63.19
676.96	53.83
677.10	77.24
677.23	23.41
677.37	0.00
677.51	53.83
677.65	65.54
677.79	42.13
677.93	0.00
678.07	39.79
678.21	25.75
678.34	65.54
678.48	11.70
678.62	35.11
678.76	60.85
678.90	93.62
679.04	18.72
679.18	0.00
679.31	51.49
679.45	98.30
679.59	91.28
679.73	77.24
679.87	32.77
680.00	138.09
680.14	0.00
680.28	9.36
680.42	46.81
680.56	7.02
680.70	70.22
680.83	63.19
680.97	25.75
681.11	35.11
681.25	105.32
681.39	58.51
681.52	63.19
681.66	93.62
681.80	58.51
681.94	30.43
682.07	67.88
682.21	0.00
682.35	88.94
682.49	30.43
682.62	53.83
682.76	37.45
682.90	39.79
683.04	74.90
683.17	72.56
683.31	11.70
683.45	77.24
683.59	72.56
683.72	35.11
683.86	51.49
684.00	35.11
684.13	86.60
684.27	0.00
684.41	23.41
684.55	39.79
684.68	74.90
684.82	0.00
684.96	39.79
685.09	65.54
685.23	0.00
685.37	21.06
685.50	117.03
685.64	72.56
685.78	49.15
685.91	42.13
686.05	81.92
686.19	51.49
686.32	77.24
686.46	0.00
686.60	77.24
686.73	86.60
686.87	49.15
687.01	0.00
687.14	79.58
687.28	56.17
687.42	67.88
687.55	11.70
687.69	81.92
687.82	18.72
687.96	60.85
688.10	11.70
688.23	39.79
688.37	42.13
688.50	16.38
688.64	0.00
688.78	53.83
688.91	58.51
689.05	0.00
689.18	58.51
689.32	37.45
689.46	25.75
689.59	30.43
689.73	63.19
689.86	28.09
690.00	0.00
690.13	95.96
690.27	107.66
690.41	60.85
690.54	0.00
690.68	14.04
690.81	91.28
690.95	16.38
691.08	9.36
691.22	0.00
691.35	53.83
691.49	16.38
691.62	37.45
691.76	42.13
691.89	11.70
692.03	23.41
692.16	121.71
692.30	86.60
692.43	51.49
692.57	70.22
692.70	25.75
692.84	0.00
692.97	70.22
693.11	25.75
693.24	39.79
693.38	84.26
693.51	84.26
693.65	16.38
693.78	4.68
693.92	23.41
694.05	51.49
694.19	49.15
694.32	11.70
694.45	0.00
694.59	46.81
694.72	0.00
694.86	28.09
694.99	0.00
695.13	25.75
695.26	0.00
695.39	56.17
695.53	0.00
695.66	77.24
695.80	46.81
695.93	49.15
696.07	53.83
696.20	0.00
696.33	39.79
696.47	0.00
696.60	23.41
696.73	37.45
696.87	58.51
697.00	0.00
697.14	65.54
697.27	53.83
697.40	4.68
697.54	67.88
697.67	25.75
697.80	42.13
697.94	93.62
698.07	30.43
698.21	44.47
698.34	100.64
698.47	23.41
698.61	77.24
698.74	95.96
698.87	51.49
699.01	23.41
699.14	28.09
699.27	110.01
699.40	28.09
699.54	16.38
699.67	49.15
699.80	51.49
699.94	133.41
700.07	37.45
700.20	65.54
700.34	0.00
700.47	63.19
700.60	98.30
700.73	18.72
700.87	4.68
701.00	30.43
701.13	9.36
701.26	0.00
701.40	35.11
701.53	65.54
701.66	32.77
701.79	16.38
701.93	7.02
702.06	105.32
702.19	42.13
702.32	81.92
702.46	46.81
702.59	0.00
702.72	42.13
702.85	74.90
702.99	23.41
703.12	28.09
703.25	51.49
703.38	46.81
703.51	44.47
703.65	11.70
703.78	88.94
703.91	114.69
704.04	0.00
704.17	84.26
704.31	70.22
704.44	0.00
704.57	21.06
704.70	0.00
704.83	0.00
704.96	53.83
705.10	35.11
705.23	56.17
>>>>>End Processed Spectral Data<<<<<
