SpectraSuite Data File
++++++++++++++++++++++++++++++++++++
Date: Tue Oct 01 18:25:10 GMT-05:00 2013
User: stostad
Dark Spectrum Present: No
Reference Spectrum Present: No
Number of Sampled Component Spectra: 1
Spectrometers: USB2+H05261
Integration Time (usec): 100000 (USB2+H05261)
Spectra Averaged: 1 (USB2+H05261)
Boxcar Smoothing: 0 (USB2+H05261)
Correct for Electrical Dark: No (USB2+H05261)
Strobe/Lamp Enabled: No (USB2+H05261)
Correct for Detector Non-linearity: No (USB2+H05261)
Correct for Stray Light: No (USB2+H05261)
Number of Pixels in Processed Spectrum: 2048
>>>>>Begin Processed Spectral Data<<<<<
365.73	0.00
365.92	0.00
366.12	0.00
366.32	0.00
366.52	0.00
366.72	18.72
366.91	0.00
367.11	0.00
367.31	0.00
367.51	0.00
367.70	25.75
367.90	0.00
368.10	0.00
368.30	42.13
368.49	0.00
368.69	0.00
368.89	49.15
369.09	0.00
369.28	0.00
369.48	0.00
369.68	0.00
369.87	30.43
370.07	28.09
370.27	0.00
370.47	37.45
370.66	84.26
370.86	32.77
371.06	100.64
371.25	91.28
371.45	79.58
371.65	56.17
371.84	67.88
372.04	67.88
372.24	70.22
372.44	93.62
372.63	128.73
372.83	166.18
373.03	149.79
373.22	93.62
373.42	119.37
373.62	88.94
373.81	180.22
374.01	159.16
374.21	210.65
374.40	159.16
374.60	154.48
374.79	152.13
374.99	114.69
375.19	65.54
375.38	135.75
375.58	147.45
375.78	154.48
375.97	126.39
376.17	117.03
376.37	196.60
376.56	124.05
376.76	161.50
376.95	133.41
377.15	138.09
377.35	189.58
377.54	145.11
377.74	177.88
377.93	163.84
378.13	91.28
378.33	147.45
378.52	117.03
378.72	222.35
378.91	238.73
379.11	124.05
379.31	145.11
379.50	67.88
379.70	149.79
379.89	147.45
380.09	112.35
380.28	117.03
380.48	131.07
380.68	112.35
380.87	86.60
381.07	231.71
381.26	131.07
381.46	110.01
381.65	128.73
381.85	187.24
382.04	102.98
382.24	114.69
382.43	58.51
382.63	74.90
382.83	142.77
383.02	173.20
383.22	210.65
383.41	147.45
383.61	175.54
383.80	194.26
384.00	133.41
384.19	124.05
384.39	163.84
384.58	91.28
384.78	147.45
384.97	117.03
385.17	128.73
385.36	100.64
385.56	147.45
385.75	140.43
385.95	133.41
386.14	119.37
386.34	88.94
386.53	149.79
386.72	154.48
386.92	159.16
387.11	147.45
387.31	112.35
387.50	91.28
387.70	107.66
387.89	100.64
388.09	173.20
388.28	112.35
388.48	156.82
388.67	124.05
388.86	175.54
389.06	154.48
389.25	93.62
389.45	93.62
389.64	107.66
389.84	117.03
390.03	100.64
390.22	133.41
390.42	91.28
390.61	135.75
390.81	135.75
391.00	93.62
391.19	84.26
391.39	194.26
391.58	86.60
391.78	100.64
391.97	105.32
392.16	84.26
392.36	154.48
392.55	72.56
392.75	100.64
392.94	16.38
393.13	154.48
393.33	180.22
393.52	44.47
393.71	170.86
393.91	177.88
394.10	147.45
394.29	168.52
394.49	119.37
394.68	147.45
394.88	102.98
395.07	84.26
395.26	121.71
395.46	147.45
395.65	119.37
395.84	203.63
396.04	161.50
396.23	163.84
396.42	131.07
396.62	105.32
396.81	124.05
397.00	126.39
397.19	208.31
397.39	156.82
397.58	170.86
397.77	117.03
397.97	159.16
398.16	112.35
398.35	135.75
398.55	93.62
398.74	131.07
398.93	196.60
399.12	128.73
399.32	142.77
399.51	117.03
399.70	124.05
399.90	49.15
400.09	145.11
400.28	147.45
400.47	124.05
400.67	166.18
400.86	161.50
401.05	175.54
401.24	110.01
401.44	173.20
401.63	170.86
401.82	107.66
402.01	42.13
402.21	98.30
402.40	126.39
402.59	152.13
402.78	77.24
402.97	114.69
403.17	107.66
403.36	84.26
403.55	173.20
403.74	191.92
403.93	117.03
404.13	208.31
404.32	161.50
404.51	184.90
404.70	168.52
404.89	74.90
405.09	161.50
405.28	147.45
405.47	72.56
405.66	74.90
405.85	102.98
406.05	51.49
406.24	124.05
406.43	110.01
406.62	133.41
406.81	177.88
407.00	102.98
407.20	152.13
407.39	105.32
407.58	100.64
407.77	159.16
407.96	163.84
408.15	110.01
408.34	175.54
408.54	203.63
408.73	182.56
408.92	163.84
409.11	147.45
409.30	191.92
409.49	147.45
409.68	161.50
409.87	198.95
410.07	152.13
410.26	138.09
410.45	159.16
410.64	81.92
410.83	140.43
411.02	159.16
411.21	166.18
411.40	173.20
411.59	170.86
411.78	154.48
411.98	140.43
412.17	100.64
412.36	156.82
412.55	105.32
412.74	182.56
412.93	241.08
413.12	102.98
413.31	152.13
413.50	156.82
413.69	140.43
413.88	131.07
414.07	98.30
414.26	131.07
414.45	175.54
414.64	84.26
414.83	149.79
415.02	205.97
415.22	191.92
415.41	224.69
415.60	147.45
415.79	126.39
415.98	205.97
416.17	135.75
416.36	58.51
416.55	140.43
416.74	117.03
416.93	170.86
417.12	46.81
417.31	175.54
417.50	229.37
417.69	170.86
417.88	121.71
418.07	168.52
418.26	121.71
418.45	170.86
418.64	182.56
418.83	198.95
419.02	198.95
419.21	168.52
419.39	121.71
419.58	161.50
419.77	124.05
419.96	238.73
420.15	161.50
420.34	147.45
420.53	140.43
420.72	117.03
420.91	110.01
421.10	145.11
421.29	138.09
421.48	147.45
421.67	184.90
421.86	140.43
422.05	49.15
422.24	117.03
422.43	60.85
422.61	147.45
422.80	184.90
422.99	173.20
423.18	105.32
423.37	135.75
423.56	159.16
423.75	135.75
423.94	175.54
424.13	119.37
424.32	126.39
424.50	152.13
424.69	142.77
424.88	222.35
425.07	133.41
425.26	210.65
425.45	191.92
425.64	227.03
425.83	156.82
426.01	140.43
426.20	180.22
426.39	91.28
426.58	63.19
426.77	175.54
426.96	208.31
427.15	128.73
427.33	126.39
427.52	140.43
427.71	117.03
427.90	93.62
428.09	126.39
428.28	133.41
428.46	91.28
428.65	168.52
428.84	84.26
429.03	135.75
429.22	138.09
429.40	128.73
429.59	133.41
429.78	217.67
429.97	184.90
430.16	117.03
430.34	91.28
430.53	170.86
430.72	105.32
430.91	133.41
431.10	86.60
431.28	100.64
431.47	98.30
431.66	166.18
431.85	105.32
432.03	112.35
432.22	212.99
432.41	234.05
432.60	159.16
432.79	154.48
432.97	210.65
433.16	217.67
433.35	182.56
433.54	135.75
433.72	142.77
433.91	161.50
434.10	210.65
434.28	117.03
434.47	154.48
434.66	210.65
434.85	88.94
435.03	222.35
435.22	138.09
435.41	166.18
435.59	205.97
435.78	107.66
435.97	128.73
436.16	163.84
436.34	110.01
436.53	203.63
436.72	142.77
436.90	147.45
437.09	184.90
437.28	175.54
437.46	156.82
437.65	102.98
437.84	124.05
438.02	187.24
438.21	152.13
438.40	117.03
438.58	91.28
438.77	147.45
438.96	161.50
439.14	142.77
439.33	84.26
439.52	156.82
439.70	142.77
439.89	135.75
440.08	180.22
440.26	117.03
440.45	161.50
440.63	88.94
440.82	133.41
441.01	112.35
441.19	131.07
441.38	128.73
441.57	81.92
441.75	149.79
441.94	175.54
442.12	170.86
442.31	168.52
442.50	112.35
442.68	203.63
442.87	119.37
443.05	128.73
443.24	135.75
443.43	205.97
443.61	70.22
443.80	100.64
443.98	133.41
444.17	238.73
444.35	100.64
444.54	105.32
444.73	189.58
444.91	210.65
445.10	98.30
445.28	140.43
445.47	124.05
445.65	124.05
445.84	114.69
446.02	117.03
446.21	121.71
446.39	93.62
446.58	114.69
446.77	105.32
446.95	124.05
447.14	203.63
447.32	142.77
447.51	128.73
447.69	147.45
447.88	114.69
448.06	149.79
448.25	177.88
448.43	131.07
448.62	105.32
448.80	131.07
448.99	166.18
449.17	170.86
449.36	84.26
449.54	187.24
449.73	107.66
449.91	114.69
450.10	117.03
450.28	187.24
450.46	212.99
450.65	154.48
450.83	173.20
451.02	205.97
451.20	98.30
451.39	201.29
451.57	215.33
451.76	84.26
451.94	184.90
452.13	222.35
452.31	100.64
452.49	194.26
452.68	154.48
452.86	95.96
453.05	142.77
453.23	145.11
453.42	177.88
453.60	105.32
453.78	98.30
453.97	110.01
454.15	156.82
454.34	140.43
454.52	70.22
454.70	124.05
454.89	128.73
455.07	163.84
455.26	124.05
455.44	175.54
455.62	102.98
455.81	126.39
455.99	135.75
456.17	161.50
456.36	189.58
456.54	145.11
456.73	161.50
456.91	128.73
457.09	196.60
457.28	194.26
457.46	170.86
457.64	140.43
457.83	154.48
458.01	131.07
458.19	147.45
458.38	79.58
458.56	131.07
458.74	74.90
458.93	168.52
459.11	159.16
459.29	154.48
459.48	133.41
459.66	222.35
459.84	152.13
460.03	210.65
460.21	112.35
460.39	163.84
460.57	191.92
460.76	112.35
460.94	84.26
461.12	166.18
461.31	184.90
461.49	149.79
461.67	135.75
461.85	107.66
462.04	98.30
462.22	627.26
462.40	156.82
462.59	182.56
462.77	112.35
462.95	196.60
463.13	189.58
463.32	236.39
463.50	105.32
463.68	100.64
463.86	149.79
464.05	100.64
464.23	117.03
464.41	110.01
464.59	161.50
464.78	93.62
464.96	79.58
465.14	114.69
465.32	163.84
465.50	210.65
465.69	168.52
465.87	126.39
466.05	156.82
466.23	161.50
466.41	128.73
466.60	138.09
466.78	128.73
466.96	177.88
467.14	194.26
467.32	119.37
467.51	149.79
467.69	208.31
467.87	135.75
468.05	222.35
468.23	138.09
468.41	175.54
468.60	72.56
468.78	203.63
468.96	170.86
469.14	135.75
469.32	72.56
469.50	135.75
469.69	147.45
469.87	189.58
470.05	98.30
470.23	210.65
470.41	60.85
470.59	135.75
470.77	128.73
470.95	86.60
471.14	203.63
471.32	98.30
471.50	173.20
471.68	149.79
471.86	168.52
472.04	145.11
472.22	100.64
472.40	208.31
472.58	107.66
472.77	159.16
472.95	133.41
473.13	217.67
473.31	142.77
473.49	184.90
473.67	175.54
473.85	163.84
474.03	98.30
474.21	152.13
474.39	210.65
474.57	177.88
474.75	191.92
474.93	140.43
475.12	91.28
475.30	168.52
475.48	112.35
475.66	173.20
475.84	159.16
476.02	163.84
476.20	100.64
476.38	149.79
476.56	236.39
476.74	74.90
476.92	135.75
477.10	128.73
477.28	145.11
477.46	91.28
477.64	191.92
477.82	91.28
478.00	110.01
478.18	170.86
478.36	234.05
478.54	159.16
478.72	39.79
478.90	112.35
479.08	170.86
479.26	170.86
479.44	184.90
479.62	107.66
479.80	51.49
479.98	72.56
480.16	142.77
480.34	159.16
480.52	114.69
480.70	154.48
480.88	121.71
481.06	170.86
481.24	131.07
481.41	58.51
481.59	110.01
481.77	145.11
481.95	124.05
482.13	173.20
482.31	145.11
482.49	133.41
482.67	154.48
482.85	140.43
483.03	147.45
483.21	110.01
483.39	110.01
483.57	117.03
483.74	140.43
483.92	149.79
484.10	142.77
484.28	110.01
484.46	168.52
484.64	170.86
484.82	175.54
485.00	126.39
485.18	156.82
485.35	166.18
485.53	138.09
485.71	128.73
485.89	107.66
486.07	159.16
486.25	166.18
486.43	184.90
486.61	138.09
486.78	147.45
486.96	86.60
487.14	93.62
487.32	147.45
487.50	138.09
487.68	140.43
487.85	154.48
488.03	81.92
488.21	175.54
488.39	191.92
488.57	107.66
488.75	161.50
488.92	252.78
489.10	102.98
489.28	166.18
489.46	107.66
489.64	147.45
489.81	166.18
489.99	145.11
490.17	112.35
490.35	140.43
490.53	102.98
490.70	128.73
490.88	152.13
491.06	126.39
491.24	102.98
491.41	126.39
491.59	236.39
491.77	107.66
491.95	107.66
492.13	145.11
492.30	191.92
492.48	161.50
492.66	124.05
492.84	173.20
493.01	117.03
493.19	121.71
493.37	196.60
493.54	198.95
493.72	133.41
493.90	170.86
494.08	140.43
494.25	135.75
494.43	102.98
494.61	131.07
494.79	117.03
494.96	131.07
495.14	180.22
495.32	161.50
495.49	105.32
495.67	147.45
495.85	182.56
496.02	175.54
496.20	229.37
496.38	182.56
496.55	114.69
496.73	126.39
496.91	131.07
497.09	182.56
497.26	98.30
497.44	110.01
497.62	117.03
497.79	133.41
497.97	222.35
498.14	168.52
498.32	154.48
498.50	168.52
498.67	49.15
498.85	156.82
499.03	145.11
499.20	105.32
499.38	138.09
499.56	74.90
499.73	266.82
499.91	135.75
500.08	224.69
500.26	184.90
500.44	154.48
500.61	180.22
500.79	128.73
500.97	166.18
501.14	196.60
501.32	163.84
501.49	142.77
501.67	128.73
501.84	170.86
502.02	114.69
502.20	182.56
502.37	182.56
502.55	60.85
502.72	114.69
502.90	168.52
503.07	112.35
503.25	149.79
503.43	201.29
503.60	81.92
503.78	135.75
503.95	138.09
504.13	140.43
504.30	154.48
504.48	145.11
504.65	210.65
504.83	128.73
505.01	173.20
505.18	128.73
505.36	107.66
505.53	203.63
505.71	154.48
505.88	201.29
506.06	117.03
506.23	133.41
506.41	145.11
506.58	131.07
506.76	133.41
506.93	117.03
507.11	198.95
507.28	175.54
507.46	131.07
507.63	140.43
507.81	145.11
507.98	177.88
508.16	156.82
508.33	88.94
508.50	98.30
508.68	128.73
508.85	84.26
509.03	112.35
509.20	121.71
509.38	18.72
509.55	191.92
509.73	175.54
509.90	152.13
510.08	140.43
510.25	145.11
510.42	140.43
510.60	149.79
510.77	205.97
510.95	182.56
511.12	170.86
511.30	201.29
511.47	142.77
511.64	262.14
511.82	110.01
511.99	98.30
512.17	145.11
512.34	140.43
512.51	149.79
512.69	102.98
512.86	168.52
513.04	131.07
513.21	205.97
513.38	77.24
513.56	100.64
513.73	114.69
513.90	138.09
514.08	117.03
514.25	95.96
514.43	133.41
514.60	210.65
514.77	126.39
514.95	133.41
515.12	81.92
515.29	166.18
515.47	166.18
515.64	135.75
515.81	121.71
515.99	161.50
516.16	119.37
516.33	156.82
516.51	102.98
516.68	35.11
516.85	161.50
517.03	142.77
517.20	184.90
517.37	67.88
517.54	56.17
517.72	166.18
517.89	110.01
518.06	91.28
518.24	241.08
518.41	217.67
518.58	222.35
518.75	121.71
518.93	184.90
519.10	110.01
519.27	100.64
519.45	145.11
519.62	156.82
519.79	205.97
519.96	51.49
520.14	191.92
520.31	138.09
520.48	117.03
520.65	175.54
520.83	170.86
521.00	121.71
521.17	196.60
521.34	163.84
521.52	100.64
521.69	124.05
521.86	88.94
522.03	175.54
522.20	173.20
522.38	135.75
522.55	163.84
522.72	152.13
522.89	243.42
523.07	107.66
523.24	131.07
523.41	166.18
523.58	159.16
523.75	124.05
523.92	131.07
524.10	72.56
524.27	140.43
524.44	81.92
524.61	168.52
524.78	124.05
524.96	126.39
525.13	100.64
525.30	217.67
525.47	112.35
525.64	98.30
525.81	126.39
525.98	95.96
526.16	86.60
526.33	173.20
526.50	49.15
526.67	88.94
526.84	112.35
527.01	77.24
527.18	201.29
527.36	126.39
527.53	163.84
527.70	201.29
527.87	173.20
528.04	154.48
528.21	142.77
528.38	128.73
528.55	180.22
528.72	175.54
528.89	168.52
529.07	100.64
529.24	138.09
529.41	173.20
529.58	184.90
529.75	149.79
529.92	140.43
530.09	84.26
530.26	119.37
530.43	154.48
530.60	224.69
530.77	117.03
530.94	147.45
531.11	138.09
531.28	100.64
531.46	110.01
531.63	126.39
531.80	117.03
531.97	110.01
532.14	93.62
532.31	163.84
532.48	198.95
532.65	166.18
532.82	161.50
532.99	210.65
533.16	107.66
533.33	147.45
533.50	191.92
533.67	189.58
533.84	299.59
534.01	241.08
534.18	88.94
534.35	156.82
534.52	88.94
534.69	107.66
534.86	166.18
535.03	175.54
535.20	189.58
535.37	173.20
535.54	107.66
535.71	100.64
535.88	191.92
536.05	124.05
536.22	194.26
536.38	142.77
536.55	145.11
536.72	147.45
536.89	110.01
537.06	112.35
537.23	131.07
537.40	114.69
537.57	119.37
537.74	117.03
537.91	159.16
538.08	138.09
538.25	212.99
538.42	138.09
538.59	154.48
538.75	107.66
538.92	140.43
539.09	173.20
539.26	182.56
539.43	334.70
539.60	697.48
539.77	1109.41
539.94	711.52
540.11	383.85
540.28	278.52
540.44	224.69
540.61	138.09
540.78	121.71
540.95	140.43
541.12	159.16
541.29	147.45
541.46	222.35
541.62	205.97
541.79	145.11
541.96	182.56
542.13	154.48
542.30	95.96
542.47	170.86
542.63	138.09
542.80	205.97
542.97	135.75
543.14	250.44
543.31	152.13
543.48	156.82
543.64	170.86
543.81	187.24
543.98	105.32
544.15	100.64
544.32	86.60
544.48	177.88
544.65	121.71
544.82	117.03
544.99	161.50
545.16	175.54
545.32	138.09
545.49	142.77
545.66	140.43
545.83	124.05
546.00	159.16
546.16	145.11
546.33	84.26
546.50	140.43
546.67	135.75
546.83	142.77
547.00	133.41
547.17	170.86
547.34	147.45
547.50	145.11
547.67	196.60
547.84	159.16
548.00	149.79
548.17	142.77
548.34	70.22
548.51	182.56
548.67	145.11
548.84	98.30
549.01	147.45
549.18	163.84
549.34	229.37
549.51	159.16
549.68	166.18
549.84	163.84
550.01	119.37
550.18	163.84
550.34	210.65
550.51	112.35
550.68	163.84
550.84	156.82
551.01	86.60
551.18	175.54
551.34	100.64
551.51	180.22
551.68	220.01
551.84	175.54
552.01	229.37
552.18	196.60
552.34	138.09
552.51	121.71
552.68	163.84
552.84	145.11
553.01	142.77
553.18	166.18
553.34	159.16
553.51	147.45
553.67	187.24
553.84	215.33
554.01	177.88
554.17	159.16
554.34	98.30
554.51	117.03
554.67	163.84
554.84	145.11
555.00	149.79
555.17	95.96
555.33	156.82
555.50	114.69
555.67	117.03
555.83	224.69
556.00	212.99
556.16	358.10
556.33	152.13
556.50	133.41
556.66	161.50
556.83	79.58
556.99	159.16
557.16	170.86
557.32	110.01
557.49	124.05
557.65	166.18
557.82	95.96
557.98	135.75
558.15	184.90
558.32	119.37
558.48	152.13
558.65	102.98
558.81	170.86
558.98	245.76
559.14	166.18
559.31	142.77
559.47	159.16
559.64	95.96
559.80	142.77
559.97	72.56
560.13	112.35
560.30	159.16
560.46	154.48
560.63	117.03
560.79	56.17
560.96	166.18
561.12	175.54
561.29	163.84
561.45	110.01
561.61	147.45
561.78	191.92
561.94	112.35
562.11	152.13
562.27	133.41
562.44	145.11
562.60	88.94
562.77	163.84
562.93	217.67
563.10	168.52
563.26	98.30
563.42	177.88
563.59	243.42
563.75	117.03
563.92	140.43
564.08	121.71
564.24	138.09
564.41	210.65
564.57	154.48
564.74	166.18
564.90	135.75
565.07	198.95
565.23	177.88
565.39	177.88
565.56	180.22
565.72	95.96
565.88	184.90
566.05	175.54
566.21	91.28
566.38	105.32
566.54	107.66
566.70	128.73
566.87	156.82
567.03	46.81
567.19	102.98
567.36	65.54
567.52	210.65
567.68	201.29
567.85	231.71
568.01	128.73
568.17	173.20
568.34	194.26
568.50	156.82
568.66	152.13
568.83	208.31
568.99	163.84
569.15	145.11
569.32	170.86
569.48	126.39
569.64	215.33
569.81	156.82
569.97	168.52
570.13	128.73
570.30	131.07
570.46	105.32
570.62	149.79
570.78	67.88
570.95	145.11
571.11	159.16
571.27	161.50
571.43	60.85
571.60	145.11
571.76	147.45
571.92	194.26
572.09	194.26
572.25	163.84
572.41	210.65
572.57	140.43
572.74	227.03
572.90	161.50
573.06	175.54
573.22	140.43
573.38	177.88
573.55	161.50
573.71	128.73
573.87	152.13
574.03	124.05
574.20	187.24
574.36	234.05
574.52	182.56
574.68	238.73
574.84	191.92
575.01	212.99
575.17	245.76
575.33	170.86
575.49	201.29
575.65	194.26
575.82	252.78
575.98	400.23
576.14	517.26
576.30	379.17
576.46	318.31
576.62	220.01
576.79	149.79
576.95	231.71
577.11	163.84
577.27	187.24
577.43	152.13
577.59	208.31
577.75	196.60
577.92	187.24
578.08	124.05
578.24	133.41
578.40	224.69
578.56	201.29
578.72	224.69
578.88	198.95
579.04	168.52
579.21	163.84
579.37	163.84
579.53	210.65
579.69	234.05
579.85	234.05
580.01	252.78
580.17	227.03
580.33	238.73
580.49	222.35
580.65	201.29
580.82	145.11
580.98	173.20
581.14	241.08
581.30	315.97
581.46	320.65
581.62	351.08
581.78	360.44
581.94	344.06
582.10	280.86
582.26	259.80
582.42	238.73
582.58	175.54
582.74	168.52
582.90	266.82
583.06	220.01
583.22	280.86
583.38	280.86
583.54	376.83
583.70	355.76
583.86	465.77
584.02	526.62
584.18	660.03
584.34	1139.84
584.50	8400.18
584.66	29968.22
584.82	49621.70
584.98	50806.01
585.14	32891.55
585.30	16933.78
585.46	8313.58
585.62	3419.52
585.78	1458.15
585.94	844.93
586.10	573.43
586.26	395.55
586.42	465.77
586.58	454.06
586.74	358.10
586.90	358.10
587.06	409.59
587.22	315.97
587.38	404.91
587.54	1577.52
587.70	3332.92
587.86	3974.23
588.02	2988.86
588.18	1898.17
588.34	1100.05
588.49	512.58
588.65	292.57
588.81	250.44
588.97	250.44
589.13	189.58
589.29	212.99
589.45	243.42
589.61	163.84
589.77	315.97
589.93	301.93
590.08	217.67
590.24	294.91
590.40	290.23
590.56	255.12
590.72	166.18
590.88	271.50
591.04	117.03
591.20	212.99
591.35	220.01
591.51	215.33
591.67	154.48
591.83	149.79
591.99	212.99
592.15	201.29
592.31	124.05
592.46	187.24
592.62	259.80
592.78	159.16
592.94	227.03
593.10	196.60
593.26	208.31
593.41	191.92
593.57	217.67
593.73	1336.45
593.89	3871.25
594.05	6441.15
594.20	6537.12
594.36	4278.50
594.52	2579.27
594.68	1453.47
594.84	636.63
594.99	409.59
595.15	180.22
595.31	255.12
595.47	330.02
595.62	210.65
595.78	180.22
595.94	215.33
596.10	339.38
596.25	255.12
596.41	292.57
596.57	177.88
596.73	299.59
596.88	800.46
597.04	1490.92
597.20	1781.15
597.36	1233.46
597.51	847.27
597.67	575.77
597.83	379.17
597.99	273.84
598.14	168.52
598.30	170.86
598.46	187.24
598.61	236.39
598.77	187.24
598.93	205.97
599.09	215.33
599.24	152.13
599.40	166.18
599.56	187.24
599.71	142.77
599.87	236.39
600.03	91.28
600.18	222.35
600.34	175.54
600.50	210.65
600.65	102.98
600.81	180.22
600.97	161.50
601.12	170.86
601.28	182.56
601.44	142.77
601.59	205.97
601.75	163.84
601.91	124.05
602.06	210.65
602.22	514.92
602.37	978.34
602.53	1598.59
602.69	1715.61
602.84	1266.23
603.00	866.00
603.16	554.71
603.31	418.96
603.47	250.44
603.62	149.79
603.78	180.22
603.94	212.99
604.09	227.03
604.25	194.26
604.40	283.20
604.56	220.01
604.71	182.56
604.87	163.84
605.03	177.88
605.18	203.63
605.34	262.14
605.49	182.56
605.65	222.35
605.80	217.67
605.96	189.58
606.12	215.33
606.27	245.76
606.43	285.55
606.58	594.50
606.74	1949.67
606.89	4049.13
607.05	5245.14
607.20	4442.34
607.36	3061.42
607.51	1895.83
607.67	1097.71
607.82	697.48
607.98	447.04
608.13	348.74
608.29	241.08
608.44	208.31
608.60	297.25
608.75	901.11
608.91	3281.43
609.06	6806.28
609.22	9261.50
609.37	7667.60
609.53	5170.24
609.68	3316.54
609.84	1982.43
609.99	1006.43
610.15	547.69
610.30	367.46
610.46	259.80
610.61	215.33
610.76	173.20
610.92	180.22
611.07	205.97
611.23	332.36
611.38	205.97
611.54	205.97
611.69	220.01
611.84	156.82
612.00	280.86
612.15	266.82
612.31	409.59
612.46	367.46
612.62	400.23
612.77	318.31
612.92	332.36
613.08	320.65
613.23	276.18
613.39	671.73
613.54	3428.88
613.69	8753.60
613.85	13973.00
614.00	14090.02
614.15	10099.41
614.31	6478.60
614.46	4074.87
614.62	2080.74
614.77	971.32
614.92	491.51
615.08	365.12
615.23	290.23
615.38	306.61
615.54	760.67
615.69	1966.05
615.84	3166.74
616.00	3899.33
616.15	3052.06
616.30	2132.23
616.46	1310.70
616.61	917.49
616.76	571.09
616.92	339.38
617.07	152.13
617.22	149.79
617.37	196.60
617.53	210.65
617.68	177.88
617.83	238.73
617.99	154.48
618.14	238.73
618.29	264.48
618.45	196.60
618.60	215.33
618.75	156.82
618.90	142.77
619.06	203.63
619.21	205.97
619.36	189.58
619.51	184.90
619.67	140.43
619.82	145.11
619.97	212.99
620.12	110.01
620.28	201.29
620.43	187.24
620.58	126.39
620.73	229.37
620.89	416.62
621.04	1076.65
621.19	1832.64
621.34	2289.04
621.49	1879.45
621.65	1394.96
621.80	877.70
621.95	622.58
622.10	362.78
622.25	229.37
622.41	140.43
622.56	133.41
622.71	168.52
622.86	170.86
623.01	161.50
623.16	149.79
623.32	145.11
623.47	156.82
623.62	208.31
623.77	147.45
623.92	196.60
624.07	170.86
624.23	212.99
624.38	182.56
624.53	166.18
624.68	217.67
624.83	212.99
624.98	182.56
625.13	252.78
625.29	182.56
625.44	238.73
625.59	264.48
625.74	535.98
625.89	1930.94
626.04	4589.79
626.19	7260.34
626.34	7302.47
626.49	5364.51
626.65	3639.53
626.80	2342.88
626.95	1348.15
627.10	718.54
627.25	358.10
627.40	241.08
627.55	243.42
627.70	128.73
627.85	231.71
628.00	220.01
628.15	208.31
628.30	224.69
628.45	110.01
628.60	173.20
628.76	191.92
628.91	208.31
629.06	243.42
629.21	166.18
629.36	208.31
629.51	133.41
629.66	489.17
629.81	983.02
629.96	1607.95
630.11	2010.52
630.26	1675.82
630.41	1116.44
630.56	800.46
630.71	503.22
630.86	404.91
631.01	243.42
631.16	222.35
631.31	241.08
631.46	198.95
631.61	201.29
631.76	224.69
631.91	138.09
632.06	241.08
632.21	276.18
632.36	259.80
632.51	393.21
632.66	1083.67
632.81	2562.89
632.96	4435.32
633.10	4891.72
633.25	3733.15
633.40	2712.68
633.55	1811.57
633.70	1165.59
633.85	587.47
634.00	318.31
634.15	245.76
634.30	205.97
634.45	168.52
634.60	208.31
634.75	131.07
634.90	194.26
635.05	184.90
635.19	184.90
635.34	86.60
635.49	168.52
635.64	147.45
635.79	187.24
635.94	168.52
636.09	248.10
636.24	238.73
636.39	180.22
636.53	250.44
636.68	236.39
636.83	238.73
636.98	332.36
637.13	210.65
637.28	227.03
637.43	683.44
637.57	2799.28
637.72	6214.12
637.87	8982.98
638.02	8421.25
638.17	6382.64
638.32	4388.50
638.46	2874.18
638.61	1710.93
638.76	765.36
638.91	550.03
639.06	383.85
639.20	386.19
639.35	966.64
639.50	4117.00
639.65	9092.98
639.80	13734.26
639.94	13048.49
640.09	9797.48
640.24	6665.85
640.39	4332.33
640.54	2464.58
640.68	1158.57
640.83	627.26
640.98	379.17
641.13	306.61
641.27	259.80
641.42	205.97
641.57	271.50
641.72	215.33
641.86	159.16
642.01	224.69
642.16	175.54
642.31	191.92
642.45	229.37
642.60	245.76
642.75	187.24
642.90	205.97
643.04	189.58
643.19	156.82
643.34	163.84
643.48	205.97
643.63	238.73
643.78	205.97
643.93	234.05
644.07	131.07
644.22	159.16
644.37	182.56
644.51	248.10
644.66	152.13
644.81	117.03
644.95	205.97
645.10	112.35
645.25	217.67
645.39	145.11
645.54	187.24
645.69	210.65
645.83	191.92
645.98	201.29
646.13	138.09
646.27	210.65
646.42	102.98
646.57	138.09
646.71	159.16
646.86	208.31
647.00	128.73
647.15	187.24
647.30	168.52
647.44	182.56
647.59	93.62
647.74	112.35
647.88	217.67
648.03	177.88
648.17	210.65
648.32	161.50
648.47	205.97
648.61	205.97
648.76	128.73
648.90	175.54
649.05	170.86
649.20	198.95
649.34	152.13
649.49	212.99
649.63	229.37
649.78	386.19
649.92	1813.92
650.07	4133.39
650.21	6656.48
650.36	7243.96
650.51	5636.01
650.65	3922.74
650.80	2569.91
650.94	1544.75
651.09	847.27
651.23	493.85
651.38	341.72
651.52	208.31
651.67	184.90
651.81	215.33
651.96	245.76
652.10	140.43
652.25	152.13
652.39	250.44
652.54	596.84
652.68	1343.47
652.83	2340.54
652.97	2708.00
653.12	2165.00
653.26	1549.43
653.41	1177.29
653.55	763.01
653.70	428.32
653.84	393.21
653.99	259.80
654.13	163.84
654.27	196.60
654.42	149.79
654.56	147.45
654.71	126.39
654.85	138.09
655.00	145.11
655.14	191.92
655.29	149.79
655.43	126.39
655.57	220.01
655.72	131.07
655.86	203.63
656.01	177.88
656.15	170.86
656.30	182.56
656.44	117.03
656.58	166.18
656.73	173.20
656.87	84.26
657.01	110.01
657.16	182.56
657.30	177.88
657.45	154.48
657.59	119.37
657.73	119.37
657.88	196.60
658.02	205.97
658.16	201.29
658.31	117.03
658.45	168.52
658.60	177.88
658.74	161.50
658.88	159.16
659.03	276.18
659.17	781.74
659.31	1977.75
659.46	3155.04
659.60	3857.20
659.74	3035.67
659.89	2293.72
660.03	1493.26
660.17	961.96
660.32	594.50
660.46	365.12
660.60	322.99
660.74	231.71
660.89	189.58
661.03	93.62
661.17	154.48
661.32	243.42
661.46	138.09
661.60	105.32
661.74	184.90
661.89	173.20
662.03	208.31
662.17	173.20
662.31	177.88
662.46	177.88
662.60	191.92
662.74	121.71
662.88	217.67
663.03	229.37
663.17	201.29
663.31	147.45
663.45	203.63
663.60	140.43
663.74	166.18
663.88	117.03
664.02	133.41
664.17	142.77
664.31	154.48
664.45	222.35
664.59	149.79
664.73	112.35
664.88	152.13
665.02	168.52
665.16	189.58
665.30	187.24
665.44	182.56
665.59	168.52
665.73	175.54
665.87	100.64
666.01	184.90
666.15	215.33
666.29	159.16
666.44	154.48
666.58	245.76
666.72	138.09
666.86	173.20
667.00	425.98
667.14	1394.96
667.28	3538.89
667.43	5734.31
667.57	6525.41
667.71	5233.44
667.85	3733.15
667.99	2293.72
668.13	1308.36
668.27	812.17
668.41	498.53
668.56	388.53
668.70	308.95
668.84	212.99
668.98	205.97
669.12	138.09
669.26	220.01
669.40	273.84
669.54	191.92
669.68	227.03
669.82	152.13
669.96	131.07
670.10	177.88
670.25	154.48
670.39	222.35
670.53	229.37
670.67	175.54
670.81	166.18
670.95	463.43
671.09	1341.13
671.23	2785.24
671.37	4009.34
671.51	4121.68
671.65	3007.59
671.79	1977.75
671.93	1184.31
672.07	758.33
672.21	514.92
672.35	297.25
672.49	243.42
672.63	234.05
672.77	220.01
672.91	163.84
673.05	220.01
673.19	105.32
673.33	147.45
673.47	198.95
673.61	182.56
673.75	140.43
673.89	189.58
674.03	189.58
674.17	77.24
674.31	182.56
674.45	215.33
674.59	131.07
674.73	182.56
674.87	210.65
675.01	234.05
675.15	163.84
675.29	208.31
675.43	201.29
675.56	241.08
675.70	257.46
675.84	198.95
675.98	210.65
676.12	170.86
676.26	191.92
676.40	63.19
676.54	191.92
676.68	114.69
676.82	205.97
676.96	180.22
677.10	184.90
677.23	140.43
677.37	128.73
677.51	161.50
677.65	187.24
677.79	145.11
677.93	154.48
678.07	121.71
678.21	159.16
678.34	95.96
678.48	67.88
678.62	182.56
678.76	100.64
678.90	142.77
679.04	128.73
679.18	117.03
679.31	86.60
679.45	88.94
679.59	142.77
679.73	184.90
679.87	105.32
680.00	156.82
680.14	182.56
680.28	121.71
680.42	161.50
680.56	124.05
680.70	149.79
680.83	175.54
680.97	196.60
681.11	124.05
681.25	133.41
681.39	58.51
681.52	163.84
681.66	156.82
681.80	180.22
681.94	189.58
682.07	102.98
682.21	194.26
682.35	126.39
682.49	117.03
682.62	180.22
682.76	128.73
682.90	152.13
683.04	126.39
683.17	210.65
683.31	114.69
683.45	140.43
683.59	63.19
683.72	159.16
683.86	105.32
684.00	107.66
684.13	205.97
684.27	147.45
684.41	145.11
684.55	201.29
684.68	117.03
684.82	138.09
684.96	95.96
685.09	107.66
685.23	114.69
685.37	112.35
685.50	135.75
685.64	166.18
685.78	98.30
685.91	173.20
686.05	180.22
686.19	126.39
686.32	126.39
686.46	154.48
686.60	156.82
686.73	292.57
686.87	231.71
687.01	222.35
687.14	124.05
687.28	126.39
687.42	222.35
687.55	138.09
687.69	236.39
687.82	161.50
687.96	145.11
688.10	177.88
688.23	140.43
688.37	224.69
688.50	107.66
688.64	196.60
688.78	126.39
688.91	175.54
689.05	154.48
689.18	98.30
689.32	117.03
689.46	156.82
689.59	166.18
689.73	156.82
689.86	147.45
690.00	168.52
690.13	163.84
690.27	168.52
690.41	112.35
690.54	138.09
690.68	170.86
690.81	142.77
690.95	95.96
691.08	208.31
691.22	142.77
691.35	145.11
691.49	145.11
691.62	159.16
691.76	149.79
691.89	159.16
692.03	140.43
692.16	217.67
692.30	627.26
692.43	1355.17
692.57	2321.81
692.70	2789.92
692.84	2436.50
692.97	1914.56
693.11	1469.86
693.24	1055.58
693.38	699.82
693.51	489.17
693.65	330.02
693.78	306.61
693.92	252.78
694.05	222.35
694.19	154.48
694.32	161.50
694.45	173.20
694.59	105.32
694.72	191.92
694.86	184.90
694.99	203.63
695.13	126.39
695.26	142.77
695.39	159.16
695.53	114.69
695.66	170.86
695.80	194.26
695.93	177.88
696.07	304.27
696.20	313.63
696.33	369.80
696.47	332.36
696.60	287.89
696.73	280.86
696.87	177.88
697.00	194.26
697.14	112.35
697.27	119.37
697.40	262.14
697.54	121.71
697.67	93.62
697.80	131.07
697.94	173.20
698.07	126.39
698.21	217.67
698.34	145.11
698.47	184.90
698.61	84.26
698.74	133.41
698.87	156.82
699.01	84.26
699.14	161.50
699.27	114.69
699.40	301.93
699.54	124.05
699.67	126.39
699.80	177.88
699.94	152.13
700.07	156.82
700.20	117.03
700.34	208.31
700.47	74.90
700.60	114.69
700.73	149.79
700.87	236.39
701.00	142.77
701.13	112.35
701.26	161.50
701.40	140.43
701.53	126.39
701.66	154.48
701.79	175.54
701.93	227.03
702.06	262.14
702.19	250.44
702.32	344.06
702.46	362.78
702.59	650.67
702.72	1760.08
702.85	3318.88
702.99	4910.44
703.12	5486.22
703.25	4493.83
703.38	3798.69
703.51	2967.80
703.65	2087.76
703.78	1488.58
703.91	978.34
704.04	643.65
704.17	428.32
704.31	299.59
704.44	315.97
704.57	217.67
704.70	124.05
704.83	152.13
704.96	161.50
705.10	168.52
705.23	196.60
>>>>>End Processed Spectral Data<<<<<
