SpectraSuite Data File
++++++++++++++++++++++++++++++++++++
Date: Fri Oct 04 12:13:42 GMT-05:00 2013
User: price-jones
Dark Spectrum Present: No
Reference Spectrum Present: No
Number of Sampled Component Spectra: 1
Spectrometers: USB2+H05261
Integration Time (usec): 10000 (USB2+H05261)
Spectra Averaged: 1 (USB2+H05261)
Boxcar Smoothing: 0 (USB2+H05261)
Correct for Electrical Dark: No (USB2+H05261)
Strobe/Lamp Enabled: No (USB2+H05261)
Correct for Detector Non-linearity: No (USB2+H05261)
Correct for Stray Light: No (USB2+H05261)
Number of Pixels in Processed Spectrum: 2048
>>>>>Begin Processed Spectral Data<<<<<
365.73	0.00
365.92	0.00
366.12	0.00
366.32	0.00
366.52	0.00
366.72	0.00
366.91	0.00
367.11	0.00
367.31	0.00
367.51	0.00
367.70	0.00
367.90	0.00
368.10	0.00
368.30	0.00
368.49	0.00
368.69	0.00
368.89	0.00
369.09	0.00
369.28	0.00
369.48	0.00
369.68	0.00
369.87	0.00
370.07	0.00
370.27	0.00
370.47	0.00
370.66	0.00
370.86	0.00
371.06	9.36
371.25	7.02
371.45	0.00
371.65	0.00
371.84	0.00
372.04	2.34
372.24	7.02
372.44	25.75
372.63	63.19
372.83	37.45
373.03	0.00
373.22	0.00
373.42	14.04
373.62	25.75
373.81	0.00
374.01	49.15
374.21	46.81
374.40	18.72
374.60	21.06
374.79	46.81
374.99	63.19
375.19	37.45
375.38	67.88
375.58	21.06
375.78	84.26
375.97	14.04
376.17	67.88
376.37	42.13
376.56	23.41
376.76	84.26
376.95	32.77
377.15	37.45
377.35	7.02
377.54	39.79
377.74	0.00
377.93	7.02
378.13	72.56
378.33	46.81
378.52	42.13
378.72	0.00
378.91	0.00
379.11	4.68
379.31	58.51
379.50	21.06
379.70	0.00
379.89	72.56
380.09	16.38
380.28	0.00
380.48	21.06
380.68	0.00
380.87	0.00
381.07	0.00
381.26	0.00
381.46	42.13
381.65	9.36
381.85	0.00
382.04	4.68
382.24	16.38
382.43	7.02
382.63	0.00
382.83	49.15
383.02	18.72
383.22	65.54
383.41	44.47
383.61	9.36
383.80	9.36
384.00	35.11
384.19	0.00
384.39	0.00
384.58	58.51
384.78	0.00
384.97	0.00
385.17	16.38
385.36	11.70
385.56	63.19
385.75	56.17
385.95	25.75
386.14	0.00
386.34	0.00
386.53	70.22
386.72	49.15
386.92	0.00
387.11	30.43
387.31	7.02
387.50	0.00
387.70	42.13
387.89	46.81
388.09	79.58
388.28	9.36
388.48	18.72
388.67	0.00
388.86	7.02
389.06	7.02
389.25	9.36
389.45	18.72
389.64	32.77
389.84	0.00
390.03	0.00
390.22	35.11
390.42	35.11
390.61	39.79
390.81	0.00
391.00	0.00
391.19	0.00
391.39	60.85
391.58	39.79
391.78	28.09
391.97	0.00
392.16	67.88
392.36	56.17
392.55	81.92
392.75	21.06
392.94	0.00
393.13	35.11
393.33	58.51
393.52	44.47
393.71	114.69
393.91	74.90
394.10	0.00
394.29	67.88
394.49	0.00
394.68	21.06
394.88	51.49
395.07	32.77
395.26	23.41
395.46	51.49
395.65	25.75
395.84	0.00
396.04	46.81
396.23	14.04
396.42	0.00
396.62	30.43
396.81	60.85
397.00	35.11
397.19	35.11
397.39	28.09
397.58	42.13
397.77	65.54
397.97	70.22
398.16	21.06
398.35	7.02
398.55	60.85
398.74	30.43
398.93	25.75
399.12	42.13
399.32	35.11
399.51	0.00
399.70	58.51
399.90	25.75
400.09	37.45
400.28	35.11
400.47	0.00
400.67	0.00
400.86	72.56
401.05	42.13
401.24	4.68
401.44	18.72
401.63	37.45
401.82	63.19
402.01	42.13
402.21	18.72
402.40	16.38
402.59	91.28
402.78	16.38
402.97	28.09
403.17	0.00
403.36	28.09
403.55	16.38
403.74	63.19
403.93	25.75
404.13	65.54
404.32	37.45
404.51	88.94
404.70	44.47
404.89	138.09
405.09	70.22
405.28	72.56
405.47	51.49
405.66	84.26
405.85	0.00
406.05	25.75
406.24	37.45
406.43	49.15
406.62	65.54
406.81	9.36
407.00	21.06
407.20	25.75
407.39	77.24
407.58	0.00
407.77	46.81
407.96	49.15
408.15	42.13
408.34	21.06
408.54	0.00
408.73	98.30
408.92	32.77
409.11	46.81
409.30	60.85
409.49	93.62
409.68	30.43
409.87	18.72
410.07	32.77
410.26	25.75
410.45	49.15
410.64	56.17
410.83	35.11
411.02	0.00
411.21	49.15
411.40	74.90
411.59	11.70
411.78	81.92
411.98	81.92
412.17	65.54
412.36	0.00
412.55	39.79
412.74	9.36
412.93	28.09
413.12	72.56
413.31	0.00
413.50	72.56
413.69	28.09
413.88	63.19
414.07	0.00
414.26	0.00
414.45	18.72
414.64	37.45
414.83	35.11
415.02	67.88
415.22	49.15
415.41	51.49
415.60	0.00
415.79	100.64
415.98	0.00
416.17	51.49
416.36	117.03
416.55	51.49
416.74	126.39
416.93	0.00
417.12	56.17
417.31	46.81
417.50	79.58
417.69	23.41
417.88	23.41
418.07	49.15
418.26	0.00
418.45	77.24
418.64	56.17
418.83	0.00
419.02	32.77
419.21	21.06
419.39	63.19
419.58	9.36
419.77	23.41
419.96	72.56
420.15	56.17
420.34	0.00
420.53	0.00
420.72	44.47
420.91	100.64
421.10	91.28
421.29	42.13
421.48	11.70
421.67	58.51
421.86	0.00
422.05	98.30
422.24	16.38
422.43	46.81
422.61	70.22
422.80	84.26
422.99	39.79
423.18	53.83
423.37	18.72
423.56	84.26
423.75	11.70
423.94	37.45
424.13	0.00
424.32	67.88
424.50	63.19
424.69	51.49
424.88	102.98
425.07	4.68
425.26	28.09
425.45	51.49
425.64	9.36
425.83	9.36
426.01	0.00
426.20	60.85
426.39	37.45
426.58	56.17
426.77	14.04
426.96	0.00
427.15	0.00
427.33	51.49
427.52	84.26
427.71	74.90
427.90	0.00
428.09	51.49
428.28	77.24
428.46	30.43
428.65	100.64
428.84	23.41
429.03	49.15
429.22	74.90
429.40	0.00
429.59	0.00
429.78	53.83
429.97	84.26
430.16	21.06
430.34	0.00
430.53	44.47
430.72	67.88
430.91	44.47
431.10	23.41
431.28	21.06
431.47	37.45
431.66	100.64
431.85	53.83
432.03	110.01
432.22	63.19
432.41	23.41
432.60	7.02
432.79	65.54
432.97	0.00
433.16	0.00
433.35	49.15
433.54	79.58
433.72	9.36
433.91	44.47
434.10	39.79
434.28	46.81
434.47	2.34
434.66	70.22
434.85	32.77
435.03	46.81
435.22	100.64
435.41	0.00
435.59	32.77
435.78	0.00
435.97	53.83
436.16	77.24
436.34	39.79
436.53	46.81
436.72	53.83
436.90	84.26
437.09	49.15
437.28	53.83
437.46	42.13
437.65	23.41
437.84	0.00
438.02	60.85
438.21	14.04
438.40	0.00
438.58	0.00
438.77	14.04
438.96	93.62
439.14	30.43
439.33	81.92
439.52	63.19
439.70	95.96
439.89	16.38
440.08	65.54
440.26	60.85
440.45	119.37
440.63	58.51
440.82	7.02
441.01	0.00
441.19	60.85
441.38	58.51
441.57	93.62
441.75	53.83
441.94	67.88
442.12	7.02
442.31	14.04
442.50	72.56
442.68	67.88
442.87	30.43
443.05	119.37
443.24	79.58
443.43	126.39
443.61	58.51
443.80	18.72
443.98	28.09
444.17	81.92
444.35	46.81
444.54	65.54
444.73	70.22
444.91	44.47
445.10	0.00
445.28	23.41
445.47	42.13
445.65	21.06
445.84	44.47
446.02	79.58
446.21	58.51
446.39	7.02
446.58	72.56
446.77	32.77
446.95	0.00
447.14	74.90
447.32	23.41
447.51	9.36
447.69	156.82
447.88	77.24
448.06	56.17
448.25	35.11
448.43	18.72
448.62	23.41
448.80	56.17
448.99	81.92
449.17	21.06
449.36	72.56
449.54	98.30
449.73	67.88
449.91	32.77
450.10	93.62
450.28	39.79
450.46	93.62
450.65	39.79
450.83	53.83
451.02	98.30
451.20	25.75
451.39	77.24
451.57	32.77
451.76	0.00
451.94	39.79
452.13	23.41
452.31	42.13
452.49	23.41
452.68	98.30
452.86	28.09
453.05	46.81
453.23	28.09
453.42	0.00
453.60	56.17
453.78	98.30
453.97	0.00
454.15	133.41
454.34	16.38
454.52	79.58
454.70	58.51
454.89	25.75
455.07	63.19
455.26	9.36
455.44	88.94
455.62	9.36
455.81	42.13
455.99	9.36
456.17	84.26
456.36	70.22
456.54	28.09
456.73	88.94
456.91	79.58
457.09	63.19
457.28	145.11
457.46	42.13
457.64	14.04
457.83	21.06
458.01	114.69
458.19	46.81
458.38	60.85
458.56	18.72
458.74	0.00
458.93	2.34
459.11	2.34
459.29	28.09
459.48	84.26
459.66	42.13
459.84	98.30
460.03	9.36
460.21	51.49
460.39	49.15
460.57	86.60
460.76	114.69
460.94	70.22
461.12	114.69
461.31	74.90
461.49	51.49
461.67	4.68
461.85	14.04
462.04	30.43
462.22	154.48
462.40	49.15
462.59	81.92
462.77	37.45
462.95	117.03
463.13	79.58
463.32	32.77
463.50	30.43
463.68	39.79
463.86	16.38
464.05	56.17
464.23	93.62
464.41	21.06
464.59	0.00
464.78	42.13
464.96	0.00
465.14	51.49
465.32	4.68
465.50	39.79
465.69	79.58
465.87	121.71
466.05	60.85
466.23	14.04
466.41	72.56
466.60	0.00
466.78	67.88
466.96	23.41
467.14	2.34
467.32	32.77
467.51	0.00
467.69	30.43
467.87	58.51
468.05	79.58
468.23	84.26
468.41	42.13
468.60	56.17
468.78	0.00
468.96	7.02
469.14	84.26
469.32	46.81
469.50	93.62
469.69	65.54
469.87	100.64
470.05	110.01
470.23	72.56
470.41	107.66
470.59	74.90
470.77	16.38
470.95	58.51
471.14	65.54
471.32	81.92
471.50	53.83
471.68	0.00
471.86	0.00
472.04	0.00
472.22	112.35
472.40	81.92
472.58	28.09
472.77	65.54
472.95	95.96
473.13	131.07
473.31	88.94
473.49	18.72
473.67	56.17
473.85	88.94
474.03	39.79
474.21	49.15
474.39	42.13
474.57	14.04
474.75	0.00
474.93	32.77
475.12	4.68
475.30	112.35
475.48	67.88
475.66	56.17
475.84	0.00
476.02	77.24
476.20	53.83
476.38	51.49
476.56	88.94
476.74	35.11
476.92	86.60
477.10	60.85
477.28	32.77
477.46	79.58
477.64	84.26
477.82	95.96
478.00	93.62
478.18	84.26
478.36	35.11
478.54	74.90
478.72	14.04
478.90	77.24
479.08	86.60
479.26	44.47
479.44	53.83
479.62	30.43
479.80	95.96
479.98	67.88
480.16	58.51
480.34	86.60
480.52	72.56
480.70	79.58
480.88	21.06
481.06	39.79
481.24	86.60
481.41	100.64
481.59	84.26
481.77	86.60
481.95	63.19
482.13	91.28
482.31	51.49
482.49	100.64
482.67	121.71
482.85	112.35
483.03	60.85
483.21	95.96
483.39	72.56
483.57	39.79
483.74	35.11
483.92	65.54
484.10	58.51
484.28	114.69
484.46	11.70
484.64	102.98
484.82	44.47
485.00	65.54
485.18	39.79
485.35	32.77
485.53	37.45
485.71	49.15
485.89	53.83
486.07	98.30
486.25	63.19
486.43	0.00
486.61	86.60
486.78	142.77
486.96	9.36
487.14	93.62
487.32	72.56
487.50	39.79
487.68	138.09
487.85	39.79
488.03	110.01
488.21	70.22
488.39	86.60
488.57	161.50
488.75	4.68
488.92	65.54
489.10	44.47
489.28	86.60
489.46	0.00
489.64	18.72
489.81	46.81
489.99	114.69
490.17	39.79
490.35	51.49
490.53	74.90
490.70	25.75
490.88	46.81
491.06	58.51
491.24	93.62
491.41	74.90
491.59	102.98
491.77	2.34
491.95	49.15
492.13	51.49
492.30	23.41
492.48	93.62
492.66	105.32
492.84	84.26
493.01	107.66
493.19	93.62
493.37	0.00
493.54	44.47
493.72	70.22
493.90	84.26
494.08	126.39
494.25	49.15
494.43	77.24
494.61	60.85
494.79	51.49
494.96	23.41
495.14	28.09
495.32	67.88
495.49	95.96
495.67	67.88
495.85	70.22
496.02	51.49
496.20	117.03
496.38	37.45
496.55	100.64
496.73	98.30
496.91	7.02
497.09	32.77
497.26	74.90
497.44	65.54
497.62	88.94
497.79	51.49
497.97	88.94
498.14	65.54
498.32	23.41
498.50	107.66
498.67	88.94
498.85	77.24
499.03	100.64
499.20	133.41
499.38	65.54
499.56	4.68
499.73	25.75
499.91	98.30
500.08	32.77
500.26	74.90
500.44	128.73
500.61	46.81
500.79	65.54
500.97	49.15
501.14	53.83
501.32	53.83
501.49	72.56
501.67	72.56
501.84	121.71
502.02	35.11
502.20	37.45
502.37	39.79
502.55	100.64
502.72	79.58
502.90	86.60
503.07	77.24
503.25	84.26
503.43	124.05
503.60	140.43
503.78	0.00
503.95	49.15
504.13	37.45
504.30	95.96
504.48	128.73
504.65	72.56
504.83	107.66
505.01	63.19
505.18	56.17
505.36	84.26
505.53	74.90
505.71	72.56
505.88	102.98
506.06	11.70
506.23	88.94
506.41	70.22
506.58	37.45
506.76	105.32
506.93	112.35
507.11	42.13
507.28	44.47
507.46	53.83
507.63	105.32
507.81	65.54
507.98	53.83
508.16	133.41
508.33	11.70
508.50	142.77
508.68	93.62
508.85	23.41
509.03	7.02
509.20	84.26
509.38	70.22
509.55	35.11
509.73	95.96
509.90	32.77
510.08	88.94
510.25	102.98
510.42	84.26
510.60	88.94
510.77	117.03
510.95	93.62
511.12	91.28
511.30	91.28
511.47	28.09
511.64	77.24
511.82	32.77
511.99	86.60
512.17	98.30
512.34	25.75
512.51	147.45
512.69	81.92
512.86	84.26
513.04	35.11
513.21	63.19
513.38	39.79
513.56	119.37
513.73	124.05
513.90	86.60
514.08	147.45
514.25	107.66
514.43	74.90
514.60	70.22
514.77	46.81
514.95	79.58
515.12	60.85
515.29	105.32
515.47	131.07
515.64	135.75
515.81	105.32
515.99	91.28
516.16	51.49
516.33	86.60
516.51	98.30
516.68	79.58
516.85	74.90
517.03	110.01
517.20	124.05
517.37	63.19
517.54	58.51
517.72	100.64
517.89	91.28
518.06	100.64
518.24	81.92
518.41	98.30
518.58	81.92
518.75	58.51
518.93	119.37
519.10	84.26
519.27	93.62
519.45	105.32
519.62	79.58
519.79	77.24
519.96	133.41
520.14	86.60
520.31	74.90
520.48	86.60
520.65	140.43
520.83	98.30
521.00	42.13
521.17	58.51
521.34	105.32
521.52	79.58
521.69	42.13
521.86	152.13
522.03	142.77
522.20	77.24
522.38	135.75
522.55	91.28
522.72	72.56
522.89	149.79
523.07	91.28
523.24	154.48
523.41	138.09
523.58	126.39
523.75	63.19
523.92	131.07
524.10	79.58
524.27	152.13
524.44	154.48
524.61	81.92
524.78	81.92
524.96	147.45
525.13	53.83
525.30	84.26
525.47	77.24
525.64	58.51
525.81	102.98
525.98	58.51
526.16	114.69
526.33	131.07
526.50	126.39
526.67	77.24
526.84	7.02
527.01	0.00
527.18	95.96
527.36	91.28
527.53	117.03
527.70	30.43
527.87	112.35
528.04	152.13
528.21	95.96
528.38	93.62
528.55	58.51
528.72	86.60
528.89	107.66
529.07	77.24
529.24	39.79
529.41	60.85
529.58	39.79
529.75	124.05
529.92	84.26
530.09	93.62
530.26	25.75
530.43	112.35
530.60	49.15
530.77	0.00
530.94	124.05
531.11	149.79
531.28	91.28
531.46	138.09
531.63	93.62
531.80	63.19
531.97	138.09
532.14	126.39
532.31	65.54
532.48	117.03
532.65	21.06
532.82	58.51
532.99	112.35
533.16	107.66
533.33	102.98
533.50	110.01
533.67	37.45
533.84	84.26
534.01	35.11
534.18	0.00
534.35	63.19
534.52	110.01
534.69	35.11
534.86	79.58
535.03	86.60
535.20	65.54
535.37	100.64
535.54	102.98
535.71	91.28
535.88	84.26
536.05	152.13
536.22	86.60
536.38	58.51
536.55	133.41
536.72	84.26
536.89	32.77
537.06	114.69
537.23	93.62
537.40	88.94
537.57	74.90
537.74	102.98
537.91	91.28
538.08	114.69
538.25	121.71
538.42	63.19
538.59	102.98
538.75	102.98
538.92	79.58
539.09	67.88
539.26	91.28
539.43	0.00
539.60	65.54
539.77	93.62
539.94	44.47
540.11	65.54
540.28	39.79
540.44	74.90
540.61	42.13
540.78	79.58
540.95	63.19
541.12	119.37
541.29	100.64
541.46	93.62
541.62	74.90
541.79	37.45
541.96	77.24
542.13	39.79
542.30	60.85
542.47	72.56
542.63	77.24
542.80	124.05
542.97	114.69
543.14	58.51
543.31	65.54
543.48	79.58
543.64	37.45
543.81	128.73
543.98	102.98
544.15	77.24
544.32	42.13
544.48	107.66
544.65	74.90
544.82	67.88
544.99	161.50
545.16	124.05
545.32	124.05
545.49	46.81
545.66	100.64
545.83	140.43
546.00	177.88
546.16	156.82
546.33	105.32
546.50	72.56
546.67	110.01
546.83	102.98
547.00	95.96
547.17	102.98
547.34	84.26
547.50	44.47
547.67	32.77
547.84	37.45
548.00	0.00
548.17	77.24
548.34	65.54
548.51	53.83
548.67	65.54
548.84	49.15
549.01	60.85
549.18	100.64
549.34	74.90
549.51	91.28
549.68	16.38
549.84	100.64
550.01	112.35
550.18	81.92
550.34	25.75
550.51	121.71
550.68	72.56
550.84	72.56
551.01	70.22
551.18	88.94
551.34	79.58
551.51	63.19
551.68	100.64
551.84	88.94
552.01	70.22
552.18	110.01
552.34	93.62
552.51	35.11
552.68	105.32
552.84	65.54
553.01	60.85
553.18	74.90
553.34	84.26
553.51	166.18
553.67	18.72
553.84	65.54
554.01	117.03
554.17	67.88
554.34	149.79
554.51	95.96
554.67	91.28
554.84	121.71
555.00	35.11
555.17	81.92
555.33	56.17
555.50	100.64
555.67	77.24
555.83	187.24
556.00	95.96
556.16	117.03
556.33	72.56
556.50	79.58
556.66	93.62
556.83	173.20
556.99	46.81
557.16	56.17
557.32	72.56
557.49	67.88
557.65	44.47
557.82	91.28
557.98	77.24
558.15	140.43
558.32	121.71
558.48	49.15
558.65	88.94
558.81	149.79
558.98	74.90
559.14	88.94
559.31	121.71
559.47	51.49
559.64	58.51
559.80	37.45
559.97	91.28
560.13	65.54
560.30	135.75
560.46	117.03
560.63	49.15
560.79	74.90
560.96	32.77
561.12	124.05
561.29	98.30
561.45	65.54
561.61	131.07
561.78	46.81
561.94	49.15
562.11	70.22
562.27	81.92
562.44	60.85
562.60	0.00
562.77	72.56
562.93	121.71
563.10	51.49
563.26	84.26
563.42	21.06
563.59	86.60
563.75	63.19
563.92	72.56
564.08	117.03
564.24	72.56
564.41	0.00
564.57	135.75
564.74	56.17
564.90	86.60
565.07	102.98
565.23	93.62
565.39	42.13
565.56	77.24
565.72	95.96
565.88	95.96
566.05	117.03
566.21	51.49
566.38	67.88
566.54	114.69
566.70	11.70
566.87	95.96
567.03	70.22
567.19	140.43
567.36	60.85
567.52	74.90
567.68	163.84
567.85	74.90
568.01	70.22
568.17	117.03
568.34	56.17
568.50	112.35
568.66	133.41
568.83	110.01
568.99	77.24
569.15	44.47
569.32	28.09
569.48	77.24
569.64	77.24
569.81	117.03
569.97	133.41
570.13	95.96
570.30	124.05
570.46	77.24
570.62	114.69
570.78	138.09
570.95	63.19
571.11	107.66
571.27	88.94
571.43	110.01
571.60	152.13
571.76	112.35
571.92	58.51
572.09	51.49
572.25	42.13
572.41	93.62
572.57	65.54
572.74	117.03
572.90	93.62
573.06	112.35
573.22	91.28
573.38	124.05
573.55	149.79
573.71	72.56
573.87	37.45
574.03	9.36
574.20	105.32
574.36	112.35
574.52	49.15
574.68	119.37
574.84	110.01
575.01	51.49
575.17	21.06
575.33	23.41
575.49	112.35
575.65	105.32
575.82	98.30
575.98	102.98
576.14	135.75
576.30	58.51
576.46	63.19
576.62	81.92
576.79	86.60
576.95	51.49
577.11	110.01
577.27	88.94
577.43	67.88
577.59	0.00
577.75	140.43
577.92	72.56
578.08	131.07
578.24	46.81
578.40	63.19
578.56	88.94
578.72	79.58
578.88	51.49
579.04	95.96
579.21	100.64
579.37	95.96
579.53	86.60
579.69	81.92
579.85	72.56
580.01	74.90
580.17	16.38
580.33	86.60
580.49	112.35
580.65	95.96
580.82	58.51
580.98	37.45
581.14	107.66
581.30	49.15
581.46	145.11
581.62	145.11
581.78	65.54
581.94	63.19
582.10	60.85
582.26	107.66
582.42	107.66
582.58	37.45
582.74	81.92
582.90	25.75
583.06	88.94
583.22	131.07
583.38	28.09
583.54	110.01
583.70	161.50
583.86	56.17
584.02	65.54
584.18	56.17
584.34	98.30
584.50	65.54
584.66	91.28
584.82	187.24
584.98	39.79
585.14	142.77
585.30	88.94
585.46	102.98
585.62	46.81
585.78	114.69
585.94	58.51
586.10	77.24
586.26	0.00
586.42	88.94
586.58	58.51
586.74	154.48
586.90	102.98
587.06	98.30
587.22	81.92
587.38	88.94
587.54	39.79
587.70	56.17
587.86	49.15
588.02	25.75
588.18	18.72
588.34	84.26
588.49	63.19
588.65	77.24
588.81	67.88
588.97	70.22
589.13	91.28
589.29	98.30
589.45	11.70
589.61	81.92
589.77	102.98
589.93	18.72
590.08	95.96
590.24	58.51
590.40	98.30
590.56	44.47
590.72	102.98
590.88	86.60
591.04	79.58
591.20	86.60
591.35	84.26
591.51	117.03
591.67	98.30
591.83	93.62
591.99	44.47
592.15	35.11
592.31	84.26
592.46	112.35
592.62	112.35
592.78	105.32
592.94	60.85
593.10	7.02
593.26	84.26
593.41	105.32
593.57	110.01
593.73	51.49
593.89	63.19
594.05	77.24
594.20	0.00
594.36	74.90
594.52	28.09
594.68	53.83
594.84	4.68
594.99	81.92
595.15	67.88
595.31	72.56
595.47	32.77
595.62	86.60
595.78	65.54
595.94	107.66
596.10	58.51
596.25	0.00
596.41	58.51
596.57	105.32
596.73	67.88
596.88	42.13
597.04	35.11
597.20	46.81
597.36	30.43
597.51	18.72
597.67	53.83
597.83	121.71
597.99	25.75
598.14	93.62
598.30	107.66
598.46	84.26
598.61	42.13
598.77	35.11
598.93	74.90
599.09	133.41
599.24	128.73
599.40	187.24
599.56	46.81
599.71	105.32
599.87	74.90
600.03	58.51
600.18	72.56
600.34	25.75
600.50	119.37
600.65	84.26
600.81	28.09
600.97	77.24
601.12	114.69
601.28	0.00
601.44	154.48
601.59	7.02
601.75	81.92
601.91	126.39
602.06	124.05
602.22	107.66
602.37	18.72
602.53	100.64
602.69	14.04
602.84	180.22
603.00	70.22
603.16	147.45
603.31	63.19
603.47	42.13
603.62	74.90
603.78	72.56
603.94	2.34
604.09	44.47
604.25	65.54
604.40	138.09
604.56	74.90
604.71	51.49
604.87	81.92
605.03	140.43
605.18	102.98
605.34	56.17
605.49	131.07
605.65	23.41
605.80	46.81
605.96	133.41
606.12	79.58
606.27	46.81
606.43	74.90
606.58	63.19
606.74	91.28
606.89	51.49
607.05	81.92
607.20	0.00
607.36	18.72
607.51	42.13
607.67	100.64
607.82	28.09
607.98	63.19
608.13	98.30
608.29	56.17
608.44	44.47
608.60	30.43
608.75	56.17
608.91	53.83
609.06	72.56
609.22	81.92
609.37	102.98
609.53	58.51
609.68	25.75
609.84	7.02
609.99	81.92
610.15	63.19
610.30	28.09
610.46	16.38
610.61	86.60
610.76	88.94
610.92	67.88
611.07	28.09
611.23	42.13
611.38	51.49
611.54	0.00
611.69	98.30
611.84	56.17
612.00	58.51
612.15	81.92
612.31	117.03
612.46	74.90
612.62	53.83
612.77	53.83
612.92	28.09
613.08	7.02
613.23	131.07
613.39	93.62
613.54	56.17
613.69	49.15
613.85	11.70
614.00	107.66
614.15	121.71
614.31	37.45
614.46	56.17
614.62	77.24
614.77	88.94
614.92	42.13
615.08	11.70
615.23	72.56
615.38	56.17
615.54	42.13
615.69	35.11
615.84	77.24
616.00	102.98
616.15	46.81
616.30	39.79
616.46	72.56
616.61	124.05
616.76	107.66
616.92	112.35
617.07	30.43
617.22	79.58
617.37	93.62
617.53	44.47
617.68	46.81
617.83	60.85
617.99	60.85
618.14	37.45
618.29	121.71
618.45	154.48
618.60	56.17
618.75	65.54
618.90	72.56
619.06	79.58
619.21	56.17
619.36	138.09
619.51	30.43
619.67	35.11
619.82	51.49
619.97	100.64
620.12	42.13
620.28	25.75
620.43	105.32
620.58	51.49
620.73	135.75
620.89	102.98
621.04	88.94
621.19	32.77
621.34	98.30
621.49	56.17
621.65	72.56
621.80	42.13
621.95	77.24
622.10	28.09
622.25	117.03
622.41	110.01
622.56	145.11
622.71	51.49
622.86	56.17
623.01	93.62
623.16	138.09
623.32	74.90
623.47	86.60
623.62	37.45
623.77	44.47
623.92	16.38
624.07	84.26
624.23	32.77
624.38	72.56
624.53	37.45
624.68	9.36
624.83	42.13
624.98	91.28
625.13	56.17
625.29	25.75
625.44	84.26
625.59	21.06
625.74	32.77
625.89	11.70
626.04	14.04
626.19	60.85
626.34	110.01
626.49	63.19
626.65	7.02
626.80	93.62
626.95	56.17
627.10	7.02
627.25	0.00
627.40	51.49
627.55	46.81
627.70	39.79
627.85	58.51
628.00	58.51
628.15	168.52
628.30	58.51
628.45	51.49
628.60	30.43
628.76	2.34
628.91	105.32
629.06	110.01
629.21	79.58
629.36	72.56
629.51	81.92
629.66	93.62
629.81	30.43
629.96	56.17
630.11	98.30
630.26	72.56
630.41	37.45
630.56	46.81
630.71	49.15
630.86	86.60
631.01	84.26
631.16	53.83
631.31	44.47
631.46	14.04
631.61	51.49
631.76	114.69
631.91	84.26
632.06	51.49
632.21	51.49
632.36	70.22
632.51	39.79
632.66	28.09
632.81	25.75
632.96	88.94
633.10	65.54
633.25	79.58
633.40	93.62
633.55	7.02
633.70	105.32
633.85	72.56
634.00	56.17
634.15	93.62
634.30	67.88
634.45	9.36
634.60	51.49
634.75	9.36
634.90	81.92
635.05	72.56
635.19	58.51
635.34	37.45
635.49	42.13
635.64	39.79
635.79	72.56
635.94	105.32
636.09	121.71
636.24	18.72
636.39	56.17
636.53	42.13
636.68	72.56
636.83	77.24
636.98	72.56
637.13	35.11
637.28	18.72
637.43	21.06
637.57	60.85
637.72	51.49
637.87	18.72
638.02	9.36
638.17	79.58
638.32	93.62
638.46	86.60
638.61	84.26
638.76	49.15
638.91	51.49
639.06	60.85
639.20	79.58
639.35	86.60
639.50	28.09
639.65	21.06
639.80	88.94
639.94	110.01
640.09	58.51
640.24	0.00
640.39	65.54
640.54	100.64
640.68	65.54
640.83	124.05
640.98	105.32
641.13	91.28
641.27	84.26
641.42	56.17
641.57	37.45
641.72	112.35
641.86	128.73
642.01	63.19
642.16	124.05
642.31	72.56
642.45	53.83
642.60	39.79
642.75	110.01
642.90	102.98
643.04	142.77
643.19	91.28
643.34	91.28
643.48	98.30
643.63	58.51
643.78	46.81
643.93	28.09
644.07	65.54
644.22	32.77
644.37	81.92
644.51	46.81
644.66	32.77
644.81	37.45
644.95	79.58
645.10	32.77
645.25	39.79
645.39	18.72
645.54	149.79
645.69	149.79
645.83	79.58
645.98	0.00
646.13	25.75
646.27	9.36
646.42	30.43
646.57	84.26
646.71	35.11
646.86	72.56
647.00	74.90
647.15	65.54
647.30	81.92
647.44	105.32
647.59	49.15
647.74	30.43
647.88	88.94
648.03	9.36
648.17	0.00
648.32	65.54
648.47	60.85
648.61	56.17
648.76	49.15
648.90	14.04
649.05	18.72
649.20	84.26
649.34	30.43
649.49	0.00
649.63	77.24
649.78	25.75
649.92	9.36
650.07	23.41
650.21	49.15
650.36	117.03
650.51	9.36
650.65	30.43
650.80	28.09
650.94	60.85
651.09	35.11
651.23	58.51
651.38	112.35
651.52	95.96
651.67	44.47
651.81	84.26
651.96	11.70
652.10	67.88
652.25	0.00
652.39	72.56
652.54	49.15
652.68	95.96
652.83	102.98
652.97	0.00
653.12	18.72
653.26	126.39
653.41	81.92
653.55	49.15
653.70	114.69
653.84	81.92
653.99	42.13
654.13	0.00
654.27	86.60
654.42	81.92
654.56	56.17
654.71	91.28
654.85	86.60
655.00	0.00
655.14	67.88
655.29	14.04
655.43	46.81
655.57	67.88
655.72	51.49
655.86	9.36
656.01	0.00
656.15	28.09
656.30	49.15
656.44	35.11
656.58	32.77
656.73	84.26
656.87	4.68
657.01	49.15
657.16	81.92
657.30	35.11
657.45	88.94
657.59	56.17
657.73	0.00
657.88	0.00
658.02	9.36
658.16	23.41
658.31	32.77
658.45	28.09
658.60	95.96
658.74	95.96
658.88	30.43
659.03	25.75
659.17	51.49
659.31	39.79
659.46	56.17
659.60	0.00
659.74	23.41
659.89	18.72
660.03	25.75
660.17	60.85
660.32	30.43
660.46	42.13
660.60	0.00
660.74	56.17
660.89	100.64
661.03	30.43
661.17	32.77
661.32	21.06
661.46	7.02
661.60	14.04
661.74	58.51
661.89	138.09
662.03	14.04
662.17	18.72
662.31	46.81
662.46	0.00
662.60	32.77
662.74	95.96
662.88	11.70
663.03	0.00
663.17	88.94
663.31	81.92
663.45	44.47
663.60	77.24
663.74	18.72
663.88	2.34
664.02	39.79
664.17	44.47
664.31	77.24
664.45	28.09
664.59	121.71
664.73	100.64
664.88	16.38
665.02	133.41
665.16	46.81
665.30	100.64
665.44	2.34
665.59	32.77
665.73	2.34
665.87	0.00
666.01	100.64
666.15	28.09
666.29	117.03
666.44	37.45
666.58	23.41
666.72	65.54
666.86	44.47
667.00	81.92
667.14	30.43
667.28	49.15
667.43	46.81
667.57	42.13
667.71	37.45
667.85	32.77
667.99	37.45
668.13	37.45
668.27	67.88
668.41	42.13
668.56	39.79
668.70	86.60
668.84	44.47
668.98	14.04
669.12	51.49
669.26	37.45
669.40	51.49
669.54	2.34
669.68	102.98
669.82	58.51
669.96	0.00
670.10	37.45
670.25	0.00
670.39	77.24
670.53	23.41
670.67	74.90
670.81	4.68
670.95	49.15
671.09	0.00
671.23	32.77
671.37	23.41
671.51	100.64
671.65	84.26
671.79	81.92
671.93	28.09
672.07	46.81
672.21	77.24
672.35	65.54
672.49	21.06
672.63	44.47
672.77	23.41
672.91	86.60
673.05	93.62
673.19	184.90
673.33	81.92
673.47	105.32
673.61	72.56
673.75	35.11
673.89	0.00
674.03	49.15
674.17	32.77
674.31	77.24
674.45	46.81
674.59	63.19
674.73	51.49
674.87	28.09
675.01	67.88
675.15	32.77
675.29	14.04
675.43	170.86
675.56	121.71
675.70	112.35
675.84	102.98
675.98	98.30
676.12	16.38
676.26	60.85
676.40	18.72
676.54	84.26
676.68	63.19
676.82	56.17
676.96	2.34
677.10	53.83
677.23	51.49
677.37	35.11
677.51	25.75
677.65	53.83
677.79	67.88
677.93	121.71
678.07	72.56
678.21	93.62
678.34	4.68
678.48	70.22
678.62	102.98
678.76	81.92
678.90	0.00
679.04	67.88
679.18	74.90
679.31	74.90
679.45	56.17
679.59	39.79
679.73	58.51
679.87	25.75
680.00	84.26
680.14	2.34
680.28	4.68
680.42	58.51
680.56	0.00
680.70	37.45
680.83	14.04
680.97	53.83
681.11	0.00
681.25	0.00
681.39	51.49
681.52	0.00
681.66	63.19
681.80	58.51
681.94	51.49
682.07	28.09
682.21	74.90
682.35	72.56
682.49	32.77
682.62	35.11
682.76	2.34
682.90	9.36
683.04	32.77
683.17	42.13
683.31	102.98
683.45	25.75
683.59	63.19
683.72	65.54
683.86	65.54
684.00	0.00
684.13	0.00
684.27	86.60
684.41	91.28
684.55	74.90
684.68	72.56
684.82	39.79
684.96	32.77
685.09	7.02
685.23	28.09
685.37	21.06
685.50	72.56
685.64	0.00
685.78	0.00
685.91	37.45
686.05	0.00
686.19	0.00
686.32	0.00
686.46	121.71
686.60	28.09
686.73	58.51
686.87	4.68
687.01	102.98
687.14	46.81
687.28	77.24
687.42	77.24
687.55	30.43
687.69	42.13
687.82	117.03
687.96	74.90
688.10	81.92
688.23	4.68
688.37	28.09
688.50	77.24
688.64	98.30
688.78	44.47
688.91	23.41
689.05	23.41
689.18	117.03
689.32	60.85
689.46	84.26
689.59	60.85
689.73	77.24
689.86	11.70
690.00	117.03
690.13	14.04
690.27	32.77
690.41	51.49
690.54	86.60
690.68	93.62
690.81	58.51
690.95	42.13
691.08	0.00
691.22	0.00
691.35	60.85
691.49	53.83
691.62	2.34
691.76	84.26
691.89	86.60
692.03	16.38
692.16	4.68
692.30	25.75
692.43	0.00
692.57	18.72
692.70	93.62
692.84	0.00
692.97	23.41
693.11	23.41
693.24	9.36
693.38	14.04
693.51	49.15
693.65	35.11
693.78	63.19
693.92	77.24
694.05	37.45
694.19	67.88
694.32	49.15
694.45	35.11
694.59	39.79
694.72	14.04
694.86	60.85
694.99	49.15
695.13	53.83
695.26	0.00
695.39	114.69
695.53	128.73
695.66	32.77
695.80	93.62
695.93	105.32
696.07	0.00
696.20	28.09
696.33	32.77
696.47	58.51
696.60	95.96
696.73	25.75
696.87	21.06
697.00	86.60
697.14	58.51
697.27	81.92
697.40	51.49
697.54	46.81
697.67	11.70
697.80	60.85
697.94	30.43
698.07	51.49
698.21	11.70
698.34	25.75
698.47	16.38
698.61	0.00
698.74	60.85
698.87	128.73
699.01	25.75
699.14	0.00
699.27	9.36
699.40	95.96
699.54	131.07
699.67	18.72
699.80	42.13
699.94	37.45
700.07	25.75
700.20	70.22
700.34	4.68
700.47	23.41
700.60	39.79
700.73	49.15
700.87	42.13
701.00	110.01
701.13	65.54
701.26	42.13
701.40	21.06
701.53	11.70
701.66	112.35
701.79	0.00
701.93	0.00
702.06	25.75
702.19	46.81
702.32	128.73
702.46	70.22
702.59	0.00
702.72	37.45
702.85	49.15
702.99	44.47
703.12	56.17
703.25	56.17
703.38	51.49
703.51	49.15
703.65	51.49
703.78	46.81
703.91	93.62
704.04	14.04
704.17	4.68
704.31	0.00
704.44	46.81
704.57	84.26
704.70	4.68
704.83	67.88
704.96	0.00
705.10	28.09
705.23	58.51
>>>>>End Processed Spectral Data<<<<<
