SpectraSuite Data File
++++++++++++++++++++++++++++++++++++
Date: Fri Oct 04 12:13:28 GMT-05:00 2013
User: price-jones
Dark Spectrum Present: No
Reference Spectrum Present: No
Number of Sampled Component Spectra: 1
Spectrometers: USB2+H05261
Integration Time (usec): 10000 (USB2+H05261)
Spectra Averaged: 1 (USB2+H05261)
Boxcar Smoothing: 0 (USB2+H05261)
Correct for Electrical Dark: No (USB2+H05261)
Strobe/Lamp Enabled: No (USB2+H05261)
Correct for Detector Non-linearity: No (USB2+H05261)
Correct for Stray Light: No (USB2+H05261)
Number of Pixels in Processed Spectrum: 2048
>>>>>Begin Processed Spectral Data<<<<<
365.73	0.00
365.92	0.00
366.12	0.00
366.32	0.00
366.52	0.00
366.72	0.00
366.91	0.00
367.11	0.00
367.31	0.00
367.51	0.00
367.70	0.00
367.90	0.00
368.10	0.00
368.30	0.00
368.49	0.00
368.69	0.00
368.89	0.00
369.09	0.00
369.28	0.00
369.48	0.00
369.68	0.00
369.87	0.00
370.07	0.00
370.27	0.00
370.47	0.00
370.66	0.00
370.86	0.00
371.06	0.00
371.25	0.00
371.45	9.36
371.65	0.00
371.84	0.00
372.04	0.00
372.24	53.83
372.44	4.68
372.63	53.83
372.83	42.13
373.03	0.00
373.22	39.79
373.42	0.00
373.62	35.11
373.81	16.38
374.01	0.00
374.21	51.49
374.40	46.81
374.60	0.00
374.79	30.43
374.99	9.36
375.19	51.49
375.38	11.70
375.58	11.70
375.78	25.75
375.97	133.41
376.17	86.60
376.37	65.54
376.56	0.00
376.76	32.77
376.95	0.00
377.15	0.00
377.35	0.00
377.54	0.00
377.74	37.45
377.93	0.00
378.13	53.83
378.33	32.77
378.52	0.00
378.72	25.75
378.91	0.00
379.11	0.00
379.31	44.47
379.50	49.15
379.70	0.00
379.89	37.45
380.09	2.34
380.28	4.68
380.48	4.68
380.68	0.00
380.87	35.11
381.07	4.68
381.26	18.72
381.46	0.00
381.65	0.00
381.85	0.00
382.04	16.38
382.24	0.00
382.43	51.49
382.63	0.00
382.83	60.85
383.02	23.41
383.22	42.13
383.41	4.68
383.61	0.00
383.80	53.83
384.00	37.45
384.19	0.00
384.39	51.49
384.58	14.04
384.78	0.00
384.97	18.72
385.17	67.88
385.36	9.36
385.56	7.02
385.75	0.00
385.95	0.00
386.14	0.00
386.34	28.09
386.53	4.68
386.72	23.41
386.92	39.79
387.11	9.36
387.31	77.24
387.50	7.02
387.70	65.54
387.89	0.00
388.09	60.85
388.28	0.00
388.48	7.02
388.67	77.24
388.86	0.00
389.06	0.00
389.25	42.13
389.45	16.38
389.64	0.00
389.84	0.00
390.03	28.09
390.22	58.51
390.42	39.79
390.61	56.17
390.81	60.85
391.00	39.79
391.19	51.49
391.39	7.02
391.58	0.00
391.78	51.49
391.97	58.51
392.16	60.85
392.36	4.68
392.55	25.75
392.75	21.06
392.94	21.06
393.13	77.24
393.33	72.56
393.52	16.38
393.71	0.00
393.91	58.51
394.10	14.04
394.29	0.00
394.49	0.00
394.68	28.09
394.88	93.62
395.07	42.13
395.26	4.68
395.46	88.94
395.65	0.00
395.84	0.00
396.04	11.70
396.23	2.34
396.42	0.00
396.62	0.00
396.81	93.62
397.00	7.02
397.19	25.75
397.39	0.00
397.58	95.96
397.77	25.75
397.97	16.38
398.16	84.26
398.35	28.09
398.55	0.00
398.74	18.72
398.93	0.00
399.12	32.77
399.32	53.83
399.51	0.00
399.70	4.68
399.90	18.72
400.09	14.04
400.28	70.22
400.47	25.75
400.67	0.00
400.86	11.70
401.05	14.04
401.24	28.09
401.44	14.04
401.63	0.00
401.82	21.06
402.01	9.36
402.21	95.96
402.40	46.81
402.59	0.00
402.78	0.00
402.97	25.75
403.17	72.56
403.36	60.85
403.55	0.00
403.74	16.38
403.93	30.43
404.13	18.72
404.32	72.56
404.51	44.47
404.70	32.77
404.89	46.81
405.09	0.00
405.28	35.11
405.47	74.90
405.66	9.36
405.85	0.00
406.05	39.79
406.24	46.81
406.43	9.36
406.62	28.09
406.81	100.64
407.00	0.00
407.20	53.83
407.39	18.72
407.58	42.13
407.77	0.00
407.96	58.51
408.15	18.72
408.34	56.17
408.54	0.00
408.73	81.92
408.92	25.75
409.11	16.38
409.30	42.13
409.49	39.79
409.68	42.13
409.87	0.00
410.07	23.41
410.26	79.58
410.45	7.02
410.64	0.00
410.83	39.79
411.02	21.06
411.21	16.38
411.40	37.45
411.59	70.22
411.78	0.00
411.98	65.54
412.17	0.00
412.36	0.00
412.55	39.79
412.74	21.06
412.93	30.43
413.12	42.13
413.31	84.26
413.50	58.51
413.69	60.85
413.88	60.85
414.07	46.81
414.26	16.38
414.45	30.43
414.64	0.00
414.83	0.00
415.02	0.00
415.22	44.47
415.41	51.49
415.60	42.13
415.79	49.15
415.98	0.00
416.17	70.22
416.36	0.00
416.55	21.06
416.74	14.04
416.93	35.11
417.12	56.17
417.31	91.28
417.50	58.51
417.69	95.96
417.88	98.30
418.07	49.15
418.26	56.17
418.45	84.26
418.64	7.02
418.83	18.72
419.02	91.28
419.21	77.24
419.39	25.75
419.58	42.13
419.77	9.36
419.96	0.00
420.15	88.94
420.34	53.83
420.53	0.00
420.72	117.03
420.91	42.13
421.10	0.00
421.29	0.00
421.48	0.00
421.67	0.00
421.86	0.00
422.05	42.13
422.24	60.85
422.43	11.70
422.61	49.15
422.80	79.58
422.99	100.64
423.18	7.02
423.37	0.00
423.56	35.11
423.75	72.56
423.94	21.06
424.13	0.00
424.32	70.22
424.50	4.68
424.69	49.15
424.88	44.47
425.07	30.43
425.26	84.26
425.45	67.88
425.64	70.22
425.83	46.81
426.01	25.75
426.20	67.88
426.39	30.43
426.58	30.43
426.77	32.77
426.96	0.00
427.15	51.49
427.33	35.11
427.52	18.72
427.71	65.54
427.90	28.09
428.09	14.04
428.28	32.77
428.46	32.77
428.65	0.00
428.84	0.00
429.03	4.68
429.22	16.38
429.40	0.00
429.59	7.02
429.78	0.00
429.97	7.02
430.16	0.00
430.34	0.00
430.53	0.00
430.72	67.88
430.91	25.75
431.10	9.36
431.28	0.00
431.47	0.00
431.66	53.83
431.85	72.56
432.03	0.00
432.22	0.00
432.41	63.19
432.60	11.70
432.79	67.88
432.97	18.72
433.16	18.72
433.35	2.34
433.54	84.26
433.72	9.36
433.91	39.79
434.10	18.72
434.28	0.00
434.47	42.13
434.66	0.00
434.85	9.36
435.03	42.13
435.22	0.00
435.41	44.47
435.59	53.83
435.78	0.00
435.97	58.51
436.16	74.90
436.34	37.45
436.53	0.00
436.72	0.00
436.90	93.62
437.09	49.15
437.28	46.81
437.46	65.54
437.65	0.00
437.84	51.49
438.02	0.00
438.21	23.41
438.40	11.70
438.58	0.00
438.77	18.72
438.96	18.72
439.14	51.49
439.33	30.43
439.52	16.38
439.70	58.51
439.89	7.02
440.08	11.70
440.26	56.17
440.45	30.43
440.63	77.24
440.82	86.60
441.01	79.58
441.19	44.47
441.38	0.00
441.57	0.00
441.75	0.00
441.94	35.11
442.12	0.00
442.31	16.38
442.50	18.72
442.68	53.83
442.87	81.92
443.05	70.22
443.24	86.60
443.43	16.38
443.61	32.77
443.80	0.00
443.98	23.41
444.17	32.77
444.35	7.02
444.54	84.26
444.73	0.00
444.91	46.81
445.10	21.06
445.28	35.11
445.47	0.00
445.65	35.11
445.84	16.38
446.02	51.49
446.21	93.62
446.39	91.28
446.58	23.41
446.77	65.54
446.95	53.83
447.14	0.00
447.32	18.72
447.51	79.58
447.69	14.04
447.88	67.88
448.06	23.41
448.25	46.81
448.43	0.00
448.62	121.71
448.80	4.68
448.99	74.90
449.17	70.22
449.36	16.38
449.54	7.02
449.73	28.09
449.91	60.85
450.10	21.06
450.28	0.00
450.46	11.70
450.65	0.00
450.83	9.36
451.02	11.70
451.20	67.88
451.39	25.75
451.57	63.19
451.76	56.17
451.94	58.51
452.13	28.09
452.31	63.19
452.49	23.41
452.68	74.90
452.86	44.47
453.05	95.96
453.23	4.68
453.42	81.92
453.60	49.15
453.78	63.19
453.97	107.66
454.15	63.19
454.34	30.43
454.52	35.11
454.70	39.79
454.89	65.54
455.07	32.77
455.26	63.19
455.44	0.00
455.62	21.06
455.81	46.81
455.99	70.22
456.17	0.00
456.36	56.17
456.54	37.45
456.73	0.00
456.91	14.04
457.09	2.34
457.28	37.45
457.46	2.34
457.64	0.00
457.83	16.38
458.01	0.00
458.19	0.00
458.38	39.79
458.56	67.88
458.74	0.00
458.93	0.00
459.11	86.60
459.29	0.00
459.48	21.06
459.66	0.00
459.84	72.56
460.03	18.72
460.21	28.09
460.39	0.00
460.57	58.51
460.76	0.00
460.94	0.00
461.12	35.11
461.31	60.85
461.49	4.68
461.67	65.54
461.85	0.00
462.04	14.04
462.22	95.96
462.40	60.85
462.59	70.22
462.77	58.51
462.95	39.79
463.13	77.24
463.32	2.34
463.50	0.00
463.68	39.79
463.86	30.43
464.05	0.00
464.23	95.96
464.41	86.60
464.59	39.79
464.78	23.41
464.96	4.68
465.14	88.94
465.32	60.85
465.50	2.34
465.69	21.06
465.87	0.00
466.05	2.34
466.23	74.90
466.41	0.00
466.60	39.79
466.78	49.15
466.96	51.49
467.14	42.13
467.32	35.11
467.51	4.68
467.69	0.00
467.87	112.35
468.05	0.00
468.23	23.41
468.41	42.13
468.60	9.36
468.78	42.13
468.96	11.70
469.14	0.00
469.32	35.11
469.50	35.11
469.69	72.56
469.87	9.36
470.05	30.43
470.23	21.06
470.41	53.83
470.59	35.11
470.77	0.00
470.95	51.49
471.14	37.45
471.32	77.24
471.50	46.81
471.68	56.17
471.86	98.30
472.04	58.51
472.22	0.00
472.40	28.09
472.58	18.72
472.77	16.38
472.95	0.00
473.13	37.45
473.31	11.70
473.49	70.22
473.67	21.06
473.85	0.00
474.03	58.51
474.21	7.02
474.39	28.09
474.57	2.34
474.75	102.98
474.93	0.00
475.12	9.36
475.30	44.47
475.48	49.15
475.66	28.09
475.84	74.90
476.02	0.00
476.20	35.11
476.38	86.60
476.56	95.96
476.74	9.36
476.92	95.96
477.10	63.19
477.28	0.00
477.46	0.00
477.64	0.00
477.82	0.00
478.00	42.13
478.18	7.02
478.36	60.85
478.54	30.43
478.72	56.17
478.90	44.47
479.08	81.92
479.26	2.34
479.44	63.19
479.62	37.45
479.80	18.72
479.98	95.96
480.16	21.06
480.34	30.43
480.52	7.02
480.70	9.36
480.88	0.00
481.06	28.09
481.24	0.00
481.41	32.77
481.59	0.00
481.77	9.36
481.95	53.83
482.13	46.81
482.31	39.79
482.49	44.47
482.67	14.04
482.85	65.54
483.03	46.81
483.21	0.00
483.39	77.24
483.57	93.62
483.74	39.79
483.92	0.00
484.10	56.17
484.28	53.83
484.46	46.81
484.64	11.70
484.82	0.00
485.00	0.00
485.18	42.13
485.35	102.98
485.53	7.02
485.71	16.38
485.89	0.00
486.07	46.81
486.25	51.49
486.43	147.45
486.61	81.92
486.78	32.77
486.96	58.51
487.14	0.00
487.32	7.02
487.50	32.77
487.68	23.41
487.85	49.15
488.03	14.04
488.21	11.70
488.39	42.13
488.57	30.43
488.75	0.00
488.92	32.77
489.10	11.70
489.28	32.77
489.46	30.43
489.64	86.60
489.81	53.83
489.99	0.00
490.17	9.36
490.35	65.54
490.53	107.66
490.70	58.51
490.88	60.85
491.06	32.77
491.24	0.00
491.41	0.00
491.59	0.00
491.77	42.13
491.95	44.47
492.13	14.04
492.30	25.75
492.48	95.96
492.66	88.94
492.84	11.70
493.01	11.70
493.19	30.43
493.37	58.51
493.54	0.00
493.72	77.24
493.90	77.24
494.08	65.54
494.25	84.26
494.43	37.45
494.61	44.47
494.79	21.06
494.96	91.28
495.14	37.45
495.32	0.00
495.49	0.00
495.67	0.00
495.85	0.00
496.02	74.90
496.20	93.62
496.38	37.45
496.55	28.09
496.73	37.45
496.91	67.88
497.09	9.36
497.26	63.19
497.44	0.00
497.62	30.43
497.79	28.09
497.97	65.54
498.14	51.49
498.32	14.04
498.50	0.00
498.67	23.41
498.85	0.00
499.03	42.13
499.20	35.11
499.38	4.68
499.56	18.72
499.73	0.00
499.91	81.92
500.08	0.00
500.26	42.13
500.44	42.13
500.61	25.75
500.79	32.77
500.97	9.36
501.14	98.30
501.32	23.41
501.49	25.75
501.67	0.00
501.84	0.00
502.02	28.09
502.20	21.06
502.37	37.45
502.55	28.09
502.72	0.00
502.90	100.64
503.07	0.00
503.25	63.19
503.43	18.72
503.60	53.83
503.78	32.77
503.95	65.54
504.13	53.83
504.30	39.79
504.48	32.77
504.65	126.39
504.83	77.24
505.01	37.45
505.18	72.56
505.36	58.51
505.53	0.00
505.71	11.70
505.88	117.03
506.06	4.68
506.23	49.15
506.41	81.92
506.58	0.00
506.76	28.09
506.93	18.72
507.11	0.00
507.28	21.06
507.46	42.13
507.63	21.06
507.81	25.75
507.98	30.43
508.16	112.35
508.33	51.49
508.50	7.02
508.68	23.41
508.85	0.00
509.03	14.04
509.20	4.68
509.38	0.00
509.55	88.94
509.73	39.79
509.90	56.17
510.08	42.13
510.25	18.72
510.42	51.49
510.60	46.81
510.77	98.30
510.95	2.34
511.12	49.15
511.30	72.56
511.47	119.37
511.64	4.68
511.82	0.00
511.99	91.28
512.17	18.72
512.34	110.01
512.51	0.00
512.69	67.88
512.86	39.79
513.04	21.06
513.21	67.88
513.38	35.11
513.56	0.00
513.73	44.47
513.90	51.49
514.08	51.49
514.25	37.45
514.43	79.58
514.60	126.39
514.77	39.79
514.95	67.88
515.12	88.94
515.29	100.64
515.47	16.38
515.64	86.60
515.81	37.45
515.99	0.00
516.16	42.13
516.33	56.17
516.51	42.13
516.68	58.51
516.85	25.75
517.03	58.51
517.20	49.15
517.37	42.13
517.54	81.92
517.72	44.47
517.89	86.60
518.06	0.00
518.24	25.75
518.41	95.96
518.58	42.13
518.75	18.72
518.93	0.00
519.10	79.58
519.27	74.90
519.45	0.00
519.62	21.06
519.79	0.00
519.96	0.00
520.14	42.13
520.31	32.77
520.48	102.98
520.65	11.70
520.83	121.71
521.00	46.81
521.17	49.15
521.34	67.88
521.52	49.15
521.69	86.60
521.86	81.92
522.03	173.20
522.20	84.26
522.38	14.04
522.55	67.88
522.72	44.47
522.89	51.49
523.07	49.15
523.24	39.79
523.41	49.15
523.58	51.49
523.75	35.11
523.92	98.30
524.10	30.43
524.27	0.00
524.44	0.00
524.61	91.28
524.78	56.17
524.96	93.62
525.13	60.85
525.30	7.02
525.47	42.13
525.64	124.05
525.81	0.00
525.98	23.41
526.16	18.72
526.33	58.51
526.50	67.88
526.67	51.49
526.84	79.58
527.01	49.15
527.18	32.77
527.36	74.90
527.53	44.47
527.70	126.39
527.87	9.36
528.04	32.77
528.21	51.49
528.38	60.85
528.55	0.00
528.72	0.00
528.89	46.81
529.07	77.24
529.24	42.13
529.41	14.04
529.58	63.19
529.75	0.00
529.92	30.43
530.09	0.00
530.26	65.54
530.43	42.13
530.60	56.17
530.77	58.51
530.94	58.51
531.11	63.19
531.28	7.02
531.46	107.66
531.63	14.04
531.80	39.79
531.97	21.06
532.14	77.24
532.31	91.28
532.48	16.38
532.65	53.83
532.82	63.19
532.99	63.19
533.16	53.83
533.33	53.83
533.50	58.51
533.67	84.26
533.84	0.00
534.01	9.36
534.18	0.00
534.35	0.00
534.52	49.15
534.69	53.83
534.86	0.00
535.03	72.56
535.20	0.00
535.37	37.45
535.54	44.47
535.71	18.72
535.88	65.54
536.05	0.00
536.22	7.02
536.38	28.09
536.55	77.24
536.72	72.56
536.89	56.17
537.06	0.00
537.23	39.79
537.40	56.17
537.57	70.22
537.74	0.00
537.91	51.49
538.08	37.45
538.25	44.47
538.42	58.51
538.59	81.92
538.75	63.19
538.92	35.11
539.09	72.56
539.26	18.72
539.43	49.15
539.60	159.16
539.77	285.55
539.94	266.82
540.11	102.98
540.28	110.01
540.44	135.75
540.61	65.54
540.78	58.51
540.95	56.17
541.12	0.00
541.29	60.85
541.46	67.88
541.62	67.88
541.79	51.49
541.96	84.26
542.13	51.49
542.30	30.43
542.47	0.00
542.63	65.54
542.80	0.00
542.97	9.36
543.14	14.04
543.31	114.69
543.48	0.00
543.64	58.51
543.81	23.41
543.98	0.00
544.15	0.00
544.32	77.24
544.48	53.83
544.65	112.35
544.82	65.54
544.99	44.47
545.16	14.04
545.32	21.06
545.49	58.51
545.66	49.15
545.83	23.41
546.00	65.54
546.16	46.81
546.33	0.00
546.50	37.45
546.67	65.54
546.83	67.88
547.00	105.32
547.17	65.54
547.34	4.68
547.50	18.72
547.67	72.56
547.84	0.00
548.00	56.17
548.17	0.00
548.34	63.19
548.51	0.00
548.67	79.58
548.84	0.00
549.01	0.00
549.18	16.38
549.34	0.00
549.51	56.17
549.68	0.00
549.84	98.30
550.01	28.09
550.18	67.88
550.34	107.66
550.51	30.43
550.68	53.83
550.84	28.09
551.01	53.83
551.18	79.58
551.34	63.19
551.51	0.00
551.68	105.32
551.84	23.41
552.01	56.17
552.18	44.47
552.34	67.88
552.51	35.11
552.68	42.13
552.84	124.05
553.01	0.00
553.18	30.43
553.34	70.22
553.51	32.77
553.67	0.00
553.84	37.45
554.01	35.11
554.17	16.38
554.34	32.77
554.51	18.72
554.67	0.00
554.84	35.11
555.00	0.00
555.17	14.04
555.33	124.05
555.50	72.56
555.67	0.00
555.83	42.13
556.00	37.45
556.16	18.72
556.33	37.45
556.50	67.88
556.66	14.04
556.83	95.96
556.99	0.00
557.16	84.26
557.32	44.47
557.49	70.22
557.65	51.49
557.82	46.81
557.98	56.17
558.15	37.45
558.32	56.17
558.48	9.36
558.65	23.41
558.81	0.00
558.98	67.88
559.14	60.85
559.31	4.68
559.47	138.09
559.64	0.00
559.80	39.79
559.97	0.00
560.13	39.79
560.30	67.88
560.46	49.15
560.63	105.32
560.79	0.00
560.96	121.71
561.12	65.54
561.29	16.38
561.45	30.43
561.61	46.81
561.78	79.58
561.94	14.04
562.11	44.47
562.27	72.56
562.44	0.00
562.60	74.90
562.77	42.13
562.93	39.79
563.10	39.79
563.26	16.38
563.42	88.94
563.59	14.04
563.75	79.58
563.92	49.15
564.08	4.68
564.24	18.72
564.41	0.00
564.57	39.79
564.74	7.02
564.90	53.83
565.07	70.22
565.23	9.36
565.39	63.19
565.56	58.51
565.72	88.94
565.88	23.41
566.05	0.00
566.21	100.64
566.38	119.37
566.54	65.54
566.70	14.04
566.87	42.13
567.03	28.09
567.19	18.72
567.36	0.00
567.52	4.68
567.68	0.00
567.85	117.03
568.01	46.81
568.17	98.30
568.34	63.19
568.50	81.92
568.66	67.88
568.83	51.49
568.99	2.34
569.15	0.00
569.32	56.17
569.48	58.51
569.64	7.02
569.81	88.94
569.97	39.79
570.13	0.00
570.30	0.00
570.46	0.00
570.62	53.83
570.78	72.56
570.95	0.00
571.11	0.00
571.27	42.13
571.43	18.72
571.60	70.22
571.76	21.06
571.92	114.69
572.09	4.68
572.25	44.47
572.41	67.88
572.57	37.45
572.74	0.00
572.90	30.43
573.06	39.79
573.22	0.00
573.38	60.85
573.55	79.58
573.71	49.15
573.87	39.79
574.03	14.04
574.20	49.15
574.36	9.36
574.52	46.81
574.68	42.13
574.84	88.94
575.01	49.15
575.17	117.03
575.33	11.70
575.49	58.51
575.65	53.83
575.82	117.03
575.98	44.47
576.14	152.13
576.30	93.62
576.46	67.88
576.62	53.83
576.79	70.22
576.95	56.17
577.11	102.98
577.27	51.49
577.43	30.43
577.59	46.81
577.75	91.28
577.92	58.51
578.08	0.00
578.24	46.81
578.40	77.24
578.56	145.11
578.72	46.81
578.88	65.54
579.04	44.47
579.21	95.96
579.37	77.24
579.53	72.56
579.69	53.83
579.85	0.00
580.01	149.79
580.17	25.75
580.33	107.66
580.49	81.92
580.65	93.62
580.82	110.01
580.98	142.77
581.14	95.96
581.30	0.00
581.46	77.24
581.62	37.45
581.78	173.20
581.94	93.62
582.10	107.66
582.26	91.28
582.42	117.03
582.58	121.71
582.74	86.60
582.90	42.13
583.06	74.90
583.22	93.62
583.38	98.30
583.54	175.54
583.70	124.05
583.86	91.28
584.02	145.11
584.18	112.35
584.34	187.24
584.50	596.84
584.66	4442.34
584.82	11428.84
584.98	17514.23
585.14	15672.23
585.30	9736.63
585.46	5818.57
585.62	3485.06
585.78	1732.00
585.94	643.65
586.10	402.57
586.26	196.60
586.42	107.66
586.58	119.37
586.74	128.73
586.90	67.88
587.06	145.11
587.22	126.39
587.38	102.98
587.54	280.86
587.70	692.80
587.86	1191.33
588.02	1270.91
588.18	924.51
588.34	564.07
588.49	355.76
588.65	205.97
588.81	35.11
588.97	53.83
589.13	72.56
589.29	18.72
589.45	58.51
589.61	65.54
589.77	65.54
589.93	56.17
590.08	98.30
590.24	112.35
590.40	56.17
590.56	100.64
590.72	91.28
590.88	58.51
591.04	63.19
591.20	58.51
591.35	46.81
591.51	65.54
591.67	28.09
591.83	42.13
591.99	86.60
592.15	51.49
592.31	0.00
592.46	37.45
592.62	74.90
592.78	23.41
592.94	74.90
593.10	14.04
593.26	63.19
593.41	25.75
593.57	79.58
593.73	128.73
593.89	592.16
594.05	1439.43
594.20	2312.45
594.36	2038.61
594.52	1441.77
594.68	912.81
594.84	540.66
594.99	344.06
595.15	180.22
595.31	112.35
595.47	0.00
595.62	58.51
595.78	128.73
595.94	105.32
596.10	67.88
596.25	98.30
596.41	81.92
596.57	119.37
596.73	0.00
596.88	177.88
597.04	283.20
597.20	543.00
597.36	531.30
597.51	416.62
597.67	257.46
597.83	210.65
597.99	121.71
598.14	124.05
598.30	98.30
598.46	63.19
598.61	128.73
598.77	70.22
598.93	11.70
599.09	133.41
599.24	23.41
599.40	49.15
599.56	16.38
599.71	93.62
599.87	0.00
600.03	60.85
600.18	60.85
600.34	46.81
600.50	4.68
600.65	67.88
600.81	18.72
600.97	74.90
601.12	11.70
601.28	46.81
601.44	11.70
601.59	35.11
601.75	93.62
601.91	0.00
602.06	39.79
602.22	11.70
602.37	145.11
602.53	362.78
602.69	573.43
602.84	557.05
603.00	482.15
603.16	372.15
603.31	128.73
603.47	191.92
603.62	112.35
603.78	0.00
603.94	39.79
604.09	58.51
604.25	91.28
604.40	95.96
604.56	32.77
604.71	98.30
604.87	72.56
605.03	86.60
605.18	4.68
605.34	67.88
605.49	74.90
605.65	4.68
605.80	51.49
605.96	4.68
606.12	35.11
606.27	2.34
606.43	60.85
606.58	23.41
606.74	177.88
606.89	683.44
607.05	1378.58
607.20	1886.47
607.36	1462.83
607.51	1144.52
607.67	638.97
607.82	344.06
607.98	273.84
608.13	110.01
608.29	25.75
608.44	133.41
608.60	121.71
608.75	98.30
608.91	210.65
609.06	1050.90
609.22	2293.72
609.37	3166.74
609.53	2813.32
609.68	1879.45
609.84	1226.44
609.99	844.93
610.15	493.85
610.30	229.37
610.46	105.32
610.61	124.05
610.76	117.03
610.92	100.64
611.07	105.32
611.23	86.60
611.38	93.62
611.54	105.32
611.69	91.28
611.84	72.56
612.00	102.98
612.15	60.85
612.31	117.03
612.46	161.50
612.62	161.50
612.77	56.17
612.92	67.88
613.08	117.03
613.23	180.22
613.39	128.73
613.54	145.11
613.69	952.60
613.85	2775.88
614.00	4734.90
614.15	5125.77
614.31	3555.27
614.46	2382.67
614.62	1521.35
614.77	936.21
614.92	444.70
615.08	175.54
615.23	133.41
615.38	163.84
615.54	49.15
615.69	231.71
615.84	587.47
616.00	1057.92
616.15	1320.06
616.30	1118.78
616.46	746.63
616.61	589.82
616.76	264.48
616.92	173.20
617.07	121.71
617.22	39.79
617.37	42.13
617.53	49.15
617.68	11.70
617.83	42.13
617.99	21.06
618.14	42.13
618.29	39.79
618.45	9.36
618.60	79.58
618.75	23.41
618.90	63.19
619.06	74.90
619.21	9.36
619.36	21.06
619.51	86.60
619.67	49.15
619.82	14.04
619.97	35.11
620.12	39.79
620.28	74.90
620.43	79.58
620.58	0.00
620.73	110.01
620.89	58.51
621.04	67.88
621.19	266.82
621.34	587.47
621.49	830.89
621.65	610.88
621.80	486.83
621.95	313.63
622.10	238.73
622.25	168.52
622.41	121.71
622.56	107.66
622.71	37.45
622.86	42.13
623.01	21.06
623.16	0.00
623.32	107.66
623.47	133.41
623.62	23.41
623.77	32.77
623.92	46.81
624.07	65.54
624.23	93.62
624.38	32.77
624.53	131.07
624.68	77.24
624.83	44.47
624.98	42.13
625.13	32.77
625.29	88.94
625.44	81.92
625.59	23.41
625.74	91.28
625.89	126.39
626.04	498.53
626.19	1373.89
626.34	2373.30
626.49	2663.53
626.65	1898.17
626.80	1387.94
626.95	915.15
627.10	535.98
627.25	278.52
627.40	131.07
627.55	86.60
627.70	154.48
627.85	32.77
628.00	39.79
628.15	37.45
628.30	42.13
628.45	37.45
628.60	30.43
628.76	32.77
628.91	35.11
629.06	0.00
629.21	72.56
629.36	93.62
629.51	9.36
629.66	23.41
629.81	100.64
629.96	273.84
630.11	512.58
630.26	671.73
630.41	641.31
630.56	461.09
630.71	290.23
630.86	222.35
631.01	182.56
631.16	81.92
631.31	102.98
631.46	65.54
631.61	42.13
631.76	58.51
631.91	65.54
632.06	9.36
632.21	37.45
632.36	86.60
632.51	46.81
632.66	70.22
632.81	238.73
632.96	713.86
633.10	1399.64
633.25	1767.10
633.40	1441.77
633.55	1046.22
633.70	685.78
633.85	503.22
634.00	297.25
634.15	168.52
634.30	72.56
634.45	65.54
634.60	23.41
634.75	86.60
634.90	81.92
635.05	39.79
635.19	77.24
635.34	49.15
635.49	77.24
635.64	81.92
635.79	35.11
635.94	67.88
636.09	56.17
636.24	58.51
636.39	51.49
636.53	112.35
636.68	91.28
636.83	60.85
636.98	70.22
637.13	95.96
637.28	65.54
637.43	84.26
637.57	100.64
637.72	608.54
637.87	1774.13
638.02	3000.57
638.17	3382.07
638.32	2600.34
638.46	1643.06
638.61	1142.18
638.76	765.36
638.91	358.10
639.06	175.54
639.20	107.66
639.35	203.63
639.50	175.54
639.65	1013.45
639.80	2836.73
639.94	4489.15
640.09	5263.86
640.24	3866.56
640.39	2504.37
640.54	1708.59
640.68	997.07
640.83	531.30
640.98	252.78
641.13	128.73
641.27	149.79
641.42	91.28
641.57	25.75
641.72	91.28
641.86	0.00
642.01	60.85
642.16	9.36
642.31	91.28
642.45	58.51
642.60	23.41
642.75	21.06
642.90	0.00
643.04	2.34
643.19	0.00
643.34	63.19
643.48	49.15
643.63	88.94
643.78	23.41
643.93	65.54
644.07	37.45
644.22	60.85
644.37	42.13
644.51	58.51
644.66	124.05
644.81	30.43
644.95	88.94
645.10	0.00
645.25	0.00
645.39	39.79
645.54	16.38
645.69	44.47
645.83	21.06
645.98	21.06
646.13	4.68
646.27	9.36
646.42	72.56
646.57	9.36
646.71	135.75
646.86	53.83
647.00	98.30
647.15	28.09
647.30	60.85
647.44	0.00
647.59	30.43
647.74	0.00
647.88	58.51
648.03	23.41
648.17	51.49
648.32	25.75
648.47	46.81
648.61	4.68
648.76	0.00
648.90	0.00
649.05	0.00
649.20	51.49
649.34	0.00
649.49	16.38
649.63	25.75
649.78	46.81
649.92	98.30
650.07	355.76
650.21	1193.67
650.36	2169.68
650.51	2647.15
650.65	2214.15
650.80	1516.67
650.94	1118.78
651.09	695.14
651.23	353.42
651.38	203.63
651.52	91.28
651.67	91.28
651.81	0.00
651.96	0.00
652.10	42.13
652.25	35.11
652.39	0.00
652.54	84.26
652.68	229.37
652.83	393.21
652.97	713.86
653.12	938.55
653.26	901.11
653.41	674.07
653.55	402.57
653.70	243.42
653.84	131.07
653.99	84.26
654.13	79.58
654.27	39.79
654.42	37.45
654.56	32.77
654.71	37.45
654.85	18.72
655.00	95.96
655.14	35.11
655.29	49.15
655.43	14.04
655.57	98.30
655.72	23.41
655.86	65.54
656.01	14.04
656.15	30.43
656.30	114.69
656.44	0.00
656.58	39.79
656.73	107.66
656.87	9.36
657.01	0.00
657.16	42.13
657.30	0.00
657.45	25.75
657.59	0.00
657.73	46.81
657.88	39.79
658.02	32.77
658.16	56.17
658.31	91.28
658.45	133.41
658.60	0.00
658.74	105.32
658.88	70.22
659.03	74.90
659.17	98.30
659.31	121.71
659.46	564.07
659.60	966.64
659.74	1423.05
659.89	1268.57
660.03	828.55
660.17	662.37
660.32	400.23
660.46	217.67
660.60	110.01
660.74	53.83
660.89	91.28
661.03	44.47
661.17	114.69
661.32	72.56
661.46	39.79
661.60	51.49
661.74	0.00
661.89	37.45
662.03	14.04
662.17	4.68
662.31	60.85
662.46	0.00
662.60	56.17
662.74	114.69
662.88	100.64
663.03	74.90
663.17	58.51
663.31	107.66
663.45	9.36
663.60	49.15
663.74	14.04
663.88	28.09
664.02	74.90
664.17	0.00
664.31	105.32
664.45	46.81
664.59	58.51
664.73	32.77
664.88	0.00
665.02	39.79
665.16	30.43
665.30	9.36
665.44	51.49
665.59	84.26
665.73	25.75
665.87	67.88
666.01	95.96
666.15	18.72
666.29	91.28
666.44	32.77
666.58	98.30
666.72	65.54
666.86	7.02
667.00	63.19
667.14	88.94
667.28	304.27
667.43	983.02
667.57	1795.19
667.71	2298.41
667.85	2097.12
667.99	1521.35
668.13	938.55
668.27	599.18
668.41	259.80
668.56	138.09
668.70	60.85
668.84	84.26
668.98	58.51
669.12	53.83
669.26	56.17
669.40	56.17
669.54	0.00
669.68	35.11
669.82	93.62
669.96	25.75
670.10	23.41
670.25	44.47
670.39	0.00
670.53	72.56
670.67	42.13
670.81	67.88
670.95	25.75
671.09	51.49
671.23	355.76
671.37	833.23
671.51	1404.32
671.65	1441.77
671.79	1151.54
671.93	835.57
672.07	416.62
672.21	276.18
672.35	117.03
672.49	161.50
672.63	114.69
672.77	88.94
672.91	53.83
673.05	7.02
673.19	16.38
673.33	131.07
673.47	32.77
673.61	74.90
673.75	7.02
673.89	25.75
674.03	63.19
674.17	58.51
674.31	77.24
674.45	112.35
674.59	0.00
674.73	93.62
674.87	18.72
675.01	4.68
675.15	0.00
675.29	30.43
675.43	25.75
675.56	110.01
675.70	21.06
675.84	23.41
675.98	11.70
676.12	16.38
676.26	9.36
676.40	7.02
676.54	37.45
676.68	42.13
676.82	98.30
676.96	7.02
677.10	44.47
677.23	44.47
677.37	51.49
677.51	37.45
677.65	23.41
677.79	63.19
677.93	16.38
678.07	30.43
678.21	30.43
678.34	30.43
678.48	67.88
678.62	114.69
678.76	86.60
678.90	60.85
679.04	0.00
679.18	60.85
679.31	63.19
679.45	11.70
679.59	93.62
679.73	42.13
679.87	0.00
680.00	91.28
680.14	30.43
680.28	77.24
680.42	49.15
680.56	35.11
680.70	65.54
680.83	4.68
680.97	46.81
681.11	28.09
681.25	0.00
681.39	7.02
681.52	0.00
681.66	0.00
681.80	2.34
681.94	14.04
682.07	25.75
682.21	0.00
682.35	39.79
682.49	72.56
682.62	63.19
682.76	74.90
682.90	37.45
683.04	65.54
683.17	39.79
683.31	58.51
683.45	32.77
683.59	56.17
683.72	53.83
683.86	44.47
684.00	0.00
684.13	0.00
684.27	39.79
684.41	0.00
684.55	91.28
684.68	16.38
684.82	25.75
684.96	2.34
685.09	65.54
685.23	51.49
685.37	49.15
685.50	84.26
685.64	91.28
685.78	30.43
685.91	14.04
686.05	79.58
686.19	35.11
686.32	93.62
686.46	39.79
686.60	4.68
686.73	124.05
686.87	60.85
687.01	0.00
687.14	0.00
687.28	30.43
687.42	58.51
687.55	37.45
687.69	30.43
687.82	28.09
687.96	21.06
688.10	30.43
688.23	49.15
688.37	77.24
688.50	44.47
688.64	28.09
688.78	0.00
688.91	35.11
689.05	72.56
689.18	4.68
689.32	60.85
689.46	7.02
689.59	0.00
689.73	0.00
689.86	18.72
690.00	2.34
690.13	86.60
690.27	56.17
690.41	39.79
690.54	79.58
690.68	4.68
690.81	18.72
690.95	81.92
691.08	16.38
691.22	18.72
691.35	14.04
691.49	0.00
691.62	37.45
691.76	84.26
691.89	39.79
692.03	0.00
692.16	60.85
692.30	21.06
692.43	128.73
692.57	404.91
692.70	760.67
692.84	1020.47
692.97	917.49
693.11	746.63
693.24	531.30
693.38	348.74
693.51	191.92
693.65	138.09
693.78	86.60
693.92	84.26
694.05	30.43
694.19	9.36
694.32	0.00
694.45	30.43
694.59	7.02
694.72	18.72
694.86	30.43
694.99	72.56
695.13	56.17
695.26	28.09
695.39	72.56
695.53	25.75
695.66	30.43
695.80	4.68
695.93	35.11
696.07	35.11
696.20	44.47
696.33	28.09
696.47	102.98
696.60	117.03
696.73	84.26
696.87	42.13
697.00	25.75
697.14	70.22
697.27	32.77
697.40	84.26
697.54	0.00
697.67	51.49
697.80	14.04
697.94	35.11
698.07	18.72
698.21	0.00
698.34	65.54
698.47	42.13
698.61	0.00
698.74	0.00
698.87	42.13
699.01	0.00
699.14	74.90
699.27	0.00
699.40	0.00
699.54	0.00
699.67	51.49
699.80	32.77
699.94	0.00
700.07	37.45
700.20	35.11
700.34	53.83
700.47	88.94
700.60	42.13
700.73	0.00
700.87	28.09
701.00	35.11
701.13	77.24
701.26	2.34
701.40	42.13
701.53	44.47
701.66	56.17
701.79	49.15
701.93	37.45
702.06	30.43
702.19	25.75
702.32	51.49
702.46	88.94
702.59	98.30
702.72	138.09
702.85	589.82
702.99	1144.52
703.12	1820.94
703.25	2045.63
703.38	1706.25
703.51	1373.89
703.65	1102.39
703.78	791.10
703.91	552.37
704.04	320.65
704.17	245.76
704.31	145.11
704.44	79.58
704.57	37.45
704.70	16.38
704.83	0.00
704.96	81.92
705.10	46.81
705.23	86.60
>>>>>End Processed Spectral Data<<<<<
