SpectraSuite Data File
++++++++++++++++++++++++++++++++++++
Date: Fri Oct 04 12:13:33 GMT-05:00 2013
User: price-jones
Dark Spectrum Present: No
Reference Spectrum Present: No
Number of Sampled Component Spectra: 1
Spectrometers: USB2+H05261
Integration Time (usec): 10000 (USB2+H05261)
Spectra Averaged: 1 (USB2+H05261)
Boxcar Smoothing: 0 (USB2+H05261)
Correct for Electrical Dark: No (USB2+H05261)
Strobe/Lamp Enabled: No (USB2+H05261)
Correct for Detector Non-linearity: No (USB2+H05261)
Correct for Stray Light: No (USB2+H05261)
Number of Pixels in Processed Spectrum: 2048
>>>>>Begin Processed Spectral Data<<<<<
365.73	0.00
365.92	0.00
366.12	0.00
366.32	0.00
366.52	0.00
366.72	0.00
366.91	0.00
367.11	0.00
367.31	0.00
367.51	0.00
367.70	0.00
367.90	0.00
368.10	0.00
368.30	0.00
368.49	0.00
368.69	0.00
368.89	0.00
369.09	0.00
369.28	0.00
369.48	0.00
369.68	0.00
369.87	0.00
370.07	0.00
370.27	0.00
370.47	0.00
370.66	0.00
370.86	0.00
371.06	0.00
371.25	0.00
371.45	32.77
371.65	0.00
371.84	9.36
372.04	0.00
372.24	0.00
372.44	0.00
372.63	9.36
372.83	0.00
373.03	7.02
373.22	70.22
373.42	58.51
373.62	16.38
373.81	0.00
374.01	23.41
374.21	0.00
374.40	4.68
374.60	77.24
374.79	65.54
374.99	25.75
375.19	60.85
375.38	110.01
375.58	42.13
375.78	0.00
375.97	18.72
376.17	18.72
376.37	39.79
376.56	37.45
376.76	44.47
376.95	39.79
377.15	0.00
377.35	70.22
377.54	30.43
377.74	0.00
377.93	4.68
378.13	53.83
378.33	74.90
378.52	18.72
378.72	0.00
378.91	0.00
379.11	46.81
379.31	14.04
379.50	0.00
379.70	0.00
379.89	23.41
380.09	32.77
380.28	46.81
380.48	51.49
380.68	65.54
380.87	44.47
381.07	51.49
381.26	32.77
381.46	35.11
381.65	72.56
381.85	21.06
382.04	0.00
382.24	53.83
382.43	30.43
382.63	60.85
382.83	58.51
383.02	0.00
383.22	7.02
383.41	0.00
383.61	0.00
383.80	51.49
384.00	56.17
384.19	30.43
384.39	46.81
384.58	0.00
384.78	0.00
384.97	0.00
385.17	0.00
385.36	25.75
385.56	7.02
385.75	72.56
385.95	23.41
386.14	21.06
386.34	42.13
386.53	74.90
386.72	11.70
386.92	32.77
387.11	0.00
387.31	25.75
387.50	18.72
387.70	4.68
387.89	16.38
388.09	0.00
388.28	0.00
388.48	18.72
388.67	0.00
388.86	23.41
389.06	25.75
389.25	39.79
389.45	39.79
389.64	0.00
389.84	23.41
390.03	44.47
390.22	58.51
390.42	16.38
390.61	35.11
390.81	0.00
391.00	18.72
391.19	65.54
391.39	9.36
391.58	51.49
391.78	0.00
391.97	0.00
392.16	51.49
392.36	46.81
392.55	21.06
392.75	39.79
392.94	0.00
393.13	70.22
393.33	0.00
393.52	84.26
393.71	51.49
393.91	0.00
394.10	11.70
394.29	72.56
394.49	44.47
394.68	0.00
394.88	28.09
395.07	65.54
395.26	65.54
395.46	56.17
395.65	84.26
395.84	25.75
396.04	81.92
396.23	7.02
396.42	0.00
396.62	4.68
396.81	63.19
397.00	0.00
397.19	4.68
397.39	0.00
397.58	107.66
397.77	25.75
397.97	67.88
398.16	77.24
398.35	0.00
398.55	2.34
398.74	28.09
398.93	53.83
399.12	14.04
399.32	7.02
399.51	63.19
399.70	37.45
399.90	44.47
400.09	60.85
400.28	4.68
400.47	70.22
400.67	0.00
400.86	7.02
401.05	93.62
401.24	9.36
401.44	65.54
401.63	0.00
401.82	16.38
402.01	35.11
402.21	7.02
402.40	32.77
402.59	0.00
402.78	37.45
402.97	37.45
403.17	35.11
403.36	98.30
403.55	79.58
403.74	0.00
403.93	37.45
404.13	25.75
404.32	70.22
404.51	28.09
404.70	32.77
404.89	74.90
405.09	0.00
405.28	32.77
405.47	0.00
405.66	18.72
405.85	65.54
406.05	0.00
406.24	0.00
406.43	30.43
406.62	18.72
406.81	49.15
407.00	0.00
407.20	49.15
407.39	7.02
407.58	0.00
407.77	42.13
407.96	21.06
408.15	84.26
408.34	0.00
408.54	35.11
408.73	0.00
408.92	37.45
409.11	0.00
409.30	44.47
409.49	0.00
409.68	79.58
409.87	0.00
410.07	49.15
410.26	0.00
410.45	30.43
410.64	32.77
410.83	63.19
411.02	11.70
411.21	51.49
411.40	0.00
411.59	32.77
411.78	51.49
411.98	0.00
412.17	7.02
412.36	0.00
412.55	65.54
412.74	0.00
412.93	30.43
413.12	0.00
413.31	67.88
413.50	0.00
413.69	86.60
413.88	86.60
414.07	28.09
414.26	23.41
414.45	30.43
414.64	79.58
414.83	67.88
415.02	39.79
415.22	74.90
415.41	28.09
415.60	65.54
415.79	7.02
415.98	44.47
416.17	0.00
416.36	0.00
416.55	49.15
416.74	16.38
416.93	72.56
417.12	2.34
417.31	23.41
417.50	39.79
417.69	32.77
417.88	105.32
418.07	32.77
418.26	77.24
418.45	7.02
418.64	21.06
418.83	0.00
419.02	65.54
419.21	30.43
419.39	42.13
419.58	81.92
419.77	81.92
419.96	67.88
420.15	0.00
420.34	9.36
420.53	0.00
420.72	70.22
420.91	11.70
421.10	28.09
421.29	4.68
421.48	51.49
421.67	37.45
421.86	51.49
422.05	65.54
422.24	32.77
422.43	25.75
422.61	91.28
422.80	0.00
422.99	28.09
423.18	110.01
423.37	84.26
423.56	88.94
423.75	60.85
423.94	35.11
424.13	14.04
424.32	0.00
424.50	4.68
424.69	67.88
424.88	63.19
425.07	37.45
425.26	42.13
425.45	0.00
425.64	53.83
425.83	39.79
426.01	42.13
426.20	74.90
426.39	14.04
426.58	4.68
426.77	35.11
426.96	100.64
427.15	0.00
427.33	0.00
427.52	51.49
427.71	2.34
427.90	14.04
428.09	0.00
428.28	0.00
428.46	46.81
428.65	79.58
428.84	102.98
429.03	32.77
429.22	60.85
429.40	0.00
429.59	23.41
429.78	70.22
429.97	4.68
430.16	0.00
430.34	42.13
430.53	0.00
430.72	46.81
430.91	56.17
431.10	0.00
431.28	14.04
431.47	21.06
431.66	0.00
431.85	126.39
432.03	77.24
432.22	49.15
432.41	79.58
432.60	0.00
432.79	42.13
432.97	0.00
433.16	51.49
433.35	56.17
433.54	124.05
433.72	0.00
433.91	16.38
434.10	112.35
434.28	16.38
434.47	32.77
434.66	0.00
434.85	37.45
435.03	70.22
435.22	63.19
435.41	35.11
435.59	11.70
435.78	25.75
435.97	67.88
436.16	16.38
436.34	18.72
436.53	21.06
436.72	37.45
436.90	25.75
437.09	35.11
437.28	65.54
437.46	9.36
437.65	46.81
437.84	84.26
438.02	7.02
438.21	37.45
438.40	58.51
438.58	28.09
438.77	42.13
438.96	49.15
439.14	2.34
439.33	65.54
439.52	91.28
439.70	0.00
439.89	37.45
440.08	18.72
440.26	0.00
440.45	35.11
440.63	25.75
440.82	11.70
441.01	51.49
441.19	67.88
441.38	53.83
441.57	51.49
441.75	11.70
441.94	0.00
442.12	58.51
442.31	21.06
442.50	60.85
442.68	0.00
442.87	65.54
443.05	16.38
443.24	2.34
443.43	37.45
443.61	7.02
443.80	0.00
443.98	18.72
444.17	86.60
444.35	0.00
444.54	0.00
444.73	37.45
444.91	95.96
445.10	18.72
445.28	39.79
445.47	28.09
445.65	9.36
445.84	49.15
446.02	72.56
446.21	77.24
446.39	30.43
446.58	30.43
446.77	0.00
446.95	0.00
447.14	14.04
447.32	56.17
447.51	42.13
447.69	46.81
447.88	46.81
448.06	21.06
448.25	11.70
448.43	95.96
448.62	14.04
448.80	21.06
448.99	65.54
449.17	16.38
449.36	35.11
449.54	49.15
449.73	25.75
449.91	58.51
450.10	16.38
450.28	4.68
450.46	77.24
450.65	23.41
450.83	2.34
451.02	44.47
451.20	16.38
451.39	11.70
451.57	0.00
451.76	16.38
451.94	30.43
452.13	0.00
452.31	0.00
452.49	98.30
452.68	0.00
452.86	102.98
453.05	53.83
453.23	65.54
453.42	2.34
453.60	77.24
453.78	28.09
453.97	30.43
454.15	58.51
454.34	0.00
454.52	18.72
454.70	0.00
454.89	88.94
455.07	0.00
455.26	18.72
455.44	37.45
455.62	28.09
455.81	84.26
455.99	39.79
456.17	74.90
456.36	4.68
456.54	35.11
456.73	0.00
456.91	21.06
457.09	53.83
457.28	126.39
457.46	28.09
457.64	63.19
457.83	0.00
458.01	53.83
458.19	91.28
458.38	21.06
458.56	14.04
458.74	0.00
458.93	2.34
459.11	0.00
459.29	56.17
459.48	56.17
459.66	4.68
459.84	0.00
460.03	58.51
460.21	32.77
460.39	91.28
460.57	51.49
460.76	72.56
460.94	56.17
461.12	60.85
461.31	4.68
461.49	42.13
461.67	25.75
461.85	11.70
462.04	0.00
462.22	74.90
462.40	0.00
462.59	79.58
462.77	91.28
462.95	67.88
463.13	56.17
463.32	63.19
463.50	56.17
463.68	30.43
463.86	4.68
464.05	72.56
464.23	79.58
464.41	21.06
464.59	0.00
464.78	23.41
464.96	2.34
465.14	65.54
465.32	28.09
465.50	37.45
465.69	77.24
465.87	126.39
466.05	128.73
466.23	30.43
466.41	2.34
466.60	0.00
466.78	56.17
466.96	35.11
467.14	0.00
467.32	49.15
467.51	51.49
467.69	42.13
467.87	35.11
468.05	39.79
468.23	65.54
468.41	9.36
468.60	0.00
468.78	23.41
468.96	0.00
469.14	105.32
469.32	51.49
469.50	44.47
469.69	42.13
469.87	63.19
470.05	32.77
470.23	42.13
470.41	44.47
470.59	51.49
470.77	32.77
470.95	0.00
471.14	0.00
471.32	25.75
471.50	4.68
471.68	56.17
471.86	23.41
472.04	0.00
472.22	30.43
472.40	56.17
472.58	2.34
472.77	16.38
472.95	0.00
473.13	0.00
473.31	100.64
473.49	46.81
473.67	30.43
473.85	28.09
474.03	14.04
474.21	95.96
474.39	0.00
474.57	28.09
474.75	23.41
474.93	58.51
475.12	42.13
475.30	84.26
475.48	0.00
475.66	86.60
475.84	110.01
476.02	32.77
476.20	0.00
476.38	32.77
476.56	0.00
476.74	98.30
476.92	98.30
477.10	35.11
477.28	18.72
477.46	58.51
477.64	0.00
477.82	0.00
478.00	126.39
478.18	63.19
478.36	42.13
478.54	0.00
478.72	51.49
478.90	49.15
479.08	0.00
479.26	112.35
479.44	37.45
479.62	100.64
479.80	18.72
479.98	56.17
480.16	0.00
480.34	67.88
480.52	95.96
480.70	60.85
480.88	0.00
481.06	14.04
481.24	0.00
481.41	112.35
481.59	0.00
481.77	28.09
481.95	37.45
482.13	23.41
482.31	11.70
482.49	0.00
482.67	44.47
482.85	56.17
483.03	14.04
483.21	72.56
483.39	0.00
483.57	0.00
483.74	25.75
483.92	23.41
484.10	18.72
484.28	30.43
484.46	58.51
484.64	35.11
484.82	42.13
485.00	110.01
485.18	30.43
485.35	88.94
485.53	30.43
485.71	49.15
485.89	81.92
486.07	21.06
486.25	65.54
486.43	138.09
486.61	42.13
486.78	51.49
486.96	16.38
487.14	4.68
487.32	72.56
487.50	0.00
487.68	84.26
487.85	44.47
488.03	0.00
488.21	100.64
488.39	112.35
488.57	95.96
488.75	51.49
488.92	21.06
489.10	70.22
489.28	0.00
489.46	0.00
489.64	39.79
489.81	32.77
489.99	70.22
490.17	18.72
490.35	9.36
490.53	49.15
490.70	0.00
490.88	2.34
491.06	11.70
491.24	67.88
491.41	63.19
491.59	49.15
491.77	42.13
491.95	21.06
492.13	37.45
492.30	21.06
492.48	46.81
492.66	105.32
492.84	53.83
493.01	74.90
493.19	0.00
493.37	81.92
493.54	28.09
493.72	65.54
493.90	0.00
494.08	105.32
494.25	14.04
494.43	37.45
494.61	0.00
494.79	32.77
494.96	42.13
495.14	21.06
495.32	93.62
495.49	70.22
495.67	93.62
495.85	49.15
496.02	23.41
496.20	39.79
496.38	0.00
496.55	0.00
496.73	124.05
496.91	70.22
497.09	60.85
497.26	0.00
497.44	79.58
497.62	56.17
497.79	28.09
497.97	51.49
498.14	0.00
498.32	79.58
498.50	0.00
498.67	74.90
498.85	30.43
499.03	0.00
499.20	49.15
499.38	2.34
499.56	74.90
499.73	74.90
499.91	0.00
500.08	74.90
500.26	35.11
500.44	0.00
500.61	25.75
500.79	25.75
500.97	39.79
501.14	9.36
501.32	72.56
501.49	9.36
501.67	28.09
501.84	0.00
502.02	56.17
502.20	63.19
502.37	42.13
502.55	35.11
502.72	74.90
502.90	117.03
503.07	51.49
503.25	53.83
503.43	44.47
503.60	86.60
503.78	91.28
503.95	30.43
504.13	23.41
504.30	86.60
504.48	46.81
504.65	30.43
504.83	72.56
505.01	72.56
505.18	4.68
505.36	84.26
505.53	35.11
505.71	65.54
505.88	126.39
506.06	30.43
506.23	93.62
506.41	51.49
506.58	56.17
506.76	56.17
506.93	16.38
507.11	18.72
507.28	84.26
507.46	30.43
507.63	35.11
507.81	21.06
507.98	67.88
508.16	42.13
508.33	88.94
508.50	14.04
508.68	77.24
508.85	42.13
509.03	44.47
509.20	110.01
509.38	46.81
509.55	32.77
509.73	9.36
509.90	0.00
510.08	65.54
510.25	56.17
510.42	81.92
510.60	46.81
510.77	51.49
510.95	32.77
511.12	100.64
511.30	81.92
511.47	102.98
511.64	25.75
511.82	95.96
511.99	42.13
512.17	70.22
512.34	58.51
512.51	117.03
512.69	0.00
512.86	39.79
513.04	14.04
513.21	37.45
513.38	28.09
513.56	0.00
513.73	23.41
513.90	25.75
514.08	39.79
514.25	42.13
514.43	37.45
514.60	58.51
514.77	44.47
514.95	42.13
515.12	60.85
515.29	65.54
515.47	49.15
515.64	77.24
515.81	30.43
515.99	25.75
516.16	88.94
516.33	117.03
516.51	23.41
516.68	49.15
516.85	0.00
517.03	25.75
517.20	44.47
517.37	0.00
517.54	23.41
517.72	42.13
517.89	44.47
518.06	32.77
518.24	0.00
518.41	56.17
518.58	32.77
518.75	30.43
518.93	0.00
519.10	23.41
519.27	28.09
519.45	16.38
519.62	16.38
519.79	14.04
519.96	102.98
520.14	42.13
520.31	86.60
520.48	0.00
520.65	0.00
520.83	32.77
521.00	58.51
521.17	21.06
521.34	58.51
521.52	67.88
521.69	58.51
521.86	32.77
522.03	53.83
522.20	86.60
522.38	49.15
522.55	51.49
522.72	51.49
522.89	0.00
523.07	32.77
523.24	67.88
523.41	58.51
523.58	28.09
523.75	58.51
523.92	23.41
524.10	30.43
524.27	81.92
524.44	81.92
524.61	114.69
524.78	32.77
524.96	42.13
525.13	16.38
525.30	28.09
525.47	72.56
525.64	0.00
525.81	79.58
525.98	95.96
526.16	0.00
526.33	30.43
526.50	112.35
526.67	79.58
526.84	37.45
527.01	0.00
527.18	51.49
527.36	42.13
527.53	35.11
527.70	84.26
527.87	98.30
528.04	91.28
528.21	42.13
528.38	0.00
528.55	0.00
528.72	56.17
528.89	23.41
529.07	79.58
529.24	16.38
529.41	35.11
529.58	65.54
529.75	63.19
529.92	32.77
530.09	60.85
530.26	25.75
530.43	88.94
530.60	39.79
530.77	49.15
530.94	72.56
531.11	63.19
531.28	81.92
531.46	60.85
531.63	72.56
531.80	56.17
531.97	72.56
532.14	53.83
532.31	46.81
532.48	0.00
532.65	21.06
532.82	30.43
532.99	25.75
533.16	30.43
533.33	16.38
533.50	51.49
533.67	93.62
533.84	58.51
534.01	105.32
534.18	53.83
534.35	93.62
534.52	63.19
534.69	2.34
534.86	63.19
535.03	60.85
535.20	14.04
535.37	51.49
535.54	39.79
535.71	77.24
535.88	124.05
536.05	49.15
536.22	30.43
536.38	51.49
536.55	16.38
536.72	107.66
536.89	16.38
537.06	44.47
537.23	67.88
537.40	70.22
537.57	28.09
537.74	77.24
537.91	79.58
538.08	95.96
538.25	86.60
538.42	142.77
538.59	18.72
538.75	93.62
538.92	114.69
539.09	63.19
539.26	63.19
539.43	21.06
539.60	88.94
539.77	0.00
539.94	58.51
540.11	46.81
540.28	77.24
540.44	86.60
540.61	25.75
540.78	39.79
540.95	37.45
541.12	67.88
541.29	4.68
541.46	35.11
541.62	110.01
541.79	39.79
541.96	0.00
542.13	37.45
542.30	0.00
542.47	70.22
542.63	35.11
542.80	0.00
542.97	65.54
543.14	0.00
543.31	49.15
543.48	74.90
543.64	126.39
543.81	9.36
543.98	18.72
544.15	53.83
544.32	32.77
544.48	72.56
544.65	7.02
544.82	16.38
544.99	0.00
545.16	58.51
545.32	72.56
545.49	30.43
545.66	0.00
545.83	91.28
546.00	74.90
546.16	51.49
546.33	39.79
546.50	39.79
546.67	39.79
546.83	42.13
547.00	53.83
547.17	7.02
547.34	100.64
547.50	56.17
547.67	30.43
547.84	0.00
548.00	23.41
548.17	2.34
548.34	51.49
548.51	2.34
548.67	72.56
548.84	11.70
549.01	51.49
549.18	32.77
549.34	67.88
549.51	91.28
549.68	58.51
549.84	131.07
550.01	112.35
550.18	35.11
550.34	98.30
550.51	42.13
550.68	35.11
550.84	11.70
551.01	81.92
551.18	72.56
551.34	88.94
551.51	67.88
551.68	32.77
551.84	32.77
552.01	51.49
552.18	0.00
552.34	135.75
552.51	91.28
552.68	63.19
552.84	65.54
553.01	53.83
553.18	65.54
553.34	72.56
553.51	18.72
553.67	4.68
553.84	21.06
554.01	70.22
554.17	37.45
554.34	72.56
554.51	86.60
554.67	37.45
554.84	0.00
555.00	23.41
555.17	84.26
555.33	21.06
555.50	70.22
555.67	4.68
555.83	35.11
556.00	86.60
556.16	44.47
556.33	70.22
556.50	0.00
556.66	23.41
556.83	98.30
556.99	81.92
557.16	0.00
557.32	98.30
557.49	51.49
557.65	86.60
557.82	35.11
557.98	88.94
558.15	138.09
558.32	58.51
558.48	138.09
558.65	11.70
558.81	49.15
558.98	37.45
559.14	11.70
559.31	25.75
559.47	16.38
559.64	51.49
559.80	0.00
559.97	86.60
560.13	0.00
560.30	70.22
560.46	63.19
560.63	30.43
560.79	58.51
560.96	16.38
561.12	91.28
561.29	79.58
561.45	42.13
561.61	88.94
561.78	107.66
561.94	16.38
562.11	70.22
562.27	39.79
562.44	51.49
562.60	60.85
562.77	23.41
562.93	79.58
563.10	7.02
563.26	53.83
563.42	149.79
563.59	100.64
563.75	86.60
563.92	42.13
564.08	16.38
564.24	56.17
564.41	0.00
564.57	88.94
564.74	79.58
564.90	114.69
565.07	25.75
565.23	44.47
565.39	0.00
565.56	14.04
565.72	42.13
565.88	53.83
566.05	35.11
566.21	28.09
566.38	0.00
566.54	53.83
566.70	42.13
566.87	58.51
567.03	60.85
567.19	25.75
567.36	102.98
567.52	39.79
567.68	51.49
567.85	39.79
568.01	51.49
568.17	58.51
568.34	93.62
568.50	37.45
568.66	84.26
568.83	58.51
568.99	37.45
569.15	51.49
569.32	11.70
569.48	11.70
569.64	25.75
569.81	0.00
569.97	0.00
570.13	60.85
570.30	30.43
570.46	126.39
570.62	25.75
570.78	0.00
570.95	4.68
571.11	84.26
571.27	39.79
571.43	102.98
571.60	25.75
571.76	16.38
571.92	112.35
572.09	100.64
572.25	63.19
572.41	88.94
572.57	0.00
572.74	28.09
572.90	110.01
573.06	65.54
573.22	0.00
573.38	28.09
573.55	98.30
573.71	84.26
573.87	32.77
574.03	37.45
574.20	42.13
574.36	79.58
574.52	14.04
574.68	98.30
574.84	32.77
575.01	16.38
575.17	37.45
575.33	65.54
575.49	79.58
575.65	14.04
575.82	95.96
575.98	16.38
576.14	7.02
576.30	77.24
576.46	67.88
576.62	60.85
576.79	0.00
576.95	25.75
577.11	4.68
577.27	58.51
577.43	44.47
577.59	37.45
577.75	44.47
577.92	46.81
578.08	39.79
578.24	81.92
578.40	46.81
578.56	67.88
578.72	42.13
578.88	60.85
579.04	16.38
579.21	81.92
579.37	100.64
579.53	84.26
579.69	44.47
579.85	0.00
580.01	49.15
580.17	60.85
580.33	30.43
580.49	0.00
580.65	63.19
580.82	46.81
580.98	0.00
581.14	63.19
581.30	37.45
581.46	30.43
581.62	74.90
581.78	9.36
581.94	51.49
582.10	100.64
582.26	81.92
582.42	0.00
582.58	79.58
582.74	28.09
582.90	7.02
583.06	98.30
583.22	79.58
583.38	0.00
583.54	56.17
583.70	0.00
583.86	11.70
584.02	18.72
584.18	95.96
584.34	44.47
584.50	0.00
584.66	58.51
584.82	63.19
584.98	58.51
585.14	39.79
585.30	42.13
585.46	37.45
585.62	0.00
585.78	128.73
585.94	37.45
586.10	0.00
586.26	28.09
586.42	58.51
586.58	91.28
586.74	9.36
586.90	53.83
587.06	39.79
587.22	32.77
587.38	63.19
587.54	21.06
587.70	63.19
587.86	28.09
588.02	84.26
588.18	44.47
588.34	35.11
588.49	32.77
588.65	37.45
588.81	0.00
588.97	84.26
589.13	0.00
589.29	0.00
589.45	70.22
589.61	0.00
589.77	49.15
589.93	11.70
590.08	77.24
590.24	53.83
590.40	37.45
590.56	49.15
590.72	91.28
590.88	56.17
591.04	65.54
591.20	23.41
591.35	86.60
591.51	56.17
591.67	42.13
591.83	28.09
591.99	81.92
592.15	42.13
592.31	63.19
592.46	100.64
592.62	0.00
592.78	46.81
592.94	0.00
593.10	88.94
593.26	107.66
593.41	0.00
593.57	60.85
593.73	23.41
593.89	84.26
594.05	0.00
594.20	18.72
594.36	77.24
594.52	32.77
594.68	81.92
594.84	163.84
594.99	107.66
595.15	0.00
595.31	7.02
595.47	79.58
595.62	9.36
595.78	56.17
595.94	51.49
596.10	42.13
596.25	18.72
596.41	46.81
596.57	37.45
596.73	30.43
596.88	14.04
597.04	16.38
597.20	21.06
597.36	53.83
597.51	14.04
597.67	49.15
597.83	39.79
597.99	4.68
598.14	18.72
598.30	128.73
598.46	44.47
598.61	84.26
598.77	74.90
598.93	37.45
599.09	58.51
599.24	42.13
599.40	65.54
599.56	0.00
599.71	53.83
599.87	112.35
600.03	56.17
600.18	0.00
600.34	21.06
600.50	60.85
600.65	126.39
600.81	23.41
600.97	30.43
601.12	60.85
601.28	0.00
601.44	30.43
601.59	9.36
601.75	88.94
601.91	102.98
602.06	21.06
602.22	2.34
602.37	91.28
602.53	46.81
602.69	46.81
602.84	39.79
603.00	0.00
603.16	0.00
603.31	16.38
603.47	91.28
603.62	79.58
603.78	67.88
603.94	117.03
604.09	51.49
604.25	7.02
604.40	112.35
604.56	53.83
604.71	16.38
604.87	44.47
605.03	32.77
605.18	67.88
605.34	100.64
605.49	58.51
605.65	67.88
605.80	35.11
605.96	58.51
606.12	98.30
606.27	51.49
606.43	53.83
606.58	84.26
606.74	72.56
606.89	53.83
607.05	25.75
607.20	105.32
607.36	56.17
607.51	35.11
607.67	77.24
607.82	60.85
607.98	91.28
608.13	30.43
608.29	0.00
608.44	46.81
608.60	21.06
608.75	74.90
608.91	100.64
609.06	0.00
609.22	44.47
609.37	74.90
609.53	35.11
609.68	70.22
609.84	4.68
609.99	81.92
610.15	72.56
610.30	88.94
610.46	35.11
610.61	4.68
610.76	84.26
610.92	0.00
611.07	35.11
611.23	81.92
611.38	107.66
611.54	44.47
611.69	67.88
611.84	53.83
612.00	56.17
612.15	128.73
612.31	9.36
612.46	18.72
612.62	58.51
612.77	124.05
612.92	145.11
613.08	56.17
613.23	107.66
613.39	124.05
613.54	84.26
613.69	35.11
613.85	74.90
614.00	30.43
614.15	93.62
614.31	30.43
614.46	63.19
614.62	32.77
614.77	114.69
614.92	28.09
615.08	65.54
615.23	0.00
615.38	0.00
615.54	37.45
615.69	30.43
615.84	0.00
616.00	0.00
616.15	53.83
616.30	74.90
616.46	18.72
616.61	0.00
616.76	60.85
616.92	0.00
617.07	11.70
617.22	0.00
617.37	25.75
617.53	51.49
617.68	42.13
617.83	18.72
617.99	93.62
618.14	58.51
618.29	110.01
618.45	84.26
618.60	39.79
618.75	18.72
618.90	88.94
619.06	23.41
619.21	37.45
619.36	39.79
619.51	100.64
619.67	58.51
619.82	102.98
619.97	74.90
620.12	53.83
620.28	18.72
620.43	49.15
620.58	65.54
620.73	53.83
620.89	56.17
621.04	53.83
621.19	37.45
621.34	7.02
621.49	79.58
621.65	119.37
621.80	0.00
621.95	32.77
622.10	30.43
622.25	67.88
622.41	107.66
622.56	37.45
622.71	72.56
622.86	32.77
623.01	70.22
623.16	58.51
623.32	25.75
623.47	86.60
623.62	56.17
623.77	16.38
623.92	4.68
624.07	84.26
624.23	0.00
624.38	95.96
624.53	44.47
624.68	56.17
624.83	42.13
624.98	35.11
625.13	39.79
625.29	0.00
625.44	30.43
625.59	21.06
625.74	119.37
625.89	102.98
626.04	44.47
626.19	119.37
626.34	100.64
626.49	35.11
626.65	84.26
626.80	0.00
626.95	0.00
627.10	46.81
627.25	7.02
627.40	67.88
627.55	37.45
627.70	35.11
627.85	44.47
628.00	74.90
628.15	60.85
628.30	88.94
628.45	88.94
628.60	35.11
628.76	72.56
628.91	86.60
629.06	39.79
629.21	32.77
629.36	0.00
629.51	37.45
629.66	128.73
629.81	44.47
629.96	74.90
630.11	0.00
630.26	84.26
630.41	72.56
630.56	49.15
630.71	30.43
630.86	70.22
631.01	0.00
631.16	49.15
631.31	70.22
631.46	53.83
631.61	30.43
631.76	21.06
631.91	60.85
632.06	16.38
632.21	0.00
632.36	42.13
632.51	77.24
632.66	11.70
632.81	53.83
632.96	51.49
633.10	51.49
633.25	0.00
633.40	81.92
633.55	102.98
633.70	28.09
633.85	0.00
634.00	16.38
634.15	0.00
634.30	63.19
634.45	23.41
634.60	7.02
634.75	9.36
634.90	107.66
635.05	60.85
635.19	0.00
635.34	72.56
635.49	11.70
635.64	39.79
635.79	7.02
635.94	11.70
636.09	35.11
636.24	0.00
636.39	0.00
636.53	105.32
636.68	23.41
636.83	93.62
636.98	14.04
637.13	42.13
637.28	16.38
637.43	2.34
637.57	0.00
637.72	0.00
637.87	2.34
638.02	35.11
638.17	0.00
638.32	0.00
638.46	14.04
638.61	91.28
638.76	88.94
638.91	53.83
639.06	49.15
639.20	88.94
639.35	0.00
639.50	42.13
639.65	32.77
639.80	37.45
639.94	49.15
640.09	72.56
640.24	35.11
640.39	9.36
640.54	0.00
640.68	44.47
640.83	42.13
640.98	16.38
641.13	60.85
641.27	0.00
641.42	65.54
641.57	58.51
641.72	30.43
641.86	14.04
642.01	46.81
642.16	70.22
642.31	128.73
642.45	91.28
642.60	53.83
642.75	21.06
642.90	4.68
643.04	74.90
643.19	16.38
643.34	67.88
643.48	37.45
643.63	65.54
643.78	25.75
643.93	72.56
644.07	98.30
644.22	81.92
644.37	86.60
644.51	23.41
644.66	37.45
644.81	46.81
644.95	72.56
645.10	0.00
645.25	72.56
645.39	23.41
645.54	0.00
645.69	25.75
645.83	25.75
645.98	14.04
646.13	98.30
646.27	35.11
646.42	11.70
646.57	16.38
646.71	0.00
646.86	14.04
647.00	53.83
647.15	67.88
647.30	46.81
647.44	53.83
647.59	114.69
647.74	0.00
647.88	28.09
648.03	21.06
648.17	72.56
648.32	53.83
648.47	18.72
648.61	28.09
648.76	16.38
648.90	65.54
649.05	58.51
649.20	0.00
649.34	0.00
649.49	14.04
649.63	0.00
649.78	37.45
649.92	56.17
650.07	42.13
650.21	44.47
650.36	95.96
650.51	44.47
650.65	28.09
650.80	4.68
650.94	28.09
651.09	91.28
651.23	79.58
651.38	28.09
651.52	16.38
651.67	53.83
651.81	35.11
651.96	46.81
652.10	14.04
652.25	72.56
652.39	9.36
652.54	23.41
652.68	7.02
652.83	93.62
652.97	58.51
653.12	79.58
653.26	70.22
653.41	0.00
653.55	0.00
653.70	65.54
653.84	93.62
653.99	4.68
654.13	11.70
654.27	35.11
654.42	14.04
654.56	70.22
654.71	138.09
654.85	35.11
655.00	14.04
655.14	0.00
655.29	21.06
655.43	67.88
655.57	23.41
655.72	39.79
655.86	9.36
656.01	21.06
656.15	135.75
656.30	58.51
656.44	25.75
656.58	23.41
656.73	35.11
656.87	49.15
657.01	4.68
657.16	70.22
657.30	37.45
657.45	60.85
657.59	79.58
657.73	23.41
657.88	39.79
658.02	79.58
658.16	44.47
658.31	0.00
658.45	0.00
658.60	86.60
658.74	18.72
658.88	30.43
659.03	0.00
659.17	63.19
659.31	49.15
659.46	28.09
659.60	9.36
659.74	70.22
659.89	0.00
660.03	25.75
660.17	67.88
660.32	60.85
660.46	84.26
660.60	51.49
660.74	46.81
660.89	46.81
661.03	49.15
661.17	79.58
661.32	49.15
661.46	2.34
661.60	35.11
661.74	56.17
661.89	110.01
662.03	65.54
662.17	67.88
662.31	65.54
662.46	77.24
662.60	42.13
662.74	51.49
662.88	23.41
663.03	44.47
663.17	56.17
663.31	44.47
663.45	0.00
663.60	11.70
663.74	63.19
663.88	49.15
664.02	53.83
664.17	39.79
664.31	35.11
664.45	18.72
664.59	23.41
664.73	28.09
664.88	58.51
665.02	105.32
665.16	9.36
665.30	56.17
665.44	2.34
665.59	91.28
665.73	39.79
665.87	21.06
666.01	65.54
666.15	4.68
666.29	60.85
666.44	124.05
666.58	0.00
666.72	25.75
666.86	56.17
667.00	51.49
667.14	9.36
667.28	23.41
667.43	0.00
667.57	67.88
667.71	16.38
667.85	58.51
667.99	14.04
668.13	65.54
668.27	2.34
668.41	0.00
668.56	86.60
668.70	35.11
668.84	46.81
668.98	0.00
669.12	58.51
669.26	2.34
669.40	32.77
669.54	0.00
669.68	21.06
669.82	35.11
669.96	11.70
670.10	53.83
670.25	77.24
670.39	0.00
670.53	65.54
670.67	77.24
670.81	74.90
670.95	77.24
671.09	21.06
671.23	74.90
671.37	46.81
671.51	30.43
671.65	0.00
671.79	30.43
671.93	72.56
672.07	119.37
672.21	14.04
672.35	9.36
672.49	18.72
672.63	0.00
672.77	30.43
672.91	81.92
673.05	84.26
673.19	79.58
673.33	0.00
673.47	11.70
673.61	49.15
673.75	74.90
673.89	93.62
674.03	77.24
674.17	58.51
674.31	0.00
674.45	65.54
674.59	28.09
674.73	2.34
674.87	2.34
675.01	30.43
675.15	23.41
675.29	21.06
675.43	60.85
675.56	44.47
675.70	4.68
675.84	32.77
675.98	18.72
676.12	117.03
676.26	49.15
676.40	49.15
676.54	30.43
676.68	56.17
676.82	14.04
676.96	133.41
677.10	0.00
677.23	21.06
677.37	32.77
677.51	110.01
677.65	25.75
677.79	56.17
677.93	11.70
678.07	11.70
678.21	114.69
678.34	28.09
678.48	147.45
678.62	18.72
678.76	18.72
678.90	0.00
679.04	0.00
679.18	46.81
679.31	42.13
679.45	60.85
679.59	53.83
679.73	81.92
679.87	14.04
680.00	110.01
680.14	18.72
680.28	32.77
680.42	23.41
680.56	0.00
680.70	0.00
680.83	58.51
680.97	51.49
681.11	0.00
681.25	98.30
681.39	0.00
681.52	51.49
681.66	0.00
681.80	0.00
681.94	93.62
682.07	53.83
682.21	0.00
682.35	91.28
682.49	32.77
682.62	84.26
682.76	35.11
682.90	21.06
683.04	0.00
683.17	126.39
683.31	49.15
683.45	9.36
683.59	0.00
683.72	77.24
683.86	56.17
684.00	0.00
684.13	53.83
684.27	44.47
684.41	0.00
684.55	7.02
684.68	0.00
684.82	58.51
684.96	95.96
685.09	30.43
685.23	28.09
685.37	86.60
685.50	14.04
685.64	37.45
685.78	21.06
685.91	51.49
686.05	51.49
686.19	49.15
686.32	63.19
686.46	42.13
686.60	25.75
686.73	0.00
686.87	16.38
687.01	56.17
687.14	0.00
687.28	53.83
687.42	0.00
687.55	9.36
687.69	23.41
687.82	0.00
687.96	0.00
688.10	0.00
688.23	0.00
688.37	58.51
688.50	21.06
688.64	32.77
688.78	39.79
688.91	14.04
689.05	23.41
689.18	56.17
689.32	79.58
689.46	28.09
689.59	37.45
689.73	11.70
689.86	42.13
690.00	49.15
690.13	11.70
690.27	51.49
690.41	23.41
690.54	56.17
690.68	67.88
690.81	0.00
690.95	70.22
691.08	58.51
691.22	70.22
691.35	0.00
691.49	67.88
691.62	42.13
691.76	37.45
691.89	63.19
692.03	0.00
692.16	49.15
692.30	0.00
692.43	70.22
692.57	49.15
692.70	53.83
692.84	79.58
692.97	56.17
693.11	9.36
693.24	28.09
693.38	14.04
693.51	16.38
693.65	35.11
693.78	37.45
693.92	0.00
694.05	37.45
694.19	49.15
694.32	0.00
694.45	11.70
694.59	0.00
694.72	11.70
694.86	0.00
694.99	0.00
695.13	0.00
695.26	39.79
695.39	51.49
695.53	0.00
695.66	35.11
695.80	119.37
695.93	46.81
696.07	7.02
696.20	28.09
696.33	39.79
696.47	0.00
696.60	0.00
696.73	0.00
696.87	46.81
697.00	28.09
697.14	110.01
697.27	39.79
697.40	32.77
697.54	14.04
697.67	110.01
697.80	0.00
697.94	72.56
698.07	21.06
698.21	11.70
698.34	32.77
698.47	0.00
698.61	14.04
698.74	58.51
698.87	0.00
699.01	105.32
699.14	102.98
699.27	42.13
699.40	74.90
699.54	79.58
699.67	42.13
699.80	30.43
699.94	0.00
700.07	51.49
700.20	53.83
700.34	25.75
700.47	46.81
700.60	16.38
700.73	30.43
700.87	51.49
701.00	11.70
701.13	0.00
701.26	25.75
701.40	0.00
701.53	63.19
701.66	16.38
701.79	65.54
701.93	14.04
702.06	51.49
702.19	63.19
702.32	0.00
702.46	63.19
702.59	0.00
702.72	72.56
702.85	0.00
702.99	21.06
703.12	32.77
703.25	88.94
703.38	0.00
703.51	23.41
703.65	0.00
703.78	67.88
703.91	53.83
704.04	32.77
704.17	9.36
704.31	37.45
704.44	77.24
704.57	102.98
704.70	72.56
704.83	49.15
704.96	152.13
705.10	9.36
705.23	84.26
>>>>>End Processed Spectral Data<<<<<
