SpectraSuite Data File
++++++++++++++++++++++++++++++++++++
Date: Fri Oct 04 12:13:32 GMT-05:00 2013
User: price-jones
Dark Spectrum Present: No
Reference Spectrum Present: No
Number of Sampled Component Spectra: 1
Spectrometers: USB2+H05261
Integration Time (usec): 10000 (USB2+H05261)
Spectra Averaged: 1 (USB2+H05261)
Boxcar Smoothing: 0 (USB2+H05261)
Correct for Electrical Dark: No (USB2+H05261)
Strobe/Lamp Enabled: No (USB2+H05261)
Correct for Detector Non-linearity: No (USB2+H05261)
Correct for Stray Light: No (USB2+H05261)
Number of Pixels in Processed Spectrum: 2048
>>>>>Begin Processed Spectral Data<<<<<
365.73	35.11
365.92	35.11
366.12	35.11
366.32	0.00
366.52	0.00
366.72	0.00
366.91	0.00
367.11	0.00
367.31	0.00
367.51	0.00
367.70	0.00
367.90	0.00
368.10	0.00
368.30	0.00
368.49	0.00
368.69	0.00
368.89	0.00
369.09	0.00
369.28	0.00
369.48	0.00
369.68	0.00
369.87	0.00
370.07	0.00
370.27	0.00
370.47	0.00
370.66	0.00
370.86	0.00
371.06	0.00
371.25	0.00
371.45	23.41
371.65	7.02
371.84	0.00
372.04	0.00
372.24	30.43
372.44	114.69
372.63	86.60
372.83	0.00
373.03	0.00
373.22	7.02
373.42	44.47
373.62	0.00
373.81	18.72
374.01	4.68
374.21	65.54
374.40	46.81
374.60	51.49
374.79	67.88
374.99	67.88
375.19	95.96
375.38	37.45
375.58	0.00
375.78	44.47
375.97	11.70
376.17	51.49
376.37	14.04
376.56	32.77
376.76	0.00
376.95	2.34
377.15	14.04
377.35	2.34
377.54	0.00
377.74	0.00
377.93	25.75
378.13	51.49
378.33	60.85
378.52	0.00
378.72	35.11
378.91	0.00
379.11	9.36
379.31	0.00
379.50	0.00
379.70	0.00
379.89	23.41
380.09	46.81
380.28	0.00
380.48	0.00
380.68	7.02
380.87	4.68
381.07	0.00
381.26	30.43
381.46	0.00
381.65	7.02
381.85	0.00
382.04	49.15
382.24	37.45
382.43	2.34
382.63	0.00
382.83	0.00
383.02	0.00
383.22	9.36
383.41	37.45
383.61	49.15
383.80	0.00
384.00	35.11
384.19	65.54
384.39	25.75
384.58	7.02
384.78	7.02
384.97	0.00
385.17	72.56
385.36	25.75
385.56	0.00
385.75	21.06
385.95	21.06
386.14	67.88
386.34	0.00
386.53	107.66
386.72	0.00
386.92	46.81
387.11	30.43
387.31	0.00
387.50	14.04
387.70	39.79
387.89	0.00
388.09	21.06
388.28	46.81
388.48	25.75
388.67	23.41
388.86	0.00
389.06	2.34
389.25	0.00
389.45	0.00
389.64	0.00
389.84	79.58
390.03	30.43
390.22	51.49
390.42	0.00
390.61	0.00
390.81	39.79
391.00	0.00
391.19	84.26
391.39	0.00
391.58	53.83
391.78	74.90
391.97	86.60
392.16	39.79
392.36	0.00
392.55	7.02
392.75	70.22
392.94	35.11
393.13	9.36
393.33	53.83
393.52	2.34
393.71	0.00
393.91	30.43
394.10	42.13
394.29	9.36
394.49	42.13
394.68	86.60
394.88	60.85
395.07	7.02
395.26	0.00
395.46	60.85
395.65	23.41
395.84	74.90
396.04	0.00
396.23	0.00
396.42	23.41
396.62	91.28
396.81	0.00
397.00	86.60
397.19	0.00
397.39	23.41
397.58	81.92
397.77	44.47
397.97	16.38
398.16	0.00
398.35	14.04
398.55	23.41
398.74	16.38
398.93	21.06
399.12	0.00
399.32	23.41
399.51	46.81
399.70	56.17
399.90	28.09
400.09	42.13
400.28	14.04
400.47	53.83
400.67	23.41
400.86	0.00
401.05	46.81
401.24	0.00
401.44	21.06
401.63	25.75
401.82	72.56
402.01	0.00
402.21	39.79
402.40	14.04
402.59	39.79
402.78	0.00
402.97	58.51
403.17	9.36
403.36	16.38
403.55	0.00
403.74	11.70
403.93	9.36
404.13	42.13
404.32	51.49
404.51	46.81
404.70	14.04
404.89	32.77
405.09	0.00
405.28	56.17
405.47	60.85
405.66	18.72
405.85	39.79
406.05	11.70
406.24	0.00
406.43	0.00
406.62	0.00
406.81	0.00
407.00	9.36
407.20	42.13
407.39	28.09
407.58	0.00
407.77	37.45
407.96	25.75
408.15	16.38
408.34	0.00
408.54	2.34
408.73	0.00
408.92	18.72
409.11	21.06
409.30	42.13
409.49	11.70
409.68	49.15
409.87	14.04
410.07	28.09
410.26	105.32
410.45	0.00
410.64	86.60
410.83	7.02
411.02	30.43
411.21	51.49
411.40	74.90
411.59	56.17
411.78	44.47
411.98	46.81
412.17	0.00
412.36	30.43
412.55	42.13
412.74	0.00
412.93	0.00
413.12	37.45
413.31	42.13
413.50	70.22
413.69	0.00
413.88	7.02
414.07	28.09
414.26	28.09
414.45	25.75
414.64	0.00
414.83	25.75
415.02	0.00
415.22	9.36
415.41	23.41
415.60	0.00
415.79	4.68
415.98	32.77
416.17	11.70
416.36	49.15
416.55	0.00
416.74	35.11
416.93	46.81
417.12	32.77
417.31	23.41
417.50	53.83
417.69	25.75
417.88	11.70
418.07	9.36
418.26	51.49
418.45	67.88
418.64	88.94
418.83	56.17
419.02	35.11
419.21	21.06
419.39	0.00
419.58	0.00
419.77	4.68
419.96	0.00
420.15	51.49
420.34	0.00
420.53	39.79
420.72	49.15
420.91	32.77
421.10	16.38
421.29	9.36
421.48	102.98
421.67	49.15
421.86	0.00
422.05	14.04
422.24	11.70
422.43	21.06
422.61	74.90
422.80	42.13
422.99	9.36
423.18	0.00
423.37	28.09
423.56	25.75
423.75	37.45
423.94	79.58
424.13	53.83
424.32	86.60
424.50	25.75
424.69	51.49
424.88	0.00
425.07	42.13
425.26	44.47
425.45	77.24
425.64	49.15
425.83	23.41
426.01	53.83
426.20	2.34
426.39	18.72
426.58	0.00
426.77	0.00
426.96	14.04
427.15	23.41
427.33	32.77
427.52	16.38
427.71	51.49
427.90	81.92
428.09	18.72
428.28	107.66
428.46	32.77
428.65	63.19
428.84	51.49
429.03	9.36
429.22	0.00
429.40	49.15
429.59	51.49
429.78	25.75
429.97	9.36
430.16	70.22
430.34	0.00
430.53	37.45
430.72	77.24
430.91	86.60
431.10	44.47
431.28	53.83
431.47	88.94
431.66	37.45
431.85	28.09
432.03	60.85
432.22	37.45
432.41	65.54
432.60	7.02
432.79	65.54
432.97	46.81
433.16	16.38
433.35	91.28
433.54	18.72
433.72	56.17
433.91	84.26
434.10	56.17
434.28	23.41
434.47	11.70
434.66	25.75
434.85	79.58
435.03	84.26
435.22	42.13
435.41	35.11
435.59	4.68
435.78	39.79
435.97	18.72
436.16	30.43
436.34	46.81
436.53	49.15
436.72	65.54
436.90	9.36
437.09	0.00
437.28	46.81
437.46	0.00
437.65	9.36
437.84	63.19
438.02	91.28
438.21	60.85
438.40	0.00
438.58	4.68
438.77	39.79
438.96	4.68
439.14	2.34
439.33	65.54
439.52	30.43
439.70	9.36
439.89	42.13
440.08	0.00
440.26	35.11
440.45	53.83
440.63	102.98
440.82	0.00
441.01	0.00
441.19	7.02
441.38	0.00
441.57	84.26
441.75	0.00
441.94	112.35
442.12	44.47
442.31	0.00
442.50	35.11
442.68	0.00
442.87	58.51
443.05	133.41
443.24	4.68
443.43	51.49
443.61	124.05
443.80	56.17
443.98	14.04
444.17	49.15
444.35	23.41
444.54	63.19
444.73	18.72
444.91	35.11
445.10	42.13
445.28	0.00
445.47	23.41
445.65	105.32
445.84	65.54
446.02	49.15
446.21	32.77
446.39	0.00
446.58	0.00
446.77	72.56
446.95	0.00
447.14	39.79
447.32	0.00
447.51	58.51
447.69	91.28
447.88	0.00
448.06	35.11
448.25	0.00
448.43	53.83
448.62	0.00
448.80	51.49
448.99	77.24
449.17	74.90
449.36	53.83
449.54	0.00
449.73	0.00
449.91	102.98
450.10	16.38
450.28	0.00
450.46	28.09
450.65	7.02
450.83	14.04
451.02	4.68
451.20	25.75
451.39	91.28
451.57	32.77
451.76	0.00
451.94	35.11
452.13	46.81
452.31	46.81
452.49	11.70
452.68	0.00
452.86	18.72
453.05	56.17
453.23	58.51
453.42	0.00
453.60	35.11
453.78	56.17
453.97	37.45
454.15	88.94
454.34	0.00
454.52	21.06
454.70	0.00
454.89	0.00
455.07	0.00
455.26	28.09
455.44	0.00
455.62	53.83
455.81	63.19
455.99	25.75
456.17	11.70
456.36	30.43
456.54	39.79
456.73	42.13
456.91	16.38
457.09	0.00
457.28	46.81
457.46	63.19
457.64	7.02
457.83	0.00
458.01	0.00
458.19	21.06
458.38	11.70
458.56	28.09
458.74	0.00
458.93	4.68
459.11	7.02
459.29	63.19
459.48	30.43
459.66	11.70
459.84	32.77
460.03	0.00
460.21	86.60
460.39	25.75
460.57	32.77
460.76	0.00
460.94	93.62
461.12	0.00
461.31	0.00
461.49	51.49
461.67	32.77
461.85	23.41
462.04	42.13
462.22	184.90
462.40	51.49
462.59	124.05
462.77	42.13
462.95	28.09
463.13	35.11
463.32	25.75
463.50	39.79
463.68	11.70
463.86	16.38
464.05	42.13
464.23	18.72
464.41	11.70
464.59	14.04
464.78	100.64
464.96	9.36
465.14	91.28
465.32	0.00
465.50	98.30
465.69	0.00
465.87	0.00
466.05	23.41
466.23	67.88
466.41	60.85
466.60	7.02
466.78	0.00
466.96	46.81
467.14	63.19
467.32	56.17
467.51	56.17
467.69	18.72
467.87	0.00
468.05	0.00
468.23	35.11
468.41	0.00
468.60	35.11
468.78	39.79
468.96	46.81
469.14	56.17
469.32	32.77
469.50	0.00
469.69	35.11
469.87	65.54
470.05	28.09
470.23	74.90
470.41	0.00
470.59	74.90
470.77	42.13
470.95	46.81
471.14	117.03
471.32	14.04
471.50	63.19
471.68	42.13
471.86	46.81
472.04	60.85
472.22	93.62
472.40	21.06
472.58	0.00
472.77	28.09
472.95	58.51
473.13	14.04
473.31	65.54
473.49	56.17
473.67	58.51
473.85	35.11
474.03	28.09
474.21	0.00
474.39	21.06
474.57	60.85
474.75	0.00
474.93	0.00
475.12	72.56
475.30	79.58
475.48	35.11
475.66	0.00
475.84	70.22
476.02	93.62
476.20	0.00
476.38	56.17
476.56	2.34
476.74	70.22
476.92	25.75
477.10	46.81
477.28	0.00
477.46	84.26
477.64	0.00
477.82	28.09
478.00	18.72
478.18	32.77
478.36	37.45
478.54	98.30
478.72	46.81
478.90	9.36
479.08	32.77
479.26	0.00
479.44	56.17
479.62	56.17
479.80	70.22
479.98	65.54
480.16	86.60
480.34	0.00
480.52	51.49
480.70	16.38
480.88	84.26
481.06	114.69
481.24	28.09
481.41	65.54
481.59	0.00
481.77	70.22
481.95	23.41
482.13	42.13
482.31	7.02
482.49	0.00
482.67	65.54
482.85	0.00
483.03	58.51
483.21	56.17
483.39	23.41
483.57	0.00
483.74	77.24
483.92	91.28
484.10	93.62
484.28	70.22
484.46	53.83
484.64	35.11
484.82	58.51
485.00	84.26
485.18	2.34
485.35	58.51
485.53	93.62
485.71	0.00
485.89	39.79
486.07	91.28
486.25	53.83
486.43	0.00
486.61	56.17
486.78	49.15
486.96	35.11
487.14	58.51
487.32	56.17
487.50	0.00
487.68	9.36
487.85	25.75
488.03	9.36
488.21	63.19
488.39	65.54
488.57	46.81
488.75	46.81
488.92	74.90
489.10	0.00
489.28	16.38
489.46	72.56
489.64	18.72
489.81	53.83
489.99	0.00
490.17	77.24
490.35	79.58
490.53	4.68
490.70	145.11
490.88	44.47
491.06	58.51
491.24	49.15
491.41	86.60
491.59	0.00
491.77	51.49
491.95	30.43
492.13	16.38
492.30	37.45
492.48	11.70
492.66	0.00
492.84	84.26
493.01	7.02
493.19	0.00
493.37	67.88
493.54	30.43
493.72	51.49
493.90	102.98
494.08	28.09
494.25	46.81
494.43	166.18
494.61	65.54
494.79	131.07
494.96	145.11
495.14	72.56
495.32	70.22
495.49	32.77
495.67	58.51
495.85	53.83
496.02	63.19
496.20	23.41
496.38	0.00
496.55	65.54
496.73	9.36
496.91	0.00
497.09	44.47
497.26	84.26
497.44	70.22
497.62	18.72
497.79	11.70
497.97	35.11
498.14	58.51
498.32	65.54
498.50	42.13
498.67	18.72
498.85	0.00
499.03	81.92
499.20	100.64
499.38	28.09
499.56	25.75
499.73	39.79
499.91	77.24
500.08	67.88
500.26	39.79
500.44	28.09
500.61	0.00
500.79	25.75
500.97	56.17
501.14	84.26
501.32	39.79
501.49	42.13
501.67	0.00
501.84	67.88
502.02	53.83
502.20	42.13
502.37	79.58
502.55	0.00
502.72	25.75
502.90	23.41
503.07	44.47
503.25	0.00
503.43	25.75
503.60	9.36
503.78	4.68
503.95	25.75
504.13	51.49
504.30	11.70
504.48	60.85
504.65	30.43
504.83	58.51
505.01	88.94
505.18	65.54
505.36	58.51
505.53	53.83
505.71	32.77
505.88	60.85
506.06	53.83
506.23	77.24
506.41	44.47
506.58	21.06
506.76	0.00
506.93	86.60
507.11	77.24
507.28	0.00
507.46	0.00
507.63	70.22
507.81	25.75
507.98	51.49
508.16	0.00
508.33	53.83
508.50	72.56
508.68	58.51
508.85	18.72
509.03	30.43
509.20	35.11
509.38	42.13
509.55	0.00
509.73	105.32
509.90	51.49
510.08	84.26
510.25	91.28
510.42	70.22
510.60	0.00
510.77	79.58
510.95	11.70
511.12	56.17
511.30	60.85
511.47	49.15
511.64	77.24
511.82	7.02
511.99	32.77
512.17	51.49
512.34	23.41
512.51	18.72
512.69	42.13
512.86	60.85
513.04	9.36
513.21	35.11
513.38	21.06
513.56	0.00
513.73	60.85
513.90	95.96
514.08	77.24
514.25	133.41
514.43	107.66
514.60	32.77
514.77	53.83
514.95	65.54
515.12	32.77
515.29	107.66
515.47	156.82
515.64	70.22
515.81	70.22
515.99	91.28
516.16	46.81
516.33	25.75
516.51	0.00
516.68	91.28
516.85	39.79
517.03	32.77
517.20	14.04
517.37	4.68
517.54	88.94
517.72	70.22
517.89	74.90
518.06	28.09
518.24	74.90
518.41	58.51
518.58	14.04
518.75	65.54
518.93	25.75
519.10	102.98
519.27	60.85
519.45	4.68
519.62	77.24
519.79	21.06
519.96	0.00
520.14	0.00
520.31	81.92
520.48	58.51
520.65	79.58
520.83	100.64
521.00	30.43
521.17	56.17
521.34	100.64
521.52	53.83
521.69	70.22
521.86	133.41
522.03	23.41
522.20	32.77
522.38	25.75
522.55	44.47
522.72	0.00
522.89	14.04
523.07	81.92
523.24	4.68
523.41	93.62
523.58	98.30
523.75	60.85
523.92	32.77
524.10	0.00
524.27	16.38
524.44	16.38
524.61	39.79
524.78	9.36
524.96	86.60
525.13	58.51
525.30	44.47
525.47	42.13
525.64	16.38
525.81	53.83
525.98	119.37
526.16	70.22
526.33	51.49
526.50	72.56
526.67	88.94
526.84	23.41
527.01	60.85
527.18	102.98
527.36	42.13
527.53	70.22
527.70	30.43
527.87	63.19
528.04	49.15
528.21	0.00
528.38	14.04
528.55	18.72
528.72	98.30
528.89	18.72
529.07	0.00
529.24	32.77
529.41	79.58
529.58	74.90
529.75	21.06
529.92	74.90
530.09	53.83
530.26	72.56
530.43	23.41
530.60	0.00
530.77	18.72
530.94	30.43
531.11	25.75
531.28	56.17
531.46	46.81
531.63	100.64
531.80	49.15
531.97	30.43
532.14	77.24
532.31	56.17
532.48	56.17
532.65	28.09
532.82	37.45
532.99	53.83
533.16	72.56
533.33	107.66
533.50	30.43
533.67	23.41
533.84	114.69
534.01	114.69
534.18	28.09
534.35	51.49
534.52	86.60
534.69	117.03
534.86	128.73
535.03	0.00
535.20	16.38
535.37	53.83
535.54	16.38
535.71	58.51
535.88	53.83
536.05	53.83
536.22	100.64
536.38	65.54
536.55	39.79
536.72	14.04
536.89	21.06
537.06	0.00
537.23	37.45
537.40	65.54
537.57	0.00
537.74	95.96
537.91	63.19
538.08	21.06
538.25	112.35
538.42	0.00
538.59	58.51
538.75	49.15
538.92	39.79
539.09	84.26
539.26	14.04
539.43	56.17
539.60	65.54
539.77	35.11
539.94	60.85
540.11	58.51
540.28	105.32
540.44	86.60
540.61	51.49
540.78	147.45
540.95	53.83
541.12	7.02
541.29	0.00
541.46	114.69
541.62	117.03
541.79	28.09
541.96	0.00
542.13	105.32
542.30	58.51
542.47	58.51
542.63	9.36
542.80	65.54
542.97	0.00
543.14	86.60
543.31	28.09
543.48	60.85
543.64	58.51
543.81	102.98
543.98	65.54
544.15	16.38
544.32	67.88
544.48	11.70
544.65	93.62
544.82	46.81
544.99	0.00
545.16	56.17
545.32	28.09
545.49	58.51
545.66	0.00
545.83	32.77
546.00	0.00
546.16	35.11
546.33	77.24
546.50	74.90
546.67	0.00
546.83	39.79
547.00	28.09
547.17	102.98
547.34	91.28
547.50	121.71
547.67	126.39
547.84	28.09
548.00	37.45
548.17	72.56
548.34	74.90
548.51	0.00
548.67	0.00
548.84	51.49
549.01	14.04
549.18	81.92
549.34	88.94
549.51	0.00
549.68	11.70
549.84	81.92
550.01	72.56
550.18	88.94
550.34	72.56
550.51	70.22
550.68	23.41
550.84	0.00
551.01	49.15
551.18	7.02
551.34	0.00
551.51	0.00
551.68	0.00
551.84	37.45
552.01	32.77
552.18	53.83
552.34	72.56
552.51	14.04
552.68	44.47
552.84	9.36
553.01	23.41
553.18	7.02
553.34	39.79
553.51	70.22
553.67	77.24
553.84	0.00
554.01	46.81
554.17	44.47
554.34	28.09
554.51	65.54
554.67	100.64
554.84	0.00
555.00	18.72
555.17	88.94
555.33	63.19
555.50	23.41
555.67	53.83
555.83	14.04
556.00	28.09
556.16	30.43
556.33	30.43
556.50	46.81
556.66	84.26
556.83	0.00
556.99	16.38
557.16	79.58
557.32	9.36
557.49	135.75
557.65	53.83
557.82	65.54
557.98	46.81
558.15	81.92
558.32	46.81
558.48	79.58
558.65	79.58
558.81	25.75
558.98	14.04
559.14	51.49
559.31	0.00
559.47	0.00
559.64	0.00
559.80	58.51
559.97	0.00
560.13	11.70
560.30	88.94
560.46	65.54
560.63	0.00
560.79	63.19
560.96	0.00
561.12	95.96
561.29	51.49
561.45	0.00
561.61	39.79
561.78	133.41
561.94	84.26
562.11	4.68
562.27	42.13
562.44	37.45
562.60	9.36
562.77	42.13
562.93	60.85
563.10	56.17
563.26	46.81
563.42	84.26
563.59	39.79
563.75	58.51
563.92	0.00
564.08	79.58
564.24	60.85
564.41	65.54
564.57	28.09
564.74	0.00
564.90	0.00
565.07	126.39
565.23	14.04
565.39	60.85
565.56	0.00
565.72	35.11
565.88	35.11
566.05	42.13
566.21	84.26
566.38	42.13
566.54	37.45
566.70	42.13
566.87	53.83
567.03	46.81
567.19	53.83
567.36	25.75
567.52	56.17
567.68	53.83
567.85	46.81
568.01	23.41
568.17	86.60
568.34	63.19
568.50	79.58
568.66	91.28
568.83	145.11
568.99	56.17
569.15	25.75
569.32	53.83
569.48	35.11
569.64	0.00
569.81	39.79
569.97	63.19
570.13	65.54
570.30	39.79
570.46	81.92
570.62	39.79
570.78	53.83
570.95	21.06
571.11	21.06
571.27	28.09
571.43	65.54
571.60	72.56
571.76	126.39
571.92	77.24
572.09	58.51
572.25	46.81
572.41	16.38
572.57	0.00
572.74	0.00
572.90	49.15
573.06	60.85
573.22	2.34
573.38	25.75
573.55	60.85
573.71	88.94
573.87	58.51
574.03	49.15
574.20	25.75
574.36	25.75
574.52	86.60
574.68	147.45
574.84	46.81
575.01	77.24
575.17	67.88
575.33	32.77
575.49	81.92
575.65	67.88
575.82	44.47
575.98	28.09
576.14	63.19
576.30	2.34
576.46	42.13
576.62	0.00
576.79	95.96
576.95	0.00
577.11	77.24
577.27	0.00
577.43	0.00
577.59	51.49
577.75	105.32
577.92	72.56
578.08	51.49
578.24	60.85
578.40	77.24
578.56	98.30
578.72	30.43
578.88	11.70
579.04	0.00
579.21	0.00
579.37	81.92
579.53	44.47
579.69	74.90
579.85	112.35
580.01	4.68
580.17	18.72
580.33	49.15
580.49	2.34
580.65	0.00
580.82	42.13
580.98	46.81
581.14	133.41
581.30	56.17
581.46	67.88
581.62	44.47
581.78	79.58
581.94	25.75
582.10	18.72
582.26	37.45
582.42	42.13
582.58	2.34
582.74	56.17
582.90	84.26
583.06	60.85
583.22	70.22
583.38	63.19
583.54	44.47
583.70	74.90
583.86	37.45
584.02	98.30
584.18	79.58
584.34	42.13
584.50	23.41
584.66	79.58
584.82	35.11
584.98	25.75
585.14	138.09
585.30	30.43
585.46	51.49
585.62	53.83
585.78	18.72
585.94	74.90
586.10	7.02
586.26	21.06
586.42	25.75
586.58	110.01
586.74	42.13
586.90	39.79
587.06	0.00
587.22	63.19
587.38	46.81
587.54	4.68
587.70	53.83
587.86	28.09
588.02	39.79
588.18	77.24
588.34	39.79
588.49	63.19
588.65	0.00
588.81	0.00
588.97	0.00
589.13	70.22
589.29	60.85
589.45	72.56
589.61	149.79
589.77	42.13
589.93	100.64
590.08	25.75
590.24	70.22
590.40	63.19
590.56	23.41
590.72	2.34
590.88	42.13
591.04	35.11
591.20	58.51
591.35	84.26
591.51	14.04
591.67	23.41
591.83	51.49
591.99	0.00
592.15	0.00
592.31	88.94
592.46	86.60
592.62	51.49
592.78	11.70
592.94	0.00
593.10	23.41
593.26	23.41
593.41	56.17
593.57	9.36
593.73	56.17
593.89	0.00
594.05	37.45
594.20	14.04
594.36	16.38
594.52	53.83
594.68	86.60
594.84	4.68
594.99	25.75
595.15	46.81
595.31	53.83
595.47	0.00
595.62	32.77
595.78	0.00
595.94	0.00
596.10	42.13
596.25	93.62
596.41	100.64
596.57	53.83
596.73	77.24
596.88	23.41
597.04	70.22
597.20	46.81
597.36	49.15
597.51	28.09
597.67	72.56
597.83	58.51
597.99	93.62
598.14	25.75
598.30	119.37
598.46	4.68
598.61	117.03
598.77	42.13
598.93	14.04
599.09	39.79
599.24	81.92
599.40	39.79
599.56	23.41
599.71	53.83
599.87	81.92
600.03	63.19
600.18	11.70
600.34	67.88
600.50	16.38
600.65	77.24
600.81	18.72
600.97	21.06
601.12	105.32
601.28	74.90
601.44	18.72
601.59	65.54
601.75	74.90
601.91	25.75
602.06	51.49
602.22	91.28
602.37	32.77
602.53	79.58
602.69	0.00
602.84	37.45
603.00	9.36
603.16	35.11
603.31	0.00
603.47	63.19
603.62	67.88
603.78	0.00
603.94	28.09
604.09	58.51
604.25	121.71
604.40	39.79
604.56	58.51
604.71	74.90
604.87	28.09
605.03	0.00
605.18	93.62
605.34	35.11
605.49	53.83
605.65	56.17
605.80	56.17
605.96	28.09
606.12	74.90
606.27	79.58
606.43	16.38
606.58	2.34
606.74	56.17
606.89	0.00
607.05	67.88
607.20	0.00
607.36	110.01
607.51	105.32
607.67	46.81
607.82	37.45
607.98	0.00
608.13	30.43
608.29	18.72
608.44	72.56
608.60	159.16
608.75	28.09
608.91	0.00
609.06	112.35
609.22	72.56
609.37	28.09
609.53	95.96
609.68	95.96
609.84	91.28
609.99	37.45
610.15	93.62
610.30	7.02
610.46	63.19
610.61	51.49
610.76	67.88
610.92	0.00
611.07	2.34
611.23	0.00
611.38	70.22
611.54	49.15
611.69	14.04
611.84	49.15
612.00	28.09
612.15	86.60
612.31	23.41
612.46	56.17
612.62	51.49
612.77	74.90
612.92	95.96
613.08	72.56
613.23	51.49
613.39	74.90
613.54	46.81
613.69	77.24
613.85	88.94
614.00	0.00
614.15	53.83
614.31	46.81
614.46	93.62
614.62	25.75
614.77	0.00
614.92	18.72
615.08	110.01
615.23	93.62
615.38	81.92
615.54	21.06
615.69	95.96
615.84	110.01
616.00	81.92
616.15	63.19
616.30	121.71
616.46	67.88
616.61	46.81
616.76	95.96
616.92	70.22
617.07	0.00
617.22	0.00
617.37	88.94
617.53	42.13
617.68	70.22
617.83	14.04
617.99	77.24
618.14	93.62
618.29	39.79
618.45	60.85
618.60	88.94
618.75	0.00
618.90	53.83
619.06	77.24
619.21	0.00
619.36	93.62
619.51	53.83
619.67	28.09
619.82	30.43
619.97	77.24
620.12	110.01
620.28	14.04
620.43	23.41
620.58	98.30
620.73	37.45
620.89	28.09
621.04	18.72
621.19	18.72
621.34	28.09
621.49	51.49
621.65	7.02
621.80	0.00
621.95	30.43
622.10	53.83
622.25	119.37
622.41	32.77
622.56	9.36
622.71	39.79
622.86	32.77
623.01	30.43
623.16	65.54
623.32	86.60
623.47	0.00
623.62	51.49
623.77	98.30
623.92	35.11
624.07	44.47
624.23	51.49
624.38	28.09
624.53	23.41
624.68	11.70
624.83	0.00
624.98	46.81
625.13	56.17
625.29	2.34
625.44	4.68
625.59	0.00
625.74	0.00
625.89	70.22
626.04	51.49
626.19	0.00
626.34	7.02
626.49	18.72
626.65	14.04
626.80	42.13
626.95	65.54
627.10	21.06
627.25	46.81
627.40	60.85
627.55	42.13
627.70	25.75
627.85	23.41
628.00	0.00
628.15	0.00
628.30	25.75
628.45	0.00
628.60	86.60
628.76	56.17
628.91	63.19
629.06	44.47
629.21	7.02
629.36	98.30
629.51	4.68
629.66	51.49
629.81	46.81
629.96	23.41
630.11	28.09
630.26	14.04
630.41	0.00
630.56	95.96
630.71	46.81
630.86	0.00
631.01	42.13
631.16	25.75
631.31	9.36
631.46	11.70
631.61	21.06
631.76	93.62
631.91	110.01
632.06	51.49
632.21	56.17
632.36	21.06
632.51	9.36
632.66	7.02
632.81	84.26
632.96	28.09
633.10	18.72
633.25	0.00
633.40	25.75
633.55	16.38
633.70	72.56
633.85	14.04
634.00	9.36
634.15	18.72
634.30	56.17
634.45	93.62
634.60	30.43
634.75	79.58
634.90	0.00
635.05	39.79
635.19	23.41
635.34	2.34
635.49	28.09
635.64	0.00
635.79	70.22
635.94	28.09
636.09	53.83
636.24	16.38
636.39	28.09
636.53	46.81
636.68	28.09
636.83	32.77
636.98	35.11
637.13	11.70
637.28	114.69
637.43	56.17
637.57	37.45
637.72	37.45
637.87	28.09
638.02	44.47
638.17	32.77
638.32	49.15
638.46	0.00
638.61	91.28
638.76	95.96
638.91	44.47
639.06	35.11
639.20	114.69
639.35	42.13
639.50	9.36
639.65	63.19
639.80	63.19
639.94	79.58
640.09	74.90
640.24	60.85
640.39	72.56
640.54	93.62
640.68	79.58
640.83	16.38
640.98	63.19
641.13	23.41
641.27	14.04
641.42	28.09
641.57	56.17
641.72	74.90
641.86	0.00
642.01	25.75
642.16	11.70
642.31	60.85
642.45	60.85
642.60	35.11
642.75	51.49
642.90	42.13
643.04	53.83
643.19	86.60
643.34	91.28
643.48	84.26
643.63	79.58
643.78	91.28
643.93	51.49
644.07	30.43
644.22	60.85
644.37	53.83
644.51	46.81
644.66	0.00
644.81	86.60
644.95	0.00
645.10	44.47
645.25	0.00
645.39	0.00
645.54	30.43
645.69	35.11
645.83	67.88
645.98	49.15
646.13	2.34
646.27	58.51
646.42	42.13
646.57	18.72
646.71	30.43
646.86	65.54
647.00	0.00
647.15	84.26
647.30	56.17
647.44	67.88
647.59	32.77
647.74	53.83
647.88	49.15
648.03	67.88
648.17	74.90
648.32	53.83
648.47	30.43
648.61	65.54
648.76	88.94
648.90	56.17
649.05	16.38
649.20	9.36
649.34	32.77
649.49	0.00
649.63	7.02
649.78	7.02
649.92	21.06
650.07	0.00
650.21	51.49
650.36	11.70
650.51	16.38
650.65	37.45
650.80	53.83
650.94	88.94
651.09	25.75
651.23	9.36
651.38	58.51
651.52	16.38
651.67	21.06
651.81	25.75
651.96	37.45
652.10	51.49
652.25	65.54
652.39	25.75
652.54	46.81
652.68	35.11
652.83	42.13
652.97	51.49
653.12	23.41
653.26	4.68
653.41	56.17
653.55	107.66
653.70	2.34
653.84	88.94
653.99	37.45
654.13	0.00
654.27	98.30
654.42	30.43
654.56	2.34
654.71	51.49
654.85	74.90
655.00	51.49
655.14	37.45
655.29	23.41
655.43	53.83
655.57	44.47
655.72	7.02
655.86	4.68
656.01	63.19
656.15	58.51
656.30	88.94
656.44	35.11
656.58	131.07
656.73	9.36
656.87	46.81
657.01	14.04
657.16	0.00
657.30	0.00
657.45	37.45
657.59	67.88
657.73	21.06
657.88	0.00
658.02	105.32
658.16	72.56
658.31	49.15
658.45	23.41
658.60	23.41
658.74	11.70
658.88	0.00
659.03	35.11
659.17	51.49
659.31	39.79
659.46	60.85
659.60	51.49
659.74	65.54
659.89	56.17
660.03	30.43
660.17	25.75
660.32	53.83
660.46	25.75
660.60	46.81
660.74	30.43
660.89	51.49
661.03	0.00
661.17	70.22
661.32	46.81
661.46	79.58
661.60	25.75
661.74	35.11
661.89	0.00
662.03	0.00
662.17	133.41
662.31	42.13
662.46	30.43
662.60	11.70
662.74	51.49
662.88	0.00
663.03	65.54
663.17	60.85
663.31	0.00
663.45	21.06
663.60	32.77
663.74	30.43
663.88	44.47
664.02	0.00
664.17	51.49
664.31	79.58
664.45	0.00
664.59	67.88
664.73	37.45
664.88	60.85
665.02	0.00
665.16	98.30
665.30	58.51
665.44	51.49
665.59	88.94
665.73	100.64
665.87	16.38
666.01	14.04
666.15	95.96
666.29	9.36
666.44	100.64
666.58	53.83
666.72	30.43
666.86	70.22
667.00	42.13
667.14	35.11
667.28	51.49
667.43	18.72
667.57	121.71
667.71	49.15
667.85	28.09
667.99	18.72
668.13	25.75
668.27	56.17
668.41	49.15
668.56	44.47
668.70	16.38
668.84	51.49
668.98	32.77
669.12	0.00
669.26	53.83
669.40	79.58
669.54	11.70
669.68	58.51
669.82	77.24
669.96	4.68
670.10	0.00
670.25	4.68
670.39	60.85
670.53	79.58
670.67	32.77
670.81	21.06
670.95	79.58
671.09	23.41
671.23	51.49
671.37	9.36
671.51	51.49
671.65	32.77
671.79	60.85
671.93	0.00
672.07	81.92
672.21	65.54
672.35	42.13
672.49	0.00
672.63	30.43
672.77	0.00
672.91	25.75
673.05	70.22
673.19	16.38
673.33	35.11
673.47	42.13
673.61	65.54
673.75	14.04
673.89	11.70
674.03	51.49
674.17	0.00
674.31	44.47
674.45	0.00
674.59	100.64
674.73	0.00
674.87	128.73
675.01	93.62
675.15	86.60
675.29	25.75
675.43	0.00
675.56	11.70
675.70	56.17
675.84	0.00
675.98	53.83
676.12	9.36
676.26	25.75
676.40	0.00
676.54	79.58
676.68	21.06
676.82	74.90
676.96	42.13
677.10	72.56
677.23	23.41
677.37	2.34
677.51	112.35
677.65	112.35
677.79	0.00
677.93	0.00
678.07	32.77
678.21	46.81
678.34	37.45
678.48	2.34
678.62	16.38
678.76	0.00
678.90	0.00
679.04	0.00
679.18	53.83
679.31	51.49
679.45	14.04
679.59	107.66
679.73	58.51
679.87	77.24
680.00	51.49
680.14	18.72
680.28	0.00
680.42	84.26
680.56	72.56
680.70	79.58
680.83	93.62
680.97	0.00
681.11	37.45
681.25	56.17
681.39	23.41
681.52	44.47
681.66	0.00
681.80	0.00
681.94	67.88
682.07	0.00
682.21	30.43
682.35	32.77
682.49	9.36
682.62	0.00
682.76	0.00
682.90	51.49
683.04	0.00
683.17	0.00
683.31	32.77
683.45	32.77
683.59	0.00
683.72	0.00
683.86	77.24
684.00	21.06
684.13	11.70
684.27	25.75
684.41	0.00
684.55	65.54
684.68	70.22
684.82	21.06
684.96	74.90
685.09	2.34
685.23	39.79
685.37	56.17
685.50	42.13
685.64	95.96
685.78	16.38
685.91	0.00
686.05	58.51
686.19	98.30
686.32	105.32
686.46	30.43
686.60	42.13
686.73	46.81
686.87	0.00
687.01	0.00
687.14	98.30
687.28	72.56
687.42	56.17
687.55	91.28
687.69	28.09
687.82	21.06
687.96	49.15
688.10	51.49
688.23	0.00
688.37	107.66
688.50	9.36
688.64	14.04
688.78	0.00
688.91	32.77
689.05	37.45
689.18	105.32
689.32	23.41
689.46	14.04
689.59	21.06
689.73	93.62
689.86	63.19
690.00	9.36
690.13	74.90
690.27	25.75
690.41	14.04
690.54	37.45
690.68	0.00
690.81	84.26
690.95	70.22
691.08	0.00
691.22	44.47
691.35	42.13
691.49	9.36
691.62	42.13
691.76	0.00
691.89	2.34
692.03	0.00
692.16	0.00
692.30	4.68
692.43	81.92
692.57	35.11
692.70	0.00
692.84	42.13
692.97	0.00
693.11	74.90
693.24	0.00
693.38	79.58
693.51	77.24
693.65	0.00
693.78	42.13
693.92	0.00
694.05	63.19
694.19	14.04
694.32	0.00
694.45	53.83
694.59	72.56
694.72	16.38
694.86	2.34
694.99	25.75
695.13	4.68
695.26	28.09
695.39	37.45
695.53	39.79
695.66	0.00
695.80	35.11
695.93	0.00
696.07	2.34
696.20	65.54
696.33	2.34
696.47	23.41
696.60	72.56
696.73	16.38
696.87	46.81
697.00	56.17
697.14	30.43
697.27	0.00
697.40	51.49
697.54	74.90
697.67	23.41
697.80	28.09
697.94	72.56
698.07	16.38
698.21	110.01
698.34	79.58
698.47	11.70
698.61	42.13
698.74	23.41
698.87	0.00
699.01	16.38
699.14	0.00
699.27	7.02
699.40	21.06
699.54	7.02
699.67	9.36
699.80	37.45
699.94	35.11
700.07	60.85
700.20	7.02
700.34	49.15
700.47	58.51
700.60	21.06
700.73	53.83
700.87	84.26
701.00	7.02
701.13	53.83
701.26	81.92
701.40	0.00
701.53	28.09
701.66	0.00
701.79	14.04
701.93	32.77
702.06	74.90
702.19	58.51
702.32	81.92
702.46	0.00
702.59	2.34
702.72	0.00
702.85	4.68
702.99	0.00
703.12	53.83
703.25	23.41
703.38	9.36
703.51	37.45
703.65	56.17
703.78	39.79
703.91	81.92
704.04	0.00
704.17	25.75
704.31	98.30
704.44	23.41
704.57	21.06
704.70	74.90
704.83	0.00
704.96	18.72
705.10	4.68
705.23	35.11
>>>>>End Processed Spectral Data<<<<<
