SpectraSuite Data File
++++++++++++++++++++++++++++++++++++
Date: Fri Oct 04 12:13:41 GMT-05:00 2013
User: price-jones
Dark Spectrum Present: No
Reference Spectrum Present: No
Number of Sampled Component Spectra: 1
Spectrometers: USB2+H05261
Integration Time (usec): 10000 (USB2+H05261)
Spectra Averaged: 1 (USB2+H05261)
Boxcar Smoothing: 0 (USB2+H05261)
Correct for Electrical Dark: No (USB2+H05261)
Strobe/Lamp Enabled: No (USB2+H05261)
Correct for Detector Non-linearity: No (USB2+H05261)
Correct for Stray Light: No (USB2+H05261)
Number of Pixels in Processed Spectrum: 2048
>>>>>Begin Processed Spectral Data<<<<<
365.73	0.00
365.92	0.00
366.12	0.00
366.32	0.00
366.52	0.00
366.72	0.00
366.91	0.00
367.11	0.00
367.31	0.00
367.51	0.00
367.70	0.00
367.90	0.00
368.10	0.00
368.30	0.00
368.49	0.00
368.69	0.00
368.89	0.00
369.09	0.00
369.28	0.00
369.48	0.00
369.68	0.00
369.87	0.00
370.07	0.00
370.27	0.00
370.47	0.00
370.66	0.00
370.86	0.00
371.06	9.36
371.25	0.00
371.45	0.00
371.65	0.00
371.84	0.00
372.04	2.34
372.24	0.00
372.44	9.36
372.63	0.00
372.83	126.39
373.03	4.68
373.22	60.85
373.42	42.13
373.62	30.43
373.81	23.41
374.01	42.13
374.21	21.06
374.40	0.00
374.60	79.58
374.79	28.09
374.99	53.83
375.19	11.70
375.38	35.11
375.58	63.19
375.78	21.06
375.97	67.88
376.17	35.11
376.37	9.36
376.56	16.38
376.76	0.00
376.95	0.00
377.15	44.47
377.35	72.56
377.54	63.19
377.74	56.17
377.93	0.00
378.13	49.15
378.33	53.83
378.52	0.00
378.72	67.88
378.91	23.41
379.11	63.19
379.31	25.75
379.50	51.49
379.70	91.28
379.89	156.82
380.09	86.60
380.28	7.02
380.48	16.38
380.68	7.02
380.87	25.75
381.07	23.41
381.26	0.00
381.46	9.36
381.65	0.00
381.85	0.00
382.04	44.47
382.24	23.41
382.43	16.38
382.63	9.36
382.83	51.49
383.02	7.02
383.22	4.68
383.41	0.00
383.61	0.00
383.80	107.66
384.00	18.72
384.19	0.00
384.39	0.00
384.58	0.00
384.78	0.00
384.97	60.85
385.17	0.00
385.36	44.47
385.56	56.17
385.75	23.41
385.95	23.41
386.14	84.26
386.34	37.45
386.53	7.02
386.72	0.00
386.92	25.75
387.11	32.77
387.31	2.34
387.50	70.22
387.70	70.22
387.89	7.02
388.09	0.00
388.28	63.19
388.48	81.92
388.67	25.75
388.86	44.47
389.06	0.00
389.25	46.81
389.45	35.11
389.64	72.56
389.84	44.47
390.03	56.17
390.22	42.13
390.42	79.58
390.61	51.49
390.81	42.13
391.00	58.51
391.19	51.49
391.39	0.00
391.58	0.00
391.78	0.00
391.97	0.00
392.16	35.11
392.36	23.41
392.55	42.13
392.75	0.00
392.94	2.34
393.13	0.00
393.33	0.00
393.52	11.70
393.71	37.45
393.91	65.54
394.10	51.49
394.29	0.00
394.49	11.70
394.68	0.00
394.88	81.92
395.07	28.09
395.26	72.56
395.46	16.38
395.65	39.79
395.84	0.00
396.04	32.77
396.23	32.77
396.42	79.58
396.62	21.06
396.81	51.49
397.00	0.00
397.19	53.83
397.39	16.38
397.58	0.00
397.77	0.00
397.97	0.00
398.16	0.00
398.35	42.13
398.55	23.41
398.74	39.79
398.93	72.56
399.12	16.38
399.32	60.85
399.51	65.54
399.70	18.72
399.90	7.02
400.09	56.17
400.28	21.06
400.47	16.38
400.67	32.77
400.86	23.41
401.05	0.00
401.24	49.15
401.44	32.77
401.63	0.00
401.82	65.54
402.01	9.36
402.21	0.00
402.40	2.34
402.59	0.00
402.78	0.00
402.97	51.49
403.17	0.00
403.36	65.54
403.55	25.75
403.74	44.47
403.93	0.00
404.13	0.00
404.32	0.00
404.51	23.41
404.70	81.92
404.89	18.72
405.09	117.03
405.28	63.19
405.47	84.26
405.66	37.45
405.85	30.43
406.05	95.96
406.24	56.17
406.43	72.56
406.62	18.72
406.81	46.81
407.00	77.24
407.20	51.49
407.39	81.92
407.58	0.00
407.77	30.43
407.96	0.00
408.15	0.00
408.34	53.83
408.54	46.81
408.73	51.49
408.92	9.36
409.11	86.60
409.30	32.77
409.49	0.00
409.68	70.22
409.87	35.11
410.07	39.79
410.26	53.83
410.45	35.11
410.64	30.43
410.83	14.04
411.02	44.47
411.21	7.02
411.40	72.56
411.59	39.79
411.78	53.83
411.98	0.00
412.17	119.37
412.36	35.11
412.55	67.88
412.74	25.75
412.93	86.60
413.12	74.90
413.31	25.75
413.50	58.51
413.69	14.04
413.88	81.92
414.07	0.00
414.26	39.79
414.45	67.88
414.64	51.49
414.83	0.00
415.02	21.06
415.22	60.85
415.41	32.77
415.60	14.04
415.79	44.47
415.98	7.02
416.17	7.02
416.36	32.77
416.55	35.11
416.74	86.60
416.93	21.06
417.12	32.77
417.31	2.34
417.50	14.04
417.69	56.17
417.88	88.94
418.07	119.37
418.26	46.81
418.45	0.00
418.64	128.73
418.83	14.04
419.02	42.13
419.21	77.24
419.39	28.09
419.58	81.92
419.77	72.56
419.96	67.88
420.15	86.60
420.34	107.66
420.53	51.49
420.72	46.81
420.91	25.75
421.10	11.70
421.29	86.60
421.48	35.11
421.67	21.06
421.86	0.00
422.05	0.00
422.24	39.79
422.43	39.79
422.61	98.30
422.80	81.92
422.99	4.68
423.18	81.92
423.37	16.38
423.56	53.83
423.75	67.88
423.94	23.41
424.13	79.58
424.32	79.58
424.50	42.13
424.69	84.26
424.88	67.88
425.07	58.51
425.26	95.96
425.45	0.00
425.64	0.00
425.83	72.56
426.01	74.90
426.20	44.47
426.39	0.00
426.58	30.43
426.77	28.09
426.96	37.45
427.15	0.00
427.33	74.90
427.52	119.37
427.71	58.51
427.90	28.09
428.09	23.41
428.28	0.00
428.46	53.83
428.65	4.68
428.84	7.02
429.03	88.94
429.22	11.70
429.40	91.28
429.59	30.43
429.78	72.56
429.97	105.32
430.16	42.13
430.34	0.00
430.53	35.11
430.72	65.54
430.91	112.35
431.10	51.49
431.28	32.77
431.47	86.60
431.66	42.13
431.85	46.81
432.03	4.68
432.22	18.72
432.41	25.75
432.60	0.00
432.79	30.43
432.97	28.09
433.16	70.22
433.35	70.22
433.54	39.79
433.72	105.32
433.91	25.75
434.10	79.58
434.28	0.00
434.47	93.62
434.66	72.56
434.85	0.00
435.03	4.68
435.22	7.02
435.41	28.09
435.59	58.51
435.78	0.00
435.97	58.51
436.16	100.64
436.34	0.00
436.53	39.79
436.72	95.96
436.90	7.02
437.09	98.30
437.28	49.15
437.46	74.90
437.65	117.03
437.84	53.83
438.02	0.00
438.21	2.34
438.40	72.56
438.58	65.54
438.77	72.56
438.96	28.09
439.14	95.96
439.33	84.26
439.52	32.77
439.70	84.26
439.89	42.13
440.08	86.60
440.26	102.98
440.45	4.68
440.63	35.11
440.82	95.96
441.01	65.54
441.19	23.41
441.38	42.13
441.57	49.15
441.75	117.03
441.94	88.94
442.12	95.96
442.31	9.36
442.50	63.19
442.68	53.83
442.87	35.11
443.05	32.77
443.24	44.47
443.43	84.26
443.61	67.88
443.80	23.41
443.98	46.81
444.17	35.11
444.35	88.94
444.54	56.17
444.73	9.36
444.91	49.15
445.10	39.79
445.28	44.47
445.47	44.47
445.65	84.26
445.84	63.19
446.02	74.90
446.21	63.19
446.39	53.83
446.58	79.58
446.77	32.77
446.95	39.79
447.14	65.54
447.32	49.15
447.51	30.43
447.69	121.71
447.88	25.75
448.06	44.47
448.25	95.96
448.43	72.56
448.62	51.49
448.80	88.94
448.99	7.02
449.17	60.85
449.36	18.72
449.54	77.24
449.73	9.36
449.91	77.24
450.10	107.66
450.28	88.94
450.46	65.54
450.65	35.11
450.83	98.30
451.02	37.45
451.20	86.60
451.39	60.85
451.57	60.85
451.76	49.15
451.94	77.24
452.13	114.69
452.31	100.64
452.49	88.94
452.68	2.34
452.86	30.43
453.05	11.70
453.23	110.01
453.42	95.96
453.60	53.83
453.78	110.01
453.97	58.51
454.15	25.75
454.34	46.81
454.52	93.62
454.70	16.38
454.89	86.60
455.07	44.47
455.26	107.66
455.44	49.15
455.62	51.49
455.81	133.41
455.99	11.70
456.17	4.68
456.36	16.38
456.54	105.32
456.73	35.11
456.91	107.66
457.09	42.13
457.28	35.11
457.46	166.18
457.64	65.54
457.83	25.75
458.01	53.83
458.19	56.17
458.38	74.90
458.56	84.26
458.74	63.19
458.93	30.43
459.11	102.98
459.29	58.51
459.48	9.36
459.66	32.77
459.84	81.92
460.03	100.64
460.21	42.13
460.39	91.28
460.57	44.47
460.76	35.11
460.94	53.83
461.12	60.85
461.31	9.36
461.49	4.68
461.67	21.06
461.85	81.92
462.04	107.66
462.22	177.88
462.40	102.98
462.59	93.62
462.77	42.13
462.95	114.69
463.13	63.19
463.32	84.26
463.50	95.96
463.68	124.05
463.86	86.60
464.05	32.77
464.23	42.13
464.41	119.37
464.59	46.81
464.78	74.90
464.96	39.79
465.14	18.72
465.32	88.94
465.50	23.41
465.69	58.51
465.87	49.15
466.05	44.47
466.23	102.98
466.41	98.30
466.60	0.00
466.78	25.75
466.96	2.34
467.14	32.77
467.32	100.64
467.51	98.30
467.69	49.15
467.87	46.81
468.05	46.81
468.23	91.28
468.41	72.56
468.60	91.28
468.78	21.06
468.96	72.56
469.14	58.51
469.32	0.00
469.50	138.09
469.69	53.83
469.87	37.45
470.05	58.51
470.23	11.70
470.41	25.75
470.59	32.77
470.77	49.15
470.95	154.48
471.14	74.90
471.32	98.30
471.50	46.81
471.68	32.77
471.86	49.15
472.04	0.00
472.22	39.79
472.40	16.38
472.58	81.92
472.77	11.70
472.95	93.62
473.13	63.19
473.31	18.72
473.49	18.72
473.67	0.00
473.85	14.04
474.03	18.72
474.21	88.94
474.39	70.22
474.57	70.22
474.75	0.00
474.93	37.45
475.12	124.05
475.30	0.00
475.48	93.62
475.66	56.17
475.84	77.24
476.02	95.96
476.20	98.30
476.38	32.77
476.56	72.56
476.74	37.45
476.92	21.06
477.10	23.41
477.28	0.00
477.46	42.13
477.64	74.90
477.82	102.98
478.00	46.81
478.18	56.17
478.36	81.92
478.54	72.56
478.72	63.19
478.90	30.43
479.08	11.70
479.26	0.00
479.44	60.85
479.62	107.66
479.80	84.26
479.98	35.11
480.16	84.26
480.34	58.51
480.52	65.54
480.70	65.54
480.88	0.00
481.06	35.11
481.24	28.09
481.41	28.09
481.59	46.81
481.77	156.82
481.95	93.62
482.13	51.49
482.31	114.69
482.49	53.83
482.67	42.13
482.85	63.19
483.03	98.30
483.21	74.90
483.39	0.00
483.57	18.72
483.74	81.92
483.92	58.51
484.10	23.41
484.28	44.47
484.46	46.81
484.64	30.43
484.82	0.00
485.00	119.37
485.18	35.11
485.35	81.92
485.53	63.19
485.71	51.49
485.89	95.96
486.07	91.28
486.25	72.56
486.43	63.19
486.61	7.02
486.78	44.47
486.96	18.72
487.14	51.49
487.32	95.96
487.50	88.94
487.68	35.11
487.85	100.64
488.03	72.56
488.21	88.94
488.39	42.13
488.57	60.85
488.75	46.81
488.92	91.28
489.10	51.49
489.28	95.96
489.46	65.54
489.64	126.39
489.81	35.11
489.99	98.30
490.17	58.51
490.35	77.24
490.53	121.71
490.70	53.83
490.88	23.41
491.06	70.22
491.24	51.49
491.41	110.01
491.59	72.56
491.77	95.96
491.95	0.00
492.13	65.54
492.30	72.56
492.48	63.19
492.66	53.83
492.84	0.00
493.01	77.24
493.19	93.62
493.37	131.07
493.54	37.45
493.72	95.96
493.90	65.54
494.08	60.85
494.25	60.85
494.43	156.82
494.61	51.49
494.79	0.00
494.96	88.94
495.14	100.64
495.32	53.83
495.49	65.54
495.67	77.24
495.85	58.51
496.02	110.01
496.20	65.54
496.38	91.28
496.55	56.17
496.73	11.70
496.91	49.15
497.09	84.26
497.26	25.75
497.44	86.60
497.62	72.56
497.79	98.30
497.97	63.19
498.14	142.77
498.32	35.11
498.50	95.96
498.67	16.38
498.85	98.30
499.03	74.90
499.20	21.06
499.38	30.43
499.56	58.51
499.73	149.79
499.91	77.24
500.08	65.54
500.26	0.00
500.44	30.43
500.61	84.26
500.79	98.30
500.97	77.24
501.14	35.11
501.32	107.66
501.49	42.13
501.67	100.64
501.84	98.30
502.02	121.71
502.20	25.75
502.37	60.85
502.55	121.71
502.72	138.09
502.90	77.24
503.07	93.62
503.25	79.58
503.43	147.45
503.60	65.54
503.78	100.64
503.95	60.85
504.13	147.45
504.30	25.75
504.48	91.28
504.65	117.03
504.83	74.90
505.01	163.84
505.18	142.77
505.36	91.28
505.53	35.11
505.71	53.83
505.88	91.28
506.06	119.37
506.23	159.16
506.41	18.72
506.58	105.32
506.76	72.56
506.93	124.05
507.11	25.75
507.28	32.77
507.46	79.58
507.63	84.26
507.81	110.01
507.98	112.35
508.16	0.00
508.33	135.75
508.50	51.49
508.68	133.41
508.85	84.26
509.03	42.13
509.20	81.92
509.38	124.05
509.55	149.79
509.73	56.17
509.90	9.36
510.08	32.77
510.25	25.75
510.42	86.60
510.60	100.64
510.77	114.69
510.95	86.60
511.12	60.85
511.30	110.01
511.47	147.45
511.64	105.32
511.82	133.41
511.99	86.60
512.17	74.90
512.34	124.05
512.51	91.28
512.69	56.17
512.86	63.19
513.04	119.37
513.21	79.58
513.38	102.98
513.56	156.82
513.73	49.15
513.90	11.70
514.08	93.62
514.25	128.73
514.43	140.43
514.60	60.85
514.77	88.94
514.95	60.85
515.12	102.98
515.29	42.13
515.47	53.83
515.64	142.77
515.81	107.66
515.99	128.73
516.16	138.09
516.33	161.50
516.51	70.22
516.68	117.03
516.85	102.98
517.03	156.82
517.20	67.88
517.37	175.54
517.54	100.64
517.72	110.01
517.89	53.83
518.06	0.00
518.24	114.69
518.41	128.73
518.58	21.06
518.75	46.81
518.93	63.19
519.10	126.39
519.27	187.24
519.45	32.77
519.62	67.88
519.79	124.05
519.96	58.51
520.14	35.11
520.31	102.98
520.48	93.62
520.65	91.28
520.83	110.01
521.00	65.54
521.17	42.13
521.34	114.69
521.52	72.56
521.69	126.39
521.86	74.90
522.03	95.96
522.20	88.94
522.38	72.56
522.55	58.51
522.72	131.07
522.89	93.62
523.07	58.51
523.24	102.98
523.41	117.03
523.58	128.73
523.75	138.09
523.92	77.24
524.10	35.11
524.27	112.35
524.44	79.58
524.61	72.56
524.78	53.83
524.96	42.13
525.13	28.09
525.30	166.18
525.47	91.28
525.64	107.66
525.81	131.07
525.98	93.62
526.16	170.86
526.33	37.45
526.50	53.83
526.67	114.69
526.84	67.88
527.01	135.75
527.18	72.56
527.36	100.64
527.53	72.56
527.70	119.37
527.87	86.60
528.04	49.15
528.21	70.22
528.38	81.92
528.55	105.32
528.72	124.05
528.89	28.09
529.07	110.01
529.24	84.26
529.41	81.92
529.58	53.83
529.75	105.32
529.92	114.69
530.09	72.56
530.26	16.38
530.43	140.43
530.60	72.56
530.77	102.98
530.94	58.51
531.11	124.05
531.28	21.06
531.46	100.64
531.63	51.49
531.80	79.58
531.97	86.60
532.14	56.17
532.31	84.26
532.48	112.35
532.65	53.83
532.82	124.05
532.99	77.24
533.16	79.58
533.33	86.60
533.50	91.28
533.67	67.88
533.84	81.92
534.01	37.45
534.18	72.56
534.35	72.56
534.52	145.11
534.69	124.05
534.86	56.17
535.03	128.73
535.20	49.15
535.37	152.13
535.54	91.28
535.71	72.56
535.88	93.62
536.05	53.83
536.22	175.54
536.38	133.41
536.55	161.50
536.72	119.37
536.89	145.11
537.06	166.18
537.23	114.69
537.40	79.58
537.57	110.01
537.74	95.96
537.91	67.88
538.08	112.35
538.25	131.07
538.42	86.60
538.59	98.30
538.75	110.01
538.92	23.41
539.09	70.22
539.26	46.81
539.43	25.75
539.60	95.96
539.77	56.17
539.94	35.11
540.11	100.64
540.28	63.19
540.44	65.54
540.61	60.85
540.78	105.32
540.95	58.51
541.12	35.11
541.29	81.92
541.46	121.71
541.62	72.56
541.79	131.07
541.96	60.85
542.13	117.03
542.30	131.07
542.47	84.26
542.63	93.62
542.80	70.22
542.97	63.19
543.14	98.30
543.31	74.90
543.48	28.09
543.64	138.09
543.81	91.28
543.98	49.15
544.15	93.62
544.32	37.45
544.48	51.49
544.65	105.32
544.82	159.16
544.99	88.94
545.16	86.60
545.32	23.41
545.49	102.98
545.66	98.30
545.83	60.85
546.00	25.75
546.16	49.15
546.33	114.69
546.50	79.58
546.67	84.26
546.83	74.90
547.00	53.83
547.17	72.56
547.34	91.28
547.50	21.06
547.67	35.11
547.84	145.11
548.00	98.30
548.17	131.07
548.34	49.15
548.51	67.88
548.67	74.90
548.84	107.66
549.01	93.62
549.18	74.90
549.34	65.54
549.51	95.96
549.68	77.24
549.84	102.98
550.01	119.37
550.18	128.73
550.34	60.85
550.51	44.47
550.68	107.66
550.84	74.90
551.01	135.75
551.18	117.03
551.34	72.56
551.51	88.94
551.68	163.84
551.84	56.17
552.01	37.45
552.18	93.62
552.34	86.60
552.51	112.35
552.68	77.24
552.84	95.96
553.01	88.94
553.18	124.05
553.34	67.88
553.51	98.30
553.67	60.85
553.84	86.60
554.01	58.51
554.17	119.37
554.34	84.26
554.51	44.47
554.67	63.19
554.84	65.54
555.00	117.03
555.17	44.47
555.33	11.70
555.50	49.15
555.67	67.88
555.83	105.32
556.00	49.15
556.16	65.54
556.33	173.20
556.50	107.66
556.66	102.98
556.83	60.85
556.99	42.13
557.16	102.98
557.32	88.94
557.49	88.94
557.65	49.15
557.82	63.19
557.98	49.15
558.15	30.43
558.32	72.56
558.48	65.54
558.65	117.03
558.81	25.75
558.98	110.01
559.14	67.88
559.31	79.58
559.47	84.26
559.64	98.30
559.80	32.77
559.97	147.45
560.13	124.05
560.30	126.39
560.46	67.88
560.63	126.39
560.79	121.71
560.96	81.92
561.12	63.19
561.29	77.24
561.45	93.62
561.61	91.28
561.78	32.77
561.94	117.03
562.11	65.54
562.27	133.41
562.44	107.66
562.60	37.45
562.77	93.62
562.93	53.83
563.10	119.37
563.26	124.05
563.42	114.69
563.59	93.62
563.75	35.11
563.92	163.84
564.08	42.13
564.24	114.69
564.41	70.22
564.57	79.58
564.74	119.37
564.90	70.22
565.07	65.54
565.23	35.11
565.39	60.85
565.56	65.54
565.72	79.58
565.88	53.83
566.05	77.24
566.21	46.81
566.38	112.35
566.54	107.66
566.70	159.16
566.87	124.05
567.03	107.66
567.19	0.00
567.36	79.58
567.52	56.17
567.68	86.60
567.85	147.45
568.01	44.47
568.17	58.51
568.34	77.24
568.50	81.92
568.66	102.98
568.83	88.94
568.99	88.94
569.15	16.38
569.32	110.01
569.48	25.75
569.64	98.30
569.81	147.45
569.97	93.62
570.13	77.24
570.30	56.17
570.46	84.26
570.62	91.28
570.78	72.56
570.95	93.62
571.11	121.71
571.27	16.38
571.43	46.81
571.60	88.94
571.76	51.49
571.92	86.60
572.09	117.03
572.25	86.60
572.41	60.85
572.57	0.00
572.74	81.92
572.90	102.98
573.06	140.43
573.22	138.09
573.38	112.35
573.55	100.64
573.71	135.75
573.87	30.43
574.03	32.77
574.20	37.45
574.36	56.17
574.52	145.11
574.68	74.90
574.84	86.60
575.01	91.28
575.17	70.22
575.33	51.49
575.49	133.41
575.65	46.81
575.82	84.26
575.98	98.30
576.14	11.70
576.30	117.03
576.46	119.37
576.62	53.83
576.79	58.51
576.95	70.22
577.11	72.56
577.27	60.85
577.43	100.64
577.59	44.47
577.75	114.69
577.92	124.05
578.08	65.54
578.24	32.77
578.40	16.38
578.56	23.41
578.72	84.26
578.88	86.60
579.04	23.41
579.21	0.00
579.37	74.90
579.53	84.26
579.69	107.66
579.85	51.49
580.01	74.90
580.17	112.35
580.33	79.58
580.49	114.69
580.65	81.92
580.82	81.92
580.98	23.41
581.14	74.90
581.30	95.96
581.46	46.81
581.62	110.01
581.78	65.54
581.94	72.56
582.10	70.22
582.26	58.51
582.42	18.72
582.58	124.05
582.74	84.26
582.90	2.34
583.06	86.60
583.22	79.58
583.38	58.51
583.54	81.92
583.70	91.28
583.86	100.64
584.02	117.03
584.18	39.79
584.34	84.26
584.50	102.98
584.66	77.24
584.82	86.60
584.98	105.32
585.14	46.81
585.30	93.62
585.46	70.22
585.62	65.54
585.78	32.77
585.94	77.24
586.10	86.60
586.26	131.07
586.42	142.77
586.58	84.26
586.74	65.54
586.90	95.96
587.06	67.88
587.22	81.92
587.38	105.32
587.54	28.09
587.70	67.88
587.86	9.36
588.02	30.43
588.18	44.47
588.34	60.85
588.49	46.81
588.65	110.01
588.81	49.15
588.97	0.00
589.13	131.07
589.29	0.00
589.45	88.94
589.61	72.56
589.77	56.17
589.93	14.04
590.08	35.11
590.24	119.37
590.40	88.94
590.56	39.79
590.72	0.00
590.88	63.19
591.04	110.01
591.20	28.09
591.35	77.24
591.51	102.98
591.67	28.09
591.83	74.90
591.99	81.92
592.15	119.37
592.31	21.06
592.46	51.49
592.62	70.22
592.78	100.64
592.94	42.13
593.10	74.90
593.26	53.83
593.41	49.15
593.57	65.54
593.73	56.17
593.89	46.81
594.05	135.75
594.20	74.90
594.36	112.35
594.52	84.26
594.68	39.79
594.84	39.79
594.99	98.30
595.15	23.41
595.31	21.06
595.47	35.11
595.62	72.56
595.78	98.30
595.94	49.15
596.10	93.62
596.25	84.26
596.41	0.00
596.57	107.66
596.73	81.92
596.88	105.32
597.04	173.20
597.20	112.35
597.36	60.85
597.51	32.77
597.67	49.15
597.83	81.92
597.99	126.39
598.14	91.28
598.30	112.35
598.46	63.19
598.61	107.66
598.77	119.37
598.93	0.00
599.09	35.11
599.24	35.11
599.40	60.85
599.56	49.15
599.71	23.41
599.87	49.15
600.03	124.05
600.18	56.17
600.34	63.19
600.50	25.75
600.65	39.79
600.81	58.51
600.97	67.88
601.12	63.19
601.28	112.35
601.44	154.48
601.59	126.39
601.75	37.45
601.91	14.04
602.06	65.54
602.22	42.13
602.37	119.37
602.53	23.41
602.69	56.17
602.84	35.11
603.00	0.00
603.16	84.26
603.31	79.58
603.47	91.28
603.62	124.05
603.78	126.39
603.94	98.30
604.09	58.51
604.25	135.75
604.40	67.88
604.56	138.09
604.71	121.71
604.87	53.83
605.03	110.01
605.18	46.81
605.34	88.94
605.49	9.36
605.65	30.43
605.80	37.45
605.96	4.68
606.12	51.49
606.27	81.92
606.43	95.96
606.58	56.17
606.74	93.62
606.89	46.81
607.05	63.19
607.20	56.17
607.36	114.69
607.51	119.37
607.67	147.45
607.82	81.92
607.98	154.48
608.13	88.94
608.29	114.69
608.44	65.54
608.60	23.41
608.75	35.11
608.91	124.05
609.06	28.09
609.22	42.13
609.37	58.51
609.53	39.79
609.68	37.45
609.84	53.83
609.99	46.81
610.15	79.58
610.30	30.43
610.46	105.32
610.61	18.72
610.76	0.00
610.92	49.15
611.07	117.03
611.23	79.58
611.38	131.07
611.54	107.66
611.69	53.83
611.84	98.30
612.00	105.32
612.15	91.28
612.31	74.90
612.46	44.47
612.62	100.64
612.77	77.24
612.92	42.13
613.08	110.01
613.23	4.68
613.39	28.09
613.54	126.39
613.69	145.11
613.85	86.60
614.00	74.90
614.15	49.15
614.31	30.43
614.46	121.71
614.62	14.04
614.77	110.01
614.92	35.11
615.08	79.58
615.23	65.54
615.38	110.01
615.54	112.35
615.69	119.37
615.84	65.54
616.00	60.85
616.15	32.77
616.30	23.41
616.46	0.00
616.61	60.85
616.76	46.81
616.92	44.47
617.07	81.92
617.22	23.41
617.37	77.24
617.53	60.85
617.68	42.13
617.83	88.94
617.99	23.41
618.14	42.13
618.29	56.17
618.45	74.90
618.60	23.41
618.75	91.28
618.90	46.81
619.06	77.24
619.21	107.66
619.36	77.24
619.51	70.22
619.67	58.51
619.82	56.17
619.97	88.94
620.12	25.75
620.28	18.72
620.43	42.13
620.58	14.04
620.73	39.79
620.89	74.90
621.04	100.64
621.19	126.39
621.34	72.56
621.49	74.90
621.65	35.11
621.80	110.01
621.95	2.34
622.10	77.24
622.25	63.19
622.41	74.90
622.56	21.06
622.71	98.30
622.86	84.26
623.01	98.30
623.16	32.77
623.32	21.06
623.47	72.56
623.62	81.92
623.77	112.35
623.92	91.28
624.07	51.49
624.23	63.19
624.38	79.58
624.53	81.92
624.68	86.60
624.83	51.49
624.98	79.58
625.13	46.81
625.29	93.62
625.44	16.38
625.59	105.32
625.74	4.68
625.89	0.00
626.04	25.75
626.19	44.47
626.34	77.24
626.49	0.00
626.65	14.04
626.80	65.54
626.95	32.77
627.10	60.85
627.25	128.73
627.40	72.56
627.55	28.09
627.70	53.83
627.85	88.94
628.00	60.85
628.15	140.43
628.30	74.90
628.45	58.51
628.60	65.54
628.76	100.64
628.91	30.43
629.06	25.75
629.21	128.73
629.36	37.45
629.51	67.88
629.66	95.96
629.81	93.62
629.96	91.28
630.11	0.00
630.26	46.81
630.41	110.01
630.56	0.00
630.71	60.85
630.86	60.85
631.01	53.83
631.16	58.51
631.31	91.28
631.46	44.47
631.61	49.15
631.76	74.90
631.91	128.73
632.06	42.13
632.21	135.75
632.36	74.90
632.51	63.19
632.66	56.17
632.81	56.17
632.96	74.90
633.10	37.45
633.25	53.83
633.40	53.83
633.55	81.92
633.70	105.32
633.85	110.01
634.00	30.43
634.15	121.71
634.30	91.28
634.45	4.68
634.60	81.92
634.75	39.79
634.90	114.69
635.05	0.00
635.19	88.94
635.34	51.49
635.49	46.81
635.64	93.62
635.79	18.72
635.94	70.22
636.09	65.54
636.24	53.83
636.39	14.04
636.53	81.92
636.68	37.45
636.83	67.88
636.98	58.51
637.13	142.77
637.28	39.79
637.43	37.45
637.57	107.66
637.72	77.24
637.87	21.06
638.02	114.69
638.17	37.45
638.32	0.00
638.46	93.62
638.61	77.24
638.76	88.94
638.91	114.69
639.06	65.54
639.20	88.94
639.35	84.26
639.50	53.83
639.65	21.06
639.80	56.17
639.94	70.22
640.09	79.58
640.24	79.58
640.39	0.00
640.54	88.94
640.68	0.00
640.83	16.38
640.98	110.01
641.13	95.96
641.27	56.17
641.42	84.26
641.57	91.28
641.72	86.60
641.86	42.13
642.01	65.54
642.16	79.58
642.31	77.24
642.45	74.90
642.60	79.58
642.75	58.51
642.90	70.22
643.04	65.54
643.19	49.15
643.34	117.03
643.48	51.49
643.63	0.00
643.78	39.79
643.93	72.56
644.07	0.00
644.22	65.54
644.37	28.09
644.51	60.85
644.66	86.60
644.81	105.32
644.95	39.79
645.10	21.06
645.25	88.94
645.39	70.22
645.54	56.17
645.69	21.06
645.83	65.54
645.98	84.26
646.13	0.00
646.27	37.45
646.42	25.75
646.57	35.11
646.71	100.64
646.86	77.24
647.00	166.18
647.15	44.47
647.30	9.36
647.44	70.22
647.59	126.39
647.74	77.24
647.88	60.85
648.03	86.60
648.17	65.54
648.32	133.41
648.47	28.09
648.61	72.56
648.76	7.02
648.90	39.79
649.05	60.85
649.20	0.00
649.34	112.35
649.49	72.56
649.63	119.37
649.78	93.62
649.92	119.37
650.07	0.00
650.21	138.09
650.36	14.04
650.51	77.24
650.65	67.88
650.80	58.51
650.94	84.26
651.09	30.43
651.23	9.36
651.38	60.85
651.52	60.85
651.67	107.66
651.81	18.72
651.96	72.56
652.10	81.92
652.25	95.96
652.39	23.41
652.54	77.24
652.68	35.11
652.83	114.69
652.97	49.15
653.12	56.17
653.26	28.09
653.41	88.94
653.55	18.72
653.70	77.24
653.84	128.73
653.99	84.26
654.13	102.98
654.27	9.36
654.42	0.00
654.56	58.51
654.71	25.75
654.85	58.51
655.00	42.13
655.14	46.81
655.29	86.60
655.43	46.81
655.57	67.88
655.72	51.49
655.86	67.88
656.01	91.28
656.15	14.04
656.30	9.36
656.44	7.02
656.58	7.02
656.73	51.49
656.87	18.72
657.01	39.79
657.16	0.00
657.30	28.09
657.45	67.88
657.59	49.15
657.73	51.49
657.88	28.09
658.02	9.36
658.16	49.15
658.31	11.70
658.45	67.88
658.60	70.22
658.74	91.28
658.88	74.90
659.03	18.72
659.17	37.45
659.31	65.54
659.46	32.77
659.60	72.56
659.74	32.77
659.89	159.16
660.03	102.98
660.17	79.58
660.32	28.09
660.46	37.45
660.60	32.77
660.74	35.11
660.89	105.32
661.03	107.66
661.17	58.51
661.32	25.75
661.46	102.98
661.60	18.72
661.74	70.22
661.89	88.94
662.03	117.03
662.17	9.36
662.31	77.24
662.46	39.79
662.60	70.22
662.74	0.00
662.88	16.38
663.03	60.85
663.17	93.62
663.31	42.13
663.45	67.88
663.60	0.00
663.74	107.66
663.88	98.30
664.02	84.26
664.17	110.01
664.31	9.36
664.45	18.72
664.59	60.85
664.73	11.70
664.88	18.72
665.02	25.75
665.16	0.00
665.30	60.85
665.44	51.49
665.59	70.22
665.73	124.05
665.87	84.26
666.01	49.15
666.15	46.81
666.29	86.60
666.44	39.79
666.58	110.01
666.72	119.37
666.86	60.85
667.00	23.41
667.14	67.88
667.28	49.15
667.43	98.30
667.57	51.49
667.71	72.56
667.85	65.54
667.99	98.30
668.13	98.30
668.27	25.75
668.41	42.13
668.56	60.85
668.70	30.43
668.84	60.85
668.98	44.47
669.12	95.96
669.26	39.79
669.40	30.43
669.54	105.32
669.68	0.00
669.82	63.19
669.96	124.05
670.10	37.45
670.25	60.85
670.39	74.90
670.53	46.81
670.67	0.00
670.81	114.69
670.95	60.85
671.09	154.48
671.23	60.85
671.37	79.58
671.51	7.02
671.65	0.00
671.79	56.17
671.93	53.83
672.07	98.30
672.21	25.75
672.35	56.17
672.49	49.15
672.63	98.30
672.77	58.51
672.91	21.06
673.05	77.24
673.19	25.75
673.33	46.81
673.47	0.00
673.61	84.26
673.75	14.04
673.89	112.35
674.03	81.92
674.17	18.72
674.31	0.00
674.45	77.24
674.59	37.45
674.73	46.81
674.87	0.00
675.01	110.01
675.15	0.00
675.29	95.96
675.43	98.30
675.56	100.64
675.70	35.11
675.84	4.68
675.98	79.58
676.12	53.83
676.26	11.70
676.40	65.54
676.54	98.30
676.68	2.34
676.82	39.79
676.96	117.03
677.10	105.32
677.23	0.00
677.37	32.77
677.51	126.39
677.65	0.00
677.79	25.75
677.93	72.56
678.07	0.00
678.21	58.51
678.34	18.72
678.48	32.77
678.62	51.49
678.76	0.00
678.90	135.75
679.04	0.00
679.18	74.90
679.31	49.15
679.45	51.49
679.59	88.94
679.73	58.51
679.87	37.45
680.00	63.19
680.14	105.32
680.28	86.60
680.42	51.49
680.56	60.85
680.70	88.94
680.83	4.68
680.97	9.36
681.11	86.60
681.25	107.66
681.39	88.94
681.52	70.22
681.66	42.13
681.80	126.39
681.94	23.41
682.07	84.26
682.21	49.15
682.35	79.58
682.49	117.03
682.62	63.19
682.76	84.26
682.90	37.45
683.04	0.00
683.17	0.00
683.31	0.00
683.45	79.58
683.59	0.00
683.72	46.81
683.86	21.06
684.00	105.32
684.13	65.54
684.27	58.51
684.41	4.68
684.55	14.04
684.68	2.34
684.82	51.49
684.96	0.00
685.09	30.43
685.23	112.35
685.37	39.79
685.50	0.00
685.64	84.26
685.78	35.11
685.91	0.00
686.05	53.83
686.19	72.56
686.32	14.04
686.46	49.15
686.60	0.00
686.73	49.15
686.87	35.11
687.01	14.04
687.14	0.00
687.28	42.13
687.42	30.43
687.55	93.62
687.69	107.66
687.82	84.26
687.96	14.04
688.10	25.75
688.23	65.54
688.37	32.77
688.50	21.06
688.64	0.00
688.78	77.24
688.91	16.38
689.05	35.11
689.18	18.72
689.32	56.17
689.46	65.54
689.59	63.19
689.73	37.45
689.86	42.13
690.00	0.00
690.13	35.11
690.27	4.68
690.41	49.15
690.54	112.35
690.68	0.00
690.81	79.58
690.95	0.00
691.08	25.75
691.22	102.98
691.35	0.00
691.49	14.04
691.62	21.06
691.76	98.30
691.89	0.00
692.03	0.00
692.16	39.79
692.30	42.13
692.43	53.83
692.57	98.30
692.70	72.56
692.84	2.34
692.97	25.75
693.11	37.45
693.24	58.51
693.38	44.47
693.51	0.00
693.65	9.36
693.78	28.09
693.92	32.77
694.05	65.54
694.19	21.06
694.32	49.15
694.45	0.00
694.59	30.43
694.72	72.56
694.86	63.19
694.99	9.36
695.13	37.45
695.26	56.17
695.39	23.41
695.53	65.54
695.66	49.15
695.80	35.11
695.93	25.75
696.07	2.34
696.20	21.06
696.33	21.06
696.47	37.45
696.60	91.28
696.73	35.11
696.87	60.85
697.00	18.72
697.14	0.00
697.27	0.00
697.40	114.69
697.54	25.75
697.67	30.43
697.80	74.90
697.94	81.92
698.07	0.00
698.21	0.00
698.34	46.81
698.47	44.47
698.61	42.13
698.74	23.41
698.87	37.45
699.01	119.37
699.14	77.24
699.27	110.01
699.40	72.56
699.54	0.00
699.67	88.94
699.80	42.13
699.94	44.47
700.07	9.36
700.20	72.56
700.34	0.00
700.47	53.83
700.60	88.94
700.73	18.72
700.87	100.64
701.00	46.81
701.13	0.00
701.26	9.36
701.40	0.00
701.53	56.17
701.66	110.01
701.79	46.81
701.93	51.49
702.06	18.72
702.19	0.00
702.32	35.11
702.46	44.47
702.59	0.00
702.72	14.04
702.85	23.41
702.99	51.49
703.12	14.04
703.25	91.28
703.38	65.54
703.51	9.36
703.65	32.77
703.78	44.47
703.91	11.70
704.04	79.58
704.17	25.75
704.31	60.85
704.44	39.79
704.57	49.15
704.70	46.81
704.83	74.90
704.96	51.49
705.10	2.34
705.23	46.81
>>>>>End Processed Spectral Data<<<<<
