SpectraSuite Data File
++++++++++++++++++++++++++++++++++++
Date: Tue Oct 01 18:25:09 GMT-05:00 2013
User: stostad
Dark Spectrum Present: No
Reference Spectrum Present: No
Number of Sampled Component Spectra: 1
Spectrometers: USB2+H05261
Integration Time (usec): 100000 (USB2+H05261)
Spectra Averaged: 1 (USB2+H05261)
Boxcar Smoothing: 0 (USB2+H05261)
Correct for Electrical Dark: No (USB2+H05261)
Strobe/Lamp Enabled: No (USB2+H05261)
Correct for Detector Non-linearity: No (USB2+H05261)
Correct for Stray Light: No (USB2+H05261)
Number of Pixels in Processed Spectrum: 2048
>>>>>Begin Processed Spectral Data<<<<<
365.73	18.72
365.92	18.72
366.12	18.72
366.32	0.00
366.52	0.00
366.72	0.00
366.91	0.00
367.11	0.00
367.31	0.00
367.51	0.00
367.70	0.00
367.90	0.00
368.10	0.00
368.30	11.70
368.49	0.00
368.69	9.36
368.89	0.00
369.09	0.00
369.28	14.04
369.48	0.00
369.68	0.00
369.87	51.49
370.07	23.41
370.27	91.28
370.47	51.49
370.66	77.24
370.86	77.24
371.06	140.43
371.25	25.75
371.45	32.77
371.65	107.66
371.84	65.54
372.04	23.41
372.24	117.03
372.44	84.26
372.63	205.97
372.83	152.13
373.03	145.11
373.22	107.66
373.42	133.41
373.62	86.60
373.81	128.73
374.01	205.97
374.21	208.31
374.40	198.95
374.60	147.45
374.79	156.82
374.99	63.19
375.19	142.77
375.38	102.98
375.58	117.03
375.78	142.77
375.97	177.88
376.17	238.73
376.37	124.05
376.56	196.60
376.76	107.66
376.95	105.32
377.15	135.75
377.35	154.48
377.54	170.86
377.74	147.45
377.93	121.71
378.13	74.90
378.33	224.69
378.52	187.24
378.72	142.77
378.91	154.48
379.11	180.22
379.31	140.43
379.50	149.79
379.70	152.13
379.89	133.41
380.09	70.22
380.28	124.05
380.48	161.50
380.68	149.79
380.87	126.39
381.07	119.37
381.26	166.18
381.46	124.05
381.65	100.64
381.85	131.07
382.04	88.94
382.24	156.82
382.43	220.01
382.63	142.77
382.83	119.37
383.02	140.43
383.22	154.48
383.41	147.45
383.61	138.09
383.80	112.35
384.00	147.45
384.19	114.69
384.39	135.75
384.58	156.82
384.78	133.41
384.97	194.26
385.17	135.75
385.36	138.09
385.56	203.63
385.75	121.71
385.95	72.56
386.14	140.43
386.34	140.43
386.53	138.09
386.72	88.94
386.92	114.69
387.11	208.31
387.31	128.73
387.50	112.35
387.70	112.35
387.89	156.82
388.09	102.98
388.28	145.11
388.48	98.30
388.67	119.37
388.86	100.64
389.06	152.13
389.25	102.98
389.45	161.50
389.64	128.73
389.84	147.45
390.03	149.79
390.22	133.41
390.42	126.39
390.61	60.85
390.81	135.75
391.00	175.54
391.19	102.98
391.39	170.86
391.58	147.45
391.78	177.88
391.97	131.07
392.16	142.77
392.36	175.54
392.55	140.43
392.75	128.73
392.94	121.71
393.13	93.62
393.33	180.22
393.52	102.98
393.71	126.39
393.91	131.07
394.10	184.90
394.29	156.82
394.49	124.05
394.68	201.29
394.88	196.60
395.07	133.41
395.26	138.09
395.46	205.97
395.65	212.99
395.84	173.20
396.04	276.18
396.23	88.94
396.42	93.62
396.62	180.22
396.81	91.28
397.00	154.48
397.19	88.94
397.39	112.35
397.58	196.60
397.77	168.52
397.97	135.75
398.16	145.11
398.35	145.11
398.55	77.24
398.74	201.29
398.93	175.54
399.12	98.30
399.32	133.41
399.51	194.26
399.70	77.24
399.90	81.92
400.09	126.39
400.28	156.82
400.47	65.54
400.67	156.82
400.86	145.11
401.05	121.71
401.24	238.73
401.44	112.35
401.63	175.54
401.82	201.29
402.01	56.17
402.21	79.58
402.40	107.66
402.59	110.01
402.78	149.79
402.97	156.82
403.17	154.48
403.36	133.41
403.55	194.26
403.74	205.97
403.93	124.05
404.13	229.37
404.32	180.22
404.51	126.39
404.70	170.86
404.89	117.03
405.09	201.29
405.28	44.47
405.47	131.07
405.66	128.73
405.85	100.64
406.05	149.79
406.24	180.22
406.43	152.13
406.62	110.01
406.81	154.48
407.00	102.98
407.20	128.73
407.39	168.52
407.58	189.58
407.77	93.62
407.96	149.79
408.15	208.31
408.34	182.56
408.54	91.28
408.73	142.77
408.92	86.60
409.11	196.60
409.30	140.43
409.49	72.56
409.68	152.13
409.87	187.24
410.07	156.82
410.26	70.22
410.45	126.39
410.64	39.79
410.83	84.26
411.02	133.41
411.21	222.35
411.40	133.41
411.59	166.18
411.78	102.98
411.98	95.96
412.17	159.16
412.36	149.79
412.55	86.60
412.74	110.01
412.93	177.88
413.12	121.71
413.31	135.75
413.50	180.22
413.69	182.56
413.88	203.63
414.07	114.69
414.26	112.35
414.45	46.81
414.64	100.64
414.83	173.20
415.02	156.82
415.22	135.75
415.41	128.73
415.60	156.82
415.79	166.18
415.98	149.79
416.17	175.54
416.36	138.09
416.55	105.32
416.74	126.39
416.93	149.79
417.12	187.24
417.31	121.71
417.50	105.32
417.69	156.82
417.88	128.73
418.07	131.07
418.26	238.73
418.45	142.77
418.64	245.76
418.83	210.65
419.02	187.24
419.21	191.92
419.39	229.37
419.58	60.85
419.77	102.98
419.96	159.16
420.15	166.18
420.34	88.94
420.53	152.13
420.72	105.32
420.91	79.58
421.10	98.30
421.29	145.11
421.48	142.77
421.67	147.45
421.86	168.52
422.05	152.13
422.24	77.24
422.43	53.83
422.61	126.39
422.80	126.39
422.99	175.54
423.18	133.41
423.37	205.97
423.56	196.60
423.75	77.24
423.94	67.88
424.13	138.09
424.32	180.22
424.50	180.22
424.69	208.31
424.88	175.54
425.07	114.69
425.26	184.90
425.45	224.69
425.64	194.26
425.83	177.88
426.01	201.29
426.20	135.75
426.39	147.45
426.58	126.39
426.77	93.62
426.96	184.90
427.15	105.32
427.33	117.03
427.52	126.39
427.71	131.07
427.90	112.35
428.09	121.71
428.28	98.30
428.46	170.86
428.65	187.24
428.84	133.41
429.03	105.32
429.22	70.22
429.40	105.32
429.59	105.32
429.78	166.18
429.97	107.66
430.16	91.28
430.34	100.64
430.53	110.01
430.72	163.84
430.91	126.39
431.10	51.49
431.28	119.37
431.47	124.05
431.66	203.63
431.85	91.28
432.03	180.22
432.22	220.01
432.41	67.88
432.60	145.11
432.79	229.37
432.97	220.01
433.16	187.24
433.35	156.82
433.54	189.58
433.72	175.54
433.91	138.09
434.10	177.88
434.28	182.56
434.47	142.77
434.66	173.20
434.85	102.98
435.03	114.69
435.22	159.16
435.41	203.63
435.59	91.28
435.78	175.54
435.97	170.86
436.16	184.90
436.34	84.26
436.53	173.20
436.72	102.98
436.90	79.58
437.09	138.09
437.28	138.09
437.46	88.94
437.65	198.95
437.84	128.73
438.02	91.28
438.21	142.77
438.40	154.48
438.58	98.30
438.77	84.26
438.96	107.66
439.14	177.88
439.33	205.97
439.52	159.16
439.70	189.58
439.89	163.84
440.08	161.50
440.26	142.77
440.45	173.20
440.63	91.28
440.82	121.71
441.01	105.32
441.19	93.62
441.38	145.11
441.57	88.94
441.75	131.07
441.94	149.79
442.12	154.48
442.31	114.69
442.50	74.90
442.68	142.77
442.87	98.30
443.05	107.66
443.24	182.56
443.43	135.75
443.61	135.75
443.80	135.75
443.98	79.58
444.17	77.24
444.35	105.32
444.54	177.88
444.73	84.26
444.91	180.22
445.10	102.98
445.28	98.30
445.47	140.43
445.65	131.07
445.84	119.37
446.02	84.26
446.21	138.09
446.39	60.85
446.58	149.79
446.77	145.11
446.95	198.95
447.14	140.43
447.32	182.56
447.51	166.18
447.69	140.43
447.88	184.90
448.06	250.44
448.25	212.99
448.43	98.30
448.62	95.96
448.80	131.07
448.99	124.05
449.17	166.18
449.36	175.54
449.54	124.05
449.73	74.90
449.91	187.24
450.10	149.79
450.28	140.43
450.46	189.58
450.65	166.18
450.83	135.75
451.02	163.84
451.20	140.43
451.39	163.84
451.57	201.29
451.76	159.16
451.94	112.35
452.13	119.37
452.31	117.03
452.49	98.30
452.68	107.66
452.86	154.48
453.05	119.37
453.23	135.75
453.42	74.90
453.60	121.71
453.78	156.82
453.97	105.32
454.15	128.73
454.34	182.56
454.52	105.32
454.70	107.66
454.89	133.41
455.07	107.66
455.26	135.75
455.44	93.62
455.62	133.41
455.81	140.43
455.99	168.52
456.17	138.09
456.36	93.62
456.54	126.39
456.73	95.96
456.91	147.45
457.09	84.26
457.28	124.05
457.46	201.29
457.64	182.56
457.83	166.18
458.01	168.52
458.19	189.58
458.38	149.79
458.56	180.22
458.74	105.32
458.93	175.54
459.11	131.07
459.29	166.18
459.48	220.01
459.66	208.31
459.84	182.56
460.03	301.93
460.21	182.56
460.39	147.45
460.57	154.48
460.76	142.77
460.94	107.66
461.12	248.10
461.31	170.86
461.49	177.88
461.67	212.99
461.85	128.73
462.04	159.16
462.22	615.56
462.40	198.95
462.59	189.58
462.77	166.18
462.95	180.22
463.13	88.94
463.32	154.48
463.50	184.90
463.68	142.77
463.86	156.82
464.05	140.43
464.23	168.52
464.41	105.32
464.59	0.00
464.78	154.48
464.96	159.16
465.14	131.07
465.32	170.86
465.50	131.07
465.69	142.77
465.87	121.71
466.05	159.16
466.23	126.39
466.41	154.48
466.60	159.16
466.78	184.90
466.96	191.92
467.14	110.01
467.32	156.82
467.51	180.22
467.69	133.41
467.87	182.56
468.05	140.43
468.23	166.18
468.41	189.58
468.60	170.86
468.78	140.43
468.96	170.86
469.14	138.09
469.32	128.73
469.50	124.05
469.69	133.41
469.87	121.71
470.05	175.54
470.23	175.54
470.41	102.98
470.59	128.73
470.77	149.79
470.95	131.07
471.14	184.90
471.32	177.88
471.50	205.97
471.68	203.63
471.86	163.84
472.04	102.98
472.22	163.84
472.40	131.07
472.58	147.45
472.77	131.07
472.95	152.13
473.13	110.01
473.31	91.28
473.49	131.07
473.67	175.54
473.85	128.73
474.03	187.24
474.21	131.07
474.39	147.45
474.57	135.75
474.75	74.90
474.93	145.11
475.12	102.98
475.30	191.92
475.48	131.07
475.66	191.92
475.84	166.18
476.02	194.26
476.20	107.66
476.38	126.39
476.56	133.41
476.74	140.43
476.92	170.86
477.10	110.01
477.28	156.82
477.46	93.62
477.64	138.09
477.82	145.11
478.00	88.94
478.18	63.19
478.36	114.69
478.54	107.66
478.72	126.39
478.90	138.09
479.08	210.65
479.26	124.05
479.44	201.29
479.62	156.82
479.80	121.71
479.98	67.88
480.16	142.77
480.34	128.73
480.52	107.66
480.70	145.11
480.88	119.37
481.06	133.41
481.24	98.30
481.41	147.45
481.59	114.69
481.77	81.92
481.95	189.58
482.13	182.56
482.31	205.97
482.49	107.66
482.67	166.18
482.85	184.90
483.03	135.75
483.21	138.09
483.39	154.48
483.57	58.51
483.74	177.88
483.92	140.43
484.10	119.37
484.28	154.48
484.46	182.56
484.64	138.09
484.82	86.60
485.00	156.82
485.18	152.13
485.35	180.22
485.53	128.73
485.71	194.26
485.89	135.75
486.07	117.03
486.25	203.63
486.43	102.98
486.61	184.90
486.78	142.77
486.96	81.92
487.14	107.66
487.32	128.73
487.50	112.35
487.68	156.82
487.85	70.22
488.03	149.79
488.21	180.22
488.39	126.39
488.57	117.03
488.75	168.52
488.92	297.25
489.10	53.83
489.28	252.78
489.46	100.64
489.64	126.39
489.81	91.28
489.99	110.01
490.17	152.13
490.35	159.16
490.53	147.45
490.70	51.49
490.88	88.94
491.06	124.05
491.24	161.50
491.41	163.84
491.59	67.88
491.77	147.45
491.95	114.69
492.13	203.63
492.30	133.41
492.48	191.92
492.66	140.43
492.84	117.03
493.01	147.45
493.19	42.13
493.37	205.97
493.54	229.37
493.72	131.07
493.90	102.98
494.08	102.98
494.25	149.79
494.43	175.54
494.61	163.84
494.79	84.26
494.96	161.50
495.14	147.45
495.32	161.50
495.49	170.86
495.67	166.18
495.85	175.54
496.02	117.03
496.20	119.37
496.38	163.84
496.55	128.73
496.73	79.58
496.91	44.47
497.09	145.11
497.26	63.19
497.44	189.58
497.62	180.22
497.79	119.37
497.97	210.65
498.14	72.56
498.32	140.43
498.50	161.50
498.67	74.90
498.85	100.64
499.03	147.45
499.20	175.54
499.38	121.71
499.56	168.52
499.73	220.01
499.91	187.24
500.08	74.90
500.26	177.88
500.44	105.32
500.61	60.85
500.79	159.16
500.97	182.56
501.14	191.92
501.32	91.28
501.49	133.41
501.67	131.07
501.84	126.39
502.02	131.07
502.20	128.73
502.37	142.77
502.55	121.71
502.72	145.11
502.90	152.13
503.07	126.39
503.25	177.88
503.43	187.24
503.60	142.77
503.78	147.45
503.95	177.88
504.13	72.56
504.30	140.43
504.48	182.56
504.65	149.79
504.83	142.77
505.01	86.60
505.18	114.69
505.36	74.90
505.53	189.58
505.71	119.37
505.88	163.84
506.06	84.26
506.23	117.03
506.41	142.77
506.58	91.28
506.76	128.73
506.93	135.75
507.11	81.92
507.28	168.52
507.46	149.79
507.63	208.31
507.81	100.64
507.98	107.66
508.16	180.22
508.33	156.82
508.50	182.56
508.68	149.79
508.85	58.51
509.03	184.90
509.20	91.28
509.38	133.41
509.55	170.86
509.73	149.79
509.90	152.13
510.08	117.03
510.25	58.51
510.42	147.45
510.60	152.13
510.77	196.60
510.95	107.66
511.12	126.39
511.30	184.90
511.47	149.79
511.64	168.52
511.82	194.26
511.99	131.07
512.17	133.41
512.34	102.98
512.51	100.64
512.69	95.96
512.86	173.20
513.04	138.09
513.21	114.69
513.38	114.69
513.56	81.92
513.73	147.45
513.90	95.96
514.08	147.45
514.25	189.58
514.43	170.86
514.60	133.41
514.77	72.56
514.95	180.22
515.12	102.98
515.29	107.66
515.47	163.84
515.64	170.86
515.81	119.37
515.99	159.16
516.16	156.82
516.33	102.98
516.51	107.66
516.68	210.65
516.85	168.52
517.03	149.79
517.20	124.05
517.37	131.07
517.54	222.35
517.72	114.69
517.89	58.51
518.06	102.98
518.24	205.97
518.41	255.12
518.58	224.69
518.75	114.69
518.93	159.16
519.10	170.86
519.27	117.03
519.45	140.43
519.62	140.43
519.79	124.05
519.96	180.22
520.14	133.41
520.31	126.39
520.48	170.86
520.65	154.48
520.83	184.90
521.00	210.65
521.17	126.39
521.34	112.35
521.52	166.18
521.69	205.97
521.86	161.50
522.03	170.86
522.20	205.97
522.38	95.96
522.55	124.05
522.72	95.96
522.89	168.52
523.07	152.13
523.24	191.92
523.41	105.32
523.58	110.01
523.75	170.86
523.92	112.35
524.10	100.64
524.27	121.71
524.44	170.86
524.61	119.37
524.78	126.39
524.96	117.03
525.13	91.28
525.30	131.07
525.47	142.77
525.64	110.01
525.81	114.69
525.98	112.35
526.16	98.30
526.33	203.63
526.50	112.35
526.67	91.28
526.84	117.03
527.01	175.54
527.18	135.75
527.36	147.45
527.53	88.94
527.70	119.37
527.87	110.01
528.04	173.20
528.21	175.54
528.38	161.50
528.55	208.31
528.72	161.50
528.89	189.58
529.07	161.50
529.24	70.22
529.41	86.60
529.58	126.39
529.75	105.32
529.92	159.16
530.09	131.07
530.26	210.65
530.43	100.64
530.60	154.48
530.77	168.52
530.94	149.79
531.11	161.50
531.28	126.39
531.46	168.52
531.63	140.43
531.80	180.22
531.97	154.48
532.14	126.39
532.31	159.16
532.48	198.95
532.65	285.55
532.82	250.44
532.99	184.90
533.16	140.43
533.33	114.69
533.50	243.42
533.67	175.54
533.84	236.39
534.01	276.18
534.18	161.50
534.35	170.86
534.52	114.69
534.69	147.45
534.86	138.09
535.03	114.69
535.20	135.75
535.37	196.60
535.54	133.41
535.71	187.24
535.88	184.90
536.05	138.09
536.22	93.62
536.38	142.77
536.55	142.77
536.72	117.03
536.89	0.00
537.06	138.09
537.23	79.58
537.40	135.75
537.57	154.48
537.74	100.64
537.91	147.45
538.08	145.11
538.25	180.22
538.42	133.41
538.59	138.09
538.75	131.07
538.92	177.88
539.09	124.05
539.26	170.86
539.43	433.00
539.60	674.07
539.77	929.19
539.94	763.01
540.11	482.15
540.28	266.82
540.44	205.97
540.61	161.50
540.78	63.19
540.95	105.32
541.12	140.43
541.29	168.52
541.46	196.60
541.62	203.63
541.79	126.39
541.96	124.05
542.13	98.30
542.30	138.09
542.47	231.71
542.63	149.79
542.80	145.11
542.97	149.79
543.14	117.03
543.31	194.26
543.48	128.73
543.64	166.18
543.81	93.62
543.98	93.62
544.15	72.56
544.32	149.79
544.48	154.48
544.65	168.52
544.82	128.73
544.99	163.84
545.16	138.09
545.32	173.20
545.49	81.92
545.66	131.07
545.83	154.48
546.00	98.30
546.16	145.11
546.33	152.13
546.50	161.50
546.67	152.13
546.83	88.94
547.00	168.52
547.17	161.50
547.34	107.66
547.50	107.66
547.67	88.94
547.84	124.05
548.00	173.20
548.17	110.01
548.34	189.58
548.51	187.24
548.67	170.86
548.84	102.98
549.01	138.09
549.18	124.05
549.34	128.73
549.51	184.90
549.68	159.16
549.84	147.45
550.01	184.90
550.18	163.84
550.34	224.69
550.51	124.05
550.68	149.79
550.84	149.79
551.01	126.39
551.18	140.43
551.34	196.60
551.51	117.03
551.68	133.41
551.84	117.03
552.01	102.98
552.18	128.73
552.34	166.18
552.51	212.99
552.68	210.65
552.84	128.73
553.01	117.03
553.18	205.97
553.34	152.13
553.51	70.22
553.67	128.73
553.84	187.24
554.01	201.29
554.17	177.88
554.34	145.11
554.51	79.58
554.67	147.45
554.84	215.33
555.00	145.11
555.17	119.37
555.33	159.16
555.50	114.69
555.67	112.35
555.83	70.22
556.00	91.28
556.16	341.72
556.33	110.01
556.50	168.52
556.66	147.45
556.83	168.52
556.99	220.01
557.16	161.50
557.32	44.47
557.49	131.07
557.65	67.88
557.82	124.05
557.98	161.50
558.15	44.47
558.32	81.92
558.48	149.79
558.65	161.50
558.81	187.24
558.98	154.48
559.14	105.32
559.31	154.48
559.47	175.54
559.64	135.75
559.80	70.22
559.97	124.05
560.13	105.32
560.30	147.45
560.46	126.39
560.63	121.71
560.79	191.92
560.96	154.48
561.12	140.43
561.29	166.18
561.45	105.32
561.61	152.13
561.78	250.44
561.94	100.64
562.11	159.16
562.27	147.45
562.44	114.69
562.60	81.92
562.77	126.39
562.93	205.97
563.10	128.73
563.26	145.11
563.42	168.52
563.59	177.88
563.75	107.66
563.92	166.18
564.08	154.48
564.24	187.24
564.41	198.95
564.57	142.77
564.74	168.52
564.90	102.98
565.07	201.29
565.23	273.84
565.39	196.60
565.56	170.86
565.72	215.33
565.88	145.11
566.05	124.05
566.21	112.35
566.38	173.20
566.54	145.11
566.70	138.09
566.87	168.52
567.03	138.09
567.19	135.75
567.36	236.39
567.52	95.96
567.68	142.77
567.85	170.86
568.01	145.11
568.17	175.54
568.34	166.18
568.50	173.20
568.66	173.20
568.83	241.08
568.99	142.77
569.15	180.22
569.32	191.92
569.48	128.73
569.64	95.96
569.81	156.82
569.97	135.75
570.13	147.45
570.30	81.92
570.46	84.26
570.62	166.18
570.78	131.07
570.95	74.90
571.11	170.86
571.27	203.63
571.43	128.73
571.60	154.48
571.76	35.11
571.92	135.75
572.09	131.07
572.25	220.01
572.41	138.09
572.57	205.97
572.74	196.60
572.90	149.79
573.06	149.79
573.22	163.84
573.38	161.50
573.55	191.92
573.71	196.60
573.87	182.56
574.03	147.45
574.20	88.94
574.36	297.25
574.52	145.11
574.68	166.18
574.84	161.50
575.01	189.58
575.17	227.03
575.33	126.39
575.49	154.48
575.65	259.80
575.82	334.70
575.98	430.66
576.14	456.40
576.30	355.76
576.46	273.84
576.62	236.39
576.79	180.22
576.95	262.14
577.11	194.26
577.27	173.20
577.43	154.48
577.59	208.31
577.75	138.09
577.92	170.86
578.08	161.50
578.24	140.43
578.40	138.09
578.56	217.67
578.72	234.05
578.88	205.97
579.04	168.52
579.21	166.18
579.37	135.75
579.53	147.45
579.69	215.33
579.85	243.42
580.01	250.44
580.17	243.42
580.33	210.65
580.49	238.73
580.65	198.95
580.82	189.58
580.98	245.76
581.14	215.33
581.30	196.60
581.46	341.72
581.62	376.83
581.78	393.21
581.94	208.31
582.10	273.84
582.26	243.42
582.42	175.54
582.58	224.69
582.74	243.42
582.90	273.84
583.06	257.46
583.22	217.67
583.38	264.48
583.54	318.31
583.70	369.80
583.86	404.91
584.02	486.83
584.18	690.46
584.34	1200.69
584.50	8285.50
584.66	29099.88
584.82	48868.05
584.98	50717.07
585.14	32247.90
585.30	16952.50
585.46	8184.85
585.62	3155.04
585.78	1397.30
585.94	819.19
586.10	470.45
586.26	458.74
586.42	435.34
586.58	341.72
586.74	294.91
586.90	411.93
587.06	327.68
587.22	262.14
587.38	454.06
587.54	1540.07
587.70	3033.33
587.86	4109.98
588.02	2977.16
588.18	1804.55
588.34	1053.24
588.49	465.77
588.65	301.93
588.81	306.61
588.97	198.95
589.13	126.39
589.29	173.20
589.45	215.33
589.61	301.93
589.77	348.74
589.93	271.50
590.08	276.18
590.24	276.18
590.40	175.54
590.56	205.97
590.72	215.33
590.88	184.90
591.04	283.20
591.20	241.08
591.35	299.59
591.51	241.08
591.67	198.95
591.83	259.80
591.99	262.14
592.15	236.39
592.31	156.82
592.46	152.13
592.62	189.58
592.78	266.82
592.94	236.39
593.10	259.80
593.26	184.90
593.41	205.97
593.57	250.44
593.73	1275.59
593.89	3623.15
594.05	6122.84
594.20	6490.31
594.36	4290.20
594.52	2518.42
594.68	1394.96
594.84	746.63
594.99	475.13
595.15	283.20
595.31	168.52
595.47	189.58
595.62	175.54
595.78	121.71
595.94	175.54
596.10	212.99
596.25	250.44
596.41	241.08
596.57	105.32
596.73	322.99
596.88	669.39
597.04	1336.45
597.20	1497.94
597.36	1259.21
597.51	821.53
597.67	519.60
597.83	271.50
597.99	234.05
598.14	170.86
598.30	264.48
598.46	196.60
598.61	269.16
598.77	205.97
598.93	173.20
599.09	194.26
599.24	112.35
599.40	236.39
599.56	215.33
599.71	184.90
599.87	154.48
600.03	124.05
600.18	138.09
600.34	163.84
600.50	203.63
600.65	98.30
600.81	198.95
600.97	156.82
601.12	98.30
601.28	203.63
601.44	119.37
601.59	180.22
601.75	131.07
601.91	210.65
602.06	152.13
602.22	491.51
602.37	931.53
602.53	1549.43
602.69	1657.10
602.84	1270.91
603.00	847.27
603.16	571.09
603.31	411.93
603.47	292.57
603.62	245.76
603.78	238.73
603.94	184.90
604.09	248.10
604.25	168.52
604.40	138.09
604.56	142.77
604.71	180.22
604.87	159.16
605.03	212.99
605.18	105.32
605.34	266.82
605.49	145.11
605.65	262.14
605.80	100.64
605.96	215.33
606.12	238.73
606.27	269.16
606.43	290.23
606.58	498.53
606.74	1879.45
606.89	3932.10
607.05	5172.58
607.20	4306.59
607.36	2857.79
607.51	1858.39
607.67	1069.62
607.82	650.67
607.98	367.46
608.13	236.39
608.29	236.39
608.44	269.16
608.60	334.70
608.75	905.79
608.91	3166.74
609.06	6544.14
609.22	9165.54
609.37	7494.40
609.53	5114.07
609.68	3363.35
609.84	1902.86
609.99	910.47
610.15	444.70
610.30	374.49
610.46	222.35
610.61	283.20
610.76	238.73
610.92	217.67
611.07	257.46
611.23	241.08
611.38	273.84
611.54	156.82
611.69	154.48
611.84	224.69
612.00	234.05
612.15	372.15
612.31	362.78
612.46	383.85
612.62	404.91
612.77	344.06
612.92	339.38
613.08	315.97
613.23	332.36
613.39	732.59
613.54	3251.00
613.69	8730.20
613.85	13855.97
614.00	13923.85
614.15	10026.86
614.31	6267.95
614.46	4044.45
614.62	2019.88
614.77	1039.20
614.92	524.28
615.08	360.44
615.23	362.78
615.38	304.27
615.54	690.46
615.69	1764.76
615.84	3246.32
616.00	3747.20
616.15	3035.67
616.30	2239.89
616.46	1334.11
616.61	748.97
616.76	514.92
616.92	294.91
617.07	198.95
617.22	119.37
617.37	182.56
617.53	168.52
617.68	187.24
617.83	201.29
617.99	255.12
618.14	184.90
618.29	203.63
618.45	208.31
618.60	273.84
618.75	152.13
618.90	222.35
619.06	159.16
619.21	191.92
619.36	201.29
619.51	119.37
619.67	142.77
619.82	175.54
619.97	227.03
620.12	229.37
620.28	156.82
620.43	154.48
620.58	241.08
620.73	170.86
620.89	395.55
621.04	1060.26
621.19	1748.38
621.34	2244.57
621.49	1900.52
621.65	1301.34
621.80	901.11
621.95	624.92
622.10	369.80
622.25	241.08
622.41	187.24
622.56	152.13
622.71	154.48
622.86	203.63
623.01	175.54
623.16	131.07
623.32	117.03
623.47	166.18
623.62	135.75
623.77	166.18
623.92	142.77
624.07	170.86
624.23	145.11
624.38	170.86
624.53	227.03
624.68	117.03
624.83	170.86
624.98	243.42
625.13	131.07
625.29	191.92
625.44	187.24
625.59	271.50
625.74	400.23
625.89	1809.23
626.04	4524.26
626.19	6899.90
626.34	7222.89
626.49	5364.51
626.65	3536.55
626.80	2291.38
626.95	1287.29
627.10	643.65
627.25	430.66
627.40	229.37
627.55	255.12
627.70	170.86
627.85	175.54
628.00	145.11
628.15	191.92
628.30	131.07
628.45	107.66
628.60	117.03
628.76	224.69
628.91	182.56
629.06	154.48
629.21	215.33
629.36	152.13
629.51	220.01
629.66	402.57
629.81	849.61
629.96	1526.03
630.11	1893.49
630.26	1701.57
630.41	1149.20
630.56	821.53
630.71	571.09
630.86	351.08
631.01	266.82
631.16	205.97
631.31	248.10
631.46	201.29
631.61	154.48
631.76	145.11
631.91	236.39
632.06	189.58
632.21	210.65
632.36	210.65
632.51	360.44
632.66	1064.94
632.81	2511.39
632.96	4353.40
633.10	4660.01
633.25	3815.07
633.40	2654.17
633.55	1757.74
633.70	1146.86
633.85	561.73
634.00	280.86
634.15	280.86
634.30	145.11
634.45	168.52
634.60	212.99
634.75	205.97
634.90	145.11
635.05	154.48
635.19	252.78
635.34	173.20
635.49	198.95
635.64	166.18
635.79	189.58
635.94	217.67
636.09	231.71
636.24	227.03
636.39	142.77
636.53	243.42
636.68	163.84
636.83	198.95
636.98	245.76
637.13	276.18
637.28	287.89
637.43	814.51
637.57	2803.96
637.72	6017.52
637.87	8961.91
638.02	8339.33
638.17	6347.53
638.32	4372.12
638.46	2785.24
638.61	1696.89
638.76	849.61
638.91	489.17
639.06	428.32
639.20	440.02
639.35	1067.28
639.50	3950.82
639.65	8929.14
639.80	13268.50
639.94	13013.38
640.09	9839.61
640.24	6516.05
640.39	4210.62
640.54	2312.45
640.68	1174.95
640.83	699.82
640.98	236.39
641.13	276.18
641.27	276.18
641.42	248.10
641.57	252.78
641.72	220.01
641.86	255.12
642.01	194.26
642.16	196.60
642.31	245.76
642.45	189.58
642.60	278.52
642.75	147.45
642.90	175.54
643.04	91.28
643.19	154.48
643.34	180.22
643.48	205.97
643.63	175.54
643.78	201.29
643.93	201.29
644.07	177.88
644.22	201.29
644.37	194.26
644.51	156.82
644.66	198.95
644.81	152.13
644.95	241.08
645.10	159.16
645.25	182.56
645.39	238.73
645.54	152.13
645.69	203.63
645.83	168.52
645.98	229.37
646.13	154.48
646.27	227.03
646.42	142.77
646.57	166.18
646.71	210.65
646.86	189.58
647.00	205.97
647.15	191.92
647.30	154.48
647.44	149.79
647.59	126.39
647.74	208.31
647.88	238.73
648.03	124.05
648.17	217.67
648.32	152.13
648.47	131.07
648.61	170.86
648.76	194.26
648.90	124.05
649.05	147.45
649.20	191.92
649.34	243.42
649.49	210.65
649.63	208.31
649.78	430.66
649.92	1685.19
650.07	4102.96
650.21	6530.09
650.36	7187.79
650.51	5493.24
650.65	3765.92
650.80	2539.48
650.94	1497.94
651.09	763.01
651.23	425.98
651.38	318.31
651.52	198.95
651.67	166.18
651.81	147.45
651.96	266.82
652.10	140.43
652.25	184.90
652.39	278.52
652.54	580.45
652.68	1376.24
652.83	2307.77
652.97	2565.23
653.12	2197.76
653.26	1549.43
653.41	1116.44
653.55	631.94
653.70	472.79
653.84	325.33
653.99	229.37
654.13	170.86
654.27	154.48
654.42	126.39
654.56	166.18
654.71	138.09
654.85	156.82
655.00	187.24
655.14	191.92
655.29	74.90
655.43	161.50
655.57	110.01
655.72	135.75
655.86	147.45
656.01	159.16
656.15	107.66
656.30	177.88
656.44	173.20
656.58	156.82
656.73	187.24
656.87	105.32
657.01	133.41
657.16	196.60
657.30	142.77
657.45	121.71
657.59	154.48
657.73	91.28
657.88	161.50
658.02	215.33
658.16	126.39
658.31	124.05
658.45	135.75
658.60	135.75
658.74	220.01
658.88	180.22
659.03	243.42
659.17	781.74
659.31	1797.53
659.46	3117.59
659.60	3775.28
659.74	3115.25
659.89	2260.96
660.03	1455.81
660.17	922.17
660.32	564.07
660.46	362.78
660.60	215.33
660.74	217.67
660.89	196.60
661.03	138.09
661.17	107.66
661.32	135.75
661.46	140.43
661.60	180.22
661.74	205.97
661.89	145.11
662.03	182.56
662.17	124.05
662.31	159.16
662.46	175.54
662.60	138.09
662.74	166.18
662.88	161.50
663.03	170.86
663.17	121.71
663.31	145.11
663.45	119.37
663.60	67.88
663.74	147.45
663.88	168.52
664.02	180.22
664.17	112.35
664.31	124.05
664.45	102.98
664.59	124.05
664.73	121.71
664.88	168.52
665.02	149.79
665.16	140.43
665.30	184.90
665.44	187.24
665.59	147.45
665.73	182.56
665.87	191.92
666.01	168.52
666.15	170.86
666.29	182.56
666.44	205.97
666.58	220.01
666.72	53.83
666.86	220.01
667.00	379.17
667.14	1523.69
667.28	3349.31
667.43	5640.69
667.57	6511.37
667.71	5221.74
667.85	3669.96
667.99	2195.42
668.13	1329.42
668.27	746.63
668.41	557.05
668.56	320.65
668.70	257.46
668.84	224.69
668.98	126.39
669.12	133.41
669.26	156.82
669.40	198.95
669.54	238.73
669.68	154.48
669.82	208.31
669.96	161.50
670.10	191.92
670.25	201.29
670.39	196.60
670.53	154.48
670.67	238.73
670.81	215.33
670.95	475.13
671.09	1331.76
671.23	2773.53
671.37	3964.87
671.51	4046.79
671.65	2951.42
671.79	1933.28
671.93	1142.18
672.07	748.97
672.21	547.69
672.35	320.65
672.49	234.05
672.63	180.22
672.77	149.79
672.91	241.08
673.05	114.69
673.19	191.92
673.33	140.43
673.47	201.29
673.61	177.88
673.75	138.09
673.89	140.43
674.03	187.24
674.17	149.79
674.31	149.79
674.45	175.54
674.59	163.84
674.73	182.56
674.87	163.84
675.01	220.01
675.15	180.22
675.29	194.26
675.43	182.56
675.56	210.65
675.70	201.29
675.84	138.09
675.98	201.29
676.12	131.07
676.26	145.11
676.40	126.39
676.54	220.01
676.68	65.54
676.82	142.77
676.96	131.07
677.10	166.18
677.23	184.90
677.37	124.05
677.51	184.90
677.65	229.37
677.79	100.64
677.93	126.39
678.07	152.13
678.21	149.79
678.34	124.05
678.48	124.05
678.62	156.82
678.76	149.79
678.90	161.50
679.04	154.48
679.18	147.45
679.31	124.05
679.45	184.90
679.59	131.07
679.73	102.98
679.87	154.48
680.00	135.75
680.14	114.69
680.28	161.50
680.42	161.50
680.56	152.13
680.70	39.79
680.83	173.20
680.97	128.73
681.11	147.45
681.25	203.63
681.39	145.11
681.52	189.58
681.66	159.16
681.80	161.50
681.94	140.43
682.07	182.56
682.21	147.45
682.35	133.41
682.49	163.84
682.62	189.58
682.76	86.60
682.90	124.05
683.04	149.79
683.17	114.69
683.31	98.30
683.45	189.58
683.59	173.20
683.72	138.09
683.86	95.96
684.00	163.84
684.13	194.26
684.27	131.07
684.41	208.31
684.55	156.82
684.68	173.20
684.82	203.63
684.96	126.39
685.09	140.43
685.23	159.16
685.37	119.37
685.50	187.24
685.64	215.33
685.78	154.48
685.91	222.35
686.05	161.50
686.19	187.24
686.32	124.05
686.46	212.99
686.60	138.09
686.73	222.35
686.87	184.90
687.01	93.62
687.14	201.29
687.28	156.82
687.42	203.63
687.55	147.45
687.69	231.71
687.82	135.75
687.96	191.92
688.10	182.56
688.23	203.63
688.37	224.69
688.50	205.97
688.64	159.16
688.78	95.96
688.91	196.60
689.05	112.35
689.18	133.41
689.32	117.03
689.46	184.90
689.59	147.45
689.73	283.20
689.86	98.30
690.00	140.43
690.13	142.77
690.27	102.98
690.41	180.22
690.54	198.95
690.68	173.20
690.81	131.07
690.95	163.84
691.08	177.88
691.22	208.31
691.35	159.16
691.49	140.43
691.62	100.64
691.76	126.39
691.89	138.09
692.03	72.56
692.16	212.99
692.30	545.34
692.43	1350.49
692.57	2235.21
692.70	2874.18
692.84	2499.69
692.97	1860.73
693.11	1439.43
693.24	950.26
693.38	674.07
693.51	484.49
693.65	376.83
693.78	229.37
693.92	196.60
694.05	215.33
694.19	149.79
694.32	191.92
694.45	74.90
694.59	126.39
694.72	168.52
694.86	152.13
694.99	142.77
695.13	154.48
695.26	170.86
695.39	128.73
695.53	194.26
695.66	152.13
695.80	131.07
695.93	248.10
696.07	227.03
696.20	332.36
696.33	400.23
696.47	287.89
696.60	294.91
696.73	311.29
696.87	217.67
697.00	280.86
697.14	112.35
697.27	145.11
697.40	177.88
697.54	135.75
697.67	182.56
697.80	147.45
697.94	128.73
698.07	98.30
698.21	86.60
698.34	252.78
698.47	166.18
698.61	102.98
698.74	161.50
698.87	201.29
699.01	149.79
699.14	112.35
699.27	163.84
699.40	215.33
699.54	147.45
699.67	140.43
699.80	166.18
699.94	102.98
700.07	119.37
700.20	182.56
700.34	110.01
700.47	135.75
700.60	133.41
700.73	105.32
700.87	161.50
701.00	67.88
701.13	65.54
701.26	194.26
701.40	231.71
701.53	182.56
701.66	128.73
701.79	128.73
701.93	175.54
702.06	292.57
702.19	327.68
702.32	330.02
702.46	315.97
702.59	692.80
702.72	1830.30
702.85	3466.33
702.99	4863.63
703.12	5371.53
703.25	4554.68
703.38	3805.71
703.51	3082.49
703.65	2157.97
703.78	1479.22
703.91	884.72
704.04	662.37
704.17	421.30
704.31	238.73
704.44	241.08
704.57	257.46
704.70	264.48
704.83	126.39
704.96	184.90
705.10	210.65
705.23	161.50
>>>>>End Processed Spectral Data<<<<<
