SpectraSuite Data File
++++++++++++++++++++++++++++++++++++
Date: Fri Oct 04 12:13:38 GMT-05:00 2013
User: price-jones
Dark Spectrum Present: No
Reference Spectrum Present: No
Number of Sampled Component Spectra: 1
Spectrometers: USB2+H05261
Integration Time (usec): 10000 (USB2+H05261)
Spectra Averaged: 1 (USB2+H05261)
Boxcar Smoothing: 0 (USB2+H05261)
Correct for Electrical Dark: No (USB2+H05261)
Strobe/Lamp Enabled: No (USB2+H05261)
Correct for Detector Non-linearity: No (USB2+H05261)
Correct for Stray Light: No (USB2+H05261)
Number of Pixels in Processed Spectrum: 2048
>>>>>Begin Processed Spectral Data<<<<<
365.73	70.22
365.92	70.22
366.12	70.22
366.32	0.00
366.52	0.00
366.72	0.00
366.91	0.00
367.11	0.00
367.31	0.00
367.51	0.00
367.70	0.00
367.90	0.00
368.10	0.00
368.30	0.00
368.49	0.00
368.69	0.00
368.89	0.00
369.09	0.00
369.28	0.00
369.48	0.00
369.68	0.00
369.87	0.00
370.07	0.00
370.27	0.00
370.47	0.00
370.66	0.00
370.86	0.00
371.06	0.00
371.25	0.00
371.45	0.00
371.65	0.00
371.84	0.00
372.04	0.00
372.24	0.00
372.44	0.00
372.63	39.79
372.83	23.41
373.03	14.04
373.22	0.00
373.42	0.00
373.62	51.49
373.81	0.00
374.01	70.22
374.21	14.04
374.40	0.00
374.60	16.38
374.79	16.38
374.99	0.00
375.19	42.13
375.38	77.24
375.58	0.00
375.78	23.41
375.97	46.81
376.17	0.00
376.37	51.49
376.56	72.56
376.76	79.58
376.95	0.00
377.15	0.00
377.35	86.60
377.54	0.00
377.74	60.85
377.93	0.00
378.13	60.85
378.33	0.00
378.52	23.41
378.72	0.00
378.91	0.00
379.11	4.68
379.31	25.75
379.50	30.43
379.70	9.36
379.89	37.45
380.09	0.00
380.28	88.94
380.48	0.00
380.68	0.00
380.87	28.09
381.07	0.00
381.26	30.43
381.46	32.77
381.65	25.75
381.85	102.98
382.04	9.36
382.24	25.75
382.43	0.00
382.63	11.70
382.83	0.00
383.02	28.09
383.22	77.24
383.41	56.17
383.61	0.00
383.80	30.43
384.00	35.11
384.19	0.00
384.39	0.00
384.58	9.36
384.78	0.00
384.97	77.24
385.17	0.00
385.36	23.41
385.56	67.88
385.75	0.00
385.95	56.17
386.14	0.00
386.34	0.00
386.53	51.49
386.72	46.81
386.92	0.00
387.11	18.72
387.31	37.45
387.50	35.11
387.70	32.77
387.89	32.77
388.09	23.41
388.28	67.88
388.48	2.34
388.67	37.45
388.86	14.04
389.06	28.09
389.25	51.49
389.45	100.64
389.64	30.43
389.84	32.77
390.03	4.68
390.22	93.62
390.42	4.68
390.61	0.00
390.81	7.02
391.00	46.81
391.19	63.19
391.39	56.17
391.58	0.00
391.78	72.56
391.97	46.81
392.16	53.83
392.36	49.15
392.55	9.36
392.75	9.36
392.94	30.43
393.13	0.00
393.33	53.83
393.52	9.36
393.71	46.81
393.91	18.72
394.10	42.13
394.29	0.00
394.49	0.00
394.68	25.75
394.88	21.06
395.07	51.49
395.26	0.00
395.46	7.02
395.65	0.00
395.84	0.00
396.04	84.26
396.23	14.04
396.42	46.81
396.62	58.51
396.81	53.83
397.00	0.00
397.19	32.77
397.39	0.00
397.58	28.09
397.77	53.83
397.97	9.36
398.16	58.51
398.35	60.85
398.55	11.70
398.74	0.00
398.93	60.85
399.12	37.45
399.32	21.06
399.51	30.43
399.70	37.45
399.90	4.68
400.09	25.75
400.28	74.90
400.47	0.00
400.67	28.09
400.86	0.00
401.05	23.41
401.24	4.68
401.44	23.41
401.63	63.19
401.82	0.00
402.01	7.02
402.21	7.02
402.40	95.96
402.59	49.15
402.78	16.38
402.97	32.77
403.17	0.00
403.36	0.00
403.55	4.68
403.74	65.54
403.93	51.49
404.13	32.77
404.32	9.36
404.51	18.72
404.70	60.85
404.89	39.79
405.09	9.36
405.28	23.41
405.47	0.00
405.66	0.00
405.85	65.54
406.05	0.00
406.24	21.06
406.43	95.96
406.62	0.00
406.81	74.90
407.00	0.00
407.20	72.56
407.39	79.58
407.58	44.47
407.77	9.36
407.96	25.75
408.15	0.00
408.34	16.38
408.54	0.00
408.73	0.00
408.92	70.22
409.11	56.17
409.30	51.49
409.49	30.43
409.68	7.02
409.87	37.45
410.07	0.00
410.26	23.41
410.45	23.41
410.64	0.00
410.83	0.00
411.02	70.22
411.21	58.51
411.40	0.00
411.59	53.83
411.78	0.00
411.98	0.00
412.17	93.62
412.36	53.83
412.55	60.85
412.74	79.58
412.93	39.79
413.12	23.41
413.31	107.66
413.50	37.45
413.69	0.00
413.88	84.26
414.07	0.00
414.26	63.19
414.45	126.39
414.64	0.00
414.83	35.11
415.02	0.00
415.22	79.58
415.41	2.34
415.60	42.13
415.79	51.49
415.98	23.41
416.17	74.90
416.36	91.28
416.55	21.06
416.74	37.45
416.93	65.54
417.12	0.00
417.31	18.72
417.50	11.70
417.69	0.00
417.88	35.11
418.07	84.26
418.26	25.75
418.45	70.22
418.64	0.00
418.83	42.13
419.02	11.70
419.21	53.83
419.39	37.45
419.58	53.83
419.77	53.83
419.96	28.09
420.15	30.43
420.34	25.75
420.53	63.19
420.72	18.72
420.91	77.24
421.10	100.64
421.29	37.45
421.48	35.11
421.67	93.62
421.86	70.22
422.05	37.45
422.24	35.11
422.43	32.77
422.61	35.11
422.80	18.72
422.99	0.00
423.18	84.26
423.37	37.45
423.56	149.79
423.75	63.19
423.94	0.00
424.13	65.54
424.32	23.41
424.50	9.36
424.69	14.04
424.88	4.68
425.07	21.06
425.26	7.02
425.45	56.17
425.64	119.37
425.83	9.36
426.01	63.19
426.20	65.54
426.39	9.36
426.58	93.62
426.77	18.72
426.96	39.79
427.15	0.00
427.33	81.92
427.52	53.83
427.71	23.41
427.90	28.09
428.09	46.81
428.28	28.09
428.46	23.41
428.65	32.77
428.84	49.15
429.03	42.13
429.22	30.43
429.40	0.00
429.59	49.15
429.78	112.35
429.97	2.34
430.16	88.94
430.34	0.00
430.53	16.38
430.72	79.58
430.91	58.51
431.10	51.49
431.28	65.54
431.47	37.45
431.66	35.11
431.85	32.77
432.03	51.49
432.22	51.49
432.41	63.19
432.60	58.51
432.79	91.28
432.97	58.51
433.16	4.68
433.35	42.13
433.54	72.56
433.72	37.45
433.91	44.47
434.10	0.00
434.28	0.00
434.47	30.43
434.66	53.83
434.85	39.79
435.03	88.94
435.22	81.92
435.41	30.43
435.59	39.79
435.78	110.01
435.97	0.00
436.16	49.15
436.34	74.90
436.53	88.94
436.72	95.96
436.90	51.49
437.09	18.72
437.28	67.88
437.46	0.00
437.65	44.47
437.84	0.00
438.02	53.83
438.21	46.81
438.40	67.88
438.58	30.43
438.77	28.09
438.96	9.36
439.14	100.64
439.33	0.00
439.52	60.85
439.70	86.60
439.89	81.92
440.08	79.58
440.26	32.77
440.45	65.54
440.63	46.81
440.82	0.00
441.01	58.51
441.19	79.58
441.38	44.47
441.57	35.11
441.75	60.85
441.94	30.43
442.12	23.41
442.31	21.06
442.50	30.43
442.68	30.43
442.87	0.00
443.05	0.00
443.24	74.90
443.43	42.13
443.61	4.68
443.80	53.83
443.98	70.22
444.17	0.00
444.35	105.32
444.54	67.88
444.73	49.15
444.91	44.47
445.10	53.83
445.28	23.41
445.47	77.24
445.65	23.41
445.84	53.83
446.02	51.49
446.21	53.83
446.39	77.24
446.58	18.72
446.77	65.54
446.95	51.49
447.14	39.79
447.32	133.41
447.51	28.09
447.69	0.00
447.88	67.88
448.06	93.62
448.25	16.38
448.43	56.17
448.62	60.85
448.80	67.88
448.99	14.04
449.17	67.88
449.36	70.22
449.54	65.54
449.73	0.00
449.91	58.51
450.10	7.02
450.28	63.19
450.46	74.90
450.65	114.69
450.83	14.04
451.02	35.11
451.20	2.34
451.39	11.70
451.57	14.04
451.76	105.32
451.94	0.00
452.13	86.60
452.31	142.77
452.49	112.35
452.68	63.19
452.86	51.49
453.05	51.49
453.23	28.09
453.42	114.69
453.60	7.02
453.78	102.98
453.97	44.47
454.15	37.45
454.34	39.79
454.52	98.30
454.70	95.96
454.89	32.77
455.07	32.77
455.26	86.60
455.44	56.17
455.62	39.79
455.81	9.36
455.99	145.11
456.17	51.49
456.36	70.22
456.54	58.51
456.73	95.96
456.91	46.81
457.09	51.49
457.28	39.79
457.46	77.24
457.64	63.19
457.83	11.70
458.01	39.79
458.19	0.00
458.38	25.75
458.56	4.68
458.74	37.45
458.93	70.22
459.11	53.83
459.29	0.00
459.48	95.96
459.66	53.83
459.84	14.04
460.03	30.43
460.21	18.72
460.39	46.81
460.57	156.82
460.76	102.98
460.94	131.07
461.12	102.98
461.31	79.58
461.49	119.37
461.67	91.28
461.85	42.13
462.04	0.00
462.22	35.11
462.40	7.02
462.59	2.34
462.77	105.32
462.95	0.00
463.13	42.13
463.32	81.92
463.50	58.51
463.68	95.96
463.86	58.51
464.05	35.11
464.23	28.09
464.41	35.11
464.59	37.45
464.78	35.11
464.96	98.30
465.14	0.00
465.32	18.72
465.50	46.81
465.69	79.58
465.87	63.19
466.05	105.32
466.23	37.45
466.41	67.88
466.60	58.51
466.78	93.62
466.96	42.13
467.14	28.09
467.32	42.13
467.51	49.15
467.69	84.26
467.87	98.30
468.05	42.13
468.23	51.49
468.41	32.77
468.60	67.88
468.78	51.49
468.96	32.77
469.14	77.24
469.32	23.41
469.50	77.24
469.69	35.11
469.87	42.13
470.05	74.90
470.23	95.96
470.41	28.09
470.59	18.72
470.77	25.75
470.95	65.54
471.14	91.28
471.32	46.81
471.50	42.13
471.68	42.13
471.86	60.85
472.04	102.98
472.22	39.79
472.40	58.51
472.58	58.51
472.77	128.73
472.95	0.00
473.13	32.77
473.31	135.75
473.49	44.47
473.67	18.72
473.85	53.83
474.03	23.41
474.21	74.90
474.39	74.90
474.57	112.35
474.75	95.96
474.93	23.41
475.12	32.77
475.30	65.54
475.48	95.96
475.66	42.13
475.84	42.13
476.02	0.00
476.20	0.00
476.38	126.39
476.56	79.58
476.74	0.00
476.92	51.49
477.10	98.30
477.28	49.15
477.46	53.83
477.64	98.30
477.82	0.00
478.00	67.88
478.18	93.62
478.36	65.54
478.54	0.00
478.72	51.49
478.90	98.30
479.08	32.77
479.26	74.90
479.44	84.26
479.62	70.22
479.80	11.70
479.98	53.83
480.16	56.17
480.34	100.64
480.52	135.75
480.70	65.54
480.88	166.18
481.06	0.00
481.24	81.92
481.41	53.83
481.59	77.24
481.77	51.49
481.95	25.75
482.13	56.17
482.31	72.56
482.49	102.98
482.67	0.00
482.85	42.13
483.03	105.32
483.21	11.70
483.39	60.85
483.57	37.45
483.74	46.81
483.92	63.19
484.10	30.43
484.28	35.11
484.46	49.15
484.64	86.60
484.82	11.70
485.00	23.41
485.18	102.98
485.35	23.41
485.53	42.13
485.71	117.03
485.89	77.24
486.07	102.98
486.25	51.49
486.43	42.13
486.61	131.07
486.78	67.88
486.96	91.28
487.14	84.26
487.32	42.13
487.50	72.56
487.68	74.90
487.85	131.07
488.03	114.69
488.21	53.83
488.39	91.28
488.57	86.60
488.75	32.77
488.92	79.58
489.10	23.41
489.28	39.79
489.46	93.62
489.64	49.15
489.81	67.88
489.99	74.90
490.17	37.45
490.35	98.30
490.53	102.98
490.70	23.41
490.88	39.79
491.06	84.26
491.24	0.00
491.41	42.13
491.59	67.88
491.77	30.43
491.95	18.72
492.13	140.43
492.30	65.54
492.48	72.56
492.66	67.88
492.84	37.45
493.01	51.49
493.19	107.66
493.37	58.51
493.54	86.60
493.72	42.13
493.90	138.09
494.08	81.92
494.25	30.43
494.43	86.60
494.61	39.79
494.79	110.01
494.96	128.73
495.14	28.09
495.32	74.90
495.49	95.96
495.67	105.32
495.85	25.75
496.02	107.66
496.20	93.62
496.38	102.98
496.55	135.75
496.73	28.09
496.91	117.03
497.09	72.56
497.26	67.88
497.44	72.56
497.62	117.03
497.79	0.00
497.97	112.35
498.14	140.43
498.32	32.77
498.50	84.26
498.67	77.24
498.85	67.88
499.03	49.15
499.20	60.85
499.38	86.60
499.56	86.60
499.73	142.77
499.91	126.39
500.08	100.64
500.26	84.26
500.44	16.38
500.61	86.60
500.79	84.26
500.97	56.17
501.14	56.17
501.32	74.90
501.49	56.17
501.67	91.28
501.84	84.26
502.02	88.94
502.20	53.83
502.37	9.36
502.55	42.13
502.72	114.69
502.90	98.30
503.07	81.92
503.25	44.47
503.43	63.19
503.60	81.92
503.78	128.73
503.95	81.92
504.13	63.19
504.30	98.30
504.48	98.30
504.65	145.11
504.83	44.47
505.01	93.62
505.18	65.54
505.36	98.30
505.53	98.30
505.71	67.88
505.88	70.22
506.06	121.71
506.23	98.30
506.41	49.15
506.58	117.03
506.76	77.24
506.93	102.98
507.11	74.90
507.28	0.00
507.46	100.64
507.63	131.07
507.81	67.88
507.98	119.37
508.16	30.43
508.33	77.24
508.50	93.62
508.68	14.04
508.85	79.58
509.03	93.62
509.20	112.35
509.38	42.13
509.55	81.92
509.73	91.28
509.90	112.35
510.08	175.54
510.25	100.64
510.42	117.03
510.60	58.51
510.77	30.43
510.95	102.98
511.12	56.17
511.30	39.79
511.47	70.22
511.64	133.41
511.82	110.01
511.99	11.70
512.17	67.88
512.34	91.28
512.51	91.28
512.69	140.43
512.86	154.48
513.04	42.13
513.21	70.22
513.38	49.15
513.56	84.26
513.73	23.41
513.90	56.17
514.08	105.32
514.25	88.94
514.43	7.02
514.60	32.77
514.77	67.88
514.95	23.41
515.12	23.41
515.29	58.51
515.47	77.24
515.64	79.58
515.81	105.32
515.99	18.72
516.16	84.26
516.33	58.51
516.51	81.92
516.68	60.85
516.85	60.85
517.03	121.71
517.20	112.35
517.37	88.94
517.54	107.66
517.72	60.85
517.89	187.24
518.06	0.00
518.24	2.34
518.41	100.64
518.58	112.35
518.75	112.35
518.93	77.24
519.10	56.17
519.27	91.28
519.45	107.66
519.62	100.64
519.79	102.98
519.96	63.19
520.14	70.22
520.31	0.00
520.48	79.58
520.65	56.17
520.83	60.85
521.00	32.77
521.17	119.37
521.34	56.17
521.52	25.75
521.69	100.64
521.86	65.54
522.03	117.03
522.20	93.62
522.38	35.11
522.55	81.92
522.72	30.43
522.89	107.66
523.07	81.92
523.24	88.94
523.41	142.77
523.58	60.85
523.75	126.39
523.92	114.69
524.10	51.49
524.27	81.92
524.44	42.13
524.61	105.32
524.78	58.51
524.96	37.45
525.13	77.24
525.30	112.35
525.47	79.58
525.64	98.30
525.81	142.77
525.98	37.45
526.16	81.92
526.33	46.81
526.50	58.51
526.67	84.26
526.84	117.03
527.01	95.96
527.18	131.07
527.36	114.69
527.53	25.75
527.70	163.84
527.87	16.38
528.04	39.79
528.21	95.96
528.38	100.64
528.55	128.73
528.72	93.62
528.89	100.64
529.07	63.19
529.24	117.03
529.41	60.85
529.58	95.96
529.75	88.94
529.92	112.35
530.09	77.24
530.26	98.30
530.43	133.41
530.60	95.96
530.77	23.41
530.94	180.22
531.11	100.64
531.28	72.56
531.46	58.51
531.63	65.54
531.80	105.32
531.97	95.96
532.14	154.48
532.31	77.24
532.48	121.71
532.65	9.36
532.82	46.81
532.99	77.24
533.16	102.98
533.33	128.73
533.50	23.41
533.67	28.09
533.84	95.96
534.01	95.96
534.18	84.26
534.35	105.32
534.52	56.17
534.69	70.22
534.86	131.07
535.03	30.43
535.20	65.54
535.37	149.79
535.54	175.54
535.71	131.07
535.88	86.60
536.05	49.15
536.22	72.56
536.38	100.64
536.55	74.90
536.72	72.56
536.89	67.88
537.06	114.69
537.23	58.51
537.40	23.41
537.57	63.19
537.74	67.88
537.91	18.72
538.08	23.41
538.25	74.90
538.42	42.13
538.59	145.11
538.75	84.26
538.92	79.58
539.09	84.26
539.26	49.15
539.43	152.13
539.60	114.69
539.77	67.88
539.94	56.17
540.11	32.77
540.28	44.47
540.44	124.05
540.61	16.38
540.78	98.30
540.95	81.92
541.12	126.39
541.29	95.96
541.46	102.98
541.62	107.66
541.79	86.60
541.96	58.51
542.13	119.37
542.30	112.35
542.47	107.66
542.63	117.03
542.80	105.32
542.97	84.26
543.14	95.96
543.31	79.58
543.48	77.24
543.64	135.75
543.81	114.69
543.98	98.30
544.15	56.17
544.32	70.22
544.48	51.49
544.65	182.56
544.82	166.18
544.99	117.03
545.16	77.24
545.32	60.85
545.49	72.56
545.66	133.41
545.83	74.90
546.00	112.35
546.16	14.04
546.33	86.60
546.50	126.39
546.67	121.71
546.83	117.03
547.00	124.05
547.17	81.92
547.34	70.22
547.50	84.26
547.67	121.71
547.84	91.28
548.00	114.69
548.17	63.19
548.34	65.54
548.51	58.51
548.67	112.35
548.84	112.35
549.01	84.26
549.18	67.88
549.34	77.24
549.51	65.54
549.68	91.28
549.84	166.18
550.01	140.43
550.18	121.71
550.34	140.43
550.51	39.79
550.68	49.15
550.84	84.26
551.01	91.28
551.18	42.13
551.34	147.45
551.51	37.45
551.68	100.64
551.84	79.58
552.01	86.60
552.18	119.37
552.34	65.54
552.51	114.69
552.68	98.30
552.84	65.54
553.01	0.00
553.18	67.88
553.34	72.56
553.51	88.94
553.67	65.54
553.84	37.45
554.01	70.22
554.17	149.79
554.34	25.75
554.51	126.39
554.67	117.03
554.84	163.84
555.00	95.96
555.17	117.03
555.33	91.28
555.50	58.51
555.67	140.43
555.83	77.24
556.00	37.45
556.16	105.32
556.33	105.32
556.50	77.24
556.66	28.09
556.83	86.60
556.99	110.01
557.16	110.01
557.32	44.47
557.49	88.94
557.65	114.69
557.82	140.43
557.98	131.07
558.15	56.17
558.32	56.17
558.48	37.45
558.65	37.45
558.81	77.24
558.98	91.28
559.14	93.62
559.31	86.60
559.47	72.56
559.64	23.41
559.80	147.45
559.97	117.03
560.13	72.56
560.30	98.30
560.46	72.56
560.63	70.22
560.79	30.43
560.96	124.05
561.12	65.54
561.29	110.01
561.45	117.03
561.61	60.85
561.78	126.39
561.94	46.81
562.11	86.60
562.27	23.41
562.44	84.26
562.60	56.17
562.77	51.49
562.93	105.32
563.10	14.04
563.26	86.60
563.42	74.90
563.59	30.43
563.75	91.28
563.92	114.69
564.08	114.69
564.24	58.51
564.41	98.30
564.57	102.98
564.74	65.54
564.90	37.45
565.07	74.90
565.23	156.82
565.39	79.58
565.56	67.88
565.72	67.88
565.88	100.64
566.05	180.22
566.21	56.17
566.38	51.49
566.54	56.17
566.70	81.92
566.87	161.50
567.03	98.30
567.19	74.90
567.36	53.83
567.52	119.37
567.68	77.24
567.85	135.75
568.01	98.30
568.17	28.09
568.34	102.98
568.50	91.28
568.66	98.30
568.83	91.28
568.99	49.15
569.15	110.01
569.32	105.32
569.48	112.35
569.64	189.58
569.81	30.43
569.97	84.26
570.13	119.37
570.30	102.98
570.46	46.81
570.62	37.45
570.78	84.26
570.95	95.96
571.11	105.32
571.27	79.58
571.43	58.51
571.60	91.28
571.76	124.05
571.92	32.77
572.09	37.45
572.25	65.54
572.41	63.19
572.57	86.60
572.74	60.85
572.90	81.92
573.06	121.71
573.22	100.64
573.38	58.51
573.55	32.77
573.71	81.92
573.87	105.32
574.03	84.26
574.20	93.62
574.36	81.92
574.52	133.41
574.68	0.00
574.84	84.26
575.01	72.56
575.17	23.41
575.33	35.11
575.49	81.92
575.65	49.15
575.82	0.00
575.98	7.02
576.14	42.13
576.30	49.15
576.46	70.22
576.62	58.51
576.79	51.49
576.95	30.43
577.11	56.17
577.27	9.36
577.43	121.71
577.59	72.56
577.75	84.26
577.92	79.58
578.08	63.19
578.24	98.30
578.40	88.94
578.56	140.43
578.72	95.96
578.88	93.62
579.04	74.90
579.21	0.00
579.37	100.64
579.53	58.51
579.69	44.47
579.85	67.88
580.01	107.66
580.17	126.39
580.33	114.69
580.49	44.47
580.65	86.60
580.82	46.81
580.98	102.98
581.14	117.03
581.30	93.62
581.46	0.00
581.62	93.62
581.78	0.00
581.94	70.22
582.10	35.11
582.26	4.68
582.42	128.73
582.58	42.13
582.74	39.79
582.90	93.62
583.06	56.17
583.22	84.26
583.38	60.85
583.54	121.71
583.70	93.62
583.86	56.17
584.02	93.62
584.18	126.39
584.34	53.83
584.50	42.13
584.66	35.11
584.82	0.00
584.98	49.15
585.14	112.35
585.30	135.75
585.46	79.58
585.62	58.51
585.78	77.24
585.94	72.56
586.10	117.03
586.26	72.56
586.42	93.62
586.58	180.22
586.74	60.85
586.90	161.50
587.06	133.41
587.22	163.84
587.38	16.38
587.54	32.77
587.70	28.09
587.86	128.73
588.02	49.15
588.18	44.47
588.34	98.30
588.49	84.26
588.65	58.51
588.81	86.60
588.97	93.62
589.13	51.49
589.29	30.43
589.45	65.54
589.61	0.00
589.77	21.06
589.93	56.17
590.08	32.77
590.24	138.09
590.40	72.56
590.56	42.13
590.72	145.11
590.88	81.92
591.04	102.98
591.20	86.60
591.35	84.26
591.51	84.26
591.67	53.83
591.83	28.09
591.99	67.88
592.15	11.70
592.31	56.17
592.46	49.15
592.62	112.35
592.78	98.30
592.94	88.94
593.10	58.51
593.26	49.15
593.41	39.79
593.57	81.92
593.73	18.72
593.89	107.66
594.05	44.47
594.20	37.45
594.36	49.15
594.52	46.81
594.68	70.22
594.84	72.56
594.99	67.88
595.15	138.09
595.31	117.03
595.47	32.77
595.62	70.22
595.78	114.69
595.94	102.98
596.10	100.64
596.25	0.00
596.41	121.71
596.57	32.77
596.73	107.66
596.88	67.88
597.04	53.83
597.20	42.13
597.36	51.49
597.51	93.62
597.67	63.19
597.83	51.49
597.99	77.24
598.14	84.26
598.30	60.85
598.46	84.26
598.61	70.22
598.77	86.60
598.93	124.05
599.09	86.60
599.24	16.38
599.40	65.54
599.56	42.13
599.71	105.32
599.87	35.11
600.03	46.81
600.18	65.54
600.34	81.92
600.50	74.90
600.65	95.96
600.81	60.85
600.97	60.85
601.12	86.60
601.28	37.45
601.44	98.30
601.59	42.13
601.75	32.77
601.91	53.83
602.06	124.05
602.22	98.30
602.37	93.62
602.53	95.96
602.69	60.85
602.84	105.32
603.00	46.81
603.16	131.07
603.31	91.28
603.47	126.39
603.62	140.43
603.78	102.98
603.94	32.77
604.09	7.02
604.25	53.83
604.40	79.58
604.56	39.79
604.71	98.30
604.87	60.85
605.03	63.19
605.18	67.88
605.34	42.13
605.49	58.51
605.65	25.75
605.80	32.77
605.96	46.81
606.12	49.15
606.27	84.26
606.43	102.98
606.58	51.49
606.74	98.30
606.89	154.48
607.05	149.79
607.20	32.77
607.36	95.96
607.51	84.26
607.67	135.75
607.82	159.16
607.98	67.88
608.13	105.32
608.29	74.90
608.44	46.81
608.60	81.92
608.75	49.15
608.91	154.48
609.06	46.81
609.22	84.26
609.37	133.41
609.53	28.09
609.68	121.71
609.84	93.62
609.99	95.96
610.15	107.66
610.30	65.54
610.46	105.32
610.61	100.64
610.76	0.00
610.92	105.32
611.07	0.00
611.23	63.19
611.38	100.64
611.54	0.00
611.69	86.60
611.84	28.09
612.00	7.02
612.15	110.01
612.31	100.64
612.46	72.56
612.62	58.51
612.77	79.58
612.92	37.45
613.08	91.28
613.23	2.34
613.39	37.45
613.54	84.26
613.69	121.71
613.85	65.54
614.00	70.22
614.15	67.88
614.31	0.00
614.46	49.15
614.62	84.26
614.77	72.56
614.92	72.56
615.08	86.60
615.23	74.90
615.38	42.13
615.54	63.19
615.69	107.66
615.84	39.79
616.00	7.02
616.15	88.94
616.30	100.64
616.46	77.24
616.61	65.54
616.76	39.79
616.92	30.43
617.07	84.26
617.22	84.26
617.37	37.45
617.53	93.62
617.68	74.90
617.83	30.43
617.99	100.64
618.14	18.72
618.29	124.05
618.45	95.96
618.60	74.90
618.75	56.17
618.90	46.81
619.06	58.51
619.21	60.85
619.36	95.96
619.51	98.30
619.67	91.28
619.82	18.72
619.97	0.00
620.12	74.90
620.28	91.28
620.43	93.62
620.58	51.49
620.73	110.01
620.89	39.79
621.04	49.15
621.19	110.01
621.34	91.28
621.49	72.56
621.65	102.98
621.80	128.73
621.95	63.19
622.10	112.35
622.25	35.11
622.41	49.15
622.56	39.79
622.71	67.88
622.86	30.43
623.01	98.30
623.16	60.85
623.32	70.22
623.47	70.22
623.62	131.07
623.77	77.24
623.92	98.30
624.07	70.22
624.23	46.81
624.38	42.13
624.53	28.09
624.68	53.83
624.83	58.51
624.98	58.51
625.13	102.98
625.29	91.28
625.44	117.03
625.59	37.45
625.74	39.79
625.89	79.58
626.04	0.00
626.19	110.01
626.34	37.45
626.49	77.24
626.65	46.81
626.80	49.15
626.95	95.96
627.10	72.56
627.25	128.73
627.40	49.15
627.55	23.41
627.70	32.77
627.85	67.88
628.00	28.09
628.15	56.17
628.30	100.64
628.45	16.38
628.60	91.28
628.76	49.15
628.91	30.43
629.06	42.13
629.21	51.49
629.36	23.41
629.51	79.58
629.66	58.51
629.81	58.51
629.96	95.96
630.11	102.98
630.26	37.45
630.41	14.04
630.56	58.51
630.71	11.70
630.86	0.00
631.01	88.94
631.16	74.90
631.31	21.06
631.46	21.06
631.61	56.17
631.76	72.56
631.91	102.98
632.06	28.09
632.21	0.00
632.36	131.07
632.51	23.41
632.66	21.06
632.81	102.98
632.96	42.13
633.10	42.13
633.25	72.56
633.40	53.83
633.55	44.47
633.70	95.96
633.85	46.81
634.00	70.22
634.15	77.24
634.30	60.85
634.45	105.32
634.60	46.81
634.75	42.13
634.90	37.45
635.05	98.30
635.19	88.94
635.34	58.51
635.49	74.90
635.64	58.51
635.79	53.83
635.94	56.17
636.09	98.30
636.24	86.60
636.39	0.00
636.53	28.09
636.68	60.85
636.83	0.00
636.98	39.79
637.13	28.09
637.28	102.98
637.43	42.13
637.57	16.38
637.72	93.62
637.87	74.90
638.02	25.75
638.17	119.37
638.32	56.17
638.46	14.04
638.61	100.64
638.76	35.11
638.91	102.98
639.06	0.00
639.20	65.54
639.35	60.85
639.50	46.81
639.65	46.81
639.80	65.54
639.94	63.19
640.09	107.66
640.24	49.15
640.39	67.88
640.54	98.30
640.68	102.98
640.83	65.54
640.98	18.72
641.13	35.11
641.27	21.06
641.42	81.92
641.57	0.00
641.72	0.00
641.86	102.98
642.01	56.17
642.16	37.45
642.31	39.79
642.45	2.34
642.60	42.13
642.75	79.58
642.90	72.56
643.04	107.66
643.19	25.75
643.34	65.54
643.48	58.51
643.63	0.00
643.78	72.56
643.93	124.05
644.07	0.00
644.22	18.72
644.37	100.64
644.51	77.24
644.66	63.19
644.81	60.85
644.95	9.36
645.10	98.30
645.25	107.66
645.39	0.00
645.54	67.88
645.69	37.45
645.83	51.49
645.98	81.92
646.13	44.47
646.27	21.06
646.42	37.45
646.57	79.58
646.71	100.64
646.86	72.56
647.00	98.30
647.15	37.45
647.30	44.47
647.44	0.00
647.59	124.05
647.74	86.60
647.88	121.71
648.03	42.13
648.17	49.15
648.32	159.16
648.47	30.43
648.61	32.77
648.76	32.77
648.90	46.81
649.05	0.00
649.20	95.96
649.34	91.28
649.49	51.49
649.63	81.92
649.78	138.09
649.92	30.43
650.07	79.58
650.21	166.18
650.36	91.28
650.51	58.51
650.65	98.30
650.80	0.00
650.94	56.17
651.09	51.49
651.23	53.83
651.38	58.51
651.52	30.43
651.67	77.24
651.81	0.00
651.96	32.77
652.10	56.17
652.25	79.58
652.39	42.13
652.54	0.00
652.68	16.38
652.83	124.05
652.97	100.64
653.12	49.15
653.26	91.28
653.41	35.11
653.55	46.81
653.70	0.00
653.84	25.75
653.99	77.24
654.13	117.03
654.27	95.96
654.42	46.81
654.56	39.79
654.71	84.26
654.85	4.68
655.00	65.54
655.14	67.88
655.29	77.24
655.43	91.28
655.57	65.54
655.72	95.96
655.86	46.81
656.01	77.24
656.15	42.13
656.30	35.11
656.44	51.49
656.58	35.11
656.73	93.62
656.87	49.15
657.01	67.88
657.16	32.77
657.30	67.88
657.45	37.45
657.59	37.45
657.73	46.81
657.88	39.79
658.02	107.66
658.16	51.49
658.31	91.28
658.45	51.49
658.60	0.00
658.74	37.45
658.88	21.06
659.03	56.17
659.17	14.04
659.31	63.19
659.46	28.09
659.60	70.22
659.74	114.69
659.89	79.58
660.03	42.13
660.17	32.77
660.32	67.88
660.46	56.17
660.60	0.00
660.74	56.17
660.89	72.56
661.03	63.19
661.17	77.24
661.32	46.81
661.46	25.75
661.60	91.28
661.74	98.30
661.89	102.98
662.03	98.30
662.17	121.71
662.31	77.24
662.46	86.60
662.60	98.30
662.74	39.79
662.88	86.60
663.03	58.51
663.17	37.45
663.31	42.13
663.45	53.83
663.60	124.05
663.74	9.36
663.88	70.22
664.02	56.17
664.17	4.68
664.31	16.38
664.45	0.00
664.59	18.72
664.73	39.79
664.88	56.17
665.02	56.17
665.16	105.32
665.30	102.98
665.44	93.62
665.59	0.00
665.73	21.06
665.87	72.56
666.01	28.09
666.15	60.85
666.29	117.03
666.44	7.02
666.58	102.98
666.72	0.00
666.86	56.17
667.00	95.96
667.14	49.15
667.28	37.45
667.43	23.41
667.57	46.81
667.71	147.45
667.85	88.94
667.99	21.06
668.13	28.09
668.27	84.26
668.41	25.75
668.56	42.13
668.70	44.47
668.84	23.41
668.98	16.38
669.12	72.56
669.26	107.66
669.40	81.92
669.54	60.85
669.68	42.13
669.82	0.00
669.96	44.47
670.10	126.39
670.25	21.06
670.39	44.47
670.53	81.92
670.67	51.49
670.81	46.81
670.95	0.00
671.09	58.51
671.23	56.17
671.37	32.77
671.51	72.56
671.65	88.94
671.79	100.64
671.93	44.47
672.07	4.68
672.21	72.56
672.35	74.90
672.49	98.30
672.63	58.51
672.77	42.13
672.91	60.85
673.05	152.13
673.19	88.94
673.33	65.54
673.47	107.66
673.61	42.13
673.75	67.88
673.89	37.45
674.03	9.36
674.17	0.00
674.31	51.49
674.45	39.79
674.59	74.90
674.73	23.41
674.87	81.92
675.01	39.79
675.15	0.00
675.29	51.49
675.43	128.73
675.56	0.00
675.70	107.66
675.84	28.09
675.98	11.70
676.12	28.09
676.26	9.36
676.40	51.49
676.54	18.72
676.68	88.94
676.82	25.75
676.96	63.19
677.10	0.00
677.23	16.38
677.37	42.13
677.51	2.34
677.65	63.19
677.79	35.11
677.93	42.13
678.07	32.77
678.21	21.06
678.34	37.45
678.48	49.15
678.62	56.17
678.76	65.54
678.90	98.30
679.04	42.13
679.18	72.56
679.31	0.00
679.45	37.45
679.59	16.38
679.73	35.11
679.87	0.00
680.00	70.22
680.14	4.68
680.28	56.17
680.42	7.02
680.56	56.17
680.70	30.43
680.83	23.41
680.97	11.70
681.11	9.36
681.25	46.81
681.39	0.00
681.52	0.00
681.66	35.11
681.80	18.72
681.94	16.38
682.07	105.32
682.21	86.60
682.35	7.02
682.49	28.09
682.62	16.38
682.76	65.54
682.90	74.90
683.04	25.75
683.17	81.92
683.31	4.68
683.45	42.13
683.59	42.13
683.72	65.54
683.86	58.51
684.00	42.13
684.13	11.70
684.27	93.62
684.41	32.77
684.55	72.56
684.68	30.43
684.82	9.36
684.96	37.45
685.09	84.26
685.23	72.56
685.37	28.09
685.50	16.38
685.64	81.92
685.78	0.00
685.91	44.47
686.05	60.85
686.19	4.68
686.32	98.30
686.46	51.49
686.60	23.41
686.73	140.43
686.87	65.54
687.01	0.00
687.14	16.38
687.28	9.36
687.42	0.00
687.55	0.00
687.69	7.02
687.82	42.13
687.96	7.02
688.10	119.37
688.23	2.34
688.37	84.26
688.50	14.04
688.64	37.45
688.78	28.09
688.91	37.45
689.05	49.15
689.18	93.62
689.32	0.00
689.46	14.04
689.59	28.09
689.73	79.58
689.86	28.09
690.00	30.43
690.13	58.51
690.27	18.72
690.41	28.09
690.54	35.11
690.68	30.43
690.81	72.56
690.95	49.15
691.08	28.09
691.22	21.06
691.35	35.11
691.49	49.15
691.62	51.49
691.76	0.00
691.89	44.47
692.03	23.41
692.16	4.68
692.30	74.90
692.43	60.85
692.57	77.24
692.70	23.41
692.84	28.09
692.97	42.13
693.11	23.41
693.24	49.15
693.38	16.38
693.51	65.54
693.65	37.45
693.78	4.68
693.92	49.15
694.05	72.56
694.19	60.85
694.32	35.11
694.45	7.02
694.59	0.00
694.72	25.75
694.86	11.70
694.99	42.13
695.13	18.72
695.26	46.81
695.39	110.01
695.53	32.77
695.66	0.00
695.80	65.54
695.93	74.90
696.07	28.09
696.20	0.00
696.33	0.00
696.47	91.28
696.60	74.90
696.73	0.00
696.87	0.00
697.00	58.51
697.14	44.47
697.27	63.19
697.40	60.85
697.54	70.22
697.67	63.19
697.80	28.09
697.94	28.09
698.07	53.83
698.21	63.19
698.34	117.03
698.47	35.11
698.61	63.19
698.74	60.85
698.87	28.09
699.01	25.75
699.14	0.00
699.27	95.96
699.40	25.75
699.54	35.11
699.67	65.54
699.80	65.54
699.94	32.77
700.07	0.00
700.20	126.39
700.34	53.83
700.47	72.56
700.60	91.28
700.73	58.51
700.87	42.13
701.00	39.79
701.13	0.00
701.26	70.22
701.40	128.73
701.53	0.00
701.66	16.38
701.79	53.83
701.93	112.35
702.06	105.32
702.19	60.85
702.32	30.43
702.46	60.85
702.59	28.09
702.72	49.15
702.85	4.68
702.99	14.04
703.12	37.45
703.25	9.36
703.38	0.00
703.51	16.38
703.65	79.58
703.78	0.00
703.91	35.11
704.04	49.15
704.17	46.81
704.31	67.88
704.44	0.00
704.57	9.36
704.70	91.28
704.83	60.85
704.96	81.92
705.10	39.79
705.23	100.64
>>>>>End Processed Spectral Data<<<<<
