SpectraSuite Data File
++++++++++++++++++++++++++++++++++++
Date: Fri Oct 04 12:13:38 GMT-05:00 2013
User: price-jones
Dark Spectrum Present: No
Reference Spectrum Present: No
Number of Sampled Component Spectra: 1
Spectrometers: USB2+H05261
Integration Time (usec): 10000 (USB2+H05261)
Spectra Averaged: 1 (USB2+H05261)
Boxcar Smoothing: 0 (USB2+H05261)
Correct for Electrical Dark: No (USB2+H05261)
Strobe/Lamp Enabled: No (USB2+H05261)
Correct for Detector Non-linearity: No (USB2+H05261)
Correct for Stray Light: No (USB2+H05261)
Number of Pixels in Processed Spectrum: 2048
>>>>>Begin Processed Spectral Data<<<<<
365.73	35.11
365.92	35.11
366.12	35.11
366.32	0.00
366.52	0.00
366.72	0.00
366.91	0.00
367.11	0.00
367.31	0.00
367.51	0.00
367.70	0.00
367.90	0.00
368.10	0.00
368.30	0.00
368.49	0.00
368.69	0.00
368.89	0.00
369.09	0.00
369.28	0.00
369.48	0.00
369.68	0.00
369.87	0.00
370.07	0.00
370.27	0.00
370.47	0.00
370.66	0.00
370.86	0.00
371.06	0.00
371.25	0.00
371.45	4.68
371.65	0.00
371.84	0.00
372.04	37.45
372.24	0.00
372.44	30.43
372.63	32.77
372.83	25.75
373.03	32.77
373.22	9.36
373.42	23.41
373.62	0.00
373.81	51.49
374.01	51.49
374.21	39.79
374.40	0.00
374.60	49.15
374.79	46.81
374.99	18.72
375.19	74.90
375.38	51.49
375.58	100.64
375.78	11.70
375.97	107.66
376.17	0.00
376.37	67.88
376.56	0.00
376.76	0.00
376.95	0.00
377.15	18.72
377.35	0.00
377.54	0.00
377.74	14.04
377.93	0.00
378.13	39.79
378.33	65.54
378.52	23.41
378.72	28.09
378.91	63.19
379.11	16.38
379.31	0.00
379.50	46.81
379.70	4.68
379.89	0.00
380.09	16.38
380.28	65.54
380.48	39.79
380.68	53.83
380.87	0.00
381.07	18.72
381.26	114.69
381.46	4.68
381.65	0.00
381.85	72.56
382.04	51.49
382.24	0.00
382.43	67.88
382.63	9.36
382.83	0.00
383.02	51.49
383.22	0.00
383.41	0.00
383.61	56.17
383.80	14.04
384.00	86.60
384.19	23.41
384.39	91.28
384.58	23.41
384.78	9.36
384.97	14.04
385.17	0.00
385.36	2.34
385.56	56.17
385.75	53.83
385.95	14.04
386.14	7.02
386.34	25.75
386.53	72.56
386.72	63.19
386.92	79.58
387.11	0.00
387.31	0.00
387.50	18.72
387.70	0.00
387.89	0.00
388.09	35.11
388.28	60.85
388.48	0.00
388.67	30.43
388.86	14.04
389.06	0.00
389.25	39.79
389.45	23.41
389.64	44.47
389.84	0.00
390.03	53.83
390.22	0.00
390.42	42.13
390.61	0.00
390.81	18.72
391.00	0.00
391.19	67.88
391.39	0.00
391.58	23.41
391.78	44.47
391.97	0.00
392.16	11.70
392.36	44.47
392.55	37.45
392.75	88.94
392.94	65.54
393.13	0.00
393.33	32.77
393.52	0.00
393.71	0.00
393.91	0.00
394.10	91.28
394.29	7.02
394.49	9.36
394.68	0.00
394.88	30.43
395.07	56.17
395.26	0.00
395.46	23.41
395.65	21.06
395.84	0.00
396.04	7.02
396.23	0.00
396.42	39.79
396.62	2.34
396.81	42.13
397.00	16.38
397.19	30.43
397.39	56.17
397.58	0.00
397.77	28.09
397.97	30.43
398.16	30.43
398.35	25.75
398.55	14.04
398.74	9.36
398.93	18.72
399.12	0.00
399.32	14.04
399.51	14.04
399.70	14.04
399.90	102.98
400.09	18.72
400.28	37.45
400.47	63.19
400.67	7.02
400.86	28.09
401.05	0.00
401.24	53.83
401.44	67.88
401.63	16.38
401.82	46.81
402.01	58.51
402.21	56.17
402.40	9.36
402.59	11.70
402.78	44.47
402.97	51.49
403.17	95.96
403.36	44.47
403.55	0.00
403.74	9.36
403.93	2.34
404.13	32.77
404.32	18.72
404.51	56.17
404.70	72.56
404.89	70.22
405.09	67.88
405.28	23.41
405.47	84.26
405.66	16.38
405.85	79.58
406.05	56.17
406.24	72.56
406.43	11.70
406.62	0.00
406.81	44.47
407.00	91.28
407.20	14.04
407.39	7.02
407.58	16.38
407.77	0.00
407.96	23.41
408.15	14.04
408.34	7.02
408.54	72.56
408.73	86.60
408.92	16.38
409.11	30.43
409.30	65.54
409.49	98.30
409.68	39.79
409.87	0.00
410.07	0.00
410.26	58.51
410.45	0.00
410.64	0.00
410.83	18.72
411.02	0.00
411.21	32.77
411.40	32.77
411.59	37.45
411.78	86.60
411.98	16.38
412.17	65.54
412.36	49.15
412.55	51.49
412.74	70.22
412.93	35.11
413.12	0.00
413.31	0.00
413.50	14.04
413.69	0.00
413.88	79.58
414.07	60.85
414.26	18.72
414.45	65.54
414.64	18.72
414.83	23.41
415.02	32.77
415.22	53.83
415.41	4.68
415.60	56.17
415.79	49.15
415.98	77.24
416.17	53.83
416.36	44.47
416.55	79.58
416.74	0.00
416.93	63.19
417.12	0.00
417.31	28.09
417.50	98.30
417.69	60.85
417.88	119.37
418.07	16.38
418.26	117.03
418.45	0.00
418.64	84.26
418.83	0.00
419.02	30.43
419.21	18.72
419.39	0.00
419.58	39.79
419.77	9.36
419.96	37.45
420.15	28.09
420.34	60.85
420.53	37.45
420.72	18.72
420.91	30.43
421.10	74.90
421.29	58.51
421.48	51.49
421.67	25.75
421.86	65.54
422.05	114.69
422.24	0.00
422.43	63.19
422.61	39.79
422.80	51.49
422.99	9.36
423.18	60.85
423.37	74.90
423.56	44.47
423.75	44.47
423.94	49.15
424.13	81.92
424.32	70.22
424.50	88.94
424.69	44.47
424.88	51.49
425.07	21.06
425.26	72.56
425.45	81.92
425.64	11.70
425.83	81.92
426.01	119.37
426.20	9.36
426.39	37.45
426.58	56.17
426.77	95.96
426.96	35.11
427.15	25.75
427.33	147.45
427.52	23.41
427.71	56.17
427.90	70.22
428.09	2.34
428.28	77.24
428.46	72.56
428.65	119.37
428.84	39.79
429.03	42.13
429.22	145.11
429.40	35.11
429.59	86.60
429.78	49.15
429.97	42.13
430.16	0.00
430.34	105.32
430.53	18.72
430.72	74.90
430.91	93.62
431.10	53.83
431.28	0.00
431.47	28.09
431.66	35.11
431.85	46.81
432.03	114.69
432.22	42.13
432.41	74.90
432.60	49.15
432.79	107.66
432.97	88.94
433.16	114.69
433.35	0.00
433.54	16.38
433.72	100.64
433.91	86.60
434.10	30.43
434.28	49.15
434.47	72.56
434.66	0.00
434.85	0.00
435.03	51.49
435.22	23.41
435.41	4.68
435.59	32.77
435.78	79.58
435.97	4.68
436.16	11.70
436.34	58.51
436.53	88.94
436.72	0.00
436.90	67.88
437.09	65.54
437.28	30.43
437.46	77.24
437.65	16.38
437.84	74.90
438.02	44.47
438.21	0.00
438.40	32.77
438.58	65.54
438.77	79.58
438.96	128.73
439.14	53.83
439.33	84.26
439.52	58.51
439.70	28.09
439.89	60.85
440.08	14.04
440.26	67.88
440.45	42.13
440.63	0.00
440.82	0.00
441.01	86.60
441.19	95.96
441.38	58.51
441.57	88.94
441.75	58.51
441.94	105.32
442.12	37.45
442.31	110.01
442.50	35.11
442.68	100.64
442.87	53.83
443.05	124.05
443.24	51.49
443.43	0.00
443.61	35.11
443.80	58.51
443.98	4.68
444.17	28.09
444.35	91.28
444.54	21.06
444.73	0.00
444.91	72.56
445.10	28.09
445.28	51.49
445.47	72.56
445.65	0.00
445.84	28.09
446.02	37.45
446.21	152.13
446.39	86.60
446.58	74.90
446.77	72.56
446.95	95.96
447.14	58.51
447.32	51.49
447.51	14.04
447.69	4.68
447.88	53.83
448.06	21.06
448.25	77.24
448.43	37.45
448.62	53.83
448.80	74.90
448.99	72.56
449.17	88.94
449.36	63.19
449.54	91.28
449.73	0.00
449.91	53.83
450.10	51.49
450.28	18.72
450.46	70.22
450.65	37.45
450.83	100.64
451.02	16.38
451.20	18.72
451.39	0.00
451.57	72.56
451.76	4.68
451.94	16.38
452.13	88.94
452.31	119.37
452.49	28.09
452.68	18.72
452.86	63.19
453.05	18.72
453.23	107.66
453.42	60.85
453.60	53.83
453.78	114.69
453.97	18.72
454.15	0.00
454.34	95.96
454.52	180.22
454.70	42.13
454.89	53.83
455.07	46.81
455.26	67.88
455.44	37.45
455.62	60.85
455.81	65.54
455.99	67.88
456.17	35.11
456.36	98.30
456.54	35.11
456.73	67.88
456.91	98.30
457.09	72.56
457.28	63.19
457.46	124.05
457.64	51.49
457.83	30.43
458.01	110.01
458.19	65.54
458.38	173.20
458.56	0.00
458.74	0.00
458.93	0.00
459.11	0.00
459.29	28.09
459.48	0.00
459.66	42.13
459.84	56.17
460.03	86.60
460.21	9.36
460.39	86.60
460.57	18.72
460.76	0.00
460.94	42.13
461.12	46.81
461.31	32.77
461.49	42.13
461.67	39.79
461.85	70.22
462.04	70.22
462.22	126.39
462.40	44.47
462.59	65.54
462.77	65.54
462.95	0.00
463.13	88.94
463.32	32.77
463.50	138.09
463.68	0.00
463.86	53.83
464.05	11.70
464.23	0.00
464.41	49.15
464.59	63.19
464.78	117.03
464.96	9.36
465.14	28.09
465.32	25.75
465.50	102.98
465.69	72.56
465.87	105.32
466.05	63.19
466.23	16.38
466.41	35.11
466.60	60.85
466.78	205.97
466.96	46.81
467.14	51.49
467.32	112.35
467.51	124.05
467.69	42.13
467.87	0.00
468.05	23.41
468.23	63.19
468.41	65.54
468.60	91.28
468.78	100.64
468.96	93.62
469.14	0.00
469.32	39.79
469.50	98.30
469.69	39.79
469.87	23.41
470.05	28.09
470.23	32.77
470.41	18.72
470.59	25.75
470.77	51.49
470.95	28.09
471.14	42.13
471.32	46.81
471.50	0.00
471.68	0.00
471.86	79.58
472.04	79.58
472.22	58.51
472.40	110.01
472.58	107.66
472.77	110.01
472.95	98.30
473.13	128.73
473.31	58.51
473.49	7.02
473.67	63.19
473.85	23.41
474.03	72.56
474.21	105.32
474.39	49.15
474.57	14.04
474.75	44.47
474.93	30.43
475.12	25.75
475.30	58.51
475.48	93.62
475.66	124.05
475.84	51.49
476.02	63.19
476.20	58.51
476.38	14.04
476.56	46.81
476.74	128.73
476.92	25.75
477.10	84.26
477.28	74.90
477.46	63.19
477.64	102.98
477.82	53.83
478.00	44.47
478.18	9.36
478.36	65.54
478.54	117.03
478.72	107.66
478.90	0.00
479.08	72.56
479.26	25.75
479.44	110.01
479.62	65.54
479.80	49.15
479.98	11.70
480.16	39.79
480.34	117.03
480.52	117.03
480.70	51.49
480.88	9.36
481.06	4.68
481.24	39.79
481.41	67.88
481.59	32.77
481.77	60.85
481.95	67.88
482.13	25.75
482.31	81.92
482.49	70.22
482.67	84.26
482.85	58.51
483.03	100.64
483.21	67.88
483.39	100.64
483.57	95.96
483.74	67.88
483.92	77.24
484.10	84.26
484.28	91.28
484.46	86.60
484.64	60.85
484.82	53.83
485.00	67.88
485.18	131.07
485.35	58.51
485.53	84.26
485.71	56.17
485.89	100.64
486.07	46.81
486.25	0.00
486.43	77.24
486.61	114.69
486.78	58.51
486.96	88.94
487.14	46.81
487.32	72.56
487.50	105.32
487.68	100.64
487.85	114.69
488.03	39.79
488.21	44.47
488.39	39.79
488.57	98.30
488.75	63.19
488.92	98.30
489.10	30.43
489.28	46.81
489.46	51.49
489.64	58.51
489.81	81.92
489.99	149.79
490.17	46.81
490.35	60.85
490.53	100.64
490.70	35.11
490.88	72.56
491.06	65.54
491.24	100.64
491.41	18.72
491.59	9.36
491.77	32.77
491.95	74.90
492.13	86.60
492.30	140.43
492.48	46.81
492.66	117.03
492.84	102.98
493.01	60.85
493.19	88.94
493.37	84.26
493.54	60.85
493.72	79.58
493.90	42.13
494.08	60.85
494.25	18.72
494.43	56.17
494.61	25.75
494.79	74.90
494.96	60.85
495.14	49.15
495.32	70.22
495.49	107.66
495.67	91.28
495.85	63.19
496.02	168.52
496.20	110.01
496.38	110.01
496.55	30.43
496.73	110.01
496.91	159.16
497.09	70.22
497.26	77.24
497.44	77.24
497.62	86.60
497.79	114.69
497.97	119.37
498.14	117.03
498.32	74.90
498.50	49.15
498.67	0.00
498.85	114.69
499.03	58.51
499.20	72.56
499.38	16.38
499.56	67.88
499.73	79.58
499.91	107.66
500.08	138.09
500.26	60.85
500.44	102.98
500.61	74.90
500.79	117.03
500.97	131.07
501.14	23.41
501.32	79.58
501.49	112.35
501.67	77.24
501.84	23.41
502.02	46.81
502.20	110.01
502.37	84.26
502.55	88.94
502.72	30.43
502.90	84.26
503.07	98.30
503.25	67.88
503.43	81.92
503.60	30.43
503.78	51.49
503.95	138.09
504.13	65.54
504.30	67.88
504.48	128.73
504.65	140.43
504.83	112.35
505.01	63.19
505.18	23.41
505.36	37.45
505.53	46.81
505.71	77.24
505.88	107.66
506.06	84.26
506.23	65.54
506.41	105.32
506.58	117.03
506.76	70.22
506.93	30.43
507.11	95.96
507.28	30.43
507.46	51.49
507.63	147.45
507.81	67.88
507.98	81.92
508.16	98.30
508.33	30.43
508.50	93.62
508.68	107.66
508.85	46.81
509.03	65.54
509.20	21.06
509.38	70.22
509.55	42.13
509.73	63.19
509.90	119.37
510.08	72.56
510.25	79.58
510.42	117.03
510.60	79.58
510.77	79.58
510.95	51.49
511.12	91.28
511.30	112.35
511.47	117.03
511.64	28.09
511.82	81.92
511.99	117.03
512.17	133.41
512.34	107.66
512.51	81.92
512.69	133.41
512.86	107.66
513.04	114.69
513.21	93.62
513.38	23.41
513.56	53.83
513.73	60.85
513.90	133.41
514.08	140.43
514.25	98.30
514.43	53.83
514.60	91.28
514.77	84.26
514.95	159.16
515.12	119.37
515.29	95.96
515.47	88.94
515.64	53.83
515.81	0.00
515.99	46.81
516.16	145.11
516.33	105.32
516.51	42.13
516.68	100.64
516.85	74.90
517.03	11.70
517.20	126.39
517.37	100.64
517.54	72.56
517.72	28.09
517.89	128.73
518.06	51.49
518.24	121.71
518.41	110.01
518.58	117.03
518.75	16.38
518.93	60.85
519.10	102.98
519.27	128.73
519.45	114.69
519.62	114.69
519.79	126.39
519.96	135.75
520.14	67.88
520.31	140.43
520.48	11.70
520.65	72.56
520.83	147.45
521.00	42.13
521.17	77.24
521.34	126.39
521.52	65.54
521.69	37.45
521.86	110.01
522.03	84.26
522.20	131.07
522.38	93.62
522.55	93.62
522.72	32.77
522.89	65.54
523.07	102.98
523.24	21.06
523.41	81.92
523.58	110.01
523.75	18.72
523.92	100.64
524.10	84.26
524.27	30.43
524.44	79.58
524.61	121.71
524.78	56.17
524.96	44.47
525.13	84.26
525.30	128.73
525.47	77.24
525.64	72.56
525.81	126.39
525.98	86.60
526.16	44.47
526.33	56.17
526.50	102.98
526.67	84.26
526.84	63.19
527.01	95.96
527.18	25.75
527.36	112.35
527.53	147.45
527.70	81.92
527.87	63.19
528.04	65.54
528.21	126.39
528.38	79.58
528.55	100.64
528.72	102.98
528.89	32.77
529.07	35.11
529.24	46.81
529.41	114.69
529.58	107.66
529.75	91.28
529.92	30.43
530.09	81.92
530.26	124.05
530.43	95.96
530.60	93.62
530.77	51.49
530.94	100.64
531.11	58.51
531.28	98.30
531.46	128.73
531.63	63.19
531.80	98.30
531.97	39.79
532.14	156.82
532.31	74.90
532.48	65.54
532.65	32.77
532.82	142.77
532.99	156.82
533.16	84.26
533.33	98.30
533.50	117.03
533.67	51.49
533.84	65.54
534.01	124.05
534.18	37.45
534.35	60.85
534.52	37.45
534.69	147.45
534.86	86.60
535.03	56.17
535.20	30.43
535.37	131.07
535.54	128.73
535.71	121.71
535.88	72.56
536.05	131.07
536.22	126.39
536.38	91.28
536.55	72.56
536.72	93.62
536.89	72.56
537.06	0.00
537.23	49.15
537.40	105.32
537.57	56.17
537.74	100.64
537.91	95.96
538.08	28.09
538.25	114.69
538.42	86.60
538.59	128.73
538.75	28.09
538.92	131.07
539.09	81.92
539.26	100.64
539.43	102.98
539.60	126.39
539.77	72.56
539.94	46.81
540.11	42.13
540.28	28.09
540.44	98.30
540.61	107.66
540.78	128.73
540.95	98.30
541.12	142.77
541.29	58.51
541.46	16.38
541.62	168.52
541.79	145.11
541.96	126.39
542.13	117.03
542.30	93.62
542.47	32.77
542.63	105.32
542.80	25.75
542.97	145.11
543.14	49.15
543.31	65.54
543.48	79.58
543.64	30.43
543.81	124.05
543.98	93.62
544.15	86.60
544.32	77.24
544.48	72.56
544.65	49.15
544.82	77.24
544.99	114.69
545.16	79.58
545.32	72.56
545.49	60.85
545.66	105.32
545.83	21.06
546.00	63.19
546.16	128.73
546.33	53.83
546.50	21.06
546.67	112.35
546.83	77.24
547.00	107.66
547.17	100.64
547.34	16.38
547.50	0.00
547.67	63.19
547.84	142.77
548.00	37.45
548.17	7.02
548.34	140.43
548.51	81.92
548.67	81.92
548.84	81.92
549.01	86.60
549.18	58.51
549.34	0.00
549.51	91.28
549.68	107.66
549.84	53.83
550.01	88.94
550.18	86.60
550.34	126.39
550.51	159.16
550.68	51.49
550.84	44.47
551.01	91.28
551.18	58.51
551.34	112.35
551.51	163.84
551.68	93.62
551.84	79.58
552.01	88.94
552.18	81.92
552.34	170.86
552.51	72.56
552.68	23.41
552.84	102.98
553.01	67.88
553.18	84.26
553.34	74.90
553.51	84.26
553.67	119.37
553.84	131.07
554.01	131.07
554.17	46.81
554.34	93.62
554.51	56.17
554.67	95.96
554.84	95.96
555.00	124.05
555.17	74.90
555.33	110.01
555.50	46.81
555.67	72.56
555.83	51.49
556.00	102.98
556.16	170.86
556.33	114.69
556.50	102.98
556.66	63.19
556.83	117.03
556.99	114.69
557.16	102.98
557.32	4.68
557.49	107.66
557.65	86.60
557.82	25.75
557.98	131.07
558.15	28.09
558.32	95.96
558.48	37.45
558.65	51.49
558.81	138.09
558.98	156.82
559.14	63.19
559.31	49.15
559.47	44.47
559.64	152.13
559.80	91.28
559.97	74.90
560.13	88.94
560.30	65.54
560.46	23.41
560.63	70.22
560.79	30.43
560.96	102.98
561.12	102.98
561.29	102.98
561.45	63.19
561.61	110.01
561.78	88.94
561.94	100.64
562.11	7.02
562.27	126.39
562.44	44.47
562.60	79.58
562.77	81.92
562.93	63.19
563.10	142.77
563.26	70.22
563.42	105.32
563.59	110.01
563.75	60.85
563.92	42.13
564.08	107.66
564.24	84.26
564.41	56.17
564.57	100.64
564.74	166.18
564.90	79.58
565.07	49.15
565.23	42.13
565.39	84.26
565.56	56.17
565.72	135.75
565.88	112.35
566.05	74.90
566.21	42.13
566.38	79.58
566.54	77.24
566.70	88.94
566.87	63.19
567.03	142.77
567.19	72.56
567.36	28.09
567.52	65.54
567.68	100.64
567.85	105.32
568.01	95.96
568.17	63.19
568.34	14.04
568.50	60.85
568.66	110.01
568.83	86.60
568.99	46.81
569.15	0.00
569.32	112.35
569.48	28.09
569.64	102.98
569.81	63.19
569.97	14.04
570.13	119.37
570.30	88.94
570.46	84.26
570.62	56.17
570.78	72.56
570.95	44.47
571.11	58.51
571.27	63.19
571.43	51.49
571.60	67.88
571.76	58.51
571.92	70.22
572.09	79.58
572.25	74.90
572.41	72.56
572.57	105.32
572.74	37.45
572.90	154.48
573.06	112.35
573.22	93.62
573.38	100.64
573.55	39.79
573.71	93.62
573.87	79.58
574.03	121.71
574.20	72.56
574.36	0.00
574.52	84.26
574.68	93.62
574.84	142.77
575.01	67.88
575.17	86.60
575.33	49.15
575.49	21.06
575.65	58.51
575.82	0.00
575.98	88.94
576.14	133.41
576.30	81.92
576.46	105.32
576.62	84.26
576.79	91.28
576.95	70.22
577.11	74.90
577.27	133.41
577.43	49.15
577.59	35.11
577.75	126.39
577.92	95.96
578.08	58.51
578.24	79.58
578.40	42.13
578.56	72.56
578.72	138.09
578.88	58.51
579.04	154.48
579.21	88.94
579.37	23.41
579.53	14.04
579.69	88.94
579.85	98.30
580.01	105.32
580.17	16.38
580.33	77.24
580.49	91.28
580.65	70.22
580.82	119.37
580.98	74.90
581.14	135.75
581.30	58.51
581.46	79.58
581.62	49.15
581.78	93.62
581.94	128.73
582.10	51.49
582.26	98.30
582.42	119.37
582.58	9.36
582.74	86.60
582.90	56.17
583.06	70.22
583.22	67.88
583.38	84.26
583.54	93.62
583.70	112.35
583.86	7.02
584.02	100.64
584.18	88.94
584.34	65.54
584.50	44.47
584.66	154.48
584.82	30.43
584.98	98.30
585.14	0.00
585.30	187.24
585.46	88.94
585.62	100.64
585.78	4.68
585.94	110.01
586.10	67.88
586.26	60.85
586.42	63.19
586.58	93.62
586.74	117.03
586.90	56.17
587.06	56.17
587.22	65.54
587.38	46.81
587.54	93.62
587.70	79.58
587.86	79.58
588.02	39.79
588.18	67.88
588.34	28.09
588.49	70.22
588.65	107.66
588.81	9.36
588.97	46.81
589.13	11.70
589.29	28.09
589.45	14.04
589.61	72.56
589.77	23.41
589.93	30.43
590.08	95.96
590.24	25.75
590.40	37.45
590.56	67.88
590.72	60.85
590.88	79.58
591.04	30.43
591.20	30.43
591.35	159.16
591.51	84.26
591.67	121.71
591.83	46.81
591.99	117.03
592.15	112.35
592.31	23.41
592.46	42.13
592.62	147.45
592.78	135.75
592.94	79.58
593.10	63.19
593.26	53.83
593.41	84.26
593.57	86.60
593.73	11.70
593.89	128.73
594.05	39.79
594.20	0.00
594.36	60.85
594.52	0.00
594.68	23.41
594.84	100.64
594.99	37.45
595.15	105.32
595.31	37.45
595.47	60.85
595.62	107.66
595.78	91.28
595.94	77.24
596.10	9.36
596.25	53.83
596.41	25.75
596.57	107.66
596.73	53.83
596.88	91.28
597.04	42.13
597.20	154.48
597.36	105.32
597.51	72.56
597.67	23.41
597.83	42.13
597.99	44.47
598.14	72.56
598.30	98.30
598.46	30.43
598.61	84.26
598.77	51.49
598.93	77.24
599.09	121.71
599.24	46.81
599.40	105.32
599.56	77.24
599.71	86.60
599.87	79.58
600.03	65.54
600.18	91.28
600.34	35.11
600.50	23.41
600.65	53.83
600.81	95.96
600.97	42.13
601.12	18.72
601.28	65.54
601.44	11.70
601.59	0.00
601.75	37.45
601.91	93.62
602.06	35.11
602.22	42.13
602.37	124.05
602.53	30.43
602.69	51.49
602.84	35.11
603.00	67.88
603.16	46.81
603.31	114.69
603.47	58.51
603.62	35.11
603.78	142.77
603.94	114.69
604.09	84.26
604.25	49.15
604.40	46.81
604.56	58.51
604.71	28.09
604.87	58.51
605.03	63.19
605.18	0.00
605.34	0.00
605.49	102.98
605.65	131.07
605.80	65.54
605.96	67.88
606.12	91.28
606.27	81.92
606.43	95.96
606.58	18.72
606.74	9.36
606.89	60.85
607.05	58.51
607.20	119.37
607.36	91.28
607.51	72.56
607.67	86.60
607.82	35.11
607.98	110.01
608.13	49.15
608.29	58.51
608.44	18.72
608.60	58.51
608.75	56.17
608.91	44.47
609.06	67.88
609.22	86.60
609.37	79.58
609.53	119.37
609.68	58.51
609.84	37.45
609.99	0.00
610.15	79.58
610.30	49.15
610.46	117.03
610.61	72.56
610.76	53.83
610.92	46.81
611.07	60.85
611.23	93.62
611.38	39.79
611.54	74.90
611.69	53.83
611.84	23.41
612.00	42.13
612.15	67.88
612.31	58.51
612.46	23.41
612.62	74.90
612.77	0.00
612.92	39.79
613.08	79.58
613.23	49.15
613.39	39.79
613.54	51.49
613.69	105.32
613.85	35.11
614.00	4.68
614.15	35.11
614.31	21.06
614.46	37.45
614.62	58.51
614.77	42.13
614.92	93.62
615.08	88.94
615.23	77.24
615.38	138.09
615.54	95.96
615.69	100.64
615.84	25.75
616.00	39.79
616.15	63.19
616.30	67.88
616.46	39.79
616.61	58.51
616.76	11.70
616.92	44.47
617.07	16.38
617.22	65.54
617.37	70.22
617.53	105.32
617.68	88.94
617.83	110.01
617.99	46.81
618.14	46.81
618.29	37.45
618.45	56.17
618.60	81.92
618.75	65.54
618.90	46.81
619.06	53.83
619.21	98.30
619.36	84.26
619.51	58.51
619.67	112.35
619.82	37.45
619.97	39.79
620.12	81.92
620.28	39.79
620.43	79.58
620.58	70.22
620.73	112.35
620.89	37.45
621.04	28.09
621.19	72.56
621.34	16.38
621.49	88.94
621.65	77.24
621.80	58.51
621.95	63.19
622.10	60.85
622.25	37.45
622.41	81.92
622.56	51.49
622.71	81.92
622.86	79.58
623.01	65.54
623.16	95.96
623.32	70.22
623.47	35.11
623.62	35.11
623.77	7.02
623.92	44.47
624.07	30.43
624.23	88.94
624.38	70.22
624.53	74.90
624.68	30.43
624.83	42.13
624.98	102.98
625.13	0.00
625.29	58.51
625.44	117.03
625.59	32.77
625.74	102.98
625.89	0.00
626.04	46.81
626.19	84.26
626.34	81.92
626.49	77.24
626.65	79.58
626.80	91.28
626.95	88.94
627.10	9.36
627.25	37.45
627.40	53.83
627.55	39.79
627.70	42.13
627.85	81.92
628.00	30.43
628.15	63.19
628.30	117.03
628.45	79.58
628.60	58.51
628.76	70.22
628.91	88.94
629.06	67.88
629.21	128.73
629.36	39.79
629.51	0.00
629.66	98.30
629.81	28.09
629.96	72.56
630.11	67.88
630.26	53.83
630.41	79.58
630.56	37.45
630.71	56.17
630.86	21.06
631.01	35.11
631.16	46.81
631.31	58.51
631.46	4.68
631.61	131.07
631.76	56.17
631.91	56.17
632.06	88.94
632.21	135.75
632.36	14.04
632.51	67.88
632.66	44.47
632.81	110.01
632.96	53.83
633.10	72.56
633.25	121.71
633.40	30.43
633.55	21.06
633.70	18.72
633.85	88.94
634.00	28.09
634.15	60.85
634.30	53.83
634.45	65.54
634.60	70.22
634.75	56.17
634.90	39.79
635.05	51.49
635.19	4.68
635.34	63.19
635.49	58.51
635.64	72.56
635.79	86.60
635.94	53.83
636.09	58.51
636.24	98.30
636.39	28.09
636.53	0.00
636.68	86.60
636.83	35.11
636.98	112.35
637.13	74.90
637.28	88.94
637.43	67.88
637.57	46.81
637.72	35.11
637.87	0.00
638.02	32.77
638.17	112.35
638.32	49.15
638.46	86.60
638.61	84.26
638.76	126.39
638.91	39.79
639.06	35.11
639.20	0.00
639.35	67.88
639.50	91.28
639.65	70.22
639.80	112.35
639.94	72.56
640.09	11.70
640.24	86.60
640.39	145.11
640.54	14.04
640.68	0.00
640.83	14.04
640.98	81.92
641.13	35.11
641.27	28.09
641.42	51.49
641.57	95.96
641.72	65.54
641.86	44.47
642.01	70.22
642.16	4.68
642.31	0.00
642.45	60.85
642.60	56.17
642.75	67.88
642.90	135.75
643.04	14.04
643.19	105.32
643.34	0.00
643.48	25.75
643.63	37.45
643.78	53.83
643.93	98.30
644.07	18.72
644.22	25.75
644.37	0.00
644.51	93.62
644.66	0.00
644.81	42.13
644.95	44.47
645.10	37.45
645.25	58.51
645.39	49.15
645.54	60.85
645.69	44.47
645.83	65.54
645.98	11.70
646.13	0.00
646.27	42.13
646.42	60.85
646.57	114.69
646.71	25.75
646.86	4.68
647.00	110.01
647.15	18.72
647.30	51.49
647.44	21.06
647.59	79.58
647.74	46.81
647.88	93.62
648.03	30.43
648.17	100.64
648.32	9.36
648.47	16.38
648.61	25.75
648.76	42.13
648.90	53.83
649.05	0.00
649.20	18.72
649.34	58.51
649.49	79.58
649.63	60.85
649.78	65.54
649.92	93.62
650.07	44.47
650.21	53.83
650.36	58.51
650.51	60.85
650.65	65.54
650.80	39.79
650.94	53.83
651.09	23.41
651.23	0.00
651.38	56.17
651.52	28.09
651.67	67.88
651.81	56.17
651.96	35.11
652.10	56.17
652.25	67.88
652.39	114.69
652.54	58.51
652.68	42.13
652.83	72.56
652.97	79.58
653.12	49.15
653.26	35.11
653.41	119.37
653.55	72.56
653.70	53.83
653.84	25.75
653.99	95.96
654.13	86.60
654.27	37.45
654.42	53.83
654.56	0.00
654.71	53.83
654.85	25.75
655.00	42.13
655.14	74.90
655.29	9.36
655.43	32.77
655.57	107.66
655.72	42.13
655.86	117.03
656.01	95.96
656.15	32.77
656.30	9.36
656.44	30.43
656.58	77.24
656.73	32.77
656.87	37.45
657.01	44.47
657.16	32.77
657.30	18.72
657.45	32.77
657.59	63.19
657.73	18.72
657.88	25.75
658.02	0.00
658.16	102.98
658.31	131.07
658.45	39.79
658.60	28.09
658.74	91.28
658.88	79.58
659.03	44.47
659.17	9.36
659.31	44.47
659.46	25.75
659.60	2.34
659.74	63.19
659.89	2.34
660.03	51.49
660.17	42.13
660.32	28.09
660.46	44.47
660.60	25.75
660.74	49.15
660.89	77.24
661.03	51.49
661.17	42.13
661.32	0.00
661.46	32.77
661.60	42.13
661.74	74.90
661.89	60.85
662.03	74.90
662.17	70.22
662.31	63.19
662.46	100.64
662.60	79.58
662.74	102.98
662.88	30.43
663.03	0.00
663.17	110.01
663.31	2.34
663.45	0.00
663.60	70.22
663.74	42.13
663.88	79.58
664.02	56.17
664.17	58.51
664.31	65.54
664.45	30.43
664.59	28.09
664.73	107.66
664.88	21.06
665.02	70.22
665.16	53.83
665.30	0.00
665.44	16.38
665.59	98.30
665.73	91.28
665.87	60.85
666.01	56.17
666.15	49.15
666.29	79.58
666.44	112.35
666.58	60.85
666.72	124.05
666.86	60.85
667.00	74.90
667.14	67.88
667.28	4.68
667.43	53.83
667.57	11.70
667.71	2.34
667.85	37.45
667.99	11.70
668.13	16.38
668.27	42.13
668.41	16.38
668.56	53.83
668.70	25.75
668.84	14.04
668.98	49.15
669.12	79.58
669.26	11.70
669.40	0.00
669.54	51.49
669.68	56.17
669.82	35.11
669.96	16.38
670.10	63.19
670.25	58.51
670.39	0.00
670.53	51.49
670.67	18.72
670.81	93.62
670.95	28.09
671.09	7.02
671.23	49.15
671.37	35.11
671.51	7.02
671.65	0.00
671.79	14.04
671.93	4.68
672.07	21.06
672.21	60.85
672.35	28.09
672.49	49.15
672.63	86.60
672.77	72.56
672.91	37.45
673.05	98.30
673.19	121.71
673.33	46.81
673.47	67.88
673.61	11.70
673.75	0.00
673.89	56.17
674.03	84.26
674.17	37.45
674.31	0.00
674.45	23.41
674.59	23.41
674.73	4.68
674.87	77.24
675.01	0.00
675.15	51.49
675.29	23.41
675.43	0.00
675.56	18.72
675.70	46.81
675.84	39.79
675.98	51.49
676.12	35.11
676.26	16.38
676.40	56.17
676.54	95.96
676.68	91.28
676.82	42.13
676.96	128.73
677.10	74.90
677.23	131.07
677.37	30.43
677.51	32.77
677.65	0.00
677.79	35.11
677.93	25.75
678.07	9.36
678.21	58.51
678.34	60.85
678.48	98.30
678.62	79.58
678.76	23.41
678.90	25.75
679.04	11.70
679.18	21.06
679.31	93.62
679.45	46.81
679.59	39.79
679.73	30.43
679.87	102.98
680.00	28.09
680.14	0.00
680.28	117.03
680.42	72.56
680.56	23.41
680.70	21.06
680.83	65.54
680.97	79.58
681.11	51.49
681.25	30.43
681.39	70.22
681.52	16.38
681.66	67.88
681.80	0.00
681.94	0.00
682.07	0.00
682.21	14.04
682.35	51.49
682.49	0.00
682.62	77.24
682.76	23.41
682.90	0.00
683.04	79.58
683.17	18.72
683.31	0.00
683.45	70.22
683.59	21.06
683.72	114.69
683.86	46.81
684.00	84.26
684.13	0.00
684.27	49.15
684.41	88.94
684.55	44.47
684.68	0.00
684.82	56.17
684.96	16.38
685.09	56.17
685.23	44.47
685.37	0.00
685.50	79.58
685.64	4.68
685.78	9.36
685.91	0.00
686.05	65.54
686.19	46.81
686.32	88.94
686.46	60.85
686.60	25.75
686.73	21.06
686.87	74.90
687.01	0.00
687.14	0.00
687.28	46.81
687.42	44.47
687.55	60.85
687.69	0.00
687.82	42.13
687.96	44.47
688.10	49.15
688.23	42.13
688.37	42.13
688.50	37.45
688.64	28.09
688.78	37.45
688.91	56.17
689.05	95.96
689.18	32.77
689.32	65.54
689.46	23.41
689.59	42.13
689.73	46.81
689.86	86.60
690.00	0.00
690.13	9.36
690.27	25.75
690.41	0.00
690.54	0.00
690.68	32.77
690.81	84.26
690.95	2.34
691.08	58.51
691.22	25.75
691.35	0.00
691.49	49.15
691.62	37.45
691.76	67.88
691.89	42.13
692.03	23.41
692.16	42.13
692.30	0.00
692.43	0.00
692.57	4.68
692.70	16.38
692.84	46.81
692.97	0.00
693.11	39.79
693.24	79.58
693.38	0.00
693.51	49.15
693.65	0.00
693.78	65.54
693.92	0.00
694.05	98.30
694.19	4.68
694.32	23.41
694.45	0.00
694.59	56.17
694.72	53.83
694.86	2.34
694.99	30.43
695.13	39.79
695.26	0.00
695.39	79.58
695.53	53.83
695.66	18.72
695.80	91.28
695.93	0.00
696.07	21.06
696.20	46.81
696.33	25.75
696.47	35.11
696.60	0.00
696.73	56.17
696.87	42.13
697.00	56.17
697.14	28.09
697.27	53.83
697.40	0.00
697.54	16.38
697.67	23.41
697.80	0.00
697.94	84.26
698.07	60.85
698.21	95.96
698.34	23.41
698.47	105.32
698.61	84.26
698.74	42.13
698.87	0.00
699.01	28.09
699.14	37.45
699.27	0.00
699.40	65.54
699.54	0.00
699.67	14.04
699.80	105.32
699.94	23.41
700.07	44.47
700.20	30.43
700.34	37.45
700.47	0.00
700.60	0.00
700.73	63.19
700.87	21.06
701.00	51.49
701.13	39.79
701.26	70.22
701.40	74.90
701.53	32.77
701.66	86.60
701.79	25.75
701.93	102.98
702.06	28.09
702.19	21.06
702.32	32.77
702.46	49.15
702.59	0.00
702.72	30.43
702.85	18.72
702.99	7.02
703.12	117.03
703.25	79.58
703.38	56.17
703.51	63.19
703.65	28.09
703.78	0.00
703.91	46.81
704.04	53.83
704.17	63.19
704.31	44.47
704.44	2.34
704.57	0.00
704.70	16.38
704.83	0.00
704.96	77.24
705.10	53.83
705.23	39.79
>>>>>End Processed Spectral Data<<<<<
