SpectraSuite Data File
++++++++++++++++++++++++++++++++++++
Date: Fri Oct 04 12:13:27 GMT-05:00 2013
User: price-jones
Dark Spectrum Present: No
Reference Spectrum Present: No
Number of Sampled Component Spectra: 1
Spectrometers: USB2+H05261
Integration Time (usec): 10000 (USB2+H05261)
Spectra Averaged: 1 (USB2+H05261)
Boxcar Smoothing: 0 (USB2+H05261)
Correct for Electrical Dark: No (USB2+H05261)
Strobe/Lamp Enabled: No (USB2+H05261)
Correct for Detector Non-linearity: No (USB2+H05261)
Correct for Stray Light: No (USB2+H05261)
Number of Pixels in Processed Spectrum: 2048
>>>>>Begin Processed Spectral Data<<<<<
365.73	0.00
365.92	0.00
366.12	0.00
366.32	0.00
366.52	0.00
366.72	0.00
366.91	0.00
367.11	0.00
367.31	0.00
367.51	0.00
367.70	0.00
367.90	0.00
368.10	0.00
368.30	0.00
368.49	0.00
368.69	0.00
368.89	0.00
369.09	0.00
369.28	0.00
369.48	0.00
369.68	0.00
369.87	0.00
370.07	0.00
370.27	0.00
370.47	0.00
370.66	0.00
370.86	0.00
371.06	0.00
371.25	0.00
371.45	0.00
371.65	0.00
371.84	0.00
372.04	0.00
372.24	32.77
372.44	0.00
372.63	30.43
372.83	42.13
373.03	58.51
373.22	0.00
373.42	0.00
373.62	65.54
373.81	60.85
374.01	0.00
374.21	124.05
374.40	18.72
374.60	0.00
374.79	110.01
374.99	9.36
375.19	42.13
375.38	23.41
375.58	16.38
375.78	0.00
375.97	30.43
376.17	11.70
376.37	77.24
376.56	11.70
376.76	91.28
376.95	74.90
377.15	0.00
377.35	0.00
377.54	77.24
377.74	7.02
377.93	16.38
378.13	18.72
378.33	0.00
378.52	44.47
378.72	58.51
378.91	0.00
379.11	70.22
379.31	53.83
379.50	84.26
379.70	0.00
379.89	39.79
380.09	0.00
380.28	63.19
380.48	77.24
380.68	0.00
380.87	0.00
381.07	67.88
381.26	0.00
381.46	58.51
381.65	2.34
381.85	32.77
382.04	35.11
382.24	18.72
382.43	4.68
382.63	0.00
382.83	0.00
383.02	49.15
383.22	4.68
383.41	9.36
383.61	2.34
383.80	0.00
384.00	0.00
384.19	0.00
384.39	0.00
384.58	18.72
384.78	32.77
384.97	44.47
385.17	65.54
385.36	0.00
385.56	0.00
385.75	0.00
385.95	42.13
386.14	74.90
386.34	0.00
386.53	25.75
386.72	0.00
386.92	74.90
387.11	91.28
387.31	14.04
387.50	16.38
387.70	2.34
387.89	0.00
388.09	86.60
388.28	7.02
388.48	35.11
388.67	44.47
388.86	46.81
389.06	37.45
389.25	42.13
389.45	49.15
389.64	100.64
389.84	11.70
390.03	70.22
390.22	39.79
390.42	0.00
390.61	58.51
390.81	77.24
391.00	18.72
391.19	42.13
391.39	46.81
391.58	28.09
391.78	49.15
391.97	67.88
392.16	4.68
392.36	28.09
392.55	0.00
392.75	39.79
392.94	7.02
393.13	35.11
393.33	0.00
393.52	21.06
393.71	42.13
393.91	79.58
394.10	53.83
394.29	53.83
394.49	0.00
394.68	0.00
394.88	18.72
395.07	0.00
395.26	0.00
395.46	42.13
395.65	0.00
395.84	79.58
396.04	21.06
396.23	0.00
396.42	23.41
396.62	93.62
396.81	65.54
397.00	51.49
397.19	0.00
397.39	44.47
397.58	0.00
397.77	4.68
397.97	9.36
398.16	128.73
398.35	72.56
398.55	0.00
398.74	49.15
398.93	32.77
399.12	37.45
399.32	88.94
399.51	23.41
399.70	0.00
399.90	53.83
400.09	46.81
400.28	21.06
400.47	0.00
400.67	23.41
400.86	21.06
401.05	0.00
401.24	39.79
401.44	0.00
401.63	39.79
401.82	32.77
402.01	49.15
402.21	53.83
402.40	14.04
402.59	23.41
402.78	14.04
402.97	4.68
403.17	32.77
403.36	88.94
403.55	0.00
403.74	72.56
403.93	0.00
404.13	0.00
404.32	32.77
404.51	0.00
404.70	0.00
404.89	70.22
405.09	67.88
405.28	58.51
405.47	0.00
405.66	2.34
405.85	39.79
406.05	25.75
406.24	28.09
406.43	32.77
406.62	0.00
406.81	0.00
407.00	0.00
407.20	18.72
407.39	58.51
407.58	23.41
407.77	46.81
407.96	0.00
408.15	44.47
408.34	9.36
408.54	46.81
408.73	44.47
408.92	32.77
409.11	0.00
409.30	0.00
409.49	0.00
409.68	0.00
409.87	42.13
410.07	30.43
410.26	91.28
410.45	0.00
410.64	4.68
410.83	0.00
411.02	39.79
411.21	25.75
411.40	0.00
411.59	11.70
411.78	147.45
411.98	74.90
412.17	35.11
412.36	65.54
412.55	42.13
412.74	7.02
412.93	21.06
413.12	0.00
413.31	32.77
413.50	9.36
413.69	79.58
413.88	91.28
414.07	35.11
414.26	0.00
414.45	28.09
414.64	9.36
414.83	39.79
415.02	14.04
415.22	21.06
415.41	88.94
415.60	25.75
415.79	9.36
415.98	28.09
416.17	42.13
416.36	46.81
416.55	37.45
416.74	23.41
416.93	53.83
417.12	25.75
417.31	0.00
417.50	11.70
417.69	46.81
417.88	74.90
418.07	0.00
418.26	30.43
418.45	131.07
418.64	11.70
418.83	32.77
419.02	53.83
419.21	14.04
419.39	42.13
419.58	79.58
419.77	58.51
419.96	49.15
420.15	49.15
420.34	7.02
420.53	28.09
420.72	9.36
420.91	0.00
421.10	81.92
421.29	4.68
421.48	18.72
421.67	42.13
421.86	42.13
422.05	0.00
422.24	0.00
422.43	86.60
422.61	23.41
422.80	30.43
422.99	65.54
423.18	30.43
423.37	11.70
423.56	37.45
423.75	0.00
423.94	9.36
424.13	91.28
424.32	46.81
424.50	39.79
424.69	30.43
424.88	46.81
425.07	0.00
425.26	2.34
425.45	18.72
425.64	51.49
425.83	14.04
426.01	30.43
426.20	37.45
426.39	0.00
426.58	65.54
426.77	0.00
426.96	9.36
427.15	32.77
427.33	18.72
427.52	49.15
427.71	39.79
427.90	53.83
428.09	0.00
428.28	58.51
428.46	23.41
428.65	28.09
428.84	0.00
429.03	21.06
429.22	4.68
429.40	37.45
429.59	14.04
429.78	0.00
429.97	0.00
430.16	18.72
430.34	91.28
430.53	37.45
430.72	4.68
430.91	16.38
431.10	0.00
431.28	0.00
431.47	53.83
431.66	51.49
431.85	110.01
432.03	18.72
432.22	0.00
432.41	51.49
432.60	77.24
432.79	14.04
432.97	91.28
433.16	88.94
433.35	0.00
433.54	44.47
433.72	72.56
433.91	0.00
434.10	63.19
434.28	0.00
434.47	39.79
434.66	63.19
434.85	23.41
435.03	93.62
435.22	51.49
435.41	23.41
435.59	7.02
435.78	42.13
435.97	32.77
436.16	11.70
436.34	72.56
436.53	25.75
436.72	0.00
436.90	117.03
437.09	60.85
437.28	0.00
437.46	53.83
437.65	77.24
437.84	32.77
438.02	74.90
438.21	53.83
438.40	65.54
438.58	56.17
438.77	58.51
438.96	0.00
439.14	39.79
439.33	63.19
439.52	21.06
439.70	0.00
439.89	30.43
440.08	56.17
440.26	49.15
440.45	37.45
440.63	2.34
440.82	35.11
441.01	46.81
441.19	0.00
441.38	0.00
441.57	58.51
441.75	0.00
441.94	42.13
442.12	16.38
442.31	11.70
442.50	0.00
442.68	35.11
442.87	91.28
443.05	88.94
443.24	46.81
443.43	56.17
443.61	86.60
443.80	7.02
443.98	30.43
444.17	49.15
444.35	67.88
444.54	28.09
444.73	0.00
444.91	60.85
445.10	35.11
445.28	77.24
445.47	9.36
445.65	21.06
445.84	32.77
446.02	79.58
446.21	86.60
446.39	131.07
446.58	23.41
446.77	0.00
446.95	23.41
447.14	84.26
447.32	0.00
447.51	65.54
447.69	23.41
447.88	42.13
448.06	37.45
448.25	98.30
448.43	11.70
448.62	0.00
448.80	49.15
448.99	11.70
449.17	0.00
449.36	37.45
449.54	25.75
449.73	0.00
449.91	14.04
450.10	21.06
450.28	11.70
450.46	86.60
450.65	0.00
450.83	37.45
451.02	28.09
451.20	81.92
451.39	79.58
451.57	9.36
451.76	60.85
451.94	67.88
452.13	44.47
452.31	9.36
452.49	23.41
452.68	0.00
452.86	53.83
453.05	81.92
453.23	70.22
453.42	32.77
453.60	46.81
453.78	0.00
453.97	84.26
454.15	37.45
454.34	44.47
454.52	70.22
454.70	46.81
454.89	42.13
455.07	7.02
455.26	18.72
455.44	32.77
455.62	95.96
455.81	37.45
455.99	51.49
456.17	0.00
456.36	0.00
456.54	14.04
456.73	0.00
456.91	77.24
457.09	44.47
457.28	44.47
457.46	44.47
457.64	9.36
457.83	91.28
458.01	23.41
458.19	11.70
458.38	32.77
458.56	32.77
458.74	2.34
458.93	39.79
459.11	14.04
459.29	0.00
459.48	9.36
459.66	0.00
459.84	11.70
460.03	81.92
460.21	0.00
460.39	42.13
460.57	86.60
460.76	14.04
460.94	56.17
461.12	0.00
461.31	0.00
461.49	58.51
461.67	0.00
461.85	37.45
462.04	93.62
462.22	121.71
462.40	0.00
462.59	32.77
462.77	0.00
462.95	58.51
463.13	37.45
463.32	16.38
463.50	77.24
463.68	23.41
463.86	67.88
464.05	28.09
464.23	79.58
464.41	72.56
464.59	7.02
464.78	25.75
464.96	102.98
465.14	159.16
465.32	0.00
465.50	14.04
465.69	21.06
465.87	0.00
466.05	25.75
466.23	0.00
466.41	56.17
466.60	37.45
466.78	0.00
466.96	60.85
467.14	58.51
467.32	42.13
467.51	51.49
467.69	39.79
467.87	72.56
468.05	0.00
468.23	35.11
468.41	60.85
468.60	0.00
468.78	56.17
468.96	23.41
469.14	0.00
469.32	46.81
469.50	0.00
469.69	84.26
469.87	105.32
470.05	81.92
470.23	42.13
470.41	4.68
470.59	51.49
470.77	84.26
470.95	77.24
471.14	18.72
471.32	107.66
471.50	14.04
471.68	0.00
471.86	11.70
472.04	25.75
472.22	0.00
472.40	46.81
472.58	42.13
472.77	42.13
472.95	63.19
473.13	51.49
473.31	7.02
473.49	91.28
473.67	25.75
473.85	16.38
474.03	100.64
474.21	35.11
474.39	49.15
474.57	0.00
474.75	0.00
474.93	35.11
475.12	9.36
475.30	98.30
475.48	7.02
475.66	0.00
475.84	63.19
476.02	21.06
476.20	0.00
476.38	84.26
476.56	86.60
476.74	2.34
476.92	21.06
477.10	21.06
477.28	0.00
477.46	30.43
477.64	65.54
477.82	60.85
478.00	30.43
478.18	63.19
478.36	86.60
478.54	32.77
478.72	0.00
478.90	37.45
479.08	4.68
479.26	30.43
479.44	42.13
479.62	44.47
479.80	46.81
479.98	56.17
480.16	16.38
480.34	51.49
480.52	11.70
480.70	37.45
480.88	51.49
481.06	25.75
481.24	58.51
481.41	67.88
481.59	0.00
481.77	28.09
481.95	39.79
482.13	25.75
482.31	4.68
482.49	65.54
482.67	32.77
482.85	65.54
483.03	63.19
483.21	133.41
483.39	30.43
483.57	63.19
483.74	0.00
483.92	60.85
484.10	2.34
484.28	9.36
484.46	60.85
484.64	30.43
484.82	0.00
485.00	84.26
485.18	32.77
485.35	105.32
485.53	32.77
485.71	51.49
485.89	16.38
486.07	72.56
486.25	18.72
486.43	9.36
486.61	32.77
486.78	21.06
486.96	0.00
487.14	0.00
487.32	0.00
487.50	145.11
487.68	100.64
487.85	53.83
488.03	81.92
488.21	67.88
488.39	67.88
488.57	2.34
488.75	0.00
488.92	0.00
489.10	53.83
489.28	51.49
489.46	39.79
489.64	44.47
489.81	21.06
489.99	81.92
490.17	51.49
490.35	0.00
490.53	46.81
490.70	98.30
490.88	2.34
491.06	49.15
491.24	63.19
491.41	79.58
491.59	0.00
491.77	25.75
491.95	0.00
492.13	91.28
492.30	49.15
492.48	39.79
492.66	39.79
492.84	37.45
493.01	0.00
493.19	58.51
493.37	63.19
493.54	0.00
493.72	0.00
493.90	14.04
494.08	67.88
494.25	84.26
494.43	0.00
494.61	37.45
494.79	14.04
494.96	0.00
495.14	93.62
495.32	65.54
495.49	46.81
495.67	88.94
495.85	56.17
496.02	79.58
496.20	0.00
496.38	0.00
496.55	70.22
496.73	138.09
496.91	72.56
497.09	72.56
497.26	0.00
497.44	11.70
497.62	91.28
497.79	46.81
497.97	0.00
498.14	23.41
498.32	0.00
498.50	2.34
498.67	51.49
498.85	126.39
499.03	21.06
499.20	49.15
499.38	56.17
499.56	0.00
499.73	0.00
499.91	30.43
500.08	44.47
500.26	39.79
500.44	23.41
500.61	74.90
500.79	25.75
500.97	0.00
501.14	86.60
501.32	95.96
501.49	58.51
501.67	35.11
501.84	0.00
502.02	56.17
502.20	46.81
502.37	4.68
502.55	16.38
502.72	63.19
502.90	7.02
503.07	9.36
503.25	21.06
503.43	18.72
503.60	70.22
503.78	110.01
503.95	86.60
504.13	23.41
504.30	4.68
504.48	37.45
504.65	37.45
504.83	100.64
505.01	65.54
505.18	9.36
505.36	7.02
505.53	0.00
505.71	23.41
505.88	30.43
506.06	0.00
506.23	28.09
506.41	18.72
506.58	39.79
506.76	9.36
506.93	110.01
507.11	56.17
507.28	102.98
507.46	58.51
507.63	18.72
507.81	49.15
507.98	0.00
508.16	56.17
508.33	28.09
508.50	79.58
508.68	46.81
508.85	7.02
509.03	35.11
509.20	30.43
509.38	30.43
509.55	58.51
509.73	63.19
509.90	21.06
510.08	79.58
510.25	70.22
510.42	70.22
510.60	67.88
510.77	79.58
510.95	98.30
511.12	63.19
511.30	18.72
511.47	32.77
511.64	152.13
511.82	95.96
511.99	74.90
512.17	60.85
512.34	74.90
512.51	16.38
512.69	42.13
512.86	30.43
513.04	93.62
513.21	9.36
513.38	25.75
513.56	18.72
513.73	72.56
513.90	0.00
514.08	77.24
514.25	72.56
514.43	86.60
514.60	30.43
514.77	37.45
514.95	0.00
515.12	4.68
515.29	0.00
515.47	16.38
515.64	37.45
515.81	65.54
515.99	0.00
516.16	77.24
516.33	28.09
516.51	0.00
516.68	39.79
516.85	4.68
517.03	16.38
517.20	72.56
517.37	23.41
517.54	37.45
517.72	32.77
517.89	0.00
518.06	74.90
518.24	7.02
518.41	93.62
518.58	37.45
518.75	35.11
518.93	0.00
519.10	46.81
519.27	0.00
519.45	0.00
519.62	30.43
519.79	35.11
519.96	11.70
520.14	79.58
520.31	9.36
520.48	86.60
520.65	46.81
520.83	88.94
521.00	39.79
521.17	0.00
521.34	95.96
521.52	0.00
521.69	58.51
521.86	23.41
522.03	63.19
522.20	72.56
522.38	49.15
522.55	65.54
522.72	0.00
522.89	9.36
523.07	93.62
523.24	86.60
523.41	37.45
523.58	119.37
523.75	65.54
523.92	14.04
524.10	49.15
524.27	88.94
524.44	42.13
524.61	95.96
524.78	0.00
524.96	74.90
525.13	35.11
525.30	81.92
525.47	49.15
525.64	21.06
525.81	60.85
525.98	0.00
526.16	16.38
526.33	35.11
526.50	4.68
526.67	79.58
526.84	32.77
527.01	42.13
527.18	74.90
527.36	23.41
527.53	0.00
527.70	16.38
527.87	7.02
528.04	0.00
528.21	23.41
528.38	0.00
528.55	0.00
528.72	37.45
528.89	49.15
529.07	16.38
529.24	67.88
529.41	16.38
529.58	133.41
529.75	63.19
529.92	9.36
530.09	30.43
530.26	11.70
530.43	23.41
530.60	28.09
530.77	25.75
530.94	0.00
531.11	74.90
531.28	9.36
531.46	0.00
531.63	35.11
531.80	9.36
531.97	23.41
532.14	93.62
532.31	0.00
532.48	114.69
532.65	25.75
532.82	98.30
532.99	91.28
533.16	72.56
533.33	114.69
533.50	18.72
533.67	7.02
533.84	30.43
534.01	0.00
534.18	42.13
534.35	0.00
534.52	11.70
534.69	51.49
534.86	37.45
535.03	60.85
535.20	79.58
535.37	46.81
535.54	7.02
535.71	60.85
535.88	11.70
536.05	105.32
536.22	46.81
536.38	65.54
536.55	46.81
536.72	0.00
536.89	32.77
537.06	23.41
537.23	100.64
537.40	65.54
537.57	0.00
537.74	117.03
537.91	0.00
538.08	11.70
538.25	0.00
538.42	46.81
538.59	70.22
538.75	63.19
538.92	30.43
539.09	30.43
539.26	37.45
539.43	44.47
539.60	189.58
539.77	264.48
539.94	227.03
540.11	201.29
540.28	28.09
540.44	86.60
540.61	102.98
540.78	51.49
540.95	88.94
541.12	32.77
541.29	21.06
541.46	28.09
541.62	11.70
541.79	35.11
541.96	65.54
542.13	51.49
542.30	37.45
542.47	79.58
542.63	35.11
542.80	16.38
542.97	0.00
543.14	72.56
543.31	65.54
543.48	32.77
543.64	56.17
543.81	0.00
543.98	39.79
544.15	23.41
544.32	63.19
544.48	79.58
544.65	42.13
544.82	163.84
544.99	18.72
545.16	58.51
545.32	16.38
545.49	4.68
545.66	21.06
545.83	0.00
546.00	21.06
546.16	0.00
546.33	86.60
546.50	49.15
546.67	25.75
546.83	42.13
547.00	91.28
547.17	0.00
547.34	0.00
547.50	74.90
547.67	70.22
547.84	88.94
548.00	56.17
548.17	0.00
548.34	0.00
548.51	77.24
548.67	102.98
548.84	44.47
549.01	44.47
549.18	37.45
549.34	2.34
549.51	77.24
549.68	67.88
549.84	2.34
550.01	32.77
550.18	30.43
550.34	93.62
550.51	42.13
550.68	51.49
550.84	44.47
551.01	84.26
551.18	30.43
551.34	0.00
551.51	121.71
551.68	98.30
551.84	124.05
552.01	46.81
552.18	44.47
552.34	53.83
552.51	67.88
552.68	0.00
552.84	0.00
553.01	102.98
553.18	0.00
553.34	11.70
553.51	37.45
553.67	11.70
553.84	72.56
554.01	0.00
554.17	46.81
554.34	0.00
554.51	88.94
554.67	35.11
554.84	18.72
555.00	2.34
555.17	51.49
555.33	93.62
555.50	44.47
555.67	58.51
555.83	79.58
556.00	49.15
556.16	100.64
556.33	0.00
556.50	30.43
556.66	0.00
556.83	37.45
556.99	65.54
557.16	4.68
557.32	91.28
557.49	53.83
557.65	124.05
557.82	21.06
557.98	74.90
558.15	0.00
558.32	0.00
558.48	0.00
558.65	81.92
558.81	2.34
558.98	70.22
559.14	39.79
559.31	46.81
559.47	25.75
559.64	0.00
559.80	2.34
559.97	4.68
560.13	67.88
560.30	72.56
560.46	49.15
560.63	56.17
560.79	58.51
560.96	4.68
561.12	23.41
561.29	49.15
561.45	51.49
561.61	98.30
561.78	49.15
561.94	46.81
562.11	42.13
562.27	14.04
562.44	0.00
562.60	46.81
562.77	32.77
562.93	72.56
563.10	37.45
563.26	107.66
563.42	16.38
563.59	7.02
563.75	91.28
563.92	65.54
564.08	72.56
564.24	23.41
564.41	11.70
564.57	0.00
564.74	88.94
564.90	53.83
565.07	70.22
565.23	63.19
565.39	49.15
565.56	119.37
565.72	0.00
565.88	2.34
566.05	7.02
566.21	88.94
566.38	14.04
566.54	2.34
566.70	95.96
566.87	18.72
567.03	51.49
567.19	51.49
567.36	51.49
567.52	88.94
567.68	131.07
567.85	0.00
568.01	18.72
568.17	14.04
568.34	49.15
568.50	46.81
568.66	100.64
568.83	72.56
568.99	30.43
569.15	18.72
569.32	51.49
569.48	53.83
569.64	65.54
569.81	32.77
569.97	91.28
570.13	63.19
570.30	28.09
570.46	65.54
570.62	70.22
570.78	72.56
570.95	0.00
571.11	32.77
571.27	81.92
571.43	121.71
571.60	0.00
571.76	32.77
571.92	39.79
572.09	0.00
572.25	42.13
572.41	79.58
572.57	84.26
572.74	18.72
572.90	0.00
573.06	53.83
573.22	79.58
573.38	53.83
573.55	30.43
573.71	32.77
573.87	42.13
574.03	46.81
574.20	60.85
574.36	51.49
574.52	79.58
574.68	0.00
574.84	53.83
575.01	112.35
575.17	18.72
575.33	53.83
575.49	63.19
575.65	93.62
575.82	65.54
575.98	121.71
576.14	133.41
576.30	119.37
576.46	107.66
576.62	72.56
576.79	0.00
576.95	37.45
577.11	79.58
577.27	0.00
577.43	58.51
577.59	39.79
577.75	84.26
577.92	9.36
578.08	7.02
578.24	70.22
578.40	25.75
578.56	0.00
578.72	7.02
578.88	79.58
579.04	39.79
579.21	60.85
579.37	63.19
579.53	32.77
579.69	46.81
579.85	49.15
580.01	84.26
580.17	25.75
580.33	98.30
580.49	105.32
580.65	7.02
580.82	39.79
580.98	74.90
581.14	53.83
581.30	28.09
581.46	37.45
581.62	74.90
581.78	95.96
581.94	191.92
582.10	77.24
582.26	110.01
582.42	46.81
582.58	142.77
582.74	74.90
582.90	39.79
583.06	107.66
583.22	72.56
583.38	74.90
583.54	133.41
583.70	56.17
583.86	37.45
584.02	117.03
584.18	147.45
584.34	231.71
584.50	468.11
584.66	3391.44
584.82	8273.79
584.98	12149.72
585.14	10600.29
585.30	6497.33
585.46	4014.02
585.62	2445.86
585.78	1219.42
585.94	465.77
586.10	220.01
586.26	161.50
586.42	30.43
586.58	98.30
586.74	79.58
586.90	131.07
587.06	107.66
587.22	46.81
587.38	39.79
587.54	220.01
587.70	524.28
587.86	833.23
588.02	880.04
588.18	667.05
588.34	390.87
588.49	332.36
588.65	170.86
588.81	105.32
588.97	88.94
589.13	72.56
589.29	28.09
589.45	91.28
589.61	74.90
589.77	37.45
589.93	112.35
590.08	7.02
590.24	79.58
590.40	105.32
590.56	72.56
590.72	60.85
590.88	0.00
591.04	35.11
591.20	53.83
591.35	114.69
591.51	119.37
591.67	39.79
591.83	35.11
591.99	21.06
592.15	49.15
592.31	49.15
592.46	0.00
592.62	14.04
592.78	65.54
592.94	18.72
593.10	28.09
593.26	84.26
593.41	56.17
593.57	86.60
593.73	88.94
593.89	416.62
594.05	1025.15
594.20	1540.07
594.36	1334.11
594.52	1043.88
594.68	594.50
594.84	407.25
594.99	220.01
595.15	107.66
595.31	65.54
595.47	72.56
595.62	95.96
595.78	39.79
595.94	56.17
596.10	2.34
596.25	28.09
596.41	70.22
596.57	42.13
596.73	91.28
596.88	105.32
597.04	248.10
597.20	360.44
597.36	353.42
597.51	273.84
597.67	166.18
597.83	138.09
597.99	58.51
598.14	39.79
598.30	65.54
598.46	95.96
598.61	60.85
598.77	30.43
598.93	42.13
599.09	42.13
599.24	0.00
599.40	56.17
599.56	49.15
599.71	65.54
599.87	37.45
600.03	72.56
600.18	53.83
600.34	25.75
600.50	28.09
600.65	46.81
600.81	86.60
600.97	25.75
601.12	11.70
601.28	35.11
601.44	70.22
601.59	88.94
601.75	53.83
601.91	18.72
602.06	72.56
602.22	128.73
602.37	126.39
602.53	283.20
602.69	425.98
602.84	362.78
603.00	372.15
603.16	210.65
603.31	126.39
603.47	53.83
603.62	112.35
603.78	65.54
603.94	100.64
604.09	77.24
604.25	37.45
604.40	9.36
604.56	93.62
604.71	30.43
604.87	79.58
605.03	65.54
605.18	0.00
605.34	88.94
605.49	39.79
605.65	9.36
605.80	142.77
605.96	25.75
606.12	53.83
606.27	39.79
606.43	9.36
606.58	77.24
606.74	84.26
606.89	496.19
607.05	940.90
607.20	1252.19
607.36	1146.86
607.51	739.61
607.67	479.81
607.82	283.20
607.98	208.31
608.13	187.24
608.29	88.94
608.44	74.90
608.60	88.94
608.75	95.96
608.91	196.60
609.06	760.67
609.22	1654.76
609.37	2223.51
609.53	1923.92
609.68	1331.76
609.84	835.57
609.99	547.69
610.15	322.99
610.30	220.01
610.46	65.54
610.61	16.38
610.76	114.69
610.92	74.90
611.07	35.11
611.23	23.41
611.38	77.24
611.54	39.79
611.69	56.17
611.84	0.00
612.00	0.00
612.15	37.45
612.31	135.75
612.46	74.90
612.62	121.71
612.77	149.79
612.92	100.64
613.08	117.03
613.23	86.60
613.39	74.90
613.54	126.39
613.69	751.31
613.85	2036.27
614.00	3220.58
614.15	3517.83
614.31	2537.14
614.46	1603.27
614.62	1163.25
614.77	706.84
614.92	231.71
615.08	112.35
615.23	67.88
615.38	84.26
615.54	30.43
615.69	77.24
615.84	477.47
616.00	755.99
616.15	997.07
616.30	730.25
616.46	512.58
616.61	355.76
616.76	243.42
616.92	191.92
617.07	86.60
617.22	168.52
617.37	65.54
617.53	46.81
617.68	74.90
617.83	140.43
617.99	58.51
618.14	67.88
618.29	4.68
618.45	18.72
618.60	32.77
618.75	60.85
618.90	0.00
619.06	35.11
619.21	35.11
619.36	49.15
619.51	18.72
619.67	65.54
619.82	14.04
619.97	70.22
620.12	39.79
620.28	32.77
620.43	0.00
620.58	88.94
620.73	70.22
620.89	119.37
621.04	77.24
621.19	313.63
621.34	454.06
621.49	568.75
621.65	491.51
621.80	332.36
621.95	220.01
622.10	184.90
622.25	124.05
622.41	135.75
622.56	65.54
622.71	84.26
622.86	86.60
623.01	72.56
623.16	79.58
623.32	42.13
623.47	14.04
623.62	0.00
623.77	0.00
623.92	0.00
624.07	32.77
624.23	7.02
624.38	93.62
624.53	0.00
624.68	23.41
624.83	4.68
624.98	30.43
625.13	105.32
625.29	9.36
625.44	4.68
625.59	49.15
625.74	60.85
625.89	91.28
626.04	339.38
626.19	1027.50
626.34	1689.87
626.49	1834.98
626.65	1282.61
626.80	943.24
626.95	676.41
627.10	402.57
627.25	222.35
627.40	191.92
627.55	53.83
627.70	58.51
627.85	84.26
628.00	74.90
628.15	81.92
628.30	65.54
628.45	42.13
628.60	56.17
628.76	77.24
628.91	67.88
629.06	46.81
629.21	112.35
629.36	74.90
629.51	30.43
629.66	46.81
629.81	23.41
629.96	245.76
630.11	367.46
630.26	491.51
630.41	437.68
630.56	346.40
630.71	173.20
630.86	182.56
631.01	124.05
631.16	117.03
631.31	95.96
631.46	119.37
631.61	28.09
631.76	46.81
631.91	25.75
632.06	58.51
632.21	49.15
632.36	37.45
632.51	0.00
632.66	67.88
632.81	191.92
632.96	575.77
633.10	1055.58
633.25	1338.79
633.40	1078.99
633.55	725.57
633.70	486.83
633.85	346.40
634.00	135.75
634.15	196.60
634.30	32.77
634.45	77.24
634.60	44.47
634.75	0.00
634.90	53.83
635.05	39.79
635.19	88.94
635.34	131.07
635.49	7.02
635.64	7.02
635.79	18.72
635.94	2.34
636.09	93.62
636.24	16.38
636.39	0.00
636.53	102.98
636.68	0.00
636.83	28.09
636.98	18.72
637.13	86.60
637.28	100.64
637.43	42.13
637.57	79.58
637.72	409.59
637.87	1357.51
638.02	2101.80
638.17	2289.04
638.32	1802.21
638.46	1238.14
638.61	917.49
638.76	505.56
638.91	313.63
639.06	124.05
639.20	145.11
639.35	53.83
639.50	105.32
639.65	734.93
639.80	2090.10
639.94	3253.34
640.09	3641.87
640.24	2825.03
640.39	1905.20
640.54	1287.29
640.68	678.76
640.83	381.51
640.98	198.95
641.13	131.07
641.27	93.62
641.42	32.77
641.57	100.64
641.72	107.66
641.86	0.00
642.01	2.34
642.16	35.11
642.31	51.49
642.45	35.11
642.60	49.15
642.75	91.28
642.90	49.15
643.04	0.00
643.19	74.90
643.34	0.00
643.48	58.51
643.63	0.00
643.78	56.17
643.93	60.85
644.07	18.72
644.22	95.96
644.37	0.00
644.51	58.51
644.66	25.75
644.81	56.17
644.95	95.96
645.10	18.72
645.25	49.15
645.39	30.43
645.54	53.83
645.69	11.70
645.83	56.17
645.98	81.92
646.13	114.69
646.27	0.00
646.42	9.36
646.57	28.09
646.71	58.51
646.86	56.17
647.00	7.02
647.15	9.36
647.30	7.02
647.44	37.45
647.59	18.72
647.74	39.79
647.88	0.00
648.03	65.54
648.17	53.83
648.32	23.41
648.47	60.85
648.61	72.56
648.76	72.56
648.90	74.90
649.05	14.04
649.20	49.15
649.34	39.79
649.49	51.49
649.63	30.43
649.78	14.04
649.92	91.28
650.07	318.31
650.21	894.08
650.36	1500.28
650.51	1984.77
650.65	1523.69
650.80	1151.54
650.94	767.70
651.09	440.02
651.23	248.10
651.38	124.05
651.52	56.17
651.67	0.00
651.81	91.28
651.96	30.43
652.10	131.07
652.25	63.19
652.39	95.96
652.54	65.54
652.68	98.30
652.83	236.39
652.97	514.92
653.12	716.20
653.26	678.76
653.41	444.70
653.55	374.49
653.70	201.29
653.84	119.37
653.99	102.98
654.13	28.09
654.27	0.00
654.42	0.00
654.56	23.41
654.71	105.32
654.85	14.04
655.00	60.85
655.14	49.15
655.29	18.72
655.43	0.00
655.57	25.75
655.72	0.00
655.86	88.94
656.01	0.00
656.15	72.56
656.30	44.47
656.44	0.00
656.58	30.43
656.73	0.00
656.87	28.09
657.01	112.35
657.16	60.85
657.30	0.00
657.45	42.13
657.59	58.51
657.73	86.60
657.88	0.00
658.02	14.04
658.16	28.09
658.31	0.00
658.45	0.00
658.60	25.75
658.74	0.00
658.88	46.81
659.03	95.96
659.17	0.00
659.31	77.24
659.46	341.72
659.60	741.95
659.74	959.62
659.89	905.79
660.03	664.71
660.17	442.36
660.32	245.76
660.46	131.07
660.60	112.35
660.74	74.90
660.89	124.05
661.03	110.01
661.17	39.79
661.32	67.88
661.46	91.28
661.60	30.43
661.74	91.28
661.89	56.17
662.03	81.92
662.17	72.56
662.31	16.38
662.46	0.00
662.60	56.17
662.74	65.54
662.88	46.81
663.03	16.38
663.17	9.36
663.31	0.00
663.45	72.56
663.60	67.88
663.74	18.72
663.88	23.41
664.02	32.77
664.17	32.77
664.31	28.09
664.45	53.83
664.59	70.22
664.73	0.00
664.88	28.09
665.02	30.43
665.16	42.13
665.30	81.92
665.44	23.41
665.59	72.56
665.73	32.77
665.87	37.45
666.01	35.11
666.15	0.00
666.29	53.83
666.44	46.81
666.58	72.56
666.72	51.49
666.86	131.07
667.00	77.24
667.14	128.73
667.28	255.12
667.43	800.46
667.57	1252.19
667.71	1626.67
667.85	1390.28
667.99	1062.60
668.13	629.60
668.27	376.83
668.41	159.16
668.56	112.35
668.70	93.62
668.84	0.00
668.98	63.19
669.12	72.56
669.26	0.00
669.40	4.68
669.54	49.15
669.68	35.11
669.82	60.85
669.96	37.45
670.10	70.22
670.25	9.36
670.39	0.00
670.53	56.17
670.67	77.24
670.81	35.11
670.95	18.72
671.09	37.45
671.23	231.71
671.37	669.39
671.51	903.45
671.65	1076.65
671.79	760.67
671.93	592.16
672.07	330.02
672.21	243.42
672.35	105.32
672.49	58.51
672.63	23.41
672.77	74.90
672.91	21.06
673.05	11.70
673.19	35.11
673.33	0.00
673.47	0.00
673.61	28.09
673.75	56.17
673.89	30.43
674.03	30.43
674.17	70.22
674.31	60.85
674.45	16.38
674.59	0.00
674.73	0.00
674.87	28.09
675.01	56.17
675.15	0.00
675.29	105.32
675.43	77.24
675.56	79.58
675.70	35.11
675.84	84.26
675.98	100.64
676.12	42.13
676.26	23.41
676.40	67.88
676.54	23.41
676.68	21.06
676.82	81.92
676.96	0.00
677.10	46.81
677.23	37.45
677.37	11.70
677.51	25.75
677.65	98.30
677.79	37.45
677.93	35.11
678.07	21.06
678.21	32.77
678.34	30.43
678.48	72.56
678.62	51.49
678.76	0.00
678.90	58.51
679.04	42.13
679.18	0.00
679.31	0.00
679.45	72.56
679.59	0.00
679.73	0.00
679.87	95.96
680.00	53.83
680.14	0.00
680.28	60.85
680.42	11.70
680.56	32.77
680.70	72.56
680.83	30.43
680.97	44.47
681.11	32.77
681.25	32.77
681.39	0.00
681.52	0.00
681.66	58.51
681.80	84.26
681.94	21.06
682.07	53.83
682.21	46.81
682.35	7.02
682.49	93.62
682.62	18.72
682.76	0.00
682.90	21.06
683.04	42.13
683.17	39.79
683.31	0.00
683.45	46.81
683.59	102.98
683.72	35.11
683.86	44.47
684.00	39.79
684.13	16.38
684.27	16.38
684.41	60.85
684.55	60.85
684.68	60.85
684.82	7.02
684.96	53.83
685.09	37.45
685.23	9.36
685.37	84.26
685.50	98.30
685.64	11.70
685.78	39.79
685.91	0.00
686.05	32.77
686.19	42.13
686.32	0.00
686.46	37.45
686.60	112.35
686.73	53.83
686.87	88.94
687.01	86.60
687.14	81.92
687.28	14.04
687.42	46.81
687.55	37.45
687.69	30.43
687.82	0.00
687.96	72.56
688.10	63.19
688.23	0.00
688.37	58.51
688.50	0.00
688.64	60.85
688.78	88.94
688.91	0.00
689.05	0.00
689.18	25.75
689.32	42.13
689.46	65.54
689.59	30.43
689.73	53.83
689.86	67.88
690.00	37.45
690.13	7.02
690.27	0.00
690.41	58.51
690.54	18.72
690.68	7.02
690.81	11.70
690.95	0.00
691.08	102.98
691.22	28.09
691.35	16.38
691.49	4.68
691.62	51.49
691.76	7.02
691.89	88.94
692.03	16.38
692.16	0.00
692.30	60.85
692.43	98.30
692.57	369.80
692.70	538.32
692.84	781.74
692.97	695.14
693.11	421.30
693.24	379.17
693.38	259.80
693.51	187.24
693.65	212.99
693.78	72.56
693.92	63.19
694.05	77.24
694.19	18.72
694.32	7.02
694.45	44.47
694.59	51.49
694.72	63.19
694.86	18.72
694.99	25.75
695.13	77.24
695.26	0.00
695.39	51.49
695.53	100.64
695.66	0.00
695.80	42.13
695.93	9.36
696.07	37.45
696.20	21.06
696.33	100.64
696.47	124.05
696.60	117.03
696.73	105.32
696.87	67.88
697.00	91.28
697.14	63.19
697.27	0.00
697.40	46.81
697.54	56.17
697.67	42.13
697.80	46.81
697.94	74.90
698.07	21.06
698.21	28.09
698.34	44.47
698.47	37.45
698.61	42.13
698.74	56.17
698.87	70.22
699.01	77.24
699.14	44.47
699.27	9.36
699.40	11.70
699.54	65.54
699.67	58.51
699.80	4.68
699.94	42.13
700.07	56.17
700.20	46.81
700.34	110.01
700.47	0.00
700.60	0.00
700.73	7.02
700.87	16.38
701.00	58.51
701.13	0.00
701.26	60.85
701.40	67.88
701.53	23.41
701.66	102.98
701.79	0.00
701.93	0.00
702.06	46.81
702.19	51.49
702.32	138.09
702.46	93.62
702.59	77.24
702.72	119.37
702.85	491.51
702.99	917.49
703.12	1263.89
703.25	1434.75
703.38	1247.51
703.51	919.83
703.65	791.10
703.78	496.19
703.91	414.27
704.04	278.52
704.17	138.09
704.31	152.13
704.44	60.85
704.57	42.13
704.70	56.17
704.83	39.79
704.96	37.45
705.10	23.41
705.23	28.09
>>>>>End Processed Spectral Data<<<<<
