SpectraSuite Data File
++++++++++++++++++++++++++++++++++++
Date: Fri Oct 04 12:13:42 GMT-05:00 2013
User: price-jones
Dark Spectrum Present: No
Reference Spectrum Present: No
Number of Sampled Component Spectra: 1
Spectrometers: USB2+H05261
Integration Time (usec): 10000 (USB2+H05261)
Spectra Averaged: 1 (USB2+H05261)
Boxcar Smoothing: 0 (USB2+H05261)
Correct for Electrical Dark: No (USB2+H05261)
Strobe/Lamp Enabled: No (USB2+H05261)
Correct for Detector Non-linearity: No (USB2+H05261)
Correct for Stray Light: No (USB2+H05261)
Number of Pixels in Processed Spectrum: 2048
>>>>>Begin Processed Spectral Data<<<<<
365.73	0.00
365.92	0.00
366.12	0.00
366.32	0.00
366.52	0.00
366.72	0.00
366.91	0.00
367.11	0.00
367.31	0.00
367.51	0.00
367.70	0.00
367.90	0.00
368.10	0.00
368.30	0.00
368.49	0.00
368.69	0.00
368.89	0.00
369.09	0.00
369.28	0.00
369.48	0.00
369.68	0.00
369.87	0.00
370.07	0.00
370.27	0.00
370.47	0.00
370.66	0.00
370.86	0.00
371.06	0.00
371.25	0.00
371.45	11.70
371.65	0.00
371.84	56.17
372.04	9.36
372.24	0.00
372.44	0.00
372.63	0.00
372.83	0.00
373.03	0.00
373.22	0.00
373.42	0.00
373.62	18.72
373.81	46.81
374.01	60.85
374.21	63.19
374.40	30.43
374.60	46.81
374.79	51.49
374.99	88.94
375.19	39.79
375.38	60.85
375.58	51.49
375.78	67.88
375.97	77.24
376.17	74.90
376.37	51.49
376.56	18.72
376.76	25.75
376.95	81.92
377.15	25.75
377.35	58.51
377.54	30.43
377.74	23.41
377.93	74.90
378.13	23.41
378.33	42.13
378.52	72.56
378.72	0.00
378.91	35.11
379.11	44.47
379.31	9.36
379.50	51.49
379.70	0.00
379.89	168.52
380.09	44.47
380.28	65.54
380.48	0.00
380.68	46.81
380.87	70.22
381.07	51.49
381.26	0.00
381.46	30.43
381.65	23.41
381.85	42.13
382.04	65.54
382.24	58.51
382.43	0.00
382.63	0.00
382.83	23.41
383.02	0.00
383.22	42.13
383.41	70.22
383.61	42.13
383.80	30.43
384.00	46.81
384.19	0.00
384.39	11.70
384.58	0.00
384.78	44.47
384.97	49.15
385.17	0.00
385.36	0.00
385.56	0.00
385.75	0.00
385.95	0.00
386.14	28.09
386.34	49.15
386.53	23.41
386.72	0.00
386.92	112.35
387.11	25.75
387.31	23.41
387.50	2.34
387.70	49.15
387.89	53.83
388.09	0.00
388.28	0.00
388.48	14.04
388.67	81.92
388.86	0.00
389.06	30.43
389.25	0.00
389.45	35.11
389.64	0.00
389.84	51.49
390.03	49.15
390.22	0.00
390.42	0.00
390.61	0.00
390.81	0.00
391.00	0.00
391.19	37.45
391.39	0.00
391.58	77.24
391.78	39.79
391.97	37.45
392.16	65.54
392.36	9.36
392.55	35.11
392.75	0.00
392.94	74.90
393.13	4.68
393.33	37.45
393.52	2.34
393.71	0.00
393.91	0.00
394.10	0.00
394.29	28.09
394.49	51.49
394.68	0.00
394.88	51.49
395.07	51.49
395.26	18.72
395.46	42.13
395.65	28.09
395.84	14.04
396.04	11.70
396.23	35.11
396.42	0.00
396.62	16.38
396.81	37.45
397.00	14.04
397.19	7.02
397.39	0.00
397.58	88.94
397.77	0.00
397.97	11.70
398.16	0.00
398.35	35.11
398.55	0.00
398.74	21.06
398.93	44.47
399.12	2.34
399.32	16.38
399.51	18.72
399.70	37.45
399.90	39.79
400.09	124.05
400.28	70.22
400.47	49.15
400.67	65.54
400.86	77.24
401.05	56.17
401.24	30.43
401.44	72.56
401.63	23.41
401.82	39.79
402.01	0.00
402.21	0.00
402.40	37.45
402.59	0.00
402.78	51.49
402.97	28.09
403.17	0.00
403.36	35.11
403.55	35.11
403.74	0.00
403.93	21.06
404.13	72.56
404.32	37.45
404.51	72.56
404.70	72.56
404.89	42.13
405.09	0.00
405.28	112.35
405.47	9.36
405.66	88.94
405.85	0.00
406.05	46.81
406.24	0.00
406.43	11.70
406.62	28.09
406.81	102.98
407.00	25.75
407.20	0.00
407.39	4.68
407.58	81.92
407.77	0.00
407.96	42.13
408.15	46.81
408.34	58.51
408.54	37.45
408.73	39.79
408.92	112.35
409.11	0.00
409.30	32.77
409.49	21.06
409.68	39.79
409.87	51.49
410.07	49.15
410.26	37.45
410.45	28.09
410.64	16.38
410.83	95.96
411.02	79.58
411.21	70.22
411.40	49.15
411.59	0.00
411.78	14.04
411.98	37.45
412.17	42.13
412.36	49.15
412.55	56.17
412.74	32.77
412.93	77.24
413.12	32.77
413.31	23.41
413.50	0.00
413.69	60.85
413.88	100.64
414.07	58.51
414.26	18.72
414.45	2.34
414.64	0.00
414.83	44.47
415.02	65.54
415.22	44.47
415.41	51.49
415.60	42.13
415.79	4.68
415.98	42.13
416.17	39.79
416.36	77.24
416.55	84.26
416.74	0.00
416.93	23.41
417.12	49.15
417.31	88.94
417.50	37.45
417.69	18.72
417.88	28.09
418.07	25.75
418.26	74.90
418.45	18.72
418.64	51.49
418.83	58.51
419.02	70.22
419.21	124.05
419.39	72.56
419.58	44.47
419.77	0.00
419.96	56.17
420.15	58.51
420.34	44.47
420.53	42.13
420.72	110.01
420.91	51.49
421.10	58.51
421.29	114.69
421.48	30.43
421.67	79.58
421.86	70.22
422.05	39.79
422.24	65.54
422.43	18.72
422.61	0.00
422.80	0.00
422.99	74.90
423.18	0.00
423.37	46.81
423.56	18.72
423.75	0.00
423.94	32.77
424.13	32.77
424.32	7.02
424.50	42.13
424.69	35.11
424.88	23.41
425.07	95.96
425.26	0.00
425.45	0.00
425.64	84.26
425.83	23.41
426.01	49.15
426.20	53.83
426.39	2.34
426.58	11.70
426.77	25.75
426.96	11.70
427.15	79.58
427.33	44.47
427.52	49.15
427.71	28.09
427.90	60.85
428.09	23.41
428.28	39.79
428.46	16.38
428.65	44.47
428.84	79.58
429.03	126.39
429.22	63.19
429.40	37.45
429.59	0.00
429.78	91.28
429.97	63.19
430.16	0.00
430.34	44.47
430.53	37.45
430.72	63.19
430.91	0.00
431.10	49.15
431.28	65.54
431.47	0.00
431.66	51.49
431.85	2.34
432.03	107.66
432.22	53.83
432.41	88.94
432.60	70.22
432.79	44.47
432.97	79.58
433.16	42.13
433.35	35.11
433.54	46.81
433.72	4.68
433.91	42.13
434.10	18.72
434.28	84.26
434.47	91.28
434.66	102.98
434.85	84.26
435.03	70.22
435.22	51.49
435.41	63.19
435.59	0.00
435.78	2.34
435.97	46.81
436.16	0.00
436.34	67.88
436.53	25.75
436.72	39.79
436.90	72.56
437.09	95.96
437.28	44.47
437.46	28.09
437.65	46.81
437.84	67.88
438.02	100.64
438.21	58.51
438.40	60.85
438.58	16.38
438.77	135.75
438.96	56.17
439.14	28.09
439.33	58.51
439.52	4.68
439.70	112.35
439.89	14.04
440.08	88.94
440.26	0.00
440.45	37.45
440.63	70.22
440.82	7.02
441.01	39.79
441.19	72.56
441.38	11.70
441.57	74.90
441.75	51.49
441.94	46.81
442.12	44.47
442.31	107.66
442.50	0.00
442.68	56.17
442.87	51.49
443.05	42.13
443.24	14.04
443.43	11.70
443.61	53.83
443.80	65.54
443.98	0.00
444.17	74.90
444.35	107.66
444.54	23.41
444.73	42.13
444.91	42.13
445.10	23.41
445.28	0.00
445.47	14.04
445.65	79.58
445.84	42.13
446.02	86.60
446.21	11.70
446.39	88.94
446.58	28.09
446.77	0.00
446.95	91.28
447.14	95.96
447.32	100.64
447.51	53.83
447.69	35.11
447.88	42.13
448.06	135.75
448.25	60.85
448.43	37.45
448.62	70.22
448.80	86.60
448.99	58.51
449.17	65.54
449.36	114.69
449.54	37.45
449.73	56.17
449.91	102.98
450.10	7.02
450.28	0.00
450.46	35.11
450.65	79.58
450.83	35.11
451.02	77.24
451.20	21.06
451.39	14.04
451.57	67.88
451.76	42.13
451.94	138.09
452.13	25.75
452.31	32.77
452.49	21.06
452.68	39.79
452.86	0.00
453.05	18.72
453.23	16.38
453.42	11.70
453.60	91.28
453.78	21.06
453.97	44.47
454.15	35.11
454.34	39.79
454.52	32.77
454.70	91.28
454.89	126.39
455.07	46.81
455.26	0.00
455.44	0.00
455.62	18.72
455.81	42.13
455.99	0.00
456.17	51.49
456.36	70.22
456.54	32.77
456.73	100.64
456.91	16.38
457.09	95.96
457.28	39.79
457.46	0.00
457.64	46.81
457.83	102.98
458.01	46.81
458.19	74.90
458.38	114.69
458.56	81.92
458.74	72.56
458.93	16.38
459.11	4.68
459.29	51.49
459.48	67.88
459.66	0.00
459.84	0.00
460.03	112.35
460.21	23.41
460.39	7.02
460.57	81.92
460.76	42.13
460.94	121.71
461.12	91.28
461.31	11.70
461.49	46.81
461.67	0.00
461.85	53.83
462.04	53.83
462.22	51.49
462.40	131.07
462.59	9.36
462.77	77.24
462.95	72.56
463.13	4.68
463.32	107.66
463.50	60.85
463.68	107.66
463.86	39.79
464.05	23.41
464.23	51.49
464.41	81.92
464.59	16.38
464.78	56.17
464.96	79.58
465.14	4.68
465.32	9.36
465.50	44.47
465.69	72.56
465.87	30.43
466.05	25.75
466.23	65.54
466.41	93.62
466.60	72.56
466.78	107.66
466.96	98.30
467.14	112.35
467.32	74.90
467.51	63.19
467.69	86.60
467.87	51.49
468.05	63.19
468.23	0.00
468.41	84.26
468.60	72.56
468.78	105.32
468.96	67.88
469.14	51.49
469.32	65.54
469.50	93.62
469.69	163.84
469.87	86.60
470.05	70.22
470.23	0.00
470.41	74.90
470.59	28.09
470.77	42.13
470.95	121.71
471.14	88.94
471.32	72.56
471.50	51.49
471.68	35.11
471.86	67.88
472.04	18.72
472.22	67.88
472.40	93.62
472.58	105.32
472.77	51.49
472.95	49.15
473.13	70.22
473.31	88.94
473.49	42.13
473.67	46.81
473.85	131.07
474.03	84.26
474.21	14.04
474.39	98.30
474.57	53.83
474.75	107.66
474.93	63.19
475.12	21.06
475.30	128.73
475.48	23.41
475.66	28.09
475.84	44.47
476.02	60.85
476.20	28.09
476.38	7.02
476.56	46.81
476.74	0.00
476.92	107.66
477.10	63.19
477.28	126.39
477.46	60.85
477.64	51.49
477.82	58.51
478.00	25.75
478.18	77.24
478.36	79.58
478.54	46.81
478.72	60.85
478.90	53.83
479.08	107.66
479.26	21.06
479.44	2.34
479.62	0.00
479.80	67.88
479.98	0.00
480.16	72.56
480.34	0.00
480.52	98.30
480.70	0.00
480.88	70.22
481.06	30.43
481.24	84.26
481.41	11.70
481.59	142.77
481.77	74.90
481.95	67.88
482.13	70.22
482.31	51.49
482.49	58.51
482.67	72.56
482.85	112.35
483.03	74.90
483.21	91.28
483.39	51.49
483.57	18.72
483.74	119.37
483.92	58.51
484.10	67.88
484.28	51.49
484.46	23.41
484.64	79.58
484.82	79.58
485.00	60.85
485.18	100.64
485.35	72.56
485.53	46.81
485.71	51.49
485.89	67.88
486.07	37.45
486.25	63.19
486.43	112.35
486.61	46.81
486.78	58.51
486.96	86.60
487.14	88.94
487.32	100.64
487.50	25.75
487.68	110.01
487.85	56.17
488.03	93.62
488.21	65.54
488.39	39.79
488.57	110.01
488.75	60.85
488.92	121.71
489.10	91.28
489.28	110.01
489.46	105.32
489.64	32.77
489.81	4.68
489.99	142.77
490.17	119.37
490.35	98.30
490.53	74.90
490.70	21.06
490.88	58.51
491.06	77.24
491.24	0.00
491.41	70.22
491.59	84.26
491.77	60.85
491.95	70.22
492.13	49.15
492.30	0.00
492.48	30.43
492.66	95.96
492.84	102.98
493.01	23.41
493.19	65.54
493.37	21.06
493.54	114.69
493.72	9.36
493.90	142.77
494.08	107.66
494.25	142.77
494.43	142.77
494.61	154.48
494.79	91.28
494.96	133.41
495.14	117.03
495.32	30.43
495.49	107.66
495.67	37.45
495.85	2.34
496.02	14.04
496.20	4.68
496.38	65.54
496.55	126.39
496.73	53.83
496.91	79.58
497.09	102.98
497.26	70.22
497.44	49.15
497.62	65.54
497.79	42.13
497.97	128.73
498.14	138.09
498.32	114.69
498.50	0.00
498.67	60.85
498.85	42.13
499.03	56.17
499.20	16.38
499.38	98.30
499.56	39.79
499.73	74.90
499.91	84.26
500.08	154.48
500.26	51.49
500.44	95.96
500.61	74.90
500.79	88.94
500.97	86.60
501.14	70.22
501.32	51.49
501.49	21.06
501.67	77.24
501.84	74.90
502.02	93.62
502.20	9.36
502.37	67.88
502.55	112.35
502.72	117.03
502.90	81.92
503.07	46.81
503.25	56.17
503.43	56.17
503.60	88.94
503.78	88.94
503.95	91.28
504.13	79.58
504.30	74.90
504.48	74.90
504.65	126.39
504.83	44.47
505.01	72.56
505.18	102.98
505.36	98.30
505.53	67.88
505.71	0.00
505.88	51.49
506.06	49.15
506.23	142.77
506.41	156.82
506.58	49.15
506.76	114.69
506.93	72.56
507.11	131.07
507.28	60.85
507.46	102.98
507.63	91.28
507.81	14.04
507.98	91.28
508.16	30.43
508.33	67.88
508.50	110.01
508.68	93.62
508.85	44.47
509.03	100.64
509.20	102.98
509.38	84.26
509.55	84.26
509.73	72.56
509.90	67.88
510.08	35.11
510.25	95.96
510.42	49.15
510.60	131.07
510.77	124.05
510.95	93.62
511.12	91.28
511.30	60.85
511.47	105.32
511.64	60.85
511.82	102.98
511.99	133.41
512.17	107.66
512.34	107.66
512.51	0.00
512.69	70.22
512.86	74.90
513.04	102.98
513.21	84.26
513.38	65.54
513.56	23.41
513.73	74.90
513.90	49.15
514.08	46.81
514.25	79.58
514.43	16.38
514.60	35.11
514.77	91.28
514.95	100.64
515.12	121.71
515.29	114.69
515.47	79.58
515.64	102.98
515.81	98.30
515.99	88.94
516.16	102.98
516.33	100.64
516.51	161.50
516.68	72.56
516.85	32.77
517.03	74.90
517.20	105.32
517.37	95.96
517.54	18.72
517.72	70.22
517.89	37.45
518.06	44.47
518.24	70.22
518.41	81.92
518.58	77.24
518.75	72.56
518.93	79.58
519.10	53.83
519.27	16.38
519.45	37.45
519.62	65.54
519.79	46.81
519.96	93.62
520.14	18.72
520.31	70.22
520.48	65.54
520.65	86.60
520.83	117.03
521.00	60.85
521.17	95.96
521.34	107.66
521.52	65.54
521.69	102.98
521.86	49.15
522.03	88.94
522.20	88.94
522.38	117.03
522.55	102.98
522.72	53.83
522.89	42.13
523.07	112.35
523.24	138.09
523.41	112.35
523.58	11.70
523.75	65.54
523.92	70.22
524.10	105.32
524.27	23.41
524.44	63.19
524.61	128.73
524.78	49.15
524.96	142.77
525.13	77.24
525.30	16.38
525.47	23.41
525.64	93.62
525.81	86.60
525.98	88.94
526.16	25.75
526.33	67.88
526.50	93.62
526.67	42.13
526.84	102.98
527.01	117.03
527.18	124.05
527.36	42.13
527.53	21.06
527.70	44.47
527.87	74.90
528.04	140.43
528.21	74.90
528.38	79.58
528.55	112.35
528.72	105.32
528.89	67.88
529.07	0.00
529.24	70.22
529.41	112.35
529.58	117.03
529.75	84.26
529.92	88.94
530.09	67.88
530.26	58.51
530.43	88.94
530.60	65.54
530.77	72.56
530.94	107.66
531.11	35.11
531.28	42.13
531.46	112.35
531.63	58.51
531.80	67.88
531.97	180.22
532.14	102.98
532.31	105.32
532.48	102.98
532.65	65.54
532.82	70.22
532.99	93.62
533.16	91.28
533.33	81.92
533.50	117.03
533.67	154.48
533.84	63.19
534.01	81.92
534.18	72.56
534.35	91.28
534.52	0.00
534.69	81.92
534.86	56.17
535.03	98.30
535.20	81.92
535.37	98.30
535.54	23.41
535.71	56.17
535.88	72.56
536.05	46.81
536.22	133.41
536.38	4.68
536.55	23.41
536.72	102.98
536.89	154.48
537.06	84.26
537.23	51.49
537.40	119.37
537.57	112.35
537.74	88.94
537.91	84.26
538.08	60.85
538.25	79.58
538.42	77.24
538.59	88.94
538.75	124.05
538.92	49.15
539.09	70.22
539.26	63.19
539.43	110.01
539.60	51.49
539.77	79.58
539.94	35.11
540.11	121.71
540.28	107.66
540.44	107.66
540.61	133.41
540.78	117.03
540.95	91.28
541.12	163.84
541.29	102.98
541.46	152.13
541.62	4.68
541.79	77.24
541.96	37.45
542.13	128.73
542.30	95.96
542.47	77.24
542.63	145.11
542.80	93.62
542.97	32.77
543.14	121.71
543.31	102.98
543.48	126.39
543.64	79.58
543.81	37.45
543.98	70.22
544.15	58.51
544.32	79.58
544.48	42.13
544.65	124.05
544.82	102.98
544.99	7.02
545.16	67.88
545.32	84.26
545.49	25.75
545.66	117.03
545.83	74.90
546.00	95.96
546.16	91.28
546.33	42.13
546.50	112.35
546.67	100.64
546.83	95.96
547.00	124.05
547.17	79.58
547.34	95.96
547.50	100.64
547.67	145.11
547.84	63.19
548.00	81.92
548.17	58.51
548.34	30.43
548.51	98.30
548.67	107.66
548.84	140.43
549.01	60.85
549.18	105.32
549.34	88.94
549.51	152.13
549.68	95.96
549.84	81.92
550.01	65.54
550.18	88.94
550.34	117.03
550.51	114.69
550.68	105.32
550.84	110.01
551.01	91.28
551.18	46.81
551.34	4.68
551.51	79.58
551.68	110.01
551.84	56.17
552.01	100.64
552.18	53.83
552.34	102.98
552.51	58.51
552.68	105.32
552.84	39.79
553.01	70.22
553.18	67.88
553.34	72.56
553.51	159.16
553.67	14.04
553.84	147.45
554.01	53.83
554.17	88.94
554.34	152.13
554.51	102.98
554.67	65.54
554.84	65.54
555.00	11.70
555.17	133.41
555.33	65.54
555.50	72.56
555.67	86.60
555.83	107.66
556.00	37.45
556.16	72.56
556.33	98.30
556.50	21.06
556.66	74.90
556.83	46.81
556.99	63.19
557.16	93.62
557.32	93.62
557.49	119.37
557.65	74.90
557.82	100.64
557.98	131.07
558.15	16.38
558.32	88.94
558.48	110.01
558.65	72.56
558.81	93.62
558.98	88.94
559.14	63.19
559.31	58.51
559.47	88.94
559.64	128.73
559.80	93.62
559.97	53.83
560.13	77.24
560.30	205.97
560.46	39.79
560.63	121.71
560.79	51.49
560.96	154.48
561.12	93.62
561.29	107.66
561.45	84.26
561.61	88.94
561.78	100.64
561.94	65.54
562.11	4.68
562.27	70.22
562.44	2.34
562.60	58.51
562.77	86.60
562.93	91.28
563.10	46.81
563.26	100.64
563.42	140.43
563.59	74.90
563.75	63.19
563.92	126.39
564.08	81.92
564.24	30.43
564.41	77.24
564.57	110.01
564.74	145.11
564.90	142.77
565.07	56.17
565.23	88.94
565.39	77.24
565.56	84.26
565.72	74.90
565.88	44.47
566.05	112.35
566.21	46.81
566.38	84.26
566.54	77.24
566.70	65.54
566.87	105.32
567.03	86.60
567.19	25.75
567.36	30.43
567.52	95.96
567.68	25.75
567.85	98.30
568.01	18.72
568.17	7.02
568.34	37.45
568.50	88.94
568.66	112.35
568.83	42.13
568.99	32.77
569.15	100.64
569.32	18.72
569.48	98.30
569.64	84.26
569.81	53.83
569.97	65.54
570.13	91.28
570.30	110.01
570.46	14.04
570.62	46.81
570.78	95.96
570.95	84.26
571.11	63.19
571.27	56.17
571.43	84.26
571.60	7.02
571.76	7.02
571.92	49.15
572.09	117.03
572.25	21.06
572.41	152.13
572.57	95.96
572.74	163.84
572.90	65.54
573.06	105.32
573.22	222.35
573.38	114.69
573.55	65.54
573.71	30.43
573.87	91.28
574.03	23.41
574.20	184.90
574.36	7.02
574.52	28.09
574.68	70.22
574.84	119.37
575.01	81.92
575.17	102.98
575.33	152.13
575.49	93.62
575.65	149.79
575.82	0.00
575.98	11.70
576.14	177.88
576.30	117.03
576.46	100.64
576.62	46.81
576.79	14.04
576.95	81.92
577.11	91.28
577.27	72.56
577.43	77.24
577.59	126.39
577.75	53.83
577.92	77.24
578.08	25.75
578.24	63.19
578.40	72.56
578.56	124.05
578.72	67.88
578.88	72.56
579.04	135.75
579.21	110.01
579.37	112.35
579.53	65.54
579.69	37.45
579.85	53.83
580.01	81.92
580.17	58.51
580.33	74.90
580.49	98.30
580.65	67.88
580.82	182.56
580.98	74.90
581.14	49.15
581.30	44.47
581.46	32.77
581.62	110.01
581.78	21.06
581.94	56.17
582.10	0.00
582.26	51.49
582.42	56.17
582.58	9.36
582.74	105.32
582.90	77.24
583.06	102.98
583.22	39.79
583.38	95.96
583.54	121.71
583.70	100.64
583.86	0.00
584.02	58.51
584.18	46.81
584.34	53.83
584.50	79.58
584.66	56.17
584.82	147.45
584.98	30.43
585.14	79.58
585.30	79.58
585.46	138.09
585.62	60.85
585.78	63.19
585.94	65.54
586.10	98.30
586.26	100.64
586.42	23.41
586.58	77.24
586.74	138.09
586.90	79.58
587.06	30.43
587.22	72.56
587.38	95.96
587.54	149.79
587.70	86.60
587.86	67.88
588.02	121.71
588.18	126.39
588.34	56.17
588.49	60.85
588.65	67.88
588.81	49.15
588.97	37.45
589.13	49.15
589.29	16.38
589.45	112.35
589.61	77.24
589.77	9.36
589.93	46.81
590.08	124.05
590.24	91.28
590.40	67.88
590.56	4.68
590.72	30.43
590.88	88.94
591.04	70.22
591.20	23.41
591.35	105.32
591.51	51.49
591.67	28.09
591.83	86.60
591.99	95.96
592.15	105.32
592.31	67.88
592.46	166.18
592.62	65.54
592.78	84.26
592.94	9.36
593.10	102.98
593.26	93.62
593.41	65.54
593.57	105.32
593.73	77.24
593.89	25.75
594.05	81.92
594.20	147.45
594.36	53.83
594.52	91.28
594.68	126.39
594.84	119.37
594.99	63.19
595.15	56.17
595.31	138.09
595.47	117.03
595.62	35.11
595.78	93.62
595.94	105.32
596.10	65.54
596.25	86.60
596.41	63.19
596.57	42.13
596.73	11.70
596.88	42.13
597.04	60.85
597.20	67.88
597.36	49.15
597.51	107.66
597.67	37.45
597.83	63.19
597.99	91.28
598.14	98.30
598.30	60.85
598.46	105.32
598.61	60.85
598.77	105.32
598.93	133.41
599.09	91.28
599.24	91.28
599.40	72.56
599.56	46.81
599.71	4.68
599.87	95.96
600.03	63.19
600.18	0.00
600.34	67.88
600.50	133.41
600.65	63.19
600.81	88.94
600.97	72.56
601.12	56.17
601.28	131.07
601.44	91.28
601.59	58.51
601.75	107.66
601.91	46.81
602.06	7.02
602.22	77.24
602.37	100.64
602.53	110.01
602.69	35.11
602.84	105.32
603.00	98.30
603.16	135.75
603.31	133.41
603.47	70.22
603.62	128.73
603.78	79.58
603.94	131.07
604.09	0.00
604.25	18.72
604.40	91.28
604.56	30.43
604.71	126.39
604.87	86.60
605.03	98.30
605.18	49.15
605.34	138.09
605.49	88.94
605.65	105.32
605.80	70.22
605.96	81.92
606.12	67.88
606.27	32.77
606.43	105.32
606.58	86.60
606.74	79.58
606.89	25.75
607.05	126.39
607.20	88.94
607.36	95.96
607.51	105.32
607.67	42.13
607.82	91.28
607.98	93.62
608.13	37.45
608.29	93.62
608.44	46.81
608.60	72.56
608.75	58.51
608.91	63.19
609.06	46.81
609.22	98.30
609.37	39.79
609.53	63.19
609.68	42.13
609.84	72.56
609.99	49.15
610.15	91.28
610.30	56.17
610.46	84.26
610.61	70.22
610.76	88.94
610.92	65.54
611.07	98.30
611.23	46.81
611.38	95.96
611.54	93.62
611.69	128.73
611.84	37.45
612.00	9.36
612.15	114.69
612.31	77.24
612.46	39.79
612.62	133.41
612.77	70.22
612.92	67.88
613.08	63.19
613.23	91.28
613.39	88.94
613.54	7.02
613.69	42.13
613.85	51.49
614.00	0.00
614.15	105.32
614.31	39.79
614.46	98.30
614.62	86.60
614.77	32.77
614.92	121.71
615.08	84.26
615.23	121.71
615.38	100.64
615.54	93.62
615.69	37.45
615.84	79.58
616.00	28.09
616.15	63.19
616.30	102.98
616.46	0.00
616.61	63.19
616.76	60.85
616.92	110.01
617.07	9.36
617.22	63.19
617.37	112.35
617.53	42.13
617.68	63.19
617.83	135.75
617.99	72.56
618.14	77.24
618.29	65.54
618.45	112.35
618.60	32.77
618.75	135.75
618.90	23.41
619.06	72.56
619.21	91.28
619.36	105.32
619.51	51.49
619.67	65.54
619.82	35.11
619.97	79.58
620.12	30.43
620.28	0.00
620.43	11.70
620.58	0.00
620.73	39.79
620.89	28.09
621.04	14.04
621.19	0.00
621.34	42.13
621.49	46.81
621.65	74.90
621.80	58.51
621.95	60.85
622.10	79.58
622.25	53.83
622.41	70.22
622.56	107.66
622.71	67.88
622.86	35.11
623.01	23.41
623.16	39.79
623.32	65.54
623.47	51.49
623.62	32.77
623.77	58.51
623.92	14.04
624.07	81.92
624.23	70.22
624.38	0.00
624.53	77.24
624.68	86.60
624.83	11.70
624.98	56.17
625.13	70.22
625.29	86.60
625.44	107.66
625.59	114.69
625.74	67.88
625.89	65.54
626.04	98.30
626.19	133.41
626.34	0.00
626.49	114.69
626.65	121.71
626.80	30.43
626.95	126.39
627.10	28.09
627.25	107.66
627.40	72.56
627.55	74.90
627.70	16.38
627.85	11.70
628.00	77.24
628.15	42.13
628.30	11.70
628.45	72.56
628.60	98.30
628.76	65.54
628.91	49.15
629.06	42.13
629.21	102.98
629.36	65.54
629.51	23.41
629.66	53.83
629.81	84.26
629.96	67.88
630.11	51.49
630.26	63.19
630.41	58.51
630.56	105.32
630.71	16.38
630.86	11.70
631.01	46.81
631.16	46.81
631.31	25.75
631.46	77.24
631.61	79.58
631.76	72.56
631.91	4.68
632.06	107.66
632.21	49.15
632.36	100.64
632.51	49.15
632.66	42.13
632.81	67.88
632.96	11.70
633.10	60.85
633.25	11.70
633.40	107.66
633.55	23.41
633.70	28.09
633.85	39.79
634.00	72.56
634.15	81.92
634.30	65.54
634.45	49.15
634.60	0.00
634.75	7.02
634.90	67.88
635.05	74.90
635.19	58.51
635.34	58.51
635.49	79.58
635.64	56.17
635.79	53.83
635.94	60.85
636.09	35.11
636.24	9.36
636.39	67.88
636.53	60.85
636.68	18.72
636.83	60.85
636.98	112.35
637.13	102.98
637.28	32.77
637.43	112.35
637.57	58.51
637.72	79.58
637.87	0.00
638.02	51.49
638.17	77.24
638.32	51.49
638.46	58.51
638.61	42.13
638.76	46.81
638.91	65.54
639.06	28.09
639.20	56.17
639.35	2.34
639.50	58.51
639.65	51.49
639.80	91.28
639.94	7.02
640.09	60.85
640.24	102.98
640.39	79.58
640.54	0.00
640.68	88.94
640.83	114.69
640.98	65.54
641.13	70.22
641.27	63.19
641.42	67.88
641.57	28.09
641.72	56.17
641.86	65.54
642.01	79.58
642.16	67.88
642.31	93.62
642.45	72.56
642.60	56.17
642.75	23.41
642.90	46.81
643.04	65.54
643.19	35.11
643.34	23.41
643.48	74.90
643.63	0.00
643.78	79.58
643.93	117.03
644.07	70.22
644.22	23.41
644.37	42.13
644.51	49.15
644.66	63.19
644.81	51.49
644.95	0.00
645.10	0.00
645.25	98.30
645.39	28.09
645.54	91.28
645.69	88.94
645.83	32.77
645.98	7.02
646.13	98.30
646.27	28.09
646.42	42.13
646.57	14.04
646.71	60.85
646.86	72.56
647.00	23.41
647.15	67.88
647.30	30.43
647.44	35.11
647.59	56.17
647.74	35.11
647.88	105.32
648.03	0.00
648.17	51.49
648.32	16.38
648.47	21.06
648.61	21.06
648.76	81.92
648.90	58.51
649.05	65.54
649.20	70.22
649.34	0.00
649.49	4.68
649.63	70.22
649.78	107.66
649.92	51.49
650.07	0.00
650.21	77.24
650.36	51.49
650.51	60.85
650.65	49.15
650.80	112.35
650.94	49.15
651.09	58.51
651.23	37.45
651.38	18.72
651.52	65.54
651.67	0.00
651.81	65.54
651.96	135.75
652.10	58.51
652.25	21.06
652.39	79.58
652.54	14.04
652.68	0.00
652.83	0.00
652.97	65.54
653.12	23.41
653.26	21.06
653.41	53.83
653.55	128.73
653.70	88.94
653.84	30.43
653.99	51.49
654.13	28.09
654.27	53.83
654.42	81.92
654.56	126.39
654.71	44.47
654.85	21.06
655.00	28.09
655.14	63.19
655.29	44.47
655.43	0.00
655.57	60.85
655.72	4.68
655.86	25.75
656.01	58.51
656.15	77.24
656.30	65.54
656.44	0.00
656.58	56.17
656.73	0.00
656.87	58.51
657.01	74.90
657.16	63.19
657.30	42.13
657.45	70.22
657.59	72.56
657.73	11.70
657.88	28.09
658.02	140.43
658.16	4.68
658.31	72.56
658.45	37.45
658.60	84.26
658.74	91.28
658.88	0.00
659.03	46.81
659.17	58.51
659.31	56.17
659.46	32.77
659.60	105.32
659.74	79.58
659.89	77.24
660.03	51.49
660.17	72.56
660.32	100.64
660.46	35.11
660.60	28.09
660.74	25.75
660.89	35.11
661.03	77.24
661.17	0.00
661.32	67.88
661.46	88.94
661.60	58.51
661.74	9.36
661.89	84.26
662.03	60.85
662.17	95.96
662.31	72.56
662.46	60.85
662.60	37.45
662.74	0.00
662.88	49.15
663.03	44.47
663.17	91.28
663.31	30.43
663.45	4.68
663.60	16.38
663.74	0.00
663.88	42.13
664.02	74.90
664.17	67.88
664.31	93.62
664.45	79.58
664.59	42.13
664.73	7.02
664.88	18.72
665.02	93.62
665.16	51.49
665.30	39.79
665.44	86.60
665.59	0.00
665.73	21.06
665.87	88.94
666.01	0.00
666.15	30.43
666.29	51.49
666.44	88.94
666.58	53.83
666.72	28.09
666.86	49.15
667.00	74.90
667.14	86.60
667.28	74.90
667.43	46.81
667.57	49.15
667.71	0.00
667.85	9.36
667.99	121.71
668.13	46.81
668.27	93.62
668.41	42.13
668.56	37.45
668.70	51.49
668.84	49.15
668.98	44.47
669.12	65.54
669.26	79.58
669.40	110.01
669.54	72.56
669.68	91.28
669.82	11.70
669.96	65.54
670.10	9.36
670.25	11.70
670.39	0.00
670.53	60.85
670.67	0.00
670.81	30.43
670.95	79.58
671.09	37.45
671.23	77.24
671.37	107.66
671.51	30.43
671.65	72.56
671.79	58.51
671.93	37.45
672.07	65.54
672.21	4.68
672.35	105.32
672.49	18.72
672.63	9.36
672.77	39.79
672.91	16.38
673.05	58.51
673.19	46.81
673.33	77.24
673.47	98.30
673.61	44.47
673.75	51.49
673.89	16.38
674.03	79.58
674.17	88.94
674.31	60.85
674.45	37.45
674.59	49.15
674.73	0.00
674.87	131.07
675.01	86.60
675.15	100.64
675.29	44.47
675.43	32.77
675.56	28.09
675.70	16.38
675.84	46.81
675.98	67.88
676.12	44.47
676.26	0.00
676.40	88.94
676.54	53.83
676.68	60.85
676.82	93.62
676.96	86.60
677.10	91.28
677.23	63.19
677.37	60.85
677.51	84.26
677.65	56.17
677.79	53.83
677.93	145.11
678.07	46.81
678.21	14.04
678.34	79.58
678.48	11.70
678.62	35.11
678.76	42.13
678.90	67.88
679.04	53.83
679.18	65.54
679.31	28.09
679.45	23.41
679.59	23.41
679.73	60.85
679.87	28.09
680.00	84.26
680.14	35.11
680.28	39.79
680.42	2.34
680.56	44.47
680.70	35.11
680.83	70.22
680.97	53.83
681.11	21.06
681.25	140.43
681.39	32.77
681.52	4.68
681.66	53.83
681.80	51.49
681.94	46.81
682.07	70.22
682.21	98.30
682.35	0.00
682.49	93.62
682.62	11.70
682.76	35.11
682.90	46.81
683.04	81.92
683.17	56.17
683.31	58.51
683.45	98.30
683.59	53.83
683.72	18.72
683.86	74.90
684.00	121.71
684.13	0.00
684.27	28.09
684.41	23.41
684.55	16.38
684.68	42.13
684.82	72.56
684.96	63.19
685.09	46.81
685.23	39.79
685.37	79.58
685.50	60.85
685.64	67.88
685.78	46.81
685.91	86.60
686.05	105.32
686.19	23.41
686.32	11.70
686.46	53.83
686.60	16.38
686.73	25.75
686.87	42.13
687.01	138.09
687.14	44.47
687.28	77.24
687.42	58.51
687.55	4.68
687.69	63.19
687.82	32.77
687.96	14.04
688.10	0.00
688.23	35.11
688.37	56.17
688.50	0.00
688.64	60.85
688.78	37.45
688.91	23.41
689.05	74.90
689.18	60.85
689.32	51.49
689.46	117.03
689.59	42.13
689.73	74.90
689.86	0.00
690.00	70.22
690.13	2.34
690.27	4.68
690.41	79.58
690.54	11.70
690.68	0.00
690.81	77.24
690.95	58.51
691.08	28.09
691.22	114.69
691.35	2.34
691.49	58.51
691.62	37.45
691.76	18.72
691.89	67.88
692.03	16.38
692.16	84.26
692.30	60.85
692.43	25.75
692.57	0.00
692.70	35.11
692.84	65.54
692.97	0.00
693.11	84.26
693.24	0.00
693.38	88.94
693.51	0.00
693.65	67.88
693.78	88.94
693.92	30.43
694.05	16.38
694.19	4.68
694.32	44.47
694.45	25.75
694.59	0.00
694.72	51.49
694.86	11.70
694.99	35.11
695.13	0.00
695.26	32.77
695.39	4.68
695.53	14.04
695.66	56.17
695.80	14.04
695.93	32.77
696.07	53.83
696.20	18.72
696.33	56.17
696.47	84.26
696.60	0.00
696.73	119.37
696.87	53.83
697.00	37.45
697.14	7.02
697.27	46.81
697.40	65.54
697.54	51.49
697.67	0.00
697.80	65.54
697.94	35.11
698.07	56.17
698.21	32.77
698.34	44.47
698.47	46.81
698.61	25.75
698.74	51.49
698.87	84.26
699.01	53.83
699.14	49.15
699.27	65.54
699.40	0.00
699.54	65.54
699.67	21.06
699.80	16.38
699.94	35.11
700.07	98.30
700.20	93.62
700.34	32.77
700.47	0.00
700.60	46.81
700.73	46.81
700.87	0.00
701.00	32.77
701.13	53.83
701.26	21.06
701.40	44.47
701.53	9.36
701.66	28.09
701.79	23.41
701.93	39.79
702.06	18.72
702.19	70.22
702.32	86.60
702.46	14.04
702.59	30.43
702.72	30.43
702.85	0.00
702.99	98.30
703.12	37.45
703.25	25.75
703.38	23.41
703.51	21.06
703.65	44.47
703.78	88.94
703.91	4.68
704.04	0.00
704.17	0.00
704.31	11.70
704.44	72.56
704.57	37.45
704.70	58.51
704.83	21.06
704.96	58.51
705.10	49.15
705.23	37.45
>>>>>End Processed Spectral Data<<<<<
