SpectraSuite Data File
++++++++++++++++++++++++++++++++++++
Date: Fri Oct 04 12:13:31 GMT-05:00 2013
User: price-jones
Dark Spectrum Present: No
Reference Spectrum Present: No
Number of Sampled Component Spectra: 1
Spectrometers: USB2+H05261
Integration Time (usec): 10000 (USB2+H05261)
Spectra Averaged: 1 (USB2+H05261)
Boxcar Smoothing: 0 (USB2+H05261)
Correct for Electrical Dark: No (USB2+H05261)
Strobe/Lamp Enabled: No (USB2+H05261)
Correct for Detector Non-linearity: No (USB2+H05261)
Correct for Stray Light: No (USB2+H05261)
Number of Pixels in Processed Spectrum: 2048
>>>>>Begin Processed Spectral Data<<<<<
365.73	53.83
365.92	53.83
366.12	53.83
366.32	0.00
366.52	0.00
366.72	0.00
366.91	0.00
367.11	0.00
367.31	0.00
367.51	0.00
367.70	0.00
367.90	0.00
368.10	0.00
368.30	0.00
368.49	0.00
368.69	0.00
368.89	0.00
369.09	0.00
369.28	0.00
369.48	0.00
369.68	0.00
369.87	0.00
370.07	0.00
370.27	0.00
370.47	0.00
370.66	0.00
370.86	0.00
371.06	0.00
371.25	18.72
371.45	0.00
371.65	0.00
371.84	0.00
372.04	25.75
372.24	0.00
372.44	0.00
372.63	23.41
372.83	0.00
373.03	0.00
373.22	46.81
373.42	25.75
373.62	16.38
373.81	23.41
374.01	53.83
374.21	7.02
374.40	9.36
374.60	102.98
374.79	67.88
374.99	0.00
375.19	86.60
375.38	21.06
375.58	0.00
375.78	4.68
375.97	42.13
376.17	9.36
376.37	56.17
376.56	32.77
376.76	9.36
376.95	60.85
377.15	32.77
377.35	0.00
377.54	86.60
377.74	56.17
377.93	25.75
378.13	0.00
378.33	4.68
378.52	0.00
378.72	93.62
378.91	16.38
379.11	39.79
379.31	77.24
379.50	46.81
379.70	58.51
379.89	7.02
380.09	0.00
380.28	65.54
380.48	0.00
380.68	46.81
380.87	14.04
381.07	46.81
381.26	0.00
381.46	32.77
381.65	0.00
381.85	35.11
382.04	28.09
382.24	0.00
382.43	14.04
382.63	23.41
382.83	9.36
383.02	0.00
383.22	7.02
383.41	37.45
383.61	0.00
383.80	0.00
384.00	65.54
384.19	21.06
384.39	18.72
384.58	67.88
384.78	14.04
384.97	0.00
385.17	32.77
385.36	11.70
385.56	9.36
385.75	0.00
385.95	72.56
386.14	14.04
386.34	21.06
386.53	14.04
386.72	42.13
386.92	0.00
387.11	63.19
387.31	70.22
387.50	16.38
387.70	16.38
387.89	79.58
388.09	28.09
388.28	30.43
388.48	0.00
388.67	28.09
388.86	28.09
389.06	98.30
389.25	39.79
389.45	74.90
389.64	77.24
389.84	56.17
390.03	56.17
390.22	23.41
390.42	81.92
390.61	18.72
390.81	18.72
391.00	14.04
391.19	0.00
391.39	72.56
391.58	2.34
391.78	2.34
391.97	0.00
392.16	16.38
392.36	28.09
392.55	79.58
392.75	28.09
392.94	49.15
393.13	16.38
393.33	49.15
393.52	11.70
393.71	28.09
393.91	60.85
394.10	37.45
394.29	0.00
394.49	14.04
394.68	65.54
394.88	21.06
395.07	0.00
395.26	0.00
395.46	30.43
395.65	16.38
395.84	0.00
396.04	0.00
396.23	117.03
396.42	2.34
396.62	49.15
396.81	14.04
397.00	0.00
397.19	42.13
397.39	18.72
397.58	0.00
397.77	37.45
397.97	0.00
398.16	42.13
398.35	74.90
398.55	14.04
398.74	44.47
398.93	0.00
399.12	0.00
399.32	18.72
399.51	53.83
399.70	35.11
399.90	0.00
400.09	21.06
400.28	23.41
400.47	23.41
400.67	107.66
400.86	21.06
401.05	0.00
401.24	25.75
401.44	4.68
401.63	4.68
401.82	4.68
402.01	7.02
402.21	18.72
402.40	14.04
402.59	0.00
402.78	18.72
402.97	0.00
403.17	49.15
403.36	0.00
403.55	0.00
403.74	25.75
403.93	28.09
404.13	16.38
404.32	0.00
404.51	42.13
404.70	0.00
404.89	37.45
405.09	0.00
405.28	4.68
405.47	9.36
405.66	46.81
405.85	9.36
406.05	18.72
406.24	0.00
406.43	0.00
406.62	49.15
406.81	9.36
407.00	107.66
407.20	42.13
407.39	0.00
407.58	44.47
407.77	44.47
407.96	67.88
408.15	0.00
408.34	56.17
408.54	74.90
408.73	21.06
408.92	14.04
409.11	35.11
409.30	0.00
409.49	70.22
409.68	30.43
409.87	37.45
410.07	11.70
410.26	32.77
410.45	2.34
410.64	0.00
410.83	79.58
411.02	74.90
411.21	0.00
411.40	51.49
411.59	23.41
411.78	0.00
411.98	4.68
412.17	0.00
412.36	16.38
412.55	46.81
412.74	110.01
412.93	0.00
413.12	0.00
413.31	0.00
413.50	0.00
413.69	42.13
413.88	0.00
414.07	0.00
414.26	14.04
414.45	23.41
414.64	11.70
414.83	23.41
415.02	46.81
415.22	56.17
415.41	0.00
415.60	9.36
415.79	0.00
415.98	0.00
416.17	0.00
416.36	7.02
416.55	0.00
416.74	16.38
416.93	79.58
417.12	32.77
417.31	42.13
417.50	77.24
417.69	35.11
417.88	7.02
418.07	53.83
418.26	88.94
418.45	30.43
418.64	58.51
418.83	18.72
419.02	14.04
419.21	32.77
419.39	37.45
419.58	9.36
419.77	0.00
419.96	21.06
420.15	0.00
420.34	35.11
420.53	28.09
420.72	58.51
420.91	30.43
421.10	16.38
421.29	0.00
421.48	42.13
421.67	46.81
421.86	0.00
422.05	14.04
422.24	79.58
422.43	14.04
422.61	42.13
422.80	0.00
422.99	37.45
423.18	37.45
423.37	18.72
423.56	0.00
423.75	86.60
423.94	0.00
424.13	51.49
424.32	32.77
424.50	53.83
424.69	42.13
424.88	0.00
425.07	67.88
425.26	51.49
425.45	39.79
425.64	11.70
425.83	32.77
426.01	58.51
426.20	58.51
426.39	0.00
426.58	53.83
426.77	100.64
426.96	0.00
427.15	32.77
427.33	65.54
427.52	9.36
427.71	16.38
427.90	72.56
428.09	30.43
428.28	105.32
428.46	28.09
428.65	67.88
428.84	0.00
429.03	79.58
429.22	0.00
429.40	30.43
429.59	42.13
429.78	88.94
429.97	49.15
430.16	39.79
430.34	7.02
430.53	0.00
430.72	0.00
430.91	14.04
431.10	49.15
431.28	72.56
431.47	18.72
431.66	49.15
431.85	44.47
432.03	0.00
432.22	28.09
432.41	0.00
432.60	88.94
432.79	0.00
432.97	58.51
433.16	39.79
433.35	0.00
433.54	46.81
433.72	0.00
433.91	44.47
434.10	37.45
434.28	25.75
434.47	35.11
434.66	30.43
434.85	56.17
435.03	16.38
435.22	0.00
435.41	0.00
435.59	11.70
435.78	0.00
435.97	86.60
436.16	74.90
436.34	77.24
436.53	9.36
436.72	0.00
436.90	23.41
437.09	63.19
437.28	0.00
437.46	30.43
437.65	67.88
437.84	11.70
438.02	25.75
438.21	67.88
438.40	0.00
438.58	46.81
438.77	42.13
438.96	11.70
439.14	60.85
439.33	46.81
439.52	21.06
439.70	23.41
439.89	9.36
440.08	37.45
440.26	67.88
440.45	88.94
440.63	0.00
440.82	0.00
441.01	11.70
441.19	65.54
441.38	81.92
441.57	44.47
441.75	67.88
441.94	70.22
442.12	91.28
442.31	0.00
442.50	21.06
442.68	0.00
442.87	21.06
443.05	44.47
443.24	119.37
443.43	98.30
443.61	37.45
443.80	65.54
443.98	39.79
444.17	7.02
444.35	30.43
444.54	84.26
444.73	18.72
444.91	16.38
445.10	0.00
445.28	44.47
445.47	35.11
445.65	51.49
445.84	11.70
446.02	35.11
446.21	30.43
446.39	0.00
446.58	0.00
446.77	0.00
446.95	49.15
447.14	37.45
447.32	81.92
447.51	70.22
447.69	25.75
447.88	14.04
448.06	56.17
448.25	30.43
448.43	23.41
448.62	32.77
448.80	0.00
448.99	131.07
449.17	51.49
449.36	25.75
449.54	46.81
449.73	32.77
449.91	0.00
450.10	65.54
450.28	0.00
450.46	18.72
450.65	51.49
450.83	86.60
451.02	9.36
451.20	0.00
451.39	72.56
451.57	0.00
451.76	14.04
451.94	39.79
452.13	11.70
452.31	56.17
452.49	25.75
452.68	0.00
452.86	72.56
453.05	25.75
453.23	2.34
453.42	0.00
453.60	35.11
453.78	46.81
453.97	0.00
454.15	7.02
454.34	95.96
454.52	30.43
454.70	30.43
454.89	11.70
455.07	56.17
455.26	14.04
455.44	0.00
455.62	0.00
455.81	4.68
455.99	51.49
456.17	72.56
456.36	44.47
456.54	74.90
456.73	30.43
456.91	18.72
457.09	37.45
457.28	117.03
457.46	67.88
457.64	53.83
457.83	65.54
458.01	21.06
458.19	30.43
458.38	35.11
458.56	124.05
458.74	23.41
458.93	11.70
459.11	0.00
459.29	11.70
459.48	79.58
459.66	32.77
459.84	63.19
460.03	63.19
460.21	25.75
460.39	63.19
460.57	0.00
460.76	0.00
460.94	42.13
461.12	79.58
461.31	46.81
461.49	9.36
461.67	91.28
461.85	0.00
462.04	35.11
462.22	32.77
462.40	23.41
462.59	58.51
462.77	42.13
462.95	23.41
463.13	0.00
463.32	0.00
463.50	65.54
463.68	60.85
463.86	102.98
464.05	32.77
464.23	18.72
464.41	32.77
464.59	0.00
464.78	0.00
464.96	28.09
465.14	70.22
465.32	0.00
465.50	60.85
465.69	0.00
465.87	42.13
466.05	58.51
466.23	21.06
466.41	32.77
466.60	16.38
466.78	72.56
466.96	70.22
467.14	14.04
467.32	42.13
467.51	0.00
467.69	14.04
467.87	0.00
468.05	0.00
468.23	14.04
468.41	74.90
468.60	23.41
468.78	28.09
468.96	77.24
469.14	21.06
469.32	42.13
469.50	16.38
469.69	11.70
469.87	42.13
470.05	4.68
470.23	7.02
470.41	35.11
470.59	60.85
470.77	0.00
470.95	25.75
471.14	86.60
471.32	7.02
471.50	0.00
471.68	60.85
471.86	21.06
472.04	74.90
472.22	28.09
472.40	39.79
472.58	102.98
472.77	37.45
472.95	9.36
473.13	56.17
473.31	0.00
473.49	0.00
473.67	0.00
473.85	18.72
474.03	63.19
474.21	0.00
474.39	56.17
474.57	79.58
474.75	4.68
474.93	0.00
475.12	32.77
475.30	0.00
475.48	46.81
475.66	42.13
475.84	35.11
476.02	67.88
476.20	72.56
476.38	56.17
476.56	42.13
476.74	18.72
476.92	25.75
477.10	88.94
477.28	9.36
477.46	11.70
477.64	67.88
477.82	88.94
478.00	11.70
478.18	39.79
478.36	21.06
478.54	14.04
478.72	0.00
478.90	63.19
479.08	56.17
479.26	18.72
479.44	0.00
479.62	0.00
479.80	72.56
479.98	37.45
480.16	9.36
480.34	44.47
480.52	39.79
480.70	70.22
480.88	0.00
481.06	2.34
481.24	0.00
481.41	14.04
481.59	51.49
481.77	25.75
481.95	4.68
482.13	32.77
482.31	0.00
482.49	2.34
482.67	56.17
482.85	79.58
483.03	0.00
483.21	42.13
483.39	124.05
483.57	35.11
483.74	2.34
483.92	9.36
484.10	37.45
484.28	0.00
484.46	32.77
484.64	37.45
484.82	2.34
485.00	72.56
485.18	63.19
485.35	63.19
485.53	42.13
485.71	72.56
485.89	63.19
486.07	67.88
486.25	60.85
486.43	70.22
486.61	56.17
486.78	0.00
486.96	25.75
487.14	58.51
487.32	0.00
487.50	70.22
487.68	42.13
487.85	0.00
488.03	35.11
488.21	7.02
488.39	16.38
488.57	65.54
488.75	35.11
488.92	95.96
489.10	11.70
489.28	35.11
489.46	44.47
489.64	0.00
489.81	65.54
489.99	53.83
490.17	53.83
490.35	67.88
490.53	46.81
490.70	4.68
490.88	63.19
491.06	30.43
491.24	70.22
491.41	51.49
491.59	42.13
491.77	79.58
491.95	30.43
492.13	0.00
492.30	84.26
492.48	65.54
492.66	0.00
492.84	9.36
493.01	14.04
493.19	0.00
493.37	2.34
493.54	11.70
493.72	39.79
493.90	58.51
494.08	51.49
494.25	25.75
494.43	37.45
494.61	0.00
494.79	16.38
494.96	37.45
495.14	58.51
495.32	23.41
495.49	51.49
495.67	0.00
495.85	25.75
496.02	0.00
496.20	49.15
496.38	0.00
496.55	95.96
496.73	42.13
496.91	30.43
497.09	42.13
497.26	39.79
497.44	0.00
497.62	18.72
497.79	0.00
497.97	21.06
498.14	0.00
498.32	39.79
498.50	49.15
498.67	28.09
498.85	7.02
499.03	0.00
499.20	42.13
499.38	65.54
499.56	39.79
499.73	23.41
499.91	93.62
500.08	70.22
500.26	37.45
500.44	21.06
500.61	7.02
500.79	0.00
500.97	65.54
501.14	11.70
501.32	16.38
501.49	56.17
501.67	0.00
501.84	0.00
502.02	91.28
502.20	65.54
502.37	91.28
502.55	60.85
502.72	21.06
502.90	67.88
503.07	128.73
503.25	81.92
503.43	60.85
503.60	98.30
503.78	30.43
503.95	58.51
504.13	56.17
504.30	9.36
504.48	18.72
504.65	18.72
504.83	56.17
505.01	114.69
505.18	93.62
505.36	14.04
505.53	0.00
505.71	0.00
505.88	65.54
506.06	16.38
506.23	0.00
506.41	65.54
506.58	11.70
506.76	46.81
506.93	2.34
507.11	35.11
507.28	70.22
507.46	93.62
507.63	37.45
507.81	58.51
507.98	39.79
508.16	51.49
508.33	0.00
508.50	0.00
508.68	18.72
508.85	63.19
509.03	0.00
509.20	28.09
509.38	0.00
509.55	0.00
509.73	4.68
509.90	42.13
510.08	0.00
510.25	25.75
510.42	79.58
510.60	84.26
510.77	56.17
510.95	0.00
511.12	51.49
511.30	9.36
511.47	25.75
511.64	88.94
511.82	105.32
511.99	70.22
512.17	63.19
512.34	0.00
512.51	28.09
512.69	105.32
512.86	0.00
513.04	37.45
513.21	86.60
513.38	56.17
513.56	79.58
513.73	28.09
513.90	93.62
514.08	35.11
514.25	37.45
514.43	102.98
514.60	46.81
514.77	32.77
514.95	60.85
515.12	65.54
515.29	70.22
515.47	4.68
515.64	0.00
515.81	30.43
515.99	7.02
516.16	0.00
516.33	70.22
516.51	79.58
516.68	25.75
516.85	70.22
517.03	30.43
517.20	70.22
517.37	4.68
517.54	51.49
517.72	86.60
517.89	23.41
518.06	14.04
518.24	74.90
518.41	0.00
518.58	53.83
518.75	67.88
518.93	11.70
519.10	39.79
519.27	39.79
519.45	42.13
519.62	65.54
519.79	30.43
519.96	60.85
520.14	56.17
520.31	16.38
520.48	58.51
520.65	35.11
520.83	88.94
521.00	74.90
521.17	16.38
521.34	9.36
521.52	49.15
521.69	0.00
521.86	72.56
522.03	93.62
522.20	25.75
522.38	60.85
522.55	18.72
522.72	18.72
522.89	25.75
523.07	56.17
523.24	23.41
523.41	93.62
523.58	91.28
523.75	65.54
523.92	42.13
524.10	7.02
524.27	56.17
524.44	81.92
524.61	49.15
524.78	0.00
524.96	51.49
525.13	16.38
525.30	18.72
525.47	98.30
525.64	18.72
525.81	95.96
525.98	25.75
526.16	100.64
526.33	65.54
526.50	79.58
526.67	30.43
526.84	0.00
527.01	0.00
527.18	60.85
527.36	32.77
527.53	58.51
527.70	2.34
527.87	30.43
528.04	28.09
528.21	93.62
528.38	11.70
528.55	72.56
528.72	46.81
528.89	51.49
529.07	72.56
529.24	53.83
529.41	35.11
529.58	46.81
529.75	60.85
529.92	0.00
530.09	39.79
530.26	44.47
530.43	30.43
530.60	49.15
530.77	9.36
530.94	46.81
531.11	86.60
531.28	37.45
531.46	56.17
531.63	35.11
531.80	0.00
531.97	16.38
532.14	44.47
532.31	23.41
532.48	23.41
532.65	86.60
532.82	28.09
532.99	65.54
533.16	0.00
533.33	28.09
533.50	23.41
533.67	53.83
533.84	9.36
534.01	30.43
534.18	25.75
534.35	2.34
534.52	77.24
534.69	25.75
534.86	0.00
535.03	42.13
535.20	46.81
535.37	18.72
535.54	39.79
535.71	0.00
535.88	65.54
536.05	37.45
536.22	39.79
536.38	11.70
536.55	0.00
536.72	0.00
536.89	77.24
537.06	91.28
537.23	77.24
537.40	51.49
537.57	28.09
537.74	67.88
537.91	56.17
538.08	100.64
538.25	0.00
538.42	4.68
538.59	0.00
538.75	21.06
538.92	86.60
539.09	98.30
539.26	74.90
539.43	124.05
539.60	95.96
539.77	107.66
539.94	128.73
540.11	117.03
540.28	60.85
540.44	0.00
540.61	23.41
540.78	42.13
540.95	51.49
541.12	35.11
541.29	98.30
541.46	28.09
541.62	51.49
541.79	14.04
541.96	102.98
542.13	56.17
542.30	28.09
542.47	35.11
542.63	86.60
542.80	91.28
542.97	102.98
543.14	46.81
543.31	72.56
543.48	23.41
543.64	35.11
543.81	107.66
543.98	63.19
544.15	79.58
544.32	30.43
544.48	77.24
544.65	25.75
544.82	23.41
544.99	35.11
545.16	63.19
545.32	4.68
545.49	49.15
545.66	79.58
545.83	0.00
546.00	117.03
546.16	25.75
546.33	102.98
546.50	58.51
546.67	72.56
546.83	0.00
547.00	58.51
547.17	16.38
547.34	11.70
547.50	121.71
547.67	63.19
547.84	30.43
548.00	37.45
548.17	0.00
548.34	124.05
548.51	46.81
548.67	44.47
548.84	44.47
549.01	21.06
549.18	133.41
549.34	74.90
549.51	81.92
549.68	9.36
549.84	51.49
550.01	32.77
550.18	58.51
550.34	25.75
550.51	0.00
550.68	14.04
550.84	18.72
551.01	21.06
551.18	32.77
551.34	58.51
551.51	74.90
551.68	0.00
551.84	0.00
552.01	25.75
552.18	51.49
552.34	138.09
552.51	0.00
552.68	74.90
552.84	39.79
553.01	91.28
553.18	67.88
553.34	88.94
553.51	9.36
553.67	65.54
553.84	11.70
554.01	35.11
554.17	14.04
554.34	42.13
554.51	105.32
554.67	18.72
554.84	60.85
555.00	28.09
555.17	11.70
555.33	9.36
555.50	63.19
555.67	14.04
555.83	51.49
556.00	65.54
556.16	145.11
556.33	7.02
556.50	32.77
556.66	0.00
556.83	53.83
556.99	39.79
557.16	0.00
557.32	28.09
557.49	42.13
557.65	84.26
557.82	51.49
557.98	86.60
558.15	32.77
558.32	53.83
558.48	67.88
558.65	53.83
558.81	0.00
558.98	16.38
559.14	51.49
559.31	14.04
559.47	84.26
559.64	81.92
559.80	42.13
559.97	42.13
560.13	0.00
560.30	63.19
560.46	63.19
560.63	74.90
560.79	51.49
560.96	28.09
561.12	0.00
561.29	102.98
561.45	65.54
561.61	25.75
561.78	28.09
561.94	58.51
562.11	77.24
562.27	16.38
562.44	0.00
562.60	100.64
562.77	11.70
562.93	14.04
563.10	7.02
563.26	46.81
563.42	79.58
563.59	88.94
563.75	72.56
563.92	74.90
564.08	39.79
564.24	21.06
564.41	56.17
564.57	25.75
564.74	11.70
564.90	18.72
565.07	4.68
565.23	44.47
565.39	79.58
565.56	44.47
565.72	74.90
565.88	51.49
566.05	35.11
566.21	0.00
566.38	65.54
566.54	23.41
566.70	44.47
566.87	39.79
567.03	84.26
567.19	4.68
567.36	88.94
567.52	46.81
567.68	25.75
567.85	39.79
568.01	35.11
568.17	65.54
568.34	39.79
568.50	16.38
568.66	72.56
568.83	70.22
568.99	21.06
569.15	30.43
569.32	0.00
569.48	133.41
569.64	112.35
569.81	67.88
569.97	60.85
570.13	28.09
570.30	53.83
570.46	0.00
570.62	37.45
570.78	11.70
570.95	18.72
571.11	56.17
571.27	63.19
571.43	46.81
571.60	14.04
571.76	16.38
571.92	70.22
572.09	30.43
572.25	28.09
572.41	23.41
572.57	117.03
572.74	88.94
572.90	58.51
573.06	65.54
573.22	60.85
573.38	91.28
573.55	51.49
573.71	110.01
573.87	77.24
574.03	23.41
574.20	88.94
574.36	117.03
574.52	4.68
574.68	0.00
574.84	35.11
575.01	0.00
575.17	49.15
575.33	0.00
575.49	42.13
575.65	25.75
575.82	46.81
575.98	21.06
576.14	63.19
576.30	58.51
576.46	65.54
576.62	39.79
576.79	65.54
576.95	100.64
577.11	23.41
577.27	14.04
577.43	110.01
577.59	110.01
577.75	0.00
577.92	37.45
578.08	0.00
578.24	37.45
578.40	60.85
578.56	0.00
578.72	77.24
578.88	121.71
579.04	93.62
579.21	0.00
579.37	28.09
579.53	0.00
579.69	88.94
579.85	133.41
580.01	16.38
580.17	0.00
580.33	35.11
580.49	0.00
580.65	35.11
580.82	51.49
580.98	72.56
581.14	91.28
581.30	44.47
581.46	70.22
581.62	30.43
581.78	79.58
581.94	39.79
582.10	14.04
582.26	63.19
582.42	58.51
582.58	65.54
582.74	72.56
582.90	42.13
583.06	49.15
583.22	51.49
583.38	86.60
583.54	72.56
583.70	65.54
583.86	95.96
584.02	72.56
584.18	110.01
584.34	98.30
584.50	156.82
584.66	924.51
584.82	2385.01
584.98	3618.47
585.14	3283.77
585.30	2071.37
585.46	1287.29
585.62	800.46
585.78	390.87
585.94	196.60
586.10	114.69
586.26	63.19
586.42	88.94
586.58	100.64
586.74	28.09
586.90	65.54
587.06	77.24
587.22	42.13
587.38	117.03
587.54	119.37
587.70	208.31
587.86	245.76
588.02	339.38
588.18	257.46
588.34	105.32
588.49	128.73
588.65	49.15
588.81	46.81
588.97	56.17
589.13	4.68
589.29	9.36
589.45	11.70
589.61	11.70
589.77	56.17
589.93	72.56
590.08	81.92
590.24	72.56
590.40	100.64
590.56	21.06
590.72	49.15
590.88	9.36
591.04	65.54
591.20	9.36
591.35	37.45
591.51	0.00
591.67	9.36
591.83	30.43
591.99	95.96
592.15	42.13
592.31	74.90
592.46	16.38
592.62	110.01
592.78	37.45
592.94	63.19
593.10	93.62
593.26	35.11
593.41	16.38
593.57	0.00
593.73	128.73
593.89	215.33
594.05	369.80
594.20	456.40
594.36	456.40
594.52	301.93
594.68	159.16
594.84	177.88
594.99	102.98
595.15	70.22
595.31	18.72
595.47	0.00
595.62	21.06
595.78	42.13
595.94	42.13
596.10	30.43
596.25	44.47
596.41	32.77
596.57	65.54
596.73	102.98
596.88	81.92
597.04	79.58
597.20	187.24
597.36	147.45
597.51	112.35
597.67	114.69
597.83	70.22
597.99	21.06
598.14	49.15
598.30	88.94
598.46	42.13
598.61	32.77
598.77	56.17
598.93	32.77
599.09	32.77
599.24	100.64
599.40	35.11
599.56	67.88
599.71	23.41
599.87	9.36
600.03	32.77
600.18	70.22
600.34	77.24
600.50	37.45
600.65	11.70
600.81	39.79
600.97	0.00
601.12	0.00
601.28	58.51
601.44	4.68
601.59	70.22
601.75	51.49
601.91	0.00
602.06	30.43
602.22	44.47
602.37	37.45
602.53	114.69
602.69	140.43
602.84	142.77
603.00	91.28
603.16	70.22
603.31	107.66
603.47	81.92
603.62	4.68
603.78	49.15
603.94	23.41
604.09	81.92
604.25	0.00
604.40	51.49
604.56	107.66
604.71	44.47
604.87	53.83
605.03	37.45
605.18	9.36
605.34	81.92
605.49	35.11
605.65	44.47
605.80	60.85
605.96	32.77
606.12	0.00
606.27	77.24
606.43	42.13
606.58	42.13
606.74	81.92
606.89	175.54
607.05	369.80
607.20	428.32
607.36	416.62
607.51	243.42
607.67	121.71
607.82	147.45
607.98	65.54
608.13	72.56
608.29	95.96
608.44	63.19
608.60	25.75
608.75	88.94
608.91	102.98
609.06	243.42
609.22	449.38
609.37	746.63
609.53	634.29
609.68	449.38
609.84	278.52
609.99	241.08
610.15	81.92
610.30	140.43
610.46	58.51
610.61	105.32
610.76	74.90
610.92	70.22
611.07	0.00
611.23	110.01
611.38	93.62
611.54	100.64
611.69	70.22
611.84	84.26
612.00	0.00
612.15	98.30
612.31	119.37
612.46	51.49
612.62	70.22
612.77	32.77
612.92	74.90
613.08	72.56
613.23	77.24
613.39	95.96
613.54	98.30
613.69	229.37
613.85	594.50
614.00	1032.18
614.15	1132.82
614.31	741.95
614.46	608.54
614.62	351.08
614.77	271.50
614.92	81.92
615.08	56.17
615.23	67.88
615.38	84.26
615.54	84.26
615.69	65.54
615.84	154.48
616.00	196.60
616.15	315.97
616.30	217.67
616.46	173.20
616.61	175.54
616.76	88.94
616.92	32.77
617.07	18.72
617.22	2.34
617.37	11.70
617.53	0.00
617.68	51.49
617.83	42.13
617.99	133.41
618.14	0.00
618.29	58.51
618.45	44.47
618.60	30.43
618.75	42.13
618.90	16.38
619.06	51.49
619.21	39.79
619.36	2.34
619.51	23.41
619.67	49.15
619.82	21.06
619.97	88.94
620.12	58.51
620.28	70.22
620.43	72.56
620.58	56.17
620.73	21.06
620.89	49.15
621.04	100.64
621.19	86.60
621.34	196.60
621.49	159.16
621.65	217.67
621.80	91.28
621.95	67.88
622.10	63.19
622.25	72.56
622.41	51.49
622.56	72.56
622.71	0.00
622.86	21.06
623.01	91.28
623.16	117.03
623.32	0.00
623.47	51.49
623.62	25.75
623.77	60.85
623.92	51.49
624.07	77.24
624.23	84.26
624.38	60.85
624.53	0.00
624.68	44.47
624.83	81.92
624.98	84.26
625.13	0.00
625.29	81.92
625.44	119.37
625.59	77.24
625.74	49.15
625.89	16.38
626.04	93.62
626.19	278.52
626.34	538.32
626.49	620.24
626.65	444.70
626.80	367.46
626.95	215.33
627.10	156.82
627.25	23.41
627.40	37.45
627.55	4.68
627.70	35.11
627.85	0.00
628.00	11.70
628.15	23.41
628.30	79.58
628.45	46.81
628.60	88.94
628.76	58.51
628.91	91.28
629.06	117.03
629.21	79.58
629.36	9.36
629.51	0.00
629.66	53.83
629.81	28.09
629.96	51.49
630.11	107.66
630.26	173.20
630.41	173.20
630.56	114.69
630.71	30.43
630.86	37.45
631.01	86.60
631.16	102.98
631.31	2.34
631.46	95.96
631.61	0.00
631.76	7.02
631.91	93.62
632.06	35.11
632.21	30.43
632.36	60.85
632.51	67.88
632.66	100.64
632.81	81.92
632.96	161.50
633.10	337.04
633.25	507.90
633.40	318.31
633.55	222.35
633.70	205.97
633.85	39.79
634.00	60.85
634.15	7.02
634.30	74.90
634.45	46.81
634.60	0.00
634.75	18.72
634.90	39.79
635.05	0.00
635.19	65.54
635.34	49.15
635.49	23.41
635.64	0.00
635.79	11.70
635.94	67.88
636.09	65.54
636.24	72.56
636.39	100.64
636.53	28.09
636.68	112.35
636.83	25.75
636.98	60.85
637.13	95.96
637.28	37.45
637.43	23.41
637.57	37.45
637.72	163.84
637.87	381.51
638.02	678.76
638.17	760.67
638.32	531.30
638.46	320.65
638.61	306.61
638.76	177.88
638.91	60.85
639.06	51.49
639.20	0.00
639.35	11.70
639.50	77.24
639.65	280.86
639.80	557.05
639.94	997.07
640.09	1137.50
640.24	950.26
640.39	592.16
640.54	430.66
640.68	229.37
640.83	100.64
640.98	49.15
641.13	28.09
641.27	74.90
641.42	56.17
641.57	77.24
641.72	0.00
641.86	53.83
642.01	0.00
642.16	35.11
642.31	0.00
642.45	51.49
642.60	65.54
642.75	28.09
642.90	0.00
643.04	93.62
643.19	9.36
643.34	46.81
643.48	110.01
643.63	32.77
643.78	72.56
643.93	23.41
644.07	32.77
644.22	86.60
644.37	0.00
644.51	32.77
644.66	72.56
644.81	56.17
644.95	81.92
645.10	23.41
645.25	25.75
645.39	28.09
645.54	0.00
645.69	39.79
645.83	49.15
645.98	0.00
646.13	51.49
646.27	51.49
646.42	60.85
646.57	70.22
646.71	35.11
646.86	56.17
647.00	49.15
647.15	4.68
647.30	9.36
647.44	49.15
647.59	79.58
647.74	42.13
647.88	0.00
648.03	44.47
648.17	53.83
648.32	28.09
648.47	117.03
648.61	0.00
648.76	0.00
648.90	72.56
649.05	58.51
649.20	7.02
649.34	42.13
649.49	37.45
649.63	105.32
649.78	2.34
649.92	39.79
650.07	86.60
650.21	299.59
650.36	517.26
650.51	610.88
650.65	568.75
650.80	416.62
650.94	262.14
651.09	166.18
651.23	74.90
651.38	107.66
651.52	67.88
651.67	2.34
651.81	21.06
651.96	35.11
652.10	28.09
652.25	0.00
652.39	44.47
652.54	0.00
652.68	39.79
652.83	166.18
652.97	121.71
653.12	234.05
653.26	140.43
653.41	217.67
653.55	187.24
653.70	77.24
653.84	91.28
653.99	81.92
654.13	0.00
654.27	65.54
654.42	70.22
654.56	30.43
654.71	81.92
654.85	0.00
655.00	35.11
655.14	72.56
655.29	4.68
655.43	28.09
655.57	0.00
655.72	60.85
655.86	14.04
656.01	42.13
656.15	25.75
656.30	44.47
656.44	0.00
656.58	14.04
656.73	37.45
656.87	58.51
657.01	16.38
657.16	9.36
657.30	72.56
657.45	37.45
657.59	49.15
657.73	0.00
657.88	81.92
658.02	9.36
658.16	0.00
658.31	114.69
658.45	7.02
658.60	51.49
658.74	21.06
658.88	35.11
659.03	35.11
659.17	70.22
659.31	25.75
659.46	105.32
659.60	210.65
659.74	322.99
659.89	278.52
660.03	196.60
660.17	121.71
660.32	77.24
660.46	86.60
660.60	58.51
660.74	30.43
660.89	0.00
661.03	4.68
661.17	23.41
661.32	28.09
661.46	0.00
661.60	16.38
661.74	0.00
661.89	44.47
662.03	63.19
662.17	63.19
662.31	63.19
662.46	0.00
662.60	46.81
662.74	53.83
662.88	121.71
663.03	53.83
663.17	65.54
663.31	79.58
663.45	0.00
663.60	0.00
663.74	95.96
663.88	35.11
664.02	53.83
664.17	77.24
664.31	53.83
664.45	0.00
664.59	35.11
664.73	0.00
664.88	32.77
665.02	30.43
665.16	67.88
665.30	7.02
665.44	44.47
665.59	16.38
665.73	100.64
665.87	51.49
666.01	0.00
666.15	14.04
666.29	30.43
666.44	51.49
666.58	9.36
666.72	72.56
666.86	53.83
667.00	79.58
667.14	65.54
667.28	110.01
667.43	276.18
667.57	395.55
667.71	482.15
667.85	411.93
667.99	313.63
668.13	283.20
668.27	105.32
668.41	138.09
668.56	44.47
668.70	105.32
668.84	0.00
668.98	53.83
669.12	65.54
669.26	35.11
669.40	70.22
669.54	44.47
669.68	110.01
669.82	37.45
669.96	0.00
670.10	21.06
670.25	42.13
670.39	74.90
670.53	0.00
670.67	0.00
670.81	0.00
670.95	25.75
671.09	77.24
671.23	84.26
671.37	217.67
671.51	330.02
671.65	486.83
671.79	276.18
671.93	227.03
672.07	98.30
672.21	72.56
672.35	28.09
672.49	35.11
672.63	70.22
672.77	63.19
672.91	21.06
673.05	0.00
673.19	4.68
673.33	67.88
673.47	30.43
673.61	121.71
673.75	28.09
673.89	74.90
674.03	121.71
674.17	60.85
674.31	58.51
674.45	21.06
674.59	44.47
674.73	35.11
674.87	126.39
675.01	46.81
675.15	60.85
675.29	4.68
675.43	58.51
675.56	46.81
675.70	58.51
675.84	51.49
675.98	70.22
676.12	0.00
676.26	42.13
676.40	53.83
676.54	9.36
676.68	28.09
676.82	105.32
676.96	28.09
677.10	23.41
677.23	42.13
677.37	95.96
677.51	140.43
677.65	25.75
677.79	51.49
677.93	93.62
678.07	32.77
678.21	0.00
678.34	23.41
678.48	46.81
678.62	35.11
678.76	0.00
678.90	102.98
679.04	0.00
679.18	32.77
679.31	102.98
679.45	79.58
679.59	77.24
679.73	93.62
679.87	0.00
680.00	21.06
680.14	42.13
680.28	11.70
680.42	32.77
680.56	0.00
680.70	37.45
680.83	42.13
680.97	65.54
681.11	0.00
681.25	0.00
681.39	91.28
681.52	74.90
681.66	2.34
681.80	88.94
681.94	4.68
682.07	37.45
682.21	21.06
682.35	0.00
682.49	35.11
682.62	39.79
682.76	21.06
682.90	44.47
683.04	0.00
683.17	70.22
683.31	93.62
683.45	93.62
683.59	44.47
683.72	147.45
683.86	70.22
684.00	65.54
684.13	0.00
684.27	84.26
684.41	0.00
684.55	58.51
684.68	28.09
684.82	46.81
684.96	0.00
685.09	0.00
685.23	30.43
685.37	74.90
685.50	51.49
685.64	21.06
685.78	0.00
685.91	0.00
686.05	0.00
686.19	14.04
686.32	9.36
686.46	0.00
686.60	46.81
686.73	0.00
686.87	0.00
687.01	63.19
687.14	0.00
687.28	4.68
687.42	28.09
687.55	74.90
687.69	0.00
687.82	28.09
687.96	100.64
688.10	88.94
688.23	70.22
688.37	39.79
688.50	49.15
688.64	0.00
688.78	23.41
688.91	58.51
689.05	44.47
689.18	58.51
689.32	35.11
689.46	70.22
689.59	39.79
689.73	32.77
689.86	11.70
690.00	70.22
690.13	25.75
690.27	133.41
690.41	44.47
690.54	0.00
690.68	77.24
690.81	35.11
690.95	102.98
691.08	0.00
691.22	0.00
691.35	63.19
691.49	18.72
691.62	39.79
691.76	9.36
691.89	42.13
692.03	18.72
692.16	84.26
692.30	58.51
692.43	65.54
692.57	205.97
692.70	201.29
692.84	280.86
692.97	191.92
693.11	180.22
693.24	119.37
693.38	53.83
693.51	58.51
693.65	35.11
693.78	93.62
693.92	2.34
694.05	35.11
694.19	81.92
694.32	51.49
694.45	0.00
694.59	58.51
694.72	7.02
694.86	44.47
694.99	105.32
695.13	42.13
695.26	37.45
695.39	4.68
695.53	14.04
695.66	84.26
695.80	0.00
695.93	74.90
696.07	44.47
696.20	77.24
696.33	84.26
696.47	46.81
696.60	39.79
696.73	4.68
696.87	16.38
697.00	46.81
697.14	79.58
697.27	51.49
697.40	58.51
697.54	0.00
697.67	25.75
697.80	0.00
697.94	28.09
698.07	32.77
698.21	46.81
698.34	30.43
698.47	53.83
698.61	0.00
698.74	9.36
698.87	25.75
699.01	60.85
699.14	39.79
699.27	37.45
699.40	67.88
699.54	2.34
699.67	39.79
699.80	49.15
699.94	0.00
700.07	7.02
700.20	88.94
700.34	9.36
700.47	7.02
700.60	25.75
700.73	86.60
700.87	28.09
701.00	16.38
701.13	0.00
701.26	0.00
701.40	133.41
701.53	46.81
701.66	86.60
701.79	23.41
701.93	14.04
702.06	60.85
702.19	74.90
702.32	58.51
702.46	16.38
702.59	11.70
702.72	77.24
702.85	140.43
702.99	301.93
703.12	400.23
703.25	479.81
703.38	397.89
703.51	325.33
703.65	250.44
703.78	234.05
703.91	166.18
704.04	102.98
704.17	72.56
704.31	21.06
704.44	16.38
704.57	9.36
704.70	46.81
704.83	107.66
704.96	102.98
705.10	81.92
705.23	2.34
>>>>>End Processed Spectral Data<<<<<
