SpectraSuite Data File
++++++++++++++++++++++++++++++++++++
Date: Fri Oct 04 12:13:26 GMT-05:00 2013
User: price-jones
Dark Spectrum Present: No
Reference Spectrum Present: No
Number of Sampled Component Spectra: 1
Spectrometers: USB2+H05261
Integration Time (usec): 10000 (USB2+H05261)
Spectra Averaged: 1 (USB2+H05261)
Boxcar Smoothing: 0 (USB2+H05261)
Correct for Electrical Dark: No (USB2+H05261)
Strobe/Lamp Enabled: No (USB2+H05261)
Correct for Detector Non-linearity: No (USB2+H05261)
Correct for Stray Light: No (USB2+H05261)
Number of Pixels in Processed Spectrum: 2048
>>>>>Begin Processed Spectral Data<<<<<
365.73	0.00
365.92	0.00
366.12	0.00
366.32	0.00
366.52	0.00
366.72	0.00
366.91	0.00
367.11	0.00
367.31	0.00
367.51	0.00
367.70	0.00
367.90	0.00
368.10	0.00
368.30	0.00
368.49	0.00
368.69	0.00
368.89	0.00
369.09	0.00
369.28	0.00
369.48	0.00
369.68	0.00
369.87	0.00
370.07	0.00
370.27	0.00
370.47	0.00
370.66	0.00
370.86	14.04
371.06	0.00
371.25	0.00
371.45	4.68
371.65	0.00
371.84	25.75
372.04	0.00
372.24	0.00
372.44	35.11
372.63	51.49
372.83	7.02
373.03	46.81
373.22	16.38
373.42	51.49
373.62	0.00
373.81	0.00
374.01	72.56
374.21	95.96
374.40	0.00
374.60	0.00
374.79	23.41
374.99	56.17
375.19	0.00
375.38	30.43
375.58	0.00
375.78	42.13
375.97	0.00
376.17	49.15
376.37	44.47
376.56	56.17
376.76	37.45
376.95	46.81
377.15	0.00
377.35	0.00
377.54	0.00
377.74	21.06
377.93	63.19
378.13	4.68
378.33	32.77
378.52	39.79
378.72	4.68
378.91	18.72
379.11	23.41
379.31	18.72
379.50	0.00
379.70	93.62
379.89	9.36
380.09	39.79
380.28	0.00
380.48	11.70
380.68	0.00
380.87	0.00
381.07	7.02
381.26	11.70
381.46	53.83
381.65	30.43
381.85	0.00
382.04	51.49
382.24	0.00
382.43	91.28
382.63	9.36
382.83	14.04
383.02	42.13
383.22	51.49
383.41	0.00
383.61	0.00
383.80	60.85
384.00	0.00
384.19	42.13
384.39	35.11
384.58	28.09
384.78	0.00
384.97	16.38
385.17	25.75
385.36	0.00
385.56	0.00
385.75	0.00
385.95	58.51
386.14	42.13
386.34	28.09
386.53	14.04
386.72	7.02
386.92	0.00
387.11	25.75
387.31	16.38
387.50	18.72
387.70	0.00
387.89	25.75
388.09	67.88
388.28	25.75
388.48	77.24
388.67	11.70
388.86	0.00
389.06	0.00
389.25	0.00
389.45	39.79
389.64	0.00
389.84	11.70
390.03	0.00
390.22	100.64
390.42	16.38
390.61	0.00
390.81	0.00
391.00	0.00
391.19	14.04
391.39	79.58
391.58	4.68
391.78	105.32
391.97	0.00
392.16	4.68
392.36	32.77
392.55	9.36
392.75	49.15
392.94	0.00
393.13	60.85
393.33	30.43
393.52	42.13
393.71	117.03
393.91	0.00
394.10	9.36
394.29	14.04
394.49	23.41
394.68	7.02
394.88	0.00
395.07	25.75
395.26	72.56
395.46	21.06
395.65	0.00
395.84	42.13
396.04	65.54
396.23	0.00
396.42	39.79
396.62	53.83
396.81	42.13
397.00	65.54
397.19	51.49
397.39	4.68
397.58	37.45
397.77	23.41
397.97	4.68
398.16	14.04
398.35	9.36
398.55	0.00
398.74	11.70
398.93	4.68
399.12	23.41
399.32	0.00
399.51	58.51
399.70	0.00
399.90	14.04
400.09	18.72
400.28	42.13
400.47	49.15
400.67	37.45
400.86	21.06
401.05	107.66
401.24	49.15
401.44	79.58
401.63	35.11
401.82	7.02
402.01	93.62
402.21	0.00
402.40	11.70
402.59	81.92
402.78	74.90
402.97	14.04
403.17	30.43
403.36	0.00
403.55	9.36
403.74	0.00
403.93	28.09
404.13	0.00
404.32	16.38
404.51	35.11
404.70	0.00
404.89	4.68
405.09	42.13
405.28	37.45
405.47	16.38
405.66	25.75
405.85	79.58
406.05	4.68
406.24	21.06
406.43	67.88
406.62	7.02
406.81	35.11
407.00	77.24
407.20	2.34
407.39	18.72
407.58	51.49
407.77	28.09
407.96	88.94
408.15	86.60
408.34	51.49
408.54	0.00
408.73	37.45
408.92	32.77
409.11	28.09
409.30	30.43
409.49	0.00
409.68	0.00
409.87	0.00
410.07	9.36
410.26	28.09
410.45	46.81
410.64	9.36
410.83	2.34
411.02	0.00
411.21	0.00
411.40	46.81
411.59	9.36
411.78	25.75
411.98	0.00
412.17	37.45
412.36	51.49
412.55	7.02
412.74	18.72
412.93	0.00
413.12	72.56
413.31	14.04
413.50	11.70
413.69	0.00
413.88	23.41
414.07	0.00
414.26	70.22
414.45	0.00
414.64	37.45
414.83	0.00
415.02	30.43
415.22	0.00
415.41	21.06
415.60	9.36
415.79	32.77
415.98	30.43
416.17	2.34
416.36	0.00
416.55	72.56
416.74	35.11
416.93	51.49
417.12	28.09
417.31	30.43
417.50	7.02
417.69	51.49
417.88	7.02
418.07	7.02
418.26	0.00
418.45	0.00
418.64	25.75
418.83	32.77
419.02	0.00
419.21	0.00
419.39	58.51
419.58	58.51
419.77	46.81
419.96	63.19
420.15	35.11
420.34	0.00
420.53	77.24
420.72	105.32
420.91	35.11
421.10	39.79
421.29	70.22
421.48	0.00
421.67	23.41
421.86	18.72
422.05	49.15
422.24	0.00
422.43	21.06
422.61	58.51
422.80	37.45
422.99	91.28
423.18	86.60
423.37	46.81
423.56	67.88
423.75	23.41
423.94	9.36
424.13	39.79
424.32	0.00
424.50	0.00
424.69	0.00
424.88	51.49
425.07	32.77
425.26	0.00
425.45	30.43
425.64	56.17
425.83	46.81
426.01	0.00
426.20	56.17
426.39	30.43
426.58	30.43
426.77	30.43
426.96	39.79
427.15	7.02
427.33	11.70
427.52	23.41
427.71	14.04
427.90	21.06
428.09	0.00
428.28	70.22
428.46	44.47
428.65	77.24
428.84	21.06
429.03	65.54
429.22	18.72
429.40	7.02
429.59	37.45
429.78	70.22
429.97	0.00
430.16	63.19
430.34	0.00
430.53	51.49
430.72	7.02
430.91	81.92
431.10	23.41
431.28	86.60
431.47	119.37
431.66	14.04
431.85	18.72
432.03	79.58
432.22	86.60
432.41	32.77
432.60	37.45
432.79	16.38
432.97	112.35
433.16	14.04
433.35	0.00
433.54	21.06
433.72	84.26
433.91	79.58
434.10	32.77
434.28	2.34
434.47	18.72
434.66	58.51
434.85	70.22
435.03	67.88
435.22	18.72
435.41	79.58
435.59	53.83
435.78	95.96
435.97	39.79
436.16	0.00
436.34	28.09
436.53	16.38
436.72	42.13
436.90	56.17
437.09	0.00
437.28	0.00
437.46	23.41
437.65	42.13
437.84	23.41
438.02	28.09
438.21	0.00
438.40	39.79
438.58	0.00
438.77	60.85
438.96	18.72
439.14	60.85
439.33	0.00
439.52	72.56
439.70	67.88
439.89	42.13
440.08	32.77
440.26	37.45
440.45	56.17
440.63	0.00
440.82	0.00
441.01	21.06
441.19	0.00
441.38	0.00
441.57	25.75
441.75	60.85
441.94	9.36
442.12	81.92
442.31	23.41
442.50	81.92
442.68	11.70
442.87	30.43
443.05	0.00
443.24	81.92
443.43	16.38
443.61	4.68
443.80	25.75
443.98	11.70
444.17	0.00
444.35	9.36
444.54	0.00
444.73	30.43
444.91	16.38
445.10	18.72
445.28	25.75
445.47	0.00
445.65	46.81
445.84	0.00
446.02	42.13
446.21	0.00
446.39	58.51
446.58	77.24
446.77	4.68
446.95	25.75
447.14	42.13
447.32	35.11
447.51	23.41
447.69	39.79
447.88	32.77
448.06	60.85
448.25	0.00
448.43	88.94
448.62	63.19
448.80	0.00
448.99	46.81
449.17	107.66
449.36	32.77
449.54	28.09
449.73	49.15
449.91	74.90
450.10	46.81
450.28	39.79
450.46	110.01
450.65	74.90
450.83	79.58
451.02	84.26
451.20	0.00
451.39	0.00
451.57	16.38
451.76	35.11
451.94	4.68
452.13	56.17
452.31	35.11
452.49	51.49
452.68	39.79
452.86	11.70
453.05	79.58
453.23	0.00
453.42	23.41
453.60	51.49
453.78	21.06
453.97	46.81
454.15	42.13
454.34	0.00
454.52	9.36
454.70	70.22
454.89	102.98
455.07	67.88
455.26	7.02
455.44	39.79
455.62	23.41
455.81	124.05
455.99	49.15
456.17	70.22
456.36	0.00
456.54	70.22
456.73	37.45
456.91	124.05
457.09	0.00
457.28	105.32
457.46	88.94
457.64	46.81
457.83	95.96
458.01	23.41
458.19	9.36
458.38	37.45
458.56	72.56
458.74	7.02
458.93	63.19
459.11	0.00
459.29	0.00
459.48	74.90
459.66	9.36
459.84	25.75
460.03	60.85
460.21	4.68
460.39	32.77
460.57	70.22
460.76	0.00
460.94	11.70
461.12	0.00
461.31	0.00
461.49	67.88
461.67	88.94
461.85	70.22
462.04	65.54
462.22	56.17
462.40	81.92
462.59	16.38
462.77	81.92
462.95	0.00
463.13	16.38
463.32	84.26
463.50	21.06
463.68	35.11
463.86	53.83
464.05	0.00
464.23	18.72
464.41	67.88
464.59	117.03
464.78	67.88
464.96	0.00
465.14	28.09
465.32	65.54
465.50	93.62
465.69	79.58
465.87	28.09
466.05	53.83
466.23	16.38
466.41	0.00
466.60	14.04
466.78	21.06
466.96	72.56
467.14	0.00
467.32	49.15
467.51	0.00
467.69	35.11
467.87	21.06
468.05	49.15
468.23	42.13
468.41	0.00
468.60	18.72
468.78	65.54
468.96	67.88
469.14	60.85
469.32	46.81
469.50	65.54
469.69	70.22
469.87	21.06
470.05	70.22
470.23	18.72
470.41	23.41
470.59	23.41
470.77	21.06
470.95	0.00
471.14	0.00
471.32	77.24
471.50	74.90
471.68	65.54
471.86	35.11
472.04	35.11
472.22	39.79
472.40	0.00
472.58	35.11
472.77	2.34
472.95	42.13
473.13	49.15
473.31	65.54
473.49	18.72
473.67	0.00
473.85	0.00
474.03	46.81
474.21	37.45
474.39	2.34
474.57	0.00
474.75	35.11
474.93	0.00
475.12	53.83
475.30	14.04
475.48	95.96
475.66	44.47
475.84	0.00
476.02	18.72
476.20	77.24
476.38	0.00
476.56	0.00
476.74	91.28
476.92	86.60
477.10	0.00
477.28	32.77
477.46	98.30
477.64	0.00
477.82	42.13
478.00	7.02
478.18	63.19
478.36	30.43
478.54	58.51
478.72	44.47
478.90	32.77
479.08	23.41
479.26	60.85
479.44	119.37
479.62	58.51
479.80	37.45
479.98	58.51
480.16	70.22
480.34	2.34
480.52	37.45
480.70	0.00
480.88	0.00
481.06	88.94
481.24	32.77
481.41	95.96
481.59	25.75
481.77	37.45
481.95	16.38
482.13	86.60
482.31	42.13
482.49	7.02
482.67	28.09
482.85	93.62
483.03	30.43
483.21	49.15
483.39	0.00
483.57	42.13
483.74	32.77
483.92	0.00
484.10	18.72
484.28	30.43
484.46	86.60
484.64	142.77
484.82	32.77
485.00	23.41
485.18	35.11
485.35	25.75
485.53	0.00
485.71	67.88
485.89	56.17
486.07	37.45
486.25	0.00
486.43	49.15
486.61	0.00
486.78	56.17
486.96	0.00
487.14	88.94
487.32	65.54
487.50	14.04
487.68	30.43
487.85	67.88
488.03	124.05
488.21	0.00
488.39	0.00
488.57	23.41
488.75	4.68
488.92	119.37
489.10	91.28
489.28	23.41
489.46	28.09
489.64	35.11
489.81	4.68
489.99	65.54
490.17	4.68
490.35	35.11
490.53	74.90
490.70	58.51
490.88	67.88
491.06	30.43
491.24	0.00
491.41	110.01
491.59	49.15
491.77	84.26
491.95	140.43
492.13	18.72
492.30	51.49
492.48	7.02
492.66	28.09
492.84	0.00
493.01	56.17
493.19	30.43
493.37	49.15
493.54	0.00
493.72	53.83
493.90	37.45
494.08	30.43
494.25	35.11
494.43	81.92
494.61	107.66
494.79	0.00
494.96	7.02
495.14	4.68
495.32	72.56
495.49	21.06
495.67	58.51
495.85	46.81
496.02	32.77
496.20	18.72
496.38	18.72
496.55	0.00
496.73	23.41
496.91	9.36
497.09	67.88
497.26	79.58
497.44	0.00
497.62	51.49
497.79	37.45
497.97	18.72
498.14	32.77
498.32	72.56
498.50	58.51
498.67	16.38
498.85	46.81
499.03	49.15
499.20	79.58
499.38	84.26
499.56	7.02
499.73	44.47
499.91	49.15
500.08	86.60
500.26	0.00
500.44	11.70
500.61	18.72
500.79	86.60
500.97	0.00
501.14	21.06
501.32	37.45
501.49	63.19
501.67	0.00
501.84	0.00
502.02	32.77
502.20	25.75
502.37	28.09
502.55	56.17
502.72	0.00
502.90	30.43
503.07	32.77
503.25	39.79
503.43	0.00
503.60	0.00
503.78	72.56
503.95	2.34
504.13	9.36
504.30	7.02
504.48	46.81
504.65	30.43
504.83	0.00
505.01	53.83
505.18	35.11
505.36	84.26
505.53	44.47
505.71	42.13
505.88	23.41
506.06	0.00
506.23	46.81
506.41	67.88
506.58	7.02
506.76	86.60
506.93	63.19
507.11	23.41
507.28	0.00
507.46	79.58
507.63	28.09
507.81	44.47
507.98	46.81
508.16	18.72
508.33	9.36
508.50	77.24
508.68	11.70
508.85	60.85
509.03	0.00
509.20	39.79
509.38	49.15
509.55	16.38
509.73	35.11
509.90	110.01
510.08	112.35
510.25	42.13
510.42	4.68
510.60	16.38
510.77	30.43
510.95	53.83
511.12	70.22
511.30	42.13
511.47	79.58
511.64	30.43
511.82	37.45
511.99	67.88
512.17	91.28
512.34	11.70
512.51	70.22
512.69	42.13
512.86	65.54
513.04	25.75
513.21	9.36
513.38	23.41
513.56	0.00
513.73	84.26
513.90	30.43
514.08	30.43
514.25	117.03
514.43	0.00
514.60	23.41
514.77	0.00
514.95	30.43
515.12	42.13
515.29	39.79
515.47	126.39
515.64	72.56
515.81	44.47
515.99	28.09
516.16	25.75
516.33	18.72
516.51	21.06
516.68	70.22
516.85	58.51
517.03	53.83
517.20	91.28
517.37	7.02
517.54	107.66
517.72	46.81
517.89	0.00
518.06	70.22
518.24	39.79
518.41	105.32
518.58	37.45
518.75	7.02
518.93	93.62
519.10	37.45
519.27	46.81
519.45	93.62
519.62	7.02
519.79	4.68
519.96	23.41
520.14	131.07
520.31	100.64
520.48	35.11
520.65	0.00
520.83	16.38
521.00	32.77
521.17	0.00
521.34	46.81
521.52	93.62
521.69	110.01
521.86	0.00
522.03	18.72
522.20	49.15
522.38	65.54
522.55	72.56
522.72	79.58
522.89	84.26
523.07	11.70
523.24	44.47
523.41	145.11
523.58	35.11
523.75	81.92
523.92	74.90
524.10	49.15
524.27	28.09
524.44	9.36
524.61	56.17
524.78	53.83
524.96	126.39
525.13	46.81
525.30	72.56
525.47	51.49
525.64	98.30
525.81	98.30
525.98	2.34
526.16	0.00
526.33	49.15
526.50	2.34
526.67	14.04
526.84	51.49
527.01	126.39
527.18	91.28
527.36	0.00
527.53	32.77
527.70	25.75
527.87	65.54
528.04	56.17
528.21	51.49
528.38	44.47
528.55	51.49
528.72	9.36
528.89	0.00
529.07	4.68
529.24	51.49
529.41	39.79
529.58	53.83
529.75	60.85
529.92	65.54
530.09	28.09
530.26	18.72
530.43	79.58
530.60	0.00
530.77	39.79
530.94	51.49
531.11	0.00
531.28	46.81
531.46	0.00
531.63	51.49
531.80	14.04
531.97	0.00
532.14	28.09
532.31	11.70
532.48	51.49
532.65	67.88
532.82	0.00
532.99	51.49
533.16	110.01
533.33	21.06
533.50	42.13
533.67	0.00
533.84	0.00
534.01	46.81
534.18	23.41
534.35	63.19
534.52	14.04
534.69	28.09
534.86	11.70
535.03	9.36
535.20	91.28
535.37	42.13
535.54	44.47
535.71	51.49
535.88	23.41
536.05	11.70
536.22	0.00
536.38	42.13
536.55	4.68
536.72	67.88
536.89	30.43
537.06	81.92
537.23	60.85
537.40	39.79
537.57	7.02
537.74	70.22
537.91	23.41
538.08	65.54
538.25	98.30
538.42	28.09
538.59	128.73
538.75	0.00
538.92	9.36
539.09	0.00
539.26	7.02
539.43	39.79
539.60	51.49
539.77	112.35
539.94	46.81
540.11	30.43
540.28	35.11
540.44	88.94
540.61	124.05
540.78	51.49
540.95	0.00
541.12	81.92
541.29	39.79
541.46	65.54
541.62	53.83
541.79	51.49
541.96	51.49
542.13	53.83
542.30	58.51
542.47	60.85
542.63	117.03
542.80	21.06
542.97	39.79
543.14	35.11
543.31	0.00
543.48	46.81
543.64	51.49
543.81	77.24
543.98	0.00
544.15	60.85
544.32	35.11
544.48	9.36
544.65	14.04
544.82	88.94
544.99	0.00
545.16	7.02
545.32	44.47
545.49	30.43
545.66	100.64
545.83	30.43
546.00	84.26
546.16	0.00
546.33	4.68
546.50	9.36
546.67	42.13
546.83	70.22
547.00	18.72
547.17	88.94
547.34	79.58
547.50	7.02
547.67	35.11
547.84	9.36
548.00	37.45
548.17	81.92
548.34	0.00
548.51	28.09
548.67	44.47
548.84	110.01
549.01	159.16
549.18	0.00
549.34	0.00
549.51	53.83
549.68	91.28
549.84	49.15
550.01	0.00
550.18	53.83
550.34	53.83
550.51	0.00
550.68	93.62
550.84	72.56
551.01	0.00
551.18	0.00
551.34	44.47
551.51	30.43
551.68	58.51
551.84	42.13
552.01	23.41
552.18	4.68
552.34	65.54
552.51	91.28
552.68	0.00
552.84	4.68
553.01	53.83
553.18	58.51
553.34	23.41
553.51	72.56
553.67	2.34
553.84	46.81
554.01	84.26
554.17	7.02
554.34	35.11
554.51	30.43
554.67	42.13
554.84	32.77
555.00	30.43
555.17	117.03
555.33	81.92
555.50	0.00
555.67	0.00
555.83	95.96
556.00	0.00
556.16	133.41
556.33	81.92
556.50	63.19
556.66	102.98
556.83	70.22
556.99	0.00
557.16	60.85
557.32	35.11
557.49	0.00
557.65	74.90
557.82	0.00
557.98	49.15
558.15	25.75
558.32	25.75
558.48	67.88
558.65	65.54
558.81	28.09
558.98	79.58
559.14	21.06
559.31	11.70
559.47	30.43
559.64	39.79
559.80	0.00
559.97	42.13
560.13	14.04
560.30	81.92
560.46	60.85
560.63	0.00
560.79	7.02
560.96	53.83
561.12	37.45
561.29	37.45
561.45	14.04
561.61	93.62
561.78	32.77
561.94	0.00
562.11	84.26
562.27	58.51
562.44	67.88
562.60	0.00
562.77	93.62
562.93	42.13
563.10	81.92
563.26	21.06
563.42	60.85
563.59	0.00
563.75	25.75
563.92	81.92
564.08	18.72
564.24	105.32
564.41	30.43
564.57	39.79
564.74	95.96
564.90	49.15
565.07	86.60
565.23	63.19
565.39	4.68
565.56	32.77
565.72	81.92
565.88	53.83
566.05	86.60
566.21	58.51
566.38	42.13
566.54	46.81
566.70	2.34
566.87	51.49
567.03	53.83
567.19	60.85
567.36	53.83
567.52	0.00
567.68	53.83
567.85	88.94
568.01	37.45
568.17	56.17
568.34	0.00
568.50	67.88
568.66	77.24
568.83	67.88
568.99	32.77
569.15	46.81
569.32	60.85
569.48	39.79
569.64	35.11
569.81	58.51
569.97	0.00
570.13	51.49
570.30	0.00
570.46	4.68
570.62	2.34
570.78	77.24
570.95	9.36
571.11	0.00
571.27	21.06
571.43	49.15
571.60	58.51
571.76	7.02
571.92	51.49
572.09	86.60
572.25	93.62
572.41	53.83
572.57	72.56
572.74	30.43
572.90	0.00
573.06	74.90
573.22	63.19
573.38	4.68
573.55	60.85
573.71	46.81
573.87	74.90
574.03	35.11
574.20	95.96
574.36	18.72
574.52	18.72
574.68	53.83
574.84	35.11
575.01	30.43
575.17	0.00
575.33	58.51
575.49	0.00
575.65	91.28
575.82	51.49
575.98	67.88
576.14	28.09
576.30	14.04
576.46	49.15
576.62	11.70
576.79	51.49
576.95	79.58
577.11	49.15
577.27	51.49
577.43	77.24
577.59	21.06
577.75	65.54
577.92	95.96
578.08	88.94
578.24	53.83
578.40	67.88
578.56	44.47
578.72	133.41
578.88	0.00
579.04	65.54
579.21	30.43
579.37	7.02
579.53	16.38
579.69	16.38
579.85	32.77
580.01	42.13
580.17	4.68
580.33	4.68
580.49	49.15
580.65	67.88
580.82	0.00
580.98	81.92
581.14	28.09
581.30	88.94
581.46	2.34
581.62	58.51
581.78	105.32
581.94	2.34
582.10	0.00
582.26	105.32
582.42	46.81
582.58	39.79
582.74	46.81
582.90	0.00
583.06	7.02
583.22	0.00
583.38	93.62
583.54	51.49
583.70	23.41
583.86	4.68
584.02	74.90
584.18	105.32
584.34	58.51
584.50	79.58
584.66	720.88
584.82	1533.05
584.98	2012.86
585.14	1699.23
585.30	1069.62
585.46	678.76
585.62	550.03
585.78	255.12
585.94	102.98
586.10	102.98
586.26	53.83
586.42	30.43
586.58	65.54
586.74	63.19
586.90	95.96
587.06	18.72
587.22	0.00
587.38	42.13
587.54	81.92
587.70	161.50
587.86	198.95
588.02	177.88
588.18	145.11
588.34	56.17
588.49	35.11
588.65	70.22
588.81	25.75
588.97	39.79
589.13	30.43
589.29	28.09
589.45	4.68
589.61	63.19
589.77	49.15
589.93	79.58
590.08	0.00
590.24	25.75
590.40	46.81
590.56	84.26
590.72	46.81
590.88	107.66
591.04	49.15
591.20	4.68
591.35	49.15
591.51	32.77
591.67	110.01
591.83	53.83
591.99	100.64
592.15	72.56
592.31	46.81
592.46	18.72
592.62	25.75
592.78	77.24
592.94	16.38
593.10	25.75
593.26	42.13
593.41	46.81
593.57	98.30
593.73	86.60
593.89	67.88
594.05	208.31
594.20	241.08
594.36	264.48
594.52	133.41
594.68	114.69
594.84	117.03
594.99	114.69
595.15	74.90
595.31	32.77
595.47	23.41
595.62	65.54
595.78	16.38
595.94	39.79
596.10	0.00
596.25	74.90
596.41	67.88
596.57	77.24
596.73	56.17
596.88	16.38
597.04	91.28
597.20	58.51
597.36	56.17
597.51	105.32
597.67	16.38
597.83	86.60
597.99	84.26
598.14	77.24
598.30	0.00
598.46	35.11
598.61	0.00
598.77	32.77
598.93	11.70
599.09	88.94
599.24	58.51
599.40	14.04
599.56	53.83
599.71	35.11
599.87	53.83
600.03	21.06
600.18	21.06
600.34	0.00
600.50	105.32
600.65	65.54
600.81	65.54
600.97	46.81
601.12	53.83
601.28	49.15
601.44	37.45
601.59	46.81
601.75	18.72
601.91	65.54
602.06	72.56
602.22	0.00
602.37	23.41
602.53	39.79
602.69	98.30
602.84	135.75
603.00	18.72
603.16	23.41
603.31	70.22
603.47	74.90
603.62	0.00
603.78	51.49
603.94	7.02
604.09	42.13
604.25	79.58
604.40	93.62
604.56	128.73
604.71	79.58
604.87	28.09
605.03	0.00
605.18	70.22
605.34	60.85
605.49	2.34
605.65	30.43
605.80	53.83
605.96	35.11
606.12	46.81
606.27	44.47
606.43	46.81
606.58	16.38
606.74	86.60
606.89	138.09
607.05	210.65
607.20	234.05
607.36	196.60
607.51	107.66
607.67	72.56
607.82	81.92
607.98	84.26
608.13	58.51
608.29	30.43
608.44	79.58
608.60	65.54
608.75	65.54
608.91	60.85
609.06	166.18
609.22	320.65
609.37	348.74
609.53	278.52
609.68	182.56
609.84	112.35
609.99	163.84
610.15	16.38
610.30	51.49
610.46	32.77
610.61	25.75
610.76	102.98
610.92	16.38
611.07	49.15
611.23	0.00
611.38	35.11
611.54	0.00
611.69	51.49
611.84	0.00
612.00	51.49
612.15	16.38
612.31	84.26
612.46	72.56
612.62	42.13
612.77	51.49
612.92	95.96
613.08	72.56
613.23	0.00
613.39	0.00
613.54	60.85
613.69	161.50
613.85	337.04
614.00	535.98
614.15	571.09
614.31	421.30
614.46	229.37
614.62	227.03
614.77	107.66
614.92	112.35
615.08	25.75
615.23	49.15
615.38	46.81
615.54	74.90
615.69	93.62
615.84	56.17
616.00	182.56
616.15	203.63
616.30	156.82
616.46	114.69
616.61	60.85
616.76	142.77
616.92	91.28
617.07	81.92
617.22	4.68
617.37	32.77
617.53	35.11
617.68	65.54
617.83	0.00
617.99	35.11
618.14	42.13
618.29	142.77
618.45	30.43
618.60	77.24
618.75	14.04
618.90	86.60
619.06	79.58
619.21	100.64
619.36	72.56
619.51	46.81
619.67	23.41
619.82	21.06
619.97	2.34
620.12	42.13
620.28	0.00
620.43	30.43
620.58	119.37
620.73	0.00
620.89	63.19
621.04	16.38
621.19	114.69
621.34	84.26
621.49	152.13
621.65	138.09
621.80	154.48
621.95	0.00
622.10	110.01
622.25	63.19
622.41	16.38
622.56	0.00
622.71	58.51
622.86	46.81
623.01	147.45
623.16	16.38
623.32	21.06
623.47	28.09
623.62	46.81
623.77	14.04
623.92	56.17
624.07	110.01
624.23	30.43
624.38	0.00
624.53	42.13
624.68	25.75
624.83	0.00
624.98	58.51
625.13	32.77
625.29	0.00
625.44	14.04
625.59	51.49
625.74	0.00
625.89	56.17
626.04	93.62
626.19	177.88
626.34	255.12
626.49	311.29
626.65	168.52
626.80	135.75
626.95	98.30
627.10	23.41
627.25	60.85
627.40	70.22
627.55	81.92
627.70	37.45
627.85	18.72
628.00	74.90
628.15	23.41
628.30	67.88
628.45	28.09
628.60	16.38
628.76	58.51
628.91	7.02
629.06	44.47
629.21	91.28
629.36	60.85
629.51	25.75
629.66	21.06
629.81	30.43
629.96	88.94
630.11	138.09
630.26	131.07
630.41	98.30
630.56	53.83
630.71	9.36
630.86	23.41
631.01	44.47
631.16	0.00
631.31	77.24
631.46	46.81
631.61	74.90
631.76	72.56
631.91	32.77
632.06	32.77
632.21	25.75
632.36	58.51
632.51	18.72
632.66	81.92
632.81	60.85
632.96	133.41
633.10	131.07
633.25	351.08
633.40	182.56
633.55	189.58
633.70	107.66
633.85	107.66
634.00	86.60
634.15	16.38
634.30	110.01
634.45	46.81
634.60	74.90
634.75	46.81
634.90	93.62
635.05	35.11
635.19	42.13
635.34	0.00
635.49	11.70
635.64	63.19
635.79	58.51
635.94	32.77
636.09	0.00
636.24	25.75
636.39	51.49
636.53	79.58
636.68	21.06
636.83	28.09
636.98	56.17
637.13	56.17
637.28	86.60
637.43	44.47
637.57	39.79
637.72	117.03
637.87	217.67
638.02	346.40
638.17	407.25
638.32	269.16
638.46	255.12
638.61	208.31
638.76	124.05
638.91	149.79
639.06	42.13
639.20	72.56
639.35	4.68
639.50	25.75
639.65	152.13
639.80	379.17
639.94	624.92
640.09	645.99
640.24	372.15
640.39	367.46
640.54	236.39
640.68	98.30
640.83	81.92
640.98	18.72
641.13	51.49
641.27	53.83
641.42	14.04
641.57	21.06
641.72	2.34
641.86	18.72
642.01	110.01
642.16	117.03
642.31	11.70
642.45	65.54
642.60	2.34
642.75	0.00
642.90	110.01
643.04	7.02
643.19	25.75
643.34	9.36
643.48	65.54
643.63	2.34
643.78	44.47
643.93	49.15
644.07	74.90
644.22	0.00
644.37	35.11
644.51	0.00
644.66	58.51
644.81	39.79
644.95	0.00
645.10	44.47
645.25	91.28
645.39	67.88
645.54	86.60
645.69	56.17
645.83	14.04
645.98	86.60
646.13	0.00
646.27	0.00
646.42	58.51
646.57	77.24
646.71	0.00
646.86	0.00
647.00	0.00
647.15	79.58
647.30	39.79
647.44	0.00
647.59	30.43
647.74	58.51
647.88	81.92
648.03	9.36
648.17	25.75
648.32	14.04
648.47	79.58
648.61	46.81
648.76	16.38
648.90	77.24
649.05	102.98
649.20	60.85
649.34	21.06
649.49	0.00
649.63	0.00
649.78	30.43
649.92	60.85
650.07	86.60
650.21	292.57
650.36	241.08
650.51	360.44
650.65	252.78
650.80	220.01
650.94	161.50
651.09	81.92
651.23	86.60
651.38	25.75
651.52	72.56
651.67	149.79
651.81	0.00
651.96	11.70
652.10	100.64
652.25	0.00
652.39	77.24
652.54	49.15
652.68	37.45
652.83	93.62
652.97	107.66
653.12	180.22
653.26	126.39
653.41	79.58
653.55	128.73
653.70	0.00
653.84	72.56
653.99	58.51
654.13	86.60
654.27	37.45
654.42	95.96
654.56	49.15
654.71	44.47
654.85	81.92
655.00	25.75
655.14	7.02
655.29	70.22
655.43	4.68
655.57	4.68
655.72	39.79
655.86	86.60
656.01	0.00
656.15	37.45
656.30	60.85
656.44	42.13
656.58	58.51
656.73	46.81
656.87	9.36
657.01	42.13
657.16	14.04
657.30	95.96
657.45	98.30
657.59	32.77
657.73	0.00
657.88	53.83
658.02	49.15
658.16	56.17
658.31	0.00
658.45	74.90
658.60	11.70
658.74	53.83
658.88	4.68
659.03	0.00
659.17	51.49
659.31	56.17
659.46	0.00
659.60	105.32
659.74	182.56
659.89	142.77
660.03	128.73
660.17	81.92
660.32	84.26
660.46	84.26
660.60	100.64
660.74	93.62
660.89	16.38
661.03	0.00
661.17	49.15
661.32	0.00
661.46	28.09
661.60	0.00
661.74	2.34
661.89	18.72
662.03	30.43
662.17	42.13
662.31	42.13
662.46	74.90
662.60	0.00
662.74	72.56
662.88	32.77
663.03	21.06
663.17	16.38
663.31	0.00
663.45	28.09
663.60	51.49
663.74	88.94
663.88	14.04
664.02	70.22
664.17	0.00
664.31	37.45
664.45	14.04
664.59	0.00
664.73	18.72
664.88	65.54
665.02	51.49
665.16	91.28
665.30	35.11
665.44	11.70
665.59	39.79
665.73	44.47
665.87	0.00
666.01	18.72
666.15	0.00
666.29	56.17
666.44	86.60
666.58	23.41
666.72	7.02
666.86	42.13
667.00	56.17
667.14	0.00
667.28	14.04
667.43	241.08
667.57	201.29
667.71	311.29
667.85	227.03
667.99	205.97
668.13	114.69
668.27	58.51
668.41	100.64
668.56	30.43
668.70	58.51
668.84	42.13
668.98	67.88
669.12	0.00
669.26	63.19
669.40	58.51
669.54	58.51
669.68	65.54
669.82	70.22
669.96	30.43
670.10	9.36
670.25	4.68
670.39	100.64
670.53	44.47
670.67	65.54
670.81	49.15
670.95	77.24
671.09	18.72
671.23	65.54
671.37	212.99
671.51	159.16
671.65	220.01
671.79	147.45
671.93	163.84
672.07	84.26
672.21	95.96
672.35	23.41
672.49	140.43
672.63	35.11
672.77	0.00
672.91	117.03
673.05	46.81
673.19	28.09
673.33	32.77
673.47	91.28
673.61	11.70
673.75	21.06
673.89	37.45
674.03	0.00
674.17	49.15
674.31	35.11
674.45	0.00
674.59	93.62
674.73	86.60
674.87	37.45
675.01	42.13
675.15	51.49
675.29	56.17
675.43	4.68
675.56	65.54
675.70	91.28
675.84	42.13
675.98	35.11
676.12	70.22
676.26	0.00
676.40	7.02
676.54	0.00
676.68	30.43
676.82	39.79
676.96	7.02
677.10	60.85
677.23	49.15
677.37	35.11
677.51	0.00
677.65	0.00
677.79	39.79
677.93	77.24
678.07	21.06
678.21	95.96
678.34	35.11
678.48	140.43
678.62	53.83
678.76	39.79
678.90	32.77
679.04	9.36
679.18	35.11
679.31	0.00
679.45	56.17
679.59	67.88
679.73	95.96
679.87	9.36
680.00	67.88
680.14	39.79
680.28	0.00
680.42	74.90
680.56	11.70
680.70	25.75
680.83	46.81
680.97	4.68
681.11	0.00
681.25	46.81
681.39	81.92
681.52	60.85
681.66	110.01
681.80	7.02
681.94	30.43
682.07	21.06
682.21	70.22
682.35	67.88
682.49	35.11
682.62	70.22
682.76	28.09
682.90	18.72
683.04	14.04
683.17	0.00
683.31	0.00
683.45	28.09
683.59	28.09
683.72	18.72
683.86	0.00
684.00	51.49
684.13	25.75
684.27	32.77
684.41	11.70
684.55	11.70
684.68	30.43
684.82	0.00
684.96	0.00
685.09	39.79
685.23	21.06
685.37	67.88
685.50	0.00
685.64	70.22
685.78	0.00
685.91	67.88
686.05	58.51
686.19	4.68
686.32	42.13
686.46	67.88
686.60	11.70
686.73	37.45
686.87	49.15
687.01	28.09
687.14	7.02
687.28	0.00
687.42	21.06
687.55	81.92
687.69	53.83
687.82	0.00
687.96	21.06
688.10	0.00
688.23	42.13
688.37	63.19
688.50	11.70
688.64	37.45
688.78	0.00
688.91	39.79
689.05	74.90
689.18	95.96
689.32	0.00
689.46	16.38
689.59	49.15
689.73	0.00
689.86	49.15
690.00	0.00
690.13	21.06
690.27	46.81
690.41	35.11
690.54	53.83
690.68	32.77
690.81	18.72
690.95	30.43
691.08	23.41
691.22	42.13
691.35	0.00
691.49	18.72
691.62	14.04
691.76	7.02
691.89	39.79
692.03	0.00
692.16	35.11
692.30	44.47
692.43	95.96
692.57	51.49
692.70	95.96
692.84	205.97
692.97	133.41
693.11	44.47
693.24	133.41
693.38	63.19
693.51	11.70
693.65	39.79
693.78	74.90
693.92	81.92
694.05	79.58
694.19	67.88
694.32	9.36
694.45	25.75
694.59	14.04
694.72	18.72
694.86	30.43
694.99	0.00
695.13	46.81
695.26	0.00
695.39	44.47
695.53	7.02
695.66	21.06
695.80	46.81
695.93	112.35
696.07	0.00
696.20	4.68
696.33	46.81
696.47	0.00
696.60	16.38
696.73	84.26
696.87	70.22
697.00	32.77
697.14	18.72
697.27	28.09
697.40	35.11
697.54	2.34
697.67	4.68
697.80	56.17
697.94	21.06
698.07	0.00
698.21	39.79
698.34	9.36
698.47	46.81
698.61	112.35
698.74	46.81
698.87	77.24
699.01	37.45
699.14	0.00
699.27	9.36
699.40	93.62
699.54	21.06
699.67	37.45
699.80	44.47
699.94	58.51
700.07	88.94
700.20	23.41
700.34	79.58
700.47	49.15
700.60	77.24
700.73	0.00
700.87	42.13
701.00	91.28
701.13	53.83
701.26	14.04
701.40	49.15
701.53	4.68
701.66	67.88
701.79	32.77
701.93	32.77
702.06	4.68
702.19	30.43
702.32	53.83
702.46	0.00
702.59	53.83
702.72	11.70
702.85	149.79
702.99	142.77
703.12	266.82
703.25	250.44
703.38	231.71
703.51	114.69
703.65	187.24
703.78	46.81
703.91	65.54
704.04	86.60
704.17	91.28
704.31	84.26
704.44	58.51
704.57	0.00
704.70	11.70
704.83	0.00
704.96	42.13
705.10	0.00
705.23	0.00
>>>>>End Processed Spectral Data<<<<<
