SpectraSuite Data File
++++++++++++++++++++++++++++++++++++
Date: Fri Oct 04 12:13:25 GMT-05:00 2013
User: price-jones
Dark Spectrum Present: No
Reference Spectrum Present: No
Number of Sampled Component Spectra: 1
Spectrometers: USB2+H05261
Integration Time (usec): 10000 (USB2+H05261)
Spectra Averaged: 1 (USB2+H05261)
Boxcar Smoothing: 0 (USB2+H05261)
Correct for Electrical Dark: No (USB2+H05261)
Strobe/Lamp Enabled: No (USB2+H05261)
Correct for Detector Non-linearity: No (USB2+H05261)
Correct for Stray Light: No (USB2+H05261)
Number of Pixels in Processed Spectrum: 2048
>>>>>Begin Processed Spectral Data<<<<<
365.73	0.00
365.92	0.00
366.12	0.00
366.32	0.00
366.52	0.00
366.72	0.00
366.91	0.00
367.11	0.00
367.31	0.00
367.51	0.00
367.70	0.00
367.90	0.00
368.10	0.00
368.30	0.00
368.49	0.00
368.69	0.00
368.89	0.00
369.09	0.00
369.28	0.00
369.48	0.00
369.68	0.00
369.87	0.00
370.07	0.00
370.27	0.00
370.47	0.00
370.66	0.00
370.86	0.00
371.06	0.00
371.25	0.00
371.45	0.00
371.65	23.41
371.84	0.00
372.04	0.00
372.24	0.00
372.44	0.00
372.63	95.96
372.83	0.00
373.03	74.90
373.22	56.17
373.42	7.02
373.62	25.75
373.81	0.00
374.01	72.56
374.21	79.58
374.40	30.43
374.60	23.41
374.79	39.79
374.99	25.75
375.19	46.81
375.38	81.92
375.58	39.79
375.78	0.00
375.97	18.72
376.17	44.47
376.37	119.37
376.56	70.22
376.76	0.00
376.95	7.02
377.15	0.00
377.35	14.04
377.54	0.00
377.74	119.37
377.93	25.75
378.13	0.00
378.33	77.24
378.52	11.70
378.72	28.09
378.91	84.26
379.11	0.00
379.31	11.70
379.50	32.77
379.70	2.34
379.89	7.02
380.09	72.56
380.28	4.68
380.48	110.01
380.68	32.77
380.87	0.00
381.07	51.49
381.26	95.96
381.46	0.00
381.65	0.00
381.85	0.00
382.04	30.43
382.24	0.00
382.43	0.00
382.63	117.03
382.83	0.00
383.02	11.70
383.22	91.28
383.41	25.75
383.61	0.00
383.80	46.81
384.00	51.49
384.19	39.79
384.39	60.85
384.58	18.72
384.78	0.00
384.97	0.00
385.17	0.00
385.36	0.00
385.56	46.81
385.75	18.72
385.95	70.22
386.14	16.38
386.34	93.62
386.53	0.00
386.72	4.68
386.92	7.02
387.11	25.75
387.31	72.56
387.50	0.00
387.70	35.11
387.89	0.00
388.09	49.15
388.28	86.60
388.48	18.72
388.67	39.79
388.86	65.54
389.06	0.00
389.25	51.49
389.45	0.00
389.64	2.34
389.84	0.00
390.03	32.77
390.22	18.72
390.42	74.90
390.61	60.85
390.81	9.36
391.00	11.70
391.19	30.43
391.39	23.41
391.58	65.54
391.78	0.00
391.97	28.09
392.16	0.00
392.36	2.34
392.55	0.00
392.75	0.00
392.94	49.15
393.13	63.19
393.33	102.98
393.52	9.36
393.71	37.45
393.91	60.85
394.10	0.00
394.29	23.41
394.49	0.00
394.68	11.70
394.88	56.17
395.07	77.24
395.26	23.41
395.46	56.17
395.65	86.60
395.84	39.79
396.04	95.96
396.23	18.72
396.42	7.02
396.62	28.09
396.81	21.06
397.00	4.68
397.19	56.17
397.39	0.00
397.58	0.00
397.77	0.00
397.97	0.00
398.16	0.00
398.35	35.11
398.55	72.56
398.74	21.06
398.93	117.03
399.12	32.77
399.32	44.47
399.51	39.79
399.70	0.00
399.90	0.00
400.09	56.17
400.28	0.00
400.47	0.00
400.67	0.00
400.86	0.00
401.05	74.90
401.24	46.81
401.44	4.68
401.63	67.88
401.82	0.00
402.01	18.72
402.21	35.11
402.40	74.90
402.59	0.00
402.78	70.22
402.97	77.24
403.17	21.06
403.36	44.47
403.55	70.22
403.74	0.00
403.93	0.00
404.13	0.00
404.32	56.17
404.51	86.60
404.70	7.02
404.89	58.51
405.09	14.04
405.28	0.00
405.47	32.77
405.66	0.00
405.85	0.00
406.05	49.15
406.24	100.64
406.43	7.02
406.62	0.00
406.81	65.54
407.00	16.38
407.20	100.64
407.39	16.38
407.58	28.09
407.77	0.00
407.96	35.11
408.15	11.70
408.34	0.00
408.54	74.90
408.73	21.06
408.92	39.79
409.11	81.92
409.30	46.81
409.49	0.00
409.68	0.00
409.87	0.00
410.07	0.00
410.26	0.00
410.45	0.00
410.64	65.54
410.83	63.19
411.02	11.70
411.21	18.72
411.40	2.34
411.59	65.54
411.78	30.43
411.98	0.00
412.17	11.70
412.36	0.00
412.55	0.00
412.74	21.06
412.93	0.00
413.12	84.26
413.31	32.77
413.50	65.54
413.69	11.70
413.88	0.00
414.07	0.00
414.26	0.00
414.45	32.77
414.64	2.34
414.83	0.00
415.02	0.00
415.22	53.83
415.41	0.00
415.60	70.22
415.79	93.62
415.98	28.09
416.17	100.64
416.36	0.00
416.55	56.17
416.74	0.00
416.93	4.68
417.12	39.79
417.31	88.94
417.50	65.54
417.69	112.35
417.88	23.41
418.07	21.06
418.26	7.02
418.45	37.45
418.64	0.00
418.83	56.17
419.02	25.75
419.21	0.00
419.39	0.00
419.58	37.45
419.77	37.45
419.96	9.36
420.15	14.04
420.34	25.75
420.53	18.72
420.72	14.04
420.91	30.43
421.10	0.00
421.29	84.26
421.48	37.45
421.67	84.26
421.86	0.00
422.05	0.00
422.24	25.75
422.43	0.00
422.61	0.00
422.80	35.11
422.99	18.72
423.18	0.00
423.37	51.49
423.56	7.02
423.75	37.45
423.94	0.00
424.13	81.92
424.32	65.54
424.50	0.00
424.69	46.81
424.88	72.56
425.07	107.66
425.26	16.38
425.45	0.00
425.64	2.34
425.83	2.34
426.01	56.17
426.20	14.04
426.39	11.70
426.58	7.02
426.77	18.72
426.96	37.45
427.15	14.04
427.33	46.81
427.52	42.13
427.71	37.45
427.90	105.32
428.09	44.47
428.28	0.00
428.46	25.75
428.65	11.70
428.84	42.13
429.03	58.51
429.22	53.83
429.40	58.51
429.59	0.00
429.78	46.81
429.97	11.70
430.16	0.00
430.34	0.00
430.53	46.81
430.72	42.13
430.91	79.58
431.10	65.54
431.28	46.81
431.47	0.00
431.66	25.75
431.85	102.98
432.03	32.77
432.22	49.15
432.41	18.72
432.60	58.51
432.79	0.00
432.97	42.13
433.16	0.00
433.35	88.94
433.54	32.77
433.72	39.79
433.91	53.83
434.10	25.75
434.28	37.45
434.47	14.04
434.66	114.69
434.85	9.36
435.03	0.00
435.22	0.00
435.41	21.06
435.59	44.47
435.78	32.77
435.97	0.00
436.16	65.54
436.34	0.00
436.53	30.43
436.72	49.15
436.90	77.24
437.09	11.70
437.28	4.68
437.46	53.83
437.65	23.41
437.84	53.83
438.02	84.26
438.21	53.83
438.40	44.47
438.58	53.83
438.77	9.36
438.96	77.24
439.14	2.34
439.33	49.15
439.52	16.38
439.70	88.94
439.89	7.02
440.08	23.41
440.26	63.19
440.45	4.68
440.63	16.38
440.82	0.00
441.01	74.90
441.19	0.00
441.38	46.81
441.57	63.19
441.75	18.72
441.94	49.15
442.12	18.72
442.31	14.04
442.50	117.03
442.68	0.00
442.87	37.45
443.05	9.36
443.24	23.41
443.43	51.49
443.61	25.75
443.80	16.38
443.98	0.00
444.17	18.72
444.35	65.54
444.54	4.68
444.73	2.34
444.91	60.85
445.10	30.43
445.28	46.81
445.47	0.00
445.65	0.00
445.84	46.81
446.02	51.49
446.21	14.04
446.39	131.07
446.58	28.09
446.77	58.51
446.95	56.17
447.14	35.11
447.32	32.77
447.51	16.38
447.69	35.11
447.88	119.37
448.06	25.75
448.25	72.56
448.43	23.41
448.62	0.00
448.80	0.00
448.99	58.51
449.17	84.26
449.36	53.83
449.54	88.94
449.73	67.88
449.91	51.49
450.10	84.26
450.28	2.34
450.46	53.83
450.65	53.83
450.83	77.24
451.02	44.47
451.20	46.81
451.39	53.83
451.57	67.88
451.76	51.49
451.94	35.11
452.13	30.43
452.31	21.06
452.49	25.75
452.68	21.06
452.86	0.00
453.05	56.17
453.23	2.34
453.42	0.00
453.60	9.36
453.78	0.00
453.97	44.47
454.15	37.45
454.34	81.92
454.52	145.11
454.70	95.96
454.89	11.70
455.07	30.43
455.26	86.60
455.44	58.51
455.62	28.09
455.81	0.00
455.99	9.36
456.17	93.62
456.36	67.88
456.54	74.90
456.73	18.72
456.91	21.06
457.09	60.85
457.28	0.00
457.46	32.77
457.64	21.06
457.83	70.22
458.01	79.58
458.19	56.17
458.38	39.79
458.56	39.79
458.74	28.09
458.93	32.77
459.11	37.45
459.29	102.98
459.48	63.19
459.66	32.77
459.84	30.43
460.03	60.85
460.21	81.92
460.39	37.45
460.57	42.13
460.76	53.83
460.94	65.54
461.12	16.38
461.31	23.41
461.49	18.72
461.67	51.49
461.85	7.02
462.04	35.11
462.22	114.69
462.40	72.56
462.59	60.85
462.77	0.00
462.95	0.00
463.13	49.15
463.32	18.72
463.50	18.72
463.68	65.54
463.86	35.11
464.05	79.58
464.23	42.13
464.41	0.00
464.59	16.38
464.78	51.49
464.96	0.00
465.14	60.85
465.32	60.85
465.50	39.79
465.69	58.51
465.87	42.13
466.05	4.68
466.23	53.83
466.41	25.75
466.60	133.41
466.78	0.00
466.96	23.41
467.14	4.68
467.32	0.00
467.51	35.11
467.69	42.13
467.87	74.90
468.05	7.02
468.23	25.75
468.41	4.68
468.60	18.72
468.78	0.00
468.96	49.15
469.14	35.11
469.32	30.43
469.50	100.64
469.69	0.00
469.87	30.43
470.05	51.49
470.23	9.36
470.41	86.60
470.59	70.22
470.77	11.70
470.95	0.00
471.14	44.47
471.32	88.94
471.50	74.90
471.68	63.19
471.86	60.85
472.04	77.24
472.22	74.90
472.40	63.19
472.58	37.45
472.77	56.17
472.95	37.45
473.13	9.36
473.31	84.26
473.49	0.00
473.67	28.09
473.85	51.49
474.03	51.49
474.21	65.54
474.39	42.13
474.57	110.01
474.75	0.00
474.93	0.00
475.12	42.13
475.30	0.00
475.48	60.85
475.66	0.00
475.84	0.00
476.02	23.41
476.20	84.26
476.38	93.62
476.56	32.77
476.74	0.00
476.92	0.00
477.10	0.00
477.28	0.00
477.46	18.72
477.64	58.51
477.82	63.19
478.00	9.36
478.18	46.81
478.36	11.70
478.54	0.00
478.72	42.13
478.90	72.56
479.08	7.02
479.26	23.41
479.44	4.68
479.62	37.45
479.80	16.38
479.98	14.04
480.16	0.00
480.34	46.81
480.52	0.00
480.70	44.47
480.88	77.24
481.06	79.58
481.24	121.71
481.41	14.04
481.59	0.00
481.77	84.26
481.95	58.51
482.13	79.58
482.31	63.19
482.49	46.81
482.67	23.41
482.85	42.13
483.03	65.54
483.21	39.79
483.39	0.00
483.57	42.13
483.74	25.75
483.92	67.88
484.10	37.45
484.28	53.83
484.46	65.54
484.64	37.45
484.82	25.75
485.00	100.64
485.18	65.54
485.35	0.00
485.53	35.11
485.71	11.70
485.89	86.60
486.07	0.00
486.25	105.32
486.43	23.41
486.61	4.68
486.78	65.54
486.96	88.94
487.14	0.00
487.32	86.60
487.50	0.00
487.68	42.13
487.85	119.37
488.03	84.26
488.21	4.68
488.39	0.00
488.57	74.90
488.75	0.00
488.92	37.45
489.10	63.19
489.28	67.88
489.46	32.77
489.64	65.54
489.81	32.77
489.99	95.96
490.17	81.92
490.35	0.00
490.53	0.00
490.70	53.83
490.88	81.92
491.06	28.09
491.24	67.88
491.41	60.85
491.59	37.45
491.77	56.17
491.95	21.06
492.13	98.30
492.30	7.02
492.48	4.68
492.66	16.38
492.84	0.00
493.01	86.60
493.19	18.72
493.37	37.45
493.54	42.13
493.72	30.43
493.90	30.43
494.08	37.45
494.25	18.72
494.43	28.09
494.61	39.79
494.79	39.79
494.96	44.47
495.14	77.24
495.32	0.00
495.49	4.68
495.67	58.51
495.85	14.04
496.02	7.02
496.20	16.38
496.38	39.79
496.55	81.92
496.73	32.77
496.91	131.07
497.09	11.70
497.26	79.58
497.44	0.00
497.62	79.58
497.79	49.15
497.97	46.81
498.14	98.30
498.32	35.11
498.50	7.02
498.67	7.02
498.85	18.72
499.03	0.00
499.20	0.00
499.38	9.36
499.56	112.35
499.73	9.36
499.91	63.19
500.08	18.72
500.26	32.77
500.44	79.58
500.61	63.19
500.79	77.24
500.97	25.75
501.14	42.13
501.32	9.36
501.49	56.17
501.67	72.56
501.84	2.34
502.02	102.98
502.20	49.15
502.37	84.26
502.55	72.56
502.72	23.41
502.90	21.06
503.07	14.04
503.25	51.49
503.43	0.00
503.60	121.71
503.78	63.19
503.95	72.56
504.13	7.02
504.30	74.90
504.48	44.47
504.65	46.81
504.83	37.45
505.01	46.81
505.18	51.49
505.36	0.00
505.53	4.68
505.71	16.38
505.88	21.06
506.06	35.11
506.23	4.68
506.41	53.83
506.58	0.00
506.76	81.92
506.93	0.00
507.11	117.03
507.28	39.79
507.46	44.47
507.63	51.49
507.81	112.35
507.98	18.72
508.16	0.00
508.33	0.00
508.50	60.85
508.68	0.00
508.85	9.36
509.03	2.34
509.20	18.72
509.38	65.54
509.55	21.06
509.73	65.54
509.90	77.24
510.08	35.11
510.25	107.66
510.42	4.68
510.60	0.00
510.77	14.04
510.95	0.00
511.12	23.41
511.30	14.04
511.47	51.49
511.64	21.06
511.82	56.17
511.99	25.75
512.17	23.41
512.34	72.56
512.51	105.32
512.69	23.41
512.86	46.81
513.04	44.47
513.21	46.81
513.38	16.38
513.56	0.00
513.73	28.09
513.90	0.00
514.08	56.17
514.25	0.00
514.43	25.75
514.60	11.70
514.77	0.00
514.95	77.24
515.12	56.17
515.29	49.15
515.47	4.68
515.64	23.41
515.81	46.81
515.99	42.13
516.16	2.34
516.33	35.11
516.51	39.79
516.68	44.47
516.85	84.26
517.03	65.54
517.20	49.15
517.37	53.83
517.54	65.54
517.72	23.41
517.89	0.00
518.06	44.47
518.24	44.47
518.41	4.68
518.58	14.04
518.75	70.22
518.93	93.62
519.10	37.45
519.27	98.30
519.45	25.75
519.62	42.13
519.79	84.26
519.96	9.36
520.14	9.36
520.31	42.13
520.48	0.00
520.65	14.04
520.83	63.19
521.00	28.09
521.17	0.00
521.34	32.77
521.52	65.54
521.69	23.41
521.86	9.36
522.03	4.68
522.20	102.98
522.38	11.70
522.55	42.13
522.72	46.81
522.89	0.00
523.07	102.98
523.24	65.54
523.41	30.43
523.58	119.37
523.75	42.13
523.92	86.60
524.10	39.79
524.27	110.01
524.44	37.45
524.61	16.38
524.78	112.35
524.96	2.34
525.13	42.13
525.30	77.24
525.47	30.43
525.64	58.51
525.81	30.43
525.98	60.85
526.16	124.05
526.33	65.54
526.50	88.94
526.67	42.13
526.84	81.92
527.01	0.00
527.18	28.09
527.36	74.90
527.53	28.09
527.70	63.19
527.87	0.00
528.04	46.81
528.21	51.49
528.38	2.34
528.55	65.54
528.72	30.43
528.89	28.09
529.07	0.00
529.24	79.58
529.41	117.03
529.58	39.79
529.75	63.19
529.92	102.98
530.09	42.13
530.26	77.24
530.43	0.00
530.60	51.49
530.77	93.62
530.94	42.13
531.11	23.41
531.28	37.45
531.46	95.96
531.63	67.88
531.80	51.49
531.97	11.70
532.14	0.00
532.31	2.34
532.48	126.39
532.65	28.09
532.82	67.88
532.99	112.35
533.16	51.49
533.33	39.79
533.50	4.68
533.67	67.88
533.84	88.94
534.01	79.58
534.18	35.11
534.35	81.92
534.52	37.45
534.69	95.96
534.86	46.81
535.03	84.26
535.20	58.51
535.37	18.72
535.54	60.85
535.71	86.60
535.88	79.58
536.05	44.47
536.22	72.56
536.38	56.17
536.55	124.05
536.72	86.60
536.89	11.70
537.06	65.54
537.23	28.09
537.40	81.92
537.57	42.13
537.74	35.11
537.91	67.88
538.08	49.15
538.25	72.56
538.42	39.79
538.59	51.49
538.75	0.00
538.92	72.56
539.09	14.04
539.26	58.51
539.43	16.38
539.60	28.09
539.77	93.62
539.94	35.11
540.11	39.79
540.28	25.75
540.44	37.45
540.61	28.09
540.78	0.00
540.95	37.45
541.12	152.13
541.29	44.47
541.46	0.00
541.62	23.41
541.79	11.70
541.96	9.36
542.13	84.26
542.30	67.88
542.47	88.94
542.63	0.00
542.80	46.81
542.97	39.79
543.14	0.00
543.31	35.11
543.48	0.00
543.64	58.51
543.81	105.32
543.98	14.04
544.15	79.58
544.32	53.83
544.48	25.75
544.65	28.09
544.82	30.43
544.99	93.62
545.16	25.75
545.32	91.28
545.49	44.47
545.66	46.81
545.83	21.06
546.00	18.72
546.16	60.85
546.33	79.58
546.50	105.32
546.67	79.58
546.83	18.72
547.00	23.41
547.17	72.56
547.34	51.49
547.50	72.56
547.67	46.81
547.84	0.00
548.00	14.04
548.17	0.00
548.34	44.47
548.51	60.85
548.67	2.34
548.84	86.60
549.01	72.56
549.18	74.90
549.34	37.45
549.51	79.58
549.68	95.96
549.84	42.13
550.01	46.81
550.18	0.00
550.34	23.41
550.51	25.75
550.68	58.51
550.84	86.60
551.01	46.81
551.18	58.51
551.34	42.13
551.51	49.15
551.68	7.02
551.84	84.26
552.01	49.15
552.18	14.04
552.34	0.00
552.51	28.09
552.68	0.00
552.84	0.00
553.01	32.77
553.18	88.94
553.34	42.13
553.51	4.68
553.67	28.09
553.84	53.83
554.01	63.19
554.17	21.06
554.34	63.19
554.51	110.01
554.67	30.43
554.84	46.81
555.00	74.90
555.17	84.26
555.33	4.68
555.50	39.79
555.67	32.77
555.83	51.49
556.00	18.72
556.16	32.77
556.33	42.13
556.50	56.17
556.66	51.49
556.83	63.19
556.99	46.81
557.16	93.62
557.32	131.07
557.49	44.47
557.65	81.92
557.82	21.06
557.98	51.49
558.15	37.45
558.32	91.28
558.48	0.00
558.65	18.72
558.81	18.72
558.98	0.00
559.14	53.83
559.31	63.19
559.47	0.00
559.64	4.68
559.80	35.11
559.97	74.90
560.13	105.32
560.30	81.92
560.46	131.07
560.63	46.81
560.79	53.83
560.96	7.02
561.12	39.79
561.29	56.17
561.45	0.00
561.61	51.49
561.78	79.58
561.94	0.00
562.11	95.96
562.27	0.00
562.44	42.13
562.60	14.04
562.77	30.43
562.93	42.13
563.10	0.00
563.26	93.62
563.42	46.81
563.59	21.06
563.75	42.13
563.92	58.51
564.08	60.85
564.24	77.24
564.41	4.68
564.57	28.09
564.74	30.43
564.90	11.70
565.07	35.11
565.23	46.81
565.39	70.22
565.56	44.47
565.72	74.90
565.88	42.13
566.05	56.17
566.21	95.96
566.38	0.00
566.54	0.00
566.70	18.72
566.87	67.88
567.03	28.09
567.19	30.43
567.36	0.00
567.52	42.13
567.68	95.96
567.85	23.41
568.01	100.64
568.17	4.68
568.34	18.72
568.50	11.70
568.66	0.00
568.83	0.00
568.99	30.43
569.15	60.85
569.32	0.00
569.48	0.00
569.64	35.11
569.81	25.75
569.97	37.45
570.13	16.38
570.30	100.64
570.46	32.77
570.62	67.88
570.78	23.41
570.95	23.41
571.11	16.38
571.27	65.54
571.43	0.00
571.60	58.51
571.76	7.02
571.92	37.45
572.09	2.34
572.25	0.00
572.41	91.28
572.57	49.15
572.74	11.70
572.90	32.77
573.06	121.71
573.22	2.34
573.38	95.96
573.55	72.56
573.71	42.13
573.87	0.00
574.03	56.17
574.20	72.56
574.36	56.17
574.52	46.81
574.68	39.79
574.84	37.45
575.01	70.22
575.17	98.30
575.33	65.54
575.49	56.17
575.65	0.00
575.82	84.26
575.98	51.49
576.14	65.54
576.30	14.04
576.46	42.13
576.62	53.83
576.79	74.90
576.95	65.54
577.11	88.94
577.27	44.47
577.43	11.70
577.59	23.41
577.75	65.54
577.92	77.24
578.08	35.11
578.24	37.45
578.40	39.79
578.56	74.90
578.72	65.54
578.88	72.56
579.04	14.04
579.21	0.00
579.37	9.36
579.53	7.02
579.69	77.24
579.85	39.79
580.01	28.09
580.17	25.75
580.33	72.56
580.49	16.38
580.65	16.38
580.82	32.77
580.98	98.30
581.14	0.00
581.30	0.00
581.46	0.00
581.62	0.00
581.78	84.26
581.94	32.77
582.10	91.28
582.26	30.43
582.42	53.83
582.58	23.41
582.74	37.45
582.90	23.41
583.06	0.00
583.22	28.09
583.38	124.05
583.54	86.60
583.70	16.38
583.86	42.13
584.02	0.00
584.18	67.88
584.34	42.13
584.50	0.00
584.66	16.38
584.82	30.43
584.98	58.51
585.14	18.72
585.30	42.13
585.46	81.92
585.62	32.77
585.78	72.56
585.94	32.77
586.10	53.83
586.26	28.09
586.42	0.00
586.58	16.38
586.74	11.70
586.90	30.43
587.06	46.81
587.22	142.77
587.38	81.92
587.54	58.51
587.70	79.58
587.86	0.00
588.02	7.02
588.18	0.00
588.34	67.88
588.49	23.41
588.65	30.43
588.81	32.77
588.97	11.70
589.13	0.00
589.29	53.83
589.45	63.19
589.61	14.04
589.77	58.51
589.93	30.43
590.08	63.19
590.24	39.79
590.40	30.43
590.56	51.49
590.72	65.54
590.88	21.06
591.04	30.43
591.20	32.77
591.35	0.00
591.51	79.58
591.67	74.90
591.83	32.77
591.99	28.09
592.15	112.35
592.31	67.88
592.46	58.51
592.62	37.45
592.78	11.70
592.94	0.00
593.10	0.00
593.26	21.06
593.41	49.15
593.57	0.00
593.73	0.00
593.89	14.04
594.05	63.19
594.20	58.51
594.36	49.15
594.52	81.92
594.68	4.68
594.84	32.77
594.99	44.47
595.15	0.00
595.31	30.43
595.47	49.15
595.62	23.41
595.78	21.06
595.94	16.38
596.10	42.13
596.25	58.51
596.41	0.00
596.57	77.24
596.73	63.19
596.88	32.77
597.04	0.00
597.20	39.79
597.36	0.00
597.51	0.00
597.67	84.26
597.83	44.47
597.99	0.00
598.14	60.85
598.30	98.30
598.46	46.81
598.61	86.60
598.77	56.17
598.93	60.85
599.09	11.70
599.24	107.66
599.40	42.13
599.56	23.41
599.71	23.41
599.87	58.51
600.03	60.85
600.18	37.45
600.34	51.49
600.50	11.70
600.65	72.56
600.81	4.68
600.97	35.11
601.12	44.47
601.28	44.47
601.44	114.69
601.59	56.17
601.75	23.41
601.91	44.47
602.06	86.60
602.22	2.34
602.37	2.34
602.53	74.90
602.69	25.75
602.84	44.47
603.00	0.00
603.16	126.39
603.31	60.85
603.47	0.00
603.62	16.38
603.78	67.88
603.94	53.83
604.09	53.83
604.25	23.41
604.40	28.09
604.56	56.17
604.71	65.54
604.87	18.72
605.03	44.47
605.18	72.56
605.34	37.45
605.49	84.26
605.65	39.79
605.80	86.60
605.96	18.72
606.12	46.81
606.27	65.54
606.43	58.51
606.58	0.00
606.74	107.66
606.89	37.45
607.05	98.30
607.20	37.45
607.36	77.24
607.51	9.36
607.67	23.41
607.82	60.85
607.98	67.88
608.13	84.26
608.29	65.54
608.44	91.28
608.60	28.09
608.75	0.00
608.91	42.13
609.06	0.00
609.22	53.83
609.37	117.03
609.53	0.00
609.68	77.24
609.84	70.22
609.99	2.34
610.15	37.45
610.30	86.60
610.46	32.77
610.61	28.09
610.76	44.47
610.92	95.96
611.07	63.19
611.23	65.54
611.38	93.62
611.54	46.81
611.69	0.00
611.84	25.75
612.00	30.43
612.15	65.54
612.31	0.00
612.46	93.62
612.62	4.68
612.77	56.17
612.92	67.88
613.08	0.00
613.23	77.24
613.39	0.00
613.54	84.26
613.69	0.00
613.85	28.09
614.00	60.85
614.15	114.69
614.31	14.04
614.46	0.00
614.62	44.47
614.77	88.94
614.92	117.03
615.08	18.72
615.23	35.11
615.38	60.85
615.54	114.69
615.69	0.00
615.84	0.00
616.00	0.00
616.15	37.45
616.30	28.09
616.46	28.09
616.61	35.11
616.76	81.92
616.92	56.17
617.07	35.11
617.22	65.54
617.37	0.00
617.53	16.38
617.68	18.72
617.83	37.45
617.99	65.54
618.14	79.58
618.29	25.75
618.45	63.19
618.60	142.77
618.75	70.22
618.90	56.17
619.06	42.13
619.21	42.13
619.36	21.06
619.51	18.72
619.67	28.09
619.82	81.92
619.97	91.28
620.12	74.90
620.28	16.38
620.43	9.36
620.58	42.13
620.73	25.75
620.89	39.79
621.04	14.04
621.19	28.09
621.34	58.51
621.49	86.60
621.65	39.79
621.80	39.79
621.95	56.17
622.10	14.04
622.25	0.00
622.41	16.38
622.56	56.17
622.71	107.66
622.86	16.38
623.01	14.04
623.16	86.60
623.32	21.06
623.47	0.00
623.62	23.41
623.77	67.88
623.92	49.15
624.07	30.43
624.23	56.17
624.38	21.06
624.53	51.49
624.68	9.36
624.83	60.85
624.98	0.00
625.13	0.00
625.29	124.05
625.44	93.62
625.59	18.72
625.74	51.49
625.89	49.15
626.04	46.81
626.19	0.00
626.34	65.54
626.49	46.81
626.65	32.77
626.80	60.85
626.95	0.00
627.10	131.07
627.25	37.45
627.40	0.00
627.55	11.70
627.70	0.00
627.85	32.77
628.00	18.72
628.15	0.00
628.30	21.06
628.45	77.24
628.60	79.58
628.76	107.66
628.91	53.83
629.06	11.70
629.21	79.58
629.36	67.88
629.51	14.04
629.66	74.90
629.81	42.13
629.96	16.38
630.11	93.62
630.26	0.00
630.41	9.36
630.56	74.90
630.71	18.72
630.86	0.00
631.01	9.36
631.16	23.41
631.31	126.39
631.46	58.51
631.61	105.32
631.76	110.01
631.91	44.47
632.06	67.88
632.21	23.41
632.36	51.49
632.51	21.06
632.66	49.15
632.81	0.00
632.96	105.32
633.10	25.75
633.25	100.64
633.40	35.11
633.55	0.00
633.70	0.00
633.85	74.90
634.00	86.60
634.15	0.00
634.30	44.47
634.45	79.58
634.60	7.02
634.75	58.51
634.90	42.13
635.05	30.43
635.19	46.81
635.34	9.36
635.49	28.09
635.64	0.00
635.79	0.00
635.94	93.62
636.09	95.96
636.24	0.00
636.39	60.85
636.53	32.77
636.68	16.38
636.83	72.56
636.98	14.04
637.13	77.24
637.28	11.70
637.43	63.19
637.57	32.77
637.72	91.28
637.87	53.83
638.02	16.38
638.17	44.47
638.32	0.00
638.46	84.26
638.61	44.47
638.76	65.54
638.91	23.41
639.06	11.70
639.20	21.06
639.35	0.00
639.50	42.13
639.65	56.17
639.80	0.00
639.94	11.70
640.09	16.38
640.24	25.75
640.39	65.54
640.54	0.00
640.68	30.43
640.83	58.51
640.98	51.49
641.13	46.81
641.27	4.68
641.42	60.85
641.57	58.51
641.72	0.00
641.86	39.79
642.01	25.75
642.16	0.00
642.31	39.79
642.45	7.02
642.60	28.09
642.75	14.04
642.90	74.90
643.04	58.51
643.19	105.32
643.34	74.90
643.48	28.09
643.63	0.00
643.78	0.00
643.93	63.19
644.07	39.79
644.22	0.00
644.37	51.49
644.51	18.72
644.66	11.70
644.81	0.00
644.95	35.11
645.10	95.96
645.25	28.09
645.39	74.90
645.54	23.41
645.69	119.37
645.83	0.00
645.98	0.00
646.13	37.45
646.27	63.19
646.42	0.00
646.57	42.13
646.71	42.13
646.86	70.22
647.00	30.43
647.15	18.72
647.30	4.68
647.44	56.17
647.59	30.43
647.74	42.13
647.88	0.00
648.03	70.22
648.17	72.56
648.32	0.00
648.47	32.77
648.61	0.00
648.76	65.54
648.90	0.00
649.05	0.00
649.20	35.11
649.34	0.00
649.49	35.11
649.63	70.22
649.78	63.19
649.92	114.69
650.07	67.88
650.21	42.13
650.36	67.88
650.51	84.26
650.65	4.68
650.80	53.83
650.94	0.00
651.09	51.49
651.23	46.81
651.38	126.39
651.52	0.00
651.67	4.68
651.81	7.02
651.96	56.17
652.10	0.00
652.25	42.13
652.39	23.41
652.54	60.85
652.68	0.00
652.83	81.92
652.97	67.88
653.12	42.13
653.26	0.00
653.41	23.41
653.55	4.68
653.70	14.04
653.84	84.26
653.99	65.54
654.13	35.11
654.27	110.01
654.42	0.00
654.56	39.79
654.71	35.11
654.85	0.00
655.00	0.00
655.14	58.51
655.29	0.00
655.43	23.41
655.57	25.75
655.72	30.43
655.86	28.09
656.01	11.70
656.15	0.00
656.30	0.00
656.44	0.00
656.58	18.72
656.73	53.83
656.87	23.41
657.01	0.00
657.16	53.83
657.30	18.72
657.45	16.38
657.59	65.54
657.73	49.15
657.88	65.54
658.02	84.26
658.16	0.00
658.31	35.11
658.45	14.04
658.60	0.00
658.74	0.00
658.88	35.11
659.03	58.51
659.17	0.00
659.31	56.17
659.46	28.09
659.60	11.70
659.74	23.41
659.89	0.00
660.03	23.41
660.17	79.58
660.32	42.13
660.46	58.51
660.60	51.49
660.74	0.00
660.89	0.00
661.03	37.45
661.17	49.15
661.32	42.13
661.46	44.47
661.60	98.30
661.74	63.19
661.89	0.00
662.03	84.26
662.17	100.64
662.31	58.51
662.46	23.41
662.60	86.60
662.74	18.72
662.88	7.02
663.03	16.38
663.17	21.06
663.31	0.00
663.45	23.41
663.60	16.38
663.74	53.83
663.88	84.26
664.02	0.00
664.17	0.00
664.31	79.58
664.45	100.64
664.59	35.11
664.73	46.81
664.88	0.00
665.02	42.13
665.16	4.68
665.30	16.38
665.44	18.72
665.59	32.77
665.73	117.03
665.87	53.83
666.01	14.04
666.15	9.36
666.29	51.49
666.44	25.75
666.58	0.00
666.72	95.96
666.86	4.68
667.00	58.51
667.14	0.00
667.28	0.00
667.43	77.24
667.57	2.34
667.71	74.90
667.85	18.72
667.99	100.64
668.13	74.90
668.27	39.79
668.41	32.77
668.56	0.00
668.70	46.81
668.84	88.94
668.98	0.00
669.12	51.49
669.26	0.00
669.40	77.24
669.54	65.54
669.68	0.00
669.82	100.64
669.96	49.15
670.10	18.72
670.25	105.32
670.39	23.41
670.53	0.00
670.67	18.72
670.81	9.36
670.95	51.49
671.09	102.98
671.23	37.45
671.37	72.56
671.51	72.56
671.65	2.34
671.79	77.24
671.93	16.38
672.07	88.94
672.21	9.36
672.35	88.94
672.49	70.22
672.63	65.54
672.77	79.58
672.91	9.36
673.05	0.00
673.19	37.45
673.33	49.15
673.47	49.15
673.61	60.85
673.75	65.54
673.89	81.92
674.03	42.13
674.17	60.85
674.31	0.00
674.45	56.17
674.59	81.92
674.73	70.22
674.87	44.47
675.01	0.00
675.15	58.51
675.29	51.49
675.43	0.00
675.56	72.56
675.70	32.77
675.84	49.15
675.98	93.62
676.12	65.54
676.26	46.81
676.40	0.00
676.54	44.47
676.68	56.17
676.82	9.36
676.96	32.77
677.10	77.24
677.23	72.56
677.37	18.72
677.51	23.41
677.65	60.85
677.79	77.24
677.93	14.04
678.07	7.02
678.21	30.43
678.34	11.70
678.48	67.88
678.62	42.13
678.76	42.13
678.90	0.00
679.04	63.19
679.18	79.58
679.31	14.04
679.45	9.36
679.59	11.70
679.73	140.43
679.87	46.81
680.00	119.37
680.14	25.75
680.28	28.09
680.42	23.41
680.56	23.41
680.70	35.11
680.83	0.00
680.97	0.00
681.11	39.79
681.25	0.00
681.39	0.00
681.52	70.22
681.66	42.13
681.80	28.09
681.94	44.47
682.07	37.45
682.21	42.13
682.35	0.00
682.49	56.17
682.62	23.41
682.76	42.13
682.90	81.92
683.04	46.81
683.17	35.11
683.31	39.79
683.45	7.02
683.59	9.36
683.72	84.26
683.86	65.54
684.00	4.68
684.13	147.45
684.27	32.77
684.41	65.54
684.55	0.00
684.68	30.43
684.82	140.43
684.96	53.83
685.09	0.00
685.23	53.83
685.37	51.49
685.50	16.38
685.64	0.00
685.78	32.77
685.91	0.00
686.05	14.04
686.19	28.09
686.32	11.70
686.46	105.32
686.60	9.36
686.73	0.00
686.87	37.45
687.01	4.68
687.14	0.00
687.28	86.60
687.42	42.13
687.55	16.38
687.69	4.68
687.82	39.79
687.96	0.00
688.10	0.00
688.23	0.00
688.37	23.41
688.50	77.24
688.64	72.56
688.78	30.43
688.91	23.41
689.05	0.00
689.18	35.11
689.32	128.73
689.46	18.72
689.59	110.01
689.73	51.49
689.86	56.17
690.00	84.26
690.13	44.47
690.27	37.45
690.41	0.00
690.54	16.38
690.68	93.62
690.81	56.17
690.95	65.54
691.08	60.85
691.22	126.39
691.35	60.85
691.49	0.00
691.62	0.00
691.76	0.00
691.89	2.34
692.03	14.04
692.16	25.75
692.30	51.49
692.43	0.00
692.57	58.51
692.70	0.00
692.84	25.75
692.97	14.04
693.11	56.17
693.24	21.06
693.38	2.34
693.51	14.04
693.65	56.17
693.78	70.22
693.92	53.83
694.05	39.79
694.19	32.77
694.32	4.68
694.45	0.00
694.59	18.72
694.72	91.28
694.86	18.72
694.99	0.00
695.13	102.98
695.26	70.22
695.39	60.85
695.53	93.62
695.66	65.54
695.80	30.43
695.93	0.00
696.07	79.58
696.20	42.13
696.33	16.38
696.47	42.13
696.60	79.58
696.73	0.00
696.87	35.11
697.00	39.79
697.14	4.68
697.27	77.24
697.40	102.98
697.54	30.43
697.67	60.85
697.80	30.43
697.94	72.56
698.07	70.22
698.21	30.43
698.34	35.11
698.47	7.02
698.61	9.36
698.74	18.72
698.87	65.54
699.01	2.34
699.14	4.68
699.27	30.43
699.40	35.11
699.54	67.88
699.67	0.00
699.80	81.92
699.94	32.77
700.07	14.04
700.20	56.17
700.34	105.32
700.47	60.85
700.60	46.81
700.73	51.49
700.87	56.17
701.00	0.00
701.13	23.41
701.26	79.58
701.40	0.00
701.53	4.68
701.66	72.56
701.79	0.00
701.93	44.47
702.06	28.09
702.19	46.81
702.32	0.00
702.46	86.60
702.59	9.36
702.72	9.36
702.85	32.77
702.99	7.02
703.12	67.88
703.25	0.00
703.38	42.13
703.51	65.54
703.65	44.47
703.78	53.83
703.91	72.56
704.04	42.13
704.17	91.28
704.31	65.54
704.44	0.00
704.57	25.75
704.70	0.00
704.83	11.70
704.96	74.90
705.10	7.02
705.23	58.51
>>>>>End Processed Spectral Data<<<<<
