SpectraSuite Data File
++++++++++++++++++++++++++++++++++++
Date: Fri Oct 04 12:13:45 GMT-05:00 2013
User: price-jones
Dark Spectrum Present: No
Reference Spectrum Present: No
Number of Sampled Component Spectra: 1
Spectrometers: USB2+H05261
Integration Time (usec): 10000 (USB2+H05261)
Spectra Averaged: 1 (USB2+H05261)
Boxcar Smoothing: 0 (USB2+H05261)
Correct for Electrical Dark: No (USB2+H05261)
Strobe/Lamp Enabled: No (USB2+H05261)
Correct for Detector Non-linearity: No (USB2+H05261)
Correct for Stray Light: No (USB2+H05261)
Number of Pixels in Processed Spectrum: 2048
>>>>>Begin Processed Spectral Data<<<<<
365.73	0.00
365.92	0.00
366.12	0.00
366.32	0.00
366.52	0.00
366.72	0.00
366.91	0.00
367.11	0.00
367.31	0.00
367.51	0.00
367.70	0.00
367.90	0.00
368.10	0.00
368.30	0.00
368.49	0.00
368.69	0.00
368.89	0.00
369.09	0.00
369.28	0.00
369.48	0.00
369.68	0.00
369.87	0.00
370.07	0.00
370.27	0.00
370.47	0.00
370.66	0.00
370.86	0.00
371.06	0.00
371.25	0.00
371.45	23.41
371.65	11.70
371.84	0.00
372.04	0.00
372.24	35.11
372.44	0.00
372.63	32.77
372.83	0.00
373.03	0.00
373.22	16.38
373.42	49.15
373.62	35.11
373.81	14.04
374.01	49.15
374.21	121.71
374.40	2.34
374.60	28.09
374.79	67.88
374.99	0.00
375.19	72.56
375.38	102.98
375.58	0.00
375.78	58.51
375.97	56.17
376.17	0.00
376.37	28.09
376.56	0.00
376.76	11.70
376.95	51.49
377.15	46.81
377.35	67.88
377.54	58.51
377.74	0.00
377.93	91.28
378.13	0.00
378.33	21.06
378.52	46.81
378.72	37.45
378.91	58.51
379.11	37.45
379.31	0.00
379.50	21.06
379.70	23.41
379.89	42.13
380.09	0.00
380.28	0.00
380.48	0.00
380.68	42.13
380.87	21.06
381.07	14.04
381.26	18.72
381.46	70.22
381.65	46.81
381.85	42.13
382.04	11.70
382.24	0.00
382.43	18.72
382.63	32.77
382.83	0.00
383.02	18.72
383.22	7.02
383.41	0.00
383.61	0.00
383.80	72.56
384.00	39.79
384.19	18.72
384.39	7.02
384.58	23.41
384.78	2.34
384.97	77.24
385.17	42.13
385.36	79.58
385.56	53.83
385.75	11.70
385.95	51.49
386.14	42.13
386.34	56.17
386.53	25.75
386.72	21.06
386.92	86.60
387.11	2.34
387.31	25.75
387.50	18.72
387.70	51.49
387.89	0.00
388.09	53.83
388.28	11.70
388.48	30.43
388.67	18.72
388.86	63.19
389.06	25.75
389.25	0.00
389.45	39.79
389.64	0.00
389.84	25.75
390.03	46.81
390.22	0.00
390.42	23.41
390.61	0.00
390.81	39.79
391.00	4.68
391.19	0.00
391.39	0.00
391.58	0.00
391.78	0.00
391.97	0.00
392.16	18.72
392.36	35.11
392.55	46.81
392.75	9.36
392.94	32.77
393.13	32.77
393.33	63.19
393.52	32.77
393.71	30.43
393.91	32.77
394.10	30.43
394.29	0.00
394.49	49.15
394.68	0.00
394.88	35.11
395.07	16.38
395.26	49.15
395.46	53.83
395.65	0.00
395.84	11.70
396.04	58.51
396.23	39.79
396.42	63.19
396.62	23.41
396.81	46.81
397.00	9.36
397.19	0.00
397.39	30.43
397.58	0.00
397.77	0.00
397.97	60.85
398.16	16.38
398.35	25.75
398.55	88.94
398.74	32.77
398.93	37.45
399.12	63.19
399.32	63.19
399.51	0.00
399.70	42.13
399.90	0.00
400.09	23.41
400.28	21.06
400.47	25.75
400.67	56.17
400.86	14.04
401.05	51.49
401.24	18.72
401.44	124.05
401.63	44.47
401.82	32.77
402.01	0.00
402.21	0.00
402.40	0.00
402.59	0.00
402.78	14.04
402.97	0.00
403.17	49.15
403.36	11.70
403.55	77.24
403.74	77.24
403.93	0.00
404.13	70.22
404.32	49.15
404.51	0.00
404.70	100.64
404.89	18.72
405.09	74.90
405.28	58.51
405.47	86.60
405.66	42.13
405.85	46.81
406.05	7.02
406.24	46.81
406.43	37.45
406.62	79.58
406.81	16.38
407.00	42.13
407.20	21.06
407.39	0.00
407.58	58.51
407.77	60.85
407.96	11.70
408.15	88.94
408.34	32.77
408.54	63.19
408.73	42.13
408.92	0.00
409.11	0.00
409.30	93.62
409.49	0.00
409.68	0.00
409.87	60.85
410.07	25.75
410.26	2.34
410.45	95.96
410.64	53.83
410.83	44.47
411.02	72.56
411.21	16.38
411.40	60.85
411.59	65.54
411.78	28.09
411.98	2.34
412.17	23.41
412.36	18.72
412.55	7.02
412.74	25.75
412.93	21.06
413.12	86.60
413.31	28.09
413.50	0.00
413.69	51.49
413.88	4.68
414.07	72.56
414.26	0.00
414.45	32.77
414.64	37.45
414.83	16.38
415.02	0.00
415.22	0.00
415.41	70.22
415.60	49.15
415.79	88.94
415.98	56.17
416.17	4.68
416.36	23.41
416.55	28.09
416.74	28.09
416.93	49.15
417.12	7.02
417.31	63.19
417.50	0.00
417.69	0.00
417.88	72.56
418.07	60.85
418.26	53.83
418.45	49.15
418.64	35.11
418.83	91.28
419.02	37.45
419.21	72.56
419.39	23.41
419.58	30.43
419.77	102.98
419.96	0.00
420.15	2.34
420.34	0.00
420.53	44.47
420.72	0.00
420.91	21.06
421.10	35.11
421.29	21.06
421.48	32.77
421.67	98.30
421.86	39.79
422.05	42.13
422.24	21.06
422.43	0.00
422.61	16.38
422.80	0.00
422.99	25.75
423.18	4.68
423.37	72.56
423.56	0.00
423.75	23.41
423.94	32.77
424.13	0.00
424.32	0.00
424.50	79.58
424.69	44.47
424.88	25.75
425.07	37.45
425.26	21.06
425.45	42.13
425.64	30.43
425.83	9.36
426.01	39.79
426.20	95.96
426.39	23.41
426.58	86.60
426.77	0.00
426.96	93.62
427.15	42.13
427.33	84.26
427.52	7.02
427.71	23.41
427.90	70.22
428.09	63.19
428.28	117.03
428.46	0.00
428.65	72.56
428.84	9.36
429.03	42.13
429.22	28.09
429.40	11.70
429.59	0.00
429.78	18.72
429.97	86.60
430.16	79.58
430.34	32.77
430.53	46.81
430.72	53.83
430.91	30.43
431.10	63.19
431.28	4.68
431.47	0.00
431.66	84.26
431.85	4.68
432.03	58.51
432.22	81.92
432.41	65.54
432.60	7.02
432.79	37.45
432.97	4.68
433.16	16.38
433.35	4.68
433.54	58.51
433.72	77.24
433.91	32.77
434.10	39.79
434.28	53.83
434.47	131.07
434.66	56.17
434.85	25.75
435.03	51.49
435.22	53.83
435.41	37.45
435.59	65.54
435.78	18.72
435.97	86.60
436.16	32.77
436.34	100.64
436.53	42.13
436.72	39.79
436.90	25.75
437.09	30.43
437.28	14.04
437.46	21.06
437.65	67.88
437.84	9.36
438.02	72.56
438.21	91.28
438.40	28.09
438.58	25.75
438.77	4.68
438.96	0.00
439.14	0.00
439.33	16.38
439.52	21.06
439.70	0.00
439.89	28.09
440.08	25.75
440.26	0.00
440.45	7.02
440.63	0.00
440.82	23.41
441.01	7.02
441.19	44.47
441.38	30.43
441.57	46.81
441.75	65.54
441.94	0.00
442.12	7.02
442.31	98.30
442.50	0.00
442.68	77.24
442.87	18.72
443.05	0.00
443.24	14.04
443.43	0.00
443.61	11.70
443.80	46.81
443.98	4.68
444.17	4.68
444.35	7.02
444.54	39.79
444.73	18.72
444.91	35.11
445.10	16.38
445.28	7.02
445.47	7.02
445.65	2.34
445.84	46.81
446.02	102.98
446.21	21.06
446.39	0.00
446.58	60.85
446.77	88.94
446.95	56.17
447.14	35.11
447.32	2.34
447.51	0.00
447.69	9.36
447.88	0.00
448.06	93.62
448.25	28.09
448.43	0.00
448.62	42.13
448.80	60.85
448.99	0.00
449.17	0.00
449.36	102.98
449.54	0.00
449.73	0.00
449.91	74.90
450.10	88.94
450.28	21.06
450.46	0.00
450.65	46.81
450.83	42.13
451.02	0.00
451.20	37.45
451.39	37.45
451.57	51.49
451.76	84.26
451.94	0.00
452.13	39.79
452.31	0.00
452.49	98.30
452.68	7.02
452.86	0.00
453.05	84.26
453.23	0.00
453.42	77.24
453.60	25.75
453.78	65.54
453.97	46.81
454.15	0.00
454.34	0.00
454.52	51.49
454.70	0.00
454.89	0.00
455.07	9.36
455.26	21.06
455.44	60.85
455.62	128.73
455.81	7.02
455.99	25.75
456.17	63.19
456.36	14.04
456.54	58.51
456.73	63.19
456.91	30.43
457.09	46.81
457.28	21.06
457.46	0.00
457.64	51.49
457.83	42.13
458.01	16.38
458.19	0.00
458.38	0.00
458.56	86.60
458.74	0.00
458.93	67.88
459.11	65.54
459.29	131.07
459.48	86.60
459.66	42.13
459.84	14.04
460.03	58.51
460.21	72.56
460.39	42.13
460.57	46.81
460.76	53.83
460.94	88.94
461.12	102.98
461.31	81.92
461.49	53.83
461.67	30.43
461.85	88.94
462.04	0.00
462.22	110.01
462.40	88.94
462.59	30.43
462.77	18.72
462.95	23.41
463.13	81.92
463.32	100.64
463.50	58.51
463.68	32.77
463.86	0.00
464.05	2.34
464.23	9.36
464.41	23.41
464.59	23.41
464.78	16.38
464.96	110.01
465.14	25.75
465.32	39.79
465.50	65.54
465.69	28.09
465.87	16.38
466.05	35.11
466.23	23.41
466.41	0.00
466.60	23.41
466.78	46.81
466.96	4.68
467.14	65.54
467.32	37.45
467.51	39.79
467.69	32.77
467.87	30.43
468.05	0.00
468.23	88.94
468.41	65.54
468.60	53.83
468.78	107.66
468.96	0.00
469.14	0.00
469.32	0.00
469.50	0.00
469.69	39.79
469.87	21.06
470.05	60.85
470.23	21.06
470.41	0.00
470.59	25.75
470.77	0.00
470.95	39.79
471.14	65.54
471.32	81.92
471.50	77.24
471.68	18.72
471.86	63.19
472.04	2.34
472.22	9.36
472.40	0.00
472.58	37.45
472.77	16.38
472.95	7.02
473.13	0.00
473.31	18.72
473.49	0.00
473.67	44.47
473.85	65.54
474.03	2.34
474.21	98.30
474.39	0.00
474.57	23.41
474.75	0.00
474.93	44.47
475.12	53.83
475.30	81.92
475.48	74.90
475.66	32.77
475.84	46.81
476.02	30.43
476.20	4.68
476.38	7.02
476.56	77.24
476.74	63.19
476.92	16.38
477.10	65.54
477.28	2.34
477.46	0.00
477.64	60.85
477.82	14.04
478.00	0.00
478.18	0.00
478.36	18.72
478.54	32.77
478.72	49.15
478.90	32.77
479.08	0.00
479.26	79.58
479.44	91.28
479.62	0.00
479.80	0.00
479.98	9.36
480.16	126.39
480.34	9.36
480.52	70.22
480.70	0.00
480.88	0.00
481.06	37.45
481.24	81.92
481.41	63.19
481.59	37.45
481.77	32.77
481.95	74.90
482.13	32.77
482.31	0.00
482.49	63.19
482.67	67.88
482.85	16.38
483.03	70.22
483.21	46.81
483.39	98.30
483.57	0.00
483.74	81.92
483.92	70.22
484.10	67.88
484.28	51.49
484.46	124.05
484.64	18.72
484.82	72.56
485.00	65.54
485.18	18.72
485.35	67.88
485.53	77.24
485.71	9.36
485.89	0.00
486.07	25.75
486.25	0.00
486.43	95.96
486.61	56.17
486.78	95.96
486.96	88.94
487.14	72.56
487.32	60.85
487.50	95.96
487.68	39.79
487.85	51.49
488.03	0.00
488.21	44.47
488.39	88.94
488.57	0.00
488.75	67.88
488.92	39.79
489.10	14.04
489.28	42.13
489.46	0.00
489.64	4.68
489.81	58.51
489.99	4.68
490.17	51.49
490.35	0.00
490.53	58.51
490.70	105.32
490.88	30.43
491.06	56.17
491.24	23.41
491.41	53.83
491.59	58.51
491.77	42.13
491.95	110.01
492.13	79.58
492.30	81.92
492.48	11.70
492.66	88.94
492.84	14.04
493.01	77.24
493.19	44.47
493.37	23.41
493.54	79.58
493.72	79.58
493.90	58.51
494.08	14.04
494.25	0.00
494.43	30.43
494.61	91.28
494.79	56.17
494.96	86.60
495.14	102.98
495.32	11.70
495.49	11.70
495.67	4.68
495.85	39.79
496.02	42.13
496.20	70.22
496.38	72.56
496.55	65.54
496.73	77.24
496.91	81.92
497.09	67.88
497.26	46.81
497.44	81.92
497.62	70.22
497.79	16.38
497.97	0.00
498.14	145.11
498.32	4.68
498.50	46.81
498.67	51.49
498.85	11.70
499.03	67.88
499.20	23.41
499.38	35.11
499.56	46.81
499.73	18.72
499.91	72.56
500.08	53.83
500.26	21.06
500.44	32.77
500.61	39.79
500.79	42.13
500.97	63.19
501.14	37.45
501.32	51.49
501.49	84.26
501.67	70.22
501.84	53.83
502.02	100.64
502.20	49.15
502.37	9.36
502.55	32.77
502.72	9.36
502.90	25.75
503.07	23.41
503.25	60.85
503.43	81.92
503.60	35.11
503.78	79.58
503.95	18.72
504.13	0.00
504.30	16.38
504.48	37.45
504.65	0.00
504.83	32.77
505.01	2.34
505.18	51.49
505.36	58.51
505.53	35.11
505.71	37.45
505.88	102.98
506.06	58.51
506.23	18.72
506.41	39.79
506.58	63.19
506.76	49.15
506.93	74.90
507.11	46.81
507.28	72.56
507.46	9.36
507.63	51.49
507.81	14.04
507.98	0.00
508.16	25.75
508.33	35.11
508.50	21.06
508.68	86.60
508.85	86.60
509.03	46.81
509.20	21.06
509.38	49.15
509.55	0.00
509.73	46.81
509.90	18.72
510.08	77.24
510.25	14.04
510.42	79.58
510.60	58.51
510.77	79.58
510.95	46.81
511.12	37.45
511.30	93.62
511.47	0.00
511.64	100.64
511.82	107.66
511.99	56.17
512.17	0.00
512.34	2.34
512.51	0.00
512.69	37.45
512.86	42.13
513.04	56.17
513.21	21.06
513.38	51.49
513.56	74.90
513.73	37.45
513.90	0.00
514.08	65.54
514.25	91.28
514.43	88.94
514.60	60.85
514.77	0.00
514.95	60.85
515.12	74.90
515.29	81.92
515.47	25.75
515.64	86.60
515.81	56.17
515.99	91.28
516.16	0.00
516.33	37.45
516.51	86.60
516.68	74.90
516.85	14.04
517.03	39.79
517.20	28.09
517.37	44.47
517.54	65.54
517.72	28.09
517.89	25.75
518.06	124.05
518.24	18.72
518.41	60.85
518.58	0.00
518.75	7.02
518.93	0.00
519.10	77.24
519.27	84.26
519.45	25.75
519.62	18.72
519.79	60.85
519.96	63.19
520.14	0.00
520.31	53.83
520.48	105.32
520.65	0.00
520.83	0.00
521.00	53.83
521.17	28.09
521.34	46.81
521.52	18.72
521.69	39.79
521.86	46.81
522.03	58.51
522.20	49.15
522.38	49.15
522.55	23.41
522.72	37.45
522.89	11.70
523.07	51.49
523.24	86.60
523.41	67.88
523.58	23.41
523.75	11.70
523.92	91.28
524.10	70.22
524.27	49.15
524.44	18.72
524.61	0.00
524.78	0.00
524.96	0.00
525.13	0.00
525.30	4.68
525.47	4.68
525.64	46.81
525.81	72.56
525.98	93.62
526.16	23.41
526.33	105.32
526.50	18.72
526.67	23.41
526.84	18.72
527.01	65.54
527.18	18.72
527.36	60.85
527.53	86.60
527.70	28.09
527.87	112.35
528.04	18.72
528.21	39.79
528.38	105.32
528.55	51.49
528.72	14.04
528.89	65.54
529.07	51.49
529.24	0.00
529.41	53.83
529.58	39.79
529.75	0.00
529.92	32.77
530.09	67.88
530.26	23.41
530.43	30.43
530.60	7.02
530.77	39.79
530.94	32.77
531.11	4.68
531.28	35.11
531.46	117.03
531.63	35.11
531.80	88.94
531.97	65.54
532.14	16.38
532.31	65.54
532.48	84.26
532.65	25.75
532.82	9.36
532.99	86.60
533.16	32.77
533.33	65.54
533.50	16.38
533.67	14.04
533.84	67.88
534.01	70.22
534.18	102.98
534.35	86.60
534.52	0.00
534.69	128.73
534.86	110.01
535.03	14.04
535.20	0.00
535.37	147.45
535.54	0.00
535.71	32.77
535.88	63.19
536.05	58.51
536.22	81.92
536.38	49.15
536.55	81.92
536.72	11.70
536.89	30.43
537.06	9.36
537.23	14.04
537.40	93.62
537.57	30.43
537.74	0.00
537.91	39.79
538.08	51.49
538.25	124.05
538.42	91.28
538.59	81.92
538.75	65.54
538.92	65.54
539.09	100.64
539.26	44.47
539.43	4.68
539.60	30.43
539.77	0.00
539.94	56.17
540.11	86.60
540.28	37.45
540.44	77.24
540.61	70.22
540.78	18.72
540.95	86.60
541.12	35.11
541.29	51.49
541.46	0.00
541.62	46.81
541.79	35.11
541.96	117.03
542.13	67.88
542.30	37.45
542.47	9.36
542.63	30.43
542.80	65.54
542.97	32.77
543.14	46.81
543.31	95.96
543.48	30.43
543.64	91.28
543.81	37.45
543.98	102.98
544.15	0.00
544.32	28.09
544.48	23.41
544.65	91.28
544.82	0.00
544.99	88.94
545.16	4.68
545.32	0.00
545.49	23.41
545.66	11.70
545.83	25.75
546.00	42.13
546.16	51.49
546.33	46.81
546.50	18.72
546.67	0.00
546.83	53.83
547.00	110.01
547.17	93.62
547.34	0.00
547.50	124.05
547.67	74.90
547.84	46.81
548.00	32.77
548.17	9.36
548.34	88.94
548.51	0.00
548.67	81.92
548.84	72.56
549.01	35.11
549.18	46.81
549.34	4.68
549.51	32.77
549.68	0.00
549.84	32.77
550.01	0.00
550.18	72.56
550.34	77.24
550.51	37.45
550.68	88.94
550.84	51.49
551.01	107.66
551.18	0.00
551.34	51.49
551.51	0.00
551.68	7.02
551.84	51.49
552.01	23.41
552.18	56.17
552.34	65.54
552.51	86.60
552.68	21.06
552.84	16.38
553.01	21.06
553.18	53.83
553.34	60.85
553.51	0.00
553.67	46.81
553.84	4.68
554.01	44.47
554.17	4.68
554.34	37.45
554.51	0.00
554.67	32.77
554.84	4.68
555.00	42.13
555.17	49.15
555.33	39.79
555.50	81.92
555.67	44.47
555.83	9.36
556.00	7.02
556.16	84.26
556.33	84.26
556.50	39.79
556.66	11.70
556.83	67.88
556.99	91.28
557.16	105.32
557.32	2.34
557.49	84.26
557.65	42.13
557.82	39.79
557.98	95.96
558.15	16.38
558.32	46.81
558.48	2.34
558.65	46.81
558.81	9.36
558.98	72.56
559.14	32.77
559.31	16.38
559.47	88.94
559.64	32.77
559.80	91.28
559.97	46.81
560.13	77.24
560.30	63.19
560.46	53.83
560.63	39.79
560.79	84.26
560.96	84.26
561.12	14.04
561.29	131.07
561.45	9.36
561.61	91.28
561.78	42.13
561.94	44.47
562.11	46.81
562.27	88.94
562.44	37.45
562.60	18.72
562.77	16.38
562.93	95.96
563.10	86.60
563.26	46.81
563.42	25.75
563.59	37.45
563.75	4.68
563.92	32.77
564.08	30.43
564.24	0.00
564.41	16.38
564.57	107.66
564.74	46.81
564.90	14.04
565.07	39.79
565.23	23.41
565.39	0.00
565.56	77.24
565.72	51.49
565.88	49.15
566.05	72.56
566.21	23.41
566.38	56.17
566.54	98.30
566.70	18.72
566.87	107.66
567.03	42.13
567.19	93.62
567.36	0.00
567.52	67.88
567.68	88.94
567.85	77.24
568.01	117.03
568.17	0.00
568.34	44.47
568.50	49.15
568.66	9.36
568.83	42.13
568.99	32.77
569.15	35.11
569.32	46.81
569.48	35.11
569.64	16.38
569.81	42.13
569.97	42.13
570.13	74.90
570.30	2.34
570.46	74.90
570.62	56.17
570.78	32.77
570.95	95.96
571.11	18.72
571.27	0.00
571.43	70.22
571.60	23.41
571.76	63.19
571.92	46.81
572.09	11.70
572.25	124.05
572.41	53.83
572.57	67.88
572.74	65.54
572.90	11.70
573.06	35.11
573.22	44.47
573.38	65.54
573.55	86.60
573.71	46.81
573.87	74.90
574.03	58.51
574.20	63.19
574.36	65.54
574.52	79.58
574.68	49.15
574.84	35.11
575.01	14.04
575.17	77.24
575.33	39.79
575.49	70.22
575.65	58.51
575.82	77.24
575.98	4.68
576.14	25.75
576.30	0.00
576.46	91.28
576.62	49.15
576.79	0.00
576.95	72.56
577.11	58.51
577.27	84.26
577.43	39.79
577.59	77.24
577.75	53.83
577.92	74.90
578.08	49.15
578.24	30.43
578.40	105.32
578.56	91.28
578.72	7.02
578.88	51.49
579.04	49.15
579.21	53.83
579.37	166.18
579.53	42.13
579.69	49.15
579.85	2.34
580.01	79.58
580.17	21.06
580.33	0.00
580.49	44.47
580.65	42.13
580.82	86.60
580.98	42.13
581.14	0.00
581.30	81.92
581.46	16.38
581.62	81.92
581.78	112.35
581.94	11.70
582.10	53.83
582.26	65.54
582.42	42.13
582.58	70.22
582.74	56.17
582.90	0.00
583.06	37.45
583.22	35.11
583.38	56.17
583.54	0.00
583.70	28.09
583.86	95.96
584.02	63.19
584.18	16.38
584.34	37.45
584.50	39.79
584.66	72.56
584.82	70.22
584.98	84.26
585.14	53.83
585.30	77.24
585.46	51.49
585.62	28.09
585.78	28.09
585.94	49.15
586.10	32.77
586.26	77.24
586.42	58.51
586.58	74.90
586.74	58.51
586.90	107.66
587.06	23.41
587.22	60.85
587.38	49.15
587.54	98.30
587.70	18.72
587.86	11.70
588.02	0.00
588.18	93.62
588.34	88.94
588.49	4.68
588.65	0.00
588.81	46.81
588.97	0.00
589.13	7.02
589.29	42.13
589.45	74.90
589.61	53.83
589.77	21.06
589.93	70.22
590.08	35.11
590.24	44.47
590.40	46.81
590.56	86.60
590.72	56.17
590.88	58.51
591.04	72.56
591.20	72.56
591.35	0.00
591.51	60.85
591.67	51.49
591.83	9.36
591.99	35.11
592.15	100.64
592.31	135.75
592.46	51.49
592.62	32.77
592.78	44.47
592.94	70.22
593.10	110.01
593.26	9.36
593.41	0.00
593.57	37.45
593.73	60.85
593.89	16.38
594.05	11.70
594.20	84.26
594.36	70.22
594.52	0.00
594.68	35.11
594.84	117.03
594.99	30.43
595.15	11.70
595.31	51.49
595.47	74.90
595.62	51.49
595.78	51.49
595.94	39.79
596.10	35.11
596.25	11.70
596.41	65.54
596.57	72.56
596.73	60.85
596.88	126.39
597.04	79.58
597.20	18.72
597.36	46.81
597.51	18.72
597.67	0.00
597.83	0.00
597.99	0.00
598.14	42.13
598.30	67.88
598.46	0.00
598.61	14.04
598.77	0.00
598.93	79.58
599.09	44.47
599.24	77.24
599.40	0.00
599.56	9.36
599.71	18.72
599.87	25.75
600.03	7.02
600.18	37.45
600.34	60.85
600.50	44.47
600.65	79.58
600.81	35.11
600.97	39.79
601.12	49.15
601.28	25.75
601.44	35.11
601.59	84.26
601.75	42.13
601.91	70.22
602.06	42.13
602.22	65.54
602.37	42.13
602.53	131.07
602.69	95.96
602.84	88.94
603.00	72.56
603.16	35.11
603.31	25.75
603.47	0.00
603.62	0.00
603.78	0.00
603.94	39.79
604.09	35.11
604.25	25.75
604.40	70.22
604.56	25.75
604.71	0.00
604.87	21.06
605.03	46.81
605.18	37.45
605.34	79.58
605.49	14.04
605.65	16.38
605.80	23.41
605.96	35.11
606.12	88.94
606.27	46.81
606.43	51.49
606.58	56.17
606.74	28.09
606.89	25.75
607.05	74.90
607.20	65.54
607.36	46.81
607.51	74.90
607.67	18.72
607.82	0.00
607.98	16.38
608.13	74.90
608.29	53.83
608.44	0.00
608.60	88.94
608.75	44.47
608.91	9.36
609.06	0.00
609.22	0.00
609.37	11.70
609.53	37.45
609.68	23.41
609.84	86.60
609.99	84.26
610.15	21.06
610.30	63.19
610.46	14.04
610.61	77.24
610.76	53.83
610.92	0.00
611.07	53.83
611.23	0.00
611.38	0.00
611.54	49.15
611.69	102.98
611.84	14.04
612.00	91.28
612.15	44.47
612.31	0.00
612.46	44.47
612.62	142.77
612.77	84.26
612.92	9.36
613.08	53.83
613.23	35.11
613.39	35.11
613.54	32.77
613.69	65.54
613.85	11.70
614.00	42.13
614.15	39.79
614.31	102.98
614.46	51.49
614.62	84.26
614.77	56.17
614.92	0.00
615.08	53.83
615.23	11.70
615.38	51.49
615.54	0.00
615.69	0.00
615.84	86.60
616.00	70.22
616.15	0.00
616.30	11.70
616.46	39.79
616.61	39.79
616.76	70.22
616.92	11.70
617.07	39.79
617.22	95.96
617.37	51.49
617.53	51.49
617.68	88.94
617.83	0.00
617.99	49.15
618.14	51.49
618.29	32.77
618.45	7.02
618.60	128.73
618.75	11.70
618.90	49.15
619.06	21.06
619.21	93.62
619.36	32.77
619.51	65.54
619.67	81.92
619.82	60.85
619.97	91.28
620.12	70.22
620.28	39.79
620.43	56.17
620.58	7.02
620.73	56.17
620.89	58.51
621.04	0.00
621.19	0.00
621.34	102.98
621.49	44.47
621.65	9.36
621.80	79.58
621.95	32.77
622.10	0.00
622.25	18.72
622.41	63.19
622.56	117.03
622.71	0.00
622.86	67.88
623.01	95.96
623.16	93.62
623.32	7.02
623.47	53.83
623.62	7.02
623.77	30.43
623.92	53.83
624.07	46.81
624.23	0.00
624.38	30.43
624.53	42.13
624.68	81.92
624.83	49.15
624.98	124.05
625.13	44.47
625.29	93.62
625.44	46.81
625.59	11.70
625.74	42.13
625.89	35.11
626.04	0.00
626.19	44.47
626.34	0.00
626.49	74.90
626.65	56.17
626.80	18.72
626.95	0.00
627.10	84.26
627.25	42.13
627.40	37.45
627.55	88.94
627.70	0.00
627.85	63.19
628.00	16.38
628.15	63.19
628.30	70.22
628.45	67.88
628.60	0.00
628.76	100.64
628.91	46.81
629.06	81.92
629.21	63.19
629.36	25.75
629.51	0.00
629.66	133.41
629.81	49.15
629.96	67.88
630.11	72.56
630.26	18.72
630.41	30.43
630.56	53.83
630.71	74.90
630.86	84.26
631.01	46.81
631.16	70.22
631.31	0.00
631.46	72.56
631.61	0.00
631.76	77.24
631.91	51.49
632.06	70.22
632.21	0.00
632.36	4.68
632.51	63.19
632.66	53.83
632.81	14.04
632.96	65.54
633.10	49.15
633.25	98.30
633.40	58.51
633.55	30.43
633.70	21.06
633.85	11.70
634.00	65.54
634.15	23.41
634.30	72.56
634.45	67.88
634.60	0.00
634.75	42.13
634.90	0.00
635.05	9.36
635.19	0.00
635.34	0.00
635.49	9.36
635.64	7.02
635.79	0.00
635.94	35.11
636.09	28.09
636.24	100.64
636.39	119.37
636.53	21.06
636.68	67.88
636.83	42.13
636.98	77.24
637.13	42.13
637.28	35.11
637.43	58.51
637.57	0.00
637.72	67.88
637.87	79.58
638.02	37.45
638.17	7.02
638.32	4.68
638.46	0.00
638.61	112.35
638.76	49.15
638.91	88.94
639.06	21.06
639.20	35.11
639.35	37.45
639.50	79.58
639.65	0.00
639.80	60.85
639.94	11.70
640.09	37.45
640.24	72.56
640.39	88.94
640.54	0.00
640.68	0.00
640.83	58.51
640.98	51.49
641.13	42.13
641.27	32.77
641.42	25.75
641.57	25.75
641.72	28.09
641.86	51.49
642.01	39.79
642.16	28.09
642.31	44.47
642.45	0.00
642.60	42.13
642.75	91.28
642.90	9.36
643.04	86.60
643.19	11.70
643.34	42.13
643.48	28.09
643.63	0.00
643.78	21.06
643.93	0.00
644.07	0.00
644.22	77.24
644.37	51.49
644.51	100.64
644.66	81.92
644.81	105.32
644.95	60.85
645.10	37.45
645.25	0.00
645.39	14.04
645.54	72.56
645.69	58.51
645.83	25.75
645.98	95.96
646.13	39.79
646.27	21.06
646.42	42.13
646.57	58.51
646.71	56.17
646.86	79.58
647.00	114.69
647.15	105.32
647.30	0.00
647.44	37.45
647.59	79.58
647.74	35.11
647.88	53.83
648.03	121.71
648.17	14.04
648.32	21.06
648.47	72.56
648.61	70.22
648.76	9.36
648.90	74.90
649.05	9.36
649.20	56.17
649.34	91.28
649.49	77.24
649.63	2.34
649.78	110.01
649.92	35.11
650.07	42.13
650.21	21.06
650.36	0.00
650.51	74.90
650.65	81.92
650.80	25.75
650.94	67.88
651.09	72.56
651.23	21.06
651.38	58.51
651.52	74.90
651.67	67.88
651.81	9.36
651.96	30.43
652.10	32.77
652.25	65.54
652.39	14.04
652.54	86.60
652.68	23.41
652.83	107.66
652.97	84.26
653.12	35.11
653.26	14.04
653.41	0.00
653.55	42.13
653.70	65.54
653.84	39.79
653.99	60.85
654.13	51.49
654.27	4.68
654.42	58.51
654.56	4.68
654.71	18.72
654.85	72.56
655.00	156.82
655.14	39.79
655.29	35.11
655.43	84.26
655.57	49.15
655.72	105.32
655.86	11.70
656.01	14.04
656.15	46.81
656.30	37.45
656.44	44.47
656.58	16.38
656.73	60.85
656.87	67.88
657.01	35.11
657.16	11.70
657.30	39.79
657.45	0.00
657.59	32.77
657.73	60.85
657.88	0.00
658.02	0.00
658.16	0.00
658.31	46.81
658.45	30.43
658.60	18.72
658.74	18.72
658.88	51.49
659.03	49.15
659.17	0.00
659.31	49.15
659.46	21.06
659.60	21.06
659.74	72.56
659.89	18.72
660.03	25.75
660.17	121.71
660.32	0.00
660.46	0.00
660.60	79.58
660.74	0.00
660.89	49.15
661.03	42.13
661.17	30.43
661.32	0.00
661.46	0.00
661.60	44.47
661.74	56.17
661.89	79.58
662.03	81.92
662.17	81.92
662.31	58.51
662.46	46.81
662.60	35.11
662.74	0.00
662.88	0.00
663.03	11.70
663.17	44.47
663.31	74.90
663.45	46.81
663.60	0.00
663.74	39.79
663.88	0.00
664.02	28.09
664.17	32.77
664.31	0.00
664.45	42.13
664.59	46.81
664.73	0.00
664.88	16.38
665.02	39.79
665.16	23.41
665.30	0.00
665.44	0.00
665.59	60.85
665.73	53.83
665.87	56.17
666.01	11.70
666.15	0.00
666.29	60.85
666.44	49.15
666.58	0.00
666.72	0.00
666.86	25.75
667.00	49.15
667.14	102.98
667.28	23.41
667.43	14.04
667.57	23.41
667.71	56.17
667.85	35.11
667.99	51.49
668.13	16.38
668.27	44.47
668.41	7.02
668.56	21.06
668.70	98.30
668.84	0.00
668.98	30.43
669.12	65.54
669.26	70.22
669.40	56.17
669.54	53.83
669.68	7.02
669.82	14.04
669.96	2.34
670.10	105.32
670.25	70.22
670.39	37.45
670.53	16.38
670.67	21.06
670.81	30.43
670.95	70.22
671.09	23.41
671.23	0.00
671.37	60.85
671.51	0.00
671.65	2.34
671.79	2.34
671.93	49.15
672.07	32.77
672.21	77.24
672.35	67.88
672.49	84.26
672.63	79.58
672.77	91.28
672.91	14.04
673.05	18.72
673.19	56.17
673.33	86.60
673.47	46.81
673.61	0.00
673.75	42.13
673.89	46.81
674.03	0.00
674.17	65.54
674.31	28.09
674.45	121.71
674.59	0.00
674.73	14.04
674.87	32.77
675.01	0.00
675.15	39.79
675.29	81.92
675.43	105.32
675.56	11.70
675.70	46.81
675.84	37.45
675.98	42.13
676.12	51.49
676.26	58.51
676.40	39.79
676.54	74.90
676.68	65.54
676.82	63.19
676.96	37.45
677.10	102.98
677.23	37.45
677.37	46.81
677.51	79.58
677.65	63.19
677.79	32.77
677.93	0.00
678.07	7.02
678.21	4.68
678.34	72.56
678.48	51.49
678.62	4.68
678.76	9.36
678.90	32.77
679.04	53.83
679.18	28.09
679.31	67.88
679.45	0.00
679.59	58.51
679.73	23.41
679.87	46.81
680.00	46.81
680.14	4.68
680.28	53.83
680.42	65.54
680.56	91.28
680.70	0.00
680.83	28.09
680.97	58.51
681.11	25.75
681.25	7.02
681.39	95.96
681.52	42.13
681.66	2.34
681.80	49.15
681.94	65.54
682.07	18.72
682.21	21.06
682.35	70.22
682.49	11.70
682.62	72.56
682.76	37.45
682.90	77.24
683.04	0.00
683.17	98.30
683.31	44.47
683.45	58.51
683.59	11.70
683.72	84.26
683.86	77.24
684.00	58.51
684.13	42.13
684.27	35.11
684.41	53.83
684.55	39.79
684.68	32.77
684.82	93.62
684.96	53.83
685.09	53.83
685.23	49.15
685.37	4.68
685.50	30.43
685.64	0.00
685.78	93.62
685.91	105.32
686.05	74.90
686.19	35.11
686.32	30.43
686.46	28.09
686.60	72.56
686.73	39.79
686.87	37.45
687.01	65.54
687.14	0.00
687.28	58.51
687.42	42.13
687.55	30.43
687.69	18.72
687.82	56.17
687.96	42.13
688.10	53.83
688.23	107.66
688.37	98.30
688.50	51.49
688.64	0.00
688.78	37.45
688.91	0.00
689.05	2.34
689.18	79.58
689.32	39.79
689.46	0.00
689.59	46.81
689.73	51.49
689.86	16.38
690.00	28.09
690.13	44.47
690.27	21.06
690.41	72.56
690.54	35.11
690.68	88.94
690.81	51.49
690.95	39.79
691.08	42.13
691.22	35.11
691.35	102.98
691.49	32.77
691.62	74.90
691.76	0.00
691.89	63.19
692.03	110.01
692.16	86.60
692.30	0.00
692.43	51.49
692.57	0.00
692.70	0.00
692.84	53.83
692.97	0.00
693.11	0.00
693.24	11.70
693.38	9.36
693.51	4.68
693.65	35.11
693.78	35.11
693.92	86.60
694.05	88.94
694.19	0.00
694.32	2.34
694.45	2.34
694.59	25.75
694.72	18.72
694.86	60.85
694.99	46.81
695.13	25.75
695.26	98.30
695.39	39.79
695.53	0.00
695.66	51.49
695.80	32.77
695.93	9.36
696.07	25.75
696.20	49.15
696.33	11.70
696.47	37.45
696.60	25.75
696.73	152.13
696.87	107.66
697.00	16.38
697.14	0.00
697.27	81.92
697.40	65.54
697.54	11.70
697.67	23.41
697.80	23.41
697.94	28.09
698.07	28.09
698.21	42.13
698.34	60.85
698.47	65.54
698.61	9.36
698.74	0.00
698.87	30.43
699.01	18.72
699.14	35.11
699.27	44.47
699.40	2.34
699.54	39.79
699.67	39.79
699.80	81.92
699.94	100.64
700.07	4.68
700.20	63.19
700.34	161.50
700.47	70.22
700.60	86.60
700.73	25.75
700.87	35.11
701.00	30.43
701.13	0.00
701.26	44.47
701.40	100.64
701.53	0.00
701.66	0.00
701.79	0.00
701.93	9.36
702.06	65.54
702.19	37.45
702.32	70.22
702.46	37.45
702.59	9.36
702.72	7.02
702.85	14.04
702.99	37.45
703.12	14.04
703.25	0.00
703.38	77.24
703.51	14.04
703.65	0.00
703.78	21.06
703.91	0.00
704.04	14.04
704.17	0.00
704.31	0.00
704.44	46.81
704.57	16.38
704.70	37.45
704.83	16.38
704.96	79.58
705.10	107.66
705.23	58.51
>>>>>End Processed Spectral Data<<<<<
