SpectraSuite Data File
++++++++++++++++++++++++++++++++++++
Date: Fri Oct 04 12:13:38 GMT-05:00 2013
User: price-jones
Dark Spectrum Present: No
Reference Spectrum Present: No
Number of Sampled Component Spectra: 1
Spectrometers: USB2+H05261
Integration Time (usec): 10000 (USB2+H05261)
Spectra Averaged: 1 (USB2+H05261)
Boxcar Smoothing: 0 (USB2+H05261)
Correct for Electrical Dark: No (USB2+H05261)
Strobe/Lamp Enabled: No (USB2+H05261)
Correct for Detector Non-linearity: No (USB2+H05261)
Correct for Stray Light: No (USB2+H05261)
Number of Pixels in Processed Spectrum: 2048
>>>>>Begin Processed Spectral Data<<<<<
365.73	0.00
365.92	0.00
366.12	0.00
366.32	0.00
366.52	0.00
366.72	0.00
366.91	0.00
367.11	0.00
367.31	0.00
367.51	0.00
367.70	0.00
367.90	0.00
368.10	0.00
368.30	0.00
368.49	0.00
368.69	0.00
368.89	0.00
369.09	0.00
369.28	0.00
369.48	0.00
369.68	0.00
369.87	0.00
370.07	0.00
370.27	0.00
370.47	0.00
370.66	0.00
370.86	0.00
371.06	0.00
371.25	0.00
371.45	2.34
371.65	0.00
371.84	0.00
372.04	18.72
372.24	0.00
372.44	16.38
372.63	0.00
372.83	30.43
373.03	16.38
373.22	28.09
373.42	0.00
373.62	4.68
373.81	0.00
374.01	46.81
374.21	63.19
374.40	46.81
374.60	58.51
374.79	79.58
374.99	51.49
375.19	84.26
375.38	51.49
375.58	46.81
375.78	53.83
375.97	53.83
376.17	42.13
376.37	4.68
376.56	25.75
376.76	0.00
376.95	21.06
377.15	0.00
377.35	18.72
377.54	44.47
377.74	37.45
377.93	133.41
378.13	63.19
378.33	25.75
378.52	63.19
378.72	46.81
378.91	30.43
379.11	4.68
379.31	63.19
379.50	7.02
379.70	0.00
379.89	0.00
380.09	0.00
380.28	21.06
380.48	46.81
380.68	0.00
380.87	44.47
381.07	0.00
381.26	9.36
381.46	37.45
381.65	0.00
381.85	42.13
382.04	0.00
382.24	42.13
382.43	7.02
382.63	0.00
382.83	9.36
383.02	2.34
383.22	0.00
383.41	65.54
383.61	0.00
383.80	11.70
384.00	30.43
384.19	121.71
384.39	0.00
384.58	0.00
384.78	18.72
384.97	28.09
385.17	0.00
385.36	2.34
385.56	16.38
385.75	42.13
385.95	2.34
386.14	65.54
386.34	0.00
386.53	46.81
386.72	28.09
386.92	0.00
387.11	25.75
387.31	53.83
387.50	2.34
387.70	107.66
387.89	2.34
388.09	44.47
388.28	0.00
388.48	72.56
388.67	0.00
388.86	35.11
389.06	0.00
389.25	0.00
389.45	0.00
389.64	21.06
389.84	0.00
390.03	77.24
390.22	9.36
390.42	0.00
390.61	51.49
390.81	21.06
391.00	21.06
391.19	18.72
391.39	42.13
391.58	0.00
391.78	32.77
391.97	39.79
392.16	39.79
392.36	32.77
392.55	65.54
392.75	0.00
392.94	44.47
393.13	16.38
393.33	51.49
393.52	16.38
393.71	0.00
393.91	63.19
394.10	28.09
394.29	46.81
394.49	49.15
394.68	30.43
394.88	37.45
395.07	16.38
395.26	0.00
395.46	49.15
395.65	11.70
395.84	14.04
396.04	65.54
396.23	0.00
396.42	0.00
396.62	77.24
396.81	32.77
397.00	44.47
397.19	65.54
397.39	39.79
397.58	49.15
397.77	56.17
397.97	7.02
398.16	39.79
398.35	25.75
398.55	53.83
398.74	14.04
398.93	4.68
399.12	70.22
399.32	39.79
399.51	0.00
399.70	67.88
399.90	51.49
400.09	0.00
400.28	0.00
400.47	21.06
400.67	42.13
400.86	23.41
401.05	0.00
401.24	0.00
401.44	44.47
401.63	63.19
401.82	25.75
402.01	4.68
402.21	70.22
402.40	49.15
402.59	9.36
402.78	37.45
402.97	28.09
403.17	18.72
403.36	91.28
403.55	7.02
403.74	67.88
403.93	60.85
404.13	0.00
404.32	21.06
404.51	39.79
404.70	56.17
404.89	51.49
405.09	0.00
405.28	0.00
405.47	102.98
405.66	67.88
405.85	0.00
406.05	72.56
406.24	79.58
406.43	58.51
406.62	39.79
406.81	51.49
407.00	4.68
407.20	65.54
407.39	95.96
407.58	9.36
407.77	37.45
407.96	53.83
408.15	70.22
408.34	77.24
408.54	44.47
408.73	39.79
408.92	46.81
409.11	18.72
409.30	30.43
409.49	100.64
409.68	74.90
409.87	30.43
410.07	49.15
410.26	0.00
410.45	72.56
410.64	79.58
410.83	2.34
411.02	0.00
411.21	35.11
411.40	70.22
411.59	37.45
411.78	0.00
411.98	0.00
412.17	58.51
412.36	98.30
412.55	11.70
412.74	42.13
412.93	0.00
413.12	67.88
413.31	60.85
413.50	49.15
413.69	0.00
413.88	65.54
414.07	58.51
414.26	0.00
414.45	58.51
414.64	0.00
414.83	0.00
415.02	60.85
415.22	35.11
415.41	72.56
415.60	7.02
415.79	0.00
415.98	0.00
416.17	0.00
416.36	63.19
416.55	25.75
416.74	28.09
416.93	65.54
417.12	72.56
417.31	4.68
417.50	110.01
417.69	21.06
417.88	93.62
418.07	28.09
418.26	0.00
418.45	14.04
418.64	28.09
418.83	93.62
419.02	25.75
419.21	95.96
419.39	0.00
419.58	81.92
419.77	25.75
419.96	107.66
420.15	0.00
420.34	67.88
420.53	121.71
420.72	42.13
420.91	63.19
421.10	4.68
421.29	86.60
421.48	18.72
421.67	32.77
421.86	4.68
422.05	35.11
422.24	28.09
422.43	46.81
422.61	23.41
422.80	65.54
422.99	0.00
423.18	63.19
423.37	91.28
423.56	107.66
423.75	51.49
423.94	23.41
424.13	63.19
424.32	81.92
424.50	23.41
424.69	53.83
424.88	30.43
425.07	56.17
425.26	25.75
425.45	84.26
425.64	119.37
425.83	74.90
426.01	63.19
426.20	60.85
426.39	7.02
426.58	42.13
426.77	11.70
426.96	93.62
427.15	35.11
427.33	42.13
427.52	0.00
427.71	21.06
427.90	86.60
428.09	28.09
428.28	9.36
428.46	63.19
428.65	53.83
428.84	28.09
429.03	79.58
429.22	28.09
429.40	7.02
429.59	25.75
429.78	46.81
429.97	9.36
430.16	74.90
430.34	9.36
430.53	79.58
430.72	51.49
430.91	98.30
431.10	2.34
431.28	58.51
431.47	0.00
431.66	63.19
431.85	46.81
432.03	77.24
432.22	51.49
432.41	9.36
432.60	32.77
432.79	70.22
432.97	0.00
433.16	51.49
433.35	72.56
433.54	0.00
433.72	9.36
433.91	18.72
434.10	2.34
434.28	88.94
434.47	95.96
434.66	0.00
434.85	18.72
435.03	49.15
435.22	77.24
435.41	37.45
435.59	81.92
435.78	35.11
435.97	51.49
436.16	0.00
436.34	30.43
436.53	0.00
436.72	0.00
436.90	102.98
437.09	7.02
437.28	30.43
437.46	39.79
437.65	88.94
437.84	86.60
438.02	56.17
438.21	65.54
438.40	30.43
438.58	67.88
438.77	39.79
438.96	65.54
439.14	65.54
439.33	53.83
439.52	16.38
439.70	21.06
439.89	0.00
440.08	67.88
440.26	0.00
440.45	53.83
440.63	11.70
440.82	28.09
441.01	112.35
441.19	105.32
441.38	79.58
441.57	18.72
441.75	84.26
441.94	105.32
442.12	95.96
442.31	0.00
442.50	49.15
442.68	0.00
442.87	114.69
443.05	14.04
443.24	23.41
443.43	25.75
443.61	56.17
443.80	2.34
443.98	79.58
444.17	84.26
444.35	93.62
444.54	84.26
444.73	91.28
444.91	60.85
445.10	79.58
445.28	14.04
445.47	63.19
445.65	51.49
445.84	37.45
446.02	0.00
446.21	30.43
446.39	4.68
446.58	32.77
446.77	110.01
446.95	0.00
447.14	86.60
447.32	67.88
447.51	63.19
447.69	9.36
447.88	53.83
448.06	77.24
448.25	72.56
448.43	11.70
448.62	0.00
448.80	79.58
448.99	63.19
449.17	21.06
449.36	67.88
449.54	95.96
449.73	18.72
449.91	32.77
450.10	37.45
450.28	86.60
450.46	70.22
450.65	117.03
450.83	77.24
451.02	105.32
451.20	39.79
451.39	105.32
451.57	39.79
451.76	39.79
451.94	49.15
452.13	21.06
452.31	56.17
452.49	32.77
452.68	114.69
452.86	60.85
453.05	46.81
453.23	42.13
453.42	49.15
453.60	105.32
453.78	112.35
453.97	56.17
454.15	70.22
454.34	86.60
454.52	42.13
454.70	84.26
454.89	28.09
455.07	23.41
455.26	77.24
455.44	21.06
455.62	72.56
455.81	53.83
455.99	117.03
456.17	95.96
456.36	56.17
456.54	84.26
456.73	16.38
456.91	53.83
457.09	63.19
457.28	65.54
457.46	23.41
457.64	51.49
457.83	49.15
458.01	0.00
458.19	72.56
458.38	91.28
458.56	53.83
458.74	39.79
458.93	70.22
459.11	70.22
459.29	112.35
459.48	77.24
459.66	37.45
459.84	67.88
460.03	42.13
460.21	60.85
460.39	121.71
460.57	56.17
460.76	121.71
460.94	14.04
461.12	46.81
461.31	58.51
461.49	98.30
461.67	39.79
461.85	53.83
462.04	77.24
462.22	140.43
462.40	11.70
462.59	53.83
462.77	74.90
462.95	0.00
463.13	119.37
463.32	39.79
463.50	112.35
463.68	77.24
463.86	56.17
464.05	42.13
464.23	44.47
464.41	79.58
464.59	14.04
464.78	28.09
464.96	28.09
465.14	117.03
465.32	56.17
465.50	98.30
465.69	86.60
465.87	14.04
466.05	28.09
466.23	60.85
466.41	67.88
466.60	58.51
466.78	124.05
466.96	112.35
467.14	51.49
467.32	37.45
467.51	86.60
467.69	51.49
467.87	58.51
468.05	0.00
468.23	56.17
468.41	37.45
468.60	72.56
468.78	110.01
468.96	60.85
469.14	77.24
469.32	49.15
469.50	70.22
469.69	16.38
469.87	42.13
470.05	0.00
470.23	72.56
470.41	84.26
470.59	63.19
470.77	70.22
470.95	77.24
471.14	72.56
471.32	72.56
471.50	60.85
471.68	81.92
471.86	74.90
472.04	135.75
472.22	51.49
472.40	0.00
472.58	14.04
472.77	77.24
472.95	0.00
473.13	28.09
473.31	16.38
473.49	86.60
473.67	86.60
473.85	105.32
474.03	0.00
474.21	16.38
474.39	72.56
474.57	86.60
474.75	0.00
474.93	72.56
475.12	107.66
475.30	100.64
475.48	0.00
475.66	67.88
475.84	84.26
476.02	39.79
476.20	131.07
476.38	49.15
476.56	98.30
476.74	102.98
476.92	25.75
477.10	0.00
477.28	58.51
477.46	70.22
477.64	112.35
477.82	95.96
478.00	0.00
478.18	0.00
478.36	63.19
478.54	42.13
478.72	30.43
478.90	93.62
479.08	63.19
479.26	63.19
479.44	16.38
479.62	37.45
479.80	100.64
479.98	51.49
480.16	18.72
480.34	0.00
480.52	25.75
480.70	86.60
480.88	79.58
481.06	93.62
481.24	110.01
481.41	81.92
481.59	121.71
481.77	126.39
481.95	28.09
482.13	25.75
482.31	46.81
482.49	56.17
482.67	121.71
482.85	25.75
483.03	67.88
483.21	32.77
483.39	32.77
483.57	44.47
483.74	63.19
483.92	86.60
484.10	60.85
484.28	117.03
484.46	72.56
484.64	58.51
484.82	79.58
485.00	30.43
485.18	11.70
485.35	70.22
485.53	35.11
485.71	23.41
485.89	30.43
486.07	0.00
486.25	35.11
486.43	53.83
486.61	0.00
486.78	135.75
486.96	79.58
487.14	37.45
487.32	81.92
487.50	84.26
487.68	91.28
487.85	46.81
488.03	37.45
488.21	138.09
488.39	49.15
488.57	126.39
488.75	39.79
488.92	154.48
489.10	51.49
489.28	77.24
489.46	77.24
489.64	53.83
489.81	77.24
489.99	28.09
490.17	37.45
490.35	88.94
490.53	95.96
490.70	84.26
490.88	84.26
491.06	121.71
491.24	56.17
491.41	91.28
491.59	28.09
491.77	53.83
491.95	100.64
492.13	51.49
492.30	63.19
492.48	9.36
492.66	67.88
492.84	51.49
493.01	70.22
493.19	95.96
493.37	72.56
493.54	14.04
493.72	102.98
493.90	98.30
494.08	86.60
494.25	11.70
494.43	110.01
494.61	14.04
494.79	63.19
494.96	46.81
495.14	53.83
495.32	21.06
495.49	77.24
495.67	65.54
495.85	112.35
496.02	86.60
496.20	79.58
496.38	77.24
496.55	107.66
496.73	51.49
496.91	105.32
497.09	88.94
497.26	142.77
497.44	117.03
497.62	128.73
497.79	65.54
497.97	0.00
498.14	72.56
498.32	67.88
498.50	74.90
498.67	74.90
498.85	84.26
499.03	44.47
499.20	81.92
499.38	119.37
499.56	86.60
499.73	2.34
499.91	72.56
500.08	44.47
500.26	60.85
500.44	44.47
500.61	56.17
500.79	53.83
500.97	105.32
501.14	175.54
501.32	65.54
501.49	18.72
501.67	46.81
501.84	65.54
502.02	32.77
502.20	114.69
502.37	124.05
502.55	117.03
502.72	65.54
502.90	0.00
503.07	56.17
503.25	60.85
503.43	84.26
503.60	79.58
503.78	32.77
503.95	74.90
504.13	173.20
504.30	77.24
504.48	105.32
504.65	65.54
504.83	51.49
505.01	114.69
505.18	126.39
505.36	145.11
505.53	35.11
505.71	67.88
505.88	84.26
506.06	39.79
506.23	65.54
506.41	53.83
506.58	56.17
506.76	95.96
506.93	30.43
507.11	42.13
507.28	74.90
507.46	58.51
507.63	23.41
507.81	74.90
507.98	49.15
508.16	138.09
508.33	107.66
508.50	119.37
508.68	100.64
508.85	91.28
509.03	65.54
509.20	2.34
509.38	70.22
509.55	67.88
509.73	86.60
509.90	63.19
510.08	128.73
510.25	65.54
510.42	124.05
510.60	60.85
510.77	0.00
510.95	74.90
511.12	102.98
511.30	77.24
511.47	44.47
511.64	100.64
511.82	81.92
511.99	4.68
512.17	79.58
512.34	79.58
512.51	98.30
512.69	105.32
512.86	77.24
513.04	49.15
513.21	110.01
513.38	77.24
513.56	60.85
513.73	86.60
513.90	72.56
514.08	107.66
514.25	77.24
514.43	154.48
514.60	100.64
514.77	74.90
514.95	128.73
515.12	58.51
515.29	51.49
515.47	77.24
515.64	142.77
515.81	53.83
515.99	51.49
516.16	74.90
516.33	39.79
516.51	84.26
516.68	110.01
516.85	0.00
517.03	46.81
517.20	126.39
517.37	81.92
517.54	81.92
517.72	112.35
517.89	81.92
518.06	63.19
518.24	107.66
518.41	81.92
518.58	117.03
518.75	28.09
518.93	72.56
519.10	93.62
519.27	88.94
519.45	93.62
519.62	98.30
519.79	147.45
519.96	74.90
520.14	93.62
520.31	105.32
520.48	72.56
520.65	91.28
520.83	84.26
521.00	32.77
521.17	63.19
521.34	63.19
521.52	86.60
521.69	91.28
521.86	102.98
522.03	72.56
522.20	25.75
522.38	79.58
522.55	67.88
522.72	65.54
522.89	121.71
523.07	56.17
523.24	30.43
523.41	32.77
523.58	107.66
523.75	30.43
523.92	46.81
524.10	105.32
524.27	0.00
524.44	72.56
524.61	46.81
524.78	86.60
524.96	74.90
525.13	121.71
525.30	42.13
525.47	93.62
525.64	74.90
525.81	166.18
525.98	140.43
526.16	86.60
526.33	117.03
526.50	77.24
526.67	95.96
526.84	110.01
527.01	84.26
527.18	102.98
527.36	128.73
527.53	114.69
527.70	32.77
527.87	42.13
528.04	39.79
528.21	138.09
528.38	100.64
528.55	93.62
528.72	138.09
528.89	67.88
529.07	86.60
529.24	0.00
529.41	11.70
529.58	30.43
529.75	128.73
529.92	131.07
530.09	112.35
530.26	49.15
530.43	86.60
530.60	102.98
530.77	112.35
530.94	25.75
531.11	49.15
531.28	102.98
531.46	117.03
531.63	46.81
531.80	72.56
531.97	135.75
532.14	37.45
532.31	114.69
532.48	44.47
532.65	107.66
532.82	128.73
532.99	51.49
533.16	93.62
533.33	184.90
533.50	77.24
533.67	58.51
533.84	126.39
534.01	79.58
534.18	86.60
534.35	100.64
534.52	128.73
534.69	131.07
534.86	56.17
535.03	77.24
535.20	16.38
535.37	67.88
535.54	67.88
535.71	35.11
535.88	60.85
536.05	58.51
536.22	98.30
536.38	39.79
536.55	23.41
536.72	32.77
536.89	56.17
537.06	84.26
537.23	39.79
537.40	77.24
537.57	67.88
537.74	70.22
537.91	42.13
538.08	88.94
538.25	44.47
538.42	86.60
538.59	60.85
538.75	117.03
538.92	168.52
539.09	126.39
539.26	21.06
539.43	152.13
539.60	60.85
539.77	44.47
539.94	119.37
540.11	110.01
540.28	86.60
540.44	124.05
540.61	93.62
540.78	112.35
540.95	70.22
541.12	91.28
541.29	126.39
541.46	110.01
541.62	53.83
541.79	98.30
541.96	53.83
542.13	117.03
542.30	63.19
542.47	44.47
542.63	91.28
542.80	138.09
542.97	147.45
543.14	93.62
543.31	100.64
543.48	98.30
543.64	51.49
543.81	39.79
543.98	63.19
544.15	67.88
544.32	88.94
544.48	145.11
544.65	51.49
544.82	53.83
544.99	88.94
545.16	93.62
545.32	112.35
545.49	60.85
545.66	100.64
545.83	166.18
546.00	138.09
546.16	81.92
546.33	35.11
546.50	51.49
546.67	60.85
546.83	72.56
547.00	145.11
547.17	107.66
547.34	126.39
547.50	4.68
547.67	84.26
547.84	128.73
548.00	154.48
548.17	65.54
548.34	110.01
548.51	30.43
548.67	105.32
548.84	112.35
549.01	166.18
549.18	23.41
549.34	81.92
549.51	86.60
549.68	93.62
549.84	11.70
550.01	81.92
550.18	124.05
550.34	0.00
550.51	49.15
550.68	84.26
550.84	95.96
551.01	35.11
551.18	119.37
551.34	114.69
551.51	112.35
551.68	142.77
551.84	119.37
552.01	67.88
552.18	14.04
552.34	70.22
552.51	88.94
552.68	100.64
552.84	91.28
553.01	88.94
553.18	74.90
553.34	124.05
553.51	0.00
553.67	156.82
553.84	100.64
554.01	23.41
554.17	46.81
554.34	156.82
554.51	79.58
554.67	105.32
554.84	152.13
555.00	124.05
555.17	79.58
555.33	49.15
555.50	112.35
555.67	63.19
555.83	65.54
556.00	91.28
556.16	88.94
556.33	95.96
556.50	0.00
556.66	67.88
556.83	112.35
556.99	60.85
557.16	133.41
557.32	70.22
557.49	112.35
557.65	53.83
557.82	65.54
557.98	21.06
558.15	86.60
558.32	72.56
558.48	98.30
558.65	105.32
558.81	131.07
558.98	79.58
559.14	110.01
559.31	74.90
559.47	35.11
559.64	98.30
559.80	105.32
559.97	60.85
560.13	51.49
560.30	60.85
560.46	84.26
560.63	100.64
560.79	0.00
560.96	84.26
561.12	46.81
561.29	30.43
561.45	107.66
561.61	11.70
561.78	32.77
561.94	67.88
562.11	131.07
562.27	39.79
562.44	124.05
562.60	138.09
562.77	21.06
562.93	67.88
563.10	140.43
563.26	70.22
563.42	112.35
563.59	98.30
563.75	77.24
563.92	161.50
564.08	126.39
564.24	46.81
564.41	14.04
564.57	95.96
564.74	81.92
564.90	168.52
565.07	51.49
565.23	112.35
565.39	72.56
565.56	67.88
565.72	42.13
565.88	114.69
566.05	53.83
566.21	131.07
566.38	93.62
566.54	74.90
566.70	135.75
566.87	133.41
567.03	138.09
567.19	168.52
567.36	100.64
567.52	93.62
567.68	93.62
567.85	84.26
568.01	105.32
568.17	149.79
568.34	46.81
568.50	95.96
568.66	16.38
568.83	58.51
568.99	25.75
569.15	74.90
569.32	100.64
569.48	105.32
569.64	79.58
569.81	18.72
569.97	135.75
570.13	63.19
570.30	74.90
570.46	60.85
570.62	60.85
570.78	9.36
570.95	42.13
571.11	63.19
571.27	16.38
571.43	117.03
571.60	21.06
571.76	102.98
571.92	86.60
572.09	77.24
572.25	21.06
572.41	70.22
572.57	107.66
572.74	117.03
572.90	79.58
573.06	42.13
573.22	74.90
573.38	53.83
573.55	91.28
573.71	65.54
573.87	86.60
574.03	74.90
574.20	58.51
574.36	53.83
574.52	124.05
574.68	133.41
574.84	67.88
575.01	72.56
575.17	58.51
575.33	67.88
575.49	107.66
575.65	51.49
575.82	18.72
575.98	44.47
576.14	187.24
576.30	74.90
576.46	105.32
576.62	84.26
576.79	77.24
576.95	74.90
577.11	79.58
577.27	114.69
577.43	28.09
577.59	205.97
577.75	88.94
577.92	91.28
578.08	77.24
578.24	105.32
578.40	81.92
578.56	53.83
578.72	18.72
578.88	93.62
579.04	138.09
579.21	37.45
579.37	70.22
579.53	107.66
579.69	95.96
579.85	154.48
580.01	86.60
580.17	138.09
580.33	28.09
580.49	114.69
580.65	79.58
580.82	119.37
580.98	56.17
581.14	58.51
581.30	51.49
581.46	18.72
581.62	53.83
581.78	21.06
581.94	53.83
582.10	88.94
582.26	86.60
582.42	79.58
582.58	93.62
582.74	49.15
582.90	117.03
583.06	100.64
583.22	60.85
583.38	79.58
583.54	121.71
583.70	107.66
583.86	91.28
584.02	56.17
584.18	65.54
584.34	112.35
584.50	81.92
584.66	21.06
584.82	2.34
584.98	126.39
585.14	72.56
585.30	35.11
585.46	21.06
585.62	30.43
585.78	105.32
585.94	53.83
586.10	105.32
586.26	28.09
586.42	74.90
586.58	72.56
586.74	93.62
586.90	58.51
587.06	110.01
587.22	107.66
587.38	98.30
587.54	46.81
587.70	58.51
587.86	91.28
588.02	16.38
588.18	46.81
588.34	51.49
588.49	35.11
588.65	25.75
588.81	58.51
588.97	49.15
589.13	84.26
589.29	30.43
589.45	95.96
589.61	51.49
589.77	72.56
589.93	93.62
590.08	30.43
590.24	110.01
590.40	74.90
590.56	39.79
590.72	28.09
590.88	86.60
591.04	51.49
591.20	77.24
591.35	74.90
591.51	56.17
591.67	39.79
591.83	93.62
591.99	102.98
592.15	32.77
592.31	117.03
592.46	30.43
592.62	105.32
592.78	100.64
592.94	128.73
593.10	32.77
593.26	21.06
593.41	117.03
593.57	79.58
593.73	46.81
593.89	138.09
594.05	49.15
594.20	65.54
594.36	39.79
594.52	28.09
594.68	46.81
594.84	105.32
594.99	74.90
595.15	21.06
595.31	67.88
595.47	32.77
595.62	32.77
595.78	58.51
595.94	74.90
596.10	46.81
596.25	102.98
596.41	119.37
596.57	145.11
596.73	49.15
596.88	91.28
597.04	107.66
597.20	79.58
597.36	88.94
597.51	110.01
597.67	67.88
597.83	91.28
597.99	102.98
598.14	65.54
598.30	18.72
598.46	84.26
598.61	88.94
598.77	79.58
598.93	0.00
599.09	88.94
599.24	74.90
599.40	74.90
599.56	67.88
599.71	117.03
599.87	49.15
600.03	77.24
600.18	100.64
600.34	65.54
600.50	81.92
600.65	91.28
600.81	93.62
600.97	35.11
601.12	25.75
601.28	140.43
601.44	86.60
601.59	98.30
601.75	46.81
601.91	0.00
602.06	30.43
602.22	39.79
602.37	42.13
602.53	98.30
602.69	28.09
602.84	56.17
603.00	49.15
603.16	35.11
603.31	102.98
603.47	119.37
603.62	128.73
603.78	70.22
603.94	28.09
604.09	100.64
604.25	107.66
604.40	56.17
604.56	37.45
604.71	28.09
604.87	86.60
605.03	114.69
605.18	74.90
605.34	32.77
605.49	35.11
605.65	67.88
605.80	65.54
605.96	88.94
606.12	37.45
606.27	138.09
606.43	70.22
606.58	107.66
606.74	74.90
606.89	135.75
607.05	28.09
607.20	105.32
607.36	56.17
607.51	30.43
607.67	65.54
607.82	105.32
607.98	81.92
608.13	95.96
608.29	93.62
608.44	91.28
608.60	16.38
608.75	65.54
608.91	119.37
609.06	121.71
609.22	58.51
609.37	7.02
609.53	112.35
609.68	35.11
609.84	65.54
609.99	11.70
610.15	77.24
610.30	0.00
610.46	0.00
610.61	0.00
610.76	110.01
610.92	140.43
611.07	49.15
611.23	56.17
611.38	119.37
611.54	51.49
611.69	30.43
611.84	58.51
612.00	140.43
612.15	53.83
612.31	11.70
612.46	86.60
612.62	79.58
612.77	93.62
612.92	79.58
613.08	112.35
613.23	42.13
613.39	30.43
613.54	88.94
613.69	56.17
613.85	152.13
614.00	32.77
614.15	0.00
614.31	4.68
614.46	44.47
614.62	114.69
614.77	21.06
614.92	142.77
615.08	79.58
615.23	72.56
615.38	56.17
615.54	95.96
615.69	56.17
615.84	18.72
616.00	84.26
616.15	16.38
616.30	39.79
616.46	88.94
616.61	65.54
616.76	46.81
616.92	58.51
617.07	51.49
617.22	117.03
617.37	46.81
617.53	39.79
617.68	98.30
617.83	63.19
617.99	0.00
618.14	100.64
618.29	35.11
618.45	25.75
618.60	72.56
618.75	105.32
618.90	9.36
619.06	84.26
619.21	154.48
619.36	112.35
619.51	42.13
619.67	117.03
619.82	58.51
619.97	60.85
620.12	145.11
620.28	37.45
620.43	37.45
620.58	2.34
620.73	37.45
620.89	135.75
621.04	46.81
621.19	30.43
621.34	58.51
621.49	23.41
621.65	63.19
621.80	56.17
621.95	114.69
622.10	46.81
622.25	84.26
622.41	25.75
622.56	84.26
622.71	117.03
622.86	74.90
623.01	102.98
623.16	91.28
623.32	35.11
623.47	81.92
623.62	124.05
623.77	128.73
623.92	53.83
624.07	84.26
624.23	44.47
624.38	79.58
624.53	0.00
624.68	74.90
624.83	14.04
624.98	21.06
625.13	65.54
625.29	44.47
625.44	56.17
625.59	2.34
625.74	42.13
625.89	70.22
626.04	60.85
626.19	0.00
626.34	79.58
626.49	30.43
626.65	60.85
626.80	14.04
626.95	32.77
627.10	93.62
627.25	114.69
627.40	28.09
627.55	105.32
627.70	0.00
627.85	84.26
628.00	39.79
628.15	23.41
628.30	0.00
628.45	70.22
628.60	74.90
628.76	77.24
628.91	39.79
629.06	28.09
629.21	74.90
629.36	35.11
629.51	102.98
629.66	51.49
629.81	91.28
629.96	53.83
630.11	88.94
630.26	81.92
630.41	35.11
630.56	4.68
630.71	11.70
630.86	65.54
631.01	53.83
631.16	119.37
631.31	77.24
631.46	91.28
631.61	28.09
631.76	42.13
631.91	98.30
632.06	95.96
632.21	0.00
632.36	42.13
632.51	60.85
632.66	70.22
632.81	0.00
632.96	63.19
633.10	11.70
633.25	46.81
633.40	9.36
633.55	18.72
633.70	30.43
633.85	77.24
634.00	46.81
634.15	58.51
634.30	152.13
634.45	2.34
634.60	63.19
634.75	51.49
634.90	42.13
635.05	51.49
635.19	46.81
635.34	107.66
635.49	91.28
635.64	28.09
635.79	0.00
635.94	91.28
636.09	44.47
636.24	88.94
636.39	53.83
636.53	4.68
636.68	81.92
636.83	102.98
636.98	0.00
637.13	65.54
637.28	16.38
637.43	42.13
637.57	37.45
637.72	42.13
637.87	25.75
638.02	58.51
638.17	133.41
638.32	44.47
638.46	44.47
638.61	65.54
638.76	72.56
638.91	37.45
639.06	49.15
639.20	93.62
639.35	46.81
639.50	156.82
639.65	77.24
639.80	2.34
639.94	58.51
640.09	65.54
640.24	35.11
640.39	32.77
640.54	86.60
640.68	112.35
640.83	117.03
640.98	18.72
641.13	56.17
641.27	11.70
641.42	30.43
641.57	65.54
641.72	44.47
641.86	74.90
642.01	81.92
642.16	67.88
642.31	58.51
642.45	88.94
642.60	100.64
642.75	30.43
642.90	37.45
643.04	74.90
643.19	42.13
643.34	25.75
643.48	51.49
643.63	93.62
643.78	67.88
643.93	46.81
644.07	56.17
644.22	60.85
644.37	105.32
644.51	60.85
644.66	95.96
644.81	56.17
644.95	70.22
645.10	91.28
645.25	14.04
645.39	67.88
645.54	18.72
645.69	91.28
645.83	124.05
645.98	95.96
646.13	37.45
646.27	14.04
646.42	42.13
646.57	119.37
646.71	79.58
646.86	44.47
647.00	86.60
647.15	0.00
647.30	58.51
647.44	117.03
647.59	44.47
647.74	51.49
647.88	70.22
648.03	37.45
648.17	65.54
648.32	88.94
648.47	44.47
648.61	56.17
648.76	58.51
648.90	84.26
649.05	23.41
649.20	46.81
649.34	67.88
649.49	105.32
649.63	28.09
649.78	98.30
649.92	56.17
650.07	4.68
650.21	51.49
650.36	42.13
650.51	147.45
650.65	88.94
650.80	81.92
650.94	56.17
651.09	23.41
651.23	114.69
651.38	86.60
651.52	46.81
651.67	0.00
651.81	42.13
651.96	88.94
652.10	124.05
652.25	53.83
652.39	42.13
652.54	32.77
652.68	28.09
652.83	39.79
652.97	0.00
653.12	63.19
653.26	98.30
653.41	11.70
653.55	58.51
653.70	11.70
653.84	65.54
653.99	46.81
654.13	49.15
654.27	60.85
654.42	35.11
654.56	93.62
654.71	32.77
654.85	0.00
655.00	63.19
655.14	0.00
655.29	23.41
655.43	95.96
655.57	25.75
655.72	23.41
655.86	7.02
656.01	79.58
656.15	30.43
656.30	93.62
656.44	0.00
656.58	2.34
656.73	81.92
656.87	88.94
657.01	44.47
657.16	7.02
657.30	60.85
657.45	95.96
657.59	53.83
657.73	42.13
657.88	0.00
658.02	119.37
658.16	39.79
658.31	72.56
658.45	135.75
658.60	81.92
658.74	65.54
658.88	25.75
659.03	0.00
659.17	18.72
659.31	46.81
659.46	0.00
659.60	0.00
659.74	30.43
659.89	21.06
660.03	70.22
660.17	53.83
660.32	51.49
660.46	124.05
660.60	142.77
660.74	77.24
660.89	23.41
661.03	84.26
661.17	65.54
661.32	46.81
661.46	4.68
661.60	84.26
661.74	81.92
661.89	117.03
662.03	93.62
662.17	74.90
662.31	46.81
662.46	32.77
662.60	42.13
662.74	46.81
662.88	88.94
663.03	0.00
663.17	23.41
663.31	39.79
663.45	28.09
663.60	0.00
663.74	0.00
663.88	18.72
664.02	58.51
664.17	93.62
664.31	18.72
664.45	65.54
664.59	11.70
664.73	79.58
664.88	105.32
665.02	30.43
665.16	18.72
665.30	63.19
665.44	49.15
665.59	23.41
665.73	21.06
665.87	91.28
666.01	37.45
666.15	42.13
666.29	86.60
666.44	46.81
666.58	70.22
666.72	0.00
666.86	18.72
667.00	28.09
667.14	23.41
667.28	95.96
667.43	2.34
667.57	16.38
667.71	4.68
667.85	81.92
667.99	23.41
668.13	42.13
668.27	72.56
668.41	51.49
668.56	51.49
668.70	49.15
668.84	7.02
668.98	30.43
669.12	0.00
669.26	32.77
669.40	49.15
669.54	121.71
669.68	37.45
669.82	65.54
669.96	42.13
670.10	65.54
670.25	7.02
670.39	35.11
670.53	42.13
670.67	18.72
670.81	63.19
670.95	91.28
671.09	4.68
671.23	32.77
671.37	58.51
671.51	51.49
671.65	23.41
671.79	39.79
671.93	0.00
672.07	74.90
672.21	58.51
672.35	56.17
672.49	56.17
672.63	49.15
672.77	9.36
672.91	70.22
673.05	23.41
673.19	77.24
673.33	0.00
673.47	0.00
673.61	0.00
673.75	0.00
673.89	0.00
674.03	39.79
674.17	0.00
674.31	51.49
674.45	100.64
674.59	51.49
674.73	30.43
674.87	56.17
675.01	21.06
675.15	51.49
675.29	42.13
675.43	39.79
675.56	63.19
675.70	9.36
675.84	65.54
675.98	0.00
676.12	25.75
676.26	4.68
676.40	60.85
676.54	0.00
676.68	131.07
676.82	9.36
676.96	23.41
677.10	0.00
677.23	70.22
677.37	11.70
677.51	72.56
677.65	84.26
677.79	2.34
677.93	67.88
678.07	117.03
678.21	58.51
678.34	49.15
678.48	79.58
678.62	35.11
678.76	16.38
678.90	39.79
679.04	63.19
679.18	14.04
679.31	98.30
679.45	65.54
679.59	0.00
679.73	21.06
679.87	0.00
680.00	0.00
680.14	74.90
680.28	88.94
680.42	133.41
680.56	37.45
680.70	35.11
680.83	110.01
680.97	37.45
681.11	0.00
681.25	0.00
681.39	25.75
681.52	51.49
681.66	39.79
681.80	28.09
681.94	58.51
682.07	72.56
682.21	32.77
682.35	11.70
682.49	37.45
682.62	51.49
682.76	23.41
682.90	140.43
683.04	42.13
683.17	21.06
683.31	42.13
683.45	72.56
683.59	35.11
683.72	49.15
683.86	77.24
684.00	100.64
684.13	32.77
684.27	98.30
684.41	42.13
684.55	32.77
684.68	0.00
684.82	72.56
684.96	46.81
685.09	14.04
685.23	39.79
685.37	91.28
685.50	63.19
685.64	70.22
685.78	39.79
685.91	0.00
686.05	9.36
686.19	21.06
686.32	16.38
686.46	44.47
686.60	0.00
686.73	63.19
686.87	39.79
687.01	2.34
687.14	51.49
687.28	107.66
687.42	0.00
687.55	51.49
687.69	135.75
687.82	16.38
687.96	14.04
688.10	84.26
688.23	44.47
688.37	0.00
688.50	0.00
688.64	9.36
688.78	11.70
688.91	60.85
689.05	46.81
689.18	81.92
689.32	2.34
689.46	4.68
689.59	25.75
689.73	60.85
689.86	56.17
690.00	79.58
690.13	44.47
690.27	28.09
690.41	23.41
690.54	11.70
690.68	86.60
690.81	23.41
690.95	67.88
691.08	11.70
691.22	7.02
691.35	60.85
691.49	39.79
691.62	44.47
691.76	70.22
691.89	65.54
692.03	84.26
692.16	23.41
692.30	0.00
692.43	56.17
692.57	74.90
692.70	56.17
692.84	42.13
692.97	2.34
693.11	21.06
693.24	21.06
693.38	100.64
693.51	32.77
693.65	18.72
693.78	79.58
693.92	63.19
694.05	30.43
694.19	117.03
694.32	86.60
694.45	58.51
694.59	49.15
694.72	0.00
694.86	28.09
694.99	0.00
695.13	23.41
695.26	44.47
695.39	44.47
695.53	39.79
695.66	77.24
695.80	86.60
695.93	72.56
696.07	39.79
696.20	18.72
696.33	121.71
696.47	81.92
696.60	49.15
696.73	42.13
696.87	133.41
697.00	60.85
697.14	4.68
697.27	56.17
697.40	51.49
697.54	11.70
697.67	4.68
697.80	21.06
697.94	39.79
698.07	86.60
698.21	25.75
698.34	86.60
698.47	37.45
698.61	128.73
698.74	28.09
698.87	72.56
699.01	9.36
699.14	0.00
699.27	30.43
699.40	70.22
699.54	30.43
699.67	60.85
699.80	0.00
699.94	18.72
700.07	51.49
700.20	86.60
700.34	7.02
700.47	21.06
700.60	53.83
700.73	53.83
700.87	131.07
701.00	21.06
701.13	7.02
701.26	0.00
701.40	46.81
701.53	86.60
701.66	30.43
701.79	0.00
701.93	0.00
702.06	51.49
702.19	21.06
702.32	21.06
702.46	0.00
702.59	18.72
702.72	9.36
702.85	86.60
702.99	51.49
703.12	60.85
703.25	93.62
703.38	72.56
703.51	51.49
703.65	53.83
703.78	44.47
703.91	23.41
704.04	49.15
704.17	58.51
704.31	0.00
704.44	9.36
704.57	0.00
704.70	30.43
704.83	4.68
704.96	16.38
705.10	49.15
705.23	70.22
>>>>>End Processed Spectral Data<<<<<
