SpectraSuite Data File
++++++++++++++++++++++++++++++++++++
Date: Tue Oct 01 18:25:12 GMT-05:00 2013
User: stostad
Dark Spectrum Present: No
Reference Spectrum Present: No
Number of Sampled Component Spectra: 1
Spectrometers: USB2+H05261
Integration Time (usec): 100000 (USB2+H05261)
Spectra Averaged: 1 (USB2+H05261)
Boxcar Smoothing: 0 (USB2+H05261)
Correct for Electrical Dark: No (USB2+H05261)
Strobe/Lamp Enabled: No (USB2+H05261)
Correct for Detector Non-linearity: No (USB2+H05261)
Correct for Stray Light: No (USB2+H05261)
Number of Pixels in Processed Spectrum: 2048
>>>>>Begin Processed Spectral Data<<<<<
365.73	28.09
365.92	28.09
366.12	28.09
366.32	0.00
366.52	0.00
366.72	0.00
366.91	0.00
367.11	0.00
367.31	9.36
367.51	2.34
367.70	0.00
367.90	0.00
368.10	0.00
368.30	0.00
368.49	0.00
368.69	7.02
368.89	32.77
369.09	0.00
369.28	16.38
369.48	35.11
369.68	42.13
369.87	7.02
370.07	51.49
370.27	86.60
370.47	46.81
370.66	42.13
370.86	53.83
371.06	95.96
371.25	156.82
371.45	70.22
371.65	107.66
371.84	110.01
372.04	131.07
372.24	138.09
372.44	117.03
372.63	88.94
372.83	184.90
373.03	98.30
373.22	196.60
373.42	112.35
373.62	140.43
373.81	135.75
374.01	135.75
374.21	168.52
374.40	145.11
374.60	220.01
374.79	182.56
374.99	184.90
375.19	168.52
375.38	140.43
375.58	175.54
375.78	138.09
375.97	154.48
376.17	182.56
376.37	147.45
376.56	180.22
376.76	175.54
376.95	121.71
377.15	166.18
377.35	145.11
377.54	156.82
377.74	119.37
377.93	86.60
378.13	145.11
378.33	238.73
378.52	133.41
378.72	142.77
378.91	159.16
379.11	135.75
379.31	131.07
379.50	67.88
379.70	72.56
379.89	100.64
380.09	114.69
380.28	163.84
380.48	154.48
380.68	98.30
380.87	126.39
381.07	180.22
381.26	166.18
381.46	196.60
381.65	170.86
381.85	117.03
382.04	154.48
382.24	229.37
382.43	110.01
382.63	114.69
382.83	159.16
383.02	168.52
383.22	161.50
383.41	84.26
383.61	124.05
383.80	131.07
384.00	180.22
384.19	131.07
384.39	154.48
384.58	175.54
384.78	201.29
384.97	79.58
385.17	154.48
385.36	81.92
385.56	154.48
385.75	133.41
385.95	156.82
386.14	100.64
386.34	142.77
386.53	168.52
386.72	142.77
386.92	126.39
387.11	79.58
387.31	201.29
387.50	154.48
387.70	53.83
387.89	163.84
388.09	147.45
388.28	159.16
388.48	56.17
388.67	177.88
388.86	28.09
389.06	93.62
389.25	166.18
389.45	182.56
389.64	84.26
389.84	241.08
390.03	145.11
390.22	102.98
390.42	138.09
390.61	138.09
390.81	65.54
391.00	81.92
391.19	163.84
391.39	72.56
391.58	149.79
391.78	119.37
391.97	126.39
392.16	152.13
392.36	100.64
392.55	224.69
392.75	88.94
392.94	67.88
393.13	133.41
393.33	112.35
393.52	91.28
393.71	194.26
393.91	131.07
394.10	126.39
394.29	81.92
394.49	182.56
394.68	222.35
394.88	182.56
395.07	166.18
395.26	124.05
395.46	102.98
395.65	126.39
395.84	91.28
396.04	177.88
396.23	77.24
396.42	112.35
396.62	112.35
396.81	98.30
397.00	133.41
397.19	119.37
397.39	177.88
397.58	98.30
397.77	74.90
397.97	154.48
398.16	77.24
398.35	168.52
398.55	60.85
398.74	142.77
398.93	98.30
399.12	98.30
399.32	105.32
399.51	163.84
399.70	154.48
399.90	133.41
400.09	95.96
400.28	168.52
400.47	138.09
400.67	93.62
400.86	135.75
401.05	88.94
401.24	112.35
401.44	147.45
401.63	42.13
401.82	145.11
402.01	119.37
402.21	110.01
402.40	88.94
402.59	133.41
402.78	114.69
402.97	119.37
403.17	152.13
403.36	112.35
403.55	105.32
403.74	149.79
403.93	210.65
404.13	227.03
404.32	133.41
404.51	77.24
404.70	112.35
404.89	98.30
405.09	173.20
405.28	117.03
405.47	77.24
405.66	149.79
405.85	149.79
406.05	227.03
406.24	102.98
406.43	135.75
406.62	142.77
406.81	203.63
407.00	159.16
407.20	152.13
407.39	166.18
407.58	121.71
407.77	161.50
407.96	135.75
408.15	159.16
408.34	145.11
408.54	140.43
408.73	166.18
408.92	88.94
409.11	42.13
409.30	142.77
409.49	114.69
409.68	147.45
409.87	84.26
410.07	161.50
410.26	81.92
410.45	121.71
410.64	72.56
410.83	133.41
411.02	128.73
411.21	88.94
411.40	91.28
411.59	119.37
411.78	131.07
411.98	112.35
412.17	161.50
412.36	187.24
412.55	131.07
412.74	138.09
412.93	121.71
413.12	114.69
413.31	154.48
413.50	121.71
413.69	91.28
413.88	142.77
414.07	114.69
414.26	159.16
414.45	93.62
414.64	105.32
414.83	126.39
415.02	95.96
415.22	170.86
415.41	205.97
415.60	156.82
415.79	201.29
415.98	198.95
416.17	168.52
416.36	112.35
416.55	189.58
416.74	114.69
416.93	196.60
417.12	191.92
417.31	154.48
417.50	159.16
417.69	152.13
417.88	91.28
418.07	196.60
418.26	145.11
418.45	145.11
418.64	259.80
418.83	170.86
419.02	88.94
419.21	105.32
419.39	149.79
419.58	112.35
419.77	196.60
419.96	196.60
420.15	67.88
420.34	93.62
420.53	102.98
420.72	168.52
420.91	105.32
421.10	175.54
421.29	184.90
421.48	147.45
421.67	131.07
421.86	152.13
422.05	114.69
422.24	142.77
422.43	149.79
422.61	112.35
422.80	105.32
422.99	147.45
423.18	112.35
423.37	220.01
423.56	131.07
423.75	100.64
423.94	177.88
424.13	177.88
424.32	65.54
424.50	175.54
424.69	166.18
424.88	161.50
425.07	81.92
425.26	180.22
425.45	149.79
425.64	198.95
425.83	177.88
426.01	154.48
426.20	175.54
426.39	138.09
426.58	182.56
426.77	140.43
426.96	159.16
427.15	198.95
427.33	138.09
427.52	163.84
427.71	161.50
427.90	142.77
428.09	93.62
428.28	163.84
428.46	173.20
428.65	112.35
428.84	133.41
429.03	175.54
429.22	147.45
429.40	93.62
429.59	117.03
429.78	212.99
429.97	112.35
430.16	77.24
430.34	149.79
430.53	110.01
430.72	86.60
430.91	173.20
431.10	100.64
431.28	140.43
431.47	166.18
431.66	187.24
431.85	124.05
432.03	67.88
432.22	212.99
432.41	105.32
432.60	102.98
432.79	133.41
432.97	187.24
433.16	234.05
433.35	163.84
433.54	154.48
433.72	180.22
433.91	170.86
434.10	156.82
434.28	107.66
434.47	201.29
434.66	159.16
434.85	117.03
435.03	98.30
435.22	142.77
435.41	187.24
435.59	112.35
435.78	189.58
435.97	210.65
436.16	152.13
436.34	152.13
436.53	91.28
436.72	131.07
436.90	203.63
437.09	173.20
437.28	88.94
437.46	51.49
437.65	156.82
437.84	142.77
438.02	133.41
438.21	121.71
438.40	100.64
438.58	93.62
438.77	121.71
438.96	156.82
439.14	100.64
439.33	126.39
439.52	229.37
439.70	124.05
439.89	175.54
440.08	170.86
440.26	98.30
440.45	147.45
440.63	161.50
440.82	119.37
441.01	154.48
441.19	138.09
441.38	133.41
441.57	175.54
441.75	194.26
441.94	126.39
442.12	208.31
442.31	152.13
442.50	124.05
442.68	107.66
442.87	60.85
443.05	56.17
443.24	161.50
443.43	170.86
443.61	194.26
443.80	128.73
443.98	102.98
444.17	163.84
444.35	215.33
444.54	110.01
444.73	191.92
444.91	93.62
445.10	140.43
445.28	100.64
445.47	180.22
445.65	133.41
445.84	114.69
446.02	93.62
446.21	168.52
446.39	152.13
446.58	138.09
446.77	163.84
446.95	105.32
447.14	107.66
447.32	173.20
447.51	142.77
447.69	140.43
447.88	124.05
448.06	126.39
448.25	128.73
448.43	152.13
448.62	159.16
448.80	95.96
448.99	163.84
449.17	159.16
449.36	107.66
449.54	189.58
449.73	119.37
449.91	180.22
450.10	98.30
450.28	227.03
450.46	142.77
450.65	93.62
450.83	241.08
451.02	166.18
451.20	121.71
451.39	222.35
451.57	196.60
451.76	126.39
451.94	105.32
452.13	234.05
452.31	119.37
452.49	154.48
452.68	170.86
452.86	119.37
453.05	154.48
453.23	175.54
453.42	51.49
453.60	119.37
453.78	173.20
453.97	107.66
454.15	156.82
454.34	135.75
454.52	131.07
454.70	217.67
454.89	194.26
455.07	67.88
455.26	161.50
455.44	74.90
455.62	159.16
455.81	196.60
455.99	194.26
456.17	184.90
456.36	159.16
456.54	81.92
456.73	112.35
456.91	95.96
457.09	208.31
457.28	156.82
457.46	166.18
457.64	177.88
457.83	166.18
458.01	124.05
458.19	126.39
458.38	154.48
458.56	98.30
458.74	98.30
458.93	105.32
459.11	159.16
459.29	187.24
459.48	161.50
459.66	189.58
459.84	124.05
460.03	203.63
460.21	191.92
460.39	124.05
460.57	168.52
460.76	196.60
460.94	177.88
461.12	173.20
461.31	220.01
461.49	133.41
461.67	161.50
461.85	201.29
462.04	170.86
462.22	559.39
462.40	93.62
462.59	159.16
462.77	168.52
462.95	196.60
463.13	138.09
463.32	105.32
463.50	133.41
463.68	128.73
463.86	128.73
464.05	180.22
464.23	131.07
464.41	159.16
464.59	102.98
464.78	110.01
464.96	98.30
465.14	184.90
465.32	128.73
465.50	173.20
465.69	191.92
465.87	131.07
466.05	156.82
466.23	95.96
466.41	147.45
466.60	138.09
466.78	100.64
466.96	191.92
467.14	126.39
467.32	191.92
467.51	163.84
467.69	102.98
467.87	175.54
468.05	95.96
468.23	173.20
468.41	102.98
468.60	128.73
468.78	154.48
468.96	142.77
469.14	156.82
469.32	152.13
469.50	138.09
469.69	189.58
469.87	67.88
470.05	201.29
470.23	121.71
470.41	163.84
470.59	175.54
470.77	196.60
470.95	187.24
471.14	201.29
471.32	128.73
471.50	175.54
471.68	168.52
471.86	156.82
472.04	86.60
472.22	154.48
472.40	72.56
472.58	86.60
472.77	53.83
472.95	128.73
473.13	152.13
473.31	117.03
473.49	187.24
473.67	147.45
473.85	128.73
474.03	117.03
474.21	154.48
474.39	147.45
474.57	191.92
474.75	170.86
474.93	114.69
475.12	53.83
475.30	170.86
475.48	184.90
475.66	154.48
475.84	124.05
476.02	163.84
476.20	105.32
476.38	117.03
476.56	210.65
476.74	184.90
476.92	56.17
477.10	98.30
477.28	180.22
477.46	182.56
477.64	112.35
477.82	121.71
478.00	102.98
478.18	86.60
478.36	135.75
478.54	91.28
478.72	161.50
478.90	210.65
479.08	180.22
479.26	138.09
479.44	114.69
479.62	114.69
479.80	180.22
479.98	128.73
480.16	63.19
480.34	149.79
480.52	86.60
480.70	175.54
480.88	98.30
481.06	154.48
481.24	114.69
481.41	145.11
481.59	124.05
481.77	177.88
481.95	187.24
482.13	196.60
482.31	74.90
482.49	156.82
482.67	102.98
482.85	117.03
483.03	58.51
483.21	189.58
483.39	37.45
483.57	56.17
483.74	91.28
483.92	173.20
484.10	114.69
484.28	124.05
484.46	227.03
484.64	119.37
484.82	93.62
485.00	105.32
485.18	140.43
485.35	112.35
485.53	142.77
485.71	201.29
485.89	98.30
486.07	105.32
486.25	170.86
486.43	121.71
486.61	159.16
486.78	133.41
486.96	135.75
487.14	189.58
487.32	140.43
487.50	119.37
487.68	264.48
487.85	112.35
488.03	117.03
488.21	163.84
488.39	173.20
488.57	142.77
488.75	142.77
488.92	241.08
489.10	173.20
489.28	196.60
489.46	100.64
489.64	77.24
489.81	114.69
489.99	184.90
490.17	159.16
490.35	248.10
490.53	100.64
490.70	119.37
490.88	147.45
491.06	140.43
491.24	229.37
491.41	156.82
491.59	175.54
491.77	147.45
491.95	117.03
492.13	128.73
492.30	177.88
492.48	105.32
492.66	133.41
492.84	154.48
493.01	140.43
493.19	121.71
493.37	196.60
493.54	156.82
493.72	156.82
493.90	142.77
494.08	110.01
494.25	142.77
494.43	163.84
494.61	110.01
494.79	135.75
494.96	84.26
495.14	88.94
495.32	93.62
495.49	205.97
495.67	138.09
495.85	110.01
496.02	173.20
496.20	138.09
496.38	74.90
496.55	100.64
496.73	182.56
496.91	159.16
497.09	217.67
497.26	102.98
497.44	105.32
497.62	110.01
497.79	105.32
497.97	142.77
498.14	138.09
498.32	88.94
498.50	196.60
498.67	170.86
498.85	133.41
499.03	159.16
499.20	84.26
499.38	119.37
499.56	147.45
499.73	159.16
499.91	177.88
500.08	95.96
500.26	175.54
500.44	124.05
500.61	128.73
500.79	77.24
500.97	222.35
501.14	210.65
501.32	131.07
501.49	196.60
501.67	110.01
501.84	152.13
502.02	140.43
502.20	128.73
502.37	156.82
502.55	114.69
502.72	189.58
502.90	177.88
503.07	138.09
503.25	154.48
503.43	105.32
503.60	154.48
503.78	145.11
503.95	126.39
504.13	56.17
504.30	182.56
504.48	175.54
504.65	182.56
504.83	182.56
505.01	147.45
505.18	145.11
505.36	74.90
505.53	128.73
505.71	117.03
505.88	117.03
506.06	128.73
506.23	107.66
506.41	156.82
506.58	159.16
506.76	126.39
506.93	93.62
507.11	168.52
507.28	93.62
507.46	170.86
507.63	198.95
507.81	140.43
507.98	191.92
508.16	177.88
508.33	131.07
508.50	149.79
508.68	142.77
508.85	170.86
509.03	135.75
509.20	147.45
509.38	110.01
509.55	168.52
509.73	152.13
509.90	212.99
510.08	121.71
510.25	149.79
510.42	88.94
510.60	149.79
510.77	128.73
510.95	210.65
511.12	117.03
511.30	135.75
511.47	196.60
511.64	208.31
511.82	147.45
511.99	72.56
512.17	173.20
512.34	110.01
512.51	100.64
512.69	163.84
512.86	161.50
513.04	175.54
513.21	126.39
513.38	131.07
513.56	105.32
513.73	198.95
513.90	95.96
514.08	102.98
514.25	194.26
514.43	222.35
514.60	191.92
514.77	208.31
514.95	147.45
515.12	166.18
515.29	184.90
515.47	170.86
515.64	112.35
515.81	163.84
515.99	152.13
516.16	163.84
516.33	238.73
516.51	154.48
516.68	105.32
516.85	98.30
517.03	117.03
517.20	191.92
517.37	149.79
517.54	180.22
517.72	173.20
517.89	184.90
518.06	175.54
518.24	177.88
518.41	255.12
518.58	189.58
518.75	187.24
518.93	198.95
519.10	152.13
519.27	142.77
519.45	147.45
519.62	128.73
519.79	203.63
519.96	131.07
520.14	217.67
520.31	128.73
520.48	182.56
520.65	152.13
520.83	194.26
521.00	187.24
521.17	205.97
521.34	91.28
521.52	145.11
521.69	105.32
521.86	184.90
522.03	142.77
522.20	191.92
522.38	131.07
522.55	105.32
522.72	133.41
522.89	159.16
523.07	248.10
523.24	81.92
523.41	81.92
523.58	187.24
523.75	177.88
523.92	74.90
524.10	168.52
524.27	156.82
524.44	133.41
524.61	168.52
524.78	182.56
524.96	156.82
525.13	154.48
525.30	234.05
525.47	112.35
525.64	110.01
525.81	124.05
525.98	189.58
526.16	100.64
526.33	177.88
526.50	65.54
526.67	142.77
526.84	42.13
527.01	126.39
527.18	79.58
527.36	147.45
527.53	128.73
527.70	201.29
527.87	152.13
528.04	184.90
528.21	70.22
528.38	166.18
528.55	170.86
528.72	121.71
528.89	161.50
529.07	182.56
529.24	72.56
529.41	168.52
529.58	229.37
529.75	128.73
529.92	121.71
530.09	135.75
530.26	168.52
530.43	124.05
530.60	177.88
530.77	126.39
530.94	124.05
531.11	163.84
531.28	95.96
531.46	126.39
531.63	173.20
531.80	72.56
531.97	140.43
532.14	166.18
532.31	159.16
532.48	215.33
532.65	215.33
532.82	259.80
532.99	191.92
533.16	128.73
533.33	72.56
533.50	102.98
533.67	229.37
533.84	224.69
534.01	201.29
534.18	210.65
534.35	175.54
534.52	121.71
534.69	187.24
534.86	117.03
535.03	163.84
535.20	128.73
535.37	191.92
535.54	159.16
535.71	168.52
535.88	215.33
536.05	117.03
536.22	135.75
536.38	112.35
536.55	203.63
536.72	166.18
536.89	77.24
537.06	142.77
537.23	119.37
537.40	152.13
537.57	168.52
537.74	100.64
537.91	142.77
538.08	149.79
538.25	173.20
538.42	105.32
538.59	119.37
538.75	166.18
538.92	177.88
539.09	154.48
539.26	212.99
539.43	470.45
539.60	774.72
539.77	964.30
539.94	765.36
540.11	465.77
540.28	308.95
540.44	217.67
540.61	229.37
540.78	175.54
540.95	142.77
541.12	140.43
541.29	95.96
541.46	168.52
541.62	156.82
541.79	131.07
541.96	107.66
542.13	180.22
542.30	142.77
542.47	161.50
542.63	182.56
542.80	154.48
542.97	177.88
543.14	124.05
543.31	131.07
543.48	182.56
543.64	163.84
543.81	119.37
543.98	138.09
544.15	98.30
544.32	196.60
544.48	154.48
544.65	124.05
544.82	161.50
544.99	131.07
545.16	182.56
545.32	154.48
545.49	156.82
545.66	205.97
545.83	191.92
546.00	154.48
546.16	102.98
546.33	39.79
546.50	156.82
546.67	166.18
546.83	215.33
547.00	182.56
547.17	222.35
547.34	140.43
547.50	86.60
547.67	98.30
547.84	126.39
548.00	187.24
548.17	121.71
548.34	177.88
548.51	154.48
548.67	191.92
548.84	114.69
549.01	163.84
549.18	142.77
549.34	170.86
549.51	170.86
549.68	194.26
549.84	194.26
550.01	168.52
550.18	194.26
550.34	222.35
550.51	124.05
550.68	145.11
550.84	119.37
551.01	149.79
551.18	271.50
551.34	67.88
551.51	182.56
551.68	107.66
551.84	163.84
552.01	100.64
552.18	147.45
552.34	145.11
552.51	133.41
552.68	135.75
552.84	88.94
553.01	156.82
553.18	191.92
553.34	152.13
553.51	98.30
553.67	126.39
553.84	140.43
554.01	119.37
554.17	133.41
554.34	42.13
554.51	156.82
554.67	180.22
554.84	112.35
555.00	215.33
555.17	161.50
555.33	161.50
555.50	152.13
555.67	222.35
555.83	182.56
556.00	135.75
556.16	278.52
556.33	149.79
556.50	72.56
556.66	145.11
556.83	173.20
556.99	133.41
557.16	142.77
557.32	107.66
557.49	95.96
557.65	163.84
557.82	140.43
557.98	147.45
558.15	159.16
558.32	124.05
558.48	154.48
558.65	161.50
558.81	243.42
558.98	140.43
559.14	175.54
559.31	79.58
559.47	182.56
559.64	180.22
559.80	149.79
559.97	138.09
560.13	107.66
560.30	131.07
560.46	93.62
560.63	161.50
560.79	159.16
560.96	121.71
561.12	170.86
561.29	154.48
561.45	88.94
561.61	88.94
561.78	212.99
561.94	154.48
562.11	166.18
562.27	147.45
562.44	212.99
562.60	135.75
562.77	138.09
562.93	196.60
563.10	84.26
563.26	95.96
563.42	147.45
563.59	63.19
563.75	124.05
563.92	212.99
564.08	149.79
564.24	135.75
564.41	208.31
564.57	152.13
564.74	67.88
564.90	234.05
565.07	231.71
565.23	194.26
565.39	184.90
565.56	159.16
565.72	198.95
565.88	161.50
566.05	203.63
566.21	194.26
566.38	154.48
566.54	100.64
566.70	105.32
566.87	102.98
567.03	98.30
567.19	217.67
567.36	140.43
567.52	149.79
567.68	187.24
567.85	208.31
568.01	187.24
568.17	119.37
568.34	145.11
568.50	166.18
568.66	138.09
568.83	259.80
568.99	117.03
569.15	149.79
569.32	112.35
569.48	112.35
569.64	138.09
569.81	105.32
569.97	175.54
570.13	70.22
570.30	170.86
570.46	180.22
570.62	107.66
570.78	145.11
570.95	147.45
571.11	217.67
571.27	208.31
571.43	163.84
571.60	154.48
571.76	168.52
571.92	124.05
572.09	112.35
572.25	191.92
572.41	46.81
572.57	156.82
572.74	177.88
572.90	224.69
573.06	117.03
573.22	184.90
573.38	217.67
573.55	145.11
573.71	191.92
573.87	198.95
574.03	175.54
574.20	147.45
574.36	182.56
574.52	245.76
574.68	149.79
574.84	194.26
575.01	140.43
575.17	241.08
575.33	138.09
575.49	238.73
575.65	180.22
575.82	276.18
575.98	400.23
576.14	475.13
576.30	386.19
576.46	299.59
576.62	224.69
576.79	191.92
576.95	243.42
577.11	222.35
577.27	159.16
577.43	198.95
577.59	259.80
577.75	250.44
577.92	234.05
578.08	189.58
578.24	166.18
578.40	154.48
578.56	184.90
578.72	198.95
578.88	215.33
579.04	149.79
579.21	110.01
579.37	194.26
579.53	191.92
579.69	252.78
579.85	149.79
580.01	222.35
580.17	208.31
580.33	266.82
580.49	269.16
580.65	276.18
580.82	152.13
580.98	184.90
581.14	208.31
581.30	327.68
581.46	320.65
581.62	348.74
581.78	339.38
581.94	322.99
582.10	248.10
582.26	287.89
582.42	287.89
582.58	283.20
582.74	222.35
582.90	273.84
583.06	266.82
583.22	332.36
583.38	367.46
583.54	276.18
583.70	430.66
583.86	416.62
584.02	402.57
584.18	720.88
584.34	1268.57
584.50	8259.75
584.66	29523.52
584.82	49268.28
584.98	50141.30
585.14	32156.62
585.30	16826.11
585.46	8091.23
585.62	3400.80
585.78	1380.92
585.94	835.57
586.10	561.73
586.26	477.47
586.42	423.64
586.58	367.46
586.74	269.16
586.90	376.83
587.06	332.36
587.22	278.52
587.38	468.11
587.54	1647.74
587.70	3169.09
587.86	4023.38
588.02	3070.78
588.18	1916.90
588.34	1078.99
588.49	521.94
588.65	290.23
588.81	198.95
588.97	234.05
589.13	243.42
589.29	203.63
589.45	299.59
589.61	241.08
589.77	208.31
589.93	259.80
590.08	287.89
590.24	175.54
590.40	315.97
590.56	287.89
590.72	133.41
590.88	201.29
591.04	168.52
591.20	229.37
591.35	201.29
591.51	194.26
591.67	105.32
591.83	93.62
591.99	266.82
592.15	234.05
592.31	241.08
592.46	114.69
592.62	182.56
592.78	194.26
592.94	159.16
593.10	215.33
593.26	229.37
593.41	301.93
593.57	276.18
593.73	1282.61
593.89	3880.61
594.05	6190.72
594.20	6473.92
594.36	4191.90
594.52	2537.14
594.68	1453.47
594.84	664.71
594.99	360.44
595.15	220.01
595.31	203.63
595.47	243.42
595.62	210.65
595.78	201.29
595.94	203.63
596.10	236.39
596.25	271.50
596.41	147.45
596.57	182.56
596.73	283.20
596.88	704.50
597.04	1273.25
597.20	1612.63
597.36	1301.34
597.51	821.53
597.67	475.13
597.83	285.55
597.99	250.44
598.14	187.24
598.30	210.65
598.46	184.90
598.61	245.76
598.77	168.52
598.93	159.16
599.09	152.13
599.24	95.96
599.40	145.11
599.56	205.97
599.71	182.56
599.87	187.24
600.03	201.29
600.18	198.95
600.34	114.69
600.50	140.43
600.65	152.13
600.81	234.05
600.97	168.52
601.12	135.75
601.28	161.50
601.44	182.56
601.59	175.54
601.75	210.65
601.91	182.56
602.06	266.82
602.22	433.00
602.37	1055.58
602.53	1413.68
602.69	1598.59
602.84	1261.55
603.00	828.55
603.16	554.71
603.31	386.19
603.47	280.86
603.62	133.41
603.78	191.92
603.94	163.84
604.09	196.60
604.25	138.09
604.40	168.52
604.56	187.24
604.71	212.99
604.87	222.35
605.03	201.29
605.18	152.13
605.34	163.84
605.49	227.03
605.65	168.52
605.80	203.63
605.96	177.88
606.12	217.67
606.27	170.86
606.43	187.24
606.58	526.62
606.74	2036.27
606.89	3904.01
607.05	5130.45
607.20	4444.68
607.36	2956.10
607.51	1851.36
607.67	1160.91
607.82	514.92
607.98	348.74
608.13	290.23
608.29	208.31
608.44	243.42
608.60	313.63
608.75	823.87
608.91	3351.65
609.06	6834.36
609.22	9170.22
609.37	7634.83
609.53	5275.57
609.68	3199.51
609.84	1926.26
609.99	870.68
610.15	458.74
610.30	292.57
610.46	308.95
610.61	248.10
610.76	154.48
610.92	273.84
611.07	147.45
611.23	217.67
611.38	315.97
611.54	166.18
611.69	168.52
611.84	215.33
612.00	177.88
612.15	320.65
612.31	320.65
612.46	449.38
612.62	346.40
612.77	411.93
612.92	334.70
613.08	315.97
613.23	294.91
613.39	741.95
613.54	3307.18
613.69	8652.96
613.85	13750.65
614.00	14094.71
614.15	10015.15
614.31	6441.15
614.46	4002.32
614.62	2083.08
614.77	1001.75
614.92	531.30
615.08	374.49
615.23	250.44
615.38	285.55
615.54	660.03
615.69	1825.62
615.84	3180.79
616.00	3669.96
616.15	3019.29
616.30	2052.65
616.46	1352.83
616.61	786.42
616.76	484.49
616.92	287.89
617.07	231.71
617.22	191.92
617.37	194.26
617.53	220.01
617.68	198.95
617.83	262.14
617.99	227.03
618.14	175.54
618.29	177.88
618.45	189.58
618.60	220.01
618.75	208.31
618.90	124.05
619.06	215.33
619.21	215.33
619.36	159.16
619.51	205.97
619.67	121.71
619.82	168.52
619.97	147.45
620.12	231.71
620.28	177.88
620.43	170.86
620.58	187.24
620.73	227.03
620.89	369.80
621.04	1011.11
621.19	1886.47
621.34	2300.75
621.49	1881.79
621.65	1348.15
621.80	898.77
621.95	650.67
622.10	433.00
622.25	301.93
622.41	210.65
622.56	124.05
622.71	201.29
622.86	98.30
623.01	161.50
623.16	173.20
623.32	182.56
623.47	107.66
623.62	140.43
623.77	128.73
623.92	149.79
624.07	198.95
624.23	147.45
624.38	159.16
624.53	182.56
624.68	173.20
624.83	145.11
624.98	208.31
625.13	128.73
625.29	142.77
625.44	257.46
625.59	191.92
625.74	524.28
625.89	1959.03
626.04	4643.62
626.19	7187.79
626.34	7243.96
626.49	5261.52
626.65	3391.44
626.80	2279.68
626.95	1385.60
627.10	667.05
627.25	390.87
627.40	175.54
627.55	224.69
627.70	145.11
627.85	187.24
628.00	163.84
628.15	112.35
628.30	100.64
628.45	161.50
628.60	128.73
628.76	201.29
628.91	168.52
629.06	205.97
629.21	166.18
629.36	121.71
629.51	140.43
629.66	456.40
629.81	1036.86
629.96	1724.97
630.11	1987.11
630.26	1572.84
630.41	1149.20
630.56	826.21
630.71	475.13
630.86	374.49
631.01	227.03
631.16	187.24
631.31	210.65
631.46	184.90
631.61	184.90
631.76	210.65
631.91	224.69
632.06	182.56
632.21	252.78
632.36	238.73
632.51	306.61
632.66	1015.79
632.81	2495.01
632.96	4344.03
633.10	4690.43
633.25	3824.44
633.40	2576.93
633.55	1729.66
633.70	1137.50
633.85	561.73
634.00	259.80
634.15	229.37
634.30	220.01
634.45	259.80
634.60	201.29
634.75	110.01
634.90	168.52
635.05	238.73
635.19	210.65
635.34	133.41
635.49	182.56
635.64	201.29
635.79	187.24
635.94	234.05
636.09	154.48
636.24	198.95
636.39	220.01
636.53	210.65
636.68	187.24
636.83	194.26
636.98	201.29
637.13	320.65
637.28	301.93
637.43	720.88
637.57	2803.96
637.72	6134.54
637.87	8959.57
638.02	8320.60
638.17	6263.27
638.32	4145.09
638.46	2829.71
638.61	1694.55
638.76	812.17
638.91	465.77
639.06	311.29
639.20	433.00
639.35	990.05
639.50	4145.09
639.65	9193.62
639.80	13621.92
639.94	12767.62
640.09	9673.43
640.24	6565.20
640.39	4170.83
640.54	2342.88
640.68	1125.80
640.83	636.63
640.98	367.46
641.13	308.95
641.27	205.97
641.42	238.73
641.57	250.44
641.72	229.37
641.86	170.86
642.01	91.28
642.16	217.67
642.31	138.09
642.45	156.82
642.60	194.26
642.75	177.88
642.90	191.92
643.04	201.29
643.19	114.69
643.34	163.84
643.48	161.50
643.63	126.39
643.78	189.58
643.93	205.97
644.07	105.32
644.22	112.35
644.37	166.18
644.51	191.92
644.66	208.31
644.81	140.43
644.95	170.86
645.10	210.65
645.25	117.03
645.39	212.99
645.54	147.45
645.69	196.60
645.83	147.45
645.98	220.01
646.13	126.39
646.27	126.39
646.42	102.98
646.57	161.50
646.71	210.65
646.86	238.73
647.00	198.95
647.15	175.54
647.30	131.07
647.44	189.58
647.59	128.73
647.74	187.24
647.88	168.52
648.03	124.05
648.17	112.35
648.32	173.20
648.47	212.99
648.61	241.08
648.76	196.60
648.90	182.56
649.05	241.08
649.20	121.71
649.34	180.22
649.49	252.78
649.63	177.88
649.78	425.98
649.92	1593.90
650.07	4173.18
650.21	6609.67
650.36	7098.84
650.51	5631.33
650.65	3803.37
650.80	2555.86
650.94	1551.78
651.09	772.38
651.23	465.77
651.38	266.82
651.52	280.86
651.67	175.54
651.81	203.63
651.96	224.69
652.10	210.65
652.25	161.50
652.39	224.69
652.54	557.05
652.68	1266.23
652.83	2296.07
652.97	2668.21
653.12	2111.16
653.26	1565.82
653.41	1090.69
653.55	734.93
653.70	442.36
653.84	231.71
653.99	156.82
654.13	194.26
654.27	159.16
654.42	138.09
654.56	198.95
654.71	196.60
654.85	110.01
655.00	161.50
655.14	187.24
655.29	105.32
655.43	217.67
655.57	168.52
655.72	112.35
655.86	198.95
656.01	187.24
656.15	198.95
656.30	140.43
656.44	149.79
656.58	140.43
656.73	112.35
656.87	140.43
657.01	205.97
657.16	163.84
657.30	170.86
657.45	194.26
657.59	173.20
657.73	182.56
657.88	126.39
658.02	159.16
658.16	163.84
658.31	203.63
658.45	180.22
658.60	117.03
658.74	175.54
658.88	147.45
659.03	318.31
659.17	795.78
659.31	1912.22
659.46	3309.52
659.60	3803.37
659.74	3103.55
659.89	2155.63
660.03	1404.32
660.17	924.51
660.32	482.15
660.46	285.55
660.60	280.86
660.74	203.63
660.89	220.01
661.03	110.01
661.17	175.54
661.32	84.26
661.46	201.29
661.60	124.05
661.74	121.71
661.89	184.90
662.03	208.31
662.17	187.24
662.31	126.39
662.46	159.16
662.60	152.13
662.74	121.71
662.88	203.63
663.03	124.05
663.17	95.96
663.31	203.63
663.45	212.99
663.60	95.96
663.74	145.11
663.88	110.01
664.02	126.39
664.17	159.16
664.31	205.97
664.45	152.13
664.59	180.22
664.73	175.54
664.88	128.73
665.02	147.45
665.16	177.88
665.30	140.43
665.44	180.22
665.59	184.90
665.73	182.56
665.87	117.03
666.01	166.18
666.15	110.01
666.29	175.54
666.44	238.73
666.58	231.71
666.72	175.54
666.86	173.20
667.00	418.96
667.14	1390.28
667.28	3534.21
667.43	5781.12
667.57	6527.75
667.71	5252.16
667.85	3702.73
667.99	2246.91
668.13	1338.79
668.27	720.88
668.41	496.19
668.56	320.65
668.70	276.18
668.84	196.60
668.98	222.35
669.12	196.60
669.26	149.79
669.40	196.60
669.54	175.54
669.68	53.83
669.82	72.56
669.96	166.18
670.10	154.48
670.25	156.82
670.39	163.84
670.53	175.54
670.67	152.13
670.81	220.01
670.95	475.13
671.09	1282.61
671.23	2754.81
671.37	3946.14
671.51	3955.51
671.65	3150.36
671.79	1909.88
671.93	1170.27
672.07	697.48
672.21	416.62
672.35	330.02
672.49	255.12
672.63	241.08
672.77	184.90
672.91	156.82
673.05	198.95
673.19	227.03
673.33	180.22
673.47	191.92
673.61	201.29
673.75	121.71
673.89	159.16
674.03	138.09
674.17	140.43
674.31	149.79
674.45	154.48
674.59	135.75
674.73	250.44
674.87	180.22
675.01	229.37
675.15	110.01
675.29	154.48
675.43	77.24
675.56	212.99
675.70	203.63
675.84	170.86
675.98	128.73
676.12	170.86
676.26	156.82
676.40	152.13
676.54	147.45
676.68	128.73
676.82	149.79
676.96	117.03
677.10	201.29
677.23	88.94
677.37	88.94
677.51	117.03
677.65	229.37
677.79	119.37
677.93	149.79
678.07	138.09
678.21	100.64
678.34	184.90
678.48	102.98
678.62	156.82
678.76	182.56
678.90	147.45
679.04	163.84
679.18	173.20
679.31	70.22
679.45	112.35
679.59	102.98
679.73	215.33
679.87	156.82
680.00	145.11
680.14	140.43
680.28	138.09
680.42	98.30
680.56	107.66
680.70	140.43
680.83	91.28
680.97	147.45
681.11	70.22
681.25	212.99
681.39	159.16
681.52	149.79
681.66	191.92
681.80	163.84
681.94	105.32
682.07	163.84
682.21	131.07
682.35	86.60
682.49	154.48
682.62	121.71
682.76	138.09
682.90	100.64
683.04	110.01
683.17	140.43
683.31	152.13
683.45	173.20
683.59	140.43
683.72	145.11
683.86	159.16
684.00	138.09
684.13	98.30
684.27	119.37
684.41	208.31
684.55	152.13
684.68	117.03
684.82	126.39
684.96	42.13
685.09	156.82
685.23	224.69
685.37	131.07
685.50	166.18
685.64	98.30
685.78	131.07
685.91	163.84
686.05	173.20
686.19	163.84
686.32	131.07
686.46	163.84
686.60	170.86
686.73	229.37
686.87	264.48
687.01	210.65
687.14	189.58
687.28	175.54
687.42	166.18
687.55	133.41
687.69	159.16
687.82	128.73
687.96	77.24
688.10	196.60
688.23	269.16
688.37	159.16
688.50	184.90
688.64	198.95
688.78	163.84
688.91	156.82
689.05	110.01
689.18	110.01
689.32	77.24
689.46	135.75
689.59	147.45
689.73	166.18
689.86	142.77
690.00	140.43
690.13	152.13
690.27	124.05
690.41	224.69
690.54	154.48
690.68	145.11
690.81	124.05
690.95	100.64
691.08	131.07
691.22	131.07
691.35	79.58
691.49	93.62
691.62	58.51
691.76	215.33
691.89	175.54
692.03	184.90
692.16	201.29
692.30	613.22
692.43	1469.86
692.57	2267.98
692.70	2799.28
692.84	2403.73
692.97	1827.96
693.11	1495.60
693.24	1064.94
693.38	720.88
693.51	526.62
693.65	379.17
693.78	273.84
693.92	236.39
694.05	163.84
694.19	126.39
694.32	131.07
694.45	142.77
694.59	170.86
694.72	126.39
694.86	100.64
694.99	135.75
695.13	166.18
695.26	159.16
695.39	142.77
695.53	201.29
695.66	138.09
695.80	140.43
695.93	245.76
696.07	304.27
696.20	315.97
696.33	322.99
696.47	351.08
696.60	257.46
696.73	257.46
696.87	234.05
697.00	257.46
697.14	175.54
697.27	156.82
697.40	175.54
697.54	191.92
697.67	154.48
697.80	196.60
697.94	138.09
698.07	212.99
698.21	177.88
698.34	147.45
698.47	161.50
698.61	149.79
698.74	147.45
698.87	152.13
699.01	74.90
699.14	135.75
699.27	93.62
699.40	210.65
699.54	114.69
699.67	58.51
699.80	149.79
699.94	166.18
700.07	147.45
700.20	124.05
700.34	205.97
700.47	93.62
700.60	88.94
700.73	196.60
700.87	175.54
701.00	152.13
701.13	133.41
701.26	201.29
701.40	147.45
701.53	105.32
701.66	145.11
701.79	257.46
701.93	248.10
702.06	276.18
702.19	238.73
702.32	308.95
702.46	325.33
702.59	674.07
702.72	1809.23
702.85	3405.48
702.99	4739.58
703.12	5291.95
703.25	4404.89
703.38	3700.39
703.51	3035.67
703.65	2087.76
703.78	1387.94
703.91	1001.75
704.04	634.29
704.17	482.15
704.31	269.16
704.44	236.39
704.57	229.37
704.70	149.79
704.83	163.84
704.96	184.90
705.10	217.67
705.23	131.07
>>>>>End Processed Spectral Data<<<<<
