SpectraSuite Data File
++++++++++++++++++++++++++++++++++++
Date: Fri Oct 04 12:13:30 GMT-05:00 2013
User: price-jones
Dark Spectrum Present: No
Reference Spectrum Present: No
Number of Sampled Component Spectra: 1
Spectrometers: USB2+H05261
Integration Time (usec): 10000 (USB2+H05261)
Spectra Averaged: 1 (USB2+H05261)
Boxcar Smoothing: 0 (USB2+H05261)
Correct for Electrical Dark: No (USB2+H05261)
Strobe/Lamp Enabled: No (USB2+H05261)
Correct for Detector Non-linearity: No (USB2+H05261)
Correct for Stray Light: No (USB2+H05261)
Number of Pixels in Processed Spectrum: 2048
>>>>>Begin Processed Spectral Data<<<<<
365.73	95.96
365.92	95.96
366.12	95.96
366.32	0.00
366.52	0.00
366.72	0.00
366.91	0.00
367.11	0.00
367.31	0.00
367.51	0.00
367.70	0.00
367.90	0.00
368.10	0.00
368.30	0.00
368.49	0.00
368.69	0.00
368.89	0.00
369.09	0.00
369.28	0.00
369.48	0.00
369.68	0.00
369.87	0.00
370.07	0.00
370.27	0.00
370.47	0.00
370.66	0.00
370.86	0.00
371.06	0.00
371.25	0.00
371.45	51.49
371.65	0.00
371.84	9.36
372.04	4.68
372.24	35.11
372.44	0.00
372.63	56.17
372.83	11.70
373.03	0.00
373.22	9.36
373.42	21.06
373.62	23.41
373.81	0.00
374.01	32.77
374.21	30.43
374.40	21.06
374.60	0.00
374.79	77.24
374.99	23.41
375.19	46.81
375.38	60.85
375.58	0.00
375.78	42.13
375.97	0.00
376.17	23.41
376.37	0.00
376.56	0.00
376.76	0.00
376.95	0.00
377.15	0.00
377.35	42.13
377.54	67.88
377.74	65.54
377.93	44.47
378.13	63.19
378.33	32.77
378.52	0.00
378.72	88.94
378.91	7.02
379.11	46.81
379.31	0.00
379.50	84.26
379.70	0.00
379.89	32.77
380.09	23.41
380.28	32.77
380.48	25.75
380.68	32.77
380.87	0.00
381.07	0.00
381.26	77.24
381.46	0.00
381.65	0.00
381.85	23.41
382.04	0.00
382.24	0.00
382.43	0.00
382.63	0.00
382.83	9.36
383.02	49.15
383.22	2.34
383.41	42.13
383.61	23.41
383.80	0.00
384.00	0.00
384.19	0.00
384.39	35.11
384.58	23.41
384.78	37.45
384.97	51.49
385.17	0.00
385.36	11.70
385.56	42.13
385.75	0.00
385.95	4.68
386.14	95.96
386.34	0.00
386.53	21.06
386.72	32.77
386.92	2.34
387.11	0.00
387.31	53.83
387.50	0.00
387.70	0.00
387.89	14.04
388.09	77.24
388.28	95.96
388.48	70.22
388.67	9.36
388.86	39.79
389.06	93.62
389.25	72.56
389.45	0.00
389.64	35.11
389.84	65.54
390.03	72.56
390.22	81.92
390.42	23.41
390.61	32.77
390.81	0.00
391.00	18.72
391.19	46.81
391.39	72.56
391.58	30.43
391.78	2.34
391.97	0.00
392.16	0.00
392.36	0.00
392.55	46.81
392.75	11.70
392.94	0.00
393.13	23.41
393.33	4.68
393.52	0.00
393.71	0.00
393.91	14.04
394.10	37.45
394.29	0.00
394.49	65.54
394.68	0.00
394.88	100.64
395.07	32.77
395.26	0.00
395.46	25.75
395.65	35.11
395.84	39.79
396.04	95.96
396.23	0.00
396.42	0.00
396.62	2.34
396.81	0.00
397.00	93.62
397.19	18.72
397.39	35.11
397.58	7.02
397.77	0.00
397.97	60.85
398.16	23.41
398.35	21.06
398.55	28.09
398.74	0.00
398.93	51.49
399.12	46.81
399.32	91.28
399.51	42.13
399.70	0.00
399.90	39.79
400.09	0.00
400.28	11.70
400.47	53.83
400.67	0.00
400.86	49.15
401.05	51.49
401.24	18.72
401.44	44.47
401.63	46.81
401.82	0.00
402.01	21.06
402.21	0.00
402.40	0.00
402.59	30.43
402.78	49.15
402.97	0.00
403.17	51.49
403.36	32.77
403.55	46.81
403.74	23.41
403.93	70.22
404.13	0.00
404.32	0.00
404.51	0.00
404.70	135.75
404.89	16.38
405.09	28.09
405.28	28.09
405.47	0.00
405.66	28.09
405.85	25.75
406.05	44.47
406.24	84.26
406.43	46.81
406.62	28.09
406.81	7.02
407.00	16.38
407.20	88.94
407.39	4.68
407.58	60.85
407.77	35.11
407.96	0.00
408.15	28.09
408.34	56.17
408.54	0.00
408.73	25.75
408.92	44.47
409.11	0.00
409.30	0.00
409.49	51.49
409.68	0.00
409.87	25.75
410.07	46.81
410.26	21.06
410.45	35.11
410.64	0.00
410.83	0.00
411.02	70.22
411.21	67.88
411.40	0.00
411.59	0.00
411.78	18.72
411.98	25.75
412.17	16.38
412.36	28.09
412.55	65.54
412.74	0.00
412.93	4.68
413.12	11.70
413.31	0.00
413.50	0.00
413.69	0.00
413.88	21.06
414.07	63.19
414.26	74.90
414.45	4.68
414.64	14.04
414.83	53.83
415.02	16.38
415.22	25.75
415.41	16.38
415.60	0.00
415.79	112.35
415.98	35.11
416.17	0.00
416.36	63.19
416.55	21.06
416.74	35.11
416.93	28.09
417.12	21.06
417.31	49.15
417.50	16.38
417.69	0.00
417.88	72.56
418.07	58.51
418.26	21.06
418.45	51.49
418.64	9.36
418.83	28.09
419.02	0.00
419.21	0.00
419.39	32.77
419.58	0.00
419.77	21.06
419.96	37.45
420.15	0.00
420.34	25.75
420.53	79.58
420.72	0.00
420.91	67.88
421.10	25.75
421.29	51.49
421.48	79.58
421.67	25.75
421.86	63.19
422.05	35.11
422.24	0.00
422.43	0.00
422.61	0.00
422.80	166.18
422.99	44.47
423.18	60.85
423.37	11.70
423.56	21.06
423.75	77.24
423.94	0.00
424.13	39.79
424.32	81.92
424.50	7.02
424.69	0.00
424.88	49.15
425.07	56.17
425.26	65.54
425.45	18.72
425.64	0.00
425.83	0.00
426.01	102.98
426.20	0.00
426.39	72.56
426.58	63.19
426.77	0.00
426.96	0.00
427.15	14.04
427.33	91.28
427.52	11.70
427.71	70.22
427.90	53.83
428.09	46.81
428.28	46.81
428.46	37.45
428.65	77.24
428.84	63.19
429.03	133.41
429.22	37.45
429.40	0.00
429.59	0.00
429.78	30.43
429.97	93.62
430.16	18.72
430.34	44.47
430.53	39.79
430.72	53.83
430.91	0.00
431.10	37.45
431.28	11.70
431.47	0.00
431.66	0.00
431.85	93.62
432.03	0.00
432.22	39.79
432.41	110.01
432.60	37.45
432.79	32.77
432.97	0.00
433.16	67.88
433.35	14.04
433.54	0.00
433.72	21.06
433.91	0.00
434.10	42.13
434.28	2.34
434.47	4.68
434.66	51.49
434.85	65.54
435.03	9.36
435.22	32.77
435.41	86.60
435.59	0.00
435.78	46.81
435.97	30.43
436.16	60.85
436.34	46.81
436.53	0.00
436.72	21.06
436.90	0.00
437.09	0.00
437.28	0.00
437.46	0.00
437.65	0.00
437.84	51.49
438.02	23.41
438.21	21.06
438.40	67.88
438.58	98.30
438.77	44.47
438.96	35.11
439.14	58.51
439.33	25.75
439.52	18.72
439.70	86.60
439.89	86.60
440.08	16.38
440.26	0.00
440.45	0.00
440.63	65.54
440.82	23.41
441.01	14.04
441.19	63.19
441.38	0.00
441.57	67.88
441.75	98.30
441.94	49.15
442.12	65.54
442.31	9.36
442.50	28.09
442.68	60.85
442.87	4.68
443.05	9.36
443.24	98.30
443.43	0.00
443.61	79.58
443.80	46.81
443.98	37.45
444.17	0.00
444.35	0.00
444.54	23.41
444.73	16.38
444.91	0.00
445.10	70.22
445.28	39.79
445.47	0.00
445.65	60.85
445.84	21.06
446.02	44.47
446.21	21.06
446.39	9.36
446.58	16.38
446.77	32.77
446.95	37.45
447.14	18.72
447.32	72.56
447.51	7.02
447.69	0.00
447.88	49.15
448.06	100.64
448.25	51.49
448.43	46.81
448.62	0.00
448.80	7.02
448.99	35.11
449.17	0.00
449.36	0.00
449.54	0.00
449.73	0.00
449.91	32.77
450.10	0.00
450.28	9.36
450.46	0.00
450.65	16.38
450.83	77.24
451.02	25.75
451.20	30.43
451.39	79.58
451.57	30.43
451.76	14.04
451.94	0.00
452.13	0.00
452.31	37.45
452.49	4.68
452.68	0.00
452.86	39.79
453.05	21.06
453.23	70.22
453.42	16.38
453.60	9.36
453.78	4.68
453.97	9.36
454.15	21.06
454.34	0.00
454.52	25.75
454.70	117.03
454.89	79.58
455.07	74.90
455.26	30.43
455.44	32.77
455.62	51.49
455.81	44.47
455.99	56.17
456.17	63.19
456.36	42.13
456.54	21.06
456.73	28.09
456.91	60.85
457.09	77.24
457.28	51.49
457.46	51.49
457.64	23.41
457.83	0.00
458.01	32.77
458.19	100.64
458.38	25.75
458.56	11.70
458.74	39.79
458.93	32.77
459.11	9.36
459.29	32.77
459.48	28.09
459.66	35.11
459.84	119.37
460.03	18.72
460.21	4.68
460.39	0.00
460.57	37.45
460.76	14.04
460.94	42.13
461.12	110.01
461.31	39.79
461.49	84.26
461.67	4.68
461.85	49.15
462.04	14.04
462.22	84.26
462.40	0.00
462.59	14.04
462.77	28.09
462.95	18.72
463.13	0.00
463.32	21.06
463.50	9.36
463.68	0.00
463.86	79.58
464.05	65.54
464.23	32.77
464.41	81.92
464.59	49.15
464.78	51.49
464.96	32.77
465.14	46.81
465.32	49.15
465.50	112.35
465.69	14.04
465.87	49.15
466.05	67.88
466.23	0.00
466.41	2.34
466.60	56.17
466.78	0.00
466.96	60.85
467.14	74.90
467.32	63.19
467.51	91.28
467.69	4.68
467.87	25.75
468.05	60.85
468.23	0.00
468.41	0.00
468.60	39.79
468.78	0.00
468.96	28.09
469.14	49.15
469.32	0.00
469.50	28.09
469.69	51.49
469.87	0.00
470.05	44.47
470.23	42.13
470.41	0.00
470.59	49.15
470.77	0.00
470.95	42.13
471.14	46.81
471.32	28.09
471.50	37.45
471.68	60.85
471.86	42.13
472.04	70.22
472.22	0.00
472.40	0.00
472.58	37.45
472.77	0.00
472.95	32.77
473.13	0.00
473.31	14.04
473.49	100.64
473.67	51.49
473.85	37.45
474.03	18.72
474.21	102.98
474.39	11.70
474.57	51.49
474.75	35.11
474.93	32.77
475.12	49.15
475.30	11.70
475.48	98.30
475.66	51.49
475.84	67.88
476.02	53.83
476.20	39.79
476.38	39.79
476.56	60.85
476.74	37.45
476.92	77.24
477.10	9.36
477.28	25.75
477.46	23.41
477.64	49.15
477.82	56.17
478.00	58.51
478.18	0.00
478.36	95.96
478.54	65.54
478.72	35.11
478.90	0.00
479.08	98.30
479.26	46.81
479.44	14.04
479.62	67.88
479.80	4.68
479.98	4.68
480.16	28.09
480.34	11.70
480.52	39.79
480.70	173.20
480.88	63.19
481.06	4.68
481.24	35.11
481.41	32.77
481.59	46.81
481.77	107.66
481.95	32.77
482.13	84.26
482.31	7.02
482.49	42.13
482.67	18.72
482.85	86.60
483.03	25.75
483.21	0.00
483.39	25.75
483.57	51.49
483.74	0.00
483.92	35.11
484.10	0.00
484.28	25.75
484.46	11.70
484.64	0.00
484.82	39.79
485.00	39.79
485.18	0.00
485.35	114.69
485.53	49.15
485.71	112.35
485.89	46.81
486.07	56.17
486.25	60.85
486.43	0.00
486.61	16.38
486.78	23.41
486.96	60.85
487.14	53.83
487.32	32.77
487.50	0.00
487.68	14.04
487.85	65.54
488.03	25.75
488.21	30.43
488.39	72.56
488.57	28.09
488.75	18.72
488.92	105.32
489.10	30.43
489.28	14.04
489.46	4.68
489.64	11.70
489.81	32.77
489.99	58.51
490.17	0.00
490.35	95.96
490.53	67.88
490.70	32.77
490.88	56.17
491.06	42.13
491.24	60.85
491.41	74.90
491.59	86.60
491.77	0.00
491.95	14.04
492.13	16.38
492.30	35.11
492.48	46.81
492.66	65.54
492.84	79.58
493.01	53.83
493.19	79.58
493.37	79.58
493.54	56.17
493.72	32.77
493.90	63.19
494.08	77.24
494.25	23.41
494.43	0.00
494.61	39.79
494.79	0.00
494.96	63.19
495.14	0.00
495.32	32.77
495.49	105.32
495.67	0.00
495.85	63.19
496.02	131.07
496.20	4.68
496.38	86.60
496.55	81.92
496.73	0.00
496.91	44.47
497.09	110.01
497.26	79.58
497.44	42.13
497.62	65.54
497.79	39.79
497.97	58.51
498.14	0.00
498.32	0.00
498.50	58.51
498.67	0.00
498.85	32.77
499.03	11.70
499.20	0.00
499.38	39.79
499.56	32.77
499.73	86.60
499.91	0.00
500.08	0.00
500.26	25.75
500.44	39.79
500.61	35.11
500.79	21.06
500.97	30.43
501.14	7.02
501.32	58.51
501.49	0.00
501.67	60.85
501.84	35.11
502.02	39.79
502.20	39.79
502.37	16.38
502.55	18.72
502.72	121.71
502.90	63.19
503.07	32.77
503.25	16.38
503.43	53.83
503.60	0.00
503.78	95.96
503.95	39.79
504.13	58.51
504.30	58.51
504.48	25.75
504.65	0.00
504.83	9.36
505.01	0.00
505.18	32.77
505.36	117.03
505.53	49.15
505.71	72.56
505.88	56.17
506.06	0.00
506.23	117.03
506.41	37.45
506.58	107.66
506.76	56.17
506.93	63.19
507.11	44.47
507.28	49.15
507.46	18.72
507.63	70.22
507.81	0.00
507.98	14.04
508.16	16.38
508.33	74.90
508.50	67.88
508.68	81.92
508.85	0.00
509.03	0.00
509.20	107.66
509.38	0.00
509.55	58.51
509.73	39.79
509.90	7.02
510.08	91.28
510.25	0.00
510.42	11.70
510.60	14.04
510.77	32.77
510.95	0.00
511.12	88.94
511.30	25.75
511.47	102.98
511.64	25.75
511.82	11.70
511.99	28.09
512.17	65.54
512.34	0.00
512.51	37.45
512.69	37.45
512.86	49.15
513.04	81.92
513.21	72.56
513.38	14.04
513.56	42.13
513.73	16.38
513.90	0.00
514.08	93.62
514.25	58.51
514.43	112.35
514.60	0.00
514.77	32.77
514.95	9.36
515.12	21.06
515.29	77.24
515.47	18.72
515.64	37.45
515.81	11.70
515.99	0.00
516.16	4.68
516.33	18.72
516.51	81.92
516.68	86.60
516.85	37.45
517.03	88.94
517.20	117.03
517.37	18.72
517.54	67.88
517.72	11.70
517.89	53.83
518.06	60.85
518.24	84.26
518.41	84.26
518.58	21.06
518.75	60.85
518.93	37.45
519.10	91.28
519.27	105.32
519.45	88.94
519.62	0.00
519.79	0.00
519.96	84.26
520.14	0.00
520.31	53.83
520.48	23.41
520.65	25.75
520.83	16.38
521.00	84.26
521.17	0.00
521.34	32.77
521.52	39.79
521.69	67.88
521.86	14.04
522.03	53.83
522.20	0.00
522.38	60.85
522.55	0.00
522.72	60.85
522.89	0.00
523.07	53.83
523.24	60.85
523.41	88.94
523.58	70.22
523.75	107.66
523.92	14.04
524.10	100.64
524.27	25.75
524.44	46.81
524.61	11.70
524.78	32.77
524.96	30.43
525.13	77.24
525.30	91.28
525.47	58.51
525.64	81.92
525.81	112.35
525.98	39.79
526.16	70.22
526.33	0.00
526.50	102.98
526.67	28.09
526.84	0.00
527.01	37.45
527.18	35.11
527.36	2.34
527.53	0.00
527.70	32.77
527.87	46.81
528.04	95.96
528.21	42.13
528.38	7.02
528.55	32.77
528.72	37.45
528.89	95.96
529.07	121.71
529.24	25.75
529.41	51.49
529.58	0.00
529.75	107.66
529.92	0.00
530.09	0.00
530.26	42.13
530.43	56.17
530.60	30.43
530.77	0.00
530.94	77.24
531.11	70.22
531.28	95.96
531.46	37.45
531.63	72.56
531.80	119.37
531.97	98.30
532.14	0.00
532.31	32.77
532.48	21.06
532.65	49.15
532.82	30.43
532.99	53.83
533.16	39.79
533.33	67.88
533.50	0.00
533.67	72.56
533.84	23.41
534.01	0.00
534.18	16.38
534.35	21.06
534.52	9.36
534.69	4.68
534.86	98.30
535.03	51.49
535.20	2.34
535.37	25.75
535.54	37.45
535.71	0.00
535.88	56.17
536.05	67.88
536.22	70.22
536.38	95.96
536.55	67.88
536.72	88.94
536.89	49.15
537.06	0.00
537.23	98.30
537.40	0.00
537.57	21.06
537.74	100.64
537.91	9.36
538.08	102.98
538.25	0.00
538.42	51.49
538.59	37.45
538.75	0.00
538.92	42.13
539.09	35.11
539.26	23.41
539.43	67.88
539.60	39.79
539.77	88.94
539.94	79.58
540.11	35.11
540.28	72.56
540.44	30.43
540.61	0.00
540.78	37.45
540.95	16.38
541.12	46.81
541.29	72.56
541.46	32.77
541.62	25.75
541.79	0.00
541.96	0.00
542.13	32.77
542.30	35.11
542.47	39.79
542.63	79.58
542.80	91.28
542.97	95.96
543.14	4.68
543.31	23.41
543.48	63.19
543.64	35.11
543.81	35.11
543.98	131.07
544.15	53.83
544.32	51.49
544.48	7.02
544.65	65.54
544.82	25.75
544.99	39.79
545.16	0.00
545.32	81.92
545.49	51.49
545.66	37.45
545.83	56.17
546.00	119.37
546.16	42.13
546.33	51.49
546.50	37.45
546.67	0.00
546.83	35.11
547.00	79.58
547.17	35.11
547.34	72.56
547.50	51.49
547.67	119.37
547.84	18.72
548.00	0.00
548.17	0.00
548.34	16.38
548.51	49.15
548.67	28.09
548.84	51.49
549.01	0.00
549.18	0.00
549.34	74.90
549.51	35.11
549.68	35.11
549.84	9.36
550.01	77.24
550.18	0.00
550.34	95.96
550.51	0.00
550.68	46.81
550.84	39.79
551.01	21.06
551.18	49.15
551.34	0.00
551.51	42.13
551.68	67.88
551.84	65.54
552.01	23.41
552.18	63.19
552.34	60.85
552.51	0.00
552.68	51.49
552.84	53.83
553.01	58.51
553.18	84.26
553.34	79.58
553.51	67.88
553.67	0.00
553.84	28.09
554.01	95.96
554.17	77.24
554.34	39.79
554.51	25.75
554.67	86.60
554.84	88.94
555.00	84.26
555.17	32.77
555.33	11.70
555.50	0.00
555.67	79.58
555.83	65.54
556.00	4.68
556.16	39.79
556.33	30.43
556.50	81.92
556.66	18.72
556.83	28.09
556.99	44.47
557.16	72.56
557.32	105.32
557.49	44.47
557.65	37.45
557.82	42.13
557.98	117.03
558.15	37.45
558.32	9.36
558.48	81.92
558.65	9.36
558.81	18.72
558.98	56.17
559.14	37.45
559.31	70.22
559.47	44.47
559.64	32.77
559.80	72.56
559.97	14.04
560.13	4.68
560.30	21.06
560.46	16.38
560.63	16.38
560.79	81.92
560.96	95.96
561.12	95.96
561.29	79.58
561.45	53.83
561.61	53.83
561.78	0.00
561.94	0.00
562.11	21.06
562.27	42.13
562.44	21.06
562.60	58.51
562.77	16.38
562.93	39.79
563.10	42.13
563.26	23.41
563.42	0.00
563.59	51.49
563.75	0.00
563.92	0.00
564.08	147.45
564.24	114.69
564.41	37.45
564.57	28.09
564.74	44.47
564.90	4.68
565.07	7.02
565.23	77.24
565.39	23.41
565.56	32.77
565.72	7.02
565.88	37.45
566.05	0.00
566.21	39.79
566.38	58.51
566.54	0.00
566.70	44.47
566.87	53.83
567.03	18.72
567.19	0.00
567.36	74.90
567.52	67.88
567.68	0.00
567.85	72.56
568.01	0.00
568.17	105.32
568.34	98.30
568.50	100.64
568.66	28.09
568.83	67.88
568.99	16.38
569.15	42.13
569.32	23.41
569.48	124.05
569.64	0.00
569.81	0.00
569.97	44.47
570.13	11.70
570.30	0.00
570.46	30.43
570.62	63.19
570.78	35.11
570.95	53.83
571.11	23.41
571.27	39.79
571.43	60.85
571.60	58.51
571.76	79.58
571.92	0.00
572.09	35.11
572.25	65.54
572.41	42.13
572.57	0.00
572.74	39.79
572.90	28.09
573.06	107.66
573.22	0.00
573.38	18.72
573.55	0.00
573.71	11.70
573.87	25.75
574.03	37.45
574.20	70.22
574.36	81.92
574.52	58.51
574.68	25.75
574.84	84.26
575.01	18.72
575.17	39.79
575.33	0.00
575.49	81.92
575.65	21.06
575.82	9.36
575.98	0.00
576.14	39.79
576.30	93.62
576.46	0.00
576.62	25.75
576.79	63.19
576.95	79.58
577.11	4.68
577.27	67.88
577.43	63.19
577.59	37.45
577.75	112.35
577.92	112.35
578.08	51.49
578.24	86.60
578.40	49.15
578.56	105.32
578.72	77.24
578.88	60.85
579.04	0.00
579.21	49.15
579.37	0.00
579.53	25.75
579.69	46.81
579.85	37.45
580.01	25.75
580.17	72.56
580.33	9.36
580.49	0.00
580.65	67.88
580.82	49.15
580.98	58.51
581.14	44.47
581.30	0.00
581.46	44.47
581.62	88.94
581.78	140.43
581.94	74.90
582.10	93.62
582.26	11.70
582.42	11.70
582.58	46.81
582.74	86.60
582.90	9.36
583.06	44.47
583.22	100.64
583.38	16.38
583.54	35.11
583.70	56.17
583.86	67.88
584.02	77.24
584.18	0.00
584.34	44.47
584.50	70.22
584.66	409.59
584.82	690.46
584.98	812.17
585.14	755.99
585.30	519.60
585.46	351.08
585.62	203.63
585.78	105.32
585.94	105.32
586.10	121.71
586.26	39.79
586.42	11.70
586.58	44.47
586.74	4.68
586.90	0.00
587.06	0.00
587.22	0.00
587.38	93.62
587.54	56.17
587.70	128.73
587.86	163.84
588.02	42.13
588.18	112.35
588.34	44.47
588.49	37.45
588.65	84.26
588.81	70.22
588.97	72.56
589.13	0.00
589.29	11.70
589.45	72.56
589.61	77.24
589.77	74.90
589.93	79.58
590.08	9.36
590.24	42.13
590.40	0.00
590.56	0.00
590.72	67.88
590.88	49.15
591.04	46.81
591.20	0.00
591.35	107.66
591.51	35.11
591.67	11.70
591.83	4.68
591.99	51.49
592.15	37.45
592.31	0.00
592.46	2.34
592.62	79.58
592.78	35.11
592.94	98.30
593.10	46.81
593.26	44.47
593.41	49.15
593.57	84.26
593.73	32.77
593.89	124.05
594.05	145.11
594.20	133.41
594.36	175.54
594.52	191.92
594.68	84.26
594.84	72.56
594.99	88.94
595.15	88.94
595.31	4.68
595.47	0.00
595.62	56.17
595.78	60.85
595.94	16.38
596.10	133.41
596.25	23.41
596.41	53.83
596.57	53.83
596.73	49.15
596.88	16.38
597.04	63.19
597.20	95.96
597.36	60.85
597.51	49.15
597.67	114.69
597.83	107.66
597.99	0.00
598.14	0.00
598.30	37.45
598.46	49.15
598.61	32.77
598.77	79.58
598.93	0.00
599.09	32.77
599.24	14.04
599.40	110.01
599.56	0.00
599.71	32.77
599.87	16.38
600.03	28.09
600.18	0.00
600.34	0.00
600.50	0.00
600.65	0.00
600.81	49.15
600.97	23.41
601.12	39.79
601.28	77.24
601.44	21.06
601.59	42.13
601.75	2.34
601.91	42.13
602.06	21.06
602.22	23.41
602.37	65.54
602.53	81.92
602.69	65.54
602.84	35.11
603.00	112.35
603.16	91.28
603.31	0.00
603.47	51.49
603.62	4.68
603.78	56.17
603.94	0.00
604.09	30.43
604.25	0.00
604.40	0.00
604.56	14.04
604.71	11.70
604.87	16.38
605.03	72.56
605.18	23.41
605.34	14.04
605.49	77.24
605.65	60.85
605.80	100.64
605.96	7.02
606.12	56.17
606.27	0.00
606.43	23.41
606.58	67.88
606.74	7.02
606.89	88.94
607.05	147.45
607.20	152.13
607.36	168.52
607.51	58.51
607.67	65.54
607.82	30.43
607.98	16.38
608.13	0.00
608.29	0.00
608.44	30.43
608.60	0.00
608.75	86.60
608.91	44.47
609.06	145.11
609.22	180.22
609.37	222.35
609.53	184.90
609.68	88.94
609.84	117.03
609.99	28.09
610.15	86.60
610.30	100.64
610.46	60.85
610.61	0.00
610.76	0.00
610.92	32.77
611.07	70.22
611.23	100.64
611.38	53.83
611.54	37.45
611.69	53.83
611.84	32.77
612.00	0.00
612.15	0.00
612.31	88.94
612.46	21.06
612.62	53.83
612.77	37.45
612.92	35.11
613.08	74.90
613.23	138.09
613.39	7.02
613.54	84.26
613.69	128.73
613.85	212.99
614.00	283.20
614.15	308.95
614.31	215.33
614.46	180.22
614.62	180.22
614.77	117.03
614.92	119.37
615.08	0.00
615.23	58.51
615.38	18.72
615.54	81.92
615.69	28.09
615.84	112.35
616.00	53.83
616.15	107.66
616.30	163.84
616.46	135.75
616.61	0.00
616.76	44.47
616.92	67.88
617.07	25.75
617.22	63.19
617.37	28.09
617.53	72.56
617.68	0.00
617.83	65.54
617.99	35.11
618.14	56.17
618.29	42.13
618.45	23.41
618.60	11.70
618.75	42.13
618.90	70.22
619.06	56.17
619.21	46.81
619.36	14.04
619.51	0.00
619.67	42.13
619.82	0.00
619.97	0.00
620.12	7.02
620.28	21.06
620.43	0.00
620.58	63.19
620.73	51.49
620.89	58.51
621.04	9.36
621.19	79.58
621.34	44.47
621.49	117.03
621.65	124.05
621.80	39.79
621.95	84.26
622.10	88.94
622.25	0.00
622.41	18.72
622.56	37.45
622.71	35.11
622.86	0.00
623.01	37.45
623.16	49.15
623.32	72.56
623.47	16.38
623.62	86.60
623.77	11.70
623.92	58.51
624.07	37.45
624.23	11.70
624.38	0.00
624.53	42.13
624.68	49.15
624.83	16.38
624.98	2.34
625.13	37.45
625.29	49.15
625.44	44.47
625.59	60.85
625.74	77.24
625.89	49.15
626.04	53.83
626.19	112.35
626.34	145.11
626.49	198.95
626.65	105.32
626.80	88.94
626.95	56.17
627.10	35.11
627.25	28.09
627.40	42.13
627.55	21.06
627.70	56.17
627.85	0.00
628.00	28.09
628.15	58.51
628.30	44.47
628.45	14.04
628.60	4.68
628.76	58.51
628.91	28.09
629.06	0.00
629.21	7.02
629.36	11.70
629.51	28.09
629.66	0.00
629.81	21.06
629.96	21.06
630.11	18.72
630.26	72.56
630.41	60.85
630.56	91.28
630.71	49.15
630.86	88.94
631.01	32.77
631.16	79.58
631.31	60.85
631.46	30.43
631.61	30.43
631.76	77.24
631.91	18.72
632.06	0.00
632.21	18.72
632.36	46.81
632.51	37.45
632.66	23.41
632.81	67.88
632.96	107.66
633.10	107.66
633.25	131.07
633.40	105.32
633.55	56.17
633.70	67.88
633.85	102.98
634.00	35.11
634.15	32.77
634.30	44.47
634.45	0.00
634.60	32.77
634.75	23.41
634.90	0.00
635.05	0.00
635.19	21.06
635.34	14.04
635.49	86.60
635.64	81.92
635.79	44.47
635.94	79.58
636.09	0.00
636.24	0.00
636.39	18.72
636.53	9.36
636.68	0.00
636.83	0.00
636.98	67.88
637.13	4.68
637.28	39.79
637.43	0.00
637.57	91.28
637.72	102.98
637.87	161.50
638.02	177.88
638.17	198.95
638.32	170.86
638.46	161.50
638.61	140.43
638.76	51.49
638.91	0.00
639.06	63.19
639.20	0.00
639.35	39.79
639.50	56.17
639.65	79.58
639.80	222.35
639.94	315.97
640.09	243.42
640.24	175.54
640.39	238.73
640.54	119.37
640.68	86.60
640.83	95.96
640.98	39.79
641.13	32.77
641.27	4.68
641.42	21.06
641.57	117.03
641.72	65.54
641.86	14.04
642.01	16.38
642.16	126.39
642.31	58.51
642.45	39.79
642.60	0.00
642.75	49.15
642.90	56.17
643.04	133.41
643.19	0.00
643.34	77.24
643.48	11.70
643.63	60.85
643.78	21.06
643.93	86.60
644.07	0.00
644.22	100.64
644.37	74.90
644.51	79.58
644.66	0.00
644.81	51.49
644.95	30.43
645.10	51.49
645.25	110.01
645.39	32.77
645.54	86.60
645.69	53.83
645.83	100.64
645.98	56.17
646.13	18.72
646.27	16.38
646.42	74.90
646.57	49.15
646.71	16.38
646.86	0.00
647.00	60.85
647.15	0.00
647.30	86.60
647.44	16.38
647.59	0.00
647.74	35.11
647.88	51.49
648.03	88.94
648.17	0.00
648.32	42.13
648.47	53.83
648.61	60.85
648.76	0.00
648.90	9.36
649.05	18.72
649.20	0.00
649.34	0.00
649.49	56.17
649.63	16.38
649.78	0.00
649.92	23.41
650.07	58.51
650.21	100.64
650.36	119.37
650.51	147.45
650.65	58.51
650.80	110.01
650.94	79.58
651.09	46.81
651.23	74.90
651.38	67.88
651.52	95.96
651.67	0.00
651.81	44.47
651.96	67.88
652.10	39.79
652.25	39.79
652.39	23.41
652.54	11.70
652.68	60.85
652.83	105.32
652.97	65.54
653.12	91.28
653.26	14.04
653.41	23.41
653.55	42.13
653.70	70.22
653.84	2.34
653.99	14.04
654.13	30.43
654.27	114.69
654.42	53.83
654.56	46.81
654.71	72.56
654.85	39.79
655.00	42.13
655.14	105.32
655.29	21.06
655.43	0.00
655.57	0.00
655.72	37.45
655.86	18.72
656.01	53.83
656.15	46.81
656.30	30.43
656.44	2.34
656.58	35.11
656.73	58.51
656.87	0.00
657.01	23.41
657.16	93.62
657.30	70.22
657.45	63.19
657.59	51.49
657.73	60.85
657.88	46.81
658.02	0.00
658.16	11.70
658.31	88.94
658.45	0.00
658.60	18.72
658.74	72.56
658.88	14.04
659.03	58.51
659.17	16.38
659.31	93.62
659.46	81.92
659.60	112.35
659.74	60.85
659.89	86.60
660.03	74.90
660.17	107.66
660.32	56.17
660.46	0.00
660.60	53.83
660.74	2.34
660.89	18.72
661.03	84.26
661.17	25.75
661.32	0.00
661.46	53.83
661.60	51.49
661.74	0.00
661.89	63.19
662.03	84.26
662.17	0.00
662.31	14.04
662.46	11.70
662.60	77.24
662.74	25.75
662.88	18.72
663.03	65.54
663.17	18.72
663.31	39.79
663.45	70.22
663.60	58.51
663.74	21.06
663.88	0.00
664.02	35.11
664.17	30.43
664.31	0.00
664.45	42.13
664.59	70.22
664.73	11.70
664.88	86.60
665.02	2.34
665.16	42.13
665.30	51.49
665.44	14.04
665.59	46.81
665.73	18.72
665.87	21.06
666.01	16.38
666.15	67.88
666.29	88.94
666.44	49.15
666.58	21.06
666.72	25.75
666.86	0.00
667.00	0.00
667.14	0.00
667.28	86.60
667.43	121.71
667.57	74.90
667.71	100.64
667.85	117.03
667.99	102.98
668.13	46.81
668.27	110.01
668.41	117.03
668.56	102.98
668.70	88.94
668.84	56.17
668.98	39.79
669.12	23.41
669.26	2.34
669.40	23.41
669.54	0.00
669.68	74.90
669.82	32.77
669.96	14.04
670.10	30.43
670.25	0.00
670.39	58.51
670.53	77.24
670.67	11.70
670.81	0.00
670.95	39.79
671.09	63.19
671.23	42.13
671.37	77.24
671.51	72.56
671.65	133.41
671.79	105.32
671.93	93.62
672.07	46.81
672.21	67.88
672.35	37.45
672.49	56.17
672.63	0.00
672.77	65.54
672.91	18.72
673.05	14.04
673.19	0.00
673.33	16.38
673.47	42.13
673.61	63.19
673.75	56.17
673.89	25.75
674.03	4.68
674.17	0.00
674.31	23.41
674.45	58.51
674.59	32.77
674.73	16.38
674.87	46.81
675.01	23.41
675.15	0.00
675.29	138.09
675.43	35.11
675.56	49.15
675.70	81.92
675.84	102.98
675.98	44.47
676.12	0.00
676.26	74.90
676.40	0.00
676.54	42.13
676.68	23.41
676.82	0.00
676.96	21.06
677.10	51.49
677.23	60.85
677.37	18.72
677.51	0.00
677.65	65.54
677.79	21.06
677.93	39.79
678.07	0.00
678.21	102.98
678.34	16.38
678.48	23.41
678.62	14.04
678.76	28.09
678.90	28.09
679.04	32.77
679.18	98.30
679.31	0.00
679.45	0.00
679.59	37.45
679.73	16.38
679.87	16.38
680.00	7.02
680.14	14.04
680.28	0.00
680.42	102.98
680.56	21.06
680.70	60.85
680.83	0.00
680.97	91.28
681.11	0.00
681.25	0.00
681.39	100.64
681.52	7.02
681.66	42.13
681.80	0.00
681.94	42.13
682.07	2.34
682.21	0.00
682.35	21.06
682.49	0.00
682.62	0.00
682.76	79.58
682.90	23.41
683.04	37.45
683.17	7.02
683.31	32.77
683.45	65.54
683.59	14.04
683.72	46.81
683.86	30.43
684.00	21.06
684.13	95.96
684.27	4.68
684.41	0.00
684.55	72.56
684.68	0.00
684.82	35.11
684.96	11.70
685.09	0.00
685.23	11.70
685.37	60.85
685.50	49.15
685.64	0.00
685.78	9.36
685.91	56.17
686.05	49.15
686.19	28.09
686.32	86.60
686.46	2.34
686.60	25.75
686.73	9.36
686.87	25.75
687.01	0.00
687.14	32.77
687.28	23.41
687.42	79.58
687.55	14.04
687.69	18.72
687.82	63.19
687.96	72.56
688.10	112.35
688.23	0.00
688.37	0.00
688.50	23.41
688.64	14.04
688.78	28.09
688.91	0.00
689.05	42.13
689.18	67.88
689.32	56.17
689.46	44.47
689.59	2.34
689.73	42.13
689.86	37.45
690.00	0.00
690.13	4.68
690.27	25.75
690.41	0.00
690.54	23.41
690.68	37.45
690.81	53.83
690.95	25.75
691.08	107.66
691.22	53.83
691.35	2.34
691.49	0.00
691.62	32.77
691.76	25.75
691.89	63.19
692.03	2.34
692.16	84.26
692.30	39.79
692.43	16.38
692.57	32.77
692.70	7.02
692.84	100.64
692.97	114.69
693.11	77.24
693.24	18.72
693.38	46.81
693.51	119.37
693.65	23.41
693.78	25.75
693.92	91.28
694.05	79.58
694.19	16.38
694.32	98.30
694.45	0.00
694.59	14.04
694.72	46.81
694.86	98.30
694.99	28.09
695.13	70.22
695.26	56.17
695.39	25.75
695.53	88.94
695.66	25.75
695.80	9.36
695.93	37.45
696.07	0.00
696.20	4.68
696.33	0.00
696.47	0.00
696.60	23.41
696.73	0.00
696.87	18.72
697.00	35.11
697.14	110.01
697.27	70.22
697.40	0.00
697.54	46.81
697.67	77.24
697.80	0.00
697.94	74.90
698.07	0.00
698.21	14.04
698.34	35.11
698.47	25.75
698.61	14.04
698.74	35.11
698.87	56.17
699.01	30.43
699.14	18.72
699.27	0.00
699.40	79.58
699.54	7.02
699.67	21.06
699.80	28.09
699.94	58.51
700.07	28.09
700.20	35.11
700.34	46.81
700.47	44.47
700.60	7.02
700.73	28.09
700.87	51.49
701.00	28.09
701.13	2.34
701.26	16.38
701.40	112.35
701.53	70.22
701.66	51.49
701.79	16.38
701.93	42.13
702.06	56.17
702.19	65.54
702.32	49.15
702.46	124.05
702.59	84.26
702.72	53.83
702.85	65.54
702.99	159.16
703.12	119.37
703.25	100.64
703.38	107.66
703.51	138.09
703.65	72.56
703.78	60.85
703.91	18.72
704.04	32.77
704.17	49.15
704.31	11.70
704.44	65.54
704.57	16.38
704.70	58.51
704.83	46.81
704.96	32.77
705.10	23.41
705.23	32.77
>>>>>End Processed Spectral Data<<<<<
