SpectraSuite Data File
++++++++++++++++++++++++++++++++++++
Date: Fri Oct 04 12:13:34 GMT-05:00 2013
User: price-jones
Dark Spectrum Present: No
Reference Spectrum Present: No
Number of Sampled Component Spectra: 1
Spectrometers: USB2+H05261
Integration Time (usec): 10000 (USB2+H05261)
Spectra Averaged: 1 (USB2+H05261)
Boxcar Smoothing: 0 (USB2+H05261)
Correct for Electrical Dark: No (USB2+H05261)
Strobe/Lamp Enabled: No (USB2+H05261)
Correct for Detector Non-linearity: No (USB2+H05261)
Correct for Stray Light: No (USB2+H05261)
Number of Pixels in Processed Spectrum: 2048
>>>>>Begin Processed Spectral Data<<<<<
365.73	0.00
365.92	0.00
366.12	0.00
366.32	0.00
366.52	0.00
366.72	0.00
366.91	0.00
367.11	0.00
367.31	0.00
367.51	0.00
367.70	0.00
367.90	0.00
368.10	0.00
368.30	0.00
368.49	0.00
368.69	0.00
368.89	0.00
369.09	0.00
369.28	0.00
369.48	0.00
369.68	0.00
369.87	0.00
370.07	0.00
370.27	0.00
370.47	0.00
370.66	0.00
370.86	0.00
371.06	18.72
371.25	0.00
371.45	0.00
371.65	0.00
371.84	0.00
372.04	58.51
372.24	0.00
372.44	0.00
372.63	42.13
372.83	37.45
373.03	0.00
373.22	30.43
373.42	23.41
373.62	0.00
373.81	0.00
374.01	65.54
374.21	14.04
374.40	58.51
374.60	0.00
374.79	0.00
374.99	9.36
375.19	28.09
375.38	30.43
375.58	81.92
375.78	0.00
375.97	14.04
376.17	0.00
376.37	77.24
376.56	16.38
376.76	0.00
376.95	46.81
377.15	23.41
377.35	9.36
377.54	95.96
377.74	2.34
377.93	0.00
378.13	32.77
378.33	35.11
378.52	7.02
378.72	77.24
378.91	16.38
379.11	0.00
379.31	32.77
379.50	72.56
379.70	4.68
379.89	0.00
380.09	18.72
380.28	0.00
380.48	21.06
380.68	2.34
380.87	0.00
381.07	0.00
381.26	46.81
381.46	51.49
381.65	14.04
381.85	0.00
382.04	4.68
382.24	16.38
382.43	0.00
382.63	25.75
382.83	2.34
383.02	0.00
383.22	0.00
383.41	0.00
383.61	42.13
383.80	49.15
384.00	9.36
384.19	9.36
384.39	0.00
384.58	0.00
384.78	0.00
384.97	63.19
385.17	63.19
385.36	0.00
385.56	35.11
385.75	16.38
385.95	0.00
386.14	11.70
386.34	30.43
386.53	28.09
386.72	49.15
386.92	21.06
387.11	30.43
387.31	16.38
387.50	23.41
387.70	0.00
387.89	0.00
388.09	49.15
388.28	60.85
388.48	74.90
388.67	42.13
388.86	0.00
389.06	79.58
389.25	46.81
389.45	42.13
389.64	46.81
389.84	44.47
390.03	0.00
390.22	67.88
390.42	70.22
390.61	0.00
390.81	0.00
391.00	28.09
391.19	44.47
391.39	60.85
391.58	37.45
391.78	18.72
391.97	0.00
392.16	51.49
392.36	0.00
392.55	32.77
392.75	0.00
392.94	0.00
393.13	0.00
393.33	42.13
393.52	7.02
393.71	0.00
393.91	21.06
394.10	58.51
394.29	14.04
394.49	21.06
394.68	32.77
394.88	88.94
395.07	84.26
395.26	65.54
395.46	32.77
395.65	7.02
395.84	9.36
396.04	39.79
396.23	0.00
396.42	7.02
396.62	58.51
396.81	63.19
397.00	53.83
397.19	28.09
397.39	0.00
397.58	0.00
397.77	0.00
397.97	28.09
398.16	56.17
398.35	56.17
398.55	39.79
398.74	28.09
398.93	53.83
399.12	42.13
399.32	0.00
399.51	72.56
399.70	0.00
399.90	11.70
400.09	42.13
400.28	4.68
400.47	0.00
400.67	60.85
400.86	0.00
401.05	0.00
401.24	0.00
401.44	4.68
401.63	23.41
401.82	32.77
402.01	21.06
402.21	0.00
402.40	25.75
402.59	37.45
402.78	21.06
402.97	0.00
403.17	0.00
403.36	39.79
403.55	0.00
403.74	100.64
403.93	32.77
404.13	37.45
404.32	46.81
404.51	74.90
404.70	46.81
404.89	0.00
405.09	70.22
405.28	0.00
405.47	49.15
405.66	49.15
405.85	0.00
406.05	91.28
406.24	42.13
406.43	0.00
406.62	0.00
406.81	28.09
407.00	42.13
407.20	53.83
407.39	81.92
407.58	77.24
407.77	32.77
407.96	51.49
408.15	133.41
408.34	58.51
408.54	49.15
408.73	14.04
408.92	39.79
409.11	86.60
409.30	32.77
409.49	11.70
409.68	37.45
409.87	0.00
410.07	23.41
410.26	63.19
410.45	16.38
410.64	0.00
410.83	74.90
411.02	11.70
411.21	46.81
411.40	131.07
411.59	0.00
411.78	0.00
411.98	0.00
412.17	35.11
412.36	56.17
412.55	53.83
412.74	14.04
412.93	56.17
413.12	70.22
413.31	9.36
413.50	7.02
413.69	70.22
413.88	23.41
414.07	30.43
414.26	0.00
414.45	67.88
414.64	11.70
414.83	37.45
415.02	0.00
415.22	42.13
415.41	112.35
415.60	65.54
415.79	63.19
415.98	0.00
416.17	46.81
416.36	49.15
416.55	77.24
416.74	105.32
416.93	32.77
417.12	30.43
417.31	67.88
417.50	51.49
417.69	11.70
417.88	63.19
418.07	28.09
418.26	81.92
418.45	77.24
418.64	72.56
418.83	14.04
419.02	35.11
419.21	77.24
419.39	114.69
419.58	60.85
419.77	21.06
419.96	51.49
420.15	0.00
420.34	39.79
420.53	32.77
420.72	102.98
420.91	56.17
421.10	117.03
421.29	30.43
421.48	60.85
421.67	46.81
421.86	9.36
422.05	25.75
422.24	105.32
422.43	0.00
422.61	30.43
422.80	46.81
422.99	37.45
423.18	60.85
423.37	0.00
423.56	0.00
423.75	7.02
423.94	53.83
424.13	95.96
424.32	72.56
424.50	84.26
424.69	67.88
424.88	84.26
425.07	0.00
425.26	16.38
425.45	0.00
425.64	14.04
425.83	70.22
426.01	0.00
426.20	4.68
426.39	42.13
426.58	32.77
426.77	63.19
426.96	28.09
427.15	53.83
427.33	70.22
427.52	58.51
427.71	0.00
427.90	46.81
428.09	65.54
428.28	84.26
428.46	49.15
428.65	25.75
428.84	14.04
429.03	28.09
429.22	77.24
429.40	46.81
429.59	4.68
429.78	39.79
429.97	88.94
430.16	14.04
430.34	42.13
430.53	0.00
430.72	46.81
430.91	39.79
431.10	23.41
431.28	51.49
431.47	72.56
431.66	16.38
431.85	58.51
432.03	37.45
432.22	72.56
432.41	98.30
432.60	100.64
432.79	63.19
432.97	56.17
433.16	0.00
433.35	9.36
433.54	86.60
433.72	51.49
433.91	39.79
434.10	0.00
434.28	0.00
434.47	74.90
434.66	37.45
434.85	46.81
435.03	0.00
435.22	51.49
435.41	0.00
435.59	9.36
435.78	0.00
435.97	65.54
436.16	112.35
436.34	72.56
436.53	72.56
436.72	91.28
436.90	28.09
437.09	0.00
437.28	70.22
437.46	44.47
437.65	67.88
437.84	65.54
438.02	91.28
438.21	18.72
438.40	18.72
438.58	102.98
438.77	79.58
438.96	49.15
439.14	4.68
439.33	46.81
439.52	0.00
439.70	25.75
439.89	56.17
440.08	42.13
440.26	63.19
440.45	119.37
440.63	28.09
440.82	105.32
441.01	77.24
441.19	100.64
441.38	28.09
441.57	84.26
441.75	35.11
441.94	70.22
442.12	58.51
442.31	2.34
442.50	93.62
442.68	46.81
442.87	30.43
443.05	0.00
443.24	60.85
443.43	79.58
443.61	72.56
443.80	79.58
443.98	63.19
444.17	0.00
444.35	72.56
444.54	42.13
444.73	46.81
444.91	95.96
445.10	63.19
445.28	51.49
445.47	86.60
445.65	32.77
445.84	37.45
446.02	18.72
446.21	0.00
446.39	0.00
446.58	0.00
446.77	93.62
446.95	63.19
447.14	60.85
447.32	30.43
447.51	35.11
447.69	60.85
447.88	72.56
448.06	44.47
448.25	2.34
448.43	100.64
448.62	0.00
448.80	88.94
448.99	77.24
449.17	4.68
449.36	16.38
449.54	65.54
449.73	9.36
449.91	102.98
450.10	100.64
450.28	51.49
450.46	93.62
450.65	0.00
450.83	51.49
451.02	63.19
451.20	56.17
451.39	0.00
451.57	98.30
451.76	0.00
451.94	18.72
452.13	63.19
452.31	18.72
452.49	30.43
452.68	91.28
452.86	0.00
453.05	39.79
453.23	16.38
453.42	23.41
453.60	121.71
453.78	42.13
453.97	159.16
454.15	30.43
454.34	77.24
454.52	56.17
454.70	51.49
454.89	126.39
455.07	44.47
455.26	53.83
455.44	0.00
455.62	39.79
455.81	70.22
455.99	37.45
456.17	51.49
456.36	0.00
456.54	81.92
456.73	2.34
456.91	58.51
457.09	32.77
457.28	70.22
457.46	93.62
457.64	72.56
457.83	63.19
458.01	11.70
458.19	35.11
458.38	9.36
458.56	100.64
458.74	74.90
458.93	0.00
459.11	102.98
459.29	21.06
459.48	0.00
459.66	63.19
459.84	102.98
460.03	74.90
460.21	14.04
460.39	166.18
460.57	95.96
460.76	44.47
460.94	65.54
461.12	11.70
461.31	16.38
461.49	16.38
461.67	16.38
461.85	21.06
462.04	72.56
462.22	140.43
462.40	14.04
462.59	21.06
462.77	4.68
462.95	124.05
463.13	42.13
463.32	74.90
463.50	117.03
463.68	72.56
463.86	112.35
464.05	53.83
464.23	84.26
464.41	93.62
464.59	65.54
464.78	124.05
464.96	49.15
465.14	77.24
465.32	11.70
465.50	21.06
465.69	60.85
465.87	149.79
466.05	56.17
466.23	91.28
466.41	2.34
466.60	46.81
466.78	44.47
466.96	9.36
467.14	25.75
467.32	35.11
467.51	42.13
467.69	79.58
467.87	65.54
468.05	28.09
468.23	86.60
468.41	60.85
468.60	81.92
468.78	74.90
468.96	77.24
469.14	93.62
469.32	98.30
469.50	84.26
469.69	149.79
469.87	112.35
470.05	74.90
470.23	81.92
470.41	84.26
470.59	32.77
470.77	32.77
470.95	21.06
471.14	44.47
471.32	145.11
471.50	14.04
471.68	39.79
471.86	53.83
472.04	88.94
472.22	81.92
472.40	84.26
472.58	46.81
472.77	0.00
472.95	16.38
473.13	44.47
473.31	102.98
473.49	35.11
473.67	37.45
473.85	44.47
474.03	46.81
474.21	114.69
474.39	53.83
474.57	44.47
474.75	44.47
474.93	2.34
475.12	72.56
475.30	74.90
475.48	0.00
475.66	53.83
475.84	46.81
476.02	21.06
476.20	107.66
476.38	25.75
476.56	70.22
476.74	30.43
476.92	63.19
477.10	119.37
477.28	0.00
477.46	35.11
477.64	74.90
477.82	46.81
478.00	93.62
478.18	37.45
478.36	32.77
478.54	37.45
478.72	0.00
478.90	95.96
479.08	98.30
479.26	84.26
479.44	35.11
479.62	88.94
479.80	11.70
479.98	44.47
480.16	77.24
480.34	39.79
480.52	28.09
480.70	102.98
480.88	44.47
481.06	70.22
481.24	70.22
481.41	131.07
481.59	25.75
481.77	91.28
481.95	42.13
482.13	30.43
482.31	42.13
482.49	100.64
482.67	102.98
482.85	65.54
483.03	16.38
483.21	100.64
483.39	51.49
483.57	60.85
483.74	60.85
483.92	60.85
484.10	77.24
484.28	88.94
484.46	32.77
484.64	58.51
484.82	65.54
485.00	91.28
485.18	60.85
485.35	0.00
485.53	28.09
485.71	79.58
485.89	65.54
486.07	72.56
486.25	56.17
486.43	119.37
486.61	18.72
486.78	93.62
486.96	37.45
487.14	18.72
487.32	32.77
487.50	2.34
487.68	79.58
487.85	37.45
488.03	105.32
488.21	95.96
488.39	23.41
488.57	67.88
488.75	63.19
488.92	37.45
489.10	14.04
489.28	95.96
489.46	53.83
489.64	14.04
489.81	100.64
489.99	72.56
490.17	77.24
490.35	84.26
490.53	72.56
490.70	49.15
490.88	98.30
491.06	112.35
491.24	79.58
491.41	135.75
491.59	77.24
491.77	49.15
491.95	88.94
492.13	18.72
492.30	0.00
492.48	98.30
492.66	23.41
492.84	91.28
493.01	39.79
493.19	86.60
493.37	93.62
493.54	58.51
493.72	72.56
493.90	124.05
494.08	98.30
494.25	152.13
494.43	145.11
494.61	35.11
494.79	117.03
494.96	67.88
495.14	37.45
495.32	124.05
495.49	93.62
495.67	77.24
495.85	100.64
496.02	86.60
496.20	126.39
496.38	112.35
496.55	93.62
496.73	107.66
496.91	35.11
497.09	84.26
497.26	79.58
497.44	72.56
497.62	74.90
497.79	63.19
497.97	51.49
498.14	131.07
498.32	98.30
498.50	79.58
498.67	9.36
498.85	51.49
499.03	67.88
499.20	119.37
499.38	119.37
499.56	60.85
499.73	119.37
499.91	32.77
500.08	95.96
500.26	32.77
500.44	86.60
500.61	23.41
500.79	42.13
500.97	100.64
501.14	110.01
501.32	95.96
501.49	70.22
501.67	102.98
501.84	114.69
502.02	105.32
502.20	112.35
502.37	81.92
502.55	121.71
502.72	74.90
502.90	60.85
503.07	67.88
503.25	9.36
503.43	2.34
503.60	44.47
503.78	0.00
503.95	65.54
504.13	0.00
504.30	79.58
504.48	53.83
504.65	42.13
504.83	93.62
505.01	65.54
505.18	126.39
505.36	39.79
505.53	72.56
505.71	126.39
505.88	35.11
506.06	63.19
506.23	126.39
506.41	145.11
506.58	117.03
506.76	60.85
506.93	119.37
507.11	91.28
507.28	88.94
507.46	152.13
507.63	102.98
507.81	70.22
507.98	53.83
508.16	110.01
508.33	56.17
508.50	81.92
508.68	77.24
508.85	95.96
509.03	84.26
509.20	100.64
509.38	79.58
509.55	42.13
509.73	93.62
509.90	77.24
510.08	81.92
510.25	100.64
510.42	53.83
510.60	79.58
510.77	112.35
510.95	70.22
511.12	86.60
511.30	88.94
511.47	23.41
511.64	131.07
511.82	74.90
511.99	166.18
512.17	81.92
512.34	58.51
512.51	114.69
512.69	84.26
512.86	65.54
513.04	86.60
513.21	140.43
513.38	72.56
513.56	95.96
513.73	67.88
513.90	70.22
514.08	49.15
514.25	49.15
514.43	58.51
514.60	72.56
514.77	63.19
514.95	28.09
515.12	51.49
515.29	37.45
515.47	30.43
515.64	42.13
515.81	98.30
515.99	91.28
516.16	121.71
516.33	105.32
516.51	81.92
516.68	98.30
516.85	110.01
517.03	74.90
517.20	18.72
517.37	42.13
517.54	16.38
517.72	154.48
517.89	46.81
518.06	126.39
518.24	53.83
518.41	112.35
518.58	72.56
518.75	53.83
518.93	93.62
519.10	0.00
519.27	67.88
519.45	65.54
519.62	91.28
519.79	88.94
519.96	98.30
520.14	39.79
520.31	77.24
520.48	154.48
520.65	119.37
520.83	121.71
521.00	79.58
521.17	21.06
521.34	0.00
521.52	100.64
521.69	135.75
521.86	98.30
522.03	60.85
522.20	128.73
522.38	32.77
522.55	138.09
522.72	77.24
522.89	72.56
523.07	16.38
523.24	107.66
523.41	126.39
523.58	72.56
523.75	112.35
523.92	37.45
524.10	138.09
524.27	58.51
524.44	93.62
524.61	138.09
524.78	74.90
524.96	70.22
525.13	93.62
525.30	131.07
525.47	84.26
525.64	149.79
525.81	28.09
525.98	133.41
526.16	56.17
526.33	84.26
526.50	42.13
526.67	28.09
526.84	23.41
527.01	124.05
527.18	91.28
527.36	74.90
527.53	110.01
527.70	72.56
527.87	51.49
528.04	117.03
528.21	65.54
528.38	126.39
528.55	95.96
528.72	56.17
528.89	102.98
529.07	74.90
529.24	131.07
529.41	39.79
529.58	51.49
529.75	46.81
529.92	58.51
530.09	70.22
530.26	53.83
530.43	56.17
530.60	124.05
530.77	88.94
530.94	138.09
531.11	53.83
531.28	79.58
531.46	100.64
531.63	86.60
531.80	105.32
531.97	81.92
532.14	105.32
532.31	72.56
532.48	128.73
532.65	110.01
532.82	86.60
532.99	63.19
533.16	42.13
533.33	37.45
533.50	177.88
533.67	105.32
533.84	44.47
534.01	107.66
534.18	180.22
534.35	173.20
534.52	98.30
534.69	84.26
534.86	46.81
535.03	95.96
535.20	79.58
535.37	128.73
535.54	63.19
535.71	51.49
535.88	91.28
536.05	77.24
536.22	67.88
536.38	84.26
536.55	124.05
536.72	88.94
536.89	18.72
537.06	117.03
537.23	110.01
537.40	81.92
537.57	107.66
537.74	124.05
537.91	138.09
538.08	65.54
538.25	95.96
538.42	16.38
538.59	79.58
538.75	119.37
538.92	16.38
539.09	58.51
539.26	72.56
539.43	11.70
539.60	86.60
539.77	70.22
539.94	105.32
540.11	145.11
540.28	79.58
540.44	49.15
540.61	79.58
540.78	126.39
540.95	77.24
541.12	133.41
541.29	81.92
541.46	58.51
541.62	67.88
541.79	77.24
541.96	86.60
542.13	98.30
542.30	112.35
542.47	156.82
542.63	0.00
542.80	74.90
542.97	81.92
543.14	58.51
543.31	119.37
543.48	65.54
543.64	93.62
543.81	77.24
543.98	81.92
544.15	46.81
544.32	84.26
544.48	88.94
544.65	114.69
544.82	53.83
544.99	56.17
545.16	105.32
545.32	37.45
545.49	91.28
545.66	44.47
545.83	79.58
546.00	114.69
546.16	32.77
546.33	51.49
546.50	18.72
546.67	102.98
546.83	60.85
547.00	67.88
547.17	14.04
547.34	105.32
547.50	63.19
547.67	98.30
547.84	49.15
548.00	81.92
548.17	128.73
548.34	72.56
548.51	30.43
548.67	44.47
548.84	128.73
549.01	74.90
549.18	70.22
549.34	49.15
549.51	124.05
549.68	84.26
549.84	23.41
550.01	128.73
550.18	86.60
550.34	72.56
550.51	91.28
550.68	105.32
550.84	93.62
551.01	65.54
551.18	81.92
551.34	93.62
551.51	119.37
551.68	140.43
551.84	110.01
552.01	58.51
552.18	39.79
552.34	124.05
552.51	112.35
552.68	77.24
552.84	112.35
553.01	88.94
553.18	126.39
553.34	112.35
553.51	25.75
553.67	88.94
553.84	161.50
554.01	32.77
554.17	77.24
554.34	63.19
554.51	28.09
554.67	63.19
554.84	91.28
555.00	72.56
555.17	100.64
555.33	79.58
555.50	65.54
555.67	42.13
555.83	100.64
556.00	86.60
556.16	98.30
556.33	84.26
556.50	105.32
556.66	105.32
556.83	98.30
556.99	159.16
557.16	105.32
557.32	133.41
557.49	67.88
557.65	114.69
557.82	124.05
557.98	30.43
558.15	117.03
558.32	100.64
558.48	124.05
558.65	119.37
558.81	56.17
558.98	44.47
559.14	117.03
559.31	74.90
559.47	51.49
559.64	112.35
559.80	114.69
559.97	58.51
560.13	7.02
560.30	88.94
560.46	95.96
560.63	100.64
560.79	79.58
560.96	105.32
561.12	70.22
561.29	74.90
561.45	49.15
561.61	149.79
561.78	53.83
561.94	98.30
562.11	53.83
562.27	16.38
562.44	98.30
562.60	81.92
562.77	51.49
562.93	112.35
563.10	65.54
563.26	67.88
563.42	93.62
563.59	88.94
563.75	65.54
563.92	147.45
564.08	67.88
564.24	21.06
564.41	60.85
564.57	86.60
564.74	65.54
564.90	142.77
565.07	60.85
565.23	152.13
565.39	58.51
565.56	84.26
565.72	91.28
565.88	51.49
566.05	60.85
566.21	9.36
566.38	53.83
566.54	133.41
566.70	14.04
566.87	60.85
567.03	70.22
567.19	67.88
567.36	133.41
567.52	67.88
567.68	46.81
567.85	53.83
568.01	49.15
568.17	14.04
568.34	37.45
568.50	67.88
568.66	49.15
568.83	51.49
568.99	60.85
569.15	110.01
569.32	30.43
569.48	53.83
569.64	74.90
569.81	67.88
569.97	114.69
570.13	110.01
570.30	95.96
570.46	44.47
570.62	32.77
570.78	74.90
570.95	56.17
571.11	51.49
571.27	63.19
571.43	65.54
571.60	49.15
571.76	70.22
571.92	35.11
572.09	84.26
572.25	18.72
572.41	98.30
572.57	42.13
572.74	86.60
572.90	63.19
573.06	86.60
573.22	18.72
573.38	56.17
573.55	117.03
573.71	9.36
573.87	21.06
574.03	23.41
574.20	60.85
574.36	53.83
574.52	84.26
574.68	81.92
574.84	18.72
575.01	107.66
575.17	23.41
575.33	131.07
575.49	88.94
575.65	53.83
575.82	77.24
575.98	86.60
576.14	32.77
576.30	77.24
576.46	84.26
576.62	131.07
576.79	102.98
576.95	86.60
577.11	0.00
577.27	72.56
577.43	74.90
577.59	95.96
577.75	32.77
577.92	93.62
578.08	84.26
578.24	168.52
578.40	42.13
578.56	117.03
578.72	51.49
578.88	114.69
579.04	81.92
579.21	121.71
579.37	98.30
579.53	112.35
579.69	140.43
579.85	147.45
580.01	88.94
580.17	100.64
580.33	65.54
580.49	51.49
580.65	93.62
580.82	63.19
580.98	37.45
581.14	0.00
581.30	110.01
581.46	77.24
581.62	81.92
581.78	112.35
581.94	63.19
582.10	49.15
582.26	147.45
582.42	124.05
582.58	74.90
582.74	0.00
582.90	84.26
583.06	112.35
583.22	105.32
583.38	112.35
583.54	49.15
583.70	74.90
583.86	135.75
584.02	42.13
584.18	11.70
584.34	32.77
584.50	163.84
584.66	149.79
584.82	105.32
584.98	121.71
585.14	112.35
585.30	105.32
585.46	58.51
585.62	21.06
585.78	152.13
585.94	105.32
586.10	124.05
586.26	117.03
586.42	93.62
586.58	147.45
586.74	124.05
586.90	98.30
587.06	0.00
587.22	67.88
587.38	23.41
587.54	110.01
587.70	65.54
587.86	46.81
588.02	44.47
588.18	212.99
588.34	149.79
588.49	65.54
588.65	30.43
588.81	60.85
588.97	88.94
589.13	0.00
589.29	58.51
589.45	77.24
589.61	77.24
589.77	102.98
589.93	63.19
590.08	49.15
590.24	53.83
590.40	100.64
590.56	65.54
590.72	70.22
590.88	30.43
591.04	53.83
591.20	105.32
591.35	88.94
591.51	84.26
591.67	65.54
591.83	72.56
591.99	86.60
592.15	124.05
592.31	84.26
592.46	21.06
592.62	91.28
592.78	91.28
592.94	100.64
593.10	86.60
593.26	95.96
593.41	91.28
593.57	117.03
593.73	0.00
593.89	65.54
594.05	32.77
594.20	65.54
594.36	84.26
594.52	102.98
594.68	46.81
594.84	30.43
594.99	91.28
595.15	25.75
595.31	110.01
595.47	51.49
595.62	42.13
595.78	42.13
595.94	124.05
596.10	110.01
596.25	84.26
596.41	88.94
596.57	42.13
596.73	70.22
596.88	9.36
597.04	42.13
597.20	86.60
597.36	84.26
597.51	84.26
597.67	84.26
597.83	30.43
597.99	112.35
598.14	93.62
598.30	53.83
598.46	51.49
598.61	56.17
598.77	105.32
598.93	88.94
599.09	37.45
599.24	117.03
599.40	37.45
599.56	93.62
599.71	88.94
599.87	91.28
600.03	37.45
600.18	102.98
600.34	140.43
600.50	58.51
600.65	37.45
600.81	72.56
600.97	74.90
601.12	86.60
601.28	42.13
601.44	105.32
601.59	79.58
601.75	81.92
601.91	102.98
602.06	42.13
602.22	44.47
602.37	58.51
602.53	81.92
602.69	72.56
602.84	100.64
603.00	88.94
603.16	74.90
603.31	107.66
603.47	107.66
603.62	44.47
603.78	84.26
603.94	67.88
604.09	67.88
604.25	53.83
604.40	23.41
604.56	60.85
604.71	86.60
604.87	51.49
605.03	49.15
605.18	88.94
605.34	0.00
605.49	0.00
605.65	39.79
605.80	56.17
605.96	91.28
606.12	84.26
606.27	93.62
606.43	70.22
606.58	135.75
606.74	98.30
606.89	39.79
607.05	44.47
607.20	9.36
607.36	28.09
607.51	70.22
607.67	37.45
607.82	63.19
607.98	86.60
608.13	16.38
608.29	124.05
608.44	70.22
608.60	67.88
608.75	37.45
608.91	98.30
609.06	37.45
609.22	58.51
609.37	42.13
609.53	58.51
609.68	11.70
609.84	128.73
609.99	18.72
610.15	56.17
610.30	145.11
610.46	72.56
610.61	100.64
610.76	37.45
610.92	135.75
611.07	147.45
611.23	51.49
611.38	79.58
611.54	39.79
611.69	77.24
611.84	124.05
612.00	100.64
612.15	119.37
612.31	77.24
612.46	98.30
612.62	145.11
612.77	112.35
612.92	86.60
613.08	114.69
613.23	56.17
613.39	88.94
613.54	77.24
613.69	0.00
613.85	4.68
614.00	16.38
614.15	37.45
614.31	63.19
614.46	81.92
614.62	56.17
614.77	58.51
614.92	0.00
615.08	18.72
615.23	70.22
615.38	110.01
615.54	44.47
615.69	49.15
615.84	51.49
616.00	39.79
616.15	60.85
616.30	135.75
616.46	18.72
616.61	51.49
616.76	42.13
616.92	84.26
617.07	147.45
617.22	72.56
617.37	37.45
617.53	23.41
617.68	81.92
617.83	74.90
617.99	58.51
618.14	58.51
618.29	100.64
618.45	44.47
618.60	100.64
618.75	70.22
618.90	93.62
619.06	98.30
619.21	135.75
619.36	98.30
619.51	105.32
619.67	86.60
619.82	21.06
619.97	117.03
620.12	53.83
620.28	91.28
620.43	107.66
620.58	79.58
620.73	14.04
620.89	37.45
621.04	30.43
621.19	86.60
621.34	107.66
621.49	32.77
621.65	42.13
621.80	77.24
621.95	23.41
622.10	53.83
622.25	35.11
622.41	88.94
622.56	105.32
622.71	39.79
622.86	100.64
623.01	30.43
623.16	28.09
623.32	37.45
623.47	39.79
623.62	72.56
623.77	11.70
623.92	51.49
624.07	91.28
624.23	74.90
624.38	21.06
624.53	60.85
624.68	72.56
624.83	91.28
624.98	91.28
625.13	67.88
625.29	67.88
625.44	60.85
625.59	131.07
625.74	32.77
625.89	79.58
626.04	70.22
626.19	74.90
626.34	88.94
626.49	86.60
626.65	58.51
626.80	74.90
626.95	0.00
627.10	124.05
627.25	60.85
627.40	128.73
627.55	32.77
627.70	0.00
627.85	84.26
628.00	2.34
628.15	42.13
628.30	95.96
628.45	140.43
628.60	121.71
628.76	23.41
628.91	84.26
629.06	110.01
629.21	81.92
629.36	67.88
629.51	105.32
629.66	67.88
629.81	65.54
629.96	25.75
630.11	88.94
630.26	32.77
630.41	102.98
630.56	86.60
630.71	74.90
630.86	74.90
631.01	25.75
631.16	39.79
631.31	86.60
631.46	98.30
631.61	77.24
631.76	49.15
631.91	70.22
632.06	86.60
632.21	67.88
632.36	65.54
632.51	65.54
632.66	77.24
632.81	124.05
632.96	98.30
633.10	88.94
633.25	70.22
633.40	84.26
633.55	84.26
633.70	110.01
633.85	79.58
634.00	112.35
634.15	28.09
634.30	46.81
634.45	91.28
634.60	23.41
634.75	46.81
634.90	67.88
635.05	63.19
635.19	30.43
635.34	53.83
635.49	131.07
635.64	107.66
635.79	46.81
635.94	0.00
636.09	105.32
636.24	84.26
636.39	110.01
636.53	84.26
636.68	117.03
636.83	98.30
636.98	91.28
637.13	4.68
637.28	58.51
637.43	46.81
637.57	39.79
637.72	46.81
637.87	46.81
638.02	67.88
638.17	79.58
638.32	25.75
638.46	21.06
638.61	72.56
638.76	86.60
638.91	0.00
639.06	67.88
639.20	42.13
639.35	32.77
639.50	28.09
639.65	84.26
639.80	9.36
639.94	119.37
640.09	44.47
640.24	100.64
640.39	63.19
640.54	30.43
640.68	25.75
640.83	126.39
640.98	4.68
641.13	145.11
641.27	60.85
641.42	56.17
641.57	49.15
641.72	77.24
641.86	37.45
642.01	74.90
642.16	77.24
642.31	32.77
642.45	91.28
642.60	79.58
642.75	18.72
642.90	39.79
643.04	77.24
643.19	63.19
643.34	51.49
643.48	58.51
643.63	23.41
643.78	84.26
643.93	0.00
644.07	32.77
644.22	133.41
644.37	74.90
644.51	65.54
644.66	46.81
644.81	70.22
644.95	124.05
645.10	81.92
645.25	74.90
645.39	72.56
645.54	84.26
645.69	58.51
645.83	98.30
645.98	107.66
646.13	60.85
646.27	93.62
646.42	67.88
646.57	88.94
646.71	63.19
646.86	65.54
647.00	35.11
647.15	23.41
647.30	110.01
647.44	51.49
647.59	67.88
647.74	0.00
647.88	56.17
648.03	28.09
648.17	39.79
648.32	0.00
648.47	0.00
648.61	39.79
648.76	14.04
648.90	58.51
649.05	65.54
649.20	67.88
649.34	39.79
649.49	114.69
649.63	44.47
649.78	42.13
649.92	74.90
650.07	37.45
650.21	128.73
650.36	128.73
650.51	39.79
650.65	131.07
650.80	30.43
650.94	86.60
651.09	32.77
651.23	37.45
651.38	77.24
651.52	53.83
651.67	72.56
651.81	79.58
651.96	4.68
652.10	51.49
652.25	110.01
652.39	49.15
652.54	88.94
652.68	79.58
652.83	63.19
652.97	102.98
653.12	23.41
653.26	65.54
653.41	84.26
653.55	58.51
653.70	88.94
653.84	0.00
653.99	65.54
654.13	23.41
654.27	86.60
654.42	110.01
654.56	58.51
654.71	28.09
654.85	49.15
655.00	9.36
655.14	37.45
655.29	23.41
655.43	100.64
655.57	39.79
655.72	49.15
655.86	37.45
656.01	11.70
656.15	23.41
656.30	86.60
656.44	72.56
656.58	102.98
656.73	23.41
656.87	23.41
657.01	46.81
657.16	0.00
657.30	95.96
657.45	88.94
657.59	7.02
657.73	44.47
657.88	98.30
658.02	88.94
658.16	56.17
658.31	56.17
658.45	58.51
658.60	58.51
658.74	30.43
658.88	67.88
659.03	86.60
659.17	35.11
659.31	86.60
659.46	28.09
659.60	35.11
659.74	74.90
659.89	37.45
660.03	49.15
660.17	35.11
660.32	39.79
660.46	84.26
660.60	58.51
660.74	67.88
660.89	23.41
661.03	21.06
661.17	79.58
661.32	0.00
661.46	53.83
661.60	91.28
661.74	37.45
661.89	86.60
662.03	67.88
662.17	37.45
662.31	84.26
662.46	70.22
662.60	39.79
662.74	88.94
662.88	112.35
663.03	23.41
663.17	51.49
663.31	39.79
663.45	84.26
663.60	58.51
663.74	65.54
663.88	0.00
664.02	53.83
664.17	30.43
664.31	79.58
664.45	23.41
664.59	119.37
664.73	63.19
664.88	0.00
665.02	7.02
665.16	0.00
665.30	49.15
665.44	37.45
665.59	25.75
665.73	56.17
665.87	100.64
666.01	11.70
666.15	65.54
666.29	25.75
666.44	60.85
666.58	53.83
666.72	91.28
666.86	65.54
667.00	16.38
667.14	0.00
667.28	23.41
667.43	14.04
667.57	42.13
667.71	0.00
667.85	28.09
667.99	65.54
668.13	16.38
668.27	88.94
668.41	91.28
668.56	9.36
668.70	84.26
668.84	46.81
668.98	124.05
669.12	23.41
669.26	72.56
669.40	23.41
669.54	53.83
669.68	56.17
669.82	2.34
669.96	93.62
670.10	0.00
670.25	46.81
670.39	23.41
670.53	60.85
670.67	7.02
670.81	32.77
670.95	0.00
671.09	65.54
671.23	0.00
671.37	77.24
671.51	23.41
671.65	42.13
671.79	93.62
671.93	58.51
672.07	88.94
672.21	142.77
672.35	42.13
672.49	21.06
672.63	16.38
672.77	138.09
672.91	58.51
673.05	18.72
673.19	0.00
673.33	39.79
673.47	0.00
673.61	105.32
673.75	28.09
673.89	58.51
674.03	37.45
674.17	4.68
674.31	4.68
674.45	0.00
674.59	7.02
674.73	2.34
674.87	81.92
675.01	74.90
675.15	49.15
675.29	67.88
675.43	98.30
675.56	25.75
675.70	7.02
675.84	0.00
675.98	81.92
676.12	65.54
676.26	67.88
676.40	49.15
676.54	93.62
676.68	70.22
676.82	102.98
676.96	56.17
677.10	23.41
677.23	60.85
677.37	49.15
677.51	72.56
677.65	49.15
677.79	102.98
677.93	4.68
678.07	0.00
678.21	30.43
678.34	39.79
678.48	53.83
678.62	7.02
678.76	9.36
678.90	98.30
679.04	23.41
679.18	72.56
679.31	14.04
679.45	86.60
679.59	51.49
679.73	18.72
679.87	63.19
680.00	74.90
680.14	35.11
680.28	114.69
680.42	39.79
680.56	18.72
680.70	70.22
680.83	56.17
680.97	86.60
681.11	32.77
681.25	18.72
681.39	0.00
681.52	56.17
681.66	74.90
681.80	0.00
681.94	46.81
682.07	88.94
682.21	91.28
682.35	0.00
682.49	21.06
682.62	44.47
682.76	0.00
682.90	0.00
683.04	44.47
683.17	32.77
683.31	18.72
683.45	74.90
683.59	93.62
683.72	86.60
683.86	60.85
684.00	39.79
684.13	7.02
684.27	0.00
684.41	42.13
684.55	51.49
684.68	28.09
684.82	53.83
684.96	159.16
685.09	28.09
685.23	91.28
685.37	70.22
685.50	0.00
685.64	65.54
685.78	79.58
685.91	28.09
686.05	49.15
686.19	21.06
686.32	44.47
686.46	46.81
686.60	16.38
686.73	32.77
686.87	86.60
687.01	0.00
687.14	147.45
687.28	58.51
687.42	0.00
687.55	67.88
687.69	91.28
687.82	0.00
687.96	39.79
688.10	21.06
688.23	0.00
688.37	112.35
688.50	16.38
688.64	53.83
688.78	100.64
688.91	35.11
689.05	37.45
689.18	81.92
689.32	2.34
689.46	11.70
689.59	133.41
689.73	70.22
689.86	4.68
690.00	37.45
690.13	35.11
690.27	56.17
690.41	84.26
690.54	14.04
690.68	63.19
690.81	30.43
690.95	117.03
691.08	145.11
691.22	14.04
691.35	28.09
691.49	39.79
691.62	7.02
691.76	16.38
691.89	124.05
692.03	67.88
692.16	95.96
692.30	63.19
692.43	56.17
692.57	51.49
692.70	11.70
692.84	63.19
692.97	11.70
693.11	32.77
693.24	0.00
693.38	0.00
693.51	32.77
693.65	9.36
693.78	39.79
693.92	65.54
694.05	18.72
694.19	18.72
694.32	0.00
694.45	70.22
694.59	23.41
694.72	0.00
694.86	0.00
694.99	67.88
695.13	0.00
695.26	35.11
695.39	0.00
695.53	74.90
695.66	0.00
695.80	30.43
695.93	42.13
696.07	121.71
696.20	18.72
696.33	37.45
696.47	16.38
696.60	0.00
696.73	23.41
696.87	35.11
697.00	21.06
697.14	0.00
697.27	16.38
697.40	102.98
697.54	74.90
697.67	60.85
697.80	16.38
697.94	0.00
698.07	0.00
698.21	72.56
698.34	53.83
698.47	121.71
698.61	37.45
698.74	53.83
698.87	65.54
699.01	65.54
699.14	46.81
699.27	84.26
699.40	63.19
699.54	0.00
699.67	84.26
699.80	21.06
699.94	0.00
700.07	42.13
700.20	44.47
700.34	0.00
700.47	11.70
700.60	49.15
700.73	72.56
700.87	88.94
701.00	53.83
701.13	51.49
701.26	18.72
701.40	39.79
701.53	58.51
701.66	39.79
701.79	105.32
701.93	0.00
702.06	63.19
702.19	0.00
702.32	7.02
702.46	18.72
702.59	21.06
702.72	39.79
702.85	88.94
702.99	131.07
703.12	98.30
703.25	51.49
703.38	74.90
703.51	60.85
703.65	0.00
703.78	35.11
703.91	65.54
704.04	0.00
704.17	0.00
704.31	11.70
704.44	60.85
704.57	39.79
704.70	65.54
704.83	77.24
704.96	0.00
705.10	65.54
705.23	56.17
>>>>>End Processed Spectral Data<<<<<
