SpectraSuite Data File
++++++++++++++++++++++++++++++++++++
Date: Fri Oct 04 12:13:34 GMT-05:00 2013
User: price-jones
Dark Spectrum Present: No
Reference Spectrum Present: No
Number of Sampled Component Spectra: 1
Spectrometers: USB2+H05261
Integration Time (usec): 10000 (USB2+H05261)
Spectra Averaged: 1 (USB2+H05261)
Boxcar Smoothing: 0 (USB2+H05261)
Correct for Electrical Dark: No (USB2+H05261)
Strobe/Lamp Enabled: No (USB2+H05261)
Correct for Detector Non-linearity: No (USB2+H05261)
Correct for Stray Light: No (USB2+H05261)
Number of Pixels in Processed Spectrum: 2048
>>>>>Begin Processed Spectral Data<<<<<
365.73	0.00
365.92	0.00
366.12	0.00
366.32	0.00
366.52	0.00
366.72	0.00
366.91	0.00
367.11	0.00
367.31	0.00
367.51	0.00
367.70	0.00
367.90	0.00
368.10	0.00
368.30	0.00
368.49	0.00
368.69	0.00
368.89	0.00
369.09	0.00
369.28	0.00
369.48	0.00
369.68	0.00
369.87	0.00
370.07	0.00
370.27	0.00
370.47	0.00
370.66	0.00
370.86	4.68
371.06	0.00
371.25	0.00
371.45	35.11
371.65	0.00
371.84	0.00
372.04	0.00
372.24	53.83
372.44	37.45
372.63	7.02
372.83	0.00
373.03	72.56
373.22	0.00
373.42	14.04
373.62	14.04
373.81	16.38
374.01	93.62
374.21	14.04
374.40	72.56
374.60	114.69
374.79	0.00
374.99	0.00
375.19	14.04
375.38	91.28
375.58	0.00
375.78	2.34
375.97	0.00
376.17	0.00
376.37	49.15
376.56	53.83
376.76	16.38
376.95	67.88
377.15	25.75
377.35	4.68
377.54	0.00
377.74	42.13
377.93	25.75
378.13	14.04
378.33	18.72
378.52	98.30
378.72	0.00
378.91	51.49
379.11	84.26
379.31	30.43
379.50	0.00
379.70	11.70
379.89	30.43
380.09	0.00
380.28	84.26
380.48	0.00
380.68	23.41
380.87	23.41
381.07	0.00
381.26	44.47
381.46	2.34
381.65	0.00
381.85	0.00
382.04	0.00
382.24	72.56
382.43	0.00
382.63	42.13
382.83	0.00
383.02	0.00
383.22	39.79
383.41	16.38
383.61	14.04
383.80	0.00
384.00	9.36
384.19	56.17
384.39	0.00
384.58	23.41
384.78	84.26
384.97	49.15
385.17	4.68
385.36	30.43
385.56	77.24
385.75	18.72
385.95	105.32
386.14	0.00
386.34	44.47
386.53	39.79
386.72	23.41
386.92	93.62
387.11	98.30
387.31	35.11
387.50	74.90
387.70	21.06
387.89	11.70
388.09	32.77
388.28	0.00
388.48	37.45
388.67	7.02
388.86	51.49
389.06	58.51
389.25	9.36
389.45	44.47
389.64	0.00
389.84	63.19
390.03	25.75
390.22	4.68
390.42	72.56
390.61	0.00
390.81	49.15
391.00	0.00
391.19	30.43
391.39	0.00
391.58	9.36
391.78	0.00
391.97	2.34
392.16	0.00
392.36	0.00
392.55	9.36
392.75	56.17
392.94	30.43
393.13	46.81
393.33	23.41
393.52	0.00
393.71	0.00
393.91	2.34
394.10	28.09
394.29	35.11
394.49	46.81
394.68	14.04
394.88	0.00
395.07	0.00
395.26	39.79
395.46	35.11
395.65	0.00
395.84	16.38
396.04	110.01
396.23	0.00
396.42	28.09
396.62	42.13
396.81	65.54
397.00	0.00
397.19	37.45
397.39	14.04
397.58	2.34
397.77	0.00
397.97	21.06
398.16	0.00
398.35	105.32
398.55	79.58
398.74	30.43
398.93	35.11
399.12	0.00
399.32	0.00
399.51	51.49
399.70	44.47
399.90	46.81
400.09	0.00
400.28	74.90
400.47	65.54
400.67	0.00
400.86	39.79
401.05	16.38
401.24	18.72
401.44	7.02
401.63	21.06
401.82	63.19
402.01	0.00
402.21	42.13
402.40	72.56
402.59	25.75
402.78	0.00
402.97	117.03
403.17	0.00
403.36	28.09
403.55	0.00
403.74	0.00
403.93	53.83
404.13	46.81
404.32	11.70
404.51	107.66
404.70	84.26
404.89	30.43
405.09	0.00
405.28	0.00
405.47	0.00
405.66	25.75
405.85	81.92
406.05	65.54
406.24	81.92
406.43	60.85
406.62	49.15
406.81	11.70
407.00	0.00
407.20	11.70
407.39	39.79
407.58	0.00
407.77	53.83
407.96	110.01
408.15	67.88
408.34	7.02
408.54	0.00
408.73	74.90
408.92	0.00
409.11	2.34
409.30	23.41
409.49	23.41
409.68	35.11
409.87	35.11
410.07	9.36
410.26	79.58
410.45	84.26
410.64	46.81
410.83	42.13
411.02	58.51
411.21	84.26
411.40	147.45
411.59	74.90
411.78	46.81
411.98	32.77
412.17	30.43
412.36	65.54
412.55	67.88
412.74	0.00
412.93	37.45
413.12	56.17
413.31	51.49
413.50	65.54
413.69	74.90
413.88	56.17
414.07	51.49
414.26	95.96
414.45	16.38
414.64	49.15
414.83	79.58
415.02	0.00
415.22	0.00
415.41	0.00
415.60	79.58
415.79	72.56
415.98	46.81
416.17	60.85
416.36	67.88
416.55	28.09
416.74	28.09
416.93	49.15
417.12	42.13
417.31	0.00
417.50	25.75
417.69	67.88
417.88	42.13
418.07	42.13
418.26	44.47
418.45	110.01
418.64	0.00
418.83	58.51
419.02	14.04
419.21	44.47
419.39	32.77
419.58	46.81
419.77	0.00
419.96	51.49
420.15	51.49
420.34	42.13
420.53	86.60
420.72	0.00
420.91	0.00
421.10	60.85
421.29	2.34
421.48	100.64
421.67	63.19
421.86	37.45
422.05	9.36
422.24	0.00
422.43	14.04
422.61	42.13
422.80	39.79
422.99	51.49
423.18	67.88
423.37	56.17
423.56	18.72
423.75	60.85
423.94	28.09
424.13	100.64
424.32	28.09
424.50	4.68
424.69	28.09
424.88	67.88
425.07	32.77
425.26	58.51
425.45	28.09
425.64	0.00
425.83	42.13
426.01	42.13
426.20	149.79
426.39	30.43
426.58	32.77
426.77	65.54
426.96	63.19
427.15	32.77
427.33	35.11
427.52	84.26
427.71	7.02
427.90	58.51
428.09	70.22
428.28	70.22
428.46	53.83
428.65	39.79
428.84	42.13
429.03	65.54
429.22	44.47
429.40	0.00
429.59	35.11
429.78	44.47
429.97	70.22
430.16	16.38
430.34	77.24
430.53	53.83
430.72	4.68
430.91	53.83
431.10	98.30
431.28	28.09
431.47	60.85
431.66	60.85
431.85	7.02
432.03	0.00
432.22	100.64
432.41	44.47
432.60	0.00
432.79	0.00
432.97	93.62
433.16	65.54
433.35	49.15
433.54	86.60
433.72	0.00
433.91	0.00
434.10	0.00
434.28	32.77
434.47	4.68
434.66	124.05
434.85	0.00
435.03	35.11
435.22	32.77
435.41	56.17
435.59	42.13
435.78	63.19
435.97	49.15
436.16	0.00
436.34	30.43
436.53	72.56
436.72	102.98
436.90	60.85
437.09	23.41
437.28	93.62
437.46	0.00
437.65	35.11
437.84	58.51
438.02	23.41
438.21	58.51
438.40	0.00
438.58	49.15
438.77	74.90
438.96	28.09
439.14	79.58
439.33	0.00
439.52	91.28
439.70	70.22
439.89	74.90
440.08	77.24
440.26	51.49
440.45	98.30
440.63	4.68
440.82	18.72
441.01	44.47
441.19	53.83
441.38	18.72
441.57	0.00
441.75	95.96
441.94	7.02
442.12	35.11
442.31	30.43
442.50	18.72
442.68	28.09
442.87	91.28
443.05	112.35
443.24	79.58
443.43	88.94
443.61	70.22
443.80	42.13
443.98	46.81
444.17	0.00
444.35	110.01
444.54	107.66
444.73	7.02
444.91	0.00
445.10	42.13
445.28	23.41
445.47	105.32
445.65	86.60
445.84	44.47
446.02	30.43
446.21	93.62
446.39	30.43
446.58	0.00
446.77	9.36
446.95	35.11
447.14	46.81
447.32	53.83
447.51	0.00
447.69	7.02
447.88	60.85
448.06	21.06
448.25	79.58
448.43	49.15
448.62	60.85
448.80	25.75
448.99	88.94
449.17	81.92
449.36	30.43
449.54	18.72
449.73	7.02
449.91	67.88
450.10	67.88
450.28	0.00
450.46	44.47
450.65	74.90
450.83	74.90
451.02	42.13
451.20	56.17
451.39	23.41
451.57	39.79
451.76	42.13
451.94	14.04
452.13	70.22
452.31	72.56
452.49	81.92
452.68	163.84
452.86	44.47
453.05	67.88
453.23	0.00
453.42	28.09
453.60	152.13
453.78	21.06
453.97	72.56
454.15	121.71
454.34	21.06
454.52	23.41
454.70	60.85
454.89	37.45
455.07	9.36
455.26	79.58
455.44	51.49
455.62	0.00
455.81	88.94
455.99	58.51
456.17	51.49
456.36	72.56
456.54	49.15
456.73	51.49
456.91	25.75
457.09	0.00
457.28	0.00
457.46	14.04
457.64	53.83
457.83	93.62
458.01	30.43
458.19	32.77
458.38	98.30
458.56	53.83
458.74	65.54
458.93	16.38
459.11	39.79
459.29	119.37
459.48	53.83
459.66	74.90
459.84	65.54
460.03	86.60
460.21	21.06
460.39	67.88
460.57	49.15
460.76	42.13
460.94	102.98
461.12	117.03
461.31	121.71
461.49	60.85
461.67	58.51
461.85	91.28
462.04	124.05
462.22	117.03
462.40	65.54
462.59	133.41
462.77	23.41
462.95	84.26
463.13	30.43
463.32	77.24
463.50	0.00
463.68	81.92
463.86	56.17
464.05	46.81
464.23	18.72
464.41	0.00
464.59	161.50
464.78	91.28
464.96	60.85
465.14	46.81
465.32	39.79
465.50	110.01
465.69	67.88
465.87	32.77
466.05	91.28
466.23	86.60
466.41	93.62
466.60	0.00
466.78	58.51
466.96	39.79
467.14	42.13
467.32	60.85
467.51	49.15
467.69	77.24
467.87	30.43
468.05	28.09
468.23	79.58
468.41	95.96
468.60	114.69
468.78	42.13
468.96	37.45
469.14	117.03
469.32	74.90
469.50	35.11
469.69	65.54
469.87	60.85
470.05	16.38
470.23	53.83
470.41	63.19
470.59	81.92
470.77	65.54
470.95	51.49
471.14	51.49
471.32	37.45
471.50	72.56
471.68	35.11
471.86	39.79
472.04	35.11
472.22	67.88
472.40	0.00
472.58	32.77
472.77	93.62
472.95	81.92
473.13	152.13
473.31	2.34
473.49	63.19
473.67	18.72
473.85	46.81
474.03	95.96
474.21	60.85
474.39	49.15
474.57	0.00
474.75	14.04
474.93	42.13
475.12	37.45
475.30	105.32
475.48	63.19
475.66	42.13
475.84	30.43
476.02	128.73
476.20	0.00
476.38	32.77
476.56	79.58
476.74	117.03
476.92	11.70
477.10	60.85
477.28	110.01
477.46	23.41
477.64	0.00
477.82	67.88
478.00	88.94
478.18	32.77
478.36	65.54
478.54	46.81
478.72	44.47
478.90	84.26
479.08	42.13
479.26	42.13
479.44	107.66
479.62	60.85
479.80	0.00
479.98	131.07
480.16	72.56
480.34	65.54
480.52	44.47
480.70	0.00
480.88	0.00
481.06	84.26
481.24	140.43
481.41	114.69
481.59	107.66
481.77	16.38
481.95	0.00
482.13	58.51
482.31	30.43
482.49	53.83
482.67	60.85
482.85	46.81
483.03	67.88
483.21	56.17
483.39	70.22
483.57	81.92
483.74	30.43
483.92	70.22
484.10	46.81
484.28	32.77
484.46	112.35
484.64	70.22
484.82	86.60
485.00	58.51
485.18	63.19
485.35	11.70
485.53	0.00
485.71	72.56
485.89	100.64
486.07	11.70
486.25	35.11
486.43	37.45
486.61	56.17
486.78	0.00
486.96	65.54
487.14	58.51
487.32	93.62
487.50	102.98
487.68	14.04
487.85	11.70
488.03	63.19
488.21	126.39
488.39	84.26
488.57	63.19
488.75	102.98
488.92	133.41
489.10	4.68
489.28	28.09
489.46	70.22
489.64	9.36
489.81	0.00
489.99	112.35
490.17	79.58
490.35	79.58
490.53	163.84
490.70	95.96
490.88	105.32
491.06	46.81
491.24	11.70
491.41	49.15
491.59	42.13
491.77	79.58
491.95	65.54
492.13	67.88
492.30	67.88
492.48	91.28
492.66	100.64
492.84	63.19
493.01	65.54
493.19	105.32
493.37	39.79
493.54	74.90
493.72	60.85
493.90	28.09
494.08	42.13
494.25	49.15
494.43	91.28
494.61	60.85
494.79	70.22
494.96	21.06
495.14	67.88
495.32	46.81
495.49	32.77
495.67	30.43
495.85	81.92
496.02	98.30
496.20	159.16
496.38	100.64
496.55	91.28
496.73	91.28
496.91	60.85
497.09	53.83
497.26	77.24
497.44	93.62
497.62	107.66
497.79	88.94
497.97	14.04
498.14	0.00
498.32	30.43
498.50	67.88
498.67	35.11
498.85	86.60
499.03	18.72
499.20	86.60
499.38	74.90
499.56	28.09
499.73	121.71
499.91	32.77
500.08	161.50
500.26	51.49
500.44	117.03
500.61	88.94
500.79	119.37
500.97	77.24
501.14	77.24
501.32	93.62
501.49	46.81
501.67	32.77
501.84	18.72
502.02	72.56
502.20	91.28
502.37	74.90
502.55	39.79
502.72	110.01
502.90	152.13
503.07	114.69
503.25	23.41
503.43	37.45
503.60	46.81
503.78	67.88
503.95	35.11
504.13	128.73
504.30	86.60
504.48	98.30
504.65	84.26
504.83	98.30
505.01	30.43
505.18	39.79
505.36	79.58
505.53	2.34
505.71	100.64
505.88	74.90
506.06	51.49
506.23	86.60
506.41	77.24
506.58	79.58
506.76	77.24
506.93	117.03
507.11	4.68
507.28	0.00
507.46	35.11
507.63	114.69
507.81	100.64
507.98	56.17
508.16	21.06
508.33	119.37
508.50	86.60
508.68	65.54
508.85	95.96
509.03	105.32
509.20	58.51
509.38	91.28
509.55	49.15
509.73	79.58
509.90	112.35
510.08	81.92
510.25	56.17
510.42	88.94
510.60	107.66
510.77	70.22
510.95	100.64
511.12	77.24
511.30	53.83
511.47	79.58
511.64	42.13
511.82	93.62
511.99	63.19
512.17	63.19
512.34	114.69
512.51	18.72
512.69	100.64
512.86	110.01
513.04	77.24
513.21	21.06
513.38	16.38
513.56	79.58
513.73	16.38
513.90	117.03
514.08	81.92
514.25	107.66
514.43	79.58
514.60	67.88
514.77	42.13
514.95	49.15
515.12	25.75
515.29	16.38
515.47	23.41
515.64	93.62
515.81	135.75
515.99	37.45
516.16	65.54
516.33	93.62
516.51	133.41
516.68	11.70
516.85	142.77
517.03	49.15
517.20	58.51
517.37	18.72
517.54	81.92
517.72	0.00
517.89	145.11
518.06	23.41
518.24	86.60
518.41	72.56
518.58	112.35
518.75	100.64
518.93	128.73
519.10	112.35
519.27	140.43
519.45	39.79
519.62	88.94
519.79	70.22
519.96	119.37
520.14	35.11
520.31	88.94
520.48	0.00
520.65	25.75
520.83	98.30
521.00	63.19
521.17	28.09
521.34	91.28
521.52	79.58
521.69	58.51
521.86	25.75
522.03	107.66
522.20	124.05
522.38	102.98
522.55	86.60
522.72	46.81
522.89	65.54
523.07	63.19
523.24	131.07
523.41	37.45
523.58	74.90
523.75	35.11
523.92	21.06
524.10	95.96
524.27	117.03
524.44	145.11
524.61	79.58
524.78	49.15
524.96	74.90
525.13	102.98
525.30	86.60
525.47	58.51
525.64	81.92
525.81	93.62
525.98	56.17
526.16	51.49
526.33	65.54
526.50	60.85
526.67	63.19
526.84	58.51
527.01	81.92
527.18	60.85
527.36	84.26
527.53	53.83
527.70	102.98
527.87	81.92
528.04	114.69
528.21	138.09
528.38	126.39
528.55	124.05
528.72	95.96
528.89	70.22
529.07	58.51
529.24	74.90
529.41	56.17
529.58	175.54
529.75	35.11
529.92	95.96
530.09	79.58
530.26	65.54
530.43	74.90
530.60	72.56
530.77	70.22
530.94	56.17
531.11	114.69
531.28	7.02
531.46	2.34
531.63	39.79
531.80	77.24
531.97	81.92
532.14	46.81
532.31	98.30
532.48	11.70
532.65	131.07
532.82	152.13
532.99	65.54
533.16	86.60
533.33	140.43
533.50	65.54
533.67	63.19
533.84	84.26
534.01	72.56
534.18	70.22
534.35	93.62
534.52	107.66
534.69	105.32
534.86	37.45
535.03	32.77
535.20	65.54
535.37	70.22
535.54	60.85
535.71	56.17
535.88	46.81
536.05	67.88
536.22	60.85
536.38	88.94
536.55	72.56
536.72	37.45
536.89	67.88
537.06	72.56
537.23	58.51
537.40	138.09
537.57	74.90
537.74	30.43
537.91	95.96
538.08	95.96
538.25	177.88
538.42	42.13
538.59	39.79
538.75	51.49
538.92	91.28
539.09	74.90
539.26	84.26
539.43	84.26
539.60	25.75
539.77	72.56
539.94	74.90
540.11	100.64
540.28	88.94
540.44	93.62
540.61	23.41
540.78	49.15
540.95	60.85
541.12	28.09
541.29	86.60
541.46	98.30
541.62	105.32
541.79	124.05
541.96	44.47
542.13	70.22
542.30	77.24
542.47	121.71
542.63	86.60
542.80	168.52
542.97	133.41
543.14	114.69
543.31	23.41
543.48	98.30
543.64	117.03
543.81	65.54
543.98	86.60
544.15	42.13
544.32	105.32
544.48	70.22
544.65	65.54
544.82	105.32
544.99	91.28
545.16	28.09
545.32	53.83
545.49	65.54
545.66	114.69
545.83	98.30
546.00	86.60
546.16	53.83
546.33	35.11
546.50	79.58
546.67	93.62
546.83	128.73
547.00	133.41
547.17	74.90
547.34	58.51
547.50	32.77
547.67	46.81
547.84	124.05
548.00	93.62
548.17	49.15
548.34	86.60
548.51	60.85
548.67	95.96
548.84	58.51
549.01	25.75
549.18	65.54
549.34	88.94
549.51	56.17
549.68	117.03
549.84	67.88
550.01	35.11
550.18	124.05
550.34	126.39
550.51	70.22
550.68	93.62
550.84	39.79
551.01	93.62
551.18	112.35
551.34	135.75
551.51	63.19
551.68	84.26
551.84	77.24
552.01	23.41
552.18	93.62
552.34	105.32
552.51	102.98
552.68	67.88
552.84	112.35
553.01	98.30
553.18	119.37
553.34	74.90
553.51	28.09
553.67	53.83
553.84	142.77
554.01	159.16
554.17	46.81
554.34	102.98
554.51	63.19
554.67	110.01
554.84	14.04
555.00	35.11
555.17	58.51
555.33	131.07
555.50	107.66
555.67	184.90
555.83	79.58
556.00	93.62
556.16	77.24
556.33	37.45
556.50	32.77
556.66	114.69
556.83	88.94
556.99	156.82
557.16	140.43
557.32	124.05
557.49	93.62
557.65	86.60
557.82	102.98
557.98	117.03
558.15	9.36
558.32	37.45
558.48	72.56
558.65	49.15
558.81	107.66
558.98	107.66
559.14	102.98
559.31	30.43
559.47	81.92
559.64	65.54
559.80	117.03
559.97	63.19
560.13	30.43
560.30	39.79
560.46	131.07
560.63	161.50
560.79	102.98
560.96	117.03
561.12	91.28
561.29	72.56
561.45	65.54
561.61	81.92
561.78	46.81
561.94	53.83
562.11	67.88
562.27	49.15
562.44	49.15
562.60	0.00
562.77	84.26
562.93	91.28
563.10	86.60
563.26	93.62
563.42	65.54
563.59	42.13
563.75	147.45
563.92	46.81
564.08	58.51
564.24	105.32
564.41	58.51
564.57	93.62
564.74	88.94
564.90	156.82
565.07	119.37
565.23	93.62
565.39	49.15
565.56	58.51
565.72	37.45
565.88	11.70
566.05	88.94
566.21	156.82
566.38	88.94
566.54	63.19
566.70	37.45
566.87	72.56
567.03	102.98
567.19	39.79
567.36	121.71
567.52	42.13
567.68	77.24
567.85	124.05
568.01	60.85
568.17	56.17
568.34	65.54
568.50	30.43
568.66	56.17
568.83	138.09
568.99	154.48
569.15	128.73
569.32	70.22
569.48	14.04
569.64	11.70
569.81	119.37
569.97	51.49
570.13	74.90
570.30	18.72
570.46	77.24
570.62	58.51
570.78	0.00
570.95	107.66
571.11	98.30
571.27	70.22
571.43	67.88
571.60	49.15
571.76	91.28
571.92	126.39
572.09	79.58
572.25	65.54
572.41	28.09
572.57	53.83
572.74	56.17
572.90	70.22
573.06	23.41
573.22	14.04
573.38	98.30
573.55	35.11
573.71	53.83
573.87	56.17
574.03	166.18
574.20	72.56
574.36	100.64
574.52	70.22
574.68	74.90
574.84	152.13
575.01	65.54
575.17	42.13
575.33	65.54
575.49	131.07
575.65	77.24
575.82	95.96
575.98	32.77
576.14	93.62
576.30	60.85
576.46	72.56
576.62	56.17
576.79	14.04
576.95	98.30
577.11	67.88
577.27	95.96
577.43	42.13
577.59	102.98
577.75	131.07
577.92	110.01
578.08	91.28
578.24	46.81
578.40	70.22
578.56	39.79
578.72	46.81
578.88	39.79
579.04	98.30
579.21	39.79
579.37	77.24
579.53	70.22
579.69	77.24
579.85	79.58
580.01	32.77
580.17	93.62
580.33	18.72
580.49	72.56
580.65	84.26
580.82	133.41
580.98	67.88
581.14	63.19
581.30	28.09
581.46	0.00
581.62	159.16
581.78	79.58
581.94	67.88
582.10	112.35
582.26	53.83
582.42	81.92
582.58	117.03
582.74	84.26
582.90	44.47
583.06	65.54
583.22	77.24
583.38	63.19
583.54	72.56
583.70	49.15
583.86	98.30
584.02	9.36
584.18	114.69
584.34	0.00
584.50	100.64
584.66	81.92
584.82	93.62
584.98	88.94
585.14	46.81
585.30	98.30
585.46	0.00
585.62	46.81
585.78	14.04
585.94	42.13
586.10	72.56
586.26	56.17
586.42	100.64
586.58	70.22
586.74	28.09
586.90	35.11
587.06	37.45
587.22	128.73
587.38	77.24
587.54	14.04
587.70	9.36
587.86	72.56
588.02	72.56
588.18	28.09
588.34	154.48
588.49	56.17
588.65	4.68
588.81	100.64
588.97	100.64
589.13	114.69
589.29	112.35
589.45	0.00
589.61	23.41
589.77	65.54
589.93	53.83
590.08	88.94
590.24	140.43
590.40	63.19
590.56	60.85
590.72	175.54
590.88	100.64
591.04	65.54
591.20	140.43
591.35	88.94
591.51	25.75
591.67	56.17
591.83	63.19
591.99	79.58
592.15	70.22
592.31	102.98
592.46	49.15
592.62	84.26
592.78	58.51
592.94	53.83
593.10	74.90
593.26	42.13
593.41	16.38
593.57	126.39
593.73	84.26
593.89	56.17
594.05	98.30
594.20	79.58
594.36	42.13
594.52	86.60
594.68	110.01
594.84	60.85
594.99	49.15
595.15	91.28
595.31	0.00
595.47	70.22
595.62	39.79
595.78	37.45
595.94	49.15
596.10	18.72
596.25	119.37
596.41	128.73
596.57	95.96
596.73	11.70
596.88	58.51
597.04	110.01
597.20	114.69
597.36	60.85
597.51	91.28
597.67	49.15
597.83	39.79
597.99	72.56
598.14	74.90
598.30	121.71
598.46	11.70
598.61	79.58
598.77	86.60
598.93	28.09
599.09	140.43
599.24	112.35
599.40	88.94
599.56	32.77
599.71	91.28
599.87	51.49
600.03	100.64
600.18	0.00
600.34	95.96
600.50	35.11
600.65	58.51
600.81	140.43
600.97	100.64
601.12	44.47
601.28	124.05
601.44	2.34
601.59	86.60
601.75	32.77
601.91	77.24
602.06	126.39
602.22	25.75
602.37	102.98
602.53	56.17
602.69	67.88
602.84	102.98
603.00	102.98
603.16	102.98
603.31	84.26
603.47	84.26
603.62	30.43
603.78	86.60
603.94	7.02
604.09	60.85
604.25	88.94
604.40	16.38
604.56	42.13
604.71	138.09
604.87	44.47
605.03	112.35
605.18	39.79
605.34	100.64
605.49	46.81
605.65	35.11
605.80	21.06
605.96	93.62
606.12	30.43
606.27	135.75
606.43	60.85
606.58	128.73
606.74	79.58
606.89	117.03
607.05	133.41
607.20	7.02
607.36	42.13
607.51	42.13
607.67	65.54
607.82	95.96
607.98	74.90
608.13	25.75
608.29	60.85
608.44	95.96
608.60	102.98
608.75	100.64
608.91	14.04
609.06	110.01
609.22	88.94
609.37	79.58
609.53	63.19
609.68	105.32
609.84	112.35
609.99	84.26
610.15	2.34
610.30	133.41
610.46	107.66
610.61	49.15
610.76	133.41
610.92	77.24
611.07	121.71
611.23	91.28
611.38	107.66
611.54	46.81
611.69	30.43
611.84	35.11
612.00	91.28
612.15	60.85
612.31	88.94
612.46	70.22
612.62	84.26
612.77	79.58
612.92	112.35
613.08	65.54
613.23	124.05
613.39	72.56
613.54	98.30
613.69	0.00
613.85	21.06
614.00	126.39
614.15	77.24
614.31	32.77
614.46	79.58
614.62	0.00
614.77	4.68
614.92	147.45
615.08	63.19
615.23	30.43
615.38	72.56
615.54	21.06
615.69	32.77
615.84	32.77
616.00	102.98
616.15	35.11
616.30	60.85
616.46	77.24
616.61	0.00
616.76	0.00
616.92	42.13
617.07	95.96
617.22	128.73
617.37	105.32
617.53	67.88
617.68	18.72
617.83	0.00
617.99	2.34
618.14	30.43
618.29	25.75
618.45	95.96
618.60	21.06
618.75	131.07
618.90	53.83
619.06	98.30
619.21	7.02
619.36	4.68
619.51	0.00
619.67	32.77
619.82	107.66
619.97	39.79
620.12	77.24
620.28	86.60
620.43	35.11
620.58	32.77
620.73	32.77
620.89	60.85
621.04	74.90
621.19	23.41
621.34	4.68
621.49	81.92
621.65	7.02
621.80	46.81
621.95	0.00
622.10	46.81
622.25	84.26
622.41	93.62
622.56	84.26
622.71	119.37
622.86	88.94
623.01	49.15
623.16	44.47
623.32	70.22
623.47	28.09
623.62	53.83
623.77	60.85
623.92	84.26
624.07	42.13
624.23	51.49
624.38	0.00
624.53	58.51
624.68	7.02
624.83	121.71
624.98	60.85
625.13	84.26
625.29	56.17
625.44	102.98
625.59	107.66
625.74	53.83
625.89	0.00
626.04	100.64
626.19	112.35
626.34	72.56
626.49	81.92
626.65	77.24
626.80	63.19
626.95	93.62
627.10	67.88
627.25	37.45
627.40	65.54
627.55	112.35
627.70	53.83
627.85	84.26
628.00	16.38
628.15	9.36
628.30	32.77
628.45	93.62
628.60	58.51
628.76	86.60
628.91	159.16
629.06	128.73
629.21	142.77
629.36	39.79
629.51	51.49
629.66	42.13
629.81	0.00
629.96	25.75
630.11	46.81
630.26	107.66
630.41	121.71
630.56	11.70
630.71	60.85
630.86	74.90
631.01	70.22
631.16	0.00
631.31	88.94
631.46	0.00
631.61	56.17
631.76	44.47
631.91	70.22
632.06	63.19
632.21	102.98
632.36	42.13
632.51	51.49
632.66	98.30
632.81	67.88
632.96	65.54
633.10	67.88
633.25	88.94
633.40	98.30
633.55	7.02
633.70	84.26
633.85	156.82
634.00	126.39
634.15	131.07
634.30	7.02
634.45	74.90
634.60	7.02
634.75	100.64
634.90	49.15
635.05	72.56
635.19	0.00
635.34	35.11
635.49	65.54
635.64	11.70
635.79	32.77
635.94	63.19
636.09	72.56
636.24	0.00
636.39	42.13
636.53	114.69
636.68	60.85
636.83	95.96
636.98	102.98
637.13	16.38
637.28	0.00
637.43	91.28
637.57	56.17
637.72	7.02
637.87	126.39
638.02	35.11
638.17	88.94
638.32	74.90
638.46	65.54
638.61	30.43
638.76	79.58
638.91	53.83
639.06	53.83
639.20	18.72
639.35	51.49
639.50	42.13
639.65	0.00
639.80	23.41
639.94	51.49
640.09	81.92
640.24	86.60
640.39	107.66
640.54	14.04
640.68	0.00
640.83	81.92
640.98	107.66
641.13	32.77
641.27	46.81
641.42	86.60
641.57	53.83
641.72	16.38
641.86	72.56
642.01	14.04
642.16	65.54
642.31	72.56
642.45	56.17
642.60	105.32
642.75	0.00
642.90	105.32
643.04	93.62
643.19	21.06
643.34	77.24
643.48	32.77
643.63	102.98
643.78	88.94
643.93	0.00
644.07	9.36
644.22	39.79
644.37	44.47
644.51	63.19
644.66	128.73
644.81	131.07
644.95	49.15
645.10	51.49
645.25	131.07
645.39	21.06
645.54	60.85
645.69	14.04
645.83	30.43
645.98	79.58
646.13	30.43
646.27	44.47
646.42	0.00
646.57	58.51
646.71	88.94
646.86	107.66
647.00	72.56
647.15	81.92
647.30	42.13
647.44	0.00
647.59	67.88
647.74	60.85
647.88	0.00
648.03	72.56
648.17	65.54
648.32	51.49
648.47	58.51
648.61	58.51
648.76	37.45
648.90	74.90
649.05	0.00
649.20	51.49
649.34	30.43
649.49	9.36
649.63	7.02
649.78	14.04
649.92	128.73
650.07	65.54
650.21	35.11
650.36	14.04
650.51	79.58
650.65	7.02
650.80	32.77
650.94	91.28
651.09	135.75
651.23	72.56
651.38	49.15
651.52	35.11
651.67	74.90
651.81	16.38
651.96	21.06
652.10	9.36
652.25	86.60
652.39	0.00
652.54	91.28
652.68	0.00
652.83	51.49
652.97	42.13
653.12	79.58
653.26	30.43
653.41	42.13
653.55	16.38
653.70	74.90
653.84	37.45
653.99	70.22
654.13	28.09
654.27	49.15
654.42	110.01
654.56	4.68
654.71	79.58
654.85	53.83
655.00	77.24
655.14	131.07
655.29	105.32
655.43	11.70
655.57	23.41
655.72	63.19
655.86	30.43
656.01	65.54
656.15	0.00
656.30	42.13
656.44	16.38
656.58	56.17
656.73	102.98
656.87	79.58
657.01	58.51
657.16	58.51
657.30	49.15
657.45	46.81
657.59	67.88
657.73	100.64
657.88	67.88
658.02	39.79
658.16	98.30
658.31	28.09
658.45	53.83
658.60	105.32
658.74	105.32
658.88	42.13
659.03	56.17
659.17	0.00
659.31	44.47
659.46	49.15
659.60	88.94
659.74	32.77
659.89	56.17
660.03	86.60
660.17	77.24
660.32	51.49
660.46	0.00
660.60	28.09
660.74	81.92
660.89	65.54
661.03	4.68
661.17	84.26
661.32	140.43
661.46	9.36
661.60	0.00
661.74	56.17
661.89	79.58
662.03	37.45
662.17	67.88
662.31	63.19
662.46	0.00
662.60	0.00
662.74	0.00
662.88	46.81
663.03	14.04
663.17	39.79
663.31	0.00
663.45	25.75
663.60	72.56
663.74	18.72
663.88	42.13
664.02	51.49
664.17	126.39
664.31	60.85
664.45	98.30
664.59	53.83
664.73	86.60
664.88	93.62
665.02	67.88
665.16	39.79
665.30	63.19
665.44	0.00
665.59	107.66
665.73	0.00
665.87	21.06
666.01	0.00
666.15	72.56
666.29	142.77
666.44	63.19
666.58	112.35
666.72	39.79
666.86	0.00
667.00	105.32
667.14	67.88
667.28	0.00
667.43	16.38
667.57	30.43
667.71	32.77
667.85	32.77
667.99	44.47
668.13	95.96
668.27	100.64
668.41	102.98
668.56	7.02
668.70	14.04
668.84	35.11
668.98	11.70
669.12	32.77
669.26	0.00
669.40	74.90
669.54	58.51
669.68	70.22
669.82	18.72
669.96	72.56
670.10	58.51
670.25	37.45
670.39	58.51
670.53	65.54
670.67	65.54
670.81	88.94
670.95	49.15
671.09	98.30
671.23	98.30
671.37	2.34
671.51	18.72
671.65	32.77
671.79	0.00
671.93	58.51
672.07	0.00
672.21	32.77
672.35	56.17
672.49	4.68
672.63	46.81
672.77	32.77
672.91	35.11
673.05	107.66
673.19	46.81
673.33	77.24
673.47	23.41
673.61	0.00
673.75	28.09
673.89	81.92
674.03	110.01
674.17	0.00
674.31	86.60
674.45	105.32
674.59	100.64
674.73	25.75
674.87	4.68
675.01	0.00
675.15	70.22
675.29	100.64
675.43	72.56
675.56	14.04
675.70	93.62
675.84	53.83
675.98	53.83
676.12	25.75
676.26	4.68
676.40	7.02
676.54	60.85
676.68	0.00
676.82	11.70
676.96	65.54
677.10	44.47
677.23	0.00
677.37	44.47
677.51	35.11
677.65	79.58
677.79	28.09
677.93	0.00
678.07	7.02
678.21	28.09
678.34	42.13
678.48	39.79
678.62	0.00
678.76	39.79
678.90	23.41
679.04	100.64
679.18	65.54
679.31	53.83
679.45	16.38
679.59	74.90
679.73	11.70
679.87	16.38
680.00	11.70
680.14	35.11
680.28	9.36
680.42	9.36
680.56	100.64
680.70	39.79
680.83	0.00
680.97	0.00
681.11	32.77
681.25	11.70
681.39	81.92
681.52	37.45
681.66	9.36
681.80	44.47
681.94	65.54
682.07	79.58
682.21	79.58
682.35	56.17
682.49	16.38
682.62	46.81
682.76	72.56
682.90	49.15
683.04	88.94
683.17	46.81
683.31	79.58
683.45	53.83
683.59	42.13
683.72	58.51
683.86	67.88
684.00	9.36
684.13	0.00
684.27	28.09
684.41	30.43
684.55	39.79
684.68	107.66
684.82	18.72
684.96	4.68
685.09	23.41
685.23	102.98
685.37	30.43
685.50	56.17
685.64	65.54
685.78	49.15
685.91	18.72
686.05	95.96
686.19	77.24
686.32	63.19
686.46	0.00
686.60	49.15
686.73	18.72
686.87	7.02
687.01	37.45
687.14	0.00
687.28	70.22
687.42	0.00
687.55	63.19
687.69	74.90
687.82	35.11
687.96	53.83
688.10	0.00
688.23	58.51
688.37	88.94
688.50	4.68
688.64	56.17
688.78	0.00
688.91	72.56
689.05	74.90
689.18	11.70
689.32	18.72
689.46	7.02
689.59	2.34
689.73	11.70
689.86	56.17
690.00	2.34
690.13	37.45
690.27	0.00
690.41	49.15
690.54	4.68
690.68	72.56
690.81	77.24
690.95	65.54
691.08	23.41
691.22	112.35
691.35	2.34
691.49	0.00
691.62	77.24
691.76	95.96
691.89	46.81
692.03	70.22
692.16	25.75
692.30	30.43
692.43	51.49
692.57	0.00
692.70	86.60
692.84	51.49
692.97	63.19
693.11	35.11
693.24	72.56
693.38	39.79
693.51	4.68
693.65	2.34
693.78	32.77
693.92	0.00
694.05	11.70
694.19	0.00
694.32	37.45
694.45	72.56
694.59	105.32
694.72	25.75
694.86	51.49
694.99	112.35
695.13	16.38
695.26	32.77
695.39	42.13
695.53	56.17
695.66	53.83
695.80	84.26
695.93	4.68
696.07	51.49
696.20	28.09
696.33	0.00
696.47	0.00
696.60	77.24
696.73	11.70
696.87	14.04
697.00	56.17
697.14	0.00
697.27	30.43
697.40	88.94
697.54	35.11
697.67	72.56
697.80	0.00
697.94	4.68
698.07	39.79
698.21	0.00
698.34	28.09
698.47	25.75
698.61	44.47
698.74	16.38
698.87	16.38
699.01	72.56
699.14	16.38
699.27	25.75
699.40	18.72
699.54	63.19
699.67	35.11
699.80	21.06
699.94	60.85
700.07	7.02
700.20	65.54
700.34	0.00
700.47	67.88
700.60	32.77
700.73	0.00
700.87	77.24
701.00	0.00
701.13	63.19
701.26	65.54
701.40	14.04
701.53	37.45
701.66	30.43
701.79	44.47
701.93	84.26
702.06	72.56
702.19	18.72
702.32	37.45
702.46	72.56
702.59	44.47
702.72	21.06
702.85	53.83
702.99	56.17
703.12	98.30
703.25	67.88
703.38	28.09
703.51	0.00
703.65	0.00
703.78	42.13
703.91	58.51
704.04	4.68
704.17	53.83
704.31	21.06
704.44	81.92
704.57	9.36
704.70	72.56
704.83	105.32
704.96	0.00
705.10	18.72
705.23	44.47
>>>>>End Processed Spectral Data<<<<<
