SpectraSuite Data File
++++++++++++++++++++++++++++++++++++
Date: Fri Oct 04 12:13:45 GMT-05:00 2013
User: price-jones
Dark Spectrum Present: No
Reference Spectrum Present: No
Number of Sampled Component Spectra: 1
Spectrometers: USB2+H05261
Integration Time (usec): 10000 (USB2+H05261)
Spectra Averaged: 1 (USB2+H05261)
Boxcar Smoothing: 0 (USB2+H05261)
Correct for Electrical Dark: No (USB2+H05261)
Strobe/Lamp Enabled: No (USB2+H05261)
Correct for Detector Non-linearity: No (USB2+H05261)
Correct for Stray Light: No (USB2+H05261)
Number of Pixels in Processed Spectrum: 2048
>>>>>Begin Processed Spectral Data<<<<<
365.73	0.00
365.92	0.00
366.12	0.00
366.32	0.00
366.52	0.00
366.72	0.00
366.91	0.00
367.11	0.00
367.31	0.00
367.51	0.00
367.70	0.00
367.90	0.00
368.10	0.00
368.30	0.00
368.49	0.00
368.69	0.00
368.89	0.00
369.09	0.00
369.28	0.00
369.48	0.00
369.68	0.00
369.87	0.00
370.07	0.00
370.27	0.00
370.47	0.00
370.66	0.00
370.86	0.00
371.06	0.00
371.25	0.00
371.45	0.00
371.65	0.00
371.84	0.00
372.04	0.00
372.24	0.00
372.44	0.00
372.63	14.04
372.83	35.11
373.03	11.70
373.22	28.09
373.42	0.00
373.62	0.00
373.81	0.00
374.01	0.00
374.21	0.00
374.40	7.02
374.60	42.13
374.79	21.06
374.99	65.54
375.19	56.17
375.38	35.11
375.58	11.70
375.78	14.04
375.97	39.79
376.17	9.36
376.37	102.98
376.56	49.15
376.76	9.36
376.95	0.00
377.15	35.11
377.35	0.00
377.54	35.11
377.74	0.00
377.93	11.70
378.13	0.00
378.33	51.49
378.52	0.00
378.72	11.70
378.91	56.17
379.11	14.04
379.31	44.47
379.50	58.51
379.70	46.81
379.89	28.09
380.09	30.43
380.28	46.81
380.48	74.90
380.68	44.47
380.87	81.92
381.07	18.72
381.26	51.49
381.46	0.00
381.65	7.02
381.85	7.02
382.04	23.41
382.24	30.43
382.43	4.68
382.63	0.00
382.83	25.75
383.02	25.75
383.22	0.00
383.41	0.00
383.61	35.11
383.80	21.06
384.00	77.24
384.19	4.68
384.39	4.68
384.58	18.72
384.78	9.36
384.97	0.00
385.17	81.92
385.36	18.72
385.56	63.19
385.75	0.00
385.95	0.00
386.14	25.75
386.34	0.00
386.53	30.43
386.72	30.43
386.92	0.00
387.11	9.36
387.31	39.79
387.50	0.00
387.70	63.19
387.89	0.00
388.09	63.19
388.28	35.11
388.48	28.09
388.67	0.00
388.86	32.77
389.06	28.09
389.25	16.38
389.45	14.04
389.64	23.41
389.84	39.79
390.03	79.58
390.22	0.00
390.42	0.00
390.61	25.75
390.81	77.24
391.00	74.90
391.19	7.02
391.39	37.45
391.58	0.00
391.78	0.00
391.97	37.45
392.16	0.00
392.36	46.81
392.55	84.26
392.75	65.54
392.94	14.04
393.13	16.38
393.33	30.43
393.52	11.70
393.71	58.51
393.91	14.04
394.10	25.75
394.29	0.00
394.49	16.38
394.68	51.49
394.88	70.22
395.07	0.00
395.26	128.73
395.46	32.77
395.65	25.75
395.84	21.06
396.04	0.00
396.23	46.81
396.42	56.17
396.62	30.43
396.81	0.00
397.00	0.00
397.19	23.41
397.39	11.70
397.58	37.45
397.77	28.09
397.97	9.36
398.16	37.45
398.35	95.96
398.55	37.45
398.74	95.96
398.93	0.00
399.12	28.09
399.32	28.09
399.51	0.00
399.70	0.00
399.90	42.13
400.09	51.49
400.28	30.43
400.47	9.36
400.67	25.75
400.86	28.09
401.05	86.60
401.24	0.00
401.44	35.11
401.63	11.70
401.82	49.15
402.01	63.19
402.21	0.00
402.40	63.19
402.59	65.54
402.78	46.81
402.97	0.00
403.17	42.13
403.36	0.00
403.55	0.00
403.74	30.43
403.93	18.72
404.13	67.88
404.32	25.75
404.51	88.94
404.70	2.34
404.89	0.00
405.09	30.43
405.28	56.17
405.47	25.75
405.66	77.24
405.85	0.00
406.05	42.13
406.24	21.06
406.43	28.09
406.62	0.00
406.81	21.06
407.00	7.02
407.20	0.00
407.39	0.00
407.58	0.00
407.77	32.77
407.96	44.47
408.15	63.19
408.34	60.85
408.54	4.68
408.73	4.68
408.92	77.24
409.11	49.15
409.30	51.49
409.49	39.79
409.68	9.36
409.87	0.00
410.07	0.00
410.26	30.43
410.45	0.00
410.64	25.75
410.83	72.56
411.02	91.28
411.21	100.64
411.40	0.00
411.59	37.45
411.78	0.00
411.98	56.17
412.17	0.00
412.36	25.75
412.55	4.68
412.74	18.72
412.93	25.75
413.12	51.49
413.31	46.81
413.50	0.00
413.69	65.54
413.88	65.54
414.07	56.17
414.26	46.81
414.45	70.22
414.64	91.28
414.83	0.00
415.02	35.11
415.22	32.77
415.41	23.41
415.60	0.00
415.79	0.00
415.98	51.49
416.17	86.60
416.36	72.56
416.55	70.22
416.74	0.00
416.93	44.47
417.12	0.00
417.31	58.51
417.50	65.54
417.69	93.62
417.88	16.38
418.07	0.00
418.26	0.00
418.45	74.90
418.64	28.09
418.83	0.00
419.02	67.88
419.21	28.09
419.39	56.17
419.58	44.47
419.77	58.51
419.96	58.51
420.15	23.41
420.34	72.56
420.53	0.00
420.72	30.43
420.91	0.00
421.10	39.79
421.29	63.19
421.48	21.06
421.67	18.72
421.86	16.38
422.05	32.77
422.24	46.81
422.43	42.13
422.61	9.36
422.80	39.79
422.99	9.36
423.18	0.00
423.37	25.75
423.56	0.00
423.75	46.81
423.94	4.68
424.13	79.58
424.32	70.22
424.50	114.69
424.69	107.66
424.88	39.79
425.07	0.00
425.26	0.00
425.45	28.09
425.64	21.06
425.83	56.17
426.01	53.83
426.20	51.49
426.39	74.90
426.58	18.72
426.77	0.00
426.96	32.77
427.15	63.19
427.33	72.56
427.52	42.13
427.71	35.11
427.90	58.51
428.09	91.28
428.28	0.00
428.46	58.51
428.65	11.70
428.84	53.83
429.03	21.06
429.22	53.83
429.40	53.83
429.59	23.41
429.78	65.54
429.97	67.88
430.16	9.36
430.34	56.17
430.53	4.68
430.72	39.79
430.91	9.36
431.10	67.88
431.28	7.02
431.47	51.49
431.66	58.51
431.85	16.38
432.03	56.17
432.22	0.00
432.41	23.41
432.60	42.13
432.79	9.36
432.97	0.00
433.16	37.45
433.35	58.51
433.54	72.56
433.72	25.75
433.91	25.75
434.10	4.68
434.28	58.51
434.47	18.72
434.66	11.70
434.85	32.77
435.03	9.36
435.22	60.85
435.41	0.00
435.59	51.49
435.78	7.02
435.97	25.75
436.16	58.51
436.34	14.04
436.53	37.45
436.72	65.54
436.90	77.24
437.09	4.68
437.28	28.09
437.46	21.06
437.65	35.11
437.84	28.09
438.02	46.81
438.21	60.85
438.40	0.00
438.58	23.41
438.77	0.00
438.96	91.28
439.14	0.00
439.33	46.81
439.52	0.00
439.70	39.79
439.89	9.36
440.08	35.11
440.26	74.90
440.45	51.49
440.63	23.41
440.82	32.77
441.01	21.06
441.19	0.00
441.38	0.00
441.57	0.00
441.75	39.79
441.94	0.00
442.12	0.00
442.31	9.36
442.50	30.43
442.68	56.17
442.87	37.45
443.05	67.88
443.24	18.72
443.43	70.22
443.61	46.81
443.80	16.38
443.98	0.00
444.17	39.79
444.35	0.00
444.54	35.11
444.73	2.34
444.91	39.79
445.10	58.51
445.28	114.69
445.47	7.02
445.65	16.38
445.84	42.13
446.02	0.00
446.21	18.72
446.39	46.81
446.58	0.00
446.77	0.00
446.95	4.68
447.14	53.83
447.32	81.92
447.51	0.00
447.69	37.45
447.88	35.11
448.06	16.38
448.25	0.00
448.43	14.04
448.62	53.83
448.80	32.77
448.99	4.68
449.17	0.00
449.36	0.00
449.54	60.85
449.73	110.01
449.91	58.51
450.10	42.13
450.28	79.58
450.46	16.38
450.65	39.79
450.83	9.36
451.02	2.34
451.20	72.56
451.39	63.19
451.57	91.28
451.76	32.77
451.94	37.45
452.13	0.00
452.31	11.70
452.49	9.36
452.68	0.00
452.86	9.36
453.05	23.41
453.23	86.60
453.42	49.15
453.60	58.51
453.78	95.96
453.97	46.81
454.15	53.83
454.34	21.06
454.52	25.75
454.70	98.30
454.89	0.00
455.07	30.43
455.26	70.22
455.44	23.41
455.62	0.00
455.81	28.09
455.99	74.90
456.17	30.43
456.36	16.38
456.54	0.00
456.73	42.13
456.91	51.49
457.09	30.43
457.28	100.64
457.46	30.43
457.64	30.43
457.83	42.13
458.01	0.00
458.19	28.09
458.38	18.72
458.56	0.00
458.74	95.96
458.93	86.60
459.11	46.81
459.29	0.00
459.48	28.09
459.66	56.17
459.84	60.85
460.03	98.30
460.21	53.83
460.39	16.38
460.57	39.79
460.76	25.75
460.94	84.26
461.12	0.00
461.31	84.26
461.49	53.83
461.67	7.02
461.85	7.02
462.04	28.09
462.22	42.13
462.40	42.13
462.59	39.79
462.77	16.38
462.95	32.77
463.13	95.96
463.32	46.81
463.50	51.49
463.68	58.51
463.86	30.43
464.05	60.85
464.23	0.00
464.41	2.34
464.59	56.17
464.78	9.36
464.96	23.41
465.14	63.19
465.32	23.41
465.50	91.28
465.69	42.13
465.87	0.00
466.05	39.79
466.23	56.17
466.41	46.81
466.60	46.81
466.78	21.06
466.96	0.00
467.14	30.43
467.32	39.79
467.51	0.00
467.69	102.98
467.87	74.90
468.05	21.06
468.23	18.72
468.41	79.58
468.60	46.81
468.78	32.77
468.96	2.34
469.14	44.47
469.32	42.13
469.50	93.62
469.69	42.13
469.87	56.17
470.05	70.22
470.23	28.09
470.41	37.45
470.59	25.75
470.77	67.88
470.95	32.77
471.14	16.38
471.32	100.64
471.50	37.45
471.68	135.75
471.86	0.00
472.04	11.70
472.22	39.79
472.40	7.02
472.58	58.51
472.77	25.75
472.95	0.00
473.13	60.85
473.31	18.72
473.49	72.56
473.67	114.69
473.85	4.68
474.03	74.90
474.21	63.19
474.39	2.34
474.57	67.88
474.75	35.11
474.93	0.00
475.12	46.81
475.30	25.75
475.48	58.51
475.66	72.56
475.84	35.11
476.02	100.64
476.20	46.81
476.38	0.00
476.56	18.72
476.74	37.45
476.92	0.00
477.10	44.47
477.28	35.11
477.46	88.94
477.64	0.00
477.82	42.13
478.00	9.36
478.18	14.04
478.36	18.72
478.54	39.79
478.72	70.22
478.90	44.47
479.08	77.24
479.26	0.00
479.44	0.00
479.62	53.83
479.80	0.00
479.98	0.00
480.16	11.70
480.34	23.41
480.52	25.75
480.70	0.00
480.88	30.43
481.06	58.51
481.24	88.94
481.41	30.43
481.59	46.81
481.77	21.06
481.95	42.13
482.13	42.13
482.31	0.00
482.49	2.34
482.67	21.06
482.85	4.68
483.03	37.45
483.21	0.00
483.39	11.70
483.57	46.81
483.74	0.00
483.92	60.85
484.10	46.81
484.28	117.03
484.46	16.38
484.64	14.04
484.82	67.88
485.00	44.47
485.18	21.06
485.35	42.13
485.53	0.00
485.71	18.72
485.89	14.04
486.07	53.83
486.25	84.26
486.43	4.68
486.61	74.90
486.78	39.79
486.96	60.85
487.14	140.43
487.32	65.54
487.50	63.19
487.68	60.85
487.85	56.17
488.03	53.83
488.21	70.22
488.39	30.43
488.57	21.06
488.75	56.17
488.92	16.38
489.10	107.66
489.28	0.00
489.46	0.00
489.64	0.00
489.81	42.13
489.99	0.00
490.17	63.19
490.35	72.56
490.53	42.13
490.70	0.00
490.88	58.51
491.06	28.09
491.24	65.54
491.41	32.77
491.59	56.17
491.77	4.68
491.95	58.51
492.13	0.00
492.30	98.30
492.48	126.39
492.66	77.24
492.84	32.77
493.01	53.83
493.19	70.22
493.37	100.64
493.54	42.13
493.72	72.56
493.90	16.38
494.08	0.00
494.25	21.06
494.43	23.41
494.61	110.01
494.79	46.81
494.96	72.56
495.14	60.85
495.32	9.36
495.49	53.83
495.67	0.00
495.85	35.11
496.02	23.41
496.20	81.92
496.38	18.72
496.55	63.19
496.73	65.54
496.91	23.41
497.09	98.30
497.26	0.00
497.44	9.36
497.62	9.36
497.79	28.09
497.97	56.17
498.14	77.24
498.32	37.45
498.50	117.03
498.67	63.19
498.85	91.28
499.03	88.94
499.20	28.09
499.38	98.30
499.56	65.54
499.73	4.68
499.91	79.58
500.08	58.51
500.26	14.04
500.44	32.77
500.61	79.58
500.79	51.49
500.97	58.51
501.14	56.17
501.32	110.01
501.49	56.17
501.67	30.43
501.84	88.94
502.02	91.28
502.20	58.51
502.37	7.02
502.55	9.36
502.72	32.77
502.90	110.01
503.07	93.62
503.25	44.47
503.43	60.85
503.60	63.19
503.78	81.92
503.95	23.41
504.13	58.51
504.30	14.04
504.48	39.79
504.65	0.00
504.83	93.62
505.01	7.02
505.18	0.00
505.36	60.85
505.53	37.45
505.71	49.15
505.88	65.54
506.06	42.13
506.23	93.62
506.41	86.60
506.58	67.88
506.76	0.00
506.93	60.85
507.11	70.22
507.28	112.35
507.46	67.88
507.63	0.00
507.81	79.58
507.98	67.88
508.16	46.81
508.33	124.05
508.50	56.17
508.68	32.77
508.85	37.45
509.03	74.90
509.20	16.38
509.38	60.85
509.55	0.00
509.73	102.98
509.90	72.56
510.08	42.13
510.25	77.24
510.42	35.11
510.60	51.49
510.77	84.26
510.95	4.68
511.12	0.00
511.30	37.45
511.47	16.38
511.64	58.51
511.82	86.60
511.99	65.54
512.17	11.70
512.34	4.68
512.51	72.56
512.69	100.64
512.86	117.03
513.04	0.00
513.21	39.79
513.38	0.00
513.56	32.77
513.73	23.41
513.90	0.00
514.08	16.38
514.25	86.60
514.43	53.83
514.60	28.09
514.77	63.19
514.95	21.06
515.12	0.00
515.29	28.09
515.47	105.32
515.64	117.03
515.81	39.79
515.99	67.88
516.16	107.66
516.33	0.00
516.51	88.94
516.68	28.09
516.85	0.00
517.03	81.92
517.20	65.54
517.37	51.49
517.54	0.00
517.72	30.43
517.89	58.51
518.06	91.28
518.24	51.49
518.41	79.58
518.58	46.81
518.75	58.51
518.93	67.88
519.10	86.60
519.27	23.41
519.45	65.54
519.62	51.49
519.79	81.92
519.96	60.85
520.14	58.51
520.31	0.00
520.48	67.88
520.65	42.13
520.83	0.00
521.00	51.49
521.17	0.00
521.34	18.72
521.52	35.11
521.69	56.17
521.86	51.49
522.03	107.66
522.20	88.94
522.38	32.77
522.55	16.38
522.72	0.00
522.89	0.00
523.07	98.30
523.24	60.85
523.41	14.04
523.58	63.19
523.75	0.00
523.92	0.00
524.10	0.00
524.27	30.43
524.44	60.85
524.61	110.01
524.78	9.36
524.96	51.49
525.13	84.26
525.30	46.81
525.47	124.05
525.64	79.58
525.81	53.83
525.98	30.43
526.16	72.56
526.33	60.85
526.50	18.72
526.67	11.70
526.84	0.00
527.01	49.15
527.18	28.09
527.36	110.01
527.53	4.68
527.70	74.90
527.87	86.60
528.04	67.88
528.21	28.09
528.38	44.47
528.55	147.45
528.72	42.13
528.89	39.79
529.07	110.01
529.24	102.98
529.41	86.60
529.58	11.70
529.75	49.15
529.92	46.81
530.09	77.24
530.26	65.54
530.43	77.24
530.60	37.45
530.77	93.62
530.94	77.24
531.11	0.00
531.28	72.56
531.46	81.92
531.63	9.36
531.80	16.38
531.97	25.75
532.14	67.88
532.31	0.00
532.48	67.88
532.65	28.09
532.82	91.28
532.99	2.34
533.16	0.00
533.33	23.41
533.50	44.47
533.67	39.79
533.84	119.37
534.01	70.22
534.18	67.88
534.35	4.68
534.52	16.38
534.69	23.41
534.86	77.24
535.03	49.15
535.20	77.24
535.37	32.77
535.54	95.96
535.71	95.96
535.88	51.49
536.05	74.90
536.22	16.38
536.38	25.75
536.55	28.09
536.72	32.77
536.89	102.98
537.06	74.90
537.23	56.17
537.40	0.00
537.57	28.09
537.74	49.15
537.91	16.38
538.08	44.47
538.25	44.47
538.42	58.51
538.59	49.15
538.75	39.79
538.92	0.00
539.09	11.70
539.26	51.49
539.43	105.32
539.60	7.02
539.77	25.75
539.94	0.00
540.11	102.98
540.28	88.94
540.44	0.00
540.61	44.47
540.78	42.13
540.95	81.92
541.12	79.58
541.29	42.13
541.46	14.04
541.62	112.35
541.79	16.38
541.96	53.83
542.13	70.22
542.30	16.38
542.47	0.00
542.63	0.00
542.80	60.85
542.97	51.49
543.14	25.75
543.31	95.96
543.48	74.90
543.64	28.09
543.81	0.00
543.98	133.41
544.15	79.58
544.32	0.00
544.48	79.58
544.65	35.11
544.82	35.11
544.99	131.07
545.16	21.06
545.32	138.09
545.49	86.60
545.66	4.68
545.83	53.83
546.00	74.90
546.16	37.45
546.33	81.92
546.50	88.94
546.67	84.26
546.83	21.06
547.00	91.28
547.17	56.17
547.34	0.00
547.50	39.79
547.67	18.72
547.84	60.85
548.00	63.19
548.17	21.06
548.34	67.88
548.51	39.79
548.67	0.00
548.84	16.38
549.01	42.13
549.18	51.49
549.34	53.83
549.51	7.02
549.68	49.15
549.84	14.04
550.01	67.88
550.18	79.58
550.34	30.43
550.51	77.24
550.68	0.00
550.84	0.00
551.01	23.41
551.18	0.00
551.34	56.17
551.51	2.34
551.68	0.00
551.84	39.79
552.01	32.77
552.18	58.51
552.34	32.77
552.51	91.28
552.68	46.81
552.84	70.22
553.01	35.11
553.18	18.72
553.34	28.09
553.51	49.15
553.67	21.06
553.84	42.13
554.01	65.54
554.17	58.51
554.34	30.43
554.51	65.54
554.67	63.19
554.84	46.81
555.00	18.72
555.17	16.38
555.33	0.00
555.50	39.79
555.67	44.47
555.83	14.04
556.00	107.66
556.16	30.43
556.33	0.00
556.50	49.15
556.66	60.85
556.83	14.04
556.99	39.79
557.16	11.70
557.32	35.11
557.49	65.54
557.65	79.58
557.82	23.41
557.98	0.00
558.15	79.58
558.32	72.56
558.48	30.43
558.65	37.45
558.81	65.54
558.98	0.00
559.14	63.19
559.31	88.94
559.47	49.15
559.64	44.47
559.80	46.81
559.97	84.26
560.13	72.56
560.30	53.83
560.46	44.47
560.63	0.00
560.79	46.81
560.96	70.22
561.12	18.72
561.29	84.26
561.45	42.13
561.61	25.75
561.78	21.06
561.94	0.00
562.11	4.68
562.27	21.06
562.44	0.00
562.60	107.66
562.77	37.45
562.93	95.96
563.10	86.60
563.26	7.02
563.42	91.28
563.59	23.41
563.75	0.00
563.92	37.45
564.08	28.09
564.24	0.00
564.41	25.75
564.57	56.17
564.74	79.58
564.90	77.24
565.07	49.15
565.23	88.94
565.39	35.11
565.56	79.58
565.72	95.96
565.88	0.00
566.05	98.30
566.21	114.69
566.38	72.56
566.54	0.00
566.70	74.90
566.87	60.85
567.03	63.19
567.19	14.04
567.36	91.28
567.52	58.51
567.68	60.85
567.85	0.00
568.01	70.22
568.17	7.02
568.34	0.00
568.50	0.00
568.66	35.11
568.83	67.88
568.99	0.00
569.15	51.49
569.32	14.04
569.48	25.75
569.64	0.00
569.81	46.81
569.97	14.04
570.13	72.56
570.30	16.38
570.46	56.17
570.62	16.38
570.78	112.35
570.95	67.88
571.11	0.00
571.27	105.32
571.43	51.49
571.60	79.58
571.76	0.00
571.92	9.36
572.09	18.72
572.25	0.00
572.41	46.81
572.57	0.00
572.74	32.77
572.90	46.81
573.06	79.58
573.22	4.68
573.38	56.17
573.55	0.00
573.71	107.66
573.87	4.68
574.03	79.58
574.20	18.72
574.36	81.92
574.52	46.81
574.68	86.60
574.84	44.47
575.01	9.36
575.17	44.47
575.33	126.39
575.49	16.38
575.65	0.00
575.82	0.00
575.98	56.17
576.14	84.26
576.30	28.09
576.46	28.09
576.62	72.56
576.79	67.88
576.95	102.98
577.11	44.47
577.27	77.24
577.43	39.79
577.59	46.81
577.75	18.72
577.92	53.83
578.08	39.79
578.24	63.19
578.40	67.88
578.56	0.00
578.72	58.51
578.88	42.13
579.04	77.24
579.21	23.41
579.37	60.85
579.53	58.51
579.69	56.17
579.85	23.41
580.01	2.34
580.17	4.68
580.33	42.13
580.49	35.11
580.65	124.05
580.82	107.66
580.98	18.72
581.14	70.22
581.30	114.69
581.46	100.64
581.62	0.00
581.78	16.38
581.94	53.83
582.10	53.83
582.26	18.72
582.42	0.00
582.58	42.13
582.74	63.19
582.90	70.22
583.06	65.54
583.22	0.00
583.38	49.15
583.54	44.47
583.70	88.94
583.86	86.60
584.02	60.85
584.18	11.70
584.34	51.49
584.50	0.00
584.66	60.85
584.82	95.96
584.98	124.05
585.14	25.75
585.30	51.49
585.46	30.43
585.62	32.77
585.78	79.58
585.94	44.47
586.10	32.77
586.26	0.00
586.42	60.85
586.58	70.22
586.74	32.77
586.90	60.85
587.06	0.00
587.22	0.00
587.38	53.83
587.54	35.11
587.70	42.13
587.86	35.11
588.02	91.28
588.18	95.96
588.34	39.79
588.49	9.36
588.65	60.85
588.81	28.09
588.97	44.47
589.13	2.34
589.29	16.38
589.45	42.13
589.61	35.11
589.77	0.00
589.93	42.13
590.08	28.09
590.24	0.00
590.40	65.54
590.56	0.00
590.72	0.00
590.88	84.26
591.04	56.17
591.20	128.73
591.35	0.00
591.51	93.62
591.67	51.49
591.83	72.56
591.99	18.72
592.15	100.64
592.31	37.45
592.46	51.49
592.62	9.36
592.78	0.00
592.94	77.24
593.10	79.58
593.26	25.75
593.41	23.41
593.57	39.79
593.73	25.75
593.89	65.54
594.05	53.83
594.20	25.75
594.36	72.56
594.52	0.00
594.68	98.30
594.84	30.43
594.99	44.47
595.15	42.13
595.31	23.41
595.47	37.45
595.62	49.15
595.78	0.00
595.94	9.36
596.10	23.41
596.25	44.47
596.41	81.92
596.57	65.54
596.73	37.45
596.88	32.77
597.04	0.00
597.20	18.72
597.36	7.02
597.51	53.83
597.67	0.00
597.83	18.72
597.99	53.83
598.14	28.09
598.30	77.24
598.46	0.00
598.61	81.92
598.77	49.15
598.93	72.56
599.09	60.85
599.24	25.75
599.40	77.24
599.56	79.58
599.71	44.47
599.87	25.75
600.03	0.00
600.18	25.75
600.34	28.09
600.50	23.41
600.65	105.32
600.81	49.15
600.97	72.56
601.12	46.81
601.28	79.58
601.44	63.19
601.59	35.11
601.75	7.02
601.91	65.54
602.06	74.90
602.22	53.83
602.37	112.35
602.53	30.43
602.69	56.17
602.84	67.88
603.00	0.00
603.16	56.17
603.31	93.62
603.47	32.77
603.62	63.19
603.78	0.00
603.94	18.72
604.09	18.72
604.25	53.83
604.40	16.38
604.56	0.00
604.71	44.47
604.87	0.00
605.03	0.00
605.18	11.70
605.34	25.75
605.49	23.41
605.65	0.00
605.80	79.58
605.96	23.41
606.12	65.54
606.27	72.56
606.43	56.17
606.58	2.34
606.74	39.79
606.89	23.41
607.05	110.01
607.20	63.19
607.36	58.51
607.51	11.70
607.67	53.83
607.82	7.02
607.98	35.11
608.13	0.00
608.29	37.45
608.44	49.15
608.60	14.04
608.75	11.70
608.91	74.90
609.06	51.49
609.22	79.58
609.37	0.00
609.53	0.00
609.68	39.79
609.84	63.19
609.99	25.75
610.15	70.22
610.30	2.34
610.46	25.75
610.61	0.00
610.76	44.47
610.92	2.34
611.07	53.83
611.23	46.81
611.38	86.60
611.54	65.54
611.69	28.09
611.84	23.41
612.00	37.45
612.15	46.81
612.31	74.90
612.46	16.38
612.62	58.51
612.77	53.83
612.92	2.34
613.08	4.68
613.23	18.72
613.39	58.51
613.54	74.90
613.69	65.54
613.85	51.49
614.00	72.56
614.15	58.51
614.31	0.00
614.46	28.09
614.62	21.06
614.77	0.00
614.92	65.54
615.08	0.00
615.23	0.00
615.38	16.38
615.54	0.00
615.69	18.72
615.84	51.49
616.00	77.24
616.15	74.90
616.30	60.85
616.46	51.49
616.61	35.11
616.76	0.00
616.92	74.90
617.07	0.00
617.22	53.83
617.37	28.09
617.53	58.51
617.68	88.94
617.83	16.38
617.99	46.81
618.14	9.36
618.29	53.83
618.45	39.79
618.60	11.70
618.75	60.85
618.90	4.68
619.06	46.81
619.21	67.88
619.36	65.54
619.51	4.68
619.67	60.85
619.82	35.11
619.97	42.13
620.12	46.81
620.28	32.77
620.43	42.13
620.58	0.00
620.73	84.26
620.89	23.41
621.04	28.09
621.19	32.77
621.34	14.04
621.49	42.13
621.65	72.56
621.80	67.88
621.95	39.79
622.10	44.47
622.25	0.00
622.41	35.11
622.56	46.81
622.71	32.77
622.86	16.38
623.01	35.11
623.16	44.47
623.32	23.41
623.47	46.81
623.62	133.41
623.77	70.22
623.92	0.00
624.07	0.00
624.23	56.17
624.38	46.81
624.53	88.94
624.68	25.75
624.83	30.43
624.98	72.56
625.13	39.79
625.29	39.79
625.44	0.00
625.59	16.38
625.74	56.17
625.89	23.41
626.04	56.17
626.19	23.41
626.34	67.88
626.49	0.00
626.65	0.00
626.80	46.81
626.95	18.72
627.10	25.75
627.25	102.98
627.40	95.96
627.55	58.51
627.70	95.96
627.85	16.38
628.00	98.30
628.15	51.49
628.30	23.41
628.45	49.15
628.60	39.79
628.76	37.45
628.91	0.00
629.06	25.75
629.21	21.06
629.36	2.34
629.51	84.26
629.66	25.75
629.81	49.15
629.96	0.00
630.11	21.06
630.26	74.90
630.41	0.00
630.56	56.17
630.71	0.00
630.86	42.13
631.01	81.92
631.16	63.19
631.31	0.00
631.46	95.96
631.61	112.35
631.76	79.58
631.91	42.13
632.06	79.58
632.21	21.06
632.36	81.92
632.51	0.00
632.66	21.06
632.81	74.90
632.96	30.43
633.10	18.72
633.25	60.85
633.40	11.70
633.55	23.41
633.70	95.96
633.85	0.00
634.00	14.04
634.15	16.38
634.30	32.77
634.45	16.38
634.60	35.11
634.75	18.72
634.90	0.00
635.05	2.34
635.19	35.11
635.34	112.35
635.49	110.01
635.64	0.00
635.79	23.41
635.94	28.09
636.09	0.00
636.24	35.11
636.39	58.51
636.53	0.00
636.68	88.94
636.83	14.04
636.98	23.41
637.13	37.45
637.28	65.54
637.43	14.04
637.57	28.09
637.72	81.92
637.87	23.41
638.02	91.28
638.17	53.83
638.32	65.54
638.46	100.64
638.61	30.43
638.76	18.72
638.91	25.75
639.06	56.17
639.20	56.17
639.35	44.47
639.50	23.41
639.65	37.45
639.80	56.17
639.94	35.11
640.09	0.00
640.24	0.00
640.39	0.00
640.54	100.64
640.68	7.02
640.83	16.38
640.98	74.90
641.13	11.70
641.27	81.92
641.42	46.81
641.57	28.09
641.72	42.13
641.86	51.49
642.01	60.85
642.16	30.43
642.31	49.15
642.45	100.64
642.60	25.75
642.75	37.45
642.90	72.56
643.04	46.81
643.19	74.90
643.34	74.90
643.48	65.54
643.63	37.45
643.78	4.68
643.93	4.68
644.07	42.13
644.22	42.13
644.37	25.75
644.51	58.51
644.66	23.41
644.81	63.19
644.95	114.69
645.10	16.38
645.25	16.38
645.39	84.26
645.54	21.06
645.69	14.04
645.83	56.17
645.98	63.19
646.13	0.00
646.27	112.35
646.42	72.56
646.57	2.34
646.71	35.11
646.86	72.56
647.00	53.83
647.15	0.00
647.30	32.77
647.44	72.56
647.59	0.00
647.74	98.30
647.88	0.00
648.03	16.38
648.17	2.34
648.32	53.83
648.47	30.43
648.61	42.13
648.76	9.36
648.90	21.06
649.05	30.43
649.20	84.26
649.34	58.51
649.49	14.04
649.63	0.00
649.78	0.00
649.92	44.47
650.07	28.09
650.21	0.00
650.36	0.00
650.51	0.00
650.65	16.38
650.80	77.24
650.94	117.03
651.09	63.19
651.23	35.11
651.38	0.00
651.52	18.72
651.67	49.15
651.81	0.00
651.96	79.58
652.10	28.09
652.25	2.34
652.39	81.92
652.54	14.04
652.68	7.02
652.83	7.02
652.97	0.00
653.12	119.37
653.26	63.19
653.41	65.54
653.55	86.60
653.70	46.81
653.84	30.43
653.99	32.77
654.13	32.77
654.27	0.00
654.42	0.00
654.56	28.09
654.71	28.09
654.85	28.09
655.00	39.79
655.14	81.92
655.29	37.45
655.43	84.26
655.57	11.70
655.72	37.45
655.86	2.34
656.01	42.13
656.15	88.94
656.30	9.36
656.44	0.00
656.58	63.19
656.73	25.75
656.87	77.24
657.01	65.54
657.16	81.92
657.30	32.77
657.45	37.45
657.59	79.58
657.73	23.41
657.88	63.19
658.02	67.88
658.16	53.83
658.31	102.98
658.45	4.68
658.60	60.85
658.74	23.41
658.88	0.00
659.03	51.49
659.17	18.72
659.31	0.00
659.46	86.60
659.60	107.66
659.74	58.51
659.89	35.11
660.03	70.22
660.17	88.94
660.32	37.45
660.46	91.28
660.60	32.77
660.74	23.41
660.89	88.94
661.03	18.72
661.17	37.45
661.32	102.98
661.46	0.00
661.60	46.81
661.74	46.81
661.89	74.90
662.03	58.51
662.17	25.75
662.31	16.38
662.46	95.96
662.60	23.41
662.74	39.79
662.88	63.19
663.03	56.17
663.17	44.47
663.31	0.00
663.45	23.41
663.60	30.43
663.74	9.36
663.88	35.11
664.02	37.45
664.17	23.41
664.31	88.94
664.45	7.02
664.59	35.11
664.73	21.06
664.88	60.85
665.02	0.00
665.16	32.77
665.30	53.83
665.44	4.68
665.59	2.34
665.73	21.06
665.87	42.13
666.01	42.13
666.15	63.19
666.29	32.77
666.44	53.83
666.58	28.09
666.72	21.06
666.86	16.38
667.00	86.60
667.14	63.19
667.28	0.00
667.43	0.00
667.57	16.38
667.71	16.38
667.85	0.00
667.99	46.81
668.13	60.85
668.27	21.06
668.41	79.58
668.56	37.45
668.70	2.34
668.84	23.41
668.98	30.43
669.12	21.06
669.26	18.72
669.40	0.00
669.54	72.56
669.68	39.79
669.82	100.64
669.96	0.00
670.10	72.56
670.25	81.92
670.39	79.58
670.53	74.90
670.67	32.77
670.81	39.79
670.95	16.38
671.09	51.49
671.23	63.19
671.37	98.30
671.51	0.00
671.65	42.13
671.79	70.22
671.93	18.72
672.07	74.90
672.21	0.00
672.35	70.22
672.49	0.00
672.63	7.02
672.77	35.11
672.91	0.00
673.05	0.00
673.19	93.62
673.33	53.83
673.47	25.75
673.61	119.37
673.75	25.75
673.89	16.38
674.03	72.56
674.17	28.09
674.31	81.92
674.45	11.70
674.59	0.00
674.73	32.77
674.87	84.26
675.01	21.06
675.15	32.77
675.29	23.41
675.43	14.04
675.56	60.85
675.70	32.77
675.84	46.81
675.98	67.88
676.12	4.68
676.26	63.19
676.40	86.60
676.54	0.00
676.68	86.60
676.82	0.00
676.96	37.45
677.10	102.98
677.23	72.56
677.37	93.62
677.51	46.81
677.65	49.15
677.79	0.00
677.93	0.00
678.07	18.72
678.21	16.38
678.34	28.09
678.48	60.85
678.62	18.72
678.76	0.00
678.90	0.00
679.04	39.79
679.18	60.85
679.31	39.79
679.45	28.09
679.59	0.00
679.73	67.88
679.87	30.43
680.00	25.75
680.14	67.88
680.28	70.22
680.42	32.77
680.56	28.09
680.70	86.60
680.83	114.69
680.97	51.49
681.11	25.75
681.25	0.00
681.39	37.45
681.52	51.49
681.66	39.79
681.80	39.79
681.94	58.51
682.07	51.49
682.21	0.00
682.35	0.00
682.49	28.09
682.62	53.83
682.76	86.60
682.90	0.00
683.04	14.04
683.17	18.72
683.31	84.26
683.45	30.43
683.59	42.13
683.72	44.47
683.86	60.85
684.00	63.19
684.13	70.22
684.27	0.00
684.41	0.00
684.55	0.00
684.68	51.49
684.82	72.56
684.96	0.00
685.09	39.79
685.23	18.72
685.37	95.96
685.50	49.15
685.64	23.41
685.78	39.79
685.91	46.81
686.05	105.32
686.19	79.58
686.32	63.19
686.46	39.79
686.60	0.00
686.73	30.43
686.87	21.06
687.01	7.02
687.14	9.36
687.28	18.72
687.42	35.11
687.55	2.34
687.69	70.22
687.82	81.92
687.96	28.09
688.10	21.06
688.23	0.00
688.37	0.00
688.50	37.45
688.64	2.34
688.78	74.90
688.91	0.00
689.05	37.45
689.18	0.00
689.32	21.06
689.46	79.58
689.59	58.51
689.73	51.49
689.86	37.45
690.00	65.54
690.13	32.77
690.27	58.51
690.41	0.00
690.54	16.38
690.68	0.00
690.81	93.62
690.95	37.45
691.08	117.03
691.22	32.77
691.35	53.83
691.49	30.43
691.62	21.06
691.76	100.64
691.89	25.75
692.03	53.83
692.16	0.00
692.30	32.77
692.43	0.00
692.57	21.06
692.70	58.51
692.84	16.38
692.97	14.04
693.11	30.43
693.24	53.83
693.38	35.11
693.51	16.38
693.65	4.68
693.78	51.49
693.92	37.45
694.05	56.17
694.19	9.36
694.32	0.00
694.45	56.17
694.59	65.54
694.72	35.11
694.86	28.09
694.99	0.00
695.13	42.13
695.26	21.06
695.39	53.83
695.53	81.92
695.66	0.00
695.80	86.60
695.93	0.00
696.07	32.77
696.20	70.22
696.33	28.09
696.47	16.38
696.60	18.72
696.73	18.72
696.87	110.01
697.00	70.22
697.14	0.00
697.27	65.54
697.40	0.00
697.54	0.00
697.67	0.00
697.80	105.32
697.94	53.83
698.07	32.77
698.21	63.19
698.34	16.38
698.47	131.07
698.61	65.54
698.74	39.79
698.87	18.72
699.01	39.79
699.14	138.09
699.27	60.85
699.40	46.81
699.54	28.09
699.67	11.70
699.80	0.00
699.94	65.54
700.07	65.54
700.20	4.68
700.34	37.45
700.47	0.00
700.60	49.15
700.73	11.70
700.87	60.85
701.00	58.51
701.13	0.00
701.26	11.70
701.40	51.49
701.53	0.00
701.66	0.00
701.79	0.00
701.93	23.41
702.06	67.88
702.19	0.00
702.32	0.00
702.46	72.56
702.59	28.09
702.72	58.51
702.85	60.85
702.99	42.13
703.12	53.83
703.25	0.00
703.38	140.43
703.51	56.17
703.65	25.75
703.78	14.04
703.91	23.41
704.04	0.00
704.17	46.81
704.31	58.51
704.44	67.88
704.57	42.13
704.70	49.15
704.83	9.36
704.96	42.13
705.10	0.00
705.23	2.34
>>>>>End Processed Spectral Data<<<<<
