SpectraSuite Data File
++++++++++++++++++++++++++++++++++++
Date: Fri Oct 04 12:13:39 GMT-05:00 2013
User: price-jones
Dark Spectrum Present: No
Reference Spectrum Present: No
Number of Sampled Component Spectra: 1
Spectrometers: USB2+H05261
Integration Time (usec): 10000 (USB2+H05261)
Spectra Averaged: 1 (USB2+H05261)
Boxcar Smoothing: 0 (USB2+H05261)
Correct for Electrical Dark: No (USB2+H05261)
Strobe/Lamp Enabled: No (USB2+H05261)
Correct for Detector Non-linearity: No (USB2+H05261)
Correct for Stray Light: No (USB2+H05261)
Number of Pixels in Processed Spectrum: 2048
>>>>>Begin Processed Spectral Data<<<<<
365.73	32.77
365.92	32.77
366.12	32.77
366.32	0.00
366.52	0.00
366.72	0.00
366.91	0.00
367.11	0.00
367.31	0.00
367.51	0.00
367.70	0.00
367.90	0.00
368.10	0.00
368.30	0.00
368.49	0.00
368.69	0.00
368.89	0.00
369.09	0.00
369.28	0.00
369.48	0.00
369.68	0.00
369.87	0.00
370.07	0.00
370.27	0.00
370.47	0.00
370.66	28.09
370.86	0.00
371.06	9.36
371.25	0.00
371.45	0.00
371.65	0.00
371.84	0.00
372.04	0.00
372.24	0.00
372.44	21.06
372.63	21.06
372.83	21.06
373.03	0.00
373.22	14.04
373.42	67.88
373.62	0.00
373.81	14.04
374.01	46.81
374.21	9.36
374.40	35.11
374.60	65.54
374.79	88.94
374.99	42.13
375.19	46.81
375.38	72.56
375.58	91.28
375.78	58.51
375.97	56.17
376.17	35.11
376.37	30.43
376.56	35.11
376.76	0.00
376.95	0.00
377.15	37.45
377.35	117.03
377.54	16.38
377.74	70.22
377.93	23.41
378.13	28.09
378.33	88.94
378.52	142.77
378.72	0.00
378.91	0.00
379.11	28.09
379.31	4.68
379.50	0.00
379.70	16.38
379.89	28.09
380.09	65.54
380.28	35.11
380.48	23.41
380.68	39.79
380.87	14.04
381.07	42.13
381.26	0.00
381.46	74.90
381.65	0.00
381.85	37.45
382.04	16.38
382.24	32.77
382.43	11.70
382.63	0.00
382.83	0.00
383.02	37.45
383.22	72.56
383.41	58.51
383.61	74.90
383.80	46.81
384.00	39.79
384.19	0.00
384.39	39.79
384.58	7.02
384.78	42.13
384.97	0.00
385.17	0.00
385.36	21.06
385.56	77.24
385.75	56.17
385.95	23.41
386.14	56.17
386.34	9.36
386.53	42.13
386.72	0.00
386.92	0.00
387.11	81.92
387.31	60.85
387.50	105.32
387.70	30.43
387.89	7.02
388.09	0.00
388.28	32.77
388.48	81.92
388.67	16.38
388.86	0.00
389.06	84.26
389.25	0.00
389.45	4.68
389.64	0.00
389.84	84.26
390.03	9.36
390.22	9.36
390.42	65.54
390.61	72.56
390.81	30.43
391.00	14.04
391.19	0.00
391.39	0.00
391.58	0.00
391.78	95.96
391.97	32.77
392.16	0.00
392.36	2.34
392.55	0.00
392.75	42.13
392.94	0.00
393.13	21.06
393.33	74.90
393.52	39.79
393.71	39.79
393.91	46.81
394.10	60.85
394.29	77.24
394.49	30.43
394.68	65.54
394.88	86.60
395.07	44.47
395.26	72.56
395.46	0.00
395.65	0.00
395.84	21.06
396.04	46.81
396.23	67.88
396.42	28.09
396.62	9.36
396.81	0.00
397.00	2.34
397.19	35.11
397.39	56.17
397.58	81.92
397.77	46.81
397.97	84.26
398.16	72.56
398.35	42.13
398.55	42.13
398.74	35.11
398.93	2.34
399.12	0.00
399.32	81.92
399.51	2.34
399.70	86.60
399.90	18.72
400.09	93.62
400.28	60.85
400.47	72.56
400.67	18.72
400.86	65.54
401.05	9.36
401.24	58.51
401.44	42.13
401.63	0.00
401.82	53.83
402.01	23.41
402.21	65.54
402.40	46.81
402.59	63.19
402.78	11.70
402.97	46.81
403.17	0.00
403.36	0.00
403.55	25.75
403.74	28.09
403.93	53.83
404.13	0.00
404.32	84.26
404.51	39.79
404.70	16.38
404.89	9.36
405.09	18.72
405.28	56.17
405.47	14.04
405.66	0.00
405.85	77.24
406.05	0.00
406.24	25.75
406.43	35.11
406.62	0.00
406.81	72.56
407.00	53.83
407.20	56.17
407.39	53.83
407.58	0.00
407.77	37.45
407.96	74.90
408.15	0.00
408.34	39.79
408.54	39.79
408.73	35.11
408.92	0.00
409.11	51.49
409.30	14.04
409.49	9.36
409.68	44.47
409.87	32.77
410.07	0.00
410.26	28.09
410.45	51.49
410.64	16.38
410.83	0.00
411.02	0.00
411.21	0.00
411.40	21.06
411.59	39.79
411.78	0.00
411.98	39.79
412.17	56.17
412.36	0.00
412.55	51.49
412.74	81.92
412.93	74.90
413.12	0.00
413.31	44.47
413.50	0.00
413.69	28.09
413.88	0.00
414.07	0.00
414.26	23.41
414.45	28.09
414.64	49.15
414.83	0.00
415.02	35.11
415.22	67.88
415.41	0.00
415.60	0.00
415.79	32.77
415.98	46.81
416.17	39.79
416.36	4.68
416.55	105.32
416.74	88.94
416.93	135.75
417.12	4.68
417.31	49.15
417.50	32.77
417.69	0.00
417.88	44.47
418.07	58.51
418.26	0.00
418.45	56.17
418.64	9.36
418.83	98.30
419.02	0.00
419.21	30.43
419.39	53.83
419.58	0.00
419.77	30.43
419.96	51.49
420.15	93.62
420.34	88.94
420.53	102.98
420.72	46.81
420.91	9.36
421.10	79.58
421.29	74.90
421.48	23.41
421.67	84.26
421.86	84.26
422.05	93.62
422.24	102.98
422.43	121.71
422.61	56.17
422.80	70.22
422.99	0.00
423.18	32.77
423.37	7.02
423.56	86.60
423.75	39.79
423.94	37.45
424.13	58.51
424.32	4.68
424.50	58.51
424.69	0.00
424.88	0.00
425.07	63.19
425.26	46.81
425.45	0.00
425.64	46.81
425.83	84.26
426.01	25.75
426.20	32.77
426.39	60.85
426.58	51.49
426.77	0.00
426.96	93.62
427.15	14.04
427.33	25.75
427.52	74.90
427.71	23.41
427.90	102.98
428.09	4.68
428.28	0.00
428.46	0.00
428.65	67.88
428.84	72.56
429.03	93.62
429.22	81.92
429.40	21.06
429.59	72.56
429.78	18.72
429.97	0.00
430.16	35.11
430.34	0.00
430.53	60.85
430.72	18.72
430.91	74.90
431.10	77.24
431.28	81.92
431.47	49.15
431.66	39.79
431.85	81.92
432.03	0.00
432.22	14.04
432.41	11.70
432.60	0.00
432.79	14.04
432.97	0.00
433.16	25.75
433.35	124.05
433.54	11.70
433.72	16.38
433.91	67.88
434.10	0.00
434.28	98.30
434.47	37.45
434.66	53.83
434.85	46.81
435.03	0.00
435.22	60.85
435.41	32.77
435.59	79.58
435.78	79.58
435.97	74.90
436.16	117.03
436.34	37.45
436.53	4.68
436.72	72.56
436.90	81.92
437.09	79.58
437.28	88.94
437.46	37.45
437.65	70.22
437.84	93.62
438.02	84.26
438.21	67.88
438.40	74.90
438.58	28.09
438.77	67.88
438.96	28.09
439.14	46.81
439.33	53.83
439.52	53.83
439.70	35.11
439.89	100.64
440.08	58.51
440.26	46.81
440.45	51.49
440.63	128.73
440.82	9.36
441.01	42.13
441.19	65.54
441.38	77.24
441.57	79.58
441.75	44.47
441.94	42.13
442.12	30.43
442.31	67.88
442.50	7.02
442.68	25.75
442.87	7.02
443.05	0.00
443.24	72.56
443.43	42.13
443.61	121.71
443.80	72.56
443.98	74.90
444.17	16.38
444.35	53.83
444.54	81.92
444.73	28.09
444.91	74.90
445.10	53.83
445.28	25.75
445.47	7.02
445.65	11.70
445.84	7.02
446.02	98.30
446.21	16.38
446.39	86.60
446.58	51.49
446.77	0.00
446.95	88.94
447.14	18.72
447.32	65.54
447.51	0.00
447.69	46.81
447.88	95.96
448.06	23.41
448.25	0.00
448.43	39.79
448.62	44.47
448.80	91.28
448.99	74.90
449.17	53.83
449.36	46.81
449.54	49.15
449.73	72.56
449.91	72.56
450.10	0.00
450.28	81.92
450.46	79.58
450.65	74.90
450.83	91.28
451.02	56.17
451.20	0.00
451.39	65.54
451.57	84.26
451.76	74.90
451.94	53.83
452.13	42.13
452.31	30.43
452.49	9.36
452.68	70.22
452.86	0.00
453.05	32.77
453.23	49.15
453.42	37.45
453.60	140.43
453.78	74.90
453.97	0.00
454.15	30.43
454.34	28.09
454.52	51.49
454.70	79.58
454.89	0.00
455.07	30.43
455.26	63.19
455.44	60.85
455.62	79.58
455.81	98.30
455.99	0.00
456.17	72.56
456.36	51.49
456.54	72.56
456.73	35.11
456.91	42.13
457.09	28.09
457.28	70.22
457.46	72.56
457.64	49.15
457.83	112.35
458.01	9.36
458.19	46.81
458.38	67.88
458.56	28.09
458.74	86.60
458.93	67.88
459.11	79.58
459.29	70.22
459.48	9.36
459.66	35.11
459.84	72.56
460.03	58.51
460.21	28.09
460.39	58.51
460.57	56.17
460.76	79.58
460.94	49.15
461.12	44.47
461.31	32.77
461.49	42.13
461.67	112.35
461.85	14.04
462.04	42.13
462.22	149.79
462.40	112.35
462.59	56.17
462.77	102.98
462.95	56.17
463.13	0.00
463.32	74.90
463.50	51.49
463.68	91.28
463.86	67.88
464.05	56.17
464.23	35.11
464.41	11.70
464.59	32.77
464.78	18.72
464.96	56.17
465.14	81.92
465.32	16.38
465.50	65.54
465.69	53.83
465.87	81.92
466.05	9.36
466.23	0.00
466.41	72.56
466.60	4.68
466.78	133.41
466.96	63.19
467.14	42.13
467.32	7.02
467.51	30.43
467.69	72.56
467.87	44.47
468.05	46.81
468.23	88.94
468.41	44.47
468.60	42.13
468.78	88.94
468.96	105.32
469.14	65.54
469.32	53.83
469.50	39.79
469.69	35.11
469.87	0.00
470.05	93.62
470.23	105.32
470.41	63.19
470.59	65.54
470.77	23.41
470.95	67.88
471.14	39.79
471.32	56.17
471.50	58.51
471.68	74.90
471.86	102.98
472.04	81.92
472.22	25.75
472.40	46.81
472.58	100.64
472.77	0.00
472.95	37.45
473.13	117.03
473.31	25.75
473.49	9.36
473.67	32.77
473.85	9.36
474.03	51.49
474.21	49.15
474.39	77.24
474.57	102.98
474.75	49.15
474.93	23.41
475.12	35.11
475.30	124.05
475.48	51.49
475.66	77.24
475.84	72.56
476.02	98.30
476.20	77.24
476.38	60.85
476.56	23.41
476.74	0.00
476.92	49.15
477.10	65.54
477.28	46.81
477.46	0.00
477.64	23.41
477.82	100.64
478.00	95.96
478.18	23.41
478.36	149.79
478.54	74.90
478.72	72.56
478.90	58.51
479.08	79.58
479.26	63.19
479.44	128.73
479.62	46.81
479.80	79.58
479.98	25.75
480.16	42.13
480.34	86.60
480.52	65.54
480.70	126.39
480.88	100.64
481.06	42.13
481.24	95.96
481.41	119.37
481.59	21.06
481.77	60.85
481.95	51.49
482.13	35.11
482.31	70.22
482.49	65.54
482.67	21.06
482.85	84.26
483.03	60.85
483.21	126.39
483.39	67.88
483.57	65.54
483.74	58.51
483.92	46.81
484.10	30.43
484.28	51.49
484.46	124.05
484.64	0.00
484.82	72.56
485.00	35.11
485.18	128.73
485.35	18.72
485.53	42.13
485.71	30.43
485.89	0.00
486.07	77.24
486.25	60.85
486.43	2.34
486.61	88.94
486.78	42.13
486.96	72.56
487.14	35.11
487.32	39.79
487.50	53.83
487.68	0.00
487.85	42.13
488.03	35.11
488.21	63.19
488.39	42.13
488.57	53.83
488.75	74.90
488.92	86.60
489.10	32.77
489.28	95.96
489.46	100.64
489.64	37.45
489.81	58.51
489.99	60.85
490.17	21.06
490.35	25.75
490.53	23.41
490.70	88.94
490.88	98.30
491.06	70.22
491.24	79.58
491.41	112.35
491.59	117.03
491.77	121.71
491.95	63.19
492.13	70.22
492.30	100.64
492.48	95.96
492.66	93.62
492.84	100.64
493.01	67.88
493.19	117.03
493.37	154.48
493.54	42.13
493.72	114.69
493.90	44.47
494.08	65.54
494.25	58.51
494.43	53.83
494.61	86.60
494.79	72.56
494.96	135.75
495.14	65.54
495.32	67.88
495.49	53.83
495.67	95.96
495.85	53.83
496.02	112.35
496.20	81.92
496.38	60.85
496.55	74.90
496.73	98.30
496.91	128.73
497.09	35.11
497.26	49.15
497.44	86.60
497.62	18.72
497.79	126.39
497.97	39.79
498.14	2.34
498.32	65.54
498.50	98.30
498.67	77.24
498.85	81.92
499.03	30.43
499.20	86.60
499.38	124.05
499.56	117.03
499.73	63.19
499.91	119.37
500.08	110.01
500.26	63.19
500.44	67.88
500.61	65.54
500.79	70.22
500.97	91.28
501.14	72.56
501.32	7.02
501.49	0.00
501.67	140.43
501.84	138.09
502.02	72.56
502.20	63.19
502.37	65.54
502.55	105.32
502.72	91.28
502.90	112.35
503.07	79.58
503.25	105.32
503.43	81.92
503.60	35.11
503.78	91.28
503.95	93.62
504.13	72.56
504.30	21.06
504.48	121.71
504.65	63.19
504.83	81.92
505.01	105.32
505.18	86.60
505.36	86.60
505.53	93.62
505.71	74.90
505.88	58.51
506.06	184.90
506.23	84.26
506.41	102.98
506.58	70.22
506.76	124.05
506.93	51.49
507.11	133.41
507.28	102.98
507.46	51.49
507.63	98.30
507.81	128.73
507.98	145.11
508.16	126.39
508.33	93.62
508.50	119.37
508.68	91.28
508.85	112.35
509.03	65.54
509.20	119.37
509.38	77.24
509.55	32.77
509.73	107.66
509.90	131.07
510.08	86.60
510.25	70.22
510.42	58.51
510.60	110.01
510.77	98.30
510.95	95.96
511.12	100.64
511.30	56.17
511.47	84.26
511.64	124.05
511.82	117.03
511.99	95.96
512.17	67.88
512.34	114.69
512.51	67.88
512.69	184.90
512.86	145.11
513.04	77.24
513.21	107.66
513.38	37.45
513.56	140.43
513.73	182.56
513.90	79.58
514.08	177.88
514.25	98.30
514.43	53.83
514.60	131.07
514.77	77.24
514.95	95.96
515.12	86.60
515.29	63.19
515.47	79.58
515.64	128.73
515.81	121.71
515.99	110.01
516.16	67.88
516.33	154.48
516.51	142.77
516.68	81.92
516.85	60.85
517.03	91.28
517.20	79.58
517.37	91.28
517.54	88.94
517.72	79.58
517.89	142.77
518.06	60.85
518.24	88.94
518.41	93.62
518.58	131.07
518.75	74.90
518.93	95.96
519.10	102.98
519.27	11.70
519.45	138.09
519.62	77.24
519.79	107.66
519.96	154.48
520.14	98.30
520.31	74.90
520.48	70.22
520.65	72.56
520.83	105.32
521.00	49.15
521.17	114.69
521.34	81.92
521.52	72.56
521.69	98.30
521.86	98.30
522.03	58.51
522.20	110.01
522.38	46.81
522.55	72.56
522.72	93.62
522.89	81.92
523.07	110.01
523.24	131.07
523.41	18.72
523.58	23.41
523.75	154.48
523.92	42.13
524.10	88.94
524.27	133.41
524.44	140.43
524.61	86.60
524.78	140.43
524.96	126.39
525.13	44.47
525.30	126.39
525.47	100.64
525.64	56.17
525.81	117.03
525.98	58.51
526.16	42.13
526.33	88.94
526.50	95.96
526.67	67.88
526.84	124.05
527.01	63.19
527.18	65.54
527.36	135.75
527.53	110.01
527.70	124.05
527.87	58.51
528.04	74.90
528.21	100.64
528.38	121.71
528.55	65.54
528.72	37.45
528.89	91.28
529.07	58.51
529.24	81.92
529.41	28.09
529.58	56.17
529.75	126.39
529.92	84.26
530.09	67.88
530.26	112.35
530.43	86.60
530.60	63.19
530.77	72.56
530.94	32.77
531.11	88.94
531.28	88.94
531.46	145.11
531.63	126.39
531.80	58.51
531.97	142.77
532.14	7.02
532.31	100.64
532.48	0.00
532.65	105.32
532.82	58.51
532.99	91.28
533.16	168.52
533.33	102.98
533.50	121.71
533.67	77.24
533.84	65.54
534.01	107.66
534.18	37.45
534.35	63.19
534.52	23.41
534.69	77.24
534.86	25.75
535.03	95.96
535.20	65.54
535.37	72.56
535.54	49.15
535.71	105.32
535.88	135.75
536.05	16.38
536.22	93.62
536.38	93.62
536.55	63.19
536.72	74.90
536.89	84.26
537.06	2.34
537.23	63.19
537.40	70.22
537.57	119.37
537.74	81.92
537.91	70.22
538.08	63.19
538.25	72.56
538.42	39.79
538.59	35.11
538.75	11.70
538.92	2.34
539.09	81.92
539.26	81.92
539.43	102.98
539.60	21.06
539.77	72.56
539.94	60.85
540.11	28.09
540.28	58.51
540.44	112.35
540.61	93.62
540.78	126.39
540.95	100.64
541.12	86.60
541.29	60.85
541.46	95.96
541.62	32.77
541.79	44.47
541.96	70.22
542.13	30.43
542.30	110.01
542.47	56.17
542.63	60.85
542.80	112.35
542.97	107.66
543.14	72.56
543.31	128.73
543.48	86.60
543.64	51.49
543.81	98.30
543.98	147.45
544.15	88.94
544.32	105.32
544.48	77.24
544.65	65.54
544.82	84.26
544.99	88.94
545.16	72.56
545.32	163.84
545.49	184.90
545.66	53.83
545.83	88.94
546.00	110.01
546.16	81.92
546.33	110.01
546.50	105.32
546.67	81.92
546.83	72.56
547.00	70.22
547.17	93.62
547.34	2.34
547.50	67.88
547.67	112.35
547.84	58.51
548.00	74.90
548.17	63.19
548.34	42.13
548.51	105.32
548.67	95.96
548.84	65.54
549.01	77.24
549.18	88.94
549.34	110.01
549.51	191.92
549.68	84.26
549.84	63.19
550.01	133.41
550.18	79.58
550.34	58.51
550.51	65.54
550.68	86.60
550.84	91.28
551.01	117.03
551.18	112.35
551.34	102.98
551.51	65.54
551.68	117.03
551.84	67.88
552.01	84.26
552.18	107.66
552.34	114.69
552.51	91.28
552.68	98.30
552.84	77.24
553.01	74.90
553.18	112.35
553.34	93.62
553.51	25.75
553.67	102.98
553.84	46.81
554.01	23.41
554.17	88.94
554.34	7.02
554.51	93.62
554.67	65.54
554.84	98.30
555.00	72.56
555.17	84.26
555.33	84.26
555.50	32.77
555.67	58.51
555.83	65.54
556.00	58.51
556.16	77.24
556.33	53.83
556.50	53.83
556.66	63.19
556.83	56.17
556.99	81.92
557.16	21.06
557.32	58.51
557.49	93.62
557.65	142.77
557.82	117.03
557.98	93.62
558.15	67.88
558.32	117.03
558.48	100.64
558.65	84.26
558.81	124.05
558.98	79.58
559.14	128.73
559.31	86.60
559.47	63.19
559.64	7.02
559.80	67.88
559.97	65.54
560.13	58.51
560.30	77.24
560.46	53.83
560.63	81.92
560.79	60.85
560.96	98.30
561.12	18.72
561.29	128.73
561.45	79.58
561.61	84.26
561.78	152.13
561.94	51.49
562.11	56.17
562.27	65.54
562.44	126.39
562.60	56.17
562.77	32.77
562.93	98.30
563.10	51.49
563.26	149.79
563.42	112.35
563.59	74.90
563.75	46.81
563.92	126.39
564.08	142.77
564.24	110.01
564.41	84.26
564.57	16.38
564.74	112.35
564.90	100.64
565.07	110.01
565.23	70.22
565.39	100.64
565.56	53.83
565.72	159.16
565.88	56.17
566.05	67.88
566.21	32.77
566.38	56.17
566.54	46.81
566.70	110.01
566.87	112.35
567.03	105.32
567.19	86.60
567.36	84.26
567.52	145.11
567.68	95.96
567.85	51.49
568.01	98.30
568.17	44.47
568.34	70.22
568.50	44.47
568.66	0.00
568.83	46.81
568.99	49.15
569.15	86.60
569.32	63.19
569.48	93.62
569.64	70.22
569.81	121.71
569.97	107.66
570.13	98.30
570.30	9.36
570.46	112.35
570.62	4.68
570.78	49.15
570.95	117.03
571.11	70.22
571.27	102.98
571.43	163.84
571.60	81.92
571.76	35.11
571.92	28.09
572.09	124.05
572.25	51.49
572.41	51.49
572.57	131.07
572.74	67.88
572.90	32.77
573.06	124.05
573.22	112.35
573.38	46.81
573.55	100.64
573.71	133.41
573.87	93.62
574.03	56.17
574.20	39.79
574.36	56.17
574.52	14.04
574.68	53.83
574.84	25.75
575.01	60.85
575.17	67.88
575.33	117.03
575.49	39.79
575.65	91.28
575.82	201.29
575.98	56.17
576.14	154.48
576.30	39.79
576.46	81.92
576.62	46.81
576.79	84.26
576.95	105.32
577.11	67.88
577.27	67.88
577.43	170.86
577.59	35.11
577.75	0.00
577.92	86.60
578.08	74.90
578.24	46.81
578.40	30.43
578.56	65.54
578.72	98.30
578.88	95.96
579.04	25.75
579.21	49.15
579.37	32.77
579.53	44.47
579.69	46.81
579.85	100.64
580.01	117.03
580.17	51.49
580.33	133.41
580.49	60.85
580.65	72.56
580.82	91.28
580.98	42.13
581.14	95.96
581.30	63.19
581.46	98.30
581.62	112.35
581.78	53.83
581.94	110.01
582.10	58.51
582.26	70.22
582.42	65.54
582.58	51.49
582.74	56.17
582.90	23.41
583.06	53.83
583.22	30.43
583.38	21.06
583.54	72.56
583.70	77.24
583.86	133.41
584.02	107.66
584.18	100.64
584.34	79.58
584.50	0.00
584.66	81.92
584.82	86.60
584.98	56.17
585.14	114.69
585.30	35.11
585.46	98.30
585.62	91.28
585.78	86.60
585.94	37.45
586.10	53.83
586.26	53.83
586.42	93.62
586.58	142.77
586.74	32.77
586.90	25.75
587.06	35.11
587.22	117.03
587.38	93.62
587.54	91.28
587.70	60.85
587.86	114.69
588.02	98.30
588.18	70.22
588.34	63.19
588.49	114.69
588.65	98.30
588.81	95.96
588.97	100.64
589.13	93.62
589.29	95.96
589.45	95.96
589.61	65.54
589.77	65.54
589.93	21.06
590.08	14.04
590.24	9.36
590.40	51.49
590.56	95.96
590.72	86.60
590.88	77.24
591.04	9.36
591.20	16.38
591.35	60.85
591.51	14.04
591.67	21.06
591.83	135.75
591.99	65.54
592.15	11.70
592.31	163.84
592.46	23.41
592.62	67.88
592.78	100.64
592.94	53.83
593.10	65.54
593.26	112.35
593.41	74.90
593.57	44.47
593.73	65.54
593.89	100.64
594.05	142.77
594.20	91.28
594.36	112.35
594.52	98.30
594.68	21.06
594.84	107.66
594.99	114.69
595.15	25.75
595.31	0.00
595.47	0.00
595.62	81.92
595.78	51.49
595.94	70.22
596.10	110.01
596.25	105.32
596.41	60.85
596.57	88.94
596.73	21.06
596.88	53.83
597.04	67.88
597.20	49.15
597.36	67.88
597.51	74.90
597.67	30.43
597.83	86.60
597.99	84.26
598.14	117.03
598.30	51.49
598.46	39.79
598.61	0.00
598.77	51.49
598.93	77.24
599.09	88.94
599.24	121.71
599.40	105.32
599.56	117.03
599.71	91.28
599.87	105.32
600.03	91.28
600.18	140.43
600.34	18.72
600.50	128.73
600.65	23.41
600.81	0.00
600.97	100.64
601.12	46.81
601.28	14.04
601.44	30.43
601.59	0.00
601.75	63.19
601.91	67.88
602.06	11.70
602.22	88.94
602.37	81.92
602.53	23.41
602.69	98.30
602.84	102.98
603.00	88.94
603.16	63.19
603.31	67.88
603.47	9.36
603.62	25.75
603.78	49.15
603.94	23.41
604.09	0.00
604.25	84.26
604.40	35.11
604.56	112.35
604.71	74.90
604.87	60.85
605.03	110.01
605.18	49.15
605.34	107.66
605.49	37.45
605.65	189.58
605.80	74.90
605.96	70.22
606.12	23.41
606.27	70.22
606.43	93.62
606.58	23.41
606.74	88.94
606.89	77.24
607.05	21.06
607.20	142.77
607.36	102.98
607.51	42.13
607.67	79.58
607.82	37.45
607.98	60.85
608.13	72.56
608.29	77.24
608.44	63.19
608.60	51.49
608.75	93.62
608.91	74.90
609.06	93.62
609.22	121.71
609.37	86.60
609.53	86.60
609.68	152.13
609.84	0.00
609.99	98.30
610.15	124.05
610.30	7.02
610.46	114.69
610.61	0.00
610.76	11.70
610.92	77.24
611.07	86.60
611.23	107.66
611.38	91.28
611.54	91.28
611.69	9.36
611.84	72.56
612.00	84.26
612.15	110.01
612.31	63.19
612.46	128.73
612.62	88.94
612.77	107.66
612.92	56.17
613.08	95.96
613.23	86.60
613.39	74.90
613.54	117.03
613.69	131.07
613.85	152.13
614.00	93.62
614.15	37.45
614.31	105.32
614.46	56.17
614.62	9.36
614.77	0.00
614.92	91.28
615.08	16.38
615.23	42.13
615.38	102.98
615.54	49.15
615.69	140.43
615.84	65.54
616.00	60.85
616.15	32.77
616.30	16.38
616.46	0.00
616.61	81.92
616.76	114.69
616.92	114.69
617.07	81.92
617.22	74.90
617.37	81.92
617.53	60.85
617.68	88.94
617.83	53.83
617.99	23.41
618.14	67.88
618.29	84.26
618.45	30.43
618.60	42.13
618.75	39.79
618.90	114.69
619.06	72.56
619.21	39.79
619.36	25.75
619.51	65.54
619.67	37.45
619.82	46.81
619.97	58.51
620.12	46.81
620.28	11.70
620.43	11.70
620.58	46.81
620.73	107.66
620.89	86.60
621.04	79.58
621.19	28.09
621.34	56.17
621.49	110.01
621.65	67.88
621.80	0.00
621.95	112.35
622.10	60.85
622.25	77.24
622.41	65.54
622.56	105.32
622.71	102.98
622.86	114.69
623.01	67.88
623.16	0.00
623.32	58.51
623.47	117.03
623.62	53.83
623.77	4.68
623.92	0.00
624.07	100.64
624.23	93.62
624.38	93.62
624.53	60.85
624.68	74.90
624.83	0.00
624.98	105.32
625.13	79.58
625.29	32.77
625.44	37.45
625.59	58.51
625.74	39.79
625.89	84.26
626.04	117.03
626.19	112.35
626.34	138.09
626.49	98.30
626.65	63.19
626.80	9.36
626.95	23.41
627.10	25.75
627.25	30.43
627.40	42.13
627.55	0.00
627.70	84.26
627.85	63.19
628.00	37.45
628.15	70.22
628.30	84.26
628.45	67.88
628.60	21.06
628.76	25.75
628.91	67.88
629.06	30.43
629.21	67.88
629.36	7.02
629.51	74.90
629.66	60.85
629.81	42.13
629.96	28.09
630.11	100.64
630.26	67.88
630.41	79.58
630.56	0.00
630.71	49.15
630.86	0.00
631.01	79.58
631.16	58.51
631.31	14.04
631.46	0.00
631.61	39.79
631.76	84.26
631.91	128.73
632.06	74.90
632.21	84.26
632.36	65.54
632.51	58.51
632.66	16.38
632.81	35.11
632.96	110.01
633.10	63.19
633.25	9.36
633.40	7.02
633.55	2.34
633.70	11.70
633.85	56.17
634.00	11.70
634.15	0.00
634.30	65.54
634.45	119.37
634.60	18.72
634.75	0.00
634.90	95.96
635.05	74.90
635.19	42.13
635.34	107.66
635.49	46.81
635.64	86.60
635.79	67.88
635.94	7.02
636.09	0.00
636.24	72.56
636.39	124.05
636.53	84.26
636.68	72.56
636.83	79.58
636.98	2.34
637.13	63.19
637.28	11.70
637.43	30.43
637.57	18.72
637.72	93.62
637.87	88.94
638.02	128.73
638.17	84.26
638.32	81.92
638.46	126.39
638.61	112.35
638.76	102.98
638.91	0.00
639.06	58.51
639.20	91.28
639.35	84.26
639.50	91.28
639.65	81.92
639.80	67.88
639.94	0.00
640.09	84.26
640.24	70.22
640.39	35.11
640.54	51.49
640.68	37.45
640.83	49.15
640.98	107.66
641.13	79.58
641.27	49.15
641.42	77.24
641.57	142.77
641.72	70.22
641.86	35.11
642.01	28.09
642.16	28.09
642.31	4.68
642.45	166.18
642.60	0.00
642.75	51.49
642.90	126.39
643.04	30.43
643.19	37.45
643.34	91.28
643.48	46.81
643.63	77.24
643.78	114.69
643.93	126.39
644.07	63.19
644.22	117.03
644.37	81.92
644.51	105.32
644.66	42.13
644.81	74.90
644.95	46.81
645.10	98.30
645.25	28.09
645.39	72.56
645.54	67.88
645.69	77.24
645.83	30.43
645.98	77.24
646.13	35.11
646.27	60.85
646.42	114.69
646.57	32.77
646.71	28.09
646.86	58.51
647.00	28.09
647.15	95.96
647.30	39.79
647.44	42.13
647.59	28.09
647.74	0.00
647.88	0.00
648.03	79.58
648.17	28.09
648.32	35.11
648.47	79.58
648.61	16.38
648.76	74.90
648.90	18.72
649.05	9.36
649.20	65.54
649.34	49.15
649.49	74.90
649.63	46.81
649.78	28.09
649.92	11.70
650.07	95.96
650.21	32.77
650.36	44.47
650.51	14.04
650.65	16.38
650.80	35.11
650.94	112.35
651.09	39.79
651.23	72.56
651.38	35.11
651.52	4.68
651.67	44.47
651.81	88.94
651.96	81.92
652.10	126.39
652.25	21.06
652.39	49.15
652.54	25.75
652.68	56.17
652.83	0.00
652.97	0.00
653.12	35.11
653.26	0.00
653.41	0.00
653.55	56.17
653.70	16.38
653.84	42.13
653.99	70.22
654.13	140.43
654.27	98.30
654.42	79.58
654.56	84.26
654.71	30.43
654.85	53.83
655.00	63.19
655.14	28.09
655.29	23.41
655.43	74.90
655.57	25.75
655.72	42.13
655.86	70.22
656.01	79.58
656.15	93.62
656.30	11.70
656.44	56.17
656.58	28.09
656.73	84.26
656.87	18.72
657.01	2.34
657.16	91.28
657.30	9.36
657.45	67.88
657.59	79.58
657.73	77.24
657.88	32.77
658.02	0.00
658.16	88.94
658.31	98.30
658.45	18.72
658.60	53.83
658.74	77.24
658.88	0.00
659.03	30.43
659.17	16.38
659.31	28.09
659.46	67.88
659.60	70.22
659.74	60.85
659.89	51.49
660.03	9.36
660.17	60.85
660.32	14.04
660.46	74.90
660.60	11.70
660.74	58.51
660.89	0.00
661.03	0.00
661.17	18.72
661.32	39.79
661.46	35.11
661.60	0.00
661.74	37.45
661.89	0.00
662.03	39.79
662.17	74.90
662.31	21.06
662.46	91.28
662.60	56.17
662.74	23.41
662.88	65.54
663.03	14.04
663.17	9.36
663.31	14.04
663.45	0.00
663.60	49.15
663.74	9.36
663.88	70.22
664.02	65.54
664.17	25.75
664.31	102.98
664.45	0.00
664.59	25.75
664.73	72.56
664.88	18.72
665.02	67.88
665.16	39.79
665.30	42.13
665.44	53.83
665.59	91.28
665.73	58.51
665.87	114.69
666.01	133.41
666.15	32.77
666.29	0.00
666.44	67.88
666.58	42.13
666.72	70.22
666.86	0.00
667.00	37.45
667.14	9.36
667.28	93.62
667.43	46.81
667.57	88.94
667.71	124.05
667.85	32.77
667.99	100.64
668.13	110.01
668.27	65.54
668.41	117.03
668.56	44.47
668.70	0.00
668.84	74.90
668.98	51.49
669.12	72.56
669.26	77.24
669.40	98.30
669.54	49.15
669.68	70.22
669.82	44.47
669.96	86.60
670.10	88.94
670.25	65.54
670.39	46.81
670.53	9.36
670.67	60.85
670.81	63.19
670.95	42.13
671.09	88.94
671.23	74.90
671.37	44.47
671.51	30.43
671.65	28.09
671.79	110.01
671.93	98.30
672.07	49.15
672.21	32.77
672.35	79.58
672.49	49.15
672.63	18.72
672.77	114.69
672.91	35.11
673.05	131.07
673.19	18.72
673.33	28.09
673.47	95.96
673.61	32.77
673.75	25.75
673.89	81.92
674.03	35.11
674.17	124.05
674.31	14.04
674.45	51.49
674.59	21.06
674.73	32.77
674.87	0.00
675.01	65.54
675.15	91.28
675.29	16.38
675.43	0.00
675.56	98.30
675.70	81.92
675.84	0.00
675.98	44.47
676.12	131.07
676.26	32.77
676.40	46.81
676.54	72.56
676.68	86.60
676.82	32.77
676.96	53.83
677.10	21.06
677.23	9.36
677.37	0.00
677.51	21.06
677.65	79.58
677.79	0.00
677.93	72.56
678.07	0.00
678.21	0.00
678.34	23.41
678.48	63.19
678.62	14.04
678.76	23.41
678.90	112.35
679.04	72.56
679.18	72.56
679.31	107.66
679.45	39.79
679.59	81.92
679.73	39.79
679.87	84.26
680.00	39.79
680.14	63.19
680.28	56.17
680.42	77.24
680.56	4.68
680.70	65.54
680.83	23.41
680.97	32.77
681.11	105.32
681.25	60.85
681.39	74.90
681.52	0.00
681.66	32.77
681.80	25.75
681.94	67.88
682.07	74.90
682.21	0.00
682.35	0.00
682.49	7.02
682.62	88.94
682.76	25.75
682.90	16.38
683.04	100.64
683.17	4.68
683.31	58.51
683.45	46.81
683.59	37.45
683.72	39.79
683.86	9.36
684.00	39.79
684.13	79.58
684.27	126.39
684.41	39.79
684.55	53.83
684.68	0.00
684.82	39.79
684.96	0.00
685.09	86.60
685.23	0.00
685.37	65.54
685.50	21.06
685.64	0.00
685.78	0.00
685.91	51.49
686.05	60.85
686.19	42.13
686.32	56.17
686.46	63.19
686.60	79.58
686.73	49.15
686.87	23.41
687.01	37.45
687.14	39.79
687.28	65.54
687.42	70.22
687.55	4.68
687.69	51.49
687.82	21.06
687.96	16.38
688.10	0.00
688.23	0.00
688.37	21.06
688.50	39.79
688.64	58.51
688.78	0.00
688.91	23.41
689.05	46.81
689.18	0.00
689.32	0.00
689.46	9.36
689.59	110.01
689.73	107.66
689.86	0.00
690.00	51.49
690.13	79.58
690.27	28.09
690.41	30.43
690.54	0.00
690.68	42.13
690.81	0.00
690.95	58.51
691.08	77.24
691.22	46.81
691.35	79.58
691.49	74.90
691.62	79.58
691.76	14.04
691.89	0.00
692.03	98.30
692.16	23.41
692.30	0.00
692.43	46.81
692.57	7.02
692.70	72.56
692.84	18.72
692.97	84.26
693.11	0.00
693.24	77.24
693.38	11.70
693.51	56.17
693.65	70.22
693.78	0.00
693.92	44.47
694.05	25.75
694.19	39.79
694.32	44.47
694.45	53.83
694.59	35.11
694.72	7.02
694.86	32.77
694.99	42.13
695.13	18.72
695.26	72.56
695.39	30.43
695.53	86.60
695.66	18.72
695.80	53.83
695.93	105.32
696.07	0.00
696.20	0.00
696.33	11.70
696.47	0.00
696.60	42.13
696.73	2.34
696.87	37.45
697.00	25.75
697.14	81.92
697.27	53.83
697.40	7.02
697.54	18.72
697.67	32.77
697.80	14.04
697.94	42.13
698.07	107.66
698.21	72.56
698.34	0.00
698.47	0.00
698.61	63.19
698.74	70.22
698.87	0.00
699.01	124.05
699.14	4.68
699.27	0.00
699.40	74.90
699.54	39.79
699.67	28.09
699.80	2.34
699.94	0.00
700.07	100.64
700.20	14.04
700.34	0.00
700.47	0.00
700.60	2.34
700.73	44.47
700.87	0.00
701.00	53.83
701.13	51.49
701.26	9.36
701.40	72.56
701.53	88.94
701.66	0.00
701.79	51.49
701.93	42.13
702.06	74.90
702.19	0.00
702.32	0.00
702.46	91.28
702.59	79.58
702.72	49.15
702.85	0.00
702.99	16.38
703.12	23.41
703.25	28.09
703.38	16.38
703.51	14.04
703.65	60.85
703.78	42.13
703.91	0.00
704.04	81.92
704.17	0.00
704.31	18.72
704.44	0.00
704.57	25.75
704.70	11.70
704.83	11.70
704.96	4.68
705.10	35.11
705.23	0.00
>>>>>End Processed Spectral Data<<<<<
