SpectraSuite Data File
++++++++++++++++++++++++++++++++++++
Date: Fri Oct 04 12:13:43 GMT-05:00 2013
User: price-jones
Dark Spectrum Present: No
Reference Spectrum Present: No
Number of Sampled Component Spectra: 1
Spectrometers: USB2+H05261
Integration Time (usec): 10000 (USB2+H05261)
Spectra Averaged: 1 (USB2+H05261)
Boxcar Smoothing: 0 (USB2+H05261)
Correct for Electrical Dark: No (USB2+H05261)
Strobe/Lamp Enabled: No (USB2+H05261)
Correct for Detector Non-linearity: No (USB2+H05261)
Correct for Stray Light: No (USB2+H05261)
Number of Pixels in Processed Spectrum: 2048
>>>>>Begin Processed Spectral Data<<<<<
365.73	0.00
365.92	0.00
366.12	0.00
366.32	0.00
366.52	0.00
366.72	0.00
366.91	0.00
367.11	0.00
367.31	0.00
367.51	0.00
367.70	0.00
367.90	0.00
368.10	0.00
368.30	0.00
368.49	0.00
368.69	0.00
368.89	0.00
369.09	0.00
369.28	0.00
369.48	0.00
369.68	0.00
369.87	0.00
370.07	0.00
370.27	0.00
370.47	0.00
370.66	0.00
370.86	0.00
371.06	0.00
371.25	0.00
371.45	0.00
371.65	0.00
371.84	7.02
372.04	4.68
372.24	0.00
372.44	30.43
372.63	0.00
372.83	56.17
373.03	32.77
373.22	0.00
373.42	0.00
373.62	0.00
373.81	0.00
374.01	25.75
374.21	65.54
374.40	32.77
374.60	0.00
374.79	9.36
374.99	58.51
375.19	128.73
375.38	49.15
375.58	0.00
375.78	25.75
375.97	0.00
376.17	98.30
376.37	77.24
376.56	58.51
376.76	4.68
376.95	58.51
377.15	63.19
377.35	0.00
377.54	51.49
377.74	46.81
377.93	0.00
378.13	0.00
378.33	70.22
378.52	44.47
378.72	74.90
378.91	2.34
379.11	14.04
379.31	0.00
379.50	14.04
379.70	0.00
379.89	14.04
380.09	0.00
380.28	0.00
380.48	32.77
380.68	0.00
380.87	4.68
381.07	0.00
381.26	21.06
381.46	16.38
381.65	0.00
381.85	28.09
382.04	16.38
382.24	56.17
382.43	37.45
382.63	46.81
382.83	51.49
383.02	56.17
383.22	37.45
383.41	46.81
383.61	0.00
383.80	0.00
384.00	11.70
384.19	11.70
384.39	0.00
384.58	16.38
384.78	18.72
384.97	39.79
385.17	79.58
385.36	16.38
385.56	46.81
385.75	30.43
385.95	18.72
386.14	11.70
386.34	0.00
386.53	0.00
386.72	51.49
386.92	49.15
387.11	30.43
387.31	46.81
387.50	32.77
387.70	0.00
387.89	32.77
388.09	81.92
388.28	74.90
388.48	14.04
388.67	11.70
388.86	0.00
389.06	28.09
389.25	42.13
389.45	84.26
389.64	44.47
389.84	98.30
390.03	0.00
390.22	98.30
390.42	37.45
390.61	56.17
390.81	0.00
391.00	11.70
391.19	74.90
391.39	23.41
391.58	0.00
391.78	16.38
391.97	44.47
392.16	37.45
392.36	0.00
392.55	49.15
392.75	0.00
392.94	0.00
393.13	70.22
393.33	0.00
393.52	42.13
393.71	0.00
393.91	23.41
394.10	67.88
394.29	0.00
394.49	91.28
394.68	56.17
394.88	28.09
395.07	42.13
395.26	14.04
395.46	25.75
395.65	0.00
395.84	0.00
396.04	23.41
396.23	65.54
396.42	0.00
396.62	44.47
396.81	39.79
397.00	0.00
397.19	56.17
397.39	7.02
397.58	4.68
397.77	28.09
397.97	2.34
398.16	0.00
398.35	11.70
398.55	14.04
398.74	37.45
398.93	56.17
399.12	23.41
399.32	46.81
399.51	65.54
399.70	0.00
399.90	95.96
400.09	35.11
400.28	4.68
400.47	23.41
400.67	0.00
400.86	23.41
401.05	0.00
401.24	23.41
401.44	25.75
401.63	0.00
401.82	9.36
402.01	23.41
402.21	0.00
402.40	58.51
402.59	23.41
402.78	21.06
402.97	9.36
403.17	4.68
403.36	0.00
403.55	53.83
403.74	91.28
403.93	42.13
404.13	42.13
404.32	102.98
404.51	0.00
404.70	0.00
404.89	0.00
405.09	16.38
405.28	9.36
405.47	14.04
405.66	67.88
405.85	42.13
406.05	0.00
406.24	86.60
406.43	65.54
406.62	9.36
406.81	58.51
407.00	67.88
407.20	0.00
407.39	0.00
407.58	58.51
407.77	0.00
407.96	88.94
408.15	86.60
408.34	42.13
408.54	81.92
408.73	58.51
408.92	39.79
409.11	0.00
409.30	35.11
409.49	0.00
409.68	11.70
409.87	44.47
410.07	0.00
410.26	74.90
410.45	91.28
410.64	2.34
410.83	0.00
411.02	86.60
411.21	0.00
411.40	9.36
411.59	0.00
411.78	65.54
411.98	42.13
412.17	0.00
412.36	7.02
412.55	0.00
412.74	56.17
412.93	0.00
413.12	30.43
413.31	58.51
413.50	11.70
413.69	25.75
413.88	0.00
414.07	28.09
414.26	30.43
414.45	0.00
414.64	56.17
414.83	23.41
415.02	2.34
415.22	44.47
415.41	37.45
415.60	56.17
415.79	58.51
415.98	0.00
416.17	35.11
416.36	105.32
416.55	9.36
416.74	11.70
416.93	79.58
417.12	51.49
417.31	107.66
417.50	0.00
417.69	0.00
417.88	67.88
418.07	42.13
418.26	18.72
418.45	39.79
418.64	42.13
418.83	121.71
419.02	0.00
419.21	4.68
419.39	44.47
419.58	60.85
419.77	42.13
419.96	60.85
420.15	60.85
420.34	105.32
420.53	14.04
420.72	67.88
420.91	21.06
421.10	23.41
421.29	110.01
421.48	0.00
421.67	14.04
421.86	21.06
422.05	74.90
422.24	107.66
422.43	0.00
422.61	0.00
422.80	77.24
422.99	67.88
423.18	18.72
423.37	49.15
423.56	58.51
423.75	16.38
423.94	14.04
424.13	32.77
424.32	44.47
424.50	0.00
424.69	133.41
424.88	117.03
425.07	77.24
425.26	42.13
425.45	37.45
425.64	11.70
425.83	84.26
426.01	72.56
426.20	79.58
426.39	49.15
426.58	25.75
426.77	72.56
426.96	39.79
427.15	72.56
427.33	0.00
427.52	152.13
427.71	30.43
427.90	37.45
428.09	0.00
428.28	21.06
428.46	42.13
428.65	51.49
428.84	14.04
429.03	18.72
429.22	74.90
429.40	95.96
429.59	16.38
429.78	93.62
429.97	117.03
430.16	67.88
430.34	37.45
430.53	0.00
430.72	21.06
430.91	30.43
431.10	93.62
431.28	37.45
431.47	63.19
431.66	30.43
431.85	60.85
432.03	14.04
432.22	25.75
432.41	70.22
432.60	77.24
432.79	37.45
432.97	98.30
433.16	0.00
433.35	98.30
433.54	56.17
433.72	0.00
433.91	51.49
434.10	65.54
434.28	88.94
434.47	58.51
434.66	70.22
434.85	70.22
435.03	107.66
435.22	74.90
435.41	44.47
435.59	21.06
435.78	0.00
435.97	77.24
436.16	35.11
436.34	65.54
436.53	46.81
436.72	44.47
436.90	23.41
437.09	0.00
437.28	42.13
437.46	16.38
437.65	77.24
437.84	93.62
438.02	58.51
438.21	0.00
438.40	51.49
438.58	98.30
438.77	49.15
438.96	72.56
439.14	35.11
439.33	42.13
439.52	70.22
439.70	79.58
439.89	0.00
440.08	0.00
440.26	9.36
440.45	72.56
440.63	81.92
440.82	32.77
441.01	53.83
441.19	84.26
441.38	74.90
441.57	39.79
441.75	39.79
441.94	4.68
442.12	58.51
442.31	79.58
442.50	42.13
442.68	53.83
442.87	77.24
443.05	32.77
443.24	37.45
443.43	7.02
443.61	72.56
443.80	74.90
443.98	79.58
444.17	49.15
444.35	0.00
444.54	60.85
444.73	74.90
444.91	63.19
445.10	39.79
445.28	70.22
445.47	58.51
445.65	91.28
445.84	35.11
446.02	0.00
446.21	81.92
446.39	46.81
446.58	16.38
446.77	70.22
446.95	65.54
447.14	56.17
447.32	44.47
447.51	56.17
447.69	28.09
447.88	121.71
448.06	46.81
448.25	0.00
448.43	51.49
448.62	79.58
448.80	18.72
448.99	39.79
449.17	21.06
449.36	117.03
449.54	9.36
449.73	60.85
449.91	4.68
450.10	11.70
450.28	63.19
450.46	51.49
450.65	39.79
450.83	95.96
451.02	28.09
451.20	23.41
451.39	142.77
451.57	0.00
451.76	81.92
451.94	0.00
452.13	88.94
452.31	0.00
452.49	131.07
452.68	107.66
452.86	56.17
453.05	72.56
453.23	91.28
453.42	28.09
453.60	51.49
453.78	42.13
453.97	84.26
454.15	77.24
454.34	14.04
454.52	49.15
454.70	35.11
454.89	84.26
455.07	70.22
455.26	93.62
455.44	32.77
455.62	0.00
455.81	74.90
455.99	63.19
456.17	63.19
456.36	53.83
456.54	65.54
456.73	35.11
456.91	25.75
457.09	37.45
457.28	14.04
457.46	16.38
457.64	74.90
457.83	42.13
458.01	84.26
458.19	0.00
458.38	11.70
458.56	53.83
458.74	58.51
458.93	25.75
459.11	65.54
459.29	95.96
459.48	42.13
459.66	23.41
459.84	37.45
460.03	65.54
460.21	84.26
460.39	77.24
460.57	128.73
460.76	102.98
460.94	53.83
461.12	67.88
461.31	2.34
461.49	23.41
461.67	16.38
461.85	46.81
462.04	53.83
462.22	35.11
462.40	0.00
462.59	16.38
462.77	70.22
462.95	0.00
463.13	35.11
463.32	42.13
463.50	79.58
463.68	4.68
463.86	2.34
464.05	53.83
464.23	65.54
464.41	42.13
464.59	39.79
464.78	79.58
464.96	37.45
465.14	0.00
465.32	0.00
465.50	81.92
465.69	25.75
465.87	44.47
466.05	56.17
466.23	32.77
466.41	7.02
466.60	37.45
466.78	84.26
466.96	51.49
467.14	51.49
467.32	53.83
467.51	35.11
467.69	30.43
467.87	46.81
468.05	102.98
468.23	28.09
468.41	79.58
468.60	44.47
468.78	72.56
468.96	58.51
469.14	23.41
469.32	39.79
469.50	42.13
469.69	46.81
469.87	35.11
470.05	28.09
470.23	53.83
470.41	30.43
470.59	126.39
470.77	142.77
470.95	112.35
471.14	60.85
471.32	44.47
471.50	81.92
471.68	67.88
471.86	121.71
472.04	2.34
472.22	91.28
472.40	39.79
472.58	51.49
472.77	67.88
472.95	32.77
473.13	0.00
473.31	105.32
473.49	60.85
473.67	65.54
473.85	44.47
474.03	4.68
474.21	37.45
474.39	88.94
474.57	70.22
474.75	16.38
474.93	51.49
475.12	81.92
475.30	107.66
475.48	2.34
475.66	0.00
475.84	86.60
476.02	25.75
476.20	35.11
476.38	35.11
476.56	102.98
476.74	63.19
476.92	30.43
477.10	30.43
477.28	53.83
477.46	0.00
477.64	18.72
477.82	25.75
478.00	65.54
478.18	42.13
478.36	86.60
478.54	100.64
478.72	60.85
478.90	39.79
479.08	95.96
479.26	152.13
479.44	95.96
479.62	93.62
479.80	88.94
479.98	135.75
480.16	112.35
480.34	32.77
480.52	86.60
480.70	74.90
480.88	86.60
481.06	72.56
481.24	84.26
481.41	35.11
481.59	102.98
481.77	58.51
481.95	25.75
482.13	30.43
482.31	70.22
482.49	0.00
482.67	23.41
482.85	105.32
483.03	60.85
483.21	44.47
483.39	100.64
483.57	28.09
483.74	74.90
483.92	77.24
484.10	79.58
484.28	70.22
484.46	42.13
484.64	18.72
484.82	25.75
485.00	9.36
485.18	9.36
485.35	21.06
485.53	25.75
485.71	81.92
485.89	60.85
486.07	102.98
486.25	70.22
486.43	35.11
486.61	126.39
486.78	44.47
486.96	21.06
487.14	16.38
487.32	56.17
487.50	46.81
487.68	110.01
487.85	58.51
488.03	37.45
488.21	72.56
488.39	32.77
488.57	74.90
488.75	93.62
488.92	156.82
489.10	21.06
489.28	79.58
489.46	67.88
489.64	95.96
489.81	88.94
489.99	72.56
490.17	44.47
490.35	88.94
490.53	51.49
490.70	77.24
490.88	23.41
491.06	98.30
491.24	56.17
491.41	18.72
491.59	72.56
491.77	46.81
491.95	63.19
492.13	110.01
492.30	84.26
492.48	60.85
492.66	119.37
492.84	60.85
493.01	21.06
493.19	0.00
493.37	128.73
493.54	58.51
493.72	67.88
493.90	156.82
494.08	53.83
494.25	72.56
494.43	110.01
494.61	14.04
494.79	138.09
494.96	56.17
495.14	30.43
495.32	30.43
495.49	30.43
495.67	79.58
495.85	65.54
496.02	91.28
496.20	39.79
496.38	117.03
496.55	9.36
496.73	124.05
496.91	126.39
497.09	93.62
497.26	102.98
497.44	63.19
497.62	121.71
497.79	117.03
497.97	131.07
498.14	133.41
498.32	114.69
498.50	133.41
498.67	46.81
498.85	112.35
499.03	63.19
499.20	70.22
499.38	147.45
499.56	124.05
499.73	105.32
499.91	32.77
500.08	107.66
500.26	119.37
500.44	42.13
500.61	98.30
500.79	51.49
500.97	112.35
501.14	14.04
501.32	72.56
501.49	65.54
501.67	49.15
501.84	51.49
502.02	95.96
502.20	58.51
502.37	72.56
502.55	39.79
502.72	63.19
502.90	0.00
503.07	79.58
503.25	46.81
503.43	79.58
503.60	53.83
503.78	74.90
503.95	86.60
504.13	152.13
504.30	88.94
504.48	117.03
504.65	35.11
504.83	126.39
505.01	72.56
505.18	95.96
505.36	86.60
505.53	121.71
505.71	79.58
505.88	0.00
506.06	81.92
506.23	95.96
506.41	42.13
506.58	112.35
506.76	105.32
506.93	84.26
507.11	117.03
507.28	100.64
507.46	70.22
507.63	56.17
507.81	149.79
507.98	168.52
508.16	102.98
508.33	95.96
508.50	79.58
508.68	124.05
508.85	91.28
509.03	65.54
509.20	67.88
509.38	105.32
509.55	63.19
509.73	79.58
509.90	42.13
510.08	51.49
510.25	98.30
510.42	63.19
510.60	86.60
510.77	84.26
510.95	37.45
511.12	72.56
511.30	98.30
511.47	42.13
511.64	65.54
511.82	63.19
511.99	63.19
512.17	77.24
512.34	65.54
512.51	98.30
512.69	102.98
512.86	100.64
513.04	60.85
513.21	98.30
513.38	51.49
513.56	140.43
513.73	91.28
513.90	53.83
514.08	105.32
514.25	100.64
514.43	51.49
514.60	63.19
514.77	65.54
514.95	32.77
515.12	100.64
515.29	56.17
515.47	93.62
515.64	95.96
515.81	37.45
515.99	86.60
516.16	84.26
516.33	86.60
516.51	117.03
516.68	60.85
516.85	25.75
517.03	9.36
517.20	35.11
517.37	95.96
517.54	100.64
517.72	58.51
517.89	112.35
518.06	65.54
518.24	100.64
518.41	72.56
518.58	21.06
518.75	53.83
518.93	105.32
519.10	67.88
519.27	91.28
519.45	35.11
519.62	77.24
519.79	53.83
519.96	117.03
520.14	133.41
520.31	72.56
520.48	63.19
520.65	67.88
520.83	110.01
521.00	91.28
521.17	53.83
521.34	65.54
521.52	112.35
521.69	86.60
521.86	112.35
522.03	91.28
522.20	110.01
522.38	70.22
522.55	84.26
522.72	105.32
522.89	110.01
523.07	110.01
523.24	58.51
523.41	67.88
523.58	95.96
523.75	100.64
523.92	126.39
524.10	4.68
524.27	67.88
524.44	170.86
524.61	140.43
524.78	0.00
524.96	117.03
525.13	100.64
525.30	102.98
525.47	67.88
525.64	74.90
525.81	28.09
525.98	42.13
526.16	77.24
526.33	44.47
526.50	88.94
526.67	126.39
526.84	79.58
527.01	0.00
527.18	53.83
527.36	60.85
527.53	93.62
527.70	79.58
527.87	79.58
528.04	63.19
528.21	91.28
528.38	107.66
528.55	25.75
528.72	63.19
528.89	112.35
529.07	105.32
529.24	0.00
529.41	91.28
529.58	60.85
529.75	58.51
529.92	77.24
530.09	110.01
530.26	16.38
530.43	119.37
530.60	39.79
530.77	124.05
530.94	65.54
531.11	81.92
531.28	100.64
531.46	93.62
531.63	86.60
531.80	0.00
531.97	74.90
532.14	105.32
532.31	107.66
532.48	133.41
532.65	51.49
532.82	44.47
532.99	44.47
533.16	72.56
533.33	86.60
533.50	86.60
533.67	117.03
533.84	110.01
534.01	60.85
534.18	100.64
534.35	81.92
534.52	107.66
534.69	86.60
534.86	86.60
535.03	145.11
535.20	102.98
535.37	105.32
535.54	142.77
535.71	81.92
535.88	149.79
536.05	154.48
536.22	67.88
536.38	110.01
536.55	60.85
536.72	58.51
536.89	133.41
537.06	46.81
537.23	65.54
537.40	81.92
537.57	84.26
537.74	119.37
537.91	88.94
538.08	65.54
538.25	25.75
538.42	145.11
538.59	100.64
538.75	51.49
538.92	105.32
539.09	46.81
539.26	4.68
539.43	39.79
539.60	81.92
539.77	81.92
539.94	63.19
540.11	126.39
540.28	95.96
540.44	7.02
540.61	102.98
540.78	147.45
540.95	49.15
541.12	63.19
541.29	110.01
541.46	49.15
541.62	74.90
541.79	37.45
541.96	95.96
542.13	18.72
542.30	21.06
542.47	72.56
542.63	30.43
542.80	131.07
542.97	58.51
543.14	25.75
543.31	32.77
543.48	95.96
543.64	72.56
543.81	30.43
543.98	67.88
544.15	107.66
544.32	114.69
544.48	110.01
544.65	156.82
544.82	28.09
544.99	98.30
545.16	63.19
545.32	39.79
545.49	126.39
545.66	110.01
545.83	88.94
546.00	56.17
546.16	70.22
546.33	88.94
546.50	42.13
546.67	84.26
546.83	60.85
547.00	81.92
547.17	72.56
547.34	65.54
547.50	98.30
547.67	102.98
547.84	142.77
548.00	65.54
548.17	177.88
548.34	39.79
548.51	100.64
548.67	88.94
548.84	86.60
549.01	119.37
549.18	93.62
549.34	91.28
549.51	110.01
549.68	112.35
549.84	70.22
550.01	58.51
550.18	107.66
550.34	44.47
550.51	72.56
550.68	133.41
550.84	46.81
551.01	93.62
551.18	84.26
551.34	100.64
551.51	79.58
551.68	32.77
551.84	107.66
552.01	28.09
552.18	107.66
552.34	49.15
552.51	86.60
552.68	131.07
552.84	79.58
553.01	126.39
553.18	63.19
553.34	131.07
553.51	25.75
553.67	93.62
553.84	79.58
554.01	128.73
554.17	51.49
554.34	74.90
554.51	100.64
554.67	42.13
554.84	100.64
555.00	74.90
555.17	112.35
555.33	110.01
555.50	187.24
555.67	60.85
555.83	98.30
556.00	16.38
556.16	110.01
556.33	149.79
556.50	79.58
556.66	53.83
556.83	161.50
556.99	84.26
557.16	74.90
557.32	60.85
557.49	67.88
557.65	110.01
557.82	42.13
557.98	117.03
558.15	124.05
558.32	107.66
558.48	49.15
558.65	51.49
558.81	44.47
558.98	63.19
559.14	114.69
559.31	37.45
559.47	51.49
559.64	72.56
559.80	49.15
559.97	102.98
560.13	110.01
560.30	53.83
560.46	121.71
560.63	56.17
560.79	91.28
560.96	46.81
561.12	16.38
561.29	74.90
561.45	77.24
561.61	105.32
561.78	152.13
561.94	25.75
562.11	95.96
562.27	159.16
562.44	63.19
562.60	81.92
562.77	58.51
562.93	95.96
563.10	46.81
563.26	110.01
563.42	77.24
563.59	86.60
563.75	84.26
563.92	16.38
564.08	72.56
564.24	58.51
564.41	67.88
564.57	100.64
564.74	86.60
564.90	161.50
565.07	107.66
565.23	65.54
565.39	74.90
565.56	42.13
565.72	81.92
565.88	60.85
566.05	72.56
566.21	70.22
566.38	32.77
566.54	16.38
566.70	133.41
566.87	30.43
567.03	67.88
567.19	70.22
567.36	117.03
567.52	79.58
567.68	86.60
567.85	140.43
568.01	84.26
568.17	30.43
568.34	0.00
568.50	67.88
568.66	133.41
568.83	72.56
568.99	149.79
569.15	102.98
569.32	28.09
569.48	107.66
569.64	124.05
569.81	100.64
569.97	95.96
570.13	25.75
570.30	126.39
570.46	72.56
570.62	107.66
570.78	84.26
570.95	58.51
571.11	100.64
571.27	42.13
571.43	63.19
571.60	67.88
571.76	37.45
571.92	81.92
572.09	65.54
572.25	98.30
572.41	79.58
572.57	147.45
572.74	135.75
572.90	124.05
573.06	74.90
573.22	58.51
573.38	49.15
573.55	88.94
573.71	173.20
573.87	88.94
574.03	42.13
574.20	14.04
574.36	72.56
574.52	149.79
574.68	35.11
574.84	105.32
575.01	131.07
575.17	37.45
575.33	63.19
575.49	105.32
575.65	102.98
575.82	88.94
575.98	56.17
576.14	105.32
576.30	98.30
576.46	51.49
576.62	67.88
576.79	56.17
576.95	49.15
577.11	88.94
577.27	60.85
577.43	37.45
577.59	93.62
577.75	93.62
577.92	145.11
578.08	91.28
578.24	23.41
578.40	81.92
578.56	70.22
578.72	53.83
578.88	102.98
579.04	0.00
579.21	95.96
579.37	114.69
579.53	32.77
579.69	86.60
579.85	67.88
580.01	114.69
580.17	58.51
580.33	131.07
580.49	23.41
580.65	149.79
580.82	126.39
580.98	28.09
581.14	107.66
581.30	60.85
581.46	126.39
581.62	128.73
581.78	63.19
581.94	77.24
582.10	67.88
582.26	70.22
582.42	60.85
582.58	14.04
582.74	86.60
582.90	98.30
583.06	121.71
583.22	21.06
583.38	25.75
583.54	49.15
583.70	102.98
583.86	110.01
584.02	67.88
584.18	107.66
584.34	39.79
584.50	65.54
584.66	25.75
584.82	88.94
584.98	70.22
585.14	18.72
585.30	147.45
585.46	91.28
585.62	84.26
585.78	0.00
585.94	65.54
586.10	86.60
586.26	37.45
586.42	110.01
586.58	107.66
586.74	81.92
586.90	56.17
587.06	51.49
587.22	102.98
587.38	79.58
587.54	72.56
587.70	49.15
587.86	46.81
588.02	72.56
588.18	110.01
588.34	124.05
588.49	133.41
588.65	42.13
588.81	138.09
588.97	77.24
589.13	72.56
589.29	60.85
589.45	67.88
589.61	124.05
589.77	126.39
589.93	60.85
590.08	51.49
590.24	42.13
590.40	35.11
590.56	107.66
590.72	77.24
590.88	23.41
591.04	70.22
591.20	100.64
591.35	93.62
591.51	65.54
591.67	32.77
591.83	28.09
591.99	9.36
592.15	100.64
592.31	0.00
592.46	72.56
592.62	67.88
592.78	98.30
592.94	107.66
593.10	32.77
593.26	67.88
593.41	9.36
593.57	81.92
593.73	39.79
593.89	63.19
594.05	44.47
594.20	74.90
594.36	11.70
594.52	98.30
594.68	53.83
594.84	77.24
594.99	30.43
595.15	77.24
595.31	30.43
595.47	117.03
595.62	117.03
595.78	53.83
595.94	63.19
596.10	49.15
596.25	49.15
596.41	98.30
596.57	126.39
596.73	46.81
596.88	49.15
597.04	84.26
597.20	18.72
597.36	65.54
597.51	65.54
597.67	98.30
597.83	74.90
597.99	53.83
598.14	91.28
598.30	110.01
598.46	72.56
598.61	58.51
598.77	131.07
598.93	53.83
599.09	51.49
599.24	93.62
599.40	39.79
599.56	114.69
599.71	49.15
599.87	74.90
600.03	58.51
600.18	79.58
600.34	63.19
600.50	51.49
600.65	35.11
600.81	39.79
600.97	65.54
601.12	88.94
601.28	124.05
601.44	53.83
601.59	74.90
601.75	74.90
601.91	49.15
602.06	18.72
602.22	119.37
602.37	128.73
602.53	128.73
602.69	23.41
602.84	49.15
603.00	145.11
603.16	44.47
603.31	100.64
603.47	72.56
603.62	79.58
603.78	28.09
603.94	84.26
604.09	63.19
604.25	112.35
604.40	14.04
604.56	49.15
604.71	30.43
604.87	79.58
605.03	119.37
605.18	67.88
605.34	44.47
605.49	81.92
605.65	30.43
605.80	84.26
605.96	79.58
606.12	58.51
606.27	107.66
606.43	60.85
606.58	86.60
606.74	42.13
606.89	42.13
607.05	72.56
607.20	95.96
607.36	63.19
607.51	25.75
607.67	60.85
607.82	58.51
607.98	46.81
608.13	51.49
608.29	88.94
608.44	35.11
608.60	56.17
608.75	18.72
608.91	32.77
609.06	67.88
609.22	44.47
609.37	30.43
609.53	51.49
609.68	126.39
609.84	117.03
609.99	91.28
610.15	135.75
610.30	65.54
610.46	23.41
610.61	21.06
610.76	84.26
610.92	114.69
611.07	91.28
611.23	142.77
611.38	74.90
611.54	60.85
611.69	124.05
611.84	21.06
612.00	77.24
612.15	51.49
612.31	32.77
612.46	91.28
612.62	70.22
612.77	0.00
612.92	16.38
613.08	70.22
613.23	46.81
613.39	21.06
613.54	35.11
613.69	23.41
613.85	93.62
614.00	39.79
614.15	67.88
614.31	105.32
614.46	51.49
614.62	77.24
614.77	46.81
614.92	23.41
615.08	58.51
615.23	91.28
615.38	81.92
615.54	72.56
615.69	63.19
615.84	98.30
616.00	114.69
616.15	46.81
616.30	30.43
616.46	74.90
616.61	105.32
616.76	42.13
616.92	11.70
617.07	30.43
617.22	28.09
617.37	67.88
617.53	39.79
617.68	93.62
617.83	30.43
617.99	0.00
618.14	51.49
618.29	86.60
618.45	63.19
618.60	95.96
618.75	77.24
618.90	67.88
619.06	0.00
619.21	79.58
619.36	28.09
619.51	88.94
619.67	9.36
619.82	77.24
619.97	58.51
620.12	32.77
620.28	79.58
620.43	30.43
620.58	70.22
620.73	84.26
620.89	60.85
621.04	84.26
621.19	74.90
621.34	86.60
621.49	117.03
621.65	58.51
621.80	51.49
621.95	56.17
622.10	63.19
622.25	72.56
622.41	28.09
622.56	0.00
622.71	74.90
622.86	28.09
623.01	39.79
623.16	67.88
623.32	131.07
623.47	88.94
623.62	39.79
623.77	77.24
623.92	30.43
624.07	18.72
624.23	49.15
624.38	14.04
624.53	21.06
624.68	70.22
624.83	42.13
624.98	107.66
625.13	88.94
625.29	35.11
625.44	88.94
625.59	56.17
625.74	56.17
625.89	51.49
626.04	65.54
626.19	60.85
626.34	93.62
626.49	88.94
626.65	44.47
626.80	28.09
626.95	86.60
627.10	51.49
627.25	53.83
627.40	21.06
627.55	16.38
627.70	98.30
627.85	16.38
628.00	86.60
628.15	18.72
628.30	107.66
628.45	9.36
628.60	46.81
628.76	135.75
628.91	100.64
629.06	112.35
629.21	16.38
629.36	16.38
629.51	58.51
629.66	0.00
629.81	37.45
629.96	30.43
630.11	65.54
630.26	0.00
630.41	65.54
630.56	88.94
630.71	11.70
630.86	114.69
631.01	25.75
631.16	93.62
631.31	105.32
631.46	70.22
631.61	65.54
631.76	70.22
631.91	51.49
632.06	51.49
632.21	35.11
632.36	56.17
632.51	25.75
632.66	77.24
632.81	25.75
632.96	44.47
633.10	65.54
633.25	0.00
633.40	65.54
633.55	121.71
633.70	81.92
633.85	72.56
634.00	60.85
634.15	42.13
634.30	81.92
634.45	131.07
634.60	25.75
634.75	81.92
634.90	18.72
635.05	0.00
635.19	28.09
635.34	46.81
635.49	37.45
635.64	42.13
635.79	67.88
635.94	107.66
636.09	39.79
636.24	46.81
636.39	0.00
636.53	0.00
636.68	0.00
636.83	84.26
636.98	0.00
637.13	0.00
637.28	91.28
637.43	21.06
637.57	30.43
637.72	46.81
637.87	30.43
638.02	0.00
638.17	0.00
638.32	138.09
638.46	86.60
638.61	67.88
638.76	100.64
638.91	117.03
639.06	88.94
639.20	49.15
639.35	37.45
639.50	112.35
639.65	88.94
639.80	91.28
639.94	84.26
640.09	110.01
640.24	39.79
640.39	16.38
640.54	53.83
640.68	4.68
640.83	70.22
640.98	102.98
641.13	42.13
641.27	4.68
641.42	105.32
641.57	60.85
641.72	35.11
641.86	44.47
642.01	7.02
642.16	28.09
642.31	37.45
642.45	23.41
642.60	7.02
642.75	81.92
642.90	112.35
643.04	86.60
643.19	119.37
643.34	70.22
643.48	53.83
643.63	39.79
643.78	159.16
643.93	58.51
644.07	56.17
644.22	112.35
644.37	149.79
644.51	67.88
644.66	81.92
644.81	70.22
644.95	88.94
645.10	0.00
645.25	93.62
645.39	70.22
645.54	32.77
645.69	95.96
645.83	42.13
645.98	131.07
646.13	0.00
646.27	67.88
646.42	51.49
646.57	16.38
646.71	60.85
646.86	46.81
647.00	105.32
647.15	25.75
647.30	84.26
647.44	0.00
647.59	37.45
647.74	46.81
647.88	32.77
648.03	46.81
648.17	70.22
648.32	74.90
648.47	14.04
648.61	58.51
648.76	32.77
648.90	0.00
649.05	21.06
649.20	70.22
649.34	53.83
649.49	46.81
649.63	88.94
649.78	56.17
649.92	67.88
650.07	18.72
650.21	42.13
650.36	9.36
650.51	28.09
650.65	112.35
650.80	56.17
650.94	0.00
651.09	91.28
651.23	18.72
651.38	23.41
651.52	95.96
651.67	58.51
651.81	25.75
651.96	16.38
652.10	100.64
652.25	98.30
652.39	18.72
652.54	28.09
652.68	35.11
652.83	21.06
652.97	51.49
653.12	7.02
653.26	107.66
653.41	86.60
653.55	39.79
653.70	28.09
653.84	77.24
653.99	63.19
654.13	0.00
654.27	152.13
654.42	58.51
654.56	58.51
654.71	63.19
654.85	93.62
655.00	30.43
655.14	70.22
655.29	65.54
655.43	102.98
655.57	49.15
655.72	60.85
655.86	28.09
656.01	58.51
656.15	11.70
656.30	35.11
656.44	84.26
656.58	39.79
656.73	0.00
656.87	58.51
657.01	25.75
657.16	81.92
657.30	30.43
657.45	2.34
657.59	65.54
657.73	49.15
657.88	77.24
658.02	121.71
658.16	37.45
658.31	0.00
658.45	0.00
658.60	67.88
658.74	77.24
658.88	72.56
659.03	70.22
659.17	53.83
659.31	88.94
659.46	56.17
659.60	11.70
659.74	21.06
659.89	53.83
660.03	65.54
660.17	70.22
660.32	56.17
660.46	79.58
660.60	67.88
660.74	35.11
660.89	28.09
661.03	49.15
661.17	86.60
661.32	44.47
661.46	0.00
661.60	25.75
661.74	25.75
661.89	72.56
662.03	32.77
662.17	49.15
662.31	0.00
662.46	95.96
662.60	7.02
662.74	0.00
662.88	79.58
663.03	0.00
663.17	16.38
663.31	14.04
663.45	117.03
663.60	49.15
663.74	60.85
663.88	110.01
664.02	65.54
664.17	98.30
664.31	105.32
664.45	74.90
664.59	4.68
664.73	70.22
664.88	65.54
665.02	0.00
665.16	39.79
665.30	60.85
665.44	51.49
665.59	72.56
665.73	86.60
665.87	77.24
666.01	112.35
666.15	0.00
666.29	2.34
666.44	77.24
666.58	23.41
666.72	37.45
666.86	60.85
667.00	42.13
667.14	9.36
667.28	49.15
667.43	60.85
667.57	28.09
667.71	77.24
667.85	28.09
667.99	21.06
668.13	42.13
668.27	77.24
668.41	14.04
668.56	11.70
668.70	58.51
668.84	0.00
668.98	81.92
669.12	51.49
669.26	72.56
669.40	2.34
669.54	65.54
669.68	114.69
669.82	51.49
669.96	49.15
670.10	23.41
670.25	84.26
670.39	67.88
670.53	0.00
670.67	28.09
670.81	21.06
670.95	35.11
671.09	18.72
671.23	102.98
671.37	70.22
671.51	95.96
671.65	0.00
671.79	67.88
671.93	79.58
672.07	46.81
672.21	126.39
672.35	21.06
672.49	39.79
672.63	128.73
672.77	16.38
672.91	2.34
673.05	42.13
673.19	56.17
673.33	28.09
673.47	37.45
673.61	14.04
673.75	88.94
673.89	58.51
674.03	95.96
674.17	0.00
674.31	18.72
674.45	49.15
674.59	107.66
674.73	28.09
674.87	35.11
675.01	42.13
675.15	4.68
675.29	39.79
675.43	74.90
675.56	107.66
675.70	46.81
675.84	0.00
675.98	30.43
676.12	95.96
676.26	46.81
676.40	60.85
676.54	60.85
676.68	46.81
676.82	44.47
676.96	18.72
677.10	42.13
677.23	93.62
677.37	81.92
677.51	49.15
677.65	53.83
677.79	63.19
677.93	0.00
678.07	9.36
678.21	70.22
678.34	0.00
678.48	32.77
678.62	49.15
678.76	0.00
678.90	70.22
679.04	60.85
679.18	42.13
679.31	0.00
679.45	37.45
679.59	51.49
679.73	49.15
679.87	102.98
680.00	46.81
680.14	46.81
680.28	60.85
680.42	67.88
680.56	70.22
680.70	44.47
680.83	23.41
680.97	0.00
681.11	11.70
681.25	63.19
681.39	74.90
681.52	67.88
681.66	56.17
681.80	9.36
681.94	58.51
682.07	60.85
682.21	37.45
682.35	53.83
682.49	25.75
682.62	56.17
682.76	35.11
682.90	79.58
683.04	37.45
683.17	18.72
683.31	0.00
683.45	56.17
683.59	25.75
683.72	46.81
683.86	44.47
684.00	65.54
684.13	74.90
684.27	44.47
684.41	58.51
684.55	60.85
684.68	25.75
684.82	46.81
684.96	86.60
685.09	93.62
685.23	74.90
685.37	35.11
685.50	0.00
685.64	11.70
685.78	117.03
685.91	60.85
686.05	14.04
686.19	11.70
686.32	67.88
686.46	21.06
686.60	56.17
686.73	72.56
686.87	53.83
687.01	0.00
687.14	53.83
687.28	4.68
687.42	0.00
687.55	0.00
687.69	0.00
687.82	9.36
687.96	0.00
688.10	84.26
688.23	49.15
688.37	7.02
688.50	72.56
688.64	9.36
688.78	53.83
688.91	58.51
689.05	67.88
689.18	0.00
689.32	60.85
689.46	72.56
689.59	32.77
689.73	56.17
689.86	53.83
690.00	60.85
690.13	72.56
690.27	60.85
690.41	14.04
690.54	16.38
690.68	21.06
690.81	74.90
690.95	11.70
691.08	84.26
691.22	0.00
691.35	0.00
691.49	53.83
691.62	58.51
691.76	67.88
691.89	70.22
692.03	11.70
692.16	11.70
692.30	0.00
692.43	74.90
692.57	35.11
692.70	79.58
692.84	88.94
692.97	7.02
693.11	77.24
693.24	81.92
693.38	77.24
693.51	91.28
693.65	14.04
693.78	88.94
693.92	84.26
694.05	0.00
694.19	58.51
694.32	79.58
694.45	2.34
694.59	0.00
694.72	88.94
694.86	28.09
694.99	0.00
695.13	49.15
695.26	16.38
695.39	0.00
695.53	86.60
695.66	35.11
695.80	32.77
695.93	0.00
696.07	53.83
696.20	0.00
696.33	32.77
696.47	72.56
696.60	53.83
696.73	51.49
696.87	53.83
697.00	21.06
697.14	56.17
697.27	0.00
697.40	7.02
697.54	95.96
697.67	39.79
697.80	35.11
697.94	0.00
698.07	0.00
698.21	14.04
698.34	28.09
698.47	72.56
698.61	49.15
698.74	35.11
698.87	18.72
699.01	0.00
699.14	11.70
699.27	0.00
699.40	67.88
699.54	42.13
699.67	53.83
699.80	49.15
699.94	18.72
700.07	0.00
700.20	16.38
700.34	53.83
700.47	2.34
700.60	30.43
700.73	51.49
700.87	21.06
701.00	32.77
701.13	51.49
701.26	2.34
701.40	51.49
701.53	74.90
701.66	95.96
701.79	84.26
701.93	51.49
702.06	35.11
702.19	49.15
702.32	51.49
702.46	88.94
702.59	0.00
702.72	58.51
702.85	58.51
702.99	7.02
703.12	30.43
703.25	65.54
703.38	72.56
703.51	70.22
703.65	0.00
703.78	86.60
703.91	25.75
704.04	30.43
704.17	56.17
704.31	65.54
704.44	46.81
704.57	0.00
704.70	63.19
704.83	39.79
704.96	46.81
705.10	67.88
705.23	21.06
>>>>>End Processed Spectral Data<<<<<
