SpectraSuite Data File
++++++++++++++++++++++++++++++++++++
Date: Fri Oct 04 12:13:34 GMT-05:00 2013
User: price-jones
Dark Spectrum Present: No
Reference Spectrum Present: No
Number of Sampled Component Spectra: 1
Spectrometers: USB2+H05261
Integration Time (usec): 10000 (USB2+H05261)
Spectra Averaged: 1 (USB2+H05261)
Boxcar Smoothing: 0 (USB2+H05261)
Correct for Electrical Dark: No (USB2+H05261)
Strobe/Lamp Enabled: No (USB2+H05261)
Correct for Detector Non-linearity: No (USB2+H05261)
Correct for Stray Light: No (USB2+H05261)
Number of Pixels in Processed Spectrum: 2048
>>>>>Begin Processed Spectral Data<<<<<
365.73	28.09
365.92	28.09
366.12	28.09
366.32	0.00
366.52	0.00
366.72	0.00
366.91	0.00
367.11	0.00
367.31	0.00
367.51	0.00
367.70	0.00
367.90	0.00
368.10	0.00
368.30	0.00
368.49	0.00
368.69	0.00
368.89	0.00
369.09	0.00
369.28	0.00
369.48	0.00
369.68	0.00
369.87	0.00
370.07	0.00
370.27	0.00
370.47	0.00
370.66	0.00
370.86	0.00
371.06	0.00
371.25	0.00
371.45	0.00
371.65	0.00
371.84	32.77
372.04	16.38
372.24	0.00
372.44	67.88
372.63	16.38
372.83	44.47
373.03	0.00
373.22	58.51
373.42	46.81
373.62	102.98
373.81	14.04
374.01	58.51
374.21	100.64
374.40	51.49
374.60	60.85
374.79	91.28
374.99	0.00
375.19	30.43
375.38	0.00
375.58	44.47
375.78	9.36
375.97	0.00
376.17	46.81
376.37	0.00
376.56	11.70
376.76	39.79
376.95	28.09
377.15	0.00
377.35	0.00
377.54	0.00
377.74	0.00
377.93	0.00
378.13	16.38
378.33	91.28
378.52	0.00
378.72	49.15
378.91	58.51
379.11	39.79
379.31	28.09
379.50	0.00
379.70	35.11
379.89	60.85
380.09	0.00
380.28	11.70
380.48	14.04
380.68	7.02
380.87	0.00
381.07	28.09
381.26	51.49
381.46	53.83
381.65	35.11
381.85	9.36
382.04	0.00
382.24	28.09
382.43	30.43
382.63	128.73
382.83	56.17
383.02	0.00
383.22	28.09
383.41	53.83
383.61	44.47
383.80	21.06
384.00	42.13
384.19	32.77
384.39	0.00
384.58	67.88
384.78	58.51
384.97	0.00
385.17	2.34
385.36	60.85
385.56	37.45
385.75	23.41
385.95	4.68
386.14	7.02
386.34	0.00
386.53	65.54
386.72	37.45
386.92	21.06
387.11	51.49
387.31	49.15
387.50	42.13
387.70	0.00
387.89	0.00
388.09	16.38
388.28	28.09
388.48	63.19
388.67	51.49
388.86	0.00
389.06	35.11
389.25	25.75
389.45	0.00
389.64	16.38
389.84	56.17
390.03	58.51
390.22	0.00
390.42	23.41
390.61	25.75
390.81	51.49
391.00	46.81
391.19	74.90
391.39	0.00
391.58	121.71
391.78	0.00
391.97	0.00
392.16	56.17
392.36	53.83
392.55	70.22
392.75	44.47
392.94	23.41
393.13	23.41
393.33	7.02
393.52	44.47
393.71	16.38
393.91	9.36
394.10	25.75
394.29	58.51
394.49	21.06
394.68	0.00
394.88	44.47
395.07	37.45
395.26	79.58
395.46	81.92
395.65	131.07
395.84	42.13
396.04	25.75
396.23	25.75
396.42	0.00
396.62	0.00
396.81	117.03
397.00	0.00
397.19	0.00
397.39	21.06
397.58	58.51
397.77	51.49
397.97	9.36
398.16	58.51
398.35	21.06
398.55	105.32
398.74	16.38
398.93	70.22
399.12	30.43
399.32	0.00
399.51	74.90
399.70	49.15
399.90	25.75
400.09	14.04
400.28	0.00
400.47	0.00
400.67	0.00
400.86	0.00
401.05	93.62
401.24	60.85
401.44	67.88
401.63	56.17
401.82	0.00
402.01	4.68
402.21	28.09
402.40	131.07
402.59	107.66
402.78	32.77
402.97	14.04
403.17	37.45
403.36	18.72
403.55	25.75
403.74	0.00
403.93	39.79
404.13	0.00
404.32	86.60
404.51	119.37
404.70	0.00
404.89	39.79
405.09	84.26
405.28	16.38
405.47	4.68
405.66	0.00
405.85	77.24
406.05	60.85
406.24	28.09
406.43	58.51
406.62	16.38
406.81	70.22
407.00	60.85
407.20	46.81
407.39	58.51
407.58	58.51
407.77	9.36
407.96	67.88
408.15	39.79
408.34	4.68
408.54	0.00
408.73	0.00
408.92	0.00
409.11	18.72
409.30	39.79
409.49	49.15
409.68	95.96
409.87	2.34
410.07	14.04
410.26	37.45
410.45	16.38
410.64	28.09
410.83	18.72
411.02	0.00
411.21	0.00
411.40	51.49
411.59	44.47
411.78	67.88
411.98	11.70
412.17	60.85
412.36	18.72
412.55	51.49
412.74	70.22
412.93	74.90
413.12	25.75
413.31	67.88
413.50	18.72
413.69	0.00
413.88	46.81
414.07	21.06
414.26	21.06
414.45	0.00
414.64	93.62
414.83	51.49
415.02	21.06
415.22	18.72
415.41	102.98
415.60	51.49
415.79	56.17
415.98	21.06
416.17	67.88
416.36	91.28
416.55	42.13
416.74	9.36
416.93	58.51
417.12	0.00
417.31	32.77
417.50	35.11
417.69	42.13
417.88	30.43
418.07	42.13
418.26	16.38
418.45	63.19
418.64	77.24
418.83	35.11
419.02	9.36
419.21	16.38
419.39	0.00
419.58	4.68
419.77	0.00
419.96	28.09
420.15	35.11
420.34	2.34
420.53	95.96
420.72	95.96
420.91	0.00
421.10	42.13
421.29	98.30
421.48	25.75
421.67	51.49
421.86	46.81
422.05	37.45
422.24	18.72
422.43	56.17
422.61	56.17
422.80	60.85
422.99	4.68
423.18	18.72
423.37	56.17
423.56	25.75
423.75	79.58
423.94	86.60
424.13	0.00
424.32	42.13
424.50	28.09
424.69	14.04
424.88	58.51
425.07	49.15
425.26	39.79
425.45	7.02
425.64	51.49
425.83	0.00
426.01	4.68
426.20	86.60
426.39	39.79
426.58	42.13
426.77	112.35
426.96	35.11
427.15	65.54
427.33	63.19
427.52	9.36
427.71	0.00
427.90	53.83
428.09	81.92
428.28	53.83
428.46	98.30
428.65	30.43
428.84	49.15
429.03	74.90
429.22	131.07
429.40	100.64
429.59	53.83
429.78	81.92
429.97	0.00
430.16	58.51
430.34	0.00
430.53	53.83
430.72	107.66
430.91	0.00
431.10	0.00
431.28	21.06
431.47	74.90
431.66	63.19
431.85	74.90
432.03	18.72
432.22	79.58
432.41	0.00
432.60	37.45
432.79	37.45
432.97	23.41
433.16	49.15
433.35	0.00
433.54	23.41
433.72	46.81
433.91	58.51
434.10	51.49
434.28	79.58
434.47	105.32
434.66	32.77
434.85	44.47
435.03	91.28
435.22	91.28
435.41	56.17
435.59	32.77
435.78	23.41
435.97	93.62
436.16	107.66
436.34	49.15
436.53	0.00
436.72	56.17
436.90	0.00
437.09	42.13
437.28	0.00
437.46	88.94
437.65	56.17
437.84	44.47
438.02	42.13
438.21	51.49
438.40	77.24
438.58	0.00
438.77	18.72
438.96	0.00
439.14	44.47
439.33	58.51
439.52	11.70
439.70	30.43
439.89	58.51
440.08	86.60
440.26	39.79
440.45	86.60
440.63	9.36
440.82	18.72
441.01	32.77
441.19	0.00
441.38	28.09
441.57	39.79
441.75	0.00
441.94	93.62
442.12	51.49
442.31	42.13
442.50	35.11
442.68	46.81
442.87	102.98
443.05	93.62
443.24	121.71
443.43	25.75
443.61	9.36
443.80	23.41
443.98	107.66
444.17	0.00
444.35	112.35
444.54	135.75
444.73	37.45
444.91	67.88
445.10	112.35
445.28	91.28
445.47	44.47
445.65	42.13
445.84	37.45
446.02	49.15
446.21	107.66
446.39	46.81
446.58	23.41
446.77	107.66
446.95	124.05
447.14	44.47
447.32	37.45
447.51	44.47
447.69	0.00
447.88	77.24
448.06	11.70
448.25	81.92
448.43	140.43
448.62	25.75
448.80	35.11
448.99	46.81
449.17	77.24
449.36	84.26
449.54	72.56
449.73	49.15
449.91	72.56
450.10	98.30
450.28	81.92
450.46	4.68
450.65	74.90
450.83	21.06
451.02	79.58
451.20	114.69
451.39	44.47
451.57	11.70
451.76	0.00
451.94	119.37
452.13	86.60
452.31	0.00
452.49	21.06
452.68	46.81
452.86	32.77
453.05	0.00
453.23	110.01
453.42	88.94
453.60	2.34
453.78	72.56
453.97	30.43
454.15	30.43
454.34	56.17
454.52	95.96
454.70	37.45
454.89	49.15
455.07	53.83
455.26	93.62
455.44	65.54
455.62	65.54
455.81	30.43
455.99	9.36
456.17	9.36
456.36	53.83
456.54	49.15
456.73	56.17
456.91	88.94
457.09	74.90
457.28	60.85
457.46	110.01
457.64	37.45
457.83	114.69
458.01	65.54
458.19	39.79
458.38	46.81
458.56	128.73
458.74	0.00
458.93	67.88
459.11	18.72
459.29	37.45
459.48	60.85
459.66	72.56
459.84	32.77
460.03	126.39
460.21	77.24
460.39	42.13
460.57	93.62
460.76	67.88
460.94	107.66
461.12	112.35
461.31	110.01
461.49	35.11
461.67	16.38
461.85	56.17
462.04	93.62
462.22	77.24
462.40	74.90
462.59	72.56
462.77	2.34
462.95	4.68
463.13	44.47
463.32	91.28
463.50	81.92
463.68	107.66
463.86	63.19
464.05	39.79
464.23	77.24
464.41	91.28
464.59	37.45
464.78	119.37
464.96	105.32
465.14	23.41
465.32	77.24
465.50	18.72
465.69	98.30
465.87	88.94
466.05	49.15
466.23	28.09
466.41	65.54
466.60	30.43
466.78	35.11
466.96	81.92
467.14	37.45
467.32	2.34
467.51	46.81
467.69	60.85
467.87	77.24
468.05	86.60
468.23	107.66
468.41	98.30
468.60	63.19
468.78	60.85
468.96	30.43
469.14	32.77
469.32	102.98
469.50	105.32
469.69	74.90
469.87	56.17
470.05	70.22
470.23	49.15
470.41	72.56
470.59	0.00
470.77	72.56
470.95	70.22
471.14	0.00
471.32	65.54
471.50	60.85
471.68	79.58
471.86	28.09
472.04	95.96
472.22	93.62
472.40	2.34
472.58	32.77
472.77	58.51
472.95	102.98
473.13	39.79
473.31	56.17
473.49	21.06
473.67	39.79
473.85	37.45
474.03	9.36
474.21	46.81
474.39	60.85
474.57	81.92
474.75	44.47
474.93	114.69
475.12	65.54
475.30	0.00
475.48	93.62
475.66	53.83
475.84	32.77
476.02	107.66
476.20	58.51
476.38	32.77
476.56	44.47
476.74	39.79
476.92	72.56
477.10	95.96
477.28	42.13
477.46	72.56
477.64	63.19
477.82	53.83
478.00	114.69
478.18	14.04
478.36	74.90
478.54	60.85
478.72	149.79
478.90	72.56
479.08	88.94
479.26	91.28
479.44	2.34
479.62	56.17
479.80	0.00
479.98	65.54
480.16	105.32
480.34	114.69
480.52	65.54
480.70	42.13
480.88	21.06
481.06	49.15
481.24	23.41
481.41	0.00
481.59	161.50
481.77	28.09
481.95	49.15
482.13	37.45
482.31	53.83
482.49	30.43
482.67	86.60
482.85	117.03
483.03	0.00
483.21	35.11
483.39	35.11
483.57	39.79
483.74	51.49
483.92	60.85
484.10	70.22
484.28	11.70
484.46	63.19
484.64	28.09
484.82	65.54
485.00	81.92
485.18	58.51
485.35	105.32
485.53	23.41
485.71	65.54
485.89	65.54
486.07	18.72
486.25	84.26
486.43	98.30
486.61	67.88
486.78	14.04
486.96	46.81
487.14	44.47
487.32	100.64
487.50	58.51
487.68	114.69
487.85	142.77
488.03	63.19
488.21	0.00
488.39	67.88
488.57	67.88
488.75	105.32
488.92	65.54
489.10	131.07
489.28	28.09
489.46	9.36
489.64	70.22
489.81	77.24
489.99	18.72
490.17	0.00
490.35	30.43
490.53	49.15
490.70	56.17
490.88	121.71
491.06	63.19
491.24	25.75
491.41	58.51
491.59	93.62
491.77	133.41
491.95	95.96
492.13	91.28
492.30	86.60
492.48	56.17
492.66	60.85
492.84	79.58
493.01	81.92
493.19	0.00
493.37	65.54
493.54	46.81
493.72	65.54
493.90	117.03
494.08	58.51
494.25	112.35
494.43	23.41
494.61	72.56
494.79	86.60
494.96	98.30
495.14	67.88
495.32	39.79
495.49	100.64
495.67	95.96
495.85	35.11
496.02	2.34
496.20	79.58
496.38	21.06
496.55	25.75
496.73	91.28
496.91	46.81
497.09	37.45
497.26	100.64
497.44	95.96
497.62	77.24
497.79	110.01
497.97	63.19
498.14	72.56
498.32	81.92
498.50	93.62
498.67	18.72
498.85	107.66
499.03	88.94
499.20	37.45
499.38	110.01
499.56	93.62
499.73	79.58
499.91	79.58
500.08	70.22
500.26	42.13
500.44	56.17
500.61	70.22
500.79	72.56
500.97	107.66
501.14	60.85
501.32	74.90
501.49	44.47
501.67	86.60
501.84	53.83
502.02	98.30
502.20	42.13
502.37	100.64
502.55	95.96
502.72	131.07
502.90	91.28
503.07	105.32
503.25	42.13
503.43	67.88
503.60	110.01
503.78	77.24
503.95	135.75
504.13	81.92
504.30	105.32
504.48	77.24
504.65	18.72
504.83	102.98
505.01	145.11
505.18	154.48
505.36	112.35
505.53	91.28
505.71	131.07
505.88	95.96
506.06	86.60
506.23	39.79
506.41	81.92
506.58	70.22
506.76	100.64
506.93	81.92
507.11	98.30
507.28	117.03
507.46	98.30
507.63	93.62
507.81	72.56
507.98	140.43
508.16	81.92
508.33	135.75
508.50	95.96
508.68	100.64
508.85	72.56
509.03	46.81
509.20	98.30
509.38	65.54
509.55	131.07
509.73	142.77
509.90	117.03
510.08	93.62
510.25	30.43
510.42	110.01
510.60	119.37
510.77	37.45
510.95	46.81
511.12	98.30
511.30	110.01
511.47	65.54
511.64	39.79
511.82	72.56
511.99	63.19
512.17	77.24
512.34	53.83
512.51	65.54
512.69	117.03
512.86	63.19
513.04	100.64
513.21	98.30
513.38	114.69
513.56	51.49
513.73	88.94
513.90	98.30
514.08	110.01
514.25	102.98
514.43	98.30
514.60	98.30
514.77	49.15
514.95	102.98
515.12	102.98
515.29	91.28
515.47	56.17
515.64	35.11
515.81	79.58
515.99	70.22
516.16	35.11
516.33	37.45
516.51	102.98
516.68	112.35
516.85	100.64
517.03	60.85
517.20	74.90
517.37	105.32
517.54	51.49
517.72	88.94
517.89	77.24
518.06	74.90
518.24	44.47
518.41	11.70
518.58	95.96
518.75	159.16
518.93	131.07
519.10	107.66
519.27	51.49
519.45	95.96
519.62	98.30
519.79	56.17
519.96	133.41
520.14	107.66
520.31	112.35
520.48	105.32
520.65	117.03
520.83	170.86
521.00	65.54
521.17	51.49
521.34	91.28
521.52	121.71
521.69	128.73
521.86	70.22
522.03	98.30
522.20	156.82
522.38	70.22
522.55	102.98
522.72	128.73
522.89	58.51
523.07	21.06
523.24	112.35
523.41	14.04
523.58	32.77
523.75	58.51
523.92	91.28
524.10	114.69
524.27	114.69
524.44	124.05
524.61	79.58
524.78	84.26
524.96	56.17
525.13	102.98
525.30	0.00
525.47	84.26
525.64	131.07
525.81	98.30
525.98	42.13
526.16	105.32
526.33	77.24
526.50	0.00
526.67	42.13
526.84	77.24
527.01	128.73
527.18	81.92
527.36	86.60
527.53	79.58
527.70	14.04
527.87	65.54
528.04	74.90
528.21	18.72
528.38	42.13
528.55	42.13
528.72	187.24
528.89	88.94
529.07	84.26
529.24	149.79
529.41	121.71
529.58	9.36
529.75	156.82
529.92	72.56
530.09	126.39
530.26	79.58
530.43	140.43
530.60	79.58
530.77	16.38
530.94	58.51
531.11	117.03
531.28	91.28
531.46	60.85
531.63	95.96
531.80	23.41
531.97	105.32
532.14	65.54
532.31	65.54
532.48	107.66
532.65	70.22
532.82	81.92
532.99	121.71
533.16	152.13
533.33	95.96
533.50	105.32
533.67	56.17
533.84	51.49
534.01	11.70
534.18	145.11
534.35	79.58
534.52	140.43
534.69	49.15
534.86	95.96
535.03	91.28
535.20	140.43
535.37	100.64
535.54	16.38
535.71	77.24
535.88	86.60
536.05	77.24
536.22	63.19
536.38	156.82
536.55	149.79
536.72	126.39
536.89	128.73
537.06	126.39
537.23	107.66
537.40	107.66
537.57	182.56
537.74	149.79
537.91	74.90
538.08	44.47
538.25	2.34
538.42	35.11
538.59	105.32
538.75	77.24
538.92	86.60
539.09	149.79
539.26	102.98
539.43	112.35
539.60	145.11
539.77	70.22
539.94	65.54
540.11	70.22
540.28	86.60
540.44	147.45
540.61	42.13
540.78	84.26
540.95	79.58
541.12	63.19
541.29	77.24
541.46	110.01
541.62	65.54
541.79	121.71
541.96	53.83
542.13	119.37
542.30	93.62
542.47	42.13
542.63	77.24
542.80	98.30
542.97	86.60
543.14	84.26
543.31	154.48
543.48	60.85
543.64	149.79
543.81	107.66
543.98	58.51
544.15	110.01
544.32	110.01
544.48	156.82
544.65	107.66
544.82	81.92
544.99	63.19
545.16	107.66
545.32	147.45
545.49	32.77
545.66	32.77
545.83	37.45
546.00	18.72
546.16	93.62
546.33	58.51
546.50	72.56
546.67	74.90
546.83	84.26
547.00	4.68
547.17	95.96
547.34	63.19
547.50	154.48
547.67	142.77
547.84	60.85
548.00	46.81
548.17	56.17
548.34	42.13
548.51	72.56
548.67	114.69
548.84	81.92
549.01	135.75
549.18	28.09
549.34	140.43
549.51	105.32
549.68	98.30
549.84	91.28
550.01	65.54
550.18	67.88
550.34	135.75
550.51	119.37
550.68	161.50
550.84	161.50
551.01	93.62
551.18	112.35
551.34	42.13
551.51	49.15
551.68	149.79
551.84	42.13
552.01	58.51
552.18	88.94
552.34	107.66
552.51	70.22
552.68	30.43
552.84	93.62
553.01	138.09
553.18	18.72
553.34	88.94
553.51	102.98
553.67	84.26
553.84	67.88
554.01	56.17
554.17	72.56
554.34	110.01
554.51	140.43
554.67	114.69
554.84	180.22
555.00	65.54
555.17	72.56
555.33	42.13
555.50	16.38
555.67	63.19
555.83	58.51
556.00	84.26
556.16	128.73
556.33	37.45
556.50	67.88
556.66	88.94
556.83	67.88
556.99	42.13
557.16	46.81
557.32	102.98
557.49	117.03
557.65	91.28
557.82	25.75
557.98	88.94
558.15	51.49
558.32	58.51
558.48	39.79
558.65	32.77
558.81	79.58
558.98	119.37
559.14	72.56
559.31	32.77
559.47	49.15
559.64	86.60
559.80	65.54
559.97	63.19
560.13	84.26
560.30	98.30
560.46	117.03
560.63	42.13
560.79	23.41
560.96	112.35
561.12	149.79
561.29	23.41
561.45	152.13
561.61	110.01
561.78	114.69
561.94	88.94
562.11	93.62
562.27	56.17
562.44	25.75
562.60	145.11
562.77	56.17
562.93	32.77
563.10	77.24
563.26	0.00
563.42	79.58
563.59	88.94
563.75	128.73
563.92	152.13
564.08	4.68
564.24	58.51
564.41	121.71
564.57	67.88
564.74	124.05
564.90	16.38
565.07	65.54
565.23	32.77
565.39	72.56
565.56	112.35
565.72	49.15
565.88	124.05
566.05	72.56
566.21	0.00
566.38	79.58
566.54	138.09
566.70	119.37
566.87	100.64
567.03	58.51
567.19	100.64
567.36	168.52
567.52	39.79
567.68	110.01
567.85	79.58
568.01	81.92
568.17	81.92
568.34	126.39
568.50	95.96
568.66	77.24
568.83	39.79
568.99	140.43
569.15	84.26
569.32	49.15
569.48	60.85
569.64	53.83
569.81	124.05
569.97	21.06
570.13	70.22
570.30	37.45
570.46	79.58
570.62	140.43
570.78	65.54
570.95	168.52
571.11	4.68
571.27	145.11
571.43	81.92
571.60	84.26
571.76	58.51
571.92	107.66
572.09	32.77
572.25	100.64
572.41	149.79
572.57	102.98
572.74	98.30
572.90	107.66
573.06	128.73
573.22	149.79
573.38	74.90
573.55	81.92
573.71	74.90
573.87	74.90
574.03	84.26
574.20	49.15
574.36	107.66
574.52	60.85
574.68	135.75
574.84	166.18
575.01	46.81
575.17	124.05
575.33	49.15
575.49	119.37
575.65	46.81
575.82	14.04
575.98	21.06
576.14	81.92
576.30	86.60
576.46	107.66
576.62	49.15
576.79	65.54
576.95	58.51
577.11	2.34
577.27	42.13
577.43	79.58
577.59	67.88
577.75	67.88
577.92	102.98
578.08	93.62
578.24	91.28
578.40	25.75
578.56	70.22
578.72	58.51
578.88	79.58
579.04	72.56
579.21	81.92
579.37	51.49
579.53	0.00
579.69	72.56
579.85	72.56
580.01	91.28
580.17	91.28
580.33	37.45
580.49	0.00
580.65	42.13
580.82	53.83
580.98	112.35
581.14	145.11
581.30	86.60
581.46	91.28
581.62	77.24
581.78	56.17
581.94	81.92
582.10	32.77
582.26	119.37
582.42	112.35
582.58	63.19
582.74	140.43
582.90	110.01
583.06	91.28
583.22	91.28
583.38	0.00
583.54	16.38
583.70	77.24
583.86	37.45
584.02	51.49
584.18	46.81
584.34	107.66
584.50	77.24
584.66	49.15
584.82	63.19
584.98	72.56
585.14	77.24
585.30	93.62
585.46	88.94
585.62	79.58
585.78	65.54
585.94	98.30
586.10	35.11
586.26	74.90
586.42	65.54
586.58	28.09
586.74	42.13
586.90	133.41
587.06	84.26
587.22	102.98
587.38	65.54
587.54	72.56
587.70	65.54
587.86	70.22
588.02	53.83
588.18	114.69
588.34	35.11
588.49	49.15
588.65	0.00
588.81	53.83
588.97	79.58
589.13	56.17
589.29	58.51
589.45	102.98
589.61	124.05
589.77	60.85
589.93	53.83
590.08	79.58
590.24	32.77
590.40	77.24
590.56	88.94
590.72	131.07
590.88	70.22
591.04	72.56
591.20	14.04
591.35	16.38
591.51	93.62
591.67	126.39
591.83	0.00
591.99	74.90
592.15	60.85
592.31	53.83
592.46	0.00
592.62	72.56
592.78	98.30
592.94	74.90
593.10	25.75
593.26	58.51
593.41	70.22
593.57	119.37
593.73	37.45
593.89	63.19
594.05	67.88
594.20	0.00
594.36	95.96
594.52	79.58
594.68	53.83
594.84	65.54
594.99	56.17
595.15	114.69
595.31	102.98
595.47	39.79
595.62	114.69
595.78	86.60
595.94	72.56
596.10	32.77
596.25	88.94
596.41	119.37
596.57	65.54
596.73	65.54
596.88	126.39
597.04	60.85
597.20	77.24
597.36	37.45
597.51	100.64
597.67	60.85
597.83	114.69
597.99	67.88
598.14	86.60
598.30	42.13
598.46	67.88
598.61	74.90
598.77	86.60
598.93	58.51
599.09	112.35
599.24	2.34
599.40	67.88
599.56	77.24
599.71	105.32
599.87	131.07
600.03	119.37
600.18	77.24
600.34	7.02
600.50	84.26
600.65	102.98
600.81	58.51
600.97	0.00
601.12	84.26
601.28	114.69
601.44	46.81
601.59	100.64
601.75	32.77
601.91	114.69
602.06	32.77
602.22	133.41
602.37	95.96
602.53	51.49
602.69	107.66
602.84	161.50
603.00	58.51
603.16	95.96
603.31	60.85
603.47	91.28
603.62	32.77
603.78	93.62
603.94	65.54
604.09	131.07
604.25	117.03
604.40	121.71
604.56	152.13
604.71	105.32
604.87	65.54
605.03	49.15
605.18	37.45
605.34	32.77
605.49	56.17
605.65	42.13
605.80	84.26
605.96	39.79
606.12	145.11
606.27	32.77
606.43	84.26
606.58	121.71
606.74	53.83
606.89	86.60
607.05	79.58
607.20	16.38
607.36	74.90
607.51	44.47
607.67	2.34
607.82	44.47
607.98	93.62
608.13	119.37
608.29	21.06
608.44	74.90
608.60	67.88
608.75	79.58
608.91	77.24
609.06	74.90
609.22	107.66
609.37	49.15
609.53	60.85
609.68	60.85
609.84	84.26
609.99	70.22
610.15	42.13
610.30	0.00
610.46	25.75
610.61	135.75
610.76	102.98
610.92	126.39
611.07	32.77
611.23	77.24
611.38	72.56
611.54	58.51
611.69	84.26
611.84	133.41
612.00	46.81
612.15	65.54
612.31	18.72
612.46	42.13
612.62	25.75
612.77	46.81
612.92	21.06
613.08	74.90
613.23	126.39
613.39	67.88
613.54	58.51
613.69	88.94
613.85	133.41
614.00	77.24
614.15	9.36
614.31	145.11
614.46	79.58
614.62	37.45
614.77	70.22
614.92	93.62
615.08	58.51
615.23	105.32
615.38	105.32
615.54	44.47
615.69	46.81
615.84	102.98
616.00	14.04
616.15	49.15
616.30	112.35
616.46	32.77
616.61	100.64
616.76	23.41
616.92	30.43
617.07	102.98
617.22	42.13
617.37	65.54
617.53	37.45
617.68	124.05
617.83	110.01
617.99	70.22
618.14	30.43
618.29	46.81
618.45	46.81
618.60	81.92
618.75	95.96
618.90	30.43
619.06	11.70
619.21	112.35
619.36	95.96
619.51	4.68
619.67	42.13
619.82	0.00
619.97	58.51
620.12	81.92
620.28	86.60
620.43	93.62
620.58	98.30
620.73	110.01
620.89	58.51
621.04	63.19
621.19	49.15
621.34	16.38
621.49	0.00
621.65	88.94
621.80	100.64
621.95	58.51
622.10	112.35
622.25	105.32
622.41	100.64
622.56	77.24
622.71	114.69
622.86	30.43
623.01	84.26
623.16	60.85
623.32	72.56
623.47	14.04
623.62	0.00
623.77	93.62
623.92	30.43
624.07	166.18
624.23	142.77
624.38	60.85
624.53	49.15
624.68	77.24
624.83	46.81
624.98	4.68
625.13	79.58
625.29	28.09
625.44	46.81
625.59	72.56
625.74	51.49
625.89	77.24
626.04	44.47
626.19	44.47
626.34	81.92
626.49	65.54
626.65	18.72
626.80	74.90
626.95	0.00
627.10	53.83
627.25	14.04
627.40	88.94
627.55	58.51
627.70	39.79
627.85	77.24
628.00	84.26
628.15	72.56
628.30	119.37
628.45	98.30
628.60	0.00
628.76	105.32
628.91	121.71
629.06	67.88
629.21	32.77
629.36	37.45
629.51	74.90
629.66	58.51
629.81	98.30
629.96	51.49
630.11	72.56
630.26	72.56
630.41	42.13
630.56	100.64
630.71	74.90
630.86	0.00
631.01	7.02
631.16	14.04
631.31	32.77
631.46	28.09
631.61	107.66
631.76	0.00
631.91	7.02
632.06	70.22
632.21	124.05
632.36	49.15
632.51	0.00
632.66	0.00
632.81	84.26
632.96	65.54
633.10	65.54
633.25	63.19
633.40	53.83
633.55	100.64
633.70	72.56
633.85	39.79
634.00	0.00
634.15	91.28
634.30	79.58
634.45	21.06
634.60	35.11
634.75	37.45
634.90	67.88
635.05	46.81
635.19	30.43
635.34	58.51
635.49	4.68
635.64	77.24
635.79	0.00
635.94	37.45
636.09	95.96
636.24	121.71
636.39	65.54
636.53	51.49
636.68	105.32
636.83	74.90
636.98	128.73
637.13	28.09
637.28	56.17
637.43	105.32
637.57	51.49
637.72	60.85
637.87	30.43
638.02	93.62
638.17	56.17
638.32	37.45
638.46	67.88
638.61	91.28
638.76	65.54
638.91	30.43
639.06	16.38
639.20	58.51
639.35	42.13
639.50	63.19
639.65	74.90
639.80	114.69
639.94	72.56
640.09	0.00
640.24	79.58
640.39	70.22
640.54	4.68
640.68	0.00
640.83	51.49
640.98	46.81
641.13	23.41
641.27	46.81
641.42	44.47
641.57	152.13
641.72	51.49
641.86	53.83
642.01	131.07
642.16	88.94
642.31	42.13
642.45	11.70
642.60	23.41
642.75	98.30
642.90	28.09
643.04	44.47
643.19	67.88
643.34	72.56
643.48	32.77
643.63	58.51
643.78	112.35
643.93	133.41
644.07	35.11
644.22	9.36
644.37	42.13
644.51	60.85
644.66	32.77
644.81	65.54
644.95	49.15
645.10	63.19
645.25	63.19
645.39	39.79
645.54	21.06
645.69	46.81
645.83	88.94
645.98	14.04
646.13	63.19
646.27	124.05
646.42	32.77
646.57	35.11
646.71	9.36
646.86	0.00
647.00	4.68
647.15	56.17
647.30	121.71
647.44	53.83
647.59	117.03
647.74	53.83
647.88	46.81
648.03	58.51
648.17	42.13
648.32	91.28
648.47	72.56
648.61	81.92
648.76	30.43
648.90	63.19
649.05	18.72
649.20	42.13
649.34	84.26
649.49	49.15
649.63	81.92
649.78	44.47
649.92	79.58
650.07	49.15
650.21	46.81
650.36	18.72
650.51	14.04
650.65	42.13
650.80	100.64
650.94	67.88
651.09	56.17
651.23	18.72
651.38	9.36
651.52	9.36
651.67	42.13
651.81	105.32
651.96	163.84
652.10	30.43
652.25	72.56
652.39	105.32
652.54	93.62
652.68	0.00
652.83	37.45
652.97	25.75
653.12	46.81
653.26	0.00
653.41	16.38
653.55	30.43
653.70	23.41
653.84	84.26
653.99	86.60
654.13	93.62
654.27	77.24
654.42	77.24
654.56	0.00
654.71	58.51
654.85	86.60
655.00	93.62
655.14	70.22
655.29	77.24
655.43	112.35
655.57	42.13
655.72	65.54
655.86	23.41
656.01	30.43
656.15	58.51
656.30	18.72
656.44	70.22
656.58	79.58
656.73	88.94
656.87	86.60
657.01	74.90
657.16	49.15
657.30	28.09
657.45	67.88
657.59	9.36
657.73	0.00
657.88	49.15
658.02	91.28
658.16	86.60
658.31	0.00
658.45	32.77
658.60	70.22
658.74	37.45
658.88	0.00
659.03	35.11
659.17	18.72
659.31	25.75
659.46	25.75
659.60	18.72
659.74	18.72
659.89	63.19
660.03	77.24
660.17	58.51
660.32	72.56
660.46	0.00
660.60	16.38
660.74	0.00
660.89	77.24
661.03	11.70
661.17	95.96
661.32	114.69
661.46	100.64
661.60	81.92
661.74	58.51
661.89	117.03
662.03	124.05
662.17	84.26
662.31	53.83
662.46	0.00
662.60	35.11
662.74	91.28
662.88	65.54
663.03	53.83
663.17	44.47
663.31	100.64
663.45	53.83
663.60	105.32
663.74	86.60
663.88	124.05
664.02	65.54
664.17	79.58
664.31	39.79
664.45	32.77
664.59	16.38
664.73	46.81
664.88	105.32
665.02	0.00
665.16	72.56
665.30	91.28
665.44	49.15
665.59	30.43
665.73	107.66
665.87	79.58
666.01	60.85
666.15	14.04
666.29	21.06
666.44	35.11
666.58	35.11
666.72	0.00
666.86	60.85
667.00	39.79
667.14	11.70
667.28	72.56
667.43	23.41
667.57	46.81
667.71	21.06
667.85	67.88
667.99	49.15
668.13	60.85
668.27	0.00
668.41	37.45
668.56	53.83
668.70	100.64
668.84	0.00
668.98	44.47
669.12	84.26
669.26	11.70
669.40	14.04
669.54	72.56
669.68	95.96
669.82	39.79
669.96	79.58
670.10	112.35
670.25	58.51
670.39	93.62
670.53	67.88
670.67	131.07
670.81	49.15
670.95	42.13
671.09	91.28
671.23	79.58
671.37	95.96
671.51	74.90
671.65	11.70
671.79	28.09
671.93	28.09
672.07	51.49
672.21	0.00
672.35	42.13
672.49	23.41
672.63	79.58
672.77	23.41
672.91	44.47
673.05	0.00
673.19	72.56
673.33	46.81
673.47	42.13
673.61	110.01
673.75	58.51
673.89	63.19
674.03	86.60
674.17	32.77
674.31	14.04
674.45	74.90
674.59	0.00
674.73	58.51
674.87	72.56
675.01	110.01
675.15	53.83
675.29	32.77
675.43	70.22
675.56	37.45
675.70	72.56
675.84	72.56
675.98	2.34
676.12	18.72
676.26	100.64
676.40	42.13
676.54	67.88
676.68	65.54
676.82	18.72
676.96	56.17
677.10	46.81
677.23	32.77
677.37	32.77
677.51	14.04
677.65	81.92
677.79	102.98
677.93	60.85
678.07	28.09
678.21	42.13
678.34	63.19
678.48	100.64
678.62	126.39
678.76	16.38
678.90	84.26
679.04	67.88
679.18	107.66
679.31	30.43
679.45	30.43
679.59	23.41
679.73	117.03
679.87	4.68
680.00	81.92
680.14	65.54
680.28	105.32
680.42	100.64
680.56	74.90
680.70	14.04
680.83	65.54
680.97	77.24
681.11	4.68
681.25	7.02
681.39	51.49
681.52	21.06
681.66	42.13
681.80	16.38
681.94	16.38
682.07	23.41
682.21	67.88
682.35	0.00
682.49	18.72
682.62	0.00
682.76	79.58
682.90	114.69
683.04	23.41
683.17	18.72
683.31	44.47
683.45	46.81
683.59	21.06
683.72	51.49
683.86	0.00
684.00	21.06
684.13	107.66
684.27	42.13
684.41	56.17
684.55	37.45
684.68	53.83
684.82	11.70
684.96	53.83
685.09	49.15
685.23	98.30
685.37	53.83
685.50	88.94
685.64	25.75
685.78	39.79
685.91	56.17
686.05	37.45
686.19	35.11
686.32	7.02
686.46	79.58
686.60	25.75
686.73	28.09
686.87	16.38
687.01	77.24
687.14	11.70
687.28	46.81
687.42	0.00
687.55	56.17
687.69	35.11
687.82	16.38
687.96	21.06
688.10	0.00
688.23	72.56
688.37	114.69
688.50	37.45
688.64	30.43
688.78	0.00
688.91	56.17
689.05	65.54
689.18	63.19
689.32	67.88
689.46	39.79
689.59	32.77
689.73	42.13
689.86	9.36
690.00	32.77
690.13	18.72
690.27	18.72
690.41	88.94
690.54	58.51
690.68	7.02
690.81	7.02
690.95	37.45
691.08	37.45
691.22	35.11
691.35	81.92
691.49	9.36
691.62	56.17
691.76	32.77
691.89	28.09
692.03	46.81
692.16	18.72
692.30	7.02
692.43	88.94
692.57	81.92
692.70	0.00
692.84	51.49
692.97	49.15
693.11	46.81
693.24	30.43
693.38	16.38
693.51	25.75
693.65	11.70
693.78	32.77
693.92	0.00
694.05	65.54
694.19	77.24
694.32	39.79
694.45	79.58
694.59	56.17
694.72	77.24
694.86	0.00
694.99	0.00
695.13	18.72
695.26	65.54
695.39	0.00
695.53	58.51
695.66	11.70
695.80	35.11
695.93	42.13
696.07	18.72
696.20	74.90
696.33	0.00
696.47	124.05
696.60	23.41
696.73	65.54
696.87	7.02
697.00	46.81
697.14	16.38
697.27	37.45
697.40	107.66
697.54	44.47
697.67	58.51
697.80	67.88
697.94	79.58
698.07	0.00
698.21	32.77
698.34	14.04
698.47	7.02
698.61	9.36
698.74	70.22
698.87	28.09
699.01	63.19
699.14	100.64
699.27	60.85
699.40	2.34
699.54	23.41
699.67	77.24
699.80	2.34
699.94	53.83
700.07	100.64
700.20	53.83
700.34	23.41
700.47	18.72
700.60	58.51
700.73	42.13
700.87	60.85
701.00	67.88
701.13	63.19
701.26	56.17
701.40	44.47
701.53	42.13
701.66	0.00
701.79	91.28
701.93	23.41
702.06	28.09
702.19	0.00
702.32	49.15
702.46	35.11
702.59	77.24
702.72	0.00
702.85	0.00
702.99	4.68
703.12	0.00
703.25	16.38
703.38	65.54
703.51	63.19
703.65	60.85
703.78	9.36
703.91	44.47
704.04	58.51
704.17	110.01
704.31	23.41
704.44	35.11
704.57	7.02
704.70	56.17
704.83	67.88
704.96	0.00
705.10	79.58
705.23	0.00
>>>>>End Processed Spectral Data<<<<<
