SpectraSuite Data File
++++++++++++++++++++++++++++++++++++
Date: Fri Oct 04 12:13:30 GMT-05:00 2013
User: price-jones
Dark Spectrum Present: No
Reference Spectrum Present: No
Number of Sampled Component Spectra: 1
Spectrometers: USB2+H05261
Integration Time (usec): 10000 (USB2+H05261)
Spectra Averaged: 1 (USB2+H05261)
Boxcar Smoothing: 0 (USB2+H05261)
Correct for Electrical Dark: No (USB2+H05261)
Strobe/Lamp Enabled: No (USB2+H05261)
Correct for Detector Non-linearity: No (USB2+H05261)
Correct for Stray Light: No (USB2+H05261)
Number of Pixels in Processed Spectrum: 2048
>>>>>Begin Processed Spectral Data<<<<<
365.73	0.00
365.92	0.00
366.12	0.00
366.32	0.00
366.52	0.00
366.72	0.00
366.91	0.00
367.11	0.00
367.31	0.00
367.51	0.00
367.70	0.00
367.90	0.00
368.10	0.00
368.30	0.00
368.49	0.00
368.69	0.00
368.89	0.00
369.09	0.00
369.28	0.00
369.48	0.00
369.68	0.00
369.87	0.00
370.07	0.00
370.27	0.00
370.47	0.00
370.66	0.00
370.86	0.00
371.06	0.00
371.25	0.00
371.45	0.00
371.65	9.36
371.84	0.00
372.04	0.00
372.24	0.00
372.44	25.75
372.63	14.04
372.83	0.00
373.03	0.00
373.22	0.00
373.42	53.83
373.62	65.54
373.81	23.41
374.01	0.00
374.21	0.00
374.40	0.00
374.60	28.09
374.79	4.68
374.99	0.00
375.19	63.19
375.38	0.00
375.58	21.06
375.78	4.68
375.97	0.00
376.17	60.85
376.37	0.00
376.56	0.00
376.76	7.02
376.95	0.00
377.15	56.17
377.35	79.58
377.54	0.00
377.74	0.00
377.93	14.04
378.13	14.04
378.33	0.00
378.52	49.15
378.72	14.04
378.91	0.00
379.11	53.83
379.31	42.13
379.50	0.00
379.70	67.88
379.89	0.00
380.09	0.00
380.28	7.02
380.48	11.70
380.68	0.00
380.87	0.00
381.07	39.79
381.26	16.38
381.46	0.00
381.65	18.72
381.85	39.79
382.04	14.04
382.24	0.00
382.43	44.47
382.63	63.19
382.83	18.72
383.02	42.13
383.22	37.45
383.41	60.85
383.61	0.00
383.80	112.35
384.00	14.04
384.19	39.79
384.39	0.00
384.58	16.38
384.78	2.34
384.97	74.90
385.17	37.45
385.36	58.51
385.56	0.00
385.75	60.85
385.95	44.47
386.14	37.45
386.34	39.79
386.53	67.88
386.72	14.04
386.92	58.51
387.11	21.06
387.31	0.00
387.50	11.70
387.70	0.00
387.89	51.49
388.09	16.38
388.28	0.00
388.48	42.13
388.67	42.13
388.86	14.04
389.06	2.34
389.25	14.04
389.45	0.00
389.64	81.92
389.84	0.00
390.03	0.00
390.22	0.00
390.42	56.17
390.61	21.06
390.81	42.13
391.00	2.34
391.19	51.49
391.39	0.00
391.58	25.75
391.78	98.30
391.97	39.79
392.16	14.04
392.36	0.00
392.55	21.06
392.75	46.81
392.94	0.00
393.13	14.04
393.33	42.13
393.52	16.38
393.71	100.64
393.91	91.28
394.10	46.81
394.29	7.02
394.49	91.28
394.68	37.45
394.88	4.68
395.07	7.02
395.26	0.00
395.46	51.49
395.65	16.38
395.84	53.83
396.04	67.88
396.23	0.00
396.42	0.00
396.62	14.04
396.81	56.17
397.00	58.51
397.19	14.04
397.39	2.34
397.58	86.60
397.77	0.00
397.97	0.00
398.16	0.00
398.35	14.04
398.55	0.00
398.74	37.45
398.93	28.09
399.12	84.26
399.32	0.00
399.51	0.00
399.70	16.38
399.90	23.41
400.09	0.00
400.28	0.00
400.47	67.88
400.67	56.17
400.86	4.68
401.05	4.68
401.24	56.17
401.44	35.11
401.63	49.15
401.82	49.15
402.01	18.72
402.21	72.56
402.40	49.15
402.59	7.02
402.78	16.38
402.97	53.83
403.17	0.00
403.36	0.00
403.55	42.13
403.74	65.54
403.93	53.83
404.13	28.09
404.32	4.68
404.51	35.11
404.70	35.11
404.89	0.00
405.09	0.00
405.28	72.56
405.47	32.77
405.66	72.56
405.85	81.92
406.05	0.00
406.24	23.41
406.43	46.81
406.62	51.49
406.81	51.49
407.00	42.13
407.20	9.36
407.39	0.00
407.58	21.06
407.77	0.00
407.96	32.77
408.15	21.06
408.34	70.22
408.54	46.81
408.73	23.41
408.92	46.81
409.11	0.00
409.30	23.41
409.49	105.32
409.68	16.38
409.87	7.02
410.07	30.43
410.26	53.83
410.45	42.13
410.64	32.77
410.83	0.00
411.02	58.51
411.21	30.43
411.40	0.00
411.59	0.00
411.78	9.36
411.98	0.00
412.17	23.41
412.36	7.02
412.55	7.02
412.74	42.13
412.93	39.79
413.12	65.54
413.31	84.26
413.50	60.85
413.69	0.00
413.88	30.43
414.07	28.09
414.26	42.13
414.45	70.22
414.64	37.45
414.83	95.96
415.02	7.02
415.22	32.77
415.41	79.58
415.60	0.00
415.79	65.54
415.98	4.68
416.17	18.72
416.36	0.00
416.55	53.83
416.74	0.00
416.93	0.00
417.12	4.68
417.31	42.13
417.50	51.49
417.69	0.00
417.88	35.11
418.07	14.04
418.26	44.47
418.45	0.00
418.64	0.00
418.83	37.45
419.02	14.04
419.21	0.00
419.39	23.41
419.58	16.38
419.77	0.00
419.96	56.17
420.15	44.47
420.34	56.17
420.53	0.00
420.72	0.00
420.91	21.06
421.10	9.36
421.29	28.09
421.48	49.15
421.67	0.00
421.86	86.60
422.05	0.00
422.24	135.75
422.43	74.90
422.61	51.49
422.80	0.00
422.99	56.17
423.18	30.43
423.37	79.58
423.56	49.15
423.75	93.62
423.94	2.34
424.13	21.06
424.32	30.43
424.50	28.09
424.69	30.43
424.88	100.64
425.07	49.15
425.26	0.00
425.45	0.00
425.64	0.00
425.83	51.49
426.01	86.60
426.20	67.88
426.39	37.45
426.58	49.15
426.77	58.51
426.96	119.37
427.15	23.41
427.33	39.79
427.52	51.49
427.71	28.09
427.90	32.77
428.09	16.38
428.28	44.47
428.46	35.11
428.65	39.79
428.84	49.15
429.03	0.00
429.22	0.00
429.40	74.90
429.59	0.00
429.78	44.47
429.97	46.81
430.16	74.90
430.34	84.26
430.53	0.00
430.72	107.66
430.91	0.00
431.10	9.36
431.28	25.75
431.47	16.38
431.66	112.35
431.85	46.81
432.03	42.13
432.22	63.19
432.41	7.02
432.60	37.45
432.79	28.09
432.97	35.11
433.16	35.11
433.35	0.00
433.54	0.00
433.72	18.72
433.91	18.72
434.10	30.43
434.28	67.88
434.47	23.41
434.66	70.22
434.85	0.00
435.03	42.13
435.22	11.70
435.41	58.51
435.59	16.38
435.78	53.83
435.97	0.00
436.16	0.00
436.34	28.09
436.53	60.85
436.72	46.81
436.90	16.38
437.09	21.06
437.28	0.00
437.46	95.96
437.65	4.68
437.84	81.92
438.02	86.60
438.21	18.72
438.40	9.36
438.58	65.54
438.77	0.00
438.96	21.06
439.14	4.68
439.33	100.64
439.52	0.00
439.70	70.22
439.89	70.22
440.08	32.77
440.26	107.66
440.45	46.81
440.63	21.06
440.82	0.00
441.01	93.62
441.19	42.13
441.38	77.24
441.57	44.47
441.75	70.22
441.94	18.72
442.12	32.77
442.31	0.00
442.50	58.51
442.68	18.72
442.87	0.00
443.05	65.54
443.24	84.26
443.43	21.06
443.61	74.90
443.80	0.00
443.98	0.00
444.17	107.66
444.35	81.92
444.54	93.62
444.73	58.51
444.91	72.56
445.10	21.06
445.28	35.11
445.47	44.47
445.65	23.41
445.84	30.43
446.02	77.24
446.21	46.81
446.39	7.02
446.58	135.75
446.77	21.06
446.95	46.81
447.14	44.47
447.32	11.70
447.51	4.68
447.69	79.58
447.88	32.77
448.06	81.92
448.25	79.58
448.43	142.77
448.62	0.00
448.80	63.19
448.99	0.00
449.17	0.00
449.36	72.56
449.54	0.00
449.73	93.62
449.91	42.13
450.10	21.06
450.28	23.41
450.46	7.02
450.65	37.45
450.83	23.41
451.02	0.00
451.20	21.06
451.39	0.00
451.57	58.51
451.76	46.81
451.94	42.13
452.13	16.38
452.31	67.88
452.49	39.79
452.68	58.51
452.86	44.47
453.05	117.03
453.23	56.17
453.42	14.04
453.60	46.81
453.78	51.49
453.97	0.00
454.15	35.11
454.34	72.56
454.52	86.60
454.70	56.17
454.89	11.70
455.07	70.22
455.26	23.41
455.44	0.00
455.62	0.00
455.81	63.19
455.99	14.04
456.17	88.94
456.36	74.90
456.54	86.60
456.73	42.13
456.91	35.11
457.09	4.68
457.28	25.75
457.46	14.04
457.64	11.70
457.83	16.38
458.01	16.38
458.19	0.00
458.38	49.15
458.56	84.26
458.74	42.13
458.93	35.11
459.11	0.00
459.29	51.49
459.48	65.54
459.66	7.02
459.84	77.24
460.03	0.00
460.21	0.00
460.39	74.90
460.57	16.38
460.76	81.92
460.94	0.00
461.12	37.45
461.31	11.70
461.49	0.00
461.67	25.75
461.85	53.83
462.04	49.15
462.22	60.85
462.40	9.36
462.59	65.54
462.77	2.34
462.95	0.00
463.13	63.19
463.32	0.00
463.50	53.83
463.68	58.51
463.86	46.81
464.05	0.00
464.23	0.00
464.41	0.00
464.59	0.00
464.78	35.11
464.96	39.79
465.14	42.13
465.32	0.00
465.50	25.75
465.69	53.83
465.87	0.00
466.05	53.83
466.23	79.58
466.41	7.02
466.60	0.00
466.78	42.13
466.96	42.13
467.14	30.43
467.32	35.11
467.51	72.56
467.69	18.72
467.87	0.00
468.05	18.72
468.23	102.98
468.41	30.43
468.60	39.79
468.78	4.68
468.96	65.54
469.14	81.92
469.32	16.38
469.50	39.79
469.69	0.00
469.87	2.34
470.05	53.83
470.23	18.72
470.41	23.41
470.59	88.94
470.77	0.00
470.95	37.45
471.14	58.51
471.32	56.17
471.50	37.45
471.68	67.88
471.86	81.92
472.04	18.72
472.22	14.04
472.40	0.00
472.58	0.00
472.77	58.51
472.95	0.00
473.13	0.00
473.31	46.81
473.49	21.06
473.67	56.17
473.85	44.47
474.03	77.24
474.21	4.68
474.39	81.92
474.57	44.47
474.75	58.51
474.93	4.68
475.12	44.47
475.30	72.56
475.48	44.47
475.66	88.94
475.84	11.70
476.02	23.41
476.20	133.41
476.38	44.47
476.56	37.45
476.74	0.00
476.92	70.22
477.10	91.28
477.28	0.00
477.46	7.02
477.64	9.36
477.82	53.83
478.00	23.41
478.18	35.11
478.36	81.92
478.54	28.09
478.72	46.81
478.90	42.13
479.08	53.83
479.26	91.28
479.44	42.13
479.62	32.77
479.80	44.47
479.98	49.15
480.16	49.15
480.34	81.92
480.52	0.00
480.70	9.36
480.88	39.79
481.06	9.36
481.24	74.90
481.41	21.06
481.59	0.00
481.77	42.13
481.95	21.06
482.13	56.17
482.31	39.79
482.49	9.36
482.67	23.41
482.85	0.00
483.03	0.00
483.21	98.30
483.39	51.49
483.57	42.13
483.74	0.00
483.92	58.51
484.10	98.30
484.28	65.54
484.46	42.13
484.64	88.94
484.82	65.54
485.00	67.88
485.18	93.62
485.35	56.17
485.53	2.34
485.71	18.72
485.89	30.43
486.07	58.51
486.25	107.66
486.43	53.83
486.61	11.70
486.78	60.85
486.96	133.41
487.14	9.36
487.32	49.15
487.50	23.41
487.68	23.41
487.85	114.69
488.03	63.19
488.21	51.49
488.39	39.79
488.57	63.19
488.75	9.36
488.92	28.09
489.10	25.75
489.28	46.81
489.46	35.11
489.64	42.13
489.81	74.90
489.99	119.37
490.17	131.07
490.35	81.92
490.53	74.90
490.70	79.58
490.88	21.06
491.06	67.88
491.24	18.72
491.41	149.79
491.59	42.13
491.77	30.43
491.95	67.88
492.13	9.36
492.30	0.00
492.48	58.51
492.66	44.47
492.84	39.79
493.01	72.56
493.19	0.00
493.37	49.15
493.54	60.85
493.72	14.04
493.90	42.13
494.08	0.00
494.25	49.15
494.43	0.00
494.61	21.06
494.79	39.79
494.96	93.62
495.14	11.70
495.32	0.00
495.49	32.77
495.67	42.13
495.85	0.00
496.02	23.41
496.20	42.13
496.38	81.92
496.55	32.77
496.73	0.00
496.91	4.68
497.09	0.00
497.26	4.68
497.44	28.09
497.62	65.54
497.79	4.68
497.97	44.47
498.14	0.00
498.32	86.60
498.50	0.00
498.67	11.70
498.85	32.77
499.03	60.85
499.20	72.56
499.38	42.13
499.56	67.88
499.73	79.58
499.91	0.00
500.08	39.79
500.26	72.56
500.44	44.47
500.61	112.35
500.79	84.26
500.97	100.64
501.14	60.85
501.32	110.01
501.49	21.06
501.67	65.54
501.84	70.22
502.02	35.11
502.20	25.75
502.37	2.34
502.55	35.11
502.72	67.88
502.90	138.09
503.07	77.24
503.25	84.26
503.43	35.11
503.60	14.04
503.78	0.00
503.95	51.49
504.13	0.00
504.30	42.13
504.48	32.77
504.65	67.88
504.83	25.75
505.01	18.72
505.18	49.15
505.36	74.90
505.53	39.79
505.71	44.47
505.88	21.06
506.06	65.54
506.23	65.54
506.41	37.45
506.58	44.47
506.76	28.09
506.93	72.56
507.11	53.83
507.28	44.47
507.46	74.90
507.63	39.79
507.81	0.00
507.98	37.45
508.16	67.88
508.33	60.85
508.50	37.45
508.68	11.70
508.85	42.13
509.03	117.03
509.20	0.00
509.38	58.51
509.55	2.34
509.73	0.00
509.90	11.70
510.08	65.54
510.25	0.00
510.42	0.00
510.60	95.96
510.77	154.48
510.95	21.06
511.12	14.04
511.30	0.00
511.47	74.90
511.64	25.75
511.82	93.62
511.99	67.88
512.17	56.17
512.34	35.11
512.51	0.00
512.69	0.00
512.86	49.15
513.04	63.19
513.21	49.15
513.38	16.38
513.56	65.54
513.73	72.56
513.90	2.34
514.08	95.96
514.25	42.13
514.43	25.75
514.60	58.51
514.77	53.83
514.95	23.41
515.12	107.66
515.29	30.43
515.47	63.19
515.64	67.88
515.81	0.00
515.99	133.41
516.16	2.34
516.33	18.72
516.51	0.00
516.68	9.36
516.85	95.96
517.03	9.36
517.20	56.17
517.37	37.45
517.54	25.75
517.72	53.83
517.89	77.24
518.06	44.47
518.24	35.11
518.41	32.77
518.58	128.73
518.75	51.49
518.93	0.00
519.10	46.81
519.27	46.81
519.45	32.77
519.62	81.92
519.79	37.45
519.96	74.90
520.14	86.60
520.31	56.17
520.48	53.83
520.65	65.54
520.83	0.00
521.00	25.75
521.17	32.77
521.34	58.51
521.52	63.19
521.69	74.90
521.86	25.75
522.03	14.04
522.20	53.83
522.38	65.54
522.55	23.41
522.72	46.81
522.89	95.96
523.07	21.06
523.24	42.13
523.41	72.56
523.58	56.17
523.75	91.28
523.92	74.90
524.10	18.72
524.27	0.00
524.44	25.75
524.61	30.43
524.78	0.00
524.96	100.64
525.13	114.69
525.30	0.00
525.47	65.54
525.64	77.24
525.81	46.81
525.98	53.83
526.16	11.70
526.33	42.13
526.50	37.45
526.67	35.11
526.84	98.30
527.01	0.00
527.18	21.06
527.36	44.47
527.53	67.88
527.70	67.88
527.87	46.81
528.04	14.04
528.21	63.19
528.38	0.00
528.55	44.47
528.72	74.90
528.89	102.98
529.07	88.94
529.24	72.56
529.41	72.56
529.58	0.00
529.75	28.09
529.92	53.83
530.09	91.28
530.26	0.00
530.43	56.17
530.60	70.22
530.77	63.19
530.94	70.22
531.11	0.00
531.28	30.43
531.46	35.11
531.63	11.70
531.80	70.22
531.97	37.45
532.14	42.13
532.31	79.58
532.48	25.75
532.65	72.56
532.82	44.47
532.99	44.47
533.16	72.56
533.33	49.15
533.50	2.34
533.67	25.75
533.84	95.96
534.01	7.02
534.18	0.00
534.35	42.13
534.52	4.68
534.69	0.00
534.86	0.00
535.03	28.09
535.20	0.00
535.37	63.19
535.54	88.94
535.71	0.00
535.88	23.41
536.05	58.51
536.22	0.00
536.38	37.45
536.55	63.19
536.72	42.13
536.89	56.17
537.06	49.15
537.23	0.00
537.40	133.41
537.57	23.41
537.74	28.09
537.91	67.88
538.08	0.00
538.25	84.26
538.42	0.00
538.59	25.75
538.75	60.85
538.92	0.00
539.09	51.49
539.26	23.41
539.43	28.09
539.60	46.81
539.77	49.15
539.94	18.72
540.11	70.22
540.28	105.32
540.44	65.54
540.61	74.90
540.78	0.00
540.95	0.00
541.12	63.19
541.29	2.34
541.46	30.43
541.62	91.28
541.79	53.83
541.96	18.72
542.13	0.00
542.30	79.58
542.47	9.36
542.63	131.07
542.80	11.70
542.97	0.00
543.14	60.85
543.31	32.77
543.48	114.69
543.64	0.00
543.81	7.02
543.98	93.62
544.15	114.69
544.32	0.00
544.48	28.09
544.65	37.45
544.82	67.88
544.99	30.43
545.16	11.70
545.32	11.70
545.49	74.90
545.66	35.11
545.83	91.28
546.00	39.79
546.16	21.06
546.33	0.00
546.50	11.70
546.67	51.49
546.83	11.70
547.00	0.00
547.17	23.41
547.34	49.15
547.50	51.49
547.67	37.45
547.84	46.81
548.00	42.13
548.17	63.19
548.34	49.15
548.51	32.77
548.67	74.90
548.84	7.02
549.01	9.36
549.18	46.81
549.34	58.51
549.51	44.47
549.68	39.79
549.84	100.64
550.01	14.04
550.18	39.79
550.34	18.72
550.51	67.88
550.68	77.24
550.84	58.51
551.01	49.15
551.18	32.77
551.34	58.51
551.51	51.49
551.68	39.79
551.84	23.41
552.01	23.41
552.18	0.00
552.34	65.54
552.51	42.13
552.68	39.79
552.84	46.81
553.01	51.49
553.18	0.00
553.34	25.75
553.51	21.06
553.67	98.30
553.84	42.13
554.01	95.96
554.17	77.24
554.34	32.77
554.51	0.00
554.67	51.49
554.84	74.90
555.00	84.26
555.17	107.66
555.33	28.09
555.50	28.09
555.67	81.92
555.83	0.00
556.00	44.47
556.16	4.68
556.33	44.47
556.50	9.36
556.66	65.54
556.83	44.47
556.99	4.68
557.16	32.77
557.32	84.26
557.49	51.49
557.65	117.03
557.82	81.92
557.98	56.17
558.15	77.24
558.32	9.36
558.48	0.00
558.65	44.47
558.81	65.54
558.98	14.04
559.14	0.00
559.31	58.51
559.47	39.79
559.64	53.83
559.80	65.54
559.97	0.00
560.13	98.30
560.30	51.49
560.46	11.70
560.63	63.19
560.79	44.47
560.96	56.17
561.12	58.51
561.29	11.70
561.45	84.26
561.61	0.00
561.78	86.60
561.94	23.41
562.11	49.15
562.27	58.51
562.44	35.11
562.60	49.15
562.77	84.26
562.93	53.83
563.10	18.72
563.26	74.90
563.42	0.00
563.59	98.30
563.75	16.38
563.92	35.11
564.08	60.85
564.24	39.79
564.41	74.90
564.57	65.54
564.74	49.15
564.90	46.81
565.07	0.00
565.23	9.36
565.39	9.36
565.56	44.47
565.72	25.75
565.88	84.26
566.05	72.56
566.21	105.32
566.38	65.54
566.54	51.49
566.70	56.17
566.87	46.81
567.03	11.70
567.19	95.96
567.36	56.17
567.52	0.00
567.68	81.92
567.85	28.09
568.01	42.13
568.17	53.83
568.34	0.00
568.50	32.77
568.66	2.34
568.83	72.56
568.99	28.09
569.15	42.13
569.32	93.62
569.48	23.41
569.64	49.15
569.81	16.38
569.97	32.77
570.13	0.00
570.30	4.68
570.46	58.51
570.62	2.34
570.78	16.38
570.95	25.75
571.11	14.04
571.27	25.75
571.43	0.00
571.60	79.58
571.76	30.43
571.92	46.81
572.09	9.36
572.25	67.88
572.41	39.79
572.57	93.62
572.74	42.13
572.90	51.49
573.06	46.81
573.22	102.98
573.38	81.92
573.55	9.36
573.71	74.90
573.87	65.54
574.03	46.81
574.20	67.88
574.36	58.51
574.52	23.41
574.68	16.38
574.84	23.41
575.01	81.92
575.17	98.30
575.33	30.43
575.49	4.68
575.65	51.49
575.82	0.00
575.98	84.26
576.14	30.43
576.30	72.56
576.46	46.81
576.62	53.83
576.79	9.36
576.95	25.75
577.11	100.64
577.27	0.00
577.43	65.54
577.59	58.51
577.75	18.72
577.92	23.41
578.08	0.00
578.24	79.58
578.40	39.79
578.56	72.56
578.72	135.75
578.88	23.41
579.04	102.98
579.21	107.66
579.37	74.90
579.53	44.47
579.69	46.81
579.85	4.68
580.01	28.09
580.17	42.13
580.33	16.38
580.49	35.11
580.65	60.85
580.82	35.11
580.98	98.30
581.14	16.38
581.30	102.98
581.46	14.04
581.62	49.15
581.78	30.43
581.94	2.34
582.10	25.75
582.26	0.00
582.42	46.81
582.58	39.79
582.74	44.47
582.90	0.00
583.06	0.00
583.22	65.54
583.38	35.11
583.54	53.83
583.70	11.70
583.86	88.94
584.02	46.81
584.18	46.81
584.34	49.15
584.50	88.94
584.66	491.51
584.82	978.34
584.98	1394.96
585.14	1287.29
585.30	741.95
585.46	470.45
585.62	308.95
585.78	170.86
585.94	124.05
586.10	166.18
586.26	58.51
586.42	91.28
586.58	32.77
586.74	65.54
586.90	35.11
587.06	21.06
587.22	46.81
587.38	63.19
587.54	44.47
587.70	95.96
587.86	147.45
588.02	112.35
588.18	152.13
588.34	119.37
588.49	112.35
588.65	72.56
588.81	44.47
588.97	39.79
589.13	11.70
589.29	0.00
589.45	39.79
589.61	56.17
589.77	128.73
589.93	91.28
590.08	65.54
590.24	11.70
590.40	0.00
590.56	0.00
590.72	46.81
590.88	16.38
591.04	0.00
591.20	53.83
591.35	65.54
591.51	117.03
591.67	100.64
591.83	28.09
591.99	58.51
592.15	0.00
592.31	0.00
592.46	37.45
592.62	30.43
592.78	56.17
592.94	16.38
593.10	119.37
593.26	49.15
593.41	0.00
593.57	67.88
593.73	35.11
593.89	30.43
594.05	224.69
594.20	212.99
594.36	182.56
594.52	180.22
594.68	131.07
594.84	51.49
594.99	102.98
595.15	23.41
595.31	95.96
595.47	0.00
595.62	16.38
595.78	135.75
595.94	46.81
596.10	0.00
596.25	77.24
596.41	70.22
596.57	39.79
596.73	114.69
596.88	4.68
597.04	16.38
597.20	93.62
597.36	81.92
597.51	72.56
597.67	9.36
597.83	0.00
597.99	30.43
598.14	91.28
598.30	42.13
598.46	77.24
598.61	46.81
598.77	42.13
598.93	49.15
599.09	0.00
599.24	0.00
599.40	25.75
599.56	67.88
599.71	18.72
599.87	72.56
600.03	0.00
600.18	30.43
600.34	86.60
600.50	67.88
600.65	56.17
600.81	0.00
600.97	35.11
601.12	58.51
601.28	65.54
601.44	0.00
601.59	105.32
601.75	105.32
601.91	42.13
602.06	84.26
602.22	88.94
602.37	25.75
602.53	51.49
602.69	74.90
602.84	128.73
603.00	49.15
603.16	79.58
603.31	37.45
603.47	9.36
603.62	4.68
603.78	67.88
603.94	46.81
604.09	28.09
604.25	79.58
604.40	16.38
604.56	16.38
604.71	81.92
604.87	77.24
605.03	74.90
605.18	133.41
605.34	32.77
605.49	39.79
605.65	28.09
605.80	93.62
605.96	53.83
606.12	70.22
606.27	0.00
606.43	86.60
606.58	46.81
606.74	16.38
606.89	140.43
607.05	184.90
607.20	243.42
607.36	227.03
607.51	119.37
607.67	72.56
607.82	77.24
607.98	60.85
608.13	32.77
608.29	49.15
608.44	86.60
608.60	46.81
608.75	72.56
608.91	28.09
609.06	124.05
609.22	210.65
609.37	311.29
609.53	236.39
609.68	149.79
609.84	35.11
609.99	98.30
610.15	37.45
610.30	7.02
610.46	102.98
610.61	18.72
610.76	67.88
610.92	39.79
611.07	53.83
611.23	23.41
611.38	56.17
611.54	0.00
611.69	9.36
611.84	58.51
612.00	37.45
612.15	35.11
612.31	21.06
612.46	4.68
612.62	60.85
612.77	53.83
612.92	32.77
613.08	28.09
613.23	46.81
613.39	49.15
613.54	51.49
613.69	147.45
613.85	264.48
614.00	437.68
614.15	425.98
614.31	315.97
614.46	198.95
614.62	156.82
614.77	77.24
614.92	72.56
615.08	67.88
615.23	79.58
615.38	44.47
615.54	65.54
615.69	0.00
615.84	74.90
616.00	107.66
616.15	189.58
616.30	100.64
616.46	65.54
616.61	86.60
616.76	133.41
616.92	46.81
617.07	37.45
617.22	35.11
617.37	0.00
617.53	49.15
617.68	2.34
617.83	0.00
617.99	0.00
618.14	0.00
618.29	44.47
618.45	65.54
618.60	39.79
618.75	51.49
618.90	0.00
619.06	0.00
619.21	70.22
619.36	0.00
619.51	30.43
619.67	0.00
619.82	0.00
619.97	46.81
620.12	0.00
620.28	39.79
620.43	0.00
620.58	79.58
620.73	39.79
620.89	9.36
621.04	23.41
621.19	60.85
621.34	53.83
621.49	86.60
621.65	98.30
621.80	98.30
621.95	30.43
622.10	100.64
622.25	35.11
622.41	74.90
622.56	81.92
622.71	42.13
622.86	35.11
623.01	105.32
623.16	37.45
623.32	46.81
623.47	4.68
623.62	28.09
623.77	65.54
623.92	56.17
624.07	63.19
624.23	65.54
624.38	51.49
624.53	44.47
624.68	21.06
624.83	58.51
624.98	16.38
625.13	42.13
625.29	74.90
625.44	7.02
625.59	30.43
625.74	72.56
625.89	4.68
626.04	79.58
626.19	142.77
626.34	229.37
626.49	177.88
626.65	238.73
626.80	95.96
626.95	65.54
627.10	131.07
627.25	77.24
627.40	74.90
627.55	65.54
627.70	32.77
627.85	46.81
628.00	0.00
628.15	37.45
628.30	84.26
628.45	46.81
628.60	91.28
628.76	58.51
628.91	88.94
629.06	0.00
629.21	79.58
629.36	23.41
629.51	70.22
629.66	91.28
629.81	49.15
629.96	58.51
630.11	39.79
630.26	56.17
630.41	77.24
630.56	9.36
630.71	117.03
630.86	0.00
631.01	21.06
631.16	91.28
631.31	30.43
631.46	105.32
631.61	21.06
631.76	0.00
631.91	0.00
632.06	37.45
632.21	9.36
632.36	0.00
632.51	11.70
632.66	25.75
632.81	30.43
632.96	100.64
633.10	191.92
633.25	194.26
633.40	198.95
633.55	95.96
633.70	110.01
633.85	65.54
634.00	95.96
634.15	67.88
634.30	67.88
634.45	58.51
634.60	16.38
634.75	58.51
634.90	0.00
635.05	0.00
635.19	39.79
635.34	0.00
635.49	9.36
635.64	30.43
635.79	46.81
635.94	72.56
636.09	56.17
636.24	23.41
636.39	32.77
636.53	2.34
636.68	121.71
636.83	58.51
636.98	58.51
637.13	60.85
637.28	18.72
637.43	0.00
637.57	7.02
637.72	105.32
637.87	203.63
638.02	306.61
638.17	297.25
638.32	177.88
638.46	194.26
638.61	114.69
638.76	98.30
638.91	81.92
639.06	93.62
639.20	119.37
639.35	63.19
639.50	37.45
639.65	142.77
639.80	299.59
639.94	411.93
640.09	367.46
640.24	365.12
640.39	355.76
640.54	229.37
640.68	88.94
640.83	2.34
640.98	0.00
641.13	23.41
641.27	77.24
641.42	0.00
641.57	77.24
641.72	32.77
641.86	23.41
642.01	49.15
642.16	72.56
642.31	60.85
642.45	0.00
642.60	112.35
642.75	2.34
642.90	39.79
643.04	53.83
643.19	63.19
643.34	53.83
643.48	74.90
643.63	39.79
643.78	46.81
643.93	16.38
644.07	0.00
644.22	51.49
644.37	0.00
644.51	37.45
644.66	58.51
644.81	23.41
644.95	28.09
645.10	4.68
645.25	46.81
645.39	21.06
645.54	2.34
645.69	119.37
645.83	16.38
645.98	58.51
646.13	4.68
646.27	0.00
646.42	44.47
646.57	56.17
646.71	39.79
646.86	4.68
647.00	58.51
647.15	49.15
647.30	0.00
647.44	0.00
647.59	74.90
647.74	74.90
647.88	72.56
648.03	14.04
648.17	37.45
648.32	63.19
648.47	0.00
648.61	18.72
648.76	65.54
648.90	53.83
649.05	56.17
649.20	0.00
649.34	0.00
649.49	98.30
649.63	0.00
649.78	0.00
649.92	46.81
650.07	14.04
650.21	147.45
650.36	203.63
650.51	217.67
650.65	191.92
650.80	166.18
650.94	93.62
651.09	72.56
651.23	63.19
651.38	28.09
651.52	28.09
651.67	79.58
651.81	91.28
651.96	23.41
652.10	63.19
652.25	16.38
652.39	0.00
652.54	32.77
652.68	14.04
652.83	39.79
652.97	173.20
653.12	95.96
653.26	100.64
653.41	135.75
653.55	105.32
653.70	21.06
653.84	53.83
653.99	63.19
654.13	0.00
654.27	0.00
654.42	67.88
654.56	42.13
654.71	77.24
654.85	37.45
655.00	0.00
655.14	72.56
655.29	74.90
655.43	42.13
655.57	25.75
655.72	25.75
655.86	28.09
656.01	145.11
656.15	56.17
656.30	0.00
656.44	46.81
656.58	16.38
656.73	53.83
656.87	60.85
657.01	79.58
657.16	9.36
657.30	42.13
657.45	60.85
657.59	74.90
657.73	16.38
657.88	0.00
658.02	138.09
658.16	0.00
658.31	0.00
658.45	56.17
658.60	107.66
658.74	93.62
658.88	63.19
659.03	39.79
659.17	0.00
659.31	56.17
659.46	107.66
659.60	93.62
659.74	112.35
659.89	44.47
660.03	140.43
660.17	86.60
660.32	0.00
660.46	112.35
660.60	37.45
660.74	30.43
660.89	0.00
661.03	7.02
661.17	30.43
661.32	58.51
661.46	65.54
661.60	0.00
661.74	0.00
661.89	32.77
662.03	2.34
662.17	88.94
662.31	0.00
662.46	63.19
662.60	119.37
662.74	119.37
662.88	0.00
663.03	79.58
663.17	37.45
663.31	135.75
663.45	117.03
663.60	51.49
663.74	4.68
663.88	37.45
664.02	46.81
664.17	2.34
664.31	35.11
664.45	23.41
664.59	0.00
664.73	58.51
664.88	9.36
665.02	51.49
665.16	72.56
665.30	18.72
665.44	81.92
665.59	58.51
665.73	46.81
665.87	42.13
666.01	53.83
666.15	67.88
666.29	0.00
666.44	49.15
666.58	30.43
666.72	79.58
666.86	72.56
667.00	16.38
667.14	46.81
667.28	53.83
667.43	126.39
667.57	175.54
667.71	217.67
667.85	215.33
667.99	126.39
668.13	117.03
668.27	63.19
668.41	81.92
668.56	70.22
668.70	39.79
668.84	0.00
668.98	28.09
669.12	4.68
669.26	21.06
669.40	100.64
669.54	0.00
669.68	30.43
669.82	23.41
669.96	46.81
670.10	0.00
670.25	79.58
670.39	81.92
670.53	28.09
670.67	128.73
670.81	46.81
670.95	0.00
671.09	72.56
671.23	84.26
671.37	95.96
671.51	203.63
671.65	154.48
671.79	117.03
671.93	163.84
672.07	46.81
672.21	56.17
672.35	91.28
672.49	42.13
672.63	18.72
672.77	49.15
672.91	37.45
673.05	102.98
673.19	79.58
673.33	0.00
673.47	100.64
673.61	18.72
673.75	9.36
673.89	14.04
674.03	9.36
674.17	7.02
674.31	18.72
674.45	30.43
674.59	30.43
674.73	42.13
674.87	56.17
675.01	70.22
675.15	25.75
675.29	37.45
675.43	23.41
675.56	65.54
675.70	93.62
675.84	16.38
675.98	81.92
676.12	86.60
676.26	51.49
676.40	79.58
676.54	44.47
676.68	18.72
676.82	0.00
676.96	56.17
677.10	53.83
677.23	9.36
677.37	46.81
677.51	56.17
677.65	51.49
677.79	105.32
677.93	63.19
678.07	0.00
678.21	84.26
678.34	93.62
678.48	4.68
678.62	60.85
678.76	58.51
678.90	51.49
679.04	0.00
679.18	42.13
679.31	0.00
679.45	21.06
679.59	16.38
679.73	0.00
679.87	42.13
680.00	28.09
680.14	0.00
680.28	42.13
680.42	11.70
680.56	67.88
680.70	0.00
680.83	65.54
680.97	25.75
681.11	28.09
681.25	46.81
681.39	0.00
681.52	9.36
681.66	56.17
681.80	72.56
681.94	14.04
682.07	28.09
682.21	0.00
682.35	70.22
682.49	105.32
682.62	147.45
682.76	42.13
682.90	9.36
683.04	0.00
683.17	102.98
683.31	53.83
683.45	37.45
683.59	21.06
683.72	58.51
683.86	0.00
684.00	65.54
684.13	0.00
684.27	14.04
684.41	4.68
684.55	16.38
684.68	18.72
684.82	65.54
684.96	81.92
685.09	74.90
685.23	0.00
685.37	84.26
685.50	140.43
685.64	4.68
685.78	32.77
685.91	0.00
686.05	4.68
686.19	44.47
686.32	11.70
686.46	16.38
686.60	7.02
686.73	86.60
686.87	58.51
687.01	28.09
687.14	32.77
687.28	0.00
687.42	28.09
687.55	56.17
687.69	56.17
687.82	23.41
687.96	9.36
688.10	44.47
688.23	0.00
688.37	42.13
688.50	30.43
688.64	81.92
688.78	30.43
688.91	0.00
689.05	0.00
689.18	46.81
689.32	7.02
689.46	32.77
689.59	63.19
689.73	46.81
689.86	37.45
690.00	39.79
690.13	32.77
690.27	2.34
690.41	14.04
690.54	67.88
690.68	21.06
690.81	81.92
690.95	18.72
691.08	23.41
691.22	11.70
691.35	74.90
691.49	77.24
691.62	25.75
691.76	14.04
691.89	30.43
692.03	65.54
692.16	51.49
692.30	0.00
692.43	18.72
692.57	102.98
692.70	128.73
692.84	128.73
692.97	138.09
693.11	102.98
693.24	70.22
693.38	14.04
693.51	18.72
693.65	58.51
693.78	84.26
693.92	63.19
694.05	60.85
694.19	18.72
694.32	70.22
694.45	70.22
694.59	0.00
694.72	37.45
694.86	65.54
694.99	0.00
695.13	4.68
695.26	0.00
695.39	39.79
695.53	2.34
695.66	63.19
695.80	0.00
695.93	42.13
696.07	21.06
696.20	86.60
696.33	44.47
696.47	23.41
696.60	4.68
696.73	21.06
696.87	16.38
697.00	49.15
697.14	21.06
697.27	0.00
697.40	9.36
697.54	7.02
697.67	131.07
697.80	28.09
697.94	81.92
698.07	53.83
698.21	2.34
698.34	95.96
698.47	95.96
698.61	56.17
698.74	0.00
698.87	60.85
699.01	35.11
699.14	51.49
699.27	23.41
699.40	9.36
699.54	14.04
699.67	18.72
699.80	21.06
699.94	58.51
700.07	21.06
700.20	14.04
700.34	11.70
700.47	23.41
700.60	32.77
700.73	18.72
700.87	0.00
701.00	0.00
701.13	51.49
701.26	60.85
701.40	81.92
701.53	35.11
701.66	23.41
701.79	30.43
701.93	0.00
702.06	37.45
702.19	72.56
702.32	72.56
702.46	88.94
702.59	0.00
702.72	37.45
702.85	63.19
702.99	81.92
703.12	187.24
703.25	231.71
703.38	168.52
703.51	147.45
703.65	163.84
703.78	145.11
703.91	32.77
704.04	67.88
704.17	11.70
704.31	25.75
704.44	0.00
704.57	70.22
704.70	42.13
704.83	14.04
704.96	0.00
705.10	46.81
705.23	30.43
>>>>>End Processed Spectral Data<<<<<
