SpectraSuite Data File
++++++++++++++++++++++++++++++++++++
Date: Tue Oct 01 18:25:08 GMT-05:00 2013
User: stostad
Dark Spectrum Present: No
Reference Spectrum Present: No
Number of Sampled Component Spectra: 1
Spectrometers: USB2+H05261
Integration Time (usec): 100000 (USB2+H05261)
Spectra Averaged: 1 (USB2+H05261)
Boxcar Smoothing: 0 (USB2+H05261)
Correct for Electrical Dark: No (USB2+H05261)
Strobe/Lamp Enabled: No (USB2+H05261)
Correct for Detector Non-linearity: No (USB2+H05261)
Correct for Stray Light: No (USB2+H05261)
Number of Pixels in Processed Spectrum: 2048
>>>>>Begin Processed Spectral Data<<<<<
365.73	0.00
365.92	0.00
366.12	0.00
366.32	0.00
366.52	0.00
366.72	11.70
366.91	0.00
367.11	0.00
367.31	37.45
367.51	0.00
367.70	0.00
367.90	0.00
368.10	0.00
368.30	0.00
368.49	0.00
368.69	0.00
368.89	4.68
369.09	0.00
369.28	0.00
369.48	0.00
369.68	0.00
369.87	0.00
370.07	14.04
370.27	100.64
370.47	77.24
370.66	44.47
370.86	133.41
371.06	60.85
371.25	67.88
371.45	51.49
371.65	91.28
371.84	142.77
372.04	58.51
372.24	119.37
372.44	25.75
372.63	121.71
372.83	88.94
373.03	91.28
373.22	140.43
373.42	117.03
373.62	102.98
373.81	170.86
374.01	180.22
374.21	112.35
374.40	133.41
374.60	168.52
374.79	107.66
374.99	187.24
375.19	133.41
375.38	184.90
375.58	138.09
375.78	133.41
375.97	189.58
376.17	166.18
376.37	102.98
376.56	201.29
376.76	100.64
376.95	91.28
377.15	133.41
377.35	166.18
377.54	128.73
377.74	91.28
377.93	163.84
378.13	184.90
378.33	168.52
378.52	177.88
378.72	67.88
378.91	126.39
379.11	81.92
379.31	0.00
379.50	67.88
379.70	159.16
379.89	154.48
380.09	105.32
380.28	133.41
380.48	149.79
380.68	138.09
380.87	105.32
381.07	149.79
381.26	184.90
381.46	65.54
381.65	79.58
381.85	138.09
382.04	124.05
382.24	173.20
382.43	121.71
382.63	117.03
382.83	102.98
383.02	161.50
383.22	60.85
383.41	117.03
383.61	149.79
383.80	147.45
384.00	110.01
384.19	112.35
384.39	98.30
384.58	121.71
384.78	63.19
384.97	79.58
385.17	100.64
385.36	91.28
385.56	163.84
385.75	182.56
385.95	217.67
386.14	177.88
386.34	133.41
386.53	163.84
386.72	112.35
386.92	262.14
387.11	149.79
387.31	98.30
387.50	135.75
387.70	105.32
387.89	65.54
388.09	163.84
388.28	147.45
388.48	124.05
388.67	100.64
388.86	170.86
389.06	88.94
389.25	105.32
389.45	114.69
389.64	105.32
389.84	161.50
390.03	67.88
390.22	140.43
390.42	145.11
390.61	124.05
390.81	74.90
391.00	131.07
391.19	110.01
391.39	175.54
391.58	152.13
391.78	177.88
391.97	156.82
392.16	91.28
392.36	156.82
392.55	170.86
392.75	152.13
392.94	51.49
393.13	84.26
393.33	133.41
393.52	126.39
393.71	166.18
393.91	95.96
394.10	114.69
394.29	175.54
394.49	138.09
394.68	156.82
394.88	107.66
395.07	135.75
395.26	159.16
395.46	208.31
395.65	161.50
395.84	126.39
396.04	212.99
396.23	152.13
396.42	222.35
396.62	60.85
396.81	102.98
397.00	149.79
397.19	163.84
397.39	170.86
397.58	182.56
397.77	149.79
397.97	77.24
398.16	175.54
398.35	149.79
398.55	140.43
398.74	42.13
398.93	102.98
399.12	110.01
399.32	142.77
399.51	121.71
399.70	81.92
399.90	117.03
400.09	100.64
400.28	168.52
400.47	107.66
400.67	119.37
400.86	161.50
401.05	159.16
401.24	114.69
401.44	222.35
401.63	131.07
401.82	198.95
402.01	88.94
402.21	133.41
402.40	215.33
402.59	142.77
402.78	124.05
402.97	114.69
403.17	102.98
403.36	88.94
403.55	91.28
403.74	67.88
403.93	189.58
404.13	191.92
404.32	180.22
404.51	124.05
404.70	156.82
404.89	121.71
405.09	198.95
405.28	131.07
405.47	117.03
405.66	51.49
405.85	198.95
406.05	117.03
406.24	84.26
406.43	147.45
406.62	140.43
406.81	208.31
407.00	191.92
407.20	114.69
407.39	142.77
407.58	79.58
407.77	203.63
407.96	173.20
408.15	140.43
408.34	105.32
408.54	168.52
408.73	58.51
408.92	112.35
409.11	166.18
409.30	224.69
409.49	88.94
409.68	175.54
409.87	93.62
410.07	131.07
410.26	121.71
410.45	138.09
410.64	114.69
410.83	159.16
411.02	91.28
411.21	194.26
411.40	110.01
411.59	133.41
411.78	91.28
411.98	168.52
412.17	117.03
412.36	147.45
412.55	138.09
412.74	175.54
412.93	187.24
413.12	124.05
413.31	168.52
413.50	133.41
413.69	119.37
413.88	175.54
414.07	107.66
414.26	81.92
414.45	135.75
414.64	77.24
414.83	170.86
415.02	133.41
415.22	159.16
415.41	152.13
415.60	135.75
415.79	147.45
415.98	142.77
416.17	88.94
416.36	70.22
416.55	102.98
416.74	133.41
416.93	91.28
417.12	140.43
417.31	126.39
417.50	93.62
417.69	245.76
417.88	189.58
418.07	159.16
418.26	98.30
418.45	231.71
418.64	196.60
418.83	142.77
419.02	110.01
419.21	117.03
419.39	107.66
419.58	138.09
419.77	102.98
419.96	203.63
420.15	208.31
420.34	102.98
420.53	163.84
420.72	145.11
420.91	67.88
421.10	107.66
421.29	105.32
421.48	173.20
421.67	159.16
421.86	142.77
422.05	126.39
422.24	140.43
422.43	121.71
422.61	98.30
422.80	117.03
422.99	117.03
423.18	110.01
423.37	175.54
423.56	105.32
423.75	117.03
423.94	79.58
424.13	91.28
424.32	119.37
424.50	142.77
424.69	133.41
424.88	187.24
425.07	231.71
425.26	175.54
425.45	220.01
425.64	177.88
425.83	166.18
426.01	138.09
426.20	114.69
426.39	208.31
426.58	152.13
426.77	173.20
426.96	112.35
427.15	119.37
427.33	70.22
427.52	154.48
427.71	138.09
427.90	119.37
428.09	110.01
428.28	107.66
428.46	121.71
428.65	154.48
428.84	117.03
429.03	105.32
429.22	152.13
429.40	119.37
429.59	77.24
429.78	147.45
429.97	95.96
430.16	117.03
430.34	154.48
430.53	191.92
430.72	215.33
430.91	145.11
431.10	65.54
431.28	149.79
431.47	180.22
431.66	177.88
431.85	208.31
432.03	77.24
432.22	180.22
432.41	140.43
432.60	152.13
432.79	187.24
432.97	187.24
433.16	210.65
433.35	180.22
433.54	121.71
433.72	114.69
433.91	149.79
434.10	159.16
434.28	177.88
434.47	112.35
434.66	163.84
434.85	133.41
435.03	121.71
435.22	119.37
435.41	170.86
435.59	74.90
435.78	156.82
435.97	138.09
436.16	184.90
436.34	173.20
436.53	140.43
436.72	126.39
436.90	252.78
437.09	138.09
437.28	145.11
437.46	138.09
437.65	131.07
437.84	88.94
438.02	79.58
438.21	145.11
438.40	152.13
438.58	91.28
438.77	86.60
438.96	105.32
439.14	133.41
439.33	140.43
439.52	154.48
439.70	124.05
439.89	126.39
440.08	131.07
440.26	131.07
440.45	175.54
440.63	114.69
440.82	147.45
441.01	159.16
441.19	51.49
441.38	100.64
441.57	161.50
441.75	177.88
441.94	194.26
442.12	98.30
442.31	128.73
442.50	173.20
442.68	138.09
442.87	107.66
443.05	126.39
443.24	184.90
443.43	79.58
443.61	140.43
443.80	138.09
443.98	182.56
444.17	114.69
444.35	128.73
444.54	117.03
444.73	91.28
444.91	152.13
445.10	117.03
445.28	135.75
445.47	138.09
445.65	140.43
445.84	112.35
446.02	152.13
446.21	154.48
446.39	128.73
446.58	166.18
446.77	121.71
446.95	138.09
447.14	184.90
447.32	187.24
447.51	168.52
447.69	88.94
447.88	126.39
448.06	170.86
448.25	142.77
448.43	135.75
448.62	154.48
448.80	163.84
448.99	156.82
449.17	93.62
449.36	79.58
449.54	163.84
449.73	147.45
449.91	121.71
450.10	140.43
450.28	210.65
450.46	138.09
450.65	135.75
450.83	191.92
451.02	159.16
451.20	100.64
451.39	189.58
451.57	105.32
451.76	135.75
451.94	135.75
452.13	91.28
452.31	161.50
452.49	210.65
452.68	91.28
452.86	119.37
453.05	210.65
453.23	117.03
453.42	149.79
453.60	56.17
453.78	159.16
453.97	81.92
454.15	180.22
454.34	156.82
454.52	117.03
454.70	196.60
454.89	189.58
455.07	128.73
455.26	117.03
455.44	133.41
455.62	119.37
455.81	147.45
455.99	166.18
456.17	138.09
456.36	189.58
456.54	126.39
456.73	95.96
456.91	173.20
457.09	149.79
457.28	140.43
457.46	147.45
457.64	128.73
457.83	88.94
458.01	177.88
458.19	187.24
458.38	112.35
458.56	133.41
458.74	107.66
458.93	184.90
459.11	156.82
459.29	159.16
459.48	159.16
459.66	180.22
459.84	114.69
460.03	196.60
460.21	131.07
460.39	156.82
460.57	191.92
460.76	203.63
460.94	88.94
461.12	170.86
461.31	126.39
461.49	79.58
461.67	98.30
461.85	194.26
462.04	154.48
462.22	603.86
462.40	98.30
462.59	201.29
462.77	133.41
462.95	95.96
463.13	86.60
463.32	133.41
463.50	180.22
463.68	140.43
463.86	159.16
464.05	121.71
464.23	147.45
464.41	138.09
464.59	49.15
464.78	138.09
464.96	159.16
465.14	175.54
465.32	189.58
465.50	177.88
465.69	182.56
465.87	114.69
466.05	119.37
466.23	95.96
466.41	170.86
466.60	79.58
466.78	131.07
466.96	187.24
467.14	154.48
467.32	159.16
467.51	145.11
467.69	121.71
467.87	170.86
468.05	107.66
468.23	220.01
468.41	238.73
468.60	110.01
468.78	119.37
468.96	152.13
469.14	142.77
469.32	42.13
469.50	84.26
469.69	138.09
469.87	93.62
470.05	124.05
470.23	124.05
470.41	81.92
470.59	170.86
470.77	93.62
470.95	138.09
471.14	203.63
471.32	112.35
471.50	170.86
471.68	156.82
471.86	58.51
472.04	149.79
472.22	98.30
472.40	93.62
472.58	180.22
472.77	32.77
472.95	110.01
473.13	196.60
473.31	201.29
473.49	117.03
473.67	105.32
473.85	140.43
474.03	175.54
474.21	128.73
474.39	168.52
474.57	161.50
474.75	107.66
474.93	84.26
475.12	74.90
475.30	102.98
475.48	222.35
475.66	175.54
475.84	105.32
476.02	180.22
476.20	93.62
476.38	145.11
476.56	159.16
476.74	60.85
476.92	168.52
477.10	114.69
477.28	138.09
477.46	81.92
477.64	107.66
477.82	135.75
478.00	58.51
478.18	212.99
478.36	154.48
478.54	121.71
478.72	152.13
478.90	187.24
479.08	126.39
479.26	175.54
479.44	100.64
479.62	67.88
479.80	121.71
479.98	95.96
480.16	145.11
480.34	142.77
480.52	112.35
480.70	128.73
480.88	88.94
481.06	128.73
481.24	121.71
481.41	145.11
481.59	102.98
481.77	133.41
481.95	117.03
482.13	189.58
482.31	133.41
482.49	205.97
482.67	152.13
482.85	91.28
483.03	128.73
483.21	112.35
483.39	138.09
483.57	135.75
483.74	112.35
483.92	72.56
484.10	65.54
484.28	180.22
484.46	95.96
484.64	173.20
484.82	107.66
485.00	60.85
485.18	133.41
485.35	121.71
485.53	217.67
485.71	154.48
485.89	135.75
486.07	152.13
486.25	159.16
486.43	156.82
486.61	161.50
486.78	142.77
486.96	124.05
487.14	145.11
487.32	112.35
487.50	161.50
487.68	154.48
487.85	142.77
488.03	203.63
488.21	224.69
488.39	105.32
488.57	187.24
488.75	102.98
488.92	250.44
489.10	161.50
489.28	227.03
489.46	110.01
489.64	145.11
489.81	112.35
489.99	102.98
490.17	128.73
490.35	191.92
490.53	79.58
490.70	191.92
490.88	187.24
491.06	98.30
491.24	196.60
491.41	147.45
491.59	196.60
491.77	198.95
491.95	159.16
492.13	112.35
492.30	166.18
492.48	168.52
492.66	173.20
492.84	98.30
493.01	86.60
493.19	152.13
493.37	168.52
493.54	166.18
493.72	88.94
493.90	234.05
494.08	107.66
494.25	110.01
494.43	154.48
494.61	112.35
494.79	121.71
494.96	182.56
495.14	203.63
495.32	147.45
495.49	128.73
495.67	114.69
495.85	191.92
496.02	152.13
496.20	105.32
496.38	86.60
496.55	126.39
496.73	135.75
496.91	147.45
497.09	173.20
497.26	210.65
497.44	124.05
497.62	128.73
497.79	86.60
497.97	154.48
498.14	194.26
498.32	196.60
498.50	102.98
498.67	142.77
498.85	95.96
499.03	138.09
499.20	149.79
499.38	177.88
499.56	121.71
499.73	201.29
499.91	140.43
500.08	184.90
500.26	166.18
500.44	168.52
500.61	81.92
500.79	140.43
500.97	166.18
501.14	156.82
501.32	184.90
501.49	159.16
501.67	138.09
501.84	112.35
502.02	121.71
502.20	163.84
502.37	163.84
502.55	117.03
502.72	161.50
502.90	166.18
503.07	112.35
503.25	194.26
503.43	156.82
503.60	180.22
503.78	154.48
503.95	100.64
504.13	30.43
504.30	175.54
504.48	161.50
504.65	217.67
504.83	161.50
505.01	138.09
505.18	154.48
505.36	175.54
505.53	184.90
505.71	21.06
505.88	184.90
506.06	110.01
506.23	138.09
506.41	135.75
506.58	119.37
506.76	110.01
506.93	170.86
507.11	203.63
507.28	175.54
507.46	154.48
507.63	175.54
507.81	105.32
507.98	124.05
508.16	112.35
508.33	105.32
508.50	142.77
508.68	114.69
508.85	100.64
509.03	77.24
509.20	121.71
509.38	166.18
509.55	156.82
509.73	154.48
509.90	177.88
510.08	175.54
510.25	117.03
510.42	145.11
510.60	175.54
510.77	154.48
510.95	163.84
511.12	142.77
511.30	124.05
511.47	245.76
511.64	205.97
511.82	161.50
511.99	98.30
512.17	128.73
512.34	168.52
512.51	128.73
512.69	156.82
512.86	182.56
513.04	180.22
513.21	173.20
513.38	156.82
513.56	98.30
513.73	77.24
513.90	98.30
514.08	110.01
514.25	91.28
514.43	147.45
514.60	117.03
514.77	72.56
514.95	154.48
515.12	126.39
515.29	142.77
515.47	138.09
515.64	138.09
515.81	112.35
515.99	198.95
516.16	117.03
516.33	208.31
516.51	161.50
516.68	131.07
516.85	194.26
517.03	175.54
517.20	177.88
517.37	182.56
517.54	170.86
517.72	100.64
517.89	140.43
518.06	79.58
518.24	170.86
518.41	187.24
518.58	189.58
518.75	98.30
518.93	100.64
519.10	196.60
519.27	107.66
519.45	88.94
519.62	184.90
519.79	189.58
519.96	140.43
520.14	145.11
520.31	156.82
520.48	168.52
520.65	149.79
520.83	161.50
521.00	84.26
521.17	161.50
521.34	102.98
521.52	131.07
521.69	114.69
521.86	135.75
522.03	182.56
522.20	173.20
522.38	205.97
522.55	117.03
522.72	70.22
522.89	93.62
523.07	196.60
523.24	187.24
523.41	152.13
523.58	135.75
523.75	173.20
523.92	60.85
524.10	110.01
524.27	140.43
524.44	163.84
524.61	42.13
524.78	107.66
524.96	119.37
525.13	112.35
525.30	201.29
525.47	149.79
525.64	117.03
525.81	173.20
525.98	133.41
526.16	156.82
526.33	145.11
526.50	95.96
526.67	142.77
526.84	126.39
527.01	117.03
527.18	163.84
527.36	112.35
527.53	126.39
527.70	217.67
527.87	37.45
528.04	287.89
528.21	100.64
528.38	140.43
528.55	175.54
528.72	140.43
528.89	102.98
529.07	84.26
529.24	205.97
529.41	173.20
529.58	126.39
529.75	159.16
529.92	114.69
530.09	121.71
530.26	105.32
530.43	180.22
530.60	133.41
530.77	128.73
530.94	217.67
531.11	170.86
531.28	194.26
531.46	191.92
531.63	173.20
531.80	140.43
531.97	187.24
532.14	152.13
532.31	102.98
532.48	156.82
532.65	194.26
532.82	168.52
532.99	110.01
533.16	170.86
533.33	102.98
533.50	220.01
533.67	245.76
533.84	245.76
534.01	222.35
534.18	217.67
534.35	292.57
534.52	131.07
534.69	77.24
534.86	102.98
535.03	196.60
535.20	156.82
535.37	72.56
535.54	95.96
535.71	170.86
535.88	203.63
536.05	161.50
536.22	70.22
536.38	126.39
536.55	126.39
536.72	180.22
536.89	205.97
537.06	77.24
537.23	131.07
537.40	156.82
537.57	95.96
537.74	163.84
537.91	184.90
538.08	110.01
538.25	145.11
538.42	126.39
538.59	170.86
538.75	126.39
538.92	135.75
539.09	215.33
539.26	215.33
539.43	339.38
539.60	627.26
539.77	730.25
539.94	648.33
540.11	346.40
540.28	332.36
540.44	208.31
540.61	198.95
540.78	114.69
540.95	149.79
541.12	177.88
541.29	135.75
541.46	191.92
541.62	121.71
541.79	100.64
541.96	91.28
542.13	112.35
542.30	79.58
542.47	187.24
542.63	145.11
542.80	119.37
542.97	194.26
543.14	98.30
543.31	189.58
543.48	86.60
543.64	128.73
543.81	189.58
543.98	135.75
544.15	163.84
544.32	133.41
544.48	159.16
544.65	65.54
544.82	159.16
544.99	105.32
545.16	126.39
545.32	140.43
545.49	147.45
545.66	177.88
545.83	124.05
546.00	147.45
546.16	112.35
546.33	128.73
546.50	182.56
546.67	229.37
546.83	173.20
547.00	217.67
547.17	201.29
547.34	173.20
547.50	135.75
547.67	229.37
547.84	250.44
548.00	189.58
548.17	121.71
548.34	81.92
548.51	147.45
548.67	107.66
548.84	145.11
549.01	159.16
549.18	117.03
549.34	166.18
549.51	152.13
549.68	198.95
549.84	88.94
550.01	77.24
550.18	271.50
550.34	198.95
550.51	138.09
550.68	112.35
550.84	154.48
551.01	114.69
551.18	170.86
551.34	168.52
551.51	161.50
551.68	159.16
551.84	191.92
552.01	126.39
552.18	114.69
552.34	187.24
552.51	135.75
552.68	138.09
552.84	79.58
553.01	107.66
553.18	138.09
553.34	154.48
553.51	126.39
553.67	154.48
553.84	196.60
554.01	205.97
554.17	135.75
554.34	128.73
554.51	110.01
554.67	149.79
554.84	175.54
555.00	196.60
555.17	159.16
555.33	135.75
555.50	140.43
555.67	229.37
555.83	224.69
556.00	161.50
556.16	273.84
556.33	145.11
556.50	154.48
556.66	182.56
556.83	65.54
556.99	119.37
557.16	182.56
557.32	93.62
557.49	77.24
557.65	170.86
557.82	154.48
557.98	128.73
558.15	114.69
558.32	110.01
558.48	234.05
558.65	187.24
558.81	170.86
558.98	161.50
559.14	175.54
559.31	156.82
559.47	191.92
559.64	133.41
559.80	53.83
559.97	161.50
560.13	166.18
560.30	105.32
560.46	100.64
560.63	205.97
560.79	217.67
560.96	65.54
561.12	67.88
561.29	95.96
561.45	138.09
561.61	142.77
561.78	208.31
561.94	56.17
562.11	121.71
562.27	208.31
562.44	105.32
562.60	105.32
562.77	173.20
562.93	212.99
563.10	145.11
563.26	138.09
563.42	119.37
563.59	88.94
563.75	170.86
563.92	152.13
564.08	203.63
564.24	175.54
564.41	140.43
564.57	154.48
564.74	81.92
564.90	131.07
565.07	175.54
565.23	191.92
565.39	159.16
565.56	175.54
565.72	102.98
565.88	187.24
566.05	156.82
566.21	86.60
566.38	175.54
566.54	166.18
566.70	95.96
566.87	105.32
567.03	77.24
567.19	147.45
567.36	84.26
567.52	152.13
567.68	173.20
567.85	124.05
568.01	114.69
568.17	77.24
568.34	175.54
568.50	198.95
568.66	135.75
568.83	243.42
568.99	154.48
569.15	210.65
569.32	128.73
569.48	159.16
569.64	98.30
569.81	170.86
569.97	124.05
570.13	159.16
570.30	142.77
570.46	142.77
570.62	126.39
570.78	161.50
570.95	49.15
571.11	180.22
571.27	205.97
571.43	135.75
571.60	187.24
571.76	79.58
571.92	131.07
572.09	84.26
572.25	102.98
572.41	102.98
572.57	180.22
572.74	222.35
572.90	131.07
573.06	156.82
573.22	166.18
573.38	133.41
573.55	198.95
573.71	161.50
573.87	168.52
574.03	121.71
574.20	161.50
574.36	161.50
574.52	166.18
574.68	208.31
574.84	84.26
575.01	161.50
575.17	107.66
575.33	152.13
575.49	177.88
575.65	173.20
575.82	231.71
575.98	311.29
576.14	451.72
576.30	301.93
576.46	255.12
576.62	212.99
576.79	180.22
576.95	177.88
577.11	72.56
577.27	131.07
577.43	170.86
577.59	208.31
577.75	250.44
577.92	147.45
578.08	128.73
578.24	156.82
578.40	184.90
578.56	161.50
578.72	234.05
578.88	175.54
579.04	133.41
579.21	243.42
579.37	191.92
579.53	194.26
579.69	201.29
579.85	175.54
580.01	257.46
580.17	187.24
580.33	210.65
580.49	196.60
580.65	163.84
580.82	208.31
580.98	220.01
581.14	147.45
581.30	205.97
581.46	283.20
581.62	344.06
581.78	306.61
581.94	271.50
582.10	198.95
582.26	245.76
582.42	196.60
582.58	266.82
582.74	248.10
582.90	278.52
583.06	259.80
583.22	271.50
583.38	332.36
583.54	280.86
583.70	301.93
583.86	369.80
584.02	322.99
584.18	667.05
584.34	1060.26
584.50	6827.34
584.66	23487.28
584.82	39161.84
584.98	40669.15
585.14	25003.94
585.30	13352.76
585.46	6370.94
585.62	2583.95
585.78	1018.13
585.94	725.57
586.10	559.39
586.26	379.17
586.42	367.46
586.58	301.93
586.74	292.57
586.90	243.42
587.06	297.25
587.22	320.65
587.38	348.74
587.54	1289.64
587.70	2497.35
587.86	3283.77
588.02	2394.37
588.18	1493.26
588.34	896.43
588.49	437.68
588.65	292.57
588.81	220.01
588.97	184.90
589.13	201.29
589.29	262.14
589.45	215.33
589.61	231.71
589.77	301.93
589.93	273.84
590.08	252.78
590.24	301.93
590.40	229.37
590.56	250.44
590.72	79.58
590.88	187.24
591.04	241.08
591.20	196.60
591.35	217.67
591.51	210.65
591.67	177.88
591.83	184.90
591.99	173.20
592.15	189.58
592.31	184.90
592.46	231.71
592.62	180.22
592.78	177.88
592.94	166.18
593.10	166.18
593.26	159.16
593.41	191.92
593.57	210.65
593.73	1013.45
593.89	2951.42
594.05	4798.10
594.20	4924.49
594.36	3353.99
594.52	1935.62
594.68	1078.99
594.84	580.45
594.99	341.72
595.15	229.37
595.31	273.84
595.47	196.60
595.62	107.66
595.78	152.13
595.94	227.03
596.10	229.37
596.25	266.82
596.41	184.90
596.57	177.88
596.73	220.01
596.88	599.18
597.04	1060.26
597.20	1317.72
597.36	1011.11
597.51	603.86
597.67	423.64
597.83	290.23
597.99	203.63
598.14	145.11
598.30	229.37
598.46	210.65
598.61	222.35
598.77	135.75
598.93	173.20
599.09	128.73
599.24	217.67
599.40	184.90
599.56	170.86
599.71	152.13
599.87	177.88
600.03	131.07
600.18	182.56
600.34	140.43
600.50	138.09
600.65	138.09
600.81	182.56
600.97	107.66
601.12	93.62
601.28	203.63
601.44	194.26
601.59	196.60
601.75	217.67
601.91	84.26
602.06	138.09
602.22	390.87
602.37	763.01
602.53	1277.93
602.69	1390.28
602.84	1022.81
603.00	678.76
603.16	484.49
603.31	259.80
603.47	182.56
603.62	112.35
603.78	65.54
603.94	220.01
604.09	215.33
604.25	142.77
604.40	102.98
604.56	189.58
604.71	128.73
604.87	184.90
605.03	220.01
605.18	224.69
605.34	149.79
605.49	203.63
605.65	166.18
605.80	131.07
605.96	168.52
606.12	152.13
606.27	236.39
606.43	271.50
606.58	519.60
606.74	1582.20
606.89	3169.09
607.05	4095.94
607.20	3405.48
607.36	2335.85
607.51	1476.88
607.67	826.21
607.82	470.45
607.98	313.63
608.13	283.20
608.29	203.63
608.44	215.33
608.60	287.89
608.75	786.42
608.91	2581.61
609.06	5088.32
609.22	7122.25
609.37	5860.70
609.53	3974.23
609.68	2609.70
609.84	1582.20
609.99	765.36
610.15	430.66
610.30	266.82
610.46	273.84
610.61	210.65
610.76	203.63
610.92	203.63
611.07	142.77
611.23	262.14
611.38	182.56
611.54	191.92
611.69	191.92
611.84	196.60
612.00	156.82
612.15	231.71
612.31	325.33
612.46	393.21
612.62	280.86
612.77	294.91
612.92	351.08
613.08	334.70
613.23	231.71
613.39	554.71
613.54	2696.30
613.69	6780.53
613.85	10839.02
614.00	10869.45
614.15	7756.54
614.31	4898.74
614.46	3084.83
614.62	1561.14
614.77	816.85
614.92	493.85
615.08	325.33
615.23	245.76
615.38	266.82
615.54	664.71
615.69	1526.03
615.84	2499.69
616.00	3040.36
616.15	2359.26
616.30	1579.86
616.46	1121.12
616.61	648.33
616.76	386.19
616.92	168.52
617.07	255.12
617.22	198.95
617.37	161.50
617.53	278.52
617.68	154.48
617.83	191.92
617.99	210.65
618.14	189.58
618.29	227.03
618.45	154.48
618.60	131.07
618.75	119.37
618.90	173.20
619.06	163.84
619.21	229.37
619.36	147.45
619.51	175.54
619.67	201.29
619.82	128.73
619.97	170.86
620.12	220.01
620.28	234.05
620.43	220.01
620.58	163.84
620.73	187.24
620.89	348.74
621.04	802.80
621.19	1556.46
621.34	1727.32
621.49	1432.41
621.65	1100.05
621.80	784.08
621.95	442.36
622.10	327.68
622.25	196.60
622.41	177.88
622.56	222.35
622.71	231.71
622.86	234.05
623.01	177.88
623.16	203.63
623.32	124.05
623.47	175.54
623.62	102.98
623.77	187.24
623.92	234.05
624.07	128.73
624.23	250.44
624.38	133.41
624.53	175.54
624.68	194.26
624.83	180.22
624.98	145.11
625.13	152.13
625.29	161.50
625.44	152.13
625.59	205.97
625.74	409.59
625.89	1549.43
626.04	3541.23
626.19	5479.19
626.34	5619.63
626.49	4248.07
626.65	2663.53
626.80	1797.53
626.95	1027.50
627.10	521.94
627.25	383.85
627.40	231.71
627.55	236.39
627.70	175.54
627.85	191.92
628.00	131.07
628.15	117.03
628.30	205.97
628.45	126.39
628.60	131.07
628.76	187.24
628.91	184.90
629.06	184.90
629.21	187.24
629.36	250.44
629.51	189.58
629.66	353.42
629.81	819.19
629.96	1301.34
630.11	1549.43
630.26	1301.34
630.41	964.30
630.56	681.10
630.71	512.58
630.86	269.16
631.01	215.33
631.16	210.65
631.31	198.95
631.46	210.65
631.61	81.92
631.76	135.75
631.91	161.50
632.06	212.99
632.21	212.99
632.36	208.31
632.51	308.95
632.66	819.19
632.81	2024.56
632.96	3356.33
633.10	3822.09
633.25	3098.87
633.40	2115.84
633.55	1519.01
633.70	870.68
633.85	498.53
634.00	262.14
634.15	222.35
634.30	229.37
634.45	163.84
634.60	196.60
634.75	173.20
634.90	210.65
635.05	133.41
635.19	154.48
635.34	196.60
635.49	182.56
635.64	166.18
635.79	187.24
635.94	117.03
636.09	208.31
636.24	238.73
636.39	117.03
636.53	128.73
636.68	189.58
636.83	154.48
636.98	217.67
637.13	245.76
637.28	217.67
637.43	629.60
637.57	2258.62
637.72	4770.01
637.87	6722.02
638.02	6693.93
638.17	4978.32
638.32	3346.97
638.46	2188.40
638.61	1207.72
638.76	753.65
638.91	407.25
639.06	266.82
639.20	360.44
639.35	912.81
639.50	3236.96
639.65	6946.71
639.80	10380.28
639.94	9919.19
640.09	7665.25
640.24	5095.35
640.39	3295.47
640.54	1884.13
640.68	961.96
640.83	517.26
640.98	287.89
641.13	308.95
641.27	166.18
641.42	189.58
641.57	217.67
641.72	194.26
641.86	215.33
642.01	184.90
642.16	201.29
642.31	194.26
642.45	184.90
642.60	156.82
642.75	135.75
642.90	212.99
643.04	173.20
643.19	201.29
643.34	236.39
643.48	203.63
643.63	154.48
643.78	140.43
643.93	154.48
644.07	182.56
644.22	175.54
644.37	175.54
644.51	191.92
644.66	184.90
644.81	131.07
644.95	156.82
645.10	170.86
645.25	182.56
645.39	182.56
645.54	119.37
645.69	252.78
645.83	117.03
645.98	278.52
646.13	203.63
646.27	152.13
646.42	184.90
646.57	112.35
646.71	126.39
646.86	74.90
647.00	161.50
647.15	170.86
647.30	102.98
647.44	196.60
647.59	238.73
647.74	105.32
647.88	177.88
648.03	187.24
648.17	182.56
648.32	163.84
648.47	135.75
648.61	194.26
648.76	198.95
648.90	203.63
649.05	133.41
649.20	180.22
649.34	191.92
649.49	149.79
649.63	163.84
649.78	325.33
649.92	1327.08
650.07	3253.34
650.21	5167.90
650.36	5603.24
650.51	4318.29
650.65	3000.57
650.80	2015.20
650.94	1252.19
651.09	737.27
651.23	362.78
651.38	208.31
651.52	152.13
651.67	266.82
651.81	180.22
651.96	177.88
652.10	159.16
652.25	147.45
652.39	262.14
652.54	468.11
652.68	1069.62
652.83	1757.74
652.97	2157.97
653.12	1717.95
653.26	1219.42
653.41	851.96
653.55	559.39
653.70	390.87
653.84	266.82
653.99	182.56
654.13	112.35
654.27	189.58
654.42	166.18
654.56	124.05
654.71	215.33
654.85	149.79
655.00	166.18
655.14	147.45
655.29	124.05
655.43	191.92
655.57	180.22
655.72	154.48
655.86	184.90
656.01	177.88
656.15	91.28
656.30	163.84
656.44	147.45
656.58	145.11
656.73	112.35
656.87	166.18
657.01	65.54
657.16	220.01
657.30	215.33
657.45	138.09
657.59	173.20
657.73	196.60
657.88	138.09
658.02	220.01
658.16	177.88
658.31	205.97
658.45	131.07
658.60	84.26
658.74	114.69
658.88	147.45
659.03	168.52
659.17	655.35
659.31	1500.28
659.46	2583.95
659.60	2904.60
659.74	2385.01
659.89	1739.02
660.03	1114.10
660.17	732.59
660.32	479.81
660.46	308.95
660.60	210.65
660.74	212.99
660.89	196.60
661.03	187.24
661.17	215.33
661.32	212.99
661.46	177.88
661.60	159.16
661.74	166.18
661.89	142.77
662.03	145.11
662.17	152.13
662.31	168.52
662.46	149.79
662.60	177.88
662.74	187.24
662.88	194.26
663.03	140.43
663.17	173.20
663.31	217.67
663.45	173.20
663.60	184.90
663.74	142.77
663.88	93.62
664.02	124.05
664.17	135.75
664.31	135.75
664.45	156.82
664.59	201.29
664.73	168.52
664.88	201.29
665.02	156.82
665.16	117.03
665.30	191.92
665.44	175.54
665.59	215.33
665.73	257.46
665.87	152.13
666.01	278.52
666.15	203.63
666.29	140.43
666.44	266.82
666.58	175.54
666.72	95.96
666.86	210.65
667.00	346.40
667.14	1153.88
667.28	2675.23
667.43	4442.34
667.57	5235.78
667.71	4091.26
667.85	2967.80
667.99	1785.83
668.13	1050.90
668.27	711.52
668.41	472.79
668.56	376.83
668.70	269.16
668.84	201.29
668.98	77.24
669.12	133.41
669.26	126.39
669.40	227.03
669.54	161.50
669.68	126.39
669.82	142.77
669.96	238.73
670.10	121.71
670.25	236.39
670.39	201.29
670.53	184.90
670.67	107.66
670.81	142.77
670.95	388.53
671.09	1102.39
671.23	2174.36
671.37	3122.27
671.51	3047.38
671.65	2312.45
671.79	1591.56
671.93	950.26
672.07	596.84
672.21	372.15
672.35	320.65
672.49	215.33
672.63	252.78
672.77	269.16
672.91	152.13
673.05	180.22
673.19	161.50
673.33	191.92
673.47	161.50
673.61	145.11
673.75	105.32
673.89	149.79
674.03	147.45
674.17	196.60
674.31	196.60
674.45	191.92
674.59	170.86
674.73	196.60
674.87	234.05
675.01	285.55
675.15	180.22
675.29	152.13
675.43	236.39
675.56	100.64
675.70	175.54
675.84	114.69
675.98	175.54
676.12	112.35
676.26	173.20
676.40	147.45
676.54	107.66
676.68	126.39
676.82	149.79
676.96	119.37
677.10	149.79
677.23	147.45
677.37	112.35
677.51	138.09
677.65	173.20
677.79	88.94
677.93	117.03
678.07	124.05
678.21	98.30
678.34	182.56
678.48	138.09
678.62	107.66
678.76	170.86
678.90	105.32
679.04	100.64
679.18	63.19
679.31	152.13
679.45	147.45
679.59	140.43
679.73	187.24
679.87	114.69
680.00	135.75
680.14	159.16
680.28	166.18
680.42	110.01
680.56	173.20
680.70	95.96
680.83	133.41
680.97	175.54
681.11	110.01
681.25	152.13
681.39	93.62
681.52	147.45
681.66	184.90
681.80	161.50
681.94	46.81
682.07	128.73
682.21	168.52
682.35	154.48
682.49	81.92
682.62	161.50
682.76	168.52
682.90	191.92
683.04	91.28
683.17	163.84
683.31	84.26
683.45	184.90
683.59	154.48
683.72	161.50
683.86	161.50
684.00	231.71
684.13	236.39
684.27	173.20
684.41	145.11
684.55	149.79
684.68	203.63
684.82	264.48
684.96	173.20
685.09	154.48
685.23	191.92
685.37	149.79
685.50	201.29
685.64	107.66
685.78	168.52
685.91	168.52
686.05	166.18
686.19	88.94
686.32	142.77
686.46	196.60
686.60	173.20
686.73	142.77
686.87	220.01
687.01	142.77
687.14	105.32
687.28	184.90
687.42	107.66
687.55	212.99
687.69	177.88
687.82	112.35
687.96	159.16
688.10	170.86
688.23	168.52
688.37	128.73
688.50	142.77
688.64	81.92
688.78	124.05
688.91	149.79
689.05	170.86
689.18	131.07
689.32	135.75
689.46	124.05
689.59	131.07
689.73	154.48
689.86	74.90
690.00	173.20
690.13	84.26
690.27	124.05
690.41	159.16
690.54	201.29
690.68	128.73
690.81	154.48
690.95	112.35
691.08	93.62
691.22	110.01
691.35	149.79
691.49	149.79
691.62	135.75
691.76	163.84
691.89	124.05
692.03	93.62
692.16	180.22
692.30	433.00
692.43	1123.46
692.57	1682.85
692.70	2153.29
692.84	1937.96
692.97	1528.37
693.11	1109.41
693.24	840.25
693.38	559.39
693.51	409.59
693.65	334.70
693.78	217.67
693.92	173.20
694.05	161.50
694.19	156.82
694.32	110.01
694.45	112.35
694.59	145.11
694.72	98.30
694.86	98.30
694.99	220.01
695.13	180.22
695.26	152.13
695.39	147.45
695.53	210.65
695.66	163.84
695.80	205.97
695.93	175.54
696.07	224.69
696.20	332.36
696.33	362.78
696.47	292.57
696.60	227.03
696.73	212.99
696.87	124.05
697.00	154.48
697.14	145.11
697.27	152.13
697.40	201.29
697.54	105.32
697.67	133.41
697.80	168.52
697.94	156.82
698.07	147.45
698.21	112.35
698.34	138.09
698.47	131.07
698.61	105.32
698.74	77.24
698.87	163.84
699.01	138.09
699.14	60.85
699.27	124.05
699.40	257.46
699.54	119.37
699.67	159.16
699.80	128.73
699.94	112.35
700.07	175.54
700.20	84.26
700.34	152.13
700.47	98.30
700.60	46.81
700.73	156.82
700.87	196.60
701.00	177.88
701.13	234.05
701.26	124.05
701.40	112.35
701.53	152.13
701.66	138.09
701.79	121.71
701.93	189.58
702.06	198.95
702.19	257.46
702.32	278.52
702.46	332.36
702.59	543.00
702.72	1434.75
702.85	2605.02
702.99	3756.56
703.12	4187.22
703.25	3466.33
703.38	2928.01
703.51	2282.02
703.65	1729.66
703.78	1217.08
703.91	706.84
704.04	521.94
704.17	407.25
704.31	196.60
704.44	191.92
704.57	252.78
704.70	170.86
704.83	201.29
704.96	212.99
705.10	161.50
705.23	135.75
>>>>>End Processed Spectral Data<<<<<
