SpectraSuite Data File
++++++++++++++++++++++++++++++++++++
Date: Fri Oct 04 12:13:41 GMT-05:00 2013
User: price-jones
Dark Spectrum Present: No
Reference Spectrum Present: No
Number of Sampled Component Spectra: 1
Spectrometers: USB2+H05261
Integration Time (usec): 10000 (USB2+H05261)
Spectra Averaged: 1 (USB2+H05261)
Boxcar Smoothing: 0 (USB2+H05261)
Correct for Electrical Dark: No (USB2+H05261)
Strobe/Lamp Enabled: No (USB2+H05261)
Correct for Detector Non-linearity: No (USB2+H05261)
Correct for Stray Light: No (USB2+H05261)
Number of Pixels in Processed Spectrum: 2048
>>>>>Begin Processed Spectral Data<<<<<
365.73	16.38
365.92	16.38
366.12	16.38
366.32	0.00
366.52	0.00
366.72	0.00
366.91	0.00
367.11	0.00
367.31	0.00
367.51	0.00
367.70	0.00
367.90	0.00
368.10	0.00
368.30	0.00
368.49	0.00
368.69	0.00
368.89	0.00
369.09	0.00
369.28	0.00
369.48	0.00
369.68	0.00
369.87	0.00
370.07	0.00
370.27	0.00
370.47	0.00
370.66	0.00
370.86	0.00
371.06	0.00
371.25	0.00
371.45	0.00
371.65	0.00
371.84	9.36
372.04	60.85
372.24	11.70
372.44	42.13
372.63	16.38
372.83	0.00
373.03	0.00
373.22	88.94
373.42	0.00
373.62	14.04
373.81	0.00
374.01	0.00
374.21	0.00
374.40	44.47
374.60	23.41
374.79	49.15
374.99	53.83
375.19	44.47
375.38	16.38
375.58	18.72
375.78	46.81
375.97	56.17
376.17	70.22
376.37	0.00
376.56	14.04
376.76	0.00
376.95	42.13
377.15	0.00
377.35	53.83
377.54	4.68
377.74	18.72
377.93	0.00
378.13	70.22
378.33	7.02
378.52	18.72
378.72	0.00
378.91	21.06
379.11	21.06
379.31	0.00
379.50	0.00
379.70	9.36
379.89	9.36
380.09	4.68
380.28	70.22
380.48	7.02
380.68	28.09
380.87	0.00
381.07	49.15
381.26	18.72
381.46	35.11
381.65	42.13
381.85	0.00
382.04	0.00
382.24	58.51
382.43	16.38
382.63	0.00
382.83	28.09
383.02	30.43
383.22	44.47
383.41	63.19
383.61	23.41
383.80	0.00
384.00	28.09
384.19	56.17
384.39	14.04
384.58	14.04
384.78	0.00
384.97	0.00
385.17	18.72
385.36	28.09
385.56	9.36
385.75	0.00
385.95	0.00
386.14	0.00
386.34	0.00
386.53	16.38
386.72	0.00
386.92	0.00
387.11	37.45
387.31	0.00
387.50	56.17
387.70	7.02
387.89	0.00
388.09	0.00
388.28	0.00
388.48	0.00
388.67	37.45
388.86	4.68
389.06	23.41
389.25	0.00
389.45	16.38
389.64	0.00
389.84	16.38
390.03	65.54
390.22	11.70
390.42	16.38
390.61	53.83
390.81	93.62
391.00	28.09
391.19	4.68
391.39	0.00
391.58	9.36
391.78	18.72
391.97	105.32
392.16	0.00
392.36	11.70
392.55	14.04
392.75	56.17
392.94	9.36
393.13	39.79
393.33	72.56
393.52	0.00
393.71	28.09
393.91	0.00
394.10	46.81
394.29	7.02
394.49	74.90
394.68	21.06
394.88	37.45
395.07	30.43
395.26	4.68
395.46	28.09
395.65	0.00
395.84	0.00
396.04	0.00
396.23	21.06
396.42	0.00
396.62	72.56
396.81	35.11
397.00	0.00
397.19	18.72
397.39	0.00
397.58	32.77
397.77	114.69
397.97	88.94
398.16	25.75
398.35	98.30
398.55	79.58
398.74	4.68
398.93	35.11
399.12	67.88
399.32	18.72
399.51	37.45
399.70	14.04
399.90	49.15
400.09	44.47
400.28	72.56
400.47	11.70
400.67	58.51
400.86	9.36
401.05	23.41
401.24	0.00
401.44	32.77
401.63	28.09
401.82	84.26
402.01	77.24
402.21	0.00
402.40	58.51
402.59	32.77
402.78	35.11
402.97	28.09
403.17	42.13
403.36	72.56
403.55	39.79
403.74	65.54
403.93	72.56
404.13	65.54
404.32	0.00
404.51	28.09
404.70	46.81
404.89	56.17
405.09	51.49
405.28	0.00
405.47	37.45
405.66	39.79
405.85	25.75
406.05	63.19
406.24	39.79
406.43	65.54
406.62	70.22
406.81	79.58
407.00	77.24
407.20	0.00
407.39	28.09
407.58	4.68
407.77	35.11
407.96	42.13
408.15	58.51
408.34	18.72
408.54	28.09
408.73	14.04
408.92	7.02
409.11	25.75
409.30	9.36
409.49	44.47
409.68	30.43
409.87	35.11
410.07	49.15
410.26	0.00
410.45	46.81
410.64	7.02
410.83	72.56
411.02	56.17
411.21	21.06
411.40	46.81
411.59	119.37
411.78	4.68
411.98	11.70
412.17	23.41
412.36	2.34
412.55	0.00
412.74	0.00
412.93	9.36
413.12	9.36
413.31	0.00
413.50	0.00
413.69	77.24
413.88	0.00
414.07	0.00
414.26	39.79
414.45	0.00
414.64	39.79
414.83	65.54
415.02	35.11
415.22	70.22
415.41	2.34
415.60	0.00
415.79	0.00
415.98	84.26
416.17	0.00
416.36	9.36
416.55	16.38
416.74	30.43
416.93	72.56
417.12	28.09
417.31	84.26
417.50	14.04
417.69	44.47
417.88	32.77
418.07	81.92
418.26	14.04
418.45	42.13
418.64	4.68
418.83	72.56
419.02	0.00
419.21	32.77
419.39	126.39
419.58	70.22
419.77	32.77
419.96	0.00
420.15	0.00
420.34	35.11
420.53	84.26
420.72	63.19
420.91	93.62
421.10	67.88
421.29	65.54
421.48	9.36
421.67	100.64
421.86	81.92
422.05	74.90
422.24	42.13
422.43	67.88
422.61	16.38
422.80	46.81
422.99	60.85
423.18	56.17
423.37	35.11
423.56	60.85
423.75	77.24
423.94	95.96
424.13	98.30
424.32	23.41
424.50	0.00
424.69	0.00
424.88	16.38
425.07	77.24
425.26	18.72
425.45	86.60
425.64	0.00
425.83	49.15
426.01	37.45
426.20	18.72
426.39	42.13
426.58	124.05
426.77	39.79
426.96	16.38
427.15	9.36
427.33	37.45
427.52	126.39
427.71	126.39
427.90	107.66
428.09	95.96
428.28	39.79
428.46	46.81
428.65	16.38
428.84	14.04
429.03	14.04
429.22	7.02
429.40	4.68
429.59	14.04
429.78	51.49
429.97	37.45
430.16	72.56
430.34	58.51
430.53	23.41
430.72	42.13
430.91	4.68
431.10	72.56
431.28	60.85
431.47	107.66
431.66	112.35
431.85	44.47
432.03	23.41
432.22	18.72
432.41	35.11
432.60	63.19
432.79	0.00
432.97	56.17
433.16	18.72
433.35	72.56
433.54	39.79
433.72	58.51
433.91	44.47
434.10	7.02
434.28	21.06
434.47	35.11
434.66	9.36
434.85	98.30
435.03	9.36
435.22	56.17
435.41	28.09
435.59	0.00
435.78	53.83
435.97	93.62
436.16	46.81
436.34	42.13
436.53	7.02
436.72	100.64
436.90	35.11
437.09	30.43
437.28	23.41
437.46	0.00
437.65	30.43
437.84	60.85
438.02	0.00
438.21	65.54
438.40	49.15
438.58	51.49
438.77	79.58
438.96	46.81
439.14	0.00
439.33	46.81
439.52	0.00
439.70	37.45
439.89	49.15
440.08	4.68
440.26	28.09
440.45	28.09
440.63	58.51
440.82	42.13
441.01	35.11
441.19	74.90
441.38	65.54
441.57	42.13
441.75	140.43
441.94	93.62
442.12	56.17
442.31	0.00
442.50	0.00
442.68	25.75
442.87	16.38
443.05	14.04
443.24	70.22
443.43	2.34
443.61	4.68
443.80	28.09
443.98	81.92
444.17	46.81
444.35	35.11
444.54	65.54
444.73	30.43
444.91	63.19
445.10	0.00
445.28	0.00
445.47	14.04
445.65	60.85
445.84	117.03
446.02	37.45
446.21	39.79
446.39	58.51
446.58	28.09
446.77	79.58
446.95	46.81
447.14	53.83
447.32	53.83
447.51	49.15
447.69	65.54
447.88	49.15
448.06	58.51
448.25	0.00
448.43	67.88
448.62	70.22
448.80	44.47
448.99	35.11
449.17	86.60
449.36	60.85
449.54	0.00
449.73	119.37
449.91	35.11
450.10	98.30
450.28	126.39
450.46	117.03
450.65	18.72
450.83	37.45
451.02	95.96
451.20	58.51
451.39	0.00
451.57	60.85
451.76	53.83
451.94	79.58
452.13	77.24
452.31	60.85
452.49	56.17
452.68	65.54
452.86	25.75
453.05	84.26
453.23	117.03
453.42	56.17
453.60	35.11
453.78	32.77
453.97	74.90
454.15	95.96
454.34	30.43
454.52	37.45
454.70	72.56
454.89	28.09
455.07	110.01
455.26	0.00
455.44	49.15
455.62	49.15
455.81	58.51
455.99	49.15
456.17	35.11
456.36	56.17
456.54	7.02
456.73	14.04
456.91	88.94
457.09	46.81
457.28	16.38
457.46	0.00
457.64	56.17
457.83	98.30
458.01	63.19
458.19	105.32
458.38	63.19
458.56	117.03
458.74	7.02
458.93	49.15
459.11	86.60
459.29	49.15
459.48	39.79
459.66	25.75
459.84	46.81
460.03	9.36
460.21	93.62
460.39	91.28
460.57	28.09
460.76	93.62
460.94	0.00
461.12	0.00
461.31	32.77
461.49	28.09
461.67	30.43
461.85	4.68
462.04	11.70
462.22	88.94
462.40	86.60
462.59	70.22
462.77	21.06
462.95	72.56
463.13	9.36
463.32	11.70
463.50	124.05
463.68	53.83
463.86	18.72
464.05	23.41
464.23	65.54
464.41	93.62
464.59	70.22
464.78	56.17
464.96	0.00
465.14	81.92
465.32	72.56
465.50	67.88
465.69	58.51
465.87	88.94
466.05	16.38
466.23	72.56
466.41	84.26
466.60	98.30
466.78	0.00
466.96	77.24
467.14	0.00
467.32	35.11
467.51	0.00
467.69	28.09
467.87	86.60
468.05	56.17
468.23	39.79
468.41	135.75
468.60	63.19
468.78	49.15
468.96	18.72
469.14	70.22
469.32	0.00
469.50	7.02
469.69	72.56
469.87	65.54
470.05	60.85
470.23	65.54
470.41	28.09
470.59	30.43
470.77	21.06
470.95	18.72
471.14	18.72
471.32	18.72
471.50	58.51
471.68	49.15
471.86	63.19
472.04	51.49
472.22	159.16
472.40	95.96
472.58	86.60
472.77	84.26
472.95	56.17
473.13	7.02
473.31	98.30
473.49	74.90
473.67	58.51
473.85	79.58
474.03	46.81
474.21	42.13
474.39	60.85
474.57	7.02
474.75	56.17
474.93	37.45
475.12	93.62
475.30	11.70
475.48	51.49
475.66	81.92
475.84	112.35
476.02	51.49
476.20	0.00
476.38	74.90
476.56	93.62
476.74	23.41
476.92	18.72
477.10	81.92
477.28	88.94
477.46	37.45
477.64	91.28
477.82	93.62
478.00	84.26
478.18	93.62
478.36	63.19
478.54	23.41
478.72	18.72
478.90	23.41
479.08	0.00
479.26	16.38
479.44	124.05
479.62	121.71
479.80	46.81
479.98	102.98
480.16	67.88
480.34	58.51
480.52	35.11
480.70	51.49
480.88	46.81
481.06	28.09
481.24	86.60
481.41	110.01
481.59	58.51
481.77	95.96
481.95	128.73
482.13	44.47
482.31	86.60
482.49	2.34
482.67	53.83
482.85	53.83
483.03	63.19
483.21	42.13
483.39	44.47
483.57	84.26
483.74	110.01
483.92	42.13
484.10	46.81
484.28	0.00
484.46	63.19
484.64	102.98
484.82	119.37
485.00	56.17
485.18	46.81
485.35	95.96
485.53	32.77
485.71	74.90
485.89	53.83
486.07	84.26
486.25	23.41
486.43	72.56
486.61	0.00
486.78	133.41
486.96	25.75
487.14	18.72
487.32	117.03
487.50	112.35
487.68	126.39
487.85	56.17
488.03	95.96
488.21	44.47
488.39	72.56
488.57	58.51
488.75	91.28
488.92	149.79
489.10	25.75
489.28	74.90
489.46	63.19
489.64	2.34
489.81	60.85
489.99	74.90
490.17	84.26
490.35	39.79
490.53	42.13
490.70	51.49
490.88	49.15
491.06	18.72
491.24	60.85
491.41	91.28
491.59	117.03
491.77	35.11
491.95	102.98
492.13	81.92
492.30	119.37
492.48	140.43
492.66	0.00
492.84	11.70
493.01	65.54
493.19	63.19
493.37	42.13
493.54	42.13
493.72	102.98
493.90	81.92
494.08	28.09
494.25	88.94
494.43	93.62
494.61	107.66
494.79	79.58
494.96	63.19
495.14	60.85
495.32	42.13
495.49	95.96
495.67	184.90
495.85	0.00
496.02	65.54
496.20	67.88
496.38	56.17
496.55	67.88
496.73	112.35
496.91	93.62
497.09	140.43
497.26	72.56
497.44	0.00
497.62	95.96
497.79	14.04
497.97	86.60
498.14	159.16
498.32	138.09
498.50	93.62
498.67	53.83
498.85	21.06
499.03	70.22
499.20	7.02
499.38	100.64
499.56	72.56
499.73	63.19
499.91	30.43
500.08	44.47
500.26	46.81
500.44	86.60
500.61	72.56
500.79	95.96
500.97	42.13
501.14	81.92
501.32	203.63
501.49	119.37
501.67	91.28
501.84	86.60
502.02	128.73
502.20	88.94
502.37	105.32
502.55	128.73
502.72	53.83
502.90	65.54
503.07	112.35
503.25	21.06
503.43	58.51
503.60	0.00
503.78	112.35
503.95	51.49
504.13	126.39
504.30	119.37
504.48	51.49
504.65	72.56
504.83	91.28
505.01	49.15
505.18	77.24
505.36	86.60
505.53	79.58
505.71	74.90
505.88	100.64
506.06	102.98
506.23	91.28
506.41	93.62
506.58	37.45
506.76	107.66
506.93	30.43
507.11	88.94
507.28	46.81
507.46	4.68
507.63	79.58
507.81	63.19
507.98	49.15
508.16	95.96
508.33	44.47
508.50	93.62
508.68	98.30
508.85	98.30
509.03	79.58
509.20	86.60
509.38	81.92
509.55	14.04
509.73	18.72
509.90	49.15
510.08	86.60
510.25	4.68
510.42	72.56
510.60	35.11
510.77	102.98
510.95	53.83
511.12	93.62
511.30	98.30
511.47	39.79
511.64	98.30
511.82	67.88
511.99	121.71
512.17	63.19
512.34	117.03
512.51	88.94
512.69	72.56
512.86	84.26
513.04	128.73
513.21	35.11
513.38	53.83
513.56	100.64
513.73	39.79
513.90	0.00
514.08	56.17
514.25	91.28
514.43	81.92
514.60	86.60
514.77	173.20
514.95	60.85
515.12	44.47
515.29	72.56
515.47	98.30
515.64	21.06
515.81	110.01
515.99	131.07
516.16	135.75
516.33	107.66
516.51	11.70
516.68	98.30
516.85	60.85
517.03	93.62
517.20	0.00
517.37	112.35
517.54	84.26
517.72	46.81
517.89	131.07
518.06	72.56
518.24	114.69
518.41	67.88
518.58	77.24
518.75	49.15
518.93	110.01
519.10	49.15
519.27	49.15
519.45	140.43
519.62	84.26
519.79	79.58
519.96	100.64
520.14	30.43
520.31	21.06
520.48	161.50
520.65	21.06
520.83	133.41
521.00	63.19
521.17	81.92
521.34	23.41
521.52	67.88
521.69	86.60
521.86	72.56
522.03	51.49
522.20	32.77
522.38	74.90
522.55	86.60
522.72	77.24
522.89	42.13
523.07	98.30
523.24	14.04
523.41	124.05
523.58	9.36
523.75	79.58
523.92	95.96
524.10	98.30
524.27	140.43
524.44	117.03
524.61	77.24
524.78	88.94
524.96	0.00
525.13	63.19
525.30	119.37
525.47	77.24
525.64	88.94
525.81	88.94
525.98	42.13
526.16	95.96
526.33	88.94
526.50	63.19
526.67	72.56
526.84	152.13
527.01	70.22
527.18	46.81
527.36	114.69
527.53	84.26
527.70	86.60
527.87	147.45
528.04	100.64
528.21	67.88
528.38	161.50
528.55	56.17
528.72	60.85
528.89	35.11
529.07	119.37
529.24	53.83
529.41	72.56
529.58	51.49
529.75	114.69
529.92	84.26
530.09	74.90
530.26	95.96
530.43	154.48
530.60	0.00
530.77	39.79
530.94	112.35
531.11	86.60
531.28	65.54
531.46	56.17
531.63	9.36
531.80	105.32
531.97	37.45
532.14	95.96
532.31	81.92
532.48	44.47
532.65	44.47
532.82	149.79
532.99	98.30
533.16	14.04
533.33	30.43
533.50	135.75
533.67	93.62
533.84	67.88
534.01	42.13
534.18	74.90
534.35	0.00
534.52	28.09
534.69	86.60
534.86	121.71
535.03	131.07
535.20	16.38
535.37	117.03
535.54	44.47
535.71	119.37
535.88	98.30
536.05	124.05
536.22	117.03
536.38	79.58
536.55	131.07
536.72	100.64
536.89	0.00
537.06	21.06
537.23	37.45
537.40	74.90
537.57	88.94
537.74	56.17
537.91	98.30
538.08	60.85
538.25	110.01
538.42	88.94
538.59	58.51
538.75	74.90
538.92	44.47
539.09	124.05
539.26	102.98
539.43	114.69
539.60	124.05
539.77	79.58
539.94	91.28
540.11	86.60
540.28	9.36
540.44	84.26
540.61	112.35
540.78	0.00
540.95	37.45
541.12	84.26
541.29	110.01
541.46	63.19
541.62	131.07
541.79	72.56
541.96	95.96
542.13	110.01
542.30	28.09
542.47	58.51
542.63	35.11
542.80	35.11
542.97	159.16
543.14	88.94
543.31	74.90
543.48	114.69
543.64	63.19
543.81	128.73
543.98	32.77
544.15	18.72
544.32	63.19
544.48	67.88
544.65	60.85
544.82	112.35
544.99	63.19
545.16	100.64
545.32	56.17
545.49	46.81
545.66	112.35
545.83	119.37
546.00	105.32
546.16	126.39
546.33	74.90
546.50	117.03
546.67	121.71
546.83	56.17
547.00	56.17
547.17	35.11
547.34	145.11
547.50	65.54
547.67	119.37
547.84	74.90
548.00	63.19
548.17	126.39
548.34	51.49
548.51	131.07
548.67	117.03
548.84	67.88
549.01	56.17
549.18	194.26
549.34	100.64
549.51	32.77
549.68	107.66
549.84	44.47
550.01	88.94
550.18	81.92
550.34	81.92
550.51	74.90
550.68	145.11
550.84	112.35
551.01	112.35
551.18	74.90
551.34	84.26
551.51	28.09
551.68	105.32
551.84	77.24
552.01	65.54
552.18	95.96
552.34	135.75
552.51	102.98
552.68	77.24
552.84	16.38
553.01	56.17
553.18	56.17
553.34	44.47
553.51	58.51
553.67	63.19
553.84	79.58
554.01	74.90
554.17	0.00
554.34	16.38
554.51	0.00
554.67	44.47
554.84	119.37
555.00	86.60
555.17	107.66
555.33	88.94
555.50	128.73
555.67	28.09
555.83	88.94
556.00	74.90
556.16	114.69
556.33	23.41
556.50	23.41
556.66	25.75
556.83	117.03
556.99	23.41
557.16	88.94
557.32	39.79
557.49	91.28
557.65	81.92
557.82	114.69
557.98	88.94
558.15	77.24
558.32	67.88
558.48	63.19
558.65	0.00
558.81	88.94
558.98	51.49
559.14	110.01
559.31	16.38
559.47	138.09
559.64	98.30
559.80	44.47
559.97	112.35
560.13	81.92
560.30	58.51
560.46	84.26
560.63	37.45
560.79	140.43
560.96	119.37
561.12	74.90
561.29	77.24
561.45	93.62
561.61	93.62
561.78	152.13
561.94	161.50
562.11	42.13
562.27	112.35
562.44	44.47
562.60	79.58
562.77	63.19
562.93	91.28
563.10	86.60
563.26	88.94
563.42	100.64
563.59	72.56
563.75	25.75
563.92	63.19
564.08	35.11
564.24	16.38
564.41	156.82
564.57	60.85
564.74	105.32
564.90	30.43
565.07	107.66
565.23	51.49
565.39	67.88
565.56	84.26
565.72	81.92
565.88	72.56
566.05	93.62
566.21	79.58
566.38	65.54
566.54	102.98
566.70	86.60
566.87	53.83
567.03	37.45
567.19	4.68
567.36	112.35
567.52	74.90
567.68	42.13
567.85	74.90
568.01	110.01
568.17	91.28
568.34	152.13
568.50	95.96
568.66	60.85
568.83	81.92
568.99	25.75
569.15	91.28
569.32	46.81
569.48	0.00
569.64	81.92
569.81	51.49
569.97	49.15
570.13	65.54
570.30	51.49
570.46	44.47
570.62	42.13
570.78	72.56
570.95	91.28
571.11	56.17
571.27	100.64
571.43	56.17
571.60	110.01
571.76	98.30
571.92	145.11
572.09	79.58
572.25	124.05
572.41	86.60
572.57	23.41
572.74	79.58
572.90	124.05
573.06	0.00
573.22	60.85
573.38	46.81
573.55	105.32
573.71	91.28
573.87	126.39
574.03	105.32
574.20	28.09
574.36	114.69
574.52	67.88
574.68	98.30
574.84	72.56
575.01	84.26
575.17	107.66
575.33	37.45
575.49	46.81
575.65	112.35
575.82	60.85
575.98	133.41
576.14	23.41
576.30	107.66
576.46	121.71
576.62	56.17
576.79	81.92
576.95	56.17
577.11	51.49
577.27	39.79
577.43	44.47
577.59	44.47
577.75	63.19
577.92	77.24
578.08	53.83
578.24	0.00
578.40	23.41
578.56	56.17
578.72	72.56
578.88	0.00
579.04	88.94
579.21	0.00
579.37	16.38
579.53	67.88
579.69	86.60
579.85	91.28
580.01	44.47
580.17	44.47
580.33	117.03
580.49	117.03
580.65	65.54
580.82	72.56
580.98	121.71
581.14	23.41
581.30	67.88
581.46	46.81
581.62	112.35
581.78	114.69
581.94	65.54
582.10	60.85
582.26	77.24
582.42	77.24
582.58	70.22
582.74	25.75
582.90	107.66
583.06	63.19
583.22	138.09
583.38	102.98
583.54	58.51
583.70	119.37
583.86	74.90
584.02	16.38
584.18	79.58
584.34	135.75
584.50	100.64
584.66	102.98
584.82	77.24
584.98	44.47
585.14	124.05
585.30	67.88
585.46	49.15
585.62	63.19
585.78	32.77
585.94	114.69
586.10	16.38
586.26	18.72
586.42	93.62
586.58	79.58
586.74	93.62
586.90	0.00
587.06	79.58
587.22	32.77
587.38	100.64
587.54	18.72
587.70	79.58
587.86	93.62
588.02	70.22
588.18	53.83
588.34	93.62
588.49	121.71
588.65	95.96
588.81	37.45
588.97	30.43
589.13	39.79
589.29	56.17
589.45	49.15
589.61	149.79
589.77	95.96
589.93	67.88
590.08	53.83
590.24	30.43
590.40	88.94
590.56	53.83
590.72	60.85
590.88	53.83
591.04	28.09
591.20	32.77
591.35	117.03
591.51	53.83
591.67	67.88
591.83	67.88
591.99	91.28
592.15	51.49
592.31	51.49
592.46	39.79
592.62	37.45
592.78	67.88
592.94	35.11
593.10	107.66
593.26	42.13
593.41	112.35
593.57	42.13
593.73	93.62
593.89	163.84
594.05	51.49
594.20	42.13
594.36	100.64
594.52	51.49
594.68	39.79
594.84	49.15
594.99	93.62
595.15	95.96
595.31	95.96
595.47	44.47
595.62	44.47
595.78	35.11
595.94	88.94
596.10	81.92
596.25	79.58
596.41	60.85
596.57	42.13
596.73	128.73
596.88	81.92
597.04	105.32
597.20	95.96
597.36	79.58
597.51	98.30
597.67	49.15
597.83	46.81
597.99	21.06
598.14	49.15
598.30	107.66
598.46	60.85
598.61	65.54
598.77	18.72
598.93	25.75
599.09	77.24
599.24	11.70
599.40	119.37
599.56	30.43
599.71	105.32
599.87	98.30
600.03	72.56
600.18	93.62
600.34	84.26
600.50	25.75
600.65	72.56
600.81	11.70
600.97	124.05
601.12	49.15
601.28	0.00
601.44	72.56
601.59	114.69
601.75	112.35
601.91	79.58
602.06	37.45
602.22	112.35
602.37	35.11
602.53	95.96
602.69	77.24
602.84	4.68
603.00	140.43
603.16	67.88
603.31	88.94
603.47	65.54
603.62	60.85
603.78	60.85
603.94	51.49
604.09	42.13
604.25	53.83
604.40	23.41
604.56	56.17
604.71	21.06
604.87	35.11
605.03	16.38
605.18	42.13
605.34	86.60
605.49	77.24
605.65	95.96
605.80	51.49
605.96	46.81
606.12	117.03
606.27	100.64
606.43	110.01
606.58	98.30
606.74	18.72
606.89	39.79
607.05	65.54
607.20	16.38
607.36	98.30
607.51	28.09
607.67	16.38
607.82	100.64
607.98	72.56
608.13	79.58
608.29	98.30
608.44	84.26
608.60	93.62
608.75	18.72
608.91	4.68
609.06	70.22
609.22	84.26
609.37	74.90
609.53	0.00
609.68	0.00
609.84	95.96
609.99	49.15
610.15	86.60
610.30	70.22
610.46	28.09
610.61	32.77
610.76	98.30
610.92	30.43
611.07	74.90
611.23	131.07
611.38	18.72
611.54	56.17
611.69	28.09
611.84	58.51
612.00	60.85
612.15	53.83
612.31	77.24
612.46	58.51
612.62	46.81
612.77	79.58
612.92	93.62
613.08	35.11
613.23	2.34
613.39	63.19
613.54	112.35
613.69	74.90
613.85	95.96
614.00	25.75
614.15	14.04
614.31	67.88
614.46	16.38
614.62	126.39
614.77	74.90
614.92	65.54
615.08	105.32
615.23	49.15
615.38	98.30
615.54	107.66
615.69	28.09
615.84	16.38
616.00	72.56
616.15	0.00
616.30	49.15
616.46	53.83
616.61	18.72
616.76	74.90
616.92	44.47
617.07	46.81
617.22	60.85
617.37	105.32
617.53	21.06
617.68	51.49
617.83	91.28
617.99	28.09
618.14	91.28
618.29	93.62
618.45	81.92
618.60	56.17
618.75	28.09
618.90	79.58
619.06	86.60
619.21	21.06
619.36	93.62
619.51	72.56
619.67	110.01
619.82	77.24
619.97	60.85
620.12	37.45
620.28	49.15
620.43	105.32
620.58	70.22
620.73	25.75
620.89	0.00
621.04	56.17
621.19	74.90
621.34	60.85
621.49	81.92
621.65	0.00
621.80	84.26
621.95	63.19
622.10	88.94
622.25	25.75
622.41	25.75
622.56	30.43
622.71	58.51
622.86	49.15
623.01	86.60
623.16	46.81
623.32	91.28
623.47	114.69
623.62	110.01
623.77	28.09
623.92	18.72
624.07	39.79
624.23	23.41
624.38	42.13
624.53	65.54
624.68	2.34
624.83	93.62
624.98	84.26
625.13	67.88
625.29	88.94
625.44	114.69
625.59	39.79
625.74	72.56
625.89	93.62
626.04	72.56
626.19	88.94
626.34	60.85
626.49	121.71
626.65	23.41
626.80	145.11
626.95	100.64
627.10	18.72
627.25	46.81
627.40	60.85
627.55	0.00
627.70	93.62
627.85	7.02
628.00	16.38
628.15	149.79
628.30	70.22
628.45	65.54
628.60	42.13
628.76	124.05
628.91	18.72
629.06	70.22
629.21	88.94
629.36	95.96
629.51	67.88
629.66	58.51
629.81	65.54
629.96	67.88
630.11	44.47
630.26	60.85
630.41	58.51
630.56	46.81
630.71	105.32
630.86	65.54
631.01	51.49
631.16	86.60
631.31	100.64
631.46	95.96
631.61	70.22
631.76	32.77
631.91	72.56
632.06	23.41
632.21	2.34
632.36	51.49
632.51	7.02
632.66	77.24
632.81	60.85
632.96	79.58
633.10	63.19
633.25	51.49
633.40	156.82
633.55	56.17
633.70	0.00
633.85	21.06
634.00	9.36
634.15	35.11
634.30	37.45
634.45	51.49
634.60	0.00
634.75	21.06
634.90	28.09
635.05	0.00
635.19	84.26
635.34	70.22
635.49	81.92
635.64	32.77
635.79	65.54
635.94	60.85
636.09	95.96
636.24	58.51
636.39	133.41
636.53	95.96
636.68	37.45
636.83	32.77
636.98	42.13
637.13	18.72
637.28	2.34
637.43	56.17
637.57	93.62
637.72	0.00
637.87	42.13
638.02	107.66
638.17	0.00
638.32	0.00
638.46	39.79
638.61	131.07
638.76	102.98
638.91	79.58
639.06	65.54
639.20	98.30
639.35	7.02
639.50	28.09
639.65	63.19
639.80	7.02
639.94	37.45
640.09	42.13
640.24	86.60
640.39	77.24
640.54	88.94
640.68	107.66
640.83	95.96
640.98	53.83
641.13	28.09
641.27	93.62
641.42	105.32
641.57	65.54
641.72	51.49
641.86	28.09
642.01	56.17
642.16	102.98
642.31	65.54
642.45	23.41
642.60	14.04
642.75	63.19
642.90	0.00
643.04	53.83
643.19	51.49
643.34	112.35
643.48	44.47
643.63	28.09
643.78	67.88
643.93	98.30
644.07	70.22
644.22	7.02
644.37	60.85
644.51	11.70
644.66	128.73
644.81	21.06
644.95	105.32
645.10	0.00
645.25	58.51
645.39	32.77
645.54	21.06
645.69	23.41
645.83	81.92
645.98	56.17
646.13	77.24
646.27	21.06
646.42	56.17
646.57	46.81
646.71	11.70
646.86	72.56
647.00	72.56
647.15	58.51
647.30	74.90
647.44	16.38
647.59	35.11
647.74	67.88
647.88	65.54
648.03	51.49
648.17	58.51
648.32	91.28
648.47	53.83
648.61	42.13
648.76	37.45
648.90	79.58
649.05	67.88
649.20	0.00
649.34	23.41
649.49	46.81
649.63	72.56
649.78	44.47
649.92	18.72
650.07	0.00
650.21	0.00
650.36	16.38
650.51	35.11
650.65	44.47
650.80	65.54
650.94	28.09
651.09	56.17
651.23	124.05
651.38	35.11
651.52	18.72
651.67	74.90
651.81	70.22
651.96	46.81
652.10	21.06
652.25	53.83
652.39	63.19
652.54	84.26
652.68	72.56
652.83	163.84
652.97	72.56
653.12	74.90
653.26	98.30
653.41	39.79
653.55	39.79
653.70	110.01
653.84	102.98
653.99	44.47
654.13	95.96
654.27	88.94
654.42	98.30
654.56	67.88
654.71	42.13
654.85	67.88
655.00	65.54
655.14	88.94
655.29	53.83
655.43	86.60
655.57	77.24
655.72	93.62
655.86	0.00
656.01	23.41
656.15	4.68
656.30	81.92
656.44	107.66
656.58	44.47
656.73	84.26
656.87	46.81
657.01	37.45
657.16	79.58
657.30	77.24
657.45	0.00
657.59	35.11
657.73	16.38
657.88	9.36
658.02	60.85
658.16	16.38
658.31	81.92
658.45	32.77
658.60	0.00
658.74	30.43
658.88	42.13
659.03	77.24
659.17	35.11
659.31	95.96
659.46	65.54
659.60	105.32
659.74	37.45
659.89	11.70
660.03	49.15
660.17	65.54
660.32	49.15
660.46	81.92
660.60	79.58
660.74	112.35
660.89	74.90
661.03	25.75
661.17	28.09
661.32	81.92
661.46	84.26
661.60	72.56
661.74	53.83
661.89	56.17
662.03	93.62
662.17	79.58
662.31	65.54
662.46	0.00
662.60	7.02
662.74	44.47
662.88	28.09
663.03	53.83
663.17	65.54
663.31	23.41
663.45	46.81
663.60	100.64
663.74	131.07
663.88	95.96
664.02	42.13
664.17	46.81
664.31	44.47
664.45	70.22
664.59	60.85
664.73	0.00
664.88	37.45
665.02	49.15
665.16	95.96
665.30	56.17
665.44	74.90
665.59	79.58
665.73	93.62
665.87	21.06
666.01	74.90
666.15	0.00
666.29	53.83
666.44	42.13
666.58	110.01
666.72	25.75
666.86	0.00
667.00	72.56
667.14	0.00
667.28	81.92
667.43	37.45
667.57	28.09
667.71	0.00
667.85	4.68
667.99	46.81
668.13	95.96
668.27	117.03
668.41	0.00
668.56	42.13
668.70	28.09
668.84	35.11
668.98	58.51
669.12	70.22
669.26	81.92
669.40	9.36
669.54	67.88
669.68	11.70
669.82	32.77
669.96	65.54
670.10	37.45
670.25	114.69
670.39	74.90
670.53	30.43
670.67	46.81
670.81	70.22
670.95	18.72
671.09	44.47
671.23	0.00
671.37	124.05
671.51	70.22
671.65	0.00
671.79	39.79
671.93	49.15
672.07	18.72
672.21	51.49
672.35	39.79
672.49	4.68
672.63	39.79
672.77	35.11
672.91	39.79
673.05	84.26
673.19	70.22
673.33	114.69
673.47	32.77
673.61	51.49
673.75	18.72
673.89	23.41
674.03	53.83
674.17	39.79
674.31	81.92
674.45	44.47
674.59	63.19
674.73	44.47
674.87	81.92
675.01	14.04
675.15	65.54
675.29	39.79
675.43	46.81
675.56	79.58
675.70	74.90
675.84	98.30
675.98	56.17
676.12	28.09
676.26	25.75
676.40	86.60
676.54	0.00
676.68	84.26
676.82	9.36
676.96	126.39
677.10	128.73
677.23	79.58
677.37	117.03
677.51	49.15
677.65	56.17
677.79	0.00
677.93	58.51
678.07	35.11
678.21	0.00
678.34	28.09
678.48	65.54
678.62	25.75
678.76	30.43
678.90	70.22
679.04	35.11
679.18	42.13
679.31	25.75
679.45	32.77
679.59	93.62
679.73	72.56
679.87	63.19
680.00	0.00
680.14	138.09
680.28	0.00
680.42	32.77
680.56	67.88
680.70	28.09
680.83	7.02
680.97	0.00
681.11	32.77
681.25	70.22
681.39	37.45
681.52	74.90
681.66	28.09
681.80	0.00
681.94	42.13
682.07	51.49
682.21	35.11
682.35	58.51
682.49	63.19
682.62	74.90
682.76	70.22
682.90	35.11
683.04	21.06
683.17	42.13
683.31	119.37
683.45	49.15
683.59	25.75
683.72	46.81
683.86	98.30
684.00	0.00
684.13	51.49
684.27	46.81
684.41	53.83
684.55	0.00
684.68	74.90
684.82	53.83
684.96	0.00
685.09	93.62
685.23	42.13
685.37	14.04
685.50	56.17
685.64	51.49
685.78	56.17
685.91	65.54
686.05	63.19
686.19	7.02
686.32	18.72
686.46	60.85
686.60	79.58
686.73	9.36
686.87	0.00
687.01	37.45
687.14	37.45
687.28	0.00
687.42	63.19
687.55	14.04
687.69	25.75
687.82	102.98
687.96	53.83
688.10	21.06
688.23	44.47
688.37	16.38
688.50	0.00
688.64	21.06
688.78	84.26
688.91	0.00
689.05	11.70
689.18	58.51
689.32	102.98
689.46	65.54
689.59	35.11
689.73	9.36
689.86	32.77
690.00	14.04
690.13	4.68
690.27	23.41
690.41	72.56
690.54	28.09
690.68	32.77
690.81	18.72
690.95	11.70
691.08	60.85
691.22	0.00
691.35	49.15
691.49	128.73
691.62	37.45
691.76	63.19
691.89	81.92
692.03	63.19
692.16	121.71
692.30	0.00
692.43	16.38
692.57	67.88
692.70	72.56
692.84	67.88
692.97	81.92
693.11	65.54
693.24	30.43
693.38	53.83
693.51	60.85
693.65	0.00
693.78	49.15
693.92	46.81
694.05	7.02
694.19	0.00
694.32	81.92
694.45	65.54
694.59	23.41
694.72	79.58
694.86	30.43
694.99	65.54
695.13	32.77
695.26	81.92
695.39	21.06
695.53	72.56
695.66	18.72
695.80	0.00
695.93	65.54
696.07	51.49
696.20	60.85
696.33	60.85
696.47	72.56
696.60	51.49
696.73	32.77
696.87	39.79
697.00	88.94
697.14	117.03
697.27	60.85
697.40	67.88
697.54	30.43
697.67	100.64
697.80	77.24
697.94	93.62
698.07	28.09
698.21	100.64
698.34	23.41
698.47	14.04
698.61	72.56
698.74	21.06
698.87	0.00
699.01	46.81
699.14	81.92
699.27	81.92
699.40	46.81
699.54	74.90
699.67	58.51
699.80	16.38
699.94	0.00
700.07	42.13
700.20	16.38
700.34	4.68
700.47	53.83
700.60	2.34
700.73	4.68
700.87	49.15
701.00	28.09
701.13	56.17
701.26	21.06
701.40	18.72
701.53	58.51
701.66	21.06
701.79	56.17
701.93	91.28
702.06	21.06
702.19	0.00
702.32	46.81
702.46	16.38
702.59	63.19
702.72	21.06
702.85	0.00
702.99	60.85
703.12	37.45
703.25	28.09
703.38	0.00
703.51	0.00
703.65	7.02
703.78	28.09
703.91	9.36
704.04	49.15
704.17	25.75
704.31	7.02
704.44	93.62
704.57	23.41
704.70	37.45
704.83	86.60
704.96	0.00
705.10	49.15
705.23	46.81
>>>>>End Processed Spectral Data<<<<<
