SpectraSuite Data File
++++++++++++++++++++++++++++++++++++
Date: Fri Oct 04 12:13:26 GMT-05:00 2013
User: price-jones
Dark Spectrum Present: No
Reference Spectrum Present: No
Number of Sampled Component Spectra: 1
Spectrometers: USB2+H05261
Integration Time (usec): 10000 (USB2+H05261)
Spectra Averaged: 1 (USB2+H05261)
Boxcar Smoothing: 0 (USB2+H05261)
Correct for Electrical Dark: No (USB2+H05261)
Strobe/Lamp Enabled: No (USB2+H05261)
Correct for Detector Non-linearity: No (USB2+H05261)
Correct for Stray Light: No (USB2+H05261)
Number of Pixels in Processed Spectrum: 2048
>>>>>Begin Processed Spectral Data<<<<<
365.73	2.34
365.92	2.34
366.12	2.34
366.32	0.00
366.52	0.00
366.72	0.00
366.91	0.00
367.11	0.00
367.31	0.00
367.51	0.00
367.70	0.00
367.90	0.00
368.10	0.00
368.30	0.00
368.49	0.00
368.69	0.00
368.89	0.00
369.09	0.00
369.28	0.00
369.48	0.00
369.68	0.00
369.87	0.00
370.07	0.00
370.27	0.00
370.47	0.00
370.66	0.00
370.86	0.00
371.06	0.00
371.25	0.00
371.45	0.00
371.65	37.45
371.84	0.00
372.04	0.00
372.24	7.02
372.44	0.00
372.63	9.36
372.83	53.83
373.03	0.00
373.22	0.00
373.42	58.51
373.62	49.15
373.81	2.34
374.01	16.38
374.21	18.72
374.40	18.72
374.60	0.00
374.79	51.49
374.99	70.22
375.19	16.38
375.38	81.92
375.58	14.04
375.78	67.88
375.97	65.54
376.17	39.79
376.37	0.00
376.56	0.00
376.76	16.38
376.95	84.26
377.15	51.49
377.35	4.68
377.54	86.60
377.74	35.11
377.93	7.02
378.13	0.00
378.33	0.00
378.52	32.77
378.72	18.72
378.91	9.36
379.11	30.43
379.31	21.06
379.50	0.00
379.70	0.00
379.89	0.00
380.09	51.49
380.28	16.38
380.48	0.00
380.68	0.00
380.87	56.17
381.07	0.00
381.26	14.04
381.46	0.00
381.65	37.45
381.85	0.00
382.04	44.47
382.24	7.02
382.43	84.26
382.63	32.77
382.83	32.77
383.02	30.43
383.22	56.17
383.41	0.00
383.61	0.00
383.80	0.00
384.00	25.75
384.19	42.13
384.39	11.70
384.58	42.13
384.78	0.00
384.97	37.45
385.17	0.00
385.36	0.00
385.56	39.79
385.75	0.00
385.95	0.00
386.14	35.11
386.34	7.02
386.53	18.72
386.72	67.88
386.92	14.04
387.11	35.11
387.31	56.17
387.50	0.00
387.70	53.83
387.89	0.00
388.09	4.68
388.28	0.00
388.48	4.68
388.67	0.00
388.86	95.96
389.06	0.00
389.25	0.00
389.45	51.49
389.64	4.68
389.84	0.00
390.03	0.00
390.22	4.68
390.42	11.70
390.61	11.70
390.81	49.15
391.00	37.45
391.19	18.72
391.39	35.11
391.58	4.68
391.78	0.00
391.97	42.13
392.16	11.70
392.36	14.04
392.55	2.34
392.75	72.56
392.94	84.26
393.13	63.19
393.33	28.09
393.52	16.38
393.71	21.06
393.91	0.00
394.10	0.00
394.29	65.54
394.49	0.00
394.68	25.75
394.88	32.77
395.07	0.00
395.26	23.41
395.46	42.13
395.65	95.96
395.84	7.02
396.04	23.41
396.23	63.19
396.42	0.00
396.62	0.00
396.81	14.04
397.00	0.00
397.19	51.49
397.39	0.00
397.58	0.00
397.77	0.00
397.97	37.45
398.16	79.58
398.35	23.41
398.55	42.13
398.74	0.00
398.93	30.43
399.12	0.00
399.32	11.70
399.51	0.00
399.70	2.34
399.90	0.00
400.09	72.56
400.28	60.85
400.47	30.43
400.67	32.77
400.86	63.19
401.05	56.17
401.24	49.15
401.44	53.83
401.63	0.00
401.82	0.00
402.01	35.11
402.21	44.47
402.40	21.06
402.59	9.36
402.78	46.81
402.97	58.51
403.17	0.00
403.36	0.00
403.55	44.47
403.74	4.68
403.93	60.85
404.13	0.00
404.32	86.60
404.51	25.75
404.70	14.04
404.89	0.00
405.09	42.13
405.28	56.17
405.47	67.88
405.66	39.79
405.85	0.00
406.05	46.81
406.24	53.83
406.43	11.70
406.62	0.00
406.81	28.09
407.00	0.00
407.20	0.00
407.39	49.15
407.58	0.00
407.77	0.00
407.96	0.00
408.15	4.68
408.34	0.00
408.54	70.22
408.73	49.15
408.92	37.45
409.11	60.85
409.30	0.00
409.49	42.13
409.68	23.41
409.87	49.15
410.07	0.00
410.26	7.02
410.45	70.22
410.64	0.00
410.83	0.00
411.02	0.00
411.21	44.47
411.40	0.00
411.59	56.17
411.78	0.00
411.98	0.00
412.17	28.09
412.36	11.70
412.55	81.92
412.74	30.43
412.93	105.32
413.12	0.00
413.31	0.00
413.50	25.75
413.69	0.00
413.88	0.00
414.07	63.19
414.26	0.00
414.45	44.47
414.64	23.41
414.83	16.38
415.02	0.00
415.22	60.85
415.41	21.06
415.60	0.00
415.79	11.70
415.98	42.13
416.17	9.36
416.36	0.00
416.55	14.04
416.74	35.11
416.93	30.43
417.12	0.00
417.31	25.75
417.50	81.92
417.69	39.79
417.88	2.34
418.07	11.70
418.26	74.90
418.45	44.47
418.64	117.03
418.83	53.83
419.02	46.81
419.21	25.75
419.39	4.68
419.58	32.77
419.77	37.45
419.96	44.47
420.15	21.06
420.34	70.22
420.53	37.45
420.72	7.02
420.91	51.49
421.10	18.72
421.29	0.00
421.48	18.72
421.67	58.51
421.86	51.49
422.05	63.19
422.24	0.00
422.43	53.83
422.61	9.36
422.80	46.81
422.99	18.72
423.18	53.83
423.37	67.88
423.56	84.26
423.75	74.90
423.94	32.77
424.13	42.13
424.32	70.22
424.50	70.22
424.69	7.02
424.88	74.90
425.07	95.96
425.26	37.45
425.45	46.81
425.64	32.77
425.83	39.79
426.01	74.90
426.20	56.17
426.39	9.36
426.58	67.88
426.77	0.00
426.96	63.19
427.15	2.34
427.33	18.72
427.52	25.75
427.71	21.06
427.90	49.15
428.09	126.39
428.28	44.47
428.46	0.00
428.65	110.01
428.84	67.88
429.03	0.00
429.22	42.13
429.40	11.70
429.59	0.00
429.78	21.06
429.97	35.11
430.16	42.13
430.34	67.88
430.53	37.45
430.72	37.45
430.91	58.51
431.10	86.60
431.28	28.09
431.47	25.75
431.66	44.47
431.85	58.51
432.03	25.75
432.22	37.45
432.41	7.02
432.60	84.26
432.79	32.77
432.97	42.13
433.16	9.36
433.35	0.00
433.54	0.00
433.72	0.00
433.91	2.34
434.10	49.15
434.28	0.00
434.47	81.92
434.66	32.77
434.85	0.00
435.03	0.00
435.22	58.51
435.41	9.36
435.59	18.72
435.78	0.00
435.97	0.00
436.16	39.79
436.34	16.38
436.53	46.81
436.72	25.75
436.90	32.77
437.09	63.19
437.28	0.00
437.46	56.17
437.65	46.81
437.84	74.90
438.02	42.13
438.21	35.11
438.40	18.72
438.58	9.36
438.77	25.75
438.96	79.58
439.14	70.22
439.33	56.17
439.52	0.00
439.70	56.17
439.89	0.00
440.08	25.75
440.26	23.41
440.45	46.81
440.63	63.19
440.82	35.11
441.01	37.45
441.19	0.00
441.38	32.77
441.57	0.00
441.75	81.92
441.94	28.09
442.12	53.83
442.31	74.90
442.50	84.26
442.68	0.00
442.87	7.02
443.05	53.83
443.24	0.00
443.43	105.32
443.61	28.09
443.80	30.43
443.98	51.49
444.17	84.26
444.35	0.00
444.54	67.88
444.73	51.49
444.91	28.09
445.10	18.72
445.28	0.00
445.47	0.00
445.65	42.13
445.84	23.41
446.02	53.83
446.21	81.92
446.39	42.13
446.58	58.51
446.77	0.00
446.95	37.45
447.14	30.43
447.32	81.92
447.51	39.79
447.69	23.41
447.88	4.68
448.06	56.17
448.25	119.37
448.43	67.88
448.62	0.00
448.80	149.79
448.99	39.79
449.17	49.15
449.36	65.54
449.54	86.60
449.73	51.49
449.91	23.41
450.10	53.83
450.28	65.54
450.46	67.88
450.65	51.49
450.83	28.09
451.02	46.81
451.20	0.00
451.39	114.69
451.57	9.36
451.76	42.13
451.94	37.45
452.13	0.00
452.31	0.00
452.49	9.36
452.68	30.43
452.86	0.00
453.05	0.00
453.23	11.70
453.42	30.43
453.60	67.88
453.78	51.49
453.97	32.77
454.15	39.79
454.34	18.72
454.52	2.34
454.70	9.36
454.89	86.60
455.07	42.13
455.26	53.83
455.44	2.34
455.62	49.15
455.81	14.04
455.99	44.47
456.17	30.43
456.36	28.09
456.54	0.00
456.73	0.00
456.91	0.00
457.09	32.77
457.28	35.11
457.46	86.60
457.64	0.00
457.83	51.49
458.01	51.49
458.19	37.45
458.38	84.26
458.56	42.13
458.74	0.00
458.93	0.00
459.11	21.06
459.29	39.79
459.48	0.00
459.66	21.06
459.84	37.45
460.03	63.19
460.21	88.94
460.39	0.00
460.57	79.58
460.76	56.17
460.94	0.00
461.12	65.54
461.31	37.45
461.49	60.85
461.67	30.43
461.85	65.54
462.04	4.68
462.22	86.60
462.40	28.09
462.59	56.17
462.77	0.00
462.95	2.34
463.13	0.00
463.32	42.13
463.50	11.70
463.68	9.36
463.86	18.72
464.05	0.00
464.23	23.41
464.41	0.00
464.59	0.00
464.78	14.04
464.96	60.85
465.14	0.00
465.32	30.43
465.50	42.13
465.69	93.62
465.87	84.26
466.05	88.94
466.23	16.38
466.41	102.98
466.60	0.00
466.78	11.70
466.96	0.00
467.14	74.90
467.32	23.41
467.51	0.00
467.69	4.68
467.87	39.79
468.05	56.17
468.23	0.00
468.41	30.43
468.60	77.24
468.78	95.96
468.96	58.51
469.14	2.34
469.32	46.81
469.50	74.90
469.69	4.68
469.87	44.47
470.05	49.15
470.23	0.00
470.41	0.00
470.59	0.00
470.77	0.00
470.95	42.13
471.14	53.83
471.32	32.77
471.50	0.00
471.68	18.72
471.86	25.75
472.04	28.09
472.22	65.54
472.40	0.00
472.58	18.72
472.77	23.41
472.95	49.15
473.13	30.43
473.31	51.49
473.49	0.00
473.67	63.19
473.85	56.17
474.03	37.45
474.21	28.09
474.39	9.36
474.57	30.43
474.75	14.04
474.93	0.00
475.12	14.04
475.30	14.04
475.48	2.34
475.66	51.49
475.84	35.11
476.02	98.30
476.20	42.13
476.38	35.11
476.56	70.22
476.74	2.34
476.92	30.43
477.10	0.00
477.28	0.00
477.46	0.00
477.64	7.02
477.82	56.17
478.00	70.22
478.18	51.49
478.36	14.04
478.54	14.04
478.72	44.47
478.90	39.79
479.08	77.24
479.26	0.00
479.44	42.13
479.62	14.04
479.80	0.00
479.98	0.00
480.16	42.13
480.34	77.24
480.52	65.54
480.70	67.88
480.88	0.00
481.06	25.75
481.24	72.56
481.41	86.60
481.59	37.45
481.77	46.81
481.95	0.00
482.13	117.03
482.31	53.83
482.49	9.36
482.67	0.00
482.85	51.49
483.03	30.43
483.21	112.35
483.39	0.00
483.57	0.00
483.74	32.77
483.92	0.00
484.10	7.02
484.28	84.26
484.46	46.81
484.64	11.70
484.82	32.77
485.00	25.75
485.18	21.06
485.35	37.45
485.53	74.90
485.71	70.22
485.89	9.36
486.07	63.19
486.25	46.81
486.43	32.77
486.61	9.36
486.78	81.92
486.96	39.79
487.14	60.85
487.32	39.79
487.50	37.45
487.68	25.75
487.85	70.22
488.03	53.83
488.21	37.45
488.39	65.54
488.57	135.75
488.75	79.58
488.92	79.58
489.10	4.68
489.28	0.00
489.46	44.47
489.64	9.36
489.81	44.47
489.99	74.90
490.17	14.04
490.35	56.17
490.53	25.75
490.70	79.58
490.88	58.51
491.06	21.06
491.24	79.58
491.41	60.85
491.59	51.49
491.77	56.17
491.95	112.35
492.13	93.62
492.30	16.38
492.48	35.11
492.66	30.43
492.84	56.17
493.01	0.00
493.19	7.02
493.37	0.00
493.54	35.11
493.72	84.26
493.90	39.79
494.08	0.00
494.25	79.58
494.43	4.68
494.61	0.00
494.79	0.00
494.96	37.45
495.14	119.37
495.32	79.58
495.49	86.60
495.67	28.09
495.85	9.36
496.02	21.06
496.20	0.00
496.38	79.58
496.55	114.69
496.73	18.72
496.91	7.02
497.09	0.00
497.26	0.00
497.44	65.54
497.62	112.35
497.79	4.68
497.97	88.94
498.14	46.81
498.32	79.58
498.50	110.01
498.67	0.00
498.85	4.68
499.03	37.45
499.20	28.09
499.38	58.51
499.56	49.15
499.73	30.43
499.91	28.09
500.08	30.43
500.26	42.13
500.44	16.38
500.61	14.04
500.79	37.45
500.97	14.04
501.14	133.41
501.32	30.43
501.49	0.00
501.67	35.11
501.84	70.22
502.02	77.24
502.20	46.81
502.37	18.72
502.55	77.24
502.72	79.58
502.90	7.02
503.07	14.04
503.25	84.26
503.43	4.68
503.60	2.34
503.78	46.81
503.95	7.02
504.13	56.17
504.30	81.92
504.48	37.45
504.65	32.77
504.83	49.15
505.01	25.75
505.18	79.58
505.36	91.28
505.53	37.45
505.71	25.75
505.88	9.36
506.06	0.00
506.23	46.81
506.41	21.06
506.58	4.68
506.76	39.79
506.93	42.13
507.11	0.00
507.28	42.13
507.46	42.13
507.63	65.54
507.81	4.68
507.98	2.34
508.16	105.32
508.33	39.79
508.50	4.68
508.68	7.02
508.85	67.88
509.03	49.15
509.20	35.11
509.38	28.09
509.55	7.02
509.73	35.11
509.90	107.66
510.08	0.00
510.25	0.00
510.42	44.47
510.60	0.00
510.77	18.72
510.95	0.00
511.12	114.69
511.30	35.11
511.47	35.11
511.64	51.49
511.82	42.13
511.99	14.04
512.17	0.00
512.34	56.17
512.51	23.41
512.69	79.58
512.86	102.98
513.04	35.11
513.21	0.00
513.38	14.04
513.56	23.41
513.73	60.85
513.90	49.15
514.08	126.39
514.25	14.04
514.43	49.15
514.60	0.00
514.77	30.43
514.95	0.00
515.12	32.77
515.29	65.54
515.47	46.81
515.64	119.37
515.81	91.28
515.99	30.43
516.16	70.22
516.33	72.56
516.51	25.75
516.68	0.00
516.85	9.36
517.03	42.13
517.20	42.13
517.37	63.19
517.54	11.70
517.72	35.11
517.89	14.04
518.06	0.00
518.24	65.54
518.41	81.92
518.58	0.00
518.75	25.75
518.93	74.90
519.10	63.19
519.27	56.17
519.45	72.56
519.62	32.77
519.79	28.09
519.96	79.58
520.14	63.19
520.31	86.60
520.48	37.45
520.65	9.36
520.83	32.77
521.00	63.19
521.17	49.15
521.34	51.49
521.52	0.00
521.69	9.36
521.86	7.02
522.03	42.13
522.20	72.56
522.38	0.00
522.55	70.22
522.72	39.79
522.89	105.32
523.07	14.04
523.24	28.09
523.41	25.75
523.58	0.00
523.75	0.00
523.92	72.56
524.10	46.81
524.27	4.68
524.44	0.00
524.61	91.28
524.78	23.41
524.96	0.00
525.13	65.54
525.30	0.00
525.47	98.30
525.64	0.00
525.81	112.35
525.98	32.77
526.16	58.51
526.33	44.47
526.50	86.60
526.67	0.00
526.84	32.77
527.01	58.51
527.18	74.90
527.36	0.00
527.53	7.02
527.70	4.68
527.87	114.69
528.04	100.64
528.21	9.36
528.38	21.06
528.55	44.47
528.72	93.62
528.89	21.06
529.07	35.11
529.24	0.00
529.41	0.00
529.58	39.79
529.75	77.24
529.92	81.92
530.09	88.94
530.26	105.32
530.43	84.26
530.60	0.00
530.77	56.17
530.94	35.11
531.11	21.06
531.28	86.60
531.46	9.36
531.63	88.94
531.80	0.00
531.97	65.54
532.14	65.54
532.31	28.09
532.48	74.90
532.65	58.51
532.82	14.04
532.99	39.79
533.16	72.56
533.33	95.96
533.50	30.43
533.67	86.60
533.84	9.36
534.01	23.41
534.18	11.70
534.35	9.36
534.52	23.41
534.69	0.00
534.86	0.00
535.03	58.51
535.20	32.77
535.37	56.17
535.54	23.41
535.71	0.00
535.88	16.38
536.05	67.88
536.22	42.13
536.38	49.15
536.55	37.45
536.72	60.85
536.89	21.06
537.06	49.15
537.23	2.34
537.40	72.56
537.57	23.41
537.74	88.94
537.91	88.94
538.08	84.26
538.25	0.00
538.42	91.28
538.59	2.34
538.75	44.47
538.92	51.49
539.09	0.00
539.26	121.71
539.43	37.45
539.60	117.03
539.77	53.83
539.94	114.69
540.11	159.16
540.28	70.22
540.44	44.47
540.61	11.70
540.78	18.72
540.95	67.88
541.12	49.15
541.29	7.02
541.46	72.56
541.62	56.17
541.79	25.75
541.96	74.90
542.13	9.36
542.30	11.70
542.47	2.34
542.63	0.00
542.80	21.06
542.97	84.26
543.14	95.96
543.31	0.00
543.48	9.36
543.64	30.43
543.81	46.81
543.98	0.00
544.15	60.85
544.32	25.75
544.48	46.81
544.65	53.83
544.82	110.01
544.99	25.75
545.16	53.83
545.32	49.15
545.49	117.03
545.66	32.77
545.83	67.88
546.00	88.94
546.16	44.47
546.33	0.00
546.50	46.81
546.67	63.19
546.83	11.70
547.00	70.22
547.17	51.49
547.34	46.81
547.50	23.41
547.67	60.85
547.84	0.00
548.00	18.72
548.17	0.00
548.34	42.13
548.51	39.79
548.67	60.85
548.84	49.15
549.01	81.92
549.18	95.96
549.34	21.06
549.51	18.72
549.68	9.36
549.84	70.22
550.01	44.47
550.18	30.43
550.34	124.05
550.51	79.58
550.68	9.36
550.84	86.60
551.01	0.00
551.18	67.88
551.34	11.70
551.51	98.30
551.68	0.00
551.84	28.09
552.01	46.81
552.18	21.06
552.34	72.56
552.51	44.47
552.68	32.77
552.84	2.34
553.01	63.19
553.18	14.04
553.34	0.00
553.51	37.45
553.67	105.32
553.84	51.49
554.01	65.54
554.17	37.45
554.34	16.38
554.51	14.04
554.67	53.83
554.84	154.48
555.00	63.19
555.17	0.00
555.33	72.56
555.50	51.49
555.67	105.32
555.83	77.24
556.00	0.00
556.16	93.62
556.33	23.41
556.50	0.00
556.66	4.68
556.83	98.30
556.99	0.00
557.16	21.06
557.32	0.00
557.49	39.79
557.65	0.00
557.82	39.79
557.98	0.00
558.15	21.06
558.32	0.00
558.48	4.68
558.65	70.22
558.81	58.51
558.98	37.45
559.14	117.03
559.31	56.17
559.47	72.56
559.64	7.02
559.80	93.62
559.97	0.00
560.13	81.92
560.30	42.13
560.46	28.09
560.63	39.79
560.79	70.22
560.96	44.47
561.12	67.88
561.29	51.49
561.45	74.90
561.61	51.49
561.78	42.13
561.94	16.38
562.11	0.00
562.27	84.26
562.44	25.75
562.60	14.04
562.77	51.49
562.93	74.90
563.10	32.77
563.26	56.17
563.42	16.38
563.59	88.94
563.75	46.81
563.92	7.02
564.08	77.24
564.24	0.00
564.41	88.94
564.57	0.00
564.74	0.00
564.90	86.60
565.07	23.41
565.23	0.00
565.39	51.49
565.56	39.79
565.72	4.68
565.88	0.00
566.05	37.45
566.21	70.22
566.38	0.00
566.54	11.70
566.70	0.00
566.87	35.11
567.03	32.77
567.19	0.00
567.36	100.64
567.52	124.05
567.68	67.88
567.85	35.11
568.01	35.11
568.17	65.54
568.34	70.22
568.50	72.56
568.66	0.00
568.83	86.60
568.99	98.30
569.15	46.81
569.32	42.13
569.48	32.77
569.64	0.00
569.81	32.77
569.97	53.83
570.13	0.00
570.30	93.62
570.46	28.09
570.62	77.24
570.78	60.85
570.95	0.00
571.11	110.01
571.27	88.94
571.43	18.72
571.60	32.77
571.76	0.00
571.92	18.72
572.09	74.90
572.25	35.11
572.41	60.85
572.57	7.02
572.74	74.90
572.90	56.17
573.06	32.77
573.22	77.24
573.38	0.00
573.55	32.77
573.71	37.45
573.87	21.06
574.03	21.06
574.20	46.81
574.36	72.56
574.52	44.47
574.68	16.38
574.84	74.90
575.01	67.88
575.17	28.09
575.33	81.92
575.49	32.77
575.65	88.94
575.82	14.04
575.98	46.81
576.14	21.06
576.30	39.79
576.46	121.71
576.62	49.15
576.79	37.45
576.95	28.09
577.11	35.11
577.27	42.13
577.43	58.51
577.59	14.04
577.75	18.72
577.92	30.43
578.08	46.81
578.24	84.26
578.40	25.75
578.56	0.00
578.72	0.00
578.88	119.37
579.04	35.11
579.21	11.70
579.37	23.41
579.53	32.77
579.69	0.00
579.85	44.47
580.01	0.00
580.17	0.00
580.33	37.45
580.49	100.64
580.65	51.49
580.82	0.00
580.98	0.00
581.14	0.00
581.30	70.22
581.46	100.64
581.62	93.62
581.78	65.54
581.94	21.06
582.10	84.26
582.26	77.24
582.42	28.09
582.58	0.00
582.74	49.15
582.90	79.58
583.06	77.24
583.22	0.00
583.38	4.68
583.54	95.96
583.70	114.69
583.86	77.24
584.02	84.26
584.18	65.54
584.34	23.41
584.50	250.44
584.66	1310.70
584.82	3353.99
584.98	4868.31
585.14	4222.33
585.30	2745.45
585.46	1638.38
585.62	1071.97
585.78	566.41
585.94	187.24
586.10	138.09
586.26	53.83
586.42	84.26
586.58	112.35
586.74	21.06
586.90	72.56
587.06	126.39
587.22	72.56
587.38	77.24
587.54	100.64
587.70	224.69
587.86	423.64
588.02	369.80
588.18	299.59
588.34	161.50
588.49	140.43
588.65	81.92
588.81	42.13
588.97	58.51
589.13	51.49
589.29	74.90
589.45	0.00
589.61	25.75
589.77	79.58
589.93	9.36
590.08	65.54
590.24	11.70
590.40	88.94
590.56	91.28
590.72	65.54
590.88	9.36
591.04	131.07
591.20	56.17
591.35	0.00
591.51	0.00
591.67	0.00
591.83	23.41
591.99	35.11
592.15	35.11
592.31	79.58
592.46	9.36
592.62	30.43
592.78	7.02
592.94	0.00
593.10	49.15
593.26	46.81
593.41	117.03
593.57	86.60
593.73	91.28
593.89	229.37
594.05	425.98
594.20	627.26
594.36	545.34
594.52	360.44
594.68	175.54
594.84	184.90
594.99	37.45
595.15	56.17
595.31	35.11
595.47	49.15
595.62	58.51
595.78	65.54
595.94	60.85
596.10	37.45
596.25	23.41
596.41	74.90
596.57	77.24
596.73	124.05
596.88	30.43
597.04	46.81
597.20	133.41
597.36	142.77
597.51	166.18
597.67	117.03
597.83	98.30
597.99	0.00
598.14	56.17
598.30	117.03
598.46	16.38
598.61	0.00
598.77	37.45
598.93	98.30
599.09	18.72
599.24	21.06
599.40	0.00
599.56	86.60
599.71	58.51
599.87	42.13
600.03	32.77
600.18	95.96
600.34	42.13
600.50	30.43
600.65	0.00
600.81	28.09
600.97	16.38
601.12	72.56
601.28	60.85
601.44	86.60
601.59	98.30
601.75	63.19
601.91	60.85
602.06	42.13
602.22	58.51
602.37	124.05
602.53	86.60
602.69	163.84
602.84	152.13
603.00	121.71
603.16	86.60
603.31	91.28
603.47	25.75
603.62	0.00
603.78	77.24
603.94	0.00
604.09	18.72
604.25	67.88
604.40	67.88
604.56	74.90
604.71	9.36
604.87	0.00
605.03	79.58
605.18	67.88
605.34	0.00
605.49	37.45
605.65	39.79
605.80	23.41
605.96	49.15
606.12	35.11
606.27	77.24
606.43	0.00
606.58	0.00
606.74	65.54
606.89	238.73
607.05	442.36
607.20	578.11
607.36	524.28
607.51	299.59
607.67	245.76
607.82	131.07
607.98	112.35
608.13	95.96
608.29	11.70
608.44	0.00
608.60	0.00
608.75	65.54
608.91	88.94
609.06	374.49
609.22	739.61
609.37	994.73
609.53	784.08
609.68	535.98
609.84	351.08
609.99	346.40
610.15	149.79
610.30	23.41
610.46	63.19
610.61	110.01
610.76	28.09
610.92	9.36
611.07	23.41
611.23	44.47
611.38	79.58
611.54	77.24
611.69	0.00
611.84	35.11
612.00	0.00
612.15	70.22
612.31	88.94
612.46	14.04
612.62	32.77
612.77	74.90
612.92	44.47
613.08	63.19
613.23	67.88
613.39	0.00
613.54	102.98
613.69	271.50
613.85	952.60
614.00	1268.57
614.15	1385.60
614.31	1027.50
614.46	667.05
614.62	444.70
614.77	297.25
614.92	124.05
615.08	161.50
615.23	91.28
615.38	102.98
615.54	25.75
615.69	65.54
615.84	224.69
616.00	358.10
616.15	346.40
616.30	337.04
616.46	264.48
616.61	168.52
616.76	121.71
616.92	105.32
617.07	25.75
617.22	79.58
617.37	46.81
617.53	79.58
617.68	44.47
617.83	39.79
617.99	35.11
618.14	28.09
618.29	51.49
618.45	140.43
618.60	105.32
618.75	49.15
618.90	46.81
619.06	25.75
619.21	44.47
619.36	60.85
619.51	79.58
619.67	70.22
619.82	51.49
619.97	16.38
620.12	0.00
620.28	72.56
620.43	42.13
620.58	35.11
620.73	42.13
620.89	70.22
621.04	44.47
621.19	79.58
621.34	236.39
621.49	170.86
621.65	205.97
621.80	234.05
621.95	114.69
622.10	74.90
622.25	37.45
622.41	0.00
622.56	32.77
622.71	0.00
622.86	37.45
623.01	56.17
623.16	0.00
623.32	63.19
623.47	9.36
623.62	18.72
623.77	4.68
623.92	49.15
624.07	58.51
624.23	7.02
624.38	81.92
624.53	32.77
624.68	32.77
624.83	84.26
624.98	49.15
625.13	0.00
625.29	95.96
625.44	28.09
625.59	46.81
625.74	63.19
625.89	70.22
626.04	180.22
626.19	496.19
626.34	690.46
626.49	833.23
626.65	662.37
626.80	393.21
626.95	245.76
627.10	117.03
627.25	119.37
627.40	81.92
627.55	67.88
627.70	63.19
627.85	74.90
628.00	35.11
628.15	28.09
628.30	72.56
628.45	67.88
628.60	28.09
628.76	35.11
628.91	77.24
629.06	30.43
629.21	32.77
629.36	21.06
629.51	0.00
629.66	46.81
629.81	11.70
629.96	159.16
630.11	131.07
630.26	231.71
630.41	201.29
630.56	138.09
630.71	128.73
630.86	39.79
631.01	72.56
631.16	0.00
631.31	63.19
631.46	70.22
631.61	0.00
631.76	30.43
631.91	58.51
632.06	0.00
632.21	58.51
632.36	70.22
632.51	37.45
632.66	72.56
632.81	131.07
632.96	297.25
633.10	547.69
633.25	491.51
633.40	433.00
633.55	304.27
633.70	196.60
633.85	189.58
634.00	95.96
634.15	65.54
634.30	112.35
634.45	51.49
634.60	49.15
634.75	140.43
634.90	44.47
635.05	16.38
635.19	2.34
635.34	0.00
635.49	0.00
635.64	100.64
635.79	0.00
635.94	88.94
636.09	9.36
636.24	0.00
636.39	42.13
636.53	28.09
636.68	16.38
636.83	0.00
636.98	25.75
637.13	0.00
637.28	37.45
637.43	77.24
637.57	86.60
637.72	285.55
637.87	580.45
638.02	910.47
638.17	1048.56
638.32	734.93
638.46	524.28
638.61	416.62
638.76	250.44
638.91	110.01
639.06	49.15
639.20	95.96
639.35	65.54
639.50	105.32
639.65	327.68
639.80	894.08
639.94	1373.89
640.09	1507.30
640.24	1142.18
640.39	683.44
640.54	660.03
640.68	374.49
640.83	184.90
640.98	65.54
641.13	128.73
641.27	49.15
641.42	72.56
641.57	39.79
641.72	65.54
641.86	25.75
642.01	105.32
642.16	11.70
642.31	9.36
642.45	25.75
642.60	0.00
642.75	51.49
642.90	7.02
643.04	0.00
643.19	7.02
643.34	46.81
643.48	18.72
643.63	32.77
643.78	16.38
643.93	32.77
644.07	0.00
644.22	30.43
644.37	81.92
644.51	58.51
644.66	14.04
644.81	46.81
644.95	0.00
645.10	51.49
645.25	44.47
645.39	0.00
645.54	72.56
645.69	81.92
645.83	2.34
645.98	0.00
646.13	35.11
646.27	0.00
646.42	42.13
646.57	37.45
646.71	18.72
646.86	16.38
647.00	0.00
647.15	14.04
647.30	14.04
647.44	21.06
647.59	95.96
647.74	0.00
647.88	30.43
648.03	7.02
648.17	7.02
648.32	23.41
648.47	0.00
648.61	16.38
648.76	58.51
648.90	0.00
649.05	0.00
649.20	42.13
649.34	23.41
649.49	53.83
649.63	46.81
649.78	60.85
649.92	2.34
650.07	67.88
650.21	456.40
650.36	660.03
650.51	793.44
650.65	582.79
650.80	510.24
650.94	395.55
651.09	210.65
651.23	77.24
651.38	0.00
651.52	56.17
651.67	39.79
651.81	37.45
651.96	4.68
652.10	18.72
652.25	98.30
652.39	67.88
652.54	67.88
652.68	93.62
652.83	149.79
652.97	255.12
653.12	372.15
653.26	285.55
653.41	156.82
653.55	163.84
653.70	65.54
653.84	30.43
653.99	25.75
654.13	32.77
654.27	25.75
654.42	0.00
654.56	79.58
654.71	152.13
654.85	91.28
655.00	44.47
655.14	4.68
655.29	98.30
655.43	0.00
655.57	0.00
655.72	35.11
655.86	32.77
656.01	16.38
656.15	14.04
656.30	60.85
656.44	67.88
656.58	14.04
656.73	88.94
656.87	9.36
657.01	21.06
657.16	56.17
657.30	0.00
657.45	65.54
657.59	14.04
657.73	14.04
657.88	16.38
658.02	42.13
658.16	14.04
658.31	46.81
658.45	0.00
658.60	25.75
658.74	110.01
658.88	51.49
659.03	28.09
659.17	16.38
659.31	42.13
659.46	210.65
659.60	285.55
659.74	390.87
659.89	327.68
660.03	259.80
660.17	187.24
660.32	135.75
660.46	98.30
660.60	23.41
660.74	67.88
660.89	70.22
661.03	0.00
661.17	21.06
661.32	0.00
661.46	56.17
661.60	0.00
661.74	37.45
661.89	0.00
662.03	7.02
662.17	32.77
662.31	44.47
662.46	79.58
662.60	74.90
662.74	16.38
662.88	39.79
663.03	30.43
663.17	42.13
663.31	25.75
663.45	51.49
663.60	0.00
663.74	49.15
663.88	4.68
664.02	0.00
664.17	77.24
664.31	63.19
664.45	56.17
664.59	18.72
664.73	0.00
664.88	81.92
665.02	25.75
665.16	60.85
665.30	9.36
665.44	49.15
665.59	23.41
665.73	0.00
665.87	32.77
666.01	4.68
666.15	7.02
666.29	9.36
666.44	28.09
666.58	14.04
666.72	58.51
666.86	63.19
667.00	0.00
667.14	93.62
667.28	205.97
667.43	278.52
667.57	575.77
667.71	690.46
667.85	615.56
667.99	442.36
668.13	273.84
668.27	154.48
668.41	105.32
668.56	72.56
668.70	84.26
668.84	28.09
668.98	86.60
669.12	53.83
669.26	53.83
669.40	72.56
669.54	67.88
669.68	0.00
669.82	23.41
669.96	21.06
670.10	65.54
670.25	35.11
670.39	46.81
670.53	18.72
670.67	25.75
670.81	0.00
670.95	35.11
671.09	121.71
671.23	170.86
671.37	283.20
671.51	372.15
671.65	582.79
671.79	388.53
671.93	273.84
672.07	194.26
672.21	112.35
672.35	4.68
672.49	72.56
672.63	81.92
672.77	42.13
672.91	23.41
673.05	65.54
673.19	98.30
673.33	25.75
673.47	107.66
673.61	39.79
673.75	51.49
673.89	9.36
674.03	107.66
674.17	44.47
674.31	23.41
674.45	53.83
674.59	30.43
674.73	23.41
674.87	39.79
675.01	65.54
675.15	65.54
675.29	0.00
675.43	14.04
675.56	44.47
675.70	7.02
675.84	86.60
675.98	46.81
676.12	56.17
676.26	63.19
676.40	28.09
676.54	30.43
676.68	0.00
676.82	70.22
676.96	37.45
677.10	35.11
677.23	0.00
677.37	16.38
677.51	95.96
677.65	18.72
677.79	0.00
677.93	0.00
678.07	0.00
678.21	0.00
678.34	23.41
678.48	9.36
678.62	58.51
678.76	0.00
678.90	72.56
679.04	0.00
679.18	9.36
679.31	14.04
679.45	46.81
679.59	23.41
679.73	18.72
679.87	0.00
680.00	28.09
680.14	2.34
680.28	0.00
680.42	0.00
680.56	9.36
680.70	93.62
680.83	39.79
680.97	0.00
681.11	0.00
681.25	60.85
681.39	44.47
681.52	0.00
681.66	11.70
681.80	0.00
681.94	63.19
682.07	49.15
682.21	14.04
682.35	7.02
682.49	60.85
682.62	32.77
682.76	4.68
682.90	39.79
683.04	72.56
683.17	0.00
683.31	35.11
683.45	18.72
683.59	58.51
683.72	28.09
683.86	0.00
684.00	0.00
684.13	21.06
684.27	30.43
684.41	98.30
684.55	46.81
684.68	14.04
684.82	28.09
684.96	18.72
685.09	124.05
685.23	18.72
685.37	23.41
685.50	65.54
685.64	65.54
685.78	35.11
685.91	28.09
686.05	77.24
686.19	14.04
686.32	0.00
686.46	0.00
686.60	0.00
686.73	42.13
686.87	77.24
687.01	0.00
687.14	100.64
687.28	39.79
687.42	32.77
687.55	37.45
687.69	70.22
687.82	86.60
687.96	37.45
688.10	30.43
688.23	28.09
688.37	21.06
688.50	32.77
688.64	67.88
688.78	84.26
688.91	70.22
689.05	102.98
689.18	14.04
689.32	32.77
689.46	35.11
689.59	0.00
689.73	30.43
689.86	21.06
690.00	11.70
690.13	23.41
690.27	0.00
690.41	0.00
690.54	14.04
690.68	35.11
690.81	74.90
690.95	16.38
691.08	53.83
691.22	46.81
691.35	56.17
691.49	91.28
691.62	0.00
691.76	0.00
691.89	2.34
692.03	23.41
692.16	56.17
692.30	18.72
692.43	86.60
692.57	170.86
692.70	327.68
692.84	365.12
692.97	334.70
693.11	227.03
693.24	131.07
693.38	46.81
693.51	49.15
693.65	32.77
693.78	56.17
693.92	74.90
694.05	11.70
694.19	23.41
694.32	16.38
694.45	21.06
694.59	23.41
694.72	56.17
694.86	0.00
694.99	28.09
695.13	58.51
695.26	0.00
695.39	44.47
695.53	16.38
695.66	0.00
695.80	32.77
695.93	53.83
696.07	28.09
696.20	0.00
696.33	18.72
696.47	0.00
696.60	65.54
696.73	28.09
696.87	53.83
697.00	21.06
697.14	39.79
697.27	0.00
697.40	95.96
697.54	58.51
697.67	0.00
697.80	95.96
697.94	51.49
698.07	0.00
698.21	35.11
698.34	28.09
698.47	30.43
698.61	21.06
698.74	39.79
698.87	0.00
699.01	53.83
699.14	0.00
699.27	0.00
699.40	53.83
699.54	16.38
699.67	56.17
699.80	0.00
699.94	9.36
700.07	30.43
700.20	21.06
700.34	37.45
700.47	18.72
700.60	0.00
700.73	11.70
700.87	74.90
701.00	65.54
701.13	30.43
701.26	88.94
701.40	77.24
701.53	18.72
701.66	44.47
701.79	0.00
701.93	107.66
702.06	53.83
702.19	25.75
702.32	42.13
702.46	58.51
702.59	0.00
702.72	88.94
702.85	194.26
702.99	393.21
703.12	514.92
703.25	610.88
703.38	482.15
703.51	407.25
703.65	271.50
703.78	234.05
703.91	119.37
704.04	93.62
704.17	56.17
704.31	70.22
704.44	88.94
704.57	74.90
704.70	0.00
704.83	63.19
704.96	63.19
705.10	42.13
705.23	0.00
>>>>>End Processed Spectral Data<<<<<
