SpectraSuite Data File
++++++++++++++++++++++++++++++++++++
Date: Fri Oct 04 12:13:30 GMT-05:00 2013
User: price-jones
Dark Spectrum Present: No
Reference Spectrum Present: No
Number of Sampled Component Spectra: 1
Spectrometers: USB2+H05261
Integration Time (usec): 10000 (USB2+H05261)
Spectra Averaged: 1 (USB2+H05261)
Boxcar Smoothing: 0 (USB2+H05261)
Correct for Electrical Dark: No (USB2+H05261)
Strobe/Lamp Enabled: No (USB2+H05261)
Correct for Detector Non-linearity: No (USB2+H05261)
Correct for Stray Light: No (USB2+H05261)
Number of Pixels in Processed Spectrum: 2048
>>>>>Begin Processed Spectral Data<<<<<
365.73	44.47
365.92	44.47
366.12	44.47
366.32	0.00
366.52	0.00
366.72	0.00
366.91	0.00
367.11	0.00
367.31	0.00
367.51	0.00
367.70	0.00
367.90	0.00
368.10	0.00
368.30	0.00
368.49	0.00
368.69	0.00
368.89	0.00
369.09	0.00
369.28	0.00
369.48	0.00
369.68	0.00
369.87	0.00
370.07	0.00
370.27	0.00
370.47	0.00
370.66	0.00
370.86	0.00
371.06	0.00
371.25	0.00
371.45	39.79
371.65	0.00
371.84	0.00
372.04	0.00
372.24	0.00
372.44	23.41
372.63	0.00
372.83	23.41
373.03	0.00
373.22	0.00
373.42	0.00
373.62	72.56
373.81	49.15
374.01	60.85
374.21	0.00
374.40	25.75
374.60	44.47
374.79	51.49
374.99	0.00
375.19	14.04
375.38	63.19
375.58	9.36
375.78	0.00
375.97	30.43
376.17	25.75
376.37	0.00
376.56	9.36
376.76	0.00
376.95	93.62
377.15	25.75
377.35	0.00
377.54	67.88
377.74	23.41
377.93	32.77
378.13	9.36
378.33	21.06
378.52	25.75
378.72	11.70
378.91	0.00
379.11	86.60
379.31	14.04
379.50	35.11
379.70	25.75
379.89	2.34
380.09	0.00
380.28	4.68
380.48	0.00
380.68	4.68
380.87	0.00
381.07	23.41
381.26	7.02
381.46	28.09
381.65	0.00
381.85	0.00
382.04	32.77
382.24	0.00
382.43	0.00
382.63	14.04
382.83	23.41
383.02	0.00
383.22	0.00
383.41	0.00
383.61	0.00
383.80	72.56
384.00	0.00
384.19	53.83
384.39	32.77
384.58	11.70
384.78	46.81
384.97	0.00
385.17	42.13
385.36	0.00
385.56	28.09
385.75	67.88
385.95	4.68
386.14	58.51
386.34	0.00
386.53	0.00
386.72	39.79
386.92	46.81
387.11	51.49
387.31	49.15
387.50	0.00
387.70	21.06
387.89	67.88
388.09	23.41
388.28	16.38
388.48	72.56
388.67	0.00
388.86	0.00
389.06	0.00
389.25	0.00
389.45	49.15
389.64	23.41
389.84	0.00
390.03	4.68
390.22	49.15
390.42	63.19
390.61	0.00
390.81	0.00
391.00	0.00
391.19	37.45
391.39	16.38
391.58	0.00
391.78	0.00
391.97	16.38
392.16	53.83
392.36	72.56
392.55	39.79
392.75	39.79
392.94	35.11
393.13	84.26
393.33	0.00
393.52	65.54
393.71	7.02
393.91	9.36
394.10	72.56
394.29	0.00
394.49	86.60
394.68	35.11
394.88	0.00
395.07	46.81
395.26	28.09
395.46	9.36
395.65	0.00
395.84	0.00
396.04	7.02
396.23	9.36
396.42	0.00
396.62	42.13
396.81	23.41
397.00	42.13
397.19	32.77
397.39	28.09
397.58	9.36
397.77	35.11
397.97	53.83
398.16	16.38
398.35	14.04
398.55	7.02
398.74	0.00
398.93	84.26
399.12	0.00
399.32	37.45
399.51	79.58
399.70	35.11
399.90	0.00
400.09	53.83
400.28	56.17
400.47	42.13
400.67	21.06
400.86	0.00
401.05	11.70
401.24	23.41
401.44	53.83
401.63	46.81
401.82	23.41
402.01	16.38
402.21	79.58
402.40	11.70
402.59	14.04
402.78	44.47
402.97	0.00
403.17	30.43
403.36	0.00
403.55	11.70
403.74	0.00
403.93	18.72
404.13	93.62
404.32	0.00
404.51	28.09
404.70	0.00
404.89	35.11
405.09	42.13
405.28	23.41
405.47	14.04
405.66	4.68
405.85	65.54
406.05	21.06
406.24	7.02
406.43	25.75
406.62	21.06
406.81	0.00
407.00	23.41
407.20	37.45
407.39	35.11
407.58	0.00
407.77	0.00
407.96	0.00
408.15	39.79
408.34	32.77
408.54	35.11
408.73	32.77
408.92	21.06
409.11	18.72
409.30	21.06
409.49	35.11
409.68	42.13
409.87	37.45
410.07	4.68
410.26	4.68
410.45	56.17
410.64	21.06
410.83	11.70
411.02	32.77
411.21	18.72
411.40	14.04
411.59	44.47
411.78	25.75
411.98	53.83
412.17	100.64
412.36	9.36
412.55	32.77
412.74	21.06
412.93	23.41
413.12	18.72
413.31	119.37
413.50	42.13
413.69	0.00
413.88	0.00
414.07	0.00
414.26	65.54
414.45	4.68
414.64	25.75
414.83	0.00
415.02	7.02
415.22	56.17
415.41	0.00
415.60	37.45
415.79	0.00
415.98	11.70
416.17	0.00
416.36	7.02
416.55	25.75
416.74	0.00
416.93	14.04
417.12	0.00
417.31	65.54
417.50	42.13
417.69	32.77
417.88	0.00
418.07	39.79
418.26	18.72
418.45	0.00
418.64	0.00
418.83	0.00
419.02	18.72
419.21	49.15
419.39	79.58
419.58	28.09
419.77	42.13
419.96	37.45
420.15	32.77
420.34	14.04
420.53	67.88
420.72	70.22
420.91	0.00
421.10	70.22
421.29	0.00
421.48	4.68
421.67	0.00
421.86	39.79
422.05	7.02
422.24	32.77
422.43	51.49
422.61	32.77
422.80	32.77
422.99	28.09
423.18	102.98
423.37	93.62
423.56	67.88
423.75	23.41
423.94	0.00
424.13	0.00
424.32	0.00
424.50	131.07
424.69	9.36
424.88	65.54
425.07	16.38
425.26	88.94
425.45	77.24
425.64	72.56
425.83	53.83
426.01	39.79
426.20	0.00
426.39	30.43
426.58	14.04
426.77	0.00
426.96	11.70
427.15	37.45
427.33	4.68
427.52	0.00
427.71	23.41
427.90	7.02
428.09	35.11
428.28	58.51
428.46	23.41
428.65	0.00
428.84	0.00
429.03	0.00
429.22	28.09
429.40	11.70
429.59	0.00
429.78	42.13
429.97	56.17
430.16	58.51
430.34	11.70
430.53	0.00
430.72	32.77
430.91	72.56
431.10	0.00
431.28	0.00
431.47	7.02
431.66	51.49
431.85	70.22
432.03	74.90
432.22	16.38
432.41	58.51
432.60	21.06
432.79	0.00
432.97	56.17
433.16	51.49
433.35	35.11
433.54	124.05
433.72	9.36
433.91	30.43
434.10	16.38
434.28	30.43
434.47	0.00
434.66	49.15
434.85	9.36
435.03	0.00
435.22	0.00
435.41	72.56
435.59	51.49
435.78	35.11
435.97	0.00
436.16	0.00
436.34	16.38
436.53	4.68
436.72	0.00
436.90	0.00
437.09	23.41
437.28	30.43
437.46	30.43
437.65	0.00
437.84	21.06
438.02	0.00
438.21	0.00
438.40	37.45
438.58	79.58
438.77	56.17
438.96	32.77
439.14	21.06
439.33	0.00
439.52	65.54
439.70	70.22
439.89	46.81
440.08	0.00
440.26	0.00
440.45	124.05
440.63	0.00
440.82	30.43
441.01	28.09
441.19	107.66
441.38	53.83
441.57	16.38
441.75	32.77
441.94	39.79
442.12	56.17
442.31	56.17
442.50	0.00
442.68	16.38
442.87	0.00
443.05	51.49
443.24	39.79
443.43	39.79
443.61	86.60
443.80	25.75
443.98	35.11
444.17	30.43
444.35	0.00
444.54	49.15
444.73	30.43
444.91	23.41
445.10	30.43
445.28	30.43
445.47	65.54
445.65	32.77
445.84	7.02
446.02	32.77
446.21	44.47
446.39	81.92
446.58	0.00
446.77	0.00
446.95	0.00
447.14	56.17
447.32	60.85
447.51	0.00
447.69	35.11
447.88	100.64
448.06	28.09
448.25	53.83
448.43	0.00
448.62	63.19
448.80	72.56
448.99	35.11
449.17	4.68
449.36	79.58
449.54	35.11
449.73	16.38
449.91	65.54
450.10	30.43
450.28	0.00
450.46	53.83
450.65	63.19
450.83	2.34
451.02	39.79
451.20	58.51
451.39	23.41
451.57	0.00
451.76	28.09
451.94	35.11
452.13	0.00
452.31	28.09
452.49	53.83
452.68	0.00
452.86	4.68
453.05	65.54
453.23	2.34
453.42	23.41
453.60	65.54
453.78	79.58
453.97	63.19
454.15	16.38
454.34	46.81
454.52	0.00
454.70	98.30
454.89	81.92
455.07	95.96
455.26	28.09
455.44	7.02
455.62	56.17
455.81	46.81
455.99	11.70
456.17	14.04
456.36	49.15
456.54	112.35
456.73	63.19
456.91	28.09
457.09	25.75
457.28	18.72
457.46	14.04
457.64	0.00
457.83	21.06
458.01	28.09
458.19	42.13
458.38	39.79
458.56	35.11
458.74	56.17
458.93	49.15
459.11	63.19
459.29	119.37
459.48	63.19
459.66	16.38
459.84	32.77
460.03	49.15
460.21	37.45
460.39	88.94
460.57	37.45
460.76	0.00
460.94	0.00
461.12	58.51
461.31	11.70
461.49	46.81
461.67	23.41
461.85	7.02
462.04	110.01
462.22	79.58
462.40	9.36
462.59	14.04
462.77	25.75
462.95	37.45
463.13	0.00
463.32	23.41
463.50	51.49
463.68	11.70
463.86	0.00
464.05	2.34
464.23	51.49
464.41	44.47
464.59	23.41
464.78	77.24
464.96	21.06
465.14	67.88
465.32	91.28
465.50	46.81
465.69	138.09
465.87	25.75
466.05	7.02
466.23	0.00
466.41	44.47
466.60	18.72
466.78	110.01
466.96	0.00
467.14	9.36
467.32	21.06
467.51	102.98
467.69	23.41
467.87	72.56
468.05	77.24
468.23	119.37
468.41	2.34
468.60	7.02
468.78	70.22
468.96	58.51
469.14	2.34
469.32	53.83
469.50	7.02
469.69	44.47
469.87	0.00
470.05	21.06
470.23	72.56
470.41	42.13
470.59	0.00
470.77	37.45
470.95	53.83
471.14	60.85
471.32	39.79
471.50	79.58
471.68	72.56
471.86	84.26
472.04	121.71
472.22	18.72
472.40	16.38
472.58	56.17
472.77	0.00
472.95	0.00
473.13	58.51
473.31	67.88
473.49	11.70
473.67	21.06
473.85	74.90
474.03	0.00
474.21	4.68
474.39	56.17
474.57	74.90
474.75	46.81
474.93	63.19
475.12	0.00
475.30	32.77
475.48	7.02
475.66	102.98
475.84	42.13
476.02	42.13
476.20	81.92
476.38	0.00
476.56	25.75
476.74	46.81
476.92	79.58
477.10	42.13
477.28	16.38
477.46	46.81
477.64	65.54
477.82	35.11
478.00	86.60
478.18	0.00
478.36	0.00
478.54	11.70
478.72	58.51
478.90	51.49
479.08	0.00
479.26	7.02
479.44	60.85
479.62	35.11
479.80	28.09
479.98	23.41
480.16	63.19
480.34	56.17
480.52	35.11
480.70	0.00
480.88	39.79
481.06	14.04
481.24	32.77
481.41	0.00
481.59	23.41
481.77	25.75
481.95	70.22
482.13	98.30
482.31	63.19
482.49	79.58
482.67	0.00
482.85	46.81
483.03	0.00
483.21	39.79
483.39	46.81
483.57	56.17
483.74	98.30
483.92	58.51
484.10	32.77
484.28	0.00
484.46	88.94
484.64	81.92
484.82	51.49
485.00	32.77
485.18	32.77
485.35	7.02
485.53	32.77
485.71	0.00
485.89	42.13
486.07	42.13
486.25	0.00
486.43	16.38
486.61	37.45
486.78	32.77
486.96	79.58
487.14	35.11
487.32	0.00
487.50	25.75
487.68	37.45
487.85	28.09
488.03	23.41
488.21	0.00
488.39	23.41
488.57	46.81
488.75	46.81
488.92	63.19
489.10	0.00
489.28	11.70
489.46	0.00
489.64	21.06
489.81	49.15
489.99	84.26
490.17	0.00
490.35	67.88
490.53	0.00
490.70	88.94
490.88	81.92
491.06	79.58
491.24	60.85
491.41	56.17
491.59	56.17
491.77	56.17
491.95	18.72
492.13	91.28
492.30	51.49
492.48	0.00
492.66	21.06
492.84	93.62
493.01	0.00
493.19	79.58
493.37	56.17
493.54	0.00
493.72	0.00
493.90	14.04
494.08	49.15
494.25	0.00
494.43	70.22
494.61	25.75
494.79	56.17
494.96	28.09
495.14	0.00
495.32	25.75
495.49	84.26
495.67	30.43
495.85	93.62
496.02	32.77
496.20	30.43
496.38	0.00
496.55	0.00
496.73	81.92
496.91	4.68
497.09	18.72
497.26	65.54
497.44	79.58
497.62	14.04
497.79	0.00
497.97	4.68
498.14	98.30
498.32	0.00
498.50	39.79
498.67	49.15
498.85	65.54
499.03	124.05
499.20	65.54
499.38	44.47
499.56	46.81
499.73	11.70
499.91	39.79
500.08	37.45
500.26	9.36
500.44	28.09
500.61	0.00
500.79	67.88
500.97	18.72
501.14	65.54
501.32	53.83
501.49	56.17
501.67	0.00
501.84	60.85
502.02	35.11
502.20	53.83
502.37	0.00
502.55	0.00
502.72	30.43
502.90	0.00
503.07	25.75
503.25	58.51
503.43	14.04
503.60	35.11
503.78	91.28
503.95	42.13
504.13	0.00
504.30	67.88
504.48	0.00
504.65	25.75
504.83	119.37
505.01	79.58
505.18	30.43
505.36	58.51
505.53	23.41
505.71	60.85
505.88	110.01
506.06	11.70
506.23	37.45
506.41	35.11
506.58	28.09
506.76	30.43
506.93	44.47
507.11	46.81
507.28	44.47
507.46	77.24
507.63	79.58
507.81	42.13
507.98	0.00
508.16	9.36
508.33	56.17
508.50	46.81
508.68	77.24
508.85	25.75
509.03	60.85
509.20	11.70
509.38	58.51
509.55	0.00
509.73	51.49
509.90	56.17
510.08	112.35
510.25	72.56
510.42	4.68
510.60	25.75
510.77	46.81
510.95	0.00
511.12	30.43
511.30	63.19
511.47	9.36
511.64	9.36
511.82	0.00
511.99	53.83
512.17	39.79
512.34	70.22
512.51	2.34
512.69	32.77
512.86	0.00
513.04	35.11
513.21	14.04
513.38	0.00
513.56	100.64
513.73	67.88
513.90	49.15
514.08	84.26
514.25	72.56
514.43	0.00
514.60	4.68
514.77	77.24
514.95	79.58
515.12	39.79
515.29	14.04
515.47	35.11
515.64	56.17
515.81	44.47
515.99	9.36
516.16	42.13
516.33	53.83
516.51	49.15
516.68	0.00
516.85	53.83
517.03	25.75
517.20	98.30
517.37	46.81
517.54	72.56
517.72	93.62
517.89	65.54
518.06	37.45
518.24	88.94
518.41	37.45
518.58	79.58
518.75	16.38
518.93	14.04
519.10	72.56
519.27	44.47
519.45	60.85
519.62	7.02
519.79	4.68
519.96	4.68
520.14	77.24
520.31	98.30
520.48	39.79
520.65	67.88
520.83	93.62
521.00	42.13
521.17	51.49
521.34	2.34
521.52	18.72
521.69	49.15
521.86	67.88
522.03	131.07
522.20	81.92
522.38	0.00
522.55	14.04
522.72	58.51
522.89	58.51
523.07	25.75
523.24	23.41
523.41	0.00
523.58	35.11
523.75	18.72
523.92	0.00
524.10	58.51
524.27	7.02
524.44	9.36
524.61	37.45
524.78	112.35
524.96	25.75
525.13	67.88
525.30	21.06
525.47	21.06
525.64	60.85
525.81	56.17
525.98	23.41
526.16	23.41
526.33	112.35
526.50	2.34
526.67	16.38
526.84	51.49
527.01	37.45
527.18	81.92
527.36	18.72
527.53	0.00
527.70	49.15
527.87	51.49
528.04	79.58
528.21	77.24
528.38	0.00
528.55	0.00
528.72	84.26
528.89	23.41
529.07	28.09
529.24	72.56
529.41	102.98
529.58	44.47
529.75	46.81
529.92	42.13
530.09	2.34
530.26	30.43
530.43	63.19
530.60	4.68
530.77	2.34
530.94	51.49
531.11	112.35
531.28	25.75
531.46	0.00
531.63	23.41
531.80	39.79
531.97	53.83
532.14	7.02
532.31	126.39
532.48	30.43
532.65	56.17
532.82	39.79
532.99	28.09
533.16	51.49
533.33	51.49
533.50	67.88
533.67	0.00
533.84	65.54
534.01	70.22
534.18	0.00
534.35	11.70
534.52	44.47
534.69	25.75
534.86	25.75
535.03	100.64
535.20	0.00
535.37	0.00
535.54	74.90
535.71	28.09
535.88	46.81
536.05	0.00
536.22	4.68
536.38	51.49
536.55	72.56
536.72	60.85
536.89	14.04
537.06	21.06
537.23	9.36
537.40	9.36
537.57	14.04
537.74	79.58
537.91	21.06
538.08	0.00
538.25	42.13
538.42	70.22
538.59	0.00
538.75	95.96
538.92	65.54
539.09	56.17
539.26	28.09
539.43	14.04
539.60	63.19
539.77	60.85
539.94	70.22
540.11	91.28
540.28	18.72
540.44	0.00
540.61	4.68
540.78	23.41
540.95	9.36
541.12	35.11
541.29	114.69
541.46	98.30
541.62	67.88
541.79	77.24
541.96	28.09
542.13	2.34
542.30	72.56
542.47	58.51
542.63	107.66
542.80	35.11
542.97	63.19
543.14	88.94
543.31	0.00
543.48	110.01
543.64	14.04
543.81	63.19
543.98	79.58
544.15	70.22
544.32	63.19
544.48	81.92
544.65	53.83
544.82	30.43
544.99	112.35
545.16	58.51
545.32	84.26
545.49	30.43
545.66	93.62
545.83	42.13
546.00	58.51
546.16	77.24
546.33	70.22
546.50	72.56
546.67	44.47
546.83	72.56
547.00	35.11
547.17	25.75
547.34	51.49
547.50	28.09
547.67	30.43
547.84	0.00
548.00	4.68
548.17	58.51
548.34	53.83
548.51	21.06
548.67	74.90
548.84	16.38
549.01	14.04
549.18	42.13
549.34	56.17
549.51	18.72
549.68	0.00
549.84	30.43
550.01	77.24
550.18	16.38
550.34	37.45
550.51	35.11
550.68	74.90
550.84	49.15
551.01	21.06
551.18	60.85
551.34	53.83
551.51	0.00
551.68	37.45
551.84	60.85
552.01	44.47
552.18	30.43
552.34	44.47
552.51	23.41
552.68	60.85
552.84	81.92
553.01	72.56
553.18	81.92
553.34	42.13
553.51	14.04
553.67	0.00
553.84	0.00
554.01	67.88
554.17	60.85
554.34	23.41
554.51	63.19
554.67	30.43
554.84	0.00
555.00	81.92
555.17	0.00
555.33	53.83
555.50	0.00
555.67	0.00
555.83	65.54
556.00	60.85
556.16	74.90
556.33	4.68
556.50	42.13
556.66	77.24
556.83	63.19
556.99	25.75
557.16	0.00
557.32	63.19
557.49	93.62
557.65	49.15
557.82	58.51
557.98	65.54
558.15	56.17
558.32	14.04
558.48	25.75
558.65	49.15
558.81	84.26
558.98	79.58
559.14	44.47
559.31	16.38
559.47	2.34
559.64	0.00
559.80	21.06
559.97	35.11
560.13	4.68
560.30	100.64
560.46	0.00
560.63	53.83
560.79	72.56
560.96	58.51
561.12	30.43
561.29	95.96
561.45	30.43
561.61	98.30
561.78	0.00
561.94	7.02
562.11	88.94
562.27	14.04
562.44	4.68
562.60	21.06
562.77	81.92
562.93	51.49
563.10	0.00
563.26	30.43
563.42	51.49
563.59	42.13
563.75	0.00
563.92	23.41
564.08	25.75
564.24	46.81
564.41	37.45
564.57	42.13
564.74	0.00
564.90	0.00
565.07	0.00
565.23	60.85
565.39	28.09
565.56	63.19
565.72	9.36
565.88	0.00
566.05	72.56
566.21	32.77
566.38	49.15
566.54	63.19
566.70	93.62
566.87	102.98
567.03	100.64
567.19	100.64
567.36	51.49
567.52	0.00
567.68	58.51
567.85	0.00
568.01	0.00
568.17	49.15
568.34	42.13
568.50	14.04
568.66	18.72
568.83	11.70
568.99	9.36
569.15	2.34
569.32	21.06
569.48	37.45
569.64	39.79
569.81	58.51
569.97	11.70
570.13	35.11
570.30	37.45
570.46	79.58
570.62	65.54
570.78	28.09
570.95	63.19
571.11	53.83
571.27	93.62
571.43	91.28
571.60	21.06
571.76	39.79
571.92	42.13
572.09	65.54
572.25	133.41
572.41	18.72
572.57	42.13
572.74	0.00
572.90	79.58
573.06	23.41
573.22	2.34
573.38	0.00
573.55	70.22
573.71	0.00
573.87	79.58
574.03	86.60
574.20	35.11
574.36	37.45
574.52	14.04
574.68	0.00
574.84	35.11
575.01	44.47
575.17	81.92
575.33	0.00
575.49	0.00
575.65	46.81
575.82	39.79
575.98	4.68
576.14	11.70
576.30	95.96
576.46	7.02
576.62	37.45
576.79	39.79
576.95	70.22
577.11	35.11
577.27	49.15
577.43	11.70
577.59	53.83
577.75	60.85
577.92	67.88
578.08	0.00
578.24	25.75
578.40	0.00
578.56	44.47
578.72	37.45
578.88	4.68
579.04	23.41
579.21	72.56
579.37	30.43
579.53	0.00
579.69	28.09
579.85	77.24
580.01	44.47
580.17	37.45
580.33	9.36
580.49	0.00
580.65	0.00
580.82	70.22
580.98	49.15
581.14	0.00
581.30	58.51
581.46	81.92
581.62	56.17
581.78	95.96
581.94	14.04
582.10	30.43
582.26	63.19
582.42	14.04
582.58	72.56
582.74	44.47
582.90	81.92
583.06	30.43
583.22	0.00
583.38	98.30
583.54	0.00
583.70	119.37
583.86	84.26
584.02	86.60
584.18	11.70
584.34	46.81
584.50	110.01
584.66	393.21
584.82	866.00
584.98	1097.71
585.14	873.02
585.30	596.84
585.46	397.89
585.62	198.95
585.78	138.09
585.94	98.30
586.10	14.04
586.26	77.24
586.42	107.66
586.58	11.70
586.74	60.85
586.90	56.17
587.06	35.11
587.22	32.77
587.38	23.41
587.54	53.83
587.70	74.90
587.86	117.03
588.02	112.35
588.18	79.58
588.34	67.88
588.49	58.51
588.65	63.19
588.81	46.81
588.97	35.11
589.13	0.00
589.29	0.00
589.45	4.68
589.61	0.00
589.77	70.22
589.93	2.34
590.08	0.00
590.24	0.00
590.40	53.83
590.56	72.56
590.72	51.49
590.88	0.00
591.04	0.00
591.20	46.81
591.35	77.24
591.51	28.09
591.67	0.00
591.83	0.00
591.99	42.13
592.15	35.11
592.31	30.43
592.46	0.00
592.62	86.60
592.78	0.00
592.94	14.04
593.10	0.00
593.26	0.00
593.41	0.00
593.57	16.38
593.73	21.06
593.89	102.98
594.05	159.16
594.20	152.13
594.36	110.01
594.52	198.95
594.68	56.17
594.84	112.35
594.99	79.58
595.15	30.43
595.31	32.77
595.47	16.38
595.62	51.49
595.78	42.13
595.94	42.13
596.10	51.49
596.25	0.00
596.41	63.19
596.57	77.24
596.73	28.09
596.88	65.54
597.04	39.79
597.20	65.54
597.36	49.15
597.51	0.00
597.67	88.94
597.83	86.60
597.99	18.72
598.14	81.92
598.30	39.79
598.46	65.54
598.61	63.19
598.77	35.11
598.93	81.92
599.09	0.00
599.24	0.00
599.40	42.13
599.56	58.51
599.71	25.75
599.87	39.79
600.03	23.41
600.18	0.00
600.34	11.70
600.50	79.58
600.65	0.00
600.81	58.51
600.97	56.17
601.12	119.37
601.28	42.13
601.44	0.00
601.59	0.00
601.75	0.00
601.91	37.45
602.06	25.75
602.22	77.24
602.37	28.09
602.53	46.81
602.69	88.94
602.84	98.30
603.00	91.28
603.16	35.11
603.31	88.94
603.47	0.00
603.62	30.43
603.78	25.75
603.94	44.47
604.09	60.85
604.25	0.00
604.40	46.81
604.56	0.00
604.71	32.77
604.87	39.79
605.03	0.00
605.18	11.70
605.34	18.72
605.49	81.92
605.65	21.06
605.80	53.83
605.96	51.49
606.12	70.22
606.27	0.00
606.43	44.47
606.58	58.51
606.74	4.68
606.89	81.92
607.05	105.32
607.20	177.88
607.36	112.35
607.51	58.51
607.67	93.62
607.82	25.75
607.98	21.06
608.13	72.56
608.29	14.04
608.44	28.09
608.60	0.00
608.75	70.22
608.91	35.11
609.06	102.98
609.22	227.03
609.37	276.18
609.53	290.23
609.68	145.11
609.84	107.66
609.99	119.37
610.15	70.22
610.30	86.60
610.46	58.51
610.61	53.83
610.76	58.51
610.92	112.35
611.07	70.22
611.23	14.04
611.38	11.70
611.54	16.38
611.69	67.88
611.84	2.34
612.00	0.00
612.15	70.22
612.31	0.00
612.46	25.75
612.62	93.62
612.77	18.72
612.92	51.49
613.08	53.83
613.23	30.43
613.39	46.81
613.54	35.11
613.69	161.50
613.85	287.89
614.00	358.10
614.15	411.93
614.31	313.63
614.46	198.95
614.62	126.39
614.77	95.96
614.92	46.81
615.08	53.83
615.23	28.09
615.38	117.03
615.54	39.79
615.69	67.88
615.84	119.37
616.00	112.35
616.15	133.41
616.30	100.64
616.46	91.28
616.61	44.47
616.76	131.07
616.92	16.38
617.07	100.64
617.22	121.71
617.37	32.77
617.53	84.26
617.68	30.43
617.83	44.47
617.99	21.06
618.14	42.13
618.29	23.41
618.45	0.00
618.60	9.36
618.75	14.04
618.90	0.00
619.06	25.75
619.21	93.62
619.36	49.15
619.51	67.88
619.67	91.28
619.82	9.36
619.97	53.83
620.12	14.04
620.28	39.79
620.43	35.11
620.58	2.34
620.73	11.70
620.89	49.15
621.04	21.06
621.19	100.64
621.34	100.64
621.49	152.13
621.65	32.77
621.80	142.77
621.95	7.02
622.10	105.32
622.25	102.98
622.41	35.11
622.56	42.13
622.71	11.70
622.86	46.81
623.01	4.68
623.16	0.00
623.32	2.34
623.47	0.00
623.62	37.45
623.77	56.17
623.92	21.06
624.07	42.13
624.23	0.00
624.38	39.79
624.53	9.36
624.68	77.24
624.83	112.35
624.98	30.43
625.13	0.00
625.29	46.81
625.44	58.51
625.59	39.79
625.74	32.77
625.89	0.00
626.04	44.47
626.19	210.65
626.34	187.24
626.49	170.86
626.65	121.71
626.80	133.41
626.95	142.77
627.10	63.19
627.25	30.43
627.40	49.15
627.55	51.49
627.70	0.00
627.85	42.13
628.00	49.15
628.15	53.83
628.30	70.22
628.45	46.81
628.60	46.81
628.76	77.24
628.91	65.54
629.06	28.09
629.21	44.47
629.36	60.85
629.51	0.00
629.66	51.49
629.81	53.83
629.96	70.22
630.11	21.06
630.26	70.22
630.41	86.60
630.56	49.15
630.71	46.81
630.86	98.30
631.01	0.00
631.16	0.00
631.31	0.00
631.46	37.45
631.61	0.00
631.76	21.06
631.91	56.17
632.06	46.81
632.21	79.58
632.36	7.02
632.51	7.02
632.66	28.09
632.81	32.77
632.96	110.01
633.10	154.48
633.25	131.07
633.40	128.73
633.55	112.35
633.70	42.13
633.85	51.49
634.00	56.17
634.15	84.26
634.30	63.19
634.45	42.13
634.60	65.54
634.75	21.06
634.90	67.88
635.05	0.00
635.19	70.22
635.34	9.36
635.49	14.04
635.64	72.56
635.79	30.43
635.94	0.00
636.09	42.13
636.24	4.68
636.39	28.09
636.53	51.49
636.68	14.04
636.83	0.00
636.98	35.11
637.13	42.13
637.28	14.04
637.43	2.34
637.57	28.09
637.72	131.07
637.87	210.65
638.02	248.10
638.17	187.24
638.32	189.58
638.46	131.07
638.61	79.58
638.76	86.60
638.91	30.43
639.06	28.09
639.20	44.47
639.35	98.30
639.50	58.51
639.65	117.03
639.80	229.37
639.94	259.80
640.09	355.76
640.24	243.42
640.39	245.76
640.54	224.69
640.68	133.41
640.83	30.43
640.98	18.72
641.13	0.00
641.27	102.98
641.42	16.38
641.57	30.43
641.72	107.66
641.86	0.00
642.01	46.81
642.16	16.38
642.31	105.32
642.45	39.79
642.60	21.06
642.75	4.68
642.90	35.11
643.04	0.00
643.19	0.00
643.34	0.00
643.48	0.00
643.63	0.00
643.78	21.06
643.93	79.58
644.07	28.09
644.22	67.88
644.37	84.26
644.51	9.36
644.66	28.09
644.81	0.00
644.95	51.49
645.10	74.90
645.25	37.45
645.39	0.00
645.54	56.17
645.69	95.96
645.83	86.60
645.98	0.00
646.13	42.13
646.27	28.09
646.42	44.47
646.57	0.00
646.71	0.00
646.86	28.09
647.00	25.75
647.15	0.00
647.30	21.06
647.44	2.34
647.59	81.92
647.74	93.62
647.88	37.45
648.03	63.19
648.17	30.43
648.32	23.41
648.47	49.15
648.61	14.04
648.76	88.94
648.90	91.28
649.05	84.26
649.20	0.00
649.34	32.77
649.49	58.51
649.63	16.38
649.78	25.75
649.92	46.81
650.07	102.98
650.21	102.98
650.36	184.90
650.51	203.63
650.65	133.41
650.80	14.04
650.94	86.60
651.09	63.19
651.23	44.47
651.38	39.79
651.52	67.88
651.67	60.85
651.81	0.00
651.96	23.41
652.10	39.79
652.25	58.51
652.39	18.72
652.54	11.70
652.68	11.70
652.83	0.00
652.97	98.30
653.12	126.39
653.26	131.07
653.41	77.24
653.55	84.26
653.70	39.79
653.84	107.66
653.99	23.41
654.13	124.05
654.27	0.00
654.42	65.54
654.56	7.02
654.71	4.68
654.85	58.51
655.00	7.02
655.14	30.43
655.29	0.00
655.43	65.54
655.57	60.85
655.72	30.43
655.86	46.81
656.01	0.00
656.15	56.17
656.30	53.83
656.44	53.83
656.58	25.75
656.73	0.00
656.87	30.43
657.01	14.04
657.16	70.22
657.30	49.15
657.45	65.54
657.59	46.81
657.73	0.00
657.88	14.04
658.02	56.17
658.16	0.00
658.31	79.58
658.45	49.15
658.60	30.43
658.74	70.22
658.88	11.70
659.03	0.00
659.17	7.02
659.31	46.81
659.46	42.13
659.60	79.58
659.74	72.56
659.89	51.49
660.03	84.26
660.17	0.00
660.32	65.54
660.46	67.88
660.60	0.00
660.74	18.72
660.89	37.45
661.03	91.28
661.17	14.04
661.32	0.00
661.46	18.72
661.60	14.04
661.74	74.90
661.89	23.41
662.03	49.15
662.17	25.75
662.31	0.00
662.46	21.06
662.60	63.19
662.74	105.32
662.88	16.38
663.03	65.54
663.17	42.13
663.31	65.54
663.45	79.58
663.60	98.30
663.74	51.49
663.88	14.04
664.02	0.00
664.17	16.38
664.31	72.56
664.45	49.15
664.59	30.43
664.73	46.81
664.88	63.19
665.02	51.49
665.16	49.15
665.30	56.17
665.44	32.77
665.59	2.34
665.73	74.90
665.87	9.36
666.01	67.88
666.15	0.00
666.29	0.00
666.44	2.34
666.58	49.15
666.72	63.19
666.86	0.00
667.00	37.45
667.14	23.41
667.28	25.75
667.43	138.09
667.57	131.07
667.71	203.63
667.85	159.16
667.99	147.45
668.13	28.09
668.27	91.28
668.41	7.02
668.56	2.34
668.70	46.81
668.84	49.15
668.98	39.79
669.12	0.00
669.26	32.77
669.40	37.45
669.54	30.43
669.68	9.36
669.82	2.34
669.96	0.00
670.10	35.11
670.25	28.09
670.39	46.81
670.53	0.00
670.67	14.04
670.81	0.00
670.95	0.00
671.09	0.00
671.23	98.30
671.37	166.18
671.51	93.62
671.65	135.75
671.79	131.07
671.93	70.22
672.07	107.66
672.21	16.38
672.35	0.00
672.49	16.38
672.63	0.00
672.77	51.49
672.91	49.15
673.05	42.13
673.19	65.54
673.33	0.00
673.47	11.70
673.61	53.83
673.75	77.24
673.89	0.00
674.03	49.15
674.17	65.54
674.31	23.41
674.45	72.56
674.59	35.11
674.73	0.00
674.87	30.43
675.01	23.41
675.15	121.71
675.29	65.54
675.43	28.09
675.56	11.70
675.70	18.72
675.84	42.13
675.98	0.00
676.12	53.83
676.26	25.75
676.40	56.17
676.54	70.22
676.68	25.75
676.82	9.36
676.96	0.00
677.10	0.00
677.23	0.00
677.37	23.41
677.51	70.22
677.65	51.49
677.79	65.54
677.93	32.77
678.07	0.00
678.21	0.00
678.34	58.51
678.48	0.00
678.62	0.00
678.76	14.04
678.90	49.15
679.04	0.00
679.18	91.28
679.31	0.00
679.45	25.75
679.59	58.51
679.73	0.00
679.87	53.83
680.00	0.00
680.14	2.34
680.28	0.00
680.42	23.41
680.56	2.34
680.70	18.72
680.83	0.00
680.97	37.45
681.11	32.77
681.25	9.36
681.39	58.51
681.52	100.64
681.66	23.41
681.80	53.83
681.94	23.41
682.07	46.81
682.21	51.49
682.35	37.45
682.49	117.03
682.62	86.60
682.76	14.04
682.90	42.13
683.04	81.92
683.17	88.94
683.31	18.72
683.45	11.70
683.59	35.11
683.72	35.11
683.86	32.77
684.00	21.06
684.13	39.79
684.27	37.45
684.41	14.04
684.55	65.54
684.68	35.11
684.82	4.68
684.96	42.13
685.09	93.62
685.23	0.00
685.37	0.00
685.50	79.58
685.64	39.79
685.78	30.43
685.91	53.83
686.05	28.09
686.19	0.00
686.32	0.00
686.46	35.11
686.60	39.79
686.73	30.43
686.87	16.38
687.01	124.05
687.14	4.68
687.28	67.88
687.42	39.79
687.55	46.81
687.69	70.22
687.82	58.51
687.96	25.75
688.10	14.04
688.23	0.00
688.37	51.49
688.50	18.72
688.64	77.24
688.78	42.13
688.91	63.19
689.05	16.38
689.18	14.04
689.32	0.00
689.46	86.60
689.59	42.13
689.73	23.41
689.86	14.04
690.00	70.22
690.13	0.00
690.27	0.00
690.41	9.36
690.54	28.09
690.68	14.04
690.81	28.09
690.95	128.73
691.08	7.02
691.22	0.00
691.35	0.00
691.49	2.34
691.62	56.17
691.76	0.00
691.89	0.00
692.03	2.34
692.16	14.04
692.30	9.36
692.43	51.49
692.57	0.00
692.70	91.28
692.84	93.62
692.97	46.81
693.11	126.39
693.24	37.45
693.38	84.26
693.51	42.13
693.65	0.00
693.78	37.45
693.92	126.39
694.05	56.17
694.19	0.00
694.32	0.00
694.45	72.56
694.59	44.47
694.72	25.75
694.86	51.49
694.99	9.36
695.13	18.72
695.26	23.41
695.39	0.00
695.53	32.77
695.66	30.43
695.80	53.83
695.93	0.00
696.07	0.00
696.20	49.15
696.33	39.79
696.47	39.79
696.60	2.34
696.73	46.81
696.87	51.49
697.00	4.68
697.14	37.45
697.27	14.04
697.40	9.36
697.54	7.02
697.67	74.90
697.80	98.30
697.94	16.38
698.07	4.68
698.21	28.09
698.34	18.72
698.47	53.83
698.61	44.47
698.74	23.41
698.87	0.00
699.01	51.49
699.14	70.22
699.27	39.79
699.40	18.72
699.54	46.81
699.67	25.75
699.80	0.00
699.94	11.70
700.07	98.30
700.20	53.83
700.34	72.56
700.47	0.00
700.60	63.19
700.73	39.79
700.87	11.70
701.00	25.75
701.13	37.45
701.26	0.00
701.40	81.92
701.53	7.02
701.66	7.02
701.79	18.72
701.93	56.17
702.06	121.71
702.19	21.06
702.32	30.43
702.46	30.43
702.59	95.96
702.72	39.79
702.85	14.04
702.99	121.71
703.12	128.73
703.25	86.60
703.38	65.54
703.51	138.09
703.65	117.03
703.78	35.11
703.91	56.17
704.04	0.00
704.17	0.00
704.31	81.92
704.44	77.24
704.57	0.00
704.70	117.03
704.83	79.58
704.96	86.60
705.10	49.15
705.23	46.81
>>>>>End Processed Spectral Data<<<<<
