SpectraSuite Data File
++++++++++++++++++++++++++++++++++++
Date: Fri Oct 04 12:13:45 GMT-05:00 2013
User: price-jones
Dark Spectrum Present: No
Reference Spectrum Present: No
Number of Sampled Component Spectra: 1
Spectrometers: USB2+H05261
Integration Time (usec): 10000 (USB2+H05261)
Spectra Averaged: 1 (USB2+H05261)
Boxcar Smoothing: 0 (USB2+H05261)
Correct for Electrical Dark: No (USB2+H05261)
Strobe/Lamp Enabled: No (USB2+H05261)
Correct for Detector Non-linearity: No (USB2+H05261)
Correct for Stray Light: No (USB2+H05261)
Number of Pixels in Processed Spectrum: 2048
>>>>>Begin Processed Spectral Data<<<<<
365.73	28.09
365.92	28.09
366.12	28.09
366.32	0.00
366.52	0.00
366.72	0.00
366.91	0.00
367.11	0.00
367.31	0.00
367.51	0.00
367.70	0.00
367.90	0.00
368.10	0.00
368.30	0.00
368.49	0.00
368.69	0.00
368.89	0.00
369.09	0.00
369.28	0.00
369.48	0.00
369.68	0.00
369.87	0.00
370.07	0.00
370.27	0.00
370.47	0.00
370.66	0.00
370.86	0.00
371.06	0.00
371.25	0.00
371.45	0.00
371.65	23.41
371.84	0.00
372.04	0.00
372.24	0.00
372.44	39.79
372.63	0.00
372.83	81.92
373.03	25.75
373.22	30.43
373.42	35.11
373.62	14.04
373.81	46.81
374.01	58.51
374.21	0.00
374.40	0.00
374.60	65.54
374.79	4.68
374.99	21.06
375.19	63.19
375.38	46.81
375.58	0.00
375.78	67.88
375.97	0.00
376.17	21.06
376.37	74.90
376.56	2.34
376.76	35.11
376.95	56.17
377.15	0.00
377.35	93.62
377.54	107.66
377.74	53.83
377.93	14.04
378.13	16.38
378.33	28.09
378.52	0.00
378.72	0.00
378.91	16.38
379.11	11.70
379.31	30.43
379.50	35.11
379.70	25.75
379.89	60.85
380.09	65.54
380.28	0.00
380.48	0.00
380.68	60.85
380.87	39.79
381.07	65.54
381.26	56.17
381.46	23.41
381.65	35.11
381.85	0.00
382.04	35.11
382.24	60.85
382.43	11.70
382.63	46.81
382.83	44.47
383.02	0.00
383.22	72.56
383.41	91.28
383.61	32.77
383.80	23.41
384.00	4.68
384.19	0.00
384.39	51.49
384.58	23.41
384.78	0.00
384.97	23.41
385.17	63.19
385.36	0.00
385.56	0.00
385.75	0.00
385.95	9.36
386.14	0.00
386.34	28.09
386.53	0.00
386.72	18.72
386.92	56.17
387.11	23.41
387.31	0.00
387.50	32.77
387.70	25.75
387.89	0.00
388.09	23.41
388.28	0.00
388.48	79.58
388.67	53.83
388.86	39.79
389.06	0.00
389.25	0.00
389.45	0.00
389.64	9.36
389.84	0.00
390.03	23.41
390.22	44.47
390.42	0.00
390.61	16.38
390.81	91.28
391.00	0.00
391.19	18.72
391.39	0.00
391.58	25.75
391.78	18.72
391.97	39.79
392.16	0.00
392.36	0.00
392.55	72.56
392.75	25.75
392.94	0.00
393.13	18.72
393.33	49.15
393.52	0.00
393.71	49.15
393.91	35.11
394.10	0.00
394.29	51.49
394.49	60.85
394.68	72.56
394.88	0.00
395.07	60.85
395.26	14.04
395.46	21.06
395.65	16.38
395.84	58.51
396.04	32.77
396.23	65.54
396.42	7.02
396.62	18.72
396.81	98.30
397.00	4.68
397.19	0.00
397.39	4.68
397.58	14.04
397.77	0.00
397.97	65.54
398.16	21.06
398.35	0.00
398.55	21.06
398.74	25.75
398.93	32.77
399.12	0.00
399.32	28.09
399.51	0.00
399.70	0.00
399.90	39.79
400.09	23.41
400.28	0.00
400.47	35.11
400.67	0.00
400.86	70.22
401.05	79.58
401.24	124.05
401.44	91.28
401.63	58.51
401.82	65.54
402.01	39.79
402.21	9.36
402.40	0.00
402.59	42.13
402.78	60.85
402.97	0.00
403.17	77.24
403.36	51.49
403.55	14.04
403.74	14.04
403.93	0.00
404.13	56.17
404.32	95.96
404.51	65.54
404.70	0.00
404.89	0.00
405.09	53.83
405.28	63.19
405.47	35.11
405.66	35.11
405.85	37.45
406.05	44.47
406.24	63.19
406.43	0.00
406.62	32.77
406.81	77.24
407.00	9.36
407.20	107.66
407.39	46.81
407.58	25.75
407.77	0.00
407.96	0.00
408.15	37.45
408.34	28.09
408.54	42.13
408.73	44.47
408.92	0.00
409.11	4.68
409.30	79.58
409.49	11.70
409.68	32.77
409.87	58.51
410.07	0.00
410.26	16.38
410.45	28.09
410.64	25.75
410.83	0.00
411.02	42.13
411.21	63.19
411.40	56.17
411.59	4.68
411.78	16.38
411.98	58.51
412.17	65.54
412.36	35.11
412.55	42.13
412.74	65.54
412.93	28.09
413.12	28.09
413.31	0.00
413.50	56.17
413.69	51.49
413.88	0.00
414.07	2.34
414.26	0.00
414.45	16.38
414.64	23.41
414.83	74.90
415.02	56.17
415.22	28.09
415.41	0.00
415.60	7.02
415.79	37.45
415.98	9.36
416.17	2.34
416.36	0.00
416.55	18.72
416.74	9.36
416.93	4.68
417.12	18.72
417.31	39.79
417.50	7.02
417.69	77.24
417.88	0.00
418.07	65.54
418.26	49.15
418.45	28.09
418.64	0.00
418.83	28.09
419.02	79.58
419.21	32.77
419.39	56.17
419.58	0.00
419.77	56.17
419.96	30.43
420.15	0.00
420.34	56.17
420.53	18.72
420.72	7.02
420.91	60.85
421.10	39.79
421.29	81.92
421.48	23.41
421.67	98.30
421.86	0.00
422.05	98.30
422.24	42.13
422.43	25.75
422.61	23.41
422.80	16.38
422.99	65.54
423.18	91.28
423.37	4.68
423.56	0.00
423.75	84.26
423.94	37.45
424.13	42.13
424.32	0.00
424.50	9.36
424.69	35.11
424.88	11.70
425.07	2.34
425.26	49.15
425.45	56.17
425.64	60.85
425.83	25.75
426.01	0.00
426.20	49.15
426.39	70.22
426.58	32.77
426.77	79.58
426.96	42.13
427.15	0.00
427.33	105.32
427.52	2.34
427.71	4.68
427.90	25.75
428.09	51.49
428.28	112.35
428.46	32.77
428.65	32.77
428.84	51.49
429.03	60.85
429.22	39.79
429.40	0.00
429.59	56.17
429.78	72.56
429.97	0.00
430.16	53.83
430.34	30.43
430.53	0.00
430.72	39.79
430.91	0.00
431.10	0.00
431.28	58.51
431.47	4.68
431.66	7.02
431.85	0.00
432.03	42.13
432.22	124.05
432.41	88.94
432.60	30.43
432.79	51.49
432.97	0.00
433.16	63.19
433.35	0.00
433.54	77.24
433.72	98.30
433.91	0.00
434.10	0.00
434.28	39.79
434.47	0.00
434.66	49.15
434.85	35.11
435.03	23.41
435.22	88.94
435.41	56.17
435.59	58.51
435.78	42.13
435.97	35.11
436.16	23.41
436.34	56.17
436.53	14.04
436.72	81.92
436.90	58.51
437.09	9.36
437.28	16.38
437.46	0.00
437.65	35.11
437.84	4.68
438.02	16.38
438.21	93.62
438.40	110.01
438.58	32.77
438.77	37.45
438.96	67.88
439.14	65.54
439.33	72.56
439.52	30.43
439.70	56.17
439.89	91.28
440.08	74.90
440.26	81.92
440.45	11.70
440.63	37.45
440.82	9.36
441.01	49.15
441.19	0.00
441.38	42.13
441.57	58.51
441.75	28.09
441.94	74.90
442.12	74.90
442.31	133.41
442.50	53.83
442.68	11.70
442.87	2.34
443.05	32.77
443.24	114.69
443.43	105.32
443.61	25.75
443.80	4.68
443.98	18.72
444.17	0.00
444.35	77.24
444.54	110.01
444.73	44.47
444.91	37.45
445.10	0.00
445.28	51.49
445.47	11.70
445.65	9.36
445.84	67.88
446.02	0.00
446.21	49.15
446.39	95.96
446.58	51.49
446.77	0.00
446.95	14.04
447.14	0.00
447.32	9.36
447.51	18.72
447.69	21.06
447.88	32.77
448.06	81.92
448.25	51.49
448.43	42.13
448.62	23.41
448.80	0.00
448.99	44.47
449.17	63.19
449.36	16.38
449.54	35.11
449.73	74.90
449.91	0.00
450.10	93.62
450.28	0.00
450.46	0.00
450.65	4.68
450.83	51.49
451.02	58.51
451.20	51.49
451.39	0.00
451.57	28.09
451.76	23.41
451.94	84.26
452.13	0.00
452.31	0.00
452.49	0.00
452.68	0.00
452.86	65.54
453.05	114.69
453.23	72.56
453.42	32.77
453.60	0.00
453.78	35.11
453.97	9.36
454.15	11.70
454.34	53.83
454.52	49.15
454.70	42.13
454.89	46.81
455.07	53.83
455.26	0.00
455.44	60.85
455.62	23.41
455.81	42.13
455.99	0.00
456.17	0.00
456.36	46.81
456.54	25.75
456.73	0.00
456.91	102.98
457.09	14.04
457.28	0.00
457.46	74.90
457.64	72.56
457.83	25.75
458.01	30.43
458.19	107.66
458.38	51.49
458.56	46.81
458.74	21.06
458.93	21.06
459.11	2.34
459.29	49.15
459.48	42.13
459.66	42.13
459.84	39.79
460.03	95.96
460.21	46.81
460.39	37.45
460.57	44.47
460.76	0.00
460.94	16.38
461.12	65.54
461.31	0.00
461.49	88.94
461.67	28.09
461.85	7.02
462.04	140.43
462.22	81.92
462.40	11.70
462.59	81.92
462.77	0.00
462.95	70.22
463.13	18.72
463.32	67.88
463.50	42.13
463.68	11.70
463.86	0.00
464.05	110.01
464.23	16.38
464.41	51.49
464.59	53.83
464.78	42.13
464.96	4.68
465.14	0.00
465.32	0.00
465.50	74.90
465.69	65.54
465.87	65.54
466.05	42.13
466.23	0.00
466.41	56.17
466.60	65.54
466.78	70.22
466.96	58.51
467.14	37.45
467.32	32.77
467.51	18.72
467.69	74.90
467.87	60.85
468.05	117.03
468.23	117.03
468.41	67.88
468.60	79.58
468.78	77.24
468.96	49.15
469.14	88.94
469.32	0.00
469.50	21.06
469.69	67.88
469.87	0.00
470.05	16.38
470.23	42.13
470.41	133.41
470.59	152.13
470.77	11.70
470.95	72.56
471.14	91.28
471.32	37.45
471.50	44.47
471.68	67.88
471.86	56.17
472.04	32.77
472.22	63.19
472.40	37.45
472.58	7.02
472.77	9.36
472.95	88.94
473.13	16.38
473.31	42.13
473.49	46.81
473.67	81.92
473.85	91.28
474.03	81.92
474.21	81.92
474.39	11.70
474.57	81.92
474.75	11.70
474.93	58.51
475.12	0.00
475.30	37.45
475.48	74.90
475.66	25.75
475.84	37.45
476.02	23.41
476.20	9.36
476.38	0.00
476.56	72.56
476.74	49.15
476.92	0.00
477.10	0.00
477.28	86.60
477.46	44.47
477.64	25.75
477.82	14.04
478.00	72.56
478.18	0.00
478.36	32.77
478.54	147.45
478.72	72.56
478.90	117.03
479.08	28.09
479.26	11.70
479.44	49.15
479.62	77.24
479.80	58.51
479.98	42.13
480.16	79.58
480.34	35.11
480.52	44.47
480.70	117.03
480.88	37.45
481.06	117.03
481.24	49.15
481.41	0.00
481.59	81.92
481.77	65.54
481.95	21.06
482.13	14.04
482.31	112.35
482.49	51.49
482.67	74.90
482.85	11.70
483.03	46.81
483.21	77.24
483.39	4.68
483.57	30.43
483.74	37.45
483.92	51.49
484.10	72.56
484.28	23.41
484.46	42.13
484.64	0.00
484.82	25.75
485.00	0.00
485.18	56.17
485.35	9.36
485.53	77.24
485.71	35.11
485.89	63.19
486.07	7.02
486.25	93.62
486.43	0.00
486.61	63.19
486.78	0.00
486.96	51.49
487.14	51.49
487.32	46.81
487.50	63.19
487.68	0.00
487.85	0.00
488.03	53.83
488.21	0.00
488.39	53.83
488.57	18.72
488.75	46.81
488.92	77.24
489.10	70.22
489.28	46.81
489.46	51.49
489.64	88.94
489.81	67.88
489.99	23.41
490.17	39.79
490.35	56.17
490.53	70.22
490.70	67.88
490.88	91.28
491.06	28.09
491.24	0.00
491.41	51.49
491.59	74.90
491.77	65.54
491.95	28.09
492.13	0.00
492.30	44.47
492.48	58.51
492.66	67.88
492.84	37.45
493.01	11.70
493.19	0.00
493.37	88.94
493.54	0.00
493.72	18.72
493.90	28.09
494.08	0.00
494.25	105.32
494.43	7.02
494.61	51.49
494.79	58.51
494.96	56.17
495.14	35.11
495.32	72.56
495.49	81.92
495.67	70.22
495.85	28.09
496.02	63.19
496.20	79.58
496.38	39.79
496.55	112.35
496.73	28.09
496.91	0.00
497.09	49.15
497.26	0.00
497.44	30.43
497.62	67.88
497.79	39.79
497.97	25.75
498.14	46.81
498.32	46.81
498.50	42.13
498.67	65.54
498.85	81.92
499.03	67.88
499.20	30.43
499.38	63.19
499.56	28.09
499.73	44.47
499.91	70.22
500.08	70.22
500.26	79.58
500.44	51.49
500.61	16.38
500.79	49.15
500.97	0.00
501.14	0.00
501.32	88.94
501.49	42.13
501.67	58.51
501.84	60.85
502.02	0.00
502.20	56.17
502.37	44.47
502.55	0.00
502.72	0.00
502.90	0.00
503.07	39.79
503.25	14.04
503.43	58.51
503.60	58.51
503.78	72.56
503.95	114.69
504.13	7.02
504.30	0.00
504.48	25.75
504.65	88.94
504.83	86.60
505.01	121.71
505.18	60.85
505.36	21.06
505.53	88.94
505.71	30.43
505.88	0.00
506.06	0.00
506.23	0.00
506.41	7.02
506.58	32.77
506.76	95.96
506.93	79.58
507.11	28.09
507.28	0.00
507.46	128.73
507.63	0.00
507.81	42.13
507.98	0.00
508.16	42.13
508.33	67.88
508.50	51.49
508.68	65.54
508.85	35.11
509.03	28.09
509.20	105.32
509.38	23.41
509.55	44.47
509.73	11.70
509.90	112.35
510.08	2.34
510.25	0.00
510.42	79.58
510.60	39.79
510.77	49.15
510.95	140.43
511.12	58.51
511.30	18.72
511.47	91.28
511.64	9.36
511.82	140.43
511.99	67.88
512.17	37.45
512.34	25.75
512.51	44.47
512.69	112.35
512.86	4.68
513.04	42.13
513.21	128.73
513.38	42.13
513.56	9.36
513.73	0.00
513.90	39.79
514.08	46.81
514.25	114.69
514.43	88.94
514.60	32.77
514.77	74.90
514.95	2.34
515.12	77.24
515.29	77.24
515.47	58.51
515.64	0.00
515.81	46.81
515.99	39.79
516.16	88.94
516.33	70.22
516.51	37.45
516.68	23.41
516.85	7.02
517.03	4.68
517.20	11.70
517.37	77.24
517.54	16.38
517.72	44.47
517.89	88.94
518.06	32.77
518.24	21.06
518.41	7.02
518.58	42.13
518.75	9.36
518.93	44.47
519.10	100.64
519.27	9.36
519.45	35.11
519.62	58.51
519.79	93.62
519.96	95.96
520.14	9.36
520.31	79.58
520.48	67.88
520.65	0.00
520.83	18.72
521.00	42.13
521.17	86.60
521.34	39.79
521.52	84.26
521.69	74.90
521.86	53.83
522.03	18.72
522.20	79.58
522.38	0.00
522.55	0.00
522.72	58.51
522.89	37.45
523.07	14.04
523.24	9.36
523.41	46.81
523.58	51.49
523.75	58.51
523.92	37.45
524.10	21.06
524.27	2.34
524.44	81.92
524.61	65.54
524.78	60.85
524.96	74.90
525.13	98.30
525.30	2.34
525.47	46.81
525.64	0.00
525.81	112.35
525.98	0.00
526.16	46.81
526.33	88.94
526.50	70.22
526.67	0.00
526.84	23.41
527.01	46.81
527.18	77.24
527.36	58.51
527.53	0.00
527.70	25.75
527.87	79.58
528.04	84.26
528.21	126.39
528.38	18.72
528.55	35.11
528.72	7.02
528.89	60.85
529.07	67.88
529.24	25.75
529.41	84.26
529.58	58.51
529.75	35.11
529.92	0.00
530.09	0.00
530.26	0.00
530.43	0.00
530.60	9.36
530.77	77.24
530.94	53.83
531.11	91.28
531.28	74.90
531.46	67.88
531.63	37.45
531.80	114.69
531.97	56.17
532.14	84.26
532.31	53.83
532.48	0.00
532.65	63.19
532.82	72.56
532.99	67.88
533.16	0.00
533.33	84.26
533.50	32.77
533.67	95.96
533.84	51.49
534.01	51.49
534.18	110.01
534.35	42.13
534.52	93.62
534.69	30.43
534.86	37.45
535.03	0.00
535.20	65.54
535.37	49.15
535.54	11.70
535.71	28.09
535.88	39.79
536.05	16.38
536.22	74.90
536.38	7.02
536.55	0.00
536.72	72.56
536.89	23.41
537.06	77.24
537.23	0.00
537.40	63.19
537.57	0.00
537.74	72.56
537.91	16.38
538.08	84.26
538.25	53.83
538.42	16.38
538.59	72.56
538.75	72.56
538.92	0.00
539.09	53.83
539.26	102.98
539.43	95.96
539.60	7.02
539.77	28.09
539.94	7.02
540.11	88.94
540.28	4.68
540.44	67.88
540.61	81.92
540.78	42.13
540.95	0.00
541.12	131.07
541.29	14.04
541.46	14.04
541.62	53.83
541.79	79.58
541.96	30.43
542.13	0.00
542.30	46.81
542.47	72.56
542.63	25.75
542.80	35.11
542.97	58.51
543.14	35.11
543.31	84.26
543.48	35.11
543.64	4.68
543.81	53.83
543.98	70.22
544.15	0.00
544.32	105.32
544.48	51.49
544.65	0.00
544.82	67.88
544.99	74.90
545.16	49.15
545.32	100.64
545.49	25.75
545.66	18.72
545.83	0.00
546.00	7.02
546.16	25.75
546.33	0.00
546.50	0.00
546.67	74.90
546.83	88.94
547.00	9.36
547.17	14.04
547.34	67.88
547.50	37.45
547.67	84.26
547.84	67.88
548.00	37.45
548.17	44.47
548.34	79.58
548.51	72.56
548.67	28.09
548.84	4.68
549.01	32.77
549.18	0.00
549.34	56.17
549.51	53.83
549.68	60.85
549.84	32.77
550.01	11.70
550.18	79.58
550.34	107.66
550.51	42.13
550.68	88.94
550.84	65.54
551.01	0.00
551.18	46.81
551.34	0.00
551.51	60.85
551.68	58.51
551.84	93.62
552.01	0.00
552.18	49.15
552.34	39.79
552.51	9.36
552.68	74.90
552.84	21.06
553.01	0.00
553.18	37.45
553.34	81.92
553.51	77.24
553.67	63.19
553.84	84.26
554.01	42.13
554.17	67.88
554.34	46.81
554.51	56.17
554.67	25.75
554.84	28.09
555.00	86.60
555.17	81.92
555.33	0.00
555.50	0.00
555.67	35.11
555.83	0.00
556.00	0.00
556.16	0.00
556.33	0.00
556.50	11.70
556.66	18.72
556.83	9.36
556.99	0.00
557.16	74.90
557.32	77.24
557.49	23.41
557.65	30.43
557.82	70.22
557.98	63.19
558.15	16.38
558.32	91.28
558.48	107.66
558.65	51.49
558.81	0.00
558.98	60.85
559.14	79.58
559.31	67.88
559.47	7.02
559.64	53.83
559.80	42.13
559.97	56.17
560.13	49.15
560.30	35.11
560.46	91.28
560.63	32.77
560.79	98.30
560.96	60.85
561.12	9.36
561.29	86.60
561.45	56.17
561.61	18.72
561.78	46.81
561.94	0.00
562.11	32.77
562.27	30.43
562.44	88.94
562.60	49.15
562.77	7.02
562.93	49.15
563.10	56.17
563.26	84.26
563.42	16.38
563.59	67.88
563.75	72.56
563.92	67.88
564.08	49.15
564.24	74.90
564.41	53.83
564.57	37.45
564.74	28.09
564.90	51.49
565.07	70.22
565.23	28.09
565.39	56.17
565.56	42.13
565.72	23.41
565.88	72.56
566.05	7.02
566.21	23.41
566.38	44.47
566.54	72.56
566.70	35.11
566.87	0.00
567.03	16.38
567.19	88.94
567.36	56.17
567.52	21.06
567.68	18.72
567.85	7.02
568.01	14.04
568.17	42.13
568.34	0.00
568.50	39.79
568.66	65.54
568.83	88.94
568.99	0.00
569.15	114.69
569.32	44.47
569.48	51.49
569.64	0.00
569.81	105.32
569.97	42.13
570.13	42.13
570.30	105.32
570.46	67.88
570.62	84.26
570.78	72.56
570.95	74.90
571.11	49.15
571.27	74.90
571.43	46.81
571.60	16.38
571.76	16.38
571.92	102.98
572.09	46.81
572.25	77.24
572.41	32.77
572.57	0.00
572.74	60.85
572.90	0.00
573.06	16.38
573.22	42.13
573.38	30.43
573.55	63.19
573.71	9.36
573.87	0.00
574.03	7.02
574.20	37.45
574.36	107.66
574.52	28.09
574.68	37.45
574.84	72.56
575.01	39.79
575.17	100.64
575.33	0.00
575.49	4.68
575.65	16.38
575.82	0.00
575.98	79.58
576.14	63.19
576.30	95.96
576.46	159.16
576.62	0.00
576.79	0.00
576.95	0.00
577.11	74.90
577.27	35.11
577.43	7.02
577.59	23.41
577.75	74.90
577.92	4.68
578.08	49.15
578.24	72.56
578.40	77.24
578.56	93.62
578.72	49.15
578.88	72.56
579.04	102.98
579.21	105.32
579.37	79.58
579.53	91.28
579.69	0.00
579.85	88.94
580.01	23.41
580.17	56.17
580.33	35.11
580.49	65.54
580.65	126.39
580.82	42.13
580.98	35.11
581.14	117.03
581.30	53.83
581.46	23.41
581.62	42.13
581.78	42.13
581.94	107.66
582.10	23.41
582.26	60.85
582.42	74.90
582.58	119.37
582.74	77.24
582.90	7.02
583.06	4.68
583.22	30.43
583.38	81.92
583.54	86.60
583.70	72.56
583.86	119.37
584.02	65.54
584.18	91.28
584.34	77.24
584.50	30.43
584.66	23.41
584.82	0.00
584.98	14.04
585.14	42.13
585.30	44.47
585.46	25.75
585.62	0.00
585.78	16.38
585.94	93.62
586.10	88.94
586.26	39.79
586.42	28.09
586.58	0.00
586.74	30.43
586.90	9.36
587.06	84.26
587.22	39.79
587.38	53.83
587.54	58.51
587.70	2.34
587.86	14.04
588.02	21.06
588.18	7.02
588.34	28.09
588.49	28.09
588.65	0.00
588.81	44.47
588.97	84.26
589.13	53.83
589.29	42.13
589.45	70.22
589.61	100.64
589.77	37.45
589.93	0.00
590.08	42.13
590.24	44.47
590.40	58.51
590.56	16.38
590.72	46.81
590.88	46.81
591.04	53.83
591.20	63.19
591.35	25.75
591.51	0.00
591.67	51.49
591.83	72.56
591.99	16.38
592.15	23.41
592.31	37.45
592.46	23.41
592.62	72.56
592.78	23.41
592.94	51.49
593.10	23.41
593.26	0.00
593.41	0.00
593.57	44.47
593.73	84.26
593.89	56.17
594.05	23.41
594.20	0.00
594.36	16.38
594.52	0.00
594.68	25.75
594.84	14.04
594.99	11.70
595.15	72.56
595.31	39.79
595.47	67.88
595.62	37.45
595.78	0.00
595.94	63.19
596.10	35.11
596.25	0.00
596.41	23.41
596.57	74.90
596.73	0.00
596.88	60.85
597.04	32.77
597.20	63.19
597.36	131.07
597.51	23.41
597.67	39.79
597.83	53.83
597.99	70.22
598.14	49.15
598.30	74.90
598.46	42.13
598.61	63.19
598.77	0.00
598.93	58.51
599.09	65.54
599.24	30.43
599.40	84.26
599.56	93.62
599.71	84.26
599.87	100.64
600.03	23.41
600.18	86.60
600.34	53.83
600.50	70.22
600.65	110.01
600.81	25.75
600.97	7.02
601.12	21.06
601.28	86.60
601.44	79.58
601.59	23.41
601.75	0.00
601.91	37.45
602.06	81.92
602.22	0.00
602.37	32.77
602.53	44.47
602.69	0.00
602.84	0.00
603.00	63.19
603.16	46.81
603.31	86.60
603.47	0.00
603.62	37.45
603.78	65.54
603.94	74.90
604.09	74.90
604.25	18.72
604.40	84.26
604.56	7.02
604.71	16.38
604.87	35.11
605.03	51.49
605.18	110.01
605.34	53.83
605.49	0.00
605.65	49.15
605.80	0.00
605.96	7.02
606.12	98.30
606.27	114.69
606.43	0.00
606.58	23.41
606.74	11.70
606.89	32.77
607.05	67.88
607.20	9.36
607.36	98.30
607.51	72.56
607.67	39.79
607.82	18.72
607.98	100.64
608.13	0.00
608.29	37.45
608.44	142.77
608.60	42.13
608.75	114.69
608.91	0.00
609.06	119.37
609.22	0.00
609.37	39.79
609.53	0.00
609.68	0.00
609.84	58.51
609.99	7.02
610.15	42.13
610.30	18.72
610.46	81.92
610.61	51.49
610.76	18.72
610.92	65.54
611.07	23.41
611.23	9.36
611.38	135.75
611.54	39.79
611.69	7.02
611.84	14.04
612.00	84.26
612.15	51.49
612.31	60.85
612.46	18.72
612.62	21.06
612.77	44.47
612.92	56.17
613.08	37.45
613.23	44.47
613.39	28.09
613.54	14.04
613.69	23.41
613.85	44.47
614.00	23.41
614.15	11.70
614.31	0.00
614.46	35.11
614.62	30.43
614.77	0.00
614.92	0.00
615.08	53.83
615.23	91.28
615.38	51.49
615.54	58.51
615.69	0.00
615.84	39.79
616.00	77.24
616.15	35.11
616.30	42.13
616.46	0.00
616.61	37.45
616.76	23.41
616.92	58.51
617.07	11.70
617.22	23.41
617.37	60.85
617.53	79.58
617.68	65.54
617.83	63.19
617.99	46.81
618.14	44.47
618.29	105.32
618.45	49.15
618.60	84.26
618.75	0.00
618.90	58.51
619.06	18.72
619.21	21.06
619.36	0.00
619.51	30.43
619.67	65.54
619.82	23.41
619.97	23.41
620.12	65.54
620.28	32.77
620.43	21.06
620.58	23.41
620.73	53.83
620.89	84.26
621.04	51.49
621.19	56.17
621.34	0.00
621.49	28.09
621.65	4.68
621.80	0.00
621.95	49.15
622.10	0.00
622.25	53.83
622.41	51.49
622.56	0.00
622.71	51.49
622.86	114.69
623.01	135.75
623.16	39.79
623.32	77.24
623.47	95.96
623.62	37.45
623.77	72.56
623.92	4.68
624.07	86.60
624.23	56.17
624.38	9.36
624.53	95.96
624.68	16.38
624.83	65.54
624.98	32.77
625.13	86.60
625.29	95.96
625.44	39.79
625.59	9.36
625.74	32.77
625.89	0.00
626.04	51.49
626.19	0.00
626.34	65.54
626.49	60.85
626.65	30.43
626.80	77.24
626.95	32.77
627.10	102.98
627.25	0.00
627.40	46.81
627.55	105.32
627.70	14.04
627.85	63.19
628.00	0.00
628.15	0.00
628.30	35.11
628.45	91.28
628.60	42.13
628.76	11.70
628.91	7.02
629.06	110.01
629.21	0.00
629.36	0.00
629.51	30.43
629.66	16.38
629.81	4.68
629.96	0.00
630.11	93.62
630.26	0.00
630.41	2.34
630.56	117.03
630.71	70.22
630.86	56.17
631.01	39.79
631.16	18.72
631.31	37.45
631.46	9.36
631.61	60.85
631.76	51.49
631.91	21.06
632.06	0.00
632.21	32.77
632.36	4.68
632.51	65.54
632.66	25.75
632.81	0.00
632.96	18.72
633.10	4.68
633.25	51.49
633.40	91.28
633.55	0.00
633.70	72.56
633.85	98.30
634.00	30.43
634.15	0.00
634.30	49.15
634.45	23.41
634.60	51.49
634.75	88.94
634.90	30.43
635.05	121.71
635.19	84.26
635.34	23.41
635.49	72.56
635.64	46.81
635.79	37.45
635.94	11.70
636.09	16.38
636.24	37.45
636.39	100.64
636.53	30.43
636.68	14.04
636.83	49.15
636.98	77.24
637.13	37.45
637.28	49.15
637.43	65.54
637.57	63.19
637.72	16.38
637.87	9.36
638.02	0.00
638.17	46.81
638.32	11.70
638.46	77.24
638.61	98.30
638.76	9.36
638.91	81.92
639.06	72.56
639.20	72.56
639.35	95.96
639.50	32.77
639.65	105.32
639.80	32.77
639.94	44.47
640.09	35.11
640.24	42.13
640.39	30.43
640.54	25.75
640.68	79.58
640.83	35.11
640.98	44.47
641.13	39.79
641.27	46.81
641.42	49.15
641.57	11.70
641.72	0.00
641.86	58.51
642.01	25.75
642.16	65.54
642.31	70.22
642.45	18.72
642.60	30.43
642.75	0.00
642.90	98.30
643.04	0.00
643.19	18.72
643.34	11.70
643.48	70.22
643.63	42.13
643.78	0.00
643.93	32.77
644.07	86.60
644.22	58.51
644.37	11.70
644.51	30.43
644.66	21.06
644.81	16.38
644.95	37.45
645.10	37.45
645.25	32.77
645.39	65.54
645.54	51.49
645.69	2.34
645.83	4.68
645.98	11.70
646.13	0.00
646.27	4.68
646.42	56.17
646.57	25.75
646.71	35.11
646.86	60.85
647.00	56.17
647.15	32.77
647.30	0.00
647.44	0.00
647.59	0.00
647.74	42.13
647.88	32.77
648.03	30.43
648.17	0.00
648.32	0.00
648.47	67.88
648.61	126.39
648.76	86.60
648.90	4.68
649.05	53.83
649.20	112.35
649.34	86.60
649.49	49.15
649.63	77.24
649.78	7.02
649.92	14.04
650.07	110.01
650.21	9.36
650.36	0.00
650.51	81.92
650.65	14.04
650.80	21.06
650.94	53.83
651.09	72.56
651.23	35.11
651.38	0.00
651.52	42.13
651.67	23.41
651.81	42.13
651.96	0.00
652.10	86.60
652.25	14.04
652.39	102.98
652.54	56.17
652.68	9.36
652.83	0.00
652.97	23.41
653.12	0.00
653.26	9.36
653.41	0.00
653.55	93.62
653.70	11.70
653.84	39.79
653.99	56.17
654.13	39.79
654.27	35.11
654.42	84.26
654.56	35.11
654.71	9.36
654.85	25.75
655.00	49.15
655.14	44.47
655.29	42.13
655.43	25.75
655.57	23.41
655.72	53.83
655.86	44.47
656.01	37.45
656.15	7.02
656.30	0.00
656.44	67.88
656.58	53.83
656.73	23.41
656.87	42.13
657.01	98.30
657.16	11.70
657.30	51.49
657.45	0.00
657.59	32.77
657.73	0.00
657.88	39.79
658.02	28.09
658.16	49.15
658.31	98.30
658.45	28.09
658.60	32.77
658.74	35.11
658.88	37.45
659.03	0.00
659.17	44.47
659.31	112.35
659.46	51.49
659.60	60.85
659.74	74.90
659.89	30.43
660.03	39.79
660.17	53.83
660.32	28.09
660.46	74.90
660.60	18.72
660.74	51.49
660.89	0.00
661.03	0.00
661.17	37.45
661.32	21.06
661.46	30.43
661.60	46.81
661.74	37.45
661.89	21.06
662.03	35.11
662.17	25.75
662.31	0.00
662.46	56.17
662.60	42.13
662.74	105.32
662.88	51.49
663.03	16.38
663.17	39.79
663.31	42.13
663.45	39.79
663.60	51.49
663.74	0.00
663.88	23.41
664.02	16.38
664.17	0.00
664.31	0.00
664.45	16.38
664.59	81.92
664.73	56.17
664.88	0.00
665.02	56.17
665.16	0.00
665.30	79.58
665.44	21.06
665.59	0.00
665.73	0.00
665.87	0.00
666.01	11.70
666.15	7.02
666.29	0.00
666.44	72.56
666.58	74.90
666.72	0.00
666.86	2.34
667.00	119.37
667.14	70.22
667.28	46.81
667.43	7.02
667.57	23.41
667.71	21.06
667.85	25.75
667.99	25.75
668.13	0.00
668.27	39.79
668.41	46.81
668.56	23.41
668.70	0.00
668.84	0.00
668.98	23.41
669.12	9.36
669.26	39.79
669.40	91.28
669.54	0.00
669.68	16.38
669.82	9.36
669.96	58.51
670.10	18.72
670.25	35.11
670.39	11.70
670.53	0.00
670.67	11.70
670.81	56.17
670.95	14.04
671.09	0.00
671.23	58.51
671.37	44.47
671.51	16.38
671.65	88.94
671.79	0.00
671.93	0.00
672.07	0.00
672.21	49.15
672.35	0.00
672.49	0.00
672.63	86.60
672.77	39.79
672.91	159.16
673.05	0.00
673.19	9.36
673.33	44.47
673.47	51.49
673.61	67.88
673.75	9.36
673.89	0.00
674.03	18.72
674.17	0.00
674.31	56.17
674.45	56.17
674.59	21.06
674.73	81.92
674.87	39.79
675.01	4.68
675.15	14.04
675.29	16.38
675.43	77.24
675.56	14.04
675.70	70.22
675.84	95.96
675.98	49.15
676.12	0.00
676.26	72.56
676.40	25.75
676.54	39.79
676.68	49.15
676.82	30.43
676.96	65.54
677.10	56.17
677.23	0.00
677.37	0.00
677.51	0.00
677.65	18.72
677.79	93.62
677.93	42.13
678.07	63.19
678.21	0.00
678.34	30.43
678.48	70.22
678.62	0.00
678.76	0.00
678.90	0.00
679.04	28.09
679.18	4.68
679.31	35.11
679.45	56.17
679.59	53.83
679.73	30.43
679.87	60.85
680.00	86.60
680.14	0.00
680.28	30.43
680.42	67.88
680.56	14.04
680.70	63.19
680.83	86.60
680.97	0.00
681.11	0.00
681.25	16.38
681.39	23.41
681.52	0.00
681.66	0.00
681.80	25.75
681.94	102.98
682.07	74.90
682.21	35.11
682.35	58.51
682.49	60.85
682.62	63.19
682.76	0.00
682.90	58.51
683.04	74.90
683.17	0.00
683.31	60.85
683.45	86.60
683.59	46.81
683.72	67.88
683.86	32.77
684.00	58.51
684.13	74.90
684.27	39.79
684.41	93.62
684.55	14.04
684.68	135.75
684.82	39.79
684.96	42.13
685.09	0.00
685.23	0.00
685.37	42.13
685.50	49.15
685.64	4.68
685.78	9.36
685.91	56.17
686.05	35.11
686.19	0.00
686.32	81.92
686.46	72.56
686.60	46.81
686.73	18.72
686.87	0.00
687.01	37.45
687.14	67.88
687.28	0.00
687.42	56.17
687.55	49.15
687.69	35.11
687.82	44.47
687.96	11.70
688.10	70.22
688.23	72.56
688.37	56.17
688.50	44.47
688.64	32.77
688.78	39.79
688.91	4.68
689.05	28.09
689.18	0.00
689.32	32.77
689.46	9.36
689.59	77.24
689.73	58.51
689.86	30.43
690.00	0.00
690.13	0.00
690.27	46.81
690.41	56.17
690.54	37.45
690.68	11.70
690.81	32.77
690.95	39.79
691.08	0.00
691.22	0.00
691.35	9.36
691.49	60.85
691.62	14.04
691.76	0.00
691.89	117.03
692.03	0.00
692.16	44.47
692.30	30.43
692.43	81.92
692.57	102.98
692.70	0.00
692.84	0.00
692.97	25.75
693.11	21.06
693.24	56.17
693.38	91.28
693.51	9.36
693.65	0.00
693.78	16.38
693.92	35.11
694.05	86.60
694.19	14.04
694.32	72.56
694.45	51.49
694.59	11.70
694.72	44.47
694.86	49.15
694.99	18.72
695.13	53.83
695.26	88.94
695.39	98.30
695.53	79.58
695.66	0.00
695.80	74.90
695.93	42.13
696.07	81.92
696.20	23.41
696.33	0.00
696.47	0.00
696.60	30.43
696.73	23.41
696.87	9.36
697.00	65.54
697.14	23.41
697.27	32.77
697.40	23.41
697.54	18.72
697.67	77.24
697.80	0.00
697.94	37.45
698.07	112.35
698.21	30.43
698.34	28.09
698.47	14.04
698.61	0.00
698.74	0.00
698.87	0.00
699.01	11.70
699.14	93.62
699.27	56.17
699.40	102.98
699.54	46.81
699.67	35.11
699.80	51.49
699.94	51.49
700.07	37.45
700.20	95.96
700.34	28.09
700.47	0.00
700.60	0.00
700.73	44.47
700.87	0.00
701.00	2.34
701.13	93.62
701.26	18.72
701.40	9.36
701.53	84.26
701.66	18.72
701.79	16.38
701.93	0.00
702.06	28.09
702.19	53.83
702.32	79.58
702.46	88.94
702.59	35.11
702.72	0.00
702.85	0.00
702.99	53.83
703.12	142.77
703.25	11.70
703.38	35.11
703.51	0.00
703.65	2.34
703.78	51.49
703.91	58.51
704.04	0.00
704.17	44.47
704.31	32.77
704.44	11.70
704.57	16.38
704.70	102.98
704.83	84.26
704.96	0.00
705.10	0.00
705.23	28.09
>>>>>End Processed Spectral Data<<<<<
