SpectraSuite Data File
++++++++++++++++++++++++++++++++++++
Date: Fri Oct 04 12:13:35 GMT-05:00 2013
User: price-jones
Dark Spectrum Present: No
Reference Spectrum Present: No
Number of Sampled Component Spectra: 1
Spectrometers: USB2+H05261
Integration Time (usec): 10000 (USB2+H05261)
Spectra Averaged: 1 (USB2+H05261)
Boxcar Smoothing: 0 (USB2+H05261)
Correct for Electrical Dark: No (USB2+H05261)
Strobe/Lamp Enabled: No (USB2+H05261)
Correct for Detector Non-linearity: No (USB2+H05261)
Correct for Stray Light: No (USB2+H05261)
Number of Pixels in Processed Spectrum: 2048
>>>>>Begin Processed Spectral Data<<<<<
365.73	0.00
365.92	0.00
366.12	0.00
366.32	0.00
366.52	0.00
366.72	0.00
366.91	0.00
367.11	0.00
367.31	0.00
367.51	0.00
367.70	0.00
367.90	0.00
368.10	0.00
368.30	0.00
368.49	0.00
368.69	0.00
368.89	0.00
369.09	0.00
369.28	0.00
369.48	0.00
369.68	0.00
369.87	0.00
370.07	0.00
370.27	0.00
370.47	0.00
370.66	0.00
370.86	0.00
371.06	0.00
371.25	0.00
371.45	0.00
371.65	0.00
371.84	25.75
372.04	4.68
372.24	0.00
372.44	42.13
372.63	39.79
372.83	7.02
373.03	0.00
373.22	0.00
373.42	0.00
373.62	0.00
373.81	28.09
374.01	14.04
374.21	56.17
374.40	2.34
374.60	39.79
374.79	4.68
374.99	81.92
375.19	32.77
375.38	60.85
375.58	42.13
375.78	9.36
375.97	86.60
376.17	65.54
376.37	4.68
376.56	28.09
376.76	0.00
376.95	58.51
377.15	25.75
377.35	9.36
377.54	102.98
377.74	14.04
377.93	18.72
378.13	91.28
378.33	46.81
378.52	35.11
378.72	0.00
378.91	0.00
379.11	23.41
379.31	0.00
379.50	7.02
379.70	14.04
379.89	0.00
380.09	0.00
380.28	0.00
380.48	0.00
380.68	0.00
380.87	46.81
381.07	32.77
381.26	0.00
381.46	4.68
381.65	35.11
381.85	81.92
382.04	60.85
382.24	53.83
382.43	11.70
382.63	0.00
382.83	0.00
383.02	0.00
383.22	46.81
383.41	37.45
383.61	14.04
383.80	16.38
384.00	93.62
384.19	28.09
384.39	49.15
384.58	16.38
384.78	44.47
384.97	30.43
385.17	32.77
385.36	37.45
385.56	32.77
385.75	0.00
385.95	21.06
386.14	0.00
386.34	23.41
386.53	0.00
386.72	65.54
386.92	51.49
387.11	9.36
387.31	58.51
387.50	42.13
387.70	4.68
387.89	18.72
388.09	0.00
388.28	0.00
388.48	42.13
388.67	25.75
388.86	21.06
389.06	25.75
389.25	0.00
389.45	16.38
389.64	0.00
389.84	16.38
390.03	30.43
390.22	0.00
390.42	14.04
390.61	21.06
390.81	32.77
391.00	23.41
391.19	0.00
391.39	44.47
391.58	39.79
391.78	30.43
391.97	79.58
392.16	2.34
392.36	2.34
392.55	14.04
392.75	37.45
392.94	135.75
393.13	0.00
393.33	0.00
393.52	0.00
393.71	16.38
393.91	79.58
394.10	39.79
394.29	0.00
394.49	0.00
394.68	70.22
394.88	18.72
395.07	0.00
395.26	77.24
395.46	46.81
395.65	23.41
395.84	23.41
396.04	0.00
396.23	91.28
396.42	42.13
396.62	46.81
396.81	18.72
397.00	32.77
397.19	14.04
397.39	0.00
397.58	0.00
397.77	11.70
397.97	37.45
398.16	0.00
398.35	28.09
398.55	0.00
398.74	21.06
398.93	14.04
399.12	16.38
399.32	0.00
399.51	46.81
399.70	0.00
399.90	16.38
400.09	4.68
400.28	35.11
400.47	65.54
400.67	49.15
400.86	2.34
401.05	7.02
401.24	58.51
401.44	88.94
401.63	49.15
401.82	0.00
402.01	58.51
402.21	0.00
402.40	30.43
402.59	72.56
402.78	0.00
402.97	25.75
403.17	60.85
403.36	7.02
403.55	9.36
403.74	32.77
403.93	51.49
404.13	81.92
404.32	0.00
404.51	67.88
404.70	30.43
404.89	35.11
405.09	39.79
405.28	67.88
405.47	0.00
405.66	91.28
405.85	39.79
406.05	28.09
406.24	124.05
406.43	0.00
406.62	30.43
406.81	102.98
407.00	25.75
407.20	0.00
407.39	42.13
407.58	0.00
407.77	9.36
407.96	93.62
408.15	93.62
408.34	79.58
408.54	51.49
408.73	32.77
408.92	14.04
409.11	133.41
409.30	7.02
409.49	98.30
409.68	58.51
409.87	2.34
410.07	7.02
410.26	67.88
410.45	37.45
410.64	7.02
410.83	100.64
411.02	49.15
411.21	46.81
411.40	84.26
411.59	74.90
411.78	42.13
411.98	42.13
412.17	49.15
412.36	46.81
412.55	4.68
412.74	79.58
412.93	4.68
413.12	0.00
413.31	32.77
413.50	46.81
413.69	74.90
413.88	9.36
414.07	21.06
414.26	39.79
414.45	91.28
414.64	63.19
414.83	0.00
415.02	16.38
415.22	49.15
415.41	98.30
415.60	25.75
415.79	84.26
415.98	35.11
416.17	79.58
416.36	18.72
416.55	28.09
416.74	84.26
416.93	18.72
417.12	42.13
417.31	2.34
417.50	0.00
417.69	135.75
417.88	49.15
418.07	65.54
418.26	9.36
418.45	37.45
418.64	30.43
418.83	107.66
419.02	72.56
419.21	16.38
419.39	77.24
419.58	9.36
419.77	0.00
419.96	63.19
420.15	0.00
420.34	7.02
420.53	7.02
420.72	0.00
420.91	16.38
421.10	110.01
421.29	51.49
421.48	21.06
421.67	49.15
421.86	16.38
422.05	0.00
422.24	0.00
422.43	7.02
422.61	56.17
422.80	53.83
422.99	37.45
423.18	28.09
423.37	88.94
423.56	44.47
423.75	88.94
423.94	0.00
424.13	77.24
424.32	0.00
424.50	63.19
424.69	58.51
424.88	53.83
425.07	0.00
425.26	46.81
425.45	84.26
425.64	0.00
425.83	0.00
426.01	79.58
426.20	0.00
426.39	93.62
426.58	7.02
426.77	0.00
426.96	74.90
427.15	70.22
427.33	58.51
427.52	0.00
427.71	91.28
427.90	0.00
428.09	51.49
428.28	0.00
428.46	65.54
428.65	46.81
428.84	131.07
429.03	84.26
429.22	7.02
429.40	70.22
429.59	81.92
429.78	60.85
429.97	67.88
430.16	114.69
430.34	44.47
430.53	18.72
430.72	0.00
430.91	0.00
431.10	18.72
431.28	84.26
431.47	60.85
431.66	91.28
431.85	0.00
432.03	74.90
432.22	16.38
432.41	77.24
432.60	58.51
432.79	35.11
432.97	23.41
433.16	42.13
433.35	81.92
433.54	28.09
433.72	16.38
433.91	65.54
434.10	58.51
434.28	77.24
434.47	107.66
434.66	32.77
434.85	56.17
435.03	39.79
435.22	74.90
435.41	124.05
435.59	39.79
435.78	35.11
435.97	114.69
436.16	117.03
436.34	0.00
436.53	30.43
436.72	0.00
436.90	112.35
437.09	37.45
437.28	65.54
437.46	37.45
437.65	91.28
437.84	70.22
438.02	79.58
438.21	72.56
438.40	37.45
438.58	56.17
438.77	16.38
438.96	117.03
439.14	53.83
439.33	65.54
439.52	60.85
439.70	9.36
439.89	49.15
440.08	23.41
440.26	142.77
440.45	23.41
440.63	18.72
440.82	65.54
441.01	91.28
441.19	0.00
441.38	112.35
441.57	53.83
441.75	23.41
441.94	0.00
442.12	72.56
442.31	91.28
442.50	0.00
442.68	18.72
442.87	0.00
443.05	86.60
443.24	32.77
443.43	56.17
443.61	77.24
443.80	9.36
443.98	51.49
444.17	110.01
444.35	53.83
444.54	49.15
444.73	2.34
444.91	95.96
445.10	7.02
445.28	77.24
445.47	0.00
445.65	88.94
445.84	95.96
446.02	91.28
446.21	74.90
446.39	49.15
446.58	44.47
446.77	0.00
446.95	11.70
447.14	60.85
447.32	88.94
447.51	0.00
447.69	18.72
447.88	0.00
448.06	18.72
448.25	65.54
448.43	0.00
448.62	56.17
448.80	46.81
448.99	70.22
449.17	21.06
449.36	51.49
449.54	126.39
449.73	70.22
449.91	39.79
450.10	63.19
450.28	14.04
450.46	42.13
450.65	30.43
450.83	44.47
451.02	102.98
451.20	131.07
451.39	0.00
451.57	44.47
451.76	32.77
451.94	0.00
452.13	91.28
452.31	37.45
452.49	60.85
452.68	0.00
452.86	98.30
453.05	63.19
453.23	11.70
453.42	0.00
453.60	21.06
453.78	107.66
453.97	30.43
454.15	44.47
454.34	91.28
454.52	0.00
454.70	37.45
454.89	70.22
455.07	79.58
455.26	95.96
455.44	81.92
455.62	112.35
455.81	35.11
455.99	67.88
456.17	77.24
456.36	58.51
456.54	37.45
456.73	95.96
456.91	65.54
457.09	119.37
457.28	102.98
457.46	16.38
457.64	0.00
457.83	81.92
458.01	37.45
458.19	60.85
458.38	21.06
458.56	79.58
458.74	77.24
458.93	25.75
459.11	70.22
459.29	72.56
459.48	39.79
459.66	21.06
459.84	91.28
460.03	70.22
460.21	49.15
460.39	63.19
460.57	58.51
460.76	72.56
460.94	98.30
461.12	58.51
461.31	44.47
461.49	39.79
461.67	7.02
461.85	46.81
462.04	9.36
462.22	124.05
462.40	65.54
462.59	4.68
462.77	56.17
462.95	72.56
463.13	93.62
463.32	39.79
463.50	58.51
463.68	65.54
463.86	25.75
464.05	46.81
464.23	74.90
464.41	105.32
464.59	0.00
464.78	77.24
464.96	16.38
465.14	67.88
465.32	42.13
465.50	28.09
465.69	9.36
465.87	79.58
466.05	88.94
466.23	77.24
466.41	67.88
466.60	88.94
466.78	9.36
466.96	35.11
467.14	95.96
467.32	0.00
467.51	105.32
467.69	105.32
467.87	88.94
468.05	42.13
468.23	30.43
468.41	56.17
468.60	39.79
468.78	42.13
468.96	0.00
469.14	32.77
469.32	0.00
469.50	30.43
469.69	102.98
469.87	14.04
470.05	56.17
470.23	63.19
470.41	70.22
470.59	152.13
470.77	91.28
470.95	77.24
471.14	28.09
471.32	2.34
471.50	72.56
471.68	81.92
471.86	95.96
472.04	51.49
472.22	46.81
472.40	51.49
472.58	84.26
472.77	28.09
472.95	105.32
473.13	21.06
473.31	81.92
473.49	88.94
473.67	72.56
473.85	70.22
474.03	95.96
474.21	9.36
474.39	70.22
474.57	77.24
474.75	67.88
474.93	51.49
475.12	74.90
475.30	93.62
475.48	88.94
475.66	65.54
475.84	84.26
476.02	93.62
476.20	88.94
476.38	81.92
476.56	65.54
476.74	65.54
476.92	44.47
477.10	74.90
477.28	39.79
477.46	0.00
477.64	21.06
477.82	110.01
478.00	42.13
478.18	74.90
478.36	35.11
478.54	105.32
478.72	145.11
478.90	88.94
479.08	67.88
479.26	112.35
479.44	46.81
479.62	51.49
479.80	67.88
479.98	142.77
480.16	121.71
480.34	124.05
480.52	110.01
480.70	86.60
480.88	88.94
481.06	53.83
481.24	140.43
481.41	25.75
481.59	28.09
481.77	81.92
481.95	149.79
482.13	65.54
482.31	25.75
482.49	28.09
482.67	121.71
482.85	189.58
483.03	107.66
483.21	81.92
483.39	79.58
483.57	117.03
483.74	0.00
483.92	93.62
484.10	49.15
484.28	39.79
484.46	100.64
484.64	28.09
484.82	67.88
485.00	98.30
485.18	131.07
485.35	77.24
485.53	110.01
485.71	88.94
485.89	51.49
486.07	49.15
486.25	16.38
486.43	91.28
486.61	56.17
486.78	79.58
486.96	105.32
487.14	56.17
487.32	112.35
487.50	51.49
487.68	72.56
487.85	112.35
488.03	56.17
488.21	23.41
488.39	46.81
488.57	112.35
488.75	128.73
488.92	128.73
489.10	25.75
489.28	4.68
489.46	67.88
489.64	86.60
489.81	35.11
489.99	112.35
490.17	114.69
490.35	119.37
490.53	23.41
490.70	102.98
490.88	30.43
491.06	60.85
491.24	117.03
491.41	46.81
491.59	32.77
491.77	124.05
491.95	74.90
492.13	58.51
492.30	35.11
492.48	25.75
492.66	0.00
492.84	18.72
493.01	0.00
493.19	77.24
493.37	70.22
493.54	44.47
493.72	112.35
493.90	65.54
494.08	74.90
494.25	84.26
494.43	121.71
494.61	93.62
494.79	0.00
494.96	72.56
495.14	163.84
495.32	60.85
495.49	133.41
495.67	81.92
495.85	51.49
496.02	81.92
496.20	79.58
496.38	119.37
496.55	133.41
496.73	81.92
496.91	133.41
497.09	105.32
497.26	107.66
497.44	0.00
497.62	88.94
497.79	28.09
497.97	77.24
498.14	46.81
498.32	98.30
498.50	74.90
498.67	2.34
498.85	86.60
499.03	51.49
499.20	72.56
499.38	93.62
499.56	23.41
499.73	70.22
499.91	147.45
500.08	100.64
500.26	72.56
500.44	70.22
500.61	119.37
500.79	63.19
500.97	91.28
501.14	133.41
501.32	114.69
501.49	86.60
501.67	98.30
501.84	77.24
502.02	114.69
502.20	156.82
502.37	86.60
502.55	65.54
502.72	119.37
502.90	119.37
503.07	63.19
503.25	105.32
503.43	32.77
503.60	11.70
503.78	107.66
503.95	117.03
504.13	4.68
504.30	110.01
504.48	56.17
504.65	70.22
504.83	42.13
505.01	140.43
505.18	58.51
505.36	152.13
505.53	79.58
505.71	28.09
505.88	56.17
506.06	53.83
506.23	107.66
506.41	93.62
506.58	74.90
506.76	79.58
506.93	119.37
507.11	37.45
507.28	74.90
507.46	84.26
507.63	88.94
507.81	86.60
507.98	142.77
508.16	88.94
508.33	46.81
508.50	105.32
508.68	35.11
508.85	53.83
509.03	42.13
509.20	117.03
509.38	77.24
509.55	51.49
509.73	39.79
509.90	133.41
510.08	70.22
510.25	46.81
510.42	30.43
510.60	100.64
510.77	149.79
510.95	86.60
511.12	65.54
511.30	77.24
511.47	81.92
511.64	126.39
511.82	107.66
511.99	58.51
512.17	72.56
512.34	142.77
512.51	86.60
512.69	67.88
512.86	98.30
513.04	32.77
513.21	37.45
513.38	152.13
513.56	110.01
513.73	98.30
513.90	107.66
514.08	102.98
514.25	74.90
514.43	30.43
514.60	119.37
514.77	95.96
514.95	95.96
515.12	63.19
515.29	110.01
515.47	39.79
515.64	56.17
515.81	131.07
515.99	74.90
516.16	60.85
516.33	93.62
516.51	98.30
516.68	114.69
516.85	86.60
517.03	93.62
517.20	32.77
517.37	74.90
517.54	56.17
517.72	114.69
517.89	124.05
518.06	60.85
518.24	72.56
518.41	131.07
518.58	65.54
518.75	46.81
518.93	65.54
519.10	9.36
519.27	81.92
519.45	95.96
519.62	107.66
519.79	79.58
519.96	93.62
520.14	107.66
520.31	86.60
520.48	46.81
520.65	102.98
520.83	93.62
521.00	81.92
521.17	91.28
521.34	154.48
521.52	126.39
521.69	147.45
521.86	102.98
522.03	30.43
522.20	51.49
522.38	112.35
522.55	145.11
522.72	42.13
522.89	159.16
523.07	16.38
523.24	88.94
523.41	79.58
523.58	58.51
523.75	65.54
523.92	131.07
524.10	135.75
524.27	88.94
524.44	65.54
524.61	32.77
524.78	79.58
524.96	79.58
525.13	81.92
525.30	98.30
525.47	124.05
525.64	84.26
525.81	60.85
525.98	60.85
526.16	58.51
526.33	79.58
526.50	14.04
526.67	70.22
526.84	81.92
527.01	77.24
527.18	140.43
527.36	98.30
527.53	98.30
527.70	84.26
527.87	70.22
528.04	35.11
528.21	72.56
528.38	21.06
528.55	30.43
528.72	112.35
528.89	81.92
529.07	81.92
529.24	98.30
529.41	30.43
529.58	74.90
529.75	95.96
529.92	79.58
530.09	100.64
530.26	77.24
530.43	84.26
530.60	88.94
530.77	51.49
530.94	77.24
531.11	170.86
531.28	98.30
531.46	77.24
531.63	44.47
531.80	53.83
531.97	105.32
532.14	86.60
532.31	25.75
532.48	93.62
532.65	117.03
532.82	81.92
532.99	77.24
533.16	124.05
533.33	117.03
533.50	51.49
533.67	93.62
533.84	67.88
534.01	79.58
534.18	112.35
534.35	60.85
534.52	65.54
534.69	117.03
534.86	114.69
535.03	56.17
535.20	25.75
535.37	16.38
535.54	84.26
535.71	65.54
535.88	65.54
536.05	98.30
536.22	170.86
536.38	119.37
536.55	84.26
536.72	74.90
536.89	74.90
537.06	95.96
537.23	159.16
537.40	156.82
537.57	102.98
537.74	124.05
537.91	119.37
538.08	126.39
538.25	81.92
538.42	154.48
538.59	72.56
538.75	86.60
538.92	138.09
539.09	14.04
539.26	58.51
539.43	121.71
539.60	53.83
539.77	107.66
539.94	107.66
540.11	95.96
540.28	0.00
540.44	152.13
540.61	121.71
540.78	60.85
540.95	107.66
541.12	35.11
541.29	86.60
541.46	67.88
541.62	93.62
541.79	70.22
541.96	114.69
542.13	84.26
542.30	112.35
542.47	74.90
542.63	18.72
542.80	18.72
542.97	100.64
543.14	63.19
543.31	152.13
543.48	35.11
543.64	173.20
543.81	117.03
543.98	44.47
544.15	121.71
544.32	105.32
544.48	114.69
544.65	77.24
544.82	51.49
544.99	147.45
545.16	51.49
545.32	100.64
545.49	70.22
545.66	91.28
545.83	74.90
546.00	79.58
546.16	65.54
546.33	138.09
546.50	124.05
546.67	23.41
546.83	58.51
547.00	93.62
547.17	91.28
547.34	110.01
547.50	0.00
547.67	100.64
547.84	74.90
548.00	121.71
548.17	0.00
548.34	105.32
548.51	95.96
548.67	74.90
548.84	65.54
549.01	102.98
549.18	53.83
549.34	72.56
549.51	4.68
549.68	56.17
549.84	119.37
550.01	58.51
550.18	86.60
550.34	84.26
550.51	74.90
550.68	49.15
550.84	112.35
551.01	86.60
551.18	124.05
551.34	124.05
551.51	117.03
551.68	91.28
551.84	126.39
552.01	93.62
552.18	53.83
552.34	9.36
552.51	51.49
552.68	117.03
552.84	110.01
553.01	91.28
553.18	91.28
553.34	117.03
553.51	121.71
553.67	138.09
553.84	117.03
554.01	152.13
554.17	72.56
554.34	91.28
554.51	63.19
554.67	37.45
554.84	147.45
555.00	142.77
555.17	84.26
555.33	84.26
555.50	60.85
555.67	119.37
555.83	159.16
556.00	46.81
556.16	65.54
556.33	84.26
556.50	121.71
556.66	140.43
556.83	46.81
556.99	70.22
557.16	170.86
557.32	98.30
557.49	42.13
557.65	126.39
557.82	102.98
557.98	81.92
558.15	49.15
558.32	121.71
558.48	70.22
558.65	49.15
558.81	102.98
558.98	112.35
559.14	32.77
559.31	51.49
559.47	0.00
559.64	170.86
559.80	95.96
559.97	168.52
560.13	58.51
560.30	56.17
560.46	11.70
560.63	114.69
560.79	102.98
560.96	112.35
561.12	51.49
561.29	88.94
561.45	79.58
561.61	124.05
561.78	98.30
561.94	51.49
562.11	91.28
562.27	112.35
562.44	119.37
562.60	135.75
562.77	91.28
562.93	79.58
563.10	119.37
563.26	32.77
563.42	44.47
563.59	37.45
563.75	86.60
563.92	51.49
564.08	86.60
564.24	51.49
564.41	119.37
564.57	81.92
564.74	44.47
564.90	114.69
565.07	112.35
565.23	51.49
565.39	79.58
565.56	72.56
565.72	25.75
565.88	91.28
566.05	42.13
566.21	4.68
566.38	107.66
566.54	163.84
566.70	53.83
566.87	42.13
567.03	88.94
567.19	81.92
567.36	112.35
567.52	72.56
567.68	93.62
567.85	70.22
568.01	28.09
568.17	18.72
568.34	100.64
568.50	77.24
568.66	72.56
568.83	98.30
568.99	110.01
569.15	107.66
569.32	79.58
569.48	65.54
569.64	44.47
569.81	88.94
569.97	23.41
570.13	79.58
570.30	84.26
570.46	88.94
570.62	74.90
570.78	112.35
570.95	135.75
571.11	84.26
571.27	44.47
571.43	39.79
571.60	9.36
571.76	145.11
571.92	35.11
572.09	95.96
572.25	28.09
572.41	175.54
572.57	77.24
572.74	16.38
572.90	114.69
573.06	58.51
573.22	49.15
573.38	77.24
573.55	67.88
573.71	84.26
573.87	9.36
574.03	95.96
574.20	65.54
574.36	65.54
574.52	79.58
574.68	18.72
574.84	110.01
575.01	67.88
575.17	67.88
575.33	74.90
575.49	74.90
575.65	72.56
575.82	140.43
575.98	67.88
576.14	49.15
576.30	35.11
576.46	21.06
576.62	100.64
576.79	91.28
576.95	133.41
577.11	79.58
577.27	102.98
577.43	44.47
577.59	42.13
577.75	14.04
577.92	100.64
578.08	46.81
578.24	77.24
578.40	88.94
578.56	86.60
578.72	102.98
578.88	72.56
579.04	14.04
579.21	53.83
579.37	44.47
579.53	46.81
579.69	65.54
579.85	51.49
580.01	63.19
580.17	21.06
580.33	42.13
580.49	114.69
580.65	72.56
580.82	86.60
580.98	170.86
581.14	74.90
581.30	100.64
581.46	67.88
581.62	58.51
581.78	81.92
581.94	84.26
582.10	100.64
582.26	56.17
582.42	23.41
582.58	86.60
582.74	21.06
582.90	72.56
583.06	88.94
583.22	25.75
583.38	65.54
583.54	74.90
583.70	81.92
583.86	70.22
584.02	142.77
584.18	98.30
584.34	117.03
584.50	128.73
584.66	72.56
584.82	88.94
584.98	86.60
585.14	0.00
585.30	14.04
585.46	77.24
585.62	58.51
585.78	72.56
585.94	58.51
586.10	86.60
586.26	53.83
586.42	65.54
586.58	138.09
586.74	30.43
586.90	74.90
587.06	128.73
587.22	121.71
587.38	51.49
587.54	67.88
587.70	95.96
587.86	161.50
588.02	53.83
588.18	30.43
588.34	86.60
588.49	56.17
588.65	67.88
588.81	16.38
588.97	70.22
589.13	11.70
589.29	42.13
589.45	58.51
589.61	86.60
589.77	98.30
589.93	53.83
590.08	119.37
590.24	128.73
590.40	91.28
590.56	0.00
590.72	58.51
590.88	42.13
591.04	105.32
591.20	11.70
591.35	30.43
591.51	91.28
591.67	65.54
591.83	58.51
591.99	112.35
592.15	0.00
592.31	117.03
592.46	14.04
592.62	93.62
592.78	124.05
592.94	65.54
593.10	156.82
593.26	2.34
593.41	77.24
593.57	0.00
593.73	51.49
593.89	70.22
594.05	67.88
594.20	23.41
594.36	140.43
594.52	37.45
594.68	53.83
594.84	100.64
594.99	25.75
595.15	102.98
595.31	112.35
595.47	51.49
595.62	119.37
595.78	161.50
595.94	53.83
596.10	2.34
596.25	98.30
596.41	84.26
596.57	114.69
596.73	79.58
596.88	88.94
597.04	4.68
597.20	102.98
597.36	46.81
597.51	112.35
597.67	86.60
597.83	81.92
597.99	0.00
598.14	63.19
598.30	70.22
598.46	98.30
598.61	65.54
598.77	138.09
598.93	133.41
599.09	133.41
599.24	58.51
599.40	37.45
599.56	2.34
599.71	32.77
599.87	124.05
600.03	166.18
600.18	56.17
600.34	100.64
600.50	95.96
600.65	65.54
600.81	131.07
600.97	51.49
601.12	58.51
601.28	60.85
601.44	39.79
601.59	35.11
601.75	35.11
601.91	37.45
602.06	100.64
602.22	67.88
602.37	9.36
602.53	0.00
602.69	23.41
602.84	74.90
603.00	133.41
603.16	51.49
603.31	114.69
603.47	110.01
603.62	42.13
603.78	98.30
603.94	112.35
604.09	81.92
604.25	98.30
604.40	95.96
604.56	100.64
604.71	86.60
604.87	91.28
605.03	98.30
605.18	18.72
605.34	58.51
605.49	128.73
605.65	44.47
605.80	72.56
605.96	86.60
606.12	79.58
606.27	72.56
606.43	21.06
606.58	53.83
606.74	28.09
606.89	56.17
607.05	63.19
607.20	56.17
607.36	60.85
607.51	72.56
607.67	81.92
607.82	28.09
607.98	93.62
608.13	72.56
608.29	67.88
608.44	100.64
608.60	88.94
608.75	46.81
608.91	98.30
609.06	128.73
609.22	93.62
609.37	100.64
609.53	30.43
609.68	46.81
609.84	63.19
609.99	110.01
610.15	133.41
610.30	154.48
610.46	117.03
610.61	110.01
610.76	102.98
610.92	65.54
611.07	23.41
611.23	0.00
611.38	70.22
611.54	58.51
611.69	58.51
611.84	42.13
612.00	147.45
612.15	124.05
612.31	93.62
612.46	84.26
612.62	72.56
612.77	128.73
612.92	117.03
613.08	28.09
613.23	42.13
613.39	98.30
613.54	119.37
613.69	72.56
613.85	44.47
614.00	56.17
614.15	95.96
614.31	0.00
614.46	72.56
614.62	86.60
614.77	9.36
614.92	79.58
615.08	39.79
615.23	84.26
615.38	138.09
615.54	42.13
615.69	91.28
615.84	9.36
616.00	14.04
616.15	77.24
616.30	23.41
616.46	65.54
616.61	39.79
616.76	25.75
616.92	100.64
617.07	0.00
617.22	0.00
617.37	63.19
617.53	149.79
617.68	72.56
617.83	67.88
617.99	60.85
618.14	23.41
618.29	39.79
618.45	91.28
618.60	98.30
618.75	4.68
618.90	9.36
619.06	98.30
619.21	163.84
619.36	72.56
619.51	110.01
619.67	100.64
619.82	79.58
619.97	37.45
620.12	84.26
620.28	93.62
620.43	63.19
620.58	105.32
620.73	91.28
620.89	79.58
621.04	74.90
621.19	49.15
621.34	70.22
621.49	28.09
621.65	46.81
621.80	100.64
621.95	112.35
622.10	42.13
622.25	110.01
622.41	37.45
622.56	91.28
622.71	88.94
622.86	67.88
623.01	58.51
623.16	44.47
623.32	51.49
623.47	60.85
623.62	0.00
623.77	14.04
623.92	149.79
624.07	53.83
624.23	98.30
624.38	77.24
624.53	56.17
624.68	56.17
624.83	98.30
624.98	37.45
625.13	74.90
625.29	23.41
625.44	0.00
625.59	0.00
625.74	65.54
625.89	91.28
626.04	84.26
626.19	0.00
626.34	18.72
626.49	131.07
626.65	46.81
626.80	60.85
626.95	58.51
627.10	131.07
627.25	81.92
627.40	0.00
627.55	112.35
627.70	72.56
627.85	25.75
628.00	30.43
628.15	133.41
628.30	16.38
628.45	44.47
628.60	88.94
628.76	44.47
628.91	91.28
629.06	51.49
629.21	39.79
629.36	44.47
629.51	112.35
629.66	44.47
629.81	53.83
629.96	53.83
630.11	21.06
630.26	37.45
630.41	100.64
630.56	0.00
630.71	63.19
630.86	84.26
631.01	88.94
631.16	63.19
631.31	0.00
631.46	42.13
631.61	86.60
631.76	23.41
631.91	56.17
632.06	7.02
632.21	84.26
632.36	37.45
632.51	70.22
632.66	32.77
632.81	37.45
632.96	65.54
633.10	77.24
633.25	32.77
633.40	93.62
633.55	28.09
633.70	70.22
633.85	9.36
634.00	51.49
634.15	23.41
634.30	84.26
634.45	53.83
634.60	95.96
634.75	70.22
634.90	23.41
635.05	56.17
635.19	49.15
635.34	74.90
635.49	21.06
635.64	32.77
635.79	67.88
635.94	100.64
636.09	70.22
636.24	74.90
636.39	21.06
636.53	14.04
636.68	81.92
636.83	72.56
636.98	84.26
637.13	23.41
637.28	58.51
637.43	53.83
637.57	72.56
637.72	49.15
637.87	105.32
638.02	53.83
638.17	21.06
638.32	46.81
638.46	79.58
638.61	23.41
638.76	91.28
638.91	28.09
639.06	65.54
639.20	119.37
639.35	72.56
639.50	28.09
639.65	98.30
639.80	58.51
639.94	91.28
640.09	88.94
640.24	84.26
640.39	56.17
640.54	84.26
640.68	72.56
640.83	60.85
640.98	32.77
641.13	0.00
641.27	42.13
641.42	84.26
641.57	74.90
641.72	28.09
641.86	16.38
642.01	42.13
642.16	21.06
642.31	37.45
642.45	63.19
642.60	16.38
642.75	58.51
642.90	56.17
643.04	84.26
643.19	84.26
643.34	0.00
643.48	30.43
643.63	2.34
643.78	77.24
643.93	0.00
644.07	56.17
644.22	107.66
644.37	28.09
644.51	60.85
644.66	72.56
644.81	37.45
644.95	70.22
645.10	53.83
645.25	35.11
645.39	0.00
645.54	11.70
645.69	65.54
645.83	53.83
645.98	81.92
646.13	60.85
646.27	46.81
646.42	67.88
646.57	32.77
646.71	37.45
646.86	0.00
647.00	124.05
647.15	63.19
647.30	46.81
647.44	0.00
647.59	39.79
647.74	44.47
647.88	28.09
648.03	93.62
648.17	7.02
648.32	0.00
648.47	42.13
648.61	21.06
648.76	72.56
648.90	18.72
649.05	39.79
649.20	56.17
649.34	32.77
649.49	21.06
649.63	131.07
649.78	39.79
649.92	53.83
650.07	39.79
650.21	110.01
650.36	39.79
650.51	65.54
650.65	95.96
650.80	86.60
650.94	16.38
651.09	72.56
651.23	18.72
651.38	42.13
651.52	2.34
651.67	93.62
651.81	70.22
651.96	37.45
652.10	112.35
652.25	105.32
652.39	49.15
652.54	32.77
652.68	131.07
652.83	72.56
652.97	60.85
653.12	7.02
653.26	35.11
653.41	44.47
653.55	21.06
653.70	35.11
653.84	93.62
653.99	114.69
654.13	37.45
654.27	44.47
654.42	67.88
654.56	0.00
654.71	110.01
654.85	32.77
655.00	37.45
655.14	14.04
655.29	56.17
655.43	107.66
655.57	42.13
655.72	135.75
655.86	42.13
656.01	0.00
656.15	35.11
656.30	100.64
656.44	67.88
656.58	0.00
656.73	79.58
656.87	95.96
657.01	79.58
657.16	16.38
657.30	11.70
657.45	25.75
657.59	42.13
657.73	0.00
657.88	16.38
658.02	79.58
658.16	84.26
658.31	35.11
658.45	67.88
658.60	88.94
658.74	21.06
658.88	51.49
659.03	39.79
659.17	0.00
659.31	46.81
659.46	30.43
659.60	51.49
659.74	32.77
659.89	39.79
660.03	72.56
660.17	58.51
660.32	163.84
660.46	39.79
660.60	51.49
660.74	21.06
660.89	138.09
661.03	30.43
661.17	7.02
661.32	84.26
661.46	60.85
661.60	93.62
661.74	0.00
661.89	70.22
662.03	84.26
662.17	133.41
662.31	67.88
662.46	102.98
662.60	86.60
662.74	32.77
662.88	58.51
663.03	79.58
663.17	30.43
663.31	74.90
663.45	18.72
663.60	70.22
663.74	51.49
663.88	42.13
664.02	0.00
664.17	42.13
664.31	18.72
664.45	21.06
664.59	51.49
664.73	0.00
664.88	98.30
665.02	0.00
665.16	37.45
665.30	16.38
665.44	32.77
665.59	0.00
665.73	44.47
665.87	110.01
666.01	58.51
666.15	77.24
666.29	100.64
666.44	67.88
666.58	58.51
666.72	114.69
666.86	46.81
667.00	49.15
667.14	37.45
667.28	93.62
667.43	51.49
667.57	88.94
667.71	0.00
667.85	63.19
667.99	32.77
668.13	0.00
668.27	39.79
668.41	58.51
668.56	11.70
668.70	91.28
668.84	56.17
668.98	72.56
669.12	11.70
669.26	126.39
669.40	72.56
669.54	74.90
669.68	39.79
669.82	51.49
669.96	0.00
670.10	30.43
670.25	70.22
670.39	0.00
670.53	7.02
670.67	42.13
670.81	28.09
670.95	0.00
671.09	65.54
671.23	58.51
671.37	0.00
671.51	18.72
671.65	46.81
671.79	0.00
671.93	46.81
672.07	7.02
672.21	11.70
672.35	72.56
672.49	79.58
672.63	77.24
672.77	121.71
672.91	39.79
673.05	119.37
673.19	0.00
673.33	28.09
673.47	72.56
673.61	93.62
673.75	0.00
673.89	110.01
674.03	39.79
674.17	9.36
674.31	35.11
674.45	35.11
674.59	84.26
674.73	0.00
674.87	30.43
675.01	46.81
675.15	25.75
675.29	25.75
675.43	0.00
675.56	58.51
675.70	77.24
675.84	21.06
675.98	0.00
676.12	65.54
676.26	30.43
676.40	0.00
676.54	0.00
676.68	49.15
676.82	58.51
676.96	30.43
677.10	44.47
677.23	95.96
677.37	79.58
677.51	65.54
677.65	91.28
677.79	53.83
677.93	65.54
678.07	53.83
678.21	11.70
678.34	93.62
678.48	30.43
678.62	11.70
678.76	98.30
678.90	39.79
679.04	93.62
679.18	39.79
679.31	53.83
679.45	28.09
679.59	39.79
679.73	93.62
679.87	0.00
680.00	60.85
680.14	51.49
680.28	74.90
680.42	11.70
680.56	32.77
680.70	49.15
680.83	28.09
680.97	56.17
681.11	70.22
681.25	16.38
681.39	32.77
681.52	23.41
681.66	2.34
681.80	58.51
681.94	53.83
682.07	0.00
682.21	0.00
682.35	65.54
682.49	72.56
682.62	11.70
682.76	42.13
682.90	32.77
683.04	32.77
683.17	65.54
683.31	37.45
683.45	42.13
683.59	0.00
683.72	65.54
683.86	72.56
684.00	11.70
684.13	44.47
684.27	58.51
684.41	49.15
684.55	28.09
684.68	91.28
684.82	7.02
684.96	28.09
685.09	37.45
685.23	37.45
685.37	56.17
685.50	86.60
685.64	18.72
685.78	51.49
685.91	0.00
686.05	49.15
686.19	72.56
686.32	51.49
686.46	42.13
686.60	16.38
686.73	0.00
686.87	46.81
687.01	18.72
687.14	35.11
687.28	42.13
687.42	42.13
687.55	23.41
687.69	51.49
687.82	0.00
687.96	42.13
688.10	102.98
688.23	35.11
688.37	7.02
688.50	65.54
688.64	32.77
688.78	37.45
688.91	35.11
689.05	0.00
689.18	28.09
689.32	39.79
689.46	0.00
689.59	18.72
689.73	46.81
689.86	53.83
690.00	65.54
690.13	9.36
690.27	65.54
690.41	56.17
690.54	23.41
690.68	67.88
690.81	84.26
690.95	25.75
691.08	35.11
691.22	16.38
691.35	74.90
691.49	65.54
691.62	11.70
691.76	37.45
691.89	117.03
692.03	81.92
692.16	0.00
692.30	28.09
692.43	28.09
692.57	56.17
692.70	16.38
692.84	72.56
692.97	0.00
693.11	0.00
693.24	46.81
693.38	65.54
693.51	46.81
693.65	98.30
693.78	23.41
693.92	56.17
694.05	25.75
694.19	70.22
694.32	25.75
694.45	100.64
694.59	0.00
694.72	11.70
694.86	32.77
694.99	58.51
695.13	65.54
695.26	77.24
695.39	11.70
695.53	7.02
695.66	44.47
695.80	23.41
695.93	0.00
696.07	7.02
696.20	0.00
696.33	56.17
696.47	0.00
696.60	51.49
696.73	23.41
696.87	30.43
697.00	30.43
697.14	53.83
697.27	49.15
697.40	60.85
697.54	25.75
697.67	37.45
697.80	0.00
697.94	9.36
698.07	46.81
698.21	39.79
698.34	77.24
698.47	51.49
698.61	70.22
698.74	0.00
698.87	42.13
699.01	16.38
699.14	77.24
699.27	46.81
699.40	2.34
699.54	9.36
699.67	81.92
699.80	60.85
699.94	0.00
700.07	0.00
700.20	7.02
700.34	60.85
700.47	0.00
700.60	56.17
700.73	65.54
700.87	14.04
701.00	23.41
701.13	60.85
701.26	58.51
701.40	4.68
701.53	28.09
701.66	81.92
701.79	21.06
701.93	93.62
702.06	72.56
702.19	56.17
702.32	46.81
702.46	30.43
702.59	42.13
702.72	23.41
702.85	49.15
702.99	49.15
703.12	53.83
703.25	7.02
703.38	0.00
703.51	18.72
703.65	0.00
703.78	16.38
703.91	42.13
704.04	0.00
704.17	42.13
704.31	16.38
704.44	67.88
704.57	9.36
704.70	0.00
704.83	46.81
704.96	0.00
705.10	32.77
705.23	30.43
>>>>>End Processed Spectral Data<<<<<
