SpectraSuite Data File
++++++++++++++++++++++++++++++++++++
Date: Fri Oct 04 12:13:40 GMT-05:00 2013
User: price-jones
Dark Spectrum Present: No
Reference Spectrum Present: No
Number of Sampled Component Spectra: 1
Spectrometers: USB2+H05261
Integration Time (usec): 10000 (USB2+H05261)
Spectra Averaged: 1 (USB2+H05261)
Boxcar Smoothing: 0 (USB2+H05261)
Correct for Electrical Dark: No (USB2+H05261)
Strobe/Lamp Enabled: No (USB2+H05261)
Correct for Detector Non-linearity: No (USB2+H05261)
Correct for Stray Light: No (USB2+H05261)
Number of Pixels in Processed Spectrum: 2048
>>>>>Begin Processed Spectral Data<<<<<
365.73	2.34
365.92	2.34
366.12	2.34
366.32	0.00
366.52	0.00
366.72	0.00
366.91	0.00
367.11	0.00
367.31	0.00
367.51	0.00
367.70	0.00
367.90	0.00
368.10	0.00
368.30	0.00
368.49	0.00
368.69	0.00
368.89	0.00
369.09	0.00
369.28	0.00
369.48	0.00
369.68	0.00
369.87	0.00
370.07	0.00
370.27	0.00
370.47	0.00
370.66	0.00
370.86	0.00
371.06	0.00
371.25	0.00
371.45	0.00
371.65	0.00
371.84	0.00
372.04	0.00
372.24	0.00
372.44	0.00
372.63	0.00
372.83	16.38
373.03	0.00
373.22	32.77
373.42	7.02
373.62	74.90
373.81	21.06
374.01	126.39
374.21	37.45
374.40	23.41
374.60	49.15
374.79	16.38
374.99	35.11
375.19	0.00
375.38	0.00
375.58	53.83
375.78	7.02
375.97	25.75
376.17	63.19
376.37	105.32
376.56	51.49
376.76	16.38
376.95	7.02
377.15	0.00
377.35	51.49
377.54	32.77
377.74	30.43
377.93	0.00
378.13	49.15
378.33	86.60
378.52	0.00
378.72	0.00
378.91	18.72
379.11	37.45
379.31	95.96
379.50	11.70
379.70	4.68
379.89	0.00
380.09	0.00
380.28	0.00
380.48	49.15
380.68	23.41
380.87	4.68
381.07	9.36
381.26	0.00
381.46	0.00
381.65	21.06
381.85	2.34
382.04	63.19
382.24	70.22
382.43	65.54
382.63	16.38
382.83	0.00
383.02	0.00
383.22	0.00
383.41	42.13
383.61	51.49
383.80	51.49
384.00	0.00
384.19	11.70
384.39	11.70
384.58	0.00
384.78	53.83
384.97	0.00
385.17	53.83
385.36	67.88
385.56	72.56
385.75	53.83
385.95	11.70
386.14	18.72
386.34	49.15
386.53	0.00
386.72	18.72
386.92	102.98
387.11	14.04
387.31	37.45
387.50	35.11
387.70	0.00
387.89	0.00
388.09	4.68
388.28	65.54
388.48	9.36
388.67	25.75
388.86	0.00
389.06	86.60
389.25	23.41
389.45	58.51
389.64	16.38
389.84	42.13
390.03	23.41
390.22	0.00
390.42	0.00
390.61	0.00
390.81	0.00
391.00	56.17
391.19	0.00
391.39	21.06
391.58	39.79
391.78	91.28
391.97	60.85
392.16	0.00
392.36	0.00
392.55	9.36
392.75	16.38
392.94	9.36
393.13	0.00
393.33	37.45
393.52	0.00
393.71	16.38
393.91	74.90
394.10	46.81
394.29	21.06
394.49	39.79
394.68	67.88
394.88	0.00
395.07	7.02
395.26	100.64
395.46	60.85
395.65	28.09
395.84	25.75
396.04	53.83
396.23	44.47
396.42	35.11
396.62	42.13
396.81	81.92
397.00	23.41
397.19	46.81
397.39	0.00
397.58	32.77
397.77	32.77
397.97	32.77
398.16	91.28
398.35	32.77
398.55	37.45
398.74	7.02
398.93	39.79
399.12	7.02
399.32	0.00
399.51	84.26
399.70	65.54
399.90	7.02
400.09	0.00
400.28	23.41
400.47	32.77
400.67	58.51
400.86	28.09
401.05	28.09
401.24	35.11
401.44	28.09
401.63	107.66
401.82	63.19
402.01	51.49
402.21	9.36
402.40	39.79
402.59	7.02
402.78	25.75
402.97	11.70
403.17	4.68
403.36	74.90
403.55	25.75
403.74	70.22
403.93	44.47
404.13	16.38
404.32	0.00
404.51	25.75
404.70	86.60
404.89	65.54
405.09	56.17
405.28	53.83
405.47	77.24
405.66	18.72
405.85	37.45
406.05	39.79
406.24	49.15
406.43	0.00
406.62	44.47
406.81	46.81
407.00	2.34
407.20	37.45
407.39	79.58
407.58	44.47
407.77	110.01
407.96	32.77
408.15	77.24
408.34	51.49
408.54	18.72
408.73	21.06
408.92	102.98
409.11	37.45
409.30	39.79
409.49	58.51
409.68	25.75
409.87	23.41
410.07	0.00
410.26	30.43
410.45	49.15
410.64	14.04
410.83	14.04
411.02	32.77
411.21	18.72
411.40	0.00
411.59	37.45
411.78	18.72
411.98	67.88
412.17	46.81
412.36	60.85
412.55	42.13
412.74	0.00
412.93	30.43
413.12	42.13
413.31	56.17
413.50	4.68
413.69	44.47
413.88	0.00
414.07	79.58
414.26	21.06
414.45	7.02
414.64	2.34
414.83	60.85
415.02	9.36
415.22	42.13
415.41	44.47
415.60	4.68
415.79	53.83
415.98	0.00
416.17	7.02
416.36	58.51
416.55	110.01
416.74	37.45
416.93	28.09
417.12	0.00
417.31	30.43
417.50	14.04
417.69	70.22
417.88	126.39
418.07	58.51
418.26	58.51
418.45	70.22
418.64	60.85
418.83	53.83
419.02	9.36
419.21	63.19
419.39	11.70
419.58	16.38
419.77	79.58
419.96	28.09
420.15	67.88
420.34	37.45
420.53	112.35
420.72	124.05
420.91	0.00
421.10	72.56
421.29	53.83
421.48	77.24
421.67	74.90
421.86	35.11
422.05	67.88
422.24	102.98
422.43	28.09
422.61	39.79
422.80	53.83
422.99	46.81
423.18	79.58
423.37	46.81
423.56	65.54
423.75	0.00
423.94	110.01
424.13	84.26
424.32	0.00
424.50	79.58
424.69	30.43
424.88	35.11
425.07	9.36
425.26	0.00
425.45	9.36
425.64	53.83
425.83	81.92
426.01	0.00
426.20	51.49
426.39	0.00
426.58	0.00
426.77	44.47
426.96	44.47
427.15	117.03
427.33	0.00
427.52	70.22
427.71	18.72
427.90	39.79
428.09	30.43
428.28	23.41
428.46	77.24
428.65	65.54
428.84	42.13
429.03	35.11
429.22	23.41
429.40	2.34
429.59	28.09
429.78	0.00
429.97	51.49
430.16	14.04
430.34	11.70
430.53	21.06
430.72	14.04
430.91	35.11
431.10	7.02
431.28	39.79
431.47	114.69
431.66	35.11
431.85	0.00
432.03	60.85
432.22	70.22
432.41	32.77
432.60	149.79
432.79	0.00
432.97	44.47
433.16	23.41
433.35	58.51
433.54	2.34
433.72	32.77
433.91	72.56
434.10	0.00
434.28	49.15
434.47	35.11
434.66	14.04
434.85	93.62
435.03	51.49
435.22	60.85
435.41	28.09
435.59	49.15
435.78	25.75
435.97	44.47
436.16	56.17
436.34	46.81
436.53	0.00
436.72	72.56
436.90	42.13
437.09	100.64
437.28	100.64
437.46	56.17
437.65	58.51
437.84	9.36
438.02	112.35
438.21	0.00
438.40	51.49
438.58	81.92
438.77	74.90
438.96	30.43
439.14	53.83
439.33	39.79
439.52	0.00
439.70	30.43
439.89	60.85
440.08	65.54
440.26	0.00
440.45	2.34
440.63	67.88
440.82	37.45
441.01	11.70
441.19	11.70
441.38	18.72
441.57	9.36
441.75	86.60
441.94	53.83
442.12	102.98
442.31	95.96
442.50	56.17
442.68	98.30
442.87	84.26
443.05	70.22
443.24	11.70
443.43	63.19
443.61	46.81
443.80	79.58
443.98	77.24
444.17	2.34
444.35	65.54
444.54	70.22
444.73	91.28
444.91	145.11
445.10	84.26
445.28	72.56
445.47	0.00
445.65	49.15
445.84	100.64
446.02	56.17
446.21	35.11
446.39	30.43
446.58	28.09
446.77	32.77
446.95	74.90
447.14	4.68
447.32	35.11
447.51	65.54
447.69	77.24
447.88	84.26
448.06	105.32
448.25	56.17
448.43	65.54
448.62	18.72
448.80	0.00
448.99	39.79
449.17	56.17
449.36	18.72
449.54	35.11
449.73	49.15
449.91	39.79
450.10	0.00
450.28	39.79
450.46	58.51
450.65	77.24
450.83	0.00
451.02	16.38
451.20	114.69
451.39	70.22
451.57	46.81
451.76	14.04
451.94	44.47
452.13	70.22
452.31	60.85
452.49	35.11
452.68	9.36
452.86	46.81
453.05	39.79
453.23	23.41
453.42	63.19
453.60	49.15
453.78	32.77
453.97	95.96
454.15	0.00
454.34	60.85
454.52	93.62
454.70	93.62
454.89	86.60
455.07	93.62
455.26	70.22
455.44	0.00
455.62	0.00
455.81	121.71
455.99	42.13
456.17	112.35
456.36	74.90
456.54	91.28
456.73	81.92
456.91	9.36
457.09	79.58
457.28	65.54
457.46	60.85
457.64	25.75
457.83	105.32
458.01	16.38
458.19	114.69
458.38	81.92
458.56	72.56
458.74	51.49
458.93	44.47
459.11	56.17
459.29	56.17
459.48	16.38
459.66	72.56
459.84	21.06
460.03	30.43
460.21	0.00
460.39	70.22
460.57	93.62
460.76	4.68
460.94	95.96
461.12	72.56
461.31	51.49
461.49	18.72
461.67	0.00
461.85	16.38
462.04	0.00
462.22	79.58
462.40	0.00
462.59	21.06
462.77	79.58
462.95	28.09
463.13	79.58
463.32	53.83
463.50	46.81
463.68	135.75
463.86	0.00
464.05	95.96
464.23	14.04
464.41	84.26
464.59	39.79
464.78	72.56
464.96	0.00
465.14	35.11
465.32	49.15
465.50	25.75
465.69	79.58
465.87	60.85
466.05	9.36
466.23	18.72
466.41	63.19
466.60	84.26
466.78	0.00
466.96	49.15
467.14	49.15
467.32	63.19
467.51	0.00
467.69	98.30
467.87	30.43
468.05	18.72
468.23	72.56
468.41	79.58
468.60	119.37
468.78	14.04
468.96	77.24
469.14	67.88
469.32	149.79
469.50	0.00
469.69	138.09
469.87	25.75
470.05	2.34
470.23	51.49
470.41	49.15
470.59	51.49
470.77	7.02
470.95	145.11
471.14	86.60
471.32	9.36
471.50	70.22
471.68	60.85
471.86	18.72
472.04	16.38
472.22	21.06
472.40	58.51
472.58	35.11
472.77	16.38
472.95	42.13
473.13	0.00
473.31	51.49
473.49	84.26
473.67	74.90
473.85	138.09
474.03	56.17
474.21	74.90
474.39	67.88
474.57	0.00
474.75	23.41
474.93	107.66
475.12	37.45
475.30	0.00
475.48	86.60
475.66	2.34
475.84	91.28
476.02	21.06
476.20	21.06
476.38	21.06
476.56	72.56
476.74	0.00
476.92	53.83
477.10	58.51
477.28	74.90
477.46	51.49
477.64	133.41
477.82	63.19
478.00	53.83
478.18	105.32
478.36	114.69
478.54	11.70
478.72	67.88
478.90	9.36
479.08	39.79
479.26	2.34
479.44	49.15
479.62	0.00
479.80	74.90
479.98	35.11
480.16	23.41
480.34	0.00
480.52	0.00
480.70	32.77
480.88	107.66
481.06	21.06
481.24	105.32
481.41	32.77
481.59	81.92
481.77	74.90
481.95	86.60
482.13	79.58
482.31	86.60
482.49	100.64
482.67	25.75
482.85	30.43
483.03	46.81
483.21	65.54
483.39	63.19
483.57	81.92
483.74	128.73
483.92	21.06
484.10	114.69
484.28	35.11
484.46	91.28
484.64	107.66
484.82	81.92
485.00	60.85
485.18	30.43
485.35	121.71
485.53	63.19
485.71	53.83
485.89	46.81
486.07	25.75
486.25	58.51
486.43	152.13
486.61	65.54
486.78	102.98
486.96	0.00
487.14	60.85
487.32	28.09
487.50	70.22
487.68	56.17
487.85	0.00
488.03	74.90
488.21	25.75
488.39	25.75
488.57	30.43
488.75	98.30
488.92	81.92
489.10	138.09
489.28	25.75
489.46	53.83
489.64	77.24
489.81	60.85
489.99	28.09
490.17	91.28
490.35	67.88
490.53	67.88
490.70	30.43
490.88	93.62
491.06	81.92
491.24	95.96
491.41	58.51
491.59	74.90
491.77	49.15
491.95	88.94
492.13	56.17
492.30	44.47
492.48	60.85
492.66	70.22
492.84	84.26
493.01	105.32
493.19	77.24
493.37	46.81
493.54	98.30
493.72	93.62
493.90	63.19
494.08	81.92
494.25	25.75
494.43	126.39
494.61	60.85
494.79	84.26
494.96	35.11
495.14	117.03
495.32	63.19
495.49	74.90
495.67	102.98
495.85	114.69
496.02	56.17
496.20	88.94
496.38	51.49
496.55	107.66
496.73	98.30
496.91	98.30
497.09	81.92
497.26	18.72
497.44	98.30
497.62	56.17
497.79	93.62
497.97	0.00
498.14	140.43
498.32	107.66
498.50	93.62
498.67	58.51
498.85	51.49
499.03	110.01
499.20	0.00
499.38	77.24
499.56	0.00
499.73	58.51
499.91	58.51
500.08	51.49
500.26	77.24
500.44	133.41
500.61	88.94
500.79	49.15
500.97	105.32
501.14	49.15
501.32	0.00
501.49	114.69
501.67	44.47
501.84	70.22
502.02	126.39
502.20	14.04
502.37	28.09
502.55	0.00
502.72	32.77
502.90	11.70
503.07	72.56
503.25	51.49
503.43	23.41
503.60	84.26
503.78	140.43
503.95	28.09
504.13	30.43
504.30	140.43
504.48	79.58
504.65	53.83
504.83	37.45
505.01	0.00
505.18	131.07
505.36	72.56
505.53	88.94
505.71	91.28
505.88	25.75
506.06	86.60
506.23	74.90
506.41	107.66
506.58	81.92
506.76	79.58
506.93	105.32
507.11	4.68
507.28	110.01
507.46	42.13
507.63	126.39
507.81	98.30
507.98	74.90
508.16	105.32
508.33	0.00
508.50	46.81
508.68	107.66
508.85	44.47
509.03	110.01
509.20	60.85
509.38	67.88
509.55	65.54
509.73	107.66
509.90	67.88
510.08	65.54
510.25	21.06
510.42	77.24
510.60	84.26
510.77	84.26
510.95	112.35
511.12	81.92
511.30	44.47
511.47	84.26
511.64	2.34
511.82	37.45
511.99	117.03
512.17	79.58
512.34	105.32
512.51	0.00
512.69	70.22
512.86	65.54
513.04	126.39
513.21	79.58
513.38	81.92
513.56	84.26
513.73	14.04
513.90	77.24
514.08	58.51
514.25	72.56
514.43	86.60
514.60	67.88
514.77	46.81
514.95	102.98
515.12	63.19
515.29	65.54
515.47	88.94
515.64	65.54
515.81	65.54
515.99	105.32
516.16	79.58
516.33	95.96
516.51	51.49
516.68	42.13
516.85	77.24
517.03	81.92
517.20	44.47
517.37	46.81
517.54	140.43
517.72	102.98
517.89	84.26
518.06	21.06
518.24	63.19
518.41	42.13
518.58	112.35
518.75	93.62
518.93	84.26
519.10	100.64
519.27	126.39
519.45	102.98
519.62	107.66
519.79	70.22
519.96	140.43
520.14	81.92
520.31	46.81
520.48	114.69
520.65	91.28
520.83	77.24
521.00	51.49
521.17	7.02
521.34	86.60
521.52	119.37
521.69	156.82
521.86	44.47
522.03	114.69
522.20	91.28
522.38	53.83
522.55	95.96
522.72	86.60
522.89	81.92
523.07	102.98
523.24	49.15
523.41	37.45
523.58	135.75
523.75	58.51
523.92	72.56
524.10	63.19
524.27	72.56
524.44	112.35
524.61	140.43
524.78	100.64
524.96	67.88
525.13	107.66
525.30	46.81
525.47	119.37
525.64	0.00
525.81	133.41
525.98	65.54
526.16	9.36
526.33	58.51
526.50	86.60
526.67	100.64
526.84	58.51
527.01	114.69
527.18	138.09
527.36	67.88
527.53	88.94
527.70	126.39
527.87	28.09
528.04	93.62
528.21	72.56
528.38	91.28
528.55	4.68
528.72	117.03
528.89	140.43
529.07	145.11
529.24	79.58
529.41	163.84
529.58	161.50
529.75	63.19
529.92	86.60
530.09	28.09
530.26	112.35
530.43	102.98
530.60	18.72
530.77	35.11
530.94	98.30
531.11	16.38
531.28	86.60
531.46	58.51
531.63	37.45
531.80	140.43
531.97	79.58
532.14	51.49
532.31	88.94
532.48	70.22
532.65	140.43
532.82	56.17
532.99	107.66
533.16	30.43
533.33	135.75
533.50	51.49
533.67	21.06
533.84	63.19
534.01	0.00
534.18	32.77
534.35	44.47
534.52	86.60
534.69	65.54
534.86	124.05
535.03	142.77
535.20	28.09
535.37	117.03
535.54	86.60
535.71	166.18
535.88	67.88
536.05	98.30
536.22	121.71
536.38	98.30
536.55	117.03
536.72	56.17
536.89	74.90
537.06	79.58
537.23	110.01
537.40	102.98
537.57	142.77
537.74	117.03
537.91	84.26
538.08	102.98
538.25	112.35
538.42	159.16
538.59	98.30
538.75	117.03
538.92	53.83
539.09	77.24
539.26	30.43
539.43	72.56
539.60	53.83
539.77	112.35
539.94	77.24
540.11	98.30
540.28	28.09
540.44	49.15
540.61	119.37
540.78	117.03
540.95	102.98
541.12	112.35
541.29	100.64
541.46	173.20
541.62	23.41
541.79	35.11
541.96	39.79
542.13	77.24
542.30	77.24
542.47	60.85
542.63	74.90
542.80	60.85
542.97	79.58
543.14	56.17
543.31	46.81
543.48	53.83
543.64	11.70
543.81	21.06
543.98	95.96
544.15	91.28
544.32	74.90
544.48	53.83
544.65	84.26
544.82	79.58
544.99	117.03
545.16	4.68
545.32	135.75
545.49	70.22
545.66	84.26
545.83	93.62
546.00	110.01
546.16	117.03
546.33	86.60
546.50	112.35
546.67	105.32
546.83	88.94
547.00	124.05
547.17	128.73
547.34	58.51
547.50	49.15
547.67	44.47
547.84	23.41
548.00	51.49
548.17	72.56
548.34	49.15
548.51	88.94
548.67	154.48
548.84	25.75
549.01	91.28
549.18	53.83
549.34	72.56
549.51	163.84
549.68	128.73
549.84	91.28
550.01	133.41
550.18	117.03
550.34	81.92
550.51	133.41
550.68	63.19
550.84	149.79
551.01	102.98
551.18	98.30
551.34	102.98
551.51	149.79
551.68	105.32
551.84	126.39
552.01	98.30
552.18	121.71
552.34	110.01
552.51	140.43
552.68	84.26
552.84	63.19
553.01	74.90
553.18	67.88
553.34	102.98
553.51	74.90
553.67	110.01
553.84	74.90
554.01	46.81
554.17	79.58
554.34	81.92
554.51	138.09
554.67	63.19
554.84	39.79
555.00	91.28
555.17	42.13
555.33	159.16
555.50	133.41
555.67	112.35
555.83	0.00
556.00	131.07
556.16	86.60
556.33	110.01
556.50	110.01
556.66	23.41
556.83	63.19
556.99	74.90
557.16	49.15
557.32	81.92
557.49	25.75
557.65	51.49
557.82	39.79
557.98	119.37
558.15	67.88
558.32	114.69
558.48	95.96
558.65	152.13
558.81	105.32
558.98	46.81
559.14	77.24
559.31	114.69
559.47	112.35
559.64	32.77
559.80	9.36
559.97	58.51
560.13	161.50
560.30	128.73
560.46	23.41
560.63	88.94
560.79	124.05
560.96	0.00
561.12	23.41
561.29	18.72
561.45	88.94
561.61	79.58
561.78	205.97
561.94	53.83
562.11	46.81
562.27	39.79
562.44	74.90
562.60	110.01
562.77	107.66
562.93	60.85
563.10	88.94
563.26	128.73
563.42	32.77
563.59	74.90
563.75	81.92
563.92	49.15
564.08	88.94
564.24	32.77
564.41	154.48
564.57	117.03
564.74	37.45
564.90	77.24
565.07	131.07
565.23	65.54
565.39	16.38
565.56	51.49
565.72	95.96
565.88	28.09
566.05	9.36
566.21	60.85
566.38	98.30
566.54	42.13
566.70	124.05
566.87	145.11
567.03	72.56
567.19	81.92
567.36	128.73
567.52	91.28
567.68	105.32
567.85	86.60
568.01	86.60
568.17	58.51
568.34	100.64
568.50	72.56
568.66	23.41
568.83	98.30
568.99	112.35
569.15	4.68
569.32	107.66
569.48	117.03
569.64	168.52
569.81	58.51
569.97	117.03
570.13	107.66
570.30	81.92
570.46	46.81
570.62	84.26
570.78	110.01
570.95	60.85
571.11	39.79
571.27	91.28
571.43	72.56
571.60	74.90
571.76	0.00
571.92	39.79
572.09	117.03
572.25	37.45
572.41	159.16
572.57	56.17
572.74	84.26
572.90	35.11
573.06	77.24
573.22	105.32
573.38	35.11
573.55	60.85
573.71	91.28
573.87	0.00
574.03	65.54
574.20	23.41
574.36	32.77
574.52	46.81
574.68	14.04
574.84	126.39
575.01	60.85
575.17	107.66
575.33	2.34
575.49	58.51
575.65	79.58
575.82	84.26
575.98	117.03
576.14	51.49
576.30	35.11
576.46	84.26
576.62	35.11
576.79	81.92
576.95	166.18
577.11	91.28
577.27	56.17
577.43	60.85
577.59	149.79
577.75	88.94
577.92	9.36
578.08	0.00
578.24	79.58
578.40	112.35
578.56	133.41
578.72	23.41
578.88	18.72
579.04	79.58
579.21	25.75
579.37	105.32
579.53	72.56
579.69	39.79
579.85	30.43
580.01	154.48
580.17	77.24
580.33	67.88
580.49	42.13
580.65	21.06
580.82	91.28
580.98	107.66
581.14	145.11
581.30	72.56
581.46	95.96
581.62	142.77
581.78	79.58
581.94	105.32
582.10	93.62
582.26	58.51
582.42	100.64
582.58	100.64
582.74	63.19
582.90	88.94
583.06	25.75
583.22	163.84
583.38	4.68
583.54	58.51
583.70	51.49
583.86	126.39
584.02	72.56
584.18	65.54
584.34	35.11
584.50	18.72
584.66	56.17
584.82	53.83
584.98	7.02
585.14	175.54
585.30	91.28
585.46	124.05
585.62	18.72
585.78	84.26
585.94	138.09
586.10	30.43
586.26	81.92
586.42	67.88
586.58	110.01
586.74	56.17
586.90	86.60
587.06	110.01
587.22	154.48
587.38	30.43
587.54	32.77
587.70	60.85
587.86	117.03
588.02	77.24
588.18	60.85
588.34	21.06
588.49	86.60
588.65	74.90
588.81	0.00
588.97	88.94
589.13	35.11
589.29	37.45
589.45	88.94
589.61	102.98
589.77	124.05
589.93	105.32
590.08	28.09
590.24	114.69
590.40	119.37
590.56	93.62
590.72	79.58
590.88	100.64
591.04	95.96
591.20	11.70
591.35	60.85
591.51	145.11
591.67	77.24
591.83	30.43
591.99	4.68
592.15	72.56
592.31	110.01
592.46	100.64
592.62	145.11
592.78	74.90
592.94	72.56
593.10	79.58
593.26	35.11
593.41	42.13
593.57	135.75
593.73	154.48
593.89	70.22
594.05	42.13
594.20	42.13
594.36	88.94
594.52	74.90
594.68	70.22
594.84	63.19
594.99	65.54
595.15	81.92
595.31	91.28
595.47	46.81
595.62	107.66
595.78	98.30
595.94	44.47
596.10	81.92
596.25	0.00
596.41	124.05
596.57	58.51
596.73	18.72
596.88	95.96
597.04	110.01
597.20	98.30
597.36	72.56
597.51	58.51
597.67	72.56
597.83	142.77
597.99	79.58
598.14	67.88
598.30	56.17
598.46	74.90
598.61	77.24
598.77	70.22
598.93	159.16
599.09	79.58
599.24	53.83
599.40	23.41
599.56	98.30
599.71	63.19
599.87	67.88
600.03	39.79
600.18	0.00
600.34	70.22
600.50	60.85
600.65	74.90
600.81	91.28
600.97	18.72
601.12	0.00
601.28	119.37
601.44	100.64
601.59	147.45
601.75	65.54
601.91	65.54
602.06	30.43
602.22	0.00
602.37	46.81
602.53	105.32
602.69	37.45
602.84	65.54
603.00	102.98
603.16	65.54
603.31	138.09
603.47	145.11
603.62	58.51
603.78	128.73
603.94	42.13
604.09	70.22
604.25	79.58
604.40	81.92
604.56	70.22
604.71	53.83
604.87	42.13
605.03	124.05
605.18	79.58
605.34	35.11
605.49	18.72
605.65	95.96
605.80	60.85
605.96	4.68
606.12	49.15
606.27	51.49
606.43	65.54
606.58	0.00
606.74	65.54
606.89	30.43
607.05	2.34
607.20	102.98
607.36	70.22
607.51	56.17
607.67	35.11
607.82	44.47
607.98	77.24
608.13	124.05
608.29	49.15
608.44	81.92
608.60	49.15
608.75	51.49
608.91	65.54
609.06	72.56
609.22	126.39
609.37	39.79
609.53	72.56
609.68	0.00
609.84	51.49
609.99	105.32
610.15	32.77
610.30	124.05
610.46	28.09
610.61	84.26
610.76	46.81
610.92	42.13
611.07	60.85
611.23	133.41
611.38	74.90
611.54	49.15
611.69	70.22
611.84	63.19
612.00	37.45
612.15	84.26
612.31	98.30
612.46	72.56
612.62	98.30
612.77	11.70
612.92	86.60
613.08	77.24
613.23	128.73
613.39	142.77
613.54	30.43
613.69	67.88
613.85	32.77
614.00	46.81
614.15	51.49
614.31	30.43
614.46	18.72
614.62	65.54
614.77	67.88
614.92	117.03
615.08	14.04
615.23	39.79
615.38	0.00
615.54	9.36
615.69	91.28
615.84	102.98
616.00	126.39
616.15	142.77
616.30	142.77
616.46	32.77
616.61	128.73
616.76	42.13
616.92	49.15
617.07	60.85
617.22	142.77
617.37	0.00
617.53	46.81
617.68	2.34
617.83	112.35
617.99	100.64
618.14	63.19
618.29	126.39
618.45	51.49
618.60	28.09
618.75	35.11
618.90	30.43
619.06	63.19
619.21	44.47
619.36	114.69
619.51	35.11
619.67	0.00
619.82	51.49
619.97	53.83
620.12	11.70
620.28	135.75
620.43	91.28
620.58	0.00
620.73	102.98
620.89	149.79
621.04	81.92
621.19	140.43
621.34	86.60
621.49	42.13
621.65	81.92
621.80	60.85
621.95	102.98
622.10	37.45
622.25	93.62
622.41	110.01
622.56	32.77
622.71	42.13
622.86	70.22
623.01	156.82
623.16	46.81
623.32	91.28
623.47	88.94
623.62	18.72
623.77	56.17
623.92	18.72
624.07	23.41
624.23	93.62
624.38	49.15
624.53	100.64
624.68	114.69
624.83	98.30
624.98	84.26
625.13	70.22
625.29	32.77
625.44	35.11
625.59	35.11
625.74	105.32
625.89	46.81
626.04	88.94
626.19	79.58
626.34	23.41
626.49	42.13
626.65	79.58
626.80	46.81
626.95	74.90
627.10	72.56
627.25	0.00
627.40	60.85
627.55	140.43
627.70	23.41
627.85	32.77
628.00	16.38
628.15	81.92
628.30	91.28
628.45	44.47
628.60	126.39
628.76	30.43
628.91	149.79
629.06	119.37
629.21	117.03
629.36	11.70
629.51	60.85
629.66	63.19
629.81	81.92
629.96	35.11
630.11	93.62
630.26	42.13
630.41	100.64
630.56	100.64
630.71	77.24
630.86	77.24
631.01	56.17
631.16	65.54
631.31	53.83
631.46	98.30
631.61	18.72
631.76	100.64
631.91	28.09
632.06	23.41
632.21	102.98
632.36	74.90
632.51	49.15
632.66	39.79
632.81	56.17
632.96	46.81
633.10	126.39
633.25	23.41
633.40	58.51
633.55	53.83
633.70	86.60
633.85	21.06
634.00	39.79
634.15	86.60
634.30	0.00
634.45	58.51
634.60	39.79
634.75	65.54
634.90	49.15
635.05	81.92
635.19	0.00
635.34	56.17
635.49	65.54
635.64	121.71
635.79	138.09
635.94	102.98
636.09	114.69
636.24	39.79
636.39	156.82
636.53	49.15
636.68	9.36
636.83	21.06
636.98	39.79
637.13	70.22
637.28	107.66
637.43	93.62
637.57	46.81
637.72	14.04
637.87	84.26
638.02	56.17
638.17	100.64
638.32	100.64
638.46	91.28
638.61	53.83
638.76	95.96
638.91	91.28
639.06	86.60
639.20	0.00
639.35	74.90
639.50	77.24
639.65	105.32
639.80	16.38
639.94	42.13
640.09	105.32
640.24	93.62
640.39	65.54
640.54	74.90
640.68	95.96
640.83	79.58
640.98	70.22
641.13	49.15
641.27	93.62
641.42	35.11
641.57	35.11
641.72	65.54
641.86	98.30
642.01	84.26
642.16	56.17
642.31	25.75
642.45	42.13
642.60	93.62
642.75	77.24
642.90	65.54
643.04	42.13
643.19	30.43
643.34	23.41
643.48	72.56
643.63	11.70
643.78	121.71
643.93	32.77
644.07	74.90
644.22	124.05
644.37	63.19
644.51	7.02
644.66	81.92
644.81	46.81
644.95	74.90
645.10	93.62
645.25	28.09
645.39	63.19
645.54	37.45
645.69	28.09
645.83	72.56
645.98	35.11
646.13	0.00
646.27	67.88
646.42	0.00
646.57	56.17
646.71	86.60
646.86	67.88
647.00	79.58
647.15	39.79
647.30	51.49
647.44	107.66
647.59	0.00
647.74	32.77
647.88	72.56
648.03	53.83
648.17	0.00
648.32	60.85
648.47	63.19
648.61	46.81
648.76	63.19
648.90	105.32
649.05	88.94
649.20	91.28
649.34	28.09
649.49	4.68
649.63	117.03
649.78	56.17
649.92	72.56
650.07	44.47
650.21	39.79
650.36	65.54
650.51	42.13
650.65	110.01
650.80	58.51
650.94	21.06
651.09	63.19
651.23	9.36
651.38	112.35
651.52	58.51
651.67	67.88
651.81	112.35
651.96	53.83
652.10	25.75
652.25	23.41
652.39	23.41
652.54	98.30
652.68	0.00
652.83	42.13
652.97	21.06
653.12	88.94
653.26	32.77
653.41	0.00
653.55	53.83
653.70	81.92
653.84	74.90
653.99	100.64
654.13	42.13
654.27	32.77
654.42	44.47
654.56	42.13
654.71	84.26
654.85	0.00
655.00	105.32
655.14	107.66
655.29	32.77
655.43	79.58
655.57	56.17
655.72	138.09
655.86	77.24
656.01	18.72
656.15	32.77
656.30	23.41
656.44	23.41
656.58	9.36
656.73	0.00
656.87	140.43
657.01	58.51
657.16	112.35
657.30	63.19
657.45	63.19
657.59	49.15
657.73	21.06
657.88	23.41
658.02	49.15
658.16	30.43
658.31	65.54
658.45	53.83
658.60	70.22
658.74	65.54
658.88	67.88
659.03	79.58
659.17	60.85
659.31	44.47
659.46	53.83
659.60	28.09
659.74	91.28
659.89	49.15
660.03	42.13
660.17	86.60
660.32	67.88
660.46	119.37
660.60	35.11
660.74	32.77
660.89	7.02
661.03	114.69
661.17	46.81
661.32	42.13
661.46	0.00
661.60	46.81
661.74	74.90
661.89	42.13
662.03	72.56
662.17	25.75
662.31	60.85
662.46	72.56
662.60	18.72
662.74	51.49
662.88	60.85
663.03	42.13
663.17	14.04
663.31	63.19
663.45	7.02
663.60	91.28
663.74	74.90
663.88	46.81
664.02	100.64
664.17	98.30
664.31	51.49
664.45	58.51
664.59	23.41
664.73	18.72
664.88	65.54
665.02	32.77
665.16	98.30
665.30	49.15
665.44	44.47
665.59	53.83
665.73	65.54
665.87	0.00
666.01	21.06
666.15	72.56
666.29	72.56
666.44	42.13
666.58	88.94
666.72	14.04
666.86	11.70
667.00	74.90
667.14	14.04
667.28	102.98
667.43	53.83
667.57	25.75
667.71	0.00
667.85	58.51
667.99	49.15
668.13	86.60
668.27	63.19
668.41	0.00
668.56	23.41
668.70	2.34
668.84	77.24
668.98	65.54
669.12	84.26
669.26	95.96
669.40	23.41
669.54	67.88
669.68	0.00
669.82	79.58
669.96	37.45
670.10	23.41
670.25	14.04
670.39	74.90
670.53	77.24
670.67	30.43
670.81	72.56
670.95	74.90
671.09	110.01
671.23	84.26
671.37	67.88
671.51	28.09
671.65	93.62
671.79	58.51
671.93	32.77
672.07	53.83
672.21	93.62
672.35	112.35
672.49	51.49
672.63	81.92
672.77	0.00
672.91	0.00
673.05	128.73
673.19	51.49
673.33	56.17
673.47	81.92
673.61	46.81
673.75	107.66
673.89	0.00
674.03	67.88
674.17	100.64
674.31	37.45
674.45	53.83
674.59	53.83
674.73	44.47
674.87	65.54
675.01	74.90
675.15	0.00
675.29	56.17
675.43	30.43
675.56	0.00
675.70	16.38
675.84	53.83
675.98	0.00
676.12	14.04
676.26	23.41
676.40	0.00
676.54	72.56
676.68	28.09
676.82	23.41
676.96	37.45
677.10	0.00
677.23	72.56
677.37	70.22
677.51	100.64
677.65	110.01
677.79	28.09
677.93	18.72
678.07	0.00
678.21	58.51
678.34	0.00
678.48	7.02
678.62	51.49
678.76	14.04
678.90	88.94
679.04	0.00
679.18	0.00
679.31	77.24
679.45	42.13
679.59	67.88
679.73	65.54
679.87	0.00
680.00	0.00
680.14	0.00
680.28	86.60
680.42	67.88
680.56	2.34
680.70	60.85
680.83	145.11
680.97	81.92
681.11	0.00
681.25	23.41
681.39	93.62
681.52	23.41
681.66	102.98
681.80	51.49
681.94	91.28
682.07	23.41
682.21	25.75
682.35	60.85
682.49	11.70
682.62	44.47
682.76	56.17
682.90	58.51
683.04	0.00
683.17	107.66
683.31	7.02
683.45	91.28
683.59	102.98
683.72	4.68
683.86	88.94
684.00	91.28
684.13	32.77
684.27	0.00
684.41	46.81
684.55	37.45
684.68	0.00
684.82	65.54
684.96	11.70
685.09	42.13
685.23	14.04
685.37	0.00
685.50	4.68
685.64	14.04
685.78	32.77
685.91	63.19
686.05	0.00
686.19	58.51
686.32	42.13
686.46	21.06
686.60	77.24
686.73	32.77
686.87	81.92
687.01	51.49
687.14	0.00
687.28	28.09
687.42	88.94
687.55	21.06
687.69	35.11
687.82	100.64
687.96	32.77
688.10	25.75
688.23	58.51
688.37	56.17
688.50	56.17
688.64	74.90
688.78	44.47
688.91	44.47
689.05	84.26
689.18	44.47
689.32	14.04
689.46	60.85
689.59	67.88
689.73	95.96
689.86	81.92
690.00	81.92
690.13	86.60
690.27	37.45
690.41	42.13
690.54	16.38
690.68	2.34
690.81	30.43
690.95	0.00
691.08	23.41
691.22	39.79
691.35	21.06
691.49	44.47
691.62	0.00
691.76	0.00
691.89	0.00
692.03	0.00
692.16	42.13
692.30	18.72
692.43	79.58
692.57	46.81
692.70	0.00
692.84	18.72
692.97	56.17
693.11	0.00
693.24	56.17
693.38	0.00
693.51	37.45
693.65	56.17
693.78	0.00
693.92	28.09
694.05	0.00
694.19	16.38
694.32	4.68
694.45	2.34
694.59	25.75
694.72	25.75
694.86	88.94
694.99	95.96
695.13	0.00
695.26	0.00
695.39	42.13
695.53	65.54
695.66	119.37
695.80	0.00
695.93	39.79
696.07	0.00
696.20	70.22
696.33	0.00
696.47	4.68
696.60	2.34
696.73	0.00
696.87	0.00
697.00	46.81
697.14	79.58
697.27	0.00
697.40	25.75
697.54	49.15
697.67	18.72
697.80	28.09
697.94	107.66
698.07	0.00
698.21	0.00
698.34	70.22
698.47	77.24
698.61	72.56
698.74	93.62
698.87	0.00
699.01	112.35
699.14	63.19
699.27	56.17
699.40	16.38
699.54	0.00
699.67	86.60
699.80	42.13
699.94	163.84
700.07	79.58
700.20	44.47
700.34	39.79
700.47	46.81
700.60	35.11
700.73	98.30
700.87	21.06
701.00	95.96
701.13	74.90
701.26	63.19
701.40	0.00
701.53	81.92
701.66	117.03
701.79	74.90
701.93	53.83
702.06	23.41
702.19	77.24
702.32	9.36
702.46	30.43
702.59	51.49
702.72	46.81
702.85	14.04
702.99	2.34
703.12	56.17
703.25	37.45
703.38	81.92
703.51	70.22
703.65	2.34
703.78	4.68
703.91	81.92
704.04	35.11
704.17	37.45
704.31	98.30
704.44	98.30
704.57	67.88
704.70	42.13
704.83	65.54
704.96	25.75
705.10	0.00
705.23	11.70
>>>>>End Processed Spectral Data<<<<<
