SpectraSuite Data File
++++++++++++++++++++++++++++++++++++
Date: Fri Oct 04 12:13:36 GMT-05:00 2013
User: price-jones
Dark Spectrum Present: No
Reference Spectrum Present: No
Number of Sampled Component Spectra: 1
Spectrometers: USB2+H05261
Integration Time (usec): 10000 (USB2+H05261)
Spectra Averaged: 1 (USB2+H05261)
Boxcar Smoothing: 0 (USB2+H05261)
Correct for Electrical Dark: No (USB2+H05261)
Strobe/Lamp Enabled: No (USB2+H05261)
Correct for Detector Non-linearity: No (USB2+H05261)
Correct for Stray Light: No (USB2+H05261)
Number of Pixels in Processed Spectrum: 2048
>>>>>Begin Processed Spectral Data<<<<<
365.73	72.56
365.92	72.56
366.12	72.56
366.32	0.00
366.52	0.00
366.72	0.00
366.91	0.00
367.11	0.00
367.31	0.00
367.51	0.00
367.70	0.00
367.90	0.00
368.10	0.00
368.30	0.00
368.49	0.00
368.69	0.00
368.89	0.00
369.09	0.00
369.28	0.00
369.48	0.00
369.68	0.00
369.87	0.00
370.07	0.00
370.27	0.00
370.47	0.00
370.66	0.00
370.86	0.00
371.06	0.00
371.25	0.00
371.45	0.00
371.65	0.00
371.84	0.00
372.04	14.04
372.24	0.00
372.44	0.00
372.63	32.77
372.83	0.00
373.03	0.00
373.22	0.00
373.42	18.72
373.62	58.51
373.81	46.81
374.01	35.11
374.21	70.22
374.40	0.00
374.60	0.00
374.79	60.85
374.99	0.00
375.19	58.51
375.38	28.09
375.58	14.04
375.78	91.28
375.97	0.00
376.17	84.26
376.37	46.81
376.56	23.41
376.76	16.38
376.95	4.68
377.15	30.43
377.35	18.72
377.54	14.04
377.74	0.00
377.93	0.00
378.13	18.72
378.33	51.49
378.52	7.02
378.72	16.38
378.91	23.41
379.11	67.88
379.31	77.24
379.50	0.00
379.70	0.00
379.89	2.34
380.09	0.00
380.28	30.43
380.48	42.13
380.68	0.00
380.87	77.24
381.07	0.00
381.26	51.49
381.46	4.68
381.65	0.00
381.85	30.43
382.04	0.00
382.24	0.00
382.43	91.28
382.63	0.00
382.83	37.45
383.02	25.75
383.22	0.00
383.41	28.09
383.61	60.85
383.80	56.17
384.00	30.43
384.19	16.38
384.39	4.68
384.58	0.00
384.78	0.00
384.97	0.00
385.17	35.11
385.36	93.62
385.56	18.72
385.75	0.00
385.95	44.47
386.14	9.36
386.34	25.75
386.53	14.04
386.72	0.00
386.92	14.04
387.11	70.22
387.31	0.00
387.50	49.15
387.70	56.17
387.89	32.77
388.09	25.75
388.28	67.88
388.48	30.43
388.67	65.54
388.86	35.11
389.06	44.47
389.25	16.38
389.45	46.81
389.64	7.02
389.84	0.00
390.03	72.56
390.22	58.51
390.42	70.22
390.61	42.13
390.81	0.00
391.00	0.00
391.19	37.45
391.39	25.75
391.58	0.00
391.78	37.45
391.97	72.56
392.16	63.19
392.36	9.36
392.55	51.49
392.75	18.72
392.94	81.92
393.13	0.00
393.33	0.00
393.52	18.72
393.71	44.47
393.91	0.00
394.10	0.00
394.29	0.00
394.49	32.77
394.68	93.62
394.88	46.81
395.07	51.49
395.26	53.83
395.46	0.00
395.65	0.00
395.84	72.56
396.04	67.88
396.23	37.45
396.42	0.00
396.62	14.04
396.81	39.79
397.00	11.70
397.19	23.41
397.39	88.94
397.58	107.66
397.77	79.58
397.97	28.09
398.16	16.38
398.35	0.00
398.55	58.51
398.74	51.49
398.93	23.41
399.12	86.60
399.32	39.79
399.51	84.26
399.70	60.85
399.90	30.43
400.09	51.49
400.28	60.85
400.47	0.00
400.67	0.00
400.86	0.00
401.05	2.34
401.24	42.13
401.44	60.85
401.63	21.06
401.82	14.04
402.01	0.00
402.21	51.49
402.40	32.77
402.59	0.00
402.78	30.43
402.97	0.00
403.17	42.13
403.36	0.00
403.55	30.43
403.74	7.02
403.93	0.00
404.13	84.26
404.32	53.83
404.51	18.72
404.70	65.54
404.89	46.81
405.09	79.58
405.28	39.79
405.47	42.13
405.66	93.62
405.85	0.00
406.05	65.54
406.24	0.00
406.43	0.00
406.62	4.68
406.81	7.02
407.00	44.47
407.20	0.00
407.39	0.00
407.58	23.41
407.77	35.11
407.96	21.06
408.15	60.85
408.34	16.38
408.54	0.00
408.73	149.79
408.92	112.35
409.11	79.58
409.30	39.79
409.49	60.85
409.68	60.85
409.87	23.41
410.07	9.36
410.26	58.51
410.45	37.45
410.64	44.47
410.83	86.60
411.02	0.00
411.21	0.00
411.40	0.00
411.59	77.24
411.78	42.13
411.98	0.00
412.17	63.19
412.36	56.17
412.55	16.38
412.74	18.72
412.93	46.81
413.12	0.00
413.31	14.04
413.50	18.72
413.69	56.17
413.88	51.49
414.07	131.07
414.26	0.00
414.45	0.00
414.64	16.38
414.83	53.83
415.02	0.00
415.22	46.81
415.41	30.43
415.60	23.41
415.79	67.88
415.98	18.72
416.17	53.83
416.36	0.00
416.55	0.00
416.74	0.00
416.93	9.36
417.12	11.70
417.31	25.75
417.50	0.00
417.69	51.49
417.88	72.56
418.07	77.24
418.26	14.04
418.45	28.09
418.64	128.73
418.83	0.00
419.02	72.56
419.21	63.19
419.39	23.41
419.58	88.94
419.77	4.68
419.96	58.51
420.15	18.72
420.34	0.00
420.53	0.00
420.72	46.81
420.91	7.02
421.10	124.05
421.29	32.77
421.48	21.06
421.67	42.13
421.86	0.00
422.05	18.72
422.24	95.96
422.43	49.15
422.61	21.06
422.80	21.06
422.99	0.00
423.18	30.43
423.37	98.30
423.56	74.90
423.75	86.60
423.94	25.75
424.13	60.85
424.32	21.06
424.50	70.22
424.69	37.45
424.88	7.02
425.07	30.43
425.26	110.01
425.45	93.62
425.64	28.09
425.83	11.70
426.01	56.17
426.20	21.06
426.39	28.09
426.58	0.00
426.77	88.94
426.96	9.36
427.15	0.00
427.33	77.24
427.52	51.49
427.71	42.13
427.90	63.19
428.09	0.00
428.28	56.17
428.46	28.09
428.65	60.85
428.84	86.60
429.03	0.00
429.22	77.24
429.40	88.94
429.59	0.00
429.78	0.00
429.97	11.70
430.16	86.60
430.34	28.09
430.53	42.13
430.72	56.17
430.91	4.68
431.10	102.98
431.28	0.00
431.47	88.94
431.66	4.68
431.85	56.17
432.03	67.88
432.22	63.19
432.41	35.11
432.60	0.00
432.79	39.79
432.97	14.04
433.16	46.81
433.35	42.13
433.54	53.83
433.72	25.75
433.91	11.70
434.10	4.68
434.28	72.56
434.47	11.70
434.66	102.98
434.85	42.13
435.03	35.11
435.22	67.88
435.41	107.66
435.59	58.51
435.78	16.38
435.97	51.49
436.16	25.75
436.34	67.88
436.53	95.96
436.72	65.54
436.90	35.11
437.09	25.75
437.28	63.19
437.46	74.90
437.65	9.36
437.84	37.45
438.02	51.49
438.21	65.54
438.40	0.00
438.58	72.56
438.77	46.81
438.96	21.06
439.14	4.68
439.33	16.38
439.52	39.79
439.70	0.00
439.89	9.36
440.08	65.54
440.26	0.00
440.45	98.30
440.63	37.45
440.82	2.34
441.01	0.00
441.19	2.34
441.38	2.34
441.57	14.04
441.75	18.72
441.94	11.70
442.12	70.22
442.31	46.81
442.50	88.94
442.68	105.32
442.87	49.15
443.05	0.00
443.24	67.88
443.43	102.98
443.61	25.75
443.80	79.58
443.98	0.00
444.17	46.81
444.35	72.56
444.54	35.11
444.73	46.81
444.91	98.30
445.10	44.47
445.28	0.00
445.47	121.71
445.65	42.13
445.84	0.00
446.02	81.92
446.21	0.00
446.39	7.02
446.58	86.60
446.77	35.11
446.95	74.90
447.14	51.49
447.32	14.04
447.51	65.54
447.69	65.54
447.88	79.58
448.06	28.09
448.25	70.22
448.43	51.49
448.62	67.88
448.80	72.56
448.99	14.04
449.17	16.38
449.36	0.00
449.54	60.85
449.73	35.11
449.91	42.13
450.10	25.75
450.28	60.85
450.46	32.77
450.65	42.13
450.83	0.00
451.02	79.58
451.20	105.32
451.39	63.19
451.57	14.04
451.76	18.72
451.94	35.11
452.13	88.94
452.31	0.00
452.49	58.51
452.68	91.28
452.86	91.28
453.05	81.92
453.23	140.43
453.42	81.92
453.60	46.81
453.78	0.00
453.97	70.22
454.15	9.36
454.34	42.13
454.52	39.79
454.70	37.45
454.89	32.77
455.07	7.02
455.26	35.11
455.44	51.49
455.62	28.09
455.81	67.88
455.99	56.17
456.17	63.19
456.36	21.06
456.54	0.00
456.73	0.00
456.91	21.06
457.09	32.77
457.28	51.49
457.46	102.98
457.64	63.19
457.83	30.43
458.01	0.00
458.19	0.00
458.38	0.00
458.56	9.36
458.74	72.56
458.93	84.26
459.11	0.00
459.29	79.58
459.48	60.85
459.66	0.00
459.84	35.11
460.03	93.62
460.21	51.49
460.39	58.51
460.57	25.75
460.76	124.05
460.94	88.94
461.12	84.26
461.31	0.00
461.49	81.92
461.67	95.96
461.85	58.51
462.04	65.54
462.22	81.92
462.40	63.19
462.59	30.43
462.77	70.22
462.95	46.81
463.13	25.75
463.32	28.09
463.50	81.92
463.68	0.00
463.86	25.75
464.05	117.03
464.23	16.38
464.41	56.17
464.59	112.35
464.78	79.58
464.96	30.43
465.14	0.00
465.32	21.06
465.50	42.13
465.69	79.58
465.87	105.32
466.05	56.17
466.23	84.26
466.41	37.45
466.60	42.13
466.78	51.49
466.96	60.85
467.14	100.64
467.32	51.49
467.51	42.13
467.69	42.13
467.87	23.41
468.05	30.43
468.23	74.90
468.41	2.34
468.60	46.81
468.78	53.83
468.96	72.56
469.14	86.60
469.32	84.26
469.50	60.85
469.69	35.11
469.87	51.49
470.05	77.24
470.23	35.11
470.41	65.54
470.59	30.43
470.77	44.47
470.95	4.68
471.14	67.88
471.32	25.75
471.50	93.62
471.68	58.51
471.86	35.11
472.04	44.47
472.22	51.49
472.40	51.49
472.58	42.13
472.77	28.09
472.95	23.41
473.13	79.58
473.31	72.56
473.49	46.81
473.67	37.45
473.85	70.22
474.03	4.68
474.21	0.00
474.39	56.17
474.57	98.30
474.75	35.11
474.93	88.94
475.12	23.41
475.30	79.58
475.48	81.92
475.66	49.15
475.84	74.90
476.02	39.79
476.20	35.11
476.38	88.94
476.56	58.51
476.74	56.17
476.92	14.04
477.10	16.38
477.28	51.49
477.46	51.49
477.64	74.90
477.82	16.38
478.00	35.11
478.18	81.92
478.36	65.54
478.54	46.81
478.72	42.13
478.90	46.81
479.08	53.83
479.26	86.60
479.44	84.26
479.62	79.58
479.80	0.00
479.98	0.00
480.16	63.19
480.34	37.45
480.52	110.01
480.70	46.81
480.88	121.71
481.06	9.36
481.24	102.98
481.41	53.83
481.59	88.94
481.77	88.94
481.95	30.43
482.13	88.94
482.31	114.69
482.49	25.75
482.67	117.03
482.85	102.98
483.03	30.43
483.21	72.56
483.39	124.05
483.57	72.56
483.74	79.58
483.92	117.03
484.10	74.90
484.28	112.35
484.46	58.51
484.64	56.17
484.82	0.00
485.00	46.81
485.18	100.64
485.35	39.79
485.53	7.02
485.71	4.68
485.89	93.62
486.07	21.06
486.25	74.90
486.43	51.49
486.61	42.13
486.78	128.73
486.96	0.00
487.14	49.15
487.32	9.36
487.50	112.35
487.68	42.13
487.85	105.32
488.03	126.39
488.21	133.41
488.39	140.43
488.57	21.06
488.75	28.09
488.92	117.03
489.10	67.88
489.28	21.06
489.46	56.17
489.64	0.00
489.81	35.11
489.99	74.90
490.17	107.66
490.35	102.98
490.53	58.51
490.70	0.00
490.88	100.64
491.06	25.75
491.24	23.41
491.41	93.62
491.59	86.60
491.77	77.24
491.95	46.81
492.13	72.56
492.30	84.26
492.48	56.17
492.66	110.01
492.84	25.75
493.01	63.19
493.19	124.05
493.37	95.96
493.54	21.06
493.72	74.90
493.90	72.56
494.08	51.49
494.25	72.56
494.43	70.22
494.61	65.54
494.79	86.60
494.96	51.49
495.14	110.01
495.32	98.30
495.49	74.90
495.67	63.19
495.85	23.41
496.02	56.17
496.20	152.13
496.38	121.71
496.55	84.26
496.73	84.26
496.91	39.79
497.09	42.13
497.26	46.81
497.44	79.58
497.62	79.58
497.79	53.83
497.97	63.19
498.14	46.81
498.32	84.26
498.50	25.75
498.67	4.68
498.85	77.24
499.03	32.77
499.20	110.01
499.38	91.28
499.56	84.26
499.73	110.01
499.91	100.64
500.08	102.98
500.26	105.32
500.44	70.22
500.61	105.32
500.79	11.70
500.97	53.83
501.14	128.73
501.32	51.49
501.49	98.30
501.67	74.90
501.84	0.00
502.02	79.58
502.20	79.58
502.37	4.68
502.55	95.96
502.72	74.90
502.90	39.79
503.07	67.88
503.25	81.92
503.43	74.90
503.60	100.64
503.78	91.28
503.95	112.35
504.13	37.45
504.30	86.60
504.48	86.60
504.65	23.41
504.83	72.56
505.01	131.07
505.18	72.56
505.36	58.51
505.53	86.60
505.71	56.17
505.88	74.90
506.06	35.11
506.23	35.11
506.41	79.58
506.58	100.64
506.76	21.06
506.93	0.00
507.11	84.26
507.28	9.36
507.46	147.45
507.63	149.79
507.81	88.94
507.98	86.60
508.16	51.49
508.33	79.58
508.50	60.85
508.68	42.13
508.85	72.56
509.03	53.83
509.20	42.13
509.38	86.60
509.55	138.09
509.73	53.83
509.90	98.30
510.08	119.37
510.25	93.62
510.42	58.51
510.60	30.43
510.77	184.90
510.95	72.56
511.12	79.58
511.30	119.37
511.47	128.73
511.64	131.07
511.82	98.30
511.99	42.13
512.17	77.24
512.34	65.54
512.51	84.26
512.69	102.98
512.86	28.09
513.04	21.06
513.21	65.54
513.38	81.92
513.56	95.96
513.73	37.45
513.90	39.79
514.08	100.64
514.25	121.71
514.43	30.43
514.60	102.98
514.77	145.11
514.95	74.90
515.12	95.96
515.29	72.56
515.47	112.35
515.64	126.39
515.81	88.94
515.99	42.13
516.16	0.00
516.33	4.68
516.51	93.62
516.68	53.83
516.85	51.49
517.03	107.66
517.20	65.54
517.37	63.19
517.54	86.60
517.72	93.62
517.89	0.00
518.06	107.66
518.24	117.03
518.41	126.39
518.58	126.39
518.75	84.26
518.93	67.88
519.10	91.28
519.27	65.54
519.45	91.28
519.62	32.77
519.79	74.90
519.96	63.19
520.14	58.51
520.31	98.30
520.48	91.28
520.65	88.94
520.83	112.35
521.00	194.26
521.17	131.07
521.34	149.79
521.52	112.35
521.69	110.01
521.86	142.77
522.03	32.77
522.20	39.79
522.38	65.54
522.55	105.32
522.72	128.73
522.89	56.17
523.07	49.15
523.24	117.03
523.41	79.58
523.58	126.39
523.75	110.01
523.92	56.17
524.10	110.01
524.27	67.88
524.44	91.28
524.61	100.64
524.78	51.49
524.96	63.19
525.13	77.24
525.30	58.51
525.47	98.30
525.64	138.09
525.81	149.79
525.98	67.88
526.16	56.17
526.33	51.49
526.50	60.85
526.67	140.43
526.84	149.79
527.01	42.13
527.18	121.71
527.36	42.13
527.53	46.81
527.70	91.28
527.87	91.28
528.04	102.98
528.21	11.70
528.38	58.51
528.55	67.88
528.72	114.69
528.89	23.41
529.07	100.64
529.24	63.19
529.41	70.22
529.58	81.92
529.75	32.77
529.92	86.60
530.09	11.70
530.26	35.11
530.43	11.70
530.60	67.88
530.77	86.60
530.94	131.07
531.11	37.45
531.28	98.30
531.46	128.73
531.63	114.69
531.80	147.45
531.97	117.03
532.14	126.39
532.31	79.58
532.48	65.54
532.65	0.00
532.82	135.75
532.99	98.30
533.16	46.81
533.33	100.64
533.50	95.96
533.67	49.15
533.84	56.17
534.01	95.96
534.18	58.51
534.35	105.32
534.52	117.03
534.69	60.85
534.86	72.56
535.03	77.24
535.20	117.03
535.37	56.17
535.54	70.22
535.71	35.11
535.88	95.96
536.05	25.75
536.22	98.30
536.38	93.62
536.55	23.41
536.72	74.90
536.89	58.51
537.06	128.73
537.23	51.49
537.40	21.06
537.57	46.81
537.74	58.51
537.91	49.15
538.08	16.38
538.25	42.13
538.42	39.79
538.59	121.71
538.75	67.88
538.92	51.49
539.09	63.19
539.26	117.03
539.43	117.03
539.60	112.35
539.77	131.07
539.94	91.28
540.11	119.37
540.28	72.56
540.44	42.13
540.61	14.04
540.78	117.03
540.95	145.11
541.12	60.85
541.29	79.58
541.46	91.28
541.62	161.50
541.79	74.90
541.96	35.11
542.13	77.24
542.30	93.62
542.47	149.79
542.63	110.01
542.80	88.94
542.97	93.62
543.14	63.19
543.31	91.28
543.48	84.26
543.64	65.54
543.81	91.28
543.98	84.26
544.15	53.83
544.32	72.56
544.48	88.94
544.65	112.35
544.82	124.05
544.99	77.24
545.16	152.13
545.32	100.64
545.49	119.37
545.66	0.00
545.83	37.45
546.00	0.00
546.16	63.19
546.33	58.51
546.50	79.58
546.67	114.69
546.83	145.11
547.00	131.07
547.17	131.07
547.34	56.17
547.50	86.60
547.67	21.06
547.84	187.24
548.00	88.94
548.17	86.60
548.34	86.60
548.51	105.32
548.67	51.49
548.84	124.05
549.01	128.73
549.18	53.83
549.34	98.30
549.51	23.41
549.68	100.64
549.84	67.88
550.01	44.47
550.18	107.66
550.34	105.32
550.51	70.22
550.68	95.96
550.84	7.02
551.01	100.64
551.18	110.01
551.34	91.28
551.51	46.81
551.68	30.43
551.84	79.58
552.01	91.28
552.18	86.60
552.34	93.62
552.51	84.26
552.68	100.64
552.84	51.49
553.01	65.54
553.18	28.09
553.34	93.62
553.51	84.26
553.67	42.13
553.84	84.26
554.01	4.68
554.17	79.58
554.34	152.13
554.51	140.43
554.67	18.72
554.84	131.07
555.00	53.83
555.17	93.62
555.33	58.51
555.50	98.30
555.67	117.03
555.83	39.79
556.00	93.62
556.16	128.73
556.33	88.94
556.50	95.96
556.66	100.64
556.83	42.13
556.99	95.96
557.16	65.54
557.32	46.81
557.49	67.88
557.65	117.03
557.82	98.30
557.98	25.75
558.15	39.79
558.32	51.49
558.48	74.90
558.65	53.83
558.81	30.43
558.98	42.13
559.14	46.81
559.31	49.15
559.47	107.66
559.64	42.13
559.80	102.98
559.97	58.51
560.13	42.13
560.30	74.90
560.46	74.90
560.63	39.79
560.79	39.79
560.96	72.56
561.12	79.58
561.29	72.56
561.45	126.39
561.61	140.43
561.78	86.60
561.94	110.01
562.11	170.86
562.27	23.41
562.44	72.56
562.60	65.54
562.77	56.17
562.93	84.26
563.10	79.58
563.26	72.56
563.42	42.13
563.59	102.98
563.75	23.41
563.92	65.54
564.08	72.56
564.24	98.30
564.41	28.09
564.57	117.03
564.74	72.56
564.90	49.15
565.07	149.79
565.23	79.58
565.39	51.49
565.56	53.83
565.72	81.92
565.88	21.06
566.05	74.90
566.21	23.41
566.38	93.62
566.54	0.00
566.70	65.54
566.87	93.62
567.03	65.54
567.19	117.03
567.36	114.69
567.52	135.75
567.68	60.85
567.85	37.45
568.01	18.72
568.17	63.19
568.34	81.92
568.50	77.24
568.66	23.41
568.83	135.75
568.99	95.96
569.15	37.45
569.32	0.00
569.48	46.81
569.64	0.00
569.81	63.19
569.97	9.36
570.13	77.24
570.30	91.28
570.46	79.58
570.62	49.15
570.78	46.81
570.95	105.32
571.11	114.69
571.27	72.56
571.43	72.56
571.60	77.24
571.76	35.11
571.92	46.81
572.09	56.17
572.25	28.09
572.41	77.24
572.57	110.01
572.74	23.41
572.90	121.71
573.06	74.90
573.22	37.45
573.38	95.96
573.55	14.04
573.71	126.39
573.87	79.58
574.03	42.13
574.20	107.66
574.36	28.09
574.52	98.30
574.68	79.58
574.84	4.68
575.01	67.88
575.17	81.92
575.33	88.94
575.49	121.71
575.65	140.43
575.82	117.03
575.98	74.90
576.14	67.88
576.30	161.50
576.46	95.96
576.62	84.26
576.79	30.43
576.95	77.24
577.11	100.64
577.27	72.56
577.43	81.92
577.59	28.09
577.75	39.79
577.92	88.94
578.08	84.26
578.24	49.15
578.40	49.15
578.56	25.75
578.72	30.43
578.88	60.85
579.04	32.77
579.21	79.58
579.37	100.64
579.53	46.81
579.69	23.41
579.85	121.71
580.01	74.90
580.17	42.13
580.33	67.88
580.49	63.19
580.65	67.88
580.82	25.75
580.98	110.01
581.14	67.88
581.30	56.17
581.46	117.03
581.62	100.64
581.78	105.32
581.94	93.62
582.10	39.79
582.26	159.16
582.42	25.75
582.58	138.09
582.74	95.96
582.90	86.60
583.06	81.92
583.22	35.11
583.38	72.56
583.54	81.92
583.70	63.19
583.86	93.62
584.02	65.54
584.18	74.90
584.34	77.24
584.50	51.49
584.66	110.01
584.82	37.45
584.98	51.49
585.14	58.51
585.30	65.54
585.46	152.13
585.62	72.56
585.78	79.58
585.94	119.37
586.10	133.41
586.26	131.07
586.42	147.45
586.58	112.35
586.74	105.32
586.90	105.32
587.06	117.03
587.22	100.64
587.38	67.88
587.54	161.50
587.70	56.17
587.86	42.13
588.02	100.64
588.18	102.98
588.34	60.85
588.49	60.85
588.65	114.69
588.81	84.26
588.97	60.85
589.13	35.11
589.29	74.90
589.45	84.26
589.61	131.07
589.77	63.19
589.93	107.66
590.08	11.70
590.24	84.26
590.40	0.00
590.56	79.58
590.72	37.45
590.88	84.26
591.04	37.45
591.20	95.96
591.35	42.13
591.51	23.41
591.67	42.13
591.83	60.85
591.99	95.96
592.15	112.35
592.31	70.22
592.46	49.15
592.62	63.19
592.78	145.11
592.94	110.01
593.10	124.05
593.26	46.81
593.41	79.58
593.57	32.77
593.73	42.13
593.89	100.64
594.05	37.45
594.20	28.09
594.36	95.96
594.52	0.00
594.68	32.77
594.84	88.94
594.99	100.64
595.15	42.13
595.31	25.75
595.47	21.06
595.62	32.77
595.78	112.35
595.94	49.15
596.10	112.35
596.25	18.72
596.41	98.30
596.57	102.98
596.73	21.06
596.88	39.79
597.04	77.24
597.20	46.81
597.36	53.83
597.51	46.81
597.67	49.15
597.83	98.30
597.99	53.83
598.14	93.62
598.30	81.92
598.46	86.60
598.61	131.07
598.77	49.15
598.93	9.36
599.09	70.22
599.24	84.26
599.40	37.45
599.56	79.58
599.71	2.34
599.87	32.77
600.03	70.22
600.18	81.92
600.34	86.60
600.50	18.72
600.65	0.00
600.81	51.49
600.97	21.06
601.12	32.77
601.28	95.96
601.44	149.79
601.59	81.92
601.75	16.38
601.91	58.51
602.06	51.49
602.22	2.34
602.37	107.66
602.53	124.05
602.69	37.45
602.84	49.15
603.00	4.68
603.16	2.34
603.31	65.54
603.47	70.22
603.62	86.60
603.78	37.45
603.94	91.28
604.09	46.81
604.25	74.90
604.40	72.56
604.56	70.22
604.71	70.22
604.87	126.39
605.03	18.72
605.18	56.17
605.34	67.88
605.49	9.36
605.65	30.43
605.80	95.96
605.96	131.07
606.12	98.30
606.27	124.05
606.43	16.38
606.58	77.24
606.74	4.68
606.89	21.06
607.05	98.30
607.20	53.83
607.36	32.77
607.51	60.85
607.67	51.49
607.82	93.62
607.98	23.41
608.13	102.98
608.29	53.83
608.44	79.58
608.60	86.60
608.75	77.24
608.91	51.49
609.06	74.90
609.22	44.47
609.37	16.38
609.53	194.26
609.68	81.92
609.84	49.15
609.99	114.69
610.15	0.00
610.30	42.13
610.46	56.17
610.61	42.13
610.76	53.83
610.92	23.41
611.07	0.00
611.23	98.30
611.38	23.41
611.54	67.88
611.69	28.09
611.84	88.94
612.00	0.00
612.15	0.00
612.31	58.51
612.46	18.72
612.62	35.11
612.77	21.06
612.92	88.94
613.08	84.26
613.23	79.58
613.39	51.49
613.54	117.03
613.69	77.24
613.85	81.92
614.00	44.47
614.15	58.51
614.31	100.64
614.46	46.81
614.62	37.45
614.77	49.15
614.92	70.22
615.08	145.11
615.23	81.92
615.38	53.83
615.54	58.51
615.69	67.88
615.84	63.19
616.00	35.11
616.15	23.41
616.30	124.05
616.46	74.90
616.61	25.75
616.76	65.54
616.92	74.90
617.07	51.49
617.22	100.64
617.37	81.92
617.53	88.94
617.68	102.98
617.83	56.17
617.99	56.17
618.14	77.24
618.29	49.15
618.45	70.22
618.60	65.54
618.75	60.85
618.90	32.77
619.06	44.47
619.21	65.54
619.36	11.70
619.51	42.13
619.67	93.62
619.82	49.15
619.97	4.68
620.12	72.56
620.28	39.79
620.43	100.64
620.58	79.58
620.73	28.09
620.89	7.02
621.04	79.58
621.19	67.88
621.34	0.00
621.49	0.00
621.65	93.62
621.80	0.00
621.95	37.45
622.10	86.60
622.25	147.45
622.41	0.00
622.56	30.43
622.71	39.79
622.86	53.83
623.01	67.88
623.16	11.70
623.32	23.41
623.47	79.58
623.62	138.09
623.77	70.22
623.92	86.60
624.07	124.05
624.23	28.09
624.38	32.77
624.53	51.49
624.68	77.24
624.83	110.01
624.98	95.96
625.13	37.45
625.29	30.43
625.44	0.00
625.59	72.56
625.74	74.90
625.89	51.49
626.04	25.75
626.19	133.41
626.34	79.58
626.49	0.00
626.65	95.96
626.80	67.88
626.95	0.00
627.10	56.17
627.25	14.04
627.40	30.43
627.55	42.13
627.70	49.15
627.85	86.60
628.00	4.68
628.15	51.49
628.30	25.75
628.45	23.41
628.60	56.17
628.76	91.28
628.91	112.35
629.06	18.72
629.21	18.72
629.36	28.09
629.51	56.17
629.66	63.19
629.81	60.85
629.96	60.85
630.11	49.15
630.26	86.60
630.41	32.77
630.56	95.96
630.71	46.81
630.86	16.38
631.01	4.68
631.16	114.69
631.31	42.13
631.46	72.56
631.61	58.51
631.76	21.06
631.91	84.26
632.06	93.62
632.21	91.28
632.36	11.70
632.51	42.13
632.66	58.51
632.81	74.90
632.96	25.75
633.10	16.38
633.25	14.04
633.40	84.26
633.55	25.75
633.70	72.56
633.85	42.13
634.00	46.81
634.15	110.01
634.30	102.98
634.45	107.66
634.60	21.06
634.75	88.94
634.90	42.13
635.05	23.41
635.19	67.88
635.34	93.62
635.49	79.58
635.64	51.49
635.79	77.24
635.94	0.00
636.09	14.04
636.24	131.07
636.39	70.22
636.53	140.43
636.68	84.26
636.83	77.24
636.98	42.13
637.13	56.17
637.28	49.15
637.43	49.15
637.57	30.43
637.72	56.17
637.87	58.51
638.02	105.32
638.17	28.09
638.32	32.77
638.46	37.45
638.61	105.32
638.76	58.51
638.91	67.88
639.06	65.54
639.20	4.68
639.35	72.56
639.50	14.04
639.65	67.88
639.80	74.90
639.94	86.60
640.09	42.13
640.24	56.17
640.39	28.09
640.54	63.19
640.68	81.92
640.83	7.02
640.98	18.72
641.13	126.39
641.27	39.79
641.42	11.70
641.57	138.09
641.72	51.49
641.86	63.19
642.01	98.30
642.16	42.13
642.31	44.47
642.45	0.00
642.60	42.13
642.75	30.43
642.90	0.00
643.04	51.49
643.19	0.00
643.34	58.51
643.48	37.45
643.63	51.49
643.78	0.00
643.93	112.35
644.07	35.11
644.22	53.83
644.37	42.13
644.51	25.75
644.66	58.51
644.81	9.36
644.95	42.13
645.10	30.43
645.25	32.77
645.39	81.92
645.54	102.98
645.69	39.79
645.83	51.49
645.98	74.90
646.13	35.11
646.27	72.56
646.42	35.11
646.57	0.00
646.71	14.04
646.86	32.77
647.00	70.22
647.15	60.85
647.30	72.56
647.44	2.34
647.59	11.70
647.74	44.47
647.88	67.88
648.03	81.92
648.17	72.56
648.32	2.34
648.47	0.00
648.61	30.43
648.76	81.92
648.90	4.68
649.05	98.30
649.20	44.47
649.34	102.98
649.49	53.83
649.63	32.77
649.78	74.90
649.92	35.11
650.07	53.83
650.21	39.79
650.36	105.32
650.51	105.32
650.65	14.04
650.80	161.50
650.94	77.24
651.09	30.43
651.23	9.36
651.38	100.64
651.52	131.07
651.67	138.09
651.81	77.24
651.96	56.17
652.10	65.54
652.25	51.49
652.39	28.09
652.54	135.75
652.68	72.56
652.83	112.35
652.97	18.72
653.12	53.83
653.26	37.45
653.41	39.79
653.55	49.15
653.70	23.41
653.84	23.41
653.99	58.51
654.13	65.54
654.27	100.64
654.42	81.92
654.56	100.64
654.71	56.17
654.85	21.06
655.00	49.15
655.14	11.70
655.29	65.54
655.43	14.04
655.57	0.00
655.72	49.15
655.86	0.00
656.01	53.83
656.15	72.56
656.30	44.47
656.44	37.45
656.58	46.81
656.73	0.00
656.87	63.19
657.01	74.90
657.16	117.03
657.30	67.88
657.45	98.30
657.59	0.00
657.73	56.17
657.88	30.43
658.02	37.45
658.16	39.79
658.31	35.11
658.45	91.28
658.60	51.49
658.74	4.68
658.88	79.58
659.03	51.49
659.17	39.79
659.31	0.00
659.46	67.88
659.60	77.24
659.74	114.69
659.89	65.54
660.03	86.60
660.17	84.26
660.32	72.56
660.46	0.00
660.60	86.60
660.74	35.11
660.89	53.83
661.03	105.32
661.17	0.00
661.32	70.22
661.46	74.90
661.60	88.94
661.74	42.13
661.89	56.17
662.03	7.02
662.17	110.01
662.31	98.30
662.46	49.15
662.60	77.24
662.74	91.28
662.88	9.36
663.03	18.72
663.17	35.11
663.31	2.34
663.45	7.02
663.60	65.54
663.74	98.30
663.88	35.11
664.02	58.51
664.17	51.49
664.31	18.72
664.45	0.00
664.59	0.00
664.73	58.51
664.88	44.47
665.02	46.81
665.16	53.83
665.30	112.35
665.44	42.13
665.59	107.66
665.73	81.92
665.87	86.60
666.01	21.06
666.15	124.05
666.29	46.81
666.44	9.36
666.58	67.88
666.72	32.77
666.86	16.38
667.00	35.11
667.14	16.38
667.28	37.45
667.43	46.81
667.57	93.62
667.71	46.81
667.85	21.06
667.99	14.04
668.13	37.45
668.27	39.79
668.41	102.98
668.56	0.00
668.70	28.09
668.84	0.00
668.98	39.79
669.12	86.60
669.26	124.05
669.40	16.38
669.54	63.19
669.68	65.54
669.82	110.01
669.96	60.85
670.10	23.41
670.25	7.02
670.39	32.77
670.53	25.75
670.67	46.81
670.81	88.94
670.95	65.54
671.09	60.85
671.23	121.71
671.37	72.56
671.51	58.51
671.65	51.49
671.79	0.00
671.93	95.96
672.07	28.09
672.21	23.41
672.35	35.11
672.49	100.64
672.63	72.56
672.77	126.39
672.91	84.26
673.05	70.22
673.19	67.88
673.33	11.70
673.47	51.49
673.61	4.68
673.75	65.54
673.89	25.75
674.03	44.47
674.17	102.98
674.31	21.06
674.45	58.51
674.59	53.83
674.73	51.49
674.87	46.81
675.01	72.56
675.15	0.00
675.29	14.04
675.43	11.70
675.56	35.11
675.70	58.51
675.84	30.43
675.98	16.38
676.12	2.34
676.26	32.77
676.40	0.00
676.54	0.00
676.68	84.26
676.82	126.39
676.96	23.41
677.10	0.00
677.23	35.11
677.37	81.92
677.51	60.85
677.65	9.36
677.79	42.13
677.93	16.38
678.07	0.00
678.21	0.00
678.34	32.77
678.48	14.04
678.62	23.41
678.76	79.58
678.90	0.00
679.04	98.30
679.18	0.00
679.31	0.00
679.45	0.00
679.59	46.81
679.73	11.70
679.87	32.77
680.00	42.13
680.14	25.75
680.28	44.47
680.42	67.88
680.56	37.45
680.70	7.02
680.83	0.00
680.97	23.41
681.11	30.43
681.25	32.77
681.39	86.60
681.52	58.51
681.66	49.15
681.80	0.00
681.94	28.09
682.07	58.51
682.21	98.30
682.35	74.90
682.49	0.00
682.62	79.58
682.76	107.66
682.90	0.00
683.04	14.04
683.17	46.81
683.31	44.47
683.45	42.13
683.59	25.75
683.72	11.70
683.86	121.71
684.00	16.38
684.13	0.00
684.27	79.58
684.41	72.56
684.55	44.47
684.68	30.43
684.82	56.17
684.96	0.00
685.09	65.54
685.23	0.00
685.37	72.56
685.50	77.24
685.64	16.38
685.78	88.94
685.91	107.66
686.05	21.06
686.19	2.34
686.32	63.19
686.46	7.02
686.60	84.26
686.73	4.68
686.87	86.60
687.01	86.60
687.14	58.51
687.28	49.15
687.42	7.02
687.55	42.13
687.69	28.09
687.82	56.17
687.96	86.60
688.10	105.32
688.23	14.04
688.37	14.04
688.50	2.34
688.64	0.00
688.78	0.00
688.91	2.34
689.05	74.90
689.18	2.34
689.32	56.17
689.46	58.51
689.59	44.47
689.73	18.72
689.86	4.68
690.00	4.68
690.13	140.43
690.27	4.68
690.41	51.49
690.54	53.83
690.68	46.81
690.81	0.00
690.95	84.26
691.08	7.02
691.22	51.49
691.35	0.00
691.49	21.06
691.62	74.90
691.76	0.00
691.89	0.00
692.03	81.92
692.16	44.47
692.30	30.43
692.43	0.00
692.57	37.45
692.70	53.83
692.84	7.02
692.97	23.41
693.11	93.62
693.24	39.79
693.38	51.49
693.51	65.54
693.65	0.00
693.78	0.00
693.92	81.92
694.05	67.88
694.19	56.17
694.32	0.00
694.45	28.09
694.59	0.00
694.72	21.06
694.86	7.02
694.99	51.49
695.13	95.96
695.26	110.01
695.39	0.00
695.53	42.13
695.66	53.83
695.80	58.51
695.93	32.77
696.07	35.11
696.20	23.41
696.33	63.19
696.47	0.00
696.60	91.28
696.73	0.00
696.87	65.54
697.00	0.00
697.14	0.00
697.27	65.54
697.40	58.51
697.54	119.37
697.67	51.49
697.80	7.02
697.94	2.34
698.07	4.68
698.21	11.70
698.34	37.45
698.47	0.00
698.61	88.94
698.74	28.09
698.87	114.69
699.01	70.22
699.14	21.06
699.27	32.77
699.40	49.15
699.54	39.79
699.67	9.36
699.80	58.51
699.94	23.41
700.07	23.41
700.20	51.49
700.34	14.04
700.47	7.02
700.60	0.00
700.73	56.17
700.87	30.43
701.00	74.90
701.13	30.43
701.26	0.00
701.40	81.92
701.53	39.79
701.66	88.94
701.79	28.09
701.93	79.58
702.06	84.26
702.19	11.70
702.32	0.00
702.46	35.11
702.59	67.88
702.72	100.64
702.85	44.47
702.99	42.13
703.12	65.54
703.25	0.00
703.38	0.00
703.51	56.17
703.65	84.26
703.78	18.72
703.91	42.13
704.04	0.00
704.17	39.79
704.31	0.00
704.44	14.04
704.57	37.45
704.70	0.00
704.83	0.00
704.96	0.00
705.10	81.92
705.23	60.85
>>>>>End Processed Spectral Data<<<<<
