SpectraSuite Data File
++++++++++++++++++++++++++++++++++++
Date: Fri Oct 04 12:13:41 GMT-05:00 2013
User: price-jones
Dark Spectrum Present: No
Reference Spectrum Present: No
Number of Sampled Component Spectra: 1
Spectrometers: USB2+H05261
Integration Time (usec): 10000 (USB2+H05261)
Spectra Averaged: 1 (USB2+H05261)
Boxcar Smoothing: 0 (USB2+H05261)
Correct for Electrical Dark: No (USB2+H05261)
Strobe/Lamp Enabled: No (USB2+H05261)
Correct for Detector Non-linearity: No (USB2+H05261)
Correct for Stray Light: No (USB2+H05261)
Number of Pixels in Processed Spectrum: 2048
>>>>>Begin Processed Spectral Data<<<<<
365.73	21.06
365.92	21.06
366.12	21.06
366.32	0.00
366.52	0.00
366.72	0.00
366.91	0.00
367.11	0.00
367.31	0.00
367.51	0.00
367.70	0.00
367.90	0.00
368.10	0.00
368.30	0.00
368.49	0.00
368.69	0.00
368.89	0.00
369.09	0.00
369.28	0.00
369.48	0.00
369.68	0.00
369.87	0.00
370.07	0.00
370.27	4.68
370.47	0.00
370.66	0.00
370.86	0.00
371.06	0.00
371.25	0.00
371.45	0.00
371.65	16.38
371.84	0.00
372.04	0.00
372.24	0.00
372.44	7.02
372.63	39.79
372.83	23.41
373.03	7.02
373.22	39.79
373.42	53.83
373.62	28.09
373.81	63.19
374.01	84.26
374.21	60.85
374.40	4.68
374.60	32.77
374.79	0.00
374.99	58.51
375.19	63.19
375.38	35.11
375.58	0.00
375.78	18.72
375.97	7.02
376.17	0.00
376.37	81.92
376.56	77.24
376.76	0.00
376.95	93.62
377.15	18.72
377.35	70.22
377.54	18.72
377.74	70.22
377.93	0.00
378.13	65.54
378.33	2.34
378.52	72.56
378.72	32.77
378.91	25.75
379.11	72.56
379.31	53.83
379.50	14.04
379.70	16.38
379.89	49.15
380.09	58.51
380.28	49.15
380.48	0.00
380.68	11.70
380.87	23.41
381.07	88.94
381.26	9.36
381.46	30.43
381.65	4.68
381.85	39.79
382.04	0.00
382.24	65.54
382.43	0.00
382.63	0.00
382.83	46.81
383.02	23.41
383.22	0.00
383.41	14.04
383.61	23.41
383.80	63.19
384.00	63.19
384.19	0.00
384.39	11.70
384.58	25.75
384.78	56.17
384.97	16.38
385.17	18.72
385.36	18.72
385.56	72.56
385.75	0.00
385.95	9.36
386.14	30.43
386.34	39.79
386.53	16.38
386.72	56.17
386.92	72.56
387.11	39.79
387.31	60.85
387.50	0.00
387.70	39.79
387.89	23.41
388.09	9.36
388.28	0.00
388.48	9.36
388.67	0.00
388.86	67.88
389.06	21.06
389.25	18.72
389.45	102.98
389.64	0.00
389.84	49.15
390.03	0.00
390.22	16.38
390.42	21.06
390.61	0.00
390.81	0.00
391.00	25.75
391.19	9.36
391.39	0.00
391.58	42.13
391.78	46.81
391.97	0.00
392.16	0.00
392.36	67.88
392.55	0.00
392.75	35.11
392.94	74.90
393.13	35.11
393.33	0.00
393.52	14.04
393.71	14.04
393.91	42.13
394.10	14.04
394.29	53.83
394.49	65.54
394.68	70.22
394.88	49.15
395.07	35.11
395.26	25.75
395.46	14.04
395.65	37.45
395.84	74.90
396.04	86.60
396.23	28.09
396.42	63.19
396.62	60.85
396.81	63.19
397.00	74.90
397.19	0.00
397.39	0.00
397.58	67.88
397.77	35.11
397.97	44.47
398.16	93.62
398.35	9.36
398.55	74.90
398.74	35.11
398.93	56.17
399.12	23.41
399.32	28.09
399.51	107.66
399.70	4.68
399.90	18.72
400.09	79.58
400.28	46.81
400.47	7.02
400.67	0.00
400.86	23.41
401.05	37.45
401.24	65.54
401.44	53.83
401.63	16.38
401.82	0.00
402.01	9.36
402.21	21.06
402.40	0.00
402.59	70.22
402.78	42.13
402.97	11.70
403.17	84.26
403.36	0.00
403.55	21.06
403.74	32.77
403.93	72.56
404.13	65.54
404.32	18.72
404.51	9.36
404.70	72.56
404.89	81.92
405.09	124.05
405.28	60.85
405.47	46.81
405.66	21.06
405.85	0.00
406.05	49.15
406.24	14.04
406.43	49.15
406.62	37.45
406.81	72.56
407.00	110.01
407.20	18.72
407.39	53.83
407.58	44.47
407.77	37.45
407.96	74.90
408.15	11.70
408.34	42.13
408.54	0.00
408.73	25.75
408.92	58.51
409.11	37.45
409.30	74.90
409.49	70.22
409.68	37.45
409.87	98.30
410.07	14.04
410.26	0.00
410.45	25.75
410.64	72.56
410.83	44.47
411.02	77.24
411.21	37.45
411.40	28.09
411.59	35.11
411.78	39.79
411.98	65.54
412.17	30.43
412.36	72.56
412.55	28.09
412.74	0.00
412.93	51.49
413.12	72.56
413.31	39.79
413.50	30.43
413.69	53.83
413.88	46.81
414.07	81.92
414.26	0.00
414.45	77.24
414.64	72.56
414.83	105.32
415.02	46.81
415.22	16.38
415.41	23.41
415.60	9.36
415.79	35.11
415.98	42.13
416.17	30.43
416.36	9.36
416.55	58.51
416.74	93.62
416.93	60.85
417.12	16.38
417.31	107.66
417.50	93.62
417.69	0.00
417.88	30.43
418.07	81.92
418.26	18.72
418.45	70.22
418.64	0.00
418.83	23.41
419.02	0.00
419.21	98.30
419.39	32.77
419.58	39.79
419.77	30.43
419.96	70.22
420.15	7.02
420.34	86.60
420.53	2.34
420.72	58.51
420.91	72.56
421.10	32.77
421.29	0.00
421.48	42.13
421.67	7.02
421.86	46.81
422.05	163.84
422.24	49.15
422.43	28.09
422.61	37.45
422.80	37.45
422.99	79.58
423.18	91.28
423.37	105.32
423.56	58.51
423.75	39.79
423.94	42.13
424.13	72.56
424.32	35.11
424.50	14.04
424.69	67.88
424.88	65.54
425.07	51.49
425.26	86.60
425.45	58.51
425.64	23.41
425.83	53.83
426.01	49.15
426.20	25.75
426.39	42.13
426.58	0.00
426.77	84.26
426.96	114.69
427.15	53.83
427.33	32.77
427.52	0.00
427.71	23.41
427.90	23.41
428.09	0.00
428.28	114.69
428.46	25.75
428.65	152.13
428.84	21.06
429.03	0.00
429.22	0.00
429.40	105.32
429.59	65.54
429.78	37.45
429.97	79.58
430.16	63.19
430.34	112.35
430.53	131.07
430.72	49.15
430.91	84.26
431.10	14.04
431.28	44.47
431.47	53.83
431.66	39.79
431.85	39.79
432.03	81.92
432.22	51.49
432.41	105.32
432.60	11.70
432.79	58.51
432.97	46.81
433.16	11.70
433.35	46.81
433.54	39.79
433.72	74.90
433.91	39.79
434.10	0.00
434.28	58.51
434.47	28.09
434.66	49.15
434.85	86.60
435.03	77.24
435.22	9.36
435.41	51.49
435.59	79.58
435.78	74.90
435.97	23.41
436.16	23.41
436.34	32.77
436.53	56.17
436.72	70.22
436.90	46.81
437.09	74.90
437.28	32.77
437.46	0.00
437.65	42.13
437.84	72.56
438.02	28.09
438.21	0.00
438.40	44.47
438.58	18.72
438.77	0.00
438.96	88.94
439.14	37.45
439.33	0.00
439.52	49.15
439.70	32.77
439.89	67.88
440.08	28.09
440.26	4.68
440.45	11.70
440.63	88.94
440.82	51.49
441.01	105.32
441.19	42.13
441.38	53.83
441.57	107.66
441.75	39.79
441.94	32.77
442.12	0.00
442.31	67.88
442.50	0.00
442.68	9.36
442.87	32.77
443.05	0.00
443.24	56.17
443.43	102.98
443.61	67.88
443.80	60.85
443.98	14.04
444.17	42.13
444.35	39.79
444.54	72.56
444.73	51.49
444.91	0.00
445.10	23.41
445.28	72.56
445.47	60.85
445.65	58.51
445.84	114.69
446.02	9.36
446.21	100.64
446.39	0.00
446.58	32.77
446.77	2.34
446.95	95.96
447.14	35.11
447.32	81.92
447.51	63.19
447.69	7.02
447.88	91.28
448.06	95.96
448.25	56.17
448.43	0.00
448.62	156.82
448.80	72.56
448.99	51.49
449.17	49.15
449.36	25.75
449.54	44.47
449.73	58.51
449.91	67.88
450.10	91.28
450.28	14.04
450.46	0.00
450.65	16.38
450.83	53.83
451.02	51.49
451.20	0.00
451.39	37.45
451.57	32.77
451.76	46.81
451.94	28.09
452.13	16.38
452.31	114.69
452.49	65.54
452.68	63.19
452.86	98.30
453.05	95.96
453.23	65.54
453.42	0.00
453.60	44.47
453.78	0.00
453.97	42.13
454.15	28.09
454.34	44.47
454.52	128.73
454.70	60.85
454.89	39.79
455.07	93.62
455.26	4.68
455.44	84.26
455.62	53.83
455.81	126.39
455.99	149.79
456.17	23.41
456.36	42.13
456.54	53.83
456.73	14.04
456.91	161.50
457.09	56.17
457.28	7.02
457.46	4.68
457.64	60.85
457.83	72.56
458.01	14.04
458.19	67.88
458.38	124.05
458.56	37.45
458.74	30.43
458.93	35.11
459.11	67.88
459.29	74.90
459.48	44.47
459.66	58.51
459.84	53.83
460.03	63.19
460.21	102.98
460.39	86.60
460.57	0.00
460.76	4.68
460.94	30.43
461.12	91.28
461.31	84.26
461.49	70.22
461.67	72.56
461.85	46.81
462.04	21.06
462.22	93.62
462.40	51.49
462.59	2.34
462.77	72.56
462.95	98.30
463.13	93.62
463.32	42.13
463.50	86.60
463.68	60.85
463.86	21.06
464.05	7.02
464.23	51.49
464.41	63.19
464.59	140.43
464.78	16.38
464.96	32.77
465.14	77.24
465.32	23.41
465.50	23.41
465.69	135.75
465.87	11.70
466.05	56.17
466.23	16.38
466.41	65.54
466.60	28.09
466.78	39.79
466.96	88.94
467.14	21.06
467.32	79.58
467.51	60.85
467.69	126.39
467.87	77.24
468.05	110.01
468.23	0.00
468.41	28.09
468.60	65.54
468.78	65.54
468.96	102.98
469.14	124.05
469.32	67.88
469.50	0.00
469.69	28.09
469.87	16.38
470.05	49.15
470.23	49.15
470.41	56.17
470.59	25.75
470.77	60.85
470.95	18.72
471.14	9.36
471.32	51.49
471.50	23.41
471.68	28.09
471.86	0.00
472.04	72.56
472.22	70.22
472.40	102.98
472.58	42.13
472.77	124.05
472.95	79.58
473.13	65.54
473.31	79.58
473.49	79.58
473.67	98.30
473.85	112.35
474.03	121.71
474.21	51.49
474.39	14.04
474.57	37.45
474.75	56.17
474.93	102.98
475.12	28.09
475.30	7.02
475.48	107.66
475.66	44.47
475.84	37.45
476.02	70.22
476.20	100.64
476.38	60.85
476.56	42.13
476.74	63.19
476.92	46.81
477.10	67.88
477.28	84.26
477.46	56.17
477.64	30.43
477.82	11.70
478.00	46.81
478.18	63.19
478.36	39.79
478.54	42.13
478.72	0.00
478.90	81.92
479.08	79.58
479.26	88.94
479.44	32.77
479.62	105.32
479.80	39.79
479.98	46.81
480.16	46.81
480.34	77.24
480.52	46.81
480.70	93.62
480.88	37.45
481.06	95.96
481.24	44.47
481.41	60.85
481.59	77.24
481.77	14.04
481.95	65.54
482.13	65.54
482.31	95.96
482.49	105.32
482.67	60.85
482.85	46.81
483.03	91.28
483.21	39.79
483.39	98.30
483.57	95.96
483.74	44.47
483.92	58.51
484.10	51.49
484.28	67.88
484.46	56.17
484.64	39.79
484.82	28.09
485.00	0.00
485.18	30.43
485.35	77.24
485.53	39.79
485.71	0.00
485.89	84.26
486.07	0.00
486.25	107.66
486.43	145.11
486.61	142.77
486.78	119.37
486.96	7.02
487.14	70.22
487.32	81.92
487.50	65.54
487.68	39.79
487.85	88.94
488.03	112.35
488.21	60.85
488.39	107.66
488.57	119.37
488.75	114.69
488.92	142.77
489.10	74.90
489.28	63.19
489.46	133.41
489.64	42.13
489.81	72.56
489.99	102.98
490.17	70.22
490.35	53.83
490.53	88.94
490.70	110.01
490.88	42.13
491.06	11.70
491.24	23.41
491.41	91.28
491.59	28.09
491.77	35.11
491.95	117.03
492.13	98.30
492.30	114.69
492.48	131.07
492.66	145.11
492.84	110.01
493.01	25.75
493.19	23.41
493.37	133.41
493.54	131.07
493.72	74.90
493.90	0.00
494.08	51.49
494.25	18.72
494.43	112.35
494.61	74.90
494.79	119.37
494.96	44.47
495.14	74.90
495.32	39.79
495.49	23.41
495.67	28.09
495.85	100.64
496.02	63.19
496.20	105.32
496.38	105.32
496.55	135.75
496.73	49.15
496.91	44.47
497.09	131.07
497.26	0.00
497.44	56.17
497.62	65.54
497.79	51.49
497.97	98.30
498.14	0.00
498.32	23.41
498.50	51.49
498.67	67.88
498.85	39.79
499.03	60.85
499.20	98.30
499.38	72.56
499.56	39.79
499.73	74.90
499.91	147.45
500.08	32.77
500.26	100.64
500.44	98.30
500.61	105.32
500.79	9.36
500.97	135.75
501.14	110.01
501.32	100.64
501.49	65.54
501.67	25.75
501.84	56.17
502.02	95.96
502.20	105.32
502.37	84.26
502.55	51.49
502.72	63.19
502.90	117.03
503.07	91.28
503.25	93.62
503.43	18.72
503.60	32.77
503.78	79.58
503.95	93.62
504.13	53.83
504.30	77.24
504.48	39.79
504.65	112.35
504.83	70.22
505.01	56.17
505.18	128.73
505.36	102.98
505.53	110.01
505.71	93.62
505.88	72.56
506.06	124.05
506.23	126.39
506.41	110.01
506.58	0.00
506.76	70.22
506.93	60.85
507.11	79.58
507.28	65.54
507.46	65.54
507.63	156.82
507.81	131.07
507.98	105.32
508.16	105.32
508.33	63.19
508.50	105.32
508.68	105.32
508.85	70.22
509.03	119.37
509.20	2.34
509.38	86.60
509.55	105.32
509.73	126.39
509.90	77.24
510.08	65.54
510.25	86.60
510.42	154.48
510.60	100.64
510.77	72.56
510.95	42.13
511.12	74.90
511.30	79.58
511.47	18.72
511.64	119.37
511.82	35.11
511.99	91.28
512.17	16.38
512.34	0.00
512.51	63.19
512.69	37.45
512.86	39.79
513.04	81.92
513.21	84.26
513.38	51.49
513.56	107.66
513.73	65.54
513.90	72.56
514.08	65.54
514.25	128.73
514.43	79.58
514.60	74.90
514.77	58.51
514.95	42.13
515.12	67.88
515.29	114.69
515.47	51.49
515.64	16.38
515.81	63.19
515.99	128.73
516.16	105.32
516.33	124.05
516.51	28.09
516.68	58.51
516.85	100.64
517.03	135.75
517.20	88.94
517.37	42.13
517.54	9.36
517.72	119.37
517.89	56.17
518.06	0.00
518.24	100.64
518.41	79.58
518.58	124.05
518.75	124.05
518.93	102.98
519.10	110.01
519.27	79.58
519.45	37.45
519.62	60.85
519.79	0.00
519.96	79.58
520.14	65.54
520.31	58.51
520.48	4.68
520.65	119.37
520.83	77.24
521.00	51.49
521.17	156.82
521.34	159.16
521.52	42.13
521.69	58.51
521.86	117.03
522.03	84.26
522.20	77.24
522.38	110.01
522.55	88.94
522.72	30.43
522.89	39.79
523.07	107.66
523.24	147.45
523.41	138.09
523.58	128.73
523.75	49.15
523.92	63.19
524.10	56.17
524.27	128.73
524.44	88.94
524.61	147.45
524.78	107.66
524.96	32.77
525.13	110.01
525.30	67.88
525.47	100.64
525.64	58.51
525.81	79.58
525.98	84.26
526.16	2.34
526.33	102.98
526.50	16.38
526.67	81.92
526.84	77.24
527.01	51.49
527.18	44.47
527.36	102.98
527.53	51.49
527.70	72.56
527.87	79.58
528.04	28.09
528.21	30.43
528.38	28.09
528.55	70.22
528.72	140.43
528.89	7.02
529.07	11.70
529.24	91.28
529.41	114.69
529.58	0.00
529.75	105.32
529.92	114.69
530.09	161.50
530.26	102.98
530.43	126.39
530.60	135.75
530.77	95.96
530.94	145.11
531.11	74.90
531.28	67.88
531.46	105.32
531.63	23.41
531.80	79.58
531.97	126.39
532.14	156.82
532.31	35.11
532.48	72.56
532.65	110.01
532.82	58.51
532.99	72.56
533.16	44.47
533.33	102.98
533.50	117.03
533.67	107.66
533.84	126.39
534.01	11.70
534.18	86.60
534.35	56.17
534.52	175.54
534.69	81.92
534.86	77.24
535.03	42.13
535.20	126.39
535.37	112.35
535.54	32.77
535.71	81.92
535.88	91.28
536.05	114.69
536.22	81.92
536.38	135.75
536.55	9.36
536.72	88.94
536.89	42.13
537.06	44.47
537.23	147.45
537.40	91.28
537.57	91.28
537.74	107.66
537.91	4.68
538.08	110.01
538.25	58.51
538.42	65.54
538.59	86.60
538.75	138.09
538.92	98.30
539.09	46.81
539.26	58.51
539.43	77.24
539.60	100.64
539.77	44.47
539.94	88.94
540.11	56.17
540.28	114.69
540.44	138.09
540.61	44.47
540.78	86.60
540.95	110.01
541.12	79.58
541.29	51.49
541.46	110.01
541.62	131.07
541.79	56.17
541.96	93.62
542.13	74.90
542.30	95.96
542.47	154.48
542.63	70.22
542.80	152.13
542.97	168.52
543.14	56.17
543.31	84.26
543.48	4.68
543.64	114.69
543.81	86.60
543.98	56.17
544.15	88.94
544.32	70.22
544.48	79.58
544.65	126.39
544.82	124.05
544.99	72.56
545.16	105.32
545.32	44.47
545.49	72.56
545.66	105.32
545.83	51.49
546.00	65.54
546.16	67.88
546.33	91.28
546.50	4.68
546.67	114.69
546.83	95.96
547.00	49.15
547.17	7.02
547.34	0.00
547.50	105.32
547.67	56.17
547.84	53.83
548.00	86.60
548.17	16.38
548.34	145.11
548.51	53.83
548.67	58.51
548.84	138.09
549.01	77.24
549.18	110.01
549.34	77.24
549.51	152.13
549.68	117.03
549.84	124.05
550.01	74.90
550.18	30.43
550.34	102.98
550.51	67.88
550.68	135.75
550.84	86.60
551.01	81.92
551.18	81.92
551.34	49.15
551.51	84.26
551.68	117.03
551.84	28.09
552.01	112.35
552.18	159.16
552.34	58.51
552.51	95.96
552.68	79.58
552.84	119.37
553.01	142.77
553.18	44.47
553.34	84.26
553.51	110.01
553.67	119.37
553.84	91.28
554.01	60.85
554.17	88.94
554.34	105.32
554.51	126.39
554.67	133.41
554.84	98.30
555.00	0.00
555.17	21.06
555.33	79.58
555.50	77.24
555.67	102.98
555.83	121.71
556.00	140.43
556.16	154.48
556.33	39.79
556.50	114.69
556.66	105.32
556.83	67.88
556.99	56.17
557.16	102.98
557.32	2.34
557.49	56.17
557.65	95.96
557.82	100.64
557.98	32.77
558.15	65.54
558.32	110.01
558.48	88.94
558.65	67.88
558.81	72.56
558.98	124.05
559.14	88.94
559.31	121.71
559.47	72.56
559.64	63.19
559.80	119.37
559.97	140.43
560.13	107.66
560.30	70.22
560.46	74.90
560.63	65.54
560.79	95.96
560.96	58.51
561.12	42.13
561.29	126.39
561.45	98.30
561.61	91.28
561.78	56.17
561.94	53.83
562.11	46.81
562.27	77.24
562.44	81.92
562.60	86.60
562.77	95.96
562.93	35.11
563.10	63.19
563.26	70.22
563.42	117.03
563.59	21.06
563.75	81.92
563.92	79.58
564.08	98.30
564.24	46.81
564.41	93.62
564.57	49.15
564.74	32.77
564.90	65.54
565.07	149.79
565.23	98.30
565.39	35.11
565.56	74.90
565.72	37.45
565.88	46.81
566.05	53.83
566.21	39.79
566.38	117.03
566.54	42.13
566.70	21.06
566.87	60.85
567.03	46.81
567.19	163.84
567.36	77.24
567.52	49.15
567.68	79.58
567.85	56.17
568.01	112.35
568.17	28.09
568.34	63.19
568.50	30.43
568.66	86.60
568.83	117.03
568.99	107.66
569.15	98.30
569.32	14.04
569.48	56.17
569.64	107.66
569.81	102.98
569.97	100.64
570.13	81.92
570.30	70.22
570.46	84.26
570.62	149.79
570.78	70.22
570.95	114.69
571.11	119.37
571.27	110.01
571.43	37.45
571.60	60.85
571.76	128.73
571.92	121.71
572.09	60.85
572.25	7.02
572.41	32.77
572.57	67.88
572.74	84.26
572.90	25.75
573.06	84.26
573.22	161.50
573.38	142.77
573.55	32.77
573.71	58.51
573.87	63.19
574.03	98.30
574.20	9.36
574.36	124.05
574.52	42.13
574.68	110.01
574.84	84.26
575.01	9.36
575.17	42.13
575.33	93.62
575.49	100.64
575.65	11.70
575.82	128.73
575.98	117.03
576.14	25.75
576.30	88.94
576.46	114.69
576.62	131.07
576.79	39.79
576.95	42.13
577.11	37.45
577.27	49.15
577.43	119.37
577.59	42.13
577.75	102.98
577.92	60.85
578.08	86.60
578.24	53.83
578.40	21.06
578.56	30.43
578.72	201.29
578.88	74.90
579.04	135.75
579.21	0.00
579.37	70.22
579.53	88.94
579.69	65.54
579.85	63.19
580.01	79.58
580.17	86.60
580.33	44.47
580.49	63.19
580.65	93.62
580.82	124.05
580.98	70.22
581.14	175.54
581.30	70.22
581.46	161.50
581.62	49.15
581.78	95.96
581.94	126.39
582.10	74.90
582.26	131.07
582.42	110.01
582.58	88.94
582.74	84.26
582.90	70.22
583.06	100.64
583.22	72.56
583.38	11.70
583.54	67.88
583.70	42.13
583.86	67.88
584.02	105.32
584.18	16.38
584.34	163.84
584.50	53.83
584.66	70.22
584.82	72.56
584.98	91.28
585.14	93.62
585.30	124.05
585.46	121.71
585.62	39.79
585.78	117.03
585.94	198.95
586.10	81.92
586.26	95.96
586.42	105.32
586.58	4.68
586.74	98.30
586.90	77.24
587.06	60.85
587.22	58.51
587.38	98.30
587.54	81.92
587.70	46.81
587.86	72.56
588.02	124.05
588.18	7.02
588.34	112.35
588.49	152.13
588.65	56.17
588.81	131.07
588.97	35.11
589.13	74.90
589.29	18.72
589.45	86.60
589.61	88.94
589.77	84.26
589.93	65.54
590.08	23.41
590.24	88.94
590.40	39.79
590.56	16.38
590.72	81.92
590.88	65.54
591.04	131.07
591.20	135.75
591.35	131.07
591.51	32.77
591.67	67.88
591.83	74.90
591.99	84.26
592.15	177.88
592.31	21.06
592.46	74.90
592.62	49.15
592.78	35.11
592.94	84.26
593.10	0.00
593.26	42.13
593.41	72.56
593.57	93.62
593.73	23.41
593.89	60.85
594.05	58.51
594.20	25.75
594.36	42.13
594.52	39.79
594.68	56.17
594.84	56.17
594.99	102.98
595.15	70.22
595.31	42.13
595.47	72.56
595.62	91.28
595.78	70.22
595.94	28.09
596.10	65.54
596.25	32.77
596.41	81.92
596.57	95.96
596.73	51.49
596.88	63.19
597.04	60.85
597.20	91.28
597.36	95.96
597.51	70.22
597.67	0.00
597.83	30.43
597.99	70.22
598.14	37.45
598.30	53.83
598.46	30.43
598.61	98.30
598.77	77.24
598.93	18.72
599.09	51.49
599.24	117.03
599.40	77.24
599.56	112.35
599.71	53.83
599.87	67.88
600.03	46.81
600.18	0.00
600.34	53.83
600.50	2.34
600.65	37.45
600.81	93.62
600.97	74.90
601.12	72.56
601.28	117.03
601.44	215.33
601.59	74.90
601.75	77.24
601.91	112.35
602.06	77.24
602.22	67.88
602.37	77.24
602.53	79.58
602.69	39.79
602.84	60.85
603.00	0.00
603.16	88.94
603.31	44.47
603.47	49.15
603.62	46.81
603.78	102.98
603.94	86.60
604.09	102.98
604.25	58.51
604.40	0.00
604.56	51.49
604.71	42.13
604.87	84.26
605.03	16.38
605.18	77.24
605.34	112.35
605.49	93.62
605.65	93.62
605.80	124.05
605.96	70.22
606.12	42.13
606.27	100.64
606.43	86.60
606.58	117.03
606.74	56.17
606.89	131.07
607.05	79.58
607.20	60.85
607.36	86.60
607.51	93.62
607.67	102.98
607.82	121.71
607.98	91.28
608.13	102.98
608.29	32.77
608.44	16.38
608.60	53.83
608.75	98.30
608.91	63.19
609.06	81.92
609.22	98.30
609.37	98.30
609.53	65.54
609.68	74.90
609.84	91.28
609.99	72.56
610.15	70.22
610.30	51.49
610.46	88.94
610.61	18.72
610.76	105.32
610.92	11.70
611.07	32.77
611.23	42.13
611.38	51.49
611.54	67.88
611.69	0.00
611.84	63.19
612.00	81.92
612.15	74.90
612.31	88.94
612.46	53.83
612.62	63.19
612.77	67.88
612.92	51.49
613.08	81.92
613.23	39.79
613.39	0.00
613.54	93.62
613.69	74.90
613.85	25.75
614.00	56.17
614.15	70.22
614.31	84.26
614.46	23.41
614.62	39.79
614.77	88.94
614.92	138.09
615.08	14.04
615.23	11.70
615.38	56.17
615.54	128.73
615.69	65.54
615.84	0.00
616.00	37.45
616.15	30.43
616.30	58.51
616.46	112.35
616.61	70.22
616.76	58.51
616.92	121.71
617.07	18.72
617.22	81.92
617.37	74.90
617.53	37.45
617.68	21.06
617.83	112.35
617.99	86.60
618.14	81.92
618.29	49.15
618.45	35.11
618.60	56.17
618.75	9.36
618.90	117.03
619.06	14.04
619.21	65.54
619.36	56.17
619.51	46.81
619.67	67.88
619.82	49.15
619.97	56.17
620.12	84.26
620.28	93.62
620.43	51.49
620.58	4.68
620.73	16.38
620.89	86.60
621.04	65.54
621.19	49.15
621.34	35.11
621.49	28.09
621.65	46.81
621.80	77.24
621.95	124.05
622.10	58.51
622.25	63.19
622.41	46.81
622.56	44.47
622.71	0.00
622.86	161.50
623.01	46.81
623.16	65.54
623.32	81.92
623.47	60.85
623.62	0.00
623.77	53.83
623.92	7.02
624.07	74.90
624.23	117.03
624.38	77.24
624.53	35.11
624.68	70.22
624.83	9.36
624.98	56.17
625.13	70.22
625.29	53.83
625.44	84.26
625.59	81.92
625.74	42.13
625.89	88.94
626.04	23.41
626.19	53.83
626.34	114.69
626.49	95.96
626.65	84.26
626.80	117.03
626.95	79.58
627.10	0.00
627.25	35.11
627.40	140.43
627.55	77.24
627.70	102.98
627.85	91.28
628.00	0.00
628.15	16.38
628.30	2.34
628.45	56.17
628.60	72.56
628.76	84.26
628.91	42.13
629.06	14.04
629.21	102.98
629.36	63.19
629.51	58.51
629.66	25.75
629.81	102.98
629.96	72.56
630.11	63.19
630.26	110.01
630.41	84.26
630.56	98.30
630.71	81.92
630.86	121.71
631.01	25.75
631.16	49.15
631.31	37.45
631.46	107.66
631.61	51.49
631.76	81.92
631.91	84.26
632.06	53.83
632.21	65.54
632.36	56.17
632.51	32.77
632.66	112.35
632.81	67.88
632.96	105.32
633.10	39.79
633.25	37.45
633.40	21.06
633.55	95.96
633.70	21.06
633.85	105.32
634.00	37.45
634.15	32.77
634.30	46.81
634.45	56.17
634.60	32.77
634.75	32.77
634.90	91.28
635.05	44.47
635.19	21.06
635.34	39.79
635.49	70.22
635.64	91.28
635.79	98.30
635.94	138.09
636.09	93.62
636.24	58.51
636.39	53.83
636.53	63.19
636.68	67.88
636.83	63.19
636.98	42.13
637.13	110.01
637.28	53.83
637.43	63.19
637.57	105.32
637.72	91.28
637.87	25.75
638.02	28.09
638.17	30.43
638.32	53.83
638.46	23.41
638.61	46.81
638.76	37.45
638.91	93.62
639.06	84.26
639.20	0.00
639.35	14.04
639.50	145.11
639.65	117.03
639.80	18.72
639.94	21.06
640.09	58.51
640.24	39.79
640.39	39.79
640.54	9.36
640.68	21.06
640.83	77.24
640.98	128.73
641.13	30.43
641.27	37.45
641.42	51.49
641.57	77.24
641.72	65.54
641.86	95.96
642.01	98.30
642.16	65.54
642.31	77.24
642.45	81.92
642.60	79.58
642.75	58.51
642.90	51.49
643.04	28.09
643.19	112.35
643.34	53.83
643.48	84.26
643.63	70.22
643.78	37.45
643.93	28.09
644.07	91.28
644.22	7.02
644.37	126.39
644.51	0.00
644.66	65.54
644.81	126.39
644.95	32.77
645.10	98.30
645.25	81.92
645.39	39.79
645.54	53.83
645.69	51.49
645.83	105.32
645.98	49.15
646.13	44.47
646.27	53.83
646.42	126.39
646.57	161.50
646.71	56.17
646.86	14.04
647.00	79.58
647.15	39.79
647.30	14.04
647.44	0.00
647.59	60.85
647.74	16.38
647.88	2.34
648.03	46.81
648.17	77.24
648.32	2.34
648.47	28.09
648.61	0.00
648.76	86.60
648.90	114.69
649.05	35.11
649.20	84.26
649.34	81.92
649.49	51.49
649.63	67.88
649.78	39.79
649.92	105.32
650.07	39.79
650.21	65.54
650.36	25.75
650.51	0.00
650.65	23.41
650.80	0.00
650.94	0.00
651.09	65.54
651.23	44.47
651.38	14.04
651.52	67.88
651.67	84.26
651.81	126.39
651.96	98.30
652.10	110.01
652.25	16.38
652.39	72.56
652.54	201.29
652.68	67.88
652.83	53.83
652.97	4.68
653.12	30.43
653.26	77.24
653.41	74.90
653.55	91.28
653.70	67.88
653.84	30.43
653.99	107.66
654.13	46.81
654.27	138.09
654.42	91.28
654.56	35.11
654.71	72.56
654.85	42.13
655.00	44.47
655.14	46.81
655.29	67.88
655.43	117.03
655.57	79.58
655.72	102.98
655.86	37.45
656.01	35.11
656.15	7.02
656.30	84.26
656.44	84.26
656.58	37.45
656.73	72.56
656.87	72.56
657.01	81.92
657.16	81.92
657.30	58.51
657.45	0.00
657.59	23.41
657.73	56.17
657.88	63.19
658.02	100.64
658.16	67.88
658.31	23.41
658.45	28.09
658.60	95.96
658.74	37.45
658.88	63.19
659.03	46.81
659.17	28.09
659.31	60.85
659.46	51.49
659.60	98.30
659.74	44.47
659.89	88.94
660.03	81.92
660.17	0.00
660.32	49.15
660.46	60.85
660.60	25.75
660.74	49.15
660.89	63.19
661.03	81.92
661.17	0.00
661.32	56.17
661.46	53.83
661.60	112.35
661.74	105.32
661.89	51.49
662.03	88.94
662.17	18.72
662.31	102.98
662.46	93.62
662.60	65.54
662.74	77.24
662.88	21.06
663.03	81.92
663.17	56.17
663.31	51.49
663.45	67.88
663.60	39.79
663.74	16.38
663.88	77.24
664.02	51.49
664.17	102.98
664.31	86.60
664.45	56.17
664.59	81.92
664.73	91.28
664.88	37.45
665.02	0.00
665.16	72.56
665.30	46.81
665.44	65.54
665.59	74.90
665.73	28.09
665.87	124.05
666.01	70.22
666.15	65.54
666.29	79.58
666.44	105.32
666.58	70.22
666.72	0.00
666.86	35.11
667.00	7.02
667.14	37.45
667.28	131.07
667.43	112.35
667.57	63.19
667.71	100.64
667.85	14.04
667.99	44.47
668.13	42.13
668.27	37.45
668.41	72.56
668.56	88.94
668.70	58.51
668.84	42.13
668.98	56.17
669.12	28.09
669.26	58.51
669.40	58.51
669.54	60.85
669.68	60.85
669.82	23.41
669.96	21.06
670.10	81.92
670.25	0.00
670.39	51.49
670.53	14.04
670.67	46.81
670.81	0.00
670.95	23.41
671.09	11.70
671.23	107.66
671.37	81.92
671.51	0.00
671.65	9.36
671.79	44.47
671.93	2.34
672.07	60.85
672.21	14.04
672.35	0.00
672.49	23.41
672.63	91.28
672.77	28.09
672.91	35.11
673.05	72.56
673.19	0.00
673.33	4.68
673.47	105.32
673.61	42.13
673.75	86.60
673.89	28.09
674.03	21.06
674.17	39.79
674.31	23.41
674.45	63.19
674.59	42.13
674.73	145.11
674.87	42.13
675.01	42.13
675.15	67.88
675.29	93.62
675.43	0.00
675.56	18.72
675.70	42.13
675.84	74.90
675.98	79.58
676.12	0.00
676.26	110.01
676.40	28.09
676.54	37.45
676.68	23.41
676.82	49.15
676.96	98.30
677.10	0.00
677.23	37.45
677.37	9.36
677.51	0.00
677.65	124.05
677.79	128.73
677.93	0.00
678.07	65.54
678.21	7.02
678.34	9.36
678.48	25.75
678.62	46.81
678.76	25.75
678.90	74.90
679.04	51.49
679.18	39.79
679.31	16.38
679.45	65.54
679.59	86.60
679.73	140.43
679.87	67.88
680.00	77.24
680.14	32.77
680.28	0.00
680.42	84.26
680.56	37.45
680.70	23.41
680.83	58.51
680.97	88.94
681.11	110.01
681.25	70.22
681.39	0.00
681.52	11.70
681.66	21.06
681.80	0.00
681.94	72.56
682.07	23.41
682.21	112.35
682.35	39.79
682.49	4.68
682.62	0.00
682.76	28.09
682.90	0.00
683.04	21.06
683.17	105.32
683.31	0.00
683.45	72.56
683.59	95.96
683.72	51.49
683.86	42.13
684.00	16.38
684.13	63.19
684.27	84.26
684.41	21.06
684.55	7.02
684.68	60.85
684.82	58.51
684.96	39.79
685.09	63.19
685.23	0.00
685.37	49.15
685.50	0.00
685.64	14.04
685.78	60.85
685.91	65.54
686.05	9.36
686.19	14.04
686.32	67.88
686.46	77.24
686.60	4.68
686.73	102.98
686.87	91.28
687.01	35.11
687.14	37.45
687.28	91.28
687.42	44.47
687.55	35.11
687.69	63.19
687.82	14.04
687.96	30.43
688.10	18.72
688.23	49.15
688.37	100.64
688.50	11.70
688.64	70.22
688.78	58.51
688.91	86.60
689.05	44.47
689.18	56.17
689.32	100.64
689.46	9.36
689.59	65.54
689.73	95.96
689.86	16.38
690.00	67.88
690.13	0.00
690.27	32.77
690.41	70.22
690.54	11.70
690.68	37.45
690.81	16.38
690.95	0.00
691.08	2.34
691.22	70.22
691.35	117.03
691.49	51.49
691.62	60.85
691.76	35.11
691.89	28.09
692.03	0.00
692.16	9.36
692.30	0.00
692.43	110.01
692.57	65.54
692.70	65.54
692.84	70.22
692.97	0.00
693.11	0.00
693.24	0.00
693.38	28.09
693.51	86.60
693.65	46.81
693.78	0.00
693.92	88.94
694.05	11.70
694.19	25.75
694.32	74.90
694.45	98.30
694.59	42.13
694.72	0.00
694.86	32.77
694.99	39.79
695.13	37.45
695.26	117.03
695.39	7.02
695.53	53.83
695.66	51.49
695.80	39.79
695.93	23.41
696.07	23.41
696.20	51.49
696.33	46.81
696.47	37.45
696.60	25.75
696.73	53.83
696.87	70.22
697.00	35.11
697.14	79.58
697.27	112.35
697.40	7.02
697.54	21.06
697.67	0.00
697.80	0.00
697.94	23.41
698.07	65.54
698.21	11.70
698.34	42.13
698.47	23.41
698.61	49.15
698.74	107.66
698.87	30.43
699.01	14.04
699.14	79.58
699.27	58.51
699.40	56.17
699.54	18.72
699.67	79.58
699.80	100.64
699.94	0.00
700.07	60.85
700.20	70.22
700.34	65.54
700.47	7.02
700.60	0.00
700.73	67.88
700.87	93.62
701.00	39.79
701.13	0.00
701.26	11.70
701.40	0.00
701.53	0.00
701.66	74.90
701.79	0.00
701.93	72.56
702.06	25.75
702.19	74.90
702.32	0.00
702.46	7.02
702.59	107.66
702.72	0.00
702.85	72.56
702.99	0.00
703.12	0.00
703.25	23.41
703.38	0.00
703.51	44.47
703.65	0.00
703.78	42.13
703.91	14.04
704.04	21.06
704.17	46.81
704.31	0.00
704.44	53.83
704.57	32.77
704.70	35.11
704.83	0.00
704.96	51.49
705.10	72.56
705.23	0.00
>>>>>End Processed Spectral Data<<<<<
