SpectraSuite Data File
++++++++++++++++++++++++++++++++++++
Date: Fri Oct 04 12:13:24 GMT-05:00 2013
User: price-jones
Dark Spectrum Present: No
Reference Spectrum Present: No
Number of Sampled Component Spectra: 1
Spectrometers: USB2+H05261
Integration Time (usec): 10000 (USB2+H05261)
Spectra Averaged: 1 (USB2+H05261)
Boxcar Smoothing: 0 (USB2+H05261)
Correct for Electrical Dark: No (USB2+H05261)
Strobe/Lamp Enabled: No (USB2+H05261)
Correct for Detector Non-linearity: No (USB2+H05261)
Correct for Stray Light: No (USB2+H05261)
Number of Pixels in Processed Spectrum: 2048
>>>>>Begin Processed Spectral Data<<<<<
365.73	14.04
365.92	14.04
366.12	14.04
366.32	0.00
366.52	0.00
366.72	0.00
366.91	0.00
367.11	0.00
367.31	0.00
367.51	0.00
367.70	0.00
367.90	0.00
368.10	0.00
368.30	0.00
368.49	0.00
368.69	0.00
368.89	0.00
369.09	0.00
369.28	0.00
369.48	0.00
369.68	0.00
369.87	0.00
370.07	0.00
370.27	0.00
370.47	0.00
370.66	0.00
370.86	0.00
371.06	0.00
371.25	23.41
371.45	0.00
371.65	0.00
371.84	0.00
372.04	0.00
372.24	18.72
372.44	0.00
372.63	0.00
372.83	0.00
373.03	84.26
373.22	56.17
373.42	86.60
373.62	37.45
373.81	9.36
374.01	72.56
374.21	28.09
374.40	28.09
374.60	21.06
374.79	0.00
374.99	37.45
375.19	21.06
375.38	28.09
375.58	58.51
375.78	30.43
375.97	39.79
376.17	0.00
376.37	28.09
376.56	0.00
376.76	88.94
376.95	0.00
377.15	56.17
377.35	65.54
377.54	42.13
377.74	46.81
377.93	105.32
378.13	37.45
378.33	4.68
378.52	14.04
378.72	102.98
378.91	9.36
379.11	0.00
379.31	16.38
379.50	0.00
379.70	23.41
379.89	35.11
380.09	21.06
380.28	0.00
380.48	39.79
380.68	23.41
380.87	16.38
381.07	0.00
381.26	7.02
381.46	4.68
381.65	0.00
381.85	39.79
382.04	25.75
382.24	39.79
382.43	0.00
382.63	0.00
382.83	7.02
383.02	11.70
383.22	0.00
383.41	0.00
383.61	49.15
383.80	4.68
384.00	0.00
384.19	0.00
384.39	16.38
384.58	98.30
384.78	0.00
384.97	0.00
385.17	0.00
385.36	0.00
385.56	51.49
385.75	0.00
385.95	72.56
386.14	18.72
386.34	16.38
386.53	53.83
386.72	0.00
386.92	0.00
387.11	32.77
387.31	0.00
387.50	14.04
387.70	44.47
387.89	35.11
388.09	30.43
388.28	9.36
388.48	28.09
388.67	0.00
388.86	51.49
389.06	23.41
389.25	93.62
389.45	35.11
389.64	49.15
389.84	23.41
390.03	30.43
390.22	0.00
390.42	0.00
390.61	23.41
390.81	25.75
391.00	30.43
391.19	63.19
391.39	9.36
391.58	72.56
391.78	0.00
391.97	0.00
392.16	4.68
392.36	53.83
392.55	25.75
392.75	0.00
392.94	35.11
393.13	42.13
393.33	32.77
393.52	46.81
393.71	9.36
393.91	70.22
394.10	0.00
394.29	0.00
394.49	21.06
394.68	44.47
394.88	0.00
395.07	53.83
395.26	11.70
395.46	0.00
395.65	81.92
395.84	56.17
396.04	0.00
396.23	121.71
396.42	56.17
396.62	63.19
396.81	0.00
397.00	14.04
397.19	49.15
397.39	39.79
397.58	53.83
397.77	42.13
397.97	44.47
398.16	0.00
398.35	39.79
398.55	79.58
398.74	18.72
398.93	74.90
399.12	18.72
399.32	53.83
399.51	0.00
399.70	0.00
399.90	18.72
400.09	18.72
400.28	0.00
400.47	42.13
400.67	4.68
400.86	32.77
401.05	18.72
401.24	0.00
401.44	42.13
401.63	0.00
401.82	28.09
402.01	0.00
402.21	0.00
402.40	0.00
402.59	4.68
402.78	39.79
402.97	39.79
403.17	91.28
403.36	28.09
403.55	25.75
403.74	74.90
403.93	46.81
404.13	32.77
404.32	9.36
404.51	0.00
404.70	23.41
404.89	16.38
405.09	58.51
405.28	25.75
405.47	0.00
405.66	37.45
405.85	44.47
406.05	16.38
406.24	49.15
406.43	37.45
406.62	2.34
406.81	0.00
407.00	35.11
407.20	0.00
407.39	42.13
407.58	0.00
407.77	46.81
407.96	18.72
408.15	0.00
408.34	14.04
408.54	14.04
408.73	60.85
408.92	18.72
409.11	42.13
409.30	28.09
409.49	0.00
409.68	49.15
409.87	0.00
410.07	74.90
410.26	0.00
410.45	11.70
410.64	30.43
410.83	11.70
411.02	46.81
411.21	0.00
411.40	2.34
411.59	98.30
411.78	4.68
411.98	91.28
412.17	0.00
412.36	0.00
412.55	42.13
412.74	21.06
412.93	0.00
413.12	14.04
413.31	0.00
413.50	86.60
413.69	28.09
413.88	0.00
414.07	4.68
414.26	0.00
414.45	4.68
414.64	32.77
414.83	86.60
415.02	44.47
415.22	0.00
415.41	42.13
415.60	91.28
415.79	58.51
415.98	28.09
416.17	46.81
416.36	25.75
416.55	0.00
416.74	67.88
416.93	16.38
417.12	18.72
417.31	23.41
417.50	72.56
417.69	14.04
417.88	63.19
418.07	65.54
418.26	77.24
418.45	60.85
418.64	77.24
418.83	0.00
419.02	74.90
419.21	0.00
419.39	117.03
419.58	0.00
419.77	53.83
419.96	14.04
420.15	56.17
420.34	7.02
420.53	0.00
420.72	4.68
420.91	25.75
421.10	56.17
421.29	35.11
421.48	0.00
421.67	0.00
421.86	32.77
422.05	79.58
422.24	70.22
422.43	14.04
422.61	0.00
422.80	0.00
422.99	44.47
423.18	23.41
423.37	46.81
423.56	124.05
423.75	4.68
423.94	0.00
424.13	32.77
424.32	56.17
424.50	21.06
424.69	67.88
424.88	28.09
425.07	72.56
425.26	42.13
425.45	70.22
425.64	11.70
425.83	86.60
426.01	0.00
426.20	0.00
426.39	0.00
426.58	114.69
426.77	53.83
426.96	4.68
427.15	44.47
427.33	0.00
427.52	63.19
427.71	0.00
427.90	23.41
428.09	32.77
428.28	65.54
428.46	53.83
428.65	39.79
428.84	58.51
429.03	84.26
429.22	32.77
429.40	39.79
429.59	28.09
429.78	25.75
429.97	44.47
430.16	2.34
430.34	21.06
430.53	46.81
430.72	16.38
430.91	65.54
431.10	23.41
431.28	32.77
431.47	67.88
431.66	21.06
431.85	37.45
432.03	93.62
432.22	51.49
432.41	14.04
432.60	0.00
432.79	44.47
432.97	0.00
433.16	0.00
433.35	25.75
433.54	0.00
433.72	0.00
433.91	0.00
434.10	58.51
434.28	65.54
434.47	16.38
434.66	84.26
434.85	0.00
435.03	77.24
435.22	11.70
435.41	18.72
435.59	51.49
435.78	14.04
435.97	25.75
436.16	65.54
436.34	18.72
436.53	4.68
436.72	70.22
436.90	32.77
437.09	102.98
437.28	11.70
437.46	16.38
437.65	65.54
437.84	60.85
438.02	14.04
438.21	14.04
438.40	25.75
438.58	23.41
438.77	39.79
438.96	9.36
439.14	35.11
439.33	25.75
439.52	25.75
439.70	58.51
439.89	23.41
440.08	25.75
440.26	25.75
440.45	11.70
440.63	28.09
440.82	14.04
441.01	32.77
441.19	0.00
441.38	18.72
441.57	0.00
441.75	72.56
441.94	42.13
442.12	81.92
442.31	0.00
442.50	11.70
442.68	14.04
442.87	0.00
443.05	14.04
443.24	0.00
443.43	2.34
443.61	16.38
443.80	65.54
443.98	51.49
444.17	11.70
444.35	46.81
444.54	39.79
444.73	88.94
444.91	30.43
445.10	2.34
445.28	21.06
445.47	37.45
445.65	0.00
445.84	70.22
446.02	35.11
446.21	23.41
446.39	0.00
446.58	35.11
446.77	0.00
446.95	0.00
447.14	49.15
447.32	0.00
447.51	28.09
447.69	18.72
447.88	65.54
448.06	28.09
448.25	32.77
448.43	0.00
448.62	37.45
448.80	72.56
448.99	18.72
449.17	60.85
449.36	30.43
449.54	42.13
449.73	11.70
449.91	58.51
450.10	0.00
450.28	14.04
450.46	58.51
450.65	107.66
450.83	74.90
451.02	9.36
451.20	32.77
451.39	79.58
451.57	37.45
451.76	65.54
451.94	37.45
452.13	98.30
452.31	39.79
452.49	37.45
452.68	0.00
452.86	77.24
453.05	18.72
453.23	37.45
453.42	37.45
453.60	42.13
453.78	53.83
453.97	46.81
454.15	0.00
454.34	0.00
454.52	35.11
454.70	98.30
454.89	9.36
455.07	0.00
455.26	0.00
455.44	0.00
455.62	0.00
455.81	51.49
455.99	42.13
456.17	2.34
456.36	9.36
456.54	0.00
456.73	0.00
456.91	91.28
457.09	0.00
457.28	72.56
457.46	65.54
457.64	81.92
457.83	2.34
458.01	65.54
458.19	0.00
458.38	0.00
458.56	0.00
458.74	46.81
458.93	51.49
459.11	56.17
459.29	18.72
459.48	0.00
459.66	0.00
459.84	46.81
460.03	65.54
460.21	35.11
460.39	42.13
460.57	30.43
460.76	0.00
460.94	74.90
461.12	9.36
461.31	28.09
461.49	32.77
461.67	46.81
461.85	74.90
462.04	32.77
462.22	60.85
462.40	4.68
462.59	60.85
462.77	14.04
462.95	35.11
463.13	2.34
463.32	21.06
463.50	67.88
463.68	53.83
463.86	14.04
464.05	46.81
464.23	11.70
464.41	30.43
464.59	39.79
464.78	49.15
464.96	18.72
465.14	4.68
465.32	25.75
465.50	21.06
465.69	46.81
465.87	21.06
466.05	9.36
466.23	18.72
466.41	0.00
466.60	51.49
466.78	95.96
466.96	0.00
467.14	46.81
467.32	39.79
467.51	77.24
467.69	35.11
467.87	0.00
468.05	84.26
468.23	23.41
468.41	32.77
468.60	70.22
468.78	11.70
468.96	9.36
469.14	14.04
469.32	0.00
469.50	0.00
469.69	0.00
469.87	28.09
470.05	60.85
470.23	37.45
470.41	0.00
470.59	0.00
470.77	0.00
470.95	2.34
471.14	32.77
471.32	102.98
471.50	0.00
471.68	18.72
471.86	58.51
472.04	53.83
472.22	18.72
472.40	72.56
472.58	0.00
472.77	42.13
472.95	0.00
473.13	42.13
473.31	14.04
473.49	0.00
473.67	7.02
473.85	42.13
474.03	9.36
474.21	9.36
474.39	56.17
474.57	42.13
474.75	0.00
474.93	60.85
475.12	42.13
475.30	0.00
475.48	63.19
475.66	0.00
475.84	100.64
476.02	77.24
476.20	56.17
476.38	49.15
476.56	72.56
476.74	0.00
476.92	67.88
477.10	35.11
477.28	49.15
477.46	56.17
477.64	37.45
477.82	65.54
478.00	18.72
478.18	56.17
478.36	91.28
478.54	30.43
478.72	2.34
478.90	37.45
479.08	16.38
479.26	72.56
479.44	44.47
479.62	42.13
479.80	46.81
479.98	65.54
480.16	74.90
480.34	91.28
480.52	0.00
480.70	46.81
480.88	35.11
481.06	4.68
481.24	95.96
481.41	42.13
481.59	56.17
481.77	0.00
481.95	95.96
482.13	0.00
482.31	18.72
482.49	9.36
482.67	114.69
482.85	77.24
483.03	42.13
483.21	23.41
483.39	74.90
483.57	65.54
483.74	77.24
483.92	0.00
484.10	25.75
484.28	65.54
484.46	98.30
484.64	28.09
484.82	30.43
485.00	4.68
485.18	37.45
485.35	42.13
485.53	81.92
485.71	16.38
485.89	84.26
486.07	81.92
486.25	18.72
486.43	121.71
486.61	14.04
486.78	0.00
486.96	44.47
487.14	72.56
487.32	74.90
487.50	39.79
487.68	51.49
487.85	58.51
488.03	25.75
488.21	44.47
488.39	35.11
488.57	77.24
488.75	0.00
488.92	81.92
489.10	60.85
489.28	39.79
489.46	0.00
489.64	9.36
489.81	0.00
489.99	23.41
490.17	14.04
490.35	32.77
490.53	72.56
490.70	23.41
490.88	77.24
491.06	32.77
491.24	25.75
491.41	42.13
491.59	30.43
491.77	42.13
491.95	88.94
492.13	53.83
492.30	46.81
492.48	77.24
492.66	74.90
492.84	16.38
493.01	0.00
493.19	86.60
493.37	0.00
493.54	0.00
493.72	60.85
493.90	53.83
494.08	30.43
494.25	58.51
494.43	0.00
494.61	105.32
494.79	16.38
494.96	105.32
495.14	53.83
495.32	4.68
495.49	28.09
495.67	0.00
495.85	72.56
496.02	0.00
496.20	60.85
496.38	4.68
496.55	18.72
496.73	0.00
496.91	133.41
497.09	72.56
497.26	2.34
497.44	53.83
497.62	32.77
497.79	25.75
497.97	58.51
498.14	126.39
498.32	46.81
498.50	37.45
498.67	16.38
498.85	21.06
499.03	74.90
499.20	9.36
499.38	65.54
499.56	49.15
499.73	23.41
499.91	7.02
500.08	0.00
500.26	21.06
500.44	91.28
500.61	53.83
500.79	42.13
500.97	7.02
501.14	0.00
501.32	0.00
501.49	88.94
501.67	35.11
501.84	42.13
502.02	23.41
502.20	0.00
502.37	0.00
502.55	11.70
502.72	25.75
502.90	0.00
503.07	28.09
503.25	74.90
503.43	21.06
503.60	79.58
503.78	46.81
503.95	9.36
504.13	4.68
504.30	37.45
504.48	18.72
504.65	51.49
504.83	0.00
505.01	60.85
505.18	25.75
505.36	2.34
505.53	0.00
505.71	72.56
505.88	44.47
506.06	0.00
506.23	0.00
506.41	39.79
506.58	37.45
506.76	60.85
506.93	63.19
507.11	30.43
507.28	39.79
507.46	21.06
507.63	7.02
507.81	74.90
507.98	49.15
508.16	42.13
508.33	46.81
508.50	42.13
508.68	0.00
508.85	86.60
509.03	7.02
509.20	4.68
509.38	0.00
509.55	51.49
509.73	11.70
509.90	84.26
510.08	93.62
510.25	35.11
510.42	60.85
510.60	56.17
510.77	67.88
510.95	35.11
511.12	39.79
511.30	42.13
511.47	51.49
511.64	53.83
511.82	0.00
511.99	0.00
512.17	9.36
512.34	56.17
512.51	0.00
512.69	37.45
512.86	60.85
513.04	37.45
513.21	39.79
513.38	32.77
513.56	84.26
513.73	4.68
513.90	44.47
514.08	23.41
514.25	30.43
514.43	79.58
514.60	30.43
514.77	39.79
514.95	51.49
515.12	9.36
515.29	16.38
515.47	70.22
515.64	0.00
515.81	37.45
515.99	70.22
516.16	42.13
516.33	58.51
516.51	42.13
516.68	11.70
516.85	32.77
517.03	67.88
517.20	0.00
517.37	63.19
517.54	72.56
517.72	32.77
517.89	0.00
518.06	21.06
518.24	25.75
518.41	23.41
518.58	0.00
518.75	28.09
518.93	91.28
519.10	18.72
519.27	72.56
519.45	18.72
519.62	21.06
519.79	56.17
519.96	58.51
520.14	9.36
520.31	51.49
520.48	23.41
520.65	23.41
520.83	37.45
521.00	70.22
521.17	7.02
521.34	65.54
521.52	0.00
521.69	23.41
521.86	23.41
522.03	16.38
522.20	84.26
522.38	81.92
522.55	65.54
522.72	70.22
522.89	70.22
523.07	30.43
523.24	21.06
523.41	25.75
523.58	67.88
523.75	14.04
523.92	37.45
524.10	177.88
524.27	32.77
524.44	32.77
524.61	74.90
524.78	53.83
524.96	42.13
525.13	7.02
525.30	21.06
525.47	16.38
525.64	35.11
525.81	11.70
525.98	63.19
526.16	0.00
526.33	77.24
526.50	39.79
526.67	0.00
526.84	77.24
527.01	0.00
527.18	18.72
527.36	16.38
527.53	49.15
527.70	142.77
527.87	4.68
528.04	32.77
528.21	44.47
528.38	35.11
528.55	28.09
528.72	28.09
528.89	72.56
529.07	0.00
529.24	58.51
529.41	56.17
529.58	39.79
529.75	30.43
529.92	49.15
530.09	37.45
530.26	79.58
530.43	81.92
530.60	88.94
530.77	0.00
530.94	49.15
531.11	28.09
531.28	30.43
531.46	14.04
531.63	25.75
531.80	0.00
531.97	9.36
532.14	91.28
532.31	58.51
532.48	7.02
532.65	32.77
532.82	18.72
532.99	0.00
533.16	74.90
533.33	16.38
533.50	23.41
533.67	42.13
533.84	79.58
534.01	86.60
534.18	74.90
534.35	81.92
534.52	44.47
534.69	51.49
534.86	32.77
535.03	25.75
535.20	46.81
535.37	110.01
535.54	53.83
535.71	53.83
535.88	51.49
536.05	30.43
536.22	84.26
536.38	39.79
536.55	32.77
536.72	0.00
536.89	30.43
537.06	16.38
537.23	9.36
537.40	39.79
537.57	11.70
537.74	4.68
537.91	53.83
538.08	0.00
538.25	81.92
538.42	25.75
538.59	53.83
538.75	138.09
538.92	39.79
539.09	35.11
539.26	4.68
539.43	18.72
539.60	21.06
539.77	44.47
539.94	44.47
540.11	65.54
540.28	44.47
540.44	0.00
540.61	0.00
540.78	0.00
540.95	44.47
541.12	28.09
541.29	32.77
541.46	105.32
541.62	30.43
541.79	16.38
541.96	105.32
542.13	18.72
542.30	16.38
542.47	16.38
542.63	56.17
542.80	23.41
542.97	30.43
543.14	23.41
543.31	56.17
543.48	14.04
543.64	70.22
543.81	112.35
543.98	0.00
544.15	114.69
544.32	56.17
544.48	11.70
544.65	37.45
544.82	11.70
544.99	74.90
545.16	49.15
545.32	56.17
545.49	49.15
545.66	60.85
545.83	58.51
546.00	86.60
546.16	95.96
546.33	70.22
546.50	0.00
546.67	65.54
546.83	65.54
547.00	70.22
547.17	53.83
547.34	81.92
547.50	32.77
547.67	9.36
547.84	7.02
548.00	0.00
548.17	9.36
548.34	51.49
548.51	32.77
548.67	79.58
548.84	28.09
549.01	21.06
549.18	7.02
549.34	28.09
549.51	53.83
549.68	28.09
549.84	18.72
550.01	88.94
550.18	7.02
550.34	46.81
550.51	32.77
550.68	0.00
550.84	25.75
551.01	0.00
551.18	28.09
551.34	42.13
551.51	63.19
551.68	65.54
551.84	42.13
552.01	67.88
552.18	0.00
552.34	46.81
552.51	16.38
552.68	21.06
552.84	81.92
553.01	35.11
553.18	63.19
553.34	4.68
553.51	35.11
553.67	63.19
553.84	9.36
554.01	0.00
554.17	42.13
554.34	0.00
554.51	72.56
554.67	70.22
554.84	42.13
555.00	0.00
555.17	28.09
555.33	51.49
555.50	14.04
555.67	112.35
555.83	42.13
556.00	0.00
556.16	79.58
556.33	110.01
556.50	63.19
556.66	0.00
556.83	51.49
556.99	7.02
557.16	0.00
557.32	0.00
557.49	37.45
557.65	25.75
557.82	93.62
557.98	11.70
558.15	56.17
558.32	0.00
558.48	37.45
558.65	23.41
558.81	0.00
558.98	35.11
559.14	23.41
559.31	65.54
559.47	21.06
559.64	0.00
559.80	100.64
559.97	23.41
560.13	131.07
560.30	72.56
560.46	53.83
560.63	32.77
560.79	0.00
560.96	49.15
561.12	16.38
561.29	0.00
561.45	63.19
561.61	23.41
561.78	46.81
561.94	65.54
562.11	21.06
562.27	65.54
562.44	30.43
562.60	110.01
562.77	0.00
562.93	58.51
563.10	42.13
563.26	79.58
563.42	67.88
563.59	14.04
563.75	0.00
563.92	81.92
564.08	18.72
564.24	14.04
564.41	30.43
564.57	2.34
564.74	74.90
564.90	0.00
565.07	46.81
565.23	42.13
565.39	65.54
565.56	16.38
565.72	0.00
565.88	35.11
566.05	39.79
566.21	21.06
566.38	44.47
566.54	72.56
566.70	28.09
566.87	65.54
567.03	14.04
567.19	0.00
567.36	0.00
567.52	65.54
567.68	110.01
567.85	0.00
568.01	100.64
568.17	65.54
568.34	11.70
568.50	70.22
568.66	63.19
568.83	42.13
568.99	39.79
569.15	60.85
569.32	28.09
569.48	93.62
569.64	0.00
569.81	91.28
569.97	0.00
570.13	9.36
570.30	58.51
570.46	11.70
570.62	16.38
570.78	51.49
570.95	39.79
571.11	0.00
571.27	35.11
571.43	25.75
571.60	18.72
571.76	98.30
571.92	44.47
572.09	60.85
572.25	39.79
572.41	131.07
572.57	4.68
572.74	28.09
572.90	0.00
573.06	70.22
573.22	14.04
573.38	21.06
573.55	70.22
573.71	0.00
573.87	39.79
574.03	9.36
574.20	37.45
574.36	21.06
574.52	81.92
574.68	0.00
574.84	28.09
575.01	0.00
575.17	86.60
575.33	46.81
575.49	51.49
575.65	35.11
575.82	70.22
575.98	79.58
576.14	2.34
576.30	42.13
576.46	0.00
576.62	67.88
576.79	0.00
576.95	32.77
577.11	133.41
577.27	39.79
577.43	65.54
577.59	18.72
577.75	11.70
577.92	0.00
578.08	44.47
578.24	91.28
578.40	37.45
578.56	60.85
578.72	74.90
578.88	25.75
579.04	105.32
579.21	110.01
579.37	72.56
579.53	25.75
579.69	0.00
579.85	72.56
580.01	0.00
580.17	16.38
580.33	63.19
580.49	2.34
580.65	0.00
580.82	30.43
580.98	63.19
581.14	37.45
581.30	84.26
581.46	58.51
581.62	37.45
581.78	112.35
581.94	16.38
582.10	72.56
582.26	0.00
582.42	0.00
582.58	84.26
582.74	37.45
582.90	35.11
583.06	30.43
583.22	0.00
583.38	0.00
583.54	18.72
583.70	65.54
583.86	49.15
584.02	56.17
584.18	0.00
584.34	51.49
584.50	4.68
584.66	30.43
584.82	23.41
584.98	0.00
585.14	2.34
585.30	2.34
585.46	25.75
585.62	23.41
585.78	53.83
585.94	0.00
586.10	0.00
586.26	0.00
586.42	0.00
586.58	0.00
586.74	56.17
586.90	9.36
587.06	0.00
587.22	16.38
587.38	14.04
587.54	0.00
587.70	72.56
587.86	32.77
588.02	42.13
588.18	60.85
588.34	14.04
588.49	32.77
588.65	0.00
588.81	51.49
588.97	37.45
589.13	0.00
589.29	95.96
589.45	42.13
589.61	35.11
589.77	9.36
589.93	21.06
590.08	60.85
590.24	11.70
590.40	30.43
590.56	32.77
590.72	49.15
590.88	25.75
591.04	51.49
591.20	44.47
591.35	49.15
591.51	7.02
591.67	7.02
591.83	42.13
591.99	0.00
592.15	72.56
592.31	39.79
592.46	56.17
592.62	110.01
592.78	81.92
592.94	72.56
593.10	46.81
593.26	60.85
593.41	102.98
593.57	0.00
593.73	0.00
593.89	14.04
594.05	114.69
594.20	25.75
594.36	18.72
594.52	16.38
594.68	51.49
594.84	65.54
594.99	23.41
595.15	100.64
595.31	44.47
595.47	39.79
595.62	53.83
595.78	2.34
595.94	46.81
596.10	79.58
596.25	37.45
596.41	28.09
596.57	39.79
596.73	21.06
596.88	42.13
597.04	23.41
597.20	0.00
597.36	49.15
597.51	4.68
597.67	42.13
597.83	2.34
597.99	46.81
598.14	14.04
598.30	65.54
598.46	0.00
598.61	25.75
598.77	28.09
598.93	51.49
599.09	70.22
599.24	23.41
599.40	42.13
599.56	42.13
599.71	42.13
599.87	46.81
600.03	0.00
600.18	0.00
600.34	117.03
600.50	39.79
600.65	0.00
600.81	84.26
600.97	25.75
601.12	4.68
601.28	0.00
601.44	44.47
601.59	51.49
601.75	0.00
601.91	25.75
602.06	49.15
602.22	60.85
602.37	49.15
602.53	37.45
602.69	18.72
602.84	49.15
603.00	74.90
603.16	51.49
603.31	81.92
603.47	56.17
603.62	53.83
603.78	7.02
603.94	7.02
604.09	0.00
604.25	25.75
604.40	32.77
604.56	70.22
604.71	25.75
604.87	58.51
605.03	46.81
605.18	37.45
605.34	23.41
605.49	84.26
605.65	70.22
605.80	74.90
605.96	21.06
606.12	72.56
606.27	135.75
606.43	21.06
606.58	110.01
606.74	14.04
606.89	16.38
607.05	70.22
607.20	28.09
607.36	0.00
607.51	30.43
607.67	0.00
607.82	105.32
607.98	91.28
608.13	58.51
608.29	67.88
608.44	37.45
608.60	88.94
608.75	4.68
608.91	16.38
609.06	32.77
609.22	4.68
609.37	72.56
609.53	18.72
609.68	42.13
609.84	56.17
609.99	91.28
610.15	72.56
610.30	74.90
610.46	0.00
610.61	67.88
610.76	23.41
610.92	9.36
611.07	67.88
611.23	39.79
611.38	42.13
611.54	67.88
611.69	37.45
611.84	42.13
612.00	49.15
612.15	28.09
612.31	14.04
612.46	35.11
612.62	0.00
612.77	0.00
612.92	0.00
613.08	0.00
613.23	65.54
613.39	11.70
613.54	77.24
613.69	88.94
613.85	46.81
614.00	56.17
614.15	46.81
614.31	18.72
614.46	63.19
614.62	37.45
614.77	21.06
614.92	79.58
615.08	18.72
615.23	46.81
615.38	65.54
615.54	53.83
615.69	0.00
615.84	28.09
616.00	70.22
616.15	28.09
616.30	0.00
616.46	0.00
616.61	95.96
616.76	32.77
616.92	23.41
617.07	30.43
617.22	30.43
617.37	0.00
617.53	2.34
617.68	28.09
617.83	0.00
617.99	0.00
618.14	58.51
618.29	49.15
618.45	11.70
618.60	70.22
618.75	102.98
618.90	42.13
619.06	25.75
619.21	42.13
619.36	86.60
619.51	100.64
619.67	0.00
619.82	51.49
619.97	16.38
620.12	0.00
620.28	0.00
620.43	11.70
620.58	0.00
620.73	39.79
620.89	9.36
621.04	37.45
621.19	14.04
621.34	74.90
621.49	21.06
621.65	46.81
621.80	28.09
621.95	0.00
622.10	42.13
622.25	0.00
622.41	110.01
622.56	35.11
622.71	35.11
622.86	44.47
623.01	0.00
623.16	18.72
623.32	56.17
623.47	11.70
623.62	18.72
623.77	0.00
623.92	28.09
624.07	14.04
624.23	30.43
624.38	44.47
624.53	18.72
624.68	35.11
624.83	86.60
624.98	56.17
625.13	77.24
625.29	49.15
625.44	0.00
625.59	53.83
625.74	77.24
625.89	11.70
626.04	42.13
626.19	0.00
626.34	0.00
626.49	23.41
626.65	53.83
626.80	98.30
626.95	100.64
627.10	65.54
627.25	4.68
627.40	0.00
627.55	0.00
627.70	44.47
627.85	9.36
628.00	35.11
628.15	86.60
628.30	53.83
628.45	0.00
628.60	58.51
628.76	16.38
628.91	0.00
629.06	53.83
629.21	14.04
629.36	25.75
629.51	0.00
629.66	77.24
629.81	65.54
629.96	16.38
630.11	21.06
630.26	42.13
630.41	28.09
630.56	35.11
630.71	35.11
630.86	37.45
631.01	30.43
631.16	37.45
631.31	42.13
631.46	79.58
631.61	56.17
631.76	44.47
631.91	32.77
632.06	67.88
632.21	117.03
632.36	42.13
632.51	7.02
632.66	21.06
632.81	39.79
632.96	100.64
633.10	60.85
633.25	0.00
633.40	56.17
633.55	42.13
633.70	0.00
633.85	39.79
634.00	65.54
634.15	28.09
634.30	39.79
634.45	23.41
634.60	95.96
634.75	0.00
634.90	117.03
635.05	18.72
635.19	51.49
635.34	0.00
635.49	88.94
635.64	79.58
635.79	39.79
635.94	0.00
636.09	44.47
636.24	35.11
636.39	9.36
636.53	28.09
636.68	44.47
636.83	37.45
636.98	56.17
637.13	37.45
637.28	35.11
637.43	7.02
637.57	7.02
637.72	0.00
637.87	11.70
638.02	0.00
638.17	0.00
638.32	63.19
638.46	44.47
638.61	0.00
638.76	39.79
638.91	2.34
639.06	37.45
639.20	11.70
639.35	42.13
639.50	11.70
639.65	7.02
639.80	37.45
639.94	2.34
640.09	56.17
640.24	67.88
640.39	63.19
640.54	0.00
640.68	21.06
640.83	37.45
640.98	35.11
641.13	46.81
641.27	14.04
641.42	2.34
641.57	84.26
641.72	42.13
641.86	0.00
642.01	35.11
642.16	42.13
642.31	16.38
642.45	117.03
642.60	37.45
642.75	121.71
642.90	81.92
643.04	21.06
643.19	44.47
643.34	11.70
643.48	32.77
643.63	16.38
643.78	21.06
643.93	67.88
644.07	0.00
644.22	37.45
644.37	72.56
644.51	35.11
644.66	37.45
644.81	11.70
644.95	105.32
645.10	37.45
645.25	23.41
645.39	56.17
645.54	0.00
645.69	0.00
645.83	18.72
645.98	0.00
646.13	0.00
646.27	4.68
646.42	56.17
646.57	30.43
646.71	0.00
646.86	51.49
647.00	53.83
647.15	14.04
647.30	0.00
647.44	60.85
647.59	32.77
647.74	56.17
647.88	49.15
648.03	0.00
648.17	37.45
648.32	70.22
648.47	93.62
648.61	18.72
648.76	0.00
648.90	46.81
649.05	53.83
649.20	67.88
649.34	95.96
649.49	11.70
649.63	37.45
649.78	60.85
649.92	11.70
650.07	32.77
650.21	93.62
650.36	28.09
650.51	53.83
650.65	32.77
650.80	2.34
650.94	9.36
651.09	0.00
651.23	7.02
651.38	9.36
651.52	74.90
651.67	63.19
651.81	0.00
651.96	32.77
652.10	86.60
652.25	4.68
652.39	0.00
652.54	84.26
652.68	46.81
652.83	67.88
652.97	2.34
653.12	58.51
653.26	4.68
653.41	100.64
653.55	81.92
653.70	70.22
653.84	39.79
653.99	0.00
654.13	14.04
654.27	65.54
654.42	4.68
654.56	14.04
654.71	9.36
654.85	0.00
655.00	0.00
655.14	81.92
655.29	110.01
655.43	0.00
655.57	0.00
655.72	25.75
655.86	23.41
656.01	84.26
656.15	0.00
656.30	81.92
656.44	37.45
656.58	0.00
656.73	46.81
656.87	65.54
657.01	30.43
657.16	37.45
657.30	23.41
657.45	9.36
657.59	44.47
657.73	0.00
657.88	21.06
658.02	51.49
658.16	18.72
658.31	25.75
658.45	93.62
658.60	23.41
658.74	51.49
658.88	126.39
659.03	18.72
659.17	72.56
659.31	0.00
659.46	11.70
659.60	28.09
659.74	42.13
659.89	0.00
660.03	35.11
660.17	74.90
660.32	95.96
660.46	86.60
660.60	28.09
660.74	0.00
660.89	86.60
661.03	0.00
661.17	0.00
661.32	84.26
661.46	44.47
661.60	23.41
661.74	11.70
661.89	16.38
662.03	2.34
662.17	4.68
662.31	16.38
662.46	65.54
662.60	18.72
662.74	2.34
662.88	25.75
663.03	18.72
663.17	32.77
663.31	65.54
663.45	28.09
663.60	30.43
663.74	67.88
663.88	39.79
664.02	53.83
664.17	63.19
664.31	9.36
664.45	4.68
664.59	0.00
664.73	9.36
664.88	21.06
665.02	0.00
665.16	21.06
665.30	46.81
665.44	0.00
665.59	46.81
665.73	14.04
665.87	11.70
666.01	0.00
666.15	25.75
666.29	25.75
666.44	63.19
666.58	39.79
666.72	77.24
666.86	88.94
667.00	39.79
667.14	42.13
667.28	0.00
667.43	0.00
667.57	114.69
667.71	56.17
667.85	14.04
667.99	74.90
668.13	70.22
668.27	0.00
668.41	11.70
668.56	0.00
668.70	60.85
668.84	18.72
668.98	11.70
669.12	16.38
669.26	44.47
669.40	0.00
669.54	86.60
669.68	67.88
669.82	51.49
669.96	23.41
670.10	42.13
670.25	93.62
670.39	16.38
670.53	28.09
670.67	0.00
670.81	39.79
670.95	67.88
671.09	23.41
671.23	49.15
671.37	74.90
671.51	42.13
671.65	84.26
671.79	39.79
671.93	0.00
672.07	7.02
672.21	28.09
672.35	39.79
672.49	63.19
672.63	35.11
672.77	4.68
672.91	0.00
673.05	0.00
673.19	39.79
673.33	37.45
673.47	0.00
673.61	53.83
673.75	72.56
673.89	0.00
674.03	18.72
674.17	46.81
674.31	0.00
674.45	0.00
674.59	0.00
674.73	4.68
674.87	0.00
675.01	25.75
675.15	30.43
675.29	100.64
675.43	0.00
675.56	0.00
675.70	81.92
675.84	0.00
675.98	0.00
676.12	0.00
676.26	67.88
676.40	23.41
676.54	7.02
676.68	0.00
676.82	46.81
676.96	0.00
677.10	23.41
677.23	28.09
677.37	53.83
677.51	0.00
677.65	44.47
677.79	46.81
677.93	14.04
678.07	51.49
678.21	42.13
678.34	14.04
678.48	30.43
678.62	56.17
678.76	0.00
678.90	93.62
679.04	0.00
679.18	98.30
679.31	2.34
679.45	0.00
679.59	67.88
679.73	65.54
679.87	11.70
680.00	49.15
680.14	4.68
680.28	77.24
680.42	102.98
680.56	4.68
680.70	65.54
680.83	30.43
680.97	37.45
681.11	18.72
681.25	37.45
681.39	39.79
681.52	77.24
681.66	0.00
681.80	51.49
681.94	67.88
682.07	18.72
682.21	114.69
682.35	21.06
682.49	49.15
682.62	63.19
682.76	30.43
682.90	0.00
683.04	25.75
683.17	42.13
683.31	25.75
683.45	0.00
683.59	81.92
683.72	11.70
683.86	32.77
684.00	0.00
684.13	25.75
684.27	0.00
684.41	0.00
684.55	44.47
684.68	0.00
684.82	21.06
684.96	32.77
685.09	0.00
685.23	51.49
685.37	44.47
685.50	30.43
685.64	86.60
685.78	49.15
685.91	30.43
686.05	0.00
686.19	79.58
686.32	32.77
686.46	86.60
686.60	30.43
686.73	0.00
686.87	28.09
687.01	0.00
687.14	0.00
687.28	37.45
687.42	14.04
687.55	42.13
687.69	46.81
687.82	23.41
687.96	28.09
688.10	23.41
688.23	72.56
688.37	49.15
688.50	49.15
688.64	70.22
688.78	28.09
688.91	42.13
689.05	0.00
689.18	9.36
689.32	32.77
689.46	21.06
689.59	63.19
689.73	81.92
689.86	28.09
690.00	30.43
690.13	7.02
690.27	4.68
690.41	28.09
690.54	35.11
690.68	77.24
690.81	84.26
690.95	0.00
691.08	0.00
691.22	0.00
691.35	49.15
691.49	60.85
691.62	7.02
691.76	0.00
691.89	11.70
692.03	28.09
692.16	46.81
692.30	42.13
692.43	0.00
692.57	42.13
692.70	58.51
692.84	51.49
692.97	81.92
693.11	0.00
693.24	16.38
693.38	21.06
693.51	0.00
693.65	9.36
693.78	63.19
693.92	49.15
694.05	86.60
694.19	44.47
694.32	60.85
694.45	53.83
694.59	60.85
694.72	11.70
694.86	46.81
694.99	49.15
695.13	25.75
695.26	30.43
695.39	25.75
695.53	0.00
695.66	4.68
695.80	0.00
695.93	56.17
696.07	0.00
696.20	86.60
696.33	0.00
696.47	72.56
696.60	21.06
696.73	53.83
696.87	72.56
697.00	0.00
697.14	25.75
697.27	58.51
697.40	7.02
697.54	21.06
697.67	72.56
697.80	88.94
697.94	32.77
698.07	7.02
698.21	44.47
698.34	0.00
698.47	16.38
698.61	0.00
698.74	56.17
698.87	23.41
699.01	51.49
699.14	30.43
699.27	23.41
699.40	74.90
699.54	58.51
699.67	60.85
699.80	46.81
699.94	70.22
700.07	65.54
700.20	46.81
700.34	46.81
700.47	0.00
700.60	46.81
700.73	18.72
700.87	77.24
701.00	30.43
701.13	0.00
701.26	65.54
701.40	77.24
701.53	86.60
701.66	0.00
701.79	60.85
701.93	0.00
702.06	67.88
702.19	21.06
702.32	9.36
702.46	79.58
702.59	142.77
702.72	4.68
702.85	0.00
702.99	0.00
703.12	70.22
703.25	7.02
703.38	46.81
703.51	14.04
703.65	0.00
703.78	86.60
703.91	23.41
704.04	60.85
704.17	23.41
704.31	0.00
704.44	0.00
704.57	35.11
704.70	0.00
704.83	53.83
704.96	77.24
705.10	53.83
705.23	0.00
>>>>>End Processed Spectral Data<<<<<
