SpectraSuite Data File
++++++++++++++++++++++++++++++++++++
Date: Fri Oct 04 12:13:38 GMT-05:00 2013
User: price-jones
Dark Spectrum Present: No
Reference Spectrum Present: No
Number of Sampled Component Spectra: 1
Spectrometers: USB2+H05261
Integration Time (usec): 10000 (USB2+H05261)
Spectra Averaged: 1 (USB2+H05261)
Boxcar Smoothing: 0 (USB2+H05261)
Correct for Electrical Dark: No (USB2+H05261)
Strobe/Lamp Enabled: No (USB2+H05261)
Correct for Detector Non-linearity: No (USB2+H05261)
Correct for Stray Light: No (USB2+H05261)
Number of Pixels in Processed Spectrum: 2048
>>>>>Begin Processed Spectral Data<<<<<
365.73	0.00
365.92	0.00
366.12	0.00
366.32	0.00
366.52	0.00
366.72	0.00
366.91	0.00
367.11	0.00
367.31	0.00
367.51	0.00
367.70	0.00
367.90	0.00
368.10	0.00
368.30	0.00
368.49	0.00
368.69	0.00
368.89	0.00
369.09	0.00
369.28	0.00
369.48	0.00
369.68	0.00
369.87	0.00
370.07	0.00
370.27	0.00
370.47	0.00
370.66	0.00
370.86	0.00
371.06	0.00
371.25	25.75
371.45	0.00
371.65	9.36
371.84	28.09
372.04	4.68
372.24	0.00
372.44	30.43
372.63	0.00
372.83	124.05
373.03	0.00
373.22	72.56
373.42	49.15
373.62	16.38
373.81	84.26
374.01	86.60
374.21	86.60
374.40	74.90
374.60	37.45
374.79	60.85
374.99	32.77
375.19	46.81
375.38	65.54
375.58	14.04
375.78	49.15
375.97	14.04
376.17	49.15
376.37	0.00
376.56	37.45
376.76	51.49
376.95	0.00
377.15	0.00
377.35	21.06
377.54	42.13
377.74	0.00
377.93	7.02
378.13	23.41
378.33	60.85
378.52	74.90
378.72	39.79
378.91	0.00
379.11	23.41
379.31	0.00
379.50	42.13
379.70	51.49
379.89	53.83
380.09	44.47
380.28	100.64
380.48	30.43
380.68	28.09
380.87	49.15
381.07	0.00
381.26	28.09
381.46	4.68
381.65	28.09
381.85	0.00
382.04	0.00
382.24	0.00
382.43	11.70
382.63	49.15
382.83	7.02
383.02	0.00
383.22	42.13
383.41	107.66
383.61	0.00
383.80	0.00
384.00	11.70
384.19	65.54
384.39	0.00
384.58	72.56
384.78	56.17
384.97	84.26
385.17	0.00
385.36	4.68
385.56	51.49
385.75	0.00
385.95	0.00
386.14	42.13
386.34	0.00
386.53	0.00
386.72	0.00
386.92	35.11
387.11	30.43
387.31	44.47
387.50	0.00
387.70	44.47
387.89	63.19
388.09	0.00
388.28	0.00
388.48	42.13
388.67	65.54
388.86	9.36
389.06	25.75
389.25	70.22
389.45	28.09
389.64	0.00
389.84	37.45
390.03	58.51
390.22	58.51
390.42	2.34
390.61	9.36
390.81	42.13
391.00	23.41
391.19	16.38
391.39	18.72
391.58	4.68
391.78	0.00
391.97	79.58
392.16	21.06
392.36	32.77
392.55	37.45
392.75	79.58
392.94	44.47
393.13	0.00
393.33	63.19
393.52	72.56
393.71	9.36
393.91	18.72
394.10	14.04
394.29	21.06
394.49	102.98
394.68	2.34
394.88	0.00
395.07	0.00
395.26	60.85
395.46	100.64
395.65	0.00
395.84	37.45
396.04	63.19
396.23	0.00
396.42	81.92
396.62	9.36
396.81	35.11
397.00	11.70
397.19	0.00
397.39	105.32
397.58	16.38
397.77	16.38
397.97	0.00
398.16	0.00
398.35	65.54
398.55	0.00
398.74	58.51
398.93	28.09
399.12	58.51
399.32	77.24
399.51	56.17
399.70	56.17
399.90	42.13
400.09	16.38
400.28	30.43
400.47	60.85
400.67	39.79
400.86	11.70
401.05	58.51
401.24	79.58
401.44	11.70
401.63	18.72
401.82	7.02
402.01	42.13
402.21	46.81
402.40	46.81
402.59	0.00
402.78	0.00
402.97	70.22
403.17	39.79
403.36	72.56
403.55	0.00
403.74	0.00
403.93	11.70
404.13	18.72
404.32	79.58
404.51	60.85
404.70	0.00
404.89	0.00
405.09	0.00
405.28	30.43
405.47	0.00
405.66	0.00
405.85	46.81
406.05	0.00
406.24	0.00
406.43	16.38
406.62	72.56
406.81	0.00
407.00	21.06
407.20	102.98
407.39	58.51
407.58	74.90
407.77	0.00
407.96	30.43
408.15	72.56
408.34	77.24
408.54	91.28
408.73	18.72
408.92	30.43
409.11	72.56
409.30	51.49
409.49	70.22
409.68	9.36
409.87	9.36
410.07	42.13
410.26	0.00
410.45	4.68
410.64	4.68
410.83	51.49
411.02	25.75
411.21	23.41
411.40	37.45
411.59	0.00
411.78	56.17
411.98	30.43
412.17	42.13
412.36	14.04
412.55	30.43
412.74	63.19
412.93	110.01
413.12	28.09
413.31	100.64
413.50	79.58
413.69	14.04
413.88	21.06
414.07	49.15
414.26	72.56
414.45	9.36
414.64	53.83
414.83	18.72
415.02	4.68
415.22	0.00
415.41	0.00
415.60	81.92
415.79	39.79
415.98	0.00
416.17	37.45
416.36	95.96
416.55	65.54
416.74	42.13
416.93	25.75
417.12	0.00
417.31	81.92
417.50	0.00
417.69	67.88
417.88	42.13
418.07	25.75
418.26	35.11
418.45	39.79
418.64	46.81
418.83	88.94
419.02	65.54
419.21	84.26
419.39	46.81
419.58	16.38
419.77	42.13
419.96	65.54
420.15	56.17
420.34	98.30
420.53	0.00
420.72	0.00
420.91	28.09
421.10	28.09
421.29	42.13
421.48	74.90
421.67	32.77
421.86	67.88
422.05	18.72
422.24	107.66
422.43	9.36
422.61	56.17
422.80	0.00
422.99	32.77
423.18	23.41
423.37	4.68
423.56	53.83
423.75	30.43
423.94	42.13
424.13	11.70
424.32	9.36
424.50	51.49
424.69	2.34
424.88	49.15
425.07	0.00
425.26	0.00
425.45	107.66
425.64	49.15
425.83	46.81
426.01	42.13
426.20	56.17
426.39	91.28
426.58	0.00
426.77	98.30
426.96	53.83
427.15	39.79
427.33	44.47
427.52	0.00
427.71	0.00
427.90	53.83
428.09	100.64
428.28	119.37
428.46	79.58
428.65	0.00
428.84	72.56
429.03	49.15
429.22	58.51
429.40	72.56
429.59	0.00
429.78	4.68
429.97	51.49
430.16	0.00
430.34	91.28
430.53	58.51
430.72	23.41
430.91	53.83
431.10	49.15
431.28	88.94
431.47	86.60
431.66	51.49
431.85	91.28
432.03	53.83
432.22	86.60
432.41	107.66
432.60	93.62
432.79	39.79
432.97	35.11
433.16	95.96
433.35	70.22
433.54	74.90
433.72	4.68
433.91	9.36
434.10	2.34
434.28	7.02
434.47	58.51
434.66	51.49
434.85	110.01
435.03	32.77
435.22	98.30
435.41	86.60
435.59	60.85
435.78	72.56
435.97	100.64
436.16	32.77
436.34	0.00
436.53	110.01
436.72	105.32
436.90	42.13
437.09	56.17
437.28	67.88
437.46	0.00
437.65	95.96
437.84	4.68
438.02	30.43
438.21	11.70
438.40	0.00
438.58	81.92
438.77	49.15
438.96	14.04
439.14	81.92
439.33	60.85
439.52	35.11
439.70	0.00
439.89	63.19
440.08	25.75
440.26	42.13
440.45	67.88
440.63	53.83
440.82	18.72
441.01	42.13
441.19	42.13
441.38	49.15
441.57	32.77
441.75	70.22
441.94	74.90
442.12	44.47
442.31	102.98
442.50	74.90
442.68	0.00
442.87	9.36
443.05	60.85
443.24	65.54
443.43	39.79
443.61	88.94
443.80	51.49
443.98	25.75
444.17	65.54
444.35	39.79
444.54	42.13
444.73	0.00
444.91	67.88
445.10	65.54
445.28	18.72
445.47	28.09
445.65	60.85
445.84	67.88
446.02	42.13
446.21	126.39
446.39	91.28
446.58	58.51
446.77	30.43
446.95	91.28
447.14	30.43
447.32	23.41
447.51	77.24
447.69	21.06
447.88	32.77
448.06	60.85
448.25	39.79
448.43	0.00
448.62	56.17
448.80	77.24
448.99	67.88
449.17	44.47
449.36	32.77
449.54	65.54
449.73	51.49
449.91	18.72
450.10	7.02
450.28	35.11
450.46	30.43
450.65	91.28
450.83	98.30
451.02	81.92
451.20	0.00
451.39	28.09
451.57	72.56
451.76	18.72
451.94	81.92
452.13	88.94
452.31	100.64
452.49	42.13
452.68	95.96
452.86	110.01
453.05	42.13
453.23	46.81
453.42	4.68
453.60	46.81
453.78	74.90
453.97	0.00
454.15	0.00
454.34	4.68
454.52	105.32
454.70	7.02
454.89	32.77
455.07	79.58
455.26	42.13
455.44	23.41
455.62	51.49
455.81	0.00
455.99	81.92
456.17	32.77
456.36	0.00
456.54	67.88
456.73	67.88
456.91	74.90
457.09	39.79
457.28	0.00
457.46	42.13
457.64	16.38
457.83	93.62
458.01	100.64
458.19	72.56
458.38	77.24
458.56	77.24
458.74	56.17
458.93	58.51
459.11	58.51
459.29	0.00
459.48	25.75
459.66	121.71
459.84	58.51
460.03	46.81
460.21	35.11
460.39	18.72
460.57	107.66
460.76	77.24
460.94	74.90
461.12	72.56
461.31	112.35
461.49	112.35
461.67	77.24
461.85	63.19
462.04	44.47
462.22	145.11
462.40	14.04
462.59	25.75
462.77	0.00
462.95	46.81
463.13	88.94
463.32	39.79
463.50	65.54
463.68	86.60
463.86	9.36
464.05	65.54
464.23	30.43
464.41	65.54
464.59	0.00
464.78	46.81
464.96	28.09
465.14	81.92
465.32	93.62
465.50	28.09
465.69	102.98
465.87	49.15
466.05	91.28
466.23	49.15
466.41	0.00
466.60	4.68
466.78	46.81
466.96	0.00
467.14	14.04
467.32	46.81
467.51	32.77
467.69	0.00
467.87	88.94
468.05	95.96
468.23	102.98
468.41	79.58
468.60	28.09
468.78	44.47
468.96	70.22
469.14	23.41
469.32	30.43
469.50	63.19
469.69	46.81
469.87	67.88
470.05	110.01
470.23	49.15
470.41	56.17
470.59	37.45
470.77	51.49
470.95	95.96
471.14	117.03
471.32	88.94
471.50	21.06
471.68	0.00
471.86	25.75
472.04	70.22
472.22	14.04
472.40	56.17
472.58	51.49
472.77	100.64
472.95	88.94
473.13	51.49
473.31	105.32
473.49	95.96
473.67	23.41
473.85	72.56
474.03	0.00
474.21	42.13
474.39	0.00
474.57	30.43
474.75	81.92
474.93	102.98
475.12	9.36
475.30	51.49
475.48	51.49
475.66	56.17
475.84	77.24
476.02	51.49
476.20	84.26
476.38	14.04
476.56	74.90
476.74	79.58
476.92	67.88
477.10	11.70
477.28	72.56
477.46	107.66
477.64	0.00
477.82	49.15
478.00	72.56
478.18	84.26
478.36	53.83
478.54	65.54
478.72	0.00
478.90	42.13
479.08	25.75
479.26	63.19
479.44	81.92
479.62	58.51
479.80	56.17
479.98	74.90
480.16	44.47
480.34	60.85
480.52	91.28
480.70	102.98
480.88	84.26
481.06	28.09
481.24	81.92
481.41	60.85
481.59	37.45
481.77	114.69
481.95	32.77
482.13	42.13
482.31	67.88
482.49	112.35
482.67	35.11
482.85	37.45
483.03	131.07
483.21	4.68
483.39	51.49
483.57	63.19
483.74	114.69
483.92	67.88
484.10	74.90
484.28	58.51
484.46	93.62
484.64	35.11
484.82	147.45
485.00	28.09
485.18	72.56
485.35	30.43
485.53	28.09
485.71	58.51
485.89	60.85
486.07	0.00
486.25	63.19
486.43	72.56
486.61	53.83
486.78	7.02
486.96	91.28
487.14	77.24
487.32	70.22
487.50	53.83
487.68	119.37
487.85	67.88
488.03	81.92
488.21	53.83
488.39	11.70
488.57	67.88
488.75	30.43
488.92	107.66
489.10	119.37
489.28	88.94
489.46	14.04
489.64	93.62
489.81	91.28
489.99	93.62
490.17	56.17
490.35	2.34
490.53	21.06
490.70	53.83
490.88	138.09
491.06	95.96
491.24	53.83
491.41	46.81
491.59	23.41
491.77	37.45
491.95	77.24
492.13	119.37
492.30	88.94
492.48	86.60
492.66	32.77
492.84	93.62
493.01	70.22
493.19	131.07
493.37	91.28
493.54	42.13
493.72	110.01
493.90	72.56
494.08	100.64
494.25	79.58
494.43	72.56
494.61	77.24
494.79	128.73
494.96	159.16
495.14	93.62
495.32	0.00
495.49	70.22
495.67	30.43
495.85	93.62
496.02	81.92
496.20	65.54
496.38	44.47
496.55	100.64
496.73	35.11
496.91	35.11
497.09	102.98
497.26	32.77
497.44	28.09
497.62	124.05
497.79	91.28
497.97	51.49
498.14	2.34
498.32	42.13
498.50	49.15
498.67	79.58
498.85	102.98
499.03	88.94
499.20	63.19
499.38	28.09
499.56	58.51
499.73	98.30
499.91	86.60
500.08	46.81
500.26	63.19
500.44	74.90
500.61	49.15
500.79	77.24
500.97	21.06
501.14	67.88
501.32	95.96
501.49	88.94
501.67	156.82
501.84	63.19
502.02	126.39
502.20	117.03
502.37	18.72
502.55	51.49
502.72	142.77
502.90	81.92
503.07	102.98
503.25	46.81
503.43	79.58
503.60	161.50
503.78	21.06
503.95	77.24
504.13	53.83
504.30	14.04
504.48	49.15
504.65	46.81
504.83	70.22
505.01	0.00
505.18	105.32
505.36	95.96
505.53	67.88
505.71	79.58
505.88	39.79
506.06	0.00
506.23	56.17
506.41	84.26
506.58	58.51
506.76	65.54
506.93	149.79
507.11	107.66
507.28	65.54
507.46	46.81
507.63	2.34
507.81	128.73
507.98	77.24
508.16	18.72
508.33	119.37
508.50	28.09
508.68	98.30
508.85	53.83
509.03	88.94
509.20	70.22
509.38	56.17
509.55	95.96
509.73	110.01
509.90	110.01
510.08	74.90
510.25	114.69
510.42	112.35
510.60	110.01
510.77	81.92
510.95	77.24
511.12	46.81
511.30	126.39
511.47	102.98
511.64	86.60
511.82	67.88
511.99	121.71
512.17	119.37
512.34	102.98
512.51	67.88
512.69	102.98
512.86	35.11
513.04	67.88
513.21	74.90
513.38	110.01
513.56	30.43
513.73	18.72
513.90	93.62
514.08	107.66
514.25	65.54
514.43	25.75
514.60	18.72
514.77	107.66
514.95	81.92
515.12	91.28
515.29	44.47
515.47	110.01
515.64	180.22
515.81	105.32
515.99	63.19
516.16	42.13
516.33	65.54
516.51	112.35
516.68	30.43
516.85	53.83
517.03	105.32
517.20	46.81
517.37	100.64
517.54	98.30
517.72	91.28
517.89	65.54
518.06	0.00
518.24	133.41
518.41	119.37
518.58	72.56
518.75	18.72
518.93	14.04
519.10	86.60
519.27	79.58
519.45	51.49
519.62	124.05
519.79	128.73
519.96	112.35
520.14	86.60
520.31	21.06
520.48	100.64
520.65	72.56
520.83	110.01
521.00	135.75
521.17	114.69
521.34	133.41
521.52	91.28
521.69	100.64
521.86	53.83
522.03	84.26
522.20	86.60
522.38	133.41
522.55	91.28
522.72	102.98
522.89	128.73
523.07	152.13
523.24	91.28
523.41	166.18
523.58	39.79
523.75	93.62
523.92	95.96
524.10	110.01
524.27	95.96
524.44	53.83
524.61	114.69
524.78	133.41
524.96	147.45
525.13	88.94
525.30	14.04
525.47	105.32
525.64	91.28
525.81	74.90
525.98	28.09
526.16	100.64
526.33	107.66
526.50	56.17
526.67	70.22
526.84	138.09
527.01	79.58
527.18	128.73
527.36	35.11
527.53	105.32
527.70	67.88
527.87	133.41
528.04	133.41
528.21	102.98
528.38	142.77
528.55	56.17
528.72	63.19
528.89	203.63
529.07	81.92
529.24	105.32
529.41	95.96
529.58	35.11
529.75	7.02
529.92	30.43
530.09	119.37
530.26	152.13
530.43	102.98
530.60	121.71
530.77	121.71
530.94	131.07
531.11	86.60
531.28	93.62
531.46	72.56
531.63	81.92
531.80	124.05
531.97	84.26
532.14	154.48
532.31	112.35
532.48	72.56
532.65	117.03
532.82	86.60
532.99	124.05
533.16	95.96
533.33	39.79
533.50	0.00
533.67	88.94
533.84	72.56
534.01	14.04
534.18	98.30
534.35	25.75
534.52	56.17
534.69	25.75
534.86	37.45
535.03	88.94
535.20	60.85
535.37	102.98
535.54	74.90
535.71	161.50
535.88	105.32
536.05	65.54
536.22	88.94
536.38	84.26
536.55	208.31
536.72	67.88
536.89	91.28
537.06	42.13
537.23	161.50
537.40	72.56
537.57	39.79
537.74	18.72
537.91	119.37
538.08	170.86
538.25	93.62
538.42	117.03
538.59	42.13
538.75	67.88
538.92	142.77
539.09	140.43
539.26	58.51
539.43	86.60
539.60	0.00
539.77	72.56
539.94	67.88
540.11	81.92
540.28	74.90
540.44	67.88
540.61	70.22
540.78	79.58
540.95	77.24
541.12	56.17
541.29	91.28
541.46	65.54
541.62	65.54
541.79	46.81
541.96	65.54
542.13	70.22
542.30	11.70
542.47	63.19
542.63	67.88
542.80	95.96
542.97	49.15
543.14	110.01
543.31	84.26
543.48	74.90
543.64	2.34
543.81	102.98
543.98	79.58
544.15	133.41
544.32	77.24
544.48	65.54
544.65	88.94
544.82	84.26
544.99	126.39
545.16	79.58
545.32	95.96
545.49	39.79
545.66	25.75
545.83	11.70
546.00	126.39
546.16	117.03
546.33	42.13
546.50	112.35
546.67	11.70
546.83	49.15
547.00	138.09
547.17	107.66
547.34	28.09
547.50	53.83
547.67	53.83
547.84	74.90
548.00	107.66
548.17	86.60
548.34	70.22
548.51	110.01
548.67	88.94
548.84	114.69
549.01	131.07
549.18	67.88
549.34	117.03
549.51	23.41
549.68	42.13
549.84	84.26
550.01	9.36
550.18	102.98
550.34	51.49
550.51	35.11
550.68	91.28
550.84	156.82
551.01	65.54
551.18	35.11
551.34	65.54
551.51	23.41
551.68	147.45
551.84	100.64
552.01	53.83
552.18	9.36
552.34	74.90
552.51	145.11
552.68	60.85
552.84	95.96
553.01	60.85
553.18	119.37
553.34	74.90
553.51	35.11
553.67	63.19
553.84	180.22
554.01	95.96
554.17	25.75
554.34	131.07
554.51	63.19
554.67	46.81
554.84	147.45
555.00	114.69
555.17	112.35
555.33	81.92
555.50	126.39
555.67	84.26
555.83	105.32
556.00	49.15
556.16	72.56
556.33	65.54
556.50	138.09
556.66	72.56
556.83	100.64
556.99	37.45
557.16	140.43
557.32	86.60
557.49	65.54
557.65	135.75
557.82	32.77
557.98	32.77
558.15	121.71
558.32	102.98
558.48	46.81
558.65	102.98
558.81	56.17
558.98	18.72
559.14	77.24
559.31	154.48
559.47	110.01
559.64	95.96
559.80	110.01
559.97	56.17
560.13	11.70
560.30	72.56
560.46	126.39
560.63	95.96
560.79	117.03
560.96	93.62
561.12	166.18
561.29	102.98
561.45	98.30
561.61	149.79
561.78	98.30
561.94	65.54
562.11	72.56
562.27	102.98
562.44	30.43
562.60	147.45
562.77	88.94
562.93	84.26
563.10	65.54
563.26	7.02
563.42	119.37
563.59	14.04
563.75	100.64
563.92	126.39
564.08	102.98
564.24	79.58
564.41	65.54
564.57	0.00
564.74	95.96
564.90	88.94
565.07	105.32
565.23	28.09
565.39	88.94
565.56	0.00
565.72	102.98
565.88	98.30
566.05	63.19
566.21	60.85
566.38	30.43
566.54	98.30
566.70	74.90
566.87	70.22
567.03	117.03
567.19	49.15
567.36	124.05
567.52	84.26
567.68	63.19
567.85	23.41
568.01	0.00
568.17	25.75
568.34	77.24
568.50	133.41
568.66	37.45
568.83	93.62
568.99	102.98
569.15	16.38
569.32	60.85
569.48	110.01
569.64	140.43
569.81	95.96
569.97	98.30
570.13	159.16
570.30	128.73
570.46	67.88
570.62	110.01
570.78	0.00
570.95	32.77
571.11	21.06
571.27	93.62
571.43	110.01
571.60	86.60
571.76	93.62
571.92	67.88
572.09	81.92
572.25	77.24
572.41	44.47
572.57	107.66
572.74	14.04
572.90	91.28
573.06	119.37
573.22	131.07
573.38	131.07
573.55	126.39
573.71	65.54
573.87	88.94
574.03	79.58
574.20	100.64
574.36	119.37
574.52	74.90
574.68	84.26
574.84	70.22
575.01	32.77
575.17	112.35
575.33	37.45
575.49	63.19
575.65	81.92
575.82	145.11
575.98	98.30
576.14	63.19
576.30	74.90
576.46	126.39
576.62	46.81
576.79	117.03
576.95	74.90
577.11	60.85
577.27	95.96
577.43	110.01
577.59	7.02
577.75	37.45
577.92	51.49
578.08	25.75
578.24	58.51
578.40	74.90
578.56	79.58
578.72	0.00
578.88	98.30
579.04	44.47
579.21	112.35
579.37	114.69
579.53	60.85
579.69	74.90
579.85	21.06
580.01	51.49
580.17	84.26
580.33	72.56
580.49	58.51
580.65	30.43
580.82	70.22
580.98	121.71
581.14	70.22
581.30	49.15
581.46	117.03
581.62	105.32
581.78	2.34
581.94	35.11
582.10	102.98
582.26	91.28
582.42	72.56
582.58	42.13
582.74	56.17
582.90	0.00
583.06	79.58
583.22	93.62
583.38	105.32
583.54	95.96
583.70	21.06
583.86	2.34
584.02	9.36
584.18	138.09
584.34	0.00
584.50	72.56
584.66	42.13
584.82	114.69
584.98	81.92
585.14	110.01
585.30	74.90
585.46	79.58
585.62	51.49
585.78	133.41
585.94	56.17
586.10	74.90
586.26	124.05
586.42	112.35
586.58	44.47
586.74	124.05
586.90	58.51
587.06	77.24
587.22	7.02
587.38	112.35
587.54	63.19
587.70	65.54
587.86	95.96
588.02	23.41
588.18	98.30
588.34	14.04
588.49	39.79
588.65	63.19
588.81	7.02
588.97	77.24
589.13	49.15
589.29	21.06
589.45	93.62
589.61	81.92
589.77	72.56
589.93	131.07
590.08	51.49
590.24	51.49
590.40	86.60
590.56	53.83
590.72	9.36
590.88	81.92
591.04	88.94
591.20	119.37
591.35	39.79
591.51	117.03
591.67	77.24
591.83	72.56
591.99	112.35
592.15	72.56
592.31	91.28
592.46	30.43
592.62	56.17
592.78	187.24
592.94	23.41
593.10	53.83
593.26	70.22
593.41	30.43
593.57	9.36
593.73	39.79
593.89	110.01
594.05	91.28
594.20	95.96
594.36	74.90
594.52	91.28
594.68	44.47
594.84	107.66
594.99	81.92
595.15	117.03
595.31	86.60
595.47	128.73
595.62	77.24
595.78	35.11
595.94	58.51
596.10	98.30
596.25	39.79
596.41	105.32
596.57	42.13
596.73	56.17
596.88	60.85
597.04	65.54
597.20	30.43
597.36	105.32
597.51	16.38
597.67	2.34
597.83	128.73
597.99	42.13
598.14	95.96
598.30	72.56
598.46	138.09
598.61	91.28
598.77	107.66
598.93	35.11
599.09	53.83
599.24	98.30
599.40	110.01
599.56	102.98
599.71	0.00
599.87	84.26
600.03	46.81
600.18	124.05
600.34	119.37
600.50	67.88
600.65	67.88
600.81	21.06
600.97	21.06
601.12	58.51
601.28	117.03
601.44	0.00
601.59	39.79
601.75	105.32
601.91	58.51
602.06	112.35
602.22	112.35
602.37	70.22
602.53	46.81
602.69	56.17
602.84	60.85
603.00	88.94
603.16	56.17
603.31	67.88
603.47	131.07
603.62	77.24
603.78	140.43
603.94	72.56
604.09	28.09
604.25	72.56
604.40	16.38
604.56	112.35
604.71	133.41
604.87	72.56
605.03	77.24
605.18	51.49
605.34	98.30
605.49	42.13
605.65	60.85
605.80	21.06
605.96	105.32
606.12	105.32
606.27	102.98
606.43	98.30
606.58	42.13
606.74	30.43
606.89	88.94
607.05	58.51
607.20	95.96
607.36	98.30
607.51	46.81
607.67	81.92
607.82	18.72
607.98	53.83
608.13	51.49
608.29	72.56
608.44	11.70
608.60	23.41
608.75	81.92
608.91	67.88
609.06	74.90
609.22	56.17
609.37	95.96
609.53	72.56
609.68	67.88
609.84	67.88
609.99	28.09
610.15	124.05
610.30	112.35
610.46	63.19
610.61	105.32
610.76	42.13
610.92	84.26
611.07	30.43
611.23	14.04
611.38	56.17
611.54	84.26
611.69	79.58
611.84	42.13
612.00	84.26
612.15	77.24
612.31	98.30
612.46	70.22
612.62	23.41
612.77	70.22
612.92	102.98
613.08	74.90
613.23	51.49
613.39	28.09
613.54	60.85
613.69	88.94
613.85	138.09
614.00	91.28
614.15	98.30
614.31	168.52
614.46	133.41
614.62	53.83
614.77	39.79
614.92	93.62
615.08	147.45
615.23	44.47
615.38	131.07
615.54	63.19
615.69	21.06
615.84	110.01
616.00	39.79
616.15	49.15
616.30	7.02
616.46	28.09
616.61	4.68
616.76	37.45
616.92	117.03
617.07	58.51
617.22	86.60
617.37	2.34
617.53	72.56
617.68	23.41
617.83	58.51
617.99	72.56
618.14	67.88
618.29	65.54
618.45	39.79
618.60	98.30
618.75	51.49
618.90	58.51
619.06	79.58
619.21	42.13
619.36	91.28
619.51	46.81
619.67	25.75
619.82	51.49
619.97	42.13
620.12	88.94
620.28	107.66
620.43	0.00
620.58	77.24
620.73	53.83
620.89	65.54
621.04	60.85
621.19	58.51
621.34	74.90
621.49	112.35
621.65	133.41
621.80	51.49
621.95	2.34
622.10	121.71
622.25	63.19
622.41	25.75
622.56	32.77
622.71	21.06
622.86	23.41
623.01	117.03
623.16	25.75
623.32	72.56
623.47	74.90
623.62	77.24
623.77	56.17
623.92	91.28
624.07	86.60
624.23	4.68
624.38	4.68
624.53	42.13
624.68	100.64
624.83	79.58
624.98	88.94
625.13	112.35
625.29	4.68
625.44	18.72
625.59	21.06
625.74	60.85
625.89	56.17
626.04	25.75
626.19	74.90
626.34	88.94
626.49	30.43
626.65	2.34
626.80	74.90
626.95	0.00
627.10	42.13
627.25	72.56
627.40	23.41
627.55	74.90
627.70	39.79
627.85	77.24
628.00	63.19
628.15	7.02
628.30	51.49
628.45	56.17
628.60	79.58
628.76	105.32
628.91	63.19
629.06	74.90
629.21	133.41
629.36	18.72
629.51	91.28
629.66	79.58
629.81	107.66
629.96	65.54
630.11	18.72
630.26	49.15
630.41	100.64
630.56	0.00
630.71	46.81
630.86	72.56
631.01	77.24
631.16	88.94
631.31	88.94
631.46	74.90
631.61	16.38
631.76	112.35
631.91	35.11
632.06	58.51
632.21	0.00
632.36	37.45
632.51	163.84
632.66	49.15
632.81	46.81
632.96	88.94
633.10	56.17
633.25	44.47
633.40	25.75
633.55	65.54
633.70	114.69
633.85	126.39
634.00	63.19
634.15	95.96
634.30	72.56
634.45	23.41
634.60	107.66
634.75	74.90
634.90	91.28
635.05	77.24
635.19	46.81
635.34	56.17
635.49	65.54
635.64	53.83
635.79	60.85
635.94	58.51
636.09	2.34
636.24	63.19
636.39	42.13
636.53	53.83
636.68	42.13
636.83	0.00
636.98	72.56
637.13	142.77
637.28	95.96
637.43	60.85
637.57	11.70
637.72	74.90
637.87	60.85
638.02	49.15
638.17	0.00
638.32	77.24
638.46	77.24
638.61	65.54
638.76	84.26
638.91	110.01
639.06	119.37
639.20	84.26
639.35	0.00
639.50	107.66
639.65	121.71
639.80	77.24
639.94	2.34
640.09	95.96
640.24	91.28
640.39	56.17
640.54	0.00
640.68	117.03
640.83	46.81
640.98	72.56
641.13	74.90
641.27	88.94
641.42	77.24
641.57	81.92
641.72	23.41
641.86	74.90
642.01	51.49
642.16	37.45
642.31	84.26
642.45	180.22
642.60	86.60
642.75	51.49
642.90	107.66
643.04	51.49
643.19	84.26
643.34	79.58
643.48	79.58
643.63	72.56
643.78	16.38
643.93	0.00
644.07	110.01
644.22	86.60
644.37	35.11
644.51	49.15
644.66	7.02
644.81	60.85
644.95	60.85
645.10	79.58
645.25	72.56
645.39	35.11
645.54	63.19
645.69	7.02
645.83	32.77
645.98	79.58
646.13	145.11
646.27	0.00
646.42	14.04
646.57	39.79
646.71	0.00
646.86	58.51
647.00	0.00
647.15	18.72
647.30	93.62
647.44	56.17
647.59	30.43
647.74	53.83
647.88	25.75
648.03	60.85
648.17	74.90
648.32	37.45
648.47	4.68
648.61	56.17
648.76	124.05
648.90	56.17
649.05	0.00
649.20	49.15
649.34	44.47
649.49	0.00
649.63	86.60
649.78	44.47
649.92	91.28
650.07	9.36
650.21	77.24
650.36	39.79
650.51	51.49
650.65	72.56
650.80	65.54
650.94	11.70
651.09	14.04
651.23	39.79
651.38	91.28
651.52	0.00
651.67	105.32
651.81	21.06
651.96	53.83
652.10	63.19
652.25	70.22
652.39	84.26
652.54	91.28
652.68	105.32
652.83	56.17
652.97	16.38
653.12	81.92
653.26	42.13
653.41	107.66
653.55	63.19
653.70	112.35
653.84	46.81
653.99	11.70
654.13	21.06
654.27	4.68
654.42	58.51
654.56	16.38
654.71	25.75
654.85	4.68
655.00	65.54
655.14	81.92
655.29	0.00
655.43	23.41
655.57	4.68
655.72	0.00
655.86	81.92
656.01	77.24
656.15	42.13
656.30	42.13
656.44	11.70
656.58	107.66
656.73	37.45
656.87	30.43
657.01	49.15
657.16	32.77
657.30	117.03
657.45	16.38
657.59	0.00
657.73	100.64
657.88	142.77
658.02	39.79
658.16	70.22
658.31	23.41
658.45	100.64
658.60	74.90
658.74	42.13
658.88	58.51
659.03	25.75
659.17	72.56
659.31	44.47
659.46	74.90
659.60	56.17
659.74	18.72
659.89	77.24
660.03	42.13
660.17	53.83
660.32	4.68
660.46	65.54
660.60	53.83
660.74	102.98
660.89	60.85
661.03	63.19
661.17	51.49
661.32	42.13
661.46	11.70
661.60	37.45
661.74	23.41
661.89	117.03
662.03	100.64
662.17	67.88
662.31	49.15
662.46	67.88
662.60	60.85
662.74	98.30
662.88	72.56
663.03	46.81
663.17	53.83
663.31	42.13
663.45	126.39
663.60	14.04
663.74	25.75
663.88	49.15
664.02	51.49
664.17	35.11
664.31	65.54
664.45	25.75
664.59	58.51
664.73	77.24
664.88	49.15
665.02	70.22
665.16	53.83
665.30	25.75
665.44	74.90
665.59	121.71
665.73	30.43
665.87	56.17
666.01	56.17
666.15	49.15
666.29	72.56
666.44	4.68
666.58	25.75
666.72	56.17
666.86	42.13
667.00	117.03
667.14	0.00
667.28	84.26
667.43	0.00
667.57	30.43
667.71	81.92
667.85	58.51
667.99	42.13
668.13	102.98
668.27	63.19
668.41	65.54
668.56	0.00
668.70	91.28
668.84	56.17
668.98	93.62
669.12	107.66
669.26	0.00
669.40	44.47
669.54	35.11
669.68	170.86
669.82	63.19
669.96	32.77
670.10	30.43
670.25	11.70
670.39	63.19
670.53	86.60
670.67	18.72
670.81	0.00
670.95	0.00
671.09	98.30
671.23	0.00
671.37	39.79
671.51	95.96
671.65	39.79
671.79	88.94
671.93	25.75
672.07	11.70
672.21	95.96
672.35	63.19
672.49	58.51
672.63	0.00
672.77	72.56
672.91	28.09
673.05	88.94
673.19	11.70
673.33	51.49
673.47	149.79
673.61	32.77
673.75	53.83
673.89	74.90
674.03	60.85
674.17	39.79
674.31	0.00
674.45	77.24
674.59	42.13
674.73	49.15
674.87	23.41
675.01	72.56
675.15	58.51
675.29	58.51
675.43	21.06
675.56	84.26
675.70	21.06
675.84	100.64
675.98	21.06
676.12	65.54
676.26	79.58
676.40	49.15
676.54	39.79
676.68	102.98
676.82	88.94
676.96	14.04
677.10	44.47
677.23	28.09
677.37	44.47
677.51	30.43
677.65	60.85
677.79	25.75
677.93	42.13
678.07	65.54
678.21	63.19
678.34	70.22
678.48	74.90
678.62	53.83
678.76	58.51
678.90	63.19
679.04	117.03
679.18	0.00
679.31	39.79
679.45	51.49
679.59	100.64
679.73	88.94
679.87	18.72
680.00	51.49
680.14	60.85
680.28	79.58
680.42	79.58
680.56	28.09
680.70	74.90
680.83	9.36
680.97	7.02
681.11	37.45
681.25	74.90
681.39	98.30
681.52	32.77
681.66	67.88
681.80	25.75
681.94	4.68
682.07	0.00
682.21	28.09
682.35	28.09
682.49	56.17
682.62	37.45
682.76	84.26
682.90	42.13
683.04	72.56
683.17	102.98
683.31	63.19
683.45	91.28
683.59	37.45
683.72	65.54
683.86	117.03
684.00	32.77
684.13	63.19
684.27	152.13
684.41	91.28
684.55	65.54
684.68	166.18
684.82	0.00
684.96	35.11
685.09	110.01
685.23	7.02
685.37	2.34
685.50	58.51
685.64	46.81
685.78	0.00
685.91	35.11
686.05	14.04
686.19	42.13
686.32	49.15
686.46	0.00
686.60	9.36
686.73	0.00
686.87	16.38
687.01	4.68
687.14	88.94
687.28	28.09
687.42	60.85
687.55	32.77
687.69	25.75
687.82	65.54
687.96	74.90
688.10	60.85
688.23	21.06
688.37	28.09
688.50	0.00
688.64	18.72
688.78	0.00
688.91	86.60
689.05	77.24
689.18	110.01
689.32	11.70
689.46	9.36
689.59	65.54
689.73	30.43
689.86	114.69
690.00	86.60
690.13	102.98
690.27	70.22
690.41	67.88
690.54	91.28
690.68	7.02
690.81	23.41
690.95	91.28
691.08	81.92
691.22	81.92
691.35	0.00
691.49	9.36
691.62	42.13
691.76	4.68
691.89	37.45
692.03	39.79
692.16	42.13
692.30	32.77
692.43	51.49
692.57	42.13
692.70	46.81
692.84	25.75
692.97	49.15
693.11	4.68
693.24	42.13
693.38	37.45
693.51	9.36
693.65	65.54
693.78	30.43
693.92	70.22
694.05	21.06
694.19	49.15
694.32	0.00
694.45	60.85
694.59	98.30
694.72	2.34
694.86	23.41
694.99	37.45
695.13	63.19
695.26	11.70
695.39	21.06
695.53	51.49
695.66	67.88
695.80	4.68
695.93	0.00
696.07	0.00
696.20	58.51
696.33	2.34
696.47	18.72
696.60	65.54
696.73	2.34
696.87	32.77
697.00	42.13
697.14	23.41
697.27	23.41
697.40	60.85
697.54	100.64
697.67	4.68
697.80	14.04
697.94	14.04
698.07	32.77
698.21	0.00
698.34	42.13
698.47	39.79
698.61	42.13
698.74	51.49
698.87	46.81
699.01	30.43
699.14	0.00
699.27	0.00
699.40	51.49
699.54	93.62
699.67	65.54
699.80	0.00
699.94	14.04
700.07	0.00
700.20	30.43
700.34	14.04
700.47	56.17
700.60	28.09
700.73	56.17
700.87	39.79
701.00	35.11
701.13	46.81
701.26	28.09
701.40	67.88
701.53	60.85
701.66	23.41
701.79	30.43
701.93	60.85
702.06	51.49
702.19	30.43
702.32	46.81
702.46	0.00
702.59	18.72
702.72	23.41
702.85	23.41
702.99	0.00
703.12	49.15
703.25	70.22
703.38	0.00
703.51	110.01
703.65	28.09
703.78	0.00
703.91	70.22
704.04	49.15
704.17	18.72
704.31	58.51
704.44	0.00
704.57	0.00
704.70	0.00
704.83	58.51
704.96	21.06
705.10	100.64
705.23	42.13
>>>>>End Processed Spectral Data<<<<<
