SpectraSuite Data File
++++++++++++++++++++++++++++++++++++
Date: Fri Oct 04 12:13:39 GMT-05:00 2013
User: price-jones
Dark Spectrum Present: No
Reference Spectrum Present: No
Number of Sampled Component Spectra: 1
Spectrometers: USB2+H05261
Integration Time (usec): 10000 (USB2+H05261)
Spectra Averaged: 1 (USB2+H05261)
Boxcar Smoothing: 0 (USB2+H05261)
Correct for Electrical Dark: No (USB2+H05261)
Strobe/Lamp Enabled: No (USB2+H05261)
Correct for Detector Non-linearity: No (USB2+H05261)
Correct for Stray Light: No (USB2+H05261)
Number of Pixels in Processed Spectrum: 2048
>>>>>Begin Processed Spectral Data<<<<<
365.73	46.81
365.92	46.81
366.12	46.81
366.32	0.00
366.52	0.00
366.72	0.00
366.91	0.00
367.11	0.00
367.31	0.00
367.51	0.00
367.70	0.00
367.90	0.00
368.10	0.00
368.30	0.00
368.49	0.00
368.69	0.00
368.89	0.00
369.09	0.00
369.28	0.00
369.48	0.00
369.68	0.00
369.87	0.00
370.07	0.00
370.27	0.00
370.47	0.00
370.66	0.00
370.86	0.00
371.06	18.72
371.25	0.00
371.45	0.00
371.65	7.02
371.84	14.04
372.04	0.00
372.24	7.02
372.44	42.13
372.63	21.06
372.83	23.41
373.03	2.34
373.22	70.22
373.42	4.68
373.62	46.81
373.81	42.13
374.01	30.43
374.21	44.47
374.40	58.51
374.60	63.19
374.79	21.06
374.99	72.56
375.19	0.00
375.38	0.00
375.58	0.00
375.78	44.47
375.97	88.94
376.17	16.38
376.37	32.77
376.56	42.13
376.76	25.75
376.95	65.54
377.15	18.72
377.35	30.43
377.54	32.77
377.74	4.68
377.93	39.79
378.13	0.00
378.33	35.11
378.52	44.47
378.72	30.43
378.91	35.11
379.11	95.96
379.31	0.00
379.50	32.77
379.70	35.11
379.89	28.09
380.09	0.00
380.28	14.04
380.48	0.00
380.68	14.04
380.87	72.56
381.07	46.81
381.26	51.49
381.46	23.41
381.65	53.83
381.85	14.04
382.04	0.00
382.24	30.43
382.43	2.34
382.63	4.68
382.83	35.11
383.02	0.00
383.22	14.04
383.41	4.68
383.61	0.00
383.80	67.88
384.00	88.94
384.19	35.11
384.39	37.45
384.58	72.56
384.78	0.00
384.97	14.04
385.17	9.36
385.36	51.49
385.56	23.41
385.75	0.00
385.95	60.85
386.14	32.77
386.34	30.43
386.53	65.54
386.72	95.96
386.92	0.00
387.11	42.13
387.31	81.92
387.50	44.47
387.70	140.43
387.89	18.72
388.09	16.38
388.28	9.36
388.48	88.94
388.67	110.01
388.86	46.81
389.06	0.00
389.25	35.11
389.45	53.83
389.64	44.47
389.84	117.03
390.03	7.02
390.22	0.00
390.42	91.28
390.61	37.45
390.81	0.00
391.00	21.06
391.19	86.60
391.39	0.00
391.58	51.49
391.78	0.00
391.97	56.17
392.16	28.09
392.36	88.94
392.55	84.26
392.75	0.00
392.94	35.11
393.13	21.06
393.33	0.00
393.52	63.19
393.71	23.41
393.91	0.00
394.10	9.36
394.29	35.11
394.49	46.81
394.68	0.00
394.88	37.45
395.07	0.00
395.26	35.11
395.46	0.00
395.65	37.45
395.84	0.00
396.04	11.70
396.23	0.00
396.42	51.49
396.62	63.19
396.81	0.00
397.00	0.00
397.19	25.75
397.39	0.00
397.58	42.13
397.77	25.75
397.97	32.77
398.16	25.75
398.35	0.00
398.55	49.15
398.74	35.11
398.93	46.81
399.12	0.00
399.32	7.02
399.51	37.45
399.70	72.56
399.90	0.00
400.09	53.83
400.28	0.00
400.47	70.22
400.67	32.77
400.86	18.72
401.05	9.36
401.24	0.00
401.44	2.34
401.63	0.00
401.82	0.00
402.01	28.09
402.21	0.00
402.40	21.06
402.59	23.41
402.78	0.00
402.97	4.68
403.17	4.68
403.36	56.17
403.55	51.49
403.74	63.19
403.93	37.45
404.13	49.15
404.32	2.34
404.51	16.38
404.70	37.45
404.89	9.36
405.09	58.51
405.28	63.19
405.47	56.17
405.66	65.54
405.85	32.77
406.05	0.00
406.24	21.06
406.43	30.43
406.62	56.17
406.81	53.83
407.00	60.85
407.20	4.68
407.39	42.13
407.58	28.09
407.77	42.13
407.96	0.00
408.15	32.77
408.34	51.49
408.54	14.04
408.73	88.94
408.92	32.77
409.11	74.90
409.30	23.41
409.49	0.00
409.68	32.77
409.87	65.54
410.07	0.00
410.26	53.83
410.45	0.00
410.64	2.34
410.83	49.15
411.02	21.06
411.21	18.72
411.40	0.00
411.59	63.19
411.78	7.02
411.98	42.13
412.17	107.66
412.36	23.41
412.55	4.68
412.74	0.00
412.93	9.36
413.12	14.04
413.31	42.13
413.50	56.17
413.69	70.22
413.88	39.79
414.07	44.47
414.26	53.83
414.45	100.64
414.64	46.81
414.83	0.00
415.02	58.51
415.22	32.77
415.41	44.47
415.60	46.81
415.79	0.00
415.98	58.51
416.17	70.22
416.36	23.41
416.55	46.81
416.74	135.75
416.93	58.51
417.12	39.79
417.31	51.49
417.50	37.45
417.69	0.00
417.88	32.77
418.07	32.77
418.26	67.88
418.45	84.26
418.64	35.11
418.83	88.94
419.02	4.68
419.21	37.45
419.39	0.00
419.58	14.04
419.77	0.00
419.96	70.22
420.15	30.43
420.34	28.09
420.53	28.09
420.72	86.60
420.91	35.11
421.10	114.69
421.29	44.47
421.48	0.00
421.67	112.35
421.86	81.92
422.05	25.75
422.24	86.60
422.43	30.43
422.61	56.17
422.80	70.22
422.99	70.22
423.18	42.13
423.37	28.09
423.56	11.70
423.75	63.19
423.94	2.34
424.13	93.62
424.32	32.77
424.50	35.11
424.69	18.72
424.88	37.45
425.07	28.09
425.26	42.13
425.45	77.24
425.64	79.58
425.83	4.68
426.01	28.09
426.20	39.79
426.39	35.11
426.58	114.69
426.77	63.19
426.96	11.70
427.15	102.98
427.33	39.79
427.52	119.37
427.71	0.00
427.90	46.81
428.09	58.51
428.28	95.96
428.46	86.60
428.65	21.06
428.84	2.34
429.03	65.54
429.22	2.34
429.40	0.00
429.59	49.15
429.78	58.51
429.97	93.62
430.16	72.56
430.34	16.38
430.53	46.81
430.72	37.45
430.91	25.75
431.10	79.58
431.28	58.51
431.47	0.00
431.66	60.85
431.85	58.51
432.03	23.41
432.22	49.15
432.41	30.43
432.60	39.79
432.79	39.79
432.97	0.00
433.16	18.72
433.35	7.02
433.54	0.00
433.72	2.34
433.91	58.51
434.10	63.19
434.28	79.58
434.47	4.68
434.66	105.32
434.85	58.51
435.03	56.17
435.22	25.75
435.41	0.00
435.59	81.92
435.78	93.62
435.97	18.72
436.16	46.81
436.34	49.15
436.53	72.56
436.72	53.83
436.90	11.70
437.09	56.17
437.28	67.88
437.46	30.43
437.65	56.17
437.84	70.22
438.02	0.00
438.21	0.00
438.40	23.41
438.58	16.38
438.77	0.00
438.96	39.79
439.14	18.72
439.33	77.24
439.52	58.51
439.70	35.11
439.89	21.06
440.08	16.38
440.26	21.06
440.45	46.81
440.63	0.00
440.82	4.68
441.01	72.56
441.19	86.60
441.38	0.00
441.57	72.56
441.75	67.88
441.94	25.75
442.12	11.70
442.31	42.13
442.50	81.92
442.68	72.56
442.87	91.28
443.05	39.79
443.24	65.54
443.43	56.17
443.61	16.38
443.80	39.79
443.98	72.56
444.17	84.26
444.35	0.00
444.54	88.94
444.73	81.92
444.91	0.00
445.10	42.13
445.28	18.72
445.47	35.11
445.65	93.62
445.84	16.38
446.02	88.94
446.21	37.45
446.39	81.92
446.58	21.06
446.77	46.81
446.95	70.22
447.14	23.41
447.32	67.88
447.51	112.35
447.69	30.43
447.88	35.11
448.06	84.26
448.25	81.92
448.43	4.68
448.62	84.26
448.80	93.62
448.99	7.02
449.17	46.81
449.36	42.13
449.54	23.41
449.73	16.38
449.91	39.79
450.10	23.41
450.28	56.17
450.46	79.58
450.65	84.26
450.83	67.88
451.02	51.49
451.20	39.79
451.39	63.19
451.57	72.56
451.76	0.00
451.94	51.49
452.13	46.81
452.31	23.41
452.49	0.00
452.68	42.13
452.86	44.47
453.05	133.41
453.23	117.03
453.42	58.51
453.60	11.70
453.78	49.15
453.97	53.83
454.15	81.92
454.34	112.35
454.52	86.60
454.70	142.77
454.89	0.00
455.07	14.04
455.26	65.54
455.44	105.32
455.62	28.09
455.81	100.64
455.99	42.13
456.17	53.83
456.36	81.92
456.54	0.00
456.73	63.19
456.91	65.54
457.09	56.17
457.28	49.15
457.46	16.38
457.64	7.02
457.83	79.58
458.01	42.13
458.19	32.77
458.38	9.36
458.56	72.56
458.74	74.90
458.93	114.69
459.11	86.60
459.29	42.13
459.48	60.85
459.66	119.37
459.84	0.00
460.03	117.03
460.21	93.62
460.39	0.00
460.57	30.43
460.76	49.15
460.94	88.94
461.12	65.54
461.31	0.00
461.49	35.11
461.67	51.49
461.85	14.04
462.04	35.11
462.22	117.03
462.40	67.88
462.59	56.17
462.77	67.88
462.95	18.72
463.13	72.56
463.32	60.85
463.50	70.22
463.68	107.66
463.86	46.81
464.05	37.45
464.23	53.83
464.41	0.00
464.59	88.94
464.78	65.54
464.96	32.77
465.14	88.94
465.32	51.49
465.50	44.47
465.69	28.09
465.87	81.92
466.05	105.32
466.23	154.48
466.41	39.79
466.60	81.92
466.78	56.17
466.96	100.64
467.14	107.66
467.32	23.41
467.51	49.15
467.69	95.96
467.87	23.41
468.05	53.83
468.23	107.66
468.41	25.75
468.60	56.17
468.78	25.75
468.96	56.17
469.14	51.49
469.32	74.90
469.50	53.83
469.69	79.58
469.87	149.79
470.05	56.17
470.23	4.68
470.41	16.38
470.59	9.36
470.77	126.39
470.95	77.24
471.14	74.90
471.32	0.00
471.50	88.94
471.68	72.56
471.86	93.62
472.04	65.54
472.22	79.58
472.40	42.13
472.58	147.45
472.77	2.34
472.95	7.02
473.13	100.64
473.31	35.11
473.49	67.88
473.67	4.68
473.85	35.11
474.03	114.69
474.21	58.51
474.39	30.43
474.57	65.54
474.75	16.38
474.93	0.00
475.12	56.17
475.30	25.75
475.48	0.00
475.66	21.06
475.84	23.41
476.02	67.88
476.20	23.41
476.38	77.24
476.56	32.77
476.74	39.79
476.92	74.90
477.10	23.41
477.28	30.43
477.46	91.28
477.64	147.45
477.82	0.00
478.00	42.13
478.18	70.22
478.36	53.83
478.54	39.79
478.72	60.85
478.90	46.81
479.08	67.88
479.26	126.39
479.44	35.11
479.62	58.51
479.80	98.30
479.98	7.02
480.16	84.26
480.34	91.28
480.52	124.05
480.70	60.85
480.88	30.43
481.06	39.79
481.24	88.94
481.41	28.09
481.59	25.75
481.77	0.00
481.95	81.92
482.13	147.45
482.31	23.41
482.49	32.77
482.67	37.45
482.85	88.94
483.03	88.94
483.21	60.85
483.39	72.56
483.57	30.43
483.74	117.03
483.92	0.00
484.10	107.66
484.28	9.36
484.46	25.75
484.64	105.32
484.82	67.88
485.00	86.60
485.18	79.58
485.35	102.98
485.53	14.04
485.71	98.30
485.89	39.79
486.07	105.32
486.25	93.62
486.43	112.35
486.61	63.19
486.78	65.54
486.96	63.19
487.14	53.83
487.32	23.41
487.50	105.32
487.68	42.13
487.85	117.03
488.03	44.47
488.21	107.66
488.39	114.69
488.57	79.58
488.75	98.30
488.92	91.28
489.10	51.49
489.28	16.38
489.46	49.15
489.64	117.03
489.81	65.54
489.99	81.92
490.17	91.28
490.35	114.69
490.53	98.30
490.70	121.71
490.88	79.58
491.06	49.15
491.24	11.70
491.41	100.64
491.59	4.68
491.77	72.56
491.95	63.19
492.13	117.03
492.30	79.58
492.48	28.09
492.66	81.92
492.84	32.77
493.01	53.83
493.19	117.03
493.37	84.26
493.54	131.07
493.72	32.77
493.90	140.43
494.08	21.06
494.25	46.81
494.43	131.07
494.61	72.56
494.79	133.41
494.96	28.09
495.14	72.56
495.32	0.00
495.49	100.64
495.67	121.71
495.85	14.04
496.02	28.09
496.20	98.30
496.38	14.04
496.55	53.83
496.73	112.35
496.91	105.32
497.09	74.90
497.26	140.43
497.44	91.28
497.62	91.28
497.79	23.41
497.97	86.60
498.14	86.60
498.32	56.17
498.50	58.51
498.67	107.66
498.85	124.05
499.03	72.56
499.20	63.19
499.38	67.88
499.56	46.81
499.73	51.49
499.91	77.24
500.08	39.79
500.26	18.72
500.44	65.54
500.61	88.94
500.79	84.26
500.97	70.22
501.14	95.96
501.32	65.54
501.49	44.47
501.67	107.66
501.84	32.77
502.02	51.49
502.20	39.79
502.37	93.62
502.55	93.62
502.72	100.64
502.90	74.90
503.07	53.83
503.25	88.94
503.43	91.28
503.60	0.00
503.78	95.96
503.95	95.96
504.13	58.51
504.30	25.75
504.48	72.56
504.65	32.77
504.83	95.96
505.01	65.54
505.18	107.66
505.36	79.58
505.53	112.35
505.71	60.85
505.88	72.56
506.06	53.83
506.23	51.49
506.41	105.32
506.58	135.75
506.76	114.69
506.93	88.94
507.11	53.83
507.28	42.13
507.46	95.96
507.63	154.48
507.81	102.98
507.98	39.79
508.16	161.50
508.33	93.62
508.50	28.09
508.68	93.62
508.85	42.13
509.03	107.66
509.20	65.54
509.38	4.68
509.55	110.01
509.73	67.88
509.90	170.86
510.08	77.24
510.25	60.85
510.42	56.17
510.60	53.83
510.77	42.13
510.95	14.04
511.12	72.56
511.30	142.77
511.47	79.58
511.64	77.24
511.82	84.26
511.99	126.39
512.17	67.88
512.34	72.56
512.51	0.00
512.69	60.85
512.86	107.66
513.04	93.62
513.21	0.00
513.38	23.41
513.56	79.58
513.73	0.00
513.90	81.92
514.08	86.60
514.25	112.35
514.43	42.13
514.60	39.79
514.77	51.49
514.95	63.19
515.12	88.94
515.29	77.24
515.47	93.62
515.64	140.43
515.81	53.83
515.99	117.03
516.16	93.62
516.33	14.04
516.51	37.45
516.68	81.92
516.85	105.32
517.03	74.90
517.20	44.47
517.37	102.98
517.54	79.58
517.72	63.19
517.89	56.17
518.06	67.88
518.24	51.49
518.41	84.26
518.58	161.50
518.75	117.03
518.93	44.47
519.10	107.66
519.27	74.90
519.45	110.01
519.62	95.96
519.79	154.48
519.96	0.00
520.14	112.35
520.31	67.88
520.48	98.30
520.65	72.56
520.83	133.41
521.00	91.28
521.17	63.19
521.34	32.77
521.52	44.47
521.69	112.35
521.86	88.94
522.03	30.43
522.20	77.24
522.38	98.30
522.55	152.13
522.72	42.13
522.89	65.54
523.07	142.77
523.24	154.48
523.41	105.32
523.58	112.35
523.75	72.56
523.92	74.90
524.10	100.64
524.27	93.62
524.44	51.49
524.61	117.03
524.78	77.24
524.96	98.30
525.13	112.35
525.30	79.58
525.47	56.17
525.64	91.28
525.81	145.11
525.98	32.77
526.16	56.17
526.33	46.81
526.50	84.26
526.67	100.64
526.84	0.00
527.01	88.94
527.18	65.54
527.36	86.60
527.53	30.43
527.70	121.71
527.87	42.13
528.04	142.77
528.21	46.81
528.38	98.30
528.55	60.85
528.72	102.98
528.89	60.85
529.07	58.51
529.24	35.11
529.41	112.35
529.58	32.77
529.75	67.88
529.92	28.09
530.09	14.04
530.26	84.26
530.43	74.90
530.60	147.45
530.77	121.71
530.94	32.77
531.11	4.68
531.28	44.47
531.46	67.88
531.63	112.35
531.80	121.71
531.97	107.66
532.14	119.37
532.31	152.13
532.48	86.60
532.65	105.32
532.82	107.66
532.99	98.30
533.16	37.45
533.33	42.13
533.50	100.64
533.67	30.43
533.84	56.17
534.01	39.79
534.18	86.60
534.35	67.88
534.52	25.75
534.69	58.51
534.86	77.24
535.03	79.58
535.20	84.26
535.37	117.03
535.54	32.77
535.71	100.64
535.88	119.37
536.05	138.09
536.22	112.35
536.38	77.24
536.55	98.30
536.72	49.15
536.89	46.81
537.06	67.88
537.23	46.81
537.40	60.85
537.57	53.83
537.74	65.54
537.91	49.15
538.08	44.47
538.25	65.54
538.42	70.22
538.59	70.22
538.75	114.69
538.92	72.56
539.09	42.13
539.26	77.24
539.43	159.16
539.60	84.26
539.77	88.94
539.94	65.54
540.11	161.50
540.28	95.96
540.44	105.32
540.61	86.60
540.78	67.88
540.95	93.62
541.12	84.26
541.29	107.66
541.46	149.79
541.62	91.28
541.79	140.43
541.96	128.73
542.13	56.17
542.30	84.26
542.47	84.26
542.63	145.11
542.80	60.85
542.97	91.28
543.14	93.62
543.31	86.60
543.48	126.39
543.64	28.09
543.81	37.45
543.98	91.28
544.15	124.05
544.32	81.92
544.48	93.62
544.65	102.98
544.82	88.94
544.99	105.32
545.16	72.56
545.32	11.70
545.49	63.19
545.66	60.85
545.83	142.77
546.00	142.77
546.16	60.85
546.33	56.17
546.50	7.02
546.67	14.04
546.83	32.77
547.00	102.98
547.17	58.51
547.34	63.19
547.50	124.05
547.67	44.47
547.84	117.03
548.00	30.43
548.17	86.60
548.34	16.38
548.51	161.50
548.67	121.71
548.84	14.04
549.01	128.73
549.18	81.92
549.34	175.54
549.51	42.13
549.68	53.83
549.84	95.96
550.01	72.56
550.18	46.81
550.34	74.90
550.51	53.83
550.68	131.07
550.84	35.11
551.01	95.96
551.18	133.41
551.34	35.11
551.51	86.60
551.68	28.09
551.84	65.54
552.01	175.54
552.18	74.90
552.34	91.28
552.51	21.06
552.68	98.30
552.84	114.69
553.01	131.07
553.18	65.54
553.34	72.56
553.51	46.81
553.67	159.16
553.84	58.51
554.01	95.96
554.17	84.26
554.34	81.92
554.51	72.56
554.67	91.28
554.84	119.37
555.00	51.49
555.17	166.18
555.33	107.66
555.50	70.22
555.67	42.13
555.83	98.30
556.00	70.22
556.16	117.03
556.33	74.90
556.50	58.51
556.66	60.85
556.83	46.81
556.99	39.79
557.16	14.04
557.32	14.04
557.49	44.47
557.65	84.26
557.82	95.96
557.98	107.66
558.15	114.69
558.32	39.79
558.48	60.85
558.65	60.85
558.81	93.62
558.98	18.72
559.14	93.62
559.31	53.83
559.47	53.83
559.64	95.96
559.80	86.60
559.97	117.03
560.13	135.75
560.30	112.35
560.46	74.90
560.63	84.26
560.79	67.88
560.96	117.03
561.12	145.11
561.29	56.17
561.45	105.32
561.61	30.43
561.78	60.85
561.94	98.30
562.11	145.11
562.27	32.77
562.44	131.07
562.60	84.26
562.77	30.43
562.93	88.94
563.10	140.43
563.26	74.90
563.42	100.64
563.59	79.58
563.75	86.60
563.92	67.88
564.08	114.69
564.24	63.19
564.41	128.73
564.57	16.38
564.74	11.70
564.90	81.92
565.07	56.17
565.23	86.60
565.39	51.49
565.56	121.71
565.72	93.62
565.88	110.01
566.05	56.17
566.21	72.56
566.38	21.06
566.54	58.51
566.70	112.35
566.87	49.15
567.03	60.85
567.19	107.66
567.36	98.30
567.52	145.11
567.68	105.32
567.85	79.58
568.01	79.58
568.17	114.69
568.34	117.03
568.50	60.85
568.66	56.17
568.83	100.64
568.99	102.98
569.15	46.81
569.32	100.64
569.48	121.71
569.64	100.64
569.81	60.85
569.97	74.90
570.13	53.83
570.30	63.19
570.46	81.92
570.62	44.47
570.78	39.79
570.95	86.60
571.11	42.13
571.27	42.13
571.43	107.66
571.60	51.49
571.76	35.11
571.92	28.09
572.09	114.69
572.25	88.94
572.41	65.54
572.57	142.77
572.74	0.00
572.90	65.54
573.06	77.24
573.22	30.43
573.38	44.47
573.55	161.50
573.71	100.64
573.87	28.09
574.03	145.11
574.20	84.26
574.36	51.49
574.52	35.11
574.68	58.51
574.84	42.13
575.01	86.60
575.17	49.15
575.33	65.54
575.49	112.35
575.65	37.45
575.82	98.30
575.98	70.22
576.14	100.64
576.30	100.64
576.46	28.09
576.62	58.51
576.79	102.98
576.95	70.22
577.11	98.30
577.27	79.58
577.43	107.66
577.59	100.64
577.75	126.39
577.92	105.32
578.08	107.66
578.24	105.32
578.40	81.92
578.56	0.00
578.72	51.49
578.88	4.68
579.04	88.94
579.21	110.01
579.37	95.96
579.53	93.62
579.69	105.32
579.85	95.96
580.01	81.92
580.17	110.01
580.33	72.56
580.49	49.15
580.65	28.09
580.82	18.72
580.98	65.54
581.14	56.17
581.30	102.98
581.46	74.90
581.62	124.05
581.78	46.81
581.94	93.62
582.10	121.71
582.26	77.24
582.42	11.70
582.58	93.62
582.74	79.58
582.90	156.82
583.06	88.94
583.22	126.39
583.38	65.54
583.54	65.54
583.70	74.90
583.86	142.77
584.02	72.56
584.18	102.98
584.34	44.47
584.50	63.19
584.66	65.54
584.82	11.70
584.98	42.13
585.14	37.45
585.30	77.24
585.46	95.96
585.62	35.11
585.78	53.83
585.94	154.48
586.10	74.90
586.26	84.26
586.42	98.30
586.58	46.81
586.74	145.11
586.90	65.54
587.06	105.32
587.22	65.54
587.38	93.62
587.54	100.64
587.70	60.85
587.86	58.51
588.02	100.64
588.18	67.88
588.34	124.05
588.49	35.11
588.65	72.56
588.81	35.11
588.97	53.83
589.13	107.66
589.29	42.13
589.45	0.00
589.61	46.81
589.77	84.26
589.93	84.26
590.08	0.00
590.24	77.24
590.40	74.90
590.56	117.03
590.72	88.94
590.88	70.22
591.04	100.64
591.20	4.68
591.35	105.32
591.51	100.64
591.67	93.62
591.83	56.17
591.99	53.83
592.15	63.19
592.31	126.39
592.46	79.58
592.62	107.66
592.78	86.60
592.94	60.85
593.10	46.81
593.26	23.41
593.41	0.00
593.57	105.32
593.73	79.58
593.89	49.15
594.05	102.98
594.20	110.01
594.36	110.01
594.52	93.62
594.68	25.75
594.84	107.66
594.99	28.09
595.15	74.90
595.31	28.09
595.47	88.94
595.62	63.19
595.78	91.28
595.94	58.51
596.10	184.90
596.25	72.56
596.41	77.24
596.57	56.17
596.73	60.85
596.88	107.66
597.04	32.77
597.20	58.51
597.36	77.24
597.51	72.56
597.67	46.81
597.83	0.00
597.99	23.41
598.14	9.36
598.30	65.54
598.46	154.48
598.61	0.00
598.77	4.68
598.93	53.83
599.09	147.45
599.24	91.28
599.40	84.26
599.56	65.54
599.71	100.64
599.87	81.92
600.03	28.09
600.18	0.00
600.34	84.26
600.50	37.45
600.65	74.90
600.81	67.88
600.97	37.45
601.12	91.28
601.28	131.07
601.44	21.06
601.59	79.58
601.75	67.88
601.91	95.96
602.06	105.32
602.22	65.54
602.37	58.51
602.53	0.00
602.69	0.00
602.84	35.11
603.00	84.26
603.16	105.32
603.31	119.37
603.47	112.35
603.62	65.54
603.78	18.72
603.94	88.94
604.09	140.43
604.25	102.98
604.40	93.62
604.56	0.00
604.71	117.03
604.87	98.30
605.03	88.94
605.18	60.85
605.34	28.09
605.49	86.60
605.65	142.77
605.80	21.06
605.96	51.49
606.12	53.83
606.27	0.00
606.43	42.13
606.58	110.01
606.74	107.66
606.89	25.75
607.05	58.51
607.20	84.26
607.36	88.94
607.51	81.92
607.67	0.00
607.82	124.05
607.98	138.09
608.13	70.22
608.29	67.88
608.44	37.45
608.60	58.51
608.75	91.28
608.91	119.37
609.06	84.26
609.22	46.81
609.37	102.98
609.53	49.15
609.68	100.64
609.84	121.71
609.99	18.72
610.15	74.90
610.30	60.85
610.46	105.32
610.61	0.00
610.76	49.15
610.92	53.83
611.07	63.19
611.23	53.83
611.38	28.09
611.54	91.28
611.69	14.04
611.84	114.69
612.00	133.41
612.15	60.85
612.31	42.13
612.46	114.69
612.62	135.75
612.77	28.09
612.92	28.09
613.08	79.58
613.23	84.26
613.39	30.43
613.54	37.45
613.69	32.77
613.85	67.88
614.00	67.88
614.15	79.58
614.31	56.17
614.46	84.26
614.62	72.56
614.77	79.58
614.92	30.43
615.08	74.90
615.23	79.58
615.38	28.09
615.54	32.77
615.69	126.39
615.84	102.98
616.00	107.66
616.15	74.90
616.30	112.35
616.46	65.54
616.61	86.60
616.76	74.90
616.92	79.58
617.07	100.64
617.22	56.17
617.37	18.72
617.53	42.13
617.68	72.56
617.83	30.43
617.99	98.30
618.14	205.97
618.29	86.60
618.45	77.24
618.60	88.94
618.75	117.03
618.90	51.49
619.06	53.83
619.21	28.09
619.36	112.35
619.51	58.51
619.67	37.45
619.82	32.77
619.97	42.13
620.12	72.56
620.28	74.90
620.43	46.81
620.58	86.60
620.73	60.85
620.89	86.60
621.04	88.94
621.19	0.00
621.34	63.19
621.49	60.85
621.65	53.83
621.80	28.09
621.95	70.22
622.10	56.17
622.25	102.98
622.41	7.02
622.56	84.26
622.71	21.06
622.86	86.60
623.01	16.38
623.16	18.72
623.32	67.88
623.47	84.26
623.62	28.09
623.77	74.90
623.92	110.01
624.07	84.26
624.23	79.58
624.38	107.66
624.53	39.79
624.68	86.60
624.83	77.24
624.98	77.24
625.13	72.56
625.29	56.17
625.44	9.36
625.59	60.85
625.74	95.96
625.89	14.04
626.04	149.79
626.19	67.88
626.34	86.60
626.49	98.30
626.65	21.06
626.80	0.00
626.95	119.37
627.10	88.94
627.25	65.54
627.40	91.28
627.55	100.64
627.70	2.34
627.85	32.77
628.00	32.77
628.15	105.32
628.30	51.49
628.45	46.81
628.60	77.24
628.76	79.58
628.91	58.51
629.06	53.83
629.21	53.83
629.36	23.41
629.51	37.45
629.66	63.19
629.81	32.77
629.96	16.38
630.11	91.28
630.26	39.79
630.41	53.83
630.56	14.04
630.71	39.79
630.86	81.92
631.01	25.75
631.16	46.81
631.31	102.98
631.46	102.98
631.61	51.49
631.76	110.01
631.91	145.11
632.06	39.79
632.21	56.17
632.36	23.41
632.51	46.81
632.66	77.24
632.81	37.45
632.96	95.96
633.10	88.94
633.25	56.17
633.40	67.88
633.55	21.06
633.70	156.82
633.85	86.60
634.00	28.09
634.15	98.30
634.30	121.71
634.45	100.64
634.60	2.34
634.75	46.81
634.90	37.45
635.05	39.79
635.19	91.28
635.34	56.17
635.49	88.94
635.64	63.19
635.79	86.60
635.94	0.00
636.09	65.54
636.24	84.26
636.39	100.64
636.53	35.11
636.68	58.51
636.83	0.00
636.98	42.13
637.13	58.51
637.28	58.51
637.43	63.19
637.57	70.22
637.72	128.73
637.87	32.77
638.02	77.24
638.17	65.54
638.32	39.79
638.46	53.83
638.61	117.03
638.76	63.19
638.91	72.56
639.06	74.90
639.20	102.98
639.35	42.13
639.50	124.05
639.65	63.19
639.80	105.32
639.94	32.77
640.09	95.96
640.24	9.36
640.39	79.58
640.54	88.94
640.68	119.37
640.83	63.19
640.98	0.00
641.13	72.56
641.27	112.35
641.42	30.43
641.57	56.17
641.72	39.79
641.86	30.43
642.01	100.64
642.16	35.11
642.31	121.71
642.45	21.06
642.60	70.22
642.75	65.54
642.90	110.01
643.04	77.24
643.19	37.45
643.34	0.00
643.48	23.41
643.63	37.45
643.78	2.34
643.93	91.28
644.07	49.15
644.22	77.24
644.37	25.75
644.51	147.45
644.66	91.28
644.81	77.24
644.95	18.72
645.10	9.36
645.25	23.41
645.39	86.60
645.54	30.43
645.69	51.49
645.83	53.83
645.98	53.83
646.13	88.94
646.27	49.15
646.42	32.77
646.57	21.06
646.71	11.70
646.86	0.00
647.00	81.92
647.15	37.45
647.30	65.54
647.44	65.54
647.59	63.19
647.74	23.41
647.88	77.24
648.03	0.00
648.17	84.26
648.32	86.60
648.47	51.49
648.61	74.90
648.76	42.13
648.90	18.72
649.05	25.75
649.20	23.41
649.34	81.92
649.49	56.17
649.63	53.83
649.78	88.94
649.92	95.96
650.07	121.71
650.21	25.75
650.36	51.49
650.51	4.68
650.65	67.88
650.80	72.56
650.94	42.13
651.09	21.06
651.23	37.45
651.38	65.54
651.52	28.09
651.67	25.75
651.81	0.00
651.96	100.64
652.10	51.49
652.25	35.11
652.39	46.81
652.54	37.45
652.68	72.56
652.83	4.68
652.97	110.01
653.12	79.58
653.26	0.00
653.41	18.72
653.55	98.30
653.70	0.00
653.84	0.00
653.99	74.90
654.13	0.00
654.27	56.17
654.42	74.90
654.56	112.35
654.71	93.62
654.85	37.45
655.00	0.00
655.14	46.81
655.29	77.24
655.43	77.24
655.57	56.17
655.72	107.66
655.86	93.62
656.01	16.38
656.15	9.36
656.30	37.45
656.44	42.13
656.58	81.92
656.73	35.11
656.87	9.36
657.01	126.39
657.16	86.60
657.30	72.56
657.45	105.32
657.59	77.24
657.73	35.11
657.88	0.00
658.02	37.45
658.16	37.45
658.31	95.96
658.45	0.00
658.60	0.00
658.74	110.01
658.88	67.88
659.03	28.09
659.17	79.58
659.31	58.51
659.46	88.94
659.60	44.47
659.74	107.66
659.89	86.60
660.03	70.22
660.17	25.75
660.32	42.13
660.46	117.03
660.60	60.85
660.74	107.66
660.89	128.73
661.03	53.83
661.17	56.17
661.32	49.15
661.46	42.13
661.60	65.54
661.74	37.45
661.89	21.06
662.03	63.19
662.17	49.15
662.31	14.04
662.46	11.70
662.60	63.19
662.74	25.75
662.88	67.88
663.03	102.98
663.17	60.85
663.31	0.00
663.45	102.98
663.60	23.41
663.74	0.00
663.88	65.54
664.02	23.41
664.17	53.83
664.31	7.02
664.45	74.90
664.59	32.77
664.73	0.00
664.88	65.54
665.02	91.28
665.16	32.77
665.30	46.81
665.44	35.11
665.59	79.58
665.73	51.49
665.87	32.77
666.01	77.24
666.15	37.45
666.29	0.00
666.44	42.13
666.58	63.19
666.72	93.62
666.86	46.81
667.00	18.72
667.14	37.45
667.28	77.24
667.43	25.75
667.57	32.77
667.71	53.83
667.85	100.64
667.99	39.79
668.13	74.90
668.27	60.85
668.41	131.07
668.56	60.85
668.70	100.64
668.84	9.36
668.98	63.19
669.12	112.35
669.26	65.54
669.40	0.00
669.54	67.88
669.68	49.15
669.82	44.47
669.96	49.15
670.10	81.92
670.25	70.22
670.39	0.00
670.53	23.41
670.67	56.17
670.81	51.49
670.95	77.24
671.09	46.81
671.23	74.90
671.37	23.41
671.51	28.09
671.65	93.62
671.79	0.00
671.93	37.45
672.07	60.85
672.21	32.77
672.35	72.56
672.49	42.13
672.63	65.54
672.77	9.36
672.91	44.47
673.05	18.72
673.19	32.77
673.33	0.00
673.47	79.58
673.61	25.75
673.75	74.90
673.89	65.54
674.03	77.24
674.17	25.75
674.31	56.17
674.45	28.09
674.59	21.06
674.73	9.36
674.87	65.54
675.01	39.79
675.15	42.13
675.29	0.00
675.43	25.75
675.56	7.02
675.70	60.85
675.84	21.06
675.98	84.26
676.12	56.17
676.26	60.85
676.40	0.00
676.54	81.92
676.68	46.81
676.82	42.13
676.96	53.83
677.10	86.60
677.23	35.11
677.37	39.79
677.51	56.17
677.65	0.00
677.79	21.06
677.93	37.45
678.07	16.38
678.21	0.00
678.34	51.49
678.48	0.00
678.62	25.75
678.76	0.00
678.90	18.72
679.04	16.38
679.18	11.70
679.31	18.72
679.45	81.92
679.59	100.64
679.73	25.75
679.87	16.38
680.00	72.56
680.14	32.77
680.28	0.00
680.42	21.06
680.56	51.49
680.70	14.04
680.83	39.79
680.97	58.51
681.11	35.11
681.25	124.05
681.39	67.88
681.52	95.96
681.66	98.30
681.80	21.06
681.94	21.06
682.07	32.77
682.21	58.51
682.35	46.81
682.49	18.72
682.62	56.17
682.76	74.90
682.90	93.62
683.04	0.00
683.17	44.47
683.31	79.58
683.45	28.09
683.59	39.79
683.72	60.85
683.86	58.51
684.00	39.79
684.13	51.49
684.27	32.77
684.41	39.79
684.55	37.45
684.68	53.83
684.82	0.00
684.96	37.45
685.09	58.51
685.23	32.77
685.37	56.17
685.50	56.17
685.64	32.77
685.78	42.13
685.91	39.79
686.05	28.09
686.19	60.85
686.32	16.38
686.46	81.92
686.60	44.47
686.73	0.00
686.87	30.43
687.01	25.75
687.14	42.13
687.28	18.72
687.42	65.54
687.55	0.00
687.69	32.77
687.82	79.58
687.96	98.30
688.10	51.49
688.23	67.88
688.37	81.92
688.50	79.58
688.64	86.60
688.78	16.38
688.91	49.15
689.05	126.39
689.18	88.94
689.32	23.41
689.46	86.60
689.59	0.00
689.73	0.00
689.86	56.17
690.00	16.38
690.13	30.43
690.27	0.00
690.41	0.00
690.54	51.49
690.68	9.36
690.81	49.15
690.95	35.11
691.08	51.49
691.22	44.47
691.35	135.75
691.49	0.00
691.62	72.56
691.76	77.24
691.89	58.51
692.03	0.00
692.16	0.00
692.30	65.54
692.43	74.90
692.57	37.45
692.70	79.58
692.84	21.06
692.97	25.75
693.11	7.02
693.24	25.75
693.38	0.00
693.51	107.66
693.65	58.51
693.78	49.15
693.92	0.00
694.05	0.00
694.19	25.75
694.32	35.11
694.45	16.38
694.59	35.11
694.72	21.06
694.86	0.00
694.99	2.34
695.13	56.17
695.26	77.24
695.39	39.79
695.53	63.19
695.66	0.00
695.80	16.38
695.93	0.00
696.07	2.34
696.20	46.81
696.33	23.41
696.47	72.56
696.60	65.54
696.73	0.00
696.87	16.38
697.00	39.79
697.14	0.00
697.27	21.06
697.40	28.09
697.54	16.38
697.67	39.79
697.80	77.24
697.94	14.04
698.07	67.88
698.21	35.11
698.34	65.54
698.47	25.75
698.61	37.45
698.74	25.75
698.87	74.90
699.01	65.54
699.14	44.47
699.27	0.00
699.40	28.09
699.54	23.41
699.67	16.38
699.80	53.83
699.94	51.49
700.07	21.06
700.20	0.00
700.34	44.47
700.47	77.24
700.60	25.75
700.73	46.81
700.87	67.88
701.00	2.34
701.13	0.00
701.26	39.79
701.40	44.47
701.53	79.58
701.66	0.00
701.79	67.88
701.93	42.13
702.06	53.83
702.19	37.45
702.32	117.03
702.46	7.02
702.59	28.09
702.72	42.13
702.85	23.41
702.99	67.88
703.12	30.43
703.25	35.11
703.38	25.75
703.51	42.13
703.65	2.34
703.78	0.00
703.91	7.02
704.04	30.43
704.17	67.88
704.31	35.11
704.44	9.36
704.57	74.90
704.70	42.13
704.83	0.00
704.96	18.72
705.10	14.04
705.23	0.00
>>>>>End Processed Spectral Data<<<<<
