SpectraSuite Data File
++++++++++++++++++++++++++++++++++++
Date: Fri Oct 04 12:13:36 GMT-05:00 2013
User: price-jones
Dark Spectrum Present: No
Reference Spectrum Present: No
Number of Sampled Component Spectra: 1
Spectrometers: USB2+H05261
Integration Time (usec): 10000 (USB2+H05261)
Spectra Averaged: 1 (USB2+H05261)
Boxcar Smoothing: 0 (USB2+H05261)
Correct for Electrical Dark: No (USB2+H05261)
Strobe/Lamp Enabled: No (USB2+H05261)
Correct for Detector Non-linearity: No (USB2+H05261)
Correct for Stray Light: No (USB2+H05261)
Number of Pixels in Processed Spectrum: 2048
>>>>>Begin Processed Spectral Data<<<<<
365.73	32.77
365.92	32.77
366.12	32.77
366.32	0.00
366.52	0.00
366.72	0.00
366.91	0.00
367.11	0.00
367.31	0.00
367.51	0.00
367.70	0.00
367.90	0.00
368.10	0.00
368.30	0.00
368.49	0.00
368.69	0.00
368.89	0.00
369.09	0.00
369.28	0.00
369.48	0.00
369.68	0.00
369.87	0.00
370.07	0.00
370.27	0.00
370.47	0.00
370.66	0.00
370.86	0.00
371.06	0.00
371.25	0.00
371.45	0.00
371.65	0.00
371.84	7.02
372.04	0.00
372.24	16.38
372.44	28.09
372.63	79.58
372.83	0.00
373.03	14.04
373.22	39.79
373.42	0.00
373.62	67.88
373.81	67.88
374.01	58.51
374.21	39.79
374.40	11.70
374.60	39.79
374.79	25.75
374.99	0.00
375.19	30.43
375.38	58.51
375.58	0.00
375.78	49.15
375.97	37.45
376.17	37.45
376.37	9.36
376.56	30.43
376.76	4.68
376.95	28.09
377.15	16.38
377.35	0.00
377.54	53.83
377.74	21.06
377.93	37.45
378.13	65.54
378.33	0.00
378.52	0.00
378.72	98.30
378.91	0.00
379.11	42.13
379.31	74.90
379.50	0.00
379.70	18.72
379.89	65.54
380.09	0.00
380.28	0.00
380.48	2.34
380.68	2.34
380.87	37.45
381.07	23.41
381.26	11.70
381.46	21.06
381.65	30.43
381.85	4.68
382.04	35.11
382.24	65.54
382.43	9.36
382.63	0.00
382.83	60.85
383.02	0.00
383.22	25.75
383.41	0.00
383.61	0.00
383.80	11.70
384.00	0.00
384.19	14.04
384.39	0.00
384.58	28.09
384.78	0.00
384.97	37.45
385.17	28.09
385.36	58.51
385.56	14.04
385.75	49.15
385.95	49.15
386.14	49.15
386.34	42.13
386.53	0.00
386.72	46.81
386.92	18.72
387.11	21.06
387.31	46.81
387.50	32.77
387.70	49.15
387.89	0.00
388.09	4.68
388.28	18.72
388.48	25.75
388.67	0.00
388.86	32.77
389.06	4.68
389.25	74.90
389.45	0.00
389.64	18.72
389.84	35.11
390.03	93.62
390.22	0.00
390.42	37.45
390.61	46.81
390.81	16.38
391.00	49.15
391.19	95.96
391.39	56.17
391.58	18.72
391.78	30.43
391.97	65.54
392.16	0.00
392.36	0.00
392.55	0.00
392.75	0.00
392.94	0.00
393.13	131.07
393.33	0.00
393.52	39.79
393.71	70.22
393.91	32.77
394.10	37.45
394.29	7.02
394.49	0.00
394.68	77.24
394.88	39.79
395.07	2.34
395.26	9.36
395.46	79.58
395.65	42.13
395.84	11.70
396.04	51.49
396.23	0.00
396.42	0.00
396.62	0.00
396.81	0.00
397.00	18.72
397.19	16.38
397.39	114.69
397.58	0.00
397.77	21.06
397.97	0.00
398.16	0.00
398.35	21.06
398.55	21.06
398.74	14.04
398.93	53.83
399.12	77.24
399.32	30.43
399.51	51.49
399.70	28.09
399.90	0.00
400.09	21.06
400.28	21.06
400.47	42.13
400.67	67.88
400.86	74.90
401.05	67.88
401.24	4.68
401.44	35.11
401.63	32.77
401.82	9.36
402.01	60.85
402.21	100.64
402.40	2.34
402.59	30.43
402.78	56.17
402.97	23.41
403.17	0.00
403.36	11.70
403.55	65.54
403.74	37.45
403.93	39.79
404.13	81.92
404.32	51.49
404.51	44.47
404.70	51.49
404.89	86.60
405.09	9.36
405.28	18.72
405.47	60.85
405.66	0.00
405.85	53.83
406.05	0.00
406.24	16.38
406.43	37.45
406.62	0.00
406.81	21.06
407.00	63.19
407.20	65.54
407.39	32.77
407.58	133.41
407.77	37.45
407.96	0.00
408.15	98.30
408.34	35.11
408.54	107.66
408.73	56.17
408.92	112.35
409.11	42.13
409.30	60.85
409.49	46.81
409.68	0.00
409.87	0.00
410.07	25.75
410.26	21.06
410.45	28.09
410.64	0.00
410.83	56.17
411.02	46.81
411.21	58.51
411.40	51.49
411.59	11.70
411.78	35.11
411.98	42.13
412.17	0.00
412.36	16.38
412.55	63.19
412.74	2.34
412.93	51.49
413.12	88.94
413.31	23.41
413.50	37.45
413.69	21.06
413.88	60.85
414.07	56.17
414.26	72.56
414.45	56.17
414.64	4.68
414.83	23.41
415.02	0.00
415.22	39.79
415.41	14.04
415.60	42.13
415.79	53.83
415.98	46.81
416.17	84.26
416.36	56.17
416.55	37.45
416.74	0.00
416.93	53.83
417.12	46.81
417.31	95.96
417.50	0.00
417.69	91.28
417.88	28.09
418.07	79.58
418.26	0.00
418.45	25.75
418.64	72.56
418.83	0.00
419.02	65.54
419.21	28.09
419.39	58.51
419.58	42.13
419.77	23.41
419.96	53.83
420.15	39.79
420.34	35.11
420.53	42.13
420.72	9.36
420.91	0.00
421.10	56.17
421.29	2.34
421.48	35.11
421.67	23.41
421.86	35.11
422.05	14.04
422.24	72.56
422.43	0.00
422.61	30.43
422.80	7.02
422.99	0.00
423.18	79.58
423.37	42.13
423.56	0.00
423.75	11.70
423.94	63.19
424.13	60.85
424.32	77.24
424.50	56.17
424.69	159.16
424.88	112.35
425.07	0.00
425.26	70.22
425.45	0.00
425.64	0.00
425.83	39.79
426.01	60.85
426.20	44.47
426.39	37.45
426.58	0.00
426.77	32.77
426.96	46.81
427.15	37.45
427.33	18.72
427.52	91.28
427.71	42.13
427.90	63.19
428.09	46.81
428.28	39.79
428.46	49.15
428.65	98.30
428.84	86.60
429.03	0.00
429.22	53.83
429.40	44.47
429.59	37.45
429.78	84.26
429.97	91.28
430.16	30.43
430.34	42.13
430.53	9.36
430.72	0.00
430.91	74.90
431.10	44.47
431.28	42.13
431.47	0.00
431.66	23.41
431.85	0.00
432.03	16.38
432.22	23.41
432.41	65.54
432.60	30.43
432.79	67.88
432.97	16.38
433.16	49.15
433.35	21.06
433.54	140.43
433.72	56.17
433.91	58.51
434.10	9.36
434.28	0.00
434.47	107.66
434.66	93.62
434.85	0.00
435.03	42.13
435.22	81.92
435.41	51.49
435.59	49.15
435.78	0.00
435.97	0.00
436.16	77.24
436.34	46.81
436.53	28.09
436.72	9.36
436.90	74.90
437.09	74.90
437.28	37.45
437.46	98.30
437.65	63.19
437.84	74.90
438.02	74.90
438.21	93.62
438.40	44.47
438.58	7.02
438.77	79.58
438.96	46.81
439.14	9.36
439.33	23.41
439.52	65.54
439.70	81.92
439.89	60.85
440.08	44.47
440.26	70.22
440.45	95.96
440.63	0.00
440.82	77.24
441.01	46.81
441.19	39.79
441.38	7.02
441.57	102.98
441.75	0.00
441.94	60.85
442.12	72.56
442.31	0.00
442.50	21.06
442.68	16.38
442.87	53.83
443.05	4.68
443.24	53.83
443.43	14.04
443.61	53.83
443.80	79.58
443.98	72.56
444.17	28.09
444.35	56.17
444.54	86.60
444.73	72.56
444.91	77.24
445.10	51.49
445.28	0.00
445.47	58.51
445.65	0.00
445.84	0.00
446.02	30.43
446.21	30.43
446.39	84.26
446.58	35.11
446.77	37.45
446.95	32.77
447.14	11.70
447.32	95.96
447.51	60.85
447.69	21.06
447.88	14.04
448.06	0.00
448.25	67.88
448.43	98.30
448.62	35.11
448.80	56.17
448.99	39.79
449.17	95.96
449.36	46.81
449.54	114.69
449.73	37.45
449.91	100.64
450.10	53.83
450.28	46.81
450.46	156.82
450.65	49.15
450.83	81.92
451.02	161.50
451.20	32.77
451.39	114.69
451.57	44.47
451.76	126.39
451.94	72.56
452.13	105.32
452.31	112.35
452.49	105.32
452.68	107.66
452.86	56.17
453.05	74.90
453.23	114.69
453.42	0.00
453.60	2.34
453.78	58.51
453.97	42.13
454.15	35.11
454.34	91.28
454.52	42.13
454.70	58.51
454.89	21.06
455.07	100.64
455.26	84.26
455.44	86.60
455.62	28.09
455.81	65.54
455.99	0.00
456.17	42.13
456.36	42.13
456.54	86.60
456.73	51.49
456.91	72.56
457.09	42.13
457.28	79.58
457.46	65.54
457.64	42.13
457.83	28.09
458.01	7.02
458.19	63.19
458.38	39.79
458.56	119.37
458.74	18.72
458.93	9.36
459.11	63.19
459.29	98.30
459.48	14.04
459.66	4.68
459.84	21.06
460.03	0.00
460.21	56.17
460.39	39.79
460.57	112.35
460.76	0.00
460.94	28.09
461.12	60.85
461.31	88.94
461.49	72.56
461.67	65.54
461.85	46.81
462.04	28.09
462.22	100.64
462.40	46.81
462.59	51.49
462.77	67.88
462.95	67.88
463.13	58.51
463.32	81.92
463.50	14.04
463.68	63.19
463.86	42.13
464.05	4.68
464.23	39.79
464.41	58.51
464.59	56.17
464.78	46.81
464.96	91.28
465.14	88.94
465.32	39.79
465.50	35.11
465.69	58.51
465.87	91.28
466.05	100.64
466.23	56.17
466.41	18.72
466.60	28.09
466.78	23.41
466.96	18.72
467.14	86.60
467.32	2.34
467.51	60.85
467.69	0.00
467.87	51.49
468.05	58.51
468.23	95.96
468.41	86.60
468.60	51.49
468.78	0.00
468.96	28.09
469.14	42.13
469.32	46.81
469.50	25.75
469.69	100.64
469.87	0.00
470.05	79.58
470.23	58.51
470.41	42.13
470.59	44.47
470.77	30.43
470.95	0.00
471.14	37.45
471.32	0.00
471.50	4.68
471.68	63.19
471.86	35.11
472.04	60.85
472.22	88.94
472.40	93.62
472.58	0.00
472.77	84.26
472.95	60.85
473.13	53.83
473.31	81.92
473.49	91.28
473.67	149.79
473.85	7.02
474.03	51.49
474.21	67.88
474.39	74.90
474.57	0.00
474.75	35.11
474.93	14.04
475.12	25.75
475.30	81.92
475.48	93.62
475.66	11.70
475.84	72.56
476.02	58.51
476.20	114.69
476.38	53.83
476.56	67.88
476.74	70.22
476.92	44.47
477.10	70.22
477.28	0.00
477.46	121.71
477.64	44.47
477.82	7.02
478.00	107.66
478.18	70.22
478.36	0.00
478.54	25.75
478.72	58.51
478.90	77.24
479.08	95.96
479.26	39.79
479.44	77.24
479.62	65.54
479.80	91.28
479.98	23.41
480.16	102.98
480.34	65.54
480.52	81.92
480.70	28.09
480.88	67.88
481.06	67.88
481.24	72.56
481.41	39.79
481.59	60.85
481.77	110.01
481.95	196.60
482.13	84.26
482.31	35.11
482.49	100.64
482.67	42.13
482.85	35.11
483.03	42.13
483.21	16.38
483.39	53.83
483.57	63.19
483.74	4.68
483.92	51.49
484.10	32.77
484.28	30.43
484.46	102.98
484.64	32.77
484.82	95.96
485.00	117.03
485.18	0.00
485.35	46.81
485.53	4.68
485.71	28.09
485.89	70.22
486.07	0.00
486.25	98.30
486.43	0.00
486.61	67.88
486.78	88.94
486.96	93.62
487.14	114.69
487.32	0.00
487.50	18.72
487.68	88.94
487.85	60.85
488.03	63.19
488.21	79.58
488.39	124.05
488.57	37.45
488.75	121.71
488.92	159.16
489.10	112.35
489.28	16.38
489.46	72.56
489.64	95.96
489.81	100.64
489.99	44.47
490.17	37.45
490.35	63.19
490.53	149.79
490.70	53.83
490.88	126.39
491.06	70.22
491.24	42.13
491.41	131.07
491.59	79.58
491.77	166.18
491.95	63.19
492.13	81.92
492.30	28.09
492.48	88.94
492.66	51.49
492.84	60.85
493.01	72.56
493.19	77.24
493.37	77.24
493.54	102.98
493.72	65.54
493.90	86.60
494.08	79.58
494.25	42.13
494.43	0.00
494.61	79.58
494.79	154.48
494.96	70.22
495.14	49.15
495.32	65.54
495.49	100.64
495.67	49.15
495.85	2.34
496.02	53.83
496.20	49.15
496.38	88.94
496.55	30.43
496.73	16.38
496.91	51.49
497.09	93.62
497.26	81.92
497.44	102.98
497.62	84.26
497.79	117.03
497.97	67.88
498.14	110.01
498.32	110.01
498.50	70.22
498.67	112.35
498.85	93.62
499.03	77.24
499.20	79.58
499.38	42.13
499.56	81.92
499.73	100.64
499.91	32.77
500.08	110.01
500.26	95.96
500.44	67.88
500.61	142.77
500.79	105.32
500.97	95.96
501.14	56.17
501.32	63.19
501.49	23.41
501.67	74.90
501.84	11.70
502.02	84.26
502.20	91.28
502.37	9.36
502.55	11.70
502.72	70.22
502.90	35.11
503.07	95.96
503.25	112.35
503.43	0.00
503.60	58.51
503.78	65.54
503.95	98.30
504.13	0.00
504.30	0.00
504.48	56.17
504.65	138.09
504.83	79.58
505.01	63.19
505.18	84.26
505.36	117.03
505.53	131.07
505.71	128.73
505.88	84.26
506.06	102.98
506.23	95.96
506.41	53.83
506.58	152.13
506.76	133.41
506.93	18.72
507.11	42.13
507.28	88.94
507.46	147.45
507.63	63.19
507.81	124.05
507.98	110.01
508.16	161.50
508.33	58.51
508.50	77.24
508.68	42.13
508.85	84.26
509.03	95.96
509.20	53.83
509.38	77.24
509.55	112.35
509.73	105.32
509.90	117.03
510.08	60.85
510.25	63.19
510.42	95.96
510.60	124.05
510.77	133.41
510.95	39.79
511.12	121.71
511.30	56.17
511.47	46.81
511.64	86.60
511.82	67.88
511.99	72.56
512.17	51.49
512.34	98.30
512.51	105.32
512.69	114.69
512.86	140.43
513.04	37.45
513.21	65.54
513.38	102.98
513.56	133.41
513.73	102.98
513.90	98.30
514.08	56.17
514.25	81.92
514.43	74.90
514.60	98.30
514.77	102.98
514.95	81.92
515.12	110.01
515.29	124.05
515.47	67.88
515.64	37.45
515.81	98.30
515.99	21.06
516.16	4.68
516.33	56.17
516.51	2.34
516.68	105.32
516.85	100.64
517.03	65.54
517.20	79.58
517.37	142.77
517.54	14.04
517.72	86.60
517.89	44.47
518.06	67.88
518.24	42.13
518.41	32.77
518.58	102.98
518.75	74.90
518.93	124.05
519.10	102.98
519.27	18.72
519.45	74.90
519.62	28.09
519.79	49.15
519.96	152.13
520.14	74.90
520.31	149.79
520.48	135.75
520.65	105.32
520.83	126.39
521.00	51.49
521.17	70.22
521.34	56.17
521.52	135.75
521.69	105.32
521.86	110.01
522.03	79.58
522.20	65.54
522.38	77.24
522.55	65.54
522.72	11.70
522.89	79.58
523.07	93.62
523.24	56.17
523.41	67.88
523.58	98.30
523.75	35.11
523.92	93.62
524.10	107.66
524.27	217.67
524.44	149.79
524.61	21.06
524.78	51.49
524.96	124.05
525.13	39.79
525.30	105.32
525.47	91.28
525.64	126.39
525.81	163.84
525.98	91.28
526.16	105.32
526.33	37.45
526.50	21.06
526.67	14.04
526.84	53.83
527.01	0.00
527.18	37.45
527.36	56.17
527.53	95.96
527.70	21.06
527.87	67.88
528.04	74.90
528.21	95.96
528.38	107.66
528.55	46.81
528.72	84.26
528.89	91.28
529.07	145.11
529.24	147.45
529.41	95.96
529.58	51.49
529.75	184.90
529.92	112.35
530.09	7.02
530.26	63.19
530.43	107.66
530.60	126.39
530.77	84.26
530.94	100.64
531.11	74.90
531.28	105.32
531.46	56.17
531.63	44.47
531.80	98.30
531.97	95.96
532.14	117.03
532.31	135.75
532.48	58.51
532.65	117.03
532.82	95.96
532.99	112.35
533.16	180.22
533.33	159.16
533.50	67.88
533.67	37.45
533.84	88.94
534.01	49.15
534.18	95.96
534.35	100.64
534.52	84.26
534.69	79.58
534.86	112.35
535.03	14.04
535.20	46.81
535.37	70.22
535.54	35.11
535.71	124.05
535.88	86.60
536.05	81.92
536.22	119.37
536.38	72.56
536.55	77.24
536.72	84.26
536.89	77.24
537.06	152.13
537.23	72.56
537.40	42.13
537.57	65.54
537.74	91.28
537.91	100.64
538.08	51.49
538.25	37.45
538.42	53.83
538.59	100.64
538.75	88.94
538.92	72.56
539.09	88.94
539.26	49.15
539.43	46.81
539.60	37.45
539.77	110.01
539.94	58.51
540.11	93.62
540.28	79.58
540.44	84.26
540.61	110.01
540.78	53.83
540.95	67.88
541.12	42.13
541.29	58.51
541.46	126.39
541.62	86.60
541.79	39.79
541.96	77.24
542.13	51.49
542.30	72.56
542.47	152.13
542.63	9.36
542.80	142.77
542.97	105.32
543.14	72.56
543.31	98.30
543.48	107.66
543.64	84.26
543.81	121.71
543.98	14.04
544.15	81.92
544.32	21.06
544.48	126.39
544.65	88.94
544.82	37.45
544.99	46.81
545.16	112.35
545.32	74.90
545.49	28.09
545.66	79.58
545.83	63.19
546.00	30.43
546.16	79.58
546.33	84.26
546.50	30.43
546.67	46.81
546.83	60.85
547.00	107.66
547.17	140.43
547.34	93.62
547.50	14.04
547.67	56.17
547.84	37.45
548.00	63.19
548.17	63.19
548.34	119.37
548.51	84.26
548.67	60.85
548.84	51.49
549.01	100.64
549.18	133.41
549.34	18.72
549.51	63.19
549.68	95.96
549.84	74.90
550.01	112.35
550.18	166.18
550.34	112.35
550.51	16.38
550.68	4.68
550.84	42.13
551.01	18.72
551.18	131.07
551.34	46.81
551.51	65.54
551.68	88.94
551.84	131.07
552.01	131.07
552.18	35.11
552.34	14.04
552.51	95.96
552.68	79.58
552.84	58.51
553.01	84.26
553.18	72.56
553.34	100.64
553.51	105.32
553.67	135.75
553.84	135.75
554.01	49.15
554.17	21.06
554.34	84.26
554.51	84.26
554.67	28.09
554.84	156.82
555.00	131.07
555.17	39.79
555.33	84.26
555.50	117.03
555.67	65.54
555.83	65.54
556.00	135.75
556.16	145.11
556.33	95.96
556.50	142.77
556.66	35.11
556.83	18.72
556.99	112.35
557.16	58.51
557.32	91.28
557.49	74.90
557.65	79.58
557.82	49.15
557.98	88.94
558.15	86.60
558.32	119.37
558.48	93.62
558.65	65.54
558.81	67.88
558.98	84.26
559.14	56.17
559.31	14.04
559.47	56.17
559.64	0.00
559.80	72.56
559.97	110.01
560.13	159.16
560.30	60.85
560.46	93.62
560.63	46.81
560.79	49.15
560.96	86.60
561.12	65.54
561.29	121.71
561.45	67.88
561.61	70.22
561.78	117.03
561.94	149.79
562.11	81.92
562.27	49.15
562.44	152.13
562.60	147.45
562.77	16.38
562.93	67.88
563.10	84.26
563.26	128.73
563.42	166.18
563.59	131.07
563.75	98.30
563.92	84.26
564.08	88.94
564.24	138.09
564.41	37.45
564.57	65.54
564.74	95.96
564.90	98.30
565.07	149.79
565.23	102.98
565.39	0.00
565.56	63.19
565.72	86.60
565.88	79.58
566.05	105.32
566.21	58.51
566.38	79.58
566.54	44.47
566.70	72.56
566.87	65.54
567.03	107.66
567.19	70.22
567.36	124.05
567.52	70.22
567.68	67.88
567.85	93.62
568.01	35.11
568.17	128.73
568.34	18.72
568.50	44.47
568.66	0.00
568.83	79.58
568.99	107.66
569.15	114.69
569.32	93.62
569.48	49.15
569.64	79.58
569.81	91.28
569.97	74.90
570.13	60.85
570.30	28.09
570.46	23.41
570.62	114.69
570.78	74.90
570.95	49.15
571.11	51.49
571.27	95.96
571.43	56.17
571.60	84.26
571.76	79.58
571.92	37.45
572.09	110.01
572.25	35.11
572.41	53.83
572.57	56.17
572.74	168.52
572.90	91.28
573.06	86.60
573.22	107.66
573.38	105.32
573.55	95.96
573.71	175.54
573.87	81.92
574.03	149.79
574.20	107.66
574.36	86.60
574.52	107.66
574.68	18.72
574.84	58.51
575.01	163.84
575.17	30.43
575.33	86.60
575.49	112.35
575.65	25.75
575.82	60.85
575.98	133.41
576.14	112.35
576.30	79.58
576.46	152.13
576.62	65.54
576.79	138.09
576.95	93.62
577.11	84.26
577.27	25.75
577.43	60.85
577.59	37.45
577.75	70.22
577.92	70.22
578.08	84.26
578.24	60.85
578.40	119.37
578.56	119.37
578.72	110.01
578.88	98.30
579.04	124.05
579.21	32.77
579.37	49.15
579.53	44.47
579.69	53.83
579.85	51.49
580.01	74.90
580.17	81.92
580.33	67.88
580.49	53.83
580.65	56.17
580.82	0.00
580.98	100.64
581.14	46.81
581.30	91.28
581.46	56.17
581.62	112.35
581.78	154.48
581.94	93.62
582.10	37.45
582.26	119.37
582.42	65.54
582.58	0.00
582.74	67.88
582.90	51.49
583.06	152.13
583.22	77.24
583.38	7.02
583.54	91.28
583.70	88.94
583.86	72.56
584.02	112.35
584.18	44.47
584.34	79.58
584.50	7.02
584.66	58.51
584.82	88.94
584.98	60.85
585.14	124.05
585.30	72.56
585.46	74.90
585.62	53.83
585.78	70.22
585.94	42.13
586.10	72.56
586.26	81.92
586.42	117.03
586.58	102.98
586.74	128.73
586.90	28.09
587.06	18.72
587.22	128.73
587.38	112.35
587.54	110.01
587.70	63.19
587.86	79.58
588.02	88.94
588.18	60.85
588.34	35.11
588.49	44.47
588.65	114.69
588.81	25.75
588.97	79.58
589.13	65.54
589.29	60.85
589.45	77.24
589.61	119.37
589.77	30.43
589.93	114.69
590.08	70.22
590.24	51.49
590.40	98.30
590.56	42.13
590.72	49.15
590.88	53.83
591.04	74.90
591.20	53.83
591.35	51.49
591.51	56.17
591.67	81.92
591.83	42.13
591.99	79.58
592.15	56.17
592.31	84.26
592.46	46.81
592.62	88.94
592.78	39.79
592.94	81.92
593.10	84.26
593.26	95.96
593.41	0.00
593.57	14.04
593.73	0.00
593.89	131.07
594.05	28.09
594.20	147.45
594.36	114.69
594.52	91.28
594.68	72.56
594.84	23.41
594.99	65.54
595.15	107.66
595.31	56.17
595.47	142.77
595.62	2.34
595.78	23.41
595.94	30.43
596.10	0.00
596.25	79.58
596.41	49.15
596.57	35.11
596.73	63.19
596.88	44.47
597.04	72.56
597.20	49.15
597.36	100.64
597.51	23.41
597.67	70.22
597.83	77.24
597.99	37.45
598.14	110.01
598.30	112.35
598.46	98.30
598.61	77.24
598.77	88.94
598.93	53.83
599.09	124.05
599.24	53.83
599.40	70.22
599.56	91.28
599.71	100.64
599.87	74.90
600.03	25.75
600.18	126.39
600.34	95.96
600.50	77.24
600.65	53.83
600.81	102.98
600.97	86.60
601.12	0.00
601.28	28.09
601.44	100.64
601.59	121.71
601.75	110.01
601.91	37.45
602.06	91.28
602.22	98.30
602.37	131.07
602.53	81.92
602.69	18.72
602.84	79.58
603.00	72.56
603.16	70.22
603.31	58.51
603.47	77.24
603.62	128.73
603.78	114.69
603.94	86.60
604.09	102.98
604.25	25.75
604.40	74.90
604.56	105.32
604.71	60.85
604.87	65.54
605.03	67.88
605.18	105.32
605.34	58.51
605.49	91.28
605.65	25.75
605.80	88.94
605.96	79.58
606.12	81.92
606.27	67.88
606.43	100.64
606.58	56.17
606.74	63.19
606.89	84.26
607.05	105.32
607.20	60.85
607.36	70.22
607.51	4.68
607.67	4.68
607.82	44.47
607.98	77.24
608.13	56.17
608.29	0.00
608.44	102.98
608.60	74.90
608.75	72.56
608.91	84.26
609.06	88.94
609.22	72.56
609.37	117.03
609.53	81.92
609.68	140.43
609.84	51.49
609.99	126.39
610.15	86.60
610.30	51.49
610.46	39.79
610.61	112.35
610.76	70.22
610.92	84.26
611.07	100.64
611.23	84.26
611.38	32.77
611.54	110.01
611.69	142.77
611.84	53.83
612.00	95.96
612.15	28.09
612.31	58.51
612.46	84.26
612.62	23.41
612.77	159.16
612.92	51.49
613.08	67.88
613.23	77.24
613.39	0.00
613.54	100.64
613.69	0.00
613.85	142.77
614.00	32.77
614.15	16.38
614.31	28.09
614.46	51.49
614.62	0.00
614.77	65.54
614.92	117.03
615.08	23.41
615.23	9.36
615.38	51.49
615.54	67.88
615.69	63.19
615.84	0.00
616.00	0.00
616.15	102.98
616.30	77.24
616.46	58.51
616.61	35.11
616.76	95.96
616.92	30.43
617.07	102.98
617.22	67.88
617.37	138.09
617.53	23.41
617.68	74.90
617.83	79.58
617.99	114.69
618.14	74.90
618.29	77.24
618.45	95.96
618.60	63.19
618.75	100.64
618.90	79.58
619.06	23.41
619.21	91.28
619.36	70.22
619.51	74.90
619.67	107.66
619.82	44.47
619.97	53.83
620.12	56.17
620.28	107.66
620.43	53.83
620.58	0.00
620.73	63.19
620.89	42.13
621.04	121.71
621.19	65.54
621.34	14.04
621.49	63.19
621.65	37.45
621.80	49.15
621.95	70.22
622.10	65.54
622.25	0.00
622.41	70.22
622.56	72.56
622.71	30.43
622.86	46.81
623.01	25.75
623.16	86.60
623.32	0.00
623.47	98.30
623.62	102.98
623.77	138.09
623.92	84.26
624.07	2.34
624.23	7.02
624.38	51.49
624.53	60.85
624.68	0.00
624.83	98.30
624.98	0.00
625.13	77.24
625.29	124.05
625.44	72.56
625.59	25.75
625.74	14.04
625.89	154.48
626.04	107.66
626.19	79.58
626.34	42.13
626.49	74.90
626.65	100.64
626.80	53.83
626.95	44.47
627.10	65.54
627.25	84.26
627.40	35.11
627.55	35.11
627.70	16.38
627.85	93.62
628.00	102.98
628.15	138.09
628.30	25.75
628.45	25.75
628.60	88.94
628.76	60.85
628.91	84.26
629.06	32.77
629.21	81.92
629.36	9.36
629.51	63.19
629.66	65.54
629.81	70.22
629.96	84.26
630.11	98.30
630.26	49.15
630.41	23.41
630.56	49.15
630.71	28.09
630.86	74.90
631.01	25.75
631.16	0.00
631.31	63.19
631.46	42.13
631.61	46.81
631.76	51.49
631.91	79.58
632.06	65.54
632.21	25.75
632.36	46.81
632.51	16.38
632.66	56.17
632.81	16.38
632.96	84.26
633.10	81.92
633.25	79.58
633.40	44.47
633.55	91.28
633.70	79.58
633.85	105.32
634.00	58.51
634.15	102.98
634.30	44.47
634.45	110.01
634.60	100.64
634.75	49.15
634.90	84.26
635.05	105.32
635.19	93.62
635.34	107.66
635.49	23.41
635.64	70.22
635.79	14.04
635.94	56.17
636.09	63.19
636.24	58.51
636.39	124.05
636.53	67.88
636.68	37.45
636.83	44.47
636.98	0.00
637.13	67.88
637.28	37.45
637.43	140.43
637.57	49.15
637.72	88.94
637.87	30.43
638.02	70.22
638.17	46.81
638.32	105.32
638.46	84.26
638.61	42.13
638.76	102.98
638.91	46.81
639.06	44.47
639.20	42.13
639.35	46.81
639.50	4.68
639.65	60.85
639.80	107.66
639.94	56.17
640.09	95.96
640.24	32.77
640.39	11.70
640.54	11.70
640.68	72.56
640.83	44.47
640.98	56.17
641.13	65.54
641.27	88.94
641.42	95.96
641.57	72.56
641.72	81.92
641.86	16.38
642.01	72.56
642.16	32.77
642.31	121.71
642.45	74.90
642.60	84.26
642.75	32.77
642.90	145.11
643.04	91.28
643.19	46.81
643.34	16.38
643.48	21.06
643.63	67.88
643.78	98.30
643.93	77.24
644.07	46.81
644.22	2.34
644.37	81.92
644.51	28.09
644.66	72.56
644.81	65.54
644.95	35.11
645.10	14.04
645.25	63.19
645.39	91.28
645.54	91.28
645.69	74.90
645.83	44.47
645.98	114.69
646.13	74.90
646.27	32.77
646.42	121.71
646.57	4.68
646.71	102.98
646.86	21.06
647.00	32.77
647.15	60.85
647.30	21.06
647.44	51.49
647.59	74.90
647.74	46.81
647.88	35.11
648.03	56.17
648.17	9.36
648.32	21.06
648.47	60.85
648.61	14.04
648.76	0.00
648.90	9.36
649.05	44.47
649.20	46.81
649.34	63.19
649.49	44.47
649.63	60.85
649.78	4.68
649.92	39.79
650.07	72.56
650.21	49.15
650.36	46.81
650.51	0.00
650.65	98.30
650.80	23.41
650.94	11.70
651.09	53.83
651.23	81.92
651.38	23.41
651.52	16.38
651.67	0.00
651.81	63.19
651.96	110.01
652.10	93.62
652.25	102.98
652.39	93.62
652.54	60.85
652.68	63.19
652.83	44.47
652.97	35.11
653.12	32.77
653.26	95.96
653.41	46.81
653.55	95.96
653.70	93.62
653.84	56.17
653.99	77.24
654.13	84.26
654.27	74.90
654.42	0.00
654.56	0.00
654.71	21.06
654.85	14.04
655.00	16.38
655.14	2.34
655.29	124.05
655.43	72.56
655.57	88.94
655.72	65.54
655.86	28.09
656.01	0.00
656.15	14.04
656.30	37.45
656.44	102.98
656.58	7.02
656.73	72.56
656.87	67.88
657.01	100.64
657.16	84.26
657.30	135.75
657.45	67.88
657.59	30.43
657.73	7.02
657.88	56.17
658.02	46.81
658.16	46.81
658.31	107.66
658.45	0.00
658.60	133.41
658.74	4.68
658.88	14.04
659.03	51.49
659.17	79.58
659.31	51.49
659.46	42.13
659.60	21.06
659.74	95.96
659.89	77.24
660.03	46.81
660.17	53.83
660.32	30.43
660.46	60.85
660.60	77.24
660.74	77.24
660.89	11.70
661.03	58.51
661.17	67.88
661.32	63.19
661.46	9.36
661.60	30.43
661.74	35.11
661.89	60.85
662.03	79.58
662.17	46.81
662.31	32.77
662.46	0.00
662.60	51.49
662.74	65.54
662.88	107.66
663.03	84.26
663.17	49.15
663.31	0.00
663.45	72.56
663.60	98.30
663.74	105.32
663.88	21.06
664.02	32.77
664.17	51.49
664.31	70.22
664.45	86.60
664.59	84.26
664.73	32.77
664.88	88.94
665.02	32.77
665.16	70.22
665.30	81.92
665.44	39.79
665.59	79.58
665.73	102.98
665.87	58.51
666.01	51.49
666.15	18.72
666.29	74.90
666.44	60.85
666.58	0.00
666.72	60.85
666.86	28.09
667.00	67.88
667.14	79.58
667.28	105.32
667.43	72.56
667.57	25.75
667.71	18.72
667.85	11.70
667.99	117.03
668.13	30.43
668.27	14.04
668.41	44.47
668.56	18.72
668.70	7.02
668.84	32.77
668.98	60.85
669.12	63.19
669.26	67.88
669.40	93.62
669.54	67.88
669.68	102.98
669.82	100.64
669.96	42.13
670.10	65.54
670.25	98.30
670.39	107.66
670.53	23.41
670.67	42.13
670.81	42.13
670.95	46.81
671.09	65.54
671.23	14.04
671.37	51.49
671.51	74.90
671.65	23.41
671.79	46.81
671.93	16.38
672.07	79.58
672.21	9.36
672.35	44.47
672.49	51.49
672.63	95.96
672.77	72.56
672.91	67.88
673.05	0.00
673.19	98.30
673.33	0.00
673.47	25.75
673.61	11.70
673.75	39.79
673.89	30.43
674.03	25.75
674.17	21.06
674.31	30.43
674.45	42.13
674.59	16.38
674.73	0.00
674.87	65.54
675.01	58.51
675.15	14.04
675.29	11.70
675.43	46.81
675.56	49.15
675.70	56.17
675.84	0.00
675.98	60.85
676.12	0.00
676.26	0.00
676.40	0.00
676.54	0.00
676.68	0.00
676.82	32.77
676.96	0.00
677.10	4.68
677.23	70.22
677.37	32.77
677.51	86.60
677.65	114.69
677.79	0.00
677.93	23.41
678.07	32.77
678.21	44.47
678.34	63.19
678.48	63.19
678.62	0.00
678.76	60.85
678.90	44.47
679.04	37.45
679.18	23.41
679.31	63.19
679.45	84.26
679.59	72.56
679.73	63.19
679.87	98.30
680.00	14.04
680.14	16.38
680.28	58.51
680.42	81.92
680.56	49.15
680.70	42.13
680.83	67.88
680.97	105.32
681.11	21.06
681.25	0.00
681.39	46.81
681.52	107.66
681.66	46.81
681.80	0.00
681.94	79.58
682.07	53.83
682.21	53.83
682.35	9.36
682.49	74.90
682.62	63.19
682.76	51.49
682.90	18.72
683.04	112.35
683.17	35.11
683.31	49.15
683.45	0.00
683.59	23.41
683.72	35.11
683.86	14.04
684.00	51.49
684.13	88.94
684.27	53.83
684.41	0.00
684.55	98.30
684.68	72.56
684.82	7.02
684.96	0.00
685.09	21.06
685.23	42.13
685.37	51.49
685.50	35.11
685.64	112.35
685.78	16.38
685.91	0.00
686.05	21.06
686.19	63.19
686.32	18.72
686.46	11.70
686.60	46.81
686.73	44.47
686.87	91.28
687.01	0.00
687.14	0.00
687.28	95.96
687.42	14.04
687.55	35.11
687.69	46.81
687.82	4.68
687.96	0.00
688.10	18.72
688.23	58.51
688.37	70.22
688.50	18.72
688.64	28.09
688.78	30.43
688.91	65.54
689.05	91.28
689.18	95.96
689.32	88.94
689.46	0.00
689.59	0.00
689.73	72.56
689.86	4.68
690.00	0.00
690.13	39.79
690.27	65.54
690.41	0.00
690.54	37.45
690.68	46.81
690.81	0.00
690.95	4.68
691.08	0.00
691.22	0.00
691.35	79.58
691.49	28.09
691.62	16.38
691.76	49.15
691.89	0.00
692.03	2.34
692.16	28.09
692.30	81.92
692.43	0.00
692.57	42.13
692.70	51.49
692.84	49.15
692.97	2.34
693.11	60.85
693.24	42.13
693.38	21.06
693.51	49.15
693.65	14.04
693.78	0.00
693.92	126.39
694.05	0.00
694.19	56.17
694.32	91.28
694.45	35.11
694.59	147.45
694.72	0.00
694.86	4.68
694.99	56.17
695.13	9.36
695.26	95.96
695.39	30.43
695.53	35.11
695.66	149.79
695.80	0.00
695.93	70.22
696.07	0.00
696.20	0.00
696.33	93.62
696.47	21.06
696.60	28.09
696.73	0.00
696.87	67.88
697.00	4.68
697.14	25.75
697.27	0.00
697.40	18.72
697.54	51.49
697.67	37.45
697.80	133.41
697.94	51.49
698.07	53.83
698.21	84.26
698.34	16.38
698.47	46.81
698.61	2.34
698.74	39.79
698.87	0.00
699.01	42.13
699.14	53.83
699.27	100.64
699.40	37.45
699.54	81.92
699.67	88.94
699.80	25.75
699.94	51.49
700.07	35.11
700.20	0.00
700.34	11.70
700.47	9.36
700.60	11.70
700.73	23.41
700.87	70.22
701.00	28.09
701.13	77.24
701.26	67.88
701.40	74.90
701.53	18.72
701.66	93.62
701.79	28.09
701.93	30.43
702.06	53.83
702.19	18.72
702.32	21.06
702.46	16.38
702.59	39.79
702.72	58.51
702.85	28.09
702.99	49.15
703.12	65.54
703.25	46.81
703.38	0.00
703.51	35.11
703.65	16.38
703.78	84.26
703.91	23.41
704.04	0.00
704.17	2.34
704.31	0.00
704.44	37.45
704.57	35.11
704.70	79.58
704.83	49.15
704.96	18.72
705.10	0.00
705.23	58.51
>>>>>End Processed Spectral Data<<<<<
