SpectraSuite Data File
++++++++++++++++++++++++++++++++++++
Date: Fri Oct 04 12:13:34 GMT-05:00 2013
User: price-jones
Dark Spectrum Present: No
Reference Spectrum Present: No
Number of Sampled Component Spectra: 1
Spectrometers: USB2+H05261
Integration Time (usec): 10000 (USB2+H05261)
Spectra Averaged: 1 (USB2+H05261)
Boxcar Smoothing: 0 (USB2+H05261)
Correct for Electrical Dark: No (USB2+H05261)
Strobe/Lamp Enabled: No (USB2+H05261)
Correct for Detector Non-linearity: No (USB2+H05261)
Correct for Stray Light: No (USB2+H05261)
Number of Pixels in Processed Spectrum: 2048
>>>>>Begin Processed Spectral Data<<<<<
365.73	0.00
365.92	0.00
366.12	0.00
366.32	0.00
366.52	0.00
366.72	0.00
366.91	0.00
367.11	0.00
367.31	0.00
367.51	0.00
367.70	0.00
367.90	0.00
368.10	0.00
368.30	0.00
368.49	0.00
368.69	0.00
368.89	0.00
369.09	0.00
369.28	0.00
369.48	0.00
369.68	0.00
369.87	0.00
370.07	0.00
370.27	0.00
370.47	0.00
370.66	0.00
370.86	0.00
371.06	0.00
371.25	0.00
371.45	0.00
371.65	0.00
371.84	14.04
372.04	0.00
372.24	25.75
372.44	67.88
372.63	0.00
372.83	81.92
373.03	18.72
373.22	0.00
373.42	30.43
373.62	0.00
373.81	46.81
374.01	65.54
374.21	30.43
374.40	0.00
374.60	0.00
374.79	53.83
374.99	65.54
375.19	81.92
375.38	0.00
375.58	0.00
375.78	25.75
375.97	28.09
376.17	0.00
376.37	0.00
376.56	0.00
376.76	93.62
376.95	0.00
377.15	4.68
377.35	32.77
377.54	49.15
377.74	42.13
377.93	4.68
378.13	0.00
378.33	0.00
378.52	4.68
378.72	0.00
378.91	0.00
379.11	0.00
379.31	0.00
379.50	11.70
379.70	81.92
379.89	9.36
380.09	37.45
380.28	18.72
380.48	79.58
380.68	0.00
380.87	58.51
381.07	72.56
381.26	44.47
381.46	23.41
381.65	9.36
381.85	25.75
382.04	0.00
382.24	42.13
382.43	16.38
382.63	72.56
382.83	9.36
383.02	0.00
383.22	37.45
383.41	37.45
383.61	44.47
383.80	11.70
384.00	7.02
384.19	0.00
384.39	28.09
384.58	77.24
384.78	53.83
384.97	0.00
385.17	0.00
385.36	25.75
385.56	39.79
385.75	0.00
385.95	18.72
386.14	46.81
386.34	39.79
386.53	35.11
386.72	0.00
386.92	0.00
387.11	0.00
387.31	39.79
387.50	46.81
387.70	23.41
387.89	53.83
388.09	46.81
388.28	0.00
388.48	28.09
388.67	9.36
388.86	35.11
389.06	7.02
389.25	18.72
389.45	53.83
389.64	39.79
389.84	7.02
390.03	44.47
390.22	32.77
390.42	21.06
390.61	60.85
390.81	0.00
391.00	51.49
391.19	56.17
391.39	0.00
391.58	30.43
391.78	0.00
391.97	16.38
392.16	7.02
392.36	0.00
392.55	21.06
392.75	4.68
392.94	11.70
393.13	0.00
393.33	0.00
393.52	42.13
393.71	18.72
393.91	9.36
394.10	0.00
394.29	7.02
394.49	0.00
394.68	30.43
394.88	81.92
395.07	0.00
395.26	16.38
395.46	0.00
395.65	32.77
395.84	77.24
396.04	37.45
396.23	35.11
396.42	49.15
396.62	7.02
396.81	51.49
397.00	0.00
397.19	37.45
397.39	21.06
397.58	0.00
397.77	42.13
397.97	0.00
398.16	39.79
398.35	37.45
398.55	11.70
398.74	84.26
398.93	16.38
399.12	35.11
399.32	7.02
399.51	18.72
399.70	42.13
399.90	56.17
400.09	37.45
400.28	60.85
400.47	14.04
400.67	0.00
400.86	74.90
401.05	37.45
401.24	65.54
401.44	28.09
401.63	79.58
401.82	11.70
402.01	81.92
402.21	28.09
402.40	44.47
402.59	0.00
402.78	9.36
402.97	49.15
403.17	7.02
403.36	58.51
403.55	18.72
403.74	18.72
403.93	81.92
404.13	23.41
404.32	37.45
404.51	74.90
404.70	0.00
404.89	2.34
405.09	63.19
405.28	0.00
405.47	0.00
405.66	4.68
405.85	53.83
406.05	35.11
406.24	11.70
406.43	4.68
406.62	49.15
406.81	4.68
407.00	60.85
407.20	98.30
407.39	4.68
407.58	11.70
407.77	60.85
407.96	51.49
408.15	7.02
408.34	14.04
408.54	23.41
408.73	49.15
408.92	46.81
409.11	21.06
409.30	88.94
409.49	67.88
409.68	42.13
409.87	46.81
410.07	79.58
410.26	0.00
410.45	0.00
410.64	53.83
410.83	46.81
411.02	39.79
411.21	46.81
411.40	4.68
411.59	46.81
411.78	77.24
411.98	65.54
412.17	4.68
412.36	67.88
412.55	39.79
412.74	56.17
412.93	42.13
413.12	0.00
413.31	46.81
413.50	28.09
413.69	7.02
413.88	23.41
414.07	0.00
414.26	72.56
414.45	32.77
414.64	53.83
414.83	35.11
415.02	51.49
415.22	72.56
415.41	105.32
415.60	65.54
415.79	0.00
415.98	70.22
416.17	11.70
416.36	32.77
416.55	0.00
416.74	46.81
416.93	93.62
417.12	35.11
417.31	39.79
417.50	77.24
417.69	81.92
417.88	117.03
418.07	95.96
418.26	0.00
418.45	0.00
418.64	28.09
418.83	25.75
419.02	77.24
419.21	9.36
419.39	70.22
419.58	53.83
419.77	25.75
419.96	65.54
420.15	23.41
420.34	74.90
420.53	42.13
420.72	72.56
420.91	65.54
421.10	67.88
421.29	0.00
421.48	9.36
421.67	42.13
421.86	53.83
422.05	32.77
422.24	37.45
422.43	16.38
422.61	60.85
422.80	23.41
422.99	32.77
423.18	51.49
423.37	91.28
423.56	0.00
423.75	74.90
423.94	49.15
424.13	49.15
424.32	21.06
424.50	4.68
424.69	39.79
424.88	51.49
425.07	46.81
425.26	79.58
425.45	11.70
425.64	58.51
425.83	25.75
426.01	35.11
426.20	0.00
426.39	30.43
426.58	77.24
426.77	0.00
426.96	30.43
427.15	25.75
427.33	72.56
427.52	65.54
427.71	49.15
427.90	44.47
428.09	58.51
428.28	25.75
428.46	23.41
428.65	74.90
428.84	79.58
429.03	60.85
429.22	0.00
429.40	65.54
429.59	42.13
429.78	98.30
429.97	37.45
430.16	21.06
430.34	84.26
430.53	0.00
430.72	86.60
430.91	53.83
431.10	95.96
431.28	21.06
431.47	81.92
431.66	72.56
431.85	58.51
432.03	7.02
432.22	37.45
432.41	0.00
432.60	30.43
432.79	124.05
432.97	4.68
433.16	84.26
433.35	114.69
433.54	60.85
433.72	0.00
433.91	18.72
434.10	72.56
434.28	60.85
434.47	28.09
434.66	67.88
434.85	0.00
435.03	58.51
435.22	58.51
435.41	32.77
435.59	28.09
435.78	35.11
435.97	16.38
436.16	72.56
436.34	18.72
436.53	105.32
436.72	65.54
436.90	95.96
437.09	37.45
437.28	74.90
437.46	102.98
437.65	67.88
437.84	74.90
438.02	35.11
438.21	16.38
438.40	65.54
438.58	0.00
438.77	42.13
438.96	0.00
439.14	49.15
439.33	0.00
439.52	28.09
439.70	0.00
439.89	0.00
440.08	70.22
440.26	81.92
440.45	107.66
440.63	44.47
440.82	49.15
441.01	58.51
441.19	16.38
441.38	56.17
441.57	37.45
441.75	49.15
441.94	32.77
442.12	49.15
442.31	95.96
442.50	65.54
442.68	30.43
442.87	81.92
443.05	65.54
443.24	79.58
443.43	39.79
443.61	114.69
443.80	0.00
443.98	0.00
444.17	56.17
444.35	107.66
444.54	74.90
444.73	98.30
444.91	0.00
445.10	14.04
445.28	86.60
445.47	74.90
445.65	35.11
445.84	67.88
446.02	72.56
446.21	81.92
446.39	28.09
446.58	39.79
446.77	53.83
446.95	65.54
447.14	21.06
447.32	149.79
447.51	30.43
447.69	0.00
447.88	44.47
448.06	110.01
448.25	102.98
448.43	100.64
448.62	37.45
448.80	86.60
448.99	28.09
449.17	91.28
449.36	0.00
449.54	37.45
449.73	11.70
449.91	23.41
450.10	37.45
450.28	67.88
450.46	35.11
450.65	105.32
450.83	86.60
451.02	49.15
451.20	14.04
451.39	95.96
451.57	14.04
451.76	4.68
451.94	70.22
452.13	56.17
452.31	18.72
452.49	98.30
452.68	67.88
452.86	46.81
453.05	16.38
453.23	70.22
453.42	56.17
453.60	0.00
453.78	0.00
453.97	100.64
454.15	105.32
454.34	23.41
454.52	35.11
454.70	102.98
454.89	70.22
455.07	63.19
455.26	35.11
455.44	53.83
455.62	124.05
455.81	117.03
455.99	49.15
456.17	56.17
456.36	98.30
456.54	44.47
456.73	53.83
456.91	49.15
457.09	81.92
457.28	46.81
457.46	72.56
457.64	16.38
457.83	0.00
458.01	53.83
458.19	0.00
458.38	77.24
458.56	65.54
458.74	93.62
458.93	74.90
459.11	105.32
459.29	105.32
459.48	88.94
459.66	121.71
459.84	81.92
460.03	81.92
460.21	53.83
460.39	77.24
460.57	65.54
460.76	86.60
460.94	56.17
461.12	74.90
461.31	107.66
461.49	30.43
461.67	91.28
461.85	79.58
462.04	14.04
462.22	18.72
462.40	79.58
462.59	140.43
462.77	60.85
462.95	74.90
463.13	39.79
463.32	56.17
463.50	67.88
463.68	51.49
463.86	67.88
464.05	70.22
464.23	25.75
464.41	93.62
464.59	25.75
464.78	86.60
464.96	23.41
465.14	0.00
465.32	51.49
465.50	58.51
465.69	18.72
465.87	30.43
466.05	42.13
466.23	0.00
466.41	49.15
466.60	37.45
466.78	84.26
466.96	84.26
467.14	79.58
467.32	7.02
467.51	4.68
467.69	58.51
467.87	161.50
468.05	91.28
468.23	88.94
468.41	0.00
468.60	91.28
468.78	84.26
468.96	9.36
469.14	56.17
469.32	0.00
469.50	126.39
469.69	93.62
469.87	65.54
470.05	138.09
470.23	53.83
470.41	74.90
470.59	0.00
470.77	67.88
470.95	37.45
471.14	51.49
471.32	117.03
471.50	86.60
471.68	53.83
471.86	84.26
472.04	100.64
472.22	114.69
472.40	23.41
472.58	77.24
472.77	14.04
472.95	42.13
473.13	63.19
473.31	91.28
473.49	0.00
473.67	18.72
473.85	79.58
474.03	39.79
474.21	2.34
474.39	107.66
474.57	65.54
474.75	51.49
474.93	81.92
475.12	21.06
475.30	88.94
475.48	63.19
475.66	18.72
475.84	28.09
476.02	4.68
476.20	95.96
476.38	105.32
476.56	63.19
476.74	84.26
476.92	67.88
477.10	74.90
477.28	95.96
477.46	51.49
477.64	112.35
477.82	9.36
478.00	65.54
478.18	39.79
478.36	25.75
478.54	112.35
478.72	86.60
478.90	74.90
479.08	102.98
479.26	102.98
479.44	44.47
479.62	51.49
479.80	74.90
479.98	46.81
480.16	70.22
480.34	53.83
480.52	18.72
480.70	121.71
480.88	65.54
481.06	105.32
481.24	65.54
481.41	25.75
481.59	84.26
481.77	4.68
481.95	23.41
482.13	93.62
482.31	25.75
482.49	49.15
482.67	79.58
482.85	53.83
483.03	88.94
483.21	0.00
483.39	51.49
483.57	74.90
483.74	77.24
483.92	79.58
484.10	65.54
484.28	0.00
484.46	11.70
484.64	32.77
484.82	81.92
485.00	46.81
485.18	58.51
485.35	81.92
485.53	7.02
485.71	107.66
485.89	98.30
486.07	70.22
486.25	107.66
486.43	58.51
486.61	37.45
486.78	147.45
486.96	67.88
487.14	105.32
487.32	30.43
487.50	126.39
487.68	44.47
487.85	56.17
488.03	88.94
488.21	67.88
488.39	21.06
488.57	105.32
488.75	53.83
488.92	65.54
489.10	84.26
489.28	63.19
489.46	39.79
489.64	63.19
489.81	138.09
489.99	74.90
490.17	49.15
490.35	39.79
490.53	0.00
490.70	119.37
490.88	110.01
491.06	30.43
491.24	79.58
491.41	112.35
491.59	114.69
491.77	9.36
491.95	51.49
492.13	11.70
492.30	86.60
492.48	58.51
492.66	72.56
492.84	67.88
493.01	131.07
493.19	88.94
493.37	53.83
493.54	7.02
493.72	42.13
493.90	63.19
494.08	98.30
494.25	67.88
494.43	58.51
494.61	74.90
494.79	42.13
494.96	110.01
495.14	72.56
495.32	67.88
495.49	0.00
495.67	67.88
495.85	102.98
496.02	112.35
496.20	67.88
496.38	0.00
496.55	100.64
496.73	16.38
496.91	102.98
497.09	107.66
497.26	81.92
497.44	67.88
497.62	93.62
497.79	72.56
497.97	65.54
498.14	65.54
498.32	49.15
498.50	102.98
498.67	105.32
498.85	63.19
499.03	117.03
499.20	46.81
499.38	72.56
499.56	65.54
499.73	107.66
499.91	44.47
500.08	37.45
500.26	11.70
500.44	86.60
500.61	63.19
500.79	128.73
500.97	114.69
501.14	65.54
501.32	84.26
501.49	86.60
501.67	88.94
501.84	131.07
502.02	79.58
502.20	100.64
502.37	159.16
502.55	65.54
502.72	51.49
502.90	35.11
503.07	67.88
503.25	21.06
503.43	81.92
503.60	0.00
503.78	39.79
503.95	58.51
504.13	107.66
504.30	16.38
504.48	86.60
504.65	35.11
504.83	32.77
505.01	110.01
505.18	100.64
505.36	35.11
505.53	53.83
505.71	60.85
505.88	79.58
506.06	42.13
506.23	39.79
506.41	35.11
506.58	49.15
506.76	46.81
506.93	56.17
507.11	65.54
507.28	44.47
507.46	56.17
507.63	102.98
507.81	67.88
507.98	60.85
508.16	16.38
508.33	98.30
508.50	133.41
508.68	42.13
508.85	95.96
509.03	126.39
509.20	23.41
509.38	53.83
509.55	77.24
509.73	98.30
509.90	28.09
510.08	60.85
510.25	72.56
510.42	107.66
510.60	70.22
510.77	121.71
510.95	49.15
511.12	18.72
511.30	147.45
511.47	32.77
511.64	107.66
511.82	110.01
511.99	18.72
512.17	107.66
512.34	58.51
512.51	56.17
512.69	44.47
512.86	65.54
513.04	110.01
513.21	182.56
513.38	46.81
513.56	95.96
513.73	81.92
513.90	100.64
514.08	39.79
514.25	107.66
514.43	46.81
514.60	37.45
514.77	119.37
514.95	4.68
515.12	51.49
515.29	21.06
515.47	9.36
515.64	84.26
515.81	70.22
515.99	107.66
516.16	46.81
516.33	86.60
516.51	121.71
516.68	14.04
516.85	72.56
517.03	44.47
517.20	42.13
517.37	30.43
517.54	84.26
517.72	56.17
517.89	79.58
518.06	67.88
518.24	21.06
518.41	53.83
518.58	91.28
518.75	112.35
518.93	86.60
519.10	63.19
519.27	98.30
519.45	177.88
519.62	51.49
519.79	65.54
519.96	135.75
520.14	138.09
520.31	95.96
520.48	98.30
520.65	44.47
520.83	46.81
521.00	79.58
521.17	86.60
521.34	81.92
521.52	133.41
521.69	84.26
521.86	23.41
522.03	25.75
522.20	81.92
522.38	39.79
522.55	86.60
522.72	107.66
522.89	51.49
523.07	107.66
523.24	145.11
523.41	117.03
523.58	2.34
523.75	91.28
523.92	67.88
524.10	149.79
524.27	65.54
524.44	72.56
524.61	51.49
524.78	81.92
524.96	107.66
525.13	37.45
525.30	95.96
525.47	147.45
525.64	58.51
525.81	79.58
525.98	91.28
526.16	32.77
526.33	37.45
526.50	60.85
526.67	70.22
526.84	105.32
527.01	72.56
527.18	49.15
527.36	121.71
527.53	81.92
527.70	128.73
527.87	74.90
528.04	65.54
528.21	70.22
528.38	77.24
528.55	49.15
528.72	91.28
528.89	114.69
529.07	100.64
529.24	88.94
529.41	124.05
529.58	91.28
529.75	95.96
529.92	114.69
530.09	30.43
530.26	119.37
530.43	105.32
530.60	37.45
530.77	147.45
530.94	0.00
531.11	16.38
531.28	46.81
531.46	110.01
531.63	114.69
531.80	39.79
531.97	79.58
532.14	72.56
532.31	63.19
532.48	133.41
532.65	35.11
532.82	51.49
532.99	124.05
533.16	100.64
533.33	63.19
533.50	88.94
533.67	72.56
533.84	79.58
534.01	14.04
534.18	91.28
534.35	128.73
534.52	102.98
534.69	117.03
534.86	84.26
535.03	53.83
535.20	119.37
535.37	117.03
535.54	100.64
535.71	95.96
535.88	100.64
536.05	107.66
536.22	98.30
536.38	79.58
536.55	112.35
536.72	58.51
536.89	121.71
537.06	133.41
537.23	28.09
537.40	46.81
537.57	88.94
537.74	119.37
537.91	86.60
538.08	98.30
538.25	67.88
538.42	67.88
538.59	0.00
538.75	77.24
538.92	72.56
539.09	95.96
539.26	93.62
539.43	70.22
539.60	142.77
539.77	100.64
539.94	107.66
540.11	105.32
540.28	35.11
540.44	46.81
540.61	112.35
540.78	81.92
540.95	30.43
541.12	110.01
541.29	56.17
541.46	51.49
541.62	112.35
541.79	86.60
541.96	107.66
542.13	100.64
542.30	107.66
542.47	84.26
542.63	81.92
542.80	163.84
542.97	79.58
543.14	53.83
543.31	74.90
543.48	121.71
543.64	88.94
543.81	79.58
543.98	28.09
544.15	105.32
544.32	65.54
544.48	74.90
544.65	117.03
544.82	88.94
544.99	25.75
545.16	84.26
545.32	60.85
545.49	53.83
545.66	81.92
545.83	98.30
546.00	30.43
546.16	117.03
546.33	131.07
546.50	149.79
546.67	2.34
546.83	86.60
547.00	25.75
547.17	88.94
547.34	0.00
547.50	51.49
547.67	95.96
547.84	56.17
548.00	105.32
548.17	112.35
548.34	79.58
548.51	51.49
548.67	70.22
548.84	81.92
549.01	184.90
549.18	145.11
549.34	95.96
549.51	67.88
549.68	32.77
549.84	70.22
550.01	2.34
550.18	74.90
550.34	86.60
550.51	128.73
550.68	102.98
550.84	44.47
551.01	51.49
551.18	51.49
551.34	133.41
551.51	72.56
551.68	135.75
551.84	147.45
552.01	60.85
552.18	105.32
552.34	105.32
552.51	67.88
552.68	65.54
552.84	72.56
553.01	70.22
553.18	105.32
553.34	77.24
553.51	53.83
553.67	88.94
553.84	60.85
554.01	126.39
554.17	84.26
554.34	88.94
554.51	79.58
554.67	124.05
554.84	91.28
555.00	14.04
555.17	91.28
555.33	58.51
555.50	110.01
555.67	135.75
555.83	145.11
556.00	72.56
556.16	131.07
556.33	124.05
556.50	60.85
556.66	102.98
556.83	21.06
556.99	95.96
557.16	58.51
557.32	117.03
557.49	114.69
557.65	84.26
557.82	23.41
557.98	110.01
558.15	67.88
558.32	77.24
558.48	135.75
558.65	81.92
558.81	37.45
558.98	51.49
559.14	35.11
559.31	56.17
559.47	58.51
559.64	70.22
559.80	56.17
559.97	91.28
560.13	112.35
560.30	39.79
560.46	58.51
560.63	95.96
560.79	86.60
560.96	2.34
561.12	51.49
561.29	105.32
561.45	53.83
561.61	28.09
561.78	58.51
561.94	9.36
562.11	58.51
562.27	110.01
562.44	102.98
562.60	124.05
562.77	112.35
562.93	86.60
563.10	4.68
563.26	60.85
563.42	74.90
563.59	88.94
563.75	72.56
563.92	154.48
564.08	81.92
564.24	32.77
564.41	86.60
564.57	56.17
564.74	44.47
564.90	91.28
565.07	53.83
565.23	30.43
565.39	112.35
565.56	0.00
565.72	37.45
565.88	95.96
566.05	86.60
566.21	95.96
566.38	135.75
566.54	128.73
566.70	117.03
566.87	16.38
567.03	16.38
567.19	67.88
567.36	121.71
567.52	121.71
567.68	28.09
567.85	28.09
568.01	77.24
568.17	16.38
568.34	159.16
568.50	93.62
568.66	100.64
568.83	32.77
568.99	133.41
569.15	30.43
569.32	63.19
569.48	84.26
569.64	86.60
569.81	161.50
569.97	119.37
570.13	63.19
570.30	152.13
570.46	74.90
570.62	100.64
570.78	86.60
570.95	60.85
571.11	32.77
571.27	49.15
571.43	56.17
571.60	46.81
571.76	107.66
571.92	0.00
572.09	70.22
572.25	86.60
572.41	81.92
572.57	91.28
572.74	37.45
572.90	126.39
573.06	58.51
573.22	105.32
573.38	126.39
573.55	74.90
573.71	51.49
573.87	77.24
574.03	65.54
574.20	46.81
574.36	79.58
574.52	58.51
574.68	63.19
574.84	133.41
575.01	28.09
575.17	53.83
575.33	11.70
575.49	0.00
575.65	135.75
575.82	91.28
575.98	37.45
576.14	49.15
576.30	25.75
576.46	72.56
576.62	93.62
576.79	0.00
576.95	98.30
577.11	102.98
577.27	81.92
577.43	65.54
577.59	102.98
577.75	30.43
577.92	51.49
578.08	79.58
578.24	35.11
578.40	0.00
578.56	74.90
578.72	65.54
578.88	77.24
579.04	114.69
579.21	77.24
579.37	149.79
579.53	81.92
579.69	0.00
579.85	42.13
580.01	98.30
580.17	95.96
580.33	53.83
580.49	39.79
580.65	110.01
580.82	91.28
580.98	74.90
581.14	84.26
581.30	37.45
581.46	0.00
581.62	86.60
581.78	88.94
581.94	49.15
582.10	77.24
582.26	72.56
582.42	124.05
582.58	46.81
582.74	51.49
582.90	39.79
583.06	51.49
583.22	161.50
583.38	28.09
583.54	21.06
583.70	88.94
583.86	67.88
584.02	74.90
584.18	84.26
584.34	44.47
584.50	58.51
584.66	21.06
584.82	11.70
584.98	32.77
585.14	53.83
585.30	63.19
585.46	60.85
585.62	84.26
585.78	102.98
585.94	79.58
586.10	32.77
586.26	58.51
586.42	117.03
586.58	138.09
586.74	133.41
586.90	37.45
587.06	0.00
587.22	72.56
587.38	105.32
587.54	102.98
587.70	46.81
587.86	119.37
588.02	121.71
588.18	63.19
588.34	46.81
588.49	56.17
588.65	56.17
588.81	58.51
588.97	63.19
589.13	0.00
589.29	110.01
589.45	84.26
589.61	102.98
589.77	53.83
589.93	60.85
590.08	42.13
590.24	46.81
590.40	60.85
590.56	11.70
590.72	58.51
590.88	0.00
591.04	44.47
591.20	9.36
591.35	67.88
591.51	28.09
591.67	49.15
591.83	18.72
591.99	28.09
592.15	77.24
592.31	70.22
592.46	21.06
592.62	0.00
592.78	112.35
592.94	140.43
593.10	65.54
593.26	70.22
593.41	107.66
593.57	88.94
593.73	77.24
593.89	124.05
594.05	39.79
594.20	58.51
594.36	86.60
594.52	9.36
594.68	74.90
594.84	30.43
594.99	51.49
595.15	42.13
595.31	84.26
595.47	117.03
595.62	39.79
595.78	49.15
595.94	42.13
596.10	91.28
596.25	30.43
596.41	79.58
596.57	58.51
596.73	140.43
596.88	23.41
597.04	0.00
597.20	56.17
597.36	21.06
597.51	84.26
597.67	44.47
597.83	49.15
597.99	32.77
598.14	74.90
598.30	91.28
598.46	72.56
598.61	112.35
598.77	121.71
598.93	107.66
599.09	95.96
599.24	49.15
599.40	53.83
599.56	81.92
599.71	32.77
599.87	77.24
600.03	84.26
600.18	67.88
600.34	95.96
600.50	65.54
600.65	110.01
600.81	95.96
600.97	53.83
601.12	170.86
601.28	28.09
601.44	0.00
601.59	93.62
601.75	44.47
601.91	77.24
602.06	23.41
602.22	86.60
602.37	88.94
602.53	105.32
602.69	102.98
602.84	65.54
603.00	37.45
603.16	67.88
603.31	91.28
603.47	112.35
603.62	100.64
603.78	72.56
603.94	9.36
604.09	81.92
604.25	51.49
604.40	60.85
604.56	114.69
604.71	30.43
604.87	65.54
605.03	79.58
605.18	74.90
605.34	46.81
605.49	63.19
605.65	119.37
605.80	49.15
605.96	105.32
606.12	88.94
606.27	152.13
606.43	152.13
606.58	70.22
606.74	84.26
606.89	65.54
607.05	25.75
607.20	126.39
607.36	70.22
607.51	32.77
607.67	88.94
607.82	147.45
607.98	77.24
608.13	91.28
608.29	30.43
608.44	58.51
608.60	67.88
608.75	2.34
608.91	110.01
609.06	128.73
609.22	88.94
609.37	53.83
609.53	77.24
609.68	79.58
609.84	58.51
609.99	42.13
610.15	63.19
610.30	14.04
610.46	67.88
610.61	102.98
610.76	88.94
610.92	72.56
611.07	124.05
611.23	100.64
611.38	121.71
611.54	77.24
611.69	23.41
611.84	110.01
612.00	2.34
612.15	161.50
612.31	98.30
612.46	100.64
612.62	72.56
612.77	102.98
612.92	56.17
613.08	44.47
613.23	166.18
613.39	53.83
613.54	98.30
613.69	51.49
613.85	37.45
614.00	79.58
614.15	91.28
614.31	16.38
614.46	0.00
614.62	74.90
614.77	95.96
614.92	95.96
615.08	84.26
615.23	145.11
615.38	53.83
615.54	114.69
615.69	95.96
615.84	18.72
616.00	53.83
616.15	133.41
616.30	44.47
616.46	79.58
616.61	0.00
616.76	23.41
616.92	58.51
617.07	74.90
617.22	133.41
617.37	70.22
617.53	30.43
617.68	0.00
617.83	56.17
617.99	100.64
618.14	117.03
618.29	70.22
618.45	56.17
618.60	28.09
618.75	44.47
618.90	93.62
619.06	63.19
619.21	63.19
619.36	114.69
619.51	0.00
619.67	156.82
619.82	63.19
619.97	79.58
620.12	91.28
620.28	105.32
620.43	60.85
620.58	126.39
620.73	60.85
620.89	56.17
621.04	84.26
621.19	88.94
621.34	117.03
621.49	16.38
621.65	46.81
621.80	58.51
621.95	46.81
622.10	21.06
622.25	11.70
622.41	39.79
622.56	93.62
622.71	65.54
622.86	77.24
623.01	110.01
623.16	117.03
623.32	44.47
623.47	0.00
623.62	74.90
623.77	93.62
623.92	112.35
624.07	60.85
624.23	9.36
624.38	95.96
624.53	84.26
624.68	105.32
624.83	46.81
624.98	81.92
625.13	0.00
625.29	56.17
625.44	72.56
625.59	0.00
625.74	70.22
625.89	56.17
626.04	0.00
626.19	65.54
626.34	74.90
626.49	84.26
626.65	121.71
626.80	154.48
626.95	63.19
627.10	44.47
627.25	21.06
627.40	25.75
627.55	35.11
627.70	84.26
627.85	32.77
628.00	91.28
628.15	88.94
628.30	35.11
628.45	98.30
628.60	28.09
628.76	74.90
628.91	46.81
629.06	49.15
629.21	0.00
629.36	72.56
629.51	0.00
629.66	60.85
629.81	81.92
629.96	107.66
630.11	60.85
630.26	114.69
630.41	44.47
630.56	86.60
630.71	70.22
630.86	46.81
631.01	88.94
631.16	114.69
631.31	65.54
631.46	53.83
631.61	112.35
631.76	67.88
631.91	58.51
632.06	81.92
632.21	46.81
632.36	11.70
632.51	81.92
632.66	67.88
632.81	51.49
632.96	23.41
633.10	51.49
633.25	95.96
633.40	30.43
633.55	124.05
633.70	95.96
633.85	135.75
634.00	0.00
634.15	84.26
634.30	140.43
634.45	42.13
634.60	18.72
634.75	46.81
634.90	72.56
635.05	18.72
635.19	49.15
635.34	16.38
635.49	28.09
635.64	49.15
635.79	2.34
635.94	4.68
636.09	110.01
636.24	110.01
636.39	0.00
636.53	30.43
636.68	93.62
636.83	51.49
636.98	67.88
637.13	42.13
637.28	77.24
637.43	107.66
637.57	56.17
637.72	86.60
637.87	0.00
638.02	58.51
638.17	74.90
638.32	163.84
638.46	84.26
638.61	105.32
638.76	74.90
638.91	74.90
639.06	86.60
639.20	131.07
639.35	91.28
639.50	98.30
639.65	30.43
639.80	95.96
639.94	58.51
640.09	110.01
640.24	79.58
640.39	79.58
640.54	51.49
640.68	51.49
640.83	65.54
640.98	86.60
641.13	88.94
641.27	107.66
641.42	93.62
641.57	0.00
641.72	58.51
641.86	39.79
642.01	124.05
642.16	58.51
642.31	77.24
642.45	67.88
642.60	100.64
642.75	84.26
642.90	93.62
643.04	72.56
643.19	117.03
643.34	58.51
643.48	0.00
643.63	58.51
643.78	95.96
643.93	126.39
644.07	32.77
644.22	35.11
644.37	46.81
644.51	142.77
644.66	37.45
644.81	16.38
644.95	86.60
645.10	32.77
645.25	74.90
645.39	25.75
645.54	23.41
645.69	16.38
645.83	21.06
645.98	11.70
646.13	51.49
646.27	37.45
646.42	77.24
646.57	44.47
646.71	37.45
646.86	35.11
647.00	18.72
647.15	98.30
647.30	32.77
647.44	77.24
647.59	7.02
647.74	70.22
647.88	74.90
648.03	18.72
648.17	56.17
648.32	25.75
648.47	25.75
648.61	91.28
648.76	53.83
648.90	67.88
649.05	0.00
649.20	105.32
649.34	53.83
649.49	70.22
649.63	0.00
649.78	42.13
649.92	46.81
650.07	63.19
650.21	72.56
650.36	102.98
650.51	88.94
650.65	49.15
650.80	39.79
650.94	84.26
651.09	81.92
651.23	79.58
651.38	110.01
651.52	7.02
651.67	0.00
651.81	0.00
651.96	49.15
652.10	79.58
652.25	121.71
652.39	65.54
652.54	126.39
652.68	56.17
652.83	37.45
652.97	121.71
653.12	14.04
653.26	0.00
653.41	77.24
653.55	119.37
653.70	0.00
653.84	32.77
653.99	93.62
654.13	84.26
654.27	35.11
654.42	28.09
654.56	42.13
654.71	35.11
654.85	49.15
655.00	30.43
655.14	74.90
655.29	102.98
655.43	18.72
655.57	79.58
655.72	23.41
655.86	4.68
656.01	0.00
656.15	28.09
656.30	42.13
656.44	4.68
656.58	93.62
656.73	77.24
656.87	70.22
657.01	18.72
657.16	88.94
657.30	46.81
657.45	0.00
657.59	70.22
657.73	21.06
657.88	65.54
658.02	60.85
658.16	86.60
658.31	70.22
658.45	11.70
658.60	28.09
658.74	44.47
658.88	21.06
659.03	14.04
659.17	65.54
659.31	65.54
659.46	51.49
659.60	18.72
659.74	72.56
659.89	23.41
660.03	100.64
660.17	86.60
660.32	32.77
660.46	28.09
660.60	53.83
660.74	51.49
660.89	51.49
661.03	77.24
661.17	77.24
661.32	2.34
661.46	0.00
661.60	35.11
661.74	0.00
661.89	51.49
662.03	65.54
662.17	152.13
662.31	51.49
662.46	21.06
662.60	77.24
662.74	107.66
662.88	21.06
663.03	100.64
663.17	49.15
663.31	25.75
663.45	67.88
663.60	25.75
663.74	32.77
663.88	21.06
664.02	0.00
664.17	42.13
664.31	32.77
664.45	49.15
664.59	23.41
664.73	58.51
664.88	124.05
665.02	14.04
665.16	0.00
665.30	95.96
665.44	105.32
665.59	72.56
665.73	28.09
665.87	112.35
666.01	37.45
666.15	72.56
666.29	9.36
666.44	58.51
666.58	30.43
666.72	0.00
666.86	56.17
667.00	23.41
667.14	88.94
667.28	72.56
667.43	0.00
667.57	0.00
667.71	84.26
667.85	65.54
667.99	100.64
668.13	65.54
668.27	112.35
668.41	65.54
668.56	93.62
668.70	119.37
668.84	39.79
668.98	67.88
669.12	112.35
669.26	9.36
669.40	28.09
669.54	51.49
669.68	4.68
669.82	102.98
669.96	0.00
670.10	84.26
670.25	42.13
670.39	131.07
670.53	49.15
670.67	84.26
670.81	67.88
670.95	35.11
671.09	70.22
671.23	46.81
671.37	21.06
671.51	11.70
671.65	21.06
671.79	25.75
671.93	56.17
672.07	2.34
672.21	44.47
672.35	42.13
672.49	77.24
672.63	51.49
672.77	56.17
672.91	114.69
673.05	44.47
673.19	67.88
673.33	79.58
673.47	93.62
673.61	51.49
673.75	49.15
673.89	0.00
674.03	44.47
674.17	56.17
674.31	30.43
674.45	88.94
674.59	58.51
674.73	0.00
674.87	51.49
675.01	42.13
675.15	56.17
675.29	16.38
675.43	14.04
675.56	51.49
675.70	58.51
675.84	74.90
675.98	39.79
676.12	46.81
676.26	74.90
676.40	44.47
676.54	21.06
676.68	117.03
676.82	46.81
676.96	88.94
677.10	95.96
677.23	7.02
677.37	11.70
677.51	102.98
677.65	49.15
677.79	18.72
677.93	81.92
678.07	18.72
678.21	21.06
678.34	60.85
678.48	58.51
678.62	30.43
678.76	63.19
678.90	124.05
679.04	0.00
679.18	21.06
679.31	23.41
679.45	11.70
679.59	77.24
679.73	56.17
679.87	102.98
680.00	51.49
680.14	88.94
680.28	67.88
680.42	30.43
680.56	79.58
680.70	25.75
680.83	0.00
680.97	18.72
681.11	0.00
681.25	74.90
681.39	112.35
681.52	21.06
681.66	18.72
681.80	44.47
681.94	58.51
682.07	70.22
682.21	51.49
682.35	23.41
682.49	0.00
682.62	32.77
682.76	46.81
682.90	81.92
683.04	0.00
683.17	0.00
683.31	37.45
683.45	35.11
683.59	14.04
683.72	105.32
683.86	58.51
684.00	112.35
684.13	70.22
684.27	107.66
684.41	39.79
684.55	49.15
684.68	18.72
684.82	53.83
684.96	100.64
685.09	42.13
685.23	18.72
685.37	37.45
685.50	53.83
685.64	88.94
685.78	42.13
685.91	53.83
686.05	88.94
686.19	42.13
686.32	28.09
686.46	70.22
686.60	14.04
686.73	56.17
686.87	0.00
687.01	14.04
687.14	14.04
687.28	0.00
687.42	0.00
687.55	21.06
687.69	56.17
687.82	32.77
687.96	98.30
688.10	102.98
688.23	60.85
688.37	0.00
688.50	53.83
688.64	0.00
688.78	46.81
688.91	18.72
689.05	0.00
689.18	0.00
689.32	56.17
689.46	60.85
689.59	0.00
689.73	81.92
689.86	70.22
690.00	7.02
690.13	25.75
690.27	0.00
690.41	25.75
690.54	28.09
690.68	58.51
690.81	42.13
690.95	44.47
691.08	37.45
691.22	4.68
691.35	121.71
691.49	32.77
691.62	39.79
691.76	72.56
691.89	23.41
692.03	102.98
692.16	46.81
692.30	74.90
692.43	23.41
692.57	0.00
692.70	46.81
692.84	25.75
692.97	32.77
693.11	44.47
693.24	16.38
693.38	72.56
693.51	60.85
693.65	32.77
693.78	23.41
693.92	16.38
694.05	32.77
694.19	70.22
694.32	21.06
694.45	124.05
694.59	16.38
694.72	28.09
694.86	11.70
694.99	77.24
695.13	124.05
695.26	37.45
695.39	95.96
695.53	49.15
695.66	35.11
695.80	0.00
695.93	0.00
696.07	105.32
696.20	60.85
696.33	173.20
696.47	63.19
696.60	49.15
696.73	53.83
696.87	25.75
697.00	72.56
697.14	56.17
697.27	0.00
697.40	42.13
697.54	77.24
697.67	39.79
697.80	39.79
697.94	25.75
698.07	32.77
698.21	0.00
698.34	32.77
698.47	60.85
698.61	21.06
698.74	30.43
698.87	42.13
699.01	70.22
699.14	28.09
699.27	21.06
699.40	28.09
699.54	42.13
699.67	0.00
699.80	49.15
699.94	37.45
700.07	56.17
700.20	0.00
700.34	42.13
700.47	0.00
700.60	58.51
700.73	65.54
700.87	58.51
701.00	0.00
701.13	0.00
701.26	74.90
701.40	0.00
701.53	0.00
701.66	25.75
701.79	0.00
701.93	4.68
702.06	25.75
702.19	51.49
702.32	23.41
702.46	7.02
702.59	49.15
702.72	49.15
702.85	70.22
702.99	60.85
703.12	37.45
703.25	25.75
703.38	16.38
703.51	72.56
703.65	56.17
703.78	2.34
703.91	0.00
704.04	18.72
704.17	88.94
704.31	23.41
704.44	30.43
704.57	49.15
704.70	16.38
704.83	4.68
704.96	0.00
705.10	51.49
705.23	0.00
>>>>>End Processed Spectral Data<<<<<
