SpectraSuite Data File
++++++++++++++++++++++++++++++++++++
Date: Fri Oct 04 12:13:29 GMT-05:00 2013
User: price-jones
Dark Spectrum Present: No
Reference Spectrum Present: No
Number of Sampled Component Spectra: 1
Spectrometers: USB2+H05261
Integration Time (usec): 10000 (USB2+H05261)
Spectra Averaged: 1 (USB2+H05261)
Boxcar Smoothing: 0 (USB2+H05261)
Correct for Electrical Dark: No (USB2+H05261)
Strobe/Lamp Enabled: No (USB2+H05261)
Correct for Detector Non-linearity: No (USB2+H05261)
Correct for Stray Light: No (USB2+H05261)
Number of Pixels in Processed Spectrum: 2048
>>>>>Begin Processed Spectral Data<<<<<
365.73	32.77
365.92	32.77
366.12	32.77
366.32	0.00
366.52	0.00
366.72	0.00
366.91	0.00
367.11	0.00
367.31	0.00
367.51	0.00
367.70	0.00
367.90	0.00
368.10	0.00
368.30	0.00
368.49	0.00
368.69	0.00
368.89	0.00
369.09	0.00
369.28	0.00
369.48	0.00
369.68	0.00
369.87	0.00
370.07	0.00
370.27	0.00
370.47	0.00
370.66	0.00
370.86	0.00
371.06	0.00
371.25	14.04
371.45	0.00
371.65	0.00
371.84	0.00
372.04	9.36
372.24	60.85
372.44	0.00
372.63	0.00
372.83	0.00
373.03	0.00
373.22	102.98
373.42	65.54
373.62	21.06
373.81	21.06
374.01	95.96
374.21	0.00
374.40	72.56
374.60	58.51
374.79	46.81
374.99	28.09
375.19	0.00
375.38	65.54
375.58	49.15
375.78	84.26
375.97	14.04
376.17	37.45
376.37	46.81
376.56	11.70
376.76	0.00
376.95	58.51
377.15	0.00
377.35	21.06
377.54	18.72
377.74	98.30
377.93	67.88
378.13	0.00
378.33	23.41
378.52	0.00
378.72	18.72
378.91	37.45
379.11	9.36
379.31	42.13
379.50	30.43
379.70	4.68
379.89	0.00
380.09	0.00
380.28	102.98
380.48	14.04
380.68	0.00
380.87	2.34
381.07	49.15
381.26	0.00
381.46	21.06
381.65	0.00
381.85	0.00
382.04	28.09
382.24	11.70
382.43	60.85
382.63	39.79
382.83	0.00
383.02	0.00
383.22	0.00
383.41	9.36
383.61	42.13
383.80	0.00
384.00	0.00
384.19	0.00
384.39	39.79
384.58	35.11
384.78	0.00
384.97	0.00
385.17	0.00
385.36	0.00
385.56	28.09
385.75	0.00
385.95	9.36
386.14	49.15
386.34	0.00
386.53	0.00
386.72	0.00
386.92	0.00
387.11	60.85
387.31	0.00
387.50	65.54
387.70	0.00
387.89	37.45
388.09	0.00
388.28	14.04
388.48	0.00
388.67	35.11
388.86	11.70
389.06	0.00
389.25	9.36
389.45	49.15
389.64	21.06
389.84	14.04
390.03	77.24
390.22	53.83
390.42	0.00
390.61	37.45
390.81	0.00
391.00	14.04
391.19	4.68
391.39	11.70
391.58	0.00
391.78	0.00
391.97	14.04
392.16	65.54
392.36	0.00
392.55	0.00
392.75	37.45
392.94	0.00
393.13	4.68
393.33	30.43
393.52	0.00
393.71	0.00
393.91	0.00
394.10	58.51
394.29	37.45
394.49	86.60
394.68	39.79
394.88	28.09
395.07	7.02
395.26	0.00
395.46	14.04
395.65	28.09
395.84	60.85
396.04	0.00
396.23	0.00
396.42	28.09
396.62	0.00
396.81	46.81
397.00	0.00
397.19	11.70
397.39	53.83
397.58	4.68
397.77	0.00
397.97	0.00
398.16	30.43
398.35	0.00
398.55	39.79
398.74	32.77
398.93	79.58
399.12	49.15
399.32	0.00
399.51	102.98
399.70	0.00
399.90	0.00
400.09	21.06
400.28	32.77
400.47	65.54
400.67	58.51
400.86	58.51
401.05	9.36
401.24	0.00
401.44	0.00
401.63	39.79
401.82	74.90
402.01	7.02
402.21	35.11
402.40	0.00
402.59	23.41
402.78	4.68
402.97	0.00
403.17	14.04
403.36	30.43
403.55	0.00
403.74	60.85
403.93	18.72
404.13	0.00
404.32	4.68
404.51	28.09
404.70	14.04
404.89	9.36
405.09	4.68
405.28	88.94
405.47	0.00
405.66	46.81
405.85	0.00
406.05	28.09
406.24	2.34
406.43	42.13
406.62	91.28
406.81	84.26
407.00	74.90
407.20	53.83
407.39	67.88
407.58	30.43
407.77	0.00
407.96	25.75
408.15	49.15
408.34	81.92
408.54	9.36
408.73	0.00
408.92	0.00
409.11	21.06
409.30	0.00
409.49	0.00
409.68	4.68
409.87	0.00
410.07	18.72
410.26	0.00
410.45	16.38
410.64	30.43
410.83	0.00
411.02	28.09
411.21	74.90
411.40	0.00
411.59	23.41
411.78	51.49
411.98	30.43
412.17	51.49
412.36	46.81
412.55	25.75
412.74	77.24
412.93	35.11
413.12	70.22
413.31	9.36
413.50	16.38
413.69	11.70
413.88	4.68
414.07	7.02
414.26	110.01
414.45	0.00
414.64	81.92
414.83	0.00
415.02	0.00
415.22	23.41
415.41	46.81
415.60	0.00
415.79	0.00
415.98	16.38
416.17	51.49
416.36	65.54
416.55	0.00
416.74	2.34
416.93	53.83
417.12	56.17
417.31	0.00
417.50	39.79
417.69	0.00
417.88	65.54
418.07	95.96
418.26	21.06
418.45	25.75
418.64	39.79
418.83	35.11
419.02	107.66
419.21	16.38
419.39	60.85
419.58	93.62
419.77	16.38
419.96	46.81
420.15	91.28
420.34	53.83
420.53	25.75
420.72	51.49
420.91	67.88
421.10	11.70
421.29	25.75
421.48	42.13
421.67	51.49
421.86	81.92
422.05	16.38
422.24	25.75
422.43	9.36
422.61	0.00
422.80	49.15
422.99	51.49
423.18	88.94
423.37	0.00
423.56	0.00
423.75	18.72
423.94	18.72
424.13	0.00
424.32	37.45
424.50	67.88
424.69	4.68
424.88	39.79
425.07	32.77
425.26	60.85
425.45	11.70
425.64	46.81
425.83	7.02
426.01	53.83
426.20	25.75
426.39	42.13
426.58	2.34
426.77	37.45
426.96	0.00
427.15	70.22
427.33	0.00
427.52	0.00
427.71	0.00
427.90	0.00
428.09	51.49
428.28	51.49
428.46	0.00
428.65	0.00
428.84	0.00
429.03	44.47
429.22	30.43
429.40	56.17
429.59	44.47
429.78	0.00
429.97	0.00
430.16	0.00
430.34	65.54
430.53	44.47
430.72	46.81
430.91	35.11
431.10	0.00
431.28	79.58
431.47	4.68
431.66	0.00
431.85	56.17
432.03	21.06
432.22	74.90
432.41	63.19
432.60	0.00
432.79	2.34
432.97	102.98
433.16	28.09
433.35	9.36
433.54	37.45
433.72	60.85
433.91	72.56
434.10	51.49
434.28	2.34
434.47	9.36
434.66	0.00
434.85	0.00
435.03	0.00
435.22	0.00
435.41	74.90
435.59	30.43
435.78	35.11
435.97	4.68
436.16	42.13
436.34	18.72
436.53	0.00
436.72	39.79
436.90	0.00
437.09	21.06
437.28	37.45
437.46	37.45
437.65	18.72
437.84	42.13
438.02	25.75
438.21	53.83
438.40	74.90
438.58	42.13
438.77	65.54
438.96	95.96
439.14	9.36
439.33	74.90
439.52	0.00
439.70	42.13
439.89	0.00
440.08	60.85
440.26	58.51
440.45	32.77
440.63	77.24
440.82	32.77
441.01	18.72
441.19	84.26
441.38	25.75
441.57	23.41
441.75	88.94
441.94	23.41
442.12	11.70
442.31	49.15
442.50	4.68
442.68	32.77
442.87	0.00
443.05	0.00
443.24	0.00
443.43	0.00
443.61	63.19
443.80	79.58
443.98	0.00
444.17	0.00
444.35	124.05
444.54	16.38
444.73	70.22
444.91	21.06
445.10	42.13
445.28	35.11
445.47	49.15
445.65	4.68
445.84	0.00
446.02	88.94
446.21	60.85
446.39	0.00
446.58	25.75
446.77	44.47
446.95	49.15
447.14	42.13
447.32	58.51
447.51	44.47
447.69	28.09
447.88	0.00
448.06	16.38
448.25	0.00
448.43	32.77
448.62	0.00
448.80	7.02
448.99	0.00
449.17	11.70
449.36	49.15
449.54	0.00
449.73	53.83
449.91	35.11
450.10	30.43
450.28	100.64
450.46	102.98
450.65	49.15
450.83	51.49
451.02	0.00
451.20	25.75
451.39	70.22
451.57	46.81
451.76	51.49
451.94	21.06
452.13	51.49
452.31	18.72
452.49	51.49
452.68	35.11
452.86	44.47
453.05	74.90
453.23	81.92
453.42	0.00
453.60	0.00
453.78	37.45
453.97	2.34
454.15	30.43
454.34	49.15
454.52	53.83
454.70	0.00
454.89	35.11
455.07	30.43
455.26	98.30
455.44	28.09
455.62	14.04
455.81	11.70
455.99	0.00
456.17	0.00
456.36	0.00
456.54	37.45
456.73	51.49
456.91	77.24
457.09	35.11
457.28	91.28
457.46	72.56
457.64	7.02
457.83	37.45
458.01	67.88
458.19	14.04
458.38	39.79
458.56	9.36
458.74	39.79
458.93	51.49
459.11	77.24
459.29	37.45
459.48	46.81
459.66	16.38
459.84	16.38
460.03	53.83
460.21	42.13
460.39	0.00
460.57	0.00
460.76	58.51
460.94	84.26
461.12	42.13
461.31	32.77
461.49	0.00
461.67	84.26
461.85	72.56
462.04	74.90
462.22	117.03
462.40	46.81
462.59	72.56
462.77	67.88
462.95	0.00
463.13	65.54
463.32	79.58
463.50	18.72
463.68	46.81
463.86	44.47
464.05	30.43
464.23	63.19
464.41	25.75
464.59	42.13
464.78	25.75
464.96	84.26
465.14	39.79
465.32	53.83
465.50	56.17
465.69	42.13
465.87	16.38
466.05	28.09
466.23	32.77
466.41	46.81
466.60	18.72
466.78	21.06
466.96	65.54
467.14	11.70
467.32	2.34
467.51	32.77
467.69	51.49
467.87	65.54
468.05	14.04
468.23	74.90
468.41	51.49
468.60	100.64
468.78	32.77
468.96	11.70
469.14	70.22
469.32	0.00
469.50	42.13
469.69	65.54
469.87	14.04
470.05	51.49
470.23	23.41
470.41	67.88
470.59	32.77
470.77	14.04
470.95	37.45
471.14	100.64
471.32	44.47
471.50	32.77
471.68	2.34
471.86	9.36
472.04	30.43
472.22	0.00
472.40	32.77
472.58	0.00
472.77	58.51
472.95	119.37
473.13	135.75
473.31	35.11
473.49	35.11
473.67	65.54
473.85	0.00
474.03	14.04
474.21	56.17
474.39	23.41
474.57	72.56
474.75	60.85
474.93	58.51
475.12	0.00
475.30	42.13
475.48	28.09
475.66	74.90
475.84	81.92
476.02	39.79
476.20	67.88
476.38	30.43
476.56	2.34
476.74	79.58
476.92	44.47
477.10	25.75
477.28	4.68
477.46	23.41
477.64	0.00
477.82	77.24
478.00	91.28
478.18	21.06
478.36	74.90
478.54	49.15
478.72	46.81
478.90	42.13
479.08	42.13
479.26	23.41
479.44	44.47
479.62	53.83
479.80	23.41
479.98	0.00
480.16	28.09
480.34	14.04
480.52	37.45
480.70	60.85
480.88	2.34
481.06	18.72
481.24	58.51
481.41	56.17
481.59	102.98
481.77	9.36
481.95	14.04
482.13	46.81
482.31	25.75
482.49	70.22
482.67	37.45
482.85	25.75
483.03	60.85
483.21	0.00
483.39	0.00
483.57	2.34
483.74	16.38
483.92	4.68
484.10	23.41
484.28	37.45
484.46	21.06
484.64	37.45
484.82	9.36
485.00	0.00
485.18	28.09
485.35	0.00
485.53	9.36
485.71	44.47
485.89	51.49
486.07	0.00
486.25	0.00
486.43	23.41
486.61	72.56
486.78	35.11
486.96	35.11
487.14	21.06
487.32	11.70
487.50	0.00
487.68	0.00
487.85	0.00
488.03	49.15
488.21	58.51
488.39	25.75
488.57	60.85
488.75	9.36
488.92	32.77
489.10	28.09
489.28	112.35
489.46	28.09
489.64	39.79
489.81	49.15
489.99	0.00
490.17	0.00
490.35	51.49
490.53	23.41
490.70	35.11
490.88	77.24
491.06	44.47
491.24	42.13
491.41	81.92
491.59	7.02
491.77	0.00
491.95	4.68
492.13	42.13
492.30	88.94
492.48	0.00
492.66	2.34
492.84	86.60
493.01	11.70
493.19	21.06
493.37	0.00
493.54	39.79
493.72	42.13
493.90	70.22
494.08	18.72
494.25	58.51
494.43	53.83
494.61	30.43
494.79	60.85
494.96	0.00
495.14	30.43
495.32	0.00
495.49	58.51
495.67	37.45
495.85	93.62
496.02	32.77
496.20	39.79
496.38	56.17
496.55	23.41
496.73	65.54
496.91	117.03
497.09	18.72
497.26	74.90
497.44	63.19
497.62	77.24
497.79	84.26
497.97	32.77
498.14	0.00
498.32	93.62
498.50	39.79
498.67	98.30
498.85	14.04
499.03	25.75
499.20	84.26
499.38	39.79
499.56	46.81
499.73	2.34
499.91	105.32
500.08	35.11
500.26	67.88
500.44	53.83
500.61	0.00
500.79	28.09
500.97	11.70
501.14	124.05
501.32	102.98
501.49	65.54
501.67	53.83
501.84	49.15
502.02	65.54
502.20	93.62
502.37	42.13
502.55	0.00
502.72	9.36
502.90	0.00
503.07	23.41
503.25	44.47
503.43	25.75
503.60	0.00
503.78	23.41
503.95	112.35
504.13	7.02
504.30	16.38
504.48	42.13
504.65	11.70
504.83	0.00
505.01	0.00
505.18	42.13
505.36	39.79
505.53	67.88
505.71	42.13
505.88	84.26
506.06	0.00
506.23	0.00
506.41	77.24
506.58	21.06
506.76	0.00
506.93	51.49
507.11	60.85
507.28	0.00
507.46	81.92
507.63	98.30
507.81	30.43
507.98	9.36
508.16	35.11
508.33	23.41
508.50	84.26
508.68	14.04
508.85	63.19
509.03	70.22
509.20	56.17
509.38	0.00
509.55	147.45
509.73	67.88
509.90	18.72
510.08	74.90
510.25	51.49
510.42	0.00
510.60	63.19
510.77	65.54
510.95	67.88
511.12	70.22
511.30	30.43
511.47	42.13
511.64	170.86
511.82	0.00
511.99	0.00
512.17	81.92
512.34	74.90
512.51	60.85
512.69	58.51
512.86	110.01
513.04	25.75
513.21	49.15
513.38	74.90
513.56	81.92
513.73	18.72
513.90	0.00
514.08	42.13
514.25	56.17
514.43	30.43
514.60	32.77
514.77	51.49
514.95	112.35
515.12	60.85
515.29	32.77
515.47	9.36
515.64	7.02
515.81	23.41
515.99	7.02
516.16	21.06
516.33	67.88
516.51	0.00
516.68	32.77
516.85	81.92
517.03	14.04
517.20	49.15
517.37	81.92
517.54	30.43
517.72	0.00
517.89	58.51
518.06	91.28
518.24	14.04
518.41	98.30
518.58	98.30
518.75	46.81
518.93	124.05
519.10	67.88
519.27	56.17
519.45	39.79
519.62	0.00
519.79	9.36
519.96	23.41
520.14	21.06
520.31	25.75
520.48	56.17
520.65	72.56
520.83	91.28
521.00	28.09
521.17	39.79
521.34	95.96
521.52	0.00
521.69	77.24
521.86	91.28
522.03	28.09
522.20	133.41
522.38	79.58
522.55	81.92
522.72	49.15
522.89	35.11
523.07	74.90
523.24	21.06
523.41	30.43
523.58	65.54
523.75	49.15
523.92	81.92
524.10	51.49
524.27	70.22
524.44	21.06
524.61	67.88
524.78	37.45
524.96	119.37
525.13	72.56
525.30	72.56
525.47	81.92
525.64	79.58
525.81	58.51
525.98	4.68
526.16	46.81
526.33	21.06
526.50	39.79
526.67	44.47
526.84	37.45
527.01	14.04
527.18	42.13
527.36	23.41
527.53	51.49
527.70	0.00
527.87	9.36
528.04	42.13
528.21	0.00
528.38	65.54
528.55	0.00
528.72	0.00
528.89	93.62
529.07	72.56
529.24	42.13
529.41	91.28
529.58	0.00
529.75	42.13
529.92	53.83
530.09	35.11
530.26	28.09
530.43	53.83
530.60	65.54
530.77	25.75
530.94	16.38
531.11	107.66
531.28	56.17
531.46	35.11
531.63	49.15
531.80	46.81
531.97	95.96
532.14	25.75
532.31	63.19
532.48	18.72
532.65	56.17
532.82	35.11
532.99	56.17
533.16	77.24
533.33	114.69
533.50	14.04
533.67	44.47
533.84	95.96
534.01	39.79
534.18	32.77
534.35	32.77
534.52	0.00
534.69	11.70
534.86	42.13
535.03	77.24
535.20	51.49
535.37	0.00
535.54	56.17
535.71	84.26
535.88	23.41
536.05	23.41
536.22	110.01
536.38	67.88
536.55	140.43
536.72	0.00
536.89	56.17
537.06	72.56
537.23	110.01
537.40	53.83
537.57	25.75
537.74	14.04
537.91	46.81
538.08	91.28
538.25	98.30
538.42	91.28
538.59	30.43
538.75	39.79
538.92	93.62
539.09	0.00
539.26	23.41
539.43	79.58
539.60	194.26
539.77	212.99
539.94	147.45
540.11	110.01
540.28	72.56
540.44	32.77
540.61	49.15
540.78	79.58
540.95	72.56
541.12	0.00
541.29	65.54
541.46	65.54
541.62	65.54
541.79	88.94
541.96	37.45
542.13	86.60
542.30	4.68
542.47	2.34
542.63	49.15
542.80	46.81
542.97	60.85
543.14	49.15
543.31	44.47
543.48	30.43
543.64	67.88
543.81	53.83
543.98	102.98
544.15	74.90
544.32	35.11
544.48	86.60
544.65	131.07
544.82	110.01
544.99	56.17
545.16	60.85
545.32	0.00
545.49	67.88
545.66	74.90
545.83	74.90
546.00	63.19
546.16	0.00
546.33	51.49
546.50	37.45
546.67	0.00
546.83	4.68
547.00	79.58
547.17	72.56
547.34	42.13
547.50	39.79
547.67	56.17
547.84	112.35
548.00	65.54
548.17	51.49
548.34	44.47
548.51	44.47
548.67	14.04
548.84	53.83
549.01	21.06
549.18	67.88
549.34	44.47
549.51	2.34
549.68	81.92
549.84	32.77
550.01	32.77
550.18	35.11
550.34	60.85
550.51	117.03
550.68	35.11
550.84	2.34
551.01	21.06
551.18	32.77
551.34	18.72
551.51	81.92
551.68	58.51
551.84	56.17
552.01	42.13
552.18	79.58
552.34	65.54
552.51	60.85
552.68	46.81
552.84	4.68
553.01	32.77
553.18	77.24
553.34	14.04
553.51	18.72
553.67	39.79
553.84	37.45
554.01	42.13
554.17	93.62
554.34	133.41
554.51	53.83
554.67	133.41
554.84	32.77
555.00	0.00
555.17	11.70
555.33	56.17
555.50	63.19
555.67	63.19
555.83	42.13
556.00	58.51
556.16	58.51
556.33	37.45
556.50	30.43
556.66	39.79
556.83	21.06
556.99	2.34
557.16	0.00
557.32	67.88
557.49	35.11
557.65	56.17
557.82	46.81
557.98	65.54
558.15	35.11
558.32	0.00
558.48	0.00
558.65	0.00
558.81	9.36
558.98	67.88
559.14	81.92
559.31	65.54
559.47	32.77
559.64	53.83
559.80	0.00
559.97	58.51
560.13	25.75
560.30	42.13
560.46	70.22
560.63	72.56
560.79	37.45
560.96	77.24
561.12	65.54
561.29	77.24
561.45	37.45
561.61	67.88
561.78	37.45
561.94	0.00
562.11	14.04
562.27	4.68
562.44	84.26
562.60	11.70
562.77	21.06
562.93	16.38
563.10	65.54
563.26	11.70
563.42	51.49
563.59	35.11
563.75	42.13
563.92	11.70
564.08	72.56
564.24	0.00
564.41	14.04
564.57	70.22
564.74	23.41
564.90	42.13
565.07	77.24
565.23	35.11
565.39	58.51
565.56	88.94
565.72	35.11
565.88	0.00
566.05	133.41
566.21	70.22
566.38	0.00
566.54	32.77
566.70	7.02
566.87	0.00
567.03	79.58
567.19	21.06
567.36	60.85
567.52	4.68
567.68	35.11
567.85	60.85
568.01	16.38
568.17	84.26
568.34	0.00
568.50	65.54
568.66	0.00
568.83	65.54
568.99	72.56
569.15	42.13
569.32	42.13
569.48	63.19
569.64	16.38
569.81	37.45
569.97	21.06
570.13	16.38
570.30	2.34
570.46	86.60
570.62	126.39
570.78	156.82
570.95	49.15
571.11	72.56
571.27	25.75
571.43	117.03
571.60	107.66
571.76	30.43
571.92	79.58
572.09	44.47
572.25	0.00
572.41	0.00
572.57	0.00
572.74	102.98
572.90	0.00
573.06	84.26
573.22	91.28
573.38	84.26
573.55	102.98
573.71	7.02
573.87	110.01
574.03	16.38
574.20	60.85
574.36	23.41
574.52	28.09
574.68	9.36
574.84	37.45
575.01	0.00
575.17	0.00
575.33	93.62
575.49	0.00
575.65	25.75
575.82	14.04
575.98	32.77
576.14	84.26
576.30	72.56
576.46	65.54
576.62	25.75
576.79	65.54
576.95	124.05
577.11	60.85
577.27	84.26
577.43	42.13
577.59	74.90
577.75	53.83
577.92	23.41
578.08	65.54
578.24	0.00
578.40	39.79
578.56	51.49
578.72	25.75
578.88	56.17
579.04	14.04
579.21	7.02
579.37	0.00
579.53	46.81
579.69	91.28
579.85	95.96
580.01	74.90
580.17	0.00
580.33	23.41
580.49	21.06
580.65	46.81
580.82	63.19
580.98	44.47
581.14	126.39
581.30	63.19
581.46	30.43
581.62	102.98
581.78	56.17
581.94	18.72
582.10	53.83
582.26	56.17
582.42	93.62
582.58	95.96
582.74	95.96
582.90	63.19
583.06	114.69
583.22	88.94
583.38	44.47
583.54	105.32
583.70	46.81
583.86	42.13
584.02	110.01
584.18	81.92
584.34	145.11
584.50	463.43
584.66	2223.51
584.82	5004.07
584.98	7178.42
585.14	6186.04
585.30	3922.74
585.46	2448.20
585.62	1507.30
585.78	744.29
585.94	280.86
586.10	196.60
586.26	173.20
586.42	84.26
586.58	93.62
586.74	58.51
586.90	32.77
587.06	44.47
587.22	21.06
587.38	112.35
587.54	114.69
587.70	315.97
587.86	535.98
588.02	559.39
588.18	297.25
588.34	262.14
588.49	215.33
588.65	112.35
588.81	91.28
588.97	35.11
589.13	0.00
589.29	56.17
589.45	42.13
589.61	84.26
589.77	25.75
589.93	32.77
590.08	93.62
590.24	37.45
590.40	138.09
590.56	53.83
590.72	72.56
590.88	51.49
591.04	46.81
591.20	18.72
591.35	32.77
591.51	74.90
591.67	72.56
591.83	67.88
591.99	0.00
592.15	16.38
592.31	53.83
592.46	25.75
592.62	53.83
592.78	100.64
592.94	44.47
593.10	37.45
593.26	30.43
593.41	56.17
593.57	39.79
593.73	28.09
593.89	259.80
594.05	603.86
594.20	947.92
594.36	882.38
594.52	613.22
594.68	386.19
594.84	245.76
594.99	147.45
595.15	56.17
595.31	65.54
595.47	126.39
595.62	0.00
595.78	28.09
595.94	14.04
596.10	67.88
596.25	60.85
596.41	32.77
596.57	79.58
596.73	70.22
596.88	37.45
597.04	177.88
597.20	205.97
597.36	280.86
597.51	217.67
597.67	217.67
597.83	173.20
597.99	39.79
598.14	84.26
598.30	32.77
598.46	35.11
598.61	18.72
598.77	44.47
598.93	37.45
599.09	77.24
599.24	86.60
599.40	79.58
599.56	25.75
599.71	86.60
599.87	32.77
600.03	86.60
600.18	28.09
600.34	79.58
600.50	126.39
600.65	37.45
600.81	79.58
600.97	0.00
601.12	7.02
601.28	81.92
601.44	77.24
601.59	42.13
601.75	112.35
601.91	21.06
602.06	25.75
602.22	105.32
602.37	81.92
602.53	163.84
602.69	283.20
602.84	306.61
603.00	236.39
603.16	154.48
603.31	84.26
603.47	88.94
603.62	98.30
603.78	60.85
603.94	114.69
604.09	86.60
604.25	49.15
604.40	105.32
604.56	51.49
604.71	7.02
604.87	14.04
605.03	18.72
605.18	16.38
605.34	35.11
605.49	56.17
605.65	0.00
605.80	30.43
605.96	39.79
606.12	44.47
606.27	84.26
606.43	25.75
606.58	42.13
606.74	131.07
606.89	421.30
607.05	702.16
607.20	840.25
607.36	641.31
607.51	404.91
607.67	241.08
607.82	234.05
607.98	91.28
608.13	131.07
608.29	70.22
608.44	67.88
608.60	46.81
608.75	4.68
608.91	168.52
609.06	491.51
609.22	1118.78
609.37	1350.49
609.53	1224.10
609.68	798.12
609.84	475.13
609.99	351.08
610.15	201.29
610.30	72.56
610.46	53.83
610.61	14.04
610.76	23.41
610.92	53.83
611.07	70.22
611.23	7.02
611.38	30.43
611.54	39.79
611.69	100.64
611.84	21.06
612.00	0.00
612.15	63.19
612.31	100.64
612.46	84.26
612.62	119.37
612.77	86.60
612.92	91.28
613.08	23.41
613.23	102.98
613.39	39.79
613.54	91.28
613.69	437.68
613.85	1364.53
614.00	1968.39
614.15	2120.53
614.31	1593.90
614.46	959.62
614.62	664.71
614.77	381.51
614.92	248.10
615.08	84.26
615.23	65.54
615.38	88.94
615.54	42.13
615.69	128.73
615.84	201.29
616.00	479.81
616.15	594.50
616.30	477.47
616.46	358.10
616.61	245.76
616.76	191.92
616.92	63.19
617.07	119.37
617.22	70.22
617.37	112.35
617.53	100.64
617.68	0.00
617.83	0.00
617.99	53.83
618.14	14.04
618.29	23.41
618.45	88.94
618.60	53.83
618.75	16.38
618.90	56.17
619.06	79.58
619.21	53.83
619.36	0.00
619.51	67.88
619.67	67.88
619.82	9.36
619.97	56.17
620.12	42.13
620.28	7.02
620.43	0.00
620.58	95.96
620.73	35.11
620.89	0.00
621.04	60.85
621.19	156.82
621.34	257.46
621.49	353.42
621.65	334.70
621.80	236.39
621.95	205.97
622.10	49.15
622.25	65.54
622.41	44.47
622.56	49.15
622.71	16.38
622.86	65.54
623.01	65.54
623.16	0.00
623.32	107.66
623.47	39.79
623.62	44.47
623.77	0.00
623.92	49.15
624.07	72.56
624.23	58.51
624.38	0.00
624.53	98.30
624.68	44.47
624.83	81.92
624.98	42.13
625.13	0.00
625.29	35.11
625.44	91.28
625.59	0.00
625.74	53.83
625.89	72.56
626.04	250.44
626.19	667.05
626.34	1013.45
626.49	1109.41
626.65	884.72
626.80	589.82
626.95	318.31
627.10	266.82
627.25	128.73
627.40	14.04
627.55	79.58
627.70	56.17
627.85	51.49
628.00	28.09
628.15	60.85
628.30	77.24
628.45	0.00
628.60	39.79
628.76	84.26
628.91	67.88
629.06	84.26
629.21	0.00
629.36	2.34
629.51	0.00
629.66	65.54
629.81	74.90
629.96	212.99
630.11	227.03
630.26	346.40
630.41	264.48
630.56	114.69
630.71	173.20
630.86	112.35
631.01	74.90
631.16	16.38
631.31	86.60
631.46	21.06
631.61	0.00
631.76	98.30
631.91	18.72
632.06	63.19
632.21	16.38
632.36	18.72
632.51	28.09
632.66	7.02
632.81	215.33
632.96	379.17
633.10	727.91
633.25	695.14
633.40	662.37
633.55	444.70
633.70	255.12
633.85	222.35
634.00	163.84
634.15	51.49
634.30	49.15
634.45	32.77
634.60	0.00
634.75	0.00
634.90	56.17
635.05	42.13
635.19	56.17
635.34	100.64
635.49	86.60
635.64	53.83
635.79	84.26
635.94	91.28
636.09	18.72
636.24	67.88
636.39	30.43
636.53	14.04
636.68	37.45
636.83	67.88
636.98	35.11
637.13	7.02
637.28	114.69
637.43	35.11
637.57	93.62
637.72	374.49
637.87	861.32
638.02	1228.78
638.17	1427.73
638.32	1086.01
638.46	660.03
638.61	535.98
638.76	297.25
638.91	215.33
639.06	100.64
639.20	142.77
639.35	35.11
639.50	142.77
639.65	463.43
639.80	1369.21
639.94	2010.52
640.09	2162.66
640.24	1717.95
640.39	1097.71
640.54	744.29
640.68	414.27
640.83	198.95
640.98	177.88
641.13	93.62
641.27	58.51
641.42	28.09
641.57	79.58
641.72	60.85
641.86	16.38
642.01	0.00
642.16	28.09
642.31	25.75
642.45	93.62
642.60	53.83
642.75	14.04
642.90	7.02
643.04	88.94
643.19	70.22
643.34	100.64
643.48	72.56
643.63	74.90
643.78	152.13
643.93	0.00
644.07	112.35
644.22	30.43
644.37	0.00
644.51	39.79
644.66	91.28
644.81	9.36
644.95	49.15
645.10	88.94
645.25	23.41
645.39	14.04
645.54	30.43
645.69	30.43
645.83	2.34
645.98	107.66
646.13	30.43
646.27	42.13
646.42	39.79
646.57	0.00
646.71	35.11
646.86	23.41
647.00	32.77
647.15	77.24
647.30	0.00
647.44	39.79
647.59	37.45
647.74	60.85
647.88	18.72
648.03	51.49
648.17	16.38
648.32	35.11
648.47	74.90
648.61	67.88
648.76	98.30
648.90	53.83
649.05	0.00
649.20	63.19
649.34	2.34
649.49	11.70
649.63	0.00
649.78	79.58
649.92	112.35
650.07	180.22
650.21	610.88
650.36	968.98
650.51	1151.54
650.65	999.41
650.80	690.46
650.94	479.81
651.09	355.76
651.23	215.33
651.38	154.48
651.52	88.94
651.67	0.00
651.81	35.11
651.96	86.60
652.10	39.79
652.25	32.77
652.39	70.22
652.54	86.60
652.68	91.28
652.83	215.33
652.97	287.89
653.12	433.00
653.26	383.85
653.41	245.76
653.55	250.44
653.70	191.92
653.84	117.03
653.99	42.13
654.13	32.77
654.27	0.00
654.42	56.17
654.56	53.83
654.71	72.56
654.85	39.79
655.00	25.75
655.14	77.24
655.29	0.00
655.43	9.36
655.57	14.04
655.72	23.41
655.86	32.77
656.01	70.22
656.15	53.83
656.30	56.17
656.44	105.32
656.58	37.45
656.73	0.00
656.87	37.45
657.01	28.09
657.16	79.58
657.30	58.51
657.45	30.43
657.59	86.60
657.73	46.81
657.88	18.72
658.02	42.13
658.16	30.43
658.31	21.06
658.45	0.00
658.60	93.62
658.74	23.41
658.88	74.90
659.03	4.68
659.17	93.62
659.31	95.96
659.46	311.29
659.60	526.62
659.74	571.09
659.89	552.37
660.03	397.89
660.17	283.20
660.32	203.63
660.46	161.50
660.60	107.66
660.74	42.13
660.89	37.45
661.03	70.22
661.17	53.83
661.32	28.09
661.46	67.88
661.60	25.75
661.74	4.68
661.89	72.56
662.03	23.41
662.17	37.45
662.31	95.96
662.46	0.00
662.60	74.90
662.74	39.79
662.88	11.70
663.03	0.00
663.17	4.68
663.31	0.00
663.45	72.56
663.60	0.00
663.74	56.17
663.88	93.62
664.02	65.54
664.17	102.98
664.31	81.92
664.45	37.45
664.59	4.68
664.73	39.79
664.88	128.73
665.02	42.13
665.16	67.88
665.30	39.79
665.44	44.47
665.59	72.56
665.73	105.32
665.87	7.02
666.01	77.24
666.15	53.83
666.29	138.09
666.44	70.22
666.58	37.45
666.72	56.17
666.86	53.83
667.00	107.66
667.14	28.09
667.28	227.03
667.43	477.47
667.57	807.48
667.71	1034.52
667.85	896.43
667.99	573.43
668.13	411.93
668.27	290.23
668.41	133.41
668.56	166.18
668.70	67.88
668.84	142.77
668.98	42.13
669.12	0.00
669.26	35.11
669.40	65.54
669.54	32.77
669.68	14.04
669.82	86.60
669.96	67.88
670.10	0.00
670.25	9.36
670.39	28.09
670.53	60.85
670.67	51.49
670.81	65.54
670.95	112.35
671.09	107.66
671.23	222.35
671.37	360.44
671.51	610.88
671.65	589.82
671.79	447.04
671.93	367.46
672.07	278.52
672.21	145.11
672.35	35.11
672.49	39.79
672.63	46.81
672.77	91.28
672.91	88.94
673.05	11.70
673.19	23.41
673.33	49.15
673.47	86.60
673.61	16.38
673.75	86.60
673.89	35.11
674.03	79.58
674.17	86.60
674.31	25.75
674.45	39.79
674.59	16.38
674.73	0.00
674.87	0.00
675.01	49.15
675.15	32.77
675.29	67.88
675.43	119.37
675.56	70.22
675.70	65.54
675.84	18.72
675.98	44.47
676.12	105.32
676.26	7.02
676.40	53.83
676.54	42.13
676.68	25.75
676.82	49.15
676.96	42.13
677.10	0.00
677.23	11.70
677.37	0.00
677.51	37.45
677.65	37.45
677.79	42.13
677.93	18.72
678.07	0.00
678.21	42.13
678.34	37.45
678.48	7.02
678.62	39.79
678.76	37.45
678.90	51.49
679.04	39.79
679.18	30.43
679.31	11.70
679.45	100.64
679.59	0.00
679.73	42.13
679.87	100.64
680.00	21.06
680.14	72.56
680.28	65.54
680.42	37.45
680.56	46.81
680.70	37.45
680.83	46.81
680.97	49.15
681.11	35.11
681.25	67.88
681.39	63.19
681.52	4.68
681.66	51.49
681.80	114.69
681.94	53.83
682.07	100.64
682.21	63.19
682.35	30.43
682.49	70.22
682.62	0.00
682.76	32.77
682.90	63.19
683.04	35.11
683.17	88.94
683.31	35.11
683.45	58.51
683.59	72.56
683.72	0.00
683.86	63.19
684.00	74.90
684.13	32.77
684.27	25.75
684.41	51.49
684.55	18.72
684.68	93.62
684.82	23.41
684.96	93.62
685.09	44.47
685.23	0.00
685.37	81.92
685.50	46.81
685.64	42.13
685.78	21.06
685.91	18.72
686.05	42.13
686.19	23.41
686.32	56.17
686.46	35.11
686.60	25.75
686.73	39.79
686.87	63.19
687.01	30.43
687.14	42.13
687.28	37.45
687.42	35.11
687.55	32.77
687.69	77.24
687.82	0.00
687.96	30.43
688.10	46.81
688.23	25.75
688.37	30.43
688.50	16.38
688.64	14.04
688.78	18.72
688.91	0.00
689.05	0.00
689.18	42.13
689.32	23.41
689.46	0.00
689.59	21.06
689.73	21.06
689.86	67.88
690.00	39.79
690.13	37.45
690.27	86.60
690.41	0.00
690.54	7.02
690.68	128.73
690.81	84.26
690.95	37.45
691.08	30.43
691.22	58.51
691.35	63.19
691.49	28.09
691.62	14.04
691.76	58.51
691.89	23.41
692.03	0.00
692.16	35.11
692.30	65.54
692.43	84.26
692.57	198.95
692.70	374.49
692.84	433.00
692.97	435.34
693.11	311.29
693.24	248.10
693.38	142.77
693.51	65.54
693.65	91.28
693.78	7.02
693.92	56.17
694.05	58.51
694.19	0.00
694.32	114.69
694.45	79.58
694.59	0.00
694.72	30.43
694.86	72.56
694.99	14.04
695.13	0.00
695.26	11.70
695.39	46.81
695.53	0.00
695.66	37.45
695.80	86.60
695.93	65.54
696.07	25.75
696.20	72.56
696.33	107.66
696.47	37.45
696.60	72.56
696.73	4.68
696.87	37.45
697.00	53.83
697.14	42.13
697.27	70.22
697.40	56.17
697.54	84.26
697.67	46.81
697.80	58.51
697.94	32.77
698.07	60.85
698.21	39.79
698.34	39.79
698.47	18.72
698.61	79.58
698.74	79.58
698.87	32.77
699.01	56.17
699.14	37.45
699.27	53.83
699.40	37.45
699.54	67.88
699.67	63.19
699.80	18.72
699.94	32.77
700.07	70.22
700.20	30.43
700.34	0.00
700.47	18.72
700.60	0.00
700.73	98.30
700.87	51.49
701.00	53.83
701.13	0.00
701.26	0.00
701.40	9.36
701.53	0.00
701.66	0.00
701.79	23.41
701.93	18.72
702.06	91.28
702.19	102.98
702.32	32.77
702.46	21.06
702.59	2.34
702.72	128.73
702.85	358.10
702.99	543.00
703.12	711.52
703.25	884.72
703.38	816.85
703.51	608.54
703.65	416.62
703.78	250.44
703.91	217.67
704.04	128.73
704.17	74.90
704.31	91.28
704.44	46.81
704.57	0.00
704.70	0.00
704.83	0.00
704.96	88.94
705.10	56.17
705.23	0.00
>>>>>End Processed Spectral Data<<<<<
