SpectraSuite Data File
++++++++++++++++++++++++++++++++++++
Date: Fri Oct 04 12:13:27 GMT-05:00 2013
User: price-jones
Dark Spectrum Present: No
Reference Spectrum Present: No
Number of Sampled Component Spectra: 1
Spectrometers: USB2+H05261
Integration Time (usec): 10000 (USB2+H05261)
Spectra Averaged: 1 (USB2+H05261)
Boxcar Smoothing: 0 (USB2+H05261)
Correct for Electrical Dark: No (USB2+H05261)
Strobe/Lamp Enabled: No (USB2+H05261)
Correct for Detector Non-linearity: No (USB2+H05261)
Correct for Stray Light: No (USB2+H05261)
Number of Pixels in Processed Spectrum: 2048
>>>>>Begin Processed Spectral Data<<<<<
365.73	11.70
365.92	11.70
366.12	11.70
366.32	0.00
366.52	0.00
366.72	0.00
366.91	0.00
367.11	0.00
367.31	0.00
367.51	0.00
367.70	0.00
367.90	0.00
368.10	0.00
368.30	0.00
368.49	0.00
368.69	0.00
368.89	0.00
369.09	0.00
369.28	0.00
369.48	0.00
369.68	0.00
369.87	0.00
370.07	0.00
370.27	0.00
370.47	0.00
370.66	0.00
370.86	0.00
371.06	0.00
371.25	0.00
371.45	0.00
371.65	39.79
371.84	25.75
372.04	16.38
372.24	0.00
372.44	0.00
372.63	63.19
372.83	65.54
373.03	37.45
373.22	30.43
373.42	0.00
373.62	0.00
373.81	49.15
374.01	11.70
374.21	0.00
374.40	77.24
374.60	79.58
374.79	53.83
374.99	23.41
375.19	32.77
375.38	0.00
375.58	14.04
375.78	51.49
375.97	21.06
376.17	0.00
376.37	30.43
376.56	63.19
376.76	18.72
376.95	49.15
377.15	7.02
377.35	63.19
377.54	51.49
377.74	63.19
377.93	49.15
378.13	74.90
378.33	0.00
378.52	25.75
378.72	23.41
378.91	14.04
379.11	32.77
379.31	0.00
379.50	51.49
379.70	0.00
379.89	0.00
380.09	46.81
380.28	9.36
380.48	35.11
380.68	25.75
380.87	25.75
381.07	117.03
381.26	0.00
381.46	9.36
381.65	0.00
381.85	0.00
382.04	30.43
382.24	0.00
382.43	46.81
382.63	0.00
382.83	0.00
383.02	25.75
383.22	56.17
383.41	0.00
383.61	0.00
383.80	0.00
384.00	25.75
384.19	14.04
384.39	0.00
384.58	0.00
384.78	0.00
384.97	95.96
385.17	21.06
385.36	37.45
385.56	0.00
385.75	16.38
385.95	0.00
386.14	46.81
386.34	0.00
386.53	39.79
386.72	7.02
386.92	44.47
387.11	42.13
387.31	9.36
387.50	9.36
387.70	25.75
387.89	46.81
388.09	0.00
388.28	0.00
388.48	16.38
388.67	28.09
388.86	14.04
389.06	77.24
389.25	21.06
389.45	74.90
389.64	14.04
389.84	35.11
390.03	14.04
390.22	67.88
390.42	56.17
390.61	37.45
390.81	9.36
391.00	0.00
391.19	7.02
391.39	18.72
391.58	46.81
391.78	0.00
391.97	65.54
392.16	49.15
392.36	49.15
392.55	65.54
392.75	32.77
392.94	14.04
393.13	9.36
393.33	100.64
393.52	0.00
393.71	0.00
393.91	56.17
394.10	39.79
394.29	60.85
394.49	0.00
394.68	53.83
394.88	0.00
395.07	39.79
395.26	0.00
395.46	14.04
395.65	79.58
395.84	44.47
396.04	67.88
396.23	0.00
396.42	11.70
396.62	51.49
396.81	18.72
397.00	21.06
397.19	100.64
397.39	25.75
397.58	0.00
397.77	9.36
397.97	18.72
398.16	42.13
398.35	0.00
398.55	0.00
398.74	0.00
398.93	0.00
399.12	133.41
399.32	18.72
399.51	35.11
399.70	58.51
399.90	16.38
400.09	0.00
400.28	16.38
400.47	21.06
400.67	11.70
400.86	37.45
401.05	0.00
401.24	18.72
401.44	23.41
401.63	63.19
401.82	49.15
402.01	25.75
402.21	0.00
402.40	7.02
402.59	0.00
402.78	58.51
402.97	25.75
403.17	7.02
403.36	86.60
403.55	30.43
403.74	0.00
403.93	46.81
404.13	32.77
404.32	98.30
404.51	21.06
404.70	4.68
404.89	14.04
405.09	21.06
405.28	32.77
405.47	30.43
405.66	74.90
405.85	58.51
406.05	0.00
406.24	32.77
406.43	39.79
406.62	0.00
406.81	60.85
407.00	9.36
407.20	32.77
407.39	7.02
407.58	0.00
407.77	32.77
407.96	37.45
408.15	30.43
408.34	18.72
408.54	53.83
408.73	35.11
408.92	49.15
409.11	30.43
409.30	18.72
409.49	84.26
409.68	77.24
409.87	58.51
410.07	7.02
410.26	0.00
410.45	0.00
410.64	37.45
410.83	0.00
411.02	18.72
411.21	35.11
411.40	25.75
411.59	93.62
411.78	9.36
411.98	32.77
412.17	28.09
412.36	63.19
412.55	2.34
412.74	72.56
412.93	86.60
413.12	7.02
413.31	0.00
413.50	0.00
413.69	21.06
413.88	0.00
414.07	16.38
414.26	4.68
414.45	0.00
414.64	63.19
414.83	0.00
415.02	0.00
415.22	18.72
415.41	51.49
415.60	65.54
415.79	28.09
415.98	72.56
416.17	0.00
416.36	49.15
416.55	0.00
416.74	16.38
416.93	0.00
417.12	0.00
417.31	37.45
417.50	0.00
417.69	102.98
417.88	42.13
418.07	11.70
418.26	23.41
418.45	44.47
418.64	0.00
418.83	117.03
419.02	39.79
419.21	70.22
419.39	72.56
419.58	25.75
419.77	0.00
419.96	4.68
420.15	32.77
420.34	119.37
420.53	0.00
420.72	32.77
420.91	42.13
421.10	84.26
421.29	95.96
421.48	88.94
421.67	0.00
421.86	0.00
422.05	32.77
422.24	86.60
422.43	0.00
422.61	0.00
422.80	0.00
422.99	14.04
423.18	56.17
423.37	37.45
423.56	25.75
423.75	0.00
423.94	0.00
424.13	79.58
424.32	51.49
424.50	114.69
424.69	74.90
424.88	0.00
425.07	35.11
425.26	65.54
425.45	4.68
425.64	30.43
425.83	107.66
426.01	77.24
426.20	14.04
426.39	0.00
426.58	25.75
426.77	16.38
426.96	16.38
427.15	56.17
427.33	28.09
427.52	46.81
427.71	72.56
427.90	7.02
428.09	100.64
428.28	72.56
428.46	35.11
428.65	79.58
428.84	0.00
429.03	0.00
429.22	56.17
429.40	67.88
429.59	0.00
429.78	7.02
429.97	21.06
430.16	65.54
430.34	58.51
430.53	0.00
430.72	49.15
430.91	16.38
431.10	18.72
431.28	18.72
431.47	121.71
431.66	23.41
431.85	42.13
432.03	74.90
432.22	0.00
432.41	37.45
432.60	46.81
432.79	58.51
432.97	53.83
433.16	58.51
433.35	7.02
433.54	51.49
433.72	0.00
433.91	23.41
434.10	77.24
434.28	21.06
434.47	30.43
434.66	18.72
434.85	25.75
435.03	124.05
435.22	42.13
435.41	93.62
435.59	0.00
435.78	21.06
435.97	35.11
436.16	46.81
436.34	70.22
436.53	46.81
436.72	16.38
436.90	74.90
437.09	30.43
437.28	63.19
437.46	42.13
437.65	49.15
437.84	56.17
438.02	0.00
438.21	2.34
438.40	58.51
438.58	14.04
438.77	37.45
438.96	74.90
439.14	25.75
439.33	9.36
439.52	0.00
439.70	49.15
439.89	35.11
440.08	42.13
440.26	56.17
440.45	0.00
440.63	23.41
440.82	14.04
441.01	0.00
441.19	112.35
441.38	35.11
441.57	9.36
441.75	60.85
441.94	0.00
442.12	0.00
442.31	9.36
442.50	42.13
442.68	53.83
442.87	95.96
443.05	0.00
443.24	42.13
443.43	86.60
443.61	65.54
443.80	56.17
443.98	44.47
444.17	51.49
444.35	30.43
444.54	23.41
444.73	25.75
444.91	42.13
445.10	32.77
445.28	2.34
445.47	28.09
445.65	23.41
445.84	0.00
446.02	4.68
446.21	0.00
446.39	0.00
446.58	28.09
446.77	35.11
446.95	0.00
447.14	0.00
447.32	65.54
447.51	14.04
447.69	32.77
447.88	93.62
448.06	0.00
448.25	39.79
448.43	32.77
448.62	44.47
448.80	63.19
448.99	0.00
449.17	0.00
449.36	28.09
449.54	16.38
449.73	79.58
449.91	105.32
450.10	53.83
450.28	72.56
450.46	0.00
450.65	74.90
450.83	37.45
451.02	84.26
451.20	39.79
451.39	25.75
451.57	32.77
451.76	49.15
451.94	72.56
452.13	42.13
452.31	7.02
452.49	21.06
452.68	88.94
452.86	16.38
453.05	28.09
453.23	16.38
453.42	0.00
453.60	88.94
453.78	51.49
453.97	25.75
454.15	44.47
454.34	63.19
454.52	18.72
454.70	56.17
454.89	0.00
455.07	25.75
455.26	79.58
455.44	11.70
455.62	56.17
455.81	49.15
455.99	65.54
456.17	39.79
456.36	35.11
456.54	46.81
456.73	42.13
456.91	0.00
457.09	18.72
457.28	67.88
457.46	72.56
457.64	11.70
457.83	0.00
458.01	72.56
458.19	16.38
458.38	0.00
458.56	28.09
458.74	32.77
458.93	65.54
459.11	67.88
459.29	2.34
459.48	49.15
459.66	7.02
459.84	21.06
460.03	49.15
460.21	23.41
460.39	46.81
460.57	23.41
460.76	0.00
460.94	16.38
461.12	72.56
461.31	77.24
461.49	51.49
461.67	42.13
461.85	63.19
462.04	0.00
462.22	154.48
462.40	7.02
462.59	79.58
462.77	107.66
462.95	0.00
463.13	35.11
463.32	53.83
463.50	117.03
463.68	49.15
463.86	56.17
464.05	42.13
464.23	70.22
464.41	35.11
464.59	0.00
464.78	60.85
464.96	30.43
465.14	79.58
465.32	21.06
465.50	0.00
465.69	53.83
465.87	4.68
466.05	98.30
466.23	95.96
466.41	63.19
466.60	39.79
466.78	63.19
466.96	44.47
467.14	70.22
467.32	37.45
467.51	0.00
467.69	0.00
467.87	107.66
468.05	42.13
468.23	126.39
468.41	14.04
468.60	25.75
468.78	56.17
468.96	70.22
469.14	128.73
469.32	14.04
469.50	18.72
469.69	86.60
469.87	67.88
470.05	37.45
470.23	53.83
470.41	65.54
470.59	79.58
470.77	107.66
470.95	100.64
471.14	25.75
471.32	84.26
471.50	100.64
471.68	30.43
471.86	49.15
472.04	58.51
472.22	72.56
472.40	88.94
472.58	112.35
472.77	25.75
472.95	67.88
473.13	18.72
473.31	35.11
473.49	39.79
473.67	53.83
473.85	0.00
474.03	46.81
474.21	32.77
474.39	42.13
474.57	11.70
474.75	42.13
474.93	11.70
475.12	0.00
475.30	0.00
475.48	0.00
475.66	35.11
475.84	46.81
476.02	44.47
476.20	0.00
476.38	32.77
476.56	79.58
476.74	30.43
476.92	32.77
477.10	65.54
477.28	74.90
477.46	23.41
477.64	2.34
477.82	30.43
478.00	70.22
478.18	14.04
478.36	25.75
478.54	16.38
478.72	79.58
478.90	84.26
479.08	39.79
479.26	23.41
479.44	14.04
479.62	42.13
479.80	42.13
479.98	74.90
480.16	117.03
480.34	28.09
480.52	14.04
480.70	93.62
480.88	42.13
481.06	23.41
481.24	0.00
481.41	74.90
481.59	39.79
481.77	14.04
481.95	72.56
482.13	81.92
482.31	4.68
482.49	9.36
482.67	53.83
482.85	42.13
483.03	21.06
483.21	72.56
483.39	77.24
483.57	23.41
483.74	35.11
483.92	23.41
484.10	4.68
484.28	9.36
484.46	93.62
484.64	9.36
484.82	49.15
485.00	42.13
485.18	21.06
485.35	58.51
485.53	37.45
485.71	9.36
485.89	14.04
486.07	51.49
486.25	18.72
486.43	30.43
486.61	30.43
486.78	0.00
486.96	56.17
487.14	0.00
487.32	18.72
487.50	58.51
487.68	18.72
487.85	60.85
488.03	4.68
488.21	95.96
488.39	7.02
488.57	0.00
488.75	23.41
488.92	25.75
489.10	7.02
489.28	39.79
489.46	7.02
489.64	60.85
489.81	16.38
489.99	39.79
490.17	14.04
490.35	35.11
490.53	0.00
490.70	25.75
490.88	67.88
491.06	0.00
491.24	11.70
491.41	11.70
491.59	35.11
491.77	16.38
491.95	30.43
492.13	37.45
492.30	9.36
492.48	30.43
492.66	21.06
492.84	0.00
493.01	51.49
493.19	35.11
493.37	121.71
493.54	56.17
493.72	56.17
493.90	42.13
494.08	58.51
494.25	53.83
494.43	88.94
494.61	0.00
494.79	53.83
494.96	0.00
495.14	49.15
495.32	21.06
495.49	98.30
495.67	63.19
495.85	7.02
496.02	35.11
496.20	42.13
496.38	110.01
496.55	0.00
496.73	16.38
496.91	58.51
497.09	35.11
497.26	0.00
497.44	51.49
497.62	46.81
497.79	37.45
497.97	77.24
498.14	16.38
498.32	74.90
498.50	74.90
498.67	70.22
498.85	32.77
499.03	0.00
499.20	35.11
499.38	21.06
499.56	53.83
499.73	4.68
499.91	0.00
500.08	53.83
500.26	145.11
500.44	23.41
500.61	4.68
500.79	86.60
500.97	51.49
501.14	0.00
501.32	81.92
501.49	60.85
501.67	7.02
501.84	60.85
502.02	100.64
502.20	23.41
502.37	37.45
502.55	37.45
502.72	44.47
502.90	0.00
503.07	44.47
503.25	30.43
503.43	25.75
503.60	4.68
503.78	30.43
503.95	0.00
504.13	51.49
504.30	53.83
504.48	53.83
504.65	0.00
504.83	53.83
505.01	11.70
505.18	72.56
505.36	21.06
505.53	51.49
505.71	42.13
505.88	37.45
506.06	0.00
506.23	21.06
506.41	2.34
506.58	0.00
506.76	128.73
506.93	18.72
507.11	98.30
507.28	65.54
507.46	86.60
507.63	28.09
507.81	65.54
507.98	98.30
508.16	25.75
508.33	11.70
508.50	112.35
508.68	79.58
508.85	65.54
509.03	49.15
509.20	14.04
509.38	16.38
509.55	65.54
509.73	79.58
509.90	0.00
510.08	32.77
510.25	51.49
510.42	25.75
510.60	0.00
510.77	30.43
510.95	7.02
511.12	65.54
511.30	18.72
511.47	23.41
511.64	60.85
511.82	14.04
511.99	7.02
512.17	60.85
512.34	11.70
512.51	0.00
512.69	32.77
512.86	16.38
513.04	23.41
513.21	77.24
513.38	51.49
513.56	0.00
513.73	46.81
513.90	65.54
514.08	37.45
514.25	35.11
514.43	60.85
514.60	7.02
514.77	65.54
514.95	56.17
515.12	145.11
515.29	79.58
515.47	53.83
515.64	25.75
515.81	0.00
515.99	35.11
516.16	30.43
516.33	37.45
516.51	44.47
516.68	70.22
516.85	21.06
517.03	70.22
517.20	86.60
517.37	28.09
517.54	30.43
517.72	51.49
517.89	58.51
518.06	30.43
518.24	114.69
518.41	124.05
518.58	110.01
518.75	65.54
518.93	0.00
519.10	9.36
519.27	88.94
519.45	23.41
519.62	100.64
519.79	56.17
519.96	70.22
520.14	84.26
520.31	0.00
520.48	72.56
520.65	70.22
520.83	58.51
521.00	0.00
521.17	46.81
521.34	32.77
521.52	23.41
521.69	49.15
521.86	7.02
522.03	65.54
522.20	100.64
522.38	84.26
522.55	23.41
522.72	46.81
522.89	72.56
523.07	30.43
523.24	67.88
523.41	124.05
523.58	32.77
523.75	117.03
523.92	84.26
524.10	0.00
524.27	25.75
524.44	81.92
524.61	84.26
524.78	0.00
524.96	98.30
525.13	119.37
525.30	88.94
525.47	28.09
525.64	67.88
525.81	11.70
525.98	142.77
526.16	0.00
526.33	28.09
526.50	28.09
526.67	4.68
526.84	56.17
527.01	9.36
527.18	30.43
527.36	49.15
527.53	11.70
527.70	25.75
527.87	39.79
528.04	28.09
528.21	0.00
528.38	51.49
528.55	35.11
528.72	114.69
528.89	53.83
529.07	35.11
529.24	46.81
529.41	74.90
529.58	11.70
529.75	42.13
529.92	88.94
530.09	32.77
530.26	35.11
530.43	30.43
530.60	0.00
530.77	70.22
530.94	74.90
531.11	58.51
531.28	2.34
531.46	0.00
531.63	37.45
531.80	44.47
531.97	51.49
532.14	86.60
532.31	53.83
532.48	30.43
532.65	91.28
532.82	16.38
532.99	74.90
533.16	63.19
533.33	65.54
533.50	53.83
533.67	23.41
533.84	25.75
534.01	67.88
534.18	88.94
534.35	65.54
534.52	56.17
534.69	28.09
534.86	39.79
535.03	93.62
535.20	95.96
535.37	67.88
535.54	70.22
535.71	28.09
535.88	39.79
536.05	58.51
536.22	46.81
536.38	16.38
536.55	39.79
536.72	86.60
536.89	44.47
537.06	9.36
537.23	105.32
537.40	63.19
537.57	88.94
537.74	58.51
537.91	39.79
538.08	30.43
538.25	16.38
538.42	0.00
538.59	100.64
538.75	30.43
538.92	46.81
539.09	51.49
539.26	63.19
539.43	70.22
539.60	147.45
539.77	145.11
539.94	161.50
540.11	124.05
540.28	25.75
540.44	65.54
540.61	44.47
540.78	84.26
540.95	14.04
541.12	56.17
541.29	77.24
541.46	4.68
541.62	0.00
541.79	0.00
541.96	0.00
542.13	39.79
542.30	0.00
542.47	84.26
542.63	35.11
542.80	23.41
542.97	7.02
543.14	110.01
543.31	84.26
543.48	2.34
543.64	91.28
543.81	0.00
543.98	30.43
544.15	28.09
544.32	95.96
544.48	25.75
544.65	0.00
544.82	72.56
544.99	86.60
545.16	25.75
545.32	16.38
545.49	84.26
545.66	18.72
545.83	53.83
546.00	25.75
546.16	0.00
546.33	0.00
546.50	51.49
546.67	105.32
546.83	7.02
547.00	23.41
547.17	25.75
547.34	0.00
547.50	79.58
547.67	39.79
547.84	35.11
548.00	25.75
548.17	44.47
548.34	23.41
548.51	0.00
548.67	51.49
548.84	84.26
549.01	0.00
549.18	32.77
549.34	9.36
549.51	88.94
549.68	65.54
549.84	56.17
550.01	39.79
550.18	37.45
550.34	2.34
550.51	58.51
550.68	39.79
550.84	0.00
551.01	49.15
551.18	60.85
551.34	63.19
551.51	42.13
551.68	21.06
551.84	60.85
552.01	51.49
552.18	35.11
552.34	88.94
552.51	51.49
552.68	63.19
552.84	23.41
553.01	21.06
553.18	51.49
553.34	28.09
553.51	21.06
553.67	0.00
553.84	0.00
554.01	0.00
554.17	67.88
554.34	32.77
554.51	0.00
554.67	0.00
554.84	0.00
555.00	37.45
555.17	18.72
555.33	16.38
555.50	37.45
555.67	37.45
555.83	86.60
556.00	0.00
556.16	91.28
556.33	65.54
556.50	35.11
556.66	77.24
556.83	32.77
556.99	16.38
557.16	91.28
557.32	93.62
557.49	39.79
557.65	51.49
557.82	30.43
557.98	70.22
558.15	42.13
558.32	32.77
558.48	42.13
558.65	112.35
558.81	30.43
558.98	0.00
559.14	23.41
559.31	4.68
559.47	86.60
559.64	56.17
559.80	88.94
559.97	51.49
560.13	0.00
560.30	21.06
560.46	81.92
560.63	42.13
560.79	121.71
560.96	0.00
561.12	133.41
561.29	58.51
561.45	21.06
561.61	107.66
561.78	21.06
561.94	37.45
562.11	0.00
562.27	53.83
562.44	42.13
562.60	53.83
562.77	16.38
562.93	74.90
563.10	49.15
563.26	4.68
563.42	11.70
563.59	0.00
563.75	0.00
563.92	42.13
564.08	0.00
564.24	42.13
564.41	0.00
564.57	70.22
564.74	46.81
564.90	58.51
565.07	0.00
565.23	39.79
565.39	72.56
565.56	56.17
565.72	14.04
565.88	25.75
566.05	42.13
566.21	28.09
566.38	0.00
566.54	91.28
566.70	23.41
566.87	7.02
567.03	0.00
567.19	74.90
567.36	46.81
567.52	65.54
567.68	79.58
567.85	0.00
568.01	77.24
568.17	0.00
568.34	98.30
568.50	105.32
568.66	49.15
568.83	65.54
568.99	9.36
569.15	51.49
569.32	53.83
569.48	91.28
569.64	44.47
569.81	30.43
569.97	84.26
570.13	0.00
570.30	30.43
570.46	25.75
570.62	44.47
570.78	114.69
570.95	74.90
571.11	86.60
571.27	65.54
571.43	51.49
571.60	124.05
571.76	0.00
571.92	46.81
572.09	60.85
572.25	65.54
572.41	0.00
572.57	121.71
572.74	110.01
572.90	37.45
573.06	44.47
573.22	14.04
573.38	56.17
573.55	149.79
573.71	77.24
573.87	11.70
574.03	46.81
574.20	11.70
574.36	37.45
574.52	63.19
574.68	74.90
574.84	77.24
575.01	0.00
575.17	44.47
575.33	28.09
575.49	0.00
575.65	0.00
575.82	77.24
575.98	14.04
576.14	112.35
576.30	154.48
576.46	70.22
576.62	0.00
576.79	86.60
576.95	194.26
577.11	110.01
577.27	77.24
577.43	4.68
577.59	39.79
577.75	14.04
577.92	74.90
578.08	42.13
578.24	7.02
578.40	67.88
578.56	44.47
578.72	35.11
578.88	21.06
579.04	23.41
579.21	46.81
579.37	44.47
579.53	67.88
579.69	0.00
579.85	77.24
580.01	88.94
580.17	42.13
580.33	135.75
580.49	67.88
580.65	58.51
580.82	88.94
580.98	16.38
581.14	65.54
581.30	84.26
581.46	21.06
581.62	46.81
581.78	25.75
581.94	4.68
582.10	25.75
582.26	23.41
582.42	11.70
582.58	135.75
582.74	70.22
582.90	25.75
583.06	56.17
583.22	53.83
583.38	35.11
583.54	0.00
583.70	91.28
583.86	56.17
584.02	39.79
584.18	133.41
584.34	128.73
584.50	355.76
584.66	1987.11
584.82	5212.37
584.98	7833.77
585.14	7133.95
585.30	4461.06
585.46	2698.64
585.62	1640.72
585.78	779.40
585.94	308.95
586.10	184.90
586.26	98.30
586.42	126.39
586.58	152.13
586.74	81.92
586.90	74.90
587.06	121.71
587.22	0.00
587.38	91.28
587.54	147.45
587.70	299.59
587.86	486.83
588.02	669.39
588.18	449.38
588.34	304.27
588.49	269.16
588.65	112.35
588.81	88.94
588.97	25.75
589.13	23.41
589.29	46.81
589.45	49.15
589.61	58.51
589.77	30.43
589.93	0.00
590.08	4.68
590.24	9.36
590.40	42.13
590.56	44.47
590.72	86.60
590.88	35.11
591.04	21.06
591.20	53.83
591.35	79.58
591.51	74.90
591.67	23.41
591.83	32.77
591.99	58.51
592.15	21.06
592.31	32.77
592.46	98.30
592.62	49.15
592.78	53.83
592.94	65.54
593.10	18.72
593.26	30.43
593.41	51.49
593.57	0.00
593.73	25.75
593.89	353.42
594.05	669.39
594.20	1004.09
594.36	1025.15
594.52	667.05
594.68	376.83
594.84	243.42
594.99	145.11
595.15	142.77
595.31	70.22
595.47	39.79
595.62	23.41
595.78	18.72
595.94	44.47
596.10	105.32
596.25	32.77
596.41	44.47
596.57	25.75
596.73	67.88
596.88	30.43
597.04	110.01
597.20	210.65
597.36	236.39
597.51	271.50
597.67	184.90
597.83	138.09
597.99	102.98
598.14	21.06
598.30	63.19
598.46	91.28
598.61	18.72
598.77	35.11
598.93	0.00
599.09	88.94
599.24	74.90
599.40	56.17
599.56	56.17
599.71	65.54
599.87	37.45
600.03	0.00
600.18	0.00
600.34	14.04
600.50	0.00
600.65	53.83
600.81	51.49
600.97	65.54
601.12	37.45
601.28	28.09
601.44	28.09
601.59	56.17
601.75	102.98
601.91	67.88
602.06	28.09
602.22	53.83
602.37	88.94
602.53	177.88
602.69	243.42
602.84	372.15
603.00	229.37
603.16	196.60
603.31	128.73
603.47	23.41
603.62	35.11
603.78	77.24
603.94	72.56
604.09	56.17
604.25	63.19
604.40	23.41
604.56	4.68
604.71	86.60
604.87	32.77
605.03	49.15
605.18	79.58
605.34	93.62
605.49	44.47
605.65	0.00
605.80	95.96
605.96	9.36
606.12	91.28
606.27	44.47
606.43	112.35
606.58	102.98
606.74	135.75
606.89	292.57
607.05	622.58
607.20	880.04
607.36	781.74
607.51	475.13
607.67	351.08
607.82	273.84
607.98	119.37
608.13	39.79
608.29	107.66
608.44	60.85
608.60	72.56
608.75	46.81
608.91	149.79
609.06	554.71
609.22	1048.56
609.37	1614.97
609.53	1345.81
609.68	912.81
609.84	566.41
609.99	468.11
610.15	250.44
610.30	84.26
610.46	100.64
610.61	0.00
610.76	70.22
610.92	25.75
611.07	58.51
611.23	53.83
611.38	56.17
611.54	23.41
611.69	65.54
611.84	37.45
612.00	37.45
612.15	32.77
612.31	79.58
612.46	98.30
612.62	154.48
612.77	88.94
612.92	18.72
613.08	58.51
613.23	98.30
613.39	145.11
613.54	72.56
613.69	496.19
613.85	1324.74
614.00	2101.80
614.15	2340.54
614.31	1680.50
614.46	1095.37
614.62	674.07
614.77	500.87
614.92	292.57
615.08	77.24
615.23	49.15
615.38	67.88
615.54	51.49
615.69	126.39
615.84	278.52
616.00	472.79
616.15	596.84
616.30	475.13
616.46	315.97
616.61	243.42
616.76	198.95
616.92	124.05
617.07	98.30
617.22	35.11
617.37	25.75
617.53	16.38
617.68	42.13
617.83	81.92
617.99	42.13
618.14	7.02
618.29	0.00
618.45	0.00
618.60	35.11
618.75	67.88
618.90	44.47
619.06	35.11
619.21	84.26
619.36	30.43
619.51	93.62
619.67	21.06
619.82	65.54
619.97	58.51
620.12	51.49
620.28	65.54
620.43	0.00
620.58	37.45
620.73	56.17
620.89	23.41
621.04	44.47
621.19	159.16
621.34	341.72
621.49	435.34
621.65	372.15
621.80	215.33
621.95	147.45
622.10	180.22
622.25	128.73
622.41	98.30
622.56	77.24
622.71	77.24
622.86	128.73
623.01	63.19
623.16	51.49
623.32	0.00
623.47	0.00
623.62	77.24
623.77	53.83
623.92	49.15
624.07	0.00
624.23	0.00
624.38	88.94
624.53	21.06
624.68	60.85
624.83	95.96
624.98	30.43
625.13	58.51
625.29	49.15
625.44	79.58
625.59	32.77
625.74	46.81
625.89	39.79
626.04	189.58
626.19	702.16
626.34	1069.62
626.49	1221.76
626.65	936.21
626.80	653.01
626.95	468.11
627.10	250.44
627.25	184.90
627.40	30.43
627.55	91.28
627.70	84.26
627.85	63.19
628.00	70.22
628.15	58.51
628.30	0.00
628.45	60.85
628.60	58.51
628.76	23.41
628.91	0.00
629.06	67.88
629.21	0.00
629.36	39.79
629.51	23.41
629.66	42.13
629.81	81.92
629.96	112.35
630.11	241.08
630.26	290.23
630.41	248.10
630.56	217.67
630.71	189.58
630.86	121.71
631.01	124.05
631.16	74.90
631.31	0.00
631.46	86.60
631.61	4.68
631.76	0.00
631.91	51.49
632.06	39.79
632.21	28.09
632.36	2.34
632.51	35.11
632.66	110.01
632.81	161.50
632.96	365.12
633.10	678.76
633.25	730.25
633.40	636.63
633.55	512.58
633.70	379.17
633.85	215.33
634.00	156.82
634.15	86.60
634.30	42.13
634.45	46.81
634.60	70.22
634.75	30.43
634.90	35.11
635.05	67.88
635.19	46.81
635.34	49.15
635.49	0.00
635.64	42.13
635.79	30.43
635.94	0.00
636.09	67.88
636.24	4.68
636.39	56.17
636.53	95.96
636.68	74.90
636.83	65.54
636.98	11.70
637.13	28.09
637.28	46.81
637.43	70.22
637.57	65.54
637.72	304.27
637.87	884.72
638.02	1366.87
638.17	1586.88
638.32	1270.91
638.46	849.61
638.61	552.37
638.76	344.06
638.91	175.54
639.06	107.66
639.20	67.88
639.35	79.58
639.50	95.96
639.65	383.85
639.80	1324.74
639.94	2066.69
640.09	2588.63
640.24	1909.88
640.39	1287.29
640.54	912.81
640.68	519.60
640.83	229.37
640.98	35.11
641.13	72.56
641.27	23.41
641.42	2.34
641.57	16.38
641.72	49.15
641.86	65.54
642.01	74.90
642.16	70.22
642.31	2.34
642.45	14.04
642.60	100.64
642.75	0.00
642.90	14.04
643.04	44.47
643.19	44.47
643.34	93.62
643.48	49.15
643.63	28.09
643.78	0.00
643.93	0.00
644.07	53.83
644.22	58.51
644.37	0.00
644.51	46.81
644.66	93.62
644.81	65.54
644.95	14.04
645.10	0.00
645.25	37.45
645.39	0.00
645.54	72.56
645.69	32.77
645.83	46.81
645.98	28.09
646.13	74.90
646.27	28.09
646.42	35.11
646.57	65.54
646.71	9.36
646.86	16.38
647.00	44.47
647.15	0.00
647.30	0.00
647.44	56.17
647.59	46.81
647.74	16.38
647.88	25.75
648.03	25.75
648.17	58.51
648.32	14.04
648.47	7.02
648.61	2.34
648.76	30.43
648.90	18.72
649.05	0.00
649.20	21.06
649.34	81.92
649.49	81.92
649.63	0.00
649.78	51.49
649.92	0.00
650.07	184.90
650.21	641.31
650.36	1078.99
650.51	1313.04
650.65	1088.35
650.80	795.78
650.94	472.79
651.09	334.70
651.23	189.58
651.38	119.37
651.52	81.92
651.67	9.36
651.81	79.58
651.96	56.17
652.10	51.49
652.25	21.06
652.39	56.17
652.54	93.62
652.68	39.79
652.83	156.82
652.97	397.89
653.12	510.24
653.26	393.21
653.41	276.18
653.55	187.24
653.70	159.16
653.84	138.09
653.99	65.54
654.13	65.54
654.27	67.88
654.42	16.38
654.56	72.56
654.71	53.83
654.85	51.49
655.00	14.04
655.14	37.45
655.29	56.17
655.43	86.60
655.57	46.81
655.72	60.85
655.86	0.00
656.01	88.94
656.15	21.06
656.30	110.01
656.44	100.64
656.58	128.73
656.73	67.88
656.87	93.62
657.01	35.11
657.16	21.06
657.30	37.45
657.45	0.00
657.59	81.92
657.73	37.45
657.88	0.00
658.02	72.56
658.16	11.70
658.31	131.07
658.45	65.54
658.60	86.60
658.74	58.51
658.88	60.85
659.03	39.79
659.17	74.90
659.31	100.64
659.46	360.44
659.60	507.90
659.74	613.22
659.89	568.75
660.03	402.57
660.17	290.23
660.32	166.18
660.46	72.56
660.60	95.96
660.74	16.38
660.89	37.45
661.03	70.22
661.17	28.09
661.32	28.09
661.46	74.90
661.60	60.85
661.74	0.00
661.89	91.28
662.03	32.77
662.17	131.07
662.31	60.85
662.46	84.26
662.60	0.00
662.74	46.81
662.88	112.35
663.03	114.69
663.17	74.90
663.31	39.79
663.45	23.41
663.60	88.94
663.74	37.45
663.88	63.19
664.02	0.00
664.17	88.94
664.31	0.00
664.45	56.17
664.59	72.56
664.73	37.45
664.88	0.00
665.02	23.41
665.16	60.85
665.30	28.09
665.44	0.00
665.59	30.43
665.73	44.47
665.87	44.47
666.01	7.02
666.15	88.94
666.29	0.00
666.44	23.41
666.58	91.28
666.72	28.09
666.86	30.43
667.00	0.00
667.14	100.64
667.28	135.75
667.43	514.92
667.57	931.53
667.71	1090.69
667.85	1048.56
667.99	671.73
668.13	486.83
668.27	194.26
668.41	163.84
668.56	142.77
668.70	70.22
668.84	39.79
668.98	0.00
669.12	0.00
669.26	14.04
669.40	35.11
669.54	28.09
669.68	56.17
669.82	67.88
669.96	21.06
670.10	0.00
670.25	74.90
670.39	18.72
670.53	58.51
670.67	0.00
670.81	0.00
670.95	9.36
671.09	77.24
671.23	341.72
671.37	411.93
671.51	524.28
671.65	631.94
671.79	578.11
671.93	341.72
672.07	133.41
672.21	156.82
672.35	159.16
672.49	65.54
672.63	21.06
672.77	23.41
672.91	72.56
673.05	51.49
673.19	23.41
673.33	77.24
673.47	23.41
673.61	14.04
673.75	0.00
673.89	0.00
674.03	51.49
674.17	16.38
674.31	63.19
674.45	39.79
674.59	51.49
674.73	42.13
674.87	21.06
675.01	37.45
675.15	35.11
675.29	7.02
675.43	28.09
675.56	79.58
675.70	91.28
675.84	77.24
675.98	44.47
676.12	16.38
676.26	0.00
676.40	46.81
676.54	30.43
676.68	0.00
676.82	11.70
676.96	44.47
677.10	0.00
677.23	84.26
677.37	81.92
677.51	30.43
677.65	53.83
677.79	49.15
677.93	0.00
678.07	14.04
678.21	11.70
678.34	74.90
678.48	86.60
678.62	0.00
678.76	4.68
678.90	0.00
679.04	11.70
679.18	51.49
679.31	32.77
679.45	51.49
679.59	0.00
679.73	18.72
679.87	35.11
680.00	7.02
680.14	42.13
680.28	58.51
680.42	21.06
680.56	7.02
680.70	7.02
680.83	4.68
680.97	53.83
681.11	4.68
681.25	100.64
681.39	51.49
681.52	30.43
681.66	65.54
681.80	21.06
681.94	67.88
682.07	58.51
682.21	49.15
682.35	4.68
682.49	74.90
682.62	138.09
682.76	37.45
682.90	35.11
683.04	46.81
683.17	16.38
683.31	30.43
683.45	79.58
683.59	44.47
683.72	56.17
683.86	53.83
684.00	86.60
684.13	65.54
684.27	30.43
684.41	30.43
684.55	39.79
684.68	25.75
684.82	46.81
684.96	28.09
685.09	81.92
685.23	18.72
685.37	0.00
685.50	0.00
685.64	28.09
685.78	0.00
685.91	65.54
686.05	0.00
686.19	35.11
686.32	16.38
686.46	4.68
686.60	0.00
686.73	65.54
686.87	58.51
687.01	53.83
687.14	88.94
687.28	37.45
687.42	65.54
687.55	37.45
687.69	53.83
687.82	16.38
687.96	4.68
688.10	7.02
688.23	0.00
688.37	60.85
688.50	32.77
688.64	84.26
688.78	2.34
688.91	60.85
689.05	0.00
689.18	25.75
689.32	35.11
689.46	110.01
689.59	46.81
689.73	67.88
689.86	65.54
690.00	28.09
690.13	14.04
690.27	77.24
690.41	46.81
690.54	30.43
690.68	16.38
690.81	72.56
690.95	53.83
691.08	102.98
691.22	60.85
691.35	46.81
691.49	23.41
691.62	42.13
691.76	0.00
691.89	21.06
692.03	86.60
692.16	28.09
692.30	18.72
692.43	67.88
692.57	196.60
692.70	411.93
692.84	468.11
692.97	498.53
693.11	327.68
693.24	306.61
693.38	201.29
693.51	205.97
693.65	149.79
693.78	49.15
693.92	14.04
694.05	102.98
694.19	11.70
694.32	11.70
694.45	39.79
694.59	0.00
694.72	51.49
694.86	51.49
694.99	28.09
695.13	0.00
695.26	0.00
695.39	0.00
695.53	0.00
695.66	56.17
695.80	2.34
695.93	21.06
696.07	32.77
696.20	14.04
696.33	9.36
696.47	58.51
696.60	56.17
696.73	0.00
696.87	21.06
697.00	23.41
697.14	53.83
697.27	100.64
697.40	18.72
697.54	39.79
697.67	4.68
697.80	9.36
697.94	91.28
698.07	32.77
698.21	4.68
698.34	28.09
698.47	0.00
698.61	60.85
698.74	32.77
698.87	25.75
699.01	0.00
699.14	0.00
699.27	4.68
699.40	56.17
699.54	88.94
699.67	67.88
699.80	65.54
699.94	21.06
700.07	63.19
700.20	2.34
700.34	39.79
700.47	25.75
700.60	46.81
700.73	117.03
700.87	30.43
701.00	0.00
701.13	14.04
701.26	0.00
701.40	84.26
701.53	58.51
701.66	9.36
701.79	28.09
701.93	28.09
702.06	30.43
702.19	67.88
702.32	0.00
702.46	32.77
702.59	79.58
702.72	100.64
702.85	259.80
702.99	547.69
703.12	882.38
703.25	978.34
703.38	901.11
703.51	603.86
703.65	517.26
703.78	379.17
703.91	248.10
704.04	149.79
704.17	182.56
704.31	91.28
704.44	42.13
704.57	117.03
704.70	77.24
704.83	0.00
704.96	23.41
705.10	63.19
705.23	39.79
>>>>>End Processed Spectral Data<<<<<
