SpectraSuite Data File
++++++++++++++++++++++++++++++++++++
Date: Fri Oct 04 12:13:43 GMT-05:00 2013
User: price-jones
Dark Spectrum Present: No
Reference Spectrum Present: No
Number of Sampled Component Spectra: 1
Spectrometers: USB2+H05261
Integration Time (usec): 10000 (USB2+H05261)
Spectra Averaged: 1 (USB2+H05261)
Boxcar Smoothing: 0 (USB2+H05261)
Correct for Electrical Dark: No (USB2+H05261)
Strobe/Lamp Enabled: No (USB2+H05261)
Correct for Detector Non-linearity: No (USB2+H05261)
Correct for Stray Light: No (USB2+H05261)
Number of Pixels in Processed Spectrum: 2048
>>>>>Begin Processed Spectral Data<<<<<
365.73	0.00
365.92	0.00
366.12	0.00
366.32	0.00
366.52	0.00
366.72	0.00
366.91	0.00
367.11	0.00
367.31	0.00
367.51	0.00
367.70	0.00
367.90	0.00
368.10	0.00
368.30	0.00
368.49	0.00
368.69	0.00
368.89	0.00
369.09	0.00
369.28	0.00
369.48	0.00
369.68	0.00
369.87	0.00
370.07	0.00
370.27	0.00
370.47	0.00
370.66	0.00
370.86	0.00
371.06	0.00
371.25	0.00
371.45	67.88
371.65	0.00
371.84	0.00
372.04	0.00
372.24	37.45
372.44	0.00
372.63	0.00
372.83	23.41
373.03	0.00
373.22	39.79
373.42	23.41
373.62	9.36
373.81	79.58
374.01	25.75
374.21	7.02
374.40	30.43
374.60	0.00
374.79	7.02
374.99	23.41
375.19	46.81
375.38	21.06
375.58	37.45
375.78	60.85
375.97	0.00
376.17	4.68
376.37	25.75
376.56	0.00
376.76	0.00
376.95	30.43
377.15	49.15
377.35	135.75
377.54	32.77
377.74	9.36
377.93	86.60
378.13	16.38
378.33	100.64
378.52	74.90
378.72	79.58
378.91	14.04
379.11	39.79
379.31	0.00
379.50	18.72
379.70	25.75
379.89	53.83
380.09	0.00
380.28	0.00
380.48	23.41
380.68	0.00
380.87	53.83
381.07	0.00
381.26	79.58
381.46	23.41
381.65	25.75
381.85	74.90
382.04	0.00
382.24	30.43
382.43	9.36
382.63	0.00
382.83	37.45
383.02	14.04
383.22	58.51
383.41	0.00
383.61	0.00
383.80	23.41
384.00	32.77
384.19	28.09
384.39	51.49
384.58	46.81
384.78	4.68
384.97	25.75
385.17	14.04
385.36	0.00
385.56	0.00
385.75	0.00
385.95	32.77
386.14	0.00
386.34	0.00
386.53	60.85
386.72	0.00
386.92	77.24
387.11	74.90
387.31	70.22
387.50	25.75
387.70	23.41
387.89	44.47
388.09	16.38
388.28	0.00
388.48	74.90
388.67	0.00
388.86	32.77
389.06	74.90
389.25	0.00
389.45	67.88
389.64	70.22
389.84	49.15
390.03	32.77
390.22	93.62
390.42	18.72
390.61	0.00
390.81	23.41
391.00	7.02
391.19	0.00
391.39	67.88
391.58	16.38
391.78	56.17
391.97	102.98
392.16	32.77
392.36	0.00
392.55	32.77
392.75	0.00
392.94	39.79
393.13	25.75
393.33	9.36
393.52	0.00
393.71	18.72
393.91	32.77
394.10	11.70
394.29	2.34
394.49	14.04
394.68	42.13
394.88	70.22
395.07	11.70
395.26	42.13
395.46	77.24
395.65	0.00
395.84	42.13
396.04	25.75
396.23	21.06
396.42	0.00
396.62	81.92
396.81	14.04
397.00	0.00
397.19	0.00
397.39	0.00
397.58	2.34
397.77	28.09
397.97	37.45
398.16	105.32
398.35	11.70
398.55	23.41
398.74	37.45
398.93	0.00
399.12	21.06
399.32	9.36
399.51	0.00
399.70	42.13
399.90	44.47
400.09	35.11
400.28	98.30
400.47	42.13
400.67	0.00
400.86	14.04
401.05	0.00
401.24	63.19
401.44	72.56
401.63	0.00
401.82	30.43
402.01	56.17
402.21	42.13
402.40	0.00
402.59	14.04
402.78	79.58
402.97	16.38
403.17	25.75
403.36	37.45
403.55	60.85
403.74	72.56
403.93	30.43
404.13	23.41
404.32	0.00
404.51	25.75
404.70	44.47
404.89	25.75
405.09	23.41
405.28	42.13
405.47	11.70
405.66	0.00
405.85	0.00
406.05	95.96
406.24	7.02
406.43	0.00
406.62	18.72
406.81	7.02
407.00	51.49
407.20	91.28
407.39	77.24
407.58	2.34
407.77	0.00
407.96	42.13
408.15	58.51
408.34	30.43
408.54	0.00
408.73	23.41
408.92	0.00
409.11	0.00
409.30	56.17
409.49	0.00
409.68	0.00
409.87	39.79
410.07	21.06
410.26	21.06
410.45	2.34
410.64	16.38
410.83	65.54
411.02	67.88
411.21	32.77
411.40	16.38
411.59	0.00
411.78	0.00
411.98	16.38
412.17	11.70
412.36	18.72
412.55	74.90
412.74	65.54
412.93	11.70
413.12	21.06
413.31	0.00
413.50	0.00
413.69	14.04
413.88	74.90
414.07	42.13
414.26	42.13
414.45	0.00
414.64	0.00
414.83	84.26
415.02	42.13
415.22	70.22
415.41	51.49
415.60	21.06
415.79	16.38
415.98	81.92
416.17	79.58
416.36	21.06
416.55	51.49
416.74	98.30
416.93	9.36
417.12	49.15
417.31	37.45
417.50	53.83
417.69	56.17
417.88	70.22
418.07	86.60
418.26	77.24
418.45	0.00
418.64	0.00
418.83	63.19
419.02	0.00
419.21	28.09
419.39	98.30
419.58	32.77
419.77	2.34
419.96	63.19
420.15	7.02
420.34	28.09
420.53	37.45
420.72	58.51
420.91	18.72
421.10	51.49
421.29	65.54
421.48	42.13
421.67	72.56
421.86	63.19
422.05	9.36
422.24	0.00
422.43	79.58
422.61	30.43
422.80	42.13
422.99	56.17
423.18	65.54
423.37	35.11
423.56	4.68
423.75	0.00
423.94	79.58
424.13	124.05
424.32	0.00
424.50	44.47
424.69	49.15
424.88	60.85
425.07	0.00
425.26	56.17
425.45	39.79
425.64	53.83
425.83	126.39
426.01	14.04
426.20	21.06
426.39	77.24
426.58	39.79
426.77	11.70
426.96	42.13
427.15	121.71
427.33	25.75
427.52	0.00
427.71	72.56
427.90	11.70
428.09	58.51
428.28	0.00
428.46	70.22
428.65	37.45
428.84	25.75
429.03	102.98
429.22	39.79
429.40	28.09
429.59	21.06
429.78	67.88
429.97	63.19
430.16	0.00
430.34	11.70
430.53	42.13
430.72	4.68
430.91	25.75
431.10	53.83
431.28	0.00
431.47	51.49
431.66	119.37
431.85	70.22
432.03	32.77
432.22	44.47
432.41	0.00
432.60	39.79
432.79	30.43
432.97	44.47
433.16	60.85
433.35	67.88
433.54	79.58
433.72	65.54
433.91	16.38
434.10	32.77
434.28	7.02
434.47	35.11
434.66	72.56
434.85	93.62
435.03	74.90
435.22	14.04
435.41	32.77
435.59	0.00
435.78	42.13
435.97	0.00
436.16	49.15
436.34	39.79
436.53	0.00
436.72	14.04
436.90	11.70
437.09	46.81
437.28	70.22
437.46	74.90
437.65	23.41
437.84	14.04
438.02	65.54
438.21	42.13
438.40	74.90
438.58	65.54
438.77	112.35
438.96	0.00
439.14	145.11
439.33	9.36
439.52	32.77
439.70	107.66
439.89	16.38
440.08	37.45
440.26	77.24
440.45	93.62
440.63	56.17
440.82	60.85
441.01	9.36
441.19	35.11
441.38	44.47
441.57	58.51
441.75	56.17
441.94	128.73
442.12	58.51
442.31	23.41
442.50	35.11
442.68	124.05
442.87	70.22
443.05	0.00
443.24	77.24
443.43	16.38
443.61	0.00
443.80	117.03
443.98	46.81
444.17	25.75
444.35	14.04
444.54	72.56
444.73	14.04
444.91	56.17
445.10	93.62
445.28	51.49
445.47	93.62
445.65	133.41
445.84	93.62
446.02	79.58
446.21	49.15
446.39	28.09
446.58	0.00
446.77	0.00
446.95	86.60
447.14	51.49
447.32	0.00
447.51	74.90
447.69	11.70
447.88	58.51
448.06	51.49
448.25	88.94
448.43	65.54
448.62	39.79
448.80	70.22
448.99	133.41
449.17	79.58
449.36	63.19
449.54	0.00
449.73	44.47
449.91	49.15
450.10	88.94
450.28	30.43
450.46	102.98
450.65	28.09
450.83	81.92
451.02	30.43
451.20	49.15
451.39	63.19
451.57	16.38
451.76	0.00
451.94	21.06
452.13	23.41
452.31	65.54
452.49	72.56
452.68	110.01
452.86	0.00
453.05	37.45
453.23	65.54
453.42	46.81
453.60	145.11
453.78	91.28
453.97	86.60
454.15	86.60
454.34	28.09
454.52	25.75
454.70	16.38
454.89	28.09
455.07	58.51
455.26	81.92
455.44	77.24
455.62	56.17
455.81	70.22
455.99	25.75
456.17	0.00
456.36	56.17
456.54	81.92
456.73	0.00
456.91	44.47
457.09	56.17
457.28	117.03
457.46	11.70
457.64	39.79
457.83	53.83
458.01	72.56
458.19	142.77
458.38	67.88
458.56	58.51
458.74	74.90
458.93	42.13
459.11	58.51
459.29	63.19
459.48	91.28
459.66	74.90
459.84	11.70
460.03	105.32
460.21	0.00
460.39	44.47
460.57	28.09
460.76	39.79
460.94	2.34
461.12	25.75
461.31	67.88
461.49	100.64
461.67	46.81
461.85	65.54
462.04	7.02
462.22	112.35
462.40	79.58
462.59	37.45
462.77	86.60
462.95	39.79
463.13	9.36
463.32	9.36
463.50	0.00
463.68	72.56
463.86	100.64
464.05	0.00
464.23	63.19
464.41	0.00
464.59	35.11
464.78	0.00
464.96	0.00
465.14	63.19
465.32	56.17
465.50	0.00
465.69	135.75
465.87	65.54
466.05	0.00
466.23	16.38
466.41	84.26
466.60	53.83
466.78	63.19
466.96	49.15
467.14	84.26
467.32	67.88
467.51	56.17
467.69	95.96
467.87	72.56
468.05	58.51
468.23	91.28
468.41	81.92
468.60	86.60
468.78	37.45
468.96	30.43
469.14	65.54
469.32	65.54
469.50	77.24
469.69	88.94
469.87	121.71
470.05	14.04
470.23	60.85
470.41	14.04
470.59	0.00
470.77	81.92
470.95	56.17
471.14	72.56
471.32	44.47
471.50	60.85
471.68	0.00
471.86	35.11
472.04	0.00
472.22	9.36
472.40	28.09
472.58	30.43
472.77	77.24
472.95	37.45
473.13	63.19
473.31	84.26
473.49	67.88
473.67	46.81
473.85	46.81
474.03	70.22
474.21	72.56
474.39	49.15
474.57	51.49
474.75	11.70
474.93	0.00
475.12	44.47
475.30	95.96
475.48	23.41
475.66	102.98
475.84	37.45
476.02	11.70
476.20	25.75
476.38	9.36
476.56	28.09
476.74	0.00
476.92	53.83
477.10	88.94
477.28	65.54
477.46	58.51
477.64	39.79
477.82	21.06
478.00	35.11
478.18	67.88
478.36	0.00
478.54	60.85
478.72	32.77
478.90	23.41
479.08	58.51
479.26	63.19
479.44	25.75
479.62	0.00
479.80	70.22
479.98	131.07
480.16	65.54
480.34	0.00
480.52	0.00
480.70	53.83
480.88	14.04
481.06	46.81
481.24	67.88
481.41	56.17
481.59	39.79
481.77	56.17
481.95	2.34
482.13	28.09
482.31	16.38
482.49	37.45
482.67	79.58
482.85	102.98
483.03	58.51
483.21	72.56
483.39	53.83
483.57	18.72
483.74	58.51
483.92	93.62
484.10	39.79
484.28	32.77
484.46	98.30
484.64	58.51
484.82	107.66
485.00	117.03
485.18	18.72
485.35	72.56
485.53	49.15
485.71	0.00
485.89	23.41
486.07	30.43
486.25	56.17
486.43	102.98
486.61	37.45
486.78	65.54
486.96	25.75
487.14	35.11
487.32	86.60
487.50	35.11
487.68	77.24
487.85	93.62
488.03	81.92
488.21	121.71
488.39	14.04
488.57	23.41
488.75	53.83
488.92	142.77
489.10	25.75
489.28	93.62
489.46	79.58
489.64	86.60
489.81	0.00
489.99	37.45
490.17	110.01
490.35	70.22
490.53	67.88
490.70	138.09
490.88	58.51
491.06	39.79
491.24	72.56
491.41	63.19
491.59	79.58
491.77	126.39
491.95	49.15
492.13	25.75
492.30	42.13
492.48	77.24
492.66	0.00
492.84	23.41
493.01	11.70
493.19	2.34
493.37	9.36
493.54	32.77
493.72	147.45
493.90	67.88
494.08	95.96
494.25	126.39
494.43	77.24
494.61	56.17
494.79	112.35
494.96	98.30
495.14	84.26
495.32	70.22
495.49	107.66
495.67	74.90
495.85	91.28
496.02	28.09
496.20	140.43
496.38	11.70
496.55	58.51
496.73	93.62
496.91	65.54
497.09	74.90
497.26	60.85
497.44	105.32
497.62	74.90
497.79	81.92
497.97	60.85
498.14	72.56
498.32	46.81
498.50	98.30
498.67	93.62
498.85	159.16
499.03	39.79
499.20	35.11
499.38	56.17
499.56	67.88
499.73	147.45
499.91	46.81
500.08	145.11
500.26	107.66
500.44	102.98
500.61	117.03
500.79	72.56
500.97	131.07
501.14	86.60
501.32	67.88
501.49	70.22
501.67	42.13
501.84	93.62
502.02	110.01
502.20	93.62
502.37	124.05
502.55	30.43
502.72	84.26
502.90	81.92
503.07	53.83
503.25	39.79
503.43	44.47
503.60	49.15
503.78	56.17
503.95	84.26
504.13	81.92
504.30	56.17
504.48	53.83
504.65	44.47
504.83	149.79
505.01	156.82
505.18	93.62
505.36	72.56
505.53	98.30
505.71	107.66
505.88	128.73
506.06	60.85
506.23	86.60
506.41	30.43
506.58	14.04
506.76	18.72
506.93	105.32
507.11	131.07
507.28	25.75
507.46	72.56
507.63	53.83
507.81	56.17
507.98	60.85
508.16	81.92
508.33	91.28
508.50	14.04
508.68	81.92
508.85	49.15
509.03	53.83
509.20	124.05
509.38	37.45
509.55	124.05
509.73	51.49
509.90	102.98
510.08	14.04
510.25	112.35
510.42	124.05
510.60	65.54
510.77	156.82
510.95	95.96
511.12	110.01
511.30	93.62
511.47	102.98
511.64	119.37
511.82	91.28
511.99	49.15
512.17	46.81
512.34	72.56
512.51	95.96
512.69	95.96
512.86	95.96
513.04	63.19
513.21	60.85
513.38	53.83
513.56	21.06
513.73	56.17
513.90	121.71
514.08	86.60
514.25	91.28
514.43	140.43
514.60	53.83
514.77	140.43
514.95	105.32
515.12	91.28
515.29	138.09
515.47	112.35
515.64	63.19
515.81	114.69
515.99	128.73
516.16	107.66
516.33	91.28
516.51	51.49
516.68	81.92
516.85	49.15
517.03	81.92
517.20	100.64
517.37	53.83
517.54	95.96
517.72	91.28
517.89	74.90
518.06	67.88
518.24	65.54
518.41	79.58
518.58	65.54
518.75	30.43
518.93	37.45
519.10	81.92
519.27	65.54
519.45	60.85
519.62	102.98
519.79	93.62
519.96	105.32
520.14	79.58
520.31	105.32
520.48	72.56
520.65	81.92
520.83	53.83
521.00	112.35
521.17	72.56
521.34	84.26
521.52	16.38
521.69	124.05
521.86	28.09
522.03	58.51
522.20	65.54
522.38	98.30
522.55	74.90
522.72	79.58
522.89	65.54
523.07	128.73
523.24	0.00
523.41	77.24
523.58	16.38
523.75	98.30
523.92	39.79
524.10	95.96
524.27	60.85
524.44	95.96
524.61	79.58
524.78	72.56
524.96	98.30
525.13	53.83
525.30	51.49
525.47	91.28
525.64	93.62
525.81	58.51
525.98	35.11
526.16	37.45
526.33	98.30
526.50	72.56
526.67	98.30
526.84	114.69
527.01	42.13
527.18	28.09
527.36	63.19
527.53	72.56
527.70	119.37
527.87	114.69
528.04	110.01
528.21	119.37
528.38	67.88
528.55	72.56
528.72	175.54
528.89	107.66
529.07	107.66
529.24	114.69
529.41	79.58
529.58	124.05
529.75	60.85
529.92	117.03
530.09	67.88
530.26	112.35
530.43	81.92
530.60	110.01
530.77	124.05
530.94	95.96
531.11	124.05
531.28	84.26
531.46	84.26
531.63	135.75
531.80	117.03
531.97	58.51
532.14	102.98
532.31	51.49
532.48	49.15
532.65	105.32
532.82	11.70
532.99	7.02
533.16	117.03
533.33	74.90
533.50	98.30
533.67	63.19
533.84	53.83
534.01	93.62
534.18	117.03
534.35	16.38
534.52	44.47
534.69	88.94
534.86	35.11
535.03	37.45
535.20	86.60
535.37	95.96
535.54	84.26
535.71	23.41
535.88	56.17
536.05	39.79
536.22	119.37
536.38	72.56
536.55	163.84
536.72	110.01
536.89	102.98
537.06	0.00
537.23	46.81
537.40	128.73
537.57	95.96
537.74	177.88
537.91	117.03
538.08	53.83
538.25	100.64
538.42	81.92
538.59	102.98
538.75	65.54
538.92	102.98
539.09	91.28
539.26	107.66
539.43	77.24
539.60	93.62
539.77	84.26
539.94	67.88
540.11	67.88
540.28	81.92
540.44	37.45
540.61	53.83
540.78	98.30
540.95	84.26
541.12	112.35
541.29	0.00
541.46	91.28
541.62	4.68
541.79	119.37
541.96	86.60
542.13	46.81
542.30	77.24
542.47	46.81
542.63	98.30
542.80	77.24
542.97	184.90
543.14	79.58
543.31	42.13
543.48	91.28
543.64	140.43
543.81	156.82
543.98	77.24
544.15	37.45
544.32	79.58
544.48	79.58
544.65	133.41
544.82	156.82
544.99	154.48
545.16	44.47
545.32	56.17
545.49	124.05
545.66	105.32
545.83	56.17
546.00	65.54
546.16	121.71
546.33	51.49
546.50	84.26
546.67	107.66
546.83	86.60
547.00	42.13
547.17	84.26
547.34	39.79
547.50	77.24
547.67	81.92
547.84	53.83
548.00	77.24
548.17	135.75
548.34	88.94
548.51	93.62
548.67	81.92
548.84	149.79
549.01	60.85
549.18	65.54
549.34	60.85
549.51	138.09
549.68	65.54
549.84	79.58
550.01	112.35
550.18	91.28
550.34	39.79
550.51	175.54
550.68	86.60
550.84	98.30
551.01	65.54
551.18	112.35
551.34	42.13
551.51	72.56
551.68	65.54
551.84	77.24
552.01	84.26
552.18	60.85
552.34	145.11
552.51	119.37
552.68	88.94
552.84	98.30
553.01	0.00
553.18	93.62
553.34	100.64
553.51	79.58
553.67	86.60
553.84	102.98
554.01	95.96
554.17	30.43
554.34	16.38
554.51	65.54
554.67	135.75
554.84	152.13
555.00	11.70
555.17	30.43
555.33	112.35
555.50	67.88
555.67	117.03
555.83	147.45
556.00	28.09
556.16	93.62
556.33	23.41
556.50	65.54
556.66	49.15
556.83	100.64
556.99	91.28
557.16	79.58
557.32	53.83
557.49	37.45
557.65	102.98
557.82	95.96
557.98	126.39
558.15	98.30
558.32	93.62
558.48	114.69
558.65	35.11
558.81	124.05
558.98	145.11
559.14	93.62
559.31	95.96
559.47	110.01
559.64	32.77
559.80	70.22
559.97	32.77
560.13	46.81
560.30	39.79
560.46	98.30
560.63	65.54
560.79	121.71
560.96	67.88
561.12	30.43
561.29	2.34
561.45	70.22
561.61	25.75
561.78	152.13
561.94	39.79
562.11	100.64
562.27	187.24
562.44	102.98
562.60	56.17
562.77	91.28
562.93	117.03
563.10	46.81
563.26	53.83
563.42	88.94
563.59	114.69
563.75	37.45
563.92	79.58
564.08	72.56
564.24	53.83
564.41	93.62
564.57	79.58
564.74	70.22
564.90	88.94
565.07	110.01
565.23	79.58
565.39	133.41
565.56	110.01
565.72	102.98
565.88	84.26
566.05	74.90
566.21	107.66
566.38	39.79
566.54	11.70
566.70	112.35
566.87	72.56
567.03	56.17
567.19	114.69
567.36	93.62
567.52	51.49
567.68	100.64
567.85	42.13
568.01	51.49
568.17	53.83
568.34	39.79
568.50	110.01
568.66	86.60
568.83	86.60
568.99	77.24
569.15	133.41
569.32	112.35
569.48	142.77
569.64	63.19
569.81	81.92
569.97	98.30
570.13	98.30
570.30	81.92
570.46	110.01
570.62	60.85
570.78	95.96
570.95	39.79
571.11	133.41
571.27	44.47
571.43	0.00
571.60	30.43
571.76	126.39
571.92	156.82
572.09	100.64
572.25	74.90
572.41	79.58
572.57	135.75
572.74	107.66
572.90	112.35
573.06	51.49
573.22	58.51
573.38	60.85
573.55	84.26
573.71	93.62
573.87	84.26
574.03	67.88
574.20	46.81
574.36	88.94
574.52	51.49
574.68	177.88
574.84	88.94
575.01	138.09
575.17	102.98
575.33	77.24
575.49	42.13
575.65	81.92
575.82	107.66
575.98	156.82
576.14	140.43
576.30	154.48
576.46	86.60
576.62	105.32
576.79	91.28
576.95	107.66
577.11	51.49
577.27	53.83
577.43	49.15
577.59	67.88
577.75	42.13
577.92	4.68
578.08	53.83
578.24	46.81
578.40	23.41
578.56	46.81
578.72	58.51
578.88	32.77
579.04	65.54
579.21	56.17
579.37	49.15
579.53	58.51
579.69	0.00
579.85	74.90
580.01	91.28
580.17	53.83
580.33	84.26
580.49	156.82
580.65	44.47
580.82	77.24
580.98	44.47
581.14	100.64
581.30	65.54
581.46	79.58
581.62	60.85
581.78	119.37
581.94	39.79
582.10	65.54
582.26	53.83
582.42	88.94
582.58	98.30
582.74	70.22
582.90	100.64
583.06	79.58
583.22	112.35
583.38	124.05
583.54	53.83
583.70	93.62
583.86	95.96
584.02	84.26
584.18	119.37
584.34	70.22
584.50	53.83
584.66	56.17
584.82	72.56
584.98	84.26
585.14	77.24
585.30	58.51
585.46	74.90
585.62	95.96
585.78	53.83
585.94	81.92
586.10	65.54
586.26	133.41
586.42	56.17
586.58	81.92
586.74	46.81
586.90	53.83
587.06	14.04
587.22	63.19
587.38	110.01
587.54	117.03
587.70	23.41
587.86	105.32
588.02	56.17
588.18	63.19
588.34	81.92
588.49	67.88
588.65	51.49
588.81	0.00
588.97	98.30
589.13	100.64
589.29	58.51
589.45	117.03
589.61	102.98
589.77	58.51
589.93	18.72
590.08	60.85
590.24	105.32
590.40	56.17
590.56	65.54
590.72	140.43
590.88	98.30
591.04	42.13
591.20	93.62
591.35	110.01
591.51	79.58
591.67	14.04
591.83	74.90
591.99	0.00
592.15	30.43
592.31	156.82
592.46	56.17
592.62	74.90
592.78	100.64
592.94	2.34
593.10	74.90
593.26	30.43
593.41	28.09
593.57	42.13
593.73	91.28
593.89	21.06
594.05	53.83
594.20	77.24
594.36	32.77
594.52	102.98
594.68	91.28
594.84	63.19
594.99	16.38
595.15	102.98
595.31	95.96
595.47	65.54
595.62	58.51
595.78	77.24
595.94	16.38
596.10	46.81
596.25	56.17
596.41	0.00
596.57	51.49
596.73	86.60
596.88	81.92
597.04	44.47
597.20	77.24
597.36	100.64
597.51	117.03
597.67	58.51
597.83	0.00
597.99	131.07
598.14	131.07
598.30	98.30
598.46	74.90
598.61	49.15
598.77	56.17
598.93	93.62
599.09	30.43
599.24	0.00
599.40	21.06
599.56	74.90
599.71	112.35
599.87	72.56
600.03	110.01
600.18	81.92
600.34	11.70
600.50	53.83
600.65	9.36
600.81	7.02
600.97	42.13
601.12	65.54
601.28	58.51
601.44	63.19
601.59	77.24
601.75	117.03
601.91	0.00
602.06	44.47
602.22	42.13
602.37	70.22
602.53	86.60
602.69	93.62
602.84	46.81
603.00	37.45
603.16	93.62
603.31	135.75
603.47	98.30
603.62	70.22
603.78	28.09
603.94	58.51
604.09	51.49
604.25	74.90
604.40	49.15
604.56	7.02
604.71	67.88
604.87	159.16
605.03	70.22
605.18	21.06
605.34	100.64
605.49	63.19
605.65	65.54
605.80	93.62
605.96	46.81
606.12	49.15
606.27	67.88
606.43	56.17
606.58	74.90
606.74	74.90
606.89	49.15
607.05	117.03
607.20	67.88
607.36	9.36
607.51	138.09
607.67	67.88
607.82	128.73
607.98	84.26
608.13	91.28
608.29	9.36
608.44	67.88
608.60	88.94
608.75	74.90
608.91	74.90
609.06	166.18
609.22	67.88
609.37	65.54
609.53	98.30
609.68	74.90
609.84	121.71
609.99	112.35
610.15	0.00
610.30	16.38
610.46	100.64
610.61	4.68
610.76	28.09
610.92	65.54
611.07	30.43
611.23	9.36
611.38	74.90
611.54	72.56
611.69	23.41
611.84	58.51
612.00	30.43
612.15	35.11
612.31	63.19
612.46	65.54
612.62	30.43
612.77	149.79
612.92	88.94
613.08	79.58
613.23	81.92
613.39	86.60
613.54	44.47
613.69	49.15
613.85	44.47
614.00	79.58
614.15	163.84
614.31	119.37
614.46	98.30
614.62	9.36
614.77	60.85
614.92	42.13
615.08	25.75
615.23	114.69
615.38	98.30
615.54	95.96
615.69	184.90
615.84	84.26
616.00	35.11
616.15	84.26
616.30	91.28
616.46	67.88
616.61	110.01
616.76	30.43
616.92	79.58
617.07	100.64
617.22	37.45
617.37	28.09
617.53	100.64
617.68	102.98
617.83	56.17
617.99	21.06
618.14	70.22
618.29	28.09
618.45	159.16
618.60	121.71
618.75	42.13
618.90	21.06
619.06	98.30
619.21	30.43
619.36	117.03
619.51	37.45
619.67	126.39
619.82	126.39
619.97	53.83
620.12	0.00
620.28	60.85
620.43	95.96
620.58	86.60
620.73	35.11
620.89	0.00
621.04	98.30
621.19	91.28
621.34	128.73
621.49	100.64
621.65	102.98
621.80	86.60
621.95	98.30
622.10	42.13
622.25	53.83
622.41	107.66
622.56	16.38
622.71	114.69
622.86	77.24
623.01	70.22
623.16	161.50
623.32	98.30
623.47	0.00
623.62	49.15
623.77	72.56
623.92	42.13
624.07	65.54
624.23	159.16
624.38	23.41
624.53	86.60
624.68	126.39
624.83	63.19
624.98	95.96
625.13	84.26
625.29	91.28
625.44	39.79
625.59	0.00
625.74	32.77
625.89	56.17
626.04	74.90
626.19	42.13
626.34	0.00
626.49	60.85
626.65	44.47
626.80	42.13
626.95	100.64
627.10	98.30
627.25	14.04
627.40	46.81
627.55	84.26
627.70	74.90
627.85	65.54
628.00	93.62
628.15	117.03
628.30	58.51
628.45	28.09
628.60	28.09
628.76	93.62
628.91	37.45
629.06	25.75
629.21	102.98
629.36	74.90
629.51	30.43
629.66	49.15
629.81	100.64
629.96	30.43
630.11	67.88
630.26	25.75
630.41	39.79
630.56	30.43
630.71	105.32
630.86	84.26
631.01	81.92
631.16	100.64
631.31	30.43
631.46	72.56
631.61	25.75
631.76	60.85
631.91	18.72
632.06	86.60
632.21	60.85
632.36	91.28
632.51	102.98
632.66	56.17
632.81	28.09
632.96	79.58
633.10	63.19
633.25	70.22
633.40	60.85
633.55	53.83
633.70	42.13
633.85	4.68
634.00	0.00
634.15	32.77
634.30	25.75
634.45	77.24
634.60	53.83
634.75	98.30
634.90	65.54
635.05	32.77
635.19	18.72
635.34	105.32
635.49	30.43
635.64	93.62
635.79	23.41
635.94	86.60
636.09	140.43
636.24	42.13
636.39	74.90
636.53	28.09
636.68	100.64
636.83	0.00
636.98	98.30
637.13	37.45
637.28	65.54
637.43	42.13
637.57	91.28
637.72	21.06
637.87	9.36
638.02	11.70
638.17	79.58
638.32	35.11
638.46	93.62
638.61	79.58
638.76	86.60
638.91	46.81
639.06	28.09
639.20	46.81
639.35	91.28
639.50	84.26
639.65	51.49
639.80	7.02
639.94	46.81
640.09	72.56
640.24	70.22
640.39	23.41
640.54	56.17
640.68	44.47
640.83	70.22
640.98	84.26
641.13	7.02
641.27	74.90
641.42	53.83
641.57	35.11
641.72	128.73
641.86	81.92
642.01	35.11
642.16	88.94
642.31	44.47
642.45	65.54
642.60	51.49
642.75	0.00
642.90	107.66
643.04	30.43
643.19	100.64
643.34	0.00
643.48	0.00
643.63	28.09
643.78	86.60
643.93	100.64
644.07	32.77
644.22	56.17
644.37	49.15
644.51	74.90
644.66	0.00
644.81	0.00
644.95	28.09
645.10	46.81
645.25	86.60
645.39	51.49
645.54	32.77
645.69	128.73
645.83	46.81
645.98	84.26
646.13	37.45
646.27	67.88
646.42	32.77
646.57	79.58
646.71	49.15
646.86	46.81
647.00	35.11
647.15	88.94
647.30	70.22
647.44	95.96
647.59	30.43
647.74	14.04
647.88	51.49
648.03	32.77
648.17	0.00
648.32	23.41
648.47	81.92
648.61	0.00
648.76	77.24
648.90	63.19
649.05	72.56
649.20	95.96
649.34	65.54
649.49	21.06
649.63	79.58
649.78	39.79
649.92	42.13
650.07	46.81
650.21	7.02
650.36	46.81
650.51	35.11
650.65	42.13
650.80	67.88
650.94	72.56
651.09	72.56
651.23	93.62
651.38	60.85
651.52	112.35
651.67	81.92
651.81	58.51
651.96	77.24
652.10	119.37
652.25	70.22
652.39	0.00
652.54	63.19
652.68	65.54
652.83	37.45
652.97	65.54
653.12	23.41
653.26	95.96
653.41	88.94
653.55	18.72
653.70	77.24
653.84	14.04
653.99	18.72
654.13	72.56
654.27	23.41
654.42	16.38
654.56	18.72
654.71	32.77
654.85	7.02
655.00	0.00
655.14	18.72
655.29	46.81
655.43	39.79
655.57	56.17
655.72	147.45
655.86	11.70
656.01	42.13
656.15	14.04
656.30	35.11
656.44	72.56
656.58	35.11
656.73	100.64
656.87	11.70
657.01	16.38
657.16	95.96
657.30	16.38
657.45	16.38
657.59	7.02
657.73	72.56
657.88	93.62
658.02	7.02
658.16	72.56
658.31	25.75
658.45	53.83
658.60	74.90
658.74	107.66
658.88	0.00
659.03	60.85
659.17	0.00
659.31	88.94
659.46	18.72
659.60	23.41
659.74	86.60
659.89	86.60
660.03	46.81
660.17	86.60
660.32	0.00
660.46	77.24
660.60	25.75
660.74	86.60
660.89	37.45
661.03	124.05
661.17	30.43
661.32	4.68
661.46	124.05
661.60	23.41
661.74	28.09
661.89	72.56
662.03	0.00
662.17	0.00
662.31	30.43
662.46	105.32
662.60	93.62
662.74	25.75
662.88	84.26
663.03	86.60
663.17	35.11
663.31	74.90
663.45	65.54
663.60	72.56
663.74	65.54
663.88	39.79
664.02	140.43
664.17	119.37
664.31	51.49
664.45	49.15
664.59	63.19
664.73	51.49
664.88	0.00
665.02	156.82
665.16	39.79
665.30	93.62
665.44	84.26
665.59	117.03
665.73	56.17
665.87	11.70
666.01	84.26
666.15	49.15
666.29	35.11
666.44	53.83
666.58	72.56
666.72	117.03
666.86	23.41
667.00	86.60
667.14	0.00
667.28	0.00
667.43	84.26
667.57	44.47
667.71	114.69
667.85	100.64
667.99	56.17
668.13	0.00
668.27	72.56
668.41	28.09
668.56	117.03
668.70	105.32
668.84	37.45
668.98	30.43
669.12	84.26
669.26	77.24
669.40	58.51
669.54	35.11
669.68	42.13
669.82	42.13
669.96	21.06
670.10	25.75
670.25	126.39
670.39	77.24
670.53	67.88
670.67	53.83
670.81	70.22
670.95	93.62
671.09	0.00
671.23	72.56
671.37	126.39
671.51	81.92
671.65	79.58
671.79	65.54
671.93	25.75
672.07	63.19
672.21	81.92
672.35	95.96
672.49	91.28
672.63	145.11
672.77	53.83
672.91	0.00
673.05	74.90
673.19	44.47
673.33	63.19
673.47	65.54
673.61	91.28
673.75	42.13
673.89	56.17
674.03	95.96
674.17	53.83
674.31	58.51
674.45	49.15
674.59	32.77
674.73	53.83
674.87	11.70
675.01	65.54
675.15	44.47
675.29	58.51
675.43	0.00
675.56	72.56
675.70	138.09
675.84	121.71
675.98	95.96
676.12	74.90
676.26	93.62
676.40	2.34
676.54	56.17
676.68	7.02
676.82	56.17
676.96	53.83
677.10	110.01
677.23	11.70
677.37	0.00
677.51	23.41
677.65	63.19
677.79	102.98
677.93	30.43
678.07	60.85
678.21	23.41
678.34	44.47
678.48	79.58
678.62	77.24
678.76	28.09
678.90	67.88
679.04	37.45
679.18	14.04
679.31	0.00
679.45	11.70
679.59	0.00
679.73	46.81
679.87	77.24
680.00	77.24
680.14	4.68
680.28	63.19
680.42	0.00
680.56	39.79
680.70	58.51
680.83	53.83
680.97	60.85
681.11	63.19
681.25	11.70
681.39	53.83
681.52	21.06
681.66	93.62
681.80	100.64
681.94	0.00
682.07	93.62
682.21	98.30
682.35	14.04
682.49	37.45
682.62	65.54
682.76	46.81
682.90	0.00
683.04	14.04
683.17	11.70
683.31	88.94
683.45	0.00
683.59	93.62
683.72	0.00
683.86	37.45
684.00	63.19
684.13	0.00
684.27	65.54
684.41	65.54
684.55	65.54
684.68	0.00
684.82	53.83
684.96	91.28
685.09	60.85
685.23	44.47
685.37	67.88
685.50	81.92
685.64	56.17
685.78	39.79
685.91	91.28
686.05	14.04
686.19	0.00
686.32	16.38
686.46	67.88
686.60	65.54
686.73	65.54
686.87	124.05
687.01	30.43
687.14	39.79
687.28	70.22
687.42	53.83
687.55	81.92
687.69	35.11
687.82	65.54
687.96	65.54
688.10	18.72
688.23	86.60
688.37	46.81
688.50	16.38
688.64	28.09
688.78	35.11
688.91	0.00
689.05	56.17
689.18	70.22
689.32	65.54
689.46	77.24
689.59	77.24
689.73	30.43
689.86	86.60
690.00	30.43
690.13	7.02
690.27	67.88
690.41	23.41
690.54	49.15
690.68	21.06
690.81	46.81
690.95	46.81
691.08	74.90
691.22	0.00
691.35	0.00
691.49	56.17
691.62	93.62
691.76	70.22
691.89	63.19
692.03	0.00
692.16	74.90
692.30	91.28
692.43	35.11
692.57	35.11
692.70	65.54
692.84	72.56
692.97	23.41
693.11	0.00
693.24	42.13
693.38	35.11
693.51	56.17
693.65	63.19
693.78	51.49
693.92	84.26
694.05	60.85
694.19	114.69
694.32	14.04
694.45	0.00
694.59	23.41
694.72	60.85
694.86	14.04
694.99	0.00
695.13	35.11
695.26	79.58
695.39	81.92
695.53	0.00
695.66	9.36
695.80	0.00
695.93	84.26
696.07	42.13
696.20	46.81
696.33	11.70
696.47	25.75
696.60	49.15
696.73	42.13
696.87	18.72
697.00	18.72
697.14	53.83
697.27	0.00
697.40	21.06
697.54	21.06
697.67	67.88
697.80	56.17
697.94	0.00
698.07	14.04
698.21	18.72
698.34	105.32
698.47	21.06
698.61	39.79
698.74	67.88
698.87	4.68
699.01	9.36
699.14	42.13
699.27	44.47
699.40	30.43
699.54	56.17
699.67	0.00
699.80	42.13
699.94	56.17
700.07	37.45
700.20	28.09
700.34	35.11
700.47	4.68
700.60	65.54
700.73	0.00
700.87	0.00
701.00	16.38
701.13	9.36
701.26	21.06
701.40	124.05
701.53	23.41
701.66	0.00
701.79	0.00
701.93	30.43
702.06	100.64
702.19	44.47
702.32	74.90
702.46	79.58
702.59	0.00
702.72	74.90
702.85	0.00
702.99	58.51
703.12	0.00
703.25	28.09
703.38	16.38
703.51	9.36
703.65	0.00
703.78	37.45
703.91	56.17
704.04	0.00
704.17	67.88
704.31	21.06
704.44	0.00
704.57	25.75
704.70	0.00
704.83	51.49
704.96	35.11
705.10	65.54
705.23	32.77
>>>>>End Processed Spectral Data<<<<<
