SpectraSuite Data File
++++++++++++++++++++++++++++++++++++
Date: Fri Oct 04 12:13:40 GMT-05:00 2013
User: price-jones
Dark Spectrum Present: No
Reference Spectrum Present: No
Number of Sampled Component Spectra: 1
Spectrometers: USB2+H05261
Integration Time (usec): 10000 (USB2+H05261)
Spectra Averaged: 1 (USB2+H05261)
Boxcar Smoothing: 0 (USB2+H05261)
Correct for Electrical Dark: No (USB2+H05261)
Strobe/Lamp Enabled: No (USB2+H05261)
Correct for Detector Non-linearity: No (USB2+H05261)
Correct for Stray Light: No (USB2+H05261)
Number of Pixels in Processed Spectrum: 2048
>>>>>Begin Processed Spectral Data<<<<<
365.73	60.85
365.92	60.85
366.12	60.85
366.32	0.00
366.52	0.00
366.72	0.00
366.91	0.00
367.11	0.00
367.31	0.00
367.51	0.00
367.70	0.00
367.90	0.00
368.10	0.00
368.30	0.00
368.49	0.00
368.69	0.00
368.89	0.00
369.09	0.00
369.28	0.00
369.48	0.00
369.68	0.00
369.87	0.00
370.07	0.00
370.27	0.00
370.47	0.00
370.66	0.00
370.86	0.00
371.06	0.00
371.25	0.00
371.45	9.36
371.65	0.00
371.84	0.00
372.04	32.77
372.24	0.00
372.44	0.00
372.63	0.00
372.83	0.00
373.03	35.11
373.22	79.58
373.42	49.15
373.62	30.43
373.81	35.11
374.01	51.49
374.21	84.26
374.40	16.38
374.60	60.85
374.79	0.00
374.99	56.17
375.19	44.47
375.38	0.00
375.58	0.00
375.78	39.79
375.97	44.47
376.17	51.49
376.37	0.00
376.56	9.36
376.76	56.17
376.95	14.04
377.15	93.62
377.35	65.54
377.54	37.45
377.74	91.28
377.93	72.56
378.13	0.00
378.33	21.06
378.52	0.00
378.72	35.11
378.91	53.83
379.11	60.85
379.31	0.00
379.50	0.00
379.70	9.36
379.89	0.00
380.09	4.68
380.28	0.00
380.48	98.30
380.68	60.85
380.87	49.15
381.07	2.34
381.26	42.13
381.46	124.05
381.65	0.00
381.85	9.36
382.04	0.00
382.24	28.09
382.43	37.45
382.63	16.38
382.83	14.04
383.02	0.00
383.22	0.00
383.41	0.00
383.61	9.36
383.80	0.00
384.00	56.17
384.19	14.04
384.39	30.43
384.58	58.51
384.78	23.41
384.97	25.75
385.17	28.09
385.36	28.09
385.56	74.90
385.75	37.45
385.95	0.00
386.14	39.79
386.34	0.00
386.53	88.94
386.72	86.60
386.92	16.38
387.11	30.43
387.31	14.04
387.50	9.36
387.70	44.47
387.89	4.68
388.09	79.58
388.28	51.49
388.48	60.85
388.67	37.45
388.86	86.60
389.06	0.00
389.25	56.17
389.45	7.02
389.64	37.45
389.84	11.70
390.03	25.75
390.22	37.45
390.42	53.83
390.61	21.06
390.81	16.38
391.00	77.24
391.19	18.72
391.39	2.34
391.58	9.36
391.78	28.09
391.97	18.72
392.16	16.38
392.36	81.92
392.55	0.00
392.75	35.11
392.94	0.00
393.13	0.00
393.33	0.00
393.52	46.81
393.71	49.15
393.91	32.77
394.10	81.92
394.29	86.60
394.49	95.96
394.68	0.00
394.88	49.15
395.07	35.11
395.26	25.75
395.46	42.13
395.65	0.00
395.84	49.15
396.04	11.70
396.23	56.17
396.42	39.79
396.62	2.34
396.81	95.96
397.00	56.17
397.19	21.06
397.39	42.13
397.58	0.00
397.77	4.68
397.97	72.56
398.16	0.00
398.35	35.11
398.55	44.47
398.74	18.72
398.93	0.00
399.12	93.62
399.32	110.01
399.51	7.02
399.70	14.04
399.90	51.49
400.09	0.00
400.28	14.04
400.47	46.81
400.67	42.13
400.86	60.85
401.05	67.88
401.24	0.00
401.44	0.00
401.63	16.38
401.82	37.45
402.01	98.30
402.21	35.11
402.40	0.00
402.59	0.00
402.78	44.47
402.97	60.85
403.17	74.90
403.36	21.06
403.55	0.00
403.74	67.88
403.93	0.00
404.13	65.54
404.32	14.04
404.51	18.72
404.70	14.04
404.89	0.00
405.09	0.00
405.28	88.94
405.47	16.38
405.66	42.13
405.85	39.79
406.05	35.11
406.24	2.34
406.43	0.00
406.62	0.00
406.81	65.54
407.00	79.58
407.20	74.90
407.39	56.17
407.58	0.00
407.77	30.43
407.96	23.41
408.15	28.09
408.34	28.09
408.54	0.00
408.73	56.17
408.92	42.13
409.11	9.36
409.30	0.00
409.49	0.00
409.68	35.11
409.87	51.49
410.07	49.15
410.26	0.00
410.45	0.00
410.64	4.68
410.83	86.60
411.02	9.36
411.21	72.56
411.40	42.13
411.59	0.00
411.78	4.68
411.98	81.92
412.17	42.13
412.36	42.13
412.55	74.90
412.74	0.00
412.93	21.06
413.12	84.26
413.31	42.13
413.50	51.49
413.69	102.98
413.88	58.51
414.07	63.19
414.26	74.90
414.45	7.02
414.64	0.00
414.83	42.13
415.02	11.70
415.22	60.85
415.41	14.04
415.60	0.00
415.79	79.58
415.98	37.45
416.17	49.15
416.36	95.96
416.55	39.79
416.74	0.00
416.93	23.41
417.12	79.58
417.31	30.43
417.50	86.60
417.69	0.00
417.88	21.06
418.07	79.58
418.26	37.45
418.45	56.17
418.64	72.56
418.83	77.24
419.02	51.49
419.21	0.00
419.39	70.22
419.58	138.09
419.77	72.56
419.96	79.58
420.15	0.00
420.34	84.26
420.53	44.47
420.72	30.43
420.91	35.11
421.10	79.58
421.29	14.04
421.48	91.28
421.67	51.49
421.86	11.70
422.05	0.00
422.24	28.09
422.43	18.72
422.61	7.02
422.80	37.45
422.99	86.60
423.18	37.45
423.37	65.54
423.56	114.69
423.75	0.00
423.94	0.00
424.13	32.77
424.32	32.77
424.50	49.15
424.69	0.00
424.88	0.00
425.07	32.77
425.26	4.68
425.45	0.00
425.64	0.00
425.83	0.00
426.01	65.54
426.20	37.45
426.39	37.45
426.58	44.47
426.77	9.36
426.96	0.00
427.15	7.02
427.33	44.47
427.52	0.00
427.71	0.00
427.90	18.72
428.09	11.70
428.28	16.38
428.46	9.36
428.65	140.43
428.84	84.26
429.03	35.11
429.22	30.43
429.40	14.04
429.59	42.13
429.78	60.85
429.97	0.00
430.16	58.51
430.34	95.96
430.53	37.45
430.72	35.11
430.91	93.62
431.10	58.51
431.28	84.26
431.47	14.04
431.66	23.41
431.85	23.41
432.03	100.64
432.22	25.75
432.41	21.06
432.60	35.11
432.79	0.00
432.97	0.00
433.16	30.43
433.35	60.85
433.54	67.88
433.72	86.60
433.91	110.01
434.10	18.72
434.28	30.43
434.47	32.77
434.66	49.15
434.85	16.38
435.03	77.24
435.22	74.90
435.41	98.30
435.59	21.06
435.78	49.15
435.97	81.92
436.16	0.00
436.34	86.60
436.53	16.38
436.72	0.00
436.90	117.03
437.09	44.47
437.28	98.30
437.46	74.90
437.65	28.09
437.84	39.79
438.02	77.24
438.21	21.06
438.40	28.09
438.58	23.41
438.77	72.56
438.96	0.00
439.14	37.45
439.33	67.88
439.52	65.54
439.70	51.49
439.89	35.11
440.08	18.72
440.26	65.54
440.45	35.11
440.63	37.45
440.82	39.79
441.01	44.47
441.19	60.85
441.38	95.96
441.57	140.43
441.75	32.77
441.94	88.94
442.12	67.88
442.31	67.88
442.50	0.00
442.68	63.19
442.87	11.70
443.05	86.60
443.24	70.22
443.43	32.77
443.61	98.30
443.80	53.83
443.98	28.09
444.17	65.54
444.35	11.70
444.54	72.56
444.73	63.19
444.91	32.77
445.10	70.22
445.28	56.17
445.47	100.64
445.65	37.45
445.84	74.90
446.02	0.00
446.21	88.94
446.39	46.81
446.58	65.54
446.77	121.71
446.95	77.24
447.14	107.66
447.32	60.85
447.51	4.68
447.69	9.36
447.88	70.22
448.06	65.54
448.25	107.66
448.43	0.00
448.62	25.75
448.80	37.45
448.99	79.58
449.17	51.49
449.36	14.04
449.54	0.00
449.73	70.22
449.91	37.45
450.10	95.96
450.28	28.09
450.46	51.49
450.65	44.47
450.83	18.72
451.02	67.88
451.20	4.68
451.39	18.72
451.57	37.45
451.76	23.41
451.94	0.00
452.13	32.77
452.31	53.83
452.49	39.79
452.68	81.92
452.86	63.19
453.05	72.56
453.23	9.36
453.42	25.75
453.60	60.85
453.78	0.00
453.97	23.41
454.15	0.00
454.34	128.73
454.52	63.19
454.70	44.47
454.89	0.00
455.07	39.79
455.26	0.00
455.44	0.00
455.62	23.41
455.81	25.75
455.99	37.45
456.17	44.47
456.36	44.47
456.54	51.49
456.73	0.00
456.91	35.11
457.09	63.19
457.28	67.88
457.46	79.58
457.64	49.15
457.83	28.09
458.01	44.47
458.19	74.90
458.38	16.38
458.56	58.51
458.74	7.02
458.93	79.58
459.11	11.70
459.29	67.88
459.48	77.24
459.66	0.00
459.84	11.70
460.03	67.88
460.21	11.70
460.39	46.81
460.57	72.56
460.76	63.19
460.94	86.60
461.12	44.47
461.31	30.43
461.49	67.88
461.67	21.06
461.85	0.00
462.04	102.98
462.22	149.79
462.40	28.09
462.59	126.39
462.77	86.60
462.95	4.68
463.13	56.17
463.32	81.92
463.50	72.56
463.68	60.85
463.86	46.81
464.05	11.70
464.23	95.96
464.41	23.41
464.59	0.00
464.78	112.35
464.96	44.47
465.14	21.06
465.32	51.49
465.50	67.88
465.69	0.00
465.87	58.51
466.05	60.85
466.23	30.43
466.41	53.83
466.60	0.00
466.78	140.43
466.96	102.98
467.14	86.60
467.32	124.05
467.51	51.49
467.69	42.13
467.87	102.98
468.05	2.34
468.23	98.30
468.41	117.03
468.60	86.60
468.78	79.58
468.96	46.81
469.14	67.88
469.32	51.49
469.50	51.49
469.69	95.96
469.87	58.51
470.05	84.26
470.23	60.85
470.41	112.35
470.59	25.75
470.77	70.22
470.95	56.17
471.14	56.17
471.32	77.24
471.50	95.96
471.68	100.64
471.86	63.19
472.04	46.81
472.22	72.56
472.40	67.88
472.58	63.19
472.77	30.43
472.95	18.72
473.13	119.37
473.31	121.71
473.49	60.85
473.67	91.28
473.85	65.54
474.03	95.96
474.21	2.34
474.39	91.28
474.57	86.60
474.75	35.11
474.93	91.28
475.12	60.85
475.30	23.41
475.48	11.70
475.66	98.30
475.84	72.56
476.02	51.49
476.20	79.58
476.38	35.11
476.56	56.17
476.74	0.00
476.92	35.11
477.10	32.77
477.28	79.58
477.46	65.54
477.64	98.30
477.82	77.24
478.00	32.77
478.18	4.68
478.36	39.79
478.54	25.75
478.72	21.06
478.90	84.26
479.08	133.41
479.26	35.11
479.44	0.00
479.62	131.07
479.80	58.51
479.98	9.36
480.16	98.30
480.34	77.24
480.52	9.36
480.70	86.60
480.88	117.03
481.06	25.75
481.24	72.56
481.41	0.00
481.59	51.49
481.77	72.56
481.95	7.02
482.13	58.51
482.31	93.62
482.49	65.54
482.67	44.47
482.85	0.00
483.03	53.83
483.21	91.28
483.39	86.60
483.57	95.96
483.74	74.90
483.92	51.49
484.10	58.51
484.28	84.26
484.46	107.66
484.64	86.60
484.82	46.81
485.00	91.28
485.18	11.70
485.35	77.24
485.53	53.83
485.71	42.13
485.89	117.03
486.07	67.88
486.25	124.05
486.43	49.15
486.61	72.56
486.78	74.90
486.96	51.49
487.14	72.56
487.32	114.69
487.50	0.00
487.68	72.56
487.85	98.30
488.03	93.62
488.21	98.30
488.39	67.88
488.57	53.83
488.75	77.24
488.92	93.62
489.10	88.94
489.28	4.68
489.46	14.04
489.64	37.45
489.81	30.43
489.99	135.75
490.17	112.35
490.35	79.58
490.53	21.06
490.70	70.22
490.88	117.03
491.06	81.92
491.24	124.05
491.41	112.35
491.59	11.70
491.77	7.02
491.95	42.13
492.13	51.49
492.30	95.96
492.48	58.51
492.66	170.86
492.84	107.66
493.01	32.77
493.19	128.73
493.37	88.94
493.54	65.54
493.72	112.35
493.90	126.39
494.08	60.85
494.25	49.15
494.43	121.71
494.61	88.94
494.79	37.45
494.96	91.28
495.14	91.28
495.32	39.79
495.49	65.54
495.67	88.94
495.85	79.58
496.02	67.88
496.20	63.19
496.38	65.54
496.55	95.96
496.73	21.06
496.91	88.94
497.09	53.83
497.26	107.66
497.44	72.56
497.62	140.43
497.79	60.85
497.97	135.75
498.14	88.94
498.32	28.09
498.50	72.56
498.67	39.79
498.85	39.79
499.03	112.35
499.20	30.43
499.38	70.22
499.56	100.64
499.73	70.22
499.91	70.22
500.08	39.79
500.26	42.13
500.44	79.58
500.61	63.19
500.79	95.96
500.97	79.58
501.14	110.01
501.32	93.62
501.49	95.96
501.67	112.35
501.84	77.24
502.02	114.69
502.20	100.64
502.37	98.30
502.55	86.60
502.72	56.17
502.90	79.58
503.07	100.64
503.25	88.94
503.43	30.43
503.60	44.47
503.78	140.43
503.95	91.28
504.13	102.98
504.30	86.60
504.48	72.56
504.65	46.81
504.83	23.41
505.01	105.32
505.18	44.47
505.36	98.30
505.53	58.51
505.71	138.09
505.88	60.85
506.06	110.01
506.23	0.00
506.41	30.43
506.58	135.75
506.76	112.35
506.93	65.54
507.11	44.47
507.28	0.00
507.46	65.54
507.63	93.62
507.81	119.37
507.98	42.13
508.16	145.11
508.33	46.81
508.50	79.58
508.68	110.01
508.85	58.51
509.03	152.13
509.20	119.37
509.38	133.41
509.55	140.43
509.73	35.11
509.90	86.60
510.08	42.13
510.25	86.60
510.42	149.79
510.60	149.79
510.77	79.58
510.95	79.58
511.12	65.54
511.30	117.03
511.47	95.96
511.64	114.69
511.82	107.66
511.99	117.03
512.17	102.98
512.34	81.92
512.51	86.60
512.69	138.09
512.86	84.26
513.04	100.64
513.21	140.43
513.38	142.77
513.56	21.06
513.73	39.79
513.90	74.90
514.08	39.79
514.25	88.94
514.43	147.45
514.60	110.01
514.77	86.60
514.95	67.88
515.12	77.24
515.29	112.35
515.47	119.37
515.64	98.30
515.81	126.39
515.99	74.90
516.16	9.36
516.33	56.17
516.51	107.66
516.68	44.47
516.85	93.62
517.03	37.45
517.20	49.15
517.37	65.54
517.54	72.56
517.72	117.03
517.89	65.54
518.06	117.03
518.24	32.77
518.41	100.64
518.58	98.30
518.75	74.90
518.93	93.62
519.10	37.45
519.27	16.38
519.45	58.51
519.62	70.22
519.79	30.43
519.96	16.38
520.14	77.24
520.31	98.30
520.48	95.96
520.65	63.19
520.83	58.51
521.00	67.88
521.17	86.60
521.34	105.32
521.52	79.58
521.69	72.56
521.86	49.15
522.03	135.75
522.20	67.88
522.38	42.13
522.55	95.96
522.72	77.24
522.89	67.88
523.07	72.56
523.24	28.09
523.41	102.98
523.58	63.19
523.75	67.88
523.92	49.15
524.10	4.68
524.27	84.26
524.44	88.94
524.61	166.18
524.78	107.66
524.96	14.04
525.13	63.19
525.30	121.71
525.47	119.37
525.64	88.94
525.81	30.43
525.98	56.17
526.16	37.45
526.33	105.32
526.50	112.35
526.67	51.49
526.84	112.35
527.01	102.98
527.18	60.85
527.36	44.47
527.53	93.62
527.70	100.64
527.87	51.49
528.04	128.73
528.21	53.83
528.38	37.45
528.55	63.19
528.72	77.24
528.89	58.51
529.07	93.62
529.24	37.45
529.41	105.32
529.58	51.49
529.75	70.22
529.92	56.17
530.09	124.05
530.26	170.86
530.43	93.62
530.60	77.24
530.77	25.75
530.94	81.92
531.11	32.77
531.28	100.64
531.46	110.01
531.63	58.51
531.80	16.38
531.97	79.58
532.14	0.00
532.31	84.26
532.48	88.94
532.65	112.35
532.82	98.30
532.99	95.96
533.16	35.11
533.33	65.54
533.50	65.54
533.67	51.49
533.84	65.54
534.01	107.66
534.18	152.13
534.35	117.03
534.52	91.28
534.69	70.22
534.86	107.66
535.03	117.03
535.20	77.24
535.37	84.26
535.54	67.88
535.71	91.28
535.88	95.96
536.05	72.56
536.22	42.13
536.38	72.56
536.55	58.51
536.72	93.62
536.89	117.03
537.06	72.56
537.23	107.66
537.40	105.32
537.57	84.26
537.74	51.49
537.91	44.47
538.08	84.26
538.25	117.03
538.42	98.30
538.59	70.22
538.75	53.83
538.92	81.92
539.09	60.85
539.26	98.30
539.43	100.64
539.60	46.81
539.77	65.54
539.94	93.62
540.11	42.13
540.28	65.54
540.44	86.60
540.61	23.41
540.78	107.66
540.95	81.92
541.12	77.24
541.29	124.05
541.46	74.90
541.62	63.19
541.79	51.49
541.96	77.24
542.13	128.73
542.30	86.60
542.47	138.09
542.63	70.22
542.80	91.28
542.97	53.83
543.14	119.37
543.31	105.32
543.48	74.90
543.64	79.58
543.81	107.66
543.98	49.15
544.15	70.22
544.32	124.05
544.48	56.17
544.65	63.19
544.82	107.66
544.99	126.39
545.16	112.35
545.32	53.83
545.49	74.90
545.66	0.00
545.83	65.54
546.00	14.04
546.16	110.01
546.33	88.94
546.50	60.85
546.67	93.62
546.83	51.49
547.00	58.51
547.17	119.37
547.34	70.22
547.50	95.96
547.67	105.32
547.84	93.62
548.00	28.09
548.17	72.56
548.34	65.54
548.51	135.75
548.67	128.73
548.84	51.49
549.01	95.96
549.18	88.94
549.34	49.15
549.51	51.49
549.68	110.01
549.84	79.58
550.01	79.58
550.18	88.94
550.34	128.73
550.51	105.32
550.68	37.45
550.84	121.71
551.01	161.50
551.18	95.96
551.34	105.32
551.51	93.62
551.68	159.16
551.84	102.98
552.01	53.83
552.18	56.17
552.34	79.58
552.51	100.64
552.68	110.01
552.84	154.48
553.01	161.50
553.18	56.17
553.34	88.94
553.51	72.56
553.67	23.41
553.84	0.00
554.01	72.56
554.17	98.30
554.34	30.43
554.51	42.13
554.67	135.75
554.84	133.41
555.00	53.83
555.17	131.07
555.33	117.03
555.50	110.01
555.67	84.26
555.83	39.79
556.00	46.81
556.16	44.47
556.33	112.35
556.50	107.66
556.66	110.01
556.83	74.90
556.99	25.75
557.16	0.00
557.32	39.79
557.49	121.71
557.65	37.45
557.82	44.47
557.98	42.13
558.15	77.24
558.32	142.77
558.48	147.45
558.65	88.94
558.81	28.09
558.98	79.58
559.14	107.66
559.31	93.62
559.47	32.77
559.64	128.73
559.80	131.07
559.97	49.15
560.13	98.30
560.30	81.92
560.46	81.92
560.63	95.96
560.79	142.77
560.96	72.56
561.12	100.64
561.29	23.41
561.45	44.47
561.61	140.43
561.78	119.37
561.94	42.13
562.11	72.56
562.27	126.39
562.44	107.66
562.60	117.03
562.77	86.60
562.93	74.90
563.10	102.98
563.26	88.94
563.42	44.47
563.59	46.81
563.75	156.82
563.92	91.28
564.08	14.04
564.24	112.35
564.41	128.73
564.57	32.77
564.74	63.19
564.90	53.83
565.07	93.62
565.23	65.54
565.39	145.11
565.56	131.07
565.72	102.98
565.88	72.56
566.05	53.83
566.21	32.77
566.38	79.58
566.54	163.84
566.70	51.49
566.87	65.54
567.03	32.77
567.19	117.03
567.36	84.26
567.52	72.56
567.68	154.48
567.85	95.96
568.01	133.41
568.17	107.66
568.34	53.83
568.50	72.56
568.66	91.28
568.83	128.73
568.99	81.92
569.15	86.60
569.32	23.41
569.48	86.60
569.64	79.58
569.81	37.45
569.97	121.71
570.13	65.54
570.30	91.28
570.46	102.98
570.62	72.56
570.78	77.24
570.95	107.66
571.11	131.07
571.27	86.60
571.43	105.32
571.60	77.24
571.76	88.94
571.92	88.94
572.09	56.17
572.25	107.66
572.41	86.60
572.57	105.32
572.74	37.45
572.90	37.45
573.06	124.05
573.22	140.43
573.38	65.54
573.55	107.66
573.71	84.26
573.87	91.28
574.03	84.26
574.20	67.88
574.36	60.85
574.52	79.58
574.68	117.03
574.84	145.11
575.01	117.03
575.17	51.49
575.33	42.13
575.49	117.03
575.65	77.24
575.82	70.22
575.98	98.30
576.14	58.51
576.30	63.19
576.46	37.45
576.62	128.73
576.79	114.69
576.95	51.49
577.11	81.92
577.27	25.75
577.43	65.54
577.59	93.62
577.75	107.66
577.92	35.11
578.08	81.92
578.24	79.58
578.40	44.47
578.56	23.41
578.72	117.03
578.88	114.69
579.04	126.39
579.21	72.56
579.37	86.60
579.53	98.30
579.69	65.54
579.85	65.54
580.01	14.04
580.17	65.54
580.33	53.83
580.49	39.79
580.65	131.07
580.82	88.94
580.98	88.94
581.14	21.06
581.30	124.05
581.46	56.17
581.62	21.06
581.78	138.09
581.94	60.85
582.10	46.81
582.26	65.54
582.42	56.17
582.58	28.09
582.74	117.03
582.90	51.49
583.06	46.81
583.22	98.30
583.38	32.77
583.54	42.13
583.70	53.83
583.86	98.30
584.02	65.54
584.18	95.96
584.34	142.77
584.50	18.72
584.66	74.90
584.82	110.01
584.98	74.90
585.14	25.75
585.30	107.66
585.46	105.32
585.62	37.45
585.78	30.43
585.94	39.79
586.10	110.01
586.26	23.41
586.42	35.11
586.58	100.64
586.74	102.98
586.90	60.85
587.06	110.01
587.22	145.11
587.38	60.85
587.54	86.60
587.70	11.70
587.86	119.37
588.02	131.07
588.18	49.15
588.34	39.79
588.49	67.88
588.65	72.56
588.81	79.58
588.97	2.34
589.13	77.24
589.29	98.30
589.45	93.62
589.61	72.56
589.77	11.70
589.93	74.90
590.08	49.15
590.24	121.71
590.40	88.94
590.56	65.54
590.72	53.83
590.88	39.79
591.04	42.13
591.20	77.24
591.35	81.92
591.51	65.54
591.67	58.51
591.83	44.47
591.99	44.47
592.15	110.01
592.31	42.13
592.46	67.88
592.62	51.49
592.78	74.90
592.94	44.47
593.10	23.41
593.26	100.64
593.41	58.51
593.57	56.17
593.73	51.49
593.89	88.94
594.05	86.60
594.20	53.83
594.36	53.83
594.52	63.19
594.68	72.56
594.84	98.30
594.99	114.69
595.15	42.13
595.31	14.04
595.47	105.32
595.62	49.15
595.78	51.49
595.94	102.98
596.10	74.90
596.25	88.94
596.41	91.28
596.57	49.15
596.73	81.92
596.88	67.88
597.04	156.82
597.20	63.19
597.36	53.83
597.51	81.92
597.67	30.43
597.83	51.49
597.99	88.94
598.14	117.03
598.30	70.22
598.46	161.50
598.61	84.26
598.77	77.24
598.93	39.79
599.09	28.09
599.24	46.81
599.40	65.54
599.56	56.17
599.71	46.81
599.87	114.69
600.03	65.54
600.18	42.13
600.34	58.51
600.50	105.32
600.65	70.22
600.81	95.96
600.97	35.11
601.12	100.64
601.28	100.64
601.44	88.94
601.59	53.83
601.75	21.06
601.91	46.81
602.06	88.94
602.22	74.90
602.37	81.92
602.53	95.96
602.69	58.51
602.84	23.41
603.00	0.00
603.16	44.47
603.31	74.90
603.47	44.47
603.62	126.39
603.78	67.88
603.94	39.79
604.09	0.00
604.25	117.03
604.40	30.43
604.56	63.19
604.71	72.56
604.87	44.47
605.03	53.83
605.18	42.13
605.34	25.75
605.49	124.05
605.65	182.56
605.80	35.11
605.96	138.09
606.12	93.62
606.27	112.35
606.43	65.54
606.58	114.69
606.74	100.64
606.89	23.41
607.05	84.26
607.20	100.64
607.36	67.88
607.51	107.66
607.67	53.83
607.82	117.03
607.98	102.98
608.13	84.26
608.29	124.05
608.44	49.15
608.60	117.03
608.75	53.83
608.91	126.39
609.06	25.75
609.22	117.03
609.37	32.77
609.53	114.69
609.68	25.75
609.84	74.90
609.99	46.81
610.15	0.00
610.30	42.13
610.46	140.43
610.61	74.90
610.76	0.00
610.92	18.72
611.07	53.83
611.23	121.71
611.38	91.28
611.54	51.49
611.69	53.83
611.84	0.00
612.00	74.90
612.15	121.71
612.31	53.83
612.46	77.24
612.62	42.13
612.77	18.72
612.92	119.37
613.08	7.02
613.23	72.56
613.39	98.30
613.54	46.81
613.69	0.00
613.85	102.98
614.00	91.28
614.15	112.35
614.31	49.15
614.46	98.30
614.62	60.85
614.77	51.49
614.92	2.34
615.08	100.64
615.23	56.17
615.38	67.88
615.54	93.62
615.69	93.62
615.84	74.90
616.00	98.30
616.15	51.49
616.30	32.77
616.46	42.13
616.61	93.62
616.76	152.13
616.92	102.98
617.07	46.81
617.22	135.75
617.37	0.00
617.53	67.88
617.68	63.19
617.83	84.26
617.99	131.07
618.14	14.04
618.29	117.03
618.45	67.88
618.60	84.26
618.75	30.43
618.90	124.05
619.06	39.79
619.21	56.17
619.36	58.51
619.51	32.77
619.67	95.96
619.82	67.88
619.97	81.92
620.12	39.79
620.28	77.24
620.43	32.77
620.58	51.49
620.73	28.09
620.89	58.51
621.04	18.72
621.19	53.83
621.34	37.45
621.49	63.19
621.65	53.83
621.80	32.77
621.95	0.00
622.10	72.56
622.25	51.49
622.41	65.54
622.56	25.75
622.71	32.77
622.86	56.17
623.01	79.58
623.16	37.45
623.32	79.58
623.47	56.17
623.62	81.92
623.77	53.83
623.92	65.54
624.07	79.58
624.23	9.36
624.38	25.75
624.53	37.45
624.68	58.51
624.83	88.94
624.98	70.22
625.13	91.28
625.29	56.17
625.44	46.81
625.59	60.85
625.74	102.98
625.89	39.79
626.04	51.49
626.19	133.41
626.34	65.54
626.49	16.38
626.65	30.43
626.80	49.15
626.95	91.28
627.10	35.11
627.25	121.71
627.40	77.24
627.55	72.56
627.70	86.60
627.85	53.83
628.00	117.03
628.15	63.19
628.30	79.58
628.45	88.94
628.60	18.72
628.76	53.83
628.91	53.83
629.06	32.77
629.21	51.49
629.36	14.04
629.51	39.79
629.66	81.92
629.81	0.00
629.96	53.83
630.11	79.58
630.26	51.49
630.41	30.43
630.56	39.79
630.71	11.70
630.86	65.54
631.01	84.26
631.16	112.35
631.31	77.24
631.46	114.69
631.61	0.00
631.76	51.49
631.91	28.09
632.06	25.75
632.21	37.45
632.36	37.45
632.51	79.58
632.66	63.19
632.81	53.83
632.96	77.24
633.10	56.17
633.25	72.56
633.40	49.15
633.55	98.30
633.70	56.17
633.85	0.00
634.00	114.69
634.15	56.17
634.30	86.60
634.45	86.60
634.60	70.22
634.75	53.83
634.90	28.09
635.05	30.43
635.19	46.81
635.34	72.56
635.49	67.88
635.64	70.22
635.79	0.00
635.94	88.94
636.09	9.36
636.24	16.38
636.39	65.54
636.53	7.02
636.68	107.66
636.83	133.41
636.98	86.60
637.13	18.72
637.28	39.79
637.43	114.69
637.57	39.79
637.72	102.98
637.87	32.77
638.02	114.69
638.17	51.49
638.32	70.22
638.46	42.13
638.61	79.58
638.76	100.64
638.91	93.62
639.06	39.79
639.20	60.85
639.35	81.92
639.50	0.00
639.65	98.30
639.80	49.15
639.94	88.94
640.09	35.11
640.24	30.43
640.39	58.51
640.54	0.00
640.68	56.17
640.83	0.00
640.98	42.13
641.13	18.72
641.27	42.13
641.42	84.26
641.57	74.90
641.72	23.41
641.86	93.62
642.01	28.09
642.16	117.03
642.31	91.28
642.45	93.62
642.60	0.00
642.75	42.13
642.90	91.28
643.04	44.47
643.19	95.96
643.34	39.79
643.48	0.00
643.63	11.70
643.78	56.17
643.93	42.13
644.07	77.24
644.22	30.43
644.37	35.11
644.51	100.64
644.66	44.47
644.81	56.17
644.95	42.13
645.10	30.43
645.25	21.06
645.39	53.83
645.54	107.66
645.69	95.96
645.83	114.69
645.98	0.00
646.13	60.85
646.27	72.56
646.42	121.71
646.57	0.00
646.71	37.45
646.86	53.83
647.00	25.75
647.15	98.30
647.30	56.17
647.44	63.19
647.59	0.00
647.74	4.68
647.88	49.15
648.03	58.51
648.17	58.51
648.32	51.49
648.47	42.13
648.61	30.43
648.76	74.90
648.90	65.54
649.05	0.00
649.20	98.30
649.34	117.03
649.49	77.24
649.63	4.68
649.78	0.00
649.92	63.19
650.07	88.94
650.21	98.30
650.36	39.79
650.51	37.45
650.65	145.11
650.80	32.77
650.94	18.72
651.09	35.11
651.23	44.47
651.38	51.49
651.52	42.13
651.67	60.85
651.81	30.43
651.96	53.83
652.10	81.92
652.25	60.85
652.39	79.58
652.54	119.37
652.68	46.81
652.83	39.79
652.97	105.32
653.12	86.60
653.26	16.38
653.41	46.81
653.55	4.68
653.70	0.00
653.84	0.00
653.99	32.77
654.13	84.26
654.27	30.43
654.42	110.01
654.56	86.60
654.71	56.17
654.85	95.96
655.00	58.51
655.14	74.90
655.29	88.94
655.43	44.47
655.57	4.68
655.72	0.00
655.86	70.22
656.01	39.79
656.15	65.54
656.30	56.17
656.44	18.72
656.58	72.56
656.73	70.22
656.87	79.58
657.01	9.36
657.16	72.56
657.30	51.49
657.45	91.28
657.59	65.54
657.73	51.49
657.88	0.00
658.02	60.85
658.16	30.43
658.31	86.60
658.45	86.60
658.60	67.88
658.74	93.62
658.88	67.88
659.03	56.17
659.17	56.17
659.31	49.15
659.46	91.28
659.60	37.45
659.74	37.45
659.89	14.04
660.03	23.41
660.17	30.43
660.32	23.41
660.46	51.49
660.60	11.70
660.74	0.00
660.89	91.28
661.03	49.15
661.17	70.22
661.32	72.56
661.46	58.51
661.60	56.17
661.74	23.41
661.89	67.88
662.03	46.81
662.17	74.90
662.31	0.00
662.46	63.19
662.60	42.13
662.74	7.02
662.88	84.26
663.03	74.90
663.17	16.38
663.31	53.83
663.45	11.70
663.60	42.13
663.74	30.43
663.88	28.09
664.02	72.56
664.17	44.47
664.31	44.47
664.45	23.41
664.59	28.09
664.73	63.19
664.88	77.24
665.02	72.56
665.16	117.03
665.30	95.96
665.44	114.69
665.59	37.45
665.73	37.45
665.87	65.54
666.01	142.77
666.15	60.85
666.29	42.13
666.44	58.51
666.58	21.06
666.72	81.92
666.86	70.22
667.00	35.11
667.14	39.79
667.28	72.56
667.43	28.09
667.57	67.88
667.71	56.17
667.85	67.88
667.99	95.96
668.13	44.47
668.27	88.94
668.41	131.07
668.56	35.11
668.70	0.00
668.84	51.49
668.98	119.37
669.12	114.69
669.26	0.00
669.40	35.11
669.54	25.75
669.68	84.26
669.82	77.24
669.96	56.17
670.10	56.17
670.25	74.90
670.39	88.94
670.53	79.58
670.67	98.30
670.81	0.00
670.95	67.88
671.09	74.90
671.23	65.54
671.37	74.90
671.51	39.79
671.65	25.75
671.79	21.06
671.93	91.28
672.07	46.81
672.21	35.11
672.35	58.51
672.49	44.47
672.63	100.64
672.77	95.96
672.91	37.45
673.05	16.38
673.19	56.17
673.33	25.75
673.47	74.90
673.61	67.88
673.75	51.49
673.89	58.51
674.03	100.64
674.17	0.00
674.31	63.19
674.45	168.52
674.59	46.81
674.73	84.26
674.87	110.01
675.01	46.81
675.15	91.28
675.29	16.38
675.43	0.00
675.56	2.34
675.70	67.88
675.84	0.00
675.98	102.98
676.12	91.28
676.26	51.49
676.40	39.79
676.54	46.81
676.68	53.83
676.82	60.85
676.96	56.17
677.10	79.58
677.23	65.54
677.37	72.56
677.51	21.06
677.65	2.34
677.79	42.13
677.93	21.06
678.07	18.72
678.21	56.17
678.34	30.43
678.48	42.13
678.62	21.06
678.76	67.88
678.90	60.85
679.04	4.68
679.18	58.51
679.31	0.00
679.45	21.06
679.59	58.51
679.73	86.60
679.87	65.54
680.00	63.19
680.14	51.49
680.28	21.06
680.42	49.15
680.56	0.00
680.70	18.72
680.83	74.90
680.97	28.09
681.11	42.13
681.25	28.09
681.39	0.00
681.52	42.13
681.66	32.77
681.80	91.28
681.94	100.64
682.07	114.69
682.21	51.49
682.35	46.81
682.49	63.19
682.62	23.41
682.76	14.04
682.90	70.22
683.04	46.81
683.17	0.00
683.31	0.00
683.45	84.26
683.59	42.13
683.72	28.09
683.86	0.00
684.00	88.94
684.13	23.41
684.27	32.77
684.41	30.43
684.55	28.09
684.68	67.88
684.82	0.00
684.96	58.51
685.09	0.00
685.23	46.81
685.37	60.85
685.50	16.38
685.64	32.77
685.78	23.41
685.91	0.00
686.05	39.79
686.19	0.00
686.32	11.70
686.46	16.38
686.60	11.70
686.73	2.34
686.87	56.17
687.01	32.77
687.14	46.81
687.28	42.13
687.42	28.09
687.55	14.04
687.69	0.00
687.82	32.77
687.96	51.49
688.10	121.71
688.23	14.04
688.37	7.02
688.50	63.19
688.64	7.02
688.78	67.88
688.91	126.39
689.05	2.34
689.18	49.15
689.32	72.56
689.46	21.06
689.59	7.02
689.73	35.11
689.86	105.32
690.00	39.79
690.13	0.00
690.27	91.28
690.41	56.17
690.54	0.00
690.68	63.19
690.81	79.58
690.95	58.51
691.08	67.88
691.22	74.90
691.35	114.69
691.49	42.13
691.62	21.06
691.76	28.09
691.89	21.06
692.03	25.75
692.16	88.94
692.30	81.92
692.43	0.00
692.57	72.56
692.70	63.19
692.84	77.24
692.97	60.85
693.11	117.03
693.24	77.24
693.38	30.43
693.51	23.41
693.65	11.70
693.78	53.83
693.92	42.13
694.05	28.09
694.19	51.49
694.32	0.00
694.45	124.05
694.59	79.58
694.72	18.72
694.86	84.26
694.99	21.06
695.13	0.00
695.26	0.00
695.39	67.88
695.53	37.45
695.66	74.90
695.80	25.75
695.93	37.45
696.07	0.00
696.20	56.17
696.33	0.00
696.47	23.41
696.60	35.11
696.73	86.60
696.87	2.34
697.00	0.00
697.14	65.54
697.27	4.68
697.40	32.77
697.54	79.58
697.67	0.00
697.80	28.09
697.94	0.00
698.07	23.41
698.21	44.47
698.34	63.19
698.47	124.05
698.61	16.38
698.74	86.60
698.87	16.38
699.01	21.06
699.14	35.11
699.27	14.04
699.40	42.13
699.54	65.54
699.67	9.36
699.80	0.00
699.94	56.17
700.07	46.81
700.20	70.22
700.34	32.77
700.47	30.43
700.60	2.34
700.73	9.36
700.87	95.96
701.00	28.09
701.13	63.19
701.26	7.02
701.40	16.38
701.53	23.41
701.66	16.38
701.79	39.79
701.93	9.36
702.06	16.38
702.19	63.19
702.32	79.58
702.46	86.60
702.59	16.38
702.72	35.11
702.85	37.45
702.99	67.88
703.12	49.15
703.25	88.94
703.38	18.72
703.51	30.43
703.65	9.36
703.78	58.51
703.91	58.51
704.04	72.56
704.17	51.49
704.31	18.72
704.44	98.30
704.57	16.38
704.70	37.45
704.83	63.19
704.96	35.11
705.10	30.43
705.23	60.85
>>>>>End Processed Spectral Data<<<<<
