SpectraSuite Data File
++++++++++++++++++++++++++++++++++++
Date: Fri Oct 04 12:13:35 GMT-05:00 2013
User: price-jones
Dark Spectrum Present: No
Reference Spectrum Present: No
Number of Sampled Component Spectra: 1
Spectrometers: USB2+H05261
Integration Time (usec): 10000 (USB2+H05261)
Spectra Averaged: 1 (USB2+H05261)
Boxcar Smoothing: 0 (USB2+H05261)
Correct for Electrical Dark: No (USB2+H05261)
Strobe/Lamp Enabled: No (USB2+H05261)
Correct for Detector Non-linearity: No (USB2+H05261)
Correct for Stray Light: No (USB2+H05261)
Number of Pixels in Processed Spectrum: 2048
>>>>>Begin Processed Spectral Data<<<<<
365.73	0.00
365.92	0.00
366.12	0.00
366.32	0.00
366.52	0.00
366.72	0.00
366.91	0.00
367.11	0.00
367.31	0.00
367.51	0.00
367.70	0.00
367.90	0.00
368.10	0.00
368.30	0.00
368.49	0.00
368.69	0.00
368.89	0.00
369.09	0.00
369.28	0.00
369.48	0.00
369.68	0.00
369.87	0.00
370.07	0.00
370.27	0.00
370.47	0.00
370.66	0.00
370.86	0.00
371.06	0.00
371.25	0.00
371.45	0.00
371.65	0.00
371.84	0.00
372.04	0.00
372.24	0.00
372.44	0.00
372.63	0.00
372.83	0.00
373.03	0.00
373.22	0.00
373.42	0.00
373.62	32.77
373.81	88.94
374.01	30.43
374.21	60.85
374.40	0.00
374.60	44.47
374.79	126.39
374.99	67.88
375.19	56.17
375.38	9.36
375.58	4.68
375.78	14.04
375.97	44.47
376.17	28.09
376.37	28.09
376.56	0.00
376.76	58.51
376.95	32.77
377.15	0.00
377.35	53.83
377.54	28.09
377.74	58.51
377.93	74.90
378.13	37.45
378.33	65.54
378.52	42.13
378.72	37.45
378.91	21.06
379.11	0.00
379.31	63.19
379.50	93.62
379.70	37.45
379.89	74.90
380.09	63.19
380.28	2.34
380.48	58.51
380.68	51.49
380.87	0.00
381.07	7.02
381.26	0.00
381.46	0.00
381.65	0.00
381.85	0.00
382.04	0.00
382.24	0.00
382.43	39.79
382.63	21.06
382.83	2.34
383.02	79.58
383.22	72.56
383.41	0.00
383.61	11.70
383.80	25.75
384.00	0.00
384.19	0.00
384.39	79.58
384.58	49.15
384.78	49.15
384.97	0.00
385.17	0.00
385.36	7.02
385.56	9.36
385.75	0.00
385.95	30.43
386.14	23.41
386.34	37.45
386.53	39.79
386.72	2.34
386.92	2.34
387.11	44.47
387.31	0.00
387.50	0.00
387.70	32.77
387.89	44.47
388.09	35.11
388.28	9.36
388.48	21.06
388.67	72.56
388.86	11.70
389.06	7.02
389.25	32.77
389.45	25.75
389.64	84.26
389.84	0.00
390.03	0.00
390.22	23.41
390.42	0.00
390.61	58.51
390.81	37.45
391.00	0.00
391.19	0.00
391.39	65.54
391.58	53.83
391.78	35.11
391.97	58.51
392.16	4.68
392.36	21.06
392.55	0.00
392.75	32.77
392.94	42.13
393.13	0.00
393.33	28.09
393.52	9.36
393.71	7.02
393.91	0.00
394.10	0.00
394.29	117.03
394.49	35.11
394.68	56.17
394.88	60.85
395.07	0.00
395.26	35.11
395.46	0.00
395.65	35.11
395.84	0.00
396.04	37.45
396.23	74.90
396.42	0.00
396.62	14.04
396.81	46.81
397.00	18.72
397.19	0.00
397.39	35.11
397.58	58.51
397.77	16.38
397.97	2.34
398.16	72.56
398.35	77.24
398.55	14.04
398.74	0.00
398.93	95.96
399.12	37.45
399.32	0.00
399.51	93.62
399.70	2.34
399.90	67.88
400.09	0.00
400.28	32.77
400.47	28.09
400.67	0.00
400.86	37.45
401.05	72.56
401.24	14.04
401.44	72.56
401.63	42.13
401.82	7.02
402.01	53.83
402.21	2.34
402.40	25.75
402.59	25.75
402.78	0.00
402.97	0.00
403.17	0.00
403.36	51.49
403.55	70.22
403.74	0.00
403.93	16.38
404.13	58.51
404.32	72.56
404.51	0.00
404.70	88.94
404.89	51.49
405.09	44.47
405.28	86.60
405.47	58.51
405.66	11.70
405.85	32.77
406.05	46.81
406.24	0.00
406.43	21.06
406.62	4.68
406.81	9.36
407.00	0.00
407.20	56.17
407.39	2.34
407.58	0.00
407.77	30.43
407.96	58.51
408.15	14.04
408.34	2.34
408.54	81.92
408.73	23.41
408.92	0.00
409.11	0.00
409.30	110.01
409.49	93.62
409.68	25.75
409.87	21.06
410.07	28.09
410.26	70.22
410.45	14.04
410.64	9.36
410.83	14.04
411.02	93.62
411.21	44.47
411.40	58.51
411.59	86.60
411.78	23.41
411.98	58.51
412.17	39.79
412.36	93.62
412.55	72.56
412.74	81.92
412.93	98.30
413.12	42.13
413.31	23.41
413.50	16.38
413.69	77.24
413.88	51.49
414.07	42.13
414.26	18.72
414.45	30.43
414.64	11.70
414.83	100.64
415.02	58.51
415.22	9.36
415.41	0.00
415.60	77.24
415.79	0.00
415.98	51.49
416.17	56.17
416.36	0.00
416.55	0.00
416.74	11.70
416.93	98.30
417.12	23.41
417.31	65.54
417.50	18.72
417.69	23.41
417.88	63.19
418.07	42.13
418.26	37.45
418.45	60.85
418.64	39.79
418.83	49.15
419.02	60.85
419.21	0.00
419.39	11.70
419.58	46.81
419.77	32.77
419.96	72.56
420.15	7.02
420.34	0.00
420.53	105.32
420.72	25.75
420.91	93.62
421.10	53.83
421.29	70.22
421.48	79.58
421.67	25.75
421.86	30.43
422.05	9.36
422.24	44.47
422.43	0.00
422.61	0.00
422.80	51.49
422.99	2.34
423.18	42.13
423.37	60.85
423.56	11.70
423.75	28.09
423.94	65.54
424.13	46.81
424.32	37.45
424.50	37.45
424.69	0.00
424.88	0.00
425.07	4.68
425.26	11.70
425.45	4.68
425.64	60.85
425.83	42.13
426.01	2.34
426.20	0.00
426.39	21.06
426.58	25.75
426.77	2.34
426.96	7.02
427.15	14.04
427.33	9.36
427.52	25.75
427.71	53.83
427.90	56.17
428.09	0.00
428.28	100.64
428.46	117.03
428.65	30.43
428.84	53.83
429.03	28.09
429.22	51.49
429.40	0.00
429.59	25.75
429.78	86.60
429.97	107.66
430.16	25.75
430.34	2.34
430.53	39.79
430.72	18.72
430.91	42.13
431.10	51.49
431.28	79.58
431.47	46.81
431.66	60.85
431.85	72.56
432.03	46.81
432.22	14.04
432.41	100.64
432.60	44.47
432.79	67.88
432.97	7.02
433.16	58.51
433.35	88.94
433.54	46.81
433.72	16.38
433.91	65.54
434.10	28.09
434.28	88.94
434.47	53.83
434.66	9.36
434.85	77.24
435.03	102.98
435.22	37.45
435.41	63.19
435.59	63.19
435.78	7.02
435.97	37.45
436.16	35.11
436.34	70.22
436.53	35.11
436.72	32.77
436.90	46.81
437.09	98.30
437.28	56.17
437.46	30.43
437.65	0.00
437.84	42.13
438.02	28.09
438.21	86.60
438.40	67.88
438.58	0.00
438.77	77.24
438.96	30.43
439.14	21.06
439.33	77.24
439.52	88.94
439.70	74.90
439.89	86.60
440.08	67.88
440.26	81.92
440.45	0.00
440.63	49.15
440.82	81.92
441.01	84.26
441.19	37.45
441.38	0.00
441.57	28.09
441.75	21.06
441.94	175.54
442.12	49.15
442.31	18.72
442.50	0.00
442.68	110.01
442.87	35.11
443.05	51.49
443.24	28.09
443.43	79.58
443.61	46.81
443.80	79.58
443.98	23.41
444.17	4.68
444.35	65.54
444.54	21.06
444.73	67.88
444.91	53.83
445.10	67.88
445.28	0.00
445.47	0.00
445.65	53.83
445.84	2.34
446.02	30.43
446.21	86.60
446.39	86.60
446.58	39.79
446.77	98.30
446.95	51.49
447.14	72.56
447.32	46.81
447.51	65.54
447.69	42.13
447.88	107.66
448.06	60.85
448.25	30.43
448.43	42.13
448.62	32.77
448.80	70.22
448.99	70.22
449.17	84.26
449.36	60.85
449.54	56.17
449.73	46.81
449.91	86.60
450.10	81.92
450.28	79.58
450.46	9.36
450.65	0.00
450.83	28.09
451.02	39.79
451.20	14.04
451.39	65.54
451.57	35.11
451.76	74.90
451.94	84.26
452.13	0.00
452.31	49.15
452.49	32.77
452.68	14.04
452.86	42.13
453.05	114.69
453.23	72.56
453.42	51.49
453.60	51.49
453.78	21.06
453.97	0.00
454.15	84.26
454.34	18.72
454.52	37.45
454.70	2.34
454.89	79.58
455.07	49.15
455.26	67.88
455.44	16.38
455.62	46.81
455.81	18.72
455.99	58.51
456.17	49.15
456.36	56.17
456.54	77.24
456.73	63.19
456.91	23.41
457.09	81.92
457.28	86.60
457.46	16.38
457.64	30.43
457.83	32.77
458.01	105.32
458.19	44.47
458.38	84.26
458.56	49.15
458.74	0.00
458.93	0.00
459.11	74.90
459.29	28.09
459.48	95.96
459.66	152.13
459.84	77.24
460.03	0.00
460.21	42.13
460.39	77.24
460.57	53.83
460.76	4.68
460.94	67.88
461.12	0.00
461.31	42.13
461.49	56.17
461.67	88.94
461.85	93.62
462.04	86.60
462.22	56.17
462.40	110.01
462.59	70.22
462.77	39.79
462.95	39.79
463.13	42.13
463.32	58.51
463.50	60.85
463.68	53.83
463.86	30.43
464.05	44.47
464.23	18.72
464.41	9.36
464.59	84.26
464.78	49.15
464.96	100.64
465.14	77.24
465.32	65.54
465.50	39.79
465.69	53.83
465.87	30.43
466.05	88.94
466.23	42.13
466.41	0.00
466.60	117.03
466.78	65.54
466.96	9.36
467.14	44.47
467.32	70.22
467.51	58.51
467.69	21.06
467.87	112.35
468.05	110.01
468.23	0.00
468.41	56.17
468.60	16.38
468.78	25.75
468.96	65.54
469.14	117.03
469.32	51.49
469.50	67.88
469.69	0.00
469.87	16.38
470.05	84.26
470.23	119.37
470.41	46.81
470.59	124.05
470.77	91.28
470.95	159.16
471.14	28.09
471.32	93.62
471.50	93.62
471.68	67.88
471.86	35.11
472.04	0.00
472.22	0.00
472.40	67.88
472.58	49.15
472.77	60.85
472.95	133.41
473.13	107.66
473.31	72.56
473.49	100.64
473.67	65.54
473.85	0.00
474.03	175.54
474.21	51.49
474.39	49.15
474.57	53.83
474.75	65.54
474.93	28.09
475.12	32.77
475.30	93.62
475.48	0.00
475.66	58.51
475.84	117.03
476.02	65.54
476.20	84.26
476.38	86.60
476.56	42.13
476.74	49.15
476.92	0.00
477.10	93.62
477.28	25.75
477.46	9.36
477.64	79.58
477.82	91.28
478.00	67.88
478.18	81.92
478.36	105.32
478.54	124.05
478.72	53.83
478.90	84.26
479.08	65.54
479.26	138.09
479.44	4.68
479.62	107.66
479.80	56.17
479.98	51.49
480.16	67.88
480.34	142.77
480.52	79.58
480.70	9.36
480.88	74.90
481.06	58.51
481.24	81.92
481.41	79.58
481.59	23.41
481.77	88.94
481.95	88.94
482.13	23.41
482.31	46.81
482.49	42.13
482.67	53.83
482.85	95.96
483.03	117.03
483.21	23.41
483.39	121.71
483.57	72.56
483.74	124.05
483.92	21.06
484.10	91.28
484.28	126.39
484.46	121.71
484.64	7.02
484.82	46.81
485.00	58.51
485.18	105.32
485.35	117.03
485.53	110.01
485.71	60.85
485.89	30.43
486.07	53.83
486.25	51.49
486.43	49.15
486.61	11.70
486.78	93.62
486.96	81.92
487.14	0.00
487.32	79.58
487.50	37.45
487.68	112.35
487.85	159.16
488.03	51.49
488.21	53.83
488.39	100.64
488.57	28.09
488.75	91.28
488.92	51.49
489.10	91.28
489.28	44.47
489.46	72.56
489.64	28.09
489.81	53.83
489.99	37.45
490.17	28.09
490.35	126.39
490.53	32.77
490.70	81.92
490.88	107.66
491.06	88.94
491.24	98.30
491.41	32.77
491.59	77.24
491.77	0.00
491.95	74.90
492.13	121.71
492.30	58.51
492.48	79.58
492.66	46.81
492.84	84.26
493.01	128.73
493.19	74.90
493.37	98.30
493.54	98.30
493.72	56.17
493.90	65.54
494.08	102.98
494.25	53.83
494.43	37.45
494.61	0.00
494.79	72.56
494.96	58.51
495.14	58.51
495.32	86.60
495.49	37.45
495.67	84.26
495.85	117.03
496.02	77.24
496.20	0.00
496.38	95.96
496.55	117.03
496.73	100.64
496.91	128.73
497.09	39.79
497.26	79.58
497.44	63.19
497.62	67.88
497.79	81.92
497.97	60.85
498.14	140.43
498.32	32.77
498.50	60.85
498.67	35.11
498.85	32.77
499.03	21.06
499.20	98.30
499.38	128.73
499.56	74.90
499.73	95.96
499.91	117.03
500.08	0.00
500.26	98.30
500.44	79.58
500.61	124.05
500.79	100.64
500.97	142.77
501.14	81.92
501.32	25.75
501.49	159.16
501.67	142.77
501.84	58.51
502.02	56.17
502.20	107.66
502.37	194.26
502.55	114.69
502.72	0.00
502.90	91.28
503.07	9.36
503.25	44.47
503.43	131.07
503.60	53.83
503.78	121.71
503.95	39.79
504.13	70.22
504.30	46.81
504.48	0.00
504.65	49.15
504.83	138.09
505.01	65.54
505.18	49.15
505.36	107.66
505.53	70.22
505.71	44.47
505.88	44.47
506.06	30.43
506.23	77.24
506.41	161.50
506.58	51.49
506.76	74.90
506.93	70.22
507.11	70.22
507.28	28.09
507.46	86.60
507.63	65.54
507.81	121.71
507.98	110.01
508.16	114.69
508.33	11.70
508.50	37.45
508.68	93.62
508.85	81.92
509.03	56.17
509.20	110.01
509.38	114.69
509.55	79.58
509.73	149.79
509.90	175.54
510.08	107.66
510.25	138.09
510.42	30.43
510.60	95.96
510.77	100.64
510.95	70.22
511.12	77.24
511.30	79.58
511.47	79.58
511.64	114.69
511.82	58.51
511.99	105.32
512.17	91.28
512.34	39.79
512.51	51.49
512.69	102.98
512.86	18.72
513.04	124.05
513.21	72.56
513.38	44.47
513.56	39.79
513.73	91.28
513.90	114.69
514.08	100.64
514.25	53.83
514.43	88.94
514.60	81.92
514.77	42.13
514.95	74.90
515.12	81.92
515.29	147.45
515.47	112.35
515.64	88.94
515.81	102.98
515.99	63.19
516.16	79.58
516.33	105.32
516.51	74.90
516.68	49.15
516.85	95.96
517.03	30.43
517.20	58.51
517.37	51.49
517.54	124.05
517.72	35.11
517.89	18.72
518.06	42.13
518.24	110.01
518.41	86.60
518.58	84.26
518.75	25.75
518.93	77.24
519.10	86.60
519.27	149.79
519.45	46.81
519.62	93.62
519.79	79.58
519.96	177.88
520.14	60.85
520.31	14.04
520.48	60.85
520.65	81.92
520.83	121.71
521.00	107.66
521.17	77.24
521.34	65.54
521.52	95.96
521.69	30.43
521.86	60.85
522.03	154.48
522.20	95.96
522.38	0.00
522.55	142.77
522.72	9.36
522.89	182.56
523.07	63.19
523.24	154.48
523.41	128.73
523.58	56.17
523.75	86.60
523.92	149.79
524.10	117.03
524.27	72.56
524.44	63.19
524.61	42.13
524.78	117.03
524.96	124.05
525.13	81.92
525.30	88.94
525.47	161.50
525.64	49.15
525.81	0.00
525.98	95.96
526.16	51.49
526.33	53.83
526.50	65.54
526.67	128.73
526.84	35.11
527.01	98.30
527.18	86.60
527.36	56.17
527.53	88.94
527.70	133.41
527.87	124.05
528.04	70.22
528.21	0.00
528.38	100.64
528.55	168.52
528.72	110.01
528.89	100.64
529.07	105.32
529.24	30.43
529.41	124.05
529.58	95.96
529.75	93.62
529.92	93.62
530.09	145.11
530.26	114.69
530.43	81.92
530.60	95.96
530.77	30.43
530.94	107.66
531.11	100.64
531.28	81.92
531.46	0.00
531.63	126.39
531.80	117.03
531.97	156.82
532.14	133.41
532.31	51.49
532.48	124.05
532.65	65.54
532.82	114.69
532.99	81.92
533.16	98.30
533.33	102.98
533.50	25.75
533.67	51.49
533.84	39.79
534.01	37.45
534.18	77.24
534.35	72.56
534.52	58.51
534.69	63.19
534.86	102.98
535.03	42.13
535.20	98.30
535.37	140.43
535.54	184.90
535.71	84.26
535.88	81.92
536.05	156.82
536.22	58.51
536.38	105.32
536.55	67.88
536.72	154.48
536.89	60.85
537.06	112.35
537.23	100.64
537.40	102.98
537.57	102.98
537.74	91.28
537.91	51.49
538.08	152.13
538.25	79.58
538.42	126.39
538.59	53.83
538.75	112.35
538.92	93.62
539.09	138.09
539.26	77.24
539.43	70.22
539.60	65.54
539.77	147.45
539.94	81.92
540.11	105.32
540.28	74.90
540.44	77.24
540.61	98.30
540.78	70.22
540.95	84.26
541.12	56.17
541.29	121.71
541.46	98.30
541.62	49.15
541.79	128.73
541.96	56.17
542.13	51.49
542.30	67.88
542.47	53.83
542.63	98.30
542.80	117.03
542.97	77.24
543.14	86.60
543.31	84.26
543.48	114.69
543.64	65.54
543.81	44.47
543.98	14.04
544.15	102.98
544.32	93.62
544.48	93.62
544.65	138.09
544.82	91.28
544.99	110.01
545.16	81.92
545.32	121.71
545.49	107.66
545.66	138.09
545.83	51.49
546.00	79.58
546.16	121.71
546.33	70.22
546.50	84.26
546.67	32.77
546.83	86.60
547.00	86.60
547.17	138.09
547.34	79.58
547.50	37.45
547.67	58.51
547.84	49.15
548.00	51.49
548.17	140.43
548.34	67.88
548.51	152.13
548.67	128.73
548.84	159.16
549.01	81.92
549.18	86.60
549.34	74.90
549.51	72.56
549.68	91.28
549.84	81.92
550.01	46.81
550.18	95.96
550.34	138.09
550.51	100.64
550.68	91.28
550.84	159.16
551.01	110.01
551.18	88.94
551.34	65.54
551.51	79.58
551.68	98.30
551.84	91.28
552.01	23.41
552.18	65.54
552.34	93.62
552.51	65.54
552.68	124.05
552.84	112.35
553.01	102.98
553.18	84.26
553.34	51.49
553.51	51.49
553.67	63.19
553.84	79.58
554.01	124.05
554.17	135.75
554.34	67.88
554.51	91.28
554.67	60.85
554.84	107.66
555.00	70.22
555.17	105.32
555.33	121.71
555.50	0.00
555.67	67.88
555.83	74.90
556.00	110.01
556.16	124.05
556.33	67.88
556.50	77.24
556.66	102.98
556.83	23.41
556.99	28.09
557.16	70.22
557.32	21.06
557.49	133.41
557.65	63.19
557.82	74.90
557.98	117.03
558.15	77.24
558.32	133.41
558.48	140.43
558.65	79.58
558.81	117.03
558.98	72.56
559.14	138.09
559.31	79.58
559.47	102.98
559.64	56.17
559.80	112.35
559.97	74.90
560.13	60.85
560.30	25.75
560.46	98.30
560.63	23.41
560.79	86.60
560.96	86.60
561.12	126.39
561.29	93.62
561.45	91.28
561.61	23.41
561.78	93.62
561.94	37.45
562.11	88.94
562.27	142.77
562.44	51.49
562.60	63.19
562.77	84.26
562.93	107.66
563.10	63.19
563.26	79.58
563.42	35.11
563.59	105.32
563.75	142.77
563.92	37.45
564.08	65.54
564.24	46.81
564.41	53.83
564.57	0.00
564.74	56.17
564.90	135.75
565.07	23.41
565.23	84.26
565.39	16.38
565.56	74.90
565.72	105.32
565.88	81.92
566.05	140.43
566.21	79.58
566.38	37.45
566.54	147.45
566.70	42.13
566.87	42.13
567.03	51.49
567.19	77.24
567.36	32.77
567.52	18.72
567.68	121.71
567.85	177.88
568.01	70.22
568.17	88.94
568.34	44.47
568.50	121.71
568.66	49.15
568.83	142.77
568.99	0.00
569.15	84.26
569.32	67.88
569.48	110.01
569.64	84.26
569.81	114.69
569.97	74.90
570.13	107.66
570.30	46.81
570.46	67.88
570.62	11.70
570.78	60.85
570.95	18.72
571.11	70.22
571.27	18.72
571.43	56.17
571.60	25.75
571.76	117.03
571.92	175.54
572.09	112.35
572.25	77.24
572.41	95.96
572.57	121.71
572.74	56.17
572.90	131.07
573.06	117.03
573.22	67.88
573.38	21.06
573.55	37.45
573.71	63.19
573.87	18.72
574.03	53.83
574.20	72.56
574.36	60.85
574.52	77.24
574.68	77.24
574.84	51.49
575.01	0.00
575.17	0.00
575.33	37.45
575.49	81.92
575.65	121.71
575.82	114.69
575.98	63.19
576.14	128.73
576.30	74.90
576.46	0.00
576.62	23.41
576.79	4.68
576.95	58.51
577.11	32.77
577.27	88.94
577.43	86.60
577.59	49.15
577.75	121.71
577.92	46.81
578.08	51.49
578.24	67.88
578.40	7.02
578.56	7.02
578.72	138.09
578.88	131.07
579.04	23.41
579.21	37.45
579.37	102.98
579.53	124.05
579.69	74.90
579.85	35.11
580.01	88.94
580.17	88.94
580.33	18.72
580.49	7.02
580.65	117.03
580.82	70.22
580.98	86.60
581.14	14.04
581.30	39.79
581.46	93.62
581.62	152.13
581.78	72.56
581.94	107.66
582.10	100.64
582.26	100.64
582.42	126.39
582.58	88.94
582.74	128.73
582.90	114.69
583.06	0.00
583.22	37.45
583.38	65.54
583.54	86.60
583.70	88.94
583.86	0.00
584.02	60.85
584.18	88.94
584.34	128.73
584.50	79.58
584.66	32.77
584.82	32.77
584.98	84.26
585.14	147.45
585.30	79.58
585.46	58.51
585.62	88.94
585.78	28.09
585.94	60.85
586.10	0.00
586.26	84.26
586.42	63.19
586.58	9.36
586.74	91.28
586.90	72.56
587.06	51.49
587.22	147.45
587.38	156.82
587.54	60.85
587.70	84.26
587.86	86.60
588.02	81.92
588.18	53.83
588.34	23.41
588.49	135.75
588.65	126.39
588.81	32.77
588.97	65.54
589.13	131.07
589.29	18.72
589.45	49.15
589.61	72.56
589.77	77.24
589.93	53.83
590.08	79.58
590.24	110.01
590.40	53.83
590.56	105.32
590.72	32.77
590.88	56.17
591.04	95.96
591.20	0.00
591.35	0.00
591.51	65.54
591.67	28.09
591.83	91.28
591.99	39.79
592.15	140.43
592.31	100.64
592.46	30.43
592.62	117.03
592.78	95.96
592.94	16.38
593.10	60.85
593.26	56.17
593.41	67.88
593.57	37.45
593.73	114.69
593.89	65.54
594.05	60.85
594.20	91.28
594.36	58.51
594.52	0.00
594.68	58.51
594.84	72.56
594.99	65.54
595.15	77.24
595.31	37.45
595.47	42.13
595.62	77.24
595.78	46.81
595.94	147.45
596.10	67.88
596.25	98.30
596.41	58.51
596.57	16.38
596.73	35.11
596.88	63.19
597.04	84.26
597.20	119.37
597.36	133.41
597.51	149.79
597.67	42.13
597.83	112.35
597.99	100.64
598.14	9.36
598.30	77.24
598.46	93.62
598.61	142.77
598.77	98.30
598.93	84.26
599.09	84.26
599.24	77.24
599.40	72.56
599.56	112.35
599.71	102.98
599.87	37.45
600.03	119.37
600.18	72.56
600.34	35.11
600.50	35.11
600.65	93.62
600.81	79.58
600.97	93.62
601.12	35.11
601.28	42.13
601.44	77.24
601.59	72.56
601.75	72.56
601.91	107.66
602.06	112.35
602.22	88.94
602.37	110.01
602.53	81.92
602.69	46.81
602.84	30.43
603.00	81.92
603.16	86.60
603.31	114.69
603.47	119.37
603.62	182.56
603.78	98.30
603.94	42.13
604.09	138.09
604.25	18.72
604.40	159.16
604.56	0.00
604.71	117.03
604.87	119.37
605.03	147.45
605.18	121.71
605.34	138.09
605.49	0.00
605.65	72.56
605.80	42.13
605.96	70.22
606.12	65.54
606.27	81.92
606.43	23.41
606.58	88.94
606.74	81.92
606.89	77.24
607.05	98.30
607.20	23.41
607.36	86.60
607.51	84.26
607.67	42.13
607.82	46.81
607.98	74.90
608.13	79.58
608.29	42.13
608.44	110.01
608.60	86.60
608.75	28.09
608.91	58.51
609.06	114.69
609.22	91.28
609.37	91.28
609.53	0.00
609.68	124.05
609.84	173.20
609.99	49.15
610.15	21.06
610.30	53.83
610.46	58.51
610.61	44.47
610.76	32.77
610.92	126.39
611.07	65.54
611.23	95.96
611.38	53.83
611.54	81.92
611.69	74.90
611.84	53.83
612.00	37.45
612.15	65.54
612.31	119.37
612.46	114.69
612.62	98.30
612.77	102.98
612.92	63.19
613.08	42.13
613.23	100.64
613.39	72.56
613.54	105.32
613.69	91.28
613.85	35.11
614.00	81.92
614.15	42.13
614.31	42.13
614.46	9.36
614.62	51.49
614.77	42.13
614.92	77.24
615.08	60.85
615.23	102.98
615.38	44.47
615.54	117.03
615.69	117.03
615.84	49.15
616.00	2.34
616.15	25.75
616.30	117.03
616.46	21.06
616.61	49.15
616.76	74.90
616.92	84.26
617.07	81.92
617.22	63.19
617.37	131.07
617.53	25.75
617.68	42.13
617.83	42.13
617.99	112.35
618.14	93.62
618.29	121.71
618.45	133.41
618.60	49.15
618.75	44.47
618.90	46.81
619.06	16.38
619.21	18.72
619.36	60.85
619.51	65.54
619.67	102.98
619.82	51.49
619.97	154.48
620.12	58.51
620.28	9.36
620.43	58.51
620.58	25.75
620.73	7.02
620.89	30.43
621.04	145.11
621.19	49.15
621.34	107.66
621.49	56.17
621.65	58.51
621.80	28.09
621.95	112.35
622.10	42.13
622.25	0.00
622.41	65.54
622.56	81.92
622.71	30.43
622.86	70.22
623.01	67.88
623.16	100.64
623.32	28.09
623.47	42.13
623.62	74.90
623.77	49.15
623.92	91.28
624.07	77.24
624.23	70.22
624.38	117.03
624.53	23.41
624.68	28.09
624.83	86.60
624.98	46.81
625.13	18.72
625.29	51.49
625.44	74.90
625.59	86.60
625.74	67.88
625.89	105.32
626.04	53.83
626.19	128.73
626.34	100.64
626.49	53.83
626.65	81.92
626.80	91.28
626.95	44.47
627.10	133.41
627.25	42.13
627.40	21.06
627.55	98.30
627.70	23.41
627.85	32.77
628.00	49.15
628.15	72.56
628.30	14.04
628.45	14.04
628.60	58.51
628.76	70.22
628.91	128.73
629.06	72.56
629.21	28.09
629.36	28.09
629.51	84.26
629.66	72.56
629.81	14.04
629.96	39.79
630.11	44.47
630.26	102.98
630.41	63.19
630.56	86.60
630.71	42.13
630.86	95.96
631.01	25.75
631.16	0.00
631.31	79.58
631.46	44.47
631.61	23.41
631.76	110.01
631.91	100.64
632.06	16.38
632.21	91.28
632.36	114.69
632.51	0.00
632.66	18.72
632.81	93.62
632.96	60.85
633.10	84.26
633.25	65.54
633.40	42.13
633.55	30.43
633.70	25.75
633.85	112.35
634.00	63.19
634.15	107.66
634.30	44.47
634.45	60.85
634.60	79.58
634.75	65.54
634.90	42.13
635.05	25.75
635.19	53.83
635.34	0.00
635.49	74.90
635.64	98.30
635.79	51.49
635.94	23.41
636.09	65.54
636.24	49.15
636.39	84.26
636.53	81.92
636.68	0.00
636.83	44.47
636.98	91.28
637.13	56.17
637.28	84.26
637.43	18.72
637.57	86.60
637.72	93.62
637.87	0.00
638.02	28.09
638.17	58.51
638.32	86.60
638.46	60.85
638.61	35.11
638.76	58.51
638.91	53.83
639.06	95.96
639.20	91.28
639.35	39.79
639.50	65.54
639.65	70.22
639.80	95.96
639.94	0.00
640.09	72.56
640.24	60.85
640.39	32.77
640.54	65.54
640.68	30.43
640.83	70.22
640.98	30.43
641.13	95.96
641.27	88.94
641.42	81.92
641.57	44.47
641.72	79.58
641.86	51.49
642.01	23.41
642.16	112.35
642.31	28.09
642.45	84.26
642.60	81.92
642.75	51.49
642.90	16.38
643.04	32.77
643.19	51.49
643.34	44.47
643.48	70.22
643.63	28.09
643.78	42.13
643.93	39.79
644.07	16.38
644.22	114.69
644.37	37.45
644.51	0.00
644.66	63.19
644.81	11.70
644.95	67.88
645.10	72.56
645.25	51.49
645.39	91.28
645.54	39.79
645.69	110.01
645.83	72.56
645.98	72.56
646.13	32.77
646.27	79.58
646.42	30.43
646.57	35.11
646.71	56.17
646.86	14.04
647.00	81.92
647.15	102.98
647.30	65.54
647.44	74.90
647.59	49.15
647.74	74.90
647.88	23.41
648.03	14.04
648.17	102.98
648.32	4.68
648.47	117.03
648.61	7.02
648.76	60.85
648.90	30.43
649.05	70.22
649.20	37.45
649.34	23.41
649.49	42.13
649.63	25.75
649.78	72.56
649.92	58.51
650.07	23.41
650.21	74.90
650.36	86.60
650.51	28.09
650.65	98.30
650.80	39.79
650.94	46.81
651.09	102.98
651.23	95.96
651.38	16.38
651.52	72.56
651.67	7.02
651.81	9.36
651.96	44.47
652.10	18.72
652.25	18.72
652.39	95.96
652.54	84.26
652.68	166.18
652.83	18.72
652.97	117.03
653.12	79.58
653.26	18.72
653.41	121.71
653.55	16.38
653.70	74.90
653.84	98.30
653.99	49.15
654.13	37.45
654.27	77.24
654.42	135.75
654.56	18.72
654.71	23.41
654.85	56.17
655.00	28.09
655.14	51.49
655.29	32.77
655.43	28.09
655.57	42.13
655.72	37.45
655.86	93.62
656.01	53.83
656.15	2.34
656.30	25.75
656.44	63.19
656.58	0.00
656.73	126.39
656.87	11.70
657.01	51.49
657.16	39.79
657.30	4.68
657.45	25.75
657.59	0.00
657.73	65.54
657.88	60.85
658.02	91.28
658.16	0.00
658.31	11.70
658.45	119.37
658.60	126.39
658.74	84.26
658.88	93.62
659.03	79.58
659.17	173.20
659.31	58.51
659.46	11.70
659.60	110.01
659.74	30.43
659.89	9.36
660.03	81.92
660.17	72.56
660.32	67.88
660.46	60.85
660.60	102.98
660.74	51.49
660.89	0.00
661.03	9.36
661.17	51.49
661.32	124.05
661.46	93.62
661.60	142.77
661.74	84.26
661.89	25.75
662.03	4.68
662.17	0.00
662.31	72.56
662.46	88.94
662.60	93.62
662.74	49.15
662.88	44.47
663.03	25.75
663.17	58.51
663.31	110.01
663.45	39.79
663.60	44.47
663.74	28.09
663.88	0.00
664.02	67.88
664.17	42.13
664.31	9.36
664.45	42.13
664.59	98.30
664.73	53.83
664.88	117.03
665.02	9.36
665.16	30.43
665.30	126.39
665.44	63.19
665.59	88.94
665.73	60.85
665.87	70.22
666.01	63.19
666.15	44.47
666.29	95.96
666.44	58.51
666.58	72.56
666.72	46.81
666.86	14.04
667.00	67.88
667.14	42.13
667.28	95.96
667.43	56.17
667.57	0.00
667.71	0.00
667.85	30.43
667.99	81.92
668.13	11.70
668.27	81.92
668.41	74.90
668.56	56.17
668.70	32.77
668.84	23.41
668.98	28.09
669.12	53.83
669.26	65.54
669.40	131.07
669.54	63.19
669.68	0.00
669.82	63.19
669.96	105.32
670.10	49.15
670.25	91.28
670.39	0.00
670.53	35.11
670.67	60.85
670.81	49.15
670.95	100.64
671.09	102.98
671.23	21.06
671.37	110.01
671.51	25.75
671.65	0.00
671.79	46.81
671.93	23.41
672.07	30.43
672.21	39.79
672.35	46.81
672.49	0.00
672.63	44.47
672.77	86.60
672.91	53.83
673.05	72.56
673.19	58.51
673.33	88.94
673.47	16.38
673.61	65.54
673.75	28.09
673.89	0.00
674.03	51.49
674.17	93.62
674.31	28.09
674.45	93.62
674.59	117.03
674.73	63.19
674.87	70.22
675.01	0.00
675.15	63.19
675.29	49.15
675.43	58.51
675.56	65.54
675.70	70.22
675.84	65.54
675.98	11.70
676.12	56.17
676.26	0.00
676.40	63.19
676.54	72.56
676.68	63.19
676.82	4.68
676.96	46.81
677.10	93.62
677.23	23.41
677.37	53.83
677.51	49.15
677.65	14.04
677.79	91.28
677.93	16.38
678.07	16.38
678.21	67.88
678.34	84.26
678.48	58.51
678.62	0.00
678.76	21.06
678.90	56.17
679.04	51.49
679.18	21.06
679.31	74.90
679.45	88.94
679.59	4.68
679.73	60.85
679.87	39.79
680.00	70.22
680.14	70.22
680.28	11.70
680.42	0.00
680.56	86.60
680.70	18.72
680.83	0.00
680.97	112.35
681.11	25.75
681.25	21.06
681.39	32.77
681.52	0.00
681.66	4.68
681.80	77.24
681.94	112.35
682.07	35.11
682.21	102.98
682.35	23.41
682.49	77.24
682.62	145.11
682.76	105.32
682.90	30.43
683.04	42.13
683.17	0.00
683.31	0.00
683.45	74.90
683.59	112.35
683.72	112.35
683.86	105.32
684.00	98.30
684.13	28.09
684.27	44.47
684.41	100.64
684.55	70.22
684.68	46.81
684.82	53.83
684.96	51.49
685.09	16.38
685.23	35.11
685.37	42.13
685.50	30.43
685.64	70.22
685.78	53.83
685.91	44.47
686.05	0.00
686.19	37.45
686.32	70.22
686.46	11.70
686.60	23.41
686.73	46.81
686.87	39.79
687.01	37.45
687.14	11.70
687.28	14.04
687.42	28.09
687.55	35.11
687.69	60.85
687.82	11.70
687.96	53.83
688.10	32.77
688.23	53.83
688.37	37.45
688.50	72.56
688.64	0.00
688.78	39.79
688.91	4.68
689.05	60.85
689.18	42.13
689.32	0.00
689.46	53.83
689.59	63.19
689.73	0.00
689.86	49.15
690.00	0.00
690.13	86.60
690.27	53.83
690.41	39.79
690.54	77.24
690.68	98.30
690.81	39.79
690.95	0.00
691.08	0.00
691.22	37.45
691.35	0.00
691.49	0.00
691.62	16.38
691.76	79.58
691.89	11.70
692.03	84.26
692.16	93.62
692.30	63.19
692.43	49.15
692.57	21.06
692.70	0.00
692.84	44.47
692.97	88.94
693.11	67.88
693.24	30.43
693.38	0.00
693.51	46.81
693.65	46.81
693.78	0.00
693.92	0.00
694.05	49.15
694.19	32.77
694.32	35.11
694.45	21.06
694.59	72.56
694.72	7.02
694.86	49.15
694.99	18.72
695.13	0.00
695.26	105.32
695.39	28.09
695.53	67.88
695.66	110.01
695.80	65.54
695.93	39.79
696.07	105.32
696.20	23.41
696.33	16.38
696.47	23.41
696.60	81.92
696.73	0.00
696.87	35.11
697.00	9.36
697.14	39.79
697.27	77.24
697.40	9.36
697.54	60.85
697.67	0.00
697.80	23.41
697.94	0.00
698.07	0.00
698.21	0.00
698.34	0.00
698.47	37.45
698.61	11.70
698.74	4.68
698.87	84.26
699.01	114.69
699.14	0.00
699.27	58.51
699.40	53.83
699.54	0.00
699.67	4.68
699.80	30.43
699.94	70.22
700.07	39.79
700.20	11.70
700.34	23.41
700.47	16.38
700.60	35.11
700.73	91.28
700.87	65.54
701.00	14.04
701.13	0.00
701.26	2.34
701.40	56.17
701.53	81.92
701.66	159.16
701.79	14.04
701.93	0.00
702.06	107.66
702.19	58.51
702.32	21.06
702.46	91.28
702.59	79.58
702.72	0.00
702.85	32.77
702.99	25.75
703.12	70.22
703.25	0.00
703.38	32.77
703.51	39.79
703.65	0.00
703.78	0.00
703.91	2.34
704.04	28.09
704.17	88.94
704.31	23.41
704.44	0.00
704.57	35.11
704.70	4.68
704.83	42.13
704.96	46.81
705.10	65.54
705.23	0.00
>>>>>End Processed Spectral Data<<<<<
