SpectraSuite Data File
++++++++++++++++++++++++++++++++++++
Date: Fri Oct 04 12:13:42 GMT-05:00 2013
User: price-jones
Dark Spectrum Present: No
Reference Spectrum Present: No
Number of Sampled Component Spectra: 1
Spectrometers: USB2+H05261
Integration Time (usec): 10000 (USB2+H05261)
Spectra Averaged: 1 (USB2+H05261)
Boxcar Smoothing: 0 (USB2+H05261)
Correct for Electrical Dark: No (USB2+H05261)
Strobe/Lamp Enabled: No (USB2+H05261)
Correct for Detector Non-linearity: No (USB2+H05261)
Correct for Stray Light: No (USB2+H05261)
Number of Pixels in Processed Spectrum: 2048
>>>>>Begin Processed Spectral Data<<<<<
365.73	0.00
365.92	0.00
366.12	0.00
366.32	0.00
366.52	0.00
366.72	0.00
366.91	0.00
367.11	0.00
367.31	0.00
367.51	0.00
367.70	0.00
367.90	0.00
368.10	0.00
368.30	0.00
368.49	0.00
368.69	0.00
368.89	0.00
369.09	0.00
369.28	0.00
369.48	0.00
369.68	0.00
369.87	0.00
370.07	0.00
370.27	0.00
370.47	0.00
370.66	0.00
370.86	0.00
371.06	0.00
371.25	0.00
371.45	0.00
371.65	0.00
371.84	0.00
372.04	0.00
372.24	0.00
372.44	0.00
372.63	16.38
372.83	0.00
373.03	56.17
373.22	0.00
373.42	79.58
373.62	9.36
373.81	93.62
374.01	25.75
374.21	79.58
374.40	74.90
374.60	21.06
374.79	70.22
374.99	126.39
375.19	7.02
375.38	0.00
375.58	21.06
375.78	4.68
375.97	119.37
376.17	49.15
376.37	37.45
376.56	0.00
376.76	7.02
376.95	23.41
377.15	21.06
377.35	49.15
377.54	21.06
377.74	79.58
377.93	25.75
378.13	0.00
378.33	14.04
378.52	0.00
378.72	0.00
378.91	35.11
379.11	49.15
379.31	23.41
379.50	16.38
379.70	0.00
379.89	42.13
380.09	0.00
380.28	9.36
380.48	16.38
380.68	46.81
380.87	28.09
381.07	9.36
381.26	0.00
381.46	51.49
381.65	30.43
381.85	0.00
382.04	28.09
382.24	30.43
382.43	18.72
382.63	23.41
382.83	11.70
383.02	23.41
383.22	16.38
383.41	53.83
383.61	74.90
383.80	0.00
384.00	42.13
384.19	0.00
384.39	51.49
384.58	0.00
384.78	16.38
384.97	0.00
385.17	46.81
385.36	44.47
385.56	25.75
385.75	0.00
385.95	42.13
386.14	53.83
386.34	86.60
386.53	77.24
386.72	0.00
386.92	37.45
387.11	35.11
387.31	0.00
387.50	70.22
387.70	39.79
387.89	23.41
388.09	0.00
388.28	0.00
388.48	0.00
388.67	30.43
388.86	9.36
389.06	0.00
389.25	49.15
389.45	0.00
389.64	21.06
389.84	0.00
390.03	42.13
390.22	35.11
390.42	67.88
390.61	9.36
390.81	0.00
391.00	60.85
391.19	0.00
391.39	0.00
391.58	37.45
391.78	0.00
391.97	44.47
392.16	0.00
392.36	84.26
392.55	81.92
392.75	63.19
392.94	70.22
393.13	30.43
393.33	30.43
393.52	65.54
393.71	86.60
393.91	23.41
394.10	0.00
394.29	42.13
394.49	32.77
394.68	11.70
394.88	0.00
395.07	44.47
395.26	0.00
395.46	63.19
395.65	4.68
395.84	70.22
396.04	25.75
396.23	65.54
396.42	30.43
396.62	79.58
396.81	77.24
397.00	0.00
397.19	30.43
397.39	16.38
397.58	11.70
397.77	9.36
397.97	21.06
398.16	42.13
398.35	86.60
398.55	28.09
398.74	63.19
398.93	0.00
399.12	35.11
399.32	65.54
399.51	25.75
399.70	37.45
399.90	25.75
400.09	9.36
400.28	70.22
400.47	0.00
400.67	0.00
400.86	72.56
401.05	44.47
401.24	4.68
401.44	18.72
401.63	39.79
401.82	53.83
402.01	56.17
402.21	18.72
402.40	58.51
402.59	121.71
402.78	74.90
402.97	0.00
403.17	53.83
403.36	14.04
403.55	4.68
403.74	77.24
403.93	65.54
404.13	44.47
404.32	51.49
404.51	32.77
404.70	30.43
404.89	51.49
405.09	42.13
405.28	70.22
405.47	39.79
405.66	51.49
405.85	44.47
406.05	11.70
406.24	21.06
406.43	49.15
406.62	32.77
406.81	51.49
407.00	95.96
407.20	63.19
407.39	28.09
407.58	28.09
407.77	46.81
407.96	18.72
408.15	11.70
408.34	67.88
408.54	63.19
408.73	42.13
408.92	74.90
409.11	0.00
409.30	21.06
409.49	53.83
409.68	51.49
409.87	35.11
410.07	32.77
410.26	0.00
410.45	42.13
410.64	79.58
410.83	77.24
411.02	63.19
411.21	35.11
411.40	51.49
411.59	49.15
411.78	0.00
411.98	32.77
412.17	25.75
412.36	2.34
412.55	0.00
412.74	67.88
412.93	0.00
413.12	28.09
413.31	53.83
413.50	0.00
413.69	70.22
413.88	2.34
414.07	0.00
414.26	9.36
414.45	84.26
414.64	58.51
414.83	42.13
415.02	93.62
415.22	72.56
415.41	46.81
415.60	0.00
415.79	72.56
415.98	18.72
416.17	95.96
416.36	63.19
416.55	63.19
416.74	11.70
416.93	16.38
417.12	23.41
417.31	11.70
417.50	56.17
417.69	0.00
417.88	32.77
418.07	16.38
418.26	42.13
418.45	25.75
418.64	58.51
418.83	53.83
419.02	65.54
419.21	77.24
419.39	14.04
419.58	100.64
419.77	91.28
419.96	39.79
420.15	0.00
420.34	14.04
420.53	77.24
420.72	70.22
420.91	37.45
421.10	4.68
421.29	18.72
421.48	51.49
421.67	51.49
421.86	56.17
422.05	9.36
422.24	72.56
422.43	0.00
422.61	4.68
422.80	53.83
422.99	44.47
423.18	23.41
423.37	0.00
423.56	0.00
423.75	70.22
423.94	0.00
424.13	114.69
424.32	21.06
424.50	35.11
424.69	0.00
424.88	91.28
425.07	16.38
425.26	84.26
425.45	63.19
425.64	77.24
425.83	46.81
426.01	21.06
426.20	0.00
426.39	32.77
426.58	79.58
426.77	63.19
426.96	60.85
427.15	0.00
427.33	0.00
427.52	14.04
427.71	0.00
427.90	42.13
428.09	0.00
428.28	81.92
428.46	53.83
428.65	21.06
428.84	44.47
429.03	77.24
429.22	53.83
429.40	107.66
429.59	91.28
429.78	72.56
429.97	21.06
430.16	23.41
430.34	58.51
430.53	60.85
430.72	39.79
430.91	63.19
431.10	107.66
431.28	95.96
431.47	77.24
431.66	37.45
431.85	60.85
432.03	0.00
432.22	9.36
432.41	28.09
432.60	102.98
432.79	67.88
432.97	7.02
433.16	23.41
433.35	14.04
433.54	81.92
433.72	42.13
433.91	63.19
434.10	0.00
434.28	16.38
434.47	95.96
434.66	4.68
434.85	60.85
435.03	135.75
435.22	63.19
435.41	35.11
435.59	133.41
435.78	39.79
435.97	102.98
436.16	44.47
436.34	67.88
436.53	63.19
436.72	25.75
436.90	42.13
437.09	56.17
437.28	32.77
437.46	65.54
437.65	74.90
437.84	77.24
438.02	88.94
438.21	100.64
438.40	102.98
438.58	0.00
438.77	60.85
438.96	23.41
439.14	32.77
439.33	121.71
439.52	58.51
439.70	11.70
439.89	23.41
440.08	72.56
440.26	21.06
440.45	77.24
440.63	67.88
440.82	124.05
441.01	67.88
441.19	58.51
441.38	100.64
441.57	25.75
441.75	74.90
441.94	0.00
442.12	7.02
442.31	60.85
442.50	63.19
442.68	84.26
442.87	65.54
443.05	49.15
443.24	37.45
443.43	51.49
443.61	44.47
443.80	28.09
443.98	70.22
444.17	14.04
444.35	58.51
444.54	0.00
444.73	39.79
444.91	35.11
445.10	93.62
445.28	37.45
445.47	46.81
445.65	23.41
445.84	11.70
446.02	63.19
446.21	86.60
446.39	32.77
446.58	4.68
446.77	14.04
446.95	51.49
447.14	74.90
447.32	131.07
447.51	35.11
447.69	49.15
447.88	88.94
448.06	46.81
448.25	86.60
448.43	60.85
448.62	18.72
448.80	107.66
448.99	25.75
449.17	35.11
449.36	9.36
449.54	51.49
449.73	30.43
449.91	63.19
450.10	70.22
450.28	53.83
450.46	23.41
450.65	25.75
450.83	39.79
451.02	98.30
451.20	37.45
451.39	63.19
451.57	67.88
451.76	49.15
451.94	98.30
452.13	67.88
452.31	91.28
452.49	58.51
452.68	42.13
452.86	84.26
453.05	77.24
453.23	133.41
453.42	74.90
453.60	21.06
453.78	39.79
453.97	119.37
454.15	79.58
454.34	53.83
454.52	60.85
454.70	51.49
454.89	77.24
455.07	56.17
455.26	23.41
455.44	46.81
455.62	72.56
455.81	114.69
455.99	49.15
456.17	16.38
456.36	60.85
456.54	9.36
456.73	102.98
456.91	100.64
457.09	28.09
457.28	98.30
457.46	56.17
457.64	112.35
457.83	11.70
458.01	0.00
458.19	51.49
458.38	28.09
458.56	46.81
458.74	53.83
458.93	32.77
459.11	51.49
459.29	100.64
459.48	0.00
459.66	117.03
459.84	53.83
460.03	35.11
460.21	53.83
460.39	88.94
460.57	70.22
460.76	46.81
460.94	72.56
461.12	86.60
461.31	25.75
461.49	105.32
461.67	67.88
461.85	0.00
462.04	58.51
462.22	98.30
462.40	114.69
462.59	42.13
462.77	72.56
462.95	77.24
463.13	44.47
463.32	0.00
463.50	46.81
463.68	72.56
463.86	56.17
464.05	102.98
464.23	119.37
464.41	0.00
464.59	100.64
464.78	51.49
464.96	138.09
465.14	58.51
465.32	81.92
465.50	2.34
465.69	100.64
465.87	102.98
466.05	72.56
466.23	51.49
466.41	42.13
466.60	95.96
466.78	23.41
466.96	44.47
467.14	65.54
467.32	72.56
467.51	30.43
467.69	91.28
467.87	102.98
468.05	14.04
468.23	14.04
468.41	72.56
468.60	81.92
468.78	81.92
468.96	65.54
469.14	23.41
469.32	88.94
469.50	0.00
469.69	11.70
469.87	0.00
470.05	0.00
470.23	74.90
470.41	86.60
470.59	25.75
470.77	18.72
470.95	0.00
471.14	32.77
471.32	65.54
471.50	79.58
471.68	105.32
471.86	44.47
472.04	72.56
472.22	93.62
472.40	112.35
472.58	86.60
472.77	77.24
472.95	86.60
473.13	32.77
473.31	37.45
473.49	14.04
473.67	49.15
473.85	65.54
474.03	44.47
474.21	42.13
474.39	39.79
474.57	114.69
474.75	74.90
474.93	28.09
475.12	30.43
475.30	105.32
475.48	37.45
475.66	0.00
475.84	0.00
476.02	77.24
476.20	79.58
476.38	2.34
476.56	100.64
476.74	4.68
476.92	79.58
477.10	49.15
477.28	39.79
477.46	42.13
477.64	11.70
477.82	21.06
478.00	30.43
478.18	49.15
478.36	60.85
478.54	67.88
478.72	56.17
478.90	56.17
479.08	51.49
479.26	14.04
479.44	60.85
479.62	100.64
479.80	98.30
479.98	79.58
480.16	23.41
480.34	112.35
480.52	49.15
480.70	65.54
480.88	58.51
481.06	49.15
481.24	93.62
481.41	44.47
481.59	65.54
481.77	49.15
481.95	0.00
482.13	145.11
482.31	72.56
482.49	14.04
482.67	74.90
482.85	100.64
483.03	77.24
483.21	93.62
483.39	88.94
483.57	93.62
483.74	79.58
483.92	11.70
484.10	91.28
484.28	49.15
484.46	117.03
484.64	14.04
484.82	63.19
485.00	18.72
485.18	93.62
485.35	65.54
485.53	60.85
485.71	105.32
485.89	102.98
486.07	102.98
486.25	77.24
486.43	79.58
486.61	30.43
486.78	88.94
486.96	58.51
487.14	77.24
487.32	46.81
487.50	0.00
487.68	42.13
487.85	119.37
488.03	0.00
488.21	100.64
488.39	107.66
488.57	60.85
488.75	30.43
488.92	95.96
489.10	77.24
489.28	114.69
489.46	51.49
489.64	88.94
489.81	49.15
489.99	161.50
490.17	37.45
490.35	42.13
490.53	11.70
490.70	86.60
490.88	0.00
491.06	112.35
491.24	110.01
491.41	53.83
491.59	58.51
491.77	32.77
491.95	70.22
492.13	107.66
492.30	67.88
492.48	60.85
492.66	65.54
492.84	93.62
493.01	105.32
493.19	39.79
493.37	77.24
493.54	32.77
493.72	49.15
493.90	72.56
494.08	51.49
494.25	126.39
494.43	79.58
494.61	81.92
494.79	86.60
494.96	133.41
495.14	154.48
495.32	98.30
495.49	86.60
495.67	30.43
495.85	149.79
496.02	56.17
496.20	91.28
496.38	11.70
496.55	91.28
496.73	91.28
496.91	126.39
497.09	23.41
497.26	77.24
497.44	70.22
497.62	102.98
497.79	63.19
497.97	58.51
498.14	60.85
498.32	72.56
498.50	98.30
498.67	51.49
498.85	133.41
499.03	135.75
499.20	133.41
499.38	53.83
499.56	46.81
499.73	128.73
499.91	11.70
500.08	107.66
500.26	100.64
500.44	84.26
500.61	11.70
500.79	30.43
500.97	4.68
501.14	42.13
501.32	44.47
501.49	18.72
501.67	102.98
501.84	39.79
502.02	91.28
502.20	56.17
502.37	95.96
502.55	84.26
502.72	119.37
502.90	86.60
503.07	58.51
503.25	77.24
503.43	102.98
503.60	105.32
503.78	91.28
503.95	63.19
504.13	44.47
504.30	25.75
504.48	170.86
504.65	102.98
504.83	117.03
505.01	77.24
505.18	84.26
505.36	67.88
505.53	37.45
505.71	112.35
505.88	140.43
506.06	67.88
506.23	131.07
506.41	91.28
506.58	98.30
506.76	77.24
506.93	60.85
507.11	110.01
507.28	102.98
507.46	67.88
507.63	60.85
507.81	105.32
507.98	105.32
508.16	51.49
508.33	77.24
508.50	60.85
508.68	63.19
508.85	23.41
509.03	70.22
509.20	42.13
509.38	121.71
509.55	79.58
509.73	53.83
509.90	84.26
510.08	37.45
510.25	65.54
510.42	0.00
510.60	72.56
510.77	74.90
510.95	81.92
511.12	117.03
511.30	100.64
511.47	147.45
511.64	58.51
511.82	98.30
511.99	147.45
512.17	86.60
512.34	51.49
512.51	63.19
512.69	0.00
512.86	51.49
513.04	81.92
513.21	74.90
513.38	105.32
513.56	84.26
513.73	63.19
513.90	91.28
514.08	86.60
514.25	77.24
514.43	51.49
514.60	56.17
514.77	117.03
514.95	98.30
515.12	70.22
515.29	152.13
515.47	51.49
515.64	107.66
515.81	88.94
515.99	100.64
516.16	124.05
516.33	25.75
516.51	88.94
516.68	93.62
516.85	168.52
517.03	72.56
517.20	70.22
517.37	2.34
517.54	140.43
517.72	65.54
517.89	81.92
518.06	44.47
518.24	112.35
518.41	53.83
518.58	205.97
518.75	21.06
518.93	128.73
519.10	0.00
519.27	49.15
519.45	175.54
519.62	131.07
519.79	28.09
519.96	60.85
520.14	84.26
520.31	30.43
520.48	65.54
520.65	74.90
520.83	63.19
521.00	95.96
521.17	128.73
521.34	107.66
521.52	42.13
521.69	23.41
521.86	126.39
522.03	77.24
522.20	114.69
522.38	60.85
522.55	140.43
522.72	42.13
522.89	51.49
523.07	58.51
523.24	105.32
523.41	51.49
523.58	28.09
523.75	49.15
523.92	49.15
524.10	79.58
524.27	32.77
524.44	60.85
524.61	28.09
524.78	67.88
524.96	112.35
525.13	100.64
525.30	98.30
525.47	119.37
525.64	56.17
525.81	51.49
525.98	98.30
526.16	81.92
526.33	32.77
526.50	175.54
526.67	63.19
526.84	44.47
527.01	119.37
527.18	88.94
527.36	42.13
527.53	100.64
527.70	16.38
527.87	56.17
528.04	53.83
528.21	112.35
528.38	112.35
528.55	110.01
528.72	126.39
528.89	23.41
529.07	112.35
529.24	86.60
529.41	25.75
529.58	79.58
529.75	35.11
529.92	102.98
530.09	105.32
530.26	95.96
530.43	70.22
530.60	128.73
530.77	84.26
530.94	70.22
531.11	70.22
531.28	93.62
531.46	112.35
531.63	154.48
531.80	107.66
531.97	105.32
532.14	102.98
532.31	72.56
532.48	102.98
532.65	77.24
532.82	44.47
532.99	37.45
533.16	25.75
533.33	37.45
533.50	51.49
533.67	79.58
533.84	53.83
534.01	114.69
534.18	79.58
534.35	121.71
534.52	145.11
534.69	98.30
534.86	53.83
535.03	107.66
535.20	53.83
535.37	53.83
535.54	88.94
535.71	147.45
535.88	110.01
536.05	35.11
536.22	23.41
536.38	18.72
536.55	67.88
536.72	58.51
536.89	156.82
537.06	11.70
537.23	72.56
537.40	107.66
537.57	124.05
537.74	67.88
537.91	100.64
538.08	25.75
538.25	86.60
538.42	37.45
538.59	56.17
538.75	110.01
538.92	51.49
539.09	53.83
539.26	53.83
539.43	30.43
539.60	42.13
539.77	168.52
539.94	98.30
540.11	121.71
540.28	100.64
540.44	25.75
540.61	70.22
540.78	105.32
540.95	67.88
541.12	2.34
541.29	58.51
541.46	60.85
541.62	7.02
541.79	110.01
541.96	46.81
542.13	60.85
542.30	65.54
542.47	105.32
542.63	60.85
542.80	63.19
542.97	77.24
543.14	42.13
543.31	121.71
543.48	163.84
543.64	100.64
543.81	63.19
543.98	23.41
544.15	147.45
544.32	135.75
544.48	79.58
544.65	105.32
544.82	84.26
544.99	37.45
545.16	135.75
545.32	49.15
545.49	114.69
545.66	65.54
545.83	0.00
546.00	46.81
546.16	117.03
546.33	63.19
546.50	58.51
546.67	117.03
546.83	161.50
547.00	91.28
547.17	110.01
547.34	65.54
547.50	105.32
547.67	156.82
547.84	67.88
548.00	49.15
548.17	98.30
548.34	11.70
548.51	161.50
548.67	86.60
548.84	58.51
549.01	58.51
549.18	145.11
549.34	119.37
549.51	44.47
549.68	51.49
549.84	149.79
550.01	72.56
550.18	161.50
550.34	84.26
550.51	98.30
550.68	93.62
550.84	49.15
551.01	42.13
551.18	112.35
551.34	117.03
551.51	77.24
551.68	102.98
551.84	77.24
552.01	105.32
552.18	86.60
552.34	77.24
552.51	0.00
552.68	147.45
552.84	72.56
553.01	91.28
553.18	56.17
553.34	25.75
553.51	149.79
553.67	70.22
553.84	86.60
554.01	112.35
554.17	102.98
554.34	77.24
554.51	140.43
554.67	95.96
554.84	95.96
555.00	112.35
555.17	67.88
555.33	119.37
555.50	93.62
555.67	145.11
555.83	51.49
556.00	124.05
556.16	51.49
556.33	124.05
556.50	102.98
556.66	51.49
556.83	72.56
556.99	126.39
557.16	88.94
557.32	77.24
557.49	128.73
557.65	72.56
557.82	72.56
557.98	100.64
558.15	86.60
558.32	124.05
558.48	81.92
558.65	46.81
558.81	51.49
558.98	98.30
559.14	91.28
559.31	124.05
559.47	138.09
559.64	60.85
559.80	84.26
559.97	72.56
560.13	23.41
560.30	39.79
560.46	65.54
560.63	124.05
560.79	28.09
560.96	105.32
561.12	51.49
561.29	74.90
561.45	110.01
561.61	28.09
561.78	28.09
561.94	18.72
562.11	46.81
562.27	30.43
562.44	91.28
562.60	112.35
562.77	37.45
562.93	95.96
563.10	86.60
563.26	21.06
563.42	102.98
563.59	100.64
563.75	70.22
563.92	70.22
564.08	95.96
564.24	81.92
564.41	119.37
564.57	105.32
564.74	112.35
564.90	145.11
565.07	112.35
565.23	72.56
565.39	105.32
565.56	81.92
565.72	88.94
565.88	0.00
566.05	98.30
566.21	21.06
566.38	98.30
566.54	65.54
566.70	72.56
566.87	74.90
567.03	84.26
567.19	102.98
567.36	114.69
567.52	30.43
567.68	53.83
567.85	98.30
568.01	95.96
568.17	107.66
568.34	70.22
568.50	63.19
568.66	77.24
568.83	124.05
568.99	105.32
569.15	79.58
569.32	58.51
569.48	88.94
569.64	0.00
569.81	28.09
569.97	77.24
570.13	107.66
570.30	81.92
570.46	110.01
570.62	149.79
570.78	30.43
570.95	74.90
571.11	102.98
571.27	72.56
571.43	30.43
571.60	81.92
571.76	70.22
571.92	51.49
572.09	107.66
572.25	39.79
572.41	58.51
572.57	98.30
572.74	77.24
572.90	77.24
573.06	72.56
573.22	91.28
573.38	86.60
573.55	72.56
573.71	65.54
573.87	88.94
574.03	21.06
574.20	0.00
574.36	88.94
574.52	30.43
574.68	60.85
574.84	0.00
575.01	100.64
575.17	98.30
575.33	74.90
575.49	37.45
575.65	79.58
575.82	91.28
575.98	145.11
576.14	142.77
576.30	37.45
576.46	79.58
576.62	110.01
576.79	110.01
576.95	49.15
577.11	56.17
577.27	74.90
577.43	0.00
577.59	161.50
577.75	53.83
577.92	65.54
578.08	81.92
578.24	100.64
578.40	65.54
578.56	91.28
578.72	72.56
578.88	67.88
579.04	56.17
579.21	102.98
579.37	77.24
579.53	93.62
579.69	39.79
579.85	39.79
580.01	84.26
580.17	105.32
580.33	53.83
580.49	0.00
580.65	60.85
580.82	18.72
580.98	93.62
581.14	131.07
581.30	114.69
581.46	102.98
581.62	65.54
581.78	86.60
581.94	124.05
582.10	49.15
582.26	93.62
582.42	79.58
582.58	51.49
582.74	100.64
582.90	107.66
583.06	39.79
583.22	60.85
583.38	107.66
583.54	79.58
583.70	65.54
583.86	49.15
584.02	70.22
584.18	65.54
584.34	128.73
584.50	107.66
584.66	74.90
584.82	126.39
584.98	98.30
585.14	86.60
585.30	124.05
585.46	42.13
585.62	86.60
585.78	37.45
585.94	53.83
586.10	133.41
586.26	112.35
586.42	25.75
586.58	100.64
586.74	65.54
586.90	105.32
587.06	72.56
587.22	112.35
587.38	147.45
587.54	46.81
587.70	39.79
587.86	163.84
588.02	131.07
588.18	53.83
588.34	88.94
588.49	131.07
588.65	63.19
588.81	32.77
588.97	44.47
589.13	84.26
589.29	60.85
589.45	23.41
589.61	88.94
589.77	7.02
589.93	44.47
590.08	28.09
590.24	23.41
590.40	84.26
590.56	105.32
590.72	102.98
590.88	107.66
591.04	56.17
591.20	95.96
591.35	37.45
591.51	79.58
591.67	74.90
591.83	128.73
591.99	131.07
592.15	102.98
592.31	7.02
592.46	58.51
592.62	154.48
592.78	124.05
592.94	84.26
593.10	0.00
593.26	42.13
593.41	95.96
593.57	112.35
593.73	93.62
593.89	91.28
594.05	60.85
594.20	39.79
594.36	138.09
594.52	84.26
594.68	14.04
594.84	46.81
594.99	51.49
595.15	131.07
595.31	56.17
595.47	39.79
595.62	93.62
595.78	42.13
595.94	49.15
596.10	126.39
596.25	4.68
596.41	105.32
596.57	42.13
596.73	42.13
596.88	65.54
597.04	79.58
597.20	16.38
597.36	72.56
597.51	105.32
597.67	16.38
597.83	63.19
597.99	72.56
598.14	128.73
598.30	58.51
598.46	21.06
598.61	70.22
598.77	56.17
598.93	81.92
599.09	79.58
599.24	42.13
599.40	0.00
599.56	140.43
599.71	124.05
599.87	102.98
600.03	0.00
600.18	77.24
600.34	86.60
600.50	58.51
600.65	60.85
600.81	9.36
600.97	177.88
601.12	46.81
601.28	32.77
601.44	63.19
601.59	65.54
601.75	93.62
601.91	77.24
602.06	25.75
602.22	128.73
602.37	63.19
602.53	32.77
602.69	74.90
602.84	0.00
603.00	0.00
603.16	0.00
603.31	222.35
603.47	58.51
603.62	28.09
603.78	58.51
603.94	114.69
604.09	25.75
604.25	49.15
604.40	81.92
604.56	53.83
604.71	74.90
604.87	119.37
605.03	91.28
605.18	74.90
605.34	14.04
605.49	81.92
605.65	98.30
605.80	46.81
605.96	63.19
606.12	65.54
606.27	70.22
606.43	32.77
606.58	105.32
606.74	32.77
606.89	2.34
607.05	79.58
607.20	39.79
607.36	79.58
607.51	63.19
607.67	28.09
607.82	18.72
607.98	112.35
608.13	32.77
608.29	42.13
608.44	49.15
608.60	23.41
608.75	53.83
608.91	74.90
609.06	114.69
609.22	70.22
609.37	70.22
609.53	58.51
609.68	56.17
609.84	65.54
609.99	81.92
610.15	56.17
610.30	70.22
610.46	44.47
610.61	58.51
610.76	70.22
610.92	58.51
611.07	91.28
611.23	128.73
611.38	51.49
611.54	60.85
611.69	124.05
611.84	84.26
612.00	79.58
612.15	100.64
612.31	93.62
612.46	98.30
612.62	30.43
612.77	91.28
612.92	0.00
613.08	84.26
613.23	32.77
613.39	35.11
613.54	49.15
613.69	91.28
613.85	121.71
614.00	72.56
614.15	60.85
614.31	53.83
614.46	53.83
614.62	88.94
614.77	70.22
614.92	49.15
615.08	46.81
615.23	98.30
615.38	18.72
615.54	124.05
615.69	63.19
615.84	42.13
616.00	147.45
616.15	107.66
616.30	74.90
616.46	95.96
616.61	121.71
616.76	138.09
616.92	63.19
617.07	102.98
617.22	44.47
617.37	98.30
617.53	77.24
617.68	67.88
617.83	21.06
617.99	56.17
618.14	63.19
618.29	98.30
618.45	84.26
618.60	46.81
618.75	4.68
618.90	86.60
619.06	119.37
619.21	56.17
619.36	86.60
619.51	81.92
619.67	53.83
619.82	42.13
619.97	56.17
620.12	28.09
620.28	91.28
620.43	0.00
620.58	72.56
620.73	93.62
620.89	39.79
621.04	74.90
621.19	42.13
621.34	114.69
621.49	60.85
621.65	105.32
621.80	107.66
621.95	72.56
622.10	63.19
622.25	58.51
622.41	16.38
622.56	37.45
622.71	35.11
622.86	163.84
623.01	81.92
623.16	79.58
623.32	84.26
623.47	124.05
623.62	0.00
623.77	72.56
623.92	107.66
624.07	65.54
624.23	51.49
624.38	131.07
624.53	49.15
624.68	98.30
624.83	23.41
624.98	93.62
625.13	58.51
625.29	114.69
625.44	42.13
625.59	63.19
625.74	67.88
625.89	70.22
626.04	51.49
626.19	21.06
626.34	114.69
626.49	79.58
626.65	135.75
626.80	46.81
626.95	77.24
627.10	18.72
627.25	72.56
627.40	91.28
627.55	135.75
627.70	14.04
627.85	44.47
628.00	100.64
628.15	0.00
628.30	39.79
628.45	81.92
628.60	65.54
628.76	65.54
628.91	67.88
629.06	67.88
629.21	117.03
629.36	72.56
629.51	77.24
629.66	4.68
629.81	32.77
629.96	67.88
630.11	16.38
630.26	42.13
630.41	51.49
630.56	88.94
630.71	140.43
630.86	58.51
631.01	35.11
631.16	74.90
631.31	114.69
631.46	49.15
631.61	42.13
631.76	147.45
631.91	21.06
632.06	46.81
632.21	107.66
632.36	119.37
632.51	58.51
632.66	25.75
632.81	44.47
632.96	39.79
633.10	119.37
633.25	16.38
633.40	63.19
633.55	51.49
633.70	44.47
633.85	63.19
634.00	49.15
634.15	32.77
634.30	84.26
634.45	112.35
634.60	51.49
634.75	74.90
634.90	79.58
635.05	11.70
635.19	56.17
635.34	49.15
635.49	110.01
635.64	23.41
635.79	30.43
635.94	9.36
636.09	63.19
636.24	37.45
636.39	105.32
636.53	100.64
636.68	67.88
636.83	25.75
636.98	110.01
637.13	46.81
637.28	114.69
637.43	67.88
637.57	86.60
637.72	4.68
637.87	93.62
638.02	70.22
638.17	25.75
638.32	74.90
638.46	112.35
638.61	84.26
638.76	77.24
638.91	74.90
639.06	14.04
639.20	98.30
639.35	42.13
639.50	100.64
639.65	16.38
639.80	102.98
639.94	11.70
640.09	86.60
640.24	35.11
640.39	18.72
640.54	49.15
640.68	28.09
640.83	135.75
640.98	0.00
641.13	21.06
641.27	2.34
641.42	72.56
641.57	119.37
641.72	138.09
641.86	63.19
642.01	51.49
642.16	67.88
642.31	60.85
642.45	44.47
642.60	25.75
642.75	0.00
642.90	37.45
643.04	105.32
643.19	14.04
643.34	4.68
643.48	91.28
643.63	86.60
643.78	42.13
643.93	60.85
644.07	95.96
644.22	128.73
644.37	91.28
644.51	63.19
644.66	28.09
644.81	72.56
644.95	14.04
645.10	4.68
645.25	65.54
645.39	32.77
645.54	0.00
645.69	79.58
645.83	46.81
645.98	114.69
646.13	58.51
646.27	25.75
646.42	7.02
646.57	42.13
646.71	60.85
646.86	79.58
647.00	58.51
647.15	44.47
647.30	21.06
647.44	0.00
647.59	14.04
647.74	110.01
647.88	18.72
648.03	63.19
648.17	18.72
648.32	60.85
648.47	88.94
648.61	63.19
648.76	58.51
648.90	49.15
649.05	95.96
649.20	117.03
649.34	18.72
649.49	0.00
649.63	65.54
649.78	79.58
649.92	0.00
650.07	32.77
650.21	79.58
650.36	95.96
650.51	107.66
650.65	65.54
650.80	58.51
650.94	0.00
651.09	0.00
651.23	25.75
651.38	35.11
651.52	63.19
651.67	32.77
651.81	39.79
651.96	44.47
652.10	67.88
652.25	88.94
652.39	32.77
652.54	49.15
652.68	42.13
652.83	79.58
652.97	81.92
653.12	28.09
653.26	30.43
653.41	0.00
653.55	0.00
653.70	0.00
653.84	39.79
653.99	39.79
654.13	77.24
654.27	56.17
654.42	95.96
654.56	28.09
654.71	72.56
654.85	51.49
655.00	23.41
655.14	14.04
655.29	49.15
655.43	91.28
655.57	0.00
655.72	16.38
655.86	16.38
656.01	58.51
656.15	112.35
656.30	51.49
656.44	56.17
656.58	37.45
656.73	56.17
656.87	93.62
657.01	42.13
657.16	28.09
657.30	65.54
657.45	102.98
657.59	128.73
657.73	105.32
657.88	35.11
658.02	23.41
658.16	65.54
658.31	70.22
658.45	112.35
658.60	44.47
658.74	63.19
658.88	70.22
659.03	4.68
659.17	100.64
659.31	102.98
659.46	44.47
659.60	107.66
659.74	91.28
659.89	16.38
660.03	39.79
660.17	95.96
660.32	100.64
660.46	46.81
660.60	32.77
660.74	56.17
660.89	32.77
661.03	67.88
661.17	49.15
661.32	16.38
661.46	11.70
661.60	65.54
661.74	70.22
661.89	49.15
662.03	30.43
662.17	93.62
662.31	14.04
662.46	88.94
662.60	102.98
662.74	25.75
662.88	0.00
663.03	0.00
663.17	30.43
663.31	88.94
663.45	25.75
663.60	65.54
663.74	14.04
663.88	30.43
664.02	23.41
664.17	60.85
664.31	39.79
664.45	25.75
664.59	46.81
664.73	100.64
664.88	9.36
665.02	93.62
665.16	128.73
665.30	67.88
665.44	44.47
665.59	42.13
665.73	39.79
665.87	86.60
666.01	44.47
666.15	72.56
666.29	77.24
666.44	105.32
666.58	100.64
666.72	46.81
666.86	51.49
667.00	0.00
667.14	0.00
667.28	49.15
667.43	51.49
667.57	28.09
667.71	95.96
667.85	95.96
667.99	60.85
668.13	0.00
668.27	42.13
668.41	63.19
668.56	102.98
668.70	0.00
668.84	7.02
668.98	0.00
669.12	42.13
669.26	0.00
669.40	0.00
669.54	25.75
669.68	35.11
669.82	0.00
669.96	77.24
670.10	2.34
670.25	4.68
670.39	70.22
670.53	25.75
670.67	51.49
670.81	51.49
670.95	70.22
671.09	74.90
671.23	42.13
671.37	11.70
671.51	25.75
671.65	32.77
671.79	117.03
671.93	32.77
672.07	77.24
672.21	51.49
672.35	35.11
672.49	0.00
672.63	95.96
672.77	70.22
672.91	70.22
673.05	124.05
673.19	42.13
673.33	60.85
673.47	18.72
673.61	67.88
673.75	70.22
673.89	91.28
674.03	81.92
674.17	25.75
674.31	65.54
674.45	60.85
674.59	11.70
674.73	56.17
674.87	18.72
675.01	32.77
675.15	16.38
675.29	86.60
675.43	32.77
675.56	65.54
675.70	65.54
675.84	102.98
675.98	117.03
676.12	0.00
676.26	77.24
676.40	88.94
676.54	16.38
676.68	0.00
676.82	30.43
676.96	0.00
677.10	51.49
677.23	74.90
677.37	102.98
677.51	84.26
677.65	102.98
677.79	46.81
677.93	58.51
678.07	88.94
678.21	119.37
678.34	58.51
678.48	14.04
678.62	23.41
678.76	4.68
678.90	56.17
679.04	67.88
679.18	7.02
679.31	18.72
679.45	91.28
679.59	0.00
679.73	79.58
679.87	105.32
680.00	65.54
680.14	95.96
680.28	86.60
680.42	0.00
680.56	140.43
680.70	102.98
680.83	0.00
680.97	56.17
681.11	53.83
681.25	56.17
681.39	56.17
681.52	11.70
681.66	14.04
681.80	86.60
681.94	28.09
682.07	7.02
682.21	0.00
682.35	28.09
682.49	46.81
682.62	46.81
682.76	77.24
682.90	28.09
683.04	35.11
683.17	30.43
683.31	53.83
683.45	98.30
683.59	25.75
683.72	60.85
683.86	65.54
684.00	51.49
684.13	53.83
684.27	63.19
684.41	35.11
684.55	79.58
684.68	0.00
684.82	60.85
684.96	86.60
685.09	67.88
685.23	37.45
685.37	7.02
685.50	7.02
685.64	63.19
685.78	0.00
685.91	16.38
686.05	0.00
686.19	93.62
686.32	39.79
686.46	28.09
686.60	70.22
686.73	18.72
686.87	39.79
687.01	74.90
687.14	0.00
687.28	0.00
687.42	35.11
687.55	28.09
687.69	53.83
687.82	7.02
687.96	107.66
688.10	23.41
688.23	51.49
688.37	86.60
688.50	11.70
688.64	37.45
688.78	56.17
688.91	53.83
689.05	42.13
689.18	21.06
689.32	25.75
689.46	18.72
689.59	4.68
689.73	35.11
689.86	65.54
690.00	100.64
690.13	28.09
690.27	32.77
690.41	77.24
690.54	81.92
690.68	70.22
690.81	28.09
690.95	107.66
691.08	65.54
691.22	49.15
691.35	0.00
691.49	114.69
691.62	37.45
691.76	9.36
691.89	35.11
692.03	28.09
692.16	102.98
692.30	42.13
692.43	58.51
692.57	28.09
692.70	88.94
692.84	63.19
692.97	23.41
693.11	7.02
693.24	2.34
693.38	60.85
693.51	60.85
693.65	14.04
693.78	84.26
693.92	11.70
694.05	9.36
694.19	49.15
694.32	70.22
694.45	23.41
694.59	67.88
694.72	49.15
694.86	58.51
694.99	81.92
695.13	35.11
695.26	0.00
695.39	7.02
695.53	102.98
695.66	56.17
695.80	79.58
695.93	0.00
696.07	28.09
696.20	7.02
696.33	23.41
696.47	88.94
696.60	74.90
696.73	91.28
696.87	16.38
697.00	21.06
697.14	105.32
697.27	0.00
697.40	21.06
697.54	114.69
697.67	49.15
697.80	70.22
697.94	0.00
698.07	23.41
698.21	4.68
698.34	0.00
698.47	35.11
698.61	65.54
698.74	37.45
698.87	28.09
699.01	91.28
699.14	0.00
699.27	9.36
699.40	30.43
699.54	11.70
699.67	44.47
699.80	0.00
699.94	0.00
700.07	0.00
700.20	7.02
700.34	56.17
700.47	4.68
700.60	0.00
700.73	0.00
700.87	16.38
701.00	39.79
701.13	9.36
701.26	51.49
701.40	81.92
701.53	0.00
701.66	16.38
701.79	35.11
701.93	16.38
702.06	7.02
702.19	53.83
702.32	95.96
702.46	0.00
702.59	7.02
702.72	86.60
702.85	18.72
702.99	107.66
703.12	77.24
703.25	63.19
703.38	46.81
703.51	0.00
703.65	74.90
703.78	0.00
703.91	0.00
704.04	95.96
704.17	79.58
704.31	14.04
704.44	0.00
704.57	88.94
704.70	0.00
704.83	44.47
704.96	105.32
705.10	77.24
705.23	0.00
>>>>>End Processed Spectral Data<<<<<
