SpectraSuite Data File
++++++++++++++++++++++++++++++++++++
Date: Fri Oct 04 12:13:35 GMT-05:00 2013
User: price-jones
Dark Spectrum Present: No
Reference Spectrum Present: No
Number of Sampled Component Spectra: 1
Spectrometers: USB2+H05261
Integration Time (usec): 10000 (USB2+H05261)
Spectra Averaged: 1 (USB2+H05261)
Boxcar Smoothing: 0 (USB2+H05261)
Correct for Electrical Dark: No (USB2+H05261)
Strobe/Lamp Enabled: No (USB2+H05261)
Correct for Detector Non-linearity: No (USB2+H05261)
Correct for Stray Light: No (USB2+H05261)
Number of Pixels in Processed Spectrum: 2048
>>>>>Begin Processed Spectral Data<<<<<
365.73	0.00
365.92	0.00
366.12	0.00
366.32	0.00
366.52	0.00
366.72	0.00
366.91	0.00
367.11	0.00
367.31	0.00
367.51	0.00
367.70	0.00
367.90	0.00
368.10	0.00
368.30	0.00
368.49	0.00
368.69	0.00
368.89	0.00
369.09	0.00
369.28	0.00
369.48	0.00
369.68	0.00
369.87	0.00
370.07	0.00
370.27	0.00
370.47	0.00
370.66	0.00
370.86	0.00
371.06	0.00
371.25	7.02
371.45	0.00
371.65	28.09
371.84	30.43
372.04	16.38
372.24	35.11
372.44	11.70
372.63	51.49
372.83	63.19
373.03	18.72
373.22	0.00
373.42	0.00
373.62	0.00
373.81	49.15
374.01	35.11
374.21	0.00
374.40	28.09
374.60	67.88
374.79	88.94
374.99	56.17
375.19	11.70
375.38	23.41
375.58	0.00
375.78	2.34
375.97	11.70
376.17	65.54
376.37	0.00
376.56	0.00
376.76	53.83
376.95	9.36
377.15	0.00
377.35	18.72
377.54	0.00
377.74	0.00
377.93	0.00
378.13	21.06
378.33	2.34
378.52	35.11
378.72	39.79
378.91	0.00
379.11	7.02
379.31	88.94
379.50	11.70
379.70	0.00
379.89	0.00
380.09	72.56
380.28	32.77
380.48	14.04
380.68	42.13
380.87	0.00
381.07	0.00
381.26	0.00
381.46	49.15
381.65	9.36
381.85	30.43
382.04	51.49
382.24	4.68
382.43	28.09
382.63	63.19
382.83	16.38
383.02	25.75
383.22	0.00
383.41	0.00
383.61	0.00
383.80	0.00
384.00	9.36
384.19	44.47
384.39	0.00
384.58	9.36
384.78	21.06
384.97	18.72
385.17	35.11
385.36	0.00
385.56	0.00
385.75	0.00
385.95	39.79
386.14	46.81
386.34	81.92
386.53	23.41
386.72	60.85
386.92	63.19
387.11	0.00
387.31	7.02
387.50	46.81
387.70	107.66
387.89	42.13
388.09	56.17
388.28	0.00
388.48	0.00
388.67	0.00
388.86	39.79
389.06	60.85
389.25	32.77
389.45	53.83
389.64	93.62
389.84	21.06
390.03	46.81
390.22	32.77
390.42	11.70
390.61	0.00
390.81	39.79
391.00	4.68
391.19	21.06
391.39	11.70
391.58	21.06
391.78	4.68
391.97	7.02
392.16	56.17
392.36	37.45
392.55	126.39
392.75	23.41
392.94	56.17
393.13	0.00
393.33	0.00
393.52	23.41
393.71	30.43
393.91	58.51
394.10	0.00
394.29	0.00
394.49	28.09
394.68	39.79
394.88	0.00
395.07	25.75
395.26	16.38
395.46	14.04
395.65	39.79
395.84	88.94
396.04	21.06
396.23	23.41
396.42	32.77
396.62	53.83
396.81	21.06
397.00	0.00
397.19	0.00
397.39	16.38
397.58	70.22
397.77	35.11
397.97	2.34
398.16	60.85
398.35	14.04
398.55	39.79
398.74	35.11
398.93	25.75
399.12	30.43
399.32	79.58
399.51	44.47
399.70	46.81
399.90	0.00
400.09	0.00
400.28	32.77
400.47	98.30
400.67	79.58
400.86	56.17
401.05	39.79
401.24	63.19
401.44	37.45
401.63	79.58
401.82	67.88
402.01	39.79
402.21	46.81
402.40	9.36
402.59	11.70
402.78	25.75
402.97	21.06
403.17	72.56
403.36	0.00
403.55	30.43
403.74	0.00
403.93	60.85
404.13	42.13
404.32	77.24
404.51	16.38
404.70	53.83
404.89	32.77
405.09	0.00
405.28	14.04
405.47	2.34
405.66	0.00
405.85	7.02
406.05	25.75
406.24	81.92
406.43	79.58
406.62	18.72
406.81	2.34
407.00	0.00
407.20	23.41
407.39	67.88
407.58	39.79
407.77	18.72
407.96	49.15
408.15	44.47
408.34	74.90
408.54	42.13
408.73	56.17
408.92	0.00
409.11	51.49
409.30	70.22
409.49	28.09
409.68	74.90
409.87	58.51
410.07	35.11
410.26	72.56
410.45	84.26
410.64	81.92
410.83	0.00
411.02	53.83
411.21	79.58
411.40	0.00
411.59	63.19
411.78	42.13
411.98	0.00
412.17	21.06
412.36	23.41
412.55	25.75
412.74	30.43
412.93	98.30
413.12	35.11
413.31	39.79
413.50	49.15
413.69	30.43
413.88	18.72
414.07	0.00
414.26	84.26
414.45	98.30
414.64	86.60
414.83	81.92
415.02	72.56
415.22	65.54
415.41	4.68
415.60	74.90
415.79	21.06
415.98	44.47
416.17	65.54
416.36	25.75
416.55	58.51
416.74	86.60
416.93	42.13
417.12	86.60
417.31	79.58
417.50	37.45
417.69	91.28
417.88	49.15
418.07	37.45
418.26	53.83
418.45	39.79
418.64	16.38
418.83	84.26
419.02	65.54
419.21	18.72
419.39	32.77
419.58	91.28
419.77	0.00
419.96	4.68
420.15	67.88
420.34	0.00
420.53	72.56
420.72	9.36
420.91	0.00
421.10	28.09
421.29	18.72
421.48	72.56
421.67	79.58
421.86	163.84
422.05	65.54
422.24	72.56
422.43	23.41
422.61	35.11
422.80	100.64
422.99	60.85
423.18	63.19
423.37	72.56
423.56	0.00
423.75	4.68
423.94	35.11
424.13	53.83
424.32	107.66
424.50	53.83
424.69	81.92
424.88	79.58
425.07	70.22
425.26	46.81
425.45	56.17
425.64	0.00
425.83	53.83
426.01	74.90
426.20	102.98
426.39	56.17
426.58	7.02
426.77	35.11
426.96	30.43
427.15	37.45
427.33	11.70
427.52	0.00
427.71	53.83
427.90	37.45
428.09	9.36
428.28	23.41
428.46	81.92
428.65	35.11
428.84	42.13
429.03	39.79
429.22	60.85
429.40	70.22
429.59	4.68
429.78	51.49
429.97	51.49
430.16	23.41
430.34	91.28
430.53	84.26
430.72	70.22
430.91	9.36
431.10	14.04
431.28	0.00
431.47	67.88
431.66	11.70
431.85	32.77
432.03	39.79
432.22	67.88
432.41	30.43
432.60	7.02
432.79	39.79
432.97	107.66
433.16	77.24
433.35	9.36
433.54	0.00
433.72	39.79
433.91	102.98
434.10	35.11
434.28	42.13
434.47	88.94
434.66	93.62
434.85	65.54
435.03	35.11
435.22	16.38
435.41	39.79
435.59	79.58
435.78	25.75
435.97	23.41
436.16	23.41
436.34	0.00
436.53	30.43
436.72	0.00
436.90	32.77
437.09	7.02
437.28	2.34
437.46	21.06
437.65	44.47
437.84	0.00
438.02	32.77
438.21	51.49
438.40	14.04
438.58	51.49
438.77	37.45
438.96	88.94
439.14	0.00
439.33	102.98
439.52	84.26
439.70	23.41
439.89	35.11
440.08	74.90
440.26	65.54
440.45	81.92
440.63	0.00
440.82	112.35
441.01	98.30
441.19	163.84
441.38	72.56
441.57	53.83
441.75	91.28
441.94	149.79
442.12	25.75
442.31	79.58
442.50	0.00
442.68	23.41
442.87	32.77
443.05	32.77
443.24	95.96
443.43	65.54
443.61	51.49
443.80	110.01
443.98	126.39
444.17	91.28
444.35	0.00
444.54	39.79
444.73	60.85
444.91	42.13
445.10	88.94
445.28	56.17
445.47	119.37
445.65	91.28
445.84	53.83
446.02	30.43
446.21	107.66
446.39	2.34
446.58	107.66
446.77	56.17
446.95	107.66
447.14	74.90
447.32	44.47
447.51	32.77
447.69	51.49
447.88	25.75
448.06	74.90
448.25	0.00
448.43	30.43
448.62	32.77
448.80	53.83
448.99	30.43
449.17	74.90
449.36	16.38
449.54	58.51
449.73	84.26
449.91	21.06
450.10	58.51
450.28	30.43
450.46	131.07
450.65	74.90
450.83	67.88
451.02	67.88
451.20	72.56
451.39	70.22
451.57	39.79
451.76	23.41
451.94	32.77
452.13	86.60
452.31	81.92
452.49	65.54
452.68	42.13
452.86	44.47
453.05	98.30
453.23	124.05
453.42	0.00
453.60	28.09
453.78	53.83
453.97	91.28
454.15	93.62
454.34	35.11
454.52	35.11
454.70	67.88
454.89	46.81
455.07	84.26
455.26	46.81
455.44	110.01
455.62	63.19
455.81	81.92
455.99	32.77
456.17	23.41
456.36	32.77
456.54	81.92
456.73	37.45
456.91	102.98
457.09	142.77
457.28	100.64
457.46	0.00
457.64	42.13
457.83	102.98
458.01	70.22
458.19	60.85
458.38	30.43
458.56	110.01
458.74	32.77
458.93	79.58
459.11	2.34
459.29	0.00
459.48	86.60
459.66	60.85
459.84	23.41
460.03	58.51
460.21	25.75
460.39	46.81
460.57	14.04
460.76	42.13
460.94	77.24
461.12	105.32
461.31	42.13
461.49	74.90
461.67	4.68
461.85	72.56
462.04	0.00
462.22	100.64
462.40	124.05
462.59	0.00
462.77	0.00
462.95	51.49
463.13	32.77
463.32	39.79
463.50	114.69
463.68	53.83
463.86	112.35
464.05	21.06
464.23	44.47
464.41	49.15
464.59	128.73
464.78	110.01
464.96	63.19
465.14	11.70
465.32	98.30
465.50	51.49
465.69	93.62
465.87	86.60
466.05	70.22
466.23	46.81
466.41	79.58
466.60	42.13
466.78	67.88
466.96	32.77
467.14	46.81
467.32	95.96
467.51	42.13
467.69	0.00
467.87	93.62
468.05	58.51
468.23	42.13
468.41	67.88
468.60	44.47
468.78	58.51
468.96	93.62
469.14	49.15
469.32	53.83
469.50	28.09
469.69	23.41
469.87	60.85
470.05	77.24
470.23	16.38
470.41	37.45
470.59	35.11
470.77	74.90
470.95	95.96
471.14	88.94
471.32	44.47
471.50	110.01
471.68	51.49
471.86	124.05
472.04	37.45
472.22	35.11
472.40	70.22
472.58	102.98
472.77	32.77
472.95	53.83
473.13	70.22
473.31	51.49
473.49	102.98
473.67	37.45
473.85	84.26
474.03	0.00
474.21	51.49
474.39	84.26
474.57	14.04
474.75	46.81
474.93	14.04
475.12	74.90
475.30	49.15
475.48	0.00
475.66	42.13
475.84	0.00
476.02	86.60
476.20	65.54
476.38	67.88
476.56	58.51
476.74	25.75
476.92	51.49
477.10	46.81
477.28	117.03
477.46	42.13
477.64	53.83
477.82	11.70
478.00	0.00
478.18	58.51
478.36	42.13
478.54	28.09
478.72	133.41
478.90	126.39
479.08	72.56
479.26	39.79
479.44	128.73
479.62	0.00
479.80	91.28
479.98	23.41
480.16	98.30
480.34	126.39
480.52	126.39
480.70	67.88
480.88	112.35
481.06	51.49
481.24	74.90
481.41	81.92
481.59	51.49
481.77	14.04
481.95	95.96
482.13	11.70
482.31	44.47
482.49	112.35
482.67	53.83
482.85	16.38
483.03	79.58
483.21	51.49
483.39	21.06
483.57	119.37
483.74	84.26
483.92	121.71
484.10	49.15
484.28	63.19
484.46	0.00
484.64	53.83
484.82	91.28
485.00	142.77
485.18	51.49
485.35	72.56
485.53	28.09
485.71	42.13
485.89	23.41
486.07	49.15
486.25	88.94
486.43	37.45
486.61	56.17
486.78	81.92
486.96	70.22
487.14	56.17
487.32	91.28
487.50	21.06
487.68	84.26
487.85	37.45
488.03	65.54
488.21	37.45
488.39	60.85
488.57	32.77
488.75	74.90
488.92	84.26
489.10	39.79
489.28	100.64
489.46	44.47
489.64	44.47
489.81	88.94
489.99	49.15
490.17	81.92
490.35	95.96
490.53	105.32
490.70	11.70
490.88	53.83
491.06	25.75
491.24	28.09
491.41	0.00
491.59	77.24
491.77	37.45
491.95	114.69
492.13	42.13
492.30	25.75
492.48	7.02
492.66	154.48
492.84	63.19
493.01	51.49
493.19	58.51
493.37	161.50
493.54	119.37
493.72	58.51
493.90	81.92
494.08	4.68
494.25	70.22
494.43	86.60
494.61	140.43
494.79	49.15
494.96	72.56
495.14	98.30
495.32	117.03
495.49	21.06
495.67	70.22
495.85	56.17
496.02	42.13
496.20	37.45
496.38	72.56
496.55	4.68
496.73	51.49
496.91	53.83
497.09	72.56
497.26	88.94
497.44	14.04
497.62	117.03
497.79	58.51
497.97	53.83
498.14	114.69
498.32	88.94
498.50	65.54
498.67	60.85
498.85	65.54
499.03	65.54
499.20	100.64
499.38	46.81
499.56	91.28
499.73	88.94
499.91	84.26
500.08	124.05
500.26	70.22
500.44	32.77
500.61	60.85
500.79	49.15
500.97	60.85
501.14	119.37
501.32	121.71
501.49	39.79
501.67	84.26
501.84	9.36
502.02	95.96
502.20	23.41
502.37	70.22
502.55	95.96
502.72	46.81
502.90	105.32
503.07	119.37
503.25	72.56
503.43	112.35
503.60	0.00
503.78	4.68
503.95	156.82
504.13	112.35
504.30	63.19
504.48	81.92
504.65	105.32
504.83	117.03
505.01	117.03
505.18	53.83
505.36	65.54
505.53	81.92
505.71	95.96
505.88	39.79
506.06	63.19
506.23	88.94
506.41	77.24
506.58	58.51
506.76	37.45
506.93	105.32
507.11	18.72
507.28	72.56
507.46	91.28
507.63	98.30
507.81	65.54
507.98	119.37
508.16	131.07
508.33	91.28
508.50	77.24
508.68	46.81
508.85	110.01
509.03	35.11
509.20	14.04
509.38	86.60
509.55	131.07
509.73	79.58
509.90	0.00
510.08	126.39
510.25	79.58
510.42	51.49
510.60	95.96
510.77	58.51
510.95	117.03
511.12	58.51
511.30	152.13
511.47	117.03
511.64	98.30
511.82	53.83
511.99	128.73
512.17	152.13
512.34	74.90
512.51	30.43
512.69	11.70
512.86	58.51
513.04	107.66
513.21	0.00
513.38	138.09
513.56	105.32
513.73	138.09
513.90	39.79
514.08	131.07
514.25	65.54
514.43	91.28
514.60	70.22
514.77	16.38
514.95	70.22
515.12	91.28
515.29	44.47
515.47	42.13
515.64	44.47
515.81	142.77
515.99	121.71
516.16	105.32
516.33	53.83
516.51	98.30
516.68	46.81
516.85	110.01
517.03	0.00
517.20	70.22
517.37	49.15
517.54	65.54
517.72	46.81
517.89	28.09
518.06	95.96
518.24	77.24
518.41	56.17
518.58	79.58
518.75	0.00
518.93	35.11
519.10	79.58
519.27	128.73
519.45	79.58
519.62	100.64
519.79	95.96
519.96	128.73
520.14	95.96
520.31	133.41
520.48	88.94
520.65	74.90
520.83	53.83
521.00	70.22
521.17	88.94
521.34	91.28
521.52	91.28
521.69	25.75
521.86	67.88
522.03	91.28
522.20	37.45
522.38	79.58
522.55	72.56
522.72	51.49
522.89	124.05
523.07	114.69
523.24	14.04
523.41	46.81
523.58	42.13
523.75	79.58
523.92	79.58
524.10	121.71
524.27	56.17
524.44	72.56
524.61	53.83
524.78	149.79
524.96	60.85
525.13	100.64
525.30	159.16
525.47	79.58
525.64	63.19
525.81	152.13
525.98	124.05
526.16	105.32
526.33	35.11
526.50	88.94
526.67	88.94
526.84	30.43
527.01	100.64
527.18	18.72
527.36	81.92
527.53	152.13
527.70	100.64
527.87	124.05
528.04	110.01
528.21	65.54
528.38	147.45
528.55	84.26
528.72	37.45
528.89	93.62
529.07	79.58
529.24	81.92
529.41	110.01
529.58	58.51
529.75	114.69
529.92	67.88
530.09	81.92
530.26	67.88
530.43	39.79
530.60	37.45
530.77	88.94
530.94	124.05
531.11	32.77
531.28	128.73
531.46	32.77
531.63	84.26
531.80	30.43
531.97	163.84
532.14	100.64
532.31	56.17
532.48	95.96
532.65	95.96
532.82	9.36
532.99	114.69
533.16	84.26
533.33	72.56
533.50	124.05
533.67	60.85
533.84	46.81
534.01	112.35
534.18	42.13
534.35	70.22
534.52	128.73
534.69	86.60
534.86	119.37
535.03	70.22
535.20	159.16
535.37	147.45
535.54	135.75
535.71	131.07
535.88	149.79
536.05	100.64
536.22	44.47
536.38	110.01
536.55	74.90
536.72	84.26
536.89	67.88
537.06	121.71
537.23	114.69
537.40	60.85
537.57	25.75
537.74	128.73
537.91	23.41
538.08	58.51
538.25	44.47
538.42	81.92
538.59	91.28
538.75	56.17
538.92	98.30
539.09	51.49
539.26	79.58
539.43	121.71
539.60	142.77
539.77	93.62
539.94	65.54
540.11	86.60
540.28	9.36
540.44	180.22
540.61	88.94
540.78	53.83
540.95	98.30
541.12	93.62
541.29	49.15
541.46	95.96
541.62	37.45
541.79	72.56
541.96	25.75
542.13	102.98
542.30	86.60
542.47	65.54
542.63	44.47
542.80	86.60
542.97	84.26
543.14	0.00
543.31	63.19
543.48	74.90
543.64	74.90
543.81	102.98
543.98	46.81
544.15	49.15
544.32	107.66
544.48	93.62
544.65	93.62
544.82	98.30
544.99	79.58
545.16	95.96
545.32	67.88
545.49	74.90
545.66	74.90
545.83	133.41
546.00	21.06
546.16	49.15
546.33	117.03
546.50	84.26
546.67	126.39
546.83	98.30
547.00	67.88
547.17	51.49
547.34	44.47
547.50	126.39
547.67	21.06
547.84	133.41
548.00	35.11
548.17	44.47
548.34	95.96
548.51	67.88
548.67	2.34
548.84	100.64
549.01	114.69
549.18	63.19
549.34	46.81
549.51	98.30
549.68	107.66
549.84	88.94
550.01	91.28
550.18	110.01
550.34	21.06
550.51	77.24
550.68	88.94
550.84	44.47
551.01	60.85
551.18	4.68
551.34	105.32
551.51	63.19
551.68	51.49
551.84	112.35
552.01	79.58
552.18	112.35
552.34	126.39
552.51	44.47
552.68	35.11
552.84	102.98
553.01	30.43
553.18	128.73
553.34	81.92
553.51	100.64
553.67	114.69
553.84	93.62
554.01	0.00
554.17	16.38
554.34	88.94
554.51	124.05
554.67	93.62
554.84	86.60
555.00	138.09
555.17	46.81
555.33	88.94
555.50	77.24
555.67	49.15
555.83	67.88
556.00	51.49
556.16	49.15
556.33	0.00
556.50	119.37
556.66	51.49
556.83	63.19
556.99	53.83
557.16	77.24
557.32	142.77
557.49	93.62
557.65	42.13
557.82	49.15
557.98	84.26
558.15	65.54
558.32	58.51
558.48	126.39
558.65	105.32
558.81	98.30
558.98	135.75
559.14	53.83
559.31	63.19
559.47	63.19
559.64	117.03
559.80	65.54
559.97	131.07
560.13	114.69
560.30	77.24
560.46	110.01
560.63	119.37
560.79	72.56
560.96	159.16
561.12	98.30
561.29	70.22
561.45	91.28
561.61	114.69
561.78	32.77
561.94	28.09
562.11	95.96
562.27	84.26
562.44	58.51
562.60	25.75
562.77	74.90
562.93	77.24
563.10	84.26
563.26	112.35
563.42	110.01
563.59	44.47
563.75	77.24
563.92	112.35
564.08	37.45
564.24	70.22
564.41	147.45
564.57	86.60
564.74	133.41
564.90	74.90
565.07	117.03
565.23	39.79
565.39	70.22
565.56	58.51
565.72	70.22
565.88	93.62
566.05	147.45
566.21	95.96
566.38	91.28
566.54	128.73
566.70	44.47
566.87	21.06
567.03	114.69
567.19	79.58
567.36	105.32
567.52	49.15
567.68	37.45
567.85	16.38
568.01	133.41
568.17	58.51
568.34	60.85
568.50	128.73
568.66	37.45
568.83	0.00
568.99	72.56
569.15	119.37
569.32	117.03
569.48	105.32
569.64	98.30
569.81	67.88
569.97	72.56
570.13	60.85
570.30	163.84
570.46	140.43
570.62	79.58
570.78	39.79
570.95	46.81
571.11	30.43
571.27	79.58
571.43	110.01
571.60	60.85
571.76	133.41
571.92	23.41
572.09	74.90
572.25	42.13
572.41	30.43
572.57	4.68
572.74	21.06
572.90	91.28
573.06	86.60
573.22	51.49
573.38	58.51
573.55	86.60
573.71	63.19
573.87	37.45
574.03	105.32
574.20	86.60
574.36	74.90
574.52	114.69
574.68	140.43
574.84	95.96
575.01	25.75
575.17	91.28
575.33	112.35
575.49	49.15
575.65	98.30
575.82	49.15
575.98	126.39
576.14	84.26
576.30	98.30
576.46	112.35
576.62	37.45
576.79	4.68
576.95	128.73
577.11	46.81
577.27	49.15
577.43	58.51
577.59	84.26
577.75	98.30
577.92	102.98
578.08	32.77
578.24	63.19
578.40	112.35
578.56	117.03
578.72	100.64
578.88	37.45
579.04	161.50
579.21	58.51
579.37	84.26
579.53	95.96
579.69	51.49
579.85	51.49
580.01	58.51
580.17	147.45
580.33	70.22
580.49	84.26
580.65	42.13
580.82	72.56
580.98	39.79
581.14	112.35
581.30	105.32
581.46	0.00
581.62	126.39
581.78	114.69
581.94	42.13
582.10	93.62
582.26	65.54
582.42	112.35
582.58	107.66
582.74	93.62
582.90	114.69
583.06	77.24
583.22	74.90
583.38	79.58
583.54	39.79
583.70	74.90
583.86	84.26
584.02	133.41
584.18	28.09
584.34	107.66
584.50	79.58
584.66	58.51
584.82	140.43
584.98	81.92
585.14	56.17
585.30	44.47
585.46	70.22
585.62	30.43
585.78	42.13
585.94	119.37
586.10	88.94
586.26	86.60
586.42	93.62
586.58	4.68
586.74	65.54
586.90	102.98
587.06	18.72
587.22	95.96
587.38	65.54
587.54	84.26
587.70	49.15
587.86	21.06
588.02	65.54
588.18	60.85
588.34	112.35
588.49	51.49
588.65	95.96
588.81	63.19
588.97	44.47
589.13	63.19
589.29	86.60
589.45	107.66
589.61	16.38
589.77	63.19
589.93	56.17
590.08	67.88
590.24	49.15
590.40	25.75
590.56	107.66
590.72	63.19
590.88	88.94
591.04	58.51
591.20	51.49
591.35	39.79
591.51	98.30
591.67	98.30
591.83	60.85
591.99	84.26
592.15	117.03
592.31	98.30
592.46	53.83
592.62	56.17
592.78	23.41
592.94	16.38
593.10	67.88
593.26	37.45
593.41	65.54
593.57	44.47
593.73	42.13
593.89	9.36
594.05	70.22
594.20	72.56
594.36	84.26
594.52	51.49
594.68	9.36
594.84	74.90
594.99	70.22
595.15	74.90
595.31	67.88
595.47	79.58
595.62	28.09
595.78	32.77
595.94	93.62
596.10	117.03
596.25	16.38
596.41	79.58
596.57	32.77
596.73	86.60
596.88	154.48
597.04	58.51
597.20	28.09
597.36	131.07
597.51	117.03
597.67	46.81
597.83	105.32
597.99	77.24
598.14	37.45
598.30	44.47
598.46	0.00
598.61	39.79
598.77	25.75
598.93	77.24
599.09	72.56
599.24	79.58
599.40	124.05
599.56	51.49
599.71	131.07
599.87	46.81
600.03	79.58
600.18	42.13
600.34	84.26
600.50	32.77
600.65	79.58
600.81	79.58
600.97	39.79
601.12	53.83
601.28	93.62
601.44	44.47
601.59	46.81
601.75	0.00
601.91	18.72
602.06	98.30
602.22	11.70
602.37	0.00
602.53	39.79
602.69	135.75
602.84	81.92
603.00	44.47
603.16	126.39
603.31	98.30
603.47	81.92
603.62	81.92
603.78	39.79
603.94	126.39
604.09	53.83
604.25	70.22
604.40	35.11
604.56	114.69
604.71	7.02
604.87	131.07
605.03	105.32
605.18	131.07
605.34	84.26
605.49	28.09
605.65	70.22
605.80	49.15
605.96	79.58
606.12	70.22
606.27	35.11
606.43	16.38
606.58	65.54
606.74	112.35
606.89	23.41
607.05	42.13
607.20	46.81
607.36	42.13
607.51	72.56
607.67	51.49
607.82	126.39
607.98	30.43
608.13	84.26
608.29	65.54
608.44	107.66
608.60	117.03
608.75	105.32
608.91	42.13
609.06	91.28
609.22	117.03
609.37	25.75
609.53	21.06
609.68	67.88
609.84	42.13
609.99	60.85
610.15	67.88
610.30	14.04
610.46	42.13
610.61	53.83
610.76	81.92
610.92	95.96
611.07	39.79
611.23	0.00
611.38	147.45
611.54	51.49
611.69	28.09
611.84	49.15
612.00	21.06
612.15	79.58
612.31	98.30
612.46	98.30
612.62	63.19
612.77	86.60
612.92	98.30
613.08	0.00
613.23	65.54
613.39	100.64
613.54	37.45
613.69	44.47
613.85	21.06
614.00	37.45
614.15	56.17
614.31	65.54
614.46	114.69
614.62	98.30
614.77	23.41
614.92	32.77
615.08	168.52
615.23	163.84
615.38	126.39
615.54	79.58
615.69	74.90
615.84	70.22
616.00	9.36
616.15	60.85
616.30	35.11
616.46	79.58
616.61	63.19
616.76	84.26
616.92	35.11
617.07	72.56
617.22	70.22
617.37	67.88
617.53	56.17
617.68	44.47
617.83	28.09
617.99	86.60
618.14	28.09
618.29	100.64
618.45	9.36
618.60	70.22
618.75	49.15
618.90	100.64
619.06	21.06
619.21	46.81
619.36	4.68
619.51	105.32
619.67	93.62
619.82	98.30
619.97	39.79
620.12	88.94
620.28	39.79
620.43	133.41
620.58	119.37
620.73	60.85
620.89	67.88
621.04	56.17
621.19	100.64
621.34	0.00
621.49	84.26
621.65	56.17
621.80	81.92
621.95	86.60
622.10	53.83
622.25	79.58
622.41	105.32
622.56	74.90
622.71	65.54
622.86	81.92
623.01	102.98
623.16	63.19
623.32	49.15
623.47	56.17
623.62	67.88
623.77	88.94
623.92	84.26
624.07	37.45
624.23	63.19
624.38	98.30
624.53	7.02
624.68	51.49
624.83	88.94
624.98	91.28
625.13	25.75
625.29	149.79
625.44	58.51
625.59	79.58
625.74	0.00
625.89	42.13
626.04	60.85
626.19	74.90
626.34	79.58
626.49	105.32
626.65	42.13
626.80	72.56
626.95	28.09
627.10	21.06
627.25	2.34
627.40	30.43
627.55	51.49
627.70	88.94
627.85	93.62
628.00	121.71
628.15	117.03
628.30	56.17
628.45	84.26
628.60	0.00
628.76	102.98
628.91	39.79
629.06	72.56
629.21	58.51
629.36	0.00
629.51	117.03
629.66	51.49
629.81	42.13
629.96	30.43
630.11	74.90
630.26	91.28
630.41	70.22
630.56	9.36
630.71	154.48
630.86	70.22
631.01	42.13
631.16	2.34
631.31	23.41
631.46	72.56
631.61	56.17
631.76	88.94
631.91	53.83
632.06	91.28
632.21	18.72
632.36	42.13
632.51	102.98
632.66	88.94
632.81	105.32
632.96	88.94
633.10	46.81
633.25	112.35
633.40	42.13
633.55	53.83
633.70	107.66
633.85	42.13
634.00	21.06
634.15	11.70
634.30	98.30
634.45	98.30
634.60	28.09
634.75	51.49
634.90	60.85
635.05	51.49
635.19	46.81
635.34	88.94
635.49	21.06
635.64	112.35
635.79	37.45
635.94	35.11
636.09	49.15
636.24	49.15
636.39	128.73
636.53	184.90
636.68	4.68
636.83	16.38
636.98	93.62
637.13	53.83
637.28	128.73
637.43	79.58
637.57	72.56
637.72	102.98
637.87	51.49
638.02	14.04
638.17	131.07
638.32	25.75
638.46	77.24
638.61	58.51
638.76	77.24
638.91	11.70
639.06	81.92
639.20	74.90
639.35	37.45
639.50	63.19
639.65	95.96
639.80	77.24
639.94	110.01
640.09	25.75
640.24	131.07
640.39	37.45
640.54	91.28
640.68	49.15
640.83	28.09
640.98	117.03
641.13	35.11
641.27	0.00
641.42	72.56
641.57	0.00
641.72	79.58
641.86	74.90
642.01	51.49
642.16	2.34
642.31	28.09
642.45	60.85
642.60	67.88
642.75	67.88
642.90	70.22
643.04	14.04
643.19	35.11
643.34	46.81
643.48	72.56
643.63	79.58
643.78	98.30
643.93	95.96
644.07	105.32
644.22	102.98
644.37	28.09
644.51	74.90
644.66	14.04
644.81	16.38
644.95	0.00
645.10	35.11
645.25	32.77
645.39	79.58
645.54	65.54
645.69	102.98
645.83	58.51
645.98	18.72
646.13	98.30
646.27	4.68
646.42	11.70
646.57	72.56
646.71	107.66
646.86	117.03
647.00	58.51
647.15	35.11
647.30	4.68
647.44	37.45
647.59	81.92
647.74	42.13
647.88	30.43
648.03	93.62
648.17	42.13
648.32	0.00
648.47	58.51
648.61	11.70
648.76	46.81
648.90	79.58
649.05	81.92
649.20	30.43
649.34	39.79
649.49	9.36
649.63	60.85
649.78	98.30
649.92	88.94
650.07	0.00
650.21	88.94
650.36	42.13
650.51	28.09
650.65	42.13
650.80	107.66
650.94	72.56
651.09	93.62
651.23	49.15
651.38	110.01
651.52	23.41
651.67	58.51
651.81	65.54
651.96	133.41
652.10	88.94
652.25	4.68
652.39	21.06
652.54	67.88
652.68	7.02
652.83	58.51
652.97	44.47
653.12	58.51
653.26	25.75
653.41	72.56
653.55	77.24
653.70	86.60
653.84	72.56
653.99	44.47
654.13	37.45
654.27	72.56
654.42	44.47
654.56	18.72
654.71	16.38
654.85	98.30
655.00	4.68
655.14	98.30
655.29	88.94
655.43	28.09
655.57	51.49
655.72	49.15
655.86	46.81
656.01	56.17
656.15	105.32
656.30	93.62
656.44	112.35
656.58	72.56
656.73	30.43
656.87	81.92
657.01	32.77
657.16	9.36
657.30	74.90
657.45	65.54
657.59	0.00
657.73	65.54
657.88	42.13
658.02	14.04
658.16	0.00
658.31	60.85
658.45	42.13
658.60	74.90
658.74	105.32
658.88	67.88
659.03	98.30
659.17	112.35
659.31	56.17
659.46	2.34
659.60	23.41
659.74	65.54
659.89	124.05
660.03	107.66
660.17	28.09
660.32	51.49
660.46	84.26
660.60	70.22
660.74	39.79
660.89	0.00
661.03	25.75
661.17	30.43
661.32	0.00
661.46	117.03
661.60	42.13
661.74	74.90
661.89	11.70
662.03	30.43
662.17	0.00
662.31	100.64
662.46	86.60
662.60	44.47
662.74	39.79
662.88	21.06
663.03	110.01
663.17	72.56
663.31	42.13
663.45	0.00
663.60	84.26
663.74	25.75
663.88	35.11
664.02	60.85
664.17	39.79
664.31	4.68
664.45	46.81
664.59	114.69
664.73	0.00
664.88	28.09
665.02	102.98
665.16	14.04
665.30	44.47
665.44	63.19
665.59	14.04
665.73	84.26
665.87	114.69
666.01	56.17
666.15	56.17
666.29	0.00
666.44	74.90
666.58	154.48
666.72	70.22
666.86	60.85
667.00	110.01
667.14	114.69
667.28	74.90
667.43	79.58
667.57	0.00
667.71	25.75
667.85	63.19
667.99	21.06
668.13	74.90
668.27	86.60
668.41	91.28
668.56	102.98
668.70	44.47
668.84	23.41
668.98	63.19
669.12	35.11
669.26	25.75
669.40	0.00
669.54	18.72
669.68	79.58
669.82	65.54
669.96	51.49
670.10	88.94
670.25	65.54
670.39	147.45
670.53	42.13
670.67	37.45
670.81	11.70
670.95	65.54
671.09	42.13
671.23	110.01
671.37	93.62
671.51	42.13
671.65	53.83
671.79	77.24
671.93	49.15
672.07	67.88
672.21	25.75
672.35	37.45
672.49	53.83
672.63	49.15
672.77	0.00
672.91	86.60
673.05	35.11
673.19	2.34
673.33	16.38
673.47	42.13
673.61	100.64
673.75	79.58
673.89	93.62
674.03	0.00
674.17	46.81
674.31	44.47
674.45	16.38
674.59	49.15
674.73	0.00
674.87	56.17
675.01	81.92
675.15	28.09
675.29	60.85
675.43	72.56
675.56	49.15
675.70	53.83
675.84	9.36
675.98	91.28
676.12	35.11
676.26	93.62
676.40	74.90
676.54	60.85
676.68	37.45
676.82	63.19
676.96	60.85
677.10	42.13
677.23	0.00
677.37	46.81
677.51	49.15
677.65	32.77
677.79	70.22
677.93	72.56
678.07	53.83
678.21	121.71
678.34	56.17
678.48	14.04
678.62	58.51
678.76	86.60
678.90	49.15
679.04	25.75
679.18	32.77
679.31	60.85
679.45	105.32
679.59	18.72
679.73	119.37
679.87	51.49
680.00	81.92
680.14	23.41
680.28	65.54
680.42	67.88
680.56	86.60
680.70	0.00
680.83	77.24
680.97	37.45
681.11	44.47
681.25	0.00
681.39	37.45
681.52	58.51
681.66	0.00
681.80	98.30
681.94	28.09
682.07	35.11
682.21	25.75
682.35	18.72
682.49	100.64
682.62	25.75
682.76	95.96
682.90	58.51
683.04	28.09
683.17	0.00
683.31	70.22
683.45	0.00
683.59	0.00
683.72	11.70
683.86	25.75
684.00	4.68
684.13	0.00
684.27	30.43
684.41	0.00
684.55	25.75
684.68	42.13
684.82	7.02
684.96	145.11
685.09	81.92
685.23	32.77
685.37	18.72
685.50	0.00
685.64	0.00
685.78	0.00
685.91	18.72
686.05	28.09
686.19	42.13
686.32	9.36
686.46	46.81
686.60	23.41
686.73	21.06
686.87	53.83
687.01	63.19
687.14	88.94
687.28	0.00
687.42	0.00
687.55	23.41
687.69	11.70
687.82	42.13
687.96	35.11
688.10	65.54
688.23	0.00
688.37	124.05
688.50	32.77
688.64	0.00
688.78	11.70
688.91	79.58
689.05	28.09
689.18	67.88
689.32	88.94
689.46	0.00
689.59	51.49
689.73	23.41
689.86	42.13
690.00	39.79
690.13	46.81
690.27	0.00
690.41	21.06
690.54	0.00
690.68	25.75
690.81	86.60
690.95	0.00
691.08	44.47
691.22	0.00
691.35	9.36
691.49	79.58
691.62	30.43
691.76	14.04
691.89	42.13
692.03	42.13
692.16	42.13
692.30	0.00
692.43	14.04
692.57	51.49
692.70	0.00
692.84	77.24
692.97	95.96
693.11	32.77
693.24	37.45
693.38	0.00
693.51	53.83
693.65	70.22
693.78	25.75
693.92	67.88
694.05	11.70
694.19	91.28
694.32	49.15
694.45	4.68
694.59	37.45
694.72	32.77
694.86	95.96
694.99	23.41
695.13	77.24
695.26	7.02
695.39	0.00
695.53	30.43
695.66	35.11
695.80	0.00
695.93	60.85
696.07	0.00
696.20	23.41
696.33	35.11
696.47	56.17
696.60	86.60
696.73	95.96
696.87	102.98
697.00	51.49
697.14	60.85
697.27	49.15
697.40	51.49
697.54	72.56
697.67	11.70
697.80	72.56
697.94	32.77
698.07	65.54
698.21	46.81
698.34	53.83
698.47	84.26
698.61	39.79
698.74	53.83
698.87	63.19
699.01	0.00
699.14	102.98
699.27	0.00
699.40	88.94
699.54	18.72
699.67	93.62
699.80	35.11
699.94	53.83
700.07	0.00
700.20	4.68
700.34	14.04
700.47	35.11
700.60	51.49
700.73	32.77
700.87	70.22
701.00	0.00
701.13	25.75
701.26	0.00
701.40	16.38
701.53	0.00
701.66	0.00
701.79	58.51
701.93	0.00
702.06	37.45
702.19	91.28
702.32	0.00
702.46	32.77
702.59	105.32
702.72	65.54
702.85	9.36
702.99	14.04
703.12	63.19
703.25	42.13
703.38	65.54
703.51	65.54
703.65	44.47
703.78	37.45
703.91	91.28
704.04	28.09
704.17	72.56
704.31	114.69
704.44	0.00
704.57	7.02
704.70	110.01
704.83	46.81
704.96	7.02
705.10	42.13
705.23	42.13
>>>>>End Processed Spectral Data<<<<<
