SpectraSuite Data File
++++++++++++++++++++++++++++++++++++
Date: Fri Oct 04 12:13:35 GMT-05:00 2013
User: price-jones
Dark Spectrum Present: No
Reference Spectrum Present: No
Number of Sampled Component Spectra: 1
Spectrometers: USB2+H05261
Integration Time (usec): 10000 (USB2+H05261)
Spectra Averaged: 1 (USB2+H05261)
Boxcar Smoothing: 0 (USB2+H05261)
Correct for Electrical Dark: No (USB2+H05261)
Strobe/Lamp Enabled: No (USB2+H05261)
Correct for Detector Non-linearity: No (USB2+H05261)
Correct for Stray Light: No (USB2+H05261)
Number of Pixels in Processed Spectrum: 2048
>>>>>Begin Processed Spectral Data<<<<<
365.73	70.22
365.92	70.22
366.12	70.22
366.32	0.00
366.52	0.00
366.72	0.00
366.91	0.00
367.11	0.00
367.31	0.00
367.51	0.00
367.70	0.00
367.90	0.00
368.10	0.00
368.30	0.00
368.49	0.00
368.69	0.00
368.89	0.00
369.09	0.00
369.28	0.00
369.48	0.00
369.68	0.00
369.87	0.00
370.07	0.00
370.27	0.00
370.47	0.00
370.66	0.00
370.86	21.06
371.06	0.00
371.25	0.00
371.45	0.00
371.65	49.15
371.84	9.36
372.04	0.00
372.24	39.79
372.44	0.00
372.63	32.77
372.83	2.34
373.03	67.88
373.22	44.47
373.42	4.68
373.62	35.11
373.81	35.11
374.01	95.96
374.21	7.02
374.40	46.81
374.60	77.24
374.79	60.85
374.99	21.06
375.19	0.00
375.38	49.15
375.58	2.34
375.78	0.00
375.97	32.77
376.17	0.00
376.37	28.09
376.56	46.81
376.76	65.54
376.95	46.81
377.15	0.00
377.35	79.58
377.54	23.41
377.74	0.00
377.93	0.00
378.13	0.00
378.33	49.15
378.52	0.00
378.72	51.49
378.91	0.00
379.11	21.06
379.31	65.54
379.50	0.00
379.70	49.15
379.89	18.72
380.09	18.72
380.28	42.13
380.48	49.15
380.68	23.41
380.87	0.00
381.07	0.00
381.26	23.41
381.46	18.72
381.65	14.04
381.85	0.00
382.04	0.00
382.24	21.06
382.43	0.00
382.63	11.70
382.83	0.00
383.02	0.00
383.22	53.83
383.41	114.69
383.61	21.06
383.80	77.24
384.00	30.43
384.19	44.47
384.39	2.34
384.58	0.00
384.78	23.41
384.97	60.85
385.17	0.00
385.36	117.03
385.56	91.28
385.75	25.75
385.95	0.00
386.14	42.13
386.34	18.72
386.53	58.51
386.72	7.02
386.92	0.00
387.11	0.00
387.31	30.43
387.50	84.26
387.70	42.13
387.89	0.00
388.09	7.02
388.28	0.00
388.48	0.00
388.67	0.00
388.86	0.00
389.06	0.00
389.25	25.75
389.45	53.83
389.64	74.90
389.84	53.83
390.03	35.11
390.22	0.00
390.42	60.85
390.61	7.02
390.81	77.24
391.00	0.00
391.19	70.22
391.39	21.06
391.58	39.79
391.78	37.45
391.97	0.00
392.16	0.00
392.36	37.45
392.55	0.00
392.75	0.00
392.94	2.34
393.13	74.90
393.33	23.41
393.52	0.00
393.71	35.11
393.91	67.88
394.10	39.79
394.29	21.06
394.49	39.79
394.68	81.92
394.88	28.09
395.07	95.96
395.26	14.04
395.46	49.15
395.65	4.68
395.84	9.36
396.04	37.45
396.23	0.00
396.42	32.77
396.62	0.00
396.81	42.13
397.00	0.00
397.19	23.41
397.39	23.41
397.58	110.01
397.77	0.00
397.97	0.00
398.16	9.36
398.35	0.00
398.55	35.11
398.74	16.38
398.93	60.85
399.12	60.85
399.32	88.94
399.51	49.15
399.70	0.00
399.90	49.15
400.09	74.90
400.28	30.43
400.47	23.41
400.67	14.04
400.86	32.77
401.05	18.72
401.24	35.11
401.44	51.49
401.63	37.45
401.82	88.94
402.01	0.00
402.21	23.41
402.40	18.72
402.59	0.00
402.78	35.11
402.97	49.15
403.17	37.45
403.36	53.83
403.55	23.41
403.74	0.00
403.93	28.09
404.13	60.85
404.32	18.72
404.51	56.17
404.70	0.00
404.89	30.43
405.09	14.04
405.28	56.17
405.47	14.04
405.66	0.00
405.85	114.69
406.05	100.64
406.24	16.38
406.43	11.70
406.62	0.00
406.81	35.11
407.00	0.00
407.20	44.47
407.39	56.17
407.58	0.00
407.77	74.90
407.96	65.54
408.15	117.03
408.34	0.00
408.54	11.70
408.73	0.00
408.92	7.02
409.11	46.81
409.30	93.62
409.49	65.54
409.68	70.22
409.87	117.03
410.07	56.17
410.26	77.24
410.45	58.51
410.64	53.83
410.83	21.06
411.02	91.28
411.21	16.38
411.40	21.06
411.59	0.00
411.78	0.00
411.98	70.22
412.17	0.00
412.36	32.77
412.55	0.00
412.74	30.43
412.93	60.85
413.12	56.17
413.31	30.43
413.50	56.17
413.69	16.38
413.88	63.19
414.07	84.26
414.26	91.28
414.45	0.00
414.64	65.54
414.83	0.00
415.02	46.81
415.22	58.51
415.41	46.81
415.60	49.15
415.79	72.56
415.98	0.00
416.17	11.70
416.36	35.11
416.55	35.11
416.74	42.13
416.93	53.83
417.12	70.22
417.31	39.79
417.50	63.19
417.69	0.00
417.88	0.00
418.07	14.04
418.26	18.72
418.45	0.00
418.64	124.05
418.83	30.43
419.02	56.17
419.21	0.00
419.39	21.06
419.58	39.79
419.77	0.00
419.96	0.00
420.15	46.81
420.34	105.32
420.53	95.96
420.72	37.45
420.91	44.47
421.10	58.51
421.29	4.68
421.48	16.38
421.67	65.54
421.86	37.45
422.05	95.96
422.24	70.22
422.43	4.68
422.61	51.49
422.80	9.36
422.99	37.45
423.18	2.34
423.37	11.70
423.56	0.00
423.75	11.70
423.94	0.00
424.13	16.38
424.32	56.17
424.50	37.45
424.69	63.19
424.88	105.32
425.07	23.41
425.26	44.47
425.45	9.36
425.64	0.00
425.83	46.81
426.01	0.00
426.20	46.81
426.39	147.45
426.58	23.41
426.77	18.72
426.96	9.36
427.15	51.49
427.33	30.43
427.52	0.00
427.71	100.64
427.90	53.83
428.09	77.24
428.28	42.13
428.46	79.58
428.65	0.00
428.84	70.22
429.03	0.00
429.22	79.58
429.40	93.62
429.59	95.96
429.78	95.96
429.97	0.00
430.16	7.02
430.34	14.04
430.53	32.77
430.72	18.72
430.91	107.66
431.10	30.43
431.28	21.06
431.47	44.47
431.66	67.88
431.85	93.62
432.03	112.35
432.22	79.58
432.41	14.04
432.60	0.00
432.79	0.00
432.97	121.71
433.16	39.79
433.35	0.00
433.54	2.34
433.72	53.83
433.91	102.98
434.10	37.45
434.28	37.45
434.47	72.56
434.66	58.51
434.85	65.54
435.03	79.58
435.22	72.56
435.41	0.00
435.59	0.00
435.78	100.64
435.97	32.77
436.16	107.66
436.34	0.00
436.53	56.17
436.72	37.45
436.90	142.77
437.09	152.13
437.28	14.04
437.46	28.09
437.65	107.66
437.84	126.39
438.02	72.56
438.21	0.00
438.40	51.49
438.58	126.39
438.77	0.00
438.96	35.11
439.14	21.06
439.33	60.85
439.52	154.48
439.70	102.98
439.89	39.79
440.08	46.81
440.26	46.81
440.45	86.60
440.63	53.83
440.82	67.88
441.01	70.22
441.19	77.24
441.38	0.00
441.57	49.15
441.75	88.94
441.94	28.09
442.12	32.77
442.31	28.09
442.50	88.94
442.68	14.04
442.87	95.96
443.05	35.11
443.24	58.51
443.43	77.24
443.61	65.54
443.80	25.75
443.98	67.88
444.17	58.51
444.35	44.47
444.54	30.43
444.73	74.90
444.91	0.00
445.10	60.85
445.28	0.00
445.47	95.96
445.65	58.51
445.84	32.77
446.02	53.83
446.21	4.68
446.39	35.11
446.58	154.48
446.77	65.54
446.95	110.01
447.14	39.79
447.32	30.43
447.51	53.83
447.69	0.00
447.88	53.83
448.06	14.04
448.25	30.43
448.43	49.15
448.62	60.85
448.80	2.34
448.99	0.00
449.17	63.19
449.36	88.94
449.54	91.28
449.73	79.58
449.91	14.04
450.10	0.00
450.28	37.45
450.46	25.75
450.65	95.96
450.83	39.79
451.02	4.68
451.20	65.54
451.39	72.56
451.57	37.45
451.76	0.00
451.94	161.50
452.13	21.06
452.31	110.01
452.49	49.15
452.68	56.17
452.86	0.00
453.05	30.43
453.23	51.49
453.42	32.77
453.60	21.06
453.78	42.13
453.97	0.00
454.15	81.92
454.34	58.51
454.52	16.38
454.70	58.51
454.89	30.43
455.07	0.00
455.26	63.19
455.44	21.06
455.62	35.11
455.81	30.43
455.99	0.00
456.17	16.38
456.36	28.09
456.54	0.00
456.73	70.22
456.91	23.41
457.09	30.43
457.28	21.06
457.46	28.09
457.64	121.71
457.83	9.36
458.01	49.15
458.19	84.26
458.38	53.83
458.56	88.94
458.74	98.30
458.93	70.22
459.11	140.43
459.29	4.68
459.48	63.19
459.66	18.72
459.84	0.00
460.03	56.17
460.21	79.58
460.39	88.94
460.57	11.70
460.76	49.15
460.94	105.32
461.12	58.51
461.31	0.00
461.49	0.00
461.67	14.04
461.85	18.72
462.04	86.60
462.22	117.03
462.40	18.72
462.59	18.72
462.77	30.43
462.95	23.41
463.13	79.58
463.32	98.30
463.50	39.79
463.68	37.45
463.86	88.94
464.05	77.24
464.23	25.75
464.41	44.47
464.59	77.24
464.78	42.13
464.96	21.06
465.14	37.45
465.32	49.15
465.50	131.07
465.69	39.79
465.87	23.41
466.05	46.81
466.23	39.79
466.41	147.45
466.60	42.13
466.78	30.43
466.96	35.11
467.14	72.56
467.32	77.24
467.51	74.90
467.69	28.09
467.87	28.09
468.05	44.47
468.23	72.56
468.41	77.24
468.60	46.81
468.78	11.70
468.96	44.47
469.14	56.17
469.32	18.72
469.50	67.88
469.69	70.22
469.87	77.24
470.05	138.09
470.23	86.60
470.41	4.68
470.59	56.17
470.77	37.45
470.95	44.47
471.14	117.03
471.32	0.00
471.50	18.72
471.68	0.00
471.86	0.00
472.04	63.19
472.22	25.75
472.40	77.24
472.58	25.75
472.77	98.30
472.95	14.04
473.13	46.81
473.31	105.32
473.49	37.45
473.67	74.90
473.85	28.09
474.03	98.30
474.21	2.34
474.39	86.60
474.57	46.81
474.75	46.81
474.93	49.15
475.12	112.35
475.30	67.88
475.48	35.11
475.66	187.24
475.84	44.47
476.02	67.88
476.20	28.09
476.38	11.70
476.56	4.68
476.74	7.02
476.92	32.77
477.10	77.24
477.28	44.47
477.46	128.73
477.64	156.82
477.82	51.49
478.00	91.28
478.18	58.51
478.36	30.43
478.54	63.19
478.72	88.94
478.90	138.09
479.08	32.77
479.26	70.22
479.44	119.37
479.62	60.85
479.80	49.15
479.98	67.88
480.16	39.79
480.34	58.51
480.52	152.13
480.70	95.96
480.88	30.43
481.06	65.54
481.24	35.11
481.41	70.22
481.59	93.62
481.77	44.47
481.95	9.36
482.13	91.28
482.31	14.04
482.49	49.15
482.67	63.19
482.85	81.92
483.03	23.41
483.21	72.56
483.39	44.47
483.57	0.00
483.74	105.32
483.92	39.79
484.10	56.17
484.28	138.09
484.46	35.11
484.64	37.45
484.82	107.66
485.00	65.54
485.18	77.24
485.35	124.05
485.53	14.04
485.71	0.00
485.89	53.83
486.07	44.47
486.25	95.96
486.43	105.32
486.61	110.01
486.78	30.43
486.96	37.45
487.14	58.51
487.32	37.45
487.50	67.88
487.68	126.39
487.85	86.60
488.03	70.22
488.21	30.43
488.39	35.11
488.57	93.62
488.75	32.77
488.92	44.47
489.10	107.66
489.28	138.09
489.46	2.34
489.64	63.19
489.81	21.06
489.99	63.19
490.17	86.60
490.35	138.09
490.53	4.68
490.70	86.60
490.88	28.09
491.06	58.51
491.24	102.98
491.41	18.72
491.59	67.88
491.77	65.54
491.95	147.45
492.13	117.03
492.30	70.22
492.48	86.60
492.66	140.43
492.84	46.81
493.01	9.36
493.19	25.75
493.37	72.56
493.54	23.41
493.72	65.54
493.90	49.15
494.08	86.60
494.25	117.03
494.43	98.30
494.61	93.62
494.79	30.43
494.96	74.90
495.14	35.11
495.32	81.92
495.49	86.60
495.67	60.85
495.85	79.58
496.02	84.26
496.20	88.94
496.38	156.82
496.55	49.15
496.73	110.01
496.91	126.39
497.09	70.22
497.26	95.96
497.44	124.05
497.62	11.70
497.79	88.94
497.97	28.09
498.14	77.24
498.32	93.62
498.50	58.51
498.67	70.22
498.85	60.85
499.03	105.32
499.20	93.62
499.38	91.28
499.56	100.64
499.73	70.22
499.91	65.54
500.08	91.28
500.26	121.71
500.44	65.54
500.61	65.54
500.79	46.81
500.97	60.85
501.14	117.03
501.32	49.15
501.49	53.83
501.67	100.64
501.84	95.96
502.02	42.13
502.20	65.54
502.37	39.79
502.55	18.72
502.72	88.94
502.90	77.24
503.07	37.45
503.25	98.30
503.43	49.15
503.60	32.77
503.78	0.00
503.95	84.26
504.13	133.41
504.30	58.51
504.48	98.30
504.65	105.32
504.83	0.00
505.01	91.28
505.18	58.51
505.36	70.22
505.53	133.41
505.71	30.43
505.88	79.58
506.06	121.71
506.23	58.51
506.41	32.77
506.58	95.96
506.76	117.03
506.93	98.30
507.11	70.22
507.28	63.19
507.46	37.45
507.63	11.70
507.81	93.62
507.98	77.24
508.16	60.85
508.33	74.90
508.50	77.24
508.68	102.98
508.85	70.22
509.03	72.56
509.20	49.15
509.38	9.36
509.55	74.90
509.73	58.51
509.90	70.22
510.08	84.26
510.25	70.22
510.42	91.28
510.60	88.94
510.77	58.51
510.95	67.88
511.12	74.90
511.30	67.88
511.47	102.98
511.64	88.94
511.82	100.64
511.99	53.83
512.17	110.01
512.34	0.00
512.51	152.13
512.69	37.45
512.86	21.06
513.04	65.54
513.21	88.94
513.38	65.54
513.56	60.85
513.73	16.38
513.90	100.64
514.08	105.32
514.25	74.90
514.43	91.28
514.60	84.26
514.77	133.41
514.95	91.28
515.12	58.51
515.29	0.00
515.47	39.79
515.64	77.24
515.81	49.15
515.99	65.54
516.16	74.90
516.33	72.56
516.51	88.94
516.68	67.88
516.85	100.64
517.03	77.24
517.20	49.15
517.37	91.28
517.54	91.28
517.72	119.37
517.89	14.04
518.06	138.09
518.24	112.35
518.41	86.60
518.58	51.49
518.75	95.96
518.93	0.00
519.10	32.77
519.27	117.03
519.45	100.64
519.62	138.09
519.79	114.69
519.96	102.98
520.14	119.37
520.31	88.94
520.48	46.81
520.65	95.96
520.83	117.03
521.00	91.28
521.17	100.64
521.34	140.43
521.52	70.22
521.69	81.92
521.86	105.32
522.03	23.41
522.20	102.98
522.38	93.62
522.55	0.00
522.72	51.49
522.89	93.62
523.07	81.92
523.24	117.03
523.41	11.70
523.58	37.45
523.75	140.43
523.92	11.70
524.10	77.24
524.27	11.70
524.44	28.09
524.61	107.66
524.78	147.45
524.96	35.11
525.13	88.94
525.30	39.79
525.47	100.64
525.64	44.47
525.81	84.26
525.98	91.28
526.16	107.66
526.33	95.96
526.50	25.75
526.67	67.88
526.84	74.90
527.01	30.43
527.18	114.69
527.36	138.09
527.53	81.92
527.70	110.01
527.87	72.56
528.04	42.13
528.21	46.81
528.38	74.90
528.55	117.03
528.72	60.85
528.89	49.15
529.07	35.11
529.24	95.96
529.41	58.51
529.58	145.11
529.75	100.64
529.92	72.56
530.09	32.77
530.26	161.50
530.43	133.41
530.60	161.50
530.77	81.92
530.94	88.94
531.11	28.09
531.28	77.24
531.46	56.17
531.63	67.88
531.80	156.82
531.97	63.19
532.14	74.90
532.31	135.75
532.48	46.81
532.65	74.90
532.82	168.52
532.99	138.09
533.16	65.54
533.33	28.09
533.50	84.26
533.67	49.15
533.84	49.15
534.01	42.13
534.18	126.39
534.35	147.45
534.52	107.66
534.69	46.81
534.86	46.81
535.03	77.24
535.20	79.58
535.37	81.92
535.54	79.58
535.71	100.64
535.88	121.71
536.05	79.58
536.22	140.43
536.38	46.81
536.55	95.96
536.72	117.03
536.89	100.64
537.06	128.73
537.23	70.22
537.40	63.19
537.57	63.19
537.74	56.17
537.91	121.71
538.08	110.01
538.25	98.30
538.42	56.17
538.59	70.22
538.75	0.00
538.92	42.13
539.09	28.09
539.26	65.54
539.43	81.92
539.60	145.11
539.77	84.26
539.94	119.37
540.11	21.06
540.28	65.54
540.44	37.45
540.61	51.49
540.78	4.68
540.95	112.35
541.12	142.77
541.29	117.03
541.46	126.39
541.62	65.54
541.79	114.69
541.96	105.32
542.13	91.28
542.30	112.35
542.47	63.19
542.63	58.51
542.80	65.54
542.97	102.98
543.14	138.09
543.31	81.92
543.48	70.22
543.64	131.07
543.81	124.05
543.98	81.92
544.15	42.13
544.32	30.43
544.48	77.24
544.65	114.69
544.82	70.22
544.99	25.75
545.16	95.96
545.32	42.13
545.49	67.88
545.66	79.58
545.83	53.83
546.00	39.79
546.16	84.26
546.33	58.51
546.50	86.60
546.67	124.05
546.83	39.79
547.00	126.39
547.17	77.24
547.34	60.85
547.50	25.75
547.67	51.49
547.84	149.79
548.00	42.13
548.17	32.77
548.34	154.48
548.51	79.58
548.67	100.64
548.84	56.17
549.01	77.24
549.18	67.88
549.34	135.75
549.51	0.00
549.68	74.90
549.84	18.72
550.01	63.19
550.18	95.96
550.34	93.62
550.51	44.47
550.68	159.16
550.84	117.03
551.01	93.62
551.18	49.15
551.34	49.15
551.51	77.24
551.68	70.22
551.84	51.49
552.01	58.51
552.18	16.38
552.34	140.43
552.51	88.94
552.68	0.00
552.84	98.30
553.01	88.94
553.18	70.22
553.34	93.62
553.51	79.58
553.67	81.92
553.84	98.30
554.01	98.30
554.17	107.66
554.34	100.64
554.51	72.56
554.67	135.75
554.84	159.16
555.00	142.77
555.17	88.94
555.33	124.05
555.50	21.06
555.67	51.49
555.83	67.88
556.00	93.62
556.16	16.38
556.33	58.51
556.50	142.77
556.66	149.79
556.83	84.26
556.99	100.64
557.16	121.71
557.32	93.62
557.49	107.66
557.65	23.41
557.82	51.49
557.98	79.58
558.15	72.56
558.32	86.60
558.48	60.85
558.65	42.13
558.81	107.66
558.98	110.01
559.14	117.03
559.31	77.24
559.47	117.03
559.64	51.49
559.80	77.24
559.97	102.98
560.13	119.37
560.30	32.77
560.46	44.47
560.63	140.43
560.79	133.41
560.96	9.36
561.12	39.79
561.29	56.17
561.45	32.77
561.61	114.69
561.78	65.54
561.94	35.11
562.11	121.71
562.27	60.85
562.44	2.34
562.60	135.75
562.77	79.58
562.93	117.03
563.10	84.26
563.26	58.51
563.42	39.79
563.59	119.37
563.75	84.26
563.92	67.88
564.08	124.05
564.24	60.85
564.41	79.58
564.57	58.51
564.74	112.35
564.90	180.22
565.07	91.28
565.23	11.70
565.39	79.58
565.56	95.96
565.72	79.58
565.88	95.96
566.05	88.94
566.21	67.88
566.38	46.81
566.54	102.98
566.70	112.35
566.87	81.92
567.03	37.45
567.19	37.45
567.36	84.26
567.52	46.81
567.68	0.00
567.85	84.26
568.01	112.35
568.17	53.83
568.34	110.01
568.50	67.88
568.66	65.54
568.83	105.32
568.99	63.19
569.15	84.26
569.32	39.79
569.48	60.85
569.64	114.69
569.81	72.56
569.97	63.19
570.13	51.49
570.30	98.30
570.46	98.30
570.62	60.85
570.78	0.00
570.95	112.35
571.11	72.56
571.27	112.35
571.43	91.28
571.60	67.88
571.76	39.79
571.92	77.24
572.09	102.98
572.25	93.62
572.41	65.54
572.57	58.51
572.74	25.75
572.90	86.60
573.06	81.92
573.22	84.26
573.38	81.92
573.55	44.47
573.71	58.51
573.87	28.09
574.03	70.22
574.20	81.92
574.36	110.01
574.52	147.45
574.68	91.28
574.84	18.72
575.01	67.88
575.17	51.49
575.33	70.22
575.49	84.26
575.65	98.30
575.82	124.05
575.98	138.09
576.14	70.22
576.30	110.01
576.46	81.92
576.62	44.47
576.79	16.38
576.95	105.32
577.11	65.54
577.27	0.00
577.43	65.54
577.59	65.54
577.75	121.71
577.92	44.47
578.08	77.24
578.24	56.17
578.40	58.51
578.56	67.88
578.72	86.60
578.88	60.85
579.04	131.07
579.21	140.43
579.37	65.54
579.53	91.28
579.69	67.88
579.85	110.01
580.01	44.47
580.17	131.07
580.33	95.96
580.49	77.24
580.65	74.90
580.82	105.32
580.98	53.83
581.14	56.17
581.30	117.03
581.46	84.26
581.62	39.79
581.78	105.32
581.94	98.30
582.10	86.60
582.26	86.60
582.42	102.98
582.58	88.94
582.74	102.98
582.90	77.24
583.06	140.43
583.22	117.03
583.38	88.94
583.54	14.04
583.70	133.41
583.86	65.54
584.02	49.15
584.18	95.96
584.34	100.64
584.50	49.15
584.66	25.75
584.82	25.75
584.98	42.13
585.14	70.22
585.30	72.56
585.46	30.43
585.62	67.88
585.78	79.58
585.94	14.04
586.10	74.90
586.26	74.90
586.42	2.34
586.58	77.24
586.74	119.37
586.90	119.37
587.06	114.69
587.22	70.22
587.38	70.22
587.54	98.30
587.70	100.64
587.86	28.09
588.02	100.64
588.18	72.56
588.34	81.92
588.49	79.58
588.65	110.01
588.81	72.56
588.97	114.69
589.13	56.17
589.29	37.45
589.45	140.43
589.61	9.36
589.77	128.73
589.93	65.54
590.08	93.62
590.24	95.96
590.40	51.49
590.56	152.13
590.72	79.58
590.88	72.56
591.04	88.94
591.20	95.96
591.35	98.30
591.51	35.11
591.67	121.71
591.83	44.47
591.99	91.28
592.15	135.75
592.31	98.30
592.46	30.43
592.62	49.15
592.78	88.94
592.94	135.75
593.10	173.20
593.26	63.19
593.41	42.13
593.57	53.83
593.73	63.19
593.89	124.05
594.05	114.69
594.20	98.30
594.36	0.00
594.52	121.71
594.68	0.00
594.84	70.22
594.99	140.43
595.15	121.71
595.31	74.90
595.47	77.24
595.62	25.75
595.78	46.81
595.94	100.64
596.10	25.75
596.25	0.00
596.41	35.11
596.57	74.90
596.73	39.79
596.88	21.06
597.04	88.94
597.20	39.79
597.36	53.83
597.51	114.69
597.67	21.06
597.83	51.49
597.99	126.39
598.14	0.00
598.30	14.04
598.46	58.51
598.61	98.30
598.77	98.30
598.93	37.45
599.09	79.58
599.24	72.56
599.40	37.45
599.56	74.90
599.71	72.56
599.87	39.79
600.03	72.56
600.18	121.71
600.34	56.17
600.50	0.00
600.65	86.60
600.81	77.24
600.97	86.60
601.12	126.39
601.28	37.45
601.44	93.62
601.59	93.62
601.75	81.92
601.91	133.41
602.06	147.45
602.22	102.98
602.37	58.51
602.53	21.06
602.69	88.94
602.84	35.11
603.00	58.51
603.16	21.06
603.31	128.73
603.47	70.22
603.62	67.88
603.78	11.70
603.94	88.94
604.09	107.66
604.25	11.70
604.40	60.85
604.56	58.51
604.71	100.64
604.87	102.98
605.03	79.58
605.18	67.88
605.34	81.92
605.49	51.49
605.65	18.72
605.80	46.81
605.96	93.62
606.12	67.88
606.27	63.19
606.43	110.01
606.58	18.72
606.74	112.35
606.89	91.28
607.05	28.09
607.20	44.47
607.36	107.66
607.51	95.96
607.67	51.49
607.82	79.58
607.98	74.90
608.13	100.64
608.29	56.17
608.44	32.77
608.60	77.24
608.75	77.24
608.91	60.85
609.06	2.34
609.22	44.47
609.37	0.00
609.53	138.09
609.68	35.11
609.84	63.19
609.99	67.88
610.15	74.90
610.30	88.94
610.46	91.28
610.61	72.56
610.76	93.62
610.92	119.37
611.07	95.96
611.23	70.22
611.38	46.81
611.54	7.02
611.69	39.79
611.84	46.81
612.00	46.81
612.15	121.71
612.31	107.66
612.46	114.69
612.62	51.49
612.77	46.81
612.92	60.85
613.08	67.88
613.23	7.02
613.39	42.13
613.54	51.49
613.69	56.17
613.85	63.19
614.00	84.26
614.15	67.88
614.31	121.71
614.46	95.96
614.62	37.45
614.77	60.85
614.92	74.90
615.08	140.43
615.23	84.26
615.38	102.98
615.54	67.88
615.69	39.79
615.84	98.30
616.00	32.77
616.15	49.15
616.30	88.94
616.46	37.45
616.61	0.00
616.76	16.38
616.92	67.88
617.07	86.60
617.22	60.85
617.37	138.09
617.53	93.62
617.68	53.83
617.83	46.81
617.99	18.72
618.14	91.28
618.29	95.96
618.45	126.39
618.60	4.68
618.75	60.85
618.90	58.51
619.06	51.49
619.21	67.88
619.36	35.11
619.51	30.43
619.67	56.17
619.82	74.90
619.97	86.60
620.12	56.17
620.28	58.51
620.43	79.58
620.58	42.13
620.73	124.05
620.89	4.68
621.04	67.88
621.19	56.17
621.34	91.28
621.49	0.00
621.65	44.47
621.80	140.43
621.95	58.51
622.10	79.58
622.25	95.96
622.41	102.98
622.56	56.17
622.71	98.30
622.86	93.62
623.01	72.56
623.16	63.19
623.32	58.51
623.47	28.09
623.62	117.03
623.77	67.88
623.92	58.51
624.07	49.15
624.23	0.00
624.38	74.90
624.53	37.45
624.68	91.28
624.83	0.00
624.98	30.43
625.13	65.54
625.29	79.58
625.44	147.45
625.59	100.64
625.74	49.15
625.89	70.22
626.04	112.35
626.19	35.11
626.34	98.30
626.49	67.88
626.65	67.88
626.80	28.09
626.95	53.83
627.10	46.81
627.25	63.19
627.40	44.47
627.55	9.36
627.70	16.38
627.85	93.62
628.00	35.11
628.15	142.77
628.30	133.41
628.45	2.34
628.60	79.58
628.76	72.56
628.91	37.45
629.06	16.38
629.21	112.35
629.36	74.90
629.51	119.37
629.66	105.32
629.81	0.00
629.96	4.68
630.11	25.75
630.26	112.35
630.41	42.13
630.56	30.43
630.71	39.79
630.86	16.38
631.01	46.81
631.16	23.41
631.31	84.26
631.46	79.58
631.61	14.04
631.76	37.45
631.91	86.60
632.06	35.11
632.21	93.62
632.36	49.15
632.51	28.09
632.66	35.11
632.81	44.47
632.96	112.35
633.10	133.41
633.25	21.06
633.40	107.66
633.55	18.72
633.70	42.13
633.85	67.88
634.00	0.00
634.15	86.60
634.30	0.00
634.45	149.79
634.60	110.01
634.75	142.77
634.90	110.01
635.05	114.69
635.19	0.00
635.34	74.90
635.49	79.58
635.64	49.15
635.79	44.47
635.94	42.13
636.09	100.64
636.24	88.94
636.39	110.01
636.53	95.96
636.68	63.19
636.83	126.39
636.98	51.49
637.13	18.72
637.28	81.92
637.43	102.98
637.57	28.09
637.72	0.00
637.87	63.19
638.02	67.88
638.17	131.07
638.32	53.83
638.46	28.09
638.61	23.41
638.76	65.54
638.91	77.24
639.06	117.03
639.20	67.88
639.35	93.62
639.50	56.17
639.65	63.19
639.80	58.51
639.94	35.11
640.09	2.34
640.24	74.90
640.39	0.00
640.54	32.77
640.68	28.09
640.83	46.81
640.98	49.15
641.13	74.90
641.27	32.77
641.42	0.00
641.57	51.49
641.72	142.77
641.86	65.54
642.01	18.72
642.16	93.62
642.31	77.24
642.45	124.05
642.60	60.85
642.75	135.75
642.90	56.17
643.04	4.68
643.19	86.60
643.34	56.17
643.48	65.54
643.63	56.17
643.78	100.64
643.93	81.92
644.07	72.56
644.22	74.90
644.37	56.17
644.51	0.00
644.66	32.77
644.81	154.48
644.95	91.28
645.10	93.62
645.25	117.03
645.39	0.00
645.54	49.15
645.69	56.17
645.83	35.11
645.98	88.94
646.13	98.30
646.27	37.45
646.42	37.45
646.57	60.85
646.71	95.96
646.86	93.62
647.00	102.98
647.15	39.79
647.30	16.38
647.44	37.45
647.59	21.06
647.74	65.54
647.88	67.88
648.03	124.05
648.17	42.13
648.32	84.26
648.47	105.32
648.61	18.72
648.76	53.83
648.90	25.75
649.05	42.13
649.20	0.00
649.34	11.70
649.49	49.15
649.63	42.13
649.78	65.54
649.92	72.56
650.07	88.94
650.21	4.68
650.36	58.51
650.51	16.38
650.65	147.45
650.80	0.00
650.94	110.01
651.09	100.64
651.23	53.83
651.38	51.49
651.52	135.75
651.67	58.51
651.81	51.49
651.96	67.88
652.10	110.01
652.25	74.90
652.39	46.81
652.54	39.79
652.68	56.17
652.83	37.45
652.97	32.77
653.12	4.68
653.26	88.94
653.41	60.85
653.55	21.06
653.70	37.45
653.84	86.60
653.99	124.05
654.13	53.83
654.27	37.45
654.42	14.04
654.56	0.00
654.71	23.41
654.85	32.77
655.00	105.32
655.14	39.79
655.29	0.00
655.43	28.09
655.57	88.94
655.72	60.85
655.86	51.49
656.01	18.72
656.15	77.24
656.30	32.77
656.44	65.54
656.58	105.32
656.73	35.11
656.87	39.79
657.01	18.72
657.16	124.05
657.30	9.36
657.45	9.36
657.59	51.49
657.73	51.49
657.88	70.22
658.02	0.00
658.16	16.38
658.31	93.62
658.45	21.06
658.60	28.09
658.74	42.13
658.88	4.68
659.03	0.00
659.17	37.45
659.31	91.28
659.46	74.90
659.60	0.00
659.74	16.38
659.89	70.22
660.03	30.43
660.17	74.90
660.32	44.47
660.46	72.56
660.60	28.09
660.74	77.24
660.89	25.75
661.03	21.06
661.17	51.49
661.32	79.58
661.46	21.06
661.60	0.00
661.74	0.00
661.89	32.77
662.03	102.98
662.17	35.11
662.31	42.13
662.46	4.68
662.60	0.00
662.74	58.51
662.88	72.56
663.03	11.70
663.17	23.41
663.31	7.02
663.45	51.49
663.60	114.69
663.74	65.54
663.88	14.04
664.02	60.85
664.17	56.17
664.31	11.70
664.45	56.17
664.59	95.96
664.73	35.11
664.88	44.47
665.02	95.96
665.16	44.47
665.30	44.47
665.44	117.03
665.59	30.43
665.73	70.22
665.87	53.83
666.01	53.83
666.15	16.38
666.29	84.26
666.44	65.54
666.58	84.26
666.72	105.32
666.86	37.45
667.00	42.13
667.14	98.30
667.28	110.01
667.43	149.79
667.57	44.47
667.71	81.92
667.85	124.05
667.99	72.56
668.13	114.69
668.27	11.70
668.41	0.00
668.56	84.26
668.70	42.13
668.84	93.62
668.98	0.00
669.12	0.00
669.26	28.09
669.40	81.92
669.54	60.85
669.68	21.06
669.82	84.26
669.96	79.58
670.10	44.47
670.25	102.98
670.39	88.94
670.53	0.00
670.67	51.49
670.81	88.94
670.95	126.39
671.09	88.94
671.23	140.43
671.37	25.75
671.51	88.94
671.65	86.60
671.79	7.02
671.93	110.01
672.07	46.81
672.21	18.72
672.35	7.02
672.49	9.36
672.63	98.30
672.77	39.79
672.91	117.03
673.05	58.51
673.19	39.79
673.33	74.90
673.47	0.00
673.61	4.68
673.75	117.03
673.89	30.43
674.03	9.36
674.17	0.00
674.31	77.24
674.45	0.00
674.59	14.04
674.73	4.68
674.87	0.00
675.01	49.15
675.15	32.77
675.29	53.83
675.43	30.43
675.56	0.00
675.70	70.22
675.84	145.11
675.98	63.19
676.12	14.04
676.26	0.00
676.40	35.11
676.54	60.85
676.68	30.43
676.82	74.90
676.96	105.32
677.10	49.15
677.23	58.51
677.37	14.04
677.51	142.77
677.65	74.90
677.79	42.13
677.93	0.00
678.07	0.00
678.21	32.77
678.34	102.98
678.48	86.60
678.62	100.64
678.76	84.26
678.90	145.11
679.04	30.43
679.18	0.00
679.31	70.22
679.45	11.70
679.59	0.00
679.73	53.83
679.87	0.00
680.00	9.36
680.14	84.26
680.28	46.81
680.42	14.04
680.56	23.41
680.70	44.47
680.83	67.88
680.97	25.75
681.11	84.26
681.25	16.38
681.39	81.92
681.52	46.81
681.66	49.15
681.80	51.49
681.94	42.13
682.07	60.85
682.21	0.00
682.35	16.38
682.49	102.98
682.62	77.24
682.76	119.37
682.90	16.38
683.04	0.00
683.17	0.00
683.31	30.43
683.45	44.47
683.59	21.06
683.72	58.51
683.86	0.00
684.00	72.56
684.13	7.02
684.27	102.98
684.41	30.43
684.55	49.15
684.68	46.81
684.82	72.56
684.96	0.00
685.09	44.47
685.23	46.81
685.37	56.17
685.50	30.43
685.64	44.47
685.78	42.13
685.91	72.56
686.05	37.45
686.19	95.96
686.32	18.72
686.46	49.15
686.60	23.41
686.73	79.58
686.87	100.64
687.01	16.38
687.14	2.34
687.28	44.47
687.42	28.09
687.55	9.36
687.69	44.47
687.82	39.79
687.96	0.00
688.10	16.38
688.23	30.43
688.37	14.04
688.50	9.36
688.64	44.47
688.78	32.77
688.91	9.36
689.05	14.04
689.18	0.00
689.32	18.72
689.46	18.72
689.59	49.15
689.73	49.15
689.86	114.69
690.00	65.54
690.13	42.13
690.27	30.43
690.41	67.88
690.54	60.85
690.68	16.38
690.81	72.56
690.95	9.36
691.08	0.00
691.22	51.49
691.35	46.81
691.49	49.15
691.62	88.94
691.76	67.88
691.89	25.75
692.03	42.13
692.16	21.06
692.30	53.83
692.43	53.83
692.57	58.51
692.70	25.75
692.84	60.85
692.97	56.17
693.11	0.00
693.24	60.85
693.38	0.00
693.51	42.13
693.65	32.77
693.78	0.00
693.92	74.90
694.05	91.28
694.19	70.22
694.32	16.38
694.45	0.00
694.59	7.02
694.72	4.68
694.86	4.68
694.99	0.00
695.13	23.41
695.26	135.75
695.39	28.09
695.53	14.04
695.66	51.49
695.80	28.09
695.93	37.45
696.07	0.00
696.20	49.15
696.33	91.28
696.47	51.49
696.60	44.47
696.73	53.83
696.87	53.83
697.00	74.90
697.14	37.45
697.27	37.45
697.40	11.70
697.54	0.00
697.67	46.81
697.80	58.51
697.94	65.54
698.07	0.00
698.21	60.85
698.34	0.00
698.47	42.13
698.61	81.92
698.74	9.36
698.87	49.15
699.01	49.15
699.14	51.49
699.27	44.47
699.40	93.62
699.54	23.41
699.67	51.49
699.80	0.00
699.94	32.77
700.07	42.13
700.20	16.38
700.34	35.11
700.47	95.96
700.60	14.04
700.73	0.00
700.87	21.06
701.00	37.45
701.13	0.00
701.26	46.81
701.40	0.00
701.53	46.81
701.66	14.04
701.79	0.00
701.93	16.38
702.06	18.72
702.19	35.11
702.32	60.85
702.46	37.45
702.59	35.11
702.72	58.51
702.85	28.09
702.99	18.72
703.12	67.88
703.25	70.22
703.38	0.00
703.51	105.32
703.65	14.04
703.78	39.79
703.91	21.06
704.04	0.00
704.17	37.45
704.31	51.49
704.44	46.81
704.57	121.71
704.70	0.00
704.83	16.38
704.96	46.81
705.10	46.81
705.23	84.26
>>>>>End Processed Spectral Data<<<<<
