SpectraSuite Data File
++++++++++++++++++++++++++++++++++++
Date: Fri Oct 04 12:13:29 GMT-05:00 2013
User: price-jones
Dark Spectrum Present: No
Reference Spectrum Present: No
Number of Sampled Component Spectra: 1
Spectrometers: USB2+H05261
Integration Time (usec): 10000 (USB2+H05261)
Spectra Averaged: 1 (USB2+H05261)
Boxcar Smoothing: 0 (USB2+H05261)
Correct for Electrical Dark: No (USB2+H05261)
Strobe/Lamp Enabled: No (USB2+H05261)
Correct for Detector Non-linearity: No (USB2+H05261)
Correct for Stray Light: No (USB2+H05261)
Number of Pixels in Processed Spectrum: 2048
>>>>>Begin Processed Spectral Data<<<<<
365.73	23.41
365.92	23.41
366.12	23.41
366.32	0.00
366.52	0.00
366.72	0.00
366.91	0.00
367.11	0.00
367.31	0.00
367.51	0.00
367.70	0.00
367.90	0.00
368.10	0.00
368.30	0.00
368.49	0.00
368.69	0.00
368.89	0.00
369.09	0.00
369.28	0.00
369.48	0.00
369.68	0.00
369.87	0.00
370.07	0.00
370.27	0.00
370.47	0.00
370.66	0.00
370.86	0.00
371.06	0.00
371.25	0.00
371.45	18.72
371.65	25.75
371.84	4.68
372.04	0.00
372.24	0.00
372.44	0.00
372.63	0.00
372.83	0.00
373.03	16.38
373.22	21.06
373.42	0.00
373.62	16.38
373.81	16.38
374.01	16.38
374.21	49.15
374.40	72.56
374.60	18.72
374.79	0.00
374.99	30.43
375.19	91.28
375.38	42.13
375.58	86.60
375.78	0.00
375.97	51.49
376.17	70.22
376.37	9.36
376.56	49.15
376.76	9.36
376.95	91.28
377.15	93.62
377.35	42.13
377.54	49.15
377.74	105.32
377.93	74.90
378.13	4.68
378.33	2.34
378.52	0.00
378.72	37.45
378.91	0.00
379.11	21.06
379.31	9.36
379.50	14.04
379.70	18.72
379.89	0.00
380.09	0.00
380.28	32.77
380.48	0.00
380.68	0.00
380.87	39.79
381.07	37.45
381.26	60.85
381.46	4.68
381.65	60.85
381.85	88.94
382.04	14.04
382.24	0.00
382.43	0.00
382.63	4.68
382.83	0.00
383.02	63.19
383.22	23.41
383.41	0.00
383.61	0.00
383.80	60.85
384.00	37.45
384.19	14.04
384.39	0.00
384.58	14.04
384.78	72.56
384.97	0.00
385.17	11.70
385.36	0.00
385.56	14.04
385.75	7.02
385.95	18.72
386.14	91.28
386.34	0.00
386.53	9.36
386.72	0.00
386.92	0.00
387.11	0.00
387.31	16.38
387.50	0.00
387.70	23.41
387.89	2.34
388.09	51.49
388.28	0.00
388.48	60.85
388.67	0.00
388.86	0.00
389.06	28.09
389.25	11.70
389.45	0.00
389.64	30.43
389.84	56.17
390.03	16.38
390.22	0.00
390.42	0.00
390.61	32.77
390.81	7.02
391.00	0.00
391.19	44.47
391.39	42.13
391.58	81.92
391.78	0.00
391.97	77.24
392.16	4.68
392.36	11.70
392.55	30.43
392.75	18.72
392.94	18.72
393.13	23.41
393.33	0.00
393.52	35.11
393.71	14.04
393.91	9.36
394.10	39.79
394.29	102.98
394.49	60.85
394.68	21.06
394.88	28.09
395.07	0.00
395.26	79.58
395.46	4.68
395.65	9.36
395.84	0.00
396.04	0.00
396.23	91.28
396.42	0.00
396.62	39.79
396.81	0.00
397.00	25.75
397.19	91.28
397.39	0.00
397.58	0.00
397.77	23.41
397.97	16.38
398.16	0.00
398.35	4.68
398.55	42.13
398.74	37.45
398.93	11.70
399.12	46.81
399.32	0.00
399.51	102.98
399.70	77.24
399.90	56.17
400.09	42.13
400.28	39.79
400.47	100.64
400.67	86.60
400.86	0.00
401.05	18.72
401.24	39.79
401.44	0.00
401.63	46.81
401.82	37.45
402.01	4.68
402.21	0.00
402.40	21.06
402.59	25.75
402.78	51.49
402.97	67.88
403.17	16.38
403.36	35.11
403.55	28.09
403.74	0.00
403.93	0.00
404.13	0.00
404.32	16.38
404.51	0.00
404.70	11.70
404.89	0.00
405.09	7.02
405.28	0.00
405.47	18.72
405.66	63.19
405.85	49.15
406.05	14.04
406.24	46.81
406.43	32.77
406.62	58.51
406.81	91.28
407.00	16.38
407.20	23.41
407.39	60.85
407.58	0.00
407.77	0.00
407.96	16.38
408.15	42.13
408.34	0.00
408.54	74.90
408.73	18.72
408.92	25.75
409.11	53.83
409.30	56.17
409.49	0.00
409.68	58.51
409.87	4.68
410.07	30.43
410.26	51.49
410.45	14.04
410.64	18.72
410.83	0.00
411.02	0.00
411.21	0.00
411.40	0.00
411.59	60.85
411.78	0.00
411.98	0.00
412.17	72.56
412.36	0.00
412.55	37.45
412.74	110.01
412.93	9.36
413.12	28.09
413.31	56.17
413.50	51.49
413.69	51.49
413.88	44.47
414.07	0.00
414.26	21.06
414.45	70.22
414.64	18.72
414.83	100.64
415.02	58.51
415.22	81.92
415.41	53.83
415.60	91.28
415.79	53.83
415.98	91.28
416.17	56.17
416.36	16.38
416.55	14.04
416.74	23.41
416.93	112.35
417.12	91.28
417.31	0.00
417.50	56.17
417.69	0.00
417.88	25.75
418.07	67.88
418.26	46.81
418.45	0.00
418.64	46.81
418.83	0.00
419.02	105.32
419.21	56.17
419.39	60.85
419.58	18.72
419.77	44.47
419.96	56.17
420.15	0.00
420.34	9.36
420.53	72.56
420.72	0.00
420.91	49.15
421.10	30.43
421.29	42.13
421.48	0.00
421.67	32.77
421.86	32.77
422.05	28.09
422.24	11.70
422.43	49.15
422.61	30.43
422.80	21.06
422.99	58.51
423.18	0.00
423.37	0.00
423.56	37.45
423.75	95.96
423.94	42.13
424.13	7.02
424.32	65.54
424.50	46.81
424.69	37.45
424.88	0.00
425.07	77.24
425.26	0.00
425.45	42.13
425.64	0.00
425.83	100.64
426.01	65.54
426.20	11.70
426.39	0.00
426.58	0.00
426.77	117.03
426.96	44.47
427.15	79.58
427.33	0.00
427.52	67.88
427.71	4.68
427.90	0.00
428.09	44.47
428.28	53.83
428.46	53.83
428.65	0.00
428.84	46.81
429.03	7.02
429.22	42.13
429.40	0.00
429.59	37.45
429.78	9.36
429.97	7.02
430.16	0.00
430.34	28.09
430.53	0.00
430.72	0.00
430.91	9.36
431.10	14.04
431.28	0.00
431.47	18.72
431.66	35.11
431.85	0.00
432.03	74.90
432.22	30.43
432.41	0.00
432.60	35.11
432.79	63.19
432.97	30.43
433.16	0.00
433.35	86.60
433.54	65.54
433.72	46.81
433.91	37.45
434.10	98.30
434.28	35.11
434.47	35.11
434.66	63.19
434.85	16.38
435.03	67.88
435.22	28.09
435.41	0.00
435.59	0.00
435.78	77.24
435.97	11.70
436.16	0.00
436.34	39.79
436.53	0.00
436.72	161.50
436.90	65.54
437.09	93.62
437.28	70.22
437.46	44.47
437.65	46.81
437.84	21.06
438.02	42.13
438.21	88.94
438.40	7.02
438.58	21.06
438.77	23.41
438.96	0.00
439.14	37.45
439.33	67.88
439.52	46.81
439.70	11.70
439.89	32.77
440.08	49.15
440.26	51.49
440.45	63.19
440.63	60.85
440.82	0.00
441.01	9.36
441.19	4.68
441.38	21.06
441.57	58.51
441.75	46.81
441.94	0.00
442.12	67.88
442.31	0.00
442.50	4.68
442.68	16.38
442.87	44.47
443.05	28.09
443.24	53.83
443.43	21.06
443.61	28.09
443.80	28.09
443.98	100.64
444.17	39.79
444.35	93.62
444.54	42.13
444.73	35.11
444.91	11.70
445.10	63.19
445.28	0.00
445.47	67.88
445.65	49.15
445.84	0.00
446.02	25.75
446.21	159.16
446.39	88.94
446.58	11.70
446.77	49.15
446.95	0.00
447.14	35.11
447.32	35.11
447.51	0.00
447.69	0.00
447.88	25.75
448.06	60.85
448.25	30.43
448.43	28.09
448.62	9.36
448.80	79.58
448.99	58.51
449.17	86.60
449.36	21.06
449.54	21.06
449.73	46.81
449.91	30.43
450.10	2.34
450.28	46.81
450.46	58.51
450.65	21.06
450.83	0.00
451.02	98.30
451.20	42.13
451.39	53.83
451.57	0.00
451.76	58.51
451.94	11.70
452.13	46.81
452.31	32.77
452.49	16.38
452.68	35.11
452.86	28.09
453.05	84.26
453.23	65.54
453.42	0.00
453.60	25.75
453.78	44.47
453.97	28.09
454.15	14.04
454.34	93.62
454.52	30.43
454.70	0.00
454.89	32.77
455.07	32.77
455.26	9.36
455.44	46.81
455.62	0.00
455.81	53.83
455.99	105.32
456.17	30.43
456.36	2.34
456.54	4.68
456.73	35.11
456.91	0.00
457.09	9.36
457.28	4.68
457.46	44.47
457.64	23.41
457.83	39.79
458.01	58.51
458.19	39.79
458.38	49.15
458.56	58.51
458.74	30.43
458.93	25.75
459.11	56.17
459.29	0.00
459.48	0.00
459.66	49.15
459.84	21.06
460.03	81.92
460.21	79.58
460.39	23.41
460.57	46.81
460.76	30.43
460.94	42.13
461.12	0.00
461.31	86.60
461.49	63.19
461.67	110.01
461.85	79.58
462.04	2.34
462.22	110.01
462.40	46.81
462.59	39.79
462.77	100.64
462.95	65.54
463.13	35.11
463.32	105.32
463.50	74.90
463.68	7.02
463.86	56.17
464.05	23.41
464.23	42.13
464.41	0.00
464.59	35.11
464.78	7.02
464.96	39.79
465.14	30.43
465.32	0.00
465.50	0.00
465.69	60.85
465.87	9.36
466.05	58.51
466.23	0.00
466.41	88.94
466.60	21.06
466.78	91.28
466.96	16.38
467.14	21.06
467.32	0.00
467.51	7.02
467.69	9.36
467.87	70.22
468.05	0.00
468.23	58.51
468.41	100.64
468.60	110.01
468.78	0.00
468.96	32.77
469.14	39.79
469.32	25.75
469.50	32.77
469.69	72.56
469.87	35.11
470.05	63.19
470.23	49.15
470.41	25.75
470.59	0.00
470.77	63.19
470.95	42.13
471.14	42.13
471.32	58.51
471.50	46.81
471.68	65.54
471.86	81.92
472.04	79.58
472.22	100.64
472.40	58.51
472.58	35.11
472.77	25.75
472.95	56.17
473.13	53.83
473.31	0.00
473.49	23.41
473.67	35.11
473.85	39.79
474.03	105.32
474.21	79.58
474.39	100.64
474.57	100.64
474.75	14.04
474.93	63.19
475.12	0.00
475.30	0.00
475.48	0.00
475.66	37.45
475.84	25.75
476.02	81.92
476.20	88.94
476.38	159.16
476.56	18.72
476.74	35.11
476.92	67.88
477.10	0.00
477.28	14.04
477.46	0.00
477.64	60.85
477.82	23.41
478.00	21.06
478.18	63.19
478.36	70.22
478.54	37.45
478.72	79.58
478.90	0.00
479.08	79.58
479.26	39.79
479.44	0.00
479.62	32.77
479.80	25.75
479.98	23.41
480.16	16.38
480.34	32.77
480.52	44.47
480.70	63.19
480.88	25.75
481.06	14.04
481.24	7.02
481.41	46.81
481.59	42.13
481.77	84.26
481.95	0.00
482.13	37.45
482.31	93.62
482.49	32.77
482.67	145.11
482.85	0.00
483.03	0.00
483.21	42.13
483.39	28.09
483.57	25.75
483.74	11.70
483.92	77.24
484.10	23.41
484.28	37.45
484.46	0.00
484.64	14.04
484.82	37.45
485.00	0.00
485.18	0.00
485.35	0.00
485.53	86.60
485.71	0.00
485.89	0.00
486.07	30.43
486.25	42.13
486.43	58.51
486.61	25.75
486.78	51.49
486.96	65.54
487.14	63.19
487.32	35.11
487.50	74.90
487.68	42.13
487.85	23.41
488.03	51.49
488.21	60.85
488.39	79.58
488.57	93.62
488.75	0.00
488.92	93.62
489.10	30.43
489.28	32.77
489.46	79.58
489.64	30.43
489.81	23.41
489.99	60.85
490.17	25.75
490.35	112.35
490.53	32.77
490.70	126.39
490.88	37.45
491.06	0.00
491.24	72.56
491.41	0.00
491.59	7.02
491.77	7.02
491.95	102.98
492.13	35.11
492.30	30.43
492.48	32.77
492.66	7.02
492.84	51.49
493.01	74.90
493.19	91.28
493.37	72.56
493.54	72.56
493.72	67.88
493.90	58.51
494.08	39.79
494.25	131.07
494.43	131.07
494.61	21.06
494.79	56.17
494.96	46.81
495.14	100.64
495.32	79.58
495.49	86.60
495.67	60.85
495.85	0.00
496.02	35.11
496.20	25.75
496.38	63.19
496.55	42.13
496.73	23.41
496.91	86.60
497.09	72.56
497.26	58.51
497.44	14.04
497.62	70.22
497.79	16.38
497.97	74.90
498.14	95.96
498.32	60.85
498.50	0.00
498.67	51.49
498.85	44.47
499.03	49.15
499.20	18.72
499.38	0.00
499.56	0.00
499.73	35.11
499.91	30.43
500.08	0.00
500.26	51.49
500.44	51.49
500.61	128.73
500.79	32.77
500.97	49.15
501.14	28.09
501.32	88.94
501.49	74.90
501.67	56.17
501.84	49.15
502.02	70.22
502.20	32.77
502.37	39.79
502.55	46.81
502.72	86.60
502.90	0.00
503.07	67.88
503.25	0.00
503.43	0.00
503.60	112.35
503.78	28.09
503.95	81.92
504.13	21.06
504.30	102.98
504.48	70.22
504.65	46.81
504.83	72.56
505.01	46.81
505.18	42.13
505.36	0.00
505.53	91.28
505.71	9.36
505.88	46.81
506.06	0.00
506.23	91.28
506.41	14.04
506.58	9.36
506.76	44.47
506.93	2.34
507.11	86.60
507.28	81.92
507.46	65.54
507.63	63.19
507.81	0.00
507.98	67.88
508.16	60.85
508.33	56.17
508.50	51.49
508.68	39.79
508.85	0.00
509.03	42.13
509.20	67.88
509.38	65.54
509.55	32.77
509.73	65.54
509.90	107.66
510.08	42.13
510.25	21.06
510.42	11.70
510.60	77.24
510.77	102.98
510.95	9.36
511.12	25.75
511.30	81.92
511.47	37.45
511.64	2.34
511.82	0.00
511.99	11.70
512.17	23.41
512.34	32.77
512.51	39.79
512.69	0.00
512.86	93.62
513.04	30.43
513.21	63.19
513.38	67.88
513.56	0.00
513.73	0.00
513.90	14.04
514.08	0.00
514.25	28.09
514.43	49.15
514.60	51.49
514.77	93.62
514.95	81.92
515.12	28.09
515.29	0.00
515.47	0.00
515.64	67.88
515.81	67.88
515.99	77.24
516.16	56.17
516.33	98.30
516.51	23.41
516.68	0.00
516.85	0.00
517.03	86.60
517.20	100.64
517.37	37.45
517.54	56.17
517.72	72.56
517.89	42.13
518.06	65.54
518.24	42.13
518.41	0.00
518.58	79.58
518.75	42.13
518.93	35.11
519.10	18.72
519.27	16.38
519.45	37.45
519.62	114.69
519.79	56.17
519.96	0.00
520.14	100.64
520.31	28.09
520.48	46.81
520.65	0.00
520.83	0.00
521.00	21.06
521.17	25.75
521.34	25.75
521.52	46.81
521.69	4.68
521.86	28.09
522.03	11.70
522.20	44.47
522.38	23.41
522.55	100.64
522.72	21.06
522.89	79.58
523.07	102.98
523.24	65.54
523.41	39.79
523.58	56.17
523.75	98.30
523.92	0.00
524.10	14.04
524.27	114.69
524.44	11.70
524.61	39.79
524.78	30.43
524.96	88.94
525.13	102.98
525.30	74.90
525.47	35.11
525.64	74.90
525.81	16.38
525.98	32.77
526.16	0.00
526.33	53.83
526.50	63.19
526.67	14.04
526.84	161.50
527.01	0.00
527.18	0.00
527.36	79.58
527.53	60.85
527.70	16.38
527.87	32.77
528.04	16.38
528.21	81.92
528.38	84.26
528.55	39.79
528.72	2.34
528.89	100.64
529.07	70.22
529.24	37.45
529.41	51.49
529.58	70.22
529.75	67.88
529.92	23.41
530.09	60.85
530.26	9.36
530.43	84.26
530.60	30.43
530.77	56.17
530.94	46.81
531.11	14.04
531.28	4.68
531.46	0.00
531.63	7.02
531.80	4.68
531.97	107.66
532.14	0.00
532.31	0.00
532.48	65.54
532.65	81.92
532.82	0.00
532.99	98.30
533.16	56.17
533.33	63.19
533.50	25.75
533.67	23.41
533.84	112.35
534.01	81.92
534.18	91.28
534.35	21.06
534.52	60.85
534.69	21.06
534.86	58.51
535.03	72.56
535.20	51.49
535.37	119.37
535.54	63.19
535.71	53.83
535.88	110.01
536.05	23.41
536.22	51.49
536.38	53.83
536.55	51.49
536.72	98.30
536.89	79.58
537.06	39.79
537.23	67.88
537.40	35.11
537.57	23.41
537.74	42.13
537.91	42.13
538.08	0.00
538.25	32.77
538.42	21.06
538.59	105.32
538.75	0.00
538.92	46.81
539.09	37.45
539.26	86.60
539.43	28.09
539.60	46.81
539.77	58.51
539.94	32.77
540.11	81.92
540.28	58.51
540.44	28.09
540.61	65.54
540.78	0.00
540.95	30.43
541.12	65.54
541.29	56.17
541.46	46.81
541.62	4.68
541.79	60.85
541.96	100.64
542.13	21.06
542.30	0.00
542.47	117.03
542.63	84.26
542.80	91.28
542.97	56.17
543.14	42.13
543.31	21.06
543.48	74.90
543.64	91.28
543.81	44.47
543.98	79.58
544.15	56.17
544.32	7.02
544.48	74.90
544.65	70.22
544.82	30.43
544.99	30.43
545.16	28.09
545.32	23.41
545.49	44.47
545.66	70.22
545.83	74.90
546.00	81.92
546.16	107.66
546.33	114.69
546.50	0.00
546.67	100.64
546.83	81.92
547.00	46.81
547.17	37.45
547.34	112.35
547.50	72.56
547.67	21.06
547.84	0.00
548.00	53.83
548.17	44.47
548.34	21.06
548.51	84.26
548.67	91.28
548.84	28.09
549.01	51.49
549.18	81.92
549.34	42.13
549.51	18.72
549.68	42.13
549.84	25.75
550.01	74.90
550.18	74.90
550.34	84.26
550.51	42.13
550.68	25.75
550.84	7.02
551.01	124.05
551.18	63.19
551.34	91.28
551.51	7.02
551.68	105.32
551.84	60.85
552.01	2.34
552.18	39.79
552.34	18.72
552.51	0.00
552.68	46.81
552.84	0.00
553.01	37.45
553.18	74.90
553.34	53.83
553.51	65.54
553.67	0.00
553.84	14.04
554.01	81.92
554.17	18.72
554.34	70.22
554.51	67.88
554.67	18.72
554.84	0.00
555.00	44.47
555.17	72.56
555.33	35.11
555.50	16.38
555.67	42.13
555.83	67.88
556.00	0.00
556.16	51.49
556.33	9.36
556.50	32.77
556.66	60.85
556.83	102.98
556.99	11.70
557.16	16.38
557.32	70.22
557.49	35.11
557.65	0.00
557.82	51.49
557.98	14.04
558.15	0.00
558.32	95.96
558.48	46.81
558.65	46.81
558.81	67.88
558.98	49.15
559.14	51.49
559.31	44.47
559.47	0.00
559.64	56.17
559.80	53.83
559.97	91.28
560.13	88.94
560.30	16.38
560.46	39.79
560.63	60.85
560.79	51.49
560.96	86.60
561.12	58.51
561.29	39.79
561.45	42.13
561.61	4.68
561.78	88.94
561.94	32.77
562.11	4.68
562.27	0.00
562.44	84.26
562.60	25.75
562.77	98.30
562.93	30.43
563.10	56.17
563.26	79.58
563.42	35.11
563.59	42.13
563.75	74.90
563.92	14.04
564.08	112.35
564.24	107.66
564.41	79.58
564.57	58.51
564.74	79.58
564.90	11.70
565.07	60.85
565.23	35.11
565.39	77.24
565.56	0.00
565.72	32.77
565.88	23.41
566.05	58.51
566.21	46.81
566.38	91.28
566.54	88.94
566.70	42.13
566.87	0.00
567.03	49.15
567.19	72.56
567.36	9.36
567.52	16.38
567.68	28.09
567.85	70.22
568.01	0.00
568.17	46.81
568.34	7.02
568.50	86.60
568.66	0.00
568.83	42.13
568.99	42.13
569.15	28.09
569.32	23.41
569.48	67.88
569.64	4.68
569.81	44.47
569.97	0.00
570.13	84.26
570.30	23.41
570.46	25.75
570.62	77.24
570.78	21.06
570.95	49.15
571.11	0.00
571.27	42.13
571.43	100.64
571.60	107.66
571.76	23.41
571.92	23.41
572.09	14.04
572.25	77.24
572.41	72.56
572.57	25.75
572.74	11.70
572.90	147.45
573.06	91.28
573.22	46.81
573.38	44.47
573.55	44.47
573.71	44.47
573.87	72.56
574.03	37.45
574.20	28.09
574.36	30.43
574.52	84.26
574.68	79.58
574.84	44.47
575.01	28.09
575.17	0.00
575.33	28.09
575.49	30.43
575.65	60.85
575.82	60.85
575.98	86.60
576.14	100.64
576.30	58.51
576.46	77.24
576.62	65.54
576.79	0.00
576.95	88.94
577.11	25.75
577.27	63.19
577.43	74.90
577.59	51.49
577.75	21.06
577.92	56.17
578.08	16.38
578.24	95.96
578.40	63.19
578.56	58.51
578.72	32.77
578.88	58.51
579.04	49.15
579.21	7.02
579.37	63.19
579.53	65.54
579.69	110.01
579.85	58.51
580.01	37.45
580.17	46.81
580.33	67.88
580.49	0.00
580.65	0.00
580.82	49.15
580.98	58.51
581.14	32.77
581.30	81.92
581.46	86.60
581.62	58.51
581.78	81.92
581.94	46.81
582.10	88.94
582.26	49.15
582.42	63.19
582.58	32.77
582.74	56.17
582.90	53.83
583.06	35.11
583.22	72.56
583.38	56.17
583.54	58.51
583.70	14.04
583.86	163.84
584.02	25.75
584.18	65.54
584.34	91.28
584.50	248.10
584.66	1488.58
584.82	3550.59
584.98	4706.82
585.14	4032.74
585.30	2626.08
585.46	1696.89
585.62	1114.10
585.78	505.56
585.94	271.50
586.10	98.30
586.26	91.28
586.42	72.56
586.58	0.00
586.74	67.88
586.90	79.58
587.06	117.03
587.22	126.39
587.38	16.38
587.54	0.00
587.70	117.03
587.86	325.33
588.02	390.87
588.18	262.14
588.34	154.48
588.49	98.30
588.65	88.94
588.81	35.11
588.97	74.90
589.13	56.17
589.29	58.51
589.45	91.28
589.61	0.00
589.77	0.00
589.93	49.15
590.08	114.69
590.24	44.47
590.40	100.64
590.56	121.71
590.72	86.60
590.88	70.22
591.04	9.36
591.20	0.00
591.35	37.45
591.51	16.38
591.67	93.62
591.83	32.77
591.99	63.19
592.15	44.47
592.31	42.13
592.46	49.15
592.62	65.54
592.78	25.75
592.94	0.00
593.10	23.41
593.26	131.07
593.41	77.24
593.57	2.34
593.73	102.98
593.89	170.86
594.05	468.11
594.20	580.45
594.36	631.94
594.52	369.80
594.68	222.35
594.84	173.20
594.99	131.07
595.15	60.85
595.31	51.49
595.47	28.09
595.62	35.11
595.78	60.85
595.94	67.88
596.10	0.00
596.25	79.58
596.41	0.00
596.57	81.92
596.73	98.30
596.88	133.41
597.04	145.11
597.20	210.65
597.36	173.20
597.51	173.20
597.67	168.52
597.83	117.03
597.99	0.00
598.14	21.06
598.30	28.09
598.46	44.47
598.61	25.75
598.77	37.45
598.93	56.17
599.09	9.36
599.24	81.92
599.40	32.77
599.56	16.38
599.71	49.15
599.87	23.41
600.03	7.02
600.18	74.90
600.34	30.43
600.50	28.09
600.65	0.00
600.81	0.00
600.97	49.15
601.12	72.56
601.28	18.72
601.44	67.88
601.59	46.81
601.75	35.11
601.91	30.43
602.06	53.83
602.22	30.43
602.37	65.54
602.53	105.32
602.69	198.95
602.84	194.26
603.00	154.48
603.16	107.66
603.31	100.64
603.47	67.88
603.62	84.26
603.78	0.00
603.94	0.00
604.09	14.04
604.25	70.22
604.40	35.11
604.56	46.81
604.71	81.92
604.87	110.01
605.03	110.01
605.18	95.96
605.34	0.00
605.49	23.41
605.65	49.15
605.80	35.11
605.96	42.13
606.12	35.11
606.27	60.85
606.43	21.06
606.58	63.19
606.74	163.84
606.89	381.51
607.05	418.96
607.20	550.03
607.36	379.17
607.51	224.69
607.67	255.12
607.82	149.79
607.98	112.35
608.13	14.04
608.29	23.41
608.44	51.49
608.60	93.62
608.75	105.32
608.91	124.05
609.06	402.57
609.22	716.20
609.37	980.68
609.53	851.96
609.68	512.58
609.84	454.06
609.99	273.84
610.15	121.71
610.30	30.43
610.46	49.15
610.61	105.32
610.76	72.56
610.92	84.26
611.07	65.54
611.23	114.69
611.38	84.26
611.54	126.39
611.69	51.49
611.84	84.26
612.00	88.94
612.15	138.09
612.31	49.15
612.46	35.11
612.62	63.19
612.77	84.26
612.92	102.98
613.08	21.06
613.23	58.51
613.39	56.17
613.54	28.09
613.69	421.30
613.85	912.81
614.00	1233.46
614.15	1439.43
614.31	1011.11
614.46	723.23
614.62	449.38
614.77	304.27
614.92	112.35
615.08	56.17
615.23	86.60
615.38	79.58
615.54	42.13
615.69	42.13
615.84	205.97
616.00	339.38
616.15	414.27
616.30	344.06
616.46	177.88
616.61	194.26
616.76	187.24
616.92	84.26
617.07	98.30
617.22	49.15
617.37	16.38
617.53	0.00
617.68	67.88
617.83	0.00
617.99	72.56
618.14	81.92
618.29	2.34
618.45	49.15
618.60	60.85
618.75	77.24
618.90	56.17
619.06	63.19
619.21	86.60
619.36	149.79
619.51	28.09
619.67	28.09
619.82	30.43
619.97	32.77
620.12	18.72
620.28	16.38
620.43	39.79
620.58	77.24
620.73	138.09
620.89	21.06
621.04	7.02
621.19	154.48
621.34	238.73
621.49	215.33
621.65	250.44
621.80	196.60
621.95	42.13
622.10	117.03
622.25	65.54
622.41	112.35
622.56	28.09
622.71	9.36
622.86	133.41
623.01	86.60
623.16	37.45
623.32	0.00
623.47	46.81
623.62	35.11
623.77	9.36
623.92	35.11
624.07	2.34
624.23	28.09
624.38	28.09
624.53	67.88
624.68	74.90
624.83	60.85
624.98	23.41
625.13	32.77
625.29	32.77
625.44	60.85
625.59	35.11
625.74	0.00
625.89	67.88
626.04	175.54
626.19	475.13
626.34	737.27
626.49	704.50
626.65	543.00
626.80	313.63
626.95	266.82
627.10	255.12
627.25	126.39
627.40	56.17
627.55	28.09
627.70	67.88
627.85	70.22
628.00	0.00
628.15	0.00
628.30	58.51
628.45	9.36
628.60	35.11
628.76	60.85
628.91	0.00
629.06	0.00
629.21	0.00
629.36	0.00
629.51	18.72
629.66	98.30
629.81	14.04
629.96	166.18
630.11	159.16
630.26	220.01
630.41	161.50
630.56	77.24
630.71	37.45
630.86	84.26
631.01	114.69
631.16	58.51
631.31	37.45
631.46	67.88
631.61	16.38
631.76	4.68
631.91	77.24
632.06	16.38
632.21	9.36
632.36	39.79
632.51	0.00
632.66	67.88
632.81	131.07
632.96	287.89
633.10	379.17
633.25	442.36
633.40	491.51
633.55	315.97
633.70	236.39
633.85	131.07
634.00	32.77
634.15	112.35
634.30	25.75
634.45	93.62
634.60	88.94
634.75	30.43
634.90	28.09
635.05	44.47
635.19	49.15
635.34	4.68
635.49	18.72
635.64	35.11
635.79	21.06
635.94	44.47
636.09	7.02
636.24	9.36
636.39	16.38
636.53	16.38
636.68	2.34
636.83	35.11
636.98	9.36
637.13	81.92
637.28	93.62
637.43	91.28
637.57	93.62
637.72	175.54
637.87	582.79
638.02	814.51
638.17	961.96
638.32	772.38
638.46	486.83
638.61	334.70
638.76	212.99
638.91	152.13
639.06	102.98
639.20	117.03
639.35	105.32
639.50	77.24
639.65	421.30
639.80	971.32
639.94	1345.81
640.09	1497.94
640.24	1069.62
640.39	683.44
640.54	493.85
640.68	344.06
640.83	138.09
640.98	159.16
641.13	98.30
641.27	72.56
641.42	42.13
641.57	77.24
641.72	37.45
641.86	105.32
642.01	32.77
642.16	0.00
642.31	70.22
642.45	49.15
642.60	37.45
642.75	35.11
642.90	70.22
643.04	60.85
643.19	72.56
643.34	35.11
643.48	37.45
643.63	0.00
643.78	9.36
643.93	77.24
644.07	39.79
644.22	9.36
644.37	25.75
644.51	7.02
644.66	39.79
644.81	72.56
644.95	0.00
645.10	2.34
645.25	30.43
645.39	95.96
645.54	81.92
645.69	16.38
645.83	74.90
645.98	35.11
646.13	0.00
646.27	44.47
646.42	79.58
646.57	70.22
646.71	9.36
646.86	60.85
647.00	0.00
647.15	0.00
647.30	23.41
647.44	44.47
647.59	58.51
647.74	0.00
647.88	18.72
648.03	65.54
648.17	14.04
648.32	72.56
648.47	49.15
648.61	0.00
648.76	23.41
648.90	21.06
649.05	56.17
649.20	0.00
649.34	49.15
649.49	53.83
649.63	35.11
649.78	23.41
649.92	88.94
650.07	194.26
650.21	451.72
650.36	650.67
650.51	758.33
650.65	571.09
650.80	414.27
650.94	280.86
651.09	138.09
651.23	114.69
651.38	124.05
651.52	81.92
651.67	81.92
651.81	16.38
651.96	77.24
652.10	65.54
652.25	2.34
652.39	112.35
652.54	35.11
652.68	74.90
652.83	37.45
652.97	220.01
653.12	262.14
653.26	255.12
653.41	236.39
653.55	163.84
653.70	156.82
653.84	70.22
653.99	105.32
654.13	65.54
654.27	53.83
654.42	98.30
654.56	35.11
654.71	49.15
654.85	65.54
655.00	30.43
655.14	30.43
655.29	35.11
655.43	39.79
655.57	35.11
655.72	63.19
655.86	67.88
656.01	95.96
656.15	51.49
656.30	0.00
656.44	93.62
656.58	30.43
656.73	42.13
656.87	77.24
657.01	60.85
657.16	119.37
657.30	25.75
657.45	0.00
657.59	32.77
657.73	0.00
657.88	72.56
658.02	60.85
658.16	42.13
658.31	42.13
658.45	16.38
658.60	67.88
658.74	28.09
658.88	79.58
659.03	88.94
659.17	23.41
659.31	86.60
659.46	227.03
659.60	306.61
659.74	404.91
659.89	304.27
660.03	273.84
660.17	184.90
660.32	140.43
660.46	121.71
660.60	37.45
660.74	25.75
660.89	9.36
661.03	86.60
661.17	0.00
661.32	72.56
661.46	4.68
661.60	0.00
661.74	16.38
661.89	86.60
662.03	74.90
662.17	9.36
662.31	21.06
662.46	42.13
662.60	105.32
662.74	32.77
662.88	0.00
663.03	37.45
663.17	0.00
663.31	11.70
663.45	18.72
663.60	0.00
663.74	14.04
663.88	46.81
664.02	21.06
664.17	11.70
664.31	0.00
664.45	0.00
664.59	30.43
664.73	63.19
664.88	53.83
665.02	51.49
665.16	0.00
665.30	70.22
665.44	42.13
665.59	39.79
665.73	37.45
665.87	42.13
666.01	56.17
666.15	93.62
666.29	110.01
666.44	16.38
666.58	51.49
666.72	0.00
666.86	9.36
667.00	0.00
667.14	88.94
667.28	95.96
667.43	299.59
667.57	517.26
667.71	641.31
667.85	613.22
667.99	456.40
668.13	285.55
668.27	212.99
668.41	79.58
668.56	21.06
668.70	14.04
668.84	65.54
668.98	88.94
669.12	0.00
669.26	79.58
669.40	74.90
669.54	84.26
669.68	0.00
669.82	14.04
669.96	44.47
670.10	37.45
670.25	0.00
670.39	74.90
670.53	93.62
670.67	67.88
670.81	46.81
670.95	28.09
671.09	32.77
671.23	95.96
671.37	287.89
671.51	442.36
671.65	442.36
671.79	341.72
671.93	159.16
672.07	201.29
672.21	187.24
672.35	81.92
672.49	110.01
672.63	86.60
672.77	14.04
672.91	23.41
673.05	58.51
673.19	23.41
673.33	7.02
673.47	86.60
673.61	49.15
673.75	42.13
673.89	72.56
674.03	91.28
674.17	88.94
674.31	42.13
674.45	46.81
674.59	79.58
674.73	2.34
674.87	0.00
675.01	0.00
675.15	18.72
675.29	16.38
675.43	0.00
675.56	65.54
675.70	74.90
675.84	0.00
675.98	140.43
676.12	46.81
676.26	0.00
676.40	39.79
676.54	119.37
676.68	60.85
676.82	7.02
676.96	23.41
677.10	35.11
677.23	67.88
677.37	51.49
677.51	7.02
677.65	0.00
677.79	7.02
677.93	30.43
678.07	46.81
678.21	32.77
678.34	53.83
678.48	32.77
678.62	7.02
678.76	74.90
678.90	91.28
679.04	0.00
679.18	0.00
679.31	79.58
679.45	53.83
679.59	0.00
679.73	11.70
679.87	58.51
680.00	11.70
680.14	23.41
680.28	88.94
680.42	18.72
680.56	72.56
680.70	0.00
680.83	2.34
680.97	49.15
681.11	63.19
681.25	0.00
681.39	84.26
681.52	53.83
681.66	0.00
681.80	2.34
681.94	53.83
682.07	16.38
682.21	53.83
682.35	60.85
682.49	56.17
682.62	0.00
682.76	67.88
682.90	0.00
683.04	81.92
683.17	56.17
683.31	35.11
683.45	18.72
683.59	51.49
683.72	0.00
683.86	37.45
684.00	11.70
684.13	79.58
684.27	65.54
684.41	35.11
684.55	4.68
684.68	51.49
684.82	0.00
684.96	0.00
685.09	65.54
685.23	53.83
685.37	0.00
685.50	91.28
685.64	117.03
685.78	0.00
685.91	0.00
686.05	0.00
686.19	42.13
686.32	72.56
686.46	72.56
686.60	2.34
686.73	102.98
686.87	51.49
687.01	35.11
687.14	63.19
687.28	9.36
687.42	39.79
687.55	74.90
687.69	14.04
687.82	0.00
687.96	37.45
688.10	7.02
688.23	0.00
688.37	39.79
688.50	0.00
688.64	53.83
688.78	67.88
688.91	35.11
689.05	79.58
689.18	0.00
689.32	25.75
689.46	56.17
689.59	79.58
689.73	0.00
689.86	0.00
690.00	23.41
690.13	37.45
690.27	0.00
690.41	44.47
690.54	0.00
690.68	2.34
690.81	0.00
690.95	35.11
691.08	0.00
691.22	35.11
691.35	58.51
691.49	70.22
691.62	51.49
691.76	51.49
691.89	11.70
692.03	74.90
692.16	28.09
692.30	35.11
692.43	128.73
692.57	187.24
692.70	257.46
692.84	325.33
692.97	198.95
693.11	236.39
693.24	180.22
693.38	131.07
693.51	114.69
693.65	84.26
693.78	93.62
693.92	32.77
694.05	2.34
694.19	0.00
694.32	23.41
694.45	28.09
694.59	46.81
694.72	30.43
694.86	0.00
694.99	28.09
695.13	25.75
695.26	56.17
695.39	2.34
695.53	117.03
695.66	0.00
695.80	16.38
695.93	84.26
696.07	0.00
696.20	30.43
696.33	4.68
696.47	107.66
696.60	74.90
696.73	95.96
696.87	21.06
697.00	0.00
697.14	53.83
697.27	21.06
697.40	4.68
697.54	46.81
697.67	58.51
697.80	56.17
697.94	7.02
698.07	37.45
698.21	18.72
698.34	46.81
698.47	21.06
698.61	63.19
698.74	0.00
698.87	0.00
699.01	32.77
699.14	30.43
699.27	0.00
699.40	25.75
699.54	0.00
699.67	77.24
699.80	60.85
699.94	0.00
700.07	0.00
700.20	0.00
700.34	42.13
700.47	0.00
700.60	37.45
700.73	65.54
700.87	56.17
701.00	74.90
701.13	58.51
701.26	4.68
701.40	44.47
701.53	18.72
701.66	18.72
701.79	60.85
701.93	81.92
702.06	98.30
702.19	88.94
702.32	16.38
702.46	93.62
702.59	49.15
702.72	77.24
702.85	217.67
702.99	388.53
703.12	482.15
703.25	512.58
703.38	498.53
703.51	395.55
703.65	386.19
703.78	248.10
703.91	128.73
704.04	156.82
704.17	70.22
704.31	32.77
704.44	28.09
704.57	0.00
704.70	46.81
704.83	4.68
704.96	14.04
705.10	39.79
705.23	77.24
>>>>>End Processed Spectral Data<<<<<
