SpectraSuite Data File
++++++++++++++++++++++++++++++++++++
Date: Fri Oct 04 12:13:45 GMT-05:00 2013
User: price-jones
Dark Spectrum Present: No
Reference Spectrum Present: No
Number of Sampled Component Spectra: 1
Spectrometers: USB2+H05261
Integration Time (usec): 10000 (USB2+H05261)
Spectra Averaged: 1 (USB2+H05261)
Boxcar Smoothing: 0 (USB2+H05261)
Correct for Electrical Dark: No (USB2+H05261)
Strobe/Lamp Enabled: No (USB2+H05261)
Correct for Detector Non-linearity: No (USB2+H05261)
Correct for Stray Light: No (USB2+H05261)
Number of Pixels in Processed Spectrum: 2048
>>>>>Begin Processed Spectral Data<<<<<
365.73	0.00
365.92	0.00
366.12	0.00
366.32	0.00
366.52	0.00
366.72	0.00
366.91	0.00
367.11	0.00
367.31	0.00
367.51	0.00
367.70	0.00
367.90	0.00
368.10	0.00
368.30	0.00
368.49	0.00
368.69	0.00
368.89	0.00
369.09	0.00
369.28	0.00
369.48	0.00
369.68	0.00
369.87	0.00
370.07	0.00
370.27	0.00
370.47	0.00
370.66	0.00
370.86	0.00
371.06	0.00
371.25	0.00
371.45	18.72
371.65	0.00
371.84	0.00
372.04	30.43
372.24	0.00
372.44	14.04
372.63	0.00
372.83	14.04
373.03	63.19
373.22	0.00
373.42	23.41
373.62	28.09
373.81	51.49
374.01	65.54
374.21	46.81
374.40	0.00
374.60	35.11
374.79	28.09
374.99	0.00
375.19	30.43
375.38	53.83
375.58	0.00
375.78	70.22
375.97	32.77
376.17	16.38
376.37	28.09
376.56	44.47
376.76	46.81
376.95	72.56
377.15	14.04
377.35	0.00
377.54	44.47
377.74	56.17
377.93	28.09
378.13	42.13
378.33	91.28
378.52	46.81
378.72	28.09
378.91	23.41
379.11	7.02
379.31	2.34
379.50	18.72
379.70	51.49
379.89	21.06
380.09	60.85
380.28	0.00
380.48	42.13
380.68	44.47
380.87	16.38
381.07	0.00
381.26	21.06
381.46	14.04
381.65	0.00
381.85	0.00
382.04	0.00
382.24	32.77
382.43	0.00
382.63	21.06
382.83	18.72
383.02	65.54
383.22	18.72
383.41	53.83
383.61	0.00
383.80	32.77
384.00	0.00
384.19	42.13
384.39	23.41
384.58	0.00
384.78	67.88
384.97	25.75
385.17	30.43
385.36	0.00
385.56	21.06
385.75	32.77
385.95	0.00
386.14	65.54
386.34	0.00
386.53	44.47
386.72	35.11
386.92	21.06
387.11	35.11
387.31	39.79
387.50	60.85
387.70	0.00
387.89	14.04
388.09	0.00
388.28	126.39
388.48	42.13
388.67	0.00
388.86	0.00
389.06	0.00
389.25	0.00
389.45	37.45
389.64	95.96
389.84	0.00
390.03	11.70
390.22	14.04
390.42	84.26
390.61	56.17
390.81	0.00
391.00	21.06
391.19	46.81
391.39	46.81
391.58	56.17
391.78	37.45
391.97	9.36
392.16	46.81
392.36	65.54
392.55	42.13
392.75	100.64
392.94	11.70
393.13	21.06
393.33	0.00
393.52	0.00
393.71	0.00
393.91	77.24
394.10	0.00
394.29	0.00
394.49	39.79
394.68	0.00
394.88	0.00
395.07	67.88
395.26	51.49
395.46	23.41
395.65	44.47
395.84	46.81
396.04	16.38
396.23	77.24
396.42	39.79
396.62	77.24
396.81	39.79
397.00	28.09
397.19	39.79
397.39	0.00
397.58	42.13
397.77	21.06
397.97	44.47
398.16	60.85
398.35	58.51
398.55	60.85
398.74	51.49
398.93	23.41
399.12	42.13
399.32	7.02
399.51	4.68
399.70	4.68
399.90	65.54
400.09	0.00
400.28	23.41
400.47	30.43
400.67	0.00
400.86	7.02
401.05	67.88
401.24	42.13
401.44	32.77
401.63	0.00
401.82	2.34
402.01	23.41
402.21	46.81
402.40	0.00
402.59	46.81
402.78	7.02
402.97	79.58
403.17	14.04
403.36	91.28
403.55	95.96
403.74	42.13
403.93	0.00
404.13	0.00
404.32	16.38
404.51	0.00
404.70	16.38
404.89	9.36
405.09	0.00
405.28	49.15
405.47	28.09
405.66	39.79
405.85	18.72
406.05	77.24
406.24	14.04
406.43	0.00
406.62	14.04
406.81	46.81
407.00	0.00
407.20	9.36
407.39	30.43
407.58	58.51
407.77	28.09
407.96	70.22
408.15	16.38
408.34	0.00
408.54	25.75
408.73	4.68
408.92	18.72
409.11	2.34
409.30	77.24
409.49	35.11
409.68	49.15
409.87	21.06
410.07	70.22
410.26	32.77
410.45	74.90
410.64	58.51
410.83	0.00
411.02	30.43
411.21	18.72
411.40	23.41
411.59	23.41
411.78	35.11
411.98	93.62
412.17	0.00
412.36	37.45
412.55	0.00
412.74	65.54
412.93	16.38
413.12	0.00
413.31	74.90
413.50	39.79
413.69	0.00
413.88	0.00
414.07	86.60
414.26	21.06
414.45	46.81
414.64	30.43
414.83	0.00
415.02	37.45
415.22	91.28
415.41	28.09
415.60	58.51
415.79	4.68
415.98	25.75
416.17	51.49
416.36	49.15
416.55	53.83
416.74	28.09
416.93	81.92
417.12	30.43
417.31	23.41
417.50	32.77
417.69	32.77
417.88	63.19
418.07	0.00
418.26	0.00
418.45	77.24
418.64	49.15
418.83	42.13
419.02	14.04
419.21	35.11
419.39	11.70
419.58	0.00
419.77	37.45
419.96	42.13
420.15	42.13
420.34	30.43
420.53	117.03
420.72	49.15
420.91	81.92
421.10	63.19
421.29	65.54
421.48	81.92
421.67	84.26
421.86	46.81
422.05	14.04
422.24	16.38
422.43	0.00
422.61	23.41
422.80	0.00
422.99	9.36
423.18	42.13
423.37	28.09
423.56	91.28
423.75	21.06
423.94	0.00
424.13	46.81
424.32	25.75
424.50	81.92
424.69	4.68
424.88	46.81
425.07	23.41
425.26	32.77
425.45	81.92
425.64	4.68
425.83	135.75
426.01	32.77
426.20	30.43
426.39	42.13
426.58	18.72
426.77	42.13
426.96	35.11
427.15	35.11
427.33	53.83
427.52	56.17
427.71	46.81
427.90	49.15
428.09	0.00
428.28	16.38
428.46	77.24
428.65	0.00
428.84	84.26
429.03	100.64
429.22	67.88
429.40	0.00
429.59	0.00
429.78	32.77
429.97	88.94
430.16	11.70
430.34	35.11
430.53	0.00
430.72	0.00
430.91	102.98
431.10	102.98
431.28	42.13
431.47	23.41
431.66	86.60
431.85	4.68
432.03	42.13
432.22	7.02
432.41	16.38
432.60	42.13
432.79	4.68
432.97	0.00
433.16	0.00
433.35	46.81
433.54	0.00
433.72	0.00
433.91	35.11
434.10	0.00
434.28	79.58
434.47	63.19
434.66	0.00
434.85	30.43
435.03	39.79
435.22	16.38
435.41	21.06
435.59	35.11
435.78	0.00
435.97	0.00
436.16	42.13
436.34	91.28
436.53	0.00
436.72	0.00
436.90	4.68
437.09	44.47
437.28	0.00
437.46	0.00
437.65	49.15
437.84	37.45
438.02	60.85
438.21	0.00
438.40	44.47
438.58	23.41
438.77	65.54
438.96	79.58
439.14	30.43
439.33	86.60
439.52	102.98
439.70	28.09
439.89	49.15
440.08	21.06
440.26	60.85
440.45	65.54
440.63	0.00
440.82	58.51
441.01	2.34
441.19	53.83
441.38	16.38
441.57	21.06
441.75	51.49
441.94	28.09
442.12	53.83
442.31	0.00
442.50	44.47
442.68	16.38
442.87	42.13
443.05	100.64
443.24	7.02
443.43	9.36
443.61	9.36
443.80	67.88
443.98	0.00
444.17	0.00
444.35	51.49
444.54	9.36
444.73	46.81
444.91	35.11
445.10	65.54
445.28	65.54
445.47	18.72
445.65	0.00
445.84	11.70
446.02	18.72
446.21	72.56
446.39	14.04
446.58	2.34
446.77	14.04
446.95	0.00
447.14	2.34
447.32	44.47
447.51	42.13
447.69	23.41
447.88	0.00
448.06	51.49
448.25	14.04
448.43	0.00
448.62	86.60
448.80	21.06
448.99	9.36
449.17	51.49
449.36	30.43
449.54	74.90
449.73	0.00
449.91	0.00
450.10	9.36
450.28	95.96
450.46	49.15
450.65	39.79
450.83	98.30
451.02	46.81
451.20	0.00
451.39	42.13
451.57	46.81
451.76	70.22
451.94	88.94
452.13	16.38
452.31	30.43
452.49	30.43
452.68	60.85
452.86	39.79
453.05	102.98
453.23	42.13
453.42	86.60
453.60	110.01
453.78	28.09
453.97	58.51
454.15	23.41
454.34	72.56
454.52	0.00
454.70	91.28
454.89	147.45
455.07	35.11
455.26	32.77
455.44	42.13
455.62	30.43
455.81	0.00
455.99	37.45
456.17	53.83
456.36	74.90
456.54	60.85
456.73	44.47
456.91	46.81
457.09	65.54
457.28	2.34
457.46	16.38
457.64	28.09
457.83	28.09
458.01	0.00
458.19	28.09
458.38	37.45
458.56	65.54
458.74	42.13
458.93	46.81
459.11	65.54
459.29	98.30
459.48	0.00
459.66	32.77
459.84	11.70
460.03	44.47
460.21	37.45
460.39	37.45
460.57	9.36
460.76	0.00
460.94	9.36
461.12	23.41
461.31	42.13
461.49	25.75
461.67	0.00
461.85	16.38
462.04	21.06
462.22	102.98
462.40	84.26
462.59	30.43
462.77	14.04
462.95	42.13
463.13	98.30
463.32	30.43
463.50	18.72
463.68	28.09
463.86	0.00
464.05	9.36
464.23	84.26
464.41	4.68
464.59	65.54
464.78	0.00
464.96	53.83
465.14	93.62
465.32	28.09
465.50	46.81
465.69	70.22
465.87	70.22
466.05	11.70
466.23	53.83
466.41	23.41
466.60	56.17
466.78	28.09
466.96	77.24
467.14	0.00
467.32	30.43
467.51	63.19
467.69	7.02
467.87	63.19
468.05	0.00
468.23	2.34
468.41	14.04
468.60	46.81
468.78	0.00
468.96	79.58
469.14	79.58
469.32	46.81
469.50	58.51
469.69	58.51
469.87	2.34
470.05	53.83
470.23	53.83
470.41	0.00
470.59	46.81
470.77	18.72
470.95	51.49
471.14	67.88
471.32	42.13
471.50	18.72
471.68	35.11
471.86	81.92
472.04	46.81
472.22	56.17
472.40	112.35
472.58	30.43
472.77	53.83
472.95	35.11
473.13	32.77
473.31	60.85
473.49	0.00
473.67	88.94
473.85	93.62
474.03	65.54
474.21	74.90
474.39	14.04
474.57	49.15
474.75	72.56
474.93	25.75
475.12	53.83
475.30	18.72
475.48	46.81
475.66	86.60
475.84	88.94
476.02	60.85
476.20	56.17
476.38	105.32
476.56	49.15
476.74	18.72
476.92	18.72
477.10	28.09
477.28	18.72
477.46	67.88
477.64	16.38
477.82	46.81
478.00	32.77
478.18	46.81
478.36	100.64
478.54	81.92
478.72	58.51
478.90	25.75
479.08	42.13
479.26	46.81
479.44	70.22
479.62	51.49
479.80	30.43
479.98	25.75
480.16	21.06
480.34	95.96
480.52	32.77
480.70	107.66
480.88	11.70
481.06	95.96
481.24	86.60
481.41	53.83
481.59	56.17
481.77	100.64
481.95	121.71
482.13	67.88
482.31	0.00
482.49	86.60
482.67	37.45
482.85	58.51
483.03	0.00
483.21	0.00
483.39	21.06
483.57	18.72
483.74	49.15
483.92	0.00
484.10	0.00
484.28	42.13
484.46	0.00
484.64	39.79
484.82	39.79
485.00	67.88
485.18	84.26
485.35	79.58
485.53	53.83
485.71	53.83
485.89	46.81
486.07	77.24
486.25	44.47
486.43	32.77
486.61	35.11
486.78	102.98
486.96	51.49
487.14	56.17
487.32	0.00
487.50	16.38
487.68	35.11
487.85	98.30
488.03	88.94
488.21	84.26
488.39	88.94
488.57	25.75
488.75	88.94
488.92	95.96
489.10	65.54
489.28	56.17
489.46	37.45
489.64	14.04
489.81	25.75
489.99	93.62
490.17	84.26
490.35	105.32
490.53	0.00
490.70	70.22
490.88	46.81
491.06	37.45
491.24	81.92
491.41	79.58
491.59	121.71
491.77	18.72
491.95	65.54
492.13	67.88
492.30	88.94
492.48	49.15
492.66	0.00
492.84	30.43
493.01	93.62
493.19	44.47
493.37	35.11
493.54	112.35
493.72	98.30
493.90	39.79
494.08	79.58
494.25	70.22
494.43	70.22
494.61	91.28
494.79	42.13
494.96	98.30
495.14	107.66
495.32	95.96
495.49	70.22
495.67	86.60
495.85	63.19
496.02	51.49
496.20	0.00
496.38	105.32
496.55	14.04
496.73	91.28
496.91	119.37
497.09	2.34
497.26	0.00
497.44	28.09
497.62	79.58
497.79	51.49
497.97	16.38
498.14	4.68
498.32	53.83
498.50	0.00
498.67	35.11
498.85	0.00
499.03	16.38
499.20	0.00
499.38	102.98
499.56	18.72
499.73	67.88
499.91	88.94
500.08	95.96
500.26	56.17
500.44	74.90
500.61	95.96
500.79	25.75
500.97	100.64
501.14	44.47
501.32	53.83
501.49	110.01
501.67	56.17
501.84	67.88
502.02	42.13
502.20	95.96
502.37	46.81
502.55	56.17
502.72	67.88
502.90	42.13
503.07	84.26
503.25	0.00
503.43	23.41
503.60	67.88
503.78	81.92
503.95	88.94
504.13	74.90
504.30	35.11
504.48	0.00
504.65	67.88
504.83	95.96
505.01	23.41
505.18	105.32
505.36	91.28
505.53	37.45
505.71	35.11
505.88	25.75
506.06	28.09
506.23	21.06
506.41	79.58
506.58	147.45
506.76	84.26
506.93	39.79
507.11	0.00
507.28	93.62
507.46	51.49
507.63	42.13
507.81	21.06
507.98	95.96
508.16	72.56
508.33	58.51
508.50	86.60
508.68	2.34
508.85	9.36
509.03	63.19
509.20	0.00
509.38	37.45
509.55	30.43
509.73	65.54
509.90	56.17
510.08	35.11
510.25	58.51
510.42	32.77
510.60	46.81
510.77	65.54
510.95	117.03
511.12	70.22
511.30	44.47
511.47	39.79
511.64	53.83
511.82	98.30
511.99	124.05
512.17	60.85
512.34	42.13
512.51	67.88
512.69	60.85
512.86	107.66
513.04	70.22
513.21	72.56
513.38	18.72
513.56	53.83
513.73	16.38
513.90	95.96
514.08	53.83
514.25	95.96
514.43	117.03
514.60	67.88
514.77	49.15
514.95	42.13
515.12	51.49
515.29	65.54
515.47	79.58
515.64	23.41
515.81	77.24
515.99	44.47
516.16	21.06
516.33	63.19
516.51	35.11
516.68	126.39
516.85	79.58
517.03	88.94
517.20	35.11
517.37	28.09
517.54	117.03
517.72	91.28
517.89	70.22
518.06	124.05
518.24	14.04
518.41	25.75
518.58	112.35
518.75	107.66
518.93	63.19
519.10	49.15
519.27	53.83
519.45	35.11
519.62	25.75
519.79	100.64
519.96	70.22
520.14	37.45
520.31	65.54
520.48	9.36
520.65	77.24
520.83	58.51
521.00	51.49
521.17	95.96
521.34	84.26
521.52	14.04
521.69	100.64
521.86	74.90
522.03	46.81
522.20	42.13
522.38	16.38
522.55	42.13
522.72	117.03
522.89	25.75
523.07	72.56
523.24	37.45
523.41	100.64
523.58	102.98
523.75	37.45
523.92	56.17
524.10	63.19
524.27	28.09
524.44	128.73
524.61	42.13
524.78	81.92
524.96	65.54
525.13	51.49
525.30	124.05
525.47	86.60
525.64	25.75
525.81	100.64
525.98	28.09
526.16	77.24
526.33	86.60
526.50	32.77
526.67	35.11
526.84	23.41
527.01	9.36
527.18	30.43
527.36	32.77
527.53	18.72
527.70	63.19
527.87	86.60
528.04	28.09
528.21	77.24
528.38	117.03
528.55	105.32
528.72	32.77
528.89	114.69
529.07	84.26
529.24	42.13
529.41	84.26
529.58	35.11
529.75	93.62
529.92	65.54
530.09	98.30
530.26	98.30
530.43	107.66
530.60	49.15
530.77	0.00
530.94	93.62
531.11	56.17
531.28	18.72
531.46	37.45
531.63	79.58
531.80	77.24
531.97	2.34
532.14	46.81
532.31	44.47
532.48	21.06
532.65	56.17
532.82	42.13
532.99	72.56
533.16	79.58
533.33	131.07
533.50	95.96
533.67	70.22
533.84	28.09
534.01	51.49
534.18	46.81
534.35	88.94
534.52	0.00
534.69	0.00
534.86	16.38
535.03	107.66
535.20	117.03
535.37	70.22
535.54	37.45
535.71	84.26
535.88	72.56
536.05	86.60
536.22	135.75
536.38	77.24
536.55	63.19
536.72	46.81
536.89	65.54
537.06	140.43
537.23	39.79
537.40	0.00
537.57	39.79
537.74	95.96
537.91	77.24
538.08	95.96
538.25	0.00
538.42	35.11
538.59	67.88
538.75	0.00
538.92	67.88
539.09	107.66
539.26	65.54
539.43	117.03
539.60	18.72
539.77	114.69
539.94	91.28
540.11	63.19
540.28	70.22
540.44	95.96
540.61	49.15
540.78	60.85
540.95	58.51
541.12	112.35
541.29	11.70
541.46	44.47
541.62	25.75
541.79	51.49
541.96	91.28
542.13	56.17
542.30	0.00
542.47	93.62
542.63	49.15
542.80	51.49
542.97	79.58
543.14	100.64
543.31	93.62
543.48	37.45
543.64	88.94
543.81	79.58
543.98	105.32
544.15	9.36
544.32	23.41
544.48	105.32
544.65	93.62
544.82	70.22
544.99	65.54
545.16	95.96
545.32	35.11
545.49	117.03
545.66	9.36
545.83	95.96
546.00	93.62
546.16	21.06
546.33	2.34
546.50	42.13
546.67	63.19
546.83	79.58
547.00	51.49
547.17	124.05
547.34	0.00
547.50	70.22
547.67	112.35
547.84	168.52
548.00	46.81
548.17	84.26
548.34	79.58
548.51	105.32
548.67	60.85
548.84	100.64
549.01	37.45
549.18	14.04
549.34	0.00
549.51	39.79
549.68	74.90
549.84	42.13
550.01	44.47
550.18	42.13
550.34	79.58
550.51	28.09
550.68	18.72
550.84	58.51
551.01	100.64
551.18	32.77
551.34	0.00
551.51	28.09
551.68	65.54
551.84	7.02
552.01	14.04
552.18	0.00
552.34	46.81
552.51	30.43
552.68	21.06
552.84	77.24
553.01	79.58
553.18	49.15
553.34	56.17
553.51	84.26
553.67	18.72
553.84	91.28
554.01	105.32
554.17	84.26
554.34	65.54
554.51	88.94
554.67	65.54
554.84	0.00
555.00	44.47
555.17	77.24
555.33	49.15
555.50	88.94
555.67	86.60
555.83	145.11
556.00	74.90
556.16	42.13
556.33	86.60
556.50	46.81
556.66	67.88
556.83	28.09
556.99	110.01
557.16	53.83
557.32	0.00
557.49	44.47
557.65	53.83
557.82	53.83
557.98	0.00
558.15	65.54
558.32	79.58
558.48	9.36
558.65	81.92
558.81	140.43
558.98	25.75
559.14	84.26
559.31	63.19
559.47	0.00
559.64	0.00
559.80	30.43
559.97	0.00
560.13	56.17
560.30	81.92
560.46	63.19
560.63	70.22
560.79	79.58
560.96	81.92
561.12	74.90
561.29	0.00
561.45	4.68
561.61	7.02
561.78	79.58
561.94	32.77
562.11	74.90
562.27	114.69
562.44	81.92
562.60	77.24
562.77	0.00
562.93	9.36
563.10	42.13
563.26	86.60
563.42	79.58
563.59	88.94
563.75	91.28
563.92	77.24
564.08	56.17
564.24	21.06
564.41	79.58
564.57	105.32
564.74	46.81
564.90	42.13
565.07	0.00
565.23	39.79
565.39	37.45
565.56	121.71
565.72	25.75
565.88	112.35
566.05	32.77
566.21	42.13
566.38	44.47
566.54	53.83
566.70	23.41
566.87	32.77
567.03	0.00
567.19	42.13
567.36	46.81
567.52	56.17
567.68	93.62
567.85	67.88
568.01	63.19
568.17	25.75
568.34	74.90
568.50	0.00
568.66	0.00
568.83	21.06
568.99	58.51
569.15	51.49
569.32	112.35
569.48	65.54
569.64	70.22
569.81	2.34
569.97	16.38
570.13	91.28
570.30	81.92
570.46	88.94
570.62	63.19
570.78	138.09
570.95	77.24
571.11	49.15
571.27	37.45
571.43	49.15
571.60	14.04
571.76	81.92
571.92	72.56
572.09	42.13
572.25	128.73
572.41	142.77
572.57	18.72
572.74	16.38
572.90	70.22
573.06	53.83
573.22	67.88
573.38	0.00
573.55	74.90
573.71	79.58
573.87	0.00
574.03	42.13
574.20	46.81
574.36	79.58
574.52	84.26
574.68	28.09
574.84	14.04
575.01	32.77
575.17	86.60
575.33	105.32
575.49	70.22
575.65	53.83
575.82	72.56
575.98	56.17
576.14	21.06
576.30	35.11
576.46	0.00
576.62	46.81
576.79	0.00
576.95	39.79
577.11	56.17
577.27	51.49
577.43	37.45
577.59	95.96
577.75	0.00
577.92	67.88
578.08	60.85
578.24	21.06
578.40	58.51
578.56	63.19
578.72	53.83
578.88	70.22
579.04	77.24
579.21	124.05
579.37	128.73
579.53	32.77
579.69	67.88
579.85	11.70
580.01	74.90
580.17	119.37
580.33	140.43
580.49	11.70
580.65	51.49
580.82	77.24
580.98	72.56
581.14	88.94
581.30	58.51
581.46	86.60
581.62	112.35
581.78	67.88
581.94	88.94
582.10	60.85
582.26	39.79
582.42	21.06
582.58	74.90
582.74	98.30
582.90	0.00
583.06	21.06
583.22	32.77
583.38	67.88
583.54	21.06
583.70	42.13
583.86	4.68
584.02	147.45
584.18	74.90
584.34	147.45
584.50	42.13
584.66	58.51
584.82	56.17
584.98	58.51
585.14	9.36
585.30	56.17
585.46	44.47
585.62	46.81
585.78	86.60
585.94	42.13
586.10	88.94
586.26	67.88
586.42	0.00
586.58	114.69
586.74	0.00
586.90	4.68
587.06	0.00
587.22	21.06
587.38	65.54
587.54	145.11
587.70	39.79
587.86	49.15
588.02	32.77
588.18	0.00
588.34	49.15
588.49	88.94
588.65	74.90
588.81	65.54
588.97	39.79
589.13	81.92
589.29	16.38
589.45	100.64
589.61	28.09
589.77	28.09
589.93	0.00
590.08	11.70
590.24	81.92
590.40	53.83
590.56	138.09
590.72	51.49
590.88	74.90
591.04	98.30
591.20	35.11
591.35	49.15
591.51	93.62
591.67	39.79
591.83	56.17
591.99	42.13
592.15	23.41
592.31	4.68
592.46	70.22
592.62	46.81
592.78	93.62
592.94	44.47
593.10	77.24
593.26	32.77
593.41	100.64
593.57	65.54
593.73	60.85
593.89	81.92
594.05	23.41
594.20	11.70
594.36	56.17
594.52	44.47
594.68	23.41
594.84	88.94
594.99	25.75
595.15	58.51
595.31	121.71
595.47	25.75
595.62	72.56
595.78	119.37
595.94	9.36
596.10	28.09
596.25	23.41
596.41	77.24
596.57	46.81
596.73	14.04
596.88	77.24
597.04	86.60
597.20	4.68
597.36	102.98
597.51	4.68
597.67	77.24
597.83	37.45
597.99	88.94
598.14	28.09
598.30	86.60
598.46	63.19
598.61	81.92
598.77	21.06
598.93	0.00
599.09	79.58
599.24	32.77
599.40	63.19
599.56	86.60
599.71	49.15
599.87	28.09
600.03	65.54
600.18	152.13
600.34	0.00
600.50	42.13
600.65	63.19
600.81	35.11
600.97	95.96
601.12	46.81
601.28	30.43
601.44	91.28
601.59	128.73
601.75	18.72
601.91	51.49
602.06	102.98
602.22	39.79
602.37	49.15
602.53	98.30
602.69	91.28
602.84	53.83
603.00	135.75
603.16	91.28
603.31	16.38
603.47	51.49
603.62	42.13
603.78	72.56
603.94	86.60
604.09	4.68
604.25	72.56
604.40	77.24
604.56	42.13
604.71	53.83
604.87	39.79
605.03	30.43
605.18	32.77
605.34	11.70
605.49	56.17
605.65	32.77
605.80	56.17
605.96	77.24
606.12	0.00
606.27	56.17
606.43	81.92
606.58	39.79
606.74	35.11
606.89	37.45
607.05	88.94
607.20	37.45
607.36	46.81
607.51	72.56
607.67	0.00
607.82	79.58
607.98	18.72
608.13	58.51
608.29	86.60
608.44	77.24
608.60	63.19
608.75	79.58
608.91	117.03
609.06	60.85
609.22	88.94
609.37	133.41
609.53	18.72
609.68	0.00
609.84	35.11
609.99	21.06
610.15	16.38
610.30	84.26
610.46	49.15
610.61	56.17
610.76	77.24
610.92	65.54
611.07	56.17
611.23	74.90
611.38	28.09
611.54	37.45
611.69	65.54
611.84	23.41
612.00	0.00
612.15	53.83
612.31	63.19
612.46	70.22
612.62	49.15
612.77	0.00
612.92	25.75
613.08	2.34
613.23	32.77
613.39	23.41
613.54	74.90
613.69	60.85
613.85	51.49
614.00	37.45
614.15	0.00
614.31	88.94
614.46	0.00
614.62	42.13
614.77	39.79
614.92	67.88
615.08	23.41
615.23	72.56
615.38	100.64
615.54	37.45
615.69	32.77
615.84	21.06
616.00	60.85
616.15	44.47
616.30	35.11
616.46	93.62
616.61	0.00
616.76	67.88
616.92	67.88
617.07	53.83
617.22	28.09
617.37	35.11
617.53	51.49
617.68	21.06
617.83	95.96
617.99	21.06
618.14	72.56
618.29	121.71
618.45	30.43
618.60	0.00
618.75	84.26
618.90	53.83
619.06	60.85
619.21	79.58
619.36	119.37
619.51	60.85
619.67	88.94
619.82	63.19
619.97	44.47
620.12	58.51
620.28	16.38
620.43	77.24
620.58	28.09
620.73	37.45
620.89	60.85
621.04	105.32
621.19	70.22
621.34	28.09
621.49	74.90
621.65	14.04
621.80	39.79
621.95	91.28
622.10	4.68
622.25	74.90
622.41	7.02
622.56	0.00
622.71	18.72
622.86	30.43
623.01	53.83
623.16	21.06
623.32	35.11
623.47	23.41
623.62	58.51
623.77	0.00
623.92	4.68
624.07	9.36
624.23	28.09
624.38	0.00
624.53	0.00
624.68	67.88
624.83	18.72
624.98	70.22
625.13	56.17
625.29	39.79
625.44	28.09
625.59	72.56
625.74	49.15
625.89	72.56
626.04	79.58
626.19	70.22
626.34	25.75
626.49	42.13
626.65	51.49
626.80	105.32
626.95	16.38
627.10	11.70
627.25	35.11
627.40	86.60
627.55	100.64
627.70	112.35
627.85	4.68
628.00	63.19
628.15	4.68
628.30	0.00
628.45	154.48
628.60	79.58
628.76	2.34
628.91	0.00
629.06	0.00
629.21	23.41
629.36	60.85
629.51	65.54
629.66	107.66
629.81	23.41
629.96	65.54
630.11	105.32
630.26	51.49
630.41	18.72
630.56	56.17
630.71	84.26
630.86	18.72
631.01	51.49
631.16	100.64
631.31	46.81
631.46	67.88
631.61	88.94
631.76	0.00
631.91	58.51
632.06	81.92
632.21	42.13
632.36	60.85
632.51	37.45
632.66	39.79
632.81	72.56
632.96	86.60
633.10	51.49
633.25	35.11
633.40	79.58
633.55	16.38
633.70	81.92
633.85	93.62
634.00	28.09
634.15	56.17
634.30	70.22
634.45	0.00
634.60	63.19
634.75	74.90
634.90	0.00
635.05	58.51
635.19	67.88
635.34	32.77
635.49	42.13
635.64	35.11
635.79	39.79
635.94	39.79
636.09	56.17
636.24	86.60
636.39	0.00
636.53	14.04
636.68	51.49
636.83	0.00
636.98	0.00
637.13	30.43
637.28	53.83
637.43	32.77
637.57	60.85
637.72	32.77
637.87	16.38
638.02	56.17
638.17	37.45
638.32	88.94
638.46	16.38
638.61	28.09
638.76	86.60
638.91	0.00
639.06	28.09
639.20	44.47
639.35	0.00
639.50	112.35
639.65	72.56
639.80	46.81
639.94	49.15
640.09	117.03
640.24	42.13
640.39	0.00
640.54	84.26
640.68	67.88
640.83	65.54
640.98	46.81
641.13	28.09
641.27	79.58
641.42	44.47
641.57	0.00
641.72	58.51
641.86	37.45
642.01	107.66
642.16	28.09
642.31	21.06
642.45	110.01
642.60	56.17
642.75	56.17
642.90	98.30
643.04	7.02
643.19	88.94
643.34	49.15
643.48	30.43
643.63	0.00
643.78	0.00
643.93	100.64
644.07	53.83
644.22	70.22
644.37	11.70
644.51	72.56
644.66	18.72
644.81	0.00
644.95	32.77
645.10	0.00
645.25	42.13
645.39	56.17
645.54	4.68
645.69	102.98
645.83	39.79
645.98	14.04
646.13	42.13
646.27	16.38
646.42	65.54
646.57	105.32
646.71	65.54
646.86	142.77
647.00	131.07
647.15	58.51
647.30	58.51
647.44	28.09
647.59	44.47
647.74	46.81
647.88	46.81
648.03	79.58
648.17	0.00
648.32	65.54
648.47	39.79
648.61	37.45
648.76	84.26
648.90	58.51
649.05	105.32
649.20	9.36
649.34	60.85
649.49	58.51
649.63	42.13
649.78	21.06
649.92	0.00
650.07	63.19
650.21	142.77
650.36	32.77
650.51	42.13
650.65	0.00
650.80	0.00
650.94	23.41
651.09	53.83
651.23	74.90
651.38	86.60
651.52	11.70
651.67	21.06
651.81	63.19
651.96	39.79
652.10	100.64
652.25	67.88
652.39	0.00
652.54	53.83
652.68	60.85
652.83	58.51
652.97	51.49
653.12	44.47
653.26	28.09
653.41	4.68
653.55	77.24
653.70	88.94
653.84	49.15
653.99	0.00
654.13	4.68
654.27	44.47
654.42	77.24
654.56	2.34
654.71	0.00
654.85	18.72
655.00	35.11
655.14	7.02
655.29	100.64
655.43	30.43
655.57	42.13
655.72	0.00
655.86	0.00
656.01	2.34
656.15	11.70
656.30	91.28
656.44	18.72
656.58	60.85
656.73	11.70
656.87	9.36
657.01	46.81
657.16	9.36
657.30	14.04
657.45	49.15
657.59	44.47
657.73	2.34
657.88	30.43
658.02	0.00
658.16	4.68
658.31	84.26
658.45	35.11
658.60	21.06
658.74	51.49
658.88	14.04
659.03	28.09
659.17	0.00
659.31	65.54
659.46	51.49
659.60	16.38
659.74	67.88
659.89	67.88
660.03	49.15
660.17	100.64
660.32	0.00
660.46	35.11
660.60	39.79
660.74	72.56
660.89	39.79
661.03	79.58
661.17	49.15
661.32	70.22
661.46	161.50
661.60	114.69
661.74	0.00
661.89	105.32
662.03	107.66
662.17	51.49
662.31	58.51
662.46	7.02
662.60	74.90
662.74	53.83
662.88	42.13
663.03	0.00
663.17	25.75
663.31	60.85
663.45	102.98
663.60	32.77
663.74	37.45
663.88	30.43
664.02	46.81
664.17	81.92
664.31	30.43
664.45	58.51
664.59	79.58
664.73	42.13
664.88	70.22
665.02	35.11
665.16	58.51
665.30	65.54
665.44	0.00
665.59	53.83
665.73	49.15
665.87	63.19
666.01	23.41
666.15	0.00
666.29	23.41
666.44	42.13
666.58	30.43
666.72	105.32
666.86	124.05
667.00	21.06
667.14	46.81
667.28	81.92
667.43	0.00
667.57	63.19
667.71	0.00
667.85	32.77
667.99	51.49
668.13	30.43
668.27	28.09
668.41	0.00
668.56	86.60
668.70	16.38
668.84	81.92
668.98	51.49
669.12	32.77
669.26	81.92
669.40	46.81
669.54	21.06
669.68	16.38
669.82	77.24
669.96	14.04
670.10	0.00
670.25	9.36
670.39	74.90
670.53	0.00
670.67	0.00
670.81	21.06
670.95	11.70
671.09	60.85
671.23	110.01
671.37	14.04
671.51	88.94
671.65	7.02
671.79	0.00
671.93	70.22
672.07	4.68
672.21	21.06
672.35	35.11
672.49	18.72
672.63	93.62
672.77	107.66
672.91	0.00
673.05	0.00
673.19	14.04
673.33	60.85
673.47	16.38
673.61	37.45
673.75	21.06
673.89	39.79
674.03	39.79
674.17	58.51
674.31	39.79
674.45	72.56
674.59	16.38
674.73	14.04
674.87	2.34
675.01	95.96
675.15	46.81
675.29	37.45
675.43	42.13
675.56	21.06
675.70	93.62
675.84	42.13
675.98	53.83
676.12	18.72
676.26	7.02
676.40	18.72
676.54	110.01
676.68	42.13
676.82	16.38
676.96	28.09
677.10	30.43
677.23	93.62
677.37	79.58
677.51	77.24
677.65	35.11
677.79	58.51
677.93	105.32
678.07	42.13
678.21	0.00
678.34	74.90
678.48	0.00
678.62	18.72
678.76	53.83
678.90	39.79
679.04	2.34
679.18	67.88
679.31	11.70
679.45	60.85
679.59	58.51
679.73	25.75
679.87	25.75
680.00	51.49
680.14	95.96
680.28	79.58
680.42	35.11
680.56	37.45
680.70	0.00
680.83	74.90
680.97	53.83
681.11	11.70
681.25	81.92
681.39	60.85
681.52	81.92
681.66	42.13
681.80	46.81
681.94	18.72
682.07	124.05
682.21	16.38
682.35	37.45
682.49	95.96
682.62	86.60
682.76	30.43
682.90	58.51
683.04	112.35
683.17	51.49
683.31	79.58
683.45	105.32
683.59	0.00
683.72	0.00
683.86	65.54
684.00	53.83
684.13	28.09
684.27	53.83
684.41	98.30
684.55	0.00
684.68	0.00
684.82	49.15
684.96	9.36
685.09	42.13
685.23	0.00
685.37	0.00
685.50	74.90
685.64	63.19
685.78	44.47
685.91	23.41
686.05	44.47
686.19	56.17
686.32	65.54
686.46	0.00
686.60	32.77
686.73	37.45
686.87	18.72
687.01	58.51
687.14	39.79
687.28	0.00
687.42	53.83
687.55	63.19
687.69	74.90
687.82	28.09
687.96	65.54
688.10	44.47
688.23	60.85
688.37	0.00
688.50	30.43
688.64	39.79
688.78	2.34
688.91	67.88
689.05	49.15
689.18	14.04
689.32	81.92
689.46	0.00
689.59	70.22
689.73	42.13
689.86	0.00
690.00	37.45
690.13	70.22
690.27	37.45
690.41	46.81
690.54	119.37
690.68	39.79
690.81	39.79
690.95	86.60
691.08	39.79
691.22	63.19
691.35	11.70
691.49	0.00
691.62	60.85
691.76	30.43
691.89	23.41
692.03	65.54
692.16	39.79
692.30	30.43
692.43	51.49
692.57	58.51
692.70	56.17
692.84	63.19
692.97	21.06
693.11	51.49
693.24	0.00
693.38	0.00
693.51	49.15
693.65	25.75
693.78	0.00
693.92	79.58
694.05	30.43
694.19	49.15
694.32	0.00
694.45	37.45
694.59	53.83
694.72	0.00
694.86	67.88
694.99	60.85
695.13	7.02
695.26	44.47
695.39	46.81
695.53	0.00
695.66	0.00
695.80	16.38
695.93	88.94
696.07	46.81
696.20	70.22
696.33	0.00
696.47	0.00
696.60	60.85
696.73	9.36
696.87	30.43
697.00	98.30
697.14	11.70
697.27	21.06
697.40	4.68
697.54	107.66
697.67	21.06
697.80	37.45
697.94	0.00
698.07	51.49
698.21	105.32
698.34	0.00
698.47	79.58
698.61	0.00
698.74	16.38
698.87	0.00
699.01	93.62
699.14	0.00
699.27	60.85
699.40	84.26
699.54	70.22
699.67	84.26
699.80	63.19
699.94	93.62
700.07	11.70
700.20	4.68
700.34	49.15
700.47	21.06
700.60	28.09
700.73	0.00
700.87	91.28
701.00	37.45
701.13	18.72
701.26	16.38
701.40	0.00
701.53	37.45
701.66	77.24
701.79	0.00
701.93	53.83
702.06	39.79
702.19	56.17
702.32	0.00
702.46	32.77
702.59	72.56
702.72	4.68
702.85	0.00
702.99	0.00
703.12	42.13
703.25	51.49
703.38	56.17
703.51	91.28
703.65	30.43
703.78	42.13
703.91	0.00
704.04	0.00
704.17	0.00
704.31	46.81
704.44	56.17
704.57	37.45
704.70	0.00
704.83	67.88
704.96	107.66
705.10	42.13
705.23	30.43
>>>>>End Processed Spectral Data<<<<<
