SpectraSuite Data File
++++++++++++++++++++++++++++++++++++
Date: Fri Oct 04 12:13:44 GMT-05:00 2013
User: price-jones
Dark Spectrum Present: No
Reference Spectrum Present: No
Number of Sampled Component Spectra: 1
Spectrometers: USB2+H05261
Integration Time (usec): 10000 (USB2+H05261)
Spectra Averaged: 1 (USB2+H05261)
Boxcar Smoothing: 0 (USB2+H05261)
Correct for Electrical Dark: No (USB2+H05261)
Strobe/Lamp Enabled: No (USB2+H05261)
Correct for Detector Non-linearity: No (USB2+H05261)
Correct for Stray Light: No (USB2+H05261)
Number of Pixels in Processed Spectrum: 2048
>>>>>Begin Processed Spectral Data<<<<<
365.73	0.00
365.92	0.00
366.12	0.00
366.32	0.00
366.52	0.00
366.72	0.00
366.91	0.00
367.11	0.00
367.31	0.00
367.51	0.00
367.70	0.00
367.90	0.00
368.10	0.00
368.30	0.00
368.49	0.00
368.69	0.00
368.89	0.00
369.09	0.00
369.28	0.00
369.48	0.00
369.68	0.00
369.87	0.00
370.07	0.00
370.27	0.00
370.47	0.00
370.66	0.00
370.86	0.00
371.06	18.72
371.25	0.00
371.45	30.43
371.65	11.70
371.84	2.34
372.04	0.00
372.24	0.00
372.44	32.77
372.63	46.81
372.83	16.38
373.03	9.36
373.22	18.72
373.42	49.15
373.62	95.96
373.81	9.36
374.01	86.60
374.21	4.68
374.40	14.04
374.60	46.81
374.79	28.09
374.99	30.43
375.19	9.36
375.38	81.92
375.58	16.38
375.78	65.54
375.97	63.19
376.17	70.22
376.37	93.62
376.56	107.66
376.76	35.11
376.95	42.13
377.15	77.24
377.35	21.06
377.54	28.09
377.74	42.13
377.93	88.94
378.13	16.38
378.33	16.38
378.52	37.45
378.72	35.11
378.91	112.35
379.11	9.36
379.31	0.00
379.50	23.41
379.70	2.34
379.89	0.00
380.09	0.00
380.28	0.00
380.48	42.13
380.68	0.00
380.87	0.00
381.07	28.09
381.26	0.00
381.46	0.00
381.65	11.70
381.85	0.00
382.04	0.00
382.24	86.60
382.43	16.38
382.63	14.04
382.83	0.00
383.02	58.51
383.22	0.00
383.41	0.00
383.61	37.45
383.80	44.47
384.00	28.09
384.19	95.96
384.39	4.68
384.58	86.60
384.78	4.68
384.97	28.09
385.17	79.58
385.36	46.81
385.56	58.51
385.75	9.36
385.95	0.00
386.14	32.77
386.34	42.13
386.53	18.72
386.72	25.75
386.92	0.00
387.11	21.06
387.31	65.54
387.50	25.75
387.70	0.00
387.89	35.11
388.09	0.00
388.28	58.51
388.48	53.83
388.67	32.77
388.86	4.68
389.06	21.06
389.25	0.00
389.45	4.68
389.64	18.72
389.84	28.09
390.03	28.09
390.22	0.00
390.42	4.68
390.61	49.15
390.81	0.00
391.00	39.79
391.19	9.36
391.39	18.72
391.58	0.00
391.78	0.00
391.97	0.00
392.16	25.75
392.36	0.00
392.55	35.11
392.75	42.13
392.94	4.68
393.13	0.00
393.33	2.34
393.52	81.92
393.71	88.94
393.91	0.00
394.10	42.13
394.29	0.00
394.49	23.41
394.68	44.47
394.88	4.68
395.07	28.09
395.26	58.51
395.46	14.04
395.65	37.45
395.84	110.01
396.04	67.88
396.23	0.00
396.42	0.00
396.62	70.22
396.81	9.36
397.00	51.49
397.19	74.90
397.39	51.49
397.58	7.02
397.77	56.17
397.97	39.79
398.16	0.00
398.35	9.36
398.55	67.88
398.74	126.39
398.93	49.15
399.12	102.98
399.32	51.49
399.51	0.00
399.70	46.81
399.90	37.45
400.09	0.00
400.28	77.24
400.47	0.00
400.67	0.00
400.86	0.00
401.05	9.36
401.24	93.62
401.44	35.11
401.63	49.15
401.82	4.68
402.01	39.79
402.21	0.00
402.40	67.88
402.59	11.70
402.78	46.81
402.97	98.30
403.17	0.00
403.36	56.17
403.55	16.38
403.74	0.00
403.93	0.00
404.13	28.09
404.32	0.00
404.51	0.00
404.70	0.00
404.89	81.92
405.09	0.00
405.28	58.51
405.47	35.11
405.66	67.88
405.85	105.32
406.05	58.51
406.24	0.00
406.43	0.00
406.62	84.26
406.81	0.00
407.00	21.06
407.20	14.04
407.39	30.43
407.58	51.49
407.77	35.11
407.96	18.72
408.15	11.70
408.34	65.54
408.54	0.00
408.73	0.00
408.92	23.41
409.11	56.17
409.30	49.15
409.49	0.00
409.68	9.36
409.87	0.00
410.07	49.15
410.26	51.49
410.45	88.94
410.64	77.24
410.83	32.77
411.02	9.36
411.21	0.00
411.40	98.30
411.59	93.62
411.78	70.22
411.98	79.58
412.17	60.85
412.36	18.72
412.55	0.00
412.74	30.43
412.93	18.72
413.12	77.24
413.31	84.26
413.50	121.71
413.69	70.22
413.88	42.13
414.07	7.02
414.26	30.43
414.45	44.47
414.64	42.13
414.83	74.90
415.02	93.62
415.22	100.64
415.41	60.85
415.60	39.79
415.79	14.04
415.98	121.71
416.17	0.00
416.36	63.19
416.55	0.00
416.74	4.68
416.93	21.06
417.12	30.43
417.31	74.90
417.50	42.13
417.69	81.92
417.88	0.00
418.07	21.06
418.26	0.00
418.45	77.24
418.64	63.19
418.83	21.06
419.02	65.54
419.21	18.72
419.39	25.75
419.58	74.90
419.77	0.00
419.96	88.94
420.15	53.83
420.34	72.56
420.53	0.00
420.72	23.41
420.91	2.34
421.10	63.19
421.29	91.28
421.48	63.19
421.67	16.38
421.86	11.70
422.05	79.58
422.24	91.28
422.43	23.41
422.61	4.68
422.80	107.66
422.99	23.41
423.18	74.90
423.37	0.00
423.56	30.43
423.75	72.56
423.94	0.00
424.13	4.68
424.32	0.00
424.50	35.11
424.69	72.56
424.88	49.15
425.07	0.00
425.26	7.02
425.45	63.19
425.64	37.45
425.83	30.43
426.01	23.41
426.20	65.54
426.39	70.22
426.58	21.06
426.77	39.79
426.96	23.41
427.15	44.47
427.33	79.58
427.52	100.64
427.71	102.98
427.90	63.19
428.09	51.49
428.28	42.13
428.46	119.37
428.65	32.77
428.84	7.02
429.03	0.00
429.22	23.41
429.40	42.13
429.59	0.00
429.78	58.51
429.97	0.00
430.16	28.09
430.34	4.68
430.53	0.00
430.72	0.00
430.91	46.81
431.10	0.00
431.28	65.54
431.47	39.79
431.66	23.41
431.85	81.92
432.03	58.51
432.22	37.45
432.41	49.15
432.60	32.77
432.79	37.45
432.97	88.94
433.16	51.49
433.35	142.77
433.54	53.83
433.72	7.02
433.91	14.04
434.10	25.75
434.28	35.11
434.47	23.41
434.66	0.00
434.85	25.75
435.03	49.15
435.22	72.56
435.41	67.88
435.59	23.41
435.78	46.81
435.97	2.34
436.16	77.24
436.34	51.49
436.53	46.81
436.72	56.17
436.90	23.41
437.09	37.45
437.28	42.13
437.46	0.00
437.65	53.83
437.84	42.13
438.02	2.34
438.21	49.15
438.40	44.47
438.58	11.70
438.77	0.00
438.96	95.96
439.14	46.81
439.33	9.36
439.52	105.32
439.70	35.11
439.89	58.51
440.08	58.51
440.26	53.83
440.45	42.13
440.63	126.39
440.82	37.45
441.01	39.79
441.19	0.00
441.38	65.54
441.57	81.92
441.75	77.24
441.94	100.64
442.12	16.38
442.31	44.47
442.50	11.70
442.68	23.41
442.87	2.34
443.05	56.17
443.24	7.02
443.43	100.64
443.61	110.01
443.80	67.88
443.98	7.02
444.17	72.56
444.35	56.17
444.54	79.58
444.73	42.13
444.91	107.66
445.10	49.15
445.28	0.00
445.47	63.19
445.65	44.47
445.84	42.13
446.02	110.01
446.21	74.90
446.39	37.45
446.58	25.75
446.77	63.19
446.95	65.54
447.14	81.92
447.32	86.60
447.51	49.15
447.69	37.45
447.88	18.72
448.06	51.49
448.25	56.17
448.43	42.13
448.62	16.38
448.80	102.98
448.99	67.88
449.17	37.45
449.36	70.22
449.54	46.81
449.73	84.26
449.91	51.49
450.10	30.43
450.28	79.58
450.46	35.11
450.65	30.43
450.83	18.72
451.02	131.07
451.20	74.90
451.39	0.00
451.57	93.62
451.76	67.88
451.94	4.68
452.13	74.90
452.31	44.47
452.49	114.69
452.68	51.49
452.86	35.11
453.05	35.11
453.23	79.58
453.42	65.54
453.60	14.04
453.78	7.02
453.97	74.90
454.15	98.30
454.34	9.36
454.52	4.68
454.70	30.43
454.89	37.45
455.07	0.00
455.26	100.64
455.44	0.00
455.62	9.36
455.81	46.81
455.99	81.92
456.17	65.54
456.36	7.02
456.54	46.81
456.73	51.49
456.91	112.35
457.09	107.66
457.28	105.32
457.46	74.90
457.64	98.30
457.83	91.28
458.01	67.88
458.19	79.58
458.38	21.06
458.56	53.83
458.74	112.35
458.93	53.83
459.11	14.04
459.29	21.06
459.48	0.00
459.66	65.54
459.84	74.90
460.03	70.22
460.21	72.56
460.39	23.41
460.57	18.72
460.76	21.06
460.94	39.79
461.12	0.00
461.31	121.71
461.49	98.30
461.67	11.70
461.85	60.85
462.04	53.83
462.22	145.11
462.40	0.00
462.59	58.51
462.77	117.03
462.95	0.00
463.13	14.04
463.32	42.13
463.50	35.11
463.68	56.17
463.86	84.26
464.05	72.56
464.23	84.26
464.41	32.77
464.59	65.54
464.78	70.22
464.96	14.04
465.14	0.00
465.32	56.17
465.50	93.62
465.69	23.41
465.87	74.90
466.05	37.45
466.23	72.56
466.41	74.90
466.60	44.47
466.78	42.13
466.96	175.54
467.14	58.51
467.32	28.09
467.51	42.13
467.69	42.13
467.87	67.88
468.05	100.64
468.23	81.92
468.41	51.49
468.60	32.77
468.78	79.58
468.96	49.15
469.14	72.56
469.32	58.51
469.50	18.72
469.69	81.92
469.87	105.32
470.05	65.54
470.23	74.90
470.41	46.81
470.59	14.04
470.77	2.34
470.95	65.54
471.14	121.71
471.32	23.41
471.50	0.00
471.68	60.85
471.86	107.66
472.04	37.45
472.22	67.88
472.40	74.90
472.58	4.68
472.77	58.51
472.95	117.03
473.13	42.13
473.31	91.28
473.49	60.85
473.67	58.51
473.85	35.11
474.03	9.36
474.21	9.36
474.39	39.79
474.57	18.72
474.75	32.77
474.93	51.49
475.12	28.09
475.30	70.22
475.48	91.28
475.66	98.30
475.84	49.15
476.02	93.62
476.20	63.19
476.38	77.24
476.56	142.77
476.74	60.85
476.92	0.00
477.10	44.47
477.28	65.54
477.46	84.26
477.64	63.19
477.82	81.92
478.00	93.62
478.18	117.03
478.36	51.49
478.54	53.83
478.72	74.90
478.90	56.17
479.08	51.49
479.26	74.90
479.44	70.22
479.62	0.00
479.80	86.60
479.98	0.00
480.16	124.05
480.34	42.13
480.52	81.92
480.70	7.02
480.88	77.24
481.06	44.47
481.24	91.28
481.41	21.06
481.59	88.94
481.77	100.64
481.95	46.81
482.13	72.56
482.31	56.17
482.49	49.15
482.67	81.92
482.85	77.24
483.03	126.39
483.21	88.94
483.39	86.60
483.57	86.60
483.74	84.26
483.92	60.85
484.10	60.85
484.28	37.45
484.46	79.58
484.64	86.60
484.82	84.26
485.00	21.06
485.18	23.41
485.35	0.00
485.53	77.24
485.71	119.37
485.89	98.30
486.07	91.28
486.25	11.70
486.43	51.49
486.61	37.45
486.78	67.88
486.96	105.32
487.14	9.36
487.32	25.75
487.50	18.72
487.68	93.62
487.85	63.19
488.03	60.85
488.21	60.85
488.39	79.58
488.57	18.72
488.75	65.54
488.92	152.13
489.10	77.24
489.28	37.45
489.46	67.88
489.64	105.32
489.81	121.71
489.99	37.45
490.17	51.49
490.35	11.70
490.53	28.09
490.70	65.54
490.88	98.30
491.06	35.11
491.24	58.51
491.41	102.98
491.59	100.64
491.77	95.96
491.95	138.09
492.13	63.19
492.30	42.13
492.48	70.22
492.66	91.28
492.84	105.32
493.01	28.09
493.19	74.90
493.37	53.83
493.54	95.96
493.72	56.17
493.90	100.64
494.08	91.28
494.25	77.24
494.43	53.83
494.61	65.54
494.79	93.62
494.96	154.48
495.14	49.15
495.32	124.05
495.49	39.79
495.67	63.19
495.85	117.03
496.02	67.88
496.20	28.09
496.38	14.04
496.55	74.90
496.73	37.45
496.91	95.96
497.09	105.32
497.26	65.54
497.44	72.56
497.62	56.17
497.79	60.85
497.97	86.60
498.14	63.19
498.32	91.28
498.50	65.54
498.67	98.30
498.85	88.94
499.03	100.64
499.20	91.28
499.38	63.19
499.56	74.90
499.73	124.05
499.91	117.03
500.08	65.54
500.26	60.85
500.44	44.47
500.61	110.01
500.79	74.90
500.97	100.64
501.14	112.35
501.32	142.77
501.49	95.96
501.67	25.75
501.84	58.51
502.02	107.66
502.20	88.94
502.37	84.26
502.55	67.88
502.72	95.96
502.90	81.92
503.07	175.54
503.25	77.24
503.43	63.19
503.60	72.56
503.78	102.98
503.95	51.49
504.13	51.49
504.30	114.69
504.48	147.45
504.65	53.83
504.83	72.56
505.01	81.92
505.18	95.96
505.36	72.56
505.53	112.35
505.71	84.26
505.88	112.35
506.06	117.03
506.23	86.60
506.41	65.54
506.58	56.17
506.76	23.41
506.93	166.18
507.11	72.56
507.28	28.09
507.46	65.54
507.63	0.00
507.81	100.64
507.98	124.05
508.16	124.05
508.33	114.69
508.50	49.15
508.68	131.07
508.85	121.71
509.03	81.92
509.20	91.28
509.38	74.90
509.55	74.90
509.73	107.66
509.90	65.54
510.08	128.73
510.25	98.30
510.42	110.01
510.60	107.66
510.77	58.51
510.95	124.05
511.12	86.60
511.30	91.28
511.47	117.03
511.64	77.24
511.82	147.45
511.99	35.11
512.17	98.30
512.34	98.30
512.51	88.94
512.69	65.54
512.86	95.96
513.04	72.56
513.21	81.92
513.38	49.15
513.56	70.22
513.73	79.58
513.90	107.66
514.08	159.16
514.25	126.39
514.43	126.39
514.60	234.05
514.77	81.92
514.95	58.51
515.12	112.35
515.29	145.11
515.47	58.51
515.64	58.51
515.81	60.85
515.99	100.64
516.16	112.35
516.33	95.96
516.51	4.68
516.68	60.85
516.85	107.66
517.03	189.58
517.20	117.03
517.37	44.47
517.54	114.69
517.72	77.24
517.89	35.11
518.06	149.79
518.24	70.22
518.41	32.77
518.58	79.58
518.75	147.45
518.93	128.73
519.10	86.60
519.27	107.66
519.45	107.66
519.62	102.98
519.79	117.03
519.96	95.96
520.14	74.90
520.31	98.30
520.48	30.43
520.65	86.60
520.83	135.75
521.00	152.13
521.17	79.58
521.34	105.32
521.52	56.17
521.69	126.39
521.86	93.62
522.03	119.37
522.20	65.54
522.38	4.68
522.55	72.56
522.72	105.32
522.89	74.90
523.07	77.24
523.24	140.43
523.41	91.28
523.58	114.69
523.75	140.43
523.92	58.51
524.10	142.77
524.27	184.90
524.44	135.75
524.61	124.05
524.78	110.01
524.96	74.90
525.13	72.56
525.30	79.58
525.47	163.84
525.64	67.88
525.81	105.32
525.98	39.79
526.16	0.00
526.33	72.56
526.50	72.56
526.67	126.39
526.84	30.43
527.01	93.62
527.18	100.64
527.36	105.32
527.53	93.62
527.70	32.77
527.87	46.81
528.04	60.85
528.21	67.88
528.38	95.96
528.55	53.83
528.72	39.79
528.89	156.82
529.07	65.54
529.24	77.24
529.41	102.98
529.58	16.38
529.75	88.94
529.92	126.39
530.09	0.00
530.26	88.94
530.43	42.13
530.60	65.54
530.77	91.28
530.94	102.98
531.11	142.77
531.28	126.39
531.46	60.85
531.63	86.60
531.80	121.71
531.97	117.03
532.14	72.56
532.31	114.69
532.48	84.26
532.65	14.04
532.82	72.56
532.99	98.30
533.16	95.96
533.33	86.60
533.50	91.28
533.67	39.79
533.84	37.45
534.01	28.09
534.18	121.71
534.35	67.88
534.52	98.30
534.69	60.85
534.86	117.03
535.03	187.24
535.20	133.41
535.37	102.98
535.54	46.81
535.71	98.30
535.88	67.88
536.05	91.28
536.22	51.49
536.38	35.11
536.55	86.60
536.72	44.47
536.89	63.19
537.06	105.32
537.23	65.54
537.40	102.98
537.57	25.75
537.74	102.98
537.91	145.11
538.08	88.94
538.25	142.77
538.42	145.11
538.59	126.39
538.75	16.38
538.92	184.90
539.09	156.82
539.26	65.54
539.43	70.22
539.60	32.77
539.77	74.90
539.94	114.69
540.11	60.85
540.28	102.98
540.44	140.43
540.61	93.62
540.78	72.56
540.95	51.49
541.12	98.30
541.29	51.49
541.46	49.15
541.62	121.71
541.79	44.47
541.96	102.98
542.13	65.54
542.30	51.49
542.47	65.54
542.63	117.03
542.80	35.11
542.97	56.17
543.14	21.06
543.31	140.43
543.48	91.28
543.64	84.26
543.81	84.26
543.98	105.32
544.15	107.66
544.32	91.28
544.48	72.56
544.65	84.26
544.82	88.94
544.99	126.39
545.16	86.60
545.32	91.28
545.49	51.49
545.66	95.96
545.83	88.94
546.00	51.49
546.16	135.75
546.33	74.90
546.50	154.48
546.67	70.22
546.83	173.20
547.00	84.26
547.17	70.22
547.34	110.01
547.50	79.58
547.67	72.56
547.84	166.18
548.00	53.83
548.17	74.90
548.34	49.15
548.51	39.79
548.67	49.15
548.84	49.15
549.01	119.37
549.18	25.75
549.34	77.24
549.51	88.94
549.68	74.90
549.84	53.83
550.01	110.01
550.18	149.79
550.34	63.19
550.51	86.60
550.68	110.01
550.84	77.24
551.01	93.62
551.18	32.77
551.34	72.56
551.51	42.13
551.68	63.19
551.84	91.28
552.01	0.00
552.18	135.75
552.34	86.60
552.51	107.66
552.68	79.58
552.84	79.58
553.01	121.71
553.18	51.49
553.34	56.17
553.51	88.94
553.67	53.83
553.84	63.19
554.01	42.13
554.17	72.56
554.34	79.58
554.51	140.43
554.67	72.56
554.84	119.37
555.00	105.32
555.17	105.32
555.33	72.56
555.50	0.00
555.67	93.62
555.83	112.35
556.00	39.79
556.16	133.41
556.33	86.60
556.50	51.49
556.66	84.26
556.83	70.22
556.99	124.05
557.16	102.98
557.32	39.79
557.49	168.52
557.65	63.19
557.82	100.64
557.98	84.26
558.15	149.79
558.32	51.49
558.48	37.45
558.65	74.90
558.81	7.02
558.98	67.88
559.14	100.64
559.31	88.94
559.47	81.92
559.64	58.51
559.80	112.35
559.97	51.49
560.13	65.54
560.30	37.45
560.46	170.86
560.63	159.16
560.79	93.62
560.96	161.50
561.12	37.45
561.29	91.28
561.45	93.62
561.61	63.19
561.78	77.24
561.94	53.83
562.11	74.90
562.27	37.45
562.44	81.92
562.60	79.58
562.77	95.96
562.93	39.79
563.10	79.58
563.26	77.24
563.42	95.96
563.59	88.94
563.75	49.15
563.92	72.56
564.08	124.05
564.24	102.98
564.41	30.43
564.57	163.84
564.74	102.98
564.90	91.28
565.07	46.81
565.23	56.17
565.39	70.22
565.56	65.54
565.72	28.09
565.88	56.17
566.05	53.83
566.21	44.47
566.38	30.43
566.54	42.13
566.70	72.56
566.87	147.45
567.03	74.90
567.19	72.56
567.36	49.15
567.52	133.41
567.68	28.09
567.85	46.81
568.01	56.17
568.17	63.19
568.34	95.96
568.50	74.90
568.66	138.09
568.83	131.07
568.99	177.88
569.15	163.84
569.32	107.66
569.48	95.96
569.64	58.51
569.81	60.85
569.97	70.22
570.13	74.90
570.30	53.83
570.46	70.22
570.62	0.00
570.78	14.04
570.95	35.11
571.11	88.94
571.27	102.98
571.43	37.45
571.60	53.83
571.76	49.15
571.92	110.01
572.09	0.00
572.25	140.43
572.41	114.69
572.57	142.77
572.74	60.85
572.90	117.03
573.06	46.81
573.22	37.45
573.38	58.51
573.55	56.17
573.71	37.45
573.87	21.06
574.03	114.69
574.20	81.92
574.36	91.28
574.52	70.22
574.68	74.90
574.84	84.26
575.01	86.60
575.17	114.69
575.33	84.26
575.49	21.06
575.65	28.09
575.82	142.77
575.98	46.81
576.14	79.58
576.30	100.64
576.46	79.58
576.62	70.22
576.79	60.85
576.95	88.94
577.11	56.17
577.27	35.11
577.43	44.47
577.59	32.77
577.75	138.09
577.92	91.28
578.08	44.47
578.24	49.15
578.40	117.03
578.56	105.32
578.72	58.51
578.88	56.17
579.04	67.88
579.21	63.19
579.37	117.03
579.53	60.85
579.69	70.22
579.85	128.73
580.01	102.98
580.17	79.58
580.33	46.81
580.49	30.43
580.65	51.49
580.82	37.45
580.98	35.11
581.14	77.24
581.30	67.88
581.46	67.88
581.62	88.94
581.78	77.24
581.94	70.22
582.10	16.38
582.26	77.24
582.42	58.51
582.58	121.71
582.74	86.60
582.90	124.05
583.06	102.98
583.22	152.13
583.38	60.85
583.54	135.75
583.70	121.71
583.86	140.43
584.02	53.83
584.18	102.98
584.34	81.92
584.50	84.26
584.66	39.79
584.82	63.19
584.98	110.01
585.14	0.00
585.30	95.96
585.46	42.13
585.62	79.58
585.78	77.24
585.94	88.94
586.10	60.85
586.26	60.85
586.42	79.58
586.58	51.49
586.74	44.47
586.90	51.49
587.06	65.54
587.22	88.94
587.38	58.51
587.54	21.06
587.70	70.22
587.86	65.54
588.02	58.51
588.18	86.60
588.34	86.60
588.49	44.47
588.65	44.47
588.81	39.79
588.97	49.15
589.13	81.92
589.29	28.09
589.45	74.90
589.61	98.30
589.77	58.51
589.93	100.64
590.08	49.15
590.24	110.01
590.40	60.85
590.56	30.43
590.72	79.58
590.88	105.32
591.04	81.92
591.20	110.01
591.35	49.15
591.51	70.22
591.67	102.98
591.83	46.81
591.99	0.00
592.15	58.51
592.31	100.64
592.46	95.96
592.62	44.47
592.78	84.26
592.94	105.32
593.10	105.32
593.26	56.17
593.41	30.43
593.57	72.56
593.73	102.98
593.89	25.75
594.05	107.66
594.20	91.28
594.36	0.00
594.52	102.98
594.68	72.56
594.84	58.51
594.99	100.64
595.15	0.00
595.31	100.64
595.47	77.24
595.62	77.24
595.78	84.26
595.94	154.48
596.10	119.37
596.25	39.79
596.41	100.64
596.57	35.11
596.73	152.13
596.88	56.17
597.04	88.94
597.20	37.45
597.36	58.51
597.51	56.17
597.67	88.94
597.83	32.77
597.99	53.83
598.14	32.77
598.30	58.51
598.46	95.96
598.61	131.07
598.77	51.49
598.93	39.79
599.09	4.68
599.24	102.98
599.40	86.60
599.56	37.45
599.71	145.11
599.87	86.60
600.03	81.92
600.18	16.38
600.34	84.26
600.50	60.85
600.65	102.98
600.81	107.66
600.97	72.56
601.12	102.98
601.28	28.09
601.44	100.64
601.59	110.01
601.75	74.90
601.91	42.13
602.06	7.02
602.22	81.92
602.37	44.47
602.53	126.39
602.69	86.60
602.84	65.54
603.00	44.47
603.16	0.00
603.31	133.41
603.47	65.54
603.62	60.85
603.78	63.19
603.94	65.54
604.09	49.15
604.25	14.04
604.40	56.17
604.56	88.94
604.71	35.11
604.87	63.19
605.03	72.56
605.18	42.13
605.34	126.39
605.49	112.35
605.65	65.54
605.80	42.13
605.96	21.06
606.12	105.32
606.27	60.85
606.43	37.45
606.58	58.51
606.74	142.77
606.89	67.88
607.05	21.06
607.20	114.69
607.36	105.32
607.51	163.84
607.67	65.54
607.82	81.92
607.98	112.35
608.13	84.26
608.29	44.47
608.44	77.24
608.60	49.15
608.75	9.36
608.91	44.47
609.06	86.60
609.22	117.03
609.37	30.43
609.53	46.81
609.68	67.88
609.84	70.22
609.99	81.92
610.15	142.77
610.30	67.88
610.46	42.13
610.61	81.92
610.76	35.11
610.92	67.88
611.07	49.15
611.23	28.09
611.38	84.26
611.54	84.26
611.69	0.00
611.84	56.17
612.00	46.81
612.15	114.69
612.31	46.81
612.46	53.83
612.62	0.00
612.77	187.24
612.92	131.07
613.08	28.09
613.23	70.22
613.39	65.54
613.54	81.92
613.69	51.49
613.85	60.85
614.00	77.24
614.15	30.43
614.31	70.22
614.46	91.28
614.62	86.60
614.77	91.28
614.92	28.09
615.08	0.00
615.23	79.58
615.38	74.90
615.54	126.39
615.69	67.88
615.84	4.68
616.00	46.81
616.15	58.51
616.30	98.30
616.46	117.03
616.61	88.94
616.76	98.30
616.92	53.83
617.07	60.85
617.22	72.56
617.37	102.98
617.53	119.37
617.68	107.66
617.83	14.04
617.99	49.15
618.14	39.79
618.29	0.00
618.45	25.75
618.60	74.90
618.75	11.70
618.90	56.17
619.06	44.47
619.21	74.90
619.36	46.81
619.51	67.88
619.67	117.03
619.82	46.81
619.97	112.35
620.12	107.66
620.28	49.15
620.43	86.60
620.58	0.00
620.73	100.64
620.89	91.28
621.04	21.06
621.19	0.00
621.34	119.37
621.49	37.45
621.65	100.64
621.80	28.09
621.95	110.01
622.10	49.15
622.25	60.85
622.41	4.68
622.56	70.22
622.71	16.38
622.86	42.13
623.01	37.45
623.16	32.77
623.32	88.94
623.47	63.19
623.62	79.58
623.77	53.83
623.92	138.09
624.07	0.00
624.23	32.77
624.38	67.88
624.53	56.17
624.68	79.58
624.83	30.43
624.98	7.02
625.13	14.04
625.29	112.35
625.44	79.58
625.59	16.38
625.74	30.43
625.89	58.51
626.04	51.49
626.19	23.41
626.34	110.01
626.49	60.85
626.65	110.01
626.80	74.90
626.95	72.56
627.10	84.26
627.25	65.54
627.40	0.00
627.55	102.98
627.70	14.04
627.85	0.00
628.00	42.13
628.15	32.77
628.30	88.94
628.45	56.17
628.60	18.72
628.76	42.13
628.91	53.83
629.06	112.35
629.21	56.17
629.36	58.51
629.51	81.92
629.66	95.96
629.81	51.49
629.96	72.56
630.11	95.96
630.26	81.92
630.41	95.96
630.56	35.11
630.71	79.58
630.86	112.35
631.01	86.60
631.16	128.73
631.31	0.00
631.46	16.38
631.61	67.88
631.76	0.00
631.91	4.68
632.06	53.83
632.21	35.11
632.36	0.00
632.51	9.36
632.66	0.00
632.81	70.22
632.96	21.06
633.10	112.35
633.25	81.92
633.40	39.79
633.55	25.75
633.70	49.15
633.85	72.56
634.00	42.13
634.15	63.19
634.30	65.54
634.45	0.00
634.60	53.83
634.75	23.41
634.90	44.47
635.05	70.22
635.19	49.15
635.34	93.62
635.49	53.83
635.64	7.02
635.79	60.85
635.94	65.54
636.09	112.35
636.24	49.15
636.39	72.56
636.53	23.41
636.68	93.62
636.83	114.69
636.98	23.41
637.13	51.49
637.28	86.60
637.43	91.28
637.57	70.22
637.72	44.47
637.87	0.00
638.02	56.17
638.17	0.00
638.32	16.38
638.46	105.32
638.61	70.22
638.76	121.71
638.91	98.30
639.06	9.36
639.20	58.51
639.35	9.36
639.50	30.43
639.65	128.73
639.80	51.49
639.94	77.24
640.09	60.85
640.24	98.30
640.39	16.38
640.54	23.41
640.68	112.35
640.83	56.17
640.98	2.34
641.13	9.36
641.27	0.00
641.42	42.13
641.57	65.54
641.72	37.45
641.86	79.58
642.01	63.19
642.16	58.51
642.31	23.41
642.45	58.51
642.60	63.19
642.75	60.85
642.90	79.58
643.04	88.94
643.19	105.32
643.34	77.24
643.48	35.11
643.63	65.54
643.78	51.49
643.93	0.00
644.07	39.79
644.22	70.22
644.37	39.79
644.51	25.75
644.66	51.49
644.81	44.47
644.95	46.81
645.10	63.19
645.25	65.54
645.39	60.85
645.54	4.68
645.69	142.77
645.83	0.00
645.98	98.30
646.13	28.09
646.27	63.19
646.42	84.26
646.57	79.58
646.71	119.37
646.86	11.70
647.00	30.43
647.15	32.77
647.30	46.81
647.44	124.05
647.59	25.75
647.74	42.13
647.88	79.58
648.03	70.22
648.17	0.00
648.32	46.81
648.47	42.13
648.61	81.92
648.76	37.45
648.90	121.71
649.05	53.83
649.20	60.85
649.34	32.77
649.49	46.81
649.63	32.77
649.78	112.35
649.92	112.35
650.07	112.35
650.21	84.26
650.36	77.24
650.51	79.58
650.65	81.92
650.80	60.85
650.94	95.96
651.09	86.60
651.23	58.51
651.38	58.51
651.52	51.49
651.67	98.30
651.81	81.92
651.96	9.36
652.10	107.66
652.25	30.43
652.39	2.34
652.54	86.60
652.68	91.28
652.83	117.03
652.97	21.06
653.12	42.13
653.26	42.13
653.41	63.19
653.55	51.49
653.70	9.36
653.84	74.90
653.99	65.54
654.13	70.22
654.27	77.24
654.42	25.75
654.56	32.77
654.71	60.85
654.85	32.77
655.00	14.04
655.14	14.04
655.29	58.51
655.43	81.92
655.57	39.79
655.72	0.00
655.86	0.00
656.01	65.54
656.15	28.09
656.30	46.81
656.44	35.11
656.58	49.15
656.73	65.54
656.87	98.30
657.01	35.11
657.16	79.58
657.30	51.49
657.45	39.79
657.59	4.68
657.73	67.88
657.88	98.30
658.02	112.35
658.16	18.72
658.31	32.77
658.45	23.41
658.60	72.56
658.74	18.72
658.88	67.88
659.03	142.77
659.17	25.75
659.31	44.47
659.46	4.68
659.60	72.56
659.74	86.60
659.89	0.00
660.03	67.88
660.17	84.26
660.32	18.72
660.46	44.47
660.60	65.54
660.74	121.71
660.89	107.66
661.03	46.81
661.17	0.00
661.32	65.54
661.46	53.83
661.60	65.54
661.74	124.05
661.89	30.43
662.03	65.54
662.17	72.56
662.31	46.81
662.46	7.02
662.60	91.28
662.74	44.47
662.88	0.00
663.03	35.11
663.17	32.77
663.31	84.26
663.45	30.43
663.60	91.28
663.74	79.58
663.88	77.24
664.02	84.26
664.17	53.83
664.31	84.26
664.45	107.66
664.59	39.79
664.73	30.43
664.88	49.15
665.02	46.81
665.16	67.88
665.30	65.54
665.44	58.51
665.59	42.13
665.73	84.26
665.87	39.79
666.01	16.38
666.15	37.45
666.29	42.13
666.44	28.09
666.58	121.71
666.72	79.58
666.86	0.00
667.00	58.51
667.14	63.19
667.28	77.24
667.43	49.15
667.57	65.54
667.71	39.79
667.85	35.11
667.99	107.66
668.13	49.15
668.27	7.02
668.41	0.00
668.56	70.22
668.70	98.30
668.84	46.81
668.98	46.81
669.12	44.47
669.26	49.15
669.40	63.19
669.54	53.83
669.68	18.72
669.82	4.68
669.96	77.24
670.10	39.79
670.25	67.88
670.39	105.32
670.53	154.48
670.67	110.01
670.81	42.13
670.95	84.26
671.09	145.11
671.23	32.77
671.37	37.45
671.51	49.15
671.65	154.48
671.79	46.81
671.93	37.45
672.07	53.83
672.21	0.00
672.35	63.19
672.49	2.34
672.63	74.90
672.77	124.05
672.91	30.43
673.05	23.41
673.19	63.19
673.33	51.49
673.47	35.11
673.61	86.60
673.75	25.75
673.89	91.28
674.03	84.26
674.17	53.83
674.31	30.43
674.45	4.68
674.59	39.79
674.73	58.51
674.87	39.79
675.01	53.83
675.15	86.60
675.29	93.62
675.43	114.69
675.56	32.77
675.70	107.66
675.84	37.45
675.98	39.79
676.12	63.19
676.26	16.38
676.40	65.54
676.54	37.45
676.68	63.19
676.82	32.77
676.96	46.81
677.10	53.83
677.23	23.41
677.37	81.92
677.51	11.70
677.65	77.24
677.79	72.56
677.93	58.51
678.07	58.51
678.21	11.70
678.34	86.60
678.48	0.00
678.62	51.49
678.76	35.11
678.90	105.32
679.04	39.79
679.18	23.41
679.31	0.00
679.45	14.04
679.59	98.30
679.73	81.92
679.87	16.38
680.00	102.98
680.14	93.62
680.28	65.54
680.42	42.13
680.56	37.45
680.70	51.49
680.83	0.00
680.97	53.83
681.11	42.13
681.25	23.41
681.39	21.06
681.52	112.35
681.66	37.45
681.80	77.24
681.94	70.22
682.07	63.19
682.21	84.26
682.35	0.00
682.49	112.35
682.62	30.43
682.76	0.00
682.90	18.72
683.04	37.45
683.17	25.75
683.31	81.92
683.45	46.81
683.59	102.98
683.72	53.83
683.86	42.13
684.00	0.00
684.13	28.09
684.27	7.02
684.41	0.00
684.55	53.83
684.68	14.04
684.82	46.81
684.96	51.49
685.09	60.85
685.23	23.41
685.37	56.17
685.50	77.24
685.64	37.45
685.78	56.17
685.91	67.88
686.05	112.35
686.19	18.72
686.32	56.17
686.46	51.49
686.60	74.90
686.73	81.92
686.87	65.54
687.01	110.01
687.14	56.17
687.28	86.60
687.42	49.15
687.55	16.38
687.69	44.47
687.82	56.17
687.96	14.04
688.10	93.62
688.23	70.22
688.37	86.60
688.50	35.11
688.64	4.68
688.78	63.19
688.91	60.85
689.05	14.04
689.18	28.09
689.32	0.00
689.46	70.22
689.59	18.72
689.73	0.00
689.86	21.06
690.00	49.15
690.13	9.36
690.27	35.11
690.41	86.60
690.54	51.49
690.68	44.47
690.81	0.00
690.95	30.43
691.08	0.00
691.22	4.68
691.35	0.00
691.49	7.02
691.62	28.09
691.76	58.51
691.89	110.01
692.03	63.19
692.16	84.26
692.30	18.72
692.43	65.54
692.57	21.06
692.70	117.03
692.84	25.75
692.97	35.11
693.11	21.06
693.24	25.75
693.38	0.00
693.51	32.77
693.65	4.68
693.78	63.19
693.92	93.62
694.05	46.81
694.19	30.43
694.32	42.13
694.45	0.00
694.59	0.00
694.72	105.32
694.86	16.38
694.99	0.00
695.13	0.00
695.26	60.85
695.39	28.09
695.53	77.24
695.66	98.30
695.80	0.00
695.93	63.19
696.07	39.79
696.20	2.34
696.33	44.47
696.47	105.32
696.60	0.00
696.73	46.81
696.87	23.41
697.00	56.17
697.14	91.28
697.27	91.28
697.40	21.06
697.54	91.28
697.67	2.34
697.80	23.41
697.94	67.88
698.07	35.11
698.21	44.47
698.34	58.51
698.47	0.00
698.61	95.96
698.74	0.00
698.87	0.00
699.01	102.98
699.14	25.75
699.27	79.58
699.40	70.22
699.54	0.00
699.67	49.15
699.80	67.88
699.94	32.77
700.07	9.36
700.20	37.45
700.34	23.41
700.47	84.26
700.60	7.02
700.73	18.72
700.87	86.60
701.00	21.06
701.13	9.36
701.26	25.75
701.40	0.00
701.53	0.00
701.66	63.19
701.79	0.00
701.93	23.41
702.06	21.06
702.19	100.64
702.32	58.51
702.46	0.00
702.59	14.04
702.72	32.77
702.85	16.38
702.99	0.00
703.12	39.79
703.25	70.22
703.38	0.00
703.51	35.11
703.65	46.81
703.78	28.09
703.91	0.00
704.04	11.70
704.17	18.72
704.31	77.24
704.44	46.81
704.57	16.38
704.70	49.15
704.83	0.00
704.96	0.00
705.10	0.00
705.23	84.26
>>>>>End Processed Spectral Data<<<<<
