SpectraSuite Data File
++++++++++++++++++++++++++++++++++++
Date: Fri Oct 04 12:13:39 GMT-05:00 2013
User: price-jones
Dark Spectrum Present: No
Reference Spectrum Present: No
Number of Sampled Component Spectra: 1
Spectrometers: USB2+H05261
Integration Time (usec): 10000 (USB2+H05261)
Spectra Averaged: 1 (USB2+H05261)
Boxcar Smoothing: 0 (USB2+H05261)
Correct for Electrical Dark: No (USB2+H05261)
Strobe/Lamp Enabled: No (USB2+H05261)
Correct for Detector Non-linearity: No (USB2+H05261)
Correct for Stray Light: No (USB2+H05261)
Number of Pixels in Processed Spectrum: 2048
>>>>>Begin Processed Spectral Data<<<<<
365.73	0.00
365.92	0.00
366.12	0.00
366.32	0.00
366.52	0.00
366.72	0.00
366.91	0.00
367.11	0.00
367.31	0.00
367.51	0.00
367.70	0.00
367.90	0.00
368.10	0.00
368.30	0.00
368.49	0.00
368.69	0.00
368.89	0.00
369.09	0.00
369.28	0.00
369.48	0.00
369.68	0.00
369.87	0.00
370.07	0.00
370.27	0.00
370.47	0.00
370.66	0.00
370.86	7.02
371.06	0.00
371.25	0.00
371.45	0.00
371.65	0.00
371.84	7.02
372.04	4.68
372.24	0.00
372.44	30.43
372.63	37.45
372.83	60.85
373.03	0.00
373.22	42.13
373.42	0.00
373.62	2.34
373.81	30.43
374.01	0.00
374.21	35.11
374.40	28.09
374.60	28.09
374.79	35.11
374.99	9.36
375.19	72.56
375.38	49.15
375.58	51.49
375.78	74.90
375.97	95.96
376.17	0.00
376.37	0.00
376.56	32.77
376.76	35.11
376.95	4.68
377.15	28.09
377.35	49.15
377.54	0.00
377.74	0.00
377.93	91.28
378.13	67.88
378.33	18.72
378.52	107.66
378.72	105.32
378.91	74.90
379.11	18.72
379.31	37.45
379.50	49.15
379.70	46.81
379.89	35.11
380.09	25.75
380.28	0.00
380.48	42.13
380.68	0.00
380.87	0.00
381.07	0.00
381.26	4.68
381.46	77.24
381.65	42.13
381.85	98.30
382.04	0.00
382.24	65.54
382.43	28.09
382.63	37.45
382.83	42.13
383.02	7.02
383.22	42.13
383.41	0.00
383.61	119.37
383.80	53.83
384.00	0.00
384.19	0.00
384.39	9.36
384.58	21.06
384.78	77.24
384.97	60.85
385.17	95.96
385.36	44.47
385.56	21.06
385.75	39.79
385.95	0.00
386.14	88.94
386.34	14.04
386.53	37.45
386.72	37.45
386.92	35.11
387.11	35.11
387.31	51.49
387.50	0.00
387.70	0.00
387.89	0.00
388.09	0.00
388.28	35.11
388.48	0.00
388.67	2.34
388.86	39.79
389.06	4.68
389.25	0.00
389.45	39.79
389.64	67.88
389.84	35.11
390.03	44.47
390.22	49.15
390.42	88.94
390.61	7.02
390.81	21.06
391.00	14.04
391.19	35.11
391.39	77.24
391.58	14.04
391.78	35.11
391.97	0.00
392.16	42.13
392.36	91.28
392.55	39.79
392.75	0.00
392.94	42.13
393.13	98.30
393.33	18.72
393.52	93.62
393.71	0.00
393.91	100.64
394.10	32.77
394.29	95.96
394.49	39.79
394.68	16.38
394.88	88.94
395.07	35.11
395.26	14.04
395.46	145.11
395.65	53.83
395.84	0.00
396.04	35.11
396.23	28.09
396.42	58.51
396.62	23.41
396.81	77.24
397.00	49.15
397.19	23.41
397.39	14.04
397.58	18.72
397.77	2.34
397.97	53.83
398.16	21.06
398.35	7.02
398.55	0.00
398.74	58.51
398.93	0.00
399.12	79.58
399.32	49.15
399.51	0.00
399.70	37.45
399.90	0.00
400.09	88.94
400.28	0.00
400.47	60.85
400.67	9.36
400.86	32.77
401.05	0.00
401.24	72.56
401.44	53.83
401.63	7.02
401.82	28.09
402.01	0.00
402.21	30.43
402.40	0.00
402.59	21.06
402.78	53.83
402.97	30.43
403.17	72.56
403.36	0.00
403.55	70.22
403.74	37.45
403.93	56.17
404.13	46.81
404.32	44.47
404.51	0.00
404.70	0.00
404.89	91.28
405.09	88.94
405.28	23.41
405.47	42.13
405.66	9.36
405.85	0.00
406.05	28.09
406.24	0.00
406.43	58.51
406.62	74.90
406.81	16.38
407.00	28.09
407.20	23.41
407.39	18.72
407.58	23.41
407.77	65.54
407.96	0.00
408.15	35.11
408.34	11.70
408.54	56.17
408.73	86.60
408.92	0.00
409.11	0.00
409.30	46.81
409.49	42.13
409.68	14.04
409.87	42.13
410.07	77.24
410.26	49.15
410.45	86.60
410.64	14.04
410.83	23.41
411.02	0.00
411.21	18.72
411.40	14.04
411.59	14.04
411.78	58.51
411.98	9.36
412.17	72.56
412.36	18.72
412.55	11.70
412.74	28.09
412.93	42.13
413.12	56.17
413.31	46.81
413.50	67.88
413.69	39.79
413.88	91.28
414.07	63.19
414.26	49.15
414.45	53.83
414.64	2.34
414.83	0.00
415.02	72.56
415.22	53.83
415.41	58.51
415.60	7.02
415.79	49.15
415.98	14.04
416.17	44.47
416.36	51.49
416.55	79.58
416.74	56.17
416.93	51.49
417.12	18.72
417.31	25.75
417.50	18.72
417.69	77.24
417.88	9.36
418.07	9.36
418.26	124.05
418.45	70.22
418.64	14.04
418.83	86.60
419.02	105.32
419.21	0.00
419.39	63.19
419.58	74.90
419.77	91.28
419.96	32.77
420.15	46.81
420.34	65.54
420.53	70.22
420.72	88.94
420.91	72.56
421.10	44.47
421.29	65.54
421.48	0.00
421.67	30.43
421.86	21.06
422.05	86.60
422.24	58.51
422.43	11.70
422.61	18.72
422.80	42.13
422.99	16.38
423.18	25.75
423.37	117.03
423.56	114.69
423.75	30.43
423.94	58.51
424.13	0.00
424.32	77.24
424.50	18.72
424.69	70.22
424.88	79.58
425.07	0.00
425.26	0.00
425.45	51.49
425.64	105.32
425.83	4.68
426.01	0.00
426.20	53.83
426.39	0.00
426.58	51.49
426.77	28.09
426.96	16.38
427.15	14.04
427.33	60.85
427.52	77.24
427.71	25.75
427.90	65.54
428.09	56.17
428.28	42.13
428.46	74.90
428.65	65.54
428.84	44.47
429.03	100.64
429.22	0.00
429.40	91.28
429.59	58.51
429.78	49.15
429.97	35.11
430.16	49.15
430.34	18.72
430.53	35.11
430.72	88.94
430.91	0.00
431.10	25.75
431.28	32.77
431.47	44.47
431.66	79.58
431.85	30.43
432.03	98.30
432.22	100.64
432.41	0.00
432.60	72.56
432.79	58.51
432.97	102.98
433.16	51.49
433.35	112.35
433.54	88.94
433.72	77.24
433.91	51.49
434.10	84.26
434.28	21.06
434.47	70.22
434.66	0.00
434.85	0.00
435.03	86.60
435.22	67.88
435.41	0.00
435.59	44.47
435.78	51.49
435.97	91.28
436.16	138.09
436.34	4.68
436.53	74.90
436.72	0.00
436.90	72.56
437.09	77.24
437.28	32.77
437.46	39.79
437.65	4.68
437.84	16.38
438.02	60.85
438.21	9.36
438.40	16.38
438.58	46.81
438.77	0.00
438.96	79.58
439.14	81.92
439.33	39.79
439.52	2.34
439.70	14.04
439.89	44.47
440.08	74.90
440.26	9.36
440.45	37.45
440.63	9.36
440.82	58.51
441.01	79.58
441.19	39.79
441.38	100.64
441.57	81.92
441.75	53.83
441.94	25.75
442.12	28.09
442.31	51.49
442.50	60.85
442.68	60.85
442.87	42.13
443.05	91.28
443.24	39.79
443.43	84.26
443.61	49.15
443.80	51.49
443.98	74.90
444.17	42.13
444.35	65.54
444.54	74.90
444.73	102.98
444.91	74.90
445.10	49.15
445.28	23.41
445.47	21.06
445.65	51.49
445.84	0.00
446.02	56.17
446.21	107.66
446.39	25.75
446.58	23.41
446.77	72.56
446.95	117.03
447.14	16.38
447.32	77.24
447.51	46.81
447.69	56.17
447.88	67.88
448.06	0.00
448.25	49.15
448.43	72.56
448.62	4.68
448.80	32.77
448.99	46.81
449.17	67.88
449.36	93.62
449.54	67.88
449.73	70.22
449.91	35.11
450.10	9.36
450.28	86.60
450.46	119.37
450.65	114.69
450.83	72.56
451.02	44.47
451.20	0.00
451.39	0.00
451.57	74.90
451.76	35.11
451.94	51.49
452.13	65.54
452.31	0.00
452.49	110.01
452.68	95.96
452.86	95.96
453.05	93.62
453.23	135.75
453.42	74.90
453.60	81.92
453.78	2.34
453.97	0.00
454.15	44.47
454.34	9.36
454.52	79.58
454.70	63.19
454.89	35.11
455.07	0.00
455.26	0.00
455.44	114.69
455.62	0.00
455.81	42.13
455.99	23.41
456.17	72.56
456.36	51.49
456.54	42.13
456.73	18.72
456.91	23.41
457.09	23.41
457.28	16.38
457.46	77.24
457.64	0.00
457.83	56.17
458.01	32.77
458.19	0.00
458.38	0.00
458.56	0.00
458.74	44.47
458.93	60.85
459.11	53.83
459.29	65.54
459.48	25.75
459.66	14.04
459.84	9.36
460.03	4.68
460.21	84.26
460.39	51.49
460.57	53.83
460.76	88.94
460.94	121.71
461.12	140.43
461.31	56.17
461.49	138.09
461.67	49.15
461.85	86.60
462.04	63.19
462.22	117.03
462.40	46.81
462.59	74.90
462.77	18.72
462.95	72.56
463.13	58.51
463.32	53.83
463.50	56.17
463.68	63.19
463.86	21.06
464.05	91.28
464.23	0.00
464.41	74.90
464.59	95.96
464.78	58.51
464.96	23.41
465.14	53.83
465.32	98.30
465.50	131.07
465.69	63.19
465.87	35.11
466.05	58.51
466.23	56.17
466.41	21.06
466.60	9.36
466.78	105.32
466.96	44.47
467.14	60.85
467.32	0.00
467.51	35.11
467.69	0.00
467.87	107.66
468.05	93.62
468.23	16.38
468.41	9.36
468.60	56.17
468.78	86.60
468.96	95.96
469.14	46.81
469.32	32.77
469.50	49.15
469.69	72.56
469.87	23.41
470.05	39.79
470.23	46.81
470.41	2.34
470.59	37.45
470.77	0.00
470.95	77.24
471.14	0.00
471.32	107.66
471.50	131.07
471.68	53.83
471.86	65.54
472.04	77.24
472.22	46.81
472.40	0.00
472.58	30.43
472.77	142.77
472.95	107.66
473.13	53.83
473.31	49.15
473.49	72.56
473.67	81.92
473.85	70.22
474.03	91.28
474.21	63.19
474.39	100.64
474.57	32.77
474.75	58.51
474.93	9.36
475.12	60.85
475.30	35.11
475.48	91.28
475.66	65.54
475.84	105.32
476.02	53.83
476.20	86.60
476.38	7.02
476.56	95.96
476.74	44.47
476.92	32.77
477.10	42.13
477.28	0.00
477.46	0.00
477.64	51.49
477.82	53.83
478.00	53.83
478.18	63.19
478.36	81.92
478.54	88.94
478.72	72.56
478.90	91.28
479.08	93.62
479.26	74.90
479.44	121.71
479.62	121.71
479.80	79.58
479.98	91.28
480.16	88.94
480.34	42.13
480.52	0.00
480.70	9.36
480.88	117.03
481.06	166.18
481.24	74.90
481.41	53.83
481.59	65.54
481.77	110.01
481.95	30.43
482.13	16.38
482.31	107.66
482.49	65.54
482.67	23.41
482.85	105.32
483.03	30.43
483.21	11.70
483.39	117.03
483.57	46.81
483.74	102.98
483.92	93.62
484.10	46.81
484.28	63.19
484.46	21.06
484.64	14.04
484.82	81.92
485.00	30.43
485.18	114.69
485.35	93.62
485.53	18.72
485.71	30.43
485.89	93.62
486.07	135.75
486.25	95.96
486.43	102.98
486.61	58.51
486.78	79.58
486.96	42.13
487.14	67.88
487.32	98.30
487.50	39.79
487.68	77.24
487.85	58.51
488.03	105.32
488.21	128.73
488.39	79.58
488.57	67.88
488.75	21.06
488.92	58.51
489.10	60.85
489.28	81.92
489.46	42.13
489.64	56.17
489.81	74.90
489.99	88.94
490.17	60.85
490.35	102.98
490.53	86.60
490.70	42.13
490.88	135.75
491.06	32.77
491.24	81.92
491.41	95.96
491.59	63.19
491.77	9.36
491.95	51.49
492.13	74.90
492.30	86.60
492.48	39.79
492.66	30.43
492.84	35.11
493.01	42.13
493.19	65.54
493.37	93.62
493.54	84.26
493.72	58.51
493.90	166.18
494.08	67.88
494.25	35.11
494.43	16.38
494.61	72.56
494.79	88.94
494.96	74.90
495.14	51.49
495.32	44.47
495.49	18.72
495.67	72.56
495.85	70.22
496.02	0.00
496.20	95.96
496.38	9.36
496.55	30.43
496.73	49.15
496.91	46.81
497.09	102.98
497.26	154.48
497.44	86.60
497.62	72.56
497.79	86.60
497.97	35.11
498.14	32.77
498.32	131.07
498.50	105.32
498.67	30.43
498.85	32.77
499.03	58.51
499.20	74.90
499.38	0.00
499.56	67.88
499.73	117.03
499.91	37.45
500.08	84.26
500.26	77.24
500.44	88.94
500.61	95.96
500.79	72.56
500.97	44.47
501.14	77.24
501.32	100.64
501.49	100.64
501.67	105.32
501.84	42.13
502.02	100.64
502.20	28.09
502.37	77.24
502.55	39.79
502.72	28.09
502.90	56.17
503.07	16.38
503.25	70.22
503.43	91.28
503.60	77.24
503.78	0.00
503.95	49.15
504.13	60.85
504.30	145.11
504.48	65.54
504.65	100.64
504.83	93.62
505.01	63.19
505.18	63.19
505.36	93.62
505.53	67.88
505.71	95.96
505.88	74.90
506.06	79.58
506.23	88.94
506.41	95.96
506.58	0.00
506.76	110.01
506.93	138.09
507.11	128.73
507.28	30.43
507.46	49.15
507.63	53.83
507.81	35.11
507.98	79.58
508.16	77.24
508.33	114.69
508.50	65.54
508.68	70.22
508.85	138.09
509.03	25.75
509.20	46.81
509.38	58.51
509.55	30.43
509.73	117.03
509.90	70.22
510.08	39.79
510.25	88.94
510.42	112.35
510.60	25.75
510.77	81.92
510.95	138.09
511.12	65.54
511.30	84.26
511.47	95.96
511.64	72.56
511.82	161.50
511.99	88.94
512.17	84.26
512.34	39.79
512.51	46.81
512.69	67.88
512.86	91.28
513.04	65.54
513.21	70.22
513.38	100.64
513.56	95.96
513.73	63.19
513.90	35.11
514.08	46.81
514.25	98.30
514.43	72.56
514.60	51.49
514.77	86.60
514.95	124.05
515.12	42.13
515.29	142.77
515.47	114.69
515.64	133.41
515.81	133.41
515.99	56.17
516.16	46.81
516.33	11.70
516.51	128.73
516.68	32.77
516.85	86.60
517.03	63.19
517.20	98.30
517.37	140.43
517.54	56.17
517.72	135.75
517.89	81.92
518.06	37.45
518.24	74.90
518.41	60.85
518.58	60.85
518.75	124.05
518.93	77.24
519.10	117.03
519.27	88.94
519.45	74.90
519.62	46.81
519.79	91.28
519.96	44.47
520.14	51.49
520.31	86.60
520.48	86.60
520.65	23.41
520.83	4.68
521.00	72.56
521.17	46.81
521.34	138.09
521.52	86.60
521.69	14.04
521.86	72.56
522.03	86.60
522.20	93.62
522.38	79.58
522.55	46.81
522.72	51.49
522.89	126.39
523.07	81.92
523.24	138.09
523.41	28.09
523.58	114.69
523.75	152.13
523.92	107.66
524.10	14.04
524.27	77.24
524.44	81.92
524.61	77.24
524.78	53.83
524.96	63.19
525.13	93.62
525.30	121.71
525.47	49.15
525.64	95.96
525.81	114.69
525.98	142.77
526.16	67.88
526.33	114.69
526.50	88.94
526.67	107.66
526.84	107.66
527.01	95.96
527.18	93.62
527.36	0.00
527.53	67.88
527.70	65.54
527.87	39.79
528.04	81.92
528.21	46.81
528.38	138.09
528.55	124.05
528.72	107.66
528.89	39.79
529.07	46.81
529.24	131.07
529.41	93.62
529.58	58.51
529.75	95.96
529.92	0.00
530.09	39.79
530.26	91.28
530.43	74.90
530.60	93.62
530.77	128.73
530.94	135.75
531.11	93.62
531.28	102.98
531.46	42.13
531.63	70.22
531.80	79.58
531.97	93.62
532.14	44.47
532.31	88.94
532.48	16.38
532.65	53.83
532.82	114.69
532.99	72.56
533.16	140.43
533.33	91.28
533.50	84.26
533.67	58.51
533.84	110.01
534.01	121.71
534.18	86.60
534.35	86.60
534.52	147.45
534.69	121.71
534.86	53.83
535.03	86.60
535.20	65.54
535.37	126.39
535.54	51.49
535.71	93.62
535.88	81.92
536.05	126.39
536.22	70.22
536.38	30.43
536.55	117.03
536.72	93.62
536.89	58.51
537.06	91.28
537.23	156.82
537.40	28.09
537.57	11.70
537.74	117.03
537.91	67.88
538.08	163.84
538.25	65.54
538.42	32.77
538.59	79.58
538.75	126.39
538.92	112.35
539.09	100.64
539.26	135.75
539.43	77.24
539.60	65.54
539.77	39.79
539.94	79.58
540.11	42.13
540.28	91.28
540.44	100.64
540.61	121.71
540.78	114.69
540.95	114.69
541.12	86.60
541.29	128.73
541.46	51.49
541.62	95.96
541.79	88.94
541.96	86.60
542.13	168.52
542.30	81.92
542.47	84.26
542.63	168.52
542.80	72.56
542.97	88.94
543.14	58.51
543.31	117.03
543.48	86.60
543.64	138.09
543.81	65.54
543.98	88.94
544.15	110.01
544.32	117.03
544.48	86.60
544.65	95.96
544.82	95.96
544.99	44.47
545.16	79.58
545.32	51.49
545.49	65.54
545.66	39.79
545.83	25.75
546.00	91.28
546.16	46.81
546.33	95.96
546.50	58.51
546.67	105.32
546.83	135.75
547.00	70.22
547.17	110.01
547.34	114.69
547.50	79.58
547.67	42.13
547.84	84.26
548.00	88.94
548.17	93.62
548.34	39.79
548.51	100.64
548.67	53.83
548.84	77.24
549.01	100.64
549.18	117.03
549.34	74.90
549.51	100.64
549.68	56.17
549.84	107.66
550.01	67.88
550.18	126.39
550.34	58.51
550.51	182.56
550.68	91.28
550.84	93.62
551.01	63.19
551.18	37.45
551.34	42.13
551.51	100.64
551.68	119.37
551.84	91.28
552.01	79.58
552.18	126.39
552.34	133.41
552.51	60.85
552.68	114.69
552.84	72.56
553.01	124.05
553.18	49.15
553.34	0.00
553.51	77.24
553.67	149.79
553.84	100.64
554.01	114.69
554.17	138.09
554.34	84.26
554.51	86.60
554.67	133.41
554.84	100.64
555.00	86.60
555.17	124.05
555.33	81.92
555.50	107.66
555.67	163.84
555.83	93.62
556.00	79.58
556.16	95.96
556.33	37.45
556.50	70.22
556.66	44.47
556.83	72.56
556.99	86.60
557.16	0.00
557.32	32.77
557.49	49.15
557.65	72.56
557.82	100.64
557.98	98.30
558.15	105.32
558.32	126.39
558.48	30.43
558.65	79.58
558.81	112.35
558.98	147.45
559.14	128.73
559.31	110.01
559.47	107.66
559.64	79.58
559.80	65.54
559.97	77.24
560.13	37.45
560.30	100.64
560.46	114.69
560.63	102.98
560.79	88.94
560.96	170.86
561.12	81.92
561.29	88.94
561.45	93.62
561.61	93.62
561.78	95.96
561.94	60.85
562.11	107.66
562.27	74.90
562.44	124.05
562.60	166.18
562.77	79.58
562.93	56.17
563.10	74.90
563.26	2.34
563.42	140.43
563.59	88.94
563.75	44.47
563.92	63.19
564.08	86.60
564.24	74.90
564.41	91.28
564.57	46.81
564.74	119.37
564.90	49.15
565.07	49.15
565.23	39.79
565.39	16.38
565.56	65.54
565.72	63.19
565.88	72.56
566.05	117.03
566.21	58.51
566.38	95.96
566.54	49.15
566.70	60.85
566.87	114.69
567.03	133.41
567.19	53.83
567.36	93.62
567.52	25.75
567.68	117.03
567.85	93.62
568.01	124.05
568.17	58.51
568.34	63.19
568.50	84.26
568.66	124.05
568.83	117.03
568.99	65.54
569.15	95.96
569.32	81.92
569.48	72.56
569.64	72.56
569.81	67.88
569.97	159.16
570.13	98.30
570.30	32.77
570.46	95.96
570.62	60.85
570.78	32.77
570.95	44.47
571.11	58.51
571.27	58.51
571.43	65.54
571.60	79.58
571.76	110.01
571.92	98.30
572.09	119.37
572.25	95.96
572.41	100.64
572.57	81.92
572.74	42.13
572.90	30.43
573.06	14.04
573.22	39.79
573.38	77.24
573.55	110.01
573.71	58.51
573.87	28.09
574.03	98.30
574.20	51.49
574.36	100.64
574.52	51.49
574.68	140.43
574.84	49.15
575.01	93.62
575.17	86.60
575.33	60.85
575.49	126.39
575.65	95.96
575.82	58.51
575.98	23.41
576.14	67.88
576.30	119.37
576.46	98.30
576.62	88.94
576.79	77.24
576.95	58.51
577.11	60.85
577.27	74.90
577.43	25.75
577.59	23.41
577.75	133.41
577.92	105.32
578.08	86.60
578.24	21.06
578.40	121.71
578.56	16.38
578.72	95.96
578.88	88.94
579.04	79.58
579.21	84.26
579.37	98.30
579.53	124.05
579.69	84.26
579.85	100.64
580.01	11.70
580.17	79.58
580.33	49.15
580.49	112.35
580.65	18.72
580.82	9.36
580.98	51.49
581.14	131.07
581.30	124.05
581.46	81.92
581.62	44.47
581.78	74.90
581.94	121.71
582.10	117.03
582.26	58.51
582.42	51.49
582.58	72.56
582.74	95.96
582.90	110.01
583.06	70.22
583.22	37.45
583.38	95.96
583.54	0.00
583.70	102.98
583.86	49.15
584.02	95.96
584.18	35.11
584.34	28.09
584.50	51.49
584.66	56.17
584.82	117.03
584.98	102.98
585.14	46.81
585.30	0.00
585.46	93.62
585.62	74.90
585.78	72.56
585.94	11.70
586.10	74.90
586.26	91.28
586.42	53.83
586.58	60.85
586.74	25.75
586.90	63.19
587.06	49.15
587.22	84.26
587.38	100.64
587.54	32.77
587.70	117.03
587.86	98.30
588.02	128.73
588.18	84.26
588.34	42.13
588.49	77.24
588.65	11.70
588.81	72.56
588.97	16.38
589.13	74.90
589.29	37.45
589.45	110.01
589.61	35.11
589.77	91.28
589.93	28.09
590.08	53.83
590.24	46.81
590.40	0.00
590.56	42.13
590.72	65.54
590.88	65.54
591.04	37.45
591.20	95.96
591.35	149.79
591.51	70.22
591.67	60.85
591.83	63.19
591.99	21.06
592.15	25.75
592.31	72.56
592.46	77.24
592.62	49.15
592.78	44.47
592.94	28.09
593.10	23.41
593.26	65.54
593.41	51.49
593.57	63.19
593.73	28.09
593.89	39.79
594.05	0.00
594.20	32.77
594.36	56.17
594.52	58.51
594.68	11.70
594.84	18.72
594.99	84.26
595.15	53.83
595.31	84.26
595.47	84.26
595.62	95.96
595.78	0.00
595.94	93.62
596.10	56.17
596.25	60.85
596.41	49.15
596.57	39.79
596.73	114.69
596.88	21.06
597.04	100.64
597.20	14.04
597.36	56.17
597.51	131.07
597.67	100.64
597.83	46.81
597.99	35.11
598.14	51.49
598.30	110.01
598.46	98.30
598.61	70.22
598.77	72.56
598.93	67.88
599.09	79.58
599.24	65.54
599.40	0.00
599.56	60.85
599.71	114.69
599.87	126.39
600.03	46.81
600.18	93.62
600.34	126.39
600.50	102.98
600.65	126.39
600.81	84.26
600.97	105.32
601.12	86.60
601.28	95.96
601.44	9.36
601.59	7.02
601.75	98.30
601.91	140.43
602.06	18.72
602.22	114.69
602.37	0.00
602.53	53.83
602.69	51.49
602.84	37.45
603.00	60.85
603.16	65.54
603.31	74.90
603.47	121.71
603.62	72.56
603.78	2.34
603.94	88.94
604.09	56.17
604.25	142.77
604.40	63.19
604.56	4.68
604.71	42.13
604.87	14.04
605.03	18.72
605.18	39.79
605.34	14.04
605.49	49.15
605.65	44.47
605.80	91.28
605.96	107.66
606.12	70.22
606.27	28.09
606.43	32.77
606.58	16.38
606.74	23.41
606.89	60.85
607.05	65.54
607.20	65.54
607.36	51.49
607.51	88.94
607.67	79.58
607.82	77.24
607.98	65.54
608.13	37.45
608.29	44.47
608.44	105.32
608.60	95.96
608.75	23.41
608.91	37.45
609.06	72.56
609.22	53.83
609.37	74.90
609.53	35.11
609.68	51.49
609.84	91.28
609.99	63.19
610.15	112.35
610.30	37.45
610.46	93.62
610.61	81.92
610.76	131.07
610.92	147.45
611.07	70.22
611.23	72.56
611.38	110.01
611.54	60.85
611.69	30.43
611.84	100.64
612.00	84.26
612.15	107.66
612.31	88.94
612.46	131.07
612.62	2.34
612.77	84.26
612.92	95.96
613.08	53.83
613.23	70.22
613.39	72.56
613.54	95.96
613.69	39.79
613.85	81.92
614.00	58.51
614.15	0.00
614.31	53.83
614.46	70.22
614.62	0.00
614.77	42.13
614.92	51.49
615.08	44.47
615.23	95.96
615.38	51.49
615.54	2.34
615.69	102.98
615.84	25.75
616.00	18.72
616.15	110.01
616.30	86.60
616.46	112.35
616.61	0.00
616.76	58.51
616.92	70.22
617.07	28.09
617.22	0.00
617.37	65.54
617.53	0.00
617.68	42.13
617.83	58.51
617.99	53.83
618.14	110.01
618.29	39.79
618.45	81.92
618.60	37.45
618.75	114.69
618.90	86.60
619.06	74.90
619.21	46.81
619.36	91.28
619.51	88.94
619.67	60.85
619.82	95.96
619.97	114.69
620.12	14.04
620.28	81.92
620.43	98.30
620.58	91.28
620.73	86.60
620.89	70.22
621.04	2.34
621.19	25.75
621.34	60.85
621.49	11.70
621.65	74.90
621.80	70.22
621.95	23.41
622.10	51.49
622.25	53.83
622.41	91.28
622.56	70.22
622.71	14.04
622.86	39.79
623.01	49.15
623.16	60.85
623.32	49.15
623.47	53.83
623.62	0.00
623.77	28.09
623.92	88.94
624.07	23.41
624.23	42.13
624.38	86.60
624.53	32.77
624.68	14.04
624.83	58.51
624.98	72.56
625.13	56.17
625.29	112.35
625.44	53.83
625.59	142.77
625.74	42.13
625.89	77.24
626.04	98.30
626.19	35.11
626.34	39.79
626.49	37.45
626.65	74.90
626.80	95.96
626.95	35.11
627.10	128.73
627.25	58.51
627.40	84.26
627.55	84.26
627.70	67.88
627.85	0.00
628.00	84.26
628.15	39.79
628.30	77.24
628.45	65.54
628.60	14.04
628.76	37.45
628.91	23.41
629.06	39.79
629.21	53.83
629.36	53.83
629.51	65.54
629.66	14.04
629.81	44.47
629.96	0.00
630.11	46.81
630.26	74.90
630.41	18.72
630.56	28.09
630.71	32.77
630.86	58.51
631.01	35.11
631.16	77.24
631.31	110.01
631.46	14.04
631.61	42.13
631.76	28.09
631.91	88.94
632.06	77.24
632.21	42.13
632.36	53.83
632.51	86.60
632.66	39.79
632.81	88.94
632.96	67.88
633.10	2.34
633.25	23.41
633.40	65.54
633.55	98.30
633.70	51.49
633.85	4.68
634.00	56.17
634.15	21.06
634.30	49.15
634.45	42.13
634.60	74.90
634.75	112.35
634.90	23.41
635.05	44.47
635.19	86.60
635.34	56.17
635.49	100.64
635.64	49.15
635.79	84.26
635.94	9.36
636.09	37.45
636.24	0.00
636.39	25.75
636.53	88.94
636.68	63.19
636.83	168.52
636.98	117.03
637.13	9.36
637.28	28.09
637.43	42.13
637.57	81.92
637.72	77.24
637.87	0.00
638.02	65.54
638.17	161.50
638.32	49.15
638.46	81.92
638.61	56.17
638.76	77.24
638.91	0.00
639.06	21.06
639.20	14.04
639.35	35.11
639.50	91.28
639.65	58.51
639.80	0.00
639.94	39.79
640.09	135.75
640.24	42.13
640.39	44.47
640.54	102.98
640.68	70.22
640.83	9.36
640.98	30.43
641.13	74.90
641.27	81.92
641.42	105.32
641.57	16.38
641.72	95.96
641.86	110.01
642.01	70.22
642.16	51.49
642.31	60.85
642.45	81.92
642.60	147.45
642.75	65.54
642.90	28.09
643.04	60.85
643.19	60.85
643.34	110.01
643.48	65.54
643.63	37.45
643.78	42.13
643.93	51.49
644.07	131.07
644.22	84.26
644.37	84.26
644.51	0.00
644.66	49.15
644.81	65.54
644.95	58.51
645.10	112.35
645.25	58.51
645.39	63.19
645.54	21.06
645.69	72.56
645.83	42.13
645.98	56.17
646.13	63.19
646.27	46.81
646.42	98.30
646.57	114.69
646.71	65.54
646.86	63.19
647.00	0.00
647.15	0.00
647.30	32.77
647.44	67.88
647.59	84.26
647.74	72.56
647.88	30.43
648.03	53.83
648.17	72.56
648.32	18.72
648.47	79.58
648.61	56.17
648.76	23.41
648.90	30.43
649.05	16.38
649.20	147.45
649.34	70.22
649.49	0.00
649.63	35.11
649.78	67.88
649.92	30.43
650.07	63.19
650.21	81.92
650.36	44.47
650.51	72.56
650.65	37.45
650.80	58.51
650.94	9.36
651.09	86.60
651.23	51.49
651.38	53.83
651.52	58.51
651.67	11.70
651.81	35.11
651.96	84.26
652.10	86.60
652.25	63.19
652.39	46.81
652.54	74.90
652.68	21.06
652.83	0.00
652.97	74.90
653.12	49.15
653.26	44.47
653.41	39.79
653.55	28.09
653.70	56.17
653.84	72.56
653.99	65.54
654.13	84.26
654.27	102.98
654.42	117.03
654.56	28.09
654.71	74.90
654.85	56.17
655.00	18.72
655.14	86.60
655.29	21.06
655.43	28.09
655.57	23.41
655.72	105.32
655.86	65.54
656.01	49.15
656.15	4.68
656.30	81.92
656.44	14.04
656.58	53.83
656.73	84.26
656.87	72.56
657.01	46.81
657.16	42.13
657.30	74.90
657.45	72.56
657.59	63.19
657.73	44.47
657.88	9.36
658.02	28.09
658.16	32.77
658.31	65.54
658.45	0.00
658.60	95.96
658.74	56.17
658.88	42.13
659.03	30.43
659.17	124.05
659.31	44.47
659.46	28.09
659.60	9.36
659.74	77.24
659.89	84.26
660.03	112.35
660.17	56.17
660.32	60.85
660.46	28.09
660.60	84.26
660.74	58.51
660.89	30.43
661.03	14.04
661.17	16.38
661.32	28.09
661.46	77.24
661.60	77.24
661.74	77.24
661.89	4.68
662.03	37.45
662.17	37.45
662.31	63.19
662.46	98.30
662.60	49.15
662.74	84.26
662.88	81.92
663.03	63.19
663.17	84.26
663.31	51.49
663.45	32.77
663.60	7.02
663.74	91.28
663.88	21.06
664.02	105.32
664.17	110.01
664.31	4.68
664.45	84.26
664.59	86.60
664.73	60.85
664.88	0.00
665.02	32.77
665.16	51.49
665.30	91.28
665.44	74.90
665.59	119.37
665.73	0.00
665.87	124.05
666.01	60.85
666.15	18.72
666.29	11.70
666.44	25.75
666.58	86.60
666.72	0.00
666.86	49.15
667.00	58.51
667.14	102.98
667.28	98.30
667.43	46.81
667.57	60.85
667.71	70.22
667.85	32.77
667.99	65.54
668.13	53.83
668.27	11.70
668.41	30.43
668.56	56.17
668.70	70.22
668.84	72.56
668.98	49.15
669.12	18.72
669.26	18.72
669.40	0.00
669.54	39.79
669.68	72.56
669.82	30.43
669.96	84.26
670.10	84.26
670.25	81.92
670.39	0.00
670.53	0.00
670.67	28.09
670.81	46.81
670.95	63.19
671.09	138.09
671.23	30.43
671.37	60.85
671.51	25.75
671.65	46.81
671.79	84.26
671.93	44.47
672.07	105.32
672.21	39.79
672.35	65.54
672.49	65.54
672.63	53.83
672.77	63.19
672.91	72.56
673.05	4.68
673.19	14.04
673.33	21.06
673.47	56.17
673.61	39.79
673.75	70.22
673.89	0.00
674.03	77.24
674.17	67.88
674.31	30.43
674.45	28.09
674.59	51.49
674.73	30.43
674.87	44.47
675.01	30.43
675.15	0.00
675.29	105.32
675.43	56.17
675.56	91.28
675.70	14.04
675.84	58.51
675.98	72.56
676.12	84.26
676.26	102.98
676.40	32.77
676.54	44.47
676.68	79.58
676.82	56.17
676.96	46.81
677.10	0.00
677.23	0.00
677.37	14.04
677.51	37.45
677.65	81.92
677.79	88.94
677.93	56.17
678.07	60.85
678.21	112.35
678.34	44.47
678.48	30.43
678.62	49.15
678.76	18.72
678.90	42.13
679.04	60.85
679.18	0.00
679.31	77.24
679.45	74.90
679.59	60.85
679.73	0.00
679.87	58.51
680.00	84.26
680.14	28.09
680.28	70.22
680.42	2.34
680.56	84.26
680.70	88.94
680.83	81.92
680.97	0.00
681.11	63.19
681.25	0.00
681.39	56.17
681.52	14.04
681.66	46.81
681.80	86.60
681.94	51.49
682.07	23.41
682.21	32.77
682.35	18.72
682.49	79.58
682.62	88.94
682.76	35.11
682.90	51.49
683.04	107.66
683.17	32.77
683.31	46.81
683.45	49.15
683.59	32.77
683.72	53.83
683.86	65.54
684.00	49.15
684.13	21.06
684.27	4.68
684.41	14.04
684.55	114.69
684.68	86.60
684.82	14.04
684.96	14.04
685.09	18.72
685.23	44.47
685.37	4.68
685.50	42.13
685.64	0.00
685.78	39.79
685.91	18.72
686.05	9.36
686.19	63.19
686.32	74.90
686.46	0.00
686.60	0.00
686.73	56.17
686.87	35.11
687.01	37.45
687.14	16.38
687.28	42.13
687.42	39.79
687.55	35.11
687.69	0.00
687.82	53.83
687.96	0.00
688.10	14.04
688.23	70.22
688.37	84.26
688.50	42.13
688.64	72.56
688.78	25.75
688.91	51.49
689.05	35.11
689.18	18.72
689.32	0.00
689.46	46.81
689.59	70.22
689.73	107.66
689.86	32.77
690.00	53.83
690.13	88.94
690.27	53.83
690.41	124.05
690.54	21.06
690.68	16.38
690.81	58.51
690.95	7.02
691.08	0.00
691.22	105.32
691.35	28.09
691.49	0.00
691.62	53.83
691.76	56.17
691.89	65.54
692.03	0.00
692.16	53.83
692.30	51.49
692.43	16.38
692.57	39.79
692.70	79.58
692.84	58.51
692.97	23.41
693.11	56.17
693.24	49.15
693.38	37.45
693.51	51.49
693.65	0.00
693.78	67.88
693.92	0.00
694.05	21.06
694.19	79.58
694.32	65.54
694.45	0.00
694.59	51.49
694.72	7.02
694.86	42.13
694.99	32.77
695.13	91.28
695.26	49.15
695.39	42.13
695.53	21.06
695.66	93.62
695.80	67.88
695.93	98.30
696.07	30.43
696.20	23.41
696.33	0.00
696.47	84.26
696.60	28.09
696.73	44.47
696.87	28.09
697.00	14.04
697.14	0.00
697.27	16.38
697.40	4.68
697.54	0.00
697.67	44.47
697.80	95.96
697.94	81.92
698.07	32.77
698.21	37.45
698.34	28.09
698.47	14.04
698.61	63.19
698.74	42.13
698.87	112.35
699.01	42.13
699.14	0.00
699.27	0.00
699.40	0.00
699.54	35.11
699.67	49.15
699.80	0.00
699.94	11.70
700.07	0.00
700.20	2.34
700.34	35.11
700.47	0.00
700.60	88.94
700.73	58.51
700.87	32.77
701.00	126.39
701.13	63.19
701.26	23.41
701.40	0.00
701.53	32.77
701.66	7.02
701.79	51.49
701.93	4.68
702.06	86.60
702.19	67.88
702.32	60.85
702.46	28.09
702.59	77.24
702.72	42.13
702.85	23.41
702.99	49.15
703.12	32.77
703.25	74.90
703.38	65.54
703.51	35.11
703.65	46.81
703.78	0.00
703.91	37.45
704.04	49.15
704.17	0.00
704.31	107.66
704.44	53.83
704.57	7.02
704.70	23.41
704.83	72.56
704.96	42.13
705.10	56.17
705.23	0.00
>>>>>End Processed Spectral Data<<<<<
