SpectraSuite Data File
++++++++++++++++++++++++++++++++++++
Date: Fri Oct 04 12:13:28 GMT-05:00 2013
User: price-jones
Dark Spectrum Present: No
Reference Spectrum Present: No
Number of Sampled Component Spectra: 1
Spectrometers: USB2+H05261
Integration Time (usec): 10000 (USB2+H05261)
Spectra Averaged: 1 (USB2+H05261)
Boxcar Smoothing: 0 (USB2+H05261)
Correct for Electrical Dark: No (USB2+H05261)
Strobe/Lamp Enabled: No (USB2+H05261)
Correct for Detector Non-linearity: No (USB2+H05261)
Correct for Stray Light: No (USB2+H05261)
Number of Pixels in Processed Spectrum: 2048
>>>>>Begin Processed Spectral Data<<<<<
365.73	0.00
365.92	0.00
366.12	0.00
366.32	0.00
366.52	0.00
366.72	0.00
366.91	0.00
367.11	0.00
367.31	0.00
367.51	0.00
367.70	0.00
367.90	0.00
368.10	0.00
368.30	0.00
368.49	0.00
368.69	0.00
368.89	0.00
369.09	0.00
369.28	0.00
369.48	0.00
369.68	0.00
369.87	0.00
370.07	0.00
370.27	0.00
370.47	0.00
370.66	0.00
370.86	28.09
371.06	0.00
371.25	0.00
371.45	0.00
371.65	0.00
371.84	0.00
372.04	0.00
372.24	0.00
372.44	0.00
372.63	32.77
372.83	32.77
373.03	9.36
373.22	65.54
373.42	56.17
373.62	35.11
373.81	51.49
374.01	0.00
374.21	16.38
374.40	0.00
374.60	53.83
374.79	11.70
374.99	39.79
375.19	105.32
375.38	91.28
375.58	70.22
375.78	0.00
375.97	49.15
376.17	0.00
376.37	23.41
376.56	25.75
376.76	0.00
376.95	56.17
377.15	42.13
377.35	0.00
377.54	0.00
377.74	0.00
377.93	42.13
378.13	39.79
378.33	0.00
378.52	4.68
378.72	0.00
378.91	21.06
379.11	14.04
379.31	7.02
379.50	16.38
379.70	30.43
379.89	42.13
380.09	0.00
380.28	0.00
380.48	14.04
380.68	46.81
380.87	2.34
381.07	18.72
381.26	28.09
381.46	9.36
381.65	0.00
381.85	7.02
382.04	86.60
382.24	0.00
382.43	28.09
382.63	0.00
382.83	16.38
383.02	42.13
383.22	0.00
383.41	23.41
383.61	28.09
383.80	25.75
384.00	56.17
384.19	7.02
384.39	21.06
384.58	18.72
384.78	16.38
384.97	4.68
385.17	35.11
385.36	0.00
385.56	60.85
385.75	0.00
385.95	44.47
386.14	30.43
386.34	0.00
386.53	25.75
386.72	0.00
386.92	0.00
387.11	0.00
387.31	65.54
387.50	0.00
387.70	4.68
387.89	21.06
388.09	32.77
388.28	14.04
388.48	0.00
388.67	32.77
388.86	0.00
389.06	30.43
389.25	14.04
389.45	44.47
389.64	16.38
389.84	42.13
390.03	23.41
390.22	53.83
390.42	4.68
390.61	9.36
390.81	0.00
391.00	53.83
391.19	56.17
391.39	21.06
391.58	11.70
391.78	0.00
391.97	51.49
392.16	16.38
392.36	37.45
392.55	0.00
392.75	9.36
392.94	0.00
393.13	9.36
393.33	0.00
393.52	0.00
393.71	58.51
393.91	35.11
394.10	7.02
394.29	16.38
394.49	51.49
394.68	9.36
394.88	44.47
395.07	0.00
395.26	0.00
395.46	70.22
395.65	88.94
395.84	35.11
396.04	37.45
396.23	23.41
396.42	0.00
396.62	4.68
396.81	14.04
397.00	37.45
397.19	0.00
397.39	65.54
397.58	30.43
397.77	70.22
397.97	14.04
398.16	25.75
398.35	28.09
398.55	74.90
398.74	44.47
398.93	0.00
399.12	37.45
399.32	0.00
399.51	30.43
399.70	0.00
399.90	0.00
400.09	42.13
400.28	63.19
400.47	16.38
400.67	0.00
400.86	0.00
401.05	0.00
401.24	21.06
401.44	0.00
401.63	42.13
401.82	44.47
402.01	0.00
402.21	70.22
402.40	7.02
402.59	2.34
402.78	16.38
402.97	14.04
403.17	28.09
403.36	32.77
403.55	0.00
403.74	21.06
403.93	86.60
404.13	0.00
404.32	0.00
404.51	72.56
404.70	74.90
404.89	0.00
405.09	18.72
405.28	11.70
405.47	11.70
405.66	0.00
405.85	11.70
406.05	44.47
406.24	14.04
406.43	30.43
406.62	28.09
406.81	0.00
407.00	46.81
407.20	42.13
407.39	42.13
407.58	0.00
407.77	0.00
407.96	67.88
408.15	30.43
408.34	32.77
408.54	32.77
408.73	63.19
408.92	0.00
409.11	4.68
409.30	58.51
409.49	0.00
409.68	21.06
409.87	0.00
410.07	0.00
410.26	65.54
410.45	0.00
410.64	0.00
410.83	60.85
411.02	0.00
411.21	35.11
411.40	44.47
411.59	60.85
411.78	42.13
411.98	77.24
412.17	56.17
412.36	0.00
412.55	18.72
412.74	44.47
412.93	70.22
413.12	49.15
413.31	0.00
413.50	2.34
413.69	0.00
413.88	16.38
414.07	18.72
414.26	23.41
414.45	44.47
414.64	49.15
414.83	0.00
415.02	77.24
415.22	7.02
415.41	58.51
415.60	14.04
415.79	46.81
415.98	49.15
416.17	2.34
416.36	60.85
416.55	2.34
416.74	0.00
416.93	84.26
417.12	0.00
417.31	0.00
417.50	56.17
417.69	58.51
417.88	37.45
418.07	0.00
418.26	0.00
418.45	63.19
418.64	9.36
418.83	65.54
419.02	25.75
419.21	60.85
419.39	32.77
419.58	18.72
419.77	39.79
419.96	21.06
420.15	0.00
420.34	23.41
420.53	16.38
420.72	30.43
420.91	16.38
421.10	32.77
421.29	46.81
421.48	88.94
421.67	58.51
421.86	18.72
422.05	9.36
422.24	0.00
422.43	88.94
422.61	7.02
422.80	60.85
422.99	42.13
423.18	18.72
423.37	32.77
423.56	4.68
423.75	67.88
423.94	21.06
424.13	23.41
424.32	23.41
424.50	0.00
424.69	0.00
424.88	0.00
425.07	53.83
425.26	65.54
425.45	37.45
425.64	32.77
425.83	53.83
426.01	11.70
426.20	88.94
426.39	84.26
426.58	95.96
426.77	81.92
426.96	9.36
427.15	14.04
427.33	88.94
427.52	14.04
427.71	0.00
427.90	63.19
428.09	37.45
428.28	42.13
428.46	21.06
428.65	0.00
428.84	39.79
429.03	79.58
429.22	44.47
429.40	0.00
429.59	11.70
429.78	70.22
429.97	32.77
430.16	46.81
430.34	79.58
430.53	14.04
430.72	7.02
430.91	37.45
431.10	30.43
431.28	91.28
431.47	60.85
431.66	0.00
431.85	25.75
432.03	65.54
432.22	42.13
432.41	0.00
432.60	28.09
432.79	72.56
432.97	119.37
433.16	53.83
433.35	51.49
433.54	0.00
433.72	70.22
433.91	28.09
434.10	39.79
434.28	0.00
434.47	56.17
434.66	72.56
434.85	0.00
435.03	14.04
435.22	39.79
435.41	42.13
435.59	18.72
435.78	23.41
435.97	11.70
436.16	98.30
436.34	44.47
436.53	60.85
436.72	77.24
436.90	0.00
437.09	30.43
437.28	0.00
437.46	39.79
437.65	0.00
437.84	63.19
438.02	0.00
438.21	0.00
438.40	0.00
438.58	0.00
438.77	30.43
438.96	0.00
439.14	9.36
439.33	67.88
439.52	0.00
439.70	114.69
439.89	63.19
440.08	53.83
440.26	0.00
440.45	63.19
440.63	14.04
440.82	56.17
441.01	28.09
441.19	56.17
441.38	0.00
441.57	42.13
441.75	0.00
441.94	0.00
442.12	51.49
442.31	16.38
442.50	63.19
442.68	51.49
442.87	65.54
443.05	100.64
443.24	42.13
443.43	72.56
443.61	56.17
443.80	11.70
443.98	4.68
444.17	56.17
444.35	46.81
444.54	56.17
444.73	39.79
444.91	86.60
445.10	0.00
445.28	44.47
445.47	86.60
445.65	95.96
445.84	14.04
446.02	44.47
446.21	0.00
446.39	0.00
446.58	28.09
446.77	0.00
446.95	0.00
447.14	0.00
447.32	28.09
447.51	46.81
447.69	95.96
447.88	9.36
448.06	16.38
448.25	16.38
448.43	11.70
448.62	11.70
448.80	0.00
448.99	79.58
449.17	11.70
449.36	0.00
449.54	30.43
449.73	14.04
449.91	23.41
450.10	21.06
450.28	70.22
450.46	0.00
450.65	79.58
450.83	77.24
451.02	37.45
451.20	46.81
451.39	37.45
451.57	35.11
451.76	93.62
451.94	0.00
452.13	51.49
452.31	0.00
452.49	39.79
452.68	93.62
452.86	70.22
453.05	46.81
453.23	28.09
453.42	74.90
453.60	4.68
453.78	63.19
453.97	0.00
454.15	2.34
454.34	0.00
454.52	79.58
454.70	53.83
454.89	70.22
455.07	46.81
455.26	56.17
455.44	4.68
455.62	42.13
455.81	42.13
455.99	42.13
456.17	0.00
456.36	42.13
456.54	65.54
456.73	16.38
456.91	81.92
457.09	65.54
457.28	37.45
457.46	25.75
457.64	0.00
457.83	21.06
458.01	51.49
458.19	0.00
458.38	74.90
458.56	0.00
458.74	44.47
458.93	49.15
459.11	39.79
459.29	18.72
459.48	63.19
459.66	63.19
459.84	39.79
460.03	11.70
460.21	65.54
460.39	21.06
460.57	25.75
460.76	25.75
460.94	77.24
461.12	53.83
461.31	4.68
461.49	79.58
461.67	0.00
461.85	23.41
462.04	4.68
462.22	135.75
462.40	30.43
462.59	35.11
462.77	0.00
462.95	56.17
463.13	81.92
463.32	53.83
463.50	14.04
463.68	77.24
463.86	70.22
464.05	60.85
464.23	44.47
464.41	46.81
464.59	49.15
464.78	42.13
464.96	4.68
465.14	0.00
465.32	16.38
465.50	93.62
465.69	30.43
465.87	0.00
466.05	23.41
466.23	65.54
466.41	0.00
466.60	30.43
466.78	112.35
466.96	0.00
467.14	63.19
467.32	7.02
467.51	51.49
467.69	0.00
467.87	2.34
468.05	67.88
468.23	32.77
468.41	42.13
468.60	35.11
468.78	53.83
468.96	9.36
469.14	56.17
469.32	0.00
469.50	65.54
469.69	11.70
469.87	88.94
470.05	44.47
470.23	58.51
470.41	81.92
470.59	65.54
470.77	58.51
470.95	63.19
471.14	51.49
471.32	30.43
471.50	32.77
471.68	4.68
471.86	53.83
472.04	79.58
472.22	53.83
472.40	0.00
472.58	0.00
472.77	2.34
472.95	37.45
473.13	65.54
473.31	37.45
473.49	0.00
473.67	2.34
473.85	0.00
474.03	0.00
474.21	77.24
474.39	0.00
474.57	25.75
474.75	56.17
474.93	14.04
475.12	30.43
475.30	42.13
475.48	51.49
475.66	98.30
475.84	56.17
476.02	63.19
476.20	60.85
476.38	0.00
476.56	72.56
476.74	30.43
476.92	37.45
477.10	0.00
477.28	0.00
477.46	51.49
477.64	58.51
477.82	0.00
478.00	0.00
478.18	18.72
478.36	0.00
478.54	30.43
478.72	44.47
478.90	46.81
479.08	0.00
479.26	7.02
479.44	0.00
479.62	98.30
479.80	14.04
479.98	133.41
480.16	7.02
480.34	51.49
480.52	67.88
480.70	11.70
480.88	18.72
481.06	30.43
481.24	0.00
481.41	0.00
481.59	86.60
481.77	25.75
481.95	23.41
482.13	91.28
482.31	39.79
482.49	74.90
482.67	0.00
482.85	11.70
483.03	49.15
483.21	88.94
483.39	51.49
483.57	51.49
483.74	63.19
483.92	14.04
484.10	49.15
484.28	42.13
484.46	30.43
484.64	21.06
484.82	0.00
485.00	58.51
485.18	16.38
485.35	0.00
485.53	0.00
485.71	72.56
485.89	21.06
486.07	49.15
486.25	56.17
486.43	51.49
486.61	11.70
486.78	9.36
486.96	0.00
487.14	39.79
487.32	30.43
487.50	46.81
487.68	0.00
487.85	0.00
488.03	39.79
488.21	0.00
488.39	0.00
488.57	44.47
488.75	56.17
488.92	107.66
489.10	11.70
489.28	51.49
489.46	56.17
489.64	53.83
489.81	18.72
489.99	42.13
490.17	0.00
490.35	58.51
490.53	0.00
490.70	86.60
490.88	16.38
491.06	21.06
491.24	67.88
491.41	2.34
491.59	35.11
491.77	0.00
491.95	14.04
492.13	0.00
492.30	37.45
492.48	65.54
492.66	44.47
492.84	16.38
493.01	39.79
493.19	0.00
493.37	14.04
493.54	21.06
493.72	107.66
493.90	0.00
494.08	128.73
494.25	18.72
494.43	65.54
494.61	39.79
494.79	0.00
494.96	37.45
495.14	0.00
495.32	49.15
495.49	0.00
495.67	44.47
495.85	100.64
496.02	21.06
496.20	0.00
496.38	0.00
496.55	65.54
496.73	18.72
496.91	0.00
497.09	51.49
497.26	0.00
497.44	0.00
497.62	35.11
497.79	56.17
497.97	70.22
498.14	28.09
498.32	18.72
498.50	35.11
498.67	16.38
498.85	81.92
499.03	23.41
499.20	14.04
499.38	28.09
499.56	25.75
499.73	51.49
499.91	70.22
500.08	91.28
500.26	63.19
500.44	77.24
500.61	44.47
500.79	70.22
500.97	53.83
501.14	32.77
501.32	42.13
501.49	79.58
501.67	63.19
501.84	28.09
502.02	93.62
502.20	72.56
502.37	98.30
502.55	0.00
502.72	28.09
502.90	11.70
503.07	42.13
503.25	0.00
503.43	67.88
503.60	0.00
503.78	18.72
503.95	0.00
504.13	21.06
504.30	9.36
504.48	70.22
504.65	72.56
504.83	105.32
505.01	18.72
505.18	0.00
505.36	18.72
505.53	0.00
505.71	121.71
505.88	86.60
506.06	65.54
506.23	25.75
506.41	63.19
506.58	0.00
506.76	35.11
506.93	0.00
507.11	102.98
507.28	72.56
507.46	0.00
507.63	42.13
507.81	18.72
507.98	65.54
508.16	63.19
508.33	16.38
508.50	23.41
508.68	72.56
508.85	112.35
509.03	21.06
509.20	21.06
509.38	42.13
509.55	16.38
509.73	28.09
509.90	65.54
510.08	53.83
510.25	9.36
510.42	0.00
510.60	18.72
510.77	53.83
510.95	28.09
511.12	49.15
511.30	18.72
511.47	18.72
511.64	147.45
511.82	7.02
511.99	110.01
512.17	74.90
512.34	30.43
512.51	7.02
512.69	0.00
512.86	4.68
513.04	7.02
513.21	51.49
513.38	60.85
513.56	37.45
513.73	67.88
513.90	72.56
514.08	16.38
514.25	30.43
514.43	11.70
514.60	79.58
514.77	11.70
514.95	65.54
515.12	7.02
515.29	32.77
515.47	63.19
515.64	32.77
515.81	0.00
515.99	37.45
516.16	32.77
516.33	7.02
516.51	37.45
516.68	63.19
516.85	25.75
517.03	0.00
517.20	77.24
517.37	25.75
517.54	93.62
517.72	14.04
517.89	37.45
518.06	91.28
518.24	11.70
518.41	63.19
518.58	74.90
518.75	37.45
518.93	56.17
519.10	37.45
519.27	42.13
519.45	46.81
519.62	16.38
519.79	37.45
519.96	21.06
520.14	105.32
520.31	28.09
520.48	72.56
520.65	58.51
520.83	63.19
521.00	4.68
521.17	60.85
521.34	37.45
521.52	65.54
521.69	18.72
521.86	28.09
522.03	0.00
522.20	84.26
522.38	74.90
522.55	25.75
522.72	49.15
522.89	51.49
523.07	70.22
523.24	63.19
523.41	7.02
523.58	2.34
523.75	0.00
523.92	2.34
524.10	16.38
524.27	39.79
524.44	102.98
524.61	9.36
524.78	58.51
524.96	42.13
525.13	65.54
525.30	51.49
525.47	60.85
525.64	28.09
525.81	91.28
525.98	23.41
526.16	18.72
526.33	21.06
526.50	4.68
526.67	77.24
526.84	51.49
527.01	25.75
527.18	0.00
527.36	14.04
527.53	60.85
527.70	14.04
527.87	25.75
528.04	56.17
528.21	35.11
528.38	72.56
528.55	100.64
528.72	63.19
528.89	0.00
529.07	58.51
529.24	30.43
529.41	23.41
529.58	37.45
529.75	63.19
529.92	53.83
530.09	42.13
530.26	56.17
530.43	74.90
530.60	60.85
530.77	39.79
530.94	42.13
531.11	4.68
531.28	93.62
531.46	93.62
531.63	0.00
531.80	145.11
531.97	0.00
532.14	44.47
532.31	14.04
532.48	0.00
532.65	58.51
532.82	60.85
532.99	0.00
533.16	0.00
533.33	93.62
533.50	21.06
533.67	63.19
533.84	77.24
534.01	37.45
534.18	84.26
534.35	72.56
534.52	23.41
534.69	0.00
534.86	35.11
535.03	0.00
535.20	74.90
535.37	0.00
535.54	93.62
535.71	0.00
535.88	77.24
536.05	56.17
536.22	9.36
536.38	79.58
536.55	18.72
536.72	58.51
536.89	39.79
537.06	126.39
537.23	84.26
537.40	44.47
537.57	77.24
537.74	32.77
537.91	58.51
538.08	65.54
538.25	107.66
538.42	0.00
538.59	25.75
538.75	37.45
538.92	56.17
539.09	44.47
539.26	56.17
539.43	4.68
539.60	166.18
539.77	266.82
539.94	215.33
540.11	149.79
540.28	121.71
540.44	70.22
540.61	70.22
540.78	100.64
540.95	98.30
541.12	77.24
541.29	56.17
541.46	35.11
541.62	0.00
541.79	35.11
541.96	88.94
542.13	0.00
542.30	16.38
542.47	58.51
542.63	7.02
542.80	42.13
542.97	65.54
543.14	46.81
543.31	28.09
543.48	0.00
543.64	81.92
543.81	23.41
543.98	30.43
544.15	37.45
544.32	39.79
544.48	131.07
544.65	16.38
544.82	77.24
544.99	53.83
545.16	35.11
545.32	37.45
545.49	23.41
545.66	98.30
545.83	67.88
546.00	0.00
546.16	28.09
546.33	42.13
546.50	84.26
546.67	53.83
546.83	53.83
547.00	58.51
547.17	77.24
547.34	16.38
547.50	14.04
547.67	58.51
547.84	0.00
548.00	105.32
548.17	37.45
548.34	32.77
548.51	30.43
548.67	18.72
548.84	58.51
549.01	65.54
549.18	44.47
549.34	0.00
549.51	46.81
549.68	28.09
549.84	105.32
550.01	58.51
550.18	131.07
550.34	11.70
550.51	35.11
550.68	30.43
550.84	32.77
551.01	42.13
551.18	18.72
551.34	51.49
551.51	0.00
551.68	46.81
551.84	25.75
552.01	51.49
552.18	86.60
552.34	0.00
552.51	79.58
552.68	39.79
552.84	0.00
553.01	32.77
553.18	79.58
553.34	56.17
553.51	60.85
553.67	21.06
553.84	9.36
554.01	91.28
554.17	0.00
554.34	0.00
554.51	60.85
554.67	37.45
554.84	88.94
555.00	25.75
555.17	35.11
555.33	149.79
555.50	95.96
555.67	0.00
555.83	58.51
556.00	18.72
556.16	42.13
556.33	105.32
556.50	56.17
556.66	0.00
556.83	51.49
556.99	110.01
557.16	4.68
557.32	0.00
557.49	4.68
557.65	28.09
557.82	18.72
557.98	0.00
558.15	14.04
558.32	16.38
558.48	25.75
558.65	58.51
558.81	0.00
558.98	23.41
559.14	44.47
559.31	30.43
559.47	60.85
559.64	114.69
559.80	63.19
559.97	32.77
560.13	39.79
560.30	88.94
560.46	2.34
560.63	11.70
560.79	32.77
560.96	7.02
561.12	35.11
561.29	81.92
561.45	0.00
561.61	105.32
561.78	60.85
561.94	0.00
562.11	32.77
562.27	46.81
562.44	0.00
562.60	74.90
562.77	37.45
562.93	0.00
563.10	93.62
563.26	58.51
563.42	88.94
563.59	0.00
563.75	56.17
563.92	0.00
564.08	18.72
564.24	58.51
564.41	0.00
564.57	37.45
564.74	0.00
564.90	58.51
565.07	44.47
565.23	35.11
565.39	93.62
565.56	44.47
565.72	56.17
565.88	35.11
566.05	0.00
566.21	23.41
566.38	58.51
566.54	53.83
566.70	18.72
566.87	84.26
567.03	0.00
567.19	102.98
567.36	30.43
567.52	86.60
567.68	51.49
567.85	110.01
568.01	79.58
568.17	0.00
568.34	72.56
568.50	23.41
568.66	0.00
568.83	79.58
568.99	42.13
569.15	63.19
569.32	88.94
569.48	56.17
569.64	0.00
569.81	138.09
569.97	25.75
570.13	0.00
570.30	44.47
570.46	72.56
570.62	58.51
570.78	11.70
570.95	51.49
571.11	46.81
571.27	56.17
571.43	21.06
571.60	14.04
571.76	42.13
571.92	112.35
572.09	53.83
572.25	0.00
572.41	28.09
572.57	28.09
572.74	0.00
572.90	74.90
573.06	23.41
573.22	88.94
573.38	28.09
573.55	0.00
573.71	37.45
573.87	42.13
574.03	63.19
574.20	0.00
574.36	21.06
574.52	51.49
574.68	32.77
574.84	84.26
575.01	49.15
575.17	4.68
575.33	30.43
575.49	39.79
575.65	32.77
575.82	42.13
575.98	53.83
576.14	138.09
576.30	81.92
576.46	70.22
576.62	79.58
576.79	53.83
576.95	53.83
577.11	74.90
577.27	9.36
577.43	53.83
577.59	65.54
577.75	49.15
577.92	72.56
578.08	7.02
578.24	58.51
578.40	112.35
578.56	11.70
578.72	4.68
578.88	23.41
579.04	114.69
579.21	49.15
579.37	84.26
579.53	14.04
579.69	23.41
579.85	88.94
580.01	63.19
580.17	28.09
580.33	0.00
580.49	77.24
580.65	51.49
580.82	18.72
580.98	58.51
581.14	102.98
581.30	95.96
581.46	42.13
581.62	112.35
581.78	58.51
581.94	135.75
582.10	100.64
582.26	102.98
582.42	14.04
582.58	56.17
582.74	100.64
582.90	39.79
583.06	28.09
583.22	95.96
583.38	56.17
583.54	30.43
583.70	124.05
583.86	91.28
584.02	119.37
584.18	98.30
584.34	161.50
584.50	409.59
584.66	3126.96
584.82	8365.07
584.98	13209.98
585.14	12280.79
585.30	7288.43
585.46	4290.20
585.62	2752.47
585.78	1313.04
585.94	578.11
586.10	212.99
586.26	88.94
586.42	138.09
586.58	131.07
586.74	30.43
586.90	117.03
587.06	84.26
587.22	74.90
587.38	112.35
587.54	189.58
587.70	447.04
587.86	788.76
588.02	983.02
588.18	741.95
588.34	428.32
588.49	346.40
588.65	220.01
588.81	79.58
588.97	114.69
589.13	51.49
589.29	70.22
589.45	0.00
589.61	28.09
589.77	86.60
589.93	121.71
590.08	21.06
590.24	88.94
590.40	126.39
590.56	51.49
590.72	14.04
590.88	42.13
591.04	110.01
591.20	81.92
591.35	79.58
591.51	100.64
591.67	117.03
591.83	74.90
591.99	49.15
592.15	77.24
592.31	32.77
592.46	46.81
592.62	49.15
592.78	11.70
592.94	7.02
593.10	35.11
593.26	72.56
593.41	128.73
593.57	0.00
593.73	72.56
593.89	388.53
594.05	999.41
594.20	1797.53
594.36	1710.93
594.52	1100.05
594.68	704.50
594.84	472.79
594.99	222.35
595.15	163.84
595.31	91.28
595.47	44.47
595.62	65.54
595.78	77.24
595.94	32.77
596.10	51.49
596.25	25.75
596.41	9.36
596.57	58.51
596.73	124.05
596.88	25.75
597.04	191.92
597.20	325.33
597.36	381.51
597.51	325.33
597.67	205.97
597.83	168.52
597.99	156.82
598.14	81.92
598.30	74.90
598.46	117.03
598.61	46.81
598.77	35.11
598.93	51.49
599.09	30.43
599.24	18.72
599.40	14.04
599.56	11.70
599.71	30.43
599.87	0.00
600.03	25.75
600.18	60.85
600.34	56.17
600.50	77.24
600.65	35.11
600.81	49.15
600.97	2.34
601.12	42.13
601.28	126.39
601.44	16.38
601.59	37.45
601.75	23.41
601.91	81.92
602.06	51.49
602.22	9.36
602.37	161.50
602.53	315.97
602.69	425.98
602.84	533.64
603.00	320.65
603.16	196.60
603.31	166.18
603.47	119.37
603.62	0.00
603.78	72.56
603.94	0.00
604.09	21.06
604.25	32.77
604.40	84.26
604.56	0.00
604.71	70.22
604.87	42.13
605.03	44.47
605.18	100.64
605.34	110.01
605.49	140.43
605.65	100.64
605.80	65.54
605.96	44.47
606.12	51.49
606.27	32.77
606.43	63.19
606.58	60.85
606.74	110.01
606.89	514.92
607.05	1029.84
607.20	1462.83
607.36	1158.57
607.51	868.34
607.67	519.60
607.82	355.76
607.98	224.69
608.13	98.30
608.29	32.77
608.44	42.13
608.60	53.83
608.75	135.75
608.91	205.97
609.06	763.01
609.22	1727.32
609.37	2527.78
609.53	2216.49
609.68	1483.90
609.84	922.17
609.99	547.69
610.15	367.46
610.30	208.31
610.46	152.13
610.61	86.60
610.76	28.09
610.92	46.81
611.07	74.90
611.23	77.24
611.38	117.03
611.54	112.35
611.69	30.43
611.84	56.17
612.00	28.09
612.15	28.09
612.31	93.62
612.46	65.54
612.62	142.77
612.77	114.69
612.92	88.94
613.08	119.37
613.23	135.75
613.39	147.45
613.54	215.33
613.69	697.48
613.85	2101.80
614.00	3428.88
614.15	3999.98
614.31	2867.16
614.46	1785.83
614.62	1174.95
614.77	655.35
614.92	320.65
615.08	166.18
615.23	110.01
615.38	110.01
615.54	84.26
615.69	163.84
615.84	374.49
616.00	718.54
616.15	1069.62
616.30	987.71
616.46	638.97
616.61	297.25
616.76	322.99
616.92	81.92
617.07	74.90
617.22	95.96
617.37	72.56
617.53	0.00
617.68	0.00
617.83	91.28
617.99	56.17
618.14	4.68
618.29	30.43
618.45	53.83
618.60	2.34
618.75	46.81
618.90	56.17
619.06	21.06
619.21	79.58
619.36	0.00
619.51	35.11
619.67	37.45
619.82	37.45
619.97	0.00
620.12	0.00
620.28	18.72
620.43	145.11
620.58	4.68
620.73	30.43
620.89	37.45
621.04	114.69
621.19	196.60
621.34	447.04
621.49	599.18
621.65	587.47
621.80	393.21
621.95	194.26
622.10	196.60
622.25	121.71
622.41	72.56
622.56	9.36
622.71	2.34
622.86	44.47
623.01	84.26
623.16	0.00
623.32	4.68
623.47	25.75
623.62	58.51
623.77	0.00
623.92	49.15
624.07	7.02
624.23	70.22
624.38	84.26
624.53	0.00
624.68	23.41
624.83	88.94
624.98	44.47
625.13	7.02
625.29	18.72
625.44	49.15
625.59	86.60
625.74	86.60
625.89	147.45
626.04	290.23
626.19	1029.84
626.34	1689.87
626.49	1998.82
626.65	1598.59
626.80	1015.79
626.95	669.39
627.10	456.40
627.25	308.95
627.40	60.85
627.55	72.56
627.70	51.49
627.85	4.68
628.00	81.92
628.15	28.09
628.30	60.85
628.45	63.19
628.60	42.13
628.76	107.66
628.91	86.60
629.06	9.36
629.21	4.68
629.36	74.90
629.51	77.24
629.66	49.15
629.81	84.26
629.96	187.24
630.11	306.61
630.26	482.15
630.41	531.30
630.56	355.76
630.71	250.44
630.86	215.33
631.01	152.13
631.16	70.22
631.31	77.24
631.46	44.47
631.61	63.19
631.76	58.51
631.91	102.98
632.06	16.38
632.21	63.19
632.36	44.47
632.51	60.85
632.66	0.00
632.81	196.60
632.96	592.16
633.10	1060.26
633.25	1476.88
633.40	1196.01
633.55	765.36
633.70	561.73
633.85	372.15
634.00	224.69
634.15	124.05
634.30	81.92
634.45	53.83
634.60	84.26
634.75	67.88
634.90	42.13
635.05	44.47
635.19	37.45
635.34	49.15
635.49	121.71
635.64	0.00
635.79	79.58
635.94	91.28
636.09	49.15
636.24	42.13
636.39	21.06
636.53	21.06
636.68	63.19
636.83	25.75
636.98	0.00
637.13	100.64
637.28	98.30
637.43	107.66
637.57	140.43
637.72	489.17
637.87	1341.13
638.02	2237.55
638.17	2621.40
638.32	2017.54
638.46	1394.96
638.61	891.74
638.76	599.18
638.91	255.12
639.06	133.41
639.20	114.69
639.35	121.71
639.50	163.84
639.65	835.57
639.80	2064.35
639.94	3445.27
640.09	4091.26
640.24	3112.91
640.39	2062.01
640.54	1259.21
640.68	926.85
640.83	381.51
640.98	187.24
641.13	170.86
641.27	98.30
641.42	110.01
641.57	21.06
641.72	49.15
641.86	16.38
642.01	2.34
642.16	53.83
642.31	70.22
642.45	65.54
642.60	23.41
642.75	46.81
642.90	79.58
643.04	0.00
643.19	58.51
643.34	35.11
643.48	32.77
643.63	21.06
643.78	0.00
643.93	4.68
644.07	49.15
644.22	44.47
644.37	35.11
644.51	0.00
644.66	74.90
644.81	37.45
644.95	14.04
645.10	60.85
645.25	28.09
645.39	16.38
645.54	23.41
645.69	0.00
645.83	0.00
645.98	58.51
646.13	60.85
646.27	39.79
646.42	119.37
646.57	88.94
646.71	63.19
646.86	74.90
647.00	102.98
647.15	32.77
647.30	53.83
647.44	93.62
647.59	58.51
647.74	0.00
647.88	0.00
648.03	72.56
648.17	63.19
648.32	63.19
648.47	44.47
648.61	32.77
648.76	46.81
648.90	7.02
649.05	39.79
649.20	53.83
649.34	81.92
649.49	84.26
649.63	35.11
649.78	56.17
649.92	95.96
650.07	322.99
650.21	931.53
650.36	1626.67
650.51	2169.68
650.65	1753.06
650.80	1334.11
650.94	791.10
651.09	477.47
651.23	257.46
651.38	100.64
651.52	145.11
651.67	121.71
651.81	63.19
651.96	77.24
652.10	149.79
652.25	0.00
652.39	44.47
652.54	119.37
652.68	117.03
652.83	290.23
652.97	561.73
653.12	697.48
653.26	603.86
653.41	505.56
653.55	320.65
653.70	203.63
653.84	128.73
653.99	46.81
654.13	58.51
654.27	32.77
654.42	9.36
654.56	65.54
654.71	49.15
654.85	0.00
655.00	53.83
655.14	44.47
655.29	44.47
655.43	0.00
655.57	60.85
655.72	0.00
655.86	0.00
656.01	37.45
656.15	0.00
656.30	28.09
656.44	56.17
656.58	131.07
656.73	4.68
656.87	74.90
657.01	0.00
657.16	0.00
657.30	58.51
657.45	0.00
657.59	4.68
657.73	56.17
657.88	39.79
658.02	63.19
658.16	16.38
658.31	72.56
658.45	114.69
658.60	63.19
658.74	0.00
658.88	0.00
659.03	39.79
659.17	86.60
659.31	156.82
659.46	367.46
659.60	718.54
659.74	1055.58
659.89	910.47
660.03	744.29
660.17	486.83
660.32	327.68
660.46	152.13
660.60	105.32
660.74	51.49
660.89	49.15
661.03	0.00
661.17	126.39
661.32	30.43
661.46	44.47
661.60	72.56
661.74	37.45
661.89	0.00
662.03	18.72
662.17	112.35
662.31	30.43
662.46	30.43
662.60	23.41
662.74	14.04
662.88	0.00
663.03	72.56
663.17	39.79
663.31	56.17
663.45	28.09
663.60	51.49
663.74	44.47
663.88	21.06
664.02	21.06
664.17	56.17
664.31	30.43
664.45	39.79
664.59	4.68
664.73	21.06
664.88	81.92
665.02	30.43
665.16	21.06
665.30	11.70
665.44	81.92
665.59	70.22
665.73	30.43
665.87	16.38
666.01	0.00
666.15	11.70
666.29	67.88
666.44	114.69
666.58	81.92
666.72	105.32
666.86	88.94
667.00	32.77
667.14	74.90
667.28	308.95
667.43	823.87
667.57	1373.89
667.71	1921.58
667.85	1626.67
667.99	1163.25
668.13	741.95
668.27	458.74
668.41	285.55
668.56	126.39
668.70	100.64
668.84	86.60
668.98	7.02
669.12	72.56
669.26	102.98
669.40	63.19
669.54	51.49
669.68	11.70
669.82	72.56
669.96	49.15
670.10	28.09
670.25	56.17
670.39	18.72
670.53	107.66
670.67	46.81
670.81	131.07
670.95	21.06
671.09	119.37
671.23	290.23
671.37	608.54
671.51	1062.60
671.65	1167.93
671.79	952.60
671.93	596.84
672.07	397.89
672.21	205.97
672.35	140.43
672.49	28.09
672.63	46.81
672.77	100.64
672.91	51.49
673.05	60.85
673.19	0.00
673.33	21.06
673.47	37.45
673.61	4.68
673.75	70.22
673.89	25.75
674.03	37.45
674.17	14.04
674.31	124.05
674.45	91.28
674.59	91.28
674.73	58.51
674.87	147.45
675.01	32.77
675.15	39.79
675.29	67.88
675.43	42.13
675.56	0.00
675.70	7.02
675.84	63.19
675.98	11.70
676.12	7.02
676.26	35.11
676.40	0.00
676.54	35.11
676.68	28.09
676.82	11.70
676.96	4.68
677.10	63.19
677.23	0.00
677.37	42.13
677.51	16.38
677.65	0.00
677.79	7.02
677.93	0.00
678.07	60.85
678.21	0.00
678.34	32.77
678.48	0.00
678.62	60.85
678.76	91.28
678.90	7.02
679.04	39.79
679.18	67.88
679.31	56.17
679.45	63.19
679.59	42.13
679.73	39.79
679.87	107.66
680.00	0.00
680.14	65.54
680.28	0.00
680.42	42.13
680.56	56.17
680.70	18.72
680.83	135.75
680.97	25.75
681.11	14.04
681.25	58.51
681.39	63.19
681.52	70.22
681.66	0.00
681.80	23.41
681.94	44.47
682.07	0.00
682.21	23.41
682.35	4.68
682.49	39.79
682.62	0.00
682.76	21.06
682.90	21.06
683.04	2.34
683.17	44.47
683.31	0.00
683.45	65.54
683.59	53.83
683.72	23.41
683.86	58.51
684.00	0.00
684.13	30.43
684.27	0.00
684.41	9.36
684.55	0.00
684.68	0.00
684.82	100.64
684.96	77.24
685.09	25.75
685.23	42.13
685.37	18.72
685.50	46.81
685.64	30.43
685.78	46.81
685.91	21.06
686.05	49.15
686.19	53.83
686.32	0.00
686.46	0.00
686.60	42.13
686.73	63.19
686.87	0.00
687.01	0.00
687.14	0.00
687.28	72.56
687.42	60.85
687.55	58.51
687.69	107.66
687.82	0.00
687.96	25.75
688.10	39.79
688.23	35.11
688.37	0.00
688.50	39.79
688.64	23.41
688.78	32.77
688.91	21.06
689.05	11.70
689.18	0.00
689.32	0.00
689.46	63.19
689.59	0.00
689.73	39.79
689.86	81.92
690.00	25.75
690.13	0.00
690.27	81.92
690.41	93.62
690.54	102.98
690.68	79.58
690.81	65.54
690.95	0.00
691.08	77.24
691.22	25.75
691.35	67.88
691.49	81.92
691.62	14.04
691.76	49.15
691.89	18.72
692.03	30.43
692.16	9.36
692.30	81.92
692.43	98.30
692.57	360.44
692.70	510.24
692.84	744.29
692.97	737.27
693.11	561.73
693.24	386.19
693.38	262.14
693.51	138.09
693.65	147.45
693.78	84.26
693.92	11.70
694.05	79.58
694.19	25.75
694.32	86.60
694.45	32.77
694.59	7.02
694.72	4.68
694.86	100.64
694.99	46.81
695.13	18.72
695.26	9.36
695.39	25.75
695.53	30.43
695.66	32.77
695.80	39.79
695.93	86.60
696.07	16.38
696.20	58.51
696.33	42.13
696.47	93.62
696.60	88.94
696.73	65.54
696.87	44.47
697.00	88.94
697.14	16.38
697.27	51.49
697.40	58.51
697.54	42.13
697.67	77.24
697.80	35.11
697.94	39.79
698.07	23.41
698.21	49.15
698.34	46.81
698.47	53.83
698.61	49.15
698.74	44.47
698.87	49.15
699.01	7.02
699.14	4.68
699.27	53.83
699.40	14.04
699.54	49.15
699.67	42.13
699.80	18.72
699.94	49.15
700.07	21.06
700.20	30.43
700.34	16.38
700.47	28.09
700.60	67.88
700.73	0.00
700.87	0.00
701.00	30.43
701.13	7.02
701.26	60.85
701.40	16.38
701.53	49.15
701.66	0.00
701.79	0.00
701.93	53.83
702.06	32.77
702.19	121.71
702.32	131.07
702.46	152.13
702.59	105.32
702.72	170.86
702.85	414.27
702.99	959.62
703.12	1341.13
703.25	1643.06
703.38	1409.00
703.51	1153.88
703.65	807.48
703.78	664.71
703.91	482.15
704.04	217.67
704.17	135.75
704.31	95.96
704.44	74.90
704.57	135.75
704.70	0.00
704.83	0.00
704.96	0.00
705.10	28.09
705.23	32.77
>>>>>End Processed Spectral Data<<<<<
