SpectraSuite Data File
++++++++++++++++++++++++++++++++++++
Date: Fri Oct 04 12:13:41 GMT-05:00 2013
User: price-jones
Dark Spectrum Present: No
Reference Spectrum Present: No
Number of Sampled Component Spectra: 1
Spectrometers: USB2+H05261
Integration Time (usec): 10000 (USB2+H05261)
Spectra Averaged: 1 (USB2+H05261)
Boxcar Smoothing: 0 (USB2+H05261)
Correct for Electrical Dark: No (USB2+H05261)
Strobe/Lamp Enabled: No (USB2+H05261)
Correct for Detector Non-linearity: No (USB2+H05261)
Correct for Stray Light: No (USB2+H05261)
Number of Pixels in Processed Spectrum: 2048
>>>>>Begin Processed Spectral Data<<<<<
365.73	0.00
365.92	0.00
366.12	0.00
366.32	0.00
366.52	0.00
366.72	0.00
366.91	0.00
367.11	0.00
367.31	0.00
367.51	0.00
367.70	0.00
367.90	0.00
368.10	0.00
368.30	0.00
368.49	0.00
368.69	0.00
368.89	0.00
369.09	0.00
369.28	0.00
369.48	0.00
369.68	0.00
369.87	0.00
370.07	0.00
370.27	0.00
370.47	0.00
370.66	0.00
370.86	0.00
371.06	0.00
371.25	0.00
371.45	0.00
371.65	37.45
371.84	93.62
372.04	0.00
372.24	21.06
372.44	53.83
372.63	0.00
372.83	39.79
373.03	21.06
373.22	0.00
373.42	0.00
373.62	0.00
373.81	58.51
374.01	70.22
374.21	93.62
374.40	0.00
374.60	0.00
374.79	11.70
374.99	39.79
375.19	28.09
375.38	39.79
375.58	51.49
375.78	0.00
375.97	53.83
376.17	102.98
376.37	0.00
376.56	0.00
376.76	32.77
376.95	72.56
377.15	0.00
377.35	58.51
377.54	110.01
377.74	11.70
377.93	56.17
378.13	14.04
378.33	60.85
378.52	37.45
378.72	0.00
378.91	44.47
379.11	0.00
379.31	0.00
379.50	28.09
379.70	42.13
379.89	35.11
380.09	25.75
380.28	0.00
380.48	51.49
380.68	4.68
380.87	21.06
381.07	30.43
381.26	0.00
381.46	2.34
381.65	46.81
381.85	60.85
382.04	9.36
382.24	21.06
382.43	39.79
382.63	30.43
382.83	0.00
383.02	56.17
383.22	9.36
383.41	16.38
383.61	42.13
383.80	0.00
384.00	84.26
384.19	0.00
384.39	18.72
384.58	7.02
384.78	0.00
384.97	0.00
385.17	58.51
385.36	0.00
385.56	0.00
385.75	37.45
385.95	0.00
386.14	39.79
386.34	2.34
386.53	110.01
386.72	16.38
386.92	77.24
387.11	126.39
387.31	0.00
387.50	23.41
387.70	23.41
387.89	0.00
388.09	16.38
388.28	56.17
388.48	25.75
388.67	58.51
388.86	0.00
389.06	0.00
389.25	0.00
389.45	0.00
389.64	16.38
389.84	2.34
390.03	0.00
390.22	72.56
390.42	0.00
390.61	0.00
390.81	0.00
391.00	60.85
391.19	63.19
391.39	23.41
391.58	7.02
391.78	0.00
391.97	0.00
392.16	0.00
392.36	81.92
392.55	0.00
392.75	18.72
392.94	11.70
393.13	7.02
393.33	0.00
393.52	23.41
393.71	30.43
393.91	25.75
394.10	65.54
394.29	63.19
394.49	7.02
394.68	74.90
394.88	25.75
395.07	63.19
395.26	21.06
395.46	53.83
395.65	0.00
395.84	86.60
396.04	70.22
396.23	70.22
396.42	0.00
396.62	60.85
396.81	51.49
397.00	0.00
397.19	58.51
397.39	0.00
397.58	9.36
397.77	35.11
397.97	11.70
398.16	16.38
398.35	42.13
398.55	2.34
398.74	37.45
398.93	46.81
399.12	2.34
399.32	30.43
399.51	79.58
399.70	46.81
399.90	42.13
400.09	21.06
400.28	72.56
400.47	91.28
400.67	35.11
400.86	0.00
401.05	44.47
401.24	46.81
401.44	0.00
401.63	0.00
401.82	42.13
402.01	98.30
402.21	18.72
402.40	0.00
402.59	98.30
402.78	28.09
402.97	0.00
403.17	53.83
403.36	23.41
403.55	7.02
403.74	42.13
403.93	37.45
404.13	0.00
404.32	42.13
404.51	65.54
404.70	81.92
404.89	25.75
405.09	23.41
405.28	42.13
405.47	0.00
405.66	95.96
405.85	16.38
406.05	16.38
406.24	100.64
406.43	37.45
406.62	4.68
406.81	79.58
407.00	72.56
407.20	63.19
407.39	0.00
407.58	72.56
407.77	65.54
407.96	32.77
408.15	7.02
408.34	74.90
408.54	49.15
408.73	49.15
408.92	121.71
409.11	23.41
409.30	2.34
409.49	16.38
409.68	18.72
409.87	9.36
410.07	14.04
410.26	102.98
410.45	114.69
410.64	42.13
410.83	72.56
411.02	98.30
411.21	44.47
411.40	84.26
411.59	65.54
411.78	14.04
411.98	0.00
412.17	0.00
412.36	28.09
412.55	44.47
412.74	0.00
412.93	18.72
413.12	42.13
413.31	49.15
413.50	14.04
413.69	28.09
413.88	74.90
414.07	46.81
414.26	67.88
414.45	4.68
414.64	18.72
414.83	65.54
415.02	21.06
415.22	88.94
415.41	0.00
415.60	14.04
415.79	0.00
415.98	7.02
416.17	49.15
416.36	0.00
416.55	58.51
416.74	0.00
416.93	18.72
417.12	46.81
417.31	35.11
417.50	28.09
417.69	30.43
417.88	0.00
418.07	39.79
418.26	98.30
418.45	51.49
418.64	21.06
418.83	0.00
419.02	81.92
419.21	67.88
419.39	77.24
419.58	51.49
419.77	35.11
419.96	46.81
420.15	93.62
420.34	42.13
420.53	79.58
420.72	67.88
420.91	91.28
421.10	58.51
421.29	7.02
421.48	60.85
421.67	9.36
421.86	0.00
422.05	79.58
422.24	30.43
422.43	28.09
422.61	23.41
422.80	49.15
422.99	21.06
423.18	32.77
423.37	49.15
423.56	18.72
423.75	16.38
423.94	67.88
424.13	46.81
424.32	58.51
424.50	0.00
424.69	46.81
424.88	56.17
425.07	0.00
425.26	46.81
425.45	67.88
425.64	0.00
425.83	53.83
426.01	0.00
426.20	98.30
426.39	23.41
426.58	30.43
426.77	14.04
426.96	72.56
427.15	44.47
427.33	51.49
427.52	23.41
427.71	4.68
427.90	42.13
428.09	37.45
428.28	56.17
428.46	44.47
428.65	35.11
428.84	46.81
429.03	79.58
429.22	124.05
429.40	58.51
429.59	14.04
429.78	86.60
429.97	56.17
430.16	46.81
430.34	39.79
430.53	72.56
430.72	0.00
430.91	142.77
431.10	117.03
431.28	79.58
431.47	91.28
431.66	30.43
431.85	56.17
432.03	4.68
432.22	81.92
432.41	51.49
432.60	9.36
432.79	70.22
432.97	7.02
433.16	91.28
433.35	63.19
433.54	58.51
433.72	107.66
433.91	91.28
434.10	98.30
434.28	46.81
434.47	121.71
434.66	28.09
434.85	14.04
435.03	102.98
435.22	121.71
435.41	74.90
435.59	35.11
435.78	51.49
435.97	28.09
436.16	65.54
436.34	70.22
436.53	21.06
436.72	88.94
436.90	32.77
437.09	39.79
437.28	21.06
437.46	18.72
437.65	37.45
437.84	18.72
438.02	67.88
438.21	107.66
438.40	0.00
438.58	16.38
438.77	93.62
438.96	0.00
439.14	49.15
439.33	91.28
439.52	56.17
439.70	39.79
439.89	32.77
440.08	16.38
440.26	79.58
440.45	14.04
440.63	4.68
440.82	35.11
441.01	35.11
441.19	46.81
441.38	0.00
441.57	37.45
441.75	28.09
441.94	60.85
442.12	74.90
442.31	21.06
442.50	58.51
442.68	30.43
442.87	0.00
443.05	107.66
443.24	86.60
443.43	2.34
443.61	91.28
443.80	4.68
443.98	93.62
444.17	0.00
444.35	79.58
444.54	32.77
444.73	65.54
444.91	58.51
445.10	4.68
445.28	39.79
445.47	44.47
445.65	142.77
445.84	72.56
446.02	44.47
446.21	65.54
446.39	77.24
446.58	25.75
446.77	67.88
446.95	70.22
447.14	51.49
447.32	11.70
447.51	93.62
447.69	46.81
447.88	65.54
448.06	53.83
448.25	42.13
448.43	32.77
448.62	77.24
448.80	79.58
448.99	131.07
449.17	84.26
449.36	56.17
449.54	0.00
449.73	53.83
449.91	65.54
450.10	0.00
450.28	81.92
450.46	63.19
450.65	30.43
450.83	25.75
451.02	86.60
451.20	30.43
451.39	25.75
451.57	32.77
451.76	42.13
451.94	9.36
452.13	74.90
452.31	86.60
452.49	124.05
452.68	112.35
452.86	16.38
453.05	65.54
453.23	28.09
453.42	16.38
453.60	56.17
453.78	42.13
453.97	2.34
454.15	102.98
454.34	42.13
454.52	58.51
454.70	77.24
454.89	32.77
455.07	32.77
455.26	67.88
455.44	16.38
455.62	0.00
455.81	9.36
455.99	63.19
456.17	128.73
456.36	0.00
456.54	25.75
456.73	121.71
456.91	49.15
457.09	18.72
457.28	23.41
457.46	72.56
457.64	25.75
457.83	135.75
458.01	32.77
458.19	121.71
458.38	110.01
458.56	37.45
458.74	42.13
458.93	0.00
459.11	74.90
459.29	102.98
459.48	0.00
459.66	28.09
459.84	67.88
460.03	77.24
460.21	28.09
460.39	93.62
460.57	88.94
460.76	84.26
460.94	44.47
461.12	81.92
461.31	112.35
461.49	60.85
461.67	0.00
461.85	49.15
462.04	30.43
462.22	51.49
462.40	126.39
462.59	81.92
462.77	110.01
462.95	112.35
463.13	32.77
463.32	81.92
463.50	0.00
463.68	30.43
463.86	70.22
464.05	9.36
464.23	60.85
464.41	117.03
464.59	95.96
464.78	81.92
464.96	138.09
465.14	117.03
465.32	81.92
465.50	105.32
465.69	60.85
465.87	112.35
466.05	46.81
466.23	23.41
466.41	0.00
466.60	65.54
466.78	65.54
466.96	95.96
467.14	56.17
467.32	42.13
467.51	53.83
467.69	51.49
467.87	77.24
468.05	60.85
468.23	2.34
468.41	65.54
468.60	95.96
468.78	65.54
468.96	32.77
469.14	35.11
469.32	18.72
469.50	65.54
469.69	39.79
469.87	18.72
470.05	58.51
470.23	107.66
470.41	46.81
470.59	4.68
470.77	74.90
470.95	25.75
471.14	81.92
471.32	37.45
471.50	49.15
471.68	37.45
471.86	60.85
472.04	79.58
472.22	14.04
472.40	91.28
472.58	32.77
472.77	49.15
472.95	67.88
473.13	16.38
473.31	44.47
473.49	58.51
473.67	46.81
473.85	79.58
474.03	4.68
474.21	0.00
474.39	49.15
474.57	28.09
474.75	70.22
474.93	86.60
475.12	72.56
475.30	98.30
475.48	72.56
475.66	14.04
475.84	72.56
476.02	91.28
476.20	18.72
476.38	35.11
476.56	84.26
476.74	81.92
476.92	11.70
477.10	37.45
477.28	42.13
477.46	107.66
477.64	98.30
477.82	0.00
478.00	42.13
478.18	98.30
478.36	39.79
478.54	49.15
478.72	56.17
478.90	67.88
479.08	107.66
479.26	63.19
479.44	72.56
479.62	51.49
479.80	53.83
479.98	56.17
480.16	7.02
480.34	121.71
480.52	149.79
480.70	32.77
480.88	42.13
481.06	60.85
481.24	126.39
481.41	37.45
481.59	81.92
481.77	9.36
481.95	9.36
482.13	95.96
482.31	102.98
482.49	67.88
482.67	0.00
482.85	67.88
483.03	112.35
483.21	70.22
483.39	70.22
483.57	53.83
483.74	51.49
483.92	91.28
484.10	49.15
484.28	119.37
484.46	39.79
484.64	39.79
484.82	93.62
485.00	58.51
485.18	14.04
485.35	77.24
485.53	70.22
485.71	25.75
485.89	49.15
486.07	37.45
486.25	37.45
486.43	53.83
486.61	112.35
486.78	79.58
486.96	65.54
487.14	88.94
487.32	86.60
487.50	58.51
487.68	81.92
487.85	182.56
488.03	79.58
488.21	102.98
488.39	37.45
488.57	91.28
488.75	60.85
488.92	56.17
489.10	37.45
489.28	51.49
489.46	63.19
489.64	60.85
489.81	18.72
489.99	121.71
490.17	117.03
490.35	37.45
490.53	119.37
490.70	46.81
490.88	30.43
491.06	67.88
491.24	84.26
491.41	25.75
491.59	39.79
491.77	77.24
491.95	65.54
492.13	0.00
492.30	91.28
492.48	93.62
492.66	77.24
492.84	95.96
493.01	77.24
493.19	100.64
493.37	81.92
493.54	114.69
493.72	107.66
493.90	28.09
494.08	79.58
494.25	86.60
494.43	81.92
494.61	166.18
494.79	63.19
494.96	32.77
495.14	58.51
495.32	74.90
495.49	95.96
495.67	65.54
495.85	117.03
496.02	16.38
496.20	67.88
496.38	70.22
496.55	81.92
496.73	56.17
496.91	11.70
497.09	86.60
497.26	56.17
497.44	79.58
497.62	65.54
497.79	77.24
497.97	7.02
498.14	67.88
498.32	56.17
498.50	21.06
498.67	88.94
498.85	11.70
499.03	42.13
499.20	102.98
499.38	88.94
499.56	58.51
499.73	63.19
499.91	25.75
500.08	65.54
500.26	0.00
500.44	56.17
500.61	65.54
500.79	121.71
500.97	46.81
501.14	67.88
501.32	98.30
501.49	79.58
501.67	11.70
501.84	88.94
502.02	81.92
502.20	39.79
502.37	91.28
502.55	95.96
502.72	65.54
502.90	65.54
503.07	102.98
503.25	65.54
503.43	100.64
503.60	110.01
503.78	121.71
503.95	39.79
504.13	32.77
504.30	182.56
504.48	102.98
504.65	105.32
504.83	44.47
505.01	42.13
505.18	86.60
505.36	112.35
505.53	119.37
505.71	98.30
505.88	21.06
506.06	145.11
506.23	21.06
506.41	91.28
506.58	56.17
506.76	21.06
506.93	74.90
507.11	84.26
507.28	74.90
507.46	67.88
507.63	112.35
507.81	67.88
507.98	51.49
508.16	60.85
508.33	84.26
508.50	84.26
508.68	100.64
508.85	105.32
509.03	51.49
509.20	18.72
509.38	77.24
509.55	145.11
509.73	177.88
509.90	170.86
510.08	70.22
510.25	140.43
510.42	117.03
510.60	131.07
510.77	102.98
510.95	100.64
511.12	84.26
511.30	105.32
511.47	112.35
511.64	21.06
511.82	81.92
511.99	84.26
512.17	105.32
512.34	72.56
512.51	56.17
512.69	93.62
512.86	161.50
513.04	91.28
513.21	124.05
513.38	56.17
513.56	105.32
513.73	53.83
513.90	84.26
514.08	131.07
514.25	51.49
514.43	95.96
514.60	81.92
514.77	145.11
514.95	72.56
515.12	72.56
515.29	149.79
515.47	53.83
515.64	124.05
515.81	117.03
515.99	88.94
516.16	102.98
516.33	16.38
516.51	119.37
516.68	49.15
516.85	102.98
517.03	58.51
517.20	39.79
517.37	63.19
517.54	60.85
517.72	67.88
517.89	105.32
518.06	70.22
518.24	91.28
518.41	51.49
518.58	117.03
518.75	63.19
518.93	161.50
519.10	49.15
519.27	44.47
519.45	107.66
519.62	67.88
519.79	112.35
519.96	70.22
520.14	16.38
520.31	70.22
520.48	196.60
520.65	91.28
520.83	81.92
521.00	88.94
521.17	56.17
521.34	102.98
521.52	95.96
521.69	72.56
521.86	81.92
522.03	86.60
522.20	105.32
522.38	98.30
522.55	42.13
522.72	107.66
522.89	112.35
523.07	81.92
523.24	11.70
523.41	67.88
523.58	93.62
523.75	121.71
523.92	42.13
524.10	60.85
524.27	133.41
524.44	119.37
524.61	152.13
524.78	51.49
524.96	42.13
525.13	105.32
525.30	117.03
525.47	93.62
525.64	86.60
525.81	93.62
525.98	95.96
526.16	65.54
526.33	79.58
526.50	46.81
526.67	98.30
526.84	63.19
527.01	58.51
527.18	117.03
527.36	91.28
527.53	88.94
527.70	9.36
527.87	44.47
528.04	53.83
528.21	100.64
528.38	63.19
528.55	95.96
528.72	133.41
528.89	58.51
529.07	100.64
529.24	39.79
529.41	156.82
529.58	67.88
529.75	72.56
529.92	86.60
530.09	74.90
530.26	23.41
530.43	95.96
530.60	110.01
530.77	79.58
530.94	51.49
531.11	121.71
531.28	70.22
531.46	79.58
531.63	95.96
531.80	102.98
531.97	81.92
532.14	42.13
532.31	140.43
532.48	30.43
532.65	77.24
532.82	88.94
532.99	14.04
533.16	98.30
533.33	138.09
533.50	74.90
533.67	72.56
533.84	140.43
534.01	30.43
534.18	107.66
534.35	112.35
534.52	65.54
534.69	18.72
534.86	142.77
535.03	107.66
535.20	23.41
535.37	60.85
535.54	77.24
535.71	102.98
535.88	81.92
536.05	56.17
536.22	51.49
536.38	117.03
536.55	63.19
536.72	37.45
536.89	126.39
537.06	67.88
537.23	14.04
537.40	46.81
537.57	0.00
537.74	65.54
537.91	91.28
538.08	93.62
538.25	100.64
538.42	114.69
538.59	110.01
538.75	91.28
538.92	86.60
539.09	110.01
539.26	88.94
539.43	124.05
539.60	53.83
539.77	67.88
539.94	35.11
540.11	21.06
540.28	21.06
540.44	98.30
540.61	114.69
540.78	102.98
540.95	128.73
541.12	119.37
541.29	25.75
541.46	65.54
541.62	93.62
541.79	88.94
541.96	53.83
542.13	58.51
542.30	126.39
542.47	147.45
542.63	98.30
542.80	102.98
542.97	140.43
543.14	81.92
543.31	53.83
543.48	53.83
543.64	56.17
543.81	49.15
543.98	70.22
544.15	110.01
544.32	124.05
544.48	30.43
544.65	142.77
544.82	121.71
544.99	35.11
545.16	72.56
545.32	138.09
545.49	93.62
545.66	42.13
545.83	110.01
546.00	79.58
546.16	140.43
546.33	21.06
546.50	60.85
546.67	173.20
546.83	117.03
547.00	88.94
547.17	81.92
547.34	49.15
547.50	95.96
547.67	93.62
547.84	147.45
548.00	0.00
548.17	117.03
548.34	100.64
548.51	67.88
548.67	112.35
548.84	88.94
549.01	65.54
549.18	42.13
549.34	124.05
549.51	110.01
549.68	72.56
549.84	53.83
550.01	65.54
550.18	84.26
550.34	72.56
550.51	70.22
550.68	65.54
550.84	88.94
551.01	58.51
551.18	117.03
551.34	121.71
551.51	42.13
551.68	81.92
551.84	131.07
552.01	67.88
552.18	72.56
552.34	21.06
552.51	53.83
552.68	65.54
552.84	60.85
553.01	93.62
553.18	63.19
553.34	91.28
553.51	58.51
553.67	93.62
553.84	65.54
554.01	117.03
554.17	112.35
554.34	44.47
554.51	121.71
554.67	65.54
554.84	154.48
555.00	58.51
555.17	60.85
555.33	84.26
555.50	145.11
555.67	107.66
555.83	53.83
556.00	154.48
556.16	28.09
556.33	67.88
556.50	138.09
556.66	65.54
556.83	124.05
556.99	35.11
557.16	117.03
557.32	56.17
557.49	35.11
557.65	81.92
557.82	77.24
557.98	60.85
558.15	63.19
558.32	25.75
558.48	63.19
558.65	39.79
558.81	63.19
558.98	0.00
559.14	117.03
559.31	81.92
559.47	49.15
559.64	72.56
559.80	72.56
559.97	91.28
560.13	102.98
560.30	91.28
560.46	88.94
560.63	32.77
560.79	0.00
560.96	32.77
561.12	0.00
561.29	16.38
561.45	81.92
561.61	88.94
561.78	98.30
561.94	126.39
562.11	77.24
562.27	91.28
562.44	88.94
562.60	138.09
562.77	79.58
562.93	70.22
563.10	35.11
563.26	49.15
563.42	88.94
563.59	72.56
563.75	39.79
563.92	110.01
564.08	91.28
564.24	121.71
564.41	51.49
564.57	161.50
564.74	105.32
564.90	98.30
565.07	112.35
565.23	72.56
565.39	126.39
565.56	51.49
565.72	67.88
565.88	0.00
566.05	84.26
566.21	138.09
566.38	114.69
566.54	11.70
566.70	56.17
566.87	84.26
567.03	72.56
567.19	124.05
567.36	77.24
567.52	81.92
567.68	138.09
567.85	70.22
568.01	42.13
568.17	72.56
568.34	7.02
568.50	74.90
568.66	67.88
568.83	95.96
568.99	49.15
569.15	88.94
569.32	25.75
569.48	46.81
569.64	72.56
569.81	60.85
569.97	70.22
570.13	91.28
570.30	46.81
570.46	63.19
570.62	81.92
570.78	74.90
570.95	53.83
571.11	39.79
571.27	72.56
571.43	86.60
571.60	65.54
571.76	65.54
571.92	56.17
572.09	0.00
572.25	124.05
572.41	147.45
572.57	72.56
572.74	147.45
572.90	128.73
573.06	131.07
573.22	53.83
573.38	32.77
573.55	112.35
573.71	100.64
573.87	102.98
574.03	79.58
574.20	131.07
574.36	37.45
574.52	65.54
574.68	86.60
574.84	81.92
575.01	58.51
575.17	0.00
575.33	11.70
575.49	70.22
575.65	63.19
575.82	63.19
575.98	49.15
576.14	121.71
576.30	110.01
576.46	131.07
576.62	28.09
576.79	56.17
576.95	70.22
577.11	58.51
577.27	14.04
577.43	0.00
577.59	138.09
577.75	147.45
577.92	107.66
578.08	32.77
578.24	107.66
578.40	32.77
578.56	81.92
578.72	81.92
578.88	58.51
579.04	56.17
579.21	70.22
579.37	53.83
579.53	39.79
579.69	102.98
579.85	72.56
580.01	133.41
580.17	102.98
580.33	84.26
580.49	93.62
580.65	63.19
580.82	14.04
580.98	166.18
581.14	112.35
581.30	2.34
581.46	124.05
581.62	105.32
581.78	60.85
581.94	39.79
582.10	60.85
582.26	51.49
582.42	32.77
582.58	14.04
582.74	84.26
582.90	105.32
583.06	30.43
583.22	77.24
583.38	0.00
583.54	65.54
583.70	128.73
583.86	117.03
584.02	124.05
584.18	49.15
584.34	84.26
584.50	18.72
584.66	28.09
584.82	23.41
584.98	135.75
585.14	81.92
585.30	86.60
585.46	58.51
585.62	79.58
585.78	105.32
585.94	166.18
586.10	135.75
586.26	49.15
586.42	100.64
586.58	32.77
586.74	58.51
586.90	77.24
587.06	95.96
587.22	70.22
587.38	72.56
587.54	105.32
587.70	112.35
587.86	53.83
588.02	138.09
588.18	100.64
588.34	81.92
588.49	63.19
588.65	67.88
588.81	63.19
588.97	42.13
589.13	42.13
589.29	56.17
589.45	93.62
589.61	72.56
589.77	53.83
589.93	39.79
590.08	86.60
590.24	46.81
590.40	70.22
590.56	11.70
590.72	44.47
590.88	28.09
591.04	93.62
591.20	49.15
591.35	93.62
591.51	86.60
591.67	86.60
591.83	100.64
591.99	102.98
592.15	70.22
592.31	100.64
592.46	18.72
592.62	53.83
592.78	88.94
592.94	119.37
593.10	49.15
593.26	44.47
593.41	70.22
593.57	39.79
593.73	11.70
593.89	32.77
594.05	44.47
594.20	51.49
594.36	88.94
594.52	105.32
594.68	53.83
594.84	23.41
594.99	77.24
595.15	63.19
595.31	91.28
595.47	77.24
595.62	23.41
595.78	25.75
595.94	67.88
596.10	42.13
596.25	63.19
596.41	32.77
596.57	46.81
596.73	79.58
596.88	46.81
597.04	42.13
597.20	88.94
597.36	88.94
597.51	63.19
597.67	23.41
597.83	112.35
597.99	124.05
598.14	140.43
598.30	91.28
598.46	81.92
598.61	21.06
598.77	72.56
598.93	63.19
599.09	77.24
599.24	39.79
599.40	105.32
599.56	21.06
599.71	46.81
599.87	46.81
600.03	9.36
600.18	77.24
600.34	102.98
600.50	58.51
600.65	30.43
600.81	49.15
600.97	102.98
601.12	79.58
601.28	95.96
601.44	67.88
601.59	81.92
601.75	53.83
601.91	30.43
602.06	65.54
602.22	63.19
602.37	105.32
602.53	84.26
602.69	170.86
602.84	105.32
603.00	91.28
603.16	60.85
603.31	39.79
603.47	65.54
603.62	84.26
603.78	39.79
603.94	35.11
604.09	49.15
604.25	56.17
604.40	35.11
604.56	0.00
604.71	91.28
604.87	117.03
605.03	72.56
605.18	121.71
605.34	30.43
605.49	49.15
605.65	84.26
605.80	70.22
605.96	138.09
606.12	53.83
606.27	79.58
606.43	63.19
606.58	128.73
606.74	25.75
606.89	46.81
607.05	77.24
607.20	145.11
607.36	70.22
607.51	79.58
607.67	28.09
607.82	4.68
607.98	70.22
608.13	138.09
608.29	112.35
608.44	63.19
608.60	25.75
608.75	30.43
608.91	70.22
609.06	161.50
609.22	117.03
609.37	67.88
609.53	0.00
609.68	56.17
609.84	9.36
609.99	88.94
610.15	39.79
610.30	98.30
610.46	145.11
610.61	117.03
610.76	67.88
610.92	93.62
611.07	18.72
611.23	42.13
611.38	0.00
611.54	18.72
611.69	124.05
611.84	0.00
612.00	35.11
612.15	72.56
612.31	56.17
612.46	23.41
612.62	49.15
612.77	63.19
612.92	21.06
613.08	86.60
613.23	74.90
613.39	131.07
613.54	67.88
613.69	32.77
613.85	25.75
614.00	63.19
614.15	93.62
614.31	18.72
614.46	32.77
614.62	128.73
614.77	58.51
614.92	100.64
615.08	67.88
615.23	53.83
615.38	74.90
615.54	60.85
615.69	128.73
615.84	23.41
616.00	77.24
616.15	126.39
616.30	65.54
616.46	88.94
616.61	67.88
616.76	37.45
616.92	81.92
617.07	0.00
617.22	70.22
617.37	79.58
617.53	102.98
617.68	39.79
617.83	67.88
617.99	39.79
618.14	35.11
618.29	86.60
618.45	88.94
618.60	51.49
618.75	30.43
618.90	21.06
619.06	42.13
619.21	107.66
619.36	63.19
619.51	53.83
619.67	0.00
619.82	32.77
619.97	95.96
620.12	18.72
620.28	49.15
620.43	77.24
620.58	100.64
620.73	56.17
620.89	14.04
621.04	100.64
621.19	30.43
621.34	105.32
621.49	98.30
621.65	56.17
621.80	44.47
621.95	105.32
622.10	88.94
622.25	86.60
622.41	32.77
622.56	56.17
622.71	74.90
622.86	35.11
623.01	42.13
623.16	37.45
623.32	28.09
623.47	0.00
623.62	77.24
623.77	60.85
623.92	49.15
624.07	79.58
624.23	51.49
624.38	46.81
624.53	53.83
624.68	0.00
624.83	79.58
624.98	37.45
625.13	86.60
625.29	46.81
625.44	88.94
625.59	49.15
625.74	63.19
625.89	0.00
626.04	7.02
626.19	72.56
626.34	72.56
626.49	65.54
626.65	35.11
626.80	124.05
626.95	67.88
627.10	21.06
627.25	32.77
627.40	0.00
627.55	58.51
627.70	65.54
627.85	49.15
628.00	28.09
628.15	11.70
628.30	74.90
628.45	16.38
628.60	39.79
628.76	0.00
628.91	79.58
629.06	21.06
629.21	49.15
629.36	42.13
629.51	65.54
629.66	81.92
629.81	35.11
629.96	49.15
630.11	131.07
630.26	9.36
630.41	0.00
630.56	0.00
630.71	28.09
630.86	23.41
631.01	32.77
631.16	60.85
631.31	138.09
631.46	79.58
631.61	70.22
631.76	46.81
631.91	58.51
632.06	72.56
632.21	44.47
632.36	4.68
632.51	49.15
632.66	32.77
632.81	37.45
632.96	63.19
633.10	95.96
633.25	79.58
633.40	102.98
633.55	0.00
633.70	0.00
633.85	65.54
634.00	107.66
634.15	32.77
634.30	72.56
634.45	72.56
634.60	56.17
634.75	79.58
634.90	60.85
635.05	23.41
635.19	37.45
635.34	86.60
635.49	53.83
635.64	0.00
635.79	77.24
635.94	23.41
636.09	0.00
636.24	100.64
636.39	25.75
636.53	21.06
636.68	70.22
636.83	60.85
636.98	65.54
637.13	53.83
637.28	44.47
637.43	28.09
637.57	46.81
637.72	39.79
637.87	84.26
638.02	98.30
638.17	58.51
638.32	98.30
638.46	86.60
638.61	63.19
638.76	14.04
638.91	0.00
639.06	23.41
639.20	39.79
639.35	81.92
639.50	14.04
639.65	65.54
639.80	79.58
639.94	110.01
640.09	23.41
640.24	60.85
640.39	58.51
640.54	93.62
640.68	37.45
640.83	72.56
640.98	86.60
641.13	25.75
641.27	44.47
641.42	30.43
641.57	39.79
641.72	60.85
641.86	93.62
642.01	56.17
642.16	4.68
642.31	30.43
642.45	42.13
642.60	79.58
642.75	46.81
642.90	42.13
643.04	56.17
643.19	84.26
643.34	42.13
643.48	72.56
643.63	42.13
643.78	60.85
643.93	49.15
644.07	63.19
644.22	23.41
644.37	98.30
644.51	2.34
644.66	81.92
644.81	4.68
644.95	0.00
645.10	0.00
645.25	70.22
645.39	79.58
645.54	95.96
645.69	81.92
645.83	81.92
645.98	60.85
646.13	0.00
646.27	18.72
646.42	56.17
646.57	0.00
646.71	0.00
646.86	37.45
647.00	23.41
647.15	0.00
647.30	51.49
647.44	39.79
647.59	102.98
647.74	58.51
647.88	0.00
648.03	25.75
648.17	21.06
648.32	32.77
648.47	60.85
648.61	0.00
648.76	56.17
648.90	79.58
649.05	21.06
649.20	21.06
649.34	67.88
649.49	25.75
649.63	93.62
649.78	70.22
649.92	91.28
650.07	18.72
650.21	140.43
650.36	44.47
650.51	37.45
650.65	110.01
650.80	23.41
650.94	39.79
651.09	88.94
651.23	65.54
651.38	7.02
651.52	84.26
651.67	84.26
651.81	42.13
651.96	23.41
652.10	42.13
652.25	2.34
652.39	37.45
652.54	2.34
652.68	23.41
652.83	86.60
652.97	16.38
653.12	105.32
653.26	0.00
653.41	88.94
653.55	79.58
653.70	119.37
653.84	98.30
653.99	9.36
654.13	0.00
654.27	4.68
654.42	65.54
654.56	100.64
654.71	28.09
654.85	67.88
655.00	44.47
655.14	16.38
655.29	37.45
655.43	0.00
655.57	0.00
655.72	0.00
655.86	18.72
656.01	93.62
656.15	0.00
656.30	86.60
656.44	72.56
656.58	74.90
656.73	65.54
656.87	18.72
657.01	81.92
657.16	70.22
657.30	0.00
657.45	74.90
657.59	21.06
657.73	56.17
657.88	58.51
658.02	105.32
658.16	44.47
658.31	51.49
658.45	121.71
658.60	124.05
658.74	86.60
658.88	56.17
659.03	77.24
659.17	124.05
659.31	39.79
659.46	112.35
659.60	119.37
659.74	11.70
659.89	67.88
660.03	74.90
660.17	98.30
660.32	77.24
660.46	42.13
660.60	93.62
660.74	0.00
660.89	37.45
661.03	9.36
661.17	37.45
661.32	58.51
661.46	11.70
661.60	51.49
661.74	23.41
661.89	53.83
662.03	4.68
662.17	74.90
662.31	35.11
662.46	88.94
662.60	9.36
662.74	2.34
662.88	46.81
663.03	32.77
663.17	58.51
663.31	49.15
663.45	39.79
663.60	0.00
663.74	42.13
663.88	44.47
664.02	58.51
664.17	65.54
664.31	56.17
664.45	0.00
664.59	53.83
664.73	9.36
664.88	30.43
665.02	39.79
665.16	0.00
665.30	32.77
665.44	25.75
665.59	65.54
665.73	72.56
665.87	49.15
666.01	0.00
666.15	74.90
666.29	37.45
666.44	74.90
666.58	105.32
666.72	44.47
666.86	4.68
667.00	81.92
667.14	7.02
667.28	14.04
667.43	95.96
667.57	142.77
667.71	0.00
667.85	21.06
667.99	44.47
668.13	67.88
668.27	84.26
668.41	56.17
668.56	32.77
668.70	65.54
668.84	49.15
668.98	32.77
669.12	25.75
669.26	42.13
669.40	126.39
669.54	72.56
669.68	65.54
669.82	28.09
669.96	28.09
670.10	79.58
670.25	42.13
670.39	25.75
670.53	124.05
670.67	42.13
670.81	37.45
670.95	70.22
671.09	114.69
671.23	81.92
671.37	72.56
671.51	110.01
671.65	46.81
671.79	14.04
671.93	28.09
672.07	114.69
672.21	46.81
672.35	70.22
672.49	35.11
672.63	0.00
672.77	35.11
672.91	124.05
673.05	14.04
673.19	39.79
673.33	37.45
673.47	42.13
673.61	70.22
673.75	88.94
673.89	9.36
674.03	86.60
674.17	53.83
674.31	23.41
674.45	131.07
674.59	11.70
674.73	88.94
674.87	9.36
675.01	60.85
675.15	51.49
675.29	95.96
675.43	44.47
675.56	28.09
675.70	100.64
675.84	81.92
675.98	74.90
676.12	28.09
676.26	28.09
676.40	28.09
676.54	37.45
676.68	124.05
676.82	88.94
676.96	56.17
677.10	18.72
677.23	0.00
677.37	2.34
677.51	18.72
677.65	53.83
677.79	86.60
677.93	56.17
678.07	79.58
678.21	131.07
678.34	53.83
678.48	28.09
678.62	58.51
678.76	65.54
678.90	4.68
679.04	2.34
679.18	58.51
679.31	74.90
679.45	35.11
679.59	133.41
679.73	25.75
679.87	23.41
680.00	42.13
680.14	102.98
680.28	63.19
680.42	16.38
680.56	0.00
680.70	0.00
680.83	49.15
680.97	0.00
681.11	63.19
681.25	121.71
681.39	67.88
681.52	28.09
681.66	0.00
681.80	23.41
681.94	67.88
682.07	0.00
682.21	16.38
682.35	4.68
682.49	60.85
682.62	0.00
682.76	21.06
682.90	21.06
683.04	25.75
683.17	102.98
683.31	58.51
683.45	0.00
683.59	44.47
683.72	9.36
683.86	37.45
684.00	65.54
684.13	0.00
684.27	44.47
684.41	100.64
684.55	37.45
684.68	67.88
684.82	39.79
684.96	0.00
685.09	23.41
685.23	25.75
685.37	0.00
685.50	0.00
685.64	74.90
685.78	56.17
685.91	21.06
686.05	91.28
686.19	25.75
686.32	77.24
686.46	44.47
686.60	11.70
686.73	14.04
686.87	72.56
687.01	84.26
687.14	72.56
687.28	32.77
687.42	42.13
687.55	102.98
687.69	42.13
687.82	32.77
687.96	100.64
688.10	102.98
688.23	51.49
688.37	0.00
688.50	93.62
688.64	25.75
688.78	0.00
688.91	100.64
689.05	58.51
689.18	21.06
689.32	35.11
689.46	21.06
689.59	4.68
689.73	28.09
689.86	35.11
690.00	42.13
690.13	67.88
690.27	4.68
690.41	30.43
690.54	51.49
690.68	9.36
690.81	51.49
690.95	30.43
691.08	53.83
691.22	93.62
691.35	35.11
691.49	95.96
691.62	91.28
691.76	37.45
691.89	65.54
692.03	72.56
692.16	23.41
692.30	93.62
692.43	14.04
692.57	18.72
692.70	0.00
692.84	14.04
692.97	91.28
693.11	0.00
693.24	11.70
693.38	140.43
693.51	23.41
693.65	112.35
693.78	53.83
693.92	0.00
694.05	42.13
694.19	65.54
694.32	65.54
694.45	0.00
694.59	39.79
694.72	105.32
694.86	46.81
694.99	39.79
695.13	44.47
695.26	37.45
695.39	46.81
695.53	0.00
695.66	28.09
695.80	58.51
695.93	77.24
696.07	58.51
696.20	0.00
696.33	42.13
696.47	23.41
696.60	44.47
696.73	23.41
696.87	35.11
697.00	25.75
697.14	23.41
697.27	86.60
697.40	65.54
697.54	28.09
697.67	37.45
697.80	23.41
697.94	0.00
698.07	11.70
698.21	56.17
698.34	44.47
698.47	51.49
698.61	112.35
698.74	16.38
698.87	25.75
699.01	42.13
699.14	25.75
699.27	28.09
699.40	2.34
699.54	0.00
699.67	81.92
699.80	7.02
699.94	7.02
700.07	0.00
700.20	53.83
700.34	39.79
700.47	0.00
700.60	16.38
700.73	65.54
700.87	42.13
701.00	60.85
701.13	53.83
701.26	79.58
701.40	23.41
701.53	0.00
701.66	67.88
701.79	74.90
701.93	0.00
702.06	25.75
702.19	56.17
702.32	70.22
702.46	60.85
702.59	0.00
702.72	79.58
702.85	0.00
702.99	9.36
703.12	42.13
703.25	56.17
703.38	0.00
703.51	0.00
703.65	18.72
703.78	49.15
703.91	100.64
704.04	91.28
704.17	0.00
704.31	28.09
704.44	16.38
704.57	77.24
704.70	56.17
704.83	18.72
704.96	0.00
705.10	49.15
705.23	65.54
>>>>>End Processed Spectral Data<<<<<
