SpectraSuite Data File
++++++++++++++++++++++++++++++++++++
Date: Fri Oct 04 12:13:30 GMT-05:00 2013
User: price-jones
Dark Spectrum Present: No
Reference Spectrum Present: No
Number of Sampled Component Spectra: 1
Spectrometers: USB2+H05261
Integration Time (usec): 10000 (USB2+H05261)
Spectra Averaged: 1 (USB2+H05261)
Boxcar Smoothing: 0 (USB2+H05261)
Correct for Electrical Dark: No (USB2+H05261)
Strobe/Lamp Enabled: No (USB2+H05261)
Correct for Detector Non-linearity: No (USB2+H05261)
Correct for Stray Light: No (USB2+H05261)
Number of Pixels in Processed Spectrum: 2048
>>>>>Begin Processed Spectral Data<<<<<
365.73	21.06
365.92	21.06
366.12	21.06
366.32	0.00
366.52	0.00
366.72	0.00
366.91	0.00
367.11	0.00
367.31	0.00
367.51	0.00
367.70	0.00
367.90	0.00
368.10	0.00
368.30	0.00
368.49	0.00
368.69	0.00
368.89	0.00
369.09	0.00
369.28	0.00
369.48	0.00
369.68	0.00
369.87	0.00
370.07	0.00
370.27	0.00
370.47	0.00
370.66	0.00
370.86	0.00
371.06	0.00
371.25	23.41
371.45	0.00
371.65	0.00
371.84	0.00
372.04	0.00
372.24	0.00
372.44	16.38
372.63	0.00
372.83	79.58
373.03	28.09
373.22	28.09
373.42	70.22
373.62	60.85
373.81	7.02
374.01	63.19
374.21	0.00
374.40	32.77
374.60	63.19
374.79	105.32
374.99	0.00
375.19	32.77
375.38	9.36
375.58	112.35
375.78	39.79
375.97	77.24
376.17	32.77
376.37	102.98
376.56	0.00
376.76	72.56
376.95	2.34
377.15	28.09
377.35	37.45
377.54	0.00
377.74	4.68
377.93	100.64
378.13	53.83
378.33	63.19
378.52	0.00
378.72	60.85
378.91	84.26
379.11	23.41
379.31	72.56
379.50	0.00
379.70	77.24
379.89	0.00
380.09	14.04
380.28	4.68
380.48	0.00
380.68	42.13
380.87	0.00
381.07	0.00
381.26	42.13
381.46	0.00
381.65	60.85
381.85	9.36
382.04	0.00
382.24	49.15
382.43	14.04
382.63	28.09
382.83	30.43
383.02	11.70
383.22	86.60
383.41	7.02
383.61	21.06
383.80	11.70
384.00	4.68
384.19	11.70
384.39	53.83
384.58	42.13
384.78	46.81
384.97	0.00
385.17	23.41
385.36	14.04
385.56	30.43
385.75	0.00
385.95	4.68
386.14	0.00
386.34	0.00
386.53	0.00
386.72	0.00
386.92	0.00
387.11	0.00
387.31	0.00
387.50	0.00
387.70	16.38
387.89	0.00
388.09	60.85
388.28	44.47
388.48	23.41
388.67	67.88
388.86	0.00
389.06	0.00
389.25	81.92
389.45	11.70
389.64	30.43
389.84	21.06
390.03	11.70
390.22	0.00
390.42	0.00
390.61	88.94
390.81	44.47
391.00	42.13
391.19	28.09
391.39	44.47
391.58	16.38
391.78	7.02
391.97	16.38
392.16	16.38
392.36	0.00
392.55	0.00
392.75	32.77
392.94	60.85
393.13	51.49
393.33	0.00
393.52	23.41
393.71	60.85
393.91	28.09
394.10	18.72
394.29	25.75
394.49	42.13
394.68	102.98
394.88	42.13
395.07	0.00
395.26	65.54
395.46	58.51
395.65	58.51
395.84	37.45
396.04	39.79
396.23	0.00
396.42	44.47
396.62	4.68
396.81	67.88
397.00	21.06
397.19	25.75
397.39	95.96
397.58	0.00
397.77	42.13
397.97	49.15
398.16	44.47
398.35	2.34
398.55	35.11
398.74	28.09
398.93	46.81
399.12	32.77
399.32	72.56
399.51	32.77
399.70	119.37
399.90	16.38
400.09	14.04
400.28	0.00
400.47	25.75
400.67	0.00
400.86	72.56
401.05	0.00
401.24	0.00
401.44	0.00
401.63	0.00
401.82	37.45
402.01	7.02
402.21	11.70
402.40	58.51
402.59	23.41
402.78	11.70
402.97	7.02
403.17	35.11
403.36	77.24
403.55	23.41
403.74	39.79
403.93	0.00
404.13	42.13
404.32	9.36
404.51	112.35
404.70	58.51
404.89	56.17
405.09	0.00
405.28	32.77
405.47	51.49
405.66	74.90
405.85	49.15
406.05	46.81
406.24	37.45
406.43	18.72
406.62	0.00
406.81	42.13
407.00	28.09
407.20	0.00
407.39	35.11
407.58	30.43
407.77	51.49
407.96	4.68
408.15	0.00
408.34	0.00
408.54	0.00
408.73	42.13
408.92	32.77
409.11	0.00
409.30	0.00
409.49	0.00
409.68	0.00
409.87	0.00
410.07	0.00
410.26	65.54
410.45	25.75
410.64	51.49
410.83	21.06
411.02	84.26
411.21	30.43
411.40	56.17
411.59	63.19
411.78	46.81
411.98	0.00
412.17	28.09
412.36	35.11
412.55	77.24
412.74	44.47
412.93	11.70
413.12	81.92
413.31	77.24
413.50	42.13
413.69	2.34
413.88	18.72
414.07	0.00
414.26	93.62
414.45	149.79
414.64	51.49
414.83	65.54
415.02	18.72
415.22	18.72
415.41	0.00
415.60	18.72
415.79	0.00
415.98	7.02
416.17	46.81
416.36	44.47
416.55	28.09
416.74	65.54
416.93	86.60
417.12	21.06
417.31	30.43
417.50	32.77
417.69	67.88
417.88	53.83
418.07	35.11
418.26	86.60
418.45	21.06
418.64	21.06
418.83	2.34
419.02	42.13
419.21	35.11
419.39	0.00
419.58	9.36
419.77	4.68
419.96	86.60
420.15	37.45
420.34	11.70
420.53	0.00
420.72	56.17
420.91	44.47
421.10	0.00
421.29	0.00
421.48	28.09
421.67	49.15
421.86	35.11
422.05	60.85
422.24	32.77
422.43	16.38
422.61	23.41
422.80	0.00
422.99	0.00
423.18	70.22
423.37	0.00
423.56	0.00
423.75	0.00
423.94	0.00
424.13	32.77
424.32	56.17
424.50	0.00
424.69	11.70
424.88	28.09
425.07	72.56
425.26	46.81
425.45	9.36
425.64	74.90
425.83	21.06
426.01	16.38
426.20	0.00
426.39	23.41
426.58	93.62
426.77	51.49
426.96	65.54
427.15	23.41
427.33	23.41
427.52	0.00
427.71	0.00
427.90	23.41
428.09	46.81
428.28	0.00
428.46	32.77
428.65	67.88
428.84	21.06
429.03	39.79
429.22	84.26
429.40	0.00
429.59	21.06
429.78	58.51
429.97	79.58
430.16	53.83
430.34	0.00
430.53	88.94
430.72	44.47
430.91	11.70
431.10	95.96
431.28	49.15
431.47	28.09
431.66	28.09
431.85	53.83
432.03	0.00
432.22	0.00
432.41	77.24
432.60	56.17
432.79	56.17
432.97	53.83
433.16	42.13
433.35	46.81
433.54	100.64
433.72	46.81
433.91	16.38
434.10	60.85
434.28	9.36
434.47	0.00
434.66	0.00
434.85	14.04
435.03	88.94
435.22	7.02
435.41	23.41
435.59	37.45
435.78	28.09
435.97	9.36
436.16	0.00
436.34	0.00
436.53	30.43
436.72	23.41
436.90	18.72
437.09	81.92
437.28	32.77
437.46	0.00
437.65	21.06
437.84	67.88
438.02	28.09
438.21	28.09
438.40	49.15
438.58	25.75
438.77	65.54
438.96	25.75
439.14	51.49
439.33	0.00
439.52	16.38
439.70	0.00
439.89	2.34
440.08	21.06
440.26	107.66
440.45	74.90
440.63	7.02
440.82	0.00
441.01	60.85
441.19	63.19
441.38	32.77
441.57	88.94
441.75	30.43
441.94	16.38
442.12	53.83
442.31	46.81
442.50	11.70
442.68	70.22
442.87	25.75
443.05	0.00
443.24	65.54
443.43	0.00
443.61	46.81
443.80	44.47
443.98	67.88
444.17	42.13
444.35	0.00
444.54	53.83
444.73	30.43
444.91	28.09
445.10	21.06
445.28	53.83
445.47	37.45
445.65	65.54
445.84	81.92
446.02	25.75
446.21	124.05
446.39	56.17
446.58	51.49
446.77	65.54
446.95	79.58
447.14	0.00
447.32	88.94
447.51	79.58
447.69	65.54
447.88	70.22
448.06	42.13
448.25	60.85
448.43	98.30
448.62	44.47
448.80	49.15
448.99	65.54
449.17	0.00
449.36	0.00
449.54	0.00
449.73	37.45
449.91	79.58
450.10	70.22
450.28	2.34
450.46	93.62
450.65	4.68
450.83	0.00
451.02	39.79
451.20	25.75
451.39	0.00
451.57	35.11
451.76	2.34
451.94	60.85
452.13	28.09
452.31	21.06
452.49	0.00
452.68	0.00
452.86	0.00
453.05	2.34
453.23	72.56
453.42	39.79
453.60	0.00
453.78	0.00
453.97	0.00
454.15	42.13
454.34	46.81
454.52	0.00
454.70	53.83
454.89	53.83
455.07	44.47
455.26	86.60
455.44	16.38
455.62	21.06
455.81	56.17
455.99	70.22
456.17	49.15
456.36	0.00
456.54	74.90
456.73	11.70
456.91	63.19
457.09	53.83
457.28	14.04
457.46	39.79
457.64	21.06
457.83	44.47
458.01	16.38
458.19	42.13
458.38	9.36
458.56	0.00
458.74	21.06
458.93	0.00
459.11	25.75
459.29	21.06
459.48	42.13
459.66	32.77
459.84	81.92
460.03	9.36
460.21	11.70
460.39	37.45
460.57	0.00
460.76	0.00
460.94	16.38
461.12	79.58
461.31	18.72
461.49	74.90
461.67	9.36
461.85	23.41
462.04	51.49
462.22	56.17
462.40	0.00
462.59	0.00
462.77	0.00
462.95	0.00
463.13	21.06
463.32	9.36
463.50	32.77
463.68	0.00
463.86	0.00
464.05	77.24
464.23	63.19
464.41	42.13
464.59	4.68
464.78	0.00
464.96	65.54
465.14	44.47
465.32	88.94
465.50	0.00
465.69	4.68
465.87	39.79
466.05	74.90
466.23	28.09
466.41	14.04
466.60	30.43
466.78	79.58
466.96	7.02
467.14	95.96
467.32	56.17
467.51	21.06
467.69	72.56
467.87	60.85
468.05	0.00
468.23	70.22
468.41	18.72
468.60	30.43
468.78	37.45
468.96	70.22
469.14	14.04
469.32	42.13
469.50	23.41
469.69	2.34
469.87	49.15
470.05	0.00
470.23	7.02
470.41	16.38
470.59	53.83
470.77	51.49
470.95	4.68
471.14	65.54
471.32	56.17
471.50	39.79
471.68	49.15
471.86	72.56
472.04	23.41
472.22	42.13
472.40	77.24
472.58	102.98
472.77	74.90
472.95	11.70
473.13	56.17
473.31	30.43
473.49	65.54
473.67	0.00
473.85	60.85
474.03	0.00
474.21	39.79
474.39	0.00
474.57	0.00
474.75	16.38
474.93	30.43
475.12	58.51
475.30	72.56
475.48	0.00
475.66	63.19
475.84	16.38
476.02	51.49
476.20	0.00
476.38	0.00
476.56	60.85
476.74	16.38
476.92	58.51
477.10	14.04
477.28	60.85
477.46	0.00
477.64	18.72
477.82	2.34
478.00	16.38
478.18	0.00
478.36	56.17
478.54	16.38
478.72	32.77
478.90	58.51
479.08	18.72
479.26	11.70
479.44	93.62
479.62	49.15
479.80	56.17
479.98	0.00
480.16	35.11
480.34	42.13
480.52	60.85
480.70	0.00
480.88	28.09
481.06	51.49
481.24	0.00
481.41	0.00
481.59	0.00
481.77	0.00
481.95	23.41
482.13	18.72
482.31	0.00
482.49	84.26
482.67	35.11
482.85	58.51
483.03	35.11
483.21	18.72
483.39	39.79
483.57	46.81
483.74	56.17
483.92	102.98
484.10	51.49
484.28	98.30
484.46	39.79
484.64	23.41
484.82	14.04
485.00	0.00
485.18	25.75
485.35	37.45
485.53	0.00
485.71	60.85
485.89	0.00
486.07	28.09
486.25	46.81
486.43	32.77
486.61	0.00
486.78	42.13
486.96	23.41
487.14	95.96
487.32	98.30
487.50	51.49
487.68	77.24
487.85	91.28
488.03	18.72
488.21	39.79
488.39	56.17
488.57	25.75
488.75	88.94
488.92	0.00
489.10	53.83
489.28	9.36
489.46	4.68
489.64	51.49
489.81	0.00
489.99	28.09
490.17	35.11
490.35	37.45
490.53	44.47
490.70	21.06
490.88	58.51
491.06	58.51
491.24	35.11
491.41	42.13
491.59	79.58
491.77	91.28
491.95	133.41
492.13	0.00
492.30	9.36
492.48	77.24
492.66	93.62
492.84	79.58
493.01	79.58
493.19	67.88
493.37	25.75
493.54	37.45
493.72	18.72
493.90	84.26
494.08	53.83
494.25	2.34
494.43	44.47
494.61	91.28
494.79	14.04
494.96	77.24
495.14	0.00
495.32	44.47
495.49	93.62
495.67	30.43
495.85	0.00
496.02	32.77
496.20	60.85
496.38	0.00
496.55	138.09
496.73	131.07
496.91	0.00
497.09	53.83
497.26	63.19
497.44	84.26
497.62	32.77
497.79	2.34
497.97	74.90
498.14	32.77
498.32	39.79
498.50	0.00
498.67	79.58
498.85	30.43
499.03	0.00
499.20	60.85
499.38	11.70
499.56	0.00
499.73	42.13
499.91	35.11
500.08	58.51
500.26	23.41
500.44	18.72
500.61	0.00
500.79	21.06
500.97	25.75
501.14	60.85
501.32	0.00
501.49	65.54
501.67	58.51
501.84	84.26
502.02	42.13
502.20	0.00
502.37	60.85
502.55	0.00
502.72	16.38
502.90	0.00
503.07	93.62
503.25	42.13
503.43	37.45
503.60	0.00
503.78	63.19
503.95	70.22
504.13	51.49
504.30	32.77
504.48	72.56
504.65	56.17
504.83	0.00
505.01	28.09
505.18	39.79
505.36	35.11
505.53	0.00
505.71	0.00
505.88	67.88
506.06	23.41
506.23	46.81
506.41	70.22
506.58	4.68
506.76	84.26
506.93	58.51
507.11	25.75
507.28	53.83
507.46	77.24
507.63	25.75
507.81	39.79
507.98	37.45
508.16	53.83
508.33	65.54
508.50	49.15
508.68	39.79
508.85	7.02
509.03	7.02
509.20	30.43
509.38	37.45
509.55	100.64
509.73	63.19
509.90	46.81
510.08	44.47
510.25	81.92
510.42	30.43
510.60	72.56
510.77	102.98
510.95	67.88
511.12	42.13
511.30	0.00
511.47	46.81
511.64	4.68
511.82	0.00
511.99	49.15
512.17	32.77
512.34	56.17
512.51	65.54
512.69	0.00
512.86	110.01
513.04	51.49
513.21	0.00
513.38	4.68
513.56	44.47
513.73	51.49
513.90	44.47
514.08	42.13
514.25	0.00
514.43	32.77
514.60	0.00
514.77	65.54
514.95	84.26
515.12	35.11
515.29	2.34
515.47	16.38
515.64	2.34
515.81	60.85
515.99	95.96
516.16	84.26
516.33	0.00
516.51	2.34
516.68	60.85
516.85	0.00
517.03	0.00
517.20	32.77
517.37	58.51
517.54	72.56
517.72	11.70
517.89	60.85
518.06	91.28
518.24	0.00
518.41	91.28
518.58	0.00
518.75	30.43
518.93	58.51
519.10	51.49
519.27	32.77
519.45	16.38
519.62	23.41
519.79	95.96
519.96	30.43
520.14	67.88
520.31	77.24
520.48	42.13
520.65	42.13
520.83	84.26
521.00	88.94
521.17	51.49
521.34	79.58
521.52	88.94
521.69	4.68
521.86	28.09
522.03	32.77
522.20	23.41
522.38	16.38
522.55	30.43
522.72	0.00
522.89	21.06
523.07	88.94
523.24	0.00
523.41	9.36
523.58	30.43
523.75	72.56
523.92	44.47
524.10	39.79
524.27	51.49
524.44	14.04
524.61	65.54
524.78	95.96
524.96	51.49
525.13	67.88
525.30	0.00
525.47	25.75
525.64	0.00
525.81	23.41
525.98	42.13
526.16	14.04
526.33	35.11
526.50	0.00
526.67	70.22
526.84	51.49
527.01	4.68
527.18	0.00
527.36	2.34
527.53	53.83
527.70	0.00
527.87	79.58
528.04	18.72
528.21	0.00
528.38	58.51
528.55	53.83
528.72	88.94
528.89	9.36
529.07	42.13
529.24	16.38
529.41	25.75
529.58	21.06
529.75	39.79
529.92	46.81
530.09	16.38
530.26	0.00
530.43	44.47
530.60	51.49
530.77	81.92
530.94	67.88
531.11	0.00
531.28	53.83
531.46	14.04
531.63	86.60
531.80	0.00
531.97	63.19
532.14	25.75
532.31	0.00
532.48	14.04
532.65	67.88
532.82	49.15
532.99	102.98
533.16	49.15
533.33	58.51
533.50	0.00
533.67	37.45
533.84	30.43
534.01	56.17
534.18	0.00
534.35	39.79
534.52	44.47
534.69	44.47
534.86	0.00
535.03	46.81
535.20	42.13
535.37	74.90
535.54	21.06
535.71	25.75
535.88	60.85
536.05	30.43
536.22	70.22
536.38	39.79
536.55	72.56
536.72	2.34
536.89	21.06
537.06	42.13
537.23	44.47
537.40	131.07
537.57	81.92
537.74	21.06
537.91	9.36
538.08	72.56
538.25	77.24
538.42	7.02
538.59	0.00
538.75	79.58
538.92	84.26
539.09	112.35
539.26	74.90
539.43	23.41
539.60	86.60
539.77	37.45
539.94	124.05
540.11	58.51
540.28	102.98
540.44	44.47
540.61	63.19
540.78	25.75
540.95	44.47
541.12	93.62
541.29	51.49
541.46	0.00
541.62	105.32
541.79	0.00
541.96	72.56
542.13	88.94
542.30	81.92
542.47	63.19
542.63	49.15
542.80	0.00
542.97	9.36
543.14	0.00
543.31	110.01
543.48	107.66
543.64	67.88
543.81	35.11
543.98	91.28
544.15	63.19
544.32	39.79
544.48	25.75
544.65	37.45
544.82	0.00
544.99	88.94
545.16	30.43
545.32	11.70
545.49	84.26
545.66	88.94
545.83	11.70
546.00	2.34
546.16	42.13
546.33	79.58
546.50	58.51
546.67	117.03
546.83	72.56
547.00	11.70
547.17	21.06
547.34	56.17
547.50	91.28
547.67	53.83
547.84	2.34
548.00	0.00
548.17	11.70
548.34	51.49
548.51	42.13
548.67	63.19
548.84	60.85
549.01	0.00
549.18	0.00
549.34	93.62
549.51	60.85
549.68	42.13
549.84	7.02
550.01	0.00
550.18	53.83
550.34	58.51
550.51	7.02
550.68	28.09
550.84	37.45
551.01	128.73
551.18	42.13
551.34	74.90
551.51	58.51
551.68	46.81
551.84	46.81
552.01	79.58
552.18	65.54
552.34	88.94
552.51	49.15
552.68	63.19
552.84	98.30
553.01	74.90
553.18	88.94
553.34	49.15
553.51	44.47
553.67	37.45
553.84	95.96
554.01	84.26
554.17	4.68
554.34	74.90
554.51	11.70
554.67	98.30
554.84	107.66
555.00	107.66
555.17	60.85
555.33	84.26
555.50	49.15
555.67	81.92
555.83	70.22
556.00	44.47
556.16	88.94
556.33	60.85
556.50	28.09
556.66	72.56
556.83	32.77
556.99	63.19
557.16	65.54
557.32	16.38
557.49	0.00
557.65	37.45
557.82	79.58
557.98	102.98
558.15	79.58
558.32	63.19
558.48	28.09
558.65	39.79
558.81	91.28
558.98	21.06
559.14	23.41
559.31	56.17
559.47	74.90
559.64	63.19
559.80	4.68
559.97	39.79
560.13	72.56
560.30	35.11
560.46	60.85
560.63	0.00
560.79	44.47
560.96	51.49
561.12	65.54
561.29	39.79
561.45	18.72
561.61	39.79
561.78	93.62
561.94	51.49
562.11	77.24
562.27	56.17
562.44	107.66
562.60	11.70
562.77	32.77
562.93	51.49
563.10	86.60
563.26	2.34
563.42	46.81
563.59	0.00
563.75	77.24
563.92	58.51
564.08	117.03
564.24	39.79
564.41	112.35
564.57	0.00
564.74	11.70
564.90	46.81
565.07	93.62
565.23	16.38
565.39	79.58
565.56	0.00
565.72	37.45
565.88	32.77
566.05	9.36
566.21	67.88
566.38	0.00
566.54	91.28
566.70	49.15
566.87	72.56
567.03	35.11
567.19	30.43
567.36	44.47
567.52	32.77
567.68	77.24
567.85	81.92
568.01	0.00
568.17	128.73
568.34	25.75
568.50	2.34
568.66	44.47
568.83	23.41
568.99	46.81
569.15	25.75
569.32	16.38
569.48	0.00
569.64	49.15
569.81	35.11
569.97	0.00
570.13	37.45
570.30	63.19
570.46	67.88
570.62	72.56
570.78	65.54
570.95	53.83
571.11	37.45
571.27	93.62
571.43	23.41
571.60	25.75
571.76	14.04
571.92	95.96
572.09	9.36
572.25	79.58
572.41	126.39
572.57	28.09
572.74	11.70
572.90	0.00
573.06	49.15
573.22	0.00
573.38	91.28
573.55	63.19
573.71	51.49
573.87	42.13
574.03	16.38
574.20	9.36
574.36	0.00
574.52	65.54
574.68	30.43
574.84	30.43
575.01	58.51
575.17	46.81
575.33	91.28
575.49	56.17
575.65	46.81
575.82	93.62
575.98	16.38
576.14	30.43
576.30	63.19
576.46	39.79
576.62	110.01
576.79	72.56
576.95	56.17
577.11	65.54
577.27	35.11
577.43	102.98
577.59	102.98
577.75	91.28
577.92	7.02
578.08	16.38
578.24	51.49
578.40	56.17
578.56	56.17
578.72	81.92
578.88	58.51
579.04	25.75
579.21	4.68
579.37	35.11
579.53	0.00
579.69	0.00
579.85	53.83
580.01	72.56
580.17	105.32
580.33	58.51
580.49	28.09
580.65	100.64
580.82	23.41
580.98	0.00
581.14	53.83
581.30	44.47
581.46	0.00
581.62	112.35
581.78	18.72
581.94	37.45
582.10	79.58
582.26	81.92
582.42	65.54
582.58	30.43
582.74	51.49
582.90	35.11
583.06	63.19
583.22	44.47
583.38	4.68
583.54	88.94
583.70	32.77
583.86	102.98
584.02	23.41
584.18	98.30
584.34	49.15
584.50	180.22
584.66	720.88
584.82	1523.69
584.98	1940.30
585.14	1717.95
585.30	1074.31
585.46	657.69
585.62	517.26
585.78	224.69
585.94	119.37
586.10	0.00
586.26	32.77
586.42	81.92
586.58	117.03
586.74	56.17
586.90	63.19
587.06	7.02
587.22	51.49
587.38	39.79
587.54	67.88
587.70	152.13
587.86	222.35
588.02	215.33
588.18	105.32
588.34	135.75
588.49	65.54
588.65	56.17
588.81	56.17
588.97	86.60
589.13	16.38
589.29	14.04
589.45	0.00
589.61	51.49
589.77	60.85
589.93	37.45
590.08	60.85
590.24	2.34
590.40	11.70
590.56	93.62
590.72	60.85
590.88	102.98
591.04	0.00
591.20	102.98
591.35	23.41
591.51	0.00
591.67	0.00
591.83	56.17
591.99	100.64
592.15	25.75
592.31	37.45
592.46	84.26
592.62	9.36
592.78	18.72
592.94	46.81
593.10	56.17
593.26	30.43
593.41	107.66
593.57	72.56
593.73	11.70
593.89	154.48
594.05	203.63
594.20	341.72
594.36	306.61
594.52	166.18
594.68	124.05
594.84	95.96
594.99	107.66
595.15	32.77
595.31	67.88
595.47	0.00
595.62	35.11
595.78	60.85
595.94	23.41
596.10	28.09
596.25	74.90
596.41	21.06
596.57	72.56
596.73	84.26
596.88	0.00
597.04	23.41
597.20	138.09
597.36	191.92
597.51	81.92
597.67	58.51
597.83	60.85
597.99	23.41
598.14	0.00
598.30	44.47
598.46	0.00
598.61	70.22
598.77	7.02
598.93	39.79
599.09	100.64
599.24	58.51
599.40	23.41
599.56	60.85
599.71	39.79
599.87	11.70
600.03	58.51
600.18	63.19
600.34	44.47
600.50	121.71
600.65	46.81
600.81	2.34
600.97	39.79
601.12	49.15
601.28	0.00
601.44	7.02
601.59	46.81
601.75	93.62
601.91	9.36
602.06	4.68
602.22	72.56
602.37	110.01
602.53	37.45
602.69	95.96
602.84	98.30
603.00	102.98
603.16	100.64
603.31	42.13
603.47	77.24
603.62	0.00
603.78	72.56
603.94	46.81
604.09	21.06
604.25	58.51
604.40	84.26
604.56	46.81
604.71	0.00
604.87	2.34
605.03	37.45
605.18	18.72
605.34	0.00
605.49	49.15
605.65	46.81
605.80	14.04
605.96	65.54
606.12	65.54
606.27	28.09
606.43	0.00
606.58	51.49
606.74	86.60
606.89	124.05
607.05	252.78
607.20	175.54
607.36	250.44
607.51	110.01
607.67	98.30
607.82	93.62
607.98	128.73
608.13	84.26
608.29	42.13
608.44	4.68
608.60	77.24
608.75	42.13
608.91	84.26
609.06	236.39
609.22	421.30
609.37	381.51
609.53	383.85
609.68	318.31
609.84	210.65
609.99	177.88
610.15	70.22
610.30	53.83
610.46	14.04
610.61	0.00
610.76	67.88
610.92	95.96
611.07	0.00
611.23	11.70
611.38	28.09
611.54	46.81
611.69	42.13
611.84	77.24
612.00	67.88
612.15	23.41
612.31	11.70
612.46	81.92
612.62	51.49
612.77	58.51
612.92	65.54
613.08	63.19
613.23	46.81
613.39	30.43
613.54	28.09
613.69	154.48
613.85	355.76
614.00	624.92
614.15	594.50
614.31	440.02
614.46	395.55
614.62	259.80
614.77	168.52
614.92	35.11
615.08	60.85
615.23	28.09
615.38	91.28
615.54	72.56
615.69	65.54
615.84	88.94
616.00	243.42
616.15	159.16
616.30	229.37
616.46	173.20
616.61	81.92
616.76	74.90
616.92	100.64
617.07	16.38
617.22	9.36
617.37	0.00
617.53	23.41
617.68	0.00
617.83	0.00
617.99	72.56
618.14	18.72
618.29	63.19
618.45	0.00
618.60	74.90
618.75	58.51
618.90	0.00
619.06	100.64
619.21	39.79
619.36	88.94
619.51	67.88
619.67	21.06
619.82	0.00
619.97	51.49
620.12	23.41
620.28	58.51
620.43	98.30
620.58	42.13
620.73	0.00
620.89	0.00
621.04	42.13
621.19	119.37
621.34	133.41
621.49	98.30
621.65	102.98
621.80	93.62
621.95	124.05
622.10	23.41
622.25	0.00
622.41	77.24
622.56	107.66
622.71	60.85
622.86	0.00
623.01	53.83
623.16	0.00
623.32	37.45
623.47	35.11
623.62	35.11
623.77	0.00
623.92	32.77
624.07	74.90
624.23	9.36
624.38	51.49
624.53	58.51
624.68	79.58
624.83	60.85
624.98	53.83
625.13	11.70
625.29	23.41
625.44	0.00
625.59	152.13
625.74	23.41
625.89	32.77
626.04	72.56
626.19	262.14
626.34	355.76
626.49	358.10
626.65	220.01
626.80	161.50
626.95	159.16
627.10	79.58
627.25	0.00
627.40	4.68
627.55	30.43
627.70	37.45
627.85	51.49
628.00	0.00
628.15	30.43
628.30	0.00
628.45	0.00
628.60	7.02
628.76	28.09
628.91	72.56
629.06	28.09
629.21	65.54
629.36	11.70
629.51	51.49
629.66	0.00
629.81	39.79
629.96	88.94
630.11	39.79
630.26	102.98
630.41	117.03
630.56	124.05
630.71	112.35
630.86	88.94
631.01	0.00
631.16	67.88
631.31	112.35
631.46	23.41
631.61	39.79
631.76	79.58
631.91	88.94
632.06	49.15
632.21	32.77
632.36	93.62
632.51	46.81
632.66	0.00
632.81	77.24
632.96	124.05
633.10	180.22
633.25	315.97
633.40	257.46
633.55	217.67
633.70	182.56
633.85	102.98
634.00	79.58
634.15	58.51
634.30	131.07
634.45	16.38
634.60	46.81
634.75	65.54
634.90	0.00
635.05	0.00
635.19	79.58
635.34	72.56
635.49	63.19
635.64	35.11
635.79	88.94
635.94	18.72
636.09	93.62
636.24	0.00
636.39	112.35
636.53	42.13
636.68	93.62
636.83	49.15
636.98	46.81
637.13	23.41
637.28	42.13
637.43	0.00
637.57	37.45
637.72	142.77
637.87	220.01
638.02	362.78
638.17	444.70
638.32	327.68
638.46	177.88
638.61	205.97
638.76	217.67
638.91	70.22
639.06	86.60
639.20	4.68
639.35	102.98
639.50	65.54
639.65	236.39
639.80	435.34
639.94	699.82
640.09	662.37
640.24	587.47
640.39	322.99
640.54	210.65
640.68	159.16
640.83	56.17
640.98	46.81
641.13	84.26
641.27	32.77
641.42	0.00
641.57	2.34
641.72	14.04
641.86	30.43
642.01	30.43
642.16	7.02
642.31	95.96
642.45	49.15
642.60	11.70
642.75	9.36
642.90	42.13
643.04	0.00
643.19	25.75
643.34	56.17
643.48	86.60
643.63	28.09
643.78	65.54
643.93	0.00
644.07	42.13
644.22	74.90
644.37	0.00
644.51	14.04
644.66	18.72
644.81	51.49
644.95	9.36
645.10	0.00
645.25	0.00
645.39	56.17
645.54	30.43
645.69	23.41
645.83	37.45
645.98	0.00
646.13	44.47
646.27	44.47
646.42	21.06
646.57	0.00
646.71	79.58
646.86	23.41
647.00	46.81
647.15	28.09
647.30	0.00
647.44	0.00
647.59	2.34
647.74	9.36
647.88	30.43
648.03	2.34
648.17	44.47
648.32	30.43
648.47	67.88
648.61	21.06
648.76	35.11
648.90	0.00
649.05	60.85
649.20	0.00
649.34	56.17
649.49	88.94
649.63	42.13
649.78	0.00
649.92	35.11
650.07	135.75
650.21	227.03
650.36	306.61
650.51	322.99
650.65	278.52
650.80	234.05
650.94	161.50
651.09	100.64
651.23	107.66
651.38	65.54
651.52	65.54
651.67	32.77
651.81	44.47
651.96	70.22
652.10	9.36
652.25	25.75
652.39	21.06
652.54	0.00
652.68	11.70
652.83	79.58
652.97	166.18
653.12	124.05
653.26	107.66
653.41	102.98
653.55	74.90
653.70	0.00
653.84	84.26
653.99	18.72
654.13	44.47
654.27	49.15
654.42	0.00
654.56	58.51
654.71	42.13
654.85	53.83
655.00	70.22
655.14	28.09
655.29	0.00
655.43	65.54
655.57	102.98
655.72	46.81
655.86	32.77
656.01	39.79
656.15	30.43
656.30	72.56
656.44	0.00
656.58	72.56
656.73	117.03
656.87	0.00
657.01	21.06
657.16	53.83
657.30	2.34
657.45	0.00
657.59	21.06
657.73	88.94
657.88	18.72
658.02	51.49
658.16	18.72
658.31	30.43
658.45	72.56
658.60	0.00
658.74	2.34
658.88	11.70
659.03	0.00
659.17	124.05
659.31	0.00
659.46	140.43
659.60	170.86
659.74	245.76
659.89	182.56
660.03	194.26
660.17	126.39
660.32	32.77
660.46	30.43
660.60	65.54
660.74	0.00
660.89	98.30
661.03	44.47
661.17	23.41
661.32	0.00
661.46	32.77
661.60	32.77
661.74	35.11
661.89	53.83
662.03	74.90
662.17	30.43
662.31	21.06
662.46	0.00
662.60	0.00
662.74	81.92
662.88	30.43
663.03	70.22
663.17	70.22
663.31	28.09
663.45	25.75
663.60	0.00
663.74	46.81
663.88	49.15
664.02	37.45
664.17	135.75
664.31	67.88
664.45	44.47
664.59	16.38
664.73	23.41
664.88	0.00
665.02	0.00
665.16	9.36
665.30	58.51
665.44	4.68
665.59	46.81
665.73	2.34
665.87	35.11
666.01	28.09
666.15	70.22
666.29	51.49
666.44	98.30
666.58	0.00
666.72	0.00
666.86	32.77
667.00	63.19
667.14	119.37
667.28	53.83
667.43	126.39
667.57	301.93
667.71	304.27
667.85	229.37
667.99	168.52
668.13	133.41
668.27	79.58
668.41	18.72
668.56	0.00
668.70	0.00
668.84	4.68
668.98	0.00
669.12	14.04
669.26	4.68
669.40	42.13
669.54	77.24
669.68	35.11
669.82	25.75
669.96	21.06
670.10	0.00
670.25	25.75
670.39	23.41
670.53	58.51
670.67	49.15
670.81	0.00
670.95	102.98
671.09	18.72
671.23	72.56
671.37	126.39
671.51	196.60
671.65	173.20
671.79	173.20
671.93	121.71
672.07	67.88
672.21	32.77
672.35	51.49
672.49	37.45
672.63	16.38
672.77	39.79
672.91	9.36
673.05	65.54
673.19	30.43
673.33	44.47
673.47	86.60
673.61	81.92
673.75	49.15
673.89	84.26
674.03	16.38
674.17	0.00
674.31	39.79
674.45	81.92
674.59	23.41
674.73	18.72
674.87	11.70
675.01	2.34
675.15	65.54
675.29	63.19
675.43	23.41
675.56	25.75
675.70	53.83
675.84	67.88
675.98	2.34
676.12	77.24
676.26	37.45
676.40	0.00
676.54	21.06
676.68	35.11
676.82	35.11
676.96	0.00
677.10	39.79
677.23	67.88
677.37	74.90
677.51	32.77
677.65	14.04
677.79	4.68
677.93	60.85
678.07	0.00
678.21	0.00
678.34	0.00
678.48	0.00
678.62	51.49
678.76	49.15
678.90	81.92
679.04	91.28
679.18	7.02
679.31	9.36
679.45	86.60
679.59	0.00
679.73	0.00
679.87	7.02
680.00	70.22
680.14	84.26
680.28	11.70
680.42	0.00
680.56	49.15
680.70	70.22
680.83	74.90
680.97	42.13
681.11	28.09
681.25	102.98
681.39	72.56
681.52	7.02
681.66	28.09
681.80	46.81
681.94	9.36
682.07	74.90
682.21	0.00
682.35	70.22
682.49	0.00
682.62	0.00
682.76	0.00
682.90	30.43
683.04	25.75
683.17	0.00
683.31	42.13
683.45	88.94
683.59	84.26
683.72	25.75
683.86	37.45
684.00	56.17
684.13	42.13
684.27	81.92
684.41	44.47
684.55	49.15
684.68	44.47
684.82	44.47
684.96	49.15
685.09	100.64
685.23	0.00
685.37	0.00
685.50	0.00
685.64	25.75
685.78	51.49
685.91	84.26
686.05	18.72
686.19	32.77
686.32	16.38
686.46	21.06
686.60	30.43
686.73	65.54
686.87	72.56
687.01	0.00
687.14	4.68
687.28	0.00
687.42	0.00
687.55	56.17
687.69	30.43
687.82	32.77
687.96	84.26
688.10	70.22
688.23	32.77
688.37	0.00
688.50	18.72
688.64	81.92
688.78	0.00
688.91	0.00
689.05	0.00
689.18	0.00
689.32	93.62
689.46	49.15
689.59	46.81
689.73	49.15
689.86	42.13
690.00	21.06
690.13	74.90
690.27	42.13
690.41	32.77
690.54	28.09
690.68	0.00
690.81	81.92
690.95	51.49
691.08	0.00
691.22	46.81
691.35	91.28
691.49	98.30
691.62	0.00
691.76	14.04
691.89	23.41
692.03	9.36
692.16	79.58
692.30	30.43
692.43	102.98
692.57	98.30
692.70	93.62
692.84	152.13
692.97	119.37
693.11	72.56
693.24	65.54
693.38	21.06
693.51	39.79
693.65	63.19
693.78	72.56
693.92	0.00
694.05	0.00
694.19	14.04
694.32	37.45
694.45	0.00
694.59	49.15
694.72	105.32
694.86	53.83
694.99	72.56
695.13	100.64
695.26	32.77
695.39	0.00
695.53	46.81
695.66	39.79
695.80	60.85
695.93	65.54
696.07	53.83
696.20	49.15
696.33	0.00
696.47	0.00
696.60	30.43
696.73	0.00
696.87	49.15
697.00	0.00
697.14	18.72
697.27	0.00
697.40	0.00
697.54	46.81
697.67	7.02
697.80	30.43
697.94	0.00
698.07	14.04
698.21	9.36
698.34	16.38
698.47	0.00
698.61	63.19
698.74	102.98
698.87	79.58
699.01	28.09
699.14	28.09
699.27	46.81
699.40	81.92
699.54	28.09
699.67	128.73
699.80	16.38
699.94	39.79
700.07	30.43
700.20	81.92
700.34	46.81
700.47	88.94
700.60	56.17
700.73	133.41
700.87	32.77
701.00	16.38
701.13	124.05
701.26	67.88
701.40	88.94
701.53	53.83
701.66	28.09
701.79	51.49
701.93	0.00
702.06	35.11
702.19	2.34
702.32	60.85
702.46	46.81
702.59	16.38
702.72	51.49
702.85	93.62
702.99	142.77
703.12	273.84
703.25	248.10
703.38	201.29
703.51	131.07
703.65	117.03
703.78	107.66
703.91	53.83
704.04	65.54
704.17	60.85
704.31	42.13
704.44	74.90
704.57	98.30
704.70	32.77
704.83	72.56
704.96	44.47
705.10	0.00
705.23	0.00
>>>>>End Processed Spectral Data<<<<<
