SpectraSuite Data File
++++++++++++++++++++++++++++++++++++
Date: Fri Oct 04 12:13:45 GMT-05:00 2013
User: price-jones
Dark Spectrum Present: No
Reference Spectrum Present: No
Number of Sampled Component Spectra: 1
Spectrometers: USB2+H05261
Integration Time (usec): 10000 (USB2+H05261)
Spectra Averaged: 1 (USB2+H05261)
Boxcar Smoothing: 0 (USB2+H05261)
Correct for Electrical Dark: No (USB2+H05261)
Strobe/Lamp Enabled: No (USB2+H05261)
Correct for Detector Non-linearity: No (USB2+H05261)
Correct for Stray Light: No (USB2+H05261)
Number of Pixels in Processed Spectrum: 2048
>>>>>Begin Processed Spectral Data<<<<<
365.73	49.15
365.92	49.15
366.12	49.15
366.32	0.00
366.52	0.00
366.72	0.00
366.91	0.00
367.11	0.00
367.31	0.00
367.51	0.00
367.70	0.00
367.90	0.00
368.10	0.00
368.30	0.00
368.49	0.00
368.69	0.00
368.89	0.00
369.09	0.00
369.28	0.00
369.48	0.00
369.68	0.00
369.87	0.00
370.07	0.00
370.27	0.00
370.47	0.00
370.66	0.00
370.86	0.00
371.06	30.43
371.25	0.00
371.45	0.00
371.65	0.00
371.84	0.00
372.04	0.00
372.24	0.00
372.44	0.00
372.63	0.00
372.83	0.00
373.03	18.72
373.22	44.47
373.42	65.54
373.62	79.58
373.81	63.19
374.01	30.43
374.21	18.72
374.40	72.56
374.60	28.09
374.79	0.00
374.99	23.41
375.19	0.00
375.38	46.81
375.58	39.79
375.78	9.36
375.97	9.36
376.17	30.43
376.37	0.00
376.56	0.00
376.76	74.90
376.95	67.88
377.15	0.00
377.35	23.41
377.54	42.13
377.74	0.00
377.93	21.06
378.13	28.09
378.33	60.85
378.52	70.22
378.72	110.01
378.91	39.79
379.11	98.30
379.31	51.49
379.50	0.00
379.70	67.88
379.89	14.04
380.09	21.06
380.28	42.13
380.48	0.00
380.68	0.00
380.87	44.47
381.07	18.72
381.26	67.88
381.46	32.77
381.65	11.70
381.85	32.77
382.04	46.81
382.24	11.70
382.43	37.45
382.63	0.00
382.83	51.49
383.02	63.19
383.22	46.81
383.41	0.00
383.61	0.00
383.80	21.06
384.00	0.00
384.19	0.00
384.39	0.00
384.58	65.54
384.78	81.92
384.97	14.04
385.17	4.68
385.36	0.00
385.56	2.34
385.75	44.47
385.95	0.00
386.14	84.26
386.34	0.00
386.53	21.06
386.72	0.00
386.92	35.11
387.11	0.00
387.31	18.72
387.50	46.81
387.70	51.49
387.89	60.85
388.09	0.00
388.28	7.02
388.48	91.28
388.67	16.38
388.86	9.36
389.06	65.54
389.25	0.00
389.45	23.41
389.64	63.19
389.84	0.00
390.03	21.06
390.22	0.00
390.42	28.09
390.61	0.00
390.81	0.00
391.00	0.00
391.19	0.00
391.39	18.72
391.58	65.54
391.78	63.19
391.97	0.00
392.16	23.41
392.36	16.38
392.55	0.00
392.75	28.09
392.94	81.92
393.13	28.09
393.33	0.00
393.52	4.68
393.71	21.06
393.91	53.83
394.10	21.06
394.29	18.72
394.49	4.68
394.68	0.00
394.88	42.13
395.07	0.00
395.26	51.49
395.46	35.11
395.65	23.41
395.84	4.68
396.04	37.45
396.23	42.13
396.42	81.92
396.62	0.00
396.81	58.51
397.00	0.00
397.19	56.17
397.39	0.00
397.58	25.75
397.77	32.77
397.97	4.68
398.16	67.88
398.35	4.68
398.55	46.81
398.74	21.06
398.93	72.56
399.12	4.68
399.32	0.00
399.51	0.00
399.70	72.56
399.90	39.79
400.09	32.77
400.28	0.00
400.47	95.96
400.67	11.70
400.86	23.41
401.05	0.00
401.24	84.26
401.44	37.45
401.63	53.83
401.82	4.68
402.01	65.54
402.21	42.13
402.40	79.58
402.59	4.68
402.78	0.00
402.97	25.75
403.17	0.00
403.36	16.38
403.55	44.47
403.74	9.36
403.93	56.17
404.13	4.68
404.32	0.00
404.51	0.00
404.70	0.00
404.89	74.90
405.09	37.45
405.28	14.04
405.47	37.45
405.66	0.00
405.85	21.06
406.05	0.00
406.24	32.77
406.43	30.43
406.62	23.41
406.81	0.00
407.00	25.75
407.20	37.45
407.39	30.43
407.58	23.41
407.77	0.00
407.96	0.00
408.15	18.72
408.34	30.43
408.54	93.62
408.73	28.09
408.92	2.34
409.11	21.06
409.30	23.41
409.49	49.15
409.68	93.62
409.87	16.38
410.07	37.45
410.26	0.00
410.45	0.00
410.64	0.00
410.83	14.04
411.02	32.77
411.21	37.45
411.40	0.00
411.59	51.49
411.78	0.00
411.98	53.83
412.17	42.13
412.36	74.90
412.55	56.17
412.74	0.00
412.93	4.68
413.12	91.28
413.31	0.00
413.50	21.06
413.69	84.26
413.88	28.09
414.07	74.90
414.26	16.38
414.45	79.58
414.64	58.51
414.83	0.00
415.02	0.00
415.22	28.09
415.41	49.15
415.60	23.41
415.79	25.75
415.98	30.43
416.17	0.00
416.36	30.43
416.55	39.79
416.74	14.04
416.93	23.41
417.12	77.24
417.31	0.00
417.50	0.00
417.69	37.45
417.88	30.43
418.07	39.79
418.26	28.09
418.45	0.00
418.64	60.85
418.83	14.04
419.02	56.17
419.21	0.00
419.39	14.04
419.58	51.49
419.77	0.00
419.96	79.58
420.15	53.83
420.34	30.43
420.53	65.54
420.72	30.43
420.91	9.36
421.10	72.56
421.29	32.77
421.48	46.81
421.67	72.56
421.86	9.36
422.05	51.49
422.24	42.13
422.43	2.34
422.61	23.41
422.80	32.77
422.99	28.09
423.18	49.15
423.37	37.45
423.56	0.00
423.75	0.00
423.94	0.00
424.13	0.00
424.32	56.17
424.50	28.09
424.69	93.62
424.88	72.56
425.07	39.79
425.26	46.81
425.45	21.06
425.64	37.45
425.83	74.90
426.01	7.02
426.20	21.06
426.39	14.04
426.58	37.45
426.77	0.00
426.96	28.09
427.15	14.04
427.33	46.81
427.52	74.90
427.71	30.43
427.90	0.00
428.09	81.92
428.28	11.70
428.46	49.15
428.65	42.13
428.84	2.34
429.03	0.00
429.22	84.26
429.40	105.32
429.59	0.00
429.78	0.00
429.97	0.00
430.16	42.13
430.34	14.04
430.53	25.75
430.72	67.88
430.91	70.22
431.10	9.36
431.28	56.17
431.47	0.00
431.66	4.68
431.85	42.13
432.03	0.00
432.22	0.00
432.41	42.13
432.60	16.38
432.79	46.81
432.97	37.45
433.16	0.00
433.35	0.00
433.54	44.47
433.72	23.41
433.91	0.00
434.10	35.11
434.28	0.00
434.47	53.83
434.66	65.54
434.85	67.88
435.03	58.51
435.22	9.36
435.41	39.79
435.59	0.00
435.78	0.00
435.97	0.00
436.16	51.49
436.34	0.00
436.53	42.13
436.72	35.11
436.90	63.19
437.09	23.41
437.28	28.09
437.46	67.88
437.65	37.45
437.84	56.17
438.02	46.81
438.21	0.00
438.40	23.41
438.58	39.79
438.77	0.00
438.96	28.09
439.14	30.43
439.33	23.41
439.52	35.11
439.70	156.82
439.89	9.36
440.08	0.00
440.26	18.72
440.45	30.43
440.63	105.32
440.82	9.36
441.01	35.11
441.19	93.62
441.38	35.11
441.57	42.13
441.75	86.60
441.94	91.28
442.12	35.11
442.31	28.09
442.50	28.09
442.68	0.00
442.87	21.06
443.05	14.04
443.24	91.28
443.43	44.47
443.61	88.94
443.80	60.85
443.98	72.56
444.17	70.22
444.35	46.81
444.54	0.00
444.73	21.06
444.91	53.83
445.10	107.66
445.28	79.58
445.47	32.77
445.65	30.43
445.84	7.02
446.02	9.36
446.21	86.60
446.39	25.75
446.58	21.06
446.77	0.00
446.95	4.68
447.14	18.72
447.32	0.00
447.51	0.00
447.69	23.41
447.88	58.51
448.06	98.30
448.25	0.00
448.43	16.38
448.62	11.70
448.80	0.00
448.99	18.72
449.17	51.49
449.36	0.00
449.54	35.11
449.73	46.81
449.91	84.26
450.10	18.72
450.28	42.13
450.46	112.35
450.65	86.60
450.83	42.13
451.02	44.47
451.20	11.70
451.39	16.38
451.57	30.43
451.76	28.09
451.94	4.68
452.13	102.98
452.31	30.43
452.49	63.19
452.68	67.88
452.86	0.00
453.05	30.43
453.23	60.85
453.42	16.38
453.60	0.00
453.78	42.13
453.97	46.81
454.15	58.51
454.34	0.00
454.52	0.00
454.70	28.09
454.89	0.00
455.07	9.36
455.26	42.13
455.44	100.64
455.62	65.54
455.81	79.58
455.99	77.24
456.17	0.00
456.36	0.00
456.54	46.81
456.73	42.13
456.91	11.70
457.09	32.77
457.28	107.66
457.46	30.43
457.64	86.60
457.83	84.26
458.01	0.00
458.19	42.13
458.38	86.60
458.56	72.56
458.74	23.41
458.93	28.09
459.11	42.13
459.29	25.75
459.48	0.00
459.66	72.56
459.84	51.49
460.03	28.09
460.21	30.43
460.39	93.62
460.57	88.94
460.76	49.15
460.94	44.47
461.12	9.36
461.31	32.77
461.49	72.56
461.67	98.30
461.85	16.38
462.04	14.04
462.22	98.30
462.40	84.26
462.59	49.15
462.77	18.72
462.95	65.54
463.13	35.11
463.32	56.17
463.50	63.19
463.68	11.70
463.86	0.00
464.05	25.75
464.23	25.75
464.41	14.04
464.59	0.00
464.78	14.04
464.96	18.72
465.14	0.00
465.32	0.00
465.50	23.41
465.69	37.45
465.87	56.17
466.05	9.36
466.23	56.17
466.41	0.00
466.60	0.00
466.78	93.62
466.96	42.13
467.14	25.75
467.32	0.00
467.51	0.00
467.69	7.02
467.87	74.90
468.05	7.02
468.23	25.75
468.41	60.85
468.60	42.13
468.78	46.81
468.96	70.22
469.14	93.62
469.32	67.88
469.50	0.00
469.69	23.41
469.87	72.56
470.05	93.62
470.23	39.79
470.41	51.49
470.59	0.00
470.77	0.00
470.95	0.00
471.14	98.30
471.32	67.88
471.50	70.22
471.68	16.38
471.86	28.09
472.04	0.00
472.22	46.81
472.40	65.54
472.58	44.47
472.77	4.68
472.95	0.00
473.13	53.83
473.31	65.54
473.49	16.38
473.67	28.09
473.85	84.26
474.03	18.72
474.21	44.47
474.39	100.64
474.57	25.75
474.75	58.51
474.93	72.56
475.12	91.28
475.30	79.58
475.48	37.45
475.66	95.96
475.84	42.13
476.02	105.32
476.20	49.15
476.38	32.77
476.56	25.75
476.74	0.00
476.92	4.68
477.10	0.00
477.28	32.77
477.46	0.00
477.64	0.00
477.82	32.77
478.00	102.98
478.18	0.00
478.36	79.58
478.54	77.24
478.72	93.62
478.90	53.83
479.08	77.24
479.26	18.72
479.44	67.88
479.62	84.26
479.80	119.37
479.98	56.17
480.16	42.13
480.34	70.22
480.52	14.04
480.70	65.54
480.88	81.92
481.06	67.88
481.24	23.41
481.41	0.00
481.59	28.09
481.77	77.24
481.95	0.00
482.13	88.94
482.31	25.75
482.49	79.58
482.67	60.85
482.85	77.24
483.03	107.66
483.21	114.69
483.39	21.06
483.57	0.00
483.74	91.28
483.92	107.66
484.10	11.70
484.28	11.70
484.46	21.06
484.64	44.47
484.82	88.94
485.00	91.28
485.18	63.19
485.35	119.37
485.53	44.47
485.71	0.00
485.89	2.34
486.07	49.15
486.25	23.41
486.43	81.92
486.61	46.81
486.78	131.07
486.96	0.00
487.14	14.04
487.32	51.49
487.50	46.81
487.68	42.13
487.85	51.49
488.03	14.04
488.21	46.81
488.39	44.47
488.57	9.36
488.75	18.72
488.92	93.62
489.10	39.79
489.28	53.83
489.46	25.75
489.64	117.03
489.81	2.34
489.99	14.04
490.17	30.43
490.35	74.90
490.53	21.06
490.70	18.72
490.88	72.56
491.06	124.05
491.24	42.13
491.41	105.32
491.59	44.47
491.77	53.83
491.95	9.36
492.13	49.15
492.30	18.72
492.48	18.72
492.66	46.81
492.84	0.00
493.01	58.51
493.19	49.15
493.37	0.00
493.54	7.02
493.72	0.00
493.90	35.11
494.08	53.83
494.25	117.03
494.43	49.15
494.61	28.09
494.79	16.38
494.96	30.43
495.14	44.47
495.32	93.62
495.49	32.77
495.67	140.43
495.85	0.00
496.02	9.36
496.20	53.83
496.38	14.04
496.55	0.00
496.73	21.06
496.91	65.54
497.09	0.00
497.26	46.81
497.44	65.54
497.62	67.88
497.79	35.11
497.97	0.00
498.14	63.19
498.32	21.06
498.50	0.00
498.67	42.13
498.85	53.83
499.03	16.38
499.20	60.85
499.38	23.41
499.56	42.13
499.73	32.77
499.91	16.38
500.08	28.09
500.26	16.38
500.44	0.00
500.61	14.04
500.79	7.02
500.97	42.13
501.14	81.92
501.32	37.45
501.49	51.49
501.67	0.00
501.84	23.41
502.02	11.70
502.20	35.11
502.37	23.41
502.55	95.96
502.72	70.22
502.90	25.75
503.07	72.56
503.25	105.32
503.43	7.02
503.60	30.43
503.78	32.77
503.95	25.75
504.13	60.85
504.30	70.22
504.48	93.62
504.65	81.92
504.83	2.34
505.01	100.64
505.18	53.83
505.36	4.68
505.53	25.75
505.71	63.19
505.88	95.96
506.06	107.66
506.23	21.06
506.41	11.70
506.58	35.11
506.76	152.13
506.93	49.15
507.11	0.00
507.28	37.45
507.46	32.77
507.63	128.73
507.81	53.83
507.98	100.64
508.16	63.19
508.33	65.54
508.50	18.72
508.68	0.00
508.85	0.00
509.03	0.00
509.20	4.68
509.38	70.22
509.55	65.54
509.73	42.13
509.90	14.04
510.08	138.09
510.25	77.24
510.42	74.90
510.60	63.19
510.77	84.26
510.95	0.00
511.12	51.49
511.30	37.45
511.47	112.35
511.64	70.22
511.82	9.36
511.99	60.85
512.17	23.41
512.34	53.83
512.51	126.39
512.69	63.19
512.86	37.45
513.04	0.00
513.21	74.90
513.38	100.64
513.56	28.09
513.73	128.73
513.90	0.00
514.08	4.68
514.25	49.15
514.43	56.17
514.60	79.58
514.77	81.92
514.95	56.17
515.12	72.56
515.29	37.45
515.47	16.38
515.64	0.00
515.81	39.79
515.99	23.41
516.16	84.26
516.33	60.85
516.51	21.06
516.68	18.72
516.85	14.04
517.03	11.70
517.20	32.77
517.37	58.51
517.54	67.88
517.72	14.04
517.89	0.00
518.06	49.15
518.24	126.39
518.41	86.60
518.58	32.77
518.75	88.94
518.93	25.75
519.10	77.24
519.27	65.54
519.45	14.04
519.62	11.70
519.79	84.26
519.96	35.11
520.14	63.19
520.31	60.85
520.48	11.70
520.65	58.51
520.83	81.92
521.00	102.98
521.17	86.60
521.34	53.83
521.52	63.19
521.69	35.11
521.86	44.47
522.03	4.68
522.20	0.00
522.38	4.68
522.55	46.81
522.72	88.94
522.89	32.77
523.07	72.56
523.24	107.66
523.41	7.02
523.58	35.11
523.75	46.81
523.92	112.35
524.10	21.06
524.27	44.47
524.44	46.81
524.61	98.30
524.78	58.51
524.96	0.00
525.13	21.06
525.30	70.22
525.47	53.83
525.64	35.11
525.81	14.04
525.98	63.19
526.16	39.79
526.33	42.13
526.50	91.28
526.67	25.75
526.84	86.60
527.01	60.85
527.18	79.58
527.36	37.45
527.53	14.04
527.70	88.94
527.87	18.72
528.04	30.43
528.21	28.09
528.38	30.43
528.55	93.62
528.72	46.81
528.89	51.49
529.07	86.60
529.24	119.37
529.41	112.35
529.58	112.35
529.75	35.11
529.92	0.00
530.09	81.92
530.26	67.88
530.43	46.81
530.60	93.62
530.77	16.38
530.94	35.11
531.11	32.77
531.28	7.02
531.46	72.56
531.63	46.81
531.80	65.54
531.97	56.17
532.14	46.81
532.31	51.49
532.48	72.56
532.65	30.43
532.82	28.09
532.99	119.37
533.16	21.06
533.33	7.02
533.50	46.81
533.67	39.79
533.84	91.28
534.01	0.00
534.18	77.24
534.35	53.83
534.52	14.04
534.69	21.06
534.86	28.09
535.03	30.43
535.20	23.41
535.37	74.90
535.54	58.51
535.71	39.79
535.88	44.47
536.05	119.37
536.22	67.88
536.38	72.56
536.55	51.49
536.72	25.75
536.89	58.51
537.06	2.34
537.23	39.79
537.40	72.56
537.57	25.75
537.74	65.54
537.91	93.62
538.08	58.51
538.25	79.58
538.42	70.22
538.59	51.49
538.75	0.00
538.92	72.56
539.09	60.85
539.26	11.70
539.43	14.04
539.60	51.49
539.77	70.22
539.94	23.41
540.11	37.45
540.28	58.51
540.44	16.38
540.61	25.75
540.78	70.22
540.95	35.11
541.12	0.00
541.29	88.94
541.46	65.54
541.62	42.13
541.79	25.75
541.96	25.75
542.13	102.98
542.30	32.77
542.47	39.79
542.63	65.54
542.80	0.00
542.97	49.15
543.14	58.51
543.31	25.75
543.48	46.81
543.64	9.36
543.81	30.43
543.98	25.75
544.15	60.85
544.32	7.02
544.48	53.83
544.65	4.68
544.82	72.56
544.99	53.83
545.16	74.90
545.32	44.47
545.49	21.06
545.66	14.04
545.83	56.17
546.00	70.22
546.16	0.00
546.33	16.38
546.50	23.41
546.67	84.26
546.83	0.00
547.00	105.32
547.17	39.79
547.34	58.51
547.50	86.60
547.67	117.03
547.84	51.49
548.00	51.49
548.17	51.49
548.34	58.51
548.51	107.66
548.67	102.98
548.84	0.00
549.01	0.00
549.18	72.56
549.34	30.43
549.51	35.11
549.68	42.13
549.84	98.30
550.01	46.81
550.18	91.28
550.34	95.96
550.51	53.83
550.68	63.19
550.84	0.00
551.01	84.26
551.18	70.22
551.34	46.81
551.51	58.51
551.68	11.70
551.84	18.72
552.01	9.36
552.18	30.43
552.34	44.47
552.51	86.60
552.68	28.09
552.84	9.36
553.01	100.64
553.18	86.60
553.34	126.39
553.51	67.88
553.67	0.00
553.84	35.11
554.01	44.47
554.17	67.88
554.34	0.00
554.51	107.66
554.67	60.85
554.84	0.00
555.00	32.77
555.17	0.00
555.33	28.09
555.50	112.35
555.67	9.36
555.83	131.07
556.00	70.22
556.16	102.98
556.33	25.75
556.50	37.45
556.66	11.70
556.83	44.47
556.99	114.69
557.16	39.79
557.32	4.68
557.49	30.43
557.65	74.90
557.82	23.41
557.98	14.04
558.15	112.35
558.32	49.15
558.48	70.22
558.65	51.49
558.81	88.94
558.98	37.45
559.14	107.66
559.31	72.56
559.47	72.56
559.64	0.00
559.80	67.88
559.97	60.85
560.13	35.11
560.30	121.71
560.46	63.19
560.63	77.24
560.79	70.22
560.96	88.94
561.12	72.56
561.29	0.00
561.45	25.75
561.61	39.79
561.78	35.11
561.94	42.13
562.11	23.41
562.27	28.09
562.44	0.00
562.60	58.51
562.77	0.00
562.93	0.00
563.10	42.13
563.26	86.60
563.42	53.83
563.59	88.94
563.75	53.83
563.92	56.17
564.08	7.02
564.24	60.85
564.41	35.11
564.57	53.83
564.74	56.17
564.90	56.17
565.07	32.77
565.23	28.09
565.39	21.06
565.56	21.06
565.72	0.00
565.88	63.19
566.05	72.56
566.21	51.49
566.38	95.96
566.54	72.56
566.70	58.51
566.87	74.90
567.03	65.54
567.19	35.11
567.36	56.17
567.52	0.00
567.68	0.00
567.85	0.00
568.01	18.72
568.17	4.68
568.34	67.88
568.50	4.68
568.66	23.41
568.83	114.69
568.99	58.51
569.15	58.51
569.32	42.13
569.48	42.13
569.64	102.98
569.81	72.56
569.97	93.62
570.13	14.04
570.30	30.43
570.46	105.32
570.62	0.00
570.78	60.85
570.95	44.47
571.11	0.00
571.27	56.17
571.43	72.56
571.60	72.56
571.76	102.98
571.92	4.68
572.09	107.66
572.25	88.94
572.41	98.30
572.57	25.75
572.74	18.72
572.90	0.00
573.06	21.06
573.22	58.51
573.38	42.13
573.55	18.72
573.71	79.58
573.87	74.90
574.03	28.09
574.20	23.41
574.36	63.19
574.52	37.45
574.68	72.56
574.84	70.22
575.01	65.54
575.17	32.77
575.33	91.28
575.49	46.81
575.65	32.77
575.82	16.38
575.98	46.81
576.14	0.00
576.30	86.60
576.46	28.09
576.62	65.54
576.79	58.51
576.95	32.77
577.11	46.81
577.27	128.73
577.43	37.45
577.59	44.47
577.75	49.15
577.92	25.75
578.08	4.68
578.24	70.22
578.40	25.75
578.56	18.72
578.72	88.94
578.88	44.47
579.04	35.11
579.21	16.38
579.37	65.54
579.53	39.79
579.69	30.43
579.85	4.68
580.01	28.09
580.17	46.81
580.33	117.03
580.49	63.19
580.65	63.19
580.82	0.00
580.98	0.00
581.14	18.72
581.30	11.70
581.46	37.45
581.62	60.85
581.78	46.81
581.94	42.13
582.10	0.00
582.26	58.51
582.42	9.36
582.58	18.72
582.74	25.75
582.90	112.35
583.06	28.09
583.22	21.06
583.38	95.96
583.54	28.09
583.70	0.00
583.86	126.39
584.02	81.92
584.18	37.45
584.34	86.60
584.50	0.00
584.66	84.26
584.82	44.47
584.98	37.45
585.14	95.96
585.30	35.11
585.46	9.36
585.62	84.26
585.78	32.77
585.94	0.00
586.10	4.68
586.26	0.00
586.42	0.00
586.58	51.49
586.74	42.13
586.90	53.83
587.06	32.77
587.22	81.92
587.38	110.01
587.54	100.64
587.70	9.36
587.86	4.68
588.02	39.79
588.18	37.45
588.34	16.38
588.49	14.04
588.65	46.81
588.81	2.34
588.97	0.00
589.13	46.81
589.29	0.00
589.45	30.43
589.61	11.70
589.77	25.75
589.93	49.15
590.08	56.17
590.24	37.45
590.40	30.43
590.56	0.00
590.72	2.34
590.88	46.81
591.04	77.24
591.20	32.77
591.35	0.00
591.51	46.81
591.67	74.90
591.83	30.43
591.99	49.15
592.15	102.98
592.31	7.02
592.46	0.00
592.62	46.81
592.78	100.64
592.94	53.83
593.10	65.54
593.26	4.68
593.41	25.75
593.57	32.77
593.73	53.83
593.89	9.36
594.05	0.00
594.20	30.43
594.36	35.11
594.52	81.92
594.68	4.68
594.84	114.69
594.99	21.06
595.15	0.00
595.31	23.41
595.47	102.98
595.62	67.88
595.78	0.00
595.94	18.72
596.10	58.51
596.25	93.62
596.41	65.54
596.57	84.26
596.73	70.22
596.88	74.90
597.04	0.00
597.20	42.13
597.36	37.45
597.51	49.15
597.67	0.00
597.83	46.81
597.99	37.45
598.14	110.01
598.30	28.09
598.46	28.09
598.61	0.00
598.77	44.47
598.93	81.92
599.09	28.09
599.24	25.75
599.40	77.24
599.56	67.88
599.71	44.47
599.87	18.72
600.03	51.49
600.18	9.36
600.34	4.68
600.50	81.92
600.65	53.83
600.81	102.98
600.97	53.83
601.12	81.92
601.28	56.17
601.44	49.15
601.59	14.04
601.75	77.24
601.91	7.02
602.06	42.13
602.22	30.43
602.37	4.68
602.53	0.00
602.69	86.60
602.84	35.11
603.00	53.83
603.16	9.36
603.31	58.51
603.47	0.00
603.62	88.94
603.78	142.77
603.94	16.38
604.09	79.58
604.25	28.09
604.40	39.79
604.56	49.15
604.71	60.85
604.87	51.49
605.03	0.00
605.18	7.02
605.34	98.30
605.49	65.54
605.65	60.85
605.80	46.81
605.96	49.15
606.12	0.00
606.27	65.54
606.43	77.24
606.58	28.09
606.74	70.22
606.89	35.11
607.05	0.00
607.20	0.00
607.36	117.03
607.51	25.75
607.67	58.51
607.82	18.72
607.98	0.00
608.13	14.04
608.29	28.09
608.44	65.54
608.60	0.00
608.75	42.13
608.91	32.77
609.06	102.98
609.22	74.90
609.37	28.09
609.53	67.88
609.68	0.00
609.84	77.24
609.99	77.24
610.15	4.68
610.30	25.75
610.46	70.22
610.61	53.83
610.76	65.54
610.92	72.56
611.07	46.81
611.23	14.04
611.38	44.47
611.54	105.32
611.69	46.81
611.84	100.64
612.00	14.04
612.15	110.01
612.31	7.02
612.46	0.00
612.62	37.45
612.77	30.43
612.92	88.94
613.08	72.56
613.23	32.77
613.39	81.92
613.54	11.70
613.69	72.56
613.85	65.54
614.00	16.38
614.15	93.62
614.31	21.06
614.46	25.75
614.62	46.81
614.77	60.85
614.92	42.13
615.08	46.81
615.23	74.90
615.38	49.15
615.54	0.00
615.69	65.54
615.84	88.94
616.00	46.81
616.15	16.38
616.30	14.04
616.46	65.54
616.61	79.58
616.76	95.96
616.92	0.00
617.07	11.70
617.22	53.83
617.37	79.58
617.53	102.98
617.68	58.51
617.83	4.68
617.99	25.75
618.14	0.00
618.29	0.00
618.45	23.41
618.60	0.00
618.75	39.79
618.90	79.58
619.06	60.85
619.21	18.72
619.36	23.41
619.51	21.06
619.67	49.15
619.82	37.45
619.97	100.64
620.12	4.68
620.28	56.17
620.43	32.77
620.58	77.24
620.73	0.00
620.89	0.00
621.04	14.04
621.19	86.60
621.34	4.68
621.49	4.68
621.65	21.06
621.80	79.58
621.95	21.06
622.10	51.49
622.25	25.75
622.41	23.41
622.56	7.02
622.71	9.36
622.86	44.47
623.01	14.04
623.16	21.06
623.32	56.17
623.47	65.54
623.62	0.00
623.77	0.00
623.92	65.54
624.07	63.19
624.23	21.06
624.38	28.09
624.53	102.98
624.68	93.62
624.83	56.17
624.98	0.00
625.13	0.00
625.29	58.51
625.44	21.06
625.59	21.06
625.74	39.79
625.89	16.38
626.04	4.68
626.19	98.30
626.34	77.24
626.49	42.13
626.65	51.49
626.80	32.77
626.95	32.77
627.10	0.00
627.25	42.13
627.40	23.41
627.55	98.30
627.70	23.41
627.85	51.49
628.00	58.51
628.15	74.90
628.30	42.13
628.45	32.77
628.60	11.70
628.76	102.98
628.91	37.45
629.06	35.11
629.21	16.38
629.36	79.58
629.51	102.98
629.66	25.75
629.81	88.94
629.96	11.70
630.11	18.72
630.26	58.51
630.41	56.17
630.56	14.04
630.71	0.00
630.86	18.72
631.01	51.49
631.16	35.11
631.31	0.00
631.46	0.00
631.61	0.00
631.76	32.77
631.91	67.88
632.06	4.68
632.21	110.01
632.36	49.15
632.51	21.06
632.66	18.72
632.81	49.15
632.96	14.04
633.10	0.00
633.25	0.00
633.40	4.68
633.55	51.49
633.70	46.81
633.85	70.22
634.00	49.15
634.15	107.66
634.30	0.00
634.45	65.54
634.60	11.70
634.75	0.00
634.90	51.49
635.05	32.77
635.19	30.43
635.34	70.22
635.49	51.49
635.64	42.13
635.79	74.90
635.94	2.34
636.09	81.92
636.24	79.58
636.39	0.00
636.53	16.38
636.68	0.00
636.83	51.49
636.98	28.09
637.13	9.36
637.28	37.45
637.43	46.81
637.57	93.62
637.72	0.00
637.87	84.26
638.02	21.06
638.17	25.75
638.32	0.00
638.46	112.35
638.61	25.75
638.76	25.75
638.91	35.11
639.06	65.54
639.20	18.72
639.35	67.88
639.50	0.00
639.65	0.00
639.80	44.47
639.94	72.56
640.09	23.41
640.24	4.68
640.39	53.83
640.54	65.54
640.68	60.85
640.83	133.41
640.98	105.32
641.13	14.04
641.27	84.26
641.42	28.09
641.57	72.56
641.72	4.68
641.86	0.00
642.01	53.83
642.16	74.90
642.31	56.17
642.45	46.81
642.60	51.49
642.75	84.26
642.90	70.22
643.04	88.94
643.19	30.43
643.34	49.15
643.48	11.70
643.63	0.00
643.78	0.00
643.93	86.60
644.07	37.45
644.22	102.98
644.37	0.00
644.51	46.81
644.66	25.75
644.81	72.56
644.95	0.00
645.10	58.51
645.25	0.00
645.39	79.58
645.54	9.36
645.69	28.09
645.83	58.51
645.98	117.03
646.13	7.02
646.27	21.06
646.42	7.02
646.57	4.68
646.71	70.22
646.86	0.00
647.00	35.11
647.15	0.00
647.30	30.43
647.44	9.36
647.59	30.43
647.74	4.68
647.88	37.45
648.03	2.34
648.17	65.54
648.32	32.77
648.47	121.71
648.61	65.54
648.76	79.58
648.90	37.45
649.05	32.77
649.20	4.68
649.34	30.43
649.49	32.77
649.63	72.56
649.78	0.00
649.92	0.00
650.07	49.15
650.21	2.34
650.36	0.00
650.51	0.00
650.65	25.75
650.80	4.68
650.94	81.92
651.09	2.34
651.23	0.00
651.38	56.17
651.52	39.79
651.67	0.00
651.81	39.79
651.96	32.77
652.10	84.26
652.25	42.13
652.39	9.36
652.54	58.51
652.68	0.00
652.83	11.70
652.97	0.00
653.12	14.04
653.26	46.81
653.41	21.06
653.55	37.45
653.70	39.79
653.84	21.06
653.99	70.22
654.13	0.00
654.27	23.41
654.42	79.58
654.56	21.06
654.71	49.15
654.85	0.00
655.00	37.45
655.14	0.00
655.29	30.43
655.43	0.00
655.57	18.72
655.72	0.00
655.86	30.43
656.01	0.00
656.15	0.00
656.30	35.11
656.44	0.00
656.58	21.06
656.73	46.81
656.87	67.88
657.01	44.47
657.16	37.45
657.30	0.00
657.45	56.17
657.59	44.47
657.73	25.75
657.88	2.34
658.02	77.24
658.16	32.77
658.31	86.60
658.45	72.56
658.60	0.00
658.74	39.79
658.88	28.09
659.03	0.00
659.17	0.00
659.31	28.09
659.46	74.90
659.60	110.01
659.74	65.54
659.89	63.19
660.03	0.00
660.17	0.00
660.32	0.00
660.46	42.13
660.60	25.75
660.74	70.22
660.89	93.62
661.03	53.83
661.17	32.77
661.32	18.72
661.46	0.00
661.60	9.36
661.74	79.58
661.89	11.70
662.03	42.13
662.17	2.34
662.31	51.49
662.46	0.00
662.60	63.19
662.74	147.45
662.88	37.45
663.03	11.70
663.17	51.49
663.31	25.75
663.45	0.00
663.60	51.49
663.74	21.06
663.88	25.75
664.02	7.02
664.17	21.06
664.31	65.54
664.45	84.26
664.59	42.13
664.73	32.77
664.88	58.51
665.02	23.41
665.16	58.51
665.30	35.11
665.44	49.15
665.59	28.09
665.73	11.70
665.87	79.58
666.01	0.00
666.15	0.00
666.29	16.38
666.44	21.06
666.58	23.41
666.72	0.00
666.86	7.02
667.00	25.75
667.14	93.62
667.28	0.00
667.43	4.68
667.57	67.88
667.71	28.09
667.85	0.00
667.99	37.45
668.13	9.36
668.27	121.71
668.41	35.11
668.56	23.41
668.70	0.00
668.84	0.00
668.98	49.15
669.12	4.68
669.26	32.77
669.40	65.54
669.54	0.00
669.68	32.77
669.82	79.58
669.96	0.00
670.10	0.00
670.25	0.00
670.39	28.09
670.53	37.45
670.67	91.28
670.81	46.81
670.95	42.13
671.09	42.13
671.23	79.58
671.37	67.88
671.51	49.15
671.65	23.41
671.79	42.13
671.93	56.17
672.07	44.47
672.21	0.00
672.35	53.83
672.49	0.00
672.63	60.85
672.77	23.41
672.91	14.04
673.05	16.38
673.19	88.94
673.33	0.00
673.47	60.85
673.61	21.06
673.75	42.13
673.89	72.56
674.03	28.09
674.17	7.02
674.31	0.00
674.45	77.24
674.59	91.28
674.73	44.47
674.87	100.64
675.01	0.00
675.15	11.70
675.29	65.54
675.43	18.72
675.56	79.58
675.70	49.15
675.84	0.00
675.98	16.38
676.12	7.02
676.26	7.02
676.40	39.79
676.54	18.72
676.68	79.58
676.82	53.83
676.96	60.85
677.10	11.70
677.23	67.88
677.37	58.51
677.51	0.00
677.65	21.06
677.79	0.00
677.93	42.13
678.07	88.94
678.21	77.24
678.34	72.56
678.48	110.01
678.62	32.77
678.76	77.24
678.90	0.00
679.04	72.56
679.18	0.00
679.31	0.00
679.45	79.58
679.59	46.81
679.73	30.43
679.87	32.77
680.00	0.00
680.14	70.22
680.28	0.00
680.42	21.06
680.56	131.07
680.70	0.00
680.83	0.00
680.97	88.94
681.11	0.00
681.25	0.00
681.39	91.28
681.52	14.04
681.66	60.85
681.80	51.49
681.94	51.49
682.07	81.92
682.21	4.68
682.35	53.83
682.49	14.04
682.62	16.38
682.76	70.22
682.90	9.36
683.04	4.68
683.17	14.04
683.31	67.88
683.45	23.41
683.59	67.88
683.72	0.00
683.86	86.60
684.00	65.54
684.13	0.00
684.27	0.00
684.41	53.83
684.55	110.01
684.68	0.00
684.82	0.00
684.96	39.79
685.09	39.79
685.23	0.00
685.37	0.00
685.50	65.54
685.64	46.81
685.78	0.00
685.91	21.06
686.05	51.49
686.19	14.04
686.32	14.04
686.46	30.43
686.60	60.85
686.73	56.17
686.87	49.15
687.01	53.83
687.14	74.90
687.28	11.70
687.42	51.49
687.55	102.98
687.69	88.94
687.82	0.00
687.96	30.43
688.10	49.15
688.23	11.70
688.37	44.47
688.50	4.68
688.64	39.79
688.78	7.02
688.91	42.13
689.05	9.36
689.18	0.00
689.32	0.00
689.46	7.02
689.59	25.75
689.73	0.00
689.86	60.85
690.00	32.77
690.13	28.09
690.27	60.85
690.41	30.43
690.54	46.81
690.68	23.41
690.81	46.81
690.95	0.00
691.08	23.41
691.22	7.02
691.35	25.75
691.49	44.47
691.62	60.85
691.76	0.00
691.89	4.68
692.03	0.00
692.16	14.04
692.30	42.13
692.43	0.00
692.57	60.85
692.70	25.75
692.84	42.13
692.97	0.00
693.11	60.85
693.24	65.54
693.38	11.70
693.51	23.41
693.65	0.00
693.78	28.09
693.92	9.36
694.05	0.00
694.19	11.70
694.32	0.00
694.45	30.43
694.59	0.00
694.72	0.00
694.86	14.04
694.99	56.17
695.13	39.79
695.26	18.72
695.39	37.45
695.53	35.11
695.66	56.17
695.80	0.00
695.93	4.68
696.07	72.56
696.20	0.00
696.33	25.75
696.47	9.36
696.60	58.51
696.73	23.41
696.87	0.00
697.00	14.04
697.14	0.00
697.27	23.41
697.40	0.00
697.54	28.09
697.67	95.96
697.80	65.54
697.94	0.00
698.07	14.04
698.21	30.43
698.34	37.45
698.47	44.47
698.61	72.56
698.74	35.11
698.87	86.60
699.01	65.54
699.14	0.00
699.27	0.00
699.40	56.17
699.54	28.09
699.67	7.02
699.80	46.81
699.94	11.70
700.07	42.13
700.20	53.83
700.34	0.00
700.47	81.92
700.60	81.92
700.73	0.00
700.87	9.36
701.00	32.77
701.13	65.54
701.26	32.77
701.40	81.92
701.53	23.41
701.66	30.43
701.79	53.83
701.93	0.00
702.06	25.75
702.19	35.11
702.32	65.54
702.46	0.00
702.59	42.13
702.72	25.75
702.85	72.56
702.99	74.90
703.12	60.85
703.25	161.50
703.38	88.94
703.51	135.75
703.65	119.37
703.78	79.58
703.91	14.04
704.04	49.15
704.17	11.70
704.31	32.77
704.44	11.70
704.57	0.00
704.70	25.75
704.83	0.00
704.96	72.56
705.10	35.11
705.23	37.45
>>>>>End Processed Spectral Data<<<<<
