SpectraSuite Data File
++++++++++++++++++++++++++++++++++++
Date: Fri Oct 04 12:13:41 GMT-05:00 2013
User: price-jones
Dark Spectrum Present: No
Reference Spectrum Present: No
Number of Sampled Component Spectra: 1
Spectrometers: USB2+H05261
Integration Time (usec): 10000 (USB2+H05261)
Spectra Averaged: 1 (USB2+H05261)
Boxcar Smoothing: 0 (USB2+H05261)
Correct for Electrical Dark: No (USB2+H05261)
Strobe/Lamp Enabled: No (USB2+H05261)
Correct for Detector Non-linearity: No (USB2+H05261)
Correct for Stray Light: No (USB2+H05261)
Number of Pixels in Processed Spectrum: 2048
>>>>>Begin Processed Spectral Data<<<<<
365.73	0.00
365.92	0.00
366.12	0.00
366.32	0.00
366.52	0.00
366.72	0.00
366.91	0.00
367.11	0.00
367.31	0.00
367.51	0.00
367.70	0.00
367.90	0.00
368.10	0.00
368.30	0.00
368.49	0.00
368.69	0.00
368.89	0.00
369.09	0.00
369.28	0.00
369.48	0.00
369.68	0.00
369.87	0.00
370.07	0.00
370.27	0.00
370.47	0.00
370.66	0.00
370.86	0.00
371.06	0.00
371.25	0.00
371.45	0.00
371.65	0.00
371.84	0.00
372.04	16.38
372.24	0.00
372.44	0.00
372.63	0.00
372.83	0.00
373.03	0.00
373.22	0.00
373.42	30.43
373.62	0.00
373.81	58.51
374.01	84.26
374.21	53.83
374.40	70.22
374.60	21.06
374.79	121.71
374.99	49.15
375.19	0.00
375.38	0.00
375.58	25.75
375.78	0.00
375.97	42.13
376.17	72.56
376.37	0.00
376.56	21.06
376.76	2.34
376.95	145.11
377.15	60.85
377.35	74.90
377.54	0.00
377.74	79.58
377.93	0.00
378.13	7.02
378.33	65.54
378.52	0.00
378.72	58.51
378.91	81.92
379.11	72.56
379.31	0.00
379.50	35.11
379.70	65.54
379.89	67.88
380.09	14.04
380.28	4.68
380.48	4.68
380.68	0.00
380.87	23.41
381.07	25.75
381.26	0.00
381.46	0.00
381.65	53.83
381.85	30.43
382.04	46.81
382.24	21.06
382.43	9.36
382.63	25.75
382.83	9.36
383.02	21.06
383.22	4.68
383.41	0.00
383.61	79.58
383.80	25.75
384.00	51.49
384.19	60.85
384.39	0.00
384.58	0.00
384.78	46.81
384.97	16.38
385.17	0.00
385.36	72.56
385.56	0.00
385.75	49.15
385.95	7.02
386.14	0.00
386.34	9.36
386.53	0.00
386.72	49.15
386.92	18.72
387.11	14.04
387.31	0.00
387.50	42.13
387.70	0.00
387.89	0.00
388.09	14.04
388.28	23.41
388.48	0.00
388.67	0.00
388.86	0.00
389.06	32.77
389.25	65.54
389.45	77.24
389.64	39.79
389.84	65.54
390.03	74.90
390.22	105.32
390.42	30.43
390.61	0.00
390.81	51.49
391.00	9.36
391.19	16.38
391.39	58.51
391.58	0.00
391.78	30.43
391.97	30.43
392.16	0.00
392.36	23.41
392.55	21.06
392.75	0.00
392.94	37.45
393.13	0.00
393.33	65.54
393.52	67.88
393.71	53.83
393.91	0.00
394.10	0.00
394.29	2.34
394.49	23.41
394.68	72.56
394.88	32.77
395.07	16.38
395.26	46.81
395.46	0.00
395.65	16.38
395.84	0.00
396.04	0.00
396.23	70.22
396.42	74.90
396.62	77.24
396.81	35.11
397.00	0.00
397.19	0.00
397.39	0.00
397.58	0.00
397.77	0.00
397.97	74.90
398.16	32.77
398.35	51.49
398.55	28.09
398.74	72.56
398.93	51.49
399.12	18.72
399.32	0.00
399.51	65.54
399.70	44.47
399.90	0.00
400.09	18.72
400.28	25.75
400.47	0.00
400.67	0.00
400.86	23.41
401.05	56.17
401.24	56.17
401.44	0.00
401.63	30.43
401.82	2.34
402.01	25.75
402.21	58.51
402.40	30.43
402.59	30.43
402.78	67.88
402.97	51.49
403.17	0.00
403.36	18.72
403.55	88.94
403.74	72.56
403.93	44.47
404.13	56.17
404.32	86.60
404.51	63.19
404.70	0.00
404.89	37.45
405.09	0.00
405.28	46.81
405.47	72.56
405.66	4.68
405.85	0.00
406.05	14.04
406.24	79.58
406.43	0.00
406.62	63.19
406.81	42.13
407.00	51.49
407.20	0.00
407.39	0.00
407.58	16.38
407.77	35.11
407.96	93.62
408.15	0.00
408.34	16.38
408.54	14.04
408.73	72.56
408.92	51.49
409.11	39.79
409.30	9.36
409.49	0.00
409.68	79.58
409.87	42.13
410.07	0.00
410.26	0.00
410.45	49.15
410.64	28.09
410.83	51.49
411.02	42.13
411.21	46.81
411.40	53.83
411.59	0.00
411.78	30.43
411.98	0.00
412.17	16.38
412.36	72.56
412.55	18.72
412.74	0.00
412.93	67.88
413.12	79.58
413.31	42.13
413.50	32.77
413.69	4.68
413.88	35.11
414.07	0.00
414.26	0.00
414.45	0.00
414.64	0.00
414.83	16.38
415.02	74.90
415.22	58.51
415.41	77.24
415.60	79.58
415.79	107.66
415.98	72.56
416.17	117.03
416.36	53.83
416.55	30.43
416.74	77.24
416.93	95.96
417.12	63.19
417.31	91.28
417.50	84.26
417.69	53.83
417.88	93.62
418.07	0.00
418.26	28.09
418.45	0.00
418.64	0.00
418.83	53.83
419.02	2.34
419.21	14.04
419.39	39.79
419.58	56.17
419.77	60.85
419.96	0.00
420.15	138.09
420.34	21.06
420.53	74.90
420.72	32.77
420.91	35.11
421.10	84.26
421.29	39.79
421.48	16.38
421.67	56.17
421.86	9.36
422.05	49.15
422.24	91.28
422.43	72.56
422.61	25.75
422.80	86.60
422.99	0.00
423.18	0.00
423.37	58.51
423.56	60.85
423.75	0.00
423.94	35.11
424.13	7.02
424.32	42.13
424.50	11.70
424.69	49.15
424.88	0.00
425.07	105.32
425.26	72.56
425.45	51.49
425.64	42.13
425.83	44.47
426.01	131.07
426.20	21.06
426.39	53.83
426.58	25.75
426.77	37.45
426.96	60.85
427.15	74.90
427.33	105.32
427.52	114.69
427.71	95.96
427.90	16.38
428.09	42.13
428.28	32.77
428.46	121.71
428.65	32.77
428.84	11.70
429.03	74.90
429.22	42.13
429.40	110.01
429.59	84.26
429.78	46.81
429.97	102.98
430.16	0.00
430.34	0.00
430.53	0.00
430.72	49.15
430.91	39.79
431.10	67.88
431.28	42.13
431.47	49.15
431.66	51.49
431.85	79.58
432.03	0.00
432.22	44.47
432.41	35.11
432.60	28.09
432.79	0.00
432.97	77.24
433.16	70.22
433.35	0.00
433.54	79.58
433.72	9.36
433.91	42.13
434.10	67.88
434.28	44.47
434.47	11.70
434.66	51.49
434.85	46.81
435.03	18.72
435.22	23.41
435.41	35.11
435.59	65.54
435.78	0.00
435.97	49.15
436.16	72.56
436.34	79.58
436.53	67.88
436.72	25.75
436.90	32.77
437.09	53.83
437.28	100.64
437.46	72.56
437.65	70.22
437.84	84.26
438.02	70.22
438.21	46.81
438.40	16.38
438.58	72.56
438.77	72.56
438.96	23.41
439.14	0.00
439.33	23.41
439.52	42.13
439.70	77.24
439.89	72.56
440.08	23.41
440.26	37.45
440.45	18.72
440.63	81.92
440.82	98.30
441.01	63.19
441.19	14.04
441.38	18.72
441.57	0.00
441.75	42.13
441.94	2.34
442.12	95.96
442.31	0.00
442.50	32.77
442.68	77.24
442.87	39.79
443.05	58.51
443.24	58.51
443.43	67.88
443.61	86.60
443.80	133.41
443.98	65.54
444.17	102.98
444.35	74.90
444.54	63.19
444.73	44.47
444.91	53.83
445.10	0.00
445.28	102.98
445.47	93.62
445.65	112.35
445.84	60.85
446.02	67.88
446.21	65.54
446.39	53.83
446.58	60.85
446.77	28.09
446.95	70.22
447.14	35.11
447.32	84.26
447.51	11.70
447.69	18.72
447.88	21.06
448.06	28.09
448.25	98.30
448.43	44.47
448.62	58.51
448.80	14.04
448.99	84.26
449.17	46.81
449.36	65.54
449.54	37.45
449.73	4.68
449.91	46.81
450.10	0.00
450.28	16.38
450.46	56.17
450.65	53.83
450.83	56.17
451.02	77.24
451.20	65.54
451.39	133.41
451.57	72.56
451.76	88.94
451.94	23.41
452.13	0.00
452.31	9.36
452.49	30.43
452.68	0.00
452.86	65.54
453.05	88.94
453.23	79.58
453.42	0.00
453.60	35.11
453.78	35.11
453.97	81.92
454.15	93.62
454.34	60.85
454.52	46.81
454.70	0.00
454.89	18.72
455.07	32.77
455.26	23.41
455.44	102.98
455.62	32.77
455.81	79.58
455.99	72.56
456.17	227.03
456.36	0.00
456.54	0.00
456.73	28.09
456.91	145.11
457.09	28.09
457.28	46.81
457.46	0.00
457.64	60.85
457.83	58.51
458.01	91.28
458.19	74.90
458.38	60.85
458.56	74.90
458.74	32.77
458.93	39.79
459.11	39.79
459.29	25.75
459.48	74.90
459.66	9.36
459.84	37.45
460.03	58.51
460.21	84.26
460.39	25.75
460.57	32.77
460.76	28.09
460.94	102.98
461.12	86.60
461.31	4.68
461.49	107.66
461.67	25.75
461.85	9.36
462.04	67.88
462.22	86.60
462.40	93.62
462.59	49.15
462.77	60.85
462.95	30.43
463.13	14.04
463.32	44.47
463.50	44.47
463.68	60.85
463.86	63.19
464.05	70.22
464.23	102.98
464.41	121.71
464.59	51.49
464.78	56.17
464.96	9.36
465.14	110.01
465.32	58.51
465.50	65.54
465.69	46.81
465.87	21.06
466.05	46.81
466.23	86.60
466.41	46.81
466.60	4.68
466.78	74.90
466.96	117.03
467.14	0.00
467.32	30.43
467.51	107.66
467.69	81.92
467.87	81.92
468.05	91.28
468.23	81.92
468.41	0.00
468.60	56.17
468.78	37.45
468.96	60.85
469.14	65.54
469.32	58.51
469.50	44.47
469.69	44.47
469.87	74.90
470.05	100.64
470.23	32.77
470.41	56.17
470.59	28.09
470.77	56.17
470.95	124.05
471.14	56.17
471.32	95.96
471.50	100.64
471.68	23.41
471.86	49.15
472.04	32.77
472.22	84.26
472.40	46.81
472.58	9.36
472.77	28.09
472.95	18.72
473.13	140.43
473.31	46.81
473.49	0.00
473.67	16.38
473.85	72.56
474.03	30.43
474.21	25.75
474.39	16.38
474.57	49.15
474.75	79.58
474.93	65.54
475.12	63.19
475.30	74.90
475.48	93.62
475.66	142.77
475.84	14.04
476.02	2.34
476.20	14.04
476.38	114.69
476.56	67.88
476.74	107.66
476.92	60.85
477.10	70.22
477.28	53.83
477.46	14.04
477.64	0.00
477.82	88.94
478.00	53.83
478.18	86.60
478.36	0.00
478.54	74.90
478.72	117.03
478.90	42.13
479.08	18.72
479.26	74.90
479.44	49.15
479.62	63.19
479.80	25.75
479.98	35.11
480.16	70.22
480.34	51.49
480.52	84.26
480.70	32.77
480.88	46.81
481.06	53.83
481.24	0.00
481.41	35.11
481.59	100.64
481.77	86.60
481.95	100.64
482.13	58.51
482.31	70.22
482.49	142.77
482.67	30.43
482.85	84.26
483.03	28.09
483.21	95.96
483.39	74.90
483.57	60.85
483.74	30.43
483.92	88.94
484.10	16.38
484.28	81.92
484.46	70.22
484.64	86.60
484.82	105.32
485.00	18.72
485.18	147.45
485.35	77.24
485.53	37.45
485.71	18.72
485.89	91.28
486.07	95.96
486.25	93.62
486.43	14.04
486.61	74.90
486.78	121.71
486.96	16.38
487.14	95.96
487.32	65.54
487.50	95.96
487.68	149.79
487.85	93.62
488.03	175.54
488.21	42.13
488.39	25.75
488.57	23.41
488.75	63.19
488.92	100.64
489.10	126.39
489.28	56.17
489.46	0.00
489.64	74.90
489.81	32.77
489.99	58.51
490.17	74.90
490.35	105.32
490.53	32.77
490.70	0.00
490.88	107.66
491.06	100.64
491.24	121.71
491.41	100.64
491.59	63.19
491.77	0.00
491.95	53.83
492.13	30.43
492.30	65.54
492.48	70.22
492.66	49.15
492.84	112.35
493.01	46.81
493.19	114.69
493.37	95.96
493.54	51.49
493.72	46.81
493.90	84.26
494.08	63.19
494.25	63.19
494.43	135.75
494.61	166.18
494.79	53.83
494.96	51.49
495.14	86.60
495.32	98.30
495.49	39.79
495.67	42.13
495.85	77.24
496.02	58.51
496.20	70.22
496.38	100.64
496.55	7.02
496.73	74.90
496.91	119.37
497.09	74.90
497.26	131.07
497.44	119.37
497.62	102.98
497.79	86.60
497.97	39.79
498.14	74.90
498.32	70.22
498.50	53.83
498.67	84.26
498.85	63.19
499.03	60.85
499.20	114.69
499.38	60.85
499.56	56.17
499.73	72.56
499.91	105.32
500.08	88.94
500.26	117.03
500.44	70.22
500.61	35.11
500.79	51.49
500.97	35.11
501.14	63.19
501.32	72.56
501.49	0.00
501.67	88.94
501.84	60.85
502.02	117.03
502.20	121.71
502.37	105.32
502.55	0.00
502.72	114.69
502.90	173.20
503.07	95.96
503.25	14.04
503.43	119.37
503.60	60.85
503.78	84.26
503.95	49.15
504.13	25.75
504.30	53.83
504.48	77.24
504.65	56.17
504.83	84.26
505.01	84.26
505.18	28.09
505.36	100.64
505.53	156.82
505.71	84.26
505.88	119.37
506.06	95.96
506.23	98.30
506.41	23.41
506.58	74.90
506.76	105.32
506.93	100.64
507.11	124.05
507.28	107.66
507.46	37.45
507.63	56.17
507.81	28.09
507.98	56.17
508.16	161.50
508.33	145.11
508.50	102.98
508.68	140.43
508.85	77.24
509.03	110.01
509.20	65.54
509.38	51.49
509.55	51.49
509.73	88.94
509.90	58.51
510.08	77.24
510.25	112.35
510.42	98.30
510.60	49.15
510.77	102.98
510.95	128.73
511.12	149.79
511.30	100.64
511.47	65.54
511.64	49.15
511.82	95.96
511.99	81.92
512.17	95.96
512.34	114.69
512.51	77.24
512.69	110.01
512.86	135.75
513.04	77.24
513.21	79.58
513.38	79.58
513.56	46.81
513.73	35.11
513.90	53.83
514.08	18.72
514.25	93.62
514.43	138.09
514.60	74.90
514.77	159.16
514.95	81.92
515.12	65.54
515.29	46.81
515.47	14.04
515.64	91.28
515.81	121.71
515.99	72.56
516.16	4.68
516.33	77.24
516.51	124.05
516.68	65.54
516.85	28.09
517.03	16.38
517.20	102.98
517.37	84.26
517.54	112.35
517.72	126.39
517.89	67.88
518.06	93.62
518.24	0.00
518.41	51.49
518.58	56.17
518.75	110.01
518.93	21.06
519.10	95.96
519.27	67.88
519.45	79.58
519.62	105.32
519.79	107.66
519.96	138.09
520.14	102.98
520.31	56.17
520.48	79.58
520.65	67.88
520.83	110.01
521.00	105.32
521.17	126.39
521.34	110.01
521.52	93.62
521.69	140.43
521.86	28.09
522.03	74.90
522.20	133.41
522.38	112.35
522.55	98.30
522.72	65.54
522.89	117.03
523.07	63.19
523.24	128.73
523.41	0.00
523.58	107.66
523.75	65.54
523.92	98.30
524.10	56.17
524.27	72.56
524.44	51.49
524.61	67.88
524.78	58.51
524.96	56.17
525.13	121.71
525.30	70.22
525.47	53.83
525.64	84.26
525.81	67.88
525.98	84.26
526.16	91.28
526.33	37.45
526.50	56.17
526.67	81.92
526.84	32.77
527.01	63.19
527.18	98.30
527.36	154.48
527.53	110.01
527.70	131.07
527.87	35.11
528.04	117.03
528.21	56.17
528.38	128.73
528.55	100.64
528.72	95.96
528.89	107.66
529.07	84.26
529.24	28.09
529.41	107.66
529.58	70.22
529.75	58.51
529.92	100.64
530.09	39.79
530.26	58.51
530.43	117.03
530.60	63.19
530.77	100.64
530.94	53.83
531.11	110.01
531.28	0.00
531.46	21.06
531.63	86.60
531.80	46.81
531.97	79.58
532.14	58.51
532.31	98.30
532.48	65.54
532.65	46.81
532.82	49.15
532.99	100.64
533.16	154.48
533.33	51.49
533.50	74.90
533.67	28.09
533.84	93.62
534.01	126.39
534.18	102.98
534.35	154.48
534.52	133.41
534.69	88.94
534.86	37.45
535.03	128.73
535.20	16.38
535.37	35.11
535.54	77.24
535.71	56.17
535.88	140.43
536.05	49.15
536.22	84.26
536.38	28.09
536.55	37.45
536.72	154.48
536.89	30.43
537.06	65.54
537.23	18.72
537.40	58.51
537.57	56.17
537.74	51.49
537.91	168.52
538.08	51.49
538.25	126.39
538.42	81.92
538.59	117.03
538.75	102.98
538.92	98.30
539.09	60.85
539.26	93.62
539.43	107.66
539.60	74.90
539.77	53.83
539.94	86.60
540.11	81.92
540.28	156.82
540.44	63.19
540.61	84.26
540.78	93.62
540.95	147.45
541.12	46.81
541.29	81.92
541.46	100.64
541.62	79.58
541.79	110.01
541.96	56.17
542.13	84.26
542.30	37.45
542.47	152.13
542.63	88.94
542.80	39.79
542.97	32.77
543.14	35.11
543.31	53.83
543.48	81.92
543.64	124.05
543.81	112.35
543.98	56.17
544.15	56.17
544.32	110.01
544.48	65.54
544.65	81.92
544.82	74.90
544.99	51.49
545.16	98.30
545.32	58.51
545.49	67.88
545.66	72.56
545.83	46.81
546.00	67.88
546.16	67.88
546.33	110.01
546.50	42.13
546.67	39.79
546.83	42.13
547.00	117.03
547.17	58.51
547.34	98.30
547.50	16.38
547.67	11.70
547.84	77.24
548.00	121.71
548.17	102.98
548.34	56.17
548.51	70.22
548.67	32.77
548.84	84.26
549.01	152.13
549.18	77.24
549.34	117.03
549.51	81.92
549.68	124.05
549.84	145.11
550.01	112.35
550.18	44.47
550.34	18.72
550.51	102.98
550.68	74.90
550.84	81.92
551.01	46.81
551.18	60.85
551.34	147.45
551.51	95.96
551.68	72.56
551.84	114.69
552.01	81.92
552.18	65.54
552.34	98.30
552.51	117.03
552.68	100.64
552.84	110.01
553.01	88.94
553.18	100.64
553.34	79.58
553.51	126.39
553.67	79.58
553.84	117.03
554.01	74.90
554.17	56.17
554.34	110.01
554.51	86.60
554.67	79.58
554.84	37.45
555.00	102.98
555.17	56.17
555.33	32.77
555.50	107.66
555.67	154.48
555.83	88.94
556.00	74.90
556.16	58.51
556.33	72.56
556.50	105.32
556.66	84.26
556.83	77.24
556.99	65.54
557.16	7.02
557.32	98.30
557.49	147.45
557.65	74.90
557.82	100.64
557.98	53.83
558.15	95.96
558.32	46.81
558.48	117.03
558.65	112.35
558.81	126.39
558.98	86.60
559.14	37.45
559.31	51.49
559.47	30.43
559.64	11.70
559.80	128.73
559.97	49.15
560.13	156.82
560.30	84.26
560.46	53.83
560.63	126.39
560.79	105.32
560.96	79.58
561.12	51.49
561.29	128.73
561.45	95.96
561.61	56.17
561.78	140.43
561.94	117.03
562.11	58.51
562.27	65.54
562.44	84.26
562.60	140.43
562.77	46.81
562.93	74.90
563.10	58.51
563.26	60.85
563.42	60.85
563.59	74.90
563.75	107.66
563.92	88.94
564.08	46.81
564.24	65.54
564.41	53.83
564.57	91.28
564.74	81.92
564.90	51.49
565.07	7.02
565.23	25.75
565.39	110.01
565.56	56.17
565.72	93.62
565.88	117.03
566.05	53.83
566.21	154.48
566.38	39.79
566.54	102.98
566.70	88.94
566.87	72.56
567.03	168.52
567.19	84.26
567.36	117.03
567.52	51.49
567.68	88.94
567.85	53.83
568.01	60.85
568.17	149.79
568.34	86.60
568.50	117.03
568.66	56.17
568.83	98.30
568.99	0.00
569.15	126.39
569.32	53.83
569.48	77.24
569.64	112.35
569.81	114.69
569.97	105.32
570.13	30.43
570.30	37.45
570.46	88.94
570.62	60.85
570.78	84.26
570.95	7.02
571.11	46.81
571.27	35.11
571.43	44.47
571.60	198.95
571.76	86.60
571.92	16.38
572.09	67.88
572.25	53.83
572.41	28.09
572.57	105.32
572.74	86.60
572.90	63.19
573.06	74.90
573.22	93.62
573.38	159.16
573.55	131.07
573.71	25.75
573.87	53.83
574.03	84.26
574.20	21.06
574.36	140.43
574.52	58.51
574.68	140.43
574.84	79.58
575.01	65.54
575.17	86.60
575.33	72.56
575.49	81.92
575.65	11.70
575.82	14.04
575.98	30.43
576.14	72.56
576.30	173.20
576.46	42.13
576.62	35.11
576.79	107.66
576.95	88.94
577.11	236.39
577.27	51.49
577.43	67.88
577.59	133.41
577.75	98.30
577.92	84.26
578.08	46.81
578.24	128.73
578.40	91.28
578.56	53.83
578.72	110.01
578.88	84.26
579.04	161.50
579.21	0.00
579.37	91.28
579.53	112.35
579.69	46.81
579.85	95.96
580.01	81.92
580.17	18.72
580.33	70.22
580.49	60.85
580.65	46.81
580.82	30.43
580.98	28.09
581.14	63.19
581.30	112.35
581.46	77.24
581.62	126.39
581.78	0.00
581.94	112.35
582.10	88.94
582.26	102.98
582.42	28.09
582.58	86.60
582.74	46.81
582.90	42.13
583.06	117.03
583.22	154.48
583.38	131.07
583.54	138.09
583.70	126.39
583.86	93.62
584.02	49.15
584.18	35.11
584.34	51.49
584.50	67.88
584.66	100.64
584.82	93.62
584.98	58.51
585.14	110.01
585.30	72.56
585.46	0.00
585.62	84.26
585.78	42.13
585.94	98.30
586.10	7.02
586.26	88.94
586.42	121.71
586.58	53.83
586.74	70.22
586.90	60.85
587.06	51.49
587.22	77.24
587.38	67.88
587.54	32.77
587.70	7.02
587.86	60.85
588.02	98.30
588.18	93.62
588.34	53.83
588.49	74.90
588.65	84.26
588.81	21.06
588.97	65.54
589.13	37.45
589.29	110.01
589.45	105.32
589.61	88.94
589.77	63.19
589.93	21.06
590.08	49.15
590.24	42.13
590.40	131.07
590.56	23.41
590.72	93.62
590.88	30.43
591.04	67.88
591.20	58.51
591.35	110.01
591.51	0.00
591.67	93.62
591.83	114.69
591.99	88.94
592.15	49.15
592.31	63.19
592.46	67.88
592.62	51.49
592.78	30.43
592.94	126.39
593.10	53.83
593.26	98.30
593.41	114.69
593.57	0.00
593.73	35.11
593.89	63.19
594.05	74.90
594.20	86.60
594.36	95.96
594.52	30.43
594.68	11.70
594.84	35.11
594.99	63.19
595.15	93.62
595.31	126.39
595.47	77.24
595.62	30.43
595.78	65.54
595.94	51.49
596.10	77.24
596.25	35.11
596.41	44.47
596.57	70.22
596.73	72.56
596.88	51.49
597.04	72.56
597.20	56.17
597.36	63.19
597.51	88.94
597.67	11.70
597.83	65.54
597.99	112.35
598.14	53.83
598.30	126.39
598.46	65.54
598.61	42.13
598.77	114.69
598.93	60.85
599.09	35.11
599.24	49.15
599.40	86.60
599.56	84.26
599.71	102.98
599.87	30.43
600.03	60.85
600.18	46.81
600.34	119.37
600.50	60.85
600.65	35.11
600.81	32.77
600.97	37.45
601.12	35.11
601.28	95.96
601.44	91.28
601.59	60.85
601.75	100.64
601.91	51.49
602.06	74.90
602.22	25.75
602.37	46.81
602.53	16.38
602.69	53.83
602.84	138.09
603.00	63.19
603.16	65.54
603.31	56.17
603.47	102.98
603.62	88.94
603.78	21.06
603.94	112.35
604.09	56.17
604.25	86.60
604.40	51.49
604.56	23.41
604.71	168.52
604.87	110.01
605.03	67.88
605.18	51.49
605.34	84.26
605.49	107.66
605.65	53.83
605.80	74.90
605.96	28.09
606.12	21.06
606.27	67.88
606.43	112.35
606.58	25.75
606.74	138.09
606.89	95.96
607.05	93.62
607.20	65.54
607.36	107.66
607.51	49.15
607.67	117.03
607.82	128.73
607.98	84.26
608.13	142.77
608.29	63.19
608.44	0.00
608.60	49.15
608.75	30.43
608.91	58.51
609.06	51.49
609.22	32.77
609.37	46.81
609.53	88.94
609.68	42.13
609.84	60.85
609.99	86.60
610.15	124.05
610.30	56.17
610.46	63.19
610.61	154.48
610.76	32.77
610.92	119.37
611.07	49.15
611.23	42.13
611.38	32.77
611.54	58.51
611.69	65.54
611.84	58.51
612.00	95.96
612.15	51.49
612.31	14.04
612.46	42.13
612.62	65.54
612.77	140.43
612.92	58.51
613.08	74.90
613.23	79.58
613.39	46.81
613.54	77.24
613.69	126.39
613.85	58.51
614.00	100.64
614.15	28.09
614.31	79.58
614.46	56.17
614.62	11.70
614.77	49.15
614.92	77.24
615.08	112.35
615.23	51.49
615.38	56.17
615.54	152.13
615.69	51.49
615.84	44.47
616.00	14.04
616.15	105.32
616.30	7.02
616.46	23.41
616.61	72.56
616.76	2.34
616.92	0.00
617.07	42.13
617.22	81.92
617.37	65.54
617.53	53.83
617.68	107.66
617.83	0.00
617.99	32.77
618.14	51.49
618.29	100.64
618.45	154.48
618.60	91.28
618.75	91.28
618.90	138.09
619.06	63.19
619.21	60.85
619.36	84.26
619.51	105.32
619.67	91.28
619.82	32.77
619.97	81.92
620.12	88.94
620.28	4.68
620.43	30.43
620.58	65.54
620.73	46.81
620.89	74.90
621.04	110.01
621.19	77.24
621.34	63.19
621.49	145.11
621.65	35.11
621.80	84.26
621.95	46.81
622.10	107.66
622.25	74.90
622.41	65.54
622.56	112.35
622.71	58.51
622.86	105.32
623.01	46.81
623.16	39.79
623.32	16.38
623.47	105.32
623.62	0.00
623.77	0.00
623.92	72.56
624.07	107.66
624.23	9.36
624.38	63.19
624.53	67.88
624.68	44.47
624.83	39.79
624.98	98.30
625.13	95.96
625.29	60.85
625.44	46.81
625.59	44.47
625.74	79.58
625.89	74.90
626.04	133.41
626.19	49.15
626.34	79.58
626.49	79.58
626.65	32.77
626.80	72.56
626.95	56.17
627.10	46.81
627.25	32.77
627.40	121.71
627.55	72.56
627.70	84.26
627.85	86.60
628.00	72.56
628.15	72.56
628.30	37.45
628.45	86.60
628.60	37.45
628.76	67.88
628.91	44.47
629.06	65.54
629.21	65.54
629.36	0.00
629.51	86.60
629.66	84.26
629.81	79.58
629.96	18.72
630.11	37.45
630.26	79.58
630.41	58.51
630.56	107.66
630.71	53.83
630.86	51.49
631.01	25.75
631.16	58.51
631.31	9.36
631.46	42.13
631.61	93.62
631.76	21.06
631.91	63.19
632.06	11.70
632.21	46.81
632.36	91.28
632.51	37.45
632.66	30.43
632.81	44.47
632.96	14.04
633.10	46.81
633.25	72.56
633.40	9.36
633.55	7.02
633.70	56.17
633.85	37.45
634.00	23.41
634.15	63.19
634.30	121.71
634.45	30.43
634.60	0.00
634.75	81.92
634.90	32.77
635.05	117.03
635.19	58.51
635.34	23.41
635.49	30.43
635.64	81.92
635.79	93.62
635.94	77.24
636.09	133.41
636.24	21.06
636.39	77.24
636.53	117.03
636.68	74.90
636.83	65.54
636.98	88.94
637.13	30.43
637.28	105.32
637.43	79.58
637.57	9.36
637.72	60.85
637.87	110.01
638.02	81.92
638.17	81.92
638.32	147.45
638.46	72.56
638.61	11.70
638.76	32.77
638.91	84.26
639.06	0.00
639.20	32.77
639.35	51.49
639.50	4.68
639.65	60.85
639.80	44.47
639.94	56.17
640.09	110.01
640.24	95.96
640.39	44.47
640.54	86.60
640.68	46.81
640.83	72.56
640.98	0.00
641.13	11.70
641.27	58.51
641.42	58.51
641.57	72.56
641.72	16.38
641.86	74.90
642.01	2.34
642.16	37.45
642.31	119.37
642.45	16.38
642.60	23.41
642.75	98.30
642.90	0.00
643.04	105.32
643.19	77.24
643.34	65.54
643.48	93.62
643.63	30.43
643.78	46.81
643.93	60.85
644.07	74.90
644.22	77.24
644.37	107.66
644.51	74.90
644.66	84.26
644.81	16.38
644.95	121.71
645.10	51.49
645.25	32.77
645.39	63.19
645.54	79.58
645.69	4.68
645.83	60.85
645.98	63.19
646.13	107.66
646.27	74.90
646.42	18.72
646.57	39.79
646.71	39.79
646.86	0.00
647.00	7.02
647.15	56.17
647.30	65.54
647.44	126.39
647.59	11.70
647.74	39.79
647.88	63.19
648.03	110.01
648.17	95.96
648.32	0.00
648.47	65.54
648.61	35.11
648.76	72.56
648.90	117.03
649.05	56.17
649.20	2.34
649.34	67.88
649.49	18.72
649.63	72.56
649.78	58.51
649.92	44.47
650.07	81.92
650.21	30.43
650.36	44.47
650.51	2.34
650.65	35.11
650.80	35.11
650.94	9.36
651.09	49.15
651.23	30.43
651.38	16.38
651.52	9.36
651.67	72.56
651.81	112.35
651.96	72.56
652.10	98.30
652.25	37.45
652.39	63.19
652.54	0.00
652.68	95.96
652.83	21.06
652.97	37.45
653.12	21.06
653.26	70.22
653.41	39.79
653.55	37.45
653.70	44.47
653.84	37.45
653.99	37.45
654.13	37.45
654.27	35.11
654.42	65.54
654.56	0.00
654.71	42.13
654.85	56.17
655.00	98.30
655.14	79.58
655.29	18.72
655.43	39.79
655.57	124.05
655.72	21.06
655.86	95.96
656.01	88.94
656.15	79.58
656.30	25.75
656.44	77.24
656.58	51.49
656.73	65.54
656.87	0.00
657.01	95.96
657.16	65.54
657.30	0.00
657.45	70.22
657.59	56.17
657.73	56.17
657.88	18.72
658.02	14.04
658.16	100.64
658.31	39.79
658.45	42.13
658.60	91.28
658.74	98.30
658.88	72.56
659.03	0.00
659.17	74.90
659.31	39.79
659.46	14.04
659.60	42.13
659.74	0.00
659.89	67.88
660.03	53.83
660.17	86.60
660.32	67.88
660.46	72.56
660.60	93.62
660.74	53.83
660.89	16.38
661.03	0.00
661.17	14.04
661.32	35.11
661.46	21.06
661.60	14.04
661.74	121.71
661.89	105.32
662.03	25.75
662.17	39.79
662.31	46.81
662.46	93.62
662.60	23.41
662.74	58.51
662.88	72.56
663.03	37.45
663.17	32.77
663.31	25.75
663.45	81.92
663.60	58.51
663.74	95.96
663.88	100.64
664.02	56.17
664.17	86.60
664.31	0.00
664.45	21.06
664.59	42.13
664.73	11.70
664.88	152.13
665.02	107.66
665.16	18.72
665.30	67.88
665.44	79.58
665.59	112.35
665.73	70.22
665.87	63.19
666.01	63.19
666.15	18.72
666.29	46.81
666.44	51.49
666.58	0.00
666.72	23.41
666.86	0.00
667.00	112.35
667.14	84.26
667.28	65.54
667.43	4.68
667.57	98.30
667.71	81.92
667.85	0.00
667.99	56.17
668.13	14.04
668.27	84.26
668.41	86.60
668.56	107.66
668.70	140.43
668.84	56.17
668.98	7.02
669.12	42.13
669.26	88.94
669.40	0.00
669.54	11.70
669.68	56.17
669.82	86.60
669.96	14.04
670.10	60.85
670.25	65.54
670.39	0.00
670.53	39.79
670.67	0.00
670.81	28.09
670.95	30.43
671.09	65.54
671.23	67.88
671.37	44.47
671.51	35.11
671.65	77.24
671.79	84.26
671.93	46.81
672.07	28.09
672.21	32.77
672.35	65.54
672.49	63.19
672.63	21.06
672.77	46.81
672.91	37.45
673.05	32.77
673.19	37.45
673.33	49.15
673.47	74.90
673.61	86.60
673.75	44.47
673.89	81.92
674.03	0.00
674.17	98.30
674.31	81.92
674.45	11.70
674.59	77.24
674.73	32.77
674.87	51.49
675.01	32.77
675.15	4.68
675.29	79.58
675.43	56.17
675.56	65.54
675.70	65.54
675.84	7.02
675.98	86.60
676.12	86.60
676.26	23.41
676.40	72.56
676.54	18.72
676.68	53.83
676.82	0.00
676.96	25.75
677.10	56.17
677.23	44.47
677.37	81.92
677.51	60.85
677.65	0.00
677.79	28.09
677.93	119.37
678.07	30.43
678.21	23.41
678.34	18.72
678.48	58.51
678.62	91.28
678.76	0.00
678.90	51.49
679.04	46.81
679.18	4.68
679.31	70.22
679.45	63.19
679.59	0.00
679.73	37.45
679.87	51.49
680.00	46.81
680.14	84.26
680.28	23.41
680.42	42.13
680.56	30.43
680.70	84.26
680.83	65.54
680.97	21.06
681.11	14.04
681.25	126.39
681.39	56.17
681.52	77.24
681.66	37.45
681.80	30.43
681.94	100.64
682.07	39.79
682.21	81.92
682.35	2.34
682.49	39.79
682.62	0.00
682.76	81.92
682.90	74.90
683.04	56.17
683.17	67.88
683.31	42.13
683.45	30.43
683.59	95.96
683.72	0.00
683.86	0.00
684.00	0.00
684.13	60.85
684.27	84.26
684.41	93.62
684.55	35.11
684.68	0.00
684.82	63.19
684.96	53.83
685.09	35.11
685.23	42.13
685.37	0.00
685.50	58.51
685.64	0.00
685.78	60.85
685.91	58.51
686.05	37.45
686.19	14.04
686.32	35.11
686.46	0.00
686.60	58.51
686.73	25.75
686.87	117.03
687.01	11.70
687.14	70.22
687.28	32.77
687.42	81.92
687.55	39.79
687.69	51.49
687.82	0.00
687.96	60.85
688.10	60.85
688.23	0.00
688.37	98.30
688.50	30.43
688.64	49.15
688.78	81.92
688.91	9.36
689.05	81.92
689.18	21.06
689.32	0.00
689.46	0.00
689.59	72.56
689.73	37.45
689.86	0.00
690.00	25.75
690.13	0.00
690.27	42.13
690.41	60.85
690.54	88.94
690.68	37.45
690.81	46.81
690.95	39.79
691.08	63.19
691.22	4.68
691.35	77.24
691.49	9.36
691.62	93.62
691.76	44.47
691.89	32.77
692.03	70.22
692.16	11.70
692.30	49.15
692.43	32.77
692.57	105.32
692.70	0.00
692.84	39.79
692.97	35.11
693.11	79.58
693.24	23.41
693.38	37.45
693.51	23.41
693.65	65.54
693.78	60.85
693.92	28.09
694.05	100.64
694.19	56.17
694.32	37.45
694.45	49.15
694.59	11.70
694.72	0.00
694.86	0.00
694.99	65.54
695.13	42.13
695.26	9.36
695.39	72.56
695.53	77.24
695.66	32.77
695.80	0.00
695.93	2.34
696.07	37.45
696.20	7.02
696.33	0.00
696.47	11.70
696.60	23.41
696.73	102.98
696.87	98.30
697.00	35.11
697.14	37.45
697.27	0.00
697.40	35.11
697.54	21.06
697.67	23.41
697.80	21.06
697.94	56.17
698.07	21.06
698.21	53.83
698.34	25.75
698.47	21.06
698.61	9.36
698.74	28.09
698.87	9.36
699.01	0.00
699.14	91.28
699.27	0.00
699.40	37.45
699.54	28.09
699.67	49.15
699.80	67.88
699.94	0.00
700.07	39.79
700.20	32.77
700.34	42.13
700.47	63.19
700.60	0.00
700.73	110.01
700.87	102.98
701.00	0.00
701.13	18.72
701.26	93.62
701.40	39.79
701.53	51.49
701.66	32.77
701.79	35.11
701.93	79.58
702.06	88.94
702.19	100.64
702.32	21.06
702.46	32.77
702.59	81.92
702.72	14.04
702.85	30.43
702.99	86.60
703.12	49.15
703.25	16.38
703.38	58.51
703.51	14.04
703.65	0.00
703.78	0.00
703.91	42.13
704.04	37.45
704.17	44.47
704.31	0.00
704.44	16.38
704.57	93.62
704.70	72.56
704.83	9.36
704.96	0.00
705.10	49.15
705.23	0.00
>>>>>End Processed Spectral Data<<<<<
