SpectraSuite Data File
++++++++++++++++++++++++++++++++++++
Date: Fri Oct 04 12:13:45 GMT-05:00 2013
User: price-jones
Dark Spectrum Present: No
Reference Spectrum Present: No
Number of Sampled Component Spectra: 1
Spectrometers: USB2+H05261
Integration Time (usec): 10000 (USB2+H05261)
Spectra Averaged: 1 (USB2+H05261)
Boxcar Smoothing: 0 (USB2+H05261)
Correct for Electrical Dark: No (USB2+H05261)
Strobe/Lamp Enabled: No (USB2+H05261)
Correct for Detector Non-linearity: No (USB2+H05261)
Correct for Stray Light: No (USB2+H05261)
Number of Pixels in Processed Spectrum: 2048
>>>>>Begin Processed Spectral Data<<<<<
365.73	0.00
365.92	0.00
366.12	0.00
366.32	0.00
366.52	0.00
366.72	0.00
366.91	0.00
367.11	0.00
367.31	0.00
367.51	0.00
367.70	0.00
367.90	0.00
368.10	0.00
368.30	0.00
368.49	0.00
368.69	0.00
368.89	0.00
369.09	0.00
369.28	0.00
369.48	0.00
369.68	0.00
369.87	0.00
370.07	0.00
370.27	0.00
370.47	0.00
370.66	0.00
370.86	0.00
371.06	0.00
371.25	0.00
371.45	0.00
371.65	16.38
371.84	14.04
372.04	0.00
372.24	0.00
372.44	0.00
372.63	4.68
372.83	18.72
373.03	60.85
373.22	74.90
373.42	0.00
373.62	0.00
373.81	88.94
374.01	42.13
374.21	0.00
374.40	0.00
374.60	39.79
374.79	16.38
374.99	0.00
375.19	74.90
375.38	67.88
375.58	74.90
375.78	0.00
375.97	23.41
376.17	0.00
376.37	114.69
376.56	0.00
376.76	79.58
376.95	32.77
377.15	9.36
377.35	0.00
377.54	25.75
377.74	42.13
377.93	51.49
378.13	65.54
378.33	88.94
378.52	0.00
378.72	30.43
378.91	72.56
379.11	81.92
379.31	35.11
379.50	0.00
379.70	51.49
379.89	25.75
380.09	28.09
380.28	44.47
380.48	16.38
380.68	16.38
380.87	37.45
381.07	25.75
381.26	0.00
381.46	7.02
381.65	4.68
381.85	23.41
382.04	9.36
382.24	2.34
382.43	28.09
382.63	39.79
382.83	37.45
383.02	14.04
383.22	44.47
383.41	0.00
383.61	25.75
383.80	0.00
384.00	28.09
384.19	74.90
384.39	49.15
384.58	18.72
384.78	0.00
384.97	0.00
385.17	44.47
385.36	28.09
385.56	0.00
385.75	39.79
385.95	0.00
386.14	28.09
386.34	0.00
386.53	72.56
386.72	0.00
386.92	84.26
387.11	37.45
387.31	4.68
387.50	121.71
387.70	74.90
387.89	0.00
388.09	37.45
388.28	0.00
388.48	7.02
388.67	0.00
388.86	9.36
389.06	11.70
389.25	51.49
389.45	81.92
389.64	81.92
389.84	39.79
390.03	0.00
390.22	49.15
390.42	23.41
390.61	72.56
390.81	16.38
391.00	67.88
391.19	58.51
391.39	0.00
391.58	42.13
391.78	37.45
391.97	0.00
392.16	42.13
392.36	4.68
392.55	42.13
392.75	0.00
392.94	0.00
393.13	14.04
393.33	0.00
393.52	53.83
393.71	30.43
393.91	11.70
394.10	32.77
394.29	18.72
394.49	21.06
394.68	60.85
394.88	4.68
395.07	35.11
395.26	44.47
395.46	39.79
395.65	39.79
395.84	42.13
396.04	18.72
396.23	0.00
396.42	4.68
396.62	0.00
396.81	30.43
397.00	102.98
397.19	25.75
397.39	16.38
397.58	95.96
397.77	0.00
397.97	0.00
398.16	2.34
398.35	28.09
398.55	0.00
398.74	0.00
398.93	0.00
399.12	44.47
399.32	58.51
399.51	100.64
399.70	0.00
399.90	0.00
400.09	46.81
400.28	98.30
400.47	0.00
400.67	60.85
400.86	0.00
401.05	0.00
401.24	9.36
401.44	42.13
401.63	72.56
401.82	0.00
402.01	74.90
402.21	18.72
402.40	18.72
402.59	21.06
402.78	0.00
402.97	0.00
403.17	2.34
403.36	65.54
403.55	35.11
403.74	39.79
403.93	37.45
404.13	28.09
404.32	0.00
404.51	74.90
404.70	32.77
404.89	2.34
405.09	25.75
405.28	21.06
405.47	21.06
405.66	0.00
405.85	56.17
406.05	11.70
406.24	30.43
406.43	32.77
406.62	81.92
406.81	70.22
407.00	0.00
407.20	0.00
407.39	39.79
407.58	70.22
407.77	25.75
407.96	4.68
408.15	4.68
408.34	30.43
408.54	30.43
408.73	102.98
408.92	51.49
409.11	63.19
409.30	53.83
409.49	60.85
409.68	44.47
409.87	46.81
410.07	0.00
410.26	16.38
410.45	0.00
410.64	53.83
410.83	35.11
411.02	0.00
411.21	0.00
411.40	39.79
411.59	100.64
411.78	28.09
411.98	28.09
412.17	42.13
412.36	0.00
412.55	42.13
412.74	0.00
412.93	0.00
413.12	37.45
413.31	2.34
413.50	86.60
413.69	51.49
413.88	72.56
414.07	0.00
414.26	28.09
414.45	0.00
414.64	53.83
414.83	0.00
415.02	67.88
415.22	74.90
415.41	93.62
415.60	0.00
415.79	21.06
415.98	42.13
416.17	28.09
416.36	9.36
416.55	9.36
416.74	16.38
416.93	49.15
417.12	0.00
417.31	42.13
417.50	21.06
417.69	53.83
417.88	49.15
418.07	18.72
418.26	49.15
418.45	0.00
418.64	49.15
418.83	0.00
419.02	42.13
419.21	0.00
419.39	23.41
419.58	72.56
419.77	32.77
419.96	49.15
420.15	53.83
420.34	46.81
420.53	0.00
420.72	16.38
420.91	9.36
421.10	35.11
421.29	81.92
421.48	4.68
421.67	0.00
421.86	18.72
422.05	2.34
422.24	35.11
422.43	95.96
422.61	77.24
422.80	18.72
422.99	81.92
423.18	0.00
423.37	0.00
423.56	65.54
423.75	30.43
423.94	51.49
424.13	0.00
424.32	46.81
424.50	42.13
424.69	53.83
424.88	42.13
425.07	121.71
425.26	9.36
425.45	16.38
425.64	67.88
425.83	16.38
426.01	42.13
426.20	37.45
426.39	35.11
426.58	25.75
426.77	0.00
426.96	0.00
427.15	0.00
427.33	0.00
427.52	4.68
427.71	0.00
427.90	28.09
428.09	0.00
428.28	14.04
428.46	30.43
428.65	93.62
428.84	16.38
429.03	77.24
429.22	16.38
429.40	56.17
429.59	16.38
429.78	35.11
429.97	0.00
430.16	51.49
430.34	0.00
430.53	60.85
430.72	42.13
430.91	51.49
431.10	46.81
431.28	37.45
431.47	28.09
431.66	65.54
431.85	39.79
432.03	0.00
432.22	0.00
432.41	30.43
432.60	42.13
432.79	4.68
432.97	16.38
433.16	63.19
433.35	23.41
433.54	14.04
433.72	67.88
433.91	32.77
434.10	0.00
434.28	0.00
434.47	44.47
434.66	7.02
434.85	25.75
435.03	23.41
435.22	49.15
435.41	65.54
435.59	65.54
435.78	25.75
435.97	60.85
436.16	88.94
436.34	16.38
436.53	18.72
436.72	58.51
436.90	84.26
437.09	0.00
437.28	14.04
437.46	93.62
437.65	0.00
437.84	53.83
438.02	30.43
438.21	44.47
438.40	21.06
438.58	42.13
438.77	60.85
438.96	21.06
439.14	32.77
439.33	0.00
439.52	28.09
439.70	88.94
439.89	65.54
440.08	23.41
440.26	0.00
440.45	102.98
440.63	14.04
440.82	135.75
441.01	70.22
441.19	23.41
441.38	0.00
441.57	28.09
441.75	0.00
441.94	28.09
442.12	0.00
442.31	28.09
442.50	18.72
442.68	0.00
442.87	72.56
443.05	4.68
443.24	0.00
443.43	28.09
443.61	58.51
443.80	0.00
443.98	44.47
444.17	0.00
444.35	0.00
444.54	18.72
444.73	60.85
444.91	79.58
445.10	102.98
445.28	51.49
445.47	0.00
445.65	117.03
445.84	21.06
446.02	0.00
446.21	86.60
446.39	37.45
446.58	4.68
446.77	23.41
446.95	84.26
447.14	0.00
447.32	53.83
447.51	72.56
447.69	0.00
447.88	51.49
448.06	0.00
448.25	51.49
448.43	11.70
448.62	7.02
448.80	70.22
448.99	0.00
449.17	28.09
449.36	0.00
449.54	32.77
449.73	0.00
449.91	9.36
450.10	63.19
450.28	77.24
450.46	105.32
450.65	23.41
450.83	0.00
451.02	14.04
451.20	25.75
451.39	23.41
451.57	23.41
451.76	44.47
451.94	65.54
452.13	67.88
452.31	37.45
452.49	32.77
452.68	16.38
452.86	119.37
453.05	72.56
453.23	0.00
453.42	32.77
453.60	39.79
453.78	46.81
453.97	11.70
454.15	70.22
454.34	46.81
454.52	0.00
454.70	63.19
454.89	0.00
455.07	0.00
455.26	0.00
455.44	49.15
455.62	0.00
455.81	91.28
455.99	51.49
456.17	0.00
456.36	121.71
456.54	0.00
456.73	30.43
456.91	0.00
457.09	0.00
457.28	88.94
457.46	16.38
457.64	49.15
457.83	21.06
458.01	0.00
458.19	35.11
458.38	67.88
458.56	4.68
458.74	67.88
458.93	0.00
459.11	63.19
459.29	25.75
459.48	25.75
459.66	86.60
459.84	79.58
460.03	28.09
460.21	84.26
460.39	35.11
460.57	0.00
460.76	0.00
460.94	35.11
461.12	0.00
461.31	16.38
461.49	0.00
461.67	51.49
461.85	0.00
462.04	53.83
462.22	72.56
462.40	51.49
462.59	81.92
462.77	77.24
462.95	84.26
463.13	35.11
463.32	11.70
463.50	7.02
463.68	0.00
463.86	70.22
464.05	28.09
464.23	46.81
464.41	18.72
464.59	0.00
464.78	0.00
464.96	25.75
465.14	0.00
465.32	32.77
465.50	56.17
465.69	42.13
465.87	28.09
466.05	16.38
466.23	4.68
466.41	74.90
466.60	0.00
466.78	46.81
466.96	0.00
467.14	0.00
467.32	35.11
467.51	42.13
467.69	70.22
467.87	42.13
468.05	56.17
468.23	56.17
468.41	56.17
468.60	46.81
468.78	0.00
468.96	0.00
469.14	79.58
469.32	0.00
469.50	32.77
469.69	2.34
469.87	28.09
470.05	25.75
470.23	0.00
470.41	30.43
470.59	44.47
470.77	7.02
470.95	56.17
471.14	65.54
471.32	42.13
471.50	46.81
471.68	44.47
471.86	32.77
472.04	79.58
472.22	2.34
472.40	30.43
472.58	28.09
472.77	58.51
472.95	53.83
473.13	4.68
473.31	30.43
473.49	25.75
473.67	49.15
473.85	49.15
474.03	0.00
474.21	119.37
474.39	51.49
474.57	9.36
474.75	70.22
474.93	63.19
475.12	0.00
475.30	65.54
475.48	4.68
475.66	51.49
475.84	63.19
476.02	46.81
476.20	0.00
476.38	60.85
476.56	37.45
476.74	51.49
476.92	46.81
477.10	0.00
477.28	0.00
477.46	37.45
477.64	35.11
477.82	21.06
478.00	56.17
478.18	56.17
478.36	0.00
478.54	0.00
478.72	32.77
478.90	42.13
479.08	74.90
479.26	79.58
479.44	60.85
479.62	2.34
479.80	79.58
479.98	4.68
480.16	21.06
480.34	4.68
480.52	21.06
480.70	81.92
480.88	86.60
481.06	88.94
481.24	0.00
481.41	28.09
481.59	30.43
481.77	37.45
481.95	0.00
482.13	32.77
482.31	37.45
482.49	7.02
482.67	0.00
482.85	16.38
483.03	81.92
483.21	98.30
483.39	67.88
483.57	16.38
483.74	32.77
483.92	81.92
484.10	44.47
484.28	4.68
484.46	30.43
484.64	30.43
484.82	53.83
485.00	74.90
485.18	32.77
485.35	0.00
485.53	21.06
485.71	39.79
485.89	53.83
486.07	58.51
486.25	39.79
486.43	23.41
486.61	98.30
486.78	35.11
486.96	0.00
487.14	93.62
487.32	39.79
487.50	49.15
487.68	0.00
487.85	44.47
488.03	35.11
488.21	0.00
488.39	18.72
488.57	39.79
488.75	39.79
488.92	77.24
489.10	0.00
489.28	63.19
489.46	91.28
489.64	7.02
489.81	23.41
489.99	42.13
490.17	0.00
490.35	102.98
490.53	60.85
490.70	88.94
490.88	42.13
491.06	42.13
491.24	67.88
491.41	70.22
491.59	0.00
491.77	58.51
491.95	28.09
492.13	21.06
492.30	81.92
492.48	23.41
492.66	56.17
492.84	88.94
493.01	9.36
493.19	9.36
493.37	32.77
493.54	63.19
493.72	58.51
493.90	39.79
494.08	21.06
494.25	18.72
494.43	39.79
494.61	63.19
494.79	39.79
494.96	63.19
495.14	49.15
495.32	9.36
495.49	7.02
495.67	18.72
495.85	39.79
496.02	53.83
496.20	51.49
496.38	42.13
496.55	0.00
496.73	60.85
496.91	126.39
497.09	11.70
497.26	72.56
497.44	18.72
497.62	25.75
497.79	56.17
497.97	23.41
498.14	18.72
498.32	0.00
498.50	77.24
498.67	21.06
498.85	51.49
499.03	84.26
499.20	53.83
499.38	0.00
499.56	79.58
499.73	0.00
499.91	60.85
500.08	51.49
500.26	0.00
500.44	0.00
500.61	58.51
500.79	46.81
500.97	23.41
501.14	9.36
501.32	0.00
501.49	16.38
501.67	7.02
501.84	32.77
502.02	30.43
502.20	39.79
502.37	74.90
502.55	51.49
502.72	0.00
502.90	56.17
503.07	7.02
503.25	65.54
503.43	42.13
503.60	74.90
503.78	51.49
503.95	114.69
504.13	0.00
504.30	0.00
504.48	0.00
504.65	51.49
504.83	23.41
505.01	53.83
505.18	58.51
505.36	37.45
505.53	67.88
505.71	0.00
505.88	142.77
506.06	37.45
506.23	70.22
506.41	63.19
506.58	65.54
506.76	77.24
506.93	42.13
507.11	124.05
507.28	72.56
507.46	0.00
507.63	35.11
507.81	2.34
507.98	44.47
508.16	0.00
508.33	49.15
508.50	42.13
508.68	56.17
508.85	49.15
509.03	46.81
509.20	88.94
509.38	39.79
509.55	56.17
509.73	112.35
509.90	39.79
510.08	46.81
510.25	53.83
510.42	56.17
510.60	121.71
510.77	30.43
510.95	72.56
511.12	0.00
511.30	25.75
511.47	98.30
511.64	98.30
511.82	72.56
511.99	63.19
512.17	21.06
512.34	35.11
512.51	95.96
512.69	88.94
512.86	58.51
513.04	0.00
513.21	51.49
513.38	39.79
513.56	100.64
513.73	0.00
513.90	70.22
514.08	102.98
514.25	23.41
514.43	21.06
514.60	175.54
514.77	63.19
514.95	67.88
515.12	95.96
515.29	58.51
515.47	53.83
515.64	74.90
515.81	30.43
515.99	74.90
516.16	102.98
516.33	28.09
516.51	0.00
516.68	37.45
516.85	39.79
517.03	28.09
517.20	51.49
517.37	60.85
517.54	0.00
517.72	16.38
517.89	91.28
518.06	84.26
518.24	67.88
518.41	110.01
518.58	25.75
518.75	42.13
518.93	18.72
519.10	28.09
519.27	91.28
519.45	18.72
519.62	81.92
519.79	91.28
519.96	4.68
520.14	28.09
520.31	35.11
520.48	25.75
520.65	63.19
520.83	49.15
521.00	77.24
521.17	28.09
521.34	32.77
521.52	63.19
521.69	0.00
521.86	25.75
522.03	93.62
522.20	25.75
522.38	56.17
522.55	58.51
522.72	46.81
522.89	100.64
523.07	74.90
523.24	0.00
523.41	91.28
523.58	42.13
523.75	35.11
523.92	79.58
524.10	72.56
524.27	63.19
524.44	35.11
524.61	0.00
524.78	63.19
524.96	81.92
525.13	2.34
525.30	21.06
525.47	0.00
525.64	35.11
525.81	7.02
525.98	51.49
526.16	4.68
526.33	39.79
526.50	44.47
526.67	46.81
526.84	11.70
527.01	32.77
527.18	58.51
527.36	0.00
527.53	93.62
527.70	4.68
527.87	30.43
528.04	51.49
528.21	0.00
528.38	46.81
528.55	65.54
528.72	0.00
528.89	56.17
529.07	70.22
529.24	42.13
529.41	128.73
529.58	93.62
529.75	0.00
529.92	16.38
530.09	53.83
530.26	35.11
530.43	25.75
530.60	77.24
530.77	77.24
530.94	102.98
531.11	35.11
531.28	53.83
531.46	42.13
531.63	35.11
531.80	42.13
531.97	77.24
532.14	65.54
532.31	39.79
532.48	11.70
532.65	0.00
532.82	65.54
532.99	60.85
533.16	60.85
533.33	51.49
533.50	81.92
533.67	72.56
533.84	88.94
534.01	84.26
534.18	81.92
534.35	70.22
534.52	56.17
534.69	145.11
534.86	39.79
535.03	79.58
535.20	0.00
535.37	84.26
535.54	67.88
535.71	77.24
535.88	14.04
536.05	28.09
536.22	124.05
536.38	35.11
536.55	98.30
536.72	18.72
536.89	119.37
537.06	9.36
537.23	95.96
537.40	65.54
537.57	65.54
537.74	74.90
537.91	0.00
538.08	35.11
538.25	0.00
538.42	30.43
538.59	28.09
538.75	14.04
538.92	91.28
539.09	88.94
539.26	65.54
539.43	0.00
539.60	128.73
539.77	60.85
539.94	81.92
540.11	107.66
540.28	84.26
540.44	65.54
540.61	51.49
540.78	0.00
540.95	58.51
541.12	16.38
541.29	63.19
541.46	37.45
541.62	67.88
541.79	110.01
541.96	7.02
542.13	0.00
542.30	32.77
542.47	60.85
542.63	25.75
542.80	112.35
542.97	18.72
543.14	77.24
543.31	4.68
543.48	53.83
543.64	86.60
543.81	2.34
543.98	60.85
544.15	0.00
544.32	49.15
544.48	93.62
544.65	63.19
544.82	44.47
544.99	0.00
545.16	119.37
545.32	145.11
545.49	14.04
545.66	39.79
545.83	105.32
546.00	11.70
546.16	107.66
546.33	84.26
546.50	74.90
546.67	65.54
546.83	0.00
547.00	84.26
547.17	91.28
547.34	107.66
547.50	21.06
547.67	105.32
547.84	35.11
548.00	0.00
548.17	25.75
548.34	28.09
548.51	131.07
548.67	18.72
548.84	63.19
549.01	58.51
549.18	114.69
549.34	0.00
549.51	67.88
549.68	30.43
549.84	91.28
550.01	42.13
550.18	65.54
550.34	42.13
550.51	30.43
550.68	46.81
550.84	44.47
551.01	37.45
551.18	18.72
551.34	124.05
551.51	35.11
551.68	67.88
551.84	18.72
552.01	53.83
552.18	65.54
552.34	21.06
552.51	81.92
552.68	0.00
552.84	25.75
553.01	79.58
553.18	32.77
553.34	117.03
553.51	84.26
553.67	58.51
553.84	42.13
554.01	0.00
554.17	28.09
554.34	21.06
554.51	77.24
554.67	91.28
554.84	86.60
555.00	51.49
555.17	63.19
555.33	81.92
555.50	56.17
555.67	37.45
555.83	70.22
556.00	154.48
556.16	110.01
556.33	39.79
556.50	91.28
556.66	63.19
556.83	0.00
556.99	35.11
557.16	119.37
557.32	18.72
557.49	30.43
557.65	74.90
557.82	9.36
557.98	67.88
558.15	46.81
558.32	44.47
558.48	65.54
558.65	49.15
558.81	51.49
558.98	138.09
559.14	21.06
559.31	7.02
559.47	65.54
559.64	28.09
559.80	25.75
559.97	72.56
560.13	63.19
560.30	35.11
560.46	93.62
560.63	32.77
560.79	63.19
560.96	44.47
561.12	9.36
561.29	0.00
561.45	51.49
561.61	7.02
561.78	107.66
561.94	60.85
562.11	0.00
562.27	23.41
562.44	0.00
562.60	14.04
562.77	30.43
562.93	46.81
563.10	145.11
563.26	77.24
563.42	28.09
563.59	0.00
563.75	60.85
563.92	32.77
564.08	37.45
564.24	32.77
564.41	74.90
564.57	0.00
564.74	70.22
564.90	93.62
565.07	32.77
565.23	114.69
565.39	88.94
565.56	4.68
565.72	56.17
565.88	30.43
566.05	44.47
566.21	77.24
566.38	44.47
566.54	65.54
566.70	93.62
566.87	98.30
567.03	0.00
567.19	70.22
567.36	56.17
567.52	53.83
567.68	30.43
567.85	0.00
568.01	0.00
568.17	23.41
568.34	32.77
568.50	32.77
568.66	4.68
568.83	88.94
568.99	25.75
569.15	9.36
569.32	70.22
569.48	11.70
569.64	93.62
569.81	105.32
569.97	46.81
570.13	2.34
570.30	79.58
570.46	67.88
570.62	88.94
570.78	67.88
570.95	58.51
571.11	58.51
571.27	81.92
571.43	49.15
571.60	18.72
571.76	0.00
571.92	44.47
572.09	81.92
572.25	0.00
572.41	11.70
572.57	0.00
572.74	49.15
572.90	28.09
573.06	51.49
573.22	51.49
573.38	81.92
573.55	30.43
573.71	79.58
573.87	23.41
574.03	67.88
574.20	74.90
574.36	67.88
574.52	56.17
574.68	0.00
574.84	16.38
575.01	37.45
575.17	79.58
575.33	138.09
575.49	16.38
575.65	44.47
575.82	35.11
575.98	16.38
576.14	107.66
576.30	9.36
576.46	44.47
576.62	44.47
576.79	28.09
576.95	18.72
577.11	51.49
577.27	44.47
577.43	98.30
577.59	0.00
577.75	44.47
577.92	91.28
578.08	25.75
578.24	67.88
578.40	53.83
578.56	65.54
578.72	79.58
578.88	18.72
579.04	102.98
579.21	84.26
579.37	42.13
579.53	46.81
579.69	53.83
579.85	102.98
580.01	21.06
580.17	0.00
580.33	11.70
580.49	63.19
580.65	49.15
580.82	0.00
580.98	58.51
581.14	65.54
581.30	14.04
581.46	37.45
581.62	70.22
581.78	30.43
581.94	65.54
582.10	0.00
582.26	72.56
582.42	7.02
582.58	32.77
582.74	18.72
582.90	35.11
583.06	18.72
583.22	0.00
583.38	23.41
583.54	32.77
583.70	74.90
583.86	86.60
584.02	100.64
584.18	49.15
584.34	86.60
584.50	0.00
584.66	21.06
584.82	0.00
584.98	0.00
585.14	88.94
585.30	65.54
585.46	28.09
585.62	21.06
585.78	79.58
585.94	35.11
586.10	37.45
586.26	131.07
586.42	46.81
586.58	14.04
586.74	16.38
586.90	35.11
587.06	23.41
587.22	30.43
587.38	65.54
587.54	0.00
587.70	39.79
587.86	37.45
588.02	9.36
588.18	16.38
588.34	0.00
588.49	81.92
588.65	0.00
588.81	84.26
588.97	65.54
589.13	23.41
589.29	0.00
589.45	32.77
589.61	37.45
589.77	23.41
589.93	95.96
590.08	21.06
590.24	107.66
590.40	42.13
590.56	16.38
590.72	39.79
590.88	18.72
591.04	93.62
591.20	0.00
591.35	0.00
591.51	60.85
591.67	16.38
591.83	0.00
591.99	46.81
592.15	67.88
592.31	60.85
592.46	21.06
592.62	46.81
592.78	0.00
592.94	65.54
593.10	14.04
593.26	77.24
593.41	0.00
593.57	0.00
593.73	51.49
593.89	39.79
594.05	49.15
594.20	42.13
594.36	58.51
594.52	0.00
594.68	28.09
594.84	4.68
594.99	25.75
595.15	84.26
595.31	56.17
595.47	37.45
595.62	49.15
595.78	37.45
595.94	58.51
596.10	21.06
596.25	53.83
596.41	11.70
596.57	37.45
596.73	0.00
596.88	51.49
597.04	58.51
597.20	88.94
597.36	7.02
597.51	39.79
597.67	102.98
597.83	42.13
597.99	23.41
598.14	37.45
598.30	56.17
598.46	37.45
598.61	53.83
598.77	46.81
598.93	0.00
599.09	60.85
599.24	44.47
599.40	70.22
599.56	58.51
599.71	117.03
599.87	56.17
600.03	21.06
600.18	114.69
600.34	32.77
600.50	25.75
600.65	0.00
600.81	58.51
600.97	53.83
601.12	44.47
601.28	56.17
601.44	56.17
601.59	112.35
601.75	39.79
601.91	21.06
602.06	44.47
602.22	23.41
602.37	11.70
602.53	18.72
602.69	77.24
602.84	30.43
603.00	91.28
603.16	74.90
603.31	51.49
603.47	67.88
603.62	58.51
603.78	42.13
603.94	77.24
604.09	11.70
604.25	44.47
604.40	0.00
604.56	42.13
604.71	58.51
604.87	2.34
605.03	49.15
605.18	44.47
605.34	0.00
605.49	21.06
605.65	0.00
605.80	70.22
605.96	39.79
606.12	0.00
606.27	4.68
606.43	81.92
606.58	46.81
606.74	39.79
606.89	58.51
607.05	25.75
607.20	18.72
607.36	0.00
607.51	65.54
607.67	95.96
607.82	7.02
607.98	53.83
608.13	0.00
608.29	107.66
608.44	79.58
608.60	28.09
608.75	49.15
608.91	46.81
609.06	110.01
609.22	72.56
609.37	28.09
609.53	11.70
609.68	88.94
609.84	0.00
609.99	131.07
610.15	32.77
610.30	32.77
610.46	88.94
610.61	16.38
610.76	49.15
610.92	84.26
611.07	51.49
611.23	98.30
611.38	74.90
611.54	56.17
611.69	28.09
611.84	51.49
612.00	16.38
612.15	70.22
612.31	0.00
612.46	81.92
612.62	0.00
612.77	77.24
612.92	81.92
613.08	0.00
613.23	14.04
613.39	91.28
613.54	23.41
613.69	79.58
613.85	93.62
614.00	56.17
614.15	63.19
614.31	21.06
614.46	49.15
614.62	0.00
614.77	95.96
614.92	0.00
615.08	46.81
615.23	39.79
615.38	21.06
615.54	86.60
615.69	21.06
615.84	39.79
616.00	28.09
616.15	0.00
616.30	0.00
616.46	28.09
616.61	95.96
616.76	58.51
616.92	18.72
617.07	16.38
617.22	53.83
617.37	46.81
617.53	79.58
617.68	4.68
617.83	23.41
617.99	0.00
618.14	11.70
618.29	32.77
618.45	25.75
618.60	11.70
618.75	39.79
618.90	117.03
619.06	0.00
619.21	35.11
619.36	56.17
619.51	35.11
619.67	67.88
619.82	9.36
619.97	56.17
620.12	35.11
620.28	74.90
620.43	63.19
620.58	53.83
620.73	65.54
620.89	0.00
621.04	46.81
621.19	56.17
621.34	14.04
621.49	21.06
621.65	14.04
621.80	135.75
621.95	67.88
622.10	98.30
622.25	53.83
622.41	18.72
622.56	49.15
622.71	0.00
622.86	49.15
623.01	44.47
623.16	7.02
623.32	18.72
623.47	37.45
623.62	30.43
623.77	7.02
623.92	88.94
624.07	39.79
624.23	25.75
624.38	30.43
624.53	39.79
624.68	79.58
624.83	4.68
624.98	91.28
625.13	28.09
625.29	63.19
625.44	46.81
625.59	11.70
625.74	72.56
625.89	98.30
626.04	84.26
626.19	37.45
626.34	16.38
626.49	93.62
626.65	35.11
626.80	51.49
626.95	25.75
627.10	74.90
627.25	102.98
627.40	56.17
627.55	67.88
627.70	0.00
627.85	74.90
628.00	53.83
628.15	14.04
628.30	0.00
628.45	65.54
628.60	77.24
628.76	77.24
628.91	23.41
629.06	124.05
629.21	35.11
629.36	70.22
629.51	35.11
629.66	11.70
629.81	35.11
629.96	39.79
630.11	0.00
630.26	9.36
630.41	9.36
630.56	63.19
630.71	44.47
630.86	0.00
631.01	7.02
631.16	0.00
631.31	0.00
631.46	30.43
631.61	74.90
631.76	25.75
631.91	0.00
632.06	21.06
632.21	0.00
632.36	46.81
632.51	39.79
632.66	16.38
632.81	72.56
632.96	0.00
633.10	35.11
633.25	0.00
633.40	60.85
633.55	105.32
633.70	110.01
633.85	37.45
634.00	95.96
634.15	2.34
634.30	70.22
634.45	28.09
634.60	49.15
634.75	58.51
634.90	0.00
635.05	7.02
635.19	39.79
635.34	14.04
635.49	51.49
635.64	25.75
635.79	98.30
635.94	58.51
636.09	0.00
636.24	25.75
636.39	65.54
636.53	39.79
636.68	7.02
636.83	0.00
636.98	67.88
637.13	63.19
637.28	0.00
637.43	30.43
637.57	0.00
637.72	0.00
637.87	21.06
638.02	9.36
638.17	4.68
638.32	28.09
638.46	51.49
638.61	42.13
638.76	56.17
638.91	21.06
639.06	53.83
639.20	37.45
639.35	39.79
639.50	102.98
639.65	0.00
639.80	70.22
639.94	30.43
640.09	51.49
640.24	91.28
640.39	0.00
640.54	11.70
640.68	30.43
640.83	18.72
640.98	117.03
641.13	39.79
641.27	0.00
641.42	0.00
641.57	51.49
641.72	0.00
641.86	35.11
642.01	46.81
642.16	21.06
642.31	25.75
642.45	0.00
642.60	0.00
642.75	98.30
642.90	7.02
643.04	0.00
643.19	0.00
643.34	4.68
643.48	0.00
643.63	23.41
643.78	7.02
643.93	9.36
644.07	7.02
644.22	58.51
644.37	42.13
644.51	35.11
644.66	28.09
644.81	0.00
644.95	42.13
645.10	60.85
645.25	0.00
645.39	0.00
645.54	14.04
645.69	14.04
645.83	23.41
645.98	30.43
646.13	42.13
646.27	25.75
646.42	0.00
646.57	51.49
646.71	84.26
646.86	21.06
647.00	28.09
647.15	53.83
647.30	0.00
647.44	133.41
647.59	67.88
647.74	42.13
647.88	53.83
648.03	74.90
648.17	39.79
648.32	67.88
648.47	32.77
648.61	37.45
648.76	18.72
648.90	30.43
649.05	35.11
649.20	16.38
649.34	0.00
649.49	18.72
649.63	51.49
649.78	0.00
649.92	70.22
650.07	23.41
650.21	0.00
650.36	18.72
650.51	7.02
650.65	37.45
650.80	60.85
650.94	25.75
651.09	30.43
651.23	7.02
651.38	4.68
651.52	23.41
651.67	30.43
651.81	107.66
651.96	65.54
652.10	67.88
652.25	32.77
652.39	46.81
652.54	79.58
652.68	102.98
652.83	11.70
652.97	23.41
653.12	28.09
653.26	53.83
653.41	53.83
653.55	63.19
653.70	0.00
653.84	53.83
653.99	60.85
654.13	14.04
654.27	0.00
654.42	161.50
654.56	35.11
654.71	32.77
654.85	32.77
655.00	23.41
655.14	25.75
655.29	35.11
655.43	0.00
655.57	81.92
655.72	0.00
655.86	58.51
656.01	0.00
656.15	49.15
656.30	39.79
656.44	4.68
656.58	42.13
656.73	14.04
656.87	74.90
657.01	4.68
657.16	42.13
657.30	28.09
657.45	25.75
657.59	0.00
657.73	2.34
657.88	60.85
658.02	21.06
658.16	0.00
658.31	30.43
658.45	39.79
658.60	74.90
658.74	42.13
658.88	30.43
659.03	25.75
659.17	114.69
659.31	79.58
659.46	4.68
659.60	67.88
659.74	51.49
659.89	37.45
660.03	86.60
660.17	49.15
660.32	0.00
660.46	93.62
660.60	30.43
660.74	30.43
660.89	0.00
661.03	53.83
661.17	2.34
661.32	0.00
661.46	21.06
661.60	51.49
661.74	135.75
661.89	98.30
662.03	37.45
662.17	42.13
662.31	100.64
662.46	88.94
662.60	49.15
662.74	18.72
662.88	77.24
663.03	46.81
663.17	107.66
663.31	25.75
663.45	25.75
663.60	56.17
663.74	74.90
663.88	37.45
664.02	49.15
664.17	112.35
664.31	56.17
664.45	30.43
664.59	0.00
664.73	16.38
664.88	7.02
665.02	53.83
665.16	60.85
665.30	35.11
665.44	2.34
665.59	35.11
665.73	124.05
665.87	25.75
666.01	11.70
666.15	32.77
666.29	0.00
666.44	51.49
666.58	53.83
666.72	30.43
666.86	23.41
667.00	14.04
667.14	0.00
667.28	42.13
667.43	58.51
667.57	21.06
667.71	0.00
667.85	93.62
667.99	77.24
668.13	63.19
668.27	70.22
668.41	53.83
668.56	110.01
668.70	63.19
668.84	126.39
668.98	58.51
669.12	0.00
669.26	51.49
669.40	65.54
669.54	9.36
669.68	0.00
669.82	37.45
669.96	42.13
670.10	21.06
670.25	77.24
670.39	0.00
670.53	18.72
670.67	0.00
670.81	0.00
670.95	0.00
671.09	32.77
671.23	112.35
671.37	0.00
671.51	0.00
671.65	95.96
671.79	65.54
671.93	77.24
672.07	53.83
672.21	0.00
672.35	0.00
672.49	0.00
672.63	60.85
672.77	63.19
672.91	16.38
673.05	44.47
673.19	16.38
673.33	4.68
673.47	4.68
673.61	51.49
673.75	46.81
673.89	81.92
674.03	56.17
674.17	0.00
674.31	91.28
674.45	53.83
674.59	18.72
674.73	79.58
674.87	0.00
675.01	32.77
675.15	51.49
675.29	149.79
675.43	67.88
675.56	91.28
675.70	9.36
675.84	63.19
675.98	77.24
676.12	2.34
676.26	21.06
676.40	119.37
676.54	0.00
676.68	4.68
676.82	0.00
676.96	16.38
677.10	46.81
677.23	51.49
677.37	49.15
677.51	74.90
677.65	72.56
677.79	0.00
677.93	46.81
678.07	25.75
678.21	79.58
678.34	84.26
678.48	0.00
678.62	0.00
678.76	72.56
678.90	56.17
679.04	0.00
679.18	42.13
679.31	16.38
679.45	21.06
679.59	56.17
679.73	30.43
679.87	86.60
680.00	42.13
680.14	65.54
680.28	35.11
680.42	63.19
680.56	79.58
680.70	2.34
680.83	14.04
680.97	74.90
681.11	0.00
681.25	44.47
681.39	79.58
681.52	51.49
681.66	65.54
681.80	37.45
681.94	0.00
682.07	28.09
682.21	25.75
682.35	4.68
682.49	51.49
682.62	0.00
682.76	16.38
682.90	23.41
683.04	44.47
683.17	42.13
683.31	0.00
683.45	21.06
683.59	44.47
683.72	0.00
683.86	4.68
684.00	25.75
684.13	35.11
684.27	23.41
684.41	53.83
684.55	0.00
684.68	30.43
684.82	65.54
684.96	4.68
685.09	9.36
685.23	42.13
685.37	0.00
685.50	51.49
685.64	39.79
685.78	74.90
685.91	35.11
686.05	35.11
686.19	16.38
686.32	58.51
686.46	0.00
686.60	60.85
686.73	93.62
686.87	32.77
687.01	79.58
687.14	72.56
687.28	0.00
687.42	67.88
687.55	37.45
687.69	4.68
687.82	16.38
687.96	0.00
688.10	117.03
688.23	39.79
688.37	2.34
688.50	72.56
688.64	18.72
688.78	88.94
688.91	138.09
689.05	0.00
689.18	18.72
689.32	53.83
689.46	35.11
689.59	25.75
689.73	93.62
689.86	49.15
690.00	65.54
690.13	0.00
690.27	0.00
690.41	4.68
690.54	42.13
690.68	7.02
690.81	14.04
690.95	0.00
691.08	18.72
691.22	35.11
691.35	95.96
691.49	35.11
691.62	63.19
691.76	23.41
691.89	58.51
692.03	9.36
692.16	18.72
692.30	14.04
692.43	32.77
692.57	0.00
692.70	0.00
692.84	77.24
692.97	21.06
693.11	88.94
693.24	39.79
693.38	30.43
693.51	16.38
693.65	0.00
693.78	56.17
693.92	0.00
694.05	72.56
694.19	32.77
694.32	49.15
694.45	56.17
694.59	0.00
694.72	0.00
694.86	11.70
694.99	37.45
695.13	0.00
695.26	11.70
695.39	0.00
695.53	14.04
695.66	51.49
695.80	93.62
695.93	128.73
696.07	56.17
696.20	35.11
696.33	72.56
696.47	32.77
696.60	65.54
696.73	44.47
696.87	35.11
697.00	0.00
697.14	23.41
697.27	81.92
697.40	49.15
697.54	0.00
697.67	25.75
697.80	63.19
697.94	51.49
698.07	9.36
698.21	0.00
698.34	95.96
698.47	30.43
698.61	110.01
698.74	95.96
698.87	0.00
699.01	9.36
699.14	42.13
699.27	18.72
699.40	25.75
699.54	72.56
699.67	65.54
699.80	2.34
699.94	0.00
700.07	51.49
700.20	0.00
700.34	0.00
700.47	44.47
700.60	65.54
700.73	0.00
700.87	60.85
701.00	93.62
701.13	0.00
701.26	0.00
701.40	46.81
701.53	14.04
701.66	21.06
701.79	81.92
701.93	14.04
702.06	2.34
702.19	16.38
702.32	0.00
702.46	39.79
702.59	107.66
702.72	53.83
702.85	0.00
702.99	133.41
703.12	107.66
703.25	112.35
703.38	9.36
703.51	0.00
703.65	0.00
703.78	74.90
703.91	63.19
704.04	0.00
704.17	23.41
704.31	81.92
704.44	74.90
704.57	25.75
704.70	18.72
704.83	32.77
704.96	0.00
705.10	42.13
705.23	35.11
>>>>>End Processed Spectral Data<<<<<
