SpectraSuite Data File
++++++++++++++++++++++++++++++++++++
Date: Fri Oct 04 12:13:32 GMT-05:00 2013
User: price-jones
Dark Spectrum Present: No
Reference Spectrum Present: No
Number of Sampled Component Spectra: 1
Spectrometers: USB2+H05261
Integration Time (usec): 10000 (USB2+H05261)
Spectra Averaged: 1 (USB2+H05261)
Boxcar Smoothing: 0 (USB2+H05261)
Correct for Electrical Dark: No (USB2+H05261)
Strobe/Lamp Enabled: No (USB2+H05261)
Correct for Detector Non-linearity: No (USB2+H05261)
Correct for Stray Light: No (USB2+H05261)
Number of Pixels in Processed Spectrum: 2048
>>>>>Begin Processed Spectral Data<<<<<
365.73	32.77
365.92	32.77
366.12	32.77
366.32	0.00
366.52	0.00
366.72	0.00
366.91	0.00
367.11	0.00
367.31	0.00
367.51	0.00
367.70	0.00
367.90	0.00
368.10	0.00
368.30	0.00
368.49	0.00
368.69	0.00
368.89	0.00
369.09	0.00
369.28	0.00
369.48	0.00
369.68	0.00
369.87	0.00
370.07	0.00
370.27	0.00
370.47	0.00
370.66	0.00
370.86	0.00
371.06	0.00
371.25	0.00
371.45	2.34
371.65	25.75
371.84	0.00
372.04	21.06
372.24	32.77
372.44	2.34
372.63	0.00
372.83	23.41
373.03	0.00
373.22	23.41
373.42	84.26
373.62	23.41
373.81	0.00
374.01	21.06
374.21	44.47
374.40	74.90
374.60	0.00
374.79	49.15
374.99	28.09
375.19	0.00
375.38	9.36
375.58	25.75
375.78	95.96
375.97	42.13
376.17	35.11
376.37	7.02
376.56	0.00
376.76	30.43
376.95	4.68
377.15	23.41
377.35	72.56
377.54	0.00
377.74	49.15
377.93	21.06
378.13	84.26
378.33	23.41
378.52	53.83
378.72	0.00
378.91	0.00
379.11	11.70
379.31	63.19
379.50	42.13
379.70	0.00
379.89	46.81
380.09	0.00
380.28	0.00
380.48	11.70
380.68	0.00
380.87	21.06
381.07	21.06
381.26	0.00
381.46	39.79
381.65	86.60
381.85	56.17
382.04	42.13
382.24	32.77
382.43	39.79
382.63	46.81
382.83	0.00
383.02	0.00
383.22	25.75
383.41	102.98
383.61	9.36
383.80	14.04
384.00	35.11
384.19	30.43
384.39	81.92
384.58	23.41
384.78	44.47
384.97	65.54
385.17	30.43
385.36	65.54
385.56	46.81
385.75	25.75
385.95	0.00
386.14	0.00
386.34	42.13
386.53	32.77
386.72	39.79
386.92	14.04
387.11	39.79
387.31	65.54
387.50	0.00
387.70	21.06
387.89	0.00
388.09	49.15
388.28	21.06
388.48	67.88
388.67	63.19
388.86	56.17
389.06	58.51
389.25	42.13
389.45	11.70
389.64	63.19
389.84	56.17
390.03	79.58
390.22	16.38
390.42	11.70
390.61	51.49
390.81	42.13
391.00	25.75
391.19	95.96
391.39	28.09
391.58	30.43
391.78	95.96
391.97	46.81
392.16	18.72
392.36	0.00
392.55	21.06
392.75	0.00
392.94	70.22
393.13	0.00
393.33	0.00
393.52	56.17
393.71	70.22
393.91	35.11
394.10	46.81
394.29	37.45
394.49	105.32
394.68	32.77
394.88	25.75
395.07	4.68
395.26	42.13
395.46	93.62
395.65	28.09
395.84	0.00
396.04	58.51
396.23	0.00
396.42	30.43
396.62	95.96
396.81	51.49
397.00	23.41
397.19	14.04
397.39	51.49
397.58	39.79
397.77	16.38
397.97	44.47
398.16	37.45
398.35	23.41
398.55	14.04
398.74	14.04
398.93	0.00
399.12	14.04
399.32	18.72
399.51	21.06
399.70	0.00
399.90	65.54
400.09	51.49
400.28	23.41
400.47	77.24
400.67	81.92
400.86	0.00
401.05	18.72
401.24	16.38
401.44	28.09
401.63	0.00
401.82	0.00
402.01	14.04
402.21	39.79
402.40	0.00
402.59	42.13
402.78	53.83
402.97	14.04
403.17	0.00
403.36	60.85
403.55	79.58
403.74	0.00
403.93	32.77
404.13	102.98
404.32	70.22
404.51	0.00
404.70	28.09
404.89	42.13
405.09	74.90
405.28	23.41
405.47	25.75
405.66	14.04
405.85	72.56
406.05	51.49
406.24	23.41
406.43	42.13
406.62	35.11
406.81	63.19
407.00	0.00
407.20	39.79
407.39	2.34
407.58	0.00
407.77	0.00
407.96	0.00
408.15	18.72
408.34	0.00
408.54	30.43
408.73	30.43
408.92	58.51
409.11	0.00
409.30	0.00
409.49	56.17
409.68	84.26
409.87	25.75
410.07	51.49
410.26	0.00
410.45	63.19
410.64	9.36
410.83	9.36
411.02	93.62
411.21	67.88
411.40	18.72
411.59	0.00
411.78	39.79
411.98	2.34
412.17	0.00
412.36	0.00
412.55	67.88
412.74	53.83
412.93	72.56
413.12	0.00
413.31	56.17
413.50	39.79
413.69	49.15
413.88	0.00
414.07	0.00
414.26	0.00
414.45	131.07
414.64	7.02
414.83	25.75
415.02	86.60
415.22	28.09
415.41	32.77
415.60	0.00
415.79	46.81
415.98	102.98
416.17	0.00
416.36	28.09
416.55	9.36
416.74	49.15
416.93	42.13
417.12	58.51
417.31	14.04
417.50	25.75
417.69	7.02
417.88	0.00
418.07	44.47
418.26	28.09
418.45	63.19
418.64	65.54
418.83	23.41
419.02	77.24
419.21	16.38
419.39	25.75
419.58	35.11
419.77	46.81
419.96	14.04
420.15	28.09
420.34	0.00
420.53	0.00
420.72	84.26
420.91	42.13
421.10	72.56
421.29	4.68
421.48	0.00
421.67	102.98
421.86	88.94
422.05	28.09
422.24	0.00
422.43	37.45
422.61	72.56
422.80	21.06
422.99	0.00
423.18	0.00
423.37	102.98
423.56	56.17
423.75	56.17
423.94	0.00
424.13	16.38
424.32	11.70
424.50	0.00
424.69	72.56
424.88	14.04
425.07	25.75
425.26	0.00
425.45	56.17
425.64	9.36
425.83	7.02
426.01	37.45
426.20	9.36
426.39	9.36
426.58	86.60
426.77	46.81
426.96	2.34
427.15	42.13
427.33	16.38
427.52	28.09
427.71	67.88
427.90	25.75
428.09	32.77
428.28	32.77
428.46	42.13
428.65	0.00
428.84	0.00
429.03	46.81
429.22	46.81
429.40	42.13
429.59	42.13
429.78	53.83
429.97	16.38
430.16	0.00
430.34	51.49
430.53	35.11
430.72	0.00
430.91	21.06
431.10	46.81
431.28	0.00
431.47	46.81
431.66	53.83
431.85	53.83
432.03	0.00
432.22	0.00
432.41	0.00
432.60	84.26
432.79	0.00
432.97	25.75
433.16	84.26
433.35	39.79
433.54	0.00
433.72	14.04
433.91	0.00
434.10	44.47
434.28	14.04
434.47	79.58
434.66	0.00
434.85	32.77
435.03	4.68
435.22	0.00
435.41	72.56
435.59	51.49
435.78	11.70
435.97	86.60
436.16	95.96
436.34	42.13
436.53	32.77
436.72	30.43
436.90	37.45
437.09	35.11
437.28	32.77
437.46	28.09
437.65	7.02
437.84	0.00
438.02	16.38
438.21	42.13
438.40	79.58
438.58	0.00
438.77	21.06
438.96	49.15
439.14	21.06
439.33	39.79
439.52	9.36
439.70	46.81
439.89	39.79
440.08	44.47
440.26	16.38
440.45	2.34
440.63	0.00
440.82	72.56
441.01	32.77
441.19	0.00
441.38	0.00
441.57	32.77
441.75	60.85
441.94	25.75
442.12	44.47
442.31	63.19
442.50	51.49
442.68	30.43
442.87	60.85
443.05	0.00
443.24	81.92
443.43	63.19
443.61	16.38
443.80	84.26
443.98	9.36
444.17	56.17
444.35	2.34
444.54	51.49
444.73	46.81
444.91	32.77
445.10	14.04
445.28	58.51
445.47	72.56
445.65	14.04
445.84	67.88
446.02	0.00
446.21	25.75
446.39	63.19
446.58	0.00
446.77	72.56
446.95	14.04
447.14	0.00
447.32	21.06
447.51	0.00
447.69	117.03
447.88	39.79
448.06	28.09
448.25	37.45
448.43	0.00
448.62	18.72
448.80	63.19
448.99	2.34
449.17	63.19
449.36	44.47
449.54	44.47
449.73	14.04
449.91	95.96
450.10	58.51
450.28	37.45
450.46	72.56
450.65	35.11
450.83	65.54
451.02	25.75
451.20	81.92
451.39	23.41
451.57	53.83
451.76	95.96
451.94	18.72
452.13	135.75
452.31	42.13
452.49	0.00
452.68	30.43
452.86	18.72
453.05	56.17
453.23	16.38
453.42	51.49
453.60	37.45
453.78	74.90
453.97	51.49
454.15	86.60
454.34	14.04
454.52	98.30
454.70	11.70
454.89	60.85
455.07	23.41
455.26	93.62
455.44	95.96
455.62	0.00
455.81	58.51
455.99	35.11
456.17	63.19
456.36	30.43
456.54	7.02
456.73	23.41
456.91	25.75
457.09	72.56
457.28	2.34
457.46	58.51
457.64	7.02
457.83	65.54
458.01	0.00
458.19	81.92
458.38	81.92
458.56	74.90
458.74	30.43
458.93	49.15
459.11	37.45
459.29	7.02
459.48	100.64
459.66	53.83
459.84	98.30
460.03	60.85
460.21	25.75
460.39	32.77
460.57	14.04
460.76	0.00
460.94	49.15
461.12	70.22
461.31	51.49
461.49	88.94
461.67	0.00
461.85	0.00
462.04	23.41
462.22	53.83
462.40	98.30
462.59	65.54
462.77	46.81
462.95	28.09
463.13	21.06
463.32	0.00
463.50	35.11
463.68	0.00
463.86	44.47
464.05	37.45
464.23	53.83
464.41	46.81
464.59	28.09
464.78	124.05
464.96	88.94
465.14	44.47
465.32	67.88
465.50	114.69
465.69	2.34
465.87	44.47
466.05	46.81
466.23	46.81
466.41	35.11
466.60	98.30
466.78	2.34
466.96	0.00
467.14	16.38
467.32	44.47
467.51	32.77
467.69	37.45
467.87	30.43
468.05	79.58
468.23	18.72
468.41	98.30
468.60	2.34
468.78	42.13
468.96	9.36
469.14	72.56
469.32	86.60
469.50	35.11
469.69	84.26
469.87	72.56
470.05	14.04
470.23	0.00
470.41	79.58
470.59	67.88
470.77	4.68
470.95	77.24
471.14	0.00
471.32	44.47
471.50	98.30
471.68	39.79
471.86	30.43
472.04	14.04
472.22	0.00
472.40	0.00
472.58	0.00
472.77	39.79
472.95	39.79
473.13	14.04
473.31	39.79
473.49	9.36
473.67	4.68
473.85	14.04
474.03	37.45
474.21	0.00
474.39	114.69
474.57	9.36
474.75	105.32
474.93	35.11
475.12	46.81
475.30	18.72
475.48	2.34
475.66	72.56
475.84	9.36
476.02	32.77
476.20	30.43
476.38	0.00
476.56	0.00
476.74	18.72
476.92	28.09
477.10	28.09
477.28	53.83
477.46	56.17
477.64	39.79
477.82	28.09
478.00	11.70
478.18	86.60
478.36	23.41
478.54	67.88
478.72	25.75
478.90	42.13
479.08	0.00
479.26	63.19
479.44	88.94
479.62	56.17
479.80	70.22
479.98	112.35
480.16	0.00
480.34	0.00
480.52	93.62
480.70	42.13
480.88	0.00
481.06	14.04
481.24	49.15
481.41	28.09
481.59	112.35
481.77	91.28
481.95	84.26
482.13	16.38
482.31	72.56
482.49	81.92
482.67	32.77
482.85	72.56
483.03	0.00
483.21	7.02
483.39	56.17
483.57	98.30
483.74	135.75
483.92	98.30
484.10	114.69
484.28	51.49
484.46	42.13
484.64	58.51
484.82	0.00
485.00	44.47
485.18	86.60
485.35	51.49
485.53	16.38
485.71	95.96
485.89	0.00
486.07	0.00
486.25	105.32
486.43	35.11
486.61	0.00
486.78	84.26
486.96	35.11
487.14	70.22
487.32	30.43
487.50	16.38
487.68	0.00
487.85	74.90
488.03	58.51
488.21	0.00
488.39	0.00
488.57	0.00
488.75	0.00
488.92	117.03
489.10	0.00
489.28	30.43
489.46	23.41
489.64	0.00
489.81	0.00
489.99	74.90
490.17	91.28
490.35	0.00
490.53	11.70
490.70	88.94
490.88	65.54
491.06	32.77
491.24	105.32
491.41	37.45
491.59	84.26
491.77	72.56
491.95	74.90
492.13	46.81
492.30	7.02
492.48	0.00
492.66	100.64
492.84	0.00
493.01	42.13
493.19	79.58
493.37	86.60
493.54	77.24
493.72	32.77
493.90	70.22
494.08	72.56
494.25	74.90
494.43	95.96
494.61	21.06
494.79	51.49
494.96	49.15
495.14	0.00
495.32	30.43
495.49	0.00
495.67	53.83
495.85	35.11
496.02	46.81
496.20	18.72
496.38	98.30
496.55	39.79
496.73	86.60
496.91	18.72
497.09	35.11
497.26	0.00
497.44	56.17
497.62	105.32
497.79	93.62
497.97	23.41
498.14	65.54
498.32	65.54
498.50	37.45
498.67	0.00
498.85	16.38
499.03	67.88
499.20	42.13
499.38	63.19
499.56	30.43
499.73	63.19
499.91	46.81
500.08	46.81
500.26	39.79
500.44	63.19
500.61	102.98
500.79	23.41
500.97	81.92
501.14	0.00
501.32	58.51
501.49	18.72
501.67	16.38
501.84	35.11
502.02	91.28
502.20	84.26
502.37	39.79
502.55	0.00
502.72	25.75
502.90	0.00
503.07	63.19
503.25	49.15
503.43	51.49
503.60	0.00
503.78	65.54
503.95	42.13
504.13	25.75
504.30	70.22
504.48	42.13
504.65	11.70
504.83	95.96
505.01	0.00
505.18	58.51
505.36	53.83
505.53	7.02
505.71	0.00
505.88	9.36
506.06	35.11
506.23	110.01
506.41	88.94
506.58	67.88
506.76	110.01
506.93	67.88
507.11	56.17
507.28	30.43
507.46	79.58
507.63	39.79
507.81	63.19
507.98	51.49
508.16	91.28
508.33	53.83
508.50	63.19
508.68	107.66
508.85	30.43
509.03	0.00
509.20	51.49
509.38	44.47
509.55	95.96
509.73	25.75
509.90	0.00
510.08	7.02
510.25	0.00
510.42	25.75
510.60	77.24
510.77	53.83
510.95	67.88
511.12	9.36
511.30	65.54
511.47	44.47
511.64	98.30
511.82	16.38
511.99	14.04
512.17	0.00
512.34	25.75
512.51	110.01
512.69	4.68
512.86	49.15
513.04	0.00
513.21	46.81
513.38	35.11
513.56	74.90
513.73	84.26
513.90	46.81
514.08	16.38
514.25	93.62
514.43	39.79
514.60	16.38
514.77	23.41
514.95	46.81
515.12	46.81
515.29	56.17
515.47	9.36
515.64	9.36
515.81	0.00
515.99	0.00
516.16	63.19
516.33	86.60
516.51	44.47
516.68	0.00
516.85	0.00
517.03	53.83
517.20	46.81
517.37	30.43
517.54	65.54
517.72	81.92
517.89	77.24
518.06	28.09
518.24	18.72
518.41	107.66
518.58	95.96
518.75	67.88
518.93	18.72
519.10	49.15
519.27	86.60
519.45	37.45
519.62	2.34
519.79	0.00
519.96	2.34
520.14	110.01
520.31	91.28
520.48	58.51
520.65	0.00
520.83	4.68
521.00	39.79
521.17	56.17
521.34	0.00
521.52	25.75
521.69	46.81
521.86	14.04
522.03	0.00
522.20	21.06
522.38	0.00
522.55	65.54
522.72	58.51
522.89	67.88
523.07	65.54
523.24	74.90
523.41	39.79
523.58	7.02
523.75	42.13
523.92	14.04
524.10	65.54
524.27	35.11
524.44	70.22
524.61	93.62
524.78	30.43
524.96	32.77
525.13	23.41
525.30	23.41
525.47	28.09
525.64	77.24
525.81	105.32
525.98	79.58
526.16	0.00
526.33	35.11
526.50	46.81
526.67	100.64
526.84	0.00
527.01	0.00
527.18	98.30
527.36	0.00
527.53	30.43
527.70	25.75
527.87	0.00
528.04	0.00
528.21	35.11
528.38	138.09
528.55	77.24
528.72	35.11
528.89	0.00
529.07	65.54
529.24	100.64
529.41	32.77
529.58	65.54
529.75	28.09
529.92	105.32
530.09	32.77
530.26	30.43
530.43	114.69
530.60	100.64
530.77	63.19
530.94	91.28
531.11	18.72
531.28	49.15
531.46	95.96
531.63	93.62
531.80	39.79
531.97	53.83
532.14	37.45
532.31	25.75
532.48	114.69
532.65	53.83
532.82	100.64
532.99	58.51
533.16	102.98
533.33	44.47
533.50	91.28
533.67	0.00
533.84	56.17
534.01	70.22
534.18	28.09
534.35	23.41
534.52	119.37
534.69	77.24
534.86	9.36
535.03	46.81
535.20	14.04
535.37	53.83
535.54	42.13
535.71	84.26
535.88	7.02
536.05	42.13
536.22	79.58
536.38	32.77
536.55	42.13
536.72	65.54
536.89	67.88
537.06	25.75
537.23	32.77
537.40	37.45
537.57	0.00
537.74	39.79
537.91	60.85
538.08	91.28
538.25	23.41
538.42	23.41
538.59	79.58
538.75	11.70
538.92	0.00
539.09	44.47
539.26	39.79
539.43	67.88
539.60	60.85
539.77	117.03
539.94	70.22
540.11	16.38
540.28	25.75
540.44	98.30
540.61	44.47
540.78	0.00
540.95	0.00
541.12	56.17
541.29	67.88
541.46	25.75
541.62	35.11
541.79	4.68
541.96	25.75
542.13	28.09
542.30	81.92
542.47	56.17
542.63	79.58
542.80	81.92
542.97	0.00
543.14	79.58
543.31	63.19
543.48	70.22
543.64	53.83
543.81	37.45
543.98	0.00
544.15	102.98
544.32	65.54
544.48	32.77
544.65	32.77
544.82	39.79
544.99	0.00
545.16	32.77
545.32	63.19
545.49	2.34
545.66	0.00
545.83	0.00
546.00	14.04
546.16	74.90
546.33	77.24
546.50	110.01
546.67	60.85
546.83	32.77
547.00	39.79
547.17	0.00
547.34	25.75
547.50	79.58
547.67	42.13
547.84	51.49
548.00	46.81
548.17	53.83
548.34	79.58
548.51	98.30
548.67	9.36
548.84	53.83
549.01	105.32
549.18	56.17
549.34	21.06
549.51	2.34
549.68	37.45
549.84	56.17
550.01	37.45
550.18	107.66
550.34	77.24
550.51	0.00
550.68	107.66
550.84	51.49
551.01	72.56
551.18	72.56
551.34	18.72
551.51	110.01
551.68	32.77
551.84	49.15
552.01	88.94
552.18	32.77
552.34	42.13
552.51	0.00
552.68	0.00
552.84	35.11
553.01	138.09
553.18	51.49
553.34	112.35
553.51	44.47
553.67	63.19
553.84	114.69
554.01	32.77
554.17	23.41
554.34	65.54
554.51	60.85
554.67	37.45
554.84	46.81
555.00	79.58
555.17	37.45
555.33	32.77
555.50	56.17
555.67	0.00
555.83	42.13
556.00	77.24
556.16	72.56
556.33	60.85
556.50	18.72
556.66	88.94
556.83	58.51
556.99	67.88
557.16	14.04
557.32	23.41
557.49	21.06
557.65	81.92
557.82	0.00
557.98	0.00
558.15	0.00
558.32	18.72
558.48	58.51
558.65	0.00
558.81	46.81
558.98	84.26
559.14	114.69
559.31	0.00
559.47	30.43
559.64	16.38
559.80	42.13
559.97	37.45
560.13	35.11
560.30	67.88
560.46	53.83
560.63	44.47
560.79	88.94
560.96	23.41
561.12	14.04
561.29	32.77
561.45	110.01
561.61	74.90
561.78	2.34
561.94	0.00
562.11	32.77
562.27	56.17
562.44	79.58
562.60	28.09
562.77	51.49
562.93	49.15
563.10	95.96
563.26	32.77
563.42	51.49
563.59	42.13
563.75	0.00
563.92	159.16
564.08	18.72
564.24	23.41
564.41	37.45
564.57	56.17
564.74	0.00
564.90	65.54
565.07	70.22
565.23	7.02
565.39	63.19
565.56	65.54
565.72	53.83
565.88	56.17
566.05	42.13
566.21	49.15
566.38	28.09
566.54	18.72
566.70	16.38
566.87	25.75
567.03	65.54
567.19	63.19
567.36	84.26
567.52	32.77
567.68	4.68
567.85	30.43
568.01	2.34
568.17	86.60
568.34	0.00
568.50	32.77
568.66	28.09
568.83	14.04
568.99	93.62
569.15	63.19
569.32	53.83
569.48	51.49
569.64	39.79
569.81	9.36
569.97	67.88
570.13	56.17
570.30	67.88
570.46	56.17
570.62	107.66
570.78	7.02
570.95	2.34
571.11	49.15
571.27	37.45
571.43	16.38
571.60	53.83
571.76	42.13
571.92	37.45
572.09	4.68
572.25	42.13
572.41	56.17
572.57	142.77
572.74	60.85
572.90	44.47
573.06	91.28
573.22	25.75
573.38	11.70
573.55	39.79
573.71	28.09
573.87	46.81
574.03	21.06
574.20	32.77
574.36	91.28
574.52	28.09
574.68	72.56
574.84	49.15
575.01	154.48
575.17	74.90
575.33	72.56
575.49	0.00
575.65	114.69
575.82	39.79
575.98	30.43
576.14	51.49
576.30	58.51
576.46	65.54
576.62	16.38
576.79	105.32
576.95	23.41
577.11	46.81
577.27	18.72
577.43	79.58
577.59	126.39
577.75	0.00
577.92	51.49
578.08	67.88
578.24	28.09
578.40	49.15
578.56	11.70
578.72	37.45
578.88	70.22
579.04	11.70
579.21	14.04
579.37	56.17
579.53	39.79
579.69	53.83
579.85	84.26
580.01	91.28
580.17	0.00
580.33	30.43
580.49	67.88
580.65	44.47
580.82	30.43
580.98	51.49
581.14	81.92
581.30	0.00
581.46	35.11
581.62	4.68
581.78	7.02
581.94	32.77
582.10	35.11
582.26	95.96
582.42	114.69
582.58	72.56
582.74	74.90
582.90	0.00
583.06	16.38
583.22	0.00
583.38	14.04
583.54	0.00
583.70	53.83
583.86	93.62
584.02	25.75
584.18	18.72
584.34	121.71
584.50	51.49
584.66	56.17
584.82	11.70
584.98	46.81
585.14	37.45
585.30	58.51
585.46	35.11
585.62	63.19
585.78	11.70
585.94	23.41
586.10	93.62
586.26	0.00
586.42	46.81
586.58	53.83
586.74	0.00
586.90	18.72
587.06	44.47
587.22	28.09
587.38	77.24
587.54	51.49
587.70	98.30
587.86	42.13
588.02	72.56
588.18	67.88
588.34	9.36
588.49	67.88
588.65	72.56
588.81	37.45
588.97	60.85
589.13	56.17
589.29	14.04
589.45	79.58
589.61	63.19
589.77	65.54
589.93	70.22
590.08	39.79
590.24	53.83
590.40	51.49
590.56	100.64
590.72	91.28
590.88	93.62
591.04	42.13
591.20	63.19
591.35	0.00
591.51	35.11
591.67	35.11
591.83	72.56
591.99	51.49
592.15	44.47
592.31	49.15
592.46	56.17
592.62	58.51
592.78	0.00
592.94	65.54
593.10	67.88
593.26	88.94
593.41	0.00
593.57	79.58
593.73	0.00
593.89	63.19
594.05	58.51
594.20	124.05
594.36	39.79
594.52	77.24
594.68	42.13
594.84	51.49
594.99	86.60
595.15	0.00
595.31	21.06
595.47	37.45
595.62	14.04
595.78	70.22
595.94	110.01
596.10	91.28
596.25	81.92
596.41	16.38
596.57	70.22
596.73	0.00
596.88	28.09
597.04	23.41
597.20	70.22
597.36	67.88
597.51	149.79
597.67	110.01
597.83	74.90
597.99	23.41
598.14	161.50
598.30	110.01
598.46	105.32
598.61	121.71
598.77	93.62
598.93	7.02
599.09	46.81
599.24	0.00
599.40	14.04
599.56	51.49
599.71	77.24
599.87	0.00
600.03	42.13
600.18	4.68
600.34	39.79
600.50	25.75
600.65	81.92
600.81	21.06
600.97	0.00
601.12	65.54
601.28	44.47
601.44	56.17
601.59	95.96
601.75	30.43
601.91	0.00
602.06	32.77
602.22	35.11
602.37	53.83
602.53	0.00
602.69	7.02
602.84	135.75
603.00	35.11
603.16	9.36
603.31	98.30
603.47	105.32
603.62	21.06
603.78	0.00
603.94	0.00
604.09	93.62
604.25	39.79
604.40	65.54
604.56	35.11
604.71	124.05
604.87	77.24
605.03	51.49
605.18	25.75
605.34	51.49
605.49	9.36
605.65	0.00
605.80	79.58
605.96	53.83
606.12	21.06
606.27	60.85
606.43	35.11
606.58	60.85
606.74	98.30
606.89	0.00
607.05	65.54
607.20	18.72
607.36	98.30
607.51	70.22
607.67	7.02
607.82	44.47
607.98	14.04
608.13	67.88
608.29	4.68
608.44	18.72
608.60	9.36
608.75	21.06
608.91	117.03
609.06	32.77
609.22	60.85
609.37	16.38
609.53	72.56
609.68	84.26
609.84	23.41
609.99	79.58
610.15	14.04
610.30	72.56
610.46	0.00
610.61	0.00
610.76	0.00
610.92	9.36
611.07	53.83
611.23	84.26
611.38	0.00
611.54	4.68
611.69	46.81
611.84	30.43
612.00	56.17
612.15	0.00
612.31	44.47
612.46	35.11
612.62	60.85
612.77	77.24
612.92	0.00
613.08	44.47
613.23	60.85
613.39	44.47
613.54	28.09
613.69	67.88
613.85	53.83
614.00	0.00
614.15	67.88
614.31	58.51
614.46	46.81
614.62	88.94
614.77	95.96
614.92	16.38
615.08	74.90
615.23	23.41
615.38	0.00
615.54	105.32
615.69	49.15
615.84	4.68
616.00	0.00
616.15	0.00
616.30	32.77
616.46	49.15
616.61	30.43
616.76	100.64
616.92	81.92
617.07	95.96
617.22	67.88
617.37	49.15
617.53	23.41
617.68	4.68
617.83	53.83
617.99	58.51
618.14	65.54
618.29	37.45
618.45	11.70
618.60	53.83
618.75	37.45
618.90	0.00
619.06	147.45
619.21	100.64
619.36	67.88
619.51	77.24
619.67	124.05
619.82	37.45
619.97	112.35
620.12	72.56
620.28	35.11
620.43	86.60
620.58	46.81
620.73	2.34
620.89	25.75
621.04	11.70
621.19	84.26
621.34	49.15
621.49	0.00
621.65	23.41
621.80	35.11
621.95	25.75
622.10	28.09
622.25	70.22
622.41	53.83
622.56	21.06
622.71	72.56
622.86	77.24
623.01	0.00
623.16	35.11
623.32	58.51
623.47	44.47
623.62	32.77
623.77	102.98
623.92	44.47
624.07	56.17
624.23	84.26
624.38	32.77
624.53	88.94
624.68	70.22
624.83	39.79
624.98	37.45
625.13	30.43
625.29	7.02
625.44	0.00
625.59	7.02
625.74	70.22
625.89	0.00
626.04	56.17
626.19	11.70
626.34	30.43
626.49	35.11
626.65	46.81
626.80	0.00
626.95	23.41
627.10	86.60
627.25	0.00
627.40	35.11
627.55	88.94
627.70	65.54
627.85	37.45
628.00	65.54
628.15	35.11
628.30	67.88
628.45	42.13
628.60	84.26
628.76	25.75
628.91	30.43
629.06	86.60
629.21	79.58
629.36	44.47
629.51	42.13
629.66	37.45
629.81	58.51
629.96	42.13
630.11	25.75
630.26	23.41
630.41	65.54
630.56	37.45
630.71	58.51
630.86	23.41
631.01	51.49
631.16	63.19
631.31	25.75
631.46	70.22
631.61	81.92
631.76	56.17
631.91	0.00
632.06	58.51
632.21	51.49
632.36	44.47
632.51	0.00
632.66	0.00
632.81	23.41
632.96	58.51
633.10	49.15
633.25	46.81
633.40	42.13
633.55	25.75
633.70	37.45
633.85	49.15
634.00	42.13
634.15	56.17
634.30	44.47
634.45	42.13
634.60	77.24
634.75	74.90
634.90	0.00
635.05	0.00
635.19	95.96
635.34	67.88
635.49	25.75
635.64	0.00
635.79	0.00
635.94	37.45
636.09	0.00
636.24	65.54
636.39	0.00
636.53	2.34
636.68	126.39
636.83	0.00
636.98	46.81
637.13	21.06
637.28	18.72
637.43	53.83
637.57	67.88
637.72	58.51
637.87	32.77
638.02	16.38
638.17	58.51
638.32	81.92
638.46	42.13
638.61	23.41
638.76	86.60
638.91	0.00
639.06	0.00
639.20	30.43
639.35	124.05
639.50	0.00
639.65	74.90
639.80	60.85
639.94	25.75
640.09	0.00
640.24	53.83
640.39	0.00
640.54	74.90
640.68	25.75
640.83	93.62
640.98	0.00
641.13	37.45
641.27	28.09
641.42	2.34
641.57	39.79
641.72	51.49
641.86	0.00
642.01	7.02
642.16	32.77
642.31	67.88
642.45	105.32
642.60	9.36
642.75	30.43
642.90	46.81
643.04	28.09
643.19	18.72
643.34	84.26
643.48	56.17
643.63	65.54
643.78	84.26
643.93	74.90
644.07	0.00
644.22	25.75
644.37	0.00
644.51	9.36
644.66	0.00
644.81	21.06
644.95	117.03
645.10	72.56
645.25	60.85
645.39	65.54
645.54	18.72
645.69	49.15
645.83	18.72
645.98	25.75
646.13	70.22
646.27	14.04
646.42	56.17
646.57	0.00
646.71	0.00
646.86	0.00
647.00	37.45
647.15	32.77
647.30	86.60
647.44	35.11
647.59	65.54
647.74	0.00
647.88	147.45
648.03	35.11
648.17	35.11
648.32	95.96
648.47	51.49
648.61	88.94
648.76	21.06
648.90	46.81
649.05	0.00
649.20	42.13
649.34	28.09
649.49	0.00
649.63	51.49
649.78	44.47
649.92	23.41
650.07	0.00
650.21	0.00
650.36	65.54
650.51	91.28
650.65	30.43
650.80	65.54
650.94	53.83
651.09	81.92
651.23	16.38
651.38	67.88
651.52	42.13
651.67	42.13
651.81	28.09
651.96	79.58
652.10	44.47
652.25	67.88
652.39	74.90
652.54	16.38
652.68	2.34
652.83	0.00
652.97	77.24
653.12	42.13
653.26	0.00
653.41	65.54
653.55	0.00
653.70	58.51
653.84	53.83
653.99	110.01
654.13	46.81
654.27	14.04
654.42	0.00
654.56	56.17
654.71	53.83
654.85	77.24
655.00	0.00
655.14	0.00
655.29	60.85
655.43	53.83
655.57	67.88
655.72	23.41
655.86	53.83
656.01	16.38
656.15	7.02
656.30	42.13
656.44	7.02
656.58	4.68
656.73	42.13
656.87	25.75
657.01	37.45
657.16	0.00
657.30	39.79
657.45	53.83
657.59	23.41
657.73	0.00
657.88	95.96
658.02	2.34
658.16	49.15
658.31	25.75
658.45	28.09
658.60	81.92
658.74	30.43
658.88	53.83
659.03	44.47
659.17	51.49
659.31	58.51
659.46	23.41
659.60	65.54
659.74	42.13
659.89	30.43
660.03	121.71
660.17	46.81
660.32	53.83
660.46	18.72
660.60	72.56
660.74	32.77
660.89	60.85
661.03	119.37
661.17	65.54
661.32	0.00
661.46	23.41
661.60	37.45
661.74	0.00
661.89	0.00
662.03	25.75
662.17	0.00
662.31	105.32
662.46	63.19
662.60	0.00
662.74	49.15
662.88	63.19
663.03	93.62
663.17	142.77
663.31	91.28
663.45	0.00
663.60	0.00
663.74	16.38
663.88	14.04
664.02	51.49
664.17	9.36
664.31	4.68
664.45	0.00
664.59	16.38
664.73	0.00
664.88	0.00
665.02	72.56
665.16	114.69
665.30	39.79
665.44	14.04
665.59	0.00
665.73	9.36
665.87	65.54
666.01	88.94
666.15	63.19
666.29	37.45
666.44	23.41
666.58	0.00
666.72	0.00
666.86	9.36
667.00	39.79
667.14	35.11
667.28	44.47
667.43	9.36
667.57	44.47
667.71	0.00
667.85	18.72
667.99	102.98
668.13	74.90
668.27	74.90
668.41	65.54
668.56	72.56
668.70	51.49
668.84	28.09
668.98	67.88
669.12	0.00
669.26	70.22
669.40	102.98
669.54	14.04
669.68	95.96
669.82	32.77
669.96	0.00
670.10	0.00
670.25	39.79
670.39	35.11
670.53	0.00
670.67	51.49
670.81	11.70
670.95	35.11
671.09	49.15
671.23	53.83
671.37	11.70
671.51	32.77
671.65	70.22
671.79	114.69
671.93	18.72
672.07	79.58
672.21	117.03
672.35	44.47
672.49	49.15
672.63	32.77
672.77	95.96
672.91	100.64
673.05	42.13
673.19	0.00
673.33	21.06
673.47	44.47
673.61	0.00
673.75	0.00
673.89	98.30
674.03	70.22
674.17	51.49
674.31	72.56
674.45	0.00
674.59	35.11
674.73	23.41
674.87	39.79
675.01	67.88
675.15	65.54
675.29	16.38
675.43	63.19
675.56	0.00
675.70	7.02
675.84	7.02
675.98	14.04
676.12	0.00
676.26	0.00
676.40	0.00
676.54	70.22
676.68	21.06
676.82	56.17
676.96	28.09
677.10	0.00
677.23	58.51
677.37	0.00
677.51	14.04
677.65	37.45
677.79	58.51
677.93	23.41
678.07	51.49
678.21	0.00
678.34	44.47
678.48	60.85
678.62	0.00
678.76	0.00
678.90	11.70
679.04	86.60
679.18	81.92
679.31	21.06
679.45	9.36
679.59	84.26
679.73	0.00
679.87	7.02
680.00	46.81
680.14	0.00
680.28	51.49
680.42	51.49
680.56	114.69
680.70	0.00
680.83	21.06
680.97	0.00
681.11	46.81
681.25	98.30
681.39	16.38
681.52	51.49
681.66	0.00
681.80	0.00
681.94	0.00
682.07	72.56
682.21	39.79
682.35	35.11
682.49	65.54
682.62	28.09
682.76	32.77
682.90	30.43
683.04	0.00
683.17	2.34
683.31	37.45
683.45	42.13
683.59	49.15
683.72	65.54
683.86	65.54
684.00	0.00
684.13	102.98
684.27	32.77
684.41	42.13
684.55	23.41
684.68	63.19
684.82	4.68
684.96	0.00
685.09	140.43
685.23	18.72
685.37	0.00
685.50	0.00
685.64	11.70
685.78	77.24
685.91	77.24
686.05	0.00
686.19	72.56
686.32	16.38
686.46	0.00
686.60	56.17
686.73	0.00
686.87	0.00
687.01	25.75
687.14	0.00
687.28	32.77
687.42	0.00
687.55	0.00
687.69	18.72
687.82	49.15
687.96	14.04
688.10	0.00
688.23	0.00
688.37	2.34
688.50	7.02
688.64	0.00
688.78	0.00
688.91	0.00
689.05	14.04
689.18	11.70
689.32	0.00
689.46	124.05
689.59	0.00
689.73	121.71
689.86	0.00
690.00	21.06
690.13	42.13
690.27	60.85
690.41	25.75
690.54	0.00
690.68	0.00
690.81	0.00
690.95	0.00
691.08	0.00
691.22	44.47
691.35	60.85
691.49	9.36
691.62	42.13
691.76	0.00
691.89	93.62
692.03	23.41
692.16	2.34
692.30	37.45
692.43	39.79
692.57	46.81
692.70	56.17
692.84	44.47
692.97	0.00
693.11	28.09
693.24	46.81
693.38	42.13
693.51	88.94
693.65	58.51
693.78	0.00
693.92	11.70
694.05	39.79
694.19	21.06
694.32	0.00
694.45	65.54
694.59	49.15
694.72	11.70
694.86	35.11
694.99	79.58
695.13	0.00
695.26	16.38
695.39	25.75
695.53	44.47
695.66	23.41
695.80	28.09
695.93	105.32
696.07	51.49
696.20	51.49
696.33	74.90
696.47	37.45
696.60	4.68
696.73	0.00
696.87	42.13
697.00	0.00
697.14	49.15
697.27	28.09
697.40	32.77
697.54	30.43
697.67	98.30
697.80	32.77
697.94	100.64
698.07	25.75
698.21	77.24
698.34	0.00
698.47	44.47
698.61	0.00
698.74	88.94
698.87	77.24
699.01	0.00
699.14	72.56
699.27	0.00
699.40	28.09
699.54	0.00
699.67	35.11
699.80	18.72
699.94	23.41
700.07	9.36
700.20	42.13
700.34	72.56
700.47	70.22
700.60	0.00
700.73	49.15
700.87	63.19
701.00	14.04
701.13	37.45
701.26	58.51
701.40	46.81
701.53	0.00
701.66	124.05
701.79	37.45
701.93	49.15
702.06	9.36
702.19	49.15
702.32	25.75
702.46	0.00
702.59	28.09
702.72	16.38
702.85	0.00
702.99	21.06
703.12	93.62
703.25	44.47
703.38	0.00
703.51	37.45
703.65	30.43
703.78	0.00
703.91	18.72
704.04	0.00
704.17	72.56
704.31	0.00
704.44	110.01
704.57	107.66
704.70	39.79
704.83	21.06
704.96	21.06
705.10	0.00
705.23	0.00
>>>>>End Processed Spectral Data<<<<<
