SpectraSuite Data File
++++++++++++++++++++++++++++++++++++
Date: Fri Oct 04 12:13:39 GMT-05:00 2013
User: price-jones
Dark Spectrum Present: No
Reference Spectrum Present: No
Number of Sampled Component Spectra: 1
Spectrometers: USB2+H05261
Integration Time (usec): 10000 (USB2+H05261)
Spectra Averaged: 1 (USB2+H05261)
Boxcar Smoothing: 0 (USB2+H05261)
Correct for Electrical Dark: No (USB2+H05261)
Strobe/Lamp Enabled: No (USB2+H05261)
Correct for Detector Non-linearity: No (USB2+H05261)
Correct for Stray Light: No (USB2+H05261)
Number of Pixels in Processed Spectrum: 2048
>>>>>Begin Processed Spectral Data<<<<<
365.73	42.13
365.92	42.13
366.12	42.13
366.32	0.00
366.52	0.00
366.72	0.00
366.91	0.00
367.11	0.00
367.31	0.00
367.51	0.00
367.70	0.00
367.90	0.00
368.10	0.00
368.30	0.00
368.49	0.00
368.69	0.00
368.89	0.00
369.09	0.00
369.28	0.00
369.48	0.00
369.68	0.00
369.87	2.34
370.07	0.00
370.27	0.00
370.47	0.00
370.66	0.00
370.86	0.00
371.06	0.00
371.25	0.00
371.45	0.00
371.65	0.00
371.84	11.70
372.04	9.36
372.24	9.36
372.44	110.01
372.63	39.79
372.83	46.81
373.03	60.85
373.22	0.00
373.42	53.83
373.62	42.13
373.81	0.00
374.01	0.00
374.21	58.51
374.40	60.85
374.60	58.51
374.79	53.83
374.99	53.83
375.19	0.00
375.38	49.15
375.58	0.00
375.78	49.15
375.97	35.11
376.17	37.45
376.37	37.45
376.56	39.79
376.76	30.43
376.95	49.15
377.15	9.36
377.35	32.77
377.54	46.81
377.74	4.68
377.93	58.51
378.13	25.75
378.33	0.00
378.52	2.34
378.72	0.00
378.91	0.00
379.11	0.00
379.31	58.51
379.50	49.15
379.70	30.43
379.89	37.45
380.09	107.66
380.28	39.79
380.48	0.00
380.68	0.00
380.87	0.00
381.07	37.45
381.26	0.00
381.46	0.00
381.65	0.00
381.85	77.24
382.04	0.00
382.24	35.11
382.43	65.54
382.63	7.02
382.83	0.00
383.02	0.00
383.22	0.00
383.41	81.92
383.61	21.06
383.80	18.72
384.00	79.58
384.19	88.94
384.39	0.00
384.58	60.85
384.78	65.54
384.97	0.00
385.17	0.00
385.36	121.71
385.56	18.72
385.75	11.70
385.95	0.00
386.14	49.15
386.34	9.36
386.53	4.68
386.72	0.00
386.92	72.56
387.11	42.13
387.31	0.00
387.50	91.28
387.70	0.00
387.89	16.38
388.09	42.13
388.28	53.83
388.48	58.51
388.67	0.00
388.86	49.15
389.06	49.15
389.25	14.04
389.45	86.60
389.64	39.79
389.84	0.00
390.03	2.34
390.22	84.26
390.42	21.06
390.61	117.03
390.81	0.00
391.00	60.85
391.19	23.41
391.39	56.17
391.58	70.22
391.78	86.60
391.97	35.11
392.16	0.00
392.36	30.43
392.55	0.00
392.75	77.24
392.94	51.49
393.13	4.68
393.33	28.09
393.52	58.51
393.71	0.00
393.91	4.68
394.10	0.00
394.29	56.17
394.49	70.22
394.68	51.49
394.88	4.68
395.07	44.47
395.26	4.68
395.46	65.54
395.65	11.70
395.84	16.38
396.04	0.00
396.23	72.56
396.42	18.72
396.62	39.79
396.81	16.38
397.00	30.43
397.19	35.11
397.39	21.06
397.58	16.38
397.77	77.24
397.97	0.00
398.16	39.79
398.35	35.11
398.55	37.45
398.74	0.00
398.93	0.00
399.12	44.47
399.32	0.00
399.51	2.34
399.70	86.60
399.90	18.72
400.09	28.09
400.28	0.00
400.47	0.00
400.67	51.49
400.86	9.36
401.05	18.72
401.24	37.45
401.44	0.00
401.63	0.00
401.82	74.90
402.01	28.09
402.21	56.17
402.40	9.36
402.59	39.79
402.78	18.72
402.97	4.68
403.17	37.45
403.36	28.09
403.55	35.11
403.74	42.13
403.93	100.64
404.13	14.04
404.32	4.68
404.51	0.00
404.70	100.64
404.89	9.36
405.09	30.43
405.28	37.45
405.47	65.54
405.66	39.79
405.85	37.45
406.05	32.77
406.24	28.09
406.43	0.00
406.62	100.64
406.81	100.64
407.00	42.13
407.20	91.28
407.39	58.51
407.58	58.51
407.77	72.56
407.96	30.43
408.15	39.79
408.34	25.75
408.54	0.00
408.73	35.11
408.92	14.04
409.11	60.85
409.30	70.22
409.49	91.28
409.68	7.02
409.87	65.54
410.07	42.13
410.26	30.43
410.45	133.41
410.64	0.00
410.83	2.34
411.02	23.41
411.21	53.83
411.40	14.04
411.59	23.41
411.78	65.54
411.98	105.32
412.17	98.30
412.36	14.04
412.55	46.81
412.74	65.54
412.93	72.56
413.12	11.70
413.31	53.83
413.50	21.06
413.69	65.54
413.88	21.06
414.07	58.51
414.26	49.15
414.45	46.81
414.64	32.77
414.83	126.39
415.02	86.60
415.22	0.00
415.41	0.00
415.60	0.00
415.79	58.51
415.98	93.62
416.17	60.85
416.36	60.85
416.55	32.77
416.74	58.51
416.93	88.94
417.12	65.54
417.31	42.13
417.50	74.90
417.69	77.24
417.88	46.81
418.07	4.68
418.26	42.13
418.45	58.51
418.64	88.94
418.83	56.17
419.02	46.81
419.21	98.30
419.39	56.17
419.58	51.49
419.77	14.04
419.96	18.72
420.15	0.00
420.34	84.26
420.53	42.13
420.72	49.15
420.91	63.19
421.10	42.13
421.29	14.04
421.48	121.71
421.67	63.19
421.86	9.36
422.05	42.13
422.24	145.11
422.43	18.72
422.61	9.36
422.80	44.47
422.99	110.01
423.18	16.38
423.37	30.43
423.56	0.00
423.75	60.85
423.94	51.49
424.13	46.81
424.32	0.00
424.50	65.54
424.69	35.11
424.88	25.75
425.07	98.30
425.26	70.22
425.45	0.00
425.64	53.83
425.83	49.15
426.01	0.00
426.20	25.75
426.39	49.15
426.58	131.07
426.77	114.69
426.96	37.45
427.15	23.41
427.33	65.54
427.52	37.45
427.71	51.49
427.90	42.13
428.09	42.13
428.28	32.77
428.46	124.05
428.65	14.04
428.84	18.72
429.03	2.34
429.22	46.81
429.40	35.11
429.59	44.47
429.78	28.09
429.97	4.68
430.16	60.85
430.34	72.56
430.53	39.79
430.72	23.41
430.91	56.17
431.10	84.26
431.28	4.68
431.47	65.54
431.66	30.43
431.85	53.83
432.03	53.83
432.22	60.85
432.41	9.36
432.60	0.00
432.79	93.62
432.97	56.17
433.16	18.72
433.35	77.24
433.54	30.43
433.72	51.49
433.91	79.58
434.10	42.13
434.28	112.35
434.47	53.83
434.66	74.90
434.85	51.49
435.03	110.01
435.22	0.00
435.41	53.83
435.59	9.36
435.78	42.13
435.97	4.68
436.16	35.11
436.34	0.00
436.53	77.24
436.72	58.51
436.90	23.41
437.09	88.94
437.28	37.45
437.46	77.24
437.65	60.85
437.84	95.96
438.02	49.15
438.21	0.00
438.40	35.11
438.58	126.39
438.77	37.45
438.96	28.09
439.14	37.45
439.33	63.19
439.52	53.83
439.70	42.13
439.89	0.00
440.08	44.47
440.26	28.09
440.45	32.77
440.63	79.58
440.82	112.35
441.01	74.90
441.19	46.81
441.38	0.00
441.57	42.13
441.75	112.35
441.94	46.81
442.12	4.68
442.31	79.58
442.50	112.35
442.68	0.00
442.87	2.34
443.05	159.16
443.24	0.00
443.43	23.41
443.61	16.38
443.80	37.45
443.98	110.01
444.17	67.88
444.35	114.69
444.54	102.98
444.73	0.00
444.91	53.83
445.10	51.49
445.28	30.43
445.47	67.88
445.65	95.96
445.84	84.26
446.02	42.13
446.21	91.28
446.39	44.47
446.58	49.15
446.77	74.90
446.95	25.75
447.14	16.38
447.32	44.47
447.51	0.00
447.69	63.19
447.88	44.47
448.06	37.45
448.25	67.88
448.43	39.79
448.62	16.38
448.80	81.92
448.99	25.75
449.17	67.88
449.36	58.51
449.54	30.43
449.73	98.30
449.91	46.81
450.10	32.77
450.28	56.17
450.46	56.17
450.65	86.60
450.83	49.15
451.02	70.22
451.20	9.36
451.39	4.68
451.57	39.79
451.76	105.32
451.94	84.26
452.13	0.00
452.31	0.00
452.49	60.85
452.68	49.15
452.86	105.32
453.05	53.83
453.23	72.56
453.42	72.56
453.60	0.00
453.78	32.77
453.97	70.22
454.15	0.00
454.34	9.36
454.52	70.22
454.70	7.02
454.89	98.30
455.07	7.02
455.26	60.85
455.44	58.51
455.62	56.17
455.81	32.77
455.99	35.11
456.17	65.54
456.36	9.36
456.54	63.19
456.73	77.24
456.91	88.94
457.09	16.38
457.28	18.72
457.46	86.60
457.64	35.11
457.83	35.11
458.01	9.36
458.19	0.00
458.38	7.02
458.56	37.45
458.74	0.00
458.93	72.56
459.11	28.09
459.29	49.15
459.48	0.00
459.66	110.01
459.84	67.88
460.03	102.98
460.21	53.83
460.39	0.00
460.57	63.19
460.76	28.09
460.94	32.77
461.12	105.32
461.31	63.19
461.49	16.38
461.67	102.98
461.85	79.58
462.04	32.77
462.22	53.83
462.40	86.60
462.59	58.51
462.77	74.90
462.95	51.49
463.13	44.47
463.32	7.02
463.50	63.19
463.68	4.68
463.86	67.88
464.05	79.58
464.23	60.85
464.41	51.49
464.59	39.79
464.78	21.06
464.96	53.83
465.14	84.26
465.32	49.15
465.50	91.28
465.69	74.90
465.87	28.09
466.05	7.02
466.23	51.49
466.41	39.79
466.60	60.85
466.78	0.00
466.96	63.19
467.14	100.64
467.32	21.06
467.51	0.00
467.69	100.64
467.87	4.68
468.05	0.00
468.23	23.41
468.41	42.13
468.60	18.72
468.78	4.68
468.96	39.79
469.14	65.54
469.32	145.11
469.50	56.17
469.69	37.45
469.87	65.54
470.05	51.49
470.23	70.22
470.41	46.81
470.59	88.94
470.77	128.73
470.95	25.75
471.14	28.09
471.32	67.88
471.50	2.34
471.68	58.51
471.86	44.47
472.04	114.69
472.22	126.39
472.40	14.04
472.58	0.00
472.77	93.62
472.95	60.85
473.13	4.68
473.31	100.64
473.49	42.13
473.67	114.69
473.85	30.43
474.03	30.43
474.21	88.94
474.39	121.71
474.57	42.13
474.75	77.24
474.93	126.39
475.12	25.75
475.30	58.51
475.48	32.77
475.66	67.88
475.84	72.56
476.02	84.26
476.20	0.00
476.38	140.43
476.56	44.47
476.74	30.43
476.92	56.17
477.10	86.60
477.28	49.15
477.46	79.58
477.64	86.60
477.82	0.00
478.00	100.64
478.18	93.62
478.36	58.51
478.54	114.69
478.72	72.56
478.90	28.09
479.08	60.85
479.26	79.58
479.44	39.79
479.62	39.79
479.80	46.81
479.98	133.41
480.16	121.71
480.34	98.30
480.52	93.62
480.70	42.13
480.88	46.81
481.06	107.66
481.24	7.02
481.41	70.22
481.59	70.22
481.77	105.32
481.95	81.92
482.13	4.68
482.31	0.00
482.49	91.28
482.67	56.17
482.85	16.38
483.03	126.39
483.21	88.94
483.39	51.49
483.57	44.47
483.74	46.81
483.92	21.06
484.10	81.92
484.28	39.79
484.46	65.54
484.64	81.92
484.82	23.41
485.00	107.66
485.18	37.45
485.35	65.54
485.53	2.34
485.71	11.70
485.89	39.79
486.07	46.81
486.25	65.54
486.43	44.47
486.61	51.49
486.78	63.19
486.96	42.13
487.14	0.00
487.32	30.43
487.50	70.22
487.68	77.24
487.85	9.36
488.03	53.83
488.21	131.07
488.39	86.60
488.57	72.56
488.75	4.68
488.92	81.92
489.10	93.62
489.28	124.05
489.46	91.28
489.64	25.75
489.81	67.88
489.99	77.24
490.17	95.96
490.35	138.09
490.53	58.51
490.70	35.11
490.88	11.70
491.06	4.68
491.24	35.11
491.41	51.49
491.59	30.43
491.77	49.15
491.95	124.05
492.13	58.51
492.30	51.49
492.48	107.66
492.66	84.26
492.84	88.94
493.01	84.26
493.19	117.03
493.37	4.68
493.54	60.85
493.72	105.32
493.90	46.81
494.08	154.48
494.25	100.64
494.43	86.60
494.61	70.22
494.79	39.79
494.96	112.35
495.14	14.04
495.32	0.00
495.49	28.09
495.67	58.51
495.85	133.41
496.02	14.04
496.20	32.77
496.38	44.47
496.55	44.47
496.73	14.04
496.91	72.56
497.09	86.60
497.26	65.54
497.44	159.16
497.62	0.00
497.79	28.09
497.97	95.96
498.14	49.15
498.32	117.03
498.50	79.58
498.67	74.90
498.85	77.24
499.03	81.92
499.20	67.88
499.38	56.17
499.56	86.60
499.73	72.56
499.91	2.34
500.08	58.51
500.26	49.15
500.44	91.28
500.61	0.00
500.79	138.09
500.97	117.03
501.14	100.64
501.32	67.88
501.49	133.41
501.67	32.77
501.84	121.71
502.02	93.62
502.20	105.32
502.37	81.92
502.55	51.49
502.72	110.01
502.90	119.37
503.07	58.51
503.25	159.16
503.43	63.19
503.60	84.26
503.78	72.56
503.95	58.51
504.13	44.47
504.30	0.00
504.48	72.56
504.65	128.73
504.83	110.01
505.01	117.03
505.18	133.41
505.36	93.62
505.53	63.19
505.71	102.98
505.88	84.26
506.06	156.82
506.23	72.56
506.41	70.22
506.58	121.71
506.76	102.98
506.93	72.56
507.11	51.49
507.28	107.66
507.46	79.58
507.63	98.30
507.81	46.81
507.98	67.88
508.16	117.03
508.33	100.64
508.50	56.17
508.68	86.60
508.85	79.58
509.03	70.22
509.20	56.17
509.38	60.85
509.55	100.64
509.73	35.11
509.90	67.88
510.08	51.49
510.25	67.88
510.42	100.64
510.60	21.06
510.77	58.51
510.95	65.54
511.12	88.94
511.30	91.28
511.47	0.00
511.64	124.05
511.82	63.19
511.99	91.28
512.17	32.77
512.34	0.00
512.51	42.13
512.69	74.90
512.86	121.71
513.04	0.00
513.21	56.17
513.38	7.02
513.56	79.58
513.73	117.03
513.90	63.19
514.08	25.75
514.25	60.85
514.43	121.71
514.60	67.88
514.77	112.35
514.95	37.45
515.12	88.94
515.29	28.09
515.47	67.88
515.64	84.26
515.81	138.09
515.99	93.62
516.16	112.35
516.33	88.94
516.51	63.19
516.68	67.88
516.85	88.94
517.03	119.37
517.20	114.69
517.37	58.51
517.54	79.58
517.72	72.56
517.89	86.60
518.06	124.05
518.24	95.96
518.41	166.18
518.58	105.32
518.75	70.22
518.93	63.19
519.10	131.07
519.27	67.88
519.45	49.15
519.62	142.77
519.79	32.77
519.96	72.56
520.14	110.01
520.31	53.83
520.48	142.77
520.65	37.45
520.83	74.90
521.00	0.00
521.17	77.24
521.34	126.39
521.52	11.70
521.69	138.09
521.86	72.56
522.03	159.16
522.20	58.51
522.38	0.00
522.55	32.77
522.72	86.60
522.89	72.56
523.07	100.64
523.24	74.90
523.41	140.43
523.58	91.28
523.75	23.41
523.92	30.43
524.10	107.66
524.27	51.49
524.44	86.60
524.61	93.62
524.78	74.90
524.96	88.94
525.13	28.09
525.30	91.28
525.47	128.73
525.64	7.02
525.81	121.71
525.98	117.03
526.16	0.00
526.33	114.69
526.50	124.05
526.67	70.22
526.84	114.69
527.01	77.24
527.18	124.05
527.36	65.54
527.53	51.49
527.70	98.30
527.87	65.54
528.04	98.30
528.21	72.56
528.38	86.60
528.55	112.35
528.72	140.43
528.89	184.90
529.07	28.09
529.24	56.17
529.41	63.19
529.58	86.60
529.75	58.51
529.92	58.51
530.09	58.51
530.26	119.37
530.43	58.51
530.60	23.41
530.77	60.85
530.94	124.05
531.11	105.32
531.28	95.96
531.46	60.85
531.63	91.28
531.80	60.85
531.97	91.28
532.14	60.85
532.31	60.85
532.48	105.32
532.65	0.00
532.82	107.66
532.99	138.09
533.16	58.51
533.33	135.75
533.50	25.75
533.67	49.15
533.84	56.17
534.01	138.09
534.18	84.26
534.35	21.06
534.52	74.90
534.69	145.11
534.86	124.05
535.03	46.81
535.20	32.77
535.37	112.35
535.54	86.60
535.71	60.85
535.88	86.60
536.05	70.22
536.22	28.09
536.38	72.56
536.55	119.37
536.72	56.17
536.89	77.24
537.06	93.62
537.23	67.88
537.40	98.30
537.57	131.07
537.74	81.92
537.91	98.30
538.08	0.00
538.25	51.49
538.42	72.56
538.59	117.03
538.75	42.13
538.92	133.41
539.09	126.39
539.26	74.90
539.43	53.83
539.60	35.11
539.77	86.60
539.94	88.94
540.11	21.06
540.28	74.90
540.44	102.98
540.61	72.56
540.78	14.04
540.95	84.26
541.12	79.58
541.29	124.05
541.46	63.19
541.62	114.69
541.79	23.41
541.96	110.01
542.13	60.85
542.30	91.28
542.47	60.85
542.63	56.17
542.80	102.98
542.97	98.30
543.14	72.56
543.31	88.94
543.48	81.92
543.64	65.54
543.81	42.13
543.98	49.15
544.15	98.30
544.32	28.09
544.48	70.22
544.65	166.18
544.82	93.62
544.99	46.81
545.16	74.90
545.32	56.17
545.49	0.00
545.66	112.35
545.83	91.28
546.00	142.77
546.16	93.62
546.33	42.13
546.50	86.60
546.67	63.19
546.83	86.60
547.00	102.98
547.17	81.92
547.34	74.90
547.50	98.30
547.67	30.43
547.84	74.90
548.00	117.03
548.17	72.56
548.34	126.39
548.51	21.06
548.67	93.62
548.84	84.26
549.01	65.54
549.18	21.06
549.34	161.50
549.51	95.96
549.68	124.05
549.84	138.09
550.01	58.51
550.18	117.03
550.34	168.52
550.51	95.96
550.68	91.28
550.84	135.75
551.01	72.56
551.18	53.83
551.34	77.24
551.51	51.49
551.68	93.62
551.84	42.13
552.01	0.00
552.18	42.13
552.34	95.96
552.51	100.64
552.68	131.07
552.84	25.75
553.01	46.81
553.18	88.94
553.34	65.54
553.51	112.35
553.67	37.45
553.84	0.00
554.01	166.18
554.17	21.06
554.34	124.05
554.51	37.45
554.67	198.95
554.84	88.94
555.00	58.51
555.17	105.32
555.33	131.07
555.50	100.64
555.67	37.45
555.83	86.60
556.00	60.85
556.16	98.30
556.33	49.15
556.50	9.36
556.66	51.49
556.83	149.79
556.99	135.75
557.16	95.96
557.32	63.19
557.49	74.90
557.65	95.96
557.82	4.68
557.98	65.54
558.15	79.58
558.32	51.49
558.48	145.11
558.65	35.11
558.81	86.60
558.98	21.06
559.14	98.30
559.31	42.13
559.47	107.66
559.64	7.02
559.80	56.17
559.97	105.32
560.13	84.26
560.30	95.96
560.46	102.98
560.63	81.92
560.79	93.62
560.96	131.07
561.12	84.26
561.29	81.92
561.45	88.94
561.61	175.54
561.78	56.17
561.94	100.64
562.11	39.79
562.27	28.09
562.44	100.64
562.60	126.39
562.77	53.83
562.93	156.82
563.10	100.64
563.26	16.38
563.42	93.62
563.59	91.28
563.75	102.98
563.92	11.70
564.08	84.26
564.24	98.30
564.41	42.13
564.57	35.11
564.74	142.77
564.90	107.66
565.07	67.88
565.23	58.51
565.39	67.88
565.56	107.66
565.72	110.01
565.88	102.98
566.05	79.58
566.21	107.66
566.38	49.15
566.54	56.17
566.70	14.04
566.87	67.88
567.03	46.81
567.19	53.83
567.36	72.56
567.52	107.66
567.68	35.11
567.85	39.79
568.01	79.58
568.17	86.60
568.34	107.66
568.50	102.98
568.66	86.60
568.83	23.41
568.99	35.11
569.15	23.41
569.32	95.96
569.48	131.07
569.64	63.19
569.81	0.00
569.97	140.43
570.13	74.90
570.30	77.24
570.46	107.66
570.62	93.62
570.78	44.47
570.95	51.49
571.11	25.75
571.27	46.81
571.43	16.38
571.60	100.64
571.76	28.09
571.92	14.04
572.09	84.26
572.25	11.70
572.41	100.64
572.57	32.77
572.74	86.60
572.90	58.51
573.06	11.70
573.22	74.90
573.38	184.90
573.55	84.26
573.71	100.64
573.87	119.37
574.03	107.66
574.20	105.32
574.36	112.35
574.52	53.83
574.68	60.85
574.84	60.85
575.01	77.24
575.17	95.96
575.33	93.62
575.49	77.24
575.65	117.03
575.82	74.90
575.98	91.28
576.14	79.58
576.30	124.05
576.46	107.66
576.62	0.00
576.79	49.15
576.95	84.26
577.11	23.41
577.27	23.41
577.43	88.94
577.59	39.79
577.75	51.49
577.92	126.39
578.08	72.56
578.24	110.01
578.40	133.41
578.56	51.49
578.72	21.06
578.88	140.43
579.04	49.15
579.21	56.17
579.37	11.70
579.53	128.73
579.69	77.24
579.85	100.64
580.01	58.51
580.17	126.39
580.33	105.32
580.49	86.60
580.65	28.09
580.82	117.03
580.98	21.06
581.14	35.11
581.30	86.60
581.46	117.03
581.62	114.69
581.78	84.26
581.94	117.03
582.10	81.92
582.26	77.24
582.42	114.69
582.58	53.83
582.74	65.54
582.90	81.92
583.06	84.26
583.22	105.32
583.38	100.64
583.54	58.51
583.70	51.49
583.86	21.06
584.02	35.11
584.18	124.05
584.34	124.05
584.50	70.22
584.66	114.69
584.82	70.22
584.98	173.20
585.14	28.09
585.30	145.11
585.46	65.54
585.62	98.30
585.78	86.60
585.94	60.85
586.10	93.62
586.26	119.37
586.42	51.49
586.58	58.51
586.74	74.90
586.90	117.03
587.06	77.24
587.22	58.51
587.38	105.32
587.54	51.49
587.70	37.45
587.86	65.54
588.02	86.60
588.18	35.11
588.34	77.24
588.49	11.70
588.65	81.92
588.81	138.09
588.97	91.28
589.13	49.15
589.29	84.26
589.45	112.35
589.61	56.17
589.77	67.88
589.93	100.64
590.08	63.19
590.24	60.85
590.40	126.39
590.56	74.90
590.72	21.06
590.88	140.43
591.04	46.81
591.20	100.64
591.35	28.09
591.51	58.51
591.67	91.28
591.83	56.17
591.99	58.51
592.15	42.13
592.31	126.39
592.46	79.58
592.62	98.30
592.78	16.38
592.94	65.54
593.10	93.62
593.26	51.49
593.41	42.13
593.57	67.88
593.73	117.03
593.89	70.22
594.05	51.49
594.20	88.94
594.36	110.01
594.52	70.22
594.68	0.00
594.84	91.28
594.99	72.56
595.15	51.49
595.31	124.05
595.47	72.56
595.62	166.18
595.78	58.51
595.94	91.28
596.10	102.98
596.25	16.38
596.41	2.34
596.57	32.77
596.73	95.96
596.88	53.83
597.04	2.34
597.20	56.17
597.36	110.01
597.51	42.13
597.67	135.75
597.83	53.83
597.99	79.58
598.14	72.56
598.30	67.88
598.46	79.58
598.61	135.75
598.77	98.30
598.93	84.26
599.09	63.19
599.24	58.51
599.40	72.56
599.56	88.94
599.71	67.88
599.87	65.54
600.03	0.00
600.18	2.34
600.34	98.30
600.50	37.45
600.65	32.77
600.81	70.22
600.97	107.66
601.12	72.56
601.28	65.54
601.44	79.58
601.59	23.41
601.75	4.68
601.91	74.90
602.06	65.54
602.22	65.54
602.37	124.05
602.53	7.02
602.69	49.15
602.84	7.02
603.00	84.26
603.16	44.47
603.31	70.22
603.47	37.45
603.62	110.01
603.78	81.92
603.94	88.94
604.09	32.77
604.25	28.09
604.40	107.66
604.56	51.49
604.71	30.43
604.87	126.39
605.03	93.62
605.18	79.58
605.34	124.05
605.49	53.83
605.65	11.70
605.80	46.81
605.96	39.79
606.12	0.00
606.27	63.19
606.43	110.01
606.58	81.92
606.74	23.41
606.89	91.28
607.05	25.75
607.20	51.49
607.36	74.90
607.51	49.15
607.67	58.51
607.82	56.17
607.98	44.47
608.13	42.13
608.29	88.94
608.44	74.90
608.60	95.96
608.75	100.64
608.91	60.85
609.06	63.19
609.22	58.51
609.37	67.88
609.53	44.47
609.68	58.51
609.84	49.15
609.99	51.49
610.15	114.69
610.30	37.45
610.46	102.98
610.61	91.28
610.76	126.39
610.92	98.30
611.07	107.66
611.23	154.48
611.38	88.94
611.54	0.00
611.69	74.90
611.84	4.68
612.00	93.62
612.15	35.11
612.31	58.51
612.46	0.00
612.62	49.15
612.77	49.15
612.92	49.15
613.08	28.09
613.23	91.28
613.39	32.77
613.54	28.09
613.69	70.22
613.85	98.30
614.00	46.81
614.15	60.85
614.31	84.26
614.46	56.17
614.62	70.22
614.77	14.04
614.92	25.75
615.08	98.30
615.23	21.06
615.38	74.90
615.54	77.24
615.69	100.64
615.84	65.54
616.00	100.64
616.15	74.90
616.30	79.58
616.46	77.24
616.61	100.64
616.76	147.45
616.92	91.28
617.07	107.66
617.22	79.58
617.37	72.56
617.53	110.01
617.68	7.02
617.83	0.00
617.99	60.85
618.14	145.11
618.29	128.73
618.45	63.19
618.60	51.49
618.75	9.36
618.90	28.09
619.06	84.26
619.21	133.41
619.36	53.83
619.51	74.90
619.67	98.30
619.82	81.92
619.97	98.30
620.12	44.47
620.28	67.88
620.43	100.64
620.58	37.45
620.73	65.54
620.89	77.24
621.04	46.81
621.19	49.15
621.34	44.47
621.49	91.28
621.65	102.98
621.80	35.11
621.95	126.39
622.10	44.47
622.25	28.09
622.41	117.03
622.56	51.49
622.71	91.28
622.86	126.39
623.01	93.62
623.16	58.51
623.32	14.04
623.47	105.32
623.62	14.04
623.77	84.26
623.92	39.79
624.07	37.45
624.23	107.66
624.38	21.06
624.53	18.72
624.68	84.26
624.83	16.38
624.98	65.54
625.13	51.49
625.29	21.06
625.44	91.28
625.59	51.49
625.74	77.24
625.89	0.00
626.04	39.79
626.19	18.72
626.34	23.41
626.49	102.98
626.65	107.66
626.80	81.92
626.95	30.43
627.10	58.51
627.25	74.90
627.40	91.28
627.55	37.45
627.70	49.15
627.85	0.00
628.00	77.24
628.15	51.49
628.30	0.00
628.45	25.75
628.60	102.98
628.76	60.85
628.91	58.51
629.06	51.49
629.21	117.03
629.36	0.00
629.51	42.13
629.66	37.45
629.81	0.00
629.96	70.22
630.11	91.28
630.26	194.26
630.41	70.22
630.56	98.30
630.71	63.19
630.86	23.41
631.01	84.26
631.16	72.56
631.31	56.17
631.46	46.81
631.61	21.06
631.76	23.41
631.91	58.51
632.06	149.79
632.21	58.51
632.36	44.47
632.51	107.66
632.66	51.49
632.81	112.35
632.96	110.01
633.10	14.04
633.25	60.85
633.40	18.72
633.55	60.85
633.70	42.13
633.85	9.36
634.00	84.26
634.15	53.83
634.30	25.75
634.45	18.72
634.60	58.51
634.75	70.22
634.90	131.07
635.05	60.85
635.19	88.94
635.34	53.83
635.49	42.13
635.64	60.85
635.79	86.60
635.94	81.92
636.09	110.01
636.24	88.94
636.39	56.17
636.53	67.88
636.68	56.17
636.83	105.32
636.98	56.17
637.13	58.51
637.28	72.56
637.43	86.60
637.57	133.41
637.72	49.15
637.87	0.00
638.02	30.43
638.17	112.35
638.32	35.11
638.46	110.01
638.61	49.15
638.76	79.58
638.91	35.11
639.06	28.09
639.20	74.90
639.35	60.85
639.50	63.19
639.65	0.00
639.80	2.34
639.94	44.47
640.09	42.13
640.24	2.34
640.39	98.30
640.54	39.79
640.68	102.98
640.83	81.92
640.98	119.37
641.13	39.79
641.27	2.34
641.42	95.96
641.57	70.22
641.72	37.45
641.86	46.81
642.01	0.00
642.16	72.56
642.31	67.88
642.45	11.70
642.60	21.06
642.75	21.06
642.90	93.62
643.04	0.00
643.19	70.22
643.34	51.49
643.48	30.43
643.63	63.19
643.78	4.68
643.93	39.79
644.07	2.34
644.22	58.51
644.37	35.11
644.51	0.00
644.66	107.66
644.81	70.22
644.95	63.19
645.10	110.01
645.25	53.83
645.39	70.22
645.54	95.96
645.69	0.00
645.83	93.62
645.98	107.66
646.13	0.00
646.27	0.00
646.42	133.41
646.57	70.22
646.71	25.75
646.86	35.11
647.00	14.04
647.15	30.43
647.30	117.03
647.44	30.43
647.59	70.22
647.74	53.83
647.88	23.41
648.03	35.11
648.17	91.28
648.32	107.66
648.47	16.38
648.61	100.64
648.76	35.11
648.90	70.22
649.05	117.03
649.20	18.72
649.34	51.49
649.49	46.81
649.63	0.00
649.78	44.47
649.92	81.92
650.07	77.24
650.21	102.98
650.36	46.81
650.51	95.96
650.65	39.79
650.80	0.00
650.94	51.49
651.09	51.49
651.23	84.26
651.38	37.45
651.52	39.79
651.67	53.83
651.81	23.41
651.96	58.51
652.10	105.32
652.25	32.77
652.39	60.85
652.54	60.85
652.68	18.72
652.83	9.36
652.97	21.06
653.12	44.47
653.26	95.96
653.41	0.00
653.55	58.51
653.70	98.30
653.84	65.54
653.99	18.72
654.13	72.56
654.27	11.70
654.42	4.68
654.56	77.24
654.71	119.37
654.85	88.94
655.00	67.88
655.14	37.45
655.29	42.13
655.43	42.13
655.57	35.11
655.72	93.62
655.86	65.54
656.01	51.49
656.15	0.00
656.30	30.43
656.44	49.15
656.58	0.00
656.73	25.75
656.87	77.24
657.01	46.81
657.16	16.38
657.30	51.49
657.45	37.45
657.59	70.22
657.73	53.83
657.88	16.38
658.02	58.51
658.16	95.96
658.31	28.09
658.45	0.00
658.60	23.41
658.74	65.54
658.88	16.38
659.03	86.60
659.17	25.75
659.31	0.00
659.46	21.06
659.60	9.36
659.74	72.56
659.89	60.85
660.03	65.54
660.17	37.45
660.32	16.38
660.46	88.94
660.60	56.17
660.74	53.83
660.89	107.66
661.03	56.17
661.17	63.19
661.32	145.11
661.46	37.45
661.60	30.43
661.74	56.17
661.89	105.32
662.03	46.81
662.17	95.96
662.31	91.28
662.46	70.22
662.60	67.88
662.74	28.09
662.88	74.90
663.03	23.41
663.17	124.05
663.31	30.43
663.45	72.56
663.60	4.68
663.74	11.70
663.88	110.01
664.02	30.43
664.17	65.54
664.31	35.11
664.45	84.26
664.59	32.77
664.73	0.00
664.88	114.69
665.02	91.28
665.16	0.00
665.30	72.56
665.44	25.75
665.59	21.06
665.73	35.11
665.87	21.06
666.01	42.13
666.15	35.11
666.29	84.26
666.44	124.05
666.58	21.06
666.72	51.49
666.86	95.96
667.00	39.79
667.14	56.17
667.28	56.17
667.43	84.26
667.57	37.45
667.71	51.49
667.85	16.38
667.99	23.41
668.13	0.00
668.27	58.51
668.41	46.81
668.56	0.00
668.70	46.81
668.84	23.41
668.98	67.88
669.12	0.00
669.26	14.04
669.40	28.09
669.54	49.15
669.68	53.83
669.82	79.58
669.96	126.39
670.10	70.22
670.25	98.30
670.39	44.47
670.53	107.66
670.67	11.70
670.81	117.03
670.95	42.13
671.09	35.11
671.23	58.51
671.37	21.06
671.51	95.96
671.65	84.26
671.79	74.90
671.93	18.72
672.07	65.54
672.21	49.15
672.35	0.00
672.49	84.26
672.63	16.38
672.77	53.83
672.91	39.79
673.05	70.22
673.19	74.90
673.33	79.58
673.47	88.94
673.61	77.24
673.75	72.56
673.89	51.49
674.03	39.79
674.17	84.26
674.31	32.77
674.45	37.45
674.59	91.28
674.73	81.92
674.87	2.34
675.01	91.28
675.15	93.62
675.29	93.62
675.43	81.92
675.56	18.72
675.70	42.13
675.84	44.47
675.98	32.77
676.12	11.70
676.26	84.26
676.40	53.83
676.54	28.09
676.68	37.45
676.82	32.77
676.96	114.69
677.10	51.49
677.23	30.43
677.37	91.28
677.51	37.45
677.65	56.17
677.79	49.15
677.93	51.49
678.07	63.19
678.21	65.54
678.34	39.79
678.48	65.54
678.62	18.72
678.76	7.02
678.90	0.00
679.04	0.00
679.18	72.56
679.31	28.09
679.45	51.49
679.59	37.45
679.73	79.58
679.87	37.45
680.00	72.56
680.14	117.03
680.28	28.09
680.42	0.00
680.56	7.02
680.70	35.11
680.83	114.69
680.97	60.85
681.11	35.11
681.25	56.17
681.39	28.09
681.52	46.81
681.66	30.43
681.80	0.00
681.94	42.13
682.07	49.15
682.21	39.79
682.35	0.00
682.49	18.72
682.62	86.60
682.76	32.77
682.90	49.15
683.04	0.00
683.17	51.49
683.31	49.15
683.45	58.51
683.59	77.24
683.72	18.72
683.86	49.15
684.00	9.36
684.13	70.22
684.27	72.56
684.41	70.22
684.55	2.34
684.68	35.11
684.82	23.41
684.96	107.66
685.09	95.96
685.23	35.11
685.37	37.45
685.50	49.15
685.64	21.06
685.78	86.60
685.91	44.47
686.05	14.04
686.19	28.09
686.32	133.41
686.46	98.30
686.60	30.43
686.73	16.38
686.87	67.88
687.01	0.00
687.14	28.09
687.28	2.34
687.42	11.70
687.55	72.56
687.69	0.00
687.82	30.43
687.96	46.81
688.10	63.19
688.23	67.88
688.37	60.85
688.50	21.06
688.64	16.38
688.78	30.43
688.91	65.54
689.05	53.83
689.18	0.00
689.32	42.13
689.46	86.60
689.59	39.79
689.73	0.00
689.86	44.47
690.00	2.34
690.13	79.58
690.27	0.00
690.41	16.38
690.54	39.79
690.68	67.88
690.81	18.72
690.95	35.11
691.08	63.19
691.22	0.00
691.35	0.00
691.49	16.38
691.62	44.47
691.76	0.00
691.89	16.38
692.03	107.66
692.16	72.56
692.30	58.51
692.43	21.06
692.57	53.83
692.70	42.13
692.84	0.00
692.97	51.49
693.11	74.90
693.24	28.09
693.38	65.54
693.51	18.72
693.65	0.00
693.78	72.56
693.92	0.00
694.05	44.47
694.19	21.06
694.32	49.15
694.45	0.00
694.59	0.00
694.72	0.00
694.86	60.85
694.99	25.75
695.13	35.11
695.26	42.13
695.39	70.22
695.53	2.34
695.66	112.35
695.80	88.94
695.93	23.41
696.07	67.88
696.20	74.90
696.33	63.19
696.47	9.36
696.60	0.00
696.73	23.41
696.87	67.88
697.00	63.19
697.14	79.58
697.27	65.54
697.40	2.34
697.54	42.13
697.67	63.19
697.80	51.49
697.94	23.41
698.07	49.15
698.21	88.94
698.34	84.26
698.47	14.04
698.61	91.28
698.74	18.72
698.87	0.00
699.01	0.00
699.14	60.85
699.27	39.79
699.40	18.72
699.54	25.75
699.67	0.00
699.80	23.41
699.94	25.75
700.07	51.49
700.20	0.00
700.34	56.17
700.47	0.00
700.60	67.88
700.73	56.17
700.87	60.85
701.00	32.77
701.13	21.06
701.26	100.64
701.40	53.83
701.53	9.36
701.66	77.24
701.79	2.34
701.93	0.00
702.06	39.79
702.19	56.17
702.32	79.58
702.46	14.04
702.59	60.85
702.72	86.60
702.85	28.09
702.99	67.88
703.12	9.36
703.25	84.26
703.38	16.38
703.51	53.83
703.65	11.70
703.78	49.15
703.91	145.11
704.04	32.77
704.17	49.15
704.31	91.28
704.44	49.15
704.57	44.47
704.70	63.19
704.83	0.00
704.96	67.88
705.10	77.24
705.23	51.49
>>>>>End Processed Spectral Data<<<<<
