SpectraSuite Data File
++++++++++++++++++++++++++++++++++++
Date: Fri Oct 04 12:13:39 GMT-05:00 2013
User: price-jones
Dark Spectrum Present: No
Reference Spectrum Present: No
Number of Sampled Component Spectra: 1
Spectrometers: USB2+H05261
Integration Time (usec): 10000 (USB2+H05261)
Spectra Averaged: 1 (USB2+H05261)
Boxcar Smoothing: 0 (USB2+H05261)
Correct for Electrical Dark: No (USB2+H05261)
Strobe/Lamp Enabled: No (USB2+H05261)
Correct for Detector Non-linearity: No (USB2+H05261)
Correct for Stray Light: No (USB2+H05261)
Number of Pixels in Processed Spectrum: 2048
>>>>>Begin Processed Spectral Data<<<<<
365.73	0.00
365.92	0.00
366.12	0.00
366.32	0.00
366.52	0.00
366.72	0.00
366.91	0.00
367.11	0.00
367.31	0.00
367.51	0.00
367.70	0.00
367.90	0.00
368.10	0.00
368.30	0.00
368.49	0.00
368.69	0.00
368.89	0.00
369.09	0.00
369.28	0.00
369.48	0.00
369.68	0.00
369.87	0.00
370.07	0.00
370.27	0.00
370.47	0.00
370.66	0.00
370.86	0.00
371.06	0.00
371.25	0.00
371.45	0.00
371.65	0.00
371.84	35.11
372.04	0.00
372.24	53.83
372.44	0.00
372.63	0.00
372.83	44.47
373.03	37.45
373.22	7.02
373.42	65.54
373.62	11.70
373.81	16.38
374.01	114.69
374.21	11.70
374.40	65.54
374.60	35.11
374.79	21.06
374.99	14.04
375.19	7.02
375.38	70.22
375.58	0.00
375.78	49.15
375.97	32.77
376.17	37.45
376.37	0.00
376.56	7.02
376.76	0.00
376.95	35.11
377.15	30.43
377.35	44.47
377.54	0.00
377.74	60.85
377.93	63.19
378.13	16.38
378.33	2.34
378.52	0.00
378.72	46.81
378.91	9.36
379.11	65.54
379.31	16.38
379.50	32.77
379.70	18.72
379.89	88.94
380.09	65.54
380.28	0.00
380.48	79.58
380.68	0.00
380.87	65.54
381.07	25.75
381.26	0.00
381.46	18.72
381.65	18.72
381.85	30.43
382.04	0.00
382.24	42.13
382.43	32.77
382.63	37.45
382.83	56.17
383.02	0.00
383.22	32.77
383.41	81.92
383.61	11.70
383.80	4.68
384.00	53.83
384.19	14.04
384.39	0.00
384.58	0.00
384.78	37.45
384.97	16.38
385.17	0.00
385.36	14.04
385.56	67.88
385.75	21.06
385.95	0.00
386.14	42.13
386.34	2.34
386.53	21.06
386.72	18.72
386.92	84.26
387.11	11.70
387.31	18.72
387.50	0.00
387.70	44.47
387.89	30.43
388.09	86.60
388.28	42.13
388.48	0.00
388.67	42.13
388.86	23.41
389.06	0.00
389.25	35.11
389.45	60.85
389.64	46.81
389.84	65.54
390.03	60.85
390.22	0.00
390.42	30.43
390.61	0.00
390.81	2.34
391.00	23.41
391.19	79.58
391.39	28.09
391.58	35.11
391.78	86.60
391.97	44.47
392.16	39.79
392.36	51.49
392.55	70.22
392.75	44.47
392.94	67.88
393.13	0.00
393.33	0.00
393.52	4.68
393.71	98.30
393.91	14.04
394.10	35.11
394.29	46.81
394.49	21.06
394.68	16.38
394.88	35.11
395.07	35.11
395.26	42.13
395.46	25.75
395.65	9.36
395.84	0.00
396.04	30.43
396.23	39.79
396.42	9.36
396.62	98.30
396.81	86.60
397.00	0.00
397.19	14.04
397.39	65.54
397.58	30.43
397.77	0.00
397.97	37.45
398.16	0.00
398.35	0.00
398.55	65.54
398.74	0.00
398.93	16.38
399.12	79.58
399.32	56.17
399.51	18.72
399.70	60.85
399.90	28.09
400.09	70.22
400.28	18.72
400.47	25.75
400.67	16.38
400.86	49.15
401.05	23.41
401.24	28.09
401.44	65.54
401.63	67.88
401.82	102.98
402.01	25.75
402.21	0.00
402.40	81.92
402.59	56.17
402.78	53.83
402.97	23.41
403.17	56.17
403.36	30.43
403.55	2.34
403.74	11.70
403.93	18.72
404.13	74.90
404.32	93.62
404.51	9.36
404.70	46.81
404.89	0.00
405.09	35.11
405.28	32.77
405.47	21.06
405.66	51.49
405.85	37.45
406.05	70.22
406.24	88.94
406.43	44.47
406.62	53.83
406.81	25.75
407.00	58.51
407.20	28.09
407.39	16.38
407.58	44.47
407.77	51.49
407.96	51.49
408.15	63.19
408.34	0.00
408.54	0.00
408.73	32.77
408.92	60.85
409.11	16.38
409.30	0.00
409.49	37.45
409.68	0.00
409.87	74.90
410.07	58.51
410.26	18.72
410.45	0.00
410.64	7.02
410.83	28.09
411.02	0.00
411.21	72.56
411.40	11.70
411.59	81.92
411.78	63.19
411.98	91.28
412.17	98.30
412.36	0.00
412.55	46.81
412.74	42.13
412.93	4.68
413.12	0.00
413.31	4.68
413.50	49.15
413.69	49.15
413.88	23.41
414.07	65.54
414.26	37.45
414.45	16.38
414.64	51.49
414.83	18.72
415.02	53.83
415.22	0.00
415.41	28.09
415.60	23.41
415.79	18.72
415.98	18.72
416.17	32.77
416.36	9.36
416.55	79.58
416.74	21.06
416.93	28.09
417.12	46.81
417.31	53.83
417.50	58.51
417.69	25.75
417.88	117.03
418.07	25.75
418.26	44.47
418.45	110.01
418.64	30.43
418.83	107.66
419.02	16.38
419.21	44.47
419.39	0.00
419.58	0.00
419.77	23.41
419.96	77.24
420.15	81.92
420.34	67.88
420.53	79.58
420.72	0.00
420.91	51.49
421.10	23.41
421.29	23.41
421.48	79.58
421.67	88.94
421.86	102.98
422.05	0.00
422.24	46.81
422.43	58.51
422.61	32.77
422.80	9.36
422.99	86.60
423.18	70.22
423.37	35.11
423.56	60.85
423.75	63.19
423.94	18.72
424.13	74.90
424.32	63.19
424.50	51.49
424.69	53.83
424.88	102.98
425.07	9.36
425.26	53.83
425.45	14.04
425.64	0.00
425.83	18.72
426.01	0.00
426.20	9.36
426.39	44.47
426.58	77.24
426.77	74.90
426.96	16.38
427.15	58.51
427.33	44.47
427.52	72.56
427.71	74.90
427.90	9.36
428.09	79.58
428.28	117.03
428.46	0.00
428.65	102.98
428.84	56.17
429.03	63.19
429.22	37.45
429.40	56.17
429.59	56.17
429.78	30.43
429.97	77.24
430.16	49.15
430.34	98.30
430.53	72.56
430.72	110.01
430.91	93.62
431.10	0.00
431.28	21.06
431.47	105.32
431.66	42.13
431.85	0.00
432.03	42.13
432.22	131.07
432.41	37.45
432.60	65.54
432.79	44.47
432.97	0.00
433.16	28.09
433.35	63.19
433.54	81.92
433.72	44.47
433.91	14.04
434.10	35.11
434.28	0.00
434.47	53.83
434.66	2.34
434.85	30.43
435.03	32.77
435.22	70.22
435.41	0.00
435.59	100.64
435.78	133.41
435.97	18.72
436.16	95.96
436.34	35.11
436.53	60.85
436.72	135.75
436.90	11.70
437.09	11.70
437.28	35.11
437.46	28.09
437.65	74.90
437.84	60.85
438.02	91.28
438.21	46.81
438.40	23.41
438.58	49.15
438.77	28.09
438.96	72.56
439.14	18.72
439.33	79.58
439.52	100.64
439.70	9.36
439.89	37.45
440.08	100.64
440.26	110.01
440.45	42.13
440.63	51.49
440.82	0.00
441.01	95.96
441.19	35.11
441.38	21.06
441.57	88.94
441.75	58.51
441.94	2.34
442.12	81.92
442.31	0.00
442.50	126.39
442.68	0.00
442.87	67.88
443.05	32.77
443.24	91.28
443.43	105.32
443.61	0.00
443.80	95.96
443.98	81.92
444.17	79.58
444.35	4.68
444.54	100.64
444.73	63.19
444.91	56.17
445.10	63.19
445.28	39.79
445.47	28.09
445.65	60.85
445.84	63.19
446.02	0.00
446.21	42.13
446.39	79.58
446.58	65.54
446.77	39.79
446.95	28.09
447.14	25.75
447.32	117.03
447.51	0.00
447.69	30.43
447.88	60.85
448.06	91.28
448.25	63.19
448.43	0.00
448.62	60.85
448.80	49.15
448.99	114.69
449.17	35.11
449.36	42.13
449.54	14.04
449.73	25.75
449.91	46.81
450.10	58.51
450.28	37.45
450.46	77.24
450.65	30.43
450.83	131.07
451.02	30.43
451.20	95.96
451.39	46.81
451.57	30.43
451.76	25.75
451.94	32.77
452.13	110.01
452.31	51.49
452.49	28.09
452.68	21.06
452.86	63.19
453.05	77.24
453.23	49.15
453.42	7.02
453.60	25.75
453.78	39.79
453.97	70.22
454.15	42.13
454.34	74.90
454.52	35.11
454.70	14.04
454.89	30.43
455.07	133.41
455.26	32.77
455.44	14.04
455.62	9.36
455.81	30.43
455.99	18.72
456.17	0.00
456.36	9.36
456.54	70.22
456.73	0.00
456.91	119.37
457.09	44.47
457.28	39.79
457.46	42.13
457.64	77.24
457.83	77.24
458.01	42.13
458.19	28.09
458.38	30.43
458.56	0.00
458.74	35.11
458.93	25.75
459.11	70.22
459.29	63.19
459.48	74.90
459.66	65.54
459.84	0.00
460.03	46.81
460.21	51.49
460.39	0.00
460.57	63.19
460.76	112.35
460.94	67.88
461.12	58.51
461.31	79.58
461.49	18.72
461.67	63.19
461.85	42.13
462.04	84.26
462.22	107.66
462.40	100.64
462.59	67.88
462.77	49.15
462.95	53.83
463.13	28.09
463.32	4.68
463.50	72.56
463.68	117.03
463.86	60.85
464.05	9.36
464.23	51.49
464.41	18.72
464.59	56.17
464.78	30.43
464.96	28.09
465.14	44.47
465.32	63.19
465.50	65.54
465.69	2.34
465.87	53.83
466.05	60.85
466.23	128.73
466.41	53.83
466.60	37.45
466.78	72.56
466.96	70.22
467.14	72.56
467.32	44.47
467.51	7.02
467.69	91.28
467.87	72.56
468.05	145.11
468.23	16.38
468.41	46.81
468.60	95.96
468.78	53.83
468.96	65.54
469.14	18.72
469.32	37.45
469.50	84.26
469.69	46.81
469.87	112.35
470.05	72.56
470.23	14.04
470.41	14.04
470.59	14.04
470.77	46.81
470.95	84.26
471.14	65.54
471.32	60.85
471.50	60.85
471.68	98.30
471.86	65.54
472.04	4.68
472.22	32.77
472.40	0.00
472.58	88.94
472.77	53.83
472.95	72.56
473.13	2.34
473.31	37.45
473.49	79.58
473.67	28.09
473.85	102.98
474.03	35.11
474.21	112.35
474.39	32.77
474.57	16.38
474.75	65.54
474.93	112.35
475.12	81.92
475.30	46.81
475.48	16.38
475.66	16.38
475.84	42.13
476.02	51.49
476.20	67.88
476.38	0.00
476.56	86.60
476.74	9.36
476.92	32.77
477.10	0.00
477.28	88.94
477.46	39.79
477.64	86.60
477.82	46.81
478.00	9.36
478.18	88.94
478.36	35.11
478.54	53.83
478.72	30.43
478.90	100.64
479.08	86.60
479.26	70.22
479.44	124.05
479.62	0.00
479.80	25.75
479.98	114.69
480.16	77.24
480.34	91.28
480.52	53.83
480.70	56.17
480.88	86.60
481.06	107.66
481.24	46.81
481.41	39.79
481.59	18.72
481.77	77.24
481.95	67.88
482.13	58.51
482.31	98.30
482.49	79.58
482.67	102.98
482.85	126.39
483.03	88.94
483.21	79.58
483.39	44.47
483.57	88.94
483.74	65.54
483.92	42.13
484.10	18.72
484.28	119.37
484.46	51.49
484.64	77.24
484.82	117.03
485.00	37.45
485.18	42.13
485.35	0.00
485.53	60.85
485.71	46.81
485.89	119.37
486.07	37.45
486.25	110.01
486.43	46.81
486.61	79.58
486.78	95.96
486.96	44.47
487.14	51.49
487.32	79.58
487.50	37.45
487.68	102.98
487.85	56.17
488.03	114.69
488.21	77.24
488.39	11.70
488.57	84.26
488.75	93.62
488.92	51.49
489.10	39.79
489.28	79.58
489.46	18.72
489.64	72.56
489.81	65.54
489.99	65.54
490.17	77.24
490.35	131.07
490.53	37.45
490.70	35.11
490.88	42.13
491.06	53.83
491.24	100.64
491.41	112.35
491.59	32.77
491.77	112.35
491.95	28.09
492.13	58.51
492.30	49.15
492.48	100.64
492.66	4.68
492.84	53.83
493.01	140.43
493.19	25.75
493.37	7.02
493.54	60.85
493.72	67.88
493.90	95.96
494.08	91.28
494.25	102.98
494.43	53.83
494.61	65.54
494.79	161.50
494.96	117.03
495.14	63.19
495.32	9.36
495.49	18.72
495.67	84.26
495.85	81.92
496.02	124.05
496.20	77.24
496.38	135.75
496.55	81.92
496.73	79.58
496.91	154.48
497.09	67.88
497.26	102.98
497.44	77.24
497.62	107.66
497.79	114.69
497.97	112.35
498.14	30.43
498.32	131.07
498.50	60.85
498.67	102.98
498.85	91.28
499.03	79.58
499.20	145.11
499.38	74.90
499.56	60.85
499.73	32.77
499.91	56.17
500.08	126.39
500.26	100.64
500.44	98.30
500.61	126.39
500.79	102.98
500.97	74.90
501.14	119.37
501.32	140.43
501.49	46.81
501.67	70.22
501.84	119.37
502.02	56.17
502.20	98.30
502.37	156.82
502.55	84.26
502.72	114.69
502.90	88.94
503.07	98.30
503.25	53.83
503.43	84.26
503.60	105.32
503.78	18.72
503.95	93.62
504.13	67.88
504.30	102.98
504.48	152.13
504.65	79.58
504.83	0.00
505.01	110.01
505.18	140.43
505.36	84.26
505.53	65.54
505.71	77.24
505.88	0.00
506.06	86.60
506.23	166.18
506.41	119.37
506.58	18.72
506.76	65.54
506.93	25.75
507.11	77.24
507.28	95.96
507.46	65.54
507.63	154.48
507.81	84.26
507.98	28.09
508.16	63.19
508.33	37.45
508.50	58.51
508.68	39.79
508.85	81.92
509.03	0.00
509.20	32.77
509.38	74.90
509.55	25.75
509.73	86.60
509.90	114.69
510.08	163.84
510.25	121.71
510.42	117.03
510.60	16.38
510.77	77.24
510.95	168.52
511.12	74.90
511.30	98.30
511.47	142.77
511.64	93.62
511.82	67.88
511.99	84.26
512.17	86.60
512.34	56.17
512.51	84.26
512.69	74.90
512.86	142.77
513.04	140.43
513.21	119.37
513.38	63.19
513.56	70.22
513.73	56.17
513.90	35.11
514.08	21.06
514.25	37.45
514.43	88.94
514.60	49.15
514.77	105.32
514.95	81.92
515.12	37.45
515.29	42.13
515.47	42.13
515.64	114.69
515.81	44.47
515.99	166.18
516.16	156.82
516.33	63.19
516.51	88.94
516.68	91.28
516.85	105.32
517.03	58.51
517.20	51.49
517.37	147.45
517.54	84.26
517.72	112.35
517.89	74.90
518.06	88.94
518.24	49.15
518.41	77.24
518.58	79.58
518.75	84.26
518.93	93.62
519.10	95.96
519.27	70.22
519.45	105.32
519.62	91.28
519.79	117.03
519.96	93.62
520.14	145.11
520.31	79.58
520.48	35.11
520.65	112.35
520.83	93.62
521.00	93.62
521.17	67.88
521.34	67.88
521.52	28.09
521.69	53.83
521.86	70.22
522.03	7.02
522.20	70.22
522.38	63.19
522.55	7.02
522.72	72.56
522.89	117.03
523.07	117.03
523.24	86.60
523.41	91.28
523.58	156.82
523.75	91.28
523.92	100.64
524.10	63.19
524.27	35.11
524.44	39.79
524.61	58.51
524.78	81.92
524.96	175.54
525.13	110.01
525.30	84.26
525.47	81.92
525.64	126.39
525.81	72.56
525.98	67.88
526.16	49.15
526.33	110.01
526.50	53.83
526.67	117.03
526.84	112.35
527.01	147.45
527.18	95.96
527.36	147.45
527.53	93.62
527.70	77.24
527.87	159.16
528.04	159.16
528.21	74.90
528.38	121.71
528.55	140.43
528.72	42.13
528.89	79.58
529.07	121.71
529.24	91.28
529.41	149.79
529.58	98.30
529.75	102.98
529.92	112.35
530.09	98.30
530.26	152.13
530.43	74.90
530.60	72.56
530.77	79.58
530.94	58.51
531.11	77.24
531.28	42.13
531.46	58.51
531.63	93.62
531.80	70.22
531.97	100.64
532.14	79.58
532.31	53.83
532.48	65.54
532.65	95.96
532.82	84.26
532.99	70.22
533.16	58.51
533.33	74.90
533.50	65.54
533.67	72.56
533.84	121.71
534.01	93.62
534.18	44.47
534.35	16.38
534.52	51.49
534.69	81.92
534.86	35.11
535.03	177.88
535.20	166.18
535.37	51.49
535.54	124.05
535.71	117.03
535.88	67.88
536.05	91.28
536.22	156.82
536.38	117.03
536.55	131.07
536.72	72.56
536.89	25.75
537.06	67.88
537.23	32.77
537.40	114.69
537.57	95.96
537.74	88.94
537.91	131.07
538.08	72.56
538.25	124.05
538.42	152.13
538.59	93.62
538.75	131.07
538.92	37.45
539.09	119.37
539.26	46.81
539.43	21.06
539.60	98.30
539.77	126.39
539.94	65.54
540.11	65.54
540.28	145.11
540.44	51.49
540.61	117.03
540.78	25.75
540.95	79.58
541.12	124.05
541.29	65.54
541.46	98.30
541.62	145.11
541.79	72.56
541.96	79.58
542.13	74.90
542.30	49.15
542.47	168.52
542.63	93.62
542.80	37.45
542.97	105.32
543.14	91.28
543.31	44.47
543.48	107.66
543.64	95.96
543.81	117.03
543.98	70.22
544.15	23.41
544.32	65.54
544.48	84.26
544.65	72.56
544.82	49.15
544.99	110.01
545.16	133.41
545.32	93.62
545.49	105.32
545.66	86.60
545.83	138.09
546.00	84.26
546.16	100.64
546.33	30.43
546.50	56.17
546.67	51.49
546.83	81.92
547.00	98.30
547.17	145.11
547.34	51.49
547.50	63.19
547.67	46.81
547.84	121.71
548.00	88.94
548.17	163.84
548.34	128.73
548.51	67.88
548.67	110.01
548.84	74.90
549.01	124.05
549.18	121.71
549.34	91.28
549.51	58.51
549.68	84.26
549.84	9.36
550.01	102.98
550.18	110.01
550.34	79.58
550.51	95.96
550.68	0.00
550.84	110.01
551.01	23.41
551.18	112.35
551.34	84.26
551.51	117.03
551.68	114.69
551.84	49.15
552.01	84.26
552.18	39.79
552.34	170.86
552.51	30.43
552.68	9.36
552.84	74.90
553.01	42.13
553.18	46.81
553.34	128.73
553.51	126.39
553.67	140.43
553.84	72.56
554.01	112.35
554.17	39.79
554.34	58.51
554.51	84.26
554.67	102.98
554.84	91.28
555.00	74.90
555.17	21.06
555.33	93.62
555.50	35.11
555.67	53.83
555.83	95.96
556.00	121.71
556.16	86.60
556.33	149.79
556.50	86.60
556.66	95.96
556.83	28.09
556.99	60.85
557.16	23.41
557.32	107.66
557.49	44.47
557.65	117.03
557.82	102.98
557.98	42.13
558.15	102.98
558.32	11.70
558.48	84.26
558.65	0.00
558.81	117.03
558.98	95.96
559.14	72.56
559.31	72.56
559.47	86.60
559.64	91.28
559.80	74.90
559.97	128.73
560.13	110.01
560.30	88.94
560.46	42.13
560.63	105.32
560.79	112.35
560.96	74.90
561.12	98.30
561.29	102.98
561.45	67.88
561.61	49.15
561.78	119.37
561.94	126.39
562.11	28.09
562.27	44.47
562.44	84.26
562.60	135.75
562.77	53.83
562.93	102.98
563.10	42.13
563.26	145.11
563.42	142.77
563.59	79.58
563.75	102.98
563.92	72.56
564.08	37.45
564.24	95.96
564.41	93.62
564.57	91.28
564.74	105.32
564.90	100.64
565.07	138.09
565.23	23.41
565.39	100.64
565.56	98.30
565.72	72.56
565.88	70.22
566.05	135.75
566.21	46.81
566.38	44.47
566.54	133.41
566.70	70.22
566.87	67.88
567.03	35.11
567.19	81.92
567.36	81.92
567.52	79.58
567.68	0.00
567.85	32.77
568.01	88.94
568.17	25.75
568.34	46.81
568.50	107.66
568.66	42.13
568.83	63.19
568.99	72.56
569.15	60.85
569.32	77.24
569.48	91.28
569.64	58.51
569.81	63.19
569.97	67.88
570.13	72.56
570.30	35.11
570.46	145.11
570.62	79.58
570.78	77.24
570.95	81.92
571.11	67.88
571.27	74.90
571.43	86.60
571.60	152.13
571.76	79.58
571.92	79.58
572.09	88.94
572.25	53.83
572.41	117.03
572.57	138.09
572.74	56.17
572.90	39.79
573.06	77.24
573.22	86.60
573.38	117.03
573.55	114.69
573.71	42.13
573.87	133.41
574.03	67.88
574.20	93.62
574.36	70.22
574.52	67.88
574.68	128.73
574.84	131.07
575.01	49.15
575.17	138.09
575.33	98.30
575.49	121.71
575.65	32.77
575.82	42.13
575.98	4.68
576.14	119.37
576.30	91.28
576.46	42.13
576.62	37.45
576.79	39.79
576.95	81.92
577.11	95.96
577.27	145.11
577.43	81.92
577.59	138.09
577.75	70.22
577.92	39.79
578.08	84.26
578.24	74.90
578.40	58.51
578.56	121.71
578.72	65.54
578.88	42.13
579.04	86.60
579.21	60.85
579.37	35.11
579.53	98.30
579.69	72.56
579.85	16.38
580.01	42.13
580.17	105.32
580.33	67.88
580.49	11.70
580.65	131.07
580.82	37.45
580.98	60.85
581.14	98.30
581.30	112.35
581.46	58.51
581.62	95.96
581.78	84.26
581.94	77.24
582.10	107.66
582.26	98.30
582.42	119.37
582.58	56.17
582.74	93.62
582.90	60.85
583.06	42.13
583.22	46.81
583.38	53.83
583.54	102.98
583.70	91.28
583.86	42.13
584.02	91.28
584.18	105.32
584.34	135.75
584.50	39.79
584.66	53.83
584.82	56.17
584.98	25.75
585.14	70.22
585.30	138.09
585.46	88.94
585.62	107.66
585.78	77.24
585.94	63.19
586.10	65.54
586.26	88.94
586.42	74.90
586.58	70.22
586.74	91.28
586.90	60.85
587.06	95.96
587.22	107.66
587.38	102.98
587.54	44.47
587.70	102.98
587.86	107.66
588.02	63.19
588.18	128.73
588.34	49.15
588.49	119.37
588.65	100.64
588.81	65.54
588.97	72.56
589.13	138.09
589.29	67.88
589.45	42.13
589.61	35.11
589.77	39.79
589.93	35.11
590.08	51.49
590.24	9.36
590.40	42.13
590.56	91.28
590.72	49.15
590.88	51.49
591.04	81.92
591.20	100.64
591.35	105.32
591.51	11.70
591.67	107.66
591.83	56.17
591.99	77.24
592.15	72.56
592.31	65.54
592.46	0.00
592.62	131.07
592.78	0.00
592.94	105.32
593.10	51.49
593.26	107.66
593.41	74.90
593.57	95.96
593.73	35.11
593.89	91.28
594.05	100.64
594.20	28.09
594.36	102.98
594.52	65.54
594.68	44.47
594.84	91.28
594.99	63.19
595.15	0.00
595.31	49.15
595.47	35.11
595.62	81.92
595.78	74.90
595.94	98.30
596.10	86.60
596.25	79.58
596.41	63.19
596.57	112.35
596.73	67.88
596.88	56.17
597.04	21.06
597.20	56.17
597.36	37.45
597.51	44.47
597.67	21.06
597.83	79.58
597.99	70.22
598.14	131.07
598.30	126.39
598.46	18.72
598.61	42.13
598.77	156.82
598.93	128.73
599.09	110.01
599.24	39.79
599.40	0.00
599.56	39.79
599.71	74.90
599.87	65.54
600.03	77.24
600.18	23.41
600.34	100.64
600.50	67.88
600.65	84.26
600.81	0.00
600.97	79.58
601.12	0.00
601.28	70.22
601.44	60.85
601.59	135.75
601.75	81.92
601.91	9.36
602.06	51.49
602.22	102.98
602.37	119.37
602.53	72.56
602.69	23.41
602.84	30.43
603.00	44.47
603.16	44.47
603.31	56.17
603.47	88.94
603.62	74.90
603.78	74.90
603.94	49.15
604.09	42.13
604.25	149.79
604.40	46.81
604.56	42.13
604.71	72.56
604.87	51.49
605.03	49.15
605.18	60.85
605.34	91.28
605.49	114.69
605.65	100.64
605.80	117.03
605.96	102.98
606.12	11.70
606.27	93.62
606.43	46.81
606.58	74.90
606.74	86.60
606.89	110.01
607.05	46.81
607.20	91.28
607.36	74.90
607.51	60.85
607.67	74.90
607.82	107.66
607.98	70.22
608.13	74.90
608.29	44.47
608.44	77.24
608.60	126.39
608.75	102.98
608.91	67.88
609.06	107.66
609.22	86.60
609.37	81.92
609.53	25.75
609.68	74.90
609.84	72.56
609.99	18.72
610.15	79.58
610.30	28.09
610.46	42.13
610.61	117.03
610.76	110.01
610.92	147.45
611.07	14.04
611.23	65.54
611.38	35.11
611.54	91.28
611.69	4.68
611.84	30.43
612.00	60.85
612.15	35.11
612.31	23.41
612.46	81.92
612.62	112.35
612.77	65.54
612.92	67.88
613.08	98.30
613.23	65.54
613.39	77.24
613.54	81.92
613.69	79.58
613.85	72.56
614.00	114.69
614.15	9.36
614.31	140.43
614.46	28.09
614.62	39.79
614.77	49.15
614.92	56.17
615.08	44.47
615.23	4.68
615.38	53.83
615.54	107.66
615.69	46.81
615.84	28.09
616.00	126.39
616.15	56.17
616.30	93.62
616.46	44.47
616.61	70.22
616.76	88.94
616.92	84.26
617.07	23.41
617.22	65.54
617.37	30.43
617.53	88.94
617.68	4.68
617.83	93.62
617.99	95.96
618.14	72.56
618.29	60.85
618.45	63.19
618.60	60.85
618.75	46.81
618.90	65.54
619.06	44.47
619.21	9.36
619.36	102.98
619.51	81.92
619.67	23.41
619.82	81.92
619.97	112.35
620.12	95.96
620.28	49.15
620.43	102.98
620.58	14.04
620.73	110.01
620.89	126.39
621.04	70.22
621.19	119.37
621.34	46.81
621.49	0.00
621.65	84.26
621.80	93.62
621.95	42.13
622.10	81.92
622.25	9.36
622.41	53.83
622.56	114.69
622.71	49.15
622.86	0.00
623.01	9.36
623.16	77.24
623.32	74.90
623.47	37.45
623.62	32.77
623.77	72.56
623.92	74.90
624.07	70.22
624.23	119.37
624.38	100.64
624.53	112.35
624.68	7.02
624.83	18.72
624.98	77.24
625.13	25.75
625.29	107.66
625.44	37.45
625.59	23.41
625.74	7.02
625.89	46.81
626.04	46.81
626.19	105.32
626.34	25.75
626.49	110.01
626.65	91.28
626.80	25.75
626.95	67.88
627.10	58.51
627.25	86.60
627.40	46.81
627.55	46.81
627.70	100.64
627.85	0.00
628.00	42.13
628.15	72.56
628.30	25.75
628.45	16.38
628.60	53.83
628.76	44.47
628.91	81.92
629.06	107.66
629.21	63.19
629.36	77.24
629.51	42.13
629.66	79.58
629.81	35.11
629.96	16.38
630.11	60.85
630.26	65.54
630.41	49.15
630.56	58.51
630.71	42.13
630.86	0.00
631.01	16.38
631.16	25.75
631.31	42.13
631.46	14.04
631.61	102.98
631.76	74.90
631.91	0.00
632.06	0.00
632.21	65.54
632.36	154.48
632.51	46.81
632.66	9.36
632.81	23.41
632.96	49.15
633.10	121.71
633.25	126.39
633.40	53.83
633.55	14.04
633.70	21.06
633.85	37.45
634.00	0.00
634.15	74.90
634.30	95.96
634.45	72.56
634.60	112.35
634.75	79.58
634.90	93.62
635.05	53.83
635.19	86.60
635.34	37.45
635.49	35.11
635.64	16.38
635.79	110.01
635.94	100.64
636.09	35.11
636.24	2.34
636.39	32.77
636.53	126.39
636.68	42.13
636.83	14.04
636.98	46.81
637.13	128.73
637.28	74.90
637.43	0.00
637.57	11.70
637.72	11.70
637.87	117.03
638.02	84.26
638.17	79.58
638.32	81.92
638.46	35.11
638.61	65.54
638.76	77.24
638.91	21.06
639.06	98.30
639.20	0.00
639.35	93.62
639.50	4.68
639.65	39.79
639.80	30.43
639.94	44.47
640.09	98.30
640.24	32.77
640.39	35.11
640.54	39.79
640.68	67.88
640.83	0.00
640.98	81.92
641.13	72.56
641.27	42.13
641.42	28.09
641.57	21.06
641.72	60.85
641.86	72.56
642.01	93.62
642.16	72.56
642.31	30.43
642.45	72.56
642.60	93.62
642.75	44.47
642.90	0.00
643.04	28.09
643.19	60.85
643.34	102.98
643.48	63.19
643.63	25.75
643.78	67.88
643.93	21.06
644.07	35.11
644.22	0.00
644.37	63.19
644.51	102.98
644.66	65.54
644.81	16.38
644.95	9.36
645.10	0.00
645.25	0.00
645.39	51.49
645.54	72.56
645.69	93.62
645.83	65.54
645.98	86.60
646.13	4.68
646.27	51.49
646.42	35.11
646.57	67.88
646.71	9.36
646.86	56.17
647.00	30.43
647.15	107.66
647.30	30.43
647.44	100.64
647.59	14.04
647.74	42.13
647.88	74.90
648.03	46.81
648.17	70.22
648.32	49.15
648.47	51.49
648.61	65.54
648.76	110.01
648.90	25.75
649.05	60.85
649.20	0.00
649.34	11.70
649.49	84.26
649.63	42.13
649.78	91.28
649.92	140.43
650.07	81.92
650.21	23.41
650.36	35.11
650.51	32.77
650.65	16.38
650.80	56.17
650.94	46.81
651.09	46.81
651.23	53.83
651.38	35.11
651.52	28.09
651.67	18.72
651.81	18.72
651.96	0.00
652.10	70.22
652.25	107.66
652.39	9.36
652.54	42.13
652.68	2.34
652.83	14.04
652.97	77.24
653.12	72.56
653.26	28.09
653.41	114.69
653.55	86.60
653.70	72.56
653.84	84.26
653.99	14.04
654.13	65.54
654.27	16.38
654.42	58.51
654.56	93.62
654.71	124.05
654.85	60.85
655.00	35.11
655.14	32.77
655.29	4.68
655.43	49.15
655.57	0.00
655.72	51.49
655.86	100.64
656.01	42.13
656.15	72.56
656.30	107.66
656.44	56.17
656.58	30.43
656.73	53.83
656.87	21.06
657.01	67.88
657.16	81.92
657.30	39.79
657.45	49.15
657.59	4.68
657.73	86.60
657.88	81.92
658.02	74.90
658.16	93.62
658.31	32.77
658.45	18.72
658.60	84.26
658.74	70.22
658.88	98.30
659.03	39.79
659.17	44.47
659.31	0.00
659.46	0.00
659.60	121.71
659.74	56.17
659.89	65.54
660.03	11.70
660.17	112.35
660.32	72.56
660.46	72.56
660.60	77.24
660.74	81.92
660.89	39.79
661.03	81.92
661.17	42.13
661.32	46.81
661.46	0.00
661.60	16.38
661.74	42.13
661.89	70.22
662.03	79.58
662.17	88.94
662.31	72.56
662.46	44.47
662.60	46.81
662.74	67.88
662.88	35.11
663.03	35.11
663.17	72.56
663.31	67.88
663.45	110.01
663.60	21.06
663.74	39.79
663.88	100.64
664.02	53.83
664.17	79.58
664.31	28.09
664.45	39.79
664.59	95.96
664.73	60.85
664.88	37.45
665.02	9.36
665.16	25.75
665.30	65.54
665.44	60.85
665.59	51.49
665.73	42.13
665.87	67.88
666.01	58.51
666.15	58.51
666.29	93.62
666.44	53.83
666.58	95.96
666.72	117.03
666.86	65.54
667.00	0.00
667.14	42.13
667.28	51.49
667.43	100.64
667.57	37.45
667.71	67.88
667.85	18.72
667.99	67.88
668.13	58.51
668.27	58.51
668.41	0.00
668.56	9.36
668.70	18.72
668.84	0.00
668.98	72.56
669.12	88.94
669.26	51.49
669.40	53.83
669.54	30.43
669.68	35.11
669.82	112.35
669.96	39.79
670.10	42.13
670.25	37.45
670.39	74.90
670.53	0.00
670.67	58.51
670.81	60.85
670.95	51.49
671.09	32.77
671.23	7.02
671.37	91.28
671.51	21.06
671.65	63.19
671.79	35.11
671.93	81.92
672.07	100.64
672.21	131.07
672.35	95.96
672.49	79.58
672.63	46.81
672.77	95.96
672.91	49.15
673.05	81.92
673.19	49.15
673.33	67.88
673.47	77.24
673.61	28.09
673.75	9.36
673.89	0.00
674.03	74.90
674.17	39.79
674.31	35.11
674.45	107.66
674.59	128.73
674.73	67.88
674.87	53.83
675.01	124.05
675.15	44.47
675.29	77.24
675.43	86.60
675.56	84.26
675.70	126.39
675.84	4.68
675.98	23.41
676.12	93.62
676.26	44.47
676.40	2.34
676.54	58.51
676.68	9.36
676.82	0.00
676.96	67.88
677.10	65.54
677.23	9.36
677.37	0.00
677.51	35.11
677.65	37.45
677.79	35.11
677.93	58.51
678.07	93.62
678.21	42.13
678.34	65.54
678.48	67.88
678.62	70.22
678.76	35.11
678.90	67.88
679.04	28.09
679.18	56.17
679.31	23.41
679.45	0.00
679.59	4.68
679.73	0.00
679.87	0.00
680.00	30.43
680.14	102.98
680.28	88.94
680.42	21.06
680.56	107.66
680.70	72.56
680.83	0.00
680.97	25.75
681.11	110.01
681.25	56.17
681.39	42.13
681.52	63.19
681.66	60.85
681.80	0.00
681.94	2.34
682.07	16.38
682.21	51.49
682.35	46.81
682.49	0.00
682.62	0.00
682.76	67.88
682.90	0.00
683.04	0.00
683.17	105.32
683.31	67.88
683.45	93.62
683.59	60.85
683.72	91.28
683.86	51.49
684.00	28.09
684.13	95.96
684.27	56.17
684.41	44.47
684.55	0.00
684.68	51.49
684.82	16.38
684.96	9.36
685.09	46.81
685.23	53.83
685.37	53.83
685.50	67.88
685.64	7.02
685.78	72.56
685.91	49.15
686.05	0.00
686.19	65.54
686.32	53.83
686.46	37.45
686.60	72.56
686.73	51.49
686.87	58.51
687.01	21.06
687.14	44.47
687.28	46.81
687.42	39.79
687.55	2.34
687.69	30.43
687.82	102.98
687.96	46.81
688.10	30.43
688.23	32.77
688.37	107.66
688.50	37.45
688.64	46.81
688.78	0.00
688.91	107.66
689.05	72.56
689.18	7.02
689.32	21.06
689.46	65.54
689.59	70.22
689.73	23.41
689.86	67.88
690.00	60.85
690.13	42.13
690.27	0.00
690.41	0.00
690.54	0.00
690.68	56.17
690.81	28.09
690.95	2.34
691.08	2.34
691.22	46.81
691.35	138.09
691.49	65.54
691.62	46.81
691.76	142.77
691.89	79.58
692.03	11.70
692.16	0.00
692.30	46.81
692.43	51.49
692.57	11.70
692.70	51.49
692.84	0.00
692.97	0.00
693.11	53.83
693.24	35.11
693.38	0.00
693.51	0.00
693.65	0.00
693.78	110.01
693.92	37.45
694.05	37.45
694.19	51.49
694.32	86.60
694.45	0.00
694.59	0.00
694.72	25.75
694.86	14.04
694.99	49.15
695.13	39.79
695.26	37.45
695.39	0.00
695.53	86.60
695.66	14.04
695.80	30.43
695.93	32.77
696.07	18.72
696.20	51.49
696.33	65.54
696.47	28.09
696.60	37.45
696.73	42.13
696.87	98.30
697.00	67.88
697.14	37.45
697.27	0.00
697.40	28.09
697.54	30.43
697.67	100.64
697.80	14.04
697.94	60.85
698.07	88.94
698.21	14.04
698.34	53.83
698.47	9.36
698.61	9.36
698.74	95.96
698.87	56.17
699.01	44.47
699.14	28.09
699.27	0.00
699.40	2.34
699.54	39.79
699.67	46.81
699.80	16.38
699.94	0.00
700.07	51.49
700.20	0.00
700.34	53.83
700.47	0.00
700.60	70.22
700.73	77.24
700.87	49.15
701.00	60.85
701.13	44.47
701.26	56.17
701.40	60.85
701.53	0.00
701.66	114.69
701.79	58.51
701.93	51.49
702.06	0.00
702.19	30.43
702.32	25.75
702.46	7.02
702.59	56.17
702.72	72.56
702.85	86.60
702.99	32.77
703.12	7.02
703.25	30.43
703.38	18.72
703.51	37.45
703.65	14.04
703.78	67.88
703.91	30.43
704.04	44.47
704.17	60.85
704.31	67.88
704.44	114.69
704.57	28.09
704.70	21.06
704.83	86.60
704.96	107.66
705.10	131.07
705.23	56.17
>>>>>End Processed Spectral Data<<<<<
