SpectraSuite Data File
++++++++++++++++++++++++++++++++++++
Date: Fri Oct 04 12:13:32 GMT-05:00 2013
User: price-jones
Dark Spectrum Present: No
Reference Spectrum Present: No
Number of Sampled Component Spectra: 1
Spectrometers: USB2+H05261
Integration Time (usec): 10000 (USB2+H05261)
Spectra Averaged: 1 (USB2+H05261)
Boxcar Smoothing: 0 (USB2+H05261)
Correct for Electrical Dark: No (USB2+H05261)
Strobe/Lamp Enabled: No (USB2+H05261)
Correct for Detector Non-linearity: No (USB2+H05261)
Correct for Stray Light: No (USB2+H05261)
Number of Pixels in Processed Spectrum: 2048
>>>>>Begin Processed Spectral Data<<<<<
365.73	18.72
365.92	18.72
366.12	18.72
366.32	0.00
366.52	0.00
366.72	0.00
366.91	0.00
367.11	0.00
367.31	0.00
367.51	0.00
367.70	0.00
367.90	0.00
368.10	0.00
368.30	0.00
368.49	0.00
368.69	0.00
368.89	0.00
369.09	0.00
369.28	0.00
369.48	0.00
369.68	0.00
369.87	0.00
370.07	0.00
370.27	0.00
370.47	0.00
370.66	0.00
370.86	9.36
371.06	0.00
371.25	0.00
371.45	0.00
371.65	0.00
371.84	0.00
372.04	14.04
372.24	0.00
372.44	0.00
372.63	9.36
372.83	58.51
373.03	0.00
373.22	4.68
373.42	63.19
373.62	28.09
373.81	16.38
374.01	0.00
374.21	63.19
374.40	63.19
374.60	28.09
374.79	0.00
374.99	11.70
375.19	74.90
375.38	56.17
375.58	0.00
375.78	72.56
375.97	0.00
376.17	56.17
376.37	42.13
376.56	100.64
376.76	14.04
376.95	53.83
377.15	0.00
377.35	0.00
377.54	21.06
377.74	18.72
377.93	14.04
378.13	30.43
378.33	11.70
378.52	42.13
378.72	39.79
378.91	0.00
379.11	0.00
379.31	0.00
379.50	25.75
379.70	51.49
379.89	46.81
380.09	16.38
380.28	0.00
380.48	0.00
380.68	0.00
380.87	0.00
381.07	16.38
381.26	0.00
381.46	53.83
381.65	30.43
381.85	72.56
382.04	32.77
382.24	102.98
382.43	0.00
382.63	2.34
382.83	25.75
383.02	0.00
383.22	0.00
383.41	39.79
383.61	63.19
383.80	14.04
384.00	35.11
384.19	53.83
384.39	86.60
384.58	37.45
384.78	0.00
384.97	0.00
385.17	0.00
385.36	25.75
385.56	32.77
385.75	0.00
385.95	4.68
386.14	81.92
386.34	32.77
386.53	0.00
386.72	46.81
386.92	74.90
387.11	2.34
387.31	56.17
387.50	44.47
387.70	0.00
387.89	0.00
388.09	39.79
388.28	28.09
388.48	23.41
388.67	74.90
388.86	16.38
389.06	14.04
389.25	0.00
389.45	35.11
389.64	0.00
389.84	49.15
390.03	0.00
390.22	9.36
390.42	7.02
390.61	60.85
390.81	37.45
391.00	16.38
391.19	0.00
391.39	42.13
391.58	14.04
391.78	63.19
391.97	4.68
392.16	0.00
392.36	51.49
392.55	0.00
392.75	53.83
392.94	60.85
393.13	0.00
393.33	21.06
393.52	23.41
393.71	0.00
393.91	0.00
394.10	28.09
394.29	7.02
394.49	44.47
394.68	0.00
394.88	4.68
395.07	0.00
395.26	30.43
395.46	14.04
395.65	0.00
395.84	0.00
396.04	35.11
396.23	49.15
396.42	30.43
396.62	0.00
396.81	0.00
397.00	0.00
397.19	23.41
397.39	0.00
397.58	2.34
397.77	46.81
397.97	49.15
398.16	11.70
398.35	21.06
398.55	46.81
398.74	28.09
398.93	25.75
399.12	0.00
399.32	0.00
399.51	49.15
399.70	0.00
399.90	0.00
400.09	70.22
400.28	42.13
400.47	39.79
400.67	124.05
400.86	117.03
401.05	79.58
401.24	0.00
401.44	0.00
401.63	18.72
401.82	51.49
402.01	56.17
402.21	35.11
402.40	14.04
402.59	0.00
402.78	0.00
402.97	0.00
403.17	51.49
403.36	42.13
403.55	35.11
403.74	0.00
403.93	0.00
404.13	0.00
404.32	0.00
404.51	18.72
404.70	4.68
404.89	37.45
405.09	0.00
405.28	0.00
405.47	37.45
405.66	25.75
405.85	28.09
406.05	121.71
406.24	74.90
406.43	56.17
406.62	88.94
406.81	9.36
407.00	18.72
407.20	0.00
407.39	0.00
407.58	30.43
407.77	25.75
407.96	28.09
408.15	9.36
408.34	35.11
408.54	51.49
408.73	53.83
408.92	25.75
409.11	0.00
409.30	23.41
409.49	39.79
409.68	18.72
409.87	100.64
410.07	11.70
410.26	65.54
410.45	23.41
410.64	81.92
410.83	11.70
411.02	0.00
411.21	121.71
411.40	4.68
411.59	0.00
411.78	4.68
411.98	0.00
412.17	35.11
412.36	18.72
412.55	32.77
412.74	51.49
412.93	58.51
413.12	0.00
413.31	11.70
413.50	0.00
413.69	2.34
413.88	84.26
414.07	0.00
414.26	39.79
414.45	4.68
414.64	37.45
414.83	0.00
415.02	25.75
415.22	7.02
415.41	23.41
415.60	88.94
415.79	14.04
415.98	39.79
416.17	16.38
416.36	7.02
416.55	0.00
416.74	25.75
416.93	0.00
417.12	46.81
417.31	30.43
417.50	0.00
417.69	18.72
417.88	56.17
418.07	25.75
418.26	39.79
418.45	74.90
418.64	9.36
418.83	95.96
419.02	39.79
419.21	0.00
419.39	0.00
419.58	2.34
419.77	28.09
419.96	53.83
420.15	0.00
420.34	53.83
420.53	98.30
420.72	65.54
420.91	53.83
421.10	46.81
421.29	98.30
421.48	21.06
421.67	67.88
421.86	46.81
422.05	91.28
422.24	112.35
422.43	77.24
422.61	0.00
422.80	53.83
422.99	16.38
423.18	0.00
423.37	84.26
423.56	44.47
423.75	53.83
423.94	28.09
424.13	30.43
424.32	53.83
424.50	4.68
424.69	91.28
424.88	25.75
425.07	0.00
425.26	0.00
425.45	7.02
425.64	7.02
425.83	23.41
426.01	60.85
426.20	39.79
426.39	30.43
426.58	63.19
426.77	16.38
426.96	42.13
427.15	39.79
427.33	23.41
427.52	49.15
427.71	7.02
427.90	4.68
428.09	49.15
428.28	16.38
428.46	105.32
428.65	14.04
428.84	46.81
429.03	65.54
429.22	42.13
429.40	88.94
429.59	21.06
429.78	4.68
429.97	60.85
430.16	18.72
430.34	37.45
430.53	0.00
430.72	110.01
430.91	70.22
431.10	51.49
431.28	9.36
431.47	21.06
431.66	4.68
431.85	2.34
432.03	7.02
432.22	37.45
432.41	53.83
432.60	42.13
432.79	44.47
432.97	102.98
433.16	56.17
433.35	37.45
433.54	74.90
433.72	2.34
433.91	67.88
434.10	23.41
434.28	81.92
434.47	58.51
434.66	88.94
434.85	56.17
435.03	28.09
435.22	39.79
435.41	42.13
435.59	0.00
435.78	9.36
435.97	58.51
436.16	74.90
436.34	16.38
436.53	25.75
436.72	0.00
436.90	72.56
437.09	63.19
437.28	53.83
437.46	0.00
437.65	0.00
437.84	51.49
438.02	149.79
438.21	102.98
438.40	79.58
438.58	60.85
438.77	11.70
438.96	7.02
439.14	56.17
439.33	11.70
439.52	9.36
439.70	84.26
439.89	21.06
440.08	30.43
440.26	0.00
440.45	30.43
440.63	126.39
440.82	25.75
441.01	0.00
441.19	32.77
441.38	67.88
441.57	88.94
441.75	28.09
441.94	11.70
442.12	16.38
442.31	9.36
442.50	0.00
442.68	14.04
442.87	77.24
443.05	56.17
443.24	56.17
443.43	67.88
443.61	28.09
443.80	23.41
443.98	56.17
444.17	11.70
444.35	105.32
444.54	44.47
444.73	9.36
444.91	14.04
445.10	74.90
445.28	51.49
445.47	0.00
445.65	65.54
445.84	0.00
446.02	16.38
446.21	0.00
446.39	39.79
446.58	91.28
446.77	39.79
446.95	51.49
447.14	39.79
447.32	49.15
447.51	63.19
447.69	65.54
447.88	100.64
448.06	70.22
448.25	42.13
448.43	25.75
448.62	0.00
448.80	81.92
448.99	0.00
449.17	9.36
449.36	9.36
449.54	0.00
449.73	65.54
449.91	23.41
450.10	46.81
450.28	25.75
450.46	16.38
450.65	0.00
450.83	32.77
451.02	18.72
451.20	65.54
451.39	23.41
451.57	0.00
451.76	37.45
451.94	46.81
452.13	42.13
452.31	56.17
452.49	74.90
452.68	65.54
452.86	0.00
453.05	0.00
453.23	7.02
453.42	46.81
453.60	63.19
453.78	58.51
453.97	46.81
454.15	0.00
454.34	30.43
454.52	25.75
454.70	35.11
454.89	49.15
455.07	35.11
455.26	91.28
455.44	91.28
455.62	91.28
455.81	63.19
455.99	102.98
456.17	37.45
456.36	46.81
456.54	77.24
456.73	30.43
456.91	39.79
457.09	28.09
457.28	46.81
457.46	56.17
457.64	0.00
457.83	30.43
458.01	65.54
458.19	37.45
458.38	0.00
458.56	0.00
458.74	0.00
458.93	7.02
459.11	0.00
459.29	70.22
459.48	60.85
459.66	32.77
459.84	53.83
460.03	11.70
460.21	60.85
460.39	60.85
460.57	88.94
460.76	0.00
460.94	28.09
461.12	0.00
461.31	4.68
461.49	25.75
461.67	65.54
461.85	74.90
462.04	93.62
462.22	70.22
462.40	9.36
462.59	0.00
462.77	51.49
462.95	28.09
463.13	2.34
463.32	56.17
463.50	49.15
463.68	35.11
463.86	42.13
464.05	0.00
464.23	0.00
464.41	105.32
464.59	51.49
464.78	21.06
464.96	65.54
465.14	88.94
465.32	25.75
465.50	23.41
465.69	79.58
465.87	37.45
466.05	42.13
466.23	7.02
466.41	21.06
466.60	86.60
466.78	65.54
466.96	2.34
467.14	70.22
467.32	18.72
467.51	4.68
467.69	0.00
467.87	39.79
468.05	23.41
468.23	21.06
468.41	65.54
468.60	16.38
468.78	53.83
468.96	37.45
469.14	21.06
469.32	67.88
469.50	9.36
469.69	7.02
469.87	30.43
470.05	88.94
470.23	0.00
470.41	37.45
470.59	86.60
470.77	0.00
470.95	72.56
471.14	58.51
471.32	74.90
471.50	98.30
471.68	0.00
471.86	86.60
472.04	70.22
472.22	77.24
472.40	28.09
472.58	72.56
472.77	105.32
472.95	37.45
473.13	30.43
473.31	2.34
473.49	0.00
473.67	74.90
473.85	77.24
474.03	0.00
474.21	2.34
474.39	0.00
474.57	65.54
474.75	0.00
474.93	16.38
475.12	32.77
475.30	30.43
475.48	0.00
475.66	0.00
475.84	39.79
476.02	28.09
476.20	30.43
476.38	63.19
476.56	77.24
476.74	65.54
476.92	56.17
477.10	56.17
477.28	0.00
477.46	4.68
477.64	112.35
477.82	53.83
478.00	44.47
478.18	35.11
478.36	53.83
478.54	60.85
478.72	56.17
478.90	0.00
479.08	21.06
479.26	42.13
479.44	58.51
479.62	51.49
479.80	39.79
479.98	11.70
480.16	0.00
480.34	42.13
480.52	0.00
480.70	16.38
480.88	4.68
481.06	4.68
481.24	42.13
481.41	65.54
481.59	0.00
481.77	93.62
481.95	95.96
482.13	21.06
482.31	67.88
482.49	72.56
482.67	98.30
482.85	0.00
483.03	84.26
483.21	74.90
483.39	102.98
483.57	46.81
483.74	84.26
483.92	95.96
484.10	53.83
484.28	16.38
484.46	2.34
484.64	0.00
484.82	0.00
485.00	0.00
485.18	35.11
485.35	70.22
485.53	0.00
485.71	11.70
485.89	53.83
486.07	21.06
486.25	18.72
486.43	0.00
486.61	18.72
486.78	39.79
486.96	84.26
487.14	67.88
487.32	23.41
487.50	58.51
487.68	0.00
487.85	0.00
488.03	32.77
488.21	53.83
488.39	7.02
488.57	44.47
488.75	30.43
488.92	32.77
489.10	9.36
489.28	32.77
489.46	21.06
489.64	0.00
489.81	65.54
489.99	44.47
490.17	37.45
490.35	16.38
490.53	0.00
490.70	9.36
490.88	79.58
491.06	42.13
491.24	18.72
491.41	53.83
491.59	14.04
491.77	42.13
491.95	23.41
492.13	0.00
492.30	35.11
492.48	72.56
492.66	35.11
492.84	37.45
493.01	63.19
493.19	18.72
493.37	21.06
493.54	14.04
493.72	28.09
493.90	21.06
494.08	7.02
494.25	14.04
494.43	0.00
494.61	86.60
494.79	67.88
494.96	86.60
495.14	42.13
495.32	37.45
495.49	49.15
495.67	11.70
495.85	0.00
496.02	58.51
496.20	0.00
496.38	37.45
496.55	0.00
496.73	21.06
496.91	0.00
497.09	0.00
497.26	28.09
497.44	107.66
497.62	35.11
497.79	7.02
497.97	0.00
498.14	14.04
498.32	0.00
498.50	51.49
498.67	44.47
498.85	51.49
499.03	70.22
499.20	35.11
499.38	42.13
499.56	60.85
499.73	4.68
499.91	44.47
500.08	16.38
500.26	32.77
500.44	74.90
500.61	46.81
500.79	0.00
500.97	0.00
501.14	51.49
501.32	74.90
501.49	91.28
501.67	32.77
501.84	102.98
502.02	86.60
502.20	16.38
502.37	0.00
502.55	18.72
502.72	9.36
502.90	79.58
503.07	2.34
503.25	0.00
503.43	23.41
503.60	93.62
503.78	70.22
503.95	11.70
504.13	42.13
504.30	0.00
504.48	67.88
504.65	67.88
504.83	53.83
505.01	42.13
505.18	51.49
505.36	39.79
505.53	42.13
505.71	18.72
505.88	25.75
506.06	9.36
506.23	0.00
506.41	49.15
506.58	35.11
506.76	56.17
506.93	63.19
507.11	25.75
507.28	0.00
507.46	79.58
507.63	25.75
507.81	93.62
507.98	72.56
508.16	46.81
508.33	53.83
508.50	0.00
508.68	0.00
508.85	95.96
509.03	14.04
509.20	84.26
509.38	107.66
509.55	77.24
509.73	9.36
509.90	4.68
510.08	0.00
510.25	65.54
510.42	58.51
510.60	0.00
510.77	0.00
510.95	53.83
511.12	86.60
511.30	0.00
511.47	32.77
511.64	91.28
511.82	98.30
511.99	98.30
512.17	53.83
512.34	58.51
512.51	0.00
512.69	56.17
512.86	138.09
513.04	138.09
513.21	88.94
513.38	140.43
513.56	14.04
513.73	53.83
513.90	67.88
514.08	86.60
514.25	44.47
514.43	110.01
514.60	32.77
514.77	58.51
514.95	72.56
515.12	4.68
515.29	21.06
515.47	46.81
515.64	88.94
515.81	42.13
515.99	77.24
516.16	81.92
516.33	42.13
516.51	7.02
516.68	42.13
516.85	0.00
517.03	4.68
517.20	63.19
517.37	60.85
517.54	37.45
517.72	63.19
517.89	60.85
518.06	0.00
518.24	9.36
518.41	35.11
518.58	58.51
518.75	100.64
518.93	39.79
519.10	93.62
519.27	72.56
519.45	28.09
519.62	60.85
519.79	11.70
519.96	49.15
520.14	0.00
520.31	128.73
520.48	11.70
520.65	0.00
520.83	58.51
521.00	25.75
521.17	23.41
521.34	0.00
521.52	58.51
521.69	86.60
521.86	7.02
522.03	28.09
522.20	30.43
522.38	25.75
522.55	30.43
522.72	88.94
522.89	0.00
523.07	110.01
523.24	11.70
523.41	53.83
523.58	28.09
523.75	4.68
523.92	63.19
524.10	0.00
524.27	88.94
524.44	37.45
524.61	117.03
524.78	65.54
524.96	35.11
525.13	0.00
525.30	0.00
525.47	91.28
525.64	70.22
525.81	56.17
525.98	58.51
526.16	0.00
526.33	37.45
526.50	0.00
526.67	56.17
526.84	46.81
527.01	25.75
527.18	84.26
527.36	102.98
527.53	44.47
527.70	28.09
527.87	44.47
528.04	51.49
528.21	9.36
528.38	23.41
528.55	9.36
528.72	63.19
528.89	53.83
529.07	88.94
529.24	91.28
529.41	58.51
529.58	81.92
529.75	28.09
529.92	0.00
530.09	7.02
530.26	72.56
530.43	0.00
530.60	53.83
530.77	23.41
530.94	58.51
531.11	14.04
531.28	74.90
531.46	63.19
531.63	63.19
531.80	51.49
531.97	44.47
532.14	11.70
532.31	44.47
532.48	42.13
532.65	18.72
532.82	70.22
532.99	63.19
533.16	11.70
533.33	86.60
533.50	0.00
533.67	14.04
533.84	93.62
534.01	42.13
534.18	95.96
534.35	74.90
534.52	98.30
534.69	16.38
534.86	46.81
535.03	56.17
535.20	42.13
535.37	0.00
535.54	67.88
535.71	102.98
535.88	0.00
536.05	32.77
536.22	35.11
536.38	42.13
536.55	0.00
536.72	39.79
536.89	28.09
537.06	0.00
537.23	58.51
537.40	53.83
537.57	0.00
537.74	14.04
537.91	77.24
538.08	42.13
538.25	86.60
538.42	37.45
538.59	102.98
538.75	65.54
538.92	65.54
539.09	32.77
539.26	84.26
539.43	56.17
539.60	30.43
539.77	0.00
539.94	16.38
540.11	67.88
540.28	142.77
540.44	23.41
540.61	49.15
540.78	39.79
540.95	114.69
541.12	30.43
541.29	28.09
541.46	0.00
541.62	42.13
541.79	84.26
541.96	0.00
542.13	77.24
542.30	53.83
542.47	107.66
542.63	72.56
542.80	0.00
542.97	65.54
543.14	0.00
543.31	39.79
543.48	21.06
543.64	53.83
543.81	7.02
543.98	28.09
544.15	60.85
544.32	4.68
544.48	0.00
544.65	14.04
544.82	0.00
544.99	105.32
545.16	14.04
545.32	56.17
545.49	114.69
545.66	32.77
545.83	0.00
546.00	46.81
546.16	60.85
546.33	86.60
546.50	49.15
546.67	37.45
546.83	25.75
547.00	39.79
547.17	119.37
547.34	0.00
547.50	18.72
547.67	0.00
547.84	81.92
548.00	18.72
548.17	65.54
548.34	56.17
548.51	58.51
548.67	86.60
548.84	63.19
549.01	88.94
549.18	18.72
549.34	98.30
549.51	77.24
549.68	72.56
549.84	0.00
550.01	93.62
550.18	110.01
550.34	14.04
550.51	35.11
550.68	4.68
550.84	0.00
551.01	25.75
551.18	32.77
551.34	79.58
551.51	37.45
551.68	53.83
551.84	0.00
552.01	30.43
552.18	35.11
552.34	42.13
552.51	107.66
552.68	63.19
552.84	32.77
553.01	0.00
553.18	49.15
553.34	18.72
553.51	86.60
553.67	18.72
553.84	42.13
554.01	14.04
554.17	98.30
554.34	0.00
554.51	53.83
554.67	44.47
554.84	51.49
555.00	51.49
555.17	60.85
555.33	63.19
555.50	37.45
555.67	42.13
555.83	2.34
556.00	53.83
556.16	91.28
556.33	42.13
556.50	21.06
556.66	70.22
556.83	0.00
556.99	117.03
557.16	23.41
557.32	67.88
557.49	32.77
557.65	49.15
557.82	21.06
557.98	98.30
558.15	32.77
558.32	25.75
558.48	0.00
558.65	7.02
558.81	35.11
558.98	0.00
559.14	7.02
559.31	28.09
559.47	81.92
559.64	77.24
559.80	88.94
559.97	77.24
560.13	56.17
560.30	0.00
560.46	56.17
560.63	44.47
560.79	23.41
560.96	63.19
561.12	0.00
561.29	14.04
561.45	0.00
561.61	25.75
561.78	0.00
561.94	35.11
562.11	18.72
562.27	86.60
562.44	0.00
562.60	49.15
562.77	46.81
562.93	16.38
563.10	46.81
563.26	23.41
563.42	35.11
563.59	84.26
563.75	84.26
563.92	56.17
564.08	60.85
564.24	39.79
564.41	18.72
564.57	30.43
564.74	49.15
564.90	81.92
565.07	117.03
565.23	74.90
565.39	65.54
565.56	88.94
565.72	35.11
565.88	18.72
566.05	23.41
566.21	7.02
566.38	0.00
566.54	42.13
566.70	9.36
566.87	37.45
567.03	51.49
567.19	32.77
567.36	0.00
567.52	37.45
567.68	63.19
567.85	0.00
568.01	65.54
568.17	81.92
568.34	23.41
568.50	16.38
568.66	0.00
568.83	7.02
568.99	2.34
569.15	56.17
569.32	14.04
569.48	42.13
569.64	95.96
569.81	35.11
569.97	98.30
570.13	86.60
570.30	39.79
570.46	14.04
570.62	0.00
570.78	18.72
570.95	88.94
571.11	30.43
571.27	56.17
571.43	28.09
571.60	39.79
571.76	0.00
571.92	95.96
572.09	70.22
572.25	86.60
572.41	93.62
572.57	21.06
572.74	58.51
572.90	53.83
573.06	67.88
573.22	74.90
573.38	0.00
573.55	9.36
573.71	53.83
573.87	53.83
574.03	28.09
574.20	0.00
574.36	39.79
574.52	23.41
574.68	21.06
574.84	7.02
575.01	37.45
575.17	98.30
575.33	44.47
575.49	46.81
575.65	28.09
575.82	39.79
575.98	25.75
576.14	60.85
576.30	74.90
576.46	32.77
576.62	65.54
576.79	77.24
576.95	25.75
577.11	32.77
577.27	98.30
577.43	46.81
577.59	18.72
577.75	46.81
577.92	0.00
578.08	28.09
578.24	58.51
578.40	51.49
578.56	11.70
578.72	112.35
578.88	72.56
579.04	53.83
579.21	135.75
579.37	86.60
579.53	58.51
579.69	86.60
579.85	0.00
580.01	79.58
580.17	107.66
580.33	0.00
580.49	84.26
580.65	91.28
580.82	44.47
580.98	28.09
581.14	9.36
581.30	58.51
581.46	65.54
581.62	63.19
581.78	88.94
581.94	58.51
582.10	77.24
582.26	35.11
582.42	65.54
582.58	18.72
582.74	0.00
582.90	0.00
583.06	14.04
583.22	65.54
583.38	98.30
583.54	63.19
583.70	30.43
583.86	44.47
584.02	51.49
584.18	46.81
584.34	28.09
584.50	42.13
584.66	14.04
584.82	23.41
584.98	74.90
585.14	53.83
585.30	131.07
585.46	9.36
585.62	0.00
585.78	39.79
585.94	7.02
586.10	0.00
586.26	2.34
586.42	53.83
586.58	63.19
586.74	2.34
586.90	0.00
587.06	53.83
587.22	0.00
587.38	0.00
587.54	4.68
587.70	60.85
587.86	42.13
588.02	65.54
588.18	42.13
588.34	95.96
588.49	35.11
588.65	16.38
588.81	23.41
588.97	74.90
589.13	16.38
589.29	79.58
589.45	100.64
589.61	63.19
589.77	4.68
589.93	0.00
590.08	2.34
590.24	11.70
590.40	49.15
590.56	0.00
590.72	0.00
590.88	88.94
591.04	93.62
591.20	100.64
591.35	0.00
591.51	51.49
591.67	0.00
591.83	42.13
591.99	0.00
592.15	23.41
592.31	44.47
592.46	119.37
592.62	14.04
592.78	14.04
592.94	7.02
593.10	35.11
593.26	88.94
593.41	2.34
593.57	32.77
593.73	98.30
593.89	21.06
594.05	0.00
594.20	81.92
594.36	39.79
594.52	37.45
594.68	44.47
594.84	51.49
594.99	65.54
595.15	42.13
595.31	60.85
595.47	98.30
595.62	98.30
595.78	0.00
595.94	11.70
596.10	16.38
596.25	0.00
596.41	56.17
596.57	65.54
596.73	79.58
596.88	77.24
597.04	91.28
597.20	51.49
597.36	70.22
597.51	23.41
597.67	53.83
597.83	49.15
597.99	84.26
598.14	81.92
598.30	39.79
598.46	74.90
598.61	0.00
598.77	14.04
598.93	30.43
599.09	32.77
599.24	4.68
599.40	11.70
599.56	25.75
599.71	30.43
599.87	56.17
600.03	28.09
600.18	81.92
600.34	65.54
600.50	23.41
600.65	91.28
600.81	37.45
600.97	0.00
601.12	25.75
601.28	4.68
601.44	39.79
601.59	65.54
601.75	28.09
601.91	79.58
602.06	70.22
602.22	53.83
602.37	63.19
602.53	0.00
602.69	28.09
602.84	42.13
603.00	0.00
603.16	28.09
603.31	2.34
603.47	32.77
603.62	28.09
603.78	56.17
603.94	39.79
604.09	42.13
604.25	56.17
604.40	30.43
604.56	23.41
604.71	25.75
604.87	30.43
605.03	0.00
605.18	112.35
605.34	70.22
605.49	2.34
605.65	51.49
605.80	88.94
605.96	131.07
606.12	91.28
606.27	65.54
606.43	56.17
606.58	67.88
606.74	14.04
606.89	60.85
607.05	49.15
607.20	56.17
607.36	37.45
607.51	23.41
607.67	21.06
607.82	65.54
607.98	11.70
608.13	46.81
608.29	11.70
608.44	60.85
608.60	14.04
608.75	7.02
608.91	84.26
609.06	25.75
609.22	9.36
609.37	46.81
609.53	7.02
609.68	72.56
609.84	0.00
609.99	32.77
610.15	0.00
610.30	11.70
610.46	2.34
610.61	84.26
610.76	0.00
610.92	49.15
611.07	0.00
611.23	32.77
611.38	84.26
611.54	88.94
611.69	35.11
611.84	49.15
612.00	46.81
612.15	56.17
612.31	46.81
612.46	51.49
612.62	46.81
612.77	67.88
612.92	126.39
613.08	25.75
613.23	39.79
613.39	35.11
613.54	35.11
613.69	11.70
613.85	28.09
614.00	28.09
614.15	53.83
614.31	0.00
614.46	88.94
614.62	32.77
614.77	14.04
614.92	4.68
615.08	0.00
615.23	72.56
615.38	35.11
615.54	42.13
615.69	49.15
615.84	65.54
616.00	46.81
616.15	88.94
616.30	18.72
616.46	23.41
616.61	21.06
616.76	60.85
616.92	79.58
617.07	23.41
617.22	65.54
617.37	46.81
617.53	79.58
617.68	53.83
617.83	42.13
617.99	105.32
618.14	51.49
618.29	56.17
618.45	25.75
618.60	135.75
618.75	0.00
618.90	0.00
619.06	0.00
619.21	84.26
619.36	37.45
619.51	2.34
619.67	35.11
619.82	14.04
619.97	81.92
620.12	72.56
620.28	0.00
620.43	35.11
620.58	39.79
620.73	25.75
620.89	0.00
621.04	28.09
621.19	44.47
621.34	9.36
621.49	18.72
621.65	7.02
621.80	46.81
621.95	0.00
622.10	49.15
622.25	56.17
622.41	67.88
622.56	2.34
622.71	35.11
622.86	51.49
623.01	9.36
623.16	114.69
623.32	18.72
623.47	44.47
623.62	74.90
623.77	25.75
623.92	39.79
624.07	124.05
624.23	39.79
624.38	42.13
624.53	25.75
624.68	58.51
624.83	0.00
624.98	67.88
625.13	0.00
625.29	56.17
625.44	0.00
625.59	18.72
625.74	58.51
625.89	0.00
626.04	44.47
626.19	91.28
626.34	53.83
626.49	51.49
626.65	0.00
626.80	42.13
626.95	72.56
627.10	28.09
627.25	2.34
627.40	18.72
627.55	53.83
627.70	0.00
627.85	49.15
628.00	70.22
628.15	42.13
628.30	42.13
628.45	0.00
628.60	30.43
628.76	63.19
628.91	32.77
629.06	30.43
629.21	23.41
629.36	60.85
629.51	0.00
629.66	131.07
629.81	0.00
629.96	9.36
630.11	42.13
630.26	4.68
630.41	11.70
630.56	53.83
630.71	53.83
630.86	60.85
631.01	58.51
631.16	46.81
631.31	42.13
631.46	98.30
631.61	0.00
631.76	100.64
631.91	70.22
632.06	110.01
632.21	2.34
632.36	88.94
632.51	0.00
632.66	65.54
632.81	53.83
632.96	39.79
633.10	74.90
633.25	79.58
633.40	0.00
633.55	70.22
633.70	23.41
633.85	35.11
634.00	53.83
634.15	0.00
634.30	18.72
634.45	11.70
634.60	110.01
634.75	77.24
634.90	42.13
635.05	56.17
635.19	70.22
635.34	37.45
635.49	117.03
635.64	51.49
635.79	9.36
635.94	37.45
636.09	7.02
636.24	56.17
636.39	51.49
636.53	58.51
636.68	0.00
636.83	4.68
636.98	25.75
637.13	0.00
637.28	0.00
637.43	65.54
637.57	51.49
637.72	0.00
637.87	72.56
638.02	25.75
638.17	32.77
638.32	49.15
638.46	58.51
638.61	39.79
638.76	0.00
638.91	0.00
639.06	91.28
639.20	35.11
639.35	0.00
639.50	91.28
639.65	37.45
639.80	0.00
639.94	14.04
640.09	72.56
640.24	56.17
640.39	18.72
640.54	58.51
640.68	72.56
640.83	84.26
640.98	51.49
641.13	0.00
641.27	81.92
641.42	60.85
641.57	0.00
641.72	23.41
641.86	28.09
642.01	42.13
642.16	0.00
642.31	42.13
642.45	0.00
642.60	65.54
642.75	63.19
642.90	0.00
643.04	23.41
643.19	70.22
643.34	0.00
643.48	0.00
643.63	25.75
643.78	18.72
643.93	18.72
644.07	44.47
644.22	81.92
644.37	95.96
644.51	81.92
644.66	51.49
644.81	9.36
644.95	25.75
645.10	0.00
645.25	37.45
645.39	30.43
645.54	46.81
645.69	11.70
645.83	63.19
645.98	44.47
646.13	0.00
646.27	16.38
646.42	0.00
646.57	30.43
646.71	39.79
646.86	0.00
647.00	58.51
647.15	63.19
647.30	32.77
647.44	16.38
647.59	60.85
647.74	37.45
647.88	51.49
648.03	25.75
648.17	84.26
648.32	65.54
648.47	25.75
648.61	0.00
648.76	32.77
648.90	11.70
649.05	30.43
649.20	49.15
649.34	0.00
649.49	0.00
649.63	63.19
649.78	46.81
649.92	39.79
650.07	23.41
650.21	0.00
650.36	14.04
650.51	74.90
650.65	28.09
650.80	18.72
650.94	0.00
651.09	18.72
651.23	51.49
651.38	42.13
651.52	77.24
651.67	0.00
651.81	21.06
651.96	0.00
652.10	44.47
652.25	0.00
652.39	53.83
652.54	25.75
652.68	32.77
652.83	0.00
652.97	0.00
653.12	0.00
653.26	63.19
653.41	65.54
653.55	0.00
653.70	42.13
653.84	56.17
653.99	21.06
654.13	16.38
654.27	7.02
654.42	4.68
654.56	46.81
654.71	0.00
654.85	72.56
655.00	42.13
655.14	32.77
655.29	84.26
655.43	0.00
655.57	0.00
655.72	37.45
655.86	65.54
656.01	0.00
656.15	72.56
656.30	11.70
656.44	0.00
656.58	53.83
656.73	32.77
656.87	4.68
657.01	18.72
657.16	0.00
657.30	2.34
657.45	58.51
657.59	39.79
657.73	39.79
657.88	0.00
658.02	7.02
658.16	0.00
658.31	14.04
658.45	0.00
658.60	37.45
658.74	86.60
658.88	56.17
659.03	53.83
659.17	65.54
659.31	72.56
659.46	4.68
659.60	0.00
659.74	4.68
659.89	21.06
660.03	53.83
660.17	74.90
660.32	70.22
660.46	37.45
660.60	32.77
660.74	11.70
660.89	11.70
661.03	0.00
661.17	42.13
661.32	63.19
661.46	0.00
661.60	0.00
661.74	84.26
661.89	35.11
662.03	11.70
662.17	46.81
662.31	23.41
662.46	9.36
662.60	0.00
662.74	77.24
662.88	44.47
663.03	0.00
663.17	49.15
663.31	25.75
663.45	49.15
663.60	63.19
663.74	32.77
663.88	30.43
664.02	11.70
664.17	53.83
664.31	4.68
664.45	74.90
664.59	32.77
664.73	84.26
664.88	11.70
665.02	63.19
665.16	0.00
665.30	0.00
665.44	11.70
665.59	56.17
665.73	23.41
665.87	25.75
666.01	42.13
666.15	0.00
666.29	11.70
666.44	0.00
666.58	23.41
666.72	23.41
666.86	74.90
667.00	0.00
667.14	72.56
667.28	0.00
667.43	0.00
667.57	0.00
667.71	0.00
667.85	39.79
667.99	65.54
668.13	0.00
668.27	9.36
668.41	30.43
668.56	11.70
668.70	9.36
668.84	0.00
668.98	0.00
669.12	30.43
669.26	0.00
669.40	28.09
669.54	60.85
669.68	49.15
669.82	51.49
669.96	63.19
670.10	14.04
670.25	0.00
670.39	0.00
670.53	0.00
670.67	28.09
670.81	44.47
670.95	65.54
671.09	39.79
671.23	0.00
671.37	0.00
671.51	107.66
671.65	107.66
671.79	56.17
671.93	42.13
672.07	0.00
672.21	46.81
672.35	14.04
672.49	32.77
672.63	21.06
672.77	9.36
672.91	30.43
673.05	0.00
673.19	14.04
673.33	53.83
673.47	32.77
673.61	44.47
673.75	0.00
673.89	93.62
674.03	42.13
674.17	49.15
674.31	53.83
674.45	14.04
674.59	9.36
674.73	49.15
674.87	16.38
675.01	30.43
675.15	65.54
675.29	46.81
675.43	11.70
675.56	0.00
675.70	4.68
675.84	0.00
675.98	91.28
676.12	67.88
676.26	58.51
676.40	18.72
676.54	37.45
676.68	35.11
676.82	39.79
676.96	60.85
677.10	91.28
677.23	105.32
677.37	100.64
677.51	100.64
677.65	0.00
677.79	91.28
677.93	56.17
678.07	102.98
678.21	53.83
678.34	42.13
678.48	28.09
678.62	0.00
678.76	32.77
678.90	102.98
679.04	70.22
679.18	18.72
679.31	0.00
679.45	25.75
679.59	70.22
679.73	21.06
679.87	100.64
680.00	39.79
680.14	53.83
680.28	28.09
680.42	35.11
680.56	79.58
680.70	0.00
680.83	0.00
680.97	25.75
681.11	67.88
681.25	84.26
681.39	21.06
681.52	117.03
681.66	0.00
681.80	72.56
681.94	14.04
682.07	0.00
682.21	30.43
682.35	0.00
682.49	37.45
682.62	67.88
682.76	72.56
682.90	14.04
683.04	32.77
683.17	23.41
683.31	84.26
683.45	60.85
683.59	86.60
683.72	21.06
683.86	32.77
684.00	44.47
684.13	51.49
684.27	56.17
684.41	35.11
684.55	0.00
684.68	53.83
684.82	32.77
684.96	28.09
685.09	84.26
685.23	0.00
685.37	37.45
685.50	60.85
685.64	37.45
685.78	28.09
685.91	0.00
686.05	0.00
686.19	70.22
686.32	79.58
686.46	91.28
686.60	56.17
686.73	88.94
686.87	88.94
687.01	39.79
687.14	11.70
687.28	32.77
687.42	56.17
687.55	4.68
687.69	93.62
687.82	32.77
687.96	86.60
688.10	84.26
688.23	0.00
688.37	0.00
688.50	46.81
688.64	105.32
688.78	65.54
688.91	74.90
689.05	35.11
689.18	0.00
689.32	39.79
689.46	114.69
689.59	7.02
689.73	14.04
689.86	18.72
690.00	58.51
690.13	63.19
690.27	25.75
690.41	0.00
690.54	46.81
690.68	11.70
690.81	112.35
690.95	23.41
691.08	46.81
691.22	44.47
691.35	16.38
691.49	42.13
691.62	42.13
691.76	0.00
691.89	49.15
692.03	0.00
692.16	46.81
692.30	53.83
692.43	88.94
692.57	70.22
692.70	0.00
692.84	0.00
692.97	18.72
693.11	42.13
693.24	9.36
693.38	9.36
693.51	44.47
693.65	4.68
693.78	35.11
693.92	81.92
694.05	9.36
694.19	39.79
694.32	0.00
694.45	0.00
694.59	63.19
694.72	35.11
694.86	2.34
694.99	14.04
695.13	56.17
695.26	28.09
695.39	21.06
695.53	58.51
695.66	72.56
695.80	70.22
695.93	72.56
696.07	35.11
696.20	2.34
696.33	23.41
696.47	30.43
696.60	7.02
696.73	9.36
696.87	51.49
697.00	4.68
697.14	18.72
697.27	58.51
697.40	77.24
697.54	0.00
697.67	21.06
697.80	0.00
697.94	0.00
698.07	63.19
698.21	2.34
698.34	60.85
698.47	21.06
698.61	0.00
698.74	84.26
698.87	16.38
699.01	7.02
699.14	49.15
699.27	42.13
699.40	58.51
699.54	23.41
699.67	35.11
699.80	0.00
699.94	81.92
700.07	14.04
700.20	88.94
700.34	142.77
700.47	18.72
700.60	21.06
700.73	21.06
700.87	102.98
701.00	16.38
701.13	0.00
701.26	53.83
701.40	23.41
701.53	91.28
701.66	32.77
701.79	0.00
701.93	9.36
702.06	0.00
702.19	37.45
702.32	23.41
702.46	67.88
702.59	23.41
702.72	46.81
702.85	16.38
702.99	2.34
703.12	9.36
703.25	42.13
703.38	67.88
703.51	9.36
703.65	63.19
703.78	0.00
703.91	44.47
704.04	28.09
704.17	88.94
704.31	46.81
704.44	0.00
704.57	0.00
704.70	63.19
704.83	18.72
704.96	0.00
705.10	18.72
705.23	51.49
>>>>>End Processed Spectral Data<<<<<
