SpectraSuite Data File
++++++++++++++++++++++++++++++++++++
Date: Fri Oct 04 12:13:33 GMT-05:00 2013
User: price-jones
Dark Spectrum Present: No
Reference Spectrum Present: No
Number of Sampled Component Spectra: 1
Spectrometers: USB2+H05261
Integration Time (usec): 10000 (USB2+H05261)
Spectra Averaged: 1 (USB2+H05261)
Boxcar Smoothing: 0 (USB2+H05261)
Correct for Electrical Dark: No (USB2+H05261)
Strobe/Lamp Enabled: No (USB2+H05261)
Correct for Detector Non-linearity: No (USB2+H05261)
Correct for Stray Light: No (USB2+H05261)
Number of Pixels in Processed Spectrum: 2048
>>>>>Begin Processed Spectral Data<<<<<
365.73	0.00
365.92	0.00
366.12	0.00
366.32	0.00
366.52	0.00
366.72	0.00
366.91	0.00
367.11	0.00
367.31	0.00
367.51	0.00
367.70	0.00
367.90	0.00
368.10	0.00
368.30	0.00
368.49	0.00
368.69	0.00
368.89	0.00
369.09	0.00
369.28	0.00
369.48	0.00
369.68	0.00
369.87	0.00
370.07	0.00
370.27	0.00
370.47	0.00
370.66	0.00
370.86	0.00
371.06	0.00
371.25	0.00
371.45	0.00
371.65	0.00
371.84	28.09
372.04	0.00
372.24	77.24
372.44	0.00
372.63	0.00
372.83	30.43
373.03	0.00
373.22	0.00
373.42	25.75
373.62	49.15
373.81	42.13
374.01	25.75
374.21	9.36
374.40	28.09
374.60	46.81
374.79	4.68
374.99	70.22
375.19	56.17
375.38	37.45
375.58	4.68
375.78	28.09
375.97	25.75
376.17	16.38
376.37	67.88
376.56	16.38
376.76	0.00
376.95	67.88
377.15	49.15
377.35	0.00
377.54	14.04
377.74	39.79
377.93	53.83
378.13	23.41
378.33	23.41
378.52	0.00
378.72	0.00
378.91	100.64
379.11	46.81
379.31	0.00
379.50	0.00
379.70	21.06
379.89	11.70
380.09	0.00
380.28	72.56
380.48	14.04
380.68	0.00
380.87	58.51
381.07	0.00
381.26	16.38
381.46	44.47
381.65	46.81
381.85	0.00
382.04	0.00
382.24	84.26
382.43	0.00
382.63	11.70
382.83	88.94
383.02	23.41
383.22	16.38
383.41	25.75
383.61	56.17
383.80	21.06
384.00	9.36
384.19	28.09
384.39	58.51
384.58	0.00
384.78	0.00
384.97	14.04
385.17	37.45
385.36	63.19
385.56	21.06
385.75	60.85
385.95	0.00
386.14	95.96
386.34	0.00
386.53	0.00
386.72	37.45
386.92	0.00
387.11	42.13
387.31	56.17
387.50	16.38
387.70	32.77
387.89	46.81
388.09	0.00
388.28	32.77
388.48	11.70
388.67	2.34
388.86	0.00
389.06	9.36
389.25	77.24
389.45	23.41
389.64	4.68
389.84	0.00
390.03	30.43
390.22	30.43
390.42	0.00
390.61	0.00
390.81	7.02
391.00	21.06
391.19	2.34
391.39	11.70
391.58	81.92
391.78	9.36
391.97	28.09
392.16	63.19
392.36	53.83
392.55	35.11
392.75	9.36
392.94	25.75
393.13	28.09
393.33	9.36
393.52	18.72
393.71	32.77
393.91	9.36
394.10	44.47
394.29	142.77
394.49	58.51
394.68	0.00
394.88	35.11
395.07	7.02
395.26	7.02
395.46	0.00
395.65	37.45
395.84	23.41
396.04	46.81
396.23	16.38
396.42	35.11
396.62	0.00
396.81	84.26
397.00	35.11
397.19	0.00
397.39	0.00
397.58	0.00
397.77	77.24
397.97	126.39
398.16	0.00
398.35	35.11
398.55	58.51
398.74	51.49
398.93	35.11
399.12	133.41
399.32	44.47
399.51	14.04
399.70	0.00
399.90	28.09
400.09	37.45
400.28	0.00
400.47	39.79
400.67	44.47
400.86	51.49
401.05	39.79
401.24	0.00
401.44	0.00
401.63	0.00
401.82	53.83
402.01	25.75
402.21	0.00
402.40	7.02
402.59	32.77
402.78	18.72
402.97	86.60
403.17	0.00
403.36	0.00
403.55	0.00
403.74	0.00
403.93	39.79
404.13	16.38
404.32	65.54
404.51	81.92
404.70	18.72
404.89	32.77
405.09	88.94
405.28	18.72
405.47	0.00
405.66	49.15
405.85	0.00
406.05	95.96
406.24	37.45
406.43	77.24
406.62	60.85
406.81	28.09
407.00	4.68
407.20	14.04
407.39	0.00
407.58	4.68
407.77	0.00
407.96	63.19
408.15	46.81
408.34	39.79
408.54	16.38
408.73	32.77
408.92	0.00
409.11	18.72
409.30	84.26
409.49	4.68
409.68	44.47
409.87	37.45
410.07	16.38
410.26	74.90
410.45	23.41
410.64	0.00
410.83	58.51
411.02	58.51
411.21	58.51
411.40	9.36
411.59	42.13
411.78	7.02
411.98	30.43
412.17	63.19
412.36	28.09
412.55	37.45
412.74	42.13
412.93	11.70
413.12	23.41
413.31	21.06
413.50	14.04
413.69	74.90
413.88	44.47
414.07	42.13
414.26	32.77
414.45	0.00
414.64	7.02
414.83	9.36
415.02	91.28
415.22	0.00
415.41	44.47
415.60	28.09
415.79	58.51
415.98	0.00
416.17	86.60
416.36	0.00
416.55	60.85
416.74	0.00
416.93	0.00
417.12	0.00
417.31	32.77
417.50	58.51
417.69	0.00
417.88	51.49
418.07	18.72
418.26	77.24
418.45	16.38
418.64	81.92
418.83	7.02
419.02	0.00
419.21	70.22
419.39	16.38
419.58	42.13
419.77	0.00
419.96	46.81
420.15	30.43
420.34	4.68
420.53	0.00
420.72	0.00
420.91	21.06
421.10	0.00
421.29	0.00
421.48	60.85
421.67	98.30
421.86	100.64
422.05	0.00
422.24	11.70
422.43	14.04
422.61	77.24
422.80	28.09
422.99	49.15
423.18	0.00
423.37	63.19
423.56	65.54
423.75	0.00
423.94	35.11
424.13	74.90
424.32	0.00
424.50	23.41
424.69	88.94
424.88	49.15
425.07	79.58
425.26	0.00
425.45	37.45
425.64	23.41
425.83	58.51
426.01	23.41
426.20	14.04
426.39	0.00
426.58	2.34
426.77	95.96
426.96	16.38
427.15	0.00
427.33	53.83
427.52	35.11
427.71	2.34
427.90	0.00
428.09	70.22
428.28	25.75
428.46	21.06
428.65	56.17
428.84	16.38
429.03	39.79
429.22	42.13
429.40	14.04
429.59	58.51
429.78	84.26
429.97	60.85
430.16	4.68
430.34	46.81
430.53	23.41
430.72	0.00
430.91	0.00
431.10	70.22
431.28	30.43
431.47	72.56
431.66	16.38
431.85	9.36
432.03	32.77
432.22	32.77
432.41	14.04
432.60	16.38
432.79	4.68
432.97	18.72
433.16	0.00
433.35	0.00
433.54	58.51
433.72	32.77
433.91	28.09
434.10	9.36
434.28	28.09
434.47	7.02
434.66	0.00
434.85	0.00
435.03	79.58
435.22	35.11
435.41	23.41
435.59	14.04
435.78	0.00
435.97	0.00
436.16	39.79
436.34	2.34
436.53	39.79
436.72	0.00
436.90	0.00
437.09	28.09
437.28	60.85
437.46	28.09
437.65	46.81
437.84	126.39
438.02	67.88
438.21	39.79
438.40	51.49
438.58	0.00
438.77	0.00
438.96	25.75
439.14	77.24
439.33	51.49
439.52	102.98
439.70	16.38
439.89	0.00
440.08	25.75
440.26	49.15
440.45	32.77
440.63	25.75
440.82	2.34
441.01	11.70
441.19	37.45
441.38	46.81
441.57	11.70
441.75	105.32
441.94	44.47
442.12	11.70
442.31	56.17
442.50	0.00
442.68	0.00
442.87	51.49
443.05	11.70
443.24	114.69
443.43	21.06
443.61	25.75
443.80	30.43
443.98	81.92
444.17	14.04
444.35	0.00
444.54	147.45
444.73	23.41
444.91	0.00
445.10	56.17
445.28	0.00
445.47	35.11
445.65	93.62
445.84	49.15
446.02	18.72
446.21	77.24
446.39	28.09
446.58	56.17
446.77	32.77
446.95	42.13
447.14	84.26
447.32	11.70
447.51	46.81
447.69	7.02
447.88	67.88
448.06	0.00
448.25	63.19
448.43	49.15
448.62	2.34
448.80	63.19
448.99	0.00
449.17	58.51
449.36	4.68
449.54	0.00
449.73	32.77
449.91	81.92
450.10	0.00
450.28	39.79
450.46	140.43
450.65	81.92
450.83	14.04
451.02	9.36
451.20	46.81
451.39	65.54
451.57	49.15
451.76	53.83
451.94	39.79
452.13	30.43
452.31	88.94
452.49	44.47
452.68	49.15
452.86	70.22
453.05	23.41
453.23	42.13
453.42	14.04
453.60	56.17
453.78	28.09
453.97	70.22
454.15	46.81
454.34	46.81
454.52	84.26
454.70	7.02
454.89	91.28
455.07	18.72
455.26	0.00
455.44	79.58
455.62	77.24
455.81	16.38
455.99	32.77
456.17	21.06
456.36	58.51
456.54	28.09
456.73	142.77
456.91	23.41
457.09	72.56
457.28	4.68
457.46	56.17
457.64	51.49
457.83	0.00
458.01	37.45
458.19	18.72
458.38	49.15
458.56	44.47
458.74	28.09
458.93	65.54
459.11	37.45
459.29	79.58
459.48	14.04
459.66	2.34
459.84	39.79
460.03	32.77
460.21	98.30
460.39	37.45
460.57	23.41
460.76	95.96
460.94	23.41
461.12	119.37
461.31	42.13
461.49	39.79
461.67	0.00
461.85	21.06
462.04	0.00
462.22	100.64
462.40	0.00
462.59	11.70
462.77	11.70
462.95	11.70
463.13	53.83
463.32	28.09
463.50	0.00
463.68	49.15
463.86	21.06
464.05	32.77
464.23	46.81
464.41	0.00
464.59	7.02
464.78	18.72
464.96	60.85
465.14	86.60
465.32	9.36
465.50	39.79
465.69	0.00
465.87	2.34
466.05	98.30
466.23	51.49
466.41	0.00
466.60	58.51
466.78	42.13
466.96	42.13
467.14	0.00
467.32	0.00
467.51	28.09
467.69	0.00
467.87	16.38
468.05	58.51
468.23	56.17
468.41	16.38
468.60	70.22
468.78	95.96
468.96	44.47
469.14	4.68
469.32	58.51
469.50	42.13
469.69	16.38
469.87	51.49
470.05	35.11
470.23	35.11
470.41	32.77
470.59	4.68
470.77	0.00
470.95	28.09
471.14	100.64
471.32	131.07
471.50	63.19
471.68	28.09
471.86	25.75
472.04	0.00
472.22	0.00
472.40	30.43
472.58	44.47
472.77	0.00
472.95	58.51
473.13	32.77
473.31	74.90
473.49	53.83
473.67	46.81
473.85	46.81
474.03	18.72
474.21	4.68
474.39	35.11
474.57	91.28
474.75	44.47
474.93	37.45
475.12	16.38
475.30	77.24
475.48	53.83
475.66	44.47
475.84	0.00
476.02	51.49
476.20	0.00
476.38	32.77
476.56	65.54
476.74	30.43
476.92	79.58
477.10	35.11
477.28	112.35
477.46	32.77
477.64	58.51
477.82	30.43
478.00	14.04
478.18	49.15
478.36	0.00
478.54	0.00
478.72	63.19
478.90	79.58
479.08	56.17
479.26	4.68
479.44	35.11
479.62	0.00
479.80	21.06
479.98	58.51
480.16	37.45
480.34	56.17
480.52	95.96
480.70	46.81
480.88	23.41
481.06	25.75
481.24	9.36
481.41	37.45
481.59	39.79
481.77	53.83
481.95	0.00
482.13	46.81
482.31	23.41
482.49	0.00
482.67	105.32
482.85	72.56
483.03	49.15
483.21	4.68
483.39	7.02
483.57	25.75
483.74	46.81
483.92	51.49
484.10	91.28
484.28	51.49
484.46	35.11
484.64	49.15
484.82	140.43
485.00	35.11
485.18	63.19
485.35	77.24
485.53	65.54
485.71	74.90
485.89	121.71
486.07	11.70
486.25	84.26
486.43	46.81
486.61	100.64
486.78	56.17
486.96	79.58
487.14	37.45
487.32	0.00
487.50	9.36
487.68	11.70
487.85	58.51
488.03	65.54
488.21	2.34
488.39	39.79
488.57	7.02
488.75	63.19
488.92	51.49
489.10	18.72
489.28	32.77
489.46	93.62
489.64	74.90
489.81	98.30
489.99	98.30
490.17	30.43
490.35	42.13
490.53	51.49
490.70	65.54
490.88	65.54
491.06	72.56
491.24	84.26
491.41	51.49
491.59	23.41
491.77	9.36
491.95	21.06
492.13	49.15
492.30	65.54
492.48	77.24
492.66	21.06
492.84	49.15
493.01	88.94
493.19	63.19
493.37	46.81
493.54	0.00
493.72	117.03
493.90	51.49
494.08	81.92
494.25	46.81
494.43	51.49
494.61	23.41
494.79	67.88
494.96	112.35
495.14	11.70
495.32	49.15
495.49	7.02
495.67	0.00
495.85	18.72
496.02	79.58
496.20	0.00
496.38	86.60
496.55	25.75
496.73	32.77
496.91	58.51
497.09	0.00
497.26	0.00
497.44	44.47
497.62	49.15
497.79	44.47
497.97	39.79
498.14	70.22
498.32	51.49
498.50	39.79
498.67	28.09
498.85	37.45
499.03	44.47
499.20	58.51
499.38	0.00
499.56	72.56
499.73	0.00
499.91	9.36
500.08	28.09
500.26	4.68
500.44	2.34
500.61	23.41
500.79	60.85
500.97	11.70
501.14	72.56
501.32	14.04
501.49	60.85
501.67	51.49
501.84	37.45
502.02	63.19
502.20	14.04
502.37	39.79
502.55	56.17
502.72	51.49
502.90	46.81
503.07	131.07
503.25	28.09
503.43	2.34
503.60	77.24
503.78	53.83
503.95	70.22
504.13	25.75
504.30	67.88
504.48	37.45
504.65	32.77
504.83	18.72
505.01	102.98
505.18	72.56
505.36	0.00
505.53	91.28
505.71	14.04
505.88	79.58
506.06	131.07
506.23	18.72
506.41	16.38
506.58	37.45
506.76	65.54
506.93	46.81
507.11	35.11
507.28	49.15
507.46	86.60
507.63	112.35
507.81	0.00
507.98	63.19
508.16	39.79
508.33	16.38
508.50	0.00
508.68	44.47
508.85	18.72
509.03	39.79
509.20	86.60
509.38	70.22
509.55	98.30
509.73	2.34
509.90	58.51
510.08	37.45
510.25	51.49
510.42	9.36
510.60	53.83
510.77	74.90
510.95	0.00
511.12	67.88
511.30	0.00
511.47	60.85
511.64	93.62
511.82	67.88
511.99	0.00
512.17	2.34
512.34	51.49
512.51	25.75
512.69	51.49
512.86	46.81
513.04	93.62
513.21	0.00
513.38	91.28
513.56	0.00
513.73	114.69
513.90	16.38
514.08	0.00
514.25	21.06
514.43	119.37
514.60	44.47
514.77	32.77
514.95	23.41
515.12	11.70
515.29	0.00
515.47	77.24
515.64	86.60
515.81	18.72
515.99	18.72
516.16	51.49
516.33	100.64
516.51	44.47
516.68	95.96
516.85	119.37
517.03	28.09
517.20	7.02
517.37	67.88
517.54	51.49
517.72	18.72
517.89	42.13
518.06	14.04
518.24	74.90
518.41	79.58
518.58	25.75
518.75	70.22
518.93	39.79
519.10	79.58
519.27	9.36
519.45	67.88
519.62	11.70
519.79	9.36
519.96	98.30
520.14	0.00
520.31	28.09
520.48	58.51
520.65	32.77
520.83	74.90
521.00	51.49
521.17	21.06
521.34	16.38
521.52	42.13
521.69	35.11
521.86	51.49
522.03	53.83
522.20	105.32
522.38	14.04
522.55	46.81
522.72	86.60
522.89	84.26
523.07	37.45
523.24	0.00
523.41	49.15
523.58	0.00
523.75	81.92
523.92	51.49
524.10	119.37
524.27	77.24
524.44	84.26
524.61	67.88
524.78	77.24
524.96	142.77
525.13	112.35
525.30	21.06
525.47	32.77
525.64	60.85
525.81	128.73
525.98	0.00
526.16	23.41
526.33	70.22
526.50	9.36
526.67	79.58
526.84	100.64
527.01	42.13
527.18	95.96
527.36	30.43
527.53	114.69
527.70	0.00
527.87	21.06
528.04	44.47
528.21	63.19
528.38	53.83
528.55	84.26
528.72	11.70
528.89	25.75
529.07	21.06
529.24	18.72
529.41	28.09
529.58	72.56
529.75	0.00
529.92	58.51
530.09	16.38
530.26	18.72
530.43	2.34
530.60	0.00
530.77	0.00
530.94	21.06
531.11	4.68
531.28	60.85
531.46	154.48
531.63	114.69
531.80	67.88
531.97	77.24
532.14	42.13
532.31	142.77
532.48	72.56
532.65	2.34
532.82	51.49
532.99	14.04
533.16	51.49
533.33	72.56
533.50	37.45
533.67	93.62
533.84	39.79
534.01	0.00
534.18	51.49
534.35	105.32
534.52	49.15
534.69	46.81
534.86	79.58
535.03	32.77
535.20	124.05
535.37	46.81
535.54	112.35
535.71	58.51
535.88	100.64
536.05	88.94
536.22	23.41
536.38	84.26
536.55	46.81
536.72	23.41
536.89	39.79
537.06	77.24
537.23	107.66
537.40	0.00
537.57	32.77
537.74	79.58
537.91	81.92
538.08	37.45
538.25	14.04
538.42	46.81
538.59	70.22
538.75	32.77
538.92	49.15
539.09	67.88
539.26	25.75
539.43	60.85
539.60	7.02
539.77	23.41
539.94	28.09
540.11	0.00
540.28	0.00
540.44	35.11
540.61	37.45
540.78	128.73
540.95	91.28
541.12	0.00
541.29	102.98
541.46	70.22
541.62	128.73
541.79	58.51
541.96	0.00
542.13	42.13
542.30	49.15
542.47	51.49
542.63	51.49
542.80	79.58
542.97	77.24
543.14	70.22
543.31	95.96
543.48	51.49
543.64	4.68
543.81	0.00
543.98	11.70
544.15	14.04
544.32	126.39
544.48	60.85
544.65	60.85
544.82	0.00
544.99	51.49
545.16	0.00
545.32	0.00
545.49	46.81
545.66	56.17
545.83	35.11
546.00	0.00
546.16	32.77
546.33	0.00
546.50	63.19
546.67	58.51
546.83	9.36
547.00	39.79
547.17	18.72
547.34	35.11
547.50	0.00
547.67	93.62
547.84	70.22
548.00	0.00
548.17	37.45
548.34	39.79
548.51	102.98
548.67	44.47
548.84	0.00
549.01	2.34
549.18	46.81
549.34	63.19
549.51	0.00
549.68	79.58
549.84	58.51
550.01	81.92
550.18	42.13
550.34	128.73
550.51	42.13
550.68	51.49
550.84	67.88
551.01	60.85
551.18	18.72
551.34	39.79
551.51	95.96
551.68	63.19
551.84	86.60
552.01	91.28
552.18	105.32
552.34	18.72
552.51	21.06
552.68	124.05
552.84	2.34
553.01	11.70
553.18	14.04
553.34	81.92
553.51	81.92
553.67	30.43
553.84	16.38
554.01	74.90
554.17	44.47
554.34	30.43
554.51	28.09
554.67	32.77
554.84	0.00
555.00	51.49
555.17	154.48
555.33	30.43
555.50	70.22
555.67	77.24
555.83	2.34
556.00	42.13
556.16	56.17
556.33	74.90
556.50	46.81
556.66	21.06
556.83	77.24
556.99	49.15
557.16	11.70
557.32	56.17
557.49	67.88
557.65	44.47
557.82	0.00
557.98	0.00
558.15	21.06
558.32	70.22
558.48	44.47
558.65	35.11
558.81	14.04
558.98	2.34
559.14	72.56
559.31	72.56
559.47	100.64
559.64	51.49
559.80	37.45
559.97	0.00
560.13	0.00
560.30	0.00
560.46	0.00
560.63	11.70
560.79	46.81
560.96	21.06
561.12	88.94
561.29	84.26
561.45	95.96
561.61	91.28
561.78	37.45
561.94	60.85
562.11	70.22
562.27	72.56
562.44	63.19
562.60	58.51
562.77	32.77
562.93	72.56
563.10	70.22
563.26	74.90
563.42	0.00
563.59	46.81
563.75	49.15
563.92	16.38
564.08	2.34
564.24	25.75
564.41	0.00
564.57	51.49
564.74	28.09
564.90	14.04
565.07	56.17
565.23	30.43
565.39	16.38
565.56	56.17
565.72	14.04
565.88	81.92
566.05	105.32
566.21	77.24
566.38	77.24
566.54	124.05
566.70	98.30
566.87	60.85
567.03	42.13
567.19	56.17
567.36	56.17
567.52	23.41
567.68	18.72
567.85	2.34
568.01	42.13
568.17	93.62
568.34	60.85
568.50	14.04
568.66	53.83
568.83	60.85
568.99	4.68
569.15	88.94
569.32	30.43
569.48	25.75
569.64	88.94
569.81	65.54
569.97	42.13
570.13	49.15
570.30	77.24
570.46	65.54
570.62	72.56
570.78	77.24
570.95	114.69
571.11	7.02
571.27	42.13
571.43	53.83
571.60	14.04
571.76	74.90
571.92	30.43
572.09	79.58
572.25	49.15
572.41	23.41
572.57	51.49
572.74	46.81
572.90	42.13
573.06	49.15
573.22	63.19
573.38	37.45
573.55	119.37
573.71	72.56
573.87	30.43
574.03	72.56
574.20	0.00
574.36	42.13
574.52	79.58
574.68	42.13
574.84	0.00
575.01	74.90
575.17	0.00
575.33	11.70
575.49	44.47
575.65	152.13
575.82	110.01
575.98	56.17
576.14	65.54
576.30	49.15
576.46	63.19
576.62	56.17
576.79	4.68
576.95	39.79
577.11	72.56
577.27	84.26
577.43	37.45
577.59	95.96
577.75	117.03
577.92	110.01
578.08	98.30
578.24	2.34
578.40	39.79
578.56	37.45
578.72	0.00
578.88	70.22
579.04	86.60
579.21	0.00
579.37	53.83
579.53	23.41
579.69	95.96
579.85	63.19
580.01	53.83
580.17	70.22
580.33	32.77
580.49	60.85
580.65	16.38
580.82	44.47
580.98	56.17
581.14	4.68
581.30	53.83
581.46	30.43
581.62	72.56
581.78	23.41
581.94	23.41
582.10	53.83
582.26	46.81
582.42	49.15
582.58	46.81
582.74	21.06
582.90	16.38
583.06	28.09
583.22	56.17
583.38	84.26
583.54	49.15
583.70	39.79
583.86	2.34
584.02	53.83
584.18	72.56
584.34	42.13
584.50	72.56
584.66	39.79
584.82	107.66
584.98	37.45
585.14	51.49
585.30	44.47
585.46	0.00
585.62	65.54
585.78	30.43
585.94	53.83
586.10	81.92
586.26	30.43
586.42	114.69
586.58	11.70
586.74	32.77
586.90	77.24
587.06	58.51
587.22	81.92
587.38	42.13
587.54	35.11
587.70	0.00
587.86	77.24
588.02	4.68
588.18	53.83
588.34	56.17
588.49	0.00
588.65	46.81
588.81	14.04
588.97	23.41
589.13	63.19
589.29	86.60
589.45	63.19
589.61	14.04
589.77	65.54
589.93	0.00
590.08	0.00
590.24	16.38
590.40	0.00
590.56	46.81
590.72	112.35
590.88	14.04
591.04	67.88
591.20	0.00
591.35	32.77
591.51	2.34
591.67	91.28
591.83	35.11
591.99	39.79
592.15	30.43
592.31	74.90
592.46	42.13
592.62	7.02
592.78	11.70
592.94	42.13
593.10	35.11
593.26	30.43
593.41	32.77
593.57	2.34
593.73	16.38
593.89	84.26
594.05	91.28
594.20	58.51
594.36	67.88
594.52	0.00
594.68	0.00
594.84	0.00
594.99	42.13
595.15	98.30
595.31	63.19
595.47	44.47
595.62	42.13
595.78	28.09
595.94	49.15
596.10	107.66
596.25	79.58
596.41	65.54
596.57	77.24
596.73	2.34
596.88	37.45
597.04	14.04
597.20	70.22
597.36	81.92
597.51	46.81
597.67	124.05
597.83	154.48
597.99	0.00
598.14	74.90
598.30	46.81
598.46	35.11
598.61	11.70
598.77	107.66
598.93	32.77
599.09	21.06
599.24	4.68
599.40	28.09
599.56	44.47
599.71	142.77
599.87	14.04
600.03	65.54
600.18	79.58
600.34	32.77
600.50	70.22
600.65	23.41
600.81	21.06
600.97	0.00
601.12	28.09
601.28	102.98
601.44	42.13
601.59	77.24
601.75	56.17
601.91	16.38
602.06	81.92
602.22	46.81
602.37	53.83
602.53	32.77
602.69	74.90
602.84	79.58
603.00	81.92
603.16	60.85
603.31	58.51
603.47	25.75
603.62	65.54
603.78	0.00
603.94	63.19
604.09	70.22
604.25	51.49
604.40	49.15
604.56	51.49
604.71	79.58
604.87	0.00
605.03	51.49
605.18	65.54
605.34	42.13
605.49	14.04
605.65	67.88
605.80	0.00
605.96	58.51
606.12	0.00
606.27	0.00
606.43	88.94
606.58	49.15
606.74	28.09
606.89	35.11
607.05	0.00
607.20	63.19
607.36	184.90
607.51	51.49
607.67	107.66
607.82	4.68
607.98	65.54
608.13	0.00
608.29	16.38
608.44	39.79
608.60	32.77
608.75	93.62
608.91	30.43
609.06	42.13
609.22	35.11
609.37	81.92
609.53	95.96
609.68	60.85
609.84	53.83
609.99	70.22
610.15	32.77
610.30	18.72
610.46	39.79
610.61	0.00
610.76	23.41
610.92	0.00
611.07	105.32
611.23	51.49
611.38	35.11
611.54	42.13
611.69	81.92
611.84	110.01
612.00	77.24
612.15	4.68
612.31	60.85
612.46	9.36
612.62	0.00
612.77	86.60
612.92	0.00
613.08	107.66
613.23	114.69
613.39	84.26
613.54	23.41
613.69	53.83
613.85	67.88
614.00	81.92
614.15	117.03
614.31	133.41
614.46	0.00
614.62	42.13
614.77	65.54
614.92	0.00
615.08	23.41
615.23	0.00
615.38	51.49
615.54	72.56
615.69	51.49
615.84	58.51
616.00	28.09
616.15	18.72
616.30	60.85
616.46	32.77
616.61	46.81
616.76	49.15
616.92	0.00
617.07	37.45
617.22	14.04
617.37	25.75
617.53	77.24
617.68	49.15
617.83	28.09
617.99	51.49
618.14	65.54
618.29	0.00
618.45	9.36
618.60	63.19
618.75	60.85
618.90	102.98
619.06	63.19
619.21	16.38
619.36	28.09
619.51	21.06
619.67	56.17
619.82	51.49
619.97	63.19
620.12	58.51
620.28	51.49
620.43	46.81
620.58	30.43
620.73	91.28
620.89	9.36
621.04	42.13
621.19	0.00
621.34	0.00
621.49	65.54
621.65	0.00
621.80	53.83
621.95	72.56
622.10	0.00
622.25	39.79
622.41	0.00
622.56	0.00
622.71	63.19
622.86	58.51
623.01	58.51
623.16	58.51
623.32	21.06
623.47	32.77
623.62	88.94
623.77	77.24
623.92	49.15
624.07	51.49
624.23	30.43
624.38	70.22
624.53	53.83
624.68	25.75
624.83	0.00
624.98	0.00
625.13	88.94
625.29	46.81
625.44	23.41
625.59	42.13
625.74	72.56
625.89	98.30
626.04	56.17
626.19	14.04
626.34	63.19
626.49	105.32
626.65	32.77
626.80	14.04
626.95	46.81
627.10	0.00
627.25	18.72
627.40	30.43
627.55	53.83
627.70	0.00
627.85	46.81
628.00	46.81
628.15	0.00
628.30	65.54
628.45	16.38
628.60	23.41
628.76	37.45
628.91	9.36
629.06	32.77
629.21	56.17
629.36	79.58
629.51	28.09
629.66	39.79
629.81	58.51
629.96	51.49
630.11	70.22
630.26	37.45
630.41	2.34
630.56	28.09
630.71	23.41
630.86	67.88
631.01	84.26
631.16	58.51
631.31	65.54
631.46	23.41
631.61	25.75
631.76	14.04
631.91	0.00
632.06	58.51
632.21	30.43
632.36	77.24
632.51	0.00
632.66	44.47
632.81	28.09
632.96	46.81
633.10	42.13
633.25	65.54
633.40	114.69
633.55	102.98
633.70	65.54
633.85	65.54
634.00	88.94
634.15	30.43
634.30	56.17
634.45	4.68
634.60	25.75
634.75	0.00
634.90	28.09
635.05	16.38
635.19	0.00
635.34	30.43
635.49	9.36
635.64	14.04
635.79	37.45
635.94	49.15
636.09	28.09
636.24	74.90
636.39	28.09
636.53	30.43
636.68	30.43
636.83	0.00
636.98	77.24
637.13	65.54
637.28	42.13
637.43	91.28
637.57	28.09
637.72	21.06
637.87	0.00
638.02	0.00
638.17	58.51
638.32	7.02
638.46	42.13
638.61	56.17
638.76	0.00
638.91	110.01
639.06	133.41
639.20	23.41
639.35	30.43
639.50	74.90
639.65	35.11
639.80	72.56
639.94	18.72
640.09	42.13
640.24	63.19
640.39	18.72
640.54	46.81
640.68	53.83
640.83	63.19
640.98	93.62
641.13	9.36
641.27	28.09
641.42	128.73
641.57	28.09
641.72	30.43
641.86	0.00
642.01	21.06
642.16	0.00
642.31	74.90
642.45	0.00
642.60	63.19
642.75	56.17
642.90	11.70
643.04	53.83
643.19	30.43
643.34	42.13
643.48	39.79
643.63	56.17
643.78	0.00
643.93	39.79
644.07	25.75
644.22	25.75
644.37	60.85
644.51	18.72
644.66	93.62
644.81	74.90
644.95	131.07
645.10	53.83
645.25	28.09
645.39	70.22
645.54	30.43
645.69	25.75
645.83	51.49
645.98	60.85
646.13	44.47
646.27	49.15
646.42	39.79
646.57	51.49
646.71	11.70
646.86	49.15
647.00	77.24
647.15	0.00
647.30	14.04
647.44	51.49
647.59	74.90
647.74	0.00
647.88	110.01
648.03	56.17
648.17	74.90
648.32	70.22
648.47	77.24
648.61	0.00
648.76	58.51
648.90	58.51
649.05	25.75
649.20	30.43
649.34	70.22
649.49	44.47
649.63	39.79
649.78	42.13
649.92	0.00
650.07	74.90
650.21	21.06
650.36	9.36
650.51	88.94
650.65	77.24
650.80	49.15
650.94	49.15
651.09	30.43
651.23	30.43
651.38	67.88
651.52	0.00
651.67	0.00
651.81	119.37
651.96	44.47
652.10	25.75
652.25	0.00
652.39	2.34
652.54	0.00
652.68	30.43
652.83	0.00
652.97	56.17
653.12	65.54
653.26	0.00
653.41	25.75
653.55	74.90
653.70	35.11
653.84	58.51
653.99	102.98
654.13	0.00
654.27	65.54
654.42	39.79
654.56	30.43
654.71	21.06
654.85	16.38
655.00	0.00
655.14	46.81
655.29	79.58
655.43	42.13
655.57	0.00
655.72	86.60
655.86	35.11
656.01	16.38
656.15	102.98
656.30	0.00
656.44	14.04
656.58	21.06
656.73	44.47
656.87	4.68
657.01	65.54
657.16	0.00
657.30	21.06
657.45	11.70
657.59	37.45
657.73	7.02
657.88	65.54
658.02	84.26
658.16	44.47
658.31	60.85
658.45	53.83
658.60	46.81
658.74	77.24
658.88	51.49
659.03	39.79
659.17	32.77
659.31	49.15
659.46	37.45
659.60	0.00
659.74	35.11
659.89	145.11
660.03	49.15
660.17	21.06
660.32	126.39
660.46	51.49
660.60	4.68
660.74	11.70
660.89	44.47
661.03	9.36
661.17	70.22
661.32	0.00
661.46	39.79
661.60	35.11
661.74	28.09
661.89	53.83
662.03	28.09
662.17	32.77
662.31	58.51
662.46	74.90
662.60	28.09
662.74	49.15
662.88	56.17
663.03	0.00
663.17	28.09
663.31	11.70
663.45	25.75
663.60	0.00
663.74	0.00
663.88	0.00
664.02	105.32
664.17	35.11
664.31	0.00
664.45	65.54
664.59	21.06
664.73	60.85
664.88	70.22
665.02	9.36
665.16	0.00
665.30	0.00
665.44	88.94
665.59	11.70
665.73	23.41
665.87	77.24
666.01	21.06
666.15	44.47
666.29	23.41
666.44	9.36
666.58	32.77
666.72	0.00
666.86	84.26
667.00	100.64
667.14	14.04
667.28	72.56
667.43	2.34
667.57	28.09
667.71	9.36
667.85	49.15
667.99	4.68
668.13	30.43
668.27	46.81
668.41	30.43
668.56	0.00
668.70	112.35
668.84	2.34
668.98	0.00
669.12	51.49
669.26	44.47
669.40	60.85
669.54	4.68
669.68	37.45
669.82	58.51
669.96	56.17
670.10	58.51
670.25	39.79
670.39	44.47
670.53	91.28
670.67	0.00
670.81	37.45
670.95	35.11
671.09	2.34
671.23	79.58
671.37	30.43
671.51	0.00
671.65	79.58
671.79	70.22
671.93	37.45
672.07	7.02
672.21	0.00
672.35	30.43
672.49	39.79
672.63	32.77
672.77	30.43
672.91	9.36
673.05	28.09
673.19	63.19
673.33	65.54
673.47	25.75
673.61	46.81
673.75	0.00
673.89	49.15
674.03	77.24
674.17	72.56
674.31	65.54
674.45	0.00
674.59	0.00
674.73	65.54
674.87	4.68
675.01	28.09
675.15	77.24
675.29	21.06
675.43	58.51
675.56	51.49
675.70	16.38
675.84	0.00
675.98	51.49
676.12	72.56
676.26	28.09
676.40	30.43
676.54	23.41
676.68	0.00
676.82	84.26
676.96	0.00
677.10	0.00
677.23	0.00
677.37	140.43
677.51	0.00
677.65	46.81
677.79	86.60
677.93	39.79
678.07	32.77
678.21	67.88
678.34	77.24
678.48	14.04
678.62	56.17
678.76	4.68
678.90	21.06
679.04	74.90
679.18	23.41
679.31	74.90
679.45	58.51
679.59	14.04
679.73	65.54
679.87	23.41
680.00	56.17
680.14	35.11
680.28	37.45
680.42	102.98
680.56	35.11
680.70	84.26
680.83	84.26
680.97	14.04
681.11	28.09
681.25	65.54
681.39	58.51
681.52	30.43
681.66	39.79
681.80	58.51
681.94	28.09
682.07	23.41
682.21	58.51
682.35	84.26
682.49	42.13
682.62	2.34
682.76	72.56
682.90	100.64
683.04	0.00
683.17	0.00
683.31	16.38
683.45	16.38
683.59	58.51
683.72	37.45
683.86	56.17
684.00	44.47
684.13	42.13
684.27	121.71
684.41	18.72
684.55	0.00
684.68	11.70
684.82	0.00
684.96	63.19
685.09	100.64
685.23	46.81
685.37	0.00
685.50	56.17
685.64	86.60
685.78	0.00
685.91	28.09
686.05	0.00
686.19	35.11
686.32	23.41
686.46	0.00
686.60	46.81
686.73	84.26
686.87	28.09
687.01	79.58
687.14	67.88
687.28	70.22
687.42	11.70
687.55	0.00
687.69	30.43
687.82	72.56
687.96	112.35
688.10	25.75
688.23	21.06
688.37	72.56
688.50	23.41
688.64	100.64
688.78	32.77
688.91	56.17
689.05	56.17
689.18	28.09
689.32	4.68
689.46	0.00
689.59	0.00
689.73	0.00
689.86	37.45
690.00	35.11
690.13	53.83
690.27	53.83
690.41	72.56
690.54	46.81
690.68	58.51
690.81	53.83
690.95	102.98
691.08	16.38
691.22	53.83
691.35	25.75
691.49	42.13
691.62	0.00
691.76	23.41
691.89	74.90
692.03	14.04
692.16	28.09
692.30	2.34
692.43	30.43
692.57	44.47
692.70	35.11
692.84	44.47
692.97	63.19
693.11	0.00
693.24	51.49
693.38	25.75
693.51	11.70
693.65	0.00
693.78	49.15
693.92	0.00
694.05	30.43
694.19	16.38
694.32	49.15
694.45	18.72
694.59	91.28
694.72	74.90
694.86	58.51
694.99	53.83
695.13	79.58
695.26	18.72
695.39	70.22
695.53	14.04
695.66	18.72
695.80	81.92
695.93	72.56
696.07	21.06
696.20	18.72
696.33	25.75
696.47	4.68
696.60	0.00
696.73	0.00
696.87	49.15
697.00	70.22
697.14	0.00
697.27	21.06
697.40	0.00
697.54	35.11
697.67	32.77
697.80	65.54
697.94	25.75
698.07	67.88
698.21	42.13
698.34	81.92
698.47	21.06
698.61	23.41
698.74	4.68
698.87	60.85
699.01	112.35
699.14	0.00
699.27	0.00
699.40	39.79
699.54	49.15
699.67	23.41
699.80	84.26
699.94	51.49
700.07	107.66
700.20	53.83
700.34	2.34
700.47	67.88
700.60	32.77
700.73	42.13
700.87	4.68
701.00	0.00
701.13	21.06
701.26	74.90
701.40	14.04
701.53	84.26
701.66	0.00
701.79	25.75
701.93	88.94
702.06	0.00
702.19	30.43
702.32	14.04
702.46	21.06
702.59	56.17
702.72	107.66
702.85	0.00
702.99	0.00
703.12	0.00
703.25	51.49
703.38	7.02
703.51	23.41
703.65	49.15
703.78	0.00
703.91	112.35
704.04	44.47
704.17	35.11
704.31	46.81
704.44	0.00
704.57	56.17
704.70	74.90
704.83	25.75
704.96	70.22
705.10	44.47
705.23	21.06
>>>>>End Processed Spectral Data<<<<<
