SpectraSuite Data File
++++++++++++++++++++++++++++++++++++
Date: Fri Oct 04 12:13:31 GMT-05:00 2013
User: price-jones
Dark Spectrum Present: No
Reference Spectrum Present: No
Number of Sampled Component Spectra: 1
Spectrometers: USB2+H05261
Integration Time (usec): 10000 (USB2+H05261)
Spectra Averaged: 1 (USB2+H05261)
Boxcar Smoothing: 0 (USB2+H05261)
Correct for Electrical Dark: No (USB2+H05261)
Strobe/Lamp Enabled: No (USB2+H05261)
Correct for Detector Non-linearity: No (USB2+H05261)
Correct for Stray Light: No (USB2+H05261)
Number of Pixels in Processed Spectrum: 2048
>>>>>Begin Processed Spectral Data<<<<<
365.73	0.00
365.92	0.00
366.12	0.00
366.32	0.00
366.52	0.00
366.72	0.00
366.91	0.00
367.11	0.00
367.31	0.00
367.51	0.00
367.70	0.00
367.90	0.00
368.10	0.00
368.30	0.00
368.49	0.00
368.69	0.00
368.89	0.00
369.09	0.00
369.28	0.00
369.48	0.00
369.68	0.00
369.87	0.00
370.07	0.00
370.27	0.00
370.47	0.00
370.66	0.00
370.86	0.00
371.06	0.00
371.25	0.00
371.45	11.70
371.65	16.38
371.84	0.00
372.04	4.68
372.24	0.00
372.44	0.00
372.63	65.54
372.83	51.49
373.03	16.38
373.22	37.45
373.42	77.24
373.62	42.13
373.81	0.00
374.01	16.38
374.21	14.04
374.40	23.41
374.60	0.00
374.79	79.58
374.99	70.22
375.19	44.47
375.38	81.92
375.58	14.04
375.78	9.36
375.97	72.56
376.17	0.00
376.37	32.77
376.56	23.41
376.76	0.00
376.95	91.28
377.15	56.17
377.35	37.45
377.54	102.98
377.74	51.49
377.93	23.41
378.13	11.70
378.33	0.00
378.52	9.36
378.72	35.11
378.91	35.11
379.11	0.00
379.31	0.00
379.50	86.60
379.70	30.43
379.89	0.00
380.09	0.00
380.28	0.00
380.48	30.43
380.68	9.36
380.87	60.85
381.07	37.45
381.26	100.64
381.46	35.11
381.65	0.00
381.85	86.60
382.04	2.34
382.24	37.45
382.43	56.17
382.63	28.09
382.83	7.02
383.02	0.00
383.22	53.83
383.41	53.83
383.61	0.00
383.80	39.79
384.00	18.72
384.19	105.32
384.39	14.04
384.58	0.00
384.78	9.36
384.97	0.00
385.17	105.32
385.36	0.00
385.56	0.00
385.75	0.00
385.95	0.00
386.14	35.11
386.34	9.36
386.53	23.41
386.72	30.43
386.92	9.36
387.11	49.15
387.31	0.00
387.50	18.72
387.70	28.09
387.89	0.00
388.09	44.47
388.28	18.72
388.48	53.83
388.67	72.56
388.86	67.88
389.06	21.06
389.25	49.15
389.45	23.41
389.64	51.49
389.84	0.00
390.03	23.41
390.22	0.00
390.42	102.98
390.61	28.09
390.81	60.85
391.00	11.70
391.19	0.00
391.39	7.02
391.58	0.00
391.78	67.88
391.97	0.00
392.16	49.15
392.36	14.04
392.55	16.38
392.75	51.49
392.94	0.00
393.13	0.00
393.33	0.00
393.52	9.36
393.71	30.43
393.91	77.24
394.10	74.90
394.29	4.68
394.49	25.75
394.68	67.88
394.88	0.00
395.07	77.24
395.26	70.22
395.46	0.00
395.65	37.45
395.84	16.38
396.04	0.00
396.23	0.00
396.42	37.45
396.62	56.17
396.81	23.41
397.00	14.04
397.19	7.02
397.39	16.38
397.58	14.04
397.77	0.00
397.97	0.00
398.16	0.00
398.35	42.13
398.55	9.36
398.74	0.00
398.93	65.54
399.12	0.00
399.32	32.77
399.51	0.00
399.70	51.49
399.90	37.45
400.09	0.00
400.28	51.49
400.47	72.56
400.67	42.13
400.86	72.56
401.05	35.11
401.24	35.11
401.44	51.49
401.63	32.77
401.82	0.00
402.01	0.00
402.21	0.00
402.40	0.00
402.59	14.04
402.78	51.49
402.97	51.49
403.17	72.56
403.36	0.00
403.55	28.09
403.74	11.70
403.93	49.15
404.13	25.75
404.32	21.06
404.51	44.47
404.70	42.13
404.89	70.22
405.09	0.00
405.28	51.49
405.47	37.45
405.66	37.45
405.85	0.00
406.05	0.00
406.24	0.00
406.43	0.00
406.62	60.85
406.81	4.68
407.00	23.41
407.20	46.81
407.39	49.15
407.58	74.90
407.77	4.68
407.96	0.00
408.15	25.75
408.34	100.64
408.54	28.09
408.73	4.68
408.92	56.17
409.11	51.49
409.30	2.34
409.49	60.85
409.68	9.36
409.87	58.51
410.07	28.09
410.26	11.70
410.45	49.15
410.64	32.77
410.83	53.83
411.02	0.00
411.21	28.09
411.40	0.00
411.59	56.17
411.78	0.00
411.98	0.00
412.17	0.00
412.36	0.00
412.55	0.00
412.74	51.49
412.93	32.77
413.12	0.00
413.31	11.70
413.50	0.00
413.69	30.43
413.88	0.00
414.07	65.54
414.26	0.00
414.45	0.00
414.64	0.00
414.83	30.43
415.02	0.00
415.22	56.17
415.41	11.70
415.60	53.83
415.79	25.75
415.98	0.00
416.17	49.15
416.36	51.49
416.55	42.13
416.74	98.30
416.93	2.34
417.12	49.15
417.31	0.00
417.50	18.72
417.69	28.09
417.88	35.11
418.07	49.15
418.26	58.51
418.45	0.00
418.64	7.02
418.83	9.36
419.02	2.34
419.21	56.17
419.39	77.24
419.58	42.13
419.77	44.47
419.96	14.04
420.15	60.85
420.34	7.02
420.53	14.04
420.72	28.09
420.91	0.00
421.10	30.43
421.29	81.92
421.48	30.43
421.67	0.00
421.86	81.92
422.05	4.68
422.24	23.41
422.43	35.11
422.61	60.85
422.80	67.88
422.99	0.00
423.18	0.00
423.37	46.81
423.56	0.00
423.75	28.09
423.94	0.00
424.13	0.00
424.32	0.00
424.50	0.00
424.69	0.00
424.88	107.66
425.07	37.45
425.26	107.66
425.45	30.43
425.64	21.06
425.83	88.94
426.01	42.13
426.20	16.38
426.39	0.00
426.58	35.11
426.77	88.94
426.96	25.75
427.15	0.00
427.33	44.47
427.52	102.98
427.71	91.28
427.90	0.00
428.09	9.36
428.28	0.00
428.46	51.49
428.65	95.96
428.84	58.51
429.03	49.15
429.22	0.00
429.40	16.38
429.59	0.00
429.78	0.00
429.97	18.72
430.16	28.09
430.34	0.00
430.53	37.45
430.72	84.26
430.91	0.00
431.10	18.72
431.28	0.00
431.47	42.13
431.66	30.43
431.85	51.49
432.03	79.58
432.22	56.17
432.41	42.13
432.60	39.79
432.79	0.00
432.97	37.45
433.16	32.77
433.35	37.45
433.54	53.83
433.72	0.00
433.91	93.62
434.10	102.98
434.28	9.36
434.47	0.00
434.66	60.85
434.85	18.72
435.03	9.36
435.22	11.70
435.41	56.17
435.59	53.83
435.78	23.41
435.97	18.72
436.16	65.54
436.34	102.98
436.53	32.77
436.72	60.85
436.90	30.43
437.09	0.00
437.28	0.00
437.46	0.00
437.65	65.54
437.84	35.11
438.02	91.28
438.21	0.00
438.40	4.68
438.58	56.17
438.77	37.45
438.96	16.38
439.14	67.88
439.33	63.19
439.52	25.75
439.70	65.54
439.89	58.51
440.08	67.88
440.26	32.77
440.45	35.11
440.63	30.43
440.82	56.17
441.01	110.01
441.19	117.03
441.38	0.00
441.57	95.96
441.75	32.77
441.94	0.00
442.12	0.00
442.31	51.49
442.50	2.34
442.68	42.13
442.87	53.83
443.05	88.94
443.24	23.41
443.43	84.26
443.61	72.56
443.80	25.75
443.98	58.51
444.17	67.88
444.35	21.06
444.54	7.02
444.73	42.13
444.91	70.22
445.10	35.11
445.28	63.19
445.47	7.02
445.65	18.72
445.84	0.00
446.02	21.06
446.21	25.75
446.39	70.22
446.58	93.62
446.77	51.49
446.95	84.26
447.14	7.02
447.32	42.13
447.51	93.62
447.69	14.04
447.88	4.68
448.06	44.47
448.25	74.90
448.43	100.64
448.62	37.45
448.80	32.77
448.99	0.00
449.17	7.02
449.36	23.41
449.54	35.11
449.73	0.00
449.91	53.83
450.10	21.06
450.28	37.45
450.46	84.26
450.65	74.90
450.83	56.17
451.02	23.41
451.20	21.06
451.39	0.00
451.57	28.09
451.76	0.00
451.94	46.81
452.13	28.09
452.31	60.85
452.49	30.43
452.68	0.00
452.86	0.00
453.05	51.49
453.23	11.70
453.42	39.79
453.60	65.54
453.78	0.00
453.97	0.00
454.15	53.83
454.34	37.45
454.52	9.36
454.70	56.17
454.89	39.79
455.07	32.77
455.26	25.75
455.44	25.75
455.62	49.15
455.81	9.36
455.99	93.62
456.17	37.45
456.36	0.00
456.54	14.04
456.73	2.34
456.91	49.15
457.09	0.00
457.28	18.72
457.46	0.00
457.64	42.13
457.83	84.26
458.01	0.00
458.19	77.24
458.38	39.79
458.56	102.98
458.74	0.00
458.93	74.90
459.11	0.00
459.29	0.00
459.48	42.13
459.66	35.11
459.84	58.51
460.03	0.00
460.21	23.41
460.39	51.49
460.57	35.11
460.76	0.00
460.94	63.19
461.12	44.47
461.31	70.22
461.49	25.75
461.67	58.51
461.85	32.77
462.04	105.32
462.22	133.41
462.40	79.58
462.59	37.45
462.77	0.00
462.95	11.70
463.13	0.00
463.32	60.85
463.50	37.45
463.68	16.38
463.86	46.81
464.05	30.43
464.23	25.75
464.41	112.35
464.59	60.85
464.78	0.00
464.96	0.00
465.14	37.45
465.32	0.00
465.50	14.04
465.69	30.43
465.87	35.11
466.05	23.41
466.23	0.00
466.41	35.11
466.60	16.38
466.78	21.06
466.96	72.56
467.14	39.79
467.32	23.41
467.51	110.01
467.69	63.19
467.87	67.88
468.05	44.47
468.23	11.70
468.41	0.00
468.60	0.00
468.78	105.32
468.96	9.36
469.14	91.28
469.32	30.43
469.50	30.43
469.69	56.17
469.87	42.13
470.05	9.36
470.23	70.22
470.41	25.75
470.59	86.60
470.77	35.11
470.95	16.38
471.14	74.90
471.32	14.04
471.50	60.85
471.68	25.75
471.86	46.81
472.04	49.15
472.22	21.06
472.40	18.72
472.58	39.79
472.77	77.24
472.95	142.77
473.13	4.68
473.31	46.81
473.49	119.37
473.67	53.83
473.85	65.54
474.03	84.26
474.21	0.00
474.39	0.00
474.57	95.96
474.75	42.13
474.93	0.00
475.12	51.49
475.30	2.34
475.48	60.85
475.66	84.26
475.84	53.83
476.02	2.34
476.20	72.56
476.38	112.35
476.56	25.75
476.74	18.72
476.92	46.81
477.10	65.54
477.28	51.49
477.46	0.00
477.64	7.02
477.82	25.75
478.00	9.36
478.18	117.03
478.36	63.19
478.54	37.45
478.72	21.06
478.90	44.47
479.08	51.49
479.26	60.85
479.44	23.41
479.62	102.98
479.80	42.13
479.98	56.17
480.16	100.64
480.34	105.32
480.52	58.51
480.70	37.45
480.88	0.00
481.06	58.51
481.24	23.41
481.41	11.70
481.59	0.00
481.77	0.00
481.95	65.54
482.13	39.79
482.31	0.00
482.49	53.83
482.67	32.77
482.85	25.75
483.03	35.11
483.21	32.77
483.39	18.72
483.57	65.54
483.74	51.49
483.92	32.77
484.10	49.15
484.28	39.79
484.46	60.85
484.64	44.47
484.82	28.09
485.00	0.00
485.18	30.43
485.35	74.90
485.53	35.11
485.71	9.36
485.89	39.79
486.07	0.00
486.25	37.45
486.43	49.15
486.61	79.58
486.78	39.79
486.96	0.00
487.14	21.06
487.32	107.66
487.50	0.00
487.68	93.62
487.85	11.70
488.03	170.86
488.21	49.15
488.39	63.19
488.57	65.54
488.75	0.00
488.92	28.09
489.10	72.56
489.28	58.51
489.46	30.43
489.64	7.02
489.81	39.79
489.99	72.56
490.17	53.83
490.35	42.13
490.53	18.72
490.70	0.00
490.88	21.06
491.06	0.00
491.24	0.00
491.41	16.38
491.59	58.51
491.77	74.90
491.95	95.96
492.13	51.49
492.30	21.06
492.48	23.41
492.66	21.06
492.84	9.36
493.01	81.92
493.19	51.49
493.37	0.00
493.54	7.02
493.72	0.00
493.90	11.70
494.08	0.00
494.25	18.72
494.43	72.56
494.61	56.17
494.79	0.00
494.96	14.04
495.14	91.28
495.32	91.28
495.49	119.37
495.67	39.79
495.85	35.11
496.02	77.24
496.20	51.49
496.38	25.75
496.55	58.51
496.73	0.00
496.91	32.77
497.09	95.96
497.26	65.54
497.44	44.47
497.62	0.00
497.79	53.83
497.97	77.24
498.14	49.15
498.32	72.56
498.50	14.04
498.67	51.49
498.85	49.15
499.03	11.70
499.20	46.81
499.38	42.13
499.56	65.54
499.73	84.26
499.91	42.13
500.08	9.36
500.26	21.06
500.44	39.79
500.61	11.70
500.79	0.00
500.97	7.02
501.14	0.00
501.32	63.19
501.49	4.68
501.67	0.00
501.84	70.22
502.02	39.79
502.20	35.11
502.37	105.32
502.55	37.45
502.72	25.75
502.90	72.56
503.07	95.96
503.25	49.15
503.43	42.13
503.60	74.90
503.78	0.00
503.95	21.06
504.13	63.19
504.30	49.15
504.48	16.38
504.65	74.90
504.83	2.34
505.01	74.90
505.18	35.11
505.36	65.54
505.53	11.70
505.71	65.54
505.88	58.51
506.06	46.81
506.23	18.72
506.41	77.24
506.58	0.00
506.76	35.11
506.93	11.70
507.11	39.79
507.28	21.06
507.46	11.70
507.63	65.54
507.81	18.72
507.98	25.75
508.16	60.85
508.33	0.00
508.50	91.28
508.68	79.58
508.85	39.79
509.03	58.51
509.20	2.34
509.38	0.00
509.55	88.94
509.73	11.70
509.90	21.06
510.08	4.68
510.25	44.47
510.42	72.56
510.60	49.15
510.77	9.36
510.95	0.00
511.12	28.09
511.30	23.41
511.47	9.36
511.64	114.69
511.82	63.19
511.99	70.22
512.17	9.36
512.34	58.51
512.51	0.00
512.69	74.90
512.86	39.79
513.04	51.49
513.21	37.45
513.38	30.43
513.56	28.09
513.73	21.06
513.90	79.58
514.08	135.75
514.25	72.56
514.43	14.04
514.60	0.00
514.77	51.49
514.95	51.49
515.12	56.17
515.29	0.00
515.47	21.06
515.64	74.90
515.81	86.60
515.99	93.62
516.16	16.38
516.33	11.70
516.51	0.00
516.68	30.43
516.85	0.00
517.03	37.45
517.20	4.68
517.37	67.88
517.54	9.36
517.72	25.75
517.89	46.81
518.06	4.68
518.24	67.88
518.41	0.00
518.58	53.83
518.75	18.72
518.93	32.77
519.10	39.79
519.27	0.00
519.45	0.00
519.62	58.51
519.79	74.90
519.96	37.45
520.14	35.11
520.31	77.24
520.48	72.56
520.65	110.01
520.83	53.83
521.00	107.66
521.17	79.58
521.34	60.85
521.52	53.83
521.69	44.47
521.86	42.13
522.03	28.09
522.20	56.17
522.38	23.41
522.55	35.11
522.72	7.02
522.89	25.75
523.07	42.13
523.24	4.68
523.41	0.00
523.58	58.51
523.75	9.36
523.92	67.88
524.10	23.41
524.27	74.90
524.44	53.83
524.61	77.24
524.78	79.58
524.96	105.32
525.13	72.56
525.30	44.47
525.47	124.05
525.64	98.30
525.81	44.47
525.98	44.47
526.16	23.41
526.33	35.11
526.50	63.19
526.67	58.51
526.84	53.83
527.01	49.15
527.18	86.60
527.36	46.81
527.53	37.45
527.70	32.77
527.87	65.54
528.04	81.92
528.21	0.00
528.38	0.00
528.55	112.35
528.72	74.90
528.89	0.00
529.07	42.13
529.24	35.11
529.41	72.56
529.58	23.41
529.75	0.00
529.92	7.02
530.09	23.41
530.26	79.58
530.43	86.60
530.60	51.49
530.77	0.00
530.94	70.22
531.11	46.81
531.28	42.13
531.46	0.00
531.63	9.36
531.80	126.39
531.97	39.79
532.14	35.11
532.31	49.15
532.48	46.81
532.65	79.58
532.82	44.47
532.99	65.54
533.16	25.75
533.33	0.00
533.50	0.00
533.67	74.90
533.84	81.92
534.01	63.19
534.18	2.34
534.35	60.85
534.52	0.00
534.69	0.00
534.86	14.04
535.03	77.24
535.20	56.17
535.37	44.47
535.54	79.58
535.71	28.09
535.88	100.64
536.05	56.17
536.22	67.88
536.38	65.54
536.55	65.54
536.72	93.62
536.89	16.38
537.06	2.34
537.23	7.02
537.40	42.13
537.57	28.09
537.74	79.58
537.91	49.15
538.08	70.22
538.25	65.54
538.42	35.11
538.59	77.24
538.75	56.17
538.92	53.83
539.09	25.75
539.26	11.70
539.43	30.43
539.60	135.75
539.77	175.54
539.94	37.45
540.11	53.83
540.28	44.47
540.44	79.58
540.61	39.79
540.78	16.38
540.95	30.43
541.12	81.92
541.29	100.64
541.46	16.38
541.62	84.26
541.79	65.54
541.96	74.90
542.13	35.11
542.30	32.77
542.47	0.00
542.63	110.01
542.80	25.75
542.97	18.72
543.14	16.38
543.31	16.38
543.48	93.62
543.64	37.45
543.81	65.54
543.98	18.72
544.15	63.19
544.32	56.17
544.48	93.62
544.65	72.56
544.82	65.54
544.99	67.88
545.16	39.79
545.32	30.43
545.49	11.70
545.66	133.41
545.83	14.04
546.00	49.15
546.16	46.81
546.33	28.09
546.50	79.58
546.67	53.83
546.83	44.47
547.00	0.00
547.17	46.81
547.34	74.90
547.50	39.79
547.67	28.09
547.84	58.51
548.00	23.41
548.17	32.77
548.34	84.26
548.51	0.00
548.67	88.94
548.84	70.22
549.01	124.05
549.18	53.83
549.34	110.01
549.51	60.85
549.68	84.26
549.84	35.11
550.01	0.00
550.18	42.13
550.34	44.47
550.51	70.22
550.68	16.38
550.84	60.85
551.01	126.39
551.18	53.83
551.34	25.75
551.51	65.54
551.68	0.00
551.84	110.01
552.01	30.43
552.18	37.45
552.34	9.36
552.51	74.90
552.68	16.38
552.84	16.38
553.01	7.02
553.18	14.04
553.34	42.13
553.51	37.45
553.67	58.51
553.84	110.01
554.01	58.51
554.17	37.45
554.34	25.75
554.51	23.41
554.67	0.00
554.84	0.00
555.00	0.00
555.17	28.09
555.33	44.47
555.50	93.62
555.67	60.85
555.83	79.58
556.00	0.00
556.16	114.69
556.33	53.83
556.50	126.39
556.66	102.98
556.83	28.09
556.99	25.75
557.16	23.41
557.32	0.00
557.49	77.24
557.65	67.88
557.82	37.45
557.98	46.81
558.15	0.00
558.32	39.79
558.48	16.38
558.65	42.13
558.81	84.26
558.98	58.51
559.14	86.60
559.31	21.06
559.47	93.62
559.64	117.03
559.80	0.00
559.97	0.00
560.13	58.51
560.30	70.22
560.46	16.38
560.63	58.51
560.79	9.36
560.96	32.77
561.12	84.26
561.29	65.54
561.45	102.98
561.61	117.03
561.78	102.98
561.94	0.00
562.11	0.00
562.27	53.83
562.44	21.06
562.60	0.00
562.77	46.81
562.93	0.00
563.10	0.00
563.26	0.00
563.42	11.70
563.59	25.75
563.75	35.11
563.92	21.06
564.08	98.30
564.24	46.81
564.41	0.00
564.57	0.00
564.74	35.11
564.90	39.79
565.07	25.75
565.23	32.77
565.39	0.00
565.56	11.70
565.72	51.49
565.88	16.38
566.05	0.00
566.21	0.00
566.38	65.54
566.54	0.00
566.70	42.13
566.87	60.85
567.03	88.94
567.19	86.60
567.36	81.92
567.52	67.88
567.68	25.75
567.85	84.26
568.01	91.28
568.17	86.60
568.34	23.41
568.50	86.60
568.66	65.54
568.83	74.90
568.99	42.13
569.15	32.77
569.32	0.00
569.48	30.43
569.64	60.85
569.81	65.54
569.97	7.02
570.13	9.36
570.30	63.19
570.46	44.47
570.62	56.17
570.78	0.00
570.95	2.34
571.11	32.77
571.27	0.00
571.43	44.47
571.60	28.09
571.76	30.43
571.92	0.00
572.09	0.00
572.25	37.45
572.41	49.15
572.57	74.90
572.74	11.70
572.90	81.92
573.06	112.35
573.22	0.00
573.38	63.19
573.55	126.39
573.71	0.00
573.87	28.09
574.03	63.19
574.20	86.60
574.36	44.47
574.52	37.45
574.68	67.88
574.84	70.22
575.01	28.09
575.17	88.94
575.33	128.73
575.49	0.00
575.65	72.56
575.82	93.62
575.98	77.24
576.14	126.39
576.30	70.22
576.46	23.41
576.62	49.15
576.79	88.94
576.95	86.60
577.11	0.00
577.27	23.41
577.43	79.58
577.59	14.04
577.75	77.24
577.92	60.85
578.08	70.22
578.24	67.88
578.40	9.36
578.56	46.81
578.72	100.64
578.88	16.38
579.04	42.13
579.21	0.00
579.37	58.51
579.53	105.32
579.69	35.11
579.85	30.43
580.01	42.13
580.17	28.09
580.33	35.11
580.49	39.79
580.65	72.56
580.82	23.41
580.98	39.79
581.14	0.00
581.30	133.41
581.46	42.13
581.62	0.00
581.78	9.36
581.94	114.69
582.10	14.04
582.26	30.43
582.42	35.11
582.58	16.38
582.74	7.02
582.90	93.62
583.06	51.49
583.22	63.19
583.38	53.83
583.54	28.09
583.70	84.26
583.86	142.77
584.02	77.24
584.18	53.83
584.34	100.64
584.50	341.72
584.66	1521.35
584.82	3915.72
584.98	5219.39
585.14	4496.17
585.30	2864.82
585.46	1881.79
585.62	1095.37
585.78	568.75
585.94	273.84
586.10	168.52
586.26	91.28
586.42	142.77
586.58	119.37
586.74	30.43
586.90	46.81
587.06	28.09
587.22	72.56
587.38	105.32
587.54	88.94
587.70	252.78
587.86	369.80
588.02	498.53
588.18	255.12
588.34	212.99
588.49	53.83
588.65	67.88
588.81	65.54
588.97	0.00
589.13	154.48
589.29	70.22
589.45	53.83
589.61	60.85
589.77	65.54
589.93	0.00
590.08	0.00
590.24	74.90
590.40	70.22
590.56	131.07
590.72	63.19
590.88	79.58
591.04	42.13
591.20	51.49
591.35	23.41
591.51	0.00
591.67	0.00
591.83	9.36
591.99	42.13
592.15	37.45
592.31	63.19
592.46	51.49
592.62	67.88
592.78	30.43
592.94	58.51
593.10	79.58
593.26	30.43
593.41	42.13
593.57	35.11
593.73	95.96
593.89	243.42
594.05	470.45
594.20	706.84
594.36	664.71
594.52	449.38
594.68	269.16
594.84	191.92
594.99	65.54
595.15	95.96
595.31	11.70
595.47	30.43
595.62	42.13
595.78	46.81
595.94	56.17
596.10	30.43
596.25	0.00
596.41	39.79
596.57	53.83
596.73	42.13
596.88	81.92
597.04	156.82
597.20	128.73
597.36	161.50
597.51	208.31
597.67	102.98
597.83	28.09
597.99	131.07
598.14	70.22
598.30	63.19
598.46	42.13
598.61	110.01
598.77	100.64
598.93	46.81
599.09	14.04
599.24	39.79
599.40	93.62
599.56	0.00
599.71	65.54
599.87	0.00
600.03	44.47
600.18	42.13
600.34	49.15
600.50	65.54
600.65	42.13
600.81	28.09
600.97	0.00
601.12	56.17
601.28	39.79
601.44	72.56
601.59	0.00
601.75	18.72
601.91	9.36
602.06	91.28
602.22	37.45
602.37	56.17
602.53	175.54
602.69	170.86
602.84	224.69
603.00	152.13
603.16	91.28
603.31	100.64
603.47	77.24
603.62	53.83
603.78	28.09
603.94	16.38
604.09	28.09
604.25	128.73
604.40	35.11
604.56	126.39
604.71	65.54
604.87	32.77
605.03	9.36
605.18	0.00
605.34	100.64
605.49	53.83
605.65	102.98
605.80	81.92
605.96	16.38
606.12	60.85
606.27	32.77
606.43	49.15
606.58	4.68
606.74	107.66
606.89	189.58
607.05	395.55
607.20	575.77
607.36	428.32
607.51	386.19
607.67	189.58
607.82	168.52
607.98	81.92
608.13	74.90
608.29	32.77
608.44	63.19
608.60	88.94
608.75	142.77
608.91	117.03
609.06	496.19
609.22	828.55
609.37	1076.65
609.53	844.93
609.68	601.52
609.84	418.96
609.99	292.57
610.15	189.58
610.30	93.62
610.46	58.51
610.61	39.79
610.76	35.11
610.92	100.64
611.07	0.00
611.23	28.09
611.38	72.56
611.54	86.60
611.69	16.38
611.84	25.75
612.00	9.36
612.15	0.00
612.31	0.00
612.46	105.32
612.62	53.83
612.77	79.58
612.92	56.17
613.08	46.81
613.23	88.94
613.39	0.00
613.54	74.90
613.69	351.08
613.85	978.34
614.00	1420.71
614.15	1575.18
614.31	1078.99
614.46	706.84
614.62	482.15
614.77	315.97
614.92	107.66
615.08	28.09
615.23	70.22
615.38	95.96
615.54	72.56
615.69	81.92
615.84	173.20
616.00	404.91
616.15	440.02
616.30	351.08
616.46	252.78
616.61	166.18
616.76	145.11
616.92	84.26
617.07	74.90
617.22	16.38
617.37	0.00
617.53	25.75
617.68	79.58
617.83	9.36
617.99	56.17
618.14	58.51
618.29	67.88
618.45	67.88
618.60	0.00
618.75	58.51
618.90	23.41
619.06	86.60
619.21	30.43
619.36	28.09
619.51	21.06
619.67	93.62
619.82	63.19
619.97	14.04
620.12	35.11
620.28	65.54
620.43	63.19
620.58	35.11
620.73	35.11
620.89	81.92
621.04	84.26
621.19	95.96
621.34	217.67
621.49	262.14
621.65	313.63
621.80	212.99
621.95	180.22
622.10	88.94
622.25	58.51
622.41	35.11
622.56	0.00
622.71	77.24
622.86	79.58
623.01	70.22
623.16	0.00
623.32	65.54
623.47	135.75
623.62	37.45
623.77	65.54
623.92	95.96
624.07	16.38
624.23	63.19
624.38	60.85
624.53	28.09
624.68	58.51
624.83	88.94
624.98	32.77
625.13	56.17
625.29	21.06
625.44	58.51
625.59	100.64
625.74	4.68
625.89	63.19
626.04	140.43
626.19	535.98
626.34	716.20
626.49	891.74
626.65	650.67
626.80	456.40
626.95	245.76
627.10	203.63
627.25	131.07
627.40	60.85
627.55	70.22
627.70	21.06
627.85	25.75
628.00	0.00
628.15	56.17
628.30	42.13
628.45	93.62
628.60	60.85
628.76	23.41
628.91	7.02
629.06	102.98
629.21	25.75
629.36	46.81
629.51	9.36
629.66	100.64
629.81	98.30
629.96	119.37
630.11	208.31
630.26	189.58
630.41	241.08
630.56	121.71
630.71	72.56
630.86	74.90
631.01	39.79
631.16	117.03
631.31	25.75
631.46	16.38
631.61	0.00
631.76	0.00
631.91	42.13
632.06	0.00
632.21	14.04
632.36	100.64
632.51	81.92
632.66	32.77
632.81	49.15
632.96	245.76
633.10	552.37
633.25	631.94
633.40	416.62
633.55	327.68
633.70	264.48
633.85	196.60
634.00	25.75
634.15	81.92
634.30	81.92
634.45	25.75
634.60	0.00
634.75	60.85
634.90	7.02
635.05	9.36
635.19	58.51
635.34	49.15
635.49	44.47
635.64	67.88
635.79	88.94
635.94	23.41
636.09	65.54
636.24	11.70
636.39	4.68
636.53	23.41
636.68	56.17
636.83	7.02
636.98	28.09
637.13	7.02
637.28	0.00
637.43	77.24
637.57	98.30
637.72	285.55
637.87	643.65
638.02	1020.47
638.17	1018.13
638.32	828.55
638.46	599.18
638.61	388.53
638.76	238.73
638.91	149.79
639.06	53.83
639.20	81.92
639.35	77.24
639.50	114.69
639.65	379.17
639.80	947.92
639.94	1453.47
640.09	1540.07
640.24	1184.31
640.39	774.72
640.54	554.71
640.68	339.38
640.83	191.92
640.98	175.54
641.13	35.11
641.27	65.54
641.42	32.77
641.57	30.43
641.72	21.06
641.86	21.06
642.01	0.00
642.16	7.02
642.31	0.00
642.45	79.58
642.60	79.58
642.75	67.88
642.90	49.15
643.04	37.45
643.19	25.75
643.34	67.88
643.48	37.45
643.63	0.00
643.78	21.06
643.93	18.72
644.07	0.00
644.22	88.94
644.37	93.62
644.51	102.98
644.66	25.75
644.81	37.45
644.95	14.04
645.10	77.24
645.25	124.05
645.39	70.22
645.54	0.00
645.69	53.83
645.83	18.72
645.98	21.06
646.13	21.06
646.27	18.72
646.42	16.38
646.57	0.00
646.71	25.75
646.86	67.88
647.00	51.49
647.15	0.00
647.30	30.43
647.44	7.02
647.59	39.79
647.74	53.83
647.88	42.13
648.03	18.72
648.17	81.92
648.32	0.00
648.47	0.00
648.61	30.43
648.76	0.00
648.90	86.60
649.05	23.41
649.20	21.06
649.34	32.77
649.49	77.24
649.63	53.83
649.78	53.83
649.92	53.83
650.07	224.69
650.21	456.40
650.36	709.18
650.51	798.12
650.65	723.23
650.80	526.62
650.94	285.55
651.09	231.71
651.23	205.97
651.38	95.96
651.52	72.56
651.67	67.88
651.81	77.24
651.96	9.36
652.10	32.77
652.25	18.72
652.39	0.00
652.54	16.38
652.68	84.26
652.83	114.69
652.97	276.18
653.12	386.19
653.26	327.68
653.41	205.97
653.55	154.48
653.70	126.39
653.84	77.24
653.99	0.00
654.13	28.09
654.27	32.77
654.42	42.13
654.56	23.41
654.71	0.00
654.85	35.11
655.00	58.51
655.14	0.00
655.29	0.00
655.43	51.49
655.57	56.17
655.72	70.22
655.86	23.41
656.01	51.49
656.15	56.17
656.30	56.17
656.44	0.00
656.58	102.98
656.73	35.11
656.87	81.92
657.01	77.24
657.16	28.09
657.30	14.04
657.45	79.58
657.59	37.45
657.73	58.51
657.88	9.36
658.02	65.54
658.16	49.15
658.31	2.34
658.45	51.49
658.60	0.00
658.74	30.43
658.88	2.34
659.03	79.58
659.17	32.77
659.31	95.96
659.46	243.42
659.60	421.30
659.74	442.36
659.89	379.17
660.03	315.97
660.17	266.82
660.32	231.71
660.46	28.09
660.60	46.81
660.74	60.85
660.89	70.22
661.03	86.60
661.17	72.56
661.32	0.00
661.46	0.00
661.60	0.00
661.74	60.85
661.89	0.00
662.03	44.47
662.17	0.00
662.31	117.03
662.46	86.60
662.60	23.41
662.74	72.56
662.88	93.62
663.03	112.35
663.17	30.43
663.31	53.83
663.45	39.79
663.60	72.56
663.74	46.81
663.88	98.30
664.02	39.79
664.17	4.68
664.31	60.85
664.45	35.11
664.59	37.45
664.73	65.54
664.88	44.47
665.02	4.68
665.16	58.51
665.30	72.56
665.44	72.56
665.59	0.00
665.73	37.45
665.87	42.13
666.01	30.43
666.15	37.45
666.29	25.75
666.44	21.06
666.58	63.19
666.72	0.00
666.86	0.00
667.00	35.11
667.14	30.43
667.28	175.54
667.43	287.89
667.57	645.99
667.71	716.20
667.85	667.05
667.99	507.90
668.13	243.42
668.27	156.82
668.41	126.39
668.56	65.54
668.70	93.62
668.84	114.69
668.98	65.54
669.12	28.09
669.26	74.90
669.40	42.13
669.54	0.00
669.68	58.51
669.82	42.13
669.96	39.79
670.10	0.00
670.25	70.22
670.39	72.56
670.53	58.51
670.67	65.54
670.81	0.00
670.95	35.11
671.09	56.17
671.23	168.52
671.37	266.82
671.51	463.43
671.65	496.19
671.79	315.97
671.93	250.44
672.07	217.67
672.21	166.18
672.35	140.43
672.49	49.15
672.63	28.09
672.77	63.19
672.91	30.43
673.05	0.00
673.19	16.38
673.33	37.45
673.47	9.36
673.61	49.15
673.75	28.09
673.89	72.56
674.03	2.34
674.17	81.92
674.31	2.34
674.45	86.60
674.59	0.00
674.73	51.49
674.87	0.00
675.01	46.81
675.15	53.83
675.29	56.17
675.43	0.00
675.56	70.22
675.70	0.00
675.84	49.15
675.98	23.41
676.12	30.43
676.26	58.51
676.40	70.22
676.54	74.90
676.68	65.54
676.82	25.75
676.96	23.41
677.10	11.70
677.23	37.45
677.37	74.90
677.51	51.49
677.65	53.83
677.79	2.34
677.93	21.06
678.07	67.88
678.21	30.43
678.34	0.00
678.48	32.77
678.62	0.00
678.76	100.64
678.90	95.96
679.04	2.34
679.18	58.51
679.31	56.17
679.45	0.00
679.59	0.00
679.73	65.54
679.87	35.11
680.00	56.17
680.14	0.00
680.28	37.45
680.42	84.26
680.56	11.70
680.70	49.15
680.83	84.26
680.97	21.06
681.11	60.85
681.25	18.72
681.39	42.13
681.52	53.83
681.66	28.09
681.80	60.85
681.94	44.47
682.07	4.68
682.21	0.00
682.35	32.77
682.49	28.09
682.62	91.28
682.76	37.45
682.90	107.66
683.04	63.19
683.17	74.90
683.31	65.54
683.45	49.15
683.59	39.79
683.72	60.85
683.86	14.04
684.00	65.54
684.13	65.54
684.27	18.72
684.41	44.47
684.55	60.85
684.68	67.88
684.82	16.38
684.96	7.02
685.09	60.85
685.23	0.00
685.37	53.83
685.50	35.11
685.64	21.06
685.78	65.54
685.91	0.00
686.05	112.35
686.19	7.02
686.32	11.70
686.46	77.24
686.60	51.49
686.73	0.00
686.87	14.04
687.01	0.00
687.14	95.96
687.28	58.51
687.42	56.17
687.55	95.96
687.69	86.60
687.82	79.58
687.96	58.51
688.10	121.71
688.23	0.00
688.37	0.00
688.50	42.13
688.64	0.00
688.78	30.43
688.91	65.54
689.05	7.02
689.18	65.54
689.32	63.19
689.46	28.09
689.59	16.38
689.73	39.79
689.86	0.00
690.00	65.54
690.13	67.88
690.27	84.26
690.41	7.02
690.54	91.28
690.68	56.17
690.81	11.70
690.95	49.15
691.08	4.68
691.22	72.56
691.35	63.19
691.49	56.17
691.62	0.00
691.76	44.47
691.89	7.02
692.03	72.56
692.16	35.11
692.30	110.01
692.43	88.94
692.57	142.77
692.70	227.03
692.84	301.93
692.97	379.17
693.11	220.01
693.24	145.11
693.38	119.37
693.51	128.73
693.65	102.98
693.78	35.11
693.92	79.58
694.05	49.15
694.19	32.77
694.32	28.09
694.45	0.00
694.59	21.06
694.72	2.34
694.86	4.68
694.99	0.00
695.13	107.66
695.26	4.68
695.39	0.00
695.53	2.34
695.66	65.54
695.80	126.39
695.93	53.83
696.07	77.24
696.20	74.90
696.33	88.94
696.47	77.24
696.60	25.75
696.73	51.49
696.87	32.77
697.00	91.28
697.14	60.85
697.27	11.70
697.40	49.15
697.54	28.09
697.67	42.13
697.80	95.96
697.94	46.81
698.07	65.54
698.21	11.70
698.34	35.11
698.47	53.83
698.61	11.70
698.74	30.43
698.87	18.72
699.01	25.75
699.14	44.47
699.27	32.77
699.40	25.75
699.54	35.11
699.67	51.49
699.80	0.00
699.94	56.17
700.07	65.54
700.20	0.00
700.34	23.41
700.47	53.83
700.60	0.00
700.73	14.04
700.87	30.43
701.00	74.90
701.13	112.35
701.26	128.73
701.40	35.11
701.53	51.49
701.66	67.88
701.79	0.00
701.93	46.81
702.06	0.00
702.19	23.41
702.32	0.00
702.46	42.13
702.59	147.45
702.72	124.05
702.85	250.44
702.99	404.91
703.12	627.26
703.25	636.63
703.38	580.45
703.51	421.30
703.65	383.85
703.78	346.40
703.91	187.24
704.04	161.50
704.17	91.28
704.31	51.49
704.44	65.54
704.57	2.34
704.70	72.56
704.83	32.77
704.96	4.68
705.10	0.00
705.23	32.77
>>>>>End Processed Spectral Data<<<<<
