SpectraSuite Data File
++++++++++++++++++++++++++++++++++++
Date: Fri Oct 04 12:13:34 GMT-05:00 2013
User: price-jones
Dark Spectrum Present: No
Reference Spectrum Present: No
Number of Sampled Component Spectra: 1
Spectrometers: USB2+H05261
Integration Time (usec): 10000 (USB2+H05261)
Spectra Averaged: 1 (USB2+H05261)
Boxcar Smoothing: 0 (USB2+H05261)
Correct for Electrical Dark: No (USB2+H05261)
Strobe/Lamp Enabled: No (USB2+H05261)
Correct for Detector Non-linearity: No (USB2+H05261)
Correct for Stray Light: No (USB2+H05261)
Number of Pixels in Processed Spectrum: 2048
>>>>>Begin Processed Spectral Data<<<<<
365.73	18.72
365.92	18.72
366.12	18.72
366.32	0.00
366.52	0.00
366.72	0.00
366.91	0.00
367.11	0.00
367.31	0.00
367.51	0.00
367.70	0.00
367.90	0.00
368.10	0.00
368.30	0.00
368.49	0.00
368.69	0.00
368.89	0.00
369.09	0.00
369.28	0.00
369.48	0.00
369.68	0.00
369.87	0.00
370.07	0.00
370.27	0.00
370.47	0.00
370.66	0.00
370.86	0.00
371.06	0.00
371.25	0.00
371.45	0.00
371.65	0.00
371.84	0.00
372.04	0.00
372.24	23.41
372.44	53.83
372.63	23.41
372.83	32.77
373.03	0.00
373.22	21.06
373.42	0.00
373.62	0.00
373.81	0.00
374.01	25.75
374.21	23.41
374.40	42.13
374.60	9.36
374.79	18.72
374.99	23.41
375.19	32.77
375.38	46.81
375.58	18.72
375.78	25.75
375.97	60.85
376.17	21.06
376.37	0.00
376.56	11.70
376.76	0.00
376.95	72.56
377.15	16.38
377.35	93.62
377.54	86.60
377.74	14.04
377.93	25.75
378.13	39.79
378.33	0.00
378.52	0.00
378.72	0.00
378.91	77.24
379.11	72.56
379.31	25.75
379.50	0.00
379.70	39.79
379.89	72.56
380.09	32.77
380.28	0.00
380.48	28.09
380.68	65.54
380.87	18.72
381.07	28.09
381.26	16.38
381.46	9.36
381.65	58.51
381.85	28.09
382.04	35.11
382.24	21.06
382.43	32.77
382.63	77.24
382.83	60.85
383.02	30.43
383.22	9.36
383.41	21.06
383.61	23.41
383.80	25.75
384.00	16.38
384.19	39.79
384.39	7.02
384.58	11.70
384.78	0.00
384.97	11.70
385.17	53.83
385.36	67.88
385.56	42.13
385.75	0.00
385.95	51.49
386.14	63.19
386.34	0.00
386.53	0.00
386.72	0.00
386.92	37.45
387.11	42.13
387.31	0.00
387.50	37.45
387.70	23.41
387.89	65.54
388.09	0.00
388.28	39.79
388.48	53.83
388.67	16.38
388.86	0.00
389.06	0.00
389.25	0.00
389.45	23.41
389.64	105.32
389.84	0.00
390.03	67.88
390.22	44.47
390.42	0.00
390.61	0.00
390.81	39.79
391.00	35.11
391.19	93.62
391.39	18.72
391.58	21.06
391.78	0.00
391.97	84.26
392.16	14.04
392.36	105.32
392.55	49.15
392.75	23.41
392.94	93.62
393.13	0.00
393.33	0.00
393.52	0.00
393.71	0.00
393.91	56.17
394.10	53.83
394.29	32.77
394.49	7.02
394.68	46.81
394.88	0.00
395.07	0.00
395.26	0.00
395.46	16.38
395.65	114.69
395.84	79.58
396.04	56.17
396.23	42.13
396.42	0.00
396.62	2.34
396.81	0.00
397.00	14.04
397.19	72.56
397.39	35.11
397.58	49.15
397.77	49.15
397.97	58.51
398.16	7.02
398.35	70.22
398.55	42.13
398.74	67.88
398.93	32.77
399.12	0.00
399.32	63.19
399.51	11.70
399.70	28.09
399.90	0.00
400.09	4.68
400.28	11.70
400.47	37.45
400.67	39.79
400.86	88.94
401.05	32.77
401.24	77.24
401.44	42.13
401.63	58.51
401.82	0.00
402.01	98.30
402.21	70.22
402.40	86.60
402.59	112.35
402.78	100.64
402.97	44.47
403.17	49.15
403.36	39.79
403.55	49.15
403.74	86.60
403.93	74.90
404.13	35.11
404.32	16.38
404.51	39.79
404.70	63.19
404.89	63.19
405.09	0.00
405.28	2.34
405.47	58.51
405.66	21.06
405.85	42.13
406.05	51.49
406.24	84.26
406.43	63.19
406.62	32.77
406.81	46.81
407.00	16.38
407.20	77.24
407.39	56.17
407.58	18.72
407.77	51.49
407.96	25.75
408.15	124.05
408.34	121.71
408.54	51.49
408.73	23.41
408.92	44.47
409.11	65.54
409.30	32.77
409.49	98.30
409.68	0.00
409.87	25.75
410.07	67.88
410.26	16.38
410.45	60.85
410.64	44.47
410.83	56.17
411.02	60.85
411.21	25.75
411.40	63.19
411.59	14.04
411.78	0.00
411.98	0.00
412.17	9.36
412.36	46.81
412.55	30.43
412.74	91.28
412.93	79.58
413.12	32.77
413.31	60.85
413.50	25.75
413.69	18.72
413.88	21.06
414.07	77.24
414.26	0.00
414.45	9.36
414.64	16.38
414.83	14.04
415.02	91.28
415.22	86.60
415.41	74.90
415.60	102.98
415.79	28.09
415.98	0.00
416.17	44.47
416.36	9.36
416.55	56.17
416.74	79.58
416.93	86.60
417.12	51.49
417.31	53.83
417.50	11.70
417.69	72.56
417.88	14.04
418.07	91.28
418.26	63.19
418.45	140.43
418.64	74.90
418.83	51.49
419.02	156.82
419.21	51.49
419.39	30.43
419.58	58.51
419.77	46.81
419.96	56.17
420.15	21.06
420.34	107.66
420.53	11.70
420.72	70.22
420.91	46.81
421.10	70.22
421.29	4.68
421.48	77.24
421.67	35.11
421.86	81.92
422.05	91.28
422.24	81.92
422.43	51.49
422.61	0.00
422.80	7.02
422.99	0.00
423.18	0.00
423.37	16.38
423.56	58.51
423.75	51.49
423.94	0.00
424.13	44.47
424.32	79.58
424.50	67.88
424.69	74.90
424.88	32.77
425.07	23.41
425.26	58.51
425.45	4.68
425.64	35.11
425.83	72.56
426.01	86.60
426.20	9.36
426.39	44.47
426.58	77.24
426.77	23.41
426.96	86.60
427.15	102.98
427.33	44.47
427.52	49.15
427.71	28.09
427.90	93.62
428.09	18.72
428.28	74.90
428.46	175.54
428.65	14.04
428.84	49.15
429.03	2.34
429.22	2.34
429.40	77.24
429.59	46.81
429.78	72.56
429.97	4.68
430.16	88.94
430.34	37.45
430.53	79.58
430.72	9.36
430.91	63.19
431.10	51.49
431.28	32.77
431.47	18.72
431.66	131.07
431.85	100.64
432.03	67.88
432.22	67.88
432.41	25.75
432.60	74.90
432.79	0.00
432.97	110.01
433.16	117.03
433.35	63.19
433.54	42.13
433.72	18.72
433.91	72.56
434.10	60.85
434.28	0.00
434.47	72.56
434.66	9.36
434.85	102.98
435.03	46.81
435.22	58.51
435.41	77.24
435.59	0.00
435.78	18.72
435.97	100.64
436.16	114.69
436.34	72.56
436.53	79.58
436.72	49.15
436.90	18.72
437.09	135.75
437.28	58.51
437.46	49.15
437.65	67.88
437.84	49.15
438.02	0.00
438.21	32.77
438.40	51.49
438.58	39.79
438.77	18.72
438.96	16.38
439.14	84.26
439.33	28.09
439.52	93.62
439.70	67.88
439.89	30.43
440.08	49.15
440.26	32.77
440.45	18.72
440.63	39.79
440.82	112.35
441.01	142.77
441.19	91.28
441.38	154.48
441.57	56.17
441.75	37.45
441.94	95.96
442.12	14.04
442.31	138.09
442.50	14.04
442.68	86.60
442.87	91.28
443.05	21.06
443.24	0.00
443.43	77.24
443.61	72.56
443.80	30.43
443.98	32.77
444.17	42.13
444.35	46.81
444.54	28.09
444.73	58.51
444.91	37.45
445.10	100.64
445.28	0.00
445.47	84.26
445.65	0.00
445.84	53.83
446.02	79.58
446.21	93.62
446.39	110.01
446.58	93.62
446.77	39.79
446.95	53.83
447.14	56.17
447.32	72.56
447.51	60.85
447.69	58.51
447.88	49.15
448.06	74.90
448.25	25.75
448.43	56.17
448.62	117.03
448.80	72.56
448.99	23.41
449.17	23.41
449.36	32.77
449.54	60.85
449.73	51.49
449.91	121.71
450.10	98.30
450.28	88.94
450.46	98.30
450.65	88.94
450.83	74.90
451.02	77.24
451.20	53.83
451.39	39.79
451.57	58.51
451.76	67.88
451.94	21.06
452.13	28.09
452.31	25.75
452.49	60.85
452.68	84.26
452.86	25.75
453.05	117.03
453.23	93.62
453.42	93.62
453.60	46.81
453.78	58.51
453.97	32.77
454.15	0.00
454.34	58.51
454.52	72.56
454.70	56.17
454.89	42.13
455.07	0.00
455.26	74.90
455.44	39.79
455.62	23.41
455.81	21.06
455.99	105.32
456.17	4.68
456.36	44.47
456.54	102.98
456.73	0.00
456.91	117.03
457.09	77.24
457.28	114.69
457.46	44.47
457.64	67.88
457.83	95.96
458.01	30.43
458.19	46.81
458.38	88.94
458.56	79.58
458.74	60.85
458.93	51.49
459.11	60.85
459.29	67.88
459.48	149.79
459.66	51.49
459.84	18.72
460.03	25.75
460.21	53.83
460.39	0.00
460.57	44.47
460.76	100.64
460.94	56.17
461.12	0.00
461.31	100.64
461.49	124.05
461.67	11.70
461.85	25.75
462.04	86.60
462.22	53.83
462.40	88.94
462.59	56.17
462.77	74.90
462.95	86.60
463.13	49.15
463.32	0.00
463.50	4.68
463.68	42.13
463.86	18.72
464.05	51.49
464.23	107.66
464.41	84.26
464.59	77.24
464.78	67.88
464.96	63.19
465.14	46.81
465.32	98.30
465.50	67.88
465.69	21.06
465.87	46.81
466.05	77.24
466.23	58.51
466.41	65.54
466.60	65.54
466.78	51.49
466.96	53.83
467.14	49.15
467.32	51.49
467.51	110.01
467.69	51.49
467.87	60.85
468.05	93.62
468.23	28.09
468.41	98.30
468.60	72.56
468.78	58.51
468.96	65.54
469.14	119.37
469.32	42.13
469.50	72.56
469.69	11.70
469.87	60.85
470.05	84.26
470.23	131.07
470.41	124.05
470.59	28.09
470.77	7.02
470.95	67.88
471.14	86.60
471.32	65.54
471.50	112.35
471.68	35.11
471.86	30.43
472.04	84.26
472.22	74.90
472.40	39.79
472.58	70.22
472.77	37.45
472.95	30.43
473.13	23.41
473.31	42.13
473.49	65.54
473.67	65.54
473.85	21.06
474.03	53.83
474.21	58.51
474.39	30.43
474.57	39.79
474.75	79.58
474.93	81.92
475.12	42.13
475.30	39.79
475.48	70.22
475.66	93.62
475.84	65.54
476.02	81.92
476.20	44.47
476.38	58.51
476.56	81.92
476.74	39.79
476.92	72.56
477.10	7.02
477.28	42.13
477.46	53.83
477.64	110.01
477.82	58.51
478.00	98.30
478.18	0.00
478.36	91.28
478.54	32.77
478.72	0.00
478.90	35.11
479.08	65.54
479.26	53.83
479.44	42.13
479.62	65.54
479.80	63.19
479.98	70.22
480.16	74.90
480.34	67.88
480.52	140.43
480.70	128.73
480.88	49.15
481.06	58.51
481.24	25.75
481.41	35.11
481.59	86.60
481.77	107.66
481.95	114.69
482.13	166.18
482.31	86.60
482.49	7.02
482.67	124.05
482.85	32.77
483.03	93.62
483.21	63.19
483.39	49.15
483.57	117.03
483.74	49.15
483.92	131.07
484.10	70.22
484.28	105.32
484.46	63.19
484.64	86.60
484.82	105.32
485.00	70.22
485.18	44.47
485.35	37.45
485.53	42.13
485.71	81.92
485.89	63.19
486.07	84.26
486.25	100.64
486.43	35.11
486.61	23.41
486.78	72.56
486.96	21.06
487.14	44.47
487.32	63.19
487.50	72.56
487.68	156.82
487.85	70.22
488.03	74.90
488.21	67.88
488.39	149.79
488.57	133.41
488.75	35.11
488.92	168.52
489.10	44.47
489.28	28.09
489.46	51.49
489.64	93.62
489.81	58.51
489.99	32.77
490.17	49.15
490.35	117.03
490.53	98.30
490.70	44.47
490.88	51.49
491.06	70.22
491.24	65.54
491.41	39.79
491.59	14.04
491.77	53.83
491.95	67.88
492.13	60.85
492.30	21.06
492.48	86.60
492.66	70.22
492.84	107.66
493.01	140.43
493.19	91.28
493.37	51.49
493.54	93.62
493.72	126.39
493.90	102.98
494.08	112.35
494.25	81.92
494.43	131.07
494.61	67.88
494.79	79.58
494.96	133.41
495.14	93.62
495.32	126.39
495.49	63.19
495.67	28.09
495.85	156.82
496.02	107.66
496.20	112.35
496.38	131.07
496.55	37.45
496.73	121.71
496.91	77.24
497.09	126.39
497.26	91.28
497.44	84.26
497.62	74.90
497.79	9.36
497.97	81.92
498.14	107.66
498.32	53.83
498.50	60.85
498.67	77.24
498.85	67.88
499.03	21.06
499.20	32.77
499.38	98.30
499.56	107.66
499.73	79.58
499.91	98.30
500.08	91.28
500.26	79.58
500.44	67.88
500.61	79.58
500.79	147.45
500.97	131.07
501.14	53.83
501.32	51.49
501.49	60.85
501.67	77.24
501.84	124.05
502.02	100.64
502.20	42.13
502.37	56.17
502.55	105.32
502.72	77.24
502.90	128.73
503.07	79.58
503.25	81.92
503.43	28.09
503.60	23.41
503.78	37.45
503.95	77.24
504.13	28.09
504.30	145.11
504.48	65.54
504.65	142.77
504.83	58.51
505.01	77.24
505.18	86.60
505.36	93.62
505.53	147.45
505.71	91.28
505.88	107.66
506.06	128.73
506.23	39.79
506.41	58.51
506.58	124.05
506.76	105.32
506.93	28.09
507.11	37.45
507.28	140.43
507.46	112.35
507.63	98.30
507.81	46.81
507.98	79.58
508.16	79.58
508.33	46.81
508.50	117.03
508.68	126.39
508.85	88.94
509.03	39.79
509.20	124.05
509.38	135.75
509.55	140.43
509.73	110.01
509.90	182.56
510.08	147.45
510.25	86.60
510.42	124.05
510.60	72.56
510.77	67.88
510.95	149.79
511.12	67.88
511.30	110.01
511.47	100.64
511.64	138.09
511.82	91.28
511.99	145.11
512.17	46.81
512.34	126.39
512.51	0.00
512.69	86.60
512.86	74.90
513.04	168.52
513.21	56.17
513.38	30.43
513.56	112.35
513.73	105.32
513.90	37.45
514.08	35.11
514.25	39.79
514.43	77.24
514.60	112.35
514.77	110.01
514.95	121.71
515.12	81.92
515.29	93.62
515.47	86.60
515.64	72.56
515.81	77.24
515.99	72.56
516.16	51.49
516.33	182.56
516.51	119.37
516.68	28.09
516.85	86.60
517.03	203.63
517.20	191.92
517.37	74.90
517.54	93.62
517.72	63.19
517.89	79.58
518.06	86.60
518.24	91.28
518.41	60.85
518.58	126.39
518.75	117.03
518.93	93.62
519.10	102.98
519.27	67.88
519.45	147.45
519.62	98.30
519.79	25.75
519.96	159.16
520.14	46.81
520.31	65.54
520.48	208.31
520.65	39.79
520.83	74.90
521.00	32.77
521.17	77.24
521.34	72.56
521.52	79.58
521.69	91.28
521.86	28.09
522.03	110.01
522.20	114.69
522.38	98.30
522.55	91.28
522.72	142.77
522.89	105.32
523.07	145.11
523.24	102.98
523.41	131.07
523.58	79.58
523.75	128.73
523.92	79.58
524.10	67.88
524.27	133.41
524.44	95.96
524.61	138.09
524.78	93.62
524.96	121.71
525.13	126.39
525.30	67.88
525.47	117.03
525.64	70.22
525.81	86.60
525.98	91.28
526.16	100.64
526.33	14.04
526.50	56.17
526.67	88.94
526.84	156.82
527.01	93.62
527.18	91.28
527.36	154.48
527.53	81.92
527.70	107.66
527.87	100.64
528.04	112.35
528.21	77.24
528.38	79.58
528.55	88.94
528.72	138.09
528.89	142.77
529.07	110.01
529.24	86.60
529.41	95.96
529.58	93.62
529.75	98.30
529.92	67.88
530.09	35.11
530.26	121.71
530.43	102.98
530.60	110.01
530.77	88.94
530.94	72.56
531.11	140.43
531.28	107.66
531.46	121.71
531.63	70.22
531.80	110.01
531.97	117.03
532.14	65.54
532.31	119.37
532.48	58.51
532.65	124.05
532.82	88.94
532.99	0.00
533.16	203.63
533.33	91.28
533.50	91.28
533.67	128.73
533.84	46.81
534.01	107.66
534.18	79.58
534.35	119.37
534.52	126.39
534.69	30.43
534.86	88.94
535.03	70.22
535.20	77.24
535.37	159.16
535.54	128.73
535.71	107.66
535.88	166.18
536.05	98.30
536.22	135.75
536.38	131.07
536.55	112.35
536.72	114.69
536.89	105.32
537.06	74.90
537.23	107.66
537.40	88.94
537.57	51.49
537.74	70.22
537.91	161.50
538.08	25.75
538.25	114.69
538.42	51.49
538.59	44.47
538.75	88.94
538.92	88.94
539.09	145.11
539.26	0.00
539.43	110.01
539.60	84.26
539.77	100.64
539.94	173.20
540.11	126.39
540.28	196.60
540.44	147.45
540.61	84.26
540.78	46.81
540.95	77.24
541.12	124.05
541.29	107.66
541.46	42.13
541.62	100.64
541.79	84.26
541.96	102.98
542.13	102.98
542.30	44.47
542.47	51.49
542.63	126.39
542.80	77.24
542.97	86.60
543.14	67.88
543.31	65.54
543.48	147.45
543.64	166.18
543.81	135.75
543.98	63.19
544.15	93.62
544.32	180.22
544.48	102.98
544.65	117.03
544.82	114.69
544.99	107.66
545.16	79.58
545.32	58.51
545.49	124.05
545.66	154.48
545.83	149.79
546.00	70.22
546.16	35.11
546.33	135.75
546.50	65.54
546.67	88.94
546.83	95.96
547.00	140.43
547.17	44.47
547.34	95.96
547.50	140.43
547.67	191.92
547.84	32.77
548.00	149.79
548.17	79.58
548.34	95.96
548.51	72.56
548.67	95.96
548.84	93.62
549.01	159.16
549.18	77.24
549.34	86.60
549.51	107.66
549.68	93.62
549.84	107.66
550.01	133.41
550.18	105.32
550.34	84.26
550.51	21.06
550.68	79.58
550.84	39.79
551.01	102.98
551.18	42.13
551.34	39.79
551.51	159.16
551.68	63.19
551.84	102.98
552.01	110.01
552.18	28.09
552.34	126.39
552.51	72.56
552.68	107.66
552.84	56.17
553.01	117.03
553.18	102.98
553.34	180.22
553.51	131.07
553.67	84.26
553.84	142.77
554.01	14.04
554.17	44.47
554.34	88.94
554.51	58.51
554.67	145.11
554.84	133.41
555.00	152.13
555.17	98.30
555.33	53.83
555.50	107.66
555.67	121.71
555.83	126.39
556.00	173.20
556.16	124.05
556.33	131.07
556.50	63.19
556.66	107.66
556.83	65.54
556.99	98.30
557.16	110.01
557.32	88.94
557.49	67.88
557.65	91.28
557.82	86.60
557.98	53.83
558.15	184.90
558.32	119.37
558.48	49.15
558.65	32.77
558.81	98.30
558.98	91.28
559.14	58.51
559.31	65.54
559.47	74.90
559.64	72.56
559.80	74.90
559.97	81.92
560.13	98.30
560.30	49.15
560.46	95.96
560.63	44.47
560.79	124.05
560.96	93.62
561.12	53.83
561.29	63.19
561.45	65.54
561.61	84.26
561.78	58.51
561.94	95.96
562.11	21.06
562.27	154.48
562.44	107.66
562.60	49.15
562.77	86.60
562.93	105.32
563.10	56.17
563.26	81.92
563.42	28.09
563.59	77.24
563.75	114.69
563.92	42.13
564.08	53.83
564.24	56.17
564.41	56.17
564.57	30.43
564.74	100.64
564.90	79.58
565.07	107.66
565.23	46.81
565.39	42.13
565.56	88.94
565.72	166.18
565.88	102.98
566.05	98.30
566.21	121.71
566.38	140.43
566.54	65.54
566.70	117.03
566.87	84.26
567.03	81.92
567.19	107.66
567.36	77.24
567.52	98.30
567.68	42.13
567.85	65.54
568.01	100.64
568.17	46.81
568.34	126.39
568.50	25.75
568.66	42.13
568.83	79.58
568.99	124.05
569.15	37.45
569.32	100.64
569.48	81.92
569.64	32.77
569.81	110.01
569.97	145.11
570.13	98.30
570.30	110.01
570.46	77.24
570.62	142.77
570.78	88.94
570.95	91.28
571.11	39.79
571.27	112.35
571.43	56.17
571.60	98.30
571.76	95.96
571.92	51.49
572.09	70.22
572.25	140.43
572.41	102.98
572.57	119.37
572.74	105.32
572.90	51.49
573.06	42.13
573.22	81.92
573.38	39.79
573.55	23.41
573.71	39.79
573.87	39.79
574.03	135.75
574.20	51.49
574.36	58.51
574.52	72.56
574.68	44.47
574.84	159.16
575.01	46.81
575.17	79.58
575.33	154.48
575.49	35.11
575.65	51.49
575.82	147.45
575.98	138.09
576.14	88.94
576.30	117.03
576.46	102.98
576.62	173.20
576.79	32.77
576.95	88.94
577.11	77.24
577.27	60.85
577.43	112.35
577.59	135.75
577.75	65.54
577.92	107.66
578.08	25.75
578.24	46.81
578.40	44.47
578.56	98.30
578.72	53.83
578.88	86.60
579.04	56.17
579.21	21.06
579.37	112.35
579.53	51.49
579.69	124.05
579.85	74.90
580.01	98.30
580.17	93.62
580.33	7.02
580.49	107.66
580.65	77.24
580.82	81.92
580.98	105.32
581.14	114.69
581.30	128.73
581.46	100.64
581.62	63.19
581.78	114.69
581.94	86.60
582.10	124.05
582.26	63.19
582.42	81.92
582.58	145.11
582.74	84.26
582.90	35.11
583.06	102.98
583.22	67.88
583.38	72.56
583.54	74.90
583.70	86.60
583.86	53.83
584.02	74.90
584.18	46.81
584.34	28.09
584.50	70.22
584.66	95.96
584.82	88.94
584.98	131.07
585.14	93.62
585.30	138.09
585.46	77.24
585.62	84.26
585.78	110.01
585.94	58.51
586.10	60.85
586.26	46.81
586.42	163.84
586.58	65.54
586.74	79.58
586.90	39.79
587.06	79.58
587.22	91.28
587.38	60.85
587.54	86.60
587.70	135.75
587.86	53.83
588.02	114.69
588.18	56.17
588.34	42.13
588.49	77.24
588.65	53.83
588.81	37.45
588.97	39.79
589.13	51.49
589.29	124.05
589.45	77.24
589.61	117.03
589.77	110.01
589.93	56.17
590.08	23.41
590.24	121.71
590.40	46.81
590.56	51.49
590.72	84.26
590.88	72.56
591.04	72.56
591.20	0.00
591.35	135.75
591.51	0.00
591.67	110.01
591.83	117.03
591.99	65.54
592.15	95.96
592.31	79.58
592.46	46.81
592.62	32.77
592.78	9.36
592.94	49.15
593.10	49.15
593.26	14.04
593.41	117.03
593.57	98.30
593.73	60.85
593.89	9.36
594.05	30.43
594.20	67.88
594.36	30.43
594.52	11.70
594.68	49.15
594.84	145.11
594.99	77.24
595.15	39.79
595.31	44.47
595.47	37.45
595.62	35.11
595.78	42.13
595.94	121.71
596.10	63.19
596.25	135.75
596.41	133.41
596.57	37.45
596.73	147.45
596.88	35.11
597.04	100.64
597.20	98.30
597.36	110.01
597.51	102.98
597.67	14.04
597.83	30.43
597.99	39.79
598.14	124.05
598.30	4.68
598.46	63.19
598.61	30.43
598.77	117.03
598.93	67.88
599.09	145.11
599.24	0.00
599.40	51.49
599.56	95.96
599.71	112.35
599.87	65.54
600.03	51.49
600.18	114.69
600.34	35.11
600.50	35.11
600.65	102.98
600.81	28.09
600.97	100.64
601.12	79.58
601.28	35.11
601.44	42.13
601.59	79.58
601.75	147.45
601.91	98.30
602.06	65.54
602.22	77.24
602.37	86.60
602.53	51.49
602.69	46.81
602.84	7.02
603.00	74.90
603.16	84.26
603.31	77.24
603.47	98.30
603.62	117.03
603.78	110.01
603.94	86.60
604.09	42.13
604.25	11.70
604.40	140.43
604.56	140.43
604.71	112.35
604.87	86.60
605.03	79.58
605.18	32.77
605.34	60.85
605.49	74.90
605.65	42.13
605.80	140.43
605.96	53.83
606.12	46.81
606.27	100.64
606.43	56.17
606.58	72.56
606.74	32.77
606.89	70.22
607.05	98.30
607.20	72.56
607.36	65.54
607.51	124.05
607.67	107.66
607.82	142.77
607.98	37.45
608.13	107.66
608.29	49.15
608.44	88.94
608.60	70.22
608.75	56.17
608.91	84.26
609.06	95.96
609.22	70.22
609.37	70.22
609.53	124.05
609.68	84.26
609.84	93.62
609.99	88.94
610.15	88.94
610.30	102.98
610.46	102.98
610.61	86.60
610.76	105.32
610.92	105.32
611.07	74.90
611.23	88.94
611.38	65.54
611.54	65.54
611.69	81.92
611.84	65.54
612.00	21.06
612.15	58.51
612.31	88.94
612.46	72.56
612.62	67.88
612.77	128.73
612.92	95.96
613.08	70.22
613.23	117.03
613.39	126.39
613.54	32.77
613.69	77.24
613.85	88.94
614.00	63.19
614.15	72.56
614.31	49.15
614.46	60.85
614.62	11.70
614.77	86.60
614.92	124.05
615.08	46.81
615.23	81.92
615.38	21.06
615.54	39.79
615.69	56.17
615.84	70.22
616.00	42.13
616.15	32.77
616.30	16.38
616.46	39.79
616.61	70.22
616.76	46.81
616.92	32.77
617.07	138.09
617.22	114.69
617.37	63.19
617.53	39.79
617.68	77.24
617.83	189.58
617.99	114.69
618.14	119.37
618.29	81.92
618.45	114.69
618.60	102.98
618.75	67.88
618.90	0.00
619.06	91.28
619.21	93.62
619.36	23.41
619.51	102.98
619.67	74.90
619.82	91.28
619.97	100.64
620.12	44.47
620.28	51.49
620.43	42.13
620.58	67.88
620.73	56.17
620.89	0.00
621.04	91.28
621.19	84.26
621.34	58.51
621.49	112.35
621.65	51.49
621.80	88.94
621.95	9.36
622.10	44.47
622.25	30.43
622.41	65.54
622.56	58.51
622.71	77.24
622.86	117.03
623.01	44.47
623.16	84.26
623.32	35.11
623.47	124.05
623.62	107.66
623.77	110.01
623.92	35.11
624.07	53.83
624.23	0.00
624.38	105.32
624.53	91.28
624.68	37.45
624.83	105.32
624.98	37.45
625.13	58.51
625.29	107.66
625.44	21.06
625.59	21.06
625.74	84.26
625.89	100.64
626.04	53.83
626.19	88.94
626.34	0.00
626.49	65.54
626.65	77.24
626.80	105.32
626.95	126.39
627.10	32.77
627.25	124.05
627.40	79.58
627.55	30.43
627.70	35.11
627.85	117.03
628.00	21.06
628.15	60.85
628.30	142.77
628.45	18.72
628.60	98.30
628.76	23.41
628.91	95.96
629.06	84.26
629.21	53.83
629.36	0.00
629.51	28.09
629.66	7.02
629.81	11.70
629.96	18.72
630.11	112.35
630.26	35.11
630.41	56.17
630.56	91.28
630.71	56.17
630.86	88.94
631.01	65.54
631.16	110.01
631.31	70.22
631.46	0.00
631.61	72.56
631.76	110.01
631.91	23.41
632.06	65.54
632.21	18.72
632.36	0.00
632.51	65.54
632.66	74.90
632.81	126.39
632.96	9.36
633.10	102.98
633.25	95.96
633.40	53.83
633.55	124.05
633.70	32.77
633.85	81.92
634.00	91.28
634.15	0.00
634.30	77.24
634.45	42.13
634.60	46.81
634.75	7.02
634.90	51.49
635.05	2.34
635.19	0.00
635.34	25.75
635.49	72.56
635.64	74.90
635.79	44.47
635.94	86.60
636.09	72.56
636.24	72.56
636.39	60.85
636.53	95.96
636.68	74.90
636.83	86.60
636.98	88.94
637.13	39.79
637.28	51.49
637.43	74.90
637.57	58.51
637.72	0.00
637.87	88.94
638.02	39.79
638.17	79.58
638.32	30.43
638.46	79.58
638.61	46.81
638.76	63.19
638.91	58.51
639.06	102.98
639.20	79.58
639.35	46.81
639.50	56.17
639.65	93.62
639.80	107.66
639.94	39.79
640.09	37.45
640.24	81.92
640.39	79.58
640.54	14.04
640.68	0.00
640.83	30.43
640.98	0.00
641.13	98.30
641.27	2.34
641.42	0.00
641.57	16.38
641.72	23.41
641.86	30.43
642.01	37.45
642.16	44.47
642.31	124.05
642.45	30.43
642.60	102.98
642.75	77.24
642.90	58.51
643.04	74.90
643.19	49.15
643.34	4.68
643.48	0.00
643.63	35.11
643.78	28.09
643.93	126.39
644.07	95.96
644.22	0.00
644.37	77.24
644.51	105.32
644.66	110.01
644.81	58.51
644.95	0.00
645.10	21.06
645.25	53.83
645.39	0.00
645.54	18.72
645.69	44.47
645.83	114.69
645.98	9.36
646.13	42.13
646.27	102.98
646.42	46.81
646.57	53.83
646.71	100.64
646.86	105.32
647.00	60.85
647.15	23.41
647.30	28.09
647.44	21.06
647.59	100.64
647.74	93.62
647.88	79.58
648.03	53.83
648.17	91.28
648.32	42.13
648.47	56.17
648.61	30.43
648.76	117.03
648.90	25.75
649.05	100.64
649.20	98.30
649.34	0.00
649.49	56.17
649.63	77.24
649.78	44.47
649.92	0.00
650.07	117.03
650.21	81.92
650.36	88.94
650.51	0.00
650.65	18.72
650.80	91.28
650.94	21.06
651.09	84.26
651.23	110.01
651.38	77.24
651.52	84.26
651.67	16.38
651.81	56.17
651.96	18.72
652.10	0.00
652.25	0.00
652.39	135.75
652.54	74.90
652.68	35.11
652.83	7.02
652.97	79.58
653.12	25.75
653.26	53.83
653.41	147.45
653.55	30.43
653.70	2.34
653.84	39.79
653.99	102.98
654.13	30.43
654.27	95.96
654.42	91.28
654.56	88.94
654.71	32.77
654.85	72.56
655.00	0.00
655.14	93.62
655.29	21.06
655.43	4.68
655.57	100.64
655.72	11.70
655.86	128.73
656.01	14.04
656.15	98.30
656.30	72.56
656.44	95.96
656.58	11.70
656.73	74.90
656.87	0.00
657.01	11.70
657.16	39.79
657.30	53.83
657.45	98.30
657.59	0.00
657.73	32.77
657.88	70.22
658.02	7.02
658.16	131.07
658.31	28.09
658.45	11.70
658.60	32.77
658.74	79.58
658.88	21.06
659.03	39.79
659.17	117.03
659.31	53.83
659.46	35.11
659.60	11.70
659.74	25.75
659.89	32.77
660.03	58.51
660.17	77.24
660.32	56.17
660.46	84.26
660.60	67.88
660.74	91.28
660.89	21.06
661.03	46.81
661.17	102.98
661.32	86.60
661.46	86.60
661.60	72.56
661.74	0.00
661.89	4.68
662.03	0.00
662.17	18.72
662.31	79.58
662.46	49.15
662.60	9.36
662.74	32.77
662.88	0.00
663.03	30.43
663.17	18.72
663.31	28.09
663.45	77.24
663.60	21.06
663.74	91.28
663.88	58.51
664.02	72.56
664.17	9.36
664.31	0.00
664.45	23.41
664.59	81.92
664.73	51.49
664.88	0.00
665.02	28.09
665.16	81.92
665.30	60.85
665.44	58.51
665.59	67.88
665.73	42.13
665.87	18.72
666.01	74.90
666.15	65.54
666.29	0.00
666.44	0.00
666.58	93.62
666.72	30.43
666.86	70.22
667.00	46.81
667.14	25.75
667.28	56.17
667.43	0.00
667.57	25.75
667.71	67.88
667.85	21.06
667.99	42.13
668.13	32.77
668.27	37.45
668.41	42.13
668.56	37.45
668.70	46.81
668.84	65.54
668.98	25.75
669.12	56.17
669.26	0.00
669.40	60.85
669.54	35.11
669.68	60.85
669.82	0.00
669.96	63.19
670.10	81.92
670.25	28.09
670.39	9.36
670.53	25.75
670.67	51.49
670.81	88.94
670.95	110.01
671.09	74.90
671.23	28.09
671.37	11.70
671.51	0.00
671.65	53.83
671.79	84.26
671.93	58.51
672.07	93.62
672.21	18.72
672.35	67.88
672.49	44.47
672.63	35.11
672.77	105.32
672.91	88.94
673.05	16.38
673.19	60.85
673.33	39.79
673.47	35.11
673.61	16.38
673.75	102.98
673.89	9.36
674.03	25.75
674.17	2.34
674.31	63.19
674.45	119.37
674.59	0.00
674.73	67.88
674.87	88.94
675.01	70.22
675.15	133.41
675.29	56.17
675.43	0.00
675.56	30.43
675.70	0.00
675.84	37.45
675.98	14.04
676.12	86.60
676.26	88.94
676.40	4.68
676.54	58.51
676.68	7.02
676.82	93.62
676.96	95.96
677.10	91.28
677.23	37.45
677.37	11.70
677.51	105.32
677.65	56.17
677.79	23.41
677.93	53.83
678.07	60.85
678.21	18.72
678.34	128.73
678.48	0.00
678.62	37.45
678.76	28.09
678.90	74.90
679.04	16.38
679.18	79.58
679.31	42.13
679.45	81.92
679.59	49.15
679.73	117.03
679.87	126.39
680.00	95.96
680.14	77.24
680.28	70.22
680.42	30.43
680.56	32.77
680.70	0.00
680.83	67.88
680.97	32.77
681.11	56.17
681.25	91.28
681.39	65.54
681.52	35.11
681.66	35.11
681.80	72.56
681.94	133.41
682.07	35.11
682.21	58.51
682.35	53.83
682.49	77.24
682.62	63.19
682.76	7.02
682.90	46.81
683.04	70.22
683.17	0.00
683.31	11.70
683.45	14.04
683.59	30.43
683.72	32.77
683.86	42.13
684.00	53.83
684.13	23.41
684.27	67.88
684.41	53.83
684.55	32.77
684.68	46.81
684.82	98.30
684.96	4.68
685.09	67.88
685.23	0.00
685.37	35.11
685.50	0.00
685.64	16.38
685.78	42.13
685.91	28.09
686.05	86.60
686.19	42.13
686.32	105.32
686.46	35.11
686.60	0.00
686.73	21.06
686.87	9.36
687.01	67.88
687.14	0.00
687.28	21.06
687.42	100.64
687.55	79.58
687.69	14.04
687.82	16.38
687.96	81.92
688.10	37.45
688.23	46.81
688.37	95.96
688.50	39.79
688.64	0.00
688.78	58.51
688.91	0.00
689.05	11.70
689.18	0.00
689.32	0.00
689.46	21.06
689.59	70.22
689.73	18.72
689.86	16.38
690.00	37.45
690.13	65.54
690.27	152.13
690.41	21.06
690.54	23.41
690.68	0.00
690.81	18.72
690.95	0.00
691.08	135.75
691.22	25.75
691.35	30.43
691.49	25.75
691.62	49.15
691.76	16.38
691.89	88.94
692.03	63.19
692.16	11.70
692.30	105.32
692.43	35.11
692.57	51.49
692.70	107.66
692.84	79.58
692.97	0.00
693.11	105.32
693.24	23.41
693.38	37.45
693.51	74.90
693.65	105.32
693.78	0.00
693.92	51.49
694.05	124.05
694.19	0.00
694.32	39.79
694.45	23.41
694.59	23.41
694.72	0.00
694.86	51.49
694.99	2.34
695.13	58.51
695.26	4.68
695.39	4.68
695.53	0.00
695.66	7.02
695.80	88.94
695.93	25.75
696.07	18.72
696.20	39.79
696.33	28.09
696.47	21.06
696.60	21.06
696.73	39.79
696.87	0.00
697.00	79.58
697.14	56.17
697.27	25.75
697.40	37.45
697.54	0.00
697.67	0.00
697.80	60.85
697.94	0.00
698.07	37.45
698.21	0.00
698.34	32.77
698.47	0.00
698.61	77.24
698.74	0.00
698.87	53.83
699.01	32.77
699.14	84.26
699.27	91.28
699.40	88.94
699.54	56.17
699.67	35.11
699.80	21.06
699.94	42.13
700.07	18.72
700.20	14.04
700.34	65.54
700.47	21.06
700.60	51.49
700.73	51.49
700.87	25.75
701.00	16.38
701.13	49.15
701.26	42.13
701.40	25.75
701.53	53.83
701.66	32.77
701.79	70.22
701.93	49.15
702.06	39.79
702.19	21.06
702.32	32.77
702.46	60.85
702.59	16.38
702.72	65.54
702.85	77.24
702.99	63.19
703.12	0.00
703.25	58.51
703.38	46.81
703.51	0.00
703.65	93.62
703.78	39.79
703.91	72.56
704.04	39.79
704.17	0.00
704.31	93.62
704.44	2.34
704.57	46.81
704.70	7.02
704.83	0.00
704.96	67.88
705.10	9.36
705.23	0.00
>>>>>End Processed Spectral Data<<<<<
