SpectraSuite Data File
++++++++++++++++++++++++++++++++++++
Date: Fri Oct 04 12:13:30 GMT-05:00 2013
User: price-jones
Dark Spectrum Present: No
Reference Spectrum Present: No
Number of Sampled Component Spectra: 1
Spectrometers: USB2+H05261
Integration Time (usec): 10000 (USB2+H05261)
Spectra Averaged: 1 (USB2+H05261)
Boxcar Smoothing: 0 (USB2+H05261)
Correct for Electrical Dark: No (USB2+H05261)
Strobe/Lamp Enabled: No (USB2+H05261)
Correct for Detector Non-linearity: No (USB2+H05261)
Correct for Stray Light: No (USB2+H05261)
Number of Pixels in Processed Spectrum: 2048
>>>>>Begin Processed Spectral Data<<<<<
365.73	0.00
365.92	0.00
366.12	0.00
366.32	0.00
366.52	0.00
366.72	0.00
366.91	0.00
367.11	0.00
367.31	0.00
367.51	0.00
367.70	0.00
367.90	0.00
368.10	0.00
368.30	0.00
368.49	0.00
368.69	0.00
368.89	0.00
369.09	0.00
369.28	0.00
369.48	0.00
369.68	0.00
369.87	0.00
370.07	0.00
370.27	0.00
370.47	0.00
370.66	0.00
370.86	0.00
371.06	0.00
371.25	0.00
371.45	0.00
371.65	32.77
371.84	51.49
372.04	0.00
372.24	0.00
372.44	28.09
372.63	16.38
372.83	0.00
373.03	28.09
373.22	0.00
373.42	0.00
373.62	28.09
373.81	14.04
374.01	32.77
374.21	74.90
374.40	21.06
374.60	84.26
374.79	72.56
374.99	25.75
375.19	25.75
375.38	30.43
375.58	46.81
375.78	53.83
375.97	23.41
376.17	32.77
376.37	28.09
376.56	0.00
376.76	23.41
376.95	21.06
377.15	105.32
377.35	18.72
377.54	23.41
377.74	53.83
377.93	30.43
378.13	0.00
378.33	0.00
378.52	0.00
378.72	67.88
378.91	0.00
379.11	0.00
379.31	4.68
379.50	49.15
379.70	9.36
379.89	0.00
380.09	119.37
380.28	0.00
380.48	2.34
380.68	32.77
380.87	0.00
381.07	37.45
381.26	0.00
381.46	25.75
381.65	0.00
381.85	11.70
382.04	25.75
382.24	0.00
382.43	46.81
382.63	0.00
382.83	0.00
383.02	51.49
383.22	11.70
383.41	25.75
383.61	14.04
383.80	53.83
384.00	21.06
384.19	79.58
384.39	16.38
384.58	0.00
384.78	117.03
384.97	44.47
385.17	21.06
385.36	0.00
385.56	9.36
385.75	21.06
385.95	21.06
386.14	0.00
386.34	9.36
386.53	37.45
386.72	0.00
386.92	30.43
387.11	51.49
387.31	30.43
387.50	74.90
387.70	63.19
387.89	32.77
388.09	28.09
388.28	30.43
388.48	0.00
388.67	28.09
388.86	72.56
389.06	46.81
389.25	67.88
389.45	30.43
389.64	42.13
389.84	65.54
390.03	28.09
390.22	35.11
390.42	65.54
390.61	58.51
390.81	11.70
391.00	18.72
391.19	0.00
391.39	11.70
391.58	51.49
391.78	4.68
391.97	65.54
392.16	44.47
392.36	16.38
392.55	32.77
392.75	23.41
392.94	2.34
393.13	11.70
393.33	58.51
393.52	0.00
393.71	81.92
393.91	7.02
394.10	35.11
394.29	16.38
394.49	0.00
394.68	0.00
394.88	86.60
395.07	0.00
395.26	0.00
395.46	7.02
395.65	49.15
395.84	91.28
396.04	0.00
396.23	0.00
396.42	11.70
396.62	60.85
396.81	4.68
397.00	0.00
397.19	46.81
397.39	84.26
397.58	25.75
397.77	39.79
397.97	37.45
398.16	0.00
398.35	14.04
398.55	93.62
398.74	35.11
398.93	25.75
399.12	42.13
399.32	72.56
399.51	0.00
399.70	21.06
399.90	74.90
400.09	0.00
400.28	14.04
400.47	7.02
400.67	37.45
400.86	58.51
401.05	74.90
401.24	23.41
401.44	7.02
401.63	16.38
401.82	21.06
402.01	44.47
402.21	42.13
402.40	23.41
402.59	72.56
402.78	37.45
402.97	0.00
403.17	30.43
403.36	95.96
403.55	39.79
403.74	44.47
403.93	0.00
404.13	88.94
404.32	32.77
404.51	9.36
404.70	35.11
404.89	42.13
405.09	53.83
405.28	51.49
405.47	88.94
405.66	51.49
405.85	39.79
406.05	0.00
406.24	7.02
406.43	4.68
406.62	4.68
406.81	30.43
407.00	11.70
407.20	4.68
407.39	42.13
407.58	42.13
407.77	4.68
407.96	53.83
408.15	9.36
408.34	18.72
408.54	14.04
408.73	0.00
408.92	0.00
409.11	7.02
409.30	51.49
409.49	0.00
409.68	0.00
409.87	0.00
410.07	51.49
410.26	21.06
410.45	30.43
410.64	81.92
410.83	18.72
411.02	81.92
411.21	44.47
411.40	0.00
411.59	28.09
411.78	0.00
411.98	16.38
412.17	25.75
412.36	0.00
412.55	93.62
412.74	30.43
412.93	95.96
413.12	67.88
413.31	42.13
413.50	91.28
413.69	18.72
413.88	0.00
414.07	0.00
414.26	11.70
414.45	25.75
414.64	28.09
414.83	53.83
415.02	4.68
415.22	44.47
415.41	44.47
415.60	65.54
415.79	14.04
415.98	44.47
416.17	0.00
416.36	4.68
416.55	65.54
416.74	56.17
416.93	49.15
417.12	42.13
417.31	74.90
417.50	0.00
417.69	70.22
417.88	18.72
418.07	0.00
418.26	65.54
418.45	0.00
418.64	14.04
418.83	65.54
419.02	84.26
419.21	35.11
419.39	23.41
419.58	86.60
419.77	16.38
419.96	67.88
420.15	0.00
420.34	42.13
420.53	4.68
420.72	65.54
420.91	23.41
421.10	112.35
421.29	72.56
421.48	53.83
421.67	49.15
421.86	37.45
422.05	0.00
422.24	0.00
422.43	53.83
422.61	0.00
422.80	0.00
422.99	18.72
423.18	7.02
423.37	11.70
423.56	95.96
423.75	51.49
423.94	18.72
424.13	28.09
424.32	79.58
424.50	72.56
424.69	4.68
424.88	11.70
425.07	32.77
425.26	18.72
425.45	0.00
425.64	35.11
425.83	0.00
426.01	21.06
426.20	30.43
426.39	0.00
426.58	46.81
426.77	44.47
426.96	0.00
427.15	72.56
427.33	0.00
427.52	39.79
427.71	44.47
427.90	44.47
428.09	60.85
428.28	0.00
428.46	100.64
428.65	44.47
428.84	88.94
429.03	35.11
429.22	11.70
429.40	0.00
429.59	67.88
429.78	37.45
429.97	56.17
430.16	39.79
430.34	0.00
430.53	28.09
430.72	37.45
430.91	25.75
431.10	46.81
431.28	35.11
431.47	44.47
431.66	56.17
431.85	105.32
432.03	60.85
432.22	142.77
432.41	32.77
432.60	49.15
432.79	7.02
432.97	0.00
433.16	32.77
433.35	7.02
433.54	23.41
433.72	37.45
433.91	42.13
434.10	63.19
434.28	16.38
434.47	0.00
434.66	0.00
434.85	35.11
435.03	0.00
435.22	11.70
435.41	51.49
435.59	35.11
435.78	0.00
435.97	7.02
436.16	0.00
436.34	37.45
436.53	56.17
436.72	32.77
436.90	23.41
437.09	65.54
437.28	0.00
437.46	14.04
437.65	23.41
437.84	46.81
438.02	16.38
438.21	18.72
438.40	0.00
438.58	44.47
438.77	0.00
438.96	35.11
439.14	74.90
439.33	37.45
439.52	65.54
439.70	110.01
439.89	35.11
440.08	9.36
440.26	0.00
440.45	110.01
440.63	28.09
440.82	35.11
441.01	4.68
441.19	32.77
441.38	77.24
441.57	11.70
441.75	0.00
441.94	58.51
442.12	0.00
442.31	0.00
442.50	100.64
442.68	0.00
442.87	18.72
443.05	14.04
443.24	0.00
443.43	70.22
443.61	110.01
443.80	7.02
443.98	0.00
444.17	53.83
444.35	37.45
444.54	44.47
444.73	25.75
444.91	16.38
445.10	46.81
445.28	77.24
445.47	7.02
445.65	37.45
445.84	21.06
446.02	67.88
446.21	42.13
446.39	126.39
446.58	28.09
446.77	51.49
446.95	2.34
447.14	114.69
447.32	28.09
447.51	9.36
447.69	44.47
447.88	0.00
448.06	60.85
448.25	4.68
448.43	0.00
448.62	70.22
448.80	14.04
448.99	25.75
449.17	28.09
449.36	107.66
449.54	14.04
449.73	16.38
449.91	0.00
450.10	0.00
450.28	0.00
450.46	0.00
450.65	21.06
450.83	0.00
451.02	102.98
451.20	42.13
451.39	0.00
451.57	128.73
451.76	60.85
451.94	44.47
452.13	84.26
452.31	42.13
452.49	25.75
452.68	79.58
452.86	51.49
453.05	25.75
453.23	58.51
453.42	0.00
453.60	79.58
453.78	0.00
453.97	35.11
454.15	98.30
454.34	11.70
454.52	51.49
454.70	39.79
454.89	39.79
455.07	23.41
455.26	0.00
455.44	18.72
455.62	2.34
455.81	79.58
455.99	95.96
456.17	84.26
456.36	44.47
456.54	77.24
456.73	39.79
456.91	65.54
457.09	0.00
457.28	14.04
457.46	25.75
457.64	53.83
457.83	0.00
458.01	56.17
458.19	0.00
458.38	70.22
458.56	28.09
458.74	74.90
458.93	37.45
459.11	25.75
459.29	32.77
459.48	86.60
459.66	0.00
459.84	4.68
460.03	58.51
460.21	70.22
460.39	39.79
460.57	63.19
460.76	18.72
460.94	0.00
461.12	37.45
461.31	102.98
461.49	0.00
461.67	9.36
461.85	63.19
462.04	21.06
462.22	65.54
462.40	58.51
462.59	18.72
462.77	86.60
462.95	88.94
463.13	49.15
463.32	88.94
463.50	51.49
463.68	2.34
463.86	70.22
464.05	32.77
464.23	88.94
464.41	14.04
464.59	28.09
464.78	0.00
464.96	32.77
465.14	0.00
465.32	72.56
465.50	112.35
465.69	39.79
465.87	100.64
466.05	11.70
466.23	0.00
466.41	77.24
466.60	79.58
466.78	46.81
466.96	0.00
467.14	49.15
467.32	79.58
467.51	37.45
467.69	46.81
467.87	0.00
468.05	0.00
468.23	16.38
468.41	7.02
468.60	79.58
468.78	30.43
468.96	0.00
469.14	53.83
469.32	25.75
469.50	46.81
469.69	53.83
469.87	14.04
470.05	49.15
470.23	81.92
470.41	67.88
470.59	95.96
470.77	58.51
470.95	14.04
471.14	53.83
471.32	63.19
471.50	0.00
471.68	11.70
471.86	53.83
472.04	18.72
472.22	18.72
472.40	18.72
472.58	0.00
472.77	21.06
472.95	72.56
473.13	0.00
473.31	35.11
473.49	72.56
473.67	84.26
473.85	53.83
474.03	88.94
474.21	72.56
474.39	51.49
474.57	86.60
474.75	77.24
474.93	88.94
475.12	0.00
475.30	0.00
475.48	65.54
475.66	112.35
475.84	74.90
476.02	0.00
476.20	11.70
476.38	93.62
476.56	37.45
476.74	0.00
476.92	28.09
477.10	39.79
477.28	67.88
477.46	110.01
477.64	37.45
477.82	7.02
478.00	58.51
478.18	60.85
478.36	0.00
478.54	7.02
478.72	70.22
478.90	30.43
479.08	0.00
479.26	7.02
479.44	65.54
479.62	42.13
479.80	30.43
479.98	0.00
480.16	74.90
480.34	74.90
480.52	39.79
480.70	9.36
480.88	91.28
481.06	67.88
481.24	56.17
481.41	95.96
481.59	46.81
481.77	53.83
481.95	51.49
482.13	14.04
482.31	4.68
482.49	2.34
482.67	0.00
482.85	28.09
483.03	93.62
483.21	32.77
483.39	49.15
483.57	0.00
483.74	32.77
483.92	14.04
484.10	124.05
484.28	9.36
484.46	77.24
484.64	46.81
484.82	51.49
485.00	16.38
485.18	9.36
485.35	88.94
485.53	70.22
485.71	44.47
485.89	30.43
486.07	63.19
486.25	119.37
486.43	28.09
486.61	32.77
486.78	77.24
486.96	46.81
487.14	9.36
487.32	25.75
487.50	53.83
487.68	14.04
487.85	42.13
488.03	35.11
488.21	0.00
488.39	23.41
488.57	35.11
488.75	11.70
488.92	128.73
489.10	0.00
489.28	18.72
489.46	0.00
489.64	35.11
489.81	0.00
489.99	42.13
490.17	72.56
490.35	25.75
490.53	32.77
490.70	0.00
490.88	18.72
491.06	46.81
491.24	14.04
491.41	79.58
491.59	49.15
491.77	25.75
491.95	86.60
492.13	35.11
492.30	21.06
492.48	0.00
492.66	37.45
492.84	56.17
493.01	53.83
493.19	25.75
493.37	100.64
493.54	44.47
493.72	37.45
493.90	0.00
494.08	23.41
494.25	107.66
494.43	37.45
494.61	39.79
494.79	28.09
494.96	46.81
495.14	0.00
495.32	37.45
495.49	88.94
495.67	88.94
495.85	0.00
496.02	51.49
496.20	23.41
496.38	35.11
496.55	23.41
496.73	32.77
496.91	35.11
497.09	37.45
497.26	32.77
497.44	0.00
497.62	0.00
497.79	32.77
497.97	86.60
498.14	51.49
498.32	173.20
498.50	42.13
498.67	0.00
498.85	4.68
499.03	9.36
499.20	56.17
499.38	53.83
499.56	44.47
499.73	0.00
499.91	112.35
500.08	46.81
500.26	42.13
500.44	107.66
500.61	14.04
500.79	79.58
500.97	79.58
501.14	35.11
501.32	39.79
501.49	63.19
501.67	30.43
501.84	11.70
502.02	88.94
502.20	53.83
502.37	25.75
502.55	105.32
502.72	65.54
502.90	44.47
503.07	28.09
503.25	14.04
503.43	49.15
503.60	63.19
503.78	16.38
503.95	35.11
504.13	37.45
504.30	102.98
504.48	0.00
504.65	86.60
504.83	72.56
505.01	63.19
505.18	77.24
505.36	0.00
505.53	16.38
505.71	81.92
505.88	23.41
506.06	0.00
506.23	21.06
506.41	168.52
506.58	30.43
506.76	44.47
506.93	23.41
507.11	65.54
507.28	0.00
507.46	51.49
507.63	107.66
507.81	44.47
507.98	98.30
508.16	65.54
508.33	0.00
508.50	23.41
508.68	100.64
508.85	91.28
509.03	49.15
509.20	102.98
509.38	49.15
509.55	117.03
509.73	60.85
509.90	95.96
510.08	91.28
510.25	95.96
510.42	4.68
510.60	0.00
510.77	84.26
510.95	84.26
511.12	0.00
511.30	74.90
511.47	84.26
511.64	0.00
511.82	107.66
511.99	51.49
512.17	37.45
512.34	67.88
512.51	74.90
512.69	2.34
512.86	0.00
513.04	28.09
513.21	23.41
513.38	77.24
513.56	42.13
513.73	39.79
513.90	51.49
514.08	46.81
514.25	86.60
514.43	77.24
514.60	42.13
514.77	35.11
514.95	28.09
515.12	18.72
515.29	0.00
515.47	93.62
515.64	35.11
515.81	0.00
515.99	35.11
516.16	49.15
516.33	16.38
516.51	37.45
516.68	56.17
516.85	70.22
517.03	18.72
517.20	0.00
517.37	18.72
517.54	0.00
517.72	32.77
517.89	58.51
518.06	25.75
518.24	37.45
518.41	63.19
518.58	46.81
518.75	65.54
518.93	67.88
519.10	0.00
519.27	58.51
519.45	21.06
519.62	11.70
519.79	37.45
519.96	2.34
520.14	37.45
520.31	70.22
520.48	37.45
520.65	60.85
520.83	21.06
521.00	0.00
521.17	18.72
521.34	102.98
521.52	53.83
521.69	88.94
521.86	39.79
522.03	65.54
522.20	30.43
522.38	53.83
522.55	53.83
522.72	18.72
522.89	67.88
523.07	28.09
523.24	4.68
523.41	91.28
523.58	56.17
523.75	88.94
523.92	77.24
524.10	35.11
524.27	53.83
524.44	49.15
524.61	65.54
524.78	149.79
524.96	107.66
525.13	9.36
525.30	56.17
525.47	42.13
525.64	86.60
525.81	32.77
525.98	81.92
526.16	25.75
526.33	16.38
526.50	107.66
526.67	4.68
526.84	0.00
527.01	72.56
527.18	30.43
527.36	46.81
527.53	30.43
527.70	30.43
527.87	16.38
528.04	0.00
528.21	42.13
528.38	100.64
528.55	56.17
528.72	25.75
528.89	18.72
529.07	0.00
529.24	44.47
529.41	14.04
529.58	65.54
529.75	0.00
529.92	30.43
530.09	42.13
530.26	51.49
530.43	65.54
530.60	32.77
530.77	0.00
530.94	58.51
531.11	16.38
531.28	63.19
531.46	63.19
531.63	63.19
531.80	4.68
531.97	42.13
532.14	0.00
532.31	93.62
532.48	0.00
532.65	58.51
532.82	30.43
532.99	65.54
533.16	32.77
533.33	0.00
533.50	56.17
533.67	53.83
533.84	98.30
534.01	0.00
534.18	86.60
534.35	44.47
534.52	44.47
534.69	35.11
534.86	18.72
535.03	28.09
535.20	35.11
535.37	0.00
535.54	23.41
535.71	25.75
535.88	35.11
536.05	46.81
536.22	4.68
536.38	4.68
536.55	11.70
536.72	60.85
536.89	0.00
537.06	65.54
537.23	63.19
537.40	0.00
537.57	14.04
537.74	0.00
537.91	72.56
538.08	39.79
538.25	25.75
538.42	0.00
538.59	63.19
538.75	30.43
538.92	67.88
539.09	16.38
539.26	14.04
539.43	74.90
539.60	30.43
539.77	0.00
539.94	67.88
540.11	58.51
540.28	56.17
540.44	39.79
540.61	44.47
540.78	100.64
540.95	44.47
541.12	9.36
541.29	56.17
541.46	16.38
541.62	44.47
541.79	60.85
541.96	0.00
542.13	11.70
542.30	0.00
542.47	46.81
542.63	11.70
542.80	0.00
542.97	25.75
543.14	88.94
543.31	7.02
543.48	14.04
543.64	11.70
543.81	32.77
543.98	18.72
544.15	86.60
544.32	46.81
544.48	51.49
544.65	72.56
544.82	53.83
544.99	0.00
545.16	37.45
545.32	39.79
545.49	42.13
545.66	11.70
545.83	49.15
546.00	58.51
546.16	0.00
546.33	2.34
546.50	0.00
546.67	0.00
546.83	63.19
547.00	9.36
547.17	51.49
547.34	0.00
547.50	0.00
547.67	0.00
547.84	0.00
548.00	39.79
548.17	0.00
548.34	110.01
548.51	28.09
548.67	14.04
548.84	35.11
549.01	44.47
549.18	46.81
549.34	46.81
549.51	86.60
549.68	77.24
549.84	63.19
550.01	65.54
550.18	65.54
550.34	98.30
550.51	28.09
550.68	56.17
550.84	0.00
551.01	9.36
551.18	18.72
551.34	4.68
551.51	65.54
551.68	35.11
551.84	56.17
552.01	18.72
552.18	0.00
552.34	39.79
552.51	2.34
552.68	0.00
552.84	72.56
553.01	11.70
553.18	23.41
553.34	63.19
553.51	32.77
553.67	114.69
553.84	98.30
554.01	0.00
554.17	46.81
554.34	110.01
554.51	35.11
554.67	39.79
554.84	98.30
555.00	51.49
555.17	0.00
555.33	100.64
555.50	0.00
555.67	65.54
555.83	53.83
556.00	72.56
556.16	37.45
556.33	51.49
556.50	49.15
556.66	60.85
556.83	53.83
556.99	53.83
557.16	4.68
557.32	0.00
557.49	51.49
557.65	7.02
557.82	39.79
557.98	32.77
558.15	28.09
558.32	23.41
558.48	0.00
558.65	11.70
558.81	91.28
558.98	18.72
559.14	56.17
559.31	42.13
559.47	84.26
559.64	86.60
559.80	72.56
559.97	102.98
560.13	0.00
560.30	77.24
560.46	46.81
560.63	14.04
560.79	67.88
560.96	58.51
561.12	21.06
561.29	4.68
561.45	67.88
561.61	25.75
561.78	60.85
561.94	67.88
562.11	86.60
562.27	28.09
562.44	21.06
562.60	37.45
562.77	0.00
562.93	119.37
563.10	32.77
563.26	67.88
563.42	156.82
563.59	53.83
563.75	21.06
563.92	53.83
564.08	77.24
564.24	72.56
564.41	67.88
564.57	42.13
564.74	0.00
564.90	58.51
565.07	16.38
565.23	32.77
565.39	32.77
565.56	4.68
565.72	49.15
565.88	46.81
566.05	0.00
566.21	35.11
566.38	138.09
566.54	65.54
566.70	9.36
566.87	9.36
567.03	0.00
567.19	18.72
567.36	37.45
567.52	91.28
567.68	60.85
567.85	44.47
568.01	0.00
568.17	9.36
568.34	51.49
568.50	16.38
568.66	18.72
568.83	14.04
568.99	91.28
569.15	18.72
569.32	88.94
569.48	46.81
569.64	35.11
569.81	42.13
569.97	131.07
570.13	14.04
570.30	46.81
570.46	0.00
570.62	74.90
570.78	74.90
570.95	79.58
571.11	88.94
571.27	77.24
571.43	58.51
571.60	16.38
571.76	114.69
571.92	91.28
572.09	56.17
572.25	105.32
572.41	42.13
572.57	140.43
572.74	2.34
572.90	0.00
573.06	70.22
573.22	0.00
573.38	14.04
573.55	88.94
573.71	51.49
573.87	11.70
574.03	49.15
574.20	46.81
574.36	0.00
574.52	42.13
574.68	18.72
574.84	16.38
575.01	105.32
575.17	60.85
575.33	2.34
575.49	63.19
575.65	4.68
575.82	53.83
575.98	4.68
576.14	28.09
576.30	60.85
576.46	0.00
576.62	63.19
576.79	42.13
576.95	42.13
577.11	14.04
577.27	56.17
577.43	32.77
577.59	46.81
577.75	46.81
577.92	9.36
578.08	65.54
578.24	53.83
578.40	35.11
578.56	70.22
578.72	88.94
578.88	0.00
579.04	32.77
579.21	44.47
579.37	60.85
579.53	30.43
579.69	35.11
579.85	74.90
580.01	0.00
580.17	30.43
580.33	23.41
580.49	77.24
580.65	79.58
580.82	79.58
580.98	30.43
581.14	28.09
581.30	72.56
581.46	37.45
581.62	51.49
581.78	117.03
581.94	21.06
582.10	32.77
582.26	9.36
582.42	14.04
582.58	42.13
582.74	0.00
582.90	0.00
583.06	30.43
583.22	21.06
583.38	30.43
583.54	35.11
583.70	84.26
583.86	28.09
584.02	102.98
584.18	60.85
584.34	46.81
584.50	161.50
584.66	798.12
584.82	1507.30
584.98	1832.64
585.14	1528.37
585.30	1025.15
585.46	669.39
585.62	442.36
585.78	222.35
585.94	131.07
586.10	105.32
586.26	44.47
586.42	39.79
586.58	46.81
586.74	16.38
586.90	91.28
587.06	56.17
587.22	56.17
587.38	32.77
587.54	77.24
587.70	156.82
587.86	131.07
588.02	217.67
588.18	168.52
588.34	58.51
588.49	72.56
588.65	67.88
588.81	37.45
588.97	9.36
589.13	44.47
589.29	7.02
589.45	79.58
589.61	0.00
589.77	110.01
589.93	0.00
590.08	25.75
590.24	37.45
590.40	63.19
590.56	25.75
590.72	77.24
590.88	2.34
591.04	60.85
591.20	4.68
591.35	91.28
591.51	56.17
591.67	58.51
591.83	28.09
591.99	53.83
592.15	84.26
592.31	23.41
592.46	4.68
592.62	114.69
592.78	107.66
592.94	49.15
593.10	42.13
593.26	0.00
593.41	0.00
593.57	35.11
593.73	0.00
593.89	88.94
594.05	241.08
594.20	292.57
594.36	241.08
594.52	173.20
594.68	159.16
594.84	56.17
594.99	102.98
595.15	60.85
595.31	28.09
595.47	28.09
595.62	0.00
595.78	23.41
595.94	56.17
596.10	7.02
596.25	30.43
596.41	65.54
596.57	56.17
596.73	70.22
596.88	60.85
597.04	112.35
597.20	114.69
597.36	86.60
597.51	81.92
597.67	63.19
597.83	56.17
597.99	42.13
598.14	84.26
598.30	0.00
598.46	30.43
598.61	70.22
598.77	42.13
598.93	51.49
599.09	86.60
599.24	53.83
599.40	39.79
599.56	2.34
599.71	88.94
599.87	63.19
600.03	67.88
600.18	28.09
600.34	4.68
600.50	46.81
600.65	0.00
600.81	46.81
600.97	21.06
601.12	25.75
601.28	30.43
601.44	44.47
601.59	0.00
601.75	16.38
601.91	25.75
602.06	84.26
602.22	65.54
602.37	91.28
602.53	35.11
602.69	72.56
602.84	138.09
603.00	51.49
603.16	114.69
603.31	65.54
603.47	117.03
603.62	35.11
603.78	72.56
603.94	32.77
604.09	35.11
604.25	58.51
604.40	88.94
604.56	0.00
604.71	46.81
604.87	74.90
605.03	81.92
605.18	46.81
605.34	4.68
605.49	21.06
605.65	60.85
605.80	25.75
605.96	44.47
606.12	53.83
606.27	0.00
606.43	72.56
606.58	0.00
606.74	98.30
606.89	107.66
607.05	170.86
607.20	285.55
607.36	259.80
607.51	166.18
607.67	131.07
607.82	11.70
607.98	42.13
608.13	42.13
608.29	42.13
608.44	51.49
608.60	9.36
608.75	53.83
608.91	100.64
609.06	205.97
609.22	348.74
609.37	418.96
609.53	327.68
609.68	177.88
609.84	205.97
609.99	79.58
610.15	86.60
610.30	102.98
610.46	11.70
610.61	35.11
610.76	16.38
610.92	4.68
611.07	35.11
611.23	30.43
611.38	110.01
611.54	39.79
611.69	0.00
611.84	18.72
612.00	39.79
612.15	65.54
612.31	81.92
612.46	49.15
612.62	67.88
612.77	37.45
612.92	65.54
613.08	98.30
613.23	51.49
613.39	21.06
613.54	58.51
613.69	203.63
613.85	430.66
614.00	561.73
614.15	589.82
614.31	437.68
614.46	348.74
614.62	189.58
614.77	93.62
614.92	49.15
615.08	49.15
615.23	28.09
615.38	51.49
615.54	44.47
615.69	63.19
615.84	84.26
616.00	100.64
616.15	154.48
616.30	154.48
616.46	100.64
616.61	44.47
616.76	16.38
616.92	65.54
617.07	72.56
617.22	9.36
617.37	63.19
617.53	0.00
617.68	60.85
617.83	14.04
617.99	49.15
618.14	25.75
618.29	0.00
618.45	7.02
618.60	0.00
618.75	16.38
618.90	14.04
619.06	58.51
619.21	14.04
619.36	35.11
619.51	53.83
619.67	100.64
619.82	49.15
619.97	32.77
620.12	9.36
620.28	42.13
620.43	0.00
620.58	0.00
620.73	0.00
620.89	149.79
621.04	74.90
621.19	42.13
621.34	131.07
621.49	119.37
621.65	110.01
621.80	98.30
621.95	72.56
622.10	53.83
622.25	0.00
622.41	39.79
622.56	28.09
622.71	63.19
622.86	93.62
623.01	51.49
623.16	100.64
623.32	0.00
623.47	60.85
623.62	21.06
623.77	74.90
623.92	0.00
624.07	53.83
624.23	56.17
624.38	46.81
624.53	0.00
624.68	0.00
624.83	46.81
624.98	39.79
625.13	72.56
625.29	91.28
625.44	107.66
625.59	23.41
625.74	37.45
625.89	0.00
626.04	121.71
626.19	245.76
626.34	348.74
626.49	248.10
626.65	346.40
626.80	135.75
626.95	135.75
627.10	98.30
627.25	95.96
627.40	44.47
627.55	98.30
627.70	46.81
627.85	60.85
628.00	4.68
628.15	0.00
628.30	95.96
628.45	37.45
628.60	100.64
628.76	0.00
628.91	98.30
629.06	0.00
629.21	74.90
629.36	60.85
629.51	0.00
629.66	21.06
629.81	105.32
629.96	0.00
630.11	65.54
630.26	114.69
630.41	70.22
630.56	138.09
630.71	124.05
630.86	35.11
631.01	21.06
631.16	28.09
631.31	70.22
631.46	9.36
631.61	28.09
631.76	46.81
631.91	46.81
632.06	81.92
632.21	28.09
632.36	74.90
632.51	30.43
632.66	44.47
632.81	42.13
632.96	156.82
633.10	229.37
633.25	191.92
633.40	234.05
633.55	110.01
633.70	163.84
633.85	21.06
634.00	121.71
634.15	42.13
634.30	21.06
634.45	32.77
634.60	46.81
634.75	0.00
634.90	0.00
635.05	0.00
635.19	72.56
635.34	11.70
635.49	0.00
635.64	25.75
635.79	107.66
635.94	16.38
636.09	28.09
636.24	74.90
636.39	72.56
636.53	23.41
636.68	91.28
636.83	18.72
636.98	91.28
637.13	30.43
637.28	58.51
637.43	51.49
637.57	0.00
637.72	201.29
637.87	259.80
638.02	315.97
638.17	383.85
638.32	287.89
638.46	234.05
638.61	184.90
638.76	95.96
638.91	37.45
639.06	44.47
639.20	70.22
639.35	100.64
639.50	60.85
639.65	177.88
639.80	430.66
639.94	582.79
640.09	559.39
640.24	500.87
640.39	327.68
640.54	194.26
640.68	128.73
640.83	93.62
640.98	18.72
641.13	37.45
641.27	21.06
641.42	32.77
641.57	81.92
641.72	63.19
641.86	7.02
642.01	0.00
642.16	51.49
642.31	32.77
642.45	28.09
642.60	46.81
642.75	0.00
642.90	2.34
643.04	102.98
643.19	70.22
643.34	60.85
643.48	16.38
643.63	21.06
643.78	30.43
643.93	63.19
644.07	18.72
644.22	39.79
644.37	28.09
644.51	0.00
644.66	32.77
644.81	46.81
644.95	32.77
645.10	25.75
645.25	86.60
645.39	128.73
645.54	0.00
645.69	56.17
645.83	4.68
645.98	63.19
646.13	21.06
646.27	0.00
646.42	14.04
646.57	9.36
646.71	65.54
646.86	18.72
647.00	42.13
647.15	44.47
647.30	28.09
647.44	58.51
647.59	0.00
647.74	0.00
647.88	0.00
648.03	42.13
648.17	60.85
648.32	98.30
648.47	88.94
648.61	0.00
648.76	0.00
648.90	70.22
649.05	74.90
649.20	28.09
649.34	58.51
649.49	23.41
649.63	14.04
649.78	44.47
649.92	100.64
650.07	140.43
650.21	224.69
650.36	269.16
650.51	290.23
650.65	276.18
650.80	198.95
650.94	121.71
651.09	135.75
651.23	0.00
651.38	37.45
651.52	63.19
651.67	74.90
651.81	0.00
651.96	0.00
652.10	37.45
652.25	88.94
652.39	39.79
652.54	53.83
652.68	0.00
652.83	105.32
652.97	126.39
653.12	135.75
653.26	121.71
653.41	23.41
653.55	49.15
653.70	35.11
653.84	88.94
653.99	74.90
654.13	102.98
654.27	32.77
654.42	100.64
654.56	11.70
654.71	14.04
654.85	39.79
655.00	67.88
655.14	14.04
655.29	65.54
655.43	0.00
655.57	11.70
655.72	0.00
655.86	0.00
656.01	28.09
656.15	4.68
656.30	0.00
656.44	11.70
656.58	58.51
656.73	23.41
656.87	93.62
657.01	46.81
657.16	56.17
657.30	53.83
657.45	95.96
657.59	28.09
657.73	42.13
657.88	28.09
658.02	79.58
658.16	28.09
658.31	32.77
658.45	49.15
658.60	0.00
658.74	0.00
658.88	39.79
659.03	163.84
659.17	2.34
659.31	81.92
659.46	126.39
659.60	156.82
659.74	159.16
659.89	145.11
660.03	88.94
660.17	39.79
660.32	124.05
660.46	4.68
660.60	4.68
660.74	84.26
660.89	70.22
661.03	0.00
661.17	25.75
661.32	79.58
661.46	0.00
661.60	7.02
661.74	16.38
661.89	112.35
662.03	84.26
662.17	74.90
662.31	67.88
662.46	56.17
662.60	79.58
662.74	0.00
662.88	32.77
663.03	53.83
663.17	58.51
663.31	16.38
663.45	0.00
663.60	46.81
663.74	7.02
663.88	0.00
664.02	9.36
664.17	18.72
664.31	23.41
664.45	7.02
664.59	58.51
664.73	2.34
664.88	49.15
665.02	32.77
665.16	56.17
665.30	100.64
665.44	11.70
665.59	60.85
665.73	23.41
665.87	0.00
666.01	0.00
666.15	65.54
666.29	0.00
666.44	46.81
666.58	21.06
666.72	32.77
666.86	14.04
667.00	58.51
667.14	30.43
667.28	131.07
667.43	212.99
667.57	241.08
667.71	248.10
667.85	294.91
667.99	177.88
668.13	112.35
668.27	74.90
668.41	70.22
668.56	65.54
668.70	131.07
668.84	23.41
668.98	0.00
669.12	11.70
669.26	35.11
669.40	44.47
669.54	65.54
669.68	39.79
669.82	0.00
669.96	30.43
670.10	0.00
670.25	0.00
670.39	4.68
670.53	4.68
670.67	25.75
670.81	44.47
670.95	70.22
671.09	84.26
671.23	70.22
671.37	161.50
671.51	110.01
671.65	194.26
671.79	128.73
671.93	187.24
672.07	77.24
672.21	25.75
672.35	25.75
672.49	100.64
672.63	32.77
672.77	0.00
672.91	86.60
673.05	46.81
673.19	0.00
673.33	9.36
673.47	0.00
673.61	49.15
673.75	23.41
673.89	42.13
674.03	81.92
674.17	11.70
674.31	56.17
674.45	51.49
674.59	93.62
674.73	42.13
674.87	93.62
675.01	63.19
675.15	42.13
675.29	74.90
675.43	49.15
675.56	16.38
675.70	60.85
675.84	60.85
675.98	98.30
676.12	0.00
676.26	0.00
676.40	25.75
676.54	7.02
676.68	37.45
676.82	102.98
676.96	56.17
677.10	0.00
677.23	18.72
677.37	0.00
677.51	63.19
677.65	70.22
677.79	0.00
677.93	32.77
678.07	39.79
678.21	58.51
678.34	0.00
678.48	81.92
678.62	63.19
678.76	51.49
678.90	0.00
679.04	0.00
679.18	0.00
679.31	0.00
679.45	42.13
679.59	35.11
679.73	9.36
679.87	0.00
680.00	60.85
680.14	51.49
680.28	53.83
680.42	0.00
680.56	49.15
680.70	117.03
680.83	86.60
680.97	51.49
681.11	0.00
681.25	46.81
681.39	4.68
681.52	18.72
681.66	49.15
681.80	74.90
681.94	39.79
682.07	70.22
682.21	56.17
682.35	46.81
682.49	49.15
682.62	4.68
682.76	0.00
682.90	28.09
683.04	46.81
683.17	35.11
683.31	32.77
683.45	74.90
683.59	37.45
683.72	0.00
683.86	56.17
684.00	0.00
684.13	0.00
684.27	11.70
684.41	0.00
684.55	11.70
684.68	4.68
684.82	21.06
684.96	77.24
685.09	25.75
685.23	0.00
685.37	7.02
685.50	53.83
685.64	9.36
685.78	28.09
685.91	63.19
686.05	4.68
686.19	86.60
686.32	32.77
686.46	37.45
686.60	32.77
686.73	70.22
686.87	46.81
687.01	0.00
687.14	11.70
687.28	42.13
687.42	105.32
687.55	23.41
687.69	9.36
687.82	95.96
687.96	37.45
688.10	7.02
688.23	21.06
688.37	65.54
688.50	56.17
688.64	0.00
688.78	25.75
688.91	18.72
689.05	0.00
689.18	0.00
689.32	70.22
689.46	9.36
689.59	65.54
689.73	2.34
689.86	46.81
690.00	28.09
690.13	7.02
690.27	0.00
690.41	79.58
690.54	77.24
690.68	0.00
690.81	58.51
690.95	23.41
691.08	58.51
691.22	0.00
691.35	102.98
691.49	65.54
691.62	72.56
691.76	117.03
691.89	0.00
692.03	25.75
692.16	30.43
692.30	63.19
692.43	95.96
692.57	107.66
692.70	189.58
692.84	182.56
692.97	63.19
693.11	77.24
693.24	74.90
693.38	4.68
693.51	86.60
693.65	35.11
693.78	49.15
693.92	37.45
694.05	35.11
694.19	51.49
694.32	30.43
694.45	60.85
694.59	44.47
694.72	86.60
694.86	51.49
694.99	88.94
695.13	42.13
695.26	79.58
695.39	42.13
695.53	0.00
695.66	0.00
695.80	30.43
695.93	49.15
696.07	88.94
696.20	25.75
696.33	53.83
696.47	56.17
696.60	9.36
696.73	102.98
696.87	114.69
697.00	9.36
697.14	60.85
697.27	30.43
697.40	30.43
697.54	0.00
697.67	16.38
697.80	81.92
697.94	2.34
698.07	42.13
698.21	18.72
698.34	51.49
698.47	2.34
698.61	39.79
698.74	72.56
698.87	63.19
699.01	14.04
699.14	93.62
699.27	65.54
699.40	25.75
699.54	79.58
699.67	46.81
699.80	91.28
699.94	49.15
700.07	2.34
700.20	0.00
700.34	28.09
700.47	58.51
700.60	60.85
700.73	35.11
700.87	72.56
701.00	42.13
701.13	0.00
701.26	39.79
701.40	0.00
701.53	16.38
701.66	49.15
701.79	0.00
701.93	72.56
702.06	42.13
702.19	67.88
702.32	21.06
702.46	42.13
702.59	37.45
702.72	100.64
702.85	114.69
702.99	187.24
703.12	124.05
703.25	243.42
703.38	245.76
703.51	145.11
703.65	98.30
703.78	51.49
703.91	37.45
704.04	110.01
704.17	25.75
704.31	16.38
704.44	84.26
704.57	14.04
704.70	9.36
704.83	7.02
704.96	9.36
705.10	18.72
705.23	0.00
>>>>>End Processed Spectral Data<<<<<
