SpectraSuite Data File
++++++++++++++++++++++++++++++++++++
Date: Fri Oct 04 12:13:36 GMT-05:00 2013
User: price-jones
Dark Spectrum Present: No
Reference Spectrum Present: No
Number of Sampled Component Spectra: 1
Spectrometers: USB2+H05261
Integration Time (usec): 10000 (USB2+H05261)
Spectra Averaged: 1 (USB2+H05261)
Boxcar Smoothing: 0 (USB2+H05261)
Correct for Electrical Dark: No (USB2+H05261)
Strobe/Lamp Enabled: No (USB2+H05261)
Correct for Detector Non-linearity: No (USB2+H05261)
Correct for Stray Light: No (USB2+H05261)
Number of Pixels in Processed Spectrum: 2048
>>>>>Begin Processed Spectral Data<<<<<
365.73	42.13
365.92	42.13
366.12	42.13
366.32	0.00
366.52	0.00
366.72	0.00
366.91	0.00
367.11	0.00
367.31	0.00
367.51	0.00
367.70	0.00
367.90	0.00
368.10	0.00
368.30	0.00
368.49	0.00
368.69	0.00
368.89	0.00
369.09	0.00
369.28	0.00
369.48	0.00
369.68	0.00
369.87	0.00
370.07	0.00
370.27	0.00
370.47	0.00
370.66	0.00
370.86	0.00
371.06	0.00
371.25	0.00
371.45	0.00
371.65	0.00
371.84	0.00
372.04	35.11
372.24	0.00
372.44	23.41
372.63	0.00
372.83	0.00
373.03	39.79
373.22	30.43
373.42	25.75
373.62	65.54
373.81	4.68
374.01	65.54
374.21	98.30
374.40	32.77
374.60	42.13
374.79	70.22
374.99	30.43
375.19	58.51
375.38	42.13
375.58	16.38
375.78	63.19
375.97	0.00
376.17	53.83
376.37	0.00
376.56	21.06
376.76	23.41
376.95	56.17
377.15	0.00
377.35	2.34
377.54	60.85
377.74	16.38
377.93	0.00
378.13	0.00
378.33	18.72
378.52	0.00
378.72	35.11
378.91	18.72
379.11	58.51
379.31	0.00
379.50	65.54
379.70	0.00
379.89	44.47
380.09	70.22
380.28	39.79
380.48	28.09
380.68	0.00
380.87	23.41
381.07	0.00
381.26	0.00
381.46	0.00
381.65	56.17
381.85	0.00
382.04	91.28
382.24	9.36
382.43	0.00
382.63	0.00
382.83	7.02
383.02	70.22
383.22	25.75
383.41	0.00
383.61	88.94
383.80	16.38
384.00	21.06
384.19	37.45
384.39	23.41
384.58	2.34
384.78	30.43
384.97	49.15
385.17	0.00
385.36	77.24
385.56	124.05
385.75	32.77
385.95	67.88
386.14	0.00
386.34	0.00
386.53	30.43
386.72	0.00
386.92	46.81
387.11	58.51
387.31	35.11
387.50	35.11
387.70	79.58
387.89	49.15
388.09	56.17
388.28	46.81
388.48	46.81
388.67	95.96
388.86	30.43
389.06	28.09
389.25	16.38
389.45	51.49
389.64	18.72
389.84	4.68
390.03	30.43
390.22	37.45
390.42	84.26
390.61	0.00
390.81	9.36
391.00	0.00
391.19	58.51
391.39	18.72
391.58	0.00
391.78	70.22
391.97	14.04
392.16	9.36
392.36	0.00
392.55	30.43
392.75	0.00
392.94	0.00
393.13	51.49
393.33	67.88
393.52	131.07
393.71	42.13
393.91	0.00
394.10	32.77
394.29	25.75
394.49	18.72
394.68	35.11
394.88	0.00
395.07	0.00
395.26	93.62
395.46	49.15
395.65	51.49
395.84	112.35
396.04	25.75
396.23	58.51
396.42	23.41
396.62	7.02
396.81	42.13
397.00	74.90
397.19	79.58
397.39	0.00
397.58	65.54
397.77	70.22
397.97	56.17
398.16	0.00
398.35	58.51
398.55	44.47
398.74	56.17
398.93	46.81
399.12	25.75
399.32	35.11
399.51	60.85
399.70	0.00
399.90	32.77
400.09	117.03
400.28	2.34
400.47	79.58
400.67	28.09
400.86	0.00
401.05	30.43
401.24	44.47
401.44	11.70
401.63	28.09
401.82	11.70
402.01	0.00
402.21	65.54
402.40	0.00
402.59	0.00
402.78	21.06
402.97	32.77
403.17	11.70
403.36	0.00
403.55	21.06
403.74	49.15
403.93	0.00
404.13	37.45
404.32	35.11
404.51	37.45
404.70	14.04
404.89	23.41
405.09	58.51
405.28	84.26
405.47	0.00
405.66	93.62
405.85	60.85
406.05	0.00
406.24	102.98
406.43	65.54
406.62	60.85
406.81	91.28
407.00	79.58
407.20	0.00
407.39	70.22
407.58	44.47
407.77	70.22
407.96	0.00
408.15	91.28
408.34	44.47
408.54	30.43
408.73	0.00
408.92	53.83
409.11	0.00
409.30	16.38
409.49	30.43
409.68	30.43
409.87	16.38
410.07	14.04
410.26	53.83
410.45	0.00
410.64	2.34
410.83	0.00
411.02	60.85
411.21	35.11
411.40	84.26
411.59	28.09
411.78	63.19
411.98	7.02
412.17	18.72
412.36	84.26
412.55	23.41
412.74	32.77
412.93	32.77
413.12	0.00
413.31	42.13
413.50	93.62
413.69	0.00
413.88	23.41
414.07	25.75
414.26	30.43
414.45	60.85
414.64	53.83
414.83	46.81
415.02	14.04
415.22	0.00
415.41	67.88
415.60	0.00
415.79	25.75
415.98	0.00
416.17	44.47
416.36	65.54
416.55	77.24
416.74	18.72
416.93	28.09
417.12	0.00
417.31	53.83
417.50	21.06
417.69	86.60
417.88	0.00
418.07	14.04
418.26	25.75
418.45	0.00
418.64	58.51
418.83	79.58
419.02	60.85
419.21	67.88
419.39	70.22
419.58	79.58
419.77	53.83
419.96	56.17
420.15	84.26
420.34	67.88
420.53	32.77
420.72	56.17
420.91	0.00
421.10	39.79
421.29	107.66
421.48	58.51
421.67	98.30
421.86	0.00
422.05	79.58
422.24	0.00
422.43	60.85
422.61	67.88
422.80	72.56
422.99	32.77
423.18	23.41
423.37	58.51
423.56	121.71
423.75	58.51
423.94	46.81
424.13	9.36
424.32	46.81
424.50	35.11
424.69	67.88
424.88	100.64
425.07	81.92
425.26	88.94
425.45	95.96
425.64	46.81
425.83	23.41
426.01	131.07
426.20	37.45
426.39	39.79
426.58	60.85
426.77	42.13
426.96	67.88
427.15	32.77
427.33	0.00
427.52	9.36
427.71	65.54
427.90	0.00
428.09	30.43
428.28	25.75
428.46	7.02
428.65	16.38
428.84	58.51
429.03	0.00
429.22	2.34
429.40	63.19
429.59	72.56
429.78	39.79
429.97	86.60
430.16	39.79
430.34	53.83
430.53	51.49
430.72	39.79
430.91	0.00
431.10	0.00
431.28	100.64
431.47	9.36
431.66	49.15
431.85	53.83
432.03	72.56
432.22	0.00
432.41	35.11
432.60	16.38
432.79	42.13
432.97	32.77
433.16	25.75
433.35	65.54
433.54	128.73
433.72	51.49
433.91	18.72
434.10	42.13
434.28	23.41
434.47	105.32
434.66	0.00
434.85	102.98
435.03	32.77
435.22	84.26
435.41	49.15
435.59	49.15
435.78	91.28
435.97	11.70
436.16	74.90
436.34	72.56
436.53	0.00
436.72	53.83
436.90	0.00
437.09	16.38
437.28	23.41
437.46	112.35
437.65	58.51
437.84	30.43
438.02	74.90
438.21	93.62
438.40	32.77
438.58	42.13
438.77	30.43
438.96	100.64
439.14	124.05
439.33	107.66
439.52	98.30
439.70	18.72
439.89	35.11
440.08	49.15
440.26	2.34
440.45	0.00
440.63	0.00
440.82	79.58
441.01	49.15
441.19	74.90
441.38	84.26
441.57	51.49
441.75	102.98
441.94	98.30
442.12	112.35
442.31	44.47
442.50	65.54
442.68	67.88
442.87	37.45
443.05	0.00
443.24	14.04
443.43	100.64
443.61	51.49
443.80	0.00
443.98	79.58
444.17	4.68
444.35	44.47
444.54	72.56
444.73	30.43
444.91	18.72
445.10	81.92
445.28	117.03
445.47	91.28
445.65	30.43
445.84	23.41
446.02	67.88
446.21	60.85
446.39	58.51
446.58	35.11
446.77	81.92
446.95	0.00
447.14	70.22
447.32	86.60
447.51	88.94
447.69	42.13
447.88	182.56
448.06	39.79
448.25	100.64
448.43	21.06
448.62	18.72
448.80	16.38
448.99	4.68
449.17	72.56
449.36	44.47
449.54	63.19
449.73	42.13
449.91	63.19
450.10	102.98
450.28	58.51
450.46	72.56
450.65	126.39
450.83	56.17
451.02	11.70
451.20	67.88
451.39	14.04
451.57	44.47
451.76	70.22
451.94	39.79
452.13	21.06
452.31	110.01
452.49	84.26
452.68	58.51
452.86	11.70
453.05	0.00
453.23	25.75
453.42	16.38
453.60	121.71
453.78	102.98
453.97	42.13
454.15	0.00
454.34	28.09
454.52	70.22
454.70	114.69
454.89	102.98
455.07	88.94
455.26	77.24
455.44	25.75
455.62	67.88
455.81	51.49
455.99	30.43
456.17	0.00
456.36	25.75
456.54	72.56
456.73	100.64
456.91	60.85
457.09	44.47
457.28	18.72
457.46	72.56
457.64	28.09
457.83	74.90
458.01	51.49
458.19	39.79
458.38	86.60
458.56	56.17
458.74	39.79
458.93	72.56
459.11	7.02
459.29	60.85
459.48	95.96
459.66	2.34
459.84	110.01
460.03	0.00
460.21	81.92
460.39	72.56
460.57	124.05
460.76	100.64
460.94	91.28
461.12	35.11
461.31	58.51
461.49	102.98
461.67	119.37
461.85	23.41
462.04	0.00
462.22	117.03
462.40	98.30
462.59	56.17
462.77	30.43
462.95	67.88
463.13	0.00
463.32	60.85
463.50	28.09
463.68	72.56
463.86	74.90
464.05	46.81
464.23	42.13
464.41	114.69
464.59	131.07
464.78	74.90
464.96	0.00
465.14	46.81
465.32	117.03
465.50	21.06
465.69	35.11
465.87	23.41
466.05	28.09
466.23	72.56
466.41	65.54
466.60	72.56
466.78	32.77
466.96	70.22
467.14	126.39
467.32	70.22
467.51	56.17
467.69	42.13
467.87	39.79
468.05	25.75
468.23	35.11
468.41	30.43
468.60	37.45
468.78	107.66
468.96	16.38
469.14	42.13
469.32	56.17
469.50	4.68
469.69	93.62
469.87	119.37
470.05	65.54
470.23	0.00
470.41	100.64
470.59	9.36
470.77	67.88
470.95	65.54
471.14	14.04
471.32	0.00
471.50	39.79
471.68	37.45
471.86	79.58
472.04	23.41
472.22	28.09
472.40	63.19
472.58	11.70
472.77	63.19
472.95	28.09
473.13	77.24
473.31	44.47
473.49	4.68
473.67	39.79
473.85	18.72
474.03	0.00
474.21	72.56
474.39	39.79
474.57	0.00
474.75	79.58
474.93	0.00
475.12	98.30
475.30	9.36
475.48	110.01
475.66	51.49
475.84	28.09
476.02	0.00
476.20	77.24
476.38	49.15
476.56	102.98
476.74	79.58
476.92	107.66
477.10	77.24
477.28	79.58
477.46	37.45
477.64	126.39
477.82	67.88
478.00	105.32
478.18	110.01
478.36	100.64
478.54	53.83
478.72	39.79
478.90	35.11
479.08	100.64
479.26	16.38
479.44	58.51
479.62	63.19
479.80	44.47
479.98	70.22
480.16	102.98
480.34	16.38
480.52	11.70
480.70	49.15
480.88	53.83
481.06	98.30
481.24	98.30
481.41	79.58
481.59	63.19
481.77	74.90
481.95	23.41
482.13	100.64
482.31	58.51
482.49	60.85
482.67	98.30
482.85	128.73
483.03	131.07
483.21	53.83
483.39	49.15
483.57	7.02
483.74	35.11
483.92	81.92
484.10	63.19
484.28	51.49
484.46	84.26
484.64	86.60
484.82	86.60
485.00	0.00
485.18	42.13
485.35	0.00
485.53	133.41
485.71	0.00
485.89	16.38
486.07	30.43
486.25	56.17
486.43	0.00
486.61	100.64
486.78	37.45
486.96	0.00
487.14	35.11
487.32	67.88
487.50	84.26
487.68	63.19
487.85	9.36
488.03	0.00
488.21	65.54
488.39	107.66
488.57	9.36
488.75	86.60
488.92	37.45
489.10	51.49
489.28	114.69
489.46	79.58
489.64	84.26
489.81	72.56
489.99	60.85
490.17	32.77
490.35	131.07
490.53	102.98
490.70	37.45
490.88	81.92
491.06	51.49
491.24	53.83
491.41	32.77
491.59	32.77
491.77	65.54
491.95	79.58
492.13	53.83
492.30	67.88
492.48	58.51
492.66	110.01
492.84	70.22
493.01	88.94
493.19	35.11
493.37	39.79
493.54	39.79
493.72	126.39
493.90	49.15
494.08	86.60
494.25	49.15
494.43	74.90
494.61	119.37
494.79	91.28
494.96	100.64
495.14	133.41
495.32	121.71
495.49	107.66
495.67	39.79
495.85	86.60
496.02	79.58
496.20	0.00
496.38	81.92
496.55	98.30
496.73	60.85
496.91	56.17
497.09	77.24
497.26	114.69
497.44	105.32
497.62	42.13
497.79	117.03
497.97	72.56
498.14	56.17
498.32	84.26
498.50	81.92
498.67	135.75
498.85	70.22
499.03	46.81
499.20	67.88
499.38	81.92
499.56	124.05
499.73	65.54
499.91	86.60
500.08	30.43
500.26	0.00
500.44	70.22
500.61	107.66
500.79	72.56
500.97	46.81
501.14	65.54
501.32	28.09
501.49	77.24
501.67	49.15
501.84	124.05
502.02	86.60
502.20	84.26
502.37	60.85
502.55	51.49
502.72	14.04
502.90	60.85
503.07	56.17
503.25	95.96
503.43	88.94
503.60	65.54
503.78	65.54
503.95	23.41
504.13	18.72
504.30	79.58
504.48	18.72
504.65	79.58
504.83	126.39
505.01	70.22
505.18	65.54
505.36	88.94
505.53	105.32
505.71	100.64
505.88	21.06
506.06	112.35
506.23	126.39
506.41	95.96
506.58	70.22
506.76	28.09
506.93	131.07
507.11	7.02
507.28	58.51
507.46	32.77
507.63	67.88
507.81	105.32
507.98	95.96
508.16	124.05
508.33	98.30
508.50	95.96
508.68	67.88
508.85	81.92
509.03	86.60
509.20	53.83
509.38	110.01
509.55	67.88
509.73	72.56
509.90	56.17
510.08	88.94
510.25	95.96
510.42	70.22
510.60	72.56
510.77	42.13
510.95	72.56
511.12	121.71
511.30	126.39
511.47	37.45
511.64	77.24
511.82	107.66
511.99	58.51
512.17	28.09
512.34	91.28
512.51	107.66
512.69	70.22
512.86	140.43
513.04	121.71
513.21	28.09
513.38	30.43
513.56	154.48
513.73	126.39
513.90	124.05
514.08	91.28
514.25	72.56
514.43	65.54
514.60	9.36
514.77	25.75
514.95	105.32
515.12	124.05
515.29	84.26
515.47	65.54
515.64	110.01
515.81	126.39
515.99	44.47
516.16	46.81
516.33	81.92
516.51	16.38
516.68	9.36
516.85	11.70
517.03	37.45
517.20	86.60
517.37	58.51
517.54	56.17
517.72	67.88
517.89	60.85
518.06	46.81
518.24	93.62
518.41	42.13
518.58	63.19
518.75	86.60
518.93	100.64
519.10	98.30
519.27	65.54
519.45	81.92
519.62	37.45
519.79	100.64
519.96	70.22
520.14	138.09
520.31	65.54
520.48	14.04
520.65	84.26
520.83	42.13
521.00	79.58
521.17	107.66
521.34	224.69
521.52	67.88
521.69	100.64
521.86	0.00
522.03	135.75
522.20	46.81
522.38	56.17
522.55	67.88
522.72	93.62
522.89	70.22
523.07	95.96
523.24	114.69
523.41	91.28
523.58	44.47
523.75	95.96
523.92	42.13
524.10	67.88
524.27	84.26
524.44	81.92
524.61	126.39
524.78	70.22
524.96	77.24
525.13	119.37
525.30	84.26
525.47	131.07
525.64	60.85
525.81	74.90
525.98	65.54
526.16	28.09
526.33	65.54
526.50	119.37
526.67	84.26
526.84	42.13
527.01	105.32
527.18	105.32
527.36	147.45
527.53	128.73
527.70	30.43
527.87	21.06
528.04	81.92
528.21	74.90
528.38	63.19
528.55	74.90
528.72	156.82
528.89	77.24
529.07	112.35
529.24	56.17
529.41	86.60
529.58	98.30
529.75	72.56
529.92	95.96
530.09	81.92
530.26	49.15
530.43	51.49
530.60	154.48
530.77	44.47
530.94	100.64
531.11	49.15
531.28	79.58
531.46	95.96
531.63	74.90
531.80	70.22
531.97	88.94
532.14	131.07
532.31	91.28
532.48	74.90
532.65	46.81
532.82	86.60
532.99	156.82
533.16	49.15
533.33	37.45
533.50	149.79
533.67	91.28
533.84	159.16
534.01	46.81
534.18	21.06
534.35	39.79
534.52	79.58
534.69	42.13
534.86	196.60
535.03	100.64
535.20	9.36
535.37	67.88
535.54	91.28
535.71	77.24
535.88	63.19
536.05	100.64
536.22	70.22
536.38	56.17
536.55	56.17
536.72	70.22
536.89	121.71
537.06	53.83
537.23	74.90
537.40	98.30
537.57	128.73
537.74	39.79
537.91	126.39
538.08	67.88
538.25	102.98
538.42	100.64
538.59	135.75
538.75	102.98
538.92	95.96
539.09	117.03
539.26	46.81
539.43	81.92
539.60	79.58
539.77	119.37
539.94	63.19
540.11	77.24
540.28	124.05
540.44	58.51
540.61	28.09
540.78	0.00
540.95	70.22
541.12	131.07
541.29	70.22
541.46	25.75
541.62	95.96
541.79	86.60
541.96	93.62
542.13	77.24
542.30	93.62
542.47	67.88
542.63	81.92
542.80	56.17
542.97	58.51
543.14	110.01
543.31	105.32
543.48	23.41
543.64	72.56
543.81	102.98
543.98	126.39
544.15	81.92
544.32	112.35
544.48	58.51
544.65	14.04
544.82	74.90
544.99	77.24
545.16	70.22
545.32	51.49
545.49	98.30
545.66	112.35
545.83	114.69
546.00	14.04
546.16	154.48
546.33	114.69
546.50	114.69
546.67	35.11
546.83	51.49
547.00	95.96
547.17	51.49
547.34	58.51
547.50	23.41
547.67	88.94
547.84	95.96
548.00	53.83
548.17	91.28
548.34	102.98
548.51	114.69
548.67	163.84
548.84	72.56
549.01	37.45
549.18	88.94
549.34	11.70
549.51	46.81
549.68	98.30
549.84	114.69
550.01	112.35
550.18	119.37
550.34	79.58
550.51	145.11
550.68	79.58
550.84	131.07
551.01	63.19
551.18	84.26
551.34	81.92
551.51	93.62
551.68	72.56
551.84	0.00
552.01	65.54
552.18	25.75
552.34	37.45
552.51	49.15
552.68	100.64
552.84	102.98
553.01	133.41
553.18	117.03
553.34	42.13
553.51	35.11
553.67	161.50
553.84	51.49
554.01	117.03
554.17	142.77
554.34	72.56
554.51	56.17
554.67	77.24
554.84	84.26
555.00	102.98
555.17	72.56
555.33	110.01
555.50	60.85
555.67	88.94
555.83	91.28
556.00	60.85
556.16	51.49
556.33	67.88
556.50	128.73
556.66	91.28
556.83	142.77
556.99	81.92
557.16	138.09
557.32	79.58
557.49	51.49
557.65	35.11
557.82	98.30
557.98	65.54
558.15	128.73
558.32	110.01
558.48	32.77
558.65	86.60
558.81	77.24
558.98	88.94
559.14	46.81
559.31	93.62
559.47	105.32
559.64	81.92
559.80	30.43
559.97	119.37
560.13	107.66
560.30	51.49
560.46	51.49
560.63	189.58
560.79	72.56
560.96	84.26
561.12	58.51
561.29	72.56
561.45	58.51
561.61	84.26
561.78	72.56
561.94	65.54
562.11	95.96
562.27	91.28
562.44	107.66
562.60	44.47
562.77	154.48
562.93	114.69
563.10	74.90
563.26	131.07
563.42	9.36
563.59	51.49
563.75	86.60
563.92	112.35
564.08	72.56
564.24	147.45
564.41	0.00
564.57	28.09
564.74	88.94
564.90	100.64
565.07	23.41
565.23	60.85
565.39	65.54
565.56	46.81
565.72	56.17
565.88	77.24
566.05	37.45
566.21	70.22
566.38	37.45
566.54	91.28
566.70	74.90
566.87	105.32
567.03	100.64
567.19	107.66
567.36	42.13
567.52	180.22
567.68	107.66
567.85	100.64
568.01	110.01
568.17	18.72
568.34	67.88
568.50	107.66
568.66	81.92
568.83	124.05
568.99	79.58
569.15	37.45
569.32	49.15
569.48	88.94
569.64	100.64
569.81	35.11
569.97	65.54
570.13	42.13
570.30	65.54
570.46	140.43
570.62	145.11
570.78	58.51
570.95	102.98
571.11	79.58
571.27	138.09
571.43	72.56
571.60	53.83
571.76	81.92
571.92	156.82
572.09	124.05
572.25	84.26
572.41	74.90
572.57	88.94
572.74	46.81
572.90	119.37
573.06	77.24
573.22	114.69
573.38	84.26
573.55	70.22
573.71	105.32
573.87	131.07
574.03	135.75
574.20	142.77
574.36	93.62
574.52	49.15
574.68	42.13
574.84	72.56
575.01	44.47
575.17	63.19
575.33	65.54
575.49	2.34
575.65	112.35
575.82	79.58
575.98	30.43
576.14	0.00
576.30	124.05
576.46	166.18
576.62	25.75
576.79	77.24
576.95	58.51
577.11	39.79
577.27	152.13
577.43	95.96
577.59	98.30
577.75	9.36
577.92	21.06
578.08	46.81
578.24	53.83
578.40	77.24
578.56	88.94
578.72	7.02
578.88	42.13
579.04	81.92
579.21	58.51
579.37	42.13
579.53	53.83
579.69	18.72
579.85	63.19
580.01	91.28
580.17	72.56
580.33	110.01
580.49	63.19
580.65	49.15
580.82	135.75
580.98	81.92
581.14	44.47
581.30	0.00
581.46	42.13
581.62	58.51
581.78	128.73
581.94	49.15
582.10	28.09
582.26	98.30
582.42	44.47
582.58	117.03
582.74	42.13
582.90	53.83
583.06	140.43
583.22	74.90
583.38	79.58
583.54	100.64
583.70	93.62
583.86	79.58
584.02	56.17
584.18	72.56
584.34	65.54
584.50	58.51
584.66	70.22
584.82	53.83
584.98	110.01
585.14	149.79
585.30	37.45
585.46	49.15
585.62	46.81
585.78	53.83
585.94	46.81
586.10	60.85
586.26	117.03
586.42	42.13
586.58	58.51
586.74	72.56
586.90	30.43
587.06	39.79
587.22	49.15
587.38	74.90
587.54	70.22
587.70	32.77
587.86	53.83
588.02	93.62
588.18	49.15
588.34	7.02
588.49	135.75
588.65	0.00
588.81	42.13
588.97	30.43
589.13	88.94
589.29	100.64
589.45	79.58
589.61	166.18
589.77	9.36
589.93	0.00
590.08	81.92
590.24	56.17
590.40	60.85
590.56	49.15
590.72	81.92
590.88	0.00
591.04	0.00
591.20	46.81
591.35	7.02
591.51	65.54
591.67	102.98
591.83	0.00
591.99	42.13
592.15	79.58
592.31	81.92
592.46	63.19
592.62	135.75
592.78	56.17
592.94	0.00
593.10	42.13
593.26	28.09
593.41	67.88
593.57	63.19
593.73	28.09
593.89	11.70
594.05	46.81
594.20	77.24
594.36	74.90
594.52	133.41
594.68	49.15
594.84	65.54
594.99	72.56
595.15	39.79
595.31	7.02
595.47	42.13
595.62	131.07
595.78	42.13
595.94	0.00
596.10	46.81
596.25	49.15
596.41	9.36
596.57	16.38
596.73	86.60
596.88	79.58
597.04	49.15
597.20	56.17
597.36	42.13
597.51	58.51
597.67	86.60
597.83	105.32
597.99	98.30
598.14	44.47
598.30	42.13
598.46	37.45
598.61	49.15
598.77	0.00
598.93	70.22
599.09	65.54
599.24	180.22
599.40	44.47
599.56	53.83
599.71	65.54
599.87	49.15
600.03	0.00
600.18	18.72
600.34	98.30
600.50	93.62
600.65	86.60
600.81	32.77
600.97	65.54
601.12	7.02
601.28	56.17
601.44	25.75
601.59	44.47
601.75	46.81
601.91	65.54
602.06	93.62
602.22	0.00
602.37	23.41
602.53	39.79
602.69	2.34
602.84	100.64
603.00	84.26
603.16	121.71
603.31	63.19
603.47	42.13
603.62	112.35
603.78	49.15
603.94	56.17
604.09	95.96
604.25	107.66
604.40	58.51
604.56	0.00
604.71	95.96
604.87	88.94
605.03	37.45
605.18	88.94
605.34	117.03
605.49	53.83
605.65	23.41
605.80	0.00
605.96	51.49
606.12	117.03
606.27	74.90
606.43	49.15
606.58	140.43
606.74	74.90
606.89	32.77
607.05	63.19
607.20	77.24
607.36	128.73
607.51	124.05
607.67	58.51
607.82	105.32
607.98	74.90
608.13	86.60
608.29	0.00
608.44	72.56
608.60	72.56
608.75	166.18
608.91	81.92
609.06	117.03
609.22	110.01
609.37	126.39
609.53	77.24
609.68	91.28
609.84	81.92
609.99	105.32
610.15	72.56
610.30	58.51
610.46	70.22
610.61	88.94
610.76	65.54
610.92	67.88
611.07	67.88
611.23	126.39
611.38	44.47
611.54	74.90
611.69	72.56
611.84	100.64
612.00	98.30
612.15	84.26
612.31	100.64
612.46	35.11
612.62	60.85
612.77	0.00
612.92	2.34
613.08	88.94
613.23	58.51
613.39	58.51
613.54	67.88
613.69	67.88
613.85	37.45
614.00	30.43
614.15	46.81
614.31	60.85
614.46	28.09
614.62	35.11
614.77	72.56
614.92	98.30
615.08	88.94
615.23	72.56
615.38	88.94
615.54	58.51
615.69	46.81
615.84	25.75
616.00	56.17
616.15	67.88
616.30	21.06
616.46	86.60
616.61	58.51
616.76	74.90
616.92	63.19
617.07	77.24
617.22	0.00
617.37	86.60
617.53	95.96
617.68	102.98
617.83	46.81
617.99	46.81
618.14	74.90
618.29	107.66
618.45	46.81
618.60	79.58
618.75	0.00
618.90	121.71
619.06	84.26
619.21	84.26
619.36	95.96
619.51	65.54
619.67	51.49
619.82	65.54
619.97	60.85
620.12	88.94
620.28	28.09
620.43	93.62
620.58	112.35
620.73	65.54
620.89	53.83
621.04	70.22
621.19	70.22
621.34	11.70
621.49	53.83
621.65	51.49
621.80	21.06
621.95	77.24
622.10	124.05
622.25	67.88
622.41	56.17
622.56	93.62
622.71	86.60
622.86	63.19
623.01	37.45
623.16	7.02
623.32	58.51
623.47	133.41
623.62	2.34
623.77	56.17
623.92	95.96
624.07	74.90
624.23	39.79
624.38	95.96
624.53	37.45
624.68	105.32
624.83	126.39
624.98	25.75
625.13	30.43
625.29	58.51
625.44	81.92
625.59	77.24
625.74	81.92
625.89	133.41
626.04	39.79
626.19	35.11
626.34	49.15
626.49	112.35
626.65	84.26
626.80	0.00
626.95	58.51
627.10	119.37
627.25	30.43
627.40	175.54
627.55	95.96
627.70	11.70
627.85	53.83
628.00	79.58
628.15	112.35
628.30	135.75
628.45	0.00
628.60	23.41
628.76	35.11
628.91	7.02
629.06	133.41
629.21	51.49
629.36	98.30
629.51	35.11
629.66	0.00
629.81	44.47
629.96	67.88
630.11	23.41
630.26	7.02
630.41	44.47
630.56	110.01
630.71	28.09
630.86	25.75
631.01	67.88
631.16	86.60
631.31	121.71
631.46	0.00
631.61	28.09
631.76	88.94
631.91	84.26
632.06	112.35
632.21	46.81
632.36	0.00
632.51	49.15
632.66	95.96
632.81	53.83
632.96	65.54
633.10	65.54
633.25	44.47
633.40	168.52
633.55	44.47
633.70	32.77
633.85	21.06
634.00	32.77
634.15	9.36
634.30	9.36
634.45	44.47
634.60	77.24
634.75	30.43
634.90	44.47
635.05	35.11
635.19	70.22
635.34	56.17
635.49	25.75
635.64	88.94
635.79	28.09
635.94	32.77
636.09	0.00
636.24	114.69
636.39	86.60
636.53	93.62
636.68	49.15
636.83	7.02
636.98	121.71
637.13	56.17
637.28	72.56
637.43	84.26
637.57	18.72
637.72	98.30
637.87	114.69
638.02	77.24
638.17	86.60
638.32	0.00
638.46	58.51
638.61	53.83
638.76	0.00
638.91	30.43
639.06	30.43
639.20	65.54
639.35	37.45
639.50	60.85
639.65	77.24
639.80	32.77
639.94	74.90
640.09	79.58
640.24	133.41
640.39	37.45
640.54	88.94
640.68	119.37
640.83	42.13
640.98	60.85
641.13	37.45
641.27	65.54
641.42	86.60
641.57	102.98
641.72	21.06
641.86	39.79
642.01	28.09
642.16	28.09
642.31	46.81
642.45	77.24
642.60	74.90
642.75	70.22
642.90	79.58
643.04	140.43
643.19	2.34
643.34	32.77
643.48	86.60
643.63	58.51
643.78	93.62
643.93	44.47
644.07	100.64
644.22	28.09
644.37	112.35
644.51	81.92
644.66	77.24
644.81	79.58
644.95	18.72
645.10	37.45
645.25	93.62
645.39	0.00
645.54	72.56
645.69	11.70
645.83	35.11
645.98	35.11
646.13	88.94
646.27	0.00
646.42	0.00
646.57	4.68
646.71	63.19
646.86	56.17
647.00	93.62
647.15	81.92
647.30	44.47
647.44	74.90
647.59	0.00
647.74	98.30
647.88	86.60
648.03	9.36
648.17	102.98
648.32	42.13
648.47	46.81
648.61	0.00
648.76	46.81
648.90	86.60
649.05	0.00
649.20	9.36
649.34	49.15
649.49	37.45
649.63	110.01
649.78	84.26
649.92	37.45
650.07	126.39
650.21	65.54
650.36	156.82
650.51	95.96
650.65	84.26
650.80	49.15
650.94	37.45
651.09	44.47
651.23	0.00
651.38	79.58
651.52	14.04
651.67	81.92
651.81	107.66
651.96	4.68
652.10	2.34
652.25	18.72
652.39	37.45
652.54	70.22
652.68	30.43
652.83	84.26
652.97	67.88
653.12	0.00
653.26	42.13
653.41	32.77
653.55	14.04
653.70	56.17
653.84	60.85
653.99	46.81
654.13	42.13
654.27	53.83
654.42	0.00
654.56	58.51
654.71	44.47
654.85	91.28
655.00	4.68
655.14	51.49
655.29	23.41
655.43	30.43
655.57	93.62
655.72	11.70
655.86	32.77
656.01	102.98
656.15	42.13
656.30	28.09
656.44	95.96
656.58	21.06
656.73	51.49
656.87	30.43
657.01	46.81
657.16	100.64
657.30	114.69
657.45	70.22
657.59	9.36
657.73	35.11
657.88	74.90
658.02	112.35
658.16	0.00
658.31	84.26
658.45	0.00
658.60	56.17
658.74	44.47
658.88	42.13
659.03	110.01
659.17	30.43
659.31	44.47
659.46	0.00
659.60	56.17
659.74	67.88
659.89	86.60
660.03	58.51
660.17	35.11
660.32	58.51
660.46	58.51
660.60	81.92
660.74	35.11
660.89	60.85
661.03	0.00
661.17	0.00
661.32	35.11
661.46	65.54
661.60	121.71
661.74	18.72
661.89	72.56
662.03	32.77
662.17	72.56
662.31	117.03
662.46	56.17
662.60	77.24
662.74	67.88
662.88	0.00
663.03	49.15
663.17	32.77
663.31	21.06
663.45	35.11
663.60	23.41
663.74	98.30
663.88	60.85
664.02	67.88
664.17	42.13
664.31	25.75
664.45	110.01
664.59	39.79
664.73	37.45
664.88	67.88
665.02	107.66
665.16	0.00
665.30	93.62
665.44	25.75
665.59	72.56
665.73	81.92
665.87	46.81
666.01	58.51
666.15	98.30
666.29	63.19
666.44	0.00
666.58	35.11
666.72	81.92
666.86	67.88
667.00	21.06
667.14	44.47
667.28	67.88
667.43	63.19
667.57	46.81
667.71	28.09
667.85	53.83
667.99	35.11
668.13	124.05
668.27	42.13
668.41	53.83
668.56	42.13
668.70	37.45
668.84	93.62
668.98	44.47
669.12	65.54
669.26	35.11
669.40	100.64
669.54	60.85
669.68	95.96
669.82	56.17
669.96	65.54
670.10	42.13
670.25	0.00
670.39	32.77
670.53	88.94
670.67	84.26
670.81	18.72
670.95	74.90
671.09	84.26
671.23	72.56
671.37	16.38
671.51	25.75
671.65	84.26
671.79	21.06
671.93	60.85
672.07	102.98
672.21	63.19
672.35	72.56
672.49	88.94
672.63	65.54
672.77	117.03
672.91	14.04
673.05	23.41
673.19	128.73
673.33	49.15
673.47	46.81
673.61	35.11
673.75	37.45
673.89	46.81
674.03	16.38
674.17	56.17
674.31	72.56
674.45	128.73
674.59	0.00
674.73	126.39
674.87	65.54
675.01	53.83
675.15	67.88
675.29	91.28
675.43	56.17
675.56	0.00
675.70	63.19
675.84	30.43
675.98	65.54
676.12	81.92
676.26	0.00
676.40	60.85
676.54	56.17
676.68	9.36
676.82	110.01
676.96	74.90
677.10	102.98
677.23	72.56
677.37	9.36
677.51	51.49
677.65	23.41
677.79	95.96
677.93	67.88
678.07	81.92
678.21	0.00
678.34	72.56
678.48	16.38
678.62	30.43
678.76	4.68
678.90	7.02
679.04	110.01
679.18	67.88
679.31	0.00
679.45	14.04
679.59	49.15
679.73	23.41
679.87	11.70
680.00	65.54
680.14	70.22
680.28	56.17
680.42	23.41
680.56	88.94
680.70	0.00
680.83	9.36
680.97	49.15
681.11	23.41
681.25	60.85
681.39	7.02
681.52	84.26
681.66	67.88
681.80	79.58
681.94	128.73
682.07	23.41
682.21	30.43
682.35	0.00
682.49	65.54
682.62	44.47
682.76	37.45
682.90	0.00
683.04	7.02
683.17	81.92
683.31	72.56
683.45	0.00
683.59	30.43
683.72	32.77
683.86	105.32
684.00	77.24
684.13	86.60
684.27	2.34
684.41	93.62
684.55	79.58
684.68	60.85
684.82	7.02
684.96	86.60
685.09	0.00
685.23	25.75
685.37	9.36
685.50	42.13
685.64	30.43
685.78	25.75
685.91	28.09
686.05	0.00
686.19	0.00
686.32	0.00
686.46	0.00
686.60	11.70
686.73	25.75
686.87	14.04
687.01	72.56
687.14	30.43
687.28	63.19
687.42	28.09
687.55	67.88
687.69	65.54
687.82	14.04
687.96	81.92
688.10	2.34
688.23	25.75
688.37	102.98
688.50	60.85
688.64	30.43
688.78	28.09
688.91	70.22
689.05	67.88
689.18	14.04
689.32	95.96
689.46	0.00
689.59	79.58
689.73	63.19
689.86	37.45
690.00	11.70
690.13	9.36
690.27	4.68
690.41	0.00
690.54	51.49
690.68	49.15
690.81	67.88
690.95	28.09
691.08	98.30
691.22	0.00
691.35	65.54
691.49	100.64
691.62	0.00
691.76	39.79
691.89	35.11
692.03	21.06
692.16	77.24
692.30	58.51
692.43	126.39
692.57	28.09
692.70	39.79
692.84	11.70
692.97	11.70
693.11	9.36
693.24	44.47
693.38	16.38
693.51	23.41
693.65	37.45
693.78	0.00
693.92	49.15
694.05	16.38
694.19	44.47
694.32	9.36
694.45	35.11
694.59	0.00
694.72	63.19
694.86	49.15
694.99	18.72
695.13	56.17
695.26	60.85
695.39	7.02
695.53	91.28
695.66	35.11
695.80	0.00
695.93	56.17
696.07	51.49
696.20	39.79
696.33	74.90
696.47	16.38
696.60	39.79
696.73	95.96
696.87	9.36
697.00	30.43
697.14	0.00
697.27	70.22
697.40	107.66
697.54	93.62
697.67	16.38
697.80	0.00
697.94	0.00
698.07	56.17
698.21	0.00
698.34	56.17
698.47	131.07
698.61	0.00
698.74	46.81
698.87	79.58
699.01	39.79
699.14	25.75
699.27	0.00
699.40	30.43
699.54	88.94
699.67	72.56
699.80	65.54
699.94	25.75
700.07	60.85
700.20	81.92
700.34	28.09
700.47	72.56
700.60	25.75
700.73	30.43
700.87	37.45
701.00	0.00
701.13	0.00
701.26	84.26
701.40	72.56
701.53	23.41
701.66	81.92
701.79	84.26
701.93	0.00
702.06	28.09
702.19	0.00
702.32	30.43
702.46	7.02
702.59	35.11
702.72	28.09
702.85	4.68
702.99	21.06
703.12	4.68
703.25	49.15
703.38	32.77
703.51	93.62
703.65	16.38
703.78	74.90
703.91	0.00
704.04	0.00
704.17	18.72
704.31	105.32
704.44	42.13
704.57	46.81
704.70	18.72
704.83	46.81
704.96	67.88
705.10	65.54
705.23	37.45
>>>>>End Processed Spectral Data<<<<<
