SpectraSuite Data File
++++++++++++++++++++++++++++++++++++
Date: Fri Oct 04 12:13:39 GMT-05:00 2013
User: price-jones
Dark Spectrum Present: No
Reference Spectrum Present: No
Number of Sampled Component Spectra: 1
Spectrometers: USB2+H05261
Integration Time (usec): 10000 (USB2+H05261)
Spectra Averaged: 1 (USB2+H05261)
Boxcar Smoothing: 0 (USB2+H05261)
Correct for Electrical Dark: No (USB2+H05261)
Strobe/Lamp Enabled: No (USB2+H05261)
Correct for Detector Non-linearity: No (USB2+H05261)
Correct for Stray Light: No (USB2+H05261)
Number of Pixels in Processed Spectrum: 2048
>>>>>Begin Processed Spectral Data<<<<<
365.73	16.38
365.92	16.38
366.12	16.38
366.32	0.00
366.52	0.00
366.72	0.00
366.91	0.00
367.11	0.00
367.31	0.00
367.51	0.00
367.70	0.00
367.90	0.00
368.10	0.00
368.30	0.00
368.49	0.00
368.69	0.00
368.89	0.00
369.09	0.00
369.28	0.00
369.48	0.00
369.68	0.00
369.87	0.00
370.07	0.00
370.27	0.00
370.47	0.00
370.66	0.00
370.86	0.00
371.06	0.00
371.25	7.02
371.45	0.00
371.65	37.45
371.84	0.00
372.04	2.34
372.24	35.11
372.44	23.41
372.63	35.11
372.83	0.00
373.03	9.36
373.22	0.00
373.42	23.41
373.62	0.00
373.81	60.85
374.01	58.51
374.21	2.34
374.40	51.49
374.60	0.00
374.79	0.00
374.99	105.32
375.19	51.49
375.38	56.17
375.58	86.60
375.78	16.38
375.97	0.00
376.17	21.06
376.37	35.11
376.56	51.49
376.76	37.45
376.95	0.00
377.15	77.24
377.35	11.70
377.54	51.49
377.74	0.00
377.93	51.49
378.13	98.30
378.33	91.28
378.52	0.00
378.72	21.06
378.91	23.41
379.11	0.00
379.31	0.00
379.50	88.94
379.70	63.19
379.89	9.36
380.09	16.38
380.28	88.94
380.48	0.00
380.68	2.34
380.87	39.79
381.07	14.04
381.26	95.96
381.46	0.00
381.65	28.09
381.85	63.19
382.04	23.41
382.24	44.47
382.43	32.77
382.63	21.06
382.83	0.00
383.02	21.06
383.22	49.15
383.41	0.00
383.61	0.00
383.80	7.02
384.00	60.85
384.19	0.00
384.39	25.75
384.58	7.02
384.78	44.47
384.97	7.02
385.17	0.00
385.36	9.36
385.56	91.28
385.75	0.00
385.95	32.77
386.14	30.43
386.34	2.34
386.53	0.00
386.72	51.49
386.92	0.00
387.11	0.00
387.31	58.51
387.50	9.36
387.70	25.75
387.89	0.00
388.09	0.00
388.28	0.00
388.48	46.81
388.67	0.00
388.86	81.92
389.06	32.77
389.25	0.00
389.45	37.45
389.64	14.04
389.84	0.00
390.03	4.68
390.22	39.79
390.42	0.00
390.61	2.34
390.81	46.81
391.00	35.11
391.19	39.79
391.39	30.43
391.58	49.15
391.78	0.00
391.97	0.00
392.16	0.00
392.36	0.00
392.55	30.43
392.75	0.00
392.94	25.75
393.13	7.02
393.33	0.00
393.52	63.19
393.71	91.28
393.91	4.68
394.10	67.88
394.29	0.00
394.49	25.75
394.68	58.51
394.88	0.00
395.07	7.02
395.26	30.43
395.46	16.38
395.65	0.00
395.84	79.58
396.04	0.00
396.23	28.09
396.42	58.51
396.62	39.79
396.81	14.04
397.00	67.88
397.19	16.38
397.39	0.00
397.58	0.00
397.77	100.64
397.97	56.17
398.16	4.68
398.35	9.36
398.55	28.09
398.74	91.28
398.93	95.96
399.12	7.02
399.32	23.41
399.51	0.00
399.70	86.60
399.90	46.81
400.09	0.00
400.28	16.38
400.47	0.00
400.67	105.32
400.86	4.68
401.05	14.04
401.24	44.47
401.44	42.13
401.63	2.34
401.82	18.72
402.01	79.58
402.21	11.70
402.40	32.77
402.59	88.94
402.78	28.09
402.97	7.02
403.17	18.72
403.36	46.81
403.55	107.66
403.74	105.32
403.93	67.88
404.13	0.00
404.32	18.72
404.51	56.17
404.70	100.64
404.89	0.00
405.09	79.58
405.28	11.70
405.47	53.83
405.66	0.00
405.85	35.11
406.05	67.88
406.24	23.41
406.43	30.43
406.62	25.75
406.81	16.38
407.00	7.02
407.20	2.34
407.39	79.58
407.58	65.54
407.77	32.77
407.96	49.15
408.15	70.22
408.34	32.77
408.54	37.45
408.73	46.81
408.92	0.00
409.11	0.00
409.30	11.70
409.49	60.85
409.68	67.88
409.87	21.06
410.07	25.75
410.26	105.32
410.45	9.36
410.64	58.51
410.83	0.00
411.02	28.09
411.21	91.28
411.40	2.34
411.59	46.81
411.78	0.00
411.98	23.41
412.17	51.49
412.36	42.13
412.55	53.83
412.74	67.88
412.93	32.77
413.12	14.04
413.31	37.45
413.50	28.09
413.69	0.00
413.88	70.22
414.07	0.00
414.26	79.58
414.45	0.00
414.64	14.04
414.83	65.54
415.02	72.56
415.22	126.39
415.41	23.41
415.60	0.00
415.79	51.49
415.98	0.00
416.17	88.94
416.36	56.17
416.55	51.49
416.74	11.70
416.93	70.22
417.12	2.34
417.31	81.92
417.50	32.77
417.69	23.41
417.88	63.19
418.07	35.11
418.26	32.77
418.45	58.51
418.64	25.75
418.83	112.35
419.02	67.88
419.21	18.72
419.39	16.38
419.58	98.30
419.77	28.09
419.96	23.41
420.15	53.83
420.34	53.83
420.53	0.00
420.72	21.06
420.91	35.11
421.10	7.02
421.29	0.00
421.48	0.00
421.67	0.00
421.86	35.11
422.05	110.01
422.24	42.13
422.43	56.17
422.61	0.00
422.80	35.11
422.99	72.56
423.18	0.00
423.37	23.41
423.56	28.09
423.75	2.34
423.94	0.00
424.13	14.04
424.32	0.00
424.50	39.79
424.69	16.38
424.88	30.43
425.07	32.77
425.26	51.49
425.45	28.09
425.64	84.26
425.83	9.36
426.01	67.88
426.20	58.51
426.39	67.88
426.58	0.00
426.77	53.83
426.96	16.38
427.15	39.79
427.33	42.13
427.52	0.00
427.71	37.45
427.90	0.00
428.09	98.30
428.28	42.13
428.46	0.00
428.65	11.70
428.84	23.41
429.03	72.56
429.22	46.81
429.40	119.37
429.59	51.49
429.78	67.88
429.97	0.00
430.16	88.94
430.34	16.38
430.53	35.11
430.72	56.17
430.91	23.41
431.10	79.58
431.28	67.88
431.47	9.36
431.66	56.17
431.85	67.88
432.03	98.30
432.22	58.51
432.41	0.00
432.60	51.49
432.79	110.01
432.97	37.45
433.16	117.03
433.35	0.00
433.54	0.00
433.72	7.02
433.91	0.00
434.10	49.15
434.28	30.43
434.47	70.22
434.66	51.49
434.85	84.26
435.03	23.41
435.22	60.85
435.41	86.60
435.59	28.09
435.78	7.02
435.97	81.92
436.16	70.22
436.34	65.54
436.53	16.38
436.72	93.62
436.90	112.35
437.09	91.28
437.28	88.94
437.46	21.06
437.65	70.22
437.84	0.00
438.02	51.49
438.21	91.28
438.40	0.00
438.58	16.38
438.77	0.00
438.96	49.15
439.14	74.90
439.33	51.49
439.52	0.00
439.70	72.56
439.89	119.37
440.08	35.11
440.26	9.36
440.45	124.05
440.63	37.45
440.82	65.54
441.01	42.13
441.19	63.19
441.38	56.17
441.57	16.38
441.75	39.79
441.94	65.54
442.12	44.47
442.31	56.17
442.50	56.17
442.68	95.96
442.87	37.45
443.05	0.00
443.24	67.88
443.43	0.00
443.61	23.41
443.80	107.66
443.98	39.79
444.17	67.88
444.35	49.15
444.54	74.90
444.73	65.54
444.91	65.54
445.10	126.39
445.28	9.36
445.47	77.24
445.65	9.36
445.84	58.51
446.02	56.17
446.21	91.28
446.39	18.72
446.58	84.26
446.77	0.00
446.95	65.54
447.14	53.83
447.32	42.13
447.51	21.06
447.69	30.43
447.88	28.09
448.06	58.51
448.25	32.77
448.43	42.13
448.62	0.00
448.80	30.43
448.99	72.56
449.17	7.02
449.36	112.35
449.54	28.09
449.73	0.00
449.91	44.47
450.10	107.66
450.28	32.77
450.46	14.04
450.65	0.00
450.83	72.56
451.02	46.81
451.20	65.54
451.39	67.88
451.57	11.70
451.76	140.43
451.94	25.75
452.13	67.88
452.31	79.58
452.49	28.09
452.68	65.54
452.86	74.90
453.05	72.56
453.23	102.98
453.42	60.85
453.60	11.70
453.78	28.09
453.97	81.92
454.15	0.00
454.34	79.58
454.52	86.60
454.70	63.19
454.89	49.15
455.07	70.22
455.26	58.51
455.44	25.75
455.62	9.36
455.81	51.49
455.99	25.75
456.17	100.64
456.36	81.92
456.54	46.81
456.73	30.43
456.91	102.98
457.09	2.34
457.28	114.69
457.46	49.15
457.64	56.17
457.83	67.88
458.01	18.72
458.19	21.06
458.38	58.51
458.56	37.45
458.74	51.49
458.93	25.75
459.11	0.00
459.29	37.45
459.48	60.85
459.66	77.24
459.84	56.17
460.03	84.26
460.21	60.85
460.39	51.49
460.57	56.17
460.76	7.02
460.94	95.96
461.12	49.15
461.31	39.79
461.49	105.32
461.67	51.49
461.85	67.88
462.04	23.41
462.22	100.64
462.40	56.17
462.59	70.22
462.77	84.26
462.95	51.49
463.13	77.24
463.32	21.06
463.50	2.34
463.68	98.30
463.86	65.54
464.05	46.81
464.23	25.75
464.41	56.17
464.59	72.56
464.78	63.19
464.96	53.83
465.14	56.17
465.32	30.43
465.50	9.36
465.69	91.28
465.87	16.38
466.05	72.56
466.23	18.72
466.41	91.28
466.60	42.13
466.78	53.83
466.96	84.26
467.14	0.00
467.32	0.00
467.51	30.43
467.69	102.98
467.87	60.85
468.05	0.00
468.23	44.47
468.41	49.15
468.60	35.11
468.78	7.02
468.96	88.94
469.14	110.01
469.32	37.45
469.50	140.43
469.69	95.96
469.87	84.26
470.05	74.90
470.23	65.54
470.41	11.70
470.59	30.43
470.77	93.62
470.95	9.36
471.14	49.15
471.32	30.43
471.50	98.30
471.68	0.00
471.86	32.77
472.04	39.79
472.22	28.09
472.40	0.00
472.58	74.90
472.77	42.13
472.95	37.45
473.13	65.54
473.31	46.81
473.49	84.26
473.67	79.58
473.85	72.56
474.03	86.60
474.21	121.71
474.39	93.62
474.57	60.85
474.75	56.17
474.93	7.02
475.12	16.38
475.30	91.28
475.48	70.22
475.66	93.62
475.84	30.43
476.02	46.81
476.20	0.00
476.38	25.75
476.56	21.06
476.74	79.58
476.92	117.03
477.10	77.24
477.28	58.51
477.46	53.83
477.64	65.54
477.82	100.64
478.00	7.02
478.18	42.13
478.36	124.05
478.54	49.15
478.72	67.88
478.90	0.00
479.08	67.88
479.26	21.06
479.44	14.04
479.62	135.75
479.80	105.32
479.98	7.02
480.16	74.90
480.34	0.00
480.52	74.90
480.70	70.22
480.88	23.41
481.06	18.72
481.24	60.85
481.41	32.77
481.59	86.60
481.77	112.35
481.95	95.96
482.13	0.00
482.31	46.81
482.49	107.66
482.67	32.77
482.85	7.02
483.03	16.38
483.21	11.70
483.39	91.28
483.57	93.62
483.74	67.88
483.92	74.90
484.10	79.58
484.28	95.96
484.46	21.06
484.64	93.62
484.82	56.17
485.00	46.81
485.18	42.13
485.35	126.39
485.53	42.13
485.71	28.09
485.89	74.90
486.07	65.54
486.25	7.02
486.43	21.06
486.61	154.48
486.78	60.85
486.96	86.60
487.14	65.54
487.32	91.28
487.50	49.15
487.68	95.96
487.85	72.56
488.03	2.34
488.21	74.90
488.39	32.77
488.57	105.32
488.75	77.24
488.92	105.32
489.10	112.35
489.28	93.62
489.46	121.71
489.64	98.30
489.81	11.70
489.99	88.94
490.17	39.79
490.35	119.37
490.53	58.51
490.70	112.35
490.88	46.81
491.06	81.92
491.24	37.45
491.41	63.19
491.59	91.28
491.77	119.37
491.95	121.71
492.13	7.02
492.30	81.92
492.48	79.58
492.66	39.79
492.84	100.64
493.01	138.09
493.19	28.09
493.37	53.83
493.54	56.17
493.72	86.60
493.90	56.17
494.08	84.26
494.25	14.04
494.43	112.35
494.61	70.22
494.79	35.11
494.96	51.49
495.14	44.47
495.32	74.90
495.49	53.83
495.67	77.24
495.85	60.85
496.02	147.45
496.20	124.05
496.38	107.66
496.55	65.54
496.73	63.19
496.91	93.62
497.09	70.22
497.26	105.32
497.44	131.07
497.62	133.41
497.79	140.43
497.97	44.47
498.14	126.39
498.32	53.83
498.50	0.00
498.67	44.47
498.85	84.26
499.03	65.54
499.20	79.58
499.38	58.51
499.56	81.92
499.73	100.64
499.91	105.32
500.08	105.32
500.26	86.60
500.44	81.92
500.61	142.77
500.79	51.49
500.97	63.19
501.14	58.51
501.32	119.37
501.49	114.69
501.67	35.11
501.84	98.30
502.02	117.03
502.20	74.90
502.37	93.62
502.55	77.24
502.72	23.41
502.90	30.43
503.07	21.06
503.25	84.26
503.43	46.81
503.60	58.51
503.78	84.26
503.95	107.66
504.13	21.06
504.30	114.69
504.48	126.39
504.65	53.83
504.83	145.11
505.01	86.60
505.18	114.69
505.36	77.24
505.53	49.15
505.71	49.15
505.88	98.30
506.06	56.17
506.23	149.79
506.41	84.26
506.58	84.26
506.76	44.47
506.93	110.01
507.11	25.75
507.28	53.83
507.46	58.51
507.63	25.75
507.81	93.62
507.98	107.66
508.16	140.43
508.33	138.09
508.50	110.01
508.68	98.30
508.85	37.45
509.03	77.24
509.20	65.54
509.38	98.30
509.55	72.56
509.73	70.22
509.90	100.64
510.08	156.82
510.25	74.90
510.42	88.94
510.60	102.98
510.77	135.75
510.95	114.69
511.12	117.03
511.30	119.37
511.47	0.00
511.64	124.05
511.82	72.56
511.99	60.85
512.17	119.37
512.34	159.16
512.51	138.09
512.69	58.51
512.86	102.98
513.04	28.09
513.21	18.72
513.38	117.03
513.56	88.94
513.73	112.35
513.90	65.54
514.08	74.90
514.25	79.58
514.43	98.30
514.60	72.56
514.77	93.62
514.95	79.58
515.12	84.26
515.29	65.54
515.47	93.62
515.64	133.41
515.81	70.22
515.99	65.54
516.16	95.96
516.33	28.09
516.51	35.11
516.68	119.37
516.85	100.64
517.03	44.47
517.20	147.45
517.37	98.30
517.54	126.39
517.72	161.50
517.89	79.58
518.06	4.68
518.24	147.45
518.41	135.75
518.58	51.49
518.75	28.09
518.93	0.00
519.10	65.54
519.27	121.71
519.45	72.56
519.62	91.28
519.79	135.75
519.96	11.70
520.14	14.04
520.31	65.54
520.48	60.85
520.65	70.22
520.83	79.58
521.00	102.98
521.17	175.54
521.34	88.94
521.52	126.39
521.69	105.32
521.86	98.30
522.03	84.26
522.20	86.60
522.38	105.32
522.55	44.47
522.72	72.56
522.89	112.35
523.07	77.24
523.24	51.49
523.41	100.64
523.58	121.71
523.75	53.83
523.92	84.26
524.10	77.24
524.27	53.83
524.44	84.26
524.61	86.60
524.78	28.09
524.96	63.19
525.13	63.19
525.30	51.49
525.47	93.62
525.64	49.15
525.81	77.24
525.98	107.66
526.16	74.90
526.33	58.51
526.50	135.75
526.67	93.62
526.84	58.51
527.01	77.24
527.18	91.28
527.36	60.85
527.53	77.24
527.70	74.90
527.87	93.62
528.04	119.37
528.21	42.13
528.38	53.83
528.55	53.83
528.72	91.28
528.89	70.22
529.07	105.32
529.24	105.32
529.41	63.19
529.58	124.05
529.75	119.37
529.92	72.56
530.09	70.22
530.26	79.58
530.43	67.88
530.60	112.35
530.77	81.92
530.94	114.69
531.11	100.64
531.28	58.51
531.46	126.39
531.63	79.58
531.80	84.26
531.97	30.43
532.14	37.45
532.31	168.52
532.48	88.94
532.65	9.36
532.82	161.50
532.99	42.13
533.16	0.00
533.33	166.18
533.50	107.66
533.67	91.28
533.84	9.36
534.01	126.39
534.18	81.92
534.35	138.09
534.52	37.45
534.69	93.62
534.86	93.62
535.03	147.45
535.20	114.69
535.37	44.47
535.54	72.56
535.71	74.90
535.88	121.71
536.05	180.22
536.22	37.45
536.38	84.26
536.55	30.43
536.72	110.01
536.89	100.64
537.06	74.90
537.23	149.79
537.40	21.06
537.57	126.39
537.74	112.35
537.91	42.13
538.08	53.83
538.25	126.39
538.42	63.19
538.59	56.17
538.75	28.09
538.92	145.11
539.09	56.17
539.26	93.62
539.43	39.79
539.60	133.41
539.77	117.03
539.94	102.98
540.11	110.01
540.28	114.69
540.44	95.96
540.61	42.13
540.78	77.24
540.95	74.90
541.12	84.26
541.29	117.03
541.46	117.03
541.62	121.71
541.79	30.43
541.96	35.11
542.13	49.15
542.30	86.60
542.47	100.64
542.63	49.15
542.80	65.54
542.97	77.24
543.14	65.54
543.31	86.60
543.48	152.13
543.64	37.45
543.81	81.92
543.98	147.45
544.15	70.22
544.32	142.77
544.48	102.98
544.65	168.52
544.82	93.62
544.99	25.75
545.16	88.94
545.32	49.15
545.49	140.43
545.66	81.92
545.83	63.19
546.00	77.24
546.16	128.73
546.33	28.09
546.50	37.45
546.67	117.03
546.83	138.09
547.00	58.51
547.17	51.49
547.34	159.16
547.50	133.41
547.67	168.52
547.84	0.00
548.00	58.51
548.17	93.62
548.34	46.81
548.51	105.32
548.67	63.19
548.84	93.62
549.01	25.75
549.18	65.54
549.34	126.39
549.51	100.64
549.68	25.75
549.84	110.01
550.01	32.77
550.18	168.52
550.34	128.73
550.51	72.56
550.68	60.85
550.84	65.54
551.01	72.56
551.18	124.05
551.34	86.60
551.51	25.75
551.68	67.88
551.84	133.41
552.01	16.38
552.18	95.96
552.34	86.60
552.51	0.00
552.68	117.03
552.84	95.96
553.01	84.26
553.18	95.96
553.34	72.56
553.51	37.45
553.67	86.60
553.84	121.71
554.01	102.98
554.17	84.26
554.34	121.71
554.51	84.26
554.67	121.71
554.84	81.92
555.00	79.58
555.17	51.49
555.33	60.85
555.50	161.50
555.67	84.26
555.83	110.01
556.00	98.30
556.16	133.41
556.33	110.01
556.50	70.22
556.66	166.18
556.83	46.81
556.99	110.01
557.16	107.66
557.32	105.32
557.49	145.11
557.65	100.64
557.82	70.22
557.98	114.69
558.15	51.49
558.32	107.66
558.48	0.00
558.65	91.28
558.81	79.58
558.98	11.70
559.14	119.37
559.31	91.28
559.47	117.03
559.64	42.13
559.80	53.83
559.97	0.00
560.13	133.41
560.30	7.02
560.46	91.28
560.63	88.94
560.79	86.60
560.96	60.85
561.12	70.22
561.29	79.58
561.45	98.30
561.61	112.35
561.78	0.00
561.94	86.60
562.11	72.56
562.27	114.69
562.44	100.64
562.60	37.45
562.77	95.96
562.93	30.43
563.10	166.18
563.26	114.69
563.42	81.92
563.59	58.51
563.75	9.36
563.92	23.41
564.08	93.62
564.24	131.07
564.41	56.17
564.57	77.24
564.74	156.82
564.90	95.96
565.07	131.07
565.23	138.09
565.39	51.49
565.56	182.56
565.72	74.90
565.88	110.01
566.05	0.00
566.21	65.54
566.38	60.85
566.54	180.22
566.70	126.39
566.87	100.64
567.03	105.32
567.19	126.39
567.36	53.83
567.52	105.32
567.68	9.36
567.85	81.92
568.01	49.15
568.17	60.85
568.34	110.01
568.50	70.22
568.66	23.41
568.83	72.56
568.99	98.30
569.15	84.26
569.32	131.07
569.48	77.24
569.64	128.73
569.81	79.58
569.97	110.01
570.13	88.94
570.30	39.79
570.46	131.07
570.62	91.28
570.78	93.62
570.95	72.56
571.11	84.26
571.27	37.45
571.43	23.41
571.60	95.96
571.76	42.13
571.92	114.69
572.09	37.45
572.25	95.96
572.41	16.38
572.57	77.24
572.74	114.69
572.90	70.22
573.06	161.50
573.22	37.45
573.38	65.54
573.55	0.00
573.71	126.39
573.87	126.39
574.03	84.26
574.20	72.56
574.36	51.49
574.52	70.22
574.68	84.26
574.84	119.37
575.01	91.28
575.17	9.36
575.33	63.19
575.49	107.66
575.65	37.45
575.82	121.71
575.98	105.32
576.14	28.09
576.30	98.30
576.46	95.96
576.62	117.03
576.79	65.54
576.95	84.26
577.11	121.71
577.27	124.05
577.43	114.69
577.59	112.35
577.75	79.58
577.92	56.17
578.08	145.11
578.24	124.05
578.40	70.22
578.56	86.60
578.72	79.58
578.88	84.26
579.04	11.70
579.21	105.32
579.37	126.39
579.53	77.24
579.69	107.66
579.85	74.90
580.01	0.00
580.17	119.37
580.33	25.75
580.49	16.38
580.65	95.96
580.82	107.66
580.98	105.32
581.14	105.32
581.30	91.28
581.46	65.54
581.62	114.69
581.78	25.75
581.94	98.30
582.10	39.79
582.26	128.73
582.42	124.05
582.58	81.92
582.74	65.54
582.90	95.96
583.06	163.84
583.22	98.30
583.38	117.03
583.54	105.32
583.70	86.60
583.86	60.85
584.02	86.60
584.18	159.16
584.34	65.54
584.50	91.28
584.66	77.24
584.82	18.72
584.98	23.41
585.14	49.15
585.30	100.64
585.46	67.88
585.62	105.32
585.78	93.62
585.94	46.81
586.10	107.66
586.26	56.17
586.42	56.17
586.58	74.90
586.74	49.15
586.90	72.56
587.06	138.09
587.22	128.73
587.38	95.96
587.54	86.60
587.70	67.88
587.86	77.24
588.02	117.03
588.18	51.49
588.34	72.56
588.49	114.69
588.65	56.17
588.81	0.00
588.97	67.88
589.13	4.68
589.29	0.00
589.45	35.11
589.61	18.72
589.77	32.77
589.93	44.47
590.08	51.49
590.24	88.94
590.40	98.30
590.56	67.88
590.72	21.06
590.88	7.02
591.04	91.28
591.20	53.83
591.35	86.60
591.51	95.96
591.67	102.98
591.83	95.96
591.99	30.43
592.15	65.54
592.31	107.66
592.46	74.90
592.62	67.88
592.78	72.56
592.94	86.60
593.10	72.56
593.26	88.94
593.41	100.64
593.57	65.54
593.73	0.00
593.89	58.51
594.05	102.98
594.20	84.26
594.36	91.28
594.52	112.35
594.68	117.03
594.84	7.02
594.99	77.24
595.15	88.94
595.31	110.01
595.47	58.51
595.62	70.22
595.78	74.90
595.94	23.41
596.10	79.58
596.25	51.49
596.41	28.09
596.57	102.98
596.73	102.98
596.88	56.17
597.04	39.79
597.20	14.04
597.36	77.24
597.51	110.01
597.67	74.90
597.83	77.24
597.99	11.70
598.14	14.04
598.30	65.54
598.46	32.77
598.61	84.26
598.77	23.41
598.93	46.81
599.09	2.34
599.24	32.77
599.40	149.79
599.56	126.39
599.71	16.38
599.87	42.13
600.03	0.00
600.18	112.35
600.34	88.94
600.50	117.03
600.65	72.56
600.81	70.22
600.97	84.26
601.12	44.47
601.28	84.26
601.44	60.85
601.59	88.94
601.75	51.49
601.91	91.28
602.06	70.22
602.22	46.81
602.37	72.56
602.53	28.09
602.69	128.73
602.84	51.49
603.00	60.85
603.16	37.45
603.31	16.38
603.47	100.64
603.62	67.88
603.78	117.03
603.94	65.54
604.09	49.15
604.25	91.28
604.40	0.00
604.56	105.32
604.71	42.13
604.87	72.56
605.03	79.58
605.18	65.54
605.34	131.07
605.49	21.06
605.65	84.26
605.80	88.94
605.96	91.28
606.12	121.71
606.27	49.15
606.43	30.43
606.58	51.49
606.74	28.09
606.89	51.49
607.05	28.09
607.20	70.22
607.36	95.96
607.51	37.45
607.67	110.01
607.82	126.39
607.98	107.66
608.13	11.70
608.29	44.47
608.44	84.26
608.60	25.75
608.75	37.45
608.91	86.60
609.06	79.58
609.22	16.38
609.37	37.45
609.53	44.47
609.68	110.01
609.84	77.24
609.99	95.96
610.15	88.94
610.30	28.09
610.46	107.66
610.61	145.11
610.76	46.81
610.92	72.56
611.07	28.09
611.23	49.15
611.38	74.90
611.54	86.60
611.69	114.69
611.84	60.85
612.00	93.62
612.15	60.85
612.31	70.22
612.46	42.13
612.62	67.88
612.77	102.98
612.92	128.73
613.08	37.45
613.23	74.90
613.39	35.11
613.54	30.43
613.69	107.66
613.85	25.75
614.00	14.04
614.15	81.92
614.31	30.43
614.46	0.00
614.62	98.30
614.77	53.83
614.92	49.15
615.08	67.88
615.23	58.51
615.38	35.11
615.54	86.60
615.69	42.13
615.84	0.00
616.00	65.54
616.15	133.41
616.30	67.88
616.46	14.04
616.61	60.85
616.76	117.03
616.92	56.17
617.07	0.00
617.22	74.90
617.37	102.98
617.53	35.11
617.68	32.77
617.83	102.98
617.99	67.88
618.14	37.45
618.29	16.38
618.45	65.54
618.60	37.45
618.75	107.66
618.90	9.36
619.06	49.15
619.21	28.09
619.36	0.00
619.51	49.15
619.67	2.34
619.82	30.43
619.97	0.00
620.12	119.37
620.28	39.79
620.43	93.62
620.58	91.28
620.73	39.79
620.89	39.79
621.04	86.60
621.19	128.73
621.34	32.77
621.49	100.64
621.65	42.13
621.80	86.60
621.95	67.88
622.10	77.24
622.25	95.96
622.41	9.36
622.56	107.66
622.71	131.07
622.86	72.56
623.01	105.32
623.16	4.68
623.32	70.22
623.47	102.98
623.62	25.75
623.77	156.82
623.92	65.54
624.07	39.79
624.23	51.49
624.38	105.32
624.53	65.54
624.68	112.35
624.83	58.51
624.98	74.90
625.13	145.11
625.29	117.03
625.44	65.54
625.59	95.96
625.74	51.49
625.89	0.00
626.04	0.00
626.19	63.19
626.34	44.47
626.49	32.77
626.65	126.39
626.80	74.90
626.95	86.60
627.10	56.17
627.25	79.58
627.40	46.81
627.55	95.96
627.70	77.24
627.85	9.36
628.00	18.72
628.15	51.49
628.30	46.81
628.45	114.69
628.60	63.19
628.76	84.26
628.91	35.11
629.06	91.28
629.21	145.11
629.36	100.64
629.51	39.79
629.66	65.54
629.81	35.11
629.96	32.77
630.11	81.92
630.26	72.56
630.41	56.17
630.56	102.98
630.71	42.13
630.86	49.15
631.01	25.75
631.16	98.30
631.31	21.06
631.46	4.68
631.61	28.09
631.76	32.77
631.91	4.68
632.06	30.43
632.21	32.77
632.36	53.83
632.51	102.98
632.66	56.17
632.81	131.07
632.96	46.81
633.10	91.28
633.25	138.09
633.40	100.64
633.55	18.72
633.70	98.30
633.85	42.13
634.00	18.72
634.15	65.54
634.30	65.54
634.45	25.75
634.60	98.30
634.75	93.62
634.90	102.98
635.05	7.02
635.19	63.19
635.34	91.28
635.49	0.00
635.64	51.49
635.79	25.75
635.94	86.60
636.09	98.30
636.24	72.56
636.39	0.00
636.53	63.19
636.68	63.19
636.83	100.64
636.98	84.26
637.13	110.01
637.28	65.54
637.43	14.04
637.57	14.04
637.72	91.28
637.87	28.09
638.02	67.88
638.17	32.77
638.32	126.39
638.46	86.60
638.61	107.66
638.76	56.17
638.91	67.88
639.06	145.11
639.20	60.85
639.35	58.51
639.50	21.06
639.65	74.90
639.80	67.88
639.94	0.00
640.09	2.34
640.24	74.90
640.39	84.26
640.54	42.13
640.68	79.58
640.83	39.79
640.98	28.09
641.13	105.32
641.27	138.09
641.42	88.94
641.57	39.79
641.72	51.49
641.86	9.36
642.01	72.56
642.16	49.15
642.31	77.24
642.45	0.00
642.60	0.00
642.75	51.49
642.90	58.51
643.04	0.00
643.19	28.09
643.34	4.68
643.48	35.11
643.63	35.11
643.78	105.32
643.93	65.54
644.07	18.72
644.22	42.13
644.37	49.15
644.51	88.94
644.66	65.54
644.81	0.00
644.95	105.32
645.10	84.26
645.25	98.30
645.39	14.04
645.54	30.43
645.69	42.13
645.83	72.56
645.98	88.94
646.13	0.00
646.27	95.96
646.42	88.94
646.57	93.62
646.71	81.92
646.86	105.32
647.00	28.09
647.15	88.94
647.30	30.43
647.44	32.77
647.59	42.13
647.74	39.79
647.88	84.26
648.03	37.45
648.17	2.34
648.32	14.04
648.47	32.77
648.61	37.45
648.76	53.83
648.90	37.45
649.05	0.00
649.20	79.58
649.34	0.00
649.49	0.00
649.63	39.79
649.78	0.00
649.92	98.30
650.07	65.54
650.21	63.19
650.36	32.77
650.51	2.34
650.65	86.60
650.80	65.54
650.94	16.38
651.09	81.92
651.23	42.13
651.38	51.49
651.52	121.71
651.67	79.58
651.81	37.45
651.96	86.60
652.10	98.30
652.25	100.64
652.39	44.47
652.54	39.79
652.68	70.22
652.83	39.79
652.97	0.00
653.12	42.13
653.26	28.09
653.41	60.85
653.55	65.54
653.70	98.30
653.84	74.90
653.99	0.00
654.13	0.00
654.27	0.00
654.42	0.00
654.56	81.92
654.71	0.00
654.85	112.35
655.00	46.81
655.14	72.56
655.29	67.88
655.43	77.24
655.57	37.45
655.72	81.92
655.86	49.15
656.01	70.22
656.15	30.43
656.30	67.88
656.44	18.72
656.58	63.19
656.73	51.49
656.87	126.39
657.01	0.00
657.16	4.68
657.30	95.96
657.45	0.00
657.59	98.30
657.73	84.26
657.88	63.19
658.02	77.24
658.16	88.94
658.31	14.04
658.45	117.03
658.60	0.00
658.74	21.06
658.88	114.69
659.03	93.62
659.17	126.39
659.31	49.15
659.46	2.34
659.60	95.96
659.74	79.58
659.89	0.00
660.03	16.38
660.17	79.58
660.32	110.01
660.46	91.28
660.60	81.92
660.74	95.96
660.89	98.30
661.03	102.98
661.17	60.85
661.32	0.00
661.46	100.64
661.60	60.85
661.74	49.15
661.89	28.09
662.03	72.56
662.17	42.13
662.31	74.90
662.46	35.11
662.60	102.98
662.74	37.45
662.88	67.88
663.03	53.83
663.17	0.00
663.31	0.00
663.45	91.28
663.60	49.15
663.74	93.62
663.88	70.22
664.02	65.54
664.17	37.45
664.31	79.58
664.45	0.00
664.59	37.45
664.73	42.13
664.88	44.47
665.02	0.00
665.16	21.06
665.30	88.94
665.44	23.41
665.59	119.37
665.73	0.00
665.87	28.09
666.01	58.51
666.15	14.04
666.29	98.30
666.44	44.47
666.58	53.83
666.72	39.79
666.86	7.02
667.00	0.00
667.14	119.37
667.28	0.00
667.43	0.00
667.57	35.11
667.71	39.79
667.85	53.83
667.99	21.06
668.13	28.09
668.27	0.00
668.41	9.36
668.56	53.83
668.70	42.13
668.84	133.41
668.98	135.75
669.12	32.77
669.26	32.77
669.40	79.58
669.54	63.19
669.68	51.49
669.82	37.45
669.96	25.75
670.10	67.88
670.25	9.36
670.39	0.00
670.53	105.32
670.67	51.49
670.81	0.00
670.95	51.49
671.09	0.00
671.23	86.60
671.37	124.05
671.51	81.92
671.65	93.62
671.79	81.92
671.93	93.62
672.07	88.94
672.21	53.83
672.35	46.81
672.49	74.90
672.63	9.36
672.77	60.85
672.91	14.04
673.05	77.24
673.19	42.13
673.33	98.30
673.47	37.45
673.61	53.83
673.75	77.24
673.89	67.88
674.03	74.90
674.17	0.00
674.31	39.79
674.45	0.00
674.59	0.00
674.73	98.30
674.87	72.56
675.01	35.11
675.15	63.19
675.29	39.79
675.43	4.68
675.56	72.56
675.70	67.88
675.84	9.36
675.98	60.85
676.12	4.68
676.26	51.49
676.40	11.70
676.54	86.60
676.68	30.43
676.82	18.72
676.96	77.24
677.10	102.98
677.23	93.62
677.37	4.68
677.51	77.24
677.65	53.83
677.79	100.64
677.93	37.45
678.07	14.04
678.21	0.00
678.34	70.22
678.48	49.15
678.62	93.62
678.76	88.94
678.90	35.11
679.04	86.60
679.18	44.47
679.31	46.81
679.45	9.36
679.59	67.88
679.73	112.35
679.87	28.09
680.00	74.90
680.14	21.06
680.28	0.00
680.42	77.24
680.56	77.24
680.70	0.00
680.83	0.00
680.97	35.11
681.11	65.54
681.25	110.01
681.39	0.00
681.52	42.13
681.66	58.51
681.80	60.85
681.94	88.94
682.07	0.00
682.21	23.41
682.35	46.81
682.49	25.75
682.62	46.81
682.76	98.30
682.90	0.00
683.04	93.62
683.17	16.38
683.31	30.43
683.45	51.49
683.59	46.81
683.72	110.01
683.86	53.83
684.00	0.00
684.13	77.24
684.27	51.49
684.41	65.54
684.55	28.09
684.68	28.09
684.82	79.58
684.96	100.64
685.09	72.56
685.23	72.56
685.37	23.41
685.50	42.13
685.64	28.09
685.78	0.00
685.91	7.02
686.05	16.38
686.19	14.04
686.32	4.68
686.46	51.49
686.60	4.68
686.73	60.85
686.87	46.81
687.01	67.88
687.14	49.15
687.28	0.00
687.42	0.00
687.55	0.00
687.69	56.17
687.82	35.11
687.96	0.00
688.10	39.79
688.23	21.06
688.37	23.41
688.50	32.77
688.64	93.62
688.78	63.19
688.91	0.00
689.05	67.88
689.18	0.00
689.32	98.30
689.46	7.02
689.59	0.00
689.73	37.45
689.86	30.43
690.00	11.70
690.13	77.24
690.27	42.13
690.41	56.17
690.54	100.64
690.68	72.56
690.81	79.58
690.95	53.83
691.08	0.00
691.22	0.00
691.35	32.77
691.49	56.17
691.62	39.79
691.76	39.79
691.89	70.22
692.03	0.00
692.16	32.77
692.30	0.00
692.43	0.00
692.57	79.58
692.70	16.38
692.84	2.34
692.97	112.35
693.11	72.56
693.24	49.15
693.38	77.24
693.51	0.00
693.65	25.75
693.78	44.47
693.92	91.28
694.05	124.05
694.19	16.38
694.32	58.51
694.45	91.28
694.59	21.06
694.72	25.75
694.86	30.43
694.99	46.81
695.13	42.13
695.26	18.72
695.39	0.00
695.53	16.38
695.66	79.58
695.80	86.60
695.93	0.00
696.07	51.49
696.20	32.77
696.33	35.11
696.47	49.15
696.60	16.38
696.73	58.51
696.87	58.51
697.00	42.13
697.14	7.02
697.27	67.88
697.40	53.83
697.54	100.64
697.67	70.22
697.80	44.47
697.94	0.00
698.07	42.13
698.21	72.56
698.34	18.72
698.47	65.54
698.61	11.70
698.74	4.68
698.87	42.13
699.01	0.00
699.14	23.41
699.27	53.83
699.40	16.38
699.54	0.00
699.67	37.45
699.80	35.11
699.94	110.01
700.07	18.72
700.20	51.49
700.34	70.22
700.47	79.58
700.60	107.66
700.73	91.28
700.87	0.00
701.00	2.34
701.13	70.22
701.26	46.81
701.40	65.54
701.53	74.90
701.66	0.00
701.79	0.00
701.93	51.49
702.06	16.38
702.19	46.81
702.32	91.28
702.46	25.75
702.59	0.00
702.72	2.34
702.85	81.92
702.99	9.36
703.12	28.09
703.25	117.03
703.38	51.49
703.51	42.13
703.65	25.75
703.78	0.00
703.91	39.79
704.04	79.58
704.17	60.85
704.31	74.90
704.44	18.72
704.57	70.22
704.70	65.54
704.83	63.19
704.96	93.62
705.10	32.77
705.23	0.00
>>>>>End Processed Spectral Data<<<<<
