SpectraSuite Data File
++++++++++++++++++++++++++++++++++++
Date: Fri Oct 04 12:13:25 GMT-05:00 2013
User: price-jones
Dark Spectrum Present: No
Reference Spectrum Present: No
Number of Sampled Component Spectra: 1
Spectrometers: USB2+H05261
Integration Time (usec): 10000 (USB2+H05261)
Spectra Averaged: 1 (USB2+H05261)
Boxcar Smoothing: 0 (USB2+H05261)
Correct for Electrical Dark: No (USB2+H05261)
Strobe/Lamp Enabled: No (USB2+H05261)
Correct for Detector Non-linearity: No (USB2+H05261)
Correct for Stray Light: No (USB2+H05261)
Number of Pixels in Processed Spectrum: 2048
>>>>>Begin Processed Spectral Data<<<<<
365.73	35.11
365.92	35.11
366.12	35.11
366.32	0.00
366.52	0.00
366.72	0.00
366.91	0.00
367.11	0.00
367.31	0.00
367.51	0.00
367.70	0.00
367.90	0.00
368.10	0.00
368.30	0.00
368.49	0.00
368.69	0.00
368.89	0.00
369.09	0.00
369.28	0.00
369.48	0.00
369.68	0.00
369.87	0.00
370.07	0.00
370.27	0.00
370.47	0.00
370.66	0.00
370.86	0.00
371.06	0.00
371.25	0.00
371.45	0.00
371.65	0.00
371.84	0.00
372.04	32.77
372.24	23.41
372.44	0.00
372.63	0.00
372.83	28.09
373.03	72.56
373.22	0.00
373.42	0.00
373.62	4.68
373.81	51.49
374.01	35.11
374.21	42.13
374.40	32.77
374.60	86.60
374.79	30.43
374.99	32.77
375.19	39.79
375.38	4.68
375.58	42.13
375.78	79.58
375.97	91.28
376.17	0.00
376.37	0.00
376.56	0.00
376.76	32.77
376.95	32.77
377.15	0.00
377.35	7.02
377.54	28.09
377.74	53.83
377.93	0.00
378.13	60.85
378.33	0.00
378.52	0.00
378.72	0.00
378.91	51.49
379.11	32.77
379.31	37.45
379.50	28.09
379.70	0.00
379.89	35.11
380.09	0.00
380.28	0.00
380.48	0.00
380.68	11.70
380.87	7.02
381.07	32.77
381.26	67.88
381.46	7.02
381.65	0.00
381.85	2.34
382.04	56.17
382.24	79.58
382.43	9.36
382.63	30.43
382.83	0.00
383.02	51.49
383.22	53.83
383.41	56.17
383.61	0.00
383.80	98.30
384.00	18.72
384.19	16.38
384.39	67.88
384.58	0.00
384.78	23.41
384.97	72.56
385.17	23.41
385.36	25.75
385.56	0.00
385.75	58.51
385.95	0.00
386.14	28.09
386.34	0.00
386.53	2.34
386.72	16.38
386.92	0.00
387.11	25.75
387.31	0.00
387.50	51.49
387.70	28.09
387.89	70.22
388.09	25.75
388.28	25.75
388.48	77.24
388.67	65.54
388.86	23.41
389.06	44.47
389.25	35.11
389.45	0.00
389.64	0.00
389.84	25.75
390.03	44.47
390.22	0.00
390.42	65.54
390.61	121.71
390.81	58.51
391.00	21.06
391.19	0.00
391.39	0.00
391.58	53.83
391.78	0.00
391.97	42.13
392.16	74.90
392.36	0.00
392.55	58.51
392.75	0.00
392.94	4.68
393.13	0.00
393.33	11.70
393.52	0.00
393.71	32.77
393.91	39.79
394.10	0.00
394.29	2.34
394.49	30.43
394.68	35.11
394.88	0.00
395.07	37.45
395.26	14.04
395.46	0.00
395.65	63.19
395.84	42.13
396.04	91.28
396.23	0.00
396.42	65.54
396.62	2.34
396.81	28.09
397.00	0.00
397.19	0.00
397.39	0.00
397.58	25.75
397.77	32.77
397.97	7.02
398.16	11.70
398.35	0.00
398.55	28.09
398.74	42.13
398.93	105.32
399.12	4.68
399.32	0.00
399.51	39.79
399.70	70.22
399.90	0.00
400.09	46.81
400.28	21.06
400.47	4.68
400.67	9.36
400.86	49.15
401.05	67.88
401.24	21.06
401.44	0.00
401.63	0.00
401.82	0.00
402.01	35.11
402.21	79.58
402.40	56.17
402.59	0.00
402.78	65.54
402.97	2.34
403.17	11.70
403.36	23.41
403.55	39.79
403.74	32.77
403.93	46.81
404.13	18.72
404.32	7.02
404.51	21.06
404.70	44.47
404.89	0.00
405.09	4.68
405.28	39.79
405.47	0.00
405.66	74.90
405.85	23.41
406.05	51.49
406.24	2.34
406.43	18.72
406.62	37.45
406.81	67.88
407.00	42.13
407.20	7.02
407.39	53.83
407.58	0.00
407.77	14.04
407.96	39.79
408.15	14.04
408.34	46.81
408.54	0.00
408.73	44.47
408.92	16.38
409.11	18.72
409.30	0.00
409.49	70.22
409.68	30.43
409.87	39.79
410.07	18.72
410.26	0.00
410.45	23.41
410.64	23.41
410.83	0.00
411.02	35.11
411.21	39.79
411.40	23.41
411.59	9.36
411.78	72.56
411.98	32.77
412.17	9.36
412.36	16.38
412.55	16.38
412.74	67.88
412.93	77.24
413.12	79.58
413.31	0.00
413.50	0.00
413.69	28.09
413.88	60.85
414.07	112.35
414.26	21.06
414.45	39.79
414.64	65.54
414.83	53.83
415.02	53.83
415.22	23.41
415.41	46.81
415.60	51.49
415.79	25.75
415.98	7.02
416.17	0.00
416.36	37.45
416.55	0.00
416.74	46.81
416.93	21.06
417.12	42.13
417.31	119.37
417.50	53.83
417.69	21.06
417.88	18.72
418.07	30.43
418.26	72.56
418.45	88.94
418.64	126.39
418.83	0.00
419.02	42.13
419.21	0.00
419.39	0.00
419.58	79.58
419.77	23.41
419.96	102.98
420.15	49.15
420.34	0.00
420.53	37.45
420.72	102.98
420.91	53.83
421.10	56.17
421.29	21.06
421.48	21.06
421.67	11.70
421.86	56.17
422.05	0.00
422.24	4.68
422.43	2.34
422.61	44.47
422.80	30.43
422.99	21.06
423.18	23.41
423.37	0.00
423.56	91.28
423.75	16.38
423.94	98.30
424.13	0.00
424.32	42.13
424.50	39.79
424.69	46.81
424.88	0.00
425.07	0.00
425.26	0.00
425.45	53.83
425.64	42.13
425.83	51.49
426.01	18.72
426.20	77.24
426.39	16.38
426.58	60.85
426.77	72.56
426.96	0.00
427.15	74.90
427.33	0.00
427.52	14.04
427.71	74.90
427.90	28.09
428.09	53.83
428.28	37.45
428.46	21.06
428.65	32.77
428.84	14.04
429.03	56.17
429.22	16.38
429.40	0.00
429.59	23.41
429.78	0.00
429.97	35.11
430.16	0.00
430.34	0.00
430.53	65.54
430.72	11.70
430.91	25.75
431.10	0.00
431.28	14.04
431.47	0.00
431.66	28.09
431.85	56.17
432.03	30.43
432.22	70.22
432.41	0.00
432.60	79.58
432.79	42.13
432.97	39.79
433.16	0.00
433.35	0.00
433.54	67.88
433.72	0.00
433.91	4.68
434.10	0.00
434.28	30.43
434.47	0.00
434.66	28.09
434.85	11.70
435.03	14.04
435.22	44.47
435.41	0.00
435.59	0.00
435.78	25.75
435.97	11.70
436.16	63.19
436.34	0.00
436.53	49.15
436.72	37.45
436.90	0.00
437.09	0.00
437.28	42.13
437.46	81.92
437.65	84.26
437.84	2.34
438.02	46.81
438.21	2.34
438.40	42.13
438.58	72.56
438.77	16.38
438.96	42.13
439.14	79.58
439.33	30.43
439.52	81.92
439.70	65.54
439.89	49.15
440.08	25.75
440.26	74.90
440.45	72.56
440.63	16.38
440.82	0.00
441.01	39.79
441.19	0.00
441.38	2.34
441.57	46.81
441.75	56.17
441.94	37.45
442.12	35.11
442.31	56.17
442.50	102.98
442.68	53.83
442.87	60.85
443.05	0.00
443.24	18.72
443.43	37.45
443.61	16.38
443.80	60.85
443.98	0.00
444.17	35.11
444.35	9.36
444.54	81.92
444.73	32.77
444.91	16.38
445.10	112.35
445.28	72.56
445.47	0.00
445.65	23.41
445.84	0.00
446.02	7.02
446.21	25.75
446.39	11.70
446.58	63.19
446.77	70.22
446.95	35.11
447.14	44.47
447.32	0.00
447.51	25.75
447.69	58.51
447.88	51.49
448.06	88.94
448.25	0.00
448.43	72.56
448.62	0.00
448.80	0.00
448.99	16.38
449.17	0.00
449.36	91.28
449.54	32.77
449.73	67.88
449.91	25.75
450.10	16.38
450.28	2.34
450.46	70.22
450.65	16.38
450.83	0.00
451.02	0.00
451.20	2.34
451.39	2.34
451.57	0.00
451.76	53.83
451.94	23.41
452.13	37.45
452.31	0.00
452.49	56.17
452.68	0.00
452.86	32.77
453.05	63.19
453.23	46.81
453.42	53.83
453.60	2.34
453.78	53.83
453.97	0.00
454.15	0.00
454.34	60.85
454.52	16.38
454.70	16.38
454.89	56.17
455.07	60.85
455.26	28.09
455.44	23.41
455.62	72.56
455.81	79.58
455.99	51.49
456.17	2.34
456.36	9.36
456.54	18.72
456.73	39.79
456.91	138.09
457.09	21.06
457.28	81.92
457.46	0.00
457.64	25.75
457.83	56.17
458.01	0.00
458.19	23.41
458.38	32.77
458.56	21.06
458.74	0.00
458.93	32.77
459.11	0.00
459.29	37.45
459.48	0.00
459.66	70.22
459.84	0.00
460.03	98.30
460.21	117.03
460.39	0.00
460.57	46.81
460.76	117.03
460.94	51.49
461.12	70.22
461.31	72.56
461.49	4.68
461.67	25.75
461.85	42.13
462.04	95.96
462.22	70.22
462.40	9.36
462.59	9.36
462.77	39.79
462.95	16.38
463.13	46.81
463.32	9.36
463.50	86.60
463.68	44.47
463.86	74.90
464.05	79.58
464.23	28.09
464.41	86.60
464.59	23.41
464.78	0.00
464.96	16.38
465.14	9.36
465.32	49.15
465.50	0.00
465.69	35.11
465.87	39.79
466.05	53.83
466.23	84.26
466.41	14.04
466.60	35.11
466.78	9.36
466.96	32.77
467.14	100.64
467.32	72.56
467.51	0.00
467.69	56.17
467.87	21.06
468.05	37.45
468.23	21.06
468.41	7.02
468.60	42.13
468.78	77.24
468.96	21.06
469.14	16.38
469.32	37.45
469.50	49.15
469.69	0.00
469.87	39.79
470.05	25.75
470.23	0.00
470.41	39.79
470.59	42.13
470.77	39.79
470.95	42.13
471.14	42.13
471.32	0.00
471.50	35.11
471.68	11.70
471.86	42.13
472.04	7.02
472.22	70.22
472.40	4.68
472.58	4.68
472.77	74.90
472.95	77.24
473.13	49.15
473.31	14.04
473.49	14.04
473.67	9.36
473.85	42.13
474.03	0.00
474.21	7.02
474.39	4.68
474.57	46.81
474.75	49.15
474.93	49.15
475.12	18.72
475.30	63.19
475.48	32.77
475.66	60.85
475.84	0.00
476.02	60.85
476.20	0.00
476.38	2.34
476.56	18.72
476.74	18.72
476.92	4.68
477.10	107.66
477.28	53.83
477.46	2.34
477.64	56.17
477.82	0.00
478.00	30.43
478.18	9.36
478.36	0.00
478.54	0.00
478.72	0.00
478.90	28.09
479.08	65.54
479.26	0.00
479.44	46.81
479.62	37.45
479.80	100.64
479.98	0.00
480.16	0.00
480.34	0.00
480.52	65.54
480.70	37.45
480.88	18.72
481.06	74.90
481.24	72.56
481.41	4.68
481.59	72.56
481.77	119.37
481.95	44.47
482.13	70.22
482.31	28.09
482.49	28.09
482.67	30.43
482.85	65.54
483.03	30.43
483.21	58.51
483.39	46.81
483.57	49.15
483.74	74.90
483.92	11.70
484.10	0.00
484.28	39.79
484.46	107.66
484.64	65.54
484.82	65.54
485.00	37.45
485.18	60.85
485.35	58.51
485.53	49.15
485.71	56.17
485.89	14.04
486.07	67.88
486.25	44.47
486.43	9.36
486.61	51.49
486.78	114.69
486.96	28.09
487.14	44.47
487.32	37.45
487.50	74.90
487.68	37.45
487.85	84.26
488.03	0.00
488.21	30.43
488.39	37.45
488.57	91.28
488.75	74.90
488.92	67.88
489.10	79.58
489.28	25.75
489.46	4.68
489.64	70.22
489.81	60.85
489.99	0.00
490.17	100.64
490.35	42.13
490.53	18.72
490.70	46.81
490.88	63.19
491.06	53.83
491.24	84.26
491.41	63.19
491.59	0.00
491.77	21.06
491.95	30.43
492.13	65.54
492.30	70.22
492.48	88.94
492.66	77.24
492.84	86.60
493.01	0.00
493.19	0.00
493.37	37.45
493.54	30.43
493.72	37.45
493.90	46.81
494.08	49.15
494.25	9.36
494.43	121.71
494.61	72.56
494.79	42.13
494.96	95.96
495.14	32.77
495.32	32.77
495.49	32.77
495.67	0.00
495.85	49.15
496.02	37.45
496.20	4.68
496.38	42.13
496.55	42.13
496.73	0.00
496.91	0.00
497.09	0.00
497.26	58.51
497.44	16.38
497.62	74.90
497.79	25.75
497.97	0.00
498.14	37.45
498.32	60.85
498.50	70.22
498.67	46.81
498.85	25.75
499.03	77.24
499.20	0.00
499.38	102.98
499.56	16.38
499.73	56.17
499.91	21.06
500.08	44.47
500.26	0.00
500.44	0.00
500.61	37.45
500.79	93.62
500.97	30.43
501.14	60.85
501.32	32.77
501.49	30.43
501.67	81.92
501.84	56.17
502.02	65.54
502.20	44.47
502.37	0.00
502.55	84.26
502.72	0.00
502.90	35.11
503.07	95.96
503.25	4.68
503.43	70.22
503.60	114.69
503.78	51.49
503.95	0.00
504.13	42.13
504.30	23.41
504.48	53.83
504.65	58.51
504.83	0.00
505.01	16.38
505.18	72.56
505.36	16.38
505.53	42.13
505.71	86.60
505.88	60.85
506.06	60.85
506.23	72.56
506.41	16.38
506.58	95.96
506.76	65.54
506.93	53.83
507.11	93.62
507.28	46.81
507.46	72.56
507.63	95.96
507.81	0.00
507.98	49.15
508.16	0.00
508.33	37.45
508.50	39.79
508.68	56.17
508.85	56.17
509.03	91.28
509.20	98.30
509.38	81.92
509.55	63.19
509.73	16.38
509.90	88.94
510.08	46.81
510.25	28.09
510.42	74.90
510.60	0.00
510.77	58.51
510.95	14.04
511.12	18.72
511.30	58.51
511.47	70.22
511.64	105.32
511.82	28.09
511.99	49.15
512.17	51.49
512.34	35.11
512.51	56.17
512.69	42.13
512.86	67.88
513.04	70.22
513.21	56.17
513.38	37.45
513.56	14.04
513.73	30.43
513.90	56.17
514.08	77.24
514.25	28.09
514.43	42.13
514.60	67.88
514.77	28.09
514.95	42.13
515.12	18.72
515.29	35.11
515.47	100.64
515.64	14.04
515.81	63.19
515.99	51.49
516.16	35.11
516.33	67.88
516.51	21.06
516.68	77.24
516.85	0.00
517.03	53.83
517.20	37.45
517.37	21.06
517.54	37.45
517.72	0.00
517.89	0.00
518.06	70.22
518.24	53.83
518.41	11.70
518.58	56.17
518.75	0.00
518.93	39.79
519.10	72.56
519.27	79.58
519.45	70.22
519.62	37.45
519.79	46.81
519.96	67.88
520.14	110.01
520.31	16.38
520.48	0.00
520.65	9.36
520.83	30.43
521.00	46.81
521.17	72.56
521.34	67.88
521.52	79.58
521.69	32.77
521.86	9.36
522.03	37.45
522.20	23.41
522.38	0.00
522.55	14.04
522.72	86.60
522.89	42.13
523.07	16.38
523.24	0.00
523.41	56.17
523.58	21.06
523.75	74.90
523.92	39.79
524.10	14.04
524.27	72.56
524.44	9.36
524.61	93.62
524.78	0.00
524.96	35.11
525.13	77.24
525.30	102.98
525.47	28.09
525.64	14.04
525.81	84.26
525.98	58.51
526.16	124.05
526.33	9.36
526.50	7.02
526.67	42.13
526.84	23.41
527.01	58.51
527.18	0.00
527.36	112.35
527.53	63.19
527.70	81.92
527.87	11.70
528.04	0.00
528.21	32.77
528.38	58.51
528.55	65.54
528.72	32.77
528.89	0.00
529.07	105.32
529.24	28.09
529.41	39.79
529.58	18.72
529.75	35.11
529.92	7.02
530.09	35.11
530.26	114.69
530.43	60.85
530.60	63.19
530.77	86.60
530.94	88.94
531.11	46.81
531.28	86.60
531.46	95.96
531.63	74.90
531.80	84.26
531.97	58.51
532.14	102.98
532.31	79.58
532.48	58.51
532.65	84.26
532.82	63.19
532.99	0.00
533.16	79.58
533.33	21.06
533.50	0.00
533.67	28.09
533.84	46.81
534.01	37.45
534.18	74.90
534.35	39.79
534.52	21.06
534.69	46.81
534.86	44.47
535.03	49.15
535.20	30.43
535.37	0.00
535.54	42.13
535.71	0.00
535.88	142.77
536.05	56.17
536.22	51.49
536.38	16.38
536.55	65.54
536.72	23.41
536.89	74.90
537.06	84.26
537.23	35.11
537.40	81.92
537.57	72.56
537.74	114.69
537.91	28.09
538.08	0.00
538.25	0.00
538.42	65.54
538.59	91.28
538.75	0.00
538.92	74.90
539.09	93.62
539.26	0.00
539.43	0.00
539.60	72.56
539.77	91.28
539.94	25.75
540.11	110.01
540.28	119.37
540.44	86.60
540.61	58.51
540.78	86.60
540.95	14.04
541.12	63.19
541.29	0.00
541.46	37.45
541.62	14.04
541.79	35.11
541.96	133.41
542.13	60.85
542.30	25.75
542.47	0.00
542.63	0.00
542.80	28.09
542.97	49.15
543.14	72.56
543.31	39.79
543.48	39.79
543.64	0.00
543.81	21.06
543.98	18.72
544.15	0.00
544.32	4.68
544.48	25.75
544.65	28.09
544.82	7.02
544.99	30.43
545.16	65.54
545.32	65.54
545.49	46.81
545.66	84.26
545.83	9.36
546.00	23.41
546.16	86.60
546.33	124.05
546.50	133.41
546.67	65.54
546.83	30.43
547.00	2.34
547.17	21.06
547.34	42.13
547.50	42.13
547.67	0.00
547.84	70.22
548.00	39.79
548.17	4.68
548.34	88.94
548.51	18.72
548.67	28.09
548.84	46.81
549.01	65.54
549.18	53.83
549.34	77.24
549.51	39.79
549.68	0.00
549.84	0.00
550.01	95.96
550.18	53.83
550.34	93.62
550.51	51.49
550.68	0.00
550.84	51.49
551.01	0.00
551.18	21.06
551.34	11.70
551.51	79.58
551.68	42.13
551.84	102.98
552.01	65.54
552.18	2.34
552.34	16.38
552.51	56.17
552.68	25.75
552.84	37.45
553.01	39.79
553.18	67.88
553.34	32.77
553.51	0.00
553.67	35.11
553.84	53.83
554.01	39.79
554.17	39.79
554.34	0.00
554.51	49.15
554.67	67.88
554.84	84.26
555.00	81.92
555.17	110.01
555.33	0.00
555.50	63.19
555.67	32.77
555.83	65.54
556.00	18.72
556.16	60.85
556.33	42.13
556.50	16.38
556.66	16.38
556.83	30.43
556.99	11.70
557.16	67.88
557.32	95.96
557.49	119.37
557.65	49.15
557.82	0.00
557.98	0.00
558.15	28.09
558.32	30.43
558.48	39.79
558.65	11.70
558.81	0.00
558.98	102.98
559.14	79.58
559.31	86.60
559.47	23.41
559.64	42.13
559.80	79.58
559.97	51.49
560.13	32.77
560.30	9.36
560.46	53.83
560.63	16.38
560.79	25.75
560.96	72.56
561.12	46.81
561.29	79.58
561.45	67.88
561.61	0.00
561.78	81.92
561.94	0.00
562.11	0.00
562.27	56.17
562.44	18.72
562.60	53.83
562.77	46.81
562.93	114.69
563.10	32.77
563.26	77.24
563.42	37.45
563.59	42.13
563.75	23.41
563.92	70.22
564.08	65.54
564.24	70.22
564.41	44.47
564.57	30.43
564.74	49.15
564.90	81.92
565.07	53.83
565.23	42.13
565.39	46.81
565.56	46.81
565.72	37.45
565.88	37.45
566.05	56.17
566.21	0.00
566.38	21.06
566.54	65.54
566.70	72.56
566.87	65.54
567.03	42.13
567.19	77.24
567.36	42.13
567.52	88.94
567.68	23.41
567.85	35.11
568.01	0.00
568.17	0.00
568.34	60.85
568.50	28.09
568.66	0.00
568.83	102.98
568.99	138.09
569.15	14.04
569.32	37.45
569.48	63.19
569.64	70.22
569.81	25.75
569.97	32.77
570.13	37.45
570.30	37.45
570.46	35.11
570.62	23.41
570.78	51.49
570.95	93.62
571.11	44.47
571.27	2.34
571.43	18.72
571.60	35.11
571.76	95.96
571.92	88.94
572.09	53.83
572.25	0.00
572.41	67.88
572.57	0.00
572.74	0.00
572.90	67.88
573.06	86.60
573.22	67.88
573.38	42.13
573.55	53.83
573.71	67.88
573.87	81.92
574.03	44.47
574.20	58.51
574.36	0.00
574.52	23.41
574.68	28.09
574.84	63.19
575.01	23.41
575.17	49.15
575.33	0.00
575.49	0.00
575.65	28.09
575.82	67.88
575.98	53.83
576.14	79.58
576.30	79.58
576.46	70.22
576.62	95.96
576.79	9.36
576.95	46.81
577.11	0.00
577.27	16.38
577.43	23.41
577.59	49.15
577.75	126.39
577.92	37.45
578.08	0.00
578.24	0.00
578.40	56.17
578.56	102.98
578.72	42.13
578.88	51.49
579.04	72.56
579.21	56.17
579.37	35.11
579.53	67.88
579.69	28.09
579.85	28.09
580.01	0.00
580.17	9.36
580.33	0.00
580.49	0.00
580.65	60.85
580.82	60.85
580.98	56.17
581.14	0.00
581.30	0.00
581.46	63.19
581.62	37.45
581.78	110.01
581.94	42.13
582.10	0.00
582.26	49.15
582.42	4.68
582.58	53.83
582.74	42.13
582.90	79.58
583.06	105.32
583.22	0.00
583.38	44.47
583.54	65.54
583.70	37.45
583.86	72.56
584.02	102.98
584.18	95.96
584.34	0.00
584.50	70.22
584.66	308.95
584.82	957.28
584.98	1228.78
585.14	1076.65
585.30	674.07
585.46	404.91
585.62	269.16
585.78	107.66
585.94	51.49
586.10	51.49
586.26	0.00
586.42	7.02
586.58	0.00
586.74	0.00
586.90	49.15
587.06	7.02
587.22	65.54
587.38	2.34
587.54	70.22
587.70	119.37
587.86	154.48
588.02	203.63
588.18	79.58
588.34	72.56
588.49	70.22
588.65	93.62
588.81	25.75
588.97	37.45
589.13	32.77
589.29	18.72
589.45	58.51
589.61	25.75
589.77	81.92
589.93	88.94
590.08	28.09
590.24	35.11
590.40	51.49
590.56	14.04
590.72	0.00
590.88	56.17
591.04	21.06
591.20	37.45
591.35	88.94
591.51	42.13
591.67	28.09
591.83	79.58
591.99	2.34
592.15	49.15
592.31	32.77
592.46	28.09
592.62	74.90
592.78	67.88
592.94	25.75
593.10	35.11
593.26	11.70
593.41	37.45
593.57	0.00
593.73	0.00
593.89	100.64
594.05	170.86
594.20	180.22
594.36	173.20
594.52	166.18
594.68	81.92
594.84	16.38
594.99	65.54
595.15	91.28
595.31	49.15
595.47	140.43
595.62	39.79
595.78	9.36
595.94	23.41
596.10	4.68
596.25	0.00
596.41	18.72
596.57	21.06
596.73	14.04
596.88	16.38
597.04	84.26
597.20	11.70
597.36	42.13
597.51	44.47
597.67	98.30
597.83	84.26
597.99	65.54
598.14	126.39
598.30	7.02
598.46	70.22
598.61	58.51
598.77	84.26
598.93	39.79
599.09	7.02
599.24	18.72
599.40	0.00
599.56	9.36
599.71	32.77
599.87	72.56
600.03	0.00
600.18	81.92
600.34	67.88
600.50	84.26
600.65	9.36
600.81	72.56
600.97	42.13
601.12	86.60
601.28	7.02
601.44	46.81
601.59	0.00
601.75	30.43
601.91	53.83
602.06	79.58
602.22	0.00
602.37	0.00
602.53	100.64
602.69	86.60
602.84	121.71
603.00	72.56
603.16	0.00
603.31	14.04
603.47	49.15
603.62	0.00
603.78	58.51
603.94	70.22
604.09	84.26
604.25	98.30
604.40	0.00
604.56	126.39
604.71	37.45
604.87	16.38
605.03	72.56
605.18	44.47
605.34	23.41
605.49	51.49
605.65	79.58
605.80	86.60
605.96	4.68
606.12	0.00
606.27	51.49
606.43	4.68
606.58	65.54
606.74	91.28
606.89	35.11
607.05	107.66
607.20	124.05
607.36	138.09
607.51	161.50
607.67	79.58
607.82	67.88
607.98	9.36
608.13	72.56
608.29	74.90
608.44	11.70
608.60	14.04
608.75	2.34
608.91	84.26
609.06	112.35
609.22	271.50
609.37	241.08
609.53	236.39
609.68	84.26
609.84	126.39
609.99	131.07
610.15	0.00
610.30	114.69
610.46	39.79
610.61	0.00
610.76	32.77
610.92	74.90
611.07	100.64
611.23	30.43
611.38	37.45
611.54	65.54
611.69	4.68
611.84	0.00
612.00	51.49
612.15	74.90
612.31	35.11
612.46	14.04
612.62	0.00
612.77	84.26
612.92	37.45
613.08	0.00
613.23	46.81
613.39	84.26
613.54	53.83
613.69	81.92
613.85	273.84
614.00	248.10
614.15	418.96
614.31	306.61
614.46	238.73
614.62	121.71
614.77	88.94
614.92	114.69
615.08	117.03
615.23	110.01
615.38	46.81
615.54	0.00
615.69	91.28
615.84	145.11
616.00	180.22
616.15	138.09
616.30	102.98
616.46	107.66
616.61	91.28
616.76	91.28
616.92	58.51
617.07	49.15
617.22	0.00
617.37	72.56
617.53	74.90
617.68	42.13
617.83	63.19
617.99	4.68
618.14	42.13
618.29	74.90
618.45	14.04
618.60	86.60
618.75	35.11
618.90	23.41
619.06	58.51
619.21	9.36
619.36	23.41
619.51	53.83
619.67	0.00
619.82	79.58
619.97	0.00
620.12	0.00
620.28	0.00
620.43	0.00
620.58	46.81
620.73	0.00
620.89	86.60
621.04	7.02
621.19	128.73
621.34	124.05
621.49	107.66
621.65	56.17
621.80	58.51
621.95	126.39
622.10	88.94
622.25	42.13
622.41	49.15
622.56	44.47
622.71	100.64
622.86	63.19
623.01	16.38
623.16	0.00
623.32	14.04
623.47	133.41
623.62	46.81
623.77	56.17
623.92	91.28
624.07	51.49
624.23	49.15
624.38	95.96
624.53	49.15
624.68	0.00
624.83	0.00
624.98	0.00
625.13	0.00
625.29	9.36
625.44	23.41
625.59	42.13
625.74	9.36
625.89	140.43
626.04	58.51
626.19	93.62
626.34	224.69
626.49	215.33
626.65	79.58
626.80	105.32
626.95	79.58
627.10	18.72
627.25	23.41
627.40	53.83
627.55	16.38
627.70	25.75
627.85	60.85
628.00	4.68
628.15	74.90
628.30	51.49
628.45	0.00
628.60	0.00
628.76	93.62
628.91	0.00
629.06	79.58
629.21	124.05
629.36	58.51
629.51	60.85
629.66	102.98
629.81	42.13
629.96	28.09
630.11	81.92
630.26	91.28
630.41	25.75
630.56	124.05
630.71	77.24
630.86	110.01
631.01	93.62
631.16	0.00
631.31	35.11
631.46	77.24
631.61	46.81
631.76	56.17
631.91	93.62
632.06	18.72
632.21	18.72
632.36	49.15
632.51	44.47
632.66	14.04
632.81	49.15
632.96	102.98
633.10	135.75
633.25	102.98
633.40	124.05
633.55	145.11
633.70	39.79
633.85	0.00
634.00	42.13
634.15	74.90
634.30	124.05
634.45	145.11
634.60	30.43
634.75	30.43
634.90	102.98
635.05	25.75
635.19	79.58
635.34	49.15
635.49	138.09
635.64	0.00
635.79	65.54
635.94	16.38
636.09	0.00
636.24	32.77
636.39	9.36
636.53	39.79
636.68	18.72
636.83	32.77
636.98	42.13
637.13	32.77
637.28	2.34
637.43	4.68
637.57	107.66
637.72	126.39
637.87	177.88
638.02	308.95
638.17	243.42
638.32	147.45
638.46	187.24
638.61	112.35
638.76	100.64
638.91	65.54
639.06	53.83
639.20	117.03
639.35	42.13
639.50	51.49
639.65	133.41
639.80	313.63
639.94	353.42
640.09	388.53
640.24	255.12
640.39	189.58
640.54	119.37
640.68	105.32
640.83	93.62
640.98	60.85
641.13	60.85
641.27	0.00
641.42	0.00
641.57	18.72
641.72	56.17
641.86	63.19
642.01	0.00
642.16	0.00
642.31	58.51
642.45	39.79
642.60	107.66
642.75	0.00
642.90	44.47
643.04	0.00
643.19	0.00
643.34	2.34
643.48	77.24
643.63	39.79
643.78	0.00
643.93	2.34
644.07	37.45
644.22	25.75
644.37	18.72
644.51	9.36
644.66	35.11
644.81	39.79
644.95	44.47
645.10	0.00
645.25	0.00
645.39	91.28
645.54	28.09
645.69	23.41
645.83	112.35
645.98	39.79
646.13	16.38
646.27	30.43
646.42	32.77
646.57	0.00
646.71	39.79
646.86	0.00
647.00	30.43
647.15	37.45
647.30	161.50
647.44	28.09
647.59	0.00
647.74	7.02
647.88	0.00
648.03	119.37
648.17	49.15
648.32	30.43
648.47	0.00
648.61	0.00
648.76	42.13
648.90	0.00
649.05	0.00
649.20	0.00
649.34	95.96
649.49	0.00
649.63	53.83
649.78	4.68
649.92	7.02
650.07	7.02
650.21	74.90
650.36	119.37
650.51	168.52
650.65	220.01
650.80	126.39
650.94	95.96
651.09	77.24
651.23	46.81
651.38	0.00
651.52	2.34
651.67	0.00
651.81	0.00
651.96	0.00
652.10	49.15
652.25	0.00
652.39	0.00
652.54	65.54
652.68	11.70
652.83	63.19
652.97	39.79
653.12	84.26
653.26	56.17
653.41	28.09
653.55	98.30
653.70	35.11
653.84	14.04
653.99	21.06
654.13	51.49
654.27	84.26
654.42	9.36
654.56	9.36
654.71	0.00
654.85	16.38
655.00	0.00
655.14	60.85
655.29	4.68
655.43	9.36
655.57	44.47
655.72	0.00
655.86	0.00
656.01	0.00
656.15	0.00
656.30	30.43
656.44	9.36
656.58	0.00
656.73	44.47
656.87	88.94
657.01	28.09
657.16	84.26
657.30	18.72
657.45	98.30
657.59	0.00
657.73	58.51
657.88	46.81
658.02	53.83
658.16	51.49
658.31	28.09
658.45	0.00
658.60	63.19
658.74	119.37
658.88	67.88
659.03	0.00
659.17	9.36
659.31	42.13
659.46	28.09
659.60	77.24
659.74	133.41
659.89	42.13
660.03	77.24
660.17	44.47
660.32	91.28
660.46	16.38
660.60	58.51
660.74	49.15
660.89	44.47
661.03	81.92
661.17	11.70
661.32	51.49
661.46	56.17
661.60	39.79
661.74	51.49
661.89	25.75
662.03	58.51
662.17	49.15
662.31	67.88
662.46	42.13
662.60	7.02
662.74	53.83
662.88	67.88
663.03	49.15
663.17	0.00
663.31	16.38
663.45	53.83
663.60	30.43
663.74	65.54
663.88	49.15
664.02	86.60
664.17	18.72
664.31	0.00
664.45	9.36
664.59	28.09
664.73	35.11
664.88	0.00
665.02	0.00
665.16	98.30
665.30	49.15
665.44	0.00
665.59	23.41
665.73	0.00
665.87	32.77
666.01	32.77
666.15	32.77
666.29	7.02
666.44	11.70
666.58	0.00
666.72	98.30
666.86	30.43
667.00	100.64
667.14	91.28
667.28	86.60
667.43	119.37
667.57	121.71
667.71	177.88
667.85	182.56
667.99	145.11
668.13	67.88
668.27	53.83
668.41	72.56
668.56	67.88
668.70	74.90
668.84	0.00
668.98	77.24
669.12	65.54
669.26	72.56
669.40	37.45
669.54	72.56
669.68	23.41
669.82	42.13
669.96	23.41
670.10	46.81
670.25	0.00
670.39	56.17
670.53	0.00
670.67	65.54
670.81	67.88
670.95	4.68
671.09	91.28
671.23	91.28
671.37	88.94
671.51	145.11
671.65	114.69
671.79	81.92
671.93	67.88
672.07	117.03
672.21	9.36
672.35	53.83
672.49	30.43
672.63	0.00
672.77	32.77
672.91	42.13
673.05	102.98
673.19	65.54
673.33	63.19
673.47	0.00
673.61	23.41
673.75	58.51
673.89	0.00
674.03	0.00
674.17	14.04
674.31	93.62
674.45	93.62
674.59	25.75
674.73	28.09
674.87	0.00
675.01	18.72
675.15	58.51
675.29	11.70
675.43	0.00
675.56	63.19
675.70	9.36
675.84	30.43
675.98	11.70
676.12	0.00
676.26	25.75
676.40	14.04
676.54	0.00
676.68	53.83
676.82	28.09
676.96	21.06
677.10	0.00
677.23	0.00
677.37	53.83
677.51	0.00
677.65	72.56
677.79	25.75
677.93	0.00
678.07	11.70
678.21	21.06
678.34	42.13
678.48	0.00
678.62	9.36
678.76	0.00
678.90	74.90
679.04	0.00
679.18	72.56
679.31	14.04
679.45	0.00
679.59	0.00
679.73	65.54
679.87	53.83
680.00	79.58
680.14	0.00
680.28	39.79
680.42	39.79
680.56	37.45
680.70	58.51
680.83	0.00
680.97	46.81
681.11	93.62
681.25	30.43
681.39	30.43
681.52	44.47
681.66	105.32
681.80	0.00
681.94	67.88
682.07	63.19
682.21	18.72
682.35	23.41
682.49	32.77
682.62	44.47
682.76	25.75
682.90	35.11
683.04	46.81
683.17	53.83
683.31	4.68
683.45	51.49
683.59	70.22
683.72	23.41
683.86	49.15
684.00	39.79
684.13	77.24
684.27	0.00
684.41	91.28
684.55	53.83
684.68	147.45
684.82	60.85
684.96	117.03
685.09	0.00
685.23	18.72
685.37	28.09
685.50	0.00
685.64	49.15
685.78	63.19
685.91	23.41
686.05	72.56
686.19	14.04
686.32	42.13
686.46	0.00
686.60	2.34
686.73	2.34
686.87	9.36
687.01	86.60
687.14	23.41
687.28	0.00
687.42	0.00
687.55	0.00
687.69	0.00
687.82	39.79
687.96	51.49
688.10	18.72
688.23	7.02
688.37	46.81
688.50	0.00
688.64	0.00
688.78	0.00
688.91	60.85
689.05	9.36
689.18	37.45
689.32	0.00
689.46	35.11
689.59	0.00
689.73	60.85
689.86	0.00
690.00	0.00
690.13	14.04
690.27	0.00
690.41	53.83
690.54	39.79
690.68	35.11
690.81	16.38
690.95	9.36
691.08	37.45
691.22	58.51
691.35	70.22
691.49	0.00
691.62	23.41
691.76	2.34
691.89	56.17
692.03	49.15
692.16	53.83
692.30	0.00
692.43	72.56
692.57	58.51
692.70	121.71
692.84	107.66
692.97	44.47
693.11	46.81
693.24	88.94
693.38	28.09
693.51	58.51
693.65	53.83
693.78	51.49
693.92	4.68
694.05	2.34
694.19	37.45
694.32	56.17
694.45	0.00
694.59	0.00
694.72	32.77
694.86	44.47
694.99	32.77
695.13	77.24
695.26	2.34
695.39	16.38
695.53	46.81
695.66	0.00
695.80	7.02
695.93	28.09
696.07	60.85
696.20	42.13
696.33	58.51
696.47	44.47
696.60	0.00
696.73	53.83
696.87	0.00
697.00	23.41
697.14	0.00
697.27	51.49
697.40	0.00
697.54	91.28
697.67	51.49
697.80	91.28
697.94	14.04
698.07	32.77
698.21	21.06
698.34	53.83
698.47	0.00
698.61	79.58
698.74	28.09
698.87	4.68
699.01	37.45
699.14	30.43
699.27	53.83
699.40	11.70
699.54	0.00
699.67	67.88
699.80	35.11
699.94	14.04
700.07	14.04
700.20	81.92
700.34	46.81
700.47	42.13
700.60	11.70
700.73	21.06
700.87	25.75
701.00	28.09
701.13	21.06
701.26	107.66
701.40	53.83
701.53	53.83
701.66	0.00
701.79	23.41
701.93	0.00
702.06	56.17
702.19	0.00
702.32	0.00
702.46	63.19
702.59	39.79
702.72	79.58
702.85	133.41
702.99	79.58
703.12	198.95
703.25	119.37
703.38	98.30
703.51	53.83
703.65	112.35
703.78	44.47
703.91	98.30
704.04	35.11
704.17	25.75
704.31	7.02
704.44	74.90
704.57	39.79
704.70	2.34
704.83	14.04
704.96	0.00
705.10	37.45
705.23	56.17
>>>>>End Processed Spectral Data<<<<<
