SpectraSuite Data File
++++++++++++++++++++++++++++++++++++
Date: Fri Oct 04 12:13:42 GMT-05:00 2013
User: price-jones
Dark Spectrum Present: No
Reference Spectrum Present: No
Number of Sampled Component Spectra: 1
Spectrometers: USB2+H05261
Integration Time (usec): 10000 (USB2+H05261)
Spectra Averaged: 1 (USB2+H05261)
Boxcar Smoothing: 0 (USB2+H05261)
Correct for Electrical Dark: No (USB2+H05261)
Strobe/Lamp Enabled: No (USB2+H05261)
Correct for Detector Non-linearity: No (USB2+H05261)
Correct for Stray Light: No (USB2+H05261)
Number of Pixels in Processed Spectrum: 2048
>>>>>Begin Processed Spectral Data<<<<<
365.73	16.38
365.92	16.38
366.12	16.38
366.32	0.00
366.52	0.00
366.72	0.00
366.91	0.00
367.11	0.00
367.31	0.00
367.51	0.00
367.70	0.00
367.90	0.00
368.10	0.00
368.30	0.00
368.49	0.00
368.69	0.00
368.89	0.00
369.09	0.00
369.28	0.00
369.48	0.00
369.68	0.00
369.87	0.00
370.07	0.00
370.27	0.00
370.47	0.00
370.66	0.00
370.86	0.00
371.06	0.00
371.25	0.00
371.45	0.00
371.65	0.00
371.84	0.00
372.04	51.49
372.24	72.56
372.44	9.36
372.63	0.00
372.83	0.00
373.03	37.45
373.22	4.68
373.42	79.58
373.62	21.06
373.81	35.11
374.01	44.47
374.21	53.83
374.40	70.22
374.60	2.34
374.79	86.60
374.99	2.34
375.19	0.00
375.38	72.56
375.58	23.41
375.78	25.75
375.97	7.02
376.17	7.02
376.37	0.00
376.56	7.02
376.76	25.75
376.95	56.17
377.15	56.17
377.35	46.81
377.54	0.00
377.74	58.51
377.93	9.36
378.13	0.00
378.33	42.13
378.52	7.02
378.72	63.19
378.91	30.43
379.11	51.49
379.31	63.19
379.50	39.79
379.70	25.75
379.89	0.00
380.09	25.75
380.28	42.13
380.48	16.38
380.68	39.79
380.87	0.00
381.07	28.09
381.26	114.69
381.46	23.41
381.65	0.00
381.85	37.45
382.04	0.00
382.24	16.38
382.43	0.00
382.63	51.49
382.83	0.00
383.02	25.75
383.22	14.04
383.41	16.38
383.61	44.47
383.80	0.00
384.00	51.49
384.19	0.00
384.39	23.41
384.58	37.45
384.78	0.00
384.97	16.38
385.17	9.36
385.36	46.81
385.56	0.00
385.75	0.00
385.95	30.43
386.14	21.06
386.34	60.85
386.53	49.15
386.72	0.00
386.92	11.70
387.11	49.15
387.31	32.77
387.50	2.34
387.70	21.06
387.89	9.36
388.09	35.11
388.28	14.04
388.48	63.19
388.67	0.00
388.86	9.36
389.06	77.24
389.25	0.00
389.45	0.00
389.64	14.04
389.84	32.77
390.03	44.47
390.22	79.58
390.42	44.47
390.61	72.56
390.81	30.43
391.00	0.00
391.19	42.13
391.39	23.41
391.58	60.85
391.78	21.06
391.97	42.13
392.16	7.02
392.36	88.94
392.55	0.00
392.75	21.06
392.94	98.30
393.13	63.19
393.33	23.41
393.52	0.00
393.71	37.45
393.91	0.00
394.10	0.00
394.29	0.00
394.49	81.92
394.68	16.38
394.88	72.56
395.07	67.88
395.26	49.15
395.46	0.00
395.65	51.49
395.84	51.49
396.04	84.26
396.23	102.98
396.42	0.00
396.62	77.24
396.81	0.00
397.00	51.49
397.19	56.17
397.39	0.00
397.58	42.13
397.77	14.04
397.97	0.00
398.16	25.75
398.35	70.22
398.55	51.49
398.74	67.88
398.93	95.96
399.12	0.00
399.32	30.43
399.51	0.00
399.70	14.04
399.90	84.26
400.09	16.38
400.28	0.00
400.47	18.72
400.67	18.72
400.86	0.00
401.05	0.00
401.24	18.72
401.44	18.72
401.63	72.56
401.82	46.81
402.01	77.24
402.21	21.06
402.40	74.90
402.59	88.94
402.78	39.79
402.97	18.72
403.17	21.06
403.36	0.00
403.55	30.43
403.74	25.75
403.93	77.24
404.13	0.00
404.32	0.00
404.51	28.09
404.70	51.49
404.89	0.00
405.09	14.04
405.28	37.45
405.47	0.00
405.66	91.28
405.85	21.06
406.05	46.81
406.24	72.56
406.43	46.81
406.62	0.00
406.81	53.83
407.00	39.79
407.20	32.77
407.39	0.00
407.58	49.15
407.77	28.09
407.96	42.13
408.15	53.83
408.34	58.51
408.54	2.34
408.73	0.00
408.92	23.41
409.11	88.94
409.30	42.13
409.49	145.11
409.68	79.58
409.87	14.04
410.07	70.22
410.26	51.49
410.45	65.54
410.64	4.68
410.83	49.15
411.02	72.56
411.21	30.43
411.40	14.04
411.59	32.77
411.78	72.56
411.98	67.88
412.17	35.11
412.36	30.43
412.55	81.92
412.74	81.92
412.93	65.54
413.12	37.45
413.31	0.00
413.50	49.15
413.69	28.09
413.88	46.81
414.07	42.13
414.26	30.43
414.45	0.00
414.64	51.49
414.83	0.00
415.02	74.90
415.22	0.00
415.41	86.60
415.60	21.06
415.79	65.54
415.98	58.51
416.17	16.38
416.36	2.34
416.55	32.77
416.74	84.26
416.93	63.19
417.12	60.85
417.31	67.88
417.50	37.45
417.69	46.81
417.88	77.24
418.07	133.41
418.26	7.02
418.45	25.75
418.64	84.26
418.83	39.79
419.02	42.13
419.21	39.79
419.39	65.54
419.58	79.58
419.77	53.83
419.96	2.34
420.15	95.96
420.34	25.75
420.53	42.13
420.72	7.02
420.91	0.00
421.10	65.54
421.29	88.94
421.48	79.58
421.67	39.79
421.86	25.75
422.05	2.34
422.24	0.00
422.43	11.70
422.61	42.13
422.80	56.17
422.99	28.09
423.18	11.70
423.37	53.83
423.56	117.03
423.75	0.00
423.94	18.72
424.13	32.77
424.32	0.00
424.50	2.34
424.69	42.13
424.88	39.79
425.07	81.92
425.26	95.96
425.45	39.79
425.64	84.26
425.83	23.41
426.01	79.58
426.20	67.88
426.39	98.30
426.58	32.77
426.77	58.51
426.96	35.11
427.15	46.81
427.33	0.00
427.52	30.43
427.71	30.43
427.90	91.28
428.09	93.62
428.28	23.41
428.46	81.92
428.65	86.60
428.84	0.00
429.03	4.68
429.22	9.36
429.40	86.60
429.59	67.88
429.78	114.69
429.97	0.00
430.16	84.26
430.34	56.17
430.53	14.04
430.72	25.75
430.91	0.00
431.10	14.04
431.28	77.24
431.47	30.43
431.66	32.77
431.85	0.00
432.03	56.17
432.22	25.75
432.41	107.66
432.60	56.17
432.79	0.00
432.97	51.49
433.16	91.28
433.35	28.09
433.54	44.47
433.72	56.17
433.91	100.64
434.10	23.41
434.28	44.47
434.47	30.43
434.66	107.66
434.85	0.00
435.03	84.26
435.22	53.83
435.41	46.81
435.59	88.94
435.78	60.85
435.97	46.81
436.16	7.02
436.34	88.94
436.53	51.49
436.72	32.77
436.90	18.72
437.09	49.15
437.28	74.90
437.46	32.77
437.65	53.83
437.84	60.85
438.02	74.90
438.21	23.41
438.40	74.90
438.58	72.56
438.77	114.69
438.96	0.00
439.14	28.09
439.33	0.00
439.52	39.79
439.70	86.60
439.89	14.04
440.08	72.56
440.26	91.28
440.45	23.41
440.63	42.13
440.82	56.17
441.01	58.51
441.19	72.56
441.38	25.75
441.57	2.34
441.75	4.68
441.94	74.90
442.12	117.03
442.31	0.00
442.50	0.00
442.68	74.90
442.87	28.09
443.05	128.73
443.24	30.43
443.43	105.32
443.61	30.43
443.80	58.51
443.98	39.79
444.17	49.15
444.35	112.35
444.54	88.94
444.73	30.43
444.91	23.41
445.10	0.00
445.28	93.62
445.47	0.00
445.65	39.79
445.84	86.60
446.02	14.04
446.21	72.56
446.39	56.17
446.58	72.56
446.77	14.04
446.95	42.13
447.14	79.58
447.32	72.56
447.51	16.38
447.69	79.58
447.88	56.17
448.06	18.72
448.25	7.02
448.43	32.77
448.62	18.72
448.80	7.02
448.99	7.02
449.17	86.60
449.36	58.51
449.54	0.00
449.73	23.41
449.91	63.19
450.10	65.54
450.28	74.90
450.46	102.98
450.65	88.94
450.83	46.81
451.02	65.54
451.20	88.94
451.39	37.45
451.57	0.00
451.76	28.09
451.94	30.43
452.13	79.58
452.31	114.69
452.49	81.92
452.68	107.66
452.86	37.45
453.05	67.88
453.23	46.81
453.42	37.45
453.60	56.17
453.78	51.49
453.97	37.45
454.15	37.45
454.34	28.09
454.52	72.56
454.70	30.43
454.89	44.47
455.07	72.56
455.26	30.43
455.44	98.30
455.62	51.49
455.81	39.79
455.99	63.19
456.17	30.43
456.36	0.00
456.54	77.24
456.73	32.77
456.91	60.85
457.09	159.16
457.28	81.92
457.46	32.77
457.64	32.77
457.83	74.90
458.01	88.94
458.19	60.85
458.38	67.88
458.56	0.00
458.74	16.38
458.93	72.56
459.11	25.75
459.29	18.72
459.48	39.79
459.66	81.92
459.84	107.66
460.03	81.92
460.21	16.38
460.39	107.66
460.57	44.47
460.76	46.81
460.94	11.70
461.12	63.19
461.31	56.17
461.49	102.98
461.67	79.58
461.85	7.02
462.04	81.92
462.22	79.58
462.40	16.38
462.59	53.83
462.77	140.43
462.95	30.43
463.13	58.51
463.32	81.92
463.50	93.62
463.68	25.75
463.86	53.83
464.05	7.02
464.23	0.00
464.41	95.96
464.59	32.77
464.78	84.26
464.96	25.75
465.14	100.64
465.32	0.00
465.50	63.19
465.69	21.06
465.87	70.22
466.05	63.19
466.23	30.43
466.41	23.41
466.60	58.51
466.78	37.45
466.96	58.51
467.14	28.09
467.32	49.15
467.51	67.88
467.69	163.84
467.87	77.24
468.05	149.79
468.23	25.75
468.41	0.00
468.60	32.77
468.78	133.41
468.96	51.49
469.14	140.43
469.32	32.77
469.50	2.34
469.69	133.41
469.87	53.83
470.05	102.98
470.23	35.11
470.41	0.00
470.59	79.58
470.77	84.26
470.95	131.07
471.14	53.83
471.32	35.11
471.50	46.81
471.68	14.04
471.86	63.19
472.04	30.43
472.22	117.03
472.40	28.09
472.58	72.56
472.77	53.83
472.95	39.79
473.13	51.49
473.31	56.17
473.49	0.00
473.67	11.70
473.85	86.60
474.03	138.09
474.21	84.26
474.39	37.45
474.57	72.56
474.75	0.00
474.93	49.15
475.12	0.00
475.30	93.62
475.48	35.11
475.66	49.15
475.84	42.13
476.02	46.81
476.20	9.36
476.38	11.70
476.56	91.28
476.74	63.19
476.92	93.62
477.10	63.19
477.28	72.56
477.46	9.36
477.64	18.72
477.82	60.85
478.00	67.88
478.18	93.62
478.36	60.85
478.54	93.62
478.72	0.00
478.90	25.75
479.08	88.94
479.26	49.15
479.44	56.17
479.62	14.04
479.80	84.26
479.98	0.00
480.16	9.36
480.34	91.28
480.52	42.13
480.70	35.11
480.88	58.51
481.06	81.92
481.24	72.56
481.41	56.17
481.59	58.51
481.77	0.00
481.95	102.98
482.13	86.60
482.31	18.72
482.49	81.92
482.67	91.28
482.85	30.43
483.03	53.83
483.21	4.68
483.39	70.22
483.57	53.83
483.74	84.26
483.92	0.00
484.10	37.45
484.28	60.85
484.46	93.62
484.64	72.56
484.82	124.05
485.00	51.49
485.18	93.62
485.35	128.73
485.53	0.00
485.71	74.90
485.89	35.11
486.07	25.75
486.25	79.58
486.43	93.62
486.61	124.05
486.78	91.28
486.96	117.03
487.14	72.56
487.32	105.32
487.50	77.24
487.68	79.58
487.85	2.34
488.03	95.96
488.21	53.83
488.39	74.90
488.57	91.28
488.75	86.60
488.92	72.56
489.10	60.85
489.28	81.92
489.46	65.54
489.64	39.79
489.81	23.41
489.99	72.56
490.17	63.19
490.35	81.92
490.53	121.71
490.70	42.13
490.88	95.96
491.06	37.45
491.24	93.62
491.41	77.24
491.59	67.88
491.77	11.70
491.95	91.28
492.13	65.54
492.30	65.54
492.48	112.35
492.66	35.11
492.84	0.00
493.01	156.82
493.19	95.96
493.37	102.98
493.54	44.47
493.72	93.62
493.90	32.77
494.08	67.88
494.25	72.56
494.43	74.90
494.61	58.51
494.79	46.81
494.96	114.69
495.14	65.54
495.32	112.35
495.49	79.58
495.67	49.15
495.85	30.43
496.02	49.15
496.20	32.77
496.38	91.28
496.55	37.45
496.73	84.26
496.91	84.26
497.09	39.79
497.26	135.75
497.44	63.19
497.62	91.28
497.79	0.00
497.97	112.35
498.14	107.66
498.32	117.03
498.50	51.49
498.67	140.43
498.85	16.38
499.03	126.39
499.20	149.79
499.38	102.98
499.56	93.62
499.73	81.92
499.91	39.79
500.08	44.47
500.26	23.41
500.44	112.35
500.61	168.52
500.79	77.24
500.97	107.66
501.14	44.47
501.32	0.00
501.49	74.90
501.67	65.54
501.84	56.17
502.02	98.30
502.20	110.01
502.37	79.58
502.55	163.84
502.72	23.41
502.90	121.71
503.07	32.77
503.25	93.62
503.43	30.43
503.60	49.15
503.78	102.98
503.95	138.09
504.13	23.41
504.30	110.01
504.48	9.36
504.65	140.43
504.83	77.24
505.01	88.94
505.18	74.90
505.36	138.09
505.53	93.62
505.71	74.90
505.88	51.49
506.06	65.54
506.23	56.17
506.41	39.79
506.58	182.56
506.76	30.43
506.93	70.22
507.11	77.24
507.28	44.47
507.46	56.17
507.63	107.66
507.81	93.62
507.98	107.66
508.16	133.41
508.33	110.01
508.50	9.36
508.68	7.02
508.85	133.41
509.03	65.54
509.20	100.64
509.38	77.24
509.55	147.45
509.73	100.64
509.90	133.41
510.08	121.71
510.25	110.01
510.42	105.32
510.60	100.64
510.77	93.62
510.95	84.26
511.12	124.05
511.30	95.96
511.47	56.17
511.64	30.43
511.82	74.90
511.99	63.19
512.17	74.90
512.34	32.77
512.51	128.73
512.69	105.32
512.86	65.54
513.04	72.56
513.21	74.90
513.38	44.47
513.56	0.00
513.73	70.22
513.90	79.58
514.08	170.86
514.25	74.90
514.43	37.45
514.60	98.30
514.77	30.43
514.95	58.51
515.12	77.24
515.29	135.75
515.47	35.11
515.64	81.92
515.81	79.58
515.99	56.17
516.16	105.32
516.33	112.35
516.51	60.85
516.68	0.00
516.85	49.15
517.03	67.88
517.20	60.85
517.37	77.24
517.54	126.39
517.72	105.32
517.89	49.15
518.06	128.73
518.24	147.45
518.41	42.13
518.58	105.32
518.75	74.90
518.93	149.79
519.10	86.60
519.27	25.75
519.45	51.49
519.62	70.22
519.79	86.60
519.96	70.22
520.14	46.81
520.31	81.92
520.48	28.09
520.65	77.24
520.83	100.64
521.00	39.79
521.17	65.54
521.34	105.32
521.52	159.16
521.69	114.69
521.86	102.98
522.03	142.77
522.20	37.45
522.38	72.56
522.55	51.49
522.72	98.30
522.89	147.45
523.07	63.19
523.24	117.03
523.41	79.58
523.58	74.90
523.75	88.94
523.92	133.41
524.10	72.56
524.27	37.45
524.44	105.32
524.61	126.39
524.78	72.56
524.96	121.71
525.13	140.43
525.30	84.26
525.47	37.45
525.64	119.37
525.81	81.92
525.98	56.17
526.16	58.51
526.33	112.35
526.50	126.39
526.67	149.79
526.84	86.60
527.01	53.83
527.18	100.64
527.36	51.49
527.53	0.00
527.70	84.26
527.87	74.90
528.04	42.13
528.21	63.19
528.38	28.09
528.55	58.51
528.72	91.28
528.89	107.66
529.07	98.30
529.24	72.56
529.41	95.96
529.58	39.79
529.75	37.45
529.92	4.68
530.09	67.88
530.26	91.28
530.43	105.32
530.60	121.71
530.77	49.15
530.94	42.13
531.11	88.94
531.28	156.82
531.46	91.28
531.63	84.26
531.80	72.56
531.97	98.30
532.14	91.28
532.31	84.26
532.48	4.68
532.65	28.09
532.82	0.00
532.99	58.51
533.16	138.09
533.33	46.81
533.50	58.51
533.67	86.60
533.84	126.39
534.01	16.38
534.18	84.26
534.35	117.03
534.52	60.85
534.69	72.56
534.86	147.45
535.03	117.03
535.20	0.00
535.37	102.98
535.54	147.45
535.71	72.56
535.88	51.49
536.05	91.28
536.22	126.39
536.38	60.85
536.55	70.22
536.72	9.36
536.89	46.81
537.06	79.58
537.23	49.15
537.40	100.64
537.57	42.13
537.74	91.28
537.91	60.85
538.08	0.00
538.25	93.62
538.42	0.00
538.59	86.60
538.75	110.01
538.92	46.81
539.09	39.79
539.26	79.58
539.43	88.94
539.60	44.47
539.77	138.09
539.94	142.77
540.11	14.04
540.28	56.17
540.44	74.90
540.61	25.75
540.78	56.17
540.95	86.60
541.12	91.28
541.29	147.45
541.46	49.15
541.62	119.37
541.79	70.22
541.96	4.68
542.13	35.11
542.30	131.07
542.47	145.11
542.63	79.58
542.80	79.58
542.97	133.41
543.14	63.19
543.31	37.45
543.48	170.86
543.64	138.09
543.81	70.22
543.98	102.98
544.15	86.60
544.32	72.56
544.48	107.66
544.65	156.82
544.82	102.98
544.99	110.01
545.16	88.94
545.32	77.24
545.49	91.28
545.66	107.66
545.83	0.00
546.00	7.02
546.16	84.26
546.33	142.77
546.50	81.92
546.67	117.03
546.83	95.96
547.00	112.35
547.17	53.83
547.34	0.00
547.50	95.96
547.67	124.05
547.84	35.11
548.00	44.47
548.17	70.22
548.34	119.37
548.51	74.90
548.67	100.64
548.84	49.15
549.01	44.47
549.18	25.75
549.34	114.69
549.51	117.03
549.68	49.15
549.84	91.28
550.01	0.00
550.18	110.01
550.34	56.17
550.51	74.90
550.68	72.56
550.84	77.24
551.01	14.04
551.18	58.51
551.34	102.98
551.51	65.54
551.68	86.60
551.84	124.05
552.01	121.71
552.18	100.64
552.34	56.17
552.51	140.43
552.68	4.68
552.84	95.96
553.01	58.51
553.18	0.00
553.34	63.19
553.51	28.09
553.67	110.01
553.84	18.72
554.01	67.88
554.17	0.00
554.34	124.05
554.51	93.62
554.67	88.94
554.84	133.41
555.00	63.19
555.17	51.49
555.33	25.75
555.50	119.37
555.67	53.83
555.83	124.05
556.00	56.17
556.16	161.50
556.33	44.47
556.50	100.64
556.66	77.24
556.83	49.15
556.99	88.94
557.16	86.60
557.32	72.56
557.49	14.04
557.65	112.35
557.82	81.92
557.98	93.62
558.15	107.66
558.32	58.51
558.48	84.26
558.65	70.22
558.81	98.30
558.98	91.28
559.14	166.18
559.31	84.26
559.47	72.56
559.64	32.77
559.80	84.26
559.97	110.01
560.13	119.37
560.30	42.13
560.46	107.66
560.63	140.43
560.79	138.09
560.96	117.03
561.12	58.51
561.29	49.15
561.45	149.79
561.61	86.60
561.78	86.60
561.94	95.96
562.11	63.19
562.27	60.85
562.44	110.01
562.60	60.85
562.77	117.03
562.93	133.41
563.10	77.24
563.26	74.90
563.42	105.32
563.59	124.05
563.75	84.26
563.92	65.54
564.08	32.77
564.24	98.30
564.41	119.37
564.57	98.30
564.74	44.47
564.90	79.58
565.07	53.83
565.23	28.09
565.39	58.51
565.56	44.47
565.72	81.92
565.88	32.77
566.05	46.81
566.21	51.49
566.38	70.22
566.54	67.88
566.70	142.77
566.87	65.54
567.03	91.28
567.19	105.32
567.36	154.48
567.52	51.49
567.68	95.96
567.85	84.26
568.01	105.32
568.17	44.47
568.34	51.49
568.50	53.83
568.66	32.77
568.83	35.11
568.99	88.94
569.15	39.79
569.32	107.66
569.48	28.09
569.64	49.15
569.81	63.19
569.97	32.77
570.13	77.24
570.30	0.00
570.46	88.94
570.62	133.41
570.78	65.54
570.95	124.05
571.11	131.07
571.27	100.64
571.43	81.92
571.60	18.72
571.76	42.13
571.92	93.62
572.09	65.54
572.25	77.24
572.41	98.30
572.57	67.88
572.74	58.51
572.90	100.64
573.06	65.54
573.22	86.60
573.38	84.26
573.55	133.41
573.71	168.52
573.87	81.92
574.03	142.77
574.20	65.54
574.36	39.79
574.52	79.58
574.68	18.72
574.84	49.15
575.01	44.47
575.17	84.26
575.33	72.56
575.49	102.98
575.65	65.54
575.82	39.79
575.98	88.94
576.14	81.92
576.30	98.30
576.46	35.11
576.62	112.35
576.79	60.85
576.95	128.73
577.11	65.54
577.27	114.69
577.43	56.17
577.59	74.90
577.75	44.47
577.92	65.54
578.08	42.13
578.24	65.54
578.40	74.90
578.56	86.60
578.72	105.32
578.88	65.54
579.04	0.00
579.21	44.47
579.37	112.35
579.53	121.71
579.69	72.56
579.85	72.56
580.01	95.96
580.17	124.05
580.33	93.62
580.49	25.75
580.65	14.04
580.82	91.28
580.98	39.79
581.14	21.06
581.30	77.24
581.46	77.24
581.62	88.94
581.78	79.58
581.94	95.96
582.10	105.32
582.26	60.85
582.42	86.60
582.58	60.85
582.74	81.92
582.90	152.13
583.06	81.92
583.22	81.92
583.38	128.73
583.54	67.88
583.70	65.54
583.86	77.24
584.02	0.00
584.18	28.09
584.34	46.81
584.50	114.69
584.66	25.75
584.82	16.38
584.98	0.00
585.14	67.88
585.30	46.81
585.46	58.51
585.62	56.17
585.78	126.39
585.94	105.32
586.10	63.19
586.26	46.81
586.42	79.58
586.58	86.60
586.74	102.98
586.90	110.01
587.06	84.26
587.22	107.66
587.38	95.96
587.54	51.49
587.70	88.94
587.86	81.92
588.02	58.51
588.18	112.35
588.34	58.51
588.49	56.17
588.65	86.60
588.81	84.26
588.97	51.49
589.13	25.75
589.29	105.32
589.45	126.39
589.61	84.26
589.77	100.64
589.93	32.77
590.08	98.30
590.24	25.75
590.40	46.81
590.56	86.60
590.72	105.32
590.88	35.11
591.04	65.54
591.20	18.72
591.35	105.32
591.51	72.56
591.67	18.72
591.83	65.54
591.99	88.94
592.15	60.85
592.31	70.22
592.46	84.26
592.62	53.83
592.78	58.51
592.94	56.17
593.10	51.49
593.26	65.54
593.41	4.68
593.57	28.09
593.73	112.35
593.89	67.88
594.05	67.88
594.20	72.56
594.36	112.35
594.52	177.88
594.68	39.79
594.84	100.64
594.99	28.09
595.15	65.54
595.31	124.05
595.47	51.49
595.62	81.92
595.78	79.58
595.94	121.71
596.10	110.01
596.25	46.81
596.41	79.58
596.57	0.00
596.73	100.64
596.88	65.54
597.04	81.92
597.20	105.32
597.36	72.56
597.51	70.22
597.67	51.49
597.83	102.98
597.99	93.62
598.14	81.92
598.30	72.56
598.46	49.15
598.61	88.94
598.77	65.54
598.93	86.60
599.09	88.94
599.24	114.69
599.40	51.49
599.56	49.15
599.71	9.36
599.87	63.19
600.03	74.90
600.18	121.71
600.34	67.88
600.50	91.28
600.65	187.24
600.81	42.13
600.97	70.22
601.12	161.50
601.28	42.13
601.44	0.00
601.59	93.62
601.75	79.58
601.91	56.17
602.06	79.58
602.22	32.77
602.37	37.45
602.53	86.60
602.69	74.90
602.84	49.15
603.00	42.13
603.16	91.28
603.31	37.45
603.47	65.54
603.62	72.56
603.78	74.90
603.94	117.03
604.09	0.00
604.25	91.28
604.40	102.98
604.56	86.60
604.71	100.64
604.87	18.72
605.03	88.94
605.18	42.13
605.34	112.35
605.49	119.37
605.65	117.03
605.80	86.60
605.96	49.15
606.12	86.60
606.27	39.79
606.43	86.60
606.58	23.41
606.74	46.81
606.89	84.26
607.05	81.92
607.20	107.66
607.36	70.22
607.51	35.11
607.67	100.64
607.82	63.19
607.98	53.83
608.13	58.51
608.29	74.90
608.44	105.32
608.60	14.04
608.75	98.30
608.91	81.92
609.06	63.19
609.22	67.88
609.37	86.60
609.53	70.22
609.68	102.98
609.84	98.30
609.99	37.45
610.15	88.94
610.30	65.54
610.46	91.28
610.61	91.28
610.76	44.47
610.92	102.98
611.07	93.62
611.23	44.47
611.38	88.94
611.54	25.75
611.69	67.88
611.84	2.34
612.00	42.13
612.15	32.77
612.31	159.16
612.46	58.51
612.62	35.11
612.77	79.58
612.92	117.03
613.08	86.60
613.23	65.54
613.39	0.00
613.54	51.49
613.69	159.16
613.85	105.32
614.00	86.60
614.15	39.79
614.31	74.90
614.46	42.13
614.62	95.96
614.77	91.28
614.92	91.28
615.08	86.60
615.23	42.13
615.38	93.62
615.54	35.11
615.69	88.94
615.84	53.83
616.00	67.88
616.15	121.71
616.30	131.07
616.46	65.54
616.61	138.09
616.76	70.22
616.92	131.07
617.07	79.58
617.22	0.00
617.37	21.06
617.53	18.72
617.68	56.17
617.83	126.39
617.99	110.01
618.14	110.01
618.29	110.01
618.45	49.15
618.60	121.71
618.75	28.09
618.90	135.75
619.06	81.92
619.21	117.03
619.36	91.28
619.51	46.81
619.67	74.90
619.82	65.54
619.97	65.54
620.12	0.00
620.28	49.15
620.43	37.45
620.58	135.75
620.73	72.56
620.89	53.83
621.04	53.83
621.19	0.00
621.34	28.09
621.49	107.66
621.65	84.26
621.80	114.69
621.95	51.49
622.10	112.35
622.25	65.54
622.41	42.13
622.56	74.90
622.71	42.13
622.86	117.03
623.01	74.90
623.16	119.37
623.32	46.81
623.47	7.02
623.62	0.00
623.77	21.06
623.92	39.79
624.07	70.22
624.23	95.96
624.38	58.51
624.53	56.17
624.68	46.81
624.83	100.64
624.98	51.49
625.13	49.15
625.29	79.58
625.44	117.03
625.59	37.45
625.74	23.41
625.89	56.17
626.04	124.05
626.19	119.37
626.34	60.85
626.49	72.56
626.65	32.77
626.80	11.70
626.95	39.79
627.10	23.41
627.25	18.72
627.40	67.88
627.55	128.73
627.70	95.96
627.85	2.34
628.00	81.92
628.15	74.90
628.30	70.22
628.45	0.00
628.60	93.62
628.76	42.13
628.91	63.19
629.06	74.90
629.21	32.77
629.36	51.49
629.51	98.30
629.66	95.96
629.81	81.92
629.96	46.81
630.11	32.77
630.26	58.51
630.41	86.60
630.56	25.75
630.71	37.45
630.86	102.98
631.01	51.49
631.16	79.58
631.31	91.28
631.46	74.90
631.61	21.06
631.76	23.41
631.91	44.47
632.06	102.98
632.21	35.11
632.36	84.26
632.51	70.22
632.66	23.41
632.81	11.70
632.96	4.68
633.10	81.92
633.25	46.81
633.40	51.49
633.55	121.71
633.70	110.01
633.85	37.45
634.00	100.64
634.15	44.47
634.30	0.00
634.45	42.13
634.60	28.09
634.75	56.17
634.90	9.36
635.05	74.90
635.19	56.17
635.34	112.35
635.49	44.47
635.64	56.17
635.79	88.94
635.94	51.49
636.09	16.38
636.24	88.94
636.39	77.24
636.53	67.88
636.68	0.00
636.83	98.30
636.98	72.56
637.13	58.51
637.28	32.77
637.43	23.41
637.57	0.00
637.72	65.54
637.87	35.11
638.02	70.22
638.17	56.17
638.32	44.47
638.46	117.03
638.61	18.72
638.76	21.06
638.91	72.56
639.06	2.34
639.20	25.75
639.35	14.04
639.50	131.07
639.65	56.17
639.80	159.16
639.94	72.56
640.09	131.07
640.24	39.79
640.39	58.51
640.54	86.60
640.68	42.13
640.83	16.38
640.98	79.58
641.13	18.72
641.27	51.49
641.42	88.94
641.57	53.83
641.72	86.60
641.86	11.70
642.01	70.22
642.16	65.54
642.31	88.94
642.45	119.37
642.60	77.24
642.75	30.43
642.90	95.96
643.04	67.88
643.19	49.15
643.34	44.47
643.48	0.00
643.63	107.66
643.78	84.26
643.93	72.56
644.07	39.79
644.22	72.56
644.37	39.79
644.51	46.81
644.66	39.79
644.81	46.81
644.95	32.77
645.10	60.85
645.25	35.11
645.39	4.68
645.54	56.17
645.69	37.45
645.83	46.81
645.98	72.56
646.13	72.56
646.27	23.41
646.42	98.30
646.57	39.79
646.71	114.69
646.86	0.00
647.00	49.15
647.15	7.02
647.30	23.41
647.44	51.49
647.59	49.15
647.74	105.32
647.88	107.66
648.03	63.19
648.17	56.17
648.32	51.49
648.47	72.56
648.61	53.83
648.76	117.03
648.90	70.22
649.05	74.90
649.20	49.15
649.34	30.43
649.49	0.00
649.63	2.34
649.78	32.77
649.92	49.15
650.07	86.60
650.21	42.13
650.36	0.00
650.51	16.38
650.65	72.56
650.80	84.26
650.94	58.51
651.09	4.68
651.23	107.66
651.38	46.81
651.52	67.88
651.67	0.00
651.81	25.75
651.96	175.54
652.10	107.66
652.25	102.98
652.39	11.70
652.54	18.72
652.68	56.17
652.83	25.75
652.97	28.09
653.12	65.54
653.26	0.00
653.41	0.00
653.55	32.77
653.70	7.02
653.84	53.83
653.99	0.00
654.13	0.00
654.27	91.28
654.42	72.56
654.56	35.11
654.71	51.49
654.85	4.68
655.00	0.00
655.14	81.92
655.29	65.54
655.43	9.36
655.57	65.54
655.72	14.04
655.86	23.41
656.01	63.19
656.15	70.22
656.30	126.39
656.44	16.38
656.58	74.90
656.73	25.75
656.87	65.54
657.01	86.60
657.16	30.43
657.30	60.85
657.45	63.19
657.59	23.41
657.73	70.22
657.88	0.00
658.02	98.30
658.16	9.36
658.31	0.00
658.45	67.88
658.60	67.88
658.74	7.02
658.88	37.45
659.03	86.60
659.17	110.01
659.31	42.13
659.46	30.43
659.60	35.11
659.74	18.72
659.89	30.43
660.03	88.94
660.17	77.24
660.32	67.88
660.46	49.15
660.60	95.96
660.74	65.54
660.89	86.60
661.03	56.17
661.17	65.54
661.32	53.83
661.46	37.45
661.60	110.01
661.74	77.24
661.89	145.11
662.03	84.26
662.17	25.75
662.31	58.51
662.46	0.00
662.60	30.43
662.74	16.38
662.88	0.00
663.03	32.77
663.17	39.79
663.31	42.13
663.45	67.88
663.60	79.58
663.74	0.00
663.88	39.79
664.02	102.98
664.17	65.54
664.31	18.72
664.45	16.38
664.59	28.09
664.73	39.79
664.88	9.36
665.02	100.64
665.16	53.83
665.30	65.54
665.44	18.72
665.59	46.81
665.73	107.66
665.87	49.15
666.01	93.62
666.15	0.00
666.29	70.22
666.44	72.56
666.58	18.72
666.72	107.66
666.86	81.92
667.00	114.69
667.14	28.09
667.28	37.45
667.43	65.54
667.57	84.26
667.71	7.02
667.85	91.28
667.99	53.83
668.13	7.02
668.27	107.66
668.41	63.19
668.56	42.13
668.70	79.58
668.84	121.71
668.98	95.96
669.12	74.90
669.26	44.47
669.40	65.54
669.54	112.35
669.68	107.66
669.82	30.43
669.96	114.69
670.10	65.54
670.25	0.00
670.39	11.70
670.53	39.79
670.67	112.35
670.81	70.22
670.95	16.38
671.09	74.90
671.23	77.24
671.37	72.56
671.51	119.37
671.65	67.88
671.79	49.15
671.93	0.00
672.07	35.11
672.21	81.92
672.35	37.45
672.49	30.43
672.63	7.02
672.77	53.83
672.91	107.66
673.05	93.62
673.19	91.28
673.33	51.49
673.47	88.94
673.61	72.56
673.75	91.28
673.89	0.00
674.03	37.45
674.17	28.09
674.31	67.88
674.45	37.45
674.59	14.04
674.73	72.56
674.87	23.41
675.01	138.09
675.15	56.17
675.29	65.54
675.43	79.58
675.56	67.88
675.70	93.62
675.84	58.51
675.98	16.38
676.12	56.17
676.26	0.00
676.40	51.49
676.54	112.35
676.68	0.00
676.82	60.85
676.96	9.36
677.10	21.06
677.23	72.56
677.37	0.00
677.51	168.52
677.65	42.13
677.79	14.04
677.93	102.98
678.07	9.36
678.21	0.00
678.34	0.00
678.48	77.24
678.62	0.00
678.76	30.43
678.90	4.68
679.04	28.09
679.18	91.28
679.31	16.38
679.45	60.85
679.59	49.15
679.73	58.51
679.87	42.13
680.00	88.94
680.14	49.15
680.28	23.41
680.42	0.00
680.56	9.36
680.70	74.90
680.83	37.45
680.97	102.98
681.11	102.98
681.25	23.41
681.39	81.92
681.52	93.62
681.66	79.58
681.80	18.72
681.94	0.00
682.07	39.79
682.21	28.09
682.35	63.19
682.49	16.38
682.62	100.64
682.76	0.00
682.90	51.49
683.04	100.64
683.17	16.38
683.31	32.77
683.45	0.00
683.59	91.28
683.72	56.17
683.86	39.79
684.00	35.11
684.13	67.88
684.27	37.45
684.41	60.85
684.55	93.62
684.68	18.72
684.82	0.00
684.96	49.15
685.09	49.15
685.23	0.00
685.37	49.15
685.50	32.77
685.64	25.75
685.78	37.45
685.91	95.96
686.05	65.54
686.19	25.75
686.32	0.00
686.46	9.36
686.60	70.22
686.73	42.13
686.87	53.83
687.01	56.17
687.14	0.00
687.28	0.00
687.42	30.43
687.55	39.79
687.69	37.45
687.82	105.32
687.96	49.15
688.10	9.36
688.23	121.71
688.37	0.00
688.50	105.32
688.64	49.15
688.78	7.02
688.91	0.00
689.05	49.15
689.18	42.13
689.32	77.24
689.46	7.02
689.59	35.11
689.73	32.77
689.86	32.77
690.00	16.38
690.13	58.51
690.27	30.43
690.41	9.36
690.54	79.58
690.68	53.83
690.81	32.77
690.95	11.70
691.08	72.56
691.22	16.38
691.35	0.00
691.49	2.34
691.62	9.36
691.76	49.15
691.89	84.26
692.03	79.58
692.16	37.45
692.30	0.00
692.43	51.49
692.57	39.79
692.70	91.28
692.84	23.41
692.97	93.62
693.11	30.43
693.24	0.00
693.38	53.83
693.51	42.13
693.65	58.51
693.78	11.70
693.92	60.85
694.05	14.04
694.19	9.36
694.32	0.00
694.45	32.77
694.59	0.00
694.72	39.79
694.86	107.66
694.99	4.68
695.13	0.00
695.26	21.06
695.39	14.04
695.53	0.00
695.66	37.45
695.80	0.00
695.93	11.70
696.07	7.02
696.20	37.45
696.33	28.09
696.47	4.68
696.60	7.02
696.73	16.38
696.87	93.62
697.00	0.00
697.14	32.77
697.27	77.24
697.40	14.04
697.54	0.00
697.67	2.34
697.80	0.00
697.94	0.00
698.07	49.15
698.21	81.92
698.34	4.68
698.47	63.19
698.61	84.26
698.74	42.13
698.87	72.56
699.01	0.00
699.14	21.06
699.27	65.54
699.40	32.77
699.54	133.41
699.67	2.34
699.80	138.09
699.94	84.26
700.07	67.88
700.20	25.75
700.34	60.85
700.47	49.15
700.60	46.81
700.73	14.04
700.87	88.94
701.00	21.06
701.13	25.75
701.26	74.90
701.40	67.88
701.53	21.06
701.66	23.41
701.79	81.92
701.93	18.72
702.06	0.00
702.19	28.09
702.32	53.83
702.46	0.00
702.59	0.00
702.72	81.92
702.85	65.54
702.99	63.19
703.12	44.47
703.25	65.54
703.38	42.13
703.51	0.00
703.65	0.00
703.78	11.70
703.91	0.00
704.04	51.49
704.17	32.77
704.31	0.00
704.44	91.28
704.57	79.58
704.70	53.83
704.83	28.09
704.96	0.00
705.10	42.13
705.23	119.37
>>>>>End Processed Spectral Data<<<<<
