SpectraSuite Data File
++++++++++++++++++++++++++++++++++++
Date: Fri Oct 04 12:13:32 GMT-05:00 2013
User: price-jones
Dark Spectrum Present: No
Reference Spectrum Present: No
Number of Sampled Component Spectra: 1
Spectrometers: USB2+H05261
Integration Time (usec): 10000 (USB2+H05261)
Spectra Averaged: 1 (USB2+H05261)
Boxcar Smoothing: 0 (USB2+H05261)
Correct for Electrical Dark: No (USB2+H05261)
Strobe/Lamp Enabled: No (USB2+H05261)
Correct for Detector Non-linearity: No (USB2+H05261)
Correct for Stray Light: No (USB2+H05261)
Number of Pixels in Processed Spectrum: 2048
>>>>>Begin Processed Spectral Data<<<<<
365.73	37.45
365.92	37.45
366.12	37.45
366.32	0.00
366.52	0.00
366.72	0.00
366.91	0.00
367.11	0.00
367.31	0.00
367.51	0.00
367.70	0.00
367.90	0.00
368.10	0.00
368.30	0.00
368.49	0.00
368.69	0.00
368.89	0.00
369.09	0.00
369.28	0.00
369.48	0.00
369.68	0.00
369.87	0.00
370.07	0.00
370.27	0.00
370.47	0.00
370.66	0.00
370.86	0.00
371.06	0.00
371.25	7.02
371.45	7.02
371.65	16.38
371.84	93.62
372.04	0.00
372.24	0.00
372.44	0.00
372.63	11.70
372.83	49.15
373.03	56.17
373.22	9.36
373.42	35.11
373.62	14.04
373.81	30.43
374.01	51.49
374.21	11.70
374.40	21.06
374.60	0.00
374.79	0.00
374.99	2.34
375.19	84.26
375.38	67.88
375.58	60.85
375.78	42.13
375.97	14.04
376.17	91.28
376.37	9.36
376.56	91.28
376.76	119.37
376.95	39.79
377.15	39.79
377.35	32.77
377.54	2.34
377.74	28.09
377.93	63.19
378.13	0.00
378.33	84.26
378.52	88.94
378.72	39.79
378.91	42.13
379.11	86.60
379.31	58.51
379.50	0.00
379.70	0.00
379.89	0.00
380.09	70.22
380.28	30.43
380.48	0.00
380.68	9.36
380.87	28.09
381.07	0.00
381.26	67.88
381.46	0.00
381.65	56.17
381.85	0.00
382.04	0.00
382.24	0.00
382.43	105.32
382.63	0.00
382.83	25.75
383.02	37.45
383.22	39.79
383.41	0.00
383.61	56.17
383.80	77.24
384.00	79.58
384.19	0.00
384.39	0.00
384.58	0.00
384.78	0.00
384.97	0.00
385.17	28.09
385.36	49.15
385.56	79.58
385.75	0.00
385.95	35.11
386.14	16.38
386.34	11.70
386.53	35.11
386.72	0.00
386.92	35.11
387.11	46.81
387.31	46.81
387.50	58.51
387.70	11.70
387.89	65.54
388.09	65.54
388.28	63.19
388.48	0.00
388.67	21.06
388.86	0.00
389.06	0.00
389.25	4.68
389.45	0.00
389.64	0.00
389.84	0.00
390.03	42.13
390.22	63.19
390.42	72.56
390.61	0.00
390.81	37.45
391.00	23.41
391.19	67.88
391.39	14.04
391.58	0.00
391.78	4.68
391.97	28.09
392.16	0.00
392.36	0.00
392.55	18.72
392.75	0.00
392.94	9.36
393.13	37.45
393.33	18.72
393.52	0.00
393.71	11.70
393.91	0.00
394.10	44.47
394.29	32.77
394.49	35.11
394.68	0.00
394.88	14.04
395.07	0.00
395.26	32.77
395.46	0.00
395.65	25.75
395.84	72.56
396.04	14.04
396.23	0.00
396.42	0.00
396.62	0.00
396.81	4.68
397.00	100.64
397.19	56.17
397.39	14.04
397.58	25.75
397.77	0.00
397.97	56.17
398.16	35.11
398.35	102.98
398.55	44.47
398.74	18.72
398.93	0.00
399.12	39.79
399.32	60.85
399.51	4.68
399.70	37.45
399.90	11.70
400.09	0.00
400.28	7.02
400.47	14.04
400.67	119.37
400.86	93.62
401.05	65.54
401.24	46.81
401.44	7.02
401.63	28.09
401.82	0.00
402.01	23.41
402.21	28.09
402.40	4.68
402.59	25.75
402.78	0.00
402.97	49.15
403.17	32.77
403.36	32.77
403.55	9.36
403.74	18.72
403.93	53.83
404.13	35.11
404.32	58.51
404.51	23.41
404.70	28.09
404.89	44.47
405.09	0.00
405.28	0.00
405.47	42.13
405.66	11.70
405.85	32.77
406.05	18.72
406.24	56.17
406.43	11.70
406.62	7.02
406.81	74.90
407.00	51.49
407.20	49.15
407.39	44.47
407.58	72.56
407.77	0.00
407.96	0.00
408.15	60.85
408.34	0.00
408.54	0.00
408.73	110.01
408.92	0.00
409.11	37.45
409.30	11.70
409.49	25.75
409.68	100.64
409.87	0.00
410.07	0.00
410.26	18.72
410.45	0.00
410.64	25.75
410.83	63.19
411.02	98.30
411.21	21.06
411.40	39.79
411.59	18.72
411.78	65.54
411.98	60.85
412.17	11.70
412.36	23.41
412.55	65.54
412.74	30.43
412.93	0.00
413.12	49.15
413.31	44.47
413.50	30.43
413.69	21.06
413.88	4.68
414.07	16.38
414.26	28.09
414.45	60.85
414.64	91.28
414.83	0.00
415.02	53.83
415.22	39.79
415.41	23.41
415.60	0.00
415.79	0.00
415.98	14.04
416.17	56.17
416.36	0.00
416.55	60.85
416.74	16.38
416.93	37.45
417.12	60.85
417.31	77.24
417.50	0.00
417.69	11.70
417.88	112.35
418.07	11.70
418.26	23.41
418.45	23.41
418.64	117.03
418.83	100.64
419.02	0.00
419.21	0.00
419.39	37.45
419.58	53.83
419.77	23.41
419.96	44.47
420.15	53.83
420.34	39.79
420.53	53.83
420.72	60.85
420.91	119.37
421.10	35.11
421.29	9.36
421.48	86.60
421.67	42.13
421.86	56.17
422.05	0.00
422.24	32.77
422.43	14.04
422.61	58.51
422.80	51.49
422.99	0.00
423.18	0.00
423.37	56.17
423.56	60.85
423.75	0.00
423.94	11.70
424.13	65.54
424.32	77.24
424.50	32.77
424.69	25.75
424.88	0.00
425.07	32.77
425.26	14.04
425.45	0.00
425.64	63.19
425.83	79.58
426.01	0.00
426.20	25.75
426.39	30.43
426.58	58.51
426.77	0.00
426.96	91.28
427.15	32.77
427.33	25.75
427.52	70.22
427.71	9.36
427.90	74.90
428.09	0.00
428.28	35.11
428.46	25.75
428.65	56.17
428.84	42.13
429.03	91.28
429.22	65.54
429.40	23.41
429.59	9.36
429.78	32.77
429.97	16.38
430.16	0.00
430.34	11.70
430.53	42.13
430.72	25.75
430.91	0.00
431.10	0.00
431.28	25.75
431.47	9.36
431.66	81.92
431.85	0.00
432.03	0.00
432.22	72.56
432.41	67.88
432.60	4.68
432.79	0.00
432.97	4.68
433.16	0.00
433.35	28.09
433.54	32.77
433.72	0.00
433.91	11.70
434.10	4.68
434.28	0.00
434.47	56.17
434.66	7.02
434.85	0.00
435.03	21.06
435.22	37.45
435.41	30.43
435.59	53.83
435.78	77.24
435.97	0.00
436.16	9.36
436.34	2.34
436.53	0.00
436.72	0.00
436.90	51.49
437.09	37.45
437.28	93.62
437.46	11.70
437.65	25.75
437.84	14.04
438.02	2.34
438.21	25.75
438.40	49.15
438.58	84.26
438.77	0.00
438.96	0.00
439.14	72.56
439.33	65.54
439.52	4.68
439.70	42.13
439.89	0.00
440.08	9.36
440.26	0.00
440.45	60.85
440.63	16.38
440.82	0.00
441.01	7.02
441.19	7.02
441.38	21.06
441.57	74.90
441.75	16.38
441.94	25.75
442.12	0.00
442.31	79.58
442.50	0.00
442.68	42.13
442.87	0.00
443.05	60.85
443.24	39.79
443.43	53.83
443.61	0.00
443.80	32.77
443.98	28.09
444.17	46.81
444.35	39.79
444.54	84.26
444.73	39.79
444.91	11.70
445.10	4.68
445.28	65.54
445.47	0.00
445.65	0.00
445.84	32.77
446.02	53.83
446.21	63.19
446.39	32.77
446.58	51.49
446.77	65.54
446.95	107.66
447.14	18.72
447.32	0.00
447.51	95.96
447.69	11.70
447.88	100.64
448.06	77.24
448.25	53.83
448.43	42.13
448.62	35.11
448.80	0.00
448.99	25.75
449.17	25.75
449.36	4.68
449.54	0.00
449.73	4.68
449.91	25.75
450.10	0.00
450.28	84.26
450.46	0.00
450.65	74.90
450.83	0.00
451.02	21.06
451.20	0.00
451.39	70.22
451.57	46.81
451.76	49.15
451.94	56.17
452.13	49.15
452.31	35.11
452.49	0.00
452.68	30.43
452.86	51.49
453.05	0.00
453.23	0.00
453.42	0.00
453.60	35.11
453.78	81.92
453.97	74.90
454.15	11.70
454.34	28.09
454.52	77.24
454.70	0.00
454.89	16.38
455.07	18.72
455.26	18.72
455.44	7.02
455.62	0.00
455.81	84.26
455.99	23.41
456.17	0.00
456.36	56.17
456.54	14.04
456.73	84.26
456.91	32.77
457.09	49.15
457.28	81.92
457.46	42.13
457.64	0.00
457.83	30.43
458.01	7.02
458.19	72.56
458.38	0.00
458.56	14.04
458.74	70.22
458.93	9.36
459.11	21.06
459.29	49.15
459.48	23.41
459.66	32.77
459.84	98.30
460.03	133.41
460.21	67.88
460.39	4.68
460.57	140.43
460.76	51.49
460.94	91.28
461.12	14.04
461.31	21.06
461.49	23.41
461.67	25.75
461.85	42.13
462.04	23.41
462.22	93.62
462.40	32.77
462.59	37.45
462.77	49.15
462.95	16.38
463.13	63.19
463.32	72.56
463.50	28.09
463.68	23.41
463.86	32.77
464.05	119.37
464.23	65.54
464.41	23.41
464.59	49.15
464.78	39.79
464.96	77.24
465.14	4.68
465.32	11.70
465.50	23.41
465.69	63.19
465.87	32.77
466.05	42.13
466.23	65.54
466.41	53.83
466.60	0.00
466.78	44.47
466.96	0.00
467.14	58.51
467.32	11.70
467.51	2.34
467.69	14.04
467.87	7.02
468.05	32.77
468.23	0.00
468.41	51.49
468.60	0.00
468.78	30.43
468.96	0.00
469.14	0.00
469.32	56.17
469.50	2.34
469.69	46.81
469.87	39.79
470.05	79.58
470.23	67.88
470.41	44.47
470.59	9.36
470.77	0.00
470.95	0.00
471.14	49.15
471.32	0.00
471.50	0.00
471.68	65.54
471.86	0.00
472.04	16.38
472.22	16.38
472.40	4.68
472.58	58.51
472.77	0.00
472.95	9.36
473.13	0.00
473.31	56.17
473.49	0.00
473.67	0.00
473.85	0.00
474.03	4.68
474.21	93.62
474.39	49.15
474.57	0.00
474.75	95.96
474.93	72.56
475.12	65.54
475.30	14.04
475.48	44.47
475.66	0.00
475.84	11.70
476.02	60.85
476.20	67.88
476.38	0.00
476.56	44.47
476.74	86.60
476.92	0.00
477.10	51.49
477.28	23.41
477.46	18.72
477.64	39.79
477.82	63.19
478.00	23.41
478.18	63.19
478.36	9.36
478.54	77.24
478.72	0.00
478.90	0.00
479.08	0.00
479.26	28.09
479.44	102.98
479.62	72.56
479.80	42.13
479.98	86.60
480.16	91.28
480.34	4.68
480.52	14.04
480.70	98.30
480.88	21.06
481.06	7.02
481.24	30.43
481.41	51.49
481.59	25.75
481.77	0.00
481.95	56.17
482.13	98.30
482.31	93.62
482.49	21.06
482.67	56.17
482.85	23.41
483.03	102.98
483.21	9.36
483.39	95.96
483.57	86.60
483.74	7.02
483.92	39.79
484.10	23.41
484.28	98.30
484.46	42.13
484.64	74.90
484.82	42.13
485.00	9.36
485.18	2.34
485.35	32.77
485.53	46.81
485.71	42.13
485.89	0.00
486.07	98.30
486.25	11.70
486.43	28.09
486.61	9.36
486.78	37.45
486.96	37.45
487.14	60.85
487.32	74.90
487.50	51.49
487.68	110.01
487.85	46.81
488.03	65.54
488.21	65.54
488.39	0.00
488.57	0.00
488.75	79.58
488.92	86.60
489.10	0.00
489.28	51.49
489.46	18.72
489.64	11.70
489.81	30.43
489.99	35.11
490.17	11.70
490.35	0.00
490.53	70.22
490.70	93.62
490.88	79.58
491.06	9.36
491.24	18.72
491.41	18.72
491.59	63.19
491.77	0.00
491.95	0.00
492.13	156.82
492.30	28.09
492.48	53.83
492.66	0.00
492.84	14.04
493.01	56.17
493.19	95.96
493.37	35.11
493.54	95.96
493.72	2.34
493.90	0.00
494.08	11.70
494.25	0.00
494.43	84.26
494.61	56.17
494.79	28.09
494.96	28.09
495.14	84.26
495.32	128.73
495.49	37.45
495.67	0.00
495.85	60.85
496.02	65.54
496.20	0.00
496.38	124.05
496.55	35.11
496.73	53.83
496.91	16.38
497.09	0.00
497.26	70.22
497.44	65.54
497.62	4.68
497.79	16.38
497.97	79.58
498.14	95.96
498.32	14.04
498.50	14.04
498.67	51.49
498.85	74.90
499.03	0.00
499.20	79.58
499.38	49.15
499.56	11.70
499.73	28.09
499.91	65.54
500.08	65.54
500.26	56.17
500.44	51.49
500.61	16.38
500.79	140.43
500.97	46.81
501.14	51.49
501.32	39.79
501.49	114.69
501.67	79.58
501.84	44.47
502.02	21.06
502.20	93.62
502.37	42.13
502.55	60.85
502.72	53.83
502.90	142.77
503.07	28.09
503.25	49.15
503.43	60.85
503.60	51.49
503.78	0.00
503.95	0.00
504.13	79.58
504.30	70.22
504.48	98.30
504.65	0.00
504.83	98.30
505.01	35.11
505.18	18.72
505.36	18.72
505.53	91.28
505.71	25.75
505.88	30.43
506.06	7.02
506.23	18.72
506.41	25.75
506.58	7.02
506.76	74.90
506.93	49.15
507.11	147.45
507.28	60.85
507.46	79.58
507.63	53.83
507.81	28.09
507.98	53.83
508.16	32.77
508.33	0.00
508.50	25.75
508.68	77.24
508.85	58.51
509.03	56.17
509.20	0.00
509.38	95.96
509.55	53.83
509.73	39.79
509.90	14.04
510.08	60.85
510.25	112.35
510.42	84.26
510.60	49.15
510.77	35.11
510.95	37.45
511.12	0.00
511.30	42.13
511.47	72.56
511.64	0.00
511.82	91.28
511.99	32.77
512.17	7.02
512.34	67.88
512.51	44.47
512.69	74.90
512.86	32.77
513.04	37.45
513.21	18.72
513.38	91.28
513.56	37.45
513.73	7.02
513.90	11.70
514.08	110.01
514.25	9.36
514.43	32.77
514.60	60.85
514.77	42.13
514.95	7.02
515.12	117.03
515.29	58.51
515.47	56.17
515.64	25.75
515.81	0.00
515.99	14.04
516.16	67.88
516.33	88.94
516.51	49.15
516.68	39.79
516.85	30.43
517.03	42.13
517.20	67.88
517.37	39.79
517.54	0.00
517.72	0.00
517.89	70.22
518.06	0.00
518.24	18.72
518.41	0.00
518.58	93.62
518.75	0.00
518.93	51.49
519.10	60.85
519.27	58.51
519.45	2.34
519.62	37.45
519.79	42.13
519.96	95.96
520.14	58.51
520.31	0.00
520.48	60.85
520.65	21.06
520.83	67.88
521.00	39.79
521.17	53.83
521.34	102.98
521.52	81.92
521.69	30.43
521.86	42.13
522.03	60.85
522.20	65.54
522.38	18.72
522.55	35.11
522.72	0.00
522.89	98.30
523.07	49.15
523.24	42.13
523.41	21.06
523.58	25.75
523.75	2.34
523.92	74.90
524.10	37.45
524.27	0.00
524.44	70.22
524.61	28.09
524.78	56.17
524.96	37.45
525.13	124.05
525.30	30.43
525.47	63.19
525.64	9.36
525.81	58.51
525.98	28.09
526.16	79.58
526.33	0.00
526.50	39.79
526.67	30.43
526.84	28.09
527.01	0.00
527.18	39.79
527.36	98.30
527.53	35.11
527.70	14.04
527.87	18.72
528.04	81.92
528.21	0.00
528.38	88.94
528.55	16.38
528.72	11.70
528.89	65.54
529.07	14.04
529.24	81.92
529.41	46.81
529.58	0.00
529.75	30.43
529.92	25.75
530.09	105.32
530.26	56.17
530.43	0.00
530.60	37.45
530.77	37.45
530.94	9.36
531.11	32.77
531.28	44.47
531.46	25.75
531.63	46.81
531.80	49.15
531.97	135.75
532.14	98.30
532.31	72.56
532.48	121.71
532.65	11.70
532.82	51.49
532.99	63.19
533.16	51.49
533.33	49.15
533.50	11.70
533.67	53.83
533.84	91.28
534.01	4.68
534.18	58.51
534.35	67.88
534.52	63.19
534.69	21.06
534.86	0.00
535.03	74.90
535.20	39.79
535.37	81.92
535.54	0.00
535.71	23.41
535.88	0.00
536.05	93.62
536.22	105.32
536.38	95.96
536.55	0.00
536.72	51.49
536.89	35.11
537.06	65.54
537.23	16.38
537.40	63.19
537.57	107.66
537.74	70.22
537.91	88.94
538.08	21.06
538.25	58.51
538.42	42.13
538.59	9.36
538.75	42.13
538.92	11.70
539.09	63.19
539.26	53.83
539.43	0.00
539.60	119.37
539.77	72.56
539.94	51.49
540.11	32.77
540.28	39.79
540.44	67.88
540.61	53.83
540.78	53.83
540.95	95.96
541.12	46.81
541.29	53.83
541.46	11.70
541.62	32.77
541.79	18.72
541.96	145.11
542.13	37.45
542.30	56.17
542.47	32.77
542.63	44.47
542.80	32.77
542.97	44.47
543.14	51.49
543.31	81.92
543.48	51.49
543.64	42.13
543.81	65.54
543.98	88.94
544.15	110.01
544.32	58.51
544.48	53.83
544.65	37.45
544.82	4.68
544.99	16.38
545.16	49.15
545.32	0.00
545.49	74.90
545.66	4.68
545.83	42.13
546.00	39.79
546.16	49.15
546.33	56.17
546.50	32.77
546.67	23.41
546.83	44.47
547.00	135.75
547.17	60.85
547.34	51.49
547.50	102.98
547.67	18.72
547.84	14.04
548.00	53.83
548.17	23.41
548.34	0.00
548.51	16.38
548.67	74.90
548.84	63.19
549.01	44.47
549.18	60.85
549.34	63.19
549.51	39.79
549.68	63.19
549.84	28.09
550.01	53.83
550.18	67.88
550.34	88.94
550.51	30.43
550.68	21.06
550.84	42.13
551.01	0.00
551.18	51.49
551.34	79.58
551.51	4.68
551.68	112.35
551.84	44.47
552.01	65.54
552.18	51.49
552.34	0.00
552.51	16.38
552.68	44.47
552.84	79.58
553.01	30.43
553.18	81.92
553.34	79.58
553.51	30.43
553.67	0.00
553.84	18.72
554.01	147.45
554.17	7.02
554.34	28.09
554.51	2.34
554.67	65.54
554.84	16.38
555.00	7.02
555.17	7.02
555.33	18.72
555.50	51.49
555.67	65.54
555.83	42.13
556.00	65.54
556.16	161.50
556.33	25.75
556.50	39.79
556.66	79.58
556.83	53.83
556.99	42.13
557.16	117.03
557.32	30.43
557.49	163.84
557.65	16.38
557.82	4.68
557.98	18.72
558.15	32.77
558.32	51.49
558.48	0.00
558.65	79.58
558.81	2.34
558.98	60.85
559.14	65.54
559.31	51.49
559.47	93.62
559.64	39.79
559.80	67.88
559.97	23.41
560.13	112.35
560.30	77.24
560.46	110.01
560.63	60.85
560.79	30.43
560.96	0.00
561.12	60.85
561.29	58.51
561.45	44.47
561.61	37.45
561.78	51.49
561.94	25.75
562.11	14.04
562.27	98.30
562.44	58.51
562.60	0.00
562.77	49.15
562.93	58.51
563.10	39.79
563.26	37.45
563.42	18.72
563.59	32.77
563.75	65.54
563.92	16.38
564.08	67.88
564.24	72.56
564.41	23.41
564.57	0.00
564.74	28.09
564.90	25.75
565.07	81.92
565.23	37.45
565.39	35.11
565.56	98.30
565.72	2.34
565.88	32.77
566.05	93.62
566.21	74.90
566.38	30.43
566.54	70.22
566.70	9.36
566.87	72.56
567.03	72.56
567.19	91.28
567.36	2.34
567.52	18.72
567.68	65.54
567.85	39.79
568.01	70.22
568.17	35.11
568.34	28.09
568.50	7.02
568.66	102.98
568.83	46.81
568.99	0.00
569.15	11.70
569.32	9.36
569.48	21.06
569.64	51.49
569.81	14.04
569.97	67.88
570.13	65.54
570.30	44.47
570.46	63.19
570.62	25.75
570.78	65.54
570.95	42.13
571.11	51.49
571.27	9.36
571.43	100.64
571.60	28.09
571.76	21.06
571.92	23.41
572.09	16.38
572.25	23.41
572.41	37.45
572.57	88.94
572.74	37.45
572.90	72.56
573.06	102.98
573.22	0.00
573.38	2.34
573.55	0.00
573.71	63.19
573.87	67.88
574.03	39.79
574.20	67.88
574.36	0.00
574.52	37.45
574.68	53.83
574.84	0.00
575.01	58.51
575.17	46.81
575.33	11.70
575.49	58.51
575.65	37.45
575.82	0.00
575.98	51.49
576.14	0.00
576.30	56.17
576.46	21.06
576.62	81.92
576.79	93.62
576.95	32.77
577.11	49.15
577.27	23.41
577.43	86.60
577.59	11.70
577.75	42.13
577.92	35.11
578.08	0.00
578.24	2.34
578.40	53.83
578.56	44.47
578.72	51.49
578.88	46.81
579.04	63.19
579.21	60.85
579.37	63.19
579.53	11.70
579.69	4.68
579.85	23.41
580.01	42.13
580.17	49.15
580.33	100.64
580.49	37.45
580.65	72.56
580.82	86.60
580.98	0.00
581.14	23.41
581.30	0.00
581.46	30.43
581.62	81.92
581.78	35.11
581.94	37.45
582.10	14.04
582.26	74.90
582.42	51.49
582.58	42.13
582.74	28.09
582.90	30.43
583.06	42.13
583.22	39.79
583.38	11.70
583.54	74.90
583.70	0.00
583.86	46.81
584.02	0.00
584.18	18.72
584.34	42.13
584.50	58.51
584.66	81.92
584.82	0.00
584.98	37.45
585.14	86.60
585.30	100.64
585.46	58.51
585.62	91.28
585.78	77.24
585.94	65.54
586.10	70.22
586.26	79.58
586.42	131.07
586.58	51.49
586.74	95.96
586.90	51.49
587.06	23.41
587.22	49.15
587.38	42.13
587.54	18.72
587.70	21.06
587.86	107.66
588.02	126.39
588.18	58.51
588.34	60.85
588.49	42.13
588.65	30.43
588.81	98.30
588.97	0.00
589.13	60.85
589.29	72.56
589.45	30.43
589.61	16.38
589.77	81.92
589.93	133.41
590.08	51.49
590.24	81.92
590.40	42.13
590.56	18.72
590.72	74.90
590.88	56.17
591.04	14.04
591.20	28.09
591.35	9.36
591.51	77.24
591.67	93.62
591.83	21.06
591.99	0.00
592.15	91.28
592.31	42.13
592.46	74.90
592.62	18.72
592.78	79.58
592.94	37.45
593.10	37.45
593.26	93.62
593.41	84.26
593.57	35.11
593.73	65.54
593.89	84.26
594.05	67.88
594.20	56.17
594.36	9.36
594.52	67.88
594.68	44.47
594.84	28.09
594.99	56.17
595.15	100.64
595.31	16.38
595.47	25.75
595.62	51.49
595.78	7.02
595.94	9.36
596.10	23.41
596.25	21.06
596.41	81.92
596.57	0.00
596.73	0.00
596.88	79.58
597.04	70.22
597.20	81.92
597.36	51.49
597.51	28.09
597.67	4.68
597.83	28.09
597.99	102.98
598.14	77.24
598.30	0.00
598.46	39.79
598.61	91.28
598.77	18.72
598.93	16.38
599.09	72.56
599.24	98.30
599.40	56.17
599.56	18.72
599.71	77.24
599.87	7.02
600.03	110.01
600.18	70.22
600.34	32.77
600.50	16.38
600.65	56.17
600.81	28.09
600.97	25.75
601.12	56.17
601.28	42.13
601.44	32.77
601.59	102.98
601.75	30.43
601.91	4.68
602.06	121.71
602.22	72.56
602.37	14.04
602.53	42.13
602.69	2.34
602.84	21.06
603.00	0.00
603.16	72.56
603.31	60.85
603.47	42.13
603.62	86.60
603.78	74.90
603.94	58.51
604.09	100.64
604.25	121.71
604.40	77.24
604.56	42.13
604.71	0.00
604.87	53.83
605.03	70.22
605.18	131.07
605.34	44.47
605.49	44.47
605.65	39.79
605.80	7.02
605.96	4.68
606.12	77.24
606.27	14.04
606.43	105.32
606.58	28.09
606.74	105.32
606.89	51.49
607.05	98.30
607.20	58.51
607.36	28.09
607.51	7.02
607.67	35.11
607.82	102.98
607.98	84.26
608.13	37.45
608.29	7.02
608.44	46.81
608.60	18.72
608.75	39.79
608.91	67.88
609.06	110.01
609.22	25.75
609.37	53.83
609.53	51.49
609.68	112.35
609.84	32.77
609.99	74.90
610.15	39.79
610.30	49.15
610.46	67.88
610.61	84.26
610.76	35.11
610.92	0.00
611.07	32.77
611.23	72.56
611.38	81.92
611.54	63.19
611.69	0.00
611.84	98.30
612.00	14.04
612.15	53.83
612.31	74.90
612.46	49.15
612.62	32.77
612.77	37.45
612.92	60.85
613.08	0.00
613.23	0.00
613.39	67.88
613.54	30.43
613.69	124.05
613.85	77.24
614.00	39.79
614.15	16.38
614.31	58.51
614.46	4.68
614.62	16.38
614.77	23.41
614.92	32.77
615.08	51.49
615.23	7.02
615.38	53.83
615.54	35.11
615.69	23.41
615.84	93.62
616.00	23.41
616.15	105.32
616.30	0.00
616.46	18.72
616.61	30.43
616.76	4.68
616.92	46.81
617.07	0.00
617.22	14.04
617.37	49.15
617.53	18.72
617.68	30.43
617.83	32.77
617.99	46.81
618.14	70.22
618.29	53.83
618.45	86.60
618.60	60.85
618.75	18.72
618.90	44.47
619.06	79.58
619.21	32.77
619.36	56.17
619.51	49.15
619.67	11.70
619.82	39.79
619.97	21.06
620.12	25.75
620.28	0.00
620.43	0.00
620.58	70.22
620.73	9.36
620.89	9.36
621.04	11.70
621.19	56.17
621.34	32.77
621.49	25.75
621.65	84.26
621.80	81.92
621.95	32.77
622.10	79.58
622.25	37.45
622.41	49.15
622.56	63.19
622.71	51.49
622.86	77.24
623.01	46.81
623.16	37.45
623.32	67.88
623.47	95.96
623.62	81.92
623.77	2.34
623.92	53.83
624.07	60.85
624.23	112.35
624.38	7.02
624.53	0.00
624.68	37.45
624.83	39.79
624.98	42.13
625.13	117.03
625.29	7.02
625.44	91.28
625.59	0.00
625.74	58.51
625.89	56.17
626.04	152.13
626.19	65.54
626.34	63.19
626.49	65.54
626.65	44.47
626.80	0.00
626.95	44.47
627.10	42.13
627.25	53.83
627.40	60.85
627.55	42.13
627.70	77.24
627.85	46.81
628.00	9.36
628.15	121.71
628.30	9.36
628.45	77.24
628.60	84.26
628.76	63.19
628.91	51.49
629.06	126.39
629.21	56.17
629.36	0.00
629.51	91.28
629.66	23.41
629.81	79.58
629.96	74.90
630.11	72.56
630.26	95.96
630.41	42.13
630.56	56.17
630.71	121.71
630.86	81.92
631.01	107.66
631.16	74.90
631.31	42.13
631.46	0.00
631.61	14.04
631.76	7.02
631.91	70.22
632.06	18.72
632.21	84.26
632.36	49.15
632.51	0.00
632.66	9.36
632.81	72.56
632.96	16.38
633.10	32.77
633.25	0.00
633.40	28.09
633.55	37.45
633.70	0.00
633.85	74.90
634.00	51.49
634.15	0.00
634.30	35.11
634.45	0.00
634.60	9.36
634.75	0.00
634.90	14.04
635.05	0.00
635.19	30.43
635.34	88.94
635.49	32.77
635.64	32.77
635.79	67.88
635.94	44.47
636.09	42.13
636.24	102.98
636.39	81.92
636.53	49.15
636.68	32.77
636.83	53.83
636.98	65.54
637.13	0.00
637.28	35.11
637.43	0.00
637.57	49.15
637.72	88.94
637.87	39.79
638.02	21.06
638.17	65.54
638.32	0.00
638.46	25.75
638.61	14.04
638.76	7.02
638.91	37.45
639.06	53.83
639.20	72.56
639.35	86.60
639.50	72.56
639.65	70.22
639.80	35.11
639.94	23.41
640.09	91.28
640.24	121.71
640.39	42.13
640.54	56.17
640.68	102.98
640.83	0.00
640.98	93.62
641.13	98.30
641.27	18.72
641.42	88.94
641.57	98.30
641.72	74.90
641.86	23.41
642.01	95.96
642.16	56.17
642.31	91.28
642.45	4.68
642.60	21.06
642.75	18.72
642.90	7.02
643.04	28.09
643.19	70.22
643.34	51.49
643.48	37.45
643.63	0.00
643.78	65.54
643.93	65.54
644.07	140.43
644.22	46.81
644.37	25.75
644.51	44.47
644.66	35.11
644.81	84.26
644.95	14.04
645.10	121.71
645.25	0.00
645.39	100.64
645.54	2.34
645.69	16.38
645.83	98.30
645.98	79.58
646.13	72.56
646.27	74.90
646.42	93.62
646.57	23.41
646.71	35.11
646.86	65.54
647.00	65.54
647.15	37.45
647.30	7.02
647.44	77.24
647.59	28.09
647.74	133.41
647.88	4.68
648.03	0.00
648.17	93.62
648.32	18.72
648.47	0.00
648.61	65.54
648.76	7.02
648.90	77.24
649.05	145.11
649.20	18.72
649.34	53.83
649.49	16.38
649.63	18.72
649.78	0.00
649.92	37.45
650.07	67.88
650.21	25.75
650.36	102.98
650.51	86.60
650.65	67.88
650.80	86.60
650.94	0.00
651.09	0.00
651.23	119.37
651.38	7.02
651.52	35.11
651.67	49.15
651.81	63.19
651.96	88.94
652.10	0.00
652.25	95.96
652.39	56.17
652.54	16.38
652.68	53.83
652.83	124.05
652.97	81.92
653.12	49.15
653.26	32.77
653.41	39.79
653.55	63.19
653.70	37.45
653.84	53.83
653.99	23.41
654.13	21.06
654.27	102.98
654.42	88.94
654.56	37.45
654.71	102.98
654.85	28.09
655.00	0.00
655.14	30.43
655.29	53.83
655.43	35.11
655.57	0.00
655.72	16.38
655.86	56.17
656.01	0.00
656.15	42.13
656.30	0.00
656.44	138.09
656.58	63.19
656.73	70.22
656.87	37.45
657.01	0.00
657.16	32.77
657.30	37.45
657.45	42.13
657.59	25.75
657.73	0.00
657.88	58.51
658.02	84.26
658.16	46.81
658.31	25.75
658.45	35.11
658.60	7.02
658.74	7.02
658.88	51.49
659.03	4.68
659.17	51.49
659.31	67.88
659.46	102.98
659.60	56.17
659.74	0.00
659.89	0.00
660.03	60.85
660.17	32.77
660.32	56.17
660.46	0.00
660.60	56.17
660.74	46.81
660.89	56.17
661.03	2.34
661.17	9.36
661.32	0.00
661.46	58.51
661.60	23.41
661.74	74.90
661.89	58.51
662.03	77.24
662.17	44.47
662.31	42.13
662.46	39.79
662.60	30.43
662.74	28.09
662.88	18.72
663.03	77.24
663.17	60.85
663.31	18.72
663.45	81.92
663.60	0.00
663.74	74.90
663.88	39.79
664.02	56.17
664.17	63.19
664.31	0.00
664.45	11.70
664.59	58.51
664.73	58.51
664.88	7.02
665.02	44.47
665.16	42.13
665.30	16.38
665.44	65.54
665.59	51.49
665.73	42.13
665.87	51.49
666.01	0.00
666.15	7.02
666.29	49.15
666.44	72.56
666.58	98.30
666.72	65.54
666.86	49.15
667.00	11.70
667.14	0.00
667.28	9.36
667.43	37.45
667.57	0.00
667.71	30.43
667.85	46.81
667.99	18.72
668.13	72.56
668.27	14.04
668.41	0.00
668.56	44.47
668.70	37.45
668.84	39.79
668.98	49.15
669.12	18.72
669.26	53.83
669.40	35.11
669.54	70.22
669.68	21.06
669.82	30.43
669.96	37.45
670.10	0.00
670.25	14.04
670.39	0.00
670.53	28.09
670.67	42.13
670.81	74.90
670.95	39.79
671.09	14.04
671.23	0.00
671.37	0.00
671.51	44.47
671.65	21.06
671.79	79.58
671.93	25.75
672.07	11.70
672.21	46.81
672.35	14.04
672.49	114.69
672.63	112.35
672.77	58.51
672.91	42.13
673.05	44.47
673.19	44.47
673.33	28.09
673.47	72.56
673.61	67.88
673.75	0.00
673.89	11.70
674.03	131.07
674.17	49.15
674.31	58.51
674.45	35.11
674.59	37.45
674.73	18.72
674.87	0.00
675.01	67.88
675.15	56.17
675.29	84.26
675.43	147.45
675.56	44.47
675.70	110.01
675.84	0.00
675.98	0.00
676.12	28.09
676.26	53.83
676.40	49.15
676.54	91.28
676.68	98.30
676.82	70.22
676.96	0.00
677.10	23.41
677.23	135.75
677.37	86.60
677.51	14.04
677.65	121.71
677.79	21.06
677.93	42.13
678.07	91.28
678.21	0.00
678.34	67.88
678.48	0.00
678.62	74.90
678.76	14.04
678.90	35.11
679.04	65.54
679.18	2.34
679.31	23.41
679.45	46.81
679.59	0.00
679.73	37.45
679.87	30.43
680.00	0.00
680.14	100.64
680.28	53.83
680.42	0.00
680.56	86.60
680.70	9.36
680.83	44.47
680.97	67.88
681.11	21.06
681.25	37.45
681.39	7.02
681.52	70.22
681.66	53.83
681.80	86.60
681.94	63.19
682.07	112.35
682.21	35.11
682.35	16.38
682.49	39.79
682.62	28.09
682.76	14.04
682.90	65.54
683.04	53.83
683.17	9.36
683.31	23.41
683.45	79.58
683.59	16.38
683.72	56.17
683.86	49.15
684.00	23.41
684.13	39.79
684.27	18.72
684.41	18.72
684.55	30.43
684.68	58.51
684.82	0.00
684.96	0.00
685.09	0.00
685.23	7.02
685.37	65.54
685.50	0.00
685.64	67.88
685.78	35.11
685.91	32.77
686.05	91.28
686.19	60.85
686.32	2.34
686.46	42.13
686.60	117.03
686.73	98.30
686.87	58.51
687.01	46.81
687.14	88.94
687.28	46.81
687.42	32.77
687.55	0.00
687.69	124.05
687.82	30.43
687.96	72.56
688.10	4.68
688.23	0.00
688.37	18.72
688.50	0.00
688.64	140.43
688.78	0.00
688.91	23.41
689.05	44.47
689.18	84.26
689.32	0.00
689.46	0.00
689.59	60.85
689.73	16.38
689.86	4.68
690.00	88.94
690.13	0.00
690.27	4.68
690.41	0.00
690.54	77.24
690.68	16.38
690.81	0.00
690.95	32.77
691.08	72.56
691.22	46.81
691.35	23.41
691.49	16.38
691.62	81.92
691.76	65.54
691.89	63.19
692.03	4.68
692.16	0.00
692.30	0.00
692.43	147.45
692.57	91.28
692.70	14.04
692.84	58.51
692.97	56.17
693.11	0.00
693.24	60.85
693.38	0.00
693.51	23.41
693.65	0.00
693.78	46.81
693.92	14.04
694.05	23.41
694.19	44.47
694.32	84.26
694.45	58.51
694.59	0.00
694.72	46.81
694.86	44.47
694.99	98.30
695.13	21.06
695.26	0.00
695.39	28.09
695.53	65.54
695.66	0.00
695.80	42.13
695.93	63.19
696.07	84.26
696.20	70.22
696.33	44.47
696.47	135.75
696.60	77.24
696.73	44.47
696.87	0.00
697.00	53.83
697.14	0.00
697.27	53.83
697.40	77.24
697.54	81.92
697.67	67.88
697.80	16.38
697.94	21.06
698.07	46.81
698.21	51.49
698.34	114.69
698.47	0.00
698.61	7.02
698.74	51.49
698.87	16.38
699.01	0.00
699.14	0.00
699.27	16.38
699.40	25.75
699.54	14.04
699.67	14.04
699.80	0.00
699.94	53.83
700.07	7.02
700.20	0.00
700.34	84.26
700.47	88.94
700.60	9.36
700.73	0.00
700.87	0.00
701.00	4.68
701.13	42.13
701.26	2.34
701.40	30.43
701.53	0.00
701.66	0.00
701.79	42.13
701.93	21.06
702.06	0.00
702.19	42.13
702.32	67.88
702.46	100.64
702.59	0.00
702.72	42.13
702.85	0.00
702.99	53.83
703.12	39.79
703.25	44.47
703.38	88.94
703.51	2.34
703.65	32.77
703.78	77.24
703.91	11.70
704.04	98.30
704.17	72.56
704.31	25.75
704.44	14.04
704.57	16.38
704.70	18.72
704.83	30.43
704.96	0.00
705.10	11.70
705.23	32.77
>>>>>End Processed Spectral Data<<<<<
