SpectraSuite Data File
++++++++++++++++++++++++++++++++++++
Date: Fri Oct 04 12:13:45 GMT-05:00 2013
User: price-jones
Dark Spectrum Present: No
Reference Spectrum Present: No
Number of Sampled Component Spectra: 1
Spectrometers: USB2+H05261
Integration Time (usec): 10000 (USB2+H05261)
Spectra Averaged: 1 (USB2+H05261)
Boxcar Smoothing: 0 (USB2+H05261)
Correct for Electrical Dark: No (USB2+H05261)
Strobe/Lamp Enabled: No (USB2+H05261)
Correct for Detector Non-linearity: No (USB2+H05261)
Correct for Stray Light: No (USB2+H05261)
Number of Pixels in Processed Spectrum: 2048
>>>>>Begin Processed Spectral Data<<<<<
365.73	30.43
365.92	30.43
366.12	30.43
366.32	0.00
366.52	0.00
366.72	0.00
366.91	0.00
367.11	0.00
367.31	0.00
367.51	0.00
367.70	0.00
367.90	0.00
368.10	0.00
368.30	0.00
368.49	0.00
368.69	0.00
368.89	0.00
369.09	0.00
369.28	0.00
369.48	0.00
369.68	0.00
369.87	0.00
370.07	0.00
370.27	0.00
370.47	0.00
370.66	0.00
370.86	0.00
371.06	0.00
371.25	0.00
371.45	0.00
371.65	0.00
371.84	0.00
372.04	0.00
372.24	0.00
372.44	0.00
372.63	0.00
372.83	0.00
373.03	30.43
373.22	0.00
373.42	44.47
373.62	0.00
373.81	135.75
374.01	0.00
374.21	23.41
374.40	65.54
374.60	46.81
374.79	4.68
374.99	30.43
375.19	65.54
375.38	35.11
375.58	0.00
375.78	16.38
375.97	0.00
376.17	42.13
376.37	0.00
376.56	58.51
376.76	63.19
376.95	0.00
377.15	32.77
377.35	46.81
377.54	0.00
377.74	25.75
377.93	74.90
378.13	32.77
378.33	105.32
378.52	44.47
378.72	32.77
378.91	0.00
379.11	72.56
379.31	51.49
379.50	0.00
379.70	21.06
379.89	49.15
380.09	0.00
380.28	70.22
380.48	0.00
380.68	37.45
380.87	39.79
381.07	58.51
381.26	65.54
381.46	0.00
381.65	0.00
381.85	0.00
382.04	23.41
382.24	0.00
382.43	21.06
382.63	30.43
382.83	0.00
383.02	142.77
383.22	0.00
383.41	0.00
383.61	0.00
383.80	18.72
384.00	32.77
384.19	9.36
384.39	28.09
384.58	0.00
384.78	0.00
384.97	16.38
385.17	44.47
385.36	0.00
385.56	0.00
385.75	0.00
385.95	44.47
386.14	39.79
386.34	16.38
386.53	39.79
386.72	11.70
386.92	32.77
387.11	25.75
387.31	9.36
387.50	65.54
387.70	0.00
387.89	39.79
388.09	49.15
388.28	0.00
388.48	72.56
388.67	44.47
388.86	7.02
389.06	0.00
389.25	0.00
389.45	0.00
389.64	72.56
389.84	23.41
390.03	0.00
390.22	28.09
390.42	35.11
390.61	56.17
390.81	67.88
391.00	0.00
391.19	25.75
391.39	21.06
391.58	35.11
391.78	0.00
391.97	0.00
392.16	44.47
392.36	51.49
392.55	14.04
392.75	86.60
392.94	16.38
393.13	4.68
393.33	0.00
393.52	0.00
393.71	30.43
393.91	25.75
394.10	0.00
394.29	44.47
394.49	77.24
394.68	39.79
394.88	79.58
395.07	21.06
395.26	60.85
395.46	32.77
395.65	42.13
395.84	4.68
396.04	42.13
396.23	102.98
396.42	37.45
396.62	0.00
396.81	60.85
397.00	39.79
397.19	2.34
397.39	0.00
397.58	35.11
397.77	35.11
397.97	30.43
398.16	67.88
398.35	138.09
398.55	79.58
398.74	32.77
398.93	0.00
399.12	0.00
399.32	74.90
399.51	49.15
399.70	9.36
399.90	0.00
400.09	72.56
400.28	0.00
400.47	0.00
400.67	18.72
400.86	0.00
401.05	0.00
401.24	0.00
401.44	44.47
401.63	0.00
401.82	46.81
402.01	2.34
402.21	0.00
402.40	7.02
402.59	0.00
402.78	7.02
402.97	0.00
403.17	14.04
403.36	86.60
403.55	49.15
403.74	4.68
403.93	114.69
404.13	25.75
404.32	4.68
404.51	16.38
404.70	14.04
404.89	16.38
405.09	60.85
405.28	37.45
405.47	65.54
405.66	16.38
405.85	0.00
406.05	53.83
406.24	21.06
406.43	39.79
406.62	63.19
406.81	67.88
407.00	0.00
407.20	88.94
407.39	0.00
407.58	32.77
407.77	56.17
407.96	58.51
408.15	67.88
408.34	21.06
408.54	72.56
408.73	11.70
408.92	7.02
409.11	18.72
409.30	44.47
409.49	18.72
409.68	9.36
409.87	95.96
410.07	53.83
410.26	23.41
410.45	7.02
410.64	58.51
410.83	74.90
411.02	112.35
411.21	51.49
411.40	4.68
411.59	32.77
411.78	35.11
411.98	60.85
412.17	0.00
412.36	49.15
412.55	142.77
412.74	0.00
412.93	11.70
413.12	42.13
413.31	21.06
413.50	14.04
413.69	121.71
413.88	23.41
414.07	0.00
414.26	0.00
414.45	58.51
414.64	0.00
414.83	11.70
415.02	35.11
415.22	39.79
415.41	77.24
415.60	53.83
415.79	44.47
415.98	0.00
416.17	18.72
416.36	25.75
416.55	7.02
416.74	0.00
416.93	21.06
417.12	16.38
417.31	60.85
417.50	49.15
417.69	16.38
417.88	39.79
418.07	0.00
418.26	35.11
418.45	46.81
418.64	51.49
418.83	30.43
419.02	0.00
419.21	0.00
419.39	81.92
419.58	37.45
419.77	23.41
419.96	72.56
420.15	39.79
420.34	51.49
420.53	25.75
420.72	7.02
420.91	49.15
421.10	51.49
421.29	0.00
421.48	56.17
421.67	35.11
421.86	42.13
422.05	49.15
422.24	0.00
422.43	42.13
422.61	32.77
422.80	37.45
422.99	0.00
423.18	14.04
423.37	79.58
423.56	67.88
423.75	25.75
423.94	23.41
424.13	51.49
424.32	46.81
424.50	70.22
424.69	42.13
424.88	4.68
425.07	16.38
425.26	7.02
425.45	56.17
425.64	46.81
425.83	11.70
426.01	74.90
426.20	88.94
426.39	30.43
426.58	0.00
426.77	46.81
426.96	0.00
427.15	37.45
427.33	18.72
427.52	11.70
427.71	23.41
427.90	21.06
428.09	9.36
428.28	30.43
428.46	126.39
428.65	4.68
428.84	58.51
429.03	77.24
429.22	74.90
429.40	65.54
429.59	0.00
429.78	18.72
429.97	86.60
430.16	11.70
430.34	28.09
430.53	0.00
430.72	16.38
430.91	0.00
431.10	23.41
431.28	63.19
431.47	70.22
431.66	65.54
431.85	0.00
432.03	0.00
432.22	53.83
432.41	53.83
432.60	21.06
432.79	37.45
432.97	51.49
433.16	67.88
433.35	0.00
433.54	14.04
433.72	0.00
433.91	14.04
434.10	63.19
434.28	37.45
434.47	42.13
434.66	77.24
434.85	37.45
435.03	91.28
435.22	25.75
435.41	16.38
435.59	23.41
435.78	37.45
435.97	0.00
436.16	0.00
436.34	42.13
436.53	65.54
436.72	21.06
436.90	4.68
437.09	28.09
437.28	37.45
437.46	11.70
437.65	39.79
437.84	37.45
438.02	0.00
438.21	0.00
438.40	7.02
438.58	0.00
438.77	53.83
438.96	21.06
439.14	46.81
439.33	84.26
439.52	49.15
439.70	9.36
439.89	35.11
440.08	37.45
440.26	7.02
440.45	49.15
440.63	81.92
440.82	46.81
441.01	46.81
441.19	79.58
441.38	16.38
441.57	0.00
441.75	25.75
441.94	18.72
442.12	53.83
442.31	53.83
442.50	23.41
442.68	72.56
442.87	21.06
443.05	77.24
443.24	74.90
443.43	70.22
443.61	21.06
443.80	65.54
443.98	58.51
444.17	0.00
444.35	35.11
444.54	95.96
444.73	60.85
444.91	30.43
445.10	9.36
445.28	44.47
445.47	4.68
445.65	79.58
445.84	51.49
446.02	32.77
446.21	9.36
446.39	65.54
446.58	77.24
446.77	51.49
446.95	0.00
447.14	67.88
447.32	37.45
447.51	0.00
447.69	42.13
447.88	11.70
448.06	46.81
448.25	0.00
448.43	79.58
448.62	63.19
448.80	4.68
448.99	21.06
449.17	58.51
449.36	0.00
449.54	35.11
449.73	4.68
449.91	77.24
450.10	53.83
450.28	14.04
450.46	86.60
450.65	42.13
450.83	23.41
451.02	0.00
451.20	60.85
451.39	56.17
451.57	0.00
451.76	63.19
451.94	0.00
452.13	21.06
452.31	51.49
452.49	0.00
452.68	0.00
452.86	0.00
453.05	49.15
453.23	25.75
453.42	117.03
453.60	79.58
453.78	21.06
453.97	72.56
454.15	14.04
454.34	18.72
454.52	79.58
454.70	28.09
454.89	0.00
455.07	42.13
455.26	0.00
455.44	9.36
455.62	0.00
455.81	56.17
455.99	44.47
456.17	14.04
456.36	0.00
456.54	51.49
456.73	46.81
456.91	46.81
457.09	32.77
457.28	4.68
457.46	84.26
457.64	23.41
457.83	63.19
458.01	35.11
458.19	23.41
458.38	32.77
458.56	77.24
458.74	23.41
458.93	0.00
459.11	42.13
459.29	95.96
459.48	39.79
459.66	70.22
459.84	37.45
460.03	72.56
460.21	72.56
460.39	0.00
460.57	14.04
460.76	35.11
460.94	65.54
461.12	86.60
461.31	11.70
461.49	35.11
461.67	42.13
461.85	0.00
462.04	4.68
462.22	114.69
462.40	72.56
462.59	51.49
462.77	9.36
462.95	7.02
463.13	84.26
463.32	91.28
463.50	65.54
463.68	46.81
463.86	70.22
464.05	107.66
464.23	91.28
464.41	11.70
464.59	0.00
464.78	18.72
464.96	39.79
465.14	93.62
465.32	0.00
465.50	42.13
465.69	74.90
465.87	93.62
466.05	44.47
466.23	35.11
466.41	56.17
466.60	0.00
466.78	51.49
466.96	4.68
467.14	42.13
467.32	53.83
467.51	32.77
467.69	0.00
467.87	58.51
468.05	100.64
468.23	72.56
468.41	0.00
468.60	0.00
468.78	0.00
468.96	63.19
469.14	0.00
469.32	0.00
469.50	63.19
469.69	0.00
469.87	81.92
470.05	25.75
470.23	32.77
470.41	32.77
470.59	18.72
470.77	11.70
470.95	14.04
471.14	35.11
471.32	0.00
471.50	7.02
471.68	4.68
471.86	58.51
472.04	79.58
472.22	124.05
472.40	86.60
472.58	4.68
472.77	42.13
472.95	86.60
473.13	23.41
473.31	37.45
473.49	110.01
473.67	37.45
473.85	60.85
474.03	2.34
474.21	18.72
474.39	67.88
474.57	4.68
474.75	58.51
474.93	46.81
475.12	0.00
475.30	77.24
475.48	25.75
475.66	0.00
475.84	53.83
476.02	63.19
476.20	35.11
476.38	30.43
476.56	74.90
476.74	46.81
476.92	65.54
477.10	70.22
477.28	16.38
477.46	63.19
477.64	107.66
477.82	53.83
478.00	0.00
478.18	18.72
478.36	56.17
478.54	84.26
478.72	11.70
478.90	7.02
479.08	16.38
479.26	7.02
479.44	35.11
479.62	7.02
479.80	23.41
479.98	58.51
480.16	65.54
480.34	0.00
480.52	21.06
480.70	91.28
480.88	28.09
481.06	0.00
481.24	30.43
481.41	65.54
481.59	32.77
481.77	30.43
481.95	23.41
482.13	14.04
482.31	46.81
482.49	11.70
482.67	114.69
482.85	7.02
483.03	0.00
483.21	77.24
483.39	0.00
483.57	79.58
483.74	21.06
483.92	102.98
484.10	0.00
484.28	63.19
484.46	74.90
484.64	37.45
484.82	39.79
485.00	77.24
485.18	93.62
485.35	39.79
485.53	56.17
485.71	72.56
485.89	91.28
486.07	2.34
486.25	149.79
486.43	114.69
486.61	32.77
486.78	49.15
486.96	9.36
487.14	100.64
487.32	4.68
487.50	37.45
487.68	79.58
487.85	30.43
488.03	11.70
488.21	18.72
488.39	67.88
488.57	18.72
488.75	9.36
488.92	72.56
489.10	74.90
489.28	0.00
489.46	107.66
489.64	9.36
489.81	63.19
489.99	49.15
490.17	72.56
490.35	58.51
490.53	28.09
490.70	51.49
490.88	63.19
491.06	56.17
491.24	25.75
491.41	81.92
491.59	56.17
491.77	63.19
491.95	37.45
492.13	51.49
492.30	28.09
492.48	0.00
492.66	21.06
492.84	77.24
493.01	51.49
493.19	53.83
493.37	39.79
493.54	46.81
493.72	0.00
493.90	49.15
494.08	51.49
494.25	70.22
494.43	74.90
494.61	79.58
494.79	30.43
494.96	58.51
495.14	49.15
495.32	105.32
495.49	0.00
495.67	72.56
495.85	42.13
496.02	70.22
496.20	56.17
496.38	35.11
496.55	21.06
496.73	49.15
496.91	56.17
497.09	49.15
497.26	72.56
497.44	9.36
497.62	65.54
497.79	7.02
497.97	28.09
498.14	9.36
498.32	58.51
498.50	72.56
498.67	14.04
498.85	0.00
499.03	42.13
499.20	70.22
499.38	56.17
499.56	70.22
499.73	0.00
499.91	140.43
500.08	67.88
500.26	0.00
500.44	30.43
500.61	25.75
500.79	72.56
500.97	0.00
501.14	95.96
501.32	39.79
501.49	49.15
501.67	39.79
501.84	37.45
502.02	0.00
502.20	35.11
502.37	42.13
502.55	35.11
502.72	28.09
502.90	42.13
503.07	77.24
503.25	77.24
503.43	60.85
503.60	42.13
503.78	46.81
503.95	56.17
504.13	58.51
504.30	81.92
504.48	42.13
504.65	2.34
504.83	51.49
505.01	79.58
505.18	0.00
505.36	28.09
505.53	51.49
505.71	32.77
505.88	11.70
506.06	65.54
506.23	70.22
506.41	30.43
506.58	30.43
506.76	32.77
506.93	0.00
507.11	91.28
507.28	23.41
507.46	49.15
507.63	23.41
507.81	42.13
507.98	16.38
508.16	53.83
508.33	0.00
508.50	9.36
508.68	77.24
508.85	58.51
509.03	91.28
509.20	21.06
509.38	18.72
509.55	58.51
509.73	25.75
509.90	4.68
510.08	30.43
510.25	18.72
510.42	86.60
510.60	53.83
510.77	77.24
510.95	98.30
511.12	18.72
511.30	51.49
511.47	0.00
511.64	86.60
511.82	124.05
511.99	84.26
512.17	79.58
512.34	107.66
512.51	0.00
512.69	114.69
512.86	58.51
513.04	91.28
513.21	7.02
513.38	18.72
513.56	37.45
513.73	32.77
513.90	56.17
514.08	0.00
514.25	0.00
514.43	32.77
514.60	53.83
514.77	4.68
514.95	0.00
515.12	18.72
515.29	46.81
515.47	25.75
515.64	81.92
515.81	63.19
515.99	56.17
516.16	11.70
516.33	79.58
516.51	86.60
516.68	53.83
516.85	23.41
517.03	84.26
517.20	53.83
517.37	16.38
517.54	21.06
517.72	42.13
517.89	49.15
518.06	58.51
518.24	74.90
518.41	7.02
518.58	79.58
518.75	0.00
518.93	107.66
519.10	95.96
519.27	0.00
519.45	0.00
519.62	0.00
519.79	77.24
519.96	0.00
520.14	28.09
520.31	79.58
520.48	0.00
520.65	46.81
520.83	4.68
521.00	56.17
521.17	39.79
521.34	100.64
521.52	28.09
521.69	30.43
521.86	56.17
522.03	72.56
522.20	2.34
522.38	46.81
522.55	46.81
522.72	23.41
522.89	23.41
523.07	44.47
523.24	126.39
523.41	30.43
523.58	72.56
523.75	42.13
523.92	11.70
524.10	37.45
524.27	72.56
524.44	88.94
524.61	107.66
524.78	81.92
524.96	53.83
525.13	74.90
525.30	4.68
525.47	77.24
525.64	0.00
525.81	11.70
525.98	0.00
526.16	0.00
526.33	37.45
526.50	25.75
526.67	58.51
526.84	51.49
527.01	70.22
527.18	53.83
527.36	18.72
527.53	37.45
527.70	63.19
527.87	0.00
528.04	49.15
528.21	0.00
528.38	102.98
528.55	124.05
528.72	11.70
528.89	11.70
529.07	44.47
529.24	74.90
529.41	95.96
529.58	44.47
529.75	79.58
529.92	67.88
530.09	28.09
530.26	7.02
530.43	72.56
530.60	93.62
530.77	56.17
530.94	9.36
531.11	30.43
531.28	7.02
531.46	65.54
531.63	0.00
531.80	25.75
531.97	0.00
532.14	81.92
532.31	98.30
532.48	53.83
532.65	18.72
532.82	16.38
532.99	0.00
533.16	28.09
533.33	77.24
533.50	46.81
533.67	28.09
533.84	91.28
534.01	9.36
534.18	74.90
534.35	60.85
534.52	121.71
534.69	35.11
534.86	46.81
535.03	56.17
535.20	110.01
535.37	56.17
535.54	35.11
535.71	2.34
535.88	46.81
536.05	79.58
536.22	11.70
536.38	0.00
536.55	18.72
536.72	35.11
536.89	91.28
537.06	39.79
537.23	25.75
537.40	63.19
537.57	42.13
537.74	84.26
537.91	60.85
538.08	142.77
538.25	58.51
538.42	53.83
538.59	60.85
538.75	39.79
538.92	25.75
539.09	58.51
539.26	44.47
539.43	32.77
539.60	77.24
539.77	84.26
539.94	138.09
540.11	67.88
540.28	0.00
540.44	25.75
540.61	51.49
540.78	16.38
540.95	65.54
541.12	51.49
541.29	79.58
541.46	70.22
541.62	39.79
541.79	37.45
541.96	93.62
542.13	56.17
542.30	72.56
542.47	67.88
542.63	42.13
542.80	0.00
542.97	25.75
543.14	39.79
543.31	53.83
543.48	42.13
543.64	86.60
543.81	51.49
543.98	70.22
544.15	58.51
544.32	7.02
544.48	28.09
544.65	86.60
544.82	58.51
544.99	110.01
545.16	46.81
545.32	30.43
545.49	70.22
545.66	9.36
545.83	42.13
546.00	49.15
546.16	60.85
546.33	74.90
546.50	60.85
546.67	11.70
546.83	86.60
547.00	60.85
547.17	53.83
547.34	0.00
547.50	74.90
547.67	28.09
547.84	39.79
548.00	9.36
548.17	112.35
548.34	93.62
548.51	23.41
548.67	88.94
548.84	88.94
549.01	28.09
549.18	81.92
549.34	100.64
549.51	112.35
549.68	21.06
549.84	70.22
550.01	35.11
550.18	88.94
550.34	49.15
550.51	18.72
550.68	39.79
550.84	28.09
551.01	0.00
551.18	11.70
551.34	0.00
551.51	53.83
551.68	0.00
551.84	49.15
552.01	18.72
552.18	23.41
552.34	32.77
552.51	0.00
552.68	67.88
552.84	56.17
553.01	0.00
553.18	140.43
553.34	60.85
553.51	56.17
553.67	72.56
553.84	112.35
554.01	154.48
554.17	0.00
554.34	14.04
554.51	0.00
554.67	46.81
554.84	93.62
555.00	25.75
555.17	14.04
555.33	60.85
555.50	105.32
555.67	37.45
555.83	7.02
556.00	0.00
556.16	72.56
556.33	70.22
556.50	7.02
556.66	93.62
556.83	67.88
556.99	4.68
557.16	51.49
557.32	81.92
557.49	0.00
557.65	98.30
557.82	0.00
557.98	32.77
558.15	95.96
558.32	70.22
558.48	28.09
558.65	0.00
558.81	4.68
558.98	35.11
559.14	35.11
559.31	0.00
559.47	58.51
559.64	88.94
559.80	18.72
559.97	102.98
560.13	11.70
560.30	39.79
560.46	79.58
560.63	117.03
560.79	135.75
560.96	44.47
561.12	53.83
561.29	42.13
561.45	44.47
561.61	77.24
561.78	25.75
561.94	16.38
562.11	44.47
562.27	112.35
562.44	74.90
562.60	49.15
562.77	84.26
562.93	72.56
563.10	21.06
563.26	2.34
563.42	42.13
563.59	51.49
563.75	21.06
563.92	28.09
564.08	32.77
564.24	67.88
564.41	32.77
564.57	56.17
564.74	16.38
564.90	0.00
565.07	93.62
565.23	32.77
565.39	107.66
565.56	42.13
565.72	7.02
565.88	44.47
566.05	39.79
566.21	65.54
566.38	128.73
566.54	2.34
566.70	53.83
566.87	46.81
567.03	14.04
567.19	42.13
567.36	0.00
567.52	67.88
567.68	126.39
567.85	2.34
568.01	49.15
568.17	46.81
568.34	11.70
568.50	65.54
568.66	58.51
568.83	0.00
568.99	0.00
569.15	28.09
569.32	53.83
569.48	0.00
569.64	14.04
569.81	0.00
569.97	0.00
570.13	30.43
570.30	23.41
570.46	53.83
570.62	30.43
570.78	84.26
570.95	21.06
571.11	93.62
571.27	32.77
571.43	14.04
571.60	51.49
571.76	53.83
571.92	7.02
572.09	44.47
572.25	51.49
572.41	95.96
572.57	21.06
572.74	0.00
572.90	37.45
573.06	70.22
573.22	0.00
573.38	14.04
573.55	49.15
573.71	107.66
573.87	84.26
574.03	65.54
574.20	23.41
574.36	0.00
574.52	88.94
574.68	0.00
574.84	0.00
575.01	53.83
575.17	86.60
575.33	44.47
575.49	84.26
575.65	72.56
575.82	91.28
575.98	0.00
576.14	44.47
576.30	0.00
576.46	84.26
576.62	0.00
576.79	4.68
576.95	14.04
577.11	51.49
577.27	58.51
577.43	18.72
577.59	110.01
577.75	88.94
577.92	16.38
578.08	93.62
578.24	0.00
578.40	0.00
578.56	0.00
578.72	23.41
578.88	67.88
579.04	63.19
579.21	14.04
579.37	35.11
579.53	35.11
579.69	0.00
579.85	23.41
580.01	77.24
580.17	77.24
580.33	88.94
580.49	7.02
580.65	74.90
580.82	60.85
580.98	126.39
581.14	70.22
581.30	11.70
581.46	0.00
581.62	107.66
581.78	7.02
581.94	107.66
582.10	93.62
582.26	30.43
582.42	91.28
582.58	51.49
582.74	63.19
582.90	81.92
583.06	58.51
583.22	37.45
583.38	23.41
583.54	21.06
583.70	74.90
583.86	0.00
584.02	30.43
584.18	4.68
584.34	65.54
584.50	21.06
584.66	79.58
584.82	30.43
584.98	93.62
585.14	114.69
585.30	49.15
585.46	72.56
585.62	56.17
585.78	84.26
585.94	53.83
586.10	107.66
586.26	25.75
586.42	0.00
586.58	42.13
586.74	84.26
586.90	67.88
587.06	35.11
587.22	0.00
587.38	91.28
587.54	42.13
587.70	0.00
587.86	32.77
588.02	0.00
588.18	16.38
588.34	72.56
588.49	21.06
588.65	23.41
588.81	0.00
588.97	0.00
589.13	46.81
589.29	0.00
589.45	23.41
589.61	65.54
589.77	25.75
589.93	51.49
590.08	25.75
590.24	46.81
590.40	23.41
590.56	16.38
590.72	32.77
590.88	37.45
591.04	93.62
591.20	0.00
591.35	58.51
591.51	32.77
591.67	9.36
591.83	0.00
591.99	0.00
592.15	46.81
592.31	77.24
592.46	102.98
592.62	53.83
592.78	4.68
592.94	128.73
593.10	88.94
593.26	98.30
593.41	30.43
593.57	37.45
593.73	67.88
593.89	46.81
594.05	0.00
594.20	25.75
594.36	30.43
594.52	21.06
594.68	7.02
594.84	67.88
594.99	74.90
595.15	28.09
595.31	0.00
595.47	46.81
595.62	25.75
595.78	0.00
595.94	74.90
596.10	51.49
596.25	35.11
596.41	4.68
596.57	30.43
596.73	51.49
596.88	51.49
597.04	39.79
597.20	44.47
597.36	28.09
597.51	18.72
597.67	0.00
597.83	42.13
597.99	58.51
598.14	53.83
598.30	74.90
598.46	49.15
598.61	67.88
598.77	16.38
598.93	0.00
599.09	42.13
599.24	67.88
599.40	37.45
599.56	51.49
599.71	42.13
599.87	0.00
600.03	79.58
600.18	14.04
600.34	74.90
600.50	0.00
600.65	32.77
600.81	53.83
600.97	142.77
601.12	37.45
601.28	84.26
601.44	72.56
601.59	0.00
601.75	28.09
601.91	9.36
602.06	0.00
602.22	0.00
602.37	28.09
602.53	53.83
602.69	18.72
602.84	84.26
603.00	28.09
603.16	0.00
603.31	0.00
603.47	112.35
603.62	0.00
603.78	30.43
603.94	63.19
604.09	86.60
604.25	0.00
604.40	32.77
604.56	21.06
604.71	84.26
604.87	11.70
605.03	0.00
605.18	117.03
605.34	95.96
605.49	42.13
605.65	42.13
605.80	30.43
605.96	46.81
606.12	60.85
606.27	0.00
606.43	0.00
606.58	11.70
606.74	35.11
606.89	23.41
607.05	105.32
607.20	51.49
607.36	65.54
607.51	81.92
607.67	102.98
607.82	72.56
607.98	32.77
608.13	67.88
608.29	77.24
608.44	53.83
608.60	0.00
608.75	56.17
608.91	7.02
609.06	42.13
609.22	138.09
609.37	91.28
609.53	4.68
609.68	105.32
609.84	0.00
609.99	11.70
610.15	42.13
610.30	56.17
610.46	88.94
610.61	9.36
610.76	65.54
610.92	98.30
611.07	60.85
611.23	42.13
611.38	58.51
611.54	4.68
611.69	0.00
611.84	25.75
612.00	9.36
612.15	72.56
612.31	112.35
612.46	0.00
612.62	18.72
612.77	28.09
612.92	25.75
613.08	70.22
613.23	30.43
613.39	56.17
613.54	112.35
613.69	86.60
613.85	126.39
614.00	95.96
614.15	56.17
614.31	49.15
614.46	37.45
614.62	77.24
614.77	2.34
614.92	63.19
615.08	0.00
615.23	25.75
615.38	72.56
615.54	70.22
615.69	67.88
615.84	37.45
616.00	35.11
616.15	4.68
616.30	84.26
616.46	11.70
616.61	16.38
616.76	112.35
616.92	0.00
617.07	32.77
617.22	2.34
617.37	67.88
617.53	16.38
617.68	119.37
617.83	42.13
617.99	60.85
618.14	0.00
618.29	7.02
618.45	67.88
618.60	72.56
618.75	53.83
618.90	42.13
619.06	16.38
619.21	102.98
619.36	21.06
619.51	65.54
619.67	46.81
619.82	35.11
619.97	11.70
620.12	0.00
620.28	44.47
620.43	35.11
620.58	30.43
620.73	30.43
620.89	65.54
621.04	0.00
621.19	37.45
621.34	0.00
621.49	25.75
621.65	32.77
621.80	53.83
621.95	107.66
622.10	7.02
622.25	28.09
622.41	18.72
622.56	51.49
622.71	7.02
622.86	9.36
623.01	28.09
623.16	53.83
623.32	67.88
623.47	32.77
623.62	51.49
623.77	39.79
623.92	37.45
624.07	4.68
624.23	67.88
624.38	28.09
624.53	35.11
624.68	51.49
624.83	39.79
624.98	23.41
625.13	95.96
625.29	72.56
625.44	51.49
625.59	35.11
625.74	0.00
625.89	23.41
626.04	44.47
626.19	0.00
626.34	79.58
626.49	18.72
626.65	70.22
626.80	37.45
626.95	14.04
627.10	0.00
627.25	124.05
627.40	0.00
627.55	28.09
627.70	23.41
627.85	23.41
628.00	42.13
628.15	0.00
628.30	126.39
628.45	42.13
628.60	46.81
628.76	2.34
628.91	0.00
629.06	35.11
629.21	21.06
629.36	35.11
629.51	58.51
629.66	58.51
629.81	124.05
629.96	4.68
630.11	65.54
630.26	49.15
630.41	0.00
630.56	42.13
630.71	67.88
630.86	53.83
631.01	58.51
631.16	28.09
631.31	14.04
631.46	4.68
631.61	14.04
631.76	91.28
631.91	11.70
632.06	0.00
632.21	39.79
632.36	121.71
632.51	0.00
632.66	23.41
632.81	51.49
632.96	35.11
633.10	0.00
633.25	32.77
633.40	30.43
633.55	86.60
633.70	60.85
633.85	39.79
634.00	77.24
634.15	11.70
634.30	0.00
634.45	2.34
634.60	30.43
634.75	9.36
634.90	25.75
635.05	7.02
635.19	16.38
635.34	28.09
635.49	11.70
635.64	79.58
635.79	11.70
635.94	65.54
636.09	100.64
636.24	0.00
636.39	0.00
636.53	0.00
636.68	25.75
636.83	42.13
636.98	46.81
637.13	77.24
637.28	16.38
637.43	37.45
637.57	72.56
637.72	11.70
637.87	0.00
638.02	7.02
638.17	25.75
638.32	28.09
638.46	53.83
638.61	0.00
638.76	35.11
638.91	7.02
639.06	0.00
639.20	46.81
639.35	28.09
639.50	0.00
639.65	81.92
639.80	14.04
639.94	67.88
640.09	4.68
640.24	86.60
640.39	0.00
640.54	37.45
640.68	42.13
640.83	67.88
640.98	67.88
641.13	77.24
641.27	0.00
641.42	70.22
641.57	124.05
641.72	39.79
641.86	0.00
642.01	0.00
642.16	58.51
642.31	79.58
642.45	74.90
642.60	53.83
642.75	0.00
642.90	72.56
643.04	39.79
643.19	37.45
643.34	35.11
643.48	25.75
643.63	114.69
643.78	86.60
643.93	77.24
644.07	4.68
644.22	65.54
644.37	42.13
644.51	100.64
644.66	39.79
644.81	4.68
644.95	53.83
645.10	14.04
645.25	14.04
645.39	56.17
645.54	4.68
645.69	79.58
645.83	0.00
645.98	81.92
646.13	0.00
646.27	44.47
646.42	37.45
646.57	0.00
646.71	56.17
646.86	0.00
647.00	0.00
647.15	11.70
647.30	56.17
647.44	42.13
647.59	51.49
647.74	72.56
647.88	0.00
648.03	58.51
648.17	58.51
648.32	91.28
648.47	0.00
648.61	30.43
648.76	9.36
648.90	56.17
649.05	65.54
649.20	11.70
649.34	35.11
649.49	16.38
649.63	56.17
649.78	0.00
649.92	18.72
650.07	65.54
650.21	25.75
650.36	32.77
650.51	9.36
650.65	65.54
650.80	44.47
650.94	32.77
651.09	53.83
651.23	88.94
651.38	0.00
651.52	44.47
651.67	74.90
651.81	0.00
651.96	102.98
652.10	95.96
652.25	44.47
652.39	95.96
652.54	58.51
652.68	65.54
652.83	81.92
652.97	0.00
653.12	0.00
653.26	0.00
653.41	72.56
653.55	63.19
653.70	16.38
653.84	131.07
653.99	0.00
654.13	25.75
654.27	37.45
654.42	32.77
654.56	11.70
654.71	0.00
654.85	67.88
655.00	0.00
655.14	0.00
655.29	9.36
655.43	72.56
655.57	16.38
655.72	25.75
655.86	32.77
656.01	25.75
656.15	91.28
656.30	28.09
656.44	16.38
656.58	53.83
656.73	84.26
656.87	65.54
657.01	9.36
657.16	53.83
657.30	35.11
657.45	0.00
657.59	67.88
657.73	21.06
657.88	7.02
658.02	56.17
658.16	28.09
658.31	0.00
658.45	0.00
658.60	32.77
658.74	79.58
658.88	0.00
659.03	18.72
659.17	42.13
659.31	60.85
659.46	105.32
659.60	42.13
659.74	28.09
659.89	18.72
660.03	72.56
660.17	60.85
660.32	14.04
660.46	67.88
660.60	0.00
660.74	58.51
660.89	32.77
661.03	0.00
661.17	128.73
661.32	81.92
661.46	56.17
661.60	74.90
661.74	42.13
661.89	86.60
662.03	60.85
662.17	51.49
662.31	65.54
662.46	49.15
662.60	51.49
662.74	25.75
662.88	16.38
663.03	4.68
663.17	16.38
663.31	14.04
663.45	42.13
663.60	25.75
663.74	37.45
663.88	18.72
664.02	35.11
664.17	23.41
664.31	21.06
664.45	35.11
664.59	23.41
664.73	44.47
664.88	63.19
665.02	56.17
665.16	42.13
665.30	79.58
665.44	16.38
665.59	7.02
665.73	51.49
665.87	30.43
666.01	49.15
666.15	44.47
666.29	95.96
666.44	63.19
666.58	84.26
666.72	88.94
666.86	79.58
667.00	84.26
667.14	51.49
667.28	0.00
667.43	81.92
667.57	119.37
667.71	37.45
667.85	72.56
667.99	9.36
668.13	39.79
668.27	51.49
668.41	126.39
668.56	16.38
668.70	95.96
668.84	30.43
668.98	7.02
669.12	25.75
669.26	56.17
669.40	28.09
669.54	63.19
669.68	58.51
669.82	63.19
669.96	32.77
670.10	65.54
670.25	37.45
670.39	44.47
670.53	25.75
670.67	4.68
670.81	35.11
670.95	9.36
671.09	39.79
671.23	74.90
671.37	63.19
671.51	37.45
671.65	53.83
671.79	77.24
671.93	25.75
672.07	35.11
672.21	11.70
672.35	60.85
672.49	63.19
672.63	65.54
672.77	49.15
672.91	35.11
673.05	0.00
673.19	32.77
673.33	46.81
673.47	25.75
673.61	105.32
673.75	117.03
673.89	53.83
674.03	121.71
674.17	88.94
674.31	23.41
674.45	0.00
674.59	39.79
674.73	0.00
674.87	86.60
675.01	7.02
675.15	37.45
675.29	46.81
675.43	16.38
675.56	14.04
675.70	28.09
675.84	0.00
675.98	74.90
676.12	0.00
676.26	0.00
676.40	46.81
676.54	28.09
676.68	30.43
676.82	30.43
676.96	21.06
677.10	88.94
677.23	65.54
677.37	39.79
677.51	28.09
677.65	39.79
677.79	49.15
677.93	67.88
678.07	14.04
678.21	21.06
678.34	14.04
678.48	0.00
678.62	2.34
678.76	86.60
678.90	25.75
679.04	0.00
679.18	102.98
679.31	88.94
679.45	0.00
679.59	25.75
679.73	65.54
679.87	30.43
680.00	14.04
680.14	32.77
680.28	81.92
680.42	67.88
680.56	0.00
680.70	72.56
680.83	32.77
680.97	0.00
681.11	72.56
681.25	16.38
681.39	77.24
681.52	32.77
681.66	11.70
681.80	28.09
681.94	39.79
682.07	37.45
682.21	23.41
682.35	16.38
682.49	35.11
682.62	21.06
682.76	16.38
682.90	39.79
683.04	63.19
683.17	21.06
683.31	58.51
683.45	53.83
683.59	49.15
683.72	37.45
683.86	42.13
684.00	0.00
684.13	58.51
684.27	77.24
684.41	39.79
684.55	30.43
684.68	0.00
684.82	49.15
684.96	119.37
685.09	28.09
685.23	0.00
685.37	28.09
685.50	91.28
685.64	56.17
685.78	35.11
685.91	56.17
686.05	65.54
686.19	51.49
686.32	0.00
686.46	49.15
686.60	14.04
686.73	11.70
686.87	0.00
687.01	42.13
687.14	0.00
687.28	23.41
687.42	0.00
687.55	39.79
687.69	32.77
687.82	35.11
687.96	32.77
688.10	4.68
688.23	18.72
688.37	0.00
688.50	16.38
688.64	63.19
688.78	72.56
688.91	0.00
689.05	42.13
689.18	30.43
689.32	32.77
689.46	35.11
689.59	37.45
689.73	42.13
689.86	72.56
690.00	0.00
690.13	18.72
690.27	74.90
690.41	35.11
690.54	30.43
690.68	0.00
690.81	28.09
690.95	42.13
691.08	21.06
691.22	42.13
691.35	0.00
691.49	11.70
691.62	0.00
691.76	0.00
691.89	14.04
692.03	0.00
692.16	0.00
692.30	42.13
692.43	0.00
692.57	42.13
692.70	63.19
692.84	25.75
692.97	67.88
693.11	23.41
693.24	11.70
693.38	23.41
693.51	0.00
693.65	93.62
693.78	58.51
693.92	18.72
694.05	44.47
694.19	46.81
694.32	102.98
694.45	0.00
694.59	30.43
694.72	91.28
694.86	58.51
694.99	51.49
695.13	23.41
695.26	32.77
695.39	0.00
695.53	42.13
695.66	14.04
695.80	81.92
695.93	112.35
696.07	11.70
696.20	35.11
696.33	0.00
696.47	18.72
696.60	39.79
696.73	0.00
696.87	2.34
697.00	65.54
697.14	9.36
697.27	18.72
697.40	39.79
697.54	156.82
697.67	74.90
697.80	72.56
697.94	32.77
698.07	16.38
698.21	9.36
698.34	7.02
698.47	23.41
698.61	32.77
698.74	35.11
698.87	74.90
699.01	7.02
699.14	65.54
699.27	46.81
699.40	56.17
699.54	51.49
699.67	0.00
699.80	0.00
699.94	72.56
700.07	0.00
700.20	39.79
700.34	72.56
700.47	53.83
700.60	32.77
700.73	11.70
700.87	112.35
701.00	21.06
701.13	14.04
701.26	30.43
701.40	77.24
701.53	0.00
701.66	14.04
701.79	42.13
701.93	77.24
702.06	39.79
702.19	32.77
702.32	21.06
702.46	0.00
702.59	4.68
702.72	63.19
702.85	0.00
702.99	0.00
703.12	56.17
703.25	28.09
703.38	65.54
703.51	0.00
703.65	0.00
703.78	0.00
703.91	7.02
704.04	42.13
704.17	23.41
704.31	72.56
704.44	88.94
704.57	65.54
704.70	0.00
704.83	0.00
704.96	39.79
705.10	72.56
705.23	112.35
>>>>>End Processed Spectral Data<<<<<
