SpectraSuite Data File
++++++++++++++++++++++++++++++++++++
Date: Fri Oct 04 12:13:38 GMT-05:00 2013
User: price-jones
Dark Spectrum Present: No
Reference Spectrum Present: No
Number of Sampled Component Spectra: 1
Spectrometers: USB2+H05261
Integration Time (usec): 10000 (USB2+H05261)
Spectra Averaged: 1 (USB2+H05261)
Boxcar Smoothing: 0 (USB2+H05261)
Correct for Electrical Dark: No (USB2+H05261)
Strobe/Lamp Enabled: No (USB2+H05261)
Correct for Detector Non-linearity: No (USB2+H05261)
Correct for Stray Light: No (USB2+H05261)
Number of Pixels in Processed Spectrum: 2048
>>>>>Begin Processed Spectral Data<<<<<
365.73	0.00
365.92	0.00
366.12	0.00
366.32	0.00
366.52	0.00
366.72	0.00
366.91	0.00
367.11	0.00
367.31	0.00
367.51	0.00
367.70	0.00
367.90	0.00
368.10	0.00
368.30	0.00
368.49	0.00
368.69	0.00
368.89	0.00
369.09	0.00
369.28	0.00
369.48	0.00
369.68	0.00
369.87	0.00
370.07	0.00
370.27	0.00
370.47	0.00
370.66	0.00
370.86	0.00
371.06	44.47
371.25	0.00
371.45	0.00
371.65	0.00
371.84	21.06
372.04	0.00
372.24	39.79
372.44	0.00
372.63	0.00
372.83	4.68
373.03	32.77
373.22	0.00
373.42	30.43
373.62	32.77
373.81	39.79
374.01	0.00
374.21	0.00
374.40	0.00
374.60	100.64
374.79	0.00
374.99	65.54
375.19	60.85
375.38	128.73
375.58	79.58
375.78	28.09
375.97	145.11
376.17	42.13
376.37	88.94
376.56	0.00
376.76	58.51
376.95	0.00
377.15	0.00
377.35	124.05
377.54	0.00
377.74	21.06
377.93	32.77
378.13	0.00
378.33	0.00
378.52	9.36
378.72	77.24
378.91	51.49
379.11	0.00
379.31	14.04
379.50	0.00
379.70	23.41
379.89	0.00
380.09	0.00
380.28	21.06
380.48	0.00
380.68	53.83
380.87	23.41
381.07	74.90
381.26	9.36
381.46	18.72
381.65	93.62
381.85	0.00
382.04	28.09
382.24	72.56
382.43	0.00
382.63	14.04
382.83	65.54
383.02	77.24
383.22	21.06
383.41	14.04
383.61	39.79
383.80	0.00
384.00	0.00
384.19	35.11
384.39	63.19
384.58	0.00
384.78	0.00
384.97	35.11
385.17	25.75
385.36	53.83
385.56	30.43
385.75	7.02
385.95	23.41
386.14	84.26
386.34	21.06
386.53	11.70
386.72	23.41
386.92	18.72
387.11	67.88
387.31	58.51
387.50	0.00
387.70	0.00
387.89	44.47
388.09	0.00
388.28	0.00
388.48	67.88
388.67	25.75
388.86	11.70
389.06	0.00
389.25	37.45
389.45	51.49
389.64	42.13
389.84	32.77
390.03	58.51
390.22	44.47
390.42	9.36
390.61	0.00
390.81	32.77
391.00	0.00
391.19	39.79
391.39	4.68
391.58	4.68
391.78	46.81
391.97	11.70
392.16	35.11
392.36	0.00
392.55	9.36
392.75	46.81
392.94	63.19
393.13	37.45
393.33	7.02
393.52	23.41
393.71	0.00
393.91	53.83
394.10	51.49
394.29	30.43
394.49	30.43
394.68	46.81
394.88	0.00
395.07	72.56
395.26	4.68
395.46	0.00
395.65	25.75
395.84	14.04
396.04	2.34
396.23	102.98
396.42	14.04
396.62	39.79
396.81	4.68
397.00	16.38
397.19	28.09
397.39	42.13
397.58	16.38
397.77	67.88
397.97	84.26
398.16	46.81
398.35	32.77
398.55	0.00
398.74	32.77
398.93	88.94
399.12	16.38
399.32	46.81
399.51	0.00
399.70	18.72
399.90	81.92
400.09	2.34
400.28	21.06
400.47	0.00
400.67	0.00
400.86	16.38
401.05	107.66
401.24	70.22
401.44	0.00
401.63	0.00
401.82	84.26
402.01	23.41
402.21	100.64
402.40	84.26
402.59	37.45
402.78	77.24
402.97	53.83
403.17	74.90
403.36	0.00
403.55	11.70
403.74	2.34
403.93	0.00
404.13	18.72
404.32	28.09
404.51	84.26
404.70	79.58
404.89	42.13
405.09	30.43
405.28	46.81
405.47	0.00
405.66	53.83
405.85	37.45
406.05	2.34
406.24	67.88
406.43	51.49
406.62	51.49
406.81	53.83
407.00	25.75
407.20	37.45
407.39	56.17
407.58	0.00
407.77	46.81
407.96	98.30
408.15	93.62
408.34	23.41
408.54	56.17
408.73	46.81
408.92	56.17
409.11	0.00
409.30	11.70
409.49	0.00
409.68	58.51
409.87	42.13
410.07	74.90
410.26	4.68
410.45	42.13
410.64	42.13
410.83	88.94
411.02	58.51
411.21	32.77
411.40	37.45
411.59	4.68
411.78	79.58
411.98	30.43
412.17	0.00
412.36	70.22
412.55	42.13
412.74	70.22
412.93	46.81
413.12	0.00
413.31	70.22
413.50	28.09
413.69	37.45
413.88	28.09
414.07	63.19
414.26	28.09
414.45	95.96
414.64	60.85
414.83	72.56
415.02	0.00
415.22	25.75
415.41	79.58
415.60	58.51
415.79	11.70
415.98	14.04
416.17	0.00
416.36	25.75
416.55	42.13
416.74	32.77
416.93	0.00
417.12	23.41
417.31	56.17
417.50	91.28
417.69	67.88
417.88	0.00
418.07	67.88
418.26	16.38
418.45	79.58
418.64	56.17
418.83	0.00
419.02	21.06
419.21	30.43
419.39	49.15
419.58	0.00
419.77	25.75
419.96	84.26
420.15	0.00
420.34	58.51
420.53	35.11
420.72	25.75
420.91	0.00
421.10	44.47
421.29	58.51
421.48	60.85
421.67	25.75
421.86	0.00
422.05	28.09
422.24	93.62
422.43	53.83
422.61	91.28
422.80	46.81
422.99	0.00
423.18	112.35
423.37	67.88
423.56	0.00
423.75	25.75
423.94	51.49
424.13	7.02
424.32	74.90
424.50	44.47
424.69	2.34
424.88	23.41
425.07	0.00
425.26	0.00
425.45	63.19
425.64	35.11
425.83	60.85
426.01	133.41
426.20	77.24
426.39	51.49
426.58	0.00
426.77	30.43
426.96	102.98
427.15	88.94
427.33	0.00
427.52	14.04
427.71	42.13
427.90	81.92
428.09	0.00
428.28	23.41
428.46	98.30
428.65	0.00
428.84	0.00
429.03	32.77
429.22	42.13
429.40	46.81
429.59	98.30
429.78	65.54
429.97	35.11
430.16	88.94
430.34	88.94
430.53	30.43
430.72	67.88
430.91	11.70
431.10	7.02
431.28	0.00
431.47	49.15
431.66	51.49
431.85	77.24
432.03	77.24
432.22	0.00
432.41	49.15
432.60	58.51
432.79	0.00
432.97	70.22
433.16	18.72
433.35	28.09
433.54	32.77
433.72	84.26
433.91	0.00
434.10	30.43
434.28	107.66
434.47	30.43
434.66	93.62
434.85	37.45
435.03	86.60
435.22	79.58
435.41	70.22
435.59	112.35
435.78	65.54
435.97	30.43
436.16	0.00
436.34	37.45
436.53	32.77
436.72	0.00
436.90	46.81
437.09	35.11
437.28	39.79
437.46	21.06
437.65	93.62
437.84	63.19
438.02	11.70
438.21	56.17
438.40	60.85
438.58	79.58
438.77	0.00
438.96	35.11
439.14	14.04
439.33	49.15
439.52	0.00
439.70	98.30
439.89	32.77
440.08	60.85
440.26	93.62
440.45	56.17
440.63	42.13
440.82	35.11
441.01	44.47
441.19	107.66
441.38	0.00
441.57	72.56
441.75	0.00
441.94	28.09
442.12	44.47
442.31	84.26
442.50	37.45
442.68	79.58
442.87	74.90
443.05	107.66
443.24	51.49
443.43	58.51
443.61	21.06
443.80	56.17
443.98	70.22
444.17	35.11
444.35	88.94
444.54	18.72
444.73	9.36
444.91	35.11
445.10	67.88
445.28	35.11
445.47	25.75
445.65	0.00
445.84	23.41
446.02	86.60
446.21	110.01
446.39	42.13
446.58	98.30
446.77	9.36
446.95	39.79
447.14	25.75
447.32	23.41
447.51	119.37
447.69	21.06
447.88	65.54
448.06	44.47
448.25	49.15
448.43	74.90
448.62	23.41
448.80	35.11
448.99	58.51
449.17	14.04
449.36	56.17
449.54	51.49
449.73	44.47
449.91	49.15
450.10	35.11
450.28	37.45
450.46	21.06
450.65	30.43
450.83	28.09
451.02	74.90
451.20	65.54
451.39	18.72
451.57	72.56
451.76	81.92
451.94	77.24
452.13	70.22
452.31	107.66
452.49	49.15
452.68	124.05
452.86	72.56
453.05	25.75
453.23	58.51
453.42	126.39
453.60	114.69
453.78	9.36
453.97	11.70
454.15	9.36
454.34	28.09
454.52	44.47
454.70	42.13
454.89	60.85
455.07	67.88
455.26	81.92
455.44	84.26
455.62	74.90
455.81	30.43
455.99	60.85
456.17	56.17
456.36	88.94
456.54	51.49
456.73	56.17
456.91	42.13
457.09	93.62
457.28	107.66
457.46	110.01
457.64	0.00
457.83	58.51
458.01	124.05
458.19	56.17
458.38	60.85
458.56	9.36
458.74	53.83
458.93	88.94
459.11	72.56
459.29	65.54
459.48	56.17
459.66	51.49
459.84	72.56
460.03	39.79
460.21	0.00
460.39	74.90
460.57	0.00
460.76	65.54
460.94	56.17
461.12	56.17
461.31	60.85
461.49	51.49
461.67	23.41
461.85	16.38
462.04	35.11
462.22	159.16
462.40	63.19
462.59	0.00
462.77	9.36
462.95	16.38
463.13	0.00
463.32	60.85
463.50	7.02
463.68	63.19
463.86	72.56
464.05	102.98
464.23	44.47
464.41	95.96
464.59	25.75
464.78	0.00
464.96	67.88
465.14	0.00
465.32	65.54
465.50	51.49
465.69	0.00
465.87	44.47
466.05	110.01
466.23	98.30
466.41	79.58
466.60	63.19
466.78	35.11
466.96	70.22
467.14	4.68
467.32	32.77
467.51	0.00
467.69	11.70
467.87	28.09
468.05	28.09
468.23	149.79
468.41	39.79
468.60	28.09
468.78	81.92
468.96	9.36
469.14	11.70
469.32	35.11
469.50	56.17
469.69	44.47
469.87	56.17
470.05	100.64
470.23	58.51
470.41	51.49
470.59	30.43
470.77	67.88
470.95	63.19
471.14	102.98
471.32	51.49
471.50	63.19
471.68	44.47
471.86	51.49
472.04	23.41
472.22	126.39
472.40	0.00
472.58	95.96
472.77	58.51
472.95	74.90
473.13	119.37
473.31	21.06
473.49	98.30
473.67	65.54
473.85	93.62
474.03	74.90
474.21	74.90
474.39	58.51
474.57	30.43
474.75	102.98
474.93	39.79
475.12	25.75
475.30	23.41
475.48	42.13
475.66	121.71
475.84	42.13
476.02	107.66
476.20	9.36
476.38	0.00
476.56	72.56
476.74	74.90
476.92	105.32
477.10	91.28
477.28	110.01
477.46	81.92
477.64	79.58
477.82	63.19
478.00	145.11
478.18	32.77
478.36	91.28
478.54	53.83
478.72	56.17
478.90	25.75
479.08	58.51
479.26	91.28
479.44	0.00
479.62	51.49
479.80	11.70
479.98	79.58
480.16	42.13
480.34	145.11
480.52	35.11
480.70	58.51
480.88	51.49
481.06	79.58
481.24	77.24
481.41	98.30
481.59	105.32
481.77	119.37
481.95	88.94
482.13	88.94
482.31	60.85
482.49	9.36
482.67	0.00
482.85	128.73
483.03	49.15
483.21	25.75
483.39	65.54
483.57	0.00
483.74	53.83
483.92	32.77
484.10	65.54
484.28	88.94
484.46	72.56
484.64	121.71
484.82	56.17
485.00	102.98
485.18	72.56
485.35	70.22
485.53	21.06
485.71	53.83
485.89	72.56
486.07	102.98
486.25	46.81
486.43	98.30
486.61	39.79
486.78	67.88
486.96	23.41
487.14	60.85
487.32	72.56
487.50	11.70
487.68	100.64
487.85	67.88
488.03	128.73
488.21	70.22
488.39	67.88
488.57	35.11
488.75	121.71
488.92	98.30
489.10	63.19
489.28	95.96
489.46	91.28
489.64	128.73
489.81	70.22
489.99	18.72
490.17	79.58
490.35	91.28
490.53	135.75
490.70	88.94
490.88	88.94
491.06	2.34
491.24	79.58
491.41	18.72
491.59	105.32
491.77	117.03
491.95	86.60
492.13	84.26
492.30	100.64
492.48	23.41
492.66	72.56
492.84	126.39
493.01	53.83
493.19	91.28
493.37	133.41
493.54	91.28
493.72	60.85
493.90	131.07
494.08	91.28
494.25	65.54
494.43	81.92
494.61	46.81
494.79	74.90
494.96	95.96
495.14	74.90
495.32	28.09
495.49	37.45
495.67	110.01
495.85	119.37
496.02	95.96
496.20	102.98
496.38	72.56
496.55	70.22
496.73	25.75
496.91	56.17
497.09	70.22
497.26	39.79
497.44	23.41
497.62	159.16
497.79	102.98
497.97	131.07
498.14	58.51
498.32	60.85
498.50	49.15
498.67	65.54
498.85	79.58
499.03	98.30
499.20	56.17
499.38	105.32
499.56	77.24
499.73	119.37
499.91	63.19
500.08	44.47
500.26	100.64
500.44	142.77
500.61	98.30
500.79	88.94
500.97	91.28
501.14	140.43
501.32	14.04
501.49	30.43
501.67	102.98
501.84	65.54
502.02	159.16
502.20	88.94
502.37	100.64
502.55	91.28
502.72	37.45
502.90	128.73
503.07	37.45
503.25	21.06
503.43	95.96
503.60	72.56
503.78	95.96
503.95	142.77
504.13	60.85
504.30	110.01
504.48	119.37
504.65	60.85
504.83	72.56
505.01	163.84
505.18	79.58
505.36	117.03
505.53	114.69
505.71	39.79
505.88	37.45
506.06	72.56
506.23	88.94
506.41	124.05
506.58	77.24
506.76	60.85
506.93	7.02
507.11	18.72
507.28	133.41
507.46	65.54
507.63	102.98
507.81	65.54
507.98	91.28
508.16	46.81
508.33	60.85
508.50	124.05
508.68	51.49
508.85	100.64
509.03	128.73
509.20	11.70
509.38	119.37
509.55	44.47
509.73	86.60
509.90	79.58
510.08	100.64
510.25	79.58
510.42	60.85
510.60	86.60
510.77	114.69
510.95	135.75
511.12	77.24
511.30	128.73
511.47	72.56
511.64	154.48
511.82	91.28
511.99	140.43
512.17	119.37
512.34	79.58
512.51	119.37
512.69	135.75
512.86	60.85
513.04	91.28
513.21	102.98
513.38	37.45
513.56	88.94
513.73	72.56
513.90	72.56
514.08	124.05
514.25	25.75
514.43	0.00
514.60	110.01
514.77	140.43
514.95	107.66
515.12	88.94
515.29	42.13
515.47	39.79
515.64	53.83
515.81	35.11
515.99	51.49
516.16	65.54
516.33	70.22
516.51	91.28
516.68	84.26
516.85	86.60
517.03	74.90
517.20	119.37
517.37	161.50
517.54	44.47
517.72	131.07
517.89	91.28
518.06	77.24
518.24	77.24
518.41	95.96
518.58	32.77
518.75	86.60
518.93	58.51
519.10	102.98
519.27	4.68
519.45	44.47
519.62	138.09
519.79	84.26
519.96	187.24
520.14	95.96
520.31	114.69
520.48	126.39
520.65	63.19
520.83	112.35
521.00	131.07
521.17	32.77
521.34	56.17
521.52	81.92
521.69	32.77
521.86	124.05
522.03	159.16
522.20	49.15
522.38	14.04
522.55	58.51
522.72	131.07
522.89	77.24
523.07	91.28
523.24	70.22
523.41	177.88
523.58	42.13
523.75	93.62
523.92	67.88
524.10	79.58
524.27	126.39
524.44	114.69
524.61	100.64
524.78	42.13
524.96	93.62
525.13	102.98
525.30	84.26
525.47	0.00
525.64	124.05
525.81	49.15
525.98	77.24
526.16	154.48
526.33	60.85
526.50	86.60
526.67	81.92
526.84	91.28
527.01	32.77
527.18	49.15
527.36	88.94
527.53	9.36
527.70	63.19
527.87	117.03
528.04	119.37
528.21	37.45
528.38	107.66
528.55	86.60
528.72	163.84
528.89	173.20
529.07	117.03
529.24	114.69
529.41	121.71
529.58	51.49
529.75	46.81
529.92	56.17
530.09	86.60
530.26	42.13
530.43	23.41
530.60	86.60
530.77	86.60
530.94	79.58
531.11	14.04
531.28	28.09
531.46	124.05
531.63	23.41
531.80	23.41
531.97	42.13
532.14	79.58
532.31	51.49
532.48	173.20
532.65	67.88
532.82	56.17
532.99	79.58
533.16	110.01
533.33	70.22
533.50	112.35
533.67	79.58
533.84	133.41
534.01	100.64
534.18	74.90
534.35	56.17
534.52	67.88
534.69	42.13
534.86	105.32
535.03	95.96
535.20	81.92
535.37	72.56
535.54	105.32
535.71	117.03
535.88	74.90
536.05	105.32
536.22	72.56
536.38	84.26
536.55	84.26
536.72	126.39
536.89	163.84
537.06	42.13
537.23	112.35
537.40	51.49
537.57	131.07
537.74	140.43
537.91	114.69
538.08	67.88
538.25	119.37
538.42	107.66
538.59	32.77
538.75	72.56
538.92	74.90
539.09	147.45
539.26	32.77
539.43	65.54
539.60	86.60
539.77	16.38
539.94	105.32
540.11	107.66
540.28	65.54
540.44	161.50
540.61	32.77
540.78	110.01
540.95	81.92
541.12	98.30
541.29	77.24
541.46	60.85
541.62	93.62
541.79	53.83
541.96	81.92
542.13	49.15
542.30	81.92
542.47	30.43
542.63	93.62
542.80	135.75
542.97	67.88
543.14	49.15
543.31	114.69
543.48	0.00
543.64	126.39
543.81	117.03
543.98	42.13
544.15	105.32
544.32	168.52
544.48	67.88
544.65	65.54
544.82	112.35
544.99	93.62
545.16	133.41
545.32	138.09
545.49	86.60
545.66	74.90
545.83	152.13
546.00	93.62
546.16	131.07
546.33	35.11
546.50	67.88
546.67	159.16
546.83	152.13
547.00	72.56
547.17	42.13
547.34	63.19
547.50	86.60
547.67	110.01
547.84	0.00
548.00	110.01
548.17	110.01
548.34	114.69
548.51	119.37
548.67	67.88
548.84	117.03
549.01	100.64
549.18	86.60
549.34	58.51
549.51	161.50
549.68	86.60
549.84	105.32
550.01	58.51
550.18	107.66
550.34	110.01
550.51	81.92
550.68	86.60
550.84	93.62
551.01	0.00
551.18	60.85
551.34	35.11
551.51	93.62
551.68	35.11
551.84	44.47
552.01	98.30
552.18	77.24
552.34	114.69
552.51	51.49
552.68	128.73
552.84	98.30
553.01	107.66
553.18	49.15
553.34	70.22
553.51	65.54
553.67	23.41
553.84	110.01
554.01	60.85
554.17	58.51
554.34	79.58
554.51	112.35
554.67	39.79
554.84	44.47
555.00	84.26
555.17	60.85
555.33	95.96
555.50	86.60
555.67	74.90
555.83	49.15
556.00	88.94
556.16	65.54
556.33	117.03
556.50	100.64
556.66	133.41
556.83	60.85
556.99	107.66
557.16	142.77
557.32	93.62
557.49	58.51
557.65	65.54
557.82	16.38
557.98	42.13
558.15	53.83
558.32	49.15
558.48	37.45
558.65	63.19
558.81	110.01
558.98	133.41
559.14	102.98
559.31	67.88
559.47	32.77
559.64	60.85
559.80	37.45
559.97	128.73
560.13	93.62
560.30	95.96
560.46	7.02
560.63	23.41
560.79	100.64
560.96	88.94
561.12	114.69
561.29	42.13
561.45	37.45
561.61	77.24
561.78	100.64
561.94	110.01
562.11	56.17
562.27	95.96
562.44	88.94
562.60	98.30
562.77	0.00
562.93	70.22
563.10	98.30
563.26	58.51
563.42	126.39
563.59	74.90
563.75	114.69
563.92	81.92
564.08	72.56
564.24	79.58
564.41	84.26
564.57	56.17
564.74	135.75
564.90	25.75
565.07	65.54
565.23	79.58
565.39	110.01
565.56	56.17
565.72	70.22
565.88	60.85
566.05	142.77
566.21	0.00
566.38	30.43
566.54	60.85
566.70	51.49
566.87	154.48
567.03	16.38
567.19	79.58
567.36	86.60
567.52	53.83
567.68	63.19
567.85	74.90
568.01	60.85
568.17	35.11
568.34	121.71
568.50	56.17
568.66	70.22
568.83	79.58
568.99	163.84
569.15	70.22
569.32	98.30
569.48	44.47
569.64	147.45
569.81	70.22
569.97	128.73
570.13	67.88
570.30	84.26
570.46	114.69
570.62	131.07
570.78	110.01
570.95	131.07
571.11	93.62
571.27	42.13
571.43	70.22
571.60	51.49
571.76	81.92
571.92	30.43
572.09	84.26
572.25	11.70
572.41	107.66
572.57	105.32
572.74	156.82
572.90	46.81
573.06	98.30
573.22	140.43
573.38	98.30
573.55	121.71
573.71	46.81
573.87	112.35
574.03	39.79
574.20	70.22
574.36	21.06
574.52	110.01
574.68	121.71
574.84	161.50
575.01	133.41
575.17	32.77
575.33	93.62
575.49	32.77
575.65	0.00
575.82	25.75
575.98	102.98
576.14	72.56
576.30	23.41
576.46	72.56
576.62	95.96
576.79	102.98
576.95	39.79
577.11	51.49
577.27	58.51
577.43	0.00
577.59	86.60
577.75	81.92
577.92	95.96
578.08	100.64
578.24	63.19
578.40	112.35
578.56	70.22
578.72	84.26
578.88	119.37
579.04	56.17
579.21	107.66
579.37	30.43
579.53	72.56
579.69	117.03
579.85	93.62
580.01	63.19
580.17	79.58
580.33	114.69
580.49	86.60
580.65	100.64
580.82	119.37
580.98	0.00
581.14	14.04
581.30	49.15
581.46	39.79
581.62	65.54
581.78	51.49
581.94	32.77
582.10	28.09
582.26	72.56
582.42	70.22
582.58	53.83
582.74	88.94
582.90	110.01
583.06	98.30
583.22	39.79
583.38	37.45
583.54	112.35
583.70	86.60
583.86	32.77
584.02	102.98
584.18	9.36
584.34	133.41
584.50	58.51
584.66	72.56
584.82	14.04
584.98	46.81
585.14	30.43
585.30	93.62
585.46	60.85
585.62	16.38
585.78	0.00
585.94	107.66
586.10	91.28
586.26	133.41
586.42	124.05
586.58	74.90
586.74	58.51
586.90	112.35
587.06	58.51
587.22	67.88
587.38	53.83
587.54	53.83
587.70	30.43
587.86	18.72
588.02	25.75
588.18	81.92
588.34	21.06
588.49	74.90
588.65	60.85
588.81	35.11
588.97	56.17
589.13	39.79
589.29	124.05
589.45	53.83
589.61	32.77
589.77	135.75
589.93	72.56
590.08	128.73
590.24	72.56
590.40	81.92
590.56	11.70
590.72	84.26
590.88	72.56
591.04	86.60
591.20	107.66
591.35	149.79
591.51	58.51
591.67	46.81
591.83	63.19
591.99	0.00
592.15	37.45
592.31	70.22
592.46	28.09
592.62	63.19
592.78	32.77
592.94	112.35
593.10	149.79
593.26	135.75
593.41	98.30
593.57	98.30
593.73	98.30
593.89	70.22
594.05	63.19
594.20	117.03
594.36	79.58
594.52	9.36
594.68	30.43
594.84	81.92
594.99	110.01
595.15	88.94
595.31	81.92
595.47	102.98
595.62	53.83
595.78	110.01
595.94	107.66
596.10	74.90
596.25	77.24
596.41	128.73
596.57	56.17
596.73	37.45
596.88	42.13
597.04	77.24
597.20	32.77
597.36	88.94
597.51	128.73
597.67	128.73
597.83	154.48
597.99	44.47
598.14	100.64
598.30	98.30
598.46	84.26
598.61	81.92
598.77	51.49
598.93	100.64
599.09	37.45
599.24	100.64
599.40	11.70
599.56	60.85
599.71	81.92
599.87	105.32
600.03	25.75
600.18	105.32
600.34	67.88
600.50	138.09
600.65	128.73
600.81	100.64
600.97	131.07
601.12	70.22
601.28	23.41
601.44	74.90
601.59	84.26
601.75	93.62
601.91	93.62
602.06	32.77
602.22	37.45
602.37	56.17
602.53	46.81
602.69	42.13
602.84	0.00
603.00	100.64
603.16	49.15
603.31	86.60
603.47	63.19
603.62	77.24
603.78	102.98
603.94	53.83
604.09	65.54
604.25	98.30
604.40	14.04
604.56	35.11
604.71	121.71
604.87	100.64
605.03	0.00
605.18	63.19
605.34	56.17
605.49	107.66
605.65	39.79
605.80	0.00
605.96	77.24
606.12	2.34
606.27	53.83
606.43	128.73
606.58	84.26
606.74	49.15
606.89	81.92
607.05	79.58
607.20	138.09
607.36	74.90
607.51	98.30
607.67	145.11
607.82	79.58
607.98	0.00
608.13	86.60
608.29	49.15
608.44	23.41
608.60	32.77
608.75	35.11
608.91	51.49
609.06	46.81
609.22	35.11
609.37	86.60
609.53	110.01
609.68	28.09
609.84	77.24
609.99	114.69
610.15	119.37
610.30	107.66
610.46	88.94
610.61	30.43
610.76	65.54
610.92	88.94
611.07	81.92
611.23	39.79
611.38	42.13
611.54	0.00
611.69	126.39
611.84	70.22
612.00	32.77
612.15	32.77
612.31	156.82
612.46	28.09
612.62	98.30
612.77	11.70
612.92	7.02
613.08	70.22
613.23	60.85
613.39	72.56
613.54	49.15
613.69	121.71
613.85	91.28
614.00	30.43
614.15	32.77
614.31	46.81
614.46	39.79
614.62	32.77
614.77	65.54
614.92	46.81
615.08	35.11
615.23	67.88
615.38	56.17
615.54	35.11
615.69	53.83
615.84	86.60
616.00	110.01
616.15	56.17
616.30	32.77
616.46	39.79
616.61	46.81
616.76	72.56
616.92	60.85
617.07	84.26
617.22	21.06
617.37	60.85
617.53	63.19
617.68	14.04
617.83	18.72
617.99	121.71
618.14	56.17
618.29	72.56
618.45	121.71
618.60	46.81
618.75	67.88
618.90	93.62
619.06	56.17
619.21	42.13
619.36	25.75
619.51	44.47
619.67	56.17
619.82	124.05
619.97	51.49
620.12	56.17
620.28	37.45
620.43	56.17
620.58	32.77
620.73	93.62
620.89	114.69
621.04	93.62
621.19	25.75
621.34	0.00
621.49	77.24
621.65	98.30
621.80	105.32
621.95	95.96
622.10	14.04
622.25	0.00
622.41	51.49
622.56	74.90
622.71	60.85
622.86	16.38
623.01	86.60
623.16	56.17
623.32	107.66
623.47	0.00
623.62	35.11
623.77	67.88
623.92	4.68
624.07	88.94
624.23	30.43
624.38	39.79
624.53	126.39
624.68	102.98
624.83	56.17
624.98	128.73
625.13	93.62
625.29	88.94
625.44	72.56
625.59	0.00
625.74	0.00
625.89	98.30
626.04	37.45
626.19	91.28
626.34	100.64
626.49	74.90
626.65	119.37
626.80	86.60
626.95	72.56
627.10	53.83
627.25	93.62
627.40	0.00
627.55	0.00
627.70	30.43
627.85	138.09
628.00	32.77
628.15	21.06
628.30	72.56
628.45	0.00
628.60	56.17
628.76	74.90
628.91	0.00
629.06	121.71
629.21	23.41
629.36	21.06
629.51	23.41
629.66	9.36
629.81	142.77
629.96	0.00
630.11	95.96
630.26	30.43
630.41	4.68
630.56	42.13
630.71	46.81
630.86	25.75
631.01	81.92
631.16	16.38
631.31	65.54
631.46	74.90
631.61	25.75
631.76	86.60
631.91	65.54
632.06	70.22
632.21	39.79
632.36	30.43
632.51	77.24
632.66	65.54
632.81	35.11
632.96	0.00
633.10	7.02
633.25	18.72
633.40	46.81
633.55	46.81
633.70	135.75
633.85	114.69
634.00	102.98
634.15	0.00
634.30	72.56
634.45	28.09
634.60	63.19
634.75	23.41
634.90	100.64
635.05	114.69
635.19	95.96
635.34	79.58
635.49	44.47
635.64	65.54
635.79	93.62
635.94	11.70
636.09	95.96
636.24	0.00
636.39	32.77
636.53	102.98
636.68	79.58
636.83	121.71
636.98	107.66
637.13	23.41
637.28	88.94
637.43	81.92
637.57	37.45
637.72	147.45
637.87	91.28
638.02	67.88
638.17	86.60
638.32	107.66
638.46	37.45
638.61	63.19
638.76	124.05
638.91	51.49
639.06	23.41
639.20	0.00
639.35	86.60
639.50	95.96
639.65	16.38
639.80	11.70
639.94	2.34
640.09	56.17
640.24	58.51
640.39	95.96
640.54	98.30
640.68	37.45
640.83	81.92
640.98	74.90
641.13	9.36
641.27	0.00
641.42	0.00
641.57	23.41
641.72	72.56
641.86	49.15
642.01	32.77
642.16	81.92
642.31	32.77
642.45	117.03
642.60	46.81
642.75	93.62
642.90	65.54
643.04	86.60
643.19	84.26
643.34	110.01
643.48	42.13
643.63	72.56
643.78	2.34
643.93	105.32
644.07	39.79
644.22	51.49
644.37	84.26
644.51	91.28
644.66	110.01
644.81	88.94
644.95	81.92
645.10	110.01
645.25	79.58
645.39	81.92
645.54	53.83
645.69	77.24
645.83	79.58
645.98	56.17
646.13	28.09
646.27	98.30
646.42	74.90
646.57	126.39
646.71	39.79
646.86	112.35
647.00	58.51
647.15	70.22
647.30	63.19
647.44	63.19
647.59	0.00
647.74	4.68
647.88	23.41
648.03	49.15
648.17	65.54
648.32	18.72
648.47	65.54
648.61	46.81
648.76	58.51
648.90	49.15
649.05	58.51
649.20	46.81
649.34	11.70
649.49	51.49
649.63	0.00
649.78	102.98
649.92	74.90
650.07	65.54
650.21	30.43
650.36	65.54
650.51	63.19
650.65	23.41
650.80	95.96
650.94	86.60
651.09	72.56
651.23	39.79
651.38	14.04
651.52	39.79
651.67	23.41
651.81	35.11
651.96	58.51
652.10	79.58
652.25	42.13
652.39	37.45
652.54	7.02
652.68	35.11
652.83	49.15
652.97	46.81
653.12	91.28
653.26	72.56
653.41	58.51
653.55	49.15
653.70	14.04
653.84	7.02
653.99	152.13
654.13	70.22
654.27	86.60
654.42	0.00
654.56	0.00
654.71	39.79
654.85	51.49
655.00	60.85
655.14	84.26
655.29	0.00
655.43	21.06
655.57	46.81
655.72	11.70
655.86	42.13
656.01	39.79
656.15	67.88
656.30	72.56
656.44	51.49
656.58	37.45
656.73	37.45
656.87	56.17
657.01	49.15
657.16	107.66
657.30	84.26
657.45	14.04
657.59	14.04
657.73	124.05
657.88	65.54
658.02	56.17
658.16	44.47
658.31	98.30
658.45	11.70
658.60	28.09
658.74	9.36
658.88	79.58
659.03	77.24
659.17	58.51
659.31	42.13
659.46	51.49
659.60	117.03
659.74	49.15
659.89	42.13
660.03	105.32
660.17	149.79
660.32	39.79
660.46	60.85
660.60	65.54
660.74	81.92
660.89	121.71
661.03	23.41
661.17	42.13
661.32	74.90
661.46	60.85
661.60	49.15
661.74	77.24
661.89	37.45
662.03	93.62
662.17	91.28
662.31	39.79
662.46	72.56
662.60	39.79
662.74	23.41
662.88	100.64
663.03	84.26
663.17	72.56
663.31	74.90
663.45	65.54
663.60	100.64
663.74	63.19
663.88	35.11
664.02	14.04
664.17	23.41
664.31	102.98
664.45	79.58
664.59	23.41
664.73	60.85
664.88	44.47
665.02	23.41
665.16	16.38
665.30	0.00
665.44	102.98
665.59	60.85
665.73	49.15
665.87	7.02
666.01	65.54
666.15	93.62
666.29	0.00
666.44	44.47
666.58	18.72
666.72	23.41
666.86	79.58
667.00	60.85
667.14	4.68
667.28	30.43
667.43	86.60
667.57	32.77
667.71	44.47
667.85	44.47
667.99	77.24
668.13	42.13
668.27	0.00
668.41	65.54
668.56	46.81
668.70	70.22
668.84	72.56
668.98	86.60
669.12	91.28
669.26	65.54
669.40	60.85
669.54	0.00
669.68	110.01
669.82	60.85
669.96	39.79
670.10	53.83
670.25	32.77
670.39	88.94
670.53	49.15
670.67	53.83
670.81	107.66
670.95	37.45
671.09	16.38
671.23	79.58
671.37	65.54
671.51	65.54
671.65	35.11
671.79	32.77
671.93	25.75
672.07	79.58
672.21	46.81
672.35	37.45
672.49	44.47
672.63	72.56
672.77	58.51
672.91	88.94
673.05	23.41
673.19	74.90
673.33	25.75
673.47	100.64
673.61	56.17
673.75	23.41
673.89	65.54
674.03	70.22
674.17	42.13
674.31	70.22
674.45	23.41
674.59	98.30
674.73	35.11
674.87	35.11
675.01	58.51
675.15	56.17
675.29	0.00
675.43	56.17
675.56	60.85
675.70	42.13
675.84	93.62
675.98	0.00
676.12	102.98
676.26	9.36
676.40	53.83
676.54	7.02
676.68	44.47
676.82	53.83
676.96	28.09
677.10	58.51
677.23	86.60
677.37	0.00
677.51	51.49
677.65	93.62
677.79	42.13
677.93	4.68
678.07	56.17
678.21	63.19
678.34	65.54
678.48	23.41
678.62	51.49
678.76	42.13
678.90	51.49
679.04	46.81
679.18	110.01
679.31	74.90
679.45	138.09
679.59	98.30
679.73	7.02
679.87	30.43
680.00	0.00
680.14	70.22
680.28	18.72
680.42	28.09
680.56	84.26
680.70	84.26
680.83	21.06
680.97	100.64
681.11	114.69
681.25	18.72
681.39	42.13
681.52	23.41
681.66	53.83
681.80	30.43
681.94	70.22
682.07	0.00
682.21	37.45
682.35	30.43
682.49	67.88
682.62	63.19
682.76	0.00
682.90	21.06
683.04	70.22
683.17	60.85
683.31	30.43
683.45	65.54
683.59	67.88
683.72	2.34
683.86	4.68
684.00	44.47
684.13	0.00
684.27	42.13
684.41	65.54
684.55	72.56
684.68	84.26
684.82	4.68
684.96	0.00
685.09	56.17
685.23	67.88
685.37	72.56
685.50	23.41
685.64	93.62
685.78	58.51
685.91	21.06
686.05	0.00
686.19	98.30
686.32	67.88
686.46	0.00
686.60	102.98
686.73	91.28
686.87	51.49
687.01	42.13
687.14	51.49
687.28	60.85
687.42	72.56
687.55	0.00
687.69	37.45
687.82	9.36
687.96	67.88
688.10	11.70
688.23	72.56
688.37	88.94
688.50	60.85
688.64	91.28
688.78	42.13
688.91	35.11
689.05	56.17
689.18	133.41
689.32	65.54
689.46	88.94
689.59	0.00
689.73	11.70
689.86	56.17
690.00	67.88
690.13	25.75
690.27	37.45
690.41	37.45
690.54	79.58
690.68	49.15
690.81	28.09
690.95	0.00
691.08	58.51
691.22	42.13
691.35	51.49
691.49	74.90
691.62	21.06
691.76	2.34
691.89	79.58
692.03	58.51
692.16	37.45
692.30	2.34
692.43	0.00
692.57	60.85
692.70	0.00
692.84	30.43
692.97	14.04
693.11	51.49
693.24	0.00
693.38	42.13
693.51	0.00
693.65	0.00
693.78	4.68
693.92	28.09
694.05	21.06
694.19	49.15
694.32	18.72
694.45	49.15
694.59	81.92
694.72	0.00
694.86	14.04
694.99	0.00
695.13	70.22
695.26	23.41
695.39	37.45
695.53	60.85
695.66	30.43
695.80	46.81
695.93	18.72
696.07	18.72
696.20	35.11
696.33	32.77
696.47	105.32
696.60	0.00
696.73	4.68
696.87	67.88
697.00	112.35
697.14	18.72
697.27	4.68
697.40	86.60
697.54	88.94
697.67	28.09
697.80	56.17
697.94	53.83
698.07	119.37
698.21	135.75
698.34	84.26
698.47	42.13
698.61	74.90
698.74	86.60
698.87	9.36
699.01	56.17
699.14	79.58
699.27	65.54
699.40	56.17
699.54	16.38
699.67	7.02
699.80	14.04
699.94	30.43
700.07	93.62
700.20	25.75
700.34	67.88
700.47	39.79
700.60	0.00
700.73	39.79
700.87	32.77
701.00	23.41
701.13	39.79
701.26	39.79
701.40	74.90
701.53	65.54
701.66	32.77
701.79	0.00
701.93	60.85
702.06	28.09
702.19	37.45
702.32	74.90
702.46	18.72
702.59	53.83
702.72	67.88
702.85	77.24
702.99	0.00
703.12	65.54
703.25	60.85
703.38	11.70
703.51	14.04
703.65	51.49
703.78	16.38
703.91	100.64
704.04	65.54
704.17	49.15
704.31	86.60
704.44	91.28
704.57	39.79
704.70	42.13
704.83	18.72
704.96	67.88
705.10	16.38
705.23	30.43
>>>>>End Processed Spectral Data<<<<<
