SpectraSuite Data File
++++++++++++++++++++++++++++++++++++
Date: Fri Oct 04 12:13:28 GMT-05:00 2013
User: price-jones
Dark Spectrum Present: No
Reference Spectrum Present: No
Number of Sampled Component Spectra: 1
Spectrometers: USB2+H05261
Integration Time (usec): 10000 (USB2+H05261)
Spectra Averaged: 1 (USB2+H05261)
Boxcar Smoothing: 0 (USB2+H05261)
Correct for Electrical Dark: No (USB2+H05261)
Strobe/Lamp Enabled: No (USB2+H05261)
Correct for Detector Non-linearity: No (USB2+H05261)
Correct for Stray Light: No (USB2+H05261)
Number of Pixels in Processed Spectrum: 2048
>>>>>Begin Processed Spectral Data<<<<<
365.73	0.00
365.92	0.00
366.12	0.00
366.32	0.00
366.52	0.00
366.72	0.00
366.91	0.00
367.11	0.00
367.31	0.00
367.51	0.00
367.70	0.00
367.90	0.00
368.10	0.00
368.30	0.00
368.49	0.00
368.69	0.00
368.89	0.00
369.09	0.00
369.28	0.00
369.48	0.00
369.68	0.00
369.87	0.00
370.07	0.00
370.27	0.00
370.47	0.00
370.66	0.00
370.86	0.00
371.06	0.00
371.25	0.00
371.45	11.70
371.65	58.51
371.84	0.00
372.04	0.00
372.24	0.00
372.44	35.11
372.63	0.00
372.83	0.00
373.03	39.79
373.22	91.28
373.42	0.00
373.62	16.38
373.81	21.06
374.01	44.47
374.21	21.06
374.40	138.09
374.60	0.00
374.79	53.83
374.99	93.62
375.19	72.56
375.38	58.51
375.58	21.06
375.78	102.98
375.97	0.00
376.17	98.30
376.37	0.00
376.56	23.41
376.76	46.81
376.95	0.00
377.15	53.83
377.35	4.68
377.54	0.00
377.74	32.77
377.93	0.00
378.13	4.68
378.33	42.13
378.52	14.04
378.72	49.15
378.91	23.41
379.11	70.22
379.31	79.58
379.50	16.38
379.70	63.19
379.89	0.00
380.09	18.72
380.28	51.49
380.48	16.38
380.68	0.00
380.87	7.02
381.07	4.68
381.26	16.38
381.46	25.75
381.65	117.03
381.85	0.00
382.04	23.41
382.24	23.41
382.43	16.38
382.63	51.49
382.83	16.38
383.02	0.00
383.22	0.00
383.41	28.09
383.61	72.56
383.80	42.13
384.00	23.41
384.19	0.00
384.39	0.00
384.58	28.09
384.78	14.04
384.97	35.11
385.17	53.83
385.36	28.09
385.56	11.70
385.75	0.00
385.95	70.22
386.14	49.15
386.34	25.75
386.53	7.02
386.72	0.00
386.92	14.04
387.11	0.00
387.31	0.00
387.50	0.00
387.70	79.58
387.89	42.13
388.09	0.00
388.28	9.36
388.48	72.56
388.67	23.41
388.86	7.02
389.06	35.11
389.25	35.11
389.45	91.28
389.64	32.77
389.84	42.13
390.03	63.19
390.22	11.70
390.42	0.00
390.61	60.85
390.81	35.11
391.00	49.15
391.19	30.43
391.39	0.00
391.58	23.41
391.78	32.77
391.97	30.43
392.16	14.04
392.36	0.00
392.55	11.70
392.75	0.00
392.94	46.81
393.13	0.00
393.33	0.00
393.52	0.00
393.71	0.00
393.91	32.77
394.10	16.38
394.29	51.49
394.49	42.13
394.68	84.26
394.88	9.36
395.07	0.00
395.26	0.00
395.46	0.00
395.65	42.13
395.84	0.00
396.04	46.81
396.23	67.88
396.42	4.68
396.62	0.00
396.81	23.41
397.00	11.70
397.19	30.43
397.39	0.00
397.58	51.49
397.77	42.13
397.97	51.49
398.16	58.51
398.35	53.83
398.55	0.00
398.74	18.72
398.93	0.00
399.12	0.00
399.32	11.70
399.51	11.70
399.70	100.64
399.90	11.70
400.09	32.77
400.28	53.83
400.47	32.77
400.67	0.00
400.86	56.17
401.05	46.81
401.24	0.00
401.44	35.11
401.63	56.17
401.82	0.00
402.01	11.70
402.21	49.15
402.40	46.81
402.59	14.04
402.78	0.00
402.97	0.00
403.17	0.00
403.36	53.83
403.55	0.00
403.74	70.22
403.93	65.54
404.13	81.92
404.32	49.15
404.51	28.09
404.70	25.75
404.89	25.75
405.09	0.00
405.28	0.00
405.47	23.41
405.66	51.49
405.85	14.04
406.05	86.60
406.24	0.00
406.43	63.19
406.62	30.43
406.81	30.43
407.00	46.81
407.20	30.43
407.39	0.00
407.58	18.72
407.77	0.00
407.96	70.22
408.15	74.90
408.34	100.64
408.54	0.00
408.73	0.00
408.92	0.00
409.11	67.88
409.30	0.00
409.49	56.17
409.68	7.02
409.87	0.00
410.07	0.00
410.26	0.00
410.45	0.00
410.64	0.00
410.83	72.56
411.02	32.77
411.21	0.00
411.40	65.54
411.59	84.26
411.78	7.02
411.98	0.00
412.17	56.17
412.36	95.96
412.55	0.00
412.74	0.00
412.93	32.77
413.12	0.00
413.31	32.77
413.50	0.00
413.69	30.43
413.88	0.00
414.07	32.77
414.26	65.54
414.45	0.00
414.64	0.00
414.83	60.85
415.02	37.45
415.22	0.00
415.41	4.68
415.60	0.00
415.79	74.90
415.98	0.00
416.17	21.06
416.36	42.13
416.55	79.58
416.74	121.71
416.93	0.00
417.12	30.43
417.31	0.00
417.50	9.36
417.69	23.41
417.88	39.79
418.07	58.51
418.26	0.00
418.45	0.00
418.64	2.34
418.83	7.02
419.02	102.98
419.21	37.45
419.39	53.83
419.58	4.68
419.77	35.11
419.96	56.17
420.15	25.75
420.34	74.90
420.53	37.45
420.72	28.09
420.91	42.13
421.10	67.88
421.29	46.81
421.48	0.00
421.67	56.17
421.86	21.06
422.05	0.00
422.24	0.00
422.43	39.79
422.61	0.00
422.80	42.13
422.99	0.00
423.18	65.54
423.37	16.38
423.56	23.41
423.75	30.43
423.94	44.47
424.13	35.11
424.32	18.72
424.50	28.09
424.69	0.00
424.88	72.56
425.07	51.49
425.26	88.94
425.45	44.47
425.64	79.58
425.83	23.41
426.01	32.77
426.20	0.00
426.39	37.45
426.58	32.77
426.77	65.54
426.96	51.49
427.15	4.68
427.33	60.85
427.52	0.00
427.71	11.70
427.90	4.68
428.09	21.06
428.28	77.24
428.46	74.90
428.65	42.13
428.84	72.56
429.03	117.03
429.22	56.17
429.40	4.68
429.59	4.68
429.78	7.02
429.97	28.09
430.16	0.00
430.34	0.00
430.53	0.00
430.72	21.06
430.91	4.68
431.10	7.02
431.28	74.90
431.47	74.90
431.66	65.54
431.85	23.41
432.03	35.11
432.22	37.45
432.41	9.36
432.60	9.36
432.79	7.02
432.97	58.51
433.16	128.73
433.35	0.00
433.54	53.83
433.72	0.00
433.91	14.04
434.10	79.58
434.28	14.04
434.47	0.00
434.66	25.75
434.85	44.47
435.03	70.22
435.22	77.24
435.41	74.90
435.59	56.17
435.78	49.15
435.97	28.09
436.16	0.00
436.34	93.62
436.53	91.28
436.72	16.38
436.90	46.81
437.09	42.13
437.28	0.00
437.46	74.90
437.65	39.79
437.84	88.94
438.02	2.34
438.21	0.00
438.40	11.70
438.58	32.77
438.77	30.43
438.96	0.00
439.14	46.81
439.33	67.88
439.52	28.09
439.70	7.02
439.89	77.24
440.08	0.00
440.26	30.43
440.45	44.47
440.63	28.09
440.82	140.43
441.01	23.41
441.19	46.81
441.38	11.70
441.57	11.70
441.75	74.90
441.94	39.79
442.12	49.15
442.31	0.00
442.50	46.81
442.68	9.36
442.87	0.00
443.05	11.70
443.24	112.35
443.43	105.32
443.61	9.36
443.80	39.79
443.98	51.49
444.17	58.51
444.35	60.85
444.54	56.17
444.73	0.00
444.91	2.34
445.10	37.45
445.28	0.00
445.47	23.41
445.65	0.00
445.84	63.19
446.02	11.70
446.21	0.00
446.39	102.98
446.58	58.51
446.77	35.11
446.95	56.17
447.14	53.83
447.32	67.88
447.51	102.98
447.69	25.75
447.88	21.06
448.06	37.45
448.25	79.58
448.43	0.00
448.62	126.39
448.80	0.00
448.99	95.96
449.17	72.56
449.36	93.62
449.54	63.19
449.73	93.62
449.91	110.01
450.10	0.00
450.28	65.54
450.46	56.17
450.65	4.68
450.83	67.88
451.02	16.38
451.20	0.00
451.39	9.36
451.57	84.26
451.76	91.28
451.94	44.47
452.13	39.79
452.31	0.00
452.49	72.56
452.68	72.56
452.86	0.00
453.05	21.06
453.23	11.70
453.42	77.24
453.60	0.00
453.78	0.00
453.97	32.77
454.15	44.47
454.34	32.77
454.52	42.13
454.70	84.26
454.89	51.49
455.07	7.02
455.26	56.17
455.44	121.71
455.62	56.17
455.81	74.90
455.99	0.00
456.17	49.15
456.36	65.54
456.54	18.72
456.73	11.70
456.91	46.81
457.09	56.17
457.28	56.17
457.46	4.68
457.64	2.34
457.83	56.17
458.01	0.00
458.19	30.43
458.38	0.00
458.56	4.68
458.74	56.17
458.93	154.48
459.11	51.49
459.29	58.51
459.48	28.09
459.66	51.49
459.84	102.98
460.03	9.36
460.21	21.06
460.39	51.49
460.57	86.60
460.76	0.00
460.94	51.49
461.12	60.85
461.31	25.75
461.49	51.49
461.67	49.15
461.85	21.06
462.04	53.83
462.22	0.00
462.40	60.85
462.59	0.00
462.77	39.79
462.95	18.72
463.13	0.00
463.32	11.70
463.50	2.34
463.68	30.43
463.86	77.24
464.05	65.54
464.23	2.34
464.41	84.26
464.59	60.85
464.78	0.00
464.96	21.06
465.14	0.00
465.32	14.04
465.50	0.00
465.69	65.54
465.87	77.24
466.05	18.72
466.23	0.00
466.41	0.00
466.60	49.15
466.78	14.04
466.96	23.41
467.14	23.41
467.32	63.19
467.51	63.19
467.69	72.56
467.87	0.00
468.05	42.13
468.23	60.85
468.41	0.00
468.60	25.75
468.78	0.00
468.96	91.28
469.14	46.81
469.32	79.58
469.50	18.72
469.69	0.00
469.87	0.00
470.05	0.00
470.23	4.68
470.41	11.70
470.59	7.02
470.77	23.41
470.95	0.00
471.14	58.51
471.32	9.36
471.50	37.45
471.68	0.00
471.86	30.43
472.04	51.49
472.22	11.70
472.40	4.68
472.58	32.77
472.77	46.81
472.95	114.69
473.13	49.15
473.31	65.54
473.49	42.13
473.67	21.06
473.85	79.58
474.03	11.70
474.21	67.88
474.39	58.51
474.57	100.64
474.75	18.72
474.93	30.43
475.12	56.17
475.30	42.13
475.48	74.90
475.66	7.02
475.84	30.43
476.02	28.09
476.20	14.04
476.38	18.72
476.56	25.75
476.74	79.58
476.92	0.00
477.10	79.58
477.28	58.51
477.46	42.13
477.64	53.83
477.82	0.00
478.00	39.79
478.18	21.06
478.36	65.54
478.54	102.98
478.72	65.54
478.90	9.36
479.08	81.92
479.26	72.56
479.44	0.00
479.62	32.77
479.80	88.94
479.98	53.83
480.16	28.09
480.34	74.90
480.52	37.45
480.70	0.00
480.88	7.02
481.06	51.49
481.24	0.00
481.41	0.00
481.59	4.68
481.77	11.70
481.95	58.51
482.13	81.92
482.31	56.17
482.49	42.13
482.67	56.17
482.85	98.30
483.03	46.81
483.21	70.22
483.39	42.13
483.57	84.26
483.74	133.41
483.92	84.26
484.10	0.00
484.28	37.45
484.46	0.00
484.64	56.17
484.82	23.41
485.00	23.41
485.18	35.11
485.35	84.26
485.53	39.79
485.71	25.75
485.89	23.41
486.07	46.81
486.25	74.90
486.43	70.22
486.61	42.13
486.78	65.54
486.96	7.02
487.14	32.77
487.32	88.94
487.50	0.00
487.68	46.81
487.85	11.70
488.03	58.51
488.21	37.45
488.39	30.43
488.57	51.49
488.75	0.00
488.92	88.94
489.10	0.00
489.28	14.04
489.46	0.00
489.64	0.00
489.81	77.24
489.99	100.64
490.17	14.04
490.35	51.49
490.53	46.81
490.70	25.75
490.88	46.81
491.06	0.00
491.24	9.36
491.41	56.17
491.59	28.09
491.77	79.58
491.95	51.49
492.13	28.09
492.30	65.54
492.48	56.17
492.66	30.43
492.84	79.58
493.01	63.19
493.19	23.41
493.37	39.79
493.54	49.15
493.72	0.00
493.90	0.00
494.08	28.09
494.25	14.04
494.43	18.72
494.61	25.75
494.79	63.19
494.96	0.00
495.14	63.19
495.32	39.79
495.49	0.00
495.67	0.00
495.85	114.69
496.02	0.00
496.20	74.90
496.38	84.26
496.55	51.49
496.73	16.38
496.91	126.39
497.09	37.45
497.26	0.00
497.44	4.68
497.62	42.13
497.79	39.79
497.97	63.19
498.14	7.02
498.32	42.13
498.50	0.00
498.67	0.00
498.85	67.88
499.03	32.77
499.20	56.17
499.38	42.13
499.56	18.72
499.73	105.32
499.91	0.00
500.08	18.72
500.26	37.45
500.44	11.70
500.61	35.11
500.79	42.13
500.97	11.70
501.14	72.56
501.32	63.19
501.49	46.81
501.67	70.22
501.84	0.00
502.02	42.13
502.20	84.26
502.37	0.00
502.55	42.13
502.72	16.38
502.90	63.19
503.07	21.06
503.25	0.00
503.43	81.92
503.60	77.24
503.78	107.66
503.95	60.85
504.13	21.06
504.30	0.00
504.48	28.09
504.65	16.38
504.83	58.51
505.01	60.85
505.18	46.81
505.36	18.72
505.53	16.38
505.71	35.11
505.88	0.00
506.06	51.49
506.23	131.07
506.41	18.72
506.58	11.70
506.76	9.36
506.93	53.83
507.11	25.75
507.28	23.41
507.46	93.62
507.63	58.51
507.81	0.00
507.98	25.75
508.16	28.09
508.33	32.77
508.50	37.45
508.68	46.81
508.85	46.81
509.03	100.64
509.20	25.75
509.38	51.49
509.55	74.90
509.73	9.36
509.90	23.41
510.08	4.68
510.25	46.81
510.42	28.09
510.60	53.83
510.77	98.30
510.95	91.28
511.12	0.00
511.30	84.26
511.47	9.36
511.64	35.11
511.82	28.09
511.99	11.70
512.17	0.00
512.34	107.66
512.51	86.60
512.69	67.88
512.86	28.09
513.04	58.51
513.21	0.00
513.38	18.72
513.56	9.36
513.73	23.41
513.90	65.54
514.08	0.00
514.25	32.77
514.43	77.24
514.60	65.54
514.77	67.88
514.95	63.19
515.12	79.58
515.29	114.69
515.47	70.22
515.64	86.60
515.81	56.17
515.99	72.56
516.16	4.68
516.33	58.51
516.51	25.75
516.68	14.04
516.85	0.00
517.03	25.75
517.20	28.09
517.37	35.11
517.54	18.72
517.72	42.13
517.89	91.28
518.06	0.00
518.24	42.13
518.41	30.43
518.58	65.54
518.75	67.88
518.93	114.69
519.10	70.22
519.27	11.70
519.45	74.90
519.62	14.04
519.79	0.00
519.96	65.54
520.14	56.17
520.31	28.09
520.48	79.58
520.65	46.81
520.83	81.92
521.00	11.70
521.17	0.00
521.34	63.19
521.52	30.43
521.69	72.56
521.86	0.00
522.03	23.41
522.20	42.13
522.38	21.06
522.55	74.90
522.72	81.92
522.89	46.81
523.07	32.77
523.24	0.00
523.41	93.62
523.58	0.00
523.75	0.00
523.92	95.96
524.10	53.83
524.27	98.30
524.44	4.68
524.61	70.22
524.78	44.47
524.96	21.06
525.13	74.90
525.30	42.13
525.47	0.00
525.64	98.30
525.81	77.24
525.98	0.00
526.16	37.45
526.33	86.60
526.50	93.62
526.67	56.17
526.84	16.38
527.01	93.62
527.18	28.09
527.36	58.51
527.53	0.00
527.70	77.24
527.87	18.72
528.04	30.43
528.21	53.83
528.38	74.90
528.55	53.83
528.72	56.17
528.89	56.17
529.07	70.22
529.24	98.30
529.41	77.24
529.58	14.04
529.75	107.66
529.92	16.38
530.09	39.79
530.26	51.49
530.43	0.00
530.60	39.79
530.77	58.51
530.94	35.11
531.11	7.02
531.28	35.11
531.46	65.54
531.63	58.51
531.80	0.00
531.97	53.83
532.14	46.81
532.31	74.90
532.48	58.51
532.65	65.54
532.82	39.79
532.99	42.13
533.16	79.58
533.33	30.43
533.50	86.60
533.67	95.96
533.84	9.36
534.01	105.32
534.18	28.09
534.35	107.66
534.52	37.45
534.69	74.90
534.86	11.70
535.03	74.90
535.20	56.17
535.37	0.00
535.54	0.00
535.71	28.09
535.88	53.83
536.05	28.09
536.22	56.17
536.38	49.15
536.55	84.26
536.72	65.54
536.89	42.13
537.06	51.49
537.23	117.03
537.40	110.01
537.57	11.70
537.74	79.58
537.91	0.00
538.08	70.22
538.25	102.98
538.42	0.00
538.59	91.28
538.75	107.66
538.92	39.79
539.09	49.15
539.26	88.94
539.43	79.58
539.60	149.79
539.77	105.32
539.94	222.35
540.11	138.09
540.28	105.32
540.44	126.39
540.61	93.62
540.78	74.90
540.95	0.00
541.12	42.13
541.29	44.47
541.46	91.28
541.62	84.26
541.79	117.03
541.96	32.77
542.13	51.49
542.30	0.00
542.47	51.49
542.63	70.22
542.80	4.68
542.97	30.43
543.14	49.15
543.31	30.43
543.48	53.83
543.64	0.00
543.81	72.56
543.98	0.00
544.15	21.06
544.32	79.58
544.48	53.83
544.65	88.94
544.82	60.85
544.99	46.81
545.16	102.98
545.32	0.00
545.49	30.43
545.66	56.17
545.83	21.06
546.00	18.72
546.16	58.51
546.33	18.72
546.50	56.17
546.67	0.00
546.83	0.00
547.00	25.75
547.17	124.05
547.34	16.38
547.50	0.00
547.67	53.83
547.84	67.88
548.00	105.32
548.17	9.36
548.34	4.68
548.51	9.36
548.67	28.09
548.84	4.68
549.01	67.88
549.18	46.81
549.34	51.49
549.51	63.19
549.68	74.90
549.84	16.38
550.01	46.81
550.18	51.49
550.34	60.85
550.51	35.11
550.68	21.06
550.84	88.94
551.01	18.72
551.18	0.00
551.34	74.90
551.51	0.00
551.68	18.72
551.84	0.00
552.01	0.00
552.18	44.47
552.34	74.90
552.51	14.04
552.68	88.94
552.84	30.43
553.01	42.13
553.18	102.98
553.34	70.22
553.51	16.38
553.67	44.47
553.84	0.00
554.01	70.22
554.17	88.94
554.34	16.38
554.51	77.24
554.67	70.22
554.84	56.17
555.00	0.00
555.17	65.54
555.33	44.47
555.50	49.15
555.67	51.49
555.83	58.51
556.00	53.83
556.16	79.58
556.33	112.35
556.50	98.30
556.66	25.75
556.83	37.45
556.99	63.19
557.16	81.92
557.32	53.83
557.49	74.90
557.65	79.58
557.82	102.98
557.98	7.02
558.15	30.43
558.32	46.81
558.48	39.79
558.65	39.79
558.81	2.34
558.98	81.92
559.14	46.81
559.31	56.17
559.47	39.79
559.64	42.13
559.80	65.54
559.97	53.83
560.13	46.81
560.30	32.77
560.46	56.17
560.63	28.09
560.79	0.00
560.96	0.00
561.12	37.45
561.29	35.11
561.45	86.60
561.61	88.94
561.78	51.49
561.94	46.81
562.11	37.45
562.27	49.15
562.44	44.47
562.60	30.43
562.77	63.19
562.93	60.85
563.10	37.45
563.26	77.24
563.42	126.39
563.59	74.90
563.75	9.36
563.92	51.49
564.08	4.68
564.24	0.00
564.41	88.94
564.57	42.13
564.74	9.36
564.90	30.43
565.07	93.62
565.23	67.88
565.39	18.72
565.56	95.96
565.72	14.04
565.88	35.11
566.05	79.58
566.21	0.00
566.38	0.00
566.54	39.79
566.70	58.51
566.87	0.00
567.03	25.75
567.19	53.83
567.36	0.00
567.52	0.00
567.68	0.00
567.85	0.00
568.01	88.94
568.17	0.00
568.34	84.26
568.50	23.41
568.66	46.81
568.83	72.56
568.99	65.54
569.15	14.04
569.32	0.00
569.48	16.38
569.64	86.60
569.81	98.30
569.97	53.83
570.13	14.04
570.30	35.11
570.46	16.38
570.62	11.70
570.78	53.83
570.95	70.22
571.11	30.43
571.27	42.13
571.43	63.19
571.60	0.00
571.76	91.28
571.92	0.00
572.09	0.00
572.25	0.00
572.41	58.51
572.57	16.38
572.74	77.24
572.90	0.00
573.06	9.36
573.22	21.06
573.38	14.04
573.55	74.90
573.71	37.45
573.87	23.41
574.03	28.09
574.20	23.41
574.36	133.41
574.52	56.17
574.68	42.13
574.84	77.24
575.01	35.11
575.17	51.49
575.33	63.19
575.49	44.47
575.65	42.13
575.82	107.66
575.98	51.49
576.14	95.96
576.30	72.56
576.46	100.64
576.62	42.13
576.79	42.13
576.95	72.56
577.11	74.90
577.27	16.38
577.43	49.15
577.59	35.11
577.75	0.00
577.92	49.15
578.08	65.54
578.24	4.68
578.40	0.00
578.56	23.41
578.72	46.81
578.88	60.85
579.04	42.13
579.21	44.47
579.37	46.81
579.53	39.79
579.69	67.88
579.85	11.70
580.01	2.34
580.17	0.00
580.33	25.75
580.49	25.75
580.65	30.43
580.82	84.26
580.98	79.58
581.14	23.41
581.30	0.00
581.46	49.15
581.62	128.73
581.78	124.05
581.94	53.83
582.10	53.83
582.26	44.47
582.42	49.15
582.58	53.83
582.74	81.92
582.90	98.30
583.06	35.11
583.22	74.90
583.38	65.54
583.54	138.09
583.70	63.19
583.86	98.30
584.02	189.58
584.18	119.37
584.34	56.17
584.50	428.32
584.66	2448.20
584.82	6267.95
584.98	9490.87
585.14	8507.85
585.30	5383.23
585.46	3110.57
585.62	2059.67
585.78	992.39
585.94	393.21
586.10	173.20
586.26	39.79
586.42	86.60
586.58	102.98
586.74	152.13
586.90	63.19
587.06	128.73
587.22	86.60
587.38	0.00
587.54	140.43
587.70	402.57
587.86	564.07
588.02	744.29
588.18	568.75
588.34	322.99
588.49	159.16
588.65	131.07
588.81	84.26
588.97	49.15
589.13	46.81
589.29	4.68
589.45	60.85
589.61	100.64
589.77	74.90
589.93	4.68
590.08	60.85
590.24	147.45
590.40	91.28
590.56	93.62
590.72	39.79
590.88	72.56
591.04	79.58
591.20	2.34
591.35	11.70
591.51	44.47
591.67	35.11
591.83	117.03
591.99	28.09
592.15	7.02
592.31	44.47
592.46	37.45
592.62	4.68
592.78	21.06
592.94	7.02
593.10	102.98
593.26	79.58
593.41	110.01
593.57	46.81
593.73	51.49
593.89	362.78
594.05	791.10
594.20	1198.35
594.36	1144.52
594.52	866.00
594.68	519.60
594.84	292.57
594.99	222.35
595.15	63.19
595.31	14.04
595.47	42.13
595.62	30.43
595.78	30.43
595.94	81.92
596.10	35.11
596.25	49.15
596.41	117.03
596.57	23.41
596.73	37.45
596.88	77.24
597.04	229.37
597.20	208.31
597.36	278.52
597.51	224.69
597.67	166.18
597.83	173.20
597.99	84.26
598.14	63.19
598.30	46.81
598.46	65.54
598.61	70.22
598.77	35.11
598.93	32.77
599.09	9.36
599.24	0.00
599.40	131.07
599.56	77.24
599.71	95.96
599.87	112.35
600.03	0.00
600.18	23.41
600.34	67.88
600.50	77.24
600.65	145.11
600.81	95.96
600.97	23.41
601.12	35.11
601.28	105.32
601.44	91.28
601.59	53.83
601.75	51.49
601.91	53.83
602.06	0.00
602.22	102.98
602.37	98.30
602.53	166.18
602.69	252.78
602.84	330.02
603.00	180.22
603.16	124.05
603.31	124.05
603.47	121.71
603.62	2.34
603.78	74.90
603.94	37.45
604.09	0.00
604.25	0.00
604.40	4.68
604.56	25.75
604.71	32.77
604.87	7.02
605.03	49.15
605.18	37.45
605.34	30.43
605.49	0.00
605.65	32.77
605.80	32.77
605.96	21.06
606.12	42.13
606.27	72.56
606.43	112.35
606.58	60.85
606.74	133.41
606.89	397.89
607.05	737.27
607.20	990.05
607.36	868.34
607.51	587.47
607.67	442.36
607.82	222.35
607.98	229.37
608.13	53.83
608.29	16.38
608.44	25.75
608.60	37.45
608.75	77.24
608.91	184.90
609.06	641.31
609.22	1327.08
609.37	1802.21
609.53	1561.14
609.68	1123.46
609.84	660.03
609.99	472.79
610.15	266.82
610.30	159.16
610.46	93.62
610.61	56.17
610.76	60.85
610.92	79.58
611.07	0.00
611.23	21.06
611.38	77.24
611.54	67.88
611.69	81.92
611.84	140.43
612.00	126.39
612.15	7.02
612.31	126.39
612.46	72.56
612.62	30.43
612.77	170.86
612.92	161.50
613.08	49.15
613.23	79.58
613.39	9.36
613.54	145.11
613.69	547.69
613.85	1593.90
614.00	2534.80
614.15	2810.98
614.31	2019.88
614.46	1434.75
614.62	861.32
614.77	496.19
614.92	236.39
615.08	140.43
615.23	74.90
615.38	81.92
615.54	63.19
615.69	121.71
615.84	280.86
616.00	578.11
616.15	699.82
616.30	505.56
616.46	358.10
616.61	360.44
616.76	217.67
616.92	140.43
617.07	95.96
617.22	16.38
617.37	67.88
617.53	46.81
617.68	30.43
617.83	51.49
617.99	72.56
618.14	70.22
618.29	70.22
618.45	18.72
618.60	0.00
618.75	65.54
618.90	74.90
619.06	91.28
619.21	74.90
619.36	100.64
619.51	46.81
619.67	56.17
619.82	67.88
619.97	67.88
620.12	25.75
620.28	133.41
620.43	14.04
620.58	58.51
620.73	70.22
620.89	0.00
621.04	107.66
621.19	159.16
621.34	369.80
621.49	416.62
621.65	355.76
621.80	334.70
621.95	175.54
622.10	184.90
622.25	67.88
622.41	11.70
622.56	11.70
622.71	60.85
622.86	0.00
623.01	21.06
623.16	0.00
623.32	0.00
623.47	65.54
623.62	74.90
623.77	32.77
623.92	23.41
624.07	0.00
624.23	107.66
624.38	98.30
624.53	74.90
624.68	14.04
624.83	18.72
624.98	32.77
625.13	168.52
625.29	0.00
625.44	65.54
625.59	70.22
625.74	0.00
625.89	81.92
626.04	337.04
626.19	697.48
626.34	1198.35
626.49	1427.73
626.65	1107.07
626.80	777.06
626.95	397.89
627.10	365.12
627.25	142.77
627.40	110.01
627.55	39.79
627.70	44.47
627.85	42.13
628.00	0.00
628.15	28.09
628.30	81.92
628.45	30.43
628.60	9.36
628.76	86.60
628.91	9.36
629.06	67.88
629.21	0.00
629.36	37.45
629.51	42.13
629.66	9.36
629.81	81.92
629.96	168.52
630.11	280.86
630.26	407.25
630.41	330.02
630.56	346.40
630.71	182.56
630.86	135.75
631.01	14.04
631.16	67.88
631.31	18.72
631.46	74.90
631.61	74.90
631.76	0.00
631.91	0.00
632.06	58.51
632.21	74.90
632.36	35.11
632.51	0.00
632.66	93.62
632.81	159.16
632.96	451.72
633.10	833.23
633.25	973.66
633.40	709.18
633.55	601.52
633.70	388.53
633.85	203.63
634.00	88.94
634.15	102.98
634.30	124.05
634.45	70.22
634.60	35.11
634.75	16.38
634.90	21.06
635.05	25.75
635.19	46.81
635.34	0.00
635.49	42.13
635.64	46.81
635.79	39.79
635.94	0.00
636.09	56.17
636.24	30.43
636.39	51.49
636.53	0.00
636.68	142.77
636.83	11.70
636.98	58.51
637.13	0.00
637.28	49.15
637.43	0.00
637.57	147.45
637.72	416.62
637.87	1020.47
638.02	1748.38
638.17	1781.15
638.32	1350.49
638.46	917.49
638.61	615.56
638.76	423.64
638.91	292.57
639.06	114.69
639.20	70.22
639.35	56.17
639.50	98.30
639.65	557.05
639.80	1600.93
639.94	2537.14
640.09	2869.50
640.24	2349.90
640.39	1446.45
640.54	1006.43
640.68	683.44
640.83	234.05
640.98	156.82
641.13	152.13
641.27	84.26
641.42	11.70
641.57	9.36
641.72	58.51
641.86	102.98
642.01	18.72
642.16	70.22
642.31	0.00
642.45	77.24
642.60	58.51
642.75	70.22
642.90	60.85
643.04	42.13
643.19	84.26
643.34	53.83
643.48	95.96
643.63	51.49
643.78	44.47
643.93	53.83
644.07	23.41
644.22	0.00
644.37	46.81
644.51	53.83
644.66	56.17
644.81	0.00
644.95	4.68
645.10	56.17
645.25	72.56
645.39	77.24
645.54	28.09
645.69	79.58
645.83	0.00
645.98	14.04
646.13	39.79
646.27	4.68
646.42	79.58
646.57	58.51
646.71	0.00
646.86	35.11
647.00	88.94
647.15	74.90
647.30	105.32
647.44	65.54
647.59	70.22
647.74	30.43
647.88	7.02
648.03	110.01
648.17	4.68
648.32	56.17
648.47	0.00
648.61	23.41
648.76	65.54
648.90	46.81
649.05	58.51
649.20	0.00
649.34	70.22
649.49	65.54
649.63	0.00
649.78	21.06
649.92	107.66
650.07	280.86
650.21	655.35
650.36	1163.25
650.51	1481.56
650.65	1268.57
650.80	858.98
650.94	664.71
651.09	381.51
651.23	128.73
651.38	124.05
651.52	128.73
651.67	70.22
651.81	67.88
651.96	51.49
652.10	39.79
652.25	37.45
652.39	98.30
652.54	79.58
652.68	140.43
652.83	255.12
652.97	442.36
653.12	514.92
653.26	543.00
653.41	383.85
653.55	224.69
653.70	224.69
653.84	100.64
653.99	135.75
654.13	119.37
654.27	49.15
654.42	58.51
654.56	44.47
654.71	0.00
654.85	63.19
655.00	63.19
655.14	4.68
655.29	86.60
655.43	86.60
655.57	32.77
655.72	37.45
655.86	9.36
656.01	9.36
656.15	39.79
656.30	21.06
656.44	18.72
656.58	0.00
656.73	74.90
656.87	53.83
657.01	67.88
657.16	37.45
657.30	32.77
657.45	9.36
657.59	0.00
657.73	49.15
657.88	39.79
658.02	56.17
658.16	16.38
658.31	0.00
658.45	51.49
658.60	18.72
658.74	46.81
658.88	42.13
659.03	14.04
659.17	53.83
659.31	117.03
659.46	290.23
659.60	454.06
659.74	842.59
659.89	667.05
660.03	458.74
660.17	311.29
660.32	264.48
660.46	168.52
660.60	60.85
660.74	16.38
660.89	11.70
661.03	0.00
661.17	86.60
661.32	74.90
661.46	91.28
661.60	131.07
661.74	88.94
661.89	49.15
662.03	37.45
662.17	58.51
662.31	0.00
662.46	21.06
662.60	112.35
662.74	14.04
662.88	0.00
663.03	14.04
663.17	7.02
663.31	0.00
663.45	14.04
663.60	42.13
663.74	84.26
663.88	21.06
664.02	25.75
664.17	0.00
664.31	37.45
664.45	44.47
664.59	44.47
664.73	16.38
664.88	11.70
665.02	58.51
665.16	44.47
665.30	44.47
665.44	42.13
665.59	72.56
665.73	0.00
665.87	74.90
666.01	70.22
666.15	58.51
666.29	37.45
666.44	28.09
666.58	77.24
666.72	18.72
666.86	105.32
667.00	56.17
667.14	16.38
667.28	245.76
667.43	613.22
667.57	1008.77
667.71	1401.98
667.85	1254.53
667.99	847.27
668.13	517.26
668.27	313.63
668.41	203.63
668.56	88.94
668.70	117.03
668.84	112.35
668.98	25.75
669.12	18.72
669.26	0.00
669.40	44.47
669.54	105.32
669.68	74.90
669.82	44.47
669.96	131.07
670.10	100.64
670.25	93.62
670.39	60.85
670.53	86.60
670.67	37.45
670.81	28.09
670.95	32.77
671.09	163.84
671.23	217.67
671.37	482.15
671.51	751.31
671.65	823.87
671.79	655.35
671.93	449.38
672.07	301.93
672.21	149.79
672.35	60.85
672.49	95.96
672.63	9.36
672.77	37.45
672.91	53.83
673.05	21.06
673.19	65.54
673.33	81.92
673.47	0.00
673.61	9.36
673.75	0.00
673.89	14.04
674.03	0.00
674.17	0.00
674.31	23.41
674.45	9.36
674.59	91.28
674.73	18.72
674.87	21.06
675.01	70.22
675.15	42.13
675.29	16.38
675.43	49.15
675.56	0.00
675.70	0.00
675.84	67.88
675.98	14.04
676.12	7.02
676.26	49.15
676.40	11.70
676.54	44.47
676.68	37.45
676.82	135.75
676.96	0.00
677.10	0.00
677.23	44.47
677.37	91.28
677.51	14.04
677.65	0.00
677.79	18.72
677.93	128.73
678.07	0.00
678.21	35.11
678.34	86.60
678.48	9.36
678.62	53.83
678.76	37.45
678.90	44.47
679.04	0.00
679.18	51.49
679.31	30.43
679.45	44.47
679.59	9.36
679.73	16.38
679.87	11.70
680.00	32.77
680.14	2.34
680.28	7.02
680.42	0.00
680.56	0.00
680.70	25.75
680.83	23.41
680.97	25.75
681.11	0.00
681.25	42.13
681.39	77.24
681.52	39.79
681.66	0.00
681.80	112.35
681.94	7.02
682.07	107.66
682.21	70.22
682.35	56.17
682.49	35.11
682.62	79.58
682.76	4.68
682.90	56.17
683.04	23.41
683.17	4.68
683.31	25.75
683.45	49.15
683.59	25.75
683.72	79.58
683.86	32.77
684.00	16.38
684.13	18.72
684.27	117.03
684.41	60.85
684.55	56.17
684.68	63.19
684.82	0.00
684.96	0.00
685.09	32.77
685.23	102.98
685.37	44.47
685.50	18.72
685.64	42.13
685.78	9.36
685.91	56.17
686.05	32.77
686.19	35.11
686.32	25.75
686.46	7.02
686.60	65.54
686.73	37.45
686.87	77.24
687.01	18.72
687.14	74.90
687.28	30.43
687.42	98.30
687.55	18.72
687.69	42.13
687.82	49.15
687.96	81.92
688.10	67.88
688.23	49.15
688.37	2.34
688.50	28.09
688.64	0.00
688.78	7.02
688.91	23.41
689.05	7.02
689.18	42.13
689.32	0.00
689.46	49.15
689.59	44.47
689.73	51.49
689.86	0.00
690.00	117.03
690.13	39.79
690.27	37.45
690.41	4.68
690.54	4.68
690.68	42.13
690.81	0.00
690.95	65.54
691.08	0.00
691.22	0.00
691.35	11.70
691.49	39.79
691.62	42.13
691.76	46.81
691.89	46.81
692.03	44.47
692.16	56.17
692.30	77.24
692.43	49.15
692.57	212.99
692.70	430.66
692.84	578.11
692.97	610.88
693.11	360.44
693.24	294.91
693.38	229.37
693.51	189.58
693.65	11.70
693.78	14.04
693.92	60.85
694.05	21.06
694.19	30.43
694.32	0.00
694.45	2.34
694.59	44.47
694.72	23.41
694.86	88.94
694.99	18.72
695.13	0.00
695.26	14.04
695.39	11.70
695.53	0.00
695.66	0.00
695.80	114.69
695.93	2.34
696.07	28.09
696.20	46.81
696.33	56.17
696.47	91.28
696.60	32.77
696.73	0.00
696.87	30.43
697.00	23.41
697.14	0.00
697.27	63.19
697.40	37.45
697.54	37.45
697.67	51.49
697.80	72.56
697.94	56.17
698.07	7.02
698.21	2.34
698.34	0.00
698.47	63.19
698.61	88.94
698.74	35.11
698.87	63.19
699.01	35.11
699.14	23.41
699.27	0.00
699.40	46.81
699.54	30.43
699.67	51.49
699.80	0.00
699.94	25.75
700.07	39.79
700.20	25.75
700.34	86.60
700.47	81.92
700.60	16.38
700.73	58.51
700.87	84.26
701.00	42.13
701.13	0.00
701.26	21.06
701.40	65.54
701.53	14.04
701.66	23.41
701.79	4.68
701.93	21.06
702.06	18.72
702.19	4.68
702.32	60.85
702.46	102.98
702.59	77.24
702.72	107.66
702.85	308.95
702.99	592.16
703.12	1018.13
703.25	1170.27
703.38	919.83
703.51	662.37
703.65	528.96
703.78	440.02
703.91	227.03
704.04	189.58
704.17	145.11
704.31	81.92
704.44	21.06
704.57	37.45
704.70	70.22
704.83	49.15
704.96	25.75
705.10	18.72
705.23	0.00
>>>>>End Processed Spectral Data<<<<<
