SpectraSuite Data File
++++++++++++++++++++++++++++++++++++
Date: Fri Oct 04 12:13:33 GMT-05:00 2013
User: price-jones
Dark Spectrum Present: No
Reference Spectrum Present: No
Number of Sampled Component Spectra: 1
Spectrometers: USB2+H05261
Integration Time (usec): 10000 (USB2+H05261)
Spectra Averaged: 1 (USB2+H05261)
Boxcar Smoothing: 0 (USB2+H05261)
Correct for Electrical Dark: No (USB2+H05261)
Strobe/Lamp Enabled: No (USB2+H05261)
Correct for Detector Non-linearity: No (USB2+H05261)
Correct for Stray Light: No (USB2+H05261)
Number of Pixels in Processed Spectrum: 2048
>>>>>Begin Processed Spectral Data<<<<<
365.73	0.00
365.92	0.00
366.12	0.00
366.32	0.00
366.52	0.00
366.72	0.00
366.91	0.00
367.11	0.00
367.31	0.00
367.51	0.00
367.70	0.00
367.90	0.00
368.10	0.00
368.30	0.00
368.49	0.00
368.69	0.00
368.89	0.00
369.09	0.00
369.28	0.00
369.48	0.00
369.68	0.00
369.87	0.00
370.07	0.00
370.27	0.00
370.47	0.00
370.66	0.00
370.86	0.00
371.06	0.00
371.25	25.75
371.45	25.75
371.65	49.15
371.84	0.00
372.04	7.02
372.24	23.41
372.44	0.00
372.63	60.85
372.83	51.49
373.03	74.90
373.22	0.00
373.42	0.00
373.62	63.19
373.81	9.36
374.01	49.15
374.21	21.06
374.40	25.75
374.60	42.13
374.79	53.83
374.99	14.04
375.19	46.81
375.38	28.09
375.58	32.77
375.78	67.88
375.97	63.19
376.17	77.24
376.37	100.64
376.56	14.04
376.76	86.60
376.95	21.06
377.15	100.64
377.35	16.38
377.54	11.70
377.74	84.26
377.93	32.77
378.13	16.38
378.33	0.00
378.52	60.85
378.72	56.17
378.91	28.09
379.11	0.00
379.31	0.00
379.50	4.68
379.70	112.35
379.89	51.49
380.09	0.00
380.28	0.00
380.48	30.43
380.68	0.00
380.87	39.79
381.07	25.75
381.26	0.00
381.46	0.00
381.65	35.11
381.85	18.72
382.04	0.00
382.24	21.06
382.43	39.79
382.63	39.79
382.83	30.43
383.02	81.92
383.22	21.06
383.41	0.00
383.61	16.38
383.80	28.09
384.00	11.70
384.19	0.00
384.39	0.00
384.58	44.47
384.78	35.11
384.97	0.00
385.17	37.45
385.36	7.02
385.56	56.17
385.75	0.00
385.95	56.17
386.14	0.00
386.34	0.00
386.53	0.00
386.72	0.00
386.92	0.00
387.11	14.04
387.31	0.00
387.50	11.70
387.70	0.00
387.89	56.17
388.09	30.43
388.28	23.41
388.48	14.04
388.67	0.00
388.86	0.00
389.06	0.00
389.25	0.00
389.45	0.00
389.64	0.00
389.84	0.00
390.03	63.19
390.22	67.88
390.42	7.02
390.61	49.15
390.81	63.19
391.00	14.04
391.19	65.54
391.39	0.00
391.58	0.00
391.78	18.72
391.97	79.58
392.16	35.11
392.36	30.43
392.55	0.00
392.75	65.54
392.94	0.00
393.13	93.62
393.33	88.94
393.52	32.77
393.71	0.00
393.91	0.00
394.10	0.00
394.29	7.02
394.49	25.75
394.68	25.75
394.88	0.00
395.07	2.34
395.26	72.56
395.46	35.11
395.65	0.00
395.84	51.49
396.04	88.94
396.23	25.75
396.42	32.77
396.62	0.00
396.81	0.00
397.00	32.77
397.19	37.45
397.39	0.00
397.58	23.41
397.77	9.36
397.97	25.75
398.16	30.43
398.35	0.00
398.55	72.56
398.74	28.09
398.93	39.79
399.12	0.00
399.32	84.26
399.51	0.00
399.70	16.38
399.90	0.00
400.09	46.81
400.28	42.13
400.47	46.81
400.67	0.00
400.86	25.75
401.05	18.72
401.24	32.77
401.44	86.60
401.63	30.43
401.82	79.58
402.01	86.60
402.21	0.00
402.40	0.00
402.59	32.77
402.78	0.00
402.97	14.04
403.17	0.00
403.36	0.00
403.55	9.36
403.74	56.17
403.93	46.81
404.13	0.00
404.32	39.79
404.51	0.00
404.70	65.54
404.89	42.13
405.09	0.00
405.28	81.92
405.47	37.45
405.66	93.62
405.85	0.00
406.05	0.00
406.24	18.72
406.43	32.77
406.62	88.94
406.81	7.02
407.00	21.06
407.20	25.75
407.39	32.77
407.58	16.38
407.77	93.62
407.96	2.34
408.15	67.88
408.34	0.00
408.54	7.02
408.73	16.38
408.92	44.47
409.11	67.88
409.30	0.00
409.49	67.88
409.68	0.00
409.87	37.45
410.07	60.85
410.26	65.54
410.45	0.00
410.64	7.02
410.83	9.36
411.02	0.00
411.21	67.88
411.40	0.00
411.59	37.45
411.78	35.11
411.98	4.68
412.17	0.00
412.36	56.17
412.55	42.13
412.74	0.00
412.93	16.38
413.12	42.13
413.31	37.45
413.50	49.15
413.69	58.51
413.88	9.36
414.07	28.09
414.26	18.72
414.45	0.00
414.64	23.41
414.83	9.36
415.02	67.88
415.22	11.70
415.41	35.11
415.60	86.60
415.79	56.17
415.98	14.04
416.17	0.00
416.36	0.00
416.55	9.36
416.74	0.00
416.93	4.68
417.12	14.04
417.31	0.00
417.50	23.41
417.69	39.79
417.88	0.00
418.07	0.00
418.26	28.09
418.45	39.79
418.64	18.72
418.83	2.34
419.02	44.47
419.21	46.81
419.39	32.77
419.58	35.11
419.77	11.70
419.96	2.34
420.15	2.34
420.34	86.60
420.53	86.60
420.72	2.34
420.91	35.11
421.10	86.60
421.29	0.00
421.48	86.60
421.67	60.85
421.86	25.75
422.05	0.00
422.24	25.75
422.43	0.00
422.61	32.77
422.80	86.60
422.99	79.58
423.18	0.00
423.37	88.94
423.56	30.43
423.75	37.45
423.94	60.85
424.13	16.38
424.32	0.00
424.50	30.43
424.69	11.70
424.88	107.66
425.07	28.09
425.26	63.19
425.45	0.00
425.64	11.70
425.83	91.28
426.01	0.00
426.20	32.77
426.39	46.81
426.58	16.38
426.77	18.72
426.96	0.00
427.15	42.13
427.33	0.00
427.52	74.90
427.71	37.45
427.90	46.81
428.09	7.02
428.28	35.11
428.46	53.83
428.65	51.49
428.84	72.56
429.03	0.00
429.22	81.92
429.40	0.00
429.59	0.00
429.78	35.11
429.97	21.06
430.16	135.75
430.34	67.88
430.53	4.68
430.72	100.64
430.91	81.92
431.10	79.58
431.28	28.09
431.47	0.00
431.66	18.72
431.85	58.51
432.03	65.54
432.22	60.85
432.41	14.04
432.60	32.77
432.79	23.41
432.97	18.72
433.16	46.81
433.35	0.00
433.54	0.00
433.72	30.43
433.91	81.92
434.10	42.13
434.28	70.22
434.47	0.00
434.66	51.49
434.85	2.34
435.03	46.81
435.22	32.77
435.41	53.83
435.59	16.38
435.78	60.85
435.97	44.47
436.16	25.75
436.34	32.77
436.53	51.49
436.72	91.28
436.90	110.01
437.09	32.77
437.28	72.56
437.46	0.00
437.65	44.47
437.84	21.06
438.02	42.13
438.21	49.15
438.40	35.11
438.58	2.34
438.77	18.72
438.96	51.49
439.14	44.47
439.33	0.00
439.52	105.32
439.70	37.45
439.89	84.26
440.08	23.41
440.26	7.02
440.45	74.90
440.63	49.15
440.82	28.09
441.01	58.51
441.19	79.58
441.38	93.62
441.57	37.45
441.75	0.00
441.94	65.54
442.12	30.43
442.31	23.41
442.50	0.00
442.68	32.77
442.87	121.71
443.05	35.11
443.24	0.00
443.43	53.83
443.61	0.00
443.80	70.22
443.98	56.17
444.17	28.09
444.35	65.54
444.54	0.00
444.73	14.04
444.91	60.85
445.10	0.00
445.28	74.90
445.47	14.04
445.65	74.90
445.84	23.41
446.02	0.00
446.21	0.00
446.39	28.09
446.58	63.19
446.77	44.47
446.95	72.56
447.14	30.43
447.32	39.79
447.51	28.09
447.69	53.83
447.88	0.00
448.06	16.38
448.25	0.00
448.43	58.51
448.62	49.15
448.80	30.43
448.99	91.28
449.17	63.19
449.36	72.56
449.54	23.41
449.73	79.58
449.91	51.49
450.10	9.36
450.28	9.36
450.46	0.00
450.65	0.00
450.83	60.85
451.02	56.17
451.20	81.92
451.39	81.92
451.57	0.00
451.76	74.90
451.94	56.17
452.13	60.85
452.31	2.34
452.49	51.49
452.68	70.22
452.86	2.34
453.05	60.85
453.23	39.79
453.42	4.68
453.60	126.39
453.78	0.00
453.97	79.58
454.15	53.83
454.34	51.49
454.52	51.49
454.70	16.38
454.89	25.75
455.07	67.88
455.26	77.24
455.44	14.04
455.62	7.02
455.81	42.13
455.99	32.77
456.17	44.47
456.36	37.45
456.54	51.49
456.73	56.17
456.91	30.43
457.09	32.77
457.28	35.11
457.46	37.45
457.64	60.85
457.83	114.69
458.01	42.13
458.19	23.41
458.38	0.00
458.56	23.41
458.74	0.00
458.93	0.00
459.11	44.47
459.29	30.43
459.48	74.90
459.66	46.81
459.84	51.49
460.03	88.94
460.21	63.19
460.39	63.19
460.57	32.77
460.76	65.54
460.94	63.19
461.12	72.56
461.31	63.19
461.49	72.56
461.67	65.54
461.85	25.75
462.04	39.79
462.22	105.32
462.40	9.36
462.59	102.98
462.77	0.00
462.95	4.68
463.13	14.04
463.32	51.49
463.50	18.72
463.68	44.47
463.86	67.88
464.05	77.24
464.23	67.88
464.41	39.79
464.59	65.54
464.78	4.68
464.96	4.68
465.14	32.77
465.32	53.83
465.50	86.60
465.69	42.13
465.87	39.79
466.05	42.13
466.23	135.75
466.41	117.03
466.60	74.90
466.78	18.72
466.96	0.00
467.14	112.35
467.32	161.50
467.51	102.98
467.69	0.00
467.87	0.00
468.05	30.43
468.23	53.83
468.41	53.83
468.60	0.00
468.78	72.56
468.96	7.02
469.14	39.79
469.32	32.77
469.50	58.51
469.69	32.77
469.87	49.15
470.05	28.09
470.23	25.75
470.41	0.00
470.59	30.43
470.77	46.81
470.95	2.34
471.14	0.00
471.32	56.17
471.50	37.45
471.68	49.15
471.86	4.68
472.04	30.43
472.22	4.68
472.40	14.04
472.58	7.02
472.77	0.00
472.95	21.06
473.13	21.06
473.31	67.88
473.49	53.83
473.67	74.90
473.85	0.00
474.03	23.41
474.21	14.04
474.39	88.94
474.57	35.11
474.75	51.49
474.93	23.41
475.12	88.94
475.30	74.90
475.48	7.02
475.66	0.00
475.84	53.83
476.02	25.75
476.20	0.00
476.38	74.90
476.56	2.34
476.74	53.83
476.92	56.17
477.10	58.51
477.28	58.51
477.46	42.13
477.64	42.13
477.82	81.92
478.00	14.04
478.18	0.00
478.36	0.00
478.54	14.04
478.72	16.38
478.90	60.85
479.08	25.75
479.26	16.38
479.44	14.04
479.62	72.56
479.80	35.11
479.98	107.66
480.16	28.09
480.34	18.72
480.52	49.15
480.70	0.00
480.88	21.06
481.06	39.79
481.24	67.88
481.41	9.36
481.59	63.19
481.77	25.75
481.95	51.49
482.13	53.83
482.31	44.47
482.49	14.04
482.67	51.49
482.85	0.00
483.03	72.56
483.21	30.43
483.39	23.41
483.57	53.83
483.74	32.77
483.92	11.70
484.10	58.51
484.28	91.28
484.46	0.00
484.64	102.98
484.82	67.88
485.00	28.09
485.18	86.60
485.35	32.77
485.53	23.41
485.71	67.88
485.89	60.85
486.07	30.43
486.25	28.09
486.43	46.81
486.61	72.56
486.78	18.72
486.96	72.56
487.14	51.49
487.32	23.41
487.50	37.45
487.68	0.00
487.85	0.00
488.03	18.72
488.21	0.00
488.39	23.41
488.57	84.26
488.75	95.96
488.92	23.41
489.10	88.94
489.28	28.09
489.46	37.45
489.64	42.13
489.81	51.49
489.99	105.32
490.17	28.09
490.35	25.75
490.53	2.34
490.70	37.45
490.88	65.54
491.06	60.85
491.24	0.00
491.41	46.81
491.59	119.37
491.77	37.45
491.95	107.66
492.13	79.58
492.30	60.85
492.48	91.28
492.66	110.01
492.84	4.68
493.01	49.15
493.19	67.88
493.37	53.83
493.54	67.88
493.72	14.04
493.90	23.41
494.08	18.72
494.25	14.04
494.43	18.72
494.61	63.19
494.79	51.49
494.96	58.51
495.14	35.11
495.32	46.81
495.49	112.35
495.67	67.88
495.85	88.94
496.02	114.69
496.20	100.64
496.38	23.41
496.55	18.72
496.73	53.83
496.91	49.15
497.09	42.13
497.26	65.54
497.44	56.17
497.62	0.00
497.79	21.06
497.97	0.00
498.14	56.17
498.32	51.49
498.50	18.72
498.67	9.36
498.85	35.11
499.03	56.17
499.20	91.28
499.38	88.94
499.56	70.22
499.73	53.83
499.91	2.34
500.08	70.22
500.26	91.28
500.44	7.02
500.61	56.17
500.79	4.68
500.97	86.60
501.14	84.26
501.32	32.77
501.49	56.17
501.67	63.19
501.84	95.96
502.02	0.00
502.20	42.13
502.37	53.83
502.55	37.45
502.72	70.22
502.90	14.04
503.07	42.13
503.25	53.83
503.43	49.15
503.60	2.34
503.78	0.00
503.95	14.04
504.13	30.43
504.30	77.24
504.48	35.11
504.65	65.54
504.83	14.04
505.01	51.49
505.18	4.68
505.36	0.00
505.53	42.13
505.71	39.79
505.88	84.26
506.06	32.77
506.23	42.13
506.41	58.51
506.58	107.66
506.76	67.88
506.93	39.79
507.11	67.88
507.28	7.02
507.46	42.13
507.63	35.11
507.81	46.81
507.98	32.77
508.16	23.41
508.33	21.06
508.50	46.81
508.68	110.01
508.85	79.58
509.03	79.58
509.20	39.79
509.38	58.51
509.55	135.75
509.73	9.36
509.90	79.58
510.08	0.00
510.25	30.43
510.42	37.45
510.60	93.62
510.77	81.92
510.95	77.24
511.12	67.88
511.30	60.85
511.47	37.45
511.64	53.83
511.82	30.43
511.99	30.43
512.17	0.00
512.34	16.38
512.51	49.15
512.69	9.36
512.86	9.36
513.04	58.51
513.21	49.15
513.38	84.26
513.56	93.62
513.73	0.00
513.90	56.17
514.08	65.54
514.25	53.83
514.43	0.00
514.60	0.00
514.77	63.19
514.95	84.26
515.12	42.13
515.29	49.15
515.47	65.54
515.64	74.90
515.81	140.43
515.99	81.92
516.16	21.06
516.33	4.68
516.51	37.45
516.68	0.00
516.85	0.00
517.03	72.56
517.20	72.56
517.37	37.45
517.54	88.94
517.72	25.75
517.89	21.06
518.06	0.00
518.24	105.32
518.41	42.13
518.58	49.15
518.75	0.00
518.93	9.36
519.10	86.60
519.27	16.38
519.45	51.49
519.62	98.30
519.79	49.15
519.96	152.13
520.14	65.54
520.31	88.94
520.48	39.79
520.65	86.60
520.83	35.11
521.00	51.49
521.17	0.00
521.34	51.49
521.52	28.09
521.69	21.06
521.86	11.70
522.03	49.15
522.20	79.58
522.38	63.19
522.55	70.22
522.72	65.54
522.89	14.04
523.07	72.56
523.24	28.09
523.41	119.37
523.58	67.88
523.75	53.83
523.92	114.69
524.10	46.81
524.27	49.15
524.44	88.94
524.61	2.34
524.78	18.72
524.96	14.04
525.13	67.88
525.30	74.90
525.47	46.81
525.64	37.45
525.81	37.45
525.98	44.47
526.16	77.24
526.33	18.72
526.50	72.56
526.67	119.37
526.84	0.00
527.01	0.00
527.18	86.60
527.36	72.56
527.53	81.92
527.70	107.66
527.87	35.11
528.04	102.98
528.21	84.26
528.38	70.22
528.55	86.60
528.72	77.24
528.89	37.45
529.07	16.38
529.24	72.56
529.41	81.92
529.58	100.64
529.75	42.13
529.92	35.11
530.09	126.39
530.26	0.00
530.43	9.36
530.60	21.06
530.77	0.00
530.94	25.75
531.11	65.54
531.28	32.77
531.46	53.83
531.63	28.09
531.80	46.81
531.97	28.09
532.14	51.49
532.31	25.75
532.48	72.56
532.65	51.49
532.82	112.35
532.99	117.03
533.16	46.81
533.33	77.24
533.50	16.38
533.67	56.17
533.84	28.09
534.01	11.70
534.18	100.64
534.35	140.43
534.52	44.47
534.69	11.70
534.86	35.11
535.03	0.00
535.20	51.49
535.37	112.35
535.54	14.04
535.71	30.43
535.88	28.09
536.05	91.28
536.22	32.77
536.38	79.58
536.55	81.92
536.72	74.90
536.89	124.05
537.06	0.00
537.23	35.11
537.40	84.26
537.57	56.17
537.74	0.00
537.91	30.43
538.08	25.75
538.25	2.34
538.42	53.83
538.59	58.51
538.75	25.75
538.92	67.88
539.09	95.96
539.26	30.43
539.43	65.54
539.60	105.32
539.77	32.77
539.94	58.51
540.11	46.81
540.28	117.03
540.44	16.38
540.61	102.98
540.78	81.92
540.95	14.04
541.12	84.26
541.29	23.41
541.46	49.15
541.62	70.22
541.79	28.09
541.96	39.79
542.13	14.04
542.30	16.38
542.47	32.77
542.63	37.45
542.80	35.11
542.97	72.56
543.14	110.01
543.31	42.13
543.48	135.75
543.64	35.11
543.81	53.83
543.98	86.60
544.15	25.75
544.32	42.13
544.48	88.94
544.65	0.00
544.82	58.51
544.99	107.66
545.16	56.17
545.32	51.49
545.49	32.77
545.66	9.36
545.83	53.83
546.00	88.94
546.16	107.66
546.33	49.15
546.50	39.79
546.67	21.06
546.83	72.56
547.00	84.26
547.17	49.15
547.34	63.19
547.50	53.83
547.67	112.35
547.84	46.81
548.00	51.49
548.17	60.85
548.34	16.38
548.51	131.07
548.67	35.11
548.84	2.34
549.01	56.17
549.18	30.43
549.34	21.06
549.51	16.38
549.68	65.54
549.84	0.00
550.01	14.04
550.18	112.35
550.34	63.19
550.51	25.75
550.68	46.81
550.84	91.28
551.01	74.90
551.18	18.72
551.34	11.70
551.51	16.38
551.68	0.00
551.84	81.92
552.01	39.79
552.18	49.15
552.34	53.83
552.51	0.00
552.68	0.00
552.84	93.62
553.01	23.41
553.18	53.83
553.34	23.41
553.51	58.51
553.67	2.34
553.84	4.68
554.01	65.54
554.17	58.51
554.34	46.81
554.51	18.72
554.67	0.00
554.84	63.19
555.00	112.35
555.17	39.79
555.33	51.49
555.50	32.77
555.67	63.19
555.83	0.00
556.00	79.58
556.16	14.04
556.33	14.04
556.50	25.75
556.66	0.00
556.83	32.77
556.99	49.15
557.16	114.69
557.32	86.60
557.49	44.47
557.65	32.77
557.82	65.54
557.98	0.00
558.15	58.51
558.32	28.09
558.48	121.71
558.65	56.17
558.81	46.81
558.98	58.51
559.14	0.00
559.31	0.00
559.47	84.26
559.64	56.17
559.80	11.70
559.97	2.34
560.13	65.54
560.30	81.92
560.46	46.81
560.63	58.51
560.79	72.56
560.96	51.49
561.12	11.70
561.29	28.09
561.45	28.09
561.61	156.82
561.78	58.51
561.94	25.75
562.11	0.00
562.27	102.98
562.44	39.79
562.60	58.51
562.77	46.81
562.93	110.01
563.10	35.11
563.26	84.26
563.42	98.30
563.59	121.71
563.75	7.02
563.92	44.47
564.08	16.38
564.24	56.17
564.41	126.39
564.57	58.51
564.74	142.77
564.90	119.37
565.07	58.51
565.23	67.88
565.39	84.26
565.56	2.34
565.72	0.00
565.88	84.26
566.05	53.83
566.21	0.00
566.38	74.90
566.54	51.49
566.70	28.09
566.87	35.11
567.03	0.00
567.19	16.38
567.36	28.09
567.52	32.77
567.68	46.81
567.85	25.75
568.01	37.45
568.17	4.68
568.34	51.49
568.50	0.00
568.66	7.02
568.83	0.00
568.99	65.54
569.15	98.30
569.32	23.41
569.48	0.00
569.64	0.00
569.81	49.15
569.97	91.28
570.13	60.85
570.30	81.92
570.46	93.62
570.62	30.43
570.78	4.68
570.95	37.45
571.11	79.58
571.27	95.96
571.43	53.83
571.60	51.49
571.76	23.41
571.92	60.85
572.09	32.77
572.25	53.83
572.41	32.77
572.57	39.79
572.74	60.85
572.90	93.62
573.06	25.75
573.22	74.90
573.38	67.88
573.55	2.34
573.71	58.51
573.87	65.54
574.03	60.85
574.20	23.41
574.36	105.32
574.52	18.72
574.68	93.62
574.84	51.49
575.01	11.70
575.17	46.81
575.33	65.54
575.49	18.72
575.65	72.56
575.82	0.00
575.98	39.79
576.14	39.79
576.30	9.36
576.46	91.28
576.62	67.88
576.79	60.85
576.95	84.26
577.11	21.06
577.27	74.90
577.43	14.04
577.59	81.92
577.75	0.00
577.92	46.81
578.08	117.03
578.24	88.94
578.40	51.49
578.56	91.28
578.72	30.43
578.88	93.62
579.04	35.11
579.21	32.77
579.37	84.26
579.53	51.49
579.69	0.00
579.85	46.81
580.01	0.00
580.17	0.00
580.33	28.09
580.49	0.00
580.65	65.54
580.82	0.00
580.98	74.90
581.14	30.43
581.30	77.24
581.46	100.64
581.62	102.98
581.78	0.00
581.94	65.54
582.10	39.79
582.26	100.64
582.42	86.60
582.58	39.79
582.74	32.77
582.90	56.17
583.06	74.90
583.22	77.24
583.38	58.51
583.54	25.75
583.70	18.72
583.86	51.49
584.02	0.00
584.18	23.41
584.34	25.75
584.50	46.81
584.66	105.32
584.82	53.83
584.98	0.00
585.14	0.00
585.30	72.56
585.46	60.85
585.62	23.41
585.78	28.09
585.94	60.85
586.10	77.24
586.26	51.49
586.42	53.83
586.58	60.85
586.74	32.77
586.90	81.92
587.06	46.81
587.22	100.64
587.38	91.28
587.54	60.85
587.70	25.75
587.86	65.54
588.02	88.94
588.18	58.51
588.34	77.24
588.49	14.04
588.65	23.41
588.81	100.64
588.97	4.68
589.13	11.70
589.29	25.75
589.45	42.13
589.61	77.24
589.77	0.00
589.93	14.04
590.08	23.41
590.24	18.72
590.40	93.62
590.56	28.09
590.72	21.06
590.88	32.77
591.04	70.22
591.20	30.43
591.35	105.32
591.51	0.00
591.67	28.09
591.83	21.06
591.99	72.56
592.15	23.41
592.31	0.00
592.46	9.36
592.62	0.00
592.78	4.68
592.94	0.00
593.10	32.77
593.26	81.92
593.41	138.09
593.57	72.56
593.73	18.72
593.89	30.43
594.05	25.75
594.20	21.06
594.36	105.32
594.52	0.00
594.68	2.34
594.84	60.85
594.99	72.56
595.15	49.15
595.31	63.19
595.47	58.51
595.62	58.51
595.78	9.36
595.94	46.81
596.10	140.43
596.25	51.49
596.41	60.85
596.57	0.00
596.73	39.79
596.88	49.15
597.04	56.17
597.20	86.60
597.36	14.04
597.51	67.88
597.67	60.85
597.83	0.00
597.99	4.68
598.14	39.79
598.30	81.92
598.46	39.79
598.61	112.35
598.77	86.60
598.93	58.51
599.09	42.13
599.24	16.38
599.40	60.85
599.56	60.85
599.71	21.06
599.87	53.83
600.03	49.15
600.18	0.00
600.34	95.96
600.50	4.68
600.65	105.32
600.81	9.36
600.97	11.70
601.12	70.22
601.28	32.77
601.44	37.45
601.59	0.00
601.75	37.45
601.91	0.00
602.06	100.64
602.22	0.00
602.37	25.75
602.53	49.15
602.69	140.43
602.84	79.58
603.00	88.94
603.16	0.00
603.31	37.45
603.47	39.79
603.62	86.60
603.78	65.54
603.94	95.96
604.09	0.00
604.25	11.70
604.40	72.56
604.56	67.88
604.71	14.04
604.87	0.00
605.03	105.32
605.18	21.06
605.34	77.24
605.49	21.06
605.65	60.85
605.80	79.58
605.96	84.26
606.12	119.37
606.27	0.00
606.43	51.49
606.58	25.75
606.74	84.26
606.89	0.00
607.05	63.19
607.20	107.66
607.36	65.54
607.51	0.00
607.67	16.38
607.82	49.15
607.98	79.58
608.13	2.34
608.29	9.36
608.44	0.00
608.60	32.77
608.75	88.94
608.91	23.41
609.06	65.54
609.22	67.88
609.37	37.45
609.53	49.15
609.68	23.41
609.84	60.85
609.99	32.77
610.15	49.15
610.30	42.13
610.46	0.00
610.61	81.92
610.76	72.56
610.92	42.13
611.07	74.90
611.23	39.79
611.38	72.56
611.54	65.54
611.69	0.00
611.84	4.68
612.00	63.19
612.15	39.79
612.31	67.88
612.46	51.49
612.62	100.64
612.77	46.81
612.92	70.22
613.08	11.70
613.23	4.68
613.39	42.13
613.54	58.51
613.69	37.45
613.85	30.43
614.00	32.77
614.15	107.66
614.31	42.13
614.46	105.32
614.62	25.75
614.77	32.77
614.92	91.28
615.08	51.49
615.23	21.06
615.38	72.56
615.54	86.60
615.69	21.06
615.84	91.28
616.00	0.00
616.15	7.02
616.30	42.13
616.46	39.79
616.61	58.51
616.76	91.28
616.92	84.26
617.07	39.79
617.22	58.51
617.37	110.01
617.53	67.88
617.68	72.56
617.83	37.45
617.99	65.54
618.14	53.83
618.29	4.68
618.45	105.32
618.60	100.64
618.75	63.19
618.90	37.45
619.06	70.22
619.21	0.00
619.36	72.56
619.51	67.88
619.67	23.41
619.82	42.13
619.97	53.83
620.12	70.22
620.28	58.51
620.43	93.62
620.58	70.22
620.73	28.09
620.89	86.60
621.04	4.68
621.19	67.88
621.34	42.13
621.49	35.11
621.65	30.43
621.80	63.19
621.95	88.94
622.10	0.00
622.25	35.11
622.41	32.77
622.56	9.36
622.71	60.85
622.86	53.83
623.01	77.24
623.16	4.68
623.32	23.41
623.47	63.19
623.62	65.54
623.77	11.70
623.92	49.15
624.07	77.24
624.23	23.41
624.38	44.47
624.53	42.13
624.68	74.90
624.83	0.00
624.98	0.00
625.13	58.51
625.29	42.13
625.44	100.64
625.59	30.43
625.74	60.85
625.89	93.62
626.04	51.49
626.19	25.75
626.34	37.45
626.49	0.00
626.65	42.13
626.80	51.49
626.95	2.34
627.10	56.17
627.25	23.41
627.40	86.60
627.55	18.72
627.70	117.03
627.85	2.34
628.00	46.81
628.15	16.38
628.30	39.79
628.45	44.47
628.60	32.77
628.76	58.51
628.91	18.72
629.06	7.02
629.21	18.72
629.36	86.60
629.51	2.34
629.66	51.49
629.81	0.00
629.96	51.49
630.11	53.83
630.26	60.85
630.41	32.77
630.56	77.24
630.71	28.09
630.86	44.47
631.01	35.11
631.16	110.01
631.31	25.75
631.46	72.56
631.61	0.00
631.76	58.51
631.91	124.05
632.06	91.28
632.21	77.24
632.36	84.26
632.51	84.26
632.66	16.38
632.81	25.75
632.96	81.92
633.10	65.54
633.25	65.54
633.40	65.54
633.55	0.00
633.70	114.69
633.85	53.83
634.00	42.13
634.15	39.79
634.30	9.36
634.45	98.30
634.60	42.13
634.75	44.47
634.90	49.15
635.05	49.15
635.19	14.04
635.34	28.09
635.49	39.79
635.64	72.56
635.79	35.11
635.94	23.41
636.09	86.60
636.24	88.94
636.39	72.56
636.53	49.15
636.68	37.45
636.83	88.94
636.98	44.47
637.13	53.83
637.28	0.00
637.43	0.00
637.57	53.83
637.72	4.68
637.87	0.00
638.02	14.04
638.17	72.56
638.32	74.90
638.46	0.00
638.61	72.56
638.76	14.04
638.91	42.13
639.06	44.47
639.20	56.17
639.35	74.90
639.50	11.70
639.65	77.24
639.80	60.85
639.94	72.56
640.09	70.22
640.24	105.32
640.39	37.45
640.54	32.77
640.68	0.00
640.83	37.45
640.98	56.17
641.13	0.00
641.27	4.68
641.42	53.83
641.57	23.41
641.72	14.04
641.86	0.00
642.01	39.79
642.16	84.26
642.31	0.00
642.45	60.85
642.60	63.19
642.75	65.54
642.90	44.47
643.04	70.22
643.19	0.00
643.34	56.17
643.48	86.60
643.63	86.60
643.78	23.41
643.93	23.41
644.07	21.06
644.22	18.72
644.37	63.19
644.51	159.16
644.66	25.75
644.81	95.96
644.95	53.83
645.10	35.11
645.25	23.41
645.39	58.51
645.54	4.68
645.69	70.22
645.83	0.00
645.98	42.13
646.13	30.43
646.27	67.88
646.42	21.06
646.57	63.19
646.71	2.34
646.86	65.54
647.00	53.83
647.15	95.96
647.30	86.60
647.44	0.00
647.59	35.11
647.74	28.09
647.88	88.94
648.03	0.00
648.17	28.09
648.32	42.13
648.47	84.26
648.61	102.98
648.76	25.75
648.90	58.51
649.05	93.62
649.20	42.13
649.34	79.58
649.49	2.34
649.63	93.62
649.78	63.19
649.92	49.15
650.07	56.17
650.21	77.24
650.36	11.70
650.51	23.41
650.65	37.45
650.80	49.15
650.94	84.26
651.09	84.26
651.23	42.13
651.38	112.35
651.52	65.54
651.67	14.04
651.81	98.30
651.96	93.62
652.10	30.43
652.25	88.94
652.39	16.38
652.54	37.45
652.68	0.00
652.83	28.09
652.97	51.49
653.12	51.49
653.26	0.00
653.41	18.72
653.55	63.19
653.70	23.41
653.84	9.36
653.99	23.41
654.13	0.00
654.27	49.15
654.42	32.77
654.56	23.41
654.71	0.00
654.85	51.49
655.00	0.00
655.14	0.00
655.29	74.90
655.43	56.17
655.57	14.04
655.72	65.54
655.86	53.83
656.01	56.17
656.15	35.11
656.30	51.49
656.44	30.43
656.58	93.62
656.73	7.02
656.87	0.00
657.01	58.51
657.16	2.34
657.30	72.56
657.45	25.75
657.59	63.19
657.73	0.00
657.88	14.04
658.02	65.54
658.16	37.45
658.31	35.11
658.45	65.54
658.60	65.54
658.74	0.00
658.88	28.09
659.03	65.54
659.17	9.36
659.31	2.34
659.46	102.98
659.60	9.36
659.74	51.49
659.89	14.04
660.03	25.75
660.17	18.72
660.32	51.49
660.46	28.09
660.60	100.64
660.74	18.72
660.89	51.49
661.03	84.26
661.17	0.00
661.32	0.00
661.46	53.83
661.60	21.06
661.74	37.45
661.89	0.00
662.03	44.47
662.17	0.00
662.31	91.28
662.46	39.79
662.60	51.49
662.74	2.34
662.88	77.24
663.03	56.17
663.17	0.00
663.31	16.38
663.45	16.38
663.60	7.02
663.74	63.19
663.88	60.85
664.02	58.51
664.17	51.49
664.31	88.94
664.45	65.54
664.59	46.81
664.73	18.72
664.88	7.02
665.02	0.00
665.16	70.22
665.30	35.11
665.44	65.54
665.59	0.00
665.73	60.85
665.87	0.00
666.01	0.00
666.15	60.85
666.29	9.36
666.44	0.00
666.58	0.00
666.72	0.00
666.86	32.77
667.00	37.45
667.14	84.26
667.28	0.00
667.43	2.34
667.57	65.54
667.71	23.41
667.85	25.75
667.99	16.38
668.13	0.00
668.27	53.83
668.41	51.49
668.56	133.41
668.70	0.00
668.84	44.47
668.98	58.51
669.12	35.11
669.26	42.13
669.40	0.00
669.54	0.00
669.68	4.68
669.82	21.06
669.96	32.77
670.10	56.17
670.25	67.88
670.39	49.15
670.53	79.58
670.67	98.30
670.81	0.00
670.95	91.28
671.09	0.00
671.23	51.49
671.37	37.45
671.51	70.22
671.65	46.81
671.79	14.04
671.93	56.17
672.07	30.43
672.21	16.38
672.35	65.54
672.49	100.64
672.63	98.30
672.77	11.70
672.91	21.06
673.05	91.28
673.19	77.24
673.33	0.00
673.47	79.58
673.61	11.70
673.75	58.51
673.89	56.17
674.03	30.43
674.17	46.81
674.31	28.09
674.45	119.37
674.59	42.13
674.73	72.56
674.87	88.94
675.01	9.36
675.15	25.75
675.29	16.38
675.43	86.60
675.56	0.00
675.70	77.24
675.84	0.00
675.98	35.11
676.12	28.09
676.26	0.00
676.40	49.15
676.54	63.19
676.68	0.00
676.82	0.00
676.96	44.47
677.10	37.45
677.23	0.00
677.37	56.17
677.51	0.00
677.65	56.17
677.79	0.00
677.93	117.03
678.07	42.13
678.21	58.51
678.34	18.72
678.48	74.90
678.62	39.79
678.76	14.04
678.90	37.45
679.04	58.51
679.18	0.00
679.31	0.00
679.45	7.02
679.59	0.00
679.73	37.45
679.87	25.75
680.00	65.54
680.14	98.30
680.28	0.00
680.42	35.11
680.56	74.90
680.70	9.36
680.83	2.34
680.97	0.00
681.11	86.60
681.25	49.15
681.39	0.00
681.52	49.15
681.66	58.51
681.80	42.13
681.94	119.37
682.07	42.13
682.21	28.09
682.35	21.06
682.49	0.00
682.62	25.75
682.76	70.22
682.90	0.00
683.04	11.70
683.17	37.45
683.31	0.00
683.45	58.51
683.59	28.09
683.72	0.00
683.86	37.45
684.00	86.60
684.13	0.00
684.27	39.79
684.41	110.01
684.55	49.15
684.68	42.13
684.82	18.72
684.96	42.13
685.09	53.83
685.23	9.36
685.37	37.45
685.50	0.00
685.64	53.83
685.78	7.02
685.91	0.00
686.05	9.36
686.19	0.00
686.32	0.00
686.46	32.77
686.60	28.09
686.73	74.90
686.87	39.79
687.01	49.15
687.14	11.70
687.28	18.72
687.42	49.15
687.55	0.00
687.69	7.02
687.82	114.69
687.96	63.19
688.10	84.26
688.23	4.68
688.37	65.54
688.50	0.00
688.64	23.41
688.78	25.75
688.91	23.41
689.05	42.13
689.18	46.81
689.32	28.09
689.46	77.24
689.59	32.77
689.73	28.09
689.86	0.00
690.00	70.22
690.13	37.45
690.27	39.79
690.41	91.28
690.54	49.15
690.68	32.77
690.81	0.00
690.95	18.72
691.08	49.15
691.22	91.28
691.35	35.11
691.49	105.32
691.62	84.26
691.76	14.04
691.89	70.22
692.03	18.72
692.16	21.06
692.30	2.34
692.43	35.11
692.57	91.28
692.70	105.32
692.84	44.47
692.97	70.22
693.11	7.02
693.24	0.00
693.38	32.77
693.51	49.15
693.65	91.28
693.78	2.34
693.92	77.24
694.05	63.19
694.19	0.00
694.32	11.70
694.45	39.79
694.59	74.90
694.72	30.43
694.86	18.72
694.99	14.04
695.13	58.51
695.26	18.72
695.39	18.72
695.53	25.75
695.66	39.79
695.80	84.26
695.93	81.92
696.07	81.92
696.20	51.49
696.33	0.00
696.47	11.70
696.60	0.00
696.73	23.41
696.87	74.90
697.00	39.79
697.14	124.05
697.27	18.72
697.40	18.72
697.54	56.17
697.67	42.13
697.80	51.49
697.94	74.90
698.07	28.09
698.21	23.41
698.34	18.72
698.47	32.77
698.61	81.92
698.74	4.68
698.87	16.38
699.01	9.36
699.14	28.09
699.27	44.47
699.40	67.88
699.54	98.30
699.67	14.04
699.80	102.98
699.94	0.00
700.07	18.72
700.20	4.68
700.34	37.45
700.47	39.79
700.60	0.00
700.73	23.41
700.87	44.47
701.00	21.06
701.13	18.72
701.26	4.68
701.40	18.72
701.53	0.00
701.66	0.00
701.79	0.00
701.93	53.83
702.06	58.51
702.19	72.56
702.32	58.51
702.46	37.45
702.59	44.47
702.72	23.41
702.85	11.70
702.99	65.54
703.12	0.00
703.25	0.00
703.38	107.66
703.51	11.70
703.65	39.79
703.78	53.83
703.91	0.00
704.04	21.06
704.17	16.38
704.31	23.41
704.44	25.75
704.57	42.13
704.70	2.34
704.83	0.00
704.96	0.00
705.10	44.47
705.23	98.30
>>>>>End Processed Spectral Data<<<<<
