SpectraSuite Data File
++++++++++++++++++++++++++++++++++++
Date: Fri Oct 04 12:13:32 GMT-05:00 2013
User: price-jones
Dark Spectrum Present: No
Reference Spectrum Present: No
Number of Sampled Component Spectra: 1
Spectrometers: USB2+H05261
Integration Time (usec): 10000 (USB2+H05261)
Spectra Averaged: 1 (USB2+H05261)
Boxcar Smoothing: 0 (USB2+H05261)
Correct for Electrical Dark: No (USB2+H05261)
Strobe/Lamp Enabled: No (USB2+H05261)
Correct for Detector Non-linearity: No (USB2+H05261)
Correct for Stray Light: No (USB2+H05261)
Number of Pixels in Processed Spectrum: 2048
>>>>>Begin Processed Spectral Data<<<<<
365.73	0.00
365.92	0.00
366.12	0.00
366.32	0.00
366.52	0.00
366.72	0.00
366.91	0.00
367.11	0.00
367.31	0.00
367.51	0.00
367.70	0.00
367.90	0.00
368.10	0.00
368.30	0.00
368.49	0.00
368.69	0.00
368.89	0.00
369.09	0.00
369.28	0.00
369.48	0.00
369.68	0.00
369.87	0.00
370.07	0.00
370.27	0.00
370.47	0.00
370.66	0.00
370.86	2.34
371.06	28.09
371.25	0.00
371.45	0.00
371.65	0.00
371.84	0.00
372.04	0.00
372.24	0.00
372.44	0.00
372.63	0.00
372.83	21.06
373.03	0.00
373.22	21.06
373.42	77.24
373.62	63.19
373.81	0.00
374.01	23.41
374.21	119.37
374.40	53.83
374.60	51.49
374.79	0.00
374.99	70.22
375.19	42.13
375.38	30.43
375.58	28.09
375.78	86.60
375.97	49.15
376.17	30.43
376.37	0.00
376.56	23.41
376.76	42.13
376.95	0.00
377.15	4.68
377.35	60.85
377.54	51.49
377.74	0.00
377.93	65.54
378.13	16.38
378.33	32.77
378.52	42.13
378.72	56.17
378.91	32.77
379.11	79.58
379.31	32.77
379.50	0.00
379.70	0.00
379.89	35.11
380.09	0.00
380.28	32.77
380.48	49.15
380.68	63.19
380.87	32.77
381.07	74.90
381.26	0.00
381.46	49.15
381.65	58.51
381.85	56.17
382.04	23.41
382.24	0.00
382.43	102.98
382.63	0.00
382.83	0.00
383.02	0.00
383.22	0.00
383.41	21.06
383.61	35.11
383.80	30.43
384.00	0.00
384.19	56.17
384.39	0.00
384.58	0.00
384.78	7.02
384.97	32.77
385.17	0.00
385.36	72.56
385.56	0.00
385.75	0.00
385.95	14.04
386.14	37.45
386.34	72.56
386.53	0.00
386.72	51.49
386.92	44.47
387.11	0.00
387.31	67.88
387.50	16.38
387.70	37.45
387.89	28.09
388.09	37.45
388.28	4.68
388.48	35.11
388.67	0.00
388.86	14.04
389.06	0.00
389.25	79.58
389.45	0.00
389.64	23.41
389.84	91.28
390.03	21.06
390.22	25.75
390.42	14.04
390.61	77.24
390.81	0.00
391.00	14.04
391.19	67.88
391.39	28.09
391.58	0.00
391.78	11.70
391.97	14.04
392.16	0.00
392.36	49.15
392.55	53.83
392.75	0.00
392.94	0.00
393.13	21.06
393.33	9.36
393.52	42.13
393.71	0.00
393.91	0.00
394.10	88.94
394.29	0.00
394.49	84.26
394.68	0.00
394.88	0.00
395.07	0.00
395.26	11.70
395.46	0.00
395.65	86.60
395.84	4.68
396.04	0.00
396.23	0.00
396.42	21.06
396.62	0.00
396.81	67.88
397.00	0.00
397.19	0.00
397.39	70.22
397.58	23.41
397.77	51.49
397.97	7.02
398.16	84.26
398.35	102.98
398.55	63.19
398.74	53.83
398.93	58.51
399.12	37.45
399.32	21.06
399.51	0.00
399.70	30.43
399.90	7.02
400.09	30.43
400.28	23.41
400.47	63.19
400.67	21.06
400.86	0.00
401.05	0.00
401.24	0.00
401.44	93.62
401.63	4.68
401.82	4.68
402.01	32.77
402.21	42.13
402.40	44.47
402.59	0.00
402.78	0.00
402.97	46.81
403.17	60.85
403.36	0.00
403.55	32.77
403.74	32.77
403.93	91.28
404.13	16.38
404.32	0.00
404.51	114.69
404.70	21.06
404.89	49.15
405.09	28.09
405.28	65.54
405.47	70.22
405.66	0.00
405.85	44.47
406.05	28.09
406.24	72.56
406.43	9.36
406.62	42.13
406.81	77.24
407.00	30.43
407.20	35.11
407.39	30.43
407.58	49.15
407.77	23.41
407.96	11.70
408.15	0.00
408.34	39.79
408.54	42.13
408.73	39.79
408.92	9.36
409.11	44.47
409.30	65.54
409.49	53.83
409.68	25.75
409.87	56.17
410.07	0.00
410.26	32.77
410.45	0.00
410.64	0.00
410.83	0.00
411.02	0.00
411.21	0.00
411.40	0.00
411.59	0.00
411.78	93.62
411.98	39.79
412.17	0.00
412.36	53.83
412.55	65.54
412.74	9.36
412.93	2.34
413.12	4.68
413.31	0.00
413.50	42.13
413.69	65.54
413.88	39.79
414.07	46.81
414.26	32.77
414.45	32.77
414.64	35.11
414.83	81.92
415.02	49.15
415.22	46.81
415.41	16.38
415.60	98.30
415.79	0.00
415.98	32.77
416.17	49.15
416.36	21.06
416.55	30.43
416.74	0.00
416.93	51.49
417.12	32.77
417.31	56.17
417.50	28.09
417.69	16.38
417.88	7.02
418.07	14.04
418.26	14.04
418.45	0.00
418.64	86.60
418.83	25.75
419.02	16.38
419.21	0.00
419.39	9.36
419.58	58.51
419.77	4.68
419.96	0.00
420.15	37.45
420.34	0.00
420.53	91.28
420.72	37.45
420.91	11.70
421.10	67.88
421.29	42.13
421.48	0.00
421.67	56.17
421.86	0.00
422.05	37.45
422.24	0.00
422.43	0.00
422.61	0.00
422.80	0.00
422.99	2.34
423.18	23.41
423.37	23.41
423.56	7.02
423.75	67.88
423.94	21.06
424.13	58.51
424.32	23.41
424.50	25.75
424.69	63.19
424.88	14.04
425.07	0.00
425.26	32.77
425.45	14.04
425.64	95.96
425.83	91.28
426.01	2.34
426.20	0.00
426.39	53.83
426.58	9.36
426.77	0.00
426.96	44.47
427.15	0.00
427.33	58.51
427.52	0.00
427.71	16.38
427.90	0.00
428.09	28.09
428.28	46.81
428.46	23.41
428.65	0.00
428.84	16.38
429.03	28.09
429.22	63.19
429.40	88.94
429.59	28.09
429.78	70.22
429.97	0.00
430.16	0.00
430.34	37.45
430.53	23.41
430.72	18.72
430.91	49.15
431.10	53.83
431.28	88.94
431.47	77.24
431.66	11.70
431.85	0.00
432.03	44.47
432.22	0.00
432.41	32.77
432.60	58.51
432.79	42.13
432.97	16.38
433.16	14.04
433.35	35.11
433.54	0.00
433.72	37.45
433.91	0.00
434.10	25.75
434.28	14.04
434.47	2.34
434.66	39.79
434.85	77.24
435.03	25.75
435.22	46.81
435.41	0.00
435.59	0.00
435.78	35.11
435.97	37.45
436.16	2.34
436.34	23.41
436.53	53.83
436.72	32.77
436.90	60.85
437.09	14.04
437.28	37.45
437.46	0.00
437.65	0.00
437.84	56.17
438.02	77.24
438.21	14.04
438.40	16.38
438.58	35.11
438.77	16.38
438.96	49.15
439.14	0.00
439.33	0.00
439.52	37.45
439.70	60.85
439.89	0.00
440.08	60.85
440.26	35.11
440.45	0.00
440.63	42.13
440.82	138.09
441.01	35.11
441.19	100.64
441.38	58.51
441.57	91.28
441.75	28.09
441.94	37.45
442.12	67.88
442.31	7.02
442.50	30.43
442.68	74.90
442.87	0.00
443.05	63.19
443.24	2.34
443.43	91.28
443.61	102.98
443.80	0.00
443.98	37.45
444.17	0.00
444.35	0.00
444.54	42.13
444.73	46.81
444.91	74.90
445.10	72.56
445.28	42.13
445.47	53.83
445.65	95.96
445.84	58.51
446.02	84.26
446.21	56.17
446.39	124.05
446.58	16.38
446.77	0.00
446.95	44.47
447.14	11.70
447.32	23.41
447.51	35.11
447.69	0.00
447.88	0.00
448.06	46.81
448.25	124.05
448.43	0.00
448.62	0.00
448.80	9.36
448.99	42.13
449.17	67.88
449.36	58.51
449.54	16.38
449.73	0.00
449.91	72.56
450.10	35.11
450.28	4.68
450.46	77.24
450.65	37.45
450.83	0.00
451.02	60.85
451.20	0.00
451.39	7.02
451.57	0.00
451.76	44.47
451.94	4.68
452.13	72.56
452.31	46.81
452.49	28.09
452.68	14.04
452.86	42.13
453.05	53.83
453.23	63.19
453.42	93.62
453.60	53.83
453.78	18.72
453.97	110.01
454.15	63.19
454.34	25.75
454.52	51.49
454.70	88.94
454.89	7.02
455.07	58.51
455.26	65.54
455.44	49.15
455.62	0.00
455.81	77.24
455.99	25.75
456.17	0.00
456.36	53.83
456.54	39.79
456.73	119.37
456.91	49.15
457.09	39.79
457.28	0.00
457.46	28.09
457.64	23.41
457.83	0.00
458.01	0.00
458.19	21.06
458.38	51.49
458.56	37.45
458.74	18.72
458.93	0.00
459.11	0.00
459.29	25.75
459.48	0.00
459.66	56.17
459.84	0.00
460.03	49.15
460.21	79.58
460.39	70.22
460.57	25.75
460.76	30.43
460.94	58.51
461.12	16.38
461.31	0.00
461.49	102.98
461.67	0.00
461.85	18.72
462.04	0.00
462.22	110.01
462.40	49.15
462.59	0.00
462.77	49.15
462.95	56.17
463.13	72.56
463.32	21.06
463.50	0.00
463.68	65.54
463.86	0.00
464.05	28.09
464.23	72.56
464.41	56.17
464.59	44.47
464.78	65.54
464.96	32.77
465.14	30.43
465.32	0.00
465.50	79.58
465.69	39.79
465.87	53.83
466.05	14.04
466.23	51.49
466.41	9.36
466.60	79.58
466.78	0.00
466.96	35.11
467.14	84.26
467.32	11.70
467.51	4.68
467.69	44.47
467.87	0.00
468.05	0.00
468.23	23.41
468.41	67.88
468.60	37.45
468.78	63.19
468.96	46.81
469.14	14.04
469.32	63.19
469.50	30.43
469.69	65.54
469.87	102.98
470.05	63.19
470.23	58.51
470.41	37.45
470.59	21.06
470.77	88.94
470.95	105.32
471.14	42.13
471.32	74.90
471.50	0.00
471.68	21.06
471.86	67.88
472.04	23.41
472.22	65.54
472.40	65.54
472.58	86.60
472.77	72.56
472.95	9.36
473.13	0.00
473.31	58.51
473.49	156.82
473.67	49.15
473.85	86.60
474.03	23.41
474.21	63.19
474.39	30.43
474.57	81.92
474.75	4.68
474.93	53.83
475.12	0.00
475.30	77.24
475.48	0.00
475.66	39.79
475.84	16.38
476.02	39.79
476.20	0.00
476.38	0.00
476.56	0.00
476.74	0.00
476.92	21.06
477.10	84.26
477.28	9.36
477.46	77.24
477.64	58.51
477.82	58.51
478.00	23.41
478.18	110.01
478.36	100.64
478.54	23.41
478.72	67.88
478.90	14.04
479.08	51.49
479.26	39.79
479.44	21.06
479.62	23.41
479.80	0.00
479.98	23.41
480.16	60.85
480.34	32.77
480.52	9.36
480.70	0.00
480.88	37.45
481.06	46.81
481.24	88.94
481.41	25.75
481.59	16.38
481.77	32.77
481.95	0.00
482.13	0.00
482.31	32.77
482.49	58.51
482.67	58.51
482.85	65.54
483.03	16.38
483.21	0.00
483.39	39.79
483.57	0.00
483.74	11.70
483.92	95.96
484.10	0.00
484.28	42.13
484.46	14.04
484.64	53.83
484.82	0.00
485.00	18.72
485.18	18.72
485.35	67.88
485.53	37.45
485.71	37.45
485.89	37.45
486.07	60.85
486.25	58.51
486.43	25.75
486.61	49.15
486.78	51.49
486.96	128.73
487.14	14.04
487.32	30.43
487.50	0.00
487.68	0.00
487.85	0.00
488.03	44.47
488.21	51.49
488.39	100.64
488.57	51.49
488.75	46.81
488.92	11.70
489.10	63.19
489.28	23.41
489.46	23.41
489.64	44.47
489.81	11.70
489.99	7.02
490.17	37.45
490.35	72.56
490.53	9.36
490.70	56.17
490.88	67.88
491.06	28.09
491.24	37.45
491.41	56.17
491.59	18.72
491.77	0.00
491.95	25.75
492.13	93.62
492.30	35.11
492.48	0.00
492.66	11.70
492.84	51.49
493.01	32.77
493.19	16.38
493.37	0.00
493.54	60.85
493.72	53.83
493.90	37.45
494.08	72.56
494.25	0.00
494.43	37.45
494.61	42.13
494.79	0.00
494.96	53.83
495.14	105.32
495.32	93.62
495.49	42.13
495.67	65.54
495.85	0.00
496.02	93.62
496.20	58.51
496.38	30.43
496.55	28.09
496.73	0.00
496.91	25.75
497.09	30.43
497.26	49.15
497.44	30.43
497.62	0.00
497.79	51.49
497.97	79.58
498.14	46.81
498.32	0.00
498.50	63.19
498.67	51.49
498.85	56.17
499.03	60.85
499.20	88.94
499.38	88.94
499.56	86.60
499.73	42.13
499.91	63.19
500.08	0.00
500.26	30.43
500.44	98.30
500.61	44.47
500.79	65.54
500.97	0.00
501.14	42.13
501.32	46.81
501.49	0.00
501.67	100.64
501.84	9.36
502.02	88.94
502.20	49.15
502.37	0.00
502.55	0.00
502.72	105.32
502.90	49.15
503.07	79.58
503.25	65.54
503.43	56.17
503.60	35.11
503.78	35.11
503.95	56.17
504.13	0.00
504.30	28.09
504.48	53.83
504.65	32.77
504.83	70.22
505.01	98.30
505.18	0.00
505.36	23.41
505.53	114.69
505.71	77.24
505.88	25.75
506.06	0.00
506.23	0.00
506.41	51.49
506.58	0.00
506.76	42.13
506.93	51.49
507.11	49.15
507.28	49.15
507.46	81.92
507.63	65.54
507.81	28.09
507.98	25.75
508.16	110.01
508.33	44.47
508.50	11.70
508.68	58.51
508.85	0.00
509.03	9.36
509.20	0.00
509.38	25.75
509.55	0.00
509.73	32.77
509.90	98.30
510.08	14.04
510.25	44.47
510.42	35.11
510.60	0.00
510.77	49.15
510.95	53.83
511.12	105.32
511.30	18.72
511.47	0.00
511.64	102.98
511.82	0.00
511.99	0.00
512.17	100.64
512.34	72.56
512.51	16.38
512.69	0.00
512.86	0.00
513.04	35.11
513.21	77.24
513.38	56.17
513.56	70.22
513.73	37.45
513.90	30.43
514.08	88.94
514.25	107.66
514.43	0.00
514.60	37.45
514.77	60.85
514.95	63.19
515.12	44.47
515.29	126.39
515.47	25.75
515.64	133.41
515.81	88.94
515.99	42.13
516.16	39.79
516.33	117.03
516.51	77.24
516.68	42.13
516.85	25.75
517.03	0.00
517.20	42.13
517.37	74.90
517.54	23.41
517.72	100.64
517.89	9.36
518.06	81.92
518.24	72.56
518.41	37.45
518.58	2.34
518.75	58.51
518.93	32.77
519.10	58.51
519.27	133.41
519.45	98.30
519.62	0.00
519.79	65.54
519.96	84.26
520.14	49.15
520.31	0.00
520.48	37.45
520.65	79.58
520.83	56.17
521.00	56.17
521.17	42.13
521.34	0.00
521.52	32.77
521.69	18.72
521.86	9.36
522.03	44.47
522.20	74.90
522.38	21.06
522.55	42.13
522.72	0.00
522.89	81.92
523.07	39.79
523.24	0.00
523.41	0.00
523.58	21.06
523.75	91.28
523.92	114.69
524.10	42.13
524.27	60.85
524.44	35.11
524.61	0.00
524.78	0.00
524.96	70.22
525.13	77.24
525.30	37.45
525.47	102.98
525.64	65.54
525.81	49.15
525.98	18.72
526.16	23.41
526.33	30.43
526.50	63.19
526.67	25.75
526.84	7.02
527.01	25.75
527.18	131.07
527.36	53.83
527.53	30.43
527.70	0.00
527.87	81.92
528.04	0.00
528.21	79.58
528.38	42.13
528.55	28.09
528.72	14.04
528.89	44.47
529.07	21.06
529.24	23.41
529.41	16.38
529.58	84.26
529.75	95.96
529.92	11.70
530.09	84.26
530.26	23.41
530.43	30.43
530.60	56.17
530.77	14.04
530.94	105.32
531.11	56.17
531.28	128.73
531.46	9.36
531.63	39.79
531.80	72.56
531.97	51.49
532.14	42.13
532.31	0.00
532.48	0.00
532.65	23.41
532.82	86.60
532.99	42.13
533.16	0.00
533.33	65.54
533.50	72.56
533.67	0.00
533.84	25.75
534.01	0.00
534.18	63.19
534.35	44.47
534.52	0.00
534.69	77.24
534.86	98.30
535.03	133.41
535.20	0.00
535.37	60.85
535.54	0.00
535.71	100.64
535.88	77.24
536.05	77.24
536.22	16.38
536.38	37.45
536.55	114.69
536.72	84.26
536.89	81.92
537.06	0.00
537.23	124.05
537.40	65.54
537.57	67.88
537.74	0.00
537.91	16.38
538.08	32.77
538.25	7.02
538.42	25.75
538.59	9.36
538.75	53.83
538.92	91.28
539.09	16.38
539.26	46.81
539.43	25.75
539.60	105.32
539.77	119.37
539.94	14.04
540.11	4.68
540.28	63.19
540.44	23.41
540.61	65.54
540.78	30.43
540.95	25.75
541.12	21.06
541.29	42.13
541.46	65.54
541.62	63.19
541.79	39.79
541.96	9.36
542.13	51.49
542.30	60.85
542.47	51.49
542.63	0.00
542.80	107.66
542.97	70.22
543.14	42.13
543.31	93.62
543.48	4.68
543.64	86.60
543.81	67.88
543.98	23.41
544.15	0.00
544.32	63.19
544.48	51.49
544.65	37.45
544.82	91.28
544.99	63.19
545.16	44.47
545.32	67.88
545.49	49.15
545.66	21.06
545.83	105.32
546.00	63.19
546.16	0.00
546.33	18.72
546.50	74.90
546.67	21.06
546.83	81.92
547.00	42.13
547.17	23.41
547.34	28.09
547.50	60.85
547.67	67.88
547.84	46.81
548.00	81.92
548.17	49.15
548.34	60.85
548.51	77.24
548.67	35.11
548.84	44.47
549.01	42.13
549.18	35.11
549.34	91.28
549.51	91.28
549.68	0.00
549.84	114.69
550.01	4.68
550.18	56.17
550.34	0.00
550.51	7.02
550.68	30.43
550.84	25.75
551.01	84.26
551.18	28.09
551.34	51.49
551.51	86.60
551.68	56.17
551.84	0.00
552.01	16.38
552.18	35.11
552.34	77.24
552.51	37.45
552.68	7.02
552.84	37.45
553.01	9.36
553.18	51.49
553.34	81.92
553.51	4.68
553.67	0.00
553.84	74.90
554.01	2.34
554.17	2.34
554.34	72.56
554.51	0.00
554.67	2.34
554.84	18.72
555.00	14.04
555.17	65.54
555.33	37.45
555.50	0.00
555.67	4.68
555.83	60.85
556.00	7.02
556.16	117.03
556.33	77.24
556.50	91.28
556.66	39.79
556.83	16.38
556.99	37.45
557.16	39.79
557.32	67.88
557.49	42.13
557.65	35.11
557.82	30.43
557.98	102.98
558.15	58.51
558.32	9.36
558.48	42.13
558.65	58.51
558.81	79.58
558.98	0.00
559.14	67.88
559.31	0.00
559.47	42.13
559.64	77.24
559.80	7.02
559.97	126.39
560.13	72.56
560.30	58.51
560.46	39.79
560.63	53.83
560.79	42.13
560.96	91.28
561.12	9.36
561.29	21.06
561.45	53.83
561.61	39.79
561.78	117.03
561.94	21.06
562.11	72.56
562.27	25.75
562.44	14.04
562.60	0.00
562.77	65.54
562.93	0.00
563.10	60.85
563.26	112.35
563.42	28.09
563.59	46.81
563.75	37.45
563.92	46.81
564.08	16.38
564.24	98.30
564.41	28.09
564.57	23.41
564.74	56.17
564.90	28.09
565.07	16.38
565.23	25.75
565.39	72.56
565.56	98.30
565.72	49.15
565.88	35.11
566.05	86.60
566.21	67.88
566.38	51.49
566.54	21.06
566.70	0.00
566.87	49.15
567.03	4.68
567.19	126.39
567.36	23.41
567.52	2.34
567.68	42.13
567.85	72.56
568.01	51.49
568.17	70.22
568.34	16.38
568.50	142.77
568.66	9.36
568.83	53.83
568.99	72.56
569.15	58.51
569.32	16.38
569.48	58.51
569.64	88.94
569.81	0.00
569.97	56.17
570.13	44.47
570.30	117.03
570.46	74.90
570.62	60.85
570.78	18.72
570.95	0.00
571.11	23.41
571.27	88.94
571.43	65.54
571.60	9.36
571.76	70.22
571.92	42.13
572.09	30.43
572.25	42.13
572.41	7.02
572.57	0.00
572.74	63.19
572.90	11.70
573.06	37.45
573.22	39.79
573.38	86.60
573.55	105.32
573.71	93.62
573.87	18.72
574.03	91.28
574.20	58.51
574.36	46.81
574.52	37.45
574.68	154.48
574.84	60.85
575.01	117.03
575.17	91.28
575.33	49.15
575.49	51.49
575.65	0.00
575.82	72.56
575.98	32.77
576.14	7.02
576.30	58.51
576.46	18.72
576.62	65.54
576.79	60.85
576.95	44.47
577.11	91.28
577.27	0.00
577.43	84.26
577.59	23.41
577.75	60.85
577.92	16.38
578.08	39.79
578.24	21.06
578.40	0.00
578.56	56.17
578.72	79.58
578.88	0.00
579.04	16.38
579.21	100.64
579.37	102.98
579.53	2.34
579.69	0.00
579.85	63.19
580.01	65.54
580.17	14.04
580.33	0.00
580.49	16.38
580.65	77.24
580.82	107.66
580.98	44.47
581.14	18.72
581.30	0.00
581.46	25.75
581.62	44.47
581.78	46.81
581.94	60.85
582.10	65.54
582.26	51.49
582.42	79.58
582.58	7.02
582.74	107.66
582.90	0.00
583.06	30.43
583.22	56.17
583.38	46.81
583.54	67.88
583.70	28.09
583.86	7.02
584.02	0.00
584.18	23.41
584.34	93.62
584.50	32.77
584.66	102.98
584.82	11.70
584.98	67.88
585.14	67.88
585.30	84.26
585.46	28.09
585.62	56.17
585.78	0.00
585.94	56.17
586.10	56.17
586.26	0.00
586.42	23.41
586.58	67.88
586.74	42.13
586.90	65.54
587.06	4.68
587.22	63.19
587.38	44.47
587.54	0.00
587.70	0.00
587.86	0.00
588.02	0.00
588.18	14.04
588.34	63.19
588.49	0.00
588.65	98.30
588.81	105.32
588.97	102.98
589.13	63.19
589.29	30.43
589.45	65.54
589.61	37.45
589.77	72.56
589.93	53.83
590.08	35.11
590.24	0.00
590.40	7.02
590.56	16.38
590.72	117.03
590.88	2.34
591.04	74.90
591.20	63.19
591.35	21.06
591.51	67.88
591.67	126.39
591.83	18.72
591.99	39.79
592.15	0.00
592.31	11.70
592.46	25.75
592.62	84.26
592.78	102.98
592.94	145.11
593.10	14.04
593.26	25.75
593.41	107.66
593.57	0.00
593.73	0.00
593.89	93.62
594.05	0.00
594.20	35.11
594.36	23.41
594.52	30.43
594.68	88.94
594.84	9.36
594.99	0.00
595.15	11.70
595.31	16.38
595.47	4.68
595.62	93.62
595.78	0.00
595.94	105.32
596.10	30.43
596.25	37.45
596.41	18.72
596.57	35.11
596.73	110.01
596.88	0.00
597.04	77.24
597.20	23.41
597.36	0.00
597.51	0.00
597.67	56.17
597.83	18.72
597.99	70.22
598.14	51.49
598.30	25.75
598.46	112.35
598.61	16.38
598.77	110.01
598.93	70.22
599.09	56.17
599.24	44.47
599.40	117.03
599.56	23.41
599.71	18.72
599.87	42.13
600.03	0.00
600.18	107.66
600.34	105.32
600.50	35.11
600.65	23.41
600.81	81.92
600.97	0.00
601.12	7.02
601.28	0.00
601.44	56.17
601.59	72.56
601.75	100.64
601.91	49.15
602.06	107.66
602.22	0.00
602.37	42.13
602.53	117.03
602.69	9.36
602.84	42.13
603.00	37.45
603.16	0.00
603.31	4.68
603.47	74.90
603.62	88.94
603.78	0.00
603.94	53.83
604.09	0.00
604.25	98.30
604.40	25.75
604.56	60.85
604.71	21.06
604.87	102.98
605.03	74.90
605.18	14.04
605.34	37.45
605.49	30.43
605.65	7.02
605.80	110.01
605.96	11.70
606.12	14.04
606.27	60.85
606.43	67.88
606.58	0.00
606.74	67.88
606.89	16.38
607.05	0.00
607.20	35.11
607.36	30.43
607.51	67.88
607.67	14.04
607.82	65.54
607.98	21.06
608.13	63.19
608.29	51.49
608.44	46.81
608.60	37.45
608.75	42.13
608.91	11.70
609.06	0.00
609.22	0.00
609.37	49.15
609.53	4.68
609.68	51.49
609.84	70.22
609.99	63.19
610.15	58.51
610.30	86.60
610.46	16.38
610.61	0.00
610.76	72.56
610.92	65.54
611.07	16.38
611.23	35.11
611.38	70.22
611.54	86.60
611.69	0.00
611.84	53.83
612.00	28.09
612.15	84.26
612.31	79.58
612.46	11.70
612.62	25.75
612.77	21.06
612.92	0.00
613.08	60.85
613.23	60.85
613.39	0.00
613.54	16.38
613.69	28.09
613.85	112.35
614.00	46.81
614.15	72.56
614.31	58.51
614.46	91.28
614.62	119.37
614.77	51.49
614.92	42.13
615.08	0.00
615.23	7.02
615.38	21.06
615.54	0.00
615.69	72.56
615.84	0.00
616.00	14.04
616.15	0.00
616.30	0.00
616.46	0.00
616.61	81.92
616.76	32.77
616.92	0.00
617.07	23.41
617.22	11.70
617.37	30.43
617.53	16.38
617.68	65.54
617.83	46.81
617.99	117.03
618.14	65.54
618.29	23.41
618.45	81.92
618.60	70.22
618.75	16.38
618.90	74.90
619.06	16.38
619.21	74.90
619.36	67.88
619.51	86.60
619.67	46.81
619.82	0.00
619.97	72.56
620.12	65.54
620.28	39.79
620.43	23.41
620.58	37.45
620.73	58.51
620.89	100.64
621.04	46.81
621.19	30.43
621.34	25.75
621.49	0.00
621.65	60.85
621.80	70.22
621.95	49.15
622.10	93.62
622.25	51.49
622.41	81.92
622.56	2.34
622.71	7.02
622.86	7.02
623.01	53.83
623.16	88.94
623.32	35.11
623.47	72.56
623.62	98.30
623.77	65.54
623.92	49.15
624.07	14.04
624.23	18.72
624.38	32.77
624.53	35.11
624.68	93.62
624.83	72.56
624.98	18.72
625.13	23.41
625.29	18.72
625.44	0.00
625.59	39.79
625.74	65.54
625.89	14.04
626.04	0.00
626.19	7.02
626.34	51.49
626.49	58.51
626.65	51.49
626.80	65.54
626.95	0.00
627.10	53.83
627.25	21.06
627.40	9.36
627.55	44.47
627.70	60.85
627.85	21.06
628.00	0.00
628.15	18.72
628.30	0.00
628.45	0.00
628.60	4.68
628.76	21.06
628.91	0.00
629.06	35.11
629.21	39.79
629.36	56.17
629.51	44.47
629.66	30.43
629.81	35.11
629.96	21.06
630.11	51.49
630.26	56.17
630.41	51.49
630.56	0.00
630.71	53.83
630.86	67.88
631.01	46.81
631.16	51.49
631.31	56.17
631.46	32.77
631.61	7.02
631.76	0.00
631.91	37.45
632.06	65.54
632.21	51.49
632.36	88.94
632.51	35.11
632.66	14.04
632.81	51.49
632.96	56.17
633.10	49.15
633.25	98.30
633.40	65.54
633.55	49.15
633.70	63.19
633.85	39.79
634.00	49.15
634.15	0.00
634.30	25.75
634.45	14.04
634.60	7.02
634.75	0.00
634.90	0.00
635.05	39.79
635.19	16.38
635.34	30.43
635.49	0.00
635.64	18.72
635.79	70.22
635.94	7.02
636.09	16.38
636.24	0.00
636.39	35.11
636.53	46.81
636.68	84.26
636.83	37.45
636.98	79.58
637.13	84.26
637.28	88.94
637.43	58.51
637.57	28.09
637.72	58.51
637.87	56.17
638.02	7.02
638.17	72.56
638.32	65.54
638.46	37.45
638.61	25.75
638.76	0.00
638.91	37.45
639.06	0.00
639.20	0.00
639.35	46.81
639.50	4.68
639.65	42.13
639.80	0.00
639.94	58.51
640.09	14.04
640.24	39.79
640.39	11.70
640.54	37.45
640.68	37.45
640.83	35.11
640.98	60.85
641.13	53.83
641.27	30.43
641.42	37.45
641.57	42.13
641.72	56.17
641.86	51.49
642.01	56.17
642.16	2.34
642.31	4.68
642.45	35.11
642.60	72.56
642.75	88.94
642.90	9.36
643.04	0.00
643.19	0.00
643.34	32.77
643.48	4.68
643.63	67.88
643.78	0.00
643.93	16.38
644.07	95.96
644.22	60.85
644.37	37.45
644.51	67.88
644.66	84.26
644.81	88.94
644.95	0.00
645.10	74.90
645.25	100.64
645.39	0.00
645.54	51.49
645.69	51.49
645.83	58.51
645.98	0.00
646.13	2.34
646.27	23.41
646.42	0.00
646.57	9.36
646.71	95.96
646.86	18.72
647.00	0.00
647.15	25.75
647.30	72.56
647.44	53.83
647.59	74.90
647.74	74.90
647.88	100.64
648.03	72.56
648.17	2.34
648.32	25.75
648.47	9.36
648.61	81.92
648.76	0.00
648.90	77.24
649.05	42.13
649.20	49.15
649.34	67.88
649.49	30.43
649.63	63.19
649.78	93.62
649.92	58.51
650.07	100.64
650.21	0.00
650.36	0.00
650.51	25.75
650.65	0.00
650.80	0.00
650.94	88.94
651.09	0.00
651.23	74.90
651.38	21.06
651.52	44.47
651.67	28.09
651.81	0.00
651.96	63.19
652.10	32.77
652.25	30.43
652.39	42.13
652.54	28.09
652.68	46.81
652.83	93.62
652.97	86.60
653.12	51.49
653.26	0.00
653.41	88.94
653.55	0.00
653.70	49.15
653.84	44.47
653.99	63.19
654.13	9.36
654.27	0.00
654.42	49.15
654.56	21.06
654.71	16.38
654.85	72.56
655.00	32.77
655.14	0.00
655.29	0.00
655.43	32.77
655.57	70.22
655.72	86.60
655.86	23.41
656.01	0.00
656.15	18.72
656.30	74.90
656.44	9.36
656.58	117.03
656.73	60.85
656.87	37.45
657.01	0.00
657.16	7.02
657.30	95.96
657.45	60.85
657.59	51.49
657.73	0.00
657.88	44.47
658.02	65.54
658.16	28.09
658.31	79.58
658.45	114.69
658.60	0.00
658.74	86.60
658.88	16.38
659.03	30.43
659.17	0.00
659.31	0.00
659.46	0.00
659.60	53.83
659.74	0.00
659.89	51.49
660.03	72.56
660.17	65.54
660.32	0.00
660.46	67.88
660.60	30.43
660.74	51.49
660.89	0.00
661.03	72.56
661.17	46.81
661.32	0.00
661.46	77.24
661.60	65.54
661.74	72.56
661.89	58.51
662.03	53.83
662.17	28.09
662.31	23.41
662.46	88.94
662.60	0.00
662.74	23.41
662.88	0.00
663.03	0.00
663.17	117.03
663.31	9.36
663.45	0.00
663.60	49.15
663.74	42.13
663.88	0.00
664.02	72.56
664.17	74.90
664.31	11.70
664.45	63.19
664.59	79.58
664.73	42.13
664.88	74.90
665.02	35.11
665.16	14.04
665.30	18.72
665.44	0.00
665.59	86.60
665.73	9.36
665.87	65.54
666.01	67.88
666.15	81.92
666.29	0.00
666.44	79.58
666.58	81.92
666.72	0.00
666.86	18.72
667.00	18.72
667.14	51.49
667.28	18.72
667.43	0.00
667.57	21.06
667.71	46.81
667.85	35.11
667.99	88.94
668.13	14.04
668.27	110.01
668.41	46.81
668.56	0.00
668.70	37.45
668.84	88.94
668.98	58.51
669.12	70.22
669.26	53.83
669.40	0.00
669.54	23.41
669.68	11.70
669.82	0.00
669.96	56.17
670.10	0.00
670.25	37.45
670.39	95.96
670.53	39.79
670.67	46.81
670.81	0.00
670.95	81.92
671.09	0.00
671.23	46.81
671.37	0.00
671.51	56.17
671.65	25.75
671.79	0.00
671.93	77.24
672.07	37.45
672.21	70.22
672.35	77.24
672.49	42.13
672.63	72.56
672.77	30.43
672.91	58.51
673.05	9.36
673.19	35.11
673.33	0.00
673.47	14.04
673.61	4.68
673.75	0.00
673.89	0.00
674.03	0.00
674.17	86.60
674.31	49.15
674.45	0.00
674.59	79.58
674.73	46.81
674.87	25.75
675.01	35.11
675.15	0.00
675.29	46.81
675.43	30.43
675.56	0.00
675.70	67.88
675.84	79.58
675.98	98.30
676.12	91.28
676.26	81.92
676.40	7.02
676.54	16.38
676.68	0.00
676.82	23.41
676.96	51.49
677.10	25.75
677.23	65.54
677.37	16.38
677.51	63.19
677.65	63.19
677.79	0.00
677.93	0.00
678.07	65.54
678.21	58.51
678.34	102.98
678.48	23.41
678.62	0.00
678.76	0.00
678.90	7.02
679.04	77.24
679.18	0.00
679.31	70.22
679.45	23.41
679.59	110.01
679.73	14.04
679.87	30.43
680.00	0.00
680.14	60.85
680.28	16.38
680.42	35.11
680.56	0.00
680.70	32.77
680.83	60.85
680.97	42.13
681.11	16.38
681.25	30.43
681.39	0.00
681.52	53.83
681.66	35.11
681.80	88.94
681.94	39.79
682.07	32.77
682.21	11.70
682.35	32.77
682.49	28.09
682.62	56.17
682.76	0.00
682.90	30.43
683.04	60.85
683.17	16.38
683.31	28.09
683.45	37.45
683.59	30.43
683.72	46.81
683.86	58.51
684.00	86.60
684.13	0.00
684.27	39.79
684.41	14.04
684.55	0.00
684.68	114.69
684.82	53.83
684.96	25.75
685.09	0.00
685.23	53.83
685.37	23.41
685.50	30.43
685.64	0.00
685.78	46.81
685.91	58.51
686.05	49.15
686.19	23.41
686.32	102.98
686.46	4.68
686.60	11.70
686.73	46.81
686.87	35.11
687.01	0.00
687.14	7.02
687.28	81.92
687.42	9.36
687.55	30.43
687.69	0.00
687.82	70.22
687.96	100.64
688.10	35.11
688.23	28.09
688.37	37.45
688.50	84.26
688.64	28.09
688.78	25.75
688.91	53.83
689.05	28.09
689.18	79.58
689.32	23.41
689.46	102.98
689.59	53.83
689.73	56.17
689.86	0.00
690.00	0.00
690.13	0.00
690.27	7.02
690.41	7.02
690.54	0.00
690.68	0.00
690.81	0.00
690.95	9.36
691.08	88.94
691.22	28.09
691.35	49.15
691.49	37.45
691.62	74.90
691.76	35.11
691.89	58.51
692.03	0.00
692.16	86.60
692.30	79.58
692.43	74.90
692.57	86.60
692.70	67.88
692.84	98.30
692.97	46.81
693.11	14.04
693.24	67.88
693.38	0.00
693.51	0.00
693.65	79.58
693.78	49.15
693.92	49.15
694.05	72.56
694.19	91.28
694.32	56.17
694.45	56.17
694.59	86.60
694.72	28.09
694.86	23.41
694.99	91.28
695.13	0.00
695.26	9.36
695.39	11.70
695.53	63.19
695.66	14.04
695.80	18.72
695.93	0.00
696.07	11.70
696.20	0.00
696.33	84.26
696.47	42.13
696.60	0.00
696.73	67.88
696.87	39.79
697.00	58.51
697.14	72.56
697.27	11.70
697.40	35.11
697.54	11.70
697.67	25.75
697.80	86.60
697.94	0.00
698.07	46.81
698.21	25.75
698.34	107.66
698.47	58.51
698.61	35.11
698.74	9.36
698.87	86.60
699.01	23.41
699.14	0.00
699.27	49.15
699.40	53.83
699.54	86.60
699.67	95.96
699.80	77.24
699.94	37.45
700.07	0.00
700.20	86.60
700.34	51.49
700.47	44.47
700.60	9.36
700.73	56.17
700.87	0.00
701.00	0.00
701.13	28.09
701.26	9.36
701.40	51.49
701.53	51.49
701.66	18.72
701.79	35.11
701.93	0.00
702.06	0.00
702.19	98.30
702.32	18.72
702.46	84.26
702.59	63.19
702.72	84.26
702.85	0.00
702.99	65.54
703.12	81.92
703.25	25.75
703.38	35.11
703.51	21.06
703.65	0.00
703.78	49.15
703.91	79.58
704.04	0.00
704.17	0.00
704.31	51.49
704.44	9.36
704.57	63.19
704.70	28.09
704.83	105.32
704.96	11.70
705.10	0.00
705.23	21.06
>>>>>End Processed Spectral Data<<<<<
