SpectraSuite Data File
++++++++++++++++++++++++++++++++++++
Date: Fri Oct 04 12:13:45 GMT-05:00 2013
User: price-jones
Dark Spectrum Present: No
Reference Spectrum Present: No
Number of Sampled Component Spectra: 1
Spectrometers: USB2+H05261
Integration Time (usec): 10000 (USB2+H05261)
Spectra Averaged: 1 (USB2+H05261)
Boxcar Smoothing: 0 (USB2+H05261)
Correct for Electrical Dark: No (USB2+H05261)
Strobe/Lamp Enabled: No (USB2+H05261)
Correct for Detector Non-linearity: No (USB2+H05261)
Correct for Stray Light: No (USB2+H05261)
Number of Pixels in Processed Spectrum: 2048
>>>>>Begin Processed Spectral Data<<<<<
365.73	0.00
365.92	0.00
366.12	0.00
366.32	0.00
366.52	0.00
366.72	0.00
366.91	0.00
367.11	0.00
367.31	0.00
367.51	0.00
367.70	0.00
367.90	0.00
368.10	0.00
368.30	0.00
368.49	0.00
368.69	0.00
368.89	0.00
369.09	0.00
369.28	0.00
369.48	0.00
369.68	0.00
369.87	0.00
370.07	0.00
370.27	0.00
370.47	0.00
370.66	0.00
370.86	0.00
371.06	0.00
371.25	16.38
371.45	18.72
371.65	0.00
371.84	7.02
372.04	35.11
372.24	23.41
372.44	25.75
372.63	32.77
372.83	0.00
373.03	0.00
373.22	30.43
373.42	0.00
373.62	42.13
373.81	28.09
374.01	81.92
374.21	56.17
374.40	63.19
374.60	63.19
374.79	37.45
374.99	42.13
375.19	0.00
375.38	4.68
375.58	4.68
375.78	70.22
375.97	53.83
376.17	60.85
376.37	23.41
376.56	4.68
376.76	0.00
376.95	30.43
377.15	28.09
377.35	44.47
377.54	9.36
377.74	21.06
377.93	16.38
378.13	25.75
378.33	7.02
378.52	0.00
378.72	0.00
378.91	60.85
379.11	0.00
379.31	0.00
379.50	51.49
379.70	39.79
379.89	0.00
380.09	18.72
380.28	46.81
380.48	32.77
380.68	0.00
380.87	30.43
381.07	18.72
381.26	53.83
381.46	32.77
381.65	56.17
381.85	0.00
382.04	37.45
382.24	0.00
382.43	0.00
382.63	0.00
382.83	60.85
383.02	63.19
383.22	0.00
383.41	42.13
383.61	53.83
383.80	46.81
384.00	2.34
384.19	28.09
384.39	14.04
384.58	53.83
384.78	0.00
384.97	35.11
385.17	0.00
385.36	42.13
385.56	14.04
385.75	39.79
385.95	0.00
386.14	11.70
386.34	4.68
386.53	79.58
386.72	37.45
386.92	16.38
387.11	16.38
387.31	44.47
387.50	0.00
387.70	0.00
387.89	49.15
388.09	58.51
388.28	0.00
388.48	0.00
388.67	4.68
388.86	39.79
389.06	46.81
389.25	7.02
389.45	0.00
389.64	49.15
389.84	60.85
390.03	0.00
390.22	14.04
390.42	21.06
390.61	0.00
390.81	9.36
391.00	35.11
391.19	0.00
391.39	0.00
391.58	32.77
391.78	0.00
391.97	2.34
392.16	23.41
392.36	0.00
392.55	32.77
392.75	11.70
392.94	39.79
393.13	28.09
393.33	37.45
393.52	0.00
393.71	0.00
393.91	0.00
394.10	100.64
394.29	39.79
394.49	9.36
394.68	39.79
394.88	91.28
395.07	16.38
395.26	0.00
395.46	0.00
395.65	42.13
395.84	23.41
396.04	84.26
396.23	79.58
396.42	44.47
396.62	39.79
396.81	70.22
397.00	58.51
397.19	21.06
397.39	25.75
397.58	16.38
397.77	0.00
397.97	4.68
398.16	42.13
398.35	4.68
398.55	44.47
398.74	0.00
398.93	51.49
399.12	63.19
399.32	30.43
399.51	23.41
399.70	32.77
399.90	9.36
400.09	65.54
400.28	79.58
400.47	39.79
400.67	44.47
400.86	49.15
401.05	14.04
401.24	58.51
401.44	0.00
401.63	0.00
401.82	42.13
402.01	18.72
402.21	56.17
402.40	49.15
402.59	39.79
402.78	0.00
402.97	63.19
403.17	9.36
403.36	79.58
403.55	114.69
403.74	23.41
403.93	30.43
404.13	16.38
404.32	98.30
404.51	4.68
404.70	0.00
404.89	119.37
405.09	67.88
405.28	21.06
405.47	37.45
405.66	65.54
405.85	56.17
406.05	0.00
406.24	9.36
406.43	21.06
406.62	0.00
406.81	18.72
407.00	65.54
407.20	7.02
407.39	18.72
407.58	25.75
407.77	11.70
407.96	39.79
408.15	58.51
408.34	28.09
408.54	79.58
408.73	21.06
408.92	0.00
409.11	18.72
409.30	51.49
409.49	72.56
409.68	18.72
409.87	58.51
410.07	28.09
410.26	0.00
410.45	39.79
410.64	0.00
410.83	21.06
411.02	65.54
411.21	51.49
411.40	72.56
411.59	56.17
411.78	32.77
411.98	23.41
412.17	4.68
412.36	35.11
412.55	79.58
412.74	0.00
412.93	86.60
413.12	60.85
413.31	49.15
413.50	11.70
413.69	46.81
413.88	4.68
414.07	11.70
414.26	0.00
414.45	60.85
414.64	0.00
414.83	0.00
415.02	95.96
415.22	119.37
415.41	37.45
415.60	0.00
415.79	16.38
415.98	51.49
416.17	23.41
416.36	0.00
416.55	0.00
416.74	35.11
416.93	72.56
417.12	0.00
417.31	58.51
417.50	84.26
417.69	77.24
417.88	11.70
418.07	70.22
418.26	79.58
418.45	2.34
418.64	49.15
418.83	65.54
419.02	30.43
419.21	18.72
419.39	44.47
419.58	49.15
419.77	39.79
419.96	56.17
420.15	25.75
420.34	25.75
420.53	4.68
420.72	16.38
420.91	70.22
421.10	67.88
421.29	77.24
421.48	44.47
421.67	25.75
421.86	37.45
422.05	16.38
422.24	21.06
422.43	14.04
422.61	98.30
422.80	65.54
422.99	126.39
423.18	0.00
423.37	16.38
423.56	39.79
423.75	60.85
423.94	65.54
424.13	46.81
424.32	30.43
424.50	60.85
424.69	18.72
424.88	25.75
425.07	46.81
425.26	16.38
425.45	84.26
425.64	67.88
425.83	65.54
426.01	37.45
426.20	0.00
426.39	0.00
426.58	23.41
426.77	42.13
426.96	37.45
427.15	32.77
427.33	95.96
427.52	16.38
427.71	65.54
427.90	93.62
428.09	35.11
428.28	0.00
428.46	18.72
428.65	11.70
428.84	32.77
429.03	32.77
429.22	0.00
429.40	0.00
429.59	4.68
429.78	0.00
429.97	51.49
430.16	25.75
430.34	53.83
430.53	58.51
430.72	23.41
430.91	23.41
431.10	18.72
431.28	39.79
431.47	53.83
431.66	32.77
431.85	0.00
432.03	39.79
432.22	42.13
432.41	63.19
432.60	18.72
432.79	93.62
432.97	46.81
433.16	35.11
433.35	56.17
433.54	46.81
433.72	37.45
433.91	0.00
434.10	39.79
434.28	32.77
434.47	35.11
434.66	7.02
434.85	14.04
435.03	14.04
435.22	65.54
435.41	63.19
435.59	9.36
435.78	25.75
435.97	49.15
436.16	58.51
436.34	25.75
436.53	4.68
436.72	30.43
436.90	35.11
437.09	4.68
437.28	11.70
437.46	16.38
437.65	53.83
437.84	35.11
438.02	28.09
438.21	0.00
438.40	88.94
438.58	14.04
438.77	39.79
438.96	95.96
439.14	23.41
439.33	0.00
439.52	18.72
439.70	70.22
439.89	0.00
440.08	14.04
440.26	23.41
440.45	9.36
440.63	0.00
440.82	0.00
441.01	79.58
441.19	28.09
441.38	0.00
441.57	81.92
441.75	49.15
441.94	32.77
442.12	30.43
442.31	49.15
442.50	0.00
442.68	0.00
442.87	25.75
443.05	39.79
443.24	30.43
443.43	72.56
443.61	39.79
443.80	46.81
443.98	60.85
444.17	23.41
444.35	16.38
444.54	67.88
444.73	58.51
444.91	14.04
445.10	4.68
445.28	37.45
445.47	0.00
445.65	7.02
445.84	0.00
446.02	11.70
446.21	46.81
446.39	51.49
446.58	23.41
446.77	124.05
446.95	65.54
447.14	0.00
447.32	46.81
447.51	28.09
447.69	4.68
447.88	0.00
448.06	4.68
448.25	30.43
448.43	7.02
448.62	0.00
448.80	18.72
448.99	81.92
449.17	65.54
449.36	25.75
449.54	39.79
449.73	30.43
449.91	98.30
450.10	49.15
450.28	0.00
450.46	28.09
450.65	65.54
450.83	60.85
451.02	7.02
451.20	44.47
451.39	65.54
451.57	25.75
451.76	37.45
451.94	18.72
452.13	28.09
452.31	63.19
452.49	0.00
452.68	0.00
452.86	0.00
453.05	84.26
453.23	0.00
453.42	23.41
453.60	79.58
453.78	14.04
453.97	0.00
454.15	42.13
454.34	46.81
454.52	46.81
454.70	39.79
454.89	46.81
455.07	70.22
455.26	51.49
455.44	14.04
455.62	70.22
455.81	81.92
455.99	72.56
456.17	74.90
456.36	32.77
456.54	44.47
456.73	0.00
456.91	30.43
457.09	0.00
457.28	23.41
457.46	49.15
457.64	74.90
457.83	86.60
458.01	119.37
458.19	77.24
458.38	35.11
458.56	74.90
458.74	37.45
458.93	93.62
459.11	44.47
459.29	53.83
459.48	23.41
459.66	9.36
459.84	0.00
460.03	21.06
460.21	72.56
460.39	25.75
460.57	28.09
460.76	14.04
460.94	95.96
461.12	100.64
461.31	72.56
461.49	21.06
461.67	56.17
461.85	7.02
462.04	98.30
462.22	95.96
462.40	14.04
462.59	14.04
462.77	49.15
462.95	4.68
463.13	4.68
463.32	16.38
463.50	23.41
463.68	77.24
463.86	2.34
464.05	60.85
464.23	25.75
464.41	25.75
464.59	51.49
464.78	9.36
464.96	46.81
465.14	49.15
465.32	98.30
465.50	102.98
465.69	84.26
465.87	0.00
466.05	58.51
466.23	110.01
466.41	0.00
466.60	65.54
466.78	23.41
466.96	4.68
467.14	86.60
467.32	30.43
467.51	63.19
467.69	21.06
467.87	46.81
468.05	81.92
468.23	42.13
468.41	46.81
468.60	21.06
468.78	39.79
468.96	23.41
469.14	51.49
469.32	35.11
469.50	0.00
469.69	14.04
469.87	28.09
470.05	95.96
470.23	11.70
470.41	7.02
470.59	2.34
470.77	91.28
470.95	42.13
471.14	60.85
471.32	49.15
471.50	102.98
471.68	30.43
471.86	95.96
472.04	46.81
472.22	112.35
472.40	28.09
472.58	0.00
472.77	25.75
472.95	30.43
473.13	25.75
473.31	21.06
473.49	25.75
473.67	0.00
473.85	65.54
474.03	65.54
474.21	72.56
474.39	60.85
474.57	51.49
474.75	30.43
474.93	110.01
475.12	11.70
475.30	86.60
475.48	11.70
475.66	70.22
475.84	70.22
476.02	25.75
476.20	49.15
476.38	30.43
476.56	49.15
476.74	0.00
476.92	0.00
477.10	18.72
477.28	0.00
477.46	81.92
477.64	28.09
477.82	74.90
478.00	9.36
478.18	25.75
478.36	51.49
478.54	81.92
478.72	0.00
478.90	72.56
479.08	105.32
479.26	14.04
479.44	53.83
479.62	30.43
479.80	30.43
479.98	44.47
480.16	2.34
480.34	107.66
480.52	67.88
480.70	67.88
480.88	58.51
481.06	84.26
481.24	0.00
481.41	25.75
481.59	53.83
481.77	30.43
481.95	49.15
482.13	84.26
482.31	84.26
482.49	0.00
482.67	72.56
482.85	70.22
483.03	32.77
483.21	42.13
483.39	117.03
483.57	37.45
483.74	23.41
483.92	0.00
484.10	16.38
484.28	67.88
484.46	49.15
484.64	60.85
484.82	37.45
485.00	56.17
485.18	67.88
485.35	140.43
485.53	46.81
485.71	88.94
485.89	39.79
486.07	72.56
486.25	110.01
486.43	25.75
486.61	60.85
486.78	67.88
486.96	93.62
487.14	91.28
487.32	23.41
487.50	63.19
487.68	81.92
487.85	35.11
488.03	81.92
488.21	102.98
488.39	91.28
488.57	0.00
488.75	51.49
488.92	30.43
489.10	30.43
489.28	35.11
489.46	112.35
489.64	163.84
489.81	53.83
489.99	114.69
490.17	42.13
490.35	84.26
490.53	70.22
490.70	44.47
490.88	32.77
491.06	2.34
491.24	65.54
491.41	102.98
491.59	79.58
491.77	102.98
491.95	60.85
492.13	49.15
492.30	60.85
492.48	7.02
492.66	65.54
492.84	128.73
493.01	49.15
493.19	91.28
493.37	112.35
493.54	86.60
493.72	49.15
493.90	161.50
494.08	72.56
494.25	107.66
494.43	133.41
494.61	74.90
494.79	42.13
494.96	42.13
495.14	58.51
495.32	56.17
495.49	124.05
495.67	25.75
495.85	0.00
496.02	28.09
496.20	53.83
496.38	51.49
496.55	0.00
496.73	39.79
496.91	42.13
497.09	84.26
497.26	79.58
497.44	53.83
497.62	49.15
497.79	67.88
497.97	95.96
498.14	79.58
498.32	70.22
498.50	23.41
498.67	84.26
498.85	32.77
499.03	21.06
499.20	84.26
499.38	28.09
499.56	88.94
499.73	28.09
499.91	23.41
500.08	35.11
500.26	91.28
500.44	67.88
500.61	81.92
500.79	107.66
500.97	131.07
501.14	102.98
501.32	32.77
501.49	0.00
501.67	98.30
501.84	81.92
502.02	11.70
502.20	126.39
502.37	114.69
502.55	49.15
502.72	30.43
502.90	25.75
503.07	23.41
503.25	81.92
503.43	44.47
503.60	46.81
503.78	51.49
503.95	37.45
504.13	23.41
504.30	81.92
504.48	56.17
504.65	16.38
504.83	0.00
505.01	21.06
505.18	30.43
505.36	7.02
505.53	35.11
505.71	72.56
505.88	2.34
506.06	121.71
506.23	65.54
506.41	32.77
506.58	107.66
506.76	58.51
506.93	0.00
507.11	93.62
507.28	42.13
507.46	147.45
507.63	67.88
507.81	46.81
507.98	74.90
508.16	53.83
508.33	4.68
508.50	58.51
508.68	49.15
508.85	107.66
509.03	18.72
509.20	79.58
509.38	37.45
509.55	32.77
509.73	56.17
509.90	79.58
510.08	18.72
510.25	21.06
510.42	14.04
510.60	11.70
510.77	0.00
510.95	0.00
511.12	30.43
511.30	16.38
511.47	30.43
511.64	21.06
511.82	21.06
511.99	102.98
512.17	2.34
512.34	46.81
512.51	14.04
512.69	93.62
512.86	100.64
513.04	98.30
513.21	81.92
513.38	16.38
513.56	0.00
513.73	32.77
513.90	9.36
514.08	0.00
514.25	39.79
514.43	23.41
514.60	25.75
514.77	63.19
514.95	28.09
515.12	32.77
515.29	4.68
515.47	93.62
515.64	77.24
515.81	39.79
515.99	30.43
516.16	25.75
516.33	53.83
516.51	28.09
516.68	42.13
516.85	88.94
517.03	23.41
517.20	72.56
517.37	0.00
517.54	4.68
517.72	16.38
517.89	0.00
518.06	49.15
518.24	39.79
518.41	49.15
518.58	0.00
518.75	77.24
518.93	25.75
519.10	88.94
519.27	37.45
519.45	35.11
519.62	77.24
519.79	107.66
519.96	16.38
520.14	9.36
520.31	72.56
520.48	74.90
520.65	0.00
520.83	63.19
521.00	84.26
521.17	60.85
521.34	35.11
521.52	60.85
521.69	46.81
521.86	14.04
522.03	86.60
522.20	51.49
522.38	16.38
522.55	117.03
522.72	112.35
522.89	23.41
523.07	35.11
523.24	67.88
523.41	93.62
523.58	7.02
523.75	117.03
523.92	49.15
524.10	60.85
524.27	74.90
524.44	114.69
524.61	79.58
524.78	72.56
524.96	58.51
525.13	0.00
525.30	102.98
525.47	25.75
525.64	53.83
525.81	7.02
525.98	46.81
526.16	91.28
526.33	35.11
526.50	107.66
526.67	23.41
526.84	74.90
527.01	9.36
527.18	88.94
527.36	37.45
527.53	0.00
527.70	0.00
527.87	0.00
528.04	110.01
528.21	58.51
528.38	88.94
528.55	0.00
528.72	7.02
528.89	44.47
529.07	11.70
529.24	53.83
529.41	21.06
529.58	18.72
529.75	74.90
529.92	105.32
530.09	126.39
530.26	63.19
530.43	70.22
530.60	25.75
530.77	86.60
530.94	51.49
531.11	28.09
531.28	79.58
531.46	84.26
531.63	93.62
531.80	72.56
531.97	35.11
532.14	65.54
532.31	39.79
532.48	58.51
532.65	79.58
532.82	74.90
532.99	39.79
533.16	93.62
533.33	37.45
533.50	100.64
533.67	21.06
533.84	60.85
534.01	65.54
534.18	44.47
534.35	28.09
534.52	72.56
534.69	0.00
534.86	2.34
535.03	67.88
535.20	42.13
535.37	14.04
535.54	9.36
535.71	72.56
535.88	53.83
536.05	142.77
536.22	102.98
536.38	2.34
536.55	0.00
536.72	39.79
536.89	32.77
537.06	39.79
537.23	16.38
537.40	39.79
537.57	44.47
537.74	30.43
537.91	79.58
538.08	65.54
538.25	58.51
538.42	56.17
538.59	30.43
538.75	67.88
538.92	14.04
539.09	21.06
539.26	28.09
539.43	65.54
539.60	0.00
539.77	42.13
539.94	77.24
540.11	46.81
540.28	84.26
540.44	88.94
540.61	84.26
540.78	44.47
540.95	44.47
541.12	18.72
541.29	35.11
541.46	77.24
541.62	128.73
541.79	0.00
541.96	70.22
542.13	0.00
542.30	30.43
542.47	25.75
542.63	74.90
542.80	77.24
542.97	53.83
543.14	0.00
543.31	0.00
543.48	2.34
543.64	81.92
543.81	88.94
543.98	0.00
544.15	0.00
544.32	88.94
544.48	53.83
544.65	81.92
544.82	67.88
544.99	30.43
545.16	70.22
545.32	110.01
545.49	105.32
545.66	58.51
545.83	23.41
546.00	46.81
546.16	0.00
546.33	9.36
546.50	0.00
546.67	102.98
546.83	58.51
547.00	93.62
547.17	65.54
547.34	21.06
547.50	56.17
547.67	84.26
547.84	21.06
548.00	126.39
548.17	63.19
548.34	4.68
548.51	60.85
548.67	70.22
548.84	49.15
549.01	51.49
549.18	46.81
549.34	53.83
549.51	56.17
549.68	56.17
549.84	128.73
550.01	79.58
550.18	0.00
550.34	30.43
550.51	72.56
550.68	67.88
550.84	121.71
551.01	74.90
551.18	23.41
551.34	53.83
551.51	110.01
551.68	65.54
551.84	110.01
552.01	79.58
552.18	126.39
552.34	72.56
552.51	18.72
552.68	124.05
552.84	46.81
553.01	98.30
553.18	95.96
553.34	53.83
553.51	0.00
553.67	37.45
553.84	35.11
554.01	77.24
554.17	42.13
554.34	112.35
554.51	49.15
554.67	35.11
554.84	77.24
555.00	51.49
555.17	0.00
555.33	0.00
555.50	79.58
555.67	49.15
555.83	67.88
556.00	49.15
556.16	65.54
556.33	0.00
556.50	65.54
556.66	16.38
556.83	44.47
556.99	30.43
557.16	0.00
557.32	77.24
557.49	14.04
557.65	0.00
557.82	21.06
557.98	84.26
558.15	93.62
558.32	0.00
558.48	128.73
558.65	93.62
558.81	79.58
558.98	16.38
559.14	16.38
559.31	79.58
559.47	42.13
559.64	65.54
559.80	81.92
559.97	60.85
560.13	0.00
560.30	46.81
560.46	93.62
560.63	49.15
560.79	79.58
560.96	23.41
561.12	0.00
561.29	86.60
561.45	81.92
561.61	0.00
561.78	44.47
561.94	128.73
562.11	44.47
562.27	18.72
562.44	0.00
562.60	35.11
562.77	35.11
562.93	105.32
563.10	105.32
563.26	2.34
563.42	117.03
563.59	74.90
563.75	11.70
563.92	84.26
564.08	110.01
564.24	119.37
564.41	86.60
564.57	93.62
564.74	58.51
564.90	35.11
565.07	0.00
565.23	46.81
565.39	58.51
565.56	60.85
565.72	28.09
565.88	112.35
566.05	65.54
566.21	46.81
566.38	124.05
566.54	93.62
566.70	84.26
566.87	35.11
567.03	28.09
567.19	25.75
567.36	81.92
567.52	56.17
567.68	102.98
567.85	70.22
568.01	72.56
568.17	58.51
568.34	60.85
568.50	4.68
568.66	133.41
568.83	39.79
568.99	51.49
569.15	91.28
569.32	14.04
569.48	46.81
569.64	53.83
569.81	4.68
569.97	30.43
570.13	21.06
570.30	51.49
570.46	51.49
570.62	86.60
570.78	60.85
570.95	77.24
571.11	102.98
571.27	23.41
571.43	46.81
571.60	21.06
571.76	81.92
571.92	49.15
572.09	16.38
572.25	0.00
572.41	72.56
572.57	119.37
572.74	0.00
572.90	56.17
573.06	51.49
573.22	9.36
573.38	14.04
573.55	88.94
573.71	110.01
573.87	72.56
574.03	102.98
574.20	77.24
574.36	72.56
574.52	42.13
574.68	18.72
574.84	56.17
575.01	0.00
575.17	44.47
575.33	93.62
575.49	56.17
575.65	63.19
575.82	58.51
575.98	53.83
576.14	58.51
576.30	51.49
576.46	121.71
576.62	100.64
576.79	159.16
576.95	105.32
577.11	9.36
577.27	65.54
577.43	91.28
577.59	95.96
577.75	79.58
577.92	84.26
578.08	30.43
578.24	18.72
578.40	98.30
578.56	21.06
578.72	39.79
578.88	21.06
579.04	16.38
579.21	18.72
579.37	77.24
579.53	51.49
579.69	88.94
579.85	21.06
580.01	79.58
580.17	23.41
580.33	0.00
580.49	32.77
580.65	42.13
580.82	32.77
580.98	53.83
581.14	23.41
581.30	0.00
581.46	72.56
581.62	28.09
581.78	0.00
581.94	84.26
582.10	11.70
582.26	49.15
582.42	79.58
582.58	9.36
582.74	131.07
582.90	0.00
583.06	77.24
583.22	23.41
583.38	0.00
583.54	81.92
583.70	23.41
583.86	53.83
584.02	79.58
584.18	102.98
584.34	84.26
584.50	91.28
584.66	9.36
584.82	112.35
584.98	30.43
585.14	0.00
585.30	32.77
585.46	49.15
585.62	46.81
585.78	0.00
585.94	102.98
586.10	35.11
586.26	67.88
586.42	79.58
586.58	46.81
586.74	46.81
586.90	32.77
587.06	51.49
587.22	67.88
587.38	102.98
587.54	14.04
587.70	74.90
587.86	37.45
588.02	25.75
588.18	28.09
588.34	11.70
588.49	79.58
588.65	49.15
588.81	53.83
588.97	39.79
589.13	42.13
589.29	42.13
589.45	65.54
589.61	0.00
589.77	63.19
589.93	35.11
590.08	21.06
590.24	86.60
590.40	39.79
590.56	105.32
590.72	74.90
590.88	0.00
591.04	32.77
591.20	60.85
591.35	23.41
591.51	0.00
591.67	51.49
591.83	135.75
591.99	63.19
592.15	30.43
592.31	9.36
592.46	56.17
592.62	0.00
592.78	42.13
592.94	21.06
593.10	25.75
593.26	112.35
593.41	0.00
593.57	46.81
593.73	37.45
593.89	42.13
594.05	119.37
594.20	32.77
594.36	60.85
594.52	28.09
594.68	60.85
594.84	49.15
594.99	100.64
595.15	77.24
595.31	51.49
595.47	63.19
595.62	100.64
595.78	39.79
595.94	0.00
596.10	58.51
596.25	16.38
596.41	30.43
596.57	42.13
596.73	49.15
596.88	72.56
597.04	21.06
597.20	72.56
597.36	105.32
597.51	56.17
597.67	119.37
597.83	102.98
597.99	16.38
598.14	4.68
598.30	21.06
598.46	35.11
598.61	65.54
598.77	86.60
598.93	72.56
599.09	126.39
599.24	79.58
599.40	23.41
599.56	121.71
599.71	72.56
599.87	44.47
600.03	49.15
600.18	117.03
600.34	105.32
600.50	56.17
600.65	0.00
600.81	11.70
600.97	67.88
601.12	14.04
601.28	28.09
601.44	42.13
601.59	39.79
601.75	39.79
601.91	88.94
602.06	86.60
602.22	117.03
602.37	98.30
602.53	0.00
602.69	74.90
602.84	58.51
603.00	114.69
603.16	138.09
603.31	84.26
603.47	95.96
603.62	49.15
603.78	95.96
603.94	0.00
604.09	4.68
604.25	56.17
604.40	105.32
604.56	49.15
604.71	93.62
604.87	42.13
605.03	28.09
605.18	30.43
605.34	72.56
605.49	91.28
605.65	77.24
605.80	35.11
605.96	4.68
606.12	114.69
606.27	25.75
606.43	93.62
606.58	91.28
606.74	28.09
606.89	51.49
607.05	23.41
607.20	39.79
607.36	25.75
607.51	98.30
607.67	67.88
607.82	63.19
607.98	18.72
608.13	58.51
608.29	30.43
608.44	105.32
608.60	18.72
608.75	77.24
608.91	44.47
609.06	16.38
609.22	25.75
609.37	21.06
609.53	7.02
609.68	9.36
609.84	70.22
609.99	44.47
610.15	49.15
610.30	11.70
610.46	56.17
610.61	9.36
610.76	0.00
610.92	0.00
611.07	98.30
611.23	23.41
611.38	107.66
611.54	37.45
611.69	0.00
611.84	51.49
612.00	60.85
612.15	86.60
612.31	37.45
612.46	86.60
612.62	84.26
612.77	156.82
612.92	0.00
613.08	37.45
613.23	70.22
613.39	95.96
613.54	95.96
613.69	63.19
613.85	117.03
614.00	44.47
614.15	18.72
614.31	100.64
614.46	32.77
614.62	119.37
614.77	21.06
614.92	37.45
615.08	46.81
615.23	21.06
615.38	51.49
615.54	25.75
615.69	30.43
615.84	0.00
616.00	58.51
616.15	23.41
616.30	23.41
616.46	58.51
616.61	0.00
616.76	35.11
616.92	72.56
617.07	30.43
617.22	67.88
617.37	28.09
617.53	23.41
617.68	0.00
617.83	44.47
617.99	77.24
618.14	37.45
618.29	42.13
618.45	2.34
618.60	0.00
618.75	0.00
618.90	77.24
619.06	63.19
619.21	77.24
619.36	11.70
619.51	14.04
619.67	60.85
619.82	91.28
619.97	88.94
620.12	0.00
620.28	42.13
620.43	46.81
620.58	100.64
620.73	30.43
620.89	0.00
621.04	42.13
621.19	42.13
621.34	44.47
621.49	39.79
621.65	88.94
621.80	88.94
621.95	30.43
622.10	49.15
622.25	16.38
622.41	0.00
622.56	72.56
622.71	72.56
622.86	49.15
623.01	117.03
623.16	44.47
623.32	25.75
623.47	16.38
623.62	84.26
623.77	93.62
623.92	28.09
624.07	7.02
624.23	46.81
624.38	4.68
624.53	30.43
624.68	84.26
624.83	25.75
624.98	145.11
625.13	112.35
625.29	16.38
625.44	23.41
625.59	39.79
625.74	44.47
625.89	32.77
626.04	58.51
626.19	21.06
626.34	25.75
626.49	0.00
626.65	0.00
626.80	107.66
626.95	35.11
627.10	0.00
627.25	25.75
627.40	4.68
627.55	60.85
627.70	51.49
627.85	65.54
628.00	72.56
628.15	110.01
628.30	65.54
628.45	4.68
628.60	51.49
628.76	95.96
628.91	121.71
629.06	124.05
629.21	18.72
629.36	0.00
629.51	42.13
629.66	46.81
629.81	16.38
629.96	72.56
630.11	16.38
630.26	9.36
630.41	65.54
630.56	14.04
630.71	67.88
630.86	67.88
631.01	42.13
631.16	37.45
631.31	67.88
631.46	44.47
631.61	0.00
631.76	51.49
631.91	49.15
632.06	58.51
632.21	37.45
632.36	42.13
632.51	98.30
632.66	58.51
632.81	53.83
632.96	16.38
633.10	98.30
633.25	51.49
633.40	25.75
633.55	16.38
633.70	77.24
633.85	60.85
634.00	30.43
634.15	42.13
634.30	70.22
634.45	107.66
634.60	37.45
634.75	70.22
634.90	63.19
635.05	35.11
635.19	88.94
635.34	30.43
635.49	7.02
635.64	30.43
635.79	18.72
635.94	21.06
636.09	39.79
636.24	7.02
636.39	30.43
636.53	72.56
636.68	63.19
636.83	49.15
636.98	98.30
637.13	56.17
637.28	93.62
637.43	65.54
637.57	0.00
637.72	56.17
637.87	149.79
638.02	44.47
638.17	11.70
638.32	67.88
638.46	0.00
638.61	37.45
638.76	117.03
638.91	30.43
639.06	7.02
639.20	44.47
639.35	39.79
639.50	44.47
639.65	95.96
639.80	37.45
639.94	49.15
640.09	63.19
640.24	67.88
640.39	23.41
640.54	49.15
640.68	28.09
640.83	81.92
640.98	60.85
641.13	11.70
641.27	30.43
641.42	35.11
641.57	86.60
641.72	88.94
641.86	105.32
642.01	11.70
642.16	25.75
642.31	74.90
642.45	16.38
642.60	67.88
642.75	58.51
642.90	32.77
643.04	18.72
643.19	18.72
643.34	23.41
643.48	16.38
643.63	74.90
643.78	58.51
643.93	91.28
644.07	86.60
644.22	63.19
644.37	35.11
644.51	23.41
644.66	56.17
644.81	77.24
644.95	60.85
645.10	53.83
645.25	93.62
645.39	0.00
645.54	93.62
645.69	35.11
645.83	0.00
645.98	42.13
646.13	30.43
646.27	51.49
646.42	86.60
646.57	7.02
646.71	70.22
646.86	11.70
647.00	51.49
647.15	65.54
647.30	74.90
647.44	0.00
647.59	58.51
647.74	65.54
647.88	16.38
648.03	0.00
648.17	0.00
648.32	100.64
648.47	81.92
648.61	67.88
648.76	70.22
648.90	67.88
649.05	46.81
649.20	39.79
649.34	74.90
649.49	25.75
649.63	58.51
649.78	46.81
649.92	2.34
650.07	56.17
650.21	39.79
650.36	11.70
650.51	39.79
650.65	9.36
650.80	44.47
650.94	39.79
651.09	35.11
651.23	0.00
651.38	39.79
651.52	77.24
651.67	21.06
651.81	53.83
651.96	32.77
652.10	60.85
652.25	46.81
652.39	46.81
652.54	0.00
652.68	74.90
652.83	0.00
652.97	58.51
653.12	105.32
653.26	9.36
653.41	4.68
653.55	46.81
653.70	91.28
653.84	63.19
653.99	37.45
654.13	32.77
654.27	77.24
654.42	14.04
654.56	23.41
654.71	84.26
654.85	0.00
655.00	46.81
655.14	39.79
655.29	77.24
655.43	21.06
655.57	23.41
655.72	18.72
655.86	67.88
656.01	42.13
656.15	88.94
656.30	79.58
656.44	46.81
656.58	49.15
656.73	63.19
656.87	0.00
657.01	11.70
657.16	65.54
657.30	44.47
657.45	30.43
657.59	42.13
657.73	77.24
657.88	18.72
658.02	0.00
658.16	49.15
658.31	42.13
658.45	65.54
658.60	35.11
658.74	0.00
658.88	53.83
659.03	0.00
659.17	42.13
659.31	102.98
659.46	0.00
659.60	51.49
659.74	56.17
659.89	56.17
660.03	53.83
660.17	121.71
660.32	16.38
660.46	7.02
660.60	53.83
660.74	58.51
660.89	30.43
661.03	35.11
661.17	2.34
661.32	70.22
661.46	16.38
661.60	53.83
661.74	79.58
661.89	114.69
662.03	60.85
662.17	49.15
662.31	91.28
662.46	0.00
662.60	53.83
662.74	0.00
662.88	25.75
663.03	79.58
663.17	63.19
663.31	9.36
663.45	0.00
663.60	9.36
663.74	37.45
663.88	0.00
664.02	79.58
664.17	2.34
664.31	2.34
664.45	30.43
664.59	0.00
664.73	14.04
664.88	0.00
665.02	0.00
665.16	30.43
665.30	39.79
665.44	107.66
665.59	56.17
665.73	21.06
665.87	42.13
666.01	56.17
666.15	91.28
666.29	65.54
666.44	67.88
666.58	32.77
666.72	58.51
666.86	67.88
667.00	0.00
667.14	79.58
667.28	7.02
667.43	35.11
667.57	23.41
667.71	0.00
667.85	56.17
667.99	25.75
668.13	0.00
668.27	53.83
668.41	4.68
668.56	0.00
668.70	67.88
668.84	102.98
668.98	32.77
669.12	37.45
669.26	95.96
669.40	74.90
669.54	49.15
669.68	77.24
669.82	0.00
669.96	60.85
670.10	77.24
670.25	0.00
670.39	35.11
670.53	35.11
670.67	42.13
670.81	44.47
670.95	102.98
671.09	28.09
671.23	46.81
671.37	14.04
671.51	77.24
671.65	35.11
671.79	0.00
671.93	0.00
672.07	32.77
672.21	42.13
672.35	11.70
672.49	72.56
672.63	60.85
672.77	23.41
672.91	65.54
673.05	88.94
673.19	117.03
673.33	0.00
673.47	4.68
673.61	37.45
673.75	49.15
673.89	67.88
674.03	84.26
674.17	37.45
674.31	114.69
674.45	4.68
674.59	23.41
674.73	79.58
674.87	58.51
675.01	42.13
675.15	95.96
675.29	58.51
675.43	44.47
675.56	65.54
675.70	65.54
675.84	30.43
675.98	0.00
676.12	0.00
676.26	0.00
676.40	35.11
676.54	0.00
676.68	56.17
676.82	25.75
676.96	0.00
677.10	0.00
677.23	0.00
677.37	0.00
677.51	46.81
677.65	88.94
677.79	14.04
677.93	37.45
678.07	14.04
678.21	88.94
678.34	44.47
678.48	23.41
678.62	42.13
678.76	63.19
678.90	0.00
679.04	58.51
679.18	9.36
679.31	0.00
679.45	32.77
679.59	60.85
679.73	37.45
679.87	39.79
680.00	91.28
680.14	72.56
680.28	39.79
680.42	11.70
680.56	49.15
680.70	72.56
680.83	0.00
680.97	23.41
681.11	44.47
681.25	46.81
681.39	21.06
681.52	9.36
681.66	51.49
681.80	2.34
681.94	58.51
682.07	58.51
682.21	0.00
682.35	51.49
682.49	18.72
682.62	44.47
682.76	86.60
682.90	0.00
683.04	0.00
683.17	32.77
683.31	56.17
683.45	42.13
683.59	74.90
683.72	42.13
683.86	42.13
684.00	39.79
684.13	35.11
684.27	72.56
684.41	9.36
684.55	56.17
684.68	2.34
684.82	63.19
684.96	88.94
685.09	9.36
685.23	9.36
685.37	2.34
685.50	35.11
685.64	77.24
685.78	0.00
685.91	4.68
686.05	32.77
686.19	0.00
686.32	42.13
686.46	72.56
686.60	46.81
686.73	16.38
686.87	42.13
687.01	42.13
687.14	0.00
687.28	0.00
687.42	0.00
687.55	0.00
687.69	37.45
687.82	0.00
687.96	42.13
688.10	53.83
688.23	30.43
688.37	79.58
688.50	37.45
688.64	7.02
688.78	35.11
688.91	16.38
689.05	21.06
689.18	32.77
689.32	0.00
689.46	51.49
689.59	9.36
689.73	42.13
689.86	0.00
690.00	32.77
690.13	60.85
690.27	30.43
690.41	9.36
690.54	4.68
690.68	21.06
690.81	65.54
690.95	70.22
691.08	30.43
691.22	28.09
691.35	14.04
691.49	0.00
691.62	2.34
691.76	46.81
691.89	18.72
692.03	32.77
692.16	18.72
692.30	2.34
692.43	70.22
692.57	35.11
692.70	16.38
692.84	0.00
692.97	30.43
693.11	49.15
693.24	28.09
693.38	105.32
693.51	18.72
693.65	14.04
693.78	0.00
693.92	0.00
694.05	56.17
694.19	42.13
694.32	56.17
694.45	37.45
694.59	51.49
694.72	30.43
694.86	11.70
694.99	30.43
695.13	42.13
695.26	56.17
695.39	30.43
695.53	42.13
695.66	30.43
695.80	37.45
695.93	18.72
696.07	28.09
696.20	0.00
696.33	7.02
696.47	79.58
696.60	4.68
696.73	11.70
696.87	28.09
697.00	81.92
697.14	86.60
697.27	58.51
697.40	4.68
697.54	32.77
697.67	53.83
697.80	98.30
697.94	56.17
698.07	4.68
698.21	39.79
698.34	0.00
698.47	16.38
698.61	18.72
698.74	0.00
698.87	21.06
699.01	0.00
699.14	88.94
699.27	51.49
699.40	70.22
699.54	18.72
699.67	74.90
699.80	0.00
699.94	67.88
700.07	53.83
700.20	0.00
700.34	18.72
700.47	30.43
700.60	98.30
700.73	58.51
700.87	0.00
701.00	135.75
701.13	0.00
701.26	0.00
701.40	23.41
701.53	2.34
701.66	25.75
701.79	0.00
701.93	77.24
702.06	32.77
702.19	21.06
702.32	72.56
702.46	11.70
702.59	51.49
702.72	0.00
702.85	0.00
702.99	79.58
703.12	105.32
703.25	67.88
703.38	28.09
703.51	0.00
703.65	0.00
703.78	25.75
703.91	0.00
704.04	25.75
704.17	4.68
704.31	37.45
704.44	35.11
704.57	49.15
704.70	16.38
704.83	72.56
704.96	4.68
705.10	23.41
705.23	0.00
>>>>>End Processed Spectral Data<<<<<
