SpectraSuite Data File
++++++++++++++++++++++++++++++++++++
Date: Fri Oct 04 12:13:43 GMT-05:00 2013
User: price-jones
Dark Spectrum Present: No
Reference Spectrum Present: No
Number of Sampled Component Spectra: 1
Spectrometers: USB2+H05261
Integration Time (usec): 10000 (USB2+H05261)
Spectra Averaged: 1 (USB2+H05261)
Boxcar Smoothing: 0 (USB2+H05261)
Correct for Electrical Dark: No (USB2+H05261)
Strobe/Lamp Enabled: No (USB2+H05261)
Correct for Detector Non-linearity: No (USB2+H05261)
Correct for Stray Light: No (USB2+H05261)
Number of Pixels in Processed Spectrum: 2048
>>>>>Begin Processed Spectral Data<<<<<
365.73	0.00
365.92	0.00
366.12	0.00
366.32	0.00
366.52	0.00
366.72	0.00
366.91	0.00
367.11	0.00
367.31	0.00
367.51	0.00
367.70	0.00
367.90	0.00
368.10	0.00
368.30	0.00
368.49	0.00
368.69	0.00
368.89	0.00
369.09	0.00
369.28	0.00
369.48	0.00
369.68	0.00
369.87	0.00
370.07	0.00
370.27	0.00
370.47	0.00
370.66	0.00
370.86	7.02
371.06	0.00
371.25	0.00
371.45	0.00
371.65	0.00
371.84	0.00
372.04	0.00
372.24	0.00
372.44	0.00
372.63	46.81
372.83	0.00
373.03	56.17
373.22	9.36
373.42	0.00
373.62	11.70
373.81	9.36
374.01	44.47
374.21	2.34
374.40	49.15
374.60	4.68
374.79	63.19
374.99	23.41
375.19	0.00
375.38	0.00
375.58	58.51
375.78	30.43
375.97	65.54
376.17	37.45
376.37	58.51
376.56	49.15
376.76	0.00
376.95	0.00
377.15	0.00
377.35	102.98
377.54	49.15
377.74	18.72
377.93	72.56
378.13	32.77
378.33	0.00
378.52	28.09
378.72	18.72
378.91	0.00
379.11	65.54
379.31	0.00
379.50	56.17
379.70	11.70
379.89	16.38
380.09	0.00
380.28	2.34
380.48	58.51
380.68	9.36
380.87	0.00
381.07	0.00
381.26	46.81
381.46	0.00
381.65	0.00
381.85	32.77
382.04	58.51
382.24	37.45
382.43	25.75
382.63	0.00
382.83	0.00
383.02	0.00
383.22	0.00
383.41	53.83
383.61	23.41
383.80	53.83
384.00	0.00
384.19	0.00
384.39	49.15
384.58	63.19
384.78	18.72
384.97	35.11
385.17	0.00
385.36	74.90
385.56	0.00
385.75	30.43
385.95	0.00
386.14	18.72
386.34	0.00
386.53	0.00
386.72	21.06
386.92	58.51
387.11	21.06
387.31	11.70
387.50	23.41
387.70	30.43
387.89	0.00
388.09	51.49
388.28	14.04
388.48	28.09
388.67	0.00
388.86	32.77
389.06	39.79
389.25	84.26
389.45	14.04
389.64	0.00
389.84	32.77
390.03	70.22
390.22	9.36
390.42	0.00
390.61	46.81
390.81	9.36
391.00	35.11
391.19	0.00
391.39	7.02
391.58	46.81
391.78	56.17
391.97	74.90
392.16	51.49
392.36	98.30
392.55	42.13
392.75	88.94
392.94	49.15
393.13	46.81
393.33	30.43
393.52	46.81
393.71	60.85
393.91	0.00
394.10	0.00
394.29	0.00
394.49	39.79
394.68	18.72
394.88	0.00
395.07	0.00
395.26	58.51
395.46	65.54
395.65	72.56
395.84	0.00
396.04	0.00
396.23	32.77
396.42	91.28
396.62	25.75
396.81	107.66
397.00	0.00
397.19	37.45
397.39	44.47
397.58	91.28
397.77	49.15
397.97	77.24
398.16	35.11
398.35	32.77
398.55	0.00
398.74	23.41
398.93	11.70
399.12	7.02
399.32	65.54
399.51	70.22
399.70	107.66
399.90	7.02
400.09	0.00
400.28	0.00
400.47	49.15
400.67	39.79
400.86	0.00
401.05	37.45
401.24	32.77
401.44	35.11
401.63	0.00
401.82	14.04
402.01	2.34
402.21	23.41
402.40	0.00
402.59	30.43
402.78	9.36
402.97	0.00
403.17	30.43
403.36	28.09
403.55	42.13
403.74	0.00
403.93	16.38
404.13	42.13
404.32	49.15
404.51	23.41
404.70	44.47
404.89	0.00
405.09	32.77
405.28	102.98
405.47	16.38
405.66	49.15
405.85	42.13
406.05	0.00
406.24	95.96
406.43	42.13
406.62	39.79
406.81	0.00
407.00	0.00
407.20	11.70
407.39	21.06
407.58	79.58
407.77	44.47
407.96	53.83
408.15	112.35
408.34	44.47
408.54	88.94
408.73	11.70
408.92	77.24
409.11	60.85
409.30	16.38
409.49	32.77
409.68	0.00
409.87	35.11
410.07	46.81
410.26	0.00
410.45	77.24
410.64	18.72
410.83	0.00
411.02	16.38
411.21	79.58
411.40	65.54
411.59	0.00
411.78	46.81
411.98	86.60
412.17	72.56
412.36	14.04
412.55	81.92
412.74	0.00
412.93	46.81
413.12	65.54
413.31	0.00
413.50	72.56
413.69	39.79
413.88	102.98
414.07	60.85
414.26	14.04
414.45	37.45
414.64	56.17
414.83	74.90
415.02	86.60
415.22	105.32
415.41	0.00
415.60	44.47
415.79	56.17
415.98	39.79
416.17	16.38
416.36	11.70
416.55	98.30
416.74	42.13
416.93	93.62
417.12	39.79
417.31	53.83
417.50	16.38
417.69	18.72
417.88	25.75
418.07	0.00
418.26	72.56
418.45	25.75
418.64	39.79
418.83	51.49
419.02	7.02
419.21	18.72
419.39	32.77
419.58	44.47
419.77	95.96
419.96	60.85
420.15	30.43
420.34	0.00
420.53	105.32
420.72	105.32
420.91	46.81
421.10	18.72
421.29	37.45
421.48	0.00
421.67	25.75
421.86	9.36
422.05	42.13
422.24	7.02
422.43	9.36
422.61	35.11
422.80	0.00
422.99	16.38
423.18	35.11
423.37	128.73
423.56	49.15
423.75	79.58
423.94	0.00
424.13	28.09
424.32	11.70
424.50	81.92
424.69	0.00
424.88	4.68
425.07	58.51
425.26	30.43
425.45	93.62
425.64	16.38
425.83	0.00
426.01	112.35
426.20	0.00
426.39	37.45
426.58	0.00
426.77	21.06
426.96	18.72
427.15	18.72
427.33	63.19
427.52	32.77
427.71	42.13
427.90	95.96
428.09	58.51
428.28	14.04
428.46	32.77
428.65	39.79
428.84	2.34
429.03	0.00
429.22	72.56
429.40	16.38
429.59	105.32
429.78	16.38
429.97	119.37
430.16	77.24
430.34	0.00
430.53	42.13
430.72	53.83
430.91	0.00
431.10	2.34
431.28	9.36
431.47	18.72
431.66	65.54
431.85	74.90
432.03	35.11
432.22	37.45
432.41	84.26
432.60	98.30
432.79	21.06
432.97	35.11
433.16	28.09
433.35	70.22
433.54	0.00
433.72	0.00
433.91	32.77
434.10	23.41
434.28	42.13
434.47	39.79
434.66	0.00
434.85	42.13
435.03	117.03
435.22	39.79
435.41	39.79
435.59	112.35
435.78	14.04
435.97	0.00
436.16	30.43
436.34	39.79
436.53	51.49
436.72	81.92
436.90	53.83
437.09	93.62
437.28	4.68
437.46	0.00
437.65	0.00
437.84	70.22
438.02	0.00
438.21	9.36
438.40	30.43
438.58	42.13
438.77	60.85
438.96	16.38
439.14	63.19
439.33	0.00
439.52	18.72
439.70	65.54
439.89	44.47
440.08	0.00
440.26	35.11
440.45	51.49
440.63	84.26
440.82	9.36
441.01	84.26
441.19	0.00
441.38	72.56
441.57	114.69
441.75	77.24
441.94	25.75
442.12	112.35
442.31	145.11
442.50	44.47
442.68	0.00
442.87	81.92
443.05	65.54
443.24	42.13
443.43	0.00
443.61	74.90
443.80	46.81
443.98	58.51
444.17	42.13
444.35	107.66
444.54	77.24
444.73	163.84
444.91	42.13
445.10	65.54
445.28	46.81
445.47	30.43
445.65	88.94
445.84	23.41
446.02	58.51
446.21	84.26
446.39	81.92
446.58	37.45
446.77	63.19
446.95	21.06
447.14	25.75
447.32	100.64
447.51	63.19
447.69	18.72
447.88	65.54
448.06	21.06
448.25	49.15
448.43	39.79
448.62	0.00
448.80	72.56
448.99	95.96
449.17	112.35
449.36	32.77
449.54	0.00
449.73	100.64
449.91	88.94
450.10	65.54
450.28	60.85
450.46	86.60
450.65	84.26
450.83	2.34
451.02	112.35
451.20	49.15
451.39	81.92
451.57	60.85
451.76	56.17
451.94	18.72
452.13	0.00
452.31	39.79
452.49	37.45
452.68	56.17
452.86	105.32
453.05	56.17
453.23	16.38
453.42	4.68
453.60	79.58
453.78	49.15
453.97	2.34
454.15	53.83
454.34	60.85
454.52	74.90
454.70	23.41
454.89	72.56
455.07	35.11
455.26	107.66
455.44	23.41
455.62	18.72
455.81	21.06
455.99	93.62
456.17	65.54
456.36	79.58
456.54	49.15
456.73	46.81
456.91	46.81
457.09	105.32
457.28	32.77
457.46	0.00
457.64	46.81
457.83	46.81
458.01	46.81
458.19	0.00
458.38	56.17
458.56	21.06
458.74	81.92
458.93	88.94
459.11	72.56
459.29	16.38
459.48	133.41
459.66	21.06
459.84	65.54
460.03	51.49
460.21	63.19
460.39	86.60
460.57	4.68
460.76	11.70
460.94	28.09
461.12	107.66
461.31	0.00
461.49	79.58
461.67	9.36
461.85	74.90
462.04	0.00
462.22	114.69
462.40	0.00
462.59	37.45
462.77	35.11
462.95	88.94
463.13	74.90
463.32	67.88
463.50	32.77
463.68	49.15
463.86	86.60
464.05	46.81
464.23	32.77
464.41	0.00
464.59	18.72
464.78	42.13
464.96	32.77
465.14	30.43
465.32	7.02
465.50	105.32
465.69	46.81
465.87	67.88
466.05	72.56
466.23	25.75
466.41	74.90
466.60	16.38
466.78	44.47
466.96	25.75
467.14	0.00
467.32	58.51
467.51	0.00
467.69	102.98
467.87	42.13
468.05	18.72
468.23	21.06
468.41	63.19
468.60	135.75
468.78	65.54
468.96	70.22
469.14	18.72
469.32	63.19
469.50	51.49
469.69	42.13
469.87	46.81
470.05	53.83
470.23	0.00
470.41	0.00
470.59	4.68
470.77	37.45
470.95	53.83
471.14	79.58
471.32	11.70
471.50	44.47
471.68	32.77
471.86	32.77
472.04	72.56
472.22	91.28
472.40	72.56
472.58	44.47
472.77	77.24
472.95	72.56
473.13	81.92
473.31	145.11
473.49	56.17
473.67	79.58
473.85	102.98
474.03	49.15
474.21	70.22
474.39	37.45
474.57	91.28
474.75	65.54
474.93	44.47
475.12	30.43
475.30	149.79
475.48	0.00
475.66	14.04
475.84	53.83
476.02	44.47
476.20	81.92
476.38	42.13
476.56	60.85
476.74	21.06
476.92	2.34
477.10	49.15
477.28	79.58
477.46	88.94
477.64	100.64
477.82	18.72
478.00	56.17
478.18	0.00
478.36	63.19
478.54	0.00
478.72	32.77
478.90	18.72
479.08	7.02
479.26	119.37
479.44	0.00
479.62	110.01
479.80	21.06
479.98	14.04
480.16	4.68
480.34	18.72
480.52	0.00
480.70	84.26
480.88	21.06
481.06	63.19
481.24	112.35
481.41	53.83
481.59	39.79
481.77	44.47
481.95	21.06
482.13	28.09
482.31	93.62
482.49	39.79
482.67	112.35
482.85	124.05
483.03	112.35
483.21	86.60
483.39	0.00
483.57	25.75
483.74	53.83
483.92	84.26
484.10	0.00
484.28	44.47
484.46	81.92
484.64	2.34
484.82	42.13
485.00	0.00
485.18	70.22
485.35	63.19
485.53	79.58
485.71	112.35
485.89	119.37
486.07	14.04
486.25	0.00
486.43	79.58
486.61	98.30
486.78	2.34
486.96	0.00
487.14	14.04
487.32	60.85
487.50	0.00
487.68	51.49
487.85	60.85
488.03	0.00
488.21	56.17
488.39	49.15
488.57	35.11
488.75	60.85
488.92	56.17
489.10	84.26
489.28	49.15
489.46	79.58
489.64	58.51
489.81	100.64
489.99	28.09
490.17	11.70
490.35	74.90
490.53	25.75
490.70	49.15
490.88	28.09
491.06	117.03
491.24	56.17
491.41	138.09
491.59	70.22
491.77	72.56
491.95	44.47
492.13	60.85
492.30	114.69
492.48	81.92
492.66	11.70
492.84	77.24
493.01	67.88
493.19	58.51
493.37	135.75
493.54	25.75
493.72	86.60
493.90	77.24
494.08	91.28
494.25	74.90
494.43	35.11
494.61	84.26
494.79	56.17
494.96	84.26
495.14	77.24
495.32	63.19
495.49	88.94
495.67	28.09
495.85	11.70
496.02	0.00
496.20	93.62
496.38	37.45
496.55	145.11
496.73	49.15
496.91	21.06
497.09	0.00
497.26	53.83
497.44	39.79
497.62	93.62
497.79	86.60
497.97	131.07
498.14	65.54
498.32	21.06
498.50	110.01
498.67	0.00
498.85	28.09
499.03	81.92
499.20	49.15
499.38	86.60
499.56	112.35
499.73	16.38
499.91	91.28
500.08	42.13
500.26	0.00
500.44	140.43
500.61	32.77
500.79	0.00
500.97	79.58
501.14	37.45
501.32	46.81
501.49	58.51
501.67	9.36
501.84	60.85
502.02	11.70
502.20	21.06
502.37	65.54
502.55	67.88
502.72	86.60
502.90	74.90
503.07	46.81
503.25	58.51
503.43	32.77
503.60	0.00
503.78	100.64
503.95	16.38
504.13	145.11
504.30	49.15
504.48	42.13
504.65	60.85
504.83	23.41
505.01	18.72
505.18	84.26
505.36	53.83
505.53	51.49
505.71	93.62
505.88	65.54
506.06	67.88
506.23	37.45
506.41	60.85
506.58	91.28
506.76	84.26
506.93	58.51
507.11	42.13
507.28	9.36
507.46	0.00
507.63	11.70
507.81	112.35
507.98	58.51
508.16	35.11
508.33	42.13
508.50	28.09
508.68	56.17
508.85	117.03
509.03	32.77
509.20	63.19
509.38	39.79
509.55	37.45
509.73	7.02
509.90	16.38
510.08	72.56
510.25	114.69
510.42	77.24
510.60	23.41
510.77	105.32
510.95	39.79
511.12	30.43
511.30	21.06
511.47	81.92
511.64	9.36
511.82	65.54
511.99	81.92
512.17	124.05
512.34	107.66
512.51	49.15
512.69	100.64
512.86	25.75
513.04	84.26
513.21	70.22
513.38	51.49
513.56	49.15
513.73	128.73
513.90	107.66
514.08	51.49
514.25	16.38
514.43	32.77
514.60	39.79
514.77	81.92
514.95	16.38
515.12	51.49
515.29	124.05
515.47	0.00
515.64	39.79
515.81	163.84
515.99	133.41
516.16	110.01
516.33	79.58
516.51	70.22
516.68	53.83
516.85	81.92
517.03	79.58
517.20	44.47
517.37	51.49
517.54	124.05
517.72	72.56
517.89	23.41
518.06	72.56
518.24	114.69
518.41	21.06
518.58	0.00
518.75	9.36
518.93	95.96
519.10	56.17
519.27	121.71
519.45	63.19
519.62	63.19
519.79	56.17
519.96	86.60
520.14	60.85
520.31	72.56
520.48	4.68
520.65	49.15
520.83	30.43
521.00	0.00
521.17	42.13
521.34	32.77
521.52	88.94
521.69	152.13
521.86	117.03
522.03	42.13
522.20	98.30
522.38	0.00
522.55	86.60
522.72	49.15
522.89	117.03
523.07	72.56
523.24	102.98
523.41	0.00
523.58	14.04
523.75	30.43
523.92	67.88
524.10	14.04
524.27	93.62
524.44	77.24
524.61	0.00
524.78	93.62
524.96	39.79
525.13	60.85
525.30	16.38
525.47	58.51
525.64	105.32
525.81	98.30
525.98	37.45
526.16	117.03
526.33	93.62
526.50	98.30
526.67	159.16
526.84	79.58
527.01	56.17
527.18	67.88
527.36	35.11
527.53	74.90
527.70	42.13
527.87	72.56
528.04	4.68
528.21	58.51
528.38	53.83
528.55	49.15
528.72	39.79
528.89	51.49
529.07	16.38
529.24	93.62
529.41	100.64
529.58	37.45
529.75	30.43
529.92	0.00
530.09	95.96
530.26	58.51
530.43	114.69
530.60	81.92
530.77	138.09
530.94	84.26
531.11	7.02
531.28	63.19
531.46	46.81
531.63	112.35
531.80	84.26
531.97	110.01
532.14	56.17
532.31	93.62
532.48	100.64
532.65	18.72
532.82	2.34
532.99	39.79
533.16	112.35
533.33	74.90
533.50	102.98
533.67	28.09
533.84	95.96
534.01	84.26
534.18	77.24
534.35	46.81
534.52	23.41
534.69	32.77
534.86	84.26
535.03	46.81
535.20	102.98
535.37	0.00
535.54	53.83
535.71	102.98
535.88	46.81
536.05	79.58
536.22	135.75
536.38	53.83
536.55	28.09
536.72	114.69
536.89	110.01
537.06	63.19
537.23	74.90
537.40	79.58
537.57	39.79
537.74	117.03
537.91	0.00
538.08	79.58
538.25	88.94
538.42	37.45
538.59	0.00
538.75	81.92
538.92	49.15
539.09	39.79
539.26	93.62
539.43	88.94
539.60	51.49
539.77	72.56
539.94	32.77
540.11	30.43
540.28	121.71
540.44	74.90
540.61	32.77
540.78	86.60
540.95	70.22
541.12	32.77
541.29	39.79
541.46	39.79
541.62	51.49
541.79	84.26
541.96	0.00
542.13	67.88
542.30	2.34
542.47	102.98
542.63	53.83
542.80	11.70
542.97	51.49
543.14	37.45
543.31	86.60
543.48	102.98
543.64	124.05
543.81	42.13
543.98	70.22
544.15	42.13
544.32	107.66
544.48	81.92
544.65	105.32
544.82	0.00
544.99	56.17
545.16	0.00
545.32	91.28
545.49	105.32
545.66	42.13
545.83	49.15
546.00	56.17
546.16	117.03
546.33	112.35
546.50	77.24
546.67	60.85
546.83	53.83
547.00	0.00
547.17	107.66
547.34	98.30
547.50	51.49
547.67	35.11
547.84	65.54
548.00	60.85
548.17	0.00
548.34	23.41
548.51	44.47
548.67	105.32
548.84	2.34
549.01	88.94
549.18	49.15
549.34	39.79
549.51	93.62
549.68	56.17
549.84	42.13
550.01	105.32
550.18	121.71
550.34	168.52
550.51	86.60
550.68	91.28
550.84	37.45
551.01	140.43
551.18	98.30
551.34	53.83
551.51	16.38
551.68	53.83
551.84	56.17
552.01	4.68
552.18	70.22
552.34	4.68
552.51	86.60
552.68	21.06
552.84	32.77
553.01	4.68
553.18	91.28
553.34	11.70
553.51	70.22
553.67	2.34
553.84	21.06
554.01	39.79
554.17	149.79
554.34	124.05
554.51	95.96
554.67	126.39
554.84	30.43
555.00	65.54
555.17	105.32
555.33	70.22
555.50	65.54
555.67	35.11
555.83	77.24
556.00	65.54
556.16	77.24
556.33	81.92
556.50	70.22
556.66	110.01
556.83	93.62
556.99	107.66
557.16	44.47
557.32	128.73
557.49	67.88
557.65	30.43
557.82	60.85
557.98	72.56
558.15	100.64
558.32	63.19
558.48	119.37
558.65	114.69
558.81	44.47
558.98	32.77
559.14	23.41
559.31	88.94
559.47	0.00
559.64	67.88
559.80	88.94
559.97	56.17
560.13	117.03
560.30	30.43
560.46	23.41
560.63	28.09
560.79	86.60
560.96	95.96
561.12	77.24
561.29	63.19
561.45	105.32
561.61	0.00
561.78	112.35
561.94	42.13
562.11	42.13
562.27	65.54
562.44	65.54
562.60	84.26
562.77	46.81
562.93	32.77
563.10	0.00
563.26	86.60
563.42	81.92
563.59	74.90
563.75	35.11
563.92	7.02
564.08	79.58
564.24	124.05
564.41	25.75
564.57	91.28
564.74	79.58
564.90	51.49
565.07	60.85
565.23	0.00
565.39	37.45
565.56	51.49
565.72	81.92
565.88	9.36
566.05	53.83
566.21	72.56
566.38	114.69
566.54	4.68
566.70	30.43
566.87	77.24
567.03	44.47
567.19	51.49
567.36	30.43
567.52	0.00
567.68	119.37
567.85	32.77
568.01	58.51
568.17	65.54
568.34	72.56
568.50	72.56
568.66	0.00
568.83	159.16
568.99	42.13
569.15	88.94
569.32	32.77
569.48	60.85
569.64	84.26
569.81	23.41
569.97	25.75
570.13	0.00
570.30	117.03
570.46	25.75
570.62	0.00
570.78	95.96
570.95	39.79
571.11	39.79
571.27	81.92
571.43	102.98
571.60	149.79
571.76	138.09
571.92	0.00
572.09	98.30
572.25	126.39
572.41	49.15
572.57	60.85
572.74	53.83
572.90	42.13
573.06	44.47
573.22	65.54
573.38	44.47
573.55	93.62
573.71	39.79
573.87	0.00
574.03	91.28
574.20	56.17
574.36	100.64
574.52	35.11
574.68	39.79
574.84	7.02
575.01	35.11
575.17	56.17
575.33	0.00
575.49	74.90
575.65	77.24
575.82	72.56
575.98	0.00
576.14	93.62
576.30	72.56
576.46	98.30
576.62	30.43
576.79	81.92
576.95	67.88
577.11	16.38
577.27	30.43
577.43	37.45
577.59	53.83
577.75	58.51
577.92	88.94
578.08	81.92
578.24	77.24
578.40	42.13
578.56	88.94
578.72	95.96
578.88	95.96
579.04	0.00
579.21	0.00
579.37	42.13
579.53	79.58
579.69	149.79
579.85	0.00
580.01	84.26
580.17	142.77
580.33	77.24
580.49	23.41
580.65	65.54
580.82	39.79
580.98	49.15
581.14	100.64
581.30	70.22
581.46	30.43
581.62	25.75
581.78	46.81
581.94	25.75
582.10	30.43
582.26	32.77
582.42	72.56
582.58	81.92
582.74	21.06
582.90	35.11
583.06	18.72
583.22	4.68
583.38	25.75
583.54	79.58
583.70	77.24
583.86	65.54
584.02	70.22
584.18	67.88
584.34	0.00
584.50	105.32
584.66	133.41
584.82	42.13
584.98	77.24
585.14	42.13
585.30	58.51
585.46	56.17
585.62	67.88
585.78	84.26
585.94	53.83
586.10	23.41
586.26	67.88
586.42	72.56
586.58	35.11
586.74	39.79
586.90	28.09
587.06	14.04
587.22	16.38
587.38	63.19
587.54	58.51
587.70	21.06
587.86	70.22
588.02	46.81
588.18	56.17
588.34	88.94
588.49	65.54
588.65	95.96
588.81	14.04
588.97	49.15
589.13	25.75
589.29	28.09
589.45	88.94
589.61	91.28
589.77	77.24
589.93	70.22
590.08	42.13
590.24	70.22
590.40	35.11
590.56	65.54
590.72	42.13
590.88	70.22
591.04	142.77
591.20	131.07
591.35	0.00
591.51	0.00
591.67	124.05
591.83	30.43
591.99	91.28
592.15	93.62
592.31	32.77
592.46	0.00
592.62	77.24
592.78	49.15
592.94	0.00
593.10	72.56
593.26	51.49
593.41	23.41
593.57	74.90
593.73	28.09
593.89	72.56
594.05	53.83
594.20	16.38
594.36	37.45
594.52	60.85
594.68	74.90
594.84	110.01
594.99	0.00
595.15	63.19
595.31	49.15
595.47	74.90
595.62	88.94
595.78	93.62
595.94	74.90
596.10	49.15
596.25	51.49
596.41	37.45
596.57	63.19
596.73	49.15
596.88	112.35
597.04	100.64
597.20	28.09
597.36	23.41
597.51	72.56
597.67	119.37
597.83	72.56
597.99	88.94
598.14	95.96
598.30	63.19
598.46	21.06
598.61	51.49
598.77	46.81
598.93	67.88
599.09	112.35
599.24	39.79
599.40	79.58
599.56	100.64
599.71	142.77
599.87	112.35
600.03	32.77
600.18	14.04
600.34	93.62
600.50	102.98
600.65	46.81
600.81	67.88
600.97	25.75
601.12	65.54
601.28	95.96
601.44	100.64
601.59	60.85
601.75	98.30
601.91	44.47
602.06	35.11
602.22	86.60
602.37	65.54
602.53	32.77
602.69	107.66
602.84	9.36
603.00	63.19
603.16	51.49
603.31	53.83
603.47	11.70
603.62	53.83
603.78	72.56
603.94	79.58
604.09	65.54
604.25	42.13
604.40	42.13
604.56	0.00
604.71	21.06
604.87	49.15
605.03	77.24
605.18	0.00
605.34	63.19
605.49	44.47
605.65	14.04
605.80	110.01
605.96	79.58
606.12	51.49
606.27	77.24
606.43	28.09
606.58	67.88
606.74	102.98
606.89	74.90
607.05	70.22
607.20	11.70
607.36	25.75
607.51	60.85
607.67	93.62
607.82	74.90
607.98	77.24
608.13	28.09
608.29	51.49
608.44	72.56
608.60	58.51
608.75	7.02
608.91	0.00
609.06	117.03
609.22	117.03
609.37	56.17
609.53	30.43
609.68	11.70
609.84	21.06
609.99	105.32
610.15	88.94
610.30	0.00
610.46	30.43
610.61	86.60
610.76	16.38
610.92	46.81
611.07	65.54
611.23	46.81
611.38	18.72
611.54	88.94
611.69	72.56
611.84	79.58
612.00	0.00
612.15	51.49
612.31	0.00
612.46	35.11
612.62	51.49
612.77	53.83
612.92	39.79
613.08	44.47
613.23	65.54
613.39	53.83
613.54	77.24
613.69	44.47
613.85	95.96
614.00	4.68
614.15	0.00
614.31	67.88
614.46	65.54
614.62	11.70
614.77	53.83
614.92	42.13
615.08	74.90
615.23	37.45
615.38	0.00
615.54	9.36
615.69	49.15
615.84	105.32
616.00	0.00
616.15	35.11
616.30	107.66
616.46	0.00
616.61	79.58
616.76	49.15
616.92	9.36
617.07	44.47
617.22	46.81
617.37	23.41
617.53	32.77
617.68	81.92
617.83	93.62
617.99	93.62
618.14	102.98
618.29	23.41
618.45	56.17
618.60	39.79
618.75	56.17
618.90	0.00
619.06	138.09
619.21	42.13
619.36	28.09
619.51	49.15
619.67	11.70
619.82	39.79
619.97	81.92
620.12	44.47
620.28	42.13
620.43	51.49
620.58	70.22
620.73	35.11
620.89	88.94
621.04	51.49
621.19	37.45
621.34	30.43
621.49	28.09
621.65	21.06
621.80	74.90
621.95	23.41
622.10	0.00
622.25	0.00
622.41	84.26
622.56	39.79
622.71	91.28
622.86	32.77
623.01	39.79
623.16	70.22
623.32	58.51
623.47	86.60
623.62	35.11
623.77	60.85
623.92	86.60
624.07	21.06
624.23	32.77
624.38	44.47
624.53	65.54
624.68	74.90
624.83	0.00
624.98	28.09
625.13	51.49
625.29	60.85
625.44	0.00
625.59	93.62
625.74	30.43
625.89	37.45
626.04	70.22
626.19	0.00
626.34	23.41
626.49	44.47
626.65	37.45
626.80	65.54
626.95	0.00
627.10	39.79
627.25	67.88
627.40	0.00
627.55	18.72
627.70	53.83
627.85	39.79
628.00	86.60
628.15	16.38
628.30	91.28
628.45	67.88
628.60	16.38
628.76	88.94
628.91	46.81
629.06	95.96
629.21	74.90
629.36	63.19
629.51	60.85
629.66	23.41
629.81	88.94
629.96	39.79
630.11	39.79
630.26	9.36
630.41	4.68
630.56	11.70
630.71	21.06
630.86	46.81
631.01	65.54
631.16	53.83
631.31	28.09
631.46	102.98
631.61	56.17
631.76	98.30
631.91	65.54
632.06	42.13
632.21	39.79
632.36	0.00
632.51	42.13
632.66	25.75
632.81	117.03
632.96	32.77
633.10	0.00
633.25	46.81
633.40	30.43
633.55	63.19
633.70	65.54
633.85	37.45
634.00	63.19
634.15	79.58
634.30	42.13
634.45	107.66
634.60	79.58
634.75	98.30
634.90	79.58
635.05	30.43
635.19	0.00
635.34	63.19
635.49	56.17
635.64	0.00
635.79	16.38
635.94	86.60
636.09	18.72
636.24	0.00
636.39	51.49
636.53	112.35
636.68	25.75
636.83	65.54
636.98	60.85
637.13	74.90
637.28	51.49
637.43	0.00
637.57	11.70
637.72	25.75
637.87	72.56
638.02	63.19
638.17	44.47
638.32	60.85
638.46	67.88
638.61	23.41
638.76	46.81
638.91	4.68
639.06	88.94
639.20	95.96
639.35	21.06
639.50	35.11
639.65	53.83
639.80	121.71
639.94	14.04
640.09	44.47
640.24	105.32
640.39	0.00
640.54	4.68
640.68	11.70
640.83	53.83
640.98	100.64
641.13	44.47
641.27	42.13
641.42	53.83
641.57	37.45
641.72	39.79
641.86	128.73
642.01	35.11
642.16	67.88
642.31	70.22
642.45	23.41
642.60	93.62
642.75	79.58
642.90	93.62
643.04	14.04
643.19	86.60
643.34	65.54
643.48	53.83
643.63	30.43
643.78	105.32
643.93	25.75
644.07	0.00
644.22	88.94
644.37	2.34
644.51	88.94
644.66	98.30
644.81	65.54
644.95	35.11
645.10	11.70
645.25	0.00
645.39	21.06
645.54	35.11
645.69	28.09
645.83	14.04
645.98	72.56
646.13	63.19
646.27	37.45
646.42	98.30
646.57	35.11
646.71	16.38
646.86	37.45
647.00	114.69
647.15	32.77
647.30	49.15
647.44	16.38
647.59	44.47
647.74	58.51
647.88	37.45
648.03	28.09
648.17	32.77
648.32	77.24
648.47	0.00
648.61	74.90
648.76	65.54
648.90	107.66
649.05	112.35
649.20	14.04
649.34	11.70
649.49	51.49
649.63	25.75
649.78	9.36
649.92	11.70
650.07	56.17
650.21	23.41
650.36	32.77
650.51	30.43
650.65	0.00
650.80	25.75
650.94	16.38
651.09	42.13
651.23	0.00
651.38	58.51
651.52	121.71
651.67	58.51
651.81	145.11
651.96	128.73
652.10	65.54
652.25	14.04
652.39	4.68
652.54	25.75
652.68	58.51
652.83	53.83
652.97	58.51
653.12	65.54
653.26	70.22
653.41	0.00
653.55	21.06
653.70	16.38
653.84	65.54
653.99	23.41
654.13	56.17
654.27	56.17
654.42	25.75
654.56	35.11
654.71	60.85
654.85	30.43
655.00	0.00
655.14	21.06
655.29	35.11
655.43	91.28
655.57	37.45
655.72	86.60
655.86	51.49
656.01	0.00
656.15	70.22
656.30	37.45
656.44	102.98
656.58	60.85
656.73	28.09
656.87	81.92
657.01	79.58
657.16	124.05
657.30	49.15
657.45	95.96
657.59	63.19
657.73	44.47
657.88	18.72
658.02	51.49
658.16	128.73
658.31	67.88
658.45	110.01
658.60	70.22
658.74	25.75
658.88	67.88
659.03	32.77
659.17	28.09
659.31	77.24
659.46	39.79
659.60	88.94
659.74	23.41
659.89	46.81
660.03	16.38
660.17	7.02
660.32	93.62
660.46	0.00
660.60	44.47
660.74	4.68
660.89	133.41
661.03	44.47
661.17	14.04
661.32	93.62
661.46	0.00
661.60	53.83
661.74	60.85
661.89	32.77
662.03	28.09
662.17	98.30
662.31	0.00
662.46	124.05
662.60	0.00
662.74	9.36
662.88	21.06
663.03	14.04
663.17	42.13
663.31	23.41
663.45	39.79
663.60	7.02
663.74	74.90
663.88	0.00
664.02	81.92
664.17	28.09
664.31	65.54
664.45	16.38
664.59	49.15
664.73	53.83
664.88	23.41
665.02	46.81
665.16	7.02
665.30	70.22
665.44	56.17
665.59	70.22
665.73	4.68
665.87	39.79
666.01	16.38
666.15	0.00
666.29	0.00
666.44	18.72
666.58	58.51
666.72	88.94
666.86	16.38
667.00	7.02
667.14	63.19
667.28	37.45
667.43	14.04
667.57	74.90
667.71	79.58
667.85	95.96
667.99	0.00
668.13	65.54
668.27	88.94
668.41	58.51
668.56	37.45
668.70	49.15
668.84	70.22
668.98	25.75
669.12	53.83
669.26	35.11
669.40	65.54
669.54	35.11
669.68	23.41
669.82	51.49
669.96	81.92
670.10	60.85
670.25	0.00
670.39	39.79
670.53	63.19
670.67	39.79
670.81	9.36
670.95	56.17
671.09	37.45
671.23	14.04
671.37	14.04
671.51	35.11
671.65	67.88
671.79	95.96
671.93	2.34
672.07	60.85
672.21	65.54
672.35	25.75
672.49	0.00
672.63	140.43
672.77	23.41
672.91	74.90
673.05	9.36
673.19	42.13
673.33	25.75
673.47	114.69
673.61	46.81
673.75	65.54
673.89	37.45
674.03	56.17
674.17	11.70
674.31	32.77
674.45	21.06
674.59	0.00
674.73	11.70
674.87	32.77
675.01	121.71
675.15	46.81
675.29	0.00
675.43	35.11
675.56	79.58
675.70	60.85
675.84	51.49
675.98	95.96
676.12	35.11
676.26	70.22
676.40	0.00
676.54	9.36
676.68	70.22
676.82	60.85
676.96	18.72
677.10	30.43
677.23	35.11
677.37	11.70
677.51	84.26
677.65	51.49
677.79	77.24
677.93	32.77
678.07	72.56
678.21	70.22
678.34	0.00
678.48	53.83
678.62	42.13
678.76	46.81
678.90	91.28
679.04	51.49
679.18	18.72
679.31	74.90
679.45	0.00
679.59	39.79
679.73	70.22
679.87	46.81
680.00	74.90
680.14	0.00
680.28	35.11
680.42	35.11
680.56	0.00
680.70	30.43
680.83	86.60
680.97	0.00
681.11	0.00
681.25	67.88
681.39	102.98
681.52	95.96
681.66	0.00
681.80	105.32
681.94	18.72
682.07	0.00
682.21	0.00
682.35	74.90
682.49	88.94
682.62	14.04
682.76	0.00
682.90	14.04
683.04	30.43
683.17	39.79
683.31	16.38
683.45	7.02
683.59	37.45
683.72	0.00
683.86	21.06
684.00	30.43
684.13	44.47
684.27	23.41
684.41	42.13
684.55	4.68
684.68	0.00
684.82	0.00
684.96	0.00
685.09	14.04
685.23	25.75
685.37	79.58
685.50	42.13
685.64	35.11
685.78	0.00
685.91	63.19
686.05	0.00
686.19	81.92
686.32	51.49
686.46	102.98
686.60	86.60
686.73	63.19
686.87	0.00
687.01	9.36
687.14	105.32
687.28	79.58
687.42	39.79
687.55	0.00
687.69	53.83
687.82	81.92
687.96	30.43
688.10	42.13
688.23	72.56
688.37	65.54
688.50	95.96
688.64	51.49
688.78	28.09
688.91	28.09
689.05	21.06
689.18	0.00
689.32	88.94
689.46	81.92
689.59	46.81
689.73	46.81
689.86	9.36
690.00	23.41
690.13	4.68
690.27	60.85
690.41	44.47
690.54	32.77
690.68	4.68
690.81	32.77
690.95	21.06
691.08	53.83
691.22	30.43
691.35	44.47
691.49	60.85
691.62	9.36
691.76	39.79
691.89	58.51
692.03	60.85
692.16	0.00
692.30	32.77
692.43	63.19
692.57	28.09
692.70	28.09
692.84	0.00
692.97	95.96
693.11	18.72
693.24	2.34
693.38	30.43
693.51	0.00
693.65	117.03
693.78	0.00
693.92	0.00
694.05	49.15
694.19	0.00
694.32	0.00
694.45	49.15
694.59	63.19
694.72	70.22
694.86	28.09
694.99	44.47
695.13	58.51
695.26	25.75
695.39	0.00
695.53	86.60
695.66	42.13
695.80	39.79
695.93	42.13
696.07	65.54
696.20	0.00
696.33	35.11
696.47	0.00
696.60	0.00
696.73	0.00
696.87	14.04
697.00	0.00
697.14	107.66
697.27	44.47
697.40	39.79
697.54	0.00
697.67	0.00
697.80	2.34
697.94	32.77
698.07	23.41
698.21	37.45
698.34	72.56
698.47	0.00
698.61	46.81
698.74	16.38
698.87	74.90
699.01	23.41
699.14	0.00
699.27	35.11
699.40	84.26
699.54	0.00
699.67	74.90
699.80	35.11
699.94	65.54
700.07	25.75
700.20	0.00
700.34	44.47
700.47	51.49
700.60	0.00
700.73	72.56
700.87	0.00
701.00	28.09
701.13	25.75
701.26	35.11
701.40	9.36
701.53	51.49
701.66	42.13
701.79	16.38
701.93	49.15
702.06	39.79
702.19	0.00
702.32	53.83
702.46	88.94
702.59	14.04
702.72	51.49
702.85	11.70
702.99	105.32
703.12	105.32
703.25	39.79
703.38	67.88
703.51	49.15
703.65	42.13
703.78	77.24
703.91	70.22
704.04	9.36
704.17	81.92
704.31	77.24
704.44	46.81
704.57	28.09
704.70	30.43
704.83	0.00
704.96	21.06
705.10	81.92
705.23	0.00
>>>>>End Processed Spectral Data<<<<<
