SpectraSuite Data File
++++++++++++++++++++++++++++++++++++
Date: Fri Oct 04 12:13:36 GMT-05:00 2013
User: price-jones
Dark Spectrum Present: No
Reference Spectrum Present: No
Number of Sampled Component Spectra: 1
Spectrometers: USB2+H05261
Integration Time (usec): 10000 (USB2+H05261)
Spectra Averaged: 1 (USB2+H05261)
Boxcar Smoothing: 0 (USB2+H05261)
Correct for Electrical Dark: No (USB2+H05261)
Strobe/Lamp Enabled: No (USB2+H05261)
Correct for Detector Non-linearity: No (USB2+H05261)
Correct for Stray Light: No (USB2+H05261)
Number of Pixels in Processed Spectrum: 2048
>>>>>Begin Processed Spectral Data<<<<<
365.73	28.09
365.92	28.09
366.12	28.09
366.32	0.00
366.52	0.00
366.72	0.00
366.91	0.00
367.11	0.00
367.31	0.00
367.51	0.00
367.70	0.00
367.90	0.00
368.10	0.00
368.30	0.00
368.49	0.00
368.69	0.00
368.89	0.00
369.09	0.00
369.28	0.00
369.48	0.00
369.68	0.00
369.87	0.00
370.07	0.00
370.27	0.00
370.47	0.00
370.66	0.00
370.86	0.00
371.06	0.00
371.25	0.00
371.45	0.00
371.65	11.70
371.84	0.00
372.04	0.00
372.24	0.00
372.44	25.75
372.63	0.00
372.83	0.00
373.03	32.77
373.22	30.43
373.42	7.02
373.62	74.90
373.81	35.11
374.01	32.77
374.21	70.22
374.40	74.90
374.60	32.77
374.79	107.66
374.99	53.83
375.19	4.68
375.38	44.47
375.58	77.24
375.78	42.13
375.97	37.45
376.17	25.75
376.37	44.47
376.56	23.41
376.76	0.00
376.95	16.38
377.15	39.79
377.35	2.34
377.54	67.88
377.74	9.36
377.93	0.00
378.13	44.47
378.33	0.00
378.52	49.15
378.72	16.38
378.91	0.00
379.11	0.00
379.31	46.81
379.50	86.60
379.70	0.00
379.89	44.47
380.09	0.00
380.28	14.04
380.48	14.04
380.68	0.00
380.87	18.72
381.07	4.68
381.26	0.00
381.46	11.70
381.65	107.66
381.85	0.00
382.04	81.92
382.24	42.13
382.43	49.15
382.63	44.47
382.83	0.00
383.02	18.72
383.22	28.09
383.41	23.41
383.61	0.00
383.80	0.00
384.00	14.04
384.19	7.02
384.39	0.00
384.58	14.04
384.78	60.85
384.97	2.34
385.17	14.04
385.36	18.72
385.56	0.00
385.75	0.00
385.95	7.02
386.14	0.00
386.34	0.00
386.53	28.09
386.72	0.00
386.92	58.51
387.11	72.56
387.31	81.92
387.50	42.13
387.70	0.00
387.89	0.00
388.09	0.00
388.28	21.06
388.48	32.77
388.67	0.00
388.86	35.11
389.06	53.83
389.25	46.81
389.45	35.11
389.64	74.90
389.84	49.15
390.03	0.00
390.22	0.00
390.42	23.41
390.61	0.00
390.81	30.43
391.00	30.43
391.19	30.43
391.39	100.64
391.58	28.09
391.78	74.90
391.97	0.00
392.16	4.68
392.36	65.54
392.55	0.00
392.75	0.00
392.94	0.00
393.13	42.13
393.33	0.00
393.52	49.15
393.71	58.51
393.91	81.92
394.10	18.72
394.29	28.09
394.49	0.00
394.68	0.00
394.88	58.51
395.07	0.00
395.26	39.79
395.46	7.02
395.65	72.56
395.84	58.51
396.04	28.09
396.23	23.41
396.42	86.60
396.62	46.81
396.81	39.79
397.00	25.75
397.19	4.68
397.39	14.04
397.58	25.75
397.77	112.35
397.97	14.04
398.16	46.81
398.35	32.77
398.55	11.70
398.74	0.00
398.93	53.83
399.12	37.45
399.32	0.00
399.51	72.56
399.70	0.00
399.90	46.81
400.09	0.00
400.28	35.11
400.47	25.75
400.67	0.00
400.86	9.36
401.05	9.36
401.24	28.09
401.44	0.00
401.63	4.68
401.82	60.85
402.01	65.54
402.21	35.11
402.40	37.45
402.59	23.41
402.78	0.00
402.97	81.92
403.17	0.00
403.36	0.00
403.55	4.68
403.74	16.38
403.93	77.24
404.13	58.51
404.32	42.13
404.51	9.36
404.70	28.09
404.89	46.81
405.09	35.11
405.28	0.00
405.47	37.45
405.66	25.75
405.85	0.00
406.05	0.00
406.24	93.62
406.43	65.54
406.62	0.00
406.81	28.09
407.00	86.60
407.20	28.09
407.39	51.49
407.58	28.09
407.77	25.75
407.96	105.32
408.15	93.62
408.34	16.38
408.54	16.38
408.73	60.85
408.92	11.70
409.11	65.54
409.30	53.83
409.49	67.88
409.68	0.00
409.87	0.00
410.07	35.11
410.26	60.85
410.45	28.09
410.64	46.81
410.83	0.00
411.02	67.88
411.21	25.75
411.40	0.00
411.59	18.72
411.78	32.77
411.98	14.04
412.17	0.00
412.36	51.49
412.55	21.06
412.74	0.00
412.93	70.22
413.12	28.09
413.31	30.43
413.50	100.64
413.69	72.56
413.88	67.88
414.07	0.00
414.26	70.22
414.45	23.41
414.64	35.11
414.83	72.56
415.02	44.47
415.22	0.00
415.41	37.45
415.60	23.41
415.79	58.51
415.98	18.72
416.17	44.47
416.36	4.68
416.55	16.38
416.74	56.17
416.93	100.64
417.12	74.90
417.31	42.13
417.50	145.11
417.69	117.03
417.88	39.79
418.07	28.09
418.26	32.77
418.45	32.77
418.64	25.75
418.83	67.88
419.02	53.83
419.21	42.13
419.39	32.77
419.58	70.22
419.77	49.15
419.96	32.77
420.15	44.47
420.34	37.45
420.53	58.51
420.72	56.17
420.91	77.24
421.10	65.54
421.29	58.51
421.48	72.56
421.67	18.72
421.86	0.00
422.05	42.13
422.24	0.00
422.43	37.45
422.61	30.43
422.80	0.00
422.99	25.75
423.18	51.49
423.37	51.49
423.56	58.51
423.75	28.09
423.94	35.11
424.13	63.19
424.32	77.24
424.50	46.81
424.69	42.13
424.88	18.72
425.07	30.43
425.26	14.04
425.45	81.92
425.64	88.94
425.83	9.36
426.01	107.66
426.20	37.45
426.39	16.38
426.58	74.90
426.77	63.19
426.96	46.81
427.15	46.81
427.33	72.56
427.52	28.09
427.71	44.47
427.90	16.38
428.09	46.81
428.28	70.22
428.46	0.00
428.65	37.45
428.84	67.88
429.03	42.13
429.22	74.90
429.40	0.00
429.59	37.45
429.78	121.71
429.97	124.05
430.16	100.64
430.34	30.43
430.53	0.00
430.72	0.00
430.91	56.17
431.10	0.00
431.28	18.72
431.47	110.01
431.66	30.43
431.85	58.51
432.03	32.77
432.22	21.06
432.41	72.56
432.60	0.00
432.79	0.00
432.97	42.13
433.16	60.85
433.35	77.24
433.54	51.49
433.72	56.17
433.91	98.30
434.10	77.24
434.28	53.83
434.47	0.00
434.66	121.71
434.85	114.69
435.03	0.00
435.22	30.43
435.41	0.00
435.59	28.09
435.78	65.54
435.97	37.45
436.16	70.22
436.34	67.88
436.53	110.01
436.72	60.85
436.90	25.75
437.09	86.60
437.28	21.06
437.46	9.36
437.65	37.45
437.84	9.36
438.02	44.47
438.21	46.81
438.40	0.00
438.58	74.90
438.77	79.58
438.96	93.62
439.14	28.09
439.33	11.70
439.52	49.15
439.70	0.00
439.89	0.00
440.08	0.00
440.26	46.81
440.45	60.85
440.63	9.36
440.82	30.43
441.01	0.00
441.19	79.58
441.38	44.47
441.57	32.77
441.75	60.85
441.94	60.85
442.12	23.41
442.31	14.04
442.50	18.72
442.68	2.34
442.87	42.13
443.05	79.58
443.24	16.38
443.43	11.70
443.61	49.15
443.80	0.00
443.98	18.72
444.17	84.26
444.35	84.26
444.54	42.13
444.73	39.79
444.91	42.13
445.10	65.54
445.28	16.38
445.47	60.85
445.65	21.06
445.84	16.38
446.02	0.00
446.21	4.68
446.39	35.11
446.58	60.85
446.77	28.09
446.95	51.49
447.14	37.45
447.32	9.36
447.51	65.54
447.69	7.02
447.88	0.00
448.06	58.51
448.25	39.79
448.43	63.19
448.62	23.41
448.80	25.75
448.99	51.49
449.17	14.04
449.36	86.60
449.54	124.05
449.73	74.90
449.91	86.60
450.10	39.79
450.28	51.49
450.46	25.75
450.65	9.36
450.83	65.54
451.02	105.32
451.20	70.22
451.39	0.00
451.57	21.06
451.76	119.37
451.94	49.15
452.13	14.04
452.31	131.07
452.49	0.00
452.68	88.94
452.86	53.83
453.05	84.26
453.23	67.88
453.42	39.79
453.60	79.58
453.78	100.64
453.97	42.13
454.15	4.68
454.34	51.49
454.52	112.35
454.70	16.38
454.89	51.49
455.07	60.85
455.26	138.09
455.44	98.30
455.62	79.58
455.81	32.77
455.99	93.62
456.17	84.26
456.36	9.36
456.54	28.09
456.73	51.49
456.91	28.09
457.09	117.03
457.28	21.06
457.46	35.11
457.64	0.00
457.83	0.00
458.01	65.54
458.19	91.28
458.38	65.54
458.56	72.56
458.74	58.51
458.93	35.11
459.11	44.47
459.29	102.98
459.48	51.49
459.66	39.79
459.84	51.49
460.03	84.26
460.21	79.58
460.39	84.26
460.57	114.69
460.76	28.09
460.94	95.96
461.12	25.75
461.31	91.28
461.49	35.11
461.67	124.05
461.85	77.24
462.04	0.00
462.22	88.94
462.40	72.56
462.59	63.19
462.77	16.38
462.95	159.16
463.13	95.96
463.32	65.54
463.50	51.49
463.68	16.38
463.86	4.68
464.05	30.43
464.23	2.34
464.41	60.85
464.59	46.81
464.78	44.47
464.96	128.73
465.14	100.64
465.32	46.81
465.50	58.51
465.69	37.45
465.87	32.77
466.05	51.49
466.23	30.43
466.41	16.38
466.60	32.77
466.78	37.45
466.96	77.24
467.14	11.70
467.32	0.00
467.51	81.92
467.69	49.15
467.87	9.36
468.05	79.58
468.23	56.17
468.41	35.11
468.60	72.56
468.78	37.45
468.96	44.47
469.14	65.54
469.32	131.07
469.50	170.86
469.69	81.92
469.87	60.85
470.05	56.17
470.23	74.90
470.41	60.85
470.59	53.83
470.77	39.79
470.95	56.17
471.14	79.58
471.32	112.35
471.50	25.75
471.68	25.75
471.86	21.06
472.04	65.54
472.22	56.17
472.40	30.43
472.58	32.77
472.77	67.88
472.95	30.43
473.13	110.01
473.31	28.09
473.49	67.88
473.67	102.98
473.85	126.39
474.03	0.00
474.21	49.15
474.39	37.45
474.57	44.47
474.75	44.47
474.93	7.02
475.12	91.28
475.30	98.30
475.48	72.56
475.66	63.19
475.84	65.54
476.02	58.51
476.20	81.92
476.38	65.54
476.56	65.54
476.74	98.30
476.92	79.58
477.10	121.71
477.28	32.77
477.46	84.26
477.64	105.32
477.82	42.13
478.00	74.90
478.18	53.83
478.36	86.60
478.54	93.62
478.72	32.77
478.90	154.48
479.08	67.88
479.26	79.58
479.44	37.45
479.62	21.06
479.80	88.94
479.98	77.24
480.16	86.60
480.34	0.00
480.52	100.64
480.70	91.28
480.88	56.17
481.06	93.62
481.24	60.85
481.41	56.17
481.59	88.94
481.77	21.06
481.95	86.60
482.13	93.62
482.31	88.94
482.49	42.13
482.67	93.62
482.85	25.75
483.03	9.36
483.21	39.79
483.39	100.64
483.57	88.94
483.74	35.11
483.92	56.17
484.10	91.28
484.28	7.02
484.46	0.00
484.64	98.30
484.82	56.17
485.00	72.56
485.18	35.11
485.35	133.41
485.53	23.41
485.71	112.35
485.89	42.13
486.07	63.19
486.25	23.41
486.43	58.51
486.61	7.02
486.78	56.17
486.96	110.01
487.14	46.81
487.32	86.60
487.50	67.88
487.68	30.43
487.85	67.88
488.03	51.49
488.21	28.09
488.39	121.71
488.57	37.45
488.75	128.73
488.92	58.51
489.10	117.03
489.28	100.64
489.46	56.17
489.64	23.41
489.81	79.58
489.99	49.15
490.17	119.37
490.35	84.26
490.53	37.45
490.70	18.72
490.88	133.41
491.06	86.60
491.24	135.75
491.41	39.79
491.59	128.73
491.77	39.79
491.95	112.35
492.13	119.37
492.30	107.66
492.48	32.77
492.66	131.07
492.84	79.58
493.01	72.56
493.19	88.94
493.37	81.92
493.54	86.60
493.72	77.24
493.90	135.75
494.08	37.45
494.25	16.38
494.43	100.64
494.61	63.19
494.79	81.92
494.96	42.13
495.14	67.88
495.32	79.58
495.49	7.02
495.67	81.92
495.85	67.88
496.02	81.92
496.20	42.13
496.38	102.98
496.55	25.75
496.73	21.06
496.91	44.47
497.09	35.11
497.26	77.24
497.44	98.30
497.62	77.24
497.79	46.81
497.97	32.77
498.14	72.56
498.32	121.71
498.50	65.54
498.67	91.28
498.85	95.96
499.03	16.38
499.20	42.13
499.38	119.37
499.56	25.75
499.73	77.24
499.91	159.16
500.08	21.06
500.26	60.85
500.44	37.45
500.61	42.13
500.79	39.79
500.97	128.73
501.14	117.03
501.32	44.47
501.49	81.92
501.67	142.77
501.84	60.85
502.02	102.98
502.20	63.19
502.37	79.58
502.55	0.00
502.72	114.69
502.90	156.82
503.07	117.03
503.25	208.31
503.43	114.69
503.60	79.58
503.78	77.24
503.95	74.90
504.13	39.79
504.30	0.00
504.48	46.81
504.65	58.51
504.83	32.77
505.01	44.47
505.18	63.19
505.36	72.56
505.53	95.96
505.71	65.54
505.88	58.51
506.06	65.54
506.23	21.06
506.41	70.22
506.58	100.64
506.76	81.92
506.93	91.28
507.11	105.32
507.28	114.69
507.46	39.79
507.63	9.36
507.81	72.56
507.98	77.24
508.16	105.32
508.33	102.98
508.50	56.17
508.68	112.35
508.85	42.13
509.03	100.64
509.20	58.51
509.38	70.22
509.55	51.49
509.73	35.11
509.90	35.11
510.08	100.64
510.25	84.26
510.42	154.48
510.60	105.32
510.77	135.75
510.95	65.54
511.12	51.49
511.30	77.24
511.47	154.48
511.64	105.32
511.82	124.05
511.99	42.13
512.17	51.49
512.34	95.96
512.51	42.13
512.69	56.17
512.86	110.01
513.04	84.26
513.21	67.88
513.38	77.24
513.56	58.51
513.73	63.19
513.90	110.01
514.08	100.64
514.25	60.85
514.43	37.45
514.60	100.64
514.77	65.54
514.95	58.51
515.12	0.00
515.29	147.45
515.47	0.00
515.64	93.62
515.81	11.70
515.99	117.03
516.16	93.62
516.33	58.51
516.51	30.43
516.68	98.30
516.85	51.49
517.03	60.85
517.20	128.73
517.37	70.22
517.54	72.56
517.72	72.56
517.89	112.35
518.06	21.06
518.24	102.98
518.41	119.37
518.58	51.49
518.75	79.58
518.93	86.60
519.10	100.64
519.27	84.26
519.45	81.92
519.62	30.43
519.79	91.28
519.96	98.30
520.14	14.04
520.31	93.62
520.48	37.45
520.65	70.22
520.83	49.15
521.00	53.83
521.17	53.83
521.34	77.24
521.52	70.22
521.69	93.62
521.86	49.15
522.03	131.07
522.20	121.71
522.38	60.85
522.55	58.51
522.72	128.73
522.89	88.94
523.07	145.11
523.24	67.88
523.41	70.22
523.58	86.60
523.75	53.83
523.92	72.56
524.10	42.13
524.27	32.77
524.44	93.62
524.61	140.43
524.78	32.77
524.96	30.43
525.13	0.00
525.30	84.26
525.47	72.56
525.64	135.75
525.81	44.47
525.98	79.58
526.16	93.62
526.33	72.56
526.50	70.22
526.67	84.26
526.84	81.92
527.01	46.81
527.18	124.05
527.36	126.39
527.53	14.04
527.70	35.11
527.87	79.58
528.04	124.05
528.21	65.54
528.38	95.96
528.55	63.19
528.72	100.64
528.89	72.56
529.07	58.51
529.24	124.05
529.41	124.05
529.58	95.96
529.75	189.58
529.92	84.26
530.09	0.00
530.26	53.83
530.43	72.56
530.60	88.94
530.77	49.15
530.94	124.05
531.11	46.81
531.28	131.07
531.46	91.28
531.63	128.73
531.80	128.73
531.97	58.51
532.14	159.16
532.31	74.90
532.48	107.66
532.65	46.81
532.82	93.62
532.99	81.92
533.16	67.88
533.33	93.62
533.50	60.85
533.67	35.11
533.84	81.92
534.01	145.11
534.18	28.09
534.35	88.94
534.52	107.66
534.69	124.05
534.86	189.58
535.03	107.66
535.20	51.49
535.37	72.56
535.54	149.79
535.71	79.58
535.88	166.18
536.05	100.64
536.22	88.94
536.38	110.01
536.55	60.85
536.72	21.06
536.89	74.90
537.06	51.49
537.23	51.49
537.40	107.66
537.57	70.22
537.74	98.30
537.91	112.35
538.08	72.56
538.25	74.90
538.42	77.24
538.59	98.30
538.75	42.13
538.92	126.39
539.09	128.73
539.26	39.79
539.43	142.77
539.60	60.85
539.77	0.00
539.94	32.77
540.11	67.88
540.28	70.22
540.44	23.41
540.61	135.75
540.78	131.07
540.95	74.90
541.12	70.22
541.29	58.51
541.46	77.24
541.62	42.13
541.79	37.45
541.96	42.13
542.13	21.06
542.30	37.45
542.47	95.96
542.63	35.11
542.80	23.41
542.97	79.58
543.14	53.83
543.31	39.79
543.48	74.90
543.64	117.03
543.81	86.60
543.98	88.94
544.15	58.51
544.32	63.19
544.48	147.45
544.65	86.60
544.82	56.17
544.99	42.13
545.16	131.07
545.32	84.26
545.49	93.62
545.66	93.62
545.83	112.35
546.00	100.64
546.16	79.58
546.33	39.79
546.50	74.90
546.67	107.66
546.83	98.30
547.00	70.22
547.17	51.49
547.34	79.58
547.50	105.32
547.67	86.60
547.84	39.79
548.00	86.60
548.17	86.60
548.34	117.03
548.51	56.17
548.67	72.56
548.84	25.75
549.01	18.72
549.18	126.39
549.34	128.73
549.51	156.82
549.68	147.45
549.84	112.35
550.01	142.77
550.18	37.45
550.34	72.56
550.51	18.72
550.68	126.39
550.84	51.49
551.01	142.77
551.18	32.77
551.34	67.88
551.51	147.45
551.68	149.79
551.84	175.54
552.01	88.94
552.18	98.30
552.34	60.85
552.51	86.60
552.68	117.03
552.84	60.85
553.01	51.49
553.18	107.66
553.34	42.13
553.51	138.09
553.67	117.03
553.84	159.16
554.01	107.66
554.17	102.98
554.34	110.01
554.51	74.90
554.67	46.81
554.84	51.49
555.00	67.88
555.17	77.24
555.33	58.51
555.50	30.43
555.67	37.45
555.83	156.82
556.00	102.98
556.16	112.35
556.33	58.51
556.50	145.11
556.66	51.49
556.83	142.77
556.99	91.28
557.16	93.62
557.32	98.30
557.49	114.69
557.65	49.15
557.82	117.03
557.98	53.83
558.15	77.24
558.32	58.51
558.48	72.56
558.65	60.85
558.81	88.94
558.98	86.60
559.14	152.13
559.31	51.49
559.47	16.38
559.64	88.94
559.80	147.45
559.97	56.17
560.13	28.09
560.30	142.77
560.46	56.17
560.63	117.03
560.79	102.98
560.96	77.24
561.12	35.11
561.29	152.13
561.45	105.32
561.61	46.81
561.78	49.15
561.94	46.81
562.11	95.96
562.27	95.96
562.44	23.41
562.60	98.30
562.77	91.28
562.93	42.13
563.10	51.49
563.26	74.90
563.42	44.47
563.59	72.56
563.75	58.51
563.92	98.30
564.08	58.51
564.24	56.17
564.41	100.64
564.57	100.64
564.74	77.24
564.90	44.47
565.07	114.69
565.23	81.92
565.39	88.94
565.56	60.85
565.72	79.58
565.88	81.92
566.05	86.60
566.21	112.35
566.38	0.00
566.54	93.62
566.70	39.79
566.87	107.66
567.03	98.30
567.19	74.90
567.36	74.90
567.52	114.69
567.68	51.49
567.85	2.34
568.01	74.90
568.17	81.92
568.34	140.43
568.50	44.47
568.66	42.13
568.83	49.15
568.99	105.32
569.15	152.13
569.32	84.26
569.48	117.03
569.64	117.03
569.81	60.85
569.97	65.54
570.13	65.54
570.30	138.09
570.46	110.01
570.62	84.26
570.78	100.64
570.95	39.79
571.11	7.02
571.27	60.85
571.43	28.09
571.60	145.11
571.76	86.60
571.92	77.24
572.09	105.32
572.25	86.60
572.41	131.07
572.57	0.00
572.74	25.75
572.90	84.26
573.06	131.07
573.22	95.96
573.38	77.24
573.55	58.51
573.71	95.96
573.87	191.92
574.03	79.58
574.20	14.04
574.36	63.19
574.52	0.00
574.68	65.54
574.84	81.92
575.01	105.32
575.17	112.35
575.33	81.92
575.49	86.60
575.65	98.30
575.82	4.68
575.98	42.13
576.14	112.35
576.30	32.77
576.46	114.69
576.62	2.34
576.79	77.24
576.95	170.86
577.11	77.24
577.27	72.56
577.43	58.51
577.59	28.09
577.75	88.94
577.92	65.54
578.08	63.19
578.24	81.92
578.40	100.64
578.56	117.03
578.72	98.30
578.88	93.62
579.04	131.07
579.21	81.92
579.37	60.85
579.53	30.43
579.69	70.22
579.85	93.62
580.01	128.73
580.17	77.24
580.33	95.96
580.49	142.77
580.65	117.03
580.82	44.47
580.98	86.60
581.14	79.58
581.30	88.94
581.46	79.58
581.62	70.22
581.78	56.17
581.94	88.94
582.10	81.92
582.26	65.54
582.42	18.72
582.58	161.50
582.74	70.22
582.90	60.85
583.06	39.79
583.22	112.35
583.38	72.56
583.54	56.17
583.70	30.43
583.86	107.66
584.02	67.88
584.18	74.90
584.34	86.60
584.50	42.13
584.66	32.77
584.82	14.04
584.98	18.72
585.14	86.60
585.30	28.09
585.46	105.32
585.62	32.77
585.78	49.15
585.94	4.68
586.10	11.70
586.26	135.75
586.42	35.11
586.58	28.09
586.74	49.15
586.90	0.00
587.06	98.30
587.22	53.83
587.38	14.04
587.54	9.36
587.70	70.22
587.86	37.45
588.02	102.98
588.18	91.28
588.34	42.13
588.49	56.17
588.65	74.90
588.81	131.07
588.97	30.43
589.13	0.00
589.29	67.88
589.45	95.96
589.61	65.54
589.77	105.32
589.93	11.70
590.08	84.26
590.24	95.96
590.40	135.75
590.56	95.96
590.72	2.34
590.88	72.56
591.04	60.85
591.20	58.51
591.35	25.75
591.51	77.24
591.67	60.85
591.83	42.13
591.99	79.58
592.15	42.13
592.31	91.28
592.46	51.49
592.62	70.22
592.78	51.49
592.94	65.54
593.10	49.15
593.26	84.26
593.41	9.36
593.57	37.45
593.73	114.69
593.89	0.00
594.05	110.01
594.20	128.73
594.36	77.24
594.52	44.47
594.68	53.83
594.84	0.00
594.99	72.56
595.15	44.47
595.31	51.49
595.47	0.00
595.62	56.17
595.78	65.54
595.94	95.96
596.10	72.56
596.25	49.15
596.41	46.81
596.57	0.00
596.73	74.90
596.88	114.69
597.04	77.24
597.20	0.00
597.36	14.04
597.51	105.32
597.67	88.94
597.83	46.81
597.99	110.01
598.14	159.16
598.30	72.56
598.46	60.85
598.61	124.05
598.77	74.90
598.93	86.60
599.09	25.75
599.24	23.41
599.40	86.60
599.56	35.11
599.71	100.64
599.87	91.28
600.03	114.69
600.18	37.45
600.34	98.30
600.50	67.88
600.65	102.98
600.81	2.34
600.97	67.88
601.12	79.58
601.28	37.45
601.44	18.72
601.59	81.92
601.75	81.92
601.91	49.15
602.06	37.45
602.22	35.11
602.37	51.49
602.53	42.13
602.69	74.90
602.84	37.45
603.00	0.00
603.16	0.00
603.31	21.06
603.47	98.30
603.62	70.22
603.78	100.64
603.94	32.77
604.09	23.41
604.25	117.03
604.40	121.71
604.56	63.19
604.71	91.28
604.87	18.72
605.03	65.54
605.18	42.13
605.34	2.34
605.49	46.81
605.65	44.47
605.80	72.56
605.96	58.51
606.12	121.71
606.27	23.41
606.43	58.51
606.58	51.49
606.74	70.22
606.89	23.41
607.05	56.17
607.20	7.02
607.36	0.00
607.51	23.41
607.67	18.72
607.82	88.94
607.98	114.69
608.13	102.98
608.29	107.66
608.44	35.11
608.60	95.96
608.75	0.00
608.91	67.88
609.06	30.43
609.22	121.71
609.37	25.75
609.53	18.72
609.68	32.77
609.84	77.24
609.99	133.41
610.15	23.41
610.30	65.54
610.46	124.05
610.61	67.88
610.76	81.92
610.92	88.94
611.07	51.49
611.23	56.17
611.38	170.86
611.54	32.77
611.69	35.11
611.84	74.90
612.00	46.81
612.15	77.24
612.31	49.15
612.46	88.94
612.62	0.00
612.77	81.92
612.92	74.90
613.08	67.88
613.23	86.60
613.39	86.60
613.54	35.11
613.69	117.03
613.85	23.41
614.00	37.45
614.15	79.58
614.31	84.26
614.46	49.15
614.62	95.96
614.77	74.90
614.92	60.85
615.08	23.41
615.23	63.19
615.38	63.19
615.54	32.77
615.69	56.17
615.84	74.90
616.00	32.77
616.15	58.51
616.30	11.70
616.46	102.98
616.61	98.30
616.76	67.88
616.92	49.15
617.07	28.09
617.22	110.01
617.37	67.88
617.53	30.43
617.68	44.47
617.83	25.75
617.99	7.02
618.14	60.85
618.29	77.24
618.45	121.71
618.60	42.13
618.75	35.11
618.90	46.81
619.06	112.35
619.21	7.02
619.36	49.15
619.51	7.02
619.67	25.75
619.82	72.56
619.97	91.28
620.12	67.88
620.28	65.54
620.43	65.54
620.58	102.98
620.73	63.19
620.89	25.75
621.04	37.45
621.19	32.77
621.34	39.79
621.49	105.32
621.65	42.13
621.80	58.51
621.95	30.43
622.10	119.37
622.25	58.51
622.41	14.04
622.56	0.00
622.71	95.96
622.86	46.81
623.01	0.00
623.16	65.54
623.32	100.64
623.47	0.00
623.62	98.30
623.77	39.79
623.92	93.62
624.07	11.70
624.23	42.13
624.38	65.54
624.53	131.07
624.68	91.28
624.83	21.06
624.98	18.72
625.13	46.81
625.29	112.35
625.44	56.17
625.59	39.79
625.74	0.00
625.89	7.02
626.04	79.58
626.19	0.00
626.34	88.94
626.49	44.47
626.65	14.04
626.80	100.64
626.95	65.54
627.10	9.36
627.25	51.49
627.40	58.51
627.55	102.98
627.70	72.56
627.85	77.24
628.00	154.48
628.15	114.69
628.30	84.26
628.45	37.45
628.60	86.60
628.76	110.01
628.91	72.56
629.06	88.94
629.21	65.54
629.36	60.85
629.51	51.49
629.66	0.00
629.81	117.03
629.96	25.75
630.11	100.64
630.26	128.73
630.41	88.94
630.56	117.03
630.71	60.85
630.86	74.90
631.01	25.75
631.16	0.00
631.31	25.75
631.46	30.43
631.61	88.94
631.76	63.19
631.91	110.01
632.06	84.26
632.21	0.00
632.36	84.26
632.51	30.43
632.66	79.58
632.81	67.88
632.96	7.02
633.10	39.79
633.25	67.88
633.40	152.13
633.55	51.49
633.70	84.26
633.85	60.85
634.00	145.11
634.15	70.22
634.30	60.85
634.45	95.96
634.60	0.00
634.75	28.09
634.90	110.01
635.05	56.17
635.19	91.28
635.34	35.11
635.49	14.04
635.64	58.51
635.79	44.47
635.94	77.24
636.09	11.70
636.24	7.02
636.39	35.11
636.53	65.54
636.68	28.09
636.83	42.13
636.98	91.28
637.13	30.43
637.28	98.30
637.43	100.64
637.57	28.09
637.72	63.19
637.87	65.54
638.02	86.60
638.17	53.83
638.32	60.85
638.46	4.68
638.61	77.24
638.76	46.81
638.91	51.49
639.06	11.70
639.20	39.79
639.35	131.07
639.50	65.54
639.65	42.13
639.80	86.60
639.94	112.35
640.09	70.22
640.24	51.49
640.39	72.56
640.54	74.90
640.68	0.00
640.83	91.28
640.98	98.30
641.13	39.79
641.27	2.34
641.42	70.22
641.57	0.00
641.72	44.47
641.86	107.66
642.01	88.94
642.16	32.77
642.31	16.38
642.45	25.75
642.60	70.22
642.75	49.15
642.90	63.19
643.04	49.15
643.19	126.39
643.34	18.72
643.48	56.17
643.63	21.06
643.78	21.06
643.93	42.13
644.07	63.19
644.22	81.92
644.37	0.00
644.51	63.19
644.66	74.90
644.81	35.11
644.95	119.37
645.10	44.47
645.25	77.24
645.39	133.41
645.54	65.54
645.69	25.75
645.83	0.00
645.98	32.77
646.13	84.26
646.27	56.17
646.42	9.36
646.57	30.43
646.71	142.77
646.86	67.88
647.00	67.88
647.15	28.09
647.30	39.79
647.44	11.70
647.59	51.49
647.74	49.15
647.88	46.81
648.03	84.26
648.17	0.00
648.32	53.83
648.47	39.79
648.61	37.45
648.76	18.72
648.90	51.49
649.05	79.58
649.20	131.07
649.34	16.38
649.49	105.32
649.63	91.28
649.78	63.19
649.92	72.56
650.07	9.36
650.21	44.47
650.36	35.11
650.51	23.41
650.65	60.85
650.80	56.17
650.94	37.45
651.09	16.38
651.23	32.77
651.38	65.54
651.52	46.81
651.67	119.37
651.81	16.38
651.96	63.19
652.10	79.58
652.25	0.00
652.39	60.85
652.54	63.19
652.68	0.00
652.83	105.32
652.97	21.06
653.12	49.15
653.26	53.83
653.41	67.88
653.55	77.24
653.70	46.81
653.84	25.75
653.99	0.00
654.13	39.79
654.27	0.00
654.42	72.56
654.56	58.51
654.71	44.47
654.85	53.83
655.00	74.90
655.14	37.45
655.29	32.77
655.43	72.56
655.57	7.02
655.72	72.56
655.86	53.83
656.01	25.75
656.15	14.04
656.30	72.56
656.44	32.77
656.58	23.41
656.73	37.45
656.87	46.81
657.01	58.51
657.16	86.60
657.30	35.11
657.45	58.51
657.59	70.22
657.73	119.37
657.88	58.51
658.02	23.41
658.16	65.54
658.31	18.72
658.45	0.00
658.60	72.56
658.74	56.17
658.88	28.09
659.03	35.11
659.17	74.90
659.31	0.00
659.46	72.56
659.60	28.09
659.74	32.77
659.89	23.41
660.03	100.64
660.17	84.26
660.32	81.92
660.46	49.15
660.60	25.75
660.74	81.92
660.89	16.38
661.03	0.00
661.17	102.98
661.32	0.00
661.46	37.45
661.60	79.58
661.74	32.77
661.89	46.81
662.03	35.11
662.17	2.34
662.31	37.45
662.46	0.00
662.60	14.04
662.74	11.70
662.88	81.92
663.03	39.79
663.17	28.09
663.31	70.22
663.45	23.41
663.60	67.88
663.74	4.68
663.88	39.79
664.02	46.81
664.17	18.72
664.31	0.00
664.45	28.09
664.59	42.13
664.73	56.17
664.88	56.17
665.02	77.24
665.16	79.58
665.30	28.09
665.44	88.94
665.59	51.49
665.73	0.00
665.87	37.45
666.01	21.06
666.15	0.00
666.29	128.73
666.44	0.00
666.58	86.60
666.72	67.88
666.86	0.00
667.00	18.72
667.14	49.15
667.28	58.51
667.43	53.83
667.57	49.15
667.71	16.38
667.85	46.81
667.99	81.92
668.13	126.39
668.27	60.85
668.41	60.85
668.56	0.00
668.70	42.13
668.84	28.09
668.98	44.47
669.12	86.60
669.26	9.36
669.40	0.00
669.54	7.02
669.68	56.17
669.82	37.45
669.96	86.60
670.10	74.90
670.25	32.77
670.39	23.41
670.53	58.51
670.67	14.04
670.81	21.06
670.95	100.64
671.09	42.13
671.23	126.39
671.37	95.96
671.51	91.28
671.65	60.85
671.79	74.90
671.93	2.34
672.07	0.00
672.21	11.70
672.35	25.75
672.49	35.11
672.63	42.13
672.77	18.72
672.91	18.72
673.05	30.43
673.19	32.77
673.33	74.90
673.47	121.71
673.61	63.19
673.75	56.17
673.89	58.51
674.03	28.09
674.17	0.00
674.31	70.22
674.45	63.19
674.59	49.15
674.73	63.19
674.87	21.06
675.01	4.68
675.15	0.00
675.29	72.56
675.43	72.56
675.56	0.00
675.70	30.43
675.84	51.49
675.98	110.01
676.12	93.62
676.26	93.62
676.40	46.81
676.54	107.66
676.68	88.94
676.82	58.51
676.96	86.60
677.10	44.47
677.23	84.26
677.37	7.02
677.51	70.22
677.65	128.73
677.79	0.00
677.93	9.36
678.07	46.81
678.21	35.11
678.34	39.79
678.48	42.13
678.62	42.13
678.76	42.13
678.90	84.26
679.04	46.81
679.18	25.75
679.31	63.19
679.45	51.49
679.59	42.13
679.73	65.54
679.87	0.00
680.00	112.35
680.14	49.15
680.28	51.49
680.42	70.22
680.56	58.51
680.70	46.81
680.83	37.45
680.97	39.79
681.11	0.00
681.25	32.77
681.39	9.36
681.52	53.83
681.66	0.00
681.80	100.64
681.94	93.62
682.07	37.45
682.21	58.51
682.35	37.45
682.49	95.96
682.62	74.90
682.76	119.37
682.90	46.81
683.04	30.43
683.17	7.02
683.31	0.00
683.45	0.00
683.59	25.75
683.72	21.06
683.86	4.68
684.00	7.02
684.13	0.00
684.27	0.00
684.41	0.00
684.55	46.81
684.68	49.15
684.82	37.45
684.96	56.17
685.09	28.09
685.23	28.09
685.37	14.04
685.50	70.22
685.64	86.60
685.78	56.17
685.91	28.09
686.05	42.13
686.19	88.94
686.32	51.49
686.46	91.28
686.60	30.43
686.73	0.00
686.87	65.54
687.01	49.15
687.14	65.54
687.28	0.00
687.42	4.68
687.55	152.13
687.69	9.36
687.82	79.58
687.96	11.70
688.10	0.00
688.23	28.09
688.37	14.04
688.50	11.70
688.64	77.24
688.78	88.94
688.91	35.11
689.05	65.54
689.18	35.11
689.32	32.77
689.46	46.81
689.59	0.00
689.73	11.70
689.86	0.00
690.00	49.15
690.13	56.17
690.27	74.90
690.41	93.62
690.54	14.04
690.68	79.58
690.81	0.00
690.95	79.58
691.08	46.81
691.22	100.64
691.35	91.28
691.49	0.00
691.62	28.09
691.76	2.34
691.89	11.70
692.03	44.47
692.16	53.83
692.30	88.94
692.43	67.88
692.57	0.00
692.70	126.39
692.84	77.24
692.97	9.36
693.11	51.49
693.24	44.47
693.38	11.70
693.51	9.36
693.65	11.70
693.78	67.88
693.92	30.43
694.05	28.09
694.19	0.00
694.32	25.75
694.45	72.56
694.59	49.15
694.72	39.79
694.86	128.73
694.99	32.77
695.13	53.83
695.26	65.54
695.39	4.68
695.53	30.43
695.66	32.77
695.80	51.49
695.93	28.09
696.07	25.75
696.20	0.00
696.33	0.00
696.47	58.51
696.60	0.00
696.73	49.15
696.87	51.49
697.00	28.09
697.14	0.00
697.27	49.15
697.40	2.34
697.54	4.68
697.67	49.15
697.80	53.83
697.94	110.01
698.07	0.00
698.21	0.00
698.34	35.11
698.47	49.15
698.61	49.15
698.74	2.34
698.87	88.94
699.01	18.72
699.14	51.49
699.27	88.94
699.40	25.75
699.54	9.36
699.67	84.26
699.80	65.54
699.94	32.77
700.07	46.81
700.20	0.00
700.34	46.81
700.47	2.34
700.60	30.43
700.73	21.06
700.87	88.94
701.00	53.83
701.13	56.17
701.26	0.00
701.40	88.94
701.53	42.13
701.66	39.79
701.79	35.11
701.93	65.54
702.06	65.54
702.19	63.19
702.32	117.03
702.46	14.04
702.59	60.85
702.72	84.26
702.85	39.79
702.99	18.72
703.12	49.15
703.25	0.00
703.38	51.49
703.51	88.94
703.65	16.38
703.78	4.68
703.91	0.00
704.04	39.79
704.17	70.22
704.31	25.75
704.44	56.17
704.57	77.24
704.70	46.81
704.83	0.00
704.96	112.35
705.10	0.00
705.23	23.41
>>>>>End Processed Spectral Data<<<<<
