SpectraSuite Data File
++++++++++++++++++++++++++++++++++++
Date: Fri Oct 04 12:13:34 GMT-05:00 2013
User: price-jones
Dark Spectrum Present: No
Reference Spectrum Present: No
Number of Sampled Component Spectra: 1
Spectrometers: USB2+H05261
Integration Time (usec): 10000 (USB2+H05261)
Spectra Averaged: 1 (USB2+H05261)
Boxcar Smoothing: 0 (USB2+H05261)
Correct for Electrical Dark: No (USB2+H05261)
Strobe/Lamp Enabled: No (USB2+H05261)
Correct for Detector Non-linearity: No (USB2+H05261)
Correct for Stray Light: No (USB2+H05261)
Number of Pixels in Processed Spectrum: 2048
>>>>>Begin Processed Spectral Data<<<<<
365.73	0.00
365.92	0.00
366.12	0.00
366.32	0.00
366.52	0.00
366.72	0.00
366.91	0.00
367.11	0.00
367.31	0.00
367.51	0.00
367.70	0.00
367.90	0.00
368.10	0.00
368.30	0.00
368.49	0.00
368.69	0.00
368.89	0.00
369.09	0.00
369.28	0.00
369.48	0.00
369.68	0.00
369.87	0.00
370.07	0.00
370.27	0.00
370.47	0.00
370.66	14.04
370.86	0.00
371.06	0.00
371.25	0.00
371.45	0.00
371.65	0.00
371.84	25.75
372.04	0.00
372.24	2.34
372.44	39.79
372.63	7.02
372.83	11.70
373.03	0.00
373.22	117.03
373.42	58.51
373.62	49.15
373.81	110.01
374.01	23.41
374.21	2.34
374.40	51.49
374.60	9.36
374.79	0.00
374.99	51.49
375.19	67.88
375.38	49.15
375.58	0.00
375.78	32.77
375.97	114.69
376.17	65.54
376.37	0.00
376.56	70.22
376.76	0.00
376.95	51.49
377.15	56.17
377.35	28.09
377.54	0.00
377.74	11.70
377.93	9.36
378.13	53.83
378.33	74.90
378.52	39.79
378.72	49.15
378.91	46.81
379.11	49.15
379.31	110.01
379.50	0.00
379.70	0.00
379.89	9.36
380.09	79.58
380.28	79.58
380.48	21.06
380.68	30.43
380.87	0.00
381.07	0.00
381.26	9.36
381.46	25.75
381.65	0.00
381.85	0.00
382.04	0.00
382.24	0.00
382.43	0.00
382.63	23.41
382.83	2.34
383.02	0.00
383.22	14.04
383.41	4.68
383.61	0.00
383.80	49.15
384.00	0.00
384.19	42.13
384.39	16.38
384.58	0.00
384.78	0.00
384.97	25.75
385.17	79.58
385.36	0.00
385.56	0.00
385.75	14.04
385.95	35.11
386.14	21.06
386.34	35.11
386.53	39.79
386.72	37.45
386.92	11.70
387.11	39.79
387.31	16.38
387.50	0.00
387.70	79.58
387.89	28.09
388.09	51.49
388.28	32.77
388.48	14.04
388.67	9.36
388.86	39.79
389.06	11.70
389.25	14.04
389.45	65.54
389.64	23.41
389.84	39.79
390.03	0.00
390.22	18.72
390.42	14.04
390.61	81.92
390.81	23.41
391.00	39.79
391.19	84.26
391.39	9.36
391.58	42.13
391.78	0.00
391.97	32.77
392.16	11.70
392.36	25.75
392.55	74.90
392.75	0.00
392.94	25.75
393.13	0.00
393.33	0.00
393.52	77.24
393.71	42.13
393.91	9.36
394.10	11.70
394.29	0.00
394.49	16.38
394.68	79.58
394.88	32.77
395.07	51.49
395.26	77.24
395.46	86.60
395.65	32.77
395.84	30.43
396.04	0.00
396.23	7.02
396.42	2.34
396.62	56.17
396.81	37.45
397.00	67.88
397.19	49.15
397.39	30.43
397.58	67.88
397.77	21.06
397.97	42.13
398.16	32.77
398.35	70.22
398.55	21.06
398.74	74.90
398.93	0.00
399.12	42.13
399.32	0.00
399.51	0.00
399.70	0.00
399.90	0.00
400.09	63.19
400.28	25.75
400.47	16.38
400.67	0.00
400.86	0.00
401.05	72.56
401.24	0.00
401.44	0.00
401.63	0.00
401.82	74.90
402.01	93.62
402.21	23.41
402.40	53.83
402.59	0.00
402.78	32.77
402.97	4.68
403.17	7.02
403.36	44.47
403.55	0.00
403.74	39.79
403.93	9.36
404.13	58.51
404.32	9.36
404.51	4.68
404.70	100.64
404.89	0.00
405.09	0.00
405.28	63.19
405.47	72.56
405.66	51.49
405.85	37.45
406.05	93.62
406.24	0.00
406.43	16.38
406.62	0.00
406.81	49.15
407.00	46.81
407.20	25.75
407.39	0.00
407.58	28.09
407.77	18.72
407.96	51.49
408.15	9.36
408.34	14.04
408.54	86.60
408.73	7.02
408.92	9.36
409.11	0.00
409.30	14.04
409.49	37.45
409.68	100.64
409.87	49.15
410.07	32.77
410.26	70.22
410.45	46.81
410.64	58.51
410.83	0.00
411.02	70.22
411.21	121.71
411.40	67.88
411.59	23.41
411.78	67.88
411.98	98.30
412.17	65.54
412.36	51.49
412.55	58.51
412.74	67.88
412.93	21.06
413.12	11.70
413.31	30.43
413.50	70.22
413.69	60.85
413.88	37.45
414.07	0.00
414.26	72.56
414.45	30.43
414.64	30.43
414.83	0.00
415.02	72.56
415.22	0.00
415.41	63.19
415.60	0.00
415.79	11.70
415.98	11.70
416.17	63.19
416.36	0.00
416.55	56.17
416.74	58.51
416.93	4.68
417.12	102.98
417.31	11.70
417.50	77.24
417.69	84.26
417.88	72.56
418.07	0.00
418.26	7.02
418.45	9.36
418.64	88.94
418.83	30.43
419.02	0.00
419.21	18.72
419.39	81.92
419.58	0.00
419.77	49.15
419.96	21.06
420.15	35.11
420.34	14.04
420.53	11.70
420.72	98.30
420.91	0.00
421.10	2.34
421.29	16.38
421.48	0.00
421.67	131.07
421.86	9.36
422.05	44.47
422.24	23.41
422.43	58.51
422.61	107.66
422.80	60.85
422.99	91.28
423.18	72.56
423.37	21.06
423.56	39.79
423.75	105.32
423.94	0.00
424.13	44.47
424.32	74.90
424.50	46.81
424.69	30.43
424.88	91.28
425.07	23.41
425.26	107.66
425.45	23.41
425.64	14.04
425.83	74.90
426.01	53.83
426.20	9.36
426.39	0.00
426.58	30.43
426.77	88.94
426.96	117.03
427.15	0.00
427.33	88.94
427.52	4.68
427.71	77.24
427.90	32.77
428.09	79.58
428.28	0.00
428.46	51.49
428.65	21.06
428.84	93.62
429.03	65.54
429.22	9.36
429.40	25.75
429.59	25.75
429.78	105.32
429.97	32.77
430.16	0.00
430.34	7.02
430.53	84.26
430.72	56.17
430.91	46.81
431.10	44.47
431.28	102.98
431.47	77.24
431.66	77.24
431.85	49.15
432.03	32.77
432.22	49.15
432.41	0.00
432.60	70.22
432.79	65.54
432.97	14.04
433.16	58.51
433.35	0.00
433.54	56.17
433.72	0.00
433.91	0.00
434.10	0.00
434.28	0.00
434.47	51.49
434.66	28.09
434.85	25.75
435.03	14.04
435.22	0.00
435.41	0.00
435.59	100.64
435.78	79.58
435.97	121.71
436.16	25.75
436.34	86.60
436.53	72.56
436.72	0.00
436.90	25.75
437.09	81.92
437.28	56.17
437.46	93.62
437.65	91.28
437.84	77.24
438.02	124.05
438.21	65.54
438.40	21.06
438.58	65.54
438.77	51.49
438.96	18.72
439.14	72.56
439.33	14.04
439.52	18.72
439.70	51.49
439.89	121.71
440.08	65.54
440.26	119.37
440.45	25.75
440.63	9.36
440.82	37.45
441.01	51.49
441.19	44.47
441.38	23.41
441.57	91.28
441.75	4.68
441.94	37.45
442.12	0.00
442.31	4.68
442.50	0.00
442.68	56.17
442.87	72.56
443.05	110.01
443.24	28.09
443.43	67.88
443.61	84.26
443.80	93.62
443.98	63.19
444.17	44.47
444.35	37.45
444.54	0.00
444.73	88.94
444.91	14.04
445.10	14.04
445.28	53.83
445.47	35.11
445.65	0.00
445.84	100.64
446.02	100.64
446.21	63.19
446.39	81.92
446.58	44.47
446.77	63.19
446.95	44.47
447.14	67.88
447.32	121.71
447.51	25.75
447.69	117.03
447.88	28.09
448.06	58.51
448.25	91.28
448.43	67.88
448.62	119.37
448.80	58.51
448.99	110.01
449.17	60.85
449.36	35.11
449.54	110.01
449.73	72.56
449.91	93.62
450.10	0.00
450.28	28.09
450.46	124.05
450.65	81.92
450.83	51.49
451.02	95.96
451.20	49.15
451.39	119.37
451.57	30.43
451.76	35.11
451.94	39.79
452.13	51.49
452.31	0.00
452.49	51.49
452.68	77.24
452.86	39.79
453.05	72.56
453.23	102.98
453.42	16.38
453.60	46.81
453.78	114.69
453.97	51.49
454.15	77.24
454.34	32.77
454.52	58.51
454.70	170.86
454.89	42.13
455.07	35.11
455.26	7.02
455.44	88.94
455.62	7.02
455.81	49.15
455.99	67.88
456.17	63.19
456.36	79.58
456.54	23.41
456.73	121.71
456.91	60.85
457.09	42.13
457.28	14.04
457.46	39.79
457.64	44.47
457.83	25.75
458.01	16.38
458.19	49.15
458.38	88.94
458.56	81.92
458.74	4.68
458.93	77.24
459.11	95.96
459.29	121.71
459.48	37.45
459.66	53.83
459.84	37.45
460.03	58.51
460.21	2.34
460.39	88.94
460.57	46.81
460.76	110.01
460.94	4.68
461.12	81.92
461.31	21.06
461.49	2.34
461.67	56.17
461.85	100.64
462.04	63.19
462.22	39.79
462.40	65.54
462.59	88.94
462.77	49.15
462.95	107.66
463.13	2.34
463.32	32.77
463.50	39.79
463.68	86.60
463.86	44.47
464.05	37.45
464.23	86.60
464.41	37.45
464.59	56.17
464.78	18.72
464.96	23.41
465.14	58.51
465.32	25.75
465.50	79.58
465.69	77.24
465.87	53.83
466.05	88.94
466.23	81.92
466.41	63.19
466.60	72.56
466.78	37.45
466.96	2.34
467.14	21.06
467.32	53.83
467.51	0.00
467.69	53.83
467.87	51.49
468.05	39.79
468.23	56.17
468.41	37.45
468.60	51.49
468.78	0.00
468.96	84.26
469.14	39.79
469.32	67.88
469.50	32.77
469.69	63.19
469.87	65.54
470.05	77.24
470.23	9.36
470.41	56.17
470.59	0.00
470.77	70.22
470.95	9.36
471.14	65.54
471.32	110.01
471.50	42.13
471.68	35.11
471.86	0.00
472.04	65.54
472.22	112.35
472.40	72.56
472.58	44.47
472.77	119.37
472.95	56.17
473.13	110.01
473.31	18.72
473.49	42.13
473.67	25.75
473.85	88.94
474.03	23.41
474.21	110.01
474.39	67.88
474.57	39.79
474.75	28.09
474.93	42.13
475.12	42.13
475.30	70.22
475.48	79.58
475.66	63.19
475.84	0.00
476.02	0.00
476.20	35.11
476.38	60.85
476.56	84.26
476.74	0.00
476.92	60.85
477.10	60.85
477.28	28.09
477.46	25.75
477.64	63.19
477.82	14.04
478.00	74.90
478.18	18.72
478.36	67.88
478.54	65.54
478.72	63.19
478.90	95.96
479.08	2.34
479.26	119.37
479.44	93.62
479.62	95.96
479.80	86.60
479.98	21.06
480.16	0.00
480.34	30.43
480.52	102.98
480.70	88.94
480.88	67.88
481.06	58.51
481.24	95.96
481.41	138.09
481.59	117.03
481.77	91.28
481.95	63.19
482.13	14.04
482.31	65.54
482.49	67.88
482.67	53.83
482.85	53.83
483.03	81.92
483.21	18.72
483.39	112.35
483.57	77.24
483.74	67.88
483.92	67.88
484.10	100.64
484.28	53.83
484.46	32.77
484.64	70.22
484.82	14.04
485.00	32.77
485.18	84.26
485.35	2.34
485.53	70.22
485.71	53.83
485.89	119.37
486.07	74.90
486.25	74.90
486.43	9.36
486.61	107.66
486.78	79.58
486.96	56.17
487.14	0.00
487.32	56.17
487.50	65.54
487.68	44.47
487.85	4.68
488.03	32.77
488.21	110.01
488.39	67.88
488.57	67.88
488.75	79.58
488.92	32.77
489.10	114.69
489.28	86.60
489.46	110.01
489.64	46.81
489.81	84.26
489.99	49.15
490.17	37.45
490.35	77.24
490.53	9.36
490.70	44.47
490.88	67.88
491.06	86.60
491.24	35.11
491.41	42.13
491.59	9.36
491.77	65.54
491.95	35.11
492.13	67.88
492.30	0.00
492.48	110.01
492.66	46.81
492.84	72.56
493.01	42.13
493.19	35.11
493.37	77.24
493.54	84.26
493.72	98.30
493.90	16.38
494.08	28.09
494.25	88.94
494.43	81.92
494.61	117.03
494.79	0.00
494.96	16.38
495.14	100.64
495.32	28.09
495.49	0.00
495.67	110.01
495.85	23.41
496.02	37.45
496.20	142.77
496.38	100.64
496.55	110.01
496.73	91.28
496.91	60.85
497.09	95.96
497.26	131.07
497.44	100.64
497.62	70.22
497.79	46.81
497.97	2.34
498.14	51.49
498.32	72.56
498.50	84.26
498.67	77.24
498.85	128.73
499.03	91.28
499.20	133.41
499.38	65.54
499.56	70.22
499.73	145.11
499.91	56.17
500.08	37.45
500.26	63.19
500.44	110.01
500.61	93.62
500.79	39.79
500.97	11.70
501.14	95.96
501.32	117.03
501.49	102.98
501.67	42.13
501.84	84.26
502.02	37.45
502.20	100.64
502.37	79.58
502.55	49.15
502.72	56.17
502.90	58.51
503.07	72.56
503.25	95.96
503.43	84.26
503.60	88.94
503.78	88.94
503.95	49.15
504.13	117.03
504.30	77.24
504.48	86.60
504.65	93.62
504.83	56.17
505.01	133.41
505.18	140.43
505.36	74.90
505.53	145.11
505.71	65.54
505.88	93.62
506.06	56.17
506.23	11.70
506.41	25.75
506.58	84.26
506.76	107.66
506.93	46.81
507.11	110.01
507.28	65.54
507.46	114.69
507.63	72.56
507.81	105.32
507.98	81.92
508.16	93.62
508.33	30.43
508.50	102.98
508.68	88.94
508.85	117.03
509.03	88.94
509.20	67.88
509.38	140.43
509.55	21.06
509.73	102.98
509.90	70.22
510.08	110.01
510.25	67.88
510.42	65.54
510.60	2.34
510.77	58.51
510.95	79.58
511.12	53.83
511.30	126.39
511.47	28.09
511.64	110.01
511.82	124.05
511.99	56.17
512.17	60.85
512.34	128.73
512.51	114.69
512.69	51.49
512.86	81.92
513.04	98.30
513.21	124.05
513.38	88.94
513.56	67.88
513.73	126.39
513.90	39.79
514.08	67.88
514.25	112.35
514.43	74.90
514.60	65.54
514.77	42.13
514.95	112.35
515.12	140.43
515.29	88.94
515.47	91.28
515.64	126.39
515.81	117.03
515.99	72.56
516.16	0.00
516.33	86.60
516.51	135.75
516.68	102.98
516.85	105.32
517.03	74.90
517.20	114.69
517.37	102.98
517.54	93.62
517.72	102.98
517.89	37.45
518.06	63.19
518.24	88.94
518.41	110.01
518.58	60.85
518.75	28.09
518.93	58.51
519.10	88.94
519.27	23.41
519.45	77.24
519.62	112.35
519.79	138.09
519.96	37.45
520.14	93.62
520.31	53.83
520.48	70.22
520.65	77.24
520.83	105.32
521.00	0.00
521.17	142.77
521.34	21.06
521.52	63.19
521.69	100.64
521.86	102.98
522.03	60.85
522.20	135.75
522.38	81.92
522.55	77.24
522.72	84.26
522.89	60.85
523.07	93.62
523.24	70.22
523.41	182.56
523.58	35.11
523.75	74.90
523.92	131.07
524.10	67.88
524.27	100.64
524.44	67.88
524.61	53.83
524.78	105.32
524.96	98.30
525.13	88.94
525.30	46.81
525.47	102.98
525.64	70.22
525.81	131.07
525.98	93.62
526.16	49.15
526.33	95.96
526.50	91.28
526.67	70.22
526.84	46.81
527.01	37.45
527.18	18.72
527.36	53.83
527.53	81.92
527.70	93.62
527.87	44.47
528.04	56.17
528.21	79.58
528.38	30.43
528.55	30.43
528.72	91.28
528.89	56.17
529.07	56.17
529.24	18.72
529.41	95.96
529.58	81.92
529.75	25.75
529.92	72.56
530.09	105.32
530.26	51.49
530.43	110.01
530.60	81.92
530.77	95.96
530.94	39.79
531.11	39.79
531.28	37.45
531.46	138.09
531.63	88.94
531.80	142.77
531.97	110.01
532.14	135.75
532.31	91.28
532.48	102.98
532.65	70.22
532.82	105.32
532.99	51.49
533.16	100.64
533.33	56.17
533.50	86.60
533.67	117.03
533.84	124.05
534.01	46.81
534.18	72.56
534.35	142.77
534.52	60.85
534.69	110.01
534.86	119.37
535.03	117.03
535.20	95.96
535.37	140.43
535.54	98.30
535.71	63.19
535.88	60.85
536.05	86.60
536.22	131.07
536.38	124.05
536.55	49.15
536.72	67.88
536.89	72.56
537.06	91.28
537.23	28.09
537.40	159.16
537.57	91.28
537.74	140.43
537.91	70.22
538.08	77.24
538.25	110.01
538.42	63.19
538.59	86.60
538.75	49.15
538.92	102.98
539.09	58.51
539.26	67.88
539.43	86.60
539.60	72.56
539.77	56.17
539.94	58.51
540.11	119.37
540.28	70.22
540.44	0.00
540.61	49.15
540.78	81.92
540.95	102.98
541.12	154.48
541.29	156.82
541.46	124.05
541.62	25.75
541.79	102.98
541.96	88.94
542.13	91.28
542.30	100.64
542.47	93.62
542.63	107.66
542.80	105.32
542.97	93.62
543.14	39.79
543.31	110.01
543.48	35.11
543.64	74.90
543.81	91.28
543.98	124.05
544.15	98.30
544.32	86.60
544.48	51.49
544.65	72.56
544.82	79.58
544.99	65.54
545.16	100.64
545.32	49.15
545.49	112.35
545.66	70.22
545.83	110.01
546.00	56.17
546.16	88.94
546.33	98.30
546.50	93.62
546.67	107.66
546.83	114.69
547.00	131.07
547.17	131.07
547.34	65.54
547.50	84.26
547.67	110.01
547.84	81.92
548.00	32.77
548.17	95.96
548.34	58.51
548.51	56.17
548.67	138.09
548.84	63.19
549.01	98.30
549.18	63.19
549.34	84.26
549.51	126.39
549.68	154.48
549.84	168.52
550.01	72.56
550.18	37.45
550.34	23.41
550.51	140.43
550.68	107.66
550.84	70.22
551.01	142.77
551.18	95.96
551.34	86.60
551.51	121.71
551.68	126.39
551.84	65.54
552.01	126.39
552.18	107.66
552.34	63.19
552.51	110.01
552.68	159.16
552.84	42.13
553.01	51.49
553.18	63.19
553.34	98.30
553.51	42.13
553.67	84.26
553.84	7.02
554.01	81.92
554.17	210.65
554.34	37.45
554.51	65.54
554.67	114.69
554.84	81.92
555.00	74.90
555.17	93.62
555.33	53.83
555.50	95.96
555.67	88.94
555.83	63.19
556.00	9.36
556.16	42.13
556.33	149.79
556.50	63.19
556.66	25.75
556.83	88.94
556.99	39.79
557.16	138.09
557.32	60.85
557.49	7.02
557.65	18.72
557.82	91.28
557.98	107.66
558.15	147.45
558.32	16.38
558.48	63.19
558.65	42.13
558.81	102.98
558.98	149.79
559.14	88.94
559.31	16.38
559.47	37.45
559.64	49.15
559.80	121.71
559.97	58.51
560.13	102.98
560.30	84.26
560.46	46.81
560.63	95.96
560.79	60.85
560.96	30.43
561.12	84.26
561.29	14.04
561.45	28.09
561.61	72.56
561.78	70.22
561.94	53.83
562.11	63.19
562.27	86.60
562.44	35.11
562.60	138.09
562.77	133.41
562.93	81.92
563.10	95.96
563.26	65.54
563.42	77.24
563.59	42.13
563.75	91.28
563.92	65.54
564.08	42.13
564.24	70.22
564.41	149.79
564.57	102.98
564.74	70.22
564.90	53.83
565.07	88.94
565.23	4.68
565.39	128.73
565.56	56.17
565.72	35.11
565.88	131.07
566.05	79.58
566.21	37.45
566.38	159.16
566.54	119.37
566.70	58.51
566.87	131.07
567.03	35.11
567.19	21.06
567.36	67.88
567.52	9.36
567.68	140.43
567.85	124.05
568.01	60.85
568.17	14.04
568.34	142.77
568.50	70.22
568.66	42.13
568.83	39.79
568.99	63.19
569.15	37.45
569.32	70.22
569.48	65.54
569.64	7.02
569.81	9.36
569.97	147.45
570.13	135.75
570.30	119.37
570.46	56.17
570.62	93.62
570.78	37.45
570.95	28.09
571.11	117.03
571.27	93.62
571.43	70.22
571.60	93.62
571.76	88.94
571.92	51.49
572.09	44.47
572.25	2.34
572.41	100.64
572.57	95.96
572.74	72.56
572.90	79.58
573.06	53.83
573.22	30.43
573.38	88.94
573.55	53.83
573.71	110.01
573.87	60.85
574.03	70.22
574.20	131.07
574.36	107.66
574.52	86.60
574.68	11.70
574.84	86.60
575.01	53.83
575.17	149.79
575.33	51.49
575.49	51.49
575.65	79.58
575.82	70.22
575.98	140.43
576.14	154.48
576.30	86.60
576.46	58.51
576.62	51.49
576.79	119.37
576.95	119.37
577.11	9.36
577.27	114.69
577.43	63.19
577.59	114.69
577.75	53.83
577.92	0.00
578.08	49.15
578.24	70.22
578.40	105.32
578.56	86.60
578.72	98.30
578.88	147.45
579.04	42.13
579.21	93.62
579.37	67.88
579.53	81.92
579.69	81.92
579.85	112.35
580.01	145.11
580.17	79.58
580.33	110.01
580.49	53.83
580.65	0.00
580.82	67.88
580.98	16.38
581.14	152.13
581.30	32.77
581.46	126.39
581.62	105.32
581.78	84.26
581.94	88.94
582.10	63.19
582.26	135.75
582.42	39.79
582.58	95.96
582.74	56.17
582.90	74.90
583.06	98.30
583.22	88.94
583.38	39.79
583.54	124.05
583.70	88.94
583.86	42.13
584.02	121.71
584.18	63.19
584.34	105.32
584.50	79.58
584.66	39.79
584.82	88.94
584.98	77.24
585.14	131.07
585.30	102.98
585.46	42.13
585.62	9.36
585.78	84.26
585.94	102.98
586.10	53.83
586.26	86.60
586.42	138.09
586.58	126.39
586.74	30.43
586.90	46.81
587.06	86.60
587.22	53.83
587.38	119.37
587.54	135.75
587.70	67.88
587.86	84.26
588.02	100.64
588.18	72.56
588.34	53.83
588.49	51.49
588.65	74.90
588.81	70.22
588.97	126.39
589.13	88.94
589.29	16.38
589.45	110.01
589.61	114.69
589.77	65.54
589.93	63.19
590.08	91.28
590.24	72.56
590.40	86.60
590.56	102.98
590.72	81.92
590.88	21.06
591.04	58.51
591.20	0.00
591.35	117.03
591.51	74.90
591.67	102.98
591.83	16.38
591.99	81.92
592.15	112.35
592.31	53.83
592.46	25.75
592.62	39.79
592.78	49.15
592.94	88.94
593.10	18.72
593.26	63.19
593.41	81.92
593.57	9.36
593.73	51.49
593.89	81.92
594.05	7.02
594.20	39.79
594.36	67.88
594.52	77.24
594.68	11.70
594.84	23.41
594.99	63.19
595.15	51.49
595.31	84.26
595.47	126.39
595.62	23.41
595.78	18.72
595.94	25.75
596.10	46.81
596.25	58.51
596.41	70.22
596.57	32.77
596.73	58.51
596.88	44.47
597.04	51.49
597.20	42.13
597.36	23.41
597.51	98.30
597.67	126.39
597.83	46.81
597.99	114.69
598.14	39.79
598.30	56.17
598.46	18.72
598.61	86.60
598.77	72.56
598.93	39.79
599.09	60.85
599.24	70.22
599.40	35.11
599.56	72.56
599.71	126.39
599.87	110.01
600.03	77.24
600.18	74.90
600.34	37.45
600.50	46.81
600.65	105.32
600.81	58.51
600.97	100.64
601.12	84.26
601.28	46.81
601.44	124.05
601.59	77.24
601.75	86.60
601.91	56.17
602.06	28.09
602.22	60.85
602.37	88.94
602.53	28.09
602.69	18.72
602.84	46.81
603.00	37.45
603.16	53.83
603.31	110.01
603.47	131.07
603.62	74.90
603.78	51.49
603.94	79.58
604.09	11.70
604.25	105.32
604.40	18.72
604.56	56.17
604.71	70.22
604.87	58.51
605.03	93.62
605.18	58.51
605.34	49.15
605.49	4.68
605.65	70.22
605.80	100.64
605.96	58.51
606.12	63.19
606.27	18.72
606.43	63.19
606.58	91.28
606.74	46.81
606.89	32.77
607.05	51.49
607.20	14.04
607.36	100.64
607.51	67.88
607.67	138.09
607.82	102.98
607.98	84.26
608.13	79.58
608.29	18.72
608.44	84.26
608.60	7.02
608.75	98.30
608.91	79.58
609.06	93.62
609.22	98.30
609.37	102.98
609.53	81.92
609.68	56.17
609.84	60.85
609.99	7.02
610.15	63.19
610.30	84.26
610.46	131.07
610.61	2.34
610.76	67.88
610.92	39.79
611.07	63.19
611.23	107.66
611.38	60.85
611.54	23.41
611.69	140.43
611.84	44.47
612.00	39.79
612.15	88.94
612.31	30.43
612.46	65.54
612.62	56.17
612.77	72.56
612.92	65.54
613.08	58.51
613.23	105.32
613.39	77.24
613.54	128.73
613.69	114.69
613.85	35.11
614.00	77.24
614.15	72.56
614.31	14.04
614.46	81.92
614.62	44.47
614.77	56.17
614.92	42.13
615.08	91.28
615.23	93.62
615.38	86.60
615.54	100.64
615.69	121.71
615.84	67.88
616.00	11.70
616.15	86.60
616.30	28.09
616.46	18.72
616.61	86.60
616.76	28.09
616.92	107.66
617.07	119.37
617.22	53.83
617.37	110.01
617.53	65.54
617.68	53.83
617.83	79.58
617.99	79.58
618.14	117.03
618.29	11.70
618.45	88.94
618.60	46.81
618.75	0.00
618.90	25.75
619.06	65.54
619.21	88.94
619.36	11.70
619.51	21.06
619.67	72.56
619.82	37.45
619.97	77.24
620.12	18.72
620.28	72.56
620.43	25.75
620.58	7.02
620.73	67.88
620.89	63.19
621.04	86.60
621.19	128.73
621.34	35.11
621.49	88.94
621.65	107.66
621.80	114.69
621.95	35.11
622.10	0.00
622.25	128.73
622.41	107.66
622.56	79.58
622.71	98.30
622.86	30.43
623.01	124.05
623.16	84.26
623.32	110.01
623.47	77.24
623.62	100.64
623.77	25.75
623.92	14.04
624.07	9.36
624.23	72.56
624.38	18.72
624.53	79.58
624.68	110.01
624.83	74.90
624.98	117.03
625.13	77.24
625.29	145.11
625.44	7.02
625.59	7.02
625.74	0.00
625.89	51.49
626.04	37.45
626.19	23.41
626.34	35.11
626.49	30.43
626.65	98.30
626.80	119.37
626.95	98.30
627.10	11.70
627.25	74.90
627.40	86.60
627.55	30.43
627.70	58.51
627.85	42.13
628.00	23.41
628.15	81.92
628.30	58.51
628.45	42.13
628.60	63.19
628.76	102.98
628.91	0.00
629.06	44.47
629.21	63.19
629.36	98.30
629.51	77.24
629.66	119.37
629.81	77.24
629.96	56.17
630.11	18.72
630.26	39.79
630.41	72.56
630.56	56.17
630.71	53.83
630.86	35.11
631.01	25.75
631.16	65.54
631.31	81.92
631.46	81.92
631.61	16.38
631.76	0.00
631.91	32.77
632.06	77.24
632.21	51.49
632.36	39.79
632.51	126.39
632.66	74.90
632.81	114.69
632.96	14.04
633.10	46.81
633.25	72.56
633.40	0.00
633.55	32.77
633.70	102.98
633.85	23.41
634.00	79.58
634.15	147.45
634.30	35.11
634.45	88.94
634.60	74.90
634.75	53.83
634.90	28.09
635.05	53.83
635.19	49.15
635.34	30.43
635.49	65.54
635.64	21.06
635.79	70.22
635.94	60.85
636.09	39.79
636.24	56.17
636.39	98.30
636.53	70.22
636.68	88.94
636.83	9.36
636.98	51.49
637.13	86.60
637.28	63.19
637.43	0.00
637.57	18.72
637.72	58.51
637.87	124.05
638.02	74.90
638.17	32.77
638.32	0.00
638.46	0.00
638.61	77.24
638.76	0.00
638.91	49.15
639.06	65.54
639.20	56.17
639.35	72.56
639.50	49.15
639.65	63.19
639.80	11.70
639.94	81.92
640.09	23.41
640.24	4.68
640.39	91.28
640.54	21.06
640.68	102.98
640.83	39.79
640.98	42.13
641.13	131.07
641.27	30.43
641.42	58.51
641.57	60.85
641.72	128.73
641.86	95.96
642.01	56.17
642.16	51.49
642.31	25.75
642.45	81.92
642.60	53.83
642.75	23.41
642.90	112.35
643.04	0.00
643.19	4.68
643.34	107.66
643.48	14.04
643.63	84.26
643.78	79.58
643.93	58.51
644.07	39.79
644.22	35.11
644.37	42.13
644.51	42.13
644.66	91.28
644.81	74.90
644.95	42.13
645.10	37.45
645.25	25.75
645.39	0.00
645.54	14.04
645.69	63.19
645.83	35.11
645.98	114.69
646.13	11.70
646.27	23.41
646.42	23.41
646.57	138.09
646.71	67.88
646.86	28.09
647.00	35.11
647.15	77.24
647.30	21.06
647.44	102.98
647.59	77.24
647.74	35.11
647.88	93.62
648.03	44.47
648.17	77.24
648.32	37.45
648.47	9.36
648.61	49.15
648.76	119.37
648.90	37.45
649.05	9.36
649.20	0.00
649.34	28.09
649.49	86.60
649.63	25.75
649.78	49.15
649.92	98.30
650.07	70.22
650.21	93.62
650.36	51.49
650.51	4.68
650.65	58.51
650.80	72.56
650.94	102.98
651.09	21.06
651.23	28.09
651.38	49.15
651.52	128.73
651.67	67.88
651.81	16.38
651.96	65.54
652.10	58.51
652.25	63.19
652.39	100.64
652.54	51.49
652.68	46.81
652.83	23.41
652.97	46.81
653.12	56.17
653.26	60.85
653.41	2.34
653.55	88.94
653.70	58.51
653.84	91.28
653.99	60.85
654.13	72.56
654.27	117.03
654.42	91.28
654.56	77.24
654.71	37.45
654.85	35.11
655.00	9.36
655.14	46.81
655.29	0.00
655.43	28.09
655.57	32.77
655.72	51.49
655.86	39.79
656.01	63.19
656.15	58.51
656.30	91.28
656.44	79.58
656.58	77.24
656.73	0.00
656.87	30.43
657.01	53.83
657.16	35.11
657.30	46.81
657.45	74.90
657.59	65.54
657.73	63.19
657.88	21.06
658.02	37.45
658.16	65.54
658.31	105.32
658.45	138.09
658.60	28.09
658.74	4.68
658.88	0.00
659.03	126.39
659.17	9.36
659.31	95.96
659.46	11.70
659.60	32.77
659.74	119.37
659.89	0.00
660.03	0.00
660.17	46.81
660.32	133.41
660.46	77.24
660.60	46.81
660.74	53.83
660.89	44.47
661.03	9.36
661.17	67.88
661.32	72.56
661.46	16.38
661.60	0.00
661.74	32.77
661.89	100.64
662.03	30.43
662.17	81.92
662.31	42.13
662.46	49.15
662.60	25.75
662.74	56.17
662.88	35.11
663.03	9.36
663.17	70.22
663.31	77.24
663.45	91.28
663.60	14.04
663.74	32.77
663.88	81.92
664.02	105.32
664.17	100.64
664.31	37.45
664.45	51.49
664.59	79.58
664.73	93.62
664.88	25.75
665.02	58.51
665.16	4.68
665.30	0.00
665.44	56.17
665.59	32.77
665.73	100.64
665.87	53.83
666.01	44.47
666.15	110.01
666.29	121.71
666.44	60.85
666.58	110.01
666.72	37.45
666.86	46.81
667.00	46.81
667.14	65.54
667.28	86.60
667.43	49.15
667.57	39.79
667.71	44.47
667.85	44.47
667.99	56.17
668.13	16.38
668.27	46.81
668.41	21.06
668.56	42.13
668.70	67.88
668.84	53.83
668.98	9.36
669.12	44.47
669.26	2.34
669.40	72.56
669.54	7.02
669.68	72.56
669.82	21.06
669.96	72.56
670.10	93.62
670.25	77.24
670.39	11.70
670.53	0.00
670.67	18.72
670.81	51.49
670.95	46.81
671.09	0.00
671.23	77.24
671.37	91.28
671.51	53.83
671.65	44.47
671.79	21.06
671.93	51.49
672.07	0.00
672.21	67.88
672.35	39.79
672.49	23.41
672.63	4.68
672.77	84.26
672.91	49.15
673.05	70.22
673.19	42.13
673.33	112.35
673.47	56.17
673.61	74.90
673.75	28.09
673.89	56.17
674.03	88.94
674.17	51.49
674.31	32.77
674.45	93.62
674.59	112.35
674.73	51.49
674.87	42.13
675.01	100.64
675.15	0.00
675.29	7.02
675.43	0.00
675.56	0.00
675.70	51.49
675.84	39.79
675.98	37.45
676.12	0.00
676.26	133.41
676.40	60.85
676.54	37.45
676.68	63.19
676.82	32.77
676.96	72.56
677.10	51.49
677.23	86.60
677.37	86.60
677.51	0.00
677.65	39.79
677.79	23.41
677.93	28.09
678.07	79.58
678.21	30.43
678.34	14.04
678.48	14.04
678.62	65.54
678.76	32.77
678.90	37.45
679.04	105.32
679.18	0.00
679.31	44.47
679.45	93.62
679.59	46.81
679.73	16.38
679.87	65.54
680.00	25.75
680.14	72.56
680.28	77.24
680.42	88.94
680.56	0.00
680.70	74.90
680.83	25.75
680.97	114.69
681.11	0.00
681.25	0.00
681.39	4.68
681.52	63.19
681.66	0.00
681.80	18.72
681.94	4.68
682.07	81.92
682.21	0.00
682.35	25.75
682.49	60.85
682.62	21.06
682.76	77.24
682.90	0.00
683.04	37.45
683.17	16.38
683.31	56.17
683.45	28.09
683.59	86.60
683.72	112.35
683.86	0.00
684.00	124.05
684.13	42.13
684.27	28.09
684.41	107.66
684.55	35.11
684.68	18.72
684.82	37.45
684.96	4.68
685.09	16.38
685.23	16.38
685.37	67.88
685.50	56.17
685.64	9.36
685.78	53.83
685.91	16.38
686.05	84.26
686.19	67.88
686.32	79.58
686.46	77.24
686.60	30.43
686.73	35.11
686.87	49.15
687.01	88.94
687.14	2.34
687.28	32.77
687.42	37.45
687.55	37.45
687.69	16.38
687.82	51.49
687.96	0.00
688.10	37.45
688.23	28.09
688.37	93.62
688.50	37.45
688.64	18.72
688.78	72.56
688.91	77.24
689.05	65.54
689.18	74.90
689.32	4.68
689.46	81.92
689.59	11.70
689.73	0.00
689.86	58.51
690.00	30.43
690.13	107.66
690.27	32.77
690.41	58.51
690.54	14.04
690.68	25.75
690.81	0.00
690.95	28.09
691.08	46.81
691.22	30.43
691.35	0.00
691.49	30.43
691.62	84.26
691.76	0.00
691.89	42.13
692.03	23.41
692.16	32.77
692.30	30.43
692.43	0.00
692.57	14.04
692.70	84.26
692.84	86.60
692.97	21.06
693.11	0.00
693.24	4.68
693.38	25.75
693.51	74.90
693.65	88.94
693.78	23.41
693.92	25.75
694.05	28.09
694.19	9.36
694.32	0.00
694.45	7.02
694.59	0.00
694.72	0.00
694.86	39.79
694.99	28.09
695.13	58.51
695.26	30.43
695.39	28.09
695.53	16.38
695.66	9.36
695.80	65.54
695.93	0.00
696.07	0.00
696.20	46.81
696.33	77.24
696.47	49.15
696.60	74.90
696.73	39.79
696.87	2.34
697.00	77.24
697.14	28.09
697.27	74.90
697.40	117.03
697.54	0.00
697.67	7.02
697.80	42.13
697.94	98.30
698.07	11.70
698.21	58.51
698.34	32.77
698.47	77.24
698.61	0.00
698.74	16.38
698.87	72.56
699.01	63.19
699.14	18.72
699.27	74.90
699.40	0.00
699.54	39.79
699.67	0.00
699.80	0.00
699.94	32.77
700.07	0.00
700.20	0.00
700.34	42.13
700.47	51.49
700.60	32.77
700.73	67.88
700.87	70.22
701.00	60.85
701.13	30.43
701.26	56.17
701.40	86.60
701.53	0.00
701.66	58.51
701.79	42.13
701.93	14.04
702.06	37.45
702.19	112.35
702.32	42.13
702.46	37.45
702.59	32.77
702.72	21.06
702.85	14.04
702.99	21.06
703.12	86.60
703.25	100.64
703.38	77.24
703.51	53.83
703.65	42.13
703.78	0.00
703.91	2.34
704.04	49.15
704.17	53.83
704.31	93.62
704.44	119.37
704.57	42.13
704.70	0.00
704.83	0.00
704.96	0.00
705.10	56.17
705.23	21.06
>>>>>End Processed Spectral Data<<<<<
