SpectraSuite Data File
++++++++++++++++++++++++++++++++++++
Date: Fri Oct 04 12:13:30 GMT-05:00 2013
User: price-jones
Dark Spectrum Present: No
Reference Spectrum Present: No
Number of Sampled Component Spectra: 1
Spectrometers: USB2+H05261
Integration Time (usec): 10000 (USB2+H05261)
Spectra Averaged: 1 (USB2+H05261)
Boxcar Smoothing: 0 (USB2+H05261)
Correct for Electrical Dark: No (USB2+H05261)
Strobe/Lamp Enabled: No (USB2+H05261)
Correct for Detector Non-linearity: No (USB2+H05261)
Correct for Stray Light: No (USB2+H05261)
Number of Pixels in Processed Spectrum: 2048
>>>>>Begin Processed Spectral Data<<<<<
365.73	0.00
365.92	0.00
366.12	0.00
366.32	0.00
366.52	0.00
366.72	0.00
366.91	0.00
367.11	0.00
367.31	0.00
367.51	0.00
367.70	0.00
367.90	0.00
368.10	0.00
368.30	0.00
368.49	0.00
368.69	0.00
368.89	0.00
369.09	0.00
369.28	0.00
369.48	0.00
369.68	0.00
369.87	0.00
370.07	0.00
370.27	0.00
370.47	0.00
370.66	0.00
370.86	0.00
371.06	0.00
371.25	4.68
371.45	0.00
371.65	0.00
371.84	14.04
372.04	0.00
372.24	11.70
372.44	35.11
372.63	46.81
372.83	32.77
373.03	72.56
373.22	21.06
373.42	30.43
373.62	51.49
373.81	56.17
374.01	18.72
374.21	51.49
374.40	2.34
374.60	67.88
374.79	42.13
374.99	72.56
375.19	56.17
375.38	0.00
375.58	25.75
375.78	86.60
375.97	23.41
376.17	49.15
376.37	21.06
376.56	105.32
376.76	30.43
376.95	0.00
377.15	0.00
377.35	56.17
377.54	117.03
377.74	18.72
377.93	0.00
378.13	28.09
378.33	56.17
378.52	0.00
378.72	18.72
378.91	0.00
379.11	56.17
379.31	16.38
379.50	58.51
379.70	70.22
379.89	0.00
380.09	39.79
380.28	56.17
380.48	0.00
380.68	0.00
380.87	42.13
381.07	0.00
381.26	60.85
381.46	56.17
381.65	39.79
381.85	53.83
382.04	16.38
382.24	0.00
382.43	28.09
382.63	53.83
382.83	0.00
383.02	0.00
383.22	0.00
383.41	56.17
383.61	56.17
383.80	42.13
384.00	46.81
384.19	39.79
384.39	9.36
384.58	0.00
384.78	49.15
384.97	0.00
385.17	21.06
385.36	14.04
385.56	0.00
385.75	9.36
385.95	16.38
386.14	81.92
386.34	0.00
386.53	35.11
386.72	11.70
386.92	18.72
387.11	42.13
387.31	0.00
387.50	21.06
387.70	0.00
387.89	32.77
388.09	16.38
388.28	0.00
388.48	14.04
388.67	7.02
388.86	11.70
389.06	63.19
389.25	0.00
389.45	0.00
389.64	0.00
389.84	25.75
390.03	100.64
390.22	65.54
390.42	44.47
390.61	30.43
390.81	0.00
391.00	60.85
391.19	21.06
391.39	35.11
391.58	18.72
391.78	58.51
391.97	0.00
392.16	23.41
392.36	86.60
392.55	0.00
392.75	35.11
392.94	30.43
393.13	16.38
393.33	0.00
393.52	21.06
393.71	7.02
393.91	23.41
394.10	0.00
394.29	0.00
394.49	70.22
394.68	30.43
394.88	0.00
395.07	30.43
395.26	58.51
395.46	0.00
395.65	53.83
395.84	77.24
396.04	21.06
396.23	0.00
396.42	0.00
396.62	60.85
396.81	79.58
397.00	65.54
397.19	0.00
397.39	30.43
397.58	58.51
397.77	37.45
397.97	0.00
398.16	32.77
398.35	44.47
398.55	0.00
398.74	46.81
398.93	0.00
399.12	0.00
399.32	25.75
399.51	30.43
399.70	0.00
399.90	0.00
400.09	2.34
400.28	100.64
400.47	11.70
400.67	0.00
400.86	28.09
401.05	2.34
401.24	9.36
401.44	30.43
401.63	44.47
401.82	18.72
402.01	25.75
402.21	16.38
402.40	11.70
402.59	39.79
402.78	67.88
402.97	51.49
403.17	0.00
403.36	53.83
403.55	51.49
403.74	0.00
403.93	25.75
404.13	0.00
404.32	58.51
404.51	63.19
404.70	35.11
404.89	32.77
405.09	53.83
405.28	0.00
405.47	0.00
405.66	88.94
405.85	67.88
406.05	14.04
406.24	72.56
406.43	0.00
406.62	0.00
406.81	0.00
407.00	53.83
407.20	84.26
407.39	0.00
407.58	30.43
407.77	0.00
407.96	44.47
408.15	16.38
408.34	9.36
408.54	49.15
408.73	0.00
408.92	35.11
409.11	9.36
409.30	0.00
409.49	0.00
409.68	0.00
409.87	28.09
410.07	30.43
410.26	30.43
410.45	0.00
410.64	30.43
410.83	0.00
411.02	25.75
411.21	28.09
411.40	0.00
411.59	25.75
411.78	2.34
411.98	21.06
412.17	112.35
412.36	81.92
412.55	107.66
412.74	0.00
412.93	56.17
413.12	32.77
413.31	0.00
413.50	21.06
413.69	7.02
413.88	11.70
414.07	0.00
414.26	0.00
414.45	56.17
414.64	93.62
414.83	28.09
415.02	18.72
415.22	9.36
415.41	23.41
415.60	32.77
415.79	18.72
415.98	9.36
416.17	119.37
416.36	84.26
416.55	65.54
416.74	0.00
416.93	81.92
417.12	32.77
417.31	14.04
417.50	0.00
417.69	30.43
417.88	72.56
418.07	0.00
418.26	23.41
418.45	37.45
418.64	86.60
418.83	56.17
419.02	0.00
419.21	0.00
419.39	42.13
419.58	84.26
419.77	2.34
419.96	72.56
420.15	0.00
420.34	77.24
420.53	70.22
420.72	0.00
420.91	56.17
421.10	77.24
421.29	53.83
421.48	51.49
421.67	72.56
421.86	60.85
422.05	0.00
422.24	0.00
422.43	100.64
422.61	42.13
422.80	0.00
422.99	4.68
423.18	0.00
423.37	0.00
423.56	46.81
423.75	107.66
423.94	0.00
424.13	119.37
424.32	30.43
424.50	0.00
424.69	60.85
424.88	32.77
425.07	35.11
425.26	21.06
425.45	30.43
425.64	81.92
425.83	65.54
426.01	74.90
426.20	25.75
426.39	110.01
426.58	28.09
426.77	91.28
426.96	37.45
427.15	56.17
427.33	7.02
427.52	0.00
427.71	37.45
427.90	2.34
428.09	44.47
428.28	51.49
428.46	51.49
428.65	21.06
428.84	32.77
429.03	84.26
429.22	0.00
429.40	14.04
429.59	0.00
429.78	7.02
429.97	0.00
430.16	0.00
430.34	0.00
430.53	0.00
430.72	35.11
430.91	51.49
431.10	28.09
431.28	18.72
431.47	74.90
431.66	0.00
431.85	0.00
432.03	4.68
432.22	58.51
432.41	114.69
432.60	65.54
432.79	91.28
432.97	63.19
433.16	0.00
433.35	77.24
433.54	0.00
433.72	0.00
433.91	39.79
434.10	0.00
434.28	21.06
434.47	35.11
434.66	60.85
434.85	70.22
435.03	46.81
435.22	23.41
435.41	0.00
435.59	63.19
435.78	56.17
435.97	53.83
436.16	74.90
436.34	30.43
436.53	30.43
436.72	0.00
436.90	135.75
437.09	30.43
437.28	16.38
437.46	58.51
437.65	63.19
437.84	77.24
438.02	21.06
438.21	25.75
438.40	0.00
438.58	0.00
438.77	0.00
438.96	0.00
439.14	0.00
439.33	53.83
439.52	0.00
439.70	0.00
439.89	0.00
440.08	14.04
440.26	0.00
440.45	0.00
440.63	23.41
440.82	0.00
441.01	37.45
441.19	4.68
441.38	23.41
441.57	0.00
441.75	67.88
441.94	21.06
442.12	58.51
442.31	72.56
442.50	95.96
442.68	72.56
442.87	7.02
443.05	65.54
443.24	67.88
443.43	21.06
443.61	2.34
443.80	49.15
443.98	30.43
444.17	0.00
444.35	0.00
444.54	21.06
444.73	88.94
444.91	28.09
445.10	4.68
445.28	49.15
445.47	0.00
445.65	37.45
445.84	49.15
446.02	44.47
446.21	23.41
446.39	16.38
446.58	42.13
446.77	11.70
446.95	128.73
447.14	56.17
447.32	0.00
447.51	0.00
447.69	49.15
447.88	56.17
448.06	56.17
448.25	51.49
448.43	39.79
448.62	0.00
448.80	46.81
448.99	37.45
449.17	11.70
449.36	14.04
449.54	88.94
449.73	0.00
449.91	65.54
450.10	56.17
450.28	4.68
450.46	16.38
450.65	51.49
450.83	49.15
451.02	49.15
451.20	0.00
451.39	21.06
451.57	72.56
451.76	18.72
451.94	0.00
452.13	0.00
452.31	0.00
452.49	37.45
452.68	51.49
452.86	42.13
453.05	4.68
453.23	65.54
453.42	23.41
453.60	42.13
453.78	21.06
453.97	44.47
454.15	51.49
454.34	2.34
454.52	124.05
454.70	42.13
454.89	0.00
455.07	18.72
455.26	35.11
455.44	18.72
455.62	56.17
455.81	0.00
455.99	16.38
456.17	18.72
456.36	25.75
456.54	0.00
456.73	28.09
456.91	72.56
457.09	72.56
457.28	32.77
457.46	0.00
457.64	110.01
457.83	65.54
458.01	79.58
458.19	0.00
458.38	39.79
458.56	42.13
458.74	14.04
458.93	7.02
459.11	42.13
459.29	0.00
459.48	65.54
459.66	105.32
459.84	56.17
460.03	56.17
460.21	65.54
460.39	46.81
460.57	112.35
460.76	28.09
460.94	18.72
461.12	7.02
461.31	46.81
461.49	60.85
461.67	18.72
461.85	0.00
462.04	0.00
462.22	37.45
462.40	18.72
462.59	35.11
462.77	0.00
462.95	81.92
463.13	70.22
463.32	63.19
463.50	46.81
463.68	0.00
463.86	14.04
464.05	18.72
464.23	93.62
464.41	0.00
464.59	23.41
464.78	42.13
464.96	105.32
465.14	56.17
465.32	49.15
465.50	0.00
465.69	11.70
465.87	2.34
466.05	25.75
466.23	49.15
466.41	35.11
466.60	23.41
466.78	79.58
466.96	49.15
467.14	23.41
467.32	56.17
467.51	18.72
467.69	44.47
467.87	25.75
468.05	0.00
468.23	53.83
468.41	0.00
468.60	74.90
468.78	67.88
468.96	18.72
469.14	121.71
469.32	105.32
469.50	58.51
469.69	39.79
469.87	0.00
470.05	9.36
470.23	7.02
470.41	44.47
470.59	18.72
470.77	7.02
470.95	35.11
471.14	70.22
471.32	0.00
471.50	30.43
471.68	70.22
471.86	30.43
472.04	0.00
472.22	18.72
472.40	11.70
472.58	0.00
472.77	81.92
472.95	35.11
473.13	37.45
473.31	28.09
473.49	0.00
473.67	32.77
473.85	91.28
474.03	35.11
474.21	0.00
474.39	39.79
474.57	32.77
474.75	86.60
474.93	65.54
475.12	0.00
475.30	60.85
475.48	14.04
475.66	77.24
475.84	16.38
476.02	32.77
476.20	81.92
476.38	0.00
476.56	18.72
476.74	9.36
476.92	28.09
477.10	44.47
477.28	28.09
477.46	0.00
477.64	77.24
477.82	11.70
478.00	53.83
478.18	58.51
478.36	37.45
478.54	60.85
478.72	63.19
478.90	0.00
479.08	93.62
479.26	84.26
479.44	60.85
479.62	46.81
479.80	0.00
479.98	60.85
480.16	44.47
480.34	95.96
480.52	23.41
480.70	9.36
480.88	30.43
481.06	0.00
481.24	2.34
481.41	0.00
481.59	79.58
481.77	23.41
481.95	0.00
482.13	77.24
482.31	0.00
482.49	9.36
482.67	84.26
482.85	9.36
483.03	14.04
483.21	30.43
483.39	28.09
483.57	60.85
483.74	72.56
483.92	56.17
484.10	86.60
484.28	32.77
484.46	58.51
484.64	112.35
484.82	67.88
485.00	25.75
485.18	0.00
485.35	2.34
485.53	46.81
485.71	46.81
485.89	63.19
486.07	9.36
486.25	58.51
486.43	32.77
486.61	51.49
486.78	25.75
486.96	30.43
487.14	0.00
487.32	39.79
487.50	0.00
487.68	9.36
487.85	46.81
488.03	0.00
488.21	56.17
488.39	51.49
488.57	72.56
488.75	93.62
488.92	23.41
489.10	100.64
489.28	37.45
489.46	81.92
489.64	159.16
489.81	79.58
489.99	51.49
490.17	51.49
490.35	58.51
490.53	70.22
490.70	16.38
490.88	65.54
491.06	37.45
491.24	4.68
491.41	18.72
491.59	74.90
491.77	58.51
491.95	28.09
492.13	0.00
492.30	102.98
492.48	86.60
492.66	72.56
492.84	60.85
493.01	2.34
493.19	11.70
493.37	2.34
493.54	14.04
493.72	30.43
493.90	0.00
494.08	60.85
494.25	91.28
494.43	98.30
494.61	25.75
494.79	14.04
494.96	23.41
495.14	0.00
495.32	91.28
495.49	23.41
495.67	53.83
495.85	53.83
496.02	79.58
496.20	77.24
496.38	35.11
496.55	46.81
496.73	110.01
496.91	88.94
497.09	44.47
497.26	56.17
497.44	37.45
497.62	16.38
497.79	14.04
497.97	4.68
498.14	63.19
498.32	0.00
498.50	32.77
498.67	0.00
498.85	0.00
499.03	28.09
499.20	46.81
499.38	88.94
499.56	70.22
499.73	51.49
499.91	16.38
500.08	2.34
500.26	77.24
500.44	16.38
500.61	35.11
500.79	39.79
500.97	23.41
501.14	77.24
501.32	11.70
501.49	77.24
501.67	0.00
501.84	23.41
502.02	32.77
502.20	32.77
502.37	88.94
502.55	0.00
502.72	25.75
502.90	14.04
503.07	42.13
503.25	79.58
503.43	35.11
503.60	65.54
503.78	7.02
503.95	7.02
504.13	30.43
504.30	39.79
504.48	0.00
504.65	0.00
504.83	9.36
505.01	56.17
505.18	88.94
505.36	30.43
505.53	39.79
505.71	14.04
505.88	44.47
506.06	39.79
506.23	60.85
506.41	30.43
506.58	49.15
506.76	77.24
506.93	9.36
507.11	0.00
507.28	42.13
507.46	124.05
507.63	0.00
507.81	46.81
507.98	11.70
508.16	42.13
508.33	7.02
508.50	37.45
508.68	53.83
508.85	16.38
509.03	0.00
509.20	58.51
509.38	2.34
509.55	0.00
509.73	67.88
509.90	32.77
510.08	37.45
510.25	7.02
510.42	74.90
510.60	30.43
510.77	44.47
510.95	21.06
511.12	30.43
511.30	70.22
511.47	51.49
511.64	46.81
511.82	37.45
511.99	35.11
512.17	102.98
512.34	98.30
512.51	9.36
512.69	30.43
512.86	49.15
513.04	25.75
513.21	100.64
513.38	42.13
513.56	18.72
513.73	23.41
513.90	14.04
514.08	0.00
514.25	0.00
514.43	0.00
514.60	77.24
514.77	46.81
514.95	11.70
515.12	21.06
515.29	4.68
515.47	9.36
515.64	35.11
515.81	67.88
515.99	77.24
516.16	30.43
516.33	11.70
516.51	21.06
516.68	58.51
516.85	9.36
517.03	93.62
517.20	11.70
517.37	42.13
517.54	30.43
517.72	65.54
517.89	0.00
518.06	86.60
518.24	60.85
518.41	0.00
518.58	39.79
518.75	9.36
518.93	79.58
519.10	65.54
519.27	65.54
519.45	39.79
519.62	42.13
519.79	63.19
519.96	63.19
520.14	14.04
520.31	0.00
520.48	46.81
520.65	0.00
520.83	81.92
521.00	86.60
521.17	35.11
521.34	7.02
521.52	70.22
521.69	124.05
521.86	28.09
522.03	2.34
522.20	30.43
522.38	0.00
522.55	39.79
522.72	56.17
522.89	46.81
523.07	0.00
523.24	91.28
523.41	42.13
523.58	0.00
523.75	67.88
523.92	7.02
524.10	4.68
524.27	23.41
524.44	74.90
524.61	0.00
524.78	91.28
524.96	51.49
525.13	32.77
525.30	53.83
525.47	0.00
525.64	81.92
525.81	44.47
525.98	65.54
526.16	25.75
526.33	56.17
526.50	51.49
526.67	9.36
526.84	9.36
527.01	86.60
527.18	39.79
527.36	44.47
527.53	35.11
527.70	9.36
527.87	44.47
528.04	81.92
528.21	60.85
528.38	63.19
528.55	7.02
528.72	51.49
528.89	67.88
529.07	44.47
529.24	0.00
529.41	60.85
529.58	42.13
529.75	0.00
529.92	67.88
530.09	42.13
530.26	0.00
530.43	58.51
530.60	51.49
530.77	124.05
530.94	67.88
531.11	42.13
531.28	51.49
531.46	21.06
531.63	7.02
531.80	77.24
531.97	81.92
532.14	128.73
532.31	42.13
532.48	79.58
532.65	7.02
532.82	56.17
532.99	0.00
533.16	79.58
533.33	16.38
533.50	14.04
533.67	18.72
533.84	58.51
534.01	37.45
534.18	56.17
534.35	133.41
534.52	56.17
534.69	93.62
534.86	35.11
535.03	0.00
535.20	131.07
535.37	0.00
535.54	46.81
535.71	30.43
535.88	72.56
536.05	56.17
536.22	65.54
536.38	35.11
536.55	0.00
536.72	102.98
536.89	28.09
537.06	21.06
537.23	42.13
537.40	44.47
537.57	95.96
537.74	58.51
537.91	46.81
538.08	16.38
538.25	23.41
538.42	35.11
538.59	16.38
538.75	37.45
538.92	0.00
539.09	46.81
539.26	0.00
539.43	32.77
539.60	105.32
539.77	100.64
539.94	37.45
540.11	46.81
540.28	0.00
540.44	0.00
540.61	42.13
540.78	32.77
540.95	25.75
541.12	100.64
541.29	30.43
541.46	0.00
541.62	58.51
541.79	0.00
541.96	14.04
542.13	18.72
542.30	77.24
542.47	81.92
542.63	35.11
542.80	86.60
542.97	46.81
543.14	60.85
543.31	0.00
543.48	81.92
543.64	98.30
543.81	56.17
543.98	14.04
544.15	51.49
544.32	0.00
544.48	121.71
544.65	46.81
544.82	74.90
544.99	0.00
545.16	124.05
545.32	84.26
545.49	28.09
545.66	86.60
545.83	30.43
546.00	0.00
546.16	84.26
546.33	0.00
546.50	16.38
546.67	2.34
546.83	91.28
547.00	46.81
547.17	44.47
547.34	60.85
547.50	51.49
547.67	56.17
547.84	49.15
548.00	46.81
548.17	51.49
548.34	30.43
548.51	77.24
548.67	60.85
548.84	65.54
549.01	65.54
549.18	63.19
549.34	63.19
549.51	2.34
549.68	86.60
549.84	16.38
550.01	42.13
550.18	9.36
550.34	30.43
550.51	14.04
550.68	93.62
550.84	63.19
551.01	74.90
551.18	0.00
551.34	42.13
551.51	86.60
551.68	42.13
551.84	51.49
552.01	0.00
552.18	28.09
552.34	72.56
552.51	16.38
552.68	67.88
552.84	86.60
553.01	84.26
553.18	79.58
553.34	81.92
553.51	16.38
553.67	79.58
553.84	58.51
554.01	60.85
554.17	63.19
554.34	0.00
554.51	42.13
554.67	32.77
554.84	35.11
555.00	42.13
555.17	23.41
555.33	14.04
555.50	93.62
555.67	0.00
555.83	79.58
556.00	35.11
556.16	93.62
556.33	49.15
556.50	14.04
556.66	16.38
556.83	30.43
556.99	0.00
557.16	112.35
557.32	18.72
557.49	9.36
557.65	25.75
557.82	88.94
557.98	0.00
558.15	7.02
558.32	53.83
558.48	60.85
558.65	42.13
558.81	100.64
558.98	91.28
559.14	126.39
559.31	58.51
559.47	0.00
559.64	0.00
559.80	53.83
559.97	37.45
560.13	63.19
560.30	30.43
560.46	42.13
560.63	0.00
560.79	16.38
560.96	14.04
561.12	53.83
561.29	30.43
561.45	32.77
561.61	39.79
561.78	9.36
561.94	56.17
562.11	35.11
562.27	107.66
562.44	60.85
562.60	102.98
562.77	28.09
562.93	79.58
563.10	77.24
563.26	56.17
563.42	28.09
563.59	88.94
563.75	53.83
563.92	42.13
564.08	21.06
564.24	49.15
564.41	21.06
564.57	0.00
564.74	63.19
564.90	18.72
565.07	32.77
565.23	0.00
565.39	65.54
565.56	16.38
565.72	91.28
565.88	2.34
566.05	14.04
566.21	21.06
566.38	67.88
566.54	44.47
566.70	2.34
566.87	9.36
567.03	23.41
567.19	100.64
567.36	9.36
567.52	0.00
567.68	2.34
567.85	30.43
568.01	37.45
568.17	70.22
568.34	35.11
568.50	35.11
568.66	65.54
568.83	0.00
568.99	56.17
569.15	63.19
569.32	11.70
569.48	4.68
569.64	23.41
569.81	46.81
569.97	70.22
570.13	32.77
570.30	0.00
570.46	126.39
570.62	128.73
570.78	65.54
570.95	0.00
571.11	28.09
571.27	86.60
571.43	121.71
571.60	39.79
571.76	35.11
571.92	23.41
572.09	0.00
572.25	74.90
572.41	51.49
572.57	0.00
572.74	28.09
572.90	30.43
573.06	0.00
573.22	51.49
573.38	32.77
573.55	11.70
573.71	51.49
573.87	91.28
574.03	42.13
574.20	84.26
574.36	58.51
574.52	37.45
574.68	14.04
574.84	0.00
575.01	44.47
575.17	0.00
575.33	81.92
575.49	18.72
575.65	28.09
575.82	88.94
575.98	28.09
576.14	0.00
576.30	16.38
576.46	51.49
576.62	4.68
576.79	58.51
576.95	58.51
577.11	65.54
577.27	9.36
577.43	32.77
577.59	25.75
577.75	39.79
577.92	72.56
578.08	60.85
578.24	35.11
578.40	105.32
578.56	53.83
578.72	25.75
578.88	0.00
579.04	14.04
579.21	46.81
579.37	14.04
579.53	44.47
579.69	56.17
579.85	18.72
580.01	91.28
580.17	119.37
580.33	37.45
580.49	37.45
580.65	0.00
580.82	11.70
580.98	46.81
581.14	25.75
581.30	25.75
581.46	4.68
581.62	0.00
581.78	25.75
581.94	58.51
582.10	25.75
582.26	28.09
582.42	63.19
582.58	114.69
582.74	56.17
582.90	16.38
583.06	58.51
583.22	21.06
583.38	42.13
583.54	35.11
583.70	60.85
583.86	0.00
584.02	35.11
584.18	60.85
584.34	0.00
584.50	138.09
584.66	540.66
584.82	1036.86
584.98	1331.76
585.14	1149.20
585.30	725.57
585.46	423.64
585.62	278.52
585.78	168.52
585.94	126.39
586.10	114.69
586.26	2.34
586.42	105.32
586.58	25.75
586.74	98.30
586.90	37.45
587.06	39.79
587.22	9.36
587.38	124.05
587.54	58.51
587.70	112.35
587.86	138.09
588.02	126.39
588.18	196.60
588.34	88.94
588.49	11.70
588.65	58.51
588.81	9.36
588.97	86.60
589.13	58.51
589.29	42.13
589.45	56.17
589.61	25.75
589.77	95.96
589.93	53.83
590.08	72.56
590.24	30.43
590.40	37.45
590.56	35.11
590.72	37.45
590.88	37.45
591.04	44.47
591.20	28.09
591.35	46.81
591.51	0.00
591.67	67.88
591.83	35.11
591.99	32.77
592.15	91.28
592.31	35.11
592.46	77.24
592.62	2.34
592.78	88.94
592.94	58.51
593.10	0.00
593.26	25.75
593.41	119.37
593.57	53.83
593.73	11.70
593.89	65.54
594.05	191.92
594.20	222.35
594.36	194.26
594.52	135.75
594.68	77.24
594.84	131.07
594.99	110.01
595.15	2.34
595.31	25.75
595.47	114.69
595.62	0.00
595.78	23.41
595.94	58.51
596.10	14.04
596.25	9.36
596.41	4.68
596.57	35.11
596.73	28.09
596.88	0.00
597.04	84.26
597.20	72.56
597.36	154.48
597.51	51.49
597.67	39.79
597.83	100.64
597.99	79.58
598.14	42.13
598.30	0.00
598.46	63.19
598.61	112.35
598.77	58.51
598.93	35.11
599.09	102.98
599.24	58.51
599.40	4.68
599.56	0.00
599.71	11.70
599.87	7.02
600.03	18.72
600.18	4.68
600.34	77.24
600.50	0.00
600.65	0.00
600.81	23.41
600.97	14.04
601.12	14.04
601.28	86.60
601.44	74.90
601.59	0.00
601.75	58.51
601.91	60.85
602.06	74.90
602.22	32.77
602.37	72.56
602.53	53.83
602.69	72.56
602.84	65.54
603.00	112.35
603.16	28.09
603.31	11.70
603.47	67.88
603.62	110.01
603.78	65.54
603.94	86.60
604.09	65.54
604.25	60.85
604.40	25.75
604.56	23.41
604.71	0.00
604.87	98.30
605.03	16.38
605.18	49.15
605.34	79.58
605.49	2.34
605.65	32.77
605.80	30.43
605.96	23.41
606.12	35.11
606.27	37.45
606.43	37.45
606.58	44.47
606.74	63.19
606.89	77.24
607.05	182.56
607.20	145.11
607.36	212.99
607.51	42.13
607.67	25.75
607.82	142.77
607.98	67.88
608.13	117.03
608.29	67.88
608.44	30.43
608.60	70.22
608.75	30.43
608.91	56.17
609.06	105.32
609.22	220.01
609.37	276.18
609.53	210.65
609.68	161.50
609.84	126.39
609.99	112.35
610.15	70.22
610.30	107.66
610.46	65.54
610.61	49.15
610.76	42.13
610.92	37.45
611.07	81.92
611.23	60.85
611.38	28.09
611.54	86.60
611.69	135.75
611.84	39.79
612.00	63.19
612.15	0.00
612.31	35.11
612.46	35.11
612.62	117.03
612.77	93.62
612.92	98.30
613.08	7.02
613.23	60.85
613.39	0.00
613.54	51.49
613.69	159.16
613.85	308.95
614.00	360.44
614.15	337.04
614.31	315.97
614.46	189.58
614.62	175.54
614.77	175.54
614.92	110.01
615.08	100.64
615.23	32.77
615.38	4.68
615.54	70.22
615.69	42.13
615.84	145.11
616.00	124.05
616.15	72.56
616.30	112.35
616.46	72.56
616.61	14.04
616.76	25.75
616.92	32.77
617.07	58.51
617.22	53.83
617.37	100.64
617.53	35.11
617.68	65.54
617.83	65.54
617.99	0.00
618.14	30.43
618.29	44.47
618.45	16.38
618.60	21.06
618.75	98.30
618.90	100.64
619.06	42.13
619.21	88.94
619.36	30.43
619.51	0.00
619.67	110.01
619.82	23.41
619.97	65.54
620.12	32.77
620.28	0.00
620.43	74.90
620.58	9.36
620.73	53.83
620.89	74.90
621.04	58.51
621.19	37.45
621.34	93.62
621.49	119.37
621.65	77.24
621.80	42.13
621.95	56.17
622.10	16.38
622.25	2.34
622.41	67.88
622.56	25.75
622.71	60.85
622.86	56.17
623.01	32.77
623.16	14.04
623.32	18.72
623.47	9.36
623.62	51.49
623.77	86.60
623.92	53.83
624.07	117.03
624.23	65.54
624.38	44.47
624.53	0.00
624.68	28.09
624.83	18.72
624.98	51.49
625.13	0.00
625.29	23.41
625.44	42.13
625.59	72.56
625.74	79.58
625.89	49.15
626.04	114.69
626.19	182.56
626.34	210.65
626.49	196.60
626.65	114.69
626.80	119.37
626.95	128.73
627.10	51.49
627.25	65.54
627.40	51.49
627.55	39.79
627.70	39.79
627.85	60.85
628.00	7.02
628.15	25.75
628.30	128.73
628.45	0.00
628.60	25.75
628.76	56.17
628.91	0.00
629.06	147.45
629.21	2.34
629.36	81.92
629.51	74.90
629.66	72.56
629.81	84.26
629.96	117.03
630.11	107.66
630.26	91.28
630.41	14.04
630.56	32.77
630.71	7.02
630.86	67.88
631.01	81.92
631.16	56.17
631.31	51.49
631.46	7.02
631.61	65.54
631.76	21.06
631.91	30.43
632.06	42.13
632.21	0.00
632.36	117.03
632.51	117.03
632.66	44.47
632.81	9.36
632.96	126.39
633.10	161.50
633.25	110.01
633.40	91.28
633.55	208.31
633.70	112.35
633.85	91.28
634.00	21.06
634.15	4.68
634.30	14.04
634.45	2.34
634.60	63.19
634.75	0.00
634.90	28.09
635.05	0.00
635.19	49.15
635.34	53.83
635.49	42.13
635.64	0.00
635.79	4.68
635.94	30.43
636.09	2.34
636.24	51.49
636.39	7.02
636.53	23.41
636.68	0.00
636.83	0.00
636.98	32.77
637.13	35.11
637.28	25.75
637.43	79.58
637.57	0.00
637.72	110.01
637.87	217.67
638.02	273.84
638.17	292.57
638.32	273.84
638.46	110.01
638.61	107.66
638.76	70.22
638.91	128.73
639.06	124.05
639.20	53.83
639.35	28.09
639.50	49.15
639.65	124.05
639.80	290.23
639.94	337.04
640.09	395.55
640.24	292.57
640.39	168.52
640.54	217.67
640.68	88.94
640.83	142.77
640.98	112.35
641.13	102.98
641.27	56.17
641.42	65.54
641.57	23.41
641.72	42.13
641.86	63.19
642.01	11.70
642.16	95.96
642.31	23.41
642.45	100.64
642.60	9.36
642.75	9.36
642.90	51.49
643.04	32.77
643.19	95.96
643.34	70.22
643.48	77.24
643.63	81.92
643.78	32.77
643.93	32.77
644.07	23.41
644.22	16.38
644.37	25.75
644.51	39.79
644.66	74.90
644.81	23.41
644.95	63.19
645.10	25.75
645.25	2.34
645.39	30.43
645.54	42.13
645.69	0.00
645.83	0.00
645.98	65.54
646.13	30.43
646.27	23.41
646.42	81.92
646.57	14.04
646.71	0.00
646.86	77.24
647.00	81.92
647.15	7.02
647.30	4.68
647.44	79.58
647.59	16.38
647.74	58.51
647.88	49.15
648.03	42.13
648.17	114.69
648.32	0.00
648.47	65.54
648.61	25.75
648.76	37.45
648.90	95.96
649.05	23.41
649.20	100.64
649.34	4.68
649.49	0.00
649.63	30.43
649.78	65.54
649.92	70.22
650.07	98.30
650.21	229.37
650.36	189.58
650.51	234.05
650.65	191.92
650.80	205.97
650.94	110.01
651.09	37.45
651.23	107.66
651.38	42.13
651.52	32.77
651.67	49.15
651.81	14.04
651.96	65.54
652.10	9.36
652.25	0.00
652.39	0.00
652.54	60.85
652.68	46.81
652.83	154.48
652.97	72.56
653.12	163.84
653.26	74.90
653.41	159.16
653.55	0.00
653.70	46.81
653.84	39.79
653.99	14.04
654.13	42.13
654.27	35.11
654.42	51.49
654.56	7.02
654.71	16.38
654.85	16.38
655.00	37.45
655.14	0.00
655.29	56.17
655.43	46.81
655.57	60.85
655.72	9.36
655.86	58.51
656.01	56.17
656.15	44.47
656.30	39.79
656.44	65.54
656.58	32.77
656.73	60.85
656.87	95.96
657.01	102.98
657.16	63.19
657.30	4.68
657.45	18.72
657.59	35.11
657.73	37.45
657.88	23.41
658.02	42.13
658.16	23.41
658.31	77.24
658.45	0.00
658.60	42.13
658.74	49.15
658.88	44.47
659.03	0.00
659.17	56.17
659.31	4.68
659.46	44.47
659.60	65.54
659.74	88.94
659.89	142.77
660.03	67.88
660.17	98.30
660.32	0.00
660.46	30.43
660.60	107.66
660.74	86.60
660.89	18.72
661.03	67.88
661.17	46.81
661.32	81.92
661.46	70.22
661.60	58.51
661.74	0.00
661.89	100.64
662.03	32.77
662.17	25.75
662.31	25.75
662.46	21.06
662.60	0.00
662.74	60.85
662.88	9.36
663.03	46.81
663.17	32.77
663.31	14.04
663.45	14.04
663.60	42.13
663.74	0.00
663.88	35.11
664.02	18.72
664.17	0.00
664.31	79.58
664.45	86.60
664.59	65.54
664.73	0.00
664.88	7.02
665.02	42.13
665.16	81.92
665.30	67.88
665.44	30.43
665.59	124.05
665.73	35.11
665.87	49.15
666.01	39.79
666.15	35.11
666.29	16.38
666.44	79.58
666.58	28.09
666.72	21.06
666.86	65.54
667.00	84.26
667.14	58.51
667.28	105.32
667.43	152.13
667.57	203.63
667.71	243.42
667.85	133.41
667.99	102.98
668.13	81.92
668.27	79.58
668.41	0.00
668.56	105.32
668.70	23.41
668.84	107.66
668.98	21.06
669.12	14.04
669.26	9.36
669.40	117.03
669.54	72.56
669.68	0.00
669.82	4.68
669.96	0.00
670.10	49.15
670.25	2.34
670.39	0.00
670.53	0.00
670.67	0.00
670.81	107.66
670.95	28.09
671.09	58.51
671.23	74.90
671.37	67.88
671.51	140.43
671.65	131.07
671.79	173.20
671.93	39.79
672.07	58.51
672.21	53.83
672.35	42.13
672.49	98.30
672.63	49.15
672.77	0.00
672.91	32.77
673.05	4.68
673.19	70.22
673.33	42.13
673.47	42.13
673.61	0.00
673.75	16.38
673.89	39.79
674.03	72.56
674.17	65.54
674.31	37.45
674.45	102.98
674.59	79.58
674.73	39.79
674.87	39.79
675.01	30.43
675.15	0.00
675.29	98.30
675.43	7.02
675.56	4.68
675.70	42.13
675.84	0.00
675.98	0.00
676.12	37.45
676.26	0.00
676.40	77.24
676.54	53.83
676.68	42.13
676.82	37.45
676.96	46.81
677.10	28.09
677.23	67.88
677.37	28.09
677.51	0.00
677.65	44.47
677.79	58.51
677.93	0.00
678.07	0.00
678.21	9.36
678.34	0.00
678.48	14.04
678.62	0.00
678.76	35.11
678.90	0.00
679.04	14.04
679.18	56.17
679.31	2.34
679.45	14.04
679.59	18.72
679.73	53.83
679.87	44.47
680.00	21.06
680.14	0.00
680.28	0.00
680.42	107.66
680.56	32.77
680.70	14.04
680.83	0.00
680.97	14.04
681.11	70.22
681.25	35.11
681.39	39.79
681.52	9.36
681.66	0.00
681.80	32.77
681.94	35.11
682.07	70.22
682.21	0.00
682.35	65.54
682.49	95.96
682.62	7.02
682.76	30.43
682.90	0.00
683.04	112.35
683.17	70.22
683.31	11.70
683.45	30.43
683.59	42.13
683.72	0.00
683.86	63.19
684.00	72.56
684.13	0.00
684.27	39.79
684.41	32.77
684.55	74.90
684.68	0.00
684.82	0.00
684.96	102.98
685.09	14.04
685.23	60.85
685.37	25.75
685.50	0.00
685.64	14.04
685.78	42.13
685.91	53.83
686.05	23.41
686.19	0.00
686.32	16.38
686.46	21.06
686.60	9.36
686.73	58.51
686.87	21.06
687.01	46.81
687.14	65.54
687.28	0.00
687.42	18.72
687.55	0.00
687.69	39.79
687.82	0.00
687.96	37.45
688.10	35.11
688.23	32.77
688.37	60.85
688.50	95.96
688.64	23.41
688.78	39.79
688.91	32.77
689.05	0.00
689.18	112.35
689.32	23.41
689.46	46.81
689.59	0.00
689.73	65.54
689.86	23.41
690.00	60.85
690.13	0.00
690.27	67.88
690.41	0.00
690.54	53.83
690.68	58.51
690.81	51.49
690.95	9.36
691.08	2.34
691.22	0.00
691.35	79.58
691.49	35.11
691.62	42.13
691.76	32.77
691.89	60.85
692.03	44.47
692.16	21.06
692.30	0.00
692.43	51.49
692.57	84.26
692.70	51.49
692.84	114.69
692.97	70.22
693.11	25.75
693.24	154.48
693.38	72.56
693.51	0.00
693.65	30.43
693.78	58.51
693.92	51.49
694.05	44.47
694.19	0.00
694.32	81.92
694.45	74.90
694.59	0.00
694.72	72.56
694.86	21.06
694.99	0.00
695.13	9.36
695.26	51.49
695.39	11.70
695.53	30.43
695.66	0.00
695.80	0.00
695.93	0.00
696.07	46.81
696.20	37.45
696.33	53.83
696.47	0.00
696.60	49.15
696.73	70.22
696.87	16.38
697.00	67.88
697.14	0.00
697.27	23.41
697.40	49.15
697.54	44.47
697.67	119.37
697.80	53.83
697.94	37.45
698.07	21.06
698.21	39.79
698.34	16.38
698.47	23.41
698.61	14.04
698.74	14.04
698.87	0.00
699.01	0.00
699.14	18.72
699.27	44.47
699.40	46.81
699.54	0.00
699.67	18.72
699.80	0.00
699.94	0.00
700.07	21.06
700.20	2.34
700.34	30.43
700.47	18.72
700.60	81.92
700.73	49.15
700.87	65.54
701.00	35.11
701.13	46.81
701.26	49.15
701.40	0.00
701.53	0.00
701.66	4.68
701.79	0.00
701.93	0.00
702.06	28.09
702.19	0.00
702.32	65.54
702.46	0.00
702.59	42.13
702.72	46.81
702.85	119.37
702.99	212.99
703.12	234.05
703.25	264.48
703.38	161.50
703.51	51.49
703.65	184.90
703.78	23.41
703.91	149.79
704.04	138.09
704.17	28.09
704.31	58.51
704.44	7.02
704.57	58.51
704.70	79.58
704.83	84.26
704.96	88.94
705.10	0.00
705.23	56.17
>>>>>End Processed Spectral Data<<<<<
