SpectraSuite Data File
++++++++++++++++++++++++++++++++++++
Date: Fri Oct 04 12:13:24 GMT-05:00 2013
User: price-jones
Dark Spectrum Present: No
Reference Spectrum Present: No
Number of Sampled Component Spectra: 1
Spectrometers: USB2+H05261
Integration Time (usec): 10000 (USB2+H05261)
Spectra Averaged: 1 (USB2+H05261)
Boxcar Smoothing: 0 (USB2+H05261)
Correct for Electrical Dark: No (USB2+H05261)
Strobe/Lamp Enabled: No (USB2+H05261)
Correct for Detector Non-linearity: No (USB2+H05261)
Correct for Stray Light: No (USB2+H05261)
Number of Pixels in Processed Spectrum: 2048
>>>>>Begin Processed Spectral Data<<<<<
365.73	39.79
365.92	39.79
366.12	39.79
366.32	0.00
366.52	0.00
366.72	0.00
366.91	0.00
367.11	0.00
367.31	0.00
367.51	0.00
367.70	0.00
367.90	0.00
368.10	0.00
368.30	0.00
368.49	0.00
368.69	0.00
368.89	0.00
369.09	0.00
369.28	0.00
369.48	0.00
369.68	0.00
369.87	0.00
370.07	0.00
370.27	0.00
370.47	0.00
370.66	0.00
370.86	0.00
371.06	0.00
371.25	35.11
371.45	0.00
371.65	0.00
371.84	0.00
372.04	0.00
372.24	11.70
372.44	28.09
372.63	74.90
372.83	32.77
373.03	51.49
373.22	7.02
373.42	0.00
373.62	0.00
373.81	51.49
374.01	7.02
374.21	79.58
374.40	53.83
374.60	0.00
374.79	35.11
374.99	86.60
375.19	49.15
375.38	0.00
375.58	2.34
375.78	0.00
375.97	42.13
376.17	11.70
376.37	0.00
376.56	51.49
376.76	30.43
376.95	56.17
377.15	21.06
377.35	72.56
377.54	0.00
377.74	100.64
377.93	21.06
378.13	0.00
378.33	16.38
378.52	28.09
378.72	0.00
378.91	37.45
379.11	51.49
379.31	44.47
379.50	37.45
379.70	21.06
379.89	7.02
380.09	14.04
380.28	46.81
380.48	117.03
380.68	49.15
380.87	0.00
381.07	0.00
381.26	0.00
381.46	77.24
381.65	18.72
381.85	0.00
382.04	30.43
382.24	0.00
382.43	16.38
382.63	18.72
382.83	0.00
383.02	0.00
383.22	2.34
383.41	32.77
383.61	42.13
383.80	18.72
384.00	2.34
384.19	42.13
384.39	112.35
384.58	0.00
384.78	60.85
384.97	23.41
385.17	4.68
385.36	35.11
385.56	30.43
385.75	49.15
385.95	21.06
386.14	9.36
386.34	28.09
386.53	7.02
386.72	30.43
386.92	42.13
387.11	49.15
387.31	16.38
387.50	0.00
387.70	44.47
387.89	7.02
388.09	9.36
388.28	56.17
388.48	11.70
388.67	110.01
388.86	0.00
389.06	0.00
389.25	0.00
389.45	0.00
389.64	0.00
389.84	63.19
390.03	21.06
390.22	0.00
390.42	51.49
390.61	30.43
390.81	72.56
391.00	0.00
391.19	28.09
391.39	42.13
391.58	9.36
391.78	0.00
391.97	9.36
392.16	65.54
392.36	23.41
392.55	63.19
392.75	7.02
392.94	14.04
393.13	44.47
393.33	0.00
393.52	0.00
393.71	28.09
393.91	0.00
394.10	7.02
394.29	14.04
394.49	25.75
394.68	2.34
394.88	2.34
395.07	0.00
395.26	0.00
395.46	16.38
395.65	30.43
395.84	16.38
396.04	7.02
396.23	0.00
396.42	9.36
396.62	65.54
396.81	0.00
397.00	16.38
397.19	44.47
397.39	51.49
397.58	44.47
397.77	30.43
397.97	39.79
398.16	4.68
398.35	0.00
398.55	21.06
398.74	4.68
398.93	9.36
399.12	21.06
399.32	51.49
399.51	0.00
399.70	9.36
399.90	28.09
400.09	0.00
400.28	56.17
400.47	0.00
400.67	0.00
400.86	0.00
401.05	14.04
401.24	14.04
401.44	0.00
401.63	49.15
401.82	58.51
402.01	32.77
402.21	0.00
402.40	63.19
402.59	0.00
402.78	23.41
402.97	28.09
403.17	23.41
403.36	72.56
403.55	23.41
403.74	0.00
403.93	42.13
404.13	35.11
404.32	0.00
404.51	42.13
404.70	0.00
404.89	18.72
405.09	0.00
405.28	0.00
405.47	67.88
405.66	79.58
405.85	0.00
406.05	37.45
406.24	0.00
406.43	60.85
406.62	7.02
406.81	28.09
407.00	84.26
407.20	128.73
407.39	51.49
407.58	98.30
407.77	23.41
407.96	42.13
408.15	81.92
408.34	0.00
408.54	42.13
408.73	67.88
408.92	46.81
409.11	42.13
409.30	0.00
409.49	30.43
409.68	0.00
409.87	58.51
410.07	81.92
410.26	100.64
410.45	0.00
410.64	49.15
410.83	28.09
411.02	0.00
411.21	28.09
411.40	32.77
411.59	0.00
411.78	0.00
411.98	0.00
412.17	18.72
412.36	0.00
412.55	72.56
412.74	49.15
412.93	0.00
413.12	0.00
413.31	86.60
413.50	28.09
413.69	77.24
413.88	0.00
414.07	0.00
414.26	7.02
414.45	9.36
414.64	67.88
414.83	16.38
415.02	0.00
415.22	0.00
415.41	14.04
415.60	0.00
415.79	0.00
415.98	0.00
416.17	58.51
416.36	28.09
416.55	9.36
416.74	72.56
416.93	14.04
417.12	0.00
417.31	35.11
417.50	37.45
417.69	58.51
417.88	21.06
418.07	37.45
418.26	11.70
418.45	74.90
418.64	79.58
418.83	49.15
419.02	30.43
419.21	25.75
419.39	32.77
419.58	25.75
419.77	51.49
419.96	32.77
420.15	42.13
420.34	49.15
420.53	28.09
420.72	70.22
420.91	46.81
421.10	11.70
421.29	0.00
421.48	30.43
421.67	0.00
421.86	9.36
422.05	37.45
422.24	46.81
422.43	53.83
422.61	4.68
422.80	74.90
422.99	16.38
423.18	53.83
423.37	23.41
423.56	74.90
423.75	9.36
423.94	0.00
424.13	37.45
424.32	49.15
424.50	30.43
424.69	16.38
424.88	51.49
425.07	119.37
425.26	44.47
425.45	35.11
425.64	51.49
425.83	9.36
426.01	46.81
426.20	0.00
426.39	0.00
426.58	65.54
426.77	0.00
426.96	21.06
427.15	9.36
427.33	18.72
427.52	0.00
427.71	0.00
427.90	67.88
428.09	11.70
428.28	28.09
428.46	44.47
428.65	0.00
428.84	0.00
429.03	0.00
429.22	16.38
429.40	0.00
429.59	42.13
429.78	7.02
429.97	18.72
430.16	30.43
430.34	102.98
430.53	28.09
430.72	60.85
430.91	0.00
431.10	0.00
431.28	21.06
431.47	2.34
431.66	0.00
431.85	4.68
432.03	107.66
432.22	25.75
432.41	7.02
432.60	16.38
432.79	0.00
432.97	37.45
433.16	56.17
433.35	0.00
433.54	23.41
433.72	30.43
433.91	35.11
434.10	9.36
434.28	32.77
434.47	32.77
434.66	32.77
434.85	0.00
435.03	65.54
435.22	30.43
435.41	0.00
435.59	44.47
435.78	14.04
435.97	70.22
436.16	46.81
436.34	25.75
436.53	51.49
436.72	18.72
436.90	46.81
437.09	25.75
437.28	60.85
437.46	0.00
437.65	25.75
437.84	44.47
438.02	0.00
438.21	65.54
438.40	0.00
438.58	51.49
438.77	39.79
438.96	21.06
439.14	0.00
439.33	0.00
439.52	0.00
439.70	46.81
439.89	32.77
440.08	2.34
440.26	23.41
440.45	63.19
440.63	51.49
440.82	42.13
441.01	32.77
441.19	0.00
441.38	49.15
441.57	0.00
441.75	88.94
441.94	7.02
442.12	39.79
442.31	37.45
442.50	0.00
442.68	18.72
442.87	9.36
443.05	0.00
443.24	44.47
443.43	28.09
443.61	56.17
443.80	84.26
443.98	35.11
444.17	11.70
444.35	51.49
444.54	32.77
444.73	0.00
444.91	0.00
445.10	16.38
445.28	37.45
445.47	60.85
445.65	39.79
445.84	39.79
446.02	16.38
446.21	28.09
446.39	0.00
446.58	14.04
446.77	0.00
446.95	63.19
447.14	51.49
447.32	0.00
447.51	70.22
447.69	21.06
447.88	42.13
448.06	32.77
448.25	0.00
448.43	25.75
448.62	37.45
448.80	32.77
448.99	18.72
449.17	23.41
449.36	18.72
449.54	0.00
449.73	30.43
449.91	93.62
450.10	0.00
450.28	72.56
450.46	51.49
450.65	56.17
450.83	107.66
451.02	11.70
451.20	0.00
451.39	2.34
451.57	107.66
451.76	60.85
451.94	74.90
452.13	14.04
452.31	0.00
452.49	0.00
452.68	4.68
452.86	70.22
453.05	72.56
453.23	0.00
453.42	35.11
453.60	72.56
453.78	51.49
453.97	0.00
454.15	21.06
454.34	42.13
454.52	58.51
454.70	14.04
454.89	81.92
455.07	11.70
455.26	91.28
455.44	42.13
455.62	72.56
455.81	60.85
455.99	51.49
456.17	44.47
456.36	30.43
456.54	32.77
456.73	67.88
456.91	4.68
457.09	37.45
457.28	23.41
457.46	0.00
457.64	0.00
457.83	14.04
458.01	7.02
458.19	30.43
458.38	46.81
458.56	0.00
458.74	16.38
458.93	32.77
459.11	0.00
459.29	37.45
459.48	91.28
459.66	65.54
459.84	37.45
460.03	14.04
460.21	9.36
460.39	28.09
460.57	0.00
460.76	0.00
460.94	91.28
461.12	74.90
461.31	72.56
461.49	0.00
461.67	42.13
461.85	2.34
462.04	67.88
462.22	81.92
462.40	16.38
462.59	110.01
462.77	79.58
462.95	0.00
463.13	0.00
463.32	0.00
463.50	18.72
463.68	98.30
463.86	46.81
464.05	58.51
464.23	51.49
464.41	2.34
464.59	39.79
464.78	58.51
464.96	0.00
465.14	44.47
465.32	9.36
465.50	86.60
465.69	58.51
465.87	9.36
466.05	44.47
466.23	4.68
466.41	42.13
466.60	49.15
466.78	4.68
466.96	93.62
467.14	70.22
467.32	14.04
467.51	44.47
467.69	0.00
467.87	67.88
468.05	0.00
468.23	49.15
468.41	46.81
468.60	32.77
468.78	53.83
468.96	30.43
469.14	84.26
469.32	79.58
469.50	0.00
469.69	126.39
469.87	32.77
470.05	0.00
470.23	86.60
470.41	16.38
470.59	63.19
470.77	74.90
470.95	0.00
471.14	18.72
471.32	60.85
471.50	95.96
471.68	4.68
471.86	16.38
472.04	0.00
472.22	46.81
472.40	0.00
472.58	95.96
472.77	65.54
472.95	0.00
473.13	2.34
473.31	0.00
473.49	7.02
473.67	0.00
473.85	0.00
474.03	0.00
474.21	37.45
474.39	9.36
474.57	11.70
474.75	77.24
474.93	0.00
475.12	79.58
475.30	18.72
475.48	65.54
475.66	56.17
475.84	86.60
476.02	23.41
476.20	32.77
476.38	37.45
476.56	39.79
476.74	9.36
476.92	74.90
477.10	51.49
477.28	23.41
477.46	25.75
477.64	28.09
477.82	56.17
478.00	0.00
478.18	0.00
478.36	14.04
478.54	0.00
478.72	49.15
478.90	70.22
479.08	60.85
479.26	0.00
479.44	58.51
479.62	63.19
479.80	77.24
479.98	35.11
480.16	4.68
480.34	56.17
480.52	0.00
480.70	16.38
480.88	70.22
481.06	4.68
481.24	91.28
481.41	49.15
481.59	4.68
481.77	30.43
481.95	28.09
482.13	0.00
482.31	110.01
482.49	25.75
482.67	51.49
482.85	28.09
483.03	28.09
483.21	72.56
483.39	0.00
483.57	67.88
483.74	44.47
483.92	131.07
484.10	42.13
484.28	0.00
484.46	30.43
484.64	51.49
484.82	95.96
485.00	91.28
485.18	39.79
485.35	21.06
485.53	16.38
485.71	32.77
485.89	67.88
486.07	25.75
486.25	65.54
486.43	28.09
486.61	32.77
486.78	53.83
486.96	86.60
487.14	74.90
487.32	39.79
487.50	11.70
487.68	0.00
487.85	124.05
488.03	37.45
488.21	79.58
488.39	72.56
488.57	16.38
488.75	51.49
488.92	23.41
489.10	37.45
489.28	35.11
489.46	39.79
489.64	32.77
489.81	28.09
489.99	56.17
490.17	7.02
490.35	140.43
490.53	65.54
490.70	39.79
490.88	65.54
491.06	58.51
491.24	65.54
491.41	46.81
491.59	51.49
491.77	18.72
491.95	72.56
492.13	35.11
492.30	32.77
492.48	63.19
492.66	32.77
492.84	0.00
493.01	72.56
493.19	98.30
493.37	0.00
493.54	42.13
493.72	32.77
493.90	35.11
494.08	93.62
494.25	70.22
494.43	81.92
494.61	77.24
494.79	9.36
494.96	63.19
495.14	39.79
495.32	18.72
495.49	39.79
495.67	37.45
495.85	39.79
496.02	102.98
496.20	23.41
496.38	37.45
496.55	0.00
496.73	65.54
496.91	28.09
497.09	11.70
497.26	91.28
497.44	21.06
497.62	7.02
497.79	30.43
497.97	65.54
498.14	93.62
498.32	0.00
498.50	23.41
498.67	0.00
498.85	70.22
499.03	23.41
499.20	32.77
499.38	56.17
499.56	56.17
499.73	58.51
499.91	60.85
500.08	37.45
500.26	30.43
500.44	0.00
500.61	121.71
500.79	0.00
500.97	30.43
501.14	65.54
501.32	14.04
501.49	56.17
501.67	84.26
501.84	11.70
502.02	53.83
502.20	7.02
502.37	30.43
502.55	84.26
502.72	28.09
502.90	25.75
503.07	37.45
503.25	81.92
503.43	25.75
503.60	9.36
503.78	0.00
503.95	81.92
504.13	32.77
504.30	0.00
504.48	23.41
504.65	44.47
504.83	91.28
505.01	49.15
505.18	56.17
505.36	117.03
505.53	58.51
505.71	56.17
505.88	46.81
506.06	11.70
506.23	84.26
506.41	98.30
506.58	63.19
506.76	2.34
506.93	21.06
507.11	42.13
507.28	77.24
507.46	14.04
507.63	74.90
507.81	42.13
507.98	11.70
508.16	46.81
508.33	37.45
508.50	32.77
508.68	39.79
508.85	11.70
509.03	84.26
509.20	39.79
509.38	0.00
509.55	102.98
509.73	0.00
509.90	18.72
510.08	7.02
510.25	60.85
510.42	65.54
510.60	60.85
510.77	0.00
510.95	37.45
511.12	39.79
511.30	32.77
511.47	60.85
511.64	16.38
511.82	53.83
511.99	53.83
512.17	32.77
512.34	30.43
512.51	7.02
512.69	7.02
512.86	114.69
513.04	95.96
513.21	18.72
513.38	0.00
513.56	42.13
513.73	37.45
513.90	37.45
514.08	77.24
514.25	65.54
514.43	28.09
514.60	0.00
514.77	16.38
514.95	46.81
515.12	60.85
515.29	4.68
515.47	0.00
515.64	112.35
515.81	16.38
515.99	42.13
516.16	63.19
516.33	49.15
516.51	14.04
516.68	37.45
516.85	39.79
517.03	2.34
517.20	72.56
517.37	110.01
517.54	7.02
517.72	67.88
517.89	32.77
518.06	18.72
518.24	32.77
518.41	42.13
518.58	7.02
518.75	37.45
518.93	100.64
519.10	18.72
519.27	63.19
519.45	42.13
519.62	58.51
519.79	9.36
519.96	140.43
520.14	70.22
520.31	4.68
520.48	4.68
520.65	9.36
520.83	9.36
521.00	46.81
521.17	86.60
521.34	42.13
521.52	46.81
521.69	51.49
521.86	30.43
522.03	46.81
522.20	0.00
522.38	0.00
522.55	0.00
522.72	0.00
522.89	0.00
523.07	49.15
523.24	60.85
523.41	77.24
523.58	126.39
523.75	114.69
523.92	21.06
524.10	72.56
524.27	112.35
524.44	0.00
524.61	7.02
524.78	67.88
524.96	42.13
525.13	21.06
525.30	70.22
525.47	51.49
525.64	0.00
525.81	4.68
525.98	0.00
526.16	25.75
526.33	65.54
526.50	42.13
526.67	0.00
526.84	7.02
527.01	39.79
527.18	65.54
527.36	7.02
527.53	9.36
527.70	0.00
527.87	58.51
528.04	79.58
528.21	72.56
528.38	117.03
528.55	74.90
528.72	84.26
528.89	110.01
529.07	70.22
529.24	44.47
529.41	0.00
529.58	65.54
529.75	42.13
529.92	42.13
530.09	4.68
530.26	42.13
530.43	49.15
530.60	86.60
530.77	65.54
530.94	49.15
531.11	0.00
531.28	35.11
531.46	0.00
531.63	35.11
531.80	28.09
531.97	67.88
532.14	88.94
532.31	7.02
532.48	65.54
532.65	60.85
532.82	63.19
532.99	60.85
533.16	23.41
533.33	63.19
533.50	49.15
533.67	14.04
533.84	28.09
534.01	88.94
534.18	72.56
534.35	56.17
534.52	0.00
534.69	14.04
534.86	74.90
535.03	0.00
535.20	77.24
535.37	42.13
535.54	7.02
535.71	37.45
535.88	0.00
536.05	74.90
536.22	44.47
536.38	35.11
536.55	49.15
536.72	56.17
536.89	60.85
537.06	0.00
537.23	28.09
537.40	21.06
537.57	74.90
537.74	23.41
537.91	25.75
538.08	30.43
538.25	56.17
538.42	0.00
538.59	49.15
538.75	0.00
538.92	98.30
539.09	46.81
539.26	11.70
539.43	72.56
539.60	53.83
539.77	0.00
539.94	74.90
540.11	0.00
540.28	35.11
540.44	37.45
540.61	65.54
540.78	0.00
540.95	4.68
541.12	56.17
541.29	9.36
541.46	110.01
541.62	37.45
541.79	32.77
541.96	32.77
542.13	42.13
542.30	0.00
542.47	77.24
542.63	81.92
542.80	58.51
542.97	56.17
543.14	28.09
543.31	81.92
543.48	0.00
543.64	7.02
543.81	114.69
543.98	56.17
544.15	74.90
544.32	65.54
544.48	0.00
544.65	0.00
544.82	21.06
544.99	0.00
545.16	0.00
545.32	14.04
545.49	4.68
545.66	51.49
545.83	0.00
546.00	0.00
546.16	86.60
546.33	39.79
546.50	107.66
546.67	86.60
546.83	112.35
547.00	0.00
547.17	30.43
547.34	35.11
547.50	2.34
547.67	81.92
547.84	135.75
548.00	35.11
548.17	28.09
548.34	35.11
548.51	32.77
548.67	84.26
548.84	105.32
549.01	23.41
549.18	88.94
549.34	79.58
549.51	60.85
549.68	35.11
549.84	7.02
550.01	11.70
550.18	56.17
550.34	121.71
550.51	152.13
550.68	4.68
550.84	65.54
551.01	65.54
551.18	0.00
551.34	14.04
551.51	0.00
551.68	0.00
551.84	42.13
552.01	16.38
552.18	46.81
552.34	18.72
552.51	25.75
552.68	16.38
552.84	114.69
553.01	60.85
553.18	65.54
553.34	95.96
553.51	0.00
553.67	18.72
553.84	65.54
554.01	0.00
554.17	56.17
554.34	0.00
554.51	56.17
554.67	81.92
554.84	35.11
555.00	46.81
555.17	60.85
555.33	7.02
555.50	72.56
555.67	51.49
555.83	32.77
556.00	58.51
556.16	112.35
556.33	11.70
556.50	121.71
556.66	58.51
556.83	44.47
556.99	16.38
557.16	58.51
557.32	53.83
557.49	72.56
557.65	28.09
557.82	91.28
557.98	16.38
558.15	154.48
558.32	77.24
558.48	56.17
558.65	9.36
558.81	18.72
558.98	14.04
559.14	67.88
559.31	95.96
559.47	51.49
559.64	28.09
559.80	30.43
559.97	79.58
560.13	18.72
560.30	53.83
560.46	56.17
560.63	14.04
560.79	0.00
560.96	67.88
561.12	46.81
561.29	58.51
561.45	84.26
561.61	14.04
561.78	51.49
561.94	28.09
562.11	0.00
562.27	98.30
562.44	37.45
562.60	0.00
562.77	39.79
562.93	72.56
563.10	131.07
563.26	30.43
563.42	25.75
563.59	79.58
563.75	0.00
563.92	0.00
564.08	81.92
564.24	0.00
564.41	39.79
564.57	51.49
564.74	28.09
564.90	58.51
565.07	25.75
565.23	4.68
565.39	49.15
565.56	0.00
565.72	0.00
565.88	2.34
566.05	70.22
566.21	56.17
566.38	65.54
566.54	28.09
566.70	65.54
566.87	18.72
567.03	16.38
567.19	0.00
567.36	37.45
567.52	0.00
567.68	35.11
567.85	58.51
568.01	0.00
568.17	74.90
568.34	7.02
568.50	18.72
568.66	70.22
568.83	112.35
568.99	74.90
569.15	77.24
569.32	70.22
569.48	44.47
569.64	11.70
569.81	0.00
569.97	0.00
570.13	42.13
570.30	0.00
570.46	56.17
570.62	93.62
570.78	28.09
570.95	35.11
571.11	9.36
571.27	51.49
571.43	93.62
571.60	7.02
571.76	0.00
571.92	0.00
572.09	0.00
572.25	0.00
572.41	0.00
572.57	98.30
572.74	4.68
572.90	0.00
573.06	0.00
573.22	0.00
573.38	124.05
573.55	0.00
573.71	58.51
573.87	4.68
574.03	0.00
574.20	18.72
574.36	63.19
574.52	42.13
574.68	16.38
574.84	37.45
575.01	0.00
575.17	42.13
575.33	30.43
575.49	18.72
575.65	32.77
575.82	70.22
575.98	84.26
576.14	0.00
576.30	4.68
576.46	74.90
576.62	25.75
576.79	91.28
576.95	0.00
577.11	58.51
577.27	35.11
577.43	88.94
577.59	56.17
577.75	100.64
577.92	105.32
578.08	65.54
578.24	67.88
578.40	16.38
578.56	58.51
578.72	18.72
578.88	63.19
579.04	60.85
579.21	93.62
579.37	25.75
579.53	4.68
579.69	95.96
579.85	11.70
580.01	88.94
580.17	88.94
580.33	53.83
580.49	46.81
580.65	51.49
580.82	56.17
580.98	51.49
581.14	28.09
581.30	23.41
581.46	30.43
581.62	65.54
581.78	35.11
581.94	114.69
582.10	49.15
582.26	35.11
582.42	102.98
582.58	30.43
582.74	0.00
582.90	70.22
583.06	35.11
583.22	0.00
583.38	46.81
583.54	28.09
583.70	88.94
583.86	35.11
584.02	53.83
584.18	67.88
584.34	0.00
584.50	0.00
584.66	30.43
584.82	56.17
584.98	44.47
585.14	67.88
585.30	46.81
585.46	49.15
585.62	18.72
585.78	72.56
585.94	86.60
586.10	65.54
586.26	70.22
586.42	46.81
586.58	88.94
586.74	112.35
586.90	37.45
587.06	39.79
587.22	23.41
587.38	4.68
587.54	2.34
587.70	9.36
587.86	2.34
588.02	0.00
588.18	70.22
588.34	44.47
588.49	9.36
588.65	56.17
588.81	0.00
588.97	95.96
589.13	28.09
589.29	37.45
589.45	46.81
589.61	0.00
589.77	0.00
589.93	35.11
590.08	11.70
590.24	0.00
590.40	0.00
590.56	7.02
590.72	39.79
590.88	44.47
591.04	9.36
591.20	0.00
591.35	67.88
591.51	46.81
591.67	9.36
591.83	70.22
591.99	25.75
592.15	67.88
592.31	0.00
592.46	7.02
592.62	0.00
592.78	60.85
592.94	70.22
593.10	56.17
593.26	14.04
593.41	117.03
593.57	11.70
593.73	25.75
593.89	74.90
594.05	95.96
594.20	72.56
594.36	102.98
594.52	72.56
594.68	2.34
594.84	65.54
594.99	100.64
595.15	124.05
595.31	53.83
595.47	56.17
595.62	67.88
595.78	79.58
595.94	4.68
596.10	32.77
596.25	0.00
596.41	63.19
596.57	100.64
596.73	63.19
596.88	21.06
597.04	37.45
597.20	98.30
597.36	32.77
597.51	107.66
597.67	88.94
597.83	46.81
597.99	72.56
598.14	42.13
598.30	65.54
598.46	42.13
598.61	56.17
598.77	32.77
598.93	0.00
599.09	14.04
599.24	65.54
599.40	60.85
599.56	7.02
599.71	0.00
599.87	81.92
600.03	100.64
600.18	25.75
600.34	32.77
600.50	58.51
600.65	81.92
600.81	16.38
600.97	32.77
601.12	11.70
601.28	91.28
601.44	0.00
601.59	23.41
601.75	0.00
601.91	102.98
602.06	28.09
602.22	95.96
602.37	79.58
602.53	35.11
602.69	110.01
602.84	58.51
603.00	72.56
603.16	65.54
603.31	100.64
603.47	14.04
603.62	39.79
603.78	60.85
603.94	32.77
604.09	37.45
604.25	63.19
604.40	77.24
604.56	18.72
604.71	65.54
604.87	86.60
605.03	53.83
605.18	53.83
605.34	79.58
605.49	11.70
605.65	93.62
605.80	4.68
605.96	0.00
606.12	56.17
606.27	60.85
606.43	46.81
606.58	65.54
606.74	74.90
606.89	49.15
607.05	84.26
607.20	9.36
607.36	37.45
607.51	35.11
607.67	107.66
607.82	35.11
607.98	0.00
608.13	32.77
608.29	70.22
608.44	18.72
608.60	51.49
608.75	0.00
608.91	23.41
609.06	0.00
609.22	32.77
609.37	23.41
609.53	128.73
609.68	88.94
609.84	9.36
609.99	0.00
610.15	65.54
610.30	9.36
610.46	60.85
610.61	0.00
610.76	9.36
610.92	0.00
611.07	98.30
611.23	53.83
611.38	46.81
611.54	30.43
611.69	74.90
611.84	42.13
612.00	44.47
612.15	60.85
612.31	44.47
612.46	56.17
612.62	91.28
612.77	67.88
612.92	95.96
613.08	39.79
613.23	72.56
613.39	0.00
613.54	63.19
613.69	77.24
613.85	23.41
614.00	16.38
614.15	16.38
614.31	53.83
614.46	16.38
614.62	0.00
614.77	23.41
614.92	58.51
615.08	79.58
615.23	0.00
615.38	2.34
615.54	2.34
615.69	18.72
615.84	2.34
616.00	23.41
616.15	37.45
616.30	25.75
616.46	102.98
616.61	0.00
616.76	25.75
616.92	25.75
617.07	107.66
617.22	30.43
617.37	70.22
617.53	23.41
617.68	0.00
617.83	7.02
617.99	28.09
618.14	67.88
618.29	56.17
618.45	95.96
618.60	21.06
618.75	11.70
618.90	18.72
619.06	0.00
619.21	4.68
619.36	28.09
619.51	77.24
619.67	30.43
619.82	0.00
619.97	58.51
620.12	81.92
620.28	0.00
620.43	37.45
620.58	39.79
620.73	28.09
620.89	77.24
621.04	28.09
621.19	58.51
621.34	77.24
621.49	79.58
621.65	35.11
621.80	0.00
621.95	0.00
622.10	0.00
622.25	0.00
622.41	102.98
622.56	44.47
622.71	0.00
622.86	77.24
623.01	56.17
623.16	49.15
623.32	4.68
623.47	7.02
623.62	51.49
623.77	0.00
623.92	0.00
624.07	7.02
624.23	42.13
624.38	72.56
624.53	0.00
624.68	63.19
624.83	25.75
624.98	23.41
625.13	35.11
625.29	0.00
625.44	35.11
625.59	72.56
625.74	16.38
625.89	102.98
626.04	58.51
626.19	60.85
626.34	14.04
626.49	9.36
626.65	63.19
626.80	18.72
626.95	35.11
627.10	7.02
627.25	72.56
627.40	53.83
627.55	18.72
627.70	14.04
627.85	0.00
628.00	65.54
628.15	98.30
628.30	0.00
628.45	67.88
628.60	65.54
628.76	114.69
628.91	81.92
629.06	16.38
629.21	0.00
629.36	0.00
629.51	0.00
629.66	32.77
629.81	37.45
629.96	46.81
630.11	28.09
630.26	72.56
630.41	0.00
630.56	28.09
630.71	0.00
630.86	2.34
631.01	32.77
631.16	21.06
631.31	67.88
631.46	11.70
631.61	0.00
631.76	0.00
631.91	25.75
632.06	0.00
632.21	7.02
632.36	49.15
632.51	0.00
632.66	16.38
632.81	91.28
632.96	84.26
633.10	18.72
633.25	0.00
633.40	72.56
633.55	79.58
633.70	9.36
633.85	0.00
634.00	42.13
634.15	74.90
634.30	0.00
634.45	60.85
634.60	0.00
634.75	18.72
634.90	14.04
635.05	46.81
635.19	18.72
635.34	53.83
635.49	53.83
635.64	21.06
635.79	0.00
635.94	0.00
636.09	0.00
636.24	18.72
636.39	18.72
636.53	51.49
636.68	23.41
636.83	32.77
636.98	14.04
637.13	42.13
637.28	14.04
637.43	63.19
637.57	58.51
637.72	0.00
637.87	0.00
638.02	28.09
638.17	21.06
638.32	100.64
638.46	51.49
638.61	67.88
638.76	46.81
638.91	67.88
639.06	0.00
639.20	56.17
639.35	0.00
639.50	0.00
639.65	42.13
639.80	0.00
639.94	60.85
640.09	53.83
640.24	7.02
640.39	51.49
640.54	16.38
640.68	7.02
640.83	25.75
640.98	7.02
641.13	140.43
641.27	25.75
641.42	25.75
641.57	21.06
641.72	58.51
641.86	25.75
642.01	46.81
642.16	30.43
642.31	114.69
642.45	46.81
642.60	0.00
642.75	23.41
642.90	84.26
643.04	0.00
643.19	2.34
643.34	32.77
643.48	25.75
643.63	79.58
643.78	63.19
643.93	0.00
644.07	14.04
644.22	0.00
644.37	60.85
644.51	0.00
644.66	0.00
644.81	32.77
644.95	32.77
645.10	2.34
645.25	0.00
645.39	23.41
645.54	0.00
645.69	32.77
645.83	23.41
645.98	49.15
646.13	21.06
646.27	60.85
646.42	9.36
646.57	114.69
646.71	0.00
646.86	56.17
647.00	16.38
647.15	112.35
647.30	0.00
647.44	58.51
647.59	30.43
647.74	21.06
647.88	0.00
648.03	0.00
648.17	23.41
648.32	11.70
648.47	28.09
648.61	0.00
648.76	67.88
648.90	65.54
649.05	18.72
649.20	56.17
649.34	2.34
649.49	21.06
649.63	2.34
649.78	7.02
649.92	0.00
650.07	25.75
650.21	46.81
650.36	51.49
650.51	4.68
650.65	2.34
650.80	23.41
650.94	0.00
651.09	0.00
651.23	58.51
651.38	0.00
651.52	4.68
651.67	58.51
651.81	32.77
651.96	39.79
652.10	9.36
652.25	28.09
652.39	74.90
652.54	28.09
652.68	37.45
652.83	7.02
652.97	32.77
653.12	65.54
653.26	107.66
653.41	0.00
653.55	74.90
653.70	58.51
653.84	35.11
653.99	0.00
654.13	2.34
654.27	95.96
654.42	9.36
654.56	51.49
654.71	79.58
654.85	53.83
655.00	0.00
655.14	46.81
655.29	0.00
655.43	46.81
655.57	39.79
655.72	56.17
655.86	74.90
656.01	7.02
656.15	0.00
656.30	102.98
656.44	0.00
656.58	25.75
656.73	32.77
656.87	21.06
657.01	9.36
657.16	65.54
657.30	37.45
657.45	93.62
657.59	0.00
657.73	42.13
657.88	7.02
658.02	49.15
658.16	0.00
658.31	16.38
658.45	0.00
658.60	16.38
658.74	28.09
658.88	0.00
659.03	0.00
659.17	60.85
659.31	0.00
659.46	21.06
659.60	39.79
659.74	16.38
659.89	7.02
660.03	0.00
660.17	32.77
660.32	21.06
660.46	81.92
660.60	53.83
660.74	25.75
660.89	0.00
661.03	0.00
661.17	4.68
661.32	0.00
661.46	35.11
661.60	0.00
661.74	39.79
661.89	18.72
662.03	56.17
662.17	0.00
662.31	39.79
662.46	4.68
662.60	7.02
662.74	25.75
662.88	23.41
663.03	37.45
663.17	18.72
663.31	23.41
663.45	0.00
663.60	46.81
663.74	21.06
663.88	49.15
664.02	0.00
664.17	72.56
664.31	88.94
664.45	39.79
664.59	9.36
664.73	35.11
664.88	0.00
665.02	39.79
665.16	84.26
665.30	93.62
665.44	0.00
665.59	18.72
665.73	100.64
665.87	63.19
666.01	0.00
666.15	7.02
666.29	42.13
666.44	2.34
666.58	14.04
666.72	4.68
666.86	0.00
667.00	39.79
667.14	0.00
667.28	86.60
667.43	0.00
667.57	0.00
667.71	0.00
667.85	117.03
667.99	42.13
668.13	51.49
668.27	32.77
668.41	28.09
668.56	14.04
668.70	0.00
668.84	56.17
668.98	32.77
669.12	37.45
669.26	28.09
669.40	37.45
669.54	37.45
669.68	0.00
669.82	39.79
669.96	46.81
670.10	0.00
670.25	0.00
670.39	0.00
670.53	21.06
670.67	121.71
670.81	32.77
670.95	100.64
671.09	35.11
671.23	11.70
671.37	18.72
671.51	30.43
671.65	42.13
671.79	0.00
671.93	25.75
672.07	60.85
672.21	110.01
672.35	72.56
672.49	0.00
672.63	44.47
672.77	35.11
672.91	42.13
673.05	35.11
673.19	7.02
673.33	0.00
673.47	119.37
673.61	114.69
673.75	37.45
673.89	18.72
674.03	114.69
674.17	95.96
674.31	42.13
674.45	0.00
674.59	0.00
674.73	0.00
674.87	0.00
675.01	0.00
675.15	0.00
675.29	65.54
675.43	18.72
675.56	0.00
675.70	0.00
675.84	58.51
675.98	49.15
676.12	79.58
676.26	63.19
676.40	23.41
676.54	72.56
676.68	105.32
676.82	28.09
676.96	91.28
677.10	23.41
677.23	32.77
677.37	9.36
677.51	70.22
677.65	114.69
677.79	30.43
677.93	30.43
678.07	18.72
678.21	58.51
678.34	32.77
678.48	28.09
678.62	72.56
678.76	32.77
678.90	39.79
679.04	0.00
679.18	81.92
679.31	37.45
679.45	30.43
679.59	2.34
679.73	37.45
679.87	37.45
680.00	28.09
680.14	0.00
680.28	2.34
680.42	56.17
680.56	93.62
680.70	14.04
680.83	30.43
680.97	0.00
681.11	79.58
681.25	77.24
681.39	67.88
681.52	30.43
681.66	28.09
681.80	0.00
681.94	0.00
682.07	51.49
682.21	0.00
682.35	7.02
682.49	35.11
682.62	16.38
682.76	46.81
682.90	11.70
683.04	88.94
683.17	81.92
683.31	0.00
683.45	39.79
683.59	0.00
683.72	37.45
683.86	58.51
684.00	16.38
684.13	37.45
684.27	30.43
684.41	0.00
684.55	0.00
684.68	16.38
684.82	117.03
684.96	0.00
685.09	42.13
685.23	0.00
685.37	0.00
685.50	28.09
685.64	0.00
685.78	0.00
685.91	110.01
686.05	117.03
686.19	72.56
686.32	16.38
686.46	0.00
686.60	88.94
686.73	32.77
686.87	44.47
687.01	25.75
687.14	0.00
687.28	44.47
687.42	107.66
687.55	4.68
687.69	4.68
687.82	2.34
687.96	32.77
688.10	0.00
688.23	0.00
688.37	49.15
688.50	35.11
688.64	16.38
688.78	72.56
688.91	37.45
689.05	51.49
689.18	14.04
689.32	0.00
689.46	25.75
689.59	63.19
689.73	42.13
689.86	49.15
690.00	35.11
690.13	79.58
690.27	44.47
690.41	0.00
690.54	9.36
690.68	0.00
690.81	0.00
690.95	23.41
691.08	0.00
691.22	0.00
691.35	28.09
691.49	0.00
691.62	70.22
691.76	86.60
691.89	9.36
692.03	21.06
692.16	49.15
692.30	0.00
692.43	7.02
692.57	74.90
692.70	70.22
692.84	0.00
692.97	16.38
693.11	0.00
693.24	56.17
693.38	81.92
693.51	0.00
693.65	0.00
693.78	39.79
693.92	23.41
694.05	0.00
694.19	65.54
694.32	0.00
694.45	63.19
694.59	72.56
694.72	23.41
694.86	72.56
694.99	56.17
695.13	44.47
695.26	65.54
695.39	58.51
695.53	44.47
695.66	72.56
695.80	0.00
695.93	35.11
696.07	0.00
696.20	0.00
696.33	9.36
696.47	77.24
696.60	4.68
696.73	14.04
696.87	18.72
697.00	11.70
697.14	30.43
697.27	0.00
697.40	30.43
697.54	0.00
697.67	16.38
697.80	25.75
697.94	110.01
698.07	25.75
698.21	46.81
698.34	56.17
698.47	28.09
698.61	21.06
698.74	2.34
698.87	77.24
699.01	18.72
699.14	28.09
699.27	2.34
699.40	23.41
699.54	25.75
699.67	9.36
699.80	0.00
699.94	39.79
700.07	21.06
700.20	39.79
700.34	58.51
700.47	49.15
700.60	32.77
700.73	70.22
700.87	39.79
701.00	0.00
701.13	81.92
701.26	44.47
701.40	9.36
701.53	56.17
701.66	0.00
701.79	18.72
701.93	16.38
702.06	58.51
702.19	30.43
702.32	18.72
702.46	11.70
702.59	7.02
702.72	23.41
702.85	0.00
702.99	0.00
703.12	65.54
703.25	35.11
703.38	63.19
703.51	37.45
703.65	28.09
703.78	77.24
703.91	11.70
704.04	4.68
704.17	0.00
704.31	21.06
704.44	0.00
704.57	0.00
704.70	49.15
704.83	98.30
704.96	121.71
705.10	77.24
705.23	72.56
>>>>>End Processed Spectral Data<<<<<
