SpectraSuite Data File
++++++++++++++++++++++++++++++++++++
Date: Fri Oct 04 12:13:38 GMT-05:00 2013
User: price-jones
Dark Spectrum Present: No
Reference Spectrum Present: No
Number of Sampled Component Spectra: 1
Spectrometers: USB2+H05261
Integration Time (usec): 10000 (USB2+H05261)
Spectra Averaged: 1 (USB2+H05261)
Boxcar Smoothing: 0 (USB2+H05261)
Correct for Electrical Dark: No (USB2+H05261)
Strobe/Lamp Enabled: No (USB2+H05261)
Correct for Detector Non-linearity: No (USB2+H05261)
Correct for Stray Light: No (USB2+H05261)
Number of Pixels in Processed Spectrum: 2048
>>>>>Begin Processed Spectral Data<<<<<
365.73	44.47
365.92	44.47
366.12	44.47
366.32	0.00
366.52	0.00
366.72	0.00
366.91	0.00
367.11	0.00
367.31	0.00
367.51	0.00
367.70	0.00
367.90	0.00
368.10	0.00
368.30	0.00
368.49	0.00
368.69	0.00
368.89	0.00
369.09	0.00
369.28	0.00
369.48	0.00
369.68	0.00
369.87	0.00
370.07	0.00
370.27	0.00
370.47	0.00
370.66	0.00
370.86	0.00
371.06	0.00
371.25	0.00
371.45	0.00
371.65	0.00
371.84	0.00
372.04	0.00
372.24	65.54
372.44	23.41
372.63	0.00
372.83	0.00
373.03	0.00
373.22	16.38
373.42	0.00
373.62	28.09
373.81	0.00
374.01	16.38
374.21	21.06
374.40	23.41
374.60	35.11
374.79	9.36
374.99	4.68
375.19	42.13
375.38	60.85
375.58	16.38
375.78	102.98
375.97	95.96
376.17	51.49
376.37	0.00
376.56	23.41
376.76	18.72
376.95	25.75
377.15	14.04
377.35	79.58
377.54	0.00
377.74	11.70
377.93	0.00
378.13	16.38
378.33	2.34
378.52	39.79
378.72	0.00
378.91	60.85
379.11	0.00
379.31	0.00
379.50	32.77
379.70	60.85
379.89	0.00
380.09	0.00
380.28	56.17
380.48	86.60
380.68	65.54
380.87	86.60
381.07	56.17
381.26	46.81
381.46	28.09
381.65	44.47
381.85	32.77
382.04	0.00
382.24	42.13
382.43	46.81
382.63	2.34
382.83	0.00
383.02	0.00
383.22	0.00
383.41	0.00
383.61	0.00
383.80	100.64
384.00	46.81
384.19	53.83
384.39	9.36
384.58	25.75
384.78	0.00
384.97	42.13
385.17	42.13
385.36	65.54
385.56	49.15
385.75	84.26
385.95	0.00
386.14	53.83
386.34	65.54
386.53	37.45
386.72	67.88
386.92	25.75
387.11	67.88
387.31	79.58
387.50	7.02
387.70	0.00
387.89	9.36
388.09	0.00
388.28	25.75
388.48	0.00
388.67	21.06
388.86	42.13
389.06	25.75
389.25	63.19
389.45	18.72
389.64	30.43
389.84	25.75
390.03	11.70
390.22	16.38
390.42	74.90
390.61	0.00
390.81	72.56
391.00	28.09
391.19	100.64
391.39	70.22
391.58	0.00
391.78	11.70
391.97	11.70
392.16	11.70
392.36	93.62
392.55	65.54
392.75	42.13
392.94	0.00
393.13	46.81
393.33	98.30
393.52	0.00
393.71	70.22
393.91	0.00
394.10	37.45
394.29	9.36
394.49	21.06
394.68	0.00
394.88	9.36
395.07	21.06
395.26	110.01
395.46	28.09
395.65	30.43
395.84	0.00
396.04	32.77
396.23	88.94
396.42	60.85
396.62	16.38
396.81	7.02
397.00	30.43
397.19	35.11
397.39	0.00
397.58	0.00
397.77	46.81
397.97	56.17
398.16	0.00
398.35	58.51
398.55	46.81
398.74	74.90
398.93	39.79
399.12	67.88
399.32	0.00
399.51	0.00
399.70	105.32
399.90	60.85
400.09	14.04
400.28	37.45
400.47	0.00
400.67	67.88
400.86	9.36
401.05	7.02
401.24	51.49
401.44	14.04
401.63	0.00
401.82	51.49
402.01	133.41
402.21	32.77
402.40	4.68
402.59	9.36
402.78	51.49
402.97	16.38
403.17	121.71
403.36	9.36
403.55	0.00
403.74	39.79
403.93	30.43
404.13	0.00
404.32	7.02
404.51	0.00
404.70	32.77
404.89	25.75
405.09	39.79
405.28	0.00
405.47	30.43
405.66	105.32
405.85	0.00
406.05	0.00
406.24	60.85
406.43	23.41
406.62	0.00
406.81	49.15
407.00	18.72
407.20	63.19
407.39	9.36
407.58	0.00
407.77	23.41
407.96	16.38
408.15	56.17
408.34	0.00
408.54	18.72
408.73	32.77
408.92	70.22
409.11	30.43
409.30	49.15
409.49	2.34
409.68	25.75
409.87	0.00
410.07	32.77
410.26	0.00
410.45	0.00
410.64	0.00
410.83	0.00
411.02	21.06
411.21	74.90
411.40	9.36
411.59	95.96
411.78	16.38
411.98	0.00
412.17	70.22
412.36	0.00
412.55	65.54
412.74	21.06
412.93	30.43
413.12	32.77
413.31	65.54
413.50	32.77
413.69	58.51
413.88	63.19
414.07	11.70
414.26	77.24
414.45	18.72
414.64	49.15
414.83	28.09
415.02	0.00
415.22	4.68
415.41	18.72
415.60	0.00
415.79	0.00
415.98	0.00
416.17	23.41
416.36	0.00
416.55	0.00
416.74	0.00
416.93	0.00
417.12	42.13
417.31	0.00
417.50	0.00
417.69	18.72
417.88	91.28
418.07	37.45
418.26	0.00
418.45	7.02
418.64	56.17
418.83	56.17
419.02	23.41
419.21	30.43
419.39	35.11
419.58	70.22
419.77	16.38
419.96	14.04
420.15	63.19
420.34	63.19
420.53	16.38
420.72	21.06
420.91	25.75
421.10	37.45
421.29	46.81
421.48	0.00
421.67	70.22
421.86	37.45
422.05	37.45
422.24	23.41
422.43	4.68
422.61	28.09
422.80	72.56
422.99	32.77
423.18	79.58
423.37	0.00
423.56	63.19
423.75	91.28
423.94	154.48
424.13	56.17
424.32	70.22
424.50	72.56
424.69	37.45
424.88	67.88
425.07	0.00
425.26	0.00
425.45	0.00
425.64	44.47
425.83	63.19
426.01	91.28
426.20	42.13
426.39	14.04
426.58	35.11
426.77	70.22
426.96	2.34
427.15	0.00
427.33	21.06
427.52	49.15
427.71	21.06
427.90	72.56
428.09	44.47
428.28	30.43
428.46	46.81
428.65	0.00
428.84	2.34
429.03	49.15
429.22	121.71
429.40	72.56
429.59	70.22
429.78	23.41
429.97	11.70
430.16	46.81
430.34	72.56
430.53	18.72
430.72	0.00
430.91	35.11
431.10	63.19
431.28	53.83
431.47	37.45
431.66	35.11
431.85	16.38
432.03	70.22
432.22	18.72
432.41	35.11
432.60	0.00
432.79	51.49
432.97	79.58
433.16	14.04
433.35	65.54
433.54	0.00
433.72	72.56
433.91	4.68
434.10	0.00
434.28	28.09
434.47	70.22
434.66	86.60
434.85	46.81
435.03	142.77
435.22	72.56
435.41	9.36
435.59	58.51
435.78	18.72
435.97	28.09
436.16	42.13
436.34	81.92
436.53	7.02
436.72	107.66
436.90	46.81
437.09	95.96
437.28	168.52
437.46	98.30
437.65	53.83
437.84	4.68
438.02	23.41
438.21	142.77
438.40	110.01
438.58	18.72
438.77	35.11
438.96	72.56
439.14	11.70
439.33	58.51
439.52	56.17
439.70	16.38
439.89	37.45
440.08	0.00
440.26	65.54
440.45	65.54
440.63	56.17
440.82	35.11
441.01	14.04
441.19	121.71
441.38	107.66
441.57	128.73
441.75	70.22
441.94	100.64
442.12	46.81
442.31	81.92
442.50	37.45
442.68	30.43
442.87	37.45
443.05	0.00
443.24	44.47
443.43	140.43
443.61	58.51
443.80	100.64
443.98	42.13
444.17	32.77
444.35	65.54
444.54	46.81
444.73	88.94
444.91	110.01
445.10	25.75
445.28	70.22
445.47	42.13
445.65	7.02
445.84	63.19
446.02	91.28
446.21	53.83
446.39	56.17
446.58	37.45
446.77	86.60
446.95	58.51
447.14	0.00
447.32	42.13
447.51	58.51
447.69	37.45
447.88	37.45
448.06	30.43
448.25	51.49
448.43	18.72
448.62	105.32
448.80	60.85
448.99	110.01
449.17	53.83
449.36	84.26
449.54	42.13
449.73	91.28
449.91	72.56
450.10	0.00
450.28	37.45
450.46	35.11
450.65	53.83
450.83	11.70
451.02	21.06
451.20	95.96
451.39	56.17
451.57	32.77
451.76	35.11
451.94	0.00
452.13	37.45
452.31	91.28
452.49	0.00
452.68	72.56
452.86	53.83
453.05	63.19
453.23	44.47
453.42	21.06
453.60	37.45
453.78	23.41
453.97	42.13
454.15	49.15
454.34	93.62
454.52	18.72
454.70	56.17
454.89	74.90
455.07	37.45
455.26	81.92
455.44	98.30
455.62	23.41
455.81	46.81
455.99	100.64
456.17	4.68
456.36	25.75
456.54	51.49
456.73	56.17
456.91	131.07
457.09	7.02
457.28	25.75
457.46	30.43
457.64	16.38
457.83	46.81
458.01	58.51
458.19	74.90
458.38	95.96
458.56	9.36
458.74	112.35
458.93	9.36
459.11	63.19
459.29	49.15
459.48	112.35
459.66	65.54
459.84	74.90
460.03	0.00
460.21	35.11
460.39	70.22
460.57	102.98
460.76	58.51
460.94	58.51
461.12	67.88
461.31	77.24
461.49	117.03
461.67	51.49
461.85	128.73
462.04	81.92
462.22	131.07
462.40	91.28
462.59	65.54
462.77	0.00
462.95	60.85
463.13	84.26
463.32	74.90
463.50	86.60
463.68	39.79
463.86	7.02
464.05	18.72
464.23	107.66
464.41	0.00
464.59	74.90
464.78	32.77
464.96	56.17
465.14	28.09
465.32	37.45
465.50	51.49
465.69	58.51
465.87	2.34
466.05	46.81
466.23	0.00
466.41	42.13
466.60	0.00
466.78	37.45
466.96	124.05
467.14	77.24
467.32	0.00
467.51	0.00
467.69	70.22
467.87	37.45
468.05	0.00
468.23	114.69
468.41	11.70
468.60	145.11
468.78	46.81
468.96	49.15
469.14	77.24
469.32	23.41
469.50	37.45
469.69	63.19
469.87	70.22
470.05	65.54
470.23	88.94
470.41	42.13
470.59	25.75
470.77	84.26
470.95	7.02
471.14	39.79
471.32	107.66
471.50	74.90
471.68	67.88
471.86	84.26
472.04	25.75
472.22	32.77
472.40	124.05
472.58	53.83
472.77	58.51
472.95	84.26
473.13	58.51
473.31	79.58
473.49	0.00
473.67	67.88
473.85	9.36
474.03	65.54
474.21	107.66
474.39	51.49
474.57	60.85
474.75	65.54
474.93	100.64
475.12	81.92
475.30	25.75
475.48	39.79
475.66	60.85
475.84	88.94
476.02	110.01
476.20	77.24
476.38	30.43
476.56	65.54
476.74	32.77
476.92	44.47
477.10	77.24
477.28	35.11
477.46	16.38
477.64	88.94
477.82	0.00
478.00	58.51
478.18	30.43
478.36	98.30
478.54	105.32
478.72	18.72
478.90	35.11
479.08	88.94
479.26	0.00
479.44	65.54
479.62	74.90
479.80	28.09
479.98	51.49
480.16	58.51
480.34	95.96
480.52	51.49
480.70	4.68
480.88	74.90
481.06	110.01
481.24	74.90
481.41	35.11
481.59	138.09
481.77	0.00
481.95	147.45
482.13	156.82
482.31	53.83
482.49	107.66
482.67	98.30
482.85	91.28
483.03	35.11
483.21	65.54
483.39	7.02
483.57	126.39
483.74	81.92
483.92	51.49
484.10	110.01
484.28	88.94
484.46	131.07
484.64	46.81
484.82	91.28
485.00	91.28
485.18	7.02
485.35	95.96
485.53	0.00
485.71	32.77
485.89	110.01
486.07	88.94
486.25	79.58
486.43	0.00
486.61	28.09
486.78	77.24
486.96	63.19
487.14	65.54
487.32	11.70
487.50	110.01
487.68	53.83
487.85	23.41
488.03	53.83
488.21	110.01
488.39	51.49
488.57	21.06
488.75	67.88
488.92	77.24
489.10	49.15
489.28	184.90
489.46	88.94
489.64	25.75
489.81	126.39
489.99	46.81
490.17	105.32
490.35	7.02
490.53	93.62
490.70	102.98
490.88	77.24
491.06	56.17
491.24	91.28
491.41	105.32
491.59	67.88
491.77	37.45
491.95	16.38
492.13	84.26
492.30	63.19
492.48	119.37
492.66	25.75
492.84	74.90
493.01	77.24
493.19	70.22
493.37	100.64
493.54	72.56
493.72	110.01
493.90	28.09
494.08	44.47
494.25	72.56
494.43	21.06
494.61	39.79
494.79	86.60
494.96	14.04
495.14	51.49
495.32	2.34
495.49	149.79
495.67	44.47
495.85	14.04
496.02	72.56
496.20	107.66
496.38	51.49
496.55	11.70
496.73	93.62
496.91	74.90
497.09	117.03
497.26	84.26
497.44	53.83
497.62	86.60
497.79	91.28
497.97	60.85
498.14	74.90
498.32	91.28
498.50	100.64
498.67	79.58
498.85	138.09
499.03	30.43
499.20	79.58
499.38	102.98
499.56	49.15
499.73	77.24
499.91	14.04
500.08	67.88
500.26	65.54
500.44	44.47
500.61	84.26
500.79	53.83
500.97	42.13
501.14	23.41
501.32	58.51
501.49	30.43
501.67	0.00
501.84	117.03
502.02	100.64
502.20	42.13
502.37	63.19
502.55	81.92
502.72	114.69
502.90	119.37
503.07	58.51
503.25	142.77
503.43	39.79
503.60	0.00
503.78	81.92
503.95	32.77
504.13	28.09
504.30	58.51
504.48	133.41
504.65	42.13
504.83	32.77
505.01	138.09
505.18	88.94
505.36	39.79
505.53	25.75
505.71	32.77
505.88	51.49
506.06	65.54
506.23	46.81
506.41	79.58
506.58	65.54
506.76	63.19
506.93	63.19
507.11	84.26
507.28	32.77
507.46	112.35
507.63	131.07
507.81	44.47
507.98	110.01
508.16	126.39
508.33	102.98
508.50	131.07
508.68	16.38
508.85	56.17
509.03	98.30
509.20	84.26
509.38	46.81
509.55	44.47
509.73	100.64
509.90	32.77
510.08	95.96
510.25	28.09
510.42	65.54
510.60	131.07
510.77	91.28
510.95	60.85
511.12	53.83
511.30	77.24
511.47	88.94
511.64	60.85
511.82	67.88
511.99	121.71
512.17	91.28
512.34	86.60
512.51	44.47
512.69	28.09
512.86	0.00
513.04	9.36
513.21	133.41
513.38	79.58
513.56	65.54
513.73	84.26
513.90	46.81
514.08	84.26
514.25	91.28
514.43	84.26
514.60	44.47
514.77	42.13
514.95	86.60
515.12	119.37
515.29	84.26
515.47	67.88
515.64	88.94
515.81	105.32
515.99	72.56
516.16	79.58
516.33	77.24
516.51	126.39
516.68	124.05
516.85	37.45
517.03	95.96
517.20	117.03
517.37	0.00
517.54	95.96
517.72	39.79
517.89	124.05
518.06	63.19
518.24	67.88
518.41	70.22
518.58	46.81
518.75	98.30
518.93	44.47
519.10	126.39
519.27	112.35
519.45	18.72
519.62	74.90
519.79	112.35
519.96	58.51
520.14	156.82
520.31	105.32
520.48	28.09
520.65	70.22
520.83	65.54
521.00	145.11
521.17	105.32
521.34	126.39
521.52	63.19
521.69	79.58
521.86	112.35
522.03	107.66
522.20	117.03
522.38	7.02
522.55	124.05
522.72	159.16
522.89	60.85
523.07	58.51
523.24	88.94
523.41	133.41
523.58	67.88
523.75	0.00
523.92	135.75
524.10	60.85
524.27	56.17
524.44	95.96
524.61	117.03
524.78	2.34
524.96	49.15
525.13	159.16
525.30	60.85
525.47	67.88
525.64	135.75
525.81	81.92
525.98	49.15
526.16	56.17
526.33	88.94
526.50	70.22
526.67	51.49
526.84	98.30
527.01	131.07
527.18	107.66
527.36	91.28
527.53	81.92
527.70	37.45
527.87	51.49
528.04	84.26
528.21	124.05
528.38	88.94
528.55	152.13
528.72	98.30
528.89	58.51
529.07	0.00
529.24	105.32
529.41	56.17
529.58	140.43
529.75	93.62
529.92	74.90
530.09	131.07
530.26	74.90
530.43	140.43
530.60	107.66
530.77	112.35
530.94	91.28
531.11	70.22
531.28	91.28
531.46	81.92
531.63	88.94
531.80	147.45
531.97	128.73
532.14	93.62
532.31	102.98
532.48	121.71
532.65	93.62
532.82	86.60
532.99	117.03
533.16	53.83
533.33	0.00
533.50	93.62
533.67	100.64
533.84	124.05
534.01	77.24
534.18	112.35
534.35	49.15
534.52	72.56
534.69	86.60
534.86	56.17
535.03	110.01
535.20	138.09
535.37	70.22
535.54	58.51
535.71	60.85
535.88	91.28
536.05	91.28
536.22	65.54
536.38	138.09
536.55	95.96
536.72	100.64
536.89	44.47
537.06	84.26
537.23	81.92
537.40	39.79
537.57	142.77
537.74	140.43
537.91	65.54
538.08	93.62
538.25	133.41
538.42	84.26
538.59	49.15
538.75	119.37
538.92	60.85
539.09	81.92
539.26	152.13
539.43	86.60
539.60	65.54
539.77	124.05
539.94	91.28
540.11	28.09
540.28	65.54
540.44	154.48
540.61	110.01
540.78	98.30
540.95	112.35
541.12	74.90
541.29	135.75
541.46	88.94
541.62	131.07
541.79	25.75
541.96	16.38
542.13	30.43
542.30	100.64
542.47	23.41
542.63	117.03
542.80	56.17
542.97	156.82
543.14	56.17
543.31	14.04
543.48	156.82
543.64	79.58
543.81	128.73
543.98	112.35
544.15	107.66
544.32	63.19
544.48	65.54
544.65	117.03
544.82	42.13
544.99	74.90
545.16	121.71
545.32	91.28
545.49	124.05
545.66	117.03
545.83	166.18
546.00	147.45
546.16	72.56
546.33	91.28
546.50	170.86
546.67	117.03
546.83	110.01
547.00	124.05
547.17	93.62
547.34	37.45
547.50	9.36
547.67	84.26
547.84	53.83
548.00	42.13
548.17	74.90
548.34	32.77
548.51	95.96
548.67	112.35
548.84	35.11
549.01	11.70
549.18	98.30
549.34	119.37
549.51	131.07
549.68	149.79
549.84	42.13
550.01	77.24
550.18	117.03
550.34	98.30
550.51	112.35
550.68	114.69
550.84	67.88
551.01	60.85
551.18	18.72
551.34	95.96
551.51	135.75
551.68	102.98
551.84	95.96
552.01	131.07
552.18	107.66
552.34	131.07
552.51	149.79
552.68	107.66
552.84	95.96
553.01	72.56
553.18	100.64
553.34	81.92
553.51	44.47
553.67	70.22
553.84	161.50
554.01	100.64
554.17	25.75
554.34	35.11
554.51	152.13
554.67	114.69
554.84	42.13
555.00	98.30
555.17	65.54
555.33	65.54
555.50	67.88
555.67	67.88
555.83	105.32
556.00	135.75
556.16	81.92
556.33	49.15
556.50	107.66
556.66	156.82
556.83	117.03
556.99	161.50
557.16	11.70
557.32	0.00
557.49	65.54
557.65	46.81
557.82	51.49
557.98	74.90
558.15	58.51
558.32	84.26
558.48	28.09
558.65	39.79
558.81	46.81
558.98	44.47
559.14	74.90
559.31	86.60
559.47	79.58
559.64	49.15
559.80	168.52
559.97	53.83
560.13	152.13
560.30	88.94
560.46	117.03
560.63	124.05
560.79	91.28
560.96	86.60
561.12	67.88
561.29	72.56
561.45	49.15
561.61	11.70
561.78	95.96
561.94	81.92
562.11	72.56
562.27	53.83
562.44	77.24
562.60	51.49
562.77	16.38
562.93	58.51
563.10	9.36
563.26	81.92
563.42	91.28
563.59	67.88
563.75	93.62
563.92	0.00
564.08	77.24
564.24	56.17
564.41	42.13
564.57	77.24
564.74	102.98
564.90	138.09
565.07	39.79
565.23	105.32
565.39	30.43
565.56	84.26
565.72	98.30
565.88	70.22
566.05	112.35
566.21	18.72
566.38	21.06
566.54	53.83
566.70	112.35
566.87	105.32
567.03	77.24
567.19	72.56
567.36	77.24
567.52	16.38
567.68	56.17
567.85	18.72
568.01	60.85
568.17	32.77
568.34	60.85
568.50	65.54
568.66	81.92
568.83	0.00
568.99	70.22
569.15	28.09
569.32	100.64
569.48	135.75
569.64	140.43
569.81	79.58
569.97	77.24
570.13	114.69
570.30	84.26
570.46	51.49
570.62	98.30
570.78	142.77
570.95	44.47
571.11	51.49
571.27	46.81
571.43	37.45
571.60	30.43
571.76	98.30
571.92	65.54
572.09	79.58
572.25	128.73
572.41	56.17
572.57	107.66
572.74	77.24
572.90	102.98
573.06	53.83
573.22	95.96
573.38	77.24
573.55	49.15
573.71	154.48
573.87	58.51
574.03	128.73
574.20	95.96
574.36	81.92
574.52	110.01
574.68	147.45
574.84	81.92
575.01	102.98
575.17	53.83
575.33	37.45
575.49	119.37
575.65	114.69
575.82	98.30
575.98	0.00
576.14	53.83
576.30	42.13
576.46	51.49
576.62	88.94
576.79	81.92
576.95	79.58
577.11	84.26
577.27	58.51
577.43	0.00
577.59	37.45
577.75	72.56
577.92	110.01
578.08	46.81
578.24	86.60
578.40	133.41
578.56	72.56
578.72	107.66
578.88	63.19
579.04	70.22
579.21	7.02
579.37	107.66
579.53	35.11
579.69	58.51
579.85	114.69
580.01	60.85
580.17	32.77
580.33	30.43
580.49	4.68
580.65	91.28
580.82	117.03
580.98	74.90
581.14	70.22
581.30	74.90
581.46	91.28
581.62	91.28
581.78	72.56
581.94	126.39
582.10	53.83
582.26	79.58
582.42	126.39
582.58	49.15
582.74	63.19
582.90	112.35
583.06	88.94
583.22	65.54
583.38	119.37
583.54	93.62
583.70	98.30
583.86	46.81
584.02	42.13
584.18	79.58
584.34	98.30
584.50	46.81
584.66	58.51
584.82	95.96
584.98	42.13
585.14	46.81
585.30	126.39
585.46	147.45
585.62	23.41
585.78	37.45
585.94	95.96
586.10	140.43
586.26	0.00
586.42	53.83
586.58	49.15
586.74	60.85
586.90	93.62
587.06	30.43
587.22	124.05
587.38	56.17
587.54	49.15
587.70	63.19
587.86	67.88
588.02	77.24
588.18	39.79
588.34	0.00
588.49	35.11
588.65	93.62
588.81	77.24
588.97	79.58
589.13	84.26
589.29	119.37
589.45	32.77
589.61	70.22
589.77	102.98
589.93	102.98
590.08	70.22
590.24	91.28
590.40	175.54
590.56	100.64
590.72	102.98
590.88	53.83
591.04	124.05
591.20	138.09
591.35	86.60
591.51	142.77
591.67	79.58
591.83	56.17
591.99	86.60
592.15	49.15
592.31	58.51
592.46	46.81
592.62	58.51
592.78	63.19
592.94	56.17
593.10	23.41
593.26	110.01
593.41	67.88
593.57	53.83
593.73	60.85
593.89	56.17
594.05	42.13
594.20	28.09
594.36	58.51
594.52	95.96
594.68	46.81
594.84	114.69
594.99	49.15
595.15	84.26
595.31	53.83
595.47	126.39
595.62	102.98
595.78	98.30
595.94	81.92
596.10	32.77
596.25	170.86
596.41	74.90
596.57	21.06
596.73	93.62
596.88	124.05
597.04	67.88
597.20	142.77
597.36	9.36
597.51	138.09
597.67	11.70
597.83	88.94
597.99	84.26
598.14	147.45
598.30	67.88
598.46	77.24
598.61	65.54
598.77	133.41
598.93	84.26
599.09	77.24
599.24	135.75
599.40	84.26
599.56	93.62
599.71	119.37
599.87	51.49
600.03	58.51
600.18	138.09
600.34	51.49
600.50	72.56
600.65	100.64
600.81	46.81
600.97	16.38
601.12	30.43
601.28	79.58
601.44	131.07
601.59	46.81
601.75	28.09
601.91	112.35
602.06	16.38
602.22	30.43
602.37	102.98
602.53	117.03
602.69	133.41
602.84	49.15
603.00	7.02
603.16	39.79
603.31	23.41
603.47	98.30
603.62	51.49
603.78	51.49
603.94	98.30
604.09	142.77
604.25	42.13
604.40	37.45
604.56	70.22
604.71	149.79
604.87	117.03
605.03	91.28
605.18	102.98
605.34	16.38
605.49	77.24
605.65	81.92
605.80	60.85
605.96	37.45
606.12	39.79
606.27	67.88
606.43	72.56
606.58	39.79
606.74	124.05
606.89	46.81
607.05	72.56
607.20	149.79
607.36	105.32
607.51	79.58
607.67	86.60
607.82	56.17
607.98	51.49
608.13	39.79
608.29	93.62
608.44	72.56
608.60	107.66
608.75	105.32
608.91	98.30
609.06	140.43
609.22	44.47
609.37	49.15
609.53	42.13
609.68	58.51
609.84	93.62
609.99	107.66
610.15	107.66
610.30	35.11
610.46	42.13
610.61	72.56
610.76	21.06
610.92	37.45
611.07	98.30
611.23	131.07
611.38	67.88
611.54	56.17
611.69	105.32
611.84	46.81
612.00	86.60
612.15	44.47
612.31	51.49
612.46	110.01
612.62	25.75
612.77	49.15
612.92	135.75
613.08	81.92
613.23	53.83
613.39	49.15
613.54	79.58
613.69	53.83
613.85	93.62
614.00	58.51
614.15	102.98
614.31	126.39
614.46	98.30
614.62	88.94
614.77	37.45
614.92	56.17
615.08	30.43
615.23	25.75
615.38	0.00
615.54	25.75
615.69	56.17
615.84	67.88
616.00	51.49
616.15	42.13
616.30	112.35
616.46	25.75
616.61	63.19
616.76	49.15
616.92	7.02
617.07	65.54
617.22	98.30
617.37	74.90
617.53	58.51
617.68	95.96
617.83	32.77
617.99	58.51
618.14	9.36
618.29	44.47
618.45	23.41
618.60	44.47
618.75	9.36
618.90	60.85
619.06	79.58
619.21	7.02
619.36	56.17
619.51	145.11
619.67	44.47
619.82	88.94
619.97	46.81
620.12	93.62
620.28	58.51
620.43	161.50
620.58	67.88
620.73	56.17
620.89	88.94
621.04	107.66
621.19	63.19
621.34	46.81
621.49	86.60
621.65	84.26
621.80	51.49
621.95	53.83
622.10	79.58
622.25	88.94
622.41	46.81
622.56	30.43
622.71	140.43
622.86	23.41
623.01	84.26
623.16	77.24
623.32	51.49
623.47	114.69
623.62	46.81
623.77	28.09
623.92	88.94
624.07	23.41
624.23	42.13
624.38	84.26
624.53	0.00
624.68	4.68
624.83	37.45
624.98	56.17
625.13	46.81
625.29	2.34
625.44	74.90
625.59	49.15
625.74	0.00
625.89	79.58
626.04	16.38
626.19	70.22
626.34	84.26
626.49	67.88
626.65	51.49
626.80	93.62
626.95	72.56
627.10	60.85
627.25	149.79
627.40	39.79
627.55	0.00
627.70	67.88
627.85	39.79
628.00	0.00
628.15	77.24
628.30	49.15
628.45	32.77
628.60	100.64
628.76	77.24
628.91	58.51
629.06	0.00
629.21	124.05
629.36	88.94
629.51	42.13
629.66	44.47
629.81	65.54
629.96	79.58
630.11	77.24
630.26	63.19
630.41	44.47
630.56	88.94
630.71	84.26
630.86	138.09
631.01	25.75
631.16	0.00
631.31	81.92
631.46	46.81
631.61	0.00
631.76	39.79
631.91	98.30
632.06	39.79
632.21	88.94
632.36	114.69
632.51	16.38
632.66	88.94
632.81	63.19
632.96	49.15
633.10	63.19
633.25	88.94
633.40	133.41
633.55	93.62
633.70	42.13
633.85	81.92
634.00	74.90
634.15	49.15
634.30	95.96
634.45	30.43
634.60	30.43
634.75	58.51
634.90	84.26
635.05	60.85
635.19	128.73
635.34	91.28
635.49	114.69
635.64	46.81
635.79	70.22
635.94	56.17
636.09	100.64
636.24	18.72
636.39	70.22
636.53	60.85
636.68	2.34
636.83	138.09
636.98	72.56
637.13	23.41
637.28	18.72
637.43	21.06
637.57	28.09
637.72	65.54
637.87	53.83
638.02	18.72
638.17	51.49
638.32	142.77
638.46	70.22
638.61	98.30
638.76	102.98
638.91	56.17
639.06	110.01
639.20	49.15
639.35	9.36
639.50	63.19
639.65	72.56
639.80	49.15
639.94	91.28
640.09	42.13
640.24	93.62
640.39	16.38
640.54	46.81
640.68	65.54
640.83	30.43
640.98	37.45
641.13	58.51
641.27	63.19
641.42	95.96
641.57	84.26
641.72	32.77
641.86	88.94
642.01	88.94
642.16	98.30
642.31	28.09
642.45	93.62
642.60	35.11
642.75	46.81
642.90	56.17
643.04	63.19
643.19	28.09
643.34	98.30
643.48	44.47
643.63	0.00
643.78	0.00
643.93	58.51
644.07	72.56
644.22	112.35
644.37	30.43
644.51	37.45
644.66	39.79
644.81	72.56
644.95	91.28
645.10	7.02
645.25	23.41
645.39	100.64
645.54	79.58
645.69	119.37
645.83	23.41
645.98	98.30
646.13	0.00
646.27	39.79
646.42	0.00
646.57	65.54
646.71	35.11
646.86	37.45
647.00	112.35
647.15	51.49
647.30	161.50
647.44	46.81
647.59	25.75
647.74	44.47
647.88	7.02
648.03	0.00
648.17	39.79
648.32	72.56
648.47	37.45
648.61	4.68
648.76	51.49
648.90	88.94
649.05	0.00
649.20	49.15
649.34	32.77
649.49	107.66
649.63	32.77
649.78	30.43
649.92	28.09
650.07	46.81
650.21	56.17
650.36	60.85
650.51	70.22
650.65	28.09
650.80	7.02
650.94	21.06
651.09	98.30
651.23	23.41
651.38	39.79
651.52	63.19
651.67	30.43
651.81	16.38
651.96	0.00
652.10	149.79
652.25	53.83
652.39	133.41
652.54	72.56
652.68	93.62
652.83	58.51
652.97	72.56
653.12	23.41
653.26	53.83
653.41	84.26
653.55	18.72
653.70	149.79
653.84	81.92
653.99	60.85
654.13	72.56
654.27	0.00
654.42	18.72
654.56	60.85
654.71	42.13
654.85	4.68
655.00	0.00
655.14	23.41
655.29	25.75
655.43	0.00
655.57	56.17
655.72	16.38
655.86	37.45
656.01	35.11
656.15	88.94
656.30	42.13
656.44	56.17
656.58	84.26
656.73	0.00
656.87	79.58
657.01	119.37
657.16	77.24
657.30	91.28
657.45	67.88
657.59	81.92
657.73	37.45
657.88	23.41
658.02	51.49
658.16	65.54
658.31	53.83
658.45	56.17
658.60	102.98
658.74	67.88
658.88	79.58
659.03	86.60
659.17	32.77
659.31	84.26
659.46	51.49
659.60	35.11
659.74	53.83
659.89	91.28
660.03	7.02
660.17	4.68
660.32	53.83
660.46	0.00
660.60	67.88
660.74	105.32
660.89	63.19
661.03	0.00
661.17	60.85
661.32	28.09
661.46	0.00
661.60	81.92
661.74	44.47
661.89	28.09
662.03	72.56
662.17	0.00
662.31	21.06
662.46	88.94
662.60	32.77
662.74	79.58
662.88	154.48
663.03	124.05
663.17	46.81
663.31	39.79
663.45	39.79
663.60	23.41
663.74	42.13
663.88	39.79
664.02	14.04
664.17	53.83
664.31	53.83
664.45	25.75
664.59	60.85
664.73	58.51
664.88	77.24
665.02	65.54
665.16	58.51
665.30	74.90
665.44	63.19
665.59	9.36
665.73	39.79
665.87	44.47
666.01	39.79
666.15	114.69
666.29	0.00
666.44	28.09
666.58	95.96
666.72	79.58
666.86	14.04
667.00	63.19
667.14	32.77
667.28	2.34
667.43	7.02
667.57	65.54
667.71	70.22
667.85	79.58
667.99	32.77
668.13	11.70
668.27	49.15
668.41	9.36
668.56	23.41
668.70	145.11
668.84	32.77
668.98	56.17
669.12	37.45
669.26	63.19
669.40	77.24
669.54	0.00
669.68	74.90
669.82	9.36
669.96	28.09
670.10	46.81
670.25	65.54
670.39	65.54
670.53	46.81
670.67	39.79
670.81	77.24
670.95	49.15
671.09	86.60
671.23	67.88
671.37	63.19
671.51	7.02
671.65	98.30
671.79	49.15
671.93	42.13
672.07	72.56
672.21	84.26
672.35	93.62
672.49	147.45
672.63	100.64
672.77	9.36
672.91	84.26
673.05	84.26
673.19	79.58
673.33	42.13
673.47	100.64
673.61	138.09
673.75	37.45
673.89	102.98
674.03	25.75
674.17	37.45
674.31	0.00
674.45	14.04
674.59	35.11
674.73	126.39
674.87	56.17
675.01	88.94
675.15	25.75
675.29	58.51
675.43	25.75
675.56	86.60
675.70	95.96
675.84	0.00
675.98	88.94
676.12	42.13
676.26	46.81
676.40	42.13
676.54	56.17
676.68	93.62
676.82	67.88
676.96	49.15
677.10	49.15
677.23	70.22
677.37	110.01
677.51	105.32
677.65	91.28
677.79	42.13
677.93	72.56
678.07	0.00
678.21	28.09
678.34	74.90
678.48	51.49
678.62	16.38
678.76	107.66
678.90	72.56
679.04	42.13
679.18	74.90
679.31	35.11
679.45	58.51
679.59	0.00
679.73	49.15
679.87	35.11
680.00	81.92
680.14	0.00
680.28	0.00
680.42	30.43
680.56	0.00
680.70	21.06
680.83	70.22
680.97	0.00
681.11	95.96
681.25	70.22
681.39	4.68
681.52	51.49
681.66	11.70
681.80	14.04
681.94	63.19
682.07	30.43
682.21	60.85
682.35	4.68
682.49	21.06
682.62	0.00
682.76	0.00
682.90	112.35
683.04	23.41
683.17	0.00
683.31	117.03
683.45	77.24
683.59	44.47
683.72	84.26
683.86	42.13
684.00	49.15
684.13	107.66
684.27	35.11
684.41	25.75
684.55	105.32
684.68	60.85
684.82	32.77
684.96	42.13
685.09	65.54
685.23	32.77
685.37	35.11
685.50	0.00
685.64	72.56
685.78	98.30
685.91	84.26
686.05	9.36
686.19	44.47
686.32	0.00
686.46	98.30
686.60	53.83
686.73	14.04
686.87	23.41
687.01	51.49
687.14	0.00
687.28	16.38
687.42	0.00
687.55	58.51
687.69	23.41
687.82	11.70
687.96	14.04
688.10	11.70
688.23	107.66
688.37	70.22
688.50	46.81
688.64	18.72
688.78	51.49
688.91	2.34
689.05	25.75
689.18	65.54
689.32	46.81
689.46	18.72
689.59	0.00
689.73	53.83
689.86	0.00
690.00	42.13
690.13	42.13
690.27	70.22
690.41	93.62
690.54	51.49
690.68	133.41
690.81	0.00
690.95	60.85
691.08	46.81
691.22	25.75
691.35	51.49
691.49	25.75
691.62	60.85
691.76	42.13
691.89	46.81
692.03	37.45
692.16	21.06
692.30	0.00
692.43	0.00
692.57	0.00
692.70	0.00
692.84	0.00
692.97	35.11
693.11	79.58
693.24	11.70
693.38	49.15
693.51	65.54
693.65	16.38
693.78	18.72
693.92	14.04
694.05	0.00
694.19	46.81
694.32	0.00
694.45	14.04
694.59	18.72
694.72	37.45
694.86	4.68
694.99	0.00
695.13	0.00
695.26	81.92
695.39	25.75
695.53	49.15
695.66	0.00
695.80	30.43
695.93	81.92
696.07	49.15
696.20	14.04
696.33	30.43
696.47	2.34
696.60	56.17
696.73	28.09
696.87	39.79
697.00	42.13
697.14	67.88
697.27	21.06
697.40	42.13
697.54	0.00
697.67	58.51
697.80	114.69
697.94	0.00
698.07	0.00
698.21	63.19
698.34	49.15
698.47	44.47
698.61	0.00
698.74	28.09
698.87	37.45
699.01	28.09
699.14	30.43
699.27	44.47
699.40	23.41
699.54	0.00
699.67	9.36
699.80	30.43
699.94	46.81
700.07	51.49
700.20	18.72
700.34	0.00
700.47	105.32
700.60	67.88
700.73	18.72
700.87	30.43
701.00	65.54
701.13	9.36
701.26	23.41
701.40	21.06
701.53	42.13
701.66	81.92
701.79	0.00
701.93	0.00
702.06	39.79
702.19	49.15
702.32	107.66
702.46	110.01
702.59	25.75
702.72	44.47
702.85	70.22
702.99	0.00
703.12	44.47
703.25	81.92
703.38	100.64
703.51	88.94
703.65	65.54
703.78	7.02
703.91	32.77
704.04	60.85
704.17	72.56
704.31	0.00
704.44	74.90
704.57	9.36
704.70	25.75
704.83	42.13
704.96	117.03
705.10	81.92
705.23	9.36
>>>>>End Processed Spectral Data<<<<<
