SpectraSuite Data File
++++++++++++++++++++++++++++++++++++
Date: Fri Oct 04 12:13:44 GMT-05:00 2013
User: price-jones
Dark Spectrum Present: No
Reference Spectrum Present: No
Number of Sampled Component Spectra: 1
Spectrometers: USB2+H05261
Integration Time (usec): 10000 (USB2+H05261)
Spectra Averaged: 1 (USB2+H05261)
Boxcar Smoothing: 0 (USB2+H05261)
Correct for Electrical Dark: No (USB2+H05261)
Strobe/Lamp Enabled: No (USB2+H05261)
Correct for Detector Non-linearity: No (USB2+H05261)
Correct for Stray Light: No (USB2+H05261)
Number of Pixels in Processed Spectrum: 2048
>>>>>Begin Processed Spectral Data<<<<<
365.73	0.00
365.92	0.00
366.12	0.00
366.32	0.00
366.52	0.00
366.72	0.00
366.91	0.00
367.11	0.00
367.31	0.00
367.51	0.00
367.70	0.00
367.90	0.00
368.10	0.00
368.30	0.00
368.49	0.00
368.69	0.00
368.89	0.00
369.09	0.00
369.28	0.00
369.48	0.00
369.68	0.00
369.87	0.00
370.07	0.00
370.27	0.00
370.47	0.00
370.66	0.00
370.86	0.00
371.06	0.00
371.25	0.00
371.45	0.00
371.65	0.00
371.84	0.00
372.04	0.00
372.24	0.00
372.44	81.92
372.63	72.56
372.83	9.36
373.03	46.81
373.22	77.24
373.42	93.62
373.62	0.00
373.81	63.19
374.01	4.68
374.21	39.79
374.40	25.75
374.60	35.11
374.79	42.13
374.99	53.83
375.19	0.00
375.38	42.13
375.58	0.00
375.78	95.96
375.97	21.06
376.17	16.38
376.37	67.88
376.56	32.77
376.76	35.11
376.95	28.09
377.15	0.00
377.35	9.36
377.54	0.00
377.74	0.00
377.93	0.00
378.13	65.54
378.33	21.06
378.52	0.00
378.72	42.13
378.91	4.68
379.11	28.09
379.31	32.77
379.50	84.26
379.70	0.00
379.89	46.81
380.09	14.04
380.28	46.81
380.48	0.00
380.68	0.00
380.87	74.90
381.07	72.56
381.26	46.81
381.46	21.06
381.65	0.00
381.85	14.04
382.04	42.13
382.24	49.15
382.43	11.70
382.63	0.00
382.83	0.00
383.02	0.00
383.22	56.17
383.41	0.00
383.61	11.70
383.80	0.00
384.00	35.11
384.19	51.49
384.39	28.09
384.58	56.17
384.78	39.79
384.97	65.54
385.17	25.75
385.36	42.13
385.56	0.00
385.75	60.85
385.95	0.00
386.14	53.83
386.34	0.00
386.53	49.15
386.72	30.43
386.92	11.70
387.11	0.00
387.31	16.38
387.50	70.22
387.70	0.00
387.89	0.00
388.09	18.72
388.28	0.00
388.48	60.85
388.67	65.54
388.86	14.04
389.06	51.49
389.25	30.43
389.45	107.66
389.64	0.00
389.84	16.38
390.03	95.96
390.22	0.00
390.42	100.64
390.61	25.75
390.81	63.19
391.00	58.51
391.19	37.45
391.39	117.03
391.58	30.43
391.78	0.00
391.97	0.00
392.16	56.17
392.36	9.36
392.55	32.77
392.75	14.04
392.94	0.00
393.13	28.09
393.33	7.02
393.52	21.06
393.71	0.00
393.91	42.13
394.10	21.06
394.29	7.02
394.49	72.56
394.68	51.49
394.88	63.19
395.07	0.00
395.26	25.75
395.46	77.24
395.65	110.01
395.84	0.00
396.04	63.19
396.23	32.77
396.42	37.45
396.62	0.00
396.81	46.81
397.00	28.09
397.19	28.09
397.39	0.00
397.58	32.77
397.77	60.85
397.97	79.58
398.16	0.00
398.35	25.75
398.55	21.06
398.74	37.45
398.93	77.24
399.12	0.00
399.32	70.22
399.51	23.41
399.70	114.69
399.90	39.79
400.09	0.00
400.28	16.38
400.47	16.38
400.67	44.47
400.86	110.01
401.05	32.77
401.24	28.09
401.44	14.04
401.63	63.19
401.82	63.19
402.01	0.00
402.21	49.15
402.40	0.00
402.59	0.00
402.78	0.00
402.97	7.02
403.17	7.02
403.36	0.00
403.55	46.81
403.74	63.19
403.93	53.83
404.13	51.49
404.32	70.22
404.51	0.00
404.70	53.83
404.89	44.47
405.09	0.00
405.28	0.00
405.47	4.68
405.66	32.77
405.85	0.00
406.05	2.34
406.24	30.43
406.43	46.81
406.62	44.47
406.81	65.54
407.00	56.17
407.20	30.43
407.39	91.28
407.58	0.00
407.77	121.71
407.96	39.79
408.15	37.45
408.34	18.72
408.54	32.77
408.73	0.00
408.92	28.09
409.11	2.34
409.30	0.00
409.49	58.51
409.68	37.45
409.87	0.00
410.07	63.19
410.26	30.43
410.45	0.00
410.64	44.47
410.83	46.81
411.02	0.00
411.21	2.34
411.40	14.04
411.59	114.69
411.78	4.68
411.98	30.43
412.17	93.62
412.36	28.09
412.55	11.70
412.74	88.94
412.93	110.01
413.12	18.72
413.31	72.56
413.50	0.00
413.69	11.70
413.88	105.32
414.07	81.92
414.26	21.06
414.45	18.72
414.64	74.90
414.83	28.09
415.02	39.79
415.22	86.60
415.41	9.36
415.60	105.32
415.79	39.79
415.98	39.79
416.17	58.51
416.36	60.85
416.55	28.09
416.74	35.11
416.93	28.09
417.12	0.00
417.31	21.06
417.50	60.85
417.69	0.00
417.88	0.00
418.07	84.26
418.26	30.43
418.45	70.22
418.64	67.88
418.83	46.81
419.02	30.43
419.21	18.72
419.39	53.83
419.58	0.00
419.77	0.00
419.96	88.94
420.15	70.22
420.34	74.90
420.53	39.79
420.72	0.00
420.91	0.00
421.10	32.77
421.29	42.13
421.48	110.01
421.67	18.72
421.86	39.79
422.05	0.00
422.24	39.79
422.43	65.54
422.61	35.11
422.80	49.15
422.99	35.11
423.18	84.26
423.37	81.92
423.56	28.09
423.75	16.38
423.94	32.77
424.13	51.49
424.32	100.64
424.50	44.47
424.69	58.51
424.88	18.72
425.07	79.58
425.26	37.45
425.45	0.00
425.64	16.38
425.83	7.02
426.01	0.00
426.20	44.47
426.39	138.09
426.58	53.83
426.77	53.83
426.96	91.28
427.15	102.98
427.33	88.94
427.52	67.88
427.71	0.00
427.90	70.22
428.09	28.09
428.28	86.60
428.46	74.90
428.65	32.77
428.84	21.06
429.03	0.00
429.22	0.00
429.40	2.34
429.59	14.04
429.78	46.81
429.97	60.85
430.16	14.04
430.34	4.68
430.53	114.69
430.72	58.51
430.91	2.34
431.10	2.34
431.28	86.60
431.47	152.13
431.66	28.09
431.85	0.00
432.03	42.13
432.22	72.56
432.41	70.22
432.60	81.92
432.79	51.49
432.97	58.51
433.16	58.51
433.35	44.47
433.54	63.19
433.72	93.62
433.91	81.92
434.10	53.83
434.28	58.51
434.47	0.00
434.66	60.85
434.85	0.00
435.03	0.00
435.22	56.17
435.41	46.81
435.59	0.00
435.78	25.75
435.97	124.05
436.16	95.96
436.34	23.41
436.53	46.81
436.72	60.85
436.90	72.56
437.09	44.47
437.28	70.22
437.46	84.26
437.65	63.19
437.84	46.81
438.02	93.62
438.21	0.00
438.40	65.54
438.58	46.81
438.77	70.22
438.96	135.75
439.14	58.51
439.33	88.94
439.52	60.85
439.70	7.02
439.89	110.01
440.08	0.00
440.26	0.00
440.45	32.77
440.63	72.56
440.82	53.83
441.01	124.05
441.19	67.88
441.38	58.51
441.57	102.98
441.75	93.62
441.94	65.54
442.12	0.00
442.31	23.41
442.50	67.88
442.68	9.36
442.87	63.19
443.05	42.13
443.24	28.09
443.43	77.24
443.61	32.77
443.80	23.41
443.98	32.77
444.17	67.88
444.35	72.56
444.54	88.94
444.73	0.00
444.91	67.88
445.10	65.54
445.28	14.04
445.47	149.79
445.65	49.15
445.84	58.51
446.02	42.13
446.21	21.06
446.39	110.01
446.58	49.15
446.77	93.62
446.95	32.77
447.14	30.43
447.32	51.49
447.51	0.00
447.69	65.54
447.88	37.45
448.06	0.00
448.25	14.04
448.43	0.00
448.62	67.88
448.80	51.49
448.99	102.98
449.17	86.60
449.36	88.94
449.54	56.17
449.73	72.56
449.91	70.22
450.10	42.13
450.28	95.96
450.46	7.02
450.65	114.69
450.83	51.49
451.02	56.17
451.20	91.28
451.39	105.32
451.57	84.26
451.76	30.43
451.94	79.58
452.13	11.70
452.31	28.09
452.49	65.54
452.68	21.06
452.86	65.54
453.05	16.38
453.23	0.00
453.42	32.77
453.60	0.00
453.78	30.43
453.97	105.32
454.15	23.41
454.34	100.64
454.52	46.81
454.70	77.24
454.89	124.05
455.07	119.37
455.26	65.54
455.44	35.11
455.62	63.19
455.81	42.13
455.99	37.45
456.17	56.17
456.36	72.56
456.54	28.09
456.73	60.85
456.91	51.49
457.09	88.94
457.28	42.13
457.46	0.00
457.64	37.45
457.83	42.13
458.01	51.49
458.19	72.56
458.38	11.70
458.56	0.00
458.74	168.52
458.93	23.41
459.11	51.49
459.29	88.94
459.48	60.85
459.66	145.11
459.84	53.83
460.03	51.49
460.21	79.58
460.39	53.83
460.57	110.01
460.76	128.73
460.94	42.13
461.12	9.36
461.31	105.32
461.49	126.39
461.67	60.85
461.85	63.19
462.04	86.60
462.22	91.28
462.40	65.54
462.59	49.15
462.77	30.43
462.95	88.94
463.13	70.22
463.32	74.90
463.50	128.73
463.68	72.56
463.86	28.09
464.05	74.90
464.23	16.38
464.41	44.47
464.59	112.35
464.78	37.45
464.96	70.22
465.14	16.38
465.32	79.58
465.50	72.56
465.69	74.90
465.87	58.51
466.05	39.79
466.23	28.09
466.41	21.06
466.60	11.70
466.78	18.72
466.96	0.00
467.14	39.79
467.32	53.83
467.51	105.32
467.69	72.56
467.87	70.22
468.05	25.75
468.23	112.35
468.41	77.24
468.60	72.56
468.78	51.49
468.96	107.66
469.14	70.22
469.32	72.56
469.50	0.00
469.69	49.15
469.87	25.75
470.05	0.00
470.23	86.60
470.41	72.56
470.59	49.15
470.77	35.11
470.95	98.30
471.14	51.49
471.32	65.54
471.50	117.03
471.68	58.51
471.86	32.77
472.04	84.26
472.22	39.79
472.40	42.13
472.58	121.71
472.77	51.49
472.95	58.51
473.13	79.58
473.31	60.85
473.49	114.69
473.67	42.13
473.85	95.96
474.03	100.64
474.21	70.22
474.39	42.13
474.57	25.75
474.75	84.26
474.93	72.56
475.12	23.41
475.30	56.17
475.48	93.62
475.66	105.32
475.84	39.79
476.02	95.96
476.20	9.36
476.38	56.17
476.56	58.51
476.74	72.56
476.92	63.19
477.10	112.35
477.28	44.47
477.46	51.49
477.64	95.96
477.82	81.92
478.00	105.32
478.18	135.75
478.36	25.75
478.54	84.26
478.72	107.66
478.90	21.06
479.08	86.60
479.26	56.17
479.44	58.51
479.62	117.03
479.80	81.92
479.98	0.00
480.16	44.47
480.34	32.77
480.52	42.13
480.70	63.19
480.88	79.58
481.06	58.51
481.24	21.06
481.41	70.22
481.59	18.72
481.77	4.68
481.95	88.94
482.13	74.90
482.31	32.77
482.49	67.88
482.67	95.96
482.85	84.26
483.03	95.96
483.21	72.56
483.39	74.90
483.57	51.49
483.74	84.26
483.92	72.56
484.10	77.24
484.28	79.58
484.46	49.15
484.64	84.26
484.82	88.94
485.00	44.47
485.18	0.00
485.35	72.56
485.53	91.28
485.71	32.77
485.89	9.36
486.07	46.81
486.25	67.88
486.43	65.54
486.61	46.81
486.78	79.58
486.96	63.19
487.14	37.45
487.32	32.77
487.50	28.09
487.68	102.98
487.85	131.07
488.03	74.90
488.21	53.83
488.39	77.24
488.57	149.79
488.75	100.64
488.92	128.73
489.10	44.47
489.28	102.98
489.46	49.15
489.64	91.28
489.81	145.11
489.99	56.17
490.17	37.45
490.35	58.51
490.53	35.11
490.70	95.96
490.88	93.62
491.06	105.32
491.24	67.88
491.41	102.98
491.59	74.90
491.77	18.72
491.95	37.45
492.13	81.92
492.30	37.45
492.48	28.09
492.66	84.26
492.84	18.72
493.01	37.45
493.19	145.11
493.37	88.94
493.54	121.71
493.72	86.60
493.90	9.36
494.08	91.28
494.25	114.69
494.43	70.22
494.61	93.62
494.79	46.81
494.96	63.19
495.14	88.94
495.32	88.94
495.49	0.00
495.67	51.49
495.85	28.09
496.02	60.85
496.20	70.22
496.38	63.19
496.55	18.72
496.73	131.07
496.91	60.85
497.09	107.66
497.26	119.37
497.44	72.56
497.62	60.85
497.79	37.45
497.97	42.13
498.14	156.82
498.32	60.85
498.50	53.83
498.67	67.88
498.85	131.07
499.03	39.79
499.20	58.51
499.38	112.35
499.56	154.48
499.73	128.73
499.91	124.05
500.08	44.47
500.26	42.13
500.44	63.19
500.61	42.13
500.79	65.54
500.97	95.96
501.14	105.32
501.32	107.66
501.49	70.22
501.67	124.05
501.84	84.26
502.02	131.07
502.20	51.49
502.37	35.11
502.55	98.30
502.72	32.77
502.90	138.09
503.07	0.00
503.25	128.73
503.43	100.64
503.60	100.64
503.78	149.79
503.95	135.75
504.13	102.98
504.30	102.98
504.48	56.17
504.65	77.24
504.83	42.13
505.01	93.62
505.18	133.41
505.36	95.96
505.53	51.49
505.71	30.43
505.88	72.56
506.06	63.19
506.23	42.13
506.41	11.70
506.58	100.64
506.76	39.79
506.93	65.54
507.11	81.92
507.28	133.41
507.46	131.07
507.63	65.54
507.81	72.56
507.98	60.85
508.16	58.51
508.33	72.56
508.50	74.90
508.68	70.22
508.85	74.90
509.03	91.28
509.20	9.36
509.38	133.41
509.55	72.56
509.73	121.71
509.90	77.24
510.08	93.62
510.25	42.13
510.42	79.58
510.60	72.56
510.77	102.98
510.95	170.86
511.12	58.51
511.30	105.32
511.47	7.02
511.64	42.13
511.82	42.13
511.99	77.24
512.17	95.96
512.34	98.30
512.51	93.62
512.69	23.41
512.86	30.43
513.04	44.47
513.21	51.49
513.38	53.83
513.56	95.96
513.73	21.06
513.90	58.51
514.08	58.51
514.25	70.22
514.43	60.85
514.60	88.94
514.77	74.90
514.95	42.13
515.12	77.24
515.29	112.35
515.47	105.32
515.64	138.09
515.81	23.41
515.99	30.43
516.16	65.54
516.33	60.85
516.51	67.88
516.68	98.30
516.85	70.22
517.03	9.36
517.20	74.90
517.37	53.83
517.54	81.92
517.72	53.83
517.89	63.19
518.06	88.94
518.24	63.19
518.41	102.98
518.58	56.17
518.75	67.88
518.93	102.98
519.10	16.38
519.27	74.90
519.45	124.05
519.62	39.79
519.79	56.17
519.96	70.22
520.14	98.30
520.31	100.64
520.48	60.85
520.65	21.06
520.83	102.98
521.00	84.26
521.17	60.85
521.34	81.92
521.52	88.94
521.69	39.79
521.86	110.01
522.03	37.45
522.20	51.49
522.38	53.83
522.55	110.01
522.72	0.00
522.89	107.66
523.07	142.77
523.24	102.98
523.41	98.30
523.58	138.09
523.75	138.09
523.92	102.98
524.10	65.54
524.27	0.00
524.44	124.05
524.61	30.43
524.78	79.58
524.96	86.60
525.13	102.98
525.30	42.13
525.47	128.73
525.64	46.81
525.81	46.81
525.98	44.47
526.16	37.45
526.33	32.77
526.50	100.64
526.67	84.26
526.84	53.83
527.01	105.32
527.18	105.32
527.36	88.94
527.53	0.00
527.70	81.92
527.87	121.71
528.04	51.49
528.21	98.30
528.38	25.75
528.55	65.54
528.72	180.22
528.89	95.96
529.07	49.15
529.24	37.45
529.41	84.26
529.58	56.17
529.75	79.58
529.92	152.13
530.09	173.20
530.26	46.81
530.43	25.75
530.60	114.69
530.77	56.17
530.94	0.00
531.11	70.22
531.28	77.24
531.46	86.60
531.63	0.00
531.80	81.92
531.97	72.56
532.14	81.92
532.31	107.66
532.48	100.64
532.65	98.30
532.82	135.75
532.99	84.26
533.16	91.28
533.33	135.75
533.50	70.22
533.67	86.60
533.84	0.00
534.01	63.19
534.18	65.54
534.35	79.58
534.52	65.54
534.69	44.47
534.86	98.30
535.03	119.37
535.20	37.45
535.37	95.96
535.54	60.85
535.71	39.79
535.88	95.96
536.05	7.02
536.22	79.58
536.38	138.09
536.55	72.56
536.72	0.00
536.89	58.51
537.06	79.58
537.23	72.56
537.40	77.24
537.57	74.90
537.74	93.62
537.91	65.54
538.08	126.39
538.25	56.17
538.42	86.60
538.59	44.47
538.75	37.45
538.92	72.56
539.09	42.13
539.26	14.04
539.43	79.58
539.60	128.73
539.77	100.64
539.94	95.96
540.11	58.51
540.28	117.03
540.44	60.85
540.61	51.49
540.78	63.19
540.95	63.19
541.12	25.75
541.29	86.60
541.46	88.94
541.62	102.98
541.79	91.28
541.96	112.35
542.13	86.60
542.30	77.24
542.47	77.24
542.63	124.05
542.80	72.56
542.97	91.28
543.14	63.19
543.31	4.68
543.48	131.07
543.64	119.37
543.81	63.19
543.98	135.75
544.15	98.30
544.32	72.56
544.48	117.03
544.65	39.79
544.82	98.30
544.99	44.47
545.16	39.79
545.32	18.72
545.49	65.54
545.66	46.81
545.83	140.43
546.00	184.90
546.16	88.94
546.33	14.04
546.50	4.68
546.67	95.96
546.83	159.16
547.00	91.28
547.17	81.92
547.34	110.01
547.50	0.00
547.67	46.81
547.84	88.94
548.00	23.41
548.17	117.03
548.34	105.32
548.51	95.96
548.67	124.05
548.84	112.35
549.01	23.41
549.18	121.71
549.34	67.88
549.51	161.50
549.68	42.13
549.84	58.51
550.01	56.17
550.18	93.62
550.34	65.54
550.51	102.98
550.68	74.90
550.84	37.45
551.01	46.81
551.18	86.60
551.34	32.77
551.51	117.03
551.68	84.26
551.84	77.24
552.01	81.92
552.18	46.81
552.34	107.66
552.51	95.96
552.68	79.58
552.84	42.13
553.01	0.00
553.18	79.58
553.34	102.98
553.51	114.69
553.67	65.54
553.84	81.92
554.01	9.36
554.17	105.32
554.34	53.83
554.51	117.03
554.67	112.35
554.84	114.69
555.00	128.73
555.17	49.15
555.33	102.98
555.50	30.43
555.67	60.85
555.83	44.47
556.00	42.13
556.16	149.79
556.33	91.28
556.50	49.15
556.66	81.92
556.83	58.51
556.99	102.98
557.16	117.03
557.32	46.81
557.49	93.62
557.65	35.11
557.82	102.98
557.98	107.66
558.15	25.75
558.32	18.72
558.48	81.92
558.65	140.43
558.81	60.85
558.98	44.47
559.14	79.58
559.31	79.58
559.47	77.24
559.64	81.92
559.80	114.69
559.97	110.01
560.13	28.09
560.30	37.45
560.46	70.22
560.63	74.90
560.79	100.64
560.96	88.94
561.12	23.41
561.29	14.04
561.45	67.88
561.61	60.85
561.78	56.17
561.94	72.56
562.11	131.07
562.27	124.05
562.44	65.54
562.60	126.39
562.77	88.94
562.93	105.32
563.10	32.77
563.26	95.96
563.42	35.11
563.59	21.06
563.75	77.24
563.92	30.43
564.08	25.75
564.24	72.56
564.41	25.75
564.57	72.56
564.74	84.26
564.90	119.37
565.07	182.56
565.23	102.98
565.39	58.51
565.56	53.83
565.72	95.96
565.88	124.05
566.05	88.94
566.21	105.32
566.38	67.88
566.54	81.92
566.70	65.54
566.87	79.58
567.03	74.90
567.19	72.56
567.36	25.75
567.52	51.49
567.68	95.96
567.85	88.94
568.01	105.32
568.17	65.54
568.34	84.26
568.50	39.79
568.66	95.96
568.83	74.90
568.99	119.37
569.15	72.56
569.32	58.51
569.48	95.96
569.64	56.17
569.81	117.03
569.97	51.49
570.13	102.98
570.30	4.68
570.46	51.49
570.62	18.72
570.78	65.54
570.95	128.73
571.11	81.92
571.27	74.90
571.43	46.81
571.60	32.77
571.76	63.19
571.92	117.03
572.09	98.30
572.25	88.94
572.41	32.77
572.57	0.00
572.74	60.85
572.90	53.83
573.06	60.85
573.22	95.96
573.38	95.96
573.55	16.38
573.71	72.56
573.87	131.07
574.03	53.83
574.20	16.38
574.36	84.26
574.52	100.64
574.68	42.13
574.84	86.60
575.01	53.83
575.17	60.85
575.33	49.15
575.49	0.00
575.65	84.26
575.82	67.88
575.98	95.96
576.14	39.79
576.30	102.98
576.46	88.94
576.62	95.96
576.79	84.26
576.95	23.41
577.11	81.92
577.27	58.51
577.43	84.26
577.59	124.05
577.75	74.90
577.92	28.09
578.08	107.66
578.24	81.92
578.40	39.79
578.56	58.51
578.72	91.28
578.88	86.60
579.04	70.22
579.21	44.47
579.37	28.09
579.53	88.94
579.69	93.62
579.85	102.98
580.01	32.77
580.17	86.60
580.33	72.56
580.49	7.02
580.65	98.30
580.82	35.11
580.98	102.98
581.14	79.58
581.30	25.75
581.46	70.22
581.62	91.28
581.78	14.04
581.94	56.17
582.10	63.19
582.26	74.90
582.42	65.54
582.58	70.22
582.74	100.64
582.90	58.51
583.06	53.83
583.22	86.60
583.38	23.41
583.54	51.49
583.70	30.43
583.86	60.85
584.02	91.28
584.18	77.24
584.34	32.77
584.50	21.06
584.66	51.49
584.82	65.54
584.98	63.19
585.14	88.94
585.30	30.43
585.46	77.24
585.62	30.43
585.78	46.81
585.94	98.30
586.10	53.83
586.26	49.15
586.42	67.88
586.58	0.00
586.74	86.60
586.90	88.94
587.06	147.45
587.22	51.49
587.38	74.90
587.54	63.19
587.70	84.26
587.86	32.77
588.02	117.03
588.18	128.73
588.34	117.03
588.49	0.00
588.65	58.51
588.81	60.85
588.97	0.00
589.13	126.39
589.29	74.90
589.45	77.24
589.61	0.00
589.77	25.75
589.93	51.49
590.08	44.47
590.24	72.56
590.40	23.41
590.56	21.06
590.72	51.49
590.88	4.68
591.04	35.11
591.20	39.79
591.35	0.00
591.51	67.88
591.67	60.85
591.83	72.56
591.99	21.06
592.15	23.41
592.31	56.17
592.46	49.15
592.62	117.03
592.78	79.58
592.94	133.41
593.10	79.58
593.26	81.92
593.41	93.62
593.57	37.45
593.73	16.38
593.89	98.30
594.05	79.58
594.20	79.58
594.36	49.15
594.52	72.56
594.68	117.03
594.84	49.15
594.99	18.72
595.15	23.41
595.31	58.51
595.47	142.77
595.62	105.32
595.78	56.17
595.94	21.06
596.10	79.58
596.25	18.72
596.41	105.32
596.57	107.66
596.73	46.81
596.88	117.03
597.04	81.92
597.20	23.41
597.36	168.52
597.51	42.13
597.67	28.09
597.83	107.66
597.99	16.38
598.14	107.66
598.30	18.72
598.46	18.72
598.61	79.58
598.77	0.00
598.93	67.88
599.09	72.56
599.24	0.00
599.40	63.19
599.56	119.37
599.71	35.11
599.87	79.58
600.03	86.60
600.18	46.81
600.34	77.24
600.50	0.00
600.65	42.13
600.81	145.11
600.97	30.43
601.12	46.81
601.28	51.49
601.44	93.62
601.59	79.58
601.75	23.41
601.91	65.54
602.06	128.73
602.22	63.19
602.37	110.01
602.53	112.35
602.69	93.62
602.84	95.96
603.00	72.56
603.16	84.26
603.31	46.81
603.47	102.98
603.62	77.24
603.78	84.26
603.94	72.56
604.09	23.41
604.25	16.38
604.40	49.15
604.56	84.26
604.71	74.90
604.87	84.26
605.03	149.79
605.18	35.11
605.34	51.49
605.49	117.03
605.65	4.68
605.80	0.00
605.96	100.64
606.12	65.54
606.27	56.17
606.43	21.06
606.58	51.49
606.74	70.22
606.89	74.90
607.05	112.35
607.20	81.92
607.36	65.54
607.51	107.66
607.67	35.11
607.82	79.58
607.98	117.03
608.13	4.68
608.29	88.94
608.44	11.70
608.60	46.81
608.75	135.75
608.91	30.43
609.06	53.83
609.22	88.94
609.37	77.24
609.53	81.92
609.68	133.41
609.84	72.56
609.99	107.66
610.15	77.24
610.30	138.09
610.46	79.58
610.61	14.04
610.76	49.15
610.92	110.01
611.07	25.75
611.23	112.35
611.38	170.86
611.54	39.79
611.69	28.09
611.84	63.19
612.00	110.01
612.15	107.66
612.31	7.02
612.46	23.41
612.62	16.38
612.77	79.58
612.92	56.17
613.08	30.43
613.23	112.35
613.39	81.92
613.54	84.26
613.69	0.00
613.85	63.19
614.00	88.94
614.15	25.75
614.31	84.26
614.46	46.81
614.62	32.77
614.77	95.96
614.92	86.60
615.08	30.43
615.23	98.30
615.38	42.13
615.54	60.85
615.69	46.81
615.84	79.58
616.00	9.36
616.15	88.94
616.30	39.79
616.46	0.00
616.61	0.00
616.76	88.94
616.92	44.47
617.07	44.47
617.22	0.00
617.37	11.70
617.53	7.02
617.68	72.56
617.83	51.49
617.99	51.49
618.14	126.39
618.29	60.85
618.45	70.22
618.60	0.00
618.75	0.00
618.90	0.00
619.06	74.90
619.21	46.81
619.36	91.28
619.51	91.28
619.67	131.07
619.82	4.68
619.97	163.84
620.12	63.19
620.28	46.81
620.43	44.47
620.58	35.11
620.73	63.19
620.89	74.90
621.04	58.51
621.19	49.15
621.34	81.92
621.49	39.79
621.65	30.43
621.80	46.81
621.95	37.45
622.10	25.75
622.25	21.06
622.41	49.15
622.56	32.77
622.71	53.83
622.86	95.96
623.01	44.47
623.16	56.17
623.32	74.90
623.47	91.28
623.62	44.47
623.77	110.01
623.92	81.92
624.07	58.51
624.23	35.11
624.38	84.26
624.53	53.83
624.68	46.81
624.83	42.13
624.98	46.81
625.13	72.56
625.29	28.09
625.44	88.94
625.59	81.92
625.74	67.88
625.89	63.19
626.04	102.98
626.19	0.00
626.34	65.54
626.49	25.75
626.65	81.92
626.80	35.11
626.95	56.17
627.10	163.84
627.25	91.28
627.40	100.64
627.55	18.72
627.70	72.56
627.85	49.15
628.00	79.58
628.15	56.17
628.30	67.88
628.45	114.69
628.60	37.45
628.76	58.51
628.91	126.39
629.06	72.56
629.21	28.09
629.36	86.60
629.51	0.00
629.66	88.94
629.81	56.17
629.96	16.38
630.11	32.77
630.26	42.13
630.41	79.58
630.56	77.24
630.71	124.05
630.86	39.79
631.01	0.00
631.16	9.36
631.31	107.66
631.46	117.03
631.61	53.83
631.76	14.04
631.91	49.15
632.06	70.22
632.21	4.68
632.36	51.49
632.51	58.51
632.66	11.70
632.81	81.92
632.96	42.13
633.10	98.30
633.25	51.49
633.40	70.22
633.55	56.17
633.70	86.60
633.85	49.15
634.00	67.88
634.15	44.47
634.30	35.11
634.45	7.02
634.60	77.24
634.75	4.68
634.90	72.56
635.05	70.22
635.19	4.68
635.34	53.83
635.49	30.43
635.64	0.00
635.79	0.00
635.94	107.66
636.09	102.98
636.24	51.49
636.39	0.00
636.53	35.11
636.68	30.43
636.83	84.26
636.98	93.62
637.13	58.51
637.28	30.43
637.43	0.00
637.57	135.75
637.72	95.96
637.87	44.47
638.02	0.00
638.17	49.15
638.32	53.83
638.46	63.19
638.61	9.36
638.76	44.47
638.91	42.13
639.06	46.81
639.20	42.13
639.35	86.60
639.50	53.83
639.65	30.43
639.80	14.04
639.94	91.28
640.09	56.17
640.24	65.54
640.39	14.04
640.54	51.49
640.68	28.09
640.83	86.60
640.98	56.17
641.13	124.05
641.27	18.72
641.42	91.28
641.57	25.75
641.72	0.00
641.86	4.68
642.01	18.72
642.16	25.75
642.31	37.45
642.45	65.54
642.60	58.51
642.75	65.54
642.90	46.81
643.04	4.68
643.19	100.64
643.34	46.81
643.48	44.47
643.63	35.11
643.78	32.77
643.93	35.11
644.07	119.37
644.22	0.00
644.37	72.56
644.51	58.51
644.66	100.64
644.81	79.58
644.95	9.36
645.10	39.79
645.25	63.19
645.39	70.22
645.54	67.88
645.69	135.75
645.83	37.45
645.98	42.13
646.13	60.85
646.27	28.09
646.42	39.79
646.57	74.90
646.71	86.60
646.86	21.06
647.00	117.03
647.15	60.85
647.30	44.47
647.44	0.00
647.59	70.22
647.74	65.54
647.88	46.81
648.03	51.49
648.17	25.75
648.32	0.00
648.47	7.02
648.61	70.22
648.76	119.37
648.90	70.22
649.05	79.58
649.20	35.11
649.34	63.19
649.49	16.38
649.63	0.00
649.78	25.75
649.92	2.34
650.07	88.94
650.21	32.77
650.36	28.09
650.51	102.98
650.65	0.00
650.80	84.26
650.94	117.03
651.09	93.62
651.23	60.85
651.38	2.34
651.52	49.15
651.67	77.24
651.81	56.17
651.96	9.36
652.10	37.45
652.25	42.13
652.39	95.96
652.54	95.96
652.68	46.81
652.83	0.00
652.97	0.00
653.12	42.13
653.26	81.92
653.41	4.68
653.55	88.94
653.70	53.83
653.84	7.02
653.99	100.64
654.13	67.88
654.27	37.45
654.42	0.00
654.56	110.01
654.71	74.90
654.85	63.19
655.00	21.06
655.14	0.00
655.29	65.54
655.43	0.00
655.57	25.75
655.72	72.56
655.86	32.77
656.01	0.00
656.15	77.24
656.30	37.45
656.44	81.92
656.58	32.77
656.73	0.00
656.87	28.09
657.01	7.02
657.16	0.00
657.30	126.39
657.45	70.22
657.59	2.34
657.73	56.17
657.88	114.69
658.02	49.15
658.16	65.54
658.31	30.43
658.45	30.43
658.60	21.06
658.74	49.15
658.88	107.66
659.03	4.68
659.17	70.22
659.31	117.03
659.46	95.96
659.60	39.79
659.74	63.19
659.89	65.54
660.03	117.03
660.17	67.88
660.32	126.39
660.46	42.13
660.60	0.00
660.74	117.03
660.89	42.13
661.03	30.43
661.17	51.49
661.32	44.47
661.46	98.30
661.60	9.36
661.74	49.15
661.89	11.70
662.03	35.11
662.17	21.06
662.31	67.88
662.46	14.04
662.60	25.75
662.74	112.35
662.88	37.45
663.03	56.17
663.17	88.94
663.31	42.13
663.45	35.11
663.60	72.56
663.74	21.06
663.88	114.69
664.02	119.37
664.17	21.06
664.31	65.54
664.45	16.38
664.59	0.00
664.73	77.24
664.88	21.06
665.02	63.19
665.16	60.85
665.30	60.85
665.44	0.00
665.59	0.00
665.73	77.24
665.87	114.69
666.01	81.92
666.15	124.05
666.29	49.15
666.44	72.56
666.58	86.60
666.72	93.62
666.86	56.17
667.00	72.56
667.14	138.09
667.28	67.88
667.43	39.79
667.57	0.00
667.71	107.66
667.85	107.66
667.99	81.92
668.13	65.54
668.27	44.47
668.41	93.62
668.56	46.81
668.70	25.75
668.84	53.83
668.98	91.28
669.12	25.75
669.26	70.22
669.40	25.75
669.54	51.49
669.68	102.98
669.82	4.68
669.96	60.85
670.10	0.00
670.25	51.49
670.39	70.22
670.53	65.54
670.67	30.43
670.81	56.17
670.95	30.43
671.09	44.47
671.23	93.62
671.37	63.19
671.51	42.13
671.65	100.64
671.79	11.70
671.93	21.06
672.07	72.56
672.21	81.92
672.35	32.77
672.49	14.04
672.63	91.28
672.77	0.00
672.91	0.00
673.05	44.47
673.19	100.64
673.33	56.17
673.47	0.00
673.61	18.72
673.75	30.43
673.89	81.92
674.03	51.49
674.17	70.22
674.31	81.92
674.45	119.37
674.59	7.02
674.73	88.94
674.87	95.96
675.01	30.43
675.15	0.00
675.29	46.81
675.43	44.47
675.56	42.13
675.70	44.47
675.84	88.94
675.98	11.70
676.12	58.51
676.26	110.01
676.40	37.45
676.54	93.62
676.68	51.49
676.82	39.79
676.96	77.24
677.10	32.77
677.23	56.17
677.37	21.06
677.51	114.69
677.65	18.72
677.79	0.00
677.93	18.72
678.07	102.98
678.21	28.09
678.34	112.35
678.48	0.00
678.62	93.62
678.76	42.13
678.90	44.47
679.04	0.00
679.18	56.17
679.31	0.00
679.45	70.22
679.59	14.04
679.73	70.22
679.87	0.00
680.00	18.72
680.14	91.28
680.28	0.00
680.42	9.36
680.56	28.09
680.70	2.34
680.83	140.43
680.97	67.88
681.11	67.88
681.25	67.88
681.39	0.00
681.52	53.83
681.66	39.79
681.80	35.11
681.94	35.11
682.07	0.00
682.21	0.00
682.35	23.41
682.49	86.60
682.62	16.38
682.76	0.00
682.90	0.00
683.04	177.88
683.17	0.00
683.31	91.28
683.45	126.39
683.59	112.35
683.72	4.68
683.86	74.90
684.00	98.30
684.13	79.58
684.27	0.00
684.41	18.72
684.55	51.49
684.68	46.81
684.82	56.17
684.96	60.85
685.09	4.68
685.23	70.22
685.37	18.72
685.50	77.24
685.64	30.43
685.78	56.17
685.91	37.45
686.05	67.88
686.19	79.58
686.32	37.45
686.46	67.88
686.60	117.03
686.73	0.00
686.87	9.36
687.01	0.00
687.14	112.35
687.28	23.41
687.42	0.00
687.55	23.41
687.69	107.66
687.82	72.56
687.96	21.06
688.10	46.81
688.23	58.51
688.37	0.00
688.50	63.19
688.64	53.83
688.78	18.72
688.91	9.36
689.05	0.00
689.18	37.45
689.32	0.00
689.46	0.00
689.59	42.13
689.73	56.17
689.86	0.00
690.00	46.81
690.13	4.68
690.27	128.73
690.41	58.51
690.54	25.75
690.68	58.51
690.81	46.81
690.95	0.00
691.08	0.00
691.22	0.00
691.35	39.79
691.49	18.72
691.62	63.19
691.76	51.49
691.89	35.11
692.03	53.83
692.16	84.26
692.30	49.15
692.43	95.96
692.57	39.79
692.70	60.85
692.84	63.19
692.97	42.13
693.11	63.19
693.24	70.22
693.38	28.09
693.51	32.77
693.65	58.51
693.78	4.68
693.92	16.38
694.05	32.77
694.19	0.00
694.32	42.13
694.45	4.68
694.59	70.22
694.72	58.51
694.86	107.66
694.99	23.41
695.13	11.70
695.26	0.00
695.39	0.00
695.53	0.00
695.66	51.49
695.80	53.83
695.93	4.68
696.07	11.70
696.20	0.00
696.33	51.49
696.47	60.85
696.60	39.79
696.73	128.73
696.87	4.68
697.00	79.58
697.14	42.13
697.27	0.00
697.40	35.11
697.54	49.15
697.67	21.06
697.80	112.35
697.94	56.17
698.07	42.13
698.21	11.70
698.34	46.81
698.47	51.49
698.61	14.04
698.74	42.13
698.87	35.11
699.01	110.01
699.14	0.00
699.27	4.68
699.40	42.13
699.54	21.06
699.67	18.72
699.80	56.17
699.94	39.79
700.07	0.00
700.20	18.72
700.34	14.04
700.47	2.34
700.60	7.02
700.73	21.06
700.87	32.77
701.00	58.51
701.13	77.24
701.26	9.36
701.40	25.75
701.53	46.81
701.66	49.15
701.79	100.64
701.93	46.81
702.06	0.00
702.19	0.00
702.32	32.77
702.46	46.81
702.59	0.00
702.72	67.88
702.85	30.43
702.99	58.51
703.12	25.75
703.25	42.13
703.38	0.00
703.51	77.24
703.65	0.00
703.78	39.79
703.91	7.02
704.04	0.00
704.17	25.75
704.31	53.83
704.44	0.00
704.57	49.15
704.70	0.00
704.83	72.56
704.96	63.19
705.10	16.38
705.23	23.41
>>>>>End Processed Spectral Data<<<<<
