SpectraSuite Data File
++++++++++++++++++++++++++++++++++++
Date: Fri Oct 04 12:13:37 GMT-05:00 2013
User: price-jones
Dark Spectrum Present: No
Reference Spectrum Present: No
Number of Sampled Component Spectra: 1
Spectrometers: USB2+H05261
Integration Time (usec): 10000 (USB2+H05261)
Spectra Averaged: 1 (USB2+H05261)
Boxcar Smoothing: 0 (USB2+H05261)
Correct for Electrical Dark: No (USB2+H05261)
Strobe/Lamp Enabled: No (USB2+H05261)
Correct for Detector Non-linearity: No (USB2+H05261)
Correct for Stray Light: No (USB2+H05261)
Number of Pixels in Processed Spectrum: 2048
>>>>>Begin Processed Spectral Data<<<<<
365.73	0.00
365.92	0.00
366.12	0.00
366.32	0.00
366.52	0.00
366.72	0.00
366.91	0.00
367.11	0.00
367.31	0.00
367.51	0.00
367.70	0.00
367.90	0.00
368.10	0.00
368.30	0.00
368.49	0.00
368.69	0.00
368.89	0.00
369.09	0.00
369.28	0.00
369.48	0.00
369.68	0.00
369.87	0.00
370.07	0.00
370.27	0.00
370.47	0.00
370.66	7.02
370.86	0.00
371.06	0.00
371.25	0.00
371.45	0.00
371.65	0.00
371.84	0.00
372.04	0.00
372.24	0.00
372.44	0.00
372.63	0.00
372.83	0.00
373.03	23.41
373.22	70.22
373.42	105.32
373.62	23.41
373.81	18.72
374.01	0.00
374.21	58.51
374.40	39.79
374.60	53.83
374.79	58.51
374.99	18.72
375.19	46.81
375.38	0.00
375.58	60.85
375.78	72.56
375.97	46.81
376.17	51.49
376.37	21.06
376.56	46.81
376.76	23.41
376.95	58.51
377.15	70.22
377.35	30.43
377.54	49.15
377.74	0.00
377.93	18.72
378.13	0.00
378.33	58.51
378.52	42.13
378.72	46.81
378.91	39.79
379.11	0.00
379.31	95.96
379.50	11.70
379.70	25.75
379.89	0.00
380.09	25.75
380.28	30.43
380.48	9.36
380.68	65.54
380.87	16.38
381.07	0.00
381.26	49.15
381.46	53.83
381.65	0.00
381.85	28.09
382.04	0.00
382.24	0.00
382.43	23.41
382.63	91.28
382.83	0.00
383.02	0.00
383.22	28.09
383.41	0.00
383.61	0.00
383.80	7.02
384.00	16.38
384.19	21.06
384.39	46.81
384.58	18.72
384.78	0.00
384.97	14.04
385.17	0.00
385.36	7.02
385.56	35.11
385.75	0.00
385.95	0.00
386.14	77.24
386.34	67.88
386.53	42.13
386.72	39.79
386.92	0.00
387.11	67.88
387.31	46.81
387.50	23.41
387.70	0.00
387.89	16.38
388.09	37.45
388.28	42.13
388.48	86.60
388.67	7.02
388.86	39.79
389.06	51.49
389.25	30.43
389.45	53.83
389.64	9.36
389.84	49.15
390.03	0.00
390.22	0.00
390.42	25.75
390.61	0.00
390.81	88.94
391.00	0.00
391.19	0.00
391.39	2.34
391.58	49.15
391.78	44.47
391.97	53.83
392.16	63.19
392.36	39.79
392.55	39.79
392.75	9.36
392.94	0.00
393.13	2.34
393.33	95.96
393.52	14.04
393.71	60.85
393.91	0.00
394.10	0.00
394.29	23.41
394.49	51.49
394.68	65.54
394.88	117.03
395.07	7.02
395.26	0.00
395.46	86.60
395.65	18.72
395.84	2.34
396.04	67.88
396.23	0.00
396.42	11.70
396.62	0.00
396.81	23.41
397.00	77.24
397.19	18.72
397.39	56.17
397.58	42.13
397.77	42.13
397.97	4.68
398.16	25.75
398.35	67.88
398.55	0.00
398.74	4.68
398.93	0.00
399.12	21.06
399.32	16.38
399.51	67.88
399.70	28.09
399.90	0.00
400.09	16.38
400.28	32.77
400.47	39.79
400.67	9.36
400.86	35.11
401.05	14.04
401.24	65.54
401.44	14.04
401.63	0.00
401.82	51.49
402.01	51.49
402.21	84.26
402.40	0.00
402.59	11.70
402.78	35.11
402.97	51.49
403.17	39.79
403.36	2.34
403.55	67.88
403.74	28.09
403.93	32.77
404.13	0.00
404.32	18.72
404.51	37.45
404.70	14.04
404.89	0.00
405.09	0.00
405.28	0.00
405.47	0.00
405.66	86.60
405.85	58.51
406.05	44.47
406.24	74.90
406.43	70.22
406.62	25.75
406.81	11.70
407.00	51.49
407.20	11.70
407.39	93.62
407.58	56.17
407.77	67.88
407.96	77.24
408.15	0.00
408.34	0.00
408.54	11.70
408.73	35.11
408.92	110.01
409.11	42.13
409.30	51.49
409.49	44.47
409.68	58.51
409.87	0.00
410.07	37.45
410.26	9.36
410.45	81.92
410.64	72.56
410.83	30.43
411.02	25.75
411.21	0.00
411.40	11.70
411.59	56.17
411.78	0.00
411.98	23.41
412.17	25.75
412.36	72.56
412.55	65.54
412.74	28.09
412.93	70.22
413.12	65.54
413.31	42.13
413.50	60.85
413.69	37.45
413.88	16.38
414.07	11.70
414.26	39.79
414.45	131.07
414.64	21.06
414.83	0.00
415.02	0.00
415.22	67.88
415.41	60.85
415.60	44.47
415.79	86.60
415.98	2.34
416.17	35.11
416.36	32.77
416.55	16.38
416.74	0.00
416.93	25.75
417.12	39.79
417.31	49.15
417.50	91.28
417.69	30.43
417.88	53.83
418.07	4.68
418.26	100.64
418.45	46.81
418.64	25.75
418.83	23.41
419.02	16.38
419.21	42.13
419.39	81.92
419.58	51.49
419.77	42.13
419.96	72.56
420.15	25.75
420.34	18.72
420.53	23.41
420.72	21.06
420.91	0.00
421.10	0.00
421.29	32.77
421.48	74.90
421.67	128.73
421.86	63.19
422.05	11.70
422.24	147.45
422.43	65.54
422.61	51.49
422.80	18.72
422.99	46.81
423.18	44.47
423.37	11.70
423.56	18.72
423.75	98.30
423.94	7.02
424.13	37.45
424.32	49.15
424.50	77.24
424.69	46.81
424.88	44.47
425.07	0.00
425.26	23.41
425.45	42.13
425.64	95.96
425.83	70.22
426.01	32.77
426.20	105.32
426.39	49.15
426.58	70.22
426.77	79.58
426.96	51.49
427.15	37.45
427.33	88.94
427.52	60.85
427.71	58.51
427.90	39.79
428.09	74.90
428.28	4.68
428.46	46.81
428.65	11.70
428.84	72.56
429.03	81.92
429.22	56.17
429.40	11.70
429.59	95.96
429.78	42.13
429.97	53.83
430.16	91.28
430.34	39.79
430.53	25.75
430.72	46.81
430.91	0.00
431.10	65.54
431.28	35.11
431.47	30.43
431.66	0.00
431.85	112.35
432.03	0.00
432.22	11.70
432.41	0.00
432.60	93.62
432.79	86.60
432.97	154.48
433.16	30.43
433.35	53.83
433.54	70.22
433.72	44.47
433.91	35.11
434.10	49.15
434.28	32.77
434.47	70.22
434.66	133.41
434.85	16.38
435.03	0.00
435.22	32.77
435.41	102.98
435.59	35.11
435.78	95.96
435.97	70.22
436.16	58.51
436.34	37.45
436.53	32.77
436.72	70.22
436.90	0.00
437.09	72.56
437.28	74.90
437.46	39.79
437.65	65.54
437.84	53.83
438.02	72.56
438.21	44.47
438.40	65.54
438.58	53.83
438.77	0.00
438.96	32.77
439.14	159.16
439.33	42.13
439.52	37.45
439.70	63.19
439.89	30.43
440.08	9.36
440.26	30.43
440.45	44.47
440.63	65.54
440.82	72.56
441.01	93.62
441.19	42.13
441.38	46.81
441.57	98.30
441.75	42.13
441.94	23.41
442.12	58.51
442.31	121.71
442.50	74.90
442.68	39.79
442.87	77.24
443.05	28.09
443.24	70.22
443.43	63.19
443.61	23.41
443.80	86.60
443.98	51.49
444.17	93.62
444.35	93.62
444.54	14.04
444.73	81.92
444.91	88.94
445.10	30.43
445.28	23.41
445.47	72.56
445.65	88.94
445.84	98.30
446.02	114.69
446.21	32.77
446.39	39.79
446.58	11.70
446.77	56.17
446.95	60.85
447.14	60.85
447.32	14.04
447.51	60.85
447.69	58.51
447.88	58.51
448.06	63.19
448.25	65.54
448.43	65.54
448.62	0.00
448.80	84.26
448.99	60.85
449.17	11.70
449.36	35.11
449.54	67.88
449.73	32.77
449.91	46.81
450.10	37.45
450.28	86.60
450.46	56.17
450.65	18.72
450.83	95.96
451.02	14.04
451.20	4.68
451.39	58.51
451.57	51.49
451.76	70.22
451.94	77.24
452.13	30.43
452.31	7.02
452.49	95.96
452.68	0.00
452.86	4.68
453.05	91.28
453.23	65.54
453.42	46.81
453.60	58.51
453.78	0.00
453.97	42.13
454.15	79.58
454.34	30.43
454.52	60.85
454.70	32.77
454.89	7.02
455.07	37.45
455.26	14.04
455.44	46.81
455.62	37.45
455.81	46.81
455.99	39.79
456.17	49.15
456.36	79.58
456.54	0.00
456.73	28.09
456.91	51.49
457.09	117.03
457.28	39.79
457.46	58.51
457.64	51.49
457.83	95.96
458.01	65.54
458.19	84.26
458.38	21.06
458.56	112.35
458.74	42.13
458.93	18.72
459.11	39.79
459.29	16.38
459.48	11.70
459.66	4.68
459.84	70.22
460.03	72.56
460.21	56.17
460.39	121.71
460.57	25.75
460.76	107.66
460.94	21.06
461.12	56.17
461.31	74.90
461.49	100.64
461.67	58.51
461.85	18.72
462.04	11.70
462.22	100.64
462.40	37.45
462.59	51.49
462.77	65.54
462.95	121.71
463.13	95.96
463.32	102.98
463.50	11.70
463.68	98.30
463.86	42.13
464.05	28.09
464.23	39.79
464.41	81.92
464.59	65.54
464.78	23.41
464.96	0.00
465.14	81.92
465.32	23.41
465.50	56.17
465.69	18.72
465.87	53.83
466.05	72.56
466.23	72.56
466.41	4.68
466.60	95.96
466.78	39.79
466.96	14.04
467.14	95.96
467.32	11.70
467.51	72.56
467.69	88.94
467.87	56.17
468.05	37.45
468.23	60.85
468.41	84.26
468.60	147.45
468.78	70.22
468.96	39.79
469.14	72.56
469.32	95.96
469.50	53.83
469.69	49.15
469.87	60.85
470.05	70.22
470.23	0.00
470.41	91.28
470.59	74.90
470.77	42.13
470.95	28.09
471.14	4.68
471.32	46.81
471.50	0.00
471.68	0.00
471.86	0.00
472.04	51.49
472.22	107.66
472.40	46.81
472.58	42.13
472.77	65.54
472.95	44.47
473.13	72.56
473.31	100.64
473.49	46.81
473.67	0.00
473.85	32.77
474.03	35.11
474.21	46.81
474.39	39.79
474.57	51.49
474.75	49.15
474.93	32.77
475.12	14.04
475.30	37.45
475.48	91.28
475.66	0.00
475.84	63.19
476.02	77.24
476.20	32.77
476.38	65.54
476.56	9.36
476.74	84.26
476.92	74.90
477.10	72.56
477.28	11.70
477.46	44.47
477.64	14.04
477.82	56.17
478.00	70.22
478.18	98.30
478.36	23.41
478.54	56.17
478.72	117.03
478.90	16.38
479.08	32.77
479.26	152.13
479.44	124.05
479.62	35.11
479.80	42.13
479.98	58.51
480.16	79.58
480.34	135.75
480.52	53.83
480.70	67.88
480.88	81.92
481.06	60.85
481.24	51.49
481.41	30.43
481.59	168.52
481.77	81.92
481.95	49.15
482.13	32.77
482.31	79.58
482.49	88.94
482.67	67.88
482.85	102.98
483.03	37.45
483.21	51.49
483.39	7.02
483.57	30.43
483.74	56.17
483.92	37.45
484.10	44.47
484.28	21.06
484.46	28.09
484.64	72.56
484.82	70.22
485.00	44.47
485.18	105.32
485.35	32.77
485.53	110.01
485.71	7.02
485.89	77.24
486.07	37.45
486.25	84.26
486.43	56.17
486.61	56.17
486.78	79.58
486.96	56.17
487.14	56.17
487.32	44.47
487.50	110.01
487.68	58.51
487.85	51.49
488.03	72.56
488.21	42.13
488.39	9.36
488.57	74.90
488.75	88.94
488.92	46.81
489.10	46.81
489.28	65.54
489.46	95.96
489.64	100.64
489.81	77.24
489.99	105.32
490.17	42.13
490.35	63.19
490.53	81.92
490.70	42.13
490.88	140.43
491.06	60.85
491.24	11.70
491.41	98.30
491.59	58.51
491.77	21.06
491.95	56.17
492.13	23.41
492.30	53.83
492.48	25.75
492.66	28.09
492.84	84.26
493.01	28.09
493.19	91.28
493.37	58.51
493.54	0.00
493.72	37.45
493.90	56.17
494.08	91.28
494.25	93.62
494.43	9.36
494.61	65.54
494.79	88.94
494.96	138.09
495.14	58.51
495.32	70.22
495.49	86.60
495.67	49.15
495.85	56.17
496.02	67.88
496.20	114.69
496.38	91.28
496.55	18.72
496.73	84.26
496.91	152.13
497.09	44.47
497.26	42.13
497.44	121.71
497.62	86.60
497.79	67.88
497.97	102.98
498.14	163.84
498.32	60.85
498.50	102.98
498.67	53.83
498.85	18.72
499.03	98.30
499.20	105.32
499.38	30.43
499.56	51.49
499.73	112.35
499.91	84.26
500.08	70.22
500.26	72.56
500.44	65.54
500.61	79.58
500.79	110.01
500.97	49.15
501.14	0.00
501.32	46.81
501.49	138.09
501.67	60.85
501.84	72.56
502.02	86.60
502.20	114.69
502.37	23.41
502.55	91.28
502.72	4.68
502.90	86.60
503.07	56.17
503.25	16.38
503.43	42.13
503.60	53.83
503.78	74.90
503.95	81.92
504.13	65.54
504.30	65.54
504.48	67.88
504.65	56.17
504.83	42.13
505.01	42.13
505.18	74.90
505.36	91.28
505.53	100.64
505.71	42.13
505.88	60.85
506.06	102.98
506.23	53.83
506.41	95.96
506.58	74.90
506.76	16.38
506.93	35.11
507.11	95.96
507.28	131.07
507.46	63.19
507.63	56.17
507.81	70.22
507.98	100.64
508.16	81.92
508.33	124.05
508.50	84.26
508.68	126.39
508.85	25.75
509.03	72.56
509.20	81.92
509.38	44.47
509.55	84.26
509.73	14.04
509.90	133.41
510.08	95.96
510.25	107.66
510.42	117.03
510.60	77.24
510.77	114.69
510.95	110.01
511.12	126.39
511.30	105.32
511.47	56.17
511.64	133.41
511.82	46.81
511.99	44.47
512.17	65.54
512.34	7.02
512.51	25.75
512.69	72.56
512.86	86.60
513.04	117.03
513.21	142.77
513.38	53.83
513.56	107.66
513.73	110.01
513.90	84.26
514.08	86.60
514.25	110.01
514.43	98.30
514.60	23.41
514.77	98.30
514.95	119.37
515.12	107.66
515.29	65.54
515.47	138.09
515.64	86.60
515.81	60.85
515.99	126.39
516.16	79.58
516.33	58.51
516.51	138.09
516.68	65.54
516.85	70.22
517.03	67.88
517.20	86.60
517.37	159.16
517.54	140.43
517.72	84.26
517.89	70.22
518.06	63.19
518.24	110.01
518.41	112.35
518.58	119.37
518.75	44.47
518.93	117.03
519.10	128.73
519.27	119.37
519.45	138.09
519.62	79.58
519.79	110.01
519.96	107.66
520.14	21.06
520.31	44.47
520.48	91.28
520.65	74.90
520.83	49.15
521.00	72.56
521.17	128.73
521.34	72.56
521.52	91.28
521.69	79.58
521.86	0.00
522.03	67.88
522.20	140.43
522.38	93.62
522.55	93.62
522.72	70.22
522.89	35.11
523.07	53.83
523.24	77.24
523.41	74.90
523.58	154.48
523.75	133.41
523.92	37.45
524.10	114.69
524.27	133.41
524.44	145.11
524.61	39.79
524.78	88.94
524.96	161.50
525.13	138.09
525.30	44.47
525.47	91.28
525.64	88.94
525.81	124.05
525.98	119.37
526.16	91.28
526.33	98.30
526.50	72.56
526.67	2.34
526.84	30.43
527.01	81.92
527.18	51.49
527.36	44.47
527.53	9.36
527.70	112.35
527.87	67.88
528.04	124.05
528.21	154.48
528.38	28.09
528.55	133.41
528.72	32.77
528.89	53.83
529.07	58.51
529.24	56.17
529.41	117.03
529.58	102.98
529.75	53.83
529.92	93.62
530.09	107.66
530.26	121.71
530.43	91.28
530.60	131.07
530.77	142.77
530.94	91.28
531.11	67.88
531.28	91.28
531.46	49.15
531.63	32.77
531.80	79.58
531.97	117.03
532.14	72.56
532.31	9.36
532.48	79.58
532.65	16.38
532.82	72.56
532.99	124.05
533.16	117.03
533.33	93.62
533.50	25.75
533.67	114.69
533.84	131.07
534.01	98.30
534.18	121.71
534.35	110.01
534.52	105.32
534.69	110.01
534.86	138.09
535.03	105.32
535.20	159.16
535.37	79.58
535.54	98.30
535.71	58.51
535.88	79.58
536.05	100.64
536.22	67.88
536.38	110.01
536.55	81.92
536.72	18.72
536.89	21.06
537.06	81.92
537.23	35.11
537.40	81.92
537.57	42.13
537.74	74.90
537.91	88.94
538.08	51.49
538.25	161.50
538.42	93.62
538.59	77.24
538.75	79.58
538.92	35.11
539.09	161.50
539.26	114.69
539.43	77.24
539.60	110.01
539.77	51.49
539.94	138.09
540.11	39.79
540.28	72.56
540.44	49.15
540.61	154.48
540.78	128.73
540.95	63.19
541.12	58.51
541.29	23.41
541.46	0.00
541.62	114.69
541.79	70.22
541.96	35.11
542.13	133.41
542.30	70.22
542.47	81.92
542.63	105.32
542.80	60.85
542.97	86.60
543.14	119.37
543.31	74.90
543.48	93.62
543.64	2.34
543.81	7.02
543.98	114.69
544.15	88.94
544.32	18.72
544.48	49.15
544.65	107.66
544.82	93.62
544.99	102.98
545.16	37.45
545.32	58.51
545.49	37.45
545.66	65.54
545.83	128.73
546.00	70.22
546.16	107.66
546.33	124.05
546.50	81.92
546.67	152.13
546.83	79.58
547.00	133.41
547.17	91.28
547.34	25.75
547.50	147.45
547.67	74.90
547.84	4.68
548.00	72.56
548.17	138.09
548.34	30.43
548.51	117.03
548.67	110.01
548.84	30.43
549.01	88.94
549.18	114.69
549.34	70.22
549.51	58.51
549.68	119.37
549.84	56.17
550.01	95.96
550.18	95.96
550.34	100.64
550.51	42.13
550.68	88.94
550.84	53.83
551.01	107.66
551.18	93.62
551.34	56.17
551.51	53.83
551.68	81.92
551.84	86.60
552.01	18.72
552.18	84.26
552.34	56.17
552.51	60.85
552.68	93.62
552.84	67.88
553.01	91.28
553.18	18.72
553.34	91.28
553.51	131.07
553.67	53.83
553.84	18.72
554.01	126.39
554.17	86.60
554.34	98.30
554.51	95.96
554.67	138.09
554.84	93.62
555.00	107.66
555.17	93.62
555.33	86.60
555.50	133.41
555.67	70.22
555.83	77.24
556.00	84.26
556.16	138.09
556.33	86.60
556.50	81.92
556.66	128.73
556.83	88.94
556.99	102.98
557.16	56.17
557.32	70.22
557.49	39.79
557.65	131.07
557.82	112.35
557.98	37.45
558.15	138.09
558.32	53.83
558.48	56.17
558.65	91.28
558.81	84.26
558.98	93.62
559.14	152.13
559.31	128.73
559.47	112.35
559.64	74.90
559.80	180.22
559.97	53.83
560.13	51.49
560.30	46.81
560.46	95.96
560.63	67.88
560.79	70.22
560.96	84.26
561.12	74.90
561.29	58.51
561.45	60.85
561.61	44.47
561.78	88.94
561.94	126.39
562.11	145.11
562.27	60.85
562.44	49.15
562.60	67.88
562.77	119.37
562.93	135.75
563.10	152.13
563.26	42.13
563.42	145.11
563.59	142.77
563.75	51.49
563.92	70.22
564.08	63.19
564.24	93.62
564.41	84.26
564.57	95.96
564.74	46.81
564.90	81.92
565.07	18.72
565.23	77.24
565.39	84.26
565.56	4.68
565.72	58.51
565.88	53.83
566.05	63.19
566.21	46.81
566.38	37.45
566.54	63.19
566.70	51.49
566.87	0.00
567.03	91.28
567.19	117.03
567.36	110.01
567.52	107.66
567.68	74.90
567.85	102.98
568.01	53.83
568.17	119.37
568.34	49.15
568.50	95.96
568.66	2.34
568.83	114.69
568.99	60.85
569.15	149.79
569.32	86.60
569.48	86.60
569.64	74.90
569.81	65.54
569.97	58.51
570.13	46.81
570.30	67.88
570.46	98.30
570.62	67.88
570.78	49.15
570.95	124.05
571.11	56.17
571.27	98.30
571.43	23.41
571.60	105.32
571.76	131.07
571.92	53.83
572.09	107.66
572.25	159.16
572.41	117.03
572.57	67.88
572.74	142.77
572.90	63.19
573.06	156.82
573.22	88.94
573.38	53.83
573.55	81.92
573.71	53.83
573.87	102.98
574.03	102.98
574.20	74.90
574.36	49.15
574.52	56.17
574.68	72.56
574.84	107.66
575.01	49.15
575.17	70.22
575.33	30.43
575.49	126.39
575.65	112.35
575.82	44.47
575.98	63.19
576.14	65.54
576.30	98.30
576.46	63.19
576.62	72.56
576.79	119.37
576.95	110.01
577.11	67.88
577.27	100.64
577.43	110.01
577.59	95.96
577.75	14.04
577.92	14.04
578.08	28.09
578.24	9.36
578.40	133.41
578.56	67.88
578.72	72.56
578.88	77.24
579.04	23.41
579.21	102.98
579.37	117.03
579.53	49.15
579.69	77.24
579.85	63.19
580.01	88.94
580.17	77.24
580.33	84.26
580.49	91.28
580.65	88.94
580.82	65.54
580.98	0.00
581.14	88.94
581.30	105.32
581.46	32.77
581.62	156.82
581.78	63.19
581.94	35.11
582.10	58.51
582.26	107.66
582.42	51.49
582.58	102.98
582.74	107.66
582.90	35.11
583.06	77.24
583.22	102.98
583.38	42.13
583.54	39.79
583.70	88.94
583.86	42.13
584.02	65.54
584.18	79.58
584.34	128.73
584.50	107.66
584.66	18.72
584.82	105.32
584.98	110.01
585.14	84.26
585.30	98.30
585.46	95.96
585.62	70.22
585.78	67.88
585.94	84.26
586.10	117.03
586.26	51.49
586.42	135.75
586.58	138.09
586.74	23.41
586.90	7.02
587.06	100.64
587.22	117.03
587.38	53.83
587.54	93.62
587.70	67.88
587.86	70.22
588.02	53.83
588.18	60.85
588.34	18.72
588.49	81.92
588.65	107.66
588.81	102.98
588.97	58.51
589.13	131.07
589.29	37.45
589.45	119.37
589.61	105.32
589.77	93.62
589.93	95.96
590.08	65.54
590.24	117.03
590.40	56.17
590.56	88.94
590.72	67.88
590.88	63.19
591.04	53.83
591.20	32.77
591.35	49.15
591.51	53.83
591.67	138.09
591.83	79.58
591.99	140.43
592.15	67.88
592.31	51.49
592.46	67.88
592.62	53.83
592.78	65.54
592.94	81.92
593.10	0.00
593.26	37.45
593.41	84.26
593.57	21.06
593.73	63.19
593.89	79.58
594.05	72.56
594.20	58.51
594.36	114.69
594.52	91.28
594.68	58.51
594.84	65.54
594.99	49.15
595.15	131.07
595.31	39.79
595.47	65.54
595.62	58.51
595.78	74.90
595.94	142.77
596.10	77.24
596.25	95.96
596.41	44.47
596.57	100.64
596.73	91.28
596.88	95.96
597.04	56.17
597.20	72.56
597.36	65.54
597.51	65.54
597.67	77.24
597.83	44.47
597.99	138.09
598.14	114.69
598.30	102.98
598.46	42.13
598.61	74.90
598.77	100.64
598.93	91.28
599.09	128.73
599.24	100.64
599.40	30.43
599.56	133.41
599.71	91.28
599.87	4.68
600.03	131.07
600.18	70.22
600.34	126.39
600.50	18.72
600.65	161.50
600.81	81.92
600.97	39.79
601.12	98.30
601.28	135.75
601.44	84.26
601.59	30.43
601.75	74.90
601.91	51.49
602.06	2.34
602.22	138.09
602.37	161.50
602.53	56.17
602.69	81.92
602.84	67.88
603.00	58.51
603.16	67.88
603.31	60.85
603.47	117.03
603.62	67.88
603.78	102.98
603.94	65.54
604.09	60.85
604.25	56.17
604.40	114.69
604.56	117.03
604.71	51.49
604.87	53.83
605.03	77.24
605.18	51.49
605.34	53.83
605.49	74.90
605.65	56.17
605.80	124.05
605.96	88.94
606.12	23.41
606.27	149.79
606.43	77.24
606.58	105.32
606.74	49.15
606.89	28.09
607.05	23.41
607.20	117.03
607.36	56.17
607.51	121.71
607.67	70.22
607.82	28.09
607.98	95.96
608.13	53.83
608.29	79.58
608.44	0.00
608.60	30.43
608.75	60.85
608.91	30.43
609.06	32.77
609.22	14.04
609.37	131.07
609.53	107.66
609.68	77.24
609.84	37.45
609.99	166.18
610.15	67.88
610.30	9.36
610.46	105.32
610.61	25.75
610.76	65.54
610.92	53.83
611.07	84.26
611.23	67.88
611.38	149.79
611.54	35.11
611.69	70.22
611.84	67.88
612.00	0.00
612.15	88.94
612.31	84.26
612.46	42.13
612.62	53.83
612.77	51.49
612.92	37.45
613.08	42.13
613.23	32.77
613.39	70.22
613.54	51.49
613.69	42.13
613.85	21.06
614.00	74.90
614.15	112.35
614.31	56.17
614.46	0.00
614.62	58.51
614.77	152.13
614.92	53.83
615.08	70.22
615.23	81.92
615.38	51.49
615.54	72.56
615.69	56.17
615.84	74.90
616.00	105.32
616.15	100.64
616.30	88.94
616.46	51.49
616.61	135.75
616.76	88.94
616.92	81.92
617.07	138.09
617.22	105.32
617.37	119.37
617.53	84.26
617.68	100.64
617.83	60.85
617.99	25.75
618.14	79.58
618.29	121.71
618.45	67.88
618.60	152.13
618.75	121.71
618.90	88.94
619.06	102.98
619.21	46.81
619.36	39.79
619.51	11.70
619.67	74.90
619.82	44.47
619.97	58.51
620.12	100.64
620.28	112.35
620.43	44.47
620.58	32.77
620.73	0.00
620.89	51.49
621.04	53.83
621.19	30.43
621.34	93.62
621.49	35.11
621.65	23.41
621.80	60.85
621.95	44.47
622.10	44.47
622.25	58.51
622.41	28.09
622.56	67.88
622.71	102.98
622.86	117.03
623.01	0.00
623.16	70.22
623.32	124.05
623.47	77.24
623.62	98.30
623.77	72.56
623.92	95.96
624.07	4.68
624.23	86.60
624.38	56.17
624.53	11.70
624.68	0.00
624.83	98.30
624.98	58.51
625.13	25.75
625.29	32.77
625.44	46.81
625.59	107.66
625.74	35.11
625.89	16.38
626.04	65.54
626.19	58.51
626.34	42.13
626.49	0.00
626.65	30.43
626.80	110.01
626.95	23.41
627.10	124.05
627.25	93.62
627.40	135.75
627.55	32.77
627.70	77.24
627.85	100.64
628.00	9.36
628.15	60.85
628.30	70.22
628.45	98.30
628.60	25.75
628.76	51.49
628.91	121.71
629.06	117.03
629.21	18.72
629.36	74.90
629.51	95.96
629.66	86.60
629.81	91.28
629.96	14.04
630.11	98.30
630.26	58.51
630.41	72.56
630.56	53.83
630.71	63.19
630.86	58.51
631.01	79.58
631.16	100.64
631.31	65.54
631.46	65.54
631.61	114.69
631.76	194.26
631.91	58.51
632.06	74.90
632.21	79.58
632.36	77.24
632.51	18.72
632.66	44.47
632.81	65.54
632.96	84.26
633.10	112.35
633.25	72.56
633.40	100.64
633.55	67.88
633.70	135.75
633.85	72.56
634.00	70.22
634.15	53.83
634.30	30.43
634.45	25.75
634.60	105.32
634.75	53.83
634.90	74.90
635.05	51.49
635.19	72.56
635.34	58.51
635.49	4.68
635.64	16.38
635.79	49.15
635.94	51.49
636.09	140.43
636.24	79.58
636.39	51.49
636.53	67.88
636.68	37.45
636.83	65.54
636.98	53.83
637.13	56.17
637.28	63.19
637.43	49.15
637.57	0.00
637.72	42.13
637.87	30.43
638.02	25.75
638.17	79.58
638.32	16.38
638.46	88.94
638.61	110.01
638.76	53.83
638.91	32.77
639.06	88.94
639.20	88.94
639.35	49.15
639.50	2.34
639.65	79.58
639.80	166.18
639.94	51.49
640.09	93.62
640.24	156.82
640.39	65.54
640.54	23.41
640.68	42.13
640.83	84.26
640.98	60.85
641.13	63.19
641.27	126.39
641.42	21.06
641.57	84.26
641.72	70.22
641.86	88.94
642.01	138.09
642.16	77.24
642.31	88.94
642.45	30.43
642.60	51.49
642.75	60.85
642.90	98.30
643.04	70.22
643.19	46.81
643.34	124.05
643.48	72.56
643.63	65.54
643.78	63.19
643.93	72.56
644.07	53.83
644.22	0.00
644.37	98.30
644.51	63.19
644.66	44.47
644.81	60.85
644.95	25.75
645.10	70.22
645.25	16.38
645.39	56.17
645.54	25.75
645.69	124.05
645.83	16.38
645.98	63.19
646.13	53.83
646.27	81.92
646.42	32.77
646.57	107.66
646.71	28.09
646.86	16.38
647.00	42.13
647.15	0.00
647.30	37.45
647.44	0.00
647.59	70.22
647.74	4.68
647.88	35.11
648.03	7.02
648.17	88.94
648.32	124.05
648.47	53.83
648.61	93.62
648.76	32.77
648.90	58.51
649.05	77.24
649.20	25.75
649.34	131.07
649.49	81.92
649.63	46.81
649.78	70.22
649.92	51.49
650.07	86.60
650.21	74.90
650.36	74.90
650.51	95.96
650.65	0.00
650.80	60.85
650.94	67.88
651.09	84.26
651.23	77.24
651.38	98.30
651.52	70.22
651.67	37.45
651.81	4.68
651.96	53.83
652.10	39.79
652.25	124.05
652.39	98.30
652.54	72.56
652.68	91.28
652.83	63.19
652.97	93.62
653.12	121.71
653.26	110.01
653.41	93.62
653.55	16.38
653.70	58.51
653.84	77.24
653.99	37.45
654.13	65.54
654.27	60.85
654.42	72.56
654.56	37.45
654.71	72.56
654.85	46.81
655.00	30.43
655.14	79.58
655.29	63.19
655.43	0.00
655.57	60.85
655.72	77.24
655.86	46.81
656.01	86.60
656.15	63.19
656.30	39.79
656.44	46.81
656.58	23.41
656.73	11.70
656.87	58.51
657.01	77.24
657.16	0.00
657.30	58.51
657.45	51.49
657.59	14.04
657.73	7.02
657.88	9.36
658.02	128.73
658.16	60.85
658.31	70.22
658.45	28.09
658.60	100.64
658.74	107.66
658.88	63.19
659.03	21.06
659.17	53.83
659.31	53.83
659.46	32.77
659.60	88.94
659.74	32.77
659.89	112.35
660.03	42.13
660.17	37.45
660.32	126.39
660.46	100.64
660.60	84.26
660.74	51.49
660.89	67.88
661.03	0.00
661.17	65.54
661.32	95.96
661.46	135.75
661.60	37.45
661.74	77.24
661.89	131.07
662.03	77.24
662.17	49.15
662.31	63.19
662.46	93.62
662.60	86.60
662.74	58.51
662.88	65.54
663.03	114.69
663.17	112.35
663.31	37.45
663.45	37.45
663.60	60.85
663.74	23.41
663.88	91.28
664.02	81.92
664.17	35.11
664.31	70.22
664.45	100.64
664.59	112.35
664.73	49.15
664.88	46.81
665.02	74.90
665.16	0.00
665.30	72.56
665.44	44.47
665.59	30.43
665.73	81.92
665.87	30.43
666.01	42.13
666.15	49.15
666.29	28.09
666.44	72.56
666.58	63.19
666.72	60.85
666.86	21.06
667.00	53.83
667.14	30.43
667.28	39.79
667.43	30.43
667.57	9.36
667.71	56.17
667.85	67.88
667.99	105.32
668.13	110.01
668.27	74.90
668.41	70.22
668.56	35.11
668.70	9.36
668.84	0.00
668.98	114.69
669.12	2.34
669.26	28.09
669.40	72.56
669.54	18.72
669.68	44.47
669.82	70.22
669.96	53.83
670.10	63.19
670.25	81.92
670.39	16.38
670.53	60.85
670.67	51.49
670.81	140.43
670.95	32.77
671.09	72.56
671.23	79.58
671.37	0.00
671.51	16.38
671.65	88.94
671.79	121.71
671.93	91.28
672.07	79.58
672.21	42.13
672.35	44.47
672.49	39.79
672.63	7.02
672.77	28.09
672.91	65.54
673.05	102.98
673.19	0.00
673.33	0.00
673.47	56.17
673.61	0.00
673.75	86.60
673.89	58.51
674.03	105.32
674.17	67.88
674.31	18.72
674.45	60.85
674.59	39.79
674.73	53.83
674.87	2.34
675.01	0.00
675.15	25.75
675.29	37.45
675.43	28.09
675.56	46.81
675.70	77.24
675.84	138.09
675.98	58.51
676.12	42.13
676.26	0.00
676.40	28.09
676.54	14.04
676.68	105.32
676.82	37.45
676.96	49.15
677.10	49.15
677.23	32.77
677.37	0.00
677.51	86.60
677.65	23.41
677.79	77.24
677.93	63.19
678.07	39.79
678.21	21.06
678.34	79.58
678.48	9.36
678.62	126.39
678.76	39.79
678.90	0.00
679.04	77.24
679.18	44.47
679.31	42.13
679.45	4.68
679.59	25.75
679.73	72.56
679.87	49.15
680.00	37.45
680.14	133.41
680.28	37.45
680.42	0.00
680.56	37.45
680.70	65.54
680.83	28.09
680.97	58.51
681.11	53.83
681.25	46.81
681.39	0.00
681.52	9.36
681.66	58.51
681.80	100.64
681.94	49.15
682.07	23.41
682.21	84.26
682.35	0.00
682.49	30.43
682.62	91.28
682.76	0.00
682.90	112.35
683.04	25.75
683.17	81.92
683.31	58.51
683.45	35.11
683.59	37.45
683.72	100.64
683.86	93.62
684.00	56.17
684.13	42.13
684.27	95.96
684.41	49.15
684.55	0.00
684.68	98.30
684.82	4.68
684.96	0.00
685.09	21.06
685.23	49.15
685.37	39.79
685.50	112.35
685.64	35.11
685.78	23.41
685.91	79.58
686.05	32.77
686.19	11.70
686.32	21.06
686.46	44.47
686.60	70.22
686.73	18.72
686.87	105.32
687.01	37.45
687.14	63.19
687.28	65.54
687.42	51.49
687.55	49.15
687.69	0.00
687.82	88.94
687.96	32.77
688.10	28.09
688.23	49.15
688.37	98.30
688.50	2.34
688.64	30.43
688.78	49.15
688.91	16.38
689.05	0.00
689.18	58.51
689.32	28.09
689.46	51.49
689.59	114.69
689.73	93.62
689.86	21.06
690.00	35.11
690.13	0.00
690.27	63.19
690.41	53.83
690.54	77.24
690.68	0.00
690.81	4.68
690.95	49.15
691.08	16.38
691.22	14.04
691.35	42.13
691.49	16.38
691.62	0.00
691.76	58.51
691.89	0.00
692.03	0.00
692.16	60.85
692.30	72.56
692.43	4.68
692.57	14.04
692.70	65.54
692.84	74.90
692.97	49.15
693.11	0.00
693.24	0.00
693.38	0.00
693.51	0.00
693.65	25.75
693.78	37.45
693.92	39.79
694.05	98.30
694.19	28.09
694.32	0.00
694.45	0.00
694.59	0.00
694.72	21.06
694.86	28.09
694.99	18.72
695.13	39.79
695.26	28.09
695.39	0.00
695.53	86.60
695.66	49.15
695.80	18.72
695.93	0.00
696.07	44.47
696.20	0.00
696.33	117.03
696.47	42.13
696.60	79.58
696.73	23.41
696.87	42.13
697.00	21.06
697.14	0.00
697.27	0.00
697.40	0.00
697.54	60.85
697.67	42.13
697.80	18.72
697.94	42.13
698.07	11.70
698.21	91.28
698.34	58.51
698.47	46.81
698.61	2.34
698.74	60.85
698.87	39.79
699.01	0.00
699.14	0.00
699.27	21.06
699.40	98.30
699.54	0.00
699.67	14.04
699.80	30.43
699.94	4.68
700.07	107.66
700.20	0.00
700.34	18.72
700.47	0.00
700.60	58.51
700.73	28.09
700.87	42.13
701.00	14.04
701.13	14.04
701.26	32.77
701.40	65.54
701.53	30.43
701.66	56.17
701.79	25.75
701.93	0.00
702.06	128.73
702.19	70.22
702.32	81.92
702.46	28.09
702.59	53.83
702.72	86.60
702.85	107.66
702.99	11.70
703.12	16.38
703.25	100.64
703.38	88.94
703.51	32.77
703.65	0.00
703.78	11.70
703.91	42.13
704.04	42.13
704.17	0.00
704.31	42.13
704.44	60.85
704.57	16.38
704.70	32.77
704.83	11.70
704.96	30.43
705.10	9.36
705.23	25.75
>>>>>End Processed Spectral Data<<<<<
