SpectraSuite Data File
++++++++++++++++++++++++++++++++++++
Date: Fri Oct 04 12:13:41 GMT-05:00 2013
User: price-jones
Dark Spectrum Present: No
Reference Spectrum Present: No
Number of Sampled Component Spectra: 1
Spectrometers: USB2+H05261
Integration Time (usec): 10000 (USB2+H05261)
Spectra Averaged: 1 (USB2+H05261)
Boxcar Smoothing: 0 (USB2+H05261)
Correct for Electrical Dark: No (USB2+H05261)
Strobe/Lamp Enabled: No (USB2+H05261)
Correct for Detector Non-linearity: No (USB2+H05261)
Correct for Stray Light: No (USB2+H05261)
Number of Pixels in Processed Spectrum: 2048
>>>>>Begin Processed Spectral Data<<<<<
365.73	0.00
365.92	0.00
366.12	0.00
366.32	0.00
366.52	0.00
366.72	0.00
366.91	0.00
367.11	0.00
367.31	0.00
367.51	0.00
367.70	0.00
367.90	0.00
368.10	0.00
368.30	0.00
368.49	0.00
368.69	0.00
368.89	0.00
369.09	0.00
369.28	0.00
369.48	0.00
369.68	0.00
369.87	0.00
370.07	0.00
370.27	0.00
370.47	0.00
370.66	0.00
370.86	0.00
371.06	4.68
371.25	0.00
371.45	0.00
371.65	0.00
371.84	0.00
372.04	0.00
372.24	0.00
372.44	0.00
372.63	77.24
372.83	0.00
373.03	18.72
373.22	51.49
373.42	0.00
373.62	9.36
373.81	0.00
374.01	56.17
374.21	0.00
374.40	9.36
374.60	53.83
374.79	0.00
374.99	0.00
375.19	84.26
375.38	30.43
375.58	67.88
375.78	32.77
375.97	32.77
376.17	56.17
376.37	23.41
376.56	9.36
376.76	0.00
376.95	28.09
377.15	135.75
377.35	0.00
377.54	0.00
377.74	58.51
377.93	11.70
378.13	44.47
378.33	0.00
378.52	16.38
378.72	0.00
378.91	60.85
379.11	23.41
379.31	42.13
379.50	2.34
379.70	21.06
379.89	44.47
380.09	46.81
380.28	4.68
380.48	30.43
380.68	2.34
380.87	0.00
381.07	9.36
381.26	0.00
381.46	4.68
381.65	0.00
381.85	0.00
382.04	0.00
382.24	28.09
382.43	0.00
382.63	2.34
382.83	30.43
383.02	0.00
383.22	42.13
383.41	0.00
383.61	42.13
383.80	0.00
384.00	56.17
384.19	91.28
384.39	72.56
384.58	37.45
384.78	35.11
384.97	32.77
385.17	21.06
385.36	28.09
385.56	21.06
385.75	0.00
385.95	84.26
386.14	46.81
386.34	49.15
386.53	0.00
386.72	37.45
386.92	65.54
387.11	4.68
387.31	2.34
387.50	107.66
387.70	14.04
387.89	25.75
388.09	77.24
388.28	70.22
388.48	25.75
388.67	67.88
388.86	9.36
389.06	28.09
389.25	39.79
389.45	35.11
389.64	72.56
389.84	16.38
390.03	56.17
390.22	16.38
390.42	0.00
390.61	0.00
390.81	0.00
391.00	0.00
391.19	95.96
391.39	79.58
391.58	60.85
391.78	14.04
391.97	37.45
392.16	39.79
392.36	60.85
392.55	9.36
392.75	44.47
392.94	56.17
393.13	67.88
393.33	0.00
393.52	2.34
393.71	7.02
393.91	23.41
394.10	39.79
394.29	65.54
394.49	2.34
394.68	35.11
394.88	0.00
395.07	56.17
395.26	0.00
395.46	4.68
395.65	77.24
395.84	11.70
396.04	0.00
396.23	4.68
396.42	21.06
396.62	0.00
396.81	23.41
397.00	28.09
397.19	0.00
397.39	25.75
397.58	18.72
397.77	16.38
397.97	14.04
398.16	23.41
398.35	2.34
398.55	30.43
398.74	32.77
398.93	0.00
399.12	91.28
399.32	30.43
399.51	0.00
399.70	0.00
399.90	46.81
400.09	0.00
400.28	0.00
400.47	114.69
400.67	0.00
400.86	23.41
401.05	44.47
401.24	37.45
401.44	93.62
401.63	39.79
401.82	42.13
402.01	39.79
402.21	25.75
402.40	14.04
402.59	37.45
402.78	63.19
402.97	0.00
403.17	49.15
403.36	14.04
403.55	0.00
403.74	14.04
403.93	16.38
404.13	0.00
404.32	72.56
404.51	4.68
404.70	93.62
404.89	21.06
405.09	2.34
405.28	51.49
405.47	0.00
405.66	14.04
405.85	28.09
406.05	46.81
406.24	56.17
406.43	2.34
406.62	53.83
406.81	98.30
407.00	53.83
407.20	119.37
407.39	0.00
407.58	67.88
407.77	60.85
407.96	51.49
408.15	35.11
408.34	9.36
408.54	74.90
408.73	28.09
408.92	51.49
409.11	4.68
409.30	56.17
409.49	23.41
409.68	14.04
409.87	18.72
410.07	53.83
410.26	65.54
410.45	0.00
410.64	65.54
410.83	0.00
411.02	35.11
411.21	30.43
411.40	84.26
411.59	84.26
411.78	0.00
411.98	9.36
412.17	4.68
412.36	23.41
412.55	4.68
412.74	74.90
412.93	93.62
413.12	9.36
413.31	14.04
413.50	30.43
413.69	65.54
413.88	86.60
414.07	88.94
414.26	49.15
414.45	11.70
414.64	30.43
414.83	114.69
415.02	30.43
415.22	0.00
415.41	32.77
415.60	51.49
415.79	84.26
415.98	37.45
416.17	0.00
416.36	65.54
416.55	25.75
416.74	58.51
416.93	79.58
417.12	77.24
417.31	88.94
417.50	117.03
417.69	44.47
417.88	25.75
418.07	0.00
418.26	23.41
418.45	0.00
418.64	63.19
418.83	23.41
419.02	77.24
419.21	91.28
419.39	0.00
419.58	0.00
419.77	65.54
419.96	67.88
420.15	0.00
420.34	37.45
420.53	0.00
420.72	51.49
420.91	42.13
421.10	42.13
421.29	32.77
421.48	23.41
421.67	7.02
421.86	53.83
422.05	4.68
422.24	67.88
422.43	0.00
422.61	32.77
422.80	107.66
422.99	95.96
423.18	7.02
423.37	72.56
423.56	18.72
423.75	51.49
423.94	65.54
424.13	11.70
424.32	16.38
424.50	9.36
424.69	14.04
424.88	77.24
425.07	9.36
425.26	74.90
425.45	98.30
425.64	16.38
425.83	51.49
426.01	37.45
426.20	91.28
426.39	0.00
426.58	67.88
426.77	0.00
426.96	25.75
427.15	46.81
427.33	39.79
427.52	84.26
427.71	86.60
427.90	16.38
428.09	86.60
428.28	4.68
428.46	14.04
428.65	49.15
428.84	0.00
429.03	18.72
429.22	49.15
429.40	0.00
429.59	0.00
429.78	51.49
429.97	65.54
430.16	25.75
430.34	91.28
430.53	2.34
430.72	81.92
430.91	0.00
431.10	28.09
431.28	32.77
431.47	88.94
431.66	81.92
431.85	11.70
432.03	86.60
432.22	53.83
432.41	65.54
432.60	74.90
432.79	56.17
432.97	35.11
433.16	93.62
433.35	46.81
433.54	53.83
433.72	49.15
433.91	63.19
434.10	18.72
434.28	0.00
434.47	49.15
434.66	18.72
434.85	51.49
435.03	25.75
435.22	93.62
435.41	126.39
435.59	95.96
435.78	51.49
435.97	79.58
436.16	65.54
436.34	11.70
436.53	0.00
436.72	58.51
436.90	53.83
437.09	21.06
437.28	79.58
437.46	16.38
437.65	67.88
437.84	93.62
438.02	0.00
438.21	79.58
438.40	63.19
438.58	44.47
438.77	51.49
438.96	0.00
439.14	93.62
439.33	44.47
439.52	0.00
439.70	58.51
439.89	16.38
440.08	91.28
440.26	7.02
440.45	0.00
440.63	23.41
440.82	23.41
441.01	49.15
441.19	44.47
441.38	58.51
441.57	84.26
441.75	72.56
441.94	102.98
442.12	65.54
442.31	35.11
442.50	79.58
442.68	63.19
442.87	86.60
443.05	110.01
443.24	0.00
443.43	149.79
443.61	88.94
443.80	63.19
443.98	51.49
444.17	86.60
444.35	7.02
444.54	16.38
444.73	81.92
444.91	126.39
445.10	56.17
445.28	0.00
445.47	2.34
445.65	0.00
445.84	14.04
446.02	65.54
446.21	51.49
446.39	44.47
446.58	91.28
446.77	84.26
446.95	72.56
447.14	110.01
447.32	98.30
447.51	86.60
447.69	0.00
447.88	28.09
448.06	81.92
448.25	72.56
448.43	128.73
448.62	0.00
448.80	72.56
448.99	84.26
449.17	51.49
449.36	30.43
449.54	117.03
449.73	84.26
449.91	42.13
450.10	81.92
450.28	53.83
450.46	35.11
450.65	74.90
450.83	39.79
451.02	49.15
451.20	114.69
451.39	53.83
451.57	95.96
451.76	100.64
451.94	39.79
452.13	56.17
452.31	86.60
452.49	100.64
452.68	21.06
452.86	25.75
453.05	110.01
453.23	98.30
453.42	25.75
453.60	32.77
453.78	18.72
453.97	0.00
454.15	0.00
454.34	23.41
454.52	93.62
454.70	124.05
454.89	58.51
455.07	32.77
455.26	35.11
455.44	44.47
455.62	77.24
455.81	30.43
455.99	32.77
456.17	11.70
456.36	0.00
456.54	63.19
456.73	114.69
456.91	32.77
457.09	0.00
457.28	93.62
457.46	86.60
457.64	60.85
457.83	2.34
458.01	46.81
458.19	114.69
458.38	0.00
458.56	58.51
458.74	84.26
458.93	0.00
459.11	95.96
459.29	46.81
459.48	39.79
459.66	124.05
459.84	30.43
460.03	88.94
460.21	79.58
460.39	110.01
460.57	72.56
460.76	110.01
460.94	65.54
461.12	67.88
461.31	107.66
461.49	25.75
461.67	2.34
461.85	56.17
462.04	100.64
462.22	114.69
462.40	30.43
462.59	124.05
462.77	88.94
462.95	53.83
463.13	16.38
463.32	56.17
463.50	72.56
463.68	95.96
463.86	72.56
464.05	81.92
464.23	7.02
464.41	35.11
464.59	117.03
464.78	114.69
464.96	28.09
465.14	84.26
465.32	53.83
465.50	39.79
465.69	0.00
465.87	0.00
466.05	28.09
466.23	84.26
466.41	32.77
466.60	56.17
466.78	114.69
466.96	79.58
467.14	88.94
467.32	105.32
467.51	30.43
467.69	72.56
467.87	100.64
468.05	74.90
468.23	107.66
468.41	67.88
468.60	4.68
468.78	60.85
468.96	67.88
469.14	67.88
469.32	11.70
469.50	84.26
469.69	46.81
469.87	91.28
470.05	112.35
470.23	98.30
470.41	142.77
470.59	0.00
470.77	4.68
470.95	25.75
471.14	56.17
471.32	77.24
471.50	84.26
471.68	30.43
471.86	86.60
472.04	126.39
472.22	63.19
472.40	42.13
472.58	35.11
472.77	105.32
472.95	32.77
473.13	79.58
473.31	0.00
473.49	67.88
473.67	46.81
473.85	65.54
474.03	39.79
474.21	53.83
474.39	4.68
474.57	60.85
474.75	2.34
474.93	32.77
475.12	44.47
475.30	28.09
475.48	39.79
475.66	53.83
475.84	28.09
476.02	23.41
476.20	74.90
476.38	32.77
476.56	72.56
476.74	60.85
476.92	93.62
477.10	72.56
477.28	124.05
477.46	135.75
477.64	39.79
477.82	161.50
478.00	53.83
478.18	79.58
478.36	42.13
478.54	65.54
478.72	42.13
478.90	63.19
479.08	51.49
479.26	42.13
479.44	25.75
479.62	49.15
479.80	81.92
479.98	145.11
480.16	91.28
480.34	18.72
480.52	51.49
480.70	102.98
480.88	100.64
481.06	63.19
481.24	35.11
481.41	53.83
481.59	37.45
481.77	117.03
481.95	49.15
482.13	102.98
482.31	98.30
482.49	95.96
482.67	93.62
482.85	23.41
483.03	124.05
483.21	60.85
483.39	110.01
483.57	100.64
483.74	56.17
483.92	65.54
484.10	84.26
484.28	42.13
484.46	119.37
484.64	51.49
484.82	98.30
485.00	51.49
485.18	51.49
485.35	53.83
485.53	84.26
485.71	70.22
485.89	0.00
486.07	70.22
486.25	81.92
486.43	58.51
486.61	135.75
486.78	32.77
486.96	60.85
487.14	126.39
487.32	112.35
487.50	88.94
487.68	39.79
487.85	44.47
488.03	128.73
488.21	93.62
488.39	0.00
488.57	88.94
488.75	124.05
488.92	95.96
489.10	110.01
489.28	74.90
489.46	56.17
489.64	77.24
489.81	112.35
489.99	131.07
490.17	114.69
490.35	121.71
490.53	107.66
490.70	100.64
490.88	51.49
491.06	81.92
491.24	37.45
491.41	110.01
491.59	70.22
491.77	32.77
491.95	93.62
492.13	124.05
492.30	63.19
492.48	74.90
492.66	117.03
492.84	58.51
493.01	53.83
493.19	56.17
493.37	124.05
493.54	114.69
493.72	37.45
493.90	119.37
494.08	177.88
494.25	46.81
494.43	98.30
494.61	9.36
494.79	72.56
494.96	25.75
495.14	46.81
495.32	81.92
495.49	74.90
495.67	46.81
495.85	67.88
496.02	121.71
496.20	44.47
496.38	112.35
496.55	159.16
496.73	39.79
496.91	46.81
497.09	42.13
497.26	63.19
497.44	131.07
497.62	32.77
497.79	79.58
497.97	67.88
498.14	37.45
498.32	74.90
498.50	72.56
498.67	74.90
498.85	140.43
499.03	74.90
499.20	72.56
499.38	37.45
499.56	93.62
499.73	74.90
499.91	46.81
500.08	4.68
500.26	86.60
500.44	110.01
500.61	86.60
500.79	133.41
500.97	56.17
501.14	145.11
501.32	142.77
501.49	72.56
501.67	77.24
501.84	28.09
502.02	9.36
502.20	42.13
502.37	39.79
502.55	105.32
502.72	114.69
502.90	11.70
503.07	60.85
503.25	81.92
503.43	53.83
503.60	63.19
503.78	58.51
503.95	65.54
504.13	63.19
504.30	124.05
504.48	4.68
504.65	65.54
504.83	72.56
505.01	74.90
505.18	88.94
505.36	53.83
505.53	81.92
505.71	114.69
505.88	65.54
506.06	100.64
506.23	53.83
506.41	53.83
506.58	93.62
506.76	63.19
506.93	84.26
507.11	77.24
507.28	91.28
507.46	56.17
507.63	102.98
507.81	140.43
507.98	98.30
508.16	95.96
508.33	114.69
508.50	56.17
508.68	88.94
508.85	126.39
509.03	63.19
509.20	46.81
509.38	74.90
509.55	72.56
509.73	44.47
509.90	117.03
510.08	63.19
510.25	110.01
510.42	93.62
510.60	46.81
510.77	93.62
510.95	74.90
511.12	98.30
511.30	86.60
511.47	25.75
511.64	58.51
511.82	88.94
511.99	95.96
512.17	72.56
512.34	110.01
512.51	91.28
512.69	133.41
512.86	105.32
513.04	135.75
513.21	51.49
513.38	86.60
513.56	86.60
513.73	102.98
513.90	65.54
514.08	147.45
514.25	93.62
514.43	67.88
514.60	114.69
514.77	60.85
514.95	56.17
515.12	93.62
515.29	86.60
515.47	124.05
515.64	102.98
515.81	100.64
515.99	84.26
516.16	114.69
516.33	77.24
516.51	98.30
516.68	49.15
516.85	112.35
517.03	74.90
517.20	88.94
517.37	72.56
517.54	11.70
517.72	56.17
517.89	46.81
518.06	107.66
518.24	49.15
518.41	44.47
518.58	110.01
518.75	105.32
518.93	79.58
519.10	56.17
519.27	49.15
519.45	63.19
519.62	53.83
519.79	112.35
519.96	42.13
520.14	60.85
520.31	30.43
520.48	67.88
520.65	49.15
520.83	67.88
521.00	133.41
521.17	39.79
521.34	86.60
521.52	72.56
521.69	65.54
521.86	53.83
522.03	60.85
522.20	51.49
522.38	105.32
522.55	88.94
522.72	77.24
522.89	86.60
523.07	58.51
523.24	88.94
523.41	110.01
523.58	28.09
523.75	128.73
523.92	72.56
524.10	51.49
524.27	25.75
524.44	74.90
524.61	102.98
524.78	0.00
524.96	98.30
525.13	121.71
525.30	84.26
525.47	21.06
525.64	117.03
525.81	86.60
525.98	91.28
526.16	145.11
526.33	95.96
526.50	145.11
526.67	77.24
526.84	95.96
527.01	100.64
527.18	67.88
527.36	28.09
527.53	88.94
527.70	60.85
527.87	117.03
528.04	86.60
528.21	138.09
528.38	114.69
528.55	88.94
528.72	91.28
528.89	53.83
529.07	98.30
529.24	93.62
529.41	42.13
529.58	39.79
529.75	65.54
529.92	102.98
530.09	142.77
530.26	86.60
530.43	21.06
530.60	133.41
530.77	49.15
530.94	63.19
531.11	51.49
531.28	107.66
531.46	145.11
531.63	60.85
531.80	107.66
531.97	91.28
532.14	95.96
532.31	117.03
532.48	107.66
532.65	98.30
532.82	124.05
532.99	32.77
533.16	88.94
533.33	105.32
533.50	147.45
533.67	105.32
533.84	110.01
534.01	110.01
534.18	79.58
534.35	44.47
534.52	95.96
534.69	42.13
534.86	72.56
535.03	110.01
535.20	93.62
535.37	117.03
535.54	91.28
535.71	140.43
535.88	14.04
536.05	49.15
536.22	84.26
536.38	140.43
536.55	138.09
536.72	91.28
536.89	74.90
537.06	88.94
537.23	126.39
537.40	60.85
537.57	91.28
537.74	56.17
537.91	58.51
538.08	93.62
538.25	79.58
538.42	149.79
538.59	70.22
538.75	86.60
538.92	198.95
539.09	98.30
539.26	77.24
539.43	128.73
539.60	107.66
539.77	74.90
539.94	81.92
540.11	133.41
540.28	133.41
540.44	84.26
540.61	138.09
540.78	53.83
540.95	107.66
541.12	72.56
541.29	105.32
541.46	84.26
541.62	124.05
541.79	70.22
541.96	84.26
542.13	81.92
542.30	74.90
542.47	30.43
542.63	114.69
542.80	91.28
542.97	77.24
543.14	102.98
543.31	105.32
543.48	110.01
543.64	53.83
543.81	84.26
543.98	119.37
544.15	91.28
544.32	81.92
544.48	105.32
544.65	105.32
544.82	121.71
544.99	77.24
545.16	135.75
545.32	77.24
545.49	77.24
545.66	70.22
545.83	11.70
546.00	81.92
546.16	121.71
546.33	77.24
546.50	63.19
546.67	77.24
546.83	133.41
547.00	98.30
547.17	58.51
547.34	77.24
547.50	51.49
547.67	39.79
547.84	39.79
548.00	102.98
548.17	131.07
548.34	93.62
548.51	67.88
548.67	51.49
548.84	180.22
549.01	91.28
549.18	131.07
549.34	49.15
549.51	74.90
549.68	110.01
549.84	9.36
550.01	65.54
550.18	110.01
550.34	58.51
550.51	88.94
550.68	128.73
550.84	53.83
551.01	117.03
551.18	60.85
551.34	65.54
551.51	107.66
551.68	72.56
551.84	93.62
552.01	44.47
552.18	30.43
552.34	72.56
552.51	58.51
552.68	67.88
552.84	102.98
553.01	72.56
553.18	84.26
553.34	32.77
553.51	98.30
553.67	28.09
553.84	72.56
554.01	110.01
554.17	39.79
554.34	102.98
554.51	100.64
554.67	23.41
554.84	93.62
555.00	21.06
555.17	60.85
555.33	140.43
555.50	124.05
555.67	77.24
555.83	152.13
556.00	102.98
556.16	140.43
556.33	131.07
556.50	105.32
556.66	72.56
556.83	86.60
556.99	72.56
557.16	72.56
557.32	0.00
557.49	70.22
557.65	131.07
557.82	135.75
557.98	77.24
558.15	100.64
558.32	140.43
558.48	105.32
558.65	93.62
558.81	84.26
558.98	44.47
559.14	100.64
559.31	93.62
559.47	9.36
559.64	117.03
559.80	147.45
559.97	81.92
560.13	51.49
560.30	16.38
560.46	105.32
560.63	35.11
560.79	58.51
560.96	77.24
561.12	58.51
561.29	140.43
561.45	128.73
561.61	65.54
561.78	65.54
561.94	67.88
562.11	49.15
562.27	84.26
562.44	53.83
562.60	51.49
562.77	105.32
562.93	81.92
563.10	126.39
563.26	161.50
563.42	39.79
563.59	86.60
563.75	65.54
563.92	100.64
564.08	23.41
564.24	133.41
564.41	53.83
564.57	88.94
564.74	117.03
564.90	128.73
565.07	114.69
565.23	58.51
565.39	145.11
565.56	121.71
565.72	46.81
565.88	65.54
566.05	107.66
566.21	65.54
566.38	107.66
566.54	46.81
566.70	32.77
566.87	25.75
567.03	53.83
567.19	91.28
567.36	21.06
567.52	107.66
567.68	102.98
567.85	128.73
568.01	131.07
568.17	37.45
568.34	44.47
568.50	119.37
568.66	74.90
568.83	93.62
568.99	81.92
569.15	114.69
569.32	93.62
569.48	60.85
569.64	119.37
569.81	95.96
569.97	30.43
570.13	91.28
570.30	35.11
570.46	28.09
570.62	44.47
570.78	105.32
570.95	67.88
571.11	23.41
571.27	81.92
571.43	72.56
571.60	119.37
571.76	79.58
571.92	77.24
572.09	86.60
572.25	121.71
572.41	98.30
572.57	77.24
572.74	53.83
572.90	93.62
573.06	72.56
573.22	117.03
573.38	112.35
573.55	2.34
573.71	63.19
573.87	154.48
574.03	79.58
574.20	147.45
574.36	56.17
574.52	91.28
574.68	60.85
574.84	65.54
575.01	110.01
575.17	100.64
575.33	145.11
575.49	128.73
575.65	77.24
575.82	72.56
575.98	30.43
576.14	112.35
576.30	114.69
576.46	114.69
576.62	35.11
576.79	114.69
576.95	107.66
577.11	42.13
577.27	46.81
577.43	133.41
577.59	95.96
577.75	112.35
577.92	16.38
578.08	77.24
578.24	93.62
578.40	93.62
578.56	44.47
578.72	16.38
578.88	149.79
579.04	46.81
579.21	18.72
579.37	81.92
579.53	79.58
579.69	30.43
579.85	60.85
580.01	100.64
580.17	95.96
580.33	65.54
580.49	77.24
580.65	88.94
580.82	51.49
580.98	105.32
581.14	42.13
581.30	44.47
581.46	4.68
581.62	84.26
581.78	70.22
581.94	35.11
582.10	39.79
582.26	98.30
582.42	95.96
582.58	67.88
582.74	93.62
582.90	149.79
583.06	65.54
583.22	9.36
583.38	7.02
583.54	93.62
583.70	131.07
583.86	53.83
584.02	117.03
584.18	84.26
584.34	72.56
584.50	65.54
584.66	84.26
584.82	121.71
584.98	140.43
585.14	46.81
585.30	74.90
585.46	67.88
585.62	32.77
585.78	79.58
585.94	145.11
586.10	91.28
586.26	67.88
586.42	67.88
586.58	18.72
586.74	35.11
586.90	81.92
587.06	117.03
587.22	42.13
587.38	131.07
587.54	102.98
587.70	37.45
587.86	102.98
588.02	23.41
588.18	91.28
588.34	18.72
588.49	67.88
588.65	93.62
588.81	84.26
588.97	105.32
589.13	126.39
589.29	0.00
589.45	110.01
589.61	121.71
589.77	91.28
589.93	16.38
590.08	49.15
590.24	0.00
590.40	37.45
590.56	21.06
590.72	135.75
590.88	46.81
591.04	44.47
591.20	128.73
591.35	0.00
591.51	100.64
591.67	53.83
591.83	81.92
591.99	32.77
592.15	0.00
592.31	114.69
592.46	79.58
592.62	86.60
592.78	131.07
592.94	21.06
593.10	138.09
593.26	117.03
593.41	88.94
593.57	95.96
593.73	133.41
593.89	86.60
594.05	145.11
594.20	51.49
594.36	49.15
594.52	60.85
594.68	74.90
594.84	124.05
594.99	58.51
595.15	58.51
595.31	88.94
595.47	44.47
595.62	11.70
595.78	84.26
595.94	63.19
596.10	14.04
596.25	42.13
596.41	25.75
596.57	42.13
596.73	72.56
596.88	74.90
597.04	58.51
597.20	14.04
597.36	7.02
597.51	86.60
597.67	63.19
597.83	117.03
597.99	107.66
598.14	63.19
598.30	11.70
598.46	77.24
598.61	7.02
598.77	30.43
598.93	0.00
599.09	126.39
599.24	23.41
599.40	74.90
599.56	88.94
599.71	102.98
599.87	63.19
600.03	42.13
600.18	86.60
600.34	93.62
600.50	98.30
600.65	30.43
600.81	0.00
600.97	77.24
601.12	0.00
601.28	86.60
601.44	65.54
601.59	0.00
601.75	67.88
601.91	16.38
602.06	84.26
602.22	81.92
602.37	58.51
602.53	53.83
602.69	18.72
602.84	107.66
603.00	91.28
603.16	161.50
603.31	154.48
603.47	46.81
603.62	63.19
603.78	102.98
603.94	88.94
604.09	86.60
604.25	114.69
604.40	114.69
604.56	131.07
604.71	72.56
604.87	56.17
605.03	72.56
605.18	117.03
605.34	23.41
605.49	81.92
605.65	37.45
605.80	98.30
605.96	28.09
606.12	42.13
606.27	100.64
606.43	100.64
606.58	81.92
606.74	32.77
606.89	107.66
607.05	60.85
607.20	0.00
607.36	70.22
607.51	49.15
607.67	32.77
607.82	60.85
607.98	56.17
608.13	32.77
608.29	58.51
608.44	32.77
608.60	70.22
608.75	77.24
608.91	28.09
609.06	37.45
609.22	39.79
609.37	95.96
609.53	98.30
609.68	51.49
609.84	51.49
609.99	65.54
610.15	0.00
610.30	74.90
610.46	70.22
610.61	58.51
610.76	56.17
610.92	37.45
611.07	58.51
611.23	58.51
611.38	79.58
611.54	126.39
611.69	112.35
611.84	79.58
612.00	102.98
612.15	126.39
612.31	0.00
612.46	119.37
612.62	88.94
612.77	56.17
612.92	79.58
613.08	65.54
613.23	98.30
613.39	63.19
613.54	124.05
613.69	11.70
613.85	53.83
614.00	119.37
614.15	65.54
614.31	21.06
614.46	65.54
614.62	93.62
614.77	44.47
614.92	37.45
615.08	46.81
615.23	25.75
615.38	81.92
615.54	37.45
615.69	72.56
615.84	105.32
616.00	95.96
616.15	16.38
616.30	79.58
616.46	72.56
616.61	58.51
616.76	79.58
616.92	30.43
617.07	128.73
617.22	84.26
617.37	53.83
617.53	65.54
617.68	105.32
617.83	98.30
617.99	98.30
618.14	35.11
618.29	117.03
618.45	117.03
618.60	79.58
618.75	30.43
618.90	65.54
619.06	102.98
619.21	37.45
619.36	32.77
619.51	18.72
619.67	42.13
619.82	72.56
619.97	105.32
620.12	56.17
620.28	145.11
620.43	44.47
620.58	56.17
620.73	98.30
620.89	93.62
621.04	46.81
621.19	32.77
621.34	58.51
621.49	37.45
621.65	79.58
621.80	102.98
621.95	39.79
622.10	53.83
622.25	100.64
622.41	30.43
622.56	21.06
622.71	53.83
622.86	79.58
623.01	114.69
623.16	121.71
623.32	51.49
623.47	95.96
623.62	21.06
623.77	88.94
623.92	30.43
624.07	32.77
624.23	70.22
624.38	110.01
624.53	35.11
624.68	95.96
624.83	133.41
624.98	88.94
625.13	0.00
625.29	30.43
625.44	91.28
625.59	18.72
625.74	91.28
625.89	86.60
626.04	51.49
626.19	51.49
626.34	67.88
626.49	35.11
626.65	51.49
626.80	42.13
626.95	30.43
627.10	28.09
627.25	65.54
627.40	23.41
627.55	14.04
627.70	28.09
627.85	63.19
628.00	4.68
628.15	65.54
628.30	0.00
628.45	58.51
628.60	112.35
628.76	93.62
628.91	74.90
629.06	93.62
629.21	74.90
629.36	56.17
629.51	142.77
629.66	77.24
629.81	72.56
629.96	51.49
630.11	49.15
630.26	79.58
630.41	65.54
630.56	56.17
630.71	42.13
630.86	0.00
631.01	51.49
631.16	0.00
631.31	60.85
631.46	72.56
631.61	35.11
631.76	81.92
631.91	51.49
632.06	53.83
632.21	23.41
632.36	72.56
632.51	51.49
632.66	49.15
632.81	88.94
632.96	77.24
633.10	201.29
633.25	44.47
633.40	18.72
633.55	4.68
633.70	65.54
633.85	100.64
634.00	81.92
634.15	70.22
634.30	79.58
634.45	105.32
634.60	49.15
634.75	65.54
634.90	124.05
635.05	46.81
635.19	140.43
635.34	126.39
635.49	72.56
635.64	79.58
635.79	67.88
635.94	28.09
636.09	32.77
636.24	74.90
636.39	110.01
636.53	65.54
636.68	79.58
636.83	77.24
636.98	119.37
637.13	98.30
637.28	84.26
637.43	32.77
637.57	67.88
637.72	98.30
637.87	140.43
638.02	67.88
638.17	105.32
638.32	79.58
638.46	56.17
638.61	35.11
638.76	21.06
638.91	93.62
639.06	11.70
639.20	126.39
639.35	91.28
639.50	81.92
639.65	91.28
639.80	114.69
639.94	11.70
640.09	107.66
640.24	30.43
640.39	88.94
640.54	77.24
640.68	0.00
640.83	95.96
640.98	49.15
641.13	35.11
641.27	21.06
641.42	79.58
641.57	37.45
641.72	84.26
641.86	25.75
642.01	95.96
642.16	16.38
642.31	14.04
642.45	51.49
642.60	100.64
642.75	46.81
642.90	88.94
643.04	35.11
643.19	67.88
643.34	53.83
643.48	49.15
643.63	28.09
643.78	98.30
643.93	86.60
644.07	67.88
644.22	4.68
644.37	16.38
644.51	21.06
644.66	25.75
644.81	0.00
644.95	0.00
645.10	0.00
645.25	67.88
645.39	37.45
645.54	44.47
645.69	170.86
645.83	88.94
645.98	149.79
646.13	21.06
646.27	81.92
646.42	58.51
646.57	28.09
646.71	56.17
646.86	133.41
647.00	81.92
647.15	44.47
647.30	11.70
647.44	74.90
647.59	11.70
647.74	46.81
647.88	0.00
648.03	110.01
648.17	49.15
648.32	60.85
648.47	65.54
648.61	93.62
648.76	95.96
648.90	58.51
649.05	102.98
649.20	46.81
649.34	84.26
649.49	67.88
649.63	28.09
649.78	60.85
649.92	84.26
650.07	93.62
650.21	37.45
650.36	79.58
650.51	4.68
650.65	65.54
650.80	124.05
650.94	42.13
651.09	4.68
651.23	98.30
651.38	37.45
651.52	77.24
651.67	0.00
651.81	21.06
651.96	16.38
652.10	58.51
652.25	14.04
652.39	56.17
652.54	25.75
652.68	51.49
652.83	53.83
652.97	0.00
653.12	88.94
653.26	28.09
653.41	9.36
653.55	44.47
653.70	93.62
653.84	86.60
653.99	28.09
654.13	102.98
654.27	112.35
654.42	0.00
654.56	51.49
654.71	0.00
654.85	28.09
655.00	0.00
655.14	72.56
655.29	14.04
655.43	49.15
655.57	72.56
655.72	0.00
655.86	133.41
656.01	11.70
656.15	58.51
656.30	44.47
656.44	30.43
656.58	9.36
656.73	53.83
656.87	7.02
657.01	98.30
657.16	93.62
657.30	72.56
657.45	37.45
657.59	91.28
657.73	44.47
657.88	131.07
658.02	91.28
658.16	100.64
658.31	30.43
658.45	4.68
658.60	117.03
658.74	49.15
658.88	56.17
659.03	23.41
659.17	65.54
659.31	46.81
659.46	51.49
659.60	100.64
659.74	58.51
659.89	42.13
660.03	7.02
660.17	0.00
660.32	91.28
660.46	56.17
660.60	56.17
660.74	58.51
660.89	46.81
661.03	86.60
661.17	145.11
661.32	84.26
661.46	21.06
661.60	44.47
661.74	14.04
661.89	42.13
662.03	14.04
662.17	44.47
662.31	28.09
662.46	46.81
662.60	39.79
662.74	11.70
662.88	58.51
663.03	124.05
663.17	53.83
663.31	53.83
663.45	70.22
663.60	77.24
663.74	86.60
663.88	0.00
664.02	30.43
664.17	63.19
664.31	23.41
664.45	21.06
664.59	42.13
664.73	110.01
664.88	11.70
665.02	70.22
665.16	49.15
665.30	9.36
665.44	44.47
665.59	46.81
665.73	53.83
665.87	9.36
666.01	79.58
666.15	114.69
666.29	21.06
666.44	74.90
666.58	58.51
666.72	98.30
666.86	35.11
667.00	7.02
667.14	23.41
667.28	140.43
667.43	53.83
667.57	79.58
667.71	30.43
667.85	0.00
667.99	79.58
668.13	142.77
668.27	0.00
668.41	100.64
668.56	56.17
668.70	44.47
668.84	14.04
668.98	93.62
669.12	86.60
669.26	67.88
669.40	32.77
669.54	88.94
669.68	4.68
669.82	70.22
669.96	37.45
670.10	0.00
670.25	35.11
670.39	35.11
670.53	46.81
670.67	49.15
670.81	18.72
670.95	0.00
671.09	25.75
671.23	63.19
671.37	67.88
671.51	37.45
671.65	58.51
671.79	70.22
671.93	0.00
672.07	16.38
672.21	86.60
672.35	110.01
672.49	16.38
672.63	98.30
672.77	70.22
672.91	37.45
673.05	56.17
673.19	39.79
673.33	79.58
673.47	51.49
673.61	77.24
673.75	65.54
673.89	79.58
674.03	7.02
674.17	0.00
674.31	88.94
674.45	65.54
674.59	84.26
674.73	32.77
674.87	135.75
675.01	86.60
675.15	14.04
675.29	84.26
675.43	56.17
675.56	79.58
675.70	102.98
675.84	42.13
675.98	86.60
676.12	100.64
676.26	93.62
676.40	51.49
676.54	0.00
676.68	21.06
676.82	49.15
676.96	49.15
677.10	46.81
677.23	35.11
677.37	14.04
677.51	44.47
677.65	7.02
677.79	28.09
677.93	11.70
678.07	86.60
678.21	0.00
678.34	0.00
678.48	46.81
678.62	91.28
678.76	126.39
678.90	0.00
679.04	51.49
679.18	37.45
679.31	0.00
679.45	53.83
679.59	107.66
679.73	42.13
679.87	56.17
680.00	65.54
680.14	63.19
680.28	28.09
680.42	30.43
680.56	11.70
680.70	44.47
680.83	81.92
680.97	74.90
681.11	37.45
681.25	74.90
681.39	105.32
681.52	95.96
681.66	49.15
681.80	46.81
681.94	124.05
682.07	18.72
682.21	53.83
682.35	18.72
682.49	30.43
682.62	65.54
682.76	114.69
682.90	0.00
683.04	110.01
683.17	51.49
683.31	79.58
683.45	39.79
683.59	0.00
683.72	49.15
683.86	0.00
684.00	11.70
684.13	18.72
684.27	7.02
684.41	35.11
684.55	42.13
684.68	35.11
684.82	0.00
684.96	53.83
685.09	53.83
685.23	4.68
685.37	32.77
685.50	30.43
685.64	0.00
685.78	42.13
685.91	58.51
686.05	84.26
686.19	84.26
686.32	46.81
686.46	32.77
686.60	23.41
686.73	112.35
686.87	2.34
687.01	56.17
687.14	53.83
687.28	23.41
687.42	30.43
687.55	53.83
687.69	39.79
687.82	53.83
687.96	100.64
688.10	2.34
688.23	14.04
688.37	9.36
688.50	65.54
688.64	147.45
688.78	23.41
688.91	14.04
689.05	86.60
689.18	58.51
689.32	30.43
689.46	88.94
689.59	72.56
689.73	0.00
689.86	9.36
690.00	0.00
690.13	18.72
690.27	35.11
690.41	0.00
690.54	128.73
690.68	74.90
690.81	51.49
690.95	46.81
691.08	32.77
691.22	0.00
691.35	95.96
691.49	51.49
691.62	30.43
691.76	25.75
691.89	0.00
692.03	42.13
692.16	30.43
692.30	0.00
692.43	53.83
692.57	0.00
692.70	28.09
692.84	67.88
692.97	95.96
693.11	25.75
693.24	7.02
693.38	0.00
693.51	46.81
693.65	14.04
693.78	9.36
693.92	30.43
694.05	30.43
694.19	21.06
694.32	105.32
694.45	11.70
694.59	21.06
694.72	32.77
694.86	37.45
694.99	77.24
695.13	11.70
695.26	63.19
695.39	0.00
695.53	28.09
695.66	0.00
695.80	67.88
695.93	28.09
696.07	65.54
696.20	28.09
696.33	16.38
696.47	56.17
696.60	30.43
696.73	32.77
696.87	56.17
697.00	18.72
697.14	0.00
697.27	21.06
697.40	0.00
697.54	21.06
697.67	119.37
697.80	86.60
697.94	14.04
698.07	4.68
698.21	0.00
698.34	7.02
698.47	42.13
698.61	102.98
698.74	14.04
698.87	91.28
699.01	4.68
699.14	70.22
699.27	0.00
699.40	4.68
699.54	37.45
699.67	9.36
699.80	16.38
699.94	14.04
700.07	74.90
700.20	9.36
700.34	4.68
700.47	110.01
700.60	79.58
700.73	65.54
700.87	53.83
701.00	39.79
701.13	37.45
701.26	16.38
701.40	9.36
701.53	14.04
701.66	0.00
701.79	49.15
701.93	49.15
702.06	35.11
702.19	0.00
702.32	67.88
702.46	49.15
702.59	67.88
702.72	63.19
702.85	11.70
702.99	102.98
703.12	23.41
703.25	0.00
703.38	0.00
703.51	25.75
703.65	9.36
703.78	60.85
703.91	46.81
704.04	102.98
704.17	65.54
704.31	60.85
704.44	49.15
704.57	25.75
704.70	53.83
704.83	42.13
704.96	0.00
705.10	72.56
705.23	60.85
>>>>>End Processed Spectral Data<<<<<
