SpectraSuite Data File
++++++++++++++++++++++++++++++++++++
Date: Fri Oct 04 12:13:44 GMT-05:00 2013
User: price-jones
Dark Spectrum Present: No
Reference Spectrum Present: No
Number of Sampled Component Spectra: 1
Spectrometers: USB2+H05261
Integration Time (usec): 10000 (USB2+H05261)
Spectra Averaged: 1 (USB2+H05261)
Boxcar Smoothing: 0 (USB2+H05261)
Correct for Electrical Dark: No (USB2+H05261)
Strobe/Lamp Enabled: No (USB2+H05261)
Correct for Detector Non-linearity: No (USB2+H05261)
Correct for Stray Light: No (USB2+H05261)
Number of Pixels in Processed Spectrum: 2048
>>>>>Begin Processed Spectral Data<<<<<
365.73	9.36
365.92	9.36
366.12	9.36
366.32	0.00
366.52	0.00
366.72	0.00
366.91	0.00
367.11	0.00
367.31	0.00
367.51	0.00
367.70	0.00
367.90	0.00
368.10	0.00
368.30	0.00
368.49	0.00
368.69	0.00
368.89	0.00
369.09	0.00
369.28	0.00
369.48	0.00
369.68	0.00
369.87	0.00
370.07	0.00
370.27	0.00
370.47	0.00
370.66	0.00
370.86	0.00
371.06	0.00
371.25	0.00
371.45	0.00
371.65	0.00
371.84	0.00
372.04	0.00
372.24	53.83
372.44	25.75
372.63	0.00
372.83	2.34
373.03	0.00
373.22	86.60
373.42	23.41
373.62	46.81
373.81	42.13
374.01	0.00
374.21	79.58
374.40	72.56
374.60	63.19
374.79	25.75
374.99	46.81
375.19	105.32
375.38	0.00
375.58	81.92
375.78	42.13
375.97	65.54
376.17	0.00
376.37	23.41
376.56	56.17
376.76	56.17
376.95	25.75
377.15	53.83
377.35	46.81
377.54	58.51
377.74	30.43
377.93	49.15
378.13	30.43
378.33	84.26
378.52	4.68
378.72	4.68
378.91	81.92
379.11	7.02
379.31	0.00
379.50	16.38
379.70	93.62
379.89	4.68
380.09	23.41
380.28	74.90
380.48	67.88
380.68	46.81
380.87	32.77
381.07	0.00
381.26	46.81
381.46	37.45
381.65	0.00
381.85	0.00
382.04	88.94
382.24	39.79
382.43	65.54
382.63	28.09
382.83	72.56
383.02	65.54
383.22	0.00
383.41	117.03
383.61	58.51
383.80	18.72
384.00	91.28
384.19	14.04
384.39	0.00
384.58	100.64
384.78	0.00
384.97	0.00
385.17	0.00
385.36	35.11
385.56	0.00
385.75	28.09
385.95	14.04
386.14	39.79
386.34	46.81
386.53	79.58
386.72	39.79
386.92	72.56
387.11	0.00
387.31	0.00
387.50	44.47
387.70	16.38
387.89	0.00
388.09	46.81
388.28	25.75
388.48	91.28
388.67	16.38
388.86	2.34
389.06	0.00
389.25	32.77
389.45	0.00
389.64	53.83
389.84	0.00
390.03	60.85
390.22	39.79
390.42	56.17
390.61	9.36
390.81	0.00
391.00	9.36
391.19	56.17
391.39	0.00
391.58	0.00
391.78	18.72
391.97	88.94
392.16	32.77
392.36	0.00
392.55	0.00
392.75	65.54
392.94	67.88
393.13	44.47
393.33	88.94
393.52	0.00
393.71	72.56
393.91	56.17
394.10	25.75
394.29	0.00
394.49	39.79
394.68	39.79
394.88	124.05
395.07	14.04
395.26	21.06
395.46	25.75
395.65	7.02
395.84	63.19
396.04	0.00
396.23	0.00
396.42	16.38
396.62	28.09
396.81	18.72
397.00	0.00
397.19	63.19
397.39	0.00
397.58	25.75
397.77	60.85
397.97	7.02
398.16	60.85
398.35	95.96
398.55	2.34
398.74	81.92
398.93	49.15
399.12	0.00
399.32	32.77
399.51	44.47
399.70	44.47
399.90	58.51
400.09	42.13
400.28	7.02
400.47	110.01
400.67	84.26
400.86	25.75
401.05	51.49
401.24	25.75
401.44	79.58
401.63	32.77
401.82	37.45
402.01	0.00
402.21	56.17
402.40	4.68
402.59	0.00
402.78	23.41
402.97	100.64
403.17	44.47
403.36	9.36
403.55	42.13
403.74	0.00
403.93	58.51
404.13	86.60
404.32	51.49
404.51	56.17
404.70	42.13
404.89	53.83
405.09	65.54
405.28	44.47
405.47	53.83
405.66	58.51
405.85	84.26
406.05	51.49
406.24	88.94
406.43	39.79
406.62	95.96
406.81	126.39
407.00	81.92
407.20	25.75
407.39	79.58
407.58	0.00
407.77	32.77
407.96	0.00
408.15	67.88
408.34	51.49
408.54	32.77
408.73	0.00
408.92	0.00
409.11	86.60
409.30	49.15
409.49	32.77
409.68	23.41
409.87	72.56
410.07	0.00
410.26	44.47
410.45	0.00
410.64	18.72
410.83	16.38
411.02	51.49
411.21	81.92
411.40	21.06
411.59	39.79
411.78	9.36
411.98	0.00
412.17	44.47
412.36	53.83
412.55	86.60
412.74	0.00
412.93	49.15
413.12	28.09
413.31	56.17
413.50	23.41
413.69	93.62
413.88	114.69
414.07	25.75
414.26	86.60
414.45	63.19
414.64	84.26
414.83	42.13
415.02	9.36
415.22	51.49
415.41	14.04
415.60	0.00
415.79	84.26
415.98	30.43
416.17	4.68
416.36	18.72
416.55	86.60
416.74	56.17
416.93	110.01
417.12	21.06
417.31	0.00
417.50	18.72
417.69	51.49
417.88	51.49
418.07	28.09
418.26	32.77
418.45	9.36
418.64	0.00
418.83	51.49
419.02	35.11
419.21	81.92
419.39	16.38
419.58	51.49
419.77	2.34
419.96	28.09
420.15	88.94
420.34	88.94
420.53	39.79
420.72	0.00
420.91	77.24
421.10	65.54
421.29	39.79
421.48	124.05
421.67	7.02
421.86	49.15
422.05	11.70
422.24	95.96
422.43	39.79
422.61	37.45
422.80	39.79
422.99	98.30
423.18	14.04
423.37	95.96
423.56	35.11
423.75	67.88
423.94	32.77
424.13	72.56
424.32	0.00
424.50	18.72
424.69	72.56
424.88	49.15
425.07	25.75
425.26	49.15
425.45	53.83
425.64	18.72
425.83	0.00
426.01	46.81
426.20	0.00
426.39	0.00
426.58	0.00
426.77	16.38
426.96	65.54
427.15	28.09
427.33	67.88
427.52	67.88
427.71	42.13
427.90	18.72
428.09	67.88
428.28	0.00
428.46	30.43
428.65	25.75
428.84	81.92
429.03	21.06
429.22	81.92
429.40	35.11
429.59	51.49
429.78	21.06
429.97	63.19
430.16	14.04
430.34	21.06
430.53	32.77
430.72	88.94
430.91	25.75
431.10	86.60
431.28	0.00
431.47	28.09
431.66	81.92
431.85	28.09
432.03	84.26
432.22	53.83
432.41	0.00
432.60	58.51
432.79	14.04
432.97	91.28
433.16	4.68
433.35	44.47
433.54	7.02
433.72	14.04
433.91	56.17
434.10	0.00
434.28	49.15
434.47	9.36
434.66	28.09
434.85	56.17
435.03	65.54
435.22	91.28
435.41	53.83
435.59	0.00
435.78	46.81
435.97	65.54
436.16	32.77
436.34	42.13
436.53	58.51
436.72	88.94
436.90	32.77
437.09	30.43
437.28	88.94
437.46	133.41
437.65	53.83
437.84	58.51
438.02	72.56
438.21	2.34
438.40	25.75
438.58	51.49
438.77	65.54
438.96	37.45
439.14	0.00
439.33	30.43
439.52	14.04
439.70	46.81
439.89	39.79
440.08	14.04
440.26	4.68
440.45	63.19
440.63	9.36
440.82	77.24
441.01	37.45
441.19	51.49
441.38	21.06
441.57	46.81
441.75	39.79
441.94	30.43
442.12	9.36
442.31	95.96
442.50	0.00
442.68	25.75
442.87	2.34
443.05	60.85
443.24	25.75
443.43	56.17
443.61	42.13
443.80	105.32
443.98	77.24
444.17	63.19
444.35	88.94
444.54	0.00
444.73	14.04
444.91	65.54
445.10	58.51
445.28	65.54
445.47	21.06
445.65	51.49
445.84	35.11
446.02	93.62
446.21	63.19
446.39	0.00
446.58	77.24
446.77	84.26
446.95	11.70
447.14	2.34
447.32	51.49
447.51	42.13
447.69	37.45
447.88	9.36
448.06	84.26
448.25	7.02
448.43	0.00
448.62	131.07
448.80	51.49
448.99	102.98
449.17	32.77
449.36	39.79
449.54	60.85
449.73	60.85
449.91	56.17
450.10	0.00
450.28	72.56
450.46	39.79
450.65	84.26
450.83	81.92
451.02	63.19
451.20	46.81
451.39	70.22
451.57	63.19
451.76	70.22
451.94	39.79
452.13	53.83
452.31	72.56
452.49	72.56
452.68	42.13
452.86	100.64
453.05	121.71
453.23	100.64
453.42	65.54
453.60	81.92
453.78	58.51
453.97	23.41
454.15	67.88
454.34	63.19
454.52	56.17
454.70	0.00
454.89	11.70
455.07	18.72
455.26	63.19
455.44	88.94
455.62	81.92
455.81	18.72
455.99	0.00
456.17	81.92
456.36	65.54
456.54	51.49
456.73	0.00
456.91	74.90
457.09	46.81
457.28	0.00
457.46	0.00
457.64	32.77
457.83	105.32
458.01	30.43
458.19	56.17
458.38	11.70
458.56	91.28
458.74	70.22
458.93	88.94
459.11	14.04
459.29	0.00
459.48	102.98
459.66	53.83
459.84	0.00
460.03	0.00
460.21	16.38
460.39	0.00
460.57	0.00
460.76	53.83
460.94	70.22
461.12	23.41
461.31	0.00
461.49	28.09
461.67	60.85
461.85	107.66
462.04	53.83
462.22	67.88
462.40	65.54
462.59	67.88
462.77	30.43
462.95	9.36
463.13	35.11
463.32	81.92
463.50	30.43
463.68	2.34
463.86	35.11
464.05	74.90
464.23	140.43
464.41	11.70
464.59	79.58
464.78	70.22
464.96	0.00
465.14	51.49
465.32	86.60
465.50	0.00
465.69	25.75
465.87	77.24
466.05	77.24
466.23	49.15
466.41	0.00
466.60	77.24
466.78	72.56
466.96	49.15
467.14	46.81
467.32	126.39
467.51	121.71
467.69	88.94
467.87	39.79
468.05	65.54
468.23	74.90
468.41	88.94
468.60	14.04
468.78	60.85
468.96	56.17
469.14	53.83
469.32	11.70
469.50	84.26
469.69	46.81
469.87	124.05
470.05	72.56
470.23	39.79
470.41	51.49
470.59	39.79
470.77	74.90
470.95	49.15
471.14	84.26
471.32	0.00
471.50	0.00
471.68	95.96
471.86	60.85
472.04	21.06
472.22	70.22
472.40	42.13
472.58	86.60
472.77	65.54
472.95	149.79
473.13	100.64
473.31	0.00
473.49	42.13
473.67	77.24
473.85	44.47
474.03	58.51
474.21	63.19
474.39	91.28
474.57	138.09
474.75	37.45
474.93	51.49
475.12	39.79
475.30	46.81
475.48	72.56
475.66	60.85
475.84	0.00
476.02	70.22
476.20	77.24
476.38	79.58
476.56	72.56
476.74	39.79
476.92	37.45
477.10	56.17
477.28	56.17
477.46	9.36
477.64	35.11
477.82	51.49
478.00	100.64
478.18	98.30
478.36	42.13
478.54	14.04
478.72	98.30
478.90	0.00
479.08	86.60
479.26	23.41
479.44	56.17
479.62	18.72
479.80	16.38
479.98	23.41
480.16	79.58
480.34	95.96
480.52	58.51
480.70	70.22
480.88	56.17
481.06	0.00
481.24	107.66
481.41	37.45
481.59	18.72
481.77	28.09
481.95	79.58
482.13	79.58
482.31	74.90
482.49	121.71
482.67	42.13
482.85	74.90
483.03	44.47
483.21	84.26
483.39	2.34
483.57	117.03
483.74	18.72
483.92	74.90
484.10	39.79
484.28	21.06
484.46	0.00
484.64	67.88
484.82	51.49
485.00	58.51
485.18	25.75
485.35	86.60
485.53	67.88
485.71	42.13
485.89	86.60
486.07	60.85
486.25	39.79
486.43	21.06
486.61	88.94
486.78	84.26
486.96	72.56
487.14	77.24
487.32	0.00
487.50	37.45
487.68	67.88
487.85	56.17
488.03	35.11
488.21	77.24
488.39	117.03
488.57	70.22
488.75	70.22
488.92	51.49
489.10	74.90
489.28	88.94
489.46	25.75
489.64	107.66
489.81	0.00
489.99	49.15
490.17	49.15
490.35	46.81
490.53	4.68
490.70	30.43
490.88	70.22
491.06	65.54
491.24	56.17
491.41	93.62
491.59	44.47
491.77	79.58
491.95	72.56
492.13	51.49
492.30	74.90
492.48	32.77
492.66	56.17
492.84	91.28
493.01	0.00
493.19	42.13
493.37	37.45
493.54	51.49
493.72	53.83
493.90	42.13
494.08	145.11
494.25	100.64
494.43	84.26
494.61	30.43
494.79	81.92
494.96	56.17
495.14	86.60
495.32	65.54
495.49	0.00
495.67	42.13
495.85	28.09
496.02	49.15
496.20	56.17
496.38	114.69
496.55	105.32
496.73	74.90
496.91	77.24
497.09	72.56
497.26	86.60
497.44	51.49
497.62	0.00
497.79	30.43
497.97	77.24
498.14	23.41
498.32	84.26
498.50	51.49
498.67	95.96
498.85	91.28
499.03	93.62
499.20	56.17
499.38	81.92
499.56	25.75
499.73	81.92
499.91	32.77
500.08	56.17
500.26	0.00
500.44	60.85
500.61	77.24
500.79	86.60
500.97	9.36
501.14	39.79
501.32	81.92
501.49	112.35
501.67	88.94
501.84	65.54
502.02	42.13
502.20	124.05
502.37	119.37
502.55	60.85
502.72	4.68
502.90	58.51
503.07	154.48
503.25	102.98
503.43	58.51
503.60	98.30
503.78	39.79
503.95	102.98
504.13	58.51
504.30	91.28
504.48	110.01
504.65	81.92
504.83	107.66
505.01	135.75
505.18	88.94
505.36	74.90
505.53	86.60
505.71	49.15
505.88	124.05
506.06	102.98
506.23	72.56
506.41	86.60
506.58	128.73
506.76	135.75
506.93	60.85
507.11	154.48
507.28	126.39
507.46	100.64
507.63	42.13
507.81	81.92
507.98	86.60
508.16	93.62
508.33	72.56
508.50	81.92
508.68	46.81
508.85	84.26
509.03	49.15
509.20	7.02
509.38	63.19
509.55	65.54
509.73	102.98
509.90	98.30
510.08	142.77
510.25	77.24
510.42	23.41
510.60	4.68
510.77	28.09
510.95	44.47
511.12	95.96
511.30	110.01
511.47	110.01
511.64	95.96
511.82	98.30
511.99	86.60
512.17	0.00
512.34	88.94
512.51	77.24
512.69	53.83
512.86	107.66
513.04	60.85
513.21	128.73
513.38	67.88
513.56	95.96
513.73	93.62
513.90	63.19
514.08	60.85
514.25	91.28
514.43	93.62
514.60	81.92
514.77	126.39
514.95	16.38
515.12	37.45
515.29	126.39
515.47	100.64
515.64	81.92
515.81	102.98
515.99	30.43
516.16	95.96
516.33	86.60
516.51	0.00
516.68	107.66
516.85	35.11
517.03	67.88
517.20	32.77
517.37	77.24
517.54	163.84
517.72	65.54
517.89	25.75
518.06	72.56
518.24	28.09
518.41	51.49
518.58	74.90
518.75	91.28
518.93	46.81
519.10	95.96
519.27	131.07
519.45	0.00
519.62	51.49
519.79	140.43
519.96	91.28
520.14	100.64
520.31	28.09
520.48	0.00
520.65	84.26
520.83	86.60
521.00	128.73
521.17	60.85
521.34	42.13
521.52	67.88
521.69	117.03
521.86	84.26
522.03	63.19
522.20	86.60
522.38	7.02
522.55	53.83
522.72	117.03
522.89	60.85
523.07	30.43
523.24	70.22
523.41	95.96
523.58	72.56
523.75	102.98
523.92	138.09
524.10	121.71
524.27	93.62
524.44	117.03
524.61	70.22
524.78	53.83
524.96	93.62
525.13	56.17
525.30	42.13
525.47	63.19
525.64	79.58
525.81	110.01
525.98	126.39
526.16	135.75
526.33	88.94
526.50	100.64
526.67	86.60
526.84	42.13
527.01	117.03
527.18	84.26
527.36	16.38
527.53	114.69
527.70	72.56
527.87	100.64
528.04	117.03
528.21	98.30
528.38	14.04
528.55	21.06
528.72	110.01
528.89	4.68
529.07	72.56
529.24	35.11
529.41	46.81
529.58	65.54
529.75	72.56
529.92	77.24
530.09	77.24
530.26	140.43
530.43	70.22
530.60	46.81
530.77	67.88
530.94	86.60
531.11	93.62
531.28	58.51
531.46	21.06
531.63	107.66
531.80	44.47
531.97	37.45
532.14	95.96
532.31	49.15
532.48	63.19
532.65	140.43
532.82	53.83
532.99	0.00
533.16	51.49
533.33	67.88
533.50	102.98
533.67	53.83
533.84	77.24
534.01	110.01
534.18	135.75
534.35	131.07
534.52	117.03
534.69	23.41
534.86	81.92
535.03	119.37
535.20	51.49
535.37	93.62
535.54	110.01
535.71	56.17
535.88	98.30
536.05	88.94
536.22	72.56
536.38	46.81
536.55	56.17
536.72	84.26
536.89	32.77
537.06	35.11
537.23	56.17
537.40	35.11
537.57	56.17
537.74	63.19
537.91	28.09
538.08	95.96
538.25	93.62
538.42	117.03
538.59	102.98
538.75	112.35
538.92	81.92
539.09	65.54
539.26	102.98
539.43	126.39
539.60	65.54
539.77	72.56
539.94	140.43
540.11	74.90
540.28	128.73
540.44	37.45
540.61	74.90
540.78	0.00
540.95	124.05
541.12	49.15
541.29	98.30
541.46	98.30
541.62	21.06
541.79	107.66
541.96	105.32
542.13	161.50
542.30	51.49
542.47	93.62
542.63	46.81
542.80	70.22
542.97	93.62
543.14	65.54
543.31	72.56
543.48	72.56
543.64	60.85
543.81	37.45
543.98	124.05
544.15	53.83
544.32	63.19
544.48	105.32
544.65	49.15
544.82	110.01
544.99	81.92
545.16	56.17
545.32	88.94
545.49	121.71
545.66	93.62
545.83	93.62
546.00	42.13
546.16	30.43
546.33	0.00
546.50	93.62
546.67	88.94
546.83	77.24
547.00	0.00
547.17	114.69
547.34	58.51
547.50	56.17
547.67	131.07
547.84	112.35
548.00	72.56
548.17	39.79
548.34	170.86
548.51	60.85
548.67	98.30
548.84	74.90
549.01	46.81
549.18	84.26
549.34	93.62
549.51	37.45
549.68	46.81
549.84	119.37
550.01	100.64
550.18	110.01
550.34	102.98
550.51	84.26
550.68	56.17
550.84	65.54
551.01	56.17
551.18	88.94
551.34	53.83
551.51	112.35
551.68	124.05
551.84	42.13
552.01	110.01
552.18	74.90
552.34	77.24
552.51	42.13
552.68	93.62
552.84	126.39
553.01	72.56
553.18	74.90
553.34	102.98
553.51	105.32
553.67	84.26
553.84	37.45
554.01	100.64
554.17	91.28
554.34	98.30
554.51	53.83
554.67	77.24
554.84	98.30
555.00	110.01
555.17	70.22
555.33	30.43
555.50	60.85
555.67	95.96
555.83	28.09
556.00	112.35
556.16	110.01
556.33	46.81
556.50	56.17
556.66	86.60
556.83	102.98
556.99	42.13
557.16	56.17
557.32	124.05
557.49	161.50
557.65	23.41
557.82	56.17
557.98	112.35
558.15	63.19
558.32	110.01
558.48	102.98
558.65	63.19
558.81	42.13
558.98	72.56
559.14	88.94
559.31	39.79
559.47	119.37
559.64	28.09
559.80	91.28
559.97	39.79
560.13	74.90
560.30	74.90
560.46	56.17
560.63	86.60
560.79	39.79
560.96	60.85
561.12	67.88
561.29	70.22
561.45	37.45
561.61	93.62
561.78	135.75
561.94	131.07
562.11	77.24
562.27	70.22
562.44	74.90
562.60	35.11
562.77	114.69
562.93	35.11
563.10	117.03
563.26	44.47
563.42	77.24
563.59	67.88
563.75	81.92
563.92	138.09
564.08	72.56
564.24	37.45
564.41	114.69
564.57	60.85
564.74	138.09
564.90	128.73
565.07	46.81
565.23	56.17
565.39	84.26
565.56	133.41
565.72	70.22
565.88	58.51
566.05	70.22
566.21	65.54
566.38	126.39
566.54	56.17
566.70	86.60
566.87	32.77
567.03	70.22
567.19	88.94
567.36	74.90
567.52	95.96
567.68	91.28
567.85	65.54
568.01	39.79
568.17	0.00
568.34	42.13
568.50	63.19
568.66	79.58
568.83	84.26
568.99	39.79
569.15	140.43
569.32	30.43
569.48	39.79
569.64	86.60
569.81	58.51
569.97	44.47
570.13	100.64
570.30	39.79
570.46	58.51
570.62	105.32
570.78	56.17
570.95	35.11
571.11	7.02
571.27	58.51
571.43	72.56
571.60	156.82
571.76	28.09
571.92	88.94
572.09	44.47
572.25	79.58
572.41	67.88
572.57	65.54
572.74	4.68
572.90	95.96
573.06	79.58
573.22	23.41
573.38	98.30
573.55	16.38
573.71	16.38
573.87	72.56
574.03	79.58
574.20	110.01
574.36	23.41
574.52	72.56
574.68	51.49
574.84	77.24
575.01	65.54
575.17	102.98
575.33	23.41
575.49	70.22
575.65	77.24
575.82	98.30
575.98	107.66
576.14	70.22
576.30	56.17
576.46	51.49
576.62	102.98
576.79	28.09
576.95	131.07
577.11	46.81
577.27	35.11
577.43	37.45
577.59	42.13
577.75	0.00
577.92	7.02
578.08	67.88
578.24	63.19
578.40	86.60
578.56	112.35
578.72	112.35
578.88	119.37
579.04	23.41
579.21	81.92
579.37	72.56
579.53	112.35
579.69	60.85
579.85	93.62
580.01	126.39
580.17	44.47
580.33	65.54
580.49	117.03
580.65	0.00
580.82	0.00
580.98	114.69
581.14	95.96
581.30	37.45
581.46	100.64
581.62	182.56
581.78	51.49
581.94	49.15
582.10	81.92
582.26	60.85
582.42	32.77
582.58	112.35
582.74	81.92
582.90	42.13
583.06	180.22
583.22	100.64
583.38	95.96
583.54	67.88
583.70	88.94
583.86	100.64
584.02	21.06
584.18	86.60
584.34	65.54
584.50	49.15
584.66	18.72
584.82	65.54
584.98	84.26
585.14	44.47
585.30	58.51
585.46	30.43
585.62	114.69
585.78	131.07
585.94	53.83
586.10	51.49
586.26	86.60
586.42	114.69
586.58	35.11
586.74	16.38
586.90	30.43
587.06	28.09
587.22	84.26
587.38	102.98
587.54	42.13
587.70	56.17
587.86	23.41
588.02	152.13
588.18	49.15
588.34	100.64
588.49	124.05
588.65	117.03
588.81	105.32
588.97	37.45
589.13	0.00
589.29	65.54
589.45	58.51
589.61	42.13
589.77	37.45
589.93	16.38
590.08	70.22
590.24	63.19
590.40	0.00
590.56	138.09
590.72	79.58
590.88	72.56
591.04	91.28
591.20	79.58
591.35	84.26
591.51	131.07
591.67	74.90
591.83	25.75
591.99	11.70
592.15	156.82
592.31	84.26
592.46	25.75
592.62	44.47
592.78	14.04
592.94	0.00
593.10	91.28
593.26	46.81
593.41	51.49
593.57	79.58
593.73	21.06
593.89	86.60
594.05	135.75
594.20	53.83
594.36	35.11
594.52	35.11
594.68	28.09
594.84	39.79
594.99	152.13
595.15	138.09
595.31	149.79
595.47	9.36
595.62	95.96
595.78	77.24
595.94	81.92
596.10	105.32
596.25	121.71
596.41	65.54
596.57	56.17
596.73	58.51
596.88	74.90
597.04	56.17
597.20	37.45
597.36	81.92
597.51	56.17
597.67	124.05
597.83	39.79
597.99	42.13
598.14	49.15
598.30	84.26
598.46	11.70
598.61	105.32
598.77	77.24
598.93	102.98
599.09	88.94
599.24	0.00
599.40	100.64
599.56	84.26
599.71	25.75
599.87	63.19
600.03	58.51
600.18	70.22
600.34	91.28
600.50	60.85
600.65	21.06
600.81	74.90
600.97	18.72
601.12	44.47
601.28	49.15
601.44	0.00
601.59	65.54
601.75	84.26
601.91	77.24
602.06	98.30
602.22	58.51
602.37	107.66
602.53	133.41
602.69	30.43
602.84	117.03
603.00	46.81
603.16	46.81
603.31	74.90
603.47	37.45
603.62	91.28
603.78	44.47
603.94	46.81
604.09	149.79
604.25	65.54
604.40	105.32
604.56	16.38
604.71	56.17
604.87	23.41
605.03	44.47
605.18	11.70
605.34	133.41
605.49	14.04
605.65	60.85
605.80	58.51
605.96	79.58
606.12	58.51
606.27	74.90
606.43	49.15
606.58	84.26
606.74	91.28
606.89	37.45
607.05	79.58
607.20	63.19
607.36	91.28
607.51	42.13
607.67	117.03
607.82	16.38
607.98	0.00
608.13	4.68
608.29	51.49
608.44	98.30
608.60	32.77
608.75	84.26
608.91	44.47
609.06	91.28
609.22	105.32
609.37	30.43
609.53	114.69
609.68	65.54
609.84	0.00
609.99	67.88
610.15	25.75
610.30	0.00
610.46	21.06
610.61	93.62
610.76	110.01
610.92	28.09
611.07	51.49
611.23	100.64
611.38	114.69
611.54	117.03
611.69	46.81
611.84	77.24
612.00	56.17
612.15	79.58
612.31	77.24
612.46	121.71
612.62	86.60
612.77	30.43
612.92	53.83
613.08	65.54
613.23	114.69
613.39	58.51
613.54	102.98
613.69	74.90
613.85	91.28
614.00	93.62
614.15	51.49
614.31	28.09
614.46	84.26
614.62	88.94
614.77	102.98
614.92	25.75
615.08	67.88
615.23	25.75
615.38	23.41
615.54	152.13
615.69	25.75
615.84	42.13
616.00	2.34
616.15	16.38
616.30	114.69
616.46	72.56
616.61	44.47
616.76	79.58
616.92	72.56
617.07	23.41
617.22	49.15
617.37	46.81
617.53	95.96
617.68	107.66
617.83	74.90
617.99	72.56
618.14	60.85
618.29	51.49
618.45	14.04
618.60	35.11
618.75	72.56
618.90	4.68
619.06	102.98
619.21	14.04
619.36	79.58
619.51	42.13
619.67	91.28
619.82	100.64
619.97	0.00
620.12	72.56
620.28	28.09
620.43	30.43
620.58	65.54
620.73	37.45
620.89	46.81
621.04	28.09
621.19	21.06
621.34	98.30
621.49	86.60
621.65	32.77
621.80	72.56
621.95	107.66
622.10	11.70
622.25	28.09
622.41	77.24
622.56	138.09
622.71	25.75
622.86	49.15
623.01	9.36
623.16	60.85
623.32	72.56
623.47	0.00
623.62	102.98
623.77	18.72
623.92	119.37
624.07	84.26
624.23	51.49
624.38	39.79
624.53	51.49
624.68	0.00
624.83	32.77
624.98	84.26
625.13	56.17
625.29	39.79
625.44	44.47
625.59	32.77
625.74	65.54
625.89	39.79
626.04	102.98
626.19	53.83
626.34	65.54
626.49	37.45
626.65	110.01
626.80	49.15
626.95	117.03
627.10	79.58
627.25	9.36
627.40	0.00
627.55	110.01
627.70	56.17
627.85	35.11
628.00	21.06
628.15	67.88
628.30	25.75
628.45	63.19
628.60	102.98
628.76	30.43
628.91	51.49
629.06	49.15
629.21	32.77
629.36	88.94
629.51	138.09
629.66	11.70
629.81	0.00
629.96	72.56
630.11	91.28
630.26	77.24
630.41	14.04
630.56	16.38
630.71	93.62
630.86	0.00
631.01	65.54
631.16	95.96
631.31	18.72
631.46	44.47
631.61	2.34
631.76	14.04
631.91	35.11
632.06	44.47
632.21	100.64
632.36	37.45
632.51	23.41
632.66	49.15
632.81	46.81
632.96	95.96
633.10	35.11
633.25	35.11
633.40	126.39
633.55	39.79
633.70	28.09
633.85	2.34
634.00	21.06
634.15	23.41
634.30	100.64
634.45	88.94
634.60	37.45
634.75	35.11
634.90	88.94
635.05	0.00
635.19	16.38
635.34	49.15
635.49	39.79
635.64	25.75
635.79	42.13
635.94	11.70
636.09	0.00
636.24	74.90
636.39	16.38
636.53	142.77
636.68	39.79
636.83	91.28
636.98	18.72
637.13	56.17
637.28	44.47
637.43	37.45
637.57	9.36
637.72	0.00
637.87	23.41
638.02	86.60
638.17	0.00
638.32	4.68
638.46	49.15
638.61	21.06
638.76	16.38
638.91	51.49
639.06	18.72
639.20	46.81
639.35	60.85
639.50	84.26
639.65	58.51
639.80	56.17
639.94	51.49
640.09	65.54
640.24	98.30
640.39	67.88
640.54	88.94
640.68	39.79
640.83	53.83
640.98	84.26
641.13	72.56
641.27	70.22
641.42	39.79
641.57	60.85
641.72	18.72
641.86	81.92
642.01	39.79
642.16	72.56
642.31	107.66
642.45	9.36
642.60	37.45
642.75	16.38
642.90	88.94
643.04	7.02
643.19	56.17
643.34	0.00
643.48	42.13
643.63	56.17
643.78	42.13
643.93	28.09
644.07	28.09
644.22	58.51
644.37	14.04
644.51	16.38
644.66	93.62
644.81	86.60
644.95	35.11
645.10	0.00
645.25	0.00
645.39	58.51
645.54	9.36
645.69	44.47
645.83	44.47
645.98	49.15
646.13	25.75
646.27	23.41
646.42	46.81
646.57	0.00
646.71	93.62
646.86	32.77
647.00	142.77
647.15	84.26
647.30	58.51
647.44	32.77
647.59	60.85
647.74	35.11
647.88	0.00
648.03	35.11
648.17	25.75
648.32	51.49
648.47	0.00
648.61	30.43
648.76	51.49
648.90	105.32
649.05	37.45
649.20	42.13
649.34	93.62
649.49	58.51
649.63	67.88
649.78	0.00
649.92	0.00
650.07	0.00
650.21	42.13
650.36	84.26
650.51	39.79
650.65	56.17
650.80	0.00
650.94	46.81
651.09	32.77
651.23	2.34
651.38	56.17
651.52	0.00
651.67	63.19
651.81	42.13
651.96	86.60
652.10	18.72
652.25	30.43
652.39	0.00
652.54	77.24
652.68	79.58
652.83	56.17
652.97	147.45
653.12	114.69
653.26	86.60
653.41	28.09
653.55	81.92
653.70	23.41
653.84	16.38
653.99	35.11
654.13	86.60
654.27	105.32
654.42	4.68
654.56	72.56
654.71	63.19
654.85	77.24
655.00	25.75
655.14	46.81
655.29	112.35
655.43	65.54
655.57	7.02
655.72	11.70
655.86	60.85
656.01	60.85
656.15	14.04
656.30	0.00
656.44	65.54
656.58	0.00
656.73	0.00
656.87	32.77
657.01	4.68
657.16	105.32
657.30	42.13
657.45	142.77
657.59	18.72
657.73	35.11
657.88	53.83
658.02	23.41
658.16	44.47
658.31	58.51
658.45	0.00
658.60	0.00
658.74	30.43
658.88	53.83
659.03	0.00
659.17	23.41
659.31	0.00
659.46	42.13
659.60	91.28
659.74	112.35
659.89	65.54
660.03	49.15
660.17	16.38
660.32	88.94
660.46	32.77
660.60	0.00
660.74	88.94
660.89	0.00
661.03	105.32
661.17	79.58
661.32	51.49
661.46	30.43
661.60	35.11
661.74	121.71
661.89	72.56
662.03	81.92
662.17	110.01
662.31	77.24
662.46	32.77
662.60	0.00
662.74	14.04
662.88	100.64
663.03	56.17
663.17	86.60
663.31	30.43
663.45	0.00
663.60	95.96
663.74	35.11
663.88	32.77
664.02	42.13
664.17	18.72
664.31	35.11
664.45	23.41
664.59	74.90
664.73	46.81
664.88	44.47
665.02	37.45
665.16	0.00
665.30	63.19
665.44	37.45
665.59	42.13
665.73	0.00
665.87	53.83
666.01	16.38
666.15	95.96
666.29	84.26
666.44	0.00
666.58	42.13
666.72	74.90
666.86	28.09
667.00	95.96
667.14	0.00
667.28	37.45
667.43	86.60
667.57	42.13
667.71	11.70
667.85	98.30
667.99	0.00
668.13	16.38
668.27	0.00
668.41	91.28
668.56	0.00
668.70	25.75
668.84	46.81
668.98	63.19
669.12	18.72
669.26	46.81
669.40	93.62
669.54	91.28
669.68	56.17
669.82	0.00
669.96	46.81
670.10	16.38
670.25	16.38
670.39	74.90
670.53	7.02
670.67	53.83
670.81	42.13
670.95	63.19
671.09	79.58
671.23	21.06
671.37	65.54
671.51	49.15
671.65	58.51
671.79	79.58
671.93	65.54
672.07	35.11
672.21	58.51
672.35	84.26
672.49	79.58
672.63	14.04
672.77	56.17
672.91	93.62
673.05	72.56
673.19	58.51
673.33	35.11
673.47	37.45
673.61	119.37
673.75	0.00
673.89	53.83
674.03	67.88
674.17	23.41
674.31	0.00
674.45	56.17
674.59	110.01
674.73	53.83
674.87	91.28
675.01	39.79
675.15	7.02
675.29	35.11
675.43	23.41
675.56	110.01
675.70	67.88
675.84	0.00
675.98	88.94
676.12	4.68
676.26	84.26
676.40	14.04
676.54	56.17
676.68	30.43
676.82	44.47
676.96	23.41
677.10	46.81
677.23	18.72
677.37	86.60
677.51	2.34
677.65	58.51
677.79	11.70
677.93	65.54
678.07	53.83
678.21	98.30
678.34	70.22
678.48	79.58
678.62	16.38
678.76	9.36
678.90	46.81
679.04	0.00
679.18	21.06
679.31	110.01
679.45	63.19
679.59	91.28
679.73	32.77
679.87	84.26
680.00	49.15
680.14	21.06
680.28	91.28
680.42	11.70
680.56	72.56
680.70	58.51
680.83	39.79
680.97	51.49
681.11	0.00
681.25	9.36
681.39	44.47
681.52	0.00
681.66	9.36
681.80	49.15
681.94	72.56
682.07	72.56
682.21	0.00
682.35	44.47
682.49	60.85
682.62	18.72
682.76	72.56
682.90	30.43
683.04	46.81
683.17	84.26
683.31	53.83
683.45	9.36
683.59	58.51
683.72	44.47
683.86	114.69
684.00	70.22
684.13	0.00
684.27	56.17
684.41	0.00
684.55	56.17
684.68	39.79
684.82	0.00
684.96	23.41
685.09	9.36
685.23	74.90
685.37	51.49
685.50	100.64
685.64	35.11
685.78	58.51
685.91	79.58
686.05	79.58
686.19	63.19
686.32	95.96
686.46	81.92
686.60	53.83
686.73	119.37
686.87	0.00
687.01	28.09
687.14	0.00
687.28	16.38
687.42	39.79
687.55	42.13
687.69	0.00
687.82	46.81
687.96	100.64
688.10	0.00
688.23	18.72
688.37	25.75
688.50	67.88
688.64	77.24
688.78	4.68
688.91	63.19
689.05	114.69
689.18	63.19
689.32	0.00
689.46	37.45
689.59	0.00
689.73	53.83
689.86	14.04
690.00	0.00
690.13	53.83
690.27	0.00
690.41	49.15
690.54	14.04
690.68	51.49
690.81	0.00
690.95	0.00
691.08	110.01
691.22	28.09
691.35	28.09
691.49	79.58
691.62	93.62
691.76	74.90
691.89	21.06
692.03	46.81
692.16	53.83
692.30	2.34
692.43	42.13
692.57	0.00
692.70	53.83
692.84	23.41
692.97	21.06
693.11	56.17
693.24	44.47
693.38	32.77
693.51	79.58
693.65	95.96
693.78	0.00
693.92	63.19
694.05	0.00
694.19	49.15
694.32	23.41
694.45	0.00
694.59	7.02
694.72	65.54
694.86	0.00
694.99	53.83
695.13	14.04
695.26	39.79
695.39	51.49
695.53	81.92
695.66	67.88
695.80	42.13
695.93	0.00
696.07	7.02
696.20	0.00
696.33	0.00
696.47	0.00
696.60	11.70
696.73	0.00
696.87	56.17
697.00	100.64
697.14	23.41
697.27	56.17
697.40	84.26
697.54	23.41
697.67	7.02
697.80	67.88
697.94	84.26
698.07	0.00
698.21	0.00
698.34	23.41
698.47	53.83
698.61	79.58
698.74	93.62
698.87	0.00
699.01	25.75
699.14	18.72
699.27	28.09
699.40	53.83
699.54	0.00
699.67	25.75
699.80	98.30
699.94	35.11
700.07	88.94
700.20	70.22
700.34	49.15
700.47	44.47
700.60	53.83
700.73	44.47
700.87	4.68
701.00	39.79
701.13	4.68
701.26	91.28
701.40	63.19
701.53	49.15
701.66	44.47
701.79	63.19
701.93	44.47
702.06	9.36
702.19	0.00
702.32	46.81
702.46	114.69
702.59	23.41
702.72	25.75
702.85	0.00
702.99	11.70
703.12	18.72
703.25	16.38
703.38	7.02
703.51	39.79
703.65	51.49
703.78	65.54
703.91	98.30
704.04	56.17
704.17	0.00
704.31	0.00
704.44	7.02
704.57	9.36
704.70	0.00
704.83	88.94
704.96	0.00
705.10	0.00
705.23	56.17
>>>>>End Processed Spectral Data<<<<<
