SpectraSuite Data File
++++++++++++++++++++++++++++++++++++
Date: Fri Oct 04 12:13:31 GMT-05:00 2013
User: price-jones
Dark Spectrum Present: No
Reference Spectrum Present: No
Number of Sampled Component Spectra: 1
Spectrometers: USB2+H05261
Integration Time (usec): 10000 (USB2+H05261)
Spectra Averaged: 1 (USB2+H05261)
Boxcar Smoothing: 0 (USB2+H05261)
Correct for Electrical Dark: No (USB2+H05261)
Strobe/Lamp Enabled: No (USB2+H05261)
Correct for Detector Non-linearity: No (USB2+H05261)
Correct for Stray Light: No (USB2+H05261)
Number of Pixels in Processed Spectrum: 2048
>>>>>Begin Processed Spectral Data<<<<<
365.73	0.00
365.92	0.00
366.12	0.00
366.32	0.00
366.52	0.00
366.72	0.00
366.91	0.00
367.11	0.00
367.31	0.00
367.51	0.00
367.70	0.00
367.90	0.00
368.10	0.00
368.30	0.00
368.49	0.00
368.69	0.00
368.89	0.00
369.09	0.00
369.28	0.00
369.48	0.00
369.68	0.00
369.87	0.00
370.07	0.00
370.27	0.00
370.47	0.00
370.66	0.00
370.86	0.00
371.06	0.00
371.25	0.00
371.45	0.00
371.65	0.00
371.84	25.75
372.04	0.00
372.24	0.00
372.44	28.09
372.63	21.06
372.83	63.19
373.03	21.06
373.22	14.04
373.42	2.34
373.62	53.83
373.81	37.45
374.01	56.17
374.21	21.06
374.40	35.11
374.60	49.15
374.79	2.34
374.99	25.75
375.19	0.00
375.38	44.47
375.58	16.38
375.78	63.19
375.97	42.13
376.17	23.41
376.37	23.41
376.56	16.38
376.76	32.77
376.95	32.77
377.15	35.11
377.35	44.47
377.54	16.38
377.74	46.81
377.93	0.00
378.13	49.15
378.33	0.00
378.52	37.45
378.72	11.70
378.91	0.00
379.11	0.00
379.31	28.09
379.50	74.90
379.70	0.00
379.89	11.70
380.09	9.36
380.28	11.70
380.48	0.00
380.68	7.02
380.87	32.77
381.07	0.00
381.26	0.00
381.46	0.00
381.65	65.54
381.85	0.00
382.04	25.75
382.24	0.00
382.43	44.47
382.63	7.02
382.83	46.81
383.02	0.00
383.22	9.36
383.41	9.36
383.61	124.05
383.80	0.00
384.00	32.77
384.19	0.00
384.39	7.02
384.58	46.81
384.78	0.00
384.97	0.00
385.17	14.04
385.36	28.09
385.56	23.41
385.75	23.41
385.95	30.43
386.14	0.00
386.34	2.34
386.53	28.09
386.72	0.00
386.92	0.00
387.11	0.00
387.31	0.00
387.50	0.00
387.70	30.43
387.89	81.92
388.09	0.00
388.28	0.00
388.48	0.00
388.67	0.00
388.86	44.47
389.06	23.41
389.25	0.00
389.45	28.09
389.64	21.06
389.84	44.47
390.03	0.00
390.22	4.68
390.42	0.00
390.61	2.34
390.81	67.88
391.00	23.41
391.19	53.83
391.39	42.13
391.58	0.00
391.78	4.68
391.97	7.02
392.16	32.77
392.36	58.51
392.55	67.88
392.75	11.70
392.94	0.00
393.13	0.00
393.33	0.00
393.52	0.00
393.71	58.51
393.91	42.13
394.10	46.81
394.29	37.45
394.49	74.90
394.68	46.81
394.88	0.00
395.07	7.02
395.26	0.00
395.46	25.75
395.65	98.30
395.84	0.00
396.04	0.00
396.23	39.79
396.42	0.00
396.62	58.51
396.81	30.43
397.00	21.06
397.19	0.00
397.39	0.00
397.58	98.30
397.77	65.54
397.97	0.00
398.16	23.41
398.35	58.51
398.55	70.22
398.74	37.45
398.93	2.34
399.12	72.56
399.32	32.77
399.51	14.04
399.70	9.36
399.90	0.00
400.09	46.81
400.28	49.15
400.47	18.72
400.67	44.47
400.86	25.75
401.05	51.49
401.24	0.00
401.44	84.26
401.63	100.64
401.82	46.81
402.01	18.72
402.21	35.11
402.40	70.22
402.59	7.02
402.78	4.68
402.97	81.92
403.17	0.00
403.36	0.00
403.55	11.70
403.74	107.66
403.93	32.77
404.13	0.00
404.32	0.00
404.51	0.00
404.70	37.45
404.89	37.45
405.09	39.79
405.28	74.90
405.47	42.13
405.66	0.00
405.85	11.70
406.05	37.45
406.24	30.43
406.43	72.56
406.62	7.02
406.81	58.51
407.00	0.00
407.20	72.56
407.39	18.72
407.58	0.00
407.77	70.22
407.96	35.11
408.15	133.41
408.34	4.68
408.54	74.90
408.73	23.41
408.92	9.36
409.11	37.45
409.30	0.00
409.49	11.70
409.68	0.00
409.87	44.47
410.07	0.00
410.26	7.02
410.45	0.00
410.64	16.38
410.83	21.06
411.02	0.00
411.21	28.09
411.40	44.47
411.59	0.00
411.78	53.83
411.98	46.81
412.17	9.36
412.36	4.68
412.55	0.00
412.74	0.00
412.93	0.00
413.12	44.47
413.31	25.75
413.50	72.56
413.69	14.04
413.88	135.75
414.07	72.56
414.26	0.00
414.45	49.15
414.64	32.77
414.83	0.00
415.02	14.04
415.22	0.00
415.41	65.54
415.60	49.15
415.79	21.06
415.98	7.02
416.17	21.06
416.36	0.00
416.55	0.00
416.74	46.81
416.93	18.72
417.12	42.13
417.31	51.49
417.50	0.00
417.69	88.94
417.88	30.43
418.07	2.34
418.26	9.36
418.45	102.98
418.64	100.64
418.83	30.43
419.02	37.45
419.21	70.22
419.39	0.00
419.58	0.00
419.77	0.00
419.96	65.54
420.15	32.77
420.34	32.77
420.53	0.00
420.72	0.00
420.91	23.41
421.10	2.34
421.29	32.77
421.48	32.77
421.67	9.36
421.86	91.28
422.05	100.64
422.24	42.13
422.43	42.13
422.61	2.34
422.80	51.49
422.99	30.43
423.18	16.38
423.37	65.54
423.56	56.17
423.75	32.77
423.94	2.34
424.13	49.15
424.32	4.68
424.50	74.90
424.69	0.00
424.88	11.70
425.07	39.79
425.26	2.34
425.45	0.00
425.64	0.00
425.83	21.06
426.01	46.81
426.20	28.09
426.39	18.72
426.58	0.00
426.77	35.11
426.96	53.83
427.15	14.04
427.33	51.49
427.52	0.00
427.71	37.45
427.90	32.77
428.09	49.15
428.28	0.00
428.46	4.68
428.65	42.13
428.84	72.56
429.03	72.56
429.22	11.70
429.40	16.38
429.59	11.70
429.78	7.02
429.97	42.13
430.16	74.90
430.34	18.72
430.53	42.13
430.72	39.79
430.91	79.58
431.10	23.41
431.28	72.56
431.47	35.11
431.66	56.17
431.85	39.79
432.03	84.26
432.22	60.85
432.41	74.90
432.60	35.11
432.79	11.70
432.97	7.02
433.16	72.56
433.35	44.47
433.54	0.00
433.72	65.54
433.91	0.00
434.10	70.22
434.28	9.36
434.47	0.00
434.66	74.90
434.85	0.00
435.03	35.11
435.22	0.00
435.41	25.75
435.59	72.56
435.78	65.54
435.97	32.77
436.16	39.79
436.34	0.00
436.53	7.02
436.72	65.54
436.90	93.62
437.09	11.70
437.28	91.28
437.46	32.77
437.65	32.77
437.84	79.58
438.02	23.41
438.21	39.79
438.40	51.49
438.58	49.15
438.77	39.79
438.96	46.81
439.14	21.06
439.33	11.70
439.52	37.45
439.70	46.81
439.89	88.94
440.08	0.00
440.26	70.22
440.45	105.32
440.63	23.41
440.82	42.13
441.01	0.00
441.19	72.56
441.38	18.72
441.57	2.34
441.75	72.56
441.94	0.00
442.12	25.75
442.31	0.00
442.50	18.72
442.68	56.17
442.87	79.58
443.05	9.36
443.24	74.90
443.43	0.00
443.61	0.00
443.80	42.13
443.98	44.47
444.17	0.00
444.35	98.30
444.54	58.51
444.73	70.22
444.91	46.81
445.10	74.90
445.28	44.47
445.47	9.36
445.65	30.43
445.84	51.49
446.02	53.83
446.21	0.00
446.39	56.17
446.58	32.77
446.77	44.47
446.95	0.00
447.14	72.56
447.32	0.00
447.51	35.11
447.69	49.15
447.88	0.00
448.06	51.49
448.25	0.00
448.43	0.00
448.62	4.68
448.80	7.02
448.99	28.09
449.17	11.70
449.36	39.79
449.54	4.68
449.73	0.00
449.91	53.83
450.10	70.22
450.28	67.88
450.46	0.00
450.65	30.43
450.83	9.36
451.02	7.02
451.20	39.79
451.39	30.43
451.57	79.58
451.76	0.00
451.94	30.43
452.13	30.43
452.31	56.17
452.49	2.34
452.68	65.54
452.86	0.00
453.05	67.88
453.23	18.72
453.42	74.90
453.60	23.41
453.78	0.00
453.97	0.00
454.15	42.13
454.34	77.24
454.52	30.43
454.70	11.70
454.89	9.36
455.07	65.54
455.26	49.15
455.44	81.92
455.62	51.49
455.81	42.13
455.99	28.09
456.17	37.45
456.36	70.22
456.54	21.06
456.73	21.06
456.91	21.06
457.09	35.11
457.28	7.02
457.46	9.36
457.64	21.06
457.83	37.45
458.01	44.47
458.19	25.75
458.38	0.00
458.56	35.11
458.74	44.47
458.93	65.54
459.11	35.11
459.29	0.00
459.48	32.77
459.66	91.28
459.84	0.00
460.03	0.00
460.21	46.81
460.39	18.72
460.57	0.00
460.76	72.56
460.94	0.00
461.12	46.81
461.31	37.45
461.49	16.38
461.67	74.90
461.85	49.15
462.04	95.96
462.22	70.22
462.40	35.11
462.59	84.26
462.77	0.00
462.95	65.54
463.13	37.45
463.32	56.17
463.50	72.56
463.68	0.00
463.86	0.00
464.05	0.00
464.23	14.04
464.41	23.41
464.59	0.00
464.78	37.45
464.96	0.00
465.14	51.49
465.32	37.45
465.50	58.51
465.69	88.94
465.87	49.15
466.05	32.77
466.23	0.00
466.41	0.00
466.60	0.00
466.78	117.03
466.96	4.68
467.14	51.49
467.32	98.30
467.51	84.26
467.69	0.00
467.87	53.83
468.05	60.85
468.23	9.36
468.41	0.00
468.60	58.51
468.78	0.00
468.96	21.06
469.14	0.00
469.32	21.06
469.50	28.09
469.69	60.85
469.87	70.22
470.05	14.04
470.23	9.36
470.41	32.77
470.59	42.13
470.77	74.90
470.95	4.68
471.14	0.00
471.32	79.58
471.50	37.45
471.68	112.35
471.86	37.45
472.04	53.83
472.22	0.00
472.40	0.00
472.58	0.00
472.77	51.49
472.95	35.11
473.13	0.00
473.31	0.00
473.49	14.04
473.67	37.45
473.85	14.04
474.03	74.90
474.21	44.47
474.39	0.00
474.57	79.58
474.75	44.47
474.93	0.00
475.12	91.28
475.30	100.64
475.48	77.24
475.66	70.22
475.84	91.28
476.02	11.70
476.20	14.04
476.38	42.13
476.56	30.43
476.74	100.64
476.92	102.98
477.10	0.00
477.28	35.11
477.46	44.47
477.64	9.36
477.82	32.77
478.00	53.83
478.18	0.00
478.36	0.00
478.54	126.39
478.72	0.00
478.90	9.36
479.08	16.38
479.26	25.75
479.44	53.83
479.62	58.51
479.80	49.15
479.98	74.90
480.16	0.00
480.34	0.00
480.52	37.45
480.70	37.45
480.88	16.38
481.06	0.00
481.24	2.34
481.41	4.68
481.59	81.92
481.77	14.04
481.95	21.06
482.13	53.83
482.31	51.49
482.49	51.49
482.67	67.88
482.85	0.00
483.03	9.36
483.21	28.09
483.39	37.45
483.57	23.41
483.74	11.70
483.92	98.30
484.10	51.49
484.28	32.77
484.46	35.11
484.64	4.68
484.82	23.41
485.00	30.43
485.18	23.41
485.35	0.00
485.53	60.85
485.71	0.00
485.89	77.24
486.07	23.41
486.25	0.00
486.43	35.11
486.61	53.83
486.78	77.24
486.96	0.00
487.14	0.00
487.32	35.11
487.50	65.54
487.68	0.00
487.85	35.11
488.03	49.15
488.21	81.92
488.39	67.88
488.57	16.38
488.75	18.72
488.92	18.72
489.10	58.51
489.28	88.94
489.46	67.88
489.64	0.00
489.81	0.00
489.99	23.41
490.17	0.00
490.35	60.85
490.53	49.15
490.70	46.81
490.88	42.13
491.06	0.00
491.24	0.00
491.41	74.90
491.59	84.26
491.77	58.51
491.95	72.56
492.13	23.41
492.30	7.02
492.48	25.75
492.66	49.15
492.84	7.02
493.01	35.11
493.19	23.41
493.37	126.39
493.54	60.85
493.72	0.00
493.90	28.09
494.08	25.75
494.25	72.56
494.43	107.66
494.61	28.09
494.79	0.00
494.96	65.54
495.14	0.00
495.32	18.72
495.49	25.75
495.67	60.85
495.85	79.58
496.02	67.88
496.20	37.45
496.38	21.06
496.55	58.51
496.73	49.15
496.91	53.83
497.09	0.00
497.26	65.54
497.44	60.85
497.62	42.13
497.79	23.41
497.97	0.00
498.14	39.79
498.32	107.66
498.50	46.81
498.67	88.94
498.85	44.47
499.03	63.19
499.20	44.47
499.38	46.81
499.56	0.00
499.73	56.17
499.91	39.79
500.08	37.45
500.26	0.00
500.44	9.36
500.61	63.19
500.79	11.70
500.97	32.77
501.14	65.54
501.32	23.41
501.49	128.73
501.67	63.19
501.84	18.72
502.02	100.64
502.20	0.00
502.37	0.00
502.55	0.00
502.72	67.88
502.90	42.13
503.07	23.41
503.25	72.56
503.43	93.62
503.60	30.43
503.78	100.64
503.95	25.75
504.13	44.47
504.30	58.51
504.48	58.51
504.65	37.45
504.83	84.26
505.01	0.00
505.18	46.81
505.36	2.34
505.53	0.00
505.71	37.45
505.88	0.00
506.06	49.15
506.23	58.51
506.41	14.04
506.58	30.43
506.76	7.02
506.93	77.24
507.11	9.36
507.28	14.04
507.46	70.22
507.63	23.41
507.81	93.62
507.98	0.00
508.16	30.43
508.33	30.43
508.50	7.02
508.68	0.00
508.85	25.75
509.03	0.00
509.20	74.90
509.38	117.03
509.55	95.96
509.73	84.26
509.90	56.17
510.08	2.34
510.25	44.47
510.42	0.00
510.60	21.06
510.77	72.56
510.95	84.26
511.12	4.68
511.30	53.83
511.47	42.13
511.64	39.79
511.82	0.00
511.99	131.07
512.17	4.68
512.34	79.58
512.51	121.71
512.69	65.54
512.86	91.28
513.04	2.34
513.21	46.81
513.38	0.00
513.56	67.88
513.73	28.09
513.90	42.13
514.08	32.77
514.25	14.04
514.43	23.41
514.60	11.70
514.77	2.34
514.95	0.00
515.12	0.00
515.29	56.17
515.47	91.28
515.64	65.54
515.81	79.58
515.99	74.90
516.16	51.49
516.33	11.70
516.51	53.83
516.68	28.09
516.85	117.03
517.03	25.75
517.20	79.58
517.37	7.02
517.54	72.56
517.72	32.77
517.89	16.38
518.06	0.00
518.24	74.90
518.41	42.13
518.58	0.00
518.75	44.47
518.93	28.09
519.10	16.38
519.27	4.68
519.45	0.00
519.62	53.83
519.79	72.56
519.96	74.90
520.14	63.19
520.31	44.47
520.48	88.94
520.65	21.06
520.83	58.51
521.00	63.19
521.17	114.69
521.34	72.56
521.52	77.24
521.69	102.98
521.86	42.13
522.03	0.00
522.20	91.28
522.38	67.88
522.55	46.81
522.72	23.41
522.89	98.30
523.07	28.09
523.24	70.22
523.41	28.09
523.58	93.62
523.75	21.06
523.92	53.83
524.10	0.00
524.27	30.43
524.44	32.77
524.61	49.15
524.78	58.51
524.96	46.81
525.13	63.19
525.30	58.51
525.47	58.51
525.64	28.09
525.81	16.38
525.98	18.72
526.16	4.68
526.33	63.19
526.50	49.15
526.67	0.00
526.84	28.09
527.01	35.11
527.18	91.28
527.36	35.11
527.53	100.64
527.70	18.72
527.87	112.35
528.04	32.77
528.21	42.13
528.38	0.00
528.55	35.11
528.72	67.88
528.89	46.81
529.07	105.32
529.24	107.66
529.41	0.00
529.58	53.83
529.75	25.75
529.92	0.00
530.09	84.26
530.26	0.00
530.43	18.72
530.60	39.79
530.77	35.11
530.94	58.51
531.11	74.90
531.28	0.00
531.46	63.19
531.63	35.11
531.80	9.36
531.97	74.90
532.14	53.83
532.31	46.81
532.48	0.00
532.65	53.83
532.82	65.54
532.99	60.85
533.16	16.38
533.33	32.77
533.50	35.11
533.67	35.11
533.84	95.96
534.01	44.47
534.18	72.56
534.35	51.49
534.52	79.58
534.69	131.07
534.86	49.15
535.03	21.06
535.20	60.85
535.37	21.06
535.54	56.17
535.71	79.58
535.88	65.54
536.05	39.79
536.22	81.92
536.38	25.75
536.55	65.54
536.72	0.00
536.89	18.72
537.06	77.24
537.23	79.58
537.40	46.81
537.57	7.02
537.74	30.43
537.91	0.00
538.08	56.17
538.25	0.00
538.42	32.77
538.59	86.60
538.75	11.70
538.92	37.45
539.09	60.85
539.26	7.02
539.43	4.68
539.60	0.00
539.77	88.94
539.94	14.04
540.11	37.45
540.28	11.70
540.44	102.98
540.61	4.68
540.78	0.00
540.95	7.02
541.12	51.49
541.29	28.09
541.46	49.15
541.62	74.90
541.79	77.24
541.96	65.54
542.13	7.02
542.30	0.00
542.47	84.26
542.63	39.79
542.80	28.09
542.97	0.00
543.14	11.70
543.31	65.54
543.48	46.81
543.64	63.19
543.81	21.06
543.98	53.83
544.15	0.00
544.32	9.36
544.48	46.81
544.65	95.96
544.82	65.54
544.99	0.00
545.16	39.79
545.32	74.90
545.49	9.36
545.66	65.54
545.83	56.17
546.00	42.13
546.16	49.15
546.33	56.17
546.50	39.79
546.67	51.49
546.83	18.72
547.00	95.96
547.17	46.81
547.34	25.75
547.50	4.68
547.67	11.70
547.84	56.17
548.00	14.04
548.17	53.83
548.34	67.88
548.51	21.06
548.67	18.72
548.84	39.79
549.01	142.77
549.18	0.00
549.34	42.13
549.51	46.81
549.68	56.17
549.84	98.30
550.01	7.02
550.18	28.09
550.34	65.54
550.51	0.00
550.68	4.68
550.84	30.43
551.01	49.15
551.18	49.15
551.34	0.00
551.51	37.45
551.68	86.60
551.84	39.79
552.01	60.85
552.18	14.04
552.34	0.00
552.51	28.09
552.68	30.43
552.84	35.11
553.01	77.24
553.18	51.49
553.34	0.00
553.51	60.85
553.67	135.75
553.84	84.26
554.01	44.47
554.17	126.39
554.34	44.47
554.51	0.00
554.67	93.62
554.84	7.02
555.00	0.00
555.17	49.15
555.33	21.06
555.50	0.00
555.67	98.30
555.83	11.70
556.00	0.00
556.16	133.41
556.33	42.13
556.50	63.19
556.66	105.32
556.83	56.17
556.99	2.34
557.16	2.34
557.32	35.11
557.49	58.51
557.65	32.77
557.82	79.58
557.98	0.00
558.15	0.00
558.32	91.28
558.48	60.85
558.65	4.68
558.81	51.49
558.98	56.17
559.14	16.38
559.31	107.66
559.47	49.15
559.64	86.60
559.80	16.38
559.97	110.01
560.13	84.26
560.30	95.96
560.46	93.62
560.63	0.00
560.79	79.58
560.96	14.04
561.12	35.11
561.29	30.43
561.45	18.72
561.61	35.11
561.78	0.00
561.94	70.22
562.11	9.36
562.27	46.81
562.44	51.49
562.60	70.22
562.77	37.45
562.93	4.68
563.10	53.83
563.26	133.41
563.42	60.85
563.59	0.00
563.75	21.06
563.92	102.98
564.08	11.70
564.24	67.88
564.41	58.51
564.57	0.00
564.74	28.09
564.90	30.43
565.07	0.00
565.23	0.00
565.39	25.75
565.56	42.13
565.72	84.26
565.88	42.13
566.05	9.36
566.21	16.38
566.38	42.13
566.54	23.41
566.70	44.47
566.87	117.03
567.03	56.17
567.19	23.41
567.36	16.38
567.52	56.17
567.68	0.00
567.85	70.22
568.01	0.00
568.17	35.11
568.34	21.06
568.50	65.54
568.66	86.60
568.83	32.77
568.99	65.54
569.15	42.13
569.32	0.00
569.48	0.00
569.64	28.09
569.81	32.77
569.97	42.13
570.13	11.70
570.30	21.06
570.46	37.45
570.62	28.09
570.78	42.13
570.95	21.06
571.11	63.19
571.27	23.41
571.43	30.43
571.60	53.83
571.76	86.60
571.92	70.22
572.09	70.22
572.25	95.96
572.41	32.77
572.57	56.17
572.74	79.58
572.90	25.75
573.06	65.54
573.22	67.88
573.38	93.62
573.55	14.04
573.71	18.72
573.87	30.43
574.03	51.49
574.20	67.88
574.36	32.77
574.52	67.88
574.68	51.49
574.84	39.79
575.01	28.09
575.17	9.36
575.33	32.77
575.49	0.00
575.65	0.00
575.82	25.75
575.98	0.00
576.14	81.92
576.30	93.62
576.46	51.49
576.62	110.01
576.79	67.88
576.95	30.43
577.11	30.43
577.27	86.60
577.43	30.43
577.59	70.22
577.75	0.00
577.92	60.85
578.08	51.49
578.24	0.00
578.40	9.36
578.56	44.47
578.72	4.68
578.88	53.83
579.04	0.00
579.21	0.00
579.37	58.51
579.53	0.00
579.69	0.00
579.85	14.04
580.01	58.51
580.17	32.77
580.33	88.94
580.49	32.77
580.65	32.77
580.82	53.83
580.98	23.41
581.14	46.81
581.30	16.38
581.46	7.02
581.62	16.38
581.78	0.00
581.94	37.45
582.10	112.35
582.26	0.00
582.42	46.81
582.58	70.22
582.74	63.19
582.90	65.54
583.06	49.15
583.22	49.15
583.38	63.19
583.54	100.64
583.70	95.96
583.86	51.49
584.02	121.71
584.18	53.83
584.34	35.11
584.50	133.41
584.66	306.61
584.82	823.87
584.98	1060.26
585.14	1036.86
585.30	650.67
585.46	381.51
585.62	306.61
585.78	194.26
585.94	88.94
586.10	11.70
586.26	0.00
586.42	18.72
586.58	100.64
586.74	14.04
586.90	58.51
587.06	0.00
587.22	74.90
587.38	119.37
587.54	102.98
587.70	72.56
587.86	159.16
588.02	131.07
588.18	37.45
588.34	14.04
588.49	23.41
588.65	16.38
588.81	32.77
588.97	25.75
589.13	77.24
589.29	28.09
589.45	0.00
589.61	23.41
589.77	9.36
589.93	70.22
590.08	30.43
590.24	14.04
590.40	32.77
590.56	53.83
590.72	18.72
590.88	49.15
591.04	2.34
591.20	65.54
591.35	58.51
591.51	46.81
591.67	23.41
591.83	49.15
591.99	0.00
592.15	11.70
592.31	44.47
592.46	121.71
592.62	58.51
592.78	18.72
592.94	65.54
593.10	23.41
593.26	21.06
593.41	81.92
593.57	0.00
593.73	53.83
593.89	67.88
594.05	112.35
594.20	140.43
594.36	187.24
594.52	65.54
594.68	156.82
594.84	84.26
594.99	21.06
595.15	65.54
595.31	70.22
595.47	121.71
595.62	11.70
595.78	0.00
595.94	30.43
596.10	2.34
596.25	35.11
596.41	63.19
596.57	56.17
596.73	0.00
596.88	23.41
597.04	7.02
597.20	100.64
597.36	128.73
597.51	39.79
597.67	65.54
597.83	67.88
597.99	72.56
598.14	100.64
598.30	65.54
598.46	53.83
598.61	0.00
598.77	39.79
598.93	28.09
599.09	0.00
599.24	0.00
599.40	11.70
599.56	35.11
599.71	86.60
599.87	79.58
600.03	58.51
600.18	84.26
600.34	53.83
600.50	49.15
600.65	0.00
600.81	14.04
600.97	63.19
601.12	0.00
601.28	51.49
601.44	42.13
601.59	2.34
601.75	18.72
601.91	58.51
602.06	42.13
602.22	42.13
602.37	28.09
602.53	51.49
602.69	112.35
602.84	88.94
603.00	65.54
603.16	16.38
603.31	9.36
603.47	91.28
603.62	67.88
603.78	37.45
603.94	53.83
604.09	53.83
604.25	56.17
604.40	93.62
604.56	51.49
604.71	53.83
604.87	30.43
605.03	91.28
605.18	14.04
605.34	0.00
605.49	72.56
605.65	16.38
605.80	84.26
605.96	9.36
606.12	21.06
606.27	58.51
606.43	49.15
606.58	51.49
606.74	0.00
606.89	124.05
607.05	142.77
607.20	145.11
607.36	126.39
607.51	93.62
607.67	44.47
607.82	28.09
607.98	91.28
608.13	70.22
608.29	42.13
608.44	93.62
608.60	42.13
608.75	16.38
608.91	14.04
609.06	161.50
609.22	180.22
609.37	194.26
609.53	138.09
609.68	205.97
609.84	114.69
609.99	60.85
610.15	21.06
610.30	72.56
610.46	70.22
610.61	79.58
610.76	98.30
610.92	65.54
611.07	37.45
611.23	46.81
611.38	51.49
611.54	44.47
611.69	23.41
611.84	53.83
612.00	42.13
612.15	0.00
612.31	23.41
612.46	58.51
612.62	84.26
612.77	86.60
612.92	81.92
613.08	0.00
613.23	42.13
613.39	58.51
613.54	0.00
613.69	126.39
613.85	175.54
614.00	290.23
614.15	339.38
614.31	290.23
614.46	215.33
614.62	128.73
614.77	53.83
614.92	2.34
615.08	9.36
615.23	49.15
615.38	30.43
615.54	21.06
615.69	44.47
615.84	60.85
616.00	140.43
616.15	126.39
616.30	156.82
616.46	93.62
616.61	112.35
616.76	32.77
616.92	46.81
617.07	49.15
617.22	35.11
617.37	58.51
617.53	58.51
617.68	51.49
617.83	46.81
617.99	51.49
618.14	30.43
618.29	0.00
618.45	65.54
618.60	30.43
618.75	16.38
618.90	65.54
619.06	35.11
619.21	72.56
619.36	65.54
619.51	56.17
619.67	32.77
619.82	65.54
619.97	32.77
620.12	0.00
620.28	21.06
620.43	25.75
620.58	56.17
620.73	35.11
620.89	56.17
621.04	95.96
621.19	44.47
621.34	88.94
621.49	119.37
621.65	112.35
621.80	32.77
621.95	46.81
622.10	16.38
622.25	23.41
622.41	37.45
622.56	124.05
622.71	32.77
622.86	98.30
623.01	72.56
623.16	105.32
623.32	14.04
623.47	74.90
623.62	35.11
623.77	30.43
623.92	110.01
624.07	88.94
624.23	51.49
624.38	44.47
624.53	25.75
624.68	70.22
624.83	60.85
624.98	14.04
625.13	84.26
625.29	84.26
625.44	105.32
625.59	35.11
625.74	14.04
625.89	84.26
626.04	107.66
626.19	121.71
626.34	217.67
626.49	255.12
626.65	156.82
626.80	117.03
626.95	16.38
627.10	70.22
627.25	67.88
627.40	91.28
627.55	63.19
627.70	0.00
627.85	42.13
628.00	70.22
628.15	23.41
628.30	4.68
628.45	70.22
628.60	14.04
628.76	32.77
628.91	30.43
629.06	25.75
629.21	21.06
629.36	60.85
629.51	2.34
629.66	56.17
629.81	32.77
629.96	102.98
630.11	46.81
630.26	93.62
630.41	37.45
630.56	23.41
630.71	44.47
630.86	23.41
631.01	77.24
631.16	0.00
631.31	58.51
631.46	9.36
631.61	0.00
631.76	21.06
631.91	21.06
632.06	14.04
632.21	0.00
632.36	60.85
632.51	0.00
632.66	0.00
632.81	18.72
632.96	102.98
633.10	156.82
633.25	93.62
633.40	180.22
633.55	102.98
633.70	95.96
633.85	102.98
634.00	72.56
634.15	18.72
634.30	60.85
634.45	74.90
634.60	35.11
634.75	100.64
634.90	95.96
635.05	2.34
635.19	21.06
635.34	23.41
635.49	60.85
635.64	100.64
635.79	95.96
635.94	28.09
636.09	51.49
636.24	32.77
636.39	105.32
636.53	0.00
636.68	84.26
636.83	25.75
636.98	23.41
637.13	0.00
637.28	79.58
637.43	16.38
637.57	23.41
637.72	60.85
637.87	217.67
638.02	220.01
638.17	224.69
638.32	159.16
638.46	184.90
638.61	140.43
638.76	105.32
638.91	112.35
639.06	72.56
639.20	67.88
639.35	30.43
639.50	28.09
639.65	117.03
639.80	250.44
639.94	360.44
640.09	327.68
640.24	313.63
640.39	205.97
640.54	79.58
640.68	102.98
640.83	79.58
640.98	35.11
641.13	0.00
641.27	21.06
641.42	65.54
641.57	21.06
641.72	86.60
641.86	23.41
642.01	16.38
642.16	58.51
642.31	0.00
642.45	23.41
642.60	65.54
642.75	58.51
642.90	67.88
643.04	58.51
643.19	81.92
643.34	25.75
643.48	30.43
643.63	0.00
643.78	51.49
643.93	102.98
644.07	70.22
644.22	79.58
644.37	60.85
644.51	32.77
644.66	0.00
644.81	14.04
644.95	128.73
645.10	42.13
645.25	32.77
645.39	18.72
645.54	49.15
645.69	46.81
645.83	42.13
645.98	32.77
646.13	53.83
646.27	46.81
646.42	46.81
646.57	0.00
646.71	58.51
646.86	70.22
647.00	56.17
647.15	16.38
647.30	0.00
647.44	35.11
647.59	4.68
647.74	2.34
647.88	49.15
648.03	51.49
648.17	0.00
648.32	25.75
648.47	51.49
648.61	39.79
648.76	28.09
648.90	28.09
649.05	53.83
649.20	74.90
649.34	32.77
649.49	63.19
649.63	58.51
649.78	53.83
649.92	51.49
650.07	42.13
650.21	177.88
650.36	210.65
650.51	241.08
650.65	224.69
650.80	114.69
650.94	58.51
651.09	121.71
651.23	21.06
651.38	39.79
651.52	32.77
651.67	63.19
651.81	0.00
651.96	63.19
652.10	25.75
652.25	35.11
652.39	58.51
652.54	44.47
652.68	2.34
652.83	72.56
652.97	81.92
653.12	91.28
653.26	112.35
653.41	23.41
653.55	74.90
653.70	42.13
653.84	42.13
653.99	37.45
654.13	2.34
654.27	0.00
654.42	4.68
654.56	0.00
654.71	0.00
654.85	58.51
655.00	25.75
655.14	0.00
655.29	23.41
655.43	74.90
655.57	42.13
655.72	46.81
655.86	60.85
656.01	39.79
656.15	65.54
656.30	77.24
656.44	4.68
656.58	4.68
656.73	16.38
656.87	18.72
657.01	16.38
657.16	70.22
657.30	46.81
657.45	44.47
657.59	53.83
657.73	102.98
657.88	11.70
658.02	56.17
658.16	49.15
658.31	28.09
658.45	16.38
658.60	98.30
658.74	42.13
658.88	21.06
659.03	39.79
659.17	74.90
659.31	37.45
659.46	77.24
659.60	98.30
659.74	142.77
659.89	145.11
660.03	168.52
660.17	9.36
660.32	81.92
660.46	11.70
660.60	0.00
660.74	14.04
660.89	39.79
661.03	4.68
661.17	56.17
661.32	60.85
661.46	30.43
661.60	79.58
661.74	77.24
661.89	42.13
662.03	58.51
662.17	72.56
662.31	0.00
662.46	39.79
662.60	44.47
662.74	32.77
662.88	0.00
663.03	56.17
663.17	0.00
663.31	18.72
663.45	0.00
663.60	32.77
663.74	2.34
663.88	0.00
664.02	21.06
664.17	65.54
664.31	2.34
664.45	25.75
664.59	11.70
664.73	53.83
664.88	0.00
665.02	0.00
665.16	114.69
665.30	0.00
665.44	81.92
665.59	105.32
665.73	51.49
665.87	18.72
666.01	0.00
666.15	37.45
666.29	25.75
666.44	30.43
666.58	25.75
666.72	0.00
666.86	53.83
667.00	32.77
667.14	32.77
667.28	0.00
667.43	107.66
667.57	145.11
667.71	161.50
667.85	133.41
667.99	212.99
668.13	0.00
668.27	35.11
668.41	51.49
668.56	60.85
668.70	152.13
668.84	0.00
668.98	28.09
669.12	0.00
669.26	0.00
669.40	49.15
669.54	28.09
669.68	2.34
669.82	0.00
669.96	0.00
670.10	39.79
670.25	56.17
670.39	53.83
670.53	32.77
670.67	0.00
670.81	49.15
670.95	91.28
671.09	16.38
671.23	49.15
671.37	60.85
671.51	119.37
671.65	156.82
671.79	114.69
671.93	105.32
672.07	30.43
672.21	65.54
672.35	88.94
672.49	70.22
672.63	4.68
672.77	35.11
672.91	18.72
673.05	16.38
673.19	51.49
673.33	9.36
673.47	0.00
673.61	32.77
673.75	0.00
673.89	28.09
674.03	42.13
674.17	88.94
674.31	37.45
674.45	60.85
674.59	0.00
674.73	21.06
674.87	74.90
675.01	70.22
675.15	30.43
675.29	81.92
675.43	16.38
675.56	53.83
675.70	25.75
675.84	51.49
675.98	77.24
676.12	30.43
676.26	42.13
676.40	0.00
676.54	23.41
676.68	9.36
676.82	0.00
676.96	42.13
677.10	112.35
677.23	4.68
677.37	11.70
677.51	105.32
677.65	32.77
677.79	49.15
677.93	23.41
678.07	37.45
678.21	35.11
678.34	44.47
678.48	11.70
678.62	35.11
678.76	46.81
678.90	14.04
679.04	53.83
679.18	60.85
679.31	35.11
679.45	0.00
679.59	0.00
679.73	37.45
679.87	42.13
680.00	0.00
680.14	39.79
680.28	56.17
680.42	58.51
680.56	49.15
680.70	0.00
680.83	49.15
680.97	60.85
681.11	0.00
681.25	18.72
681.39	14.04
681.52	0.00
681.66	56.17
681.80	46.81
681.94	107.66
682.07	16.38
682.21	91.28
682.35	65.54
682.49	0.00
682.62	42.13
682.76	56.17
682.90	32.77
683.04	0.00
683.17	30.43
683.31	28.09
683.45	49.15
683.59	42.13
683.72	67.88
683.86	0.00
684.00	0.00
684.13	9.36
684.27	70.22
684.41	51.49
684.55	2.34
684.68	84.26
684.82	77.24
684.96	0.00
685.09	28.09
685.23	4.68
685.37	46.81
685.50	86.60
685.64	53.83
685.78	0.00
685.91	32.77
686.05	25.75
686.19	2.34
686.32	23.41
686.46	21.06
686.60	4.68
686.73	37.45
686.87	77.24
687.01	35.11
687.14	23.41
687.28	11.70
687.42	102.98
687.55	7.02
687.69	23.41
687.82	0.00
687.96	0.00
688.10	51.49
688.23	35.11
688.37	58.51
688.50	11.70
688.64	4.68
688.78	79.58
688.91	9.36
689.05	37.45
689.18	0.00
689.32	56.17
689.46	0.00
689.59	77.24
689.73	28.09
689.86	18.72
690.00	18.72
690.13	35.11
690.27	49.15
690.41	81.92
690.54	74.90
690.68	35.11
690.81	93.62
690.95	37.45
691.08	53.83
691.22	30.43
691.35	70.22
691.49	25.75
691.62	0.00
691.76	23.41
691.89	70.22
692.03	84.26
692.16	28.09
692.30	37.45
692.43	23.41
692.57	84.26
692.70	93.62
692.84	74.90
692.97	81.92
693.11	42.13
693.24	0.00
693.38	72.56
693.51	51.49
693.65	30.43
693.78	18.72
693.92	21.06
694.05	35.11
694.19	16.38
694.32	32.77
694.45	63.19
694.59	7.02
694.72	51.49
694.86	0.00
694.99	23.41
695.13	21.06
695.26	49.15
695.39	35.11
695.53	11.70
695.66	9.36
695.80	0.00
695.93	4.68
696.07	0.00
696.20	16.38
696.33	58.51
696.47	39.79
696.60	44.47
696.73	11.70
696.87	9.36
697.00	44.47
697.14	21.06
697.27	51.49
697.40	32.77
697.54	14.04
697.67	56.17
697.80	0.00
697.94	46.81
698.07	39.79
698.21	63.19
698.34	0.00
698.47	65.54
698.61	32.77
698.74	37.45
698.87	21.06
699.01	21.06
699.14	0.00
699.27	32.77
699.40	93.62
699.54	0.00
699.67	16.38
699.80	63.19
699.94	70.22
700.07	21.06
700.20	65.54
700.34	77.24
700.47	0.00
700.60	21.06
700.73	37.45
700.87	95.96
701.00	0.00
701.13	0.00
701.26	46.81
701.40	51.49
701.53	63.19
701.66	0.00
701.79	46.81
701.93	14.04
702.06	91.28
702.19	0.00
702.32	51.49
702.46	39.79
702.59	46.81
702.72	11.70
702.85	30.43
702.99	107.66
703.12	184.90
703.25	205.97
703.38	201.29
703.51	37.45
703.65	65.54
703.78	98.30
703.91	16.38
704.04	35.11
704.17	11.70
704.31	18.72
704.44	7.02
704.57	28.09
704.70	56.17
704.83	88.94
704.96	0.00
705.10	30.43
705.23	21.06
>>>>>End Processed Spectral Data<<<<<
