SpectraSuite Data File
++++++++++++++++++++++++++++++++++++
Date: Fri Oct 04 12:13:38 GMT-05:00 2013
User: price-jones
Dark Spectrum Present: No
Reference Spectrum Present: No
Number of Sampled Component Spectra: 1
Spectrometers: USB2+H05261
Integration Time (usec): 10000 (USB2+H05261)
Spectra Averaged: 1 (USB2+H05261)
Boxcar Smoothing: 0 (USB2+H05261)
Correct for Electrical Dark: No (USB2+H05261)
Strobe/Lamp Enabled: No (USB2+H05261)
Correct for Detector Non-linearity: No (USB2+H05261)
Correct for Stray Light: No (USB2+H05261)
Number of Pixels in Processed Spectrum: 2048
>>>>>Begin Processed Spectral Data<<<<<
365.73	0.00
365.92	0.00
366.12	0.00
366.32	0.00
366.52	0.00
366.72	0.00
366.91	0.00
367.11	0.00
367.31	0.00
367.51	0.00
367.70	0.00
367.90	0.00
368.10	0.00
368.30	0.00
368.49	0.00
368.69	0.00
368.89	0.00
369.09	0.00
369.28	0.00
369.48	0.00
369.68	0.00
369.87	0.00
370.07	0.00
370.27	0.00
370.47	0.00
370.66	0.00
370.86	0.00
371.06	0.00
371.25	0.00
371.45	0.00
371.65	0.00
371.84	23.41
372.04	4.68
372.24	0.00
372.44	4.68
372.63	0.00
372.83	0.00
373.03	21.06
373.22	30.43
373.42	23.41
373.62	16.38
373.81	11.70
374.01	0.00
374.21	65.54
374.40	14.04
374.60	4.68
374.79	9.36
374.99	32.77
375.19	25.75
375.38	65.54
375.58	67.88
375.78	56.17
375.97	102.98
376.17	0.00
376.37	100.64
376.56	37.45
376.76	39.79
376.95	49.15
377.15	84.26
377.35	65.54
377.54	25.75
377.74	11.70
377.93	0.00
378.13	0.00
378.33	28.09
378.52	0.00
378.72	7.02
378.91	32.77
379.11	30.43
379.31	37.45
379.50	0.00
379.70	0.00
379.89	0.00
380.09	16.38
380.28	0.00
380.48	9.36
380.68	4.68
380.87	9.36
381.07	25.75
381.26	72.56
381.46	53.83
381.65	0.00
381.85	25.75
382.04	23.41
382.24	11.70
382.43	0.00
382.63	11.70
382.83	0.00
383.02	0.00
383.22	25.75
383.41	35.11
383.61	0.00
383.80	0.00
384.00	0.00
384.19	9.36
384.39	25.75
384.58	2.34
384.78	63.19
384.97	21.06
385.17	0.00
385.36	46.81
385.56	0.00
385.75	88.94
385.95	0.00
386.14	7.02
386.34	18.72
386.53	0.00
386.72	49.15
386.92	4.68
387.11	42.13
387.31	49.15
387.50	124.05
387.70	21.06
387.89	11.70
388.09	79.58
388.28	86.60
388.48	39.79
388.67	9.36
388.86	28.09
389.06	0.00
389.25	0.00
389.45	23.41
389.64	30.43
389.84	0.00
390.03	70.22
390.22	23.41
390.42	35.11
390.61	32.77
390.81	9.36
391.00	4.68
391.19	44.47
391.39	18.72
391.58	18.72
391.78	35.11
391.97	0.00
392.16	44.47
392.36	23.41
392.55	0.00
392.75	21.06
392.94	0.00
393.13	28.09
393.33	23.41
393.52	23.41
393.71	44.47
393.91	0.00
394.10	2.34
394.29	60.85
394.49	0.00
394.68	0.00
394.88	88.94
395.07	0.00
395.26	0.00
395.46	28.09
395.65	0.00
395.84	25.75
396.04	25.75
396.23	0.00
396.42	28.09
396.62	51.49
396.81	0.00
397.00	0.00
397.19	28.09
397.39	124.05
397.58	42.13
397.77	0.00
397.97	72.56
398.16	63.19
398.35	28.09
398.55	42.13
398.74	39.79
398.93	14.04
399.12	23.41
399.32	7.02
399.51	0.00
399.70	84.26
399.90	11.70
400.09	56.17
400.28	0.00
400.47	7.02
400.67	44.47
400.86	44.47
401.05	37.45
401.24	53.83
401.44	0.00
401.63	63.19
401.82	65.54
402.01	44.47
402.21	23.41
402.40	0.00
402.59	0.00
402.78	0.00
402.97	88.94
403.17	65.54
403.36	32.77
403.55	25.75
403.74	23.41
403.93	25.75
404.13	0.00
404.32	2.34
404.51	65.54
404.70	65.54
404.89	72.56
405.09	0.00
405.28	21.06
405.47	25.75
405.66	81.92
405.85	37.45
406.05	28.09
406.24	0.00
406.43	39.79
406.62	25.75
406.81	0.00
407.00	70.22
407.20	7.02
407.39	7.02
407.58	7.02
407.77	60.85
407.96	81.92
408.15	63.19
408.34	4.68
408.54	95.96
408.73	14.04
408.92	0.00
409.11	42.13
409.30	4.68
409.49	0.00
409.68	16.38
409.87	119.37
410.07	53.83
410.26	42.13
410.45	0.00
410.64	39.79
410.83	60.85
411.02	51.49
411.21	25.75
411.40	39.79
411.59	0.00
411.78	53.83
411.98	39.79
412.17	0.00
412.36	0.00
412.55	0.00
412.74	72.56
412.93	51.49
413.12	131.07
413.31	53.83
413.50	0.00
413.69	74.90
413.88	95.96
414.07	21.06
414.26	37.45
414.45	21.06
414.64	37.45
414.83	0.00
415.02	60.85
415.22	84.26
415.41	35.11
415.60	53.83
415.79	16.38
415.98	53.83
416.17	2.34
416.36	42.13
416.55	56.17
416.74	7.02
416.93	11.70
417.12	28.09
417.31	2.34
417.50	0.00
417.69	58.51
417.88	35.11
418.07	37.45
418.26	53.83
418.45	35.11
418.64	28.09
418.83	0.00
419.02	32.77
419.21	46.81
419.39	11.70
419.58	11.70
419.77	84.26
419.96	0.00
420.15	4.68
420.34	53.83
420.53	51.49
420.72	74.90
420.91	51.49
421.10	0.00
421.29	30.43
421.48	46.81
421.67	0.00
421.86	0.00
422.05	0.00
422.24	58.51
422.43	0.00
422.61	0.00
422.80	11.70
422.99	21.06
423.18	63.19
423.37	49.15
423.56	58.51
423.75	25.75
423.94	72.56
424.13	32.77
424.32	53.83
424.50	14.04
424.69	0.00
424.88	49.15
425.07	51.49
425.26	39.79
425.45	56.17
425.64	72.56
425.83	63.19
426.01	0.00
426.20	28.09
426.39	67.88
426.58	81.92
426.77	63.19
426.96	46.81
427.15	37.45
427.33	56.17
427.52	84.26
427.71	4.68
427.90	35.11
428.09	133.41
428.28	2.34
428.46	74.90
428.65	25.75
428.84	32.77
429.03	49.15
429.22	0.00
429.40	23.41
429.59	126.39
429.78	25.75
429.97	35.11
430.16	56.17
430.34	63.19
430.53	63.19
430.72	51.49
430.91	49.15
431.10	58.51
431.28	37.45
431.47	0.00
431.66	112.35
431.85	74.90
432.03	53.83
432.22	0.00
432.41	0.00
432.60	56.17
432.79	49.15
432.97	114.69
433.16	30.43
433.35	46.81
433.54	81.92
433.72	18.72
433.91	65.54
434.10	65.54
434.28	70.22
434.47	51.49
434.66	4.68
434.85	105.32
435.03	39.79
435.22	46.81
435.41	4.68
435.59	23.41
435.78	37.45
435.97	67.88
436.16	18.72
436.34	93.62
436.53	28.09
436.72	67.88
436.90	44.47
437.09	21.06
437.28	28.09
437.46	105.32
437.65	74.90
437.84	0.00
438.02	117.03
438.21	39.79
438.40	23.41
438.58	42.13
438.77	2.34
438.96	25.75
439.14	51.49
439.33	72.56
439.52	16.38
439.70	53.83
439.89	105.32
440.08	46.81
440.26	79.58
440.45	46.81
440.63	18.72
440.82	51.49
441.01	95.96
441.19	44.47
441.38	72.56
441.57	67.88
441.75	14.04
441.94	79.58
442.12	23.41
442.31	74.90
442.50	42.13
442.68	25.75
442.87	58.51
443.05	30.43
443.24	30.43
443.43	107.66
443.61	102.98
443.80	79.58
443.98	4.68
444.17	25.75
444.35	28.09
444.54	81.92
444.73	70.22
444.91	39.79
445.10	63.19
445.28	23.41
445.47	35.11
445.65	14.04
445.84	49.15
446.02	39.79
446.21	79.58
446.39	18.72
446.58	0.00
446.77	35.11
446.95	100.64
447.14	53.83
447.32	60.85
447.51	79.58
447.69	53.83
447.88	56.17
448.06	60.85
448.25	86.60
448.43	32.77
448.62	60.85
448.80	77.24
448.99	37.45
449.17	53.83
449.36	72.56
449.54	67.88
449.73	18.72
449.91	133.41
450.10	105.32
450.28	49.15
450.46	42.13
450.65	16.38
450.83	2.34
451.02	37.45
451.20	86.60
451.39	28.09
451.57	65.54
451.76	81.92
451.94	70.22
452.13	72.56
452.31	32.77
452.49	60.85
452.68	138.09
452.86	84.26
453.05	0.00
453.23	0.00
453.42	42.13
453.60	9.36
453.78	30.43
453.97	44.47
454.15	32.77
454.34	67.88
454.52	100.64
454.70	4.68
454.89	4.68
455.07	16.38
455.26	30.43
455.44	95.96
455.62	84.26
455.81	110.01
455.99	56.17
456.17	58.51
456.36	39.79
456.54	51.49
456.73	65.54
456.91	72.56
457.09	95.96
457.28	0.00
457.46	60.85
457.64	100.64
457.83	81.92
458.01	7.02
458.19	67.88
458.38	105.32
458.56	46.81
458.74	39.79
458.93	37.45
459.11	0.00
459.29	32.77
459.48	49.15
459.66	74.90
459.84	58.51
460.03	65.54
460.21	65.54
460.39	39.79
460.57	18.72
460.76	77.24
460.94	105.32
461.12	86.60
461.31	67.88
461.49	102.98
461.67	70.22
461.85	110.01
462.04	135.75
462.22	98.30
462.40	51.49
462.59	133.41
462.77	79.58
462.95	112.35
463.13	84.26
463.32	18.72
463.50	51.49
463.68	135.75
463.86	74.90
464.05	88.94
464.23	65.54
464.41	84.26
464.59	11.70
464.78	58.51
464.96	18.72
465.14	86.60
465.32	67.88
465.50	46.81
465.69	95.96
465.87	0.00
466.05	39.79
466.23	79.58
466.41	21.06
466.60	11.70
466.78	53.83
466.96	86.60
467.14	39.79
467.32	79.58
467.51	58.51
467.69	23.41
467.87	86.60
468.05	91.28
468.23	88.94
468.41	51.49
468.60	4.68
468.78	35.11
468.96	65.54
469.14	93.62
469.32	67.88
469.50	53.83
469.69	23.41
469.87	84.26
470.05	65.54
470.23	18.72
470.41	14.04
470.59	0.00
470.77	98.30
470.95	72.56
471.14	56.17
471.32	58.51
471.50	84.26
471.68	25.75
471.86	23.41
472.04	58.51
472.22	79.58
472.40	98.30
472.58	7.02
472.77	70.22
472.95	0.00
473.13	0.00
473.31	39.79
473.49	117.03
473.67	39.79
473.85	102.98
474.03	28.09
474.21	86.60
474.39	30.43
474.57	25.75
474.75	37.45
474.93	65.54
475.12	67.88
475.30	95.96
475.48	23.41
475.66	72.56
475.84	37.45
476.02	70.22
476.20	77.24
476.38	72.56
476.56	86.60
476.74	56.17
476.92	14.04
477.10	18.72
477.28	67.88
477.46	91.28
477.64	131.07
477.82	58.51
478.00	91.28
478.18	72.56
478.36	114.69
478.54	14.04
478.72	58.51
478.90	65.54
479.08	79.58
479.26	84.26
479.44	88.94
479.62	105.32
479.80	51.49
479.98	114.69
480.16	28.09
480.34	126.39
480.52	119.37
480.70	0.00
480.88	81.92
481.06	60.85
481.24	102.98
481.41	63.19
481.59	121.71
481.77	25.75
481.95	9.36
482.13	0.00
482.31	53.83
482.49	70.22
482.67	77.24
482.85	60.85
483.03	95.96
483.21	91.28
483.39	86.60
483.57	74.90
483.74	93.62
483.92	77.24
484.10	117.03
484.28	74.90
484.46	39.79
484.64	107.66
484.82	46.81
485.00	51.49
485.18	58.51
485.35	0.00
485.53	37.45
485.71	60.85
485.89	44.47
486.07	67.88
486.25	84.26
486.43	51.49
486.61	60.85
486.78	49.15
486.96	93.62
487.14	86.60
487.32	74.90
487.50	91.28
487.68	25.75
487.85	28.09
488.03	25.75
488.21	51.49
488.39	51.49
488.57	14.04
488.75	117.03
488.92	98.30
489.10	79.58
489.28	65.54
489.46	102.98
489.64	42.13
489.81	110.01
489.99	67.88
490.17	9.36
490.35	4.68
490.53	84.26
490.70	74.90
490.88	44.47
491.06	72.56
491.24	156.82
491.41	98.30
491.59	93.62
491.77	70.22
491.95	91.28
492.13	65.54
492.30	110.01
492.48	100.64
492.66	95.96
492.84	18.72
493.01	67.88
493.19	135.75
493.37	84.26
493.54	86.60
493.72	168.52
493.90	63.19
494.08	32.77
494.25	124.05
494.43	21.06
494.61	152.13
494.79	105.32
494.96	93.62
495.14	39.79
495.32	77.24
495.49	105.32
495.67	84.26
495.85	37.45
496.02	102.98
496.20	114.69
496.38	163.84
496.55	74.90
496.73	65.54
496.91	91.28
497.09	88.94
497.26	56.17
497.44	60.85
497.62	72.56
497.79	46.81
497.97	77.24
498.14	128.73
498.32	117.03
498.50	128.73
498.67	81.92
498.85	140.43
499.03	72.56
499.20	131.07
499.38	70.22
499.56	102.98
499.73	35.11
499.91	72.56
500.08	102.98
500.26	30.43
500.44	105.32
500.61	70.22
500.79	53.83
500.97	0.00
501.14	79.58
501.32	67.88
501.49	51.49
501.67	53.83
501.84	18.72
502.02	18.72
502.20	70.22
502.37	53.83
502.55	72.56
502.72	98.30
502.90	79.58
503.07	74.90
503.25	84.26
503.43	114.69
503.60	93.62
503.78	35.11
503.95	28.09
504.13	56.17
504.30	187.24
504.48	58.51
504.65	30.43
504.83	98.30
505.01	42.13
505.18	84.26
505.36	65.54
505.53	0.00
505.71	98.30
505.88	58.51
506.06	46.81
506.23	131.07
506.41	0.00
506.58	53.83
506.76	39.79
506.93	42.13
507.11	93.62
507.28	56.17
507.46	84.26
507.63	142.77
507.81	135.75
507.98	170.86
508.16	58.51
508.33	93.62
508.50	93.62
508.68	107.66
508.85	44.47
509.03	105.32
509.20	51.49
509.38	142.77
509.55	81.92
509.73	53.83
509.90	65.54
510.08	102.98
510.25	60.85
510.42	70.22
510.60	114.69
510.77	142.77
510.95	51.49
511.12	156.82
511.30	65.54
511.47	58.51
511.64	117.03
511.82	131.07
511.99	126.39
512.17	86.60
512.34	112.35
512.51	117.03
512.69	72.56
512.86	63.19
513.04	51.49
513.21	14.04
513.38	0.00
513.56	79.58
513.73	30.43
513.90	0.00
514.08	0.00
514.25	124.05
514.43	21.06
514.60	72.56
514.77	60.85
514.95	86.60
515.12	161.50
515.29	74.90
515.47	67.88
515.64	84.26
515.81	110.01
515.99	35.11
516.16	81.92
516.33	25.75
516.51	93.62
516.68	60.85
516.85	63.19
517.03	65.54
517.20	70.22
517.37	53.83
517.54	86.60
517.72	23.41
517.89	74.90
518.06	112.35
518.24	102.98
518.41	93.62
518.58	67.88
518.75	110.01
518.93	70.22
519.10	98.30
519.27	49.15
519.45	140.43
519.62	46.81
519.79	117.03
519.96	131.07
520.14	110.01
520.31	159.16
520.48	86.60
520.65	65.54
520.83	105.32
521.00	124.05
521.17	77.24
521.34	91.28
521.52	4.68
521.69	65.54
521.86	70.22
522.03	91.28
522.20	32.77
522.38	30.43
522.55	100.64
522.72	81.92
522.89	114.69
523.07	58.51
523.24	7.02
523.41	46.81
523.58	119.37
523.75	72.56
523.92	56.17
524.10	135.75
524.27	77.24
524.44	74.90
524.61	110.01
524.78	110.01
524.96	79.58
525.13	126.39
525.30	91.28
525.47	23.41
525.64	79.58
525.81	39.79
525.98	184.90
526.16	128.73
526.33	74.90
526.50	98.30
526.67	81.92
526.84	102.98
527.01	49.15
527.18	114.69
527.36	100.64
527.53	51.49
527.70	65.54
527.87	100.64
528.04	35.11
528.21	124.05
528.38	95.96
528.55	91.28
528.72	126.39
528.89	72.56
529.07	84.26
529.24	107.66
529.41	53.83
529.58	102.98
529.75	138.09
529.92	63.19
530.09	28.09
530.26	131.07
530.43	166.18
530.60	100.64
530.77	74.90
530.94	21.06
531.11	126.39
531.28	21.06
531.46	7.02
531.63	77.24
531.80	77.24
531.97	105.32
532.14	30.43
532.31	112.35
532.48	65.54
532.65	102.98
532.82	100.64
532.99	70.22
533.16	124.05
533.33	140.43
533.50	100.64
533.67	67.88
533.84	77.24
534.01	114.69
534.18	60.85
534.35	0.00
534.52	79.58
534.69	91.28
534.86	114.69
535.03	9.36
535.20	142.77
535.37	16.38
535.54	88.94
535.71	121.71
535.88	60.85
536.05	65.54
536.22	114.69
536.38	81.92
536.55	86.60
536.72	88.94
536.89	102.98
537.06	81.92
537.23	84.26
537.40	44.47
537.57	53.83
537.74	60.85
537.91	53.83
538.08	63.19
538.25	53.83
538.42	142.77
538.59	0.00
538.75	79.58
538.92	135.75
539.09	79.58
539.26	100.64
539.43	39.79
539.60	74.90
539.77	114.69
539.94	63.19
540.11	114.69
540.28	98.30
540.44	77.24
540.61	56.17
540.78	98.30
540.95	72.56
541.12	67.88
541.29	67.88
541.46	56.17
541.62	67.88
541.79	39.79
541.96	119.37
542.13	84.26
542.30	215.33
542.47	58.51
542.63	28.09
542.80	91.28
542.97	35.11
543.14	37.45
543.31	35.11
543.48	25.75
543.64	49.15
543.81	91.28
543.98	63.19
544.15	88.94
544.32	58.51
544.48	58.51
544.65	58.51
544.82	53.83
544.99	100.64
545.16	25.75
545.32	49.15
545.49	124.05
545.66	180.22
545.83	53.83
546.00	65.54
546.16	88.94
546.33	77.24
546.50	100.64
546.67	119.37
546.83	51.49
547.00	49.15
547.17	49.15
547.34	14.04
547.50	49.15
547.67	32.77
547.84	11.70
548.00	72.56
548.17	65.54
548.34	126.39
548.51	77.24
548.67	77.24
548.84	88.94
549.01	93.62
549.18	138.09
549.34	161.50
549.51	107.66
549.68	110.01
549.84	107.66
550.01	58.51
550.18	53.83
550.34	105.32
550.51	70.22
550.68	124.05
550.84	117.03
551.01	32.77
551.18	65.54
551.34	131.07
551.51	154.48
551.68	210.65
551.84	56.17
552.01	16.38
552.18	37.45
552.34	107.66
552.51	138.09
552.68	124.05
552.84	95.96
553.01	133.41
553.18	110.01
553.34	124.05
553.51	53.83
553.67	77.24
553.84	142.77
554.01	53.83
554.17	107.66
554.34	49.15
554.51	86.60
554.67	65.54
554.84	114.69
555.00	70.22
555.17	88.94
555.33	159.16
555.50	51.49
555.67	77.24
555.83	121.71
556.00	147.45
556.16	135.75
556.33	60.85
556.50	51.49
556.66	2.34
556.83	4.68
556.99	93.62
557.16	105.32
557.32	105.32
557.49	98.30
557.65	86.60
557.82	79.58
557.98	56.17
558.15	60.85
558.32	135.75
558.48	65.54
558.65	135.75
558.81	102.98
558.98	70.22
559.14	49.15
559.31	105.32
559.47	81.92
559.64	37.45
559.80	114.69
559.97	100.64
560.13	149.79
560.30	105.32
560.46	28.09
560.63	63.19
560.79	60.85
560.96	35.11
561.12	91.28
561.29	2.34
561.45	142.77
561.61	93.62
561.78	65.54
561.94	86.60
562.11	65.54
562.27	91.28
562.44	37.45
562.60	159.16
562.77	93.62
562.93	18.72
563.10	88.94
563.26	74.90
563.42	95.96
563.59	105.32
563.75	88.94
563.92	121.71
564.08	77.24
564.24	63.19
564.41	135.75
564.57	149.79
564.74	9.36
564.90	95.96
565.07	98.30
565.23	121.71
565.39	100.64
565.56	30.43
565.72	46.81
565.88	88.94
566.05	56.17
566.21	30.43
566.38	56.17
566.54	56.17
566.70	107.66
566.87	21.06
567.03	72.56
567.19	65.54
567.36	67.88
567.52	39.79
567.68	91.28
567.85	49.15
568.01	119.37
568.17	84.26
568.34	74.90
568.50	117.03
568.66	102.98
568.83	39.79
568.99	74.90
569.15	133.41
569.32	95.96
569.48	44.47
569.64	46.81
569.81	4.68
569.97	95.96
570.13	126.39
570.30	100.64
570.46	105.32
570.62	110.01
570.78	65.54
570.95	79.58
571.11	114.69
571.27	79.58
571.43	74.90
571.60	124.05
571.76	84.26
571.92	133.41
572.09	74.90
572.25	95.96
572.41	95.96
572.57	154.48
572.74	81.92
572.90	112.35
573.06	102.98
573.22	35.11
573.38	9.36
573.55	105.32
573.71	128.73
573.87	63.19
574.03	79.58
574.20	35.11
574.36	63.19
574.52	77.24
574.68	86.60
574.84	56.17
575.01	117.03
575.17	112.35
575.33	102.98
575.49	112.35
575.65	72.56
575.82	86.60
575.98	70.22
576.14	88.94
576.30	70.22
576.46	84.26
576.62	98.30
576.79	142.77
576.95	77.24
577.11	117.03
577.27	81.92
577.43	67.88
577.59	100.64
577.75	91.28
577.92	67.88
578.08	49.15
578.24	0.00
578.40	51.49
578.56	0.00
578.72	70.22
578.88	138.09
579.04	93.62
579.21	30.43
579.37	21.06
579.53	81.92
579.69	56.17
579.85	65.54
580.01	60.85
580.17	142.77
580.33	58.51
580.49	37.45
580.65	72.56
580.82	98.30
580.98	72.56
581.14	42.13
581.30	100.64
581.46	51.49
581.62	114.69
581.78	98.30
581.94	107.66
582.10	107.66
582.26	100.64
582.42	51.49
582.58	32.77
582.74	60.85
582.90	23.41
583.06	32.77
583.22	0.00
583.38	0.00
583.54	102.98
583.70	72.56
583.86	67.88
584.02	35.11
584.18	74.90
584.34	35.11
584.50	100.64
584.66	145.11
584.82	107.66
584.98	100.64
585.14	23.41
585.30	112.35
585.46	63.19
585.62	49.15
585.78	88.94
585.94	91.28
586.10	4.68
586.26	84.26
586.42	44.47
586.58	84.26
586.74	81.92
586.90	79.58
587.06	28.09
587.22	23.41
587.38	102.98
587.54	100.64
587.70	56.17
587.86	107.66
588.02	39.79
588.18	70.22
588.34	53.83
588.49	86.60
588.65	30.43
588.81	18.72
588.97	49.15
589.13	93.62
589.29	70.22
589.45	72.56
589.61	117.03
589.77	51.49
589.93	131.07
590.08	9.36
590.24	56.17
590.40	121.71
590.56	39.79
590.72	159.16
590.88	124.05
591.04	30.43
591.20	60.85
591.35	21.06
591.51	49.15
591.67	81.92
591.83	51.49
591.99	119.37
592.15	105.32
592.31	84.26
592.46	39.79
592.62	7.02
592.78	72.56
592.94	88.94
593.10	102.98
593.26	11.70
593.41	23.41
593.57	88.94
593.73	86.60
593.89	114.69
594.05	46.81
594.20	77.24
594.36	49.15
594.52	30.43
594.68	4.68
594.84	112.35
594.99	74.90
595.15	46.81
595.31	177.88
595.47	149.79
595.62	86.60
595.78	100.64
595.94	0.00
596.10	42.13
596.25	88.94
596.41	117.03
596.57	119.37
596.73	4.68
596.88	35.11
597.04	32.77
597.20	112.35
597.36	105.32
597.51	56.17
597.67	35.11
597.83	37.45
597.99	60.85
598.14	84.26
598.30	39.79
598.46	70.22
598.61	128.73
598.77	81.92
598.93	49.15
599.09	60.85
599.24	65.54
599.40	58.51
599.56	0.00
599.71	0.00
599.87	60.85
600.03	142.77
600.18	60.85
600.34	88.94
600.50	126.39
600.65	53.83
600.81	72.56
600.97	46.81
601.12	77.24
601.28	112.35
601.44	74.90
601.59	37.45
601.75	58.51
601.91	44.47
602.06	93.62
602.22	30.43
602.37	23.41
602.53	84.26
602.69	93.62
602.84	74.90
603.00	86.60
603.16	42.13
603.31	58.51
603.47	79.58
603.62	23.41
603.78	30.43
603.94	74.90
604.09	18.72
604.25	100.64
604.40	86.60
604.56	124.05
604.71	72.56
604.87	70.22
605.03	124.05
605.18	16.38
605.34	114.69
605.49	88.94
605.65	70.22
605.80	88.94
605.96	58.51
606.12	74.90
606.27	107.66
606.43	77.24
606.58	142.77
606.74	63.19
606.89	168.52
607.05	102.98
607.20	119.37
607.36	58.51
607.51	70.22
607.67	35.11
607.82	46.81
607.98	74.90
608.13	46.81
608.29	98.30
608.44	124.05
608.60	63.19
608.75	63.19
608.91	23.41
609.06	46.81
609.22	35.11
609.37	23.41
609.53	60.85
609.68	49.15
609.84	95.96
609.99	70.22
610.15	30.43
610.30	84.26
610.46	49.15
610.61	65.54
610.76	14.04
610.92	91.28
611.07	86.60
611.23	107.66
611.38	135.75
611.54	88.94
611.69	88.94
611.84	32.77
612.00	39.79
612.15	28.09
612.31	60.85
612.46	65.54
612.62	70.22
612.77	88.94
612.92	49.15
613.08	119.37
613.23	37.45
613.39	49.15
613.54	84.26
613.69	53.83
613.85	65.54
614.00	49.15
614.15	51.49
614.31	16.38
614.46	77.24
614.62	30.43
614.77	102.98
614.92	58.51
615.08	14.04
615.23	105.32
615.38	28.09
615.54	88.94
615.69	23.41
615.84	35.11
616.00	23.41
616.15	67.88
616.30	128.73
616.46	74.90
616.61	72.56
616.76	70.22
616.92	42.13
617.07	91.28
617.22	70.22
617.37	67.88
617.53	51.49
617.68	131.07
617.83	79.58
617.99	95.96
618.14	51.49
618.29	117.03
618.45	23.41
618.60	98.30
618.75	72.56
618.90	72.56
619.06	93.62
619.21	84.26
619.36	65.54
619.51	58.51
619.67	77.24
619.82	77.24
619.97	18.72
620.12	107.66
620.28	74.90
620.43	65.54
620.58	98.30
620.73	53.83
620.89	95.96
621.04	95.96
621.19	53.83
621.34	114.69
621.49	72.56
621.65	74.90
621.80	74.90
621.95	37.45
622.10	14.04
622.25	0.00
622.41	58.51
622.56	39.79
622.71	72.56
622.86	86.60
623.01	39.79
623.16	21.06
623.32	35.11
623.47	70.22
623.62	102.98
623.77	56.17
623.92	140.43
624.07	56.17
624.23	0.00
624.38	0.00
624.53	35.11
624.68	79.58
624.83	28.09
624.98	16.38
625.13	0.00
625.29	30.43
625.44	11.70
625.59	37.45
625.74	30.43
625.89	63.19
626.04	58.51
626.19	114.69
626.34	70.22
626.49	42.13
626.65	70.22
626.80	60.85
626.95	112.35
627.10	28.09
627.25	0.00
627.40	32.77
627.55	65.54
627.70	86.60
627.85	65.54
628.00	35.11
628.15	7.02
628.30	0.00
628.45	18.72
628.60	65.54
628.76	49.15
628.91	42.13
629.06	14.04
629.21	112.35
629.36	49.15
629.51	21.06
629.66	11.70
629.81	32.77
629.96	49.15
630.11	95.96
630.26	42.13
630.41	84.26
630.56	65.54
630.71	79.58
630.86	65.54
631.01	9.36
631.16	49.15
631.31	117.03
631.46	86.60
631.61	84.26
631.76	74.90
631.91	65.54
632.06	51.49
632.21	56.17
632.36	25.75
632.51	42.13
632.66	46.81
632.81	23.41
632.96	86.60
633.10	79.58
633.25	53.83
633.40	74.90
633.55	0.00
633.70	32.77
633.85	28.09
634.00	63.19
634.15	51.49
634.30	114.69
634.45	51.49
634.60	67.88
634.75	7.02
634.90	58.51
635.05	28.09
635.19	60.85
635.34	28.09
635.49	77.24
635.64	35.11
635.79	0.00
635.94	53.83
636.09	46.81
636.24	23.41
636.39	81.92
636.53	0.00
636.68	81.92
636.83	49.15
636.98	77.24
637.13	51.49
637.28	0.00
637.43	86.60
637.57	35.11
637.72	0.00
637.87	51.49
638.02	4.68
638.17	44.47
638.32	35.11
638.46	88.94
638.61	135.75
638.76	30.43
638.91	28.09
639.06	72.56
639.20	23.41
639.35	70.22
639.50	102.98
639.65	46.81
639.80	0.00
639.94	91.28
640.09	88.94
640.24	49.15
640.39	39.79
640.54	70.22
640.68	67.88
640.83	42.13
640.98	51.49
641.13	56.17
641.27	91.28
641.42	0.00
641.57	44.47
641.72	16.38
641.86	114.69
642.01	32.77
642.16	28.09
642.31	105.32
642.45	25.75
642.60	51.49
642.75	42.13
642.90	102.98
643.04	91.28
643.19	35.11
643.34	0.00
643.48	37.45
643.63	91.28
643.78	67.88
643.93	23.41
644.07	53.83
644.22	86.60
644.37	58.51
644.51	107.66
644.66	7.02
644.81	11.70
644.95	0.00
645.10	60.85
645.25	100.64
645.39	65.54
645.54	107.66
645.69	112.35
645.83	35.11
645.98	0.00
646.13	88.94
646.27	39.79
646.42	23.41
646.57	0.00
646.71	42.13
646.86	58.51
647.00	79.58
647.15	35.11
647.30	11.70
647.44	124.05
647.59	37.45
647.74	72.56
647.88	49.15
648.03	49.15
648.17	21.06
648.32	37.45
648.47	67.88
648.61	56.17
648.76	117.03
648.90	37.45
649.05	63.19
649.20	67.88
649.34	88.94
649.49	16.38
649.63	67.88
649.78	11.70
649.92	11.70
650.07	67.88
650.21	16.38
650.36	105.32
650.51	107.66
650.65	65.54
650.80	28.09
650.94	70.22
651.09	65.54
651.23	58.51
651.38	14.04
651.52	35.11
651.67	51.49
651.81	133.41
651.96	79.58
652.10	60.85
652.25	14.04
652.39	35.11
652.54	7.02
652.68	60.85
652.83	81.92
652.97	0.00
653.12	63.19
653.26	42.13
653.41	23.41
653.55	65.54
653.70	74.90
653.84	7.02
653.99	23.41
654.13	0.00
654.27	23.41
654.42	32.77
654.56	16.38
654.71	65.54
654.85	16.38
655.00	53.83
655.14	4.68
655.29	42.13
655.43	84.26
655.57	131.07
655.72	49.15
655.86	42.13
656.01	25.75
656.15	56.17
656.30	53.83
656.44	63.19
656.58	18.72
656.73	28.09
656.87	0.00
657.01	81.92
657.16	95.96
657.30	49.15
657.45	63.19
657.59	37.45
657.73	11.70
657.88	63.19
658.02	70.22
658.16	65.54
658.31	93.62
658.45	44.47
658.60	0.00
658.74	28.09
658.88	49.15
659.03	25.75
659.17	28.09
659.31	25.75
659.46	4.68
659.60	60.85
659.74	65.54
659.89	67.88
660.03	63.19
660.17	98.30
660.32	32.77
660.46	79.58
660.60	91.28
660.74	56.17
660.89	11.70
661.03	74.90
661.17	84.26
661.32	44.47
661.46	74.90
661.60	25.75
661.74	88.94
661.89	39.79
662.03	0.00
662.17	60.85
662.31	35.11
662.46	72.56
662.60	42.13
662.74	32.77
662.88	60.85
663.03	67.88
663.17	70.22
663.31	0.00
663.45	30.43
663.60	49.15
663.74	60.85
663.88	0.00
664.02	67.88
664.17	56.17
664.31	49.15
664.45	84.26
664.59	86.60
664.73	53.83
664.88	25.75
665.02	84.26
665.16	72.56
665.30	4.68
665.44	35.11
665.59	16.38
665.73	23.41
665.87	0.00
666.01	39.79
666.15	91.28
666.29	28.09
666.44	77.24
666.58	98.30
666.72	74.90
666.86	25.75
667.00	46.81
667.14	30.43
667.28	0.00
667.43	46.81
667.57	46.81
667.71	32.77
667.85	86.60
667.99	86.60
668.13	21.06
668.27	42.13
668.41	0.00
668.56	60.85
668.70	16.38
668.84	77.24
668.98	0.00
669.12	7.02
669.26	9.36
669.40	35.11
669.54	44.47
669.68	39.79
669.82	79.58
669.96	60.85
670.10	84.26
670.25	0.00
670.39	81.92
670.53	95.96
670.67	74.90
670.81	98.30
670.95	14.04
671.09	39.79
671.23	11.70
671.37	72.56
671.51	49.15
671.65	16.38
671.79	4.68
671.93	4.68
672.07	51.49
672.21	56.17
672.35	100.64
672.49	86.60
672.63	53.83
672.77	11.70
672.91	133.41
673.05	56.17
673.19	0.00
673.33	9.36
673.47	0.00
673.61	74.90
673.75	56.17
673.89	65.54
674.03	46.81
674.17	30.43
674.31	138.09
674.45	51.49
674.59	126.39
674.73	35.11
674.87	42.13
675.01	100.64
675.15	72.56
675.29	128.73
675.43	14.04
675.56	25.75
675.70	16.38
675.84	119.37
675.98	16.38
676.12	49.15
676.26	112.35
676.40	77.24
676.54	32.77
676.68	23.41
676.82	11.70
676.96	9.36
677.10	98.30
677.23	25.75
677.37	63.19
677.51	0.00
677.65	46.81
677.79	79.58
677.93	56.17
678.07	107.66
678.21	0.00
678.34	63.19
678.48	39.79
678.62	0.00
678.76	53.83
678.90	0.00
679.04	86.60
679.18	58.51
679.31	51.49
679.45	88.94
679.59	42.13
679.73	21.06
679.87	35.11
680.00	0.00
680.14	65.54
680.28	7.02
680.42	49.15
680.56	91.28
680.70	44.47
680.83	84.26
680.97	114.69
681.11	98.30
681.25	86.60
681.39	65.54
681.52	49.15
681.66	49.15
681.80	16.38
681.94	30.43
682.07	25.75
682.21	56.17
682.35	44.47
682.49	77.24
682.62	11.70
682.76	70.22
682.90	0.00
683.04	0.00
683.17	58.51
683.31	77.24
683.45	11.70
683.59	4.68
683.72	0.00
683.86	65.54
684.00	117.03
684.13	79.58
684.27	4.68
684.41	77.24
684.55	21.06
684.68	35.11
684.82	30.43
684.96	23.41
685.09	79.58
685.23	81.92
685.37	18.72
685.50	30.43
685.64	32.77
685.78	65.54
685.91	28.09
686.05	72.56
686.19	39.79
686.32	60.85
686.46	30.43
686.60	67.88
686.73	0.00
686.87	58.51
687.01	25.75
687.14	65.54
687.28	63.19
687.42	56.17
687.55	0.00
687.69	0.00
687.82	0.00
687.96	4.68
688.10	0.00
688.23	18.72
688.37	18.72
688.50	25.75
688.64	0.00
688.78	16.38
688.91	51.49
689.05	28.09
689.18	42.13
689.32	23.41
689.46	93.62
689.59	42.13
689.73	102.98
689.86	74.90
690.00	0.00
690.13	0.00
690.27	77.24
690.41	0.00
690.54	51.49
690.68	14.04
690.81	51.49
690.95	44.47
691.08	18.72
691.22	7.02
691.35	51.49
691.49	46.81
691.62	0.00
691.76	60.85
691.89	9.36
692.03	51.49
692.16	35.11
692.30	18.72
692.43	58.51
692.57	18.72
692.70	18.72
692.84	0.00
692.97	51.49
693.11	53.83
693.24	16.38
693.38	39.79
693.51	67.88
693.65	18.72
693.78	14.04
693.92	23.41
694.05	32.77
694.19	42.13
694.32	0.00
694.45	51.49
694.59	0.00
694.72	0.00
694.86	95.96
694.99	65.54
695.13	60.85
695.26	72.56
695.39	0.00
695.53	46.81
695.66	46.81
695.80	18.72
695.93	18.72
696.07	0.00
696.20	28.09
696.33	35.11
696.47	79.58
696.60	0.00
696.73	28.09
696.87	32.77
697.00	9.36
697.14	23.41
697.27	63.19
697.40	37.45
697.54	60.85
697.67	11.70
697.80	63.19
697.94	93.62
698.07	2.34
698.21	28.09
698.34	49.15
698.47	0.00
698.61	70.22
698.74	21.06
698.87	53.83
699.01	77.24
699.14	74.90
699.27	23.41
699.40	56.17
699.54	42.13
699.67	35.11
699.80	44.47
699.94	21.06
700.07	70.22
700.20	16.38
700.34	16.38
700.47	32.77
700.60	58.51
700.73	25.75
700.87	0.00
701.00	51.49
701.13	35.11
701.26	32.77
701.40	21.06
701.53	56.17
701.66	128.73
701.79	42.13
701.93	56.17
702.06	37.45
702.19	77.24
702.32	100.64
702.46	46.81
702.59	37.45
702.72	63.19
702.85	37.45
702.99	21.06
703.12	9.36
703.25	60.85
703.38	58.51
703.51	46.81
703.65	25.75
703.78	56.17
703.91	72.56
704.04	23.41
704.17	77.24
704.31	25.75
704.44	18.72
704.57	0.00
704.70	30.43
704.83	39.79
704.96	18.72
705.10	98.30
705.23	53.83
>>>>>End Processed Spectral Data<<<<<
