SpectraSuite Data File
++++++++++++++++++++++++++++++++++++
Date: Fri Oct 04 12:13:33 GMT-05:00 2013
User: price-jones
Dark Spectrum Present: No
Reference Spectrum Present: No
Number of Sampled Component Spectra: 1
Spectrometers: USB2+H05261
Integration Time (usec): 10000 (USB2+H05261)
Spectra Averaged: 1 (USB2+H05261)
Boxcar Smoothing: 0 (USB2+H05261)
Correct for Electrical Dark: No (USB2+H05261)
Strobe/Lamp Enabled: No (USB2+H05261)
Correct for Detector Non-linearity: No (USB2+H05261)
Correct for Stray Light: No (USB2+H05261)
Number of Pixels in Processed Spectrum: 2048
>>>>>Begin Processed Spectral Data<<<<<
365.73	63.19
365.92	63.19
366.12	63.19
366.32	0.00
366.52	0.00
366.72	0.00
366.91	0.00
367.11	0.00
367.31	0.00
367.51	0.00
367.70	0.00
367.90	0.00
368.10	0.00
368.30	0.00
368.49	0.00
368.69	0.00
368.89	0.00
369.09	0.00
369.28	0.00
369.48	0.00
369.68	0.00
369.87	0.00
370.07	0.00
370.27	0.00
370.47	0.00
370.66	0.00
370.86	0.00
371.06	0.00
371.25	0.00
371.45	0.00
371.65	0.00
371.84	0.00
372.04	0.00
372.24	11.70
372.44	53.83
372.63	23.41
372.83	35.11
373.03	4.68
373.22	21.06
373.42	21.06
373.62	2.34
373.81	21.06
374.01	9.36
374.21	46.81
374.40	51.49
374.60	65.54
374.79	51.49
374.99	0.00
375.19	0.00
375.38	42.13
375.58	0.00
375.78	53.83
375.97	14.04
376.17	86.60
376.37	53.83
376.56	35.11
376.76	46.81
376.95	42.13
377.15	25.75
377.35	67.88
377.54	9.36
377.74	37.45
377.93	67.88
378.13	70.22
378.33	0.00
378.52	16.38
378.72	9.36
378.91	0.00
379.11	42.13
379.31	72.56
379.50	9.36
379.70	0.00
379.89	93.62
380.09	21.06
380.28	0.00
380.48	0.00
380.68	39.79
380.87	16.38
381.07	35.11
381.26	23.41
381.46	11.70
381.65	74.90
381.85	65.54
382.04	21.06
382.24	51.49
382.43	65.54
382.63	4.68
382.83	11.70
383.02	0.00
383.22	0.00
383.41	28.09
383.61	32.77
383.80	35.11
384.00	77.24
384.19	11.70
384.39	18.72
384.58	16.38
384.78	72.56
384.97	67.88
385.17	53.83
385.36	16.38
385.56	49.15
385.75	37.45
385.95	16.38
386.14	0.00
386.34	0.00
386.53	65.54
386.72	32.77
386.92	0.00
387.11	49.15
387.31	58.51
387.50	0.00
387.70	72.56
387.89	21.06
388.09	25.75
388.28	53.83
388.48	81.92
388.67	131.07
388.86	16.38
389.06	2.34
389.25	53.83
389.45	30.43
389.64	0.00
389.84	0.00
390.03	56.17
390.22	49.15
390.42	79.58
390.61	0.00
390.81	39.79
391.00	44.47
391.19	0.00
391.39	49.15
391.58	35.11
391.78	35.11
391.97	0.00
392.16	0.00
392.36	0.00
392.55	0.00
392.75	0.00
392.94	49.15
393.13	35.11
393.33	25.75
393.52	93.62
393.71	35.11
393.91	0.00
394.10	9.36
394.29	63.19
394.49	88.94
394.68	67.88
394.88	42.13
395.07	0.00
395.26	0.00
395.46	7.02
395.65	53.83
395.84	0.00
396.04	49.15
396.23	42.13
396.42	0.00
396.62	0.00
396.81	28.09
397.00	7.02
397.19	0.00
397.39	0.00
397.58	0.00
397.77	0.00
397.97	16.38
398.16	93.62
398.35	67.88
398.55	21.06
398.74	32.77
398.93	32.77
399.12	65.54
399.32	44.47
399.51	25.75
399.70	7.02
399.90	58.51
400.09	107.66
400.28	23.41
400.47	49.15
400.67	32.77
400.86	16.38
401.05	14.04
401.24	25.75
401.44	30.43
401.63	56.17
401.82	0.00
402.01	42.13
402.21	32.77
402.40	11.70
402.59	11.70
402.78	2.34
402.97	32.77
403.17	74.90
403.36	11.70
403.55	30.43
403.74	28.09
403.93	0.00
404.13	0.00
404.32	0.00
404.51	0.00
404.70	30.43
404.89	9.36
405.09	28.09
405.28	25.75
405.47	25.75
405.66	46.81
405.85	30.43
406.05	77.24
406.24	23.41
406.43	74.90
406.62	9.36
406.81	37.45
407.00	0.00
407.20	37.45
407.39	42.13
407.58	14.04
407.77	0.00
407.96	11.70
408.15	7.02
408.34	58.51
408.54	0.00
408.73	0.00
408.92	39.79
409.11	25.75
409.30	0.00
409.49	21.06
409.68	86.60
409.87	49.15
410.07	11.70
410.26	51.49
410.45	16.38
410.64	42.13
410.83	18.72
411.02	14.04
411.21	0.00
411.40	0.00
411.59	46.81
411.78	18.72
411.98	9.36
412.17	51.49
412.36	25.75
412.55	37.45
412.74	0.00
412.93	9.36
413.12	16.38
413.31	14.04
413.50	32.77
413.69	2.34
413.88	49.15
414.07	86.60
414.26	39.79
414.45	42.13
414.64	30.43
414.83	39.79
415.02	60.85
415.22	0.00
415.41	81.92
415.60	37.45
415.79	14.04
415.98	0.00
416.17	81.92
416.36	49.15
416.55	0.00
416.74	65.54
416.93	86.60
417.12	0.00
417.31	4.68
417.50	0.00
417.69	0.00
417.88	0.00
418.07	58.51
418.26	18.72
418.45	0.00
418.64	0.00
418.83	9.36
419.02	23.41
419.21	37.45
419.39	2.34
419.58	0.00
419.77	60.85
419.96	0.00
420.15	9.36
420.34	51.49
420.53	2.34
420.72	37.45
420.91	14.04
421.10	56.17
421.29	18.72
421.48	32.77
421.67	42.13
421.86	0.00
422.05	0.00
422.24	11.70
422.43	60.85
422.61	18.72
422.80	37.45
422.99	28.09
423.18	81.92
423.37	0.00
423.56	0.00
423.75	21.06
423.94	9.36
424.13	0.00
424.32	46.81
424.50	53.83
424.69	0.00
424.88	25.75
425.07	81.92
425.26	86.60
425.45	0.00
425.64	65.54
425.83	56.17
426.01	37.45
426.20	25.75
426.39	95.96
426.58	42.13
426.77	9.36
426.96	28.09
427.15	42.13
427.33	0.00
427.52	30.43
427.71	0.00
427.90	39.79
428.09	4.68
428.28	4.68
428.46	11.70
428.65	49.15
428.84	37.45
429.03	32.77
429.22	25.75
429.40	53.83
429.59	0.00
429.78	23.41
429.97	39.79
430.16	25.75
430.34	42.13
430.53	0.00
430.72	4.68
430.91	23.41
431.10	23.41
431.28	53.83
431.47	0.00
431.66	18.72
431.85	51.49
432.03	58.51
432.22	84.26
432.41	86.60
432.60	7.02
432.79	0.00
432.97	42.13
433.16	28.09
433.35	35.11
433.54	23.41
433.72	42.13
433.91	7.02
434.10	53.83
434.28	79.58
434.47	7.02
434.66	67.88
434.85	35.11
435.03	44.47
435.22	124.05
435.41	86.60
435.59	0.00
435.78	35.11
435.97	67.88
436.16	35.11
436.34	18.72
436.53	7.02
436.72	32.77
436.90	0.00
437.09	16.38
437.28	0.00
437.46	14.04
437.65	49.15
437.84	0.00
438.02	58.51
438.21	72.56
438.40	4.68
438.58	0.00
438.77	140.43
438.96	51.49
439.14	0.00
439.33	0.00
439.52	30.43
439.70	0.00
439.89	25.75
440.08	0.00
440.26	0.00
440.45	102.98
440.63	67.88
440.82	0.00
441.01	0.00
441.19	9.36
441.38	14.04
441.57	58.51
441.75	0.00
441.94	9.36
442.12	7.02
442.31	63.19
442.50	79.58
442.68	0.00
442.87	0.00
443.05	16.38
443.24	0.00
443.43	16.38
443.61	32.77
443.80	0.00
443.98	51.49
444.17	102.98
444.35	2.34
444.54	72.56
444.73	28.09
444.91	42.13
445.10	0.00
445.28	63.19
445.47	65.54
445.65	7.02
445.84	58.51
446.02	42.13
446.21	56.17
446.39	25.75
446.58	32.77
446.77	25.75
446.95	21.06
447.14	16.38
447.32	53.83
447.51	0.00
447.69	37.45
447.88	30.43
448.06	37.45
448.25	0.00
448.43	21.06
448.62	0.00
448.80	16.38
448.99	67.88
449.17	23.41
449.36	56.17
449.54	53.83
449.73	0.00
449.91	14.04
450.10	88.94
450.28	58.51
450.46	0.00
450.65	4.68
450.83	84.26
451.02	14.04
451.20	63.19
451.39	46.81
451.57	0.00
451.76	7.02
451.94	9.36
452.13	0.00
452.31	72.56
452.49	46.81
452.68	0.00
452.86	39.79
453.05	0.00
453.23	74.90
453.42	100.64
453.60	72.56
453.78	95.96
453.97	70.22
454.15	32.77
454.34	0.00
454.52	81.92
454.70	95.96
454.89	21.06
455.07	93.62
455.26	0.00
455.44	0.00
455.62	42.13
455.81	28.09
455.99	39.79
456.17	100.64
456.36	0.00
456.54	23.41
456.73	0.00
456.91	98.30
457.09	70.22
457.28	49.15
457.46	42.13
457.64	37.45
457.83	39.79
458.01	0.00
458.19	46.81
458.38	21.06
458.56	100.64
458.74	63.19
458.93	25.75
459.11	44.47
459.29	51.49
459.48	91.28
459.66	65.54
459.84	114.69
460.03	18.72
460.21	53.83
460.39	56.17
460.57	79.58
460.76	0.00
460.94	9.36
461.12	63.19
461.31	81.92
461.49	14.04
461.67	4.68
461.85	0.00
462.04	37.45
462.22	28.09
462.40	32.77
462.59	0.00
462.77	46.81
462.95	49.15
463.13	4.68
463.32	84.26
463.50	93.62
463.68	0.00
463.86	32.77
464.05	46.81
464.23	46.81
464.41	133.41
464.59	39.79
464.78	0.00
464.96	65.54
465.14	39.79
465.32	95.96
465.50	0.00
465.69	0.00
465.87	163.84
466.05	0.00
466.23	4.68
466.41	72.56
466.60	58.51
466.78	0.00
466.96	0.00
467.14	25.75
467.32	37.45
467.51	16.38
467.69	0.00
467.87	84.26
468.05	114.69
468.23	88.94
468.41	23.41
468.60	0.00
468.78	42.13
468.96	4.68
469.14	37.45
469.32	35.11
469.50	58.51
469.69	124.05
469.87	0.00
470.05	4.68
470.23	44.47
470.41	72.56
470.59	91.28
470.77	51.49
470.95	0.00
471.14	25.75
471.32	37.45
471.50	23.41
471.68	18.72
471.86	37.45
472.04	77.24
472.22	30.43
472.40	11.70
472.58	46.81
472.77	0.00
472.95	7.02
473.13	37.45
473.31	14.04
473.49	56.17
473.67	25.75
473.85	0.00
474.03	0.00
474.21	88.94
474.39	21.06
474.57	95.96
474.75	65.54
474.93	60.85
475.12	84.26
475.30	0.00
475.48	56.17
475.66	35.11
475.84	32.77
476.02	4.68
476.20	14.04
476.38	11.70
476.56	46.81
476.74	0.00
476.92	74.90
477.10	105.32
477.28	39.79
477.46	74.90
477.64	72.56
477.82	98.30
478.00	32.77
478.18	67.88
478.36	51.49
478.54	7.02
478.72	49.15
478.90	28.09
479.08	0.00
479.26	14.04
479.44	21.06
479.62	81.92
479.80	124.05
479.98	0.00
480.16	58.51
480.34	77.24
480.52	0.00
480.70	49.15
480.88	23.41
481.06	0.00
481.24	2.34
481.41	21.06
481.59	63.19
481.77	67.88
481.95	0.00
482.13	28.09
482.31	65.54
482.49	18.72
482.67	44.47
482.85	93.62
483.03	16.38
483.21	4.68
483.39	30.43
483.57	21.06
483.74	81.92
483.92	11.70
484.10	39.79
484.28	63.19
484.46	93.62
484.64	35.11
484.82	0.00
485.00	16.38
485.18	46.81
485.35	9.36
485.53	18.72
485.71	88.94
485.89	0.00
486.07	72.56
486.25	18.72
486.43	39.79
486.61	0.00
486.78	67.88
486.96	42.13
487.14	30.43
487.32	46.81
487.50	11.70
487.68	63.19
487.85	56.17
488.03	37.45
488.21	100.64
488.39	16.38
488.57	23.41
488.75	21.06
488.92	21.06
489.10	53.83
489.28	9.36
489.46	32.77
489.64	39.79
489.81	56.17
489.99	51.49
490.17	0.00
490.35	0.00
490.53	23.41
490.70	37.45
490.88	84.26
491.06	0.00
491.24	46.81
491.41	72.56
491.59	140.43
491.77	0.00
491.95	37.45
492.13	0.00
492.30	63.19
492.48	46.81
492.66	58.51
492.84	0.00
493.01	39.79
493.19	0.00
493.37	0.00
493.54	60.85
493.72	81.92
493.90	60.85
494.08	25.75
494.25	0.00
494.43	14.04
494.61	18.72
494.79	23.41
494.96	63.19
495.14	58.51
495.32	30.43
495.49	67.88
495.67	11.70
495.85	18.72
496.02	35.11
496.20	0.00
496.38	46.81
496.55	28.09
496.73	63.19
496.91	49.15
497.09	100.64
497.26	46.81
497.44	14.04
497.62	51.49
497.79	70.22
497.97	30.43
498.14	35.11
498.32	18.72
498.50	58.51
498.67	7.02
498.85	0.00
499.03	25.75
499.20	7.02
499.38	72.56
499.56	0.00
499.73	77.24
499.91	49.15
500.08	0.00
500.26	23.41
500.44	60.85
500.61	49.15
500.79	28.09
500.97	102.98
501.14	70.22
501.32	0.00
501.49	114.69
501.67	42.13
501.84	4.68
502.02	21.06
502.20	74.90
502.37	0.00
502.55	84.26
502.72	107.66
502.90	18.72
503.07	7.02
503.25	46.81
503.43	46.81
503.60	14.04
503.78	25.75
503.95	0.00
504.13	100.64
504.30	65.54
504.48	81.92
504.65	0.00
504.83	60.85
505.01	23.41
505.18	51.49
505.36	32.77
505.53	114.69
505.71	65.54
505.88	93.62
506.06	44.47
506.23	30.43
506.41	86.60
506.58	74.90
506.76	21.06
506.93	25.75
507.11	79.58
507.28	44.47
507.46	0.00
507.63	46.81
507.81	58.51
507.98	35.11
508.16	86.60
508.33	72.56
508.50	98.30
508.68	63.19
508.85	0.00
509.03	4.68
509.20	49.15
509.38	35.11
509.55	42.13
509.73	112.35
509.90	42.13
510.08	21.06
510.25	39.79
510.42	60.85
510.60	0.00
510.77	28.09
510.95	44.47
511.12	32.77
511.30	37.45
511.47	32.77
511.64	51.49
511.82	58.51
511.99	18.72
512.17	102.98
512.34	25.75
512.51	4.68
512.69	58.51
512.86	67.88
513.04	30.43
513.21	7.02
513.38	49.15
513.56	46.81
513.73	124.05
513.90	70.22
514.08	93.62
514.25	46.81
514.43	51.49
514.60	56.17
514.77	102.98
514.95	30.43
515.12	60.85
515.29	37.45
515.47	4.68
515.64	67.88
515.81	46.81
515.99	98.30
516.16	72.56
516.33	138.09
516.51	58.51
516.68	0.00
516.85	25.75
517.03	63.19
517.20	4.68
517.37	51.49
517.54	2.34
517.72	39.79
517.89	88.94
518.06	9.36
518.24	18.72
518.41	49.15
518.58	44.47
518.75	77.24
518.93	67.88
519.10	49.15
519.27	51.49
519.45	88.94
519.62	0.00
519.79	72.56
519.96	49.15
520.14	95.96
520.31	0.00
520.48	51.49
520.65	58.51
520.83	4.68
521.00	0.00
521.17	42.13
521.34	100.64
521.52	0.00
521.69	32.77
521.86	32.77
522.03	39.79
522.20	81.92
522.38	72.56
522.55	49.15
522.72	0.00
522.89	42.13
523.07	35.11
523.24	63.19
523.41	77.24
523.58	77.24
523.75	14.04
523.92	67.88
524.10	37.45
524.27	86.60
524.44	21.06
524.61	81.92
524.78	81.92
524.96	46.81
525.13	11.70
525.30	58.51
525.47	18.72
525.64	53.83
525.81	63.19
525.98	60.85
526.16	30.43
526.33	16.38
526.50	42.13
526.67	42.13
526.84	37.45
527.01	72.56
527.18	30.43
527.36	88.94
527.53	74.90
527.70	35.11
527.87	21.06
528.04	58.51
528.21	32.77
528.38	58.51
528.55	74.90
528.72	9.36
528.89	46.81
529.07	51.49
529.24	70.22
529.41	51.49
529.58	58.51
529.75	84.26
529.92	60.85
530.09	28.09
530.26	58.51
530.43	35.11
530.60	86.60
530.77	121.71
530.94	37.45
531.11	7.02
531.28	65.54
531.46	39.79
531.63	88.94
531.80	77.24
531.97	0.00
532.14	0.00
532.31	7.02
532.48	0.00
532.65	18.72
532.82	53.83
532.99	84.26
533.16	77.24
533.33	44.47
533.50	140.43
533.67	0.00
533.84	25.75
534.01	0.00
534.18	14.04
534.35	0.00
534.52	0.00
534.69	7.02
534.86	35.11
535.03	0.00
535.20	100.64
535.37	93.62
535.54	105.32
535.71	46.81
535.88	102.98
536.05	14.04
536.22	28.09
536.38	81.92
536.55	72.56
536.72	107.66
536.89	42.13
537.06	46.81
537.23	23.41
537.40	21.06
537.57	23.41
537.74	7.02
537.91	77.24
538.08	18.72
538.25	32.77
538.42	70.22
538.59	0.00
538.75	28.09
538.92	21.06
539.09	58.51
539.26	18.72
539.43	135.75
539.60	0.00
539.77	28.09
539.94	77.24
540.11	21.06
540.28	58.51
540.44	74.90
540.61	0.00
540.78	65.54
540.95	39.79
541.12	67.88
541.29	51.49
541.46	88.94
541.62	79.58
541.79	93.62
541.96	67.88
542.13	7.02
542.30	42.13
542.47	58.51
542.63	0.00
542.80	81.92
542.97	35.11
543.14	7.02
543.31	0.00
543.48	32.77
543.64	42.13
543.81	32.77
543.98	58.51
544.15	119.37
544.32	39.79
544.48	21.06
544.65	49.15
544.82	14.04
544.99	70.22
545.16	0.00
545.32	42.13
545.49	0.00
545.66	98.30
545.83	28.09
546.00	18.72
546.16	0.00
546.33	28.09
546.50	79.58
546.67	28.09
546.83	11.70
547.00	42.13
547.17	65.54
547.34	56.17
547.50	121.71
547.67	53.83
547.84	18.72
548.00	0.00
548.17	63.19
548.34	37.45
548.51	81.92
548.67	0.00
548.84	42.13
549.01	35.11
549.18	37.45
549.34	63.19
549.51	49.15
549.68	46.81
549.84	11.70
550.01	9.36
550.18	39.79
550.34	16.38
550.51	51.49
550.68	67.88
550.84	107.66
551.01	11.70
551.18	18.72
551.34	0.00
551.51	0.00
551.68	46.81
551.84	14.04
552.01	65.54
552.18	51.49
552.34	18.72
552.51	100.64
552.68	86.60
552.84	23.41
553.01	72.56
553.18	0.00
553.34	21.06
553.51	51.49
553.67	23.41
553.84	70.22
554.01	88.94
554.17	11.70
554.34	32.77
554.51	81.92
554.67	58.51
554.84	4.68
555.00	81.92
555.17	88.94
555.33	93.62
555.50	46.81
555.67	72.56
555.83	42.13
556.00	25.75
556.16	25.75
556.33	30.43
556.50	23.41
556.66	42.13
556.83	2.34
556.99	63.19
557.16	110.01
557.32	30.43
557.49	58.51
557.65	70.22
557.82	42.13
557.98	70.22
558.15	0.00
558.32	42.13
558.48	0.00
558.65	25.75
558.81	0.00
558.98	60.85
559.14	86.60
559.31	21.06
559.47	72.56
559.64	114.69
559.80	67.88
559.97	9.36
560.13	44.47
560.30	70.22
560.46	46.81
560.63	60.85
560.79	53.83
560.96	124.05
561.12	86.60
561.29	9.36
561.45	18.72
561.61	58.51
561.78	9.36
561.94	49.15
562.11	86.60
562.27	74.90
562.44	14.04
562.60	16.38
562.77	0.00
562.93	95.96
563.10	21.06
563.26	91.28
563.42	56.17
563.59	28.09
563.75	46.81
563.92	105.32
564.08	84.26
564.24	86.60
564.41	28.09
564.57	42.13
564.74	2.34
564.90	0.00
565.07	74.90
565.23	25.75
565.39	114.69
565.56	21.06
565.72	53.83
565.88	49.15
566.05	2.34
566.21	32.77
566.38	0.00
566.54	63.19
566.70	72.56
566.87	16.38
567.03	60.85
567.19	91.28
567.36	56.17
567.52	9.36
567.68	95.96
567.85	86.60
568.01	0.00
568.17	2.34
568.34	67.88
568.50	4.68
568.66	0.00
568.83	21.06
568.99	72.56
569.15	44.47
569.32	91.28
569.48	49.15
569.64	9.36
569.81	0.00
569.97	25.75
570.13	4.68
570.30	39.79
570.46	4.68
570.62	114.69
570.78	46.81
570.95	86.60
571.11	72.56
571.27	42.13
571.43	7.02
571.60	0.00
571.76	65.54
571.92	88.94
572.09	72.56
572.25	60.85
572.41	42.13
572.57	35.11
572.74	37.45
572.90	0.00
573.06	112.35
573.22	0.00
573.38	93.62
573.55	30.43
573.71	21.06
573.87	58.51
574.03	0.00
574.20	51.49
574.36	46.81
574.52	23.41
574.68	49.15
574.84	0.00
575.01	0.00
575.17	32.77
575.33	44.47
575.49	110.01
575.65	56.17
575.82	84.26
575.98	98.30
576.14	7.02
576.30	53.83
576.46	88.94
576.62	23.41
576.79	58.51
576.95	46.81
577.11	0.00
577.27	0.00
577.43	51.49
577.59	28.09
577.75	91.28
577.92	70.22
578.08	18.72
578.24	37.45
578.40	58.51
578.56	72.56
578.72	16.38
578.88	18.72
579.04	42.13
579.21	39.79
579.37	0.00
579.53	67.88
579.69	2.34
579.85	53.83
580.01	107.66
580.17	16.38
580.33	39.79
580.49	39.79
580.65	14.04
580.82	79.58
580.98	65.54
581.14	49.15
581.30	70.22
581.46	53.83
581.62	72.56
581.78	67.88
581.94	67.88
582.10	37.45
582.26	39.79
582.42	39.79
582.58	37.45
582.74	35.11
582.90	16.38
583.06	74.90
583.22	18.72
583.38	14.04
583.54	32.77
583.70	124.05
583.86	32.77
584.02	91.28
584.18	35.11
584.34	0.00
584.50	16.38
584.66	0.00
584.82	21.06
584.98	65.54
585.14	9.36
585.30	4.68
585.46	58.51
585.62	42.13
585.78	30.43
585.94	28.09
586.10	37.45
586.26	105.32
586.42	51.49
586.58	81.92
586.74	0.00
586.90	0.00
587.06	30.43
587.22	60.85
587.38	72.56
587.54	32.77
587.70	44.47
587.86	42.13
588.02	7.02
588.18	44.47
588.34	16.38
588.49	77.24
588.65	44.47
588.81	46.81
588.97	56.17
589.13	23.41
589.29	4.68
589.45	70.22
589.61	81.92
589.77	58.51
589.93	0.00
590.08	42.13
590.24	23.41
590.40	39.79
590.56	53.83
590.72	0.00
590.88	46.81
591.04	16.38
591.20	37.45
591.35	46.81
591.51	0.00
591.67	98.30
591.83	56.17
591.99	28.09
592.15	0.00
592.31	37.45
592.46	9.36
592.62	0.00
592.78	16.38
592.94	98.30
593.10	58.51
593.26	0.00
593.41	46.81
593.57	35.11
593.73	18.72
593.89	0.00
594.05	65.54
594.20	32.77
594.36	60.85
594.52	32.77
594.68	46.81
594.84	32.77
594.99	2.34
595.15	95.96
595.31	86.60
595.47	60.85
595.62	7.02
595.78	121.71
595.94	18.72
596.10	72.56
596.25	51.49
596.41	14.04
596.57	53.83
596.73	11.70
596.88	0.00
597.04	58.51
597.20	63.19
597.36	117.03
597.51	30.43
597.67	18.72
597.83	25.75
597.99	23.41
598.14	39.79
598.30	39.79
598.46	39.79
598.61	0.00
598.77	74.90
598.93	14.04
599.09	46.81
599.24	32.77
599.40	112.35
599.56	72.56
599.71	51.49
599.87	51.49
600.03	21.06
600.18	11.70
600.34	49.15
600.50	72.56
600.65	7.02
600.81	16.38
600.97	37.45
601.12	37.45
601.28	25.75
601.44	81.92
601.59	49.15
601.75	21.06
601.91	0.00
602.06	51.49
602.22	65.54
602.37	72.56
602.53	105.32
602.69	51.49
602.84	37.45
603.00	53.83
603.16	18.72
603.31	0.00
603.47	72.56
603.62	11.70
603.78	67.88
603.94	46.81
604.09	44.47
604.25	67.88
604.40	102.98
604.56	25.75
604.71	84.26
604.87	0.00
605.03	0.00
605.18	46.81
605.34	11.70
605.49	65.54
605.65	2.34
605.80	16.38
605.96	30.43
606.12	9.36
606.27	0.00
606.43	30.43
606.58	37.45
606.74	35.11
606.89	32.77
607.05	11.70
607.20	39.79
607.36	0.00
607.51	0.00
607.67	44.47
607.82	30.43
607.98	14.04
608.13	56.17
608.29	98.30
608.44	28.09
608.60	53.83
608.75	51.49
608.91	84.26
609.06	0.00
609.22	23.41
609.37	0.00
609.53	51.49
609.68	14.04
609.84	37.45
609.99	107.66
610.15	21.06
610.30	105.32
610.46	35.11
610.61	0.00
610.76	44.47
610.92	49.15
611.07	63.19
611.23	39.79
611.38	25.75
611.54	65.54
611.69	0.00
611.84	58.51
612.00	30.43
612.15	0.00
612.31	46.81
612.46	30.43
612.62	0.00
612.77	9.36
612.92	39.79
613.08	21.06
613.23	0.00
613.39	46.81
613.54	56.17
613.69	35.11
613.85	49.15
614.00	0.00
614.15	37.45
614.31	58.51
614.46	0.00
614.62	56.17
614.77	18.72
614.92	11.70
615.08	70.22
615.23	60.85
615.38	58.51
615.54	91.28
615.69	32.77
615.84	25.75
616.00	32.77
616.15	2.34
616.30	79.58
616.46	51.49
616.61	46.81
616.76	0.00
616.92	72.56
617.07	30.43
617.22	0.00
617.37	49.15
617.53	7.02
617.68	25.75
617.83	84.26
617.99	63.19
618.14	58.51
618.29	56.17
618.45	51.49
618.60	81.92
618.75	67.88
618.90	21.06
619.06	110.01
619.21	0.00
619.36	49.15
619.51	21.06
619.67	77.24
619.82	51.49
619.97	42.13
620.12	102.98
620.28	44.47
620.43	9.36
620.58	30.43
620.73	58.51
620.89	60.85
621.04	0.00
621.19	0.00
621.34	42.13
621.49	0.00
621.65	30.43
621.80	23.41
621.95	32.77
622.10	28.09
622.25	100.64
622.41	35.11
622.56	117.03
622.71	11.70
622.86	65.54
623.01	0.00
623.16	42.13
623.32	30.43
623.47	16.38
623.62	37.45
623.77	49.15
623.92	0.00
624.07	70.22
624.23	0.00
624.38	16.38
624.53	53.83
624.68	145.11
624.83	140.43
624.98	25.75
625.13	65.54
625.29	37.45
625.44	46.81
625.59	21.06
625.74	0.00
625.89	51.49
626.04	0.00
626.19	93.62
626.34	67.88
626.49	0.00
626.65	7.02
626.80	105.32
626.95	2.34
627.10	18.72
627.25	7.02
627.40	110.01
627.55	74.90
627.70	63.19
627.85	88.94
628.00	98.30
628.15	0.00
628.30	30.43
628.45	79.58
628.60	0.00
628.76	23.41
628.91	4.68
629.06	4.68
629.21	81.92
629.36	0.00
629.51	16.38
629.66	30.43
629.81	14.04
629.96	42.13
630.11	60.85
630.26	18.72
630.41	39.79
630.56	7.02
630.71	7.02
630.86	0.00
631.01	65.54
631.16	128.73
631.31	49.15
631.46	21.06
631.61	105.32
631.76	0.00
631.91	28.09
632.06	49.15
632.21	18.72
632.36	18.72
632.51	74.90
632.66	93.62
632.81	42.13
632.96	18.72
633.10	0.00
633.25	84.26
633.40	0.00
633.55	51.49
633.70	88.94
633.85	70.22
634.00	102.98
634.15	53.83
634.30	42.13
634.45	39.79
634.60	11.70
634.75	28.09
634.90	16.38
635.05	0.00
635.19	49.15
635.34	0.00
635.49	95.96
635.64	16.38
635.79	56.17
635.94	74.90
636.09	0.00
636.24	39.79
636.39	0.00
636.53	63.19
636.68	35.11
636.83	60.85
636.98	67.88
637.13	0.00
637.28	81.92
637.43	0.00
637.57	16.38
637.72	23.41
637.87	84.26
638.02	11.70
638.17	42.13
638.32	46.81
638.46	16.38
638.61	107.66
638.76	11.70
638.91	46.81
639.06	60.85
639.20	60.85
639.35	44.47
639.50	65.54
639.65	72.56
639.80	21.06
639.94	0.00
640.09	14.04
640.24	0.00
640.39	0.00
640.54	0.00
640.68	46.81
640.83	0.00
640.98	39.79
641.13	93.62
641.27	56.17
641.42	88.94
641.57	67.88
641.72	44.47
641.86	0.00
642.01	72.56
642.16	114.69
642.31	39.79
642.45	16.38
642.60	2.34
642.75	81.92
642.90	35.11
643.04	32.77
643.19	56.17
643.34	32.77
643.48	46.81
643.63	86.60
643.78	42.13
643.93	88.94
644.07	2.34
644.22	95.96
644.37	98.30
644.51	30.43
644.66	72.56
644.81	0.00
644.95	74.90
645.10	86.60
645.25	51.49
645.39	0.00
645.54	46.81
645.69	0.00
645.83	16.38
645.98	49.15
646.13	0.00
646.27	39.79
646.42	42.13
646.57	35.11
646.71	0.00
646.86	18.72
647.00	4.68
647.15	11.70
647.30	2.34
647.44	4.68
647.59	0.00
647.74	105.32
647.88	56.17
648.03	84.26
648.17	51.49
648.32	58.51
648.47	63.19
648.61	35.11
648.76	154.48
648.90	72.56
649.05	51.49
649.20	32.77
649.34	32.77
649.49	16.38
649.63	35.11
649.78	58.51
649.92	0.00
650.07	56.17
650.21	91.28
650.36	18.72
650.51	37.45
650.65	0.00
650.80	0.00
650.94	53.83
651.09	74.90
651.23	51.49
651.38	56.17
651.52	25.75
651.67	58.51
651.81	2.34
651.96	102.98
652.10	121.71
652.25	93.62
652.39	0.00
652.54	63.19
652.68	7.02
652.83	18.72
652.97	56.17
653.12	56.17
653.26	39.79
653.41	74.90
653.55	21.06
653.70	63.19
653.84	53.83
653.99	28.09
654.13	32.77
654.27	56.17
654.42	30.43
654.56	21.06
654.71	37.45
654.85	39.79
655.00	25.75
655.14	25.75
655.29	23.41
655.43	4.68
655.57	18.72
655.72	32.77
655.86	0.00
656.01	16.38
656.15	53.83
656.30	7.02
656.44	0.00
656.58	81.92
656.73	30.43
656.87	39.79
657.01	0.00
657.16	72.56
657.30	9.36
657.45	56.17
657.59	35.11
657.73	30.43
657.88	0.00
658.02	32.77
658.16	88.94
658.31	0.00
658.45	0.00
658.60	58.51
658.74	0.00
658.88	44.47
659.03	37.45
659.17	46.81
659.31	67.88
659.46	23.41
659.60	46.81
659.74	23.41
659.89	46.81
660.03	37.45
660.17	58.51
660.32	18.72
660.46	81.92
660.60	23.41
660.74	72.56
660.89	72.56
661.03	0.00
661.17	58.51
661.32	60.85
661.46	4.68
661.60	46.81
661.74	49.15
661.89	0.00
662.03	60.85
662.17	58.51
662.31	70.22
662.46	18.72
662.60	32.77
662.74	18.72
662.88	84.26
663.03	49.15
663.17	11.70
663.31	0.00
663.45	49.15
663.60	70.22
663.74	35.11
663.88	14.04
664.02	35.11
664.17	49.15
664.31	28.09
664.45	18.72
664.59	16.38
664.73	9.36
664.88	79.58
665.02	0.00
665.16	65.54
665.30	72.56
665.44	44.47
665.59	18.72
665.73	25.75
665.87	60.85
666.01	0.00
666.15	88.94
666.29	0.00
666.44	21.06
666.58	56.17
666.72	74.90
666.86	53.83
667.00	18.72
667.14	44.47
667.28	14.04
667.43	32.77
667.57	30.43
667.71	28.09
667.85	53.83
667.99	51.49
668.13	88.94
668.27	91.28
668.41	0.00
668.56	21.06
668.70	86.60
668.84	0.00
668.98	42.13
669.12	30.43
669.26	91.28
669.40	11.70
669.54	53.83
669.68	42.13
669.82	18.72
669.96	35.11
670.10	91.28
670.25	4.68
670.39	39.79
670.53	25.75
670.67	2.34
670.81	0.00
670.95	16.38
671.09	4.68
671.23	28.09
671.37	9.36
671.51	70.22
671.65	25.75
671.79	46.81
671.93	21.06
672.07	0.00
672.21	32.77
672.35	16.38
672.49	7.02
672.63	105.32
672.77	11.70
672.91	60.85
673.05	0.00
673.19	51.49
673.33	7.02
673.47	67.88
673.61	58.51
673.75	2.34
673.89	9.36
674.03	79.58
674.17	72.56
674.31	0.00
674.45	37.45
674.59	35.11
674.73	77.24
674.87	95.96
675.01	39.79
675.15	67.88
675.29	93.62
675.43	7.02
675.56	39.79
675.70	4.68
675.84	0.00
675.98	46.81
676.12	42.13
676.26	81.92
676.40	44.47
676.54	49.15
676.68	74.90
676.82	7.02
676.96	0.00
677.10	58.51
677.23	0.00
677.37	0.00
677.51	74.90
677.65	0.00
677.79	11.70
677.93	18.72
678.07	4.68
678.21	67.88
678.34	58.51
678.48	105.32
678.62	0.00
678.76	25.75
678.90	51.49
679.04	14.04
679.18	65.54
679.31	0.00
679.45	98.30
679.59	100.64
679.73	0.00
679.87	72.56
680.00	37.45
680.14	49.15
680.28	91.28
680.42	42.13
680.56	32.77
680.70	0.00
680.83	51.49
680.97	30.43
681.11	2.34
681.25	53.83
681.39	0.00
681.52	0.00
681.66	86.60
681.80	65.54
681.94	56.17
682.07	0.00
682.21	74.90
682.35	46.81
682.49	72.56
682.62	32.77
682.76	51.49
682.90	7.02
683.04	46.81
683.17	0.00
683.31	21.06
683.45	28.09
683.59	7.02
683.72	14.04
683.86	72.56
684.00	49.15
684.13	0.00
684.27	58.51
684.41	14.04
684.55	46.81
684.68	0.00
684.82	49.15
684.96	0.00
685.09	28.09
685.23	84.26
685.37	58.51
685.50	0.00
685.64	21.06
685.78	39.79
685.91	35.11
686.05	0.00
686.19	49.15
686.32	0.00
686.46	51.49
686.60	32.77
686.73	42.13
686.87	16.38
687.01	23.41
687.14	0.00
687.28	56.17
687.42	77.24
687.55	0.00
687.69	35.11
687.82	11.70
687.96	51.49
688.10	25.75
688.23	0.00
688.37	30.43
688.50	32.77
688.64	0.00
688.78	4.68
688.91	0.00
689.05	58.51
689.18	30.43
689.32	0.00
689.46	93.62
689.59	4.68
689.73	16.38
689.86	107.66
690.00	0.00
690.13	23.41
690.27	112.35
690.41	70.22
690.54	65.54
690.68	21.06
690.81	28.09
690.95	95.96
691.08	53.83
691.22	46.81
691.35	138.09
691.49	23.41
691.62	51.49
691.76	7.02
691.89	30.43
692.03	0.00
692.16	35.11
692.30	30.43
692.43	0.00
692.57	63.19
692.70	0.00
692.84	70.22
692.97	0.00
693.11	51.49
693.24	28.09
693.38	14.04
693.51	53.83
693.65	0.00
693.78	0.00
693.92	2.34
694.05	65.54
694.19	56.17
694.32	0.00
694.45	0.00
694.59	117.03
694.72	28.09
694.86	23.41
694.99	0.00
695.13	39.79
695.26	51.49
695.39	16.38
695.53	28.09
695.66	9.36
695.80	56.17
695.93	42.13
696.07	42.13
696.20	0.00
696.33	16.38
696.47	91.28
696.60	67.88
696.73	56.17
696.87	42.13
697.00	0.00
697.14	0.00
697.27	42.13
697.40	21.06
697.54	28.09
697.67	2.34
697.80	0.00
697.94	28.09
698.07	21.06
698.21	0.00
698.34	4.68
698.47	0.00
698.61	0.00
698.74	39.79
698.87	42.13
699.01	42.13
699.14	0.00
699.27	46.81
699.40	91.28
699.54	65.54
699.67	0.00
699.80	0.00
699.94	23.41
700.07	39.79
700.20	65.54
700.34	0.00
700.47	0.00
700.60	42.13
700.73	23.41
700.87	2.34
701.00	25.75
701.13	0.00
701.26	65.54
701.40	0.00
701.53	0.00
701.66	23.41
701.79	42.13
701.93	0.00
702.06	0.00
702.19	102.98
702.32	11.70
702.46	39.79
702.59	49.15
702.72	81.92
702.85	107.66
702.99	0.00
703.12	0.00
703.25	53.83
703.38	0.00
703.51	16.38
703.65	0.00
703.78	23.41
703.91	46.81
704.04	18.72
704.17	58.51
704.31	4.68
704.44	0.00
704.57	72.56
704.70	84.26
704.83	37.45
704.96	152.13
705.10	84.26
705.23	42.13
>>>>>End Processed Spectral Data<<<<<
