SpectraSuite Data File
++++++++++++++++++++++++++++++++++++
Date: Fri Oct 04 12:13:25 GMT-05:00 2013
User: price-jones
Dark Spectrum Present: No
Reference Spectrum Present: No
Number of Sampled Component Spectra: 1
Spectrometers: USB2+H05261
Integration Time (usec): 10000 (USB2+H05261)
Spectra Averaged: 1 (USB2+H05261)
Boxcar Smoothing: 0 (USB2+H05261)
Correct for Electrical Dark: No (USB2+H05261)
Strobe/Lamp Enabled: No (USB2+H05261)
Correct for Detector Non-linearity: No (USB2+H05261)
Correct for Stray Light: No (USB2+H05261)
Number of Pixels in Processed Spectrum: 2048
>>>>>Begin Processed Spectral Data<<<<<
365.73	42.13
365.92	42.13
366.12	42.13
366.32	0.00
366.52	0.00
366.72	0.00
366.91	0.00
367.11	0.00
367.31	0.00
367.51	0.00
367.70	0.00
367.90	0.00
368.10	0.00
368.30	0.00
368.49	0.00
368.69	0.00
368.89	0.00
369.09	0.00
369.28	0.00
369.48	0.00
369.68	0.00
369.87	0.00
370.07	0.00
370.27	0.00
370.47	0.00
370.66	0.00
370.86	0.00
371.06	0.00
371.25	0.00
371.45	4.68
371.65	0.00
371.84	0.00
372.04	60.85
372.24	4.68
372.44	21.06
372.63	0.00
372.83	16.38
373.03	2.34
373.22	7.02
373.42	149.79
373.62	18.72
373.81	81.92
374.01	42.13
374.21	0.00
374.40	79.58
374.60	16.38
374.79	14.04
374.99	70.22
375.19	7.02
375.38	63.19
375.58	119.37
375.78	4.68
375.97	25.75
376.17	91.28
376.37	30.43
376.56	11.70
376.76	2.34
376.95	56.17
377.15	60.85
377.35	42.13
377.54	51.49
377.74	0.00
377.93	37.45
378.13	60.85
378.33	37.45
378.52	0.00
378.72	9.36
378.91	56.17
379.11	16.38
379.31	65.54
379.50	74.90
379.70	112.35
379.89	9.36
380.09	30.43
380.28	0.00
380.48	0.00
380.68	102.98
380.87	0.00
381.07	0.00
381.26	0.00
381.46	0.00
381.65	42.13
381.85	0.00
382.04	0.00
382.24	0.00
382.43	0.00
382.63	0.00
382.83	18.72
383.02	30.43
383.22	53.83
383.41	56.17
383.61	63.19
383.80	35.11
384.00	4.68
384.19	23.41
384.39	42.13
384.58	0.00
384.78	42.13
384.97	49.15
385.17	0.00
385.36	7.02
385.56	58.51
385.75	32.77
385.95	0.00
386.14	0.00
386.34	46.81
386.53	60.85
386.72	39.79
386.92	58.51
387.11	11.70
387.31	32.77
387.50	46.81
387.70	16.38
387.89	0.00
388.09	21.06
388.28	0.00
388.48	0.00
388.67	9.36
388.86	18.72
389.06	42.13
389.25	0.00
389.45	21.06
389.64	0.00
389.84	107.66
390.03	4.68
390.22	70.22
390.42	0.00
390.61	53.83
390.81	0.00
391.00	9.36
391.19	65.54
391.39	65.54
391.58	28.09
391.78	18.72
391.97	58.51
392.16	0.00
392.36	11.70
392.55	0.00
392.75	39.79
392.94	60.85
393.13	0.00
393.33	65.54
393.52	0.00
393.71	0.00
393.91	0.00
394.10	2.34
394.29	32.77
394.49	23.41
394.68	14.04
394.88	49.15
395.07	21.06
395.26	74.90
395.46	23.41
395.65	0.00
395.84	84.26
396.04	72.56
396.23	0.00
396.42	39.79
396.62	25.75
396.81	0.00
397.00	9.36
397.19	14.04
397.39	0.00
397.58	0.00
397.77	16.38
397.97	46.81
398.16	70.22
398.35	0.00
398.55	16.38
398.74	58.51
398.93	9.36
399.12	32.77
399.32	0.00
399.51	16.38
399.70	0.00
399.90	42.13
400.09	79.58
400.28	0.00
400.47	49.15
400.67	11.70
400.86	51.49
401.05	30.43
401.24	18.72
401.44	25.75
401.63	67.88
401.82	42.13
402.01	0.00
402.21	53.83
402.40	21.06
402.59	16.38
402.78	35.11
402.97	0.00
403.17	9.36
403.36	51.49
403.55	23.41
403.74	63.19
403.93	21.06
404.13	18.72
404.32	14.04
404.51	28.09
404.70	30.43
404.89	42.13
405.09	0.00
405.28	0.00
405.47	32.77
405.66	25.75
405.85	35.11
406.05	0.00
406.24	0.00
406.43	0.00
406.62	11.70
406.81	21.06
407.00	11.70
407.20	37.45
407.39	44.47
407.58	14.04
407.77	51.49
407.96	16.38
408.15	124.05
408.34	39.79
408.54	0.00
408.73	72.56
408.92	28.09
409.11	81.92
409.30	0.00
409.49	14.04
409.68	21.06
409.87	98.30
410.07	44.47
410.26	88.94
410.45	0.00
410.64	84.26
410.83	0.00
411.02	0.00
411.21	56.17
411.40	30.43
411.59	51.49
411.78	0.00
411.98	30.43
412.17	7.02
412.36	0.00
412.55	35.11
412.74	77.24
412.93	35.11
413.12	0.00
413.31	42.13
413.50	42.13
413.69	7.02
413.88	49.15
414.07	0.00
414.26	105.32
414.45	0.00
414.64	60.85
414.83	28.09
415.02	102.98
415.22	0.00
415.41	0.00
415.60	30.43
415.79	37.45
415.98	65.54
416.17	0.00
416.36	0.00
416.55	0.00
416.74	79.58
416.93	77.24
417.12	7.02
417.31	0.00
417.50	79.58
417.69	70.22
417.88	21.06
418.07	0.00
418.26	49.15
418.45	25.75
418.64	4.68
418.83	53.83
419.02	16.38
419.21	37.45
419.39	74.90
419.58	16.38
419.77	32.77
419.96	0.00
420.15	51.49
420.34	70.22
420.53	37.45
420.72	42.13
420.91	124.05
421.10	159.16
421.29	0.00
421.48	0.00
421.67	0.00
421.86	56.17
422.05	18.72
422.24	0.00
422.43	0.00
422.61	58.51
422.80	25.75
422.99	0.00
423.18	28.09
423.37	0.00
423.56	37.45
423.75	23.41
423.94	11.70
424.13	60.85
424.32	11.70
424.50	21.06
424.69	25.75
424.88	0.00
425.07	49.15
425.26	37.45
425.45	0.00
425.64	30.43
425.83	9.36
426.01	14.04
426.20	35.11
426.39	51.49
426.58	0.00
426.77	0.00
426.96	65.54
427.15	86.60
427.33	25.75
427.52	0.00
427.71	63.19
427.90	72.56
428.09	21.06
428.28	11.70
428.46	0.00
428.65	0.00
428.84	39.79
429.03	81.92
429.22	72.56
429.40	88.94
429.59	4.68
429.78	2.34
429.97	32.77
430.16	53.83
430.34	77.24
430.53	39.79
430.72	39.79
430.91	58.51
431.10	18.72
431.28	25.75
431.47	0.00
431.66	23.41
431.85	0.00
432.03	2.34
432.22	0.00
432.41	91.28
432.60	0.00
432.79	0.00
432.97	23.41
433.16	58.51
433.35	0.00
433.54	91.28
433.72	51.49
433.91	37.45
434.10	0.00
434.28	70.22
434.47	0.00
434.66	0.00
434.85	0.00
435.03	124.05
435.22	16.38
435.41	51.49
435.59	16.38
435.78	23.41
435.97	93.62
436.16	58.51
436.34	91.28
436.53	9.36
436.72	11.70
436.90	28.09
437.09	86.60
437.28	14.04
437.46	32.77
437.65	0.00
437.84	30.43
438.02	0.00
438.21	53.83
438.40	74.90
438.58	46.81
438.77	58.51
438.96	0.00
439.14	32.77
439.33	37.45
439.52	98.30
439.70	70.22
439.89	65.54
440.08	7.02
440.26	21.06
440.45	0.00
440.63	100.64
440.82	110.01
441.01	39.79
441.19	84.26
441.38	98.30
441.57	56.17
441.75	0.00
441.94	0.00
442.12	60.85
442.31	0.00
442.50	70.22
442.68	0.00
442.87	74.90
443.05	53.83
443.24	0.00
443.43	58.51
443.61	58.51
443.80	49.15
443.98	0.00
444.17	11.70
444.35	14.04
444.54	0.00
444.73	28.09
444.91	18.72
445.10	0.00
445.28	21.06
445.47	88.94
445.65	21.06
445.84	51.49
446.02	16.38
446.21	25.75
446.39	16.38
446.58	72.56
446.77	65.54
446.95	9.36
447.14	79.58
447.32	11.70
447.51	0.00
447.69	0.00
447.88	16.38
448.06	23.41
448.25	23.41
448.43	102.98
448.62	14.04
448.80	0.00
448.99	58.51
449.17	23.41
449.36	9.36
449.54	0.00
449.73	14.04
449.91	11.70
450.10	0.00
450.28	77.24
450.46	93.62
450.65	81.92
450.83	11.70
451.02	88.94
451.20	0.00
451.39	65.54
451.57	72.56
451.76	88.94
451.94	58.51
452.13	63.19
452.31	0.00
452.49	79.58
452.68	51.49
452.86	21.06
453.05	84.26
453.23	23.41
453.42	65.54
453.60	63.19
453.78	65.54
453.97	46.81
454.15	79.58
454.34	0.00
454.52	74.90
454.70	46.81
454.89	23.41
455.07	46.81
455.26	56.17
455.44	53.83
455.62	49.15
455.81	2.34
455.99	14.04
456.17	81.92
456.36	56.17
456.54	16.38
456.73	39.79
456.91	63.19
457.09	11.70
457.28	51.49
457.46	0.00
457.64	2.34
457.83	16.38
458.01	51.49
458.19	11.70
458.38	39.79
458.56	14.04
458.74	9.36
458.93	23.41
459.11	14.04
459.29	28.09
459.48	72.56
459.66	105.32
459.84	42.13
460.03	58.51
460.21	11.70
460.39	32.77
460.57	16.38
460.76	91.28
460.94	86.60
461.12	30.43
461.31	46.81
461.49	2.34
461.67	11.70
461.85	0.00
462.04	28.09
462.22	74.90
462.40	49.15
462.59	16.38
462.77	63.19
462.95	88.94
463.13	77.24
463.32	84.26
463.50	56.17
463.68	100.64
463.86	0.00
464.05	4.68
464.23	56.17
464.41	39.79
464.59	44.47
464.78	23.41
464.96	58.51
465.14	0.00
465.32	93.62
465.50	30.43
465.69	30.43
465.87	0.00
466.05	0.00
466.23	46.81
466.41	0.00
466.60	49.15
466.78	25.75
466.96	21.06
467.14	0.00
467.32	25.75
467.51	42.13
467.69	51.49
467.87	56.17
468.05	11.70
468.23	93.62
468.41	28.09
468.60	74.90
468.78	35.11
468.96	7.02
469.14	0.00
469.32	0.00
469.50	0.00
469.69	58.51
469.87	0.00
470.05	51.49
470.23	14.04
470.41	18.72
470.59	42.13
470.77	56.17
470.95	35.11
471.14	65.54
471.32	70.22
471.50	60.85
471.68	18.72
471.86	0.00
472.04	77.24
472.22	0.00
472.40	23.41
472.58	4.68
472.77	21.06
472.95	39.79
473.13	30.43
473.31	32.77
473.49	18.72
473.67	0.00
473.85	51.49
474.03	14.04
474.21	28.09
474.39	67.88
474.57	0.00
474.75	56.17
474.93	14.04
475.12	42.13
475.30	46.81
475.48	53.83
475.66	58.51
475.84	0.00
476.02	14.04
476.20	28.09
476.38	0.00
476.56	9.36
476.74	46.81
476.92	2.34
477.10	49.15
477.28	98.30
477.46	0.00
477.64	53.83
477.82	49.15
478.00	0.00
478.18	49.15
478.36	2.34
478.54	0.00
478.72	46.81
478.90	42.13
479.08	9.36
479.26	0.00
479.44	28.09
479.62	18.72
479.80	67.88
479.98	0.00
480.16	35.11
480.34	0.00
480.52	51.49
480.70	18.72
480.88	117.03
481.06	51.49
481.24	53.83
481.41	0.00
481.59	9.36
481.77	0.00
481.95	67.88
482.13	25.75
482.31	112.35
482.49	77.24
482.67	30.43
482.85	21.06
483.03	30.43
483.21	21.06
483.39	14.04
483.57	0.00
483.74	35.11
483.92	9.36
484.10	0.00
484.28	0.00
484.46	119.37
484.64	4.68
484.82	65.54
485.00	2.34
485.18	56.17
485.35	56.17
485.53	0.00
485.71	44.47
485.89	0.00
486.07	32.77
486.25	58.51
486.43	14.04
486.61	67.88
486.78	28.09
486.96	0.00
487.14	30.43
487.32	16.38
487.50	0.00
487.68	81.92
487.85	23.41
488.03	81.92
488.21	49.15
488.39	28.09
488.57	42.13
488.75	0.00
488.92	0.00
489.10	51.49
489.28	0.00
489.46	0.00
489.64	44.47
489.81	63.19
489.99	39.79
490.17	49.15
490.35	72.56
490.53	65.54
490.70	39.79
490.88	37.45
491.06	77.24
491.24	37.45
491.41	11.70
491.59	105.32
491.77	53.83
491.95	23.41
492.13	0.00
492.30	0.00
492.48	21.06
492.66	93.62
492.84	9.36
493.01	53.83
493.19	28.09
493.37	9.36
493.54	30.43
493.72	2.34
493.90	0.00
494.08	16.38
494.25	63.19
494.43	44.47
494.61	84.26
494.79	79.58
494.96	46.81
495.14	35.11
495.32	49.15
495.49	58.51
495.67	11.70
495.85	18.72
496.02	81.92
496.20	9.36
496.38	72.56
496.55	95.96
496.73	49.15
496.91	14.04
497.09	100.64
497.26	42.13
497.44	0.00
497.62	32.77
497.79	44.47
497.97	9.36
498.14	74.90
498.32	39.79
498.50	30.43
498.67	67.88
498.85	70.22
499.03	14.04
499.20	21.06
499.38	51.49
499.56	58.51
499.73	58.51
499.91	0.00
500.08	72.56
500.26	9.36
500.44	0.00
500.61	4.68
500.79	0.00
500.97	63.19
501.14	25.75
501.32	79.58
501.49	18.72
501.67	21.06
501.84	9.36
502.02	100.64
502.20	58.51
502.37	44.47
502.55	16.38
502.72	46.81
502.90	70.22
503.07	14.04
503.25	44.47
503.43	72.56
503.60	0.00
503.78	11.70
503.95	16.38
504.13	58.51
504.30	86.60
504.48	35.11
504.65	35.11
504.83	42.13
505.01	42.13
505.18	114.69
505.36	102.98
505.53	124.05
505.71	102.98
505.88	70.22
506.06	53.83
506.23	16.38
506.41	21.06
506.58	0.00
506.76	46.81
506.93	21.06
507.11	37.45
507.28	0.00
507.46	7.02
507.63	0.00
507.81	49.15
507.98	14.04
508.16	32.77
508.33	53.83
508.50	56.17
508.68	18.72
508.85	56.17
509.03	25.75
509.20	32.77
509.38	84.26
509.55	0.00
509.73	21.06
509.90	14.04
510.08	2.34
510.25	65.54
510.42	56.17
510.60	58.51
510.77	37.45
510.95	112.35
511.12	32.77
511.30	32.77
511.47	32.77
511.64	0.00
511.82	32.77
511.99	16.38
512.17	79.58
512.34	72.56
512.51	42.13
512.69	0.00
512.86	95.96
513.04	63.19
513.21	81.92
513.38	21.06
513.56	56.17
513.73	0.00
513.90	35.11
514.08	37.45
514.25	86.60
514.43	56.17
514.60	4.68
514.77	0.00
514.95	0.00
515.12	0.00
515.29	0.00
515.47	0.00
515.64	11.70
515.81	60.85
515.99	72.56
516.16	30.43
516.33	81.92
516.51	37.45
516.68	0.00
516.85	44.47
517.03	4.68
517.20	58.51
517.37	7.02
517.54	79.58
517.72	0.00
517.89	32.77
518.06	0.00
518.24	0.00
518.41	0.00
518.58	9.36
518.75	81.92
518.93	79.58
519.10	46.81
519.27	0.00
519.45	30.43
519.62	58.51
519.79	58.51
519.96	0.00
520.14	70.22
520.31	51.49
520.48	16.38
520.65	84.26
520.83	0.00
521.00	39.79
521.17	93.62
521.34	56.17
521.52	39.79
521.69	0.00
521.86	32.77
522.03	93.62
522.20	51.49
522.38	0.00
522.55	0.00
522.72	28.09
522.89	4.68
523.07	53.83
523.24	23.41
523.41	58.51
523.58	9.36
523.75	0.00
523.92	77.24
524.10	91.28
524.27	16.38
524.44	0.00
524.61	51.49
524.78	39.79
524.96	95.96
525.13	51.49
525.30	79.58
525.47	42.13
525.64	0.00
525.81	9.36
525.98	49.15
526.16	0.00
526.33	93.62
526.50	25.75
526.67	0.00
526.84	0.00
527.01	46.81
527.18	0.00
527.36	30.43
527.53	88.94
527.70	79.58
527.87	72.56
528.04	16.38
528.21	0.00
528.38	0.00
528.55	63.19
528.72	21.06
528.89	88.94
529.07	18.72
529.24	11.70
529.41	77.24
529.58	28.09
529.75	58.51
529.92	79.58
530.09	53.83
530.26	39.79
530.43	49.15
530.60	9.36
530.77	0.00
530.94	0.00
531.11	0.00
531.28	72.56
531.46	79.58
531.63	0.00
531.80	70.22
531.97	65.54
532.14	18.72
532.31	42.13
532.48	77.24
532.65	0.00
532.82	2.34
532.99	77.24
533.16	23.41
533.33	7.02
533.50	49.15
533.67	100.64
533.84	84.26
534.01	51.49
534.18	49.15
534.35	39.79
534.52	53.83
534.69	32.77
534.86	0.00
535.03	51.49
535.20	16.38
535.37	42.13
535.54	70.22
535.71	18.72
535.88	4.68
536.05	9.36
536.22	79.58
536.38	30.43
536.55	4.68
536.72	56.17
536.89	79.58
537.06	0.00
537.23	91.28
537.40	58.51
537.57	11.70
537.74	65.54
537.91	91.28
538.08	51.49
538.25	86.60
538.42	63.19
538.59	2.34
538.75	0.00
538.92	67.88
539.09	74.90
539.26	0.00
539.43	4.68
539.60	84.26
539.77	149.79
539.94	105.32
540.11	0.00
540.28	0.00
540.44	74.90
540.61	63.19
540.78	42.13
540.95	65.54
541.12	63.19
541.29	4.68
541.46	37.45
541.62	44.47
541.79	37.45
541.96	16.38
542.13	4.68
542.30	63.19
542.47	65.54
542.63	9.36
542.80	30.43
542.97	65.54
543.14	23.41
543.31	37.45
543.48	105.32
543.64	2.34
543.81	30.43
543.98	67.88
544.15	39.79
544.32	11.70
544.48	121.71
544.65	86.60
544.82	0.00
544.99	16.38
545.16	79.58
545.32	74.90
545.49	0.00
545.66	53.83
545.83	0.00
546.00	79.58
546.16	58.51
546.33	0.00
546.50	39.79
546.67	56.17
546.83	18.72
547.00	51.49
547.17	53.83
547.34	18.72
547.50	14.04
547.67	37.45
547.84	35.11
548.00	14.04
548.17	107.66
548.34	11.70
548.51	16.38
548.67	46.81
548.84	58.51
549.01	74.90
549.18	51.49
549.34	60.85
549.51	79.58
549.68	0.00
549.84	72.56
550.01	32.77
550.18	37.45
550.34	42.13
550.51	25.75
550.68	72.56
550.84	77.24
551.01	32.77
551.18	46.81
551.34	63.19
551.51	60.85
551.68	9.36
551.84	37.45
552.01	0.00
552.18	49.15
552.34	0.00
552.51	91.28
552.68	0.00
552.84	35.11
553.01	44.47
553.18	49.15
553.34	51.49
553.51	72.56
553.67	72.56
553.84	0.00
554.01	93.62
554.17	60.85
554.34	63.19
554.51	4.68
554.67	65.54
554.84	14.04
555.00	0.00
555.17	32.77
555.33	128.73
555.50	72.56
555.67	21.06
555.83	0.00
556.00	49.15
556.16	102.98
556.33	14.04
556.50	37.45
556.66	39.79
556.83	18.72
556.99	67.88
557.16	56.17
557.32	58.51
557.49	72.56
557.65	49.15
557.82	65.54
557.98	53.83
558.15	65.54
558.32	63.19
558.48	121.71
558.65	4.68
558.81	63.19
558.98	0.00
559.14	39.79
559.31	58.51
559.47	2.34
559.64	0.00
559.80	18.72
559.97	65.54
560.13	11.70
560.30	0.00
560.46	0.00
560.63	0.00
560.79	39.79
560.96	9.36
561.12	70.22
561.29	102.98
561.45	0.00
561.61	7.02
561.78	65.54
561.94	0.00
562.11	30.43
562.27	39.79
562.44	86.60
562.60	32.77
562.77	53.83
562.93	0.00
563.10	79.58
563.26	0.00
563.42	4.68
563.59	11.70
563.75	88.94
563.92	65.54
564.08	46.81
564.24	72.56
564.41	32.77
564.57	0.00
564.74	74.90
564.90	126.39
565.07	23.41
565.23	23.41
565.39	93.62
565.56	14.04
565.72	0.00
565.88	32.77
566.05	60.85
566.21	25.75
566.38	0.00
566.54	58.51
566.70	121.71
566.87	39.79
567.03	77.24
567.19	56.17
567.36	56.17
567.52	58.51
567.68	30.43
567.85	0.00
568.01	60.85
568.17	4.68
568.34	23.41
568.50	0.00
568.66	14.04
568.83	7.02
568.99	46.81
569.15	79.58
569.32	81.92
569.48	86.60
569.64	9.36
569.81	46.81
569.97	46.81
570.13	63.19
570.30	9.36
570.46	0.00
570.62	39.79
570.78	60.85
570.95	51.49
571.11	49.15
571.27	84.26
571.43	18.72
571.60	51.49
571.76	98.30
571.92	28.09
572.09	56.17
572.25	37.45
572.41	44.47
572.57	21.06
572.74	0.00
572.90	124.05
573.06	91.28
573.22	0.00
573.38	42.13
573.55	9.36
573.71	67.88
573.87	70.22
574.03	70.22
574.20	37.45
574.36	60.85
574.52	74.90
574.68	25.75
574.84	0.00
575.01	84.26
575.17	9.36
575.33	102.98
575.49	53.83
575.65	0.00
575.82	102.98
575.98	67.88
576.14	84.26
576.30	44.47
576.46	51.49
576.62	23.41
576.79	35.11
576.95	35.11
577.11	16.38
577.27	21.06
577.43	72.56
577.59	72.56
577.75	2.34
577.92	14.04
578.08	2.34
578.24	79.58
578.40	51.49
578.56	42.13
578.72	0.00
578.88	63.19
579.04	58.51
579.21	58.51
579.37	49.15
579.53	67.88
579.69	30.43
579.85	11.70
580.01	14.04
580.17	44.47
580.33	93.62
580.49	14.04
580.65	0.00
580.82	67.88
580.98	39.79
581.14	16.38
581.30	56.17
581.46	79.58
581.62	46.81
581.78	84.26
581.94	46.81
582.10	53.83
582.26	51.49
582.42	49.15
582.58	81.92
582.74	72.56
582.90	23.41
583.06	51.49
583.22	51.49
583.38	58.51
583.54	51.49
583.70	37.45
583.86	56.17
584.02	110.01
584.18	7.02
584.34	86.60
584.50	163.84
584.66	802.80
584.82	2017.54
584.98	3171.43
585.14	3047.38
585.30	1884.13
585.46	1081.33
585.62	734.93
585.78	418.96
585.94	140.43
586.10	154.48
586.26	72.56
586.42	0.00
586.58	56.17
586.74	105.32
586.90	0.00
587.06	16.38
587.22	16.38
587.38	42.13
587.54	70.22
587.70	98.30
587.86	229.37
588.02	285.55
588.18	189.58
588.34	135.75
588.49	67.88
588.65	81.92
588.81	37.45
588.97	67.88
589.13	0.00
589.29	32.77
589.45	0.00
589.61	81.92
589.77	88.94
589.93	58.51
590.08	98.30
590.24	0.00
590.40	86.60
590.56	42.13
590.72	0.00
590.88	65.54
591.04	0.00
591.20	65.54
591.35	35.11
591.51	117.03
591.67	0.00
591.83	35.11
591.99	0.00
592.15	0.00
592.31	42.13
592.46	44.47
592.62	39.79
592.78	7.02
592.94	30.43
593.10	93.62
593.26	2.34
593.41	79.58
593.57	63.19
593.73	30.43
593.89	124.05
594.05	299.59
594.20	472.79
594.36	447.04
594.52	238.73
594.68	238.73
594.84	147.45
594.99	105.32
595.15	65.54
595.31	9.36
595.47	0.00
595.62	37.45
595.78	46.81
595.94	16.38
596.10	72.56
596.25	74.90
596.41	51.49
596.57	42.13
596.73	0.00
596.88	39.79
597.04	93.62
597.20	65.54
597.36	88.94
597.51	126.39
597.67	67.88
597.83	84.26
597.99	0.00
598.14	88.94
598.30	60.85
598.46	0.00
598.61	49.15
598.77	28.09
598.93	0.00
599.09	0.00
599.24	28.09
599.40	65.54
599.56	79.58
599.71	42.13
599.87	0.00
600.03	42.13
600.18	16.38
600.34	51.49
600.50	58.51
600.65	63.19
600.81	65.54
600.97	30.43
601.12	28.09
601.28	49.15
601.44	119.37
601.59	0.00
601.75	32.77
601.91	53.83
602.06	0.00
602.22	46.81
602.37	147.45
602.53	70.22
602.69	95.96
602.84	175.54
603.00	95.96
603.16	88.94
603.31	77.24
603.47	93.62
603.62	14.04
603.78	77.24
603.94	32.77
604.09	100.64
604.25	126.39
604.40	51.49
604.56	93.62
604.71	39.79
604.87	84.26
605.03	58.51
605.18	102.98
605.34	51.49
605.49	56.17
605.65	0.00
605.80	11.70
605.96	56.17
606.12	77.24
606.27	0.00
606.43	67.88
606.58	0.00
606.74	18.72
606.89	131.07
607.05	280.86
607.20	353.42
607.36	315.97
607.51	248.10
607.67	86.60
607.82	142.77
607.98	72.56
608.13	32.77
608.29	112.35
608.44	56.17
608.60	25.75
608.75	65.54
608.91	7.02
609.06	248.10
609.22	430.66
609.37	634.29
609.53	622.58
609.68	437.68
609.84	290.23
609.99	184.90
610.15	208.31
610.30	16.38
610.46	72.56
610.61	98.30
610.76	46.81
610.92	51.49
611.07	39.79
611.23	65.54
611.38	46.81
611.54	100.64
611.69	79.58
611.84	14.04
612.00	72.56
612.15	16.38
612.31	11.70
612.46	63.19
612.62	51.49
612.77	9.36
612.92	39.79
613.08	0.00
613.23	4.68
613.39	86.60
613.54	77.24
613.69	220.01
613.85	557.05
614.00	905.79
614.15	926.85
614.31	676.41
614.46	468.11
614.62	320.65
614.77	177.88
614.92	138.09
615.08	67.88
615.23	51.49
615.38	95.96
615.54	18.72
615.69	42.13
615.84	91.28
616.00	205.97
616.15	262.14
616.30	266.82
616.46	187.24
616.61	133.41
616.76	95.96
616.92	74.90
617.07	53.83
617.22	42.13
617.37	0.00
617.53	44.47
617.68	11.70
617.83	65.54
617.99	42.13
618.14	44.47
618.29	53.83
618.45	88.94
618.60	0.00
618.75	51.49
618.90	86.60
619.06	35.11
619.21	46.81
619.36	56.17
619.51	88.94
619.67	81.92
619.82	56.17
619.97	42.13
620.12	56.17
620.28	46.81
620.43	107.66
620.58	49.15
620.73	56.17
620.89	79.58
621.04	39.79
621.19	91.28
621.34	140.43
621.49	222.35
621.65	175.54
621.80	124.05
621.95	86.60
622.10	0.00
622.25	95.96
622.41	44.47
622.56	30.43
622.71	67.88
622.86	98.30
623.01	30.43
623.16	4.68
623.32	32.77
623.47	9.36
623.62	56.17
623.77	0.00
623.92	39.79
624.07	56.17
624.23	0.00
624.38	67.88
624.53	0.00
624.68	46.81
624.83	0.00
624.98	79.58
625.13	42.13
625.29	11.70
625.44	4.68
625.59	7.02
625.74	60.85
625.89	93.62
626.04	102.98
626.19	245.76
626.34	472.79
626.49	498.53
626.65	355.76
626.80	339.38
626.95	126.39
627.10	126.39
627.25	72.56
627.40	91.28
627.55	39.79
627.70	21.06
627.85	91.28
628.00	49.15
628.15	14.04
628.30	11.70
628.45	0.00
628.60	91.28
628.76	0.00
628.91	0.00
629.06	39.79
629.21	79.58
629.36	72.56
629.51	37.45
629.66	74.90
629.81	63.19
629.96	39.79
630.11	140.43
630.26	220.01
630.41	124.05
630.56	112.35
630.71	77.24
630.86	39.79
631.01	37.45
631.16	0.00
631.31	37.45
631.46	25.75
631.61	4.68
631.76	63.19
631.91	35.11
632.06	32.77
632.21	51.49
632.36	124.05
632.51	42.13
632.66	49.15
632.81	86.60
632.96	156.82
633.10	301.93
633.25	411.93
633.40	257.46
633.55	276.18
633.70	173.20
633.85	102.98
634.00	100.64
634.15	4.68
634.30	0.00
634.45	30.43
634.60	2.34
634.75	0.00
634.90	65.54
635.05	23.41
635.19	60.85
635.34	46.81
635.49	58.51
635.64	4.68
635.79	88.94
635.94	53.83
636.09	84.26
636.24	51.49
636.39	51.49
636.53	25.75
636.68	74.90
636.83	0.00
636.98	0.00
637.13	16.38
637.28	23.41
637.43	37.45
637.57	0.00
637.72	175.54
637.87	351.08
638.02	552.37
638.17	706.84
638.32	465.77
638.46	269.16
638.61	257.46
638.76	191.92
638.91	138.09
639.06	95.96
639.20	126.39
639.35	35.11
639.50	119.37
639.65	182.56
639.80	510.24
639.94	926.85
640.09	997.07
640.24	847.27
640.39	493.85
640.54	407.25
640.68	245.76
640.83	93.62
640.98	65.54
641.13	32.77
641.27	86.60
641.42	11.70
641.57	58.51
641.72	63.19
641.86	44.47
642.01	67.88
642.16	2.34
642.31	16.38
642.45	105.32
642.60	2.34
642.75	0.00
642.90	2.34
643.04	23.41
643.19	58.51
643.34	18.72
643.48	39.79
643.63	77.24
643.78	53.83
643.93	14.04
644.07	0.00
644.22	18.72
644.37	0.00
644.51	56.17
644.66	51.49
644.81	102.98
644.95	60.85
645.10	0.00
645.25	0.00
645.39	21.06
645.54	25.75
645.69	0.00
645.83	58.51
645.98	0.00
646.13	39.79
646.27	49.15
646.42	32.77
646.57	0.00
646.71	39.79
646.86	11.70
647.00	7.02
647.15	28.09
647.30	25.75
647.44	25.75
647.59	11.70
647.74	72.56
647.88	37.45
648.03	0.00
648.17	49.15
648.32	49.15
648.47	28.09
648.61	25.75
648.76	60.85
648.90	65.54
649.05	53.83
649.20	60.85
649.34	102.98
649.49	9.36
649.63	98.30
649.78	53.83
649.92	56.17
650.07	135.75
650.21	290.23
650.36	503.22
650.51	585.13
650.65	512.58
650.80	379.17
650.94	266.82
651.09	133.41
651.23	107.66
651.38	42.13
651.52	84.26
651.67	0.00
651.81	7.02
651.96	0.00
652.10	58.51
652.25	28.09
652.39	42.13
652.54	81.92
652.68	77.24
652.83	105.32
652.97	163.84
653.12	133.41
653.26	196.60
653.41	112.35
653.55	140.43
653.70	131.07
653.84	0.00
653.99	23.41
654.13	9.36
654.27	16.38
654.42	2.34
654.56	18.72
654.71	56.17
654.85	56.17
655.00	88.94
655.14	44.47
655.29	0.00
655.43	51.49
655.57	84.26
655.72	110.01
655.86	0.00
656.01	37.45
656.15	67.88
656.30	98.30
656.44	0.00
656.58	4.68
656.73	35.11
656.87	14.04
657.01	63.19
657.16	0.00
657.30	0.00
657.45	30.43
657.59	32.77
657.73	25.75
657.88	0.00
658.02	0.00
658.16	37.45
658.31	44.47
658.45	0.00
658.60	23.41
658.74	44.47
658.88	56.17
659.03	0.00
659.17	0.00
659.31	0.00
659.46	194.26
659.60	189.58
659.74	245.76
659.89	257.46
660.03	210.65
660.17	215.33
660.32	140.43
660.46	159.16
660.60	60.85
660.74	35.11
660.89	0.00
661.03	63.19
661.17	84.26
661.32	58.51
661.46	0.00
661.60	44.47
661.74	74.90
661.89	49.15
662.03	0.00
662.17	32.77
662.31	9.36
662.46	86.60
662.60	42.13
662.74	65.54
662.88	49.15
663.03	11.70
663.17	0.00
663.31	11.70
663.45	25.75
663.60	58.51
663.74	49.15
663.88	56.17
664.02	35.11
664.17	77.24
664.31	74.90
664.45	0.00
664.59	60.85
664.73	30.43
664.88	14.04
665.02	39.79
665.16	21.06
665.30	86.60
665.44	56.17
665.59	79.58
665.73	0.00
665.87	16.38
666.01	56.17
666.15	56.17
666.29	16.38
666.44	18.72
666.58	65.54
666.72	42.13
666.86	46.81
667.00	67.88
667.14	35.11
667.28	88.94
667.43	212.99
667.57	325.33
667.71	454.06
667.85	479.81
667.99	273.84
668.13	243.42
668.27	135.75
668.41	81.92
668.56	121.71
668.70	70.22
668.84	35.11
668.98	0.00
669.12	46.81
669.26	4.68
669.40	35.11
669.54	25.75
669.68	88.94
669.82	0.00
669.96	0.00
670.10	11.70
670.25	58.51
670.39	72.56
670.53	11.70
670.67	44.47
670.81	25.75
670.95	0.00
671.09	0.00
671.23	91.28
671.37	198.95
671.51	285.55
671.65	278.52
671.79	313.63
671.93	168.52
672.07	95.96
672.21	63.19
672.35	53.83
672.49	0.00
672.63	35.11
672.77	14.04
672.91	0.00
673.05	18.72
673.19	30.43
673.33	0.00
673.47	11.70
673.61	0.00
673.75	42.13
673.89	0.00
674.03	25.75
674.17	58.51
674.31	0.00
674.45	51.49
674.59	9.36
674.73	30.43
674.87	79.58
675.01	60.85
675.15	42.13
675.29	0.00
675.43	44.47
675.56	133.41
675.70	0.00
675.84	53.83
675.98	70.22
676.12	46.81
676.26	72.56
676.40	23.41
676.54	25.75
676.68	67.88
676.82	81.92
676.96	42.13
677.10	25.75
677.23	39.79
677.37	32.77
677.51	65.54
677.65	30.43
677.79	42.13
677.93	14.04
678.07	67.88
678.21	9.36
678.34	23.41
678.48	84.26
678.62	4.68
678.76	44.47
678.90	11.70
679.04	0.00
679.18	72.56
679.31	0.00
679.45	21.06
679.59	37.45
679.73	67.88
679.87	23.41
680.00	126.39
680.14	16.38
680.28	2.34
680.42	0.00
680.56	84.26
680.70	37.45
680.83	100.64
680.97	0.00
681.11	51.49
681.25	21.06
681.39	107.66
681.52	11.70
681.66	35.11
681.80	23.41
681.94	28.09
682.07	84.26
682.21	16.38
682.35	0.00
682.49	0.00
682.62	63.19
682.76	37.45
682.90	0.00
683.04	0.00
683.17	51.49
683.31	42.13
683.45	56.17
683.59	86.60
683.72	44.47
683.86	63.19
684.00	67.88
684.13	93.62
684.27	2.34
684.41	60.85
684.55	56.17
684.68	23.41
684.82	0.00
684.96	84.26
685.09	44.47
685.23	0.00
685.37	53.83
685.50	28.09
685.64	14.04
685.78	0.00
685.91	84.26
686.05	0.00
686.19	23.41
686.32	0.00
686.46	42.13
686.60	4.68
686.73	77.24
686.87	0.00
687.01	14.04
687.14	42.13
687.28	51.49
687.42	39.79
687.55	0.00
687.69	63.19
687.82	51.49
687.96	65.54
688.10	65.54
688.23	124.05
688.37	28.09
688.50	0.00
688.64	0.00
688.78	93.62
688.91	4.68
689.05	16.38
689.18	18.72
689.32	32.77
689.46	121.71
689.59	25.75
689.73	70.22
689.86	56.17
690.00	28.09
690.13	14.04
690.27	53.83
690.41	72.56
690.54	11.70
690.68	0.00
690.81	23.41
690.95	0.00
691.08	0.00
691.22	0.00
691.35	30.43
691.49	21.06
691.62	28.09
691.76	67.88
691.89	110.01
692.03	60.85
692.16	0.00
692.30	21.06
692.43	28.09
692.57	79.58
692.70	208.31
692.84	203.63
692.97	205.97
693.11	138.09
693.24	149.79
693.38	74.90
693.51	60.85
693.65	32.77
693.78	79.58
693.92	44.47
694.05	110.01
694.19	11.70
694.32	30.43
694.45	11.70
694.59	32.77
694.72	0.00
694.86	70.22
694.99	28.09
695.13	65.54
695.26	0.00
695.39	0.00
695.53	0.00
695.66	28.09
695.80	30.43
695.93	56.17
696.07	0.00
696.20	30.43
696.33	39.79
696.47	63.19
696.60	0.00
696.73	28.09
696.87	18.72
697.00	2.34
697.14	81.92
697.27	4.68
697.40	191.92
697.54	35.11
697.67	11.70
697.80	56.17
697.94	28.09
698.07	60.85
698.21	46.81
698.34	42.13
698.47	32.77
698.61	37.45
698.74	0.00
698.87	0.00
699.01	65.54
699.14	95.96
699.27	11.70
699.40	14.04
699.54	14.04
699.67	0.00
699.80	39.79
699.94	100.64
700.07	79.58
700.20	49.15
700.34	42.13
700.47	23.41
700.60	0.00
700.73	0.00
700.87	0.00
701.00	28.09
701.13	14.04
701.26	35.11
701.40	0.00
701.53	46.81
701.66	0.00
701.79	67.88
701.93	65.54
702.06	67.88
702.19	9.36
702.32	51.49
702.46	86.60
702.59	46.81
702.72	65.54
702.85	93.62
702.99	255.12
703.12	325.33
703.25	386.19
703.38	299.59
703.51	276.18
703.65	241.08
703.78	191.92
703.91	198.95
704.04	102.98
704.17	147.45
704.31	98.30
704.44	0.00
704.57	21.06
704.70	70.22
704.83	58.51
704.96	53.83
705.10	18.72
705.23	98.30
>>>>>End Processed Spectral Data<<<<<
