SpectraSuite Data File
++++++++++++++++++++++++++++++++++++
Date: Fri Oct 04 12:13:45 GMT-05:00 2013
User: price-jones
Dark Spectrum Present: No
Reference Spectrum Present: No
Number of Sampled Component Spectra: 1
Spectrometers: USB2+H05261
Integration Time (usec): 10000 (USB2+H05261)
Spectra Averaged: 1 (USB2+H05261)
Boxcar Smoothing: 0 (USB2+H05261)
Correct for Electrical Dark: No (USB2+H05261)
Strobe/Lamp Enabled: No (USB2+H05261)
Correct for Detector Non-linearity: No (USB2+H05261)
Correct for Stray Light: No (USB2+H05261)
Number of Pixels in Processed Spectrum: 2048
>>>>>Begin Processed Spectral Data<<<<<
365.73	0.00
365.92	0.00
366.12	0.00
366.32	0.00
366.52	0.00
366.72	0.00
366.91	0.00
367.11	0.00
367.31	0.00
367.51	0.00
367.70	0.00
367.90	0.00
368.10	0.00
368.30	0.00
368.49	0.00
368.69	0.00
368.89	0.00
369.09	0.00
369.28	0.00
369.48	0.00
369.68	0.00
369.87	0.00
370.07	0.00
370.27	0.00
370.47	0.00
370.66	0.00
370.86	0.00
371.06	0.00
371.25	0.00
371.45	0.00
371.65	0.00
371.84	60.85
372.04	49.15
372.24	0.00
372.44	30.43
372.63	9.36
372.83	0.00
373.03	56.17
373.22	9.36
373.42	0.00
373.62	0.00
373.81	21.06
374.01	77.24
374.21	93.62
374.40	7.02
374.60	25.75
374.79	4.68
374.99	32.77
375.19	79.58
375.38	18.72
375.58	0.00
375.78	44.47
375.97	77.24
376.17	39.79
376.37	0.00
376.56	0.00
376.76	0.00
376.95	28.09
377.15	9.36
377.35	11.70
377.54	25.75
377.74	91.28
377.93	44.47
378.13	7.02
378.33	0.00
378.52	23.41
378.72	77.24
378.91	0.00
379.11	0.00
379.31	28.09
379.50	0.00
379.70	11.70
379.89	98.30
380.09	0.00
380.28	0.00
380.48	30.43
380.68	63.19
380.87	32.77
381.07	30.43
381.26	16.38
381.46	65.54
381.65	2.34
381.85	16.38
382.04	39.79
382.24	14.04
382.43	0.00
382.63	0.00
382.83	51.49
383.02	70.22
383.22	0.00
383.41	7.02
383.61	88.94
383.80	30.43
384.00	93.62
384.19	18.72
384.39	23.41
384.58	0.00
384.78	0.00
384.97	25.75
385.17	51.49
385.36	0.00
385.56	37.45
385.75	0.00
385.95	7.02
386.14	25.75
386.34	11.70
386.53	4.68
386.72	0.00
386.92	14.04
387.11	53.83
387.31	16.38
387.50	7.02
387.70	0.00
387.89	35.11
388.09	42.13
388.28	56.17
388.48	51.49
388.67	63.19
388.86	51.49
389.06	23.41
389.25	0.00
389.45	23.41
389.64	39.79
389.84	28.09
390.03	0.00
390.22	32.77
390.42	0.00
390.61	39.79
390.81	21.06
391.00	35.11
391.19	58.51
391.39	37.45
391.58	11.70
391.78	32.77
391.97	49.15
392.16	7.02
392.36	0.00
392.55	21.06
392.75	0.00
392.94	0.00
393.13	28.09
393.33	81.92
393.52	53.83
393.71	0.00
393.91	0.00
394.10	9.36
394.29	42.13
394.49	21.06
394.68	0.00
394.88	42.13
395.07	53.83
395.26	42.13
395.46	0.00
395.65	11.70
395.84	0.00
396.04	0.00
396.23	44.47
396.42	84.26
396.62	16.38
396.81	23.41
397.00	65.54
397.19	44.47
397.39	0.00
397.58	0.00
397.77	58.51
397.97	0.00
398.16	28.09
398.35	56.17
398.55	0.00
398.74	0.00
398.93	39.79
399.12	65.54
399.32	35.11
399.51	65.54
399.70	37.45
399.90	0.00
400.09	0.00
400.28	30.43
400.47	23.41
400.67	0.00
400.86	0.00
401.05	42.13
401.24	16.38
401.44	86.60
401.63	42.13
401.82	0.00
402.01	58.51
402.21	51.49
402.40	67.88
402.59	53.83
402.78	77.24
402.97	65.54
403.17	35.11
403.36	72.56
403.55	14.04
403.74	0.00
403.93	0.00
404.13	79.58
404.32	65.54
404.51	39.79
404.70	9.36
404.89	7.02
405.09	11.70
405.28	93.62
405.47	88.94
405.66	35.11
405.85	23.41
406.05	67.88
406.24	56.17
406.43	28.09
406.62	0.00
406.81	9.36
407.00	14.04
407.20	0.00
407.39	84.26
407.58	0.00
407.77	11.70
407.96	63.19
408.15	67.88
408.34	30.43
408.54	21.06
408.73	16.38
408.92	65.54
409.11	32.77
409.30	0.00
409.49	0.00
409.68	105.32
409.87	46.81
410.07	35.11
410.26	0.00
410.45	18.72
410.64	102.98
410.83	39.79
411.02	65.54
411.21	11.70
411.40	93.62
411.59	25.75
411.78	42.13
411.98	0.00
412.17	28.09
412.36	74.90
412.55	39.79
412.74	0.00
412.93	0.00
413.12	49.15
413.31	46.81
413.50	70.22
413.69	0.00
413.88	11.70
414.07	0.00
414.26	0.00
414.45	56.17
414.64	7.02
414.83	42.13
415.02	11.70
415.22	23.41
415.41	37.45
415.60	32.77
415.79	4.68
415.98	11.70
416.17	42.13
416.36	21.06
416.55	0.00
416.74	4.68
416.93	39.79
417.12	126.39
417.31	18.72
417.50	79.58
417.69	65.54
417.88	23.41
418.07	30.43
418.26	28.09
418.45	35.11
418.64	81.92
418.83	4.68
419.02	58.51
419.21	51.49
419.39	0.00
419.58	51.49
419.77	56.17
419.96	0.00
420.15	44.47
420.34	37.45
420.53	32.77
420.72	79.58
420.91	25.75
421.10	0.00
421.29	56.17
421.48	35.11
421.67	102.98
421.86	46.81
422.05	39.79
422.24	51.49
422.43	67.88
422.61	16.38
422.80	0.00
422.99	35.11
423.18	140.43
423.37	25.75
423.56	16.38
423.75	35.11
423.94	0.00
424.13	0.00
424.32	67.88
424.50	25.75
424.69	30.43
424.88	35.11
425.07	32.77
425.26	4.68
425.45	49.15
425.64	53.83
425.83	16.38
426.01	7.02
426.20	28.09
426.39	18.72
426.58	39.79
426.77	2.34
426.96	0.00
427.15	56.17
427.33	37.45
427.52	0.00
427.71	25.75
427.90	49.15
428.09	72.56
428.28	67.88
428.46	9.36
428.65	42.13
428.84	25.75
429.03	131.07
429.22	0.00
429.40	51.49
429.59	37.45
429.78	35.11
429.97	21.06
430.16	60.85
430.34	58.51
430.53	16.38
430.72	21.06
430.91	39.79
431.10	30.43
431.28	70.22
431.47	0.00
431.66	58.51
431.85	46.81
432.03	21.06
432.22	4.68
432.41	0.00
432.60	65.54
432.79	32.77
432.97	2.34
433.16	79.58
433.35	4.68
433.54	23.41
433.72	0.00
433.91	0.00
434.10	53.83
434.28	0.00
434.47	60.85
434.66	128.73
434.85	79.58
435.03	58.51
435.22	124.05
435.41	21.06
435.59	95.96
435.78	70.22
435.97	63.19
436.16	51.49
436.34	74.90
436.53	60.85
436.72	107.66
436.90	2.34
437.09	4.68
437.28	32.77
437.46	51.49
437.65	23.41
437.84	102.98
438.02	32.77
438.21	0.00
438.40	42.13
438.58	67.88
438.77	70.22
438.96	86.60
439.14	4.68
439.33	23.41
439.52	42.13
439.70	37.45
439.89	91.28
440.08	25.75
440.26	67.88
440.45	98.30
440.63	4.68
440.82	9.36
441.01	0.00
441.19	30.43
441.38	4.68
441.57	46.81
441.75	49.15
441.94	14.04
442.12	0.00
442.31	0.00
442.50	21.06
442.68	65.54
442.87	63.19
443.05	21.06
443.24	35.11
443.43	63.19
443.61	107.66
443.80	11.70
443.98	11.70
444.17	0.00
444.35	11.70
444.54	56.17
444.73	70.22
444.91	14.04
445.10	30.43
445.28	74.90
445.47	0.00
445.65	32.77
445.84	0.00
446.02	0.00
446.21	56.17
446.39	16.38
446.58	4.68
446.77	51.49
446.95	72.56
447.14	46.81
447.32	14.04
447.51	9.36
447.69	39.79
447.88	56.17
448.06	23.41
448.25	7.02
448.43	74.90
448.62	65.54
448.80	4.68
448.99	65.54
449.17	11.70
449.36	35.11
449.54	49.15
449.73	25.75
449.91	25.75
450.10	98.30
450.28	28.09
450.46	4.68
450.65	0.00
450.83	60.85
451.02	32.77
451.20	30.43
451.39	0.00
451.57	23.41
451.76	28.09
451.94	53.83
452.13	56.17
452.31	35.11
452.49	23.41
452.68	23.41
452.86	0.00
453.05	0.00
453.23	0.00
453.42	14.04
453.60	7.02
453.78	72.56
453.97	138.09
454.15	32.77
454.34	16.38
454.52	16.38
454.70	44.47
454.89	0.00
455.07	9.36
455.26	51.49
455.44	114.69
455.62	30.43
455.81	58.51
455.99	11.70
456.17	49.15
456.36	23.41
456.54	0.00
456.73	81.92
456.91	44.47
457.09	39.79
457.28	65.54
457.46	23.41
457.64	0.00
457.83	4.68
458.01	32.77
458.19	23.41
458.38	60.85
458.56	84.26
458.74	107.66
458.93	25.75
459.11	39.79
459.29	0.00
459.48	72.56
459.66	114.69
459.84	56.17
460.03	18.72
460.21	98.30
460.39	114.69
460.57	35.11
460.76	44.47
460.94	0.00
461.12	16.38
461.31	60.85
461.49	63.19
461.67	30.43
461.85	18.72
462.04	0.00
462.22	77.24
462.40	28.09
462.59	30.43
462.77	0.00
462.95	35.11
463.13	42.13
463.32	30.43
463.50	56.17
463.68	23.41
463.86	42.13
464.05	81.92
464.23	51.49
464.41	18.72
464.59	49.15
464.78	70.22
464.96	14.04
465.14	28.09
465.32	72.56
465.50	23.41
465.69	21.06
465.87	39.79
466.05	91.28
466.23	42.13
466.41	18.72
466.60	23.41
466.78	7.02
466.96	39.79
467.14	25.75
467.32	0.00
467.51	67.88
467.69	16.38
467.87	65.54
468.05	49.15
468.23	35.11
468.41	84.26
468.60	30.43
468.78	67.88
468.96	42.13
469.14	21.06
469.32	39.79
469.50	28.09
469.69	60.85
469.87	60.85
470.05	39.79
470.23	91.28
470.41	60.85
470.59	70.22
470.77	11.70
470.95	0.00
471.14	77.24
471.32	0.00
471.50	88.94
471.68	18.72
471.86	0.00
472.04	44.47
472.22	51.49
472.40	0.00
472.58	0.00
472.77	49.15
472.95	91.28
473.13	21.06
473.31	74.90
473.49	98.30
473.67	51.49
473.85	88.94
474.03	39.79
474.21	28.09
474.39	81.92
474.57	121.71
474.75	4.68
474.93	9.36
475.12	25.75
475.30	49.15
475.48	63.19
475.66	4.68
475.84	16.38
476.02	77.24
476.20	14.04
476.38	44.47
476.56	145.11
476.74	65.54
476.92	16.38
477.10	23.41
477.28	42.13
477.46	9.36
477.64	37.45
477.82	0.00
478.00	81.92
478.18	112.35
478.36	46.81
478.54	14.04
478.72	23.41
478.90	72.56
479.08	35.11
479.26	126.39
479.44	65.54
479.62	81.92
479.80	60.85
479.98	0.00
480.16	14.04
480.34	81.92
480.52	39.79
480.70	21.06
480.88	56.17
481.06	63.19
481.24	21.06
481.41	58.51
481.59	37.45
481.77	0.00
481.95	53.83
482.13	11.70
482.31	93.62
482.49	0.00
482.67	67.88
482.85	0.00
483.03	16.38
483.21	46.81
483.39	84.26
483.57	4.68
483.74	14.04
483.92	63.19
484.10	4.68
484.28	70.22
484.46	110.01
484.64	58.51
484.82	65.54
485.00	58.51
485.18	46.81
485.35	107.66
485.53	21.06
485.71	58.51
485.89	81.92
486.07	46.81
486.25	81.92
486.43	21.06
486.61	21.06
486.78	0.00
486.96	51.49
487.14	58.51
487.32	2.34
487.50	0.00
487.68	53.83
487.85	56.17
488.03	21.06
488.21	0.00
488.39	77.24
488.57	0.00
488.75	0.00
488.92	63.19
489.10	35.11
489.28	67.88
489.46	51.49
489.64	9.36
489.81	30.43
489.99	32.77
490.17	74.90
490.35	65.54
490.53	0.00
490.70	0.00
490.88	65.54
491.06	74.90
491.24	51.49
491.41	46.81
491.59	0.00
491.77	63.19
491.95	110.01
492.13	0.00
492.30	72.56
492.48	74.90
492.66	67.88
492.84	72.56
493.01	65.54
493.19	37.45
493.37	84.26
493.54	58.51
493.72	4.68
493.90	2.34
494.08	53.83
494.25	18.72
494.43	23.41
494.61	70.22
494.79	84.26
494.96	81.92
495.14	14.04
495.32	23.41
495.49	70.22
495.67	30.43
495.85	51.49
496.02	7.02
496.20	39.79
496.38	0.00
496.55	112.35
496.73	58.51
496.91	0.00
497.09	100.64
497.26	63.19
497.44	0.00
497.62	84.26
497.79	51.49
497.97	16.38
498.14	114.69
498.32	46.81
498.50	46.81
498.67	58.51
498.85	39.79
499.03	0.00
499.20	23.41
499.38	49.15
499.56	65.54
499.73	65.54
499.91	46.81
500.08	79.58
500.26	77.24
500.44	102.98
500.61	60.85
500.79	35.11
500.97	0.00
501.14	35.11
501.32	4.68
501.49	72.56
501.67	100.64
501.84	67.88
502.02	110.01
502.20	4.68
502.37	51.49
502.55	121.71
502.72	93.62
502.90	39.79
503.07	60.85
503.25	53.83
503.43	2.34
503.60	42.13
503.78	23.41
503.95	102.98
504.13	51.49
504.30	32.77
504.48	44.47
504.65	23.41
504.83	44.47
505.01	23.41
505.18	30.43
505.36	63.19
505.53	0.00
505.71	14.04
505.88	49.15
506.06	42.13
506.23	23.41
506.41	39.79
506.58	4.68
506.76	0.00
506.93	93.62
507.11	74.90
507.28	46.81
507.46	0.00
507.63	72.56
507.81	63.19
507.98	63.19
508.16	63.19
508.33	0.00
508.50	51.49
508.68	51.49
508.85	81.92
509.03	65.54
509.20	16.38
509.38	56.17
509.55	35.11
509.73	107.66
509.90	39.79
510.08	100.64
510.25	21.06
510.42	37.45
510.60	23.41
510.77	105.32
510.95	35.11
511.12	21.06
511.30	42.13
511.47	58.51
511.64	86.60
511.82	16.38
511.99	72.56
512.17	93.62
512.34	56.17
512.51	124.05
512.69	37.45
512.86	2.34
513.04	32.77
513.21	135.75
513.38	46.81
513.56	56.17
513.73	4.68
513.90	23.41
514.08	58.51
514.25	91.28
514.43	32.77
514.60	149.79
514.77	112.35
514.95	0.00
515.12	81.92
515.29	56.17
515.47	7.02
515.64	72.56
515.81	51.49
515.99	77.24
516.16	51.49
516.33	72.56
516.51	21.06
516.68	58.51
516.85	72.56
517.03	37.45
517.20	81.92
517.37	4.68
517.54	28.09
517.72	53.83
517.89	60.85
518.06	74.90
518.24	28.09
518.41	86.60
518.58	105.32
518.75	74.90
518.93	72.56
519.10	42.13
519.27	60.85
519.45	25.75
519.62	51.49
519.79	32.77
519.96	23.41
520.14	42.13
520.31	49.15
520.48	14.04
520.65	23.41
520.83	37.45
521.00	74.90
521.17	110.01
521.34	58.51
521.52	2.34
521.69	42.13
521.86	140.43
522.03	53.83
522.20	28.09
522.38	42.13
522.55	93.62
522.72	46.81
522.89	84.26
523.07	4.68
523.24	44.47
523.41	91.28
523.58	30.43
523.75	60.85
523.92	0.00
524.10	77.24
524.27	0.00
524.44	58.51
524.61	70.22
524.78	65.54
524.96	79.58
525.13	107.66
525.30	74.90
525.47	0.00
525.64	28.09
525.81	131.07
525.98	18.72
526.16	51.49
526.33	4.68
526.50	35.11
526.67	88.94
526.84	28.09
527.01	93.62
527.18	70.22
527.36	72.56
527.53	51.49
527.70	18.72
527.87	9.36
528.04	98.30
528.21	37.45
528.38	77.24
528.55	30.43
528.72	72.56
528.89	46.81
529.07	35.11
529.24	0.00
529.41	58.51
529.58	0.00
529.75	72.56
529.92	28.09
530.09	14.04
530.26	72.56
530.43	0.00
530.60	23.41
530.77	51.49
530.94	37.45
531.11	86.60
531.28	107.66
531.46	0.00
531.63	28.09
531.80	77.24
531.97	9.36
532.14	0.00
532.31	81.92
532.48	42.13
532.65	0.00
532.82	42.13
532.99	72.56
533.16	79.58
533.33	119.37
533.50	70.22
533.67	58.51
533.84	67.88
534.01	21.06
534.18	86.60
534.35	72.56
534.52	25.75
534.69	93.62
534.86	0.00
535.03	23.41
535.20	79.58
535.37	51.49
535.54	23.41
535.71	53.83
535.88	86.60
536.05	95.96
536.22	60.85
536.38	30.43
536.55	42.13
536.72	18.72
536.89	2.34
537.06	4.68
537.23	65.54
537.40	28.09
537.57	28.09
537.74	124.05
537.91	65.54
538.08	28.09
538.25	58.51
538.42	74.90
538.59	46.81
538.75	16.38
538.92	58.51
539.09	46.81
539.26	0.00
539.43	7.02
539.60	39.79
539.77	121.71
539.94	67.88
540.11	25.75
540.28	88.94
540.44	84.26
540.61	60.85
540.78	2.34
540.95	81.92
541.12	51.49
541.29	65.54
541.46	35.11
541.62	39.79
541.79	42.13
541.96	46.81
542.13	11.70
542.30	91.28
542.47	37.45
542.63	49.15
542.80	35.11
542.97	114.69
543.14	98.30
543.31	44.47
543.48	67.88
543.64	42.13
543.81	98.30
543.98	124.05
544.15	119.37
544.32	51.49
544.48	28.09
544.65	93.62
544.82	51.49
544.99	51.49
545.16	86.60
545.32	56.17
545.49	9.36
545.66	4.68
545.83	32.77
546.00	93.62
546.16	16.38
546.33	128.73
546.50	58.51
546.67	23.41
546.83	16.38
547.00	42.13
547.17	86.60
547.34	2.34
547.50	0.00
547.67	4.68
547.84	32.77
548.00	98.30
548.17	121.71
548.34	39.79
548.51	9.36
548.67	0.00
548.84	32.77
549.01	56.17
549.18	121.71
549.34	46.81
549.51	63.19
549.68	9.36
549.84	0.00
550.01	0.00
550.18	88.94
550.34	4.68
550.51	93.62
550.68	84.26
550.84	107.66
551.01	124.05
551.18	84.26
551.34	53.83
551.51	0.00
551.68	21.06
551.84	4.68
552.01	37.45
552.18	30.43
552.34	37.45
552.51	0.00
552.68	11.70
552.84	30.43
553.01	70.22
553.18	58.51
553.34	79.58
553.51	77.24
553.67	100.64
553.84	100.64
554.01	102.98
554.17	25.75
554.34	21.06
554.51	0.00
554.67	131.07
554.84	7.02
555.00	35.11
555.17	32.77
555.33	65.54
555.50	77.24
555.67	51.49
555.83	44.47
556.00	37.45
556.16	72.56
556.33	93.62
556.50	79.58
556.66	37.45
556.83	63.19
556.99	58.51
557.16	84.26
557.32	28.09
557.49	98.30
557.65	0.00
557.82	117.03
557.98	58.51
558.15	117.03
558.32	21.06
558.48	16.38
558.65	95.96
558.81	32.77
558.98	107.66
559.14	0.00
559.31	23.41
559.47	30.43
559.64	35.11
559.80	14.04
559.97	18.72
560.13	39.79
560.30	9.36
560.46	2.34
560.63	60.85
560.79	79.58
560.96	49.15
561.12	42.13
561.29	77.24
561.45	28.09
561.61	44.47
561.78	100.64
561.94	86.60
562.11	11.70
562.27	30.43
562.44	39.79
562.60	25.75
562.77	32.77
562.93	88.94
563.10	25.75
563.26	51.49
563.42	2.34
563.59	114.69
563.75	21.06
563.92	18.72
564.08	49.15
564.24	84.26
564.41	9.36
564.57	63.19
564.74	0.00
564.90	18.72
565.07	14.04
565.23	67.88
565.39	25.75
565.56	46.81
565.72	23.41
565.88	56.17
566.05	28.09
566.21	51.49
566.38	28.09
566.54	86.60
566.70	74.90
566.87	16.38
567.03	53.83
567.19	2.34
567.36	72.56
567.52	44.47
567.68	7.02
567.85	67.88
568.01	51.49
568.17	0.00
568.34	16.38
568.50	126.39
568.66	21.06
568.83	0.00
568.99	79.58
569.15	14.04
569.32	7.02
569.48	0.00
569.64	32.77
569.81	60.85
569.97	93.62
570.13	60.85
570.30	30.43
570.46	7.02
570.62	0.00
570.78	7.02
570.95	79.58
571.11	58.51
571.27	60.85
571.43	35.11
571.60	72.56
571.76	67.88
571.92	11.70
572.09	25.75
572.25	98.30
572.41	32.77
572.57	25.75
572.74	81.92
572.90	49.15
573.06	100.64
573.22	77.24
573.38	4.68
573.55	0.00
573.71	65.54
573.87	4.68
574.03	42.13
574.20	0.00
574.36	37.45
574.52	0.00
574.68	28.09
574.84	53.83
575.01	14.04
575.17	67.88
575.33	32.77
575.49	0.00
575.65	88.94
575.82	46.81
575.98	32.77
576.14	58.51
576.30	18.72
576.46	107.66
576.62	28.09
576.79	93.62
576.95	39.79
577.11	67.88
577.27	46.81
577.43	0.00
577.59	39.79
577.75	77.24
577.92	79.58
578.08	49.15
578.24	14.04
578.40	2.34
578.56	56.17
578.72	14.04
578.88	56.17
579.04	49.15
579.21	32.77
579.37	84.26
579.53	21.06
579.69	39.79
579.85	0.00
580.01	32.77
580.17	2.34
580.33	14.04
580.49	77.24
580.65	60.85
580.82	93.62
580.98	67.88
581.14	70.22
581.30	46.81
581.46	105.32
581.62	53.83
581.78	32.77
581.94	117.03
582.10	65.54
582.26	37.45
582.42	67.88
582.58	21.06
582.74	21.06
582.90	30.43
583.06	0.00
583.22	88.94
583.38	46.81
583.54	0.00
583.70	0.00
583.86	39.79
584.02	102.98
584.18	4.68
584.34	74.90
584.50	58.51
584.66	9.36
584.82	0.00
584.98	107.66
585.14	37.45
585.30	39.79
585.46	58.51
585.62	21.06
585.78	72.56
585.94	0.00
586.10	16.38
586.26	30.43
586.42	46.81
586.58	67.88
586.74	72.56
586.90	35.11
587.06	0.00
587.22	0.00
587.38	53.83
587.54	51.49
587.70	0.00
587.86	0.00
588.02	0.00
588.18	0.00
588.34	72.56
588.49	0.00
588.65	86.60
588.81	110.01
588.97	4.68
589.13	67.88
589.29	49.15
589.45	23.41
589.61	25.75
589.77	74.90
589.93	0.00
590.08	0.00
590.24	0.00
590.40	46.81
590.56	60.85
590.72	72.56
590.88	0.00
591.04	35.11
591.20	14.04
591.35	18.72
591.51	0.00
591.67	56.17
591.83	86.60
591.99	0.00
592.15	88.94
592.31	35.11
592.46	39.79
592.62	42.13
592.78	7.02
592.94	98.30
593.10	35.11
593.26	0.00
593.41	0.00
593.57	2.34
593.73	70.22
593.89	28.09
594.05	91.28
594.20	56.17
594.36	44.47
594.52	58.51
594.68	25.75
594.84	77.24
594.99	56.17
595.15	72.56
595.31	18.72
595.47	0.00
595.62	21.06
595.78	58.51
595.94	32.77
596.10	77.24
596.25	65.54
596.41	86.60
596.57	14.04
596.73	44.47
596.88	25.75
597.04	18.72
597.20	51.49
597.36	30.43
597.51	42.13
597.67	65.54
597.83	30.43
597.99	0.00
598.14	0.00
598.30	67.88
598.46	79.58
598.61	79.58
598.77	18.72
598.93	60.85
599.09	95.96
599.24	60.85
599.40	37.45
599.56	81.92
599.71	0.00
599.87	0.00
600.03	49.15
600.18	0.00
600.34	42.13
600.50	4.68
600.65	51.49
600.81	77.24
600.97	74.90
601.12	0.00
601.28	110.01
601.44	51.49
601.59	91.28
601.75	51.49
601.91	4.68
602.06	0.00
602.22	98.30
602.37	44.47
602.53	0.00
602.69	91.28
602.84	88.94
603.00	16.38
603.16	9.36
603.31	105.32
603.47	56.17
603.62	72.56
603.78	18.72
603.94	0.00
604.09	30.43
604.25	16.38
604.40	51.49
604.56	0.00
604.71	42.13
604.87	131.07
605.03	67.88
605.18	30.43
605.34	93.62
605.49	53.83
605.65	70.22
605.80	0.00
605.96	49.15
606.12	16.38
606.27	9.36
606.43	44.47
606.58	42.13
606.74	107.66
606.89	37.45
607.05	58.51
607.20	142.77
607.36	39.79
607.51	56.17
607.67	32.77
607.82	72.56
607.98	60.85
608.13	112.35
608.29	110.01
608.44	84.26
608.60	11.70
608.75	21.06
608.91	42.13
609.06	32.77
609.22	46.81
609.37	4.68
609.53	0.00
609.68	56.17
609.84	0.00
609.99	79.58
610.15	49.15
610.30	11.70
610.46	0.00
610.61	37.45
610.76	23.41
610.92	63.19
611.07	37.45
611.23	84.26
611.38	28.09
611.54	60.85
611.69	65.54
611.84	51.49
612.00	107.66
612.15	46.81
612.31	86.60
612.46	23.41
612.62	166.18
612.77	60.85
612.92	0.00
613.08	7.02
613.23	95.96
613.39	23.41
613.54	21.06
613.69	25.75
613.85	51.49
614.00	107.66
614.15	39.79
614.31	39.79
614.46	4.68
614.62	72.56
614.77	9.36
614.92	49.15
615.08	9.36
615.23	16.38
615.38	51.49
615.54	105.32
615.69	98.30
615.84	65.54
616.00	60.85
616.15	79.58
616.30	4.68
616.46	58.51
616.61	138.09
616.76	44.47
616.92	23.41
617.07	46.81
617.22	86.60
617.37	119.37
617.53	39.79
617.68	84.26
617.83	79.58
617.99	18.72
618.14	46.81
618.29	35.11
618.45	46.81
618.60	102.98
618.75	72.56
618.90	14.04
619.06	37.45
619.21	98.30
619.36	23.41
619.51	0.00
619.67	63.19
619.82	70.22
619.97	18.72
620.12	25.75
620.28	37.45
620.43	91.28
620.58	39.79
620.73	0.00
620.89	0.00
621.04	25.75
621.19	21.06
621.34	51.49
621.49	14.04
621.65	23.41
621.80	0.00
621.95	0.00
622.10	56.17
622.25	28.09
622.41	51.49
622.56	0.00
622.71	81.92
622.86	28.09
623.01	98.30
623.16	25.75
623.32	105.32
623.47	93.62
623.62	0.00
623.77	0.00
623.92	70.22
624.07	11.70
624.23	21.06
624.38	14.04
624.53	53.83
624.68	119.37
624.83	9.36
624.98	53.83
625.13	77.24
625.29	46.81
625.44	74.90
625.59	37.45
625.74	37.45
625.89	114.69
626.04	44.47
626.19	23.41
626.34	112.35
626.49	28.09
626.65	16.38
626.80	0.00
626.95	0.00
627.10	0.00
627.25	93.62
627.40	60.85
627.55	28.09
627.70	0.00
627.85	18.72
628.00	14.04
628.15	46.81
628.30	37.45
628.45	74.90
628.60	65.54
628.76	35.11
628.91	0.00
629.06	0.00
629.21	0.00
629.36	63.19
629.51	0.00
629.66	11.70
629.81	56.17
629.96	46.81
630.11	44.47
630.26	0.00
630.41	23.41
630.56	35.11
630.71	9.36
630.86	32.77
631.01	28.09
631.16	58.51
631.31	95.96
631.46	72.56
631.61	16.38
631.76	14.04
631.91	21.06
632.06	0.00
632.21	14.04
632.36	42.13
632.51	110.01
632.66	16.38
632.81	23.41
632.96	42.13
633.10	42.13
633.25	114.69
633.40	18.72
633.55	84.26
633.70	0.00
633.85	32.77
634.00	51.49
634.15	42.13
634.30	30.43
634.45	4.68
634.60	28.09
634.75	70.22
634.90	60.85
635.05	0.00
635.19	37.45
635.34	4.68
635.49	23.41
635.64	18.72
635.79	91.28
635.94	18.72
636.09	95.96
636.24	49.15
636.39	81.92
636.53	0.00
636.68	86.60
636.83	21.06
636.98	46.81
637.13	46.81
637.28	0.00
637.43	77.24
637.57	77.24
637.72	51.49
637.87	72.56
638.02	37.45
638.17	0.00
638.32	16.38
638.46	42.13
638.61	23.41
638.76	58.51
638.91	39.79
639.06	37.45
639.20	23.41
639.35	30.43
639.50	11.70
639.65	56.17
639.80	42.13
639.94	39.79
640.09	11.70
640.24	9.36
640.39	39.79
640.54	70.22
640.68	37.45
640.83	11.70
640.98	42.13
641.13	49.15
641.27	11.70
641.42	63.19
641.57	0.00
641.72	7.02
641.86	0.00
642.01	44.47
642.16	70.22
642.31	4.68
642.45	51.49
642.60	46.81
642.75	70.22
642.90	39.79
643.04	0.00
643.19	53.83
643.34	16.38
643.48	18.72
643.63	23.41
643.78	42.13
643.93	128.73
644.07	25.75
644.22	65.54
644.37	56.17
644.51	42.13
644.66	0.00
644.81	53.83
644.95	42.13
645.10	58.51
645.25	42.13
645.39	0.00
645.54	53.83
645.69	0.00
645.83	0.00
645.98	46.81
646.13	32.77
646.27	70.22
646.42	42.13
646.57	0.00
646.71	32.77
646.86	0.00
647.00	56.17
647.15	65.54
647.30	23.41
647.44	14.04
647.59	77.24
647.74	30.43
647.88	58.51
648.03	16.38
648.17	7.02
648.32	39.79
648.47	0.00
648.61	53.83
648.76	74.90
648.90	74.90
649.05	74.90
649.20	58.51
649.34	2.34
649.49	56.17
649.63	110.01
649.78	46.81
649.92	28.09
650.07	102.98
650.21	112.35
650.36	37.45
650.51	110.01
650.65	56.17
650.80	16.38
650.94	51.49
651.09	32.77
651.23	63.19
651.38	0.00
651.52	21.06
651.67	32.77
651.81	72.56
651.96	53.83
652.10	35.11
652.25	95.96
652.39	53.83
652.54	72.56
652.68	32.77
652.83	53.83
652.97	0.00
653.12	0.00
653.26	70.22
653.41	51.49
653.55	0.00
653.70	0.00
653.84	25.75
653.99	0.00
654.13	86.60
654.27	53.83
654.42	32.77
654.56	32.77
654.71	30.43
654.85	28.09
655.00	117.03
655.14	105.32
655.29	58.51
655.43	0.00
655.57	51.49
655.72	46.81
655.86	2.34
656.01	124.05
656.15	28.09
656.30	79.58
656.44	0.00
656.58	16.38
656.73	0.00
656.87	0.00
657.01	14.04
657.16	39.79
657.30	0.00
657.45	32.77
657.59	0.00
657.73	7.02
657.88	60.85
658.02	63.19
658.16	91.28
658.31	0.00
658.45	18.72
658.60	74.90
658.74	56.17
658.88	77.24
659.03	42.13
659.17	88.94
659.31	44.47
659.46	74.90
659.60	60.85
659.74	30.43
659.89	9.36
660.03	7.02
660.17	133.41
660.32	4.68
660.46	0.00
660.60	67.88
660.74	81.92
660.89	23.41
661.03	39.79
661.17	0.00
661.32	56.17
661.46	100.64
661.60	0.00
661.74	49.15
661.89	65.54
662.03	49.15
662.17	70.22
662.31	18.72
662.46	46.81
662.60	42.13
662.74	60.85
662.88	67.88
663.03	51.49
663.17	81.92
663.31	18.72
663.45	81.92
663.60	46.81
663.74	72.56
663.88	53.83
664.02	9.36
664.17	88.94
664.31	0.00
664.45	72.56
664.59	18.72
664.73	16.38
664.88	0.00
665.02	14.04
665.16	42.13
665.30	63.19
665.44	0.00
665.59	23.41
665.73	56.17
665.87	53.83
666.01	0.00
666.15	25.75
666.29	35.11
666.44	37.45
666.58	0.00
666.72	25.75
666.86	39.79
667.00	0.00
667.14	28.09
667.28	32.77
667.43	74.90
667.57	0.00
667.71	74.90
667.85	2.34
667.99	0.00
668.13	0.00
668.27	70.22
668.41	0.00
668.56	102.98
668.70	100.64
668.84	37.45
668.98	67.88
669.12	25.75
669.26	30.43
669.40	102.98
669.54	84.26
669.68	0.00
669.82	98.30
669.96	2.34
670.10	67.88
670.25	21.06
670.39	0.00
670.53	11.70
670.67	18.72
670.81	63.19
670.95	60.85
671.09	0.00
671.23	0.00
671.37	77.24
671.51	60.85
671.65	30.43
671.79	0.00
671.93	14.04
672.07	16.38
672.21	21.06
672.35	28.09
672.49	11.70
672.63	91.28
672.77	32.77
672.91	0.00
673.05	37.45
673.19	21.06
673.33	0.00
673.47	7.02
673.61	72.56
673.75	0.00
673.89	0.00
674.03	35.11
674.17	18.72
674.31	39.79
674.45	56.17
674.59	23.41
674.73	2.34
674.87	32.77
675.01	46.81
675.15	81.92
675.29	44.47
675.43	42.13
675.56	46.81
675.70	65.54
675.84	42.13
675.98	67.88
676.12	65.54
676.26	46.81
676.40	74.90
676.54	2.34
676.68	56.17
676.82	39.79
676.96	53.83
677.10	72.56
677.23	51.49
677.37	0.00
677.51	49.15
677.65	16.38
677.79	23.41
677.93	9.36
678.07	67.88
678.21	0.00
678.34	56.17
678.48	9.36
678.62	35.11
678.76	49.15
678.90	18.72
679.04	21.06
679.18	16.38
679.31	65.54
679.45	18.72
679.59	2.34
679.73	4.68
679.87	30.43
680.00	70.22
680.14	0.00
680.28	42.13
680.42	0.00
680.56	4.68
680.70	4.68
680.83	21.06
680.97	46.81
681.11	32.77
681.25	74.90
681.39	53.83
681.52	46.81
681.66	2.34
681.80	77.24
681.94	60.85
682.07	25.75
682.21	107.66
682.35	56.17
682.49	21.06
682.62	81.92
682.76	88.94
682.90	7.02
683.04	74.90
683.17	51.49
683.31	126.39
683.45	11.70
683.59	32.77
683.72	32.77
683.86	70.22
684.00	42.13
684.13	51.49
684.27	49.15
684.41	0.00
684.55	46.81
684.68	21.06
684.82	4.68
684.96	30.43
685.09	56.17
685.23	42.13
685.37	18.72
685.50	28.09
685.64	0.00
685.78	9.36
685.91	14.04
686.05	0.00
686.19	60.85
686.32	0.00
686.46	23.41
686.60	0.00
686.73	117.03
686.87	30.43
687.01	51.49
687.14	7.02
687.28	0.00
687.42	11.70
687.55	60.85
687.69	67.88
687.82	21.06
687.96	14.04
688.10	32.77
688.23	39.79
688.37	65.54
688.50	56.17
688.64	32.77
688.78	0.00
688.91	9.36
689.05	74.90
689.18	23.41
689.32	0.00
689.46	18.72
689.59	32.77
689.73	63.19
689.86	0.00
690.00	37.45
690.13	107.66
690.27	56.17
690.41	28.09
690.54	117.03
690.68	60.85
690.81	21.06
690.95	0.00
691.08	56.17
691.22	74.90
691.35	46.81
691.49	2.34
691.62	58.51
691.76	46.81
691.89	51.49
692.03	0.00
692.16	0.00
692.30	18.72
692.43	112.35
692.57	0.00
692.70	70.22
692.84	32.77
692.97	0.00
693.11	37.45
693.24	0.00
693.38	32.77
693.51	37.45
693.65	56.17
693.78	9.36
693.92	84.26
694.05	86.60
694.19	49.15
694.32	110.01
694.45	46.81
694.59	0.00
694.72	51.49
694.86	77.24
694.99	63.19
695.13	56.17
695.26	30.43
695.39	56.17
695.53	0.00
695.66	49.15
695.80	23.41
695.93	42.13
696.07	0.00
696.20	60.85
696.33	37.45
696.47	114.69
696.60	53.83
696.73	70.22
696.87	60.85
697.00	35.11
697.14	25.75
697.27	51.49
697.40	49.15
697.54	46.81
697.67	37.45
697.80	25.75
697.94	0.00
698.07	126.39
698.21	56.17
698.34	9.36
698.47	14.04
698.61	79.58
698.74	53.83
698.87	37.45
699.01	4.68
699.14	74.90
699.27	21.06
699.40	72.56
699.54	39.79
699.67	16.38
699.80	0.00
699.94	28.09
700.07	37.45
700.20	86.60
700.34	0.00
700.47	46.81
700.60	0.00
700.73	0.00
700.87	35.11
701.00	32.77
701.13	0.00
701.26	56.17
701.40	0.00
701.53	53.83
701.66	114.69
701.79	0.00
701.93	16.38
702.06	16.38
702.19	42.13
702.32	0.00
702.46	44.47
702.59	0.00
702.72	70.22
702.85	86.60
702.99	51.49
703.12	32.77
703.25	0.00
703.38	9.36
703.51	0.00
703.65	21.06
703.78	30.43
703.91	53.83
704.04	49.15
704.17	0.00
704.31	0.00
704.44	0.00
704.57	58.51
704.70	7.02
704.83	70.22
704.96	14.04
705.10	58.51
705.23	0.00
>>>>>End Processed Spectral Data<<<<<
