SpectraSuite Data File
++++++++++++++++++++++++++++++++++++
Date: Fri Oct 04 12:13:44 GMT-05:00 2013
User: price-jones
Dark Spectrum Present: No
Reference Spectrum Present: No
Number of Sampled Component Spectra: 1
Spectrometers: USB2+H05261
Integration Time (usec): 10000 (USB2+H05261)
Spectra Averaged: 1 (USB2+H05261)
Boxcar Smoothing: 0 (USB2+H05261)
Correct for Electrical Dark: No (USB2+H05261)
Strobe/Lamp Enabled: No (USB2+H05261)
Correct for Detector Non-linearity: No (USB2+H05261)
Correct for Stray Light: No (USB2+H05261)
Number of Pixels in Processed Spectrum: 2048
>>>>>Begin Processed Spectral Data<<<<<
365.73	2.34
365.92	2.34
366.12	2.34
366.32	0.00
366.52	0.00
366.72	0.00
366.91	0.00
367.11	0.00
367.31	0.00
367.51	0.00
367.70	0.00
367.90	0.00
368.10	0.00
368.30	0.00
368.49	0.00
368.69	0.00
368.89	0.00
369.09	0.00
369.28	0.00
369.48	0.00
369.68	0.00
369.87	0.00
370.07	0.00
370.27	0.00
370.47	0.00
370.66	0.00
370.86	0.00
371.06	0.00
371.25	2.34
371.45	49.15
371.65	23.41
371.84	0.00
372.04	9.36
372.24	28.09
372.44	16.38
372.63	32.77
372.83	79.58
373.03	0.00
373.22	49.15
373.42	74.90
373.62	58.51
373.81	91.28
374.01	28.09
374.21	0.00
374.40	0.00
374.60	102.98
374.79	81.92
374.99	0.00
375.19	49.15
375.38	77.24
375.58	42.13
375.78	39.79
375.97	37.45
376.17	93.62
376.37	44.47
376.56	93.62
376.76	0.00
376.95	39.79
377.15	0.00
377.35	4.68
377.54	30.43
377.74	0.00
377.93	67.88
378.13	2.34
378.33	11.70
378.52	84.26
378.72	131.07
378.91	37.45
379.11	0.00
379.31	16.38
379.50	0.00
379.70	23.41
379.89	49.15
380.09	74.90
380.28	16.38
380.48	21.06
380.68	39.79
380.87	51.49
381.07	7.02
381.26	0.00
381.46	81.92
381.65	44.47
381.85	0.00
382.04	39.79
382.24	39.79
382.43	0.00
382.63	0.00
382.83	25.75
383.02	39.79
383.22	44.47
383.41	7.02
383.61	0.00
383.80	2.34
384.00	56.17
384.19	0.00
384.39	44.47
384.58	0.00
384.78	7.02
384.97	16.38
385.17	91.28
385.36	4.68
385.56	46.81
385.75	11.70
385.95	95.96
386.14	37.45
386.34	53.83
386.53	56.17
386.72	60.85
386.92	51.49
387.11	70.22
387.31	18.72
387.50	65.54
387.70	14.04
387.89	0.00
388.09	23.41
388.28	86.60
388.48	119.37
388.67	37.45
388.86	91.28
389.06	0.00
389.25	0.00
389.45	72.56
389.64	14.04
389.84	0.00
390.03	0.00
390.22	0.00
390.42	44.47
390.61	0.00
390.81	35.11
391.00	39.79
391.19	0.00
391.39	18.72
391.58	93.62
391.78	70.22
391.97	0.00
392.16	2.34
392.36	56.17
392.55	16.38
392.75	0.00
392.94	2.34
393.13	37.45
393.33	53.83
393.52	81.92
393.71	0.00
393.91	60.85
394.10	21.06
394.29	28.09
394.49	25.75
394.68	0.00
394.88	32.77
395.07	0.00
395.26	21.06
395.46	35.11
395.65	0.00
395.84	60.85
396.04	0.00
396.23	30.43
396.42	0.00
396.62	91.28
396.81	88.94
397.00	60.85
397.19	16.38
397.39	11.70
397.58	0.00
397.77	30.43
397.97	0.00
398.16	105.32
398.35	0.00
398.55	23.41
398.74	0.00
398.93	46.81
399.12	14.04
399.32	18.72
399.51	70.22
399.70	46.81
399.90	56.17
400.09	0.00
400.28	14.04
400.47	28.09
400.67	0.00
400.86	67.88
401.05	18.72
401.24	60.85
401.44	2.34
401.63	51.49
401.82	18.72
402.01	79.58
402.21	0.00
402.40	56.17
402.59	23.41
402.78	42.13
402.97	70.22
403.17	18.72
403.36	53.83
403.55	23.41
403.74	25.75
403.93	0.00
404.13	0.00
404.32	0.00
404.51	44.47
404.70	2.34
404.89	0.00
405.09	63.19
405.28	37.45
405.47	95.96
405.66	21.06
405.85	18.72
406.05	16.38
406.24	0.00
406.43	32.77
406.62	81.92
406.81	70.22
407.00	67.88
407.20	0.00
407.39	72.56
407.58	28.09
407.77	37.45
407.96	58.51
408.15	65.54
408.34	0.00
408.54	51.49
408.73	4.68
408.92	0.00
409.11	32.77
409.30	0.00
409.49	39.79
409.68	11.70
409.87	35.11
410.07	53.83
410.26	63.19
410.45	49.15
410.64	21.06
410.83	105.32
411.02	28.09
411.21	9.36
411.40	7.02
411.59	23.41
411.78	21.06
411.98	0.00
412.17	0.00
412.36	0.00
412.55	0.00
412.74	70.22
412.93	53.83
413.12	53.83
413.31	18.72
413.50	30.43
413.69	51.49
413.88	60.85
414.07	9.36
414.26	67.88
414.45	0.00
414.64	18.72
414.83	51.49
415.02	79.58
415.22	35.11
415.41	0.00
415.60	18.72
415.79	102.98
415.98	49.15
416.17	2.34
416.36	65.54
416.55	0.00
416.74	0.00
416.93	77.24
417.12	25.75
417.31	37.45
417.50	25.75
417.69	159.16
417.88	18.72
418.07	79.58
418.26	56.17
418.45	58.51
418.64	63.19
418.83	14.04
419.02	0.00
419.21	42.13
419.39	37.45
419.58	28.09
419.77	39.79
419.96	0.00
420.15	60.85
420.34	84.26
420.53	4.68
420.72	42.13
420.91	23.41
421.10	0.00
421.29	65.54
421.48	25.75
421.67	93.62
421.86	79.58
422.05	18.72
422.24	0.00
422.43	46.81
422.61	11.70
422.80	28.09
422.99	0.00
423.18	0.00
423.37	51.49
423.56	7.02
423.75	0.00
423.94	60.85
424.13	39.79
424.32	30.43
424.50	65.54
424.69	16.38
424.88	37.45
425.07	9.36
425.26	7.02
425.45	21.06
425.64	0.00
425.83	14.04
426.01	21.06
426.20	49.15
426.39	11.70
426.58	32.77
426.77	56.17
426.96	0.00
427.15	49.15
427.33	11.70
427.52	0.00
427.71	11.70
427.90	53.83
428.09	25.75
428.28	35.11
428.46	25.75
428.65	21.06
428.84	60.85
429.03	84.26
429.22	30.43
429.40	11.70
429.59	0.00
429.78	0.00
429.97	0.00
430.16	67.88
430.34	72.56
430.53	32.77
430.72	107.66
430.91	44.47
431.10	95.96
431.28	86.60
431.47	81.92
431.66	0.00
431.85	0.00
432.03	37.45
432.22	51.49
432.41	25.75
432.60	119.37
432.79	86.60
432.97	30.43
433.16	65.54
433.35	63.19
433.54	65.54
433.72	88.94
433.91	28.09
434.10	16.38
434.28	0.00
434.47	67.88
434.66	37.45
434.85	0.00
435.03	37.45
435.22	30.43
435.41	60.85
435.59	39.79
435.78	21.06
435.97	18.72
436.16	2.34
436.34	0.00
436.53	42.13
436.72	4.68
436.90	0.00
437.09	51.49
437.28	42.13
437.46	107.66
437.65	91.28
437.84	88.94
438.02	67.88
438.21	86.60
438.40	79.58
438.58	93.62
438.77	42.13
438.96	46.81
439.14	42.13
439.33	7.02
439.52	18.72
439.70	74.90
439.89	81.92
440.08	110.01
440.26	21.06
440.45	60.85
440.63	2.34
440.82	21.06
441.01	37.45
441.19	4.68
441.38	88.94
441.57	37.45
441.75	77.24
441.94	56.17
442.12	67.88
442.31	21.06
442.50	37.45
442.68	72.56
442.87	32.77
443.05	0.00
443.24	11.70
443.43	58.51
443.61	11.70
443.80	0.00
443.98	4.68
444.17	65.54
444.35	81.92
444.54	65.54
444.73	105.32
444.91	53.83
445.10	79.58
445.28	93.62
445.47	7.02
445.65	49.15
445.84	100.64
446.02	95.96
446.21	93.62
446.39	11.70
446.58	23.41
446.77	117.03
446.95	0.00
447.14	46.81
447.32	23.41
447.51	9.36
447.69	74.90
447.88	23.41
448.06	70.22
448.25	49.15
448.43	0.00
448.62	81.92
448.80	53.83
448.99	0.00
449.17	42.13
449.36	25.75
449.54	53.83
449.73	39.79
449.91	46.81
450.10	4.68
450.28	112.35
450.46	30.43
450.65	9.36
450.83	28.09
451.02	37.45
451.20	37.45
451.39	0.00
451.57	93.62
451.76	16.38
451.94	25.75
452.13	23.41
452.31	91.28
452.49	72.56
452.68	98.30
452.86	11.70
453.05	0.00
453.23	0.00
453.42	49.15
453.60	42.13
453.78	39.79
453.97	30.43
454.15	77.24
454.34	63.19
454.52	86.60
454.70	53.83
454.89	4.68
455.07	32.77
455.26	0.00
455.44	39.79
455.62	0.00
455.81	32.77
455.99	0.00
456.17	65.54
456.36	46.81
456.54	51.49
456.73	100.64
456.91	88.94
457.09	0.00
457.28	14.04
457.46	128.73
457.64	4.68
457.83	44.47
458.01	53.83
458.19	63.19
458.38	93.62
458.56	46.81
458.74	11.70
458.93	0.00
459.11	51.49
459.29	0.00
459.48	0.00
459.66	9.36
459.84	74.90
460.03	58.51
460.21	37.45
460.39	56.17
460.57	60.85
460.76	37.45
460.94	0.00
461.12	23.41
461.31	65.54
461.49	35.11
461.67	23.41
461.85	2.34
462.04	98.30
462.22	49.15
462.40	14.04
462.59	0.00
462.77	63.19
462.95	86.60
463.13	53.83
463.32	35.11
463.50	49.15
463.68	32.77
463.86	65.54
464.05	18.72
464.23	28.09
464.41	32.77
464.59	28.09
464.78	65.54
464.96	79.58
465.14	18.72
465.32	56.17
465.50	28.09
465.69	35.11
465.87	21.06
466.05	53.83
466.23	30.43
466.41	67.88
466.60	49.15
466.78	77.24
466.96	25.75
467.14	7.02
467.32	25.75
467.51	60.85
467.69	56.17
467.87	30.43
468.05	44.47
468.23	102.98
468.41	0.00
468.60	16.38
468.78	93.62
468.96	72.56
469.14	18.72
469.32	72.56
469.50	49.15
469.69	21.06
469.87	72.56
470.05	79.58
470.23	14.04
470.41	51.49
470.59	11.70
470.77	77.24
470.95	0.00
471.14	72.56
471.32	77.24
471.50	51.49
471.68	51.49
471.86	42.13
472.04	0.00
472.22	18.72
472.40	0.00
472.58	23.41
472.77	46.81
472.95	56.17
473.13	77.24
473.31	65.54
473.49	65.54
473.67	72.56
473.85	81.92
474.03	4.68
474.21	16.38
474.39	7.02
474.57	53.83
474.75	44.47
474.93	44.47
475.12	42.13
475.30	173.20
475.48	65.54
475.66	32.77
475.84	58.51
476.02	18.72
476.20	0.00
476.38	0.00
476.56	58.51
476.74	0.00
476.92	44.47
477.10	46.81
477.28	117.03
477.46	4.68
477.64	42.13
477.82	39.79
478.00	0.00
478.18	77.24
478.36	14.04
478.54	39.79
478.72	53.83
478.90	49.15
479.08	18.72
479.26	81.92
479.44	53.83
479.62	102.98
479.80	65.54
479.98	51.49
480.16	88.94
480.34	23.41
480.52	60.85
480.70	28.09
480.88	42.13
481.06	4.68
481.24	16.38
481.41	0.00
481.59	0.00
481.77	72.56
481.95	72.56
482.13	25.75
482.31	100.64
482.49	98.30
482.67	79.58
482.85	0.00
483.03	65.54
483.21	58.51
483.39	112.35
483.57	51.49
483.74	46.81
483.92	81.92
484.10	67.88
484.28	4.68
484.46	117.03
484.64	114.69
484.82	79.58
485.00	70.22
485.18	0.00
485.35	91.28
485.53	2.34
485.71	60.85
485.89	100.64
486.07	0.00
486.25	88.94
486.43	63.19
486.61	42.13
486.78	0.00
486.96	49.15
487.14	110.01
487.32	79.58
487.50	56.17
487.68	63.19
487.85	7.02
488.03	67.88
488.21	112.35
488.39	25.75
488.57	74.90
488.75	70.22
488.92	65.54
489.10	95.96
489.28	98.30
489.46	93.62
489.64	79.58
489.81	98.30
489.99	44.47
490.17	81.92
490.35	95.96
490.53	77.24
490.70	37.45
490.88	37.45
491.06	30.43
491.24	14.04
491.41	65.54
491.59	0.00
491.77	14.04
491.95	30.43
492.13	4.68
492.30	98.30
492.48	42.13
492.66	77.24
492.84	49.15
493.01	79.58
493.19	32.77
493.37	30.43
493.54	56.17
493.72	114.69
493.90	21.06
494.08	51.49
494.25	32.77
494.43	46.81
494.61	65.54
494.79	121.71
494.96	2.34
495.14	51.49
495.32	91.28
495.49	14.04
495.67	0.00
495.85	23.41
496.02	72.56
496.20	77.24
496.38	60.85
496.55	53.83
496.73	0.00
496.91	56.17
497.09	100.64
497.26	77.24
497.44	42.13
497.62	65.54
497.79	37.45
497.97	25.75
498.14	70.22
498.32	72.56
498.50	0.00
498.67	60.85
498.85	100.64
499.03	23.41
499.20	56.17
499.38	0.00
499.56	16.38
499.73	30.43
499.91	124.05
500.08	86.60
500.26	93.62
500.44	53.83
500.61	86.60
500.79	44.47
500.97	86.60
501.14	37.45
501.32	102.98
501.49	56.17
501.67	46.81
501.84	46.81
502.02	77.24
502.20	44.47
502.37	53.83
502.55	7.02
502.72	0.00
502.90	39.79
503.07	56.17
503.25	74.90
503.43	53.83
503.60	131.07
503.78	0.00
503.95	9.36
504.13	37.45
504.30	7.02
504.48	84.26
504.65	49.15
504.83	39.79
505.01	28.09
505.18	107.66
505.36	49.15
505.53	44.47
505.71	51.49
505.88	65.54
506.06	86.60
506.23	72.56
506.41	60.85
506.58	72.56
506.76	65.54
506.93	105.32
507.11	74.90
507.28	0.00
507.46	0.00
507.63	72.56
507.81	72.56
507.98	0.00
508.16	170.86
508.33	65.54
508.50	9.36
508.68	81.92
508.85	21.06
509.03	46.81
509.20	58.51
509.38	11.70
509.55	81.92
509.73	0.00
509.90	0.00
510.08	44.47
510.25	95.96
510.42	70.22
510.60	79.58
510.77	133.41
510.95	72.56
511.12	126.39
511.30	28.09
511.47	39.79
511.64	67.88
511.82	46.81
511.99	93.62
512.17	100.64
512.34	84.26
512.51	86.60
512.69	107.66
512.86	49.15
513.04	30.43
513.21	72.56
513.38	112.35
513.56	60.85
513.73	49.15
513.90	56.17
514.08	9.36
514.25	88.94
514.43	11.70
514.60	86.60
514.77	121.71
514.95	88.94
515.12	30.43
515.29	110.01
515.47	74.90
515.64	49.15
515.81	58.51
515.99	53.83
516.16	77.24
516.33	114.69
516.51	32.77
516.68	72.56
516.85	72.56
517.03	67.88
517.20	79.58
517.37	21.06
517.54	67.88
517.72	121.71
517.89	25.75
518.06	65.54
518.24	44.47
518.41	0.00
518.58	121.71
518.75	23.41
518.93	28.09
519.10	86.60
519.27	44.47
519.45	60.85
519.62	84.26
519.79	121.71
519.96	32.77
520.14	63.19
520.31	56.17
520.48	65.54
520.65	112.35
520.83	93.62
521.00	65.54
521.17	0.00
521.34	18.72
521.52	100.64
521.69	58.51
521.86	35.11
522.03	42.13
522.20	60.85
522.38	28.09
522.55	67.88
522.72	30.43
522.89	110.01
523.07	60.85
523.24	18.72
523.41	9.36
523.58	110.01
523.75	105.32
523.92	91.28
524.10	56.17
524.27	74.90
524.44	105.32
524.61	81.92
524.78	37.45
524.96	86.60
525.13	51.49
525.30	74.90
525.47	51.49
525.64	0.00
525.81	138.09
525.98	0.00
526.16	46.81
526.33	79.58
526.50	138.09
526.67	70.22
526.84	46.81
527.01	65.54
527.18	65.54
527.36	79.58
527.53	105.32
527.70	110.01
527.87	65.54
528.04	58.51
528.21	39.79
528.38	0.00
528.55	84.26
528.72	60.85
528.89	28.09
529.07	46.81
529.24	77.24
529.41	30.43
529.58	88.94
529.75	25.75
529.92	105.32
530.09	114.69
530.26	67.88
530.43	60.85
530.60	58.51
530.77	58.51
530.94	65.54
531.11	49.15
531.28	0.00
531.46	88.94
531.63	74.90
531.80	63.19
531.97	67.88
532.14	63.19
532.31	0.00
532.48	81.92
532.65	39.79
532.82	72.56
532.99	37.45
533.16	72.56
533.33	56.17
533.50	30.43
533.67	98.30
533.84	67.88
534.01	86.60
534.18	44.47
534.35	102.98
534.52	56.17
534.69	63.19
534.86	84.26
535.03	117.03
535.20	53.83
535.37	46.81
535.54	0.00
535.71	42.13
535.88	105.32
536.05	81.92
536.22	79.58
536.38	35.11
536.55	51.49
536.72	84.26
536.89	114.69
537.06	91.28
537.23	95.96
537.40	107.66
537.57	51.49
537.74	16.38
537.91	14.04
538.08	4.68
538.25	0.00
538.42	67.88
538.59	51.49
538.75	117.03
538.92	65.54
539.09	91.28
539.26	39.79
539.43	28.09
539.60	114.69
539.77	81.92
539.94	81.92
540.11	74.90
540.28	25.75
540.44	53.83
540.61	7.02
540.78	86.60
540.95	100.64
541.12	98.30
541.29	0.00
541.46	28.09
541.62	77.24
541.79	28.09
541.96	74.90
542.13	58.51
542.30	56.17
542.47	65.54
542.63	44.47
542.80	44.47
542.97	131.07
543.14	25.75
543.31	88.94
543.48	0.00
543.64	77.24
543.81	16.38
543.98	11.70
544.15	84.26
544.32	37.45
544.48	117.03
544.65	86.60
544.82	70.22
544.99	56.17
545.16	84.26
545.32	32.77
545.49	107.66
545.66	11.70
545.83	112.35
546.00	0.00
546.16	46.81
546.33	21.06
546.50	51.49
546.67	51.49
546.83	81.92
547.00	60.85
547.17	70.22
547.34	86.60
547.50	60.85
547.67	28.09
547.84	56.17
548.00	0.00
548.17	93.62
548.34	117.03
548.51	95.96
548.67	88.94
548.84	58.51
549.01	117.03
549.18	63.19
549.34	114.69
549.51	107.66
549.68	128.73
549.84	145.11
550.01	91.28
550.18	102.98
550.34	145.11
550.51	100.64
550.68	25.75
550.84	32.77
551.01	79.58
551.18	93.62
551.34	18.72
551.51	63.19
551.68	32.77
551.84	63.19
552.01	14.04
552.18	84.26
552.34	65.54
552.51	16.38
552.68	42.13
552.84	63.19
553.01	145.11
553.18	114.69
553.34	72.56
553.51	98.30
553.67	88.94
553.84	77.24
554.01	117.03
554.17	102.98
554.34	95.96
554.51	149.79
554.67	37.45
554.84	65.54
555.00	63.19
555.17	23.41
555.33	32.77
555.50	46.81
555.67	37.45
555.83	65.54
556.00	142.77
556.16	72.56
556.33	70.22
556.50	95.96
556.66	63.19
556.83	88.94
556.99	44.47
557.16	102.98
557.32	37.45
557.49	102.98
557.65	81.92
557.82	119.37
557.98	35.11
558.15	100.64
558.32	79.58
558.48	51.49
558.65	121.71
558.81	112.35
558.98	77.24
559.14	14.04
559.31	98.30
559.47	35.11
559.64	16.38
559.80	44.47
559.97	77.24
560.13	70.22
560.30	42.13
560.46	23.41
560.63	42.13
560.79	58.51
560.96	79.58
561.12	39.79
561.29	0.00
561.45	37.45
561.61	9.36
561.78	72.56
561.94	117.03
562.11	51.49
562.27	21.06
562.44	65.54
562.60	65.54
562.77	58.51
562.93	131.07
563.10	100.64
563.26	93.62
563.42	35.11
563.59	79.58
563.75	135.75
563.92	18.72
564.08	91.28
564.24	65.54
564.41	39.79
564.57	37.45
564.74	70.22
564.90	93.62
565.07	0.00
565.23	65.54
565.39	110.01
565.56	86.60
565.72	28.09
565.88	25.75
566.05	70.22
566.21	81.92
566.38	72.56
566.54	72.56
566.70	46.81
566.87	49.15
567.03	30.43
567.19	72.56
567.36	11.70
567.52	58.51
567.68	60.85
567.85	32.77
568.01	67.88
568.17	49.15
568.34	53.83
568.50	11.70
568.66	81.92
568.83	138.09
568.99	88.94
569.15	42.13
569.32	98.30
569.48	110.01
569.64	30.43
569.81	86.60
569.97	86.60
570.13	14.04
570.30	107.66
570.46	32.77
570.62	70.22
570.78	28.09
570.95	67.88
571.11	86.60
571.27	25.75
571.43	32.77
571.60	65.54
571.76	88.94
571.92	156.82
572.09	91.28
572.25	44.47
572.41	44.47
572.57	119.37
572.74	67.88
572.90	32.77
573.06	28.09
573.22	74.90
573.38	93.62
573.55	37.45
573.71	4.68
573.87	16.38
574.03	119.37
574.20	95.96
574.36	32.77
574.52	98.30
574.68	28.09
574.84	23.41
575.01	58.51
575.17	4.68
575.33	25.75
575.49	44.47
575.65	79.58
575.82	72.56
575.98	100.64
576.14	51.49
576.30	0.00
576.46	84.26
576.62	23.41
576.79	0.00
576.95	86.60
577.11	72.56
577.27	30.43
577.43	35.11
577.59	11.70
577.75	131.07
577.92	112.35
578.08	0.00
578.24	39.79
578.40	67.88
578.56	14.04
578.72	0.00
578.88	81.92
579.04	39.79
579.21	98.30
579.37	32.77
579.53	4.68
579.69	67.88
579.85	21.06
580.01	7.02
580.17	53.83
580.33	44.47
580.49	51.49
580.65	42.13
580.82	77.24
580.98	79.58
581.14	35.11
581.30	9.36
581.46	21.06
581.62	14.04
581.78	88.94
581.94	18.72
582.10	112.35
582.26	102.98
582.42	37.45
582.58	72.56
582.74	49.15
582.90	28.09
583.06	0.00
583.22	0.00
583.38	30.43
583.54	53.83
583.70	149.79
583.86	70.22
584.02	23.41
584.18	58.51
584.34	74.90
584.50	9.36
584.66	84.26
584.82	81.92
584.98	110.01
585.14	49.15
585.30	77.24
585.46	2.34
585.62	23.41
585.78	102.98
585.94	84.26
586.10	100.64
586.26	28.09
586.42	72.56
586.58	46.81
586.74	0.00
586.90	58.51
587.06	28.09
587.22	65.54
587.38	56.17
587.54	86.60
587.70	4.68
587.86	32.77
588.02	100.64
588.18	4.68
588.34	65.54
588.49	37.45
588.65	107.66
588.81	44.47
588.97	0.00
589.13	30.43
589.29	58.51
589.45	63.19
589.61	112.35
589.77	37.45
589.93	88.94
590.08	51.49
590.24	77.24
590.40	105.32
590.56	0.00
590.72	84.26
590.88	11.70
591.04	35.11
591.20	79.58
591.35	56.17
591.51	98.30
591.67	58.51
591.83	39.79
591.99	79.58
592.15	18.72
592.31	37.45
592.46	42.13
592.62	58.51
592.78	21.06
592.94	25.75
593.10	84.26
593.26	49.15
593.41	67.88
593.57	102.98
593.73	67.88
593.89	46.81
594.05	154.48
594.20	77.24
594.36	58.51
594.52	23.41
594.68	23.41
594.84	49.15
594.99	88.94
595.15	65.54
595.31	53.83
595.47	42.13
595.62	74.90
595.78	124.05
595.94	42.13
596.10	44.47
596.25	79.58
596.41	67.88
596.57	67.88
596.73	77.24
596.88	46.81
597.04	37.45
597.20	81.92
597.36	79.58
597.51	37.45
597.67	81.92
597.83	0.00
597.99	53.83
598.14	39.79
598.30	63.19
598.46	44.47
598.61	84.26
598.77	67.88
598.93	0.00
599.09	117.03
599.24	2.34
599.40	112.35
599.56	7.02
599.71	0.00
599.87	95.96
600.03	84.26
600.18	49.15
600.34	0.00
600.50	44.47
600.65	114.69
600.81	65.54
600.97	60.85
601.12	65.54
601.28	56.17
601.44	42.13
601.59	67.88
601.75	95.96
601.91	44.47
602.06	18.72
602.22	114.69
602.37	98.30
602.53	65.54
602.69	4.68
602.84	7.02
603.00	86.60
603.16	72.56
603.31	77.24
603.47	49.15
603.62	63.19
603.78	53.83
603.94	102.98
604.09	18.72
604.25	35.11
604.40	11.70
604.56	60.85
604.71	49.15
604.87	11.70
605.03	32.77
605.18	72.56
605.34	4.68
605.49	84.26
605.65	138.09
605.80	65.54
605.96	58.51
606.12	51.49
606.27	77.24
606.43	28.09
606.58	95.96
606.74	117.03
606.89	37.45
607.05	30.43
607.20	98.30
607.36	53.83
607.51	53.83
607.67	0.00
607.82	39.79
607.98	102.98
608.13	49.15
608.29	39.79
608.44	79.58
608.60	23.41
608.75	16.38
608.91	70.22
609.06	93.62
609.22	121.71
609.37	4.68
609.53	18.72
609.68	70.22
609.84	49.15
609.99	67.88
610.15	105.32
610.30	152.13
610.46	91.28
610.61	77.24
610.76	14.04
610.92	81.92
611.07	9.36
611.23	53.83
611.38	46.81
611.54	81.92
611.69	102.98
611.84	39.79
612.00	35.11
612.15	117.03
612.31	63.19
612.46	86.60
612.62	67.88
612.77	58.51
612.92	128.73
613.08	0.00
613.23	74.90
613.39	28.09
613.54	23.41
613.69	98.30
613.85	140.43
614.00	7.02
614.15	37.45
614.31	21.06
614.46	4.68
614.62	49.15
614.77	93.62
614.92	81.92
615.08	0.00
615.23	63.19
615.38	88.94
615.54	72.56
615.69	93.62
615.84	77.24
616.00	58.51
616.15	0.00
616.30	65.54
616.46	32.77
616.61	102.98
616.76	72.56
616.92	46.81
617.07	81.92
617.22	98.30
617.37	49.15
617.53	39.79
617.68	138.09
617.83	9.36
617.99	58.51
618.14	37.45
618.29	56.17
618.45	88.94
618.60	170.86
618.75	114.69
618.90	74.90
619.06	102.98
619.21	28.09
619.36	95.96
619.51	16.38
619.67	70.22
619.82	9.36
619.97	112.35
620.12	110.01
620.28	32.77
620.43	74.90
620.58	23.41
620.73	49.15
620.89	124.05
621.04	49.15
621.19	4.68
621.34	44.47
621.49	37.45
621.65	16.38
621.80	42.13
621.95	14.04
622.10	11.70
622.25	74.90
622.41	4.68
622.56	135.75
622.71	60.85
622.86	11.70
623.01	77.24
623.16	49.15
623.32	0.00
623.47	39.79
623.62	114.69
623.77	102.98
623.92	0.00
624.07	86.60
624.23	39.79
624.38	14.04
624.53	63.19
624.68	0.00
624.83	67.88
624.98	32.77
625.13	25.75
625.29	53.83
625.44	46.81
625.59	84.26
625.74	51.49
625.89	124.05
626.04	23.41
626.19	79.58
626.34	70.22
626.49	46.81
626.65	25.75
626.80	81.92
626.95	65.54
627.10	81.92
627.25	51.49
627.40	51.49
627.55	9.36
627.70	81.92
627.85	81.92
628.00	79.58
628.15	63.19
628.30	32.77
628.45	65.54
628.60	74.90
628.76	14.04
628.91	65.54
629.06	74.90
629.21	58.51
629.36	105.32
629.51	49.15
629.66	32.77
629.81	86.60
629.96	23.41
630.11	14.04
630.26	0.00
630.41	30.43
630.56	102.98
630.71	117.03
630.86	11.70
631.01	37.45
631.16	9.36
631.31	11.70
631.46	11.70
631.61	42.13
631.76	42.13
631.91	25.75
632.06	30.43
632.21	4.68
632.36	16.38
632.51	0.00
632.66	53.83
632.81	65.54
632.96	81.92
633.10	63.19
633.25	30.43
633.40	58.51
633.55	56.17
633.70	53.83
633.85	63.19
634.00	39.79
634.15	105.32
634.30	39.79
634.45	42.13
634.60	0.00
634.75	51.49
634.90	67.88
635.05	74.90
635.19	53.83
635.34	102.98
635.49	49.15
635.64	60.85
635.79	0.00
635.94	0.00
636.09	77.24
636.24	4.68
636.39	32.77
636.53	42.13
636.68	63.19
636.83	11.70
636.98	32.77
637.13	49.15
637.28	39.79
637.43	72.56
637.57	18.72
637.72	0.00
637.87	110.01
638.02	44.47
638.17	56.17
638.32	28.09
638.46	135.75
638.61	95.96
638.76	39.79
638.91	35.11
639.06	67.88
639.20	53.83
639.35	39.79
639.50	65.54
639.65	88.94
639.80	0.00
639.94	42.13
640.09	0.00
640.24	0.00
640.39	107.66
640.54	2.34
640.68	44.47
640.83	21.06
640.98	44.47
641.13	37.45
641.27	4.68
641.42	67.88
641.57	86.60
641.72	46.81
641.86	56.17
642.01	16.38
642.16	42.13
642.31	56.17
642.45	0.00
642.60	100.64
642.75	30.43
642.90	35.11
643.04	42.13
643.19	79.58
643.34	56.17
643.48	112.35
643.63	35.11
643.78	107.66
643.93	98.30
644.07	42.13
644.22	21.06
644.37	39.79
644.51	124.05
644.66	49.15
644.81	49.15
644.95	23.41
645.10	51.49
645.25	18.72
645.39	88.94
645.54	14.04
645.69	105.32
645.83	0.00
645.98	35.11
646.13	79.58
646.27	49.15
646.42	51.49
646.57	102.98
646.71	67.88
646.86	60.85
647.00	0.00
647.15	70.22
647.30	16.38
647.44	9.36
647.59	53.83
647.74	58.51
647.88	0.00
648.03	28.09
648.17	102.98
648.32	0.00
648.47	51.49
648.61	37.45
648.76	42.13
648.90	46.81
649.05	0.00
649.20	42.13
649.34	70.22
649.49	0.00
649.63	121.71
649.78	81.92
649.92	53.83
650.07	37.45
650.21	11.70
650.36	0.00
650.51	58.51
650.65	124.05
650.80	67.88
650.94	30.43
651.09	0.00
651.23	81.92
651.38	121.71
651.52	18.72
651.67	79.58
651.81	21.06
651.96	46.81
652.10	14.04
652.25	42.13
652.39	11.70
652.54	135.75
652.68	0.00
652.83	35.11
652.97	0.00
653.12	65.54
653.26	46.81
653.41	112.35
653.55	84.26
653.70	32.77
653.84	37.45
653.99	46.81
654.13	105.32
654.27	46.81
654.42	18.72
654.56	0.00
654.71	44.47
654.85	30.43
655.00	4.68
655.14	7.02
655.29	53.83
655.43	65.54
655.57	51.49
655.72	9.36
655.86	35.11
656.01	0.00
656.15	65.54
656.30	30.43
656.44	51.49
656.58	100.64
656.73	42.13
656.87	56.17
657.01	0.00
657.16	28.09
657.30	72.56
657.45	105.32
657.59	79.58
657.73	53.83
657.88	51.49
658.02	67.88
658.16	0.00
658.31	67.88
658.45	0.00
658.60	32.77
658.74	23.41
658.88	0.00
659.03	53.83
659.17	0.00
659.31	53.83
659.46	42.13
659.60	60.85
659.74	42.13
659.89	16.38
660.03	32.77
660.17	70.22
660.32	67.88
660.46	74.90
660.60	156.82
660.74	74.90
660.89	0.00
661.03	0.00
661.17	102.98
661.32	0.00
661.46	100.64
661.60	0.00
661.74	23.41
661.89	44.47
662.03	30.43
662.17	39.79
662.31	0.00
662.46	100.64
662.60	58.51
662.74	100.64
662.88	23.41
663.03	74.90
663.17	32.77
663.31	72.56
663.45	91.28
663.60	86.60
663.74	37.45
663.88	77.24
664.02	18.72
664.17	42.13
664.31	0.00
664.45	21.06
664.59	86.60
664.73	7.02
664.88	30.43
665.02	63.19
665.16	77.24
665.30	65.54
665.44	51.49
665.59	25.75
665.73	46.81
665.87	91.28
666.01	142.77
666.15	65.54
666.29	23.41
666.44	11.70
666.58	100.64
666.72	72.56
666.86	56.17
667.00	0.00
667.14	46.81
667.28	77.24
667.43	42.13
667.57	35.11
667.71	107.66
667.85	60.85
667.99	88.94
668.13	98.30
668.27	37.45
668.41	56.17
668.56	51.49
668.70	67.88
668.84	72.56
668.98	11.70
669.12	37.45
669.26	93.62
669.40	86.60
669.54	58.51
669.68	70.22
669.82	39.79
669.96	23.41
670.10	37.45
670.25	67.88
670.39	88.94
670.53	72.56
670.67	56.17
670.81	46.81
670.95	105.32
671.09	56.17
671.23	110.01
671.37	28.09
671.51	30.43
671.65	49.15
671.79	81.92
671.93	42.13
672.07	39.79
672.21	70.22
672.35	56.17
672.49	21.06
672.63	95.96
672.77	4.68
672.91	0.00
673.05	35.11
673.19	110.01
673.33	79.58
673.47	21.06
673.61	49.15
673.75	63.19
673.89	0.00
674.03	67.88
674.17	0.00
674.31	14.04
674.45	67.88
674.59	105.32
674.73	2.34
674.87	72.56
675.01	51.49
675.15	30.43
675.29	37.45
675.43	32.77
675.56	21.06
675.70	86.60
675.84	114.69
675.98	35.11
676.12	60.85
676.26	11.70
676.40	39.79
676.54	30.43
676.68	7.02
676.82	35.11
676.96	39.79
677.10	107.66
677.23	53.83
677.37	4.68
677.51	84.26
677.65	70.22
677.79	56.17
677.93	35.11
678.07	37.45
678.21	58.51
678.34	51.49
678.48	0.00
678.62	0.00
678.76	37.45
678.90	0.00
679.04	0.00
679.18	0.00
679.31	70.22
679.45	7.02
679.59	30.43
679.73	98.30
679.87	28.09
680.00	28.09
680.14	117.03
680.28	56.17
680.42	32.77
680.56	23.41
680.70	79.58
680.83	51.49
680.97	35.11
681.11	67.88
681.25	51.49
681.39	18.72
681.52	0.00
681.66	32.77
681.80	32.77
681.94	35.11
682.07	0.00
682.21	0.00
682.35	32.77
682.49	84.26
682.62	18.72
682.76	60.85
682.90	0.00
683.04	14.04
683.17	65.54
683.31	42.13
683.45	28.09
683.59	63.19
683.72	18.72
683.86	63.19
684.00	37.45
684.13	60.85
684.27	53.83
684.41	35.11
684.55	14.04
684.68	2.34
684.82	18.72
684.96	16.38
685.09	81.92
685.23	0.00
685.37	25.75
685.50	42.13
685.64	23.41
685.78	42.13
685.91	128.73
686.05	88.94
686.19	4.68
686.32	46.81
686.46	42.13
686.60	21.06
686.73	0.00
686.87	21.06
687.01	4.68
687.14	7.02
687.28	28.09
687.42	44.47
687.55	60.85
687.69	42.13
687.82	58.51
687.96	30.43
688.10	9.36
688.23	30.43
688.37	91.28
688.50	32.77
688.64	51.49
688.78	21.06
688.91	0.00
689.05	56.17
689.18	110.01
689.32	51.49
689.46	16.38
689.59	9.36
689.73	32.77
689.86	44.47
690.00	23.41
690.13	46.81
690.27	84.26
690.41	86.60
690.54	28.09
690.68	23.41
690.81	30.43
690.95	9.36
691.08	44.47
691.22	65.54
691.35	0.00
691.49	11.70
691.62	98.30
691.76	0.00
691.89	39.79
692.03	0.00
692.16	60.85
692.30	58.51
692.43	93.62
692.57	39.79
692.70	25.75
692.84	0.00
692.97	114.69
693.11	49.15
693.24	14.04
693.38	88.94
693.51	28.09
693.65	49.15
693.78	16.38
693.92	35.11
694.05	23.41
694.19	49.15
694.32	77.24
694.45	7.02
694.59	11.70
694.72	46.81
694.86	77.24
694.99	16.38
695.13	0.00
695.26	49.15
695.39	46.81
695.53	14.04
695.66	44.47
695.80	25.75
695.93	77.24
696.07	56.17
696.20	102.98
696.33	16.38
696.47	53.83
696.60	51.49
696.73	0.00
696.87	58.51
697.00	140.43
697.14	18.72
697.27	49.15
697.40	44.47
697.54	0.00
697.67	30.43
697.80	81.92
697.94	77.24
698.07	0.00
698.21	25.75
698.34	0.00
698.47	63.19
698.61	2.34
698.74	30.43
698.87	0.00
699.01	95.96
699.14	32.77
699.27	49.15
699.40	81.92
699.54	86.60
699.67	63.19
699.80	63.19
699.94	2.34
700.07	7.02
700.20	4.68
700.34	21.06
700.47	18.72
700.60	2.34
700.73	56.17
700.87	63.19
701.00	46.81
701.13	60.85
701.26	53.83
701.40	37.45
701.53	63.19
701.66	0.00
701.79	0.00
701.93	28.09
702.06	60.85
702.19	25.75
702.32	0.00
702.46	9.36
702.59	21.06
702.72	84.26
702.85	93.62
702.99	51.49
703.12	49.15
703.25	32.77
703.38	32.77
703.51	30.43
703.65	9.36
703.78	2.34
703.91	0.00
704.04	72.56
704.17	37.45
704.31	28.09
704.44	46.81
704.57	7.02
704.70	35.11
704.83	28.09
704.96	14.04
705.10	0.00
705.23	65.54
>>>>>End Processed Spectral Data<<<<<
