SpectraSuite Data File
++++++++++++++++++++++++++++++++++++
Date: Fri Oct 04 12:13:29 GMT-05:00 2013
User: price-jones
Dark Spectrum Present: No
Reference Spectrum Present: No
Number of Sampled Component Spectra: 1
Spectrometers: USB2+H05261
Integration Time (usec): 10000 (USB2+H05261)
Spectra Averaged: 1 (USB2+H05261)
Boxcar Smoothing: 0 (USB2+H05261)
Correct for Electrical Dark: No (USB2+H05261)
Strobe/Lamp Enabled: No (USB2+H05261)
Correct for Detector Non-linearity: No (USB2+H05261)
Correct for Stray Light: No (USB2+H05261)
Number of Pixels in Processed Spectrum: 2048
>>>>>Begin Processed Spectral Data<<<<<
365.73	63.19
365.92	63.19
366.12	63.19
366.32	0.00
366.52	0.00
366.72	0.00
366.91	0.00
367.11	0.00
367.31	0.00
367.51	0.00
367.70	0.00
367.90	0.00
368.10	0.00
368.30	0.00
368.49	0.00
368.69	0.00
368.89	0.00
369.09	0.00
369.28	0.00
369.48	0.00
369.68	0.00
369.87	0.00
370.07	0.00
370.27	0.00
370.47	0.00
370.66	0.00
370.86	4.68
371.06	0.00
371.25	0.00
371.45	0.00
371.65	0.00
371.84	0.00
372.04	0.00
372.24	0.00
372.44	11.70
372.63	0.00
372.83	0.00
373.03	16.38
373.22	0.00
373.42	18.72
373.62	23.41
373.81	95.96
374.01	2.34
374.21	46.81
374.40	121.71
374.60	79.58
374.79	0.00
374.99	65.54
375.19	0.00
375.38	16.38
375.58	21.06
375.78	51.49
375.97	4.68
376.17	79.58
376.37	23.41
376.56	88.94
376.76	28.09
376.95	0.00
377.15	49.15
377.35	35.11
377.54	14.04
377.74	51.49
377.93	32.77
378.13	86.60
378.33	30.43
378.52	32.77
378.72	0.00
378.91	28.09
379.11	23.41
379.31	0.00
379.50	46.81
379.70	0.00
379.89	53.83
380.09	60.85
380.28	49.15
380.48	72.56
380.68	30.43
380.87	56.17
381.07	30.43
381.26	16.38
381.46	42.13
381.65	11.70
381.85	4.68
382.04	74.90
382.24	0.00
382.43	0.00
382.63	0.00
382.83	18.72
383.02	49.15
383.22	16.38
383.41	39.79
383.61	0.00
383.80	25.75
384.00	21.06
384.19	46.81
384.39	28.09
384.58	0.00
384.78	0.00
384.97	0.00
385.17	9.36
385.36	0.00
385.56	14.04
385.75	11.70
385.95	63.19
386.14	25.75
386.34	0.00
386.53	0.00
386.72	32.77
386.92	44.47
387.11	39.79
387.31	60.85
387.50	32.77
387.70	46.81
387.89	7.02
388.09	0.00
388.28	65.54
388.48	0.00
388.67	58.51
388.86	0.00
389.06	0.00
389.25	14.04
389.45	9.36
389.64	0.00
389.84	53.83
390.03	21.06
390.22	9.36
390.42	4.68
390.61	4.68
390.81	53.83
391.00	14.04
391.19	0.00
391.39	102.98
391.58	16.38
391.78	67.88
391.97	32.77
392.16	23.41
392.36	51.49
392.55	0.00
392.75	42.13
392.94	0.00
393.13	16.38
393.33	39.79
393.52	23.41
393.71	35.11
393.91	16.38
394.10	0.00
394.29	2.34
394.49	30.43
394.68	9.36
394.88	49.15
395.07	84.26
395.26	86.60
395.46	30.43
395.65	72.56
395.84	35.11
396.04	11.70
396.23	0.00
396.42	9.36
396.62	35.11
396.81	0.00
397.00	0.00
397.19	35.11
397.39	51.49
397.58	18.72
397.77	0.00
397.97	39.79
398.16	37.45
398.35	0.00
398.55	11.70
398.74	23.41
398.93	51.49
399.12	35.11
399.32	88.94
399.51	0.00
399.70	65.54
399.90	0.00
400.09	0.00
400.28	39.79
400.47	65.54
400.67	67.88
400.86	21.06
401.05	28.09
401.24	88.94
401.44	35.11
401.63	42.13
401.82	28.09
402.01	0.00
402.21	0.00
402.40	14.04
402.59	67.88
402.78	67.88
402.97	0.00
403.17	70.22
403.36	39.79
403.55	51.49
403.74	51.49
403.93	7.02
404.13	2.34
404.32	114.69
404.51	49.15
404.70	67.88
404.89	56.17
405.09	93.62
405.28	37.45
405.47	0.00
405.66	60.85
405.85	74.90
406.05	44.47
406.24	0.00
406.43	49.15
406.62	56.17
406.81	70.22
407.00	35.11
407.20	28.09
407.39	9.36
407.58	28.09
407.77	0.00
407.96	35.11
408.15	32.77
408.34	11.70
408.54	63.19
408.73	21.06
408.92	7.02
409.11	42.13
409.30	60.85
409.49	4.68
409.68	72.56
409.87	56.17
410.07	0.00
410.26	63.19
410.45	79.58
410.64	63.19
410.83	32.77
411.02	21.06
411.21	86.60
411.40	100.64
411.59	0.00
411.78	4.68
411.98	65.54
412.17	46.81
412.36	0.00
412.55	0.00
412.74	0.00
412.93	51.49
413.12	28.09
413.31	56.17
413.50	2.34
413.69	95.96
413.88	142.77
414.07	0.00
414.26	60.85
414.45	11.70
414.64	18.72
414.83	51.49
415.02	105.32
415.22	18.72
415.41	25.75
415.60	70.22
415.79	107.66
415.98	0.00
416.17	58.51
416.36	37.45
416.55	9.36
416.74	145.11
416.93	117.03
417.12	0.00
417.31	81.92
417.50	16.38
417.69	18.72
417.88	77.24
418.07	131.07
418.26	28.09
418.45	4.68
418.64	2.34
418.83	65.54
419.02	42.13
419.21	18.72
419.39	74.90
419.58	11.70
419.77	30.43
419.96	25.75
420.15	0.00
420.34	84.26
420.53	79.58
420.72	30.43
420.91	25.75
421.10	72.56
421.29	0.00
421.48	102.98
421.67	4.68
421.86	21.06
422.05	79.58
422.24	74.90
422.43	65.54
422.61	28.09
422.80	32.77
422.99	93.62
423.18	42.13
423.37	32.77
423.56	0.00
423.75	56.17
423.94	133.41
424.13	53.83
424.32	35.11
424.50	72.56
424.69	53.83
424.88	0.00
425.07	0.00
425.26	14.04
425.45	14.04
425.64	16.38
425.83	4.68
426.01	0.00
426.20	21.06
426.39	39.79
426.58	28.09
426.77	23.41
426.96	30.43
427.15	44.47
427.33	9.36
427.52	16.38
427.71	0.00
427.90	81.92
428.09	58.51
428.28	9.36
428.46	58.51
428.65	25.75
428.84	0.00
429.03	2.34
429.22	84.26
429.40	72.56
429.59	0.00
429.78	25.75
429.97	16.38
430.16	0.00
430.34	51.49
430.53	51.49
430.72	25.75
430.91	60.85
431.10	67.88
431.28	81.92
431.47	51.49
431.66	95.96
431.85	16.38
432.03	35.11
432.22	44.47
432.41	0.00
432.60	39.79
432.79	0.00
432.97	79.58
433.16	93.62
433.35	28.09
433.54	77.24
433.72	0.00
433.91	67.88
434.10	23.41
434.28	142.77
434.47	39.79
434.66	42.13
434.85	23.41
435.03	93.62
435.22	0.00
435.41	63.19
435.59	86.60
435.78	56.17
435.97	4.68
436.16	30.43
436.34	56.17
436.53	25.75
436.72	65.54
436.90	44.47
437.09	28.09
437.28	63.19
437.46	79.58
437.65	0.00
437.84	30.43
438.02	28.09
438.21	0.00
438.40	67.88
438.58	0.00
438.77	42.13
438.96	42.13
439.14	14.04
439.33	14.04
439.52	53.83
439.70	51.49
439.89	44.47
440.08	51.49
440.26	79.58
440.45	81.92
440.63	16.38
440.82	70.22
441.01	65.54
441.19	21.06
441.38	28.09
441.57	25.75
441.75	60.85
441.94	0.00
442.12	0.00
442.31	0.00
442.50	9.36
442.68	9.36
442.87	65.54
443.05	21.06
443.24	0.00
443.43	35.11
443.61	0.00
443.80	72.56
443.98	67.88
444.17	9.36
444.35	46.81
444.54	0.00
444.73	23.41
444.91	32.77
445.10	0.00
445.28	9.36
445.47	65.54
445.65	30.43
445.84	28.09
446.02	32.77
446.21	51.49
446.39	0.00
446.58	119.37
446.77	70.22
446.95	23.41
447.14	32.77
447.32	60.85
447.51	21.06
447.69	18.72
447.88	25.75
448.06	28.09
448.25	35.11
448.43	32.77
448.62	70.22
448.80	0.00
448.99	39.79
449.17	21.06
449.36	0.00
449.54	51.49
449.73	0.00
449.91	16.38
450.10	105.32
450.28	53.83
450.46	32.77
450.65	44.47
450.83	93.62
451.02	70.22
451.20	49.15
451.39	46.81
451.57	72.56
451.76	53.83
451.94	2.34
452.13	0.00
452.31	21.06
452.49	39.79
452.68	16.38
452.86	23.41
453.05	63.19
453.23	21.06
453.42	16.38
453.60	67.88
453.78	11.70
453.97	0.00
454.15	11.70
454.34	49.15
454.52	39.79
454.70	2.34
454.89	23.41
455.07	28.09
455.26	63.19
455.44	21.06
455.62	0.00
455.81	0.00
455.99	44.47
456.17	18.72
456.36	84.26
456.54	79.58
456.73	79.58
456.91	16.38
457.09	28.09
457.28	102.98
457.46	0.00
457.64	93.62
457.83	65.54
458.01	18.72
458.19	77.24
458.38	21.06
458.56	21.06
458.74	14.04
458.93	35.11
459.11	74.90
459.29	79.58
459.48	32.77
459.66	79.58
459.84	16.38
460.03	56.17
460.21	81.92
460.39	114.69
460.57	25.75
460.76	56.17
460.94	53.83
461.12	72.56
461.31	42.13
461.49	28.09
461.67	0.00
461.85	0.00
462.04	0.00
462.22	0.00
462.40	18.72
462.59	30.43
462.77	72.56
462.95	28.09
463.13	67.88
463.32	46.81
463.50	23.41
463.68	126.39
463.86	28.09
464.05	0.00
464.23	102.98
464.41	63.19
464.59	28.09
464.78	37.45
464.96	0.00
465.14	7.02
465.32	98.30
465.50	0.00
465.69	0.00
465.87	0.00
466.05	32.77
466.23	56.17
466.41	70.22
466.60	46.81
466.78	11.70
466.96	16.38
467.14	25.75
467.32	98.30
467.51	56.17
467.69	28.09
467.87	25.75
468.05	9.36
468.23	9.36
468.41	67.88
468.60	107.66
468.78	4.68
468.96	25.75
469.14	25.75
469.32	25.75
469.50	95.96
469.69	65.54
469.87	0.00
470.05	11.70
470.23	72.56
470.41	81.92
470.59	9.36
470.77	0.00
470.95	30.43
471.14	86.60
471.32	44.47
471.50	93.62
471.68	60.85
471.86	9.36
472.04	0.00
472.22	58.51
472.40	11.70
472.58	81.92
472.77	0.00
472.95	11.70
473.13	49.15
473.31	51.49
473.49	9.36
473.67	79.58
473.85	70.22
474.03	0.00
474.21	49.15
474.39	0.00
474.57	14.04
474.75	35.11
474.93	16.38
475.12	67.88
475.30	25.75
475.48	44.47
475.66	0.00
475.84	70.22
476.02	65.54
476.20	2.34
476.38	51.49
476.56	51.49
476.74	53.83
476.92	70.22
477.10	77.24
477.28	9.36
477.46	121.71
477.64	4.68
477.82	42.13
478.00	11.70
478.18	23.41
478.36	60.85
478.54	63.19
478.72	53.83
478.90	0.00
479.08	14.04
479.26	0.00
479.44	7.02
479.62	112.35
479.80	18.72
479.98	9.36
480.16	25.75
480.34	81.92
480.52	0.00
480.70	49.15
480.88	67.88
481.06	65.54
481.24	0.00
481.41	0.00
481.59	0.00
481.77	35.11
481.95	11.70
482.13	63.19
482.31	14.04
482.49	60.85
482.67	35.11
482.85	35.11
483.03	46.81
483.21	56.17
483.39	65.54
483.57	60.85
483.74	65.54
483.92	81.92
484.10	37.45
484.28	0.00
484.46	35.11
484.64	30.43
484.82	112.35
485.00	72.56
485.18	67.88
485.35	7.02
485.53	39.79
485.71	0.00
485.89	42.13
486.07	46.81
486.25	0.00
486.43	35.11
486.61	16.38
486.78	53.83
486.96	25.75
487.14	63.19
487.32	67.88
487.50	91.28
487.68	14.04
487.85	0.00
488.03	56.17
488.21	91.28
488.39	0.00
488.57	0.00
488.75	46.81
488.92	0.00
489.10	65.54
489.28	18.72
489.46	72.56
489.64	0.00
489.81	21.06
489.99	84.26
490.17	58.51
490.35	88.94
490.53	72.56
490.70	119.37
490.88	0.00
491.06	4.68
491.24	30.43
491.41	63.19
491.59	51.49
491.77	51.49
491.95	107.66
492.13	0.00
492.30	102.98
492.48	21.06
492.66	65.54
492.84	44.47
493.01	65.54
493.19	63.19
493.37	32.77
493.54	70.22
493.72	21.06
493.90	51.49
494.08	18.72
494.25	72.56
494.43	58.51
494.61	18.72
494.79	51.49
494.96	98.30
495.14	112.35
495.32	32.77
495.49	72.56
495.67	56.17
495.85	32.77
496.02	23.41
496.20	21.06
496.38	37.45
496.55	7.02
496.73	0.00
496.91	84.26
497.09	65.54
497.26	74.90
497.44	107.66
497.62	63.19
497.79	98.30
497.97	149.79
498.14	14.04
498.32	74.90
498.50	63.19
498.67	14.04
498.85	79.58
499.03	60.85
499.20	65.54
499.38	9.36
499.56	32.77
499.73	84.26
499.91	35.11
500.08	53.83
500.26	58.51
500.44	9.36
500.61	91.28
500.79	23.41
500.97	105.32
501.14	112.35
501.32	32.77
501.49	58.51
501.67	21.06
501.84	107.66
502.02	0.00
502.20	23.41
502.37	44.47
502.55	74.90
502.72	0.00
502.90	0.00
503.07	70.22
503.25	102.98
503.43	112.35
503.60	152.13
503.78	72.56
503.95	121.71
504.13	74.90
504.30	14.04
504.48	2.34
504.65	67.88
504.83	53.83
505.01	65.54
505.18	9.36
505.36	98.30
505.53	56.17
505.71	65.54
505.88	58.51
506.06	37.45
506.23	44.47
506.41	7.02
506.58	42.13
506.76	4.68
506.93	126.39
507.11	28.09
507.28	7.02
507.46	35.11
507.63	37.45
507.81	30.43
507.98	25.75
508.16	0.00
508.33	70.22
508.50	77.24
508.68	25.75
508.85	46.81
509.03	18.72
509.20	0.00
509.38	28.09
509.55	0.00
509.73	67.88
509.90	72.56
510.08	58.51
510.25	107.66
510.42	67.88
510.60	16.38
510.77	28.09
510.95	63.19
511.12	93.62
511.30	16.38
511.47	58.51
511.64	46.81
511.82	37.45
511.99	23.41
512.17	32.77
512.34	0.00
512.51	28.09
512.69	70.22
512.86	42.13
513.04	14.04
513.21	32.77
513.38	30.43
513.56	18.72
513.73	25.75
513.90	46.81
514.08	16.38
514.25	0.00
514.43	70.22
514.60	28.09
514.77	63.19
514.95	58.51
515.12	91.28
515.29	65.54
515.47	51.49
515.64	4.68
515.81	65.54
515.99	35.11
516.16	79.58
516.33	21.06
516.51	11.70
516.68	7.02
516.85	0.00
517.03	37.45
517.20	42.13
517.37	39.79
517.54	30.43
517.72	70.22
517.89	35.11
518.06	81.92
518.24	93.62
518.41	30.43
518.58	7.02
518.75	86.60
518.93	63.19
519.10	72.56
519.27	23.41
519.45	93.62
519.62	81.92
519.79	44.47
519.96	126.39
520.14	124.05
520.31	140.43
520.48	51.49
520.65	86.60
520.83	32.77
521.00	46.81
521.17	7.02
521.34	37.45
521.52	51.49
521.69	0.00
521.86	91.28
522.03	32.77
522.20	44.47
522.38	0.00
522.55	16.38
522.72	42.13
522.89	65.54
523.07	72.56
523.24	9.36
523.41	32.77
523.58	72.56
523.75	60.85
523.92	25.75
524.10	30.43
524.27	67.88
524.44	51.49
524.61	16.38
524.78	49.15
524.96	11.70
525.13	0.00
525.30	63.19
525.47	0.00
525.64	65.54
525.81	30.43
525.98	53.83
526.16	30.43
526.33	32.77
526.50	9.36
526.67	65.54
526.84	28.09
527.01	16.38
527.18	18.72
527.36	16.38
527.53	28.09
527.70	0.00
527.87	0.00
528.04	9.36
528.21	138.09
528.38	25.75
528.55	51.49
528.72	65.54
528.89	63.19
529.07	91.28
529.24	4.68
529.41	58.51
529.58	70.22
529.75	65.54
529.92	0.00
530.09	35.11
530.26	0.00
530.43	49.15
530.60	37.45
530.77	74.90
530.94	0.00
531.11	56.17
531.28	46.81
531.46	95.96
531.63	63.19
531.80	46.81
531.97	63.19
532.14	0.00
532.31	100.64
532.48	0.00
532.65	58.51
532.82	72.56
532.99	7.02
533.16	74.90
533.33	2.34
533.50	0.00
533.67	7.02
533.84	37.45
534.01	37.45
534.18	39.79
534.35	14.04
534.52	112.35
534.69	30.43
534.86	72.56
535.03	21.06
535.20	37.45
535.37	88.94
535.54	11.70
535.71	46.81
535.88	49.15
536.05	42.13
536.22	23.41
536.38	0.00
536.55	70.22
536.72	0.00
536.89	42.13
537.06	7.02
537.23	21.06
537.40	88.94
537.57	0.00
537.74	0.00
537.91	0.00
538.08	39.79
538.25	51.49
538.42	88.94
538.59	7.02
538.75	35.11
538.92	112.35
539.09	93.62
539.26	98.30
539.43	56.17
539.60	191.92
539.77	49.15
539.94	161.50
540.11	88.94
540.28	53.83
540.44	58.51
540.61	58.51
540.78	14.04
540.95	65.54
541.12	147.45
541.29	0.00
541.46	7.02
541.62	2.34
541.79	0.00
541.96	74.90
542.13	11.70
542.30	79.58
542.47	51.49
542.63	4.68
542.80	0.00
542.97	28.09
543.14	21.06
543.31	110.01
543.48	56.17
543.64	39.79
543.81	18.72
543.98	81.92
544.15	135.75
544.32	2.34
544.48	39.79
544.65	49.15
544.82	81.92
544.99	105.32
545.16	72.56
545.32	81.92
545.49	74.90
545.66	25.75
545.83	65.54
546.00	4.68
546.16	60.85
546.33	105.32
546.50	16.38
546.67	42.13
546.83	53.83
547.00	98.30
547.17	9.36
547.34	77.24
547.50	30.43
547.67	16.38
547.84	88.94
548.00	105.32
548.17	53.83
548.34	35.11
548.51	14.04
548.67	86.60
548.84	72.56
549.01	51.49
549.18	44.47
549.34	14.04
549.51	58.51
549.68	39.79
549.84	0.00
550.01	16.38
550.18	53.83
550.34	51.49
550.51	28.09
550.68	72.56
550.84	0.00
551.01	4.68
551.18	74.90
551.34	112.35
551.51	56.17
551.68	14.04
551.84	2.34
552.01	126.39
552.18	30.43
552.34	56.17
552.51	58.51
552.68	67.88
552.84	32.77
553.01	37.45
553.18	37.45
553.34	39.79
553.51	7.02
553.67	0.00
553.84	25.75
554.01	53.83
554.17	0.00
554.34	37.45
554.51	117.03
554.67	32.77
554.84	0.00
555.00	35.11
555.17	42.13
555.33	84.26
555.50	79.58
555.67	126.39
555.83	0.00
556.00	67.88
556.16	112.35
556.33	28.09
556.50	39.79
556.66	14.04
556.83	14.04
556.99	35.11
557.16	28.09
557.32	21.06
557.49	74.90
557.65	7.02
557.82	21.06
557.98	56.17
558.15	44.47
558.32	107.66
558.48	93.62
558.65	25.75
558.81	60.85
558.98	18.72
559.14	42.13
559.31	28.09
559.47	112.35
559.64	14.04
559.80	37.45
559.97	0.00
560.13	39.79
560.30	25.75
560.46	0.00
560.63	7.02
560.79	39.79
560.96	72.56
561.12	0.00
561.29	0.00
561.45	39.79
561.61	7.02
561.78	56.17
561.94	84.26
562.11	77.24
562.27	79.58
562.44	60.85
562.60	30.43
562.77	0.00
562.93	86.60
563.10	67.88
563.26	124.05
563.42	46.81
563.59	74.90
563.75	67.88
563.92	37.45
564.08	67.88
564.24	60.85
564.41	79.58
564.57	60.85
564.74	65.54
564.90	74.90
565.07	25.75
565.23	28.09
565.39	67.88
565.56	102.98
565.72	28.09
565.88	42.13
566.05	72.56
566.21	51.49
566.38	70.22
566.54	18.72
566.70	58.51
566.87	32.77
567.03	49.15
567.19	14.04
567.36	46.81
567.52	23.41
567.68	86.60
567.85	70.22
568.01	67.88
568.17	46.81
568.34	42.13
568.50	77.24
568.66	25.75
568.83	100.64
568.99	30.43
569.15	16.38
569.32	51.49
569.48	0.00
569.64	37.45
569.81	58.51
569.97	84.26
570.13	81.92
570.30	44.47
570.46	88.94
570.62	149.79
570.78	44.47
570.95	0.00
571.11	30.43
571.27	60.85
571.43	28.09
571.60	16.38
571.76	21.06
571.92	23.41
572.09	60.85
572.25	18.72
572.41	79.58
572.57	93.62
572.74	93.62
572.90	119.37
573.06	145.11
573.22	74.90
573.38	67.88
573.55	46.81
573.71	79.58
573.87	51.49
574.03	42.13
574.20	14.04
574.36	14.04
574.52	56.17
574.68	11.70
574.84	7.02
575.01	0.00
575.17	35.11
575.33	105.32
575.49	30.43
575.65	9.36
575.82	105.32
575.98	117.03
576.14	70.22
576.30	58.51
576.46	0.00
576.62	58.51
576.79	30.43
576.95	93.62
577.11	37.45
577.27	56.17
577.43	23.41
577.59	107.66
577.75	49.15
577.92	84.26
578.08	25.75
578.24	79.58
578.40	39.79
578.56	84.26
578.72	39.79
578.88	56.17
579.04	0.00
579.21	63.19
579.37	28.09
579.53	60.85
579.69	60.85
579.85	37.45
580.01	4.68
580.17	84.26
580.33	79.58
580.49	51.49
580.65	42.13
580.82	60.85
580.98	51.49
581.14	88.94
581.30	114.69
581.46	56.17
581.62	70.22
581.78	46.81
581.94	51.49
582.10	49.15
582.26	67.88
582.42	86.60
582.58	81.92
582.74	14.04
582.90	30.43
583.06	88.94
583.22	124.05
583.38	128.73
583.54	110.01
583.70	102.98
583.86	98.30
584.02	107.66
584.18	128.73
584.34	133.41
584.50	299.59
584.66	2263.30
584.82	5078.96
584.98	7152.68
585.14	6221.14
585.30	3955.51
585.46	2377.98
585.62	1430.07
585.78	737.27
585.94	313.63
586.10	124.05
586.26	81.92
586.42	110.01
586.58	107.66
586.74	53.83
586.90	124.05
587.06	84.26
587.22	102.98
587.38	49.15
587.54	140.43
587.70	407.25
587.86	524.28
588.02	524.28
588.18	332.36
588.34	250.44
588.49	105.32
588.65	25.75
588.81	93.62
588.97	60.85
589.13	63.19
589.29	0.00
589.45	42.13
589.61	25.75
589.77	2.34
589.93	0.00
590.08	56.17
590.24	88.94
590.40	0.00
590.56	16.38
590.72	138.09
590.88	46.81
591.04	44.47
591.20	91.28
591.35	121.71
591.51	42.13
591.67	18.72
591.83	39.79
591.99	9.36
592.15	60.85
592.31	0.00
592.46	32.77
592.62	7.02
592.78	37.45
592.94	28.09
593.10	23.41
593.26	81.92
593.41	0.00
593.57	70.22
593.73	100.64
593.89	301.93
594.05	676.41
594.20	952.60
594.36	844.93
594.52	578.11
594.68	334.70
594.84	283.20
594.99	166.18
595.15	93.62
595.31	63.19
595.47	11.70
595.62	74.90
595.78	0.00
595.94	51.49
596.10	51.49
596.25	2.34
596.41	58.51
596.57	70.22
596.73	121.71
596.88	65.54
597.04	72.56
597.20	205.97
597.36	301.93
597.51	236.39
597.67	126.39
597.83	107.66
597.99	65.54
598.14	70.22
598.30	0.00
598.46	49.15
598.61	98.30
598.77	37.45
598.93	9.36
599.09	21.06
599.24	105.32
599.40	91.28
599.56	11.70
599.71	23.41
599.87	23.41
600.03	42.13
600.18	88.94
600.34	30.43
600.50	2.34
600.65	0.00
600.81	51.49
600.97	14.04
601.12	32.77
601.28	35.11
601.44	88.94
601.59	0.00
601.75	30.43
601.91	21.06
602.06	77.24
602.22	0.00
602.37	46.81
602.53	210.65
602.69	280.86
602.84	278.52
603.00	208.31
603.16	173.20
603.31	126.39
603.47	67.88
603.62	72.56
603.78	56.17
603.94	51.49
604.09	58.51
604.25	88.94
604.40	2.34
604.56	72.56
604.71	93.62
604.87	67.88
605.03	42.13
605.18	16.38
605.34	16.38
605.49	32.77
605.65	98.30
605.80	18.72
605.96	70.22
606.12	44.47
606.27	56.17
606.43	46.81
606.58	0.00
606.74	102.98
606.89	334.70
607.05	650.67
607.20	781.74
607.36	697.48
607.51	470.45
607.67	252.78
607.82	243.42
607.98	124.05
608.13	133.41
608.29	117.03
608.44	51.49
608.60	21.06
608.75	9.36
608.91	138.09
609.06	559.39
609.22	1095.37
609.37	1523.69
609.53	1097.71
609.68	788.76
609.84	528.96
609.99	369.80
610.15	194.26
610.30	105.32
610.46	124.05
610.61	102.98
610.76	63.19
610.92	0.00
611.07	74.90
611.23	16.38
611.38	70.22
611.54	23.41
611.69	56.17
611.84	88.94
612.00	58.51
612.15	95.96
612.31	74.90
612.46	74.90
612.62	53.83
612.77	110.01
612.92	67.88
613.08	28.09
613.23	105.32
613.39	63.19
613.54	67.88
613.69	550.03
613.85	1425.39
614.00	2031.58
614.15	2024.56
614.31	1488.58
614.46	971.32
614.62	716.20
614.77	395.55
614.92	259.80
615.08	177.88
615.23	88.94
615.38	70.22
615.54	60.85
615.69	149.79
615.84	285.55
616.00	470.45
616.15	521.94
616.30	468.11
616.46	353.42
616.61	250.44
616.76	102.98
616.92	49.15
617.07	114.69
617.22	98.30
617.37	25.75
617.53	23.41
617.68	84.26
617.83	16.38
617.99	58.51
618.14	25.75
618.29	51.49
618.45	49.15
618.60	39.79
618.75	84.26
618.90	9.36
619.06	11.70
619.21	84.26
619.36	74.90
619.51	58.51
619.67	11.70
619.82	114.69
619.97	4.68
620.12	70.22
620.28	93.62
620.43	30.43
620.58	4.68
620.73	44.47
620.89	25.75
621.04	91.28
621.19	187.24
621.34	299.59
621.49	315.97
621.65	360.44
621.80	271.50
621.95	114.69
622.10	110.01
622.25	93.62
622.41	86.60
622.56	53.83
622.71	98.30
622.86	18.72
623.01	51.49
623.16	65.54
623.32	49.15
623.47	0.00
623.62	49.15
623.77	124.05
623.92	0.00
624.07	84.26
624.23	0.00
624.38	60.85
624.53	63.19
624.68	53.83
624.83	14.04
624.98	86.60
625.13	35.11
625.29	23.41
625.44	35.11
625.59	86.60
625.74	21.06
625.89	93.62
626.04	227.03
626.19	627.26
626.34	1048.56
626.49	1086.01
626.65	805.14
626.80	543.00
626.95	322.99
627.10	278.52
627.25	161.50
627.40	70.22
627.55	21.06
627.70	72.56
627.85	0.00
628.00	46.81
628.15	0.00
628.30	0.00
628.45	25.75
628.60	21.06
628.76	65.54
628.91	128.73
629.06	70.22
629.21	46.81
629.36	72.56
629.51	56.17
629.66	56.17
629.81	0.00
629.96	138.09
630.11	205.97
630.26	346.40
630.41	227.03
630.56	299.59
630.71	142.77
630.86	46.81
631.01	51.49
631.16	72.56
631.31	131.07
631.46	0.00
631.61	53.83
631.76	39.79
631.91	42.13
632.06	65.54
632.21	39.79
632.36	86.60
632.51	126.39
632.66	11.70
632.81	168.52
632.96	458.74
633.10	697.48
633.25	753.65
633.40	599.18
633.55	430.66
633.70	292.57
633.85	220.01
634.00	74.90
634.15	37.45
634.30	18.72
634.45	56.17
634.60	107.66
634.75	4.68
634.90	74.90
635.05	49.15
635.19	0.00
635.34	14.04
635.49	49.15
635.64	18.72
635.79	35.11
635.94	114.69
636.09	44.47
636.24	0.00
636.39	30.43
636.53	30.43
636.68	56.17
636.83	56.17
636.98	11.70
637.13	25.75
637.28	126.39
637.43	44.47
637.57	77.24
637.72	388.53
637.87	877.70
638.02	1331.76
638.17	1483.90
638.32	1095.37
638.46	727.91
638.61	404.91
638.76	269.16
638.91	124.05
639.06	159.16
639.20	102.98
639.35	79.58
639.50	110.01
639.65	470.45
639.80	1352.83
639.94	2005.84
640.09	2221.17
640.24	1626.67
640.39	1081.33
640.54	758.33
640.68	458.74
640.83	273.84
640.98	140.43
641.13	114.69
641.27	0.00
641.42	11.70
641.57	58.51
641.72	126.39
641.86	117.03
642.01	37.45
642.16	72.56
642.31	44.47
642.45	32.77
642.60	56.17
642.75	65.54
642.90	0.00
643.04	74.90
643.19	70.22
643.34	16.38
643.48	74.90
643.63	30.43
643.78	0.00
643.93	0.00
644.07	63.19
644.22	84.26
644.37	49.15
644.51	4.68
644.66	28.09
644.81	72.56
644.95	4.68
645.10	21.06
645.25	60.85
645.39	67.88
645.54	11.70
645.69	74.90
645.83	49.15
645.98	53.83
646.13	21.06
646.27	0.00
646.42	30.43
646.57	58.51
646.71	32.77
646.86	35.11
647.00	53.83
647.15	84.26
647.30	79.58
647.44	112.35
647.59	53.83
647.74	91.28
647.88	46.81
648.03	42.13
648.17	23.41
648.32	49.15
648.47	0.00
648.61	35.11
648.76	93.62
648.90	0.00
649.05	30.43
649.20	74.90
649.34	35.11
649.49	0.00
649.63	60.85
649.78	37.45
649.92	37.45
650.07	257.46
650.21	615.56
650.36	1001.75
650.51	1123.46
650.65	952.60
650.80	662.37
650.94	479.81
651.09	301.93
651.23	159.16
651.38	63.19
651.52	42.13
651.67	63.19
651.81	72.56
651.96	42.13
652.10	0.00
652.25	114.69
652.39	37.45
652.54	0.00
652.68	81.92
652.83	278.52
652.97	344.06
653.12	362.78
653.26	320.65
653.41	294.91
653.55	138.09
653.70	168.52
653.84	42.13
653.99	91.28
654.13	79.58
654.27	77.24
654.42	4.68
654.56	0.00
654.71	25.75
654.85	0.00
655.00	58.51
655.14	14.04
655.29	95.96
655.43	98.30
655.57	0.00
655.72	30.43
655.86	0.00
656.01	140.43
656.15	42.13
656.30	93.62
656.44	65.54
656.58	39.79
656.73	23.41
656.87	44.47
657.01	84.26
657.16	58.51
657.30	81.92
657.45	0.00
657.59	28.09
657.73	14.04
657.88	9.36
658.02	16.38
658.16	65.54
658.31	0.00
658.45	91.28
658.60	25.75
658.74	30.43
658.88	105.32
659.03	21.06
659.17	44.47
659.31	93.62
659.46	208.31
659.60	447.04
659.74	608.54
659.89	550.03
660.03	444.70
660.17	187.24
660.32	210.65
660.46	46.81
660.60	77.24
660.74	98.30
660.89	16.38
661.03	63.19
661.17	0.00
661.32	11.70
661.46	7.02
661.60	0.00
661.74	16.38
661.89	37.45
662.03	16.38
662.17	21.06
662.31	18.72
662.46	16.38
662.60	4.68
662.74	23.41
662.88	114.69
663.03	16.38
663.17	18.72
663.31	102.98
663.45	35.11
663.60	11.70
663.74	42.13
663.88	23.41
664.02	60.85
664.17	0.00
664.31	46.81
664.45	2.34
664.59	44.47
664.73	91.28
664.88	11.70
665.02	70.22
665.16	60.85
665.30	67.88
665.44	0.00
665.59	44.47
665.73	11.70
665.87	25.75
666.01	135.75
666.15	131.07
666.29	32.77
666.44	53.83
666.58	44.47
666.72	49.15
666.86	88.94
667.00	0.00
667.14	32.77
667.28	163.84
667.43	524.28
667.57	849.61
667.71	973.66
667.85	922.17
667.99	631.94
668.13	404.91
668.27	168.52
668.41	201.29
668.56	32.77
668.70	74.90
668.84	46.81
668.98	114.69
669.12	25.75
669.26	18.72
669.40	0.00
669.54	110.01
669.68	93.62
669.82	16.38
669.96	30.43
670.10	37.45
670.25	70.22
670.39	0.00
670.53	0.00
670.67	2.34
670.81	0.00
670.95	23.41
671.09	32.77
671.23	248.10
671.37	425.98
671.51	596.84
671.65	613.22
671.79	599.18
671.93	360.44
672.07	189.58
672.21	142.77
672.35	23.41
672.49	147.45
672.63	44.47
672.77	23.41
672.91	79.58
673.05	0.00
673.19	0.00
673.33	11.70
673.47	35.11
673.61	18.72
673.75	14.04
673.89	105.32
674.03	25.75
674.17	18.72
674.31	23.41
674.45	23.41
674.59	46.81
674.73	39.79
674.87	16.38
675.01	49.15
675.15	39.79
675.29	74.90
675.43	53.83
675.56	117.03
675.70	72.56
675.84	44.47
675.98	42.13
676.12	0.00
676.26	32.77
676.40	28.09
676.54	51.49
676.68	49.15
676.82	42.13
676.96	14.04
677.10	35.11
677.23	70.22
677.37	37.45
677.51	42.13
677.65	0.00
677.79	0.00
677.93	39.79
678.07	0.00
678.21	25.75
678.34	28.09
678.48	84.26
678.62	56.17
678.76	32.77
678.90	0.00
679.04	0.00
679.18	81.92
679.31	0.00
679.45	11.70
679.59	25.75
679.73	0.00
679.87	42.13
680.00	0.00
680.14	18.72
680.28	53.83
680.42	53.83
680.56	0.00
680.70	51.49
680.83	4.68
680.97	39.79
681.11	16.38
681.25	58.51
681.39	32.77
681.52	81.92
681.66	25.75
681.80	77.24
681.94	0.00
682.07	30.43
682.21	16.38
682.35	63.19
682.49	53.83
682.62	30.43
682.76	14.04
682.90	4.68
683.04	77.24
683.17	23.41
683.31	79.58
683.45	35.11
683.59	0.00
683.72	32.77
683.86	44.47
684.00	39.79
684.13	11.70
684.27	65.54
684.41	63.19
684.55	49.15
684.68	58.51
684.82	14.04
684.96	124.05
685.09	35.11
685.23	56.17
685.37	72.56
685.50	28.09
685.64	23.41
685.78	21.06
685.91	44.47
686.05	0.00
686.19	23.41
686.32	58.51
686.46	4.68
686.60	0.00
686.73	35.11
686.87	0.00
687.01	37.45
687.14	0.00
687.28	58.51
687.42	25.75
687.55	44.47
687.69	32.77
687.82	25.75
687.96	30.43
688.10	11.70
688.23	63.19
688.37	42.13
688.50	77.24
688.64	46.81
688.78	65.54
688.91	56.17
689.05	2.34
689.18	14.04
689.32	0.00
689.46	14.04
689.59	4.68
689.73	0.00
689.86	46.81
690.00	70.22
690.13	0.00
690.27	9.36
690.41	63.19
690.54	35.11
690.68	0.00
690.81	25.75
690.95	32.77
691.08	21.06
691.22	74.90
691.35	46.81
691.49	0.00
691.62	4.68
691.76	37.45
691.89	53.83
692.03	42.13
692.16	88.94
692.30	51.49
692.43	70.22
692.57	264.48
692.70	362.78
692.84	496.19
692.97	402.57
693.11	304.27
693.24	248.10
693.38	145.11
693.51	65.54
693.65	191.92
693.78	100.64
693.92	67.88
694.05	42.13
694.19	0.00
694.32	51.49
694.45	30.43
694.59	44.47
694.72	44.47
694.86	79.58
694.99	0.00
695.13	16.38
695.26	0.00
695.39	37.45
695.53	9.36
695.66	35.11
695.80	4.68
695.93	58.51
696.07	18.72
696.20	32.77
696.33	102.98
696.47	56.17
696.60	0.00
696.73	28.09
696.87	56.17
697.00	18.72
697.14	53.83
697.27	18.72
697.40	35.11
697.54	16.38
697.67	58.51
697.80	39.79
697.94	11.70
698.07	21.06
698.21	91.28
698.34	58.51
698.47	93.62
698.61	0.00
698.74	0.00
698.87	0.00
699.01	0.00
699.14	49.15
699.27	0.00
699.40	58.51
699.54	35.11
699.67	4.68
699.80	70.22
699.94	51.49
700.07	0.00
700.20	74.90
700.34	0.00
700.47	0.00
700.60	39.79
700.73	0.00
700.87	72.56
701.00	60.85
701.13	65.54
701.26	0.00
701.40	142.77
701.53	46.81
701.66	30.43
701.79	30.43
701.93	0.00
702.06	91.28
702.19	37.45
702.32	93.62
702.46	2.34
702.59	77.24
702.72	105.32
702.85	315.97
702.99	645.99
703.12	849.61
703.25	847.27
703.38	638.97
703.51	664.71
703.65	470.45
703.78	330.02
703.91	301.93
704.04	217.67
704.17	105.32
704.31	16.38
704.44	0.00
704.57	128.73
704.70	74.90
704.83	100.64
704.96	37.45
705.10	14.04
705.23	11.70
>>>>>End Processed Spectral Data<<<<<
