SpectraSuite Data File
++++++++++++++++++++++++++++++++++++
Date: Fri Oct 04 12:13:27 GMT-05:00 2013
User: price-jones
Dark Spectrum Present: No
Reference Spectrum Present: No
Number of Sampled Component Spectra: 1
Spectrometers: USB2+H05261
Integration Time (usec): 10000 (USB2+H05261)
Spectra Averaged: 1 (USB2+H05261)
Boxcar Smoothing: 0 (USB2+H05261)
Correct for Electrical Dark: No (USB2+H05261)
Strobe/Lamp Enabled: No (USB2+H05261)
Correct for Detector Non-linearity: No (USB2+H05261)
Correct for Stray Light: No (USB2+H05261)
Number of Pixels in Processed Spectrum: 2048
>>>>>Begin Processed Spectral Data<<<<<
365.73	49.15
365.92	49.15
366.12	49.15
366.32	0.00
366.52	0.00
366.72	0.00
366.91	0.00
367.11	0.00
367.31	0.00
367.51	0.00
367.70	0.00
367.90	0.00
368.10	0.00
368.30	0.00
368.49	0.00
368.69	0.00
368.89	0.00
369.09	0.00
369.28	0.00
369.48	0.00
369.68	0.00
369.87	0.00
370.07	0.00
370.27	0.00
370.47	0.00
370.66	0.00
370.86	0.00
371.06	0.00
371.25	0.00
371.45	72.56
371.65	0.00
371.84	14.04
372.04	0.00
372.24	0.00
372.44	35.11
372.63	16.38
372.83	2.34
373.03	0.00
373.22	65.54
373.42	2.34
373.62	21.06
373.81	25.75
374.01	9.36
374.21	0.00
374.40	0.00
374.60	21.06
374.79	0.00
374.99	53.83
375.19	18.72
375.38	18.72
375.58	79.58
375.78	0.00
375.97	0.00
376.17	42.13
376.37	35.11
376.56	58.51
376.76	4.68
376.95	0.00
377.15	30.43
377.35	42.13
377.54	11.70
377.74	0.00
377.93	4.68
378.13	37.45
378.33	9.36
378.52	42.13
378.72	0.00
378.91	51.49
379.11	0.00
379.31	0.00
379.50	42.13
379.70	7.02
379.89	23.41
380.09	35.11
380.28	0.00
380.48	0.00
380.68	0.00
380.87	46.81
381.07	25.75
381.26	37.45
381.46	46.81
381.65	0.00
381.85	2.34
382.04	9.36
382.24	0.00
382.43	0.00
382.63	0.00
382.83	37.45
383.02	2.34
383.22	0.00
383.41	0.00
383.61	0.00
383.80	44.47
384.00	0.00
384.19	0.00
384.39	51.49
384.58	0.00
384.78	51.49
384.97	2.34
385.17	0.00
385.36	23.41
385.56	0.00
385.75	0.00
385.95	0.00
386.14	0.00
386.34	0.00
386.53	0.00
386.72	70.22
386.92	0.00
387.11	74.90
387.31	2.34
387.50	39.79
387.70	0.00
387.89	9.36
388.09	0.00
388.28	67.88
388.48	25.75
388.67	0.00
388.86	0.00
389.06	2.34
389.25	60.85
389.45	7.02
389.64	74.90
389.84	18.72
390.03	0.00
390.22	23.41
390.42	0.00
390.61	70.22
390.81	32.77
391.00	0.00
391.19	28.09
391.39	42.13
391.58	0.00
391.78	0.00
391.97	23.41
392.16	37.45
392.36	74.90
392.55	72.56
392.75	0.00
392.94	49.15
393.13	0.00
393.33	51.49
393.52	100.64
393.71	0.00
393.91	0.00
394.10	58.51
394.29	65.54
394.49	23.41
394.68	58.51
394.88	21.06
395.07	93.62
395.26	0.00
395.46	23.41
395.65	28.09
395.84	53.83
396.04	0.00
396.23	37.45
396.42	93.62
396.62	0.00
396.81	49.15
397.00	72.56
397.19	60.85
397.39	0.00
397.58	44.47
397.77	42.13
397.97	0.00
398.16	23.41
398.35	100.64
398.55	0.00
398.74	0.00
398.93	25.75
399.12	0.00
399.32	0.00
399.51	37.45
399.70	0.00
399.90	14.04
400.09	21.06
400.28	9.36
400.47	65.54
400.67	70.22
400.86	44.47
401.05	18.72
401.24	21.06
401.44	11.70
401.63	30.43
401.82	51.49
402.01	44.47
402.21	18.72
402.40	14.04
402.59	0.00
402.78	16.38
402.97	11.70
403.17	105.32
403.36	65.54
403.55	46.81
403.74	0.00
403.93	7.02
404.13	53.83
404.32	14.04
404.51	18.72
404.70	16.38
404.89	9.36
405.09	81.92
405.28	58.51
405.47	23.41
405.66	98.30
405.85	25.75
406.05	81.92
406.24	107.66
406.43	35.11
406.62	14.04
406.81	16.38
407.00	7.02
407.20	60.85
407.39	105.32
407.58	21.06
407.77	0.00
407.96	39.79
408.15	60.85
408.34	74.90
408.54	51.49
408.73	63.19
408.92	7.02
409.11	9.36
409.30	37.45
409.49	2.34
409.68	51.49
409.87	11.70
410.07	53.83
410.26	0.00
410.45	0.00
410.64	0.00
410.83	35.11
411.02	35.11
411.21	16.38
411.40	14.04
411.59	70.22
411.78	49.15
411.98	16.38
412.17	0.00
412.36	9.36
412.55	60.85
412.74	58.51
412.93	25.75
413.12	0.00
413.31	16.38
413.50	63.19
413.69	44.47
413.88	37.45
414.07	86.60
414.26	67.88
414.45	25.75
414.64	25.75
414.83	28.09
415.02	0.00
415.22	30.43
415.41	65.54
415.60	35.11
415.79	0.00
415.98	37.45
416.17	18.72
416.36	21.06
416.55	0.00
416.74	32.77
416.93	9.36
417.12	0.00
417.31	0.00
417.50	77.24
417.69	58.51
417.88	0.00
418.07	0.00
418.26	0.00
418.45	25.75
418.64	88.94
418.83	0.00
419.02	21.06
419.21	77.24
419.39	4.68
419.58	0.00
419.77	124.05
419.96	18.72
420.15	21.06
420.34	16.38
420.53	63.19
420.72	23.41
420.91	0.00
421.10	7.02
421.29	53.83
421.48	18.72
421.67	0.00
421.86	28.09
422.05	0.00
422.24	4.68
422.43	23.41
422.61	72.56
422.80	2.34
422.99	46.81
423.18	37.45
423.37	14.04
423.56	4.68
423.75	0.00
423.94	95.96
424.13	114.69
424.32	70.22
424.50	84.26
424.69	0.00
424.88	0.00
425.07	2.34
425.26	74.90
425.45	23.41
425.64	25.75
425.83	21.06
426.01	30.43
426.20	0.00
426.39	0.00
426.58	0.00
426.77	49.15
426.96	11.70
427.15	2.34
427.33	25.75
427.52	30.43
427.71	16.38
427.90	21.06
428.09	0.00
428.28	0.00
428.46	21.06
428.65	46.81
428.84	32.77
429.03	65.54
429.22	11.70
429.40	0.00
429.59	39.79
429.78	0.00
429.97	35.11
430.16	30.43
430.34	0.00
430.53	72.56
430.72	35.11
430.91	4.68
431.10	42.13
431.28	2.34
431.47	7.02
431.66	63.19
431.85	14.04
432.03	32.77
432.22	23.41
432.41	0.00
432.60	51.49
432.79	58.51
432.97	112.35
433.16	0.00
433.35	30.43
433.54	7.02
433.72	14.04
433.91	0.00
434.10	4.68
434.28	51.49
434.47	0.00
434.66	0.00
434.85	7.02
435.03	0.00
435.22	28.09
435.41	51.49
435.59	21.06
435.78	72.56
435.97	35.11
436.16	79.58
436.34	53.83
436.53	0.00
436.72	53.83
436.90	77.24
437.09	9.36
437.28	30.43
437.46	0.00
437.65	93.62
437.84	18.72
438.02	60.85
438.21	0.00
438.40	86.60
438.58	46.81
438.77	18.72
438.96	84.26
439.14	70.22
439.33	35.11
439.52	86.60
439.70	56.17
439.89	0.00
440.08	4.68
440.26	32.77
440.45	25.75
440.63	0.00
440.82	39.79
441.01	21.06
441.19	102.98
441.38	11.70
441.57	16.38
441.75	42.13
441.94	23.41
442.12	14.04
442.31	46.81
442.50	60.85
442.68	4.68
442.87	0.00
443.05	98.30
443.24	119.37
443.43	56.17
443.61	0.00
443.80	0.00
443.98	0.00
444.17	0.00
444.35	58.51
444.54	0.00
444.73	0.00
444.91	0.00
445.10	0.00
445.28	65.54
445.47	42.13
445.65	0.00
445.84	53.83
446.02	0.00
446.21	49.15
446.39	30.43
446.58	28.09
446.77	0.00
446.95	16.38
447.14	28.09
447.32	105.32
447.51	37.45
447.69	28.09
447.88	79.58
448.06	30.43
448.25	35.11
448.43	46.81
448.62	84.26
448.80	56.17
448.99	0.00
449.17	0.00
449.36	0.00
449.54	39.79
449.73	0.00
449.91	58.51
450.10	35.11
450.28	39.79
450.46	79.58
450.65	60.85
450.83	35.11
451.02	11.70
451.20	11.70
451.39	16.38
451.57	53.83
451.76	0.00
451.94	0.00
452.13	37.45
452.31	23.41
452.49	25.75
452.68	32.77
452.86	0.00
453.05	51.49
453.23	58.51
453.42	0.00
453.60	74.90
453.78	58.51
453.97	0.00
454.15	23.41
454.34	16.38
454.52	147.45
454.70	25.75
454.89	18.72
455.07	18.72
455.26	39.79
455.44	51.49
455.62	49.15
455.81	14.04
455.99	79.58
456.17	58.51
456.36	21.06
456.54	14.04
456.73	4.68
456.91	4.68
457.09	133.41
457.28	0.00
457.46	81.92
457.64	72.56
457.83	77.24
458.01	28.09
458.19	0.00
458.38	58.51
458.56	46.81
458.74	46.81
458.93	21.06
459.11	119.37
459.29	14.04
459.48	91.28
459.66	46.81
459.84	32.77
460.03	39.79
460.21	86.60
460.39	0.00
460.57	81.92
460.76	72.56
460.94	98.30
461.12	7.02
461.31	65.54
461.49	18.72
461.67	65.54
461.85	28.09
462.04	7.02
462.22	58.51
462.40	0.00
462.59	42.13
462.77	51.49
462.95	0.00
463.13	4.68
463.32	0.00
463.50	7.02
463.68	49.15
463.86	46.81
464.05	51.49
464.23	14.04
464.41	21.06
464.59	23.41
464.78	7.02
464.96	74.90
465.14	70.22
465.32	35.11
465.50	0.00
465.69	65.54
465.87	49.15
466.05	25.75
466.23	56.17
466.41	74.90
466.60	0.00
466.78	28.09
466.96	67.88
467.14	79.58
467.32	30.43
467.51	7.02
467.69	42.13
467.87	14.04
468.05	102.98
468.23	14.04
468.41	86.60
468.60	44.47
468.78	14.04
468.96	67.88
469.14	91.28
469.32	0.00
469.50	51.49
469.69	39.79
469.87	49.15
470.05	0.00
470.23	63.19
470.41	0.00
470.59	39.79
470.77	86.60
470.95	39.79
471.14	35.11
471.32	79.58
471.50	46.81
471.68	18.72
471.86	42.13
472.04	67.88
472.22	42.13
472.40	0.00
472.58	32.77
472.77	0.00
472.95	53.83
473.13	65.54
473.31	0.00
473.49	44.47
473.67	0.00
473.85	30.43
474.03	42.13
474.21	11.70
474.39	60.85
474.57	7.02
474.75	44.47
474.93	63.19
475.12	86.60
475.30	0.00
475.48	88.94
475.66	21.06
475.84	0.00
476.02	30.43
476.20	81.92
476.38	51.49
476.56	21.06
476.74	28.09
476.92	112.35
477.10	72.56
477.28	11.70
477.46	18.72
477.64	81.92
477.82	21.06
478.00	0.00
478.18	0.00
478.36	74.90
478.54	0.00
478.72	44.47
478.90	0.00
479.08	58.51
479.26	0.00
479.44	93.62
479.62	42.13
479.80	72.56
479.98	28.09
480.16	28.09
480.34	32.77
480.52	0.00
480.70	16.38
480.88	0.00
481.06	65.54
481.24	18.72
481.41	63.19
481.59	121.71
481.77	0.00
481.95	0.00
482.13	0.00
482.31	0.00
482.49	4.68
482.67	18.72
482.85	37.45
483.03	0.00
483.21	0.00
483.39	58.51
483.57	0.00
483.74	49.15
483.92	23.41
484.10	77.24
484.28	49.15
484.46	9.36
484.64	25.75
484.82	32.77
485.00	72.56
485.18	25.75
485.35	46.81
485.53	18.72
485.71	4.68
485.89	0.00
486.07	95.96
486.25	0.00
486.43	63.19
486.61	0.00
486.78	86.60
486.96	0.00
487.14	0.00
487.32	0.00
487.50	91.28
487.68	105.32
487.85	44.47
488.03	0.00
488.21	16.38
488.39	25.75
488.57	32.77
488.75	0.00
488.92	16.38
489.10	88.94
489.28	25.75
489.46	35.11
489.64	44.47
489.81	25.75
489.99	0.00
490.17	84.26
490.35	105.32
490.53	77.24
490.70	7.02
490.88	98.30
491.06	67.88
491.24	16.38
491.41	18.72
491.59	81.92
491.77	88.94
491.95	49.15
492.13	23.41
492.30	16.38
492.48	25.75
492.66	88.94
492.84	11.70
493.01	58.51
493.19	23.41
493.37	18.72
493.54	72.56
493.72	32.77
493.90	51.49
494.08	100.64
494.25	72.56
494.43	79.58
494.61	37.45
494.79	42.13
494.96	35.11
495.14	49.15
495.32	39.79
495.49	95.96
495.67	56.17
495.85	25.75
496.02	51.49
496.20	44.47
496.38	9.36
496.55	23.41
496.73	0.00
496.91	42.13
497.09	0.00
497.26	58.51
497.44	39.79
497.62	110.01
497.79	46.81
497.97	0.00
498.14	18.72
498.32	0.00
498.50	11.70
498.67	9.36
498.85	60.85
499.03	72.56
499.20	79.58
499.38	4.68
499.56	51.49
499.73	0.00
499.91	39.79
500.08	39.79
500.26	51.49
500.44	18.72
500.61	72.56
500.79	0.00
500.97	46.81
501.14	58.51
501.32	0.00
501.49	74.90
501.67	72.56
501.84	72.56
502.02	18.72
502.20	0.00
502.37	58.51
502.55	16.38
502.72	0.00
502.90	56.17
503.07	9.36
503.25	21.06
503.43	112.35
503.60	72.56
503.78	72.56
503.95	37.45
504.13	60.85
504.30	23.41
504.48	14.04
504.65	30.43
504.83	60.85
505.01	46.81
505.18	0.00
505.36	28.09
505.53	11.70
505.71	25.75
505.88	16.38
506.06	86.60
506.23	70.22
506.41	44.47
506.58	9.36
506.76	16.38
506.93	51.49
507.11	46.81
507.28	112.35
507.46	70.22
507.63	21.06
507.81	65.54
507.98	37.45
508.16	0.00
508.33	91.28
508.50	51.49
508.68	0.00
508.85	98.30
509.03	56.17
509.20	0.00
509.38	35.11
509.55	51.49
509.73	107.66
509.90	63.19
510.08	49.15
510.25	72.56
510.42	105.32
510.60	65.54
510.77	28.09
510.95	25.75
511.12	65.54
511.30	65.54
511.47	7.02
511.64	58.51
511.82	51.49
511.99	88.94
512.17	0.00
512.34	16.38
512.51	32.77
512.69	58.51
512.86	79.58
513.04	84.26
513.21	67.88
513.38	88.94
513.56	42.13
513.73	58.51
513.90	0.00
514.08	117.03
514.25	0.00
514.43	39.79
514.60	4.68
514.77	98.30
514.95	60.85
515.12	110.01
515.29	110.01
515.47	95.96
515.64	74.90
515.81	35.11
515.99	32.77
516.16	49.15
516.33	11.70
516.51	35.11
516.68	60.85
516.85	0.00
517.03	7.02
517.20	11.70
517.37	58.51
517.54	46.81
517.72	70.22
517.89	32.77
518.06	105.32
518.24	30.43
518.41	58.51
518.58	14.04
518.75	79.58
518.93	88.94
519.10	49.15
519.27	32.77
519.45	7.02
519.62	0.00
519.79	95.96
519.96	0.00
520.14	81.92
520.31	25.75
520.48	70.22
520.65	28.09
520.83	72.56
521.00	60.85
521.17	35.11
521.34	65.54
521.52	14.04
521.69	72.56
521.86	63.19
522.03	0.00
522.20	37.45
522.38	102.98
522.55	0.00
522.72	44.47
522.89	21.06
523.07	32.77
523.24	32.77
523.41	2.34
523.58	51.49
523.75	30.43
523.92	42.13
524.10	79.58
524.27	11.70
524.44	42.13
524.61	84.26
524.78	124.05
524.96	11.70
525.13	53.83
525.30	28.09
525.47	0.00
525.64	0.00
525.81	35.11
525.98	30.43
526.16	32.77
526.33	25.75
526.50	93.62
526.67	28.09
526.84	84.26
527.01	42.13
527.18	4.68
527.36	93.62
527.53	0.00
527.70	0.00
527.87	25.75
528.04	42.13
528.21	2.34
528.38	0.00
528.55	0.00
528.72	4.68
528.89	9.36
529.07	58.51
529.24	98.30
529.41	25.75
529.58	25.75
529.75	63.19
529.92	39.79
530.09	32.77
530.26	70.22
530.43	32.77
530.60	70.22
530.77	14.04
530.94	28.09
531.11	46.81
531.28	51.49
531.46	30.43
531.63	18.72
531.80	0.00
531.97	16.38
532.14	53.83
532.31	112.35
532.48	60.85
532.65	0.00
532.82	9.36
532.99	11.70
533.16	7.02
533.33	58.51
533.50	39.79
533.67	49.15
533.84	46.81
534.01	30.43
534.18	28.09
534.35	107.66
534.52	63.19
534.69	0.00
534.86	56.17
535.03	63.19
535.20	28.09
535.37	70.22
535.54	63.19
535.71	65.54
535.88	0.00
536.05	21.06
536.22	0.00
536.38	44.47
536.55	53.83
536.72	102.98
536.89	51.49
537.06	0.00
537.23	95.96
537.40	56.17
537.57	0.00
537.74	23.41
537.91	18.72
538.08	25.75
538.25	35.11
538.42	0.00
538.59	0.00
538.75	44.47
538.92	23.41
539.09	44.47
539.26	51.49
539.43	72.56
539.60	133.41
539.77	156.82
539.94	135.75
540.11	77.24
540.28	84.26
540.44	4.68
540.61	0.00
540.78	0.00
540.95	93.62
541.12	16.38
541.29	25.75
541.46	39.79
541.62	98.30
541.79	37.45
541.96	53.83
542.13	32.77
542.30	18.72
542.47	63.19
542.63	93.62
542.80	81.92
542.97	53.83
543.14	37.45
543.31	51.49
543.48	65.54
543.64	28.09
543.81	51.49
543.98	42.13
544.15	9.36
544.32	51.49
544.48	107.66
544.65	30.43
544.82	51.49
544.99	0.00
545.16	32.77
545.32	32.77
545.49	37.45
545.66	32.77
545.83	67.88
546.00	70.22
546.16	58.51
546.33	35.11
546.50	0.00
546.67	56.17
546.83	110.01
547.00	42.13
547.17	32.77
547.34	11.70
547.50	35.11
547.67	9.36
547.84	88.94
548.00	4.68
548.17	0.00
548.34	39.79
548.51	30.43
548.67	88.94
548.84	53.83
549.01	46.81
549.18	0.00
549.34	0.00
549.51	23.41
549.68	14.04
549.84	93.62
550.01	18.72
550.18	44.47
550.34	4.68
550.51	0.00
550.68	88.94
550.84	46.81
551.01	35.11
551.18	74.90
551.34	46.81
551.51	11.70
551.68	2.34
551.84	88.94
552.01	81.92
552.18	25.75
552.34	44.47
552.51	67.88
552.68	39.79
552.84	11.70
553.01	0.00
553.18	72.56
553.34	35.11
553.51	4.68
553.67	72.56
553.84	0.00
554.01	23.41
554.17	14.04
554.34	37.45
554.51	18.72
554.67	37.45
554.84	140.43
555.00	74.90
555.17	44.47
555.33	67.88
555.50	60.85
555.67	42.13
555.83	58.51
556.00	35.11
556.16	100.64
556.33	67.88
556.50	53.83
556.66	56.17
556.83	77.24
556.99	25.75
557.16	49.15
557.32	0.00
557.49	72.56
557.65	77.24
557.82	4.68
557.98	39.79
558.15	0.00
558.32	70.22
558.48	30.43
558.65	72.56
558.81	49.15
558.98	56.17
559.14	58.51
559.31	91.28
559.47	142.77
559.64	49.15
559.80	0.00
559.97	30.43
560.13	88.94
560.30	84.26
560.46	7.02
560.63	32.77
560.79	28.09
560.96	18.72
561.12	14.04
561.29	56.17
561.45	32.77
561.61	105.32
561.78	98.30
561.94	53.83
562.11	9.36
562.27	0.00
562.44	0.00
562.60	0.00
562.77	30.43
562.93	49.15
563.10	49.15
563.26	11.70
563.42	14.04
563.59	21.06
563.75	11.70
563.92	0.00
564.08	16.38
564.24	60.85
564.41	42.13
564.57	37.45
564.74	56.17
564.90	39.79
565.07	0.00
565.23	0.00
565.39	0.00
565.56	42.13
565.72	56.17
565.88	53.83
566.05	0.00
566.21	28.09
566.38	0.00
566.54	49.15
566.70	35.11
566.87	46.81
567.03	88.94
567.19	98.30
567.36	30.43
567.52	42.13
567.68	56.17
567.85	53.83
568.01	21.06
568.17	49.15
568.34	14.04
568.50	49.15
568.66	63.19
568.83	0.00
568.99	51.49
569.15	133.41
569.32	51.49
569.48	11.70
569.64	14.04
569.81	65.54
569.97	32.77
570.13	72.56
570.30	25.75
570.46	23.41
570.62	0.00
570.78	51.49
570.95	42.13
571.11	0.00
571.27	37.45
571.43	110.01
571.60	53.83
571.76	32.77
571.92	32.77
572.09	32.77
572.25	65.54
572.41	28.09
572.57	25.75
572.74	11.70
572.90	18.72
573.06	51.49
573.22	9.36
573.38	14.04
573.55	91.28
573.71	0.00
573.87	58.51
574.03	28.09
574.20	0.00
574.36	65.54
574.52	86.60
574.68	60.85
574.84	32.77
575.01	0.00
575.17	67.88
575.33	23.41
575.49	44.47
575.65	0.00
575.82	23.41
575.98	21.06
576.14	37.45
576.30	95.96
576.46	53.83
576.62	93.62
576.79	74.90
576.95	79.58
577.11	53.83
577.27	65.54
577.43	74.90
577.59	2.34
577.75	91.28
577.92	56.17
578.08	42.13
578.24	51.49
578.40	30.43
578.56	0.00
578.72	42.13
578.88	81.92
579.04	7.02
579.21	35.11
579.37	65.54
579.53	16.38
579.69	65.54
579.85	30.43
580.01	23.41
580.17	44.47
580.33	44.47
580.49	49.15
580.65	28.09
580.82	93.62
580.98	53.83
581.14	81.92
581.30	74.90
581.46	49.15
581.62	0.00
581.78	121.71
581.94	42.13
582.10	14.04
582.26	88.94
582.42	72.56
582.58	72.56
582.74	18.72
582.90	93.62
583.06	53.83
583.22	11.70
583.38	65.54
583.54	44.47
583.70	107.66
583.86	102.98
584.02	126.39
584.18	95.96
584.34	100.64
584.50	238.73
584.66	2434.16
584.82	5205.35
584.98	7148.00
585.14	6190.72
585.30	4016.36
585.46	2427.14
585.62	1593.90
585.78	737.27
585.94	313.63
586.10	238.73
586.26	100.64
586.42	102.98
586.58	117.03
586.74	21.06
586.90	2.34
587.06	88.94
587.22	88.94
587.38	0.00
587.54	135.75
587.70	393.21
587.86	524.28
588.02	538.32
588.18	433.00
588.34	215.33
588.49	191.92
588.65	77.24
588.81	72.56
588.97	79.58
589.13	35.11
589.29	70.22
589.45	21.06
589.61	124.05
589.77	81.92
589.93	72.56
590.08	135.75
590.24	0.00
590.40	35.11
590.56	60.85
590.72	0.00
590.88	51.49
591.04	58.51
591.20	39.79
591.35	37.45
591.51	65.54
591.67	67.88
591.83	42.13
591.99	42.13
592.15	42.13
592.31	11.70
592.46	46.81
592.62	32.77
592.78	28.09
592.94	32.77
593.10	60.85
593.26	53.83
593.41	0.00
593.57	0.00
593.73	42.13
593.89	304.27
594.05	643.65
594.20	971.32
594.36	837.91
594.52	557.05
594.68	393.21
594.84	231.71
594.99	152.13
595.15	37.45
595.31	23.41
595.47	86.60
595.62	39.79
595.78	0.00
595.94	0.00
596.10	16.38
596.25	32.77
596.41	58.51
596.57	18.72
596.73	9.36
596.88	107.66
597.04	138.09
597.20	222.35
597.36	236.39
597.51	259.80
597.67	72.56
597.83	88.94
597.99	95.96
598.14	30.43
598.30	0.00
598.46	81.92
598.61	18.72
598.77	23.41
598.93	102.98
599.09	23.41
599.24	32.77
599.40	0.00
599.56	37.45
599.71	53.83
599.87	46.81
600.03	51.49
600.18	18.72
600.34	30.43
600.50	37.45
600.65	67.88
600.81	4.68
600.97	0.00
601.12	39.79
601.28	107.66
601.44	79.58
601.59	65.54
601.75	0.00
601.91	9.36
602.06	4.68
602.22	18.72
602.37	126.39
602.53	194.26
602.69	252.78
602.84	269.16
603.00	138.09
603.16	177.88
603.31	161.50
603.47	86.60
603.62	60.85
603.78	30.43
603.94	56.17
604.09	65.54
604.25	46.81
604.40	9.36
604.56	0.00
604.71	9.36
604.87	131.07
605.03	65.54
605.18	70.22
605.34	46.81
605.49	30.43
605.65	124.05
605.80	100.64
605.96	53.83
606.12	0.00
606.27	18.72
606.43	53.83
606.58	88.94
606.74	93.62
606.89	376.83
607.05	657.69
607.20	835.57
607.36	706.84
607.51	397.89
607.67	304.27
607.82	184.90
607.98	149.79
608.13	58.51
608.29	56.17
608.44	51.49
608.60	25.75
608.75	102.98
608.91	224.69
609.06	578.11
609.22	1013.45
609.37	1341.13
609.53	1123.46
609.68	774.72
609.84	568.75
609.99	334.70
610.15	227.03
610.30	110.01
610.46	77.24
610.61	39.79
610.76	46.81
610.92	37.45
611.07	79.58
611.23	72.56
611.38	91.28
611.54	2.34
611.69	35.11
611.84	9.36
612.00	58.51
612.15	46.81
612.31	79.58
612.46	88.94
612.62	35.11
612.77	84.26
612.92	131.07
613.08	46.81
613.23	67.88
613.39	95.96
613.54	9.36
613.69	552.37
613.85	1378.58
614.00	2040.95
614.15	2064.35
614.31	1528.37
614.46	1025.15
614.62	702.16
614.77	381.51
614.92	131.07
615.08	79.58
615.23	46.81
615.38	46.81
615.54	39.79
615.69	124.05
615.84	264.48
616.00	491.51
616.15	638.97
616.30	484.49
616.46	301.93
616.61	212.99
616.76	234.05
616.92	138.09
617.07	100.64
617.22	4.68
617.37	58.51
617.53	72.56
617.68	79.58
617.83	0.00
617.99	0.00
618.14	74.90
618.29	74.90
618.45	42.13
618.60	67.88
618.75	49.15
618.90	4.68
619.06	49.15
619.21	65.54
619.36	88.94
619.51	86.60
619.67	25.75
619.82	16.38
619.97	140.43
620.12	25.75
620.28	44.47
620.43	9.36
620.58	16.38
620.73	44.47
620.89	72.56
621.04	79.58
621.19	166.18
621.34	285.55
621.49	325.33
621.65	337.04
621.80	241.08
621.95	140.43
622.10	149.79
622.25	35.11
622.41	44.47
622.56	72.56
622.71	58.51
622.86	70.22
623.01	98.30
623.16	91.28
623.32	32.77
623.47	21.06
623.62	0.00
623.77	37.45
623.92	16.38
624.07	0.00
624.23	124.05
624.38	16.38
624.53	21.06
624.68	53.83
624.83	58.51
624.98	77.24
625.13	51.49
625.29	0.00
625.44	67.88
625.59	100.64
625.74	0.00
625.89	145.11
626.04	177.88
626.19	643.65
626.34	1043.88
626.49	1095.37
626.65	800.46
626.80	638.97
626.95	421.30
627.10	238.73
627.25	159.16
627.40	56.17
627.55	84.26
627.70	37.45
627.85	16.38
628.00	4.68
628.15	42.13
628.30	65.54
628.45	37.45
628.60	67.88
628.76	67.88
628.91	16.38
629.06	46.81
629.21	0.00
629.36	98.30
629.51	23.41
629.66	102.98
629.81	88.94
629.96	124.05
630.11	259.80
630.26	271.50
630.41	280.86
630.56	252.78
630.71	110.01
630.86	180.22
631.01	91.28
631.16	51.49
631.31	30.43
631.46	7.02
631.61	28.09
631.76	0.00
631.91	18.72
632.06	84.26
632.21	21.06
632.36	51.49
632.51	4.68
632.66	56.17
632.81	191.92
632.96	393.21
633.10	653.01
633.25	821.53
633.40	643.65
633.55	498.53
633.70	273.84
633.85	105.32
634.00	147.45
634.15	102.98
634.30	86.60
634.45	56.17
634.60	93.62
634.75	37.45
634.90	77.24
635.05	79.58
635.19	63.19
635.34	44.47
635.49	0.00
635.64	18.72
635.79	25.75
635.94	56.17
636.09	67.88
636.24	0.00
636.39	88.94
636.53	35.11
636.68	23.41
636.83	21.06
636.98	4.68
637.13	9.36
637.28	30.43
637.43	30.43
637.57	114.69
637.72	360.44
637.87	940.90
638.02	1273.25
638.17	1369.21
638.32	976.00
638.46	704.50
638.61	500.87
638.76	355.76
638.91	102.98
639.06	126.39
639.20	121.71
639.35	93.62
639.50	170.86
639.65	458.74
639.80	1366.87
639.94	2008.18
640.09	2195.42
640.24	1659.44
640.39	1146.86
640.54	786.42
640.68	517.26
640.83	308.95
640.98	187.24
641.13	105.32
641.27	30.43
641.42	72.56
641.57	53.83
641.72	91.28
641.86	49.15
642.01	84.26
642.16	63.19
642.31	119.37
642.45	0.00
642.60	67.88
642.75	42.13
642.90	105.32
643.04	0.00
643.19	37.45
643.34	39.79
643.48	0.00
643.63	2.34
643.78	67.88
643.93	51.49
644.07	28.09
644.22	30.43
644.37	51.49
644.51	32.77
644.66	25.75
644.81	74.90
644.95	77.24
645.10	4.68
645.25	72.56
645.39	21.06
645.54	49.15
645.69	28.09
645.83	51.49
645.98	44.47
646.13	21.06
646.27	0.00
646.42	4.68
646.57	51.49
646.71	77.24
646.86	0.00
647.00	18.72
647.15	4.68
647.30	56.17
647.44	77.24
647.59	30.43
647.74	28.09
647.88	42.13
648.03	56.17
648.17	28.09
648.32	46.81
648.47	14.04
648.61	0.00
648.76	58.51
648.90	79.58
649.05	11.70
649.20	74.90
649.34	18.72
649.49	56.17
649.63	70.22
649.78	49.15
649.92	74.90
650.07	182.56
650.21	620.24
650.36	971.32
650.51	1191.33
650.65	952.60
650.80	688.12
650.94	407.25
651.09	355.76
651.23	159.16
651.38	16.38
651.52	44.47
651.67	0.00
651.81	21.06
651.96	88.94
652.10	25.75
652.25	60.85
652.39	56.17
652.54	0.00
652.68	58.51
652.83	196.60
652.97	355.76
653.12	444.70
653.26	341.72
653.41	273.84
653.55	152.13
653.70	102.98
653.84	86.60
653.99	42.13
654.13	67.88
654.27	32.77
654.42	51.49
654.56	0.00
654.71	79.58
654.85	14.04
655.00	14.04
655.14	95.96
655.29	67.88
655.43	37.45
655.57	49.15
655.72	49.15
655.86	9.36
656.01	0.00
656.15	37.45
656.30	39.79
656.44	18.72
656.58	86.60
656.73	81.92
656.87	58.51
657.01	49.15
657.16	14.04
657.30	32.77
657.45	42.13
657.59	2.34
657.73	2.34
657.88	35.11
658.02	32.77
658.16	16.38
658.31	46.81
658.45	74.90
658.60	42.13
658.74	0.00
658.88	21.06
659.03	79.58
659.17	35.11
659.31	152.13
659.46	243.42
659.60	458.74
659.74	557.05
659.89	484.49
660.03	346.40
660.17	330.02
660.32	175.54
660.46	133.41
660.60	74.90
660.74	88.94
660.89	0.00
661.03	53.83
661.17	0.00
661.32	44.47
661.46	88.94
661.60	37.45
661.74	84.26
661.89	46.81
662.03	16.38
662.17	79.58
662.31	49.15
662.46	70.22
662.60	63.19
662.74	114.69
662.88	2.34
663.03	98.30
663.17	0.00
663.31	0.00
663.45	53.83
663.60	0.00
663.74	0.00
663.88	0.00
664.02	23.41
664.17	42.13
664.31	65.54
664.45	16.38
664.59	49.15
664.73	0.00
664.88	11.70
665.02	88.94
665.16	74.90
665.30	11.70
665.44	42.13
665.59	0.00
665.73	23.41
665.87	95.96
666.01	35.11
666.15	0.00
666.29	0.00
666.44	70.22
666.58	25.75
666.72	44.47
666.86	14.04
667.00	86.60
667.14	77.24
667.28	128.73
667.43	535.98
667.57	765.36
667.71	987.71
667.85	908.13
667.99	585.13
668.13	414.27
668.27	287.89
668.41	117.03
668.56	53.83
668.70	79.58
668.84	0.00
668.98	42.13
669.12	30.43
669.26	0.00
669.40	0.00
669.54	0.00
669.68	42.13
669.82	67.88
669.96	35.11
670.10	39.79
670.25	51.49
670.39	67.88
670.53	2.34
670.67	58.51
670.81	46.81
670.95	49.15
671.09	79.58
671.23	159.16
671.37	428.32
671.51	641.31
671.65	622.58
671.79	564.07
671.93	456.40
672.07	292.57
672.21	168.52
672.35	135.75
672.49	32.77
672.63	63.19
672.77	0.00
672.91	72.56
673.05	0.00
673.19	39.79
673.33	0.00
673.47	11.70
673.61	0.00
673.75	63.19
673.89	7.02
674.03	23.41
674.17	0.00
674.31	72.56
674.45	9.36
674.59	28.09
674.73	98.30
674.87	0.00
675.01	16.38
675.15	11.70
675.29	60.85
675.43	77.24
675.56	0.00
675.70	16.38
675.84	46.81
675.98	0.00
676.12	95.96
676.26	35.11
676.40	49.15
676.54	56.17
676.68	42.13
676.82	58.51
676.96	23.41
677.10	35.11
677.23	86.60
677.37	65.54
677.51	7.02
677.65	0.00
677.79	0.00
677.93	2.34
678.07	44.47
678.21	60.85
678.34	25.75
678.48	72.56
678.62	0.00
678.76	14.04
678.90	7.02
679.04	65.54
679.18	28.09
679.31	58.51
679.45	53.83
679.59	18.72
679.73	0.00
679.87	39.79
680.00	74.90
680.14	0.00
680.28	14.04
680.42	100.64
680.56	65.54
680.70	53.83
680.83	44.47
680.97	53.83
681.11	84.26
681.25	46.81
681.39	42.13
681.52	77.24
681.66	81.92
681.80	46.81
681.94	7.02
682.07	9.36
682.21	67.88
682.35	23.41
682.49	9.36
682.62	39.79
682.76	84.26
682.90	2.34
683.04	65.54
683.17	37.45
683.31	53.83
683.45	0.00
683.59	7.02
683.72	0.00
683.86	0.00
684.00	0.00
684.13	0.00
684.27	7.02
684.41	79.58
684.55	0.00
684.68	58.51
684.82	7.02
684.96	53.83
685.09	81.92
685.23	0.00
685.37	46.81
685.50	91.28
685.64	37.45
685.78	7.02
685.91	70.22
686.05	37.45
686.19	70.22
686.32	0.00
686.46	0.00
686.60	49.15
686.73	128.73
686.87	65.54
687.01	37.45
687.14	9.36
687.28	42.13
687.42	0.00
687.55	2.34
687.69	72.56
687.82	0.00
687.96	0.00
688.10	63.19
688.23	58.51
688.37	18.72
688.50	0.00
688.64	0.00
688.78	21.06
688.91	53.83
689.05	51.49
689.18	25.75
689.32	46.81
689.46	9.36
689.59	77.24
689.73	72.56
689.86	53.83
690.00	65.54
690.13	63.19
690.27	35.11
690.41	51.49
690.54	0.00
690.68	0.00
690.81	0.00
690.95	93.62
691.08	11.70
691.22	0.00
691.35	0.00
691.49	86.60
691.62	2.34
691.76	67.88
691.89	9.36
692.03	67.88
692.16	0.00
692.30	42.13
692.43	74.90
692.57	205.97
692.70	374.49
692.84	482.15
692.97	418.96
693.11	355.76
693.24	283.20
693.38	149.79
693.51	114.69
693.65	98.30
693.78	11.70
693.92	51.49
694.05	110.01
694.19	11.70
694.32	53.83
694.45	77.24
694.59	30.43
694.72	14.04
694.86	102.98
694.99	0.00
695.13	11.70
695.26	2.34
695.39	0.00
695.53	79.58
695.66	25.75
695.80	21.06
695.93	56.17
696.07	0.00
696.20	0.00
696.33	98.30
696.47	67.88
696.60	39.79
696.73	149.79
696.87	117.03
697.00	72.56
697.14	9.36
697.27	86.60
697.40	88.94
697.54	0.00
697.67	56.17
697.80	30.43
697.94	53.83
698.07	93.62
698.21	11.70
698.34	72.56
698.47	0.00
698.61	0.00
698.74	16.38
698.87	0.00
699.01	0.00
699.14	16.38
699.27	84.26
699.40	107.66
699.54	0.00
699.67	0.00
699.80	93.62
699.94	42.13
700.07	91.28
700.20	0.00
700.34	0.00
700.47	37.45
700.60	0.00
700.73	65.54
700.87	72.56
701.00	63.19
701.13	2.34
701.26	56.17
701.40	0.00
701.53	100.64
701.66	42.13
701.79	77.24
701.93	35.11
702.06	32.77
702.19	21.06
702.32	0.00
702.46	98.30
702.59	60.85
702.72	16.38
702.85	177.88
702.99	526.62
703.12	823.87
703.25	884.72
703.38	781.74
703.51	575.77
703.65	440.02
703.78	334.70
703.91	252.78
704.04	133.41
704.17	93.62
704.31	117.03
704.44	58.51
704.57	51.49
704.70	18.72
704.83	0.00
704.96	32.77
705.10	37.45
705.23	58.51
>>>>>End Processed Spectral Data<<<<<
