SpectraSuite Data File
++++++++++++++++++++++++++++++++++++
Date: Fri Oct 04 12:13:30 GMT-05:00 2013
User: price-jones
Dark Spectrum Present: No
Reference Spectrum Present: No
Number of Sampled Component Spectra: 1
Spectrometers: USB2+H05261
Integration Time (usec): 10000 (USB2+H05261)
Spectra Averaged: 1 (USB2+H05261)
Boxcar Smoothing: 0 (USB2+H05261)
Correct for Electrical Dark: No (USB2+H05261)
Strobe/Lamp Enabled: No (USB2+H05261)
Correct for Detector Non-linearity: No (USB2+H05261)
Correct for Stray Light: No (USB2+H05261)
Number of Pixels in Processed Spectrum: 2048
>>>>>Begin Processed Spectral Data<<<<<
365.73	0.00
365.92	0.00
366.12	0.00
366.32	0.00
366.52	0.00
366.72	0.00
366.91	0.00
367.11	0.00
367.31	0.00
367.51	0.00
367.70	0.00
367.90	0.00
368.10	0.00
368.30	0.00
368.49	0.00
368.69	0.00
368.89	0.00
369.09	0.00
369.28	0.00
369.48	0.00
369.68	0.00
369.87	0.00
370.07	0.00
370.27	0.00
370.47	0.00
370.66	0.00
370.86	0.00
371.06	9.36
371.25	0.00
371.45	9.36
371.65	0.00
371.84	7.02
372.04	0.00
372.24	0.00
372.44	14.04
372.63	0.00
372.83	14.04
373.03	4.68
373.22	0.00
373.42	0.00
373.62	79.58
373.81	0.00
374.01	74.90
374.21	46.81
374.40	30.43
374.60	44.47
374.79	46.81
374.99	44.47
375.19	70.22
375.38	37.45
375.58	0.00
375.78	7.02
375.97	0.00
376.17	0.00
376.37	30.43
376.56	25.75
376.76	60.85
376.95	0.00
377.15	37.45
377.35	0.00
377.54	0.00
377.74	23.41
377.93	49.15
378.13	18.72
378.33	65.54
378.52	88.94
378.72	0.00
378.91	23.41
379.11	53.83
379.31	126.39
379.50	9.36
379.70	0.00
379.89	4.68
380.09	37.45
380.28	65.54
380.48	0.00
380.68	65.54
380.87	0.00
381.07	16.38
381.26	74.90
381.46	42.13
381.65	67.88
381.85	58.51
382.04	32.77
382.24	14.04
382.43	0.00
382.63	107.66
382.83	46.81
383.02	0.00
383.22	14.04
383.41	4.68
383.61	77.24
383.80	42.13
384.00	37.45
384.19	25.75
384.39	51.49
384.58	37.45
384.78	53.83
384.97	56.17
385.17	51.49
385.36	32.77
385.56	7.02
385.75	14.04
385.95	56.17
386.14	65.54
386.34	0.00
386.53	23.41
386.72	86.60
386.92	9.36
387.11	16.38
387.31	0.00
387.50	0.00
387.70	32.77
387.89	0.00
388.09	16.38
388.28	0.00
388.48	32.77
388.67	11.70
388.86	0.00
389.06	30.43
389.25	4.68
389.45	25.75
389.64	16.38
389.84	0.00
390.03	63.19
390.22	0.00
390.42	0.00
390.61	9.36
390.81	0.00
391.00	0.00
391.19	0.00
391.39	35.11
391.58	23.41
391.78	0.00
391.97	46.81
392.16	53.83
392.36	18.72
392.55	30.43
392.75	23.41
392.94	0.00
393.13	0.00
393.33	0.00
393.52	23.41
393.71	7.02
393.91	21.06
394.10	7.02
394.29	0.00
394.49	42.13
394.68	23.41
394.88	0.00
395.07	0.00
395.26	0.00
395.46	25.75
395.65	14.04
395.84	74.90
396.04	39.79
396.23	67.88
396.42	0.00
396.62	2.34
396.81	49.15
397.00	4.68
397.19	25.75
397.39	70.22
397.58	0.00
397.77	23.41
397.97	0.00
398.16	0.00
398.35	84.26
398.55	44.47
398.74	21.06
398.93	0.00
399.12	44.47
399.32	0.00
399.51	16.38
399.70	0.00
399.90	25.75
400.09	0.00
400.28	44.47
400.47	74.90
400.67	16.38
400.86	2.34
401.05	2.34
401.24	0.00
401.44	9.36
401.63	2.34
401.82	2.34
402.01	0.00
402.21	70.22
402.40	0.00
402.59	72.56
402.78	0.00
402.97	28.09
403.17	0.00
403.36	9.36
403.55	93.62
403.74	37.45
403.93	32.77
404.13	46.81
404.32	100.64
404.51	65.54
404.70	25.75
404.89	4.68
405.09	46.81
405.28	32.77
405.47	32.77
405.66	49.15
405.85	23.41
406.05	14.04
406.24	30.43
406.43	28.09
406.62	0.00
406.81	60.85
407.00	46.81
407.20	58.51
407.39	25.75
407.58	7.02
407.77	0.00
407.96	21.06
408.15	0.00
408.34	16.38
408.54	18.72
408.73	65.54
408.92	0.00
409.11	28.09
409.30	53.83
409.49	23.41
409.68	14.04
409.87	81.92
410.07	0.00
410.26	39.79
410.45	112.35
410.64	14.04
410.83	7.02
411.02	18.72
411.21	51.49
411.40	9.36
411.59	49.15
411.78	74.90
411.98	0.00
412.17	11.70
412.36	42.13
412.55	18.72
412.74	51.49
412.93	30.43
413.12	107.66
413.31	107.66
413.50	60.85
413.69	67.88
413.88	35.11
414.07	0.00
414.26	23.41
414.45	56.17
414.64	28.09
414.83	42.13
415.02	0.00
415.22	30.43
415.41	0.00
415.60	9.36
415.79	93.62
415.98	28.09
416.17	16.38
416.36	0.00
416.55	18.72
416.74	0.00
416.93	30.43
417.12	126.39
417.31	60.85
417.50	9.36
417.69	0.00
417.88	0.00
418.07	7.02
418.26	49.15
418.45	0.00
418.64	18.72
418.83	32.77
419.02	2.34
419.21	44.47
419.39	0.00
419.58	37.45
419.77	7.02
419.96	39.79
420.15	46.81
420.34	11.70
420.53	0.00
420.72	0.00
420.91	51.49
421.10	0.00
421.29	81.92
421.48	23.41
421.67	72.56
421.86	25.75
422.05	39.79
422.24	51.49
422.43	0.00
422.61	79.58
422.80	67.88
422.99	37.45
423.18	0.00
423.37	70.22
423.56	63.19
423.75	9.36
423.94	42.13
424.13	44.47
424.32	7.02
424.50	11.70
424.69	60.85
424.88	46.81
425.07	49.15
425.26	11.70
425.45	11.70
425.64	39.79
425.83	28.09
426.01	25.75
426.20	60.85
426.39	60.85
426.58	21.06
426.77	0.00
426.96	21.06
427.15	72.56
427.33	81.92
427.52	42.13
427.71	72.56
427.90	0.00
428.09	32.77
428.28	67.88
428.46	0.00
428.65	0.00
428.84	51.49
429.03	14.04
429.22	25.75
429.40	51.49
429.59	0.00
429.78	46.81
429.97	0.00
430.16	44.47
430.34	56.17
430.53	16.38
430.72	30.43
430.91	0.00
431.10	23.41
431.28	21.06
431.47	42.13
431.66	70.22
431.85	30.43
432.03	0.00
432.22	0.00
432.41	60.85
432.60	39.79
432.79	65.54
432.97	11.70
433.16	0.00
433.35	77.24
433.54	84.26
433.72	18.72
433.91	44.47
434.10	37.45
434.28	63.19
434.47	77.24
434.66	58.51
434.85	51.49
435.03	39.79
435.22	0.00
435.41	2.34
435.59	32.77
435.78	18.72
435.97	56.17
436.16	39.79
436.34	18.72
436.53	0.00
436.72	42.13
436.90	58.51
437.09	0.00
437.28	39.79
437.46	11.70
437.65	49.15
437.84	14.04
438.02	39.79
438.21	18.72
438.40	0.00
438.58	16.38
438.77	18.72
438.96	51.49
439.14	30.43
439.33	0.00
439.52	0.00
439.70	4.68
439.89	39.79
440.08	53.83
440.26	0.00
440.45	107.66
440.63	16.38
440.82	0.00
441.01	63.19
441.19	4.68
441.38	0.00
441.57	0.00
441.75	16.38
441.94	0.00
442.12	84.26
442.31	0.00
442.50	14.04
442.68	133.41
442.87	58.51
443.05	70.22
443.24	42.13
443.43	23.41
443.61	60.85
443.80	77.24
443.98	51.49
444.17	9.36
444.35	21.06
444.54	0.00
444.73	7.02
444.91	23.41
445.10	39.79
445.28	7.02
445.47	0.00
445.65	46.81
445.84	32.77
446.02	42.13
446.21	77.24
446.39	42.13
446.58	102.98
446.77	28.09
446.95	25.75
447.14	14.04
447.32	0.00
447.51	4.68
447.69	70.22
447.88	25.75
448.06	46.81
448.25	25.75
448.43	39.79
448.62	37.45
448.80	35.11
448.99	0.00
449.17	7.02
449.36	9.36
449.54	0.00
449.73	39.79
449.91	28.09
450.10	67.88
450.28	21.06
450.46	53.83
450.65	11.70
450.83	77.24
451.02	7.02
451.20	42.13
451.39	21.06
451.57	0.00
451.76	25.75
451.94	42.13
452.13	77.24
452.31	21.06
452.49	42.13
452.68	84.26
452.86	14.04
453.05	0.00
453.23	0.00
453.42	23.41
453.60	135.75
453.78	60.85
453.97	16.38
454.15	0.00
454.34	7.02
454.52	51.49
454.70	21.06
454.89	39.79
455.07	0.00
455.26	114.69
455.44	0.00
455.62	56.17
455.81	0.00
455.99	81.92
456.17	58.51
456.36	18.72
456.54	98.30
456.73	28.09
456.91	51.49
457.09	28.09
457.28	9.36
457.46	2.34
457.64	37.45
457.83	42.13
458.01	30.43
458.19	42.13
458.38	117.03
458.56	56.17
458.74	60.85
458.93	14.04
459.11	42.13
459.29	23.41
459.48	25.75
459.66	60.85
459.84	0.00
460.03	63.19
460.21	86.60
460.39	65.54
460.57	32.77
460.76	28.09
460.94	46.81
461.12	98.30
461.31	30.43
461.49	86.60
461.67	0.00
461.85	16.38
462.04	58.51
462.22	110.01
462.40	0.00
462.59	7.02
462.77	105.32
462.95	42.13
463.13	25.75
463.32	21.06
463.50	42.13
463.68	49.15
463.86	0.00
464.05	21.06
464.23	49.15
464.41	91.28
464.59	7.02
464.78	79.58
464.96	35.11
465.14	16.38
465.32	70.22
465.50	23.41
465.69	25.75
465.87	14.04
466.05	25.75
466.23	46.81
466.41	0.00
466.60	37.45
466.78	46.81
466.96	32.77
467.14	46.81
467.32	60.85
467.51	0.00
467.69	0.00
467.87	58.51
468.05	37.45
468.23	42.13
468.41	39.79
468.60	0.00
468.78	79.58
468.96	28.09
469.14	4.68
469.32	0.00
469.50	65.54
469.69	0.00
469.87	63.19
470.05	35.11
470.23	0.00
470.41	23.41
470.59	2.34
470.77	91.28
470.95	67.88
471.14	0.00
471.32	37.45
471.50	77.24
471.68	67.88
471.86	51.49
472.04	28.09
472.22	67.88
472.40	9.36
472.58	77.24
472.77	84.26
472.95	0.00
473.13	0.00
473.31	77.24
473.49	18.72
473.67	28.09
473.85	107.66
474.03	53.83
474.21	0.00
474.39	77.24
474.57	46.81
474.75	0.00
474.93	81.92
475.12	42.13
475.30	58.51
475.48	72.56
475.66	56.17
475.84	63.19
476.02	9.36
476.20	42.13
476.38	72.56
476.56	25.75
476.74	102.98
476.92	0.00
477.10	67.88
477.28	14.04
477.46	42.13
477.64	0.00
477.82	60.85
478.00	0.00
478.18	35.11
478.36	0.00
478.54	0.00
478.72	86.60
478.90	0.00
479.08	0.00
479.26	0.00
479.44	46.81
479.62	46.81
479.80	32.77
479.98	32.77
480.16	25.75
480.34	0.00
480.52	44.47
480.70	0.00
480.88	0.00
481.06	37.45
481.24	88.94
481.41	51.49
481.59	0.00
481.77	0.00
481.95	56.17
482.13	79.58
482.31	25.75
482.49	0.00
482.67	23.41
482.85	65.54
483.03	46.81
483.21	49.15
483.39	0.00
483.57	126.39
483.74	16.38
483.92	72.56
484.10	0.00
484.28	21.06
484.46	0.00
484.64	42.13
484.82	0.00
485.00	70.22
485.18	11.70
485.35	35.11
485.53	35.11
485.71	95.96
485.89	32.77
486.07	0.00
486.25	39.79
486.43	11.70
486.61	53.83
486.78	51.49
486.96	39.79
487.14	0.00
487.32	4.68
487.50	2.34
487.68	25.75
487.85	0.00
488.03	35.11
488.21	0.00
488.39	30.43
488.57	37.45
488.75	95.96
488.92	32.77
489.10	67.88
489.28	95.96
489.46	28.09
489.64	49.15
489.81	56.17
489.99	49.15
490.17	100.64
490.35	37.45
490.53	21.06
490.70	58.51
490.88	46.81
491.06	0.00
491.24	44.47
491.41	28.09
491.59	23.41
491.77	70.22
491.95	100.64
492.13	21.06
492.30	0.00
492.48	39.79
492.66	107.66
492.84	2.34
493.01	39.79
493.19	9.36
493.37	84.26
493.54	84.26
493.72	63.19
493.90	102.98
494.08	63.19
494.25	30.43
494.43	0.00
494.61	30.43
494.79	67.88
494.96	100.64
495.14	0.00
495.32	0.00
495.49	0.00
495.67	60.85
495.85	4.68
496.02	46.81
496.20	4.68
496.38	58.51
496.55	4.68
496.73	74.90
496.91	56.17
497.09	11.70
497.26	0.00
497.44	100.64
497.62	42.13
497.79	53.83
497.97	16.38
498.14	93.62
498.32	32.77
498.50	32.77
498.67	63.19
498.85	51.49
499.03	0.00
499.20	44.47
499.38	25.75
499.56	0.00
499.73	88.94
499.91	39.79
500.08	14.04
500.26	51.49
500.44	9.36
500.61	0.00
500.79	0.00
500.97	11.70
501.14	95.96
501.32	37.45
501.49	72.56
501.67	53.83
501.84	18.72
502.02	25.75
502.20	0.00
502.37	60.85
502.55	60.85
502.72	0.00
502.90	46.81
503.07	23.41
503.25	70.22
503.43	37.45
503.60	91.28
503.78	0.00
503.95	46.81
504.13	0.00
504.30	65.54
504.48	4.68
504.65	63.19
504.83	35.11
505.01	7.02
505.18	42.13
505.36	0.00
505.53	46.81
505.71	18.72
505.88	63.19
506.06	7.02
506.23	58.51
506.41	81.92
506.58	0.00
506.76	88.94
506.93	25.75
507.11	0.00
507.28	0.00
507.46	65.54
507.63	28.09
507.81	25.75
507.98	74.90
508.16	0.00
508.33	11.70
508.50	18.72
508.68	25.75
508.85	18.72
509.03	0.00
509.20	0.00
509.38	0.00
509.55	16.38
509.73	46.81
509.90	105.32
510.08	35.11
510.25	0.00
510.42	119.37
510.60	0.00
510.77	28.09
510.95	0.00
511.12	53.83
511.30	95.96
511.47	46.81
511.64	37.45
511.82	0.00
511.99	105.32
512.17	28.09
512.34	72.56
512.51	112.35
512.69	77.24
512.86	74.90
513.04	25.75
513.21	77.24
513.38	91.28
513.56	86.60
513.73	51.49
513.90	16.38
514.08	0.00
514.25	67.88
514.43	21.06
514.60	42.13
514.77	18.72
514.95	56.17
515.12	65.54
515.29	0.00
515.47	84.26
515.64	49.15
515.81	18.72
515.99	49.15
516.16	53.83
516.33	53.83
516.51	0.00
516.68	37.45
516.85	105.32
517.03	0.00
517.20	28.09
517.37	0.00
517.54	0.00
517.72	2.34
517.89	51.49
518.06	11.70
518.24	9.36
518.41	91.28
518.58	70.22
518.75	2.34
518.93	0.00
519.10	67.88
519.27	56.17
519.45	51.49
519.62	88.94
519.79	7.02
519.96	0.00
520.14	4.68
520.31	46.81
520.48	46.81
520.65	95.96
520.83	67.88
521.00	16.38
521.17	58.51
521.34	0.00
521.52	35.11
521.69	2.34
521.86	46.81
522.03	16.38
522.20	79.58
522.38	58.51
522.55	49.15
522.72	23.41
522.89	93.62
523.07	0.00
523.24	88.94
523.41	63.19
523.58	60.85
523.75	49.15
523.92	53.83
524.10	4.68
524.27	70.22
524.44	39.79
524.61	56.17
524.78	18.72
524.96	74.90
525.13	28.09
525.30	0.00
525.47	25.75
525.64	9.36
525.81	93.62
525.98	72.56
526.16	86.60
526.33	16.38
526.50	39.79
526.67	18.72
526.84	74.90
527.01	60.85
527.18	42.13
527.36	93.62
527.53	56.17
527.70	49.15
527.87	126.39
528.04	39.79
528.21	23.41
528.38	25.75
528.55	2.34
528.72	16.38
528.89	11.70
529.07	72.56
529.24	58.51
529.41	16.38
529.58	93.62
529.75	2.34
529.92	49.15
530.09	100.64
530.26	56.17
530.43	88.94
530.60	77.24
530.77	79.58
530.94	84.26
531.11	30.43
531.28	70.22
531.46	88.94
531.63	18.72
531.80	25.75
531.97	0.00
532.14	2.34
532.31	0.00
532.48	16.38
532.65	56.17
532.82	86.60
532.99	60.85
533.16	65.54
533.33	16.38
533.50	117.03
533.67	18.72
533.84	102.98
534.01	18.72
534.18	0.00
534.35	16.38
534.52	35.11
534.69	32.77
534.86	11.70
535.03	98.30
535.20	0.00
535.37	44.47
535.54	0.00
535.71	0.00
535.88	81.92
536.05	67.88
536.22	11.70
536.38	81.92
536.55	0.00
536.72	42.13
536.89	2.34
537.06	32.77
537.23	28.09
537.40	51.49
537.57	63.19
537.74	88.94
537.91	58.51
538.08	110.01
538.25	102.98
538.42	35.11
538.59	37.45
538.75	28.09
538.92	23.41
539.09	67.88
539.26	67.88
539.43	9.36
539.60	84.26
539.77	72.56
539.94	187.24
540.11	35.11
540.28	58.51
540.44	0.00
540.61	0.00
540.78	58.51
540.95	35.11
541.12	112.35
541.29	63.19
541.46	28.09
541.62	53.83
541.79	21.06
541.96	0.00
542.13	44.47
542.30	42.13
542.47	2.34
542.63	128.73
542.80	16.38
542.97	46.81
543.14	25.75
543.31	110.01
543.48	0.00
543.64	18.72
543.81	18.72
543.98	35.11
544.15	28.09
544.32	46.81
544.48	11.70
544.65	39.79
544.82	49.15
544.99	44.47
545.16	0.00
545.32	63.19
545.49	0.00
545.66	32.77
545.83	58.51
546.00	11.70
546.16	35.11
546.33	0.00
546.50	72.56
546.67	32.77
546.83	56.17
547.00	51.49
547.17	60.85
547.34	0.00
547.50	100.64
547.67	23.41
547.84	32.77
548.00	88.94
548.17	30.43
548.34	100.64
548.51	58.51
548.67	60.85
548.84	86.60
549.01	72.56
549.18	63.19
549.34	21.06
549.51	0.00
549.68	0.00
549.84	2.34
550.01	79.58
550.18	0.00
550.34	51.49
550.51	9.36
550.68	30.43
550.84	14.04
551.01	7.02
551.18	79.58
551.34	23.41
551.51	46.81
551.68	4.68
551.84	88.94
552.01	30.43
552.18	0.00
552.34	44.47
552.51	58.51
552.68	0.00
552.84	23.41
553.01	14.04
553.18	91.28
553.34	0.00
553.51	0.00
553.67	95.96
553.84	30.43
554.01	46.81
554.17	23.41
554.34	44.47
554.51	53.83
554.67	0.00
554.84	67.88
555.00	0.00
555.17	0.00
555.33	18.72
555.50	0.00
555.67	63.19
555.83	42.13
556.00	0.00
556.16	67.88
556.33	39.79
556.50	2.34
556.66	35.11
556.83	84.26
556.99	128.73
557.16	67.88
557.32	23.41
557.49	0.00
557.65	35.11
557.82	21.06
557.98	30.43
558.15	23.41
558.32	4.68
558.48	42.13
558.65	0.00
558.81	56.17
558.98	0.00
559.14	11.70
559.31	93.62
559.47	65.54
559.64	21.06
559.80	4.68
559.97	42.13
560.13	70.22
560.30	84.26
560.46	51.49
560.63	51.49
560.79	77.24
560.96	42.13
561.12	23.41
561.29	42.13
561.45	56.17
561.61	81.92
561.78	0.00
561.94	42.13
562.11	39.79
562.27	4.68
562.44	39.79
562.60	46.81
562.77	21.06
562.93	60.85
563.10	42.13
563.26	53.83
563.42	35.11
563.59	39.79
563.75	60.85
563.92	46.81
564.08	60.85
564.24	28.09
564.41	0.00
564.57	56.17
564.74	58.51
564.90	107.66
565.07	51.49
565.23	35.11
565.39	56.17
565.56	60.85
565.72	86.60
565.88	37.45
566.05	23.41
566.21	0.00
566.38	51.49
566.54	0.00
566.70	0.00
566.87	11.70
567.03	4.68
567.19	84.26
567.36	84.26
567.52	2.34
567.68	28.09
567.85	0.00
568.01	53.83
568.17	53.83
568.34	70.22
568.50	35.11
568.66	114.69
568.83	46.81
568.99	28.09
569.15	70.22
569.32	0.00
569.48	77.24
569.64	67.88
569.81	42.13
569.97	56.17
570.13	0.00
570.30	93.62
570.46	0.00
570.62	44.47
570.78	25.75
570.95	23.41
571.11	170.86
571.27	37.45
571.43	18.72
571.60	0.00
571.76	51.49
571.92	11.70
572.09	72.56
572.25	35.11
572.41	42.13
572.57	0.00
572.74	9.36
572.90	2.34
573.06	67.88
573.22	65.54
573.38	0.00
573.55	0.00
573.71	77.24
573.87	46.81
574.03	14.04
574.20	84.26
574.36	46.81
574.52	28.09
574.68	86.60
574.84	65.54
575.01	53.83
575.17	14.04
575.33	32.77
575.49	0.00
575.65	39.79
575.82	58.51
575.98	156.82
576.14	56.17
576.30	51.49
576.46	14.04
576.62	0.00
576.79	53.83
576.95	60.85
577.11	9.36
577.27	60.85
577.43	70.22
577.59	79.58
577.75	67.88
577.92	67.88
578.08	16.38
578.24	49.15
578.40	67.88
578.56	0.00
578.72	67.88
578.88	44.47
579.04	21.06
579.21	42.13
579.37	49.15
579.53	28.09
579.69	67.88
579.85	93.62
580.01	49.15
580.17	11.70
580.33	72.56
580.49	88.94
580.65	30.43
580.82	16.38
580.98	56.17
581.14	51.49
581.30	35.11
581.46	0.00
581.62	7.02
581.78	70.22
581.94	63.19
582.10	63.19
582.26	49.15
582.42	21.06
582.58	100.64
582.74	81.92
582.90	42.13
583.06	23.41
583.22	110.01
583.38	110.01
583.54	18.72
583.70	79.58
583.86	16.38
584.02	58.51
584.18	46.81
584.34	119.37
584.50	98.30
584.66	739.61
584.82	1708.59
584.98	2005.84
585.14	1706.25
585.30	1153.88
585.46	739.61
585.62	468.11
585.78	231.71
585.94	152.13
586.10	81.92
586.26	23.41
586.42	65.54
586.58	28.09
586.74	0.00
586.90	39.79
587.06	124.05
587.22	30.43
587.38	0.00
587.54	88.94
587.70	177.88
587.86	180.22
588.02	212.99
588.18	133.41
588.34	156.82
588.49	131.07
588.65	74.90
588.81	56.17
588.97	49.15
589.13	21.06
589.29	63.19
589.45	0.00
589.61	0.00
589.77	56.17
589.93	60.85
590.08	0.00
590.24	77.24
590.40	0.00
590.56	70.22
590.72	0.00
590.88	25.75
591.04	0.00
591.20	84.26
591.35	51.49
591.51	11.70
591.67	9.36
591.83	53.83
591.99	67.88
592.15	14.04
592.31	0.00
592.46	0.00
592.62	16.38
592.78	28.09
592.94	70.22
593.10	63.19
593.26	53.83
593.41	18.72
593.57	0.00
593.73	30.43
593.89	147.45
594.05	205.97
594.20	285.55
594.36	372.15
594.52	194.26
594.68	152.13
594.84	114.69
594.99	98.30
595.15	37.45
595.31	11.70
595.47	110.01
595.62	56.17
595.78	49.15
595.94	63.19
596.10	84.26
596.25	91.28
596.41	11.70
596.57	21.06
596.73	37.45
596.88	0.00
597.04	81.92
597.20	77.24
597.36	79.58
597.51	126.39
597.67	114.69
597.83	77.24
597.99	114.69
598.14	110.01
598.30	11.70
598.46	77.24
598.61	30.43
598.77	39.79
598.93	49.15
599.09	91.28
599.24	18.72
599.40	16.38
599.56	25.75
599.71	42.13
599.87	11.70
600.03	0.00
600.18	56.17
600.34	37.45
600.50	126.39
600.65	4.68
600.81	0.00
600.97	32.77
601.12	37.45
601.28	9.36
601.44	46.81
601.59	51.49
601.75	53.83
601.91	30.43
602.06	60.85
602.22	16.38
602.37	91.28
602.53	91.28
602.69	110.01
602.84	142.77
603.00	16.38
603.16	154.48
603.31	35.11
603.47	0.00
603.62	51.49
603.78	46.81
603.94	39.79
604.09	0.00
604.25	49.15
604.40	58.51
604.56	39.79
604.71	42.13
604.87	77.24
605.03	7.02
605.18	14.04
605.34	93.62
605.49	63.19
605.65	93.62
605.80	28.09
605.96	4.68
606.12	11.70
606.27	25.75
606.43	11.70
606.58	65.54
606.74	32.77
606.89	163.84
607.05	142.77
607.20	308.95
607.36	140.43
607.51	107.66
607.67	117.03
607.82	140.43
607.98	60.85
608.13	88.94
608.29	46.81
608.44	35.11
608.60	42.13
608.75	49.15
608.91	91.28
609.06	203.63
609.22	353.42
609.37	451.72
609.53	365.12
609.68	379.17
609.84	231.71
609.99	70.22
610.15	102.98
610.30	42.13
610.46	23.41
610.61	42.13
610.76	0.00
610.92	42.13
611.07	23.41
611.23	51.49
611.38	65.54
611.54	25.75
611.69	18.72
611.84	25.75
612.00	91.28
612.15	7.02
612.31	74.90
612.46	42.13
612.62	70.22
612.77	84.26
612.92	0.00
613.08	51.49
613.23	100.64
613.39	39.79
613.54	14.04
613.69	215.33
613.85	507.90
614.00	648.33
614.15	683.44
614.31	477.47
614.46	344.06
614.62	278.52
614.77	194.26
614.92	131.07
615.08	32.77
615.23	49.15
615.38	0.00
615.54	44.47
615.69	105.32
615.84	154.48
616.00	114.69
616.15	135.75
616.30	182.56
616.46	156.82
616.61	88.94
616.76	86.60
616.92	60.85
617.07	44.47
617.22	98.30
617.37	49.15
617.53	81.92
617.68	2.34
617.83	9.36
617.99	32.77
618.14	63.19
618.29	39.79
618.45	77.24
618.60	44.47
618.75	142.77
618.90	30.43
619.06	0.00
619.21	86.60
619.36	46.81
619.51	117.03
619.67	39.79
619.82	16.38
619.97	0.00
620.12	0.00
620.28	42.13
620.43	2.34
620.58	0.00
620.73	86.60
620.89	72.56
621.04	58.51
621.19	105.32
621.34	133.41
621.49	175.54
621.65	149.79
621.80	126.39
621.95	49.15
622.10	105.32
622.25	88.94
622.41	18.72
622.56	56.17
622.71	65.54
622.86	60.85
623.01	0.00
623.16	39.79
623.32	49.15
623.47	0.00
623.62	0.00
623.77	53.83
623.92	16.38
624.07	44.47
624.23	74.90
624.38	0.00
624.53	0.00
624.68	135.75
624.83	98.30
624.98	88.94
625.13	86.60
625.29	74.90
625.44	91.28
625.59	30.43
625.74	32.77
625.89	102.98
626.04	121.71
626.19	245.76
626.34	388.53
626.49	353.42
626.65	278.52
626.80	166.18
626.95	177.88
627.10	74.90
627.25	112.35
627.40	46.81
627.55	7.02
627.70	100.64
627.85	46.81
628.00	63.19
628.15	0.00
628.30	53.83
628.45	53.83
628.60	28.09
628.76	39.79
628.91	30.43
629.06	23.41
629.21	30.43
629.36	0.00
629.51	32.77
629.66	11.70
629.81	51.49
629.96	110.01
630.11	79.58
630.26	95.96
630.41	121.71
630.56	100.64
630.71	93.62
630.86	72.56
631.01	49.15
631.16	67.88
631.31	16.38
631.46	0.00
631.61	74.90
631.76	53.83
631.91	9.36
632.06	0.00
632.21	37.45
632.36	88.94
632.51	14.04
632.66	23.41
632.81	98.30
632.96	156.82
633.10	168.52
633.25	236.39
633.40	220.01
633.55	180.22
633.70	135.75
633.85	81.92
634.00	0.00
634.15	70.22
634.30	77.24
634.45	0.00
634.60	32.77
634.75	30.43
634.90	32.77
635.05	53.83
635.19	84.26
635.34	128.73
635.49	67.88
635.64	88.94
635.79	35.11
635.94	2.34
636.09	28.09
636.24	53.83
636.39	0.00
636.53	37.45
636.68	46.81
636.83	84.26
636.98	42.13
637.13	32.77
637.28	51.49
637.43	14.04
637.57	35.11
637.72	215.33
637.87	306.61
638.02	334.70
638.17	428.32
638.32	376.83
638.46	273.84
638.61	180.22
638.76	60.85
638.91	93.62
639.06	107.66
639.20	63.19
639.35	107.66
639.50	93.62
639.65	217.67
639.80	351.08
639.94	655.35
640.09	643.65
640.24	531.30
640.39	334.70
640.54	212.99
640.68	180.22
640.83	86.60
640.98	86.60
641.13	37.45
641.27	25.75
641.42	32.77
641.57	0.00
641.72	65.54
641.86	23.41
642.01	32.77
642.16	25.75
642.31	95.96
642.45	86.60
642.60	46.81
642.75	65.54
642.90	74.90
643.04	16.38
643.19	37.45
643.34	86.60
643.48	70.22
643.63	23.41
643.78	35.11
643.93	28.09
644.07	63.19
644.22	0.00
644.37	23.41
644.51	95.96
644.66	46.81
644.81	72.56
644.95	16.38
645.10	32.77
645.25	32.77
645.39	58.51
645.54	32.77
645.69	21.06
645.83	72.56
645.98	79.58
646.13	32.77
646.27	46.81
646.42	0.00
646.57	30.43
646.71	42.13
646.86	2.34
647.00	67.88
647.15	11.70
647.30	110.01
647.44	74.90
647.59	14.04
647.74	0.00
647.88	44.47
648.03	126.39
648.17	110.01
648.32	0.00
648.47	53.83
648.61	84.26
648.76	0.00
648.90	65.54
649.05	107.66
649.20	39.79
649.34	7.02
649.49	60.85
649.63	67.88
649.78	28.09
649.92	93.62
650.07	112.35
650.21	224.69
650.36	229.37
650.51	313.63
650.65	280.86
650.80	224.69
650.94	161.50
651.09	100.64
651.23	93.62
651.38	51.49
651.52	72.56
651.67	53.83
651.81	42.13
651.96	135.75
652.10	56.17
652.25	63.19
652.39	56.17
652.54	25.75
652.68	42.13
652.83	60.85
652.97	173.20
653.12	189.58
653.26	138.09
653.41	110.01
653.55	79.58
653.70	25.75
653.84	25.75
653.99	53.83
654.13	11.70
654.27	0.00
654.42	81.92
654.56	35.11
654.71	0.00
654.85	0.00
655.00	0.00
655.14	42.13
655.29	25.75
655.43	14.04
655.57	79.58
655.72	67.88
655.86	44.47
656.01	0.00
656.15	28.09
656.30	60.85
656.44	7.02
656.58	0.00
656.73	30.43
656.87	42.13
657.01	21.06
657.16	77.24
657.30	63.19
657.45	30.43
657.59	56.17
657.73	42.13
657.88	23.41
658.02	98.30
658.16	0.00
658.31	9.36
658.45	28.09
658.60	7.02
658.74	4.68
658.88	11.70
659.03	51.49
659.17	32.77
659.31	70.22
659.46	149.79
659.60	149.79
659.74	187.24
659.89	156.82
660.03	133.41
660.17	86.60
660.32	53.83
660.46	7.02
660.60	0.00
660.74	16.38
660.89	112.35
661.03	35.11
661.17	16.38
661.32	58.51
661.46	0.00
661.60	0.00
661.74	88.94
661.89	16.38
662.03	21.06
662.17	28.09
662.31	37.45
662.46	46.81
662.60	0.00
662.74	0.00
662.88	23.41
663.03	42.13
663.17	0.00
663.31	46.81
663.45	81.92
663.60	35.11
663.74	21.06
663.88	67.88
664.02	25.75
664.17	30.43
664.31	28.09
664.45	56.17
664.59	16.38
664.73	0.00
664.88	79.58
665.02	0.00
665.16	18.72
665.30	9.36
665.44	51.49
665.59	56.17
665.73	30.43
665.87	0.00
666.01	0.00
666.15	84.26
666.29	0.00
666.44	9.36
666.58	107.66
666.72	91.28
666.86	46.81
667.00	4.68
667.14	42.13
667.28	128.73
667.43	142.77
667.57	273.84
667.71	400.23
667.85	304.27
667.99	149.79
668.13	114.69
668.27	44.47
668.41	46.81
668.56	105.32
668.70	11.70
668.84	88.94
668.98	74.90
669.12	112.35
669.26	49.15
669.40	0.00
669.54	35.11
669.68	30.43
669.82	25.75
669.96	0.00
670.10	98.30
670.25	9.36
670.39	9.36
670.53	0.00
670.67	81.92
670.81	93.62
670.95	23.41
671.09	81.92
671.23	88.94
671.37	154.48
671.51	222.35
671.65	220.01
671.79	182.56
671.93	173.20
672.07	67.88
672.21	65.54
672.35	72.56
672.49	135.75
672.63	4.68
672.77	4.68
672.91	0.00
673.05	37.45
673.19	42.13
673.33	58.51
673.47	42.13
673.61	58.51
673.75	37.45
673.89	63.19
674.03	72.56
674.17	91.28
674.31	37.45
674.45	53.83
674.59	30.43
674.73	23.41
674.87	0.00
675.01	39.79
675.15	14.04
675.29	53.83
675.43	72.56
675.56	4.68
675.70	70.22
675.84	63.19
675.98	11.70
676.12	44.47
676.26	0.00
676.40	63.19
676.54	63.19
676.68	42.13
676.82	32.77
676.96	37.45
677.10	65.54
677.23	0.00
677.37	46.81
677.51	105.32
677.65	53.83
677.79	28.09
677.93	0.00
678.07	81.92
678.21	0.00
678.34	0.00
678.48	110.01
678.62	37.45
678.76	0.00
678.90	4.68
679.04	35.11
679.18	21.06
679.31	70.22
679.45	74.90
679.59	53.83
679.73	0.00
679.87	51.49
680.00	21.06
680.14	0.00
680.28	60.85
680.42	7.02
680.56	25.75
680.70	30.43
680.83	0.00
680.97	51.49
681.11	2.34
681.25	16.38
681.39	21.06
681.52	28.09
681.66	0.00
681.80	0.00
681.94	0.00
682.07	35.11
682.21	159.16
682.35	46.81
682.49	0.00
682.62	44.47
682.76	28.09
682.90	102.98
683.04	117.03
683.17	117.03
683.31	74.90
683.45	9.36
683.59	0.00
683.72	65.54
683.86	16.38
684.00	25.75
684.13	16.38
684.27	0.00
684.41	35.11
684.55	18.72
684.68	88.94
684.82	0.00
684.96	2.34
685.09	51.49
685.23	35.11
685.37	23.41
685.50	51.49
685.64	0.00
685.78	58.51
685.91	11.70
686.05	0.00
686.19	44.47
686.32	23.41
686.46	2.34
686.60	0.00
686.73	28.09
686.87	7.02
687.01	7.02
687.14	0.00
687.28	35.11
687.42	114.69
687.55	65.54
687.69	35.11
687.82	16.38
687.96	74.90
688.10	0.00
688.23	58.51
688.37	9.36
688.50	0.00
688.64	0.00
688.78	46.81
688.91	0.00
689.05	7.02
689.18	0.00
689.32	25.75
689.46	44.47
689.59	72.56
689.73	4.68
689.86	42.13
690.00	44.47
690.13	0.00
690.27	0.00
690.41	65.54
690.54	0.00
690.68	0.00
690.81	14.04
690.95	67.88
691.08	84.26
691.22	23.41
691.35	79.58
691.49	42.13
691.62	2.34
691.76	79.58
691.89	0.00
692.03	21.06
692.16	0.00
692.30	67.88
692.43	58.51
692.57	39.79
692.70	147.45
692.84	145.11
692.97	105.32
693.11	114.69
693.24	93.62
693.38	79.58
693.51	95.96
693.65	98.30
693.78	30.43
693.92	0.00
694.05	21.06
694.19	51.49
694.32	18.72
694.45	30.43
694.59	53.83
694.72	95.96
694.86	0.00
694.99	56.17
695.13	72.56
695.26	0.00
695.39	88.94
695.53	74.90
695.66	0.00
695.80	23.41
695.93	21.06
696.07	23.41
696.20	58.51
696.33	49.15
696.47	72.56
696.60	77.24
696.73	32.77
696.87	63.19
697.00	44.47
697.14	30.43
697.27	0.00
697.40	9.36
697.54	0.00
697.67	42.13
697.80	72.56
697.94	4.68
698.07	0.00
698.21	28.09
698.34	4.68
698.47	9.36
698.61	53.83
698.74	35.11
698.87	79.58
699.01	25.75
699.14	28.09
699.27	88.94
699.40	86.60
699.54	72.56
699.67	0.00
699.80	0.00
699.94	74.90
700.07	53.83
700.20	0.00
700.34	60.85
700.47	53.83
700.60	0.00
700.73	35.11
700.87	37.45
701.00	21.06
701.13	0.00
701.26	0.00
701.40	32.77
701.53	0.00
701.66	42.13
701.79	84.26
701.93	0.00
702.06	9.36
702.19	32.77
702.32	35.11
702.46	102.98
702.59	77.24
702.72	56.17
702.85	135.75
702.99	173.20
703.12	334.70
703.25	203.63
703.38	168.52
703.51	203.63
703.65	159.16
703.78	163.84
703.91	112.35
704.04	0.00
704.17	91.28
704.31	14.04
704.44	72.56
704.57	42.13
704.70	32.77
704.83	0.00
704.96	65.54
705.10	42.13
705.23	72.56
>>>>>End Processed Spectral Data<<<<<
