SpectraSuite Data File
++++++++++++++++++++++++++++++++++++
Date: Tue Oct 01 18:25:12 GMT-05:00 2013
User: stostad
Dark Spectrum Present: No
Reference Spectrum Present: No
Number of Sampled Component Spectra: 1
Spectrometers: USB2+H05261
Integration Time (usec): 100000 (USB2+H05261)
Spectra Averaged: 1 (USB2+H05261)
Boxcar Smoothing: 0 (USB2+H05261)
Correct for Electrical Dark: No (USB2+H05261)
Strobe/Lamp Enabled: No (USB2+H05261)
Correct for Detector Non-linearity: No (USB2+H05261)
Correct for Stray Light: No (USB2+H05261)
Number of Pixels in Processed Spectrum: 2048
>>>>>Begin Processed Spectral Data<<<<<
365.73	84.26
365.92	84.26
366.12	84.26
366.32	0.00
366.52	0.00
366.72	0.00
366.91	0.00
367.11	0.00
367.31	0.00
367.51	0.00
367.70	9.36
367.90	0.00
368.10	0.00
368.30	0.00
368.49	0.00
368.69	16.38
368.89	0.00
369.09	0.00
369.28	23.41
369.48	0.00
369.68	67.88
369.87	11.70
370.07	14.04
370.27	91.28
370.47	84.26
370.66	44.47
370.86	133.41
371.06	93.62
371.25	79.58
371.45	126.39
371.65	60.85
371.84	28.09
372.04	84.26
372.24	168.52
372.44	149.79
372.63	138.09
372.83	145.11
373.03	175.54
373.22	154.48
373.42	112.35
373.62	184.90
373.81	145.11
374.01	187.24
374.21	229.37
374.40	154.48
374.60	142.77
374.79	205.97
374.99	117.03
375.19	117.03
375.38	187.24
375.58	152.13
375.78	112.35
375.97	98.30
376.17	205.97
376.37	126.39
376.56	102.98
376.76	177.88
376.95	77.24
377.15	163.84
377.35	161.50
377.54	140.43
377.74	102.98
377.93	88.94
378.13	147.45
378.33	166.18
378.52	220.01
378.72	117.03
378.91	110.01
379.11	93.62
379.31	133.41
379.50	117.03
379.70	124.05
379.89	168.52
380.09	149.79
380.28	175.54
380.48	142.77
380.68	194.26
380.87	63.19
381.07	91.28
381.26	121.71
381.46	84.26
381.65	121.71
381.85	138.09
382.04	184.90
382.24	81.92
382.43	60.85
382.63	77.24
382.83	121.71
383.02	184.90
383.22	175.54
383.41	81.92
383.61	166.18
383.80	191.92
384.00	98.30
384.19	102.98
384.39	93.62
384.58	121.71
384.78	121.71
384.97	159.16
385.17	138.09
385.36	126.39
385.56	142.77
385.75	102.98
385.95	142.77
386.14	107.66
386.34	93.62
386.53	124.05
386.72	135.75
386.92	145.11
387.11	107.66
387.31	156.82
387.50	180.22
387.70	81.92
387.89	128.73
388.09	112.35
388.28	86.60
388.48	177.88
388.67	133.41
388.86	168.52
389.06	11.70
389.25	114.69
389.45	131.07
389.64	252.78
389.84	126.39
390.03	117.03
390.22	112.35
390.42	163.84
390.61	131.07
390.81	74.90
391.00	63.19
391.19	147.45
391.39	88.94
391.58	145.11
391.78	156.82
391.97	81.92
392.16	124.05
392.36	152.13
392.55	227.03
392.75	180.22
392.94	112.35
393.13	161.50
393.33	175.54
393.52	138.09
393.71	187.24
393.91	56.17
394.10	91.28
394.29	133.41
394.49	102.98
394.68	191.92
394.88	142.77
395.07	112.35
395.26	140.43
395.46	142.77
395.65	154.48
395.84	126.39
396.04	198.95
396.23	140.43
396.42	152.13
396.62	119.37
396.81	124.05
397.00	86.60
397.19	105.32
397.39	110.01
397.58	168.52
397.77	163.84
397.97	182.56
398.16	198.95
398.35	84.26
398.55	117.03
398.74	163.84
398.93	154.48
399.12	105.32
399.32	159.16
399.51	107.66
399.70	175.54
399.90	93.62
400.09	95.96
400.28	105.32
400.47	98.30
400.67	159.16
400.86	91.28
401.05	126.39
401.24	198.95
401.44	91.28
401.63	170.86
401.82	175.54
402.01	86.60
402.21	147.45
402.40	133.41
402.59	156.82
402.78	74.90
402.97	93.62
403.17	203.63
403.36	114.69
403.55	107.66
403.74	198.95
403.93	112.35
404.13	224.69
404.32	138.09
404.51	177.88
404.70	159.16
404.89	79.58
405.09	149.79
405.28	133.41
405.47	131.07
405.66	147.45
405.85	128.73
406.05	135.75
406.24	168.52
406.43	145.11
406.62	243.42
406.81	231.71
407.00	152.13
407.20	79.58
407.39	149.79
407.58	145.11
407.77	177.88
407.96	149.79
408.15	166.18
408.34	191.92
408.54	145.11
408.73	131.07
408.92	166.18
409.11	79.58
409.30	208.31
409.49	133.41
409.68	124.05
409.87	114.69
410.07	182.56
410.26	114.69
410.45	88.94
410.64	142.77
410.83	145.11
411.02	95.96
411.21	159.16
411.40	145.11
411.59	128.73
411.78	107.66
411.98	100.64
412.17	117.03
412.36	105.32
412.55	163.84
412.74	145.11
412.93	156.82
413.12	135.75
413.31	114.69
413.50	126.39
413.69	112.35
413.88	126.39
414.07	119.37
414.26	152.13
414.45	152.13
414.64	149.79
414.83	180.22
415.02	142.77
415.22	152.13
415.41	95.96
415.60	156.82
415.79	81.92
415.98	166.18
416.17	102.98
416.36	128.73
416.55	126.39
416.74	88.94
416.93	170.86
417.12	121.71
417.31	114.69
417.50	121.71
417.69	163.84
417.88	220.01
418.07	163.84
418.26	149.79
418.45	86.60
418.64	280.86
418.83	173.20
419.02	84.26
419.21	142.77
419.39	166.18
419.58	161.50
419.77	112.35
419.96	152.13
420.15	168.52
420.34	119.37
420.53	140.43
420.72	147.45
420.91	107.66
421.10	102.98
421.29	102.98
421.48	166.18
421.67	147.45
421.86	112.35
422.05	163.84
422.24	140.43
422.43	177.88
422.61	145.11
422.80	131.07
422.99	100.64
423.18	131.07
423.37	88.94
423.56	100.64
423.75	138.09
423.94	70.22
424.13	84.26
424.32	166.18
424.50	100.64
424.69	112.35
424.88	133.41
425.07	135.75
425.26	152.13
425.45	215.33
425.64	187.24
425.83	135.75
426.01	229.37
426.20	187.24
426.39	161.50
426.58	145.11
426.77	152.13
426.96	191.92
427.15	191.92
427.33	133.41
427.52	142.77
427.71	145.11
427.90	149.79
428.09	173.20
428.28	159.16
428.46	135.75
428.65	105.32
428.84	114.69
429.03	126.39
429.22	126.39
429.40	93.62
429.59	175.54
429.78	236.39
429.97	152.13
430.16	145.11
430.34	191.92
430.53	177.88
430.72	119.37
430.91	131.07
431.10	114.69
431.28	138.09
431.47	177.88
431.66	175.54
431.85	163.84
432.03	114.69
432.22	170.86
432.41	166.18
432.60	180.22
432.79	152.13
432.97	203.63
433.16	220.01
433.35	252.78
433.54	154.48
433.72	93.62
433.91	147.45
434.10	142.77
434.28	189.58
434.47	224.69
434.66	128.73
434.85	152.13
435.03	187.24
435.22	205.97
435.41	163.84
435.59	124.05
435.78	161.50
435.97	84.26
436.16	173.20
436.34	140.43
436.53	163.84
436.72	147.45
436.90	217.67
437.09	112.35
437.28	121.71
437.46	98.30
437.65	170.86
437.84	220.01
438.02	170.86
438.21	241.08
438.40	131.07
438.58	112.35
438.77	168.52
438.96	117.03
439.14	72.56
439.33	159.16
439.52	117.03
439.70	110.01
439.89	149.79
440.08	119.37
440.26	187.24
440.45	142.77
440.63	154.48
440.82	131.07
441.01	156.82
441.19	142.77
441.38	102.98
441.57	133.41
441.75	152.13
441.94	210.65
442.12	170.86
442.31	142.77
442.50	145.11
442.68	119.37
442.87	205.97
443.05	128.73
443.24	203.63
443.43	67.88
443.61	154.48
443.80	84.26
443.98	156.82
444.17	53.83
444.35	126.39
444.54	86.60
444.73	86.60
444.91	126.39
445.10	159.16
445.28	128.73
445.47	145.11
445.65	166.18
445.84	100.64
446.02	203.63
446.21	175.54
446.39	105.32
446.58	152.13
446.77	149.79
446.95	81.92
447.14	140.43
447.32	110.01
447.51	105.32
447.69	67.88
447.88	168.52
448.06	140.43
448.25	138.09
448.43	168.52
448.62	149.79
448.80	149.79
448.99	95.96
449.17	98.30
449.36	161.50
449.54	138.09
449.73	149.79
449.91	133.41
450.10	156.82
450.28	124.05
450.46	133.41
450.65	105.32
450.83	88.94
451.02	173.20
451.20	177.88
451.39	145.11
451.57	65.54
451.76	163.84
451.94	149.79
452.13	121.71
452.31	114.69
452.49	161.50
452.68	196.60
452.86	95.96
453.05	133.41
453.23	168.52
453.42	60.85
453.60	102.98
453.78	77.24
453.97	112.35
454.15	105.32
454.34	93.62
454.52	140.43
454.70	135.75
454.89	133.41
455.07	79.58
455.26	201.29
455.44	140.43
455.62	117.03
455.81	149.79
455.99	112.35
456.17	166.18
456.36	105.32
456.54	180.22
456.73	149.79
456.91	149.79
457.09	152.13
457.28	173.20
457.46	72.56
457.64	114.69
457.83	236.39
458.01	166.18
458.19	175.54
458.38	126.39
458.56	149.79
458.74	77.24
458.93	173.20
459.11	102.98
459.29	67.88
459.48	229.37
459.66	147.45
459.84	227.03
460.03	290.23
460.21	112.35
460.39	117.03
460.57	175.54
460.76	175.54
460.94	117.03
461.12	168.52
461.31	189.58
461.49	170.86
461.67	105.32
461.85	128.73
462.04	128.73
462.22	552.37
462.40	189.58
462.59	198.95
462.77	145.11
462.95	114.69
463.13	91.28
463.32	135.75
463.50	161.50
463.68	145.11
463.86	177.88
464.05	88.94
464.23	121.71
464.41	163.84
464.59	117.03
464.78	166.18
464.96	77.24
465.14	98.30
465.32	65.54
465.50	203.63
465.69	154.48
465.87	100.64
466.05	124.05
466.23	114.69
466.41	142.77
466.60	100.64
466.78	142.77
466.96	175.54
467.14	56.17
467.32	121.71
467.51	149.79
467.69	212.99
467.87	147.45
468.05	180.22
468.23	250.44
468.41	145.11
468.60	145.11
468.78	107.66
468.96	149.79
469.14	159.16
469.32	156.82
469.50	159.16
469.69	191.92
469.87	65.54
470.05	77.24
470.23	124.05
470.41	81.92
470.59	84.26
470.77	98.30
470.95	135.75
471.14	208.31
471.32	154.48
471.50	210.65
471.68	159.16
471.86	215.33
472.04	187.24
472.22	147.45
472.40	149.79
472.58	86.60
472.77	156.82
472.95	135.75
473.13	177.88
473.31	156.82
473.49	124.05
473.67	110.01
473.85	149.79
474.03	177.88
474.21	135.75
474.39	88.94
474.57	140.43
474.75	173.20
474.93	133.41
475.12	117.03
475.30	159.16
475.48	126.39
475.66	126.39
475.84	135.75
476.02	208.31
476.20	166.18
476.38	145.11
476.56	175.54
476.74	145.11
476.92	110.01
477.10	201.29
477.28	126.39
477.46	196.60
477.64	128.73
477.82	117.03
478.00	191.92
478.18	152.13
478.36	217.67
478.54	149.79
478.72	140.43
478.90	77.24
479.08	138.09
479.26	117.03
479.44	161.50
479.62	112.35
479.80	128.73
479.98	114.69
480.16	88.94
480.34	212.99
480.52	95.96
480.70	102.98
480.88	98.30
481.06	112.35
481.24	161.50
481.41	77.24
481.59	208.31
481.77	128.73
481.95	152.13
482.13	149.79
482.31	210.65
482.49	86.60
482.67	121.71
482.85	121.71
483.03	173.20
483.21	142.77
483.39	119.37
483.57	138.09
483.74	177.88
483.92	149.79
484.10	112.35
484.28	170.86
484.46	198.95
484.64	149.79
484.82	117.03
485.00	126.39
485.18	222.35
485.35	88.94
485.53	161.50
485.71	138.09
485.89	196.60
486.07	131.07
486.25	222.35
486.43	124.05
486.61	135.75
486.78	142.77
486.96	102.98
487.14	107.66
487.32	112.35
487.50	154.48
487.68	173.20
487.85	205.97
488.03	152.13
488.21	119.37
488.39	84.26
488.57	166.18
488.75	166.18
488.92	290.23
489.10	124.05
489.28	170.86
489.46	74.90
489.64	121.71
489.81	149.79
489.99	152.13
490.17	175.54
490.35	194.26
490.53	156.82
490.70	145.11
490.88	135.75
491.06	138.09
491.24	189.58
491.41	154.48
491.59	175.54
491.77	77.24
491.95	114.69
492.13	135.75
492.30	147.45
492.48	184.90
492.66	131.07
492.84	154.48
493.01	147.45
493.19	147.45
493.37	177.88
493.54	166.18
493.72	126.39
493.90	126.39
494.08	138.09
494.25	156.82
494.43	112.35
494.61	84.26
494.79	102.98
494.96	105.32
495.14	138.09
495.32	152.13
495.49	133.41
495.67	177.88
495.85	117.03
496.02	128.73
496.20	114.69
496.38	145.11
496.55	138.09
496.73	166.18
496.91	198.95
497.09	126.39
497.26	100.64
497.44	159.16
497.62	102.98
497.79	105.32
497.97	107.66
498.14	126.39
498.32	208.31
498.50	128.73
498.67	121.71
498.85	166.18
499.03	91.28
499.20	105.32
499.38	177.88
499.56	105.32
499.73	170.86
499.91	156.82
500.08	149.79
500.26	124.05
500.44	131.07
500.61	46.81
500.79	77.24
500.97	145.11
501.14	229.37
501.32	168.52
501.49	201.29
501.67	124.05
501.84	124.05
502.02	112.35
502.20	194.26
502.37	177.88
502.55	159.16
502.72	135.75
502.90	222.35
503.07	212.99
503.25	117.03
503.43	168.52
503.60	128.73
503.78	100.64
503.95	152.13
504.13	187.24
504.30	147.45
504.48	142.77
504.65	182.56
504.83	163.84
505.01	156.82
505.18	208.31
505.36	93.62
505.53	140.43
505.71	142.77
505.88	205.97
506.06	173.20
506.23	156.82
506.41	131.07
506.58	145.11
506.76	168.52
506.93	121.71
507.11	168.52
507.28	166.18
507.46	177.88
507.63	128.73
507.81	119.37
507.98	135.75
508.16	163.84
508.33	140.43
508.50	84.26
508.68	126.39
508.85	119.37
509.03	65.54
509.20	135.75
509.38	81.92
509.55	203.63
509.73	222.35
509.90	187.24
510.08	149.79
510.25	128.73
510.42	91.28
510.60	166.18
510.77	126.39
510.95	156.82
511.12	88.94
511.30	201.29
511.47	117.03
511.64	191.92
511.82	175.54
511.99	161.50
512.17	168.52
512.34	107.66
512.51	138.09
512.69	124.05
512.86	175.54
513.04	145.11
513.21	119.37
513.38	84.26
513.56	74.90
513.73	156.82
513.90	117.03
514.08	131.07
514.25	175.54
514.43	117.03
514.60	149.79
514.77	147.45
514.95	168.52
515.12	147.45
515.29	194.26
515.47	142.77
515.64	182.56
515.81	135.75
515.99	138.09
516.16	110.01
516.33	135.75
516.51	121.71
516.68	147.45
516.85	140.43
517.03	166.18
517.20	170.86
517.37	65.54
517.54	91.28
517.72	182.56
517.89	56.17
518.06	119.37
518.24	224.69
518.41	133.41
518.58	117.03
518.75	166.18
518.93	91.28
519.10	135.75
519.27	95.96
519.45	175.54
519.62	119.37
519.79	170.86
519.96	177.88
520.14	128.73
520.31	163.84
520.48	140.43
520.65	98.30
520.83	131.07
521.00	159.16
521.17	163.84
521.34	135.75
521.52	119.37
521.69	175.54
521.86	175.54
522.03	180.22
522.20	159.16
522.38	81.92
522.55	126.39
522.72	114.69
522.89	184.90
523.07	161.50
523.24	91.28
523.41	135.75
523.58	163.84
523.75	112.35
523.92	222.35
524.10	194.26
524.27	191.92
524.44	14.04
524.61	102.98
524.78	124.05
524.96	100.64
525.13	105.32
525.30	152.13
525.47	173.20
525.64	154.48
525.81	135.75
525.98	173.20
526.16	222.35
526.33	133.41
526.50	114.69
526.67	67.88
526.84	119.37
527.01	166.18
527.18	205.97
527.36	189.58
527.53	140.43
527.70	110.01
527.87	168.52
528.04	191.92
528.21	74.90
528.38	142.77
528.55	208.31
528.72	208.31
528.89	224.69
529.07	84.26
529.24	119.37
529.41	180.22
529.58	145.11
529.75	110.01
529.92	154.48
530.09	175.54
530.26	142.77
530.43	142.77
530.60	93.62
530.77	220.01
530.94	163.84
531.11	117.03
531.28	142.77
531.46	166.18
531.63	198.95
531.80	140.43
531.97	124.05
532.14	140.43
532.31	224.69
532.48	156.82
532.65	191.92
532.82	287.89
532.99	208.31
533.16	105.32
533.33	163.84
533.50	131.07
533.67	212.99
533.84	297.25
534.01	222.35
534.18	180.22
534.35	198.95
534.52	177.88
534.69	241.08
534.86	156.82
535.03	124.05
535.20	166.18
535.37	119.37
535.54	168.52
535.71	166.18
535.88	198.95
536.05	126.39
536.22	145.11
536.38	170.86
536.55	100.64
536.72	145.11
536.89	168.52
537.06	138.09
537.23	128.73
537.40	95.96
537.57	149.79
537.74	163.84
537.91	142.77
538.08	105.32
538.25	156.82
538.42	168.52
538.59	119.37
538.75	173.20
538.92	154.48
539.09	95.96
539.26	194.26
539.43	437.68
539.60	777.06
539.77	992.39
539.94	835.57
540.11	404.91
540.28	299.59
540.44	177.88
540.61	203.63
540.78	128.73
540.95	63.19
541.12	135.75
541.29	149.79
541.46	142.77
541.62	133.41
541.79	114.69
541.96	119.37
542.13	117.03
542.30	86.60
542.47	154.48
542.63	208.31
542.80	154.48
542.97	110.01
543.14	128.73
543.31	175.54
543.48	128.73
543.64	126.39
543.81	189.58
543.98	154.48
544.15	46.81
544.32	107.66
544.48	107.66
544.65	128.73
544.82	121.71
544.99	124.05
545.16	102.98
545.32	93.62
545.49	95.96
545.66	142.77
545.83	182.56
546.00	95.96
546.16	100.64
546.33	102.98
546.50	98.30
546.67	196.60
546.83	154.48
547.00	173.20
547.17	100.64
547.34	168.52
547.50	100.64
547.67	147.45
547.84	140.43
548.00	140.43
548.17	65.54
548.34	124.05
548.51	152.13
548.67	98.30
548.84	182.56
549.01	177.88
549.18	156.82
549.34	119.37
549.51	145.11
549.68	124.05
549.84	95.96
550.01	119.37
550.18	212.99
550.34	241.08
550.51	114.69
550.68	170.86
550.84	159.16
551.01	189.58
551.18	135.75
551.34	203.63
551.51	161.50
551.68	138.09
551.84	140.43
552.01	117.03
552.18	114.69
552.34	173.20
552.51	201.29
552.68	217.67
552.84	194.26
553.01	102.98
553.18	227.03
553.34	60.85
553.51	56.17
553.67	234.05
553.84	177.88
554.01	177.88
554.17	189.58
554.34	142.77
554.51	128.73
554.67	236.39
554.84	194.26
555.00	128.73
555.17	124.05
555.33	198.95
555.50	117.03
555.67	67.88
555.83	128.73
556.00	119.37
556.16	294.91
556.33	220.01
556.50	128.73
556.66	152.13
556.83	133.41
556.99	114.69
557.16	74.90
557.32	208.31
557.49	133.41
557.65	142.77
557.82	196.60
557.98	175.54
558.15	175.54
558.32	140.43
558.48	131.07
558.65	182.56
558.81	184.90
558.98	147.45
559.14	166.18
559.31	142.77
559.47	138.09
559.64	74.90
559.80	173.20
559.97	140.43
560.13	117.03
560.30	168.52
560.46	128.73
560.63	147.45
560.79	138.09
560.96	121.71
561.12	131.07
561.29	198.95
561.45	131.07
561.61	203.63
561.78	208.31
561.94	121.71
562.11	140.43
562.27	163.84
562.44	201.29
562.60	105.32
562.77	194.26
562.93	198.95
563.10	170.86
563.26	100.64
563.42	187.24
563.59	168.52
563.75	114.69
563.92	205.97
564.08	184.90
564.24	177.88
564.41	156.82
564.57	110.01
564.74	138.09
564.90	170.86
565.07	133.41
565.23	166.18
565.39	156.82
565.56	102.98
565.72	98.30
565.88	149.79
566.05	248.10
566.21	156.82
566.38	124.05
566.54	138.09
566.70	173.20
566.87	131.07
567.03	161.50
567.19	98.30
567.36	133.41
567.52	138.09
567.68	100.64
567.85	138.09
568.01	182.56
568.17	208.31
568.34	154.48
568.50	238.73
568.66	128.73
568.83	236.39
568.99	170.86
569.15	175.54
569.32	203.63
569.48	138.09
569.64	149.79
569.81	110.01
569.97	114.69
570.13	175.54
570.30	161.50
570.46	91.28
570.62	147.45
570.78	145.11
570.95	152.13
571.11	133.41
571.27	210.65
571.43	145.11
571.60	173.20
571.76	119.37
571.92	217.67
572.09	166.18
572.25	152.13
572.41	135.75
572.57	86.60
572.74	238.73
572.90	138.09
573.06	131.07
573.22	175.54
573.38	159.16
573.55	138.09
573.71	191.92
573.87	152.13
574.03	203.63
574.20	98.30
574.36	212.99
574.52	222.35
574.68	168.52
574.84	222.35
575.01	149.79
575.17	201.29
575.33	128.73
575.49	248.10
575.65	168.52
575.82	243.42
575.98	367.46
576.14	428.32
576.30	362.78
576.46	257.46
576.62	189.58
576.79	212.99
576.95	175.54
577.11	163.84
577.27	121.71
577.43	166.18
577.59	182.56
577.75	145.11
577.92	135.75
578.08	100.64
578.24	102.98
578.40	191.92
578.56	191.92
578.72	149.79
578.88	201.29
579.04	170.86
579.21	203.63
579.37	224.69
579.53	198.95
579.69	227.03
579.85	173.20
580.01	245.76
580.17	210.65
580.33	177.88
580.49	229.37
580.65	243.42
580.82	173.20
580.98	187.24
581.14	187.24
581.30	248.10
581.46	320.65
581.62	428.32
581.78	353.42
581.94	383.85
582.10	264.48
582.26	297.25
582.42	187.24
582.58	248.10
582.74	264.48
582.90	262.14
583.06	250.44
583.22	231.71
583.38	255.12
583.54	365.12
583.70	505.56
583.86	407.25
584.02	407.25
584.18	645.99
584.34	1270.91
584.50	8697.43
584.66	30202.27
584.82	48975.71
584.98	49808.94
585.14	31892.14
585.30	17160.81
585.46	8205.92
585.62	3286.11
585.78	1369.21
585.94	774.72
586.10	578.11
586.26	456.40
586.42	372.15
586.58	367.46
586.74	381.51
586.90	292.57
587.06	294.91
587.22	308.95
587.38	531.30
587.54	1593.90
587.70	3218.24
587.86	4014.02
588.02	3014.61
588.18	1720.29
588.34	1116.44
588.49	552.37
588.65	330.02
588.81	248.10
588.97	271.50
589.13	191.92
589.29	173.20
589.45	318.31
589.61	234.05
589.77	269.16
589.93	259.80
590.08	248.10
590.24	259.80
590.40	318.31
590.56	252.78
590.72	208.31
590.88	175.54
591.04	196.60
591.20	203.63
591.35	227.03
591.51	201.29
591.67	173.20
591.83	198.95
591.99	196.60
592.15	217.67
592.31	234.05
592.46	210.65
592.62	306.61
592.78	163.84
592.94	182.56
593.10	163.84
593.26	196.60
593.41	271.50
593.57	320.65
593.73	1404.32
593.89	3873.59
594.05	6375.62
594.20	6328.81
594.36	4191.90
594.52	2457.56
594.68	1322.40
594.84	660.03
594.99	402.57
595.15	304.27
595.31	262.14
595.47	264.48
595.62	203.63
595.78	250.44
595.94	220.01
596.10	259.80
596.25	238.73
596.41	255.12
596.57	271.50
596.73	250.44
596.88	737.27
597.04	1352.83
597.20	1565.82
597.36	1240.48
597.51	931.53
597.67	535.98
597.83	320.65
597.99	182.56
598.14	170.86
598.30	198.95
598.46	212.99
598.61	255.12
598.77	255.12
598.93	191.92
599.09	156.82
599.24	182.56
599.40	273.84
599.56	166.18
599.71	177.88
599.87	154.48
600.03	107.66
600.18	93.62
600.34	154.48
600.50	154.48
600.65	126.39
600.81	161.50
600.97	105.32
601.12	168.52
601.28	205.97
601.44	180.22
601.59	152.13
601.75	212.99
601.91	184.90
602.06	229.37
602.22	447.04
602.37	997.07
602.53	1554.12
602.69	1603.27
602.84	1158.57
603.00	744.29
603.16	561.73
603.31	362.78
603.47	283.20
603.62	131.07
603.78	177.88
603.94	269.16
604.09	236.39
604.25	121.71
604.40	227.03
604.56	126.39
604.71	154.48
604.87	161.50
605.03	121.71
605.18	224.69
605.34	194.26
605.49	212.99
605.65	184.90
605.80	105.32
605.96	126.39
606.12	224.69
606.27	227.03
606.43	238.73
606.58	587.47
606.74	2083.08
606.89	4044.45
607.05	5336.42
607.20	4327.65
607.36	2925.67
607.51	1842.00
607.67	1067.28
607.82	631.94
607.98	367.46
608.13	283.20
608.29	292.57
608.44	283.20
608.60	252.78
608.75	866.00
608.91	3255.69
609.06	6782.87
609.22	9202.99
609.37	7482.69
609.53	5343.44
609.68	3115.25
609.84	1783.49
609.99	990.05
610.15	425.98
610.30	346.40
610.46	306.61
610.61	170.86
610.76	231.71
610.92	236.39
611.07	248.10
611.23	301.93
611.38	208.31
611.54	184.90
611.69	149.79
611.84	170.86
612.00	170.86
612.15	322.99
612.31	404.91
612.46	400.23
612.62	369.80
612.77	280.86
612.92	234.05
613.08	332.36
613.23	344.06
613.39	753.65
613.54	3463.99
613.69	9076.60
613.85	14120.45
614.00	13774.05
614.15	9827.91
614.31	6410.73
614.46	3988.27
614.62	1940.30
614.77	966.64
614.92	461.09
615.08	346.40
615.23	292.57
615.38	255.12
615.54	641.31
615.69	1947.33
615.84	3148.02
616.00	3777.62
616.15	3005.25
616.30	2043.29
616.46	1341.13
616.61	821.53
616.76	444.70
616.92	243.42
617.07	290.23
617.22	194.26
617.37	175.54
617.53	131.07
617.68	180.22
617.83	131.07
617.99	271.50
618.14	238.73
618.29	241.08
618.45	191.92
618.60	184.90
618.75	154.48
618.90	203.63
619.06	173.20
619.21	224.69
619.36	234.05
619.51	51.49
619.67	107.66
619.82	163.84
619.97	147.45
620.12	187.24
620.28	215.33
620.43	191.92
620.58	194.26
620.73	257.46
620.89	369.80
621.04	1074.31
621.19	1856.04
621.34	2228.19
621.49	1767.10
621.65	1205.38
621.80	931.53
621.95	592.16
622.10	353.42
622.25	177.88
622.41	149.79
622.56	166.18
622.71	180.22
622.86	168.52
623.01	241.08
623.16	252.78
623.32	222.35
623.47	217.67
623.62	147.45
623.77	154.48
623.92	173.20
624.07	208.31
624.23	175.54
624.38	112.35
624.53	147.45
624.68	187.24
624.83	205.97
624.98	191.92
625.13	196.60
625.29	161.50
625.44	191.92
625.59	210.65
625.74	500.87
625.89	2113.50
626.04	4617.88
626.19	7169.06
626.34	7262.68
626.49	5509.62
626.65	3541.23
626.80	2221.17
626.95	1303.68
627.10	669.39
627.25	339.38
627.40	243.42
627.55	224.69
627.70	210.65
627.85	177.88
628.00	149.79
628.15	152.13
628.30	184.90
628.45	79.58
628.60	131.07
628.76	156.82
628.91	140.43
629.06	180.22
629.21	159.16
629.36	154.48
629.51	243.42
629.66	430.66
629.81	908.13
629.96	1678.16
630.11	1893.49
630.26	1668.80
630.41	1163.25
630.56	830.89
630.71	540.66
630.86	341.72
631.01	175.54
631.16	159.16
631.31	255.12
631.46	208.31
631.61	198.95
631.76	131.07
631.91	154.48
632.06	189.58
632.21	173.20
632.36	198.95
632.51	327.68
632.66	1200.69
632.81	2532.46
632.96	4292.54
633.10	4798.10
633.25	3892.31
633.40	2637.78
633.55	1741.36
633.70	1102.39
633.85	580.45
634.00	306.61
634.15	271.50
634.30	269.16
634.45	161.50
634.60	126.39
634.75	149.79
634.90	201.29
635.05	227.03
635.19	220.01
635.34	210.65
635.49	222.35
635.64	170.86
635.79	138.09
635.94	189.58
636.09	210.65
636.24	234.05
636.39	189.58
636.53	203.63
636.68	236.39
636.83	194.26
636.98	161.50
637.13	259.80
637.28	297.25
637.43	795.78
637.57	2958.44
637.72	6099.44
637.87	8774.67
638.02	8421.25
638.17	6310.08
638.32	4191.90
638.46	2822.69
638.61	1605.61
638.76	884.72
638.91	500.87
639.06	337.04
639.20	411.93
639.35	1071.97
639.50	4348.72
639.65	9373.85
639.80	13912.14
639.94	13034.44
640.09	9760.03
640.24	6558.18
640.39	4409.57
640.54	2464.58
640.68	1249.85
640.83	685.78
640.98	395.55
641.13	243.42
641.27	318.31
641.42	276.18
641.57	236.39
641.72	212.99
641.86	248.10
642.01	168.52
642.16	166.18
642.31	170.86
642.45	224.69
642.60	257.46
642.75	177.88
642.90	166.18
643.04	128.73
643.19	53.83
643.34	175.54
643.48	177.88
643.63	203.63
643.78	182.56
643.93	189.58
644.07	187.24
644.22	152.13
644.37	107.66
644.51	187.24
644.66	173.20
644.81	147.45
644.95	208.31
645.10	159.16
645.25	170.86
645.39	149.79
645.54	77.24
645.69	292.57
645.83	166.18
645.98	212.99
646.13	156.82
646.27	173.20
646.42	196.60
646.57	187.24
646.71	133.41
646.86	180.22
647.00	257.46
647.15	119.37
647.30	191.92
647.44	114.69
647.59	147.45
647.74	126.39
647.88	142.77
648.03	170.86
648.17	105.32
648.32	128.73
648.47	234.05
648.61	208.31
648.76	88.94
648.90	173.20
649.05	145.11
649.20	152.13
649.34	196.60
649.49	191.92
649.63	290.23
649.78	444.70
649.92	1767.10
650.07	4145.09
650.21	6717.34
650.36	7138.63
650.51	5469.83
650.65	3857.20
650.80	2569.91
650.94	1451.13
651.09	788.76
651.23	325.33
651.38	304.27
651.52	194.26
651.67	210.65
651.81	273.84
651.96	236.39
652.10	170.86
652.25	170.86
652.39	170.86
652.54	578.11
652.68	1441.77
652.83	2244.57
652.97	2668.21
653.12	2134.57
653.26	1481.56
653.41	1032.18
653.55	695.14
653.70	407.25
653.84	234.05
653.99	234.05
654.13	203.63
654.27	163.84
654.42	196.60
654.56	149.79
654.71	175.54
654.85	168.52
655.00	140.43
655.14	117.03
655.29	189.58
655.43	184.90
655.57	215.33
655.72	205.97
655.86	128.73
656.01	173.20
656.15	93.62
656.30	236.39
656.44	154.48
656.58	159.16
656.73	194.26
656.87	107.66
657.01	145.11
657.16	173.20
657.30	177.88
657.45	222.35
657.59	147.45
657.73	166.18
657.88	170.86
658.02	182.56
658.16	100.64
658.31	138.09
658.45	119.37
658.60	198.95
658.74	238.73
658.88	133.41
659.03	269.16
659.17	730.25
659.31	2003.50
659.46	3218.24
659.60	3824.44
659.74	3131.64
659.89	2260.96
660.03	1474.54
660.17	903.45
660.32	528.96
660.46	325.33
660.60	220.01
660.74	238.73
660.89	140.43
661.03	88.94
661.17	114.69
661.32	173.20
661.46	154.48
661.60	159.16
661.74	187.24
661.89	280.86
662.03	170.86
662.17	154.48
662.31	159.16
662.46	191.92
662.60	177.88
662.74	203.63
662.88	156.82
663.03	149.79
663.17	177.88
663.31	128.73
663.45	135.75
663.60	126.39
663.74	154.48
663.88	187.24
664.02	203.63
664.17	170.86
664.31	154.48
664.45	182.56
664.59	135.75
664.73	170.86
664.88	217.67
665.02	166.18
665.16	184.90
665.30	133.41
665.44	154.48
665.59	119.37
665.73	203.63
665.87	42.13
666.01	173.20
666.15	161.50
666.29	100.64
666.44	187.24
666.58	189.58
666.72	191.92
666.86	224.69
667.00	400.23
667.14	1521.35
667.28	3693.37
667.43	5851.34
667.57	6506.69
667.71	5146.84
667.85	3669.96
667.99	2181.38
668.13	1306.02
668.27	772.38
668.41	503.22
668.56	304.27
668.70	294.91
668.84	201.29
668.98	290.23
669.12	205.97
669.26	180.22
669.40	269.16
669.54	266.82
669.68	166.18
669.82	222.35
669.96	194.26
670.10	154.48
670.25	147.45
670.39	102.98
670.53	121.71
670.67	175.54
670.81	203.63
670.95	564.07
671.09	1495.60
671.23	2874.18
671.37	4044.45
671.51	4007.00
671.65	2857.79
671.79	1806.89
671.93	1090.69
672.07	753.65
672.21	521.94
672.35	306.61
672.49	320.65
672.63	257.46
672.77	156.82
672.91	154.48
673.05	201.29
673.19	168.52
673.33	161.50
673.47	212.99
673.61	147.45
673.75	128.73
673.89	194.26
674.03	173.20
674.17	121.71
674.31	205.97
674.45	170.86
674.59	119.37
674.73	217.67
674.87	227.03
675.01	241.08
675.15	210.65
675.29	168.52
675.43	184.90
675.56	205.97
675.70	224.69
675.84	194.26
675.98	170.86
676.12	100.64
676.26	135.75
676.40	145.11
676.54	173.20
676.68	182.56
676.82	222.35
676.96	135.75
677.10	210.65
677.23	107.66
677.37	98.30
677.51	203.63
677.65	220.01
677.79	184.90
677.93	241.08
678.07	189.58
678.21	170.86
678.34	159.16
678.48	110.01
678.62	231.71
678.76	140.43
678.90	215.33
679.04	194.26
679.18	168.52
679.31	152.13
679.45	135.75
679.59	156.82
679.73	133.41
679.87	93.62
680.00	114.69
680.14	147.45
680.28	212.99
680.42	88.94
680.56	173.20
680.70	98.30
680.83	147.45
680.97	166.18
681.11	81.92
681.25	166.18
681.39	138.09
681.52	191.92
681.66	217.67
681.80	159.16
681.94	77.24
682.07	170.86
682.21	133.41
682.35	168.52
682.49	170.86
682.62	194.26
682.76	159.16
682.90	110.01
683.04	128.73
683.17	175.54
683.31	131.07
683.45	180.22
683.59	177.88
683.72	147.45
683.86	124.05
684.00	95.96
684.13	173.20
684.27	138.09
684.41	180.22
684.55	173.20
684.68	142.77
684.82	133.41
684.96	201.29
685.09	156.82
685.23	102.98
685.37	121.71
685.50	128.73
685.64	121.71
685.78	84.26
685.91	184.90
686.05	187.24
686.19	149.79
686.32	173.20
686.46	159.16
686.60	163.84
686.73	290.23
686.87	220.01
687.01	184.90
687.14	166.18
687.28	154.48
687.42	156.82
687.55	84.26
687.69	191.92
687.82	168.52
687.96	58.51
688.10	154.48
688.23	152.13
688.37	194.26
688.50	238.73
688.64	170.86
688.78	135.75
688.91	145.11
689.05	175.54
689.18	173.20
689.32	114.69
689.46	227.03
689.59	212.99
689.73	203.63
689.86	145.11
690.00	63.19
690.13	166.18
690.27	149.79
690.41	163.84
690.54	191.92
690.68	170.86
690.81	220.01
690.95	182.56
691.08	135.75
691.22	184.90
691.35	107.66
691.49	154.48
691.62	163.84
691.76	131.07
691.89	187.24
692.03	128.73
692.16	191.92
692.30	566.41
692.43	1479.22
692.57	2333.51
692.70	2832.05
692.84	2448.20
692.97	1799.87
693.11	1409.00
693.24	976.00
693.38	690.46
693.51	468.11
693.65	358.10
693.78	245.76
693.92	259.80
694.05	238.73
694.19	147.45
694.32	194.26
694.45	114.69
694.59	114.69
694.72	124.05
694.86	117.03
694.99	173.20
695.13	205.97
695.26	201.29
695.39	110.01
695.53	212.99
695.66	81.92
695.80	140.43
695.93	161.50
696.07	245.76
696.20	306.61
696.33	365.12
696.47	297.25
696.60	259.80
696.73	264.48
696.87	257.46
697.00	231.71
697.14	121.71
697.27	182.56
697.40	212.99
697.54	201.29
697.67	110.01
697.80	191.92
697.94	149.79
698.07	215.33
698.21	110.01
698.34	145.11
698.47	131.07
698.61	156.82
698.74	126.39
698.87	198.95
699.01	142.77
699.14	95.96
699.27	145.11
699.40	187.24
699.54	119.37
699.67	138.09
699.80	121.71
699.94	121.71
700.07	175.54
700.20	163.84
700.34	205.97
700.47	166.18
700.60	180.22
700.73	131.07
700.87	194.26
701.00	147.45
701.13	154.48
701.26	159.16
701.40	198.95
701.53	173.20
701.66	187.24
701.79	201.29
701.93	243.42
702.06	358.10
702.19	269.16
702.32	306.61
702.46	318.31
702.59	681.10
702.72	1874.77
702.85	3424.20
702.99	5013.43
703.12	5203.01
703.25	4353.40
703.38	3662.94
703.51	2944.39
703.65	2045.63
703.78	1416.02
703.91	919.83
704.04	561.73
704.17	402.57
704.31	269.16
704.44	114.69
704.57	194.26
704.70	227.03
704.83	175.54
704.96	231.71
705.10	198.95
705.23	175.54
>>>>>End Processed Spectral Data<<<<<
