SpectraSuite Data File
++++++++++++++++++++++++++++++++++++
Date: Fri Oct 04 12:13:30 GMT-05:00 2013
User: price-jones
Dark Spectrum Present: No
Reference Spectrum Present: No
Number of Sampled Component Spectra: 1
Spectrometers: USB2+H05261
Integration Time (usec): 10000 (USB2+H05261)
Spectra Averaged: 1 (USB2+H05261)
Boxcar Smoothing: 0 (USB2+H05261)
Correct for Electrical Dark: No (USB2+H05261)
Strobe/Lamp Enabled: No (USB2+H05261)
Correct for Detector Non-linearity: No (USB2+H05261)
Correct for Stray Light: No (USB2+H05261)
Number of Pixels in Processed Spectrum: 2048
>>>>>Begin Processed Spectral Data<<<<<
365.73	28.09
365.92	28.09
366.12	28.09
366.32	0.00
366.52	0.00
366.72	0.00
366.91	0.00
367.11	0.00
367.31	0.00
367.51	0.00
367.70	0.00
367.90	0.00
368.10	0.00
368.30	0.00
368.49	0.00
368.69	0.00
368.89	0.00
369.09	0.00
369.28	0.00
369.48	0.00
369.68	0.00
369.87	0.00
370.07	0.00
370.27	0.00
370.47	0.00
370.66	0.00
370.86	0.00
371.06	0.00
371.25	0.00
371.45	0.00
371.65	0.00
371.84	0.00
372.04	42.13
372.24	14.04
372.44	0.00
372.63	72.56
372.83	0.00
373.03	42.13
373.22	0.00
373.42	91.28
373.62	0.00
373.81	28.09
374.01	0.00
374.21	0.00
374.40	9.36
374.60	7.02
374.79	0.00
374.99	18.72
375.19	53.83
375.38	42.13
375.58	0.00
375.78	2.34
375.97	74.90
376.17	53.83
376.37	95.96
376.56	2.34
376.76	14.04
376.95	49.15
377.15	30.43
377.35	46.81
377.54	14.04
377.74	0.00
377.93	18.72
378.13	0.00
378.33	67.88
378.52	9.36
378.72	4.68
378.91	7.02
379.11	74.90
379.31	65.54
379.50	9.36
379.70	21.06
379.89	0.00
380.09	32.77
380.28	0.00
380.48	4.68
380.68	63.19
380.87	0.00
381.07	74.90
381.26	7.02
381.46	0.00
381.65	0.00
381.85	0.00
382.04	0.00
382.24	0.00
382.43	30.43
382.63	14.04
382.83	44.47
383.02	9.36
383.22	60.85
383.41	18.72
383.61	25.75
383.80	39.79
384.00	0.00
384.19	44.47
384.39	0.00
384.58	37.45
384.78	51.49
384.97	16.38
385.17	35.11
385.36	9.36
385.56	16.38
385.75	0.00
385.95	70.22
386.14	46.81
386.34	21.06
386.53	88.94
386.72	39.79
386.92	0.00
387.11	67.88
387.31	2.34
387.50	72.56
387.70	9.36
387.89	0.00
388.09	0.00
388.28	49.15
388.48	2.34
388.67	4.68
388.86	25.75
389.06	18.72
389.25	0.00
389.45	9.36
389.64	0.00
389.84	0.00
390.03	2.34
390.22	28.09
390.42	46.81
390.61	46.81
390.81	107.66
391.00	0.00
391.19	35.11
391.39	0.00
391.58	0.00
391.78	0.00
391.97	53.83
392.16	77.24
392.36	37.45
392.55	14.04
392.75	0.00
392.94	14.04
393.13	0.00
393.33	7.02
393.52	70.22
393.71	0.00
393.91	65.54
394.10	23.41
394.29	44.47
394.49	0.00
394.68	35.11
394.88	0.00
395.07	14.04
395.26	0.00
395.46	11.70
395.65	86.60
395.84	18.72
396.04	11.70
396.23	21.06
396.42	32.77
396.62	0.00
396.81	42.13
397.00	2.34
397.19	32.77
397.39	2.34
397.58	18.72
397.77	0.00
397.97	32.77
398.16	2.34
398.35	0.00
398.55	0.00
398.74	18.72
398.93	0.00
399.12	18.72
399.32	0.00
399.51	58.51
399.70	37.45
399.90	0.00
400.09	65.54
400.28	63.19
400.47	84.26
400.67	0.00
400.86	46.81
401.05	11.70
401.24	32.77
401.44	49.15
401.63	98.30
401.82	0.00
402.01	16.38
402.21	18.72
402.40	53.83
402.59	93.62
402.78	21.06
402.97	0.00
403.17	2.34
403.36	9.36
403.55	14.04
403.74	0.00
403.93	23.41
404.13	60.85
404.32	84.26
404.51	86.60
404.70	67.88
404.89	74.90
405.09	23.41
405.28	46.81
405.47	0.00
405.66	0.00
405.85	0.00
406.05	39.79
406.24	46.81
406.43	44.47
406.62	58.51
406.81	0.00
407.00	46.81
407.20	63.19
407.39	9.36
407.58	56.17
407.77	4.68
407.96	46.81
408.15	95.96
408.34	0.00
408.54	16.38
408.73	23.41
408.92	0.00
409.11	60.85
409.30	98.30
409.49	14.04
409.68	0.00
409.87	23.41
410.07	49.15
410.26	84.26
410.45	18.72
410.64	44.47
410.83	42.13
411.02	58.51
411.21	21.06
411.40	46.81
411.59	37.45
411.78	28.09
411.98	51.49
412.17	4.68
412.36	42.13
412.55	0.00
412.74	14.04
412.93	39.79
413.12	9.36
413.31	86.60
413.50	0.00
413.69	30.43
413.88	95.96
414.07	4.68
414.26	60.85
414.45	46.81
414.64	2.34
414.83	25.75
415.02	112.35
415.22	51.49
415.41	32.77
415.60	44.47
415.79	0.00
415.98	93.62
416.17	7.02
416.36	2.34
416.55	30.43
416.74	0.00
416.93	51.49
417.12	46.81
417.31	21.06
417.50	0.00
417.69	0.00
417.88	21.06
418.07	49.15
418.26	70.22
418.45	70.22
418.64	39.79
418.83	42.13
419.02	39.79
419.21	18.72
419.39	74.90
419.58	23.41
419.77	0.00
419.96	28.09
420.15	14.04
420.34	0.00
420.53	49.15
420.72	98.30
420.91	0.00
421.10	0.00
421.29	0.00
421.48	21.06
421.67	0.00
421.86	35.11
422.05	0.00
422.24	70.22
422.43	77.24
422.61	14.04
422.80	30.43
422.99	16.38
423.18	0.00
423.37	2.34
423.56	77.24
423.75	0.00
423.94	0.00
424.13	84.26
424.32	56.17
424.50	32.77
424.69	81.92
424.88	0.00
425.07	32.77
425.26	7.02
425.45	49.15
425.64	42.13
425.83	67.88
426.01	42.13
426.20	56.17
426.39	0.00
426.58	46.81
426.77	37.45
426.96	63.19
427.15	23.41
427.33	51.49
427.52	9.36
427.71	7.02
427.90	0.00
428.09	18.72
428.28	2.34
428.46	0.00
428.65	14.04
428.84	9.36
429.03	42.13
429.22	39.79
429.40	49.15
429.59	18.72
429.78	56.17
429.97	60.85
430.16	126.39
430.34	49.15
430.53	107.66
430.72	30.43
430.91	0.00
431.10	84.26
431.28	0.00
431.47	42.13
431.66	77.24
431.85	107.66
432.03	35.11
432.22	67.88
432.41	77.24
432.60	0.00
432.79	42.13
432.97	14.04
433.16	46.81
433.35	0.00
433.54	32.77
433.72	53.83
433.91	0.00
434.10	0.00
434.28	42.13
434.47	14.04
434.66	0.00
434.85	9.36
435.03	30.43
435.22	0.00
435.41	35.11
435.59	79.58
435.78	49.15
435.97	23.41
436.16	53.83
436.34	88.94
436.53	39.79
436.72	28.09
436.90	46.81
437.09	58.51
437.28	18.72
437.46	0.00
437.65	37.45
437.84	28.09
438.02	74.90
438.21	37.45
438.40	51.49
438.58	46.81
438.77	98.30
438.96	0.00
439.14	4.68
439.33	0.00
439.52	9.36
439.70	18.72
439.89	0.00
440.08	9.36
440.26	0.00
440.45	0.00
440.63	77.24
440.82	39.79
441.01	0.00
441.19	28.09
441.38	9.36
441.57	72.56
441.75	72.56
441.94	72.56
442.12	84.26
442.31	0.00
442.50	56.17
442.68	0.00
442.87	35.11
443.05	0.00
443.24	39.79
443.43	86.60
443.61	0.00
443.80	30.43
443.98	35.11
444.17	0.00
444.35	72.56
444.54	7.02
444.73	0.00
444.91	39.79
445.10	0.00
445.28	0.00
445.47	42.13
445.65	28.09
445.84	58.51
446.02	11.70
446.21	0.00
446.39	16.38
446.58	0.00
446.77	98.30
446.95	9.36
447.14	63.19
447.32	100.64
447.51	21.06
447.69	11.70
447.88	25.75
448.06	23.41
448.25	21.06
448.43	42.13
448.62	0.00
448.80	32.77
448.99	0.00
449.17	0.00
449.36	37.45
449.54	46.81
449.73	53.83
449.91	0.00
450.10	28.09
450.28	74.90
450.46	37.45
450.65	42.13
450.83	39.79
451.02	74.90
451.20	53.83
451.39	56.17
451.57	23.41
451.76	30.43
451.94	84.26
452.13	56.17
452.31	0.00
452.49	56.17
452.68	44.47
452.86	25.75
453.05	25.75
453.23	53.83
453.42	0.00
453.60	21.06
453.78	37.45
453.97	7.02
454.15	0.00
454.34	37.45
454.52	0.00
454.70	53.83
454.89	23.41
455.07	49.15
455.26	37.45
455.44	0.00
455.62	0.00
455.81	9.36
455.99	84.26
456.17	0.00
456.36	0.00
456.54	60.85
456.73	30.43
456.91	65.54
457.09	84.26
457.28	28.09
457.46	21.06
457.64	84.26
457.83	0.00
458.01	0.00
458.19	2.34
458.38	58.51
458.56	107.66
458.74	42.13
458.93	49.15
459.11	124.05
459.29	105.32
459.48	30.43
459.66	74.90
459.84	79.58
460.03	11.70
460.21	42.13
460.39	32.77
460.57	14.04
460.76	16.38
460.94	0.00
461.12	0.00
461.31	39.79
461.49	14.04
461.67	56.17
461.85	77.24
462.04	60.85
462.22	46.81
462.40	14.04
462.59	39.79
462.77	9.36
462.95	46.81
463.13	9.36
463.32	32.77
463.50	91.28
463.68	0.00
463.86	58.51
464.05	25.75
464.23	32.77
464.41	7.02
464.59	95.96
464.78	72.56
464.96	28.09
465.14	58.51
465.32	67.88
465.50	46.81
465.69	28.09
465.87	0.00
466.05	100.64
466.23	0.00
466.41	9.36
466.60	77.24
466.78	46.81
466.96	74.90
467.14	21.06
467.32	128.73
467.51	30.43
467.69	70.22
467.87	35.11
468.05	35.11
468.23	11.70
468.41	119.37
468.60	16.38
468.78	37.45
468.96	0.00
469.14	42.13
469.32	0.00
469.50	35.11
469.69	16.38
469.87	46.81
470.05	21.06
470.23	25.75
470.41	93.62
470.59	0.00
470.77	0.00
470.95	60.85
471.14	65.54
471.32	93.62
471.50	23.41
471.68	51.49
471.86	14.04
472.04	119.37
472.22	35.11
472.40	56.17
472.58	56.17
472.77	21.06
472.95	0.00
473.13	0.00
473.31	74.90
473.49	100.64
473.67	0.00
473.85	11.70
474.03	86.60
474.21	4.68
474.39	0.00
474.57	18.72
474.75	65.54
474.93	35.11
475.12	44.47
475.30	16.38
475.48	0.00
475.66	0.00
475.84	0.00
476.02	4.68
476.20	0.00
476.38	39.79
476.56	0.00
476.74	7.02
476.92	37.45
477.10	14.04
477.28	42.13
477.46	0.00
477.64	0.00
477.82	79.58
478.00	25.75
478.18	44.47
478.36	46.81
478.54	0.00
478.72	23.41
478.90	88.94
479.08	30.43
479.26	0.00
479.44	18.72
479.62	65.54
479.80	7.02
479.98	102.98
480.16	0.00
480.34	72.56
480.52	42.13
480.70	58.51
480.88	72.56
481.06	37.45
481.24	42.13
481.41	77.24
481.59	51.49
481.77	25.75
481.95	0.00
482.13	25.75
482.31	0.00
482.49	0.00
482.67	51.49
482.85	37.45
483.03	51.49
483.21	28.09
483.39	51.49
483.57	25.75
483.74	16.38
483.92	0.00
484.10	0.00
484.28	51.49
484.46	16.38
484.64	86.60
484.82	0.00
485.00	56.17
485.18	46.81
485.35	39.79
485.53	105.32
485.71	53.83
485.89	53.83
486.07	23.41
486.25	95.96
486.43	84.26
486.61	32.77
486.78	7.02
486.96	4.68
487.14	70.22
487.32	14.04
487.50	65.54
487.68	63.19
487.85	128.73
488.03	91.28
488.21	79.58
488.39	14.04
488.57	30.43
488.75	32.77
488.92	58.51
489.10	32.77
489.28	53.83
489.46	42.13
489.64	18.72
489.81	0.00
489.99	58.51
490.17	39.79
490.35	0.00
490.53	0.00
490.70	30.43
490.88	0.00
491.06	25.75
491.24	23.41
491.41	44.47
491.59	44.47
491.77	18.72
491.95	21.06
492.13	42.13
492.30	37.45
492.48	30.43
492.66	60.85
492.84	35.11
493.01	30.43
493.19	0.00
493.37	51.49
493.54	0.00
493.72	0.00
493.90	84.26
494.08	102.98
494.25	102.98
494.43	81.92
494.61	4.68
494.79	53.83
494.96	65.54
495.14	91.28
495.32	46.81
495.49	67.88
495.67	0.00
495.85	21.06
496.02	79.58
496.20	77.24
496.38	16.38
496.55	39.79
496.73	53.83
496.91	0.00
497.09	0.00
497.26	37.45
497.44	79.58
497.62	100.64
497.79	39.79
497.97	39.79
498.14	77.24
498.32	37.45
498.50	28.09
498.67	35.11
498.85	4.68
499.03	23.41
499.20	0.00
499.38	112.35
499.56	65.54
499.73	0.00
499.91	0.00
500.08	4.68
500.26	39.79
500.44	81.92
500.61	14.04
500.79	7.02
500.97	110.01
501.14	0.00
501.32	79.58
501.49	74.90
501.67	28.09
501.84	32.77
502.02	4.68
502.20	21.06
502.37	21.06
502.55	93.62
502.72	16.38
502.90	70.22
503.07	53.83
503.25	88.94
503.43	91.28
503.60	11.70
503.78	72.56
503.95	135.75
504.13	25.75
504.30	77.24
504.48	0.00
504.65	18.72
504.83	63.19
505.01	0.00
505.18	9.36
505.36	60.85
505.53	67.88
505.71	70.22
505.88	63.19
506.06	32.77
506.23	18.72
506.41	37.45
506.58	9.36
506.76	44.47
506.93	46.81
507.11	72.56
507.28	74.90
507.46	32.77
507.63	0.00
507.81	28.09
507.98	60.85
508.16	9.36
508.33	0.00
508.50	86.60
508.68	84.26
508.85	0.00
509.03	0.00
509.20	32.77
509.38	53.83
509.55	46.81
509.73	7.02
509.90	67.88
510.08	28.09
510.25	42.13
510.42	39.79
510.60	91.28
510.77	56.17
510.95	67.88
511.12	14.04
511.30	93.62
511.47	4.68
511.64	84.26
511.82	0.00
511.99	39.79
512.17	37.45
512.34	88.94
512.51	28.09
512.69	51.49
512.86	42.13
513.04	56.17
513.21	9.36
513.38	88.94
513.56	79.58
513.73	51.49
513.90	70.22
514.08	128.73
514.25	0.00
514.43	35.11
514.60	25.75
514.77	53.83
514.95	42.13
515.12	107.66
515.29	25.75
515.47	95.96
515.64	86.60
515.81	30.43
515.99	95.96
516.16	95.96
516.33	58.51
516.51	35.11
516.68	0.00
516.85	30.43
517.03	84.26
517.20	93.62
517.37	42.13
517.54	88.94
517.72	32.77
517.89	39.79
518.06	121.71
518.24	39.79
518.41	39.79
518.58	49.15
518.75	42.13
518.93	21.06
519.10	0.00
519.27	7.02
519.45	0.00
519.62	63.19
519.79	18.72
519.96	16.38
520.14	25.75
520.31	77.24
520.48	63.19
520.65	44.47
520.83	32.77
521.00	44.47
521.17	7.02
521.34	23.41
521.52	32.77
521.69	39.79
521.86	14.04
522.03	35.11
522.20	42.13
522.38	21.06
522.55	21.06
522.72	25.75
522.89	25.75
523.07	58.51
523.24	28.09
523.41	30.43
523.58	42.13
523.75	65.54
523.92	16.38
524.10	0.00
524.27	53.83
524.44	70.22
524.61	46.81
524.78	67.88
524.96	56.17
525.13	21.06
525.30	93.62
525.47	93.62
525.64	16.38
525.81	32.77
525.98	102.98
526.16	21.06
526.33	102.98
526.50	30.43
526.67	46.81
526.84	58.51
527.01	0.00
527.18	72.56
527.36	4.68
527.53	56.17
527.70	88.94
527.87	11.70
528.04	25.75
528.21	67.88
528.38	11.70
528.55	14.04
528.72	9.36
528.89	21.06
529.07	32.77
529.24	60.85
529.41	86.60
529.58	37.45
529.75	56.17
529.92	2.34
530.09	0.00
530.26	74.90
530.43	7.02
530.60	81.92
530.77	67.88
530.94	65.54
531.11	9.36
531.28	21.06
531.46	0.00
531.63	18.72
531.80	18.72
531.97	0.00
532.14	2.34
532.31	88.94
532.48	84.26
532.65	93.62
532.82	53.83
532.99	95.96
533.16	28.09
533.33	0.00
533.50	14.04
533.67	100.64
533.84	44.47
534.01	84.26
534.18	0.00
534.35	117.03
534.52	44.47
534.69	51.49
534.86	7.02
535.03	14.04
535.20	23.41
535.37	72.56
535.54	35.11
535.71	14.04
535.88	70.22
536.05	30.43
536.22	14.04
536.38	81.92
536.55	0.00
536.72	14.04
536.89	51.49
537.06	79.58
537.23	18.72
537.40	28.09
537.57	0.00
537.74	14.04
537.91	70.22
538.08	65.54
538.25	70.22
538.42	79.58
538.59	28.09
538.75	39.79
538.92	30.43
539.09	107.66
539.26	37.45
539.43	60.85
539.60	42.13
539.77	88.94
539.94	60.85
540.11	56.17
540.28	18.72
540.44	16.38
540.61	65.54
540.78	4.68
540.95	58.51
541.12	79.58
541.29	60.85
541.46	70.22
541.62	16.38
541.79	58.51
541.96	91.28
542.13	70.22
542.30	114.69
542.47	18.72
542.63	11.70
542.80	98.30
542.97	53.83
543.14	35.11
543.31	28.09
543.48	65.54
543.64	51.49
543.81	32.77
543.98	74.90
544.15	126.39
544.32	70.22
544.48	11.70
544.65	37.45
544.82	53.83
544.99	56.17
545.16	95.96
545.32	74.90
545.49	56.17
545.66	0.00
545.83	16.38
546.00	91.28
546.16	30.43
546.33	0.00
546.50	72.56
546.67	74.90
546.83	21.06
547.00	88.94
547.17	7.02
547.34	0.00
547.50	42.13
547.67	23.41
547.84	25.75
548.00	0.00
548.17	0.00
548.34	60.85
548.51	11.70
548.67	58.51
548.84	65.54
549.01	37.45
549.18	42.13
549.34	0.00
549.51	0.00
549.68	18.72
549.84	39.79
550.01	51.49
550.18	0.00
550.34	79.58
550.51	30.43
550.68	21.06
550.84	4.68
551.01	49.15
551.18	51.49
551.34	105.32
551.51	131.07
551.68	7.02
551.84	4.68
552.01	60.85
552.18	110.01
552.34	72.56
552.51	88.94
552.68	65.54
552.84	0.00
553.01	67.88
553.18	16.38
553.34	49.15
553.51	44.47
553.67	4.68
553.84	30.43
554.01	63.19
554.17	72.56
554.34	32.77
554.51	77.24
554.67	79.58
554.84	65.54
555.00	60.85
555.17	84.26
555.33	131.07
555.50	72.56
555.67	28.09
555.83	0.00
556.00	67.88
556.16	0.00
556.33	0.00
556.50	67.88
556.66	39.79
556.83	21.06
556.99	86.60
557.16	128.73
557.32	30.43
557.49	35.11
557.65	2.34
557.82	44.47
557.98	67.88
558.15	7.02
558.32	0.00
558.48	102.98
558.65	28.09
558.81	49.15
558.98	84.26
559.14	0.00
559.31	46.81
559.47	25.75
559.64	63.19
559.80	60.85
559.97	39.79
560.13	0.00
560.30	39.79
560.46	11.70
560.63	11.70
560.79	65.54
560.96	49.15
561.12	53.83
561.29	9.36
561.45	72.56
561.61	65.54
561.78	2.34
561.94	81.92
562.11	32.77
562.27	72.56
562.44	0.00
562.60	14.04
562.77	0.00
562.93	63.19
563.10	60.85
563.26	11.70
563.42	0.00
563.59	88.94
563.75	32.77
563.92	51.49
564.08	77.24
564.24	18.72
564.41	44.47
564.57	0.00
564.74	119.37
564.90	107.66
565.07	2.34
565.23	91.28
565.39	39.79
565.56	49.15
565.72	42.13
565.88	65.54
566.05	51.49
566.21	91.28
566.38	0.00
566.54	35.11
566.70	39.79
566.87	102.98
567.03	95.96
567.19	9.36
567.36	0.00
567.52	0.00
567.68	95.96
567.85	53.83
568.01	0.00
568.17	0.00
568.34	0.00
568.50	112.35
568.66	42.13
568.83	105.32
568.99	39.79
569.15	49.15
569.32	0.00
569.48	42.13
569.64	91.28
569.81	42.13
569.97	44.47
570.13	9.36
570.30	44.47
570.46	131.07
570.62	37.45
570.78	63.19
570.95	28.09
571.11	18.72
571.27	74.90
571.43	88.94
571.60	51.49
571.76	49.15
571.92	44.47
572.09	35.11
572.25	16.38
572.41	58.51
572.57	93.62
572.74	128.73
572.90	0.00
573.06	35.11
573.22	126.39
573.38	39.79
573.55	58.51
573.71	32.77
573.87	88.94
574.03	0.00
574.20	72.56
574.36	21.06
574.52	51.49
574.68	44.47
574.84	9.36
575.01	23.41
575.17	18.72
575.33	44.47
575.49	60.85
575.65	0.00
575.82	65.54
575.98	79.58
576.14	46.81
576.30	86.60
576.46	30.43
576.62	9.36
576.79	16.38
576.95	14.04
577.11	72.56
577.27	42.13
577.43	86.60
577.59	131.07
577.75	0.00
577.92	0.00
578.08	0.00
578.24	86.60
578.40	105.32
578.56	49.15
578.72	16.38
578.88	0.00
579.04	81.92
579.21	77.24
579.37	0.00
579.53	77.24
579.69	11.70
579.85	44.47
580.01	51.49
580.17	23.41
580.33	107.66
580.49	2.34
580.65	0.00
580.82	9.36
580.98	88.94
581.14	4.68
581.30	70.22
581.46	44.47
581.62	0.00
581.78	46.81
581.94	30.43
582.10	30.43
582.26	95.96
582.42	11.70
582.58	95.96
582.74	0.00
582.90	98.30
583.06	102.98
583.22	44.47
583.38	46.81
583.54	42.13
583.70	35.11
583.86	79.58
584.02	65.54
584.18	60.85
584.34	56.17
584.50	175.54
584.66	1041.54
584.82	2457.56
584.98	3468.67
585.14	2949.08
585.30	1942.64
585.46	1203.04
585.62	770.04
585.78	425.98
585.94	194.26
586.10	163.84
586.26	79.58
586.42	51.49
586.58	51.49
586.74	93.62
586.90	84.26
587.06	0.00
587.22	72.56
587.38	7.02
587.54	51.49
587.70	168.52
587.86	236.39
588.02	259.80
588.18	252.78
588.34	215.33
588.49	117.03
588.65	84.26
588.81	60.85
588.97	0.00
589.13	63.19
589.29	39.79
589.45	49.15
589.61	25.75
589.77	42.13
589.93	39.79
590.08	0.00
590.24	131.07
590.40	37.45
590.56	102.98
590.72	95.96
590.88	91.28
591.04	131.07
591.20	16.38
591.35	7.02
591.51	0.00
591.67	86.60
591.83	2.34
591.99	18.72
592.15	0.00
592.31	67.88
592.46	18.72
592.62	0.00
592.78	0.00
592.94	39.79
593.10	49.15
593.26	53.83
593.41	81.92
593.57	0.00
593.73	28.09
593.89	128.73
594.05	409.59
594.20	498.53
594.36	416.62
594.52	320.65
594.68	217.67
594.84	205.97
594.99	70.22
595.15	60.85
595.31	0.00
595.47	131.07
595.62	67.88
595.78	18.72
595.94	107.66
596.10	39.79
596.25	60.85
596.41	0.00
596.57	0.00
596.73	28.09
596.88	4.68
597.04	58.51
597.20	98.30
597.36	152.13
597.51	142.77
597.67	117.03
597.83	110.01
597.99	70.22
598.14	79.58
598.30	72.56
598.46	37.45
598.61	4.68
598.77	0.00
598.93	0.00
599.09	88.94
599.24	18.72
599.40	72.56
599.56	95.96
599.71	86.60
599.87	0.00
600.03	0.00
600.18	67.88
600.34	56.17
600.50	65.54
600.65	49.15
600.81	51.49
600.97	11.70
601.12	2.34
601.28	117.03
601.44	77.24
601.59	39.79
601.75	39.79
601.91	63.19
602.06	110.01
602.22	72.56
602.37	25.75
602.53	121.71
602.69	110.01
602.84	180.22
603.00	126.39
603.16	105.32
603.31	65.54
603.47	154.48
603.62	0.00
603.78	95.96
603.94	14.04
604.09	35.11
604.25	0.00
604.40	88.94
604.56	30.43
604.71	74.90
604.87	0.00
605.03	86.60
605.18	67.88
605.34	9.36
605.49	58.51
605.65	72.56
605.80	74.90
605.96	63.19
606.12	46.81
606.27	32.77
606.43	42.13
606.58	21.06
606.74	128.73
606.89	154.48
607.05	425.98
607.20	444.70
607.36	297.25
607.51	245.76
607.67	145.11
607.82	88.94
607.98	133.41
608.13	28.09
608.29	67.88
608.44	28.09
608.60	152.13
608.75	28.09
608.91	91.28
609.06	322.99
609.22	568.75
609.37	725.57
609.53	660.03
609.68	444.70
609.84	304.27
609.99	262.14
610.15	105.32
610.30	117.03
610.46	110.01
610.61	21.06
610.76	39.79
610.92	46.81
611.07	16.38
611.23	0.00
611.38	32.77
611.54	4.68
611.69	14.04
611.84	37.45
612.00	86.60
612.15	98.30
612.31	84.26
612.46	60.85
612.62	114.69
612.77	124.05
612.92	23.41
613.08	105.32
613.23	58.51
613.39	51.49
613.54	121.71
613.69	205.97
613.85	685.78
614.00	1093.03
614.15	1053.24
614.31	807.48
614.46	606.20
614.62	395.55
614.77	184.90
614.92	135.75
615.08	119.37
615.23	63.19
615.38	107.66
615.54	63.19
615.69	95.96
615.84	220.01
616.00	264.48
616.15	341.72
616.30	161.50
616.46	208.31
616.61	147.45
616.76	79.58
616.92	74.90
617.07	49.15
617.22	32.77
617.37	7.02
617.53	42.13
617.68	18.72
617.83	67.88
617.99	16.38
618.14	49.15
618.29	72.56
618.45	196.60
618.60	30.43
618.75	18.72
618.90	14.04
619.06	0.00
619.21	0.00
619.36	86.60
619.51	32.77
619.67	65.54
619.82	35.11
619.97	35.11
620.12	58.51
620.28	105.32
620.43	72.56
620.58	81.92
620.73	51.49
620.89	51.49
621.04	56.17
621.19	23.41
621.34	203.63
621.49	177.88
621.65	182.56
621.80	135.75
621.95	152.13
622.10	67.88
622.25	60.85
622.41	11.70
622.56	58.51
622.71	58.51
622.86	35.11
623.01	110.01
623.16	63.19
623.32	67.88
623.47	2.34
623.62	0.00
623.77	42.13
623.92	39.79
624.07	18.72
624.23	14.04
624.38	77.24
624.53	11.70
624.68	37.45
624.83	72.56
624.98	0.00
625.13	0.00
625.29	51.49
625.44	46.81
625.59	37.45
625.74	72.56
625.89	65.54
626.04	173.20
626.19	344.06
626.34	554.71
626.49	636.63
626.65	437.68
626.80	308.95
626.95	238.73
627.10	149.79
627.25	86.60
627.40	86.60
627.55	53.83
627.70	74.90
627.85	4.68
628.00	56.17
628.15	63.19
628.30	49.15
628.45	114.69
628.60	7.02
628.76	74.90
628.91	49.15
629.06	79.58
629.21	18.72
629.36	0.00
629.51	11.70
629.66	25.75
629.81	98.30
629.96	119.37
630.11	173.20
630.26	84.26
630.41	180.22
630.56	133.41
630.71	154.48
630.86	88.94
631.01	124.05
631.16	30.43
631.31	53.83
631.46	9.36
631.61	0.00
631.76	0.00
631.91	46.81
632.06	67.88
632.21	0.00
632.36	21.06
632.51	0.00
632.66	14.04
632.81	77.24
632.96	166.18
633.10	337.04
633.25	411.93
633.40	330.02
633.55	311.29
633.70	191.92
633.85	133.41
634.00	74.90
634.15	63.19
634.30	72.56
634.45	28.09
634.60	30.43
634.75	37.45
634.90	110.01
635.05	79.58
635.19	63.19
635.34	74.90
635.49	46.81
635.64	56.17
635.79	105.32
635.94	0.00
636.09	30.43
636.24	77.24
636.39	0.00
636.53	0.00
636.68	4.68
636.83	14.04
636.98	56.17
637.13	37.45
637.28	88.94
637.43	49.15
637.57	0.00
637.72	194.26
637.87	475.13
638.02	543.00
638.17	748.97
638.32	528.96
638.46	358.10
638.61	271.50
638.76	149.79
638.91	65.54
639.06	100.64
639.20	2.34
639.35	49.15
639.50	51.49
639.65	238.73
639.80	706.84
639.94	1090.69
640.09	1142.18
640.24	936.21
640.39	585.13
640.54	407.25
640.68	210.65
640.83	154.48
640.98	49.15
641.13	117.03
641.27	124.05
641.42	44.47
641.57	46.81
641.72	56.17
641.86	65.54
642.01	65.54
642.16	28.09
642.31	30.43
642.45	21.06
642.60	0.00
642.75	11.70
642.90	42.13
643.04	39.79
643.19	18.72
643.34	86.60
643.48	42.13
643.63	65.54
643.78	60.85
643.93	53.83
644.07	30.43
644.22	37.45
644.37	14.04
644.51	0.00
644.66	18.72
644.81	9.36
644.95	67.88
645.10	42.13
645.25	67.88
645.39	37.45
645.54	112.35
645.69	102.98
645.83	39.79
645.98	7.02
646.13	39.79
646.27	16.38
646.42	30.43
646.57	49.15
646.71	42.13
646.86	100.64
647.00	0.00
647.15	74.90
647.30	23.41
647.44	30.43
647.59	72.56
647.74	81.92
647.88	0.00
648.03	93.62
648.17	0.00
648.32	84.26
648.47	53.83
648.61	23.41
648.76	51.49
648.90	65.54
649.05	0.00
649.20	28.09
649.34	4.68
649.49	0.00
649.63	16.38
649.78	0.00
649.92	74.90
650.07	126.39
650.21	320.65
650.36	561.73
650.51	613.22
650.65	493.85
650.80	351.08
650.94	259.80
651.09	138.09
651.23	131.07
651.38	88.94
651.52	72.56
651.67	21.06
651.81	7.02
651.96	67.88
652.10	72.56
652.25	42.13
652.39	56.17
652.54	53.83
652.68	21.06
652.83	95.96
652.97	77.24
653.12	217.67
653.26	180.22
653.41	154.48
653.55	138.09
653.70	114.69
653.84	28.09
653.99	63.19
654.13	0.00
654.27	58.51
654.42	60.85
654.56	74.90
654.71	44.47
654.85	16.38
655.00	37.45
655.14	35.11
655.29	23.41
655.43	0.00
655.57	0.00
655.72	79.58
655.86	0.00
656.01	65.54
656.15	84.26
656.30	23.41
656.44	39.79
656.58	58.51
656.73	42.13
656.87	0.00
657.01	32.77
657.16	0.00
657.30	32.77
657.45	98.30
657.59	70.22
657.73	42.13
657.88	110.01
658.02	42.13
658.16	42.13
658.31	53.83
658.45	0.00
658.60	32.77
658.74	53.83
658.88	0.00
659.03	77.24
659.17	72.56
659.31	51.49
659.46	208.31
659.60	262.14
659.74	344.06
659.89	227.03
660.03	236.39
660.17	149.79
660.32	70.22
660.46	25.75
660.60	74.90
660.74	53.83
660.89	44.47
661.03	9.36
661.17	16.38
661.32	77.24
661.46	0.00
661.60	25.75
661.74	74.90
661.89	60.85
662.03	67.88
662.17	63.19
662.31	0.00
662.46	63.19
662.60	77.24
662.74	88.94
662.88	37.45
663.03	58.51
663.17	51.49
663.31	86.60
663.45	11.70
663.60	67.88
663.74	44.47
663.88	11.70
664.02	30.43
664.17	42.13
664.31	32.77
664.45	0.00
664.59	117.03
664.73	23.41
664.88	44.47
665.02	65.54
665.16	23.41
665.30	16.38
665.44	0.00
665.59	58.51
665.73	25.75
665.87	60.85
666.01	0.00
666.15	72.56
666.29	56.17
666.44	28.09
666.58	86.60
666.72	9.36
666.86	16.38
667.00	44.47
667.14	86.60
667.28	140.43
667.43	271.50
667.57	491.51
667.71	498.53
667.85	482.15
667.99	402.57
668.13	212.99
668.27	135.75
668.41	93.62
668.56	95.96
668.70	51.49
668.84	63.19
668.98	121.71
669.12	0.00
669.26	35.11
669.40	67.88
669.54	81.92
669.68	70.22
669.82	14.04
669.96	0.00
670.10	117.03
670.25	100.64
670.39	16.38
670.53	0.00
670.67	0.00
670.81	28.09
670.95	46.81
671.09	28.09
671.23	135.75
671.37	187.24
671.51	264.48
671.65	358.10
671.79	266.82
671.93	231.71
672.07	166.18
672.21	114.69
672.35	7.02
672.49	21.06
672.63	72.56
672.77	7.02
672.91	77.24
673.05	30.43
673.19	53.83
673.33	46.81
673.47	7.02
673.61	0.00
673.75	53.83
673.89	23.41
674.03	51.49
674.17	30.43
674.31	18.72
674.45	42.13
674.59	72.56
674.73	51.49
674.87	7.02
675.01	25.75
675.15	46.81
675.29	0.00
675.43	0.00
675.56	14.04
675.70	65.54
675.84	23.41
675.98	0.00
676.12	0.00
676.26	46.81
676.40	0.00
676.54	46.81
676.68	35.11
676.82	102.98
676.96	14.04
677.10	51.49
677.23	44.47
677.37	42.13
677.51	9.36
677.65	79.58
677.79	23.41
677.93	56.17
678.07	0.00
678.21	4.68
678.34	72.56
678.48	70.22
678.62	18.72
678.76	0.00
678.90	0.00
679.04	70.22
679.18	7.02
679.31	0.00
679.45	60.85
679.59	35.11
679.73	77.24
679.87	42.13
680.00	30.43
680.14	51.49
680.28	42.13
680.42	65.54
680.56	28.09
680.70	4.68
680.83	81.92
680.97	7.02
681.11	86.60
681.25	0.00
681.39	51.49
681.52	63.19
681.66	32.77
681.80	65.54
681.94	0.00
682.07	70.22
682.21	56.17
682.35	23.41
682.49	0.00
682.62	0.00
682.76	9.36
682.90	4.68
683.04	65.54
683.17	9.36
683.31	0.00
683.45	0.00
683.59	102.98
683.72	39.79
683.86	65.54
684.00	72.56
684.13	74.90
684.27	44.47
684.41	37.45
684.55	0.00
684.68	0.00
684.82	81.92
684.96	49.15
685.09	11.70
685.23	21.06
685.37	0.00
685.50	84.26
685.64	0.00
685.78	37.45
685.91	105.32
686.05	0.00
686.19	0.00
686.32	35.11
686.46	114.69
686.60	102.98
686.73	28.09
686.87	0.00
687.01	58.51
687.14	70.22
687.28	32.77
687.42	11.70
687.55	53.83
687.69	84.26
687.82	51.49
687.96	18.72
688.10	72.56
688.23	37.45
688.37	60.85
688.50	72.56
688.64	23.41
688.78	0.00
688.91	25.75
689.05	30.43
689.18	0.00
689.32	30.43
689.46	0.00
689.59	0.00
689.73	23.41
689.86	35.11
690.00	46.81
690.13	0.00
690.27	49.15
690.41	51.49
690.54	25.75
690.68	0.00
690.81	65.54
690.95	2.34
691.08	28.09
691.22	23.41
691.35	84.26
691.49	98.30
691.62	32.77
691.76	4.68
691.89	37.45
692.03	56.17
692.16	23.41
692.30	14.04
692.43	18.72
692.57	154.48
692.70	259.80
692.84	243.42
692.97	166.18
693.11	168.52
693.24	145.11
693.38	77.24
693.51	51.49
693.65	88.94
693.78	4.68
693.92	0.00
694.05	14.04
694.19	4.68
694.32	46.81
694.45	46.81
694.59	70.22
694.72	86.60
694.86	39.79
694.99	46.81
695.13	53.83
695.26	51.49
695.39	56.17
695.53	0.00
695.66	44.47
695.80	25.75
695.93	93.62
696.07	79.58
696.20	7.02
696.33	77.24
696.47	86.60
696.60	2.34
696.73	14.04
696.87	23.41
697.00	28.09
697.14	0.00
697.27	28.09
697.40	65.54
697.54	37.45
697.67	25.75
697.80	79.58
697.94	0.00
698.07	11.70
698.21	72.56
698.34	46.81
698.47	9.36
698.61	63.19
698.74	42.13
698.87	28.09
699.01	11.70
699.14	39.79
699.27	0.00
699.40	0.00
699.54	67.88
699.67	0.00
699.80	42.13
699.94	53.83
700.07	14.04
700.20	65.54
700.34	119.37
700.47	49.15
700.60	60.85
700.73	70.22
700.87	77.24
701.00	63.19
701.13	0.00
701.26	56.17
701.40	32.77
701.53	21.06
701.66	67.88
701.79	21.06
701.93	0.00
702.06	0.00
702.19	107.66
702.32	28.09
702.46	18.72
702.59	98.30
702.72	105.32
702.85	194.26
702.99	290.23
703.12	372.15
703.25	435.34
703.38	358.10
703.51	241.08
703.65	231.71
703.78	191.92
703.91	170.86
704.04	124.05
704.17	32.77
704.31	114.69
704.44	9.36
704.57	30.43
704.70	46.81
704.83	0.00
704.96	0.00
705.10	102.98
705.23	0.00
>>>>>End Processed Spectral Data<<<<<
