SpectraSuite Data File
++++++++++++++++++++++++++++++++++++
Date: Fri Oct 04 12:13:36 GMT-05:00 2013
User: price-jones
Dark Spectrum Present: No
Reference Spectrum Present: No
Number of Sampled Component Spectra: 1
Spectrometers: USB2+H05261
Integration Time (usec): 10000 (USB2+H05261)
Spectra Averaged: 1 (USB2+H05261)
Boxcar Smoothing: 0 (USB2+H05261)
Correct for Electrical Dark: No (USB2+H05261)
Strobe/Lamp Enabled: No (USB2+H05261)
Correct for Detector Non-linearity: No (USB2+H05261)
Correct for Stray Light: No (USB2+H05261)
Number of Pixels in Processed Spectrum: 2048
>>>>>Begin Processed Spectral Data<<<<<
365.73	0.00
365.92	0.00
366.12	0.00
366.32	0.00
366.52	0.00
366.72	0.00
366.91	0.00
367.11	0.00
367.31	0.00
367.51	0.00
367.70	0.00
367.90	0.00
368.10	0.00
368.30	0.00
368.49	0.00
368.69	0.00
368.89	0.00
369.09	0.00
369.28	0.00
369.48	0.00
369.68	0.00
369.87	0.00
370.07	0.00
370.27	0.00
370.47	0.00
370.66	0.00
370.86	0.00
371.06	0.00
371.25	0.00
371.45	0.00
371.65	0.00
371.84	0.00
372.04	0.00
372.24	39.79
372.44	32.77
372.63	65.54
372.83	9.36
373.03	11.70
373.22	35.11
373.42	11.70
373.62	100.64
373.81	21.06
374.01	35.11
374.21	86.60
374.40	28.09
374.60	86.60
374.79	56.17
374.99	67.88
375.19	4.68
375.38	86.60
375.58	81.92
375.78	65.54
375.97	81.92
376.17	0.00
376.37	51.49
376.56	53.83
376.76	63.19
376.95	63.19
377.15	63.19
377.35	58.51
377.54	23.41
377.74	0.00
377.93	0.00
378.13	0.00
378.33	93.62
378.52	0.00
378.72	23.41
378.91	0.00
379.11	77.24
379.31	0.00
379.50	35.11
379.70	28.09
379.89	53.83
380.09	18.72
380.28	14.04
380.48	0.00
380.68	16.38
380.87	32.77
381.07	0.00
381.26	21.06
381.46	46.81
381.65	60.85
381.85	70.22
382.04	25.75
382.24	56.17
382.43	35.11
382.63	58.51
382.83	9.36
383.02	58.51
383.22	0.00
383.41	35.11
383.61	0.00
383.80	0.00
384.00	88.94
384.19	7.02
384.39	0.00
384.58	30.43
384.78	25.75
384.97	23.41
385.17	2.34
385.36	14.04
385.56	14.04
385.75	46.81
385.95	21.06
386.14	95.96
386.34	9.36
386.53	39.79
386.72	28.09
386.92	21.06
387.11	0.00
387.31	0.00
387.50	0.00
387.70	39.79
387.89	0.00
388.09	0.00
388.28	65.54
388.48	0.00
388.67	0.00
388.86	28.09
389.06	0.00
389.25	0.00
389.45	0.00
389.64	0.00
389.84	11.70
390.03	42.13
390.22	100.64
390.42	32.77
390.61	14.04
390.81	46.81
391.00	88.94
391.19	65.54
391.39	42.13
391.58	56.17
391.78	105.32
391.97	0.00
392.16	0.00
392.36	0.00
392.55	14.04
392.75	11.70
392.94	25.75
393.13	30.43
393.33	2.34
393.52	67.88
393.71	16.38
393.91	32.77
394.10	16.38
394.29	0.00
394.49	11.70
394.68	56.17
394.88	32.77
395.07	9.36
395.26	0.00
395.46	51.49
395.65	0.00
395.84	0.00
396.04	35.11
396.23	44.47
396.42	32.77
396.62	131.07
396.81	18.72
397.00	23.41
397.19	67.88
397.39	16.38
397.58	72.56
397.77	32.77
397.97	0.00
398.16	0.00
398.35	32.77
398.55	14.04
398.74	58.51
398.93	56.17
399.12	7.02
399.32	25.75
399.51	0.00
399.70	39.79
399.90	32.77
400.09	39.79
400.28	0.00
400.47	35.11
400.67	25.75
400.86	60.85
401.05	28.09
401.24	18.72
401.44	0.00
401.63	72.56
401.82	37.45
402.01	0.00
402.21	51.49
402.40	0.00
402.59	16.38
402.78	37.45
402.97	0.00
403.17	4.68
403.36	44.47
403.55	81.92
403.74	74.90
403.93	44.47
404.13	70.22
404.32	67.88
404.51	42.13
404.70	74.90
404.89	0.00
405.09	86.60
405.28	16.38
405.47	0.00
405.66	0.00
405.85	0.00
406.05	0.00
406.24	0.00
406.43	0.00
406.62	14.04
406.81	67.88
407.00	0.00
407.20	42.13
407.39	46.81
407.58	23.41
407.77	56.17
407.96	67.88
408.15	49.15
408.34	77.24
408.54	42.13
408.73	58.51
408.92	35.11
409.11	65.54
409.30	56.17
409.49	28.09
409.68	70.22
409.87	32.77
410.07	56.17
410.26	30.43
410.45	0.00
410.64	72.56
410.83	60.85
411.02	46.81
411.21	65.54
411.40	42.13
411.59	39.79
411.78	65.54
411.98	0.00
412.17	49.15
412.36	25.75
412.55	23.41
412.74	42.13
412.93	53.83
413.12	72.56
413.31	21.06
413.50	18.72
413.69	124.05
413.88	72.56
414.07	39.79
414.26	23.41
414.45	42.13
414.64	0.00
414.83	58.51
415.02	53.83
415.22	0.00
415.41	56.17
415.60	0.00
415.79	23.41
415.98	86.60
416.17	95.96
416.36	0.00
416.55	161.50
416.74	102.98
416.93	138.09
417.12	0.00
417.31	46.81
417.50	23.41
417.69	0.00
417.88	77.24
418.07	23.41
418.26	42.13
418.45	58.51
418.64	28.09
418.83	74.90
419.02	0.00
419.21	14.04
419.39	86.60
419.58	25.75
419.77	2.34
419.96	37.45
420.15	0.00
420.34	9.36
420.53	100.64
420.72	0.00
420.91	16.38
421.10	9.36
421.29	14.04
421.48	23.41
421.67	32.77
421.86	42.13
422.05	0.00
422.24	46.81
422.43	25.75
422.61	42.13
422.80	56.17
422.99	0.00
423.18	67.88
423.37	35.11
423.56	25.75
423.75	56.17
423.94	60.85
424.13	79.58
424.32	0.00
424.50	37.45
424.69	4.68
424.88	39.79
425.07	74.90
425.26	0.00
425.45	0.00
425.64	0.00
425.83	16.38
426.01	23.41
426.20	72.56
426.39	32.77
426.58	56.17
426.77	0.00
426.96	79.58
427.15	35.11
427.33	11.70
427.52	63.19
427.71	0.00
427.90	56.17
428.09	4.68
428.28	0.00
428.46	88.94
428.65	49.15
428.84	49.15
429.03	98.30
429.22	42.13
429.40	95.96
429.59	72.56
429.78	0.00
429.97	0.00
430.16	149.79
430.34	53.83
430.53	51.49
430.72	0.00
430.91	0.00
431.10	84.26
431.28	0.00
431.47	0.00
431.66	44.47
431.85	37.45
432.03	65.54
432.22	42.13
432.41	65.54
432.60	51.49
432.79	91.28
432.97	63.19
433.16	77.24
433.35	25.75
433.54	7.02
433.72	49.15
433.91	42.13
434.10	72.56
434.28	93.62
434.47	28.09
434.66	49.15
434.85	95.96
435.03	18.72
435.22	77.24
435.41	46.81
435.59	7.02
435.78	37.45
435.97	74.90
436.16	0.00
436.34	77.24
436.53	35.11
436.72	67.88
436.90	0.00
437.09	65.54
437.28	44.47
437.46	25.75
437.65	58.51
437.84	53.83
438.02	44.47
438.21	46.81
438.40	49.15
438.58	56.17
438.77	0.00
438.96	0.00
439.14	39.79
439.33	105.32
439.52	42.13
439.70	2.34
439.89	32.77
440.08	53.83
440.26	65.54
440.45	23.41
440.63	67.88
440.82	18.72
441.01	67.88
441.19	0.00
441.38	60.85
441.57	49.15
441.75	30.43
441.94	39.79
442.12	53.83
442.31	102.98
442.50	18.72
442.68	18.72
442.87	28.09
443.05	7.02
443.24	11.70
443.43	81.92
443.61	49.15
443.80	63.19
443.98	77.24
444.17	44.47
444.35	46.81
444.54	0.00
444.73	51.49
444.91	145.11
445.10	0.00
445.28	28.09
445.47	37.45
445.65	0.00
445.84	18.72
446.02	72.56
446.21	102.98
446.39	46.81
446.58	58.51
446.77	0.00
446.95	32.77
447.14	65.54
447.32	65.54
447.51	28.09
447.69	77.24
447.88	74.90
448.06	56.17
448.25	93.62
448.43	7.02
448.62	58.51
448.80	42.13
448.99	32.77
449.17	35.11
449.36	117.03
449.54	112.35
449.73	86.60
449.91	84.26
450.10	42.13
450.28	91.28
450.46	56.17
450.65	98.30
450.83	65.54
451.02	37.45
451.20	81.92
451.39	110.01
451.57	37.45
451.76	102.98
451.94	4.68
452.13	44.47
452.31	93.62
452.49	0.00
452.68	72.56
452.86	7.02
453.05	161.50
453.23	56.17
453.42	100.64
453.60	135.75
453.78	49.15
453.97	28.09
454.15	28.09
454.34	110.01
454.52	23.41
454.70	126.39
454.89	42.13
455.07	30.43
455.26	77.24
455.44	60.85
455.62	88.94
455.81	49.15
455.99	105.32
456.17	0.00
456.36	93.62
456.54	58.51
456.73	46.81
456.91	7.02
457.09	65.54
457.28	67.88
457.46	25.75
457.64	56.17
457.83	23.41
458.01	0.00
458.19	25.75
458.38	42.13
458.56	39.79
458.74	25.75
458.93	51.49
459.11	0.00
459.29	70.22
459.48	67.88
459.66	14.04
459.84	124.05
460.03	86.60
460.21	65.54
460.39	25.75
460.57	95.96
460.76	35.11
460.94	65.54
461.12	21.06
461.31	65.54
461.49	79.58
461.67	37.45
461.85	86.60
462.04	65.54
462.22	140.43
462.40	72.56
462.59	21.06
462.77	14.04
462.95	35.11
463.13	56.17
463.32	44.47
463.50	77.24
463.68	32.77
463.86	79.58
464.05	58.51
464.23	49.15
464.41	0.00
464.59	44.47
464.78	72.56
464.96	28.09
465.14	42.13
465.32	2.34
465.50	0.00
465.69	60.85
465.87	30.43
466.05	32.77
466.23	49.15
466.41	70.22
466.60	39.79
466.78	25.75
466.96	46.81
467.14	70.22
467.32	79.58
467.51	4.68
467.69	35.11
467.87	25.75
468.05	100.64
468.23	67.88
468.41	63.19
468.60	51.49
468.78	44.47
468.96	42.13
469.14	67.88
469.32	37.45
469.50	9.36
469.69	30.43
469.87	72.56
470.05	32.77
470.23	49.15
470.41	28.09
470.59	35.11
470.77	42.13
470.95	30.43
471.14	91.28
471.32	60.85
471.50	77.24
471.68	65.54
471.86	72.56
472.04	35.11
472.22	88.94
472.40	84.26
472.58	53.83
472.77	91.28
472.95	74.90
473.13	84.26
473.31	51.49
473.49	79.58
473.67	42.13
473.85	46.81
474.03	126.39
474.21	44.47
474.39	70.22
474.57	42.13
474.75	0.00
474.93	74.90
475.12	4.68
475.30	49.15
475.48	74.90
475.66	107.66
475.84	60.85
476.02	58.51
476.20	79.58
476.38	16.38
476.56	70.22
476.74	60.85
476.92	0.00
477.10	74.90
477.28	39.79
477.46	11.70
477.64	46.81
477.82	0.00
478.00	93.62
478.18	138.09
478.36	163.84
478.54	23.41
478.72	60.85
478.90	0.00
479.08	30.43
479.26	56.17
479.44	81.92
479.62	93.62
479.80	117.03
479.98	39.79
480.16	70.22
480.34	98.30
480.52	0.00
480.70	58.51
480.88	67.88
481.06	35.11
481.24	32.77
481.41	84.26
481.59	32.77
481.77	0.00
481.95	42.13
482.13	65.54
482.31	16.38
482.49	67.88
482.67	32.77
482.85	112.35
483.03	42.13
483.21	81.92
483.39	102.98
483.57	65.54
483.74	100.64
483.92	44.47
484.10	124.05
484.28	0.00
484.46	88.94
484.64	70.22
484.82	88.94
485.00	56.17
485.18	65.54
485.35	126.39
485.53	32.77
485.71	138.09
485.89	63.19
486.07	11.70
486.25	53.83
486.43	37.45
486.61	74.90
486.78	65.54
486.96	42.13
487.14	49.15
487.32	53.83
487.50	88.94
487.68	32.77
487.85	145.11
488.03	70.22
488.21	9.36
488.39	74.90
488.57	84.26
488.75	0.00
488.92	135.75
489.10	95.96
489.28	114.69
489.46	100.64
489.64	46.81
489.81	63.19
489.99	95.96
490.17	70.22
490.35	58.51
490.53	46.81
490.70	37.45
490.88	102.98
491.06	60.85
491.24	63.19
491.41	32.77
491.59	0.00
491.77	53.83
491.95	93.62
492.13	53.83
492.30	81.92
492.48	14.04
492.66	100.64
492.84	91.28
493.01	25.75
493.19	39.79
493.37	93.62
493.54	166.18
493.72	140.43
493.90	105.32
494.08	60.85
494.25	84.26
494.43	70.22
494.61	95.96
494.79	58.51
494.96	133.41
495.14	102.98
495.32	46.81
495.49	53.83
495.67	14.04
495.85	0.00
496.02	81.92
496.20	72.56
496.38	112.35
496.55	28.09
496.73	77.24
496.91	0.00
497.09	91.28
497.26	25.75
497.44	53.83
497.62	98.30
497.79	98.30
497.97	121.71
498.14	21.06
498.32	126.39
498.50	0.00
498.67	131.07
498.85	65.54
499.03	56.17
499.20	102.98
499.38	67.88
499.56	81.92
499.73	86.60
499.91	114.69
500.08	107.66
500.26	95.96
500.44	51.49
500.61	131.07
500.79	147.45
500.97	72.56
501.14	81.92
501.32	81.92
501.49	42.13
501.67	51.49
501.84	60.85
502.02	39.79
502.20	86.60
502.37	79.58
502.55	119.37
502.72	65.54
502.90	98.30
503.07	51.49
503.25	42.13
503.43	58.51
503.60	53.83
503.78	77.24
503.95	105.32
504.13	88.94
504.30	105.32
504.48	84.26
504.65	67.88
504.83	28.09
505.01	100.64
505.18	93.62
505.36	56.17
505.53	9.36
505.71	65.54
505.88	65.54
506.06	93.62
506.23	105.32
506.41	88.94
506.58	93.62
506.76	88.94
506.93	98.30
507.11	86.60
507.28	49.15
507.46	65.54
507.63	46.81
507.81	23.41
507.98	58.51
508.16	60.85
508.33	9.36
508.50	63.19
508.68	67.88
508.85	105.32
509.03	117.03
509.20	42.13
509.38	81.92
509.55	53.83
509.73	60.85
509.90	98.30
510.08	39.79
510.25	25.75
510.42	93.62
510.60	46.81
510.77	74.90
510.95	142.77
511.12	114.69
511.30	58.51
511.47	74.90
511.64	112.35
511.82	88.94
511.99	86.60
512.17	88.94
512.34	51.49
512.51	63.19
512.69	65.54
512.86	133.41
513.04	159.16
513.21	79.58
513.38	35.11
513.56	95.96
513.73	35.11
513.90	0.00
514.08	44.47
514.25	51.49
514.43	44.47
514.60	142.77
514.77	39.79
514.95	114.69
515.12	70.22
515.29	93.62
515.47	28.09
515.64	14.04
515.81	37.45
515.99	170.86
516.16	42.13
516.33	70.22
516.51	37.45
516.68	117.03
516.85	117.03
517.03	23.41
517.20	100.64
517.37	135.75
517.54	74.90
517.72	65.54
517.89	60.85
518.06	42.13
518.24	39.79
518.41	86.60
518.58	70.22
518.75	86.60
518.93	145.11
519.10	70.22
519.27	67.88
519.45	124.05
519.62	72.56
519.79	88.94
519.96	51.49
520.14	98.30
520.31	39.79
520.48	67.88
520.65	102.98
520.83	35.11
521.00	121.71
521.17	63.19
521.34	128.73
521.52	60.85
521.69	56.17
521.86	119.37
522.03	107.66
522.20	112.35
522.38	44.47
522.55	91.28
522.72	86.60
522.89	152.13
523.07	63.19
523.24	88.94
523.41	98.30
523.58	74.90
523.75	163.84
523.92	121.71
524.10	77.24
524.27	161.50
524.44	44.47
524.61	74.90
524.78	121.71
524.96	180.22
525.13	102.98
525.30	67.88
525.47	23.41
525.64	72.56
525.81	112.35
525.98	98.30
526.16	128.73
526.33	39.79
526.50	60.85
526.67	84.26
526.84	77.24
527.01	86.60
527.18	135.75
527.36	128.73
527.53	112.35
527.70	63.19
527.87	84.26
528.04	72.56
528.21	175.54
528.38	112.35
528.55	23.41
528.72	100.64
528.89	114.69
529.07	95.96
529.24	114.69
529.41	67.88
529.58	170.86
529.75	77.24
529.92	100.64
530.09	4.68
530.26	49.15
530.43	107.66
530.60	67.88
530.77	84.26
530.94	133.41
531.11	93.62
531.28	95.96
531.46	107.66
531.63	72.56
531.80	107.66
531.97	121.71
532.14	128.73
532.31	147.45
532.48	25.75
532.65	107.66
532.82	0.00
532.99	93.62
533.16	149.79
533.33	95.96
533.50	117.03
533.67	74.90
533.84	142.77
534.01	79.58
534.18	77.24
534.35	42.13
534.52	119.37
534.69	56.17
534.86	161.50
535.03	46.81
535.20	65.54
535.37	86.60
535.54	93.62
535.71	70.22
535.88	156.82
536.05	93.62
536.22	58.51
536.38	191.92
536.55	88.94
536.72	58.51
536.89	93.62
537.06	42.13
537.23	140.43
537.40	72.56
537.57	119.37
537.74	81.92
537.91	60.85
538.08	98.30
538.25	105.32
538.42	65.54
538.59	79.58
538.75	84.26
538.92	39.79
539.09	67.88
539.26	117.03
539.43	145.11
539.60	112.35
539.77	88.94
539.94	32.77
540.11	28.09
540.28	86.60
540.44	74.90
540.61	77.24
540.78	0.00
540.95	30.43
541.12	70.22
541.29	145.11
541.46	138.09
541.62	91.28
541.79	70.22
541.96	86.60
542.13	37.45
542.30	156.82
542.47	84.26
542.63	86.60
542.80	102.98
542.97	138.09
543.14	51.49
543.31	107.66
543.48	81.92
543.64	133.41
543.81	102.98
543.98	126.39
544.15	105.32
544.32	77.24
544.48	23.41
544.65	105.32
544.82	110.01
544.99	105.32
545.16	28.09
545.32	93.62
545.49	18.72
545.66	112.35
545.83	79.58
546.00	133.41
546.16	95.96
546.33	81.92
546.50	4.68
546.67	114.69
546.83	201.29
547.00	110.01
547.17	72.56
547.34	51.49
547.50	63.19
547.67	84.26
547.84	67.88
548.00	42.13
548.17	51.49
548.34	60.85
548.51	84.26
548.67	95.96
548.84	124.05
549.01	128.73
549.18	100.64
549.34	53.83
549.51	51.49
549.68	84.26
549.84	37.45
550.01	72.56
550.18	152.13
550.34	44.47
550.51	128.73
550.68	77.24
550.84	58.51
551.01	86.60
551.18	128.73
551.34	79.58
551.51	79.58
551.68	67.88
551.84	81.92
552.01	60.85
552.18	117.03
552.34	84.26
552.51	35.11
552.68	95.96
552.84	74.90
553.01	131.07
553.18	88.94
553.34	86.60
553.51	124.05
553.67	60.85
553.84	72.56
554.01	128.73
554.17	114.69
554.34	119.37
554.51	105.32
554.67	147.45
554.84	84.26
555.00	70.22
555.17	107.66
555.33	95.96
555.50	11.70
555.67	131.07
555.83	79.58
556.00	119.37
556.16	102.98
556.33	79.58
556.50	112.35
556.66	42.13
556.83	100.64
556.99	93.62
557.16	93.62
557.32	140.43
557.49	65.54
557.65	63.19
557.82	152.13
557.98	49.15
558.15	100.64
558.32	81.92
558.48	91.28
558.65	95.96
558.81	70.22
558.98	65.54
559.14	102.98
559.31	128.73
559.47	149.79
559.64	81.92
559.80	93.62
559.97	105.32
560.13	74.90
560.30	86.60
560.46	53.83
560.63	46.81
560.79	100.64
560.96	196.60
561.12	77.24
561.29	110.01
561.45	107.66
561.61	86.60
561.78	98.30
561.94	126.39
562.11	72.56
562.27	124.05
562.44	56.17
562.60	46.81
562.77	154.48
562.93	32.77
563.10	93.62
563.26	37.45
563.42	138.09
563.59	86.60
563.75	63.19
563.92	93.62
564.08	30.43
564.24	58.51
564.41	18.72
564.57	86.60
564.74	70.22
564.90	67.88
565.07	124.05
565.23	60.85
565.39	77.24
565.56	107.66
565.72	91.28
565.88	91.28
566.05	23.41
566.21	84.26
566.38	70.22
566.54	119.37
566.70	60.85
566.87	53.83
567.03	98.30
567.19	168.52
567.36	91.28
567.52	28.09
567.68	124.05
567.85	131.07
568.01	77.24
568.17	121.71
568.34	88.94
568.50	7.02
568.66	0.00
568.83	112.35
568.99	25.75
569.15	81.92
569.32	51.49
569.48	91.28
569.64	91.28
569.81	70.22
569.97	39.79
570.13	14.04
570.30	46.81
570.46	21.06
570.62	32.77
570.78	46.81
570.95	79.58
571.11	102.98
571.27	142.77
571.43	46.81
571.60	28.09
571.76	135.75
571.92	166.18
572.09	65.54
572.25	110.01
572.41	100.64
572.57	67.88
572.74	182.56
572.90	110.01
573.06	117.03
573.22	98.30
573.38	44.47
573.55	2.34
573.71	110.01
573.87	77.24
574.03	39.79
574.20	102.98
574.36	39.79
574.52	67.88
574.68	39.79
574.84	67.88
575.01	102.98
575.17	28.09
575.33	147.45
575.49	81.92
575.65	93.62
575.82	65.54
575.98	110.01
576.14	112.35
576.30	86.60
576.46	49.15
576.62	128.73
576.79	37.45
576.95	86.60
577.11	39.79
577.27	42.13
577.43	51.49
577.59	74.90
577.75	37.45
577.92	107.66
578.08	53.83
578.24	110.01
578.40	58.51
578.56	110.01
578.72	124.05
578.88	107.66
579.04	93.62
579.21	110.01
579.37	110.01
579.53	51.49
579.69	28.09
579.85	32.77
580.01	110.01
580.17	110.01
580.33	91.28
580.49	128.73
580.65	49.15
580.82	30.43
580.98	72.56
581.14	23.41
581.30	23.41
581.46	23.41
581.62	117.03
581.78	23.41
581.94	53.83
582.10	79.58
582.26	88.94
582.42	58.51
582.58	105.32
582.74	44.47
582.90	105.32
583.06	74.90
583.22	65.54
583.38	93.62
583.54	67.88
583.70	98.30
583.86	98.30
584.02	110.01
584.18	107.66
584.34	152.13
584.50	63.19
584.66	63.19
584.82	86.60
584.98	84.26
585.14	128.73
585.30	107.66
585.46	81.92
585.62	18.72
585.78	49.15
585.94	11.70
586.10	67.88
586.26	119.37
586.42	114.69
586.58	65.54
586.74	98.30
586.90	65.54
587.06	60.85
587.22	131.07
587.38	117.03
587.54	16.38
587.70	46.81
587.86	100.64
588.02	60.85
588.18	14.04
588.34	51.49
588.49	0.00
588.65	42.13
588.81	77.24
588.97	112.35
589.13	107.66
589.29	72.56
589.45	72.56
589.61	39.79
589.77	65.54
589.93	16.38
590.08	30.43
590.24	0.00
590.40	70.22
590.56	39.79
590.72	128.73
590.88	107.66
591.04	86.60
591.20	16.38
591.35	93.62
591.51	42.13
591.67	86.60
591.83	25.75
591.99	100.64
592.15	11.70
592.31	93.62
592.46	7.02
592.62	44.47
592.78	46.81
592.94	72.56
593.10	51.49
593.26	51.49
593.41	18.72
593.57	0.00
593.73	81.92
593.89	91.28
594.05	42.13
594.20	46.81
594.36	95.96
594.52	37.45
594.68	56.17
594.84	98.30
594.99	23.41
595.15	74.90
595.31	100.64
595.47	72.56
595.62	145.11
595.78	21.06
595.94	70.22
596.10	44.47
596.25	86.60
596.41	126.39
596.57	65.54
596.73	110.01
596.88	16.38
597.04	114.69
597.20	72.56
597.36	156.82
597.51	131.07
597.67	56.17
597.83	70.22
597.99	77.24
598.14	65.54
598.30	145.11
598.46	88.94
598.61	23.41
598.77	42.13
598.93	88.94
599.09	70.22
599.24	67.88
599.40	44.47
599.56	46.81
599.71	107.66
599.87	105.32
600.03	49.15
600.18	100.64
600.34	177.88
600.50	91.28
600.65	9.36
600.81	67.88
600.97	128.73
601.12	39.79
601.28	88.94
601.44	107.66
601.59	70.22
601.75	126.39
601.91	93.62
602.06	112.35
602.22	91.28
602.37	18.72
602.53	70.22
602.69	112.35
602.84	42.13
603.00	95.96
603.16	21.06
603.31	100.64
603.47	77.24
603.62	88.94
603.78	95.96
603.94	107.66
604.09	9.36
604.25	91.28
604.40	91.28
604.56	72.56
604.71	9.36
604.87	32.77
605.03	30.43
605.18	53.83
605.34	72.56
605.49	58.51
605.65	53.83
605.80	81.92
605.96	84.26
606.12	79.58
606.27	28.09
606.43	53.83
606.58	91.28
606.74	37.45
606.89	0.00
607.05	53.83
607.20	0.00
607.36	44.47
607.51	112.35
607.67	119.37
607.82	18.72
607.98	77.24
608.13	9.36
608.29	21.06
608.44	86.60
608.60	16.38
608.75	79.58
608.91	46.81
609.06	140.43
609.22	81.92
609.37	100.64
609.53	14.04
609.68	4.68
609.84	86.60
609.99	16.38
610.15	114.69
610.30	110.01
610.46	74.90
610.61	102.98
610.76	81.92
610.92	67.88
611.07	100.64
611.23	100.64
611.38	67.88
611.54	32.77
611.69	112.35
611.84	23.41
612.00	58.51
612.15	0.00
612.31	124.05
612.46	95.96
612.62	60.85
612.77	14.04
612.92	121.71
613.08	35.11
613.23	25.75
613.39	88.94
613.54	65.54
613.69	21.06
613.85	72.56
614.00	98.30
614.15	105.32
614.31	4.68
614.46	91.28
614.62	63.19
614.77	74.90
614.92	25.75
615.08	60.85
615.23	2.34
615.38	107.66
615.54	7.02
615.69	23.41
615.84	37.45
616.00	67.88
616.15	70.22
616.30	44.47
616.46	58.51
616.61	128.73
616.76	21.06
616.92	74.90
617.07	74.90
617.22	58.51
617.37	35.11
617.53	25.75
617.68	32.77
617.83	23.41
617.99	114.69
618.14	37.45
618.29	84.26
618.45	65.54
618.60	65.54
618.75	0.00
618.90	18.72
619.06	23.41
619.21	16.38
619.36	18.72
619.51	11.70
619.67	102.98
619.82	25.75
619.97	44.47
620.12	56.17
620.28	49.15
620.43	74.90
620.58	65.54
620.73	49.15
620.89	23.41
621.04	77.24
621.19	23.41
621.34	65.54
621.49	11.70
621.65	23.41
621.80	42.13
621.95	37.45
622.10	114.69
622.25	46.81
622.41	60.85
622.56	0.00
622.71	74.90
622.86	39.79
623.01	60.85
623.16	98.30
623.32	67.88
623.47	93.62
623.62	86.60
623.77	128.73
623.92	51.49
624.07	86.60
624.23	0.00
624.38	91.28
624.53	56.17
624.68	0.00
624.83	79.58
624.98	107.66
625.13	177.88
625.29	58.51
625.44	39.79
625.59	25.75
625.74	32.77
625.89	0.00
626.04	102.98
626.19	102.98
626.34	131.07
626.49	67.88
626.65	16.38
626.80	77.24
626.95	0.00
627.10	46.81
627.25	98.30
627.40	2.34
627.55	39.79
627.70	88.94
627.85	53.83
628.00	11.70
628.15	142.77
628.30	0.00
628.45	110.01
628.60	14.04
628.76	49.15
628.91	81.92
629.06	70.22
629.21	117.03
629.36	35.11
629.51	32.77
629.66	70.22
629.81	16.38
629.96	25.75
630.11	42.13
630.26	2.34
630.41	30.43
630.56	86.60
630.71	51.49
630.86	77.24
631.01	42.13
631.16	42.13
631.31	37.45
631.46	124.05
631.61	63.19
631.76	25.75
631.91	93.62
632.06	53.83
632.21	74.90
632.36	110.01
632.51	42.13
632.66	93.62
632.81	46.81
632.96	11.70
633.10	102.98
633.25	91.28
633.40	81.92
633.55	32.77
633.70	44.47
633.85	35.11
634.00	28.09
634.15	74.90
634.30	60.85
634.45	0.00
634.60	58.51
634.75	56.17
634.90	67.88
635.05	53.83
635.19	9.36
635.34	81.92
635.49	32.77
635.64	28.09
635.79	28.09
635.94	128.73
636.09	149.79
636.24	49.15
636.39	35.11
636.53	0.00
636.68	35.11
636.83	7.02
636.98	37.45
637.13	124.05
637.28	110.01
637.43	9.36
637.57	100.64
637.72	51.49
637.87	72.56
638.02	100.64
638.17	102.98
638.32	30.43
638.46	39.79
638.61	112.35
638.76	44.47
638.91	44.47
639.06	51.49
639.20	23.41
639.35	51.49
639.50	39.79
639.65	70.22
639.80	63.19
639.94	98.30
640.09	51.49
640.24	53.83
640.39	18.72
640.54	4.68
640.68	63.19
640.83	84.26
640.98	0.00
641.13	81.92
641.27	30.43
641.42	58.51
641.57	32.77
641.72	16.38
641.86	53.83
642.01	95.96
642.16	102.98
642.31	44.47
642.45	30.43
642.60	0.00
642.75	4.68
642.90	53.83
643.04	63.19
643.19	11.70
643.34	0.00
643.48	56.17
643.63	77.24
643.78	30.43
643.93	30.43
644.07	124.05
644.22	86.60
644.37	72.56
644.51	88.94
644.66	93.62
644.81	79.58
644.95	60.85
645.10	98.30
645.25	30.43
645.39	58.51
645.54	7.02
645.69	72.56
645.83	18.72
645.98	11.70
646.13	79.58
646.27	117.03
646.42	46.81
646.57	81.92
646.71	46.81
646.86	77.24
647.00	91.28
647.15	58.51
647.30	35.11
647.44	70.22
647.59	0.00
647.74	84.26
647.88	30.43
648.03	18.72
648.17	77.24
648.32	56.17
648.47	74.90
648.61	70.22
648.76	72.56
648.90	65.54
649.05	79.58
649.20	37.45
649.34	60.85
649.49	60.85
649.63	0.00
649.78	58.51
649.92	86.60
650.07	51.49
650.21	58.51
650.36	49.15
650.51	53.83
650.65	100.64
650.80	98.30
650.94	81.92
651.09	74.90
651.23	25.75
651.38	126.39
651.52	63.19
651.67	67.88
651.81	100.64
651.96	67.88
652.10	91.28
652.25	46.81
652.39	91.28
652.54	30.43
652.68	0.00
652.83	23.41
652.97	79.58
653.12	60.85
653.26	0.00
653.41	88.94
653.55	11.70
653.70	7.02
653.84	11.70
653.99	18.72
654.13	21.06
654.27	119.37
654.42	23.41
654.56	58.51
654.71	72.56
654.85	21.06
655.00	67.88
655.14	53.83
655.29	56.17
655.43	58.51
655.57	70.22
655.72	65.54
655.86	53.83
656.01	67.88
656.15	63.19
656.30	11.70
656.44	84.26
656.58	100.64
656.73	4.68
656.87	53.83
657.01	70.22
657.16	93.62
657.30	93.62
657.45	7.02
657.59	4.68
657.73	49.15
657.88	65.54
658.02	84.26
658.16	63.19
658.31	91.28
658.45	16.38
658.60	91.28
658.74	88.94
658.88	107.66
659.03	4.68
659.17	23.41
659.31	72.56
659.46	77.24
659.60	138.09
659.74	65.54
659.89	63.19
660.03	60.85
660.17	28.09
660.32	46.81
660.46	32.77
660.60	93.62
660.74	53.83
660.89	121.71
661.03	72.56
661.17	4.68
661.32	56.17
661.46	21.06
661.60	77.24
661.74	126.39
661.89	25.75
662.03	35.11
662.17	67.88
662.31	0.00
662.46	0.00
662.60	67.88
662.74	77.24
662.88	30.43
663.03	63.19
663.17	37.45
663.31	74.90
663.45	0.00
663.60	74.90
663.74	74.90
663.88	79.58
664.02	30.43
664.17	16.38
664.31	30.43
664.45	23.41
664.59	42.13
664.73	32.77
664.88	56.17
665.02	74.90
665.16	37.45
665.30	42.13
665.44	21.06
665.59	37.45
665.73	65.54
665.87	86.60
666.01	46.81
666.15	81.92
666.29	30.43
666.44	21.06
666.58	42.13
666.72	14.04
666.86	95.96
667.00	98.30
667.14	0.00
667.28	72.56
667.43	88.94
667.57	35.11
667.71	58.51
667.85	63.19
667.99	79.58
668.13	23.41
668.27	28.09
668.41	21.06
668.56	37.45
668.70	0.00
668.84	60.85
668.98	102.98
669.12	86.60
669.26	44.47
669.40	9.36
669.54	21.06
669.68	70.22
669.82	4.68
669.96	37.45
670.10	84.26
670.25	77.24
670.39	65.54
670.53	16.38
670.67	0.00
670.81	93.62
670.95	7.02
671.09	0.00
671.23	46.81
671.37	84.26
671.51	60.85
671.65	49.15
671.79	16.38
671.93	4.68
672.07	39.79
672.21	0.00
672.35	0.00
672.49	100.64
672.63	37.45
672.77	51.49
672.91	135.75
673.05	23.41
673.19	114.69
673.33	84.26
673.47	138.09
673.61	53.83
673.75	51.49
673.89	11.70
674.03	46.81
674.17	98.30
674.31	88.94
674.45	65.54
674.59	42.13
674.73	4.68
674.87	9.36
675.01	114.69
675.15	63.19
675.29	63.19
675.43	2.34
675.56	102.98
675.70	58.51
675.84	49.15
675.98	51.49
676.12	95.96
676.26	65.54
676.40	0.00
676.54	28.09
676.68	21.06
676.82	42.13
676.96	42.13
677.10	2.34
677.23	0.00
677.37	14.04
677.51	0.00
677.65	0.00
677.79	0.00
677.93	0.00
678.07	7.02
678.21	65.54
678.34	100.64
678.48	30.43
678.62	0.00
678.76	4.68
678.90	46.81
679.04	0.00
679.18	37.45
679.31	30.43
679.45	93.62
679.59	53.83
679.73	11.70
679.87	46.81
680.00	16.38
680.14	58.51
680.28	114.69
680.42	25.75
680.56	39.79
680.70	0.00
680.83	56.17
680.97	42.13
681.11	30.43
681.25	21.06
681.39	93.62
681.52	0.00
681.66	95.96
681.80	58.51
681.94	0.00
682.07	95.96
682.21	70.22
682.35	9.36
682.49	18.72
682.62	88.94
682.76	37.45
682.90	7.02
683.04	39.79
683.17	105.32
683.31	30.43
683.45	16.38
683.59	44.47
683.72	56.17
683.86	25.75
684.00	28.09
684.13	11.70
684.27	74.90
684.41	42.13
684.55	0.00
684.68	53.83
684.82	0.00
684.96	46.81
685.09	93.62
685.23	51.49
685.37	56.17
685.50	39.79
685.64	14.04
685.78	84.26
685.91	105.32
686.05	16.38
686.19	49.15
686.32	138.09
686.46	0.00
686.60	30.43
686.73	100.64
686.87	53.83
687.01	74.90
687.14	0.00
687.28	28.09
687.42	53.83
687.55	23.41
687.69	16.38
687.82	28.09
687.96	4.68
688.10	9.36
688.23	32.77
688.37	51.49
688.50	44.47
688.64	100.64
688.78	81.92
688.91	49.15
689.05	30.43
689.18	114.69
689.32	0.00
689.46	0.00
689.59	16.38
689.73	39.79
689.86	0.00
690.00	100.64
690.13	25.75
690.27	0.00
690.41	107.66
690.54	39.79
690.68	44.47
690.81	0.00
690.95	58.51
691.08	86.60
691.22	65.54
691.35	81.92
691.49	60.85
691.62	35.11
691.76	63.19
691.89	65.54
692.03	74.90
692.16	98.30
692.30	18.72
692.43	63.19
692.57	0.00
692.70	0.00
692.84	49.15
692.97	58.51
693.11	67.88
693.24	0.00
693.38	46.81
693.51	14.04
693.65	60.85
693.78	42.13
693.92	4.68
694.05	60.85
694.19	39.79
694.32	0.00
694.45	9.36
694.59	23.41
694.72	25.75
694.86	60.85
694.99	58.51
695.13	42.13
695.26	49.15
695.39	56.17
695.53	63.19
695.66	58.51
695.80	44.47
695.93	0.00
696.07	39.79
696.20	81.92
696.33	77.24
696.47	25.75
696.60	42.13
696.73	7.02
696.87	0.00
697.00	72.56
697.14	95.96
697.27	35.11
697.40	72.56
697.54	39.79
697.67	23.41
697.80	46.81
697.94	21.06
698.07	14.04
698.21	0.00
698.34	67.88
698.47	0.00
698.61	4.68
698.74	4.68
698.87	77.24
699.01	9.36
699.14	32.77
699.27	4.68
699.40	58.51
699.54	0.00
699.67	91.28
699.80	0.00
699.94	56.17
700.07	44.47
700.20	4.68
700.34	77.24
700.47	0.00
700.60	0.00
700.73	0.00
700.87	0.00
701.00	44.47
701.13	0.00
701.26	0.00
701.40	53.83
701.53	0.00
701.66	0.00
701.79	44.47
701.93	0.00
702.06	9.36
702.19	18.72
702.32	77.24
702.46	0.00
702.59	14.04
702.72	65.54
702.85	63.19
702.99	25.75
703.12	70.22
703.25	23.41
703.38	56.17
703.51	81.92
703.65	124.05
703.78	0.00
703.91	110.01
704.04	14.04
704.17	46.81
704.31	21.06
704.44	30.43
704.57	0.00
704.70	100.64
704.83	25.75
704.96	63.19
705.10	58.51
705.23	18.72
>>>>>End Processed Spectral Data<<<<<
